BOXY.EXE: ISS Imagent and Oximeter Data Acquisition Program Version 0.80
Ascii Record File

#ACQ INFORMATION
2  Detector Channels 
16  External MUX Channels 
1  Auxiliary Channels 
5000  Waveform (CCF) Frequency (Hz)
1  Waveforms Skipped 
30  Waveforms Averaged 
1  Cycles Averaged 
16  Acquisitions per Waveform 
10.0806  Updata Rate (Hz) 

#FILE INFORMATION
TRUE -- External MUX Channel results are PARSED.
FALSE -- AC DC and Phase are NOT grouped.
TRUE -- Companion Program Settings File CREATED.
FALSE -- AC data not excluded
FALSE -- DC data not excluded
FALSE -- Phase data not excluded
FALSE -- Auxillary Chn. data not excluded
Tab delimiters

#CALIBRATION STATE
TRUE -- Waveform Calibration Values APPLIED.


#AUX CALIBRATION VALUES
Val Type	aux-1	

Term	1.0000e+00	
Factor	0.0000e+00	


#WF CALIBRATION VALUES
A = Detector Channel
Val Type	A-AC1	A-AC2	A-AC3	A-AC4	A-AC5	A-AC6	A-AC7	A-AC8	A-AC9	A-AC10	A-AC11	A-AC12	A-AC13	A-AC14	A-AC15	A-AC16	A-DC1	A-DC2	A-DC3	A-DC4	A-DC5	A-DC6	A-DC7	A-DC8	A-DC9	A-DC10	A-DC11	A-DC12	A-DC13	A-DC14	A-DC15	A-DC16	A-Ph1	A-Ph2	A-Ph3	A-Ph4	A-Ph5	A-Ph6	A-Ph7	A-Ph8	A-Ph9	A-Ph10	A-Ph11	A-Ph12	A-Ph13	A-Ph14	A-Ph15	A-Ph16	

Term	0.00000e+00	0.00000e+00	0.00000e+00	0.00000e+00	0.00000e+00	0.00000e+00	0.00000e+00	0.00000e+00	0.00000e+00	0.00000e+00	0.00000e+00	0.00000e+00	0.00000e+00	0.00000e+00	0.00000e+00	0.00000e+00	0.00000e+00	0.00000e+00	0.00000e+00	0.00000e+00	0.00000e+00	0.00000e+00	0.00000e+00	0.00000e+00	0.00000e+00	0.00000e+00	0.00000e+00	0.00000e+00	0.00000e+00	0.00000e+00	0.00000e+00	0.00000e+00	0.00000e+00	0.00000e+00	0.00000e+00	0.00000e+00	0.00000e+00	0.00000e+00	0.00000e+00	0.00000e+00	0.00000e+00	0.00000e+00	0.00000e+00	0.00000e+00	0.00000e+00	0.00000e+00	0.00000e+00	0.00000e+00	
Factor	1.00000e+00	1.00000e+00	1.00000e+00	1.00000e+00	1.00000e+00	1.00000e+00	1.00000e+00	1.00000e+00	1.00000e+00	1.00000e+00	1.00000e+00	1.00000e+00	1.00000e+00	1.00000e+00	1.00000e+00	1.00000e+00	1.00000e+00	1.00000e+00	1.00000e+00	1.00000e+00	1.00000e+00	1.00000e+00	1.00000e+00	1.00000e+00	1.00000e+00	1.00000e+00	1.00000e+00	1.00000e+00	1.00000e+00	1.00000e+00	1.00000e+00	1.00000e+00	X	X	X	X	X	X	X	X	X	X	X	X	X	X	X	X	

B = Detector Channel
Val Type	B-AC1	B-AC2	B-AC3	B-AC4	B-AC5	B-AC6	B-AC7	B-AC8	B-AC9	B-AC10	B-AC11	B-AC12	B-AC13	B-AC14	B-AC15	B-AC16	B-DC1	B-DC2	B-DC3	B-DC4	B-DC5	B-DC6	B-DC7	B-DC8	B-DC9	B-DC10	B-DC11	B-DC12	B-DC13	B-DC14	B-DC15	B-DC16	B-Ph1	B-Ph2	B-Ph3	B-Ph4	B-Ph5	B-Ph6	B-Ph7	B-Ph8	B-Ph9	B-Ph10	B-Ph11	B-Ph12	B-Ph13	B-Ph14	B-Ph15	B-Ph16	

Term	0.00000e+00	0.00000e+00	0.00000e+00	0.00000e+00	0.00000e+00	0.00000e+00	0.00000e+00	0.00000e+00	0.00000e+00	0.00000e+00	0.00000e+00	0.00000e+00	0.00000e+00	0.00000e+00	0.00000e+00	0.00000e+00	0.00000e+00	0.00000e+00	0.00000e+00	0.00000e+00	0.00000e+00	0.00000e+00	0.00000e+00	0.00000e+00	0.00000e+00	0.00000e+00	0.00000e+00	0.00000e+00	0.00000e+00	0.00000e+00	0.00000e+00	0.00000e+00	-1.27073e+02	-1.37189e+02	-1.14034e+02	-1.82642e+02	-6.77074e+01	-7.36674e+01	-1.55275e+02	-1.62015e+02	-8.16783e+01	-5.49491e+01	-1.72245e+02	-1.69834e+02	-1.79515e+02	-1.77360e+02	-7.51326e+01	-1.49195e+02	
Factor	1.75894e-05	1.35949e-04	4.03037e-05	1.76583e-01	1.21743e-06	1.73254e-06	1.64385e-01	4.98919e-02	1.01420e-06	1.41505e-06	9.45280e-02	2.88164e-02	2.76675e-02	9.24122e-03	1.14402e-06	1.32298e-02	1.94680e-06	2.10307e-06	5.83844e-07	8.62186e-02	2.28121e-08	2.29967e-08	7.60499e-02	2.45492e-02	2.27457e-08	2.30251e-08	4.47580e-02	1.37852e-02	1.36628e-02	4.53901e-03	2.28964e-08	6.30002e-03	X	X	X	X	X	X	X	X	X	X	X	X	X	X	X	X	



#DISTANCE SETTINGS
A = Detector Channel
A-1	A-2	A-3	A-4	A-5	A-6	A-7	A-8	A-9	A-10	A-11	A-12	A-13	A-14	A-15	A-16	

2.5000e+00	3.0000e+00	2.5000e+00	3.0000e+00	2.0000e+00	3.0000e+00	1.5000e+00	3.0000e+00	3.0000e+00	3.0000e+00	3.0000e+00	3.0000e+00	3.0000e+00	3.0000e+00	1.5000e+00	3.0000e+00	

B = Detector Channel
B-1	B-2	B-3	B-4	B-5	B-6	B-7	B-8	B-9	B-10	B-11	B-12	B-13	B-14	B-15	B-16	

1.0000e+01	1.0000e+01	1.0000e+01	1.4400e+00	1.0000e+01	1.0000e+01	1.5100e+00	1.9400e+00	1.0000e+01	1.0000e+01	1.9900e+00	2.4900e+00	2.4100e+00	2.9000e+00	1.0000e+01	2.9800e+00	




#DATA BEGINS
time	group	step	mark	flag	A-AC1	A-AC2	A-AC3	A-AC4	A-AC5	A-AC6	A-AC7	A-AC8	A-AC9	A-AC10	A-AC11	A-AC12	A-AC13	A-AC14	A-AC15	A-AC16	A-DC1	A-DC2	A-DC3	A-DC4	A-DC5	A-DC6	A-DC7	A-DC8	A-DC9	A-DC10	A-DC11	A-DC12	A-DC13	A-DC14	A-DC15	A-DC16	A-Ph1	A-Ph2	A-Ph3	A-Ph4	A-Ph5	A-Ph6	A-Ph7	A-Ph8	A-Ph9	A-Ph10	A-Ph11	A-Ph12	A-Ph13	A-Ph14	A-Ph15	A-Ph16	B-AC1	B-AC2	B-AC3	B-AC4	B-AC5	B-AC6	B-AC7	B-AC8	B-AC9	B-AC10	B-AC11	B-AC12	B-AC13	B-AC14	B-AC15	B-AC16	B-DC1	B-DC2	B-DC3	B-DC4	B-DC5	B-DC6	B-DC7	B-DC8	B-DC9	B-DC10	B-DC11	B-DC12	B-DC13	B-DC14	B-DC15	B-DC16	B-Ph1	B-Ph2	B-Ph3	B-Ph4	B-Ph5	B-Ph6	B-Ph7	B-Ph8	B-Ph9	B-Ph10	B-Ph11	B-Ph12	B-Ph13	B-Ph14	B-Ph15	B-Ph16	aux-1	digaux	

32098.266	1	1	0	256	0.23302	0.223	0.081861	0.10632	0.15387	0.32909	0.15868	0.14958	0.24171	0.017035	0.118	0.091101	0.22626	0.3038	0.12153	0.26312	-2.8583	-3.0917	-2.925	-3.4437	-3.0083	-3.0812	-3.3646	-3.1562	-3.425	-3.2583	-2.9333	-3.3812	-3.0542	-3.0729	-3.1854	-3.0375	412.101	260.038	218.854	163.666	269.921	446.972	417.192	396.977	433.134	334.776	380.450	338.241	469.941	423.274	320.370	444.558	0.00053753	0.0002567	0.00014744	1436.7	4.0443e-06	8.5419e-06	1436.5	391.36	5.5921e-06	1.4918e-06	442.07	147.09	128.34	44.09	2.5881e-06	54.125	0.00058786	0.0005956	0.00016361	1457.5	6.4778e-06	6.5464e-06	1456.9	397.76	6.4887e-06	6.4749e-06	451.15	150.65	131.06	45.166	6.4974e-06	55.635	192.380	225.689	280.691	161.580	242.970	296.965	161.261	166.214	276.718	290.260	165.586	169.597	170.345	175.144	318.629	174.261	-8191	255	
32098.385	1	1	0	0	0.11982	0.1155	0.054969	0.295	0.22651	0.061492	0.33212	0.39173	0.16861	0.16119	0.20292	0.1162	0.27515	0.080641	0.20188	0.19089	-2.7062	-3.2146	-2.8354	-3.4917	-3.1562	-3.0604	-3.55	-3.1063	-3.2271	-3.1083	-3.1688	-3.3167	-2.9104	-3.0687	-3.1542	-3.0979	182.342	312.710	482.327	473.809	429.595	415.274	476.029	466.951	316.943	252.763	177.771	392.004	427.377	367.208	473.325	164.039	0.00056869	0.00060042	7.1411e-05	1435.7	4.1531e-06	7.9764e-06	1435.9	389.96	3.4606e-06	7.2673e-06	442.96	146.88	128.67	43.99	4.9535e-06	54.105	0.00058853	0.00059877	0.00016516	1458.9	6.4746e-06	6.4829e-06	1454.9	397.21	6.5209e-06	6.5439e-06	451.46	150.38	131.35	45.138	6.499e-06	55.619	184.809	240.942	184.372	161.684	252.076	304.456	161.448	166.054	243.096	293.908	165.439	169.593	170.116	174.918	260.892	174.121	-8191	255	
32098.480	1	1	0	0	0.066587	0.19343	0.25817	0.25491	0.10291	0.042111	0.10073	0.067141	0.25969	0.090957	0.10052	0.24435	0.097671	0.14217	0.18211	0.106	-2.7104	-3.0875	-2.8146	-3.425	-3.0521	-3.0271	-3.4708	-3.1729	-3.0354	-3.2125	-3.0792	-3.3063	-3.175	-3.1667	-3.0729	-3.1063	212.158	194.666	293.802	477.213	194.986	298.725	406.487	464.581	443.878	376.512	494.762	437.517	483.084	150.398	470.518	256.924	0.00058461	0.00042333	0.00011128	1440.4	6.5079e-06	6.0711e-06	1435.3	390.83	7.8671e-06	1.1919e-06	443.04	147.02	128.05	43.967	7.2755e-07	54.064	0.00059824	0.00060245	0.00016537	1457.1	6.5183e-06	6.5322e-06	1456.6	397.47	6.467e-06	6.5264e-06	452.16	150.45	131.19	45.117	6.4632e-06	55.643	195.009	242.768	292.808	161.650	255.423	360.785	161.497	166.036	302.031	321.387	165.741	169.435	170.128	175.170	315.382	174.216	-8191	255	
32098.578	1	1	0	0	0.25878	0.15991	0.26543	0.16496	0.20703	0.073877	0.16787	0.35904	0.19571	0.1016	0.26175	0.089219	0.29503	0.043871	0.16388	0.13963	-2.5875	-3.2979	-2.8187	-3.3917	-3.2229	-2.8563	-3.4813	-2.9854	-3.2125	-3.2583	-3.1188	-3.3417	-3.125	-3.0021	-3.1417	-3.0167	359.696	168.360	271.863	427.719	281.913	419.123	436.872	496.405	401.233	507.245	175.921	150.611	150.265	218.526	479.821	334.485	0.00056211	0.00052975	0.00016578	1435.7	2.4202e-06	3.9159e-06	1427.8	390.11	3.5231e-06	5.4609e-06	441.41	146.4	128.28	43.88	1.9034e-06	53.946	0.00059408	0.00059803	0.00016358	1455.5	6.5727e-06	6.4841e-06	1454.8	397.2	6.5259e-06	6.5004e-06	451.06	150.22	131.3	45.132	6.4536e-06	55.621	193.437	192.313	241.367	161.719	318.912	208.072	161.423	166.251	301.842	269.550	165.518	169.665	170.259	174.964	283.178	173.924	-8191	255	
32098.674	1	1	0	0	0.16782	0.27274	0.11851	0.18988	0.22601	0.33275	0.32112	0.31045	0.093487	0.098227	0.10616	0.041065	0.019084	0.17958	0.16047	0.23303	-2.4917	-3.1917	-3.0667	-3.3417	-3.1208	-2.9917	-3.6104	-3.0687	-2.9938	-3.2333	-3.1479	-3.3625	-3.3583	-3.1146	-3.2479	-3.2292	483.317	324.996	502.550	430.255	189.627	317.061	429.771	436.951	438.106	215.731	461.087	151.103	393.577	455.950	201.481	458.102	0.00059407	0.0003465	2.556e-05	1431.9	4.7369e-06	2.9853e-06	1430.8	390.22	3.027e-06	7.0316e-06	441.99	146.82	128.51	43.755	1.2693e-06	54.011	0.00059452	0.00059499	0.00016341	1455.3	6.5673e-06	6.4548e-06	1454.9	397.31	6.5261e-06	6.4827e-06	451.25	150.43	131.17	45.021	6.4712e-06	55.627	194.613	188.114	257.921	161.588	284.633	376.316	161.280	166.056	285.917	308.883	165.566	169.567	170.235	174.899	284.880	174.712	-8191	255	
32098.770	1	1	0	0	0.2309	0.076473	0.22576	0.21683	0.37133	0.29382	0.20571	0.25037	0.10022	0.016632	0.17928	0.19153	0.0357	0.15788	0.048488	0.2086	-2.6729	-3.3375	-2.9437	-3.2958	-3.3	-2.9292	-3.4667	-3.4292	-3.0271	-3.4313	-3.1104	-3.1417	-3.4062	-2.9979	-3.3896	-3.1979	199.719	342.643	387.316	208.835	356.238	262.488	405.316	378.086	351.990	430.127	338.948	457.650	496.336	455.569	390.099	468.229	0.00060246	0.00059237	0.00023917	1431.6	2.8498e-06	3.273e-06	1431.8	390.14	5.8873e-06	5.8448e-06	442.41	147.01	128.25	43.976	4.2187e-06	53.961	0.00059148	0.00058873	0.0001627	1454	6.5169e-06	6.4525e-06	1453.3	397.31	6.4713e-06	6.4512e-06	451.31	150.59	131.16	45.089	6.463e-06	55.592	190.652	226.203	237.378	161.718	299.553	374.383	161.464	165.920	255.068	333.388	165.640	169.892	170.276	175.109	266.489	174.404	-8191	255	
32098.865	1	1	0	0	0.2037	0.059277	0.096059	0.13608	0.16622	0.17664	0.44695	0.30051	0.043902	0.26365	0.085112	0.06955	0.10976	0.18752	0.16183	0.10056	-2.6583	-3.1854	-3.0729	-3.0938	-3.4396	-3.1104	-3.4896	-3.4062	-2.95	-3.2938	-3.2125	-3.0021	-3.5604	-3.075	-3.2313	-3.3708	393.897	484.178	254.725	386.462	443.305	230.272	447.984	427.093	264.738	336.252	337.338	497.256	155.872	228.101	340.652	464.589	0.00056818	0.00049044	0.00016894	1435.7	2.1651e-06	8.4283e-06	1427.6	388.35	3.885e-06	5.9829e-06	443.55	147.09	127.86	43.8	8.2002e-07	53.873	0.00058872	0.00058406	0.00016513	1455.3	6.4703e-06	6.466e-06	1451.9	396.66	6.4764e-06	6.4245e-06	451.56	150.42	131.07	44.999	6.4828e-06	55.585	191.685	282.006	246.908	161.715	285.685	304.966	161.219	165.882	291.736	267.681	165.392	169.830	170.226	175.160	185.845	174.012	-8191	255	
32098.963	1	1	0	0	0.077401	0.10986	0.043275	0.24602	0.26436	0.20094	0.36847	0.23083	0.23784	0.23667	0.14234	0.31588	0.10236	0.14345	0.14192	0.21401	-2.4583	-3.1625	-3.1708	-3.0896	-3.3021	-3.0312	-3.45	-3.1896	-3.1792	-3.2708	-3.1875	-3.1021	-3.4021	-3.2062	-3.1354	-3.2438	268.939	381.955	312.810	181.531	502.180	263.529	437.817	442.987	322.607	240.688	187.936	455.994	243.991	439.643	463.095	500.837	0.00060419	0.00010956	0.00020328	1433.1	5.0994e-06	5.0906e-06	1430.1	389.89	4.0527e-06	9.6536e-06	441.5	147.23	128.64	43.711	5.7922e-06	54.05	0.00058758	0.00059173	0.00016544	1453.7	6.4522e-06	6.4808e-06	1452.2	396.87	6.4807e-06	6.5355e-06	451.01	150.48	131.32	45.025	6.5513e-06	55.701	188.014	227.727	250.628	161.504	311.189	273.984	161.489	165.881	241.365	305.032	165.761	169.652	170.303	175.106	286.759	174.484	-8191	255	
32099.080	1	1	0	0	0.2027	0.3598	0.037272	0.19704	0.13379	0.043093	0.25399	0.25718	0.1149	0.17389	0.40301	0.14324	0.15218	0.26261	0.13229	0.17067	-2.5146	-3.2521	-3.2042	-3.3542	-3.4333	-3.1917	-3.3563	-3.2542	-3.0958	-3.2333	-3.2646	-2.9854	-3.3979	-3.1271	-3.1813	-3.3208	229.804	468.581	162.575	432.815	330.641	200.049	458.388	438.089	332.741	226.346	438.190	422.196	156.383	479.409	268.262	466.553	0.0005638	0.0009109	0.00018644	1433.2	4.2665e-06	7.0479e-06	1431.5	389.75	5.6952e-06	6.548e-06	444.26	146.7	127.94	43.865	9.0865e-06	53.999	0.00059351	0.00059204	0.00016705	1453.9	6.3967e-06	6.4767e-06	1454	397	6.4243e-06	6.4497e-06	451.99	150.44	130.95	45.015	6.4698e-06	55.613	195.865	196.028	263.094	161.506	231.158	299.594	161.294	165.901	245.887	353.593	165.819	169.497	170.255	175.078	263.034	174.233	-8191	255	
32099.178	1	1	0	0	0.23683	0.04982	0.12405	0.15861	0.033862	0.18557	0.17485	0.30972	0.096006	0.15562	0.21814	0.056279	0.20091	0.22889	0.16442	0.18949	-2.4729	-3.1917	-3.1542	-3.2646	-3.2396	-3.1271	-3.3271	-3.6063	-3.0271	-3.4125	-3.15	-3.0375	-3.3229	-3.0833	-2.8854	-3.3854	420.904	420.447	302.557	471.272	292.064	392.057	417.872	418.730	490.124	328.607	445.559	322.612	171.073	431.120	192.933	391.478	0.00057446	0.00098298	0.00022976	1434.6	6.835e-06	1.2104e-06	1432.5	389.68	5.0102e-06	2.6301e-06	442.66	147.1	128.18	43.868	4.7731e-06	54.017	0.00058485	0.00059422	0.00016484	1454.8	6.4514e-06	6.4883e-06	1452.7	397.12	6.4353e-06	6.4922e-06	451.07	150.4	131.03	45.06	6.4941e-06	55.5	199.582	251.876	254.461	161.685	268.758	282.336	161.493	165.897	242.067	315.259	165.344	169.707	170.120	174.847	269.117	174.621	-8191	255	
32099.273	1	1	0	0	0.14602	0.21505	0.15245	0.25304	0.15529	0.17208	0.18463	0.087135	0.20487	0.27295	0.09455	0.26139	0.35312	0.038209	0.21961	0.32042	-2.4229	-3.0417	-3.1833	-3.1042	-3.3292	-3.0604	-3.125	-3.5396	-3.0958	-3.0687	-3.4604	-3.1333	-3.2792	-3.3146	-3.0479	-3.4354	338.596	155.053	448.402	491.292	173.795	411.150	358.470	185.210	486.679	193.705	465.693	432.606	461.767	205.058	441.189	489.742	0.00060928	0.00054761	0.00030195	1435.4	4.4794e-06	4.271e-06	1424.7	389.68	3.9639e-06	5.5565e-06	442.67	147.28	128.02	43.889	7.3906e-06	53.664	0.00059341	0.00059652	0.00016658	1453.9	6.4327e-06	6.5308e-06	1450.5	396.52	6.4181e-06	6.4736e-06	451.29	150.27	130.99	45.006	6.48e-06	55.478	192.216	272.300	251.856	161.466	275.812	257.342	161.532	165.927	255.693	297.002	165.460	169.841	170.119	175.068	298.646	174.015	-8191	255	
32099.369	1	1	0	0	0.13052	0.13485	0.026954	0.11118	0.14462	0.17964	0.32234	0.36352	0.060881	0.14234	0.17436	0.13319	0.35902	0.02108	0.1572	0.1774	-2.5583	-3.1417	-3.3292	-3.1083	-3.1375	-3.1958	-3.3312	-3.425	-3.1958	-3.0833	-3.4771	-3.1854	-3.4125	-3.4167	-3.05	-3.5333	153.665	332.283	365.142	468.864	385.136	277.939	500.061	394.831	417.383	429.069	491.760	322.298	158.440	487.787	427.230	430.291	0.00059211	0.0005344	8.8273e-05	1436.4	4.4529e-06	5.6415e-06	1425.9	390.76	6.0978e-06	2.5878e-06	440.38	147.09	127.58	43.767	2.2711e-06	53.928	0.00059176	0.00059467	0.00016453	1451.7	6.5189e-06	6.5094e-06	1449.4	396.64	6.4908e-06	6.4552e-06	450.64	150.11	131.01	44.994	6.386e-06	55.53	188.378	222.064	284.813	161.699	270.474	313.062	161.349	166.187	291.044	342.711	165.617	169.612	170.279	174.988	309.092	174.499	-8191	255	
32099.467	1	1	0	0	0.1008	0.16982	0.17467	0.2515	0.26139	0.12586	0.156	0.23874	0.14714	0.15533	0.060964	0.18935	0.089933	0.19769	0.159	0.18666	-2.7208	-3.1	-3.2062	-3.075	-3.2438	-3.3042	-3.2208	-3.3854	-3.1583	-3.0792	-3.4125	-3.2875	-3.3563	-3.4292	-3.0292	-3.4417	214.218	473.501	437.167	330.466	407.499	428.347	427.447	428.837	366.397	310.351	200.826	487.786	440.683	224.077	210.606	388.635	0.00057612	0.00049844	9.2446e-05	1433.7	4.8423e-06	5.8747e-06	1426.4	390.57	4.7433e-06	1.1491e-06	440.98	146.76	128.17	43.856	4.1024e-06	53.883	0.00059413	0.00059071	0.00016497	1452.1	6.4602e-06	6.4621e-06	1449.1	396.52	6.4601e-06	6.4998e-06	449.82	150.11	130.69	45.023	6.4649e-06	55.565	196.388	259.210	240.218	161.713	261.603	259.789	161.426	166.042	240.155	313.167	165.695	169.949	170.236	175.129	281.392	174.273	-8191	255	
32099.562	1	1	0	0	0.053059	0.16128	0.061278	0.3372	0.13528	0.11458	0.28873	0.23573	0.079285	0.10417	0.25804	0.20667	0.054229	0.17391	0.22618	0.29158	-2.6354	-3.0354	-3.3729	-3.2354	-3.1312	-3.2979	-3.1833	-3.4167	-3.1958	-3.0417	-3.4625	-3.3229	-3.2771	-3.3854	-2.8937	-3.4021	182.614	275.536	425.570	431.649	199.948	258.859	396.843	461.764	175.429	355.056	494.649	481.198	405.253	372.351	296.057	466.397	0.00054893	0.00069801	9.604e-05	1428.7	3.5796e-06	9.3771e-06	1421	389.13	7.0915e-06	3.1928e-06	442.26	146.4	127.7	43.848	1.5239e-06	53.83	0.00059222	0.00059558	0.0001641	1447.6	6.4534e-06	6.5e-06	1446.6	396.23	6.4774e-06	6.4336e-06	450.78	150.02	130.72	45.015	6.4452e-06	55.58	194.535	219.910	269.371	161.511	326.112	276.578	161.464	166.109	293.222	367.785	165.703	169.669	170.379	174.993	271.706	174.052	-8191	255	
32099.658	1	1	0	0	0.20087	0.17642	0.050715	0.14974	0.18226	0.13397	0.32172	0.21911	0.067573	0.27055	0.14026	0.24772	0.16156	0.18292	0.18063	0.22326	-2.7458	-2.7917	-3.1896	-3.3979	-3.0708	-3.4021	-3.3083	-3.2042	-3.2938	-2.9021	-3.4042	-2.9688	-2.9833	-3.375	-3.0958	-3.1583	427.219	499.465	165.483	481.122	349.414	349.284	453.509	411.373	482.381	191.830	429.748	447.619	230.708	148.034	190.241	479.423	0.00061738	0.00025807	0.00019222	1427	5.5591e-06	5.9258e-06	1425.1	387.41	6.1625e-06	3.9511e-06	439.74	146.71	127.63	43.815	1.7004e-06	53.949	0.00059503	0.00059012	0.00016256	1446.6	6.452e-06	6.4488e-06	1445.3	395.37	6.4397e-06	6.4387e-06	449.04	150.21	130.38	45.014	6.3839e-06	55.49	195.755	243.014	234.652	161.615	300.217	249.920	161.383	166.001	259.915	439.292	165.709	169.611	170.291	174.988	249.596	174.018	-8191	255	
32099.754	1	1	0	0	0.10739	0.10405	0.14367	0.33655	0.16988	0.015352	0.31315	0.1331	0.14884	0.20804	0.19287	0.074884	0.056406	0.20423	0.042539	0.16665	-2.8479	-3.0104	-3.1458	-3.1604	-3.0458	-3.1979	-3.1667	-3.2729	-3.2146	-3.0396	-3.3875	-3.375	-2.9479	-3.2771	-2.9	-3.2188	422.731	258.422	401.488	487.206	292.915	206.100	455.665	387.379	371.865	201.159	494.417	184.955	332.081	168.516	505.000	350.699	0.00062348	0.00023086	9.2362e-05	1419.7	4.0339e-06	4.0455e-06	1415.8	388.66	5.0931e-06	2.6432e-06	441.38	147.03	127.43	43.72	5.3344e-06	53.798	0.00059685	0.00059121	0.00016158	1444.9	6.4589e-06	6.4646e-06	1441.3	395.35	6.4884e-06	6.4105e-06	449.76	149.93	130.38	44.944	6.4138e-06	55.403	190.655	491.993	273.268	161.694	330.632	289.558	161.367	166.011	252.309	357.133	165.586	169.481	170.197	175.044	342.749	174.335	-8191	255	
32099.875	1	1	0	0	0.11712	0.13871	0.03943	0.1902	0.098286	0.1229	0.37031	0.1128	0.19588	0.2165	0.17276	0.22233	0.16991	0.085346	0.094233	0.34838	-2.7375	-2.9	-3.0292	-3.1083	-3.0771	-3.2438	-3.1146	-3.125	-3.2896	-2.9688	-3.1979	-3.3021	-3.0729	-3.1562	-3.0167	-3.3979	363.078	316.158	486.980	470.133	185.601	212.304	500.555	417.423	287.471	314.998	421.056	152.380	384.456	497.400	287.108	445.811	0.00056036	0.00022796	0.00019884	1428.3	6.9252e-06	2.4049e-06	1415.7	387.7	5.334e-06	3.2702e-06	440.41	145.66	127.68	43.646	6.4904e-06	53.472	0.00059607	0.00058984	0.00016369	1444.5	6.4156e-06	6.3468e-06	1440.8	395.06	6.4228e-06	6.4025e-06	448.66	149.46	130.17	44.82	6.4346e-06	55.283	191.743	304.242	261.688	161.597	292.737	306.064	161.487	166.014	271.446	357.455	165.420	169.755	170.195	174.744	283.570	174.313	-8191	255	
32099.971	1	1	0	0	0.061493	0.021065	0.089499	0.21635	0.1355	0.11269	0.19301	0.22402	0.0896	0.011979	0.11014	0.12239	0.10205	0.019859	0.029517	0.083276	-2.9917	-2.8896	-3.0417	-3.4208	-2.9854	-3.3563	-3.2396	-3.0979	-3.1854	-3.1417	-3.4375	-3.2896	-3.0271	-3.4083	-3.1333	-3.0271	277.245	291.674	282.574	497.280	394.411	409.017	157.402	419.847	176.799	152.814	271.086	392.030	446.996	446.811	204.958	343.319	0.00053758	0.00080169	0.00019661	1414.7	6.4302e-06	9.3636e-06	1411.6	386.66	4.9015e-06	1.7883e-06	438.23	146.32	126.75	43.42	2.6596e-06	53.602	0.00059177	0.00058521	0.0001623	1438.7	6.4226e-06	6.3559e-06	1435.4	393.47	6.3646e-06	6.3622e-06	447.13	148.96	129.62	44.636	6.4493e-06	55.159	199.823	214.228	239.978	161.588	350.034	318.922	161.324	166.171	224.037	327.220	165.630	169.911	170.251	175.016	274.926	174.058	-8191	255	
32100.066	1	1	0	0	0.08259	0.078217	0.022957	0.30041	0.11092	0.15985	0.090503	0.27804	0.10479	0.053084	0.15802	0.22774	0.19497	0.17099	0.27923	0.20093	-2.8438	-2.9062	-3.2188	-3.4604	-2.9521	-3.4125	-3.3917	-3.15	-3.4708	-3.0438	-3.2438	-3.4833	-3.0563	-3.4292	-3.325	-3.1146	421.058	393.295	165.853	428.407	230.974	257.494	429.698	393.314	403.959	202.452	255.716	466.086	507.351	493.091	499.922	454.998	0.00055204	0.00038998	0.00017058	1418.8	4.6214e-06	6.2005e-06	1411.6	384.97	3.1825e-06	1.5372e-06	437.88	145.41	126.3	43.383	7.8005e-06	53.637	0.00058597	0.00058215	0.00016196	1435.6	6.3619e-06	6.3177e-06	1433.5	392.03	6.3284e-06	6.3859e-06	446.48	148.84	129.48	44.622	6.4788e-06	55.183	189.808	240.482	216.263	161.640	296.825	236.298	161.286	166.067	262.219	249.141	165.525	169.771	170.375	175.182	267.263	174.095	-8191	255	
32100.160	1	1	0	0	0.084293	0.083307	0.31095	0.32936	0.11487	0.23521	0.19528	0.17811	0.2085	0.077533	0.1883	0.056184	0.23066	0.24195	0.2054	0.19792	-2.9708	-3.1271	-3.0208	-3.45	-3.2042	-3.425	-3.4854	-3.0875	-3.2438	-3.1063	-3.0729	-3.3688	-3.1958	-3.3896	-3.2521	-3.0375	182.511	324.738	434.169	452.653	302.487	316.502	400.341	466.357	153.271	389.503	323.227	160.046	430.596	182.212	277.098	504.723	0.00055173	0.00081967	0.00019162	1411.7	5.6006e-06	5.1531e-06	1412.4	384.8	7.5499e-06	3.0391e-06	436.21	145.3	126.93	43.412	3.8276e-06	53.598	0.00058645	0.00058869	0.00016258	1433.2	6.387e-06	6.4055e-06	1433.5	391.99	6.2964e-06	6.3599e-06	445.57	148.77	129.45	44.629	6.3995e-06	55.157	189.256	248.129	273.339	161.616	288.376	221.617	161.462	166.111	278.200	328.739	165.585	169.757	170.301	175.155	316.516	174.173	-8191	255	
32100.258	1	1	0	0	0.095508	0.21716	0.31734	0.32012	0.32704	0.12637	0.24241	0.44516	0.096185	0.1353	0.28113	0.17906	0.17648	0.046506	0.1669	0.27472	-2.8063	-2.9646	-3.0938	-3.5333	-2.9583	-3.0708	-3.6021	-3.1875	-3.2875	-3.1208	-3.2646	-3.3667	-3.0458	-3.2146	-3.3229	-3.1708	387.186	244.482	282.415	158.627	468.566	406.319	461.612	189.402	424.854	418.243	475.248	190.997	220.838	452.360	427.215	187.994	0.00056697	0.00063222	5.3433e-05	1416.9	7.6852e-06	7.3408e-06	1412.9	385.72	4.3396e-06	1.0105e-05	436.48	145.43	126.99	43.363	2.7438e-06	53.676	0.00058107	0.00058905	0.00016289	1434.3	6.3594e-06	6.3814e-06	1433.7	392.18	6.4076e-06	6.4125e-06	445.89	148.87	129.49	44.601	6.4321e-06	55.239	192.448	228.905	284.545	161.750	284.817	306.530	161.589	166.113	276.886	343.688	165.601	169.785	170.248	175.189	305.633	174.451	-8191	255	
32100.354	1	1	0	0	0.27395	0.17131	0.20769	0.41507	0.059767	0.22716	0.34451	0.20986	0.15282	0.097336	0.28029	0.11331	0.2781	0.13426	0.099635	0.32516	-2.9125	-3.0958	-3.1188	-3.5021	-3.1333	-3.2042	-3.6708	-3.1396	-3.2417	-3.1604	-3.1312	-3.4479	-3.1688	-3.3208	-3.1208	-3.0771	179.895	363.657	297.049	486.573	339.342	397.759	155.831	380.480	333.433	231.983	484.923	161.972	483.763	449.110	267.568	441.784	0.0005687	0.00075316	7.8315e-05	1415.7	3.9177e-06	4.5279e-06	1415.1	384.36	1.2972e-06	1.4485e-06	436.17	145.78	126.89	43.473	5.9361e-06	53.414	0.0005867	0.00059432	0.00016278	1437.8	6.4024e-06	6.4889e-06	1435.7	391.95	6.3822e-06	6.4996e-06	445.67	149.01	129.66	44.649	6.4187e-06	55.049	192.734	229.326	213.931	161.684	254.646	315.701	161.365	166.169	237.340	400.746	165.564	169.646	170.263	175.157	334.252	174.405	-8191	255	
32100.475	1	1	0	0	0.23304	0.14031	0.12659	0.26316	0.16488	0.38702	0.049187	0.26849	0.26	0.16561	0.15117	0.3106	0.17285	0.098669	0.22649	0.27292	-2.9667	-3.1625	-3.0187	-3.3312	-3.2875	-3.175	-3.5167	-3.1521	-3.1417	-3.125	-2.9625	-3.3646	-3.2375	-3.1146	-3.3104	-3.0854	474.003	383.909	506.135	183.882	483.380	262.942	424.947	150.003	387.284	266.461	149.348	424.216	157.459	173.436	369.757	493.508	0.00056864	0.00050578	0.00010922	1419	7.1938e-06	7.7774e-06	1414.8	384.57	5.2217e-06	5.9174e-06	437.69	145.6	127.35	43.477	2.8011e-06	53.666	0.0005853	0.00059332	0.00016425	1439	6.5057e-06	6.4185e-06	1437.1	392.15	6.4428e-06	6.4604e-06	446.71	148.96	130.04	44.696	6.4698e-06	55.34	192.817	194.604	280.374	161.745	317.352	342.734	161.424	166.035	274.225	341.272	165.678	169.715	170.344	175.000	223.399	174.132	-8191	255	
32100.570	1	1	0	0	0.27901	0.078603	0.14762	0.074427	0.1935	0.24572	0.18797	0.16507	0.12504	0.12242	0.12513	0.063158	0.39938	0.052995	0.15275	0.29075	-2.8646	-3.1875	-2.8354	-3.4333	-2.9458	-2.9417	-3.3812	-3.2229	-2.9458	-3.2	-3.1937	-3.2375	-3.225	-3.0896	-3.3292	-3.2708	222.757	228.071	197.289	198.172	385.812	238.157	354.842	484.683	199.850	475.904	195.818	356.265	154.618	250.462	393.984	251.913	0.00058951	0.00033243	0.0001465	1420.5	4.55e-06	8.0474e-06	1416.9	386.02	4.0174e-06	6.7779e-06	439.68	145.78	127.3	43.328	3.0852e-06	53.814	0.00059103	0.00059564	0.00016466	1442.5	6.4765e-06	6.486e-06	1442.2	393.54	6.478e-06	6.5228e-06	447.61	149.33	130.31	44.767	6.4578e-06	55.44	197.671	273.789	292.904	161.571	299.705	274.757	161.380	165.829	214.516	327.511	165.742	169.692	170.222	175.050	253.032	174.041	-8191	255	
32100.668	1	1	0	0	0.25356	0.023983	0.15552	0.088808	0.25276	0.091107	0.45661	0.3452	0.18835	0.065943	0.099967	0.13232	0.27271	0.17245	0.096736	0.15264	-2.6375	-3.2979	-2.9	-3.4021	-3.05	-3.1021	-3.4625	-3.2833	-3.0604	-3.2667	-2.9437	-3.2208	-3.3604	-3.0312	-3.05	-3.0229	266.449	310.834	250.468	479.391	213.072	188.129	430.738	464.185	209.604	395.813	470.554	201.926	149.652	340.666	364.968	155.458	0.00060861	0.00064262	0.00013839	1430.9	6.2524e-06	6.8137e-06	1422.7	386.95	7.4648e-06	5.2708e-06	438.84	145.98	127.04	43.554	5.1528e-06	53.903	0.00059397	0.00059781	0.00016388	1446.3	6.5617e-06	6.4563e-06	1445	393.69	6.4633e-06	6.5188e-06	448.4	149.19	129.93	44.784	6.4368e-06	55.423	189.026	213.972	250.987	161.634	303.778	265.677	161.445	166.027	268.411	280.341	165.499	169.621	170.196	174.859	270.804	173.889	-8191	255	
32100.764	1	1	0	0	0.073076	0.15541	0.15222	0.15219	0.2595	0.094605	0.24758	0.30249	0.051067	0.23959	0.20855	0.23379	0.12606	0.23314	0.47894	0.10143	-2.5812	-3.15	-2.7625	-3.175	-3.2125	-2.9688	-3.4771	-3.0938	-2.8771	-3.2667	-2.8812	-3.0812	-3.45	-3.0438	-3.1917	-3.2104	480.436	464.193	371.308	496.912	502.526	246.158	452.200	453.881	368.147	233.047	422.249	477.289	439.997	237.710	293.150	390.837	0.00057465	0.00064511	0.00012187	1428.6	1.8648e-06	6.2171e-06	1420.9	386.36	4.0892e-06	8.6187e-06	439.48	146.12	127.06	43.574	2.8738e-06	53.607	0.00059299	0.00059654	0.00016468	1448	6.5329e-06	6.4512e-06	1444.6	393.83	6.4592e-06	6.4478e-06	447.97	149.36	130.13	44.767	6.4301e-06	55.401	187.306	256.839	313.032	161.792	240.190	274.843	161.465	166.075	278.021	325.106	165.760	169.712	170.258	174.947	253.207	174.078	-8191	255	
32100.859	1	1	0	0	0.24926	0.039408	0.21631	0.12825	0.14875	0.042664	0.16642	0.26552	0.10867	0.20125	0.0088066	0.223	0.081524	0.39718	0.12895	0.21182	-2.6104	-3.1292	-2.9854	-3.2583	-3.1646	-3.0583	-3.4479	-3.1688	-3.0625	-3.2521	-3.0604	-3.0938	-3.3042	-2.9771	-3.1792	-3.175	405.065	429.833	355.152	429.148	276.492	250.415	400.323	454.641	421.765	211.170	168.614	152.545	389.044	397.701	359.641	454.776	0.00060255	0.00063474	0.00021198	1427.6	1.8144e-06	7.8084e-06	1427.7	387.8	4.7735e-06	6.2154e-06	439.33	146.04	126.86	43.534	3.8153e-06	53.751	0.00059291	0.00059688	0.00016501	1447	6.5252e-06	6.388e-06	1447.4	394	6.5468e-06	6.406e-06	448.02	149.4	130.05	44.772	6.4606e-06	55.461	190.914	235.190	211.524	161.758	291.707	310.650	161.437	165.983	313.623	322.219	165.471	169.659	170.225	175.159	323.334	173.919	-8191	255	
32100.955	1	1	0	0	0.13323	0.16975	0.23829	0.099739	0.086074	0.13323	0.27818	0.11414	0.23467	0.16854	0.22062	0.21039	0.26005	0.058668	0.23968	0.016368	-2.5979	-3.1813	-2.9583	-3.1167	-3.4167	-2.8208	-3.2812	-3.2875	-2.9458	-3.2792	-3.1521	-3.125	-3.2896	-2.95	-3.0771	-3.2542	300.186	232.485	258.589	440.636	468.951	452.465	450.186	468.686	332.911	482.059	450.547	483.801	467.259	486.724	462.496	159.822	0.000576	0.00033718	0.00014234	1431.2	4.3716e-06	5.5157e-06	1425.4	387.57	1.7364e-06	4.3208e-06	440.88	146.24	127.29	43.531	2.1376e-06	53.919	0.00058762	0.00058965	0.00016404	1448.5	6.5085e-06	6.3872e-06	1447.1	394.14	6.4605e-06	6.4167e-06	448.44	149.46	130.21	44.755	6.4613e-06	55.459	195.486	248.718	257.213	161.703	264.114	320.651	161.316	166.149	251.462	253.740	165.511	169.471	170.423	175.279	264.377	174.159	-8191	255	
32101.051	1	1	0	0	0.17403	0.18105	0.21228	0.12983	0.2044	0.057758	0.36491	0.4272	0.15335	0.22601	0.16201	0.20457	0.21941	0.20057	0.192	0.15465	-2.6042	-3.2646	-3.1833	-3.325	-3.3688	-2.9146	-3.2479	-3.4708	-2.8854	-3.2917	-3.3042	-3.0271	-3.3917	-3.0979	-3.0104	-3.25	258.924	455.086	375.844	162.325	336.837	436.328	416.333	452.618	213.304	412.305	492.622	484.596	452.997	464.777	151.307	413.327	0.00051942	0.00052709	0.00016643	1425.1	4.0395e-06	8.2544e-06	1422.5	385.25	4.3081e-06	2.3765e-06	438.64	145.87	127.39	43.464	6.5185e-06	53.698	0.00058729	0.000589	0.00016715	1445.9	6.4341e-06	6.4605e-06	1446.9	393.7	6.4264e-06	6.4271e-06	447.68	149.14	130.06	44.689	6.5207e-06	55.387	193.725	166.436	275.053	161.715	298.460	361.896	161.476	166.023	261.388	291.201	165.590	169.609	170.277	175.205	282.494	174.374	-8191	255	
32101.170	1	1	0	0	0.23803	0.15337	0.18014	0.23029	0.27129	0.13838	0.16987	0.16682	0.090865	0.1609	0.19462	0.14683	0.16306	0.33352	0.16051	0.22516	-2.4125	-3.3146	-2.9979	-3.0083	-3.2646	-3.0292	-3.1479	-3.3438	-2.9792	-3.1042	-3.05	-2.9437	-3.1854	-3.0667	-2.875	-3.3271	214.607	257.482	353.196	428.327	379.768	455.606	462.406	367.442	477.969	183.011	447.816	462.804	438.359	158.226	304.862	500.132	0.00054949	0.00052905	7.0539e-05	1426.4	1.986e-06	7.949e-06	1423.8	386.42	5.0319e-06	3.9576e-06	438.7	145.77	127.34	43.521	1.3721e-07	53.535	0.00059267	0.0005962	0.00016645	1447.1	6.4737e-06	6.4653e-06	1444.3	393.59	6.4577e-06	6.4748e-06	447.79	149.26	130.02	44.762	6.5169e-06	55.3	193.255	242.370	271.739	161.622	235.712	298.116	161.405	166.016	284.420	359.652	165.755	169.639	170.385	175.012	405.736	174.142	-8191	255	
32101.266	1	1	0	0	0.067073	0.165	0.064489	0.16966	0.071953	0.37001	0.15283	0.27989	0.15813	0.16602	0.024256	0.13853	0.097002	0.17508	0.14942	0.048318	-2.3312	-3.1312	-3.0458	-3.0104	-3.0792	-2.9979	-3.2313	-3.2646	-2.8875	-3	-3.1312	-2.8771	-3.2958	-3.2167	-2.9167	-3.4417	342.542	387.924	218.464	191.515	235.163	203.489	471.875	484.954	482.904	197.657	331.006	469.909	219.546	169.286	351.387	269.965	0.00052156	0.00022994	0.00021968	1422.4	4.4366e-06	3.1801e-06	1420.7	386.41	4.8787e-06	3.3071e-06	437.61	145.77	127.54	43.56	3.5905e-06	53.711	0.00058784	0.00059134	0.00016571	1443.9	6.4097e-06	6.5086e-06	1443.4	393.2	6.4223e-06	6.4434e-06	447.57	149.32	129.91	44.75	6.4531e-06	55.368	187.586	210.399	235.916	161.813	314.202	256.723	161.405	166.155	244.558	285.054	165.629	169.943	170.276	174.904	294.593	174.189	-8191	255	
32101.338	1	1	0	0	0.17058	0.16046	0.071124	0.26788	0.16638	0.27457	0.19127	0.3032	0.19353	0.2804	0.07127	0.19045	0.05201	0.20171	0.12806	0.047812	-2.4417	-2.9979	-3.1104	-3.1521	-3.1583	-3.0375	-3.0563	-3.3688	-3.0271	-3.0625	-3.3229	-2.9188	-3.2958	-3.2458	-2.85	-3.2938	415.722	352.186	285.606	484.909	444.107	237.492	489.373	450.282	365.818	340.087	148.306	437.118	151.654	346.445	229.116	498.637	0.00056228	0.00084715	8.1739e-05	1421.2	5.0287e-06	6.9208e-06	1419.5	386.12	2.6407e-06	2.2666e-06	438.49	145.44	127.73	43.348	4.9348e-06	53.703	0.00059255	0.0005935	0.00016484	1444.2	6.3971e-06	6.5136e-06	1443.2	393.75	6.457e-06	6.4647e-06	447.18	149.15	129.96	44.676	6.5279e-06	55.286	194.666	261.531	263.926	161.591	304.590	378.322	161.472	166.050	325.975	204.343	165.760	169.897	170.350	174.843	244.207	174.342	-8191	255	
32101.436	1	1	0	0	0.21403	0.060773	0.066012	0.31817	0.092343	0.22668	0.16875	0.23446	0.076348	0.13276	0.090508	0.064742	0.13568	0.067034	0.10184	0.16973	-2.4854	-3.0771	-3.1167	-3.1604	-3.1	-3.2354	-3.1771	-3.3854	-3.0792	-2.9083	-3.2083	-3.0083	-3.3354	-3.3187	-2.9479	-3.375	368.704	153.776	334.535	488.047	440.784	229.856	432.701	438.392	160.909	405.790	156.980	434.635	179.474	449.568	276.719	171.074	0.00053381	0.00037713	0.00016739	1423.3	6.1292e-06	3.2085e-06	1416.1	386.42	4.183e-06	4.2325e-06	439.83	145.22	127.17	43.335	3.5986e-06	53.683	0.00059079	0.00058899	0.00016606	1443.3	6.4575e-06	6.5591e-06	1440.8	393.69	6.4968e-06	6.5115e-06	446.91	148.96	130.04	44.632	6.476e-06	55.326	187.676	221.739	288.086	161.626	312.158	357.415	161.507	166.100	280.446	278.902	165.486	169.596	170.369	175.137	295.679	174.103	-8191	255	
32101.555	1	1	0	0	0.064799	0.35646	0.20505	0.28352	0.18948	0.064239	0.067864	0.34305	0.2572	0.32403	0.23542	0.25627	0.13535	0.17228	0.076294	0.094395	-2.6688	-2.9708	-3.3479	-3.2521	-3.2146	-3.2104	-3.2104	-3.2542	-3.1	-3	-3.4979	-3.1104	-3.0708	-3.3896	-2.9083	-3.3833	334.227	208.989	432.795	174.947	192.056	507.506	427.893	322.631	183.113	314.487	375.335	495.178	187.011	499.089	367.019	473.465	0.00050855	0.00072354	0.00020263	1425.3	2.6406e-06	4.3486e-06	1417.4	386.86	6.8463e-06	2.4718e-06	437.61	145.73	127.08	43.501	4.754e-07	53.847	0.00059707	0.00059566	0.00016404	1445	6.5289e-06	6.475e-06	1441.4	393.63	6.525e-06	6.5193e-06	446.76	149.1	129.9	44.675	6.4401e-06	55.3	188.232	195.441	258.027	161.840	211.356	348.198	161.520	166.198	236.438	299.239	165.777	170.014	170.243	175.376	273.273	174.195	-8191	255	
32101.650	1	1	0	0	0.13809	0.041539	0.23883	0.42319	0.089206	0.25348	0.20124	0.28134	0.13548	0.21407	0.088622	0.090945	0.36425	0.30628	0.015111	0.16627	-2.6729	-2.8458	-3.2	-3.2104	-3.0708	-3.4021	-3.1521	-3.2854	-2.8896	-2.9271	-3.4	-3.2062	-2.9792	-3.2417	-2.8063	-3.2708	493.160	397.057	428.870	468.889	361.025	258.886	496.923	429.339	166.928	507.845	499.700	436.860	462.922	425.542	452.074	210.398	0.00050982	0.00069134	0.00017013	1425.2	4.0462e-06	4.6189e-06	1419.5	387.4	6.8311e-06	2.5552e-06	439.83	146.31	127.33	43.552	4.8946e-06	53.571	0.00059433	0.00060104	0.00016381	1445.5	6.492e-06	6.4773e-06	1444	393.59	6.5152e-06	6.5169e-06	448.55	149.2	130.03	44.784	6.4706e-06	55.331	190.807	201.362	286.138	161.627	239.526	296.661	161.385	166.220	265.849	332.997	165.521	169.634	170.423	175.212	265.764	174.494	-8191	255	
32101.746	1	1	0	0	0.11459	0.32263	0.22447	0.28388	0.19398	0.1497	0.035212	0.28522	0.21817	0.14924	0.34418	0.03923	0.287	0.35992	0.1004	0.30929	-2.8688	-2.7938	-3.1292	-3.3875	-3.0771	-3.3937	-3.2917	-3.2583	-3.2479	-3.0479	-3.3792	-3.2229	-3.0542	-3.3833	-3.0646	-3.1208	444.999	237.070	470.716	466.178	342.026	241.095	279.592	459.646	387.552	383.273	220.988	499.507	462.177	453.055	365.945	406.491	0.00055544	0.00043353	0.00015936	1422.5	4.9796e-06	1.3566e-06	1417.3	385.93	4.314e-06	5.311e-06	439.06	145.55	127.07	43.501	5.3599e-06	53.674	0.00059406	0.00058979	0.00016291	1442.7	6.4952e-06	6.4851e-06	1442.1	393.43	6.4978e-06	6.4667e-06	447.29	149.16	129.99	44.684	6.439e-06	55.3	191.335	177.755	233.814	161.527	282.143	217.749	161.614	166.110	238.539	336.900	165.716	169.494	170.424	174.972	304.533	174.010	-8191	255	
32101.867	1	1	0	0	0.10684	0.181	0.09127	0.17449	0.17322	0.26136	0.22284	0.15269	0.044306	0.12944	0.09477	0.14006	0.034747	0.21788	0.15913	0.20622	-2.7771	-2.9229	-3.0771	-3.25	-3.0438	-3.1521	-3.2021	-3.1958	-3.3812	-3.0021	-3.3146	-3.2833	-3.1521	-3.4042	-3.1417	-3.1271	249.120	204.565	488.733	426.110	217.058	351.072	464.488	429.732	487.053	168.373	184.715	471.605	495.107	386.177	212.582	457.313	0.00058259	0.0003119	0.00021314	1425.3	5.9255e-06	4.3193e-06	1419.2	386.42	4.1207e-06	7.0959e-06	438.11	145.76	126.89	43.568	3.84e-06	53.793	0.00059594	0.00059148	0.0001642	1443.8	6.4552e-06	6.5341e-06	1440.2	393.53	6.521e-06	6.4626e-06	447.81	149.25	129.82	44.677	6.4272e-06	55.317	194.143	251.921	270.543	161.574	250.547	359.131	161.439	166.031	296.483	217.729	165.388	169.710	170.147	175.041	272.421	174.244	-8191	255	
32101.939	1	1	0	0	0.14958	0.11108	0.17188	0.21313	0.056398	0.11055	0.2271	0.15241	0.055806	0.15633	0.14539	0.33269	0.13655	0.16216	0.21176	0.39082	-2.7958	-2.8125	-3.1146	-3.2896	-2.9896	-3.0958	-3.1458	-3.2354	-3.2667	-2.9958	-3.1813	-3.4646	-3.0583	-3.1667	-3.0375	-3.1271	233.989	191.200	311.985	162.582	319.999	321.134	411.774	393.289	170.192	216.920	151.246	461.742	474.283	426.577	434.505	450.215	0.00057573	0.001059	0.00012903	1419.1	1.5202e-06	3.7797e-06	1421.6	386.53	6.1611e-06	5.9586e-06	439.88	145.51	127.08	43.512	4.6724e-06	53.611	0.00059062	0.00059089	0.00016361	1442.1	6.4477e-06	6.4455e-06	1441.1	393.54	6.4644e-06	6.4692e-06	447.49	149.34	129.89	44.689	6.46e-06	55.32	193.751	206.846	227.149	161.648	322.096	266.834	161.388	165.992	275.856	319.286	165.700	169.734	170.480	174.748	308.407	174.208	-8191	255	
32102.035	1	1	0	0	0.099314	0.17499	0.090214	0.14231	0.16612	0.13378	0.29964	0.14563	0.21892	0.20092	0.166	0.3233	0.24828	0.071409	0.12159	0.055335	-2.8312	-3.0042	-3.0062	-3.3104	-2.9	-3.2042	-3.3083	-3.2292	-3.2062	-2.9813	-3.1792	-3.1792	-2.8354	-3.3271	-3.2104	-2.9938	182.368	279.791	465.652	175.293	158.203	492.466	495.359	502.457	350.495	420.493	507.242	505.923	150.392	485.035	327.786	149.164	0.00051306	0.00064363	0.00020054	1416.9	2.9948e-06	6.558e-06	1419.9	386.26	2.0484e-06	5.2996e-06	439.7	145.56	127.2	43.602	8.8061e-06	53.442	0.00059617	0.00058189	0.00016238	1438.9	6.3941e-06	6.4249e-06	1440.6	393.06	6.3747e-06	6.4158e-06	447.04	148.91	129.93	44.674	6.499e-06	55.269	196.890	235.940	276.800	161.723	299.607	306.724	161.403	166.098	305.294	308.970	165.658	169.969	170.307	174.864	298.417	174.320	-8191	255	
32102.156	1	1	0	0	0.21655	0.24995	0.12748	0.093372	0.23274	0.1172	0.1069	0.19458	0.22732	0.1393	0.15569	0.24006	0.37685	0.2439	0.12626	0.21088	-2.9188	-3.0438	-2.9667	-3.4562	-2.9708	-3.2729	-3.3521	-3.1771	-3.3375	-2.8208	-3.1167	-3.3229	-2.9958	-3.2438	-3.0312	-2.9583	304.852	191.489	497.161	451.683	250.006	460.593	500.809	421.840	378.693	267.075	239.553	498.033	473.640	466.445	429.566	212.958	0.00055992	0.00020607	0.00010961	1418.6	2.0791e-06	1.6248e-06	1413.9	385.81	1.0041e-05	7.4158e-06	437.93	145.68	126.93	43.663	5.057e-06	53.767	0.00059028	0.00058935	0.00016348	1440.7	6.4313e-06	6.376e-06	1439.1	392.75	6.4456e-06	6.4565e-06	447.28	149.17	129.79	44.659	6.4518e-06	55.264	192.098	158.079	257.955	161.796	296.940	327.117	161.506	165.962	272.450	323.242	165.649	169.632	170.179	175.045	284.667	174.347	-8191	255	
32102.252	1	1	0	0	0.1207	0.23038	0.049659	0.2527	0.15108	0.15786	0.27197	0.087234	0.14259	0.082286	0.089542	0.24657	0.07597	0.12499	0.13892	0.21712	-2.975	-2.8792	-3.025	-3.4479	-2.9208	-3.1312	-3.4479	-3.0854	-3.2167	-3.1208	-3.0062	-3.4	-3.1729	-3.2562	-3.0729	-3.0563	387.117	494.376	385.038	431.124	209.129	465.370	462.840	464.930	264.780	214.735	331.801	416.102	151.142	386.179	336.929	397.577	0.00054004	0.00018531	0.00015527	1424.1	7.9167e-06	7.1647e-06	1417.3	384	5.5484e-06	3.895e-06	437.22	145.84	127.01	43.436	5.3087e-06	53.723	0.00058555	0.00059574	0.00016567	1441.2	6.4451e-06	6.4182e-06	1439.7	392.84	6.4323e-06	6.4065e-06	447.16	148.96	129.81	44.587	6.4712e-06	55.305	200.500	295.663	233.532	161.451	271.523	293.021	161.452	165.990	254.124	265.848	165.747	169.792	170.188	175.243	271.812	174.532	-8191	255	
32102.348	1	1	0	0	0.090513	0.24485	0.071774	0.27853	0.12931	0.15247	0.0086939	0.25045	0.078321	0.056844	0.26059	0.20536	0.22129	0.26729	0.20071	0.28166	-2.7438	-3.1354	-3.0062	-3.6833	-3.0167	-3.0125	-3.4646	-3.1917	-3.2104	-3.1167	-3.075	-3.4667	-3.1979	-3.2208	-3.3458	-3.0229	271.758	244.550	386.314	154.400	247.804	452.379	501.391	443.017	312.957	361.742	494.823	473.843	193.275	462.128	290.498	481.521	0.00047702	0.00061167	0.00013812	1422.9	2.5032e-06	9.1711e-06	1417.7	384.44	4.3815e-06	3.692e-06	438.47	146.02	126.81	43.437	6.8718e-06	53.726	0.00058864	0.00059648	0.00016456	1441.1	6.37e-06	6.5158e-06	1437.4	392.45	6.3693e-06	6.4809e-06	447.27	148.98	129.68	44.586	6.5207e-06	55.165	187.248	272.853	280.872	161.521	322.003	322.471	161.346	166.034	254.034	285.346	165.615	169.922	170.149	174.987	281.575	174.249	-8191	255	
32102.467	1	1	0	0	0.24559	0.24734	0.14626	0.3098	0.040574	0.19946	0.061541	0.14075	0.2025	0.066678	0.056432	0.19671	0.19566	0.31187	0.19744	0.14286	-2.8771	-2.9979	-2.8271	-3.3958	-3.0083	-3.1167	-3.3354	-3.2542	-3.0062	-3.0229	-2.9333	-3.4813	-3.1813	-3.1354	-3.2292	-3.1417	406.063	403.207	467.333	494.047	210.202	473.986	354.651	431.617	277.504	409.849	351.252	427.405	484.182	222.826	386.134	292.227	0.00056262	0.00061302	8.5616e-05	1420.4	2.6366e-06	6.8029e-06	1414.7	385.21	7.6509e-06	1.2098e-05	439.41	145.54	127.25	43.391	1.732e-06	53.703	0.00058885	0.00059323	0.00016524	1440	6.4354e-06	6.4579e-06	1438.4	392.29	6.4288e-06	6.4657e-06	447.21	148.87	129.89	44.596	6.4963e-06	55.219	190.378	247.897	300.542	161.632	214.084	250.217	161.400	166.097	270.194	298.788	165.472	169.820	170.242	174.954	196.285	174.135	-8191	255	
32102.562	1	1	0	0	0.1354	0.15044	0.11739	0.23413	0.16846	0.041286	0.35302	0.35343	0.17752	0.02751	0.1191	0.13803	0.16194	0.11136	0.10986	0.16611	-2.6333	-3.2188	-2.8937	-3.3625	-3.0292	-2.9125	-3.4437	-3.0208	-3.1979	-3.0583	-3.0917	-3.3521	-3.3146	-3.0563	-3.1521	-3.075	410.038	181.151	403.429	177.877	488.170	461.246	432.683	424.438	306.095	449.475	376.156	364.315	258.482	369.532	362.613	435.000	0.00055404	0.00052964	0.00016027	1419.1	6.2366e-06	8.2535e-06	1417.3	385.17	4.9097e-06	4.0642e-06	437.53	145.86	127.41	43.348	6.4166e-06	53.41	0.0005949	0.00059515	0.0001637	1438.7	6.4129e-06	6.4308e-06	1438.3	392.02	6.4788e-06	6.4706e-06	446.57	148.68	129.79	44.632	6.3997e-06	55.191	193.425	224.679	277.115	161.517	282.694	241.162	161.313	166.034	265.690	356.107	165.756	169.811	170.407	174.967	281.272	174.227	-8191	255	
32102.635	1	1	0	0	0.14639	0.22932	0.069261	0.17485	0.17579	0.31786	0.45807	0.44777	0.02174	0.16195	0.070992	0.34061	0.36576	0.10821	0.32007	0.21228	-2.7938	-3.2083	-2.9125	-3.3396	-3.0417	-2.975	-3.4437	-3.1688	-3.0333	-3.1562	-3.0354	-3.4813	-3.2854	-2.9188	-3.2354	-3.0958	370.648	315.445	240.685	388.080	381.508	194.125	478.091	443.356	449.553	346.611	205.287	504.179	463.256	198.623	180.774	421.581	0.00055797	0.00037755	9.1146e-05	1419.6	5.3569e-06	3.9867e-06	1414.6	385.33	9.1273e-06	5.0746e-06	436.88	146	127.56	43.387	3.1509e-07	53.769	0.00059128	0.00059264	0.00016314	1438.9	6.4356e-06	6.4519e-06	1435.5	392.4	6.4408e-06	6.3847e-06	446.05	148.99	130.01	44.631	6.4066e-06	55.209	188.976	202.491	223.404	161.762	316.538	229.245	161.451	165.818	263.330	311.471	165.479	169.596	170.160	175.280	189.833	174.115	-8191	255	
32102.730	1	1	0	0	0.10282	0.12913	0.20845	0.34719	0.029078	0.11466	0.24492	0.12532	0.11598	0.12657	0.1423	0.19238	0.13326	0.1179	0.10702	0.09597	-2.55	-3.1688	-2.8083	-3.4479	-3.1646	-2.9437	-3.4417	-3.3063	-3.1167	-3.1521	-2.9437	-3.2667	-3.2812	-2.8375	-3.1208	-3.0958	341.571	180.935	258.491	442.920	314.039	391.613	375.781	415.891	330.880	241.024	403.227	410.647	324.257	150.265	267.292	227.352	0.00059884	0.00056003	0.0002736	1416.5	5.0325e-06	4.3447e-06	1414	385.07	9.3615e-06	1.968e-06	433.36	145.36	127.12	43.397	7.931e-06	53.525	0.00059377	0.0005874	0.0001625	1437.8	6.4566e-06	6.4187e-06	1436.8	392.38	6.5126e-06	6.4077e-06	445.14	148.74	129.64	44.576	6.3505e-06	55.128	192.134	239.115	272.709	161.782	305.902	265.740	161.427	166.041	291.305	324.751	165.821	169.786	170.394	174.993	279.015	174.282	-8191	255	
32102.826	1	1	0	0	0.19675	0.079826	0.307	0.26749	0.34702	0.13345	0.23915	0.23624	0.31806	0.11505	0.14171	0.17135	0.054455	0.17439	0.40693	0.20923	-2.5708	-3.1104	-2.8917	-3.3396	-3.3083	-2.8229	-3.2062	-3.4875	-2.7958	-3.3375	-3.0979	-3.0917	-3.3083	-3.0042	-3.1167	-3.3729	372.282	347.080	249.604	456.663	185.153	221.314	461.472	487.460	483.158	364.196	395.055	183.828	486.357	439.687	370.724	350.406	0.00053092	0.00042973	0.00019408	1417.8	7.3647e-06	7.23e-06	1412.1	384.78	7.4801e-06	3.8015e-06	437.75	145.38	126.99	43.378	2.3768e-06	53.532	0.0005953	0.00058487	0.0001617	1437.4	6.4057e-06	6.4358e-06	1435.5	392.3	6.3985e-06	6.4135e-06	446.55	148.94	129.61	44.623	6.3712e-06	55.199	191.398	237.394	236.793	161.663	266.469	314.876	161.395	166.084	272.866	257.069	165.792	169.493	170.382	175.071	359.699	174.249	-8191	255	
32102.947	1	1	0	0	0.08307	0.14291	0.2469	0.37092	0.2237	0.30643	0.15086	0.39159	0.13884	0.011873	0.20087	0.23107	0.17249	0.108	0.20757	0.17319	-2.3812	-3.1042	-2.9646	-3.2271	-3.2854	-3.0167	-3.3167	-3.3167	-2.7562	-3.3375	-2.9583	-3.1833	-3.25	-2.925	-3.2479	-3.1771	462.550	249.708	319.124	425.932	354.298	186.197	498.357	462.895	200.929	440.334	389.370	458.673	462.526	453.332	176.506	421.754	0.00057117	0.00051953	3.2418e-05	1413.1	4.4602e-06	4.3956e-06	1416.5	385.66	4.661e-06	5.5629e-06	435.88	145.36	127.03	43.331	5.6949e-06	53.621	0.00058494	0.00058966	0.00016172	1436.2	6.4415e-06	6.3542e-06	1436.5	392.68	6.4707e-06	6.3367e-06	445.41	148.69	129.6	44.54	6.4271e-06	55.243	194.208	182.043	485.553	161.691	294.788	276.281	161.479	166.071	271.897	361.369	165.673	169.548	170.109	174.879	272.458	174.252	-8191	255	
32103.045	1	1	0	0	0.097681	0.15396	0.013809	0.2084	0.047317	0.020469	0.30948	0.28474	0.15347	0.17211	0.1571	0.11631	0.085768	0.13082	0.17108	0.19204	-2.4042	-3.2958	-3.0042	-3.2146	-3.2708	-2.9958	-3.4604	-3.3479	-2.725	-3.2792	-3.1312	-3.1125	-3.1792	-3	-3.1604	-3.1479	169.404	286.657	301.161	391.083	175.222	346.643	503.773	485.434	149.425	442.461	168.502	190.488	153.322	471.178	494.614	505.760	0.00057948	0.00064285	0.00018673	1419.6	2.7918e-06	7.2259e-06	1413.1	385.36	2.9113e-06	8.9287e-06	437.62	145.35	126.5	43.435	5.0405e-06	53.785	0.00058319	0.00058688	0.00016429	1438.1	6.4024e-06	6.3567e-06	1434.4	392.47	6.3724e-06	6.3868e-06	445.98	148.74	129.39	44.604	6.4297e-06	55.16	192.845	216.411	268.606	161.671	220.939	281.314	161.417	166.125	293.682	317.756	165.671	169.798	170.005	174.921	292.805	174.308	-8191	255	
32103.139	1	1	0	0	0.1247	0.094179	0.18862	0.1117	0.17695	0.10225	0.26681	0.19473	0.22572	0.048646	0.15084	0.061687	0.20305	0.20713	0.1189	0.28972	-2.5563	-3.1979	-3.1417	-3.2333	-3.1375	-2.9375	-3.4542	-3.4458	-2.9646	-3.2062	-3.2104	-3.1354	-3.4979	-3.1063	-3.0708	-3.45	213.358	355.187	239.715	481.043	240.554	371.873	422.862	476.872	455.059	285.520	153.352	232.468	456.472	434.812	264.723	393.418	0.0005844	0.00052458	0.00021173	1418	8.6795e-06	6.2489e-06	1415.4	385.79	6.2332e-06	4.9472e-06	436.26	145.33	126.62	43.27	3.5433e-06	53.79	0.00058883	0.00058697	0.00016362	1436.1	6.444e-06	6.4003e-06	1435	392.41	6.4159e-06	6.3269e-06	445.94	148.76	129.54	44.556	6.4141e-06	55.206	187.808	235.914	273.936	161.701	291.515	299.204	161.356	166.117	250.230	283.903	165.696	169.741	170.260	174.761	241.391	174.251	-8191	255	
32103.236	1	1	0	0	0.23129	0.11549	0.18932	0.31238	0.29339	0.1152	0.19517	0.24332	0.20091	0.11019	0.23111	0.2906	0.17485	0.29304	0.20866	0.13708	-2.5042	-3.2646	-3.0563	-3.0208	-3.1854	-3.1021	-3.3042	-3.3229	-3.0187	-3.2938	-3.3563	-2.8146	-3.4292	-3.1229	-2.7875	-3.5187	198.432	436.598	344.915	498.391	416.916	230.151	403.221	486.000	411.497	216.600	501.576	462.941	397.282	221.547	332.491	500.453	0.00055637	0.00055559	0.00015886	1418.7	6.0484e-06	3.3458e-06	1415.1	385.92	5.4314e-06	1.9679e-06	436.96	145.45	126.64	43.424	3.6918e-06	53.592	0.00058583	0.00058668	0.0001648	1438.3	6.3674e-06	6.4142e-06	1436	392.86	6.406e-06	6.4165e-06	446.4	148.77	129.53	44.598	6.408e-06	55.218	195.112	264.595	228.366	161.682	280.401	394.042	161.429	166.030	298.153	231.096	165.638	169.793	170.339	175.164	258.174	174.222	-8191	255	
32103.330	1	1	0	0	0.10805	0.1371	0.18602	0.14859	0.1307	0.18345	0.22593	0.12488	0.26581	0.08058	0.19372	0.20524	0.05109	0.14768	0.19874	0.22394	-2.4125	-3.2396	-2.9604	-2.9792	-3.2042	-2.95	-3.3688	-3.4354	-2.8688	-3.0917	-3.1771	-3.0583	-3.1604	-3.1292	-2.9458	-3.3	172.200	480.512	403.552	474.284	376.608	227.780	389.211	394.238	409.368	353.818	399.787	177.943	460.299	502.411	331.766	456.702	0.0005886	0.0007292	0.00024118	1412.4	3.1173e-06	7.0858e-06	1415.9	384.81	3.4682e-06	4.3951e-06	437.3	145.51	126.91	43.478	5.3767e-06	53.475	0.0005823	0.00058462	0.00016516	1435.7	6.4064e-06	6.4687e-06	1435.5	391.92	6.3763e-06	6.414e-06	446.89	148.8	129.81	44.622	6.4932e-06	55.222	189.193	232.966	231.171	161.602	264.193	313.379	161.363	166.202	244.033	326.772	165.582	169.878	170.014	174.997	261.904	174.264	-8191	255	
32103.428	1	1	0	0	0.096096	0.18697	0.2119	0.32356	0.049064	0.052864	0.17844	0.10496	0.23639	0.079263	0.18932	0.13946	0.18684	0.12504	0.21506	0.1316	-2.625	-3.0187	-3.2271	-3.1146	-3.1979	-3.2875	-2.9521	-3.4875	-2.9146	-3.0167	-3.5271	-3.1208	-3.4167	-3.3208	-2.8063	-3.2062	225.609	389.539	312.601	470.719	252.988	209.453	390.589	383.045	428.280	356.255	234.239	245.645	426.851	503.665	439.444	503.821	0.00055123	0.00082602	6.4651e-05	1414.7	5.9034e-06	6.6148e-06	1411.9	385.98	7.7326e-06	3.9285e-06	435.14	145.37	126.67	43.441	4.925e-06	53.477	0.00058314	0.0005937	0.0001648	1437.8	6.4257e-06	6.4575e-06	1435.1	392.62	6.3599e-06	6.4487e-06	446.08	148.88	129.63	44.648	6.3801e-06	55.053	192.908	208.358	258.624	161.659	314.246	267.290	161.447	166.074	267.149	296.990	165.470	169.770	170.376	175.094	302.933	174.253	-8191	255	
32103.549	1	1	0	0	0.2647	0.17013	0.092523	0.3136	0.15784	0.19252	0.32918	0.31763	0.15502	0.15355	0.23701	0.1425	0.047171	0.50827	0.29469	0.12132	-2.4688	-2.9479	-3.2625	-3.1646	-3.1854	-3.0687	-2.9667	-3.2604	-3.0042	-2.9854	-3.3208	-3.0729	-3.1604	-3.0812	-2.8583	-3.2167	232.498	454.101	333.150	173.132	196.829	305.057	433.563	439.129	418.128	180.085	477.036	184.635	464.586	496.122	304.874	384.670	0.00055023	0.00037759	6.518e-05	1421.2	2.5281e-06	8.6898e-06	1415.5	386.5	2.6371e-06	8.8189e-07	438.34	145.15	126.94	43.459	3.0335e-06	53.636	0.00058692	0.00059126	0.00016232	1438.1	6.4434e-06	6.52e-06	1436.1	392.73	6.4681e-06	6.3607e-06	446.36	148.64	129.7	44.692	6.4114e-06	55.159	191.071	267.275	254.656	161.702	261.104	299.461	161.455	166.118	291.148	335.654	165.620	169.558	170.476	174.873	271.490	174.316	-8191	255	
32103.645	1	1	0	0	0.26802	0.18227	0.12091	0.37721	0.099664	0.12073	0.31322	0.20901	0.12699	0.02347	0.22284	0.15765	0.081242	0.16518	0.054736	0.19208	-2.6937	-2.6854	-3.1375	-3.0917	-2.9688	-3.2854	-2.9604	-3.2354	-3.0062	-2.7583	-3.3979	-3.1229	-3.2042	-3.1979	-3.0521	-3.2875	419.587	354.458	267.934	487.748	378.389	416.368	399.553	506.348	445.877	168.772	487.943	342.522	462.300	440.625	486.111	288.371	0.0006092	0.00052938	5.0349e-05	1414.8	5.8323e-06	6.3767e-06	1411.2	385.11	4.9734e-06	2.9001e-06	439.11	145.84	126.83	43.383	3.6458e-06	53.472	0.00058537	0.00058646	0.00016239	1436.1	6.4311e-06	6.4957e-06	1434.8	392.32	6.3755e-06	6.4408e-06	446.66	148.93	129.62	44.543	6.3599e-06	55.085	196.275	235.404	314.706	161.611	294.401	303.263	161.407	166.146	253.939	384.776	165.655	169.766	170.236	175.013	365.818	174.450	-8191	255	
32103.740	1	1	0	0	0.056715	0.1214	0.082898	0.38254	0.092824	0.24109	0.26527	0.23558	0.096655	0.32217	0.079256	0.24499	0.30793	0.2632	0.15181	0.25016	-2.7333	-2.7042	-3	-3.1	-2.9188	-3.1146	-3.1417	-3.1042	-3.0687	-3.0333	-3.4104	-3.1375	-2.9833	-3.3521	-2.9208	-3.2917	244.386	342.914	164.587	169.831	168.098	440.956	464.147	179.440	252.880	490.136	465.104	171.012	481.088	163.179	339.458	315.258	0.00055502	0.0007737	0.00017991	1419.3	5.6911e-06	7.6365e-06	1415.3	384.83	4.1102e-06	5.0223e-06	437.92	145.33	126.46	43.315	6.5179e-06	53.332	0.00058974	0.00058601	0.0001623	1437.4	6.4003e-06	6.4383e-06	1434.4	392.3	6.473e-06	6.4617e-06	446.45	148.6	129.58	44.591	6.3888e-06	55.095	185.575	258.332	241.823	161.639	299.601	301.294	161.395	166.096	284.485	258.400	165.690	169.947	170.223	174.940	283.934	174.229	-8191	255	
32103.836	1	1	0	0	0.18825	0.2188	0.27432	0.28714	0.16628	0.14656	0.28523	0.2496	0.17086	0.19637	0.44103	0.017302	0.14544	0.14302	0.1459	0.029129	-2.8125	-2.8812	-3.1354	-3.2313	-2.9813	-3.4854	-3.0146	-3.2146	-3.2958	-3.0167	-3.2646	-3.2271	-3.2188	-3.3312	-3.0438	-3.2125	475.931	424.658	394.174	413.662	381.928	290.581	491.188	447.862	458.380	202.817	488.278	378.110	475.947	460.643	480.240	501.472	0.00059937	0.00038098	0.00022871	1414.4	4.9893e-06	3.6498e-06	1413.9	385.45	3.6653e-06	7.1774e-07	436.9	145.58	126.72	43.466	4.7171e-06	53.275	0.00059169	0.00058404	0.00016106	1434.2	6.379e-06	6.37e-06	1433	392.55	6.4163e-06	6.4116e-06	445.65	148.58	129.7	44.585	6.3868e-06	55.128	194.489	186.843	249.202	161.774	249.953	423.062	161.427	166.085	277.044	289.778	165.562	169.978	170.328	175.122	289.262	174.203	-8191	255	
32103.932	1	1	0	0	0.14806	0.017835	0.050465	0.20881	0.026804	0.30391	0.29749	0.29661	0.14301	0.09155	0.16926	0.36677	0.33836	0.15219	0.13339	0.14321	-2.7604	-3.0521	-2.975	-3.3	-2.9521	-3.1542	-3.1292	-3.0333	-3.3042	-2.85	-3.2354	-3	-2.9042	-3.2854	-3.1271	-3.1083	485.011	164.635	194.869	484.890	198.160	296.136	437.129	180.840	162.060	431.191	322.572	503.015	180.731	187.302	374.686	444.261	0.00056242	0.00010241	8.5637e-05	1416.9	5.4661e-06	2.1624e-06	1410.2	384.13	6.0548e-06	5.24e-06	436.29	145.33	127.08	43.282	3.7494e-06	53.429	0.00059252	0.00059057	0.00016091	1435.9	6.4243e-06	6.3975e-06	1431.8	391.65	6.3734e-06	6.4189e-06	445.33	148.62	129.75	44.482	6.4394e-06	55.063	190.639	239.013	259.196	161.539	284.337	401.027	161.450	166.092	262.364	288.842	165.523	169.762	170.406	175.207	273.887	174.427	-8191	255	
32104.027	1	1	0	0	0.26249	0.073631	0.031226	0.12303	0.2046	0.17071	0.3253	0.10376	0.34027	0.066721	0.28518	0.082197	0.38372	0.29401	0.12515	0.079277	-2.75	-2.9792	-3.2042	-3.3042	-2.775	-3.2229	-3.2583	-3.1562	-3.2188	-2.9896	-3.1375	-3.3583	-2.9917	-3.4021	-3.0687	-3.0958	396.220	158.292	397.620	452.579	306.977	324.727	448.752	465.735	336.356	219.320	159.933	409.504	428.242	439.938	158.094	274.714	0.00054593	0.00051085	0.0001067	1417.6	5.9971e-06	2.0253e-06	1408.7	384.04	5.0156e-06	3.3695e-06	438.11	145.38	126.32	43.278	6.8284e-06	53.441	0.00058492	0.00057927	0.00016214	1434.2	6.4285e-06	6.3751e-06	1430.6	391.84	6.4219e-06	6.3718e-06	445.52	148.55	129.26	44.46	6.385e-06	55.04	193.338	203.392	232.493	161.661	317.289	269.655	161.456	166.138	279.980	330.288	165.564	169.705	170.281	175.128	280.129	174.394	-8191	255	
32104.125	1	1	0	0	0.30622	0.092453	0.23546	0.09047	0.070255	0.055408	0.2674	0.10408	0.22876	0.11776	0.33871	0.18001	0.1255	0.061949	0.14037	0.14862	-2.8021	-2.9333	-2.8708	-3.5146	-2.9146	-3.3458	-3.225	-3.075	-3.3083	-2.9979	-3.2083	-3.3042	-3.075	-3.2208	-3.1188	-3.0917	472.504	173.311	275.572	264.776	220.920	280.849	422.704	485.853	207.384	306.146	417.595	184.265	489.957	346.584	258.131	373.511	0.00062197	0.00045489	0.00018524	1412.6	4.6483e-06	6.8007e-06	1404.5	384.63	5.3626e-06	1.4009e-06	436.01	145.36	126.19	43.339	5.8215e-06	53.464	0.00058967	0.00058263	0.00016339	1430.6	6.373e-06	6.381e-06	1428.2	390.82	6.3872e-06	6.4121e-06	445.77	148.47	129.22	44.488	6.4211e-06	55.075	195.028	208.613	237.807	161.690	279.781	288.904	161.412	166.016	259.528	284.470	165.786	169.670	170.320	175.236	314.900	174.398	-8191	255	
32104.242	1	1	0	0	0.26468	0.064373	0.054346	0.14835	0.2148	0.29329	0.23668	0.3047	0.15064	0.053089	0.42648	0.16881	0.080241	0.24135	0.091225	0.25151	-2.8021	-2.8417	-2.9375	-3.3875	-2.7812	-3.0438	-3.3458	-3.0375	-3.2083	-3.0271	-3.0208	-3.3979	-2.8083	-3.2542	-3.2583	-2.8646	183.534	259.364	479.777	479.380	324.613	396.012	400.860	422.337	189.105	354.371	441.580	436.915	373.327	150.907	202.913	150.614	0.00057848	0.00014271	0.00010582	1410.2	8.7308e-07	6.8934e-06	1404.8	383.69	4.402e-06	8.5508e-06	433.24	144.69	126.49	43.314	2.6858e-06	53.41	0.00058421	0.00058619	0.00016198	1429.3	6.3988e-06	6.261e-06	1426.2	390.84	6.3168e-06	6.3728e-06	444.03	148.29	129.29	44.434	6.4363e-06	55.057	192.900	205.903	215.044	161.516	409.408	278.971	161.307	166.275	268.287	314.762	165.595	169.746	170.197	175.073	281.785	174.220	-8191	255	
32104.340	1	1	0	0	0.16819	0.094913	0.088633	0.42273	0.16732	0.1897	0.20718	0.1914	0.18552	0.018309	0.10547	0.069736	0.090406	0.06564	0.057528	0.15883	-2.85	-3.2021	-2.8292	-3.4604	-2.9437	-3.2292	-3.3812	-3.075	-3.4375	-3.0521	-2.8521	-3.3979	-3.0438	-3.1396	-3.3292	-3.1104	353.342	391.193	260.257	163.655	263.970	442.066	421.556	386.742	425.171	356.454	448.207	199.819	153.064	405.783	262.806	451.805	0.00052509	0.00015139	0.00015097	1412.2	5.9944e-06	7.2573e-06	1401.6	383.95	1.7676e-06	9.6371e-06	436.28	144.92	125.86	43.278	3.2297e-06	53.468	0.000578	0.00058627	0.00016145	1427.6	6.3315e-06	6.3795e-06	1424.7	390.76	6.2916e-06	6.3262e-06	444.66	148.17	129.2	44.475	6.3991e-06	54.949	189.111	178.855	249.301	161.638	273.070	256.696	161.398	166.138	249.935	316.916	165.637	169.846	170.184	175.215	289.923	174.036	-8191	255	
32104.436	1	1	0	0	0.22952	0.055067	0.1565	0.4153	0.051944	0.18847	0.29935	0.29436	0.21709	0.086834	0.23799	0.16302	0.11515	0.060707	0.18211	0.14435	-2.825	-2.9292	-2.9125	-3.3792	-2.9771	-3.0292	-3.3125	-3.0458	-3.0687	-3.1708	-3.1896	-3.2917	-3.0292	-2.9958	-3.4729	-3.0375	335.597	349.785	501.599	412.027	348.249	258.855	433.169	411.660	181.257	407.782	492.612	436.058	429.138	185.671	326.506	323.750	0.00054885	0.00071195	0.0003001	1401.7	4.7718e-06	8.8408e-06	1404.1	383.69	4.9791e-06	4.1376e-06	434.72	144.96	126.82	43.411	4.0144e-06	53.374	0.00057921	0.00058657	0.00016243	1424	6.2959e-06	6.389e-06	1424.1	390.81	6.3143e-06	6.4378e-06	443.94	148.18	129.29	44.449	6.4292e-06	54.923	188.482	272.167	240.619	161.627	278.900	333.332	161.545	166.114	290.027	350.977	165.553	169.756	170.359	175.064	254.852	174.314	-8191	255	
32104.508	1	1	0	0	0.18592	0.031263	0.21605	0.33572	0.41512	0.042706	0.079421	0.28568	0.092062	0.23178	0.30604	0.16896	0.35577	0.19246	0.13318	0.067115	-2.8021	-3.1958	-2.7687	-3.4688	-3.0917	-3.1354	-3.4604	-2.9562	-3.2188	-3.3187	-2.9437	-3.2646	-3.1729	-3.0938	-3.2521	-2.9729	445.283	180.046	493.566	154.527	249.362	462.727	290.829	466.500	349.007	488.425	217.955	437.396	454.008	462.053	368.588	220.926	0.00058582	0.00044063	0.00025242	1404.2	4.8656e-06	2.9378e-06	1401.6	383.04	4.3157e-06	3.2726e-06	435.53	144.35	126.79	43.226	5.3895e-06	53.327	0.00058107	0.00058685	0.00016183	1423.9	6.4223e-06	6.4435e-06	1424	390.29	6.3447e-06	6.4589e-06	443.74	147.92	129.19	44.456	6.4215e-06	54.92	191.501	252.889	235.553	161.685	257.397	320.956	161.541	166.112	242.071	297.596	165.595	169.676	170.295	175.092	332.244	174.446	-8191	255	
32104.629	1	1	0	0	0.17155	0.20757	0.091564	0.035603	0.072577	0.1161	0.43145	0.32448	0.25056	0.16121	0.1622	0.094852	0.090714	0.098681	0.016998	0.12326	-2.8438	-2.9813	-3.0125	-3.3146	-3.1146	-3.1271	-3.5458	-3.2208	-3.0167	-3.2313	-3.125	-3.1417	-3.1729	-3.0083	-3.3396	-3.1792	477.522	491.191	258.843	495.488	234.210	487.932	422.645	479.118	461.257	314.651	167.655	195.479	333.139	373.463	441.265	475.079	0.00059098	0.0008244	6.5355e-05	1406.2	4.9734e-06	3.2073e-06	1406.5	382.97	6.5447e-06	5.335e-06	434.08	144.49	126.2	43.285	5.2735e-06	53.198	0.00058147	0.00058588	0.00016142	1425.8	6.3738e-06	6.4215e-06	1424.9	390.17	6.3098e-06	6.3948e-06	443.66	148.13	129.21	44.448	6.2782e-06	54.965	187.490	241.711	174.357	161.689	317.071	330.866	161.478	166.175	266.482	284.997	165.660	169.783	170.122	174.951	275.967	174.212	-8191	255	
32104.725	1	1	0	0	0.11679	0.15128	0.17517	0.34227	0.074694	0.25798	0.27447	0.18582	0.22621	0.084417	0.17559	0.012683	0.17395	0.078481	0.46443	0.19456	-2.5646	-3.2979	-2.8896	-3.4104	-3.0833	-2.9646	-3.4562	-3.1	-2.9417	-3.3812	-3.0146	-3.175	-3.175	-2.9813	-3.1042	-3.2417	313.297	292.949	369.167	420.527	383.709	163.835	451.106	337.922	489.465	460.559	470.915	228.532	368.319	307.268	196.970	490.709	0.0005326	0.00043287	0.00012771	1406.7	1.4121e-06	5.2886e-06	1400.1	382.76	3.0223e-06	8.6391e-06	434	144.91	126.17	43.148	5.5065e-06	53.617	0.00058523	0.00057978	0.00016075	1425.5	6.4141e-06	6.3824e-06	1423.7	390.47	6.3133e-06	6.3697e-06	443.99	148.32	128.97	44.356	6.2534e-06	54.983	189.836	235.284	248.171	161.566	284.209	324.859	161.448	166.101	282.745	341.203	165.637	169.865	170.431	174.843	259.947	174.487	-8191	255	
32104.820	1	1	0	0	0.11857	0.086487	0.15312	0.20969	0.11645	0.14271	0.2368	0.16138	0.29594	0.31392	0.35811	0.052124	0.11244	0.26128	0.11425	0.26681	-2.5458	-3.1875	-2.8833	-3.2375	-3.1542	-3.0438	-3.4646	-3.0542	-2.925	-3.2479	-3.1604	-3.2875	-3.1833	-2.9333	-3.2604	-3.2354	375.115	398.061	217.796	485.292	460.940	372.254	372.556	431.772	496.789	487.494	492.482	196.179	452.856	162.793	355.855	435.784	0.0005527	0.00027012	0.00019007	1407.3	2.9918e-06	7.4424e-06	1402.4	382.17	5.5792e-06	2.9617e-06	435.79	145.13	126.46	43.082	4.8205e-06	53.263	0.00058829	0.00058476	0.00015938	1427.7	6.3499e-06	6.3884e-06	1425.4	390.19	6.3444e-06	6.2901e-06	443.87	148.01	129.16	44.36	6.3391e-06	54.895	192.946	235.731	240.341	161.607	293.247	331.537	161.542	166.182	258.695	366.468	165.429	169.604	170.345	174.743	319.504	174.100	-8191	255	
32104.918	1	1	0	0	0.20121	0.079853	0.18155	0.32255	0.27174	0.18366	0.24483	0.19794	0.12682	0.16594	0.16853	0.12835	0.21083	0.26492	0.27159	0.11832	-2.5062	-3.2854	-2.9146	-3.05	-3.2167	-2.9542	-3.4604	-3.1708	-3.1479	-3.2188	-3.1333	-3.0438	-3.3438	-3.1312	-3.2938	-3.3125	371.609	236.630	503.532	455.633	319.475	473.116	393.808	410.186	307.913	435.188	167.481	503.766	446.477	158.808	465.026	292.775	0.00055136	0.00031292	0.00016067	1404.1	4.6708e-06	8.2917e-06	1401.1	382.3	5.4685e-06	7.1473e-06	435.93	145.02	126.03	43.258	4.0593e-06	53.373	0.00058622	0.00057753	0.00016106	1424.5	6.3254e-06	6.3214e-06	1424.5	389.99	6.3425e-06	6.3324e-06	444.63	148.04	129.02	44.454	6.2849e-06	54.943	190.737	189.671	245.960	161.653	258.953	313.904	161.304	166.090	283.356	326.170	165.625	169.622	170.298	175.213	289.037	174.383	-8191	255	
32105.035	1	1	0	0	0.14175	0.050626	0.18839	0.087214	0.069057	0.26326	0.25931	0.36332	0.11135	0.24361	0.25984	0.19633	0.20474	0.3053	0.24912	0.088019	-2.4104	-3.2708	-2.9333	-3.2583	-3.3104	-3.0083	-3.3625	-3.4896	-2.7812	-3.1729	-3.2521	-3.1667	-3.4771	-3.1146	-3.1479	-3.3125	213.949	378.212	353.613	437.061	398.912	217.112	413.328	479.847	215.804	371.224	164.794	439.560	479.934	430.405	413.085	192.926	0.00056481	0.00034744	6.5166e-05	1404.8	4.4453e-06	3.8524e-06	1399.3	383.52	4.2976e-06	5.7216e-06	435.72	144.69	126.05	43.183	2.1239e-06	53.39	0.00058426	0.00057609	0.00016205	1425.5	6.3048e-06	6.2673e-06	1424.9	390.5	6.3686e-06	6.2924e-06	444	148.09	129.04	44.324	6.3178e-06	54.88	195.576	272.492	277.618	161.745	283.237	284.071	161.408	166.137	255.394	347.692	165.696	169.815	170.206	175.045	318.977	174.100	-8191	255	
32105.109	1	1	0	0	0.15447	0.13884	0.1877	0.26293	0.087555	0.18318	0.063463	0.11997	0.15562	0.048504	0.28296	0.21497	0.20462	0.078929	0.15659	0.21808	-2.5	-3.4167	-2.9896	-2.9896	-3.0854	-3	-3.2729	-3.2687	-2.8708	-3.4	-3.4	-3.0271	-3.2521	-3.2083	-2.9521	-3.1854	291.448	273.335	421.160	504.762	151.958	273.508	394.613	380.468	340.580	504.971	456.861	156.025	472.041	243.182	287.989	308.864	0.00057236	4.9373e-05	0.00028815	1409	5.6342e-06	7.9895e-06	1395.3	383.1	6.5145e-06	3.3939e-06	435.53	144.95	126.54	43.16	3.1154e-06	53.046	0.00057855	0.00057737	0.00016235	1424.6	6.3333e-06	6.2676e-06	1422.1	389.99	6.2969e-06	6.3372e-06	444.17	148.15	129.08	44.354	6.3493e-06	54.783	190.607	471.229	281.538	161.699	293.385	312.280	161.368	166.183	271.505	316.018	165.615	170.119	170.411	174.930	335.997	174.163	-8191	255	
32105.229	1	1	0	0	0.13121	0.10347	0.30119	0.0028132	0.12724	0.13891	0.10704	0.31082	0.16849	0.27045	0.43185	0.081631	0.28804	0.14372	0.23811	0.1042	-2.525	-3.1292	-3.1896	-3.1063	-3.1729	-2.9562	-3.3896	-3.4708	-3.0125	-3.2979	-3.2687	-3.1458	-3.2146	-3.0687	-3.1083	-3.3521	460.924	283.054	419.724	359.576	385.157	430.172	447.469	475.595	221.300	428.052	453.880	426.414	438.253	324.673	504.178	418.517	0.00056516	0.00068919	7.5618e-05	1403	3.9769e-06	9.5743e-06	1402	384.48	5.2472e-06	5.2338e-06	436.55	144.92	126.26	43.295	4.7768e-06	53.371	0.00057576	0.00057828	0.00016263	1423.5	6.3189e-06	6.3546e-06	1423.7	389.75	6.2964e-06	6.3301e-06	444.53	148.25	129.1	44.437	6.3151e-06	54.922	188.861	241.119	217.600	161.710	339.927	308.151	161.574	166.165	289.202	342.119	165.567	169.698	170.045	175.126	307.430	174.180	-8191	255	
32105.324	1	1	0	0	0.109	0.064134	0.06014	0.43508	0.26204	0.33082	0.17471	0.21736	0.21953	0.058588	0.099235	0.10866	0.19015	0.32824	0.14048	0.30521	-2.525	-3.1229	-3.0104	-3.125	-3.2833	-3.0208	-3.1792	-3.5	-2.9521	-3.0958	-3.4333	-3.1167	-3.3167	-3.0979	-2.8354	-3.3458	338.948	342.587	208.022	462.356	459.038	241.023	408.060	416.482	375.962	170.573	495.088	435.765	493.862	171.041	422.141	407.203	0.00055361	5.2e-05	0.00017135	1402.8	2.931e-06	4.4452e-06	1403.7	383.71	5.9491e-06	3.3871e-06	433.99	144.91	125.4	43.194	2.1508e-06	53.16	0.00058198	0.00058142	0.00016126	1422	6.3241e-06	6.3608e-06	1423.3	389.76	6.3e-06	6.385e-06	443.01	147.99	128.65	44.35	6.3376e-06	54.867	197.157	467.533	221.826	161.848	275.786	327.210	161.530	166.218	244.652	251.884	165.805	169.798	170.201	175.170	309.219	174.285	-8191	255	
32105.420	1	1	0	0	0.13894	0.17108	0.15626	0.10793	0.1401	0.1991	0.14064	0.2976	0.18478	0.22762	0.063364	0.1819	0.2035	0.18006	0.11018	0.046092	-2.5604	-2.8563	-3.275	-3.2125	-3.0792	-3.1312	-3.3063	-3.5604	-2.9208	-3.1937	-3.4792	-3.0625	-3.1604	-3.4521	-2.9188	-3.2167	437.893	225.959	423.948	193.440	437.647	155.707	437.158	457.593	338.600	165.577	421.897	421.197	384.350	168.246	386.290	490.455	0.00056034	0.00029323	0.00015315	1404.5	8.6673e-06	4.0416e-06	1396.1	383.38	5.3118e-06	4.8468e-06	435.21	145	126.48	43.309	3.7914e-06	53.36	0.00057657	0.0005822	0.00016206	1420.7	6.2658e-06	6.3481e-06	1420.4	390.18	6.3177e-06	6.4129e-06	443.35	148.02	128.86	44.434	6.343e-06	54.878	194.496	507.909	274.546	161.865	258.355	339.673	161.496	166.066	278.498	309.010	165.525	169.640	170.411	175.038	284.128	174.103	-8191	255	
32105.516	1	1	0	0	0.10208	0.061016	0.27283	0.26797	0.1946	0.16662	0.22959	0.21489	0.12055	0.48651	0.13148	0.28259	0.16672	0.33031	0.2236	0.17338	-2.6021	-2.8771	-3.0771	-3.1833	-3.2792	-3.1354	-2.925	-3.3937	-3.1333	-3.0354	-3.35	-2.8479	-3.3063	-3.3417	-2.9917	-3.1479	260.068	396.414	454.966	466.582	183.591	199.503	433.822	498.699	355.477	428.831	500.673	443.623	372.514	251.588	455.476	420.708	0.00058565	0.00039593	0.00016241	1402.5	2.7601e-06	5.7425e-06	1395.7	384.52	5.1995e-06	6.5019e-06	435.63	144.83	126.13	43.397	5.3224e-06	53.297	0.00058212	0.00058464	0.00016269	1422.1	6.3677e-06	6.4591e-06	1420.7	390.63	6.3142e-06	6.394e-06	443.95	148.28	128.9	44.437	6.3876e-06	54.955	192.623	217.541	286.427	161.788	278.602	299.117	161.425	166.099	278.678	330.274	165.711	169.459	170.527	175.389	239.064	174.381	-8191	255	
32105.637	1	1	0	0	0.031216	0.25422	0.16472	0.18558	0.12873	0.20025	0.27876	0.13011	0.30162	0.39034	0.25789	0.31678	0.19872	0.091246	0.17979	0.10791	-2.6021	-2.7792	-3.2562	-3.1813	-3.1979	-3.2354	-3.0938	-3.2854	-2.9688	-3.0229	-3.4083	-3.1542	-3.0979	-3.1292	-2.8104	-3.2625	354.342	161.482	215.601	482.806	358.289	315.934	444.648	482.245	328.899	332.386	478.780	444.118	262.913	379.667	469.315	281.535	0.00056201	0.00066224	0.00012943	1405.2	2.5084e-06	6.0424e-06	1398.6	382.83	5.9711e-06	7.3505e-06	433.96	145.05	126.34	43.15	1.5541e-06	53.288	0.0005809	0.00058803	0.00016187	1422.5	6.3262e-06	6.407e-06	1422.6	389.79	6.4469e-06	6.3746e-06	443.72	148.07	128.95	44.343	6.3851e-06	54.807	195.018	232.454	265.496	161.708	217.932	341.588	161.391	166.114	254.588	295.515	165.610	169.788	170.374	175.180	302.684	174.357	-8191	255	
32105.732	1	1	0	0	0.063442	0.15137	0.20761	0.27322	0.086151	0.19976	0.31865	0.1669	0.13017	0.17038	0.1647	0.33884	0.27182	0.088816	0.11041	0.12395	-2.7479	-2.9146	-3.1542	-3.1125	-3.1229	-3.3917	-3.1875	-3.3875	-3.1125	-2.8375	-3.5292	-3.1521	-3.1521	-3.4354	-2.7833	-3.1104	301.521	392.810	464.325	455.958	439.965	422.427	378.519	432.163	376.356	152.373	317.950	481.777	165.212	441.760	413.648	307.649	0.00064404	0.00020367	0.00010671	1406	8.7265e-06	3.3437e-06	1403.5	382.4	6.6839e-06	2.1357e-06	435.54	144.34	126.1	43.186	6.6602e-06	53.078	0.00058668	0.00058574	0.00016141	1422.9	6.3818e-06	6.3674e-06	1423	389.66	6.3644e-06	6.3525e-06	443.91	147.84	128.95	44.37	6.3908e-06	54.796	188.927	239.696	302.352	161.588	292.944	236.040	161.519	166.287	281.059	252.196	165.913	169.839	170.140	175.219	289.182	174.085	-8191	255	
32105.805	1	1	0	0	0.43679	0.20059	0.1495	0.12279	0.11726	0.10388	0.10589	0.35115	0.18259	0.21789	0.12797	0.26834	0.087526	0.068643	0.098204	0.10701	-2.7854	-2.7604	-3.1396	-3.0083	-2.9375	-3.25	-3.0938	-3.1875	-3.2792	-2.9271	-3.3854	-3.2687	-3.1021	-3.3042	-2.8229	-3.3292	363.278	220.968	458.386	494.937	290.042	216.398	392.386	444.818	380.132	203.067	500.432	437.267	235.238	388.873	401.322	245.035	0.00052184	0.00017794	6.8817e-05	1399.7	1.3083e-06	5.779e-06	1392.6	383.77	5.8097e-06	5.8275e-06	434.94	144.84	125.92	43.206	4.5653e-06	53.264	0.00058765	0.00058947	0.0001614	1421.8	6.4108e-06	6.3952e-06	1418.3	390.29	6.4048e-06	6.4095e-06	442.91	148.05	128.65	44.403	6.3429e-06	54.727	193.191	209.337	277.157	161.897	214.771	317.631	161.339	166.278	270.429	353.552	165.602	169.687	170.292	175.030	312.786	174.229	-8191	255	
32105.926	1	1	0	0	0.20888	0.076604	0.19352	0.17879	0.14521	0.18144	0.22152	0.27398	0.047593	0.077211	0.2852	0.12148	0.13395	0.17477	0.14664	0.17945	-2.7292	-2.8479	-3.2313	-3.3375	-2.8146	-3.225	-3.1542	-3.1854	-3.1479	-3.0646	-3.4042	-3.3583	-3.1792	-3.375	-3.0312	-3.1333	421.426	396.759	277.008	489.880	472.930	197.895	446.121	496.556	173.393	476.559	482.315	465.430	265.291	354.676	422.675	166.330	0.00051855	0.00040627	0.00018672	1404.1	4.7565e-06	4.9158e-06	1401.9	384.09	5.1338e-06	6.5736e-06	435.69	144.63	126.11	43.098	6.9335e-06	53.09	0.00058966	0.00058554	0.00016001	1423.1	6.4013e-06	6.3737e-06	1422.5	390.12	6.3799e-06	6.3957e-06	443.54	147.83	129.02	44.361	6.3825e-06	54.814	189.889	250.004	271.718	161.828	237.315	318.472	161.306	166.210	247.416	288.653	165.817	169.552	170.346	175.022	289.987	174.603	-8191	255	
32106.021	1	1	0	0	0.1507	0.22811	0.10379	0.14008	0.15118	0.15498	0.17726	0.04933	0.13211	0.10485	0.17321	0.074711	0.19388	0.051735	0.25838	0.17042	-2.8583	-2.75	-3.1937	-3.2354	-2.6292	-3.2021	-3.2604	-3.3021	-3.2667	-2.8396	-3.125	-3.1104	-2.8146	-3.3229	-3.2021	-3.1562	330.077	248.922	341.075	410.026	307.931	300.389	148.926	157.171	351.550	215.177	495.252	444.810	395.076	235.364	404.509	169.555	0.00054289	0.00026263	0.0001761	1404.5	2.4865e-06	8.5647e-06	1395.9	383.28	6.766e-06	5.8743e-06	435.48	145.31	126.78	43.269	1.5053e-06	53.212	0.00058387	0.00057833	0.0001608	1422.5	6.3735e-06	6.3331e-06	1421.8	389.86	6.3563e-06	6.391e-06	443.75	148.23	129.04	44.359	6.3487e-06	54.861	193.557	250.479	271.005	161.810	297.188	298.732	161.517	166.137	235.237	325.792	165.496	169.659	170.480	175.196	271.228	174.274	-8191	255	
32106.115	1	1	0	0	0.23349	0.16114	0.26947	0.33799	0.12165	0.15626	0.15625	0.10185	0.17962	0.057191	0.16504	0.03317	0.31505	0.16102	0.27982	0.1532	-2.575	-3.0438	-3.2208	-3.4917	-2.9271	-3.1458	-3.3187	-3.0979	-3.2562	-2.95	-3.2021	-3.4354	-3.0125	-3.2062	-3.0625	-3.0938	467.000	191.736	409.019	480.889	211.297	378.727	401.894	456.797	227.553	304.253	317.074	451.836	465.141	417.291	461.277	404.596	0.00053051	0.0001986	0.00010716	1400.6	3.4332e-06	3.0296e-06	1396.3	383.11	9.8624e-06	4.4087e-06	435.53	145.1	125.98	43.127	4.1916e-06	53.265	0.00058726	0.00058645	0.00016212	1422.4	6.368e-06	6.3465e-06	1419.7	390.25	6.4308e-06	6.3263e-06	444.13	148.1	129.05	44.365	6.3612e-06	54.911	189.870	240.605	506.858	161.608	292.141	259.458	161.544	166.173	283.179	307.536	165.634	169.590	170.265	174.849	252.686	174.346	-8191	255	
32106.213	1	1	0	0	0.087489	0.063733	0.17686	0.094097	0.1761	0.14966	0.31654	0.2238	0.064356	0.13073	0.053979	0.092237	0.12004	0.36038	0.12444	0.12845	-3.0312	-2.9646	-3.0792	-3.3937	-2.9813	-3.1354	-3.6604	-2.9792	-3.2583	-3.0687	-3.0146	-3.2875	-3.1437	-3.2917	-3.1	-2.8729	203.511	319.661	212.790	181.015	301.612	373.886	461.252	383.335	470.853	220.459	221.127	166.439	459.852	487.500	469.875	495.375	0.00056891	0.00012414	0.00014344	1399	7.0955e-06	2.5335e-06	1400.3	384.23	8.2049e-06	4.2199e-06	435	144.57	127.14	43.32	4.981e-06	53.427	0.00058105	0.0005781	0.00016329	1420.8	6.3795e-06	6.335e-06	1422.8	390.07	6.3412e-06	6.3393e-06	443.87	148.07	129.22	44.423	6.3752e-06	54.872	191.633	229.459	307.215	161.589	276.836	281.969	161.480	166.172	288.446	283.971	165.549	169.757	170.198	174.988	275.167	174.311	-8191	255	
32106.332	1	1	0	0	0.14359	0.14449	0.19188	0.20338	0.01689	0.18581	0.020572	0.16908	0.17469	0.063327	0.1918	0.15647	0.19836	0.19933	0.16158	0.22916	-2.8417	-2.85	-3.0458	-3.4813	-2.9	-3.2792	-3.4313	-3.15	-3.3312	-3.0042	-3.0417	-3.3	-3.0208	-3.2625	-3.2625	-3.125	208.449	378.251	334.051	414.711	490.166	160.364	226.351	427.085	414.132	428.378	427.442	471.180	483.253	148.638	385.025	400.954	0.00059562	0.00046426	0.00021754	1401.1	3.1616e-06	7.3006e-06	1397.5	383.59	3.4571e-06	4.944e-06	435.21	144.54	126.28	43.1	5.6064e-06	53.373	0.00057691	0.00058151	0.00016232	1423.3	6.354e-06	6.3621e-06	1422.8	390.27	6.3134e-06	6.3128e-06	443.63	148.13	128.76	44.349	6.3707e-06	54.923	192.617	199.139	236.616	161.658	350.018	284.727	161.529	166.144	297.103	313.307	165.504	169.920	170.265	175.326	298.632	174.235	-8191	255	
32106.404	1	1	0	0	0.068461	0.15174	0.1483	0.28774	0.20892	0.075696	0.072916	0.2201	0.13578	0.085752	0.2304	0.40188	0.050057	0.20765	0.0837	0.30597	-2.6854	-2.95	-3	-3.4667	-2.8417	-3.1479	-3.3875	-3.15	-3.3042	-3.1875	-3.0771	-3.2854	-3.1229	-3.0396	-3.1813	-2.9979	209.748	214.252	501.541	452.517	410.209	198.792	278.748	162.153	331.017	481.135	430.721	471.940	257.253	436.800	348.913	431.716	0.00056724	0.00050902	0.00011754	1401	7.425e-06	1.049e-05	1392.4	381.92	3.168e-06	5.4947e-06	436.13	144.35	126.38	43.18	4.8913e-06	53.454	0.00057447	0.00058971	0.00016275	1421.4	6.3557e-06	6.3654e-06	1419.3	389.56	6.2989e-06	6.3575e-06	443.55	147.91	128.98	44.319	6.3946e-06	54.854	194.363	275.830	234.995	161.641	263.677	292.295	161.383	166.273	285.330	329.296	165.510	169.710	170.318	174.955	277.341	174.170	-8191	255	
32106.500	1	1	0	0	0.23699	0.1139	0.21776	0.36277	0.15533	0.040045	0.31242	0.11798	0.4313	0.12803	0.14937	0.13721	0.064648	0.29612	0.22262	0.20726	-2.7208	-3.0687	-2.9646	-3.2062	-3.0187	-3.0146	-3.5729	-3.175	-3.3646	-3.1229	-3.1354	-3.2583	-3.1604	-3.1583	-3.2896	-2.9458	285.672	375.211	500.969	491.957	198.964	368.623	398.288	485.734	232.601	294.552	440.803	486.146	360.152	173.300	296.643	486.602	0.00053211	0.0003699	9.5965e-05	1400.7	3.9849e-06	1.1429e-05	1395.4	382.24	5.6508e-06	7.4042e-06	434.92	145.13	126.04	43.018	4.794e-06	53.192	0.00057834	0.00057748	0.00016244	1421.4	6.3115e-06	6.4016e-06	1417.3	389.35	6.3191e-06	6.3676e-06	443.31	147.99	128.58	44.261	6.376e-06	54.693	188.595	173.822	220.937	161.781	305.498	283.257	161.445	166.253	255.434	321.826	165.428	169.786	170.475	174.961	257.862	174.395	-8191	255	
32106.598	1	1	0	0	0.044624	0.081771	0.25647	0.40948	0.2149	0.1786	0.22682	0.036817	0.080856	0.22561	0.28099	0.24349	0.11473	0.47196	0.11712	0.075776	-2.8625	-3.1646	-2.9292	-3.2438	-3.075	-3.0458	-3.4042	-3.4083	-3.1792	-3.1729	-3.0292	-3.3042	-3.2458	-3.1167	-3.4104	-2.9938	290.515	382.127	244.756	432.393	280.660	251.817	468.527	277.151	331.601	386.225	155.429	371.998	444.672	153.518	500.598	194.235	0.00053705	0.0003779	9.1116e-05	1395.8	2.6202e-06	8.0142e-06	1393	381.25	4.9077e-06	4.8916e-06	431.61	144.99	125.53	43.246	3.4957e-06	53.294	0.00057034	0.00057877	0.00016252	1417.1	6.2747e-06	6.3374e-06	1415.2	388.31	6.2699e-06	6.3841e-06	441.52	147.88	128.61	44.338	6.286e-06	54.734	198.164	179.831	255.057	161.748	305.548	315.554	161.462	166.118	276.122	206.676	165.791	169.816	170.170	175.158	361.224	174.344	-8191	255	
32106.717	1	1	0	0	0.3068	0.065765	0.067027	0.15367	0.28486	0.21096	0.23427	0.25295	0.23446	0.23035	0.1447	0.12247	0.21535	0.21731	0.18613	0.10821	-2.6229	-3.0938	-2.8479	-3.3729	-2.9875	-2.7375	-3.5792	-3.2583	-3.0542	-3.1958	-3.1	-3.2979	-3.1875	-2.8292	-3.3917	-3.0187	212.397	401.520	168.770	388.562	188.756	171.027	381.217	455.397	203.032	452.345	178.777	501.755	458.705	467.110	150.111	388.963	0.00055268	0.00026171	0.00015073	1398.4	6.0853e-06	2.9747e-06	1391.7	381.75	6.6595e-06	4.2508e-06	431.61	144.34	125.67	43.061	4.7798e-06	53.194	0.00057845	0.00058021	0.00016179	1417.4	6.3025e-06	6.3089e-06	1415.8	388.65	6.2888e-06	6.3416e-06	441.67	147.67	128.58	44.227	6.3186e-06	54.704	192.448	193.135	227.614	161.753	299.566	335.159	161.433	166.011	315.842	302.305	165.650	169.660	170.251	175.126	286.391	174.224	-8191	255	
32106.812	1	1	0	0	0.13882	0.25221	0.13184	0.19157	0.22936	0.14655	0.18478	0.28532	0.18597	0.088871	0.15262	0.15231	0.10983	0.11621	0.022334	0.35309	-2.5563	-3.3187	-3.0125	-3.35	-3.1646	-3.0125	-3.3417	-3.2604	-2.9229	-3.4542	-3.0583	-3.4083	-3.3688	-3.1604	-3.25	-3.2646	385.062	485.375	428.652	485.132	314.880	155.793	422.496	491.483	308.055	175.686	416.810	404.947	462.927	406.676	288.604	441.056	0.00052445	0.00063369	0.0003172	1399.4	6.0686e-06	4.6275e-06	1394.7	381.23	3.4785e-06	1.3392e-06	432.96	144.4	125.94	43.039	3.2992e-06	53.026	0.00058104	0.00057942	0.00015871	1416.8	6.3297e-06	6.2868e-06	1416.8	388.71	6.3023e-06	6.3108e-06	442.05	147.69	128.71	44.278	6.2892e-06	54.534	190.358	205.627	220.793	161.709	296.163	269.195	161.603	166.023	258.406	303.163	165.656	169.964	170.308	175.065	234.914	174.451	-8191	255	
32106.908	1	1	0	0	0.043317	0.13691	0.27709	0.1617	0.2122	0.086829	0.13381	0.2712	0.11421	0.27775	0.087088	0.072131	0.1293	0.19814	0.14422	0.26487	-2.6562	-3.2604	-2.9604	-3.2729	-3.2917	-2.9688	-3.6063	-3.3396	-3.0438	-3.3708	-3.125	-3.1583	-3.5292	-3.0667	-3.175	-3.2271	158.395	223.487	326.682	479.564	481.494	390.131	436.711	495.844	175.071	431.139	358.485	467.878	459.443	161.150	382.820	393.165	0.000516	0.00066239	0.00015662	1401.4	6.1238e-06	2.582e-06	1396.2	382.44	6.7922e-06	7.6192e-06	434.37	144.44	125.7	43.05	3.9276e-06	53.072	0.00058119	0.00058032	0.0001602	1418	6.3336e-06	6.3122e-06	1416.3	388.64	6.3938e-06	6.3618e-06	442.16	147.78	128.56	44.237	6.2384e-06	54.7	196.318	203.849	238.323	161.694	296.630	234.401	161.505	166.062	231.788	321.443	165.525	169.566	170.179	175.050	277.697	174.235	-8191	255	
32107.029	1	1	0	0	0.047894	0.1395	0.10602	0.22677	0.24219	0.26283	0.36389	0.2407	0.31729	0.25681	0.12752	0.38743	0.083199	0.29097	0.24863	0.082959	-2.3875	-3.3083	-3.0375	-3.1708	-3.2729	-2.9875	-3.3604	-3.3542	-2.9542	-3.275	-3.1021	-3.1875	-3.4646	-3.0646	-3.0438	-3.2062	266.057	182.700	338.066	403.235	184.682	308.423	418.753	468.501	326.183	242.759	499.272	422.919	217.038	163.276	348.216	337.168	0.00056088	0.0005431	6.7895e-05	1399.3	5.0637e-06	5.5034e-06	1394.4	381.36	5.6417e-06	4.7637e-06	434.67	143.9	125.06	43.066	5.0021e-06	52.987	0.00057747	0.00057815	0.00015828	1418	6.2912e-06	6.2803e-06	1417.8	388.35	6.2703e-06	6.2916e-06	442.95	147.82	128.43	44.247	6.2656e-06	54.665	194.739	234.425	274.175	161.737	272.519	286.245	161.567	166.018	267.016	282.368	165.570	169.784	170.525	174.960	286.422	174.260	-8191	255	
32107.102	1	1	0	0	0.21514	0.037394	0.09534	0.31862	0.15062	0.40331	0.34168	0.37922	0.1588	0.065517	0.12335	0.19286	0.23629	0.11949	0.22898	0.20928	-2.7313	-3.1917	-2.9354	-3.05	-3.1688	-3.1396	-3.3917	-3.35	-2.9667	-3.1937	-3.2521	-3.0708	-3.3604	-2.9771	-3.1625	-3.4292	272.419	163.837	468.998	474.539	359.458	264.455	436.694	489.444	436.916	268.622	230.117	151.404	150.132	180.580	343.434	424.121	0.00053602	0.00074196	9.5407e-05	1398.3	4.4363e-06	3.5572e-06	1393.3	379.33	6.2224e-06	3.0761e-06	434.5	144.35	125.78	43.369	3.7938e-06	52.887	0.00058249	0.00057525	0.0001599	1417.7	6.36e-06	6.313e-06	1417.1	388.31	6.302e-06	6.2948e-06	442.47	147.85	128.63	44.297	6.2621e-06	54.747	190.690	225.426	166.923	161.874	289.250	153.795	161.461	166.266	252.726	261.862	165.546	169.884	170.380	175.000	291.165	174.282	-8191	255	
32107.197	1	1	0	0	0.29383	0.18776	0.1855	0.054031	0.11289	0.15207	0.20457	0.166	0.10232	0.18171	0.22676	0.23837	0.11261	0.19591	0.12172	0.24174	-2.4979	-3.1021	-3.1	-3.2229	-3.3187	-2.8792	-3.2812	-3.4167	-2.9562	-3.2979	-3.0875	-3.0312	-3.3646	-3.2792	-2.8875	-3.4417	263.274	202.342	236.914	497.972	160.549	322.879	417.424	395.089	321.576	413.492	394.374	457.593	469.275	500.404	483.776	156.242	0.0005693	0.00041807	0.00022607	1395.6	2.1331e-06	4.808e-06	1396.3	382.15	4.6472e-06	5.7313e-06	433.68	143.92	125.77	43.131	4.1373e-06	52.853	0.00057449	0.0005776	0.00015982	1416.7	6.3174e-06	6.3115e-06	1417	388.65	6.2594e-06	6.2405e-06	441.77	147.64	128.55	44.284	6.2734e-06	54.676	195.063	157.138	238.771	161.604	281.288	279.999	161.393	166.081	281.468	260.385	165.582	169.868	170.486	175.102	274.466	174.223	-8191	255	
32107.316	1	1	0	0	0.29493	0.031876	0.10308	0.19311	0.024942	0.245	0.15426	0.19092	0.21502	0.065946	0.091932	0.1181	0.0534	0.14865	0.096811	0.19023	-2.7625	-3.2417	-3.3229	-3.0625	-3.3229	-2.925	-3.1896	-3.4542	-3.0417	-3.2792	-3.35	-2.8896	-3.4104	-3.1917	-2.9979	-3.4417	285.063	496.656	320.997	468.948	330.511	293.449	162.504	503.149	379.933	298.158	171.390	482.361	457.131	454.965	492.089	502.987	0.00049594	0.00069173	6.9772e-05	1395.6	3.8238e-06	4.9759e-06	1393.4	381.57	5.9187e-06	8.3907e-06	432.77	144.29	125.99	43.114	2.6193e-06	53.201	0.00058012	0.00057266	0.00016145	1416.5	6.2135e-06	6.302e-06	1414.5	388.45	6.305e-06	6.2403e-06	441.51	147.56	128.51	44.258	6.2936e-06	54.719	189.920	222.731	182.063	161.736	341.826	326.555	161.521	166.013	300.300	313.328	165.694	169.745	170.374	174.962	293.743	174.267	-8191	255	
32107.412	1	1	0	0	0.077941	0.16325	0.17453	0.16818	0.24837	0.077832	0.14451	0.28429	0.17973	0.11128	0.27208	0.27817	0.40444	0.27118	0.27794	0.30286	-2.6521	-3.1	-3.1854	-3.0583	-3.1312	-3.2146	-3.2313	-3.5312	-2.9938	-3.1542	-3.2875	-3.1396	-3.3021	-3.2708	-2.8937	-3.2062	185.779	492.022	334.388	420.584	167.374	405.276	459.555	483.288	277.704	435.367	412.150	465.632	159.296	443.380	271.394	457.039	0.00052999	0.00087564	0.00022849	1394.1	5.6304e-06	7.4113e-06	1388.7	381.15	3.2113e-06	7.1852e-06	434.39	144.31	125.99	43.14	6.9211e-06	53.204	0.0005711	0.00057506	0.00016125	1415.1	6.232e-06	6.2879e-06	1414.3	388.33	6.3367e-06	6.272e-06	442.4	147.81	128.59	44.285	6.3255e-06	54.687	190.414	199.378	333.717	161.715	251.110	261.962	161.488	166.143	253.253	335.056	165.599	169.624	170.119	175.040	292.233	174.404	-8191	255	
32107.510	1	1	0	0	0.31775	0.2221	0.10832	0.24349	0.40307	0.21968	0.16429	0.17441	0.2187	0.14366	0.099312	0.22064	0.26192	0.34053	0.18568	0.28277	-2.575	-3.0542	-3.1063	-3.1667	-3.1958	-3.0229	-3.1458	-3.3146	-3.1604	-3.1896	-3.3583	-2.9292	-3.3563	-3.3583	-2.8792	-3.3125	290.277	503.241	202.698	376.363	204.123	459.171	505.069	453.032	306.003	229.034	393.719	399.588	164.141	420.209	236.583	494.051	0.00059041	0.00052318	0.00011566	1392.7	4.3338e-06	2.626e-06	1395.8	382.54	1.9386e-06	8.1292e-06	434.26	144.33	126.1	43.045	5.8732e-06	52.887	0.000575	0.0005792	0.00016058	1416	6.196e-06	6.2887e-06	1416.8	388.54	6.3178e-06	6.3234e-06	442.29	147.68	128.63	44.309	6.3587e-06	54.548	197.825	215.031	278.027	161.807	307.223	251.201	161.605	166.099	304.808	343.355	165.620	169.608	170.204	175.034	264.889	174.186	-8191	255	
32107.631	1	1	0	0	0.089387	0.20852	0.1335	0.3432	0.15114	0.19147	0.21044	0.25368	0.25651	0.1343	0.16767	0.40557	0.11976	0.24894	0.31049	0.25197	-2.575	-2.7958	-3.2875	-3.0812	-3.1437	-3.1417	-3.0792	-3.4833	-3.0625	-2.9313	-3.2042	-3.125	-3.1479	-3.2687	-2.9938	-3.3854	343.210	197.610	383.937	462.582	284.048	280.111	482.363	378.427	267.208	229.254	300.710	480.507	432.593	174.359	470.131	158.872	0.00053951	0.00047346	0.00024596	1399.5	3.0529e-06	1.0203e-05	1393	382.63	5.7283e-06	3.9474e-06	432.98	144.56	126.02	42.939	6.3967e-06	52.755	0.00057524	0.00057733	0.00016158	1415.9	6.2363e-06	6.3822e-06	1414.8	388.5	6.3284e-06	6.3198e-06	442.4	147.82	128.77	44.211	6.3513e-06	54.641	193.610	221.737	271.644	161.594	252.260	275.636	161.473	166.044	262.295	400.526	165.676	169.891	170.385	175.072	239.676	174.279	-8191	255	
32107.701	1	1	0	0	0.14963	0.25085	0.19495	0.39958	0.11428	0.14954	0.070385	0.32641	0.0071483	0.1647	0.22227	0.27773	0.066942	0.23039	0.15688	0.10031	-2.6833	-3.0354	-3.1583	-3.2167	-3.0833	-3.475	-3.1333	-3.2354	-3.2083	-2.8833	-3.3917	-3.1625	-3.2333	-3.3917	-2.9104	-3.3375	193.737	229.612	158.700	454.110	448.875	238.833	168.110	455.509	308.168	201.777	432.050	470.185	232.404	450.805	178.508	475.763	0.00056161	0.00034331	0.0001467	1393.7	5.8717e-06	5.1598e-06	1390.8	383.23	3.5032e-06	4.9368e-06	434.92	144.59	125.96	43.05	2.4272e-06	52.946	0.00057661	0.00057424	0.0001605	1414	6.323e-06	6.2909e-06	1415	389.62	6.285e-06	6.3235e-06	442.91	147.71	128.5	44.283	6.2878e-06	54.625	191.113	230.022	246.602	161.525	273.234	266.771	161.374	166.121	235.730	268.838	165.801	169.709	170.502	175.373	289.611	174.265	-8191	255	
32107.799	1	1	0	0	0.14551	0.20588	0.35485	0.14447	0.18951	0.18223	0.27689	0.23287	0.1215	0.11876	0.18085	0.23034	0.035116	0.4656	0.13435	0.24244	-2.8146	-2.8937	-3.1604	-3.2313	-2.8708	-3.4062	-3.1354	-3.4583	-3.1396	-3.0042	-3.4437	-3.1854	-3.1604	-3.3688	-2.8604	-3.1813	264.657	388.424	343.037	449.883	358.402	405.146	457.996	377.212	148.298	276.035	201.472	165.373	280.902	150.414	258.024	475.564	0.00052309	0.00042263	0.00015518	1396.9	5.0526e-06	3.6734e-06	1393.2	381.26	6.6304e-06	3.0071e-06	433.64	144.94	125.86	43.287	5.8622e-06	53.09	0.00057924	0.0005795	0.00015931	1415.4	6.4003e-06	6.3183e-06	1417	389.16	6.313e-06	6.337e-06	442.83	147.97	128.65	44.364	6.3112e-06	54.623	192.440	208.921	338.076	161.848	282.810	359.434	161.502	166.270	259.509	314.716	165.527	169.798	170.549	175.157	278.432	174.602	-8191	255	
32107.895	1	1	0	0	0.19097	0.10196	0.20829	0.20315	0.15186	0.1587	0.1144	0.12494	0.24898	0.089061	0.12191	0.18489	0.061307	0.14461	0.15561	0.18695	-2.7979	-3.0104	-3.1125	-3.2104	-2.8667	-3.4646	-3.1125	-3.0771	-3.2458	-2.9771	-3.4792	-3.2458	-3.0292	-3.2271	-2.9333	-3.1562	348.733	222.239	453.661	501.496	275.965	166.186	445.411	488.783	166.496	500.946	502.249	493.807	184.692	460.720	335.974	474.231	0.00057582	0.00032304	0.00010503	1395.5	3.4448e-06	1.2731e-05	1394.5	382.91	6.7445e-06	5.9515e-06	435.17	144.87	125.2	43.393	4.7621e-06	53.136	0.00057825	0.00057684	0.00015962	1416.6	6.3344e-06	6.3335e-06	1416.6	389.52	6.3073e-06	6.3285e-06	443.01	147.96	128.4	44.362	6.2661e-06	54.676	195.173	198.053	230.200	161.796	237.983	274.888	161.308	166.272	235.388	251.759	165.800	169.414	170.407	175.225	271.663	174.385	-8191	255	
32107.990	1	1	0	0	0.1591	0.12969	0.16104	0.1775	0.26544	0.12476	0.23711	0.21507	0.23162	0.18117	0.28721	0.058372	0.19081	0.32765	0.048585	0.090054	-2.7542	-3.0104	-3.0333	-3.4	-2.9854	-3.1667	-3.3271	-3.2229	-3.2667	-3.0125	-3.2812	-3.2021	-3.0104	-3.2771	-3.0542	-3.0375	191.199	375.870	464.098	457.971	270.334	481.776	421.464	473.336	368.330	371.214	160.471	484.395	497.582	157.072	221.843	501.882	0.00054545	9.849e-05	0.00015565	1400.4	5.1041e-06	4.7429e-06	1395.6	382.23	4.1744e-06	6.3549e-06	434.1	144.91	125.56	43.022	3.0156e-06	53.177	0.0005804	0.0005786	0.00016007	1419.7	6.3393e-06	6.2773e-06	1416.4	388.85	6.3159e-06	6.3381e-06	442.48	147.91	128.44	44.23	6.2651e-06	54.679	191.157	428.558	266.869	161.759	298.938	326.770	161.361	166.326	271.630	286.359	165.680	169.877	170.197	174.849	257.492	174.170	-8191	255	
32108.109	1	1	0	0	0.10055	0.16914	0.17359	0.27902	0.21977	0.092123	0.18553	0.48759	0.1816	0.0787	0.15599	0.10371	0.33874	0.10767	0.19272	0.074636	-2.7208	-2.8792	-3.0708	-3.4021	-3.0375	-3.3396	-3.2062	-3.1979	-3.2542	-3.1813	-2.9917	-3.1458	-3.1417	-3.2729	-2.9479	-3.0625	237.752	290.110	378.815	471.222	455.842	347.834	437.724	442.021	474.084	501.328	490.466	446.773	175.142	465.002	389.086	273.588	0.00056995	0.00068819	0.00013572	1394	6.7311e-06	6.844e-06	1395	380.46	7.9468e-06	3.9044e-06	433.45	144.4	125.95	43.167	5.5483e-06	53.186	0.00058026	0.00057772	0.00016098	1415.6	6.3403e-06	6.3132e-06	1416.8	388.17	6.2838e-06	6.3131e-06	442.08	147.72	128.59	44.339	6.3384e-06	54.799	197.222	258.098	246.674	161.729	330.598	351.204	161.594	166.206	255.394	265.375	165.570	169.803	170.231	175.242	250.020	174.286	-8191	255	
#DATA ENDS
