BOXY.EXE: ISS Imagent and Oximeter Data Acquisition Program Version 0.80
Ascii Record File

#ACQ INFORMATION
2  Detector Channels 
16  External MUX Channels 
1  Auxiliary Channels 
5000  Waveform (CCF) Frequency (Hz)
1  Waveforms Skipped 
30  Waveforms Averaged 
1  Cycles Averaged 
16  Acquisitions per Waveform 
10.0806  Updata Rate (Hz) 

#FILE INFORMATION
TRUE -- External MUX Channel results are PARSED.
FALSE -- AC DC and Phase are NOT grouped.
TRUE -- Companion Program Settings File CREATED.
FALSE -- AC data not excluded
FALSE -- DC data not excluded
FALSE -- Phase data not excluded
FALSE -- Auxillary Chn. data not excluded
Tab delimiters

#CALIBRATION STATE
TRUE -- Waveform Calibration Values APPLIED.


#AUX CALIBRATION VALUES
Val Type	aux-1	

Term	1.0000e+00	
Factor	0.0000e+00	


#WF CALIBRATION VALUES
A = Detector Channel
Val Type	A-AC1	A-AC2	A-AC3	A-AC4	A-AC5	A-AC6	A-AC7	A-AC8	A-AC9	A-AC10	A-AC11	A-AC12	A-AC13	A-AC14	A-AC15	A-AC16	A-DC1	A-DC2	A-DC3	A-DC4	A-DC5	A-DC6	A-DC7	A-DC8	A-DC9	A-DC10	A-DC11	A-DC12	A-DC13	A-DC14	A-DC15	A-DC16	A-Ph1	A-Ph2	A-Ph3	A-Ph4	A-Ph5	A-Ph6	A-Ph7	A-Ph8	A-Ph9	A-Ph10	A-Ph11	A-Ph12	A-Ph13	A-Ph14	A-Ph15	A-Ph16	

Term	0.00000e+00	0.00000e+00	0.00000e+00	0.00000e+00	0.00000e+00	0.00000e+00	0.00000e+00	0.00000e+00	0.00000e+00	0.00000e+00	0.00000e+00	0.00000e+00	0.00000e+00	0.00000e+00	0.00000e+00	0.00000e+00	0.00000e+00	0.00000e+00	0.00000e+00	0.00000e+00	0.00000e+00	0.00000e+00	0.00000e+00	0.00000e+00	0.00000e+00	0.00000e+00	0.00000e+00	0.00000e+00	0.00000e+00	0.00000e+00	0.00000e+00	0.00000e+00	0.00000e+00	0.00000e+00	0.00000e+00	0.00000e+00	0.00000e+00	0.00000e+00	0.00000e+00	0.00000e+00	0.00000e+00	0.00000e+00	0.00000e+00	0.00000e+00	0.00000e+00	0.00000e+00	0.00000e+00	0.00000e+00	
Factor	1.00000e+00	1.00000e+00	1.00000e+00	1.00000e+00	1.00000e+00	1.00000e+00	1.00000e+00	1.00000e+00	1.00000e+00	1.00000e+00	1.00000e+00	1.00000e+00	1.00000e+00	1.00000e+00	1.00000e+00	1.00000e+00	1.00000e+00	1.00000e+00	1.00000e+00	1.00000e+00	1.00000e+00	1.00000e+00	1.00000e+00	1.00000e+00	1.00000e+00	1.00000e+00	1.00000e+00	1.00000e+00	1.00000e+00	1.00000e+00	1.00000e+00	1.00000e+00	X	X	X	X	X	X	X	X	X	X	X	X	X	X	X	X	

B = Detector Channel
Val Type	B-AC1	B-AC2	B-AC3	B-AC4	B-AC5	B-AC6	B-AC7	B-AC8	B-AC9	B-AC10	B-AC11	B-AC12	B-AC13	B-AC14	B-AC15	B-AC16	B-DC1	B-DC2	B-DC3	B-DC4	B-DC5	B-DC6	B-DC7	B-DC8	B-DC9	B-DC10	B-DC11	B-DC12	B-DC13	B-DC14	B-DC15	B-DC16	B-Ph1	B-Ph2	B-Ph3	B-Ph4	B-Ph5	B-Ph6	B-Ph7	B-Ph8	B-Ph9	B-Ph10	B-Ph11	B-Ph12	B-Ph13	B-Ph14	B-Ph15	B-Ph16	

Term	0.00000e+00	0.00000e+00	0.00000e+00	0.00000e+00	0.00000e+00	0.00000e+00	0.00000e+00	0.00000e+00	0.00000e+00	0.00000e+00	0.00000e+00	0.00000e+00	0.00000e+00	0.00000e+00	0.00000e+00	0.00000e+00	0.00000e+00	0.00000e+00	0.00000e+00	0.00000e+00	0.00000e+00	0.00000e+00	0.00000e+00	0.00000e+00	0.00000e+00	0.00000e+00	0.00000e+00	0.00000e+00	0.00000e+00	0.00000e+00	0.00000e+00	0.00000e+00	5.86631e+01	-1.56400e+02	-1.26551e+02	-1.83880e+02	-1.09246e+02	-7.56946e+01	-1.56632e+02	-1.62015e+02	-4.97451e+01	-9.07007e+01	-1.74091e+02	-1.74047e+02	-1.85978e+02	-1.78374e+02	-8.62442e+01	-1.51155e+02	
Factor	5.26311e-05	1.61735e-04	4.04003e-05	1.79766e-01	1.77941e-06	1.50208e-06	1.73528e-01	5.90053e-02	1.98371e-06	1.52351e-06	1.02683e-01	2.97751e-02	5.44086e-02	8.92468e-03	1.82445e-06	1.29180e-02	1.91554e-06	2.01426e-06	5.61593e-07	8.71805e-02	2.19587e-08	2.21199e-08	7.97260e-02	2.86352e-02	2.18545e-08	2.20121e-08	4.81154e-02	1.39628e-02	2.54592e-02	4.34647e-03	2.18729e-08	6.10577e-03	X	X	X	X	X	X	X	X	X	X	X	X	X	X	X	X	



#DISTANCE SETTINGS
A = Detector Channel
A-1	A-2	A-3	A-4	A-5	A-6	A-7	A-8	A-9	A-10	A-11	A-12	A-13	A-14	A-15	A-16	

2.5000e+00	3.0000e+00	2.5000e+00	3.0000e+00	2.0000e+00	3.0000e+00	1.5000e+00	3.0000e+00	3.0000e+00	3.0000e+00	3.0000e+00	3.0000e+00	3.0000e+00	3.0000e+00	1.5000e+00	3.0000e+00	

B = Detector Channel
B-1	B-2	B-3	B-4	B-5	B-6	B-7	B-8	B-9	B-10	B-11	B-12	B-13	B-14	B-15	B-16	

1.0000e+01	1.0000e+01	1.0000e+01	1.4400e+00	1.0000e+01	1.0000e+01	1.5100e+00	1.9400e+00	1.0000e+01	1.0000e+01	1.9900e+00	2.4900e+00	2.4100e+00	2.9000e+00	1.0000e+01	2.9800e+00	




#DATA BEGINS
time	group	step	mark	flag	A-AC1	A-AC2	A-AC3	A-AC4	A-AC5	A-AC6	A-AC7	A-AC8	A-AC9	A-AC10	A-AC11	A-AC12	A-AC13	A-AC14	A-AC15	A-AC16	A-DC1	A-DC2	A-DC3	A-DC4	A-DC5	A-DC6	A-DC7	A-DC8	A-DC9	A-DC10	A-DC11	A-DC12	A-DC13	A-DC14	A-DC15	A-DC16	A-Ph1	A-Ph2	A-Ph3	A-Ph4	A-Ph5	A-Ph6	A-Ph7	A-Ph8	A-Ph9	A-Ph10	A-Ph11	A-Ph12	A-Ph13	A-Ph14	A-Ph15	A-Ph16	B-AC1	B-AC2	B-AC3	B-AC4	B-AC5	B-AC6	B-AC7	B-AC8	B-AC9	B-AC10	B-AC11	B-AC12	B-AC13	B-AC14	B-AC15	B-AC16	B-DC1	B-DC2	B-DC3	B-DC4	B-DC5	B-DC6	B-DC7	B-DC8	B-DC9	B-DC10	B-DC11	B-DC12	B-DC13	B-DC14	B-DC15	B-DC16	B-Ph1	B-Ph2	B-Ph3	B-Ph4	B-Ph5	B-Ph6	B-Ph7	B-Ph8	B-Ph9	B-Ph10	B-Ph11	B-Ph12	B-Ph13	B-Ph14	B-Ph15	B-Ph16	aux-1	digaux	

2318.815	1	1	0	256	0.027976	0.10951	0.06631	0.046262	0.15003	0.14713	0.12721	0.041307	0.1392	0.067558	0.21048	0.072779	0.17691	0.12301	0.12555	0.28542	-3.0104	-3.9479	-3.9646	-3.3563	-4.1854	-3.7417	-3.6625	-4.4729	-3.2875	-3.9979	-4.25	-3.1937	-4.2646	-3.5854	-3.4646	-4.4708	-51.057	189.449	81.780	-38.320	130.405	136.326	203.990	92.124	246.760	144.488	176.343	-76.946	178.069	205.049	154.145	202.011	0.00052137	0.00080268	0.00013944	794.94	7.8834e-06	7.3688e-06	708.37	274.06	4.7628e-06	1.159e-05	272.71	128.35	106.32	50.799	2.1167e-06	60.21	0.00064372	0.00067992	0.00021561	803.73	7.0292e-06	7.5625e-06	721.95	277.06	6.9605e-06	7.542e-06	281.78	129.94	108.86	51.594	8.0978e-06	60.648	29.072	90.364	7.763	-83.329	59.951	76.697	-85.324	-77.877	66.864	-3.564	-80.635	-76.701	-72.396	-68.264	-16.486	-72.792	-8191	255	
2318.913	1	1	0	0	0.23234	0.10684	0.028476	0.28342	0.18881	0.050064	0.17983	0.22684	0.20216	0.19975	0.090381	0.20727	0.11782	0.13106	0.26889	0.19822	-2.8354	-3.9667	-3.9958	-3.1854	-4.2521	-3.7021	-3.2562	-4.5583	-3.3438	-3.9875	-4.2042	-3.3063	-4.2125	-3.9125	-3.1896	-4.3833	-94.123	13.495	-69.721	127.824	92.387	20.795	247.981	221.077	-93.731	-77.354	208.554	213.933	-16.627	3.082	29.729	211.686	0.00065625	0.00047908	0.00024452	789.74	1.163e-05	6.4459e-06	701.82	273.13	1.1133e-05	2.6389e-06	270.04	128.51	105.27	50.766	4.0852e-06	60.043	0.00062035	0.00070783	0.00020388	797.26	6.7597e-06	7.8805e-06	713.2	276.13	6.7709e-06	7.9679e-06	279.44	129.28	108.26	51.641	7.7119e-06	60.503	18.657	187.594	8.677	-83.254	-36.523	17.335	-84.926	-77.574	144.271	36.672	-80.914	-76.731	-72.830	-68.406	35.060	-72.781	-8191	255	
2319.032	1	1	0	0	0.21724	0.32538	0.1735	0.045128	0.20386	0.12037	0.15653	0.1772	0.31116	0.10952	0.10649	0.084287	0.089061	0.015054	0.067833	0.0903	-2.9813	-3.4729	-4.2812	-3.1688	-4.1771	-3.8875	-3.2521	-4.3479	-3.4125	-3.5896	-4.3708	-3.3229	-4.1396	-4.0271	-3.3021	-4.2708	165.762	97.182	244.750	171.233	-76.666	188.367	-90.262	263.816	-66.692	131.286	186.955	187.965	249.718	174.978	58.896	203.475	0.00075631	0.00047862	0.00024042	793.78	5.3629e-06	6.9005e-06	703.24	272.82	2.3654e-06	4.5738e-06	271.47	128.41	105.35	50.926	7.8726e-06	60.49	0.00063303	0.00075008	0.00019551	797.34	7.1e-06	8.2794e-06	714.52	276.43	7.1431e-06	8.287e-06	279.99	130	109.33	51.67	7.4175e-06	60.85	6.257	33.980	-20.942	-83.268	211.672	26.045	-84.927	-77.524	208.891	7.252	-80.469	-76.645	-72.697	-68.334	-1.239	-72.701	-8191	255	
2319.128	1	1	0	0	0.20655	0.2064	0.29788	0.21472	0.12206	0.051284	0.28709	0.19316	0.2134	0.13653	0.18345	0.074309	0.04192	0.13937	0.23372	0.03584	-3.2354	-3.4333	-4.3354	-3.2938	-4.0958	-4.1229	-3.2229	-4.55	-3.6104	-3.5687	-4.475	-3.2438	-3.775	-4.2562	-3.2562	-4.2792	-11.974	21.814	99.016	-43.838	-16.003	129.248	232.265	248.207	38.691	230.585	184.329	247.527	-20.953	221.031	187.274	255.896	0.0008223	0.000803	0.00018724	791.57	8.3386e-06	5.5784e-06	710.58	274.58	2.6531e-06	1.503e-06	274.26	129.42	105.98	50.827	6.1709e-06	60.923	0.00067734	0.00075061	0.00018587	799.51	7.5118e-06	8.1539e-06	717.54	277.08	7.6027e-06	8.1102e-06	281.39	130.67	110.09	51.798	7.2248e-06	61.074	9.153	-12.664	-31.497	-83.288	26.074	-32.545	-85.239	-77.693	98.143	10.554	-80.217	-76.571	-72.685	-68.352	141.686	-72.803	-8191	255	
2319.224	1	1	0	0	0.12681	0.32263	0.13785	0.17216	0.13913	0.22969	0.17601	0.23309	0.08406	0.1016	0.099278	0.065333	0.262	0.076432	0.13965	0.052605	-3.5229	-3.3312	-4.3292	-3.4833	-3.9667	-4.1062	-3.3875	-4.2396	-4.0521	-3.4417	-4.4604	-3.6	-3.7062	-4.3812	-3.35	-4.3083	52.585	169.503	117.175	235.398	-78.485	-61.197	194.869	208.396	-2.687	163.537	29.024	53.533	174.378	-14.147	209.857	-30.194	0.00058287	0.0008969	0.00014563	794.5	8.0889e-06	5.3406e-06	707.55	273.86	5.4939e-06	1.2227e-05	271.45	128.46	104.95	50.764	5.1303e-06	60.137	0.00071467	0.00072096	0.00018114	800.1	7.9681e-06	7.7782e-06	719.96	276.57	7.9473e-06	7.6181e-06	278.33	129.59	109.89	51.429	6.8246e-06	60.544	12.608	-33.056	-45.197	-82.863	23.313	67.525	-85.408	-77.710	163.924	24.003	-80.490	-76.523	-72.548	-68.113	-29.909	-72.829	-8191	255	
2319.320	1	1	0	0	0.14559	0.20819	0.043993	0.10857	0.27855	0.042468	0.27998	0.1527	0.25184	0.089601	0.057909	0.19633	0.16941	0.049768	0.16021	0.1751	-3.7354	-3.0625	-4.4625	-3.4875	-3.6583	-4.3146	-3.0521	-4.1	-3.9313	-3.1646	-4.275	-3.75	-3.5062	-4.5167	-3.3333	-4.125	93.025	-63.673	205.739	129.467	115.973	254.756	220.660	148.533	-76.846	199.774	152.711	-91.676	155.243	142.258	227.704	56.036	0.00067662	0.00046434	0.00019191	791.66	5.5055e-06	8.8466e-06	704.43	271.32	6.4489e-06	5.5139e-06	268.52	127.28	105.42	50.401	7.3442e-06	59.658	0.00071386	0.00066786	0.00016932	801.85	7.9657e-06	7.2141e-06	710.28	274.89	7.9493e-06	7.207e-06	274.22	128.47	109.44	51.104	6.5888e-06	60.176	23.215	-53.380	2.154	-83.085	-41.846	71.423	-85.149	-77.679	169.664	48.468	-80.364	-76.606	-72.395	-68.133	89.725	-72.790	-8191	255	
2319.416	1	1	0	0	0.079061	0.10822	0.16349	0.27514	0.22532	0.095961	0.40815	0.37597	0.25957	0.16987	0.08113	0.16434	0.26452	0.1957	0.15206	0.2524	-3.8771	-3.1229	-4.3208	-3.8063	-3.4271	-4.4688	-3.5125	-4.0208	-4.0604	-3.4896	-4.1813	-3.9479	-3.2188	-4.4896	-3.5563	-3.7292	139.303	53.485	202.308	212.287	201.830	19.372	218.877	236.578	58.121	262.071	136.009	203.677	-67.650	145.989	193.864	170.819	0.00072715	0.00064727	0.00020724	791.82	8.8876e-06	1.8423e-06	700.4	271.47	1.1573e-05	4.554e-06	268.71	127.02	105.21	50.59	2.8561e-06	59.53	0.00070894	0.00065258	0.0001691	801.61	7.835e-06	7.0625e-06	709.44	275.48	7.7502e-06	7.0526e-06	274.71	128.92	108.89	51.13	6.5789e-06	60.45	17.284	-36.535	-40.826	-83.288	19.609	155.205	-84.837	-77.810	100.234	73.684	-80.661	-76.547	-72.802	-68.260	117.773	-72.601	-8191	255	
2319.513	1	1	0	0	0.18166	0.28554	0.16705	0.30938	0.12741	0.30311	0.13085	0.10461	0.12251	0.045918	0.20123	0.066942	0.25509	0.22743	0.23207	0.055428	-3.9521	-3.2333	-4.3187	-4.05	-3.3563	-4.3792	-3.5292	-3.7583	-4.3271	-3.3521	-4.25	-4.0917	-3.2938	-4.4458	-3.7562	-3.6312	-15.507	122.820	117.418	240.419	123.393	240.840	105.896	245.665	192.024	-77.837	201.382	237.967	-86.089	214.787	-5.724	4.486	0.00064427	0.00064882	0.00011614	792.6	7.0201e-06	5.3584e-06	705.36	272.4	9.7783e-07	7.4364e-06	272.12	127.99	105.03	50.61	6.0173e-06	60.358	0.00068013	0.00062378	0.00016866	805.34	7.3815e-06	6.7476e-06	713.75	276.86	7.2739e-06	6.7771e-06	277.52	129.8	108.74	51.202	6.929e-06	61.124	10.532	9.279	-25.751	-82.950	-14.062	79.434	-85.065	-77.644	-75.748	37.899	-80.968	-76.584	-72.656	-68.101	234.270	-72.642	-8191	255	
2319.633	1	1	0	0	0.24389	0.29228	0.31096	0.22213	0.10942	0.19816	0.052934	0.062818	0.35046	0.19559	0.25159	0.09918	0.16785	0.14375	0.071984	0.14672	-3.9458	-3.1875	-4.1083	-4.1521	-3.2625	-4.4	-3.7854	-3.7646	-4.3667	-3.2562	-4.1312	-4.1125	-3.4104	-4.3833	-3.7854	-3.5292	67.060	233.019	30.439	244.021	189.196	249.701	-76.996	241.944	157.929	187.492	-48.038	249.068	-79.995	204.872	-18.635	153.910	0.00094699	0.00087819	0.00013859	797.19	1.0019e-05	1.2008e-05	709.08	273.32	8.7958e-06	2.756e-06	272.49	128.8	105.35	50.756	2.55e-06	60.286	0.0006511	0.00061352	0.00018076	808.36	7.2277e-06	6.7603e-06	720.04	277.46	7.1277e-06	6.7083e-06	280.02	130.25	108.49	51.27	7.5438e-06	60.935	14.651	-82.498	-60.049	-83.120	-10.962	21.502	-85.040	-77.649	55.091	-0.402	-80.919	-76.497	-72.724	-68.398	22.937	-72.635	-8191	255	
2319.728	1	1	0	0	0.087141	0.11867	0.019852	0.11829	0.14786	0.13047	0.2783	0.13212	0.27726	0.31695	0.24716	0.18163	0.050451	0.12287	0.2189	0.14485	-3.9917	-3.4	-3.9354	-4.2771	-3.1104	-4.5417	-3.8104	-3.4458	-4.375	-3.3458	-3.8354	-4.3021	-3.2958	-3.9229	-3.9604	-3.5396	211.612	130.006	262.751	259.334	16.893	201.494	-34.410	-2.673	45.326	-76.811	236.740	-83.801	-37.620	-69.440	171.387	159.801	0.0006483	0.00073615	8.8068e-05	792.23	5.2734e-06	1.9073e-06	700.77	273.48	8.8611e-06	6.3171e-06	269.27	127.32	105.88	50.458	6.2e-06	59.505	0.00064234	0.00061333	0.0001958	805.75	7.081e-06	6.6449e-06	715.26	276.03	6.9251e-06	6.7342e-06	277.26	128.89	108.29	51.043	7.8392e-06	60.31	32.491	7.844	-74.411	-83.180	31.203	-35.507	-85.117	-77.521	37.304	24.167	-80.518	-76.577	-72.307	-68.258	102.034	-72.680	-8191	255	
2319.824	1	1	0	0	0.1238	0.06997	0.40793	0.13451	0.2911	0.23943	0.18315	0.2573	0.21959	0.25208	0.1168	0.11254	0.10159	0.1898	0.20619	0.14094	-3.8646	-3.4229	-3.6354	-4.2688	-3.3771	-4.0729	-4.1729	-3.3542	-4.4958	-3.6896	-3.6083	-4.4812	-3.1729	-3.925	-4.1646	-3.3292	92.787	262.986	-89.178	-71.737	35.471	-46.446	208.642	173.624	-18.397	48.735	173.931	-79.748	226.233	262.376	-13.210	116.018	0.00081804	0.00042751	0.00014706	792.14	3.7786e-06	6.7251e-06	701.03	271.55	3.2112e-06	1.3607e-06	271.15	126.97	105.36	50.472	8.6764e-06	59.596	0.00062444	0.0006292	0.00020505	800.7	6.8121e-06	6.887e-06	713.72	275.33	6.6753e-06	6.9872e-06	278.74	128.52	107.89	51.117	7.8336e-06	60.407	5.457	182.512	100.069	-82.971	-76.938	55.589	-85.255	-77.517	64.243	12.064	-80.785	-76.533	-72.901	-68.089	37.195	-72.754	-8191	255	
2319.920	1	1	0	0	0.078719	0.21632	0.20851	0.22747	0.010891	0.030028	0.10503	0.16011	0.020102	0.12497	0.10146	0.10433	0.090545	0.13538	0.18756	0.075409	-3.9396	-3.6354	-3.4771	-4.6229	-3.3167	-3.8604	-4.2812	-3.3167	-4.3938	-3.8	-3.4917	-4.4313	-3.375	-3.9708	-3.9542	-3.3979	-28.563	214.217	-18.226	208.664	59.544	261.451	130.433	188.443	126.532	99.976	26.476	76.983	101.552	201.224	-15.209	245.925	0.00066665	0.00010244	0.00014246	793.98	4.8242e-06	4.7202e-06	700.95	271.45	4.5675e-06	1.9389e-06	270.62	127.07	105.41	50.694	8.6075e-06	59.971	0.00060555	0.00066203	0.00020091	801.04	6.5633e-06	7.4066e-06	715.37	274.67	6.5471e-06	7.5879e-06	277.9	128.5	107.77	51.317	7.8159e-06	60.6	20.039	-88.076	-21.393	-83.145	76.378	92.109	-85.535	-77.593	87.656	13.043	-80.901	-76.650	-72.648	-68.203	44.107	-72.693	-8191	255	
2320.016	1	1	0	0	0.21691	0.17713	0.16694	0.29725	0.21842	0.072416	0.054981	0.2038	0.21286	0.066906	0.30454	0.15739	0.13501	0.088581	0.22414	0.11176	-3.8812	-3.6792	-3.5438	-4.3042	-3.4396	-3.6833	-4.2771	-3.0438	-3.9938	-3.8396	-3.3688	-4.4458	-3.7687	-3.7188	-4.3354	-3.3854	-5.655	226.277	262.323	-92.321	202.661	-58.914	165.594	157.794	225.619	-13.002	235.788	200.798	248.900	180.821	-62.517	128.911	0.0006092	0.00047924	7.3108e-05	792.73	1.6954e-06	5.1623e-06	706.03	271.76	5.271e-06	6.8745e-06	270.67	127.37	104.88	50.916	4.1323e-06	60.455	0.00061618	0.00072158	0.00019738	801.35	6.8151e-06	8.0165e-06	717.3	274.42	6.7862e-06	7.9754e-06	278.43	128.93	107.86	51.558	7.3508e-06	60.809	24.199	8.983	-9.797	-83.155	-30.591	211.304	-85.273	-77.733	195.392	-16.829	-80.451	-76.680	-72.920	-68.198	240.492	-72.619	-8191	255	
2320.112	1	1	0	0	0.12064	0.079874	0.28625	0.067837	0.099569	0.18894	0.13325	0.29134	0.20297	0.11698	0.11858	0.074444	0.14962	0.054146	0.17071	0.19275	-3.8208	-3.9708	-3.0938	-4.5208	-3.5208	-3.5729	-4.3542	-3.3042	-3.9729	-4.1958	-3.3063	-4.5083	-3.8667	-3.625	-4.5083	-3.3125	223.154	102.645	-23.285	87.339	67.273	262.229	182.562	199.774	155.744	-77.198	166.823	196.407	100.053	-49.634	143.147	204.486	0.00083934	0.00050205	0.00013862	790.59	9.2291e-06	6.7883e-06	704.65	271.25	3.7733e-06	7.3616e-06	269.22	127.08	104.8	50.428	3.2955e-06	59.618	0.00063327	0.00073011	0.00018707	798.6	7.0171e-06	8.0552e-06	714.9	273.91	7.1489e-06	7.8919e-06	275.61	128.18	108.05	51.243	7.0869e-06	60.148	9.129	18.771	-70.401	-83.258	90.008	36.172	-85.097	-77.804	243.644	48.867	-80.478	-76.486	-72.828	-68.077	63.950	-72.888	-8191	255	
2320.208	1	1	0	0	0.0449	0.1415	0.13896	0.12075	0.23902	0.27635	0.091624	0.17734	0.067512	0.12169	0.23273	0.189	0.043723	0.13655	0.077913	0.075928	-3.5479	-4.1312	-3.0729	-4.5188	-3.8063	-3.5479	-4.5667	-3.3042	-3.9479	-4.325	-3.1063	-4.325	-3.9604	-3.4292	-4.4354	-3.6125	3.829	-71.657	-89.378	-86.368	216.453	181.237	176.760	209.647	40.857	-24.303	65.536	-53.662	-16.779	-58.258	-44.180	242.355	0.00071023	0.00048885	0.00015361	789.76	7.2518e-06	1.02e-05	700.89	271.11	3.5698e-06	6.1057e-06	269.97	126.93	105.47	50.562	5.7357e-06	59.724	0.00067354	0.00071136	0.00018093	796.71	7.5988e-06	7.7861e-06	709.67	273.89	7.667e-06	7.75e-06	275.05	128.15	109.35	51.226	7.0206e-06	60.236	-1.142	-25.399	-15.528	-83.211	50.395	23.738	-85.042	-77.655	212.390	38.269	-80.673	-76.609	-72.775	-68.016	85.758	-72.591	-8191	255	
2320.329	1	1	0	0	0.10496	0.10298	0.094018	0.18231	0.12975	0.095221	0.15743	0.22485	0.27094	0.063669	0.15201	0.1349	0.19888	0.23014	0.066411	0.046116	-3.3125	-4.2438	-3.3563	-4.1646	-3.8542	-3.3187	-4.5312	-3.7417	-3.7854	-4.3958	-3.2917	-4.1583	-4.0875	-3.2042	-4.5062	-3.7146	146.735	-7.504	38.945	204.570	106.754	231.610	174.202	249.359	206.151	252.721	101.306	154.181	216.518	162.511	-89.092	-93.826	0.00095983	0.0002103	0.00023922	787.78	2.9533e-06	2.7084e-06	701.92	272.08	4.5929e-06	4.2738e-06	272.08	128.21	106.22	50.683	3.0459e-06	60.178	0.00073519	0.00070363	0.00017931	795.1	8.1157e-06	7.6311e-06	710.4	274.98	8.1174e-06	7.4752e-06	277.71	129.79	110.13	51.341	6.8026e-06	60.861	16.560	259.468	12.615	-83.203	77.394	23.133	-85.120	-77.666	136.025	79.829	-80.815	-76.623	-73.171	-68.005	27.110	-72.787	-8191	255	
2320.425	1	1	0	0	0.11271	0.14776	0.092376	0.2428	0.17711	0.26163	0.092609	0.18552	0.075843	0.15015	0.29511	0.12797	0.19741	0.20632	0.10455	0.32246	-3.2771	-4.3083	-3.1979	-3.9062	-4.0604	-3.2417	-4.5625	-3.6125	-3.45	-4.4104	-3.3187	-3.725	-4.2708	-3.2208	-4.3104	-4.0604	-88.558	104.202	216.089	183.304	240.028	67.775	231.812	190.895	113.279	199.637	121.779	-44.936	222.025	213.166	200.418	224.784	0.00068427	0.00039667	0.00025535	786.61	5.003e-06	5.9252e-06	705.32	272.74	5.3629e-06	6.2289e-06	275.73	129.89	106.99	50.851	3.1399e-06	60.7	0.0007436	0.00067855	0.00017545	797.26	8.1619e-06	7.4188e-06	712.96	277.23	8.0833e-06	7.2999e-06	281.3	131.64	110.56	51.529	6.699e-06	61.603	2.037	-62.604	22.711	-83.011	17.270	79.107	-85.103	-77.497	50.189	-35.049	-80.709	-76.718	-72.906	-68.247	143.062	-72.926	-8191	255	
2320.497	1	1	0	0	0.15296	0.2872	0.2333	0.22962	0.2789	0.098235	0.11428	0.089905	0.19275	0.43929	0.3237	0.22448	0.095529	0.35602	0.1887	0.1671	-3.0833	-4.3667	-3.3208	-3.8104	-4.1813	-3.1625	-4.2417	-4.0083	-3.3479	-4.4062	-3.4396	-3.5958	-4.3354	-3.4417	-4.1333	-3.9625	-83.400	42.875	148.960	227.683	207.384	2.115	-71.097	234.126	-84.729	63.762	177.522	189.203	148.848	-75.975	-62.960	-36.666	0.00056629	0.00058966	0.00016303	791.81	2.3457e-06	5.6256e-06	705.65	273.62	1.1212e-05	1.0648e-05	274.98	129.39	106.24	50.44	7.0486e-06	60.046	0.00071981	0.00065438	0.00017445	801.34	7.7708e-06	7.2607e-06	715.66	278.11	7.6607e-06	7.0076e-06	279.62	131.07	109.62	51.162	6.8549e-06	60.868	9.985	-82.010	39.372	-83.078	104.053	-66.267	-85.361	-77.432	51.494	19.970	-80.831	-76.488	-72.573	-68.128	115.132	-72.748	-8191	255	
2320.593	1	1	0	0	0.083289	0.082507	0.054405	0.13711	0.10259	0.29779	0.17517	0.2236	0.11475	0.042645	0.15875	0.41768	0.046622	0.1337	0.004184	0.15361	-2.9042	-4.35	-3.4625	-3.6813	-4.5062	-3.3646	-4.0396	-4.2937	-3.2229	-4.3021	-3.6063	-3.6562	-4.3021	-3.1542	-3.9875	-4.275	155.443	242.485	177.529	-42.173	8.876	189.633	222.465	249.997	122.684	98.197	80.860	218.188	87.125	197.353	44.407	78.168	0.00067888	0.00028681	0.00025684	787.52	7.378e-06	9.6766e-06	700.92	270.98	4.9918e-06	4.5929e-06	270.03	127.11	104.34	50.351	5.0732e-06	59.556	0.0006857	0.00062784	0.00017874	798.89	7.2971e-06	6.908e-06	709.39	275.61	7.2043e-06	6.6871e-06	276.55	129.54	108.24	50.915	7.1889e-06	60.324	21.238	-62.621	12.511	-83.226	-6.465	33.430	-85.277	-77.455	73.112	-41.268	-80.731	-76.491	-73.286	-68.274	231.936	-73.034	-8191	255	
2320.712	1	1	0	0	0.25407	0.1303	0.17584	0.17994	0.12937	0.19105	0.20972	0.094195	0.21171	0.14628	0.12486	0.20239	0.19063	0.20544	0.15987	0.087721	-3.0187	-4.2333	-3.6646	-3.5646	-4.3521	-3.2625	-4.0125	-4.2896	-3.2188	-4.3688	-3.5875	-3.5812	-4.5	-3.5542	-3.9771	-4.3271	-38.841	-1.819	135.318	194.106	-14.059	-89.790	262.359	217.194	195.491	-1.788	72.454	251.141	106.481	202.921	165.181	232.563	0.00076744	0.0007977	7.3391e-05	784.32	7.5043e-06	3.9862e-06	702.56	272.44	9.8669e-06	5.1904e-06	270.6	127.71	104.87	50.189	2.3211e-06	59.64	0.00064856	0.00059617	0.00018787	797.18	6.9791e-06	6.5789e-06	711.52	275.85	6.9328e-06	6.529e-06	277.75	129.6	108.23	50.83	7.6128e-06	60.562	20.335	-85.096	47.357	-83.065	50.699	15.238	-85.200	-77.533	134.828	56.325	-80.707	-76.564	-72.716	-68.051	205.930	-72.463	-8191	255	
2320.808	1	1	0	0	0.1663	0.25556	0.11338	0.18324	0.1255	0.11393	0.077841	0.085884	0.28193	0.17951	0.098533	0.30994	0.13565	0.29767	0.19328	0.14744	-3.0167	-4.3333	-3.8688	-3.4938	-4.4625	-3.6208	-3.6979	-4.3812	-3.2583	-4.1417	-4.1646	-3.2938	-4.4563	-3.5438	-3.7646	-4.5021	117.539	-29.011	-94.430	-81.061	-85.183	87.087	-45.938	196.177	168.448	-16.325	-32.651	241.214	-39.109	236.178	5.196	193.718	0.00057559	0.00072285	5.4016e-05	787.7	6.6522e-06	2.1666e-06	699.85	270.65	5.6015e-06	4.1672e-06	271.71	128.75	104.76	50.391	1.3446e-05	60.22	0.00062895	0.00060207	0.00019758	796.2	6.7884e-06	6.7564e-06	713.6	274.85	6.8028e-06	6.747e-06	280.35	129.65	107.94	50.989	7.8459e-06	60.757	10.360	22.092	-15.453	-83.201	128.956	103.622	-85.248	-77.833	33.109	79.329	-80.283	-76.295	-72.732	-68.180	20.793	-72.477	-8191	255	
2320.906	1	1	0	0	0.11264	0.059929	0.12828	0.053906	0.069289	0.20957	0.34726	0.19662	0.19188	0.22199	0.19823	0.045013	0.050634	0.19807	0.065665	0.14461	-2.7292	-4.1208	-3.9	-3.4688	-4.2083	-3.7729	-3.6625	-4.4917	-3.3958	-4.1667	-4.3438	-3.2167	-4.5021	-3.8083	-3.6396	-4.6813	199.627	178.314	251.051	243.877	32.991	49.394	223.349	235.849	157.886	-27.377	257.162	-76.479	65.538	236.506	40.398	198.440	0.00073296	0.00015719	0.00025254	788.07	8.8957e-06	1.8898e-06	706.38	272.03	3.5902e-06	7.9003e-07	272.09	128.29	105.73	50.114	3.5223e-06	59.803	0.00061766	0.00063816	0.00020356	795.95	6.6354e-06	7.0835e-06	718.07	275.01	6.6099e-06	7.2421e-06	279.8	129.47	107.51	50.953	7.6774e-06	60.398	5.852	29.702	46.387	-83.026	36.707	68.580	-85.208	-77.496	165.604	-47.377	-80.481	-76.196	-72.688	-68.001	190.673	-72.628	-8191	255	
2321.025	1	1	0	0	0.18857	0.13712	0.096267	0.078896	0.060856	0.13483	0.21248	0.14794	0.071117	0.10094	0.030358	0.15296	0.11093	0.19796	0.4442	0.26608	-3.05	-3.9146	-4.3708	-3.2229	-4.5292	-3.8875	-3.7167	-4.4313	-3.4437	-3.9167	-4.5292	-3.2625	-4.3458	-3.9583	-3.575	-4.5021	16.687	187.829	229.584	157.297	-17.822	14.150	182.486	172.286	207.573	121.952	139.578	252.542	109.068	192.048	-38.022	203.342	0.00085312	0.00059846	0.00025043	786.91	7.0323e-06	4.8562e-06	698.72	269.37	7.1861e-06	3.3569e-06	267.68	126.62	105.37	50.232	6.3362e-06	59.613	0.00059822	0.00067826	0.00019235	793.67	6.55e-06	7.4556e-06	711.41	272.72	6.4999e-06	7.5901e-06	275.33	127.83	107.16	50.859	7.2156e-06	59.792	15.191	36.615	18.838	-82.984	-2.194	122.222	-85.275	-77.572	110.781	27.656	-80.406	-76.675	-72.387	-68.323	53.400	-72.914	-8191	255	
2321.121	1	1	0	0	0.17801	0.16956	0.2318	0.10659	0.24013	0.075677	0.11801	0.22068	0.21085	0.072326	0.23797	0.11571	0.22099	0.15211	0.087015	0.32023	-3.1188	-3.4646	-4.3396	-3.2812	-4.3292	-4.025	-3.5417	-4.5542	-3.6292	-3.8354	-4.4229	-3.3542	-4.0917	-4.275	-3.2167	-4.5917	86.900	-36.520	88.061	222.811	219.368	164.235	140.883	206.189	98.875	-26.880	242.388	264.261	-76.724	-61.037	42.642	126.050	0.00080355	0.00059315	0.00013585	785.98	4.2799e-06	2.7729e-06	697.42	267.61	4.9851e-06	9.9946e-06	266.34	126.15	103.81	50.041	3.1213e-06	59.515	0.00060179	0.00070596	0.00018398	791.64	6.6756e-06	7.7206e-06	707.46	271.51	6.8238e-06	7.7488e-06	273.29	127.19	106.98	50.78	7.0483e-06	59.746	15.476	20.840	-2.994	-83.171	49.740	27.450	-85.272	-77.394	183.679	-49.668	-80.860	-76.342	-72.534	-68.143	28.460	-72.874	-8191	255	
2321.193	1	1	0	0	0.10055	0.23001	0.14503	0.15728	0.38949	0.31585	0.05814	0.19605	0.27972	0.11357	0.25379	0.17571	0.048156	0.089159	0.040472	0.12145	-3.3396	-3.6792	-4.2521	-3.2729	-4.025	-4.3438	-3.475	-4.5729	-3.6958	-3.5479	-4.6521	-3.4604	-3.9917	-4.475	-3.1271	-4.4042	92.822	-94.284	133.880	-69.848	189.291	45.425	223.807	228.217	-40.206	260.684	37.768	146.336	49.753	240.712	207.662	-76.618	0.00079734	0.0003283	8.4533e-05	787.42	7.5479e-06	3.7073e-06	697.71	267.83	3.6358e-06	3.1359e-06	263.81	125.14	103.46	50.071	4.9351e-06	59.153	0.0006542	0.00072254	0.00017923	792.42	7.1725e-06	7.7945e-06	707.33	270.27	7.2849e-06	7.6791e-06	271.34	126.32	106.82	50.767	6.9164e-06	59.696	12.298	-91.303	-49.227	-83.005	61.482	43.338	-84.902	-77.788	127.079	73.282	-80.378	-76.428	-72.369	-67.894	33.805	-72.726	-8191	255	
2321.313	1	1	0	0	0.20226	0.34365	0.20319	0.21299	0.22758	0.086773	0.13177	0.073765	0.10325	0.11866	0.13386	0.22335	0.21702	0.23959	0.12561	0.086934	-3.6854	-3.3854	-4.5625	-3.4854	-3.8417	-4.3562	-3.1833	-4.3167	-3.9979	-3.4417	-4.4667	-3.5396	-4.0312	-4.3688	-3.2479	-4.1646	76.691	164.234	99.185	-13.347	187.471	158.601	-23.307	24.512	229.294	133.308	59.545	229.396	-43.449	211.199	36.658	97.324	0.00080647	0.00054543	5.191e-05	786.82	5.3361e-06	4.1766e-06	697.93	266.72	4.3761e-06	3.6676e-06	263.25	124.34	102.81	49.637	7.0946e-06	59.087	0.00068142	0.0006875	0.000172	793.49	7.6715e-06	7.48e-06	709.2	268.68	7.8085e-06	7.3661e-06	270.49	125.98	106.54	50.454	6.7181e-06	59.799	-0.095	-70.180	-6.702	-82.924	-13.888	18.943	-85.167	-77.538	177.848	126.515	-80.644	-76.491	-72.387	-68.048	-26.424	-72.532	-8191	255	
2321.409	1	1	0	0	0.11151	0.12705	0.062024	0.15007	0.11454	0.25507	0.068557	0.33529	0.12366	0.15951	0.17458	0.14465	0.25892	0.060473	0.30368	0.086639	-3.8729	-3.2333	-4.2896	-3.5417	-3.5062	-4.3896	-3.4938	-4.0083	-4.0771	-3.1188	-4.3313	-3.6146	-3.5563	-4.4125	-3.3417	-4.1167	151.812	112.824	-15.171	211.826	87.399	75.375	133.132	-88.459	27.481	38.391	18.020	99.754	-75.552	24.113	-92.510	-73.605	0.00081633	0.00068134	0.0001748	784.99	5.9817e-06	5.5814e-06	690.6	264.03	1.2921e-05	4.6822e-06	259.8	122.73	101.26	49.266	8.7174e-06	58.23	0.00070848	0.00066393	0.00016794	792.81	7.8424e-06	7.1586e-06	702.82	267.11	7.6898e-06	6.999e-06	264.83	123.93	105.2	49.963	6.4555e-06	58.964	8.054	22.757	12.384	-83.319	-23.804	59.142	-85.142	-77.574	-10.899	-30.105	-80.466	-76.447	-72.534	-67.943	92.689	-72.667	-8191	255	
2321.505	1	1	0	0	0.25716	0.24192	0.10704	0.25641	0.13555	0.12623	0.084936	0.04734	0.32873	0.15493	0.21551	0.0097629	0.09651	0.024788	0.16684	0.18629	-3.8979	-3.0812	-4.4375	-3.8146	-3.5083	-4.3896	-3.5	-3.9313	-4.2625	-3.1646	-4.3187	-3.9708	-3.4417	-4.5125	-3.3167	-3.9229	54.257	244.791	-91.421	212.643	121.417	214.915	71.859	-64.144	55.603	-73.464	113.079	171.876	-15.477	-50.620	195.226	241.438	0.00057465	0.00068796	0.00017012	781.52	6.9264e-06	1.0642e-05	692.37	262.44	5.1954e-06	4.8822e-06	255.57	121.13	100.99	49.18	5.0145e-06	58.433	0.00069113	0.00063155	0.00016267	791.45	7.5343e-06	6.7481e-06	697.46	265.7	7.3737e-06	6.7264e-06	262.73	123.24	104.76	49.87	6.5244e-06	59.104	20.465	-22.385	28.637	-83.095	-32.409	51.231	-85.338	-77.520	60.809	-8.581	-80.484	-76.418	-72.490	-68.137	-26.272	-72.567	-8191	255	
2321.626	1	1	0	0	0.15506	0.09958	0.076713	0.13603	0.31718	0.081128	0.18551	0.19156	0.32619	0.096571	0.099499	0.20535	0.07215	0.18647	0.18427	0.31493	-3.8438	-3.1813	-4.2042	-4.0875	-3.3604	-4.4521	-3.6708	-3.6854	-4.3417	-3.2188	-4.2458	-4.0312	-3.4979	-4.4437	-3.625	-3.7771	190.564	-78.717	40.152	157.048	195.906	-95.640	228.954	194.270	218.288	228.104	-88.175	221.388	104.816	-85.809	70.190	235.807	0.00056686	0.00093075	0.00011378	781.77	9.002e-06	7.2883e-06	691.47	261.03	7.4369e-06	2.1452e-06	259.89	122.33	100.92	49.655	6.358e-06	58.742	0.00066456	0.00061904	0.00016725	793.98	7.2541e-06	6.7335e-06	699.7	266.79	7.0996e-06	6.5912e-06	266.15	124.65	104.57	50.077	6.7751e-06	59.622	40.491	-74.317	-70.939	-83.085	58.389	56.342	-85.050	-77.807	46.673	46.785	-80.428	-76.426	-72.512	-67.960	203.307	-72.493	-8191	255	
2321.720	1	1	0	0	0.31143	0.12904	0.18889	0.077202	0.26963	0.10788	0.16039	0.12536	0.2525	0.04762	0.10508	0.23645	0.17826	0.29622	0.21174	0.084799	-3.9375	-3.3438	-3.9229	-4.1271	-3.2438	-4.5146	-3.6042	-3.825	-4.45	-3.4583	-4.25	-4.1208	-3.2208	-4.5146	-3.5563	-3.6437	175.529	6.117	-0.337	218.733	44.171	-73.461	-40.022	217.615	154.721	164.230	-55.238	212.619	85.796	258.530	195.774	238.648	0.00049282	0.00082468	0.00011558	783.72	4.1811e-07	3.5065e-06	696.23	264.58	7.6005e-06	7.0718e-06	260.67	123.71	102.23	50.033	4.1234e-06	59.376	0.00064324	0.0006043	0.00017678	794.05	7.0394e-06	6.514e-06	706.45	268.32	6.9422e-06	6.4991e-06	269.7	125.59	105.17	50.388	7.3784e-06	60.09	35.054	-74.576	65.794	-83.384	48.445	36.607	-85.138	-77.375	10.958	50.942	-80.404	-76.182	-72.311	-67.989	121.549	-72.759	-8191	255	
2321.792	1	1	0	0	0.24628	0.20511	0.19204	0.049907	0.12869	0.11813	0.16257	0.012647	0.088487	0.44096	0.076189	0.22864	0.37333	0.25147	0.070132	0.11719	-4.0396	-3.5458	-3.7979	-4.0958	-3.2854	-4.3479	-3.9667	-3.6146	-4.3875	-3.5104	-3.9375	-4.1354	-3.3979	-4.1229	-4.2667	-3.4313	-42.410	135.421	-35.014	233.987	122.196	6.609	-11.333	241.377	-68.213	184.914	101.440	206.595	252.756	242.600	206.343	86.459	0.00061321	0.00034822	3.9886e-05	786.18	9.7228e-06	3.7827e-06	693.8	263.49	5.7949e-06	1.3832e-06	260.31	122.71	101.78	49.635	2.6245e-06	58.819	0.00062924	0.0006022	0.00019229	793.68	6.8615e-06	6.5882e-06	708.68	267.65	6.7373e-06	6.5123e-06	269.44	124.5	104.54	50.118	7.6021e-06	59.369	16.881	-6.019	-60.507	-83.244	3.908	103.197	-85.199	-77.546	12.673	-12.748	-80.948	-76.165	-72.724	-68.154	226.082	-72.617	-8191	255	
2321.888	1	1	0	0	0.40458	0.19856	0.0082912	0.25654	0.058402	0.18698	0.07542	0.17044	0.15001	0.20596	0.17281	0.21706	0.21782	0.15699	0.069521	0.10497	-4.0125	-3.425	-3.6188	-4.2917	-3.1792	-4.1333	-3.9375	-3.3229	-4.3917	-3.6583	-3.7229	-4.4771	-3.4458	-4.1958	-4.175	-3.3417	44.183	92.374	247.449	204.707	32.666	261.254	101.146	133.026	-91.568	-39.736	181.967	167.644	251.382	224.477	206.270	231.755	0.00065674	0.00019032	0.00021969	781.14	2.822e-06	9.8957e-06	691.58	262.09	9.1647e-06	2.7588e-06	259.43	121.97	101.92	49.151	6.6854e-06	58.279	0.00060567	0.00060952	0.00019541	789.13	6.674e-06	6.6865e-06	703.33	265.45	6.4843e-06	6.8958e-06	266.35	123.37	103.79	49.95	7.6257e-06	58.907	15.651	46.175	-15.019	-82.773	-54.559	115.364	-85.144	-77.447	32.711	194.132	-80.552	-76.410	-72.261	-68.127	10.861	-72.441	-8191	255	
2321.986	1	1	0	0	0.11954	0.031665	0.12873	0.15945	0.050816	0.10137	0.064022	0.11969	0.19727	0.18413	0.23977	0.052611	0.12837	0.10756	0.18582	0.21464	-4.0146	-3.7521	-3.4729	-4.5833	-3.1979	-3.8854	-4.1625	-3.2562	-4.4542	-3.7188	-3.3438	-4.4187	-3.2896	-3.9	-4.1937	-3.3083	141.858	-37.481	21.969	213.073	34.271	219.427	130.882	155.576	67.670	149.441	181.356	211.292	61.908	219.379	-19.445	233.696	0.00070001	0.00016682	0.00028308	782.78	4.9163e-06	5.5814e-06	693.17	262.88	5.4821e-06	5.741e-06	259.93	122.53	101.42	49.293	5.8379e-06	58.589	0.00058758	0.00064013	0.00019389	788.08	6.3692e-06	7.1389e-06	702.25	265.86	6.3304e-06	7.197e-06	266.71	123.71	103.77	50.153	7.3498e-06	59.25	21.827	79.575	-22.320	-83.187	23.792	54.066	-85.172	-77.514	254.388	21.613	-80.705	-76.508	-72.449	-67.982	34.725	-72.493	-8191	255	
2322.105	1	1	0	0	0.23703	0.086837	0.087905	0.12286	0.13466	0.28604	0.22496	0.097672	0.22054	0.12286	0.27668	0.12501	0.25914	0.22438	0.10592	0.23316	-3.7792	-3.8083	-3.3604	-4.4458	-3.4458	-3.8688	-4.4375	-3.4375	-4.0667	-4.1188	-3.3688	-4.3938	-3.5458	-3.7687	-4.2667	-3.4979	-83.713	257.175	50.868	165.497	-25.322	232.104	198.160	141.307	180.766	-68.603	160.908	227.805	40.906	263.651	-34.113	192.340	0.00082932	0.00044815	0.0002438	778.07	2.75e-06	3.2885e-06	695.08	265.12	4.2812e-06	3.8762e-06	263.54	124.41	102.86	49.772	5.8606e-06	59.658	0.00058712	0.00068373	0.00018507	785.84	6.5849e-06	7.5994e-06	704.31	266.47	6.5329e-06	7.5261e-06	269.88	125.4	104.88	50.574	6.9872e-06	59.854	13.088	-9.241	11.895	-82.881	61.535	-22.352	-85.186	-77.447	141.144	46.053	-80.619	-76.386	-72.650	-68.049	20.047	-72.899	-8191	255	
2322.201	1	1	0	0	0.087877	0.12666	0.14691	0.090574	0.19881	0.19534	0.082317	0.15063	0.1524	0.12531	0.16797	0.039667	0.18969	0.26996	0.15821	0.14461	-3.5792	-4.1042	-3.3146	-4.475	-3.4292	-3.6271	-4.4	-3.2479	-4.1229	-4.1979	-3.3604	-4.5125	-3.7125	-3.6042	-4.4479	-3.5417	42.601	10.804	129.024	158.783	71.320	204.972	183.016	199.543	158.414	194.313	246.418	209.396	172.876	260.631	115.486	253.150	0.00076561	0.00017857	0.00014655	775.39	7.5678e-06	6.2579e-06	700.34	267.32	5.4315e-06	1.9276e-06	268.2	126.64	103.73	50.089	5.5038e-06	59.916	0.00061284	0.00070035	0.00017929	782.67	6.9164e-06	7.671e-06	708.24	269.2	6.9056e-06	7.6624e-06	274.3	127.38	106.57	50.68	6.6885e-06	60.196	16.370	-44.276	-49.513	-82.931	54.175	21.717	-85.385	-77.506	-16.567	84.183	-80.566	-76.333	-73.038	-68.197	53.601	-72.522	-8191	255	
2322.297	1	1	0	0	0.12839	0.16497	0.07966	0.14698	0.17534	0.086562	0.10369	0.24224	0.086881	0.18261	0.02707	0.13131	0.11278	0.020132	0.056173	0.16566	-3.5333	-4.1438	-3.1208	-4.3646	-3.8958	-3.625	-4.4187	-3.5146	-3.6646	-4.3104	-3.0896	-4.2958	-3.85	-3.6917	-4.5062	-3.325	197.211	239.406	175.096	-90.314	16.162	60.360	245.028	195.271	80.715	-92.699	-26.922	155.047	148.208	118.027	-34.624	173.720	0.00071048	0.00097907	2.8316e-05	779.67	1.3241e-05	3.5074e-06	694.78	266.43	4.7071e-06	6.6206e-06	266.37	125.31	103.41	49.638	1.5628e-06	59.194	0.00064143	0.00066692	0.00017031	782.2	7.2114e-06	7.3026e-06	703.37	269.1	7.2347e-06	7.2094e-06	271.44	126.45	106.73	50.445	6.4616e-06	59.692	4.834	-15.575	256.683	-82.980	15.715	64.287	-85.171	-77.590	238.904	62.031	-80.630	-76.325	-72.581	-68.150	106.683	-72.816	-8191	255	
2322.394	1	1	0	0	0.068071	0.18259	0.20819	0.28464	0.20655	0.27365	0.029096	0.27715	0.077325	0.09701	0.23071	0.17912	0.25991	0.35113	0.11132	0.094376	-3.4229	-4.425	-3.0812	-4.1708	-4.1312	-3.3104	-4.4792	-3.6083	-3.6917	-4.4187	-3.2542	-3.9688	-4.2583	-3.3542	-4.2146	-3.9896	3.001	73.676	191.484	207.670	-37.113	235.007	160.083	188.334	-48.913	-14.522	194.072	222.057	53.812	213.449	70.978	124.643	0.00059117	0.00015918	0.00014463	778.01	3.5215e-06	4.9385e-06	695.06	266.88	5.6598e-06	2.1931e-06	264.43	124.83	102.77	49.616	7.7388e-06	59.265	0.00067276	0.00064789	0.00016577	780.56	7.451e-06	7.0355e-06	699.46	268.16	7.4803e-06	6.7554e-06	268.72	125.82	106.15	50.286	6.2652e-06	59.643	22.589	-92.756	-83.303	-83.206	139.832	41.828	-85.215	-77.548	14.265	2.380	-80.655	-76.388	-72.899	-68.109	17.585	-72.465	-8191	255	
2322.490	1	1	0	0	0.20211	0.18778	0.0083597	0.15637	0.01123	0.22939	0.23563	0.11774	0.11387	0.14102	0.29873	0.11448	0.21613	0.079741	0.11581	0.041602	-3.275	-4.35	-3.3104	-4.1229	-4.0667	-3.3896	-4.5167	-3.825	-3.4229	-4.375	-3.3167	-3.9083	-4.4125	-3.2854	-4.25	-3.8604	49.316	50.232	123.204	233.772	80.323	191.035	199.643	-61.225	-37.085	175.229	231.747	251.956	44.337	197.244	252.509	64.536	0.00055405	0.0010994	0.00015743	774.21	3.9838e-06	6.5879e-06	694.08	264.84	7.4599e-06	7.2176e-06	264.46	125.68	102.83	49.898	3.8084e-06	59.532	0.00067756	0.00061551	0.00016022	781.69	7.365e-06	6.6241e-06	699.94	268.2	7.2393e-06	6.5586e-06	270.32	126.74	106.11	50.36	6.0911e-06	60.165	34.477	-9.318	58.111	-83.001	38.978	35.477	-85.531	-77.415	52.944	44.639	-80.809	-76.612	-72.424	-67.922	261.005	-72.417	-8191	255	
2322.586	1	1	0	0	0.08864	0.034645	0.14886	0.063613	0.025334	0.076852	0.064885	0.18581	0.066608	0.096995	0.21643	0.14504	0.14295	0.12484	0.066642	0.26329	-3.1063	-4.3125	-3.2125	-4.0521	-4.2292	-3.3375	-4.4917	-3.8583	-3.5708	-4.4542	-3.7229	-3.7396	-4.5271	-3.425	-4.2375	-4.0938	-55.615	154.290	19.179	218.955	257.065	-57.904	228.002	152.740	235.810	171.044	212.955	248.764	250.840	209.573	-7.576	97.012	0.00086425	0.00032734	0.00018653	776.94	4.8638e-06	1.331e-06	697.84	267.1	8.4986e-06	3.2004e-06	269.18	126.76	104.08	50.021	2.9888e-06	59.721	0.00064746	0.00059368	0.00015813	783.1	7.0443e-06	6.4243e-06	704.61	270.21	6.9121e-06	6.2948e-06	273.27	128.02	106.3	50.4	6.2842e-06	60.494	28.476	-13.202	7.962	-83.094	63.211	109.824	-85.001	-77.714	45.116	-2.639	-80.583	-76.230	-72.115	-68.148	74.182	-72.657	-8191	255	
2322.706	1	1	0	0	0.22362	0.40191	0.10845	0.26494	0.38955	0.16393	0.1043	0.09669	0.11781	0.072603	0.13396	0.066612	0.25638	0.16679	0.066687	0.10036	-2.8458	-4.3875	-3.5708	-3.6146	-4.5896	-3.3396	-4.0938	-4.0896	-3.2708	-4.4167	-3.6646	-3.6125	-4.4708	-3.4104	-4.0563	-4.1625	250.746	57.119	158.154	195.683	161.844	1.020	179.477	-24.229	40.628	155.375	9.371	156.647	221.581	-71.835	190.718	243.015	0.00071191	0.00049943	0.00015239	778.03	8.5318e-06	4.5049e-06	697.59	263.93	3.7051e-06	1.8959e-06	263.41	124.83	102.63	49.672	3.3843e-06	58.842	0.00061727	0.00057039	0.00016333	784.8	6.5429e-06	6.2011e-06	704.14	267.78	6.5053e-06	6.0113e-06	269	126.26	104.57	49.938	6.461e-06	59.552	32.874	-3.218	-16.844	-82.913	-13.892	1.498	-85.383	-77.751	238.728	156.070	-80.299	-76.352	-72.759	-68.112	83.455	-72.362	-8191	255	
2322.801	1	1	0	0	0.14655	0.11696	0.21523	0.36283	0.22535	0.090476	0.32718	0.096019	0.0073269	0.057281	0.11984	0.30393	0.040998	0.032664	0.16967	0.058776	-2.7396	-4.35	-3.6521	-3.4917	-4.3333	-3.5125	-3.9708	-4.3771	-3.0396	-4.3375	-3.7792	-3.5187	-4.3208	-3.2875	-3.8563	-4.4854	190.462	44.492	107.910	-93.930	55.677	175.590	181.697	-62.974	215.691	-16.861	185.513	226.726	-77.298	84.508	231.904	206.549	0.00067031	0.00060768	5.5631e-05	771.51	7.0956e-06	6.8544e-06	689.73	262.83	1.0607e-05	3.7497e-06	261.24	124.35	102.49	49.137	2.8566e-06	59.17	0.00058569	0.00054581	0.00017139	781.32	6.3338e-06	6.0071e-06	699.37	266.24	6.3272e-06	5.9085e-06	267.94	125.27	104.45	49.762	6.9009e-06	59.403	19.542	-26.787	89.014	-83.196	45.722	68.385	-85.346	-77.826	93.723	56.194	-80.374	-76.408	-72.460	-68.287	33.215	-72.529	-8191	255	
2322.897	1	1	0	0	0.061943	0.089065	0.024273	0.18246	0.19041	0.20584	0.069776	0.12786	0.10856	0.047885	0.17342	0.087123	0.20722	0.35824	0.069388	0.12936	-2.7062	-4.3083	-3.6937	-3.4042	-4.3625	-3.625	-3.7292	-4.3646	-3.3583	-4.0542	-4.2042	-3.3563	-4.5292	-3.6937	-3.5958	-4.4042	214.479	235.074	65.184	182.721	64.000	65.368	28.435	244.485	-92.643	30.139	261.013	144.386	-35.490	253.940	-92.464	145.917	0.000633	0.00011592	0.00018173	770.24	2.9422e-06	1.4904e-06	691.78	264.23	4.7316e-06	4.2679e-06	262.76	124.76	102.44	49.221	5.9488e-06	59.374	0.00056487	0.00054848	0.00017843	779.69	6.0945e-06	6.1245e-06	702.72	266.44	6.1302e-06	6.1144e-06	270.16	125.78	104.15	49.857	7.1292e-06	59.588	15.190	161.151	-43.315	-83.311	47.430	12.966	-85.039	-77.581	75.892	69.065	-80.642	-76.361	-72.432	-67.999	-7.443	-72.698	-8191	255	
2322.993	1	1	0	0	0.36677	0.13034	0.19527	0.21807	0.13107	0.19717	0.16199	0.054334	0.096367	0.28814	0.13143	0.04871	0.075917	0.12051	0.082012	0.14944	-2.8604	-4.0021	-4.1208	-3.2271	-4.4812	-3.3792	-3.5354	-4.3729	-3.3917	-3.9417	-4.2021	-3.2854	-4.4333	-3.7708	-3.5854	-4.3896	-85.922	59.837	-91.963	-43.410	222.984	-84.441	233.129	220.199	206.599	-90.949	220.009	200.830	162.208	213.375	214.012	172.097	0.00074271	0.00039414	0.00011554	773.13	2.4076e-06	1.9935e-06	697.43	263.76	1.0084e-05	2.5181e-06	263.62	124.96	101.97	49.664	4.193e-06	59.419	0.00055633	0.00057473	0.00018282	779.3	5.9437e-06	6.4476e-06	706.3	266.06	5.8518e-06	6.4621e-06	271.02	125.83	103.98	50.075	6.9287e-06	59.74	35.179	94.260	-0.060	-83.281	-40.490	170.187	-85.241	-77.457	45.785	77.521	-80.584	-76.448	-72.674	-67.782	-5.598	-72.760	-8191	255	
2323.089	1	1	0	0	0.19691	0.17166	0.18695	0.22064	0.17984	0.19857	0.12282	0.14206	0.23743	0.15676	0.17065	0.26467	0.15895	0.14488	0.11415	0.11178	-2.9813	-3.725	-4.2479	-3.5229	-4.1854	-3.8937	-3.3625	-4.5104	-3.4271	-3.7521	-4.4688	-3.3396	-4.2896	-3.8792	-3.4833	-4.4104	61.044	56.526	169.578	234.299	190.902	35.965	106.115	198.472	123.812	81.457	205.509	214.013	254.986	-84.535	254.641	-72.430	0.00074732	0.00045526	0.00022099	776.41	4.8068e-06	2.316e-06	698.05	263.29	4.3322e-06	6.4534e-06	263.04	124.21	101.26	49.243	7.1621e-06	58.843	0.00054439	0.00062104	0.00017609	781.85	5.832e-06	6.8512e-06	705.86	265.96	5.9108e-06	6.8474e-06	269.21	124.91	103.64	49.947	6.5287e-06	59.152	30.246	-54.544	-35.099	-83.161	25.498	-5.801	-85.263	-77.545	91.163	-14.041	-80.496	-76.553	-72.422	-68.027	-3.994	-72.575	-8191	255	
2323.185	1	1	0	0	0.12418	0.070184	0.045276	0.28492	0.20112	0.076086	0.13487	0.17377	0.11873	0.215	0.11511	0.12888	0.13369	0.097239	0.059628	0.24935	-2.8604	-3.7958	-4.2937	-3.2396	-4.0813	-4.0875	-3.3042	-4.5583	-3.4042	-3.7	-4.3812	-3.3229	-4.0458	-4.2167	-3.2062	-4.6167	-49.015	-42.934	204.319	228.813	52.247	212.658	-53.309	236.376	110.759	-80.945	257.927	-91.345	-63.350	243.053	189.658	-54.532	0.00085073	0.00049907	0.00013666	772.31	1.4092e-06	1.0438e-06	689.94	261.61	4.1727e-06	4.9269e-06	258.07	122.68	101.54	49.025	5.4566e-07	58.066	0.00054691	0.00063567	0.00016455	778.16	6.0136e-06	6.9646e-06	698.4	263.38	6.0949e-06	6.9518e-06	263.47	123.19	103.22	49.564	6.2424e-06	58.38	27.373	-0.030	-31.852	-83.055	-2.197	227.015	-84.990	-77.401	-68.699	53.240	-80.325	-76.413	-72.923	-68.127	-3.416	-72.660	-8191	255	
2323.304	1	1	0	0	0.073328	0.13756	0.2492	0.17565	0.3095	0.088486	0.12271	0.09274	0.10365	0.21164	0.1004	0.11697	0.17782	0.15298	0.015024	0.26253	-3.2854	-3.5187	-4.2708	-3.4458	-3.8396	-4.0208	-3.3792	-4.2438	-3.8375	-3.4646	-4.5729	-3.4708	-3.9542	-4.1375	-3.3208	-4.4271	126.560	231.906	128.470	220.716	-38.478	122.488	91.048	51.583	199.137	105.955	113.746	79.489	-83.971	-93.302	118.573	229.507	0.00085586	0.00029404	0.00016979	774.96	9.355e-06	2.2743e-07	688.3	259.68	3.7307e-06	6.608e-06	256.98	121.11	100.44	48.907	2.9162e-06	58	0.00057701	0.00062773	0.00015781	777.31	6.4201e-06	6.8624e-06	694.7	262.2	6.4955e-06	6.7715e-06	262.12	122.25	103.32	49.406	6.0602e-06	58.401	19.767	-18.615	-11.782	-83.321	99.398	63.272	-85.129	-77.485	-0.022	12.383	-80.599	-76.366	-72.551	-68.097	133.914	-72.636	-8191	255	
2323.400	1	1	0	0	0.17481	0.25169	0.064484	0.077208	0.091441	0.26953	0.11888	0.24687	0.13077	0.051502	0.16054	0.18003	0.19664	0.061194	0.071168	0.12111	-3.4021	-3.2729	-4.4354	-3.5771	-3.7896	-4.3063	-3.375	-4.3313	-3.7438	-3.4729	-4.4854	-3.7854	-3.6292	-4.3625	-3.05	-4.2708	215.667	121.013	69.770	222.923	11.610	256.723	240.359	196.741	-80.964	50.822	-80.294	260.332	245.461	151.550	167.526	-69.735	0.00057797	0.0010257	0.00011212	774.03	5.3642e-06	8.174e-07	690.59	261.31	2.9295e-06	3.5348e-06	259.17	123.31	100.24	48.897	8.4277e-06	58.803	0.00061403	0.0006067	0.00015134	776.43	6.7676e-06	6.5369e-06	697.13	262.69	6.7519e-06	6.4247e-06	263.71	123.39	103.56	49.471	5.7738e-06	58.889	9.355	-38.249	11.417	-83.172	171.380	159.220	-85.213	-77.303	-29.064	-7.549	-80.459	-76.269	-72.542	-67.922	61.356	-72.594	-8191	255	
2323.497	1	1	0	0	0.026101	0.14386	0.10833	0.086113	0.18692	0.23397	0.22559	0.30656	0.0645	0.022799	0.24452	0.2801	0.15592	0.14515	0.059995	0.13839	-3.6521	-3.1208	-4.3083	-3.6854	-3.525	-4.5375	-3.3438	-3.9854	-3.9854	-3.15	-4.4646	-3.6042	-3.5708	-4.3958	-3.375	-3.8646	129.899	-42.845	53.181	177.296	12.770	155.644	218.208	181.022	20.457	12.096	254.997	179.961	115.713	246.838	196.204	249.571	0.00068475	0.00074531	0.00015037	770.33	4.2536e-06	3.0771e-06	695.55	263.22	2.1154e-06	3.8558e-06	263.4	123.51	101.22	48.928	3.0505e-06	58.506	0.00061394	0.00057042	0.00014576	778.28	6.7655e-06	6.1634e-06	700.99	265.35	6.7616e-06	6.1385e-06	266.7	124.75	104.17	49.412	5.6184e-06	59.164	7.373	-88.961	11.144	-83.113	156.931	-20.748	-85.133	-77.640	251.569	-55.769	-80.589	-76.326	-72.267	-68.128	-34.777	-72.664	-8191	255	
2323.593	1	1	0	0	0.079128	0.062805	0.30119	0.1856	0.10681	0.11345	0.12802	0.22099	0.065511	0.029439	0.04023	0.18067	0.10285	0.17135	0.14589	0.272	-3.7354	-3.3187	-4.3646	-3.6708	-3.6063	-4.4167	-3.3229	-3.8729	-4.1312	-3.1542	-4.2333	-3.7625	-3.3729	-4.5896	-3.4896	-3.8542	160.513	228.053	216.486	241.285	156.056	119.657	198.032	198.418	28.501	115.310	247.335	263.794	-20.880	-80.814	229.423	229.516	0.00078156	0.00062999	0.00018269	773.57	5.0137e-06	2.227e-06	693.1	260.67	3.8953e-06	6.1226e-06	258.15	122.49	100.17	48.692	9.3817e-06	57.956	0.00060045	0.00054843	0.00014292	779.45	6.6741e-06	5.9337e-06	694.9	263.76	6.376e-06	5.8464e-06	262.5	123.32	102.82	49.105	5.5789e-06	58.434	17.438	-49.936	21.843	-83.016	-52.845	72.000	-85.038	-77.634	123.279	-13.668	-80.426	-76.449	-72.430	-68.297	207.253	-72.908	-8191	255	
2323.664	1	1	0	0	0.16651	0.039862	0.19519	0.20141	0.17651	0.19489	0.21763	0.096228	0.35971	0.10423	0.14363	0.14553	0.12466	0.21862	0.21394	0.20005	-3.8354	-3.0458	-3.9646	-3.95	-3.4167	-4.4417	-3.4875	-3.7792	-4.3292	-3.1458	-3.9375	-4.1583	-3.2542	-4.5062	-3.5854	-3.5875	205.506	-85.116	237.424	255.994	258.358	-4.912	136.989	200.282	37.439	61.314	234.991	189.077	231.331	207.087	-29.642	154.570	0.00064939	0.00059528	6.9797e-05	771.25	5.6667e-06	2.916e-06	693.76	261.05	4.3556e-06	7.4965e-06	258.28	121.93	100.33	48.779	1.8209e-06	58.07	0.00057017	0.00052796	0.00014165	778.31	6.1831e-06	5.6025e-06	693.91	263.41	6.0513e-06	5.6289e-06	262.35	123.09	102.58	49.057	5.8612e-06	58.463	30.811	-31.001	42.247	-83.104	6.093	99.253	-85.132	-77.496	-39.482	24.419	-80.206	-76.260	-72.611	-67.870	215.073	-72.688	-8191	255	
2323.785	1	1	0	0	0.083396	0.23013	0.072878	0.30883	0.11066	0.17772	0.11365	0.29564	0.13585	0.22342	0.13484	0.20011	0.11434	0.1881	0.17053	0.26887	-4.1625	-2.9667	-4.0146	-4.0062	-2.9917	-4.4125	-3.8375	-3.4375	-4.475	-3.2104	-4.0208	-4.2104	-3.0708	-4.3958	-3.8	-3.3875	26.831	-15.067	89.759	-55.733	223.111	221.099	14.753	125.598	-94.041	-88.024	167.359	-50.348	-51.889	193.272	-56.975	9.337	0.00063632	0.0004174	0.0001388	769.14	4.8585e-06	9.3899e-06	690.62	260.74	4.5206e-06	5.1027e-06	258.19	122.53	101.05	48.496	6.4891e-06	58.3	0.00054908	0.00050811	0.00015237	776.18	6.0214e-06	5.5111e-06	695.92	263.31	5.926e-06	5.5968e-06	263.21	123.06	102.57	49.006	6.2988e-06	58.607	17.479	-21.516	17.247	-83.334	-86.879	21.570	-85.477	-77.623	-13.723	-5.193	-80.785	-76.216	-72.156	-68.006	189.842	-72.405	-8191	255	
2323.881	1	1	0	0	0.28983	0.48378	0.13682	0.11495	0.097489	0.033634	0.053736	0.21293	0.14066	0.27149	0.016114	0.04548	0.12846	0.26015	0.21977	0.10809	-4.05	-3.2375	-3.7396	-4.2271	-3.1604	-4.1792	-3.8187	-3.5062	-4.3438	-3.5208	-3.7313	-4.35	-3.2167	-4.1687	-4.0521	-3.3229	-45.710	-94.101	202.232	156.371	185.374	-12.957	133.594	160.875	52.133	172.228	123.038	-65.869	51.876	253.411	110.647	186.106	0.00076151	0.00014143	6.8324e-05	769.6	4.5994e-06	6.4543e-06	693.88	259.35	1.1279e-05	6.0886e-06	256.81	121.83	99.942	48.714	2.82e-06	58.285	0.00053275	0.00051107	0.00016326	775.33	5.859e-06	5.5278e-06	699.69	261.93	5.782e-06	5.6029e-06	264.26	122.7	101.79	49.118	6.561e-06	58.718	17.585	-68.611	15.862	-83.087	-13.437	143.135	-85.242	-77.227	55.846	36.555	-80.763	-76.279	-72.413	-67.870	-64.134	-72.506	-8191	255	
2323.977	1	1	0	0	0.16945	0.19095	0.23564	0.18765	0.080552	0.082259	0.1072	0.23336	0.26606	0.01218	0.10655	0.19564	0.11317	0.30619	0.1398	0.30519	-4.0583	-3.5604	-3.575	-4.4042	-3.1917	-4.1083	-3.9833	-3.3667	-4.4979	-3.7687	-3.5021	-4.5021	-3.2354	-4.0875	-3.9688	-3.2438	235.851	186.355	-58.213	-93.242	233.301	171.442	87.742	198.273	150.857	-34.994	63.070	172.022	4.857	215.882	149.073	246.600	0.00044621	0.00040256	8.2528e-05	768.96	9.1927e-06	2.9837e-06	691.02	259.05	6.4824e-06	5.7037e-06	254.68	121.46	99.989	48.38	1.0147e-05	57.682	0.00051922	0.00052668	0.0001678	774.58	5.6384e-06	5.755e-06	698.33	260.96	5.6056e-06	5.8989e-06	262.59	121.88	101.29	48.925	6.5064e-06	57.958	25.923	-29.153	-71.179	-83.065	14.841	-42.905	-85.243	-77.551	140.702	154.317	-80.837	-76.207	-72.637	-67.876	43.937	-72.463	-8191	255	
2324.074	1	1	0	0	0.206	0.11118	0.19884	0.39245	0.034768	0.22123	0.17022	0.094462	0.18253	0.12129	0.16215	0.1237	0.27257	0.30748	0.12954	0.10052	-4.0208	-3.6188	-3.4667	-4.4896	-3.3542	-3.8125	-4.3083	-3.2687	-4.3583	-3.9229	-3.4875	-4.6646	-3.4833	-3.825	-4.2146	-3.25	-1.586	197.846	256.413	180.216	-49.707	152.825	170.919	-27.622	234.579	140.444	-84.156	227.272	32.028	258.961	67.719	197.082	0.00082532	0.00037239	0.00013382	768.82	2.8014e-06	2.4262e-06	685.06	260.11	1.9416e-06	2.4769e-06	255.76	121.43	100.12	48.388	1.973e-06	57.636	0.00050182	0.00055059	0.00016317	772.05	5.4601e-06	6.122e-06	692.96	261	5.3201e-06	6.1413e-06	261.47	121.7	101.31	48.93	6.2967e-06	57.969	12.341	-65.915	-70.973	-83.224	17.620	177.538	-84.942	-77.538	69.435	27.565	-80.381	-76.471	-71.926	-68.073	240.170	-72.514	-8191	255	
2324.192	1	1	0	0	0.033074	0.12926	0.15682	0.065797	0.12313	0.16293	0.14448	0.18807	0.34243	0.15685	0.11956	0.10604	0.047933	0.14762	0.04775	0.15301	-3.7667	-3.8479	-3.1417	-4.5771	-3.5	-3.7938	-4.3667	-3.2854	-4.1458	-3.9688	-3.3937	-4.5646	-3.4688	-3.8104	-4.4062	-3.5375	33.870	22.841	196.442	124.908	-26.448	-88.672	63.025	146.889	123.822	168.973	244.828	142.583	199.607	215.236	-20.339	246.443	0.00059349	0.00022072	0.00024042	767.81	7.5952e-06	5.6962e-06	688.3	257.98	2.9324e-06	6.4244e-06	257.35	119.87	99.094	48.414	9.8529e-06	57.97	0.00050056	0.00059269	0.00015866	770.11	5.6212e-06	6.5844e-06	692.36	260.08	5.6945e-06	6.5808e-06	261.06	121.01	101.18	48.983	6.0359e-06	58.012	37.112	17.318	8.900	-83.384	41.523	31.234	-85.287	-77.585	148.439	33.587	-80.612	-76.286	-71.862	-67.847	2.689	-72.288	-8191	255	
2324.289	1	1	0	0	0.094388	0.11657	0.12564	0.1294	0.12394	0.13125	0.25858	0.23933	0.16173	0.11184	0.29463	0.018411	0.14982	0.24194	0.25818	0.061814	-3.5812	-4.0792	-2.9562	-4.5479	-3.5354	-3.4854	-4.4563	-3.225	-4.1021	-3.9062	-3.1021	-4.1813	-3.6229	-3.3979	-4.4938	-3.3917	234.282	65.422	-10.484	35.375	116.814	-0.069	205.658	47.473	-76.511	39.829	208.741	-0.352	58.810	204.820	117.389	-69.590	0.0008879	0.00051013	0.00017806	766.88	4.1718e-06	9.2476e-06	687.92	257.92	5.4365e-06	4.6116e-06	256.98	121.3	99.459	48.599	9.3941e-06	57.863	0.00053545	0.00060634	0.00015473	769.58	5.9727e-06	6.6596e-06	692.66	259.58	6.0627e-06	6.5906e-06	262.56	121.72	101.88	49.034	6.0525e-06	58.226	9.975	-32.603	-24.254	-82.756	141.343	77.443	-85.302	-77.547	191.370	-4.241	-80.790	-76.441	-72.572	-67.791	-2.796	-72.513	-8191	255	
2324.385	1	1	0	0	0.18379	0.32616	0.14653	0.23514	0.21832	0.077044	0.023557	0.32459	0.27418	0.11619	0.10865	0.23719	0.079775	0.20316	0.19698	0.17444	-3.5292	-4.3104	-3.1583	-4.3688	-3.7062	-3.375	-4.3542	-3.3812	-3.7792	-4.1333	-3.3125	-4.0938	-3.9083	-3.4375	-4.2917	-3.4583	-73.758	246.826	-49.927	-87.215	-65.606	114.519	146.496	242.497	34.842	59.292	207.332	-77.353	24.114	217.155	99.066	115.548	0.00058821	0.00061126	0.00012819	761.82	5.5955e-06	3.0546e-06	691.15	258.5	3.7886e-06	4.9157e-06	257.9	121.29	99.334	48.454	1.0322e-05	57.82	0.00058069	0.00060602	0.00015314	767.28	6.5531e-06	6.6383e-06	697.2	260.12	6.5221e-06	6.4179e-06	261.94	121.9	101.91	48.936	5.8219e-06	58.058	12.069	-8.571	-22.340	-83.257	49.294	52.873	-85.048	-77.348	51.306	20.569	-80.636	-76.234	-72.390	-68.138	1.545	-72.522	-8191	255	
2324.481	1	1	0	0	0.13018	0.25829	0.14379	0.090845	0.18122	0.17972	0.18211	0.07742	0.014051	0.15293	0.25007	0.27722	0.21521	0.18437	0.11278	0.13525	-3.2229	-4.2625	-2.875	-4.2208	-3.9646	-3.1437	-4.5958	-3.4979	-3.7417	-4.2875	-3.1521	-4.0563	-4.0125	-3.375	-4.2875	-3.525	-65.910	194.664	178.049	61.963	62.782	25.985	170.138	121.476	24.473	71.604	-2.174	204.157	-89.214	235.434	174.716	187.619	0.00065627	0.0010312	0.00016883	761.23	1.1534e-06	3.0133e-06	683.9	256.3	3.8025e-06	6.7666e-06	252.79	120.22	97.633	47.891	1.5988e-06	57.028	0.00061216	0.00057881	0.00014856	766.8	6.807e-06	6.2634e-06	689.18	257.85	6.719e-06	6.1029e-06	257.46	120.43	101.26	48.432	5.6696e-06	57.507	-10.363	-68.303	2.689	-82.984	261.960	3.379	-85.440	-77.510	73.946	-4.366	-80.706	-76.120	-72.464	-67.963	17.460	-72.488	-8191	255	
2324.577	1	1	0	0	0.06268	0.17244	0.29189	0.15043	0.15949	0.1437	0.12379	0.056856	0.056122	0.10141	0.14838	0.038045	0.13854	0.18479	0.044303	0.22354	-3.1667	-4.3375	-3.3792	-4.0563	-3.9146	-3.3688	-4.3083	-3.7021	-3.5833	-4.3396	-3.25	-4.0333	-4.1771	-3.3417	-4.1979	-3.7167	-72.021	189.460	192.094	-92.845	259.047	-17.835	141.181	135.370	86.556	102.415	67.052	-40.845	125.703	193.293	-84.889	260.930	0.00054551	0.001129	0.00013689	759.93	7.371e-06	2.8495e-06	678.64	255.17	9.5108e-06	3.3829e-06	253.94	119.43	98.656	48.223	5.591e-06	57.644	0.00061551	0.00055681	0.0001457	766.18	6.7569e-06	6.1703e-06	683.57	258.01	6.7602e-06	6.0391e-06	258.21	120.9	101.17	48.581	5.6947e-06	58.005	20.081	-12.719	-22.005	-83.312	-11.944	98.606	-84.937	-77.528	-1.494	78.722	-80.310	-76.192	-72.452	-68.090	23.092	-72.517	-8191	255	
2324.673	1	1	0	0	0.16202	0.15261	0.071573	0.22033	0.15394	0.067938	0.16053	0.016442	0.049673	0.17669	0.033793	0.29676	0.24541	0.23825	0.246	0.14692	-3.0229	-4.5271	-3.3229	-3.8271	-4.1771	-3.1688	-4.3958	-4.0437	-3.3792	-4.4437	-3.5687	-3.5917	-4.2833	-3.3	-4.1687	-3.9437	189.550	-70.259	-7.003	-80.859	-24.091	207.346	129.846	117.087	69.482	-8.940	187.444	234.714	176.594	246.406	-2.429	256.892	0.00050278	0.00047087	0.00017854	757.63	9.568e-06	8.1765e-06	684.87	256.48	5.7119e-06	2.6573e-06	257.14	121.4	98.879	48.384	4.8551e-06	58.577	0.00059865	0.0005437	0.00014577	767.57	6.4571e-06	6.0106e-06	689.09	260.16	6.3587e-06	5.8518e-06	261.57	122.86	101.86	48.804	5.9151e-06	58.818	21.036	-89.909	55.875	-83.206	44.343	42.943	-85.372	-77.444	14.520	48.989	-80.718	-76.258	-72.292	-68.170	233.778	-72.598	-8191	255	
2324.794	1	1	0	0	0.044513	0.066871	0.01498	0.21628	0.080178	0.063138	0.18271	0.15552	0.082333	0.1403	0.067247	0.044266	0.16472	0.15496	0.31803	0.018683	-3.0521	-4.5167	-3.4667	-3.6021	-4.3438	-3.3958	-4.1771	-4.0521	-3.3271	-4.3021	-3.8729	-3.5333	-4.4479	-3.4313	-3.9958	-4.3187	63.369	-60.142	35.737	169.033	193.739	170.390	187.540	176.240	102.177	-45.079	-46.184	-33.144	29.944	234.072	70.684	236.825	0.00057736	0.00025936	0.00016653	763.55	5.2603e-06	1.0228e-05	684.73	258.2	1.1259e-05	8.6422e-06	259.78	120.8	98.718	48.417	1.8757e-06	58.288	0.00057715	0.00052946	0.00015354	769.56	6.1883e-06	5.887e-06	694.88	260.94	6.2051e-06	5.7507e-06	263.43	122.75	101.46	48.717	6.2916e-06	58.706	22.317	-85.555	55.062	-82.831	-38.582	41.170	-84.733	-77.650	49.020	12.383	-80.820	-76.029	-72.527	-67.927	40.289	-72.583	-8191	255	
2324.890	1	1	0	0	0.21289	0.15257	0.12065	0.055572	0.018527	0.32686	0.015185	0.19388	0.054478	0.17077	0.1112	0.20768	0.09169	0.062698	0.055464	0.18029	-2.8708	-4.2354	-3.7333	-3.3729	-4.3458	-3.3229	-4.1125	-4.3208	-3.3187	-4.3604	-3.8479	-3.4521	-4.3313	-3.5438	-3.95	-4.2875	-49.669	26.970	-74.367	216.811	38.272	32.609	162.921	156.872	-62.879	240.396	244.411	223.118	254.121	206.337	-74.968	215.444	0.00070972	0.00046704	7.1447e-05	763.7	4.054e-06	1.8561e-06	686.54	257.25	1.257e-05	4.6796e-06	256.17	120.66	99.027	48.149	7.4084e-07	57.37	0.00055753	0.0005133	0.00016227	770.53	5.8635e-06	5.6831e-06	694.69	259.6	5.9202e-06	5.5821e-06	261.76	122.06	100.87	48.484	6.5512e-06	57.947	13.865	17.016	34.332	-83.106	91.057	184.237	-85.026	-77.774	53.597	34.773	-80.730	-76.301	-72.588	-68.170	142.845	-72.487	-8191	255	
2324.986	1	1	0	0	0.15824	0.13542	0.010878	0.13732	0.16435	0.082597	0.11454	0.2712	0.1912	0.063783	0.043936	0.034381	0.15996	0.12991	0.16632	0.19109	-2.7021	-4.0833	-4.0083	-3.3438	-4.3479	-3.5271	-3.7875	-4.3125	-3.1979	-4.1479	-3.975	-3.2958	-4.2708	-3.4771	-3.4854	-4.4187	161.577	200.584	5.449	214.849	175.480	50.290	243.177	167.543	-70.855	260.155	-75.977	-84.035	262.831	264.300	257.721	206.024	0.0005413	0.00048671	0.00017384	757.26	2.7653e-06	2.4201e-06	685.59	256.02	3.0443e-06	5.8456e-07	255.6	121	99.083	48.102	8.6358e-06	57.952	0.00053774	0.0005187	0.00017028	765.06	5.8369e-06	5.8052e-06	691.95	259.1	5.8209e-06	5.8562e-06	262.29	122.01	100.95	48.573	6.7387e-06	58.299	28.149	12.832	-0.758	-82.948	-50.900	199.829	-84.959	-77.407	80.281	251.736	-80.401	-76.238	-72.273	-67.967	68.799	-72.312	-8191	255	
2325.082	1	1	0	0	0.22032	0.11593	0.069775	0.15791	0.061129	0.063057	0.036168	0.26183	0.20462	0.17119	0.26308	0.043451	0.16133	0.22127	0.13675	0.095736	-2.7313	-4.0583	-3.8667	-3.3771	-4.125	-3.5167	-3.4417	-4.3167	-3.1104	-3.9625	-4.1	-3.2479	-4.2792	-3.8479	-3.3187	-4.3812	-10.340	51.566	41.566	257.913	-92.746	-11.191	126.472	246.869	-49.719	-36.261	229.087	-60.209	-85.791	222.010	211.577	168.392	0.00064956	0.00045335	8.6373e-05	762.26	5.7904e-06	6.3634e-06	687.27	257.67	7.1903e-06	4.917e-06	257.09	121.03	98.773	48.07	2.8439e-06	57.998	0.00051884	0.00055759	0.00017217	765.9	5.6522e-06	6.2016e-06	693.71	259.35	5.6301e-06	6.2551e-06	263.24	121.59	100.73	48.591	6.6005e-06	58.21	4.589	-35.748	-6.857	-82.874	34.248	112.584	-85.168	-77.661	119.637	29.264	-80.522	-76.219	-72.172	-68.076	85.274	-72.391	-8191	255	
2325.177	1	1	0	0	0.14875	0.038993	0.16818	0.30285	0.1093	0.083215	0.2148	0.21491	0.15618	0.066208	0.061127	0.19831	0.051906	0.21613	0.092698	0.2607	-2.9042	-3.8167	-3.9292	-3.2083	-4.4187	-3.6146	-3.3375	-4.5083	-3.5312	-3.4542	-4.2042	-3.3021	-4.2146	-3.8708	-3.2104	-4.5062	36.452	111.196	255.506	-81.319	-53.009	132.785	149.843	147.743	127.675	173.347	198.150	-86.472	41.164	259.284	0.966	229.607	0.00081818	0.00049056	0.00019455	765.55	9.0669e-07	2.2531e-06	686.58	257.15	1.9531e-06	4.324e-06	257.47	121.81	99.457	48.102	5.4247e-06	58.293	0.00051959	0.00059392	0.00016716	766.01	5.677e-06	6.5847e-06	695.39	259.01	5.7096e-06	6.6456e-06	263.46	122.3	101.11	48.855	6.3516e-06	58.548	9.022	-8.634	59.823	-83.172	244.262	-38.657	-85.007	-77.363	257.619	14.335	-80.613	-76.364	-72.500	-67.871	6.988	-72.406	-8191	255	
2325.273	1	1	0	0	0.10041	0.18516	0.15762	0.051834	0.053359	0.095484	0.11047	0.14699	0.13302	0.043225	0.14517	0.099226	0.10165	0.2703	0.15059	0.24056	-3.0687	-3.3583	-4.3479	-3.4688	-4.1687	-3.9521	-3.3333	-4.6521	-3.5875	-3.475	-4.3917	-3.4125	-4.1083	-4.2458	-3.1333	-4.4542	172.288	33.260	5.638	-92.104	139.893	46.219	208.697	222.836	39.375	248.782	201.483	174.965	179.048	195.802	21.103	200.659	0.00073088	0.00030117	0.00030573	759.47	9.5707e-06	2.7457e-06	692.57	259.37	5.1717e-06	4.1423e-06	260.79	122.65	100.11	48.166	3.2943e-06	58.253	0.00053866	0.0006189	0.00016045	764.31	5.9023e-06	6.7377e-06	698.53	260.27	5.9777e-06	6.7399e-06	264.76	122.89	101.82	48.762	6.0206e-06	58.265	16.939	-15.610	-36.438	-83.154	34.058	26.968	-85.171	-77.436	133.387	1.490	-80.371	-76.452	-72.260	-68.262	252.528	-72.366	-8191	255	
2325.369	1	1	0	0	0.26239	0.24683	0.058464	0.10374	0.18171	0.31648	0.2462	0.063922	0.12839	0.18358	0.20521	0.20433	0.045525	0.30032	0.124	0.15953	-3.3563	-3.2188	-4.4021	-3.4229	-3.8937	-4.3458	-3.4437	-4.3167	-3.725	-3.3771	-4.5229	-3.5479	-3.7042	-4.3458	-3.1208	-4.2083	237.019	-58.953	11.455	-86.111	163.693	38.842	148.874	-79.634	219.527	5.597	36.617	23.048	218.519	-54.508	163.643	28.488	0.00075109	0.00027498	0.00010614	758.71	8.5636e-06	8.6037e-06	686.24	256.96	3.507e-06	2.9166e-06	257.68	120.95	99.2	47.92	1.2668e-05	57.529	0.00056004	0.00060932	0.00015212	761.93	6.2338e-06	6.6241e-06	690.06	258.77	6.3651e-06	6.6012e-06	261.85	121.68	102.06	48.517	5.917e-06	57.733	20.670	43.426	-0.532	-83.166	72.431	71.787	-85.139	-77.361	186.206	-33.385	-80.804	-76.092	-72.062	-68.024	27.632	-72.634	-8191	255	
2325.490	1	1	0	0	0.1755	0.27057	0.19637	0.18293	0.2807	0.16061	0.01467	0.11129	0.1107	0.17975	0.097634	0.13065	0.072073	0.14834	0.10385	0.13782	-3.4688	-3.3604	-4.3042	-3.425	-3.8	-4.3896	-3.2979	-4.3292	-3.9583	-3.3646	-4.5667	-3.6813	-3.6312	-4.3271	-3.3417	-4.1896	182.871	-27.963	121.063	217.332	-93.716	126.477	152.345	99.261	49.422	63.496	249.298	-46.894	181.484	-65.309	8.710	-36.511	0.0008761	0.0007478	0.00011	759.51	2.6618e-06	8.0546e-06	681.82	256.89	3.6695e-06	3.6754e-06	257.84	121.71	99.058	48.166	7.5351e-06	57.98	0.00060458	0.0005899	0.00014779	761.32	6.6937e-06	6.3646e-06	689.55	259.06	6.6554e-06	6.3614e-06	262.73	122.5	102.39	48.687	5.8425e-06	58.252	8.156	-42.861	-13.538	-83.057	-15.683	46.664	-85.229	-77.559	28.338	-45.874	-80.678	-76.097	-71.952	-67.870	21.419	-72.290	-8191	255	
2325.561	1	1	0	0	0.2515	0.045764	0.29599	0.18591	0.095866	0.042121	0.09663	0.25522	0.11106	0.19864	0.10067	0.12848	0.16304	0.17783	0.073369	0.26358	-3.6792	-3.3479	-4.2833	-3.6333	-3.6333	-4.3771	-3.3792	-4.1062	-4.0396	-3.1104	-4.6229	-3.7208	-3.5167	-4.6042	-3.2479	-3.9562	238.281	174.651	92.812	202.267	-79.773	162.695	165.929	261.800	25.802	-84.261	-55.795	205.498	-60.803	-80.995	244.608	180.373	0.00077149	0.00070639	0.00014385	757.66	8.0849e-06	5.5981e-06	685.21	257.71	1.1488e-05	1.1822e-05	262.44	123.24	99.416	48.254	2.5044e-06	58.318	0.00062677	0.00057615	0.00014951	762.67	6.9829e-06	6.2997e-06	692.69	260.94	6.9652e-06	6.3361e-06	265.57	124.14	103.22	48.802	5.9291e-06	58.859	2.393	-21.656	-10.415	-83.198	20.762	44.286	-84.996	-77.461	25.454	37.414	-80.461	-76.187	-72.503	-67.904	77.768	-72.371	-8191	255	
2325.657	1	1	0	0	0.25249	0.14406	0.19598	0.24544	0.16769	0.20148	0.13805	0.089795	0.01636	0.082588	0.086964	0.1417	0.092446	0.11915	0.043634	0.29875	-3.8396	-2.9958	-4.3104	-3.7667	-3.4479	-4.4042	-3.3979	-3.7604	-4.4313	-3.1021	-4.0938	-3.9583	-3.4125	-4.3812	-3.5146	-3.7667	129.573	186.611	89.050	232.563	143.991	6.915	187.475	-57.948	67.330	77.101	183.542	-91.469	-83.615	104.659	245.550	219.158	0.00068193	0.00067035	0.00021522	754.87	3.855e-06	5.908e-06	692.9	258.49	1.0618e-05	6.4721e-06	261.58	123.01	100.09	48.214	2.5923e-06	58.389	0.00063392	0.00057847	0.00015154	765.63	6.9628e-06	6.3256e-06	698.42	262.48	6.8549e-06	6.343e-06	266.05	124.41	102.96	48.672	6.0804e-06	58.985	28.542	-49.539	0.989	-83.097	-15.493	36.594	-85.165	-77.231	67.906	-37.603	-80.405	-76.125	-72.278	-67.811	-4.547	-72.636	-8191	255	
2325.754	1	1	0	0	0.1971	0.11105	0.29909	0.21635	0.1537	0.14297	0.11518	0.19236	0.14913	0.22845	0.17732	0.14355	0.22347	0.20375	0.19616	0.13374	-4.0146	-3.2104	-3.9813	-3.8625	-3.4188	-4.3375	-3.4708	-3.5667	-4.4667	-3.2687	-4.0646	-3.9396	-3.2146	-4.4208	-3.575	-3.5271	66.583	23.300	89.845	262.641	-88.268	101.818	-91.424	186.779	11.866	264.158	-32.916	202.562	228.003	252.029	217.585	185.638	0.00070172	0.00034301	0.00021295	758.41	7.9884e-06	2.7149e-06	683.96	257.85	7.2779e-06	6.5748e-06	258.53	122.1	99.001	48.135	3.3586e-06	57.921	0.00061395	0.00057066	0.00015671	767.11	6.6244e-06	6.11e-06	692.46	261.15	6.4569e-06	6.0446e-06	263.14	123.63	102.15	48.566	6.31e-06	58.552	43.902	-58.104	-9.998	-83.498	-14.123	53.599	-85.098	-77.667	34.787	67.937	-80.485	-76.049	-72.365	-68.044	-67.190	-72.470	-8191	255	
2325.874	1	1	0	0	0.10009	0.15141	0.36311	0.218	0.1667	0.10215	0.17345	0.13135	0.091845	0.11509	0.20233	0.014442	0.30546	0.32882	0.18494	0.3413	-4.1312	-3.4896	-3.8625	-4.2146	-3.3854	-4.5	-3.7417	-3.5521	-4.3729	-3.4313	-4.0146	-4.3229	-3.3854	-4.4042	-3.8042	-3.3833	72.810	260.005	184.411	123.141	159.180	198.698	-76.931	184.900	172.723	199.100	22.595	124.086	204.003	236.715	11.978	-58.317	0.00058657	0.00057762	9.8359e-05	752.51	7.1104e-06	3.7011e-06	684.31	259.45	7.9079e-06	4.4832e-06	260.63	122.77	100.4	48.118	5.6047e-06	58.521	0.0005811	0.00053749	0.00016309	761.38	6.2292e-06	5.8013e-06	691.49	261.95	6.113e-06	5.7761e-06	267.2	124.38	102.52	48.603	6.6e-06	58.931	13.221	-84.278	142.035	-83.245	30.658	33.981	-85.399	-77.941	9.139	51.394	-79.997	-76.503	-72.272	-68.032	120.635	-72.513	-8191	255	
2325.970	1	1	0	0	0.14717	0.26331	0.31662	0.29993	0.19942	0.11561	0.28991	0.10269	0.14053	0.15709	0.079379	0.16025	0.011484	0.087002	0.013321	0.37207	-4	-3.2292	-3.7354	-4.4854	-3.1417	-4.3729	-3.8792	-3.4062	-4.2958	-3.4625	-3.7188	-4.3917	-3.3792	-4.0458	-3.9292	-3.5396	209.194	22.354	-3.764	241.844	-28.302	29.353	120.446	167.911	-10.712	-25.643	-2.433	160.211	213.345	74.649	-62.466	-77.073	0.00060017	0.00015686	5.7903e-05	752.4	8.5173e-06	4.7468e-06	684.19	259.8	6.5353e-06	6.6298e-06	262.24	123.97	101.36	48.642	1.0115e-05	58.719	0.00056168	0.00053524	0.00017372	759.76	6.1927e-06	5.9013e-06	695.37	262.28	6.196e-06	6.0065e-06	269.46	125.14	102.88	48.944	7.1029e-06	59.326	17.809	-52.864	137.586	-83.094	33.650	8.099	-85.096	-77.564	-9.313	-1.101	-80.615	-76.158	-72.384	-67.903	16.231	-72.405	-8191	255	
2326.066	1	1	0	0	0.085395	0.24023	0.10738	0.32036	0.2669	0.15594	0.19332	0.17721	0.090882	0.025974	0.31432	0.041794	0.23955	0.12627	0.23595	0.19298	-3.7646	-3.3583	-3.6813	-4.4875	-3.2	-4.1333	-4.0792	-3.425	-4.3688	-3.4917	-3.5542	-4.4667	-3.3417	-4.1667	-4.0958	-3.2854	184.298	91.166	40.015	-52.131	60.996	84.333	245.494	196.919	36.236	206.203	-78.649	84.305	-41.798	139.005	78.390	137.782	0.00063369	0.00076259	8.9097e-05	752.61	4.8243e-06	6.3399e-06	688.95	259.61	4.6848e-06	2.8086e-06	265.17	125.28	100.93	48.647	1.3444e-05	59.405	0.00055871	0.00056763	0.00018134	758.65	6.1149e-06	6.3315e-06	698.14	262.48	5.9538e-06	6.4774e-06	273.04	126.41	103.26	49.208	7.1751e-06	59.879	16.609	1.328	33.731	-83.146	-74.120	124.852	-84.971	-77.483	-29.500	209.119	-80.986	-76.229	-72.913	-67.726	-16.836	-72.494	-8191	255	
2326.185	1	1	0	0	0.23222	0.174	0.16078	0.045506	0.13797	0.16423	0.33966	0.18133	0.25504	0.069138	0.12636	0.20661	0.2008	0.13232	0.15317	0.028394	-3.9396	-3.5146	-3.4771	-4.4854	-3.2375	-3.6958	-4.2792	-3.3812	-4.3792	-3.7354	-3.6229	-4.5417	-3.4896	-3.8917	-4.2125	-3.3521	162.991	-28.382	-36.517	207.904	76.600	-29.434	121.215	230.174	37.691	245.286	99.185	108.108	192.193	180.146	-49.404	124.456	0.00078563	0.00032877	0.00031684	749.74	3.0003e-06	4.5141e-06	687.91	261.65	5.9113e-06	5.975e-06	268.7	126.53	102.14	48.759	8.2969e-06	59.177	0.00055568	0.0006228	0.00018377	757.28	6.0683e-06	6.8685e-06	699.25	264.02	6.0141e-06	7.1057e-06	273.93	127.49	104.09	49.467	6.9117e-06	59.64	7.694	243.519	3.652	-83.301	44.797	21.518	-85.203	-77.563	23.452	-12.086	-80.639	-76.686	-72.629	-67.918	4.167	-72.320	-8191	255	
2326.257	1	1	0	0	0.2682	0.17863	0.11817	0.10085	0.060219	0.18026	0.22187	0.19538	0.036294	0.10791	0.023723	0.1682	0.1242	0.25186	0.085828	0.084267	-3.8542	-3.7042	-3.2458	-4.5625	-3.3604	-3.6792	-4.3396	-3.3854	-3.9958	-4.0375	-3.325	-4.4938	-3.55	-3.7125	-4.4229	-3.25	-46.127	202.369	-51.388	93.739	160.313	-79.357	35.615	-73.203	105.116	160.947	81.955	256.195	-7.539	235.511	126.217	190.488	0.00089059	0.00015092	0.00013171	748.08	4.6554e-06	3.5909e-06	687.85	262.21	1.5681e-06	8.9779e-06	266.18	127.34	102.61	49.023	2.8397e-06	59.508	0.00056029	0.00066568	0.00017697	752.83	6.1998e-06	7.3792e-06	695.4	263.9	6.3147e-06	7.4543e-06	273.57	128.11	105.08	49.723	6.7729e-06	59.91	27.425	-85.851	-20.699	-82.958	255.584	102.330	-84.899	-77.581	27.315	18.630	-80.239	-76.552	-72.736	-67.993	-8.192	-72.650	-8191	255	
2326.355	1	1	0	0	0.2678	0.17986	0.24678	0.11683	0.12114	0.18608	0.059995	0.34728	0.16442	0.10857	0.22666	0.33164	0.25001	0.36218	0.22207	0.10686	-3.6125	-3.8771	-3.4792	-4.3667	-3.5167	-3.7188	-4.5667	-3.3708	-3.8083	-4.0979	-3.3125	-4.4896	-3.8333	-3.6562	-4.3562	-3.55	217.506	138.913	69.933	23.369	222.658	-25.911	81.204	195.196	94.057	-82.068	220.096	225.357	195.865	176.718	174.401	-48.457	0.00082902	0.0011176	0.00028665	744.83	8.7975e-06	3.3037e-06	685.03	263.15	7.4507e-06	5.6286e-06	270.27	127.74	103.77	49.329	4.8469e-06	60.124	0.0006086	0.00069298	0.00017346	749.51	6.8356e-06	7.6099e-06	693.77	265.12	6.914e-06	7.4412e-06	276.25	128.9	106.47	49.915	6.6917e-06	60.411	21.329	-67.530	-17.277	-83.100	246.569	23.587	-85.099	-77.442	154.240	29.626	-80.409	-76.401	-72.427	-68.008	209.008	-72.519	-8191	255	
2326.474	1	1	0	0	0.11179	0.15619	0.12844	0.25749	0.18382	0.24878	0.15158	0.31702	0.18314	0.23176	0.32125	0.12318	0.24546	0.13653	0.086735	0.18486	-3.6083	-4.1292	-3.0354	-4.2875	-3.7729	-3.2833	-4.3187	-3.3812	-3.7083	-4.2208	-3.3479	-4.1687	-3.7667	-3.4167	-4.3417	-3.3792	221.051	22.537	129.313	-92.615	-92.948	165.450	223.244	180.206	40.751	111.061	52.600	-73.537	-85.480	250.337	178.831	247.494	0.00094967	0.001141	0.0001468	742.33	4.4917e-06	5.4669e-06	689.57	263.42	7.4003e-06	2.2712e-06	273.31	129.98	103.78	49.475	7.0611e-06	60.365	0.00066262	0.00067534	0.0001721	749.74	7.4063e-06	7.3838e-06	697.77	266.12	7.4937e-06	7.2729e-06	278.9	130.82	107.72	50.103	6.5859e-06	61.017	5.641	-39.159	9.767	-82.807	223.003	85.258	-85.124	-77.574	-38.704	-80.306	-80.730	-76.201	-72.701	-67.942	-21.524	-72.701	-8191	255	
2326.570	1	1	0	0	0.077712	0.033185	0.090061	0.30426	0.24378	0.10909	0.051662	0.17591	0.18715	0.033307	0.081827	0.088037	0.27975	0.10126	0.078495	0.15893	-3.2083	-4.3583	-3.25	-3.9104	-3.8354	-3.3563	-4.3604	-3.8667	-3.4708	-4.35	-3.3854	-4.1937	-4.1229	-3.1875	-4.1854	-3.8646	259.636	132.013	229.366	216.306	33.974	15.778	119.863	254.310	141.682	132.677	13.058	172.776	135.192	-78.670	-71.987	208.773	0.00089356	0.00083648	0.00017637	740.83	5.111e-06	3.1946e-06	692.84	264.63	4.8068e-06	5.5544e-07	273.34	131.13	104.82	49.648	7.7644e-06	60.819	0.00070377	0.00066049	0.00016937	749.95	7.795e-06	7.1789e-06	699.47	267.54	7.8733e-06	7.0745e-06	279.99	131.95	108.14	50.225	6.4974e-06	61.319	19.534	-21.014	22.214	-83.218	29.984	54.117	-85.020	-77.464	-68.062	-89.910	-80.757	-76.640	-72.632	-68.155	19.733	-72.793	-8191	255	
2326.666	1	1	0	0	0.11828	0.20335	0.081179	0.066758	0.15876	0.18728	0.0246	0.11479	0.095663	0.068004	0.17466	0.10696	0.18305	0.2378	0.27775	0.23973	-2.9083	-4.2333	-3.4542	-3.9125	-4.0813	-3.2062	-4.3063	-3.9354	-3.5333	-4.3562	-3.4688	-3.925	-3.9708	-3.3875	-4.1979	-3.6688	27.150	39.146	207.809	-89.893	186.086	198.253	-63.891	218.677	197.114	134.548	183.035	-40.201	-90.196	240.019	231.694	-86.847	0.00080724	0.00088512	5.7049e-05	736.14	6.3525e-06	1.0152e-05	688.51	263.84	6.8739e-06	1.5711e-06	273.65	129.33	103.37	49.546	3.2434e-06	60.381	0.00069854	0.00062953	0.00016387	748.25	7.5612e-06	6.8826e-06	693.33	266.67	7.4937e-06	6.7349e-06	277.1	130.82	107.22	50.012	6.3535e-06	60.922	17.493	-54.644	-16.418	-83.130	28.132	67.291	-84.840	-77.815	71.926	-2.071	-80.860	-76.682	-73.053	-68.211	60.962	-72.746	-8191	255	
2326.787	1	1	0	0	0.27018	0.13102	0.064937	0.32423	0.199	0.12704	0.022387	0.1407	0.17434	0.15722	0.073619	0.35549	0.12121	0.15885	0.072112	0.032101	-2.8958	-4.1562	-3.3833	-3.9458	-4.1042	-3.1771	-4.0729	-4.0354	-3.3292	-4.3688	-3.3333	-3.7333	-4.3167	-3.3625	-3.9688	-4.0979	223.454	56.563	-0.062	236.888	194.231	134.952	233.681	241.059	225.053	-7.479	119.867	227.953	260.727	-58.061	162.477	41.250	0.00072814	0.00068709	3.4333e-05	739.43	9.8809e-06	6.2604e-06	681.49	261.94	7.6778e-06	4.5482e-06	270.41	129.41	103.07	49.48	8.9321e-06	60.452	0.00067167	0.00061283	0.0001643	749.12	7.279e-06	6.7357e-06	691.18	266.38	7.2242e-06	6.5391e-06	276.99	130.97	106.46	49.889	6.7367e-06	61.02	15.009	1.167	166.259	-83.143	16.974	32.610	-85.163	-77.596	47.270	30.080	-80.837	-76.660	-72.569	-68.130	5.233	-72.626	-8191	255	
2326.858	1	1	0	0	0.26862	0.1584	0.077456	0.2001	0.295	0.28821	0.12921	0.19686	0.20924	0.094467	0.075475	0.076297	0.080068	0.15582	0.20378	0.25118	-2.9125	-4.1792	-3.2771	-3.6354	-4.2354	-3.2417	-3.9313	-3.925	-3.05	-4.4729	-3.8042	-3.65	-4.3896	-3.4667	-3.7417	-4.2833	-86.283	175.070	-49.729	-40.752	-0.471	248.659	208.262	-32.885	-92.263	-0.664	98.198	61.560	8.837	188.533	-95.333	-81.896	0.00067253	3.5267e-05	0.0001395	736.14	3.1061e-06	3.4732e-06	683.5	263.19	9.5982e-06	7.776e-06	270.19	128.93	102.6	49.15	4.4045e-06	60.33	0.00064574	0.00058743	0.00017404	748.28	6.9499e-06	6.3914e-06	693.48	266.75	6.9182e-06	6.3118e-06	277.42	130.7	105.86	49.657	7.2043e-06	60.999	24.493	106.024	-15.704	-83.119	-27.523	-37.549	-85.117	-77.656	21.022	41.148	-80.482	-76.444	-72.609	-68.046	111.765	-72.800	-8191	255	
2326.955	1	1	0	0	0.18207	0.2586	0.087658	0.049924	0.16677	0.26866	0.19332	0.1272	0.21517	0.088208	0.15468	0.41325	0.072434	0.16009	0.12299	0.27178	-2.9313	-4.0792	-3.7042	-3.3583	-4.3583	-3.4562	-3.8521	-4.3042	-3.2812	-3.9875	-4.0312	-3.4479	-4.3958	-3.5729	-3.6375	-4.3521	65.913	133.193	143.103	86.367	156.304	31.859	222.079	228.024	-60.485	-5.244	214.544	-86.713	145.395	173.869	179.189	194.127	0.00059757	0.00064752	0.00017545	739.13	7.3964e-06	1.0685e-06	683.7	261.05	9.2473e-06	2.2249e-06	270.19	130.04	102.86	49.523	5.6906e-06	60.731	0.00062779	0.00059181	0.00018734	747.93	6.7743e-06	6.4617e-06	696.98	264.77	6.7942e-06	6.4127e-06	279.44	131.11	105.8	49.997	7.6843e-06	61.27	22.267	-43.054	1.344	-82.605	-21.601	101.130	-85.120	-77.757	55.553	-37.798	-80.632	-76.456	-72.970	-68.284	138.250	-72.631	-8191	255	
2327.051	1	1	0	0	0.14189	0.28824	0.11393	0.080742	0.16179	0.086464	0.18813	0.11894	0.16809	0.33341	0.16114	0.11934	0.088134	0.17622	0.079695	0.1838	-2.9896	-4.1917	-3.9208	-3.3396	-4.4271	-3.7021	-3.7333	-4.5604	-3.1833	-3.9938	-4.0708	-3.4625	-4.4646	-3.5417	-3.5312	-4.4042	-94.479	147.463	193.300	258.775	-55.350	72.689	-79.310	-24.635	198.175	222.727	-58.987	197.780	96.999	230.533	72.945	117.404	0.00065072	0.00067405	0.00028439	734.83	2.636e-06	3.1443e-06	685.65	259.85	5.7348e-06	5.2479e-07	270.16	129.01	103.74	49.324	2.7365e-06	60.204	0.00061585	0.00060589	0.00019819	745.28	6.5362e-06	6.6881e-06	696.04	263.74	6.4549e-06	6.6019e-06	277.58	129.82	105.41	49.809	7.637e-06	60.629	42.884	-23.386	-11.894	-83.075	68.488	151.158	-85.113	-77.256	4.020	93.058	-80.867	-76.412	-72.671	-68.389	111.910	-72.863	-8191	255	
2327.170	1	1	0	0	0.11246	0.1666	0.14035	0.28658	0.076692	0.17718	0.0543	0.21482	0.10121	0.22614	0.13193	0.16643	0.15264	0.049717	0.23351	0.1174	-2.9354	-4.0729	-3.9542	-3.1958	-4.4313	-3.5833	-3.7188	-4.3104	-3.3792	-4.175	-4.1333	-3.2625	-4.2292	-3.8167	-3.4917	-4.4396	213.356	227.662	76.301	-88.386	67.246	203.894	164.769	239.814	144.043	208.860	20.243	225.510	-69.913	260.247	262.270	-60.673	0.0005217	0.00089278	0.00013195	733.55	3.7304e-06	3.8354e-06	679.65	259.25	2.9831e-06	4.4352e-06	269.5	127.6	102	49.031	4.0602e-06	60.329	0.00058964	0.00063601	0.0001942	741.29	6.248e-06	7.0774e-06	692.11	262.27	6.2449e-06	7.0883e-06	275.42	129.12	104.64	49.862	7.2869e-06	60.645	-5.727	-62.033	260.243	-82.871	255.121	160.716	-85.111	-77.731	96.254	185.282	-80.511	-76.493	-72.892	-68.138	71.476	-72.610	-8191	255	
2327.266	1	1	0	0	0.096405	0.086466	0.097782	0.21226	0.18702	0.13571	0.15121	0.040967	0.13745	0.18256	0.37386	0.15696	0.10357	0.19052	0.091693	0.19704	-3.0292	-3.6458	-4.1542	-3.3292	-4.1229	-3.8333	-3.4813	-4.4229	-3.5187	-3.6021	-4.2063	-3.5187	-4.0792	-4.0854	-3.4896	-4.3396	103.514	-35.786	20.845	210.612	148.336	114.452	244.864	18.285	9.678	61.292	135.260	-58.911	193.422	152.163	41.301	93.157	0.00059221	0.00079572	6.5453e-05	728.94	6.6565e-06	3.251e-06	683.16	260.57	5.2568e-06	3.6462e-06	272.94	129.91	104	49.16	4.8283e-06	60.684	0.00057352	0.00067306	0.00018404	737.74	6.2528e-06	7.4053e-06	693.14	263.13	6.3122e-06	7.4666e-06	279.66	130.79	106.15	50.01	7.0343e-06	60.945	18.950	-11.959	68.367	-83.072	24.128	-88.343	-85.144	-77.495	28.012	25.082	-80.495	-76.650	-72.822	-68.300	1.771	-72.552	-8191	255	
2327.362	1	1	0	0	0.031729	0.30821	0.10282	0.20251	0.14131	0.18482	0.14547	0.19031	0.24523	0.16066	0.10614	0.12045	0.061855	0.22076	0.19977	0.1356	-2.8792	-3.5312	-4.1917	-3.2021	-4.0083	-4.0458	-3.2417	-4.3854	-3.5333	-3.25	-4.5646	-3.4521	-3.8375	-4.2812	-3.1542	-4.3688	-13.604	-65.730	-58.563	-20.683	151.115	74.450	79.731	-61.366	77.219	229.810	262.916	-88.702	254.999	-88.887	61.585	242.262	0.00072472	0.00058572	0.00017909	728	3.8543e-06	2.889e-06	688.32	264.23	1.5013e-06	2.4899e-06	276.36	131.79	104.34	49.393	9.2519e-06	61.28	0.00059928	0.00069761	0.00017835	736.64	6.7763e-06	7.7929e-06	698.22	265.88	6.9793e-06	7.8726e-06	282.49	132.52	107.26	50.238	7.064e-06	61.525	20.144	104.215	-28.584	-83.103	73.026	91.885	-85.050	-77.753	251.281	31.468	-80.570	-76.587	-73.088	-68.190	27.038	-72.706	-8191	255	
2327.458	1	1	0	0	0.18865	0.18614	0.25638	0.02476	0.07652	0.053853	0.17246	0.15086	0.092194	0.067035	0.10699	0.21543	0.20805	0.15768	0.19895	0.083866	-3.3167	-3.4875	-4.4104	-3.5521	-3.8688	-4.1	-3.1292	-4.2979	-3.6854	-3.3438	-4.3958	-3.3604	-3.825	-4.4833	-3.0375	-4.2583	102.552	-70.712	29.110	134.013	20.906	235.441	230.308	156.444	201.196	232.089	7.327	145.925	169.373	220.015	99.454	229.334	0.00090334	0.00032908	0.00024151	728.74	4.1159e-06	1.246e-05	688.33	261.83	2.6051e-06	5.71e-06	273.38	130.85	103.58	49.301	3.7331e-06	60.63	0.00067459	0.00071801	0.00017791	737.75	7.514e-06	7.7579e-06	698.74	264.44	7.5481e-06	7.5946e-06	280.39	131.76	107.63	49.927	6.6912e-06	61.062	2.796	-32.976	-38.043	-82.966	-84.355	73.547	-85.119	-77.459	261.699	-38.319	-80.774	-76.544	-72.672	-68.571	62.927	-72.815	-8191	255	
2327.554	1	1	0	0	0.10088	0.14017	0.09595	0.22542	0.27762	0.12979	0.18902	0.14272	0.037307	0.15247	0.038905	0.046348	0.094464	0.23736	0.18294	0.31024	-3.3667	-3.3292	-4.5042	-3.5292	-3.8521	-4.1625	-3.1813	-4.2896	-3.7979	-3.3208	-4.5125	-3.5271	-3.6917	-4.5375	-3.1958	-4.2771	-56.370	248.971	211.069	256.663	45.499	97.209	147.850	203.699	178.781	-64.597	227.933	-42.730	238.135	-74.888	109.948	-93.052	0.00070855	0.000639	0.00015415	728.21	3.7128e-06	7.3768e-06	678.16	257.98	1.4425e-05	1.0479e-05	267.59	127.53	101.85	48.766	1.8381e-06	59.419	0.00068289	0.00066262	0.00016773	736.59	7.5067e-06	7.1199e-06	687.46	260.75	7.4733e-06	6.9916e-06	273.26	128.72	105.64	49.365	6.2272e-06	60.053	16.458	-63.355	30.463	-83.076	-70.965	43.304	-85.249	-77.694	78.221	40.943	-80.643	-76.433	-72.776	-68.337	191.033	-72.550	-8191	255	
2327.650	1	1	0	0	0.13177	0.035464	0.089448	0.066892	0.19441	0.09363	0.11389	0.23005	0.166	0.044483	0.14407	0.089511	0.13592	0.1771	0.01821	0.13566	-3.6021	-3.2396	-4.3667	-3.4729	-3.2896	-4.4708	-3.1396	-4.0354	-3.9542	-3.2562	-4.3229	-3.7188	-3.6167	-4.5062	-3.3063	-3.9771	71.159	173.953	51.315	126.086	167.268	133.417	156.598	-44.135	-47.966	28.163	23.940	185.621	204.872	-32.317	227.509	190.031	0.00078628	0.00037144	0.00010976	726.73	3.2044e-06	5.2059e-06	680.76	256.27	7.0788e-06	7.1358e-06	266.81	127.22	101.78	48.699	2.235e-06	59.668	0.00067466	0.00060543	0.00015659	735.99	7.2799e-06	6.5267e-06	686.78	259.44	7.1603e-06	6.4633e-06	271.57	128.47	104.9	49.136	6.0512e-06	60.28	11.268	-73.965	-84.758	-83.079	-76.462	59.174	-85.263	-77.306	91.769	16.195	-80.593	-76.299	-72.406	-68.114	-31.677	-72.592	-8191	255	
2327.746	1	1	0	0	0.1962	0.14955	0.026744	0.16407	0.088779	0.14979	0.20514	0.25329	0.072083	0.17563	0.18611	0.15628	0.28065	0.1908	0.16795	0.1632	-3.7792	-3.1292	-4.2208	-3.9583	-3.3875	-4.4479	-3.525	-3.8937	-4.2896	-3.1292	-4.1583	-3.7479	-3.4083	-4.6542	-3.3	-3.7229	113.776	5.109	158.269	236.844	88.533	21.839	224.355	249.867	179.554	229.066	53.225	230.298	175.496	236.484	229.909	202.544	0.00061712	0.00046352	0.0002018	729.14	4.6317e-06	6.3518e-06	680.2	256.52	7.1268e-06	6.0193e-06	267.84	127.73	101.57	48.62	5.4004e-06	59.674	0.00065188	0.00059126	0.00015513	738.57	7.0586e-06	6.47e-06	687.43	260.45	7.0006e-06	6.4645e-06	272.76	129.03	104.61	49.089	6.2139e-06	60.615	21.263	24.985	7.233	-82.985	260.418	13.646	-84.988	-77.623	64.738	3.966	-80.731	-76.285	-72.949	-68.125	-20.217	-72.243	-8191	255	
2327.867	1	1	0	0	0.089653	0.18595	0.22229	0.40981	0.16568	0.048468	0.093952	0.079367	0.13159	0.12647	0.049677	0.21967	0.086021	0.28377	0.22981	0.032173	-3.9688	-3.0771	-4.1312	-4	-3.2042	-4.1958	-3.6896	-3.4458	-4.2604	-3.3229	-4.0813	-4.0646	-3.3229	-4.5854	-3.5375	-3.3875	-76.654	258.381	-61.920	205.772	-6.364	96.362	176.736	252.950	89.326	92.626	75.248	222.005	-94.994	259.803	160.387	132.444	0.0005803	0.00029313	2.7498e-05	729.56	6.3133e-06	6.0269e-06	687.22	258.67	1.1321e-05	5.4853e-06	270.68	128.14	101.83	48.744	3.9753e-06	60.307	0.00061629	0.00057391	0.0001579	740.07	6.7027e-06	6.0661e-06	693.65	261.81	6.5618e-06	6.083e-06	275.74	129.77	104.55	49.107	6.5789e-06	60.818	26.839	-46.669	-46.817	-82.853	14.241	9.142	-85.365	-77.426	56.058	30.616	-80.615	-76.517	-72.935	-68.228	-36.456	-72.676	-8191	255	
2327.963	1	1	0	0	0.035115	0.077851	0.061874	0.15625	0.061648	0.19129	0.16893	0.16975	0.088939	0.13004	0.08985	0.059976	0.087996	0.13795	0.11791	0.15137	-3.9625	-3.1625	-3.9042	-4.3	-3.2229	-4.2104	-3.6771	-3.5417	-4.4104	-3.325	-3.6729	-4.0896	-3.1896	-4.3479	-3.5792	-3.2854	77.262	179.996	12.307	213.622	257.548	-32.637	134.707	214.172	171.970	187.140	-84.244	-57.542	111.502	87.461	106.736	236.683	0.00071204	0.00062399	0.0002298	730.42	1.5783e-06	2.0277e-06	680.88	258.34	4.4068e-06	2.2595e-06	269.92	129.38	103.2	48.521	4.0816e-06	59.767	0.00059533	0.000545	0.00017115	739.17	6.4582e-06	6.1618e-06	691.44	262.42	6.4274e-06	6.0516e-06	277.09	130.3	104.85	49.017	7.0054e-06	60.36	12.009	-2.232	65.209	-82.960	-50.075	87.024	-84.848	-77.478	86.589	92.217	-80.648	-76.354	-72.956	-68.182	-31.430	-72.463	-8191	255	
2328.059	1	1	0	0	0.07224	0.20514	0.051714	0.039098	0.12347	0.10703	0.33249	0.077055	0.252	0.095878	0.048796	0.30714	0.072722	0.28833	0.064588	0.17041	-3.9271	-3.325	-3.7021	-4.2375	-3.175	-4.2271	-3.7896	-3.275	-4.3917	-3.4458	-3.6292	-4.2042	-3.2625	-4.1042	-3.8708	-3.3292	-82.424	129.080	-62.597	186.956	-32.027	3.801	244.588	217.753	65.131	223.373	218.680	-38.060	16.295	250.411	67.782	-72.301	0.00060514	0.00043411	8.3964e-05	722.22	8.7326e-06	5.7812e-06	683.2	261.1	9.1989e-06	2.221e-06	272.16	128.74	102.79	48.665	3.0171e-06	59.704	0.00058277	0.00055516	0.00018298	736.02	6.3168e-06	6.171e-06	692.06	263.14	6.2085e-06	6.2618e-06	278.53	129.85	104.97	49.113	7.2904e-06	60.175	5.878	251.973	136.777	-83.121	-4.878	60.256	-84.938	-77.464	-2.872	257.515	-80.162	-76.612	-72.601	-67.905	69.792	-72.429	-8191	255	
2328.156	1	1	0	0	0.183	0.074472	0.078867	0.10312	0.3121	0.078126	0.055501	0.2488	0.10582	0.33619	0.15293	0.073941	0.15033	0.20244	0.088682	0.29368	-3.7521	-3.5563	-3.4271	-4.4521	-3.0687	-4.0917	-3.8646	-3.3312	-4.2979	-3.5	-3.5438	-4.375	-3.1854	-4.0479	-4.2875	-3.1729	-44.501	207.991	-64.151	263.678	94.492	259.651	134.403	257.734	68.321	36.056	22.728	-22.066	248.847	181.094	-72.991	253.924	0.00068658	0.00030705	9.3433e-05	732.45	4.4383e-06	1.3861e-06	682.75	259.91	2.963e-06	2.4675e-06	269.71	128.05	102.1	48.304	3.142e-06	59.508	0.00056256	0.0005846	0.00018687	737.74	6.0825e-06	6.4661e-06	693.76	261.84	5.9432e-06	6.5546e-06	276.4	128.93	104.03	49.053	7.0745e-06	60.066	12.744	20.383	13.141	-83.086	-15.707	38.738	-84.819	-77.536	-0.518	156.774	-80.777	-76.477	-72.336	-68.230	-10.207	-72.574	-8191	255	
2328.250	1	1	0	0	0.17909	0.17296	0.13581	0.29993	0.050554	0.038489	0.18617	0.066896	0.10625	0.29508	0.22835	0.30346	0.12234	0.12497	0.27063	0.20719	-3.9604	-3.6437	-3.4125	-4.3438	-3.2708	-3.5771	-4.3063	-3.2042	-4.1188	-3.9333	-3.2646	-4.6062	-3.3937	-3.6521	-4.1792	-3.1792	-25.104	-7.385	232.036	227.537	231.906	217.311	194.970	156.267	210.809	77.482	232.329	-54.461	164.609	-86.684	-39.031	221.351	0.000633	0.00043116	0.00022952	730.08	2.3186e-06	1.4962e-07	683.94	258.2	6.2727e-06	5.7218e-06	269.96	128.65	101.21	48.258	6.037e-06	59.943	0.00055006	0.00062051	0.0001793	737.26	5.8502e-06	6.8678e-06	693.67	261.24	5.8999e-06	6.9765e-06	277.13	128.94	103.76	49.01	6.8293e-06	60.155	24.179	130.244	-78.675	-82.720	30.097	262.039	-85.228	-77.636	66.978	189.329	-80.174	-76.481	-72.661	-68.137	-6.914	-72.551	-8191	255	
2328.346	1	1	0	0	0.13586	0.29515	0.072342	0.16144	0.058213	0.07519	0.36299	0.11014	0.31377	0.10771	0.14735	0.08292	0.2623	0.15421	0.026094	0.28866	-3.6937	-3.7375	-3.2396	-4.5583	-3.4917	-3.6583	-4.2937	-3.4062	-3.9646	-3.8792	-3.4479	-4.3542	-3.7542	-3.4875	-4.3562	-3.2188	43.657	246.995	50.813	-58.516	-44.372	-80.203	188.890	148.038	103.711	11.047	-60.416	197.687	30.482	-78.037	27.107	164.799	0.00067661	0.0014729	0.00018864	732.21	3.3192e-06	4.9721e-06	686.38	257.08	3.4594e-06	3.9656e-06	265.73	126.1	100.25	47.775	6.0174e-06	58.684	0.00056152	0.0006629	0.00017435	737.67	6.192e-06	7.3571e-06	694.08	259.73	6.2987e-06	7.3903e-06	272.92	127.16	103.46	48.577	6.7271e-06	58.988	6.861	-24.147	-39.074	-83.065	30.898	48.170	-84.974	-77.586	60.829	27.044	-80.601	-76.232	-72.196	-68.080	15.966	-72.752	-8191	255	
2328.467	1	1	0	0	0.077688	0.23923	0.038682	0.2062	0.30199	0.30086	0.17776	0.16415	0.34499	0.13614	0.14837	0.24076	0.056309	0.13622	0.11447	0.096116	-3.5167	-4.15	-3.0563	-4.4833	-3.6292	-3.5458	-4.6021	-3.2458	-3.775	-4.2188	-3.2458	-4.2271	-3.9104	-3.4771	-4.2083	-3.5521	73.011	175.237	162.401	-72.562	27.480	202.724	195.142	254.457	41.877	-29.271	-6.360	164.849	-6.343	-93.565	-52.488	-27.889	0.00073602	0.00029556	0.00017336	726.67	3.7038e-06	2.204e-06	673.73	254.37	4.4282e-06	5.5227e-06	263.58	124.48	98.925	47.171	2.4998e-06	57.675	0.00061801	0.00068634	0.00017416	732.63	6.9345e-06	7.6006e-06	684.78	256.96	7.145e-06	7.5207e-06	269.61	125.36	103.36	47.974	6.7813e-06	58.166	22.510	152.902	-38.499	-82.997	68.190	48.439	-85.117	-77.366	-50.393	-7.449	-80.529	-76.269	-72.524	-68.120	82.674	-72.547	-8191	255	
2328.563	1	1	0	0	0.20585	0.12494	0.093461	0.31534	0.10165	0.22513	0.039084	0.11977	0.14568	0.069106	0.21456	0.31405	0.072734	0.20649	0.14773	0.085948	-3.3812	-4.1708	-3.1333	-4.4	-3.6688	-3.4167	-4.5208	-3.5896	-3.8937	-4.0854	-3.4229	-4.05	-4.0354	-3.2771	-4.5687	-3.475	145.271	231.888	-2.144	223.709	224.134	222.188	40.561	163.100	-36.263	-93.104	231.448	-89.849	45.284	231.125	50.412	194.693	0.00072486	0.00023946	0.00013373	722.33	4.5971e-06	4.0016e-06	672.32	253.39	5.7203e-06	9.3671e-06	264.81	123.03	98.556	46.134	9.9554e-06	56.444	0.0006839	0.00069379	0.00017474	730.46	7.8535e-06	7.6504e-06	683.5	256.91	8.2251e-06	7.8188e-06	271.05	125	103.96	47.005	7.6252e-06	57.257	21.914	-7.559	10.285	-82.977	47.486	24.072	-85.164	-77.219	190.469	77.168	-80.333	-75.955	-72.476	-67.647	9.745	-72.581	-8191	255	
2328.659	1	1	0	0	0.13272	0.086705	0.070145	0.20037	0.16702	0.12887	0.31659	0.3301	0.27016	0.14721	0.037416	0.020445	0.10836	0.11898	0.15418	0.12795	-3.3083	-4.3979	-3.2542	-4.0437	-4.0979	-3.1521	-4.4125	-3.5021	-3.625	-4.4708	-3.4562	-3.8979	-4.0813	-3.3104	-4.2396	-3.8354	245.576	90.742	99.593	226.748	240.419	218.557	186.967	219.686	1.872	97.287	135.080	170.725	213.627	195.534	-3.667	46.276	0.00079948	0.001213	0.00022708	717.45	8.2074e-06	1.9873e-06	668.72	253.84	5.2684e-06	9.2385e-06	266.24	123.49	98.173	45.676	7.455e-06	56.154	0.00081592	0.00076771	0.00019845	731.34	9.1816e-06	8.3725e-06	685.32	258.43	9.1986e-06	8.2788e-06	273.82	125.93	104.1	46.665	7.5479e-06	57.205	14.469	-60.110	-4.373	-83.120	53.271	7.388	-84.975	-77.395	51.356	8.921	-80.271	-76.040	-72.534	-67.939	74.917	-72.584	-8191	255	
#DATA ENDS
