BOXY.EXE: ISS Imagent and Oximeter Data Acquisition Program Version 0.80
Ascii Record File

#ACQ INFORMATION
2  Detector Channels 
16  External MUX Channels 
1  Auxiliary Channels 
5000  Waveform (CCF) Frequency (Hz)
1  Waveforms Skipped 
30  Waveforms Averaged 
1  Cycles Averaged 
16  Acquisitions per Waveform 
10.0806  Updata Rate (Hz) 

#FILE INFORMATION
TRUE -- External MUX Channel results are PARSED.
FALSE -- AC DC and Phase are NOT grouped.
TRUE -- Companion Program Settings File CREATED.
FALSE -- AC data not excluded
FALSE -- DC data not excluded
FALSE -- Phase data not excluded
FALSE -- Auxillary Chn. data not excluded
Tab delimiters

#CALIBRATION STATE
TRUE -- Waveform Calibration Values APPLIED.


#AUX CALIBRATION VALUES
Val Type	aux-1	

Term	1.0000e+00	
Factor	0.0000e+00	


#WF CALIBRATION VALUES
A = Detector Channel
Val Type	A-AC1	A-AC2	A-AC3	A-AC4	A-AC5	A-AC6	A-AC7	A-AC8	A-AC9	A-AC10	A-AC11	A-AC12	A-AC13	A-AC14	A-AC15	A-AC16	A-DC1	A-DC2	A-DC3	A-DC4	A-DC5	A-DC6	A-DC7	A-DC8	A-DC9	A-DC10	A-DC11	A-DC12	A-DC13	A-DC14	A-DC15	A-DC16	A-Ph1	A-Ph2	A-Ph3	A-Ph4	A-Ph5	A-Ph6	A-Ph7	A-Ph8	A-Ph9	A-Ph10	A-Ph11	A-Ph12	A-Ph13	A-Ph14	A-Ph15	A-Ph16	

Term	0.00000e+00	0.00000e+00	0.00000e+00	0.00000e+00	0.00000e+00	0.00000e+00	0.00000e+00	0.00000e+00	0.00000e+00	0.00000e+00	0.00000e+00	0.00000e+00	0.00000e+00	0.00000e+00	0.00000e+00	0.00000e+00	0.00000e+00	0.00000e+00	0.00000e+00	0.00000e+00	0.00000e+00	0.00000e+00	0.00000e+00	0.00000e+00	0.00000e+00	0.00000e+00	0.00000e+00	0.00000e+00	0.00000e+00	0.00000e+00	0.00000e+00	0.00000e+00	0.00000e+00	0.00000e+00	0.00000e+00	0.00000e+00	0.00000e+00	0.00000e+00	0.00000e+00	0.00000e+00	0.00000e+00	0.00000e+00	0.00000e+00	0.00000e+00	0.00000e+00	0.00000e+00	0.00000e+00	0.00000e+00	
Factor	1.00000e+00	1.00000e+00	1.00000e+00	1.00000e+00	1.00000e+00	1.00000e+00	1.00000e+00	1.00000e+00	1.00000e+00	1.00000e+00	1.00000e+00	1.00000e+00	1.00000e+00	1.00000e+00	1.00000e+00	1.00000e+00	1.00000e+00	1.00000e+00	1.00000e+00	1.00000e+00	1.00000e+00	1.00000e+00	1.00000e+00	1.00000e+00	1.00000e+00	1.00000e+00	1.00000e+00	1.00000e+00	1.00000e+00	1.00000e+00	1.00000e+00	1.00000e+00	X	X	X	X	X	X	X	X	X	X	X	X	X	X	X	X	

B = Detector Channel
Val Type	B-AC1	B-AC2	B-AC3	B-AC4	B-AC5	B-AC6	B-AC7	B-AC8	B-AC9	B-AC10	B-AC11	B-AC12	B-AC13	B-AC14	B-AC15	B-AC16	B-DC1	B-DC2	B-DC3	B-DC4	B-DC5	B-DC6	B-DC7	B-DC8	B-DC9	B-DC10	B-DC11	B-DC12	B-DC13	B-DC14	B-DC15	B-DC16	B-Ph1	B-Ph2	B-Ph3	B-Ph4	B-Ph5	B-Ph6	B-Ph7	B-Ph8	B-Ph9	B-Ph10	B-Ph11	B-Ph12	B-Ph13	B-Ph14	B-Ph15	B-Ph16	

Term	0.00000e+00	0.00000e+00	0.00000e+00	0.00000e+00	0.00000e+00	0.00000e+00	0.00000e+00	0.00000e+00	0.00000e+00	0.00000e+00	0.00000e+00	0.00000e+00	0.00000e+00	0.00000e+00	0.00000e+00	0.00000e+00	0.00000e+00	0.00000e+00	0.00000e+00	0.00000e+00	0.00000e+00	0.00000e+00	0.00000e+00	0.00000e+00	0.00000e+00	0.00000e+00	0.00000e+00	0.00000e+00	0.00000e+00	0.00000e+00	0.00000e+00	0.00000e+00	-1.27073e+02	-1.37189e+02	-1.14034e+02	-1.82642e+02	-6.77074e+01	-7.36674e+01	-1.55275e+02	-1.62015e+02	-8.16783e+01	-5.49491e+01	-1.72245e+02	-1.69834e+02	-1.79515e+02	-1.77360e+02	-7.51326e+01	-1.49195e+02	
Factor	1.75894e-05	1.35949e-04	4.03037e-05	1.76583e-01	1.21743e-06	1.73254e-06	1.64385e-01	4.98919e-02	1.01420e-06	1.41505e-06	9.45280e-02	2.88164e-02	2.76675e-02	9.24122e-03	1.14402e-06	1.32298e-02	1.94680e-06	2.10307e-06	5.83844e-07	8.62186e-02	2.28121e-08	2.29967e-08	7.60499e-02	2.45492e-02	2.27457e-08	2.30251e-08	4.47580e-02	1.37852e-02	1.36628e-02	4.53901e-03	2.28964e-08	6.30002e-03	X	X	X	X	X	X	X	X	X	X	X	X	X	X	X	X	



#DISTANCE SETTINGS
A = Detector Channel
A-1	A-2	A-3	A-4	A-5	A-6	A-7	A-8	A-9	A-10	A-11	A-12	A-13	A-14	A-15	A-16	

2.5000e+00	3.0000e+00	2.5000e+00	3.0000e+00	2.0000e+00	3.0000e+00	1.5000e+00	3.0000e+00	3.0000e+00	3.0000e+00	3.0000e+00	3.0000e+00	3.0000e+00	3.0000e+00	1.5000e+00	3.0000e+00	

B = Detector Channel
B-1	B-2	B-3	B-4	B-5	B-6	B-7	B-8	B-9	B-10	B-11	B-12	B-13	B-14	B-15	B-16	

1.0000e+01	1.0000e+01	1.0000e+01	1.4400e+00	1.0000e+01	1.0000e+01	1.5100e+00	1.9400e+00	1.0000e+01	1.0000e+01	1.9900e+00	2.4900e+00	2.4100e+00	2.9000e+00	1.0000e+01	2.9800e+00	




#DATA BEGINS
time	group	step	mark	flag	A-AC1	A-AC2	A-AC3	A-AC4	A-AC5	A-AC6	A-AC7	A-AC8	A-AC9	A-AC10	A-AC11	A-AC12	A-AC13	A-AC14	A-AC15	A-AC16	A-DC1	A-DC2	A-DC3	A-DC4	A-DC5	A-DC6	A-DC7	A-DC8	A-DC9	A-DC10	A-DC11	A-DC12	A-DC13	A-DC14	A-DC15	A-DC16	A-Ph1	A-Ph2	A-Ph3	A-Ph4	A-Ph5	A-Ph6	A-Ph7	A-Ph8	A-Ph9	A-Ph10	A-Ph11	A-Ph12	A-Ph13	A-Ph14	A-Ph15	A-Ph16	B-AC1	B-AC2	B-AC3	B-AC4	B-AC5	B-AC6	B-AC7	B-AC8	B-AC9	B-AC10	B-AC11	B-AC12	B-AC13	B-AC14	B-AC15	B-AC16	B-DC1	B-DC2	B-DC3	B-DC4	B-DC5	B-DC6	B-DC7	B-DC8	B-DC9	B-DC10	B-DC11	B-DC12	B-DC13	B-DC14	B-DC15	B-DC16	B-Ph1	B-Ph2	B-Ph3	B-Ph4	B-Ph5	B-Ph6	B-Ph7	B-Ph8	B-Ph9	B-Ph10	B-Ph11	B-Ph12	B-Ph13	B-Ph14	B-Ph15	B-Ph16	aux-1	digaux	

32134.807	1	1	0	256	0.078597	0.12855	0.22667	0.1929	0.2304	0.10153	0.33271	0.25235	0.14191	0.071729	0.094249	0.22481	0.28102	0.30555	0.19244	0.080117	-2.7146	-2.9646	-2.9062	-3.3187	-2.8417	-2.9417	-3.4188	-3.0208	-2.8792	-3.0833	-3.0938	-3.2292	-2.9083	-3.1437	-3.1125	-2.9021	295.745	290.843	196.363	455.511	347.325	493.178	445.400	439.976	151.165	277.929	307.330	442.150	483.336	439.023	457.216	454.739	0.00059771	0.00070115	0.00023767	1422.2	3.964e-06	1.2013e-05	1413.5	384.97	4.4184e-06	5.7198e-06	438.55	147.62	128.17	43.349	1.8302e-06	53.735	0.00057279	0.00057295	0.00015806	1439.7	6.2196e-06	6.2785e-06	1439.6	392.64	6.3261e-06	6.2517e-06	447.15	150.89	131.05	44.566	6.2465e-06	55.155	192.503	237.324	292.066	161.627	300.958	316.421	161.392	166.041	267.791	298.672	165.684	169.765	170.299	175.063	264.868	174.314	-8191	255	
32134.902	1	1	0	0	0.21653	0.25525	0.04963	0.22234	0.15904	0.36324	0.27706	0.10512	0.24623	0.17214	0.1227	0.34102	0.13467	0.059395	0.20845	0.16042	-2.4958	-2.8729	-2.7729	-3.3042	-3.0104	-3.0271	-3.3542	-2.9479	-3.0417	-3.075	-3.0021	-3.35	-3.0125	-2.9354	-3.1063	-3.0583	154.671	383.076	431.079	209.732	504.609	320.913	481.793	368.327	233.476	501.667	488.614	507.282	491.601	505.480	172.125	480.774	0.0005409	0.00051144	0.00018499	1421.3	9.8086e-06	3.0808e-06	1411.9	385.74	4.7731e-06	3.7067e-06	439.63	147.18	127.98	43.312	4.051e-06	53.112	0.00057462	0.00057531	0.00015795	1437.6	6.2608e-06	6.2581e-06	1434.8	392.37	6.1663e-06	6.2187e-06	446.53	150.33	130.53	44.517	6.1144e-06	54.963	191.823	271.155	300.485	161.757	275.086	266.656	161.369	166.142	264.075	284.432	165.827	169.693	170.505	174.850	238.705	174.429	-8191	255	
32134.998	1	1	0	0	0.067758	0.085711	0.012469	0.2041	0.16196	0.045251	0.07902	0.15368	0.13141	0.11155	0.39249	0.2936	0.16966	0.16782	0.25934	0.14971	-2.6979	-2.8625	-2.7021	-3.2042	-2.8583	-2.9979	-3.3229	-3.0583	-3.1521	-3.1813	-3.0458	-3.0917	-3.1729	-2.9708	-3.325	-3.0083	497.195	196.840	430.746	485.406	216.693	439.462	404.987	430.298	196.425	202.632	431.764	461.388	497.619	448.512	189.101	209.188	0.00054798	0.00093484	0.00015707	1415.6	3.8285e-06	2.1018e-06	1410.7	383.53	5.3959e-06	4.4303e-06	434.84	146.27	127.7	43.248	5.5012e-06	53.43	0.00056973	0.00057945	0.00015741	1433.5	6.1816e-06	6.0915e-06	1433.3	390.6	6.1846e-06	6.1833e-06	444.59	149.69	130.39	44.347	6.1282e-06	54.97	197.109	285.356	211.965	161.648	271.616	261.776	161.587	166.264	282.551	294.492	165.637	169.614	170.204	175.269	262.570	174.175	-8191	255	
32135.094	1	1	0	0	0.088304	0.046737	0.072184	0.22862	0.16743	0.099005	0.13425	0.12284	0.10359	0.13441	0.12766	0.11532	0.18025	0.071545	0.15174	0.26634	-2.6562	-3.0292	-2.9562	-3.2458	-2.9896	-2.9354	-3.4458	-3.0812	-3.05	-3.3521	-3.0521	-3.3646	-3.2479	-3.2417	-3.2271	-3	305.356	422.502	428.471	492.423	397.553	327.673	475.601	249.819	304.436	151.484	284.708	370.184	354.851	463.989	348.733	453.092	0.00055174	6.9466e-05	0.00012807	1410.7	3.2377e-06	8.3025e-06	1399.9	382.54	2.2007e-06	3.3553e-06	435.42	146.28	127.06	43.166	2.0504e-06	53.237	0.00056827	0.00056584	0.00015536	1427.7	6.2337e-06	6.1479e-06	1424.1	389.62	6.1586e-06	6.1925e-06	443.99	149.61	129.99	44.258	6.0955e-06	54.805	191.402	432.437	225.872	161.916	250.295	286.868	161.375	166.076	278.112	316.006	165.720	169.686	170.284	174.998	285.175	174.337	-8191	255	
32135.189	1	1	0	0	0.25721	0.2642	0.18442	0.22766	0.017504	0.082922	0.14541	0.12932	0.063287	0.10276	0.11834	0.346	0.26493	0.1514	0.25923	0.18261	-2.5667	-3.1312	-2.9042	-3.3187	-3.2458	-3	-3.3271	-3.2271	-3.1125	-3.2833	-2.9083	-3.1646	-3.2438	-2.7833	-3.3417	-3.1437	334.532	165.916	159.754	491.753	242.281	206.463	232.170	439.797	162.566	393.953	448.811	421.579	463.882	450.295	420.451	422.940	0.00055432	0.00051051	0.00012091	1403.4	4.2916e-06	3.1045e-06	1398	381.72	6.0897e-06	6.7178e-06	434.32	145.98	126.88	43.317	5.6914e-06	52.996	0.00056564	0.00056495	0.0001568	1420.7	6.1605e-06	6.1102e-06	1420.5	388.62	6.1341e-06	6.1467e-06	442.79	149.18	129.69	44.199	6.1244e-06	54.754	189.807	238.350	255.139	161.693	274.829	330.425	161.461	166.155	282.391	277.196	165.870	169.677	170.560	175.449	252.007	174.457	-8191	255	
32135.285	1	1	0	0	0.028029	0.17297	0.092133	0.27258	0.058915	0.19897	0.26816	0.38942	0.14663	0.15163	0.080604	0.33488	0.20692	0.19318	0.10376	0.091985	-2.5938	-3.2167	-2.8458	-3.3	-3.2917	-2.9333	-3.3542	-3.3438	-2.9917	-3.3354	-3.0875	-3.2062	-3.1333	-2.9771	-3.3771	-3.3542	412.957	285.459	290.003	448.400	479.759	152.242	411.913	408.259	264.199	359.189	272.538	460.187	186.669	316.777	495.424	476.224	0.00053826	0.00055614	0.00015881	1395.9	1.8198e-06	1.0223e-05	1397.2	381.43	6.9692e-06	8.8268e-06	434.85	146.26	126.57	43.05	4.2967e-06	53.078	0.00056391	0.00055869	0.00015702	1416.3	6.1211e-06	6.1194e-06	1417.7	388.13	6.1502e-06	6.1368e-06	442.79	149.3	129.36	44.166	6.1427e-06	54.748	193.952	198.628	248.264	161.815	294.670	307.743	161.599	166.238	249.266	342.515	165.666	169.854	170.557	175.495	285.719	174.462	-8191	255	
32135.383	1	1	0	0	0.021818	0.10408	0.18431	0.085679	0.035124	0.1388	0.41861	0.41017	0.13097	0.31687	0.11454	0.10465	0.28276	0.089561	0.074741	0.11509	-2.6146	-3.1604	-3.0563	-3.4125	-3.125	-2.7208	-3.2708	-3.2375	-3.1063	-3.2458	-3.0479	-3.1937	-3.4729	-3.1583	-3.1917	-3.1583	314.897	410.740	446.065	369.791	502.776	313.711	427.299	482.638	206.090	280.290	420.676	367.532	471.522	430.234	336.809	368.329	0.00058852	0.00042118	0.00019014	1399.9	7.3419e-06	6.0851e-06	1398	380.36	2.9951e-06	3.635e-06	435.62	145.7	127.21	42.967	8.1424e-06	53.243	0.00055746	0.00056227	0.00015744	1413.9	6.0758e-06	6.114e-06	1416.9	387.99	6.053e-06	6.1313e-06	442.72	149.02	129.61	44.174	6.1614e-06	54.754	189.217	220.280	263.455	161.624	284.648	341.632	161.574	166.088	233.900	286.038	165.632	169.820	170.480	175.401	261.771	174.484	-8191	255	
32135.504	1	1	0	0	0.18111	0.20905	0.14662	0.40469	0.11766	0.057947	0.26594	0.25269	0.17672	0.10639	0.1651	0.046253	0.30465	0.067814	0.29388	0.26627	-2.3146	-3.2958	-2.9938	-3.1542	-3.2646	-3.0187	-3.2438	-3.2604	-2.9083	-3.1521	-3.0833	-3.225	-3.4146	-3.0042	-3.2208	-3.3479	298.518	156.604	244.939	504.126	193.934	484.409	415.433	185.016	211.867	235.383	157.402	155.427	450.350	196.895	413.932	413.782	0.00053176	0.00083007	5.8967e-05	1393.3	4.0314e-06	6.3333e-06	1395.7	381.91	7.7356e-06	2.1351e-06	433.07	145.7	126.88	43.087	4.1692e-06	53.081	0.00055537	0.00056241	0.00015537	1414.4	6.1633e-06	6.1561e-06	1417.6	388.22	6.0941e-06	6.1382e-06	442.41	148.99	129.56	44.209	6.1172e-06	54.604	192.828	204.545	460.447	161.794	354.378	264.430	161.481	166.242	273.066	291.736	165.769	169.611	170.518	175.231	302.386	174.613	-8191	255	
32135.600	1	1	0	0	0.3007	0.092275	0.11391	0.34517	0.23935	0.17166	0.25812	0.21967	0.14322	0.22591	0.30662	0.2698	0.19624	0.090236	0.14031	0.097038	-2.5229	-3.25	-2.9792	-3.0875	-3.3708	-2.95	-3.2771	-3.3792	-2.8312	-3.2146	-3.2833	-2.9875	-3.6063	-3.0104	-3.2167	-3.3125	414.281	365.940	400.787	459.405	386.054	319.076	470.378	466.279	167.413	333.416	453.358	464.037	444.260	172.579	397.147	219.492	0.00057165	0.00030904	0.00025699	1395.6	4.6544e-06	5.1428e-06	1392.8	380.64	2.8962e-06	3.3799e-06	433.87	146.22	126.54	43.058	4.6654e-06	53.063	0.0005612	0.00056379	0.00015649	1414.2	6.1297e-06	6.1983e-06	1416.8	387.78	6.1572e-06	6.1862e-06	442.53	149.4	129.47	44.188	6.1342e-06	54.538	190.799	200.103	265.297	161.592	271.125	274.618	161.691	166.242	260.415	306.715	165.709	169.847	170.606	174.871	313.031	174.442	-8191	255	
32135.672	1	1	0	0	0.15776	0.086903	0.15354	0.43294	0.12379	0.28266	0.33551	0.2606	0.19724	0.14183	0.062355	0.30954	0.24402	0.33715	0.1696	0.097272	-2.4521	-2.975	-2.9938	-2.9417	-3.2687	-2.9313	-3.1813	-3.4542	-3.0708	-3.1333	-3.3083	-3.0438	-3.4625	-3.1875	-2.9813	-3.3312	188.878	195.033	269.713	478.658	424.635	266.219	451.439	458.032	470.701	222.585	337.441	404.293	471.563	157.711	231.750	334.291	0.00054053	0.0007395	0.00013669	1392.5	5.277e-06	6.61e-06	1399	380.81	3.8825e-06	7.3659e-06	434.88	146	126.64	42.9	4.3659e-06	52.874	0.00056155	0.00056587	0.0001569	1412.3	6.0729e-06	6.165e-06	1416.1	387.41	6.1178e-06	6.1865e-06	443.08	148.95	129.35	44.124	6.1338e-06	54.596	191.472	220.806	217.809	161.736	281.052	289.846	161.555	166.261	305.336	303.624	165.720	169.834	170.227	174.952	273.715	174.362	-8191	255	
32135.791	1	1	0	0	0.020495	0.16847	0.1582	0.18838	0.25984	0.15712	0.57361	0.40655	0.16927	0.14365	0.083067	0.21804	0.23136	0.16114	0.12977	0.12018	-2.4188	-3.0438	-3.0125	-2.9583	-3.125	-3.0833	-3.0687	-3.375	-2.8896	-3.0792	-3.1833	-3.0687	-3.2146	-3.2354	-2.9167	-3.4188	432.117	199.926	207.094	448.366	385.725	319.783	465.770	486.243	471.388	455.038	327.159	453.075	438.340	475.432	447.838	506.209	0.00062922	0.00061125	0.00018862	1398.1	4.5579e-06	5.2329e-06	1395.2	381.22	3.2931e-06	9.2366e-06	434.04	145.95	126.6	42.776	5.0995e-06	53.003	0.00055927	0.00056653	0.0001553	1413.3	6.0866e-06	6.1421e-06	1415.1	387.76	6.1076e-06	6.1315e-06	441.97	148.92	129.34	44.127	6.0762e-06	54.491	193.331	212.789	311.099	161.775	291.206	307.647	161.567	166.229	280.804	325.179	165.728	169.969	170.326	175.235	289.844	174.633	-8191	255	
32135.887	1	1	0	0	0.1321	0.2253	0.059711	0.18579	0.19208	0.066322	0.3139	0.12332	0.079263	0.3811	0.13078	0.21006	0.22742	0.099176	0.17673	0.0522	-2.2792	-3.2542	-3.3583	-3.1167	-3.4167	-3.0979	-3.1312	-3.4271	-2.9458	-3.1917	-3.2	-3.075	-3.1854	-3.225	-3.0021	-3.2812	478.474	166.131	495.467	457.617	194.287	335.853	436.675	397.893	420.137	400.120	453.645	392.956	468.070	285.543	357.655	342.754	0.00055406	0.00043152	0.00011255	1386.1	4.2023e-06	2.2519e-06	1385.6	380.36	3.7834e-06	5.6829e-06	432.57	145.36	125.98	42.837	3.3054e-06	52.836	0.00056494	0.0005576	0.00015498	1406.4	6.1032e-06	6.0827e-06	1408.1	386.46	6.0578e-06	6.0714e-06	440.75	148.68	128.88	44.053	6.0801e-06	54.539	189.293	220.529	258.927	161.945	210.748	238.464	161.440	166.238	280.513	304.094	165.622	169.669	170.175	175.037	298.177	174.215	-8191	255	
32135.984	1	1	0	0	0.15511	0.084508	0.13283	0.14458	0.25334	0.023817	0.35748	0.30345	0.21017	0.12294	0.14328	0.15522	0.18401	0.3577	0.15493	0.32166	-2.5125	-3.0667	-3.0771	-3.1	-3.1063	-3.0354	-3.1854	-3.4771	-3.1104	-3.1417	-3.2042	-3.2271	-3.0271	-3.1312	-2.7875	-3.3104	288.406	306.090	279.220	485.642	423.419	227.436	442.886	433.256	507.367	292.900	221.962	405.582	457.776	165.623	148.812	395.600	0.00053771	0.00043464	0.00020297	1383.8	7.1557e-06	9.1714e-06	1385.1	379.25	5.7736e-06	9.8799e-06	433.68	144.8	125.38	42.824	3.9068e-06	52.879	0.00055745	0.00055539	0.00015421	1400.7	6.0698e-06	6.0695e-06	1403.6	385.94	6.0792e-06	6.0407e-06	440.4	148.35	128.58	44.016	6.0231e-06	54.39	193.709	247.705	224.077	161.782	237.535	277.763	161.584	166.482	279.158	308.697	165.718	169.787	170.503	175.162	291.893	174.293	-8191	255	
32136.080	1	1	0	0	0.20586	0.12955	0.16723	0.068631	0.11718	0.34818	0.47566	0.4966	0.070109	0.085302	0.26422	0.063298	0.19446	0.22746	0.19928	0.12014	-2.4583	-3.1146	-3.2125	-2.8833	-3.0125	-3.325	-3.1292	-3.2417	-3.0396	-3.0896	-3.3875	-3.0208	-3.1083	-3.275	-2.9729	-3.3292	250.336	311.811	478.627	374.431	458.031	152.723	458.151	427.696	245.399	379.496	494.147	150.569	151.887	496.553	260.781	223.670	0.00050914	0.00061476	3.4842e-05	1384	1.5963e-06	4.0422e-06	1379.3	380.07	6.7527e-06	5.4458e-06	433.03	145.5	126.18	42.843	7.1864e-06	52.966	0.00056338	0.00055562	0.00015543	1400.3	6.099e-06	6.0861e-06	1402	385.86	6.0887e-06	6.052e-06	440.46	148.57	129.02	43.978	6.0349e-06	54.472	184.403	227.194	297.304	161.770	269.084	291.115	161.464	166.292	290.942	340.127	165.857	169.820	170.536	175.470	282.217	174.692	-8191	255	
32136.199	1	1	0	0	0.33035	0.10536	0.17163	0.22253	0.34483	0.25836	0.12668	0.17937	0.17179	0.16226	0.19065	0.12507	0.24582	0.13833	0.18838	0.24581	-2.6021	-2.8292	-3.0625	-3.1625	-3.0854	-3.2125	-3.1188	-3.1729	-3.1188	-3.0354	-3.2896	-2.9938	-3.1125	-3.3542	-2.9062	-3.3333	442.268	424.663	260.192	373.251	390.499	310.248	368.062	198.668	338.846	246.729	483.427	431.230	170.914	455.910	389.865	343.266	0.00056332	0.00038383	0.00018935	1384.5	4.5024e-06	5.4871e-06	1382	378.04	7.3556e-06	5.7487e-06	431.71	145.11	125.83	43.008	5.4524e-06	53.008	0.00056043	0.00055452	0.00015503	1400.8	6.1163e-06	6.0171e-06	1403.1	385.14	6.0407e-06	6.0235e-06	440.89	148.45	128.68	43.983	6.0417e-06	54.485	190.564	311.694	220.627	161.706	289.892	312.426	161.720	166.111	271.088	339.496	165.872	170.076	170.359	175.129	289.450	174.574	-8191	255	
32136.271	1	1	0	0	0.1506	0.15611	0.07088	0.46178	0.047304	0.041703	0.20783	0.10588	0.03625	0.20901	0.1161	0.42883	0.11314	0.085212	0.19878	0.1643	-2.6417	-2.7854	-3.1542	-3.125	-2.9688	-3.3125	-3.0438	-3.2542	-3.1646	-3.0417	-3.2833	-3.1021	-3.0146	-3.3292	-2.7271	-3.1771	480.507	455.435	237.561	153.106	326.018	393.574	452.435	230.975	454.393	471.341	164.535	430.828	176.481	502.307	493.883	444.480	0.00048819	0.00026995	0.00018727	1381.3	6.0123e-06	4.6223e-06	1385.4	378.86	6.0965e-06	2.4285e-06	431.95	144.95	126.04	42.973	5.8698e-06	52.658	0.00055704	0.00055303	0.00015513	1399.7	6.0911e-06	6.0618e-06	1404.1	385.39	6.0308e-06	6.0776e-06	440.54	148.3	128.81	43.988	6.1487e-06	54.407	194.303	154.320	207.752	161.768	317.506	406.084	161.531	166.497	250.971	319.739	165.732	169.820	170.760	175.021	337.561	174.511	-8191	255	
32136.391	1	1	0	0	0.033168	0.13438	0.22789	0.11658	0.20731	0.090346	0.53407	0.27364	0.071475	0.25457	0.025247	0.23806	0.098894	0.34653	0.066523	0.052176	-2.7625	-2.8458	-3.1083	-3.0812	-2.9396	-3.2125	-3.2604	-3.1333	-3.2146	-2.9979	-3.2229	-3.1417	-3.0417	-3.5396	-2.8979	-3.0458	473.129	372.467	160.553	154.100	443.769	274.383	431.095	441.933	173.521	383.195	482.911	152.560	345.304	453.594	299.627	412.408	0.00055021	0.00032166	8.3075e-05	1377.3	2.574e-06	1.0161e-05	1384.6	378.13	2.7129e-06	9.2028e-06	432.35	145.47	126.23	42.87	6.8276e-06	52.979	0.00055835	0.00055031	0.00015505	1398.2	6.1193e-06	6.0792e-06	1404	385	6.0395e-06	6.0986e-06	440.37	148.44	128.78	43.936	6.0712e-06	54.48	188.196	196.334	262.142	161.848	319.611	311.572	161.827	166.348	266.015	270.875	165.818	169.767	170.290	175.214	268.695	174.427	-8191	255	
32136.486	1	1	0	0	0.096577	0.040707	0.30883	0.38431	0.068925	0.090354	0.16467	0.12495	0.21932	0.1568	0.1271	0.14247	0.10869	0.2276	0.22152	0.07568	-2.8521	-2.8083	-3.1937	-3.3271	-2.8896	-3.2542	-3.1417	-3.0708	-3.2271	-2.975	-3.2167	-3.1729	-2.7521	-3.2667	-2.9979	-2.9646	250.389	282.642	443.573	481.064	289.754	394.906	423.719	492.452	160.418	410.675	182.257	231.751	415.021	180.697	319.373	197.055	0.00055178	0.0006488	0.0002289	1381.8	5.2814e-06	5.9989e-06	1383.3	378.37	4.503e-06	2.0925e-06	430.48	145.12	126.2	42.658	5.7883e-06	52.868	0.00055562	0.00055164	0.00015569	1398.2	6.0798e-06	6.0278e-06	1402	385.47	5.9903e-06	6.1006e-06	438.97	148.62	128.66	43.908	6.1117e-06	54.358	194.959	228.123	242.956	161.755	270.722	366.239	161.389	166.213	184.439	367.664	165.873	169.748	170.506	175.074	234.204	174.510	-8191	255	
32136.582	1	1	0	0	0.21143	0.139	0.21377	0.12063	0.064738	0.090361	0.32248	0.22299	0.12833	0.18343	0.23022	0.29889	0.33678	0.10553	0.12449	0.22041	-2.6979	-2.8583	-2.8958	-3.2854	-2.8917	-3.2417	-3.2938	-3.025	-3.2208	-2.8417	-3.1917	-3.2188	-3.075	-3.1417	-2.9854	-3.0125	414.226	455.992	404.036	439.171	422.807	191.736	470.501	152.771	348.215	272.631	443.113	431.513	468.146	466.109	179.976	474.032	0.00050143	0.00051636	0.00018336	1380.4	4.3103e-06	6.9933e-06	1375.6	377.65	6.6129e-06	5.0585e-06	432.56	145.21	126.15	42.77	5.9969e-06	53.12	0.00055401	0.00056196	0.00015592	1398.8	6.0749e-06	6.0915e-06	1400.9	385.01	6.085e-06	6.0617e-06	440.49	148.16	128.58	43.942	6.0976e-06	54.447	194.987	224.083	256.592	161.790	295.554	298.452	161.426	166.225	283.476	311.621	165.721	169.791	170.435	175.193	321.601	174.455	-8191	255	
32136.680	1	1	0	0	0.1095	0.15352	0.15899	0.24282	0.24699	0.2108	0.26027	0.42915	0.067574	0.17204	0.095669	0.067312	0.16285	0.31627	0.22999	0.087414	-2.7521	-2.7375	-2.9479	-3.1646	-2.9542	-3.1083	-3.3167	-3.1271	-3.2521	-2.8042	-3.1021	-3.3625	-3.0042	-3.1917	-3.0333	-3.0646	452.253	496.475	442.896	392.704	223.636	399.806	409.686	428.916	367.957	184.185	173.483	399.150	440.721	463.339	507.045	438.897	0.00055912	0.00069836	0.00017055	1380.7	1.5537e-06	7.8284e-06	1383.4	380.07	8.7422e-06	3.2181e-06	432.75	145.21	125.72	42.749	1.7572e-06	53.031	0.00055575	0.00056317	0.00015579	1399.8	6.0715e-06	6.0692e-06	1402.8	385.55	6.0435e-06	6.1279e-06	440.47	148.32	128.61	43.983	6.1174e-06	54.394	189.655	237.828	256.578	161.865	277.205	285.740	161.501	166.234	266.521	314.593	165.881	169.729	170.368	175.182	334.283	174.670	-8191	255	
32136.801	1	1	0	0	0.096806	0.13043	0.11619	0.24291	0.1534	0.15695	0.082752	0.18273	0.079048	0.090134	0.076068	0.055585	0.16306	0.12845	0.14078	0.13869	-2.7604	-3.0833	-2.7542	-3.425	-2.8375	-3.1333	-3.3521	-3.0146	-3.1521	-3.0896	-3.0625	-3.4583	-3.0958	-3.2125	-3.0312	-2.9708	458.108	199.990	358.165	478.319	369.292	161.654	155.580	395.299	374.875	388.813	162.187	441.636	470.145	436.871	250.407	387.316	0.0006148	0.00022988	0.00012478	1382.4	6.6546e-06	5.062e-06	1379.9	378.88	4.5708e-06	2.7654e-06	431.9	144.64	126.37	42.647	6.9219e-06	52.838	0.00055871	0.00055857	0.00015459	1398.2	6.0985e-06	6.086e-06	1400.6	385.17	6.091e-06	6.1409e-06	439.99	148.22	128.77	43.951	6.1315e-06	54.432	195.627	318.428	291.784	161.792	277.877	286.642	161.561	166.199	258.926	429.344	165.965	169.782	170.227	175.039	291.490	174.563	-8191	255	
32136.871	1	1	0	0	0.29589	0.086774	0.11495	0.2184	0.037538	0.12033	0.31152	0.32415	0.33046	0.060659	0.39373	0.068933	0.25136	0.074866	0.11702	0.13029	-2.6875	-2.8937	-3.0042	-3.3354	-3.0417	-2.9688	-3.3583	-3.0896	-3.1667	-3.0708	-2.9771	-3.2292	-3.0792	-3.1833	-3.2208	-3.0604	494.234	189.597	202.826	173.584	304.206	196.117	443.126	451.407	459.358	410.813	177.607	205.963	491.471	156.401	232.217	502.543	0.0005674	0.00019733	0.00023565	1378.3	5.3021e-06	4.3563e-06	1378.7	377.28	7.2533e-06	6.4452e-06	432.81	145.33	126.37	42.771	4.9002e-06	52.864	0.00055905	0.0005639	0.00015389	1396.5	6.1303e-06	6.1319e-06	1400.9	385.07	6.0755e-06	6.1317e-06	440.4	148.44	128.68	43.95	6.1125e-06	54.408	190.472	225.638	270.604	161.630	310.784	267.766	161.616	166.187	291.467	249.270	165.805	169.629	170.054	175.220	245.659	174.254	-8191	255	
32136.969	1	1	0	0	0.28545	0.17563	0.33843	0.23605	0.30049	0.092625	0.33965	0.3922	0.26466	0.14314	0.10376	0.16635	0.025706	0.15466	0.066848	0.095591	-2.7667	-3.0438	-2.6917	-3.3417	-2.9896	-3.1229	-3.2792	-3.0896	-3.0021	-3.1083	-3.1167	-3.2687	-3.1083	-3.0938	-3.3542	-3.1208	278.374	307.705	227.736	367.570	416.588	245.894	428.580	436.810	350.469	445.257	428.776	201.480	247.449	167.761	216.896	374.680	0.00058817	0.00037913	0.00021884	1383.6	3.8752e-06	3.4919e-06	1381	378.03	4.7465e-06	4.5778e-06	434.07	145.65	125.93	42.764	7.1469e-06	53.141	0.00056112	0.00056149	0.00015422	1400.1	6.1799e-06	6.0934e-06	1404.4	385.56	6.0815e-06	6.1226e-06	440.77	148.6	128.72	43.973	6.1079e-06	54.478	190.275	211.657	266.035	161.682	297.259	380.728	161.620	166.115	283.605	316.027	165.657	169.869	170.368	175.221	257.523	174.437	-8191	255	
32137.064	1	1	0	0	0.041598	0.009797	0.17171	0.11987	0.095274	0.041973	0.29366	0.27607	0.093282	0.18476	0.085986	0.21767	0.19415	0.042579	0.071841	0.16198	-2.6292	-3.0458	-2.7	-3.2167	-3.0271	-2.8125	-3.5167	-3.0833	-3.1271	-3.2042	-2.9938	-3.1917	-3.1729	-2.9583	-3.35	-2.9979	291.489	298.245	223.005	177.393	262.029	440.261	488.075	394.575	344.855	385.559	210.871	493.322	457.156	188.045	196.808	430.816	0.0005203	0.00032766	0.00014905	1379.3	4.2917e-06	9.3233e-06	1384.1	378.71	1.9642e-06	6.5692e-06	433.17	145.78	126.34	42.855	2.9822e-06	52.957	0.00056306	0.00056042	0.00015477	1400.6	6.1606e-06	6.1163e-06	1405.1	386.28	6.1066e-06	6.161e-06	441.4	148.72	129	44.03	6.1611e-06	54.486	198.146	240.819	301.169	161.797	277.984	244.791	161.555	166.113	274.807	302.028	165.703	169.800	170.232	175.202	316.986	174.362	-8191	255	
32137.184	1	1	0	0	0.069068	0.26014	0.10051	0.16234	0.041878	0.14496	0.19987	0.22945	0.13136	0.048978	0.084243	0.15935	0.25234	0.093494	0.17475	0.21713	-2.7979	-3.2458	-2.8958	-3.4167	-2.9958	-2.8563	-3.5438	-2.8646	-3.0687	-3.2042	-2.9646	-3.0854	-3.2375	-3.1	-3.2562	-3.0375	416.887	294.426	433.127	450.593	202.148	503.536	400.823	410.791	421.940	202.486	428.652	464.236	378.607	327.965	227.281	476.649	0.00052345	0.00021588	6.9152e-05	1387.8	6.2503e-06	1.6257e-06	1390.4	380.28	4.2779e-06	6.6483e-06	433.48	145.32	126.27	42.868	4.8182e-06	53.207	0.00055975	0.00056305	0.00015605	1405.3	6.149e-06	6.1348e-06	1410.4	386.52	6.1135e-06	6.1408e-06	441.76	148.78	129.05	44.02	6.1237e-06	54.583	196.887	221.467	247.608	161.948	280.189	443.942	161.555	166.149	275.738	299.372	165.988	169.718	170.325	175.341	278.804	174.410	-8191	255	
32137.279	1	1	0	0	0.15835	0.25958	0.15775	0.26993	0.15893	0.09871	0.24275	0.37865	0.20601	0.19809	0.21117	0.3786	0.070091	0.096811	0.21211	0.30402	-2.5812	-3.3229	-2.7396	-3.4042	-3.0458	-2.9437	-3.5417	-3.2562	-3.1	-3.4333	-3.0771	-3.3563	-3.2646	-2.9917	-3.1625	-3.2167	479.909	312.073	333.683	170.568	262.648	223.645	423.097	410.609	500.142	263.477	477.277	451.261	209.781	446.739	439.834	208.265	0.00059415	0.00070719	0.00018442	1387.1	6.3941e-06	1.4606e-06	1389.7	380.44	6.4351e-06	4.6543e-06	432.44	145.26	126.3	42.958	5.1388e-06	52.982	0.00056337	0.00055671	0.00015483	1406.3	6.1579e-06	6.0502e-06	1410.3	386.62	6.0455e-06	6.0967e-06	440.83	148.72	128.9	44.062	6.153e-06	54.52	188.083	209.609	239.321	161.914	308.300	304.472	161.660	166.437	265.030	358.187	165.780	169.828	170.436	175.002	263.355	174.251	-8191	255	
32137.375	1	1	0	0	0.22186	0.15477	0.041129	0.19071	0.24713	0.16175	0.26508	0.078742	0.23423	0.24	0.10842	0.32175	0.14338	0.18801	0.089206	0.067232	-2.5229	-3.1646	-2.9396	-3.2333	-3.1833	-2.9333	-3.3521	-3.1458	-2.9188	-3.3708	-3.0667	-3.225	-3.2792	-3.1021	-3.2229	-3.0271	438.462	379.808	308.662	150.507	327.148	401.046	399.874	491.497	318.408	266.837	174.529	161.317	421.366	195.523	316.656	180.196	0.00053614	0.00055568	0.00013671	1389.7	6.365e-06	7.603e-06	1385.3	379.59	7.1802e-06	4.449e-06	433.73	145.92	126.7	42.763	5.0983e-06	53.081	0.00055999	0.0005579	0.00015721	1406.6	6.107e-06	6.0676e-06	1409.9	387.2	6.0635e-06	6.0839e-06	441.91	148.91	129.19	44.063	6.1369e-06	54.592	193.332	251.529	289.257	161.772	242.870	269.908	161.518	166.193	253.630	386.724	165.580	169.815	170.261	175.046	315.288	174.243	-8191	255	
32137.471	1	1	0	0	0.18243	0.2745	0.033177	0.017933	0.045691	0.17336	0.17267	0.1819	0.1638	0.10995	0.13041	0.16177	0.12828	0.15493	0.16354	0.14351	-2.5812	-3.2854	-2.8729	-3.3	-3.2479	-2.9167	-3.4229	-3.3146	-2.8896	-3.2604	-3.1312	-3.1167	-3.1813	-2.8563	-3.3396	-3.1	407.737	322.900	241.066	451.760	305.420	370.036	162.691	449.493	173.679	504.176	240.625	480.504	162.384	485.373	336.077	427.598	0.00052144	0.0007163	3.9593e-05	1383.5	2.3746e-06	2.6661e-06	1386.2	379.12	2.5454e-06	3.6108e-06	434.74	145.56	126.25	42.901	2.4551e-06	53.139	0.0005598	0.00055883	0.00015599	1405.6	6.141e-06	6.1117e-06	1410.5	386.82	6.0691e-06	6.0905e-06	442.3	148.76	129.03	44.077	6.1622e-06	54.578	191.773	209.135	502.510	161.727	195.443	293.822	161.279	166.019	301.199	309.787	165.571	169.796	170.256	175.223	297.938	174.405	-8191	255	
32137.566	1	1	0	0	0.38191	0.20772	0.1012	0.27487	0.10749	0.15033	0.046547	0.12076	0.24718	0.031052	0.12841	0.07911	0.17692	0.28325	0.062867	0.13246	-2.4813	-3.1875	-2.8979	-3.2271	-3.2167	-3.1104	-3.3479	-3.4021	-2.9333	-3.2125	-3.0521	-3.0938	-3.3	-3.0042	-3.1104	-3.2396	202.206	208.936	430.130	476.807	275.004	398.228	367.801	481.168	410.000	310.438	451.250	160.000	406.199	422.799	392.749	366.880	0.0005793	0.00043278	0.00014634	1389.1	4.6852e-06	4.567e-06	1387.5	379.67	5.489e-06	3.1618e-06	434.81	145.55	126.79	43.176	4.4965e-06	53.049	0.00056026	0.00055831	0.00015679	1406.1	6.0893e-06	6.0869e-06	1410.5	387.17	6.0714e-06	6.112e-06	441.75	148.73	129.19	44.131	6.1266e-06	54.513	196.792	249.983	260.071	161.774	287.436	356.835	161.489	166.300	283.586	254.220	165.624	169.878	170.265	175.206	288.305	174.168	-8191	255	
32137.664	1	1	0	0	0.50351	0.11809	0.17518	0.11092	0.17167	0.211	0.37306	0.38249	0.057218	0.077238	0.16595	0.16635	0.075624	0.36023	0.18751	0.025502	-2.4562	-3.1167	-2.8521	-3.0271	-3.2479	-2.8354	-3.3458	-3.2271	-2.8063	-3.1792	-3.2479	-3.0708	-3.3354	-2.9188	-3.1208	-3.2583	474.899	459.117	237.017	358.776	198.336	445.253	434.886	497.488	465.922	389.681	380.382	443.149	251.653	506.756	414.781	361.873	0.00051115	0.00042857	0.0001661	1388.8	3.9891e-06	1.0136e-05	1390.9	379.17	7.8749e-06	2.9637e-06	434.69	145.6	126.69	42.949	5.2483e-06	53.087	0.00055725	0.00056323	0.00015681	1405.6	6.0991e-06	6.1199e-06	1409.9	386.94	6.0795e-06	6.179e-06	441.8	149.02	128.88	44.075	6.0958e-06	54.557	192.048	275.976	226.620	161.916	269.085	294.107	161.594	166.228	260.086	238.674	165.612	169.659	170.100	175.199	310.256	174.463	-8191	255	
32137.760	1	1	0	0	0.11911	0.076804	0.15829	0.12765	0.11438	0.093363	0.083327	0.33099	0.13856	0.31545	0.20621	0.070244	0.09378	0.18214	0.21557	0.29316	-2.5708	-3.1042	-2.9875	-3.1562	-3.2083	-3.075	-3.3667	-3.3438	-2.8854	-3.3417	-3.2438	-3.0229	-3.3438	-3.1625	-3.1208	-3.3646	434.869	302.395	364.572	449.204	341.806	211.138	388.570	377.724	409.419	277.994	425.562	357.014	187.058	171.177	210.936	372.660	0.00060733	0.00074258	0.00010973	1384.6	3.3099e-06	6.6978e-06	1391.4	380.81	7.502e-06	3.4463e-06	432.75	146.03	126.27	43.104	5.4639e-06	53.043	0.00056519	0.00056429	0.00015724	1403.5	6.0727e-06	6.1078e-06	1409.1	386.44	6.0866e-06	6.1457e-06	441.68	149	129.02	44.175	6.1117e-06	54.56	193.318	217.027	237.597	161.933	284.739	298.696	161.506	166.360	240.341	324.344	165.702	169.925	170.711	175.022	305.838	174.323	-8191	255	
32137.881	1	1	0	0	0.32081	0.2253	0.24542	0.16274	0.020805	0.16999	0.54798	0.28704	0.16163	0.17288	0.17796	0.15319	0.10646	0.1006	0.056215	0.071199	-2.5729	-3.1437	-3.175	-3.025	-3.2687	-2.9396	-2.9688	-3.4292	-2.8708	-3.0312	-3.2917	-2.9979	-3.2958	-3.0062	-2.9062	-3.2333	246.880	266.478	308.675	442.727	423.040	404.675	456.654	163.233	179.552	149.749	429.932	439.907	237.024	473.788	355.672	454.742	0.00052469	0.00061782	0.00023824	1384.8	6.9798e-06	7.3535e-06	1382.7	379.69	5.2372e-06	5.3759e-06	433.73	145.22	126.67	42.967	5.1109e-06	52.973	0.00056114	0.00055924	0.0001571	1402.8	6.1356e-06	6.1334e-06	1407.3	387.33	6.1178e-06	6.0702e-06	441.77	148.61	129.14	44.187	6.0909e-06	54.622	195.908	201.385	231.776	161.653	268.570	258.955	161.563	166.214	244.466	303.679	165.626	169.855	170.451	175.328	286.797	174.321	-8191	255	
32137.977	1	1	0	0	0.042926	0.17551	0.12226	0.1387	0.3404	0.16154	0.40048	0.22948	0.17822	0.20586	0.14388	0.026293	0.23458	0.085533	0.18095	0.039605	-2.4042	-2.9375	-3.1583	-2.9229	-3.0458	-3.0167	-3.0833	-3.4042	-3.0812	-3.0125	-3.2479	-2.8625	-3.1854	-3.1875	-2.7833	-3.3688	506.020	338.371	359.125	176.753	307.611	272.598	466.370	472.125	190.871	319.448	415.912	166.020	439.791	405.232	459.357	229.951	0.00056596	0.00058866	0.00019164	1385.2	3.4071e-06	7.427e-06	1385.6	379.44	4.8472e-06	1.6886e-06	432.86	145.76	126.53	42.923	5.0569e-06	53.043	0.00055716	0.0005634	0.00015496	1401.9	6.1217e-06	6.1182e-06	1407.1	386.56	6.1257e-06	6.1355e-06	441.11	148.77	129.13	44.126	6.091e-06	54.577	196.697	210.312	247.339	161.861	319.683	301.097	161.537	166.212	240.564	365.975	165.517	169.738	170.534	175.576	273.627	174.414	-8191	255	
32138.072	1	1	0	0	0.2314	0.12797	0.016	0.22827	0.25303	0.028679	0.25238	0.2247	0.022833	0.082254	0.22897	0.17444	0.40647	0.20466	0.18402	0.22301	-2.6312	-3.0146	-3.0458	-3.1688	-3.1188	-3.1958	-3.0187	-3.4771	-3.0979	-3.0333	-3.3354	-3.0521	-3.2354	-3.1333	-2.9979	-3.4688	227.611	475.063	153.167	461.526	256.513	425.321	424.267	481.484	303.931	338.731	280.478	478.238	463.900	196.744	340.469	460.042	0.00056915	0.00031398	0.00018326	1386.4	4.6696e-06	9.18e-06	1387.1	379.76	7.1679e-06	7.4334e-06	433.2	145.45	126.92	42.98	5.0237e-06	53.147	0.00055819	0.00056085	0.00015513	1404.3	6.1109e-06	6.1363e-06	1408.2	386.87	6.1209e-06	6.0768e-06	442.34	148.61	129.25	44.087	6.0346e-06	54.514	191.305	270.379	278.127	161.716	258.319	281.620	161.795	166.193	276.294	269.325	165.767	169.728	170.260	175.169	277.784	174.414	-8191	255	
32138.170	1	1	0	0	0.10827	0.12449	0.18317	0.23714	0.11521	0.15127	0.12634	0.16607	0.13205	0.16523	0.24949	0.22937	0.22982	0.080441	0.16165	0.18706	-2.575	-2.8542	-3.1646	-3.0604	-3.0708	-3.375	-3.15	-3.1771	-2.9708	-2.9333	-3.4437	-3.1146	-3.1958	-3.1083	-2.8458	-3.35	405.828	494.252	303.177	468.128	302.907	479.151	488.226	438.298	418.130	273.065	373.393	430.674	334.713	342.537	266.246	460.842	0.00060851	0.00021243	0.00018641	1380.3	3.8911e-06	5.0136e-06	1385.2	380.14	6.3772e-06	5.9209e-06	431.95	145.22	126.49	43.018	4.5458e-06	53.102	0.00056195	0.00055767	0.00015255	1401	6.051e-06	6.1156e-06	1405.7	386.04	6.0344e-06	6.0809e-06	440.23	148.6	128.92	44.008	6.0707e-06	54.501	196.798	227.497	301.126	161.780	316.289	306.113	161.575	166.141	295.172	324.362	165.901	169.864	170.313	175.097	346.738	174.431	-8191	255	
32138.264	1	1	0	0	0.17201	0.22668	0.11528	0.22077	0.13206	0.054289	0.16194	0.24514	0.28688	0.19491	0.092953	0.12071	0.076304	0.092705	0.21723	0.1618	-2.6312	-3.0833	-3.0187	-3.0583	-3.0833	-3.0187	-3.0458	-3.2146	-3.0812	-3.0417	-3.2917	-3.2188	-3.1646	-3.4542	-2.875	-3.3312	506.909	251.720	382.035	442.863	427.129	173.543	409.956	482.778	475.753	273.147	493.863	483.303	394.581	466.303	478.619	466.604	0.00054431	0.00058281	1.4235e-05	1378.2	6.1535e-06	7.9584e-06	1379.9	378.78	4.707e-06	3.7745e-06	430.3	144.96	125.61	42.65	5.072e-06	52.685	0.00056299	0.00055981	0.00015399	1398.6	6.0913e-06	6.0729e-06	1403	385.13	6.0598e-06	6.0832e-06	439.55	148.1	128.57	43.913	6.0909e-06	54.319	194.024	194.972	434.847	161.768	277.009	307.463	161.570	166.399	236.020	281.499	165.959	169.797	170.350	175.302	283.685	174.519	-8191	255	
32138.359	1	1	0	0	0.22867	0.05012	0.19179	0.38349	0.18021	0.033917	0.27042	0.12009	0.068526	0.064197	0.15355	0.4366	0.1823	0.19553	0.12849	0.07113	-2.7438	-2.9313	-3.1958	-3.2313	-3.1021	-3.2167	-3.1437	-3.2	-3.1	-2.7188	-3.4021	-3.15	-3.0125	-3.1875	-2.7125	-3.1417	200.474	418.991	359.190	404.686	410.090	345.803	460.834	179.710	232.686	483.283	385.616	424.790	503.284	458.458	202.920	494.291	0.00057694	0.00060001	0.00015334	1375.2	7.4215e-06	9.035e-06	1379.1	379.52	3.6199e-06	3.6009e-06	431.24	144.54	125.58	42.744	4.3733e-06	52.786	0.00056005	0.0005546	0.00015479	1395	6.0748e-06	6.0538e-06	1401.5	385.26	6.1184e-06	6.0662e-06	439.68	148.13	128.55	43.888	6.0764e-06	54.362	190.389	264.720	210.872	161.674	277.371	259.703	161.638	166.104	249.825	326.976	165.568	169.764	170.457	175.408	253.681	174.398	-8191	255	
32138.480	1	1	0	0	0.1118	0.21585	0.052069	0.46121	0.14464	0.2921	0.27072	0.15876	0.074619	0.14054	0.10762	0.43492	0.20981	0.14757	0.25037	0.039991	-2.7604	-2.8958	-3.0542	-3.0396	-2.8542	-3.1792	-3.1646	-3.1813	-3.1625	-2.7979	-3.2188	-3.1875	-2.9667	-3.2188	-2.9646	-2.9979	452.966	484.693	324.869	432.652	328.272	360.273	475.128	475.601	420.570	265.440	413.151	432.294	167.020	246.295	229.161	198.295	0.00056087	0.0001916	0.00013321	1381.6	2.7433e-06	6.7827e-06	1380.6	377.3	8.8285e-06	3.5772e-06	430.28	144.99	126.14	42.803	5.1334e-06	52.671	0.00056183	0.00055487	0.00015505	1395.2	6.113e-06	6.1077e-06	1400.4	384.64	6.1063e-06	6.0702e-06	438.85	148.19	128.64	43.839	6.1708e-06	54.395	188.705	219.670	305.218	161.779	275.979	326.166	161.416	166.314	271.941	305.339	165.733	169.932	170.282	174.977	263.644	174.380	-8191	255	
32138.576	1	1	0	0	0.22331	0.14149	0.51848	0.16933	0.12866	0.1793	0.34068	0.1326	0.27328	0.042044	0.055721	0.21875	0.16328	0.10878	0.066932	0.18507	-2.7417	-2.8375	-2.8833	-3.325	-2.9458	-3.2896	-3.2354	-3.0563	-3.2625	-2.9167	-3.1646	-3.3333	-2.9583	-3.2625	-3.0167	-3.0708	401.217	421.660	488.865	467.387	188.346	470.579	421.445	452.640	238.793	457.165	169.280	390.367	505.080	230.559	372.580	303.671	0.00057388	0.00067811	0.00011162	1370.9	4.8635e-06	1.0393e-05	1379.7	377.38	4.5513e-06	4.317e-06	429.16	144.46	125.29	42.728	1.2931e-06	52.864	0.00055347	0.00055506	0.00015456	1390.7	6.0309e-06	6.0697e-06	1398	383.82	6.0529e-06	6.0476e-06	438.72	147.86	128.27	43.827	6.1277e-06	54.3	196.356	269.936	214.532	161.824	314.848	306.847	161.780	166.190	260.889	240.579	165.812	169.904	170.277	175.113	259.837	174.403	-8191	255	
32138.672	1	1	0	0	0.1392	0.056342	0.14756	0.11394	0.16685	0.21443	0.23391	0.22404	0.23982	0.080857	0.30172	0.41912	0.14768	0.16388	0.38444	0.11924	-2.8167	-2.9354	-3.1625	-3.2729	-2.8417	-3.0958	-3.2375	-3.1771	-3.1562	-3.1292	-3.2625	-3.2062	-2.9417	-3.4917	-2.9979	-3.075	252.476	363.953	409.450	487.934	459.292	299.139	452.511	418.556	302.628	341.394	172.282	497.052	171.669	166.053	373.059	488.842	0.00053492	0.00061872	0.00019277	1374.1	6.0123e-06	6.7783e-06	1377.2	377.24	4.6972e-06	3.0633e-06	430.37	144.4	125.97	42.619	3.9931e-06	52.709	0.00055709	0.000561	0.00015469	1393	6.0698e-06	6.0658e-06	1398.6	383.41	6.0769e-06	6.051e-06	438.25	147.8	128.1	43.75	6.1001e-06	54.164	187.422	217.895	247.539	161.734	335.227	276.987	161.618	166.355	308.668	272.800	165.738	169.794	170.376	175.092	291.849	174.448	-8191	255	
32138.768	1	1	0	0	0.11458	0.11234	0.14112	0.1733	0.17851	0.20605	0.23766	0.060096	0.14113	0.078509	0.082846	0.26985	0.11673	0.19809	0.17752	0.21471	-2.9271	-2.9188	-3.0229	-3.4792	-3.0167	-3.1417	-3.2125	-3.0042	-3.2625	-2.9854	-3.2854	-3.2521	-2.9458	-3.2583	-2.9771	-2.7979	177.241	396.235	187.435	168.005	338.332	300.466	468.818	173.372	437.942	505.282	281.046	392.257	461.706	468.852	260.573	354.326	0.00055421	0.00064089	0.00016247	1373.6	5.2569e-06	4.2364e-06	1376	376	2.4795e-06	3.1686e-06	430.57	144.74	125.78	42.831	7.7119e-06	52.766	0.0005509	0.00055757	0.00015573	1391.7	6.1383e-06	6.1165e-06	1397.5	383.5	6.1088e-06	6.1093e-06	438.51	147.57	128.05	43.77	6.1894e-06	54.191	191.651	245.430	222.412	161.727	265.329	303.987	161.522	166.163	226.755	251.405	165.798	169.974	170.325	175.204	262.697	174.291	-8191	255	
32138.865	1	1	0	0	0.17851	0.018893	0.23581	0.25786	0.31491	0.20418	0.20446	0.083892	0.22799	0.067646	0.22774	0.19195	0.24736	0.11373	0.38088	0.14319	-2.7771	-2.9938	-2.9479	-3.3958	-2.9875	-3.0083	-3.2917	-3.0104	-3.2167	-2.9229	-3.0917	-3.2938	-2.9771	-3.1667	-3.0917	-2.9708	389.679	422.059	187.213	472.073	411.318	337.195	152.146	444.987	390.415	383.358	484.702	507.324	436.333	264.803	412.301	423.687	0.00061457	0.00049576	0.00022014	1367.5	5.6835e-06	5.5808e-06	1372.9	377.01	5.9774e-06	2.2827e-06	431.22	144.89	125.26	42.675	6.3199e-06	52.373	0.00056321	0.00056266	0.00015571	1390.6	6.1163e-06	6.116e-06	1394.9	383.1	6.0907e-06	6.0923e-06	437.84	147.68	127.91	43.657	6.1158e-06	54.18	189.295	201.659	255.764	161.856	271.826	265.445	161.546	166.191	256.872	247.960	165.784	169.864	170.560	175.303	242.508	174.481	-8191	255	
32138.961	1	1	0	0	0.2325	0.0308	0.047951	0.054168	0.13431	0.062772	0.24379	0.34069	0.11814	0.048524	0.2282	0.32768	0.30297	0.14713	0.02474	0.27618	-2.7417	-3.0417	-2.9625	-3.4333	-2.8583	-3.0625	-3.2792	-2.8375	-3.1104	-3.15	-3.0708	-3.3063	-3.0604	-3.0604	-3.1083	-2.9479	252.229	335.862	204.367	389.341	318.677	439.488	385.132	498.212	349.460	482.954	500.737	431.091	484.693	406.903	430.619	467.940	0.00054299	0.00053615	0.00014248	1369.1	6.5107e-06	8.2856e-06	1373.4	376.66	1.2703e-06	7.5175e-06	430.26	144.83	125.14	42.593	9.4468e-06	52.801	0.00055892	0.00056265	0.00015557	1390	6.1068e-06	6.1799e-06	1395.2	383.51	6.0859e-06	6.1135e-06	437.76	147.82	127.99	43.81	6.0712e-06	54.257	191.286	209.097	297.872	161.752	266.959	308.190	161.693	166.265	336.454	278.027	165.890	169.786	170.575	175.256	274.198	174.303	-8191	255	
32139.057	1	1	0	0	0.3284	0.26281	0.12328	0.27516	0.24648	0.10035	0.32055	0.10375	0.22386	0.215	0.24899	0.25269	0.14424	0.14213	0.084333	0.25954	-2.5833	-2.9667	-2.8292	-3.4396	-2.9875	-3.0542	-3.3896	-2.9896	-3.2062	-3.225	-3.0062	-3.2958	-3.0875	-3.2083	-3.2188	-2.9875	335.388	295.186	183.193	166.285	295.714	183.226	404.303	498.575	266.262	271.823	442.281	498.454	158.664	369.898	344.442	472.685	0.0005082	0.00077875	9.7849e-05	1373.4	8.7295e-06	1.0377e-05	1372.2	377.53	8.5017e-06	6.1877e-06	431.36	144.84	125.48	42.592	3.4308e-06	52.854	0.00056018	0.00056024	0.00015418	1391.5	6.1127e-06	6.1043e-06	1395.2	384.24	6.1081e-06	6.1043e-06	438.8	147.61	127.81	43.779	6.0851e-06	54.272	189.701	268.479	296.901	161.916	284.824	296.413	161.613	166.324	229.452	330.587	165.470	169.854	170.343	175.296	264.791	174.352	-8191	255	
32139.152	1	1	0	0	0.13951	0.060369	0.13802	0.10766	0.24287	0.070516	0.24827	0.17886	0.17191	0.28352	0.31534	0.13965	0.30433	0.06895	0.20584	0.11257	-2.5563	-3.0542	-2.6104	-3.1604	-3.0458	-2.8771	-3.4083	-2.9917	-3.0229	-3.1583	-2.9313	-3.3542	-3.1792	-3.0833	-3.1917	-3.0687	338.101	260.564	232.779	486.328	426.978	311.139	384.227	493.197	338.650	378.271	507.403	440.426	333.016	150.670	208.806	497.789	0.0005734	0.00046994	0.00016155	1375.3	7.2785e-06	7.7924e-06	1371.5	377.81	5.629e-06	5.0661e-06	431.45	144.31	125.76	42.597	4.6945e-06	52.659	0.00056428	0.0005604	0.00015435	1393.6	6.1298e-06	6.0353e-06	1397.1	384.43	6.1371e-06	6.1604e-06	438.91	147.71	128.18	43.802	6.0917e-06	54.211	191.550	205.531	279.167	161.670	259.865	279.418	161.688	166.216	280.302	309.381	165.593	169.853	170.209	175.126	234.087	174.300	-8191	255	
32139.271	1	1	0	0	0.12164	0.17831	0.062578	0.03979	0.17675	0.17607	0.23224	0.22205	0.13288	0.20216	0.29934	0.14432	0.13155	0.15021	0.3034	0.23622	-2.6792	-3.2021	-3.0458	-3.2958	-2.9938	-3.0042	-3.325	-3.0271	-2.9958	-3.1104	-3.0396	-3.2875	-3.1792	-3.0646	-3.3854	-3.0938	207.206	272.467	352.888	235.018	281.745	316.200	474.276	439.950	304.626	333.416	430.744	194.847	429.455	164.232	188.599	440.310	0.00056398	0.00091185	7.0876e-05	1374.3	4.8305e-06	2.9131e-06	1379.6	377.2	4.2143e-06	2.6543e-06	431.81	144.52	124.96	42.765	6.8708e-06	52.728	0.00055657	0.00055983	0.00015449	1394	6.1404e-06	6.0776e-06	1400.6	384.06	6.0626e-06	6.0565e-06	439.03	147.99	128.04	43.835	6.0992e-06	54.222	195.312	196.708	290.407	161.775	227.790	202.140	161.605	166.286	294.318	302.540	165.628	169.648	170.229	175.279	278.782	174.391	-8191	255	
32139.367	1	1	0	0	0.064642	0.16355	0.25064	0.35896	0.19289	0.082761	0.35959	0.20994	0.15538	0.10082	0.20328	0.27107	0.043633	0.33076	0.14875	0.16748	-2.6542	-3.2667	-2.8521	-3.3708	-3.2792	-2.975	-3.3854	-3.1042	-2.9896	-3.2771	-3.0979	-3.2562	-3.2396	-2.9854	-3.125	-3.1167	247.704	316.789	359.765	469.014	404.574	169.211	458.611	199.560	246.638	248.130	153.678	418.647	302.053	175.819	418.111	506.131	0.00054732	0.00030345	0.00017481	1372.6	2.6441e-06	6.3272e-06	1379.2	378.24	4.3873e-06	3.9918e-06	432.09	144.89	125.31	42.675	5.3695e-06	52.928	0.00056196	0.000559	0.00015486	1393.1	6.1185e-06	6.0506e-06	1400.2	384.71	6.0785e-06	6.0858e-06	439.22	147.94	128.16	43.829	6.1049e-06	54.278	193.404	226.923	256.837	161.815	341.290	286.333	161.433	166.114	272.516	297.496	165.843	169.768	170.394	175.337	286.874	174.343	-8191	255	
32139.441	1	1	0	0	0.20487	0.042275	0.2671	0.22916	0.028597	0.22666	0.3426	0.19181	0.053114	0.094108	0.29287	0.070882	0.069451	0.085165	0.12597	0.19324	-2.6083	-3.2938	-2.9417	-3.3104	-2.9875	-2.9813	-3.3312	-3.2833	-3.0333	-3.2729	-3.0625	-3.2792	-3.3937	-2.9125	-3.2229	-3.0833	270.639	200.069	374.058	464.741	455.663	290.132	419.368	414.807	300.526	430.963	463.054	478.206	210.076	460.811	247.797	174.403	0.00060764	0.00026621	0.00017906	1377.6	5.5758e-06	8.9653e-06	1371.3	377.58	5.6349e-06	9.4069e-06	430.52	144.89	125.59	42.63	1.0788e-06	52.783	0.00055843	0.00055522	0.00015422	1393.5	6.1645e-06	6.1084e-06	1396.5	384.55	6.043e-06	6.1042e-06	438.76	147.99	127.96	43.738	6.139e-06	54.321	191.876	258.707	227.070	161.684	309.746	325.419	161.655	166.413	253.608	318.312	165.627	169.835	170.500	174.994	321.708	174.249	-8191	255	
32139.561	1	1	0	0	0.15728	0.075099	0.17867	0.11666	0.21965	0.063616	0.30441	0.14733	0.28486	0.37296	0.15703	0.27318	0.32394	0.13538	0.04583	0.07389	-2.6479	-3.2208	-2.8563	-3.2604	-3.3042	-2.9208	-3.4313	-3.4125	-2.9854	-3.2229	-3.1688	-2.9729	-3.2687	-2.9333	-3.0792	-3.1125	499.137	241.473	443.026	471.710	186.857	205.148	461.532	467.026	337.283	261.848	496.260	446.852	174.595	237.455	245.158	322.823	0.00060165	0.00053831	8.4554e-05	1376.6	3.2925e-06	4.3604e-06	1373.1	378.36	4.4442e-06	2.9274e-06	430.75	145.11	125.15	42.435	3.7271e-06	52.579	0.00055895	0.00056253	0.0001585	1392.8	6.1876e-06	6.1448e-06	1397.5	384.84	6.0995e-06	6.1465e-06	439.12	147.98	128.08	43.762	6.2006e-06	54.317	190.318	240.343	285.981	161.775	213.210	314.704	161.792	166.271	235.803	339.473	165.733	169.892	170.204	175.102	271.479	174.210	-8191	255	
32139.656	1	1	0	0	0.32439	0.16344	0.064307	0.22356	0.16991	0.24286	0.27353	0.29673	0.02757	0.14709	0.12478	0.22337	0.078512	0.29284	0.074089	0.15355	-2.3479	-3.1583	-2.9979	-3.0292	-3.2125	-2.9042	-3.2375	-3.1771	-2.8854	-3.1542	-3.0771	-3.0125	-3.2812	-3.025	-3.175	-3.2583	189.113	398.821	395.989	467.018	468.154	349.801	421.881	460.533	440.547	393.112	364.014	396.047	445.388	160.656	240.904	378.700	0.00056649	0.00062397	0.00026363	1376.4	7.2971e-06	8.968e-06	1375.8	379.15	6.1036e-06	1.7621e-06	431.31	144.49	125.36	42.642	4.1433e-06	52.829	0.00055474	0.00056356	0.00015746	1395.8	6.1631e-06	6.1145e-06	1398.5	385.17	6.1277e-06	6.1361e-06	439.65	148.03	128.31	43.841	6.128e-06	54.494	195.638	200.615	239.402	161.847	263.393	302.400	161.555	166.185	287.280	304.943	165.825	170.021	170.606	174.998	270.610	174.460	-8191	255	
32139.754	1	1	0	0	0.065106	0.28707	0.14433	0.37558	0.21121	0.022618	0.34267	0.22732	0.11936	0.31686	0.29266	0.1219	0.1595	0.17679	0.34844	0.17205	-2.5042	-3.1917	-3.0708	-3.2042	-3.2875	-2.9625	-3.1396	-3.2458	-2.875	-3.1417	-3.0833	-2.9417	-3.2938	-2.9208	-3.1625	-3.1625	215.619	209.690	319.735	500.203	366.982	503.895	367.888	472.353	446.430	238.565	485.176	475.705	166.247	214.753	431.643	496.927	0.00057549	0.00029149	0.00027405	1378.9	6.9912e-06	5.3101e-06	1381	378.76	4.6872e-06	3.8291e-06	431.34	144.96	125.46	42.654	6.5183e-06	52.694	0.00055822	0.00056535	0.00015783	1397.7	6.1178e-06	6.1729e-06	1402.4	385.94	6.1731e-06	6.1292e-06	439.67	148.28	128.49	43.91	6.1644e-06	54.38	194.087	235.861	250.100	161.747	264.521	311.487	161.578	166.155	281.940	285.976	165.790	169.968	170.381	175.153	259.793	174.330	-8191	255	
32139.873	1	1	0	0	0.15916	0.11002	0.1604	0.21045	0.33894	0.093273	0.23648	0.35527	0.042129	0.17497	0.19638	0.10121	0.21183	0.075008	0.16664	0.11939	-2.4646	-3.0625	-3.0792	-3.0438	-3.2208	-2.9771	-3.2458	-3.3771	-2.9813	-3.1854	-3.4125	-3.05	-3.3417	-3.0833	-3.0792	-3.2708	154.512	162.074	334.694	470.599	454.030	206.014	436.618	398.637	197.126	426.348	462.235	329.425	445.421	478.301	456.572	398.611	0.0005658	0.00037753	0.00015288	1379.4	6.7815e-06	9.8783e-06	1379.6	377.01	7.5196e-06	2.3435e-06	432.85	144.95	125.8	42.721	7.342e-06	52.718	0.00056682	0.000565	0.00015636	1398.2	6.1254e-06	6.1146e-06	1402.1	385.05	6.0871e-06	6.1968e-06	440.1	148.12	128.66	43.846	6.0989e-06	54.291	194.388	191.184	276.516	161.672	319.383	275.131	161.449	166.110	249.065	406.446	165.734	169.883	170.407	175.211	299.683	174.054	-8191	255	
32139.969	1	1	0	0	0.0922	0.04364	0.08342	0.47835	0.096831	0.26274	0.19665	0.37425	0.055471	0.20346	0.28163	0.011662	0.027705	0.1259	0.12743	0.22159	-2.4417	-3.0521	-3.1021	-2.9375	-3.3625	-3.1479	-3.1937	-3.5042	-2.8667	-3.1042	-3.2771	-3.0292	-3.3	-3.1729	-2.9396	-3.2687	383.358	376.402	185.819	150.346	255.870	482.899	392.655	421.259	189.954	388.170	477.365	378.716	436.710	415.410	255.878	483.216	0.0005263	0.0006941	0.00022608	1377.7	3.2521e-06	6.4341e-06	1373.5	376.84	3.4617e-06	3.5345e-06	431.48	144.88	125.62	42.664	3.6744e-06	52.676	0.00056023	0.0005616	0.00015492	1394.1	6.0846e-06	6.1325e-06	1397	384.23	6.0651e-06	6.1013e-06	439.19	148.01	128.42	43.853	6.0917e-06	54.25	196.964	260.004	213.790	161.591	312.864	311.144	161.624	166.174	281.458	274.742	166.012	169.648	170.357	175.303	306.598	174.606	-8191	255	
32140.041	1	1	0	0	0.10614	0.16584	0.15864	0.33107	0.18866	0.21126	0.50638	0.19589	0.31405	0.15779	0.15555	0.14504	0.1845	0.3365	0.057087	0.36545	-2.3667	-2.8958	-3.025	-3.0563	-3.1479	-3.1	-3.0167	-3.2938	-3.1708	-2.9958	-3.3292	-2.9354	-3.1063	-3.2833	-2.8146	-3.2542	212.365	318.071	486.148	230.878	212.763	175.575	423.619	408.907	297.264	182.976	486.871	381.863	150.287	475.836	237.252	500.142	0.00052947	0.00055063	0.00010494	1376	4.1426e-06	6.5848e-06	1380.7	378.56	5.3254e-06	5.626e-06	429.91	145.02	126.11	42.587	4.2566e-06	52.884	0.00055922	0.00055728	0.00015509	1395.9	6.1121e-06	6.1135e-06	1400.7	385.42	6.0984e-06	6.0905e-06	439.47	147.9	128.57	43.828	6.0903e-06	54.325	189.789	237.648	269.086	161.770	258.164	288.429	161.698	166.281	286.655	347.676	165.698	169.757	170.406	175.227	272.120	174.574	-8191	255	
32140.162	1	1	0	0	0.21433	0.29697	0.17122	0.15664	0.21408	0.14446	0.34823	0.37756	0.12265	0.12137	0.13947	0.22323	0.41274	0.1724	0.12921	0.24088	-2.4667	-2.95	-3.2292	-3.1146	-3.1854	-3.2771	-3.05	-3.5125	-2.9729	-3.0208	-3.3604	-3.0312	-3.1396	-3.2729	-3.0208	-3.1229	177.315	355.191	443.328	506.436	493.276	231.149	391.452	441.935	382.821	319.051	357.068	148.516	401.977	463.492	222.838	152.065	0.00055865	0.00068367	0.0001309	1381.6	4.5979e-06	4.99e-06	1381.6	378.47	3.6622e-06	4.4385e-06	432.24	144.98	125.75	42.609	2.9696e-06	52.861	0.00055824	0.00056066	0.00015475	1396.8	6.1472e-06	6.1238e-06	1402.3	385.08	6.1869e-06	6.1508e-06	439.95	148.17	128.37	43.797	6.1095e-06	54.373	191.423	222.727	232.405	161.811	243.328	308.449	161.658	166.112	222.265	307.588	165.756	169.998	170.296	175.098	283.160	174.025	-8191	255	
32140.256	1	1	0	0	0.1883	0.13408	0.17064	0.11833	0.19343	0.30096	0.34261	0.35738	0.099692	0.15749	0.14101	0.23284	0.25854	0.43071	0.1269	0.050365	-2.6229	-2.8333	-3.2	-3.1271	-3.175	-3.1937	-3.05	-3.5271	-3.2042	-2.9375	-3.2521	-3.1479	-2.9833	-3.1896	-3.0271	-3.2229	342.363	347.601	152.658	149.934	345.591	189.453	411.771	154.149	255.279	365.048	421.800	201.265	149.527	468.152	472.090	400.850	0.00055902	0.00022293	0.00023514	1379.8	4.7291e-06	7.6549e-06	1379.4	377.53	5.2715e-06	4.019e-06	431.27	144.99	125.76	42.756	4.1763e-06	52.987	0.00056728	0.00055689	0.00015528	1398.5	6.2139e-06	6.1335e-06	1403	385.18	6.157e-06	6.1166e-06	439.61	148.24	128.59	43.922	6.1521e-06	54.499	192.163	182.146	230.102	161.851	261.372	284.141	161.484	166.105	247.136	337.647	165.618	169.791	170.461	175.234	317.688	174.297	-8191	255	
32140.352	1	1	0	0	0.071271	0.071665	0.24654	0.13519	0.17617	0.077781	0.23058	0.36537	0.25245	0.17937	0.11483	0.10375	0.077067	0.083353	0.22032	0.24306	-2.7021	-2.9437	-3.2125	-2.9875	-2.8812	-3.3854	-3.0396	-3.5229	-3.1021	-2.9958	-3.3792	-3.1479	-3.1792	-3.3708	-3.0417	-3.2917	285.830	157.255	448.248	480.678	319.729	408.411	429.219	476.122	219.760	373.665	494.127	472.891	417.860	487.051	252.880	425.050	0.00055111	0.00027323	0.00012287	1382.7	6.1645e-06	2.555e-06	1389	380.56	5.5823e-06	6.3756e-06	433.75	145.29	125.97	42.852	7.6105e-06	52.942	0.00057032	0.00056574	0.00015631	1402.5	6.2438e-06	6.2371e-06	1407.3	386.36	6.2449e-06	6.1931e-06	442.24	148.43	128.83	43.943	6.2672e-06	54.552	197.226	185.165	177.982	161.767	307.349	242.260	161.426	166.234	284.348	315.774	165.758	169.982	170.316	175.363	298.791	174.245	-8191	255	
32140.447	1	1	0	0	0.28568	0.072109	0.17507	0.18732	0.47012	0.17954	0.2122	0.17792	0.077737	0.11509	0.27537	0.20772	0.13142	0.1225	0.12239	0.24119	-2.5729	-2.9042	-3.2396	-3.2958	-2.9771	-3.2979	-2.9813	-3.2604	-3.2542	-2.9188	-3.3396	-3.1854	-2.9958	-3.275	-2.9125	-3.1708	157.203	375.214	150.778	179.650	289.964	336.357	455.563	464.105	390.710	418.458	159.782	211.357	427.554	482.489	217.522	441.219	0.00055391	0.00025415	9.3962e-05	1383.6	1.1489e-06	9.4075e-06	1382.5	380.06	6.5813e-06	4.5512e-06	432.57	144.5	125.55	42.515	2.9777e-06	52.852	0.00057636	0.00056422	0.00015769	1404	6.194e-06	6.1963e-06	1407.9	386.34	6.2569e-06	6.1989e-06	440.61	148.07	128.33	43.843	6.2398e-06	54.438	196.823	256.344	244.932	161.783	356.645	305.044	161.669	166.199	277.735	344.642	165.622	169.856	170.436	175.319	229.629	174.447	-8191	255	
32140.545	1	1	0	0	0.077729	0.09866	0.22737	0.30666	0.17862	0.1299	0.30385	0.38073	0.15525	0.17961	0.1225	0.19349	0.06966	0.093069	0.062887	0.26776	-2.8458	-2.8854	-3.0646	-3.1896	-3.0312	-3.2479	-3.2125	-3.1354	-3.2125	-2.925	-3.3646	-3.1521	-2.75	-3.3458	-2.9021	-3.0312	280.272	381.678	256.359	483.095	417.505	225.712	403.040	448.858	326.219	424.324	416.978	441.402	383.569	496.945	324.014	325.545	0.00055393	0.00092746	0.00011242	1380.4	4.3098e-06	3.9768e-06	1381.6	378.14	3.7913e-06	3.8188e-06	431.53	144.9	125.28	42.475	2.875e-06	52.907	0.00056841	0.00056515	0.00015745	1397.4	6.2092e-06	6.1157e-06	1402.3	384.84	6.1359e-06	6.1719e-06	439.28	147.78	128.26	43.7	6.1549e-06	54.298	195.513	251.020	304.512	161.614	252.335	280.005	161.436	166.241	267.918	292.218	165.603	169.659	170.398	175.325	318.261	174.466	-8191	255	
32140.664	1	1	0	0	0.16404	0.21171	0.066953	0.33065	0.13129	0.098706	0.12977	0.3001	0.24371	0.29236	0.22356	0.18748	0.1111	0.16497	0.050886	0.28726	-2.8771	-2.925	-3.0042	-3.3875	-2.8708	-3.1896	-3.2396	-3.0979	-3.2583	-3.0438	-3.1375	-3.2188	-3.0771	-3.2333	-3.0417	-3.0563	267.491	173.617	230.624	463.297	473.401	188.754	430.478	481.669	195.657	264.063	429.100	454.688	413.359	188.874	397.341	459.175	0.00055613	0.0010442	0.00011269	1377.7	4.5611e-06	2.996e-06	1374.1	376.15	4.2719e-06	2.3505e-06	428.9	144.19	125.23	42.614	4.9715e-06	52.702	0.00056379	0.00056541	0.0001557	1394.2	6.1064e-06	6.1431e-06	1396.9	383.52	6.2385e-06	6.2267e-06	438.18	147.38	127.98	43.693	6.2644e-06	54.241	192.273	218.644	233.713	161.637	288.104	235.929	161.441	166.294	318.855	333.653	165.653	169.769	170.292	175.167	281.616	174.560	-8191	255	
32140.736	1	1	0	0	0.26394	0.10765	0.23853	0.20247	0.20095	0.17176	0.22553	0.21181	0.2919	0.23149	0.25373	0.16484	0.2529	0.1465	0.085131	0.10414	-2.8229	-2.9208	-3.0687	-3.2062	-2.8	-3.275	-3.2208	-2.8417	-3.0812	-2.7917	-2.9875	-3.2792	-2.9479	-3.1479	-3.1688	-3.0521	476.422	465.364	496.478	469.084	418.343	308.901	449.651	504.737	230.188	314.939	453.270	195.590	494.145	167.648	482.381	361.612	0.00057685	0.00049512	0.0001611	1373	3.8167e-06	1.6995e-06	1368.7	375.72	7.3196e-06	3.3097e-06	427.91	143.94	125.4	42.188	5.2438e-06	52.604	0.00056378	0.00056689	0.00015671	1393.3	6.1555e-06	6.1555e-06	1394.7	383.37	6.0992e-06	6.1756e-06	437.85	147.3	127.75	43.597	6.1413e-06	54.161	197.292	209.428	252.962	161.789	228.092	251.612	161.546	166.161	246.909	227.943	165.750	169.999	170.503	175.381	298.225	174.450	-8191	255	
32140.832	1	1	0	0	0.012134	0.34112	0.071258	0.46168	0.025026	0.23187	0.15157	0.15614	0.13369	0.23944	0.27565	0.16292	0.17087	0.24837	0.049995	0.087367	-2.7896	-3.0187	-3.1333	-3.5	-2.9083	-3.225	-3.2687	-3.1479	-3.0292	-2.9229	-3.2188	-3.3187	-3.0396	-3.3333	-3.2917	-3.0812	163.891	342.614	292.558	470.246	490.963	210.633	412.434	399.862	478.026	298.511	170.892	496.107	240.020	186.820	498.950	451.941	0.00048775	0.0002758	0.00015969	1373.1	9.0926e-06	5.9037e-06	1368.9	376.13	5.3716e-06	5.268e-06	426.98	144.43	125.08	42.302	4.229e-06	52.486	0.00056518	0.00056536	0.00015583	1389	6.1419e-06	6.075e-06	1394.7	383.18	6.0895e-06	6.143e-06	437.25	147.29	127.8	43.607	6.1026e-06	54.085	195.594	280.031	279.140	161.866	292.485	284.411	161.730	166.357	289.752	327.039	165.824	169.848	170.402	175.223	282.986	174.368	-8191	255	
32140.953	1	1	0	0	0.068268	0.22137	0.13411	0.093078	0.17835	0.25675	0.17157	0.23316	0.09068	0.15306	0.44232	0.15149	0.21336	0.14863	0.19419	0.13376	-2.9229	-2.9917	-2.9167	-3.3542	-2.8521	-3.0812	-3.4021	-2.9646	-3.2812	-3.2354	-3.1312	-3.4417	-2.9271	-3.3083	-3.2167	-2.9042	166.567	279.260	346.722	419.155	445.291	292.648	442.839	427.387	193.012	364.792	150.349	168.530	438.400	436.425	324.811	197.802	0.00056868	4.2279e-05	0.00023869	1371.5	3.5068e-06	4.487e-06	1375.5	374.4	3.953e-06	1.3679e-06	429.89	143.87	124.9	42.383	3.6455e-06	52.652	0.00056496	0.00055572	0.00015405	1388.1	6.1162e-06	6.0976e-06	1394.4	381.98	6.079e-06	6.1081e-06	436.9	146.95	127.42	43.549	6.1246e-06	53.967	192.350	308.820	292.772	161.835	307.008	293.050	161.624	166.137	265.725	349.417	165.675	169.811	170.122	175.221	276.083	174.258	-8191	255	
32141.051	1	1	0	0	0.19029	0.054569	0.16211	0.18902	0.085253	0.24222	0.12885	0.35713	0.084704	0.25713	0.19494	0.17804	0.12408	0.22183	0.18861	0.40538	-2.8063	-3.1063	-2.9708	-3.3083	-2.8167	-3.0979	-3.4437	-3.0458	-3.3875	-3.1146	-2.9771	-3.3771	-3.025	-3.1417	-3.25	-3.0312	278.737	435.357	506.131	496.706	441.322	250.879	489.577	440.818	163.153	359.917	424.616	421.775	500.276	437.259	384.518	440.392	0.00055367	8.2574e-05	0.00011722	1364.5	3.1962e-06	5.2912e-06	1370.3	376.93	4.2847e-06	4.6359e-06	430.67	144.34	124.97	42.522	6.72e-06	52.594	0.00056215	0.00057044	0.00015592	1387.8	6.1691e-06	6.1763e-06	1394.4	383.11	6.1262e-06	6.1297e-06	437.34	147.37	127.76	43.586	6.0732e-06	54.175	195.448	154.430	220.611	161.816	358.386	319.062	161.508	166.441	267.089	344.073	165.692	169.985	170.464	175.357	285.956	174.602	-8191	255	
32141.146	1	1	0	0	0.083337	0.038587	0.14667	0.06844	0.032171	0.18099	0.27897	0.17226	0.11222	0.12501	0.16309	0.18363	0.055376	0.22396	0.11461	0.19305	-2.6458	-3.0312	-3.1188	-3.2938	-3.2188	-3.1063	-3.3729	-2.9854	-3.2604	-3.0417	-2.8542	-3.2229	-2.9	-3.2458	-3.2396	-2.9521	385.620	399.779	275.388	458.724	410.722	463.472	469.007	469.671	422.132	325.230	494.744	169.586	263.345	180.442	218.174	472.324	0.00051187	0.00067674	0.00012785	1376	1.6185e-06	3.4047e-06	1377.4	377.43	2.6469e-06	2.3344e-06	430.82	143.85	124.88	42.491	4.4039e-06	52.612	0.00056249	0.00055692	0.00015537	1392.1	6.1877e-06	6.1225e-06	1396.7	383.39	6.0816e-06	6.1605e-06	438.01	147.4	127.79	43.716	6.158e-06	54.162	192.691	211.581	255.760	161.821	340.152	304.166	161.619	166.261	282.382	341.768	165.904	169.679	170.540	175.023	326.946	174.360	-8191	255	
32141.242	1	1	0	0	0.34534	0.20616	0.27631	0.22772	0.086282	0.083704	0.25044	0.17648	0.27833	0.14892	0.29381	0.057421	0.17544	0.13199	0.11012	0.24772	-2.6271	-3.0438	-2.8646	-3.4021	-2.9333	-2.9313	-3.5542	-3.1958	-3.1604	-3.1729	-3.1125	-3.3937	-3.1417	-3.0583	-3.1562	-3.1125	500.297	174.062	311.171	469.187	169.056	307.485	458.237	435.786	501.288	199.788	421.040	490.729	430.875	261.616	234.906	469.120	0.00059113	0.00027325	5.2525e-05	1369.3	5.4167e-06	4.747e-06	1373.3	376.36	6.1301e-06	2.9529e-06	431.15	144.23	125.3	42.581	7.4204e-06	52.728	0.00056077	0.00055893	0.0001559	1390.9	6.1366e-06	6.0767e-06	1397.3	383.04	6.1239e-06	6.2088e-06	437.97	147.3	127.85	43.634	6.0577e-06	54.134	191.869	213.936	189.988	161.775	283.338	277.553	161.512	166.312	283.812	293.060	165.794	169.803	170.331	175.363	270.177	174.375	-8191	255	
32141.336	1	1	0	0	0.33364	0.065157	0.077276	0.25234	0.044266	0.13548	0.34667	0.12928	0.32255	0.18359	0.069591	0.36978	0.1145	0.14551	0.10632	0.40318	-2.6437	-3.1771	-2.8104	-3.4583	-3.0542	-2.8708	-3.4542	-3.3042	-2.9083	-3.2	-3.0979	-3.2917	-3.3292	-2.8563	-3.1562	-3.0417	483.334	449.545	354.881	470.913	403.277	493.372	408.594	273.649	394.520	301.847	158.044	458.504	460.487	210.252	193.027	474.434	0.00056918	0.00087063	0.00012854	1375.1	2.9856e-06	5.7995e-06	1372	376.5	2.2928e-06	5.941e-06	428.01	144.43	124.52	42.29	5.4542e-07	52.34	0.00056059	0.00055982	0.00015515	1389.3	6.1686e-06	6.0709e-06	1394.1	382.81	6.0741e-06	6.0511e-06	436.92	147.26	127.62	43.53	6.1169e-06	54.032	197.390	243.034	275.760	161.810	250.568	290.107	161.541	166.253	266.412	317.433	165.511	169.612	170.250	175.410	161.359	174.446	-8191	255	
32141.434	1	1	0	0	0.19181	0.084316	0.046246	0.22593	0.21633	0.11045	0.24993	0.25441	0.056149	0.094245	0.37595	0.37884	0.21428	0.23212	0.042216	0.15643	-2.4958	-3.1083	-3.0667	-3.2833	-3.2708	-3.0687	-3.5083	-3.3125	-2.8458	-3.2188	-2.9437	-3.1208	-3.2458	-2.8521	-3.2229	-3.0667	497.883	266.982	283.679	186.236	240.826	270.398	496.852	444.894	433.998	211.640	324.378	452.793	400.374	481.486	380.104	490.767	0.00054627	0.00049314	0.00012145	1367.5	5.9432e-06	6.5656e-06	1362.5	375.69	5.3699e-06	2.8217e-06	426.98	143.34	124.57	42.245	4.3836e-06	52.297	0.00055868	0.00055582	0.00015526	1386.9	6.1847e-06	6.0191e-06	1387	381.65	6.1045e-06	6.0078e-06	435.5	146.73	127.22	43.405	6.0837e-06	53.808	195.158	204.271	231.715	161.900	248.342	287.495	161.476	166.063	257.112	377.376	165.867	169.918	170.452	175.052	265.336	174.457	-8191	255	
32141.553	1	1	0	0	0.13397	0.18367	0.076638	0.082315	0.22245	0.23934	0.10767	0.086419	0.092036	0.048667	0.080964	0.18591	0.26935	0.27609	0.31029	0.026059	-2.575	-3.1521	-2.7438	-3.1667	-3.2479	-2.9938	-3.375	-3.1771	-2.8271	-3.3229	-2.9667	-3.1375	-3.2	-2.8271	-3.1063	-3.0979	246.250	338.585	438.091	158.326	424.572	382.062	162.118	355.688	225.737	303.006	384.450	492.416	332.814	167.088	231.328	275.408	0.00054923	2.8601e-05	0.00010584	1358.5	7.8854e-06	5.2362e-06	1357.7	373.86	6.0519e-06	3.5014e-06	425.91	142.78	124.37	42.358	4.2004e-06	52.348	0.00055379	0.00054914	0.00015423	1376.3	6.0362e-06	6e-06	1380.5	380.39	6.0303e-06	6.0561e-06	434.61	146.49	126.99	43.422	6.0289e-06	53.693	192.383	280.858	322.714	161.810	261.634	334.639	161.456	166.404	251.537	337.686	165.962	169.842	170.363	175.329	266.318	174.588	-8191	255	
32141.648	1	1	0	0	0.16601	0.18831	0.19886	0.13765	0.21529	0.32571	0.26059	0.15138	0.10203	0.13183	0.20268	0.13529	0.10558	0.10358	0.13348	0.1598	-2.3646	-3.1437	-2.8604	-3.2375	-3.2938	-2.9396	-3.2938	-3.2687	-2.8937	-3.2104	-3.0854	-3.1667	-3.4292	-3.2271	-3.1854	-3.2896	453.550	185.063	399.773	457.333	220.036	467.316	467.305	340.597	428.123	373.213	381.585	397.109	375.508	165.219	402.308	395.393	0.00053822	0.00041075	0.00013115	1359.1	3.2583e-06	3.5789e-06	1357	373.22	5.6619e-06	4.1064e-06	427.14	143.31	124.37	42.17	5.0638e-06	52.526	0.00055145	0.00055298	0.00015358	1376.6	6.0158e-06	6.0078e-06	1378.1	379.91	5.9697e-06	6.0805e-06	434.23	146.49	127.02	43.396	6.0581e-06	53.813	197.656	180.010	240.349	161.832	280.344	289.419	161.474	166.342	219.463	294.317	165.366	169.938	170.406	175.312	275.168	174.472	-8191	255	
32141.746	1	1	0	0	0.10643	0.06601	0.21621	0.52555	0.082436	0.21395	0.099545	0.05658	0.24015	0.21558	0.29666	0.17589	0.25514	0.18679	0.21956	0.1812	-2.4417	-3.2146	-2.9771	-3.1813	-3.3063	-3.0292	-3.2396	-3.5271	-2.7875	-3.1833	-3.2062	-3.0417	-3.3812	-3.0938	-3.0938	-3.2417	320.497	311.650	222.107	433.303	279.580	417.421	382.277	445.561	326.120	161.388	403.745	456.303	496.848	153.970	357.326	412.168	0.00058699	0.00089408	0.00019755	1357.5	1.727e-06	4.4956e-06	1356.5	372.79	4.5118e-06	4.7063e-06	427.19	142.89	124.44	42.32	1.645e-06	52.212	0.00055716	0.00054997	0.00015467	1372.9	6.0425e-06	6.0621e-06	1376.6	379.78	6.0169e-06	6.0275e-06	434.52	146.25	126.83	43.375	6.0392e-06	53.812	191.581	247.409	256.028	161.792	220.594	284.849	161.522	166.290	290.127	334.269	165.696	169.889	170.021	175.088	376.175	174.274	-8191	255	
32141.842	1	1	0	0	0.074406	0.076696	0.036439	0.23708	0.083869	0.31581	0.31536	0.13503	0.30728	0.21454	0.1604	0.13469	0.15172	0.21968	0.14323	0.20181	-2.3625	-3.2833	-3.0125	-3.1312	-3.4042	-2.9688	-3.1458	-3.3292	-2.8417	-3.1375	-3.2896	-2.9792	-3.3208	-3.1813	-3.1583	-3.2583	262.042	479.556	382.947	429.366	494.085	491.021	465.729	479.357	399.991	300.952	293.897	504.065	164.894	501.945	166.123	449.348	0.00058048	0.00073387	0.00016804	1359.7	5.0545e-06	5.0206e-06	1360.2	372.38	4.7715e-06	1.9045e-06	425.65	143.49	124.05	42.245	5.1587e-06	52.301	0.00055222	0.00055437	0.00015328	1374.2	6.0401e-06	6.0179e-06	1379.1	379.81	5.9779e-06	6.062e-06	433.63	146.35	126.9	43.35	6.0437e-06	53.717	187.606	203.283	272.902	161.945	221.744	376.034	161.692	166.215	275.660	310.609	165.636	170.017	170.399	175.253	240.052	174.704	-8191	255	
32141.963	1	1	0	0	0.19522	0.16284	0.040342	0.47745	0.25707	0.24355	0.17491	0.20989	0.28498	0.23157	0.20258	0.27549	0.43943	0.34565	0.061262	0.29802	-2.6896	-3.1958	-3.0042	-3.0563	-3.1729	-2.9979	-3.1396	-3.575	-2.8604	-3.05	-3.3146	-2.925	-3.1083	-3.0646	-2.9979	-3.3104	306.851	148.487	366.843	424.060	431.554	397.906	425.324	477.460	345.109	432.561	414.489	460.878	500.538	438.060	504.499	493.260	0.00057418	0.0007527	0.00026872	1360.4	4.7606e-06	3.7702e-06	1355.4	374.04	5.1893e-06	4.5e-06	428.03	144.15	124.23	42.14	5.0748e-06	52.412	0.00054869	0.00055953	0.00015348	1373.3	6.0189e-06	6.0245e-06	1378.2	379.88	5.9709e-06	6.0242e-06	434.77	146.61	126.67	43.338	6.0448e-06	53.792	193.340	232.021	279.248	161.793	277.947	276.498	161.570	166.340	269.424	249.845	165.554	169.980	170.318	175.113	330.650	174.631	-8191	255	
32142.033	1	1	0	0	0.090984	0.21749	0.079326	0.35468	0.39551	0.095699	0.28913	0.14351	0.29109	0.095611	0.23774	0.12296	0.15177	0.089168	0.078738	0.17685	-2.4938	-2.8708	-3.0708	-3.0354	-3.2771	-3.0125	-3.2042	-3.3375	-2.8042	-3.1292	-3.2375	-2.9917	-3.1854	-3.0646	-2.9479	-3.425	362.908	417.824	263.661	463.867	300.620	327.955	496.924	407.988	363.996	418.144	173.095	505.267	154.447	453.072	446.420	403.858	0.00061469	0.00045312	8.801e-05	1352.3	5.7937e-06	4.3352e-06	1359.8	374.5	5.395e-06	6.5075e-06	425.91	143.66	124.2	42.268	1.5928e-06	52.125	0.00056034	0.00055467	0.00015354	1371.6	6.0242e-06	6.0743e-06	1377.9	380.59	6.0307e-06	6.0211e-06	434.24	146.61	126.96	43.378	6.0046e-06	53.733	193.213	283.175	248.355	161.755	276.637	295.521	161.672	166.362	268.321	322.655	165.856	169.834	170.273	175.555	321.173	174.628	-8191	255	
32142.131	1	1	0	0	0.02561	0.12071	0.13522	0.42208	0.14431	0.040607	0.17179	0.15283	0.022133	0.17199	0.32992	0.14137	0.17867	0.097512	0.065162	0.28688	-2.6354	-3.0667	-3.2104	-3.1125	-3.0208	-3.0958	-3.2396	-3.2583	-3.0729	-3.0625	-3.2417	-2.9354	-3.1771	-3.2479	-2.9188	-3.3792	302.349	398.096	477.998	459.260	191.062	360.665	471.917	201.295	408.865	357.624	209.683	165.775	171.387	454.607	212.510	495.511	0.00055339	0.00058916	0.00017809	1354.9	2.7544e-06	3.5739e-06	1353.2	373.59	5.9256e-06	7.3541e-06	426.98	143.33	124.04	42.254	6.4184e-06	52.291	0.00055163	0.00055988	0.00015234	1371.6	6.0158e-06	6.071e-06	1376.1	380.06	6.0494e-06	6.0473e-06	434.28	146.4	126.98	43.44	5.9767e-06	53.758	190.113	258.198	244.923	161.944	264.017	274.278	161.605	166.140	227.174	305.513	165.594	169.748	170.357	175.229	245.864	174.164	-8191	255	
32142.227	1	1	0	0	0.128	0.089924	0.21223	0.054366	0.25237	0.17671	0.30048	0.20423	0.053397	0.075332	0.12289	0.25816	0.25131	0.036856	0.13428	0.13767	-2.5812	-2.8833	-2.9646	-3.1688	-3.1063	-3.2917	-3.0375	-3.3292	-2.9854	-3.0396	-3.325	-3.0958	-3.3438	-3.2771	-2.9708	-3.1896	454.760	458.288	476.303	429.976	245.016	239.981	422.505	422.045	319.258	363.213	478.378	399.000	486.059	452.013	268.540	181.793	0.00055843	0.00052328	0.00015978	1352.5	5.6636e-06	8.6616e-06	1352.3	372.32	5.2299e-06	8.8045e-06	426.2	143.98	124.86	42.388	9.4492e-07	52.377	0.00055581	0.00055223	0.00015422	1370.6	6.0217e-06	6.0583e-06	1375.2	379.92	6.0763e-06	5.9912e-06	434.19	146.72	127.03	43.445	6.0491e-06	53.853	192.091	250.894	267.438	162.049	281.921	258.634	161.675	166.334	276.795	321.187	165.812	169.962	170.354	175.350	385.796	174.442	-8191	255	
32142.346	1	1	0	0	0.24915	0.23724	0.12139	0.19819	0.19624	0.099084	0.42817	0.32955	0.24687	0.21261	0.1226	0.10741	0.16175	0.2102	0.34988	0.21461	-2.7125	-2.9271	-3.1833	-3.1958	-3.1729	-3.0875	-3.0604	-3.2479	-3.1	-3.0521	-3.5271	-3.1437	-3.125	-3.3958	-3.0521	-3.2	300.683	405.065	199.484	451.587	219.070	254.613	427.935	474.421	229.566	464.966	396.261	387.395	487.925	184.082	441.863	494.031	0.00056864	0.0005733	0.00013835	1352.1	7.5856e-06	6.229e-06	1357.2	373.02	2.0936e-06	3.1307e-06	426.81	142.95	124.28	42.227	3.7999e-06	52.242	0.00056052	0.00055196	0.00015205	1370.8	6.0101e-06	5.9946e-06	1378.1	379.83	5.9988e-06	6.0047e-06	434.19	146.4	126.99	43.399	6.0195e-06	53.752	191.091	177.869	181.946	161.824	254.812	252.696	161.668	166.313	258.316	330.882	165.645	169.758	170.288	175.206	290.093	174.445	-8191	255	
32142.441	1	1	0	0	0.086844	0.20225	0.14625	0.11204	0.13282	0.28532	0.36457	0.10979	0.27077	0.22922	0.080024	0.3513	0.15033	0.10611	0.15467	0.062494	-2.6937	-3.0125	-3.2833	-3.2	-3.0458	-3.3125	-3.2021	-3.3646	-3.3125	-2.9167	-3.5292	-3.3021	-3.275	-3.4792	-2.7354	-3.175	320.534	390.874	433.028	149.204	379.858	148.538	440.559	414.607	149.124	474.956	298.970	428.066	506.886	415.046	320.913	348.091	0.00056311	0.00029174	0.00024826	1350.2	6.4387e-06	6.5196e-06	1351.6	372.26	2.6923e-06	8.3015e-06	427.79	143.19	124.33	42.138	4.6025e-06	52.177	0.00055556	0.00054995	0.00015373	1370.3	6.0128e-06	5.997e-06	1374.2	379.57	6.0293e-06	5.96e-06	434.92	146.57	127.04	43.374	6.0431e-06	53.728	193.340	165.711	231.725	161.868	280.681	241.387	161.685	166.199	248.790	313.839	165.583	169.790	170.415	175.095	288.111	174.439	-8191	255	
32142.537	1	1	0	0	0.016345	0.21511	0.13791	0.15794	0.079655	0.17727	0.28736	0.10897	0.14839	0.14855	0.13583	0.13088	0.047298	0.21233	0.16137	0.21577	-2.7083	-2.9313	-3.3542	-3.1104	-2.8854	-3.2625	-3.1583	-3.4	-3.2271	-3.0792	-3.3625	-3.2354	-3.1375	-3.2542	-2.8792	-3.075	212.712	419.543	504.281	484.200	475.348	410.594	433.099	410.486	161.661	260.918	236.540	468.810	473.171	422.532	254.907	172.111	0.00054573	0.00042649	0.00017378	1351.6	3.052e-06	9.1932e-06	1357.5	372.52	5.4852e-06	8.8308e-06	427.33	143.56	124.17	42.053	6.2787e-06	52.157	0.00055589	0.00054426	0.00015294	1371	6.0201e-06	6.0546e-06	1377.5	379.73	6.0435e-06	6.0166e-06	434.68	146.61	126.93	43.34	6.058e-06	53.797	194.345	212.349	213.578	161.836	247.829	220.922	161.507	166.344	311.856	329.070	165.853	170.059	170.557	175.110	288.997	174.461	-8191	255	
32142.635	1	1	0	0	0.2474	0.18758	0.2518	0.058608	0.24483	0.15193	0.17722	0.25503	0.18476	0.092274	0.21474	0.1128	0.38344	0.25153	0.043054	0.040556	-2.6813	-2.8187	-3.0917	-3.1792	-2.9938	-3.2292	-3.1562	-3.1229	-3.2313	-2.8063	-3.3146	-3.3083	-2.9542	-3.2729	-3.0375	-3.2417	438.028	283.355	259.746	365.307	471.969	221.783	376.198	159.894	258.607	496.170	461.699	467.856	479.433	476.780	378.070	446.347	0.00050187	0.00091859	9.4746e-05	1348.2	4.7691e-06	8.5579e-06	1352.9	372.53	4.2982e-06	3.436e-06	425.83	143.5	124.2	42.183	3.1262e-06	52.231	0.00055242	0.00055778	0.00015378	1372.1	6.0282e-06	6.0116e-06	1376	379.58	6.036e-06	6.0746e-06	434.07	146.6	127.05	43.405	6.1018e-06	53.722	189.741	218.043	490.024	161.872	265.595	302.629	161.751	166.365	264.446	363.149	165.753	169.821	170.381	175.036	281.515	174.472	-8191	255	
32142.730	1	1	0	0	0.16279	0.02207	0.082356	0.030187	0.089091	0.05679	0.042607	0.15433	0.043489	0.06113	0.085081	0.3092	0.26734	0.26227	0.092065	0.12759	-2.6792	-3.0083	-3.0896	-3.3083	-2.8958	-3.1583	-3.2354	-3.2979	-3.2583	-2.9833	-3.2625	-3.2771	-2.9583	-3.4354	-3.0646	-3.0396	353.146	195.148	463.068	481.582	301.682	185.773	347.703	485.912	255.375	255.985	467.438	157.307	427.552	226.305	403.371	413.453	0.00057117	0.0005959	0.00016051	1354.5	2.3128e-06	9.108e-06	1351.9	372.72	3.0742e-06	7.8264e-06	427.35	143.26	124.27	42.314	4.7922e-06	52.208	0.00055685	0.00055165	0.0001522	1371.2	5.9997e-06	6.0264e-06	1374.6	379.65	6.0241e-06	6.0564e-06	434.23	146.38	126.87	43.379	6.0454e-06	53.754	195.379	275.082	250.424	161.881	341.275	284.921	161.592	166.167	273.686	329.391	165.935	169.864	170.240	175.123	302.434	174.569	-8191	255	
32142.826	1	1	0	0	0.14234	0.13132	0.08762	0.10819	0.15884	0.28304	0.27017	0.076461	0.2564	0.17695	0.09108	0.19969	0.15226	0.0477	0.055124	0.26759	-2.9875	-3	-3.1375	-3.45	-3.0708	-3.2812	-3.3625	-3.2354	-3.2208	-2.8625	-3.2625	-3.2646	-3.0396	-3.2604	-3.1021	-3.0354	351.688	349.811	470.834	457.683	392.315	165.199	444.088	387.045	258.253	365.731	497.945	416.226	349.116	182.669	159.617	480.569	0.00053144	0.0008189	7.4027e-05	1351.5	3.463e-06	8.5814e-06	1353	373.34	6.5235e-06	4.2915e-06	425.95	143.15	124.17	42.094	2.3893e-06	52.3	0.00055208	0.00055452	0.00015401	1370.5	6.0075e-06	6.1047e-06	1374.6	379.66	6.0003e-06	6.0176e-06	434.42	146.25	127.03	43.336	6.1141e-06	53.685	191.035	243.487	311.129	161.789	336.480	313.086	161.558	166.273	256.059	282.216	165.834	169.790	170.283	175.050	320.106	174.601	-8191	255	
32142.922	1	1	0	0	0.22142	0.37928	0.062126	0.21917	0.050936	0.11339	0.31845	0.39197	0.061054	0.12576	0.21419	0.27325	0.063682	0.094651	0.1132	0.26523	-2.925	-2.9083	-3.1646	-3.5438	-2.9896	-3.3	-3.3688	-3.0854	-3.2083	-2.9229	-3.0687	-3.4042	-3.1104	-3.3104	-3.1167	-3.1021	419.814	291.098	206.013	150.362	414.223	186.529	469.137	420.288	385.189	352.738	216.213	429.356	373.650	304.903	285.447	500.778	0.00055835	0.00016453	0.00019656	1354.2	4.5945e-06	4.0802e-06	1353.6	371.5	6.8899e-06	6.7537e-06	424.4	143.36	123.9	42.432	5.3469e-06	52.331	0.00054863	0.00055427	0.00015417	1371.1	6.0228e-06	6.0591e-06	1374.9	379.14	5.9929e-06	6.0778e-06	433.93	146.28	126.67	43.451	6.0386e-06	53.757	194.930	255.634	266.740	161.917	258.643	285.594	161.716	166.166	295.065	274.132	165.728	170.041	170.363	175.167	322.235	174.342	-8191	255	
32143.043	1	1	0	0	0.047273	0.23297	0.053939	0.13363	0.22813	0.22503	0.12765	0.24248	0.065479	0.10399	0.40178	0.18599	0.065836	0.2111	0.21002	0.30748	-2.9333	-2.9896	-2.9875	-3.4688	-2.9833	-3.2208	-3.3083	-3.2438	-3.1688	-3.15	-3.0042	-3.3937	-3.0021	-3.3792	-3.3042	-3.1146	208.896	393.494	221.963	419.689	487.964	326.070	463.819	488.721	499.839	488.806	489.244	458.288	462.193	152.759	326.219	408.061	0.00052249	0.0011545	0.00021421	1344.7	2.4783e-06	8.1041e-06	1353.7	373.55	4.3719e-06	2.3547e-06	426.47	143.14	123.9	42.193	5.5112e-06	52.211	0.00055083	0.00055196	0.00015448	1366.6	6.0291e-06	6.0418e-06	1376.2	379.77	6.0016e-06	6.028e-06	434.11	146.29	126.85	43.358	6.0898e-06	53.739	195.995	231.023	254.462	161.879	352.878	310.843	161.497	166.187	240.309	320.627	165.993	169.796	170.643	175.225	224.420	174.542	-8191	255	
32143.137	1	1	0	0	0.28012	0.11179	0.25023	0.27315	0.20292	0.19176	0.045864	0.45504	0.12531	0.1438	0.45925	0.15233	0.21014	0.084865	0.24938	0.14135	-2.8958	-3.0958	-2.9958	-3.3875	-3.0667	-3.1604	-3.4292	-3.35	-3.3438	-3.175	-3.1104	-3.5146	-3.2313	-3.1333	-3.3375	-3.0958	313.913	321.245	281.030	480.432	394.945	253.627	322.656	450.349	386.389	382.624	479.586	199.702	489.538	378.421	356.940	423.723	0.00053763	0.00091522	6.8146e-05	1347	2.2982e-06	3.8896e-06	1353.1	372.94	6.4398e-06	4.4151e-06	425.9	143.64	124.32	42.212	5.8514e-06	52.368	0.00055134	0.00055726	0.00015303	1367.2	6.0089e-06	6.0112e-06	1374.6	379.54	6.0197e-06	6.0666e-06	433.56	146.47	126.99	43.355	6.0471e-06	53.826	181.675	209.540	298.192	161.718	289.207	335.534	161.812	166.320	315.625	259.564	165.928	169.628	170.426	175.367	270.057	174.520	-8191	255	
32143.234	1	1	0	0	0.28292	0.26849	0.10803	0.12696	0.18706	0.2854	0.34802	0.10435	0.25118	0.18252	0.32355	0.2122	0.16576	0.3307	0.1468	0.27792	-2.7667	-3.1042	-3.0396	-3.5	-3.1375	-3.0896	-3.4479	-3.0687	-3.1188	-3.1542	-3.0146	-3.2167	-3.025	-3.0625	-3.3229	-3.0917	388.917	420.148	300.275	173.440	205.197	258.787	413.558	172.243	223.019	376.843	191.296	387.811	496.105	446.819	331.717	490.730	0.0005641	0.00038431	0.00018353	1346.6	3.4955e-06	9.5099e-06	1350.1	372.95	5.253e-06	6.4933e-06	425.53	143.27	124.38	42.175	2.6649e-06	52.25	0.00055955	0.00055866	0.00015254	1367.2	6.0776e-06	5.9936e-06	1373.6	379.01	6.0286e-06	6.0035e-06	433.07	146.34	126.87	43.349	6.0105e-06	53.685	187.981	208.413	248.784	161.778	247.470	311.865	161.712	166.379	264.268	301.399	165.917	170.051	170.219	175.118	236.181	174.597	-8191	255	
32143.328	1	1	0	0	0.24269	0.09248	0.16603	0.28353	0.20846	0.11723	0.22026	0.26009	0.23048	0.11833	0.20469	0.17321	0.084406	0.046179	0.045265	0.27693	-2.6042	-3.1479	-3.0938	-3.3271	-3.0542	-3.1146	-3.5271	-3.2667	-3.1167	-3.2646	-2.8333	-3.3542	-3.3063	-2.9708	-3.2479	-3.2313	181.373	328.447	343.153	494.054	152.379	452.776	438.731	158.976	377.935	297.601	209.092	495.082	442.039	342.205	264.758	484.254	0.00057607	0.00070681	0.00012405	1350	2.9196e-06	4.1383e-06	1352.1	372.58	5.0786e-06	8.2457e-07	425.61	143.36	124.53	42.255	6.5889e-06	52.107	0.00055296	0.00055443	0.00015243	1368.2	6.045e-06	5.9896e-06	1372.8	379.13	5.9622e-06	5.9855e-06	433.35	146.56	126.63	43.355	5.9881e-06	53.732	196.107	217.432	264.562	161.897	339.396	243.927	161.451	166.321	270.716	309.709	165.772	169.730	170.308	175.379	327.627	174.460	-8191	255	
32143.426	1	1	0	0	0.24303	0.08045	0.063211	0.1383	0.10335	0.21779	0.29469	0.31808	0.27412	0.060932	0.20951	0.10358	0.18003	0.20705	0.056469	0.28885	-2.7583	-3.2104	-2.8729	-3.3458	-3.075	-2.9979	-3.5563	-3.2208	-3.1021	-3.3833	-3.0021	-3.2146	-3.2812	-3.1021	-3.2583	-3.1417	237.154	432.493	274.435	170.422	463.744	207.354	446.703	441.671	497.431	404.227	487.044	442.191	414.112	160.554	189.750	425.540	0.00051325	0.0003911	7.4363e-05	1350.7	2.0999e-06	3.9687e-06	1352.5	373.58	5.5815e-06	4.6645e-06	425.43	143.63	124.27	42.243	1.9952e-06	52.217	0.00055129	0.00055465	0.00015282	1367.7	6.055e-06	6.0182e-06	1374.4	379.66	6.0429e-06	6.0935e-06	433.13	146.24	126.91	43.38	6.0475e-06	53.761	195.159	171.354	204.639	161.800	285.327	296.305	161.643	166.275	256.661	251.719	165.431	169.696	170.367	175.371	239.241	174.501	-8191	255	
32143.521	1	1	0	0	0.069327	0.16306	0.10928	0.15387	0.13157	0.068539	0.093401	0.39587	0.21758	0.042871	0.21616	0.089731	0.15866	0.25328	0.29725	0.22413	-2.6292	-3.2792	-3.0542	-3.4562	-3.1354	-2.8729	-3.5125	-3.2479	-3.0854	-3.4125	-3.2375	-3.4229	-3.1021	-2.9875	-3.2896	-3.275	236.736	190.351	238.291	153.339	356.443	415.703	462.651	480.591	206.860	481.875	407.826	382.267	149.803	166.819	361.017	441.910	0.00055908	0.00041543	0.00013627	1347.9	8.5419e-06	2.7436e-06	1351.7	372.81	7.9439e-06	9.5082e-07	426.61	143.43	124.5	42.323	2.8604e-06	52.258	0.00055706	0.00054768	0.00015285	1366.9	6.05e-06	5.9907e-06	1373.4	379.42	6.0161e-06	6.0252e-06	433.59	146.33	126.79	43.361	6.0131e-06	53.762	197.993	215.435	234.790	161.864	270.378	359.349	161.675	166.273	249.055	368.547	165.831	169.861	170.222	175.139	238.140	174.209	-8191	255	
32143.643	1	1	0	0	0.15237	0.15104	0.082361	0.23408	0.095454	0.28983	0.29454	0.087707	0.074104	0.16353	0.19727	0.25136	0.24363	0.30468	0.21248	0.11684	-2.7146	-3.2979	-3.0312	-3.2979	-3.2042	-3.1042	-3.5458	-3.3812	-2.8667	-3.3312	-3.2458	-3.0958	-3.4146	-3.1042	-3.1667	-3.1521	213.865	470.297	490.853	457.985	399.094	299.789	385.105	469.576	154.250	175.864	451.455	494.531	465.388	472.136	153.255	168.584	0.00056083	0.00017334	8.9811e-05	1346.5	3.1094e-06	7.5766e-06	1353.5	372.85	6.7918e-06	6.5053e-06	425.22	143.19	124.77	42.19	5.9275e-06	51.918	0.00054948	0.00055129	0.00015453	1367.6	6.0505e-06	6.0078e-06	1373.4	379.47	6.0133e-06	5.9879e-06	432.84	146.35	126.95	43.322	6.0372e-06	53.653	186.015	481.915	260.498	161.783	315.072	286.147	161.620	166.321	298.884	308.894	165.775	169.933	170.243	175.364	305.768	174.500	-8191	255	
32143.738	1	1	0	0	0.28872	0.057325	0.05366	0.21118	0.19494	0.11297	0.32185	0.1222	0.19277	0.093595	0.17042	0.14432	0.10945	0.20395	0.13683	0.21251	-2.4104	-3.4313	-3.025	-3.2479	-3.3833	-3.0771	-3.5271	-3.4625	-2.8479	-3.2583	-3.1583	-3.2812	-3.5125	-3.0938	-3.35	-3.3396	199.748	490.487	238.295	480.868	208.985	440.510	445.793	152.314	271.318	253.368	455.600	474.769	418.826	506.398	285.786	158.096	0.00055901	0.00021593	0.00019694	1352.2	3.2082e-06	1.3123e-05	1353.8	371.96	6.8188e-06	8.3439e-06	425.98	142.5	124.23	42.274	3.6379e-06	52.305	0.00055939	0.00055102	0.00015459	1370.5	6.0079e-06	6.049e-06	1374.8	379.14	5.9659e-06	6.0709e-06	433.71	146.01	126.74	43.4	6.064e-06	53.798	190.886	399.737	246.861	161.974	300.425	286.347	161.692	166.342	268.663	283.969	165.405	169.814	170.420	175.305	245.302	174.446	-8191	255	
32143.836	1	1	0	0	0.030359	0.085852	0.069692	0.20567	0.16887	0.37027	0.19404	0.26824	0.12959	0.1902	0.22175	0.27781	0.13864	0.080306	0.22501	0.20499	-2.5479	-3.1667	-3.0333	-3.3187	-3.1604	-3.0854	-3.6146	-3.4625	-2.7125	-3.2812	-3.3625	-3.1354	-3.3396	-2.8917	-3.0292	-3.1854	430.051	187.059	333.965	467.940	320.373	438.375	172.745	460.031	450.371	279.849	502.542	491.083	489.620	151.693	407.891	430.989	0.00053388	0.00066867	0.00019161	1351.5	3.1118e-06	2.5916e-06	1355.9	373.23	5.1692e-06	3.5205e-06	425.87	143.18	124.54	42.267	5.8223e-06	52.214	0.00054764	0.00055244	0.00015359	1369.7	5.9758e-06	6.0426e-06	1375.7	379.9	6.0391e-06	6.0608e-06	434.19	146.28	126.86	43.413	6.0595e-06	53.721	188.934	236.367	279.606	161.858	251.613	278.416	161.540	166.140	237.585	303.295	165.531	169.907	170.392	175.108	275.281	174.305	-8191	255	
32143.906	1	1	0	0	0.21067	0.065066	0.14773	0.48073	0.23695	0.10125	0.15628	0.27497	0.16459	0.20348	0.2427	0.12948	0.19524	0.25219	0.003514	0.24108	-2.4521	-3.2313	-3.0104	-3.1417	-3.3354	-3.05	-3.1604	-3.4292	-3.0146	-3.3125	-3.1458	-3.0792	-3.4542	-3.1521	-2.9688	-3.4813	480.812	176.834	410.399	164.802	238.284	218.821	366.937	493.233	480.251	337.451	474.375	166.063	452.320	410.211	492.371	375.853	0.00054128	0.00068285	0.00025934	1357.1	4.2899e-06	7.0993e-06	1350.4	373.49	4.1948e-06	3.5826e-06	426.55	142.63	124.45	42.26	2.9096e-06	52.279	0.00055526	0.00054881	0.0001542	1370	6.0423e-06	6.0288e-06	1373.6	379.11	6.0424e-06	6.0468e-06	433.59	146.15	126.69	43.388	6.0628e-06	53.743	195.150	223.756	230.894	161.932	244.268	311.169	161.581	166.313	296.850	313.069	165.591	169.851	170.380	175.206	265.804	174.503	-8191	255	
32144.027	1	1	0	0	0.24177	0.12668	0.19989	0.24169	0.2267	0.20837	0.36037	0.11248	0.064532	0.11931	0.19543	0.27563	0.14488	0.18697	0.18706	0.034395	-2.5062	-3.1708	-3.1479	-2.9917	-3.2021	-2.8833	-3.1375	-3.4083	-2.8854	-3.0687	-3.1937	-3.125	-3.3979	-3.1458	-3.0062	-3.3	299.273	446.349	497.881	450.655	434.729	281.478	449.303	276.148	452.222	479.928	425.148	495.249	157.580	492.484	361.015	494.041	0.00053459	0.00035632	0.00010486	1347.3	4.9232e-06	3.5855e-06	1352.3	372.01	3.2448e-06	1.9291e-06	425.33	143.05	124.33	42.039	2.8436e-06	52.401	0.00055324	0.00055815	0.00015385	1368.3	6.0433e-06	6.0754e-06	1373.4	378.96	6.0138e-06	6.0189e-06	433.42	146.36	126.72	43.293	5.9502e-06	53.779	186.644	201.519	299.292	161.784	248.686	257.859	161.690	166.246	243.714	319.135	165.781	169.936	170.625	175.164	265.223	174.460	-8191	255	
32144.123	1	1	0	0	0.20477	0.031937	0.063097	0.3415	0.10774	0.26829	0.21221	0.16312	0.29928	0.081818	0.1257	0.15468	0.35116	0.12402	0.16227	0.15107	-2.4896	-2.9229	-3.1771	-2.9458	-2.9896	-3.0938	-3.0812	-3.4313	-3.0021	-3.0854	-3.525	-3.1021	-3.1667	-3.1292	-2.9646	-3.4021	189.965	457.757	440.808	456.292	315.706	432.383	472.942	486.317	425.605	242.155	192.270	458.640	496.705	356.580	238.270	387.960	0.0005448	0.00034037	0.00011912	1347	2.8873e-06	8.7888e-06	1348.3	373.42	3.5654e-06	9.7538e-07	426.11	142.83	124.01	42.24	5.1733e-06	52.126	0.00055083	0.00055416	0.00015315	1366.9	6.02e-06	6.0607e-06	1371.5	378.97	6.0674e-06	6.0141e-06	433.34	146.19	126.68	43.322	5.9856e-06	53.669	193.795	208.916	207.903	161.767	271.305	344.620	161.618	166.296	285.431	298.929	165.671	169.883	170.364	175.253	307.991	174.251	-8191	255	
32144.217	1	1	0	0	0.12745	0.010705	0.24652	0.032877	0.16634	0.12353	0.2088	0.3629	0.14744	0.25083	0.21904	0.29938	0.062297	0.14455	0.084919	0.053063	-2.4979	-2.8438	-3.1354	-3.1229	-3.1396	-3.2771	-3.1375	-3.4458	-2.9292	-3.2167	-3.3792	-2.9292	-3.1333	-3.1625	-2.9875	-3.2667	177.695	311.344	343.064	390.837	290.527	172.245	416.968	417.587	379.172	306.104	472.908	151.220	347.493	173.933	448.188	227.175	0.00055024	0.00078093	0.00015312	1340.2	4.6395e-06	5.3668e-06	1350.1	372.32	6.3388e-06	3.8155e-06	426.16	143.15	123.88	42.168	3.7524e-06	52.183	0.00055352	0.00055543	0.00015212	1364.4	6.1129e-06	6.0024e-06	1370.4	378.6	6.0565e-06	6.0088e-06	433.54	146.19	126.7	43.351	5.9369e-06	53.763	185.935	211.442	243.156	161.796	262.544	276.676	161.442	166.081	257.719	344.874	165.594	169.710	170.335	175.306	280.695	174.521	-8191	255	
32144.314	1	1	0	0	0.16621	0.11114	0.092214	0.18601	0.17541	0.16092	0.19061	0.061467	0.1638	0.20672	0.12403	0.29141	0.049604	0.11872	0.22745	0.32013	-2.7083	-2.8104	-3.1708	-3.1417	-3.1167	-2.925	-2.9646	-3.2646	-2.975	-2.8896	-3.4104	-2.9771	-3.1813	-3.2729	-2.9479	-3.2875	222.182	376.988	417.490	434.481	335.541	405.334	480.744	184.480	236.613	261.532	505.712	505.527	310.871	443.555	291.773	469.708	0.00049976	0.00025361	0.00016351	1350.6	4.6981e-06	6.4611e-06	1347.8	371.49	4.7564e-06	4.8395e-06	426.9	143.46	124.79	42.217	3.4932e-06	52.151	0.0005535	0.00054994	0.00015113	1366.6	5.9886e-06	6.0155e-06	1370.5	378.39	6.0011e-06	6.0299e-06	433.57	146.17	126.88	43.291	5.9986e-06	53.712	179.221	245.777	237.081	161.796	333.682	282.347	161.550	166.211	295.244	325.533	165.705	169.879	170.335	175.343	271.390	174.463	-8191	255	
32144.434	1	1	0	0	0.25344	0.08657	0.26853	0.05113	0.22977	0.30683	0.074416	0.25837	0.15318	0.051543	0.12898	0.085948	0.16999	0.28133	0.074257	0.2299	-2.6583	-3.0083	-3.3021	-3.0646	-3.1021	-3.2083	-3.0479	-3.4354	-3.1063	-2.9062	-3.2875	-3.0938	-3.0917	-3.3708	-3.1	-3.2292	410.717	206.556	504.651	203.748	425.643	330.021	459.235	430.001	163.549	483.140	482.151	159.621	472.072	462.295	299.040	470.924	0.00060604	0.00050649	0.00015478	1345.2	1.1925e-06	5.425e-06	1347.7	372.63	6.5819e-06	1.2629e-06	426.26	143.3	123.96	42.15	2.7827e-06	51.836	0.00055542	0.00055079	0.00015189	1363.8	5.9894e-06	6.0314e-06	1370.9	379.16	6.0016e-06	6.0194e-06	433.56	146.41	126.62	43.287	6.0005e-06	53.595	198.373	226.311	256.490	161.789	499.384	257.231	161.692	166.285	257.160	382.357	165.698	169.920	170.587	175.270	272.748	174.331	-8191	255	
32144.506	1	1	0	0	0.07139	0.042289	0.25091	0.31452	0.089697	0.16981	0.36451	0.31045	0.16058	0.14803	0.10497	0.10404	0.2193	0.29671	0.087789	0.049457	-2.5854	-2.9229	-3.3625	-3.0938	-2.9354	-3.3479	-3.1354	-3.2146	-3.1896	-2.8729	-3.3896	-3.0979	-3.0958	-3.4292	-3.0062	-3.1708	178.565	486.212	496.038	487.264	157.330	218.201	438.729	409.371	255.736	463.287	483.362	418.691	441.188	480.750	290.073	500.733	0.00053731	0.00026683	0.00018832	1346.4	4.9681e-06	3.2751e-06	1349.4	372.31	3.9488e-06	7.3839e-06	423.76	142.64	124.05	42.336	5.7581e-06	51.978	0.00055281	0.00054949	0.00015379	1364.6	6.0034e-06	6.0271e-06	1371.2	379.06	6.0369e-06	5.9855e-06	432.85	146.11	126.59	43.371	6.0104e-06	53.645	194.716	298.874	247.541	161.847	321.981	320.332	161.564	166.325	255.704	324.343	165.669	169.825	170.437	175.156	318.417	174.234	-8191	255	
32144.602	1	1	0	0	0.21407	0.15332	0.20076	0.33138	0.24316	0.22964	0.032325	0.26265	0.099095	0.037999	0.37883	0.063647	0.27277	0.21688	0.12667	0.087163	-2.7562	-2.7812	-3.2875	-2.9938	-2.8187	-3.2417	-3.3396	-3.1667	-3.1167	-2.775	-3.3	-3.2292	-3.0375	-3.1813	-2.9437	-3.125	314.068	424.617	359.812	406.089	373.453	263.701	172.388	415.948	186.253	323.416	442.367	447.076	463.831	435.531	223.970	186.003	0.00051399	0.00080466	6.4172e-05	1345.4	4.7077e-06	2.974e-06	1353.4	372.42	5.5604e-06	3.3074e-06	423.45	143.1	123.66	42.273	6.2024e-06	52.266	0.00055476	0.00055063	0.00015253	1365.2	6.0311e-06	5.9482e-06	1373.3	379.26	5.9891e-06	6.0186e-06	432.13	146.18	126.74	43.354	6.0634e-06	53.724	193.975	227.599	181.277	161.880	263.554	326.649	161.872	166.233	263.633	324.510	165.673	169.788	170.384	175.123	304.874	174.622	-8191	255	
#DATA ENDS
