BOXY.EXE: ISS Imagent and Oximeter Data Acquisition Program Version 0.80
Ascii Record File

#ACQ INFORMATION
2  Detector Channels 
16  External MUX Channels 
1  Auxiliary Channels 
5000  Waveform (CCF) Frequency (Hz)
1  Waveforms Skipped 
30  Waveforms Averaged 
1  Cycles Averaged 
16  Acquisitions per Waveform 
10.0806  Updata Rate (Hz) 

#FILE INFORMATION
TRUE -- External MUX Channel results are PARSED.
FALSE -- AC DC and Phase are NOT grouped.
TRUE -- Companion Program Settings File CREATED.
FALSE -- AC data not excluded
FALSE -- DC data not excluded
FALSE -- Phase data not excluded
FALSE -- Auxillary Chn. data not excluded
Tab delimiters

#CALIBRATION STATE
TRUE -- Waveform Calibration Values APPLIED.


#AUX CALIBRATION VALUES
Val Type	aux-1	

Term	1.0000e+00	
Factor	0.0000e+00	


#WF CALIBRATION VALUES
A = Detector Channel
Val Type	A-AC1	A-AC2	A-AC3	A-AC4	A-AC5	A-AC6	A-AC7	A-AC8	A-AC9	A-AC10	A-AC11	A-AC12	A-AC13	A-AC14	A-AC15	A-AC16	A-DC1	A-DC2	A-DC3	A-DC4	A-DC5	A-DC6	A-DC7	A-DC8	A-DC9	A-DC10	A-DC11	A-DC12	A-DC13	A-DC14	A-DC15	A-DC16	A-Ph1	A-Ph2	A-Ph3	A-Ph4	A-Ph5	A-Ph6	A-Ph7	A-Ph8	A-Ph9	A-Ph10	A-Ph11	A-Ph12	A-Ph13	A-Ph14	A-Ph15	A-Ph16	

Term	0.00000e+00	0.00000e+00	0.00000e+00	0.00000e+00	0.00000e+00	0.00000e+00	0.00000e+00	0.00000e+00	0.00000e+00	0.00000e+00	0.00000e+00	0.00000e+00	0.00000e+00	0.00000e+00	0.00000e+00	0.00000e+00	0.00000e+00	0.00000e+00	0.00000e+00	0.00000e+00	0.00000e+00	0.00000e+00	0.00000e+00	0.00000e+00	0.00000e+00	0.00000e+00	0.00000e+00	0.00000e+00	0.00000e+00	0.00000e+00	0.00000e+00	0.00000e+00	0.00000e+00	0.00000e+00	0.00000e+00	0.00000e+00	0.00000e+00	0.00000e+00	0.00000e+00	0.00000e+00	0.00000e+00	0.00000e+00	0.00000e+00	0.00000e+00	0.00000e+00	0.00000e+00	0.00000e+00	0.00000e+00	
Factor	1.00000e+00	1.00000e+00	1.00000e+00	1.00000e+00	1.00000e+00	1.00000e+00	1.00000e+00	1.00000e+00	1.00000e+00	1.00000e+00	1.00000e+00	1.00000e+00	1.00000e+00	1.00000e+00	1.00000e+00	1.00000e+00	1.00000e+00	1.00000e+00	1.00000e+00	1.00000e+00	1.00000e+00	1.00000e+00	1.00000e+00	1.00000e+00	1.00000e+00	1.00000e+00	1.00000e+00	1.00000e+00	1.00000e+00	1.00000e+00	1.00000e+00	1.00000e+00	X	X	X	X	X	X	X	X	X	X	X	X	X	X	X	X	

B = Detector Channel
Val Type	B-AC1	B-AC2	B-AC3	B-AC4	B-AC5	B-AC6	B-AC7	B-AC8	B-AC9	B-AC10	B-AC11	B-AC12	B-AC13	B-AC14	B-AC15	B-AC16	B-DC1	B-DC2	B-DC3	B-DC4	B-DC5	B-DC6	B-DC7	B-DC8	B-DC9	B-DC10	B-DC11	B-DC12	B-DC13	B-DC14	B-DC15	B-DC16	B-Ph1	B-Ph2	B-Ph3	B-Ph4	B-Ph5	B-Ph6	B-Ph7	B-Ph8	B-Ph9	B-Ph10	B-Ph11	B-Ph12	B-Ph13	B-Ph14	B-Ph15	B-Ph16	

Term	0.00000e+00	0.00000e+00	0.00000e+00	0.00000e+00	0.00000e+00	0.00000e+00	0.00000e+00	0.00000e+00	0.00000e+00	0.00000e+00	0.00000e+00	0.00000e+00	0.00000e+00	0.00000e+00	0.00000e+00	0.00000e+00	0.00000e+00	0.00000e+00	0.00000e+00	0.00000e+00	0.00000e+00	0.00000e+00	0.00000e+00	0.00000e+00	0.00000e+00	0.00000e+00	0.00000e+00	0.00000e+00	0.00000e+00	0.00000e+00	0.00000e+00	0.00000e+00	-4.91106e+01	-1.29134e+02	-1.27521e+02	-1.82803e+02	-4.69321e+01	-6.59653e+01	-1.55300e+02	-1.62015e+02	-3.08113e+01	-5.60136e+01	-1.72433e+02	-1.69655e+02	-1.79183e+02	-1.77693e+02	-4.59966e+01	-1.49676e+02	
Factor	2.21910e-05	1.68420e-04	4.73740e-05	1.71963e-01	2.02722e-06	1.93536e-06	1.62812e-01	5.14453e-02	1.28848e-06	1.77628e-06	9.95207e-02	3.07250e-02	2.96854e-02	1.01395e-02	1.68739e-06	1.45673e-02	8.04080e-06	1.07497e-05	2.97371e-06	8.54535e-02	1.12668e-07	1.18595e-07	7.62481e-02	2.57182e-02	1.11776e-07	1.19426e-07	4.83138e-02	1.49934e-02	1.50207e-02	5.11324e-03	1.16012e-07	7.12113e-03	X	X	X	X	X	X	X	X	X	X	X	X	X	X	X	X	



#DISTANCE SETTINGS
A = Detector Channel
A-1	A-2	A-3	A-4	A-5	A-6	A-7	A-8	A-9	A-10	A-11	A-12	A-13	A-14	A-15	A-16	

2.5000e+00	3.0000e+00	2.5000e+00	3.0000e+00	2.0000e+00	3.0000e+00	1.5000e+00	3.0000e+00	3.0000e+00	3.0000e+00	3.0000e+00	3.0000e+00	3.0000e+00	3.0000e+00	1.5000e+00	3.0000e+00	

B = Detector Channel
B-1	B-2	B-3	B-4	B-5	B-6	B-7	B-8	B-9	B-10	B-11	B-12	B-13	B-14	B-15	B-16	

1.0000e+01	1.0000e+01	1.0000e+01	1.4400e+00	1.0000e+01	1.0000e+01	1.5100e+00	1.9400e+00	1.0000e+01	1.0000e+01	1.9900e+00	2.4900e+00	2.4100e+00	2.9000e+00	1.0000e+01	2.9800e+00	




#DATA BEGINS
time	group	step	mark	flag	A-AC1	A-AC2	A-AC3	A-AC4	A-AC5	A-AC6	A-AC7	A-AC8	A-AC9	A-AC10	A-AC11	A-AC12	A-AC13	A-AC14	A-AC15	A-AC16	A-DC1	A-DC2	A-DC3	A-DC4	A-DC5	A-DC6	A-DC7	A-DC8	A-DC9	A-DC10	A-DC11	A-DC12	A-DC13	A-DC14	A-DC15	A-DC16	A-Ph1	A-Ph2	A-Ph3	A-Ph4	A-Ph5	A-Ph6	A-Ph7	A-Ph8	A-Ph9	A-Ph10	A-Ph11	A-Ph12	A-Ph13	A-Ph14	A-Ph15	A-Ph16	B-AC1	B-AC2	B-AC3	B-AC4	B-AC5	B-AC6	B-AC7	B-AC8	B-AC9	B-AC10	B-AC11	B-AC12	B-AC13	B-AC14	B-AC15	B-AC16	B-DC1	B-DC2	B-DC3	B-DC4	B-DC5	B-DC6	B-DC7	B-DC8	B-DC9	B-DC10	B-DC11	B-DC12	B-DC13	B-DC14	B-DC15	B-DC16	B-Ph1	B-Ph2	B-Ph3	B-Ph4	B-Ph5	B-Ph6	B-Ph7	B-Ph8	B-Ph9	B-Ph10	B-Ph11	B-Ph12	B-Ph13	B-Ph14	B-Ph15	B-Ph16	aux-1	digaux	

41185.664	1	1	0	256	0.10549	0.062396	0.044957	0.037759	0.1026	0.15808	0.070148	0.18438	0.14555	0.1156	0.22796	0.12568	0.42487	0.15712	0.054565	0.26368	-2.6708	-2.625	-2.8312	-3.1229	-2.5875	-3.0896	-2.8438	-2.7833	-3.1083	-2.825	-2.8063	-2.9354	-2.7667	-3.0438	-2.9417	-2.7854	426.194	448.341	311.563	385.968	346.558	371.378	265.605	504.685	471.637	293.690	354.599	403.871	477.230	391.232	366.328	425.098	0.00023331	9.0437e-05	3.8137e-05	800.42	5.6994e-06	3.8403e-06	832.32	159.41	2.6907e-06	1.9506e-06	198.98	56.328	44.017	12.558	2.7592e-06	18.105	0.00078081	0.00095106	0.00026924	824.09	1.0554e-05	1.0644e-05	858.5	165.43	1.0366e-05	1.0642e-05	208.11	59.625	46.657	13.526	1.0674e-05	19.504	270.143	194.816	254.921	160.027	310.989	285.608	160.171	167.584	364.934	317.339	167.139	173.919	174.993	181.546	352.742	180.931	-8191	255	
41185.785	1	1	0	0	0.31776	0.082646	0.21538	0.050671	0.22762	0.33443	0.20481	0.14848	0.13429	0.15537	0.2318	0.27737	0.035301	0.16589	0.025024	0.24368	-2.5729	-2.8396	-2.8063	-2.9979	-2.3979	-2.8833	-2.8896	-2.5396	-2.9542	-2.7917	-2.7167	-3.0521	-2.7708	-3.15	-2.9104	-2.7938	352.453	458.397	418.292	394.140	281.889	409.599	369.048	495.903	437.448	208.535	223.442	394.133	491.425	365.697	203.293	178.448	0.00019526	0.0001452	4.044e-05	805.98	3.4973e-07	4.9961e-06	840.32	159.53	3.7342e-06	3.8047e-06	200.26	57.034	44.012	12.633	2.8723e-06	18.058	0.00082475	0.0010149	0.00028305	828.47	1.0915e-05	1.1192e-05	862.39	166.09	1.0849e-05	1.1256e-05	208.81	59.934	46.829	13.575	1.0869e-05	19.471	267.156	250.707	243.658	159.894	223.367	248.363	160.142	167.885	345.093	362.192	167.396	174.033	174.512	181.514	324.340	180.603	-8191	255	
41185.879	1	1	0	0	0.2824	0.059419	0.29321	0.11332	0.177	0.15884	0.28971	0.20234	0.10893	0.086523	0.13648	0.1722	0.25108	0.065534	0.048601	0.18574	-2.6292	-2.7521	-2.6833	-3.0771	-2.6271	-2.8312	-2.8396	-2.7521	-2.925	-2.8042	-2.7646	-2.85	-2.5479	-2.9562	-2.7917	-2.5458	223.541	448.967	302.641	152.569	256.213	197.504	449.130	361.497	234.555	188.726	406.546	473.853	217.783	284.969	294.454	479.775	0.00024676	0.00028176	9.1574e-05	806.06	4.7752e-06	5.7795e-07	841.29	160.12	2.2558e-06	2.3948e-06	199.97	57.13	44.374	12.586	2.5411e-06	17.995	0.00082336	0.0010107	0.00028213	830.46	1.0686e-05	1.1019e-05	864.16	166.64	1.0481e-05	1.1148e-05	209.21	59.85	46.879	13.524	1.0729e-05	19.444	269.178	208.122	287.079	160.191	376.676	197.734	160.214	167.630	368.307	319.773	167.089	173.966	174.235	181.557	293.129	180.766	-8191	255	
41185.977	1	1	0	0	0.091889	0.10551	0.067055	0.19983	0.053933	0.11343	0.21976	0.096475	0.23099	0.20783	0.30675	0.079593	0.15696	0.12593	0.080844	0.093596	-2.45	-2.6875	-2.625	-2.9917	-2.7417	-2.8167	-3.1167	-2.775	-3.0292	-2.9354	-2.7271	-3.0667	-2.8542	-2.8937	-2.8833	-2.875	467.989	168.176	441.699	477.496	496.653	292.657	408.885	164.832	213.398	477.398	202.616	478.970	479.828	436.809	226.339	189.058	0.00021511	0.00052496	9.1755e-05	809.66	2.2579e-06	6.6736e-07	841.01	160.22	2.1778e-06	3.6226e-06	197.84	57.008	44.073	12.544	1.4912e-06	18.135	0.00080468	0.0010044	0.00027706	832.17	1.066e-05	1.1093e-05	865.16	166.41	1.0681e-05	1.1177e-05	208.7	60.027	46.896	13.556	1.1138e-05	19.521	275.768	221.585	498.762	160.034	303.022	229.587	160.056	167.722	290.068	411.258	166.921	174.361	174.517	181.618	275.324	180.831	-8191	255	
41186.070	1	1	0	0	0.098944	0.11672	0.22881	0.22296	0.16154	0.18699	0.29064	0.16155	0.15925	0.033322	0.16111	0.2101	0.032374	0.24955	0.097732	0.15453	-2.5062	-2.9292	-2.6958	-3.0771	-2.7812	-2.8896	-3.3333	-2.6042	-3.0125	-2.9604	-2.6562	-3.0667	-2.9188	-2.9104	-3.0104	-2.7542	470.684	272.370	418.033	455.738	453.392	430.653	416.524	502.975	376.472	173.048	248.075	393.895	177.304	466.804	223.106	452.513	0.0001993	0.00043176	2.4561e-05	809.98	3.7587e-06	6.4964e-06	841.64	160.47	3.3928e-06	5.0495e-06	197.98	56.431	44.187	12.556	4.6248e-06	18.09	0.00081338	0.0010355	0.00028934	832.99	1.0688e-05	1.1347e-05	866.42	166.64	1.0708e-05	1.1695e-05	209.2	59.915	47.014	13.556	1.1788e-05	19.578	273.556	278.162	257.572	159.901	295.128	275.264	160.326	167.876	352.664	307.395	167.075	174.344	174.153	181.425	364.468	180.805	-8191	255	
41186.191	1	1	0	0	0.22437	0.2325	0.17262	0.2547	0.25185	0.14284	0.14168	0.19763	0.25169	0.035728	0.35279	0.21427	0.37508	0.13584	0.073897	0.087658	-2.5521	-2.8812	-2.6	-2.9333	-2.725	-2.8646	-3.2333	-2.7354	-2.775	-3.0458	-2.6375	-3.0625	-2.8375	-2.7208	-3.1208	-2.7	509.325	364.148	431.171	188.809	481.562	206.569	390.429	456.407	174.497	291.747	407.412	468.992	460.573	304.146	244.966	290.804	0.00020595	0.0004629	4.8465e-05	807.96	3.4381e-06	1.5399e-06	847.1	160.77	3.5426e-06	1.0205e-06	200.69	56.969	44.636	12.646	1.763e-06	18.043	0.00084145	0.0010771	0.00030236	834.68	1.1725e-05	1.2323e-05	870.92	167.78	1.1836e-05	1.2665e-05	210.23	60.325	47.348	13.679	1.2929e-05	19.671	276.612	161.623	423.676	159.863	333.813	318.168	160.157	167.775	327.161	302.867	167.212	174.049	174.120	181.822	407.756	180.853	-8191	255	
41186.289	1	1	0	0	0.23238	0.21575	0.18047	0.12431	0.21299	0.083547	0.10538	0.15175	0.061402	0.072647	0.24045	0.15198	0.29154	0.12358	0.10849	0.13529	-2.2083	-2.7958	-2.7542	-3.1875	-2.9688	-2.8	-3.0875	-2.7	-2.5563	-3.0312	-2.6688	-2.9854	-2.9479	-2.7667	-3.0375	-2.9354	321.220	395.577	448.557	376.578	455.765	462.022	403.655	282.565	414.939	427.941	314.720	374.136	404.113	220.000	278.537	375.334	0.00025155	0.00030201	4.8224e-05	819.09	4.8813e-06	4.2347e-06	852.45	162.09	2.8957e-06	1.6673e-06	199.52	57.063	44.755	12.687	4.0911e-06	18.119	0.00095957	0.0012449	0.00034729	842.53	1.3229e-05	1.3941e-05	877.97	169.3	1.3099e-05	1.3884e-05	210.4	60.431	47.522	13.709	1.2849e-05	19.639	278.757	216.982	271.814	160.012	259.256	288.832	160.272	167.558	361.343	289.067	167.324	174.171	174.289	181.337	323.159	181.141	-8191	255	
41186.359	1	1	0	0	0.013172	0.20855	0.16861	0.13161	0.13661	0.3673	0.2974	0.12664	0.30127	0.090177	0.12468	0.21392	0.095717	0.10336	0.025619	0.16957	-2.3271	-3.0604	-2.7229	-2.9625	-2.9062	-2.7812	-2.9333	-2.825	-2.7062	-3.0792	-2.7938	-2.825	-2.9833	-2.6417	-2.8771	-2.7875	373.736	323.333	438.985	415.695	407.829	189.116	449.263	404.179	322.245	191.379	161.927	479.837	157.067	178.691	409.959	225.020	0.00023715	0.00047512	0.00015121	814.49	6.2811e-06	3.2754e-06	847.69	161.4	2.9981e-06	3.6329e-06	200.9	56.933	44.587	12.454	2.2187e-06	18.128	0.00094813	0.0011673	0.00031941	841.11	1.2124e-05	1.2679e-05	875.07	168.22	1.1815e-05	1.2187e-05	209.97	60.123	47.283	13.586	1.151e-05	19.594	275.136	159.037	259.734	160.154	365.886	294.640	160.370	167.801	290.388	351.145	167.019	174.171	174.451	181.728	272.501	180.992	-8191	255	
41186.457	1	1	0	0	0.18327	0.15088	0.14768	0.18779	0.10405	0.22007	0.16189	0.054277	0.19686	0.048404	0.17984	0.18245	0.19742	0.30807	0.2287	0.069344	-2.2729	-3.2062	-2.8583	-3.0271	-2.9208	-2.6167	-3.1271	-2.9333	-2.7042	-3.0521	-2.7479	-2.7562	-3.0812	-2.6917	-2.975	-2.9688	193.423	485.492	231.362	432.562	347.070	357.041	506.326	401.500	430.186	305.965	402.456	173.590	492.110	413.649	281.700	474.576	0.00022106	0.00073532	0.00013552	818.26	3.4311e-06	4.5696e-06	851.25	161.31	9.2987e-07	1.3492e-06	207.33	65.114	52.21	14.755	4.2814e-06	21.037	0.00087499	0.0010932	0.00030337	840.3	1.1599e-05	1.2163e-05	875.24	167.93	1.1672e-05	1.2337e-05	209.6	67.651	54.498	15.719	1.3955e-05	22.521	269.928	235.790	277.149	160.077	310.262	328.358	160.359	167.985	184.353	267.385	155.009	170.969	172.907	180.573	361.611	179.360	-8191	255	
41186.578	1	1	0	0	0.076247	0.08234	0.20053	0.13115	0.093229	0.15048	0.32773	0.18951	0.1116	0.26683	0.15428	0.27877	0.1408	0.12847	0.24454	0.063143	-2.0792	-2.8187	-2.6625	-3.0083	-2.9021	-2.5458	-3.0104	-2.9354	-2.6229	-2.8292	-2.7438	-2.8458	-2.9708	-2.6896	-2.9479	-3.1708	375.281	365.719	232.911	503.745	312.450	260.948	420.620	487.922	178.611	451.404	375.613	455.575	433.361	489.020	442.146	298.528	0.0002697	0.00050703	6.2157e-05	962.19	3.0821e-06	1.9944e-06	999.33	189.34	2.9462e-06	3.4163e-06	233.49	66.178	52.153	14.607	4.0559e-06	21.204	0.0010483	0.001302	0.00035771	970.64	1.3923e-05	1.4562e-05	1009.6	193.84	1.4505e-05	1.4959e-05	240.72	69.175	54.632	15.665	1.4787e-05	22.543	272.546	235.696	376.249	158.784	319.999	321.727	158.954	166.328	297.694	200.159	166.358	173.262	173.115	180.078	333.889	179.998	-8191	255	
41186.672	1	1	0	0	0.28803	0.12381	0.19159	0.25839	0.085432	0.10169	0.31087	0.18145	0.13558	0.086938	0.4184	0.080488	0.086217	0.094882	0.095181	0.16458	-2.4292	-2.975	-2.7208	-2.9125	-3.0583	-2.7417	-3.1708	-2.9333	-2.7396	-3.0167	-2.9667	-2.7625	-3.0521	-2.7646	-2.7958	-3.0104	463.857	225.071	304.407	154.206	297.078	474.606	434.863	416.556	415.281	155.199	384.565	243.434	414.231	369.556	179.684	440.625	0.00025261	0.00013612	7.6471e-05	958.55	2.4943e-06	3.6198e-06	999.54	184.67	2.4453e-06	2.5941e-06	270.85	77.525	61.166	17.21	3.8676e-06	24.633	0.0011097	0.0013644	0.00037646	972.88	1.4797e-05	1.5159e-05	1010.8	187.49	1.5733e-05	1.7671e-05	275.57	79.21	62.868	18.075	1.7629e-05	25.963	264.969	242.013	263.832	158.871	228.063	232.411	158.694	160.327	437.398	356.851	164.394	171.566	171.684	178.873	294.314	178.012	-8191	255	
41186.770	1	1	0	0	0.055056	0.33346	0.24737	0.31986	0.19035	0.088755	0.33229	0.30236	0.090467	0.15997	0.34779	0.12665	0.138	0.14658	0.028143	0.18417	-2.0875	-2.9333	-2.7146	-2.9375	-3.0729	-2.8083	-2.9625	-3.0312	-2.7604	-3.15	-3.0563	-2.5958	-3.0729	-2.975	-2.9146	-3.1208	306.428	338.295	264.748	361.230	492.136	389.764	442.122	156.048	453.455	225.489	506.128	300.635	374.282	419.253	234.843	438.221	0.00029493	0.00031185	0.00017066	1118.9	3.3623e-06	7.697e-06	1160.5	221.72	1.3113e-06	4.0992e-06	273.15	77.654	61.193	17.256	1.2992e-06	24.876	0.0013256	0.0016404	0.00046198	1118.1	1.8057e-05	1.8449e-05	1160.1	223.45	1.7983e-05	1.9007e-05	277.77	79.808	63.129	18.12	1.8769e-05	26.11	272.499	191.122	256.237	157.512	323.479	310.166	157.678	164.951	322.730	219.588	164.638	171.704	171.595	179.325	399.729	178.633	-8191	255	
41186.867	1	1	0	0	0.25525	0.10714	0.15107	0.14595	0.3	0.050034	0.15874	0.21311	0.10518	0.17618	0.14977	0.20119	0.23847	0.24683	0.056006	0.059905	-2.4271	-2.7271	-2.9437	-2.9104	-2.9938	-2.9479	-2.9167	-3.1375	-2.8396	-3.0458	-3.0333	-2.5396	-3.0792	-2.7854	-2.7229	-3.0687	184.411	461.345	376.533	467.414	161.665	175.038	157.355	490.500	487.542	413.811	455.107	433.532	332.176	191.230	456.722	210.166	0.00034176	0.00060509	0.00017058	1128.1	7.6232e-06	6.377e-06	1170.4	223.77	2.7672e-06	5.155e-07	274.24	77.74	61.894	17.311	4.5384e-06	24.835	0.0013936	0.0017595	0.0004893	1123.4	1.8668e-05	1.9021e-05	1164.1	224.13	1.8125e-05	1.8831e-05	279.38	79.792	63.486	18.159	1.8885e-05	26.095	270.326	273.111	149.305	157.313	328.122	363.078	157.578	164.888	172.370	486.396	164.439	171.762	171.391	178.692	289.535	178.381	-8191	255	
41186.961	1	1	0	0	0.16031	0.091441	0.097158	0.050885	0.027502	0.022763	0.25168	0.044727	0.14686	0.1243	0.13241	0.10041	0.11328	0.1053	0.15454	0.21277	-2.2375	-2.875	-3.0292	-2.8104	-3.125	-2.8271	-3.0312	-3.2396	-3.0438	-2.9729	-3.1146	-2.6625	-3.1354	-2.8604	-2.7604	-2.9813	454.983	337.180	364.240	441.331	435.836	368.341	459.219	165.663	244.526	494.221	336.317	180.678	161.792	295.307	278.466	497.022	0.00027147	0.00012825	0.00018852	1128.3	4.4875e-06	6.4197e-06	1174	222.52	2.3041e-06	1.2951e-06	273.24	77.593	61.332	17.257	2.7644e-06	25.184	0.0013567	0.0017323	0.00048151	1122.5	1.8412e-05	1.9182e-05	1166.9	224.49	1.8483e-05	1.9469e-05	279.06	80.133	63.362	18.256	1.9441e-05	26.315	273.066	503.819	267.197	157.435	316.893	314.884	157.595	165.165	368.199	480.292	164.669	171.651	171.804	178.467	227.908	178.130	-8191	255	
41187.055	1	1	0	0	0.048029	0.20839	0.15658	0.25085	0.19732	0.085985	0.29359	0.21993	0.19887	0.043606	0.24733	0.24581	0.10744	0.060708	0.13132	0.14276	-2.2042	-2.9104	-2.925	-2.6625	-3.0229	-2.8187	-2.9833	-3.1417	-2.85	-3.0021	-2.9958	-2.7271	-2.8937	-3.0104	-2.6729	-3.0917	371.602	436.488	420.128	403.796	389.917	447.085	487.662	459.479	333.408	283.167	418.171	309.724	351.010	439.092	374.578	498.231	0.00034858	0.00044977	5.3033e-05	1126.4	2.8195e-06	3.63e-06	1171.8	223.38	3.488e-06	1.9183e-06	275.58	78.453	61.856	17.232	3.8206e-06	24.828	0.0014061	0.0017921	0.00050271	1125.8	1.8684e-05	1.9524e-05	1167.9	225.55	1.8188e-05	1.9353e-05	280.91	80.452	63.676	18.283	1.8943e-05	26.228	283.589	219.681	201.170	157.461	351.237	321.935	157.565	165.178	352.180	379.008	164.633	171.778	171.583	178.685	300.715	178.273	-8191	255	
41187.176	1	1	0	0	0.26339	0.12218	0.26761	0.1359	0.15972	0.14073	0.29873	0.31232	0.057098	0.14844	0.17754	0.081515	0.28063	0.14109	0.36737	0.058103	-2.4021	-2.7917	-3.0979	-2.6875	-2.9854	-2.9604	-2.9125	-3.1354	-2.8208	-2.6917	-3.1271	-2.7729	-2.8979	-2.975	-2.7271	-2.9354	237.518	371.454	487.159	423.294	235.773	464.845	481.940	208.121	328.226	282.803	465.814	251.676	200.274	411.572	334.783	289.743	0.00037231	0.00087156	0.00016746	1126.5	8.2428e-06	7.5073e-06	1174.9	224	6.758e-06	9.9463e-06	274.84	78.369	61.928	17.498	3.6503e-06	24.967	0.0013527	0.0017305	0.00048081	1125.7	1.7965e-05	1.9188e-05	1170.1	225.93	1.8246e-05	1.9581e-05	281.94	80.265	63.701	18.371	1.9231e-05	26.431	268.296	181.208	289.405	157.469	208.733	273.152	157.473	165.115	360.690	328.330	164.380	171.292	171.943	179.035	242.633	178.242	-8191	255	
41187.273	1	1	0	0	0.30008	0.12682	0.012504	0.37286	0.045109	0.066391	0.23436	0.16549	0.15944	0.19057	0.17149	0.26076	0.039039	0.073892	0.16991	0.14842	-2.3521	-2.5354	-3.225	-2.8479	-2.7958	-3.0438	-2.8146	-3.1312	-2.7583	-2.6271	-3.1312	-2.7875	-2.8292	-2.9771	-2.7646	-3.025	265.862	436.884	275.136	444.523	279.308	224.737	451.427	410.918	183.631	354.334	425.070	209.264	209.817	377.856	467.917	387.439	0.00032963	0.00038673	0.0001598	1133.4	4.4655e-06	6.8461e-06	1181.9	224.85	1.288e-06	6.0713e-06	277.91	78.3	62.007	17.446	1.9404e-06	24.964	0.0014015	0.0018105	0.00050652	1130.6	1.8805e-05	1.9667e-05	1175.9	226.96	1.8239e-05	1.9739e-05	283.16	80.627	63.891	18.399	1.913e-05	26.367	277.275	282.046	308.433	157.212	268.368	281.989	157.507	164.672	250.033	304.128	164.456	171.516	171.753	178.515	254.912	177.952	-8191	255	
41187.367	1	1	0	0	0.13625	0.067377	0.13246	0.27419	0.1482	0.041224	0.43112	0.060618	0.15449	0.23166	0.099094	0.10618	0.099566	0.24643	0.078433	0.10604	-2.5396	-2.6688	-2.9479	-2.8667	-2.75	-3.1521	-2.8958	-3.0125	-3.0104	-2.7042	-3.0583	-3	-2.9292	-3.0563	-2.7562	-2.8479	162.353	227.914	356.865	473.136	298.052	387.042	439.262	182.237	207.808	268.854	255.842	451.255	496.007	391.683	407.870	476.197	0.00028955	0.0006742	5.393e-05	1140.4	1.5862e-06	2.0753e-06	1181.8	225.7	2.114e-06	5.6965e-06	278.37	78.472	62.157	17.558	7.0534e-06	25.051	0.0013965	0.0017664	0.00048834	1137.4	1.8393e-05	1.9232e-05	1178.4	227	1.8291e-05	1.9325e-05	283.85	80.555	64.079	18.441	1.8488e-05	26.36	284.897	218.847	273.423	157.419	264.543	179.608	157.656	164.902	289.451	308.352	164.747	171.466	171.627	178.857	310.205	178.474	-8191	255	
41187.465	1	1	0	0	0.12237	0.0507	0.11187	0.082937	0.15194	0.18075	0.11849	0.048582	0.18109	0.056068	0.14179	0.22022	0.12615	0.26731	0.3164	0.28483	-2.4583	-2.6104	-2.9979	-2.9604	-2.95	-3.2708	-2.9396	-2.9437	-3.0125	-2.8896	-3.0479	-3.0708	-2.725	-3.3458	-2.7625	-2.9417	232.378	433.794	295.468	329.068	443.055	253.072	454.345	308.067	153.211	154.118	437.667	157.043	321.933	234.746	365.593	479.104	0.00038395	0.00054665	0.00016886	1142.5	7.5784e-06	7.8754e-06	1188.1	224.89	5.0343e-06	5.1653e-06	277.93	78.422	61.94	17.559	7.4633e-06	25.116	0.0013649	0.0017531	0.0004783	1137.1	1.8686e-05	1.9206e-05	1182.5	226.83	1.8323e-05	1.9428e-05	283.68	80.856	64.102	18.424	1.9063e-05	26.463	275.231	226.288	243.788	157.482	276.270	337.524	157.764	165.153	336.344	330.140	164.475	171.350	171.882	178.729	306.912	177.902	-8191	255	
41187.586	1	1	0	0	0.10883	0.1328	0.23522	0.1347	0.36913	0.31849	0.2147	0.12997	0.093895	0.18886	0.31349	0.095895	0.16183	0.28419	0.12506	0.24107	-2.5792	-2.7104	-3.0354	-2.9938	-2.7313	-3.0104	-2.8646	-3.0208	-3.0708	-2.6583	-2.8521	-3.075	-2.8063	-2.8979	-2.8333	-2.8667	322.880	214.185	273.630	174.980	319.380	169.997	442.851	489.269	472.880	458.351	413.437	470.402	450.275	187.596	421.871	181.805	0.00032843	0.0005456	0.00014199	1144	7.5095e-06	3.8779e-06	1189.5	226.28	3.4646e-06	7.3273e-06	276.93	78.85	62.578	17.576	4.4092e-06	25.044	0.0014217	0.0018185	0.00049821	1139.7	1.9355e-05	2.0128e-05	1183.4	227.88	1.9389e-05	2.0395e-05	283.41	81.029	64.342	18.478	1.9085e-05	26.453	273.120	230.193	172.717	157.147	321.245	277.481	157.443	164.906	285.918	311.338	164.818	171.380	171.501	178.910	398.408	177.761	-8191	255	
41187.656	1	1	0	0	0.1764	0.099748	0.20936	0.039036	0.03488	0.15089	0.10402	0.12634	0.17286	0.19224	0.15064	0.151	0.04844	0.081349	0.062755	0.18644	-2.5396	-2.6396	-2.8063	-3.15	-2.8542	-3.1125	-2.9854	-2.8688	-3.1813	-2.8438	-3.0812	-2.9292	-2.7938	-2.9625	-2.9542	-2.7708	499.500	303.265	346.331	476.640	233.355	336.525	362.909	225.944	162.438	250.604	438.965	445.791	187.136	338.514	416.447	162.316	0.00027316	0.00031962	0.0001132	1147.1	5.5569e-06	1.5769e-06	1192.1	226.07	4.2706e-06	1.2455e-06	278.89	79.018	62.632	17.497	4.9063e-06	25.242	0.0014287	0.0018055	0.00048408	1143.6	1.8927e-05	1.9851e-05	1186.1	227.62	1.8852e-05	1.9598e-05	284.24	81.163	64.317	18.44	1.8745e-05	26.515	276.697	242.831	190.849	157.189	364.888	307.475	157.624	164.946	364.441	217.077	164.717	171.206	171.540	179.112	327.667	178.040	-8191	255	
41187.754	1	1	0	0	0.05981	0.075997	0.28662	0.08145	0.11952	0.054632	0.2195	0.29569	0.23385	0.2911	0.19163	0.21359	0.17287	0.14641	0.097245	0.19029	-2.5687	-2.6646	-2.7833	-3.2104	-2.7208	-3.0104	-3.1063	-2.9271	-3.1188	-2.9771	-2.9542	-3.0417	-2.5167	-3.1375	-2.7438	-2.8521	386.433	225.213	149.339	176.715	312.310	186.239	377.437	484.381	165.933	280.038	451.760	451.727	363.216	297.722	158.759	271.700	0.00029663	0.00027543	4.4301e-05	1145	7.0893e-06	5.3666e-06	1189.5	225.57	1.9513e-06	2.5147e-06	280.4	78.87	62.633	17.538	3.4855e-06	25.042	0.0014017	0.0017561	0.00048029	1142.4	1.869e-05	1.9105e-05	1186.5	227.68	1.8246e-05	1.9047e-05	284.71	80.947	64.377	18.461	1.8146e-05	26.366	272.082	318.119	345.113	157.265	226.367	294.653	157.443	165.016	456.643	256.139	164.791	171.574	171.635	178.833	222.341	178.152	-8191	255	
41187.848	1	1	0	0	0.25949	0.26325	0.033457	0.22297	0.18408	0.05613	0.15869	0.17777	0.20629	0.12206	0.1543	0.18514	0.22893	0.31042	0.19049	0.1005	-2.7604	-2.7854	-2.95	-3.1271	-2.7354	-2.9458	-3.0854	-2.8958	-3.0667	-2.7	-2.8583	-3.2083	-2.7646	-3.0333	-2.8604	-2.8688	279.105	150.871	476.771	458.634	270.891	325.809	182.004	503.575	434.869	441.520	407.123	447.047	198.341	478.583	463.975	358.911	0.00031313	0.00042989	9.1968e-05	1150.7	9.5707e-07	4.2226e-06	1202.1	226.49	5.0454e-06	4.424e-06	279.42	79.351	62.529	17.655	2.0553e-06	25.416	0.0013474	0.0016531	0.00046595	1145.4	1.7911e-05	1.8474e-05	1188.2	227.7	1.8065e-05	1.847e-05	284.66	81.142	64.363	18.488	1.8547e-05	26.525	282.973	277.303	218.593	157.302	203.521	320.466	157.521	164.671	285.789	352.417	164.395	171.679	171.882	178.404	382.118	178.414	-8191	255	
41187.969	1	1	0	0	0.16819	0.28949	0.14824	0.28075	0.10011	0.22061	0.36374	0.086761	0.38244	0.13454	0.19225	0.20193	0.24745	0.26338	0.080776	0.23984	-2.5938	-2.9625	-2.8563	-3.0229	-2.6833	-2.9396	-3.1	-2.8854	-3.0042	-2.9646	-2.9292	-3.2104	-2.7542	-3.0104	-3.1125	-2.8312	185.788	158.406	390.598	488.680	309.606	199.357	415.333	314.346	488.649	185.181	435.654	206.184	420.857	291.545	171.236	446.257	0.00033105	0.00069833	6.6563e-05	1148.9	5.2158e-06	6.3834e-06	1193.5	226.45	4.9975e-06	3.7204e-06	280.41	79.34	62.355	17.637	1.7085e-06	25.161	0.0013336	0.0016806	0.0004679	1145.5	1.7687e-05	1.8443e-05	1188.5	227.85	1.7608e-05	1.8583e-05	285.77	81.082	64.33	18.521	1.8836e-05	26.556	279.454	170.429	278.700	157.167	243.007	322.437	157.672	164.882	315.370	333.116	164.647	171.528	171.676	179.114	361.099	177.892	-8191	255	
41188.066	1	1	0	0	0.15516	0.23638	0.035403	0.18328	0.30043	0.14952	0.31295	0.41541	0.066054	0.10254	0.12101	0.16897	0.18303	0.25055	0.14278	0.097614	-2.5833	-2.8792	-2.775	-3.1021	-2.7729	-3.0208	-3.1896	-2.7313	-3.0354	-2.9833	-2.7646	-3.1	-2.8229	-2.8792	-2.9854	-2.6542	460.637	316.965	362.185	157.781	399.793	247.558	451.629	429.334	477.353	204.621	459.156	503.645	275.912	359.131	238.709	248.349	0.00032889	0.00070262	0.00016789	1149.9	2.2238e-06	6.7649e-07	1193.1	226.7	5.3223e-06	7.7076e-07	280.63	78.972	62.348	17.612	6.6873e-06	24.977	0.0013534	0.0017202	0.00048398	1145.5	1.8031e-05	1.8572e-05	1190.9	228.01	1.7648e-05	1.8864e-05	285.17	80.952	64.382	18.461	1.8956e-05	26.528	278.664	248.344	177.387	157.281	242.683	262.560	157.527	164.719	275.712	209.362	164.741	171.514	171.488	179.027	322.509	178.018	-8191	255	
41188.160	1	1	0	0	0.10146	0.11929	0.26373	0.13061	0.12079	0.17348	0.086798	0.30974	0.21884	0.11373	0.17484	0.27956	0.16819	0.1344	0.097118	0.21911	-2.5792	-2.7542	-2.6	-3.0312	-2.9729	-2.9583	-3.3271	-2.8771	-2.9479	-3.0646	-2.8083	-3.0333	-2.9792	-2.7562	-3.1271	-2.8625	287.220	381.819	347.392	413.888	351.075	222.014	426.158	477.487	286.580	173.625	318.624	483.507	189.191	412.862	315.567	374.022	0.00031259	0.00024888	7.7054e-05	1152.9	4.4598e-06	8.236e-06	1197.3	227.52	3.0398e-06	2.2471e-06	279.36	79.397	62.303	17.616	8.6015e-07	25.158	0.0013355	0.0017295	0.00048259	1146.5	1.7807e-05	1.8903e-05	1193.2	228.5	1.7639e-05	1.8921e-05	284.58	81.201	64.32	18.483	1.8724e-05	26.496	270.837	171.301	237.565	157.318	313.922	303.837	157.551	164.821	325.059	399.092	164.250	171.499	171.484	179.126	354.712	178.123	-8191	255	
41188.258	1	1	0	0	0.22639	0.054857	0.26423	0.21824	0.14107	0.38003	0.29721	0.15369	0.22141	0.076441	0.04103	0.27104	0.044515	0.18302	0.29192	0.088357	-2.4667	-3.0333	-2.6854	-3.0625	-2.9458	-2.7438	-3.0625	-2.9854	-3.0208	-3.0479	-2.8854	-2.9792	-3.0021	-2.8729	-3.1354	-2.8792	413.807	462.100	305.878	437.712	192.425	310.367	374.230	497.145	441.043	351.530	183.140	453.720	218.003	475.793	264.287	330.576	0.00027679	0.00020886	1.3625e-05	1152	7.4042e-06	2.0511e-06	1200.9	226.86	3.069e-06	4.8352e-06	280.07	78.996	62.083	17.52	1.5553e-06	25.232	0.0013389	0.0017183	0.00048286	1148	1.8082e-05	1.9037e-05	1194.4	228.24	1.7429e-05	1.8643e-05	285.01	80.953	64.31	18.411	1.8522e-05	26.398	283.981	292.775	281.077	157.324	293.844	247.969	157.527	165.089	314.982	304.360	164.255	171.468	171.894	178.360	286.795	178.267	-8191	255	
41188.352	1	1	0	0	0.24085	0.092436	0.089298	0.30014	0.27012	0.24975	0.13388	0.14526	0.21965	0.099655	0.186	0.25979	0.24728	0.02796	0.21347	0.057741	-2.5542	-2.9917	-2.7104	-3.1063	-2.8063	-2.7604	-3.1979	-2.9729	-2.9625	-3.0083	-2.7479	-2.8438	-3.0187	-2.6312	-2.9146	-2.8979	242.315	501.395	361.522	411.958	303.907	460.954	154.973	173.239	435.317	310.859	413.823	260.805	215.134	403.413	195.868	363.218	0.00033709	0.00031126	8.513e-05	1151.1	5.4574e-06	2.1524e-06	1205.3	226.9	4.1697e-06	4.5687e-06	278.89	78.898	62.259	17.546	3.1266e-06	25.143	0.001318	0.0016846	0.00046885	1148	1.7629e-05	1.8333e-05	1194.1	227.98	1.7537e-05	1.8429e-05	284.35	80.98	64.296	18.43	1.7768e-05	26.393	258.733	268.119	239.094	157.349	297.163	504.292	157.653	164.854	292.864	356.696	164.555	171.520	171.223	178.933	250.516	178.234	-8191	255	
41188.449	1	1	0	0	0.18572	0.14809	0.21195	0.05665	0.15184	0.2075	0.32217	0.11314	0.071865	0.16868	0.21608	0.22149	0.17714	0.25085	0.11768	0.12005	-2.2958	-2.9104	-2.75	-2.8833	-2.8875	-2.6917	-3.2979	-2.95	-2.6937	-3.2146	-2.9146	-3.0479	-3.0771	-2.8625	-3.1292	-3.0187	416.049	484.073	365.640	343.636	266.569	487.032	377.682	155.908	465.427	223.698	399.202	205.975	435.629	199.519	454.362	458.401	0.00026713	0.0003186	0.00018245	1151.7	2.8343e-06	6.2453e-06	1202.1	225.95	1.981e-06	3.1186e-06	281.8	78.901	62.707	17.693	7.4888e-07	25.22	0.0013117	0.0016525	0.0004551	1147.7	1.7547e-05	1.8336e-05	1193	227.7	1.7567e-05	1.8425e-05	284.93	80.919	64.358	18.507	1.7897e-05	26.403	270.296	190.885	221.117	157.447	294.947	322.809	157.494	164.854	300.281	267.143	164.436	171.508	171.562	178.517	319.508	177.827	-8191	255	
41188.547	1	1	0	0	0.2821	0.38522	0.047447	0.31713	0.36385	0.30404	0.30275	0.45024	0.095171	0.090393	0.19059	0.21416	0.16034	0.057547	0.14281	0.19962	-2.3083	-2.9771	-2.7146	-3.0208	-2.925	-2.6729	-3.2062	-2.9625	-2.7771	-2.9917	-2.7208	-2.7271	-3.1083	-2.6042	-3.0563	-3.0354	352.214	259.870	282.836	449.762	205.744	253.520	428.148	496.419	362.338	149.798	355.103	395.778	183.710	480.517	222.943	470.453	0.00030697	0.00041261	0.0001392	1153.6	7.2968e-06	2.5262e-06	1201	226.76	3.8523e-06	4.7086e-06	280.62	78.918	62.289	17.619	3.9638e-06	25.07	0.0013092	0.0016732	0.00045306	1147.5	1.7344e-05	1.824e-05	1194.5	227.74	1.7265e-05	1.8071e-05	284.68	80.978	64.044	18.448	1.7592e-05	26.324	263.679	262.123	207.222	157.528	292.354	333.323	157.481	164.874	339.627	235.272	164.763	171.548	171.845	178.959	277.182	177.637	-8191	255	
41188.664	1	1	0	0	0.07788	0.040389	0.13913	0.020109	0.075967	0.24452	0.23757	0.058344	0.11675	0.05434	0.12684	0.086306	0.24209	0.20775	0.22938	0.13075	-2.2938	-3.1	-2.8375	-2.9458	-3.1458	-2.6854	-3.175	-2.9979	-2.5062	-2.9792	-3.0125	-2.6021	-3.2062	-2.8104	-2.9292	-3.0271	423.594	389.977	157.813	195.120	402.250	243.673	368.589	433.673	348.252	208.294	489.602	493.714	261.494	275.264	319.294	430.085	0.00030164	0.00023566	0.00013512	1150	3.1821e-06	4.8917e-06	1204.2	226.73	2.2492e-06	3.6475e-06	279.58	78.95	62.358	17.526	2.5857e-06	24.96	0.0013122	0.0016239	0.00044474	1147.7	1.7473e-05	1.7896e-05	1194.4	227.79	1.6908e-05	1.7663e-05	284.29	80.846	64.114	18.372	1.7481e-05	26.38	279.922	209.934	253.394	157.256	267.087	240.601	157.606	164.900	258.337	346.086	164.752	171.550	171.624	178.479	357.451	178.136	-8191	255	
41188.762	1	1	0	0	0.22013	0.17053	0.2222	0.17379	0.14107	0.21215	0.035	0.15053	0.15754	0.048377	0.22239	0.084534	0.21489	0.22027	0.26898	0.15712	-2.3438	-2.9104	-2.8042	-2.8417	-2.9958	-2.7354	-2.9167	-3.2021	-2.8271	-3.1146	-2.9771	-2.6083	-2.9792	-2.8042	-2.8312	-3.1396	381.684	160.044	343.996	158.394	150.129	494.773	467.909	426.451	160.459	381.816	477.920	489.416	430.244	411.071	375.548	447.634	0.00027688	0.0002032	3.5292e-05	1153.8	6.9386e-06	6.4458e-06	1196.7	226.87	5.3099e-06	7.9136e-06	280.77	78.909	62.266	17.596	4.3156e-06	25.124	0.0012851	0.0015999	0.00043735	1147.1	1.7134e-05	1.75e-05	1192.3	227.86	1.6961e-05	1.7626e-05	284.73	80.929	63.963	18.429	1.7064e-05	26.477	271.588	235.231	265.963	157.299	316.057	334.106	157.631	164.802	339.587	291.582	164.349	171.485	171.763	178.543	302.074	178.038	-8191	255	
41188.859	1	1	0	0	0.094427	0.12731	0.082424	0.24508	0.19223	0.14323	0.11002	0.11306	0.021726	0.083957	0.019699	0.14353	0.043338	0.31162	0.11533	0.13576	-2.3146	-2.9875	-2.9208	-3	-3.0271	-2.95	-3.2313	-3.1937	-2.6667	-2.8708	-2.9	-2.8417	-3.1979	-2.9771	-2.8	-3.1458	505.949	483.052	291.396	452.125	291.520	336.519	385.788	462.452	276.786	355.882	472.002	335.916	475.911	189.399	395.352	416.469	0.00033998	0.00050033	7.3272e-06	1148.9	4.9104e-06	7.3132e-06	1191.4	225.64	3.4289e-06	5.0949e-06	280.77	78.901	62.596	17.557	2.8885e-06	25.177	0.0012629	0.0015722	0.00043657	1146.9	1.6724e-05	1.735e-05	1190	227.57	1.6845e-05	1.7416e-05	284.36	80.958	64.379	18.436	1.7206e-05	26.39	272.969	229.842	442.407	157.324	296.985	341.350	157.592	164.828	350.585	267.289	164.647	171.292	171.260	179.053	325.634	177.780	-8191	255	
41188.953	1	1	0	0	0.022626	0.21715	0.32564	0.28956	0.044095	0.052715	0.079279	0.28103	0.07889	0.12728	0.24061	0.37211	0.1792	0.062798	0.15893	0.2017	-2.3333	-3.0438	-2.9833	-2.7583	-2.9896	-2.975	-2.9792	-3.0229	-2.875	-2.7583	-3.1479	-2.925	-3.1479	-2.9125	-2.8292	-3.1708	492.825	278.530	300.883	148.374	457.603	432.726	500.904	156.420	283.706	306.543	478.784	191.785	246.802	437.944	425.019	374.287	0.00025022	0.00071988	0.00019054	1153.2	6.9201e-06	5.6826e-06	1202.6	226.43	4.2952e-06	8.8231e-06	281.39	78.846	62.386	17.48	6.1301e-07	25.175	0.0012655	0.0016165	0.00044059	1148.2	1.6831e-05	1.7308e-05	1192.7	227.86	1.6952e-05	1.7846e-05	285.92	81.037	64.147	18.415	1.7608e-05	26.39	274.457	245.161	251.380	157.256	234.997	312.850	157.658	164.892	311.364	331.046	164.501	171.328	171.162	178.673	423.095	178.520	-8191	255	
41189.051	1	1	0	0	0.10327	0.14895	0.18539	0.17346	0.090399	0.092888	0.33259	0.13008	0.094097	0.13436	0.34851	0.2029	0.27361	0.31854	0.014225	0.19285	-2.2938	-3.0938	-2.8729	-2.8542	-2.9458	-2.8104	-2.8125	-3.025	-2.9042	-2.9125	-2.975	-2.6167	-3.0521	-2.9021	-2.8271	-3.1417	305.047	432.566	243.686	486.494	260.237	161.281	420.955	151.800	238.382	493.831	405.608	408.561	450.815	199.662	260.432	147.861	0.00023068	0.00029089	0.00018774	1155.6	7.681e-06	5.5886e-06	1196.7	226.58	4.8937e-06	2.5832e-06	280.49	79.151	62.507	17.677	3.9636e-06	25.358	0.0012841	0.0015972	0.00045203	1148.4	1.7214e-05	1.7878e-05	1192.5	227.95	1.7033e-05	1.792e-05	285.43	81.107	64.294	18.44	1.7825e-05	26.48	265.991	505.019	200.394	157.262	296.287	307.694	157.560	164.992	277.606	183.307	164.302	171.489	171.550	178.699	259.130	177.946	-8191	255	
41189.145	1	1	0	0	0.0046758	0.16178	0.070406	0.22259	0.22482	0.09505	0.17424	0.2657	0.19	0.1843	0.43304	0.029451	0.016315	0.15855	0.21395	0.015687	-2.4917	-3.0292	-3.0729	-2.975	-3.0167	-3.0854	-3.0021	-3.0396	-2.8021	-2.7792	-3.1208	-2.8917	-2.975	-3.1312	-2.7708	-3.1417	374.345	473.575	297.430	464.570	175.750	262.238	350.584	147.707	492.247	232.765	497.448	438.323	252.983	157.726	394.795	172.000	0.00029286	0.00010968	0.00016037	1145.7	1.8364e-06	7.963e-06	1202.1	227.29	5.729e-06	3.0313e-06	279.14	78.931	62.674	17.511	5.9977e-06	25.054	0.0012855	0.0016091	0.00045402	1145.3	1.7261e-05	1.7912e-05	1194.1	228.35	1.6844e-05	1.7929e-05	284.53	80.852	64.134	18.418	1.7976e-05	26.409	271.060	376.943	274.794	157.500	494.797	255.717	157.718	164.803	302.304	244.458	164.558	171.570	171.706	178.856	404.196	178.014	-8191	255	
41189.266	1	1	0	0	0.26815	0.20026	0.23172	0.20984	0.22518	0.06667	0.16425	0.19186	0.0065988	0.1943	0.18991	0.068568	0.092669	0.063458	0.090967	0.16367	-2.4	-2.6813	-3.1646	-2.8708	-2.9625	-3.0333	-2.8563	-3.3125	-2.775	-2.8083	-3.2188	-2.9625	-2.9313	-2.8896	-2.8042	-3.2458	434.958	378.914	481.506	478.109	309.993	351.234	470.884	435.172	360.164	451.847	165.053	181.339	426.456	410.607	156.244	170.449	0.00031761	0.00038508	0.00010565	1153.3	1.0817e-06	5.3683e-06	1198.6	226.26	3.9857e-06	2.8954e-06	279.71	79.213	62.551	17.697	4.4372e-06	25.14	0.0013034	0.0016583	0.0004534	1148	1.6984e-05	1.7762e-05	1194.3	227.73	1.6668e-05	1.7573e-05	284.49	80.946	64.086	18.432	1.7405e-05	26.355	278.543	240.926	234.551	157.385	406.255	279.690	157.635	164.817	343.630	287.350	164.583	171.455	171.806	178.910	363.827	178.004	-8191	255	
41189.363	1	1	0	0	0.15483	0.29525	0.1511	0.31397	0.10423	0.14993	0.22035	0.17499	0.081126	0.14076	0.16157	0.16826	0.21157	0.15312	0.30742	0.024754	-2.4229	-2.8063	-3.1458	-2.6813	-2.8229	-2.8083	-2.8083	-3.2354	-3.0646	-2.75	-3.1063	-2.825	-3.0042	-2.9208	-2.8354	-2.9708	230.691	163.082	452.017	468.937	448.308	258.281	363.856	150.360	469.165	423.537	467.406	501.934	479.066	462.214	495.590	446.961	0.00028572	0.00062195	4.8944e-05	1152.1	5.4897e-06	7.3807e-06	1205.9	227.44	2.5057e-06	2.0998e-06	279.96	79.285	62.416	17.577	4.717e-06	25.058	0.0012719	0.0015964	0.0004378	1147.9	1.6835e-05	1.7538e-05	1195.6	228.05	1.6373e-05	1.7759e-05	284.22	80.951	64.118	18.4	1.7101e-05	26.303	269.254	194.241	205.733	157.500	295.724	315.945	157.467	164.580	347.595	386.270	164.532	171.552	171.369	179.239	330.813	178.068	-8191	255	
41189.457	1	1	0	0	0.18094	0.15948	0.2868	0.41454	0.097202	0.085779	0.28017	0.13452	0.29569	0.16693	0.24094	0.069784	0.22824	0.17083	0.2801	0.26354	-2.45	-2.6792	-3.1958	-2.9458	-2.7292	-3.1479	-2.8688	-2.7687	-2.9333	-2.7938	-3.2188	-2.9583	-2.7771	-3.1896	-2.6708	-2.9896	405.496	432.763	341.698	458.513	492.035	275.198	307.981	364.733	448.538	297.535	451.765	474.920	450.182	257.232	396.356	458.952	0.00035625	0.00029367	0.00016319	1153.6	3.0719e-06	4.7628e-07	1200.7	226.35	8.5896e-06	3.5179e-06	280.05	78.997	62.553	17.563	5.853e-06	25.285	0.0012766	0.0016096	0.00044632	1148.8	1.7036e-05	1.739e-05	1193.5	227.72	1.6793e-05	1.7822e-05	284.63	80.935	64.183	18.417	1.7292e-05	26.438	275.378	220.523	246.249	157.357	240.963	442.676	157.288	164.972	329.164	340.011	164.587	171.389	171.811	178.865	359.940	177.897	-8191	255	
41189.531	1	1	0	0	0.07656	0.38373	0.31523	0.28239	0.16851	0.10471	0.16772	0.15332	0.13261	0.22598	0.025506	0.17621	0.32582	0.18245	0.34025	0.28615	-2.6771	-2.7875	-2.9813	-2.9938	-2.725	-3.2792	-2.9729	-2.9792	-3.0646	-2.7708	-3.0708	-2.8146	-2.8646	-2.9979	-2.8812	-2.8333	201.254	343.842	490.566	498.633	221.256	501.154	427.362	411.970	349.733	251.567	309.328	159.511	461.989	366.329	294.467	374.059	0.00032602	0.00012926	9.6107e-05	1153.7	3.9039e-06	4.9399e-06	1196.1	226.73	1.9248e-06	5.9545e-06	280.93	78.917	62.696	17.534	8.2086e-06	25.22	0.0012615	0.0016068	0.00044024	1149.1	1.6999e-05	1.7925e-05	1191.7	227.97	1.6578e-05	1.7616e-05	284.39	80.788	64.107	18.379	1.6923e-05	26.44	272.185	498.451	338.084	157.511	269.992	427.334	157.613	164.985	307.580	291.822	164.760	171.324	171.621	178.765	329.257	178.011	-8191	255	
41189.648	1	1	0	0	0.065515	0.14393	0.1655	0.23027	0.24149	0.29516	0.35625	0.33931	0.092727	0.12331	0.2128	0.16742	0.16248	0.31584	0.10491	0.087765	-2.5812	-2.6896	-2.8979	-3.1562	-2.6063	-3.0687	-2.8125	-2.7521	-3.1292	-2.6458	-3.0208	-2.9979	-2.5187	-2.9333	-2.7271	-2.7625	263.934	451.798	153.340	482.586	157.267	206.815	394.811	455.545	381.806	449.566	445.675	483.123	267.246	381.365	220.242	445.708	0.00028834	0.00010979	4.6748e-05	1158.9	2.4847e-06	4.0393e-06	1202.8	226.82	2.8014e-06	3.3214e-06	278.86	78.936	62.603	17.437	5.7318e-06	25.224	0.0012317	0.0015665	0.00042847	1147.3	1.6762e-05	1.6987e-05	1194.4	228.1	1.6123e-05	1.7055e-05	283.73	80.797	64.18	18.381	1.6612e-05	26.284	272.430	434.314	505.077	157.323	472.298	257.490	157.526	165.023	309.407	313.118	164.398	171.230	172.005	179.053	365.535	178.280	-8191	255	
41189.746	1	1	0	0	0.17729	0.11543	0.16647	0.28694	0.16044	0.086491	0.32449	0.21957	0.19408	0.21586	0.14051	0.16315	0.11621	0.2722	0.15015	0.13866	-2.5312	-2.8208	-2.8958	-3.0938	-2.6937	-3.0062	-3.0292	-2.8979	-3.025	-2.6333	-3.0771	-2.8396	-2.8271	-3.0521	-2.8854	-2.8688	286.505	265.764	239.531	428.553	399.680	300.042	402.420	450.796	309.619	335.076	198.057	429.902	210.467	469.642	158.322	343.162	0.0002963	0.00036438	8.2759e-05	1154.7	5.6304e-06	2.4155e-07	1204.4	226.76	5.4459e-06	7.5927e-06	280.62	78.737	62.078	17.494	1.3245e-06	25.04	0.0012244	0.0015078	0.00041463	1148.1	1.6401e-05	1.683e-05	1192.6	227.7	1.6345e-05	1.7088e-05	283.71	80.731	63.838	18.35	1.6385e-05	26.236	270.038	225.585	221.530	157.318	342.007	254.857	157.558	164.915	325.859	257.851	164.440	171.362	171.427	179.509	260.182	177.952	-8191	255	
41189.840	1	1	0	0	0.085552	0.069637	0.11018	0.24834	0.061132	0.0060994	0.15655	0.225	0.19168	0.40072	0.23122	0.11523	0.12047	0.12668	0.14707	0.24411	-2.7292	-2.7792	-2.8271	-3.175	-2.8104	-3.1437	-3.0812	-2.7354	-2.9875	-2.9104	-2.9938	-3.075	-2.6354	-3.15	-3.0146	-2.8187	360.884	400.310	321.759	479.434	446.700	439.281	153.431	464.362	446.609	399.785	354.501	383.951	322.588	358.671	224.996	169.110	0.00029586	0.00030879	6.6477e-05	1149.9	4.6421e-06	8.5362e-06	1200.7	226.78	2.7799e-06	4.502e-06	279.56	79.392	62.48	17.548	6.6561e-06	25.028	0.0012437	0.0015058	0.00041605	1145.5	1.5913e-05	1.6526e-05	1192.4	227.46	1.5745e-05	1.6607e-05	283.75	80.855	63.979	18.346	1.6344e-05	26.273	288.119	283.291	253.455	157.335	257.132	317.011	157.548	165.169	309.908	278.477	164.500	171.336	171.892	178.953	329.508	177.808	-8191	255	
41189.938	1	1	0	0	0.20899	0.42741	0.16091	0.084151	0.19152	0.19258	0.25161	0.16242	0.47247	0.22091	0.16555	0.2504	0.27116	0.15307	0.24165	0.10582	-2.5	-2.9125	-2.7438	-3.2479	-2.7917	-3.0229	-3.1667	-2.8958	-3.0354	-2.9042	-2.8354	-3.0458	-2.7438	-2.9417	-2.9313	-2.9292	252.552	314.243	432.179	402.263	260.240	505.297	463.065	170.925	393.740	477.159	433.077	435.060	148.374	469.347	278.099	192.792	0.00040338	0.00041718	0.00029501	1154.3	5.9303e-06	3.9966e-06	1204.7	226.43	4.1736e-06	2.9224e-06	279.4	79.098	61.944	17.58	5.8387e-06	25.326	0.0012126	0.0015076	0.00041659	1148.9	1.6219e-05	1.6627e-05	1194.6	227.59	1.592e-05	1.6724e-05	283.62	80.673	63.977	18.33	1.6536e-05	26.369	277.992	243.825	211.269	157.405	217.312	256.737	157.629	164.797	391.369	316.883	164.345	171.140	171.759	178.946	287.168	178.211	-8191	255	
41190.059	1	1	0	0	0.22587	0.1508	0.22416	0.039704	0.21976	0.10711	0.23307	0.15925	0.23472	0.2335	0.21071	0.18154	0.21704	0.16785	0.25609	0.13709	-2.6792	-2.8958	-2.6188	-3.2917	-2.8625	-2.9354	-3.2167	-2.7792	-2.8792	-2.9562	-2.8333	-3.1833	-2.7042	-2.9521	-2.9938	-2.775	445.772	395.730	183.772	478.735	207.443	341.128	398.857	387.828	181.777	327.817	149.924	286.849	399.291	177.194	147.754	452.654	0.00030866	0.00071671	5.3963e-05	1154.5	1.3159e-06	1.0609e-05	1199	226.97	1.8841e-06	3.0616e-06	280.04	79.178	62.481	17.535	2.8689e-06	25.173	0.0012226	0.0014992	0.00042955	1148	1.6238e-05	1.6514e-05	1193.5	228	1.6164e-05	1.6488e-05	284.66	81.108	64.235	18.428	1.6688e-05	26.361	278.488	229.534	297.019	157.502	225.332	297.772	157.303	164.997	378.110	363.807	164.571	171.396	171.518	178.900	355.410	177.951	-8191	255	
41190.129	1	1	0	0	0.16495	0.09682	0.17865	0.096196	0.1357	0.23664	0.018179	0.31702	0.21145	0.15438	0.20082	0.18439	0.25889	0.11473	0.26624	0.03345	-2.5125	-3.0125	-2.8646	-3.3187	-2.6792	-2.7646	-3	-2.6375	-2.8542	-2.9292	-2.8854	-3.1104	-2.95	-2.9979	-3.0771	-2.7583	428.984	421.990	311.413	439.815	447.601	304.404	200.432	420.561	321.149	301.541	468.664	187.808	464.689	209.812	229.737	403.923	0.00024268	0.00028446	1.3186e-05	1151.6	7.0234e-06	8.2143e-06	1200.8	225.72	4.3236e-06	8.2431e-07	279	79.354	62.04	17.574	1.502e-06	25.111	0.0012357	0.0015134	0.0004265	1146.7	1.6045e-05	1.7116e-05	1191	227.33	1.6134e-05	1.7361e-05	284.61	80.865	64.004	18.382	1.7254e-05	26.379	274.957	272.739	184.492	157.358	290.533	304.935	157.607	164.609	312.278	379.282	164.533	171.310	171.388	178.782	413.120	178.346	-8191	255	
41190.227	1	1	0	0	0.080694	0.069318	0.093413	0.22333	0.082794	0.22484	0.29532	0.34505	0.088101	0.12232	0.015772	0.1532	0.096369	0.13874	0.15999	0.031903	-2.4938	-2.9521	-2.7771	-3.1021	-2.9604	-2.7812	-3.2625	-2.9708	-2.8438	-3.0917	-2.8396	-3.0417	-2.9042	-2.8854	-3.0812	-2.9354	461.716	485.709	323.959	435.143	312.995	418.271	401.484	409.585	242.396	430.463	202.421	264.862	179.133	487.341	178.215	288.858	0.00035525	0.00038707	0.00014336	1154.9	6.6135e-06	5.0322e-06	1205.7	225.95	3.605e-06	1.7093e-06	279.19	79.191	62.389	17.523	3.8258e-06	25.222	0.0012369	0.001571	0.00043799	1148.1	1.6463e-05	1.7116e-05	1194.2	227.35	1.6126e-05	1.7402e-05	284.72	80.792	64.096	18.379	1.671e-05	26.376	265.525	319.844	281.636	157.354	239.249	343.062	157.652	164.661	299.566	351.997	164.438	171.392	171.920	178.829	226.475	178.373	-8191	255	
41190.348	1	1	0	0	0.18083	0.033587	0.15392	0.16827	0.092611	0.2611	0.1005	0.18203	0.29925	0.12637	0.20843	0.23233	0.14778	0.085663	0.21331	0.18847	-2.4062	-3.1354	-2.7021	-2.9979	-3.0729	-2.7687	-3.2625	-2.8688	-2.85	-3.0208	-2.7562	-3.1104	-2.9521	-2.7354	-2.9875	-2.9292	213.090	318.844	259.598	481.360	296.553	229.262	499.912	162.351	150.661	223.312	477.519	233.859	381.582	349.760	225.350	357.390	0.00031479	0.00029889	0.00013716	1156.5	4.4396e-06	4.9761e-06	1200.7	226.85	3.6765e-06	2.9836e-06	279.85	78.804	62.398	17.617	2.438e-06	25.303	0.0012256	0.0015542	0.00043666	1149	1.6318e-05	1.7166e-05	1193.2	227.89	1.6209e-05	1.7254e-05	284.52	80.743	64.05	18.429	1.6877e-05	26.365	270.424	232.855	252.271	157.129	336.836	358.457	157.518	164.716	301.216	428.384	164.555	171.265	171.581	178.703	261.757	178.147	-8191	255	
41190.441	1	1	0	0	0.013379	0.28463	0.14498	0.28335	0.27629	0.29105	0.24136	0.30831	0.12001	0.17927	0.037145	0.072533	0.13224	0.093382	0.18827	0.2368	-2.5375	-2.9646	-2.7604	-3.1167	-3.0958	-2.7333	-3.4167	-2.9396	-2.8104	-3.1958	-2.8937	-3.0583	-3.0042	-2.6896	-3.125	-3.0396	340.577	185.447	231.222	456.725	397.329	338.154	465.117	444.196	436.746	303.384	214.080	448.354	482.281	498.235	241.236	164.908	0.00029815	0.00062565	0.00017973	1153.6	5.6971e-06	5.0474e-06	1201.7	225.86	2.8751e-06	4.4863e-06	280.82	79.062	62.57	17.415	4.2854e-06	25.129	0.0012315	0.0015635	0.0004385	1148.2	1.6489e-05	1.7135e-05	1193.8	227.5	1.6059e-05	1.698e-05	284.23	80.689	64.092	18.363	1.6738e-05	26.29	268.088	256.620	206.652	157.221	293.087	291.109	157.483	164.891	300.446	165.599	164.738	171.561	171.782	178.877	313.022	177.881	-8191	255	
41190.539	1	1	0	0	0.098854	0.25197	0.18091	0.16898	0.12617	0.31791	0.18133	0.19463	0.067664	0.18655	0.094814	0.036611	0.18933	0.1025	0.052068	0.071424	-2.2833	-2.9396	-2.6729	-2.9437	-2.9479	-2.8521	-3.1625	-2.9271	-2.7792	-3.2375	-2.8021	-3.0812	-2.9146	-2.7979	-3.0979	-2.8583	293.125	502.077	438.758	360.610	408.280	475.483	420.093	470.278	448.727	465.056	149.446	350.948	418.709	153.743	265.505	347.154	0.00030332	0.00033688	2.8723e-05	1154.9	6.4481e-06	4.9808e-07	1200.1	227.22	3.8771e-06	2.0075e-06	281.17	79.485	62.22	17.523	5.3652e-06	24.983	0.0012123	0.0015497	0.00043317	1148.8	1.6095e-05	1.7228e-05	1194.2	227.8	1.6159e-05	1.724e-05	284.18	80.822	64.039	18.35	1.6302e-05	26.272	271.938	477.504	367.001	157.548	242.223	465.269	157.771	165.000	333.872	333.261	164.381	171.371	171.592	178.892	312.384	178.494	-8191	255	
41190.660	1	1	0	0	0.20237	0.23831	0.22782	0.30766	0.17963	0.1282	0.37425	0.31954	0.27314	0.084966	0.033888	0.091585	0.16928	0.10211	0.26479	0.15485	-2.1583	-3.2958	-2.7792	-2.8708	-3.0438	-2.7583	-3.0917	-3.0646	-2.8875	-3.05	-2.9854	-2.8563	-3.225	-2.9	-2.9583	-2.8625	448.816	330.953	199.433	474.927	171.986	284.203	158.589	397.309	235.476	449.264	313.285	447.444	183.542	398.631	422.789	395.930	0.00036789	0.00017137	0.00013511	1151.3	7.1571e-06	4.6387e-06	1199.8	225.3	2.1123e-06	2.4821e-06	280.39	79.52	62.666	17.578	3.6433e-06	25.029	0.0012142	0.0014965	0.00041595	1146.8	1.6088e-05	1.6884e-05	1191	227.07	1.6112e-05	1.7033e-05	283.55	80.904	64.012	18.403	1.6443e-05	26.285	269.670	227.909	190.138	157.362	315.668	330.007	157.590	164.812	287.239	290.797	164.720	171.470	171.784	179.064	350.780	178.093	-8191	255	
41190.754	1	1	0	0	0.14196	0.14879	0.22531	0.27648	0.34368	0.034548	0.11367	0.21251	0.083914	0.23552	0.23396	0.17301	0.20199	0.2753	0.14699	0.059977	-2.4938	-2.9396	-2.9167	-2.7938	-3.0104	-2.7562	-3.0833	-3.3375	-2.7333	-3.1104	-2.9125	-2.9271	-2.9875	-2.7854	-2.8604	-3.0667	191.963	504.376	262.985	466.292	494.029	230.619	445.582	434.122	235.873	306.500	414.856	430.113	162.318	245.197	376.981	262.916	0.00027254	0.00019319	0.00014098	1153.4	7.3989e-06	4.8321e-06	1202.1	225.02	2.1761e-06	2.1539e-06	279.54	79.288	62.429	17.548	7.148e-06	24.97	0.0012088	0.0015208	0.00041601	1147.8	1.6388e-05	1.6947e-05	1193.7	226.99	1.6212e-05	1.7114e-05	283.91	80.85	64.092	18.333	1.6406e-05	26.265	280.614	236.627	216.662	157.332	336.601	297.678	157.612	164.859	373.765	362.010	164.497	171.757	171.579	178.770	262.171	178.148	-8191	255	
41190.828	1	1	0	0	0.20395	0.13854	0.23624	0.17526	0.41144	0.17798	0.15248	0.20595	0.31698	0.14722	0.033661	0.1051	0.18382	0.10097	0.15307	0.093035	-2.5021	-2.9104	-2.8292	-2.9021	-2.9771	-2.925	-3.0625	-3.1396	-2.6458	-3.0104	-3.0792	-2.8937	-3.2771	-2.8479	-2.7188	-3.2479	383.487	267.910	441.116	417.693	191.139	158.581	504.288	333.866	480.998	428.809	181.146	427.513	434.819	229.786	283.031	376.229	0.00030262	0.00050053	9.8817e-05	1158.9	1.5183e-06	6.3801e-06	1198.3	225.97	2.9065e-06	5.1542e-06	280.1	79.177	62.277	17.45	3.8197e-06	25.148	0.001225	0.0015417	0.00041364	1148.5	1.6358e-05	1.6764e-05	1192.4	227.17	1.5885e-05	1.6669e-05	283.19	80.604	63.868	18.277	1.5663e-05	26.252	271.884	252.790	242.786	157.234	271.346	279.060	157.697	164.986	367.112	334.181	164.169	171.115	171.516	179.011	329.928	178.451	-8191	255	
41190.945	1	1	0	0	0.26562	0.13376	0.11991	0.24037	0.29129	0.10081	0.25246	0.067722	0.2938	0.13899	0.070506	0.17293	0.06083	0.16313	0.17677	0.1934	-2.4542	-2.9167	-3.0083	-2.8542	-2.9479	-2.8542	-2.95	-3.0833	-2.9083	-3.1083	-3.0771	-2.8458	-3.0708	-2.8354	-2.6562	-3.1063	339.754	389.410	268.343	411.826	505.471	212.207	401.872	480.252	201.364	330.248	445.642	225.184	308.978	483.941	304.967	182.053	0.00027593	0.00058298	0.00015328	1154	9.9323e-07	7.9269e-06	1198.5	225.98	5.3022e-06	2.0548e-06	280.16	79.001	61.966	17.465	2.6988e-06	25.232	0.0012062	0.0014884	0.00041063	1148	1.6136e-05	1.6407e-05	1191.7	227.3	1.6153e-05	1.6456e-05	282.99	80.689	63.707	18.29	1.6251e-05	26.286	270.623	154.715	234.933	157.345	436.194	301.408	157.443	164.769	304.291	258.941	164.646	171.385	171.825	178.628	201.303	177.842	-8191	255	
41191.043	1	1	0	0	0.14052	0.086529	0.040599	0.24228	0.11609	0.25987	0.218	0.13642	0.10354	0.058459	0.23251	0.036737	0.15974	0.24312	0.22192	0.051355	-2.45	-2.9688	-2.9792	-2.7583	-3.0771	-2.9583	-3.05	-3.125	-2.9333	-2.9958	-3.1479	-2.7854	-3.0333	-2.8917	-2.9625	-3.1479	440.998	231.561	430.532	452.980	339.381	394.503	430.796	401.043	308.853	202.963	173.155	443.638	196.931	321.964	225.418	168.035	0.00033665	0.00029388	0.00020213	1156.6	4.4459e-06	2.5682e-06	1194.6	226.07	2.3272e-06	1.2649e-06	277.94	78.869	61.647	17.471	3.5834e-06	24.969	0.0012039	0.0014951	0.00041136	1147.5	1.576e-05	1.6161e-05	1190.6	226.84	1.5418e-05	1.5943e-05	282.3	80.561	63.502	18.237	1.5688e-05	26.187	265.581	263.008	226.083	157.354	326.451	247.971	157.604	165.096	281.000	504.361	164.467	171.424	171.420	178.830	310.002	178.303	-8191	255	
41191.137	1	1	0	0	0.29978	0.20368	0.13685	0.27367	0.1977	0.058418	0.32149	0.21152	0.32692	0.10037	0.023185	0.27886	0.32918	0.078246	0.20336	0.22333	-2.3479	-2.925	-3.1	-2.7708	-3.1375	-2.9375	-2.8646	-3.2083	-2.9542	-2.9167	-3.0771	-2.8812	-3.0833	-2.9125	-2.8667	-3.0354	500.149	262.795	286.537	161.049	244.698	315.438	398.561	472.848	237.042	487.348	485.869	411.535	174.889	165.451	342.166	249.213	0.00026656	0.00058625	0.00010584	1150.9	8.5016e-06	5.1083e-06	1195	225.18	4.3249e-06	4.3137e-06	276.33	79.207	61.37	17.697	6.0754e-06	24.843	0.0011532	0.0014234	0.00040117	1143.4	1.5397e-05	1.5589e-05	1188.5	226.5	1.5047e-05	1.5709e-05	281.37	80.425	63.532	18.248	1.5432e-05	26.17	277.581	237.964	278.943	157.371	268.576	349.558	157.513	165.005	276.296	371.271	164.638	171.849	171.839	178.865	337.927	178.771	-8191	255	
41191.234	1	1	0	0	0.11858	0.24379	0.10894	0.10039	0.069465	0.17375	0.069753	0.063993	0.12209	0.27194	0.20065	0.18046	0.29423	0.39714	0.2767	0.13795	-2.3812	-3.0125	-3.1479	-2.8396	-3.0208	-3.0708	-2.8979	-3.0687	-2.9917	-2.9396	-3.2	-2.7375	-2.925	-3.0208	-2.7104	-3.0583	168.132	391.056	216.195	484.307	267.082	274.135	394.129	366.287	265.004	243.554	361.388	263.447	455.677	421.037	346.785	358.928	0.00032654	0.00023802	8.1001e-05	1147	8.4562e-06	2.9283e-06	1196.5	224.82	5.7582e-06	2.1507e-06	275.92	78.158	61.632	17.395	1.2186e-06	25.028	0.0011187	0.0014121	0.00039279	1141.8	1.4852e-05	1.5598e-05	1186.8	226.56	1.4606e-05	1.5479e-05	280.52	80.007	63.389	18.142	1.514e-05	26.06	263.484	313.396	346.909	157.469	281.601	288.280	157.537	164.955	332.041	339.008	164.640	171.561	171.235	178.486	302.430	177.838	-8191	255	
41191.355	1	1	0	0	0.10015	0.13214	0.08874	0.12578	0.37121	0.15788	0.29899	0.2321	0.19796	0.13916	0.45643	0.11616	0.14309	0.29617	0.23809	0.22769	-2.4354	-2.6771	-2.8896	-2.85	-3.0062	-3.1688	-2.9417	-3.1458	-2.8792	-2.9313	-3.2479	-2.8812	-2.975	-2.9792	-2.6312	-3.1875	499.062	229.544	243.949	175.881	273.386	248.880	467.734	476.902	307.578	170.296	444.247	348.575	380.330	468.698	229.889	478.799	0.00030426	0.00013161	4.6947e-05	1146.4	8.0111e-06	2.2624e-06	1196.2	224.07	2.8674e-06	1.0959e-06	276.12	78.52	61.722	17.519	3.3387e-06	24.846	0.0010889	0.0013938	0.00038137	1139.9	1.4518e-05	1.5077e-05	1186.6	225.5	1.4087e-05	1.5029e-05	280.37	80.102	63.318	18.206	1.474e-05	25.961	277.217	301.268	217.188	157.151	262.018	347.887	157.621	165.074	265.940	185.800	164.458	171.448	171.736	178.887	388.776	178.120	-8191	255	
41191.426	1	1	0	0	0.25098	0.17906	0.34785	0.19304	0.14531	0.17646	0.11921	0.14132	0.10871	0.038374	0.21529	0.25608	0.16981	0.17378	0.23452	0.24482	-2.6208	-2.7729	-3.0625	-2.9896	-3.1521	-3.2438	-2.8708	-3.1375	-2.8688	-2.8438	-3.0354	-2.7562	-2.9188	-3.0479	-2.9125	-3.075	173.216	392.467	320.009	472.453	376.566	170.453	452.750	236.230	310.750	502.501	472.841	448.353	495.727	351.731	250.329	477.496	0.00037233	0.00022669	0.00015253	1147.6	4.1189e-06	2.2357e-06	1191.4	225.36	4.4311e-06	5.1693e-06	277.3	78.512	62.141	17.411	2.133e-06	24.727	0.0010751	0.0013621	0.00037798	1139.9	1.4392e-05	1.4877e-05	1184.6	225.98	1.388e-05	1.506e-05	280.77	80.015	63.297	18.153	1.4736e-05	25.983	276.610	283.771	201.235	157.269	283.546	318.937	157.642	164.992	370.838	298.019	164.617	171.289	171.727	178.953	248.580	178.239	-8191	255	
41191.523	1	1	0	0	0.1561	0.34018	0.22045	0.35749	0.11739	0.17636	0.20896	0.18017	0.21581	0.21525	0.20711	0.14887	0.10628	0.24386	0.15542	0.23462	-2.5479	-2.6854	-3.0479	-2.9688	-2.9854	-3.0438	-2.7938	-2.9333	-3.2938	-2.8	-3.2146	-2.95	-2.7	-3.1688	-2.6542	-3.1437	446.482	352.504	180.096	465.499	238.492	431.207	413.774	372.614	453.359	501.606	450.246	502.378	455.460	468.452	342.491	278.285	0.00030668	0.00015684	0.00018239	1144	2.0612e-06	6.6906e-06	1191	225.15	5.5998e-06	5.8955e-06	278.81	78.157	61.962	17.406	3.6104e-06	24.977	0.0010788	0.0013435	0.00037051	1136.4	1.4136e-05	1.455e-05	1182.7	225.61	1.3799e-05	1.4871e-05	280.67	79.999	63.259	18.122	1.4365e-05	26.01	270.228	276.948	192.987	157.272	277.584	283.223	157.684	165.056	307.780	345.558	164.782	171.111	171.695	178.785	253.733	177.941	-8191	255	
41191.617	1	1	0	0	0.10285	0.19461	0.32841	0.14225	0.081238	0.22458	0.17352	0.20812	0.20511	0.22637	0.19705	0.12126	0.25229	0.40285	0.18395	0.14668	-2.6917	-2.7333	-2.9604	-3.1604	-2.7646	-3.0875	-2.85	-3.2521	-3.2646	-2.8187	-3.0792	-2.9437	-2.625	-3.25	-2.8854	-3.0792	247.778	248.189	459.438	461.407	425.506	340.476	424.393	281.766	343.678	242.553	471.713	432.547	149.687	494.105	473.893	173.676	0.00025575	0.00064291	0.00011376	1146.5	7.1927e-06	4.3008e-06	1192.2	224.66	4.5645e-06	7.224e-06	278.4	78.46	61.336	17.327	6.2896e-06	24.758	0.0010384	0.0013132	0.00035657	1138.4	1.394e-05	1.4457e-05	1182.9	225.18	1.3899e-05	1.4741e-05	280.99	79.937	63.045	18.086	1.4151e-05	25.955	270.994	253.907	185.262	157.295	288.890	261.732	157.321	165.048	256.324	365.395	164.651	171.495	171.562	178.786	291.318	178.340	-8191	255	
41191.738	1	1	0	0	0.070441	0.097826	0.065211	0.073882	0.18244	0.18897	0.37937	0.1634	0.14079	0.26983	0.15903	0.062703	0.12875	0.10921	0.15266	0.11274	-2.65	-2.7854	-3.1104	-3	-2.7646	-3.0438	-3.0521	-2.7938	-3.0875	-2.7104	-3.0875	-3.0417	-2.7917	-3.325	-3.0563	-3.0208	464.989	273.935	462.875	487.957	216.893	385.417	463.707	430.587	333.416	316.571	171.880	254.283	419.974	245.337	450.810	404.682	0.00033531	0.0005175	0.00016078	1142.4	4.1986e-06	5.8015e-07	1191.7	223.93	2.3783e-06	3.6252e-06	276.38	78.28	62.107	17.376	5.5647e-06	25.037	0.0010593	0.0013203	0.00036352	1133.3	1.4385e-05	1.471e-05	1182	225.08	1.4077e-05	1.4781e-05	280.13	79.984	63.296	18.081	1.4325e-05	26.003	271.298	247.648	253.487	157.527	221.067	382.171	157.496	165.216	292.419	299.552	164.778	171.604	171.512	178.930	365.867	178.142	-8191	255	
41191.836	1	1	0	0	0.12911	0.20902	0.17665	0.12285	0.19489	0.033374	0.17329	0.27389	0.11004	0.099334	0.086586	0.1688	0.12628	0.22126	0.12896	0.20301	-2.5875	-2.7125	-3.1146	-3.0833	-2.7167	-3.2292	-3.1292	-2.9125	-3.1271	-2.7938	-2.8042	-3.0396	-2.7687	-2.9417	-2.7104	-2.7771	319.595	266.692	257.060	343.695	350.607	360.267	473.608	371.655	405.669	302.365	410.001	165.129	500.954	323.184	330.053	310.228	0.00028207	0.00021394	0.00011118	1143.4	4.6506e-06	2.9071e-06	1188.5	224.05	3.2249e-07	5.8412e-06	278.2	78.678	61.891	17.405	2.387e-06	25.106	0.0010542	0.0013222	0.0003684	1135.7	1.4191e-05	1.4608e-05	1181.2	225.22	1.4162e-05	1.4696e-05	281.21	79.95	63.09	18.103	1.4358e-05	26.041	270.992	177.268	228.453	157.422	299.645	339.856	157.773	164.990	286.342	355.378	164.653	171.598	171.662	178.961	218.419	178.380	-8191	255	
41191.930	1	1	0	0	0.069758	0.12477	0.15126	0.22835	0.13202	0.1795	0.20509	0.39913	0.13428	0.069637	0.076105	0.30636	0.031022	0.13234	0.072236	0.1106	-2.7146	-2.7167	-2.7938	-3.2562	-2.7188	-3.0229	-3.0583	-2.8146	-3.2042	-3.025	-2.9354	-3.1208	-2.8896	-3	-2.8479	-2.6667	459.650	148.419	310.269	463.532	506.111	480.576	403.535	427.971	376.707	344.214	201.420	450.216	349.016	233.594	395.209	377.686	0.0003499	0.00019802	2.5413e-05	1141.1	5.0364e-06	3.7019e-06	1195.7	226.15	4.5532e-06	2.8727e-06	278.38	78.549	61.832	17.254	2.2549e-06	24.891	0.0010641	0.0012937	0.00036255	1135.9	1.4176e-05	1.4339e-05	1181.6	225.79	1.3779e-05	1.4255e-05	281.22	80.041	63.3	18.105	1.4287e-05	26.017	269.535	239.214	223.363	157.298	367.443	312.035	157.603	164.734	385.072	292.728	164.877	171.489	171.836	179.441	250.479	178.415	-8191	255	
41192.027	1	1	0	0	0.17154	0.15695	0.065427	0.15054	0.24813	0.014274	0.22029	0.17591	0.1679	0.075596	0.26153	0.3781	0.065769	0.16385	0.12142	0.24259	-2.725	-2.9708	-2.8396	-3.1792	-2.7583	-3.1583	-3.1271	-2.8125	-3.1271	-2.8167	-2.9542	-3.1208	-2.9625	-2.9146	-2.9792	-2.6417	299.496	363.029	286.410	453.183	269.944	344.212	385.453	503.296	424.210	214.385	390.610	401.812	276.942	436.233	210.964	495.989	0.00032863	0.00067001	5.8387e-05	1142.7	4.78e-06	1.3313e-06	1193.2	224.44	3.3367e-06	5.4344e-06	279.41	78.604	61.957	17.339	2.4069e-06	24.96	0.0010734	0.0013058	0.00036753	1135	1.412e-05	1.4609e-05	1181.9	225.25	1.3975e-05	1.4856e-05	282.12	79.958	63.23	18.116	1.449e-05	26.051	281.525	279.282	269.724	157.287	316.128	337.123	157.514	164.816	314.902	316.120	164.481	171.612	171.405	178.859	417.087	178.289	-8191	255	
41192.121	1	1	0	0	0.21263	0.10712	0.19935	0.23201	0.078976	0.050057	0.17895	0.3738	0.080702	0.19901	0.15943	0.26447	0.22593	0.059768	0.067856	0.16247	-2.5312	-2.9854	-2.7875	-3.1063	-2.7208	-3.0542	-3.1729	-2.8271	-2.9729	-3.0146	-2.7354	-3.2562	-2.825	-2.7562	-3.2167	-2.6958	292.478	183.339	481.340	147.533	222.284	404.767	381.929	484.253	407.457	446.803	480.384	451.033	200.940	481.428	459.576	330.917	0.0003375	0.00046113	3.8698e-05	1140.9	5.8273e-06	5.0082e-06	1192.4	224.81	3.6043e-06	1.0911e-06	277.45	78.807	61.828	17.474	1.0445e-06	25.027	0.0010761	0.0012941	0.00037264	1135	1.3995e-05	1.4584e-05	1182.3	225.51	1.3783e-05	1.4836e-05	281.52	80.015	63.289	18.171	1.4445e-05	26.118	269.300	211.011	462.273	157.291	289.755	217.639	157.824	164.930	289.995	289.554	164.812	171.598	171.868	179.156	312.789	178.159	-8191	255	
41192.219	1	1	0	0	0.072972	0.12865	0.23423	0.18456	0.074472	0.24817	0.33641	0.095729	0.093591	0.21947	0.31288	0.1907	0.099212	0.037281	0.15545	0.068067	-2.6854	-2.825	-2.5625	-3.3021	-2.7229	-2.8417	-3.2687	-2.9479	-2.9583	-2.8937	-2.8167	-3.1042	-2.8271	-2.8187	-3.1125	-2.9688	370.136	313.484	412.199	470.280	502.946	199.517	412.234	478.379	387.586	478.371	396.978	504.656	209.048	180.499	360.623	168.639	0.00027624	0.00038261	7.741e-05	1138.1	3.8012e-06	4.8245e-06	1192.6	223.98	8.4897e-07	3.5145e-06	276.98	78.821	62.125	17.485	4.5292e-06	25.013	0.0010674	0.0013575	0.00038294	1135.3	1.4402e-05	1.4749e-05	1183.1	225.44	1.4033e-05	1.5294e-05	281.57	80.203	63.42	18.15	1.4837e-05	26.01	272.225	298.471	506.581	157.423	267.557	308.665	157.385	164.905	291.226	166.423	164.810	171.639	171.820	178.900	260.194	178.064	-8191	255	
41192.340	1	1	0	0	0.11544	0.094203	0.14186	0.18679	0.064534	0.063163	0.12424	0.33269	0.076025	0.1088	0.14458	0.085423	0.068844	0.27552	0.33383	0.12388	-2.4521	-2.8708	-2.65	-3.1917	-2.8438	-2.7771	-3.3271	-2.9896	-2.95	-2.9813	-2.8625	-3.0875	-2.9104	-2.7833	-3.0625	-2.7938	490.336	475.749	151.878	175.704	170.731	319.812	402.983	432.799	416.056	244.090	212.687	385.552	393.956	292.914	381.975	399.075	0.00035078	0.00057931	8.6517e-05	1145.5	7.2762e-06	8.2506e-06	1187.4	224.14	4.3253e-06	2.417e-06	277.61	78.612	61.612	17.397	2.8289e-06	25.063	0.0010699	0.0013269	0.00037322	1135.9	1.3977e-05	1.4341e-05	1182.1	225.23	1.3844e-05	1.4839e-05	282.31	80.049	63.25	18.124	1.4435e-05	26.1	274.725	231.943	249.548	157.281	322.437	301.838	157.641	164.898	270.546	404.043	164.411	171.293	171.812	178.474	276.106	178.440	-8191	255	
41192.434	1	1	0	0	0.15086	0.030465	0.14509	0.241	0.16248	0.07805	0.14282	0.13663	0.10046	0.13149	0.099551	0.096391	0.30948	0.19248	0.11857	0.29169	-2.3875	-2.9833	-2.7604	-3.1708	-2.9875	-2.8646	-3.125	-2.7938	-2.9125	-3.0312	-2.8563	-2.9708	-3.1458	-2.6542	-3.2021	-2.8	445.094	260.513	398.696	482.011	255.744	248.480	367.262	251.336	415.009	341.794	276.769	428.789	361.970	442.541	159.806	485.470	0.00027547	0.00041791	0.00012042	1143.9	8.4981e-06	5.4226e-06	1188	224.13	4.0938e-06	2.3267e-06	278.46	78.722	62.136	17.519	2.5542e-06	24.997	0.0010568	0.001327	0.00037359	1136.3	1.4015e-05	1.4693e-05	1179.8	225.2	1.3803e-05	1.4616e-05	282.02	79.896	63.319	18.164	1.4334e-05	26.079	284.913	174.833	208.854	157.350	279.312	308.819	157.570	164.768	270.646	241.361	164.406	171.917	171.258	178.496	356.151	178.303	-8191	255	
41192.531	1	1	0	0	0.12387	0.13363	0.14775	0.12512	0.23142	0.079224	0.073296	0.29537	0.071444	0.29942	0.11413	0.27806	0.17438	0.039463	0.16264	0.064438	-2.5563	-2.9792	-2.7021	-3.0563	-2.9958	-2.9292	-3.2146	-2.9875	-2.8521	-3.0208	-2.9313	-2.7792	-3.1604	-2.8542	-3.0021	-3.0229	286.930	338.675	269.590	338.542	257.209	388.092	394.394	450.045	458.897	179.901	197.480	393.978	447.916	286.280	483.852	269.970	0.00027588	0.00038658	0.00016855	1145.8	7.3709e-06	3.0769e-06	1190.7	225.07	2.7171e-06	4.9514e-06	277.93	78.66	61.822	17.46	7.5734e-06	24.992	0.0010704	0.0013572	0.00036432	1138.1	1.3973e-05	1.4541e-05	1182.7	225.45	1.3862e-05	1.4718e-05	281.3	79.93	63.206	18.158	1.4154e-05	26.019	275.384	196.227	195.109	157.655	293.946	198.499	157.422	165.076	323.168	322.187	164.447	171.719	171.667	178.929	317.699	178.116	-8191	255	
41192.629	1	1	0	0	0.087171	0.087395	0.03488	0.27484	0.20837	0.25273	0.12556	0.068919	0.39233	0.098046	0.23618	0.24597	0.22112	0.2186	0.13989	0.14966	-2.3125	-3.0979	-2.7521	-2.8542	-2.9542	-2.6688	-3.1125	-2.8292	-2.6229	-3.0083	-3.1312	-2.9542	-3.225	-2.75	-3.0646	-3.1	246.914	170.592	470.361	502.356	409.046	402.333	372.528	392.810	325.081	244.458	440.573	481.294	231.367	422.398	182.148	182.757	0.0002916	6.6681e-05	0.00017437	1143.4	5.7566e-06	5.0382e-06	1192.4	224.56	3.3758e-06	4.079e-06	277.3	78.678	61.585	17.326	5.2585e-06	24.937	0.0010645	0.001308	0.00036367	1136.9	1.405e-05	1.4534e-05	1183.1	225.22	1.4046e-05	1.4668e-05	281.74	79.938	63.291	18.112	1.4263e-05	25.935	267.631	350.719	224.833	157.302	339.414	282.383	157.562	164.841	356.692	294.916	164.540	171.496	171.490	178.901	276.141	178.091	-8191	255	
41192.723	1	1	0	0	0.16157	0.21504	0.13989	0.13374	0.035945	0.013806	0.067316	0.24475	0.1165	0.12072	0.15649	0.19578	0.15703	0.089218	0.25941	0.3766	-2.1167	-2.9813	-2.8833	-3.0854	-3.1854	-2.875	-3.0896	-3.0667	-2.7167	-3.1229	-3.0438	-2.8333	-3.1542	-2.8125	-2.9625	-3.0854	171.490	188.243	403.822	449.951	350.780	372.040	431.675	191.307	169.158	152.493	212.615	287.106	247.081	411.383	414.782	171.911	0.0002409	0.000457	0.00012454	1145.3	4.3243e-06	2.774e-06	1195.3	224.02	4.4607e-06	2.9925e-06	278.23	78.971	61.576	17.431	2.6392e-06	24.856	0.0010659	0.0013164	0.00036299	1136.1	1.381e-05	1.4261e-05	1182.2	225.06	1.3715e-05	1.4424e-05	280.83	79.88	63.031	18.121	1.352e-05	25.87	278.051	246.514	224.729	157.345	283.752	445.468	157.500	165.103	360.787	500.659	164.821	171.177	171.645	179.146	397.586	178.208	-8191	255	
41192.816	1	1	0	0	0.25082	0.27267	0.20497	0.25265	0.22346	0.17577	0.19493	0.13165	0.022485	0.10914	0.0648	0.19995	0.26221	0.28477	0.13873	0.26923	-2.2333	-2.8625	-2.7792	-2.9083	-2.9688	-2.9521	-3.0583	-3.0958	-2.5771	-2.8375	-3.0604	-2.725	-3.2042	-2.8438	-2.9542	-3.1229	182.737	308.221	347.265	440.105	350.565	180.345	368.633	182.128	369.551	499.621	290.730	482.588	416.529	468.403	464.480	484.649	0.0002581	0.00047054	0.00018329	1143.2	3.5117e-06	2.9127e-06	1190.6	224.76	4.1683e-06	5.2625e-06	279.06	78.39	62.105	17.421	3.4726e-06	25.05	0.0010411	0.0012512	0.00034369	1135.3	1.3809e-05	1.4001e-05	1182.2	225.23	1.3568e-05	1.3873e-05	281.17	79.827	63.228	18.106	1.3752e-05	25.996	258.723	241.423	213.463	157.247	355.449	253.983	157.622	165.067	293.592	247.442	164.585	171.498	171.747	178.385	327.798	178.179	-8191	255	
41192.914	1	1	0	0	0.37163	0.031341	0.13939	0.16607	0.27647	0.29584	0.31682	0.16559	0.12146	0.14233	0.17693	0.11583	0.022131	0.0202	0.15357	0.07485	-2.3167	-2.9208	-2.8958	-2.9646	-3.0125	-2.8896	-2.9771	-2.9938	-2.9313	-2.9979	-2.9396	-2.8042	-2.9875	-2.6312	-2.8583	-3.1271	382.673	318.026	194.741	402.501	414.602	173.493	480.608	421.276	396.054	202.267	194.939	492.513	390.056	271.969	440.219	468.285	0.00028686	4.1661e-05	9.1449e-05	1143.2	4.5014e-06	2.2027e-06	1190.4	225.02	2.8081e-06	2.4335e-06	279.17	78.62	61.959	17.432	4.825e-06	24.846	0.0010305	0.0012699	0.00034772	1135.8	1.36e-05	1.4124e-05	1182.1	225.26	1.38e-05	1.4078e-05	281.61	79.874	63.203	18.144	1.3562e-05	25.989	279.146	401.507	215.290	157.381	272.077	349.572	157.586	164.932	300.767	404.256	164.396	171.566	171.317	178.557	317.941	178.443	-8191	255	
41193.035	1	1	0	0	0.38391	0.15835	0.11427	0.18519	0.23722	0.2415	0.21563	0.14037	0.22662	0.13404	0.079045	0.19509	0.097124	0.26164	0.096589	0.20738	-2.2396	-2.9437	-2.9437	-2.9062	-3.0229	-2.8896	-2.9854	-3.0479	-2.7708	-3.0208	-3.0833	-2.8375	-2.9875	-2.9896	-2.7271	-3.225	328.351	203.101	232.859	466.996	195.717	329.983	460.644	423.195	345.854	429.379	186.942	154.908	407.651	349.265	187.768	387.660	0.00027484	0.00059993	0.00010225	1144.6	5.0152e-06	7.7019e-06	1195.4	224.49	2.4452e-06	3.2286e-06	278.32	78.575	61.687	17.31	6.6702e-06	24.822	0.0010571	0.0012639	0.00035092	1135.4	1.3782e-05	1.4184e-05	1183.4	224.99	1.3314e-05	1.3935e-05	281.43	79.867	63.104	18.054	1.3656e-05	25.955	271.957	243.155	354.634	157.204	384.595	320.829	157.577	164.969	303.497	312.532	164.490	171.166	171.653	178.883	366.519	178.028	-8191	255	
41193.133	1	1	0	0	0.29369	0.11516	0.15603	0.25367	0.13811	0.22349	0.33963	0.31758	0.27536	0.20492	0.20905	0.16521	0.074571	0.16796	0.062153	0.21882	-2.5271	-2.8042	-2.8625	-2.9562	-3.1583	-2.9562	-2.8229	-3.1583	-2.8104	-2.9333	-3.1667	-2.7771	-3.1833	-3.0875	-2.825	-3.15	298.294	355.530	410.675	432.485	302.099	206.968	468.394	419.000	326.843	198.113	241.422	474.582	349.636	455.307	194.857	435.306	0.00035419	0.000213	0.00023516	1142.5	6.018e-06	4.6148e-06	1191.2	225.49	5.0929e-06	3.7494e-06	277.4	78.003	61.706	17.382	3.1229e-06	25.018	0.0010345	0.0012747	0.00035059	1135.7	1.3732e-05	1.3864e-05	1182.9	225.75	1.35e-05	1.4119e-05	280.82	79.785	63.136	18.055	1.4036e-05	25.95	272.032	266.250	201.416	157.378	288.273	240.034	157.571	164.971	379.184	348.045	164.566	171.591	171.624	178.879	291.823	178.016	-8191	255	
41193.227	1	1	0	0	0.20739	0.27819	0.32256	0.36301	0.16946	0.33953	0.0024768	0.048341	0.13232	0.14328	0.20016	0.11627	0.035967	0.1212	0.18945	0.4257	-2.3063	-2.7354	-3.0687	-2.8979	-3.1583	-2.9021	-2.8563	-3.2583	-2.7771	-2.9896	-3.0625	-2.9646	-3.0938	-2.8563	-2.8271	-3.0062	334.847	257.130	175.030	448.123	282.023	352.846	467.408	201.003	273.624	409.242	498.950	331.878	232.262	223.543	326.912	423.314	0.00029327	0.00031216	9.3315e-05	1147.6	4.3787e-06	4.0399e-06	1191.9	224.85	3.5534e-06	4.7951e-06	278.57	78.681	61.659	17.634	1.147e-06	24.965	0.0010304	0.0012703	0.00035471	1135.9	1.3509e-05	1.4056e-05	1182.4	225.71	1.3483e-05	1.4244e-05	281.8	80.04	63.126	18.144	1.4109e-05	25.997	263.586	256.403	259.880	157.226	301.296	254.075	157.503	164.708	331.521	339.479	164.212	171.159	171.642	178.901	150.027	178.499	-8191	255	
41193.301	1	1	0	0	0.046805	0.19546	0.14261	0.032039	0.25873	0.22851	0.15349	0.17354	0.23621	0.33131	0.14589	0.040178	0.26556	0.30202	0.26447	0.1617	-2.7	-2.8312	-3.0417	-2.8375	-2.8479	-3.0938	-2.8292	-3.1417	-2.8875	-2.8729	-3.1208	-2.7125	-2.8917	-3.0167	-2.7646	-2.9521	270.932	322.973	201.332	485.512	486.407	248.606	487.882	428.954	479.889	330.492	248.819	363.942	437.162	418.040	365.880	211.470	0.00024976	0.00047029	0.00010829	1145.6	6.9728e-06	3.3154e-06	1187.8	224.57	2.754e-06	3.5007e-06	275.87	77.972	61.774	17.491	4.4745e-06	25.032	0.001045	0.0012968	0.00036018	1135.4	1.3839e-05	1.4369e-05	1181.5	225.18	1.3407e-05	1.4305e-05	281.41	79.803	63.081	18.157	1.3954e-05	26.022	279.355	267.497	308.209	157.464	280.917	193.176	157.444	164.995	332.157	332.445	164.991	171.764	171.963	178.500	302.449	177.850	-8191	255	
41193.422	1	1	0	0	0.12489	0.17178	0.22283	0.13172	0.27727	0.17551	0.28978	0.30801	0.057749	0.078797	0.070806	0.41517	0.13614	0.16707	0.16791	0.19501	-2.5917	-2.7667	-3.1833	-2.95	-2.8771	-3.0708	-2.9646	-3.1813	-2.8375	-2.6667	-3.2708	-2.9854	-3.0583	-3.1896	-2.7188	-3.0354	326.428	459.301	436.805	190.644	345.465	481.205	469.886	430.308	478.634	325.308	472.552	391.496	178.985	426.703	287.022	452.825	0.00036195	0.00020968	4.6972e-05	1142.9	3.8606e-06	2.2978e-06	1187.7	224.82	3.8279e-06	2.4006e-06	278.88	78.081	61.329	17.265	5.4865e-06	24.862	0.0010097	0.0012838	0.00034901	1135.5	1.3541e-05	1.416e-05	1180.4	225.51	1.3177e-05	1.4124e-05	281.78	79.946	63.053	18.02	1.3817e-05	25.829	271.073	215.939	258.959	157.641	257.562	250.302	157.439	164.989	317.690	355.139	164.296	171.312	171.614	178.861	335.874	178.424	-8191	255	
41193.516	1	1	0	0	0.1515	0.13441	0.24222	0.25587	0.13683	0.18252	0.28736	0.16592	0.19026	0.18985	0.27922	0.13225	0.28965	0.1344	0.26891	0.20969	-2.6854	-2.6688	-2.9688	-3.2708	-2.7958	-3.1521	-2.95	-3.0563	-2.8729	-2.7792	-3.1229	-2.9854	-2.9688	-3.2583	-2.9833	-3.125	328.233	389.325	256.217	483.829	353.651	306.085	430.523	453.477	501.358	404.264	446.466	462.144	428.257	285.050	157.732	501.042	0.00029534	0.00071661	0.00011757	1139.1	8.3554e-06	7.547e-06	1188.8	223.89	4.0306e-06	2.1363e-06	278.82	78.475	61.91	17.282	1.1228e-06	24.894	0.0010279	0.001266	0.00035179	1133.3	1.3491e-05	1.4103e-05	1180.2	224.97	1.3075e-05	1.3946e-05	281.45	79.783	63.032	17.984	1.3598e-05	25.894	283.309	230.998	182.805	157.399	316.680	235.970	157.586	164.884	346.937	345.494	164.496	171.320	171.768	179.029	344.366	178.033	-8191	255	
41193.613	1	1	0	0	0.14365	0.036968	0.22343	0.20289	0.061716	0.10759	0.17192	0.082086	0.13705	0.24385	0.068542	0.3569	0.2023	0.09491	0.19265	0.17667	-2.7729	-2.7979	-3.0542	-3.0146	-2.8563	-3.1792	-2.9479	-3	-3.1	-2.7271	-3.1875	-3.1854	-2.7083	-3.0875	-2.775	-3.1667	163.341	254.245	281.389	464.258	335.391	418.357	150.095	154.223	422.496	388.056	200.955	443.970	492.166	190.053	258.548	360.986	0.00029397	0.00037926	6.4121e-05	1142.8	4.4022e-06	2.5476e-06	1188.3	225.54	3.3571e-06	4.6904e-06	277.33	78.658	61.799	17.413	6.3555e-06	24.806	0.0010015	0.001255	0.00033916	1134.8	1.3168e-05	1.3626e-05	1180.1	225.14	1.3241e-05	1.3928e-05	280.96	79.972	63.043	18.065	1.3526e-05	25.887	277.843	266.600	259.174	157.252	296.505	332.123	157.663	165.054	247.658	344.570	164.689	171.488	171.524	178.895	325.848	178.389	-8191	255	
41193.707	1	1	0	0	0.16249	0.23454	0.075821	0.12895	0.18789	0.19657	0.20126	0.064768	0.015115	0.10512	0.049934	0.29995	0.17348	0.15937	0.18191	0.27987	-2.6542	-2.8604	-3.0333	-3.1771	-2.875	-3.2917	-3.125	-3.075	-3.1958	-2.8917	-2.8688	-3.0542	-2.9813	-3.0979	-2.9188	-2.9583	327.150	255.499	317.884	386.229	387.057	217.972	445.731	378.858	167.610	347.619	466.652	175.468	210.277	431.980	179.426	410.537	0.00032032	0.00044223	3.8255e-05	1141.7	5.261e-06	7.5443e-06	1186.3	223.64	5.0146e-06	1.2171e-06	277.23	78.612	62.128	17.421	7.4335e-06	24.829	0.0010104	0.0012602	0.0003495	1133.7	1.3639e-05	1.4004e-05	1180.9	224.95	1.3517e-05	1.4011e-05	281.84	79.746	63.231	18.084	1.3446e-05	25.897	291.669	252.890	488.947	157.373	315.367	301.371	157.466	164.976	350.176	297.939	164.633	171.453	171.518	178.803	349.313	178.280	-8191	255	
41193.828	1	1	0	0	0.12422	0.16012	0.018038	0.20855	0.016102	0.11972	0.20111	0.36	0.13947	0.21027	0.089247	0.12004	0.029182	0.056	0.096933	0.19633	-2.925	-2.8833	-2.9604	-3.2646	-2.7625	-3.1292	-3.0042	-2.8	-3.1354	-2.8167	-2.9292	-3.0938	-2.925	-3.0542	-2.9375	-2.9479	414.448	326.683	283.507	494.971	263.084	323.220	419.092	381.199	491.652	415.857	242.769	174.834	311.327	405.072	228.284	384.448	0.00026716	0.00056936	0.00013909	1141.8	5.9898e-06	7.6346e-06	1186	224.7	3.823e-06	3.9015e-06	277.11	78.765	61.781	17.414	2.5563e-06	25.13	0.0010247	0.0012828	0.00034988	1133.1	1.3462e-05	1.4169e-05	1178.4	225.24	1.3524e-05	1.3995e-05	281.92	79.837	63.155	18.084	1.3754e-05	25.961	269.997	221.572	247.867	157.352	265.180	324.636	157.553	164.735	342.805	238.346	164.784	171.633	171.873	178.673	370.938	177.967	-8191	255	
41193.922	1	1	0	0	0.14088	0.069427	0.0805	0.20729	0.074919	0.18883	0.15462	0.30551	0.034047	0.1607	0.1876	0.092097	0.2631	0.044263	0.055438	0.047786	-2.9521	-2.7396	-2.8542	-3.2708	-2.7875	-2.975	-3.1104	-2.8229	-3.0292	-2.9396	-2.8354	-3.2396	-2.7104	-3.025	-3.1458	-2.7729	320.498	198.004	419.252	166.626	417.091	219.320	463.425	501.935	269.696	156.323	152.888	206.570	453.143	353.576	285.410	218.396	0.00029177	0.00036022	0.00013999	1140.6	8.2962e-06	5.4566e-06	1190.2	224.62	2.0625e-06	2.5854e-06	278.82	78.326	62.284	17.31	1.8771e-06	25.034	0.0010386	0.0012698	0.00034823	1133.8	1.3625e-05	1.4002e-05	1180.4	225.12	1.3473e-05	1.4017e-05	281.62	80.094	63.244	18.116	1.359e-05	26.015	284.220	322.111	201.843	157.435	259.185	312.207	157.438	164.671	332.517	320.917	164.837	171.356	171.731	178.850	316.326	178.055	-8191	255	
41194.020	1	1	0	0	0.083924	0.24937	0.028753	0.27711	0.055881	0.11645	0.301	0.096953	0.19141	0.032525	0.24529	0.067428	0.13508	0.27919	0.21138	0.20884	-2.8021	-2.9333	-2.6688	-3.4354	-2.9104	-2.8875	-3.2062	-2.8271	-3.0687	-2.8979	-2.8729	-3.2542	-2.8417	-3.0187	-2.8187	-2.7208	432.122	227.297	245.980	500.604	452.673	451.398	450.726	392.923	246.572	281.454	194.410	178.102	233.988	464.326	414.492	417.056	0.00032588	0.00028029	7.7827e-05	1140.8	2.4083e-06	6.0949e-06	1190.2	224.74	2.4084e-06	1.9133e-06	281.31	79.125	62.172	17.673	5.1032e-06	25.125	0.0010062	0.0012593	0.0003483	1133.6	1.3546e-05	1.3569e-05	1180.4	225.51	1.3015e-05	1.3284e-05	283.19	80.365	63.515	18.245	1.3149e-05	26.133	282.008	236.840	196.456	157.348	213.534	308.301	157.520	164.759	325.035	334.155	164.470	171.671	171.771	178.694	371.724	178.433	-8191	255	
41194.113	1	1	0	0	0.11763	0.24576	0.063247	0.087601	0.01701	0.15811	0.21633	0.13384	0.13075	0.234	0.33676	0.13212	0.23597	0.22342	0.13026	0.18175	-2.5062	-2.9729	-2.8396	-3.1604	-2.8812	-3	-3.0563	-2.8563	-3.0667	-2.9417	-2.8667	-3.2021	-2.925	-3.1188	-2.9354	-2.7833	167.359	352.162	500.476	427.785	299.982	395.675	405.174	273.559	188.175	360.538	414.307	397.699	193.206	146.886	322.907	432.473	0.00030574	0.00033375	0.00015998	1143.1	7.8095e-06	3.4657e-06	1191	225.84	3.1733e-06	1.9628e-06	282.09	79.305	62.612	17.693	3.0183e-06	25.431	0.00098493	0.0011897	0.00032939	1134.4	1.269e-05	1.3364e-05	1180.1	225.94	1.2732e-05	1.3184e-05	283.8	80.793	63.858	18.382	1.2941e-05	26.37	266.987	189.903	234.915	157.096	284.569	277.248	157.517	164.856	340.774	321.405	164.790	171.314	171.743	178.524	340.738	178.136	-8191	255	
41194.211	1	1	0	0	0.087763	0.40191	0.19114	0.16532	0.17953	0.10629	0.3989	0.3955	0.094115	0.08834	0.14692	0.046731	0.25788	0.19849	0.25643	0.27875	-2.5417	-2.9104	-2.6021	-3.2167	-2.7083	-2.9458	-3.1917	-2.8312	-3.0208	-3.0563	-2.8625	-3.1292	-2.9229	-2.8771	-3.1896	-2.7333	465.975	247.428	192.010	404.967	197.495	242.820	394.455	165.907	347.691	160.211	189.047	280.366	372.139	160.928	261.091	424.406	0.00027431	0.0002447	0.00010085	1143	7.2154e-06	2.7917e-06	1192.5	225.51	6.0727e-06	1.9201e-06	281.19	79.664	62.858	17.871	3.3285e-06	25.329	0.00097307	0.0011914	0.00032415	1135.6	1.2878e-05	1.2796e-05	1182.8	226.07	1.2568e-05	1.2844e-05	285.16	81.05	63.972	18.422	1.2809e-05	26.296	270.849	192.764	235.933	157.469	264.491	336.490	157.437	164.825	255.110	456.612	164.770	171.524	170.958	178.398	227.383	178.022	-8191	255	
41194.309	1	1	0	0	0.10365	0.29094	0.076934	0.2207	0.054367	0.11335	0.16673	0.26869	0.03139	0.051378	0.22547	0.14872	0.060807	0.29505	0.21994	0.065661	-2.6937	-2.975	-2.7042	-3.3479	-3.0083	-2.9125	-3.2167	-2.9583	-2.8854	-2.9208	-2.8958	-2.9562	-2.9458	-2.7646	-2.9562	-2.9104	345.904	218.290	461.863	433.228	368.568	246.629	472.237	452.490	503.474	247.330	258.017	291.344	154.151	377.536	376.757	185.608	0.00035348	0.00031465	5.1428e-05	1141.3	6.8501e-06	5.5226e-06	1191.5	226.13	3.2491e-06	1.6082e-06	282.91	79.636	62.924	17.752	6.3328e-06	25.692	0.00095335	0.0011521	0.00032071	1135.5	1.2329e-05	1.279e-05	1184.6	226.52	1.217e-05	1.2693e-05	285.19	81.064	63.879	18.405	1.271e-05	26.421	271.312	213.862	205.626	157.297	279.058	258.374	157.724	165.090	297.190	288.912	164.239	171.498	171.593	178.926	296.515	178.114	-8191	255	
41194.430	1	1	0	0	0.37342	0.074023	0.18776	0.20166	0.27579	0.076312	0.34581	0.13295	0.2329	0.43063	0.15216	0.14961	0.246	0.3109	0.07904	0.088869	-2.5979	-3.0354	-2.7896	-3.1542	-2.9854	-2.8208	-3.1375	-2.8708	-3.0521	-2.9271	-2.6813	-3.2208	-2.9313	-2.8646	-3.0812	-2.9062	159.368	427.110	317.256	421.121	465.259	505.873	506.654	360.880	191.731	419.704	231.788	167.314	469.724	452.020	210.987	287.243	0.00037048	0.00037227	9.6207e-05	1146.3	7.2759e-06	9.8452e-07	1193.8	227.05	2.9773e-06	3.4301e-07	281.96	79.877	62.381	17.845	3.2736e-06	25.426	0.00093181	0.0011425	0.00031645	1136.2	1.1966e-05	1.2426e-05	1184.6	226.51	1.1664e-05	1.2243e-05	285.43	81.314	63.72	18.398	1.2144e-05	26.341	276.089	180.454	203.572	157.456	310.717	482.218	157.564	165.119	326.717	183.493	164.631	171.410	171.289	178.699	286.720	177.866	-8191	255	
41194.523	1	1	0	0	0.15857	0.15103	0.087663	0.22857	0.23645	0.34503	0.2306	0.096152	0.060552	0.046825	0.29516	0.22009	0.062474	0.16919	0.050664	0.18412	-2.3896	-2.9562	-2.7646	-3.05	-2.9458	-2.9729	-3.1708	-2.8792	-2.7229	-3.1	-2.8792	-2.9625	-3.0125	-2.8083	-3.1417	-3.0271	313.061	412.091	422.367	410.430	385.307	372.996	433.628	494.703	399.245	492.056	395.965	437.378	435.812	410.685	505.832	445.400	0.0003135	0.00062286	6.7203e-05	1146.4	4.3268e-06	1.9518e-06	1199.1	226.51	4.7882e-06	2.013e-06	283.38	80.136	62.883	17.883	2.8667e-06	25.519	0.0008805	0.0011072	0.00030708	1136.3	1.1468e-05	1.1828e-05	1189.5	226.46	1.1223e-05	1.1667e-05	285.6	81.364	63.823	18.388	1.165e-05	26.352	275.035	245.831	237.760	157.619	296.329	480.681	157.608	164.814	334.095	394.723	164.486	171.470	171.705	178.397	315.322	177.586	-8191	255	
41194.598	1	1	0	0	0.081272	0.086719	0.38405	0.23857	0.12497	0.37366	0.057689	0.29112	0.21659	0.21836	0.17819	0.20502	0.067775	0.27681	0.24982	0.1279	-2.3354	-2.9417	-2.8729	-3.0604	-3.0521	-2.7083	-3.2271	-2.9417	-2.9042	-3.1458	-2.8208	-2.9521	-3.0062	-2.8187	-3.1208	-3.0521	333.322	472.805	256.609	197.664	358.061	246.209	487.456	426.513	464.177	216.956	316.806	164.205	367.501	328.998	440.697	231.922	0.00031366	0.00012767	5.1715e-05	1148.6	1.0426e-06	2.1598e-06	1205.1	225.8	1.6438e-06	2.1155e-06	284.63	80.428	62.964	17.811	3.3277e-06	25.392	0.0008445	0.0010561	0.0002903	1140.6	1.0919e-05	1.1534e-05	1190.7	226.22	1.0684e-05	1.1172e-05	286.03	81.318	63.922	18.378	1.0619e-05	26.253	276.096	369.686	403.961	157.399	467.436	301.606	157.525	164.975	282.176	450.945	164.236	171.365	171.205	178.330	357.136	177.648	-8191	255	
41194.691	1	1	0	0	0.10234	0.15227	0.032956	0.18385	0.31107	0.17747	0.1995	0.10102	0.13547	0.23722	0.29151	0.12151	0.17326	0.10519	0.066747	0.02519	-2.4771	-3.0979	-2.7146	-3.075	-3.0146	-2.7625	-2.9125	-3.1083	-2.7375	-3.1208	-2.975	-2.8979	-3.1458	-2.6771	-3.1896	-3.0521	162.168	382.216	242.239	210.664	253.722	329.126	171.109	344.267	306.777	435.619	453.988	176.927	222.405	258.112	238.065	427.074	0.00030978	0.00040784	0.00016177	1144.1	7.8855e-06	4.4663e-06	1207.4	226.05	2.4823e-06	1.6905e-06	283.83	80.248	63.124	17.839	4.6945e-06	25.562	0.00082127	0.00098792	0.00027732	1136.8	1.0642e-05	1.1098e-05	1194.5	226.08	1.0646e-05	1.1106e-05	285.41	81.369	64.059	18.402	1.0834e-05	26.327	269.406	180.117	214.713	157.275	304.442	327.808	157.496	164.559	247.360	349.528	164.303	171.054	171.230	178.590	289.981	178.005	-8191	255	
41194.812	1	1	0	0	0.12054	0.20339	0.081224	0.2762	0.072363	0.095439	0.13102	0.3751	0.42378	0.06998	0.14138	0.14004	0.16178	0.14349	0.31785	0.074424	-2.3396	-3.1375	-2.8146	-3.1271	-3.1604	-2.8521	-2.9542	-3.0271	-2.6021	-3.0729	-2.8708	-2.85	-3.0854	-2.8625	-2.7667	-2.9583	316.706	355.231	427.738	433.723	216.352	390.813	393.172	375.263	366.755	207.396	152.560	426.888	362.336	229.104	371.001	446.467	0.00027953	0.00018308	0.00011431	1152.4	6.4934e-06	2.3359e-06	1208.3	226.75	5.5919e-06	4.1766e-06	283.77	80.271	63.645	17.841	4.6369e-06	25.489	0.00082321	0.0010146	0.00027615	1141.6	1.0807e-05	1.1162e-05	1197.2	226.73	1.0724e-05	1.1322e-05	286.89	81.296	64.205	18.435	1.0701e-05	26.33	280.576	224.532	221.662	157.253	289.451	192.971	157.852	164.662	346.980	326.273	164.524	171.428	171.121	179.026	340.555	177.449	-8191	255	
41194.906	1	1	0	0	0.088425	0.41301	0.083209	0.19396	0.13349	0.2605	0.17403	0.18663	0.050104	0.11255	0.10205	0.25153	0.15901	0.16115	0.13445	0.16228	-2.4167	-2.8458	-2.8208	-2.8688	-3.0646	-2.6729	-3.0542	-3.1417	-2.6208	-3.0583	-3.0042	-2.7313	-3.1083	-3.0104	-3.0104	-3.2604	312.129	392.855	216.920	452.829	235.856	358.721	425.103	400.196	411.291	166.197	471.348	505.292	271.608	450.935	478.978	465.407	0.00036317	0.00030916	0.00011449	1149.6	7.3376e-06	2.0505e-06	1213.1	227.67	3.7746e-06	3.2793e-06	285.54	80.945	63.226	17.971	4.1701e-06	25.521	0.00084067	0.00099844	0.00027466	1142.7	1.0998e-05	1.1092e-05	1200.9	226.85	1.0564e-05	1.0927e-05	286.63	81.708	64.075	18.445	1.0677e-05	26.385	277.876	235.926	268.383	157.406	277.041	268.439	157.381	165.053	302.061	283.584	164.213	171.168	171.505	178.771	251.985	177.870	-8191	255	
41195.004	1	1	0	0	0.17336	0.24429	0.24745	0.24792	0.17966	0.29945	0.087129	0.14183	0.23606	0.17457	0.11665	0.14313	0.036123	0.15123	0.2005	0.23936	-2.5	-3.1042	-3.0458	-2.675	-3.0396	-2.6458	-2.9604	-3.2438	-2.8958	-3.0687	-3.0646	-2.8	-3	-2.8521	-2.7354	-3.3	401.732	192.441	345.570	478.643	414.248	385.471	483.189	221.498	239.349	386.151	338.260	214.802	485.756	219.334	346.495	442.905	0.00033008	0.0007147	0.00010869	1156.5	3.7647e-06	5.2695e-06	1215.7	226.94	3.848e-06	4.0965e-06	285.12	80.316	62.879	17.865	3.1808e-06	25.514	0.00083068	0.00098982	0.0002719	1146.2	1.0508e-05	1.0579e-05	1203.2	227.21	1.04e-05	1.0617e-05	286.39	81.534	63.991	18.375	1.0313e-05	26.34	271.730	210.397	272.818	157.408	245.051	280.233	157.667	164.857	303.708	359.120	164.506	171.112	171.460	178.690	314.489	178.423	-8191	255	
41195.102	1	1	0	0	0.19339	0.10286	0.23679	0.059928	0.078962	0.17928	0.21207	0.20871	0.17263	0.18419	0.17345	0.37723	0.27409	0.051904	0.27424	0.17039	-2.3625	-2.8729	-2.9062	-2.6208	-3.1083	-2.8937	-2.9	-3.2042	-2.7062	-2.8438	-3.1604	-2.7438	-2.9542	-2.8208	-2.825	-3.2083	368.086	264.742	478.294	501.791	207.071	491.641	462.269	479.697	226.899	273.130	469.594	460.899	475.426	227.381	374.055	427.016	0.00031994	9.7909e-05	7.4806e-05	1152.3	4.3231e-06	5.1142e-06	1212	227.78	3.4614e-06	2.35e-06	283.32	80.897	63.095	17.904	2.0502e-06	25.515	0.00080855	0.00094281	0.00026213	1144.4	1.027e-05	1.0293e-05	1200	227.24	1.0219e-05	1.0594e-05	286.67	81.604	64.119	18.412	1.0289e-05	26.319	269.145	454.838	213.493	157.374	342.855	322.082	157.699	164.665	332.146	322.082	164.867	171.120	171.752	178.838	343.379	178.288	-8191	255	
41195.195	1	1	0	0	0.038365	0.053827	0.10355	0.22616	0.17301	0.086445	0.09032	0.165	0.12331	0.16	0.27292	0.21099	0.20843	0.055135	0.18076	0.13915	-2.3979	-2.5583	-3.1146	-2.8792	-2.975	-3.0521	-2.9	-3.1562	-2.9667	-2.9646	-3.2792	-2.8375	-3.0021	-2.9938	-2.7521	-3.0625	430.067	400.924	362.471	471.277	246.228	367.522	445.937	302.072	428.694	283.145	504.152	427.831	459.149	208.050	388.245	493.619	0.00032403	0.00045548	8.0907e-05	1153.1	5.1172e-06	3.432e-06	1215.8	227.08	4.2629e-06	5.2647e-06	284.48	80.721	63.018	17.903	2.646e-06	25.67	0.00079524	0.0009507	0.00026721	1144	1.0277e-05	1.064e-05	1202.7	226.69	1.0459e-05	1.0558e-05	287.13	81.671	64.147	18.395	1.055e-05	26.375	265.179	259.528	209.808	157.188	290.804	322.000	157.592	165.016	343.497	268.776	164.586	171.444	171.976	178.595	254.633	178.176	-8191	255	
41195.293	1	1	0	0	0.29909	0.22179	0.16195	0.39275	0.16395	0.2211	0.12965	0.029722	0.40096	0.21545	0.011826	0.11218	0.20121	0.22881	0.11885	0.17163	-2.4771	-2.7083	-3.0646	-2.8604	-2.9271	-2.8479	-2.875	-3.1167	-2.7458	-2.8667	-3.0687	-2.8458	-2.9271	-3.3042	-2.7104	-3.0375	295.255	220.250	289.508	486.394	383.997	160.258	302.046	317.829	430.918	503.511	268.796	386.316	321.753	357.324	300.386	380.679	0.00030969	0.00039473	0.00022068	1152	6.2066e-06	4.0541e-06	1213.6	227.4	2.6045e-06	5.0338e-06	283.94	80.557	63.12	17.808	4.7613e-06	25.544	0.00079507	0.00095403	0.00026693	1142.3	1.0279e-05	1.0574e-05	1201.7	227.28	9.9364e-06	1.0663e-05	286.91	81.595	64.083	18.347	1.0477e-05	26.375	271.492	275.891	227.638	157.528	282.721	362.532	157.601	164.719	282.303	346.064	164.603	171.018	171.583	178.319	368.849	177.939	-8191	255	
41195.387	1	1	0	0	0.14891	0.15297	0.027226	0.20986	0.11892	0.19456	0.41961	0.1221	0.17528	0.12595	0.1868	0.17731	0.074347	0.17317	0.12768	0.2078	-2.5542	-2.7417	-3	-2.9771	-2.8167	-3.1458	-2.8187	-3.075	-2.9583	-2.8396	-3.0146	-2.775	-2.9208	-3.025	-2.6667	-2.9896	437.585	190.511	364.089	423.000	473.761	187.795	414.018	216.797	467.778	211.350	153.349	427.816	418.637	454.526	241.900	432.999	0.00028761	0.00047069	6.9127e-05	1158.3	4.067e-06	3.014e-06	1214.4	227.48	3.6322e-06	2.0348e-06	285.64	80.668	63.204	17.871	3.2552e-06	25.532	0.00080127	0.00096465	0.00026721	1145.7	1.0367e-05	1.0716e-05	1201.9	227.33	1.0108e-05	1.0592e-05	286.87	81.462	64.037	18.45	1.0431e-05	26.352	264.246	271.082	152.729	157.162	263.562	322.769	157.430	164.855	305.042	415.999	164.471	171.126	171.458	179.052	278.726	177.403	-8191	255	
41195.508	1	1	0	0	0.061564	0.097353	0.10516	0.13637	0.18	0.1343	0.024406	0.221	0.26446	0.22046	0.062543	0.22993	0.20433	0.17521	0.26446	0.059714	-2.4688	-2.6521	-3.0417	-2.8458	-2.7646	-2.9896	-2.9375	-3.0687	-3.0792	-2.7146	-3.0125	-2.7375	-2.7938	-3.1792	-2.6667	-2.9604	482.185	315.605	409.310	468.024	417.331	269.570	336.756	449.595	473.763	433.162	174.386	245.408	502.215	395.817	170.227	283.332	0.00035114	0.00044805	0.00010054	1157.2	3.0491e-06	1.8062e-06	1213.3	227.12	3.96e-06	4.7267e-06	284.96	80.897	63.241	17.876	4.3612e-06	25.529	0.00078425	0.0009442	0.00026824	1146.6	1.0049e-05	1.0437e-05	1201.3	227.09	1.0019e-05	1.0567e-05	286.74	81.6	64.132	18.383	1.0398e-05	26.32	274.292	239.154	271.629	157.301	338.849	172.262	157.622	164.851	318.795	301.386	164.458	171.559	171.777	178.920	344.001	177.971	-8191	255	
#DATA ENDS
