BOXY.EXE: ISS Imagent and Oximeter Data Acquisition Program Version 0.80
Ascii Record File

#ACQ INFORMATION
2  Detector Channels 
16  External MUX Channels 
1  Auxiliary Channels 
5000  Waveform (CCF) Frequency (Hz)
1  Waveforms Skipped 
30  Waveforms Averaged 
1  Cycles Averaged 
16  Acquisitions per Waveform 
10.0806  Updata Rate (Hz) 

#FILE INFORMATION
TRUE -- External MUX Channel results are PARSED.
FALSE -- AC DC and Phase are NOT grouped.
TRUE -- Companion Program Settings File CREATED.
FALSE -- AC data not excluded
FALSE -- DC data not excluded
FALSE -- Phase data not excluded
FALSE -- Auxillary Chn. data not excluded
Tab delimiters

#CALIBRATION STATE
TRUE -- Waveform Calibration Values APPLIED.


#AUX CALIBRATION VALUES
Val Type	aux-1	

Term	1.0000e+00	
Factor	0.0000e+00	


#WF CALIBRATION VALUES
A = Detector Channel
Val Type	A-AC1	A-AC2	A-AC3	A-AC4	A-AC5	A-AC6	A-AC7	A-AC8	A-AC9	A-AC10	A-AC11	A-AC12	A-AC13	A-AC14	A-AC15	A-AC16	A-DC1	A-DC2	A-DC3	A-DC4	A-DC5	A-DC6	A-DC7	A-DC8	A-DC9	A-DC10	A-DC11	A-DC12	A-DC13	A-DC14	A-DC15	A-DC16	A-Ph1	A-Ph2	A-Ph3	A-Ph4	A-Ph5	A-Ph6	A-Ph7	A-Ph8	A-Ph9	A-Ph10	A-Ph11	A-Ph12	A-Ph13	A-Ph14	A-Ph15	A-Ph16	

Term	0.00000e+00	0.00000e+00	0.00000e+00	0.00000e+00	0.00000e+00	0.00000e+00	0.00000e+00	0.00000e+00	0.00000e+00	0.00000e+00	0.00000e+00	0.00000e+00	0.00000e+00	0.00000e+00	0.00000e+00	0.00000e+00	0.00000e+00	0.00000e+00	0.00000e+00	0.00000e+00	0.00000e+00	0.00000e+00	0.00000e+00	0.00000e+00	0.00000e+00	0.00000e+00	0.00000e+00	0.00000e+00	0.00000e+00	0.00000e+00	0.00000e+00	0.00000e+00	0.00000e+00	0.00000e+00	0.00000e+00	0.00000e+00	0.00000e+00	0.00000e+00	0.00000e+00	0.00000e+00	0.00000e+00	0.00000e+00	0.00000e+00	0.00000e+00	0.00000e+00	0.00000e+00	0.00000e+00	0.00000e+00	
Factor	1.00000e+00	1.00000e+00	1.00000e+00	1.00000e+00	1.00000e+00	1.00000e+00	1.00000e+00	1.00000e+00	1.00000e+00	1.00000e+00	1.00000e+00	1.00000e+00	1.00000e+00	1.00000e+00	1.00000e+00	1.00000e+00	1.00000e+00	1.00000e+00	1.00000e+00	1.00000e+00	1.00000e+00	1.00000e+00	1.00000e+00	1.00000e+00	1.00000e+00	1.00000e+00	1.00000e+00	1.00000e+00	1.00000e+00	1.00000e+00	1.00000e+00	1.00000e+00	X	X	X	X	X	X	X	X	X	X	X	X	X	X	X	X	

B = Detector Channel
Val Type	B-AC1	B-AC2	B-AC3	B-AC4	B-AC5	B-AC6	B-AC7	B-AC8	B-AC9	B-AC10	B-AC11	B-AC12	B-AC13	B-AC14	B-AC15	B-AC16	B-DC1	B-DC2	B-DC3	B-DC4	B-DC5	B-DC6	B-DC7	B-DC8	B-DC9	B-DC10	B-DC11	B-DC12	B-DC13	B-DC14	B-DC15	B-DC16	B-Ph1	B-Ph2	B-Ph3	B-Ph4	B-Ph5	B-Ph6	B-Ph7	B-Ph8	B-Ph9	B-Ph10	B-Ph11	B-Ph12	B-Ph13	B-Ph14	B-Ph15	B-Ph16	

Term	0.00000e+00	0.00000e+00	0.00000e+00	0.00000e+00	0.00000e+00	0.00000e+00	0.00000e+00	0.00000e+00	0.00000e+00	0.00000e+00	0.00000e+00	0.00000e+00	0.00000e+00	0.00000e+00	0.00000e+00	0.00000e+00	0.00000e+00	0.00000e+00	0.00000e+00	0.00000e+00	0.00000e+00	0.00000e+00	0.00000e+00	0.00000e+00	0.00000e+00	0.00000e+00	0.00000e+00	0.00000e+00	0.00000e+00	0.00000e+00	0.00000e+00	0.00000e+00	-1.03364e+02	-1.28589e+02	-1.22771e+02	-1.82799e+02	-5.29327e+01	-6.36955e+01	-1.54998e+02	-1.62015e+02	-5.44320e+01	-6.23480e+01	-1.71853e+02	-1.69414e+02	-1.80018e+02	-1.77411e+02	-5.74280e+01	-1.48938e+02	
Factor	1.60856e-05	1.42380e-04	4.19562e-05	1.84207e-01	1.34200e-06	1.50499e-06	1.63323e-01	4.88771e-02	1.25689e-06	1.78350e-06	9.25773e-02	2.71365e-02	2.66344e-02	8.67124e-03	1.27850e-06	1.23973e-02	7.02452e-06	9.64614e-06	2.71299e-06	9.29001e-02	1.02271e-07	1.07808e-07	7.77924e-02	2.48455e-02	1.01700e-07	1.07589e-07	4.55974e-02	1.35142e-02	1.37367e-02	4.44083e-03	1.04084e-07	6.15744e-03	X	X	X	X	X	X	X	X	X	X	X	X	X	X	X	X	



#DISTANCE SETTINGS
A = Detector Channel
A-1	A-2	A-3	A-4	A-5	A-6	A-7	A-8	A-9	A-10	A-11	A-12	A-13	A-14	A-15	A-16	

2.5000e+00	3.0000e+00	2.5000e+00	3.0000e+00	2.0000e+00	3.0000e+00	1.5000e+00	3.0000e+00	3.0000e+00	3.0000e+00	3.0000e+00	3.0000e+00	3.0000e+00	3.0000e+00	1.5000e+00	3.0000e+00	

B = Detector Channel
B-1	B-2	B-3	B-4	B-5	B-6	B-7	B-8	B-9	B-10	B-11	B-12	B-13	B-14	B-15	B-16	

1.0000e+01	1.0000e+01	1.0000e+01	1.4400e+00	1.0000e+01	1.0000e+01	1.5100e+00	1.9400e+00	1.0000e+01	1.0000e+01	1.9900e+00	2.4900e+00	2.4100e+00	2.9000e+00	1.0000e+01	2.9800e+00	




#DATA BEGINS
time	group	step	mark	flag	A-AC1	A-AC2	A-AC3	A-AC4	A-AC5	A-AC6	A-AC7	A-AC8	A-AC9	A-AC10	A-AC11	A-AC12	A-AC13	A-AC14	A-AC15	A-AC16	A-DC1	A-DC2	A-DC3	A-DC4	A-DC5	A-DC6	A-DC7	A-DC8	A-DC9	A-DC10	A-DC11	A-DC12	A-DC13	A-DC14	A-DC15	A-DC16	A-Ph1	A-Ph2	A-Ph3	A-Ph4	A-Ph5	A-Ph6	A-Ph7	A-Ph8	A-Ph9	A-Ph10	A-Ph11	A-Ph12	A-Ph13	A-Ph14	A-Ph15	A-Ph16	B-AC1	B-AC2	B-AC3	B-AC4	B-AC5	B-AC6	B-AC7	B-AC8	B-AC9	B-AC10	B-AC11	B-AC12	B-AC13	B-AC14	B-AC15	B-AC16	B-DC1	B-DC2	B-DC3	B-DC4	B-DC5	B-DC6	B-DC7	B-DC8	B-DC9	B-DC10	B-DC11	B-DC12	B-DC13	B-DC14	B-DC15	B-DC16	B-Ph1	B-Ph2	B-Ph3	B-Ph4	B-Ph5	B-Ph6	B-Ph7	B-Ph8	B-Ph9	B-Ph10	B-Ph11	B-Ph12	B-Ph13	B-Ph14	B-Ph15	B-Ph16	aux-1	digaux	

16240.215	1	1	0	768	0.13925	0.065191	0.34203	0.17593	0.042081	0.10852	0.18021	0.14192	0.10469	0.091185	0.14221	0.1555	0.12872	0.053807	0.10079	0.27708	-2.8104	-3.175	-3.3312	-3.1167	-3.3292	-3.4042	-3.1021	-3.4583	-3.0896	-3.1542	-3.3708	-2.9417	-3.2438	-3.2667	-2.9667	-3.3708	156.116	84.857	64.330	278.280	124.075	74.777	141.337	-38.016	-30.357	90.189	-60.105	-51.651	190.400	231.326	198.037	42.459	8.6309e-05	0.0022147	0.00027375	1165.1	1.7676e-05	1.1514e-05	771.87	210.93	1.4076e-05	2.7055e-05	148.8	43.789	55.768	24.929	5.5366e-06	24.07	0.018468	0.025255	0.0071642	1364	0.00026788	0.00028229	947.86	269.56	0.00026806	0.00028027	263.5	78.175	89.689	35.742	0.00027256	39.434	148.684	-0.396	-53.584	-66.584	-73.581	136.527	-67.722	-59.581	157.357	280.681	-61.718	-56.252	-53.320	-47.874	183.556	-51.782	-8191	255	
16240.311	1	1	0	0	0.16578	0.11834	0.22011	0.13065	0.23142	0.13782	0.025876	0.18702	0.096416	0.10213	0.34882	0.25479	0.14618	0.078927	0.18179	0.053683	-2.7458	-2.9833	-3.2771	-3.2604	-3.2167	-3.3354	-3.2521	-3.2729	-3.4104	-3.0604	-3.4875	-3.0958	-3.3125	-3.4146	-3.1792	-3.4354	214.977	277.253	264.533	186.917	158.940	224.164	226.183	161.569	4.245	74.427	145.139	-1.852	19.454	-36.522	110.819	162.115	0.00012563	0.0013657	0.00018021	1146.1	9.4534e-06	1.6144e-05	750.03	208.73	1.1438e-05	1.8339e-05	145.3	42.66	54.227	24.38	4.5798e-06	23.544	0.018287	0.025051	0.0071108	1345.3	0.0002639	0.00027891	928.4	265.85	0.0002636	0.00027641	258.04	76.674	87.991	35.142	0.00026683	38.589	8.998	145.742	-30.535	-66.519	217.945	257.444	-67.539	-59.472	-8.796	-54.214	-61.017	-56.149	-53.711	-47.485	74.421	-51.117	-8191	255	
16240.407	1	1	0	0	0.17479	0.3694	0.036781	0.12725	0.039003	0.11136	0.052615	0.2054	0.063622	0.17352	0.15482	0.3088	0.14238	0.1581	0.038877	0.3073	-2.8812	-2.9271	-3.3187	-3.3729	-3.2146	-3.4708	-3.2333	-3.3896	-3.3187	-3.2229	-3.5333	-3.2792	-3.1167	-3.4938	-3.1688	-3.2687	-7.663	72.083	167.747	208.036	64.671	161.996	263.038	215.190	-11.043	-5.299	27.246	233.657	-48.860	-33.702	62.744	230.742	7.4775e-05	0.00092902	0.00029662	1125.4	1.2049e-05	3.5313e-06	742.28	205.31	1.4017e-05	1.1529e-05	142.96	42.795	53.407	24.019	2.1099e-05	23.299	0.017967	0.024734	0.0069855	1317	0.00025866	0.00027522	911.9	261.58	0.00026011	0.00027294	254.58	75.339	86.908	34.698	0.00026557	38.111	186.956	203.781	87.622	-66.412	132.279	123.748	-67.321	-59.311	20.855	-51.016	-61.142	-55.731	-53.672	-47.770	111.224	-50.409	-8191	255	
16240.504	1	1	0	0	0.065171	0.030611	0.022952	0.18589	0.3222	0.051464	0.11355	0.37826	0.084895	0.24206	0.11907	0.33434	0.20407	0.15998	0.11873	0.1768	-3.0604	-3.075	-3.3563	-3.4979	-3.1542	-3.4625	-3.3521	-3.4104	-3.4562	-3.1479	-3.4437	-3.1896	-3.1979	-3.3354	-3.0917	-3.3333	160.934	82.649	-18.366	279.472	-27.078	231.831	-63.264	215.598	-58.298	14.692	279.368	-37.644	247.316	-10.622	18.389	258.601	0.00015906	0.0025349	0.00042942	1092.4	2.1029e-05	1.3827e-05	716.37	198.64	1.1727e-05	8.921e-06	140.46	41.553	52.055	23.748	2.1348e-05	22.991	0.017776	0.024577	0.0069094	1286	0.00025681	0.00027258	882.49	254.41	0.0002548	0.0002709	250.49	74.182	85.257	34.229	0.00026077	37.634	-0.075	187.012	6.882	-66.165	6.186	141.715	-67.140	-58.859	17.465	21.508	-61.465	-55.473	-52.666	-47.231	96.773	-50.977	-8191	255	
16240.600	1	1	0	0	0.024163	0.12266	0.26987	0.15013	0.098462	0.1163	0.23259	0.10541	0.087077	0.22538	0.086162	0.20146	0.029998	0.13442	0.39854	0.12625	-3.1958	-3.1771	-3.4396	-3.3375	-3.2479	-3.4958	-3.3021	-3.5021	-3.4938	-3.0812	-3.4646	-3.325	-3.0625	-3.3646	-3.1167	-3.2687	-64.898	190.350	275.976	200.076	45.503	72.980	166.788	141.825	208.875	-57.843	269.656	230.429	98.299	60.862	236.023	155.941	0.00010801	0.001992	0.00017766	1062.1	1.5338e-05	1.3109e-05	696.56	197.25	1.5095e-05	1.6931e-05	139.94	41.779	52.302	23.619	7.9255e-06	22.957	0.017421	0.023984	0.00676	1251	0.00025215	0.00026887	862.24	251.8	0.00025234	0.00026772	247.2	73.633	84.793	34.046	0.00025816	37.487	70.713	51.957	-1.962	-65.561	61.230	213.457	-67.067	-58.245	56.810	272.744	-61.109	-54.941	-52.805	-47.664	253.636	-51.278	-8191	255	
16240.696	1	1	0	0	0.20387	0.30808	0.24144	0.13236	0.15748	0.075291	0.22792	0.45238	0.26153	0.091702	0.14388	0.18457	0.21691	0.084708	0.17953	0.25804	-2.9958	-3.1292	-3.275	-3.3271	-3.0375	-3.3	-3.225	-3.3563	-3.4979	-3.2792	-3.2979	-3.4188	-2.925	-3.4188	-3.3458	-3.225	194.416	81.795	-36.622	222.360	-59.024	141.796	161.932	279.200	-35.982	278.592	147.925	83.986	206.508	161.249	209.506	56.833	0.00010234	0.00153	0.00033869	1054.8	1.963e-05	1.2952e-05	695.81	198.49	1.3627e-05	2.3514e-05	143.25	41.584	52.897	23.984	1.0441e-05	23.469	0.017413	0.023946	0.0066871	1244.3	0.00025166	0.00026748	862.08	252.25	0.00025129	0.00026823	249.44	74.063	85.697	34.458	0.00026205	37.971	170.436	206.696	275.837	-66.025	114.784	59.672	-66.859	-58.755	-36.545	183.962	-61.665	-55.526	-53.078	-47.767	-41.805	-51.035	-8191	255	
16240.817	1	1	0	0	0.065391	0.12231	0.25543	0.18882	0.28344	0.14621	0.148	0.24376	0.17205	0.21393	0.1134	0.094401	0.1557	0.10479	0.16709	0.087003	-3.0208	-3.0125	-3.3	-3.5292	-3.1271	-3.3771	-3.1958	-3.2562	-3.4354	-3.1854	-3.4229	-3.3854	-3.0854	-3.0958	-3.2542	-3.1521	-25.984	8.626	204.005	232.762	-17.136	-44.265	125.336	216.869	171.171	144.903	113.510	-69.989	109.630	-41.053	-29.123	-14.808	0.00012187	0.0016351	0.00048095	1085.8	1.2858e-05	4.5401e-06	723.39	201.62	6.0361e-06	1.9656e-05	143.54	42.614	53.456	24.729	1.0473e-05	23.967	0.017752	0.024416	0.0068375	1277.5	0.00025981	0.00027587	892.72	258.92	0.00026224	0.00028143	255.99	76.55	88.193	35.626	0.00027374	39.405	155.997	-19.262	125.436	-66.018	142.655	119.127	-67.022	-59.150	125.547	169.550	-60.720	-55.303	-53.806	-47.640	236.502	-51.095	-8191	255	
16240.913	1	1	0	0	0.042839	0.15276	0.071682	0.15258	0.29836	0.053793	0.096424	0.29243	0.052959	0.078844	0.15953	0.23954	0.22345	0.1859	0.11306	0.091415	-3.0021	-3.0542	-3.1937	-3.525	-3.0438	-3.4729	-3.4375	-3.1583	-3.3396	-3.4042	-3.325	-3.4708	-3.4208	-3.3208	-3.3646	-3.1333	248.027	-20.056	-15.429	232.352	-13.526	-64.639	-66.384	202.322	27.095	198.161	39.814	-69.885	41.712	-30.701	35.510	35.041	8.2216e-05	0.0012682	0.00074726	1108.6	1.1253e-05	9.994e-06	735.53	205.38	1.6391e-05	2.8158e-05	145.45	42.727	54.822	24.891	1.2159e-05	24.173	0.018789	0.025795	0.0071974	1316.5	0.0002747	0.00028909	911.97	265.72	0.00027395	0.00028882	262.2	78.536	90.22	36.137	0.00027806	39.841	-17.624	-30.459	102.602	-66.179	270.268	222.955	-67.129	-59.305	5.543	111.139	-61.462	-55.270	-53.348	-47.636	138.869	-51.471	-8191	255	
16241.009	1	1	0	0	0.31285	0.28645	0.055532	0.19502	0.26801	0.082586	0.10327	0.17491	0.043839	0.23371	0.15345	0.097485	0.17545	0.23489	0.198	0.41781	-2.9083	-3.2188	-3.0375	-3.6	-3.1688	-3.4375	-3.3187	-3.0375	-3.3521	-3.2542	-3.1792	-3.425	-3.175	-3.2479	-3.3896	-3.0021	-59.810	184.157	39.022	234.277	196.573	-43.983	268.962	-62.950	66.938	9.831	61.076	274.832	2.643	136.952	-20.374	242.195	0.00010992	0.0003891	0.00015516	1090.2	1.1747e-05	1.3839e-05	715.62	205.63	1.0645e-05	1.4668e-05	146.29	43.617	54.091	25.02	7.7363e-06	24.13	0.018786	0.02555	0.0071105	1294.4	0.00027069	0.00028343	892.43	263.43	0.00026865	0.00028263	258.83	77.826	89.248	35.735	0.00027246	39.557	282.842	28.735	118.661	-65.827	244.016	37.299	-67.331	-58.664	145.067	28.996	-62.121	-55.602	-53.290	-47.875	19.427	-50.945	-8191	255	
16241.105	1	1	0	0	0.28515	0.16825	0.1147	0.14676	0.14847	0.075712	0.20242	0.10356	0.084036	0.26161	0.15359	0.10529	0.14271	0.1956	0.28856	0.2629	-3.0646	-3.0938	-3.0125	-3.5167	-3.1646	-3.1688	-3.5083	-3.1271	-3.2938	-3.1771	-3.0438	-3.3729	-3.1833	-3.1646	-3.3229	-3.0687	-26.697	260.467	264.589	203.572	-10.879	215.152	212.506	29.138	-19.435	138.170	78.573	82.411	245.770	35.058	104.030	-34.858	0.00030214	0.0014431	0.00046606	1099.1	8.4334e-06	1.0657e-05	726.36	206.9	1.1948e-05	6.8313e-06	147.51	44.445	56.3	25.459	6.5166e-06	24.847	0.01856	0.02516	0.0071311	1301	0.00027306	0.00028301	906.32	266.79	0.00027263	0.00028867	265.03	79.998	92.122	36.894	0.00028544	41.004	214.313	30.017	159.435	-66.347	178.928	0.070	-67.398	-59.021	109.838	82.422	-61.399	-55.602	-53.523	-47.512	173.133	-50.981	-8191	255	
16241.201	1	1	0	0	0.032839	0.34814	0.16757	0.40784	0.10195	0.17197	0.058017	0.18402	0.16023	0.11606	0.24435	0.076847	0.17051	0.22334	0.26308	0.10285	-2.9375	-3.4083	-3.0604	-3.4417	-3.2167	-3.2333	-3.4708	-3.0833	-3.2896	-3.2771	-3.1229	-3.4062	-3.2125	-3.175	-3.5	-3.2229	-76.199	195.461	-41.835	-53.496	151.916	92.353	217.046	121.568	138.192	159.087	160.388	-14.395	217.158	1.660	259.352	279.241	0.00010589	0.0017442	0.00044595	1123.2	3.3534e-06	1.7118e-05	743.24	211.87	1.6808e-05	1.6045e-05	148.96	44.392	56.9	25.754	9.9421e-06	24.843	0.019461	0.026649	0.0075379	1338.3	0.00028733	0.00030036	930.68	274.26	0.00028607	0.00030158	272.54	82.008	93.769	37.614	0.00029421	41.521	251.431	218.000	186.178	-66.276	113.404	272.073	-67.268	-58.979	206.243	150.447	-61.904	-55.543	-53.703	-48.081	81.996	-51.187	-8191	255	
16241.297	1	1	0	0	0.22648	0.16152	0.172	0.19633	0.10376	0.3145	0.22174	0.092076	0.2293	0.070802	0.24933	0.23053	0.18607	0.068228	0.21873	0.084693	-2.775	-3.3229	-3.0292	-3.5729	-3.3958	-3.0979	-3.5708	-3.1771	-3.3	-3.4313	-2.9604	-3.3479	-3.3604	-3.2313	-3.2917	-3.1833	225.655	26.956	279.273	-74.815	229.448	250.082	149.272	132.242	96.498	41.095	192.522	189.416	-18.728	51.325	179.681	157.342	5.6604e-05	0.00098208	0.00027145	1108.7	7.3545e-06	1.4633e-05	732.41	209.96	8.8082e-06	3.3849e-05	148.73	44.255	56.088	25.56	1.1191e-05	24.679	0.019763	0.026843	0.007657	1328.5	0.00028618	0.00029833	919.82	271.79	0.00028118	0.00029823	269.34	80.996	92.191	37.103	0.00028982	41.103	-6.258	270.207	260.300	-66.258	172.516	197.857	-67.023	-58.838	65.427	95.608	-60.955	-55.668	-52.947	-47.629	227.949	-51.476	-8191	255	
16241.393	1	1	0	0	0.27334	0.23146	0.22369	0.31939	0.1628	0.10503	0.074269	0.2281	0.19725	0.035425	0.069833	0.10234	0.055027	0.079971	0.25767	0.077513	-2.7792	-3.3104	-3.1604	-3.5125	-3.3833	-3.1375	-3.3125	-3.3417	-3.1771	-3.3104	-3.1042	-3.3937	-3.5042	-3.0729	-3.4708	-3.275	98.285	48.859	-61.316	229.302	282.772	-65.784	218.200	259.179	-66.412	24.773	146.058	-36.108	223.560	31.278	271.674	183.644	5.5799e-05	0.0023758	0.00023729	1092.1	1.3926e-05	1.7298e-05	715.24	207.24	5.0761e-06	1.8499e-05	150.82	44.611	56.317	25.608	1.0868e-05	25.216	0.019418	0.026617	0.0075604	1307.1	0.00028319	0.00029824	906.31	269.89	0.00028026	0.00030029	270.17	81.206	92.592	37.442	0.00029006	41.53	28.984	-32.604	104.783	-66.039	234.153	200.854	-67.015	-58.677	-25.382	10.800	-61.766	-56.174	-52.970	-47.944	54.143	-51.046	-8191	255	
16241.512	1	1	0	0	0.082574	0.1501	0.096586	0.18882	0.19055	0.10426	0.091781	0.24273	0.27898	0.20989	0.076701	0.090841	0.18543	0.099226	0.11638	0.084677	-2.8208	-3.3833	-2.9062	-3.2542	-3.3812	-3.0896	-3.5604	-3.0938	-3.175	-3.6542	-3.2146	-3.1188	-3.5187	-3.1042	-3.2958	-3.2375	132.449	85.946	-15.382	-58.221	9.577	223.616	206.242	258.312	95.399	240.846	82.824	154.610	6.006	216.147	124.315	239.766	7.3282e-05	0.0018296	0.00012715	1100	1.1216e-05	4.6881e-06	727.13	209.52	1.568e-05	1.6985e-05	149.54	45.368	55.678	25.463	4.3508e-06	24.941	0.019496	0.026843	0.0075786	1309.9	0.00028253	0.00029928	913.51	270.61	0.00027932	0.00029893	269.61	80.535	91.991	37.063	0.00028493	40.723	14.264	37.387	148.260	-66.228	240.578	113.188	-67.007	-58.699	162.488	-13.550	-61.158	-55.830	-53.409	-47.842	165.085	-51.434	-8191	255	
16241.608	1	1	0	0	0.2429	0.14348	0.30018	0.21799	0.31481	0.072418	0.13818	0.26032	0.28526	0.041419	0.18211	0.1199	0.079047	0.13617	0.25484	0.074791	-2.6833	-3.4667	-2.9688	-3.5708	-3.3521	-2.9896	-3.3979	-3.2958	-3.2042	-3.4958	-3.1208	-3.1375	-3.3729	-3.0792	-3.3542	-3.3896	-10.168	209.628	159.319	260.904	226.993	255.397	109.561	200.477	-0.324	206.738	232.477	-15.792	-0.590	35.275	269.106	45.015	0.00018943	0.0013107	0.00035704	1078.8	1.9764e-05	3.2508e-06	703.07	203.52	1.9365e-05	7.9089e-06	145.06	43.553	54.391	24.884	4.9965e-06	24.119	0.018998	0.02625	0.0073595	1284.7	0.00027384	0.00029077	886.14	263.13	0.00026862	0.00028749	260.48	77.629	89.335	35.903	0.00027259	39.326	193.473	25.626	209.495	-65.751	172.319	-58.428	-66.524	-59.087	-15.760	58.969	-62.133	-55.616	-52.966	-47.458	211.351	-51.912	-8191	255	
16241.705	1	1	0	0	0.15639	0.1806	0.067974	0.22046	0.16508	0.092103	0.085297	0.15421	0.22394	0.087908	0.21947	0.17163	0.012312	0.23283	0.05061	0.19544	-2.6729	-3.2396	-3.1979	-3.1771	-3.2646	-3.2479	-3.3167	-3.1896	-3.125	-3.5687	-3.2958	-3.1917	-3.3333	-3.0354	-3.3771	-3.3688	163.060	-74.937	170.656	204.387	261.448	35.195	-46.875	155.468	179.200	-44.968	283.519	244.155	183.513	262.587	29.630	252.192	0.00013696	0.0037338	0.00051976	1047.5	1.0333e-05	2.3129e-05	685.78	200.72	5.2467e-06	2.991e-05	143.2	43.212	54.305	24.857	4.2817e-06	24.035	0.018262	0.025182	0.0070641	1244.6	0.0002657	0.0002799	858.06	258.38	0.00026383	0.00028101	256.26	76.787	88.805	35.705	0.0002691	39.164	140.949	-62.973	71.395	-65.222	204.044	175.025	-66.688	-57.960	-37.810	-29.749	-60.890	-55.457	-53.330	-47.804	13.702	-50.795	-8191	255	
16241.776	1	1	0	0	0.13094	0.15058	0.077617	0.26438	0.053946	0.17039	0.12734	0.12826	0.10549	0.12076	0.17872	0.060674	0.26889	0.10016	0.37005	0.1959	-2.8896	-3.3292	-3.3271	-3.1688	-3.3333	-3.2438	-3.4667	-3.4979	-3.1417	-3.3542	-3.1125	-3.175	-3.3375	-3.0563	-3.1771	-3.4896	28.447	168.426	231.369	190.559	66.901	-6.905	234.870	146.688	206.956	212.012	153.809	-48.433	-69.309	186.800	276.724	14.382	6.1974e-05	0.00096812	0.00058473	1044.1	1.6417e-05	1.2366e-05	689.31	200.97	8.5715e-06	3.993e-05	142.37	43.359	54.462	24.863	1.2538e-05	24.068	0.018218	0.025011	0.0069631	1241.8	0.00026323	0.00027906	856.81	257.89	0.00026095	0.00027553	254.31	76.524	87.864	35.455	0.00026261	38.814	140.552	98.976	-58.644	-65.517	57.372	107.389	-67.129	-58.405	135.271	100.546	-61.038	-55.498	-53.224	-47.194	-19.373	-50.962	-8191	255	
16241.897	1	1	0	0	0.11565	0.11515	0.23925	0.22663	0.37229	0.12726	0.10078	0.22766	0.12396	0.12697	0.12007	0.17859	0.14841	0.31364	0.25122	0.057904	-2.6667	-3.2708	-3.2479	-3.0042	-3.3979	-3.2042	-3.2771	-3.4	-2.9792	-3.2438	-3.3208	-3.1708	-3.6042	-3.2313	-3.1167	-3.4	196.377	-75.710	109.265	172.343	-6.406	134.534	268.990	189.789	181.011	126.812	126.202	1.572	-2.939	185.779	162.882	-66.893	0.00012212	0.00071655	0.00039754	1043.5	2.4543e-05	1.0769e-05	678.42	201.52	1.2746e-05	1.8312e-05	143.54	43.069	53.48	24.641	3.1122e-06	23.871	0.018024	0.024559	0.0068626	1232.8	0.00026169	0.00027618	847.68	257.55	0.00025993	0.0002761	253.75	76.456	87.84	35.277	0.00026426	38.945	142.337	-31.952	28.284	-65.780	-35.283	5.910	-66.839	-58.585	273.368	144.595	-60.941	-55.500	-53.334	-47.319	-43.756	-50.700	-8191	255	
16241.993	1	1	0	0	0.30247	0.35939	0.069299	0.24457	0.095626	0.083794	0.19007	0.22005	0.0030362	0.17594	0.071511	0.063777	0.093819	0.14181	0.13679	0.13003	-2.6917	-3.1479	-3.2667	-3.15	-3.4083	-3.1646	-3.1542	-3.4604	-3.025	-3.1667	-3.3854	-2.9813	-3.3667	-3.2542	-3.0938	-3.4688	-28.167	244.803	35.834	-61.664	-36.947	51.807	37.092	-64.228	155.782	63.862	143.230	-26.767	170.583	-20.476	3.328	-70.453	0.00034193	0.0025879	0.00095595	1024.5	8.0873e-06	2.4486e-05	664.98	198.09	9.158e-06	1.5944e-05	140.37	42.662	54.18	24.713	1.2159e-05	24.153	0.018163	0.02478	0.006895	1217.2	0.00026428	0.00027796	838.57	256.61	0.00026553	0.00027862	253.79	76.794	88.144	35.382	0.0002689	39.251	240.246	40.589	12.796	-65.657	182.087	264.556	-66.404	-58.176	83.162	-33.347	-61.070	-55.266	-52.591	-47.535	263.302	-51.026	-8191	255	
16242.089	1	1	0	0	0.14798	0.084071	0.13451	0.19795	0.2494	0.099332	0.10186	0.22226	0.23908	0.12211	0.15588	0.28437	0.27568	0.10824	0.16625	0.2294	-2.7771	-3.0792	-3.3937	-3.1646	-3.3375	-3.3583	-3.1312	-3.4292	-3.2021	-3.125	-3.3646	-3.2562	-3.3542	-3.2792	-3.0229	-3.3917	58.757	-20.835	104.848	274.788	277.864	145.608	190.162	-39.779	202.821	13.328	186.876	89.641	-23.684	225.807	30.785	268.029	2.8736e-05	0.0014383	0.00033168	1032	9.7459e-06	2.8352e-05	676.01	200.3	1.5063e-05	1.8223e-05	141.04	43.398	54.293	24.675	5.2685e-06	24.24	0.018477	0.025093	0.0070268	1234.5	0.00026857	0.00028235	852.51	258.74	0.00026765	0.00028028	256.26	77.818	88.937	35.761	0.00027375	39.656	229.341	21.204	65.375	-65.737	49.615	13.425	-66.774	-58.260	155.038	-20.884	-61.140	-55.572	-53.174	-47.388	-45.898	-50.509	-8191	255	
16242.185	1	1	0	0	0.11284	0.25897	0.14062	0.18646	0.12543	0.30138	0.11306	0.18193	0.1462	0.078261	0.10338	0.28371	0.14536	0.23716	0.13248	0.099805	-2.7271	-3.2208	-3.4125	-3.2875	-3.2417	-3.4625	-3.3187	-3.4354	-3.225	-3.0687	-3.5042	-3.1479	-3.3542	-3.4	-3.1688	-3.3792	42.912	142.761	70.013	196.774	225.865	90.940	196.316	282.506	87.287	6.676	220.249	113.501	190.554	168.375	51.379	239.864	0.00013238	0.0014376	0.00024589	1029.4	1.2294e-05	9.412e-06	681.84	202.04	1.7207e-05	1.2154e-05	143.67	43.379	54.487	25.04	1.2583e-05	24.371	0.018717	0.025344	0.0071704	1237.8	0.00027112	0.00028486	857.9	260.89	0.00026916	0.00028235	260.42	78.638	89.595	36.163	0.00027652	40.11	234.144	-65.168	115.938	-65.697	144.163	-1.771	-66.657	-58.488	-28.171	47.670	-60.671	-55.296	-53.264	-47.681	134.332	-50.510	-8191	255	
16242.304	1	1	0	0	0.29202	0.070269	0.1415	0.13094	0.14478	0.13325	0.18089	0.22756	0.22557	0.073928	0.033608	0.20862	0.3146	0.078701	0.032677	0.13709	-2.8854	-3.1104	-3.2021	-3.1521	-3.2646	-3.2271	-3.175	-3.4	-3.275	-3.2062	-3.4354	-3.0896	-3.2229	-3.6271	-3.1167	-3.3146	80.154	-19.455	40.799	254.126	113.778	254.618	177.532	250.876	93.797	155.787	226.613	164.240	212.190	231.374	163.618	8.508	0.00032377	0.0019869	0.00058718	1038.8	3.3437e-06	3.7878e-06	680.04	202.75	1.0502e-05	8.5489e-06	144.89	44.164	54.26	25.061	1.5186e-05	24.339	0.018786	0.025494	0.0072567	1245.9	0.0002709	0.00028732	861.23	262.08	0.00026853	0.00028371	260.01	78.973	89.3	36.1	0.0002761	39.889	187.934	-46.182	3.031	-65.669	245.031	185.168	-67.180	-58.608	99.009	69.747	-60.759	-54.509	-52.873	-47.571	211.161	-50.982	-8191	255	
16242.378	1	1	0	0	0.13566	0.067623	0.10751	0.19041	0.22627	0.23321	0.060992	0.10105	0.061488	0.10381	0.10662	0.13994	0.049835	0.21676	0.21107	0.067284	-2.9	-3.0375	-3.3854	-3.275	-3.1646	-3.4125	-3.0604	-3.5375	-3.4104	-3.1188	-3.5	-3.1188	-3.2958	-3.4562	-3.2521	-3.4437	212.466	233.751	-46.558	248.114	27.703	-35.378	278.757	212.325	111.395	-41.607	184.436	69.190	221.028	245.987	35.740	165.371	0.00015153	0.00050238	0.00027137	1025.4	3.7417e-06	1.1421e-05	670.65	200.17	1.6616e-07	1.9346e-05	143.9	42.923	54.268	24.892	2.805e-05	24.201	0.018628	0.025305	0.0071685	1233.5	0.00026629	0.00028291	848.98	258.84	0.00026383	0.00028141	257.25	77.822	88.715	36.016	0.00027649	39.677	93.110	137.133	161.389	-65.289	-66.956	147.938	-66.620	-58.258	-47.691	-19.912	-60.811	-54.879	-53.130	-47.075	168.518	-50.656	-8191	255	
16242.497	1	1	0	0	0.33713	0.067432	0.097692	0.13337	0.27448	0.10363	0.10894	0.16829	0.08255	0.11861	0.16606	0.020768	0.1738	0.16286	0.1918	0.11013	-2.9104	-3.0812	-3.3063	-3.3479	-3.1625	-3.4896	-3.2854	-3.2604	-3.3354	-2.9979	-3.4333	-3.2417	-3.1229	-3.4375	-3.2375	-3.275	24.463	273.147	24.207	136.350	52.053	201.104	127.537	240.765	-28.724	120.655	-21.789	-42.900	-56.974	223.729	201.272	128.330	0.00013606	0.0012124	0.00038797	1033.1	9.7549e-06	8.2038e-06	672.93	200.87	5.5933e-06	1.0761e-05	143.73	43.62	54.434	25.124	4.5757e-06	24.348	0.018613	0.025644	0.0072716	1239.7	0.00027072	0.00028999	856.79	259.78	0.0002696	0.00028647	259.62	78.357	89.264	36.27	0.00027668	39.811	195.387	-64.500	241.785	-65.735	112.487	25.080	-66.968	-58.263	-71.181	193.666	-61.100	-55.511	-52.842	-47.606	-46.864	-51.034	-8191	255	
16242.593	1	1	0	0	0.19529	0.052449	0.01367	0.26007	0.16694	0.19207	0.14705	0.1908	0.1723	0.28436	0.17596	0.29006	0.029337	0.11709	0.22842	0.035935	-2.8187	-3.1875	-3.4062	-3.3896	-3.2958	-3.3625	-3.1292	-3.2875	-3.1542	-3.1688	-3.1333	-3.2083	-3.0187	-3.5021	-2.9958	-3.2417	222.670	240.433	111.583	211.945	-15.011	253.931	-16.921	216.227	13.893	203.251	195.141	-37.740	224.749	249.864	44.133	40.079	0.00027483	0.0003052	0.00041265	1021.7	1.1981e-05	1.9011e-05	674.5	200.87	9.2946e-06	1.0934e-05	144.76	43.484	54.726	25.144	1.8767e-05	24.302	0.018515	0.025537	0.0072093	1223.8	0.00026703	0.00028482	851.85	259.55	0.00026588	0.00028508	259.16	78.111	89.236	36.082	0.00027412	39.629	114.666	251.580	23.596	-65.538	252.582	137.106	-66.676	-58.326	265.823	233.891	-60.765	-55.056	-52.622	-47.457	124.869	-50.512	-8191	255	
16242.689	1	1	0	0	0.19653	0.20265	0.12669	0.17634	0.11888	0.27192	0.22652	0.11453	0.060719	0.21191	0.1712	0.020464	0.12364	0.13007	0.031226	0.094915	-3.0417	-3.2104	-3.3542	-3.3604	-3.1021	-3.2687	-3.2979	-3.1896	-3.5938	-3.0271	-3.2125	-3.4042	-2.9729	-3.3479	-3.2812	-3.1917	122.465	258.814	51.693	222.685	38.535	46.212	188.402	-44.448	22.875	38.811	113.346	-18.977	54.563	-24.297	10.083	15.890	0.00019217	0.001421	0.00034626	1026	1.4611e-05	1.4624e-05	677.13	200.77	1.0717e-05	1.0905e-05	144.72	43.518	53.965	24.817	1.0291e-05	24.254	0.018441	0.025416	0.0070755	1226.4	0.00026333	0.00028033	850.22	257.68	0.00026272	0.00027957	256.12	77.342	88.469	35.885	0.00027036	39.375	215.756	34.536	76.930	-65.588	14.593	144.711	-66.913	-58.412	149.150	60.903	-61.536	-54.453	-52.441	-47.392	82.623	-50.941	-8191	255	
16242.785	1	1	0	0	0.18488	0.34628	0.085666	0.10382	0.16981	0.19658	0.036956	0.21253	0.11613	0.17927	0.11466	0.26503	0.10882	0.15319	0.14397	0.18136	-2.8729	-3.1063	-3.0417	-3.4188	-3.0292	-3.2646	-3.0979	-3.0729	-3.4562	-3.1958	-3.1417	-3.3604	-3.0125	-3.5375	-3.3208	-3.0542	143.751	-34.350	140.319	168.417	127.784	75.522	72.796	-31.378	99.241	164.726	239.742	-36.461	149.887	90.562	282.542	34.598	2.8385e-05	0.00090701	0.00032454	1028.9	5.797e-06	1.4585e-05	679.2	201.83	1.1437e-05	1.457e-05	143.52	43.374	54.596	24.998	1.7249e-05	24.071	0.01844	0.025172	0.0070062	1229.2	0.00026518	0.00028153	852.17	259.08	0.00026394	0.00028015	255.37	77.283	88.974	35.892	0.00026829	39.222	208.956	9.944	53.261	-65.491	16.861	147.729	-66.606	-58.647	118.808	52.346	-60.747	-55.783	-52.935	-47.500	28.278	-51.266	-8191	255	
16242.906	1	1	0	0	0.046001	0.16945	0.078299	0.29558	0.18645	0.072988	0.27138	0.0709	0.093106	0.1816	0.22422	0.085131	0.2035	0.03581	0.30492	0.2264	-2.9688	-3.1875	-3.0542	-3.5417	-3.1167	-3.4292	-3.3292	-3.0167	-3.3208	-3.1	-3.1813	-3.3646	-3.0646	-3.3854	-3.4562	-3.1729	171.279	126.804	71.287	258.055	56.033	82.049	246.419	109.692	101.290	125.519	263.150	-57.505	-12.770	82.248	-4.812	204.295	8.4232e-05	0.0018062	0.00076396	1045.2	8.468e-06	6.0697e-06	684.13	202.81	7.4486e-06	2.2854e-05	145.29	43.898	54.888	24.938	1.7859e-05	24.403	0.018431	0.025356	0.0070662	1241	0.0002675	0.00028192	856.7	260.41	0.00026636	0.00028161	257.35	77.868	89.555	35.944	0.00026897	39.674	87.156	47.656	-18.346	-65.325	113.283	245.997	-67.206	-58.366	74.420	143.587	-61.428	-56.221	-53.006	-47.565	50.900	-50.962	-8191	255	
16243.002	1	1	0	0	0.19094	0.32489	0.28312	0.26299	0.10414	0.062565	0.12335	0.14117	0.16057	0.23139	0.18554	0.12122	0.046355	0.12088	0.12137	0.28345	-2.95	-3.0333	-2.9813	-3.5854	-3.1167	-3.3	-3.25	-3.0354	-3.3187	-3.3125	-3.05	-3.3354	-3.1021	-3.2333	-3.3979	-3.0417	53.686	59.652	223.869	-70.413	-67.351	35.312	277.418	221.902	142.444	123.509	174.564	-32.929	-48.927	245.860	248.250	255.772	9.8836e-05	0.0019154	0.00017814	1042.5	3.9324e-06	1.2628e-05	686.72	205.02	1.5432e-05	1.8641e-05	145.8	43.795	55.478	25.361	6.5108e-06	24.525	0.01853	0.025476	0.0070625	1245.3	0.00026945	0.000283	863.05	263.29	0.00026836	0.00028254	259.15	78.836	90.285	36.297	0.00027261	39.932	100.230	-70.204	-62.649	-65.565	-41.062	165.895	-66.803	-58.294	132.517	-3.537	-61.348	-55.835	-52.506	-47.833	116.615	-51.171	-8191	255	
16243.073	1	1	0	0	0.15355	0.2469	0.047788	0.41958	0.039587	0.028488	0.12094	0.12997	0.11818	0.14437	0.35474	0.13801	0.05758	0.12307	0.15762	0.2048	-2.9771	-3.3083	-3.1813	-3.475	-2.9167	-3.2417	-3.5292	-3.1271	-3.4604	-3.2938	-3.1646	-3.4042	-3.1458	-3.1583	-3.5854	-3.1875	278.333	-16.900	218.915	250.023	-74.718	189.354	80.479	183.348	120.349	-53.691	-24.105	-68.249	216.156	208.032	148.500	141.063	0.00024928	0.0011078	0.00017796	1051.2	5.4691e-06	2.2589e-05	691.42	205.3	1.3882e-06	1.3356e-05	147.76	43.859	55.118	25.253	9.2714e-06	24.756	0.018637	0.025404	0.0071112	1258	0.00027085	0.00028288	869.73	263.63	0.00026948	0.00028396	260.09	78.963	90.867	36.377	0.00027578	40.286	142.679	240.921	46.423	-65.785	270.237	83.576	-66.558	-58.361	97.156	40.270	-61.651	-55.248	-53.315	-47.627	220.029	-51.550	-8191	255	
16243.194	1	1	0	0	0.24956	0.28835	0.19967	0.02931	0.055	0.13913	0.13402	0.17797	0.17342	0.096917	0.12011	0.13142	0.14955	0.081248	0.30027	0.22505	-2.8292	-3.2104	-3.0312	-3.4062	-3.0208	-3.0875	-3.4708	-3.225	-3.3833	-3.2313	-3.2083	-3.3583	-3.1771	-3.2167	-3.4562	-3.0417	84.292	113.004	36.202	161.691	60.954	-43.856	-49.181	-21.706	86.386	59.660	257.775	-17.949	-56.971	59.981	65.222	39.634	9.8521e-05	0.0010777	0.00044647	1050.4	5.6576e-06	8.4204e-06	689.98	204.13	7.9827e-06	2.9041e-05	142.97	43.653	54.671	25.044	3.1113e-06	24.249	0.018913	0.025883	0.0072328	1261.9	0.00027429	0.0002877	871.72	263.75	0.00027281	0.00028629	261.22	79.12	90.753	36.285	0.00027928	40.168	161.015	263.346	262.370	-65.782	154.859	219.693	-67.198	-58.201	-57.803	95.600	-60.740	-55.943	-52.514	-47.245	138.450	-51.633	-8191	255	
16243.290	1	1	0	0	0.060496	0.14596	0.31924	0.079278	0.076064	0.12751	0.24668	0.26272	0.073422	0.24843	0.15885	0.44902	0.24409	0.32465	0.25756	0.21862	-2.8729	-3.1437	-3.1896	-3.2646	-3.1354	-3.2062	-3.4354	-3.0312	-3.1021	-3.3104	-3.2521	-3.3792	-3.1604	-3.0917	-3.3083	-3.0354	50.685	170.359	176.239	256.895	12.877	-63.035	206.445	250.669	268.709	149.702	-60.940	1.956	221.286	-25.250	47.583	148.917	0.00014315	0.0012247	0.00037341	1043.5	2.2346e-06	1.9481e-05	684.39	202.21	1.0241e-05	1.1905e-05	143.02	43.478	54.077	24.928	4.9527e-06	24.435	0.018965	0.025984	0.0073466	1255.9	0.00027521	0.00028889	870.7	263.28	0.00027145	0.00028823	261.19	78.877	89.998	36.247	0.00027897	40.11	210.795	-25.618	-8.622	-65.656	116.587	85.064	-67.003	-58.223	-6.004	233.102	-61.818	-55.803	-53.498	-47.270	189.904	-51.453	-8191	255	
16243.385	1	1	0	0	0.19792	0.14218	0.12634	0.36658	0.10131	0.1004	0.18509	0.09378	0.26902	0.046	0.11476	0.1712	0.22207	0.047149	0.069704	0.26634	-2.6458	-3.2792	-2.9437	-3.4562	-3.2458	-2.9021	-3.6292	-3.1042	-3.1312	-3.3646	-3	-3.3104	-3.1792	-3.0687	-3.2271	-3.0833	-5.145	-29.665	80.184	270.320	276.793	24.546	236.773	149.187	175.817	160.371	147.457	276.503	258.442	13.865	224.191	251.919	0.00011828	0.0014596	0.00019536	1038.9	2.295e-05	1.0867e-05	683.82	202.17	1.424e-05	6.3824e-06	143.69	43.888	54.33	24.976	8.6633e-06	24.399	0.018817	0.025968	0.0073472	1247.5	0.00027353	0.00028867	866.91	262.84	0.00027116	0.00028755	261.26	78.933	89.805	36.16	0.00028045	40.068	-23.041	122.057	-47.627	-65.523	182.589	213.619	-67.023	-58.351	89.168	240.219	-61.182	-55.162	-53.798	-47.815	-30.202	-51.149	-8191	255	
16243.481	1	1	0	0	0.13804	0.24223	0.12878	0.088918	0.22947	0.073767	0.24174	0.091062	0.28814	0.096062	0.062541	0.16324	0.16991	0.13193	0.046721	0.17317	-2.6917	-3.2792	-3.175	-3.2917	-3.1417	-3.1292	-3.4062	-3.4313	-3.0812	-3.3854	-3.1104	-3.2583	-3.2562	-3.2313	-3.4813	-3.15	-74.189	-15.402	280.240	94.830	-58.719	256.933	77.624	83.721	33.103	244.499	117.468	44.625	183.620	-67.358	136.453	154.314	0.0002714	0.0010481	0.00058429	1031.9	4.1492e-06	1.0396e-05	679.57	201.67	7.525e-06	1.7357e-05	143.77	43.779	54.745	25.027	3.1091e-06	24.403	0.018667	0.025888	0.007293	1240.9	0.00027029	0.00028587	860.4	261.35	0.00026833	0.00028628	261.07	78.624	89.657	36.226	0.00027716	39.981	269.037	100.324	52.742	-65.622	163.821	252.289	-66.224	-58.284	209.643	178.563	-60.902	-55.534	-52.942	-47.376	182.992	-51.288	-8191	255	
16243.601	1	1	0	0	0.1266	0.18604	0.23404	0.075222	0.12814	0.10502	0.32725	0.20845	0.06941	0.21014	0.1666	0.12492	0.11281	0.14899	0.10231	0.23207	-2.7708	-3.375	-3.0083	-3.3146	-3.2875	-3.1229	-3.4146	-3.4417	-2.9396	-3.4708	-3.1021	-3.1417	-3.4208	-3.025	-3.3833	-3.2292	-29.694	263.520	93.729	199.542	-23.730	112.015	227.382	216.634	-51.494	210.670	198.564	16.951	-58.108	209.415	35.663	198.513	0.00014809	0.0006194	0.00036347	1025.8	1.2817e-05	1.8676e-05	674.47	200.39	1.3421e-05	9.2043e-06	145.79	43.621	53.739	24.868	6.8652e-06	24.342	0.018547	0.025744	0.0072208	1230.9	0.00026762	0.0002863	855.14	259.22	0.00026564	0.00028576	258.48	77.397	88.887	35.912	0.00027489	39.421	50.388	-41.154	206.494	-65.660	68.013	109.382	-66.617	-58.316	105.054	113.717	-61.550	-54.968	-52.592	-47.082	169.151	-50.680	-8191	255	
16243.673	1	1	0	0	0.3253	0.10898	0.23177	0.11017	0.13817	0.14592	0.055689	0.17416	0.044626	0.12877	0.35772	0.27536	0.082897	0.27142	0.18398	0.0067956	-2.5792	-3.1771	-3.2542	-3.2604	-3.4625	-3.1042	-3.1917	-3.2958	-2.9813	-3.475	-3.2354	-3.0958	-3.5354	-3.1583	-3.3292	-3.3	145.157	34.896	111.214	234.045	37.289	51.980	210.084	-56.252	209.389	-22.737	219.178	155.468	114.178	187.126	94.744	-25.544	0.00020008	0.0011307	0.00031065	1027.6	2.4724e-05	1.0182e-05	674.6	200.72	1.0503e-05	2.0656e-05	143.66	43.28	54.298	24.94	1.15e-05	24.132	0.018339	0.025412	0.0071959	1230.5	0.00026757	0.00028414	852.05	258.9	0.00026649	0.00028428	257.17	77.471	88.774	35.921	0.0002712	39.262	264.256	249.269	36.346	-65.580	172.828	193.328	-66.723	-58.396	238.700	-47.889	-60.803	-54.638	-53.143	-47.339	103.243	-51.049	-8191	255	
16243.769	1	1	0	0	0.10215	0.046307	0.18133	0.24823	0.042204	0.14175	0.43686	0.054198	0.037002	0.20975	0.11544	0.21801	0.02869	0.22803	0.074728	0.14573	-2.5708	-3.3521	-3.1188	-3.1958	-3.3896	-3.2021	-3.1792	-3.3021	-3.0896	-3.3396	-3.2062	-3.1292	-3.3021	-3.1083	-3.0667	-3.2458	240.608	38.511	39.608	237.686	177.867	273.969	172.863	78.146	42.752	73.118	-4.934	53.263	139.627	203.369	248.092	-49.166	0.00022179	0.001406	0.00037996	1028.6	7.577e-06	1.2643e-05	674.96	202.53	1.6403e-05	4.5243e-05	145.63	43.679	55.01	25.098	8.7238e-06	24.325	0.018323	0.025478	0.0071003	1228	0.00026588	0.00028355	851.56	260.48	0.0002655	0.00028278	257.59	77.783	89.81	36.084	0.00027058	39.564	181.594	126.419	262.609	-65.581	207.870	272.917	-66.400	-57.967	106.556	44.175	-61.326	-54.666	-53.070	-47.281	105.860	-50.771	-8191	255	
16243.865	1	1	0	0	0.059326	0.18764	0.33028	0.06825	0.12745	0.070402	0.18125	0.071491	0.17854	0.061612	0.23816	0.34838	0.11032	0.11083	0.23748	0.3579	-2.7125	-3.1896	-3.2479	-2.9771	-3.5042	-3.1896	-3.1562	-3.3604	-3.05	-3.3	-3.3583	-2.95	-3.4583	-3.1896	-3.1813	-3.4	59.941	26.937	98.813	280.429	145.455	112.722	211.323	203.121	110.406	171.766	133.476	129.107	174.648	101.697	141.747	168.639	0.00027376	0.0018481	0.00021638	1037.1	1.4375e-05	1.221e-05	685.81	204.44	3.7798e-06	5.3958e-06	147.37	44.077	55.609	25.25	1.6365e-05	24.487	0.018417	0.025332	0.0070739	1234.6	0.00026727	0.00028325	858.12	262.2	0.00026725	0.00028356	258.6	78.007	89.665	36.178	0.00026948	39.844	112.316	278.534	216.620	-65.757	-44.610	22.060	-66.846	-58.489	160.032	212.803	-60.824	-55.791	-52.746	-47.569	-10.591	-50.404	-8191	255	
16243.986	1	1	0	0	0.15386	0.20194	0.23238	0.090605	0.13216	0.24148	0.32162	0.12746	0.10483	0.06678	0.19586	0.15769	0.25663	0.078972	0.15241	0.24004	-2.5646	-3.3771	-3.225	-2.9542	-3.3375	-3.1667	-3.225	-3.4958	-3.0625	-3.2833	-3.3063	-3.0667	-3.2417	-3.1479	-3.1083	-3.5146	26.256	137.358	82.753	246.823	29.594	277.794	218.661	-19.526	41.497	245.726	-39.708	177.257	161.937	134.313	56.345	106.829	0.00011465	0.00054557	0.00019161	1049.7	8.8076e-06	1.4357e-05	701.28	205.95	2.2181e-05	1.1441e-05	147.22	44.355	55.634	25.623	9.3615e-06	24.84	0.018473	0.025445	0.007115	1250.8	0.00027089	0.00028473	873.61	265.05	0.00027168	0.00028665	261.72	79.039	91.055	36.729	0.00027533	40.378	193.122	8.496	102.310	-65.963	272.476	72.385	-66.918	-58.225	192.282	96.496	-60.924	-55.540	-52.977	-47.283	250.900	-51.232	-8191	255	
16244.082	1	1	0	0	0.16266	0.1721	0.077639	0.12991	0.30776	0.19207	0.1236	0.19476	0.16828	0.18356	0.16167	0.17198	0.23083	0.037395	0.12762	0.09834	-2.6917	-3.2125	-3.2875	-3.0208	-3.15	-3.0958	-3.0563	-3.35	-3.0292	-3.1167	-3.3729	-3.0208	-3.3208	-3.2229	-3.1146	-3.2958	53.438	-72.433	-20.809	168.802	97.602	259.487	158.976	49.642	-19.483	65.288	-33.631	249.541	197.474	151.173	235.835	259.849	7.4619e-05	0.0018017	0.00040677	1080.5	2.8841e-06	1.9487e-05	713.35	208.94	8.6332e-06	2.0896e-05	149.86	44.336	55.73	25.567	9.7263e-06	24.479	0.019026	0.025811	0.0072562	1286.8	0.00027602	0.00028979	893.26	268.16	0.00027515	0.0002879	264.43	79.81	91.445	36.654	0.00027655	40.39	215.965	80.511	91.612	-65.913	94.823	147.032	-67.115	-58.349	235.965	177.219	-61.273	-55.544	-52.616	-47.879	140.077	-51.070	-8191	255	
16244.178	1	1	0	0	0.086552	0.12277	0.10575	0.25138	0.18299	0.22662	0.055887	0.1075	0.363	0.10211	0.14524	0.3493	0.27825	0.14252	0.038095	0.12114	-2.7417	-3.1646	-3.3292	-3.15	-3.4333	-3.1458	-3.1708	-3.2229	-3.05	-3.1333	-3.4375	-3.0271	-3.2792	-3.4854	-3.0938	-3.4958	40.218	61.619	183.530	-69.413	-36.482	-18.001	202.295	211.802	45.117	41.450	214.897	19.555	187.117	266.276	50.406	259.154	0.00012042	0.0011731	0.0002026	1066.1	4.5488e-06	3.3029e-05	697.76	206.09	1.8246e-05	1.9011e-05	147.17	43.546	55.623	25.21	2.1769e-05	24.56	0.019007	0.025647	0.0072336	1272.6	0.00027471	0.00028647	879.75	265.61	0.00027463	0.00028776	262.35	79.3	90.638	36.437	0.00027947	40.37	51.488	130.938	-22.949	-66.113	99.616	86.266	-66.979	-59.078	172.853	273.415	-60.924	-55.119	-53.395	-47.980	196.962	-51.222	-8191	255	
16244.274	1	1	0	0	0.18958	0.44133	0.21327	0.023815	0.084564	0.078332	0.048503	0.10005	0.2514	0.045031	0.21977	0.11326	0.19772	0.18109	0.17028	0.18881	-2.7188	-3.0708	-3.5167	-3.1729	-3.1792	-3.1813	-3.1063	-3.3063	-3.2625	-3.1125	-3.3646	-3.2021	-3.1771	-3.3333	-3.1271	-3.4021	180.020	208.190	166.724	84.299	85.495	-69.621	46.699	143.754	189.149	80.821	119.730	200.723	188.858	94.045	181.977	140.558	5.8698e-05	0.0024736	0.00055854	1071.4	5.4838e-06	2.5571e-05	703.06	205.65	2.1075e-05	2.7222e-05	147	43.95	54.825	25.086	1.1742e-05	24.635	0.018857	0.02577	0.0072987	1274.1	0.00027283	0.00028726	883.04	264.75	0.0002728	0.00028677	262.74	79.413	90.373	36.297	0.00027839	40.316	98.980	147.579	221.988	-65.953	195.097	83.232	-66.796	-58.794	-31.486	251.014	-60.983	-55.189	-53.124	-47.708	259.619	-50.830	-8191	255	
16244.369	1	1	0	0	0.27059	0.22326	0.3547	0.18829	0.0080936	0.12511	0.23591	0.13005	0.19511	0.16002	0.093191	0.11801	0.078794	0.23978	0.19607	0.10227	-2.8979	-2.9667	-3.3729	-3.1375	-3.2146	-3.2229	-3.0875	-3.1875	-3.2062	-2.9229	-3.3375	-3.1604	-3.3063	-3.3646	-2.9646	-3.3833	193.090	204.991	15.175	265.016	247.456	-0.274	188.884	181.587	-57.464	6.739	261.092	137.499	253.685	-15.716	125.449	92.445	2.7137e-05	0.00012259	0.00016253	1061.7	1.4375e-05	1.6232e-05	702.17	204.43	7.2996e-06	1.4737e-05	145.83	43.739	54.471	24.947	7.7264e-06	24.268	0.018689	0.025477	0.0072894	1269.4	0.00027166	0.00028549	883.21	264.19	0.00027068	0.00028589	261.95	78.778	89.636	36.158	0.0002791	39.939	272.094	-56.991	-4.263	-65.655	-69.031	223.794	-66.765	-58.695	7.481	-11.853	-61.444	-55.847	-52.941	-47.676	254.529	-51.337	-8191	255	
16244.467	1	1	0	0	0.10288	0.065823	0.34792	0.063935	0.048265	0.089781	0.017858	0.1742	0.046706	0.053235	0.089119	0.28731	0.14409	0.15456	0.14863	0.1513	-2.8312	-2.9	-3.2833	-3.2583	-3.1937	-3.4396	-3.1917	-3.0104	-3.1979	-3.0396	-3.3729	-3.1604	-3.2812	-3.3854	-3.2958	-3.2208	62.046	205.847	6.400	10.502	87.065	-41.750	121.844	206.784	156.869	0.573	115.181	54.272	271.092	-22.075	71.201	213.635	0.00014163	0.00077717	9.242e-05	1058.3	1.1488e-05	1.4623e-05	693.13	203.58	2.1529e-05	4.459e-06	144.57	43.945	54.531	24.931	1.4136e-05	24.261	0.018694	0.02556	0.0072807	1263.7	0.00027025	0.00028694	872.98	262.18	0.00026968	0.00028542	260.43	78.309	89.291	36.135	0.00027854	39.818	258.558	87.313	163.844	-65.878	6.137	233.821	-66.801	-58.679	99.015	61.757	-61.205	-54.801	-52.972	-47.858	74.721	-51.393	-8191	255	
16244.586	1	1	0	0	0.17371	0.21689	0.13107	0.12556	0.18251	0.16845	0.17435	0.12596	0.099768	0.068394	0.24085	0.14239	0.063883	0.18773	0.047821	0.1939	-2.7167	-2.9354	-3.1354	-3.2687	-2.9292	-3.4583	-3.0021	-3.2208	-3.2896	-3.0521	-3.175	-3.1792	-3.0708	-3.3604	-3.2104	-3.2375	195.601	-57.317	-0.976	240.208	30.405	53.671	186.585	273.144	48.876	118.814	12.993	153.930	-6.030	-29.935	54.242	7.889	5.94e-05	0.0021699	0.0007545	1068.1	4.7564e-06	1.4446e-05	700.18	204.34	4.4884e-06	7.9758e-06	147.1	44.464	54.994	25.084	9.6217e-06	24.595	0.018557	0.025671	0.0072718	1268.9	0.00026981	0.00028701	882.53	262.71	0.00027028	0.00028676	262.94	78.63	89.81	36.331	0.00028029	40.019	208.399	78.120	46.133	-65.956	123.417	247.303	-66.731	-58.743	187.836	93.608	-61.259	-55.503	-53.020	-47.025	240.145	-51.500	-8191	255	
16244.682	1	1	0	0	0.11617	0.32184	0.053066	0.23836	0.059863	0.24944	0.037705	0.12701	0.060531	0.11219	0.089395	0.081152	0.13459	0.10457	0.056626	0.18627	-2.7896	-2.9417	-3.2438	-3.4146	-3.1792	-3.3208	-3.1333	-3.175	-3.3854	-2.9625	-3.3042	-3.1958	-3.1063	-3.3812	-3.0687	-3.0396	210.390	166.562	94.615	251.489	-52.012	60.802	-62.149	180.521	278.139	151.107	203.936	-69.024	144.208	32.874	230.107	230.359	0.00020479	0.0012607	0.00025624	1079	8.7895e-06	1.1812e-05	716.64	204.98	1.4364e-06	1.4777e-05	147.06	44.324	55.199	25.097	3.2287e-06	24.647	0.018631	0.025892	0.0073	1279.7	0.00027351	0.00028993	897.46	265.12	0.00027372	0.00029119	264.18	79.01	90.415	36.557	0.00028177	40.264	181.249	110.401	-36.861	-65.796	39.833	265.401	-67.118	-58.646	67.919	234.425	-61.575	-55.706	-53.050	-47.454	-19.346	-51.035	-8191	255	
16244.778	1	1	0	0	0.1342	0.083386	0.23066	0.15874	0.19314	0.12647	0.1444	0.11762	0.26928	0.11044	0.042027	0.13793	0.16726	0.25174	0.23361	0.12666	-2.8271	-3.0729	-3.2354	-3.3875	-2.8667	-3.3229	-3.4062	-3.1292	-3.2917	-3.0229	-3.1542	-3.3104	-3.0542	-3.25	-3.1958	-3.0667	12.332	209.677	275.461	219.456	-59.340	132.539	106.494	175.904	-8.058	99.424	-7.221	29.170	243.887	-74.114	7.164	265.227	0.00020238	0.0014009	0.00029817	1078.4	1.4495e-05	1.0049e-05	711.91	205.22	9.6291e-06	1.3291e-05	147.09	43.969	54.84	25.363	2.9976e-06	24.549	0.018864	0.026123	0.0072981	1283.1	0.00027501	0.00029206	890.41	265.11	0.0002745	0.00029229	264.19	79.085	90.88	36.726	0.00028307	40.266	219.277	34.062	256.814	-65.653	50.929	236.881	-67.346	-58.780	-8.888	-51.835	-61.661	-55.274	-53.242	-47.929	-1.274	-50.955	-8191	255	
16244.899	1	1	0	0	0.07696	0.13514	0.23847	0.14949	0.17675	0.11899	0.24896	0.049866	0.25809	0.11801	0.12737	0.098581	0.097701	0.11895	0.26498	0.21114	-3.025	-2.9021	-3.1396	-3.3438	-3.1917	-3.2104	-3.225	-3.0708	-3.4813	-3.2208	-3.0667	-3.3021	-2.9875	-3.3187	-3.35	-3.0896	205.329	4.488	29.402	247.489	-67.752	165.568	163.055	111.075	-54.632	-3.544	-16.795	132.575	178.879	244.140	249.286	-52.270	0.00011098	0.0017293	0.00042224	1078.1	1.9637e-05	1.2929e-05	710.62	205.55	9.5964e-06	2.6761e-05	147.66	43.774	54.488	25.127	1.1241e-05	24.51	0.01909	0.026222	0.0072966	1283.4	0.00027542	0.00029187	891.36	264.34	0.00027368	0.00029088	262.09	78.52	90.298	36.463	0.00027698	40.011	178.354	92.911	0.568	-66.263	109.216	134.157	-66.974	-58.733	-4.761	218.611	-60.672	-55.303	-53.303	-47.659	-60.028	-51.107	-8191	255	
16244.970	1	1	0	0	0.16913	0.078641	0.15953	0.25177	0.30655	0.12069	0.095365	0.11605	0.17049	0.1944	0.08356	0.086437	0.11275	0.26916	0.17663	0.061895	-2.7271	-3.2146	-3.2083	-3.3729	-3.025	-3.1979	-3.3958	-3.1167	-3.2583	-3.0812	-3.1542	-3.4667	-3.0979	-3.3917	-3.3729	-3.0479	144.215	-73.720	181.125	238.335	85.507	-7.845	-53.262	156.079	142.155	168.398	-19.365	185.134	-14.659	227.158	142.078	163.110	0.00023585	0.00051613	0.00082492	1082.3	1.9884e-05	8.8524e-06	711.69	206.79	8.5559e-06	9.0159e-06	147.1	43.979	55.301	25.436	2.3928e-05	24.791	0.018844	0.025929	0.007181	1285.7	0.00027349	0.00028717	893.01	264.94	0.00027191	0.00028955	262.69	79.022	90.688	36.517	0.00027792	40.403	224.970	-14.018	-24.219	-65.804	117.240	11.068	-67.103	-58.592	204.152	198.580	-60.896	-55.643	-53.941	-47.299	100.289	-51.104	-8191	255	
16245.066	1	1	0	0	0.065615	0.2128	0.17552	0.27679	0.072735	0.067716	0.083561	0.079408	0.37975	0.25075	0.037485	0.19023	0.10786	0.11416	0.16316	0.19362	-3.0292	-3.1958	-3.0729	-3.4688	-3.1271	-3.1583	-3.4771	-3.1479	-3.225	-3.2562	-3.0812	-3.4979	-3.3521	-3.2521	-3.3688	-3.1979	278.088	251.011	-5.050	231.791	252.798	200.743	234.777	161.923	166.426	171.915	177.687	-3.785	254.122	252.227	12.660	249.362	0.00021019	0.0023251	0.00048116	1092.7	2.8574e-05	1.3644e-05	718.26	207.47	3.6173e-06	9.0529e-06	146.41	44.046	55.978	25.658	6.7887e-06	24.592	0.018987	0.025867	0.0072426	1299.4	0.00027626	0.00028999	898.65	267.38	0.00027434	0.00028951	263.14	79.526	91.421	36.698	0.00027736	40.386	205.173	-17.139	7.748	-66.105	110.470	271.303	-67.502	-58.891	-61.367	201.507	-61.615	-55.264	-53.369	-47.132	29.695	-50.413	-8191	255	
16245.163	1	1	0	0	0.016911	0.11346	0.19315	0.073507	0.1845	0.071848	0.19701	0.21009	0.16316	0.14743	0.17966	0.034172	0.12283	0.31111	0.23151	0.07629	-2.8438	-3.2458	-2.9271	-3.4083	-3.0208	-3.0958	-3.4333	-3.125	-3.1979	-3.1562	-3.0062	-3.5563	-3.3312	-3.2687	-3.5208	-3.0563	-10.062	-46.668	254.517	20.416	59.831	169.116	-51.624	225.770	-70.510	38.487	239.080	124.902	279.090	-60.470	154.662	121.159	7.8071e-05	0.0010725	0.00026783	1072.5	1.6821e-05	1.1546e-05	706.88	206.33	3.6835e-05	2.5909e-05	146.64	43.472	56.014	25.245	1.6063e-05	24.295	0.018919	0.025618	0.0071835	1281.6	0.00027488	0.00028513	882.65	265.53	0.000271	0.00028529	261.2	78.837	90.498	36.308	0.00027691	40.009	147.734	110.734	102.118	-66.028	100.103	240.023	-67.252	-58.315	120.791	270.279	-61.096	-55.824	-53.442	-47.665	64.303	-51.424	-8191	255	
16245.281	1	1	0	0	0.15742	0.052753	0.090535	0.28069	0.16405	0.19091	0.39818	0.10492	0.20031	0.09466	0.25562	0.19816	0.23429	0.082677	0.076511	0.29529	-3.0667	-3.0021	-3.1667	-3.4813	-3.0646	-3.0354	-3.4708	-3.1875	-3.1875	-3.3604	-3.0542	-3.3396	-3.0771	-3.2104	-3.3375	-3.1708	110.208	46.693	-2.830	240.228	-61.487	134.132	236.769	-33.803	244.382	53.300	58.987	212.100	196.014	41.362	-9.233	133.744	0.0001075	0.0010581	0.0002979	1068.8	1.2812e-05	1.8749e-05	700.84	205.52	8.6912e-06	6.8188e-06	146.47	43.549	54.889	25.322	1.7429e-05	24.546	0.018789	0.025371	0.007163	1272.8	0.00027145	0.00028316	878.52	264.82	0.00027093	0.00028727	263.21	79.042	90.574	36.447	0.00028216	40.398	54.315	112.285	171.337	-66.220	-75.625	165.141	-67.058	-58.470	37.567	-66.951	-61.741	-55.825	-52.978	-47.915	210.775	-50.502	-8191	255	
16245.378	1	1	0	0	0.19367	0.056848	0.1672	0.2992	0.15787	0.15753	0.15676	0.051908	0.040712	0.10393	0.19724	0.058533	0.19516	0.14039	0.33421	0.36428	-2.7458	-3.1458	-3.0875	-3.2896	-3.2729	-3.0396	-3.3917	-2.9771	-3.1979	-3.3521	-3.0375	-3.4146	-3.2396	-3.0375	-3.2792	-3.1125	99.448	44.107	-19.379	280.776	139.673	202.448	140.674	24.437	-72.660	66.647	252.588	13.725	-0.454	242.789	158.737	-19.251	0.00013972	0.0020729	0.00046325	1074	1.3423e-05	2.016e-05	706.67	207.55	1.2091e-05	1.7319e-05	148.85	44.731	56.03	25.795	2.6891e-05	25.257	0.018984	0.02592	0.0073776	1281.7	0.00027959	0.00029238	892.56	268.49	0.00027929	0.00029506	268.36	81.06	92.352	37.325	0.00029155	41.68	38.959	-31.070	144.838	-65.877	182.777	143.338	-66.906	-58.739	11.803	-70.327	-61.521	-55.245	-53.122	-47.495	177.110	-51.203	-8191	255	
16245.474	1	1	0	0	0.040357	0.078171	0.26581	0.23166	0.10549	0.22676	0.10807	0.35677	0.074429	0.29035	0.34889	0.17727	0.3521	0.26724	0.33977	0.27677	-2.5104	-3.4167	-3.1021	-3.3646	-3.1333	-3.0271	-3.4521	-3.2583	-3.1417	-3.4042	-3.1417	-3.2292	-3.2771	-3.0917	-3.3271	-3.175	237.886	-76.028	77.083	262.224	195.853	-14.633	177.672	215.096	233.800	224.802	-25.312	280.076	-7.039	263.386	145.107	10.296	0.00013409	0.0023432	0.00047531	1070.8	1.742e-05	1.7215e-05	696.05	208.05	1.3906e-05	2.4568e-05	149.54	45.184	56.98	26.125	2.4402e-06	25.398	0.019543	0.026876	0.0076216	1287.7	0.00028469	0.0003008	892.05	271.07	0.00028341	0.00030429	273.15	82.679	93.801	37.965	0.00029776	42.093	65.665	277.090	-67.559	-65.718	134.559	161.090	-67.398	-58.456	197.916	-48.884	-61.311	-56.177	-53.332	-48.147	164.012	-52.204	-8191	255	
16245.547	1	1	0	0	0.19239	0.1404	0.10512	0.29111	0.29146	0.22426	0.23509	0.16458	0.26639	0.11024	0.33927	0.041702	0.15856	0.16643	0.14324	0.082121	-2.7708	-3.3312	-3.0687	-3.2417	-3.2708	-3.0333	-3.575	-3.1771	-2.9979	-3.4083	-3.1479	-3.2438	-3.3771	-3.0854	-3.2833	-3.2979	-22.501	-38.690	262.819	277.093	132.672	241.618	237.185	-15.054	8.576	84.356	244.389	11.272	-60.747	247.673	265.975	181.266	0.0001762	0.0014541	0.00066994	1063.6	6.3639e-06	1.09e-05	696.62	207.62	1.9955e-05	1.812e-05	148.94	45.028	56.743	25.893	2.2922e-05	25.183	0.019753	0.027224	0.0077233	1282.8	0.00028808	0.00030517	891.97	270.59	0.00028489	0.00030631	271.92	81.941	93.4	37.867	0.00029505	41.832	254.763	267.845	77.813	-65.830	184.528	230.845	-66.690	-59.126	214.505	202.163	-61.129	-56.088	-52.427	-47.665	-16.929	-51.233	-8191	255	
16245.666	1	1	0	0	0.14752	0.08169	0.14114	0.1828	0.046218	0.025149	0.066307	0.36913	0.037468	0.22904	0.028181	0.26435	0.18468	0.22753	0.081483	0.073387	-2.4896	-3.3542	-3.2438	-3.45	-3.3771	-3.1	-3.5167	-3.4042	-3.1521	-3.2938	-3.1937	-3.2	-3.3063	-3.05	-3.2958	-3.3063	220.568	179.720	78.513	208.122	142.256	63.951	95.803	280.054	-44.078	-34.611	136.653	5.670	213.526	74.095	107.855	81.170	6.3774e-05	0.0018731	0.00014473	1050.5	6.6975e-06	1.9565e-05	689.96	205.53	1.3613e-05	2.1695e-05	147.88	44.569	55.683	25.683	9.0973e-06	24.99	0.019668	0.0273	0.0077154	1267	0.00028635	0.00030511	880.32	267.92	0.00028219	0.00030195	269.38	81.274	92.425	37.496	0.00029092	41.193	250.449	91.166	-62.210	-65.936	86.684	143.912	-66.600	-58.486	180.863	231.517	-60.323	-55.601	-53.041	-47.843	225.944	-51.011	-8191	255	
16245.762	1	1	0	0	0.13722	0.12727	0.35767	0.18765	0.18922	0.21354	0.2059	0.18683	0.092492	0.058447	0.1547	0.14061	0.23169	0.11294	0.2905	0.17151	-2.65	-3.1208	-3.1542	-3.2042	-3.3771	-3.1292	-3.2958	-3.3438	-3.0604	-3.3312	-3.2125	-3.0958	-3.3396	-3.0292	-3.1125	-3.3771	34.214	217.838	98.178	261.220	-37.814	74.948	149.001	124.731	-5.977	230.449	-48.933	240.813	224.096	185.653	67.215	81.482	0.0001653	0.0018967	0.00011665	1038.5	2.3202e-05	4.0772e-06	681.13	204.06	1.164e-05	1.4026e-05	146.22	44.698	55.325	25.891	1.3666e-05	25.105	0.019425	0.026913	0.0075364	1252.7	0.00028286	0.00030004	865.63	265.17	0.00027886	0.00029753	266.76	80.291	91.597	37.255	0.0002848	41.014	191.510	3.798	28.124	-65.542	118.993	139.344	-66.526	-58.340	-9.596	11.463	-60.968	-55.585	-52.787	-47.990	57.759	-51.350	-8191	255	
16245.858	1	1	0	0	0.16348	0.21584	0.25813	0.098089	0.30093	0.26288	0.14924	0.10879	0.182	0.11467	0.18428	0.053875	0.076924	0.087579	0.037841	0.28729	-2.5771	-3.4292	-3.1167	-3.1271	-3.3667	-3.1813	-3.1625	-3.3917	-3	-3.2896	-3.2479	-3.0146	-3.3271	-3.1333	-3.1917	-3.3792	264.800	-16.244	28.716	-51.571	-75.728	189.162	107.547	241.261	138.464	-56.718	18.471	183.326	160.694	-31.215	0.706	236.070	0.00013673	0.0016588	0.00034273	1035.5	8.1512e-06	1.0778e-05	678.26	204.76	2.6041e-05	1.2597e-05	148.68	45.32	56.169	25.709	1.6498e-05	25.258	0.019273	0.026646	0.0074262	1243.6	0.00028197	0.00029783	864.22	266.44	0.00027966	0.0002967	268.39	80.927	92.409	37.353	0.00028366	41.106	-38.347	142.617	61.257	-65.505	65.629	18.617	-66.847	-58.088	125.914	166.833	-60.783	-55.609	-52.691	-47.898	20.681	-51.240	-8191	255	
16245.979	1	1	0	0	0.12799	0.13368	0.24341	0.17409	0.15652	0.12817	0.14061	0.44658	0.17381	0.14336	0.070885	0.07024	0.27964	0.053796	0.14604	0.25185	-2.7229	-3.2375	-3.2604	-3.2271	-3.4771	-3.0771	-3.4292	-3.3	-3.0604	-2.9979	-3.175	-2.9583	-3.3375	-3.1562	-3.1417	-3.4208	91.144	-73.887	-13.728	236.632	47.947	227.186	-32.139	259.173	101.543	278.662	-68.105	-67.210	19.397	29.033	222.381	279.250	0.00027195	0.0012899	0.00020124	1044.8	9.0731e-06	3.3504e-05	681.97	205.91	1.282e-06	1.1862e-05	147.52	45.56	55.909	25.963	1.1388e-05	25.443	0.019411	0.02662	0.0073588	1251	0.00028118	0.00029721	865.97	267.1	0.00028173	0.00029671	266.5	81.17	92.786	37.451	0.00028381	41.478	216.333	16.585	256.357	-65.310	81.996	208.452	-66.530	-58.184	265.734	30.918	-60.771	-55.114	-53.102	-47.977	9.411	-50.839	-8191	255	
16246.075	1	1	0	0	0.15022	0.12782	0.022842	0.28032	0.015226	0.15053	0.31789	0.16576	0.061835	0.083123	0.11821	0.26482	0.13835	0.036679	0.036606	0.19093	-2.5146	-3.1813	-3.2938	-2.9458	-3.3896	-3.2042	-3.1854	-3.4021	-3.0083	-3.2021	-3.3875	-2.9354	-3.2854	-3.3021	-3.1937	-3.3917	78.988	-28.005	-35.312	163.303	177.037	-21.396	204.865	-53.075	274.308	50.422	-49.517	130.656	146.292	254.034	185.733	137.690	0.00029627	0.00099265	0.00030917	1043.8	1.1432e-05	1.3321e-05	679.85	206.1	2.6459e-05	1.001e-05	147.96	44.857	56.166	25.86	2.8058e-05	24.835	0.019484	0.026593	0.0074256	1256.7	0.00028322	0.00029956	866.88	268.08	0.00028146	0.00029645	266.6	80.946	92.762	37.133	0.00028428	41.093	254.633	-45.992	148.674	-65.697	250.012	129.539	-67.185	-58.498	0.498	203.249	-60.977	-55.746	-53.200	-47.788	119.969	-50.788	-8191	255	
16246.171	1	1	0	0	0.2103	0.12846	0.07666	0.198	0.16804	0.17392	0.34243	0.10327	0.25976	0.17961	0.091952	0.22698	0.14355	0.20981	0.25334	0.1774	-2.8292	-3.0708	-3.3333	-3.2458	-3.3063	-3.2583	-3.0062	-3.4104	-3.1979	-3.1458	-3.4125	-2.9833	-3.2979	-3.2354	-3.0208	-3.2521	-24.924	52.290	0.300	270.531	64.728	273.568	226.782	1.502	242.115	203.903	-11.272	40.664	229.373	282.549	282.990	5.091	8.5278e-05	0.0026348	0.00028916	1034.5	1.2914e-05	1.0623e-05	672.41	206.17	7.8377e-06	3.9693e-05	147.14	44.919	55.983	25.644	1.0884e-05	24.902	0.019402	0.026351	0.0073518	1242.5	0.00028143	0.00029509	856.69	266.32	0.00027908	0.00029322	264.8	80.721	91.921	36.944	0.00028245	41.055	-15.947	-65.397	0.278	-65.685	-12.279	55.802	-66.452	-58.329	-41.648	86.686	-61.206	-55.341	-53.369	-47.784	266.096	-51.050	-8191	255	
16246.267	1	1	0	0	0.14177	0.090671	0.15046	0.28909	0.0048106	0.054261	0.16429	0.051704	0.099174	0.29786	0.23881	0.037946	0.037444	0.0704	0.072683	0.11807	-2.6771	-3.1125	-3.3312	-3.2104	-3.2604	-3.325	-3.1042	-3.2896	-3.1396	-2.9313	-3.1958	-3.0312	-3.0771	-3.3417	-2.8667	-3.375	19.418	81.920	121.618	-65.626	38.421	252.747	-71.319	-45.066	145.933	246.248	217.789	150.617	-5.812	-71.239	282.477	194.515	0.00020112	0.00077738	0.00022601	1023.3	8.4175e-06	2.608e-05	665.25	203.46	1.6319e-05	1.5347e-05	144.77	44.921	54.712	25.358	2.7347e-05	25.073	0.01938	0.02616	0.0073859	1235.7	0.00028224	0.00029425	851.8	265.52	0.00027824	0.00029056	265.27	80.707	91.263	36.741	0.00028281	40.985	-58.876	252.233	37.819	-65.702	80.527	123.439	-66.851	-58.210	279.888	260.854	-60.670	-55.062	-53.412	-48.011	111.413	-51.158	-8191	255	
16246.362	1	1	0	0	0.16713	0.24588	0.096689	0.043912	0.08259	0.20695	0.19524	0.15621	0.042444	0.17482	0.27681	0.039398	0.20975	0.098713	0.11566	0.042162	-2.7062	-2.9333	-3.3438	-3.1813	-3.0729	-3.1521	-3.0875	-3.3896	-3.2521	-2.8375	-3.275	-3.2271	-3.1021	-3.2542	-3.0396	-3.2979	282.936	140.727	109.931	-38.335	-69.387	128.398	214.074	98.395	25.880	195.920	-69.835	-45.268	271.243	220.309	127.831	18.535	0.00014394	0.0010292	0.00044167	995.68	1.6051e-05	1.3721e-05	651.93	202.59	1.2695e-05	3.0014e-05	143.74	44.787	54.467	25.407	7.8798e-06	24.792	0.019214	0.026113	0.0073959	1212.5	0.00027674	0.00029365	838.43	263.33	0.00027602	0.00029036	262.96	80.204	90.328	36.629	0.00028208	40.697	194.967	27.983	-13.070	-65.257	47.803	128.725	-66.663	-58.071	204.734	14.294	-61.213	-54.445	-52.605	-47.844	55.190	-50.914	-8191	255	
16246.458	1	1	0	0	0.20439	0.17492	0.054654	0.20592	0.37549	0.15221	0.077997	0.1119	0.12188	0.14346	0.20335	0.27472	0.14289	0.062716	0.32738	0.076303	-2.6604	-3.0167	-3.3312	-3.1729	-3.1625	-3.2104	-3.1833	-3.2667	-3.3937	-3.1063	-3.2833	-3.15	-3.0646	-3.2958	-2.9833	-3.3708	76.389	226.535	150.784	282.271	216.779	9.982	156.791	190.364	-72.407	277.022	271.798	256.250	26.946	191.086	84.630	255.574	0.00015521	0.0022537	0.00024248	983.4	1.6891e-05	1.5083e-05	639.9	198.29	2.7439e-06	1.4136e-05	141.66	44.031	52.987	25.235	1.3887e-05	24.523	0.019016	0.025721	0.0073507	1190.2	0.00027404	0.00029101	826.17	259.55	0.00027197	0.00028809	259.18	79.087	88.389	36.175	0.00027478	39.749	231.433	112.545	112.152	-64.911	46.044	-29.345	-66.354	-58.284	125.327	-18.746	-60.616	-55.457	-52.710	-47.440	51.933	-51.625	-8191	255	
16246.579	1	1	0	0	0.15505	0.19463	0.067761	0.12431	0.13511	0.12902	0.1923	0.12436	0.22689	0.21436	0.098764	0.29184	0.18222	0.047401	0.1623	0.34155	-2.825	-3.0521	-3.1667	-3.0625	-3.1125	-3.3208	-3	-3.1854	-3.2396	-2.9604	-3.1333	-3.1667	-3.0583	-3.2625	-3.2417	-3.2458	63.203	4.154	41.598	35.704	181.333	164.329	143.733	197.163	21.886	32.781	280.023	173.537	170.682	272.003	-38.847	239.324	0.00022843	0.00096448	0.0006338	910.82	7.797e-06	1.3424e-05	582.07	187.75	1.1477e-05	2.0213e-05	136.71	43.195	51.801	24.917	5.3973e-06	24.877	0.018125	0.024629	0.0069376	1109.5	0.00025436	0.00027197	756.9	243.38	0.00025073	0.00026962	246.4	75.683	84.701	35.357	0.00026413	39.419	-51.608	-38.188	83.821	-64.690	156.983	216.277	-65.557	-57.749	201.087	185.813	-59.839	-54.962	-52.205	-47.399	-69.706	-51.126	-8191	255	
16246.675	1	1	0	0	0.09308	0.15219	0.18869	0.17	0.18297	0.047095	0.20904	0.18451	0.04901	0.13006	0.24175	0.055336	0.2197	0.07628	0.10912	0.026105	-2.7521	-2.9521	-3.3063	-3.225	-3.0208	-3.3542	-3.2521	-3.0604	-3.3312	-2.9458	-3.4208	-3.3312	-3.05	-3.3521	-3.2479	-3.0438	100.116	-20.931	232.224	222.846	-25.968	209.615	-25.790	179.574	16.672	249.424	10.052	213.123	268.546	180.147	256.104	152.304	0.00018417	0.001129	0.00010475	895.48	6.4221e-06	1.6369e-05	586.81	187.53	9.907e-06	2.0325e-05	136.36	43.34	51.865	25.198	7.9817e-06	25.289	0.017765	0.02452	0.0069318	1089.2	0.00025647	0.00027497	763.9	243.03	0.00025499	0.00027217	246.81	75.953	84.324	35.581	0.00026035	39.219	249.629	90.690	222.603	-64.056	84.113	-70.344	-65.442	-57.634	148.693	-27.648	-60.551	-55.021	-52.735	-48.020	193.449	-51.126	-8191	255	
16246.771	1	1	0	0	0.28179	0.22208	0.14673	0.2546	0.21998	0.06884	0.29461	0.056349	0.16322	0.028443	0.10612	0.39036	0.16902	0.21872	0.10706	0.20235	-3.1146	-2.925	-3.225	-3.2125	-3.1417	-3.5625	-3.3021	-3.1583	-3.3688	-2.9958	-3.2438	-3.3771	-2.9313	-3.2062	-3.125	-3.1188	11.770	17.541	163.414	244.771	22.269	243.976	259.833	-70.301	223.787	221.219	262.167	-67.286	146.110	265.546	115.790	200.215	8.0194e-05	0.0021032	0.00012949	867.75	6.9087e-06	8.3627e-06	572.36	184.31	2.1265e-05	2.16e-05	132.91	42.14	50.793	24.542	2.2562e-05	24.55	0.017355	0.023939	0.006675	1057.2	0.00024653	0.00026351	737.74	235.94	0.00024105	0.00025691	236.41	72.489	81.16	34.332	0.00024273	37.709	176.182	185.934	197.832	-64.257	141.762	119.723	-65.319	-57.677	278.865	224.531	-59.549	-54.444	-52.757	-47.260	158.399	-50.380	-8191	255	
16246.843	1	1	0	0	0.18033	0.091685	0.1257	0.16253	0.16343	0.13486	0.23015	0.2229	0.10408	0.36192	0.03873	0.14639	0.15524	0.064354	0.30769	0.087083	-2.9625	-2.95	-3.0021	-3.3688	-3.1417	-3.3063	-3.3771	-2.9979	-3.3667	-3.1354	-3.1583	-3.3438	-3.0792	-3.375	-3.0667	-3.0896	55.539	148.120	-58.499	192.818	283.492	-48.414	155.505	238.404	203.339	-54.605	-3.904	-20.495	146.824	262.223	-28.819	-10.599	0.00014637	0.002029	0.00054607	851.4	1.4912e-05	1.6433e-05	561.68	181.14	7.0063e-06	1.786e-05	133.12	41.999	50.093	24.206	2.4776e-05	23.792	0.016331	0.022414	0.0062253	1021.5	0.00023349	0.00024645	714.51	230.45	0.00022978	0.0002458	229.41	70.995	79.853	33.707	0.00023248	36.913	237.345	27.832	80.156	-63.979	123.206	-30.907	-65.399	-56.891	107.791	184.183	-59.841	-54.986	-52.822	-47.913	100.043	-51.120	-8191	255	
16246.939	1	1	0	0	0.17128	0.14382	0.19479	0.0062707	0.28053	0.15019	0.11164	0.081942	0.14804	0.077766	0.064263	0.26243	0.13618	0.19696	0.22209	0.11903	-2.7938	-2.9396	-2.9958	-3.4021	-3	-3.2792	-3.3229	-2.8833	-3.2646	-3.2146	-3.1083	-3.3979	-3.0479	-3.2854	-3.1875	-3.1583	58.783	-7.127	55.623	0.642	128.449	195.096	263.582	210.788	204.739	125.957	245.347	212.703	8.333	-12.970	219.756	223.747	5.1279e-05	0.00099979	0.000384	850.02	1.4643e-05	2.1472e-05	568.61	183.92	1.689e-06	1.6303e-05	135.74	41.87	50.873	24.594	1.6298e-05	24.574	0.015905	0.021758	0.0060118	1022.7	0.00022912	0.00024367	720.92	232.67	0.00022867	0.00024144	230.24	71.194	80.626	33.913	0.00023149	37.211	-74.096	-37.687	190.991	-63.576	-9.277	79.753	-64.957	-57.648	116.152	130.341	-60.946	-54.666	-52.021	-47.456	113.211	-51.148	-8191	255	
16247.059	1	1	0	0	0.28544	0.13661	0.26772	0.18658	0.12128	0.17721	0.25975	0.12919	0.23954	0.11048	0.15195	0.16058	0.12295	0.13848	0.14273	0.0497	-2.9104	-3.0604	-2.9938	-3.2833	-3.0812	-3.1792	-3.3417	-3.0542	-3.3979	-3.0563	-3.0708	-3.3125	-3.1063	-3.3208	-3.3771	-3.1271	210.806	105.397	193.713	-55.952	213.727	67.820	249.345	234.914	-20.044	41.995	130.031	0.293	-45.409	-59.353	-36.984	202.690	0.00036221	0.001239	0.00041055	881.29	1.5645e-05	6.7475e-06	586.24	188.67	6.8151e-06	7.4433e-06	138.18	42.399	51.681	24.932	1.0204e-05	24.558	0.015934	0.021826	0.0060274	1052.7	0.00023093	0.0002437	737.27	237.18	0.0002307	0.00024438	234.33	72.13	81.852	34.229	0.00023334	37.557	195.749	9.719	158.264	-64.120	279.274	-46.004	-65.114	-57.985	-48.292	204.872	-60.354	-54.964	-53.045	-47.507	211.709	-50.983	-8191	255	
16247.155	1	1	0	0	0.32401	0.091319	0.31489	0.28075	0.11215	0.19885	0.19253	0.18312	0.21374	0.14171	0.2103	0.16471	0.27438	0.26005	0.068993	0.16847	-2.8208	-3.0604	-3.0271	-3.5312	-3.1833	-3.1542	-3.6375	-2.8458	-3.3125	-3.3542	-3.2042	-3.3312	-3.1167	-3.2021	-3.1896	-3.1854	-49.751	159.992	276.326	231.597	208.562	212.135	255.206	-60.148	180.011	-51.542	230.612	243.507	109.558	-27.643	-49.054	197.708	1.204e-05	0.0020923	0.00012037	885.48	1.8854e-05	2.6895e-05	591.04	188.34	1.761e-05	1.2223e-05	139.92	43.129	52.032	24.909	2.816e-05	24.764	0.01599	0.021878	0.0060453	1056.8	0.00023077	0.00024078	741.64	237.61	0.00023018	0.00024144	234.78	72.61	82.174	34.3	0.00023554	37.993	120.137	50.079	78.094	-64.283	221.255	120.097	-65.409	-57.831	35.942	-11.258	-60.392	-55.030	-53.175	-47.317	230.684	-51.091	-8191	255	
16247.252	1	1	0	0	0.083672	0.056037	0.12836	0.058698	0.21114	0.131	0.13943	0.14324	0.045815	0.13375	0.27056	0.20899	0.16312	0.10371	0.27216	0.12639	-2.8271	-3.0854	-2.9271	-3.425	-3.2229	-3.1292	-3.5771	-3.1542	-3.1542	-3.2854	-3.1792	-3.4333	-3.1417	-3.1854	-3.3187	-3.0792	164.115	38.207	4.196	258.277	-21.911	7.983	108.937	227.219	27.935	246.201	256.351	246.120	90.569	276.628	265.192	-67.771	0.00016436	0.0015582	8.9345e-06	928.72	1.9387e-06	5.9269e-06	630.81	195.41	1.5396e-05	2.3242e-05	143.5	43.573	53.451	25.627	7.6742e-06	25.318	0.016196	0.022152	0.006216	1107.2	0.00023709	0.0002481	787.12	246.36	0.00023954	0.0002513	245.29	74.718	85.392	35.441	0.00024772	39.251	283.376	100.393	282.324	-64.779	-57.653	127.453	-65.971	-58.181	-24.043	261.731	-61.308	-55.568	-53.668	-47.944	52.180	-51.673	-8191	255	
16247.348	1	1	0	0	0.12125	0.091953	0.16883	0.49974	0.24477	0.25187	0.23239	0.26282	0.28684	0.072544	0.24354	0.25581	0.1709	0.12664	0.044014	0.052539	-2.7458	-3.2812	-2.9104	-3.2583	-3.1458	-3.1854	-3.5083	-3.3229	-3.1562	-3.4417	-3.0646	-3.4729	-3.1604	-3.1458	-3.2896	-3.2	170.076	113.176	85.806	177.049	-36.814	55.480	250.472	261.393	168.897	264.096	218.883	157.463	142.697	-26.918	230.768	108.177	0.00023612	0.002086	0.00065374	1061.7	7.7135e-06	1.276e-05	751.98	212.52	1.4496e-05	1.9609e-05	158.31	45.912	56.896	26.576	5.3265e-06	26.312	0.017044	0.023245	0.0065674	1247.6	0.00024968	0.00026191	912.9	266.63	0.00025114	0.00026495	266.11	78.327	89.83	36.871	0.00026189	41.061	96.225	14.750	223.509	-65.417	199.151	104.349	-67.131	-59.814	67.964	-39.068	-62.297	-56.585	-54.500	-48.351	261.511	-51.974	-8191	255	
16247.442	1	1	0	0	0.18135	0.079332	0.078579	0.24431	0.33705	0.089192	0.26702	0.14616	0.21368	0.18719	0.091491	0.17195	0.035664	0.25226	0.2007	0.27388	-2.625	-3.0938	-3.0542	-3.5062	-3.1771	-3.1063	-3.4521	-3.175	-3.2062	-3.2417	-3.15	-3.1146	-3.3833	-3.1167	-3.3917	-3.2958	-70.310	32.711	156.372	255.293	80.450	83.195	218.073	154.959	-20.619	266.885	162.707	210.776	175.765	-53.639	172.113	175.454	0.00032581	0.00094133	0.00027771	1238.8	1.2622e-05	1.185e-05	900.71	241.03	6.7086e-06	2.2569e-05	180.8	48.717	60.768	27.621	1.3547e-05	27.346	0.017755	0.024454	0.006959	1427.6	0.00026049	0.0002739	1063.9	296.93	0.00026148	0.00027608	292.9	82.645	95.245	38.396	0.00027223	42.409	258.416	205.231	196.849	-66.798	249.159	151.754	-68.076	-61.150	-78.289	161.812	-64.218	-57.532	-56.104	-49.661	39.761	-52.291	-8191	255	
16247.540	1	1	0	0	0.11857	0.32777	0.080113	0.27551	0.082507	0.23556	0.16592	0.13806	0.051773	0.23668	0.050625	0.2897	0.26143	0.12561	0.12083	0.15053	-2.6813	-3.3583	-3.0354	-3.3896	-3.3021	-2.9604	-3.4688	-3.2729	-3.2062	-3.3729	-3.0208	-3.1896	-3.2167	-3.2896	-3.2958	-3.2417	216.438	-68.285	263.062	235.225	89.445	161.465	244.138	257.581	-2.774	-58.535	265.032	189.527	251.024	-69.203	70.497	269.474	6.3433e-05	0.0011307	0.00030834	1397.8	1.4424e-05	1.328e-05	1050.6	278.42	4.9338e-06	1.2249e-05	213.15	52.858	67.203	28.467	1.6693e-05	27.934	0.01817	0.025078	0.0071053	1578.5	0.00026256	0.00027902	1211.4	334.51	0.00026033	0.00027866	324.52	86.484	101.01	39.297	0.00027367	43.164	65.797	50.996	217.724	-67.484	33.828	128.511	-69.064	-63.025	169.574	154.533	-65.154	-58.801	-57.583	-50.142	19.491	-53.191	-8191	255	
16247.659	1	1	0	0	0.15574	0.1395	0.15683	0.15359	0.27944	0.12468	0.37962	0.10274	0.21434	0.15025	0.1411	0.07764	0.32628	0.077356	0.12111	0.1371	-2.6979	-3.5083	-2.9979	-3.1542	-3.0563	-2.8708	-3.525	-3.45	-3.0479	-3.2188	-3.1437	-3.0854	-3.4667	-2.9938	-3.3563	-3.2792	185.543	229.510	143.440	232.989	19.958	-46.345	216.287	35.864	-13.679	15.645	252.069	-81.630	264.679	89.353	245.242	15.384	0.00017082	0.00035783	0.00039056	1515.5	1.8593e-05	1.29e-05	1196.3	334.55	1.0289e-05	4.0428e-05	259.15	58.546	75.027	29.379	7.9709e-06	29.02	0.018144	0.025321	0.0071564	1696.5	0.00026375	0.00028172	1349.2	388.91	0.00026223	0.00028229	368.29	91.962	108.94	40.106	0.00027179	43.893	220.968	96.305	6.602	-68.010	19.766	102.751	-69.673	-64.833	97.490	85.557	-67.152	-60.556	-59.373	-50.757	192.846	-53.526	-8191	255	
16247.755	1	1	0	0	0.16865	0.093444	0.21726	0.20338	0.22133	0.18482	0.28944	0.4146	0.10197	0.043489	0.056123	0.12789	0.22854	0.32908	0.15746	0.26245	-2.5729	-3.4042	-3.3125	-3.1354	-3.2333	-3.0646	-3.4313	-3.375	-2.9917	-3.2812	-3.1729	-3.3646	-3.3688	-3.0958	-3.2625	-3.1521	232.291	239.367	227.628	-58.047	37.562	-48.697	215.830	231.896	50.071	79.825	104.515	-51.884	232.954	-81.378	38.991	-81.931	0.00013331	0.0008897	0.00044318	1552.8	1.0159e-05	1.3515e-05	1202.1	333.95	1.1544e-05	2.4433e-05	263.69	73.151	95.194	29.438	1.6478e-05	29.436	0.018091	0.025306	0.0070694	1723.2	0.00026155	0.00028068	1355.5	386.55	0.00026078	0.0002791	371.29	105.89	128.03	39.991	0.00026576	43.77	140.916	150.578	55.973	-67.900	-70.964	52.732	-69.291	-64.276	21.795	17.973	-66.839	-62.920	-61.938	-51.186	75.598	-54.298	-8191	255	
16247.851	1	1	0	0	0.078106	0.10977	0.11682	0.516	0.1962	0.33896	0.0064562	0.25457	0.081406	0.18935	0.11825	0.12819	0.043846	0.15869	0.10303	0.13977	-2.6063	-3.3646	-3.2292	-3.2208	-3.4167	-3.2396	-3.3104	-3.5146	-3.3125	-3.4125	-3.1937	-3.225	-3.5667	-3.2229	-3.3312	-3.3917	-46.796	114.262	-19.239	249.067	275.655	156.618	157.865	-64.618	-47.786	84.294	267.713	85.978	248.234	181.522	95.818	134.943	0.00024182	0.00086933	0.00022865	1501	1.8389e-05	2.0033e-05	1183.3	342.26	2.0123e-05	2.2323e-05	273.95	88.2	108.56	30.385	4.5696e-06	30.494	0.017737	0.024662	0.0069284	1671.2	0.00025649	0.00027265	1329.1	391.82	0.00025216	0.00027056	375.4	119	140.21	40.514	0.00025498	44.241	137.253	223.005	15.821	-67.518	213.700	91.307	-68.914	-64.132	47.968	-2.706	-66.460	-64.802	-62.641	-52.361	-73.198	-54.132	-8191	255	
16247.947	1	1	0	0	0.071692	0.032365	0.11985	0.25155	0.055475	0.18978	0.13417	0.20931	0.13311	0.11264	0.13071	0.054775	0.19827	0.15294	0.13521	0.11044	-2.5125	-3.2396	-3.3125	-3.3979	-3.3688	-3.0979	-3.1937	-3.6354	-3.1771	-3.3979	-3.4542	-3.125	-3.425	-3.2083	-2.95	-3.5187	250.082	150.341	52.017	253.661	217.961	142.165	267.201	185.908	152.516	246.067	172.173	245.897	214.173	259.610	-18.664	-57.117	0.0002069	0.00084385	0.00035535	1517.3	6.9127e-06	2.9155e-05	1204.8	362.14	9.5223e-06	1.0608e-05	288.43	98.315	119.14	33.686	3.5192e-06	32.803	0.017349	0.023711	0.0066408	1678.1	0.00024846	0.00026203	1337.7	409.57	0.00024645	0.00026143	384.98	127.32	149.57	43.559	0.00024644	46.301	274.871	26.364	-34.534	-67.123	118.097	-6.593	-68.486	-64.417	-36.792	134.266	-66.778	-64.540	-62.942	-54.332	21.206	-55.856	-8191	255	
16248.068	1	1	0	0	0.064651	0.062162	0.10761	0.23812	0.17491	0.23	0.32915	0.37547	0.054174	0.16167	0.049064	0.23546	0.31858	0.40132	0.15777	0.053305	-2.5625	-3.1396	-3.2146	-3.2208	-3.2687	-3.1688	-3.2646	-3.4833	-3.075	-3.1813	-3.3208	-3.0521	-3.4208	-3.3063	-2.9854	-3.3875	4.872	166.404	168.488	171.847	106.811	-61.952	182.402	214.656	243.744	233.181	237.093	-71.344	-79.199	245.027	14.282	217.752	0.00010292	0.00074365	0.00025	1549.3	1.052e-05	2.2271e-05	1233.5	380.65	1.2086e-05	1.3731e-05	295.63	110.33	132.44	37.186	8.326e-06	35.11	0.016869	0.02311	0.006465	1697.9	0.00024377	0.00025771	1366.5	425.68	0.00024245	0.00025525	389.88	138.81	161.48	47.038	0.00024304	48.426	219.422	77.835	-16.721	-67.465	-13.835	40.219	-68.509	-64.654	134.109	171.747	-66.317	-65.364	-63.822	-56.079	252.499	-56.783	-8191	255	
16248.140	1	1	0	0	0.12638	0.047964	0.064954	0.14339	0.074051	0.17357	0.22851	0.17567	0.049984	0.14391	0.090575	0.18166	0.094673	0.096397	0.045713	0.31259	-2.8146	-3.2708	-3.3187	-3.1979	-3.2375	-3.2875	-3.2854	-3.5167	-3.0104	-3.2188	-3.4729	-3.2125	-3.3896	-3.1813	-3.0479	-3.5042	184.075	10.845	224.563	-77.771	126.243	193.729	182.340	241.197	239.612	50.689	261.660	-22.580	160.087	276.784	242.681	151.666	0.00013077	0.0017963	0.00017128	1575.5	1.8548e-05	1.9276e-05	1263.1	390.87	1.5356e-05	1.1178e-05	307.68	110.35	134.63	38.147	1.3482e-05	35.75	0.016755	0.022612	0.0063621	1726.5	0.00024128	0.00025245	1394.7	436.54	0.00023976	0.00025106	399.19	138.93	162.83	47.527	0.00023817	48.625	173.741	-16.128	205.525	-67.559	205.320	106.795	-68.786	-64.927	168.668	-17.282	-66.984	-65.216	-64.039	-56.136	129.513	-57.179	-8191	255	
16248.260	1	1	0	0	0.17665	0.090009	0.13296	0.27959	0.076576	0.063786	0.23334	0.38318	0.066531	0.090029	0.13036	0.26268	0.14067	0.14848	0.070949	0.1498	-2.7	-3.0354	-3.3146	-3.0771	-3.4917	-3.3708	-3.1063	-3.5708	-3.25	-3.0604	-3.5167	-3.0812	-3.3625	-3.1771	-3.1333	-3.3667	33.106	-44.814	-32.608	224.988	135.471	-72.542	207.143	152.631	268.284	112.085	219.237	219.409	-75.722	236.358	188.072	-43.324	0.0002748	0.00069621	0.0009948	1605.1	1.5317e-05	1.5443e-05	1293	394.94	1.9382e-05	1.4254e-05	309.4	98.366	122.2	33.537	1.055e-05	31.468	0.016397	0.022202	0.006259	1750.7	0.00023564	0.00024475	1412.8	438.26	0.00023394	0.00024398	398.62	126.42	149.73	42.821	0.00023495	44.546	273.052	189.808	-13.870	-67.874	175.664	106.511	-69.485	-65.493	-69.914	101.791	-67.485	-65.255	-63.721	-54.294	101.490	-55.461	-8191	255	
16248.355	1	1	0	0	0.10688	0.27845	0.062242	0.3095	0.35544	0.31182	0.26589	0.34715	0.092611	0.16084	0.20439	0.035931	0.37111	0.041033	0.15143	0.1133	-2.8083	-3	-3.3771	-3.3	-3.25	-3.2771	-3.1396	-3.2958	-3.3312	-3.2042	-3.5687	-3.2167	-3.2708	-3.3542	-2.9792	-3.4708	29.388	14.223	144.888	251.573	160.605	214.896	259.780	230.360	57.625	45.133	168.625	-74.616	263.451	10.605	12.275	159.230	0.00022663	0.000662	8.7256e-05	1590.3	1.1487e-05	1.345e-05	1254.2	361.42	2.3494e-05	7.0547e-06	277.78	68.103	84.461	27.682	1.6998e-05	27.369	0.015915	0.021518	0.0061213	1731.3	0.00022872	0.00023742	1374.1	404.07	0.00022635	0.00023457	367.38	96.303	112.47	36.754	0.00022623	39.985	173.913	229.179	75.251	-68.421	204.213	-16.669	-69.648	-65.154	214.018	264.347	-67.262	-61.918	-60.637	-50.640	86.523	-53.450	-8191	255	
16248.451	1	1	0	0	0.22456	0.27487	0.094644	0.11203	0.076839	0.15969	0.17893	0.089162	0.20943	0.1063	0.062352	0.13718	0.17603	0.18094	0.19659	0.29789	-2.9	-2.9333	-3.4813	-3.2896	-3.1979	-3.3896	-3.2917	-3.4375	-3.2125	-2.9229	-3.4875	-3.1958	-3.1688	-3.1896	-3.0625	-3.2542	136.540	-80.795	76.880	224.954	-31.334	263.199	179.646	206.305	223.185	175.380	73.677	-74.998	267.941	0.214	207.550	96.550	0.000379	0.00051682	0.00012198	1474.1	6.5164e-06	1.058e-05	1095.9	278.11	7.9643e-06	2.0449e-05	193.34	46.682	58.3	24.831	1.9099e-05	25.215	0.015218	0.020704	0.0059438	1609.2	0.00021735	0.00022714	1214.3	321.7	0.00021549	0.00022478	281.31	73.884	84.877	33.364	0.00021539	37.085	142.821	-21.821	56.131	-68.386	239.660	42.272	-69.016	-63.167	87.173	158.865	-63.966	-57.975	-55.664	-49.243	165.038	-51.406	-8191	255	
16248.547	1	1	0	0	0.091595	0.078477	0.062134	0.0060644	0.10729	0.12828	0.24365	0.27995	0.20866	0.069162	0.054817	0.17007	0.055332	0.18422	0.16204	0.13878	-2.8104	-3.05	-3.1875	-3.1917	-3.0187	-3.3187	-3.1021	-3.2417	-3.3208	-3.1271	-3.2042	-3.0812	-3.0458	-3.2354	-3.2917	-3.2896	-2.612	63.998	140.562	-72.965	66.712	49.207	245.649	-72.003	200.079	51.265	-71.511	19.653	73.508	-18.029	148.783	171.421	0.00015214	0.0016928	0.00032553	1211	6.0315e-06	6.8554e-06	848.55	212.27	3.927e-06	4.664e-06	154.85	42.057	50.689	23.627	1.4442e-05	24.069	0.014319	0.019507	0.0055708	1347.3	0.00020252	0.000214	966.87	254.81	0.00020094	0.00021045	239.51	67.28	75.8	31.542	0.00020254	35.17	156.908	245.634	38.861	-67.121	31.161	93.484	-67.705	-59.907	274.413	45.076	-61.082	-56.766	-53.706	-48.230	198.506	-50.773	-8191	255	
16248.643	1	1	0	0	0.18108	0.15262	0.11832	0.21032	0.15456	0.10096	0.047593	0.17303	0.33137	0.20309	0.14309	0.16818	0.05673	0.052625	0.037914	0.091762	-2.9833	-3.0083	-3.2562	-3.3792	-3.0583	-3.275	-3.2417	-3.1562	-3.275	-2.925	-3.1875	-3.2917	-2.9521	-3.2562	-3.2104	-3.1896	156.303	215.097	247.381	273.392	174.421	265.588	234.010	96.993	52.561	237.873	22.954	76.945	-72.621	113.801	-11.506	200.440	4.1558e-06	0.0014479	0.00054786	994.8	9.368e-06	4.6179e-06	688.89	190.14	2.1902e-05	5.11e-06	144.14	39.906	46.91	22.371	1.7328e-05	23.437	0.013428	0.018405	0.0051857	1131.6	0.00018981	0.00020015	807.17	229.25	0.00018678	0.00019805	222.1	63.276	70.301	29.908	0.00018892	33.422	258.523	-48.882	9.616	-65.672	22.805	-21.353	-65.824	-58.022	5.532	73.751	-60.441	-54.907	-52.820	-47.607	15.641	-50.660	-8191	255	
16248.739	1	1	0	0	0.099603	0.043129	0.10426	0.02068	0.12083	0.14687	0.19915	0.15861	0.11149	0.18537	0.12673	0.18779	0.17402	0.092601	0.22801	0.058217	-2.9208	-3.1562	-3.2562	-3.2562	-3.0354	-3.4437	-3.3208	-3.0625	-3.3	-3.2	-3.1667	-3.2979	-3.0167	-3.2125	-3.1542	-3.2333	243.194	54.053	-3.487	-60.759	-11.954	198.066	188.589	237.602	159.218	237.269	146.160	279.775	146.783	66.903	137.436	47.155	0.00011026	0.00051432	0.0001947	871.99	3.6946e-06	1.527e-05	614.05	181.38	6.9233e-06	1.8558e-05	140.98	39.508	45.146	21.823	9.7895e-06	23.299	0.012555	0.017349	0.0048791	996.15	0.0001795	0.00019116	726.89	217.99	0.000179	0.00018926	215.77	62.156	68.731	29.37	0.000187	33.212	140.283	-44.205	126.408	-64.310	103.673	-74.824	-65.104	-57.402	207.017	75.239	-59.315	-55.173	-52.918	-47.095	193.421	-50.116	-8191	255	
16248.835	1	1	0	0	0.12531	0.12682	0.27118	0.17148	0.11418	0.33473	0.15868	0.22579	0.087148	0.11052	0.038896	0.089768	0.16377	0.0231	0.20788	0.086041	-2.9271	-3.025	-3.1854	-3.2938	-3.0396	-3.3417	-3.2458	-3.3583	-3.3125	-3.25	-3.1771	-3.2917	-3.1167	-3.4271	-3.2833	-3.0687	178.270	-53.750	-30.502	79.993	237.829	-15.899	235.501	218.057	72.503	187.636	252.373	52.163	118.274	-14.610	-21.833	220.402	0.0001805	0.0013078	0.00013162	833.08	6.9064e-06	2.0426e-05	594.92	177.84	1.2282e-05	2.1898e-05	138.49	38.744	45.225	21.834	8.9125e-06	23.082	0.012544	0.017501	0.0048807	960.78	0.00018264	0.00019498	709.09	215.05	0.00018302	0.00019458	213.68	61.697	68.601	29.329	0.00018859	33.206	81.797	279.909	205.769	-63.888	63.624	238.130	-65.020	-57.455	260.255	54.563	-60.382	-54.766	-52.659	-47.085	252.557	-50.212	-8191	255	
16248.932	1	1	0	0	0.17327	0.090481	0.031741	0.28212	0.28438	0.24138	0.13043	0.18276	0.15205	0.1803	0.093651	0.064893	0.070006	0.19845	0.14443	0.11285	-2.9	-3.0208	-3.0792	-3.2792	-3.0083	-3.3125	-3.2	-3.0333	-3.3438	-3.1604	-3.0542	-3.2771	-3.0979	-3.3792	-3.4542	-2.9875	71.027	-52.209	-3.215	269.603	283.679	-31.185	229.693	188.349	-21.853	89.337	-74.782	272.526	155.392	-47.251	-24.554	123.742	0.00020163	0.0017291	0.00029342	829	1.3516e-05	2.0788e-05	601.78	179.15	6.4843e-06	1.2717e-05	137.65	39.254	46.429	22.378	1.0904e-05	23.349	0.012708	0.017608	0.00488	962.27	0.00018444	0.00019619	714.63	217.04	0.00018642	0.00019621	215.84	62.58	69.824	29.91	0.00019069	33.636	230.497	80.409	224.462	-63.909	104.762	-73.622	-64.837	-57.335	-10.676	6.255	-59.792	-55.265	-52.589	-47.140	16.291	-51.122	-8191	255	
16249.028	1	1	0	0	0.16279	0.01249	0.13348	0.14991	0.31536	0.022068	0.27384	0.045982	0.15987	0.26658	0.18267	0.094116	0.13817	0.07858	0.1014	0.071758	-3.0521	-3.1333	-2.9208	-3.3917	-3.1833	-3.2562	-3.2687	-2.9958	-3.2021	-3.0812	-3.0792	-3.475	-3.0479	-3.1771	-3.3292	-3.0833	19.364	99.689	91.776	255.812	82.640	-71.850	209.672	-7.222	97.838	80.555	166.856	-41.445	9.599	-49.599	138.114	-74.190	0.0003465	0.00022484	0.00018987	841.42	1.2579e-05	3.9775e-06	606.24	180.69	9.3612e-06	7.0848e-06	141.66	39.59	46.532	22.783	6.9708e-06	23.752	0.012915	0.017681	0.0049101	974.63	0.00018669	0.00019776	717.59	218.84	0.00018669	0.00019808	217.88	63.339	70.504	30.388	0.00019046	34.173	201.411	-43.671	255.747	-63.738	186.757	10.742	-64.928	-57.960	-5.243	-67.216	-59.609	-54.502	-52.895	-46.961	-10.243	-50.298	-8191	255	
16249.148	1	1	0	0	0.12016	0.20514	0.056152	0.29972	0.23289	0.11423	0.18203	0.43595	0.15079	0.14647	0.051755	0.046785	0.14159	0.22195	0.163	0.20746	-2.9583	-3.2271	-3.0958	-3.475	-3.2583	-3.1688	-3.3542	-3.0125	-3.2604	-3.2125	-3.0146	-3.2188	-3.0521	-3.1917	-3.3833	-3.1312	9.567	176.175	47.719	8.367	123.119	102.119	232.343	183.402	262.078	219.936	37.016	96.797	251.111	126.922	89.570	2.046	8.4508e-05	0.00064703	0.00027094	842.7	6.5144e-06	5.3563e-06	605.76	181.01	8.0646e-06	6.6966e-06	139.99	39.759	46.713	22.769	1.2068e-05	23.781	0.012897	0.017662	0.0049041	975.97	0.00018756	0.00019479	717.6	218.85	0.00018553	0.00019631	216.31	63.361	70.4	30.202	0.00018796	34.035	195.903	106.357	126.024	-63.695	145.800	21.974	-64.790	-57.666	75.442	237.944	-59.612	-54.982	-52.678	-47.040	36.763	-50.902	-8191	255	
16249.245	1	1	0	0	0.30417	0.069396	0.1925	0.22765	0.10748	0.16716	0.12685	0.068673	0.17035	0.13189	0.22271	0.12144	0.18383	0.24918	0.25224	0.046709	-3.0479	-3.0312	-2.9979	-3.4188	-3.0187	-3.0479	-3.4688	-3.0979	-3.1771	-3.275	-3.0979	-3.3563	-3.1104	-3.0938	-3.2708	-3.2292	101.802	98.531	54.624	-26.694	210.704	-25.840	233.664	157.695	215.696	52.466	120.995	90.543	31.592	-41.967	-14.736	174.757	2.1232e-05	0.0011889	0.00050245	842.78	1.4944e-05	9.0026e-06	601.55	180.83	2.4679e-06	3.0087e-06	140.55	40.552	47.341	23.548	3.6767e-06	24.59	0.012877	0.01753	0.0049064	977.81	0.0001885	0.00019644	717.41	219.4	0.00018764	0.00019796	217.58	64.225	71.225	31.028	0.00019362	35.188	-38.409	-44.787	184.960	-63.773	247.200	80.297	-64.725	-57.362	216.299	-57.464	-60.390	-55.527	-52.744	-47.553	91.493	-51.275	-8191	255	
16249.341	1	1	0	0	0.13339	0.037182	0.26119	0.058712	0.23308	0.29058	0.15567	0.028502	0.16801	0.20349	0.077648	0.11865	0.23915	0.23434	0.17384	0.43062	-2.8187	-3.1708	-3.0583	-3.5875	-3.3229	-3.0354	-3.5125	-3.1354	-3.1167	-3.3417	-2.9979	-3.3958	-3.3104	-3.025	-3.3625	-3.0833	110.005	52.610	-25.163	156.710	193.197	90.755	-40.696	6.052	260.694	91.760	248.688	246.101	262.732	10.433	95.271	86.444	0.00017588	0.0019707	0.00062225	896.48	1.0003e-05	6.747e-06	641.88	188.18	4.076e-06	1.1358e-05	146.42	42.186	49.486	24.659	4.6742e-06	25.863	0.013272	0.017947	0.0050654	1032.5	0.00019292	0.00020193	759.67	228.73	0.00019193	0.00020319	226.2	66.907	73.686	32.242	0.00019732	36.482	-61.311	-21.604	125.840	-64.514	25.639	226.259	-65.343	-58.159	136.260	11.643	-60.122	-55.171	-52.708	-47.690	-51.219	-51.262	-8191	255	
16249.435	1	1	0	0	0.066607	0.26059	0.21873	0.10979	0.438	0.16123	0.24461	0.10938	0.15884	0.14061	0.20877	0.13202	0.10223	0.20691	0.063813	0.10006	-2.7979	-3.2208	-2.9958	-3.4	-3.2396	-3.1188	-3.4354	-3.0125	-3.1458	-3.2646	-3.1542	-3.2188	-3.0958	-3.0833	-3.1375	-3.1333	69.454	106.914	255.166	190.416	-19.584	127.831	205.111	230.348	130.775	203.328	227.168	241.315	45.174	272.428	-5.275	185.554	0.00020834	0.0002287	0.00010339	925.35	5.7073e-06	1.4656e-05	659.41	191.75	1.4037e-05	1.9618e-05	149.79	43.461	49.848	24.671	3.0619e-06	26.241	0.013194	0.017837	0.005064	1055.5	0.00019187	0.00019848	773.9	231.01	0.00018673	0.00019851	227.85	67.402	73.463	32.02	0.00019486	36.716	253.312	254.707	240.753	-64.582	-20.710	30.219	-65.390	-58.120	-9.277	173.857	-60.099	-54.761	-52.963	-47.779	-19.596	-51.125	-8191	255	
16249.531	1	1	0	0	0.20718	0.14036	0.28783	0.19501	0.1546	0.16531	0.074645	0.20125	0.080069	0.15199	0.16561	0.067228	0.35867	0.064896	0.14784	0.089212	-2.7458	-3.3729	-3.1562	-3.4417	-3.2521	-3.0771	-3.4188	-3.1083	-3.1	-3.3021	-3.1146	-3.2042	-3.2417	-3.1583	-3.2479	-3.1708	34.135	-7.473	246.807	273.323	191.672	104.185	-40.309	190.286	224.604	215.484	-73.258	181.879	270.266	173.668	224.889	-16.589	9.4374e-05	0.00077008	0.00056709	959.67	1.6088e-05	1.427e-05	687.33	196.33	5.0043e-06	5.7413e-06	153.11	44.146	50.141	24.787	1.4399e-05	26.114	0.013037	0.017928	0.0051128	1089.9	0.00019086	0.00020166	805.01	235.54	0.00019018	0.00020359	232.73	68.799	74.401	32.486	0.00019909	37.037	260.993	139.729	-21.640	-64.871	109.136	60.418	-65.750	-58.212	23.935	252.165	-60.435	-55.109	-53.317	-47.725	201.131	-51.011	-8191	255	
16249.629	1	1	0	0	0.18744	0.06317	0.24063	0.23795	0.10082	0.26446	0.23307	0.11731	0.17441	0.33493	0.05312	0.25239	0.072692	0.26759	0.10368	0.10944	-2.7396	-3.45	-3.0458	-3.0854	-3.2458	-3.0479	-3.3604	-3.4271	-3.1125	-3.3542	-3.1312	-3.1083	-3.4437	-3.075	-3.2438	-3.2562	139.748	229.773	110.258	264.445	100.483	252.306	221.852	188.105	29.994	-5.446	246.920	127.022	167.485	-49.973	-59.832	201.235	0.00012305	0.0017516	0.00046593	957.34	1.0566e-05	4.6057e-06	679.24	195.29	2.4477e-05	1.9429e-06	148.44	43.242	49.455	24.568	2.3921e-06	25.937	0.013192	0.018348	0.0051708	1094.6	0.00019421	0.00020457	801.47	234.94	0.00019016	0.00020372	229.62	67.144	73.425	32.108	0.000197	36.679	50.205	264.243	-16.191	-65.417	58.127	14.991	-66.051	-58.085	145.600	243.922	-60.265	-54.608	-52.899	-47.486	218.197	-51.134	-8191	255	
16249.748	1	1	0	0	0.078722	0.060411	0.21277	0.054445	0.12667	0.10681	0.21005	0.042025	0.10926	0.038207	0.055833	0.14551	0.063327	0.096662	0.081342	0.14864	-2.6125	-3.35	-3.1063	-3.175	-3.5146	-3.1104	-3.4813	-3.3146	-3.1437	-3.4688	-3.0292	-3.0812	-3.4208	-3.2167	-3.2958	-3.2875	-57.713	-34.697	223.194	117.912	126.052	90.411	173.814	183.463	187.847	-75.928	-35.295	124.483	-38.421	-66.455	-66.068	48.373	2.853e-05	0.0013787	0.00057686	939.28	1.3315e-05	8.525e-06	660.4	191.53	1.1958e-05	9.0851e-06	148.26	42.992	48.286	24.055	9.394e-06	25.594	0.013134	0.018221	0.0051259	1070.5	0.00019183	0.00020283	779.05	229.97	0.00018739	0.0002034	226	66.421	72.054	31.607	0.00019229	36.082	241.908	28.279	213.041	-64.947	167.728	4.262	-65.730	-58.042	154.769	268.698	-60.524	-55.387	-52.656	-47.273	77.998	-50.866	-8191	255	
16249.844	1	1	0	0	0.20989	0.12941	0.090328	0.085068	0.16007	0.00087878	0.14925	0.095296	0.26566	0.04008	0.24211	0.029728	0.10042	0.11883	0.076112	0.19675	-2.6688	-3.2167	-3.1437	-3.1854	-3.2771	-3.2104	-3.3979	-3.2833	-2.9604	-3.3583	-3.1937	-3.1312	-3.2458	-3.0896	-3.3125	-3.3875	-42.130	-55.771	-19.023	43.918	60.208	180.000	262.264	239.167	66.442	18.896	-26.084	276.339	-74.957	203.854	263.694	118.877	7.9654e-05	0.00074239	0.00051127	898.11	1.0186e-05	1.6544e-05	643.49	189.72	7.0715e-06	7.4813e-06	148.09	43.154	49.183	23.973	2.1455e-05	25.692	0.012831	0.017797	0.0050087	1031.4	0.0001886	0.00019892	757.92	227.61	0.0001857	0.00019832	225.5	66.39	72.266	31.607	0.00019028	36.065	176.225	40.433	65.660	-64.056	246.119	96.034	-65.236	-58.160	136.373	-60.932	-60.904	-54.825	-52.600	-47.552	-3.786	-50.786	-8191	255	
16249.940	1	1	0	0	0.21419	0.25812	0.075601	0.26713	0.053171	0.22819	0.07663	0.27594	0.046333	0.23223	0.104	0.1974	0.28702	0.20441	0.22788	0.27646	-2.7021	-3.3396	-3.2875	-2.9521	-3.4646	-3.2354	-3.2896	-3.45	-3.1583	-3.3167	-3.3208	-2.9188	-3.4562	-3.3	-3.2167	-3.4	224.905	-17.175	67.482	230.484	215.946	227.595	124.496	238.661	214.823	-35.868	257.147	223.637	197.189	197.215	266.581	267.358	0.00020772	0.0011692	0.00058167	886.99	1.806e-05	1.4618e-05	627.73	188.67	1.4745e-05	1.178e-05	144.17	42.45	47.621	23.974	1.3084e-05	25.603	0.012809	0.017605	0.0049129	1012.6	0.00018759	0.00019761	742.4	225.84	0.00018459	0.00019649	223.28	65.828	71.729	31.465	0.00018923	35.923	163.413	256.330	-55.661	-64.326	-36.863	98.461	-65.315	-57.731	83.139	104.206	-60.156	-55.085	-51.934	-47.072	75.511	-51.027	-8191	255	
16250.036	1	1	0	0	0.1959	0.11714	0.075884	0.10297	0.25977	0.23635	0.34549	0.10649	0.14806	0.20114	0.28689	0.095028	0.10472	0.083359	0.16544	0.1022	-2.675	-3.3	-3.2729	-2.9167	-3.4021	-3.1417	-3.1813	-3.3375	-3.2	-3.2625	-3.3438	-3.1	-3.2875	-3.2104	-2.925	-3.4813	278.041	140.556	125.453	216.567	133.384	28.146	250.108	-30.480	179.699	86.627	-30.838	234.584	-56.088	-18.732	191.728	120.070	0.00020414	0.00022552	0.00017415	858.94	1.0802e-05	3.3568e-06	616.4	185.62	1.7893e-05	8.2135e-06	145.04	41.88	47.137	23.733	1.9506e-05	25.402	0.012872	0.017736	0.0049206	992.03	0.00018902	0.00019783	730.76	223.69	0.00018579	0.00019671	220.67	65.221	71.289	31.204	0.00018701	35.673	214.753	21.964	60.565	-63.954	276.252	-39.888	-64.509	-57.553	69.923	-11.242	-60.057	-54.551	-52.471	-47.262	135.463	-50.501	-8191	255	
#DATA ENDS
