BOXY.EXE: ISS Imagent and Oximeter Data Acquisition Program Version 0.80
Ascii Record File

#ACQ INFORMATION
2  Detector Channels 
16  External MUX Channels 
1  Auxiliary Channels 
5000  Waveform (CCF) Frequency (Hz)
1  Waveforms Skipped 
30  Waveforms Averaged 
1  Cycles Averaged 
16  Acquisitions per Waveform 
10.0806  Updata Rate (Hz) 

#FILE INFORMATION
TRUE -- External MUX Channel results are PARSED.
FALSE -- AC DC and Phase are NOT grouped.
TRUE -- Companion Program Settings File CREATED.
FALSE -- AC data not excluded
FALSE -- DC data not excluded
FALSE -- Phase data not excluded
FALSE -- Auxillary Chn. data not excluded
Tab delimiters

#CALIBRATION STATE
TRUE -- Waveform Calibration Values APPLIED.


#AUX CALIBRATION VALUES
Val Type	aux-1	

Term	1.0000e+00	
Factor	0.0000e+00	


#WF CALIBRATION VALUES
A = Detector Channel
Val Type	A-AC1	A-AC2	A-AC3	A-AC4	A-AC5	A-AC6	A-AC7	A-AC8	A-AC9	A-AC10	A-AC11	A-AC12	A-AC13	A-AC14	A-AC15	A-AC16	A-DC1	A-DC2	A-DC3	A-DC4	A-DC5	A-DC6	A-DC7	A-DC8	A-DC9	A-DC10	A-DC11	A-DC12	A-DC13	A-DC14	A-DC15	A-DC16	A-Ph1	A-Ph2	A-Ph3	A-Ph4	A-Ph5	A-Ph6	A-Ph7	A-Ph8	A-Ph9	A-Ph10	A-Ph11	A-Ph12	A-Ph13	A-Ph14	A-Ph15	A-Ph16	

Term	0.00000e+00	0.00000e+00	0.00000e+00	0.00000e+00	0.00000e+00	0.00000e+00	0.00000e+00	0.00000e+00	0.00000e+00	0.00000e+00	0.00000e+00	0.00000e+00	0.00000e+00	0.00000e+00	0.00000e+00	0.00000e+00	0.00000e+00	0.00000e+00	0.00000e+00	0.00000e+00	0.00000e+00	0.00000e+00	0.00000e+00	0.00000e+00	0.00000e+00	0.00000e+00	0.00000e+00	0.00000e+00	0.00000e+00	0.00000e+00	0.00000e+00	0.00000e+00	0.00000e+00	0.00000e+00	0.00000e+00	0.00000e+00	0.00000e+00	0.00000e+00	0.00000e+00	0.00000e+00	0.00000e+00	0.00000e+00	0.00000e+00	0.00000e+00	0.00000e+00	0.00000e+00	0.00000e+00	0.00000e+00	
Factor	1.00000e+00	1.00000e+00	1.00000e+00	1.00000e+00	1.00000e+00	1.00000e+00	1.00000e+00	1.00000e+00	1.00000e+00	1.00000e+00	1.00000e+00	1.00000e+00	1.00000e+00	1.00000e+00	1.00000e+00	1.00000e+00	1.00000e+00	1.00000e+00	1.00000e+00	1.00000e+00	1.00000e+00	1.00000e+00	1.00000e+00	1.00000e+00	1.00000e+00	1.00000e+00	1.00000e+00	1.00000e+00	1.00000e+00	1.00000e+00	1.00000e+00	1.00000e+00	X	X	X	X	X	X	X	X	X	X	X	X	X	X	X	X	

B = Detector Channel
Val Type	B-AC1	B-AC2	B-AC3	B-AC4	B-AC5	B-AC6	B-AC7	B-AC8	B-AC9	B-AC10	B-AC11	B-AC12	B-AC13	B-AC14	B-AC15	B-AC16	B-DC1	B-DC2	B-DC3	B-DC4	B-DC5	B-DC6	B-DC7	B-DC8	B-DC9	B-DC10	B-DC11	B-DC12	B-DC13	B-DC14	B-DC15	B-DC16	B-Ph1	B-Ph2	B-Ph3	B-Ph4	B-Ph5	B-Ph6	B-Ph7	B-Ph8	B-Ph9	B-Ph10	B-Ph11	B-Ph12	B-Ph13	B-Ph14	B-Ph15	B-Ph16	

Term	0.00000e+00	0.00000e+00	0.00000e+00	0.00000e+00	0.00000e+00	0.00000e+00	0.00000e+00	0.00000e+00	0.00000e+00	0.00000e+00	0.00000e+00	0.00000e+00	0.00000e+00	0.00000e+00	0.00000e+00	0.00000e+00	0.00000e+00	0.00000e+00	0.00000e+00	0.00000e+00	0.00000e+00	0.00000e+00	0.00000e+00	0.00000e+00	0.00000e+00	0.00000e+00	0.00000e+00	0.00000e+00	0.00000e+00	0.00000e+00	0.00000e+00	0.00000e+00	-1.56410e+02	-1.27925e+02	-1.23922e+02	-1.82673e+02	-7.57512e+01	-6.11924e+01	-1.55323e+02	-1.62015e+02	-8.33286e+01	-6.57451e+01	-1.72119e+02	-1.69838e+02	-1.79785e+02	-1.77170e+02	-7.38895e+01	-1.49034e+02	
Factor	2.27176e-05	1.55070e-04	4.33590e-05	1.76889e-01	1.36821e-06	1.78199e-06	1.63072e-01	4.85717e-02	1.34987e-06	1.70672e-06	9.20508e-02	2.79817e-02	2.79836e-02	8.82360e-03	1.44751e-06	1.26394e-02	1.41485e-05	2.59860e-05	7.31483e-06	8.80964e-02	2.56862e-07	2.96358e-07	7.67068e-02	2.43435e-02	2.54028e-07	2.93281e-07	4.48789e-02	1.37183e-02	1.41984e-02	4.46541e-03	2.69071e-07	6.22161e-03	X	X	X	X	X	X	X	X	X	X	X	X	X	X	X	X	



#DISTANCE SETTINGS
A = Detector Channel
A-1	A-2	A-3	A-4	A-5	A-6	A-7	A-8	A-9	A-10	A-11	A-12	A-13	A-14	A-15	A-16	

2.5000e+00	3.0000e+00	2.5000e+00	3.0000e+00	2.0000e+00	3.0000e+00	1.5000e+00	3.0000e+00	3.0000e+00	3.0000e+00	3.0000e+00	3.0000e+00	3.0000e+00	3.0000e+00	1.5000e+00	3.0000e+00	

B = Detector Channel
B-1	B-2	B-3	B-4	B-5	B-6	B-7	B-8	B-9	B-10	B-11	B-12	B-13	B-14	B-15	B-16	

1.0000e+01	1.0000e+01	1.0000e+01	1.4400e+00	1.0000e+01	1.0000e+01	1.5100e+00	1.9400e+00	1.0000e+01	1.0000e+01	1.9900e+00	2.4900e+00	2.4100e+00	2.9000e+00	1.0000e+01	2.9800e+00	




#DATA BEGINS
time	group	step	mark	flag	A-AC1	A-AC2	A-AC3	A-AC4	A-AC5	A-AC6	A-AC7	A-AC8	A-AC9	A-AC10	A-AC11	A-AC12	A-AC13	A-AC14	A-AC15	A-AC16	A-DC1	A-DC2	A-DC3	A-DC4	A-DC5	A-DC6	A-DC7	A-DC8	A-DC9	A-DC10	A-DC11	A-DC12	A-DC13	A-DC14	A-DC15	A-DC16	A-Ph1	A-Ph2	A-Ph3	A-Ph4	A-Ph5	A-Ph6	A-Ph7	A-Ph8	A-Ph9	A-Ph10	A-Ph11	A-Ph12	A-Ph13	A-Ph14	A-Ph15	A-Ph16	B-AC1	B-AC2	B-AC3	B-AC4	B-AC5	B-AC6	B-AC7	B-AC8	B-AC9	B-AC10	B-AC11	B-AC12	B-AC13	B-AC14	B-AC15	B-AC16	B-DC1	B-DC2	B-DC3	B-DC4	B-DC5	B-DC6	B-DC7	B-DC8	B-DC9	B-DC10	B-DC11	B-DC12	B-DC13	B-DC14	B-DC15	B-DC16	B-Ph1	B-Ph2	B-Ph3	B-Ph4	B-Ph5	B-Ph6	B-Ph7	B-Ph8	B-Ph9	B-Ph10	B-Ph11	B-Ph12	B-Ph13	B-Ph14	B-Ph15	B-Ph16	aux-1	digaux	

26221.783	1	1	0	768	0.23621	0.14366	0.18756	0.21667	0.16554	0.2668	0.21638	0.23066	0.17575	0.01459	0.22116	0.091692	0.23508	0.1134	0.20612	0.082785	-2.425	-2.7562	-2.9417	-2.8729	-2.775	-2.925	-2.7396	-2.7417	-2.8375	-2.7479	-2.9854	-2.8875	-2.5021	-3.0146	-2.7229	-2.8917	72.026	-93.485	-48.098	134.316	38.242	37.009	188.248	-36.234	163.704	-140.607	-7.125	183.119	181.522	-63.182	142.789	94.422	0.00021797	3.6652e-05	2.5225e-05	80.569	6.2576e-07	8.8599e-07	63.453	26.475	7.4722e-07	9.6377e-07	21.204	6.8505	8.8901	3.1217	1.851e-07	2.4452	0.0019071	0.00055004	0.00015093	98.017	5.3673e-06	6.0926e-06	83.624	32.328	5.4632e-06	6.0948e-06	26.255	9.8059	11.017	3.878	5.8086e-06	3.0793	-36.417	-95.390	-32.876	-135.080	61.628	30.765	-138.046	-130.461	-23.681	34.678	-133.835	-131.559	-126.751	-120.630	80.617	-124.987	-8191	255	
26221.879	1	1	0	0	0.16221	0.28083	0.096676	0.17046	0.12195	0.16663	0.12594	0.22556	0.14598	0.15403	0.26476	0.13691	0.25321	0.077505	0.28733	0.08561	-2.4625	-2.7333	-2.7604	-2.7521	-2.7333	-2.9938	-2.6375	-2.7896	-3.0229	-2.6167	-2.8958	-2.9271	-2.6813	-2.9938	-2.7687	-2.7313	59.673	-111.637	-107.212	167.258	4.944	-77.603	65.578	-129.071	91.138	69.361	131.023	-8.210	-65.928	-64.305	-117.990	-8.766	0.00012311	4.1567e-05	6.6933e-06	80.434	5.9909e-07	4.1309e-07	63.006	26.492	1.8058e-07	4.9065e-07	21.266	6.7766	8.9337	3.1054	3.1498e-07	2.4513	0.001137	0.00054008	0.00015114	97.931	5.3657e-06	6.0198e-06	86.873	32.323	5.4087e-06	6.1931e-06	26.306	9.1905	11.032	3.8755	5.8809e-06	3.0851	-55.420	4.951	27.847	-135.288	-12.704	36.529	-138.627	-130.251	-23.813	67.537	-133.541	-130.571	-126.446	-121.015	-44.195	-124.942	-8191	255	
26221.975	1	1	0	0	0.19322	0.22883	0.20677	0.15434	0.029198	0.033991	0.33559	0.36108	0.23125	0.29017	0.31004	0.11226	0.24736	0.2606	0.34048	0.087671	-2.5229	-2.7375	-2.6562	-2.9688	-2.7021	-3	-2.7979	-2.7292	-2.9896	-2.8312	-2.8771	-2.8812	-2.5521	-2.775	-2.8229	-2.7208	102.461	34.017	108.172	101.064	-32.762	87.249	183.329	-122.529	210.776	116.835	69.099	64.598	195.360	4.095	108.172	48.504	0.00022442	0.00061281	5.2765e-06	80.99	7.1231e-07	6.0086e-07	63.689	26.487	5.7786e-07	6.1207e-07	21.214	6.8583	8.839	3.1098	1.6518e-07	2.4232	0.00071017	0.0022676	0.00015142	98.248	5.4005e-06	6.1068e-06	83.586	32.316	5.3028e-06	6.4907e-06	26.216	9.7643	10.995	3.8632	5.808e-06	3.0617	-50.833	106.771	-0.133	-134.990	-20.218	34.853	-137.922	-130.260	18.359	23.991	-133.741	-130.649	-126.714	-120.985	-24.970	-125.088	-8191	255	
26222.070	1	1	0	0	0.23281	0.24137	0.086295	0.28898	0.27483	0.11231	0.33846	0.2594	0.30841	0.013338	0.11712	0.15122	0.14514	0.11482	0.048346	0.12509	-2.4688	-2.7	-2.7854	-2.9458	-2.8	-2.9688	-2.7833	-2.4208	-2.9188	-2.7021	-2.7854	-2.75	-2.5833	-2.7313	-2.9146	-2.6813	127.318	-83.597	-110.232	-130.117	209.031	175.567	-13.533	12.690	183.266	174.401	-11.219	185.723	-124.216	43.153	207.420	-120.644	3.0432e-05	0.00090895	1.1986e-05	80.418	4.6763e-07	7.8438e-07	63.722	26.469	1.9811e-07	1.1868e-06	21.084	6.7046	8.9379	3.0977	2.5887e-07	2.4378	0.00030635	0.0022814	0.00015107	97.805	5.4765e-06	6.0506e-06	86.714	32.254	5.3065e-06	6.352e-06	26.189	8.9691	11.045	3.8586	5.7587e-06	3.0653	184.450	11.904	152.379	-135.032	-118.165	-5.261	-138.694	-130.516	-96.181	3.615	-133.402	-129.171	-127.449	-120.727	-9.637	-124.624	-8191	255	
26222.168	1	1	0	0	0.033725	0.081001	0.14264	0.088437	0.2635	0.43432	0.12381	0.2449	0.2301	0.063925	0.08837	0.11613	0.13284	0.14128	0.029396	0.22506	-2.5104	-2.7313	-2.7771	-2.9813	-2.5062	-2.975	-2.7146	-2.6042	-3.0667	-2.6667	-2.7292	-2.9583	-2.7833	-2.8563	-2.9771	-2.6229	68.739	-80.488	-126.032	67.327	202.966	79.362	115.125	113.098	135.007	153.019	6.928	194.251	162.754	90.489	-52.675	123.628	2.6318e-05	0.0015211	1.7076e-05	80.279	6.7254e-07	1.2521e-06	63.666	26.601	3.4785e-08	6.1072e-07	21.172	6.8378	8.9869	3.1357	8.9336e-08	2.4489	0.00031009	0.0034159	0.00015066	98.012	5.4915e-06	5.9667e-06	83.263	32.346	5.3071e-06	6.2793e-06	26.242	8.5622	12.047	3.8864	5.7256e-06	3.0862	170.084	22.631	-124.496	-135.004	-12.699	-23.486	-138.063	-130.521	121.886	175.393	-133.608	-128.724	-127.130	-120.647	-3.658	-124.798	-8191	255	
26222.264	1	1	0	0	0.16483	0.069883	0.036951	0.16514	0.098745	0.45531	0.076194	0.19575	0.21516	0.34674	0.10604	0.13059	0.17722	0.11558	0.26364	0.18639	-2.3917	-2.625	-2.6208	-2.8896	-2.5271	-2.7188	-2.9479	-2.6063	-3.0146	-2.7812	-2.6854	-2.8479	-2.525	-2.8896	-2.7562	-2.6375	-51.590	108.074	170.119	28.912	-139.627	199.800	16.108	89.646	41.207	-138.963	-28.947	65.454	-133.637	-58.828	-97.001	-29.657	2.2392e-05	0.00091911	2.7205e-05	80.995	3.2556e-07	1.8456e-07	64.452	26.528	2.9713e-07	7.663e-07	21.394	6.6691	9.1413	3.1467	4.9629e-07	2.4576	0.00030976	0.0022246	0.00015469	98.04	5.6226e-06	6.1044e-06	86.975	32.403	5.251e-06	6.2689e-06	26.456	8.3328	12.029	3.8929	5.7777e-06	3.1095	188.668	28.794	-42.692	-135.255	-9.927	-15.381	-138.920	-130.386	12.006	40.433	-133.289	-129.915	-126.911	-121.129	-30.648	-124.968	-8191	255	
26222.385	1	1	0	0	0.1497	0.2114	0.028249	0.056442	0.26438	0.17975	0.076029	0.22241	0.071056	0.25396	0.20235	0.207	0.13994	0.044943	0.1028	0.43855	-2.5625	-2.7854	-2.55	-2.8812	-2.7062	-2.6271	-2.8417	-2.6875	-2.6875	-2.8812	-2.6083	-2.6813	-2.5792	-2.6375	-3.15	-2.4708	152.150	155.061	-119.072	-88.998	-98.100	-67.857	-139.432	135.990	96.554	84.619	-107.768	-104.112	135.504	192.004	-135.729	20.837	3.1433e-05	0.0012559	1.9698e-05	81.007	5.031e-07	4.9749e-07	64.473	26.5	6.0631e-07	1.0578e-06	21.265	6.6714	9.2224	3.1516	8.0378e-07	2.4618	0.00031094	0.0033702	0.00015078	98.319	5.5841e-06	6.1254e-06	82.546	32.57	5.2753e-06	6.2231e-06	26.45	8.307	12.686	3.897	5.5928e-06	3.0938	165.828	33.893	-38.340	-135.253	11.044	-36.641	-137.139	-131.009	-48.178	40.551	-133.607	-129.837	-126.606	-120.834	-52.575	-124.620	-8191	255	
26222.479	1	1	0	0	0.037812	0.20884	0.069448	0.1424	0.14008	0.15134	0.16947	0.046087	0.13927	0.05183	0.18432	0.13635	0.26128	0.15062	0.12229	0.19029	-2.3521	-2.7021	-2.5417	-3.0271	-2.7229	-2.6875	-2.9792	-2.4562	-2.9146	-2.8125	-2.4021	-2.7917	-2.6479	-2.6854	-3.0104	-2.3875	181.458	141.722	-99.429	71.544	-68.632	107.239	113.176	157.373	-92.047	-77.358	107.610	157.066	151.059	-3.528	59.278	35.470	2.3296e-05	0.00086797	3.5614e-05	81.054	7.41e-07	6.5805e-07	64.516	26.598	5.7755e-07	3.3835e-07	21.383	6.6841	9.2406	3.1528	7.5677e-07	2.4898	0.0003087	0.0022111	0.00015288	98.537	5.6381e-06	6.1254e-06	80.152	34.406	5.2489e-06	6.1424e-06	26.568	8.3311	12.081	3.9048	5.5793e-06	3.1168	184.533	36.953	9.700	-135.126	-79.432	53.006	-137.263	-131.475	-37.321	141.958	-133.796	-129.695	-126.635	-120.833	-15.341	-125.032	-8191	255	
26222.574	1	1	0	0	0.15098	0.28697	0.2081	0.069012	0.22134	0.11994	0.15097	0.16433	0.1037	0.25572	0.18048	0.13404	0.11143	0.12865	0.18369	0.11793	-2.4896	-2.85	-2.5396	-2.8333	-2.7938	-2.7771	-2.9813	-2.625	-2.6542	-3.0458	-2.7146	-2.8542	-2.7271	-2.6208	-2.9833	-2.6583	196.900	210.689	117.107	169.751	164.921	171.167	137.376	111.106	105.507	117.939	-98.907	185.238	136.322	-76.362	14.938	78.791	3.4529e-05	0.0015145	1.8137e-05	81.096	8.9788e-07	5.4833e-07	64.91	26.829	5.056e-07	6.9816e-07	21.55	6.7819	9.3025	3.1643	5.9257e-07	2.4971	0.00031147	0.0033434	0.00015638	98.707	5.4974e-06	6.1179e-06	79.152	34.268	5.3457e-06	6.2145e-06	26.743	8.4179	12.74	3.937	5.6516e-06	3.1475	171.463	48.819	-43.109	-135.378	-8.412	23.225	-137.298	-130.942	-57.645	5.858	-133.521	-129.532	-126.378	-120.993	-46.297	-125.230	-8191	255	
26222.672	1	1	0	0	0.25465	0.24666	0.38109	0.033975	0.2753	0.060603	0.12424	0.17011	0.199	0.13106	0.069417	0.11262	0.16294	0.19253	0.14968	0.22164	-2.3125	-2.9833	-2.7313	-2.8604	-2.825	-2.5938	-2.9313	-2.6437	-2.6896	-2.925	-2.5458	-2.8667	-2.7917	-2.6104	-2.7458	-2.7354	-53.814	-109.588	153.213	159.662	-18.445	119.385	-119.123	-71.402	169.696	-146.790	111.575	-53.665	181.921	9.055	-43.477	20.696	2.2027e-05	0.00082344	0.0001772	81.478	6.3311e-08	1.7479e-07	64.874	26.965	3.7206e-07	1.4387e-07	21.681	6.7904	9.2094	3.1631	5.6508e-07	2.4721	0.0003141	0.0017479	0.00020489	98.923	5.5589e-06	6.2124e-06	79.473	35.453	5.36e-06	6.0709e-06	26.833	8.4407	12.137	3.9281	5.6477e-06	3.1387	169.642	3.587	117.771	-135.075	-51.124	32.712	-137.208	-131.401	-39.376	-79.801	-133.766	-129.923	-126.392	-121.016	-24.402	-125.205	-8191	255	
26222.768	1	1	0	0	0.089571	0.24718	0.24103	0.24186	0.20862	0.10382	0.19441	0.15542	0.07643	0.15378	0.042758	0.16464	0.24682	0.096643	0.118	0.36254	-2.3187	-3.025	-2.3917	-2.6667	-2.9333	-2.675	-2.8521	-2.6188	-2.6875	-3.2271	-2.7354	-2.8	-2.8688	-2.6292	-2.8521	-2.7708	-50.701	-47.832	160.719	98.962	129.465	-79.175	170.543	139.095	99.377	92.366	159.577	205.395	87.661	42.529	111.074	-0.052	2.6825e-05	0.0013757	0.00035871	81.432	2.759e-07	3.2437e-07	64.659	26.67	1.3608e-07	4.6557e-07	21.543	6.7305	9.2735	3.1561	5.0132e-07	2.4632	0.00030915	0.00084612	0.00073237	98.85	5.5434e-06	6.247e-06	79.267	34.271	5.3341e-06	5.9958e-06	26.742	8.3934	12.714	3.9139	5.6191e-06	3.1276	184.415	6.547	123.764	-135.350	-109.024	-61.460	-137.282	-130.772	128.354	14.427	-134.055	-129.858	-126.085	-121.017	-36.302	-125.185	-8191	255	
26222.863	1	1	0	0	0.096264	0.19065	0.042855	0.27005	0.059613	0.20022	0.11332	0.22298	0.15552	0.26595	0.063716	0.34105	0.11743	0.24817	0.23458	0.09513	-2.1604	-2.8958	-2.6167	-2.7208	-2.8646	-2.5687	-2.9021	-2.7313	-2.5896	-2.8563	-2.725	-2.7938	-3.1104	-2.7354	-3.1063	-2.9417	163.538	80.339	-138.483	28.089	171.125	-1.833	-94.347	-133.177	51.568	184.594	65.948	-59.637	107.105	-57.127	78.679	141.308	2.6175e-05	5.2308e-05	0.000233	80.528	5.2715e-07	1.1669e-06	64.686	26.691	5.8802e-07	1.0374e-08	21.41	6.6992	9.1558	3.1486	9.4011e-07	2.4617	0.00031115	0.0005345	0.00063162	98.651	5.5166e-06	6.2525e-06	79.004	35.242	5.3161e-06	6.0526e-06	26.586	8.3556	11.769	3.9474	5.5126e-06	3.1067	175.970	57.514	68.040	-135.095	1.011	22.727	-136.938	-131.430	31.618	113.420	-134.137	-130.044	-125.722	-121.051	-36.771	-125.056	-8191	255	
26222.984	1	1	0	0	0.058927	0.11766	0.074321	0.13938	0.062255	0.24566	0.00091062	0.18395	0.39336	0.13423	0.041599	0.18101	0.064801	0.15015	0.091757	0.073058	-2.2104	-3.0708	-2.5729	-2.8125	-2.8708	-2.6229	-3.0563	-2.7979	-2.6229	-3.0771	-2.6188	-2.6437	-2.9146	-2.5896	-2.7146	-2.8292	-144.902	-54.690	-90.870	32.763	127.362	205.427	180.000	-100.181	-96.629	66.932	39.998	-59.293	39.443	-101.344	16.435	-70.723	3.899e-05	5.152e-05	0.00038474	81.098	5.8332e-07	7.1769e-07	64.645	26.811	1.7493e-07	2.903e-07	21.37	6.7123	9.1591	3.1145	7.5114e-07	2.4673	0.00031628	0.00053347	0.00094921	98.432	5.3438e-06	6.2735e-06	78.825	34.159	5.4288e-06	5.9732e-06	26.616	8.36	11.191	4.2752	5.5737e-06	3.1169	168.965	-21.720	76.235	-135.125	5.733	-46.453	-137.202	-131.168	-47.007	71.288	-133.703	-129.845	-125.495	-121.117	96.077	-125.128	-8191	255	
26223.080	1	1	0	0	0.1278	0.11902	0.34542	0.21993	0.071061	0.038614	0.13373	0.14568	0.063776	0.12497	0.086824	0.14599	0.090026	0.10162	0.24964	0.12173	-2.1104	-3.0021	-2.5833	-2.7167	-2.9229	-2.5542	-2.8292	-2.8708	-2.4292	-3.1146	-2.7417	-2.6979	-3.0167	-2.6979	-2.65	-2.8063	155.620	-20.722	52.411	200.075	186.892	10.614	190.874	206.658	-141.737	49.155	-146.578	64.867	-0.220	-70.161	-86.889	129.205	2.6749e-05	3.3053e-05	0.00024577	81.218	4.8356e-07	9.566e-07	64.363	26.805	5.674e-07	5.8193e-07	21.343	6.7328	8.9431	3.1718	4.792e-07	2.4759	0.0003192	0.00053629	0.00062876	98.459	5.2817e-06	6.418e-06	78.906	35.155	5.4526e-06	6.0343e-06	26.521	8.3566	11.079	4.1797	5.6023e-06	3.0961	164.158	54.650	77.607	-135.001	-47.971	86.159	-137.331	-131.171	-51.207	-71.838	-133.544	-129.553	-126.512	-120.482	7.219	-125.414	-8191	255	
26223.176	1	1	0	0	0.061491	0.14569	0.21445	0.09509	0.050731	0.056689	0.17834	0.28862	0.19177	0.17301	0.051564	0.21101	0.17535	0.22931	0.099497	0.048208	-2.1604	-2.8312	-2.6583	-2.6125	-3.0833	-2.6896	-2.6479	-3.1167	-2.625	-2.7292	-2.9313	-2.6125	-2.95	-2.5667	-2.8563	-2.9167	65.084	-34.242	-103.789	-60.267	-37.190	102.739	116.871	188.660	-119.990	209.056	11.844	-18.922	-77.915	-122.154	167.165	-81.801	2.77e-05	8.4602e-06	0.00041726	80.44	7.6226e-07	1.0043e-06	64.247	26.515	7.2599e-06	6.4894e-07	21.362	6.6862	8.9186	3.1688	3.3852e-07	2.4575	0.00031537	0.00053288	0.00095111	97.947	5.2812e-06	6.3939e-06	78.298	33.316	8.6915e-06	6.0055e-06	26.355	8.3042	11.036	4.3582	5.6017e-06	3.0888	179.865	90.555	92.537	-134.871	-64.540	26.144	-137.351	-130.123	-126.223	-31.003	-133.437	-129.863	-126.551	-120.079	38.263	-125.109	-8191	255	
26223.271	1	1	0	0	0.30464	0.26143	0.1898	0.30506	0.047145	0.21277	0.22177	0.27317	0.08597	0.16707	0.13608	0.20139	0.19704	0.11657	0.23277	0.15612	-2.1667	-2.7438	-2.6958	-2.8917	-3.1292	-2.9146	-2.7708	-2.9521	-2.6375	-2.8604	-2.9083	-2.5792	-2.9792	-2.8042	-2.6604	-2.9604	27.556	-1.073	3.283	-141.362	193.795	111.622	146.509	-38.862	43.345	20.954	-93.766	-123.406	107.119	-2.351	39.894	-44.203	2.8334e-05	8.8515e-05	0.00021335	80.068	1.7833e-07	3.8645e-08	63.983	26.576	1.0936e-05	1.8064e-07	21.254	6.6386	8.9419	3.1383	3.1602e-07	2.4609	0.00032176	0.0005306	0.00062793	97.48	5.2935e-06	6.3921e-06	78.075	32.308	2.7981e-05	5.9707e-06	26.372	8.2946	11.026	4.1587	5.5838e-06	3.0913	163.087	-30.320	98.079	-135.273	139.834	-112.296	-137.167	-130.423	-128.874	-36.254	-133.760	-129.983	-126.346	-120.180	35.793	-125.037	-8191	255	
26223.344	1	1	0	0	0.036062	0.076621	0.14233	0.11861	0.24629	0.16284	0.21716	0.093947	0.10666	0.27616	0.12211	0.062856	0.2879	0.12319	0.19499	0.2208	-2.2396	-2.5458	-2.8792	-2.6021	-2.7375	-2.8	-2.7271	-2.9417	-2.7292	-2.8417	-3.0062	-2.6104	-3.0146	-2.9417	-2.6708	-3.0687	60.317	131.197	-23.409	188.722	3.914	51.193	-23.796	-57.894	179.185	99.475	-136.206	4.366	-100.271	74.048	-105.530	-38.216	3.8098e-05	6.1797e-05	0.00040629	79.987	4.0382e-07	3.5327e-07	63.901	26.346	8.1434e-06	4.731e-07	21.339	6.699	8.9207	3.1574	3.0431e-07	2.473	0.00032545	0.00053694	0.00094375	97.201	5.2737e-06	6.3519e-06	77.913	32.173	2.1833e-05	5.9903e-06	26.41	8.3269	11.004	4.3681	5.655e-06	3.1056	186.180	-24.998	102.626	-135.218	58.949	-105.003	-137.027	-130.189	-90.130	-141.311	-133.626	-130.006	-126.412	-119.560	36.680	-124.951	-8191	255	
26223.463	1	1	0	0	0.20032	0.16294	0.21767	0.084851	0.13479	0.19746	0.10183	0.26711	0.16123	0.14732	0.15691	0.038408	0.040142	0.059894	0.20934	0.10826	-2.1437	-2.6125	-2.8979	-2.5417	-2.8854	-2.8	-2.6646	-3.0396	-2.7188	-2.7375	-2.9667	-2.6854	-2.6937	-2.7083	-2.5833	-2.9188	-53.660	49.300	51.416	10.411	20.335	-18.465	96.868	2.953	-141.907	210.531	159.279	-105.010	93.385	-78.219	-39.556	-148.245	3.3003e-05	1.2641e-05	0.0001535	78.932	5.7652e-07	1.0364e-06	63.686	26.219	1.3207e-05	6.8882e-07	21.121	6.6258	8.8306	3.1505	2.7812e-07	2.4465	0.00032574	0.00054213	0.00043436	98.687	5.3053e-06	6.4032e-06	77.987	32.131	3.282e-05	6.0508e-06	26.247	8.3196	10.999	4.1673	5.6909e-06	3.0905	186.043	95.057	29.825	-135.527	-100.291	70.226	-137.223	-130.384	-83.809	48.794	-133.653	-130.133	-126.326	-119.922	155.671	-124.700	-8191	255	
26223.559	1	1	0	0	0.13094	0.15358	0.18164	0.16256	0.10742	0.3207	0.12954	0.30543	0.26461	0.15173	0.15141	0.072656	0.17859	0.11059	0.10416	0.36619	-2.2208	-2.6604	-2.9979	-2.6271	-2.6896	-2.9625	-2.475	-2.7896	-2.7521	-2.6542	-2.6042	-2.6104	-2.85	-2.8083	-2.5771	-2.8229	158.362	-68.046	-42.072	-144.901	-28.414	196.513	24.065	173.291	128.573	188.226	-91.792	125.618	145.417	-135.117	199.167	-8.770	3.1144e-05	3.0493e-05	1.4921e-05	78.166	3.2341e-07	2.9915e-07	63.434	26.358	8.438e-06	4.0036e-07	21.216	6.6348	8.8868	3.1529	1.0957e-07	2.4675	0.00032468	0.00053899	0.00014883	105.19	5.2956e-06	6.2266e-06	77.507	32.152	2.1582e-05	6.0245e-06	26.185	8.3029	11.005	4.3513	5.678e-06	3.1005	171.422	41.517	-60.729	-135.735	-145.482	-100.139	-137.081	-130.580	-77.413	-50.471	-134.320	-129.595	-126.338	-119.526	43.689	-125.019	-8191	255	
26223.654	1	1	0	0	0.22105	0.11241	0.34453	0.15429	0.10265	0.11914	0.18348	0.21905	0.060084	0.13893	0.080289	0.21025	0.16988	0.32404	0.16563	0.1113	-2.3542	-2.5917	-2.6562	-2.8042	-2.6417	-2.8083	-2.6	-2.7083	-2.6917	-2.6479	-2.9583	-2.5292	-2.7833	-2.9021	-2.5854	-2.725	154.290	203.731	133.604	130.868	28.385	-115.444	95.864	71.323	-114.208	-106.417	-11.161	-122.260	-148.313	-1.902	-13.824	-85.631	3.7876e-05	7.282e-05	1.7112e-05	78.002	2.8388e-07	5.0618e-07	63.31	26.292	1.2546e-05	2.4581e-07	21.068	6.6614	8.8702	3.198	3.8587e-06	2.4711	0.00032058	0.00053336	0.00014945	102.18	5.3138e-06	6.1896e-06	77.478	32.062	3.2564e-05	6.0074e-06	26.179	8.3259	11.017	4.0643	1.0717e-05	3.1173	190.894	-45.529	-79.902	-135.285	-87.639	90.103	-137.412	-130.410	-70.532	154.447	-133.777	-129.843	-126.682	-120.064	148.957	-125.020	-8191	255	
26223.752	1	1	0	0	0.071641	0.074284	0.2228	0.24389	0.1785	0.10319	0.18165	0.082641	0.24541	0.23164	0.18577	0.17546	0.10194	0.092738	0.15853	0.066596	-2.4229	-2.7396	-3.0417	-2.7208	-2.6958	-2.9104	-2.5729	-2.9479	-2.8542	-2.5979	-2.7875	-2.6833	-2.6479	-2.9208	-2.7958	-2.6875	-65.616	-141.014	127.733	-25.829	-2.591	211.104	133.389	201.546	99.950	9.227	49.522	-106.523	18.450	-63.670	170.146	65.234	3.7282e-05	5.2457e-05	1.4919e-05	77.766	4.5692e-07	8.6315e-07	63.241	26.191	8.129e-06	5.8179e-07	20.982	6.6591	8.9159	3.1236	7.5468e-06	2.4588	0.00032241	0.00054939	0.00014625	106.05	5.3283e-06	6.0766e-06	77.327	31.978	2.2268e-05	6.0776e-06	26.088	8.2966	10.972	3.8906	3.2633e-05	3.1133	175.597	-20.508	-64.687	-135.570	37.343	-22.696	-137.256	-130.417	-64.079	162.587	-133.404	-130.097	-126.272	-120.814	160.778	-124.780	-8191	255	
26223.871	1	1	0	0	0.089477	0.33102	0.06918	0.23638	0.12078	0.22665	0.1383	0.08555	0.15262	0.028066	0.22926	0.064758	0.17557	0.088318	0.21407	0.14358	-2.3354	-2.6	-2.8521	-2.7667	-2.5917	-3	-2.7333	-2.775	-2.9583	-2.5812	-2.8708	-2.8333	-2.5375	-2.9875	-2.7396	-2.7562	59.189	-67.041	-146.573	-137.680	103.057	123.001	65.330	-135.626	150.787	80.330	133.010	177.778	-97.156	-129.882	23.093	-105.403	2.6408e-05	2.9428e-05	2.54e-06	78.21	6.71e-07	5.0354e-07	62.681	26.171	1.3582e-05	5.4044e-07	20.885	6.5751	8.8293	3.0903	8.7354e-06	2.4547	0.00031563	0.00053775	0.00014439	101.95	5.3085e-06	6.0247e-06	76.829	31.848	3.3326e-05	6.0673e-06	25.886	8.2396	10.929	3.8549	2.3665e-05	3.0914	191.081	-91.909	-70.442	-135.567	21.548	19.864	-137.141	-130.368	-55.901	-124.919	-133.623	-129.492	-126.167	-120.588	78.901	-124.873	-8191	255	
26223.943	1	1	0	0	0.15462	0.29719	0.27088	0.15718	0.22226	0.15245	0.13348	0.14598	0.11838	0.19029	0.087533	0.082712	0.17994	0.055998	0.25947	0.17832	-2.4813	-2.4437	-2.7667	-2.5979	-2.4229	-2.9813	-2.7458	-2.475	-2.775	-2.4604	-2.9771	-2.6542	-2.5354	-2.9479	-2.725	-2.7021	-147.723	175.359	85.187	139.293	83.974	206.228	-128.111	-79.924	106.900	-99.386	-22.542	-105.794	-135.367	-8.142	-139.372	-100.876	2.0831e-05	3.4102e-05	1.3462e-05	77.326	3.2946e-07	3.4493e-07	62.812	25.874	6.6252e-06	5.8569e-06	20.871	6.5787	8.7814	3.1181	1.3643e-05	2.4454	0.00031301	0.00053953	0.0001484	105.35	5.3786e-06	5.9957e-06	76.519	31.687	1.3924e-05	1.2626e-05	25.845	8.2144	10.88	3.8615	3.5755e-05	3.0906	177.963	-58.871	-131.081	-135.952	29.820	63.714	-137.201	-130.111	-25.484	-92.325	-133.410	-129.558	-126.187	-120.580	76.195	-125.018	-8191	255	
26224.064	1	1	0	0	0.25199	0.092385	0.37535	0.13898	0.11775	0.084095	0.068013	0.18663	0.049272	0.11462	0.038401	0.17402	0.18368	0.13811	0.2479	0.036344	-2.5729	-2.5917	-2.6208	-2.7625	-2.4604	-2.9437	-2.6271	-2.7208	-2.9208	-2.725	-2.8417	-2.8021	-2.6167	-2.9146	-2.7375	-2.9042	-49.790	201.090	31.956	159.935	60.666	-10.345	-38.531	75.297	-22.260	-50.295	-106.968	81.275	187.864	35.536	108.868	-106.266	3.0749e-05	7.7872e-05	1.5295e-05	77.65	3.9056e-07	8.8511e-07	62.189	25.841	3.0814e-07	8.792e-06	20.821	6.595	8.7504	3.1028	8.5612e-06	2.4678	0.00030584	0.00054858	0.00014729	101.1	5.2887e-06	5.9759e-06	76.246	31.604	5.2489e-06	3.7197e-05	25.749	8.2193	10.855	3.8567	2.3723e-05	3.0994	179.284	-12.032	-39.220	-135.316	-36.313	44.511	-137.251	-130.470	-113.482	-96.596	-133.795	-129.563	-126.010	-120.736	81.074	-124.766	-8191	255	
26224.160	1	1	0	0	0.16705	0.13893	0.20751	0.25063	0.22678	0.14299	0.16078	0.093227	0.088666	0.21094	0.033215	0.11562	0.19378	0.087823	0.38006	0.30969	-2.5187	-2.6271	-2.7771	-3.0187	-2.5729	-2.9375	-2.7979	-2.6688	-2.8542	-2.6167	-2.6958	-2.7833	-2.525	-2.9479	-2.8083	-2.6104	-94.520	146.069	-56.885	74.318	102.921	-48.278	-52.064	191.882	-7.561	120.208	-124.901	-52.969	-69.699	70.049	138.511	173.045	2.4385e-05	5.4217e-05	1.0829e-05	77.064	2.8941e-07	3.2509e-07	61.855	25.802	4.1631e-07	1.0045e-05	20.822	6.5914	8.8074	3.1079	1.369e-05	2.4448	0.00030428	0.0005613	0.00014691	104.86	5.3647e-06	6.0488e-06	76.131	31.581	5.116e-06	2.5962e-05	25.773	8.2052	10.863	3.8593	3.5707e-05	3.0929	151.710	-100.730	-57.767	-136.059	16.952	11.634	-137.261	-130.075	-60.758	-23.147	-133.512	-129.918	-126.085	-120.574	92.662	-125.280	-8191	255	
26224.256	1	1	0	0	0.16445	0.28268	0.11536	0.10097	0.097029	0.23292	0.49013	0.05066	0.10795	0.038656	0.05309	0.14243	0.17888	0.044028	0.12067	0.16163	-2.5292	-2.5417	-2.85	-2.9667	-2.4708	-2.8521	-2.6625	-2.5979	-2.9271	-2.7687	-2.7542	-2.9188	-2.5708	-2.8187	-2.8792	-2.6042	85.581	73.934	-118.200	184.706	-40.737	89.210	208.131	-118.145	-105.571	64.053	183.514	48.834	60.442	-31.053	167.464	211.160	3.2786e-05	9.9334e-05	2.0788e-05	77.754	8.3593e-06	5.5752e-07	61.926	25.704	6.6029e-07	1.6635e-05	20.602	6.5193	8.6886	3.0713	9.2275e-06	2.4294	0.00030369	0.0005574	0.00014784	97.508	1.1953e-05	5.9228e-06	75.75	31.401	5.252e-06	3.9008e-05	25.517	8.1066	10.773	3.8212	2.4048e-05	3.0558	173.244	-1.329	-14.516	-134.773	-143.128	-19.170	-137.062	-130.140	-86.641	-12.669	-133.589	-129.488	-126.237	-120.357	91.459	-124.662	-8191	255	
26224.352	1	1	0	0	0.1706	0.085045	0.10125	0.20466	0.21831	0.079706	0.29262	0.23588	0.13163	0.22748	0.10878	0.22717	0.1554	0.12632	0.23811	0.39862	-2.4271	-2.8625	-2.7313	-3.0479	-2.6271	-2.8083	-2.75	-2.4604	-3.0167	-2.6667	-2.6917	-3.0875	-2.4333	-2.7771	-2.8854	-2.5292	-44.562	125.659	-101.611	185.802	8.085	-44.989	96.315	115.921	200.220	6.389	28.887	-78.682	-71.118	168.522	182.295	144.961	3.5403e-05	5.1368e-05	6.7193e-06	77.311	1.3557e-05	3.4816e-07	61.167	25.573	4.8492e-07	1.0014e-05	20.417	6.49	8.6411	3.0706	1.3534e-05	2.4633	0.00030484	0.00055128	0.00014749	94.325	3.4251e-05	5.9611e-06	75.305	31.289	5.1726e-06	2.6196e-05	25.386	8.0759	10.727	3.8047	3.606e-05	3.0626	175.774	-84.933	-26.180	-135.145	-146.320	140.603	-137.048	-130.305	22.648	-9.316	-133.441	-129.236	-126.139	-120.610	105.195	-124.660	-8191	255	
26224.471	1	1	0	0	0.12322	0.10262	0.14693	0.27968	0.25921	0.065952	0.20117	0.044235	0.14573	0.090295	0.084208	0.22877	0.14656	0.27351	0.17281	0.35193	-2.6396	-2.6188	-2.8063	-2.8688	-2.6229	-3.0042	-2.9625	-2.5312	-2.9083	-2.8667	-2.7042	-2.9292	-2.6625	-2.8688	-2.9542	-2.7917	70.527	-114.106	146.289	66.335	56.615	-34.970	77.803	39.715	175.674	-124.774	-71.433	-38.125	-56.880	139.396	149.634	77.501	3.0258e-05	3.0911e-05	4.2715e-05	76.596	8.5095e-06	1.0037e-06	60.96	25.412	1.6516e-07	1.7132e-05	20.384	6.4424	8.5966	3.0816	7.7373e-06	2.3973	0.00030243	0.00054771	0.00014976	93.574	2.3208e-05	6.0087e-06	74.858	31.047	5.1774e-06	3.9529e-05	25.31	8.0417	10.664	3.8052	1.3561e-05	3.254	171.094	-65.511	-45.916	-135.035	-131.212	116.557	-137.324	-130.140	55.363	-3.409	-133.812	-129.575	-125.910	-120.449	61.789	-125.621	-8191	255	
26224.566	1	1	0	0	0.062732	0.21886	0.115	0.087249	0.20111	0.34012	0.061995	0.15865	0.059135	0.17856	0.1829	0.2762	0.1354	0.13145	0.17386	0.14531	-2.3812	-2.6292	-2.5833	-2.9229	-2.6396	-2.7917	-2.9833	-2.6958	-2.8354	-2.9792	-2.5833	-3.0167	-2.6646	-2.7646	-2.9	-2.4521	72.789	118.148	34.016	177.721	-66.237	43.131	-103.505	-91.898	207.317	-28.975	96.316	58.777	202.265	-88.909	55.732	-41.741	2.8631e-05	8.0965e-06	4.1169e-06	76.805	1.4079e-05	5.842e-07	60.895	25.354	5.8485e-07	1.062e-05	20.255	6.4087	8.502	3.0367	4.4159e-07	2.2671	0.00030408	0.00055296	0.00015044	93.235	3.5064e-05	6.0253e-06	74.423	30.908	5.1716e-06	2.6766e-05	25.06	7.9609	10.556	3.7565	5.3483e-06	3.7467	177.299	155.791	0.687	-135.277	-129.253	67.686	-137.137	-130.277	-88.217	3.265	-133.702	-129.378	-126.203	-120.423	6.468	-123.539	-8191	255	
26224.639	1	1	0	0	0.015665	0.21309	0.0072411	0.21305	0.28343	0.061638	0.14804	0.07274	0.11758	0.2388	0.24655	0.12752	0.038604	0.28188	0.12199	0.029965	-2.3271	-2.7896	-2.425	-2.8375	-2.8125	-2.7021	-3.0187	-2.6104	-2.7375	-2.8833	-2.7625	-2.9708	-2.7896	-2.6188	-3.0021	-2.7125	189.088	58.750	124.328	-108.184	148.553	-105.869	-146.846	55.140	56.101	105.329	204.618	114.006	-142.637	20.492	-115.216	-93.119	2.6612e-05	6.6213e-05	1.5427e-05	76.297	8.8171e-06	2.5192e-07	60.419	25.149	2.1326e-07	1.8304e-05	20.239	6.3003	8.4714	3.0083	3.0229e-07	2.2997	0.00030281	0.00054008	0.00014965	93.108	2.4025e-05	6.1254e-06	74.027	30.735	5.1557e-06	4.0445e-05	24.91	7.8681	10.509	3.7323	5.3837e-06	3.4573	172.744	-91.797	-73.991	-135.140	-122.154	-53.739	-137.381	-130.156	-6.153	17.857	-133.370	-129.301	-126.289	-120.420	-123.824	-124.336	-8191	255	
26224.760	1	1	0	0	0.16944	0.20327	0.064137	0.17549	0.27128	0.24252	0.035414	0.12073	0.13829	0.22132	0.030093	0.16059	0.1418	0.069189	0.20562	0.11606	-2.3854	-2.8812	-2.575	-3.0062	-3.05	-2.6271	-2.8854	-2.6417	-2.8479	-3.1	-2.7167	-2.9333	-2.825	-2.6167	-2.9542	-2.6229	19.651	-62.813	20.420	9.163	125.217	97.524	-11.212	38.193	-103.577	-103.626	187.246	-103.458	-77.534	205.847	121.347	-129.687	3.5724e-05	4.2022e-05	1.1946e-05	76.134	1.4154e-05	7.6613e-07	60.585	25.024	3.3795e-07	1.2052e-05	20.208	6.3207	8.4625	2.9955	7.1713e-07	2.2539	0.000308	0.00053028	0.00015041	92.892	3.5666e-05	5.9951e-06	73.831	30.645	5.2018e-06	1.4104e-05	26.416	7.8801	10.502	3.7311	5.3966e-06	3.7401	183.697	-141.998	-40.237	-135.091	-116.128	-11.418	-136.804	-130.344	-47.452	21.387	-133.763	-129.814	-126.372	-120.665	-109.707	-124.496	-8191	255	
26224.855	1	1	0	0	0.078425	0.14314	0.13725	0.14253	0.14698	0.076722	0.18287	0.16582	0.04604	0.19631	0.17113	0.052448	0.14057	0.097905	0.15822	0.11245	-2.3354	-3.0917	-2.6625	-2.675	-2.8	-2.5292	-2.9167	-2.8104	-2.55	-3.0604	-2.5396	-2.8292	-2.7687	-2.55	-2.9333	-2.7875	95.138	167.385	-88.513	49.106	112.149	181.952	47.987	185.658	-99.405	78.593	51.450	187.509	55.517	143.649	187.273	-7.358	2.7233e-05	6.2763e-05	1.9587e-05	76.186	8.4373e-06	1.0477e-06	60.345	25.059	2.3338e-07	5.0488e-07	20.82	6.359	8.4553	3.0178	1.6098e-07	2.3306	0.0003052	0.00052568	0.00015634	92.807	2.3996e-05	6.055e-06	73.897	30.618	5.2573e-06	5.8363e-06	30.311	7.918	10.503	3.7416	5.4851e-06	3.4784	192.102	-12.791	-107.244	-135.259	-112.732	15.126	-136.849	-130.047	-64.623	18.383	-131.690	-129.504	-126.019	-120.455	167.864	-124.633	-8191	255	
26224.951	1	1	0	0	0.24122	0.10416	0.064323	0.096181	0.16312	0.22096	0.27589	0.17644	0.041896	0.18236	0.28039	0.17793	0.10318	0.14052	0.089445	0.18397	-2.1688	-2.925	-2.5271	-2.8438	-2.7917	-2.4771	-2.8542	-2.7458	-2.6104	-2.9688	-2.725	-2.7812	-2.6979	-2.4646	-2.9375	-2.9333	62.569	42.977	-55.271	-138.166	49.597	-33.108	-26.286	-122.576	177.307	17.695	69.354	69.825	-4.296	-76.804	-94.057	102.811	2.076e-05	4.4242e-05	1.7138e-05	76.084	4.8832e-06	5.9022e-07	60.278	25.052	2.9559e-07	3.2991e-07	20.342	6.2838	8.4165	2.9807	3.4973e-07	2.2728	0.00030758	0.00052162	0.00015492	92.696	3.3987e-05	6.0352e-06	73.728	30.623	5.1975e-06	5.8021e-06	28.146	7.8653	10.497	3.724	5.4347e-06	3.7143	181.641	-95.613	180.641	-135.127	-45.971	-37.028	-137.036	-130.199	-71.958	172.695	-132.150	-129.183	-126.291	-120.666	-28.658	-124.972	-8191	255	
26225.049	1	1	0	0	0.13304	0.16103	0.0962	0.15855	0.32819	0.078314	0.20342	0.17798	0.14362	0.32391	0.25122	0.33103	0.15423	0.24103	0.14531	0.051731	-2.1188	-2.8604	-2.8479	-2.6333	-2.8104	-2.5854	-2.8792	-2.6729	-2.5438	-2.925	-2.7271	-2.7146	-2.7333	-2.6083	-2.825	-2.7042	109.162	106.257	-49.454	106.418	-127.709	-121.410	153.025	101.031	-95.440	113.313	199.630	-132.892	-118.425	202.880	-100.138	204.234	1.9867e-05	6.9412e-05	5.7285e-06	76.16	5.135e-06	1.0104e-05	60.419	25.08	4.5311e-07	5.5449e-07	20.617	6.3607	8.4352	3.0066	5.0545e-07	2.3074	0.0003072	0.00052573	0.00015341	92.91	1.1402e-05	1.6965e-05	73.855	30.651	5.2732e-06	5.8687e-06	30.213	7.8931	10.47	3.7247	5.4033e-06	3.4299	152.531	-3.160	-117.219	-134.948	-31.668	-102.014	-137.034	-130.256	-43.859	49.341	-131.213	-129.874	-126.431	-120.797	-54.366	-125.163	-8191	255	
26225.170	1	1	0	0	0.28198	0.25846	0.37903	0.18749	0.17492	0.045169	0.17444	0.0042566	0.11295	0.15396	0.093593	0.15049	0.28116	0.31007	0.059544	0.25217	-2.1375	-3.0167	-2.7208	-2.5312	-3.0583	-2.5271	-2.6896	-2.9875	-2.7229	-2.9396	-2.7792	-2.6604	-2.8875	-2.5563	-2.7917	-2.9125	173.401	-114.281	-17.946	-14.666	38.739	139.765	-8.906	68.817	-38.768	175.218	-107.845	-31.303	74.356	211.061	50.437	98.454	2.1726e-05	5.7787e-05	1.4075e-05	76.05	3.2319e-07	1.8373e-05	60.781	25.145	7.1701e-07	2.7132e-07	20.341	6.3465	8.4917	3.0032	4.6114e-07	2.3221	0.00030794	0.00051707	0.00015692	92.922	5.1265e-06	4.0368e-05	74.059	30.728	5.1763e-06	5.8815e-06	28.215	7.9177	10.549	3.7335	5.3898e-06	3.6425	178.624	-79.768	5.592	-134.733	-102.498	-74.452	-137.046	-130.302	-86.052	-138.800	-132.229	-129.702	-126.317	-120.923	-60.389	-122.931	-8191	255	
26225.240	1	1	0	0	0.14189	0.22818	0.10051	0.2717	0.41456	0.12905	0.11495	0.20857	0.073108	0.089924	0.21799	0.10282	0.15184	0.18402	0.17805	0.068186	-2	-2.8417	-2.75	-2.7542	-2.9979	-2.8479	-2.7313	-2.925	-2.4854	-2.9792	-2.8542	-2.5792	-2.9042	-2.7021	-2.775	-2.8958	-106.498	-85.934	113.737	127.837	62.677	134.313	-50.669	20.469	-75.938	173.726	159.917	70.695	-91.708	48.217	-117.960	193.656	3.3193e-05	5.0158e-05	9.1886e-06	76.726	3.543e-07	9.8968e-06	61.326	25.364	6.2499e-07	4.8431e-07	20.629	6.4029	8.5875	3.0322	5.8004e-07	2.3501	0.00030702	0.00052199	0.00015317	93.433	5.1619e-06	2.6785e-05	74.599	30.986	5.3113e-06	5.821e-06	30.336	8.0042	10.631	3.761	5.4571e-06	3.1419	197.008	-98.835	83.778	-135.251	81.490	-65.806	-137.096	-130.363	-135.221	28.126	-130.827	-129.421	-126.163	-120.846	15.154	-124.352	-8191	255	
26225.338	1	1	0	0	0.1237	0.057812	0.17446	0.18299	0.17799	0.31452	0.21713	0.11143	0.028451	0.12155	0.087101	0.15616	0.19781	0.10298	0.073293	0.113	-2.1833	-2.7396	-2.6437	-2.4792	-2.8896	-2.7521	-2.8	-2.8708	-2.5229	-2.9562	-2.8854	-2.7729	-2.925	-2.7083	-2.7188	-2.7958	169.172	123.417	37.413	71.395	-37.182	133.151	-109.725	102.536	49.506	52.745	177.138	158.940	187.308	150.987	37.738	198.357	0.00016453	2.6099e-05	9.318e-06	76.778	3.9443e-07	1.6895e-05	61.054	25.387	2.2152e-07	2.5411e-07	20.559	6.4709	8.5813	3.0148	3.4283e-07	2.3926	0.00084773	0.00052454	0.00015274	93.572	5.187e-06	3.9382e-05	74.849	31.005	5.3542e-06	5.7966e-06	28.332	8.0202	10.644	3.7733	5.4336e-06	3.0152	122.935	-45.043	-52.650	-135.163	-42.281	-64.684	-136.859	-130.335	-38.142	-20.742	-132.395	-129.344	-126.388	-120.876	-56.773	-124.853	-8191	255	
26225.434	1	1	0	0	0.12681	0.13285	0.061837	0.20492	0.05104	0.15075	0.17548	0.15953	0.13945	0.25108	0.20664	0.1849	0.10651	0.06151	0.032093	0.14058	-2.375	-2.7646	-2.6146	-2.6083	-3.1208	-2.8833	-2.6479	-3.0625	-2.7313	-2.8646	-2.8396	-2.5708	-2.9062	-2.6854	-2.5771	-2.9938	-82.475	192.636	53.253	-91.281	-19.245	42.079	200.848	125.573	92.116	-125.023	-37.741	0.730	14.107	63.144	162.380	28.748	0.00020757	4.1392e-05	1.3835e-05	77.043	5.7219e-07	1.2122e-05	61.631	25.472	4.0104e-07	3.903e-07	20.764	6.4516	8.6055	3.0415	1.606e-07	2.3948	0.001899	0.0005195	0.00015027	93.811	5.18e-06	2.6299e-05	75.003	31.138	5.5426e-06	5.8583e-06	29.673	8.0339	10.656	3.7763	5.47e-06	3.0199	91.951	-67.193	-57.067	-135.187	57.653	-52.892	-137.177	-130.266	-69.563	-145.888	-130.619	-129.650	-126.514	-120.837	-119.600	-125.016	-8191	255	
26225.553	1	1	0	0	0.10757	0.098233	0.13894	0.35585	0.11646	0.063097	0.2509	0.20248	0.20291	0.28982	0.28569	0.25574	0.12986	0.019125	0.18535	0.18223	-2.3521	-2.7333	-3.0208	-2.525	-2.8083	-2.9479	-2.7687	-3.0917	-2.6083	-2.7833	-2.8438	-2.6688	-2.8833	-2.7729	-2.6688	-3.0479	171.508	-13.416	-41.576	-48.876	19.673	195.021	19.766	-55.921	-9.622	67.084	-121.862	-124.504	105.594	-94.115	-141.140	-56.117	0.00014075	3.4189e-05	2.8021e-05	77.225	4.6859e-07	1.7586e-05	61.584	25.435	1.8069e-07	1.5319e-07	20.651	6.3558	8.5629	3.0229	4.3367e-07	2.4174	0.001291	0.00052297	0.00015087	94.023	5.1854e-06	3.9698e-05	75.065	31.093	5.45e-06	5.8461e-06	26.079	8.6209	10.679	3.7678	5.5877e-06	3.028	105.812	-22.431	28.986	-135.191	69.625	-48.473	-137.286	-130.474	-47.572	49.170	-132.085	-129.536	-126.528	-120.646	-97.488	-124.589	-8191	255	
26225.648	1	1	0	0	0.26617	0.14947	0.11192	0.043019	0.079355	0.30384	0.17272	0.038614	0.042342	0.096042	0.09703	0.20944	0.22233	0.14423	0.30656	0.049863	-2.5271	-2.6354	-3.075	-2.5938	-2.9	-2.9562	-2.5875	-3.0917	-2.7729	-2.7167	-2.9313	-2.625	-2.8063	-3.0375	-2.6833	-2.9688	-23.952	-99.160	43.908	79.006	-134.906	-113.724	124.269	159.133	136.868	-110.831	57.405	-82.333	116.570	37.303	175.356	-109.216	0.00025374	4.6534e-05	1.4368e-05	77.07	5.4213e-07	1.2858e-05	60.926	25.402	4.7682e-07	3.399e-07	20.224	6.3797	8.5374	3.0139	3.927e-07	2.3876	0.0019291	0.00052362	0.00014479	93.851	5.1351e-06	2.6749e-05	74.838	31.091	5.4039e-06	5.8534e-06	25.3	9.5937	10.641	3.7575	5.4728e-06	3.0001	107.670	-65.699	-126.192	-134.859	17.507	-44.946	-137.500	-130.330	-79.967	36.458	-133.414	-127.010	-126.088	-120.822	17.050	-124.643	-8191	255	
26225.744	1	1	0	0	0.067022	0.081172	0.32724	0.2728	0.09852	0.14403	0.19517	0.14823	0.28072	0.079463	0.11634	0.20474	0.14004	0.13788	0.029811	0.060067	-2.2812	-2.5333	-3.0375	-2.5896	-2.7458	-2.9333	-2.5396	-2.9375	-2.9313	-2.7542	-3.0667	-2.7812	-2.6167	-2.8292	-2.6771	-2.7333	129.554	44.053	-24.836	-9.719	-53.515	36.278	154.029	131.741	153.203	-13.903	-20.872	-126.464	-48.115	-10.891	-147.460	-33.173	0.00016716	5.7633e-05	1.5626e-05	77.105	3.0193e-07	1.4247e-05	61.658	25.353	5.4389e-07	5.8596e-07	20.103	6.363	8.534	2.9963	5.6314e-07	2.3494	0.0013041	0.00051885	0.00014758	93.779	5.1838e-06	3.3797e-05	74.781	30.933	5.3753e-06	5.8571e-06	25.054	8.9011	10.572	3.7287	5.6303e-06	2.981	111.463	-70.466	33.954	-134.900	6.464	-1.582	-137.398	-130.482	-77.492	1.530	-133.263	-128.003	-126.345	-120.768	-22.409	-124.954	-8191	255	
26225.840	1	1	0	0	0.029048	0.29965	0.2179	0.092349	0.093371	0.13171	0.23667	0.33011	0.14258	0.29739	0.13813	0.23746	0.12008	0.051579	0.18803	0.1382	-2.3896	-2.6583	-2.7521	-2.9208	-2.7625	-3.075	-2.6167	-2.9083	-3.0104	-2.6146	-2.8146	-2.8	-2.6667	-2.8458	-2.7417	-2.7938	171.204	109.055	-6.924	-13.711	-39.271	-124.580	143.085	-117.197	210.023	-56.490	-78.853	195.136	112.843	-91.245	-116.525	-112.119	0.00023	2.7772e-05	4.0244e-06	76.656	2.8229e-07	9.9945e-06	61.062	25.126	2.0376e-07	8.0238e-07	20.109	6.2453	8.4853	3.0092	3.4478e-07	2.3862	0.0019292	0.00053634	0.00014477	93.522	5.2726e-06	1.0089e-05	77.793	30.812	5.4023e-06	6.0129e-06	25.017	9.5124	10.542	3.7283	5.6454e-06	2.9838	116.273	-129.780	-99.124	-135.018	26.311	0.444	-137.320	-130.559	18.429	-64.908	-133.448	-127.448	-126.203	-120.703	15.848	-125.064	-8191	255	
26225.936	1	1	0	0	0.32564	0.12037	0.28269	0.15104	0.054522	0.097499	0.16543	0.13747	0.22643	0.077519	0.13258	0.13011	0.068203	0.089456	0.35059	0.2143	-2.3937	-2.3604	-3.0146	-2.6917	-2.5958	-2.9688	-2.4792	-2.7771	-3.0104	-2.5583	-2.9271	-2.7833	-2.7104	-2.825	-2.7292	-2.65	-0.420	182.507	126.391	-46.511	24.828	46.111	72.898	156.351	25.856	52.534	-9.141	180.320	93.523	198.447	7.087	-45.063	0.00015875	7.7067e-05	1.123e-05	76.712	4.3883e-07	5.2778e-07	62.275	25.259	6.4621e-07	7.1343e-07	20.21	6.295	8.4534	2.9931	8.8748e-07	2.3869	0.0012965	0.00052952	0.0001475	93.287	5.2459e-06	5.8339e-06	83.203	30.819	5.297e-06	6.0068e-06	25.032	8.9146	10.524	3.7306	5.8243e-06	3.0005	126.199	-73.937	-27.229	-135.026	-35.259	100.204	-136.696	-130.318	-128.298	-72.943	-134.030	-127.908	-126.440	-120.454	0.959	-125.083	-8191	255	
26226.031	1	1	0	0	0.083907	0.2843	0.047321	0.18209	0.18825	0.15086	0.091556	0.07964	0.16309	0.33216	0.12373	0.14018	0.27237	0.33076	0.25117	0.15281	-2.4437	-2.6188	-2.9917	-2.7521	-2.7646	-2.9729	-2.6771	-2.7104	-2.8854	-2.6792	-2.7833	-2.7042	-2.6063	-2.9604	-2.7375	-2.5146	186.231	126.806	-140.584	156.371	-107.011	-64.770	-129.877	-139.432	87.601	-123.042	91.339	148.695	-86.165	62.202	10.982	-102.861	3.2031e-05	0.0015688	6.0717e-06	76.289	5.3514e-07	2.3897e-07	61.435	25.184	4.3576e-07	5.9575e-07	20.085	6.1736	8.4656	3.0016	5.003e-07	2.3833	0.0015743	0.00074574	0.00014393	93.229	5.232e-06	5.9142e-06	79.452	30.724	5.2578e-06	6.0874e-06	24.944	9.4823	10.524	3.7257	5.6808e-06	2.9914	29.886	162.763	-22.662	-135.433	-61.465	102.102	-136.915	-130.219	-51.141	-79.180	-133.243	-127.243	-126.062	-120.547	-37.100	-124.923	-8191	255	
26226.152	1	1	0	0	0.1034	0.16213	0.16097	0.33172	0.16928	0.051803	0.15974	0.14224	0.21694	0.22081	0.30856	0.03593	0.09676	0.092645	0.2032	0.031583	-2.5938	-2.7562	-3.0625	-2.6958	-2.6479	-2.9646	-2.8521	-2.6979	-2.8438	-2.7208	-2.8021	-2.8354	-2.5854	-2.85	-2.8917	-2.8	162.299	-34.285	-61.350	-62.141	-2.977	-105.251	201.678	63.976	139.223	-141.195	61.758	167.346	-58.314	211.272	200.724	-142.736	1.5914e-05	0.0010134	1.5876e-05	76.438	2.5978e-07	8.5722e-07	61.927	25.135	4.3614e-07	6.1078e-07	20.121	6.1932	8.4607	2.9784	1.4594e-07	2.3554	0.00045157	0.0017832	0.00014628	92.932	5.2983e-06	5.8741e-06	82.699	30.697	5.1345e-06	6.1449e-06	24.882	8.8434	10.5	3.6959	5.7497e-06	2.97	143.573	167.968	-32.490	-134.812	-72.647	-2.935	-136.178	-130.462	-24.104	-48.787	-133.853	-128.551	-126.569	-120.601	-24.967	-124.656	-8191	255	
26226.248	1	1	0	0	0.27087	0.23613	0.15537	0.17845	0.33677	0.11049	0.25252	0.29942	0.1689	0.27089	0.19764	0.30844	0.1801	0.22321	0.18572	0.32392	-2.7396	-2.6208	-2.7292	-2.7979	-2.6646	-2.9062	-2.6833	-2.4562	-2.9354	-2.6625	-2.9229	-2.9188	-2.6937	-2.7854	-2.9396	-2.5729	41.018	66.630	25.433	5.920	-78.273	101.287	90.911	38.450	143.774	-21.708	-119.426	93.104	130.886	39.967	108.961	-33.085	2.9705e-05	0.0015818	4.2421e-06	76.223	1.8063e-07	5.511e-07	60.977	25.144	3.2323e-07	9.3241e-07	20.098	6.3361	8.238	3.0037	3.7715e-07	2.3725	0.0003006	0.003518	0.00014582	92.952	5.1838e-06	5.9025e-06	79.301	30.676	5.1494e-06	6.1754e-06	24.928	9.0498	10.683	3.7192	5.5843e-06	2.9856	163.192	164.728	90.500	-135.224	-38.315	10.521	-136.420	-130.592	-14.895	-67.622	-133.434	-127.085	-126.593	-120.819	17.652	-124.957	-8191	255	
26226.346	1	1	0	0	0.22016	0.11971	0.028122	0.25686	0.16249	0.21219	0.10766	0.23769	0.2175	0.093141	0.12633	0.02994	0.37871	0.19773	0.081872	0.13263	-2.5583	-2.5583	-2.6292	-2.8104	-2.5583	-2.9229	-2.7062	-2.5708	-2.8896	-2.8458	-2.6979	-2.85	-2.6417	-2.8896	-2.925	-2.5917	119.271	115.202	-133.632	46.192	-26.084	1.871	109.958	171.096	-77.334	-43.429	-65.249	99.131	158.751	197.909	38.742	-120.779	2.2623e-05	0.0010094	1.4378e-05	76.199	5.1944e-07	3.0853e-07	61.961	25.15	4.0777e-07	1.2797e-06	20.081	6.3851	8.3544	2.9857	5.2203e-07	2.3631	0.00029995	0.0023624	0.0001464	92.881	5.4059e-06	5.7858e-06	82.932	30.702	5.1716e-06	6.1607e-06	24.951	8.0281	11.257	3.7174	5.6555e-06	2.9799	162.406	175.812	-26.377	-135.154	-38.897	210.378	-135.991	-130.316	-108.132	-53.885	-133.332	-128.235	-126.347	-120.767	-107.616	-124.834	-8191	255	
26226.465	1	1	0	0	0.34762	0.18105	0.085619	0.17928	0.26858	0.31844	0.12384	0.19353	0.21436	0.22569	0.21407	0.12127	0.11475	0.13687	0.23152	0.20321	-2.6396	-2.8271	-2.7292	-3.0646	-2.6167	-2.925	-2.9583	-2.5875	-2.8563	-2.9583	-2.6208	-3.0583	-2.5896	-2.7479	-2.7833	-2.5646	-37.456	-85.872	-45.866	199.963	38.912	104.486	147.853	90.301	-115.526	-44.152	-11.292	-135.660	-65.538	16.839	17.740	208.569	2.5783e-05	0.0015032	1.4036e-05	76.881	4.5815e-07	4.8789e-07	61.669	25.03	6.6704e-07	1.0756e-07	20.095	6.2768	8.2317	2.9686	6.0445e-07	2.3039	0.00030225	0.0035425	0.00014988	93.18	5.454e-06	5.8525e-06	79.62	30.674	5.1552e-06	6.1943e-06	24.801	7.8265	12.137	3.6789	5.5916e-06	2.9297	185.278	177.218	-80.047	-134.971	39.971	-9.727	-136.412	-130.052	-84.365	-36.557	-133.505	-130.007	-124.803	-120.598	-35.418	-124.334	-8191	255	
26226.535	1	1	0	0	0.19345	0.14264	0.11991	0.10847	0.1285	0.35185	0.12036	0.083053	0.079978	0.14313	0.23988	0.27378	0.051308	0.17849	0.23637	0.12092	-2.3729	-2.8125	-2.65	-3.0667	-2.6917	-2.6937	-3	-2.6042	-2.925	-2.8	-2.7375	-2.8917	-2.6375	-2.7333	-2.8021	-2.6583	188.143	131.480	-36.855	196.518	-32.079	-135.809	59.859	-25.577	59.282	-6.895	-117.189	200.399	-130.515	62.476	-31.453	182.625	2.5821e-05	0.00096755	1.3188e-05	76.313	1.9476e-07	6.4417e-07	60.875	25.06	7.65e-07	4.8768e-07	19.939	6.2904	8.2923	2.9742	7.3676e-07	2.3483	0.00030166	0.0024083	0.00014761	92.78	5.5017e-06	5.9049e-06	79.885	31.066	5.0922e-06	6.1119e-06	24.769	7.8163	11.463	3.6853	5.4689e-06	2.9561	160.148	187.643	-76.655	-135.428	-9.128	40.058	-135.611	-130.375	-57.177	-47.085	-133.668	-129.376	-125.499	-120.445	-69.448	-125.033	-8191	255	
26226.633	1	1	0	0	0.26388	0.085934	0.17933	0.19748	0.12095	0.090659	0.12299	0.17056	0.069824	0.15191	0.046918	0.16469	0.095463	0.083093	0.093746	0.291	-2.3521	-2.5833	-2.6021	-2.8625	-2.7583	-2.8229	-3.0708	-2.5604	-3.1396	-2.8417	-2.6125	-2.8542	-2.8354	-2.9104	-2.8875	-2.6437	178.307	-96.491	177.826	76.515	36.388	-21.082	96.482	-0.373	32.000	-76.866	-140.226	42.290	112.400	100.811	-112.522	-117.009	2.609e-05	0.001505	1.3657e-05	76.234	1.881e-07	3.11e-07	60.394	25.012	5.442e-07	4.4682e-07	20.062	6.3324	8.2226	3.0012	4.1356e-07	2.403	0.00030024	0.0035307	0.00014762	92.578	5.4524e-06	5.9253e-06	73.87	31.944	5.1155e-06	5.9732e-06	24.838	7.893	12.098	3.7239	5.2934e-06	3.0121	179.953	192.192	6.691	-135.265	-69.669	131.306	-136.301	-130.432	-113.408	6.580	-133.754	-129.746	-125.256	-120.419	-46.177	-124.907	-8191	255	
26226.729	1	1	0	0	0.17125	0.24202	0.27222	0.17137	0.15833	0.18111	0.17842	0.12512	0.32595	0.18364	0.21169	0.45612	0.26875	0.14143	0.18231	0.16401	-2.4979	-2.9833	-2.5938	-2.875	-2.8146	-2.7167	-3.1833	-2.6	-2.9083	-2.8063	-2.5271	-2.9688	-2.6708	-2.5938	-2.8187	-2.5292	-116.991	-86.781	-105.441	97.625	-104.841	199.814	187.088	-143.314	85.046	-22.418	-69.138	-111.010	118.232	202.696	144.642	-92.798	3.1093e-05	0.0009934	1.5272e-05	76.192	2.1631e-07	3.1996e-07	60.568	25.398	3.8053e-07	9.8576e-07	20.09	6.3239	8.3127	3.0053	6.5336e-07	2.3843	0.00029789	0.002328	0.00014898	92.754	5.477e-06	5.9611e-06	74.019	33.523	5.1668e-06	6.011e-06	24.935	7.9104	11.533	3.7393	5.3136e-06	3.0179	183.799	201.765	-141.026	-135.213	-124.132	7.115	-137.070	-129.389	-43.020	28.790	-133.308	-129.829	-125.907	-120.515	-83.822	-124.472	-8191	255	
26226.850	1	1	0	0	0.075859	0.12443	0.11585	0.084406	0.23661	0.097208	0.12703	0.33865	0.2005	0.085271	0.089816	0.14887	0.25339	0.25486	0.075816	0.25076	-2.3104	-2.9625	-2.4875	-2.9083	-2.7521	-2.7438	-3.0375	-2.8021	-2.875	-2.9708	-2.575	-3.0583	-2.9479	-2.5417	-2.7562	-2.775	125.990	-42.948	69.025	-12.354	-7.280	-122.166	-6.008	8.974	104.849	162.700	105.887	-47.625	117.589	-81.275	-135.321	104.887	2.105e-05	0.00052059	0.0003698	76.324	3.0778e-07	3.5214e-07	60.549	25.194	6.3413e-07	7.5277e-07	19.975	6.3243	8.1793	3.0034	2.8608e-07	2.3816	0.00029977	0.0024109	0.00031548	92.842	5.3422e-06	5.892e-06	73.87	32.341	5.1134e-06	5.8485e-06	24.873	7.886	12.121	3.7303	5.2901e-06	3.0045	175.117	-85.853	189.595	-135.205	-73.966	-127.257	-137.391	-129.473	-133.146	-42.529	-133.780	-129.275	-126.150	-120.645	-117.599	-124.822	-8191	255	
26226.945	1	1	0	0	0.19837	0.15104	0.20118	0.13423	0.18578	0.04264	0.084466	0.085893	0.072819	0.23357	0.01009	0.11217	0.10176	0.14587	0.16535	0.14506	-2.1688	-2.8729	-2.5021	-2.8688	-2.9542	-2.7917	-2.9583	-2.8187	-2.8021	-3.0625	-2.7146	-2.8146	-2.8604	-2.6729	-2.9458	-2.6	160.101	67.403	-123.206	-39.647	154.784	9.194	-9.558	-110.416	40.167	-20.273	124.086	147.478	126.123	18.672	59.298	18.904	3.0147e-05	0.00035622	0.00020815	76.273	8.9031e-07	6.966e-07	60.581	25.115	1.0644e-06	1.0277e-07	19.908	6.3031	8.2945	3.0095	3.5881e-07	2.3928	0.00029856	0.00054825	0.00056464	92.617	5.4187e-06	6.0198e-06	73.789	33.386	5.1626e-06	5.744e-06	24.848	7.8676	11.491	3.7262	5.3652e-06	3.0035	183.128	-81.518	191.141	-135.083	-11.405	87.123	-137.082	-129.264	-46.387	52.286	-133.288	-129.684	-125.992	-120.856	-34.038	-124.659	-8191	255	
26227.041	1	1	0	0	0.1066	0.08918	0.11445	0.26064	0.19691	0.20735	0.26044	0.37837	0.18109	0.11515	0.098599	0.14742	0.05908	0.18386	0.22995	0.092763	-2.2208	-2.8333	-2.6542	-2.7708	-2.7687	-2.7375	-2.8438	-2.5458	-2.5979	-2.8979	-2.6813	-2.875	-2.925	-2.4521	-3.0417	-2.7917	-122.173	158.793	-17.878	62.921	-67.887	-142.296	83.569	88.160	-12.712	177.919	143.609	121.572	-128.735	92.151	-3.203	24.354	3.2763e-05	0.0001021	0.00046619	76.223	5.7431e-07	6.6542e-07	60.097	25.213	1.7122e-07	4.2072e-07	20.043	6.3216	8.3677	2.951	5.2684e-07	2.4068	0.0003016	0.00052405	0.00098508	92.415	5.3759e-06	5.9994e-06	73.775	32.377	5.1928e-06	5.8149e-06	25.013	7.9185	11.471	3.8772	5.4089e-06	3.0284	182.229	-44.432	-133.765	-135.189	-107.463	202.245	-137.191	-129.501	-7.776	103.613	-133.694	-129.486	-124.760	-121.491	130.928	-124.783	-8191	255	
26227.113	1	1	0	0	0.081681	0.13922	0.14204	0.17703	0.010265	0.091445	0.022986	0.14252	0.17913	0.18451	0.07967	0.075673	0.061191	0.10338	0.11577	0.13073	-2.1146	-2.9583	-2.7687	-2.5667	-2.8688	-2.4854	-2.8458	-2.8854	-2.7667	-2.9542	-2.7542	-2.8	-3.1208	-2.5312	-2.9271	-2.7438	199.471	61.811	165.257	3.027	51.705	-139.773	205.012	-100.597	16.060	13.475	61.461	-114.900	67.416	113.900	-93.011	-125.566	3.5303e-05	0.00011185	0.00026619	75.844	8.0084e-07	4.9084e-07	60.36	25.081	1.5624e-07	5.1041e-07	19.868	6.2703	8.4049	2.954	3.8211e-07	2.3885	0.00030484	0.00050927	0.00066854	92.717	5.24e-06	6.1235e-06	73.695	33.419	5.2182e-06	5.7581e-06	24.788	7.8754	10.434	4.0118	5.3954e-06	3.0128	191.997	8.874	-129.681	-134.971	-117.596	-90.413	-137.273	-129.274	109.757	168.384	-133.877	-129.965	-125.943	-121.044	109.061	-124.541	-8191	255	
26227.232	1	1	0	0	0.13648	0.21368	0.11117	0.13284	0.23658	0.36183	0.074388	0.20687	0.092622	0.053405	0.25441	0.2021	0.08721	0.090725	0.24218	0.19094	-2.1729	-2.8937	-2.6208	-2.8187	-2.9062	-2.6	-2.6583	-2.9688	-2.6625	-2.9354	-2.7458	-2.6375	-2.9667	-2.7792	-2.8083	-2.8917	209.604	-133.210	100.070	165.583	-61.794	-142.554	77.452	-56.611	116.450	63.710	168.092	83.304	158.879	-74.479	-21.439	185.810	1.9572e-05	2.5802e-05	0.00043729	75.644	6.379e-07	5.9065e-07	60.294	24.842	9.2891e-08	6.8079e-07	19.668	6.2027	8.4307	2.9161	3.2894e-07	2.3841	0.00030726	0.00051636	0.0009959	92.074	5.1185e-06	6.1852e-06	73.167	32.098	5.261e-06	5.8369e-06	24.609	7.7857	10.398	4.2432	5.3657e-06	2.9996	174.824	71.770	-126.748	-135.077	-82.304	151.844	-137.455	-129.626	-129.165	56.116	-133.306	-129.482	-126.367	-120.876	5.230	-124.556	-8191	255	
26227.330	1	1	0	0	0.19125	0.1202	0.051923	0.18753	0.061174	0.22241	0.18805	0.14076	0.085547	0.25614	0.2759	0.12194	0.13297	0.28064	0.22591	0.13134	-2.075	-2.8583	-2.9458	-2.6292	-2.8438	-2.7042	-2.9167	-2.8979	-2.6583	-2.9521	-2.6562	-2.5729	-2.9604	-2.8	-2.775	-2.8458	-137.616	116.799	81.597	-108.536	141.731	91.552	-137.276	157.434	-131.137	77.752	27.998	-15.107	106.160	-123.287	-41.841	56.684	2.9434e-05	7.5553e-05	0.00027539	75.577	3.0297e-07	4.038e-07	59.371	25.112	4.8751e-06	6.1705e-07	20.002	6.2444	8.4195	2.9113	6.7724e-07	2.3564	0.00030528	0.00051312	0.00067094	91.883	5.1067e-06	6.2476e-06	73.04	31.962	1.3642e-05	5.8467e-06	24.712	7.8158	10.438	4.008	5.3809e-06	2.9596	166.085	-41.915	-114.068	-135.307	45.606	-36.298	-137.263	-129.177	139.653	-40.106	-133.664	-129.477	-126.268	-120.684	1.135	-124.682	-8191	255	
26227.426	1	1	0	0	0.13225	0.080324	0.23039	0.24306	0.082881	0.18093	0.22267	0.056915	0.11857	0.14009	0.19685	0.23388	0.028937	0.28744	0.095658	0.22744	-2.1854	-2.7771	-2.7812	-2.6458	-2.9417	-2.7625	-2.6896	-2.7562	-2.7208	-2.9708	-2.7792	-2.6479	-2.8979	-2.7021	-2.8854	-3.1042	70.245	150.825	-111.282	-109.057	6.719	-131.943	-147.903	137.613	195.653	35.371	189.024	16.907	153.867	149.787	144.143	36.751	3.1878e-05	5.2801e-05	0.00043233	76.085	6.0527e-07	2.8437e-07	61.173	25.349	3.2266e-06	7.197e-07	20.302	6.4098	8.5513	2.9356	3.5531e-07	2.3737	0.00031439	0.00052432	0.00097042	92.972	5.1035e-06	6.1754e-06	74.422	30.967	2.0889e-05	5.7501e-06	25.207	7.9826	10.588	4.2117	5.3455e-06	2.9844	161.767	-103.691	-110.558	-135.144	-67.037	0.974	-137.188	-130.306	142.757	-12.833	-133.370	-129.606	-126.143	-121.420	-57.013	-124.716	-8191	255	
26227.545	1	1	0	0	0.21493	0.26431	0.040109	0.3376	0.02353	0.1169	0.15163	0.20088	0.25201	0.18786	0.45359	0.062089	0.16463	0.22742	0.26601	0.18014	-2.3021	-2.9688	-2.9813	-2.6208	-3.0958	-2.7479	-2.5083	-2.9292	-2.6708	-2.8729	-3.0708	-2.6396	-2.9917	-2.6562	-2.6562	-2.8917	-148.061	-45.854	-99.319	99.332	76.828	88.296	182.451	209.799	67.763	159.467	-46.944	-120.843	201.374	157.862	35.228	-96.345	1.4858e-05	4.5285e-05	0.00024248	77.871	2.8973e-07	1.007e-07	62.122	25.737	1.2194e-05	4.9932e-07	20.483	6.3817	8.5802	2.9092	7.1433e-07	2.2715	0.00031601	0.00052871	0.00061995	94.534	5.1704e-06	6.2599e-06	75.612	31.336	3.2549e-05	5.8235e-06	25.423	7.9503	10.613	3.9636	5.4941e-06	2.8787	170.286	-87.922	-109.846	-135.079	-10.964	98.950	-137.357	-130.519	55.121	210.913	-133.445	-129.506	-126.539	-121.355	-31.058	-125.104	-8191	255	
26227.641	1	1	0	0	0.1826	0.097441	0.1204	0.24408	0.12564	0.1507	0.20541	0.24812	0.13332	0.12168	0.28204	0.18493	0.33632	0.12749	0.075955	0.062576	-2.1333	-2.6708	-2.9313	-2.6396	-2.9292	-2.7062	-2.5917	-2.9792	-2.6417	-2.7292	-2.9729	-2.725	-2.9479	-2.7583	-2.5417	-2.9333	39.353	12.187	14.947	23.044	170.150	-49.179	-49.964	149.170	109.546	174.401	-89.242	29.371	-139.759	97.395	99.053	-33.139	2.2991e-05	2.556e-05	0.0003272	79.091	2.5877e-07	6.0218e-07	62.441	25.87	7.197e-06	2.958e-07	20.584	6.3151	8.5943	2.8497	4.2389e-07	2.2476	0.00032073	0.0005214	0.00055184	99.284	5.1597e-06	6.1531e-06	76.529	31.575	2.1895e-05	5.9066e-06	25.524	7.9155	10.635	4.0924	5.618e-06	2.8213	181.254	-144.442	-65.809	-136.118	205.269	-12.074	-137.390	-130.472	60.332	-77.275	-133.760	-130.092	-126.837	-121.963	34.127	-124.605	-8191	255	
26227.736	1	1	0	0	0.17031	0.14384	0.29962	0.35873	0.1792	0.10443	0.23223	0.29694	0.088946	0.055818	0.18983	0.22546	0.16879	0.11771	0.086434	0.1768	-2.4771	-2.7896	-2.8958	-2.6354	-2.8167	-3.0292	-2.5563	-2.8708	-2.7792	-2.725	-2.9708	-2.6604	-2.8146	-2.7104	-2.6771	-2.9813	-14.155	135.362	174.644	74.276	-6.240	68.570	204.508	161.782	102.717	-118.503	-32.652	-62.318	38.279	204.914	-109.353	-36.921	1.73e-05	3.6254e-05	1.4643e-05	80.077	4.2591e-07	4.3379e-07	62.805	26.028	1.1421e-05	2.6132e-07	20.846	6.3674	8.6078	2.8587	2.7718e-07	2.2206	0.00031507	0.00052968	0.00014611	102.68	5.2105e-06	6.2982e-06	76.955	31.735	3.2747e-05	6.0324e-06	25.63	7.9374	10.663	3.8918	5.6712e-06	2.8165	186.664	-91.704	-36.816	-135.534	-51.659	-45.524	-137.305	-130.522	70.310	177.854	-133.514	-130.280	-126.582	-121.846	38.812	-124.813	-8191	255	
26227.832	1	1	0	0	0.088794	0.021784	0.14381	0.2283	0.12113	0.17812	0.19149	0.47859	0.10665	0.15989	0.34799	0.15391	0.061109	0.19758	0.12185	0.2093	-2.1937	-2.6312	-3.0333	-2.6896	-2.9333	-3.0208	-2.5792	-2.9729	-2.8271	-2.6896	-3.1146	-2.5396	-2.8563	-3.025	-2.5958	-3.0042	171.014	22.510	-95.228	75.266	24.310	119.193	177.006	194.351	1.415	207.052	93.176	4.383	193.395	91.441	52.518	-74.023	2.6334e-05	2.417e-05	1.6503e-05	81.448	4.7277e-07	6.4203e-07	63.453	26.15	8.6121e-06	7.2781e-07	20.713	6.3593	8.6028	2.9501	1.3902e-05	2.2706	0.00032179	0.00053612	0.00014691	106.67	5.2293e-06	6.1544e-06	77.165	31.804	2.1799e-05	6.0422e-06	25.647	7.9782	10.674	3.8645	1.6264e-05	2.8623	159.915	-37.027	-7.851	-135.768	-9.915	2.618	-137.135	-130.633	69.995	49.128	-133.822	-129.891	-126.624	-120.963	-144.713	-125.005	-8191	255	
26227.930	1	1	0	0	0.1822	0.29863	0.1228	0.15164	0.071815	0.096904	0.089362	0.2444	0.11038	0.30097	0.12533	0.18384	0.20377	0.19148	0.10754	0.25905	-2.4208	-2.5771	-2.8729	-2.725	-2.8271	-2.975	-2.6708	-2.775	-2.9188	-2.6396	-2.9708	-2.7938	-2.7917	-3.0062	-2.6875	-2.95	186.761	103.309	-109.983	-115.312	65.164	-64.851	-108.477	130.118	161.003	-17.443	16.829	172.899	81.280	-94.938	134.932	-104.010	3.1047e-05	4.8739e-05	1.8899e-05	80.103	3.3046e-07	2.8934e-07	62.562	25.883	1.223e-05	4.3532e-07	20.448	6.3476	8.5939	2.9545	8.3642e-06	2.3202	0.00031268	0.00053212	0.00014691	101.99	5.1849e-06	5.958e-06	76.268	31.481	3.1428e-05	6.0446e-06	25.368	7.9186	10.63	3.6713	2.2428e-05	2.9204	167.075	35.352	-40.567	-135.153	20.795	110.393	-137.251	-130.602	86.290	205.228	-133.933	-129.985	-126.389	-120.873	-142.769	-124.831	-8191	255	
26228.025	1	1	0	0	0.27846	0.26675	0.14547	0.15892	0.085857	0.073349	0.13135	0.075448	0.29823	0.064997	0.0894	0.1637	0.14694	0.1699	0.28372	0.207	-2.3583	-2.4271	-2.9792	-2.7104	-2.7521	-2.9792	-2.7604	-2.8042	-2.875	-2.7167	-2.9583	-2.7417	-2.6437	-2.8146	-2.7646	-2.6833	132.043	188.669	105.410	124.629	45.860	66.417	-115.523	-12.631	44.339	194.568	171.077	-91.617	188.083	-22.453	43.777	69.452	3.0732e-05	5.0234e-05	6.6543e-06	79.791	3.7936e-07	4.1912e-07	61.724	25.563	6.8873e-06	2.0125e-07	20.215	6.337	8.536	3.0079	1.2684e-05	2.3976	0.00031472	0.00054711	0.00014593	104	5.1913e-06	5.9148e-06	75.336	31.216	2.1103e-05	6.0367e-06	25.09	7.9137	10.57	3.7319	3.3425e-05	2.9977	177.595	-14.728	13.286	-135.118	-50.416	173.011	-137.380	-130.559	94.678	76.218	-133.534	-129.463	-126.469	-120.747	-136.565	-124.704	-8191	255	
26228.146	1	1	0	0	0.1379	0.16113	0.19995	0.22898	0.31423	0.2125	0.25538	0.18181	0.071323	0.057256	0.12019	0.1457	0.22593	0.16048	0.14419	0.034315	-2.3063	-2.6396	-2.7646	-2.7417	-2.7687	-2.9688	-2.7938	-2.7042	-2.7562	-2.5979	-2.7917	-2.6688	-2.5563	-3.0104	-2.8083	-2.9	-135.347	-75.655	77.429	-48.536	46.722	-101.233	29.072	-107.754	-16.729	76.263	139.787	21.418	-111.839	45.216	44.241	-67.594	1.9873e-05	5.8385e-05	2.1356e-05	78.496	3.6987e-07	3.0708e-07	61.558	25.552	1.1827e-05	1.1051e-05	20.291	6.4176	8.6298	3.0781	7.5259e-06	2.442	0.00030897	0.00053888	0.00014624	100.07	5.3764e-06	5.8728e-06	75.174	31.211	1.6051e-05	1.8546e-05	25.309	8.0105	10.677	3.8143	2.2041e-05	3.0725	173.179	4.986	-73.143	-135.114	-10.201	-96.813	-137.147	-130.452	45.904	177.188	-133.784	-129.938	-126.419	-120.975	-133.232	-124.780	-8191	255	
26228.242	1	1	0	0	0.12793	0.16022	0.077493	0.20682	0.050876	0.3529	0.14221	0.24857	0.20779	0.040438	0.14763	0.20109	0.148	0.16173	0.21027	0.090684	-2.5563	-2.6729	-2.8125	-2.9188	-2.7896	-2.8708	-2.7521	-2.7667	-2.9354	-2.7062	-2.7562	-2.9042	-2.5833	-3.0271	-2.7208	-2.875	-142.456	-50.867	-65.741	-70.314	90.062	-37.508	43.079	152.461	-44.400	144.987	81.042	14.254	110.183	96.436	0.697	-53.927	2.131e-05	1.9919e-05	2.5422e-05	79.968	4.013e-07	7.0164e-07	62.344	25.788	2.9524e-07	8.878e-06	20.796	6.4818	8.7397	3.089	1.1803e-05	2.4661	0.00030617	0.00055031	0.0001463	104.31	5.3796e-06	5.9451e-06	76.036	31.587	5.2626e-06	2.3381e-05	25.726	8.1064	10.84	3.8478	3.1001e-05	3.1046	167.085	110.017	-27.471	-135.151	-19.984	-9.091	-137.210	-130.640	-63.069	114.200	-133.564	-129.694	-126.623	-121.090	-126.675	-125.033	-8191	255	
26228.338	1	1	0	0	0.073193	0.12253	0.066188	0.12144	0.13436	0.066278	0.1309	0.036702	0.18729	0.12478	0.096826	0.18168	0.28726	0.12964	0.15218	0.022954	-2.5917	-2.7354	-2.8729	-2.875	-2.6771	-3.0375	-2.8812	-2.4313	-2.9625	-2.7604	-2.8667	-3	-2.5125	-2.9208	-2.8729	-2.6729	-120.189	144.319	-31.553	193.722	-60.165	202.175	-45.147	-83.843	22.500	145.512	-8.018	-103.046	-4.565	-82.136	30.682	-52.640	2.5985e-05	4.7228e-05	1.1085e-05	79.888	1.6555e-07	3.214e-07	62.853	26.068	4.3847e-07	1.3835e-05	20.853	6.5022	8.7895	3.1001	7.162e-06	2.4588	0.0003026	0.00055637	0.00014884	101.47	5.3315e-06	6.013e-06	76.72	31.858	5.2102e-06	3.3619e-05	25.825	8.1073	10.862	3.8414	2.0716e-05	3.0962	172.507	-92.006	37.956	-134.957	-75.990	5.219	-137.252	-130.622	-38.447	122.182	-133.710	-129.507	-126.358	-121.020	-112.427	-124.870	-8191	255	
26228.410	1	1	0	0	0.23738	0.15408	0.057302	0.20983	0.072136	0.24848	0.17434	0.061894	0.16227	0.066518	0.24391	0.10128	0.25014	0.20175	0.17775	0.099608	-2.5333	-2.8292	-2.8688	-3.0646	-2.5667	-2.9417	-2.7542	-2.6583	-3.0333	-2.9708	-2.9979	-2.8875	-2.7417	-2.9333	-2.8312	-2.725	180.844	162.215	-30.232	94.883	-38.916	-120.768	-15.064	-11.770	109.567	9.220	48.819	154.622	-111.647	-80.442	10.691	-77.417	2.9524e-05	4.5366e-05	1.3145e-05	80.95	7.5787e-07	7.521e-07	63.604	26.253	2.6593e-07	7.9969e-06	20.895	6.5551	8.7341	3.0986	1.1787e-05	2.4819	0.00030912	0.00054982	0.00014979	100.09	1.6384e-05	5.979e-06	77.322	31.989	5.1949e-06	2.2562e-05	25.881	8.1553	10.86	3.8583	3.0501e-05	3.1197	178.690	-101.844	-77.385	-134.613	-144.443	-69.981	-137.521	-130.426	-66.333	130.728	-133.529	-129.685	-126.599	-121.029	-115.262	-124.898	-8191	255	
26228.529	1	1	0	0	0.29865	0.19988	0.17277	0.21806	0.13099	0.082314	0.25776	0.10669	0.37105	0.48987	0.14969	0.25304	0.077675	0.2771	0.07108	0.42713	-2.4896	-2.7042	-2.7604	-2.8625	-2.6083	-2.9875	-2.9458	-2.6063	-2.9	-2.9354	-2.6396	-2.9875	-2.6583	-2.8521	-2.7833	-2.7396	26.554	189.631	34.570	-21.815	-95.011	38.795	80.456	171.038	164.038	-21.371	186.190	81.225	70.814	77.366	48.368	-121.293	2.656e-05	3.4014e-05	4.1884e-06	79.715	7.228e-06	4.8258e-07	63.167	26.204	3.3233e-07	1.2539e-05	21.113	6.5868	8.7918	3.1004	2.4295e-06	2.4752	0.00030732	0.00055361	0.00014777	96.968	1.9907e-05	6.0235e-06	77.299	32.082	5.2478e-06	3.3265e-05	26.092	8.1922	10.919	3.8577	1.9892e-05	3.1159	186.603	49.654	86.490	-135.319	10.057	-21.702	-137.491	-130.556	-75.845	140.317	-133.686	-129.924	-126.730	-120.860	-47.055	-124.931	-8191	255	
26228.625	1	1	0	0	0.15802	0.20231	0.048826	0.25409	0.23643	0.1126	0.16135	0.1978	0.14251	0.21456	0.27355	0.056855	0.11608	0.17009	0.19255	0.13308	-2.5333	-2.6437	-2.7896	-2.8458	-2.6917	-2.8042	-2.9521	-2.5833	-3.0042	-2.9917	-2.8271	-2.8958	-2.6813	-2.6417	-2.9271	-2.8	123.786	-145.805	196.200	207.233	108.746	113.900	-72.377	173.128	66.044	-38.191	-79.828	156.509	37.343	109.056	157.684	84.364	2.656e-05	0.00010994	2.07e-05	79.979	1.1448e-05	4.8551e-07	63.917	26.386	3.1281e-07	7.7058e-06	21.119	6.5156	8.7348	3.0866	4.4135e-06	2.4641	0.00030761	0.00056514	0.00014977	97.513	2.9274e-05	6.055e-06	77.787	32.173	5.243e-06	2.2566e-05	26.093	8.1237	10.876	3.8313	1.4016e-05	3.3731	174.481	3.198	-69.525	-135.360	7.862	33.948	-137.196	-130.438	-88.159	142.533	-133.638	-129.497	-126.708	-121.009	-42.588	-127.406	-8191	255	
26228.721	1	1	0	0	0.075038	0.016937	0.14642	0.10925	0.1687	0.41134	0.23035	0.063609	0.26143	0.11902	0.1619	0.1301	0.24329	0.036527	0.021451	0.26705	-2.5229	-2.7833	-2.5563	-2.8458	-2.5958	-2.875	-3.0812	-2.5771	-2.975	-3.0146	-2.65	-2.9313	-2.8979	-2.6375	-2.8521	-2.4813	210.331	-47.489	16.279	69.923	20.368	-85.848	152.565	162.361	57.959	-78.413	-117.494	-114.071	-130.391	-14.274	-61.077	-57.243	2.8023e-05	2.5892e-05	1.7261e-05	79.904	6.66e-06	4.4368e-07	63.898	26.272	2.4093e-07	1.3332e-05	20.973	6.512	8.7087	3.0778	7.39e-08	2.4996	0.00030555	0.00055123	0.00014966	97.427	2.0081e-05	6.0383e-06	77.622	32.119	5.3081e-06	3.3932e-05	25.968	8.1244	10.84	3.8169	5.4201e-06	3.4329	179.234	156.526	-45.610	-135.139	15.482	73.286	-137.557	-130.576	94.066	152.090	-134.039	-129.859	-126.890	-120.780	-41.203	-125.553	-8191	255	
26228.816	1	1	0	0	0.10154	0.075737	0.12556	0.22796	0.15951	0.27073	0.12093	0.1032	0.13453	0.20213	0.20666	0.051233	0.077271	0.18053	0.18381	0.17603	-2.3104	-2.7125	-2.5958	-3.0083	-2.8792	-2.7354	-2.9167	-2.5687	-2.8583	-2.9042	-2.5958	-2.9271	-2.6854	-2.7521	-2.9479	-2.6688	-83.756	2.374	-139.226	110.577	150.928	121.995	93.881	136.868	-114.548	172.155	50.416	149.111	-8.628	-24.838	48.501	160.988	2.7049e-05	6.372e-05	1.5525e-06	79.99	1.2386e-05	6.9802e-07	63.576	26.269	7.4795e-07	5.239e-06	21.036	6.5241	8.7755	3.1101	3.4364e-07	2.5521	0.00030962	0.00054387	0.00015248	97.328	3.0034e-05	6.0932e-06	77.655	32.046	5.2499e-06	2.1406e-05	26.072	8.1665	10.897	3.8504	5.53e-06	3.7119	168.180	-80.352	58.653	-135.060	24.652	17.464	-137.120	-130.809	-41.725	84.582	-133.509	-129.956	-126.430	-121.077	-123.088	-126.108	-8191	255	
26228.912	1	1	0	0	0.15077	0.26313	0.12399	0.1481	0.24346	0.20232	0.19966	0.20248	0.02293	0.071553	0.11695	0.10036	0.14095	0.083426	0.12157	0.052766	-2.375	-2.8833	-2.8187	-2.8125	-2.8167	-2.8083	-2.8937	-2.6271	-2.9167	-2.9083	-2.5979	-2.7687	-2.7687	-2.4792	-2.9	-2.7271	45.150	170.876	93.712	-112.212	51.869	189.042	159.265	67.077	159.381	-44.012	-79.232	-115.518	9.877	177.619	11.883	-20.470	3.1144e-05	8.6891e-05	2.7628e-06	79.877	6.8037e-06	3.4636e-07	63.755	26.286	4.6524e-07	9.1298e-06	20.517	6.617	8.7746	3.1105	5.7505e-07	2.5232	0.00031265	0.00054533	0.00015334	97.225	2.0349e-05	6.1173e-06	77.849	32.131	5.3346e-06	1.4206e-05	28.651	8.2079	10.876	3.8535	5.5574e-06	3.4834	169.956	-34.048	-111.965	-135.119	37.746	58.932	-137.306	-130.399	-64.528	88.461	-135.500	-129.911	-126.775	-120.913	14.987	-125.699	-8191	255	
26229.010	1	1	0	0	0.18755	0.38661	0.20238	0.19141	0.24523	0.1522	0.054121	0.1156	0.16631	0.060794	0.15961	0.24638	0.18274	0.36457	0.083555	0.16139	-2.4562	-2.8917	-2.6771	-2.8396	-2.8583	-2.5896	-2.7979	-2.7271	-2.75	-3.15	-2.6146	-2.8063	-2.6854	-2.5271	-2.7729	-2.6896	-91.782	-121.516	-1.110	55.243	33.149	178.925	72.486	54.807	-65.759	46.560	8.468	-88.314	158.604	193.854	-72.590	-34.902	2.7666e-05	4.8383e-05	1.0209e-05	79.76	1.1598e-05	3.1275e-07	63.425	25.984	3.2984e-07	3.0966e-07	20.377	6.4825	8.687	3.0663	8.5913e-07	2.5207	0.00030617	0.00053537	0.00015634	97	3.0727e-05	6.1982e-06	77.366	31.905	5.3282e-06	5.9518e-06	28.59	8.0925	10.8	3.8143	5.5832e-06	3.6924	165.552	-28.003	-37.090	-135.290	40.597	-86.865	-136.870	-130.461	-29.547	-37.338	-134.617	-129.573	-126.563	-120.637	-56.392	-126.112	-8191	255	
26229.105	1	1	0	0	0.25134	0.42107	0.051139	0.138	0.32608	0.15077	0.073429	0.16828	0.12422	0.059915	0.18286	0.16391	0.058139	0.20315	0.098224	0.055545	-2.1354	-2.8792	-2.4875	-2.9833	-2.85	-2.7042	-3.0729	-2.5563	-2.6813	-3.1625	-2.8063	-2.7292	-2.825	-2.4688	-2.925	-2.6792	-100.334	154.153	53.506	7.859	196.832	147.933	29.922	117.301	139.717	-60.937	71.519	122.912	131.114	84.396	-89.473	-1.300	2.2971e-05	5.4427e-05	2.3567e-05	79.078	7.3927e-06	4.7924e-07	62.762	25.887	2.5566e-07	7.6794e-07	19.989	6.4741	8.6073	3.0392	1.9241e-07	2.4871	0.0003115	0.00052421	0.00015568	96.27	1.9253e-05	6.1717e-06	76.649	31.667	5.2605e-06	6.0196e-06	30.359	8.0195	10.684	3.7801	5.5378e-06	3.4321	170.226	-8.632	-96.965	-135.240	24.706	-24.563	-137.381	-130.476	151.986	-2.086	-134.680	-129.596	-126.379	-120.443	-54.631	-125.360	-8191	255	
26229.227	1	1	0	0	0.044196	0.013771	0.067383	0.13419	0.063204	0.2092	0.27062	0.17134	0.12341	0.2009	0.14053	0.33686	0.11992	0.068029	0.032729	0.1378	-2.2188	-2.9208	-2.6792	-2.5083	-2.8896	-2.5604	-2.8458	-2.4979	-2.7188	-2.975	-2.9167	-2.6562	-2.9437	-2.6188	-2.8771	-2.8708	-127.253	73.972	-98.902	-40.168	196.730	-130.847	-23.309	142.416	167.679	117.845	52.523	-146.846	-147.266	-62.533	71.164	-93.832	3.3755e-05	7.0699e-05	1.451e-05	78.742	1.3874e-05	6.8679e-06	62.414	25.822	4.1561e-07	3.8447e-07	20.26	6.426	8.5722	3.0342	2.7628e-07	2.5215	0.00031501	0.00052882	0.00015834	96.081	1.1957e-05	2.4891e-05	76.398	31.505	5.3775e-06	5.9897e-06	28.49	8.0106	10.635	3.7723	5.5087e-06	3.701	163.838	-53.822	-114.640	-135.384	31.773	160.773	-137.333	-130.475	-19.971	-144.947	-134.455	-129.736	-126.242	-120.549	28.477	-125.347	-8191	255	
26229.322	1	1	0	0	0.28684	0.11019	0.099688	0.23577	0.11848	0.32703	0.2063	0.15932	0.1085	0.14639	0.30584	0.10278	0.029292	0.16977	0.016903	0.17231	-2.1854	-2.9062	-2.7042	-2.775	-2.9375	-2.5625	-2.7979	-2.8438	-2.6854	-2.9	-2.7208	-2.6979	-2.8625	-2.6354	-2.8563	-2.8396	175.076	122.686	-77.319	194.655	51.422	-81.431	-67.064	120.191	-92.233	52.406	32.421	152.773	-64.180	96.954	-63.991	166.370	2.8028e-05	4.4175e-05	1.5774e-05	78.334	5.8393e-07	1.0502e-05	62.434	25.59	1.089e-06	3.3352e-07	19.727	6.4081	8.5166	3.0343	4.4761e-07	2.4609	0.00031053	0.00052919	0.00015581	95.194	5.2469e-06	2.5695e-05	76.09	31.283	5.3785e-06	5.9341e-06	30.257	7.9773	10.587	3.7758	5.4963e-06	3.3731	176.493	-84.588	-12.046	-135.091	-6.922	69.575	-137.452	-130.617	-74.301	46.171	-135.151	-129.865	-126.386	-120.590	-3.275	-124.169	-8191	255	
26229.418	1	1	0	0	0.077271	0.17847	0.2649	0.10721	0.085187	0.089214	0.078589	0.14798	0.024953	0.30163	0.1706	0.11701	0.11941	0.23624	0.13063	0.13871	-2.0396	-2.8958	-2.7896	-2.7062	-3.0167	-2.7021	-2.9042	-2.8438	-2.5563	-2.9917	-2.5479	-2.6979	-2.9479	-2.7708	-2.6729	-2.9958	70.621	-38.390	39.659	101.823	177.468	3.662	-108.677	64.836	-25.390	82.046	54.164	188.437	-12.537	158.985	37.504	19.843	0.00010217	2.8094e-05	1.1221e-06	77.971	5.1478e-07	1.6998e-05	61.76	25.506	6.9141e-07	1.0001e-06	19.933	6.4344	8.5283	3.0396	7.1866e-07	2.5091	0.00034369	0.00052762	0.00015425	94.738	5.2239e-06	3.8284e-05	75.432	31.137	5.3409e-06	5.8931e-06	28.228	7.9747	10.582	3.7745	5.4975e-06	3.1768	176.994	0.968	-33.239	-135.024	-112.762	77.791	-137.260	-130.451	-59.568	-78.623	-134.583	-129.385	-126.053	-120.735	-32.736	-123.286	-8191	255	
26229.516	1	1	0	0	0.26792	0.17024	0.26575	0.0069268	0.15227	0.27539	0.10792	0.21506	0.0055314	0.22741	0.14243	0.2443	0.12698	0.38822	0.11552	0.09362	-2.1771	-2.8542	-2.9542	-2.5479	-2.8625	-2.8083	-2.8271	-2.8563	-2.5938	-2.8604	-2.7917	-2.6208	-3.0438	-2.6729	-2.6208	-3.0271	-36.578	-33.439	199.395	49.391	147.972	26.540	188.538	63.080	74.665	-8.036	4.244	-107.148	-103.066	-97.017	205.153	42.737	0.00014938	3.4368e-05	1.8327e-05	77.472	4.0205e-07	1.1548e-05	61.444	25.42	4.6631e-07	6.883e-07	19.799	6.4171	8.568	3.0912	8.7769e-07	2.4642	0.0012806	0.00053103	0.00015166	94.168	5.2036e-06	2.5469e-05	75.23	31.05	5.4738e-06	5.9396e-06	30.1	7.9998	10.603	3.8143	5.5636e-06	3.0887	179.325	133.711	-61.528	-135.157	28.377	90.226	-136.901	-130.361	-130.047	-9.562	-135.351	-129.590	-126.221	-120.555	-23.709	-124.753	-8191	255	
26229.635	1	1	0	0	0.053702	0.11377	0.038162	0.16921	0.35192	0.19014	0.13426	0.12033	0.044746	0.071503	0.17027	0.069008	0.21124	0.21791	0.13002	0.12973	-2.2875	-2.8479	-2.8896	-2.5708	-3.1646	-2.7417	-2.825	-2.8458	-2.825	-2.7938	-2.9562	-2.5396	-2.8292	-2.8396	-2.6333	-2.8917	-76.726	29.358	181.465	38.232	44.556	-95.818	31.914	83.573	37.134	93.615	182.394	-35.971	15.956	-46.839	182.800	171.906	0.00015684	4.6312e-05	1.7156e-05	77.413	4.3666e-07	1.6018e-05	61.738	25.514	7.6788e-07	5.1929e-07	20.38	6.3375	8.4845	3.0559	2.2815e-07	2.4656	0.0012282	0.00053017	0.00015302	94.261	5.1838e-06	3.7753e-05	75.179	31.047	5.496e-06	5.9121e-06	27.568	8.053	10.54	3.8024	5.5675e-06	3.0973	-138.889	-61.895	-71.636	-135.052	-49.328	89.076	-137.190	-130.290	-78.095	-77.635	-133.387	-131.032	-126.269	-120.307	-46.643	-124.460	-8191	255	
26229.705	1	1	0	0	0.28791	0.40128	0.18082	0.13889	0.11725	0.19112	0.073378	0.16373	0.22514	0.16359	0.10714	0.16998	0.12464	0.11974	0.161	0.19081	-2.1625	-2.7542	-2.7729	-2.5292	-2.9104	-2.9104	-2.6125	-2.825	-2.7438	-2.6479	-2.8792	-2.4521	-2.8833	-2.8792	-2.4875	-2.8229	211.473	188.279	69.778	-9.077	-3.840	209.519	9.205	129.389	48.113	44.412	-86.135	17.889	97.369	172.097	21.683	-51.878	0.00023191	4.2911e-05	2.9608e-06	76.481	4.9973e-07	1.0166e-05	61.084	25.171	8.7615e-07	6.584e-07	20.151	6.2301	8.4973	3.0856	7.3556e-08	2.4616	0.0018249	0.00052898	0.00014863	93.29	5.2336e-06	2.5808e-05	74.495	30.76	5.5156e-06	5.9677e-06	25.73	8.9308	10.493	3.8183	5.5989e-06	3.1043	-126.765	-16.892	50.562	-135.266	-5.931	102.611	-136.884	-130.396	12.535	55.792	-133.352	-132.226	-126.195	-120.523	-86.244	-124.752	-8191	255	
26229.826	1	1	0	0	0.30453	0.27747	0.26663	0.097954	0.0040359	0.24232	0.058126	0.065695	0.22159	0.042829	0.11116	0.076898	0.28367	0.17526	0.22081	0.014858	-2.2562	-2.7271	-2.8708	-2.5917	-2.7771	-2.8542	-2.4313	-2.925	-2.8458	-2.8979	-2.9896	-2.5417	-2.825	-2.7208	-2.6813	-2.9833	-89.935	128.316	102.291	181.442	61.505	1.606	146.759	169.657	11.157	-72.668	-117.776	-18.545	97.871	-73.312	89.634	-55.926	0.00012918	3.8207e-05	1.3852e-05	76.303	2.3364e-07	1.7163e-05	60.65	25.056	5.6777e-07	3.0161e-07	20.014	6.2716	8.4414	3.0712	5.0247e-07	2.464	0.0012515	0.00052849	0.00014595	93.012	5.2191e-06	3.7952e-05	74.067	30.625	5.4484e-06	5.9652e-06	24.886	8.8221	10.453	3.8021	5.5933e-06	3.0881	-121.184	-47.988	-117.928	-134.928	-17.919	105.385	-137.087	-130.141	-71.169	-103.713	-133.421	-130.898	-126.203	-120.494	69.299	-124.833	-8191	255	
26229.922	1	1	0	0	0.17121	0.11787	0.20257	0.16238	0.10075	0.1512	0.080625	0.21408	0.037458	0.21212	0.25039	0.086266	0.20536	0.11981	0.073697	0.18174	-2.3896	-2.5771	-2.7521	-2.5792	-2.7875	-2.9313	-2.5896	-2.8042	-2.6208	-2.8937	-2.8979	-2.6083	-2.775	-2.8604	-2.6167	-2.9688	-123.646	135.334	194.072	127.879	79.562	29.412	-99.319	78.482	200.878	41.244	-27.188	-132.996	138.431	-112.600	-116.699	-127.870	0.00019647	3.3247e-05	1.8122e-05	75.685	7.1036e-07	1.1416e-05	59.674	24.993	5.4401e-07	9.0037e-07	19.889	6.2599	8.3393	3.042	9.5093e-08	2.4394	0.0018441	0.0005339	0.00014855	92.575	5.2271e-06	2.0736e-05	74.397	30.501	5.378e-06	5.9732e-06	24.799	9.3822	10.389	3.7679	5.6219e-06	3.0545	-115.756	-90.063	-87.161	-135.196	-49.084	65.499	-137.757	-130.230	-26.143	8.616	-133.307	-131.703	-126.157	-120.635	103.188	-124.210	-8191	255	
26230.018	1	1	0	0	0.313	0.03596	0.1573	0.12357	0.12763	0.16805	0.21551	0.33099	0.012656	0.17531	0.11129	0.31468	0.04508	0.24091	0.16315	0.11272	-2.2354	-2.5729	-3.1021	-2.8708	-2.9042	-3.1583	-2.6708	-2.9417	-2.7479	-2.7313	-2.8521	-2.8271	-2.6063	-3.0896	-2.6854	-2.8458	-97.628	188.168	55.574	35.009	33.521	196.511	209.460	-31.613	74.848	177.880	-143.032	128.215	114.145	-53.984	42.785	-51.530	0.00014286	6.118e-05	1.6471e-05	76.143	2.4715e-07	1.6717e-05	59.746	24.914	2.7343e-07	7.192e-07	19.989	6.2214	8.3584	3.0176	4.0617e-07	2.406	0.0012789	0.0005325	0.00014651	92.608	5.2287e-06	9.4872e-06	80.321	30.5	5.3753e-06	5.997e-06	24.79	8.7905	10.366	3.7441	5.8573e-06	3.043	-108.032	12.053	-43.701	-135.207	196.908	68.631	-137.809	-130.245	-91.292	-6.577	-133.381	-131.231	-126.075	-120.679	42.176	-124.430	-8191	255	
26230.113	1	1	0	0	0.35174	0.17412	0.2226	0.17608	0.20164	0.14086	0.16135	0.069117	0.080259	0.28657	0.2279	0.096481	0.22337	0.054794	0.21978	0.20809	-2.4646	-2.7333	-3.0604	-2.7542	-2.7604	-2.9604	-2.8438	-2.8375	-2.975	-2.5542	-2.9271	-2.6521	-2.6521	-2.7188	-2.5854	-2.9229	-130.995	-85.384	152.050	75.836	-2.702	-8.599	66.594	-50.680	111.765	117.079	201.897	51.009	184.105	66.641	142.512	6.938	0.00023387	1.77e-05	1.9936e-05	75.819	1.193e-07	6.576e-07	58.965	24.903	7.3238e-07	2.083e-07	19.769	6.2502	8.2707	3.0199	7.2155e-07	2.3924	0.0019049	0.00054197	0.00014841	92.312	5.2325e-06	5.9661e-06	78.846	30.366	5.3785e-06	5.9897e-06	24.589	9.3392	10.335	3.7344	5.8316e-06	3.0241	-98.683	-19.766	-66.251	-135.140	-62.598	-7.749	-136.666	-130.410	-72.826	36.296	-133.391	-131.812	-125.951	-120.628	161.318	-124.711	-8191	255	
26230.211	1	1	0	0	0.12104	0.14269	0.06694	0.21067	0.14319	0.19924	0.12453	0.26874	0.10377	0.154	0.12458	0.10556	0.14225	0.14321	0.20792	0.062408	-2.3563	-2.4188	-2.875	-2.7917	-2.8187	-3.0167	-2.5875	-2.8271	-2.9083	-2.6625	-2.8333	-2.6875	-2.5729	-2.9479	-2.6896	-2.65	-16.308	-107.354	113.779	92.179	-73.358	101.988	-41.739	207.387	208.849	179.714	112.278	81.635	-38.282	185.827	-19.579	15.325	0.00014232	0.00011741	1.1538e-05	75.336	2.9694e-07	2.0606e-07	58.047	24.778	3.6658e-07	7.1543e-07	19.755	6.2253	8.3259	2.9867	2.2653e-07	2.3843	0.0009932	0.0008328	0.00014697	92.058	5.2485e-06	5.9327e-06	81.867	30.318	5.2637e-06	6.1284e-06	24.637	8.7306	10.32	3.71	5.8276e-06	3.0038	-89.433	-138.961	-111.619	-135.150	-110.863	-115.146	-136.637	-130.366	-21.104	19.777	-133.768	-131.322	-126.071	-120.503	40.553	-124.806	-8191	255	
26230.307	1	1	0	0	0.17733	0.054244	0.39965	0.14437	0.032726	0.17069	0.17632	0.38874	0.27802	0.041492	0.20806	0.14922	0.050072	0.12811	0.28431	0.13559	-2.5292	-2.4583	-2.9562	-2.85	-2.6917	-2.9604	-2.5958	-2.5396	-3.0938	-2.6333	-2.9125	-2.7875	-2.5396	-3.0083	-2.8021	-2.7229	88.521	65.936	151.115	207.904	187.768	195.257	167.175	211.089	88.844	35.076	-116.517	165.159	-96.517	42.737	-18.980	66.533	0.0002203	0.00016963	1.7736e-05	75.648	1.7343e-07	2.5037e-07	59.057	24.834	2.4801e-08	8.3742e-07	19.835	6.2584	8.237	2.9696	4.505e-07	2.3508	0.00040606	0.0028439	0.00014726	92.109	5.2753e-06	5.9722e-06	78.841	30.334	5.1822e-06	6.2646e-06	24.616	9.3226	10.264	3.6846	5.7654e-06	2.971	-80.390	183.294	-100.683	-135.276	-7.528	54.928	-137.281	-130.302	-3.793	-62.678	-133.628	-131.815	-126.100	-120.529	-91.795	-124.434	-8191	255	
26230.402	1	1	0	0	0.14926	0.1651	0.12522	0.14232	0.12756	0.091023	0.055741	0.12623	0.31243	0.19136	0.32255	0.085237	0.52594	0.3038	0.13027	0.06955	-2.6271	-2.5896	-2.8146	-2.9583	-2.6063	-3.0271	-2.7667	-2.7021	-2.8875	-2.7708	-2.7667	-2.7313	-2.4542	-2.9229	-2.6708	-2.7958	180.360	121.963	71.061	40.974	33.832	-119.019	-55.038	-32.248	-0.871	14.284	73.994	149.743	40.714	-12.581	-14.066	171.642	2.4765e-05	0.0010713	2.5245e-05	75.179	8.2801e-07	6.4277e-07	57.984	24.651	4.8383e-07	5.2873e-07	19.671	6.1827	8.2527	2.9627	4.6416e-07	2.3574	0.00029939	0.0024792	0.00014707	91.721	5.3288e-06	5.9691e-06	82.062	30.14	5.1753e-06	6.1992e-06	24.485	8.3477	10.458	3.6709	5.6483e-06	2.9714	182.589	-40.631	14.473	-134.954	-18.511	10.844	-137.393	-130.115	-4.819	112.846	-133.333	-129.448	-127.455	-120.248	-50.450	-124.645	-8191	255	
26230.498	1	1	0	0	0.14074	0.18714	0.06232	0.019625	0.20052	0.24739	0.21925	0.1777	0.04268	0.075826	0.18817	0.15866	0.11419	0.16373	0.17366	0.24858	-2.5104	-2.6646	-2.6521	-2.7125	-2.5687	-2.9229	-2.6167	-2.6188	-2.925	-2.7542	-2.7958	-2.8646	-2.6021	-2.9042	-2.7021	-2.7021	134.599	13.548	62.297	-136.230	4.662	152.930	161.452	136.337	210.022	34.339	-13.839	76.582	66.845	-49.494	-68.002	-32.328	2.9287e-05	0.0016001	2.8115e-05	74.882	8.3203e-07	8.6436e-07	58.389	24.558	6.5641e-07	9.118e-07	19.756	6.2726	8.195	2.964	8.4406e-07	2.3576	0.00030072	0.0035931	0.00014713	91.237	5.4e-06	5.8809e-06	78.107	30.034	5.1049e-06	6.1931e-06	24.46	7.7105	11.619	3.6792	5.6365e-06	2.9785	176.868	-38.324	-37.536	-134.973	-62.280	-57.534	-137.472	-130.175	-66.385	61.182	-133.257	-129.528	-127.717	-120.327	-112.330	-124.519	-8191	255	
26230.596	1	1	0	0	0.12951	0.18937	0.25907	0.06437	0.1451	0.045189	0.1555	0.22166	0.44174	0.18185	0.13299	0.17751	0.23261	0.025903	0.10554	0.22347	-2.4583	-2.7229	-2.8063	-3.0104	-2.6417	-2.775	-2.8229	-2.6437	-2.8021	-2.6854	-2.6437	-2.8979	-2.5	-2.9396	-2.9813	-2.5771	-107.910	-70.683	170.630	145.753	-133.390	168.677	81.996	-111.506	149.176	-128.552	-121.462	205.760	-93.039	-76.686	43.723	56.839	2.5298e-05	0.0010559	1.4369e-05	75.142	4.5474e-07	8.8204e-07	57.938	24.746	2.8119e-07	3.8744e-07	19.83	6.2215	8.3396	2.9679	4.0355e-07	2.3554	0.00030021	0.0023759	0.00014808	91.609	5.5086e-06	5.9025e-06	81.558	30.198	5.0996e-06	6.143e-06	24.532	7.7123	11.293	3.6836	5.6421e-06	2.9844	163.978	-28.476	-49.180	-135.156	-97.639	60.190	-137.858	-130.391	-28.416	26.548	-133.451	-129.176	-127.094	-120.487	24.073	-124.552	-8191	255	
26230.715	1	1	0	0	0.34541	0.21356	0.24001	0.060281	0.092146	0.20209	0.17933	0.12275	0.15941	0.16249	0.045794	0.16592	0.27368	0.10574	0.34677	0.36668	-2.575	-2.7062	-2.5563	-2.7333	-2.5938	-2.8979	-2.9021	-2.6	-2.8729	-2.8396	-2.6188	-2.9667	-2.7208	-2.7604	-3.0333	-2.6312	-58.469	-112.042	-68.218	196.325	199.150	97.008	29.116	-140.887	127.188	37.458	201.324	195.289	-108.467	5.607	116.371	25.270	3.0957e-05	0.0015886	7.2362e-06	75.197	5.925e-07	5.072e-07	59.162	24.617	1.0263e-06	7.1568e-07	19.833	6.1711	8.322	2.9516	3.5134e-07	2.3826	0.00030464	0.0034917	0.00014902	91.63	5.4326e-06	5.8611e-06	76.193	30.639	5.1933e-06	6.1907e-06	24.57	7.7285	11.897	3.6765	5.3612e-06	2.995	154.708	-21.458	50.303	-134.999	-27.979	131.791	-136.958	-130.948	-59.744	-32.700	-133.434	-129.542	-127.912	-120.657	-46.518	-124.828	-8191	255	
26230.811	1	1	0	0	0.22715	0.039539	0.17312	0.037276	0.12259	0.15904	0.43585	0.1429	0.23646	0.36629	0.25533	0.10384	0.034573	0.059008	0.088173	0.0084376	-2.5812	-2.8021	-2.6979	-3.0479	-2.7188	-2.6729	-2.8438	-2.4854	-2.9708	-2.8542	-2.6271	-3.1354	-2.7938	-2.9146	-3.0438	-2.7479	38.610	-21.978	-81.307	-128.275	44.740	10.545	176.438	46.011	-47.938	30.418	19.627	136.165	73.288	151.746	40.561	73.929	2.776e-05	0.00094443	3.1814e-06	74.956	3.7554e-07	5.8591e-07	59.989	24.531	1.9997e-07	3.6265e-07	19.733	6.2033	8.431	2.9857	3.4804e-07	2.387	0.00030299	0.002371	0.00015017	91.562	5.4706e-06	5.9833e-06	73.042	32.676	5.2102e-06	6.0783e-06	24.54	7.7246	11.303	3.7131	5.4481e-06	3.0263	179.845	-22.546	-10.320	-135.252	-141.585	-37.525	-137.087	-130.949	-44.985	32.549	-133.395	-129.768	-127.128	-120.160	-88.513	-124.215	-8191	255	
26230.906	1	1	0	0	0.11097	0.050974	0.16978	0.10679	0.22909	0.061749	0.18613	0.15	0.14251	0.050964	0.10492	0.13355	0.21007	0.090654	0.075366	0.049808	-2.3979	-2.7396	-2.3521	-2.925	-2.6042	-2.6979	-2.8937	-2.5479	-2.9021	-2.6354	-2.6125	-3.0354	-2.6125	-2.5062	-3.0292	-2.6896	176.447	127.756	-139.140	35.997	133.700	-6.030	199.923	-38.928	206.367	75.803	-123.600	6.946	69.045	-12.406	18.943	113.763	2.1342e-05	0.0015242	1.0088e-05	75.188	5.7315e-07	6.395e-07	59.869	24.59	8.0212e-07	7.1399e-07	19.782	6.2628	8.5251	3.03	5.2322e-07	2.4331	0.0003016	0.0033808	0.00015081	91.502	5.4021e-06	5.8994e-06	72.982	31.982	5.1287e-06	6.0337e-06	24.686	7.797	11.912	3.7688	5.4453e-06	3.0611	169.016	-17.278	-29.755	-134.886	22.015	41.111	-136.976	-130.725	-57.094	26.818	-133.103	-129.527	-127.871	-120.371	33.568	-124.876	-8191	255	
26231.004	1	1	0	0	0.054149	0.10477	0.15312	0.19593	0.30015	0.15766	0.096255	0.11142	0.15955	0.13282	0.47661	0.44556	0.23011	0.23834	0.13246	0.23015	-2.5312	-2.7292	-2.4854	-2.7	-2.825	-2.4396	-2.8292	-2.6125	-2.7792	-2.975	-2.5958	-2.9604	-2.725	-2.6521	-3.0563	-2.5208	-19.397	202.853	186.061	152.530	-40.261	-98.435	182.575	124.831	11.163	56.479	114.321	-138.587	130.720	-88.814	-110.977	-71.841	2.4149e-05	0.0010239	6.5543e-05	75.253	5.0896e-07	9.4987e-07	60.188	24.705	3.1835e-07	6.2832e-07	20.071	6.3235	8.5401	3.0702	2.948e-07	2.4531	0.00030098	0.0014599	0.00028619	91.884	5.3855e-06	5.9593e-06	73.443	33.138	5.1457e-06	5.8137e-06	24.937	7.8748	11.374	3.8039	5.2951e-06	3.0958	184.826	-23.180	82.935	-135.283	15.818	5.081	-137.456	-130.994	-39.601	-31.084	-133.838	-129.113	-126.735	-120.268	78.881	-125.219	-8191	255	
26231.100	1	1	0	0	0.17173	0.074333	0.18808	0.060465	0.1628	0.20952	0.19913	0.16768	0.15395	0.10574	0.10303	0.24908	0.17567	0.18578	0.23875	0.1532	-2.2771	-2.7521	-2.525	-2.9604	-2.9667	-2.4875	-2.9313	-2.6771	-2.7687	-2.9833	-2.4271	-2.8521	-2.8354	-2.4167	-3.0042	-2.7125	-34.588	84.237	113.096	105.052	72.597	95.154	168.017	-145.966	124.218	202.913	-139.963	-145.657	-130.808	-22.507	57.623	-26.364	3.2724e-05	6.2976e-05	0.00016122	75.879	6.2298e-07	9.238e-07	60.729	24.858	4.3256e-07	2.5018e-07	20.182	6.3795	8.699	3.0535	3.9959e-07	2.4365	0.00030537	0.00052259	0.00084683	92.353	5.3502e-06	6.0877e-06	73.945	32.28	5.1562e-06	5.7196e-06	25.156	7.9202	12.013	3.7962	5.5098e-06	3.0776	157.166	-126.162	94.713	-135.069	-72.414	37.915	-137.072	-130.549	-17.873	-123.217	-133.321	-129.253	-127.562	-120.663	117.042	-124.580	-8191	255	
26231.195	1	1	0	0	0.085515	0.12307	0.034674	0.15305	0.18841	0.087114	0.11878	0.16808	0.16319	0.077068	0.26516	0.12829	0.26832	0.084304	0.11571	0.19163	-2.3438	-3.1104	-2.6146	-2.85	-2.8896	-2.8167	-2.7979	-2.8417	-2.6875	-3.0604	-2.5333	-2.7396	-2.7958	-2.6083	-2.8792	-2.8125	74.205	101.739	194.666	70.338	-4.233	-82.801	44.956	-47.624	2.462	-38.423	189.065	-54.013	90.517	196.194	-24.357	41.690	2.3749e-05	5.9572e-05	0.00025079	76.584	2.4408e-07	8.0777e-07	60.683	24.926	2.3226e-07	7.4233e-07	20.171	6.3958	8.6991	3.0437	1.0316e-07	2.4148	0.00030826	0.00052107	0.00061795	93.178	5.3577e-06	6.071e-06	74.323	33.458	5.2462e-06	5.8601e-06	25.142	7.9517	11.029	3.875	5.5188e-06	3.041	169.081	-68.340	3.209	-135.044	201.141	9.905	-137.149	-130.926	-0.689	-64.400	-133.377	-129.895	-126.239	-121.066	-50.858	-124.555	-8191	255	
26231.314	1	1	0	0	0.12371	0.077889	0.093783	0.17632	0.074473	0.23468	0.12603	0.086807	0.34237	0.0083099	0.28067	0.14552	0.062728	0.04262	0.12948	0.25722	-2.3083	-2.8	-2.4938	-2.875	-2.8104	-2.5917	-2.7729	-2.7979	-2.6188	-3.1208	-2.5708	-2.6896	-3.0125	-2.7	-2.875	-2.8688	-97.875	-51.108	29.736	191.207	-68.531	-35.697	44.603	-33.033	184.619	22.909	-93.311	46.674	38.202	-89.808	54.871	-53.992	2.6834e-05	6.9006e-05	0.00040091	76.865	1.1961e-07	3.9932e-07	60.93	25.348	4.5826e-07	8.2114e-07	20.227	6.4376	8.6073	3.104	2.1241e-07	2.4661	0.00030378	0.00052622	0.00090375	93.405	5.1528e-06	6.2019e-06	74.633	32.581	5.2642e-06	5.8369e-06	25.246	7.9937	10.655	4.2577	5.4274e-06	3.093	176.819	-61.698	16.378	-135.048	182.479	205.476	-137.104	-130.908	-67.200	50.056	-133.374	-129.269	-125.965	-121.140	83.974	-124.370	-8191	255	
26231.410	1	1	0	0	0.02847	0.19372	0.1903	0.15508	0.11412	0.25029	0.22875	0.093094	0.15284	0.015315	0.31256	0.14084	0.15657	0.10188	0.30786	0.18458	-2.1208	-2.9625	-2.5875	-2.7854	-3.0687	-2.7604	-2.8125	-2.6292	-2.575	-2.9354	-2.8229	-2.8208	-3.0979	-2.5979	-2.85	-2.9062	16.845	133.621	129.920	-119.339	-63.970	200.402	18.976	197.581	-33.465	94.376	165.644	0.603	-26.004	134.813	17.667	-47.908	2.7429e-05	4.9136e-05	0.00024524	77.087	6.4662e-07	7.4787e-07	61.912	25.495	7.5696e-08	7.756e-07	20.625	6.5166	8.7151	3.2033	6.2012e-07	2.5052	0.00030328	0.00052172	0.00059101	93.977	5.2427e-06	6.2562e-06	75.475	33.774	5.378e-06	5.8229e-06	25.677	8.1362	10.818	4.187	5.4947e-06	3.1756	185.858	-70.333	19.966	-134.858	-18.326	-17.207	-137.248	-130.900	198.789	38.598	-133.615	-129.793	-126.226	-120.743	-71.756	-124.270	-8191	255	
26231.506	1	1	0	0	0.22683	0.12996	0.20846	0.11847	0.25499	0.22324	0.3205	0.27934	0.044015	0.45507	0.14967	0.28369	0.23168	0.12745	0.26951	0.29109	-2.2062	-2.9375	-2.7083	-2.7667	-2.975	-2.8875	-2.8667	-3.0896	-2.5729	-2.875	-2.7438	-2.75	-2.7604	-2.4458	-2.7667	-2.8438	162.924	-31.482	88.776	-108.335	66.536	-56.308	79.379	51.340	-4.283	5.133	78.493	198.323	180.074	76.065	81.075	-141.034	2.7641e-05	5.2768e-05	0.00036154	77.853	3.6165e-07	7.2405e-07	62.112	25.746	7.7048e-06	1.1051e-06	20.81	6.5812	8.6169	3.1907	3.6672e-07	2.4718	0.00031478	0.00052865	0.00086304	94.466	5.18e-06	6.2643e-06	75.975	32.184	1.1103e-05	5.8406e-06	25.757	8.1491	10.748	4.3073	5.4493e-06	3.1191	171.245	204.625	28.857	-135.014	106.477	-54.796	-137.151	-130.301	209.460	-37.874	-133.159	-129.327	-126.091	-121.288	-94.510	-125.335	-8191	255	
26231.602	1	1	0	0	0.10482	0.22665	0.15131	0.032178	0.21382	0.24707	0.11639	0.027279	0.20152	0.11185	0.16555	0.19181	0.059705	0.094904	0.016753	0.088762	-2.2792	-2.9062	-2.7687	-2.8	-3.1562	-2.7896	-2.7646	-2.9104	-2.6958	-3.0583	-2.9146	-2.5875	-3.0333	-2.6375	-2.6875	-2.9729	-144.167	136.552	51.433	-127.570	74.372	39.312	54.935	184.708	-80.084	-33.274	-9.326	132.285	-116.337	79.357	-147.581	22.054	3.0115e-05	5.1385e-05	0.00022913	77.504	4.1062e-07	9.8939e-07	61.674	25.524	1.1484e-05	9.8946e-07	20.28	6.4276	8.576	3.0817	4.1802e-07	2.3939	0.00031902	0.00052486	0.0005915	94.145	5.1886e-06	6.3464e-06	75.203	31.198	3.0679e-05	5.8473e-06	25.385	7.9654	10.624	4.046	5.5249e-06	2.9973	172.531	-13.873	31.852	-135.207	-80.750	-32.717	-136.985	-130.197	197.445	14.193	-133.677	-129.616	-126.283	-120.760	45.451	-125.200	-8191	255	
#DATA ENDS
