BOXY.EXE: ISS Imagent and Oximeter Data Acquisition Program Version 0.80
Ascii Record File

#ACQ INFORMATION
2  Detector Channels 
16  External MUX Channels 
1  Auxiliary Channels 
5000  Waveform (CCF) Frequency (Hz)
1  Waveforms Skipped 
30  Waveforms Averaged 
1  Cycles Averaged 
16  Acquisitions per Waveform 
10.0806  Updata Rate (Hz) 

#FILE INFORMATION
TRUE -- External MUX Channel results are PARSED.
FALSE -- AC DC and Phase are NOT grouped.
TRUE -- Companion Program Settings File CREATED.
FALSE -- AC data not excluded
FALSE -- DC data not excluded
FALSE -- Phase data not excluded
FALSE -- Auxillary Chn. data not excluded
Tab delimiters

#CALIBRATION STATE
TRUE -- Waveform Calibration Values APPLIED.


#AUX CALIBRATION VALUES
Val Type	aux-1	

Term	1.0000e+00	
Factor	0.0000e+00	


#WF CALIBRATION VALUES
A = Detector Channel
Val Type	A-AC1	A-AC2	A-AC3	A-AC4	A-AC5	A-AC6	A-AC7	A-AC8	A-AC9	A-AC10	A-AC11	A-AC12	A-AC13	A-AC14	A-AC15	A-AC16	A-DC1	A-DC2	A-DC3	A-DC4	A-DC5	A-DC6	A-DC7	A-DC8	A-DC9	A-DC10	A-DC11	A-DC12	A-DC13	A-DC14	A-DC15	A-DC16	A-Ph1	A-Ph2	A-Ph3	A-Ph4	A-Ph5	A-Ph6	A-Ph7	A-Ph8	A-Ph9	A-Ph10	A-Ph11	A-Ph12	A-Ph13	A-Ph14	A-Ph15	A-Ph16	

Term	0.00000e+00	0.00000e+00	0.00000e+00	0.00000e+00	0.00000e+00	0.00000e+00	0.00000e+00	0.00000e+00	0.00000e+00	0.00000e+00	0.00000e+00	0.00000e+00	0.00000e+00	0.00000e+00	0.00000e+00	0.00000e+00	0.00000e+00	0.00000e+00	0.00000e+00	0.00000e+00	0.00000e+00	0.00000e+00	0.00000e+00	0.00000e+00	0.00000e+00	0.00000e+00	0.00000e+00	0.00000e+00	0.00000e+00	0.00000e+00	0.00000e+00	0.00000e+00	0.00000e+00	0.00000e+00	0.00000e+00	0.00000e+00	0.00000e+00	0.00000e+00	0.00000e+00	0.00000e+00	0.00000e+00	0.00000e+00	0.00000e+00	0.00000e+00	0.00000e+00	0.00000e+00	0.00000e+00	0.00000e+00	
Factor	1.00000e+00	1.00000e+00	1.00000e+00	1.00000e+00	1.00000e+00	1.00000e+00	1.00000e+00	1.00000e+00	1.00000e+00	1.00000e+00	1.00000e+00	1.00000e+00	1.00000e+00	1.00000e+00	1.00000e+00	1.00000e+00	1.00000e+00	1.00000e+00	1.00000e+00	1.00000e+00	1.00000e+00	1.00000e+00	1.00000e+00	1.00000e+00	1.00000e+00	1.00000e+00	1.00000e+00	1.00000e+00	1.00000e+00	1.00000e+00	1.00000e+00	1.00000e+00	X	X	X	X	X	X	X	X	X	X	X	X	X	X	X	X	

B = Detector Channel
Val Type	B-AC1	B-AC2	B-AC3	B-AC4	B-AC5	B-AC6	B-AC7	B-AC8	B-AC9	B-AC10	B-AC11	B-AC12	B-AC13	B-AC14	B-AC15	B-AC16	B-DC1	B-DC2	B-DC3	B-DC4	B-DC5	B-DC6	B-DC7	B-DC8	B-DC9	B-DC10	B-DC11	B-DC12	B-DC13	B-DC14	B-DC15	B-DC16	B-Ph1	B-Ph2	B-Ph3	B-Ph4	B-Ph5	B-Ph6	B-Ph7	B-Ph8	B-Ph9	B-Ph10	B-Ph11	B-Ph12	B-Ph13	B-Ph14	B-Ph15	B-Ph16	

Term	0.00000e+00	0.00000e+00	0.00000e+00	0.00000e+00	0.00000e+00	0.00000e+00	0.00000e+00	0.00000e+00	0.00000e+00	0.00000e+00	0.00000e+00	0.00000e+00	0.00000e+00	0.00000e+00	0.00000e+00	0.00000e+00	0.00000e+00	0.00000e+00	0.00000e+00	0.00000e+00	0.00000e+00	0.00000e+00	0.00000e+00	0.00000e+00	0.00000e+00	0.00000e+00	0.00000e+00	0.00000e+00	0.00000e+00	0.00000e+00	0.00000e+00	0.00000e+00	5.86631e+01	-1.56400e+02	-1.26551e+02	-1.83880e+02	-1.09246e+02	-7.56946e+01	-1.56632e+02	-1.62015e+02	-4.97451e+01	-9.07007e+01	-1.74091e+02	-1.74047e+02	-1.85978e+02	-1.78374e+02	-8.62442e+01	-1.51155e+02	
Factor	5.26311e-05	1.61735e-04	4.04003e-05	1.79766e-01	1.77941e-06	1.50208e-06	1.73528e-01	5.90053e-02	1.98371e-06	1.52351e-06	1.02683e-01	2.97751e-02	5.44086e-02	8.92468e-03	1.82445e-06	1.29180e-02	1.91554e-06	2.01426e-06	5.61593e-07	8.71805e-02	2.19587e-08	2.21199e-08	7.97260e-02	2.86352e-02	2.18545e-08	2.20121e-08	4.81154e-02	1.39628e-02	2.54592e-02	4.34647e-03	2.18729e-08	6.10577e-03	X	X	X	X	X	X	X	X	X	X	X	X	X	X	X	X	



#DISTANCE SETTINGS
A = Detector Channel
A-1	A-2	A-3	A-4	A-5	A-6	A-7	A-8	A-9	A-10	A-11	A-12	A-13	A-14	A-15	A-16	

2.5000e+00	3.0000e+00	2.5000e+00	3.0000e+00	2.0000e+00	3.0000e+00	1.5000e+00	3.0000e+00	3.0000e+00	3.0000e+00	3.0000e+00	3.0000e+00	3.0000e+00	3.0000e+00	1.5000e+00	3.0000e+00	

B = Detector Channel
B-1	B-2	B-3	B-4	B-5	B-6	B-7	B-8	B-9	B-10	B-11	B-12	B-13	B-14	B-15	B-16	

1.0000e+01	1.0000e+01	1.0000e+01	1.4400e+00	1.0000e+01	1.0000e+01	1.5100e+00	1.9400e+00	1.0000e+01	1.0000e+01	1.9900e+00	2.4900e+00	2.4100e+00	2.9000e+00	1.0000e+01	2.9800e+00	




#DATA BEGINS
time	group	step	mark	flag	A-AC1	A-AC2	A-AC3	A-AC4	A-AC5	A-AC6	A-AC7	A-AC8	A-AC9	A-AC10	A-AC11	A-AC12	A-AC13	A-AC14	A-AC15	A-AC16	A-DC1	A-DC2	A-DC3	A-DC4	A-DC5	A-DC6	A-DC7	A-DC8	A-DC9	A-DC10	A-DC11	A-DC12	A-DC13	A-DC14	A-DC15	A-DC16	A-Ph1	A-Ph2	A-Ph3	A-Ph4	A-Ph5	A-Ph6	A-Ph7	A-Ph8	A-Ph9	A-Ph10	A-Ph11	A-Ph12	A-Ph13	A-Ph14	A-Ph15	A-Ph16	B-AC1	B-AC2	B-AC3	B-AC4	B-AC5	B-AC6	B-AC7	B-AC8	B-AC9	B-AC10	B-AC11	B-AC12	B-AC13	B-AC14	B-AC15	B-AC16	B-DC1	B-DC2	B-DC3	B-DC4	B-DC5	B-DC6	B-DC7	B-DC8	B-DC9	B-DC10	B-DC11	B-DC12	B-DC13	B-DC14	B-DC15	B-DC16	B-Ph1	B-Ph2	B-Ph3	B-Ph4	B-Ph5	B-Ph6	B-Ph7	B-Ph8	B-Ph9	B-Ph10	B-Ph11	B-Ph12	B-Ph13	B-Ph14	B-Ph15	B-Ph16	aux-1	digaux	

2287.869	1	1	0	256	0.096411	0.11877	0.30652	0.10057	0.16251	0.26745	0.037169	0.2022	0.17789	0.12941	0.0965	0.17537	0.24405	0.13013	0.033407	0.1132	-3.3104	-4.3271	-3.2625	-4.3479	-4.0813	-3.4833	-4.5167	-3.6792	-3.8792	-4.3292	-3.0271	-4.3479	-4.0375	-3.2812	-4.4042	-3.8021	27.673	106.341	206.307	-75.699	132.550	174.971	-89.146	239.164	-17.676	147.534	69.177	194.525	-39.957	108.378	7.119	-87.014	0.0011041	0.00093334	0.00046427	853.62	9.2233e-06	7.3984e-06	765.49	284.89	6.7497e-06	1.3265e-05	289.83	123.11	102.8	49.093	2.9431e-06	56.393	0.0020682	0.0020845	0.00052597	913.6	2.3888e-05	2.2674e-05	822.96	305.64	2.3848e-05	2.23e-05	325.6	133.5	125.84	52.604	2.0432e-05	61.247	6.874	-65.340	-29.064	-83.112	14.611	12.219	-85.301	-78.084	-25.282	1.418	-81.132	-76.675	-73.304	-68.040	109.513	-72.550	-8191	255	
2287.965	1	1	0	0	0.037063	0.068101	0.058714	0.034498	0.10999	0.11118	0.16231	0.16359	0.079462	0.12495	0.15127	0.14557	0.2358	0.17176	0.068719	0.063596	-3.5938	-4.3979	-3.0854	-4.1729	-4.0625	-3.3771	-4.4208	-3.875	-3.5771	-4.4333	-3.4604	-4.0396	-4.3833	-3.2479	-4.3542	-4.0417	83.342	-47.968	97.134	-63.896	202.145	201.168	198.271	47.984	-24.146	-5.743	-90.142	220.997	117.166	-68.958	-61.038	154.898	0.00060853	0.0016009	0.00029305	856.08	1.0614e-05	1.0386e-05	767.1	284.1	8.3495e-06	9.3487e-06	289.94	122.34	102.39	48.444	1.2837e-05	55.862	0.0021623	0.0020126	0.00052015	922.26	2.4416e-05	2.194e-05	823.01	307.08	2.4212e-05	2.1791e-05	323.99	134.19	125.07	52.022	2.012e-05	61.178	-7.562	-7.405	-40.578	-83.180	6.300	129.373	-85.298	-77.783	51.006	9.195	-80.949	-76.321	-72.430	-67.884	96.283	-72.954	-8191	255	
2288.061	1	1	0	0	0.31275	0.11885	0.11022	0.27579	0.080648	0.1286	0.32465	0.13239	0.12708	0.038272	0.1836	0.12174	0.098955	0.044348	0.10925	0.3868	-3.3375	-4.275	-3.2667	-3.8937	-4.2188	-3.1458	-4.4187	-3.8083	-3.3021	-4.5021	-3.3271	-3.7	-4.1937	-3.3937	-4.1667	-3.7875	45.649	94.126	43.045	263.973	114.309	247.882	208.045	-33.735	207.743	127.807	-73.777	205.577	-68.577	148.553	-60.188	217.751	0.00026232	0.0010702	0.0003288	856.61	1.6099e-05	4.5204e-06	762.84	283.06	7.7918e-06	4.3245e-06	283.84	121.35	101.1	47.92	6.5013e-06	55.354	0.0021125	0.0019725	0.00051452	931.87	2.3395e-05	2.1298e-05	815.52	306.83	2.3011e-05	2.099e-05	318.57	133.39	122.55	51.353	2.0262e-05	60.898	13.599	22.376	-41.737	-83.374	25.661	35.992	-85.718	-77.803	48.833	148.235	-80.718	-76.251	-73.028	-68.169	-72.319	-72.654	-8191	255	
2288.157	1	1	0	0	0.15738	0.18211	0.17478	0.04079	0.038643	0.055325	0.19836	0.1776	0.056442	0.22363	0.30039	0.076533	0.2186	0.077765	0.044978	0.20501	-3.0208	-4.4646	-3.6729	-3.7667	-4.3187	-3.2667	-4.2625	-4.0687	-3.0604	-4.3792	-3.8854	-3.6583	-4.4146	-3.3396	-4.0125	-4.2542	251.611	121.882	38.052	68.257	175.004	165.113	171.998	192.942	258.549	74.829	167.299	237.116	-67.214	126.183	82.827	246.667	0.00044865	0.0011242	9.2428e-05	857.75	5.6773e-06	1.1608e-05	756.56	279.91	4.7884e-06	1.4626e-06	282.46	120.11	100.56	47.671	2.2158e-05	55.367	0.0019773	0.0018844	0.00053139	937.27	2.216e-05	2.0568e-05	817.92	306.68	2.1882e-05	2.0371e-05	320.85	133.22	121.17	51.013	2.2061e-05	60.88	-3.523	-20.746	253.312	-83.071	-75.546	26.547	-85.025	-77.953	23.413	51.689	-81.200	-76.692	-72.850	-67.977	206.434	-72.580	-8191	255	
2288.251	1	1	0	0	0.049996	0.15516	0.086697	0.19942	0.23644	0.2063	0.20755	0.35846	0.092994	0.2143	0.13003	0.24838	0.11487	0.12285	0.11983	0.038594	-2.8854	-4.4479	-3.5771	-3.4604	-4.4542	-3.4354	-4.0312	-4.2583	-3.275	-4.3229	-3.6958	-3.5312	-4.4354	-3.6583	-4.1312	-4.3854	1.860	20.866	143.860	215.814	143.875	50.716	112.618	190.776	-26.814	72.292	163.553	-39.536	69.461	198.113	207.532	180.377	0.00017136	0.0017338	0.0003807	859.2	9.0137e-06	3.465e-06	756.35	279.97	1.3871e-05	1.2444e-05	280.96	120.66	101.03	47.635	1.3002e-05	55.448	0.0019215	0.0018551	0.000579	935.47	2.1569e-05	2.0252e-05	824.41	305.99	2.1365e-05	2.0187e-05	324.98	132.93	120.79	51.048	2.3797e-05	60.885	9.561	-42.913	82.736	-83.403	36.485	121.264	-85.103	-77.610	126.763	48.905	-80.879	-76.414	-72.727	-68.041	-91.921	-72.453	-8191	255	
2288.349	1	1	0	0	0.089061	0.10258	0.087536	0.13654	0.098601	0.14589	0.43497	0.030589	0.25986	0.16639	0.081235	0.080592	0.093298	0.26188	0.24562	0.24939	-2.5625	-4.0792	-3.7313	-3.5146	-4.3854	-3.3063	-3.7833	-4.5062	-3.2188	-4.0354	-3.9208	-3.4813	-4.4604	-3.5646	-3.8104	-4.6292	139.615	241.597	-74.478	-40.436	18.489	188.194	238.206	-53.451	201.468	68.072	-47.777	155.768	96.307	216.063	-73.032	200.863	0.00050682	0.00044739	4.5801e-05	858.55	1.2791e-05	1.7221e-06	758.39	281.82	1.8682e-05	6.0111e-06	284.96	121.53	100.53	47.385	1.2688e-05	55.357	0.0018825	0.0018896	0.00062239	930.72	2.1153e-05	2.0993e-05	833.16	305.17	2.0987e-05	2.1168e-05	329.73	132.61	120.05	51.068	2.4944e-05	60.432	-16.227	-16.843	86.746	-83.070	-13.958	130.605	-85.315	-77.604	64.499	-62.344	-80.658	-76.741	-73.037	-67.867	-54.628	-72.611	-8191	255	
2288.468	1	1	0	0	0.1046	0.07908	0.15577	0.17437	0.12389	0.072952	0.27601	0.1931	0.16257	0.084026	0.13195	0.11408	0.11361	0.13285	0.07483	0.2633	-2.9146	-4.0396	-4.1042	-3.3271	-4.4271	-3.6854	-3.6625	-4.6146	-3.4625	-3.7667	-4.0917	-3.3583	-4.4938	-3.8583	-3.4667	-4.5646	61.498	-5.306	136.431	209.050	147.600	4.091	235.819	195.276	189.593	-16.823	139.675	-26.605	141.889	22.494	262.727	234.231	0.00056075	0.00029228	0.00027145	860.32	5.0376e-06	8.4024e-06	756.56	277.91	3.6715e-06	5.0818e-06	275.37	118.73	99.355	46.793	2.0463e-05	54.275	0.0018427	0.0020223	0.00064572	928.02	2.0877e-05	2.2717e-05	829.85	301.03	2.0641e-05	2.3127e-05	322.95	129.99	118.66	50.79	2.4768e-05	59.095	45.041	34.237	5.221	-82.977	215.681	175.632	-85.230	-77.740	-34.996	192.727	-80.648	-76.770	-72.328	-67.967	2.030	-72.672	-8191	255	
2288.564	1	1	0	0	0.28262	0.11844	0.03955	0.27703	0.12394	0.069769	0.17173	0.11017	0.040241	0.25768	0.19822	0.14908	0.14984	0.25384	0.22936	0.23928	-3.0062	-4.0667	-4.2625	-3.0542	-4.1937	-3.7938	-3.5896	-4.4667	-3.2333	-3.7354	-4.3583	-3.2833	-4.1125	-3.825	-3.2708	-4.4187	1.165	8.352	179.827	-77.013	262.812	193.782	238.854	228.025	96.518	237.892	74.527	-74.097	-16.075	162.531	-90.149	238.592	0.00077062	0.0010462	0.00019516	856.74	6.8133e-06	1.417e-05	748.74	276.26	6.6034e-06	5.0153e-06	274.67	118	99.27	46.504	1.0358e-05	53.988	0.0018455	0.0022116	0.00062941	926.16	2.0834e-05	2.4627e-05	820.73	298.79	2.0878e-05	2.492e-05	318.53	128.76	118.85	50.912	2.3382e-05	58.827	32.323	71.523	-67.072	-82.929	143.142	193.864	-85.087	-77.646	146.555	-23.938	-80.805	-76.699	-72.425	-67.827	4.499	-72.235	-8191	255	
2288.661	1	1	0	0	0.18458	0.27436	0.17809	0.18026	0.22534	0.21977	0.19396	0.095465	0.12197	0.1088	0.3351	0.099189	0.03665	0.13017	0.010142	0.21781	-3.1396	-3.6771	-4.2458	-3.4167	-4.0125	-4.0542	-3.175	-4.4062	-3.4542	-3.8896	-4.4	-3.1958	-4.0104	-4.1625	-3.1667	-4.3083	61.088	45.262	220.134	197.182	-72.049	-89.762	143.905	105.238	-84.821	163.134	217.932	184.238	-93.827	15.516	-61.793	227.538	0.001314	0.00041712	0.00036037	861.93	2.1621e-05	9.6447e-06	752.19	275.37	5.5973e-06	4.3292e-06	273.2	117.62	98.599	46.176	1.545e-05	53.427	0.0018884	0.0023248	0.00059982	925.24	2.1804e-05	2.5607e-05	818.21	297.19	2.2107e-05	2.5706e-05	314.72	127.79	120.05	50.585	2.2633e-05	58.07	0.894	188.439	-5.569	-83.356	162.576	-1.388	-85.170	-77.466	255.293	-46.882	-80.407	-76.434	-72.780	-67.988	92.921	-72.632	-8191	255	
2288.757	1	1	0	0	0.35844	0.13776	0.10137	0.20707	0.072665	0.31879	0.15746	0.10965	0.33906	0.15	0.10774	0.13452	0.046948	0.13383	0.19042	0.038205	-3.1896	-3.4292	-4.3979	-3.4021	-3.7938	-4.1625	-3.4896	-4.4646	-3.7562	-3.425	-4.5229	-3.5458	-3.8271	-4.1646	-3.2104	-4.375	-0.586	26.145	258.371	156.584	-10.565	-9.396	163.876	148.964	41.629	235.127	230.463	-13.460	211.050	-29.919	237.528	234.916	0.0011173	0.0012121	0.00026775	866.66	3.6715e-06	9.6313e-06	750.47	273.73	2.0064e-05	2.4813e-06	270.62	116.61	97.152	45.572	2.976e-06	52.394	0.0020524	0.0023469	0.00058153	930.56	2.3891e-05	2.565e-05	815.67	295.85	2.4321e-05	2.5336e-05	312.11	126.94	122	49.846	2.232e-05	57.403	23.792	-79.441	21.948	-83.223	194.849	67.232	-85.079	-77.369	228.445	-53.830	-80.626	-76.380	-72.884	-67.833	-94.479	-72.482	-8191	255	
2288.853	1	1	0	0	0.035968	0.11254	0.039939	0.10278	0.086957	0.04804	0.14971	0.15684	0.042585	0.023188	0.32432	0.10079	0.19548	0.086645	0.25058	0.1835	-3.5687	-3.1437	-4.2188	-3.5229	-3.8771	-4.2937	-3.2687	-4.2396	-4.0563	-3.3479	-4.5167	-3.4	-3.7562	-4.5813	-3.3292	-4.2083	19.779	115.780	171.474	229.988	213.715	138.635	74.678	-48.419	-40.036	3.384	225.409	-68.660	-80.962	242.199	215.858	224.238	0.00096496	0.00067209	4.4183e-05	875.85	5.6048e-06	7.2571e-06	748.75	271.75	1.4723e-05	1.743e-05	266.54	114.71	96.455	45.252	1.8182e-05	51.44	0.0022257	0.0022514	0.00056552	939.77	2.5336e-05	2.4271e-05	811.64	294.75	2.5376e-05	2.382e-05	305.47	125.78	122.15	49.065	2.1298e-05	56.737	-0.561	-43.108	9.929	-83.221	-49.863	24.434	-85.164	-77.533	155.707	14.704	-80.520	-76.400	-72.407	-67.695	39.503	-72.132	-8191	255	
2288.949	1	1	0	0	0.11343	0.13908	0.23441	0.24624	0.28929	0.4594	0.1322	0.2436	0.059221	0.1444	0.31006	0.090255	0.40548	0.23328	0.17834	0.22748	-3.7313	-3.1083	-4.5062	-3.6542	-3.4396	-4.2917	-3.4896	-4.2812	-4.1729	-3.4479	-4.2438	-3.5667	-3.5542	-4.5104	-3.1625	-3.9583	36.347	-28.494	-84.865	159.565	190.414	-88.589	-50.477	221.727	202.190	248.396	185.987	203.072	-76.798	246.049	-86.791	158.585	0.00064798	0.0014358	0.00021922	873.11	4.8428e-06	3.8683e-06	740.55	269.91	7.9355e-06	4.0383e-06	261.22	112.73	96.55	44.373	1.6235e-05	50.669	0.002273	0.0021279	0.00054977	946.51	2.583e-05	2.3238e-05	801.81	294.64	2.5646e-05	2.293e-05	300.63	125.26	121.17	48.342	2.1133e-05	56.573	46.289	-56.585	-21.556	-83.180	-50.038	122.224	-85.229	-77.546	103.437	90.781	-80.431	-76.335	-72.038	-67.659	-12.367	-72.307	-8191	255	
2289.070	1	1	0	0	0.091858	0.064601	0.22905	0.30655	0.06624	0.15616	0.171	0.085033	0.2168	0.26723	0.10324	0.16772	0.22208	0.1474	0.037245	0.10302	-3.7646	-3.2438	-4.1729	-3.6729	-3.4354	-4.3792	-3.4896	-3.8312	-4.4313	-3.25	-4.1354	-4.0896	-3.3604	-4.4542	-3.4896	-3.7833	65.989	31.780	153.512	-43.429	43.025	121.836	11.721	178.154	80.679	120.184	175.669	230.525	92.415	258.971	226.303	144.434	0.00039643	0.0014503	0.00016705	876.94	2.4817e-05	6.993e-06	737.81	268.94	4.1797e-06	6.4757e-06	258.41	111.56	96.203	44.202	2.0513e-05	50.973	0.0022377	0.0020854	0.00054711	957.09	2.5311e-05	2.2849e-05	802.98	297.17	2.4928e-05	2.2864e-05	299.36	125.9	119.63	48.06	2.2264e-05	56.978	98.523	-52.238	238.311	-83.166	2.814	30.415	-85.430	-77.197	263.940	61.520	-80.165	-76.307	-72.237	-67.636	-91.272	-72.359	-8191	255	
2289.164	1	1	0	0	0.3306	0.13404	0.15734	0.073583	0.1795	0.13345	0.11361	0.11473	0.29001	0.2741	0.15593	0.22873	0.33936	0.19349	0.1896	0.11309	-3.9375	-3.0563	-4.0312	-4.0542	-3.3	-4.2812	-3.5167	-3.7375	-4.2292	-3.1333	-3.8812	-4.0021	-3.1063	-4.3458	-3.3875	-3.5812	157.335	-4.774	-85.363	197.652	228.422	119.398	169.441	131.182	186.003	166.490	206.757	48.319	-19.997	215.178	178.232	228.864	0.00024776	0.00046704	0.00016863	884.96	2.1196e-05	1.3855e-05	740.62	270.13	1.5395e-05	1.578e-05	257.67	111.76	95.646	44.183	1.2761e-05	50.808	0.0021822	0.0020775	0.00058508	969.86	2.4718e-05	2.2773e-05	812.67	299.48	2.4375e-05	2.2779e-05	303.95	126.69	118.84	48.037	2.444e-05	57.23	-0.979	-19.157	0.576	-82.948	15.474	56.912	-84.831	-77.740	38.245	13.625	-79.997	-76.106	-72.440	-67.628	204.601	-72.282	-8191	255	
2289.260	1	1	0	0	0.1	0.091642	0.05489	0.15526	0.1054	0.16457	0.1605	0.18548	0.17306	0.16673	0.332	0.033082	0.11223	0.16969	0.21054	0.13189	-4.1438	-3.0979	-3.9188	-4.0292	-3.3438	-4.4708	-3.5917	-3.4375	-4.3313	-3.2625	-3.8042	-4.3187	-3.2208	-4.1646	-3.6292	-3.3375	263.772	153.911	65.034	202.300	142.530	22.551	249.344	159.722	249.686	241.888	-75.664	-91.181	-81.379	-79.673	51.725	174.069	0.00054347	0.0016753	0.00044202	885.87	9.942e-06	8.6188e-06	743.4	268.41	1.3135e-05	1.2082e-05	258.2	111.36	94.845	44.1	1.4266e-05	50.579	0.0021616	0.0020857	0.00065038	973.85	2.4454e-05	2.29e-05	823.92	298.26	2.4172e-05	2.2995e-05	308.02	125.9	118.46	47.926	2.6739e-05	56.6	-12.402	-42.843	170.346	-83.129	128.508	49.074	-85.020	-77.574	26.920	-22.815	-80.692	-76.213	-71.793	-67.654	241.927	-72.129	-8191	255	
2289.356	1	1	0	0	0.30159	0.22923	0.14533	0.086064	0.060619	0.09333	0.25285	0.18306	0.12322	0.17851	0.072703	0.057028	0.10386	0.11731	0.14827	0.24432	-3.9562	-3.4146	-3.4583	-4.2688	-3.2521	-4.2688	-3.9875	-3.4813	-4.2042	-3.1312	-3.6	-4.4271	-3.2729	-4.1354	-3.9938	-3.3042	-72.774	-86.194	188.211	202.302	-29.799	83.823	157.634	-42.174	130.185	-24.517	76.679	191.992	257.010	45.342	174.739	255.906	0.00039318	0.00092438	0.00030583	883.7	1.7231e-05	1.2065e-05	736.41	266.54	1.4847e-05	1.9946e-06	254.14	110.26	95.053	43.666	7.4793e-06	50.059	0.0021257	0.0021068	0.00069785	965.69	2.3852e-05	2.3445e-05	822.77	295.34	2.3428e-05	2.348e-05	308.55	124.06	117.24	48.024	2.771e-05	55.88	62.229	68.038	191.986	-83.127	-33.559	138.393	-85.347	-77.601	45.800	-24.183	-80.215	-76.262	-72.313	-67.629	154.236	-72.229	-8191	255	
2289.452	1	1	0	0	0.05036	0.13466	0.035375	0.12571	0.11656	0.20535	0.15595	0.071563	0.05774	0.07052	0.052092	0.11215	0.19889	0.19086	0.043536	0.1096	-3.9458	-3.5646	-3.5438	-4.4646	-3.4021	-4.0188	-4.05	-3.3979	-4.2396	-3.5292	-3.5917	-4.45	-3.3729	-3.8646	-4.125	-3.2042	-26.819	174.652	260.919	224.297	-2.357	262.488	252.185	61.754	100.059	214.514	226.161	-42.392	-68.084	-91.238	244.889	206.704	0.00062512	0.0017122	8.0132e-05	880.03	9.7194e-06	1.0926e-05	741.83	266.5	1.1889e-05	7.1009e-06	257.75	111.11	94.305	43.897	2.0311e-05	50.198	0.0020481	0.0022386	0.00071052	960.17	2.3052e-05	2.488e-05	824.75	293.9	2.2796e-05	2.5308e-05	309.79	123.94	116.63	48.499	2.7359e-05	55.977	18.601	114.559	23.996	-83.086	-32.238	200.640	-85.347	-77.220	14.423	142.781	-80.510	-76.058	-72.372	-67.682	79.899	-72.264	-8191	255	
2289.549	1	1	0	0	0.10657	0.047805	0.158	0.11602	0.018216	0.14638	0.1893	0.21457	0.2811	0.068267	0.10825	0.13499	0.039136	0.17635	0.15701	0.13697	-3.9542	-3.6042	-3.2125	-4.6125	-3.3167	-3.8521	-4.5	-3.4542	-4.125	-3.725	-3.4146	-4.4625	-3.4375	-3.6771	-4.3583	-3.3063	91.427	-40.297	5.255	176.417	-30.370	-46.370	199.224	256.297	88.566	192.633	157.178	-12.718	28.670	264.352	89.945	184.394	0.00047036	0.0013031	0.0001255	880.33	9.4265e-06	1.1962e-05	742.9	267.69	1.0003e-05	8.7985e-06	257.93	111.05	94.692	43.827	1.6129e-05	50.166	0.0020311	0.0024419	0.00069663	958.6	2.2996e-05	2.7152e-05	824.12	293.92	2.306e-05	2.745e-05	308.71	123.69	117.17	48.811	2.6161e-05	55.739	19.408	141.482	221.248	-83.286	105.271	137.594	-85.139	-77.317	110.053	199.420	-80.546	-76.075	-72.434	-67.462	14.714	-72.071	-8191	255	
2289.645	1	1	0	0	0.18529	0.054902	0.032286	0.22368	0.092525	0.1159	0.37101	0.09049	0.11487	0.20067	0.2245	0.11256	0.18178	0.14639	0.053047	0.27013	-3.5187	-3.9292	-3.4021	-4.4417	-3.4958	-3.7625	-4.4437	-3.3125	-4.1021	-4.1083	-3.3542	-4.35	-3.575	-3.6562	-4.4979	-3.3625	172.635	197.025	261.205	146.518	151.251	110.953	181.113	-18.791	147.392	226.740	-94.546	169.491	92.094	7.916	48.776	237.017	0.0011388	0.0015964	0.0005385	888.34	8.361e-06	1.7343e-06	743.33	267.42	6.9025e-06	6.3664e-06	254.99	109.8	94.032	43.276	1.8622e-05	49.433	0.0021094	0.0025831	0.00066385	959.59	2.4224e-05	2.852e-05	821.64	292.38	2.4756e-05	2.8809e-05	303.51	122.26	119.25	48.424	2.5526e-05	54.914	-7.420	113.918	-18.805	-82.975	168.480	-94.526	-85.100	-77.439	15.098	-36.773	-80.441	-76.098	-72.451	-67.595	29.266	-72.318	-8191	255	
2289.741	1	1	0	0	0.074743	0.22409	0.072791	0.1403	0.20686	0.10874	0.25411	0.10527	0.20829	0.15321	0.26171	0.16923	0.022216	0.16629	0.12005	0.081654	-3.6479	-4.1542	-3.1188	-4.5167	-3.7167	-3.5667	-4.5708	-3.4458	-4.0354	-4.075	-3.0125	-4.2458	-3.7354	-3.5208	-4.3917	-3.2812	215.186	57.519	-18.838	117.027	-68.875	210.027	209.159	-31.218	165.023	-71.192	-93.082	64.041	116.192	252.258	69.355	172.166	0.00097616	0.0006347	0.00019442	883.11	1.7189e-06	2.6749e-05	736.49	262.89	1.2612e-05	1.8326e-05	253.27	109.21	93.31	43.16	9.6836e-06	49.109	0.0023013	0.0026252	0.00065085	956.32	2.673e-05	2.8621e-05	809.99	289.39	2.6927e-05	2.7834e-05	299.33	121.22	120.91	48.169	2.4584e-05	54.619	19.969	-54.819	256.952	-82.960	19.424	45.675	-85.337	-77.274	207.596	43.897	-80.605	-75.784	-71.982	-67.730	83.186	-72.137	-8191	255	
2289.862	1	1	0	0	0.10324	0.075872	0.067569	0.27104	0.10995	0.096747	0.20395	0.19648	0.19661	0.15265	0.093426	0.080809	0.13557	0.07663	0.16261	0.20916	-3.4813	-4.2333	-3.0646	-4.1167	-3.7167	-3.1521	-4.3562	-3.6833	-3.5875	-4.2896	-3.2896	-4.2917	-3.9167	-3.2313	-4.4313	-3.725	111.943	144.645	171.686	226.600	-27.948	172.935	183.544	149.631	-72.321	261.320	80.693	213.729	163.406	217.386	205.682	6.674	0.0010829	0.00037624	0.00048094	881.23	4.4567e-06	1.2095e-05	738.96	264.99	3.5039e-06	1.902e-05	252.82	109.25	93.801	43.343	2.616e-06	49.303	0.0024478	0.0024879	0.00062607	956.91	2.8114e-05	2.7033e-05	810.99	290.74	2.8373e-05	2.6634e-05	298.68	122.3	122.79	47.993	2.4134e-05	55.22	22.311	251.557	-10.666	-82.967	263.453	-18.482	-84.852	-77.426	-50.240	28.772	-79.898	-75.944	-72.497	-67.298	253.512	-72.249	-8191	255	
2289.958	1	1	0	0	0.10778	0.14814	0.13796	0.16464	0.11853	0.10825	0.032831	0.26004	0.16365	0.13408	0.019512	0.22201	0.071521	0.13516	0.26582	0.22156	-3.1188	-4.1479	-3.0583	-4.0813	-4.1604	-3.3854	-4.2937	-3.5167	-3.5854	-4.3542	-3.2771	-4.0125	-4.075	-3.1188	-4.2208	-3.525	-8.658	158.550	194.021	-91.265	170.357	112.243	84.756	213.219	70.649	0.665	193.917	155.451	102.245	145.037	74.190	246.752	0.00072258	0.0025646	0.00029159	880.95	2.3393e-05	8.0857e-06	738.14	265.35	1.7128e-05	4.1617e-06	256.57	109.36	93.951	43.594	2.1297e-05	49.492	0.0025531	0.0024089	0.00061741	965.41	2.8935e-05	2.5946e-05	810.85	294.32	2.8737e-05	2.5726e-05	299.36	123.94	122.84	47.882	2.399e-05	56.075	22.777	-85.082	-7.621	-83.053	11.893	15.262	-85.168	-77.517	26.289	34.604	-80.327	-75.896	-72.352	-67.362	50.775	-72.083	-8191	255	
2290.029	1	1	0	0	0.054403	0.083252	0.23944	0.21066	0.091489	0.099047	0.079586	0.20344	0.18787	0.27113	0.26738	0.15622	0.18369	0.052981	0.064551	0.065501	-2.875	-4.4625	-3.3688	-4	-4.3438	-3.2333	-4.4104	-3.9583	-3.2542	-4.3417	-3.3438	-3.875	-4.3063	-3.1667	-4.1438	-3.7729	166.300	104.456	262.723	-69.104	22.065	-70.557	80.189	187.624	247.530	12.735	235.101	192.286	-30.091	218.521	255.987	234.744	0.00049967	0.00088262	2.1346e-05	882.98	1.0468e-05	4.1479e-06	741.05	265.05	2.8042e-05	1.2274e-05	255.16	109.53	94.292	43.439	4.7375e-06	49.44	0.0025084	0.0023458	0.00061708	975.23	2.8383e-05	2.5762e-05	814.43	297.42	2.8013e-05	2.5314e-05	300.64	125.77	121.32	47.762	2.4384e-05	56.609	-2.333	239.800	229.104	-82.791	-45.467	68.210	-84.948	-77.343	85.843	49.861	-80.421	-75.690	-72.341	-67.730	114.590	-72.281	-8191	255	
2290.150	1	1	0	0	0.052279	0.059429	0.12666	0.13613	0.13645	0.15232	0.12813	0.17004	0.081597	0.4123	0.10907	0.1023	0.15625	0.269	0.071418	0.10001	-2.9437	-4.3562	-3.5792	-3.9354	-4.3792	-3.2208	-4.1479	-3.8896	-3.1021	-4.4604	-3.7479	-3.7438	-4.2688	-3.1542	-3.8542	-3.9417	87.985	251.207	28.994	232.448	158.171	-59.241	229.933	-47.193	176.523	42.749	261.990	103.901	69.527	254.555	16.281	129.204	0.0004294	0.00030743	0.00013312	883.51	4.9813e-06	6.0979e-06	738.23	265.71	1.2004e-05	6.9321e-06	253.89	108.88	94.486	43.451	1.5355e-05	49.399	0.0023873	0.0022813	0.0006328	980.23	2.6736e-05	2.4751e-05	814.2	297.97	2.6236e-05	2.4242e-05	301.76	125.35	119.64	47.501	2.5859e-05	56.349	-0.776	-54.030	192.918	-83.015	-72.868	14.712	-85.073	-77.269	32.015	217.134	-80.957	-76.177	-72.577	-67.637	227.967	-72.061	-8191	255	
2290.244	1	1	0	0	0.21458	0.012182	0.20929	0.024566	0.14844	0.20179	0.097284	0.1579	0.15409	0.094395	0.097388	0.14406	0.10427	0.1693	0.061949	0.13487	-2.7771	-4.3396	-3.5438	-3.7104	-4.2688	-3.3333	-3.9875	-4.2229	-3.1792	-4.3708	-3.7771	-3.5062	-4.3313	-3.3104	-3.8542	-4.3958	145.173	97.066	90.639	254.561	196.328	194.133	-82.332	262.928	217.776	68.564	224.912	240.925	225.845	168.489	227.771	250.465	0.00064446	0.001321	0.00029259	883.28	1.1062e-05	7.4173e-06	737.61	264.66	8.8456e-06	5.2336e-06	253.65	109.03	93.575	43.297	4.5956e-06	49.384	0.0022476	0.0021935	0.00067525	976.24	2.5424e-05	2.3876e-05	821.39	296.33	2.5231e-05	2.3834e-05	305.95	124.56	118.49	47.374	2.7697e-05	56.031	57.733	-70.364	173.697	-83.014	-56.944	199.129	-85.182	-77.389	6.418	166.147	-80.718	-75.900	-71.999	-67.360	195.368	-71.809	-8191	255	
2290.341	1	1	0	0	0.10245	0.2336	0.16054	0.37226	0.17061	0.13288	0.17669	0.12554	0.154	0.14668	0.17842	0.30286	0.32171	0.15585	0.079274	0.13213	-2.9813	-4.2354	-3.7167	-3.3521	-4.2312	-3.5021	-3.9521	-4.5521	-3.3875	-4.3208	-4.1125	-3.4021	-4.2958	-3.7083	-3.8958	-4.5958	253.901	249.193	3.240	-83.665	72.224	-61.897	202.808	-14.514	-91.252	226.411	-79.844	175.413	-9.401	221.985	127.171	162.350	0.00033864	0.0007419	0.00018809	882.31	1.5078e-06	1.0594e-05	739.94	265.9	4.4835e-06	6.9216e-06	255.26	110.21	93.988	43.236	2.0971e-06	49.545	0.0021704	0.0021942	0.00072465	971.05	2.4676e-05	2.4257e-05	830.05	295.01	2.4415e-05	2.4448e-05	310.1	124.29	117.67	47.533	2.8651e-05	55.737	85.072	110.596	93.968	-82.933	251.322	101.790	-85.285	-77.438	33.291	-92.241	-80.359	-76.017	-71.847	-67.550	256.689	-71.665	-8191	255	
2290.461	1	1	0	0	0.12443	0.16829	0.091832	0.024039	0.063534	0.17404	0.32076	0.16454	0.16754	0.10492	0.078603	0.18847	0.052131	0.086511	0.18514	0.23396	-2.5708	-4.0271	-4.1208	-3.3979	-4.3146	-3.5292	-3.5	-4.4646	-3.3167	-4.0917	-4.1417	-3.2667	-4.2125	-3.7979	-3.6542	-4.5563	30.210	207.993	156.139	53.653	-29.345	-8.685	-85.315	-38.473	235.016	104.898	-92.462	229.961	256.429	-75.817	251.094	153.407	0.00026435	0.00079062	0.00032943	884.21	7.7185e-06	3.3326e-06	750.06	266.94	1.9876e-05	6.0874e-06	257.29	109.63	94.103	42.979	7.4445e-06	49.411	0.0021005	0.002308	0.00073736	967.09	2.3686e-05	2.5776e-05	835.53	294.55	2.3647e-05	2.6285e-05	312.08	123.36	116.76	47.885	2.8094e-05	55.297	32.236	106.335	72.601	-82.824	153.713	164.845	-84.976	-77.298	-16.731	120.856	-80.382	-76.139	-72.389	-67.858	93.321	-72.304	-8191	255	
2290.557	1	1	0	0	0.073269	0.067841	0.060855	0.097894	0.29088	0.035561	0.10751	0.11571	0.038027	0.078227	0.10668	0.028906	0.14965	0.16413	0.17946	0.26315	-2.8104	-3.6458	-4.15	-3.2146	-4.3375	-3.7958	-3.3333	-4.4062	-3.5354	-4.0104	-4.4708	-3.1813	-4.0833	-3.9479	-3.2938	-4.5792	196.071	154.852	24.757	-77.599	255.413	243.323	223.457	211.849	154.540	15.570	31.669	212.057	182.164	164.919	243.639	213.118	0.00032771	0.0017179	0.00042264	888.24	8.9642e-06	1.152e-05	739.78	265.46	4.0654e-06	1.3384e-05	254.01	108.41	93.458	42.937	1.368e-05	49.155	0.0020639	0.0024996	0.0007173	963.43	2.3432e-05	2.7644e-05	825.67	291.71	2.3329e-05	2.7682e-05	304.64	121.57	116.12	47.883	2.633e-05	54.576	-15.109	119.469	-22.625	-83.179	237.886	116.642	-85.316	-77.553	181.621	183.404	-80.700	-76.069	-72.060	-67.341	-11.388	-72.089	-8191	255	
2290.629	1	1	0	0	0.057473	0.10015	0.12004	0.29244	0.10863	0.40296	0.085637	0.17496	0.16392	0.13214	0.15025	0.13275	0.25332	0.22057	0.19736	0.19966	-3.0458	-3.5938	-4.35	-3.325	-3.9313	-4.0896	-3.3958	-4.5604	-3.5583	-3.6625	-4.5542	-3.4521	-3.925	-4.2312	-3.1813	-4.3646	212.342	217.518	208.236	234.646	158.525	77.065	114.087	174.241	113.510	39.317	-84.233	178.785	-65.801	248.372	183.838	96.164	0.00072829	0.00058457	0.00049015	885.02	1.1056e-05	4.8331e-06	743.3	263.81	7.0199e-06	3.5013e-06	253.99	109.26	92.886	43.121	1.3525e-05	48.903	0.0020872	0.0025877	0.00066973	959.8	2.4189e-05	2.8488e-05	819.33	290.21	2.4574e-05	2.8591e-05	302.11	121.23	118.12	48.083	2.5103e-05	54.393	-16.158	-36.489	-32.695	-83.342	221.223	61.220	-85.051	-77.620	-40.521	235.135	-80.002	-76.027	-72.441	-67.608	61.786	-72.121	-8191	255	
2290.750	1	1	0	0	0.22068	0.095577	0.44512	0.26085	0.10328	0.049101	0.075697	0.21445	0.17178	0.089768	0.30667	0.16758	0.1581	0.061844	0.35529	0.20121	-3.1375	-3.4854	-4.4521	-3.2208	-3.8125	-4.2833	-3.2021	-4.2771	-3.6917	-3.6417	-4.4083	-3.3771	-3.7667	-4.2417	-3.1792	-4.3396	228.633	218.343	-48.935	-80.780	21.777	-32.583	-91.814	200.655	94.532	-0.796	243.301	45.210	195.219	187.641	154.607	257.845	0.00076154	0.0011415	0.00041741	883.81	2.6379e-05	1.644e-05	741.04	266.61	1.8639e-05	6.7589e-06	255.52	109.15	93.446	43.017	1.1302e-05	49.097	0.0022482	0.0025813	0.00064235	956.35	2.6014e-05	2.8298e-05	818.24	290.39	2.6514e-05	2.7778e-05	302.11	121.25	120.78	47.833	2.4551e-05	54.557	20.993	-9.305	-26.388	-83.109	145.462	38.114	-85.119	-77.440	224.444	31.670	-80.019	-76.065	-72.305	-67.404	-51.218	-72.088	-8191	255	
2290.846	1	1	0	0	0.21162	0.10088	0.043734	0.12465	0.22839	0.13852	0.36062	0.20009	0.14268	0.2757	0.32439	0.22969	0.15972	0.25106	0.12004	0.16197	-3.4833	-3.45	-4.3917	-3.4375	-3.5625	-4.0458	-3.2021	-4.5354	-3.9917	-3.2729	-4.4208	-3.6937	-3.6042	-4.5333	-3.2625	-4.2104	57.040	196.328	183.117	226.498	79.801	210.782	229.321	205.014	103.933	102.645	-80.184	-91.569	16.921	230.568	-12.668	-48.581	0.0007997	0.00068786	0.00028096	890.79	1.4363e-05	9.5236e-06	743.31	263.61	2.8244e-06	1.4626e-05	252.27	109.08	93.355	42.746	9.083e-06	49.24	0.0024568	0.0024994	0.00063597	961.04	2.8446e-05	2.742e-05	818.22	290.43	2.8648e-05	2.7104e-05	300.22	122.25	122.63	47.473	2.4205e-05	54.959	5.276	-64.113	-49.833	-82.976	162.300	46.146	-85.240	-77.179	180.329	7.093	-80.251	-76.209	-72.361	-67.534	-46.938	-72.247	-8191	255	
2290.942	1	1	0	0	0.11826	0.14236	0.1574	0.24666	0.22059	0.055594	0.23114	0.22574	0.44577	0.10649	0.12985	0.057202	0.11317	0.16767	0.17586	0.39669	-3.6771	-3.3021	-4.3187	-3.6396	-3.5938	-4.4333	-3.4958	-4.0604	-3.8625	-3.2188	-4.2292	-3.6	-3.4833	-4.4792	-3.2333	-3.9479	241.947	-12.259	223.648	-45.901	218.671	239.894	247.319	187.188	225.370	145.360	211.473	1.857	-51.152	220.041	-79.408	245.338	0.00062924	0.001617	0.00014031	882.18	8.4826e-06	1.2959e-05	741.67	263.98	7.4687e-06	1.0267e-05	254.33	107.76	93.798	42.712	4.5332e-06	48.517	0.0025539	0.0023887	0.00061824	964.22	2.8898e-05	2.5844e-05	809.63	292.55	2.8271e-05	2.5254e-05	296.37	122.36	121.21	47.099	2.3219e-05	54.969	-0.213	-5.874	20.272	-82.931	59.358	94.060	-85.178	-77.718	-12.891	4.253	-80.324	-75.937	-72.360	-67.415	57.653	-72.172	-8191	255	
2291.038	1	1	0	0	0.031118	0.26993	0.25724	0.089069	0.28649	0.088398	0.16625	0.099844	0.095301	0.2204	0.1896	0.093926	0.33206	0.0070278	0.43761	0.22483	-3.8229	-3.1583	-4.3938	-3.6521	-3.3937	-4.4	-3.3604	-3.9292	-4.2292	-3.3438	-4.1854	-3.7833	-3.2646	-4.4354	-3.4667	-3.7938	-1.630	21.791	20.900	183.579	47.397	67.335	166.141	0.909	194.941	181.979	193.476	249.291	153.414	-50.503	55.272	215.547	0.00058593	0.00078933	0.00022176	882.55	1.0655e-05	8.3543e-06	731.99	262.45	2.866e-05	9.3253e-06	248.89	106.9	92.438	42.642	1.0992e-06	48.222	0.0024554	0.0022648	0.00059956	970.79	2.7536e-05	2.4857e-05	804.89	293.86	2.7144e-05	2.4745e-05	294.65	122.66	119.44	46.688	2.3654e-05	55.129	-23.103	5.137	70.306	-83.076	14.197	22.243	-85.013	-77.680	44.919	54.825	-79.928	-76.183	-72.056	-67.280	151.198	-72.223	-8191	255	
2291.157	1	1	0	0	0.07771	0.14993	0.053072	0.27906	0.12765	0.25311	0.13903	0.26985	0.13904	0.12015	0.11521	0.18433	0.28184	0.14046	0.17133	0.13879	-3.8479	-2.9792	-4.3146	-4.0979	-3.5229	-4.4396	-3.725	-3.7062	-4.4354	-3.3771	-4.0938	-4.1583	-3.225	-4.3229	-3.4854	-3.7146	163.060	-32.691	43.477	220.904	86.022	-72.238	254.480	-89.386	30.550	83.817	177.597	83.653	61.292	131.705	-94.250	-44.261	0.00056344	0.00018794	0.00047966	882.36	9.9089e-06	7.3176e-06	736.81	263.57	2.3418e-05	1.1943e-05	251.42	107.62	93.425	42.539	6.6906e-06	48.468	0.0023449	0.002217	0.0006223	973.28	2.6217e-05	2.4073e-05	810.22	295.02	2.5318e-05	2.3776e-05	298.45	123.32	117.25	46.559	2.5093e-05	55.289	29.166	-83.478	106.687	-83.125	-39.698	40.907	-85.246	-77.247	62.162	45.244	-80.153	-76.057	-72.162	-67.597	144.691	-71.923	-8191	255	
2291.253	1	1	0	0	0.18213	0.26981	0.1063	0.21343	0.16755	0.15136	0.25135	0.1854	0.1594	0.091879	0.14832	0.2314	0.074659	0.17925	0.053755	0.13185	-4.0958	-3.2542	-3.9354	-4.1813	-3.2146	-4.2833	-3.8187	-3.7687	-4.4875	-3.3333	-3.8542	-4.2896	-3.0146	-4.2229	-3.8354	-3.4708	153.429	183.467	27.304	255.110	90.301	-81.870	162.358	206.110	-71.042	256.245	255.603	80.988	183.590	242.359	-65.733	102.189	0.00058025	0.00017537	0.00010199	883.57	3.9827e-06	1.4182e-06	737.52	263.95	8.204e-06	4.3713e-06	252.34	108.13	92.203	42.37	1.5445e-05	48.614	0.0022142	0.0021242	0.00065953	974.42	2.4984e-05	2.3294e-05	819.73	294.89	2.459e-05	2.3148e-05	304.21	122.85	116.17	46.352	2.7192e-05	55.067	36.629	153.888	97.070	-82.942	36.174	-70.460	-85.238	-77.344	47.676	-18.127	-80.139	-75.989	-72.248	-67.546	202.572	-72.196	-8191	255	
2291.325	1	1	0	0	0.33172	0.14945	0.095356	0.26866	0.085129	0.029723	0.13779	0.18049	0.064598	0.19269	0.25302	0.22561	0.28278	0.29388	0.16888	0.20332	-4.0458	-3.2104	-4	-4.3292	-3.1521	-4.2354	-4.0875	-3.5167	-4.4771	-3.3271	-3.625	-4.425	-3.3396	-4.1	-3.9562	-3.2896	158.625	154.287	102.026	195.295	22.065	-46.421	-24.567	-82.697	-78.382	62.417	-84.353	256.121	166.345	-54.178	-51.580	221.878	0.00044473	0.0012883	0.00019768	885.83	6.0016e-06	2.9463e-06	735.21	262.77	8.2909e-07	4.5326e-06	248.6	106.37	91.567	41.955	1.2527e-05	47.866	0.0021634	0.002126	0.00070821	972.69	2.4052e-05	2.3767e-05	823.6	291.2	2.3899e-05	2.3862e-05	302.98	120.49	114.65	46.268	2.8135e-05	53.78	51.178	-21.390	209.783	-82.975	-94.333	134.338	-85.324	-77.123	-3.387	175.834	-80.341	-76.024	-72.181	-67.261	204.892	-71.936	-8191	255	
2291.423	1	1	0	0	0.1653	0.093639	0.15289	0.25945	0.11805	0.13585	0.34102	0.1883	0.0443	0.079283	0.031426	0.059711	0.10034	0.41097	0.11855	0.24276	-3.9813	-3.6292	-3.4292	-4.3625	-3.3271	-4.0083	-4.1937	-3.1896	-4.3063	-3.625	-3.5354	-4.325	-3.2458	-4.0021	-4.3146	-3.4333	79.734	46.956	-11.663	229.894	129.632	161.820	-15.713	191.841	-28.324	180.527	-17.046	-95.022	148.616	-66.314	200.351	229.116	0.00046372	0.001107	0.00023951	884.98	7.0957e-06	9.4864e-06	733.12	260.48	6.7391e-06	1.4417e-05	246.19	104.89	90.944	41.75	7.3777e-06	47.46	0.0020746	0.0022438	0.00072082	963.88	2.3306e-05	2.5118e-05	820.48	287.99	2.3087e-05	2.5668e-05	300.58	118.66	113.42	46.4	2.7403e-05	53.253	7.393	73.165	70.091	-83.026	13.935	224.046	-85.213	-77.378	176.881	179.240	-80.554	-76.037	-72.331	-67.439	32.833	-72.122	-8191	255	
2291.542	1	1	0	0	0.14198	0.096417	0.2708	0.17097	0.17714	0.20731	0.12218	0.15288	0.12143	0.039966	0.25862	0.05165	0.20759	0.19492	0.22846	0.14192	-3.8354	-3.6958	-3.4521	-4.65	-3.3167	-3.9292	-4.3521	-3.1958	-4.125	-3.8896	-3.5271	-4.525	-3.3563	-3.7125	-4.1458	-3.3812	-75.527	31.972	-40.095	-76.515	-50.751	178.315	55.701	180.314	4.415	63.881	-75.932	-73.819	226.296	231.793	-88.781	-39.711	0.00028469	0.00081517	0.00012415	884.31	2.904e-06	3.8775e-06	738.46	260.66	1.3525e-05	1.3177e-05	246.88	105.01	90.995	41.616	7.5124e-06	47.629	0.0020265	0.0024199	0.00069855	962.92	2.2983e-05	2.7101e-05	819.29	287.6	2.2903e-05	2.7423e-05	297.9	118.36	113.61	46.674	2.6408e-05	53.131	28.131	191.805	50.441	-82.967	57.648	-61.138	-85.130	-77.218	-53.027	198.890	-80.257	-75.861	-72.023	-67.599	-70.907	-72.041	-8191	255	
2291.638	1	1	0	0	0.18601	0.19352	0.06768	0.19688	0.047963	0.14451	0.22812	0.40549	0.15554	0.062941	0.35129	0.060616	0.18031	0.15453	0.12902	0.34779	-3.9042	-3.8646	-3.25	-4.6104	-3.4938	-3.5917	-4.3438	-3.0979	-4.1312	-4.0333	-3.4125	-4.3938	-3.6479	-3.7042	-4.4563	-3.2542	-44.022	144.213	145.226	209.823	86.618	231.643	141.569	211.807	-30.507	-69.438	134.377	-92.506	242.861	245.006	37.807	166.862	0.00054858	0.00039635	8.7051e-05	886.74	1.5078e-05	6.6759e-06	737.17	260.73	3.9229e-06	7.4706e-06	248.5	104.76	91.377	41.705	2.8157e-05	47.618	0.0020876	0.0025897	0.00066639	962.82	2.4096e-05	2.8591e-05	817.96	285.9	2.4522e-05	2.8777e-05	296.45	117.91	116.15	46.847	2.5573e-05	53.034	-4.711	139.361	196.915	-82.998	162.784	180.509	-84.951	-77.412	-45.428	44.926	-80.136	-75.715	-72.306	-67.407	-2.135	-71.882	-8191	255	
2291.734	1	1	0	0	0.16097	0.18148	0.111	0.25462	0.13125	0.18339	0.15202	0.15568	0.0853	0.15479	0.21778	0.11792	0.22849	0.10747	0.19039	0.03578	-3.6375	-3.9792	-3.1417	-4.3229	-3.4375	-3.4729	-4.4187	-3.4437	-3.7667	-3.9958	-3.2292	-4.3375	-3.9208	-3.5146	-4.3688	-3.6208	138.718	-28.799	245.570	220.841	219.451	162.628	34.343	217.656	38.496	-90.107	-70.110	31.404	200.691	-60.290	166.621	246.878	0.00072498	0.0014619	0.00019099	889.84	1.1358e-05	1.1223e-05	740.06	259.42	1.4791e-05	1.0483e-05	244.83	104.23	90.672	41.74	1.1405e-05	47.262	0.0022925	0.0026315	0.00064959	962.28	2.6429e-05	2.8546e-05	813.97	284.82	2.663e-05	2.79e-05	292.31	117.14	118.16	46.457	2.4801e-05	52.743	1.906	-56.144	-31.546	-83.213	171.230	50.698	-85.205	-77.293	229.606	-24.124	-80.340	-76.065	-71.823	-67.273	95.624	-72.166	-8191	255	
2291.830	1	1	0	0	0.048174	0.089738	0.057865	0.16284	0.13756	0.09684	0.063035	0.069046	0.15439	0.13948	0.22743	0.20692	0.041683	0.18523	0.034817	0.12562	-3.4042	-4.2292	-3.2792	-4.1271	-3.8625	-3.5708	-4.3938	-3.2438	-3.775	-4.3604	-3.2687	-4.0479	-3.9	-3.4333	-4.4187	-3.6688	56.515	93.623	264.031	194.718	66.542	-83.845	196.988	166.388	6.791	-3.703	153.121	-57.021	216.605	193.179	-37.287	90.667	0.00074576	0.0027201	0.00025703	883.7	8.6738e-06	3.4585e-06	730.06	258.11	1.4745e-05	1.6361e-05	245.74	104.17	89.354	41.64	9.7295e-06	47.012	0.0024527	0.0025128	0.00062659	958.02	2.8266e-05	2.7241e-05	804.25	284.79	2.8498e-05	2.6745e-05	290.32	117.72	119.91	46.244	2.4209e-05	53.074	6.737	-44.531	11.381	-82.939	-34.646	238.954	-85.161	-77.435	115.215	18.388	-80.421	-75.695	-72.042	-67.206	-45.404	-72.015	-8191	255	
2291.926	1	1	0	0	0.15469	0.14299	0.10422	0.17281	0.096212	0.13343	0.19184	0.23432	0.054734	0.15593	0.19601	0.23946	0.11538	0.30628	0.16274	0.060257	-3.4042	-4.2125	-3.0917	-3.9938	-4.0646	-3.1979	-4.3875	-3.9083	-3.65	-4.2438	-3.3187	-4.0792	-4.1792	-3.2042	-4.2667	-3.5646	65.540	-38.619	-8.037	255.050	141.762	-25.983	158.081	216.060	176.168	39.472	188.208	240.859	177.896	245.479	212.765	78.123	0.000755	0.00048151	0.00020756	883.02	1.2843e-05	3.9317e-06	730.92	258.68	1.5903e-05	1.0012e-05	242.96	104.67	91.318	41.751	8.6574e-06	47.229	0.0025522	0.0024186	0.00061777	965.85	2.9214e-05	2.6338e-05	804.16	288.05	2.8809e-05	2.5841e-05	289.64	119.42	120.01	46.168	2.3918e-05	53.884	17.970	-6.746	171.495	-82.988	104.790	54.901	-85.106	-77.342	27.082	25.774	-79.883	-76.191	-72.555	-67.519	33.965	-72.085	-8191	255	
2292.022	1	1	0	0	0.097856	0.039082	0.27243	0.05817	0.044449	0.16265	0.13751	0.15697	0.17449	0.099331	0.17311	0.24826	0.033626	0.26835	0.11837	0.087561	-3.15	-4.5333	-3.3146	-3.8688	-4.1375	-3.1167	-4.3625	-3.8417	-3.3	-4.3208	-3.5896	-3.9375	-4.3313	-3.2354	-4.1813	-4.0958	224.071	137.320	98.940	264.311	53.212	222.386	53.857	111.789	229.898	234.937	128.394	249.053	209.055	221.730	-73.090	139.224	0.0005391	0.0010117	0.00027042	881.06	1.4245e-05	7.9597e-06	732.55	258.22	2.5789e-05	1.0877e-05	245.01	104.71	91.697	41.757	4.7081e-06	47.619	0.0025349	0.0023618	0.00061461	973.17	2.8731e-05	2.5709e-05	804.6	290.69	2.8267e-05	2.5566e-05	291.17	121.34	119.24	46.211	2.469e-05	54.867	72.736	-5.748	170.354	-82.879	-12.548	31.229	-85.003	-77.404	33.565	85.765	-80.376	-75.850	-72.394	-67.544	40.340	-72.431	-8191	255	
2292.143	1	1	0	0	0.2889	0.083154	0.21352	0.30764	0.085206	0.20597	0.18672	0.16453	0.050195	0.26616	0.24811	0.26475	0.14418	0.19839	0.12922	0.035188	-2.9125	-4.2188	-3.4083	-3.9896	-4.2625	-3.3063	-3.9688	-3.8646	-3.2042	-4.325	-3.6167	-3.6813	-4.2896	-3.2958	-3.9646	-4.2	194.265	181.567	53.549	231.278	-37.645	253.231	203.348	183.539	13.935	128.957	120.037	-37.289	113.567	48.538	-30.535	228.263	0.00078727	0.00070651	0.00033695	877.35	1.4412e-05	1.656e-05	731.98	259.55	1.5223e-06	1.4328e-05	248.32	106.31	91.649	42.158	4.1226e-06	47.874	0.0024057	0.0023063	0.00063438	977.57	2.7056e-05	2.4821e-05	810.99	293.34	2.6493e-05	2.4546e-05	296.22	122.34	117.22	46.235	2.6176e-05	54.813	47.414	-12.405	146.215	-82.987	26.375	17.047	-85.327	-77.479	159.031	-21.852	-80.268	-76.254	-72.211	-67.531	178.445	-72.213	-8191	255	
2292.237	1	1	0	0	0.14656	0.02422	0.25048	0.24271	0.12497	0.098139	0.39341	0.23153	0.18448	0.1348	0.16147	0.16934	0.1217	0.11018	0.22711	0.14137	-2.8396	-4.4187	-3.5604	-3.5708	-4.525	-3.3542	-4.0333	-4.15	-3.1396	-4.4354	-3.8354	-3.4042	-4.4229	-3.2625	-3.9313	-4.3625	175.776	6.324	-84.830	-59.214	-41.922	133.109	245.593	255.807	151.469	-82.129	130.287	29.646	173.277	259.645	49.970	117.079	0.00037457	0.00054263	0.00033842	876.01	6.1344e-06	9.2733e-06	729.93	257.54	6.6993e-06	5.3404e-06	244.16	104.91	91.17	41.55	5.3001e-06	47.19	0.0022813	0.0022192	0.00068263	970.82	2.5953e-05	2.4135e-05	812.85	290.22	2.5588e-05	2.414e-05	298	120.69	116.19	45.92	2.8447e-05	54.042	44.773	241.065	150.646	-83.102	-1.018	-8.970	-85.067	-77.508	4.486	111.942	-80.153	-75.592	-72.288	-67.258	54.921	-72.048	-8191	255	
2292.333	1	1	0	0	0.29308	0.10883	0.061126	0.15452	0.20933	0.052764	0.15537	0.19391	0.2149	0.24296	0.12034	0.075032	0.040322	0.3279	0.044708	0.35602	-2.9167	-4.15	-3.6479	-3.4417	-4.4917	-3.4313	-3.8958	-4.1167	-3.3896	-4.1917	-3.8958	-3.4	-4.4667	-3.6917	-3.6208	-4.45	208.715	-57.244	255.624	-87.666	24.148	239.916	-53.515	56.760	-59.183	205.490	261.957	-1.323	-90.970	225.408	-25.067	213.493	0.00041932	0.00048632	0.00028458	877.07	4.98e-06	3.0106e-06	729.64	258.1	1.2709e-06	9.313e-06	244.49	104.67	90.784	41.778	1.2207e-05	47.35	0.0022435	0.0022474	0.00074234	965.23	2.5397e-05	2.473e-05	819.83	288.54	2.4912e-05	2.4873e-05	302.19	119.61	115.08	46.129	2.9495e-05	53.82	26.469	-7.778	178.462	-82.981	-18.754	243.980	-85.309	-77.337	67.210	255.946	-80.562	-76.054	-72.286	-67.570	83.795	-72.001	-8191	255	
2292.430	1	1	0	0	0.12199	0.2054	0.07853	0.4496	0.11624	0.063739	0.12956	0.1726	0.15333	0.17053	0.18653	0.13708	0.15194	0.20003	0.087844	0.06019	-2.8229	-4.0125	-3.975	-3.2208	-4.3667	-3.6583	-3.6458	-4.4792	-3.3104	-4.0458	-4.1625	-3.2479	-4.3458	-3.8083	-3.5333	-4.675	-18.964	222.395	102.718	192.806	2.112	134.998	-84.919	150.974	245.394	-41.832	181.231	259.823	-16.769	-12.918	73.712	239.732	0.00053208	0.0019373	0.000236	875.72	1.2832e-05	1.8148e-05	732.62	257.25	1.6165e-05	3.2878e-06	244.57	105.51	90.554	41.482	7.5937e-06	47.63	0.0021836	0.0023892	0.00077104	960.18	2.486e-05	2.6847e-05	824.32	287.05	2.4644e-05	2.7213e-05	304.58	119.94	114.97	46.611	2.9427e-05	53.881	89.438	152.498	54.786	-82.907	162.344	225.821	-85.021	-77.493	23.982	228.893	-80.458	-75.628	-72.252	-67.393	-63.169	-72.046	-8191	255	
2292.550	1	1	0	0	0.16823	0.10764	0.20565	0.19924	0.18977	0.054034	0.017546	0.14572	0.073563	0.03643	0.17259	0.051194	0.39463	0.16968	0.13259	0.12415	-2.6917	-3.8812	-4.1125	-3.2062	-4.2833	-3.7833	-3.3521	-4.3958	-3.3688	-3.9021	-4.3979	-3.1937	-4.1083	-3.9979	-3.3792	-4.5813	10.300	253.970	61.449	17.791	-34.868	212.421	250.513	188.869	119.953	-42.919	-25.461	244.044	251.437	107.060	79.041	-80.293	0.00068127	0.00095821	0.00024033	877.03	8.0541e-06	2.1405e-06	735.84	258.12	1.0417e-05	8.6497e-06	247.16	105.24	90.071	41.759	1.8298e-05	47.438	0.0021544	0.0025991	0.00075069	957.75	2.4639e-05	2.9054e-05	823.25	287.18	2.4748e-05	2.9446e-05	301.71	119.34	115.31	47.102	2.8004e-05	53.549	-3.888	134.430	29.613	-82.958	-71.485	79.068	-85.203	-77.318	-69.851	234.059	-79.984	-75.949	-71.549	-67.544	-14.330	-72.019	-8191	255	
2292.622	1	1	0	0	0.090064	0.11673	0.22656	0.10323	0.081197	0.11946	0.12928	0.11211	0.048463	0.16954	0.066687	0.086121	0.26483	0.048917	0.21233	0.1714	-3.1813	-3.7	-4.2146	-3.1042	-4.0042	-3.9271	-3.4042	-4.4875	-3.5729	-3.7479	-4.3021	-3.1521	-3.9979	-4.1333	-3.2271	-4.3979	-83.432	43.675	2.316	219.074	17.740	-53.690	-75.092	171.218	25.458	-62.325	-44.265	159.245	179.443	-35.598	113.744	137.607	0.00086174	0.00049495	0.00054497	870.93	4.8475e-06	6.9536e-06	726.53	258.19	1.6358e-05	2.3616e-06	246.22	105.35	90.936	41.821	7.6032e-06	47.67	0.00222	0.0027543	0.00071186	951.23	2.5588e-05	3.0273e-05	811.96	285.41	2.5803e-05	3.0132e-05	296.73	118.79	117.12	47.162	2.663e-05	53.402	2.978	115.593	-22.118	-83.160	198.496	39.231	-84.787	-77.241	142.982	-33.820	-80.719	-75.921	-72.511	-67.575	-54.098	-72.339	-8191	255	
2292.718	1	1	0	0	0.094849	0.14516	0.15008	0.072014	0.090734	0.22636	0.035824	0.13323	0.20571	0.15694	0.16271	0.079436	0.094154	0.2496	0.18112	0.151	-2.9729	-3.3875	-4.0563	-3.3917	-3.875	-4.2792	-3.3438	-4.4938	-3.45	-3.425	-4.4521	-3.3438	-3.7979	-3.9958	-3.0187	-4.3875	-87.612	78.981	55.242	227.183	2.125	-28.453	48.477	200.731	2.287	-12.666	-72.089	152.319	-12.030	217.152	181.403	-37.712	0.0012329	0.0014528	0.00042723	871.23	1.09e-05	6.5966e-06	727.48	258.66	2.5061e-05	7.9974e-06	248.19	106.36	91.841	42.208	9.5973e-06	47.943	0.0023731	0.0027403	0.00068209	944.49	2.7643e-05	2.9999e-05	807.73	285.57	2.7879e-05	2.9163e-05	296.91	119.48	120.28	47.28	2.5499e-05	53.721	0.799	-60.227	16.043	-83.122	172.603	1.698	-85.190	-77.310	234.487	55.454	-80.498	-76.126	-71.826	-67.610	109.244	-72.012	-8191	255	
2292.814	1	1	0	0	0.083867	0.2561	0.26277	0.20266	0.069786	0.053216	0.3276	0.030982	0.083435	0.41505	0.14324	0.19972	0.15823	0.29544	0.24949	0.30327	-3.5542	-3.3958	-4.2583	-3.3229	-3.5708	-4.2792	-2.9104	-4.2229	-3.9729	-3.1146	-4.3208	-3.5958	-3.6646	-4.5417	-3.2	-4.0583	75.222	176.154	-59.312	127.441	243.064	-36.443	127.544	-7.171	169.018	223.078	-58.737	211.513	-58.685	261.954	-20.773	176.783	0.0011879	0.0016781	5.346e-05	867.45	1.192e-05	7.0057e-06	736.06	261.09	4.2426e-06	1.5708e-05	254.03	107.3	92.562	42.577	2.2994e-06	48.613	0.0025271	0.0025918	0.00064971	944.43	2.907e-05	2.8046e-05	810.86	288.78	2.928e-05	2.7384e-05	300.36	121.26	122.46	47.256	2.473e-05	54.732	-11.925	-10.925	-74.002	-83.180	190.486	115.001	-84.902	-77.243	172.683	2.769	-80.254	-75.864	-72.417	-67.372	3.174	-71.969	-8191	255	
2292.935	1	1	0	0	0.063308	0.10705	0.014441	0.02354	0.1049	0.093514	0.17313	0.1547	0.19036	0.050141	0.2576	0.15514	0.085706	0.086719	0.25489	0.067313	-3.425	-3.1354	-4.3833	-3.8458	-3.6458	-4.2771	-3.2771	-4.1833	-4.0938	-3.2104	-4.4167	-3.675	-3.4917	-4.5125	-3.2812	-4.1271	11.546	99.287	10.529	207.466	200.309	17.161	179.734	224.920	-73.944	80.965	48.114	262.634	35.197	-26.393	57.966	21.837	0.00052693	0.0012189	0.00020138	871.44	9.4638e-06	1.629e-05	738.47	262.19	2.1321e-05	1.509e-05	251.09	107.31	92.089	41.991	5.6011e-06	48.177	0.0026355	0.0024741	0.00063846	955.94	2.9984e-05	2.7068e-05	813.7	291.95	3.0008e-05	2.6868e-05	298.42	122.79	122.83	46.847	2.4674e-05	55.053	19.908	-28.169	-14.083	-83.310	11.697	50.272	-85.090	-77.264	-3.495	15.555	-80.291	-76.188	-71.946	-67.413	57.209	-72.005	-8191	255	
2293.031	1	1	0	0	0.02536	0.31448	0.14717	0.16537	0.25509	0.18466	0.32419	0.088893	0.17981	0.17756	0.10651	0.15697	0.074564	0.29474	0.18186	0.27758	-3.7687	-3.1271	-4.1021	-3.7333	-3.4167	-4.425	-3.4729	-3.8063	-3.8917	-3.1896	-4.55	-3.8729	-3.2938	-4.2438	-3.4646	-3.7604	131.388	231.379	-83.572	177.591	153.552	58.938	189.255	230.269	100.502	103.910	-89.168	121.648	-8.193	-33.782	25.002	158.988	0.000345	0.0018677	0.00040428	866.52	1.1095e-05	7.4893e-06	734.94	260.25	2.8418e-05	5.8882e-06	251.54	106.85	92.322	42.236	1.5096e-05	48.16	0.0026257	0.0024276	0.00063877	964.14	2.9257e-05	2.6402e-05	808.41	293.81	2.8524e-05	2.5853e-05	297.79	123.54	120.42	46.687	2.4604e-05	55.38	34.631	-42.763	4.602	-83.121	27.046	72.847	-84.974	-77.621	42.103	103.056	-80.423	-76.048	-72.675	-67.655	233.497	-71.914	-8191	255	
2293.125	1	1	0	0	0.1541	0.013108	0.049803	0.1207	0.36881	0.096233	0.075236	0.21265	0.1031	0.28571	0.15243	0.19493	0.32787	0.13826	0.16087	0.15307	-3.9167	-3.3417	-4.0458	-3.8688	-3.3354	-4.3	-3.4562	-3.6813	-4.4313	-3.3812	-4.0979	-4.2479	-3.1583	-4.2937	-3.4979	-3.5625	50.888	225.514	34.784	136.489	5.662	247.424	213.087	257.442	20.032	182.658	-87.945	187.091	-33.334	-31.296	153.317	-8.703	0.0002475	0.0012742	0.00011798	870.27	1.8914e-05	1.6135e-05	732.91	261.09	1.7294e-05	9.3681e-06	250.27	106.22	91.806	42.075	2.7634e-06	47.962	0.0024433	0.0023194	0.00064634	969.18	2.7375e-05	2.5418e-05	810.31	294.78	2.692e-05	2.4986e-05	299.93	123.29	118.27	46.379	2.6518e-05	55.321	74.053	-93.229	86.699	-82.930	-20.709	8.468	-85.197	-77.203	71.545	-19.083	-80.156	-75.981	-71.979	-67.350	69.561	-72.299	-8191	255	
2293.223	1	1	0	0	0.12974	0.22282	0.18196	0.15913	0.16673	0.1663	0.11579	0.13247	0.065847	0.13461	0.15121	0.14196	0.19076	0.19569	0.1329	0.21177	-4.0542	-3.275	-4.0188	-4.2292	-3.0625	-4.2208	-3.8187	-3.7625	-4.4313	-3.2958	-3.8979	-4.2812	-3.1542	-4.2333	-3.6521	-3.3083	236.295	-54.527	-38.476	-93.604	260.016	-10.837	133.566	191.599	251.500	-65.766	258.766	213.136	-13.601	10.684	227.976	99.823	0.000397	0.00051432	0.00022757	873.01	8.1472e-06	9.0898e-06	733.19	260.94	3.2378e-07	4.8729e-06	249.86	106.8	91.41	41.985	8.0246e-06	48.584	0.0023433	0.0022553	0.00070128	971.65	2.637e-05	2.4952e-05	819.61	293.75	2.6167e-05	2.4772e-05	305.98	122.9	117.49	46.357	2.8705e-05	55.204	48.080	167.815	199.194	-83.074	15.544	-23.027	-84.937	-77.314	257.036	-18.899	-80.436	-75.822	-72.417	-67.750	153.433	-71.999	-8191	255	
2293.318	1	1	0	0	0.20954	0.069897	0.14862	0.13797	0.24117	0.24746	0.16648	0.24107	0.041298	0.091311	0.07644	0.28511	0.23401	0.11979	0.14647	0.17471	-4.1083	-3.0292	-3.8083	-4.2562	-3.2854	-4.2833	-4.075	-3.4083	-4.3708	-3.6042	-3.6625	-4.3125	-3.2438	-3.9125	-3.9271	-3.1937	108.426	38.814	-8.120	160.121	91.351	217.992	183.915	226.545	69.109	-32.651	-93.536	231.072	-73.195	71.136	53.237	-75.223	0.00068322	0.00046723	0.00010157	869.67	8.9642e-06	3.622e-06	736.03	262.82	1.8157e-05	9.3492e-06	251.86	107.03	92.074	42.29	6.4463e-06	48.173	0.0022939	0.0022645	0.00075177	965.59	2.5471e-05	2.5305e-05	829.63	292.83	2.5093e-05	2.5071e-05	309.65	122.23	116.56	46.727	2.9623e-05	54.698	5.682	55.967	154.349	-83.069	8.469	96.890	-84.940	-77.197	53.611	172.843	-80.132	-76.172	-72.377	-67.572	88.240	-71.898	-8191	255	
2293.414	1	1	0	0	0.37309	0.044282	0.37889	0.17086	0.12797	0.27568	0.39487	0.12701	0.12468	0.21952	0.088583	0.10177	0.069841	0.17634	0.06991	0.17803	-4.0167	-3.5021	-3.6125	-4.325	-3.3875	-4.2083	-4.0792	-3.1833	-4.3833	-3.6083	-3.5583	-4.4563	-3.5875	-4.0875	-4.2417	-3.2562	147.927	-52.506	206.121	258.249	125.423	248.437	157.901	191.469	49.986	201.265	206.726	71.058	-88.294	252.531	178.843	243.689	0.00031087	0.00091636	0.00035661	874.89	7.7189e-06	1.7347e-05	729.76	260.54	7.7945e-06	1.024e-05	247.49	105.91	91.578	42.085	1.444e-05	47.726	0.0021827	0.0023491	0.00075847	959.73	2.414e-05	2.6368e-05	825.25	289.38	2.428e-05	2.6596e-05	305	120.04	114.83	46.943	2.8653e-05	53.815	-17.711	124.230	-55.349	-82.735	-30.639	170.230	-85.197	-77.385	67.017	106.961	-79.917	-76.223	-72.422	-67.402	25.875	-72.406	-8191	255	
2293.510	1	1	0	0	0.19713	0.21466	0.23784	0.11891	0.25715	0.05565	0.046849	0.23998	0.1236	0.22132	0.14371	0.33213	0.22921	0.1678	0.023197	0.087299	-3.8667	-3.5604	-3.3812	-4.5563	-3.35	-3.9062	-4.1667	-3.2625	-4.1667	-3.8625	-3.4333	-4.5167	-3.2625	-3.6875	-4.1271	-3.4229	-67.419	150.252	222.417	208.862	205.506	133.422	-76.182	205.156	217.784	162.040	-51.063	153.541	-21.093	209.592	15.947	190.832	0.00062028	0.0011581	0.00019973	870.65	4.6436e-06	4.5697e-06	731.52	259.77	1.4402e-06	1.1731e-05	245.77	105.03	90.94	42.11	2.2256e-05	47.614	0.0021052	0.0024996	0.00072013	952.29	2.3476e-05	2.7781e-05	813.68	285.76	2.3385e-05	2.7744e-05	297.22	117.84	113.78	46.905	2.6171e-05	53.044	4.177	65.511	-59.409	-83.186	43.004	262.151	-85.064	-77.368	163.505	236.830	-80.301	-75.999	-72.400	-67.482	-9.819	-72.207	-8191	255	
2293.631	1	1	0	0	0.1786	0.095995	0.032845	0.14662	0.075663	0.20219	0.10311	0.21636	0.060556	0.022822	0.07617	0.082133	0.24543	0.05303	0.01463	0.089361	-3.8271	-3.875	-3.1667	-4.6042	-3.4375	-3.5771	-4.3063	-3.0396	-3.8125	-4.0229	-3.3292	-4.5021	-3.5833	-3.6646	-4.275	-3.2687	-18.745	254.507	88.954	199.659	13.657	-42.912	116.555	236.653	53.169	-63.654	-35.731	253.331	-55.823	213.677	-78.028	35.716	0.00090325	0.00035245	0.00036569	874.97	3.4774e-06	5.9973e-06	728.1	259.44	1.449e-05	1.0726e-05	246.11	104.67	91.659	41.921	7.9414e-06	47.878	0.0020573	0.0025184	0.00065087	945.28	2.3097e-05	2.7466e-05	804.2	283.74	2.3438e-05	2.7185e-05	291.44	116.77	114.37	46.764	2.3756e-05	52.722	-1.521	31.509	2.550	-82.854	188.355	188.885	-85.118	-77.509	207.522	-92.656	-80.039	-76.194	-72.035	-67.277	25.973	-71.885	-8191	255	
2293.727	1	1	0	0	0.15745	0.13859	0.14475	0.22792	0.10869	0.17226	0.28086	0.15105	0.12402	0.34298	0.17522	0.096673	0.10464	0.14941	0.14535	0.1616	-3.7146	-4.0917	-3.2667	-4.4437	-3.4917	-3.5083	-4.4229	-3.3083	-3.9729	-4.2396	-3.3792	-4.2667	-3.7271	-3.4208	-4.3854	-3.3208	79.567	107.392	49.426	217.084	0.412	4.237	189.225	225.346	73.175	81.840	180.201	94.329	145.791	-57.797	179.034	244.256	0.00072548	0.0011216	0.00014183	875.21	1.0996e-05	5.4002e-06	732.22	259.59	1.1107e-05	1.4109e-05	246.14	104.55	91.552	41.916	5.3568e-06	47.471	0.0020869	0.0023874	0.0005893	940.87	2.3554e-05	2.541e-05	798.26	281.48	2.3551e-05	2.4635e-05	286.25	115.65	114.58	46.162	2.1694e-05	52.248	-6.208	-28.455	10.384	-83.026	170.407	67.998	-85.061	-77.439	197.587	5.696	-80.299	-75.984	-71.882	-67.562	-36.904	-72.123	-8191	255	
2293.823	1	1	0	0	0.17552	0.084147	0.072166	0.18043	0.17727	0.12254	0.26262	0.11897	0.24517	0.072524	0.14743	0.23815	0.078305	0.42031	0.15237	0.053008	-3.3833	-4.3396	-3.2604	-4.4187	-3.9271	-3.3271	-4.2292	-3.6521	-3.85	-4.525	-3.1771	-4.2333	-3.9333	-3.2875	-4.5479	-3.6479	247.819	168.499	-65.163	139.795	154.636	102.527	128.876	156.374	84.983	129.867	185.295	171.304	172.819	220.495	20.419	24.433	0.00036205	0.0011872	0.00010241	876.02	1.2091e-05	1.1823e-05	725.57	259.14	1.4791e-05	1.4831e-06	241.92	103.82	90.472	41.707	1.0357e-05	46.812	0.0021338	0.0021881	0.00055312	939.46	2.4345e-05	2.348e-05	789.77	280.33	2.4323e-05	2.3107e-05	280.85	114.61	114.23	45.521	2.0554e-05	51.818	-12.238	-80.735	-52.530	-82.993	160.225	-35.726	-85.042	-77.246	249.977	156.787	-80.112	-75.835	-71.969	-67.191	-32.668	-72.316	-8191	255	
2293.919	1	1	0	0	0.15199	0.094676	0.12361	0.20354	0.14913	0.21482	0.20936	0.40112	0.10093	0.069733	0.074234	0.12737	0.18989	0.30398	0.063404	0.22059	-3.3771	-4.3167	-3.0396	-3.9313	-3.9458	-3.2333	-4.4563	-3.7854	-3.5979	-4.5542	-3.4083	-3.9458	-4.2083	-3.3604	-4.2708	-3.8292	-50.121	185.365	211.316	260.407	-45.882	-91.896	186.517	239.383	47.097	167.156	89.648	140.782	136.897	174.425	232.706	172.533	0.00051863	0.0012055	0.00012504	873.85	1.0046e-05	1.5453e-05	722.45	256.74	3.8381e-06	4.991e-06	242.87	103.51	90.76	41.812	1.7533e-05	47.043	0.0021389	0.0020168	0.00051658	939.5	2.3864e-05	2.173e-05	780.38	279.94	2.352e-05	2.1099e-05	277.46	115.1	112.95	45.214	1.9279e-05	52.057	32.914	-22.718	-53.261	-83.041	208.565	17.258	-84.953	-77.569	93.844	64.812	-80.366	-75.949	-71.874	-67.400	45.453	-71.929	-8191	255	
2294.015	1	1	0	0	0.092835	0.15971	0.10991	0.095941	0.16788	0.20198	0.089283	0.30094	0.18748	0.05058	0.26075	0.11907	0.075345	0.11511	0.18616	0.13528	-3.2667	-4.475	-3.1167	-4.0042	-4.2167	-3.1937	-4.3271	-3.7271	-3.5354	-4.5021	-3.5521	-3.8396	-4.1646	-3.3479	-4.3979	-4.0146	76.805	-35.088	169.388	-38.522	52.279	142.715	191.798	212.973	-94.770	220.924	45.219	224.792	236.952	-89.328	249.534	144.031	0.00033558	0.00094586	0.00014362	875.6	1.2967e-05	8.5827e-06	727.4	258.21	2.0309e-05	2.2708e-06	243.82	104.21	91.103	41.775	1.0692e-06	47.256	0.0020153	0.0018827	0.00049165	941.5	2.2359e-05	2.0343e-05	780.86	281.88	2.1933e-05	1.9951e-05	278.5	116.28	111.17	45.094	1.9157e-05	52.603	30.158	-47.128	-65.010	-82.963	37.397	40.390	-85.046	-77.467	40.589	57.438	-80.473	-75.961	-72.033	-67.499	234.648	-72.120	-8191	255	
2294.111	1	1	0	0	0.074644	0.08542	0.13041	0.17387	0.20517	0.19932	0.1976	0.15512	0.22628	0.1021	0.17436	0.12178	0.26272	0.30158	0.029546	0.03685	-2.7458	-4.2188	-3.4125	-3.8438	-4.4396	-3.2521	-4.1375	-4.0188	-3.2729	-4.3833	-3.6896	-3.7854	-4.5563	-3.5479	-4.0917	-4.2146	213.106	-5.484	75.371	-67.751	121.765	112.104	-75.414	101.996	13.696	89.824	187.109	252.969	23.766	230.709	-75.546	92.244	0.00052392	0.00067945	2.8039e-05	873.28	1.1918e-05	8.8146e-06	731.98	258.49	1.7859e-05	5.8244e-06	245.28	105.74	90.585	41.936	1.2073e-05	47.737	0.0018831	0.0017922	0.00049563	941.75	2.0993e-05	1.93e-05	784.82	283.08	2.0579e-05	1.905e-05	281.79	117.24	109.7	45.008	1.9889e-05	52.878	20.164	237.135	-53.528	-82.960	8.931	72.551	-85.025	-77.317	27.976	-74.860	-80.473	-76.204	-72.195	-67.175	131.977	-72.497	-8191	255	
2294.230	1	1	0	0	0.1763	0.24949	0.046942	0.042675	0.25468	0.21079	0.17967	0.13064	0.21394	0.21884	0.21231	0.16567	0.18611	0.29911	0.23638	0.19955	-2.8438	-4.1208	-3.5812	-3.6437	-4.375	-3.3604	-3.9854	-4.3146	-3.2125	-4.35	-3.5625	-3.4792	-4.4271	-3.6104	-3.9583	-4.2521	94.226	126.366	-4.622	93.989	104.540	-74.920	33.551	229.701	157.253	76.864	83.156	126.384	208.056	-71.932	104.128	14.652	0.00051094	0.00070231	0.00032722	872.25	9.351e-06	1.012e-05	724.99	257.98	1.8501e-05	6.4228e-06	244.82	105.34	90.492	41.764	1.5575e-05	47.44	0.0017635	0.0016998	0.00051965	940.3	1.9875e-05	1.8528e-05	787.58	281.64	1.9618e-05	1.849e-05	283.32	116.46	108.75	44.864	2.1174e-05	52.229	60.395	-36.256	132.061	-83.002	-55.081	38.150	-85.232	-77.264	-12.619	-67.541	-80.389	-75.883	-72.487	-67.198	147.042	-72.357	-8191	255	
2294.326	1	1	0	0	0.22275	0.097641	0.13855	0.21754	0.16889	0.11042	0.24981	0.095144	0.24459	0.16497	0.069936	0.1142	0.021979	0.25357	0.10972	0.24595	-2.7479	-4.1104	-3.5542	-3.3917	-4.2917	-3.3083	-4.0417	-4.4875	-3.25	-4.1792	-4.0292	-3.3604	-4.5479	-3.5875	-3.6167	-4.3396	115.504	-26.437	-72.778	228.396	-89.627	-14.737	232.111	-79.713	150.375	-11.116	144.858	211.387	-81.365	-65.268	19.397	249.970	0.00060327	0.00094128	0.00016916	867.21	1.3242e-05	5.3834e-06	722.31	258.4	4.759e-06	7.8472e-06	242.69	104.13	90.283	41.481	8.1679e-06	46.991	0.0017113	0.0016817	0.0005523	930.64	1.9058e-05	1.8579e-05	786.1	278.63	1.8848e-05	1.8708e-05	283.3	114.76	107.52	44.755	2.1801e-05	51.655	25.002	80.245	260.225	-83.112	-17.396	122.884	-85.154	-77.285	222.491	66.613	-80.446	-75.915	-71.771	-67.566	66.277	-71.995	-8191	255	
2294.423	1	1	0	0	0.029318	0.13024	0.16129	0.33483	0.10293	0.06598	0.069838	0.13057	0.092425	0.19383	0.085942	0.14454	0.23059	0.12033	0.15737	0.19299	-2.775	-4.1438	-4.0833	-3.3125	-4.1958	-3.6979	-3.8063	-4.5667	-3.2667	-4.0875	-4.0188	-3.2667	-4.4458	-3.8833	-3.6083	-4.3979	-53.092	172.397	75.005	217.424	208.691	-87.864	167.616	125.537	137.691	259.206	94.662	-40.709	-95.489	153.696	-48.911	243.040	0.000532	0.00069929	0.00017539	865.35	5.5547e-06	5.7584e-06	721.69	257.1	1.301e-05	8.2942e-06	246.45	105.87	90.765	41.68	1.306e-05	47.567	0.001654	0.0017758	0.0005643	923.59	1.8538e-05	1.9722e-05	785.9	277.78	1.8362e-05	2.0092e-05	284.62	115.26	107.34	45.2	2.1685e-05	51.94	40.033	130.124	90.506	-83.070	43.991	169.362	-84.965	-77.632	70.253	186.580	-80.276	-75.994	-72.343	-67.447	1.521	-72.235	-8191	255	
2294.494	1	1	0	0	0.1671	0.05157	0.13136	0.14001	0.26427	0.16723	0.055207	0.1432	0.10854	0.29182	0.12557	0.12349	0.066423	0.16857	0.16559	0.35802	-2.8812	-3.7375	-4.1083	-3.2833	-4.1625	-3.5687	-3.3854	-4.6333	-3.4979	-3.8229	-4.2083	-3.1125	-4.0771	-3.9646	-3.4188	-4.5833	165.543	163.669	182.190	247.848	-11.065	-92.418	-14.603	-88.749	75.774	-94.428	241.441	-55.459	141.835	217.377	82.241	186.558	0.00062115	0.00015653	0.00015264	860.4	1.7048e-06	4.1832e-06	726.1	258.72	3.4686e-06	1.1958e-05	249.29	107.05	91.911	42.447	1.025e-05	48.725	0.0016207	0.0018989	0.00055082	917.9	1.827e-05	2.1249e-05	787.15	278.02	1.835e-05	2.1384e-05	287.64	116.83	108.71	46.002	2.0697e-05	52.841	30.548	176.297	-19.452	-82.931	213.515	94.949	-84.667	-77.479	-27.190	234.565	-80.094	-76.029	-71.892	-67.609	-7.935	-72.193	-8191	255	
2294.615	1	1	0	0	0.10869	0.11532	0.081514	0.26158	0.13589	0.20973	0.1173	0.14964	0.096357	0.37371	0.16834	0.11986	0.048489	0.20893	0.34081	0.12831	-3.2146	-3.7354	-4.2667	-3.1937	-4.0292	-4.0625	-3.4188	-4.5667	-3.6104	-3.5771	-4.2604	-3.2771	-4.2125	-4.0208	-3.2292	-4.2354	159.469	-15.709	259.580	256.993	136.241	100.965	248.020	118.117	199.173	175.432	-14.062	170.673	2.026	159.511	231.141	242.230	0.00064345	0.00011992	0.00041827	859.23	2.0263e-05	5.0423e-06	730.63	260.36	6.5346e-06	8.7336e-06	250.79	108.6	91.823	42.499	1.4064e-05	48.811	0.0016496	0.0019951	0.00051838	913.6	1.8736e-05	2.1935e-05	788.41	279.73	1.9027e-05	2.2012e-05	287.82	117.61	110.39	46.218	1.9744e-05	52.743	23.630	113.083	-29.422	-82.789	104.436	16.776	-85.220	-77.244	176.563	-62.941	-79.998	-75.876	-71.908	-67.664	15.295	-72.375	-8191	255	
2294.711	1	1	0	0	0.010243	0.11341	0.032156	0.052142	0.042261	0.13213	0.32638	0.082877	0.22943	0.1192	0.17251	0.10018	0.10903	0.21346	0.19413	0.3095	-3.3042	-3.4333	-4.4708	-3.4271	-4.0104	-4.0938	-3.3167	-4.3146	-3.8083	-3.6354	-4.5021	-3.5062	-3.9437	-4.5479	-3.2104	-4.1854	104.822	-87.723	253.238	-49.551	-33.048	45.692	150.108	177.049	-25.693	46.514	-31.248	130.807	-47.595	214.859	176.901	208.674	0.00081523	0.0007664	0.00040867	850.06	1.5382e-05	2.9305e-06	722.1	257.73	7.0044e-06	9.3181e-06	249.79	107.24	91.319	42.319	4.1902e-06	48.354	0.0017577	0.0020056	0.0005019	905.19	2.0285e-05	2.1761e-05	776.43	276.65	2.0491e-05	2.1568e-05	283.94	116.13	111.67	45.883	1.9297e-05	52.222	3.140	-78.045	63.389	-83.050	163.019	-3.096	-85.233	-77.503	260.382	-24.391	-80.331	-76.300	-72.370	-67.623	116.029	-72.370	-8191	255	
2294.807	1	1	0	0	0.14832	0.34152	0.17631	0.10432	0.22279	0.1154	0.21649	0.28555	0.10504	0.1636	0.083198	0.084036	0.11086	0.18922	0.1548	0.21133	-3.4437	-3.4833	-4.4187	-3.5062	-3.875	-4.4313	-3.1813	-4.3208	-4.0625	-3.35	-4.4688	-3.5917	-3.75	-4.4958	-3.3208	-4.0521	62.323	205.163	191.148	218.985	109.214	161.677	191.515	243.609	155.448	-79.094	-15.774	-5.167	111.202	-86.054	6.491	224.057	0.00078067	0.0017674	0.00015029	847.33	1.1485e-05	8.956e-06	720.32	256.87	9.5348e-06	5.9481e-06	249.33	107.21	91.951	42.581	1.4834e-05	48.527	0.00188	0.0019269	0.00049021	902.69	2.1453e-05	2.0971e-05	774.55	276.51	2.1678e-05	2.0512e-05	282.58	116.84	112.72	45.892	1.8731e-05	52.863	-14.091	-48.656	26.258	-82.982	33.421	34.702	-84.789	-77.380	-86.461	37.839	-80.027	-76.046	-72.403	-67.358	11.098	-72.134	-8191	255	
2294.903	1	1	0	0	0.3513	0.15607	0.061376	0.071159	0.11433	0.27615	0.17855	0.34584	0.15686	0.12319	0.29492	0.16297	0.20948	0.24691	0.1628	0.11639	-3.7646	-3.2146	-4.3792	-3.825	-3.6417	-4.3604	-3.4146	-4.3292	-4.3354	-3.2583	-4.4	-3.8396	-3.6771	-4.5354	-3.3792	-4.0396	108.451	203.143	250.285	-88.976	162.453	82.172	80.836	220.846	-69.113	151.144	116.093	-8.562	13.485	-2.867	-88.534	192.423	0.00031148	0.00049072	0.0002465	850.66	5.9466e-06	7.3378e-06	721.53	257.95	2.8982e-06	1.1211e-05	251.11	108.32	92.927	42.504	7.3691e-06	49.233	0.0019351	0.0018412	0.00047652	906.7	2.2116e-05	2.011e-05	773.7	279.22	2.1923e-05	1.9931e-05	284.79	118.88	113.29	45.889	1.8411e-05	53.77	-28.211	-18.091	75.417	-82.831	60.828	87.330	-84.889	-77.635	88.234	10.698	-80.268	-76.477	-71.876	-67.473	28.062	-72.123	-8191	255	
2295.022	1	1	0	0	0.077826	0.2592	0.10782	0.22975	0.25765	0.13119	0.22874	0.21524	0.10172	0.18313	0.17388	0.15776	0.12882	0.33995	0.092512	0.17808	-3.8792	-3.1688	-4.3438	-3.8917	-3.5396	-4.2958	-3.4833	-4.0625	-4.2646	-3.3104	-4.3458	-3.7792	-3.3604	-4.4083	-3.2458	-3.775	57.842	198.732	192.027	243.336	7.427	-87.630	179.756	258.026	212.758	203.141	249.204	-25.509	160.501	261.725	166.584	-45.519	0.00027328	0.0010114	0.00023911	850.36	6.8426e-06	8.6595e-06	723.6	259.83	1.4017e-05	5.2348e-06	252.71	109.5	92.567	42.601	1.2463e-05	48.694	0.0019119	0.0017992	0.00047002	912.1	2.1559e-05	1.9567e-05	778.7	282.48	2.1224e-05	1.951e-05	285.27	120.34	112.54	45.772	1.8632e-05	53.976	25.246	-5.111	27.006	-82.959	24.495	62.825	-84.832	-77.418	168.053	-83.442	-80.571	-75.882	-72.047	-67.590	154.195	-72.145	-8191	255	
2295.096	1	1	0	0	0.12658	0.23722	0.060678	0.084304	0.080128	0.1088	0.21171	0.17113	0.15078	0.070158	0.035915	0.070906	0.11594	0.18797	0.042005	0.072424	-3.975	-3.0917	-4.0292	-4.1083	-3.3646	-4.3729	-3.6042	-3.7667	-4.3479	-2.9917	-4.1312	-4.1854	-3.0875	-4.375	-3.7	-3.6	244.928	80.568	76.434	235.757	48.578	-31.385	220.118	133.885	67.349	201.336	225.501	-22.770	230.323	-21.682	-50.415	-27.012	0.00060692	0.0017217	8.7441e-05	846.75	1.868e-05	1.2202e-05	717.78	259.11	1.8972e-05	1.3959e-05	250.16	108.12	92.12	42.56	7.031e-06	48.714	0.001827	0.0017569	0.000483	913.35	2.0512e-05	1.908e-05	774.63	282.36	1.9965e-05	1.8705e-05	285.72	119.4	110.72	45.591	1.948e-05	53.738	27.986	-40.414	30.129	-83.145	20.415	-2.325	-84.896	-77.367	45.003	16.629	-80.416	-76.010	-72.158	-67.691	179.805	-71.997	-8191	255	
2295.192	1	1	0	0	0.19382	0.22202	0.16372	0.12086	0.16926	0.1047	0.026437	0.16472	0.13108	0.1414	0.19689	0.024091	0.20012	0.22966	0.090586	0.043029	-3.9771	-3.2062	-4.0771	-4.225	-3.2979	-4.5229	-3.6083	-3.5312	-4.5479	-3.3333	-3.8771	-4.1667	-3.3312	-4.3292	-3.6083	-3.5458	38.068	183.763	158.270	45.021	220.390	149.865	117.233	-30.245	209.599	248.342	132.852	-10.498	-94.061	241.094	259.482	59.966	0.00031593	0.00086974	0.00015832	847.92	2.0522e-05	1.504e-05	723.01	259.31	5.5693e-06	7.5302e-06	251.13	108.56	92.789	42.535	4.3051e-06	48.399	0.0017431	0.0016797	0.0005104	912.03	1.9396e-05	1.8237e-05	779.47	281.9	1.9077e-05	1.808e-05	289.13	119.09	110.42	45.532	2.0906e-05	53.438	25.367	236.394	51.841	-83.091	-14.317	64.514	-85.120	-77.376	30.485	42.591	-80.402	-76.300	-72.067	-67.380	167.186	-71.783	-8191	255	
2295.311	1	1	0	0	0.077292	0.064295	0.10764	0.23819	0.080874	0.046188	0.063772	0.12782	0.1514	0.12846	0.2108	0.28823	0.14489	0.11707	0.14507	0.37942	-4.05	-3.5021	-3.7521	-4.175	-3.1104	-4.4125	-3.9604	-3.3063	-4.4479	-3.3583	-3.6688	-4.3521	-3.2188	-4.1229	-4.1979	-3.5062	-73.522	40.660	61.090	216.205	151.086	208.123	-31.852	135.590	82.659	79.193	-7.682	212.202	110.137	226.994	231.029	162.134	0.00057102	0.00074232	6.8608e-05	843.44	1.1696e-05	6.9669e-06	726.42	259.11	1.2998e-05	6.2518e-06	252.01	108.1	92.661	42.416	1.8819e-06	48.793	0.0016836	0.0016813	0.00054279	908.17	1.9067e-05	1.8526e-05	785.34	279.89	1.8688e-05	1.8635e-05	292.24	118.75	109.62	45.666	2.1461e-05	53.381	-17.830	121.912	77.140	-83.145	14.324	209.002	-85.180	-77.130	11.038	191.319	-80.588	-75.894	-72.356	-67.519	158.675	-72.057	-8191	255	
2295.407	1	1	0	0	0.16593	0.19427	0.092067	0.14612	0.22541	0.13977	0.18302	0.34609	0.14315	0.20089	0.27647	0.087655	0.16504	0.19984	0.0043623	0.35414	-4.0312	-3.4021	-3.5687	-4.3833	-3.4688	-4.1917	-4.2	-3.1021	-4.4437	-3.6729	-3.6937	-4.3	-3.2521	-4.2208	-4.2667	-3.2542	-89.378	189.400	135.795	207.011	227.286	155.992	162.005	-90.654	-48.197	54.757	-87.631	245.938	102.797	-55.039	-93.990	248.130	0.00018707	0.0015815	0.00010163	850.02	7.3007e-06	7.5345e-06	729	260.41	1.6012e-05	1.0825e-05	257.83	109.47	93.563	42.69	2.1505e-05	49.387	0.001622	0.0017464	0.00055488	906.71	1.8148e-05	1.9403e-05	792.56	280.39	1.809e-05	1.967e-05	295.78	119.49	109.52	46.169	2.1132e-05	53.647	52.966	90.745	239.260	-82.871	26.023	195.439	-84.908	-77.276	15.292	156.012	-80.242	-75.976	-72.058	-67.645	54.324	-72.111	-8191	255	
2295.503	1	1	0	0	0.10271	0.1268	0.18897	0.20708	0.055941	0.077419	0.044541	0.41945	0.022348	0.041519	0.21898	0.081106	0.14687	0.32783	0.078863	0.14299	-3.7146	-3.6854	-3.425	-4.3583	-3.2396	-4.0125	-4.3333	-3.1646	-4.2167	-3.9042	-3.7354	-4.5542	-3.5583	-3.9437	-4.0917	-3.3604	-39.609	35.866	-72.614	166.349	12.417	141.656	-54.717	-74.000	262.039	207.945	-74.342	200.697	208.140	-81.292	-32.784	252.467	0.0004089	0.0002374	0.00040195	843.28	3.6934e-06	5.1735e-06	725.6	260.06	4.1767e-06	7.2698e-06	256.15	109.53	93.39	42.64	1.1013e-05	49.105	0.0015851	0.0018603	0.00053786	901.87	1.7845e-05	2.0742e-05	786.96	279.66	1.7926e-05	2.0988e-05	292.58	118.7	109.32	46.278	2.0108e-05	53.066	19.546	215.074	-10.095	-82.919	210.814	158.153	-85.056	-77.096	37.453	6.273	-80.122	-75.999	-72.096	-67.434	0.721	-72.439	-8191	255	
2295.624	1	1	0	0	0.089569	0.095299	0.092008	0.076749	0.22024	0.065668	0.071888	0.055888	0.20382	0.25954	0.11008	0.12646	0.19369	0.1351	0.10962	0.16109	-3.6521	-4.0333	-3.55	-4.5354	-3.625	-3.9646	-4.6125	-3.3271	-4.1333	-3.9708	-3.2417	-4.4979	-3.7458	-3.5417	-4.3521	-3.2542	96.833	229.505	-35.490	113.439	95.261	-48.812	141.012	-1.875	229.398	34.138	223.186	247.210	-68.007	185.609	95.205	253.268	0.00064458	0.00024712	0.00035052	846.43	6.3662e-06	5.9271e-06	725.21	261.9	9.1783e-06	2.2298e-06	256.92	109.43	92.39	42.827	6.0386e-06	49.272	0.0016062	0.0019475	0.00051039	898.92	1.8442e-05	2.1403e-05	782.4	279.24	1.8584e-05	2.1376e-05	291.43	118.29	110.64	46.485	1.9043e-05	53.174	-0.741	75.277	-32.304	-82.908	160.803	30.596	-84.918	-77.161	243.205	-31.992	-80.088	-76.309	-72.274	-67.487	50.059	-72.139	-8191	255	
2295.720	1	1	0	0	0.25987	0.1442	0.15614	0.21561	0.33556	0.058768	0.051374	0.071065	0.11881	0.030847	0.12017	0.033107	0.0624	0.35458	0.086435	0.17405	-3.5979	-4.0583	-3.0083	-4.2229	-3.6937	-3.5771	-4.4021	-3.3438	-3.9688	-4.3021	-3.3833	-4.2375	-3.5417	-3.3333	-4.3604	-3.4771	-36.972	-88.220	143.276	207.023	138.203	168.032	170.052	188.145	37.288	12.523	135.092	185.827	-77.718	-41.087	-36.305	261.083	0.00064448	0.00084981	0.00018078	846.43	1.0678e-05	1.2028e-05	729.51	262.68	2.2001e-05	9.5402e-06	260.09	110.26	93.146	42.971	1.3309e-05	49.892	0.0016976	0.0019381	0.00048706	894.91	1.9606e-05	2.1054e-05	783.52	280.11	1.9966e-05	2.0906e-05	292.46	119.17	112.75	46.463	1.8684e-05	53.52	-7.779	-18.930	-16.249	-83.173	138.811	49.030	-85.151	-77.631	150.581	81.817	-80.478	-76.329	-72.378	-67.619	261.678	-72.367	-8191	255	
2295.791	1	1	0	0	0.094603	0.26646	0.16932	0.20532	0.15465	0.26589	0.069209	0.30054	0.12073	0.21175	0.1308	0.17792	0.098218	0.16004	0.24305	0.21366	-3.5417	-4.3042	-3.2542	-4.3625	-3.9375	-3.4271	-4.4646	-3.3042	-3.6292	-4.1396	-2.8875	-4.1667	-3.7604	-3.2917	-4.4604	-3.6333	151.830	199.538	190.773	-95.213	28.307	128.328	119.730	246.793	237.726	214.352	-85.253	197.525	-43.392	201.976	-40.527	207.782	0.00087524	0.00057057	0.00042585	847.12	3.749e-06	1.2023e-05	733.92	263.71	1.0885e-05	5.7771e-06	263.4	111.35	93.071	43.055	5.1633e-06	49.851	0.001816	0.0018713	0.00047444	897.44	2.0856e-05	2.0309e-05	786.77	281.83	2.0926e-05	2.0083e-05	294.25	120.31	113.91	46.426	1.8188e-05	53.946	25.200	255.527	-39.370	-83.047	-16.136	17.445	-85.038	-77.274	-61.288	14.593	-80.475	-75.972	-72.155	-67.572	-44.557	-72.281	-8191	255	
2295.912	1	1	0	0	0.25174	0.29709	0.25716	0.24712	0.18008	0.30667	0.035344	0.12377	0.15924	0.22865	0.1448	0.07964	0.16868	0.13719	0.13152	0.096488	-3.3042	-4.3896	-3.1042	-4.0458	-3.8583	-3.1813	-4.4771	-3.7125	-3.4146	-4.2104	-3.3104	-3.8937	-3.8563	-3.3125	-4.3042	-3.7625	-25.648	190.305	180.357	-74.447	-15.991	264.208	67.888	97.778	248.151	215.420	142.631	242.924	-63.482	-62.564	-55.751	230.073	0.00070636	0.0011765	8.7116e-05	847.96	8.8155e-06	1.318e-05	730.28	260.78	1.0944e-05	1.8119e-05	257.39	109.68	93.281	42.744	9.7998e-06	49.051	0.0019095	0.0018109	0.00046964	905.33	2.1696e-05	1.9823e-05	782.55	281.67	2.1522e-05	1.9532e-05	288.72	119.65	113.67	45.938	1.7905e-05	53.655	1.947	64.340	140.909	-83.057	8.248	98.971	-84.789	-77.333	213.533	0.598	-80.165	-76.058	-72.217	-67.639	112.682	-72.191	-8191	255	
2296.008	1	1	0	0	0.14849	0.2124	0.3453	0.10127	0.096499	0.08629	0.040143	0.19747	0.063376	0.12791	0.29914	0.068177	0.1054	0.055482	0.068376	0.14652	-3.0958	-4.4021	-3.1167	-3.8854	-4.0104	-3.2125	-4.5208	-3.6667	-3.2021	-4.3	-3.2771	-3.9042	-4.3917	-3.3354	-4.1521	-4.1375	1.501	-2.237	-61.208	-72.682	236.760	-13.410	238.409	170.976	192.911	-88.203	172.993	-74.516	132.870	-19.667	-18.399	243.232	0.00060679	0.00048026	0.00019132	844.31	8.8982e-06	5.578e-06	723.98	261.22	1.1451e-05	5.625e-06	258.36	109.91	93.293	42.888	6.1141e-06	49.331	0.0018695	0.0017457	0.00045864	907.69	2.0878e-05	1.8945e-05	775.51	282.92	2.049e-05	1.8901e-05	288.58	120.59	112.23	45.878	1.7936e-05	54.096	15.152	152.782	42.717	-83.043	37.354	162.553	-85.163	-77.227	42.431	16.320	-80.307	-76.531	-72.800	-67.564	-78.341	-71.942	-8191	255	
2296.103	1	1	0	0	0.1378	0.13139	0.080634	0.042796	0.099826	0.070528	0.10432	0.14969	0.35189	0.17679	0.084023	0.25946	0.32682	0.18153	0.028685	0.19284	-2.8167	-4.0833	-3.1875	-3.6063	-4.2333	-3.2229	-4.1917	-3.8	-3.0958	-4.3542	-3.5312	-3.5292	-4.1583	-3.3667	-4.0271	-4.2125	110.607	125.707	86.226	256.522	17.643	223.872	-46.427	262.058	-91.347	-57.557	262.677	75.255	262.106	-68.669	-42.386	238.285	0.00076683	0.00025012	0.00034947	841.96	1.1374e-05	1.6431e-05	727.16	263.31	1.5876e-05	6.4045e-06	261.15	111.02	94.045	42.809	9.2321e-06	49.685	0.0017875	0.0016993	0.00047076	907.73	1.9893e-05	1.8422e-05	780.69	285.33	1.9627e-05	1.8375e-05	293.99	121.98	111.91	45.866	1.923e-05	54.591	50.487	-22.392	126.096	-82.835	25.157	53.395	-85.101	-77.453	66.335	12.943	-80.773	-76.460	-72.383	-67.664	154.003	-72.140	-8191	255	
2296.200	1	1	0	0	0.31886	0.15009	0.046597	0.084919	0.10371	0.099626	0.29255	0.083988	0.059538	0.025334	0.1514	0.089109	0.15367	0.053461	0.16993	0.1563	-2.8021	-4.1979	-3.4458	-3.4562	-4.5229	-3.3979	-4.0125	-3.9875	-3.0625	-4.2021	-3.6771	-3.5458	-4.5042	-3.2958	-3.825	-4.1542	94.524	123.137	225.996	113.039	180.932	35.272	158.859	132.137	106.032	-71.230	133.877	54.026	144.824	79.461	34.601	-56.915	0.00048777	0.00050746	0.00037456	842.35	1.1191e-05	1.0231e-05	729.43	263.25	3.2108e-06	8.32e-06	261.8	111.18	93.415	42.94	1.2939e-05	49.687	0.0017376	0.0016604	0.00050446	910.1	1.9425e-05	1.8273e-05	790.11	286.19	1.9317e-05	1.8282e-05	299.16	122.17	111.67	45.941	2.1238e-05	54.473	12.494	256.733	118.752	-83.010	-39.358	39.376	-85.363	-77.249	-36.971	-34.188	-79.989	-76.135	-72.087	-67.313	130.212	-72.380	-8191	255	
2296.319	1	1	0	0	0.21885	0.14793	0.21423	0.16283	0.20107	0.19657	0.13557	0.20689	0.06021	0.18834	0.16041	0.11405	0.20757	0.14929	0.086154	0.16557	-2.7854	-4.3667	-3.7521	-3.3583	-4.475	-3.4229	-3.7062	-4.2188	-3.275	-4.2396	-3.9521	-3.3812	-4.4583	-3.6458	-3.6729	-4.2708	173.953	10.541	131.976	252.029	115.722	221.833	135.132	247.144	-53.098	31.336	22.162	-72.335	256.921	-69.548	207.260	190.699	0.00031959	0.0010108	0.00030459	839.53	8.3576e-06	5.6214e-06	731.27	262.82	9.9164e-06	1.095e-05	259.9	111.2	93.172	42.666	1.1266e-05	49.178	0.0017356	0.0017182	0.00055782	906.73	1.9551e-05	1.8953e-05	796.78	285.19	1.9268e-05	1.9169e-05	301.96	121.63	111.12	45.92	2.2587e-05	54.022	-1.663	-76.227	-17.109	-83.047	26.856	210.991	-84.922	-77.164	8.091	-46.619	-80.093	-76.009	-72.078	-67.426	82.616	-72.333	-8191	255	
2296.391	1	1	0	0	0.10954	0.19246	0.067098	0.067725	0.2103	0.093562	0.078781	0.14662	0.2429	0.19264	0.17854	0.3289	0.16032	0.35154	0.25335	0.14248	-2.8604	-4.0542	-3.9708	-3.1146	-4.3938	-3.5438	-3.6896	-4.3521	-3.3688	-3.8521	-4.0708	-3.3937	-4.2875	-3.7	-3.2354	-4.3083	206.277	81.157	259.571	225.699	66.287	186.755	188.472	162.117	199.926	-27.758	-27.594	246.093	245.165	165.740	-76.194	113.891	0.00083265	0.00097269	0.00025091	837.72	3.8987e-06	1.1255e-05	726.13	262.52	1.0504e-05	1.2369e-05	260.88	110.39	94.001	42.709	1.0895e-05	49.247	0.0017065	0.0018217	0.00058276	900.27	1.9146e-05	2.0356e-05	793.63	283.78	1.8884e-05	2.0748e-05	302.92	120.57	111.01	46.34	2.2327e-05	53.76	-1.508	44.724	64.305	-82.972	-33.503	244.456	-84.732	-77.520	16.494	-88.798	-80.541	-76.138	-72.043	-67.268	-28.239	-72.126	-8191	255	
2296.487	1	1	0	0	0.25761	0.32792	0.12449	0.055131	0.15047	0.3504	0.2388	0.10538	0.15932	0.2192	0.024708	0.2285	0.08378	0.2311	0.19789	0.11483	-2.8688	-3.9375	-4.1604	-3.1625	-4.2729	-3.8354	-3.5896	-4.55	-3.4146	-3.7125	-4.3146	-3.1396	-4.1708	-3.8271	-3.3625	-4.4021	44.166	138.806	1.563	148.724	163.262	71.620	-93.662	-50.529	215.194	134.924	-5.721	-43.222	69.798	171.195	31.637	170.295	0.00041222	0.00089938	0.00028698	840.6	4.6129e-06	7.9869e-06	722.72	262.74	1.3717e-05	7.5659e-06	262.5	111.31	93.761	42.791	2.1927e-05	49.373	0.0016789	0.001972	0.00057348	897.37	1.9045e-05	2.2103e-05	790.43	283.74	1.8804e-05	2.2347e-05	302.6	121.14	111.76	46.679	2.1543e-05	53.861	3.457	180.891	-26.459	-82.867	161.151	90.986	-85.262	-77.452	149.508	155.467	-80.243	-76.078	-72.190	-67.599	-21.345	-72.074	-8191	255	
2296.583	1	1	0	0	0.19576	0.11385	0.10806	0.20732	0.03878	0.17761	0.16069	0.27556	0.19324	0.072597	0.29283	0.26821	0.31564	0.32446	0.081407	0.24068	-2.8542	-3.6312	-4.3146	-3.2438	-4.2646	-3.9208	-3.3208	-4.4583	-3.4896	-3.7062	-4.3792	-3.1708	-4.0208	-4.1792	-3.1375	-4.3771	31.661	132.680	160.754	202.195	135.849	-82.622	185.602	247.405	-34.741	-2.988	-10.538	238.006	-60.171	184.748	6.592	180.965	0.00094648	0.00034018	0.00045415	832.43	1.0664e-05	5.0171e-06	726.1	263.21	1.1436e-05	4.6122e-06	266.12	111.6	93.672	42.986	1.8758e-05	50.225	0.0017143	0.0020951	0.0005474	889.77	1.9527e-05	2.2899e-05	788.02	283.42	1.9712e-05	2.289e-05	303.14	121.54	112.86	47.082	2.0505e-05	54.324	-18.777	185.883	-17.421	-83.016	260.175	131.073	-84.927	-77.240	138.878	-7.576	-80.193	-76.009	-72.426	-67.317	-16.118	-72.024	-8191	255	
2296.704	1	1	0	0	0.18232	0.063838	0.2324	0.1605	0.11497	0.19034	0.14935	0.22701	0.15824	0.01732	0.19634	0.090335	0.060135	0.20809	0.33424	0.082472	-3.075	-3.5875	-4.425	-3.3104	-4.0813	-4.4104	-3.3354	-4.3229	-3.7083	-3.6	-4.3896	-3.375	-3.7792	-4.3917	-3.2271	-4.1604	73.112	29.740	-15.833	252.593	18.831	17.867	95.165	223.523	172.165	221.210	-59.787	70.297	-87.148	201.268	138.063	156.274	0.00076528	0.0010613	0.0001733	830.89	5.1208e-06	9.0842e-06	730.52	264.52	7.6065e-06	1.4459e-05	265.28	112.94	94.294	43.088	4.2266e-06	50.224	0.0018194	0.0020866	0.00052063	885.59	2.0865e-05	2.274e-05	788.37	284.13	2.1146e-05	2.2174e-05	302.75	121.99	114.56	46.843	1.9768e-05	54.222	12.446	10.857	14.647	-83.012	150.167	81.925	-84.994	-77.304	196.633	1.774	-80.419	-76.190	-72.337	-67.463	74.743	-71.995	-8191	255	
2296.800	1	1	0	0	0.069885	0.11163	0.25833	0.20505	0.028735	0.23863	0.19255	0.1602	0.19435	0.21447	0.24834	0.28948	0.1836	0.06634	0.053756	0.33169	-3.2104	-3.3667	-4.4396	-3.3083	-3.7021	-4.3708	-3.5083	-4.3479	-3.7896	-3.1792	-4.5	-3.6333	-3.7167	-4.4396	-3.1146	-4.1854	113.134	207.747	241.302	104.265	228.193	51.955	247.972	229.426	-54.106	-89.126	132.566	243.281	109.904	12.808	211.059	237.020	0.00052359	0.0011874	0.00017344	824.96	1.4542e-05	6.0851e-06	724.84	263.28	9.5245e-06	1.2828e-05	264.9	111.37	94.029	42.895	7.0842e-06	49.404	0.0019088	0.0019803	0.00049891	881.96	2.1802e-05	2.1218e-05	778.32	282.47	2.199e-05	2.0836e-05	298.76	120.89	114.75	46.399	1.8796e-05	53.757	0.079	-68.817	264.587	-82.985	203.473	81.994	-84.873	-77.388	211.204	38.814	-80.347	-76.464	-72.384	-67.575	-21.150	-72.449	-8191	255	
2296.896	1	1	0	0	0.28675	0.20791	0.16087	0.2198	0.055459	0.078322	0.10486	0.054123	0.17909	0.029664	0.19702	0.25887	0.11621	0.22998	0.17272	0.13372	-3.5938	-3.3167	-4.4625	-3.7771	-3.6354	-4.3187	-3.1146	-3.9521	-4.0417	-3.2188	-4.4917	-3.6125	-3.5875	-4.4688	-3.3563	-3.9792	-88.808	-48.440	216.842	132.317	-21.232	13.370	216.669	143.881	-63.425	-75.864	-4.356	82.714	97.323	235.888	9.232	234.459	0.00033861	0.0012277	0.00035038	823.9	1.8741e-05	4.6971e-06	719.85	261.9	4.6414e-06	7.0329e-06	262.28	110.99	93.55	42.764	9.1395e-06	49.57	0.0019473	0.0018625	0.00047503	881.8	2.1976e-05	2.0122e-05	771.16	282.67	2.1688e-05	1.9631e-05	295.31	121.1	113.88	45.878	1.7964e-05	54.03	51.973	-73.421	-15.586	-82.920	-20.370	2.073	-85.082	-77.072	168.095	-34.258	-80.674	-76.437	-71.657	-67.450	-77.352	-72.146	-8191	255	
2296.992	1	1	0	0	0.025388	0.073694	0.30463	0.29581	0.17277	0.11503	0.23496	0.27568	0.08975	0.21024	0.16211	0.25729	0.089189	0.1563	0.14184	0.09672	-3.8417	-3.2167	-4.1229	-3.6729	-3.4917	-4.4125	-3.5771	-3.7771	-4.1542	-3.3063	-4.3938	-3.7625	-3.3563	-4.4437	-3.4125	-3.6729	196.381	-55.241	77.100	-52.011	244.535	36.933	232.925	240.590	20.838	66.321	139.489	205.258	70.496	239.724	-90.444	157.614	0.00050687	0.0011248	0.00037309	822.02	1.537e-05	4.7182e-06	721.67	263.77	1.3804e-05	1.2649e-06	267.61	112.58	93.345	42.949	4.6511e-06	49.792	0.0018711	0.0017678	0.00045942	884.33	2.1078e-05	1.9078e-05	772.49	284.83	2.0554e-05	1.8747e-05	298.4	122.64	112.66	45.945	1.7813e-05	54.673	30.611	-59.907	41.866	-83.019	28.877	64.941	-85.008	-77.221	80.693	-21.904	-80.472	-76.273	-72.422	-67.438	180.786	-71.908	-8191	255	
2297.089	1	1	0	0	0.092641	0.050892	0.12354	0.10465	0.1013	0.32436	0.2882	0.09468	0.081296	0.23398	0.21376	0.16335	0.11924	0.092856	0.025103	0.17853	-4.1542	-3.1458	-4.0083	-3.8854	-3.2979	-4.3917	-3.7708	-3.7833	-4.2688	-3.3125	-4.2708	-4.1458	-3.3708	-4.475	-3.5062	-3.7229	210.562	188.937	233.193	-63.601	247.617	-22.211	146.321	8.418	152.771	116.202	225.250	232.274	218.184	122.381	106.397	263.029	0.00067912	0.0011205	3.6542e-05	823.98	1.9061e-05	3.7292e-06	729.5	265.06	1.8159e-05	6.0012e-06	268.13	112.44	94.288	42.87	7.9637e-06	50.145	0.0017623	0.0016727	0.00046019	886.38	1.9569e-05	1.828e-05	779.04	286.56	1.9264e-05	1.7813e-05	300.74	123.25	111.41	45.796	1.85e-05	54.772	0.495	-16.807	142.649	-83.043	-29.968	-55.719	-84.823	-77.270	78.713	-40.396	-80.170	-76.154	-72.592	-67.394	182.333	-72.239	-8191	255	
2297.185	1	1	0	0	0.10388	0.28223	0.087736	0.13598	0.091566	0.11074	0.20229	0.11645	0.15056	0.12071	0.22856	0.083455	0.1003	0.14378	0.18046	0.09942	-3.9521	-3.2875	-3.8521	-4.2208	-3.2667	-4.2646	-3.5708	-3.5167	-4.3458	-3.1646	-3.9042	-4.3792	-3.1104	-4.3917	-3.7604	-3.4792	-44.657	96.953	-44.506	253.829	34.113	29.011	220.065	30.024	41.118	97.256	213.586	78.088	-66.787	188.921	256.966	243.989	0.00062985	0.00035931	0.00012597	826.06	8.4929e-06	8.1624e-06	724.39	264.51	6.7394e-06	1.8925e-05	265.65	111.92	93.869	42.839	1.5293e-05	49.786	0.0016636	0.0015912	0.00047994	887.53	1.8479e-05	1.7278e-05	778.71	284.89	1.8106e-05	1.6942e-05	299.66	121.87	109.8	45.537	1.9271e-05	54.012	29.510	-34.869	162.547	-83.262	10.138	133.609	-85.166	-77.283	81.294	1.299	-80.145	-76.330	-72.615	-67.474	98.495	-72.054	-8191	255	
2297.304	1	1	0	0	0.070116	0.29599	0.22416	0.093241	0.17951	0.16038	0.2732	0.24165	0.1841	0.41162	0.22344	0.16402	0.29634	0.23045	0.081182	0.071416	-3.9083	-3.2708	-3.6292	-4.3208	-3.1521	-4.1083	-3.8104	-3.6042	-4.5771	-3.4229	-3.7417	-4.3417	-3.1646	-4.1604	-3.8354	-3.4708	219.586	-37.107	200.498	-22.192	-88.037	-28.357	148.503	181.299	211.592	163.812	221.925	-84.467	234.525	219.263	244.234	191.039	0.00041269	0.0002815	0.00015926	824.54	1.4749e-06	7.9586e-06	717.23	263.71	1.2059e-05	5.3661e-06	263.92	110.43	92.685	42.71	5.0913e-06	49.624	0.0015665	0.0015562	0.00050399	878.61	1.7814e-05	1.7207e-05	776.17	281.94	1.7523e-05	1.729e-05	300.08	120.63	108.7	45.536	2.0044e-05	53.668	31.998	143.059	13.116	-83.186	-20.979	205.838	-84.929	-77.135	79.413	72.024	-80.603	-76.237	-72.042	-67.476	-14.707	-71.910	-8191	255	
2297.400	1	1	0	0	0.14917	0.12585	0.09468	0.14827	0.40485	0.14684	0.28764	0.13766	0.30475	0.036456	0.3033	0.1099	0.18651	0.056874	0.069192	0.25194	-3.9625	-3.3708	-3.7687	-4.4875	-2.9896	-4.075	-4.1167	-3.3583	-4.1312	-3.4437	-3.6625	-4.2667	-3.2125	-4.0563	-4.1354	-2.9667	-23.337	145.560	250.229	-54.243	5.550	211.735	262.317	147.730	227.758	-5.151	195.947	170.498	232.698	103.901	206.368	156.951	0.00048376	0.00041943	0.00027465	819.97	5.941e-06	9.4597e-06	718.72	263.52	1.5102e-05	1.2883e-05	267.17	111.6	93.815	42.794	9.544e-06	49.816	0.0015194	0.0016207	0.00051785	873.22	1.7164e-05	1.813e-05	779.73	281.14	1.7034e-05	1.8257e-05	301.88	120.59	108.55	45.872	2.0086e-05	53.794	31.886	250.601	-42.900	-82.983	229.545	146.178	-84.883	-77.577	14.186	187.492	-80.368	-76.066	-72.250	-67.425	-71.387	-72.146	-8191	255	
2297.496	1	1	0	0	0.18704	0.062199	0.078703	0.26263	0.14656	0.10235	0.21557	0.12658	0.051191	0.14701	0.21745	0.42279	0.20534	0.195	0.13726	0.12461	-3.8104	-3.7458	-3.425	-4.2	-3.3875	-4.0208	-4.1333	-3.3583	-4.3688	-3.6854	-3.2812	-4.4187	-3.4646	-3.7854	-4.1687	-3.2271	81.696	175.871	52.335	201.174	16.461	76.936	263.494	179.177	163.868	182.190	-53.968	-85.192	177.288	-86.379	52.198	-66.508	0.00082866	5.7343e-05	0.00012317	819.24	4.0382e-06	1.2316e-06	721.63	263.16	8.1127e-06	4.5038e-06	268.76	113.86	94.003	43.121	1.4801e-05	50.481	0.0014888	0.0017511	0.00051025	871.71	1.6989e-05	1.9537e-05	781.6	281.02	1.7051e-05	1.9729e-05	304.27	122.05	109.43	46.411	1.9394e-05	54.089	32.348	242.876	83.698	-82.801	-26.031	-61.953	-85.064	-77.490	-57.859	202.173	-80.187	-76.243	-72.275	-67.608	43.348	-72.367	-8191	255	
2297.592	1	1	0	0	0.1517	0.16918	0.12977	0.3153	0.20678	0.12693	0.13606	0.059563	0.049399	0.21936	0.33217	0.15373	0.11511	0.1225	0.2412	0.31413	-3.8937	-3.875	-3.425	-4.3542	-3.4167	-3.6604	-4.5208	-3.3104	-4.0375	-4.0312	-3.1229	-4.5771	-3.6583	-3.7438	-4.2646	-3.1958	174.165	31.004	31.889	264.016	102.839	186.417	224.119	-56.384	226.904	39.229	235.360	-69.029	-73.610	14.768	-27.922	215.789	0.0003438	0.00064706	0.00050611	818.22	1.3551e-05	3.7192e-06	725.65	264.05	4.3328e-06	7.0957e-06	269.56	113.19	93.835	43.075	8.2643e-06	50.317	0.001539	0.0018627	0.00049103	870.86	1.773e-05	2.0557e-05	778.97	280.91	1.7662e-05	2.0294e-05	300.87	120.96	110.27	46.423	1.8511e-05	53.67	-8.917	198.943	-59.707	-82.716	87.197	44.855	-85.083	-77.228	262.518	-16.941	-80.214	-75.911	-72.280	-67.716	40.764	-72.158	-8191	255	
2297.688	1	1	0	0	0.096286	0.25441	0.12282	0.32251	0.15856	0.11884	0.098367	0.065259	0.065578	0.23696	0.28408	0.22676	0.17256	0.10635	0.17498	0.24633	-3.5958	-3.9917	-3.2042	-4.2937	-3.5542	-3.4458	-4.5813	-3.3917	-4.0979	-4.1646	-3.4437	-4.3292	-3.7125	-3.6229	-4.4854	-3.1646	35.661	-88.505	246.793	182.286	104.374	139.302	237.055	38.632	55.620	-24.226	183.931	-38.277	187.470	228.733	1.393	240.763	0.00086923	3.9753e-05	0.00038478	816.58	1.1989e-05	1.8935e-06	720.94	261.33	1.0352e-05	1.625e-05	265.12	111.66	92.686	42.712	6.8639e-06	49.25	0.001621	0.0018698	0.00047266	866.49	1.8828e-05	2.0526e-05	771.41	278.42	1.9204e-05	2.047e-05	296.01	119.9	111.44	46.091	1.8276e-05	53.144	-2.992	171.183	19.016	-83.084	114.541	-77.011	-84.797	-77.448	-65.798	53.624	-80.464	-76.436	-72.400	-67.581	125.142	-72.178	-8191	255	
#DATA ENDS
