BOXY.EXE: ISS Imagent and Oximeter Data Acquisition Program Version 0.80
Ascii Record File

#ACQ INFORMATION
2  Detector Channels 
16  External MUX Channels 
1  Auxiliary Channels 
5000  Waveform (CCF) Frequency (Hz)
1  Waveforms Skipped 
30  Waveforms Averaged 
1  Cycles Averaged 
16  Acquisitions per Waveform 
10.0806  Updata Rate (Hz) 

#FILE INFORMATION
TRUE -- External MUX Channel results are PARSED.
FALSE -- AC DC and Phase are NOT grouped.
TRUE -- Companion Program Settings File CREATED.
FALSE -- AC data not excluded
FALSE -- DC data not excluded
FALSE -- Phase data not excluded
FALSE -- Auxillary Chn. data not excluded
Tab delimiters

#CALIBRATION STATE
TRUE -- Waveform Calibration Values APPLIED.


#AUX CALIBRATION VALUES
Val Type	aux-1	

Term	1.0000e+00	
Factor	0.0000e+00	


#WF CALIBRATION VALUES
A = Detector Channel
Val Type	A-AC1	A-AC2	A-AC3	A-AC4	A-AC5	A-AC6	A-AC7	A-AC8	A-AC9	A-AC10	A-AC11	A-AC12	A-AC13	A-AC14	A-AC15	A-AC16	A-DC1	A-DC2	A-DC3	A-DC4	A-DC5	A-DC6	A-DC7	A-DC8	A-DC9	A-DC10	A-DC11	A-DC12	A-DC13	A-DC14	A-DC15	A-DC16	A-Ph1	A-Ph2	A-Ph3	A-Ph4	A-Ph5	A-Ph6	A-Ph7	A-Ph8	A-Ph9	A-Ph10	A-Ph11	A-Ph12	A-Ph13	A-Ph14	A-Ph15	A-Ph16	

Term	0.00000e+00	0.00000e+00	0.00000e+00	0.00000e+00	0.00000e+00	0.00000e+00	0.00000e+00	0.00000e+00	0.00000e+00	0.00000e+00	0.00000e+00	0.00000e+00	0.00000e+00	0.00000e+00	0.00000e+00	0.00000e+00	0.00000e+00	0.00000e+00	0.00000e+00	0.00000e+00	0.00000e+00	0.00000e+00	0.00000e+00	0.00000e+00	0.00000e+00	0.00000e+00	0.00000e+00	0.00000e+00	0.00000e+00	0.00000e+00	0.00000e+00	0.00000e+00	0.00000e+00	0.00000e+00	0.00000e+00	0.00000e+00	0.00000e+00	0.00000e+00	0.00000e+00	0.00000e+00	0.00000e+00	0.00000e+00	0.00000e+00	0.00000e+00	0.00000e+00	0.00000e+00	0.00000e+00	0.00000e+00	
Factor	1.00000e+00	1.00000e+00	1.00000e+00	1.00000e+00	1.00000e+00	1.00000e+00	1.00000e+00	1.00000e+00	1.00000e+00	1.00000e+00	1.00000e+00	1.00000e+00	1.00000e+00	1.00000e+00	1.00000e+00	1.00000e+00	1.00000e+00	1.00000e+00	1.00000e+00	1.00000e+00	1.00000e+00	1.00000e+00	1.00000e+00	1.00000e+00	1.00000e+00	1.00000e+00	1.00000e+00	1.00000e+00	1.00000e+00	1.00000e+00	1.00000e+00	1.00000e+00	X	X	X	X	X	X	X	X	X	X	X	X	X	X	X	X	

B = Detector Channel
Val Type	B-AC1	B-AC2	B-AC3	B-AC4	B-AC5	B-AC6	B-AC7	B-AC8	B-AC9	B-AC10	B-AC11	B-AC12	B-AC13	B-AC14	B-AC15	B-AC16	B-DC1	B-DC2	B-DC3	B-DC4	B-DC5	B-DC6	B-DC7	B-DC8	B-DC9	B-DC10	B-DC11	B-DC12	B-DC13	B-DC14	B-DC15	B-DC16	B-Ph1	B-Ph2	B-Ph3	B-Ph4	B-Ph5	B-Ph6	B-Ph7	B-Ph8	B-Ph9	B-Ph10	B-Ph11	B-Ph12	B-Ph13	B-Ph14	B-Ph15	B-Ph16	

Term	0.00000e+00	0.00000e+00	0.00000e+00	0.00000e+00	0.00000e+00	0.00000e+00	0.00000e+00	0.00000e+00	0.00000e+00	0.00000e+00	0.00000e+00	0.00000e+00	0.00000e+00	0.00000e+00	0.00000e+00	0.00000e+00	0.00000e+00	0.00000e+00	0.00000e+00	0.00000e+00	0.00000e+00	0.00000e+00	0.00000e+00	0.00000e+00	0.00000e+00	0.00000e+00	0.00000e+00	0.00000e+00	0.00000e+00	0.00000e+00	0.00000e+00	0.00000e+00	3.11442e+01	-1.32585e+02	-1.25137e+02	-1.82803e+02	-6.99753e+01	-6.57492e+01	-1.55363e+02	-1.62015e+02	-5.19944e+01	-6.84061e+01	-1.72002e+02	-1.69539e+02	-1.79829e+02	-1.77289e+02	-5.95372e+01	-1.49288e+02	
Factor	4.46143e-05	1.55393e-04	3.79425e-05	1.69166e-01	1.65811e-06	1.54395e-06	1.50608e-01	4.38241e-02	2.52180e-06	1.64082e-06	8.20883e-02	2.44333e-02	2.46613e-02	7.74829e-03	1.75397e-06	1.09675e-02	1.31998e-05	1.98917e-05	5.63019e-06	8.76786e-02	2.03302e-07	2.24248e-07	7.35378e-02	2.28266e-02	1.97474e-07	2.25893e-07	4.16175e-02	1.24053e-02	1.29592e-02	4.07900e-03	2.08931e-07	5.61216e-03	X	X	X	X	X	X	X	X	X	X	X	X	X	X	X	X	



#DISTANCE SETTINGS
A = Detector Channel
A-1	A-2	A-3	A-4	A-5	A-6	A-7	A-8	A-9	A-10	A-11	A-12	A-13	A-14	A-15	A-16	

2.5000e+00	3.0000e+00	2.5000e+00	3.0000e+00	2.0000e+00	3.0000e+00	1.5000e+00	3.0000e+00	3.0000e+00	3.0000e+00	3.0000e+00	3.0000e+00	3.0000e+00	3.0000e+00	1.5000e+00	3.0000e+00	

B = Detector Channel
B-1	B-2	B-3	B-4	B-5	B-6	B-7	B-8	B-9	B-10	B-11	B-12	B-13	B-14	B-15	B-16	

1.0000e+01	1.0000e+01	1.0000e+01	1.4400e+00	1.0000e+01	1.0000e+01	1.5100e+00	1.9400e+00	1.0000e+01	1.0000e+01	1.9900e+00	2.4900e+00	2.4100e+00	2.9000e+00	1.0000e+01	2.9800e+00	




#DATA BEGINS
time	group	step	mark	flag	A-AC1	A-AC2	A-AC3	A-AC4	A-AC5	A-AC6	A-AC7	A-AC8	A-AC9	A-AC10	A-AC11	A-AC12	A-AC13	A-AC14	A-AC15	A-AC16	A-DC1	A-DC2	A-DC3	A-DC4	A-DC5	A-DC6	A-DC7	A-DC8	A-DC9	A-DC10	A-DC11	A-DC12	A-DC13	A-DC14	A-DC15	A-DC16	A-Ph1	A-Ph2	A-Ph3	A-Ph4	A-Ph5	A-Ph6	A-Ph7	A-Ph8	A-Ph9	A-Ph10	A-Ph11	A-Ph12	A-Ph13	A-Ph14	A-Ph15	A-Ph16	B-AC1	B-AC2	B-AC3	B-AC4	B-AC5	B-AC6	B-AC7	B-AC8	B-AC9	B-AC10	B-AC11	B-AC12	B-AC13	B-AC14	B-AC15	B-AC16	B-DC1	B-DC2	B-DC3	B-DC4	B-DC5	B-DC6	B-DC7	B-DC8	B-DC9	B-DC10	B-DC11	B-DC12	B-DC13	B-DC14	B-DC15	B-DC16	B-Ph1	B-Ph2	B-Ph3	B-Ph4	B-Ph5	B-Ph6	B-Ph7	B-Ph8	B-Ph9	B-Ph10	B-Ph11	B-Ph12	B-Ph13	B-Ph14	B-Ph15	B-Ph16	aux-1	digaux	

18103.186	1	1	0	256	0.19469	0.19992	0.069792	0.36009	0.052533	0.080225	0.078707	0.30992	0.075841	0.10283	0.022576	0.29604	0.17864	0.11727	0.2102	0.20445	-2.3167	-2.8104	-2.8208	-2.7667	-2.9104	-2.8063	-2.8167	-3.2083	-2.875	-2.8729	-3.05	-2.8333	-3.1521	-2.8312	-2.8042	-2.9375	-19.051	-63.442	-68.445	154.256	-67.368	62.562	171.623	165.522	-112.580	176.230	16.014	185.254	-162.839	-41.131	20.419	150.308	0.00061768	0.00029322	0.00010677	1042.8	3.546e-06	2.8793e-06	1103.1	215.09	4.7418e-06	3.1863e-06	271.81	77.262	60.49	17.61	3.5311e-06	24.77	0.00032078	0.00028615	7.9222e-05	1030.4	3.2931e-06	3.0381e-06	1091.5	214.51	3.2542e-06	3.3512e-06	270.63	77.369	60.28	17.814	3.2367e-06	25.283	3.397	-80.572	-78.437	-162.942	-37.444	-37.770	-162.874	-155.673	-44.942	-36.679	-155.603	-149.526	-148.572	-141.584	-45.870	-142.766	-8191	255	
18103.281	1	1	0	0	0.17834	0.10916	0.14226	0.12863	0.22897	0.12708	0.2831	0.28307	0.13713	0.13383	0.17852	0.18515	0.17154	0.26892	0.092763	0.093117	-2.2771	-2.575	-3.0604	-2.8438	-2.9583	-2.9437	-2.825	-3.1521	-2.8292	-2.7625	-2.9792	-2.7188	-2.9042	-3	-2.7083	-3.0479	164.351	93.150	6.011	-122.738	149.492	6.927	115.423	126.605	159.897	-69.921	134.089	138.407	143.310	143.750	181.992	50.215	0.00057466	0.00032969	7.4901e-05	1044.3	4.1112e-06	4.8112e-06	1096.7	215.82	4.8175e-06	2.4454e-06	270.72	76.561	60.674	17.646	3.8314e-06	24.725	0.00031878	0.00030148	8.0629e-05	1030.9	3.4045e-06	3.3791e-06	1090.7	214.71	3.1538e-06	3.2002e-06	270.27	77.127	60.381	17.826	3.1048e-06	25.333	-0.326	-74.608	-88.406	-162.853	-31.826	-43.121	-163.035	-155.681	-37.158	-35.317	-155.829	-149.492	-149.329	-141.865	-17.286	-142.751	-8191	255	
18103.402	1	1	0	0	0.16173	0.12529	0.11489	0.29388	0.19478	0.074173	0.066655	0.090168	0.095825	0.13132	0.28501	0.2186	0.20784	0.11363	0.12247	0.1781	-2.3354	-2.7812	-3.0917	-2.9417	-2.8354	-3.1083	-2.7958	-3.1375	-2.8458	-2.8833	-2.9938	-2.7396	-2.7854	-2.8979	-2.675	-3.0917	-171.218	-147.900	-131.697	93.259	108.396	-62.221	-150.888	171.531	-142.891	54.543	-154.214	160.570	158.182	89.491	32.264	75.110	0.00061927	0.00022538	8.8615e-05	1042.9	2.0607e-06	4.3223e-06	1102.9	215.53	4.7028e-06	4.1825e-06	270.36	77.284	60.26	17.716	3.6829e-06	24.961	0.00030778	0.00031549	7.7157e-05	1030.4	3.2495e-06	3.0694e-06	1090.7	214.8	3.2489e-06	3.1978e-06	270.28	77.35	60.404	17.826	3.0634e-06	25.395	7.951	-97.334	-83.312	-162.904	-36.059	-22.983	-163.054	-155.769	-64.129	-39.158	-155.742	-149.339	-149.150	-141.996	-20.973	-142.755	-8191	255	
18103.475	1	1	0	0	0.065935	0.3172	0.26701	0.25677	0.18447	0.2368	0.096343	0.24418	0.14744	0.1517	0.062699	0.20367	0.11727	0.31383	0.42251	0.18481	-2.6083	-2.7208	-3.0938	-2.9979	-2.8479	-3.1375	-2.9313	-3.1146	-2.9917	-2.6312	-3.1771	-2.8542	-2.925	-3.0479	-2.7	-3.0479	149.933	-112.675	40.299	148.246	153.629	159.011	161.246	135.375	51.084	139.050	-6.746	18.263	106.583	-157.074	-164.669	177.751	0.0006295	0.0003758	7.943e-05	1036.9	3.0847e-06	1.8576e-06	1101.6	216.91	5.1877e-06	2.1902e-06	269.7	76.987	60.32	17.558	3.2564e-06	24.942	0.00032634	0.00030898	7.3814e-05	1028.9	3.2367e-06	2.9825e-06	1091.9	215.01	3.4747e-06	3.4891e-06	270.4	76.985	60.358	17.808	3.5253e-06	25.388	2.187	-88.445	-88.935	-162.763	-27.064	-42.686	-162.978	-155.456	-31.762	-43.725	-156.168	-149.523	-148.972	-141.986	-18.236	-142.492	-8191	255	
18103.570	1	1	0	0	0.094457	0.19456	0.095352	0.14436	0.15631	0.25437	0.26112	0.14851	0.24807	0.24854	0.40172	0.14455	0.27875	0.2642	0.24896	0.083781	-2.5271	-2.6771	-3.0271	-2.7354	-2.7687	-3.1542	-3.0417	-2.9375	-2.8667	-2.5979	-3.1271	-2.9188	-2.9437	-3.1063	-2.7479	-2.8812	-89.054	-79.281	-8.490	-147.365	-25.908	88.830	104.604	-144.349	-75.823	-71.649	-171.422	-118.192	-163.557	166.569	138.631	-151.990	0.00061943	0.00040192	8.9076e-05	1036.6	3.9693e-06	3.5528e-06	1101.3	216.66	9.9006e-06	2.6419e-06	270	76.332	60.233	17.528	5.1435e-06	24.966	0.00035156	0.00035838	9.2406e-05	1027.3	4.18e-06	3.8519e-06	1091.3	214.59	4.1819e-06	3.9061e-06	270.37	76.734	60.132	17.759	4.0276e-06	25.211	6.879	-58.655	-74.808	-163.037	-8.624	-13.321	-162.870	-155.611	-48.478	-28.754	-155.884	-149.413	-149.089	-141.816	-24.696	-142.687	-8191	255	
18103.666	1	1	0	0	0.1586	0.16306	0.2473	0.21341	0.31667	0.15304	0.21448	0.19319	0.0721	0.10147	0.20364	0.059986	0.24838	0.085475	0.15483	0.22951	-2.7562	-2.7042	-2.9313	-3.1	-2.8333	-3.0938	-2.9938	-2.9813	-2.9792	-2.7771	-3.0687	-3.1542	-2.7833	-3.3208	-2.8312	-3.0812	123.796	45.345	1.235	131.189	-143.703	-79.820	151.216	-165.755	160.209	-134.770	133.546	94.563	84.279	102.327	18.853	22.572	0.0005757	0.0005138	8.368e-05	1034.9	2.5976e-06	3.4201e-06	1097.5	215.18	4.6513e-06	2.2745e-06	270.55	76.644	60.122	17.458	3.2286e-06	24.904	0.00038202	0.00038917	9.657e-05	1027	3.8827e-06	3.7627e-06	1089.4	213.92	3.9133e-06	3.7922e-06	270.88	76.928	60.137	17.662	3.6689e-06	25.34	2.005	-90.979	-67.625	-162.908	-40.217	-16.830	-162.779	-155.908	-30.418	12.037	-156.165	-149.662	-149.500	-141.729	-37.272	-142.801	-8191	255	
18103.787	1	1	0	0	0.39994	0.17147	0.03378	0.38591	0.03588	0.12961	0.29493	0.062486	0.050191	0.23576	0.14664	0.22018	0.17818	0.22656	0.10043	0.34326	-2.6333	-2.7354	-3.0875	-3.1521	-2.8792	-3.175	-3.0146	-2.9354	-2.9688	-2.6604	-3.0146	-3.1146	-2.675	-3.1875	-2.8063	-3.0187	-59.005	-90.057	-50.649	123.281	104.490	-15.698	141.153	-98.212	-34.835	-162.193	176.431	183.399	-14.538	121.814	113.038	104.904	0.00062444	0.00038364	6.7871e-05	1040.1	4.3277e-06	2.2357e-06	1096.7	215.46	1.0246e-05	3.7712e-06	270.72	76.87	60.122	17.481	9.0995e-07	24.849	0.00034083	0.00033629	9.1362e-05	1025.8	3.7107e-06	3.6258e-06	1089	214.45	3.6023e-06	3.4378e-06	270.17	77.158	59.992	17.709	3.4391e-06	25.216	6.964	-77.680	-62.806	-162.700	-32.633	-1.031	-163.014	-155.756	-41.783	-34.590	-156.233	-149.599	-149.338	-141.493	-29.021	-142.527	-8191	255	
18103.881	1	1	0	0	0.16682	0.045847	0.26374	0.18709	0.11985	0.055284	0.3145	0.060881	0.22588	0.20602	0.21545	0.14816	0.20745	0.2154	0.29988	0.26072	-2.7667	-2.7354	-2.975	-3.0062	-2.6	-3.1417	-3.0208	-2.9542	-3.0958	-2.8667	-3.0917	-3.1229	-2.7854	-3.0646	-2.8521	-2.8354	18.409	54.218	75.402	-144.430	115.844	112.162	99.837	34.270	-88.580	143.333	-92.973	105.265	165.928	160.558	-10.618	136.327	0.00058435	0.00043246	8.7713e-05	1040.6	3.4657e-06	3.4822e-06	1095.7	214.45	7.3074e-06	3.2842e-06	270.32	77.135	60.109	17.489	5.5535e-06	24.739	0.00033836	0.0003198	8.4383e-05	1027.2	3.5692e-06	3.2067e-06	1088.7	214.38	3.3233e-06	3.3395e-06	269.96	77.148	60.083	17.698	3.3324e-06	25.162	4.761	-81.449	-97.150	-162.840	-66.027	-8.828	-162.763	-155.661	-51.528	-31.230	-155.754	-149.350	-148.873	-141.901	-26.197	-142.417	-8191	255	
18103.977	1	1	0	0	0.13436	0.14043	0.13653	0.056424	0.15735	0.13242	0.11989	0.12226	0.1332	0.032483	0.041084	0.1418	0.21558	0.26578	0.19549	0.20281	-2.6583	-2.7792	-2.9062	-3.1458	-2.7125	-3.0708	-3.0104	-2.8771	-3.1667	-2.7354	-2.8646	-3.0687	-2.8	-3	-2.9604	-2.7438	50.683	28.156	-151.180	-116.045	-146.322	77.289	60.340	30.233	112.771	166.070	6.600	124.827	-170.692	24.679	13.421	-132.727	0.00062603	0.00035328	4.9089e-05	1032.9	2.8273e-06	1.4632e-06	1091.4	216.12	4.6666e-06	2.2788e-06	268.53	76.779	59.727	17.613	3.0459e-06	24.75	0.0003317	0.00029846	8.4605e-05	1022.6	3.3685e-06	3.3324e-06	1084.3	214.45	3.2917e-06	3.1564e-06	269.7	76.876	59.851	17.736	2.9407e-06	25.169	6.677	-96.729	-78.650	-162.876	-40.947	-14.680	-162.936	-155.805	-7.871	-30.420	-155.618	-149.880	-149.160	-142.003	-21.622	-142.816	-8191	255	
18104.074	1	1	0	0	0.2679	0.22671	0.21701	0.15586	0.077332	0.15704	0.24328	0.22591	0.16943	0.15975	0.12439	0.38195	0.096341	0.22341	0.083326	0.13271	-2.5021	-2.7042	-2.7896	-3.1292	-2.7792	-3.0979	-3.0333	-2.6167	-2.9833	-2.9271	-2.925	-3.0979	-2.7188	-3.1083	-2.9562	-2.7083	-59.330	59.255	-29.143	-135.972	49.548	19.739	142.036	126.503	175.146	156.957	-40.003	133.731	139.702	54.592	-163.825	-114.644	0.00061505	0.00053883	8.7715e-05	1029.9	2.8182e-06	2.6312e-06	1088.5	214.91	4.284e-06	3.8822e-06	269.96	76.855	59.64	17.578	5.2253e-06	24.451	0.00030951	0.00027094	7.1844e-05	1020.1	3.1872e-06	2.8526e-06	1080.8	213.61	2.8605e-06	2.8533e-06	269.52	76.881	59.751	17.697	2.8763e-06	25.066	5.968	-93.679	-66.722	-162.474	-77.953	26.219	-162.862	-155.597	-46.026	-16.236	-155.650	-149.276	-149.015	-142.013	-27.030	-142.442	-8191	255	
18104.170	1	1	0	0	0.21691	0.011502	0.11264	0.26127	0.10238	0.095663	0.36017	0.32761	0.073077	0.23535	0.30632	0.12729	0.19742	0.014399	0.10776	0.06473	-2.675	-2.8979	-2.7875	-3.1833	-2.6688	-2.925	-3.1667	-2.9062	-3.0708	-2.9083	-2.8875	-3.2875	-2.8708	-2.9854	-2.9917	-2.9271	-121.251	-64.056	148.973	55.540	5.121	19.054	103.261	155.189	-129.578	-52.616	-149.932	170.359	152.750	156.345	105.065	41.900	0.00058093	0.00030553	0.00010969	1028	3.7504e-06	3.3607e-06	1085	214.22	4.2981e-06	3.8281e-06	270.86	76.481	59.627	17.476	2.3538e-06	24.636	0.00030156	0.00028723	7.053e-05	1016.6	3.0284e-06	2.9218e-06	1077.8	213.4	2.9436e-06	3.0025e-06	269.03	76.618	59.751	17.665	2.9625e-06	25.105	-1.930	-92.987	-85.722	-162.627	-53.396	-13.911	-162.799	-155.407	-51.112	-22.271	-155.927	-149.769	-149.059	-141.984	-9.508	-142.613	-8191	255	
18104.266	1	1	0	0	0.15037	0.19544	0.186	0.072611	0.16194	0.25716	0.54419	0.2336	0.10203	0.031468	0.10703	0.19686	0.10379	0.063267	0.077054	0.028352	-2.6375	-2.7792	-2.725	-3.1917	-2.7375	-2.9208	-3.2271	-2.7896	-2.8979	-2.9958	-2.9333	-3.0667	-2.8812	-2.875	-3.0583	-2.775	-128.236	173.995	-42.213	-155.172	11.612	-15.416	141.081	153.819	73.194	-84.288	139.571	80.305	135.153	90.202	-90.967	-70.842	0.00067217	0.00028365	6.9573e-05	1025.3	2.2706e-06	3.2356e-06	1080.1	212.98	6.1449e-06	2.4386e-06	267.77	76.187	60.239	17.457	3.6659e-06	24.63	0.00031561	0.00025644	7.8576e-05	1014.2	3.0195e-06	2.9129e-06	1073.8	212.43	3.0761e-06	3.0839e-06	267.87	76.514	59.854	17.658	2.764e-06	25.106	2.440	-103.957	-75.070	-162.661	-18.452	-10.410	-162.860	-155.493	-30.398	-26.967	-155.559	-149.880	-149.245	-141.596	-15.172	-142.576	-8191	255	
18104.387	1	1	0	0	0.29377	0.29334	0.18283	0.12297	0.28618	0.079641	0.023696	0.15887	0.077439	0.14018	0.038965	0.0495	0.24222	0.1601	0.10945	0.14614	-2.6208	-2.8833	-2.6167	-3.1479	-2.7896	-3.0646	-3.2062	-2.8688	-2.8979	-3.1104	-2.8896	-3.1521	-2.8812	-2.8979	-3.075	-2.8271	25.657	122.646	-129.299	119.938	80.200	161.176	-110.360	161.788	-167.018	-19.658	-118.458	137.489	156.397	-123.805	-62.479	-29.693	0.00060315	0.00018754	5.6228e-05	1022.7	3.1279e-06	2.8864e-06	1082.4	214.04	4.871e-06	1.7977e-06	269.21	76.542	59.98	17.504	3.3903e-06	24.678	0.00030593	0.00027131	7.0166e-05	1013.1	2.9597e-06	2.8778e-06	1074.7	212.89	2.9173e-06	2.9065e-06	268.65	76.567	59.813	17.656	2.8654e-06	25.156	2.198	-69.678	-98.103	-162.692	-30.777	-25.901	-162.936	-155.625	-42.111	-50.887	-156.125	-149.400	-149.213	-141.901	-14.576	-142.903	-8191	255	
18104.482	1	1	0	0	0.11306	0.057437	0.18519	0.1059	0.044901	0.13842	0.066229	0.12553	0.12911	0.033768	0.4032	0.11498	0.13314	0.048494	0.082217	0.20428	-2.5104	-3.0146	-2.7021	-3.0312	-2.825	-2.9	-3.3021	-2.8417	-2.9	-2.8771	-2.8042	-3.0458	-2.9062	-2.6583	-2.8688	-3.0125	-166.500	-40.688	180.631	-5.178	94.240	-119.791	106.275	186.098	-117.039	19.533	175.074	-106.004	30.350	-33.452	-29.882	109.561	0.00063935	0.00034797	8.8213e-05	1025.7	3.2302e-06	2.3389e-06	1084.9	214.08	5.0282e-06	4.3774e-06	269.83	76.638	60.189	17.53	2.2649e-06	24.863	0.00031165	0.00026879	7.5046e-05	1016.2	3.0754e-06	3.0843e-06	1076.8	212.92	3.3032e-06	2.9997e-06	269.14	76.781	59.967	17.722	2.979e-06	25.181	2.238	-87.292	-68.092	-162.807	-43.562	-21.426	-162.792	-155.619	-46.167	-18.022	-156.234	-149.288	-149.199	-141.862	6.604	-143.174	-8191	255	
18104.578	1	1	0	0	0.14332	0.27979	0.15693	0.21328	0.14925	0.088429	0.31636	0.067154	0.080604	0.056382	0.12994	0.31582	0.2105	0.078815	0.035919	0.27077	-2.5167	-2.925	-2.7229	-3.0542	-2.9083	-2.625	-3.1604	-2.9208	-3.0062	-2.9958	-2.9583	-3.0729	-2.8167	-2.6854	-3.1708	-2.7292	-143.517	67.015	94.616	133.359	-15.944	82.337	172.300	7.614	119.682	-161.121	100.965	133.432	-108.930	156.799	-39.804	14.291	0.00065528	0.00032029	0.0001004	1028.5	3.9949e-06	2.8255e-06	1089.2	212.92	6.2905e-06	9.2471e-07	268.17	77.268	59.715	17.46	4.0963e-06	24.424	0.00031693	0.00028404	8.0019e-05	1015.4	3.2478e-06	3.0259e-06	1079.6	212.55	3.3381e-06	3.1107e-06	268.66	76.962	59.936	17.686	2.7949e-06	25.078	1.857	-63.557	-62.800	-162.552	-64.249	-27.168	-162.904	-155.714	-41.943	13.013	-155.822	-149.411	-149.097	-141.711	-16.495	-142.920	-8191	255	
18104.676	1	1	0	0	0.27503	0.054053	0.29198	0.13468	0.1497	0.2493	0.19279	0.33211	0.098087	0.1048	0.19673	0.074487	0.34651	0.031232	0.11462	0.053411	-2.4	-3.0104	-2.6312	-3.2542	-2.9146	-2.8083	-3.3563	-2.9521	-2.8167	-3.2	-2.7625	-2.9667	-3.0375	-2.7354	-2.9792	-3.0208	-68.163	3.894	-92.021	-150.200	24.637	-146.658	165.841	102.313	-67.886	-76.222	75.221	132.602	105.692	133.756	-89.750	-170.018	0.00061449	0.00027103	7.4616e-05	1030.5	3.3802e-06	2.1265e-06	1087.8	213.41	5.3673e-06	2.9285e-06	270.64	76.985	60.029	17.447	4.63e-06	24.679	0.00032169	0.00027964	7.609e-05	1021.1	3.1165e-06	3.1773e-06	1081.9	213.53	3.2262e-06	3.0566e-06	269.77	76.932	59.897	17.723	3.1235e-06	25.144	-1.245	-61.742	-74.044	-162.898	-26.970	5.541	-162.900	-155.393	-10.824	-15.973	-156.119	-149.405	-148.894	-141.581	-28.674	-142.424	-8191	255	
18104.771	1	1	0	0	0.098659	0.082141	0.10752	0.33405	0.20075	0.1727	0.17401	0.18122	0.24913	0.27314	0.23213	0.20328	0.036811	0.303	0.067534	0.10496	-2.6083	-3.0917	-2.7354	-3.0625	-2.9437	-2.625	-3.1792	-3.0938	-2.9417	-3.0187	-2.8812	-3.0167	-3.025	-2.6417	-2.8521	-3.0396	-117.037	96.032	109.417	139.644	167.170	-43.811	132.877	89.195	-53.968	169.321	-100.623	89.001	29.797	170.516	171.979	141.496	0.00062839	0.00030657	4.4796e-05	1031	3.1158e-06	3.048e-06	1093.6	215.09	4.4634e-06	2.6831e-06	270.12	76.948	59.701	17.508	3.0021e-06	24.64	0.00031911	0.00029738	7.7708e-05	1022.9	3.2088e-06	3.303e-06	1084.1	214.11	3.4649e-06	3.0486e-06	270.26	77.106	59.964	17.77	2.9886e-06	25.173	5.722	-77.306	-69.216	-162.700	-29.993	-45.874	-162.859	-155.759	-6.760	6.067	-155.955	-149.324	-149.004	-141.751	-40.555	-142.411	-8191	255	
18104.867	1	1	0	0	0.32286	0.25583	0.19148	0.33493	0.19938	0.20539	0.35605	0.20131	0.058764	0.084425	0.29172	0.19755	0.16851	0.12892	0.19587	0.20564	-2.2646	-3.0104	-2.7021	-3.1646	-3.05	-2.8083	-3.1854	-2.9542	-2.7229	-3.0104	-2.8958	-3.0458	-3.0208	-2.7146	-3.0187	-2.9771	-98.572	-40.102	26.378	158.695	-153.707	136.883	119.466	122.191	-136.679	93.230	122.294	11.764	54.515	161.449	-86.288	43.870	0.00061585	0.00032856	2.1176e-05	1031.1	3.0497e-06	2.7534e-06	1093.2	215	6.0038e-06	2.3582e-06	269.18	76.973	60.016	17.672	4.2204e-06	24.648	0.00031663	0.00027886	7.7908e-05	1021.6	3.3723e-06	3.111e-06	1084.4	214.36	3.2575e-06	3.0566e-06	269.48	77.257	60.087	17.761	3.0151e-06	25.229	-0.494	-79.055	-94.568	-162.967	-62.884	-12.718	-163.094	-155.626	-29.859	-18.009	-156.165	-149.652	-149.559	-141.725	-18.751	-142.382	-8191	255	
18104.963	1	1	0	0	0.20745	0.062132	0.40454	0.073261	0.22527	0.13073	0.1432	0.30564	0.018989	0.060993	0.079812	0.38682	0.1117	0.22559	0.31758	0.24628	-2.2729	-3.2479	-2.8771	-2.8937	-3.1604	-2.8312	-3.0208	-3	-2.725	-2.875	-2.7875	-2.9	-2.9833	-2.8583	-2.9396	-2.9729	175.039	-18.235	82.287	-93.860	-162.752	-24.962	100.077	124.837	169.946	21.720	-152.397	158.356	-75.530	-116.497	20.105	84.670	0.0006155	0.00042268	9.7914e-05	1033.2	4.8141e-06	3.5774e-06	1094.6	214.82	6.7822e-06	3.2159e-06	269.83	76.023	60.266	17.483	2.996e-06	24.773	0.00031	0.00028238	7.4319e-05	1022	3.2473e-06	3.0759e-06	1083	213.85	3.2686e-06	2.9611e-06	269.64	76.897	60.02	17.745	3.1031e-06	25.259	0.649	-72.219	-101.178	-162.699	-46.406	-25.573	-162.945	-155.508	-15.747	-29.665	-155.828	-149.415	-149.487	-141.806	-21.503	-142.570	-8191	255	
18105.082	1	1	0	0	0.19646	0.25991	0.077306	0.075018	0.20992	0.081915	0.17302	0.27293	0.074512	0.23486	0.082924	0.25931	0.12941	0.045378	0.086403	0.2184	-2.3833	-2.8708	-2.6354	-2.8542	-2.8854	-2.9313	-3.0917	-3.2604	-2.5792	-2.9958	-2.8896	-2.5417	-3.0042	-2.8271	-2.8667	-3.1312	42.903	-169.975	61.408	60.907	43.344	-12.756	110.406	100.277	-153.799	99.084	157.107	95.001	-58.761	-154.271	-68.220	17.875	0.00063987	0.00041374	5.4046e-05	1036.2	5.4663e-06	3.6234e-06	1090	214.61	7.4017e-06	3.3946e-06	270.88	77.054	60.183	17.526	3.6136e-06	24.925	0.00030728	0.00026825	7.4964e-05	1023.8	3.1791e-06	2.855e-06	1082.9	213.83	3.1711e-06	2.9526e-06	269.91	77.157	60.114	17.766	2.9633e-06	25.278	8.116	-98.604	-129.053	-162.914	-57.546	-20.837	-162.809	-155.473	-43.537	-38.425	-155.818	-149.380	-148.962	-141.734	-39.941	-142.629	-8191	255	
18105.178	1	1	0	0	0.084596	0.074825	0.25585	0.22615	0.20698	0.19712	0.12866	0.18749	0.18355	0.28004	0.17326	0.030846	0.10025	0.089329	0.056089	0.32649	-2.2271	-2.9583	-2.7812	-2.7771	-3.1021	-2.8479	-3.0812	-3.1042	-2.6417	-2.9083	-3.0542	-2.7	-2.8208	-2.8937	-2.8417	-3.025	-22.418	-128.049	141.105	160.341	-129.647	43.365	91.040	133.505	160.806	-82.691	-135.380	-119.767	142.718	10.336	116.052	54.570	0.00062813	0.00040079	7.3934e-05	1033	4.5495e-06	2.8367e-06	1091.7	214.75	6.5526e-06	4.7295e-06	268.71	76.789	59.989	17.546	5.6493e-06	24.719	0.00030769	0.00026145	7.3709e-05	1022.7	3.1156e-06	2.9652e-06	1082.2	213.85	3.0654e-06	3.2505e-06	269.65	77.041	60.152	17.777	3.1287e-06	25.203	4.797	-75.491	-72.301	-162.639	-33.023	-49.868	-162.661	-155.809	-34.538	-24.916	-156.308	-149.230	-148.894	-142.161	-17.996	-142.789	-8191	255	
18105.275	1	1	0	0	0.2496	0.11214	0.13846	0.041032	0.40899	0.14498	0.44946	0.078299	0.13555	0.080416	0.12198	0.12534	0.040842	0.15156	0.31545	0.17755	-2.2375	-2.6771	-2.9042	-2.9479	-2.9562	-2.8958	-2.9021	-3.0042	-2.8104	-3.0354	-2.9729	-2.9854	-3.1125	-2.8458	-2.6562	-3.0625	-74.789	-57.595	94.596	96.220	-67.490	-139.836	145.104	-109.461	-14.616	-139.751	10.532	33.227	42.560	149.869	44.980	-28.136	0.00059269	0.00039642	6.4584e-05	1031.1	3.0928e-06	4.7854e-06	1088.7	215.34	4.3271e-06	3.7757e-06	269.23	76.894	59.944	17.403	3.5142e-06	24.707	0.00031053	0.00029825	8.2518e-05	1021.1	3.2609e-06	3.1675e-06	1083	214.12	3.2826e-06	3.2232e-06	269.76	76.978	60.079	17.719	3.0617e-06	25.208	-0.973	-102.261	-75.345	-162.579	-59.059	-18.566	-162.847	-155.854	-46.591	-36.321	-155.986	-149.506	-149.031	-141.939	-27.799	-142.607	-8191	255	
18105.346	1	1	0	0	0.11845	0.29509	0.032845	0.18548	0.023821	0.27087	0.32465	0.25071	0.26177	0.06631	0.2908	0.20691	0.22998	0.090333	0.055441	0.14469	-2.4417	-2.9	-2.9417	-2.9542	-3.075	-2.7812	-2.9708	-3.1688	-2.8688	-2.8521	-3.0167	-2.6646	-3.0292	-2.9979	-2.7	-3.0333	44.761	25.442	96.771	133.996	-172.137	74.338	93.624	126.312	92.928	58.782	150.737	-136.023	-162.635	-14.271	51.023	19.695	0.00063735	0.00031706	9.2943e-05	1035.8	3.2804e-06	7.7238e-07	1095.5	215.01	5.9629e-06	3.1045e-06	269.95	77.073	60.486	17.603	4.6258e-06	24.838	0.0003251	0.00030944	8.1474e-05	1023.8	3.2109e-06	3.2091e-06	1084.8	214.32	3.181e-06	3.2147e-06	270.08	77.036	60.242	17.791	3.1401e-06	25.267	8.200	-100.644	-87.086	-162.822	-35.427	46.204	-162.798	-155.764	-39.451	-27.905	-156.088	-149.684	-149.148	-142.146	-13.880	-142.822	-8191	255	
18105.467	1	1	0	0	0.24511	0.037357	0.1572	0.18619	0.20051	0.11874	0.4747	0.25251	0.17123	0.25217	0.22361	0.33607	0.15569	0.04728	0.17666	0.20118	-2.4292	-2.7646	-3.15	-2.7521	-3.1208	-3.0312	-2.8271	-3.2146	-2.9646	-2.8229	-3.0792	-2.9917	-2.9313	-2.8521	-2.6146	-2.9771	105.100	3.431	10.762	167.482	127.965	1.618	155.817	142.291	-71.594	175.065	144.565	151.471	-103.067	-33.619	-45.832	73.693	0.00061687	0.00036786	7.0409e-05	1034.9	2.9973e-06	3.2725e-06	1092.2	215.11	4.7895e-06	3.987e-06	271.37	76.709	60.076	17.612	3.4381e-06	24.699	0.00033632	0.00030269	8.5309e-05	1023.9	3.3244e-06	3.1362e-06	1082.7	213.89	3.1929e-06	3.3192e-06	270.69	76.872	60.081	17.779	3.1784e-06	25.284	2.751	-76.114	-100.375	-162.848	-73.378	-24.051	-162.841	-155.721	-71.586	-30.749	-156.080	-149.222	-149.111	-141.622	-45.517	-142.301	-8191	255	
18105.562	1	1	0	0	0.35319	0.13875	0.033056	0.30796	0.17976	0.055198	0.28651	0.21863	0.26105	0.071392	0.16479	0.077306	0.14077	0.11714	0.013318	0.050563	-2.5187	-2.6792	-3.0167	-2.8583	-2.9208	-3.0417	-2.8583	-3.1292	-2.875	-2.8104	-3.1937	-2.8604	-2.7896	-3.1042	-2.5708	-2.9792	-114.469	-90.353	49.932	157.028	96.420	134.122	145.140	134.932	18.974	10.046	65.253	131.554	-161.292	-166.397	81.999	68.476	0.00061196	0.00021738	8.6206e-05	1034.7	2.6401e-06	2.2153e-06	1090.6	214.18	6.918e-06	1.6268e-06	270.89	76.256	60	17.422	3.7786e-06	24.812	0.00031853	0.00030857	8.267e-05	1022.5	3.3215e-06	3.1255e-06	1083.3	214.4	3.457e-06	3.2524e-06	269.99	76.95	59.945	17.719	3.1435e-06	25.253	4.963	-69.925	-85.164	-162.586	-26.426	-11.813	-162.793	-155.875	-46.814	-39.333	-156.036	-149.784	-149.064	-142.117	-12.608	-142.349	-8191	255	
18105.658	1	1	0	0	0.12209	0.17281	0.073584	0.22959	0.058739	0.17549	0.17481	0.10457	0.06823	0.1649	0.15755	0.1552	0.47834	0.28481	0.24715	0.10442	-2.4396	-2.7667	-3.0667	-2.9979	-2.5979	-2.9896	-2.6604	-2.9917	-2.9333	-2.7125	-3.0563	-2.9729	-2.8271	-3.0333	-2.6771	-2.9313	-26.476	169.335	29.639	40.879	5.622	-141.810	79.744	-156.947	98.170	24.981	-127.053	173.038	146.081	-92.507	31.210	172.786	0.00064419	0.00024297	7.4846e-05	1033.1	4.1902e-06	2.8933e-06	1094.6	214.57	5.0834e-06	1.9477e-06	270.77	76.568	60.004	17.607	1.774e-06	24.639	0.0003262	0.00029871	7.6676e-05	1021.4	3.1304e-06	3.0376e-06	1083.4	214.15	3.2147e-06	3.1376e-06	269.98	77.111	60.17	17.77	2.9873e-06	25.254	1.554	-67.555	-106.238	-162.939	-32.406	-23.762	-162.935	-155.743	-19.830	-18.881	-156.103	-149.495	-149.185	-142.095	-4.801	-142.200	-8191	255	
18105.756	1	1	0	0	0.41603	0.18622	0.22956	0.069024	0.009003	0.14268	0.36106	0.16717	0.13696	0.26168	0.14888	0.13552	0.18902	0.20594	0.34073	0.2061	-2.5875	-2.7167	-2.9313	-2.9833	-2.6167	-3.0708	-2.8542	-3.0146	-3	-2.6937	-2.9917	-2.9229	-2.8583	-3.0771	-2.7729	-2.8583	-133.425	36.170	-173.048	85.267	27.178	-108.435	136.497	89.200	-144.712	39.552	-171.371	148.628	-147.812	83.547	-114.915	-119.363	0.00068398	0.0002918	9.2904e-05	1033.9	3.4666e-06	3.6274e-06	1092.3	214.4	6.4903e-06	3.1146e-06	268.8	76.72	60.168	17.587	3.7845e-06	24.853	0.00033871	0.00028155	7.4694e-05	1023.5	3.2384e-06	2.8839e-06	1082.5	213.69	3.2423e-06	3.0627e-06	269.83	76.856	59.955	17.78	3.1266e-06	25.277	7.820	-95.732	-95.306	-162.758	-62.420	-20.043	-162.996	-155.576	-49.678	-16.097	-155.899	-149.558	-149.115	-141.835	-24.939	-142.804	-8191	255	
18105.873	1	1	0	0	0.068001	0.036661	0.10891	0.049314	0.14637	0.1578	0.50547	0.16499	0.086002	0.20616	0.09698	0.2589	0.22446	0.1065	0.20273	0.32867	-2.6729	-2.5729	-3.0792	-3.0417	-2.5896	-3.0854	-2.9354	-2.8396	-3.1083	-2.6979	-2.8187	-3.0375	-2.725	-3.1188	-2.7792	-2.9042	6.270	156.650	-72.994	58.628	143.226	-156.206	101.773	98.517	153.838	-68.914	40.607	136.902	183.505	103.171	24.989	-124.400	0.00062175	0.00045574	5.4953e-05	1031.7	2.6771e-06	3.0591e-06	1089.8	214.92	5.1066e-06	4.4113e-06	270.37	76.573	60.587	17.437	3.4605e-06	24.632	0.00032045	0.00029046	7.4119e-05	1020.5	3.4566e-06	2.9736e-06	1082	214.14	3.1078e-06	3.1658e-06	270.48	77.048	60.192	17.702	3.127e-06	25.2	-0.458	-84.924	-83.542	-163.012	-54.661	-45.361	-162.868	-155.846	-21.149	-18.440	-156.023	-150.029	-149.180	-141.939	-20.625	-142.684	-8191	255	
18105.947	1	1	0	0	0.15142	0.20557	0.093378	0.152	0.24671	0.14961	0.24421	0.2055	0.11112	0.31269	0.11478	0.17921	0.13877	0.23989	0.15236	0.14577	-2.6437	-2.7313	-2.8333	-3.0229	-2.5354	-3.1333	-2.9146	-2.7833	-3.2229	-2.8771	-2.7396	-2.9958	-2.7083	-2.9292	-2.7313	-2.9604	-43.892	107.960	-8.040	113.311	43.036	-140.457	152.321	112.651	97.322	-67.796	-143.160	180.817	186.332	152.923	-46.258	-29.566	0.00061036	0.00012931	5.017e-05	1033	3.8269e-06	2.2374e-06	1092.6	215.74	5.276e-06	3.4502e-06	269.06	76.881	60.13	17.497	2.8038e-06	24.712	0.00031869	0.00029693	7.2348e-05	1021.1	3.3549e-06	2.8984e-06	1081.9	214.51	3.0699e-06	3.0298e-06	269.09	76.931	60.183	17.727	2.8393e-06	25.283	-0.939	-91.571	-118.439	-162.549	-16.651	-27.277	-162.926	-155.681	-17.442	-28.246	-155.970	-149.676	-149.141	-142.064	-2.820	-142.943	-8191	255	
18106.066	1	1	0	0	0.034748	0.13593	0.22331	0.21309	0.4169	0.14209	0.092033	0.15112	0.10455	0.14502	0.11288	0.098514	0.13199	0.035839	0.075421	0.18681	-2.7	-2.6542	-2.7625	-3.1021	-2.6917	-3.0687	-2.9729	-2.9667	-3.0229	-2.8187	-3.0271	-2.9896	-2.6354	-2.9917	-2.9146	-2.9229	65.333	-153.779	107.944	126.812	-99.219	52.461	133.737	125.929	-11.864	-154.080	128.446	-163.681	-153.754	153.935	-3.221	122.758	0.00061839	0.0004249	9.745e-05	1029.5	3.7521e-06	1.725e-06	1088.8	215.52	7.6089e-06	2.9859e-06	269.9	76.918	60.383	17.627	3.8112e-06	24.727	0.00030877	0.00027687	7.3662e-05	1019.7	3.0076e-06	2.9129e-06	1082.4	214.1	3.1633e-06	3.1333e-06	270.2	77.064	60.06	17.785	2.8001e-06	25.226	3.237	-89.057	-79.924	-162.747	-35.132	4.828	-162.954	-155.551	-19.430	-34.921	-155.919	-149.473	-149.313	-141.806	10.931	-142.521	-8191	255	
18106.162	1	1	0	0	0.2014	0.2087	0.21004	0.15169	0.093081	0.11283	0.37879	0.1631	0.10111	0.27224	0.02338	0.049166	0.071443	0.055718	0.25679	0.23658	-2.6167	-2.8812	-2.7562	-3.0375	-2.6458	-2.9021	-2.9979	-2.7979	-2.9688	-2.7771	-2.9875	-2.9458	-2.6937	-3.1875	-2.8396	-2.8396	-57.244	154.625	-173.802	-83.229	-104.500	12.395	106.983	77.909	-37.349	1.046	-75.616	-151.446	10.485	164.598	-145.084	170.111	0.00059656	0.00035649	7.7502e-05	1035.6	3.7699e-06	2.8144e-06	1093.3	215.98	7.2606e-06	3.851e-06	270.01	76.822	60.352	17.487	2.9439e-06	24.832	0.0003097	0.00026253	7.8799e-05	1021.4	3.2706e-06	3.0362e-06	1083.1	214.03	3.3246e-06	3.0081e-06	269.97	76.893	60.128	17.781	3.1344e-06	25.271	4.342	-91.617	-60.635	-162.656	-40.995	-18.478	-162.723	-155.869	-53.187	-23.070	-155.870	-149.301	-149.092	-141.960	-53.364	-142.355	-8191	255	
18106.260	1	1	0	0	0.15408	0.0097761	0.091707	0.19037	0.2006	0.09646	0.27989	0.20277	0.096478	0.23489	0.082352	0.12759	0.15524	0.34003	0.090622	0.13582	-2.8104	-2.7354	-2.7104	-3.1667	-2.7708	-3.1333	-3.0938	-2.8917	-3.1396	-3.0083	-2.7542	-3.2542	-2.6958	-3.0958	-2.9917	-2.8563	-72.139	-49.864	8.059	179.807	-8.500	134.882	96.477	138.983	35.189	108.776	-158.016	156.152	-15.658	146.756	176.704	-157.517	0.00063582	0.00023421	8.1226e-05	1033.2	3.311e-06	2.8704e-06	1094.2	215.63	6.3076e-06	3.0927e-06	269.05	77.034	60.518	17.551	4.1355e-06	25.156	0.00031402	0.00030219	8.1802e-05	1023.6	3.3168e-06	3.2315e-06	1083.7	214.47	3.3801e-06	3.2853e-06	270.26	77.217	60.186	17.832	3.2589e-06	25.383	0.502	-102.105	-91.241	-162.762	-36.895	-24.050	-163.061	-155.817	-37.014	-49.662	-155.923	-149.808	-149.349	-141.573	-20.058	-142.568	-8191	255	
18106.355	1	1	0	0	0.13376	0.2413	0.26297	0.17947	0.26367	0.19761	0.24424	0.32136	0.088115	0.2142	0.27474	0.051848	0.19327	0.41276	0.12715	0.097665	-2.6688	-2.8312	-2.6854	-3.0354	-2.7562	-2.9625	-3.0479	-2.6667	-2.9333	-2.7479	-2.875	-3.1375	-2.875	-2.9146	-2.9875	-2.6896	14.267	97.029	-71.737	-152.844	-10.521	-69.611	80.907	58.874	135.277	143.107	-96.984	-120.822	-108.598	176.913	-86.173	23.410	0.00061683	0.00028498	7.857e-05	1034.3	3.4969e-06	3.2856e-06	1091.1	215.65	5.5986e-06	3.6176e-06	271.54	76.247	60.686	17.578	2.5709e-06	24.796	0.00033253	0.00031313	8.6893e-05	1024.5	3.3888e-06	3.2535e-06	1083.8	214.69	3.4352e-06	3.363e-06	271.04	77.159	60.291	17.854	3.1427e-06	25.352	1.476	-77.451	-61.516	-162.828	-21.347	-11.720	-163.056	-155.616	-26.459	-20.744	-156.168	-149.672	-149.332	-142.114	-32.893	-142.514	-8191	255	
18106.477	1	1	0	0	0.15434	0.011188	0.17266	0.067297	0.14326	0.03147	0.12205	0.18805	0.22709	0.12441	0.083427	0.19365	0.12901	0.08002	0.024946	0.22754	-2.5417	-2.8208	-2.6167	-3.2854	-2.6833	-2.8979	-3.2292	-3.05	-2.9125	-3.0062	-2.6688	-3.1729	-2.7958	-2.7417	-3.1937	-2.75	60.257	-12.342	-121.615	161.042	143.457	-91.058	48.432	167.300	-104.135	-71.278	-144.766	19.437	120.251	79.625	-71.967	145.712	0.00060426	0.00036353	8.4045e-05	1035.2	4.4464e-06	1.7763e-06	1094.7	216.26	2.6031e-06	3.4157e-06	272.18	77.427	60.088	17.589	2.7648e-06	24.889	0.00032972	0.000307	8.5286e-05	1025.9	3.3765e-06	3.4422e-06	1086.2	214.88	3.3056e-06	3.2853e-06	270.71	77.456	60.228	17.826	2.9176e-06	25.374	0.762	-42.866	-88.002	-162.648	-58.624	-5.479	-162.977	-155.577	-45.376	-11.495	-156.007	-149.585	-149.307	-141.759	-25.016	-142.575	-8191	255	
18106.572	1	1	0	0	0.13504	0.27008	0.18371	0.39892	0.28265	0.081216	0.24934	0.35178	0.12907	0.31957	0.1525	0.14036	0.14354	0.15984	0.42003	0.279	-2.5708	-2.8854	-2.8875	-3.2625	-2.8521	-2.825	-3.1729	-2.8063	-2.8812	-2.9854	-2.9417	-3.1125	-2.9	-2.7875	-3.0396	-2.7417	-112.198	101.205	77.907	154.313	46.951	170.775	102.523	178.334	-169.338	-162.627	35.375	-6.522	-26.017	154.270	66.204	-111.118	0.00061644	0.00013246	6.1447e-05	1040.8	2.8351e-06	1.6859e-06	1092.2	216.63	7.6758e-06	3.5262e-06	270.11	76.901	60.233	17.579	2.3861e-06	24.901	0.00032161	0.00029311	8.1755e-05	1028.6	3.2952e-06	3.381e-06	1085.2	214.92	3.4134e-06	3.3272e-06	270.68	77.234	60.37	17.825	3.2067e-06	25.313	3.402	-73.165	-39.985	-163.017	-51.876	-28.617	-162.835	-155.669	-54.920	-16.448	-156.300	-149.386	-149.219	-142.133	-11.786	-142.735	-8191	255	
18106.643	1	1	0	0	0.10708	0.28278	0.16122	0.081003	0.083182	0.14551	0.33745	0.074078	0.094548	0.088995	0.12977	0.22341	0.27594	0.088278	0.12644	0.18921	-2.1396	-2.9604	-2.5729	-3.0792	-2.8	-2.675	-3.0187	-2.7646	-2.85	-3.0021	-2.7833	-3.0083	-2.75	-2.8021	-2.9479	-3.0208	86.076	-89.006	121.696	107.452	123.477	-22.733	40.262	147.157	168.651	-15.713	145.874	4.727	-139.717	-64.296	-108.591	175.622	0.00059725	0.00043944	6.4834e-05	1035.1	3.6012e-06	1.7407e-06	1095.2	216.96	5.2636e-06	3.7747e-06	271.16	77.234	60.378	17.537	3.7653e-06	24.898	0.00034523	0.00030658	8.2822e-05	1023.9	3.4536e-06	3.0157e-06	1086	215.24	3.4023e-06	3.2232e-06	271.25	77.335	60.323	17.794	2.9629e-06	25.363	4.940	-98.079	-82.619	-162.723	-46.797	-19.182	-162.865	-155.742	-34.064	-28.500	-156.014	-149.781	-148.688	-142.046	-31.784	-142.701	-8191	255	
18106.764	1	1	0	0	0.2518	0.23194	0.27405	0.15591	0.26497	0.39067	0.27074	0.08268	0.12228	0.26031	0.065568	0.083277	0.043245	0.12538	0.27635	0.41012	-2.4313	-2.9375	-2.6083	-3.0563	-2.7625	-2.8125	-3.0812	-2.8979	-2.7521	-3.0542	-2.9042	-3.0312	-2.7417	-2.7521	-3.0292	-2.8396	-35.340	123.085	7.055	104.804	128.866	163.760	96.654	176.033	175.207	-15.009	48.972	150.342	128.108	-114.995	-108.363	114.840	0.00066784	0.0003505	0.00010335	1035.2	2.6862e-06	3.4921e-06	1099.1	216.58	5.8201e-06	3.2381e-06	272.1	77.378	60.961	17.69	3.7746e-06	25.005	0.00033261	0.00030878	8.2905e-05	1027.1	3.4917e-06	3.2908e-06	1089.5	215.29	3.5109e-06	3.3027e-06	271.61	77.392	60.416	17.867	3.2032e-06	25.406	0.672	-59.612	-82.082	-162.896	-91.901	-48.667	-162.692	-155.688	-52.702	-23.821	-156.194	-149.485	-148.967	-142.124	-7.752	-142.563	-8191	255	
18106.859	1	1	0	0	0.1804	0.21717	0.15025	0.40388	0.24466	0.17737	0.34612	0.15589	0.17481	0.20919	0.25518	0.19488	0.26518	0.12321	0.074403	0.12393	-2.3583	-2.8896	-2.7417	-2.8583	-2.8229	-2.775	-3.0667	-2.8917	-2.6771	-3.0083	-2.7583	-2.9208	-2.8833	-2.5021	-2.9146	-2.7646	42.449	38.595	9.816	146.157	158.381	-66.188	148.815	138.157	58.735	114.576	-28.674	32.015	-70.038	-2.140	-127.521	72.741	0.00063287	0.000415	4.1843e-05	1035.2	3.8524e-06	4.008e-06	1096.4	216.37	5.5422e-06	4.2404e-06	271.89	77.364	60.437	17.66	4.1356e-06	25.131	0.00034188	0.00030273	8.4981e-05	1028	3.5248e-06	3.3436e-06	1088.5	215.4	3.5953e-06	3.4068e-06	271.36	77.445	60.525	17.866	3.2106e-06	25.5	7.337	-100.016	-107.639	-162.927	-12.919	11.786	-162.748	-155.771	-30.923	-23.513	-156.223	-149.177	-149.183	-141.866	-3.111	-143.215	-8191	255	
18106.955	1	1	0	0	0.052061	0.063169	0.15857	0.23904	0.097818	0.22764	0.25748	0.22429	0.28711	0.097519	0.1051	0.16742	0.12696	0.15411	0.022931	0.22286	-2.1458	-2.9646	-2.7833	-2.9875	-3.1063	-2.5896	-3.0354	-3.0583	-2.7146	-3.075	-2.8063	-2.6562	-3.0229	-2.7083	-2.8583	-2.9375	33.529	-70.249	10.773	117.301	-8.388	47.249	-169.885	84.090	-79.030	-42.844	-124.731	-34.725	88.591	-156.730	-166.163	13.242	0.0006528	0.00041716	4.7605e-05	1040.9	1.7279e-06	3.9884e-06	1093.2	215.6	3.7598e-06	3.5709e-06	273.79	77.278	60.426	17.641	3.2817e-06	25.026	0.00035942	0.00030894	8.3808e-05	1029.6	3.5553e-06	3.4674e-06	1089.9	215.09	3.4772e-06	3.3075e-06	272.24	77.574	60.561	17.924	3.1866e-06	25.377	2.867	-77.390	-87.256	-162.695	-31.685	-24.195	-163.162	-155.649	-60.969	-6.233	-155.911	-149.452	-149.377	-141.861	-31.421	-142.623	-8191	255	
18107.051	1	1	0	0	0.13817	0.13154	0.048512	0.18402	0.26711	0.039846	0.32453	0.33526	0.21769	0.1379	0.17776	0.058362	0.2423	0.17118	0.33861	0.23951	-2.2979	-2.8792	-2.8312	-2.8708	-2.9729	-2.7771	-3.1771	-3.0125	-2.6021	-3.0479	-3.1	-2.8354	-3.2271	-2.8146	-2.9167	-2.8771	30.591	53.607	-130.049	154.404	157.237	-38.156	116.358	116.794	-10.460	-22.756	154.203	-155.617	-132.309	68.349	49.755	154.341	0.00065688	0.00039114	5.1333e-05	1044.4	2.1352e-06	3.105e-06	1105	216.76	7.0476e-06	3.7271e-06	272.45	77.046	60.382	17.591	3.9047e-06	24.966	0.00035117	0.00031562	8.8746e-05	1032.5	3.4456e-06	3.2726e-06	1092.7	215.7	3.5208e-06	3.3884e-06	271.71	77.672	60.684	17.864	3.2663e-06	25.476	6.202	-102.851	-58.805	-162.798	-81.860	-16.063	-162.804	-155.517	-51.361	-17.915	-156.107	-149.483	-149.152	-141.827	-29.372	-142.524	-8191	255	
18107.148	1	1	0	0	0.11686	0.1873	0.30029	0.23912	0.01053	0.12292	0.34566	0.34128	0.071728	0.14052	0.18449	0.25359	0.11326	0.094743	0.2	0.17167	-2.4021	-2.975	-2.9396	-2.8937	-3.0521	-2.8021	-3.1	-3.05	-2.7292	-2.9625	-3	-2.7812	-3.0875	-2.6396	-2.7604	-3.0563	118.568	103.799	-29.448	81.057	89.250	-96.443	134.425	105.811	101.026	-30.319	132.367	-173.002	-59.651	15.292	-163.678	132.474	0.00067236	0.00029992	7.1591e-05	1047.5	4.2395e-06	3.7355e-06	1103.2	217.77	7.0329e-06	3.1716e-06	272.21	76.949	60.698	17.788	1.5611e-06	24.946	0.00035062	0.00029614	8.4922e-05	1034.5	3.5231e-06	3.4828e-06	1093.7	216.34	3.4237e-06	3.4886e-06	272.02	77.562	60.7	17.988	3.3255e-06	25.47	2.074	-98.435	-69.585	-163.017	-37.288	-2.137	-162.936	-155.681	-32.710	-11.063	-156.083	-149.639	-149.044	-142.062	-10.178	-142.491	-8191	255	
18107.242	1	1	0	0	0.24164	0.13432	0.097408	0.25764	0.31795	0.10574	0.23241	0.19579	0.11119	0.33317	0.19726	0.35153	0.12657	0.23144	0.079902	0.21483	-2.1792	-3.0292	-2.8792	-2.8729	-2.9021	-2.7604	-2.9542	-3.1937	-2.6146	-3.1042	-3.0083	-2.7292	-3.1417	-2.7833	-2.725	-3.1521	-157.773	184.970	174.813	-127.932	166.105	4.855	154.443	145.582	131.282	12.157	139.447	102.510	99.261	139.678	47.847	-156.162	0.0006549	0.00029644	3.3599e-05	1043.4	3.4376e-06	1.9981e-06	1105.8	217.97	6.556e-06	2.8544e-06	272.28	77.003	60.64	17.634	2.9809e-06	25.154	0.00034152	0.00029705	8.6201e-05	1032.9	3.4519e-06	3.5076e-06	1096.1	216.53	3.3077e-06	3.555e-06	272.07	77.611	60.804	17.904	3.5192e-06	25.544	4.473	-75.801	-110.030	-162.973	-49.341	-6.747	-162.926	-155.464	-32.222	-19.697	-155.706	-149.368	-149.293	-141.912	-11.237	-142.756	-8191	255	
18107.340	1	1	0	0	0.25144	0.24561	0.19247	0.26059	0.097987	0.11834	0.42852	0.21004	0.083421	0.13578	0.24981	0.2561	0.12141	0.085527	0.18584	0.10888	-2.2625	-2.8521	-2.8229	-2.7646	-2.8937	-2.9229	-2.7979	-3.1646	-2.7396	-2.9417	-2.9333	-2.7313	-2.9583	-2.7812	-2.825	-3.0417	4.286	-171.917	181.964	118.261	130.800	76.732	117.903	64.307	-62.168	-36.662	65.996	180.985	-125.074	-11.705	-171.647	50.230	0.00058387	0.00033029	8.2512e-05	1046.3	3.3377e-06	1.9889e-06	1106.2	217.86	5.5255e-06	4.0764e-06	273.72	77.805	60.844	17.67	3.2529e-06	25.065	0.00033038	0.00032631	8.8171e-05	1034.4	3.5222e-06	3.4656e-06	1095.2	216.43	3.6195e-06	3.515e-06	273.03	77.969	60.713	17.933	3.5057e-06	25.506	8.137	-114.305	-76.156	-162.975	-54.319	-39.703	-162.817	-155.870	-25.596	-25.386	-156.187	-149.602	-149.499	-142.192	-7.388	-142.791	-8191	255	
18107.436	1	1	0	0	0.28472	0.098905	0.19822	0.1927	0.097088	0.033235	0.055085	0.083034	0.071337	0.10992	0.10861	0.15912	0.23252	0.083443	0.17392	0.089389	-2.3729	-2.7396	-2.9292	-2.8438	-2.8646	-2.9417	-2.9458	-3.1937	-2.9354	-2.8604	-3.0958	-2.6229	-3.0771	-2.8917	-2.7875	-2.9958	-127.954	48.135	-103.002	147.869	-101.352	-100.960	34.157	165.668	159.378	88.215	146.981	149.857	-167.734	177.949	-24.975	95.779	0.0005887	0.00041413	9.6e-05	1049.2	3.507e-06	2.9153e-06	1108.4	217.87	5.9517e-06	3.9041e-06	273.51	77.742	60.89	17.572	1.3028e-06	25.1	0.00035191	0.00031499	8.5673e-05	1037	3.6421e-06	3.4656e-06	1098.4	216.67	3.4459e-06	3.507e-06	273.05	78.109	60.816	17.924	3.5736e-06	25.533	9.182	-69.337	-81.041	-162.962	-33.099	-12.994	-162.790	-155.904	-31.493	-22.326	-155.690	-149.564	-149.549	-141.942	3.380	-142.736	-8191	255	
18107.557	1	1	0	0	0.077221	0.11634	0.22611	0.091964	0.12036	0.099023	0.2252	0.53382	0.21769	0.15072	0.25236	0.14197	0.13521	0.094715	0.21521	0.063364	-2.3583	-2.8292	-2.9917	-2.8979	-2.9583	-2.9562	-2.9917	-3.1104	-2.925	-2.875	-2.8563	-2.7896	-3.0271	-3.0167	-2.6479	-2.9875	100.859	-163.441	-11.424	-107.923	-115.177	-85.890	168.040	145.726	-5.483	57.043	-133.058	-107.985	-173.736	-124.110	41.881	-137.949	0.00055996	0.00049299	9.629e-05	1048.6	4.5847e-06	2.3583e-06	1109.8	219.53	4.7889e-06	3.7514e-06	274.65	77.688	60.84	17.756	2.9087e-06	25.184	0.00034875	0.0003283	8.3116e-05	1038.2	3.6747e-06	3.4656e-06	1100.1	217.24	3.6607e-06	3.4712e-06	273.47	78.064	61.057	18.022	3.4487e-06	25.616	3.504	-73.476	-70.460	-162.709	-60.532	-5.989	-162.956	-155.819	-43.613	-33.482	-155.990	-149.552	-149.025	-141.991	7.297	-142.411	-8191	255	
18107.652	1	1	0	0	0.078613	0.046629	0.35623	0.23206	0.11567	0.054988	0.24959	0.041248	0.062067	0.097706	0.24497	0.00672	0.12573	0.25966	0.082143	0.20411	-2.3812	-2.8354	-3.025	-2.7833	-3.0292	-2.8917	-2.8792	-3.1333	-2.8958	-2.9021	-3.15	-2.8771	-2.9188	-2.9792	-2.8625	-2.9667	-41.511	-65.683	87.267	115.357	184.505	158.489	132.192	-102.755	161.733	-142.985	143.632	94.800	-52.723	107.827	73.878	-46.879	0.00062448	0.00034358	9.0507e-05	1052.3	4.1884e-06	3.228e-06	1110.7	216.9	8.3583e-06	3.2681e-06	273.13	77.762	60.718	17.826	2.7331e-06	25.031	0.0003397	0.00032631	8.9508e-05	1041.4	3.6594e-06	3.4039e-06	1101.7	216.83	3.7866e-06	3.579e-06	273.43	77.99	60.827	17.998	3.315e-06	25.576	6.232	-85.230	-68.120	-162.844	-30.282	-37.002	-162.635	-155.822	-27.081	-10.707	-155.809	-149.506	-149.255	-142.124	-57.718	-142.619	-8191	255	
18107.748	1	1	0	0	0.094614	0.20135	0.090843	0.2785	0.047171	0.14575	0.086806	0.2544	0.076814	0.32533	0.17137	0.27859	0.18375	0.046418	0.24195	0.27381	-2.3104	-2.5917	-3.1229	-2.9125	-2.8375	-3.0979	-2.9521	-3.0958	-2.8979	-2.6167	-3.1667	-2.6208	-2.7375	-3.0583	-2.7938	-2.9208	-153.927	-74.762	18.875	-166.360	89.270	-16.450	146.475	-146.165	5.351	73.245	109.373	75.098	-104.144	41.670	-103.748	68.313	0.00064276	0.00046296	7.4317e-05	1048	2.5448e-06	3.5295e-06	1111.5	217.78	4.3386e-06	3.3267e-06	273.28	77.82	60.809	17.908	3.6905e-06	25.119	0.00035436	0.00035755	8.5778e-05	1040.6	3.6823e-06	3.4651e-06	1101.4	217.21	3.6549e-06	3.6548e-06	273.82	78.206	61.067	18.026	3.5131e-06	25.595	1.650	-72.902	-125.435	-162.790	-27.225	-3.478	-163.073	-155.758	-71.951	-45.449	-155.908	-149.568	-149.085	-141.900	-33.135	-142.804	-8191	255	
18107.869	1	1	0	0	0.1418	0.17938	0.16191	0.11976	0.018608	0.087961	0.073251	0.021441	0.24033	0.099785	0.094896	0.21175	0.25813	0.029049	0.11147	0.32385	-2.5292	-2.4979	-3.05	-2.8125	-2.7271	-3.05	-2.8729	-3.1292	-2.9167	-2.7125	-3.0229	-2.9042	-2.9042	-3.0042	-2.8229	-2.9375	63.887	-157.283	90.039	158.224	-145.461	46.384	-144.358	-7.487	-91.387	24.329	164.730	95.180	-56.085	56.889	120.028	106.332	0.00062321	0.00047714	7.287e-05	1050.6	2.1624e-06	3.5026e-06	1114.3	219.89	4.9103e-06	2.8345e-06	274.34	78.147	61.186	17.851	8.8997e-07	25.214	0.00036066	0.00035005	8.5602e-05	1042	3.6459e-06	3.6272e-06	1103.6	218.01	3.5554e-06	3.8209e-06	273.75	78.295	61.156	18.022	3.6563e-06	25.616	5.109	-72.040	-88.395	-162.586	-37.403	-32.864	-162.942	-155.737	-41.531	-22.364	-156.296	-149.612	-149.106	-142.310	-72.236	-142.844	-8191	255	
18107.939	1	1	0	0	0.076974	0.22157	0.18668	0.13559	0.10775	0.12001	0.013178	0.19617	0.23793	0.022004	0.31744	0.25727	0.14213	0.13598	0.44324	0.097961	-2.4875	-2.6063	-3.0917	-2.9583	-2.6854	-3.0271	-2.8021	-3.0312	-2.9813	-2.7542	-3.0021	-2.9396	-2.775	-2.9188	-2.7458	-2.8854	31.798	-42.110	161.302	129.270	165.904	-163.974	111.928	166.568	80.139	86.263	-33.934	-154.365	120.268	125.830	137.371	-20.858	0.0006395	0.00021891	8.355e-05	1056.3	3.6617e-06	3.7732e-06	1118.2	219.84	2.8729e-06	2.9569e-06	275.5	78.792	61.439	17.871	6.2573e-06	25.275	0.00035362	0.00034757	8.9978e-05	1046.1	3.8627e-06	3.4651e-06	1106.4	218.19	3.8763e-06	3.7239e-06	275.08	78.47	61.239	18.033	3.5523e-06	25.705	3.394	-63.846	-82.516	-162.995	-73.608	-23.709	-163.140	-155.505	-27.473	-9.520	-155.880	-149.874	-148.886	-142.408	-40.842	-142.727	-8191	255	
18108.035	1	1	0	0	0.093768	0.22174	0.32931	0.25491	0.076534	0.1657	0.30542	0.15627	0.12979	0.1387	0.13454	0.16987	0.11996	0.2868	0.04175	0.35172	-2.6125	-2.6229	-2.8208	-2.9604	-2.7479	-3.0583	-2.8167	-2.8	-2.9437	-2.6292	-2.9417	-2.8417	-2.7042	-2.9125	-2.7812	-2.8208	-25.452	95.335	-52.113	117.277	-168.862	-65.083	168.876	74.485	12.784	-103.693	87.222	180.795	51.854	-77.070	-30.188	122.731	0.00065719	0.00047749	4.7242e-05	1057.2	4.134e-06	1.4842e-06	1117.8	218.82	7.0426e-06	4.5842e-06	275.02	77.952	61.357	17.856	4.6302e-06	25.132	0.00037119	0.00033082	9.291e-05	1047.6	3.9572e-06	3.5875e-06	1107	218.2	3.7981e-06	3.8025e-06	275.54	78.445	61.265	18.101	3.7499e-06	25.66	4.100	-92.272	-75.416	-162.669	-36.133	8.910	-162.993	-155.506	-29.196	-13.870	-155.773	-149.336	-149.031	-141.570	-24.307	-142.857	-8191	255	
18108.156	1	1	0	0	0.19154	0.16561	0.096966	0.16644	0.11124	0.10193	0.26541	0.16736	0.19795	0.048893	0.19642	0.26344	0.15216	0.17761	0.21482	0.066712	-2.875	-2.8042	-2.7938	-2.7646	-2.6437	-3.0354	-2.9042	-2.7625	-3.0896	-2.8229	-2.9896	-2.9021	-2.6333	-3.0146	-2.9167	-2.9938	-52.643	-64.961	-107.826	-171.876	-90.052	-53.104	134.645	-162.443	76.109	42.380	-165.737	131.505	181.862	-136.658	73.681	114.845	0.00060039	0.00042203	5.6278e-05	1057.3	4.0685e-06	3.6978e-06	1116.5	219.87	6.5261e-06	3.4717e-06	275.4	78.156	61.333	17.902	4.9399e-06	25.312	0.00035156	0.0003285	9.2816e-05	1049.1	3.8238e-06	3.6856e-06	1107.6	218.59	3.7734e-06	3.7051e-06	274.82	78.342	61.284	18.077	3.9562e-06	25.679	1.374	-65.983	-91.777	-162.743	-56.161	-19.302	-162.766	-155.626	-28.073	-23.027	-156.035	-149.874	-149.321	-142.144	-23.826	-143.054	-8191	255	
18108.252	1	1	0	0	0.38586	0.13612	0.23431	0.19002	0.12106	0.053249	0.13939	0.17121	0.075394	0.16426	0.09222	0.075401	0.16258	0.22594	0.26332	0.25687	-2.4708	-2.7958	-2.8229	-3.0812	-2.8292	-3.0396	-3.1667	-2.8375	-2.9542	-2.7875	-3.0125	-2.9021	-2.7167	-2.9625	-3.0208	-2.8208	37.540	4.263	-47.989	128.844	89.735	-147.338	59.228	76.044	-99.081	26.243	97.972	112.429	-126.877	126.100	-93.733	-120.689	0.00058108	0.00042618	6.2948e-05	1060.7	2.9684e-06	3.3138e-06	1119.1	218.37	4.3421e-06	3.4272e-06	274.49	77.705	61.216	17.936	2.8677e-06	25.15	0.00034606	0.00033538	9.9748e-05	1050.2	3.745e-06	3.6945e-06	1109	218.01	3.8022e-06	3.7423e-06	275.2	78.206	61.266	18.163	3.7825e-06	25.696	8.784	-116.156	-56.649	-162.819	-59.660	-10.011	-163.036	-156.109	-13.909	-9.216	-155.934	-149.608	-149.269	-141.867	-44.961	-142.684	-8191	255	
18108.348	1	1	0	0	0.23792	0.14072	0.22003	0.10699	0.18541	0.091714	0.27019	0.07756	0.17916	0.14719	0.27228	0.053802	0.16622	0.15942	0.090126	0.23912	-2.6375	-2.7938	-2.8563	-3.1354	-2.6833	-2.8479	-3.1042	-2.6271	-3.0771	-2.9104	-2.925	-2.9958	-2.7958	-2.7438	-3.0396	-2.7771	92.945	8.343	-169.285	122.508	129.352	148.564	148.935	72.806	-127.856	-48.376	28.020	146.059	129.318	109.670	184.646	7.473	0.00063732	0.00015498	0.00010295	1060.3	4.8991e-06	3.3878e-06	1120.2	219.93	4.3963e-06	2.9478e-06	273.07	77.875	61.554	17.702	4.7342e-06	25.154	0.00034526	0.00034118	9.4165e-05	1048.2	3.6959e-06	3.7683e-06	1108.5	218.73	3.6998e-06	3.7743e-06	274.62	78.343	61.248	18.086	3.7181e-06	25.642	2.689	-99.081	-73.484	-162.676	-51.694	3.606	-163.000	-155.495	-46.253	-22.022	-155.503	-149.680	-149.728	-141.811	-18.645	-142.791	-8191	255	
18108.443	1	1	0	0	0.16207	0.26281	0.10732	0.13524	0.028482	0.18084	0.10899	0.15499	0.26453	0.15133	0.12052	0.13491	0.19865	0.21676	0.35557	0.35117	-2.5812	-2.9229	-2.7271	-3.0979	-2.7479	-2.9375	-3.1208	-2.6896	-3.1271	-2.8917	-2.7771	-2.9708	-2.7104	-3.0167	-2.8083	-2.8187	-37.958	-108.685	173.540	-163.145	-69.321	-97.000	75.888	102.648	-45.977	139.818	140.461	-148.499	141.585	-1.325	12.054	184.522	0.00057107	0.00050313	9.3839e-05	1057	3.1668e-06	3.4766e-06	1116.8	219.76	7.3334e-06	3.6873e-06	274.78	78.348	61.233	17.908	2.2858e-06	25.158	0.00035491	0.00035055	9.596e-05	1047.9	3.6429e-06	3.8421e-06	1107.6	218.63	3.8433e-06	3.8378e-06	274.74	78.348	61.246	18.133	3.6302e-06	25.705	6.792	-83.873	-51.402	-162.966	-44.774	13.428	-163.135	-155.840	-45.268	-4.721	-155.876	-149.476	-149.552	-142.216	-54.080	-142.861	-8191	255	
18108.539	1	1	0	0	0.10409	0.076944	0.15883	0.28209	0.14261	0.12542	0.2601	0.068968	0.070939	0.15278	0.024717	0.059002	0.08685	0.30261	0.054965	0.2962	-2.7354	-2.8583	-2.6604	-3.1646	-2.8208	-2.8438	-3.2812	-2.9104	-3.0417	-2.9875	-2.7375	-2.9792	-2.675	-2.7812	-3.0396	-2.8625	132.085	140.497	22.748	140.027	106.449	-81.657	142.075	52.517	133.957	-105.101	-138.459	-156.800	-161.997	-158.899	-109.696	110.280	0.00059032	0.00051316	4.5697e-05	1061.8	4.8893e-06	2.7553e-06	1114.4	219.32	9.0276e-06	2.0282e-06	274.11	77.727	61.672	17.762	3.406e-06	25.3	0.00035169	0.00036041	9.9385e-05	1048.7	3.9081e-06	3.9005e-06	1107.2	218.35	3.968e-06	3.819e-06	274.7	78.325	61.388	18.106	3.7777e-06	25.686	3.506	-85.356	-79.111	-162.817	-50.660	-50.254	-162.748	-155.823	-46.427	-45.136	-156.096	-149.965	-149.147	-141.956	-27.748	-142.540	-8191	255	
18108.637	1	1	0	0	0.16283	0.33646	0.089211	0.24361	0.26382	0.21868	0.12565	0.11848	0.095522	0.23594	0.14216	0.092707	0.11374	0.09576	0.15074	0.22893	-2.5104	-3.075	-2.7875	-2.9583	-2.7667	-2.7208	-3.0938	-2.8958	-2.9333	-2.7042	-2.7833	-3.1208	-2.8063	-2.8354	-2.8875	-2.7896	-160.031	-147.640	10.163	145.928	24.764	7.415	175.150	116.440	-172.675	-158.263	127.278	3.836	71.409	-161.164	50.307	-164.047	0.00068505	0.00037051	6.2589e-05	1061.2	4.1294e-06	2.2679e-06	1118.9	219.87	4.6195e-06	3.138e-06	276	78.795	61.024	17.822	5.3281e-06	25.274	0.00037853	0.00036443	0.00010057	1049.4	4.0512e-06	3.9253e-06	1109.1	219.03	3.9203e-06	4.0218e-06	275.47	78.786	61.204	18.103	3.6458e-06	25.762	3.858	-70.350	-52.343	-162.876	-55.732	-15.771	-163.092	-155.915	-4.479	-8.188	-155.893	-149.603	-149.528	-142.105	-22.936	-142.575	-8191	255	
18108.732	1	1	0	0	0.20243	0.26944	0.067696	0.2277	0.10919	0.12593	0.41596	0.18917	0.31953	0.12227	0.17689	0.17374	0.038453	0.19581	0.152	0.12291	-2.4979	-2.8854	-2.7604	-3.2021	-2.9917	-2.7333	-3.2229	-2.9042	-2.9396	-2.9437	-2.7208	-3.1021	-3.0375	-2.9021	-3.1292	-2.8792	-140.369	159.205	-11.355	180.524	8.671	-62.921	126.976	93.225	20.894	-106.222	28.522	-159.093	118.569	160.925	82.246	93.293	0.0006957	0.00033249	6.7907e-05	1057.8	3.2741e-06	2.7672e-06	1119.1	221.04	7.2442e-06	2.4055e-06	274.55	78.286	61.247	17.69	2.7676e-06	25.196	0.00038043	0.00036327	9.3496e-05	1049.6	3.8907e-06	3.8075e-06	1108.8	218.87	4.0149e-06	3.7724e-06	275.14	78.6	61.191	18.076	3.5801e-06	25.654	-1.745	-81.551	-103.326	-162.925	-25.932	-23.299	-162.866	-155.711	-39.901	-56.331	-155.942	-149.772	-148.956	-141.848	-33.510	-142.724	-8191	255	
18108.828	1	1	0	0	0.1951	0.077928	0.34668	0.03021	0.27618	0.29858	0.055041	0.028084	0.10566	0.33197	0.18112	0.038495	0.1682	0.21085	0.065387	0.29001	-2.575	-3.0312	-2.6688	-2.825	-2.8875	-2.6708	-3.1271	-2.9875	-2.8021	-3.1521	-2.7375	-2.9875	-3.0438	-2.7396	-3.0104	-2.8854	-63.477	-89.831	46.311	152.993	126.457	81.040	-135.907	166.797	-142.437	128.147	-158.359	90.083	107.011	120.293	-118.567	117.339	0.0006115	0.00039331	6.7411e-05	1059.7	3.4259e-06	3.4654e-06	1115.5	219.38	8.5907e-06	4.011e-06	273.86	78.085	61.24	17.756	3.0753e-06	25.109	0.0003677	0.00033563	9.7977e-05	1047.4	3.9038e-06	3.5511e-06	1107.2	218.58	3.8939e-06	3.8195e-06	274.25	78.284	61.038	18.022	3.4809e-06	25.633	2.682	-61.702	-64.414	-162.910	-51.905	-41.108	-163.278	-155.702	-30.381	-37.761	-155.754	-149.549	-149.457	-142.146	-38.121	-142.491	-8191	255	
18108.947	1	1	0	0	0.42204	0.015965	0.11926	0.5327	0.096347	0.084247	0.19534	0.13386	0.13765	0.074838	0.088822	0.43938	0.24064	0.16373	0.087405	0.1676	-2.3146	-2.9375	-2.9854	-2.9688	-2.8021	-2.6896	-3.2042	-2.8563	-2.6229	-3.0104	-2.6583	-2.8625	-2.9271	-2.7375	-2.9875	-2.7833	77.918	-138.306	-57.146	140.390	61.747	-74.066	81.927	158.951	-12.254	-143.997	41.914	119.709	-94.439	-110.137	-21.757	119.295	0.00064464	0.00032937	7.142e-05	1053.4	3.9711e-06	2.8681e-06	1114.7	219.13	6.2708e-06	3.4367e-06	274.03	77.579	61.193	17.851	3.2972e-06	25.199	0.00035961	0.00032647	9.2875e-05	1044.6	3.6069e-06	3.5511e-06	1106.2	218.27	3.8684e-06	3.8115e-06	274.43	78.12	61.196	18.047	3.7599e-06	25.709	3.367	-67.601	-122.099	-162.634	-51.415	-26.698	-162.999	-155.597	-22.272	-24.374	-156.120	-149.651	-148.892	-141.780	-3.181	-142.709	-8191	255	
18109.045	1	1	0	0	0.22442	0.062671	0.14872	0.087418	0.2441	0.34204	0.30748	0.17491	0.1189	0.29811	0.33071	0.085095	0.089969	0.14083	0.063413	0.070364	-2.3625	-2.9313	-2.7125	-2.9083	-2.7792	-2.8979	-2.9562	-3.0146	-2.875	-3.0583	-2.8937	-3.0896	-2.9521	-2.7042	-2.9958	-3.0396	-104.064	133.590	-108.202	-98.776	155.357	144.963	139.718	126.974	-139.293	100.130	-4.761	135.812	97.880	-29.735	70.989	-140.588	0.00061628	0.00038061	9.3282e-05	1055.2	3.4736e-06	2.7141e-06	1112.4	218.23	5.9951e-06	2.5275e-06	273.99	78.021	61.244	17.816	3.7196e-06	25.097	0.00037267	0.00035934	9.4341e-05	1046	4.1609e-06	3.7552e-06	1104.5	218	4.1116e-06	3.7771e-06	274.35	78.085	61.158	18.019	3.8269e-06	25.629	3.982	-89.769	-97.890	-162.863	-22.701	-35.460	-163.124	-155.851	-23.396	-20.879	-155.812	-149.496	-149.452	-142.040	-7.378	-143.070	-8191	255	
18109.117	1	1	0	0	0.23838	0.22734	0.30571	0.19474	0.19242	0.28672	0.13177	0.31419	0.07302	0.46829	0.14488	0.14162	0.21599	0.21373	0.39166	0.20962	-2.4333	-2.9292	-2.8104	-2.9375	-3.0292	-2.8438	-3.0208	-3.0479	-2.7479	-3.1458	-2.8417	-2.925	-3.0917	-2.6708	-2.9875	-2.8896	43.498	128.973	-58.178	102.852	25.883	43.341	88.442	71.991	-116.669	62.848	-58.699	-132.145	158.374	130.524	69.163	182.939	0.0006141	0.00051157	7.2629e-05	1054.3	3.0694e-06	3.28e-06	1106.2	218.75	5.3595e-06	3.3893e-06	271.88	77.559	60.193	17.48	1.8668e-06	24.881	0.00035585	0.00032233	9.4353e-05	1042.7	3.5129e-06	3.709e-06	1096.8	217.17	3.5368e-06	3.3682e-06	272.22	77.627	60.346	17.833	3.1057e-06	25.359	3.813	-84.480	-75.858	-162.640	-17.947	-77.229	-162.828	-155.600	-13.888	-9.998	-156.498	-149.578	-149.105	-141.873	-26.858	-142.455	-8191	255	
18109.236	1	1	0	0	0.17666	0.18764	0.1924	0.15169	0.12171	0.15075	0.23665	0.25577	0.0092911	0.062253	0.073169	0.1903	0.23611	0.22436	0.14383	0.06505	-2.1583	-2.8729	-2.6562	-2.7667	-3.0687	-2.7229	-3.0229	-3.0146	-2.5521	-2.9604	-2.9354	-2.9458	-2.9	-2.7917	-2.8125	-2.8771	-6.505	-10.540	162.354	-140.514	-84.184	-14.713	142.788	72.899	16.260	22.028	151.659	112.940	83.529	92.605	68.067	160.575	0.00060223	0.00041672	6.6095e-05	1026.1	3.9907e-06	2.8651e-06	1080	214.2	6.5705e-06	2.4396e-06	270.3	76.542	59.97	17.566	3.9789e-06	24.714	0.00031553	0.00029009	7.9632e-05	1017.1	3.1986e-06	3.0535e-06	1076.5	213.8	3.1477e-06	2.9324e-06	269.22	76.819	59.826	17.725	2.9433e-06	25.185	1.599	-94.246	-80.273	-162.729	-61.415	-37.000	-162.862	-155.685	-36.316	-29.630	-155.939	-149.318	-149.302	-142.002	-40.180	-143.067	-8191	255	
18109.332	1	1	0	0	0.19788	0.014902	0.10795	0.15219	0.25985	0.23706	0.24267	0.22077	0.24691	0.25914	0.28898	0.124	0.22466	0.34172	0.11263	0.32395	-2.2188	-2.8625	-2.7521	-2.7917	-3.0187	-2.7583	-2.9521	-3.2208	-2.6896	-3.0146	-3.1813	-2.7938	-3.0271	-2.8917	-2.7479	-3.1208	-131.893	124.072	170.316	139.431	-151.196	-147.300	149.813	132.074	-107.696	82.470	117.011	-18.386	182.555	112.555	-50.835	128.339	0.00059143	0.00034944	5.3642e-05	1022.7	2.7699e-06	4.1531e-06	1082.4	213.17	4.9351e-06	2.5042e-06	268.89	77.324	59.711	17.524	2.4854e-06	24.875	0.00029458	0.00027459	7.7145e-05	1009.2	2.9801e-06	3.0484e-06	1072.5	212.78	3.0934e-06	3.1983e-06	268.57	76.882	59.745	17.721	2.905e-06	25.268	0.508	-78.494	-65.356	-162.661	-50.454	-20.423	-162.961	-155.837	-40.346	-18.515	-156.101	-149.665	-149.086	-141.945	-37.069	-142.279	-8191	255	
18109.428	1	1	0	0	0.29029	0.07122	0.193	0.064239	0.074749	0.17892	0.29664	0.22838	0.036453	0.15905	0.2165	0.16349	0.11916	0.15388	0.36143	0.36907	-2.3083	-2.8583	-2.8688	-2.8104	-3.0062	-2.9104	-2.975	-3.0021	-2.7354	-3	-3.1188	-2.7229	-2.7875	-2.7875	-2.8729	-3.0563	77.570	-164.758	-17.742	140.320	182.284	43.952	64.001	139.026	81.474	-34.010	168.498	162.506	-173.098	-169.238	35.673	-139.187	0.00061284	0.00032666	6.3528e-05	1019.8	2.4683e-06	4.3254e-07	1082.3	214.71	6.2739e-06	3.9619e-06	270.97	76.826	59.548	17.482	3.4555e-06	24.791	0.00032023	0.00031404	8.1626e-05	1009.5	3.3024e-06	3.1385e-06	1073	213.45	3.4509e-06	3.3526e-06	269.55	76.731	59.682	17.645	3.4952e-06	25.099	-0.509	-66.324	-91.479	-162.465	-32.590	-22.331	-162.784	-155.564	-30.307	-2.113	-155.937	-149.415	-149.091	-142.106	-57.990	-142.571	-8191	255	
18109.549	1	1	0	0	0.25561	0.2141	0.23514	0.3524	0.1374	0.16719	0.36377	0.18706	0.26561	0.18065	0.2641	0.17872	0.20111	0.17241	0.12442	0.14166	-2.3375	-2.7875	-2.85	-2.7146	-3.0521	-2.9354	-2.9583	-3.0979	-2.7583	-3.0062	-2.9854	-2.675	-3.0438	-3.0833	-2.8167	-3.1312	-47.908	75.642	-135.087	-146.926	185.026	95.292	138.329	19.063	-12.147	-6.713	-154.509	100.610	-43.942	-100.758	-101.760	-142.404	0.0006089	0.00033271	4.6761e-05	1023	2.6707e-06	1.4295e-06	1079.6	214.71	5.0689e-06	3.5361e-06	269.03	76.454	59.76	17.415	1.7582e-06	24.638	0.00033203	0.00031582	8.6635e-05	1013.3	3.3858e-06	3.3983e-06	1073.8	213.91	3.4867e-06	3.4505e-06	269.21	76.768	59.874	17.692	3.3359e-06	25.133	2.871	-86.233	-94.146	-162.552	-47.464	-16.850	-162.817	-155.915	-64.800	-42.391	-155.828	-149.418	-149.186	-141.832	-22.296	-142.504	-8191	255	
18109.645	1	1	0	0	0.31672	0.12646	0.20732	0.17461	0.18172	0.20582	0.16603	0.132	0.18685	0.018494	0.1412	0.12626	0.13298	0.25393	0.13655	0.021234	-2.2083	-2.6396	-3.075	-2.8083	-2.9896	-2.8771	-2.9521	-3.3292	-2.7188	-2.7458	-3.275	-2.6917	-3.0375	-2.9979	-2.9583	-2.9813	-92.806	4.013	-38.399	-123.952	-45.898	-123.212	129.750	32.549	-107.097	-108.449	122.084	-73.733	9.892	42.296	70.721	-123.661	0.00058739	0.00049762	7.9177e-05	1023.9	3.6426e-06	7.3185e-07	1085.5	216.06	5.3189e-06	2.345e-06	268.78	76.351	59.745	17.472	2.6492e-06	24.649	0.00034463	0.00032714	9.0095e-05	1014.8	3.6455e-06	3.466e-06	1076.7	213.48	3.4579e-06	3.6072e-06	269.29	76.722	59.823	17.691	3.2981e-06	25.182	4.778	-85.202	-57.982	-162.422	-30.971	-19.793	-162.925	-155.787	-50.607	-54.437	-155.783	-149.423	-149.524	-142.232	-28.809	-142.378	-8191	255	
18109.740	1	1	0	0	0.21179	0.058857	0.093536	0.22082	0.10861	0.18566	0.16582	0.23182	0.19635	0.11871	0.34203	0.047919	0.30721	0.12206	0.2895	0.30698	-2.375	-2.7021	-2.9188	-2.8104	-2.8729	-3.0563	-2.9	-2.9229	-2.8812	-2.7292	-3.0646	-2.85	-2.8021	-3.0104	-2.7771	-2.9875	-74.601	62.705	73.851	128.155	-167.715	-21.416	87.013	142.208	-114.870	141.130	-151.652	-151.688	-125.746	90.948	-51.411	157.654	0.00061003	0.00033259	9.2917e-05	1023.1	3.7785e-06	5.8429e-07	1092.6	215.18	7.1737e-06	4.3868e-06	269.06	76.462	60.305	17.52	2.6312e-06	24.717	0.00034903	0.00032647	8.2259e-05	1015.2	3.6247e-06	3.4296e-06	1079.1	213.93	3.6319e-06	3.6463e-06	269.73	76.867	60.093	17.737	3.3194e-06	25.169	0.976	-109.466	-97.474	-162.776	-41.033	-17.036	-162.666	-155.634	-13.235	-15.561	-155.902	-149.818	-149.680	-141.945	14.221	-142.602	-8191	255	
18109.838	1	1	0	0	0.13132	0.22918	0.021011	0.21752	0.27743	0.15242	0.099838	0.21236	0.14205	0.10894	0.17893	0.14005	0.28392	0.11556	0.29229	0.1969	-2.3729	-2.6604	-2.9458	-3.0167	-2.75	-2.9146	-2.8604	-2.9625	-2.9542	-2.8479	-3.0438	-2.8271	-2.7812	-3.0458	-2.6771	-2.8271	16.004	-143.881	34.231	133.308	-18.660	-45.897	-119.732	98.955	-141.539	169.164	162.150	156.447	141.517	-6.421	140.118	120.799	0.00058861	0.00036795	8.4061e-05	1025	3.3458e-06	2.2213e-06	1089.9	214.1	5.7021e-06	2.6989e-06	269.76	76.938	60.275	17.424	2.8141e-06	24.651	0.00034397	0.00031201	8.3796e-05	1014.7	3.5713e-06	3.4693e-06	1077.8	213.82	3.6195e-06	3.5046e-06	269.47	76.913	59.9	17.711	3.4952e-06	25.204	5.970	-81.009	-77.222	-162.736	-60.725	-71.913	-162.991	-155.387	-25.806	-12.330	-155.697	-149.547	-148.999	-141.862	-12.639	-142.672	-8191	255	
18109.932	1	1	0	0	0.10812	0.2193	0.076583	0.39242	0.16987	0.25848	0.15843	0.16937	0.19324	0.098689	0.18974	0.22905	0.098291	0.35077	0.11332	0.17328	-2.3458	-2.7	-3.1333	-2.9458	-2.8542	-2.9479	-2.9792	-2.9188	-2.9167	-2.5687	-2.9854	-2.8979	-2.8104	-3.1229	-2.5812	-2.8333	-111.691	120.076	131.749	-161.696	-169.616	25.192	85.307	155.855	138.991	-144.295	125.693	-127.804	-31.990	-112.566	12.433	-96.202	0.00064952	0.00046839	8.1811e-05	1024.2	3.669e-06	2.4679e-06	1085.7	215.4	6.6835e-06	2.8946e-06	270.35	76.378	59.687	17.504	3.5301e-06	24.948	0.00034372	0.00032701	8.1614e-05	1013.7	3.5819e-06	3.1923e-06	1076.5	213.96	3.4867e-06	3.3583e-06	270.39	76.714	59.711	17.738	3.3964e-06	25.234	2.394	-59.734	-77.915	-162.670	-49.134	-29.788	-163.062	-155.743	-22.137	20.928	-155.672	-149.315	-149.319	-141.726	-13.980	-142.376	-8191	255	
18110.027	1	1	0	0	0.13844	0.074084	0.075155	0.15411	0.081808	0.12537	0.34599	0.011582	0.18805	0.019417	0.13084	0.34316	0.15082	0.066352	0.15348	0.30571	-2.5021	-2.4938	-3.0396	-2.9396	-2.6729	-3.0542	-2.8604	-3.1167	-3.0958	-2.8271	-3.0646	-3.0646	-2.8146	-3.1813	-2.8854	-2.9042	97.113	121.307	80.884	142.640	39.893	181.721	160.244	-143.469	-136.099	138.845	147.784	80.645	-86.050	133.861	-152.084	121.617	0.00059429	0.00070195	5.8175e-05	1023.5	3.703e-06	2.1141e-06	1084	214.55	4.821e-06	3.531e-06	268.61	76.613	59.805	17.486	3.081e-06	24.771	0.00033885	0.00032254	7.9409e-05	1014.2	3.6586e-06	3.1269e-06	1075	213.66	3.4908e-06	3.2665e-06	269.27	76.74	59.799	17.715	3.2537e-06	25.228	6.065	-99.224	-88.173	-162.705	-50.484	-26.969	-162.866	-155.391	-35.611	-42.980	-156.067	-149.738	-149.121	-141.577	-14.410	-142.784	-8191	255	
18110.123	1	1	0	0	0.16452	0.11136	0.35998	0.080799	0.12154	0.079023	0.19093	0.31714	0.11206	0.047785	0.16225	0.24315	0.28302	0.22944	0.11021	0.27666	-2.5687	-2.6917	-2.9042	-2.9125	-2.7313	-3.2354	-2.8563	-3.0667	-3.0104	-2.7687	-3.2875	-3.2313	-2.7396	-3.1896	-2.7604	-2.9771	106.662	-155.077	-16.581	-167.884	-66.334	-116.408	109.059	155.494	-129.532	-147.456	-76.238	-110.481	169.102	181.106	63.838	-89.017	0.00060726	0.00040972	8.9696e-05	1024.4	5.7692e-06	2.8323e-06	1087.8	214.46	6.6762e-06	2.5004e-06	267.6	76.545	59.784	17.39	3.4982e-06	24.921	0.00033156	0.00031126	8.4289e-05	1013.3	3.6044e-06	3.3721e-06	1078.5	213.49	3.5755e-06	3.226e-06	268.73	76.735	59.886	17.693	3.3503e-06	25.226	0.201	-72.576	-78.378	-162.657	-37.259	-2.792	-163.009	-155.638	-45.358	-53.585	-155.952	-149.637	-149.180	-141.834	-22.404	-142.338	-8191	255	
18110.244	1	1	0	0	0.048777	0.25279	0.067855	0.094508	0.14664	0.28009	0.1814	0.20523	0.15146	0.29517	0.31544	0.2271	0.071879	0.011994	0.0074502	0.22044	-2.6083	-2.6354	-3.0333	-2.9125	-2.8292	-3.0875	-3.0958	-2.9375	-3.1542	-2.8312	-3.075	-3.0208	-2.825	-2.9854	-2.8083	-2.9062	121.075	-94.019	-140.600	138.299	-154.341	47.653	146.504	115.763	-130.304	-105.676	133.454	65.920	1.378	34.007	-80.991	96.970	0.00054738	0.00024612	6.9896e-05	1020.1	3.549e-06	2.5121e-06	1082.8	215.28	5.7951e-06	2.0789e-06	268.52	76.73	59.438	17.488	3.148e-06	24.864	0.00033616	0.00032307	8.8089e-05	1011.3	3.4642e-06	3.2273e-06	1074.7	213.66	3.3143e-06	3.3545e-06	269.2	76.721	59.928	17.714	3.5849e-06	25.186	9.093	-72.720	-61.324	-162.771	-32.935	-22.309	-162.944	-155.671	-23.456	-15.951	-155.838	-149.427	-149.008	-141.870	-50.336	-142.802	-8191	255	
18110.342	1	1	0	0	0.12785	0.061293	0.16211	0.21179	0.11593	0.077795	0.40932	0.096722	0.24154	0.068099	0.20281	0.17672	0.29126	0.18598	0.17619	0.029564	-2.7875	-2.7625	-3.0187	-3.1021	-2.7396	-3.1542	-3.025	-2.7792	-3.0729	-2.7292	-3.0229	-2.9417	-2.8229	-2.9917	-2.7604	-2.7729	-39.481	64.313	183.220	151.131	7.933	5.979	118.486	95.196	-62.150	-64.406	145.158	-62.000	141.338	32.665	92.624	-125.234	0.00059391	0.00044513	5.718e-05	1024.2	1.8452e-06	3.4492e-06	1083.1	214.38	6.6678e-06	2.0739e-06	270.26	77.023	59.772	17.472	4.1616e-06	24.809	0.0003331	0.00033248	8.6752e-05	1014.7	3.6582e-06	3.1927e-06	1078.1	213.19	3.5039e-06	3.4788e-06	269.6	76.851	59.865	17.736	3.4178e-06	25.189	2.307	-99.877	-61.590	-162.487	-45.646	-35.840	-162.980	-155.766	-48.153	-17.460	-155.792	-149.467	-149.100	-141.989	-18.168	-142.789	-8191	255	
18110.412	1	1	0	0	0.19501	0.1613	0.16521	0.18576	0.10589	0.098732	0.16873	0.080544	0.13313	0.22251	0.11859	0.34943	0.1674	0.10774	0.1277	0.080533	-2.55	-2.5979	-2.8542	-3.0292	-2.7479	-3.1333	-2.9188	-2.6792	-3.2292	-2.7229	-2.8583	-3.0312	-2.8417	-3.1063	-2.8187	-2.8042	121.363	57.134	-130.389	98.973	38.311	116.609	157.622	102.114	34.410	-131.916	-152.555	-159.632	121.649	180.992	130.514	27.905	0.00063803	0.0003907	0.0001255	1028.4	3.5499e-06	3.0083e-06	1086.3	214.03	6.4706e-06	1.962e-06	268.68	76.633	59.858	17.424	4.3585e-06	24.885	0.0003432	0.00034114	8.8277e-05	1016	3.5883e-06	3.5786e-06	1079.9	213.69	3.6224e-06	3.7752e-06	269.15	76.944	59.952	17.702	3.5514e-06	25.268	3.541	-87.370	-64.549	-162.637	-54.608	-45.903	-163.011	-155.605	-31.193	-57.420	-156.280	-149.642	-149.323	-142.159	-8.861	-142.839	-8191	255	
18110.510	1	1	0	0	0.069345	0.065781	0.23114	0.21411	0.26644	0.33355	0.30146	0.39076	0.16807	0.094163	0.07658	0.13133	0.24011	0.24585	0.17387	0.20953	-2.6229	-2.7667	-2.6083	-3.2313	-2.8375	-3.0563	-3.1521	-2.9688	-3.0021	-2.7188	-2.7333	-3.0604	-2.7042	-2.9542	-2.95	-2.8521	-157.851	124.097	-71.300	166.311	-146.203	10.352	93.583	172.722	-159.609	-114.429	93.324	170.567	-170.247	155.816	109.620	125.047	0.0005783	0.00042606	0.00010614	1027.4	3.8694e-06	3.6485e-06	1089.1	215.97	5.4377e-06	2.3719e-06	270.67	76.758	59.518	17.494	2.6453e-06	24.786	0.00033473	0.00033658	9.2969e-05	1016.9	3.7192e-06	3.8701e-06	1079.8	214.46	3.6257e-06	3.6246e-06	269.99	76.965	59.885	17.805	3.4199e-06	25.219	4.645	-75.433	-105.145	-162.701	-54.494	-46.882	-162.721	-155.540	-58.329	-18.686	-155.919	-149.386	-149.124	-141.830	-44.111	-142.409	-8191	255	
18110.629	1	1	0	0	0.11285	0.065716	0.094951	0.13082	0.2436	0.10358	0.072153	0.20621	0.17461	0.26221	0.17321	0.074087	0.39128	0.27791	0.084331	0.060665	-2.3292	-2.9208	-2.7042	-3.1146	-2.6146	-2.8729	-3.0333	-2.7667	-2.9042	-2.8833	-2.6917	-3.0354	-2.9	-2.7708	-2.9813	-2.8542	184.341	55.021	-0.261	-144.479	81.328	165.854	158.399	110.472	-87.753	-85.121	-116.678	-133.312	91.231	172.675	-130.086	-37.925	0.00062427	0.00042003	9.4351e-05	1030.3	3.7783e-06	2.9212e-06	1093.2	214.72	4.8564e-06	2.506e-06	270.56	76.391	60.311	17.501	2.8243e-06	24.868	0.00035868	0.00035059	9.2218e-05	1019.9	3.8687e-06	3.7132e-06	1081.5	213.82	3.8252e-06	4.1861e-06	270.18	77.077	60.15	17.828	3.6263e-06	25.329	2.970	-99.520	-96.607	-162.826	-69.374	-42.026	-162.814	-155.655	-44.509	-16.666	-155.902	-149.691	-149.402	-142.063	-35.323	-142.884	-8191	255	
18110.725	1	1	0	0	0.25374	0.028681	0.14703	0.40952	0.083996	0.14112	0.3789	0.032274	0.17673	0.11914	0.2048	0.33367	0.075739	0.26203	0.083179	0.13098	-2.3875	-2.7167	-2.5458	-2.8958	-2.7125	-2.8833	-3.15	-2.7625	-2.925	-2.9562	-2.6937	-2.9625	-2.7625	-2.525	-2.9229	-2.6792	86.018	-39.148	22.102	125.731	77.658	114.934	126.394	-37.092	57.862	88.375	-103.576	70.572	-78.434	-152.764	-7.887	184.225	0.00063742	0.00032489	4.3422e-05	1025.8	2.5836e-06	2.8683e-06	1097	216.17	6.9355e-06	1.2746e-06	270.52	76.851	60.705	17.61	4.0682e-06	24.778	0.00036286	0.00036286	9.7754e-05	1020.3	3.67e-06	3.9211e-06	1085.2	214.62	3.859e-06	3.8647e-06	270.82	77.152	60.352	17.834	3.6785e-06	25.322	5.841	-74.048	-97.444	-162.950	-24.231	-6.520	-162.989	-155.413	-17.058	-35.247	-156.079	-149.450	-149.563	-142.271	-26.630	-142.793	-8191	255	
18110.822	1	1	0	0	0.080402	0.27653	0.12832	0.057311	0.094918	0.16203	0.19739	0.10816	0.12927	0.17949	0.16641	0.088254	0.46551	0.11535	0.13162	0.27173	-2.5417	-2.7917	-2.5854	-3.2396	-2.7229	-2.8292	-3.0146	-2.7792	-3.0708	-2.7854	-2.75	-2.9458	-2.85	-2.7208	-2.9604	-2.7208	-161.859	65.663	-9.461	-119.695	-111.774	95.289	139.941	110.078	-109.218	-74.826	20.711	-113.576	107.628	-125.332	172.459	-24.762	0.00057461	0.00036456	6.8685e-05	1032.5	4.2005e-06	2.7301e-06	1089.9	215.66	6.9503e-06	3.4372e-06	270.07	77.131	60.37	17.583	3.7803e-06	24.74	0.00036473	0.00036626	9.5971e-05	1023.1	3.9593e-06	3.7305e-06	1085.2	214.69	3.8285e-06	3.7945e-06	271.18	77.486	60.447	17.846	3.7007e-06	25.302	8.609	-83.552	-89.463	-162.573	-39.423	-15.210	-163.184	-155.586	-19.283	-41.451	-155.900	-149.601	-149.254	-142.208	-20.099	-142.088	-8191	255	
18110.918	1	1	0	0	0.042144	0.14121	0.077735	0.095386	0.23465	0.17698	0.16438	0.26753	0.04947	0.17065	0.13887	0.31433	0.028831	0.18027	0.065113	0.21867	-2.3521	-2.9458	-2.7771	-3.0167	-2.8563	-2.6271	-3.0062	-2.875	-2.8104	-3.1125	-2.6937	-2.9604	-2.8729	-2.6458	-3.1042	-2.9292	141.532	29.458	7.485	136.852	-52.651	-148.248	126.399	159.873	121.541	149.057	-30.700	186.044	-68.634	112.710	-112.132	76.683	0.00063888	0.00024744	6.2523e-05	1034.3	4.1479e-06	3.1411e-06	1095.3	216.75	4.0146e-06	2.4735e-06	270.12	77.682	60.268	17.683	3.9518e-06	25.005	0.00037201	0.00035117	9.8599e-05	1026	4.0487e-06	3.6865e-06	1087.5	215.73	4.0606e-06	3.7536e-06	270.98	77.576	60.236	17.834	3.6445e-06	25.406	2.793	-130.463	-72.798	-162.607	-41.070	-8.793	-162.864	-155.523	-12.636	-2.853	-156.255	-149.123	-149.271	-141.642	-17.026	-142.636	-8191	255	
18111.037	1	1	0	0	0.13067	0.36692	0.40345	0.095999	0.13483	0.13085	0.53664	0.17886	0.16788	0.267	0.17997	0.15489	0.19015	0.13944	0.17642	0.040981	-2.4562	-3.0229	-2.6875	-2.9979	-2.7812	-2.9667	-3.1063	-2.8271	-2.8063	-2.8917	-2.7188	-2.7646	-2.8812	-2.7979	-3.0125	-2.6958	-12.029	-104.481	126.722	-116.768	117.528	120.352	105.469	-172.596	-158.584	-65.391	135.064	-84.873	-105.187	39.182	-152.820	44.952	0.00066031	0.00039131	5.9995e-05	1035	3.6454e-06	2.4578e-06	1094.7	217.44	5.9665e-06	2.0157e-06	271.63	76.978	60.204	17.691	3.8371e-06	24.865	0.00037031	0.00033563	9.8329e-05	1026.8	3.8742e-06	3.8804e-06	1086.6	215.45	4.0388e-06	3.7112e-06	271.95	77.297	60.358	17.851	3.5962e-06	25.381	1.961	-96.019	-97.272	-162.860	-41.257	22.614	-162.855	-155.469	-63.414	-38.987	-155.820	-149.563	-149.305	-142.028	-34.339	-142.500	-8191	255	
18111.109	1	1	0	0	0.10178	0.099706	0.22656	0.19833	0.098864	0.2452	0.20318	0.12571	0.129	0.090997	0.1058	0.29508	0.14081	0.1992	0.22575	0.12007	-2.3396	-3.0208	-2.6063	-2.9146	-2.9208	-2.5563	-3.0646	-2.9292	-2.7958	-2.8792	-2.8854	-3.0083	-2.9521	-2.7104	-2.7917	-2.8729	74.505	-40.340	160.686	146.011	-147.498	124.005	147.704	174.849	-149.472	140.004	-167.654	-160.294	93.603	167.721	-95.980	76.837	0.00067579	0.00058326	9.6782e-05	1037.5	3.7027e-06	5.2573e-06	1098.1	216.85	6.8321e-06	3.6316e-06	271.29	76.701	60.739	17.75	2.1546e-06	24.855	0.00036734	0.00037649	0.00010347	1027.6	3.9898e-06	3.8809e-06	1089.4	216.01	3.8582e-06	3.7701e-06	271.52	77.371	60.556	17.876	3.9732e-06	25.41	9.057	-76.213	-67.481	-162.536	-44.885	-28.861	-162.529	-155.819	-29.800	-38.524	-155.925	-149.616	-149.577	-141.713	-40.725	-142.313	-8191	255	
18111.229	1	1	0	0	0.29605	0.14233	0.048061	0.09772	0.16927	0.1049	0.19579	0.22445	0.10807	0.068063	0.21087	0.18242	0.15763	0.18556	0.068371	0.052359	-2.1292	-3.1083	-2.5646	-2.9396	-2.8333	-2.4708	-3.2062	-2.7938	-2.4688	-3.0021	-2.8625	-2.7667	-3.0125	-2.5854	-2.8542	-2.8	-92.687	97.959	146.959	171.353	-118.722	164.345	8.127	149.464	26.269	81.452	116.443	-141.683	-156.752	57.112	-112.708	22.315	0.00059432	0.00043313	4.9908e-05	1039.3	3.9121e-06	1.087e-06	1102.8	217.88	7.5964e-06	3.3928e-06	270.98	77.361	60.843	17.638	1.1434e-06	24.99	0.0003647	0.00035668	9.7965e-05	1030.1	4.0051e-06	3.8856e-06	1091.8	216.58	4.0231e-06	3.9936e-06	271.92	77.578	60.643	17.901	3.9235e-06	25.376	9.022	-80.735	-78.154	-162.764	-49.403	-37.528	-163.199	-155.793	-29.032	-19.889	-155.656	-149.519	-149.079	-142.272	-54.113	-142.718	-8191	255	
18111.324	1	1	0	0	0.10214	0.19483	0.14922	0.29601	0.11514	0.081676	0.071209	0.17119	0.060213	0.015087	0.078526	0.1517	0.1568	0.31572	0.12388	0.22533	-2.2583	-2.9104	-2.5604	-2.9813	-2.9375	-2.8063	-3.1063	-3.0396	-2.6542	-2.8396	-2.9354	-2.6	-2.9292	-2.625	-2.9646	-2.9333	64.982	-104.178	-19.949	164.264	45.556	-45.972	182.098	145.289	81.099	-36.570	133.283	-173.005	-166.940	147.728	109.841	119.452	0.00057234	0.00030429	6.7665e-05	1043.2	2.2947e-06	3.0252e-06	1101.4	218.59	3.4573e-06	3.8825e-06	273.47	78.125	60.976	17.733	2.2269e-06	25.035	0.00037221	0.00035905	9.7731e-05	1033.1	3.8843e-06	3.8253e-06	1096	216.86	3.8968e-06	3.9738e-06	272.94	77.895	60.791	17.954	4.119e-06	25.492	3.002	-74.257	-81.820	-162.801	-85.164	-37.792	-162.967	-155.740	-53.569	-42.841	-155.989	-149.664	-149.244	-142.089	-24.014	-142.792	-8191	255	
18111.422	1	1	0	0	0.29132	0.17026	0.11222	0.17427	0.25606	0.10286	0.26093	0.18561	0.087802	0.27597	0.1308	0.10415	0.10716	0.21048	0.22001	0.095589	-2.0979	-2.9646	-2.7292	-2.8021	-3.0563	-2.7146	-3.0812	-3	-2.4417	-3.0187	-2.8688	-2.7396	-3.2625	-2.7875	-2.7667	-3.0354	69.439	177.162	-47.274	157.571	154.197	-7.624	103.791	84.087	134.920	131.210	-59.728	107.902	173.096	-113.915	-73.357	-139.641	0.00055239	0.00019463	5.2317e-05	1049.8	3.2404e-06	4.7179e-06	1105.6	217.39	6.6324e-06	3.2364e-06	273.33	78.353	61.21	17.778	2.6372e-06	24.868	0.00037861	0.0003515	0.0001041	1037.3	4.0716e-06	4.2112e-06	1099.7	217.44	4.126e-06	4.2811e-06	273.88	78.239	61.067	17.994	4.0728e-06	25.501	4.399	-92.106	-65.308	-162.648	-21.827	-62.069	-163.223	-155.676	-38.097	-35.627	-155.909	-149.795	-149.308	-141.895	-6.508	-142.781	-8191	255	
18111.518	1	1	0	0	0.22691	0.068839	0.11448	0.39018	0.012099	0.07902	0.28923	0.15971	0.13274	0.1555	0.12279	0.095113	0.016968	0.2293	0.15768	0.26169	-2.0938	-2.85	-2.8208	-2.9854	-3.0104	-2.9125	-3.0146	-2.9479	-2.7583	-3.0104	-2.7708	-2.5938	-2.9833	-2.9313	-2.6646	-2.9375	-154.279	-156.829	148.119	133.560	146.534	-123.838	52.878	122.721	-107.025	-59.518	143.788	108.991	-64.023	119.204	-152.784	65.550	0.00069353	0.00027647	8.9949e-05	1055.4	2.5546e-06	3.2104e-06	1114.1	218.62	7.2901e-06	4.7723e-06	273.84	78.326	60.667	17.708	4.2468e-06	25.128	0.0003895	0.00039423	0.00010445	1043.2	4.1952e-06	4.1934e-06	1104.1	217.84	4.135e-06	4.3461e-06	274.07	78.234	60.889	18.01	4.0872e-06	25.595	3.981	-62.303	-79.152	-162.918	-38.658	-29.515	-163.015	-155.706	-37.622	-18.097	-155.887	-149.778	-149.072	-142.080	-36.041	-142.757	-8191	255	
18111.639	1	1	0	0	0.11655	0.17295	0.059287	0.19272	0.12563	0.11986	0.38247	0.1967	0.1025	0.20341	0.051079	0.19307	0.074119	0.1621	0.13136	0.1069	-2.3208	-2.8604	-2.7021	-2.7938	-2.9542	-2.7333	-2.9521	-2.8958	-2.6604	-2.9667	-3.0396	-2.6458	-2.9208	-2.6896	-2.7979	-2.8458	-76.278	180.959	68.180	-157.535	55.597	104.009	102.958	156.590	38.809	46.467	68.336	-90.178	-172.967	43.278	56.826	136.550	0.00062137	0.00038975	7.7498e-05	1059.5	3.6081e-06	2.0608e-06	1110.7	219.81	5.498e-06	3.7847e-06	274.6	78.115	61.24	17.765	2.13e-06	25.122	0.0003941	0.00039949	0.000107	1046.9	4.3608e-06	4.3341e-06	1106.3	218.61	4.2778e-06	4.3739e-06	275.15	78.353	61.249	18.088	4.3209e-06	25.667	8.515	-67.241	-53.250	-162.770	-53.460	-42.388	-162.891	-155.651	-42.052	-36.885	-155.943	-149.476	-149.274	-141.775	-17.630	-142.436	-8191	255	
18111.711	1	1	0	0	0.14994	0.1676	0.1222	0.29609	0.063091	0.095304	0.13087	0.14104	0.14172	0.2273	0.21161	0.31298	0.2299	0.17333	0.083521	0.0959	-2.3104	-2.8312	-2.8771	-2.9292	-2.9125	-2.8292	-2.875	-3.1271	-2.7417	-2.9125	-3.0438	-2.8104	-2.925	-2.8688	-2.6437	-3.1792	90.513	11.437	-103.977	107.020	-133.112	131.759	157.149	178.913	-99.944	-91.617	84.228	164.902	-78.897	171.289	31.260	-110.125	0.00061419	0.00012702	0.00010479	1059.2	2.1196e-06	3.7141e-06	1119	220.52	6.2898e-06	4.3522e-06	277.11	77.969	61.074	17.723	4.4169e-06	25.254	0.00040059	0.00039754	0.00011316	1050.1	4.4841e-06	4.4976e-06	1112.4	219.49	4.3379e-06	4.8407e-06	276.76	78.472	61.386	18.131	4.623e-06	25.75	4.203	-99.904	-88.956	-162.923	-19.510	-33.000	-163.004	-155.719	-44.783	-53.685	-156.167	-149.755	-149.416	-141.990	-37.148	-143.054	-8191	255	
18111.807	1	1	0	0	0.18669	0.27793	0.1354	0.029925	0.16554	0.02663	0.35143	0.28789	0.19934	0.16215	0.14718	0.15377	0.19263	0.059329	0.1403	0.22557	-2.2917	-2.7771	-2.9458	-2.975	-2.9208	-2.7938	-2.7729	-2.9854	-2.6771	-2.9208	-3.0333	-2.6729	-2.9833	-2.8375	-2.7875	-3.0854	96.232	68.459	-63.691	-118.589	141.347	-42.626	120.946	140.883	67.247	56.359	-67.091	119.640	-10.638	105.209	62.401	169.731	0.00063382	0.00046322	4.8985e-05	1069.7	2.0802e-06	2.2354e-06	1127.3	221.84	2.915e-06	3.3309e-06	276.7	78.416	61.836	18.108	2.8839e-06	25.384	0.00043152	0.00044487	0.0001127	1058.5	4.5764e-06	4.5891e-06	1117.6	220.78	4.5185e-06	4.7828e-06	276.64	78.923	61.864	18.298	4.4328e-06	25.85	-2.906	-107.837	-85.163	-162.910	-35.313	-64.884	-163.280	-155.729	-17.853	-21.476	-155.897	-149.653	-149.365	-141.905	-19.571	-142.790	-8191	255	
18111.926	1	1	0	0	0.12885	0.24898	0.25013	0.10134	0.10426	0.16425	0.28162	0.38099	0.13752	0.038995	0.17477	0.046861	0.11678	0.12276	0.17436	0.078788	-2.2271	-2.8271	-2.9375	-2.875	-3.0083	-2.9521	-2.8167	-3.0042	-2.8229	-2.7104	-3.0542	-2.775	-2.8688	-3.075	-2.7792	-3.0521	51.968	148.734	14.664	15.826	105.409	-27.547	75.047	143.977	41.499	85.737	10.633	-44.446	148.599	44.952	-33.141	-155.054	0.00061282	0.00025066	9.5886e-05	1073.3	3.2917e-06	1.4709e-06	1129.1	222.29	7.2176e-06	2.6732e-06	276.7	78.968	61.905	18.123	1.5054e-06	25.449	0.00041667	0.0004355	0.00011753	1062.6	4.8509e-06	4.5877e-06	1121	221.1	4.7159e-06	4.828e-06	277.44	79.069	62.031	18.285	4.3845e-06	25.924	-0.631	-72.567	-50.671	-162.694	-64.969	-32.634	-163.094	-155.607	-22.952	-4.179	-155.846	-149.365	-149.077	-142.126	-37.464	-142.733	-8191	255	
18112.021	1	1	0	0	0.10065	0.086252	0.11877	0.31352	0.07753	0.048134	0.25335	0.33403	0.26394	0.11887	0.05195	0.084676	0.089169	0.28014	0.17395	0.094813	-2.3958	-2.7979	-2.9479	-2.9792	-2.7104	-3.0646	-2.8667	-3.1125	-2.8646	-2.6271	-3.1458	-2.6646	-3.0583	-2.9708	-2.7271	-3.0187	21.271	-153.741	-7.014	92.422	-93.465	185.188	-160.676	-1.626	-23.075	159.789	-6.972	-118.523	29.294	129.579	136.520	134.042	0.00065816	0.00029929	7.321e-05	1073.2	4.3027e-06	2.2064e-06	1134	223.06	5.5361e-06	4.4324e-06	278.49	79.272	61.94	18.016	4.3305e-06	25.529	0.00043128	0.00043347	0.00011357	1063.9	4.8123e-06	4.7569e-06	1123.5	221.65	4.6258e-06	4.8835e-06	277.94	79.293	61.946	18.275	4.3018e-06	25.895	5.147	-70.294	-109.118	-163.119	-49.199	-36.427	-163.084	-155.976	-37.523	-23.663	-156.170	-149.807	-149.420	-142.418	-21.214	-142.776	-8191	255	
18112.117	1	1	0	0	0.20687	0.19407	0.07509	0.20589	0.11048	0.11146	0.15194	0.21235	0.1328	0.22013	0.18964	0.3016	0.2419	0.067319	0.15523	0.30723	-2.2812	-2.7938	-3.0292	-2.8042	-2.7833	-2.9833	-2.925	-3.1937	-2.9854	-2.75	-2.9583	-2.8792	-2.6667	-3.0104	-2.5333	-3.0104	179.935	-22.897	1.731	47.358	-125.588	135.843	83.286	-149.821	185.584	115.840	179.464	177.802	37.367	138.996	179.008	140.568	0.00059021	0.00023077	9.1018e-05	1075.5	1.735e-06	3.3761e-06	1137.3	222.38	7.4033e-06	4.3183e-06	277.87	78.782	61.921	18.059	4.4967e-06	25.473	0.0004101	0.00042266	0.00011495	1066	4.7552e-06	4.677e-06	1126.1	221.36	4.7813e-06	4.8656e-06	278.44	79.243	61.974	18.312	4.6383e-06	25.93	4.881	-95.723	-84.285	-163.080	-14.950	-14.395	-162.801	-156.055	-41.461	-3.359	-156.176	-149.534	-149.714	-142.220	-27.471	-142.678	-8191	255	
18112.213	1	1	0	0	0.23252	0.21007	0.24587	0.3182	0.13571	0.12287	0.24598	0.15366	0.11678	0.16285	0.31275	0.15694	0.036553	0.33479	0.049501	0.17417	-2.6083	-2.5854	-2.9354	-2.8292	-2.8104	-3.025	-2.7854	-2.6292	-2.9417	-2.6542	-2.9625	-2.7458	-2.7208	-3.1292	-2.7083	-2.8438	141.018	124.307	-120.913	182.664	126.726	-120.175	128.525	172.705	-76.143	8.791	5.212	-171.711	156.688	156.785	-121.079	176.464	0.00058011	0.00022943	3.6016e-05	1077.9	1.7268e-06	2.8971e-06	1131.2	222.02	4.2526e-06	5.2122e-06	277.97	78.941	61.678	18.08	3.5235e-06	25.254	0.00039822	0.00043206	0.00011443	1066.4	4.8263e-06	4.4695e-06	1123.8	221.23	4.481e-06	4.7278e-06	278.54	79.195	61.947	18.265	4.6879e-06	25.907	2.712	-71.753	-70.869	-163.113	-47.025	-29.194	-163.038	-155.819	-35.578	-18.308	-156.186	-149.583	-149.382	-141.931	-9.721	-142.678	-8191	255	
18112.309	1	1	0	0	0.12851	0.063686	0.10517	0.21567	0.06657	0.12744	0.063123	0.069378	0.20018	0.28138	0.10828	0.17422	0.16086	0.30265	0.14975	0.34995	-2.3979	-2.5333	-3.0208	-2.9542	-2.7042	-3.0542	-2.8792	-2.8958	-3.0104	-2.6167	-2.9562	-2.9188	-2.7292	-2.9021	-2.9062	-2.7792	30.320	-75.748	-34.835	135.034	-113.046	50.863	82.514	138.122	74.239	168.515	-169.323	109.762	-140.721	62.282	77.578	180.523	0.00058907	0.00030073	8.3794e-05	1075.3	3.0774e-06	2.7544e-06	1137.3	221.99	8.3953e-06	3.517e-06	279.74	79.15	62.422	17.946	3.7516e-06	25.352	0.0004046	0.00041959	0.00011882	1064.5	4.6175e-06	4.5975e-06	1124.7	221.75	4.5526e-06	4.8689e-06	279.68	79.204	62.338	18.292	4.5059e-06	25.922	3.896	-96.030	-73.426	-162.929	-68.098	-27.462	-163.160	-155.807	-23.320	-8.188	-155.802	-149.466	-149.384	-142.377	-37.968	-142.717	-8191	255	
18112.404	1	1	0	0	0.12543	0.16633	0.11284	0.095355	0.12111	0.14763	0.20803	0.16702	0.23612	0.20284	0.14341	0.31878	0.060521	0.37058	0.2446	0.14048	-2.2875	-2.6813	-2.7854	-2.9521	-2.6125	-2.8438	-2.7771	-2.7354	-2.8271	-2.6208	-3.0083	-3.0021	-2.7208	-3.0271	-2.6875	-2.8333	-125.746	-157.115	30.188	176.139	0.678	-113.708	-171.239	147.847	158.074	4.209	165.950	133.719	25.999	101.972	99.161	-49.079	0.00057967	0.00054841	8.8383e-05	1077.8	1.4924e-06	1.1548e-06	1135.3	222.86	6.963e-06	2.5694e-06	278.67	79.011	61.712	17.992	3.9547e-06	25.479	0.0004035	0.00043791	0.000125	1066.3	4.604e-06	4.5036e-06	1126.7	221.94	4.5394e-06	4.732e-06	279.02	79.44	62.05	18.323	4.6687e-06	25.925	2.292	-94.319	-79.238	-163.027	-81.326	-33.523	-162.804	-155.565	-31.585	-60.867	-155.706	-149.377	-149.515	-141.937	-23.999	-142.256	-8191	255	
18112.502	1	1	0	0	0.25476	0.15014	0.11025	0.3968	0.26361	0.082934	0.24855	0.27777	0.034478	0.15462	0.34615	0.36177	0.079615	0.25728	0.1769	0.24027	-2.5687	-2.6208	-2.775	-3.1083	-2.8688	-2.9417	-2.8563	-2.7125	-3.0833	-2.6813	-2.8521	-2.9875	-2.8167	-2.9771	-2.8063	-2.8479	-162.954	-94.125	113.070	174.005	-85.992	10.906	139.873	-139.484	16.437	-24.899	139.429	182.131	95.287	-129.477	-21.248	37.681	0.00069481	0.00037717	9.3904e-05	1079.3	4.862e-06	2.1651e-06	1133.3	223.07	7.1956e-06	3.4403e-06	279.55	79.278	61.903	18.003	6.3921e-06	25.457	0.00042542	0.00045341	0.0001264	1069.7	4.8733e-06	4.9895e-06	1126.7	222.27	4.7624e-06	5.0421e-06	278.83	79.541	62.116	18.311	4.9699e-06	25.973	5.466	-116.192	-72.398	-162.899	-61.087	-2.810	-163.087	-156.052	-51.620	-33.312	-155.926	-150.058	-149.145	-141.985	-32.829	-142.836	-8191	255	
18112.598	1	1	0	0	0.25967	0.22273	0.10182	0.073183	0.2725	0.18802	0.25495	0.349	0.16457	0.084619	0.098888	0.10475	0.2155	0.09094	0.2168	0.10685	-2.6604	-2.6875	-2.7771	-3.2167	-2.7125	-2.9521	-3.1354	-2.7771	-3.05	-2.8125	-2.8604	-3.0521	-2.75	-3.0563	-2.9188	-2.7292	-13.676	70.346	-92.079	138.581	76.682	7.785	113.636	144.840	-9.959	-98.313	141.441	78.655	-7.907	117.950	123.993	-85.659	0.00058455	0.00037269	6.7399e-05	1086.9	4.3916e-06	8.09e-07	1143	224.12	7.1151e-06	2.572e-06	281.27	79.603	62.403	18.149	4.1783e-06	25.421	0.00041742	0.00045627	0.00012358	1072	4.9284e-06	4.9811e-06	1133.7	222.92	4.8607e-06	5.3956e-06	280.42	79.7	62.399	18.376	4.9103e-06	25.928	2.957	-121.831	-64.644	-162.944	-45.185	25.799	-163.156	-155.744	-23.566	-15.668	-156.026	-149.577	-149.486	-142.304	-37.343	-142.947	-8191	255	
18112.719	1	1	0	0	0.17673	0.098246	0.088211	0.36167	0.059526	0.1352	0.25709	0.044644	0.13571	0.13911	0.077568	0.20039	0.30593	0.21715	0.28562	0.14055	-2.5833	-2.8812	-2.6354	-3.1958	-2.8979	-2.7396	-3.0729	-2.75	-3.1312	-2.9958	-2.875	-2.975	-2.7958	-3.0375	-2.9833	-2.7104	40.224	120.387	102.087	99.713	119.697	-94.698	137.545	157.754	45.178	42.658	13.512	-30.599	-152.934	42.361	-130.007	-129.113	0.00068412	0.00015043	7.0299e-05	1083.8	3.157e-06	3.3373e-06	1142	225.01	5.0764e-06	2.7067e-06	280.79	79.435	62.181	18.111	3.0766e-06	25.561	0.00043705	0.00048432	0.00013132	1074.1	4.9868e-06	5.2044e-06	1133.5	222.96	4.8706e-06	5.0798e-06	281.03	79.896	62.213	18.381	4.8132e-06	26.018	5.251	-44.043	-65.171	-162.832	-91.195	-30.559	-163.160	-155.671	-38.174	-71.976	-156.424	-149.658	-149.158	-141.668	-2.022	-142.770	-8191	255	
18112.814	1	1	0	0	0.17698	0.20083	0.27099	0.086537	0.11794	0.077714	0.17989	0.20958	0.09555	0.10323	0.28274	0.086405	0.089072	0.18408	0.34271	0.19387	-2.5479	-2.8563	-2.6958	-3.2583	-2.6375	-2.9729	-3.1562	-2.8312	-3.05	-3.0687	-2.8396	-3	-2.7188	-2.7979	-3.1458	-2.8708	179.264	-96.287	138.120	69.300	-95.168	104.784	63.279	110.342	113.513	-140.486	86.796	-99.468	146.728	110.227	-64.900	117.978	0.00060128	0.00025319	5.513e-05	1087.4	2.7524e-06	4.9107e-06	1142.4	223.65	5.8754e-06	2.0564e-06	279.98	79.735	62.797	18.231	4.8481e-06	25.654	0.00043304	0.00046443	0.00012134	1075.3	5.1169e-06	5.3502e-06	1134.7	222.91	4.941e-06	5.1602e-06	280.18	79.903	62.575	18.452	4.9277e-06	26.155	6.253	-94.098	-96.596	-162.958	-26.339	-36.101	-163.196	-156.014	-49.271	-36.635	-156.185	-149.791	-149.058	-142.036	-7.617	-142.926	-8191	255	
18112.910	1	1	0	0	0.21519	0.012469	0.16331	0.13104	0.1656	0.24217	0.28591	0.216	0.053925	0.36659	0.1202	0.30788	0.21089	0.086572	0.13928	0.27155	-2.6792	-3.0583	-2.6167	-3.2229	-2.7021	-2.8958	-3.1917	-2.8104	-2.9083	-2.9396	-2.6958	-2.9917	-2.9188	-2.9333	-2.9792	-2.7812	-17.246	154.719	-46.797	147.789	-134.548	142.770	51.254	109.328	82.007	-94.848	142.872	121.351	179.078	29.721	15.670	182.501	0.00059778	0.00035906	0.00011956	1096.9	2.511e-06	4.5203e-06	1152.8	224.02	5.5813e-06	3.231e-06	280.95	79.965	62.651	18.344	5.0625e-06	25.646	0.00044632	0.00048822	0.00012873	1081.5	5.3147e-06	5.2932e-06	1140.7	223.91	5.259e-06	5.3179e-06	281.65	80.048	62.843	18.51	4.8394e-06	26.207	-1.179	-69.422	-67.740	-163.182	-70.749	-34.017	-163.041	-155.864	-21.277	-24.176	-155.787	-149.800	-149.431	-141.933	-34.459	-142.895	-8191	255	
18113.008	1	1	0	0	0.1944	0.19901	0.13662	0.077744	0.11477	0.1412	0.23075	0.18806	0.34809	0.21872	0.19117	0.26345	0.12429	0.14827	0.073591	0.1906	-2.4521	-2.9771	-2.8063	-3.1979	-2.875	-2.8812	-3.0667	-2.9104	-2.9375	-2.9917	-2.8542	-3.2146	-2.7562	-2.6646	-2.9917	-2.7729	106.426	-52.098	81.978	184.467	31.684	-139.561	80.796	54.009	-95.176	-118.435	97.918	-156.939	-135.683	-133.049	54.681	-173.500	0.00061583	0.00048097	0.00011215	1100	4.5781e-06	4.2598e-06	1156.9	226.65	8.9423e-06	4.6358e-06	282.13	80.154	62.979	18.242	6.6399e-06	25.519	0.00044131	0.00048279	0.00013084	1089.2	5.3989e-06	5.4824e-06	1148.7	225.19	5.3084e-06	5.3711e-06	282.7	80.419	63.078	18.565	4.9225e-06	26.227	0.035	-100.527	-88.126	-162.949	-41.586	-34.956	-163.058	-155.739	-39.933	-4.059	-156.423	-149.764	-149.251	-141.860	-21.669	-142.904	-8191	255	
#DATA ENDS
