BOXY.EXE: ISS Imagent and Oximeter Data Acquisition Program Version 0.80
Ascii Record File

#ACQ INFORMATION
2  Detector Channels 
16  External MUX Channels 
1  Auxiliary Channels 
5000  Waveform (CCF) Frequency (Hz)
1  Waveforms Skipped 
30  Waveforms Averaged 
1  Cycles Averaged 
16  Acquisitions per Waveform 
10.0806  Updata Rate (Hz) 

#FILE INFORMATION
TRUE -- External MUX Channel results are PARSED.
FALSE -- AC DC and Phase are NOT grouped.
TRUE -- Companion Program Settings File CREATED.
FALSE -- AC data not excluded
FALSE -- DC data not excluded
FALSE -- Phase data not excluded
FALSE -- Auxillary Chn. data not excluded
Tab delimiters

#CALIBRATION STATE
TRUE -- Waveform Calibration Values APPLIED.


#AUX CALIBRATION VALUES
Val Type	aux-1	

Term	1.0000e+00	
Factor	0.0000e+00	


#WF CALIBRATION VALUES
A = Detector Channel
Val Type	A-AC1	A-AC2	A-AC3	A-AC4	A-AC5	A-AC6	A-AC7	A-AC8	A-AC9	A-AC10	A-AC11	A-AC12	A-AC13	A-AC14	A-AC15	A-AC16	A-DC1	A-DC2	A-DC3	A-DC4	A-DC5	A-DC6	A-DC7	A-DC8	A-DC9	A-DC10	A-DC11	A-DC12	A-DC13	A-DC14	A-DC15	A-DC16	A-Ph1	A-Ph2	A-Ph3	A-Ph4	A-Ph5	A-Ph6	A-Ph7	A-Ph8	A-Ph9	A-Ph10	A-Ph11	A-Ph12	A-Ph13	A-Ph14	A-Ph15	A-Ph16	

Term	0.00000e+00	0.00000e+00	0.00000e+00	0.00000e+00	0.00000e+00	0.00000e+00	0.00000e+00	0.00000e+00	0.00000e+00	0.00000e+00	0.00000e+00	0.00000e+00	0.00000e+00	0.00000e+00	0.00000e+00	0.00000e+00	0.00000e+00	0.00000e+00	0.00000e+00	0.00000e+00	0.00000e+00	0.00000e+00	0.00000e+00	0.00000e+00	0.00000e+00	0.00000e+00	0.00000e+00	0.00000e+00	0.00000e+00	0.00000e+00	0.00000e+00	0.00000e+00	0.00000e+00	0.00000e+00	0.00000e+00	0.00000e+00	0.00000e+00	0.00000e+00	0.00000e+00	0.00000e+00	0.00000e+00	0.00000e+00	0.00000e+00	0.00000e+00	0.00000e+00	0.00000e+00	0.00000e+00	0.00000e+00	
Factor	1.00000e+00	1.00000e+00	1.00000e+00	1.00000e+00	1.00000e+00	1.00000e+00	1.00000e+00	1.00000e+00	1.00000e+00	1.00000e+00	1.00000e+00	1.00000e+00	1.00000e+00	1.00000e+00	1.00000e+00	1.00000e+00	1.00000e+00	1.00000e+00	1.00000e+00	1.00000e+00	1.00000e+00	1.00000e+00	1.00000e+00	1.00000e+00	1.00000e+00	1.00000e+00	1.00000e+00	1.00000e+00	1.00000e+00	1.00000e+00	1.00000e+00	1.00000e+00	X	X	X	X	X	X	X	X	X	X	X	X	X	X	X	X	

B = Detector Channel
Val Type	B-AC1	B-AC2	B-AC3	B-AC4	B-AC5	B-AC6	B-AC7	B-AC8	B-AC9	B-AC10	B-AC11	B-AC12	B-AC13	B-AC14	B-AC15	B-AC16	B-DC1	B-DC2	B-DC3	B-DC4	B-DC5	B-DC6	B-DC7	B-DC8	B-DC9	B-DC10	B-DC11	B-DC12	B-DC13	B-DC14	B-DC15	B-DC16	B-Ph1	B-Ph2	B-Ph3	B-Ph4	B-Ph5	B-Ph6	B-Ph7	B-Ph8	B-Ph9	B-Ph10	B-Ph11	B-Ph12	B-Ph13	B-Ph14	B-Ph15	B-Ph16	

Term	0.00000e+00	0.00000e+00	0.00000e+00	0.00000e+00	0.00000e+00	0.00000e+00	0.00000e+00	0.00000e+00	0.00000e+00	0.00000e+00	0.00000e+00	0.00000e+00	0.00000e+00	0.00000e+00	0.00000e+00	0.00000e+00	0.00000e+00	0.00000e+00	0.00000e+00	0.00000e+00	0.00000e+00	0.00000e+00	0.00000e+00	0.00000e+00	0.00000e+00	0.00000e+00	0.00000e+00	0.00000e+00	0.00000e+00	0.00000e+00	0.00000e+00	0.00000e+00	-1.62186e+02	-1.31730e+02	-1.27311e+02	-1.82839e+02	-7.22027e+01	-7.27005e+01	-1.55569e+02	-1.62015e+02	-8.76372e+01	-5.40435e+01	-1.72178e+02	-1.69985e+02	-1.81095e+02	-1.77169e+02	-7.66771e+01	-1.49038e+02	
Factor	2.42245e-05	1.56023e-04	3.81428e-05	1.75312e-01	1.40971e-06	1.64037e-06	1.54563e-01	4.71353e-02	1.24050e-06	1.69146e-06	8.91026e-02	2.75073e-02	2.74061e-02	8.82892e-03	1.31004e-06	1.28598e-02	5.15665e-06	6.04778e-06	1.70279e-06	8.69371e-02	6.52167e-08	6.74084e-08	7.23543e-02	2.35215e-02	6.47762e-08	6.74149e-08	4.30885e-02	1.33832e-02	1.37951e-02	4.43508e-03	6.56277e-08	6.27281e-03	X	X	X	X	X	X	X	X	X	X	X	X	X	X	X	X	



#DISTANCE SETTINGS
A = Detector Channel
A-1	A-2	A-3	A-4	A-5	A-6	A-7	A-8	A-9	A-10	A-11	A-12	A-13	A-14	A-15	A-16	

2.5000e+00	3.0000e+00	2.5000e+00	3.0000e+00	2.0000e+00	3.0000e+00	1.5000e+00	3.0000e+00	3.0000e+00	3.0000e+00	3.0000e+00	3.0000e+00	3.0000e+00	3.0000e+00	1.5000e+00	3.0000e+00	

B = Detector Channel
B-1	B-2	B-3	B-4	B-5	B-6	B-7	B-8	B-9	B-10	B-11	B-12	B-13	B-14	B-15	B-16	

1.0000e+01	1.0000e+01	1.0000e+01	1.4400e+00	1.0000e+01	1.0000e+01	1.5100e+00	1.9400e+00	1.0000e+01	1.0000e+01	1.9900e+00	2.4900e+00	2.4100e+00	2.9000e+00	1.0000e+01	2.9800e+00	




#DATA BEGINS
time	group	step	mark	flag	A-AC1	A-AC2	A-AC3	A-AC4	A-AC5	A-AC6	A-AC7	A-AC8	A-AC9	A-AC10	A-AC11	A-AC12	A-AC13	A-AC14	A-AC15	A-AC16	A-DC1	A-DC2	A-DC3	A-DC4	A-DC5	A-DC6	A-DC7	A-DC8	A-DC9	A-DC10	A-DC11	A-DC12	A-DC13	A-DC14	A-DC15	A-DC16	A-Ph1	A-Ph2	A-Ph3	A-Ph4	A-Ph5	A-Ph6	A-Ph7	A-Ph8	A-Ph9	A-Ph10	A-Ph11	A-Ph12	A-Ph13	A-Ph14	A-Ph15	A-Ph16	B-AC1	B-AC2	B-AC3	B-AC4	B-AC5	B-AC6	B-AC7	B-AC8	B-AC9	B-AC10	B-AC11	B-AC12	B-AC13	B-AC14	B-AC15	B-AC16	B-DC1	B-DC2	B-DC3	B-DC4	B-DC5	B-DC6	B-DC7	B-DC8	B-DC9	B-DC10	B-DC11	B-DC12	B-DC13	B-DC14	B-DC15	B-DC16	B-Ph1	B-Ph2	B-Ph3	B-Ph4	B-Ph5	B-Ph6	B-Ph7	B-Ph8	B-Ph9	B-Ph10	B-Ph11	B-Ph12	B-Ph13	B-Ph14	B-Ph15	B-Ph16	aux-1	digaux	

2226.483	1	1	0	768	0.22328	0.22389	0.39269	0.13609	0.2096	0.3477	0.28704	0.17391	0.13915	0.23626	0.18571	0.40085	0.097718	0.049151	0.11316	0.16577	-2.8417	-3.4104	-3.1917	-3.4375	-3.5292	-3.2687	-3.5729	-3.4688	-3.3312	-3.525	-3.2875	-3.4396	-3.4979	-3.3063	-3.4458	-3.4562	107.853	26.918	118.183	198.170	174.997	181.676	215.232	-98.373	109.018	126.125	218.361	-117.172	177.671	149.096	216.836	197.427	9.6999e-05	0.0019393	0.00045084	794.78	1.5429e-05	1.6183e-06	666.56	206.44	1.0918e-05	1.618e-05	196.59	60.245	63.635	23.146	7.3268e-06	27.14	0.0085285	0.0099545	0.0027914	911.92	0.00010661	0.00011053	768.08	239.93	0.00010653	0.00011037	261.7	80.755	84.879	29.98	0.00010704	36.726	142.693	-5.996	217.682	-115.858	57.632	-126.060	-117.298	-111.358	20.655	176.026	-114.044	-109.963	-107.293	-102.316	-88.051	-104.646	-8191	255	
2226.579	1	1	0	0	0.098285	0.28011	0.10718	0.13889	0.083701	0.17799	0.13583	0.20587	0.2648	0.046903	0.28932	0.12369	0.33514	0.1039	0.065217	0.15394	-2.9208	-3.4625	-3.2458	-3.3854	-3.5604	-3.0458	-3.6521	-3.5333	-3.1937	-3.5875	-3.3708	-3.3104	-3.3979	-3.2542	-3.3917	-3.3083	180.185	-108.600	68.907	122.676	10.312	101.782	108.907	-100.482	-100.334	138.377	212.331	206.667	-85.577	-61.867	91.908	22.191	9.7076e-05	0.0010345	0.00037717	790.93	9.1017e-06	8.4505e-06	667.1	206.42	9.7233e-06	1.7068e-05	197.13	60.564	63.881	23.167	2.5273e-06	27.372	0.0084281	0.0098656	0.0027809	909.51	0.00010617	0.00010992	769.28	239.84	0.00010568	0.00011029	262.15	81.232	85.111	29.982	0.00010708	36.893	166.067	-41.931	20.080	-115.934	-46.884	42.156	-117.127	-111.575	-78.118	-27.756	-113.301	-109.962	-107.509	-101.449	186.016	-104.473	-8191	255	
2226.675	1	1	0	0	0.043212	0.25591	0.31071	0.089349	0.12195	0.1496	0.12731	0.2068	0.042351	0.19685	0.10889	0.071319	0.096376	0.23375	0.22392	0.222	-2.9625	-3.4562	-3.3167	-3.3333	-3.5396	-3.1375	-3.5729	-3.5771	-3.3521	-3.5583	-3.2854	-3.25	-3.3729	-3.15	-3.4146	-3.3521	-37.971	120.065	215.025	84.562	7.377	-56.483	-111.383	197.164	162.682	151.208	107.032	-43.837	162.317	230.086	206.503	105.331	0.00031545	0.0012932	0.0003619	791.38	7.6306e-06	8.5298e-06	669.75	208.21	2.5879e-06	1.5421e-05	199.65	60.745	64.03	23.266	1.0368e-05	27.474	0.0084853	0.0098669	0.0027979	911.53	0.00010683	0.00011037	772.89	241.17	0.0001062	0.0001106	263.39	81.7	85.659	30.1	0.00010724	37.201	183.887	-22.486	65.537	-116.066	41.774	41.689	-117.274	-111.869	-99.211	172.879	-113.545	-109.547	-107.573	-101.600	156.535	-104.830	-8191	255	
2226.771	1	1	0	0	0.14466	0.15486	0.14139	0.36572	0.074262	0.089826	0.057478	0.3277	0.18352	0.12641	0.083549	0.14379	0.15057	0.19841	0.2119	0.0709	-3.0021	-3.4708	-3.4146	-3.425	-3.6208	-3.1292	-3.5229	-3.5208	-3.1958	-3.3958	-3.4583	-3.2938	-3.4833	-3.1396	-3.2958	-3.5208	-47.901	169.953	49.815	199.358	181.552	-55.848	-66.709	200.484	187.422	186.860	89.180	216.513	221.998	117.338	-115.446	125.811	0.00031791	0.00067803	0.00011189	792.65	1.0247e-05	1.4222e-05	671.48	206.22	8.5932e-06	1.2515e-05	195.43	60.814	64.465	23.147	4.6492e-06	27.273	0.0085074	0.0098997	0.0027916	912.03	0.00010656	0.00011047	770.24	239.5	0.00010478	0.00010824	260.65	80.866	84.796	29.896	0.00010567	36.696	175.669	-102.585	223.021	-115.815	14.611	25.336	-117.024	-111.486	59.114	-107.795	-114.151	-109.949	-107.675	-101.946	201.482	-104.595	-8191	255	
2226.867	1	1	0	0	0.17269	0.22171	0.19731	0.24544	0.20234	0.21332	0.13499	0.07705	0.13828	0.2166	0.10744	0.093272	0.061274	0.16087	0.12073	0.13668	-2.7167	-3.5854	-3.2854	-3.5417	-3.5542	-3.0833	-3.3542	-3.5542	-3.3292	-3.6688	-3.5125	-3.3542	-3.5333	-3.2854	-3.3958	-3.6042	-77.298	-41.099	-64.272	152.528	220.212	222.216	217.504	196.901	-23.224	-110.865	121.591	43.468	-41.392	173.021	141.125	-71.879	0.00029216	0.0005731	0.00014371	792.27	6.3325e-06	1.0497e-05	667.6	207.2	7.9748e-06	2.4876e-05	198.78	60.86	64.316	23.188	1.2885e-05	27.051	0.0083694	0.0097412	0.0027418	905.98	0.00010446	0.00010815	765.88	238.84	0.00010258	0.00010649	260.06	80.447	84.373	29.688	0.00010245	36.408	139.103	-78.511	99.686	-115.939	-20.356	-96.794	-117.314	-111.268	-34.545	105.304	-113.243	-110.043	-107.938	-101.844	-8.139	-104.977	-8191	255	
2226.964	1	1	0	0	0.1831	0.24916	0.24836	0.13963	0.067325	0.056896	0.21754	0.05422	0.10438	0.25202	0.19725	0.17269	0.1802	0.034296	0.29492	0.11055	-2.8292	-3.2854	-3.4604	-3.2521	-3.4437	-3.3208	-3.4875	-3.7958	-3.1833	-3.4021	-3.35	-3.2667	-3.5021	-3.3479	-3.1667	-3.5	200.757	149.262	158.360	112.130	-11.992	39.709	75.378	122.692	-48.687	-15.234	42.954	189.267	-77.377	52.276	-48.043	86.123	0.00020125	0.00091607	0.00030859	789.12	1.2168e-05	1.3316e-05	672.34	207.24	1.3649e-05	8.257e-06	197.67	61.453	64.831	23.298	7.7039e-06	27.506	0.0080711	0.0094126	0.0026432	901.81	0.00010089	0.00010412	765.04	237.89	9.9151e-05	0.00010326	257.79	80.457	84	29.54	9.959e-05	36.433	202.307	67.443	-69.418	-116.165	-6.880	-27.195	-117.235	-111.495	193.106	141.945	-113.109	-110.145	-107.657	-101.820	39.133	-104.870	-8191	255	
2227.082	1	1	0	0	0.10649	0.12622	0.26307	0.22324	0.18172	0.22202	0.16656	0.2619	0.056096	0.1304	0.1945	0.02308	0.063756	0.33208	0.079852	0.12341	-2.9	-3.2854	-3.5229	-3.2938	-3.6458	-3.2812	-3.3937	-3.5	-3.15	-3.3042	-3.6104	-3.2062	-3.5354	-3.45	-3.1417	-3.5312	189.513	124.706	1.061	184.959	-43.954	-28.605	229.085	-85.531	-125.273	-54.016	163.450	162.793	208.881	193.590	71.054	126.566	0.00025429	0.0019275	0.00021369	791.61	9.5191e-06	1.0027e-05	670.74	208.12	2.0839e-06	5.3034e-06	198.26	61.131	64.24	23.468	9.2654e-06	27.27	0.0077791	0.0091063	0.0025613	897.09	9.7745e-05	0.00010109	762.71	236.92	9.692e-05	0.00010048	255.84	79.489	83.169	29.446	9.6131e-05	36.04	167.666	-55.808	12.259	-115.838	34.742	65.444	-117.341	-111.628	-5.012	-29.967	-113.802	-110.123	-107.635	-101.692	97.108	-104.949	-8191	255	
2227.179	1	1	0	0	0.08406	0.17412	0.15624	0.25646	0.14458	0.16834	0.23926	0.13392	0.13333	0.14954	0.091557	0.28239	0.10063	0.26375	0.17273	0.14845	-2.8792	-3.1917	-3.4333	-3.3667	-3.5938	-3.4333	-3.2625	-3.625	-3.4	-3.4104	-3.5625	-2.9875	-3.3708	-3.2167	-3.2146	-3.4938	166.606	-45.158	94.794	221.335	50.717	-59.413	216.979	-107.230	-25.179	-63.667	-83.545	123.592	219.996	-40.950	148.872	-68.191	0.00015519	0.0007204	0.00019335	788.73	1.092e-05	1.0458e-05	666.37	205.57	1.4664e-05	7.3854e-06	196.78	61.219	63.827	23.18	5.5457e-06	27.286	0.0075869	0.0088531	0.0024982	887.7	9.5348e-05	9.8074e-05	755.19	234.27	9.4688e-05	9.8439e-05	253.43	78.82	82.678	29.246	9.5369e-05	35.847	152.374	137.793	-44.049	-116.143	28.630	-66.003	-116.817	-111.420	-96.944	5.522	-113.244	-109.489	-107.353	-101.694	141.176	-104.892	-8191	255	
2227.275	1	1	0	0	0.080544	0.19906	0.16188	0.22503	0.11074	0.20724	0.090746	0.2806	0.16334	0.11118	0.16388	0.033482	0.1614	0.39325	0.089843	0.14812	-2.9896	-3.2104	-3.4792	-3.4062	-3.3875	-3.4271	-3.325	-3.7083	-3.1813	-3.3479	-3.6333	-3.2771	-3.2896	-3.5167	-3.175	-3.4688	-74.704	79.914	-120.384	-123.854	128.799	-96.864	215.369	65.476	49.466	217.754	61.758	144.098	150.480	206.234	109.890	85.633	0.00034703	0.00050206	0.00017077	787.87	5.3598e-06	1.0664e-05	669.92	205.46	1.0549e-05	7.1621e-06	198.21	60.688	64.281	23.304	1.0182e-05	27.448	0.0075244	0.0087739	0.0024671	886.23	9.4059e-05	9.7287e-05	755.94	234.69	9.3475e-05	9.6864e-05	254.35	79.197	82.922	29.308	9.5104e-05	36.056	145.173	199.684	134.556	-115.934	-42.383	1.632	-117.072	-111.715	-59.596	153.064	-113.979	-109.856	-107.577	-101.909	130.871	-104.616	-8191	255	
2227.371	1	1	0	0	0.17042	0.023913	0.13545	0.0562	0.19408	0.091981	0.24796	0.077673	0.18219	0.12788	0.091752	0.19891	0.1418	0.21272	0.17158	0.10951	-2.8854	-3.425	-3.5438	-3.2792	-3.3896	-3.4771	-3.2667	-3.6729	-3.5021	-3.2812	-3.6146	-3.3667	-3.2958	-3.4875	-3.0521	-3.7708	13.416	-104.191	178.632	98.801	75.180	23.226	167.439	0.011	-50.950	208.956	137.868	-38.294	-51.478	227.730	-31.471	-44.799	0.00013594	0.00057588	0.00040593	785	9.0707e-06	3.9329e-06	672.26	206.59	3.9872e-06	1.94e-05	199.53	61.875	64.847	23.493	8.0152e-06	27.643	0.0074983	0.0088041	0.0024622	889.33	9.4629e-05	9.7538e-05	758.75	235.33	9.4135e-05	9.7969e-05	255.3	79.695	82.882	29.453	9.4541e-05	36.122	133.100	152.394	82.111	-116.140	16.971	-60.748	-116.948	-111.501	178.130	-50.703	-113.439	-109.898	-107.934	-101.956	50.161	-104.657	-8191	255	
2227.467	1	1	0	0	0.24074	0.17572	0.1362	0.20265	0.088554	0.094639	0.061349	0.20105	0.22912	0.13273	0.10463	0.13017	0.25081	0.14661	0.13773	0.03826	-2.9521	-3.1521	-3.525	-3.3542	-3.3792	-3.3	-3.1521	-3.5104	-3.25	-3.2042	-3.5146	-3.1896	-3.2188	-3.5875	-3.1646	-3.6083	21.273	143.291	16.062	-113.288	89.818	139.423	-35.694	176.518	97.748	193.143	-6.476	182.489	170.914	171.159	-40.073	208.065	0.00024711	0.00047992	0.00030085	784.67	3.9801e-06	9.0333e-06	670.6	204.67	2.8121e-06	2.0055e-05	197.57	60.914	64.086	23.391	2.869e-06	27.316	0.0074941	0.0087578	0.0024423	886.1	9.4034e-05	9.6927e-05	755	233.49	9.2869e-05	9.646e-05	253.29	78.762	82.344	29.295	9.4164e-05	35.739	195.254	180.393	-22.906	-116.081	5.335	111.694	-117.287	-111.524	-6.289	-15.180	-113.761	-110.044	-107.880	-101.757	-104.319	-105.098	-8191	255	
2227.563	1	1	0	0	0.18324	0.10108	0.17227	0.29973	0.10212	0.23496	0.29597	0.13513	0.15856	0.071641	0.061358	0.17466	0.16761	0.055391	0.094132	0.29704	-2.9646	-3.1271	-3.4562	-3.2417	-3.2271	-3.3604	-3.3333	-3.5625	-3.4958	-3.3292	-3.5896	-3.425	-3.25	-3.6146	-3.2792	-3.3979	-121.891	97.207	111.528	159.853	-3.750	-99.287	205.309	209.048	67.057	79.682	127.088	-69.941	197.305	17.777	212.999	182.993	0.0003576	0.0011119	5.1298e-05	785.25	5.1889e-06	4.0109e-06	667.66	206.05	4.6682e-06	3.1459e-06	196.83	61.011	64.507	23.354	6.5299e-06	27.635	0.0074299	0.0086851	0.0024384	885.01	9.3435e-05	9.6089e-05	754.08	234.2	9.2594e-05	9.6396e-05	253.06	78.817	82.602	29.287	9.377e-05	35.918	187.701	18.731	127.259	-116.034	-35.986	62.106	-117.120	-111.547	72.319	108.171	-113.619	-110.009	-107.684	-101.758	25.585	-105.329	-8191	255	
2227.659	1	1	0	0	0.082782	0.10412	0.11575	0.063879	0.13386	0.076642	0.22315	0.14419	0.12233	0.025316	0.13906	0.10372	0.12499	0.28336	0.073037	0.35428	-3.1271	-3.2083	-3.2	-3.4354	-3.1021	-3.5333	-3.3833	-3.2792	-3.4479	-3.2875	-3.4792	-3.4229	-3.2125	-3.5187	-3.2	-3.2208	-114.039	-15.751	-16.870	206.566	224.545	229.496	177.239	216.574	112.891	72.312	177.983	160.294	-73.501	155.809	89.064	130.598	0.00034039	0.00042869	0.00017623	786.78	3.9647e-06	1.1811e-05	666.43	206.05	4.3246e-06	6.8259e-06	198.48	61.467	64.526	23.624	5.2548e-06	27.686	0.0074175	0.0086868	0.0024485	885.71	9.3327e-05	9.6751e-05	755.09	234.75	9.3017e-05	9.6484e-05	253.96	79.331	82.848	29.444	9.4265e-05	36.208	154.111	-14.889	63.535	-115.809	-7.017	-54.911	-117.170	-111.434	105.718	146.235	-113.449	-110.274	-107.566	-101.602	140.722	-104.291	-8191	255	
2227.780	1	1	0	0	0.081474	0.12818	0.17047	0.12156	0.25195	0.040114	0.2019	0.17653	0.087442	0.24883	0.12484	0.179	0.067277	0.21098	0.2012	0.1591	-3.1667	-3.1875	-3.3083	-3.3438	-3.3625	-3.5271	-3.3563	-3.3563	-3.6229	-3.4146	-3.45	-3.4667	-3.2062	-3.5625	-3.4229	-3.1708	-114.179	153.129	196.743	161.975	-114.330	-0.935	160.943	159.964	-101.193	157.292	5.506	162.223	28.447	166.462	-10.346	-104.454	0.00012032	0.00088901	0.0001265	789.55	1.9811e-05	9.805e-06	669.58	206.08	5.246e-06	2.4308e-06	197.3	61.279	64.335	23.477	7.2338e-06	27.315	0.0074658	0.0086998	0.0024505	889.05	9.4348e-05	9.7018e-05	757.57	234.26	9.3176e-05	9.6748e-05	253.11	78.839	82.57	29.353	9.3791e-05	35.913	138.996	197.481	-120.522	-115.678	-111.633	225.431	-117.268	-111.295	36.436	206.909	-113.812	-109.953	-107.570	-101.498	114.613	-104.887	-8191	255	
2227.876	1	1	0	0	0.14289	0.16399	0.079701	0.16933	0.17062	0.10946	0.22293	0.041552	0.12991	0.16352	0.092982	0.0030467	0.34642	0.011363	0.21666	0.16242	-3.0458	-3.1813	-3.3042	-3.5521	-3.2562	-3.3333	-3.3979	-3.2792	-3.5438	-3.2188	-3.5771	-3.4583	-3.3125	-3.5771	-3.2479	-3.2792	-128.577	-23.823	67.583	76.985	177.130	121.337	-95.100	-94.701	-77.527	-104.227	97.541	-29.377	216.077	75.583	-122.494	111.914	0.00021493	0.0009606	0.00019859	781.38	2.1011e-06	4.1698e-06	666.62	205.25	8.9767e-06	2.3252e-05	195.7	60.912	64.377	23.443	4.5618e-06	27.381	0.0074325	0.0087111	0.0024508	884.78	9.3849e-05	9.7385e-05	753.93	233.4	9.3125e-05	9.723e-05	252.36	78.745	82.509	29.358	9.4536e-05	35.917	118.232	-9.744	-12.197	-115.910	-22.349	218.661	-117.266	-111.399	37.130	37.711	-113.646	-109.908	-107.420	-101.747	-79.906	-104.860	-8191	255	
2227.972	1	1	0	0	0.14459	0.15913	0.091799	0.27201	0.089535	0.15486	0.12383	0.1608	0.028768	0.095016	0.2158	0.091803	0.27391	0.1163	0.042512	0.18346	-3.15	-3.0938	-3.3854	-3.5187	-3.1833	-3.4667	-3.5292	-3.1875	-3.4583	-3.3563	-3.3292	-3.4437	-3.1604	-3.5146	-3.3021	-3.1188	-34.397	14.935	79.935	196.313	184.193	62.831	-47.155	229.093	-16.411	-3.341	141.435	0.445	43.325	-86.362	195.978	156.278	0.00021141	0.00046798	0.00026427	787.12	7.0749e-06	1.0005e-05	669.62	205.44	1.2275e-05	1.2862e-05	198.3	60.933	64.411	23.421	7.1773e-06	27.525	0.0074753	0.0087294	0.002462	887.13	9.4368e-05	9.7907e-05	756.33	235.14	9.386e-05	9.7633e-05	254.63	79.34	83.09	29.476	9.5321e-05	36.153	151.733	-33.855	193.947	-116.015	121.737	180.533	-116.850	-111.570	17.894	-57.772	-113.795	-109.912	-107.999	-101.683	87.954	-104.850	-8191	255	
2228.044	1	1	0	0	0.089188	0.02977	0.20327	0.25246	0.16617	0.13937	0.053436	0.19876	0.083925	0.091996	0.1054	0.16005	0.38117	0.29082	0.1391	0.11245	-3.0563	-3.4417	-3.3083	-3.3979	-3.2729	-3.4667	-3.5604	-3.1188	-3.3542	-3.2542	-3.1271	-3.6417	-3.2854	-3.3583	-3.3312	-3.2229	-126.980	208.188	-26.242	196.945	-10.801	182.029	139.227	214.276	-123.724	94.140	216.612	128.195	208.827	173.153	-28.242	-39.471	0.0003148	0.0013312	0.00036998	790.91	1.0915e-05	1.0187e-05	669.35	206.41	6.303e-06	2.5668e-06	199.41	61.784	64.648	23.627	8.8938e-06	27.317	0.0075427	0.0088068	0.0024797	890.82	9.4994e-05	9.7953e-05	759.78	235.63	9.3826e-05	9.7554e-05	255.84	79.575	83.054	29.517	9.4256e-05	36.028	153.530	-62.054	-26.979	-116.017	189.566	164.413	-117.345	-111.427	2.664	193.460	-113.424	-109.740	-108.035	-101.958	-48.507	-104.993	-8191	255	
2228.163	1	1	0	0	0.099514	0.06274	0.059157	0.13998	0.21194	0.050634	0.24228	0.13202	0.099594	0.25043	0.18231	0.12103	0.27408	0.27271	0.18428	0.10738	-3.0375	-3.3792	-3.1437	-3.4833	-3.0625	-3.4042	-3.4229	-3.2687	-3.5583	-3.2896	-3.2313	-3.4313	-3.2167	-3.2938	-3.5479	-3.2687	-121.879	143.608	37.118	-30.415	-84.369	230.102	-111.796	79.210	-29.645	112.785	-16.257	129.701	-119.147	223.721	160.241	-71.984	0.00024423	0.00078041	9.7292e-05	785.63	4.3114e-06	6.4852e-06	666.61	205.41	1.7679e-05	7.1165e-06	197.12	60.884	64.21	23.392	7.7145e-06	27.429	0.0074834	0.0087117	0.0024489	884.81	9.3111e-05	9.6432e-05	753.7	233.96	9.3437e-05	9.725e-05	252.72	78.379	82.414	29.268	9.4191e-05	35.892	214.074	34.042	19.670	-115.997	206.813	175.408	-116.972	-111.739	-33.019	104.289	-114.133	-110.177	-107.716	-102.084	67.965	-104.833	-8191	255	
2228.259	1	1	0	0	0.17812	0.20191	0.21468	0.259	0.055814	0.26829	0.25715	0.12013	0.12724	0.14845	0.10745	0.23005	0.23995	0.26134	0.13239	0.10056	-3.0271	-3.2333	-3.1708	-3.5667	-3.1521	-3.1813	-3.4271	-3.4271	-3.5042	-3.15	-3.2021	-3.3979	-3.25	-3.475	-3.5354	-3.1917	13.561	15.883	29.097	-113.076	-115.914	229.453	55.353	195.440	-109.374	85.254	143.349	144.070	-97.864	-43.021	-75.134	-122.999	0.00034753	0.00045112	0.00030229	786.39	7.5878e-06	7.542e-06	666.24	205.56	9.2371e-06	9.3305e-06	198.59	60.969	64.284	23.417	7.8709e-06	27.713	0.0074318	0.0087076	0.0024392	882.54	9.3156e-05	9.6258e-05	753.03	233.34	9.2192e-05	9.6142e-05	252.85	78.694	82.424	29.327	9.3216e-05	35.96	213.396	-23.262	-20.280	-115.933	194.557	-38.831	-116.774	-111.750	-33.522	0.536	-113.423	-109.962	-107.980	-101.637	96.611	-104.696	-8191	255	
2228.355	1	1	0	0	0.14462	0.12745	0.012303	0.11855	0.16746	0.16976	0.2376	0.15485	0.076693	0.088673	0.21515	0.14798	0.26945	0.18707	0.25142	0.12635	-2.8187	-3.4104	-2.9271	-3.575	-3.3042	-3.2438	-3.4479	-3.1312	-3.3417	-3.3979	-3.1562	-3.4833	-3.2125	-3.3125	-3.3708	-3.2729	119.335	45.233	25.270	140.516	58.813	148.185	158.779	78.178	2.152	139.473	166.122	-85.363	-120.529	33.512	161.462	136.708	0.00036671	0.00069987	0.0002281	784.02	9.2801e-06	4.6458e-06	665.62	205.73	5.0528e-06	8.9646e-06	197.59	61.333	63.874	23.485	1.0665e-05	28.127	0.0073693	0.0086041	0.0024145	881.95	9.2632e-05	9.5331e-05	753.22	233.14	9.1475e-05	9.5136e-05	252.78	78.901	82.114	29.365	9.2931e-05	36.201	174.988	73.446	51.785	-116.063	-116.160	-47.277	-116.655	-111.734	5.544	-10.874	-113.554	-109.345	-107.756	-101.383	140.332	-104.855	-8191	255	
2228.476	1	1	0	0	0.079381	0.21192	0.048758	0.26142	0.22628	0.015587	0.33462	0.26233	0.12164	0.12645	0.24371	0.05717	0.22435	0.10943	0.077426	0.19683	-3.0687	-3.3208	-3.0354	-3.4292	-3.3042	-3.1813	-3.6521	-3.2021	-3.2896	-3.5	-3.275	-3.2458	-3.4083	-3.1979	-3.5021	-3.4271	145.920	119.418	-102.047	206.593	131.252	-39.479	134.090	187.283	-51.084	56.157	200.672	102.671	164.446	-128.857	33.215	159.764	0.0002613	0.00092686	0.00014738	784.15	1.4753e-05	4.1725e-06	669.71	204.81	5.7767e-06	1.8105e-05	197.26	60.969	63.749	23.537	5.3393e-06	27.511	0.0072975	0.0085678	0.0024041	880.69	9.1779e-05	9.4946e-05	752.44	232.51	9.0568e-05	9.4096e-05	250.24	78.227	81.53	29.18	9.0894e-05	35.68	132.667	42.189	-59.238	-116.066	20.229	-64.904	-116.965	-111.428	168.540	15.628	-113.339	-109.657	-107.612	-101.690	188.354	-105.013	-8191	255	
2228.572	1	1	0	0	0.054448	0.16336	0.22188	0.09274	0.27118	0.21934	0.11012	0.056498	0.051362	0.068548	0.031691	0.13893	0.065487	0.099437	0.087178	0.097911	-3.0062	-3.3937	-3.1917	-3.2542	-3.3167	-3.2271	-3.6188	-3.3688	-3.2729	-3.4458	-3.0187	-3.4104	-3.2979	-3.1937	-3.3854	-3.4396	-126.405	-87.698	73.782	200.424	57.698	158.132	155.998	-114.295	146.369	88.332	166.608	-71.907	-89.744	53.846	158.930	153.928	0.00025045	0.0010073	0.00012679	778.37	8.6036e-06	2.8393e-06	663.51	204.61	8.6283e-06	6.905e-06	195.41	61.007	64.028	23.551	1.5451e-05	27.476	0.0072382	0.0084201	0.002364	875.06	9.0423e-05	9.3398e-05	747	231.53	8.9687e-05	9.3095e-05	249.61	77.792	81.375	29.087	8.9359e-05	35.504	188.925	-14.112	84.068	-116.218	113.734	-30.754	-116.762	-111.544	97.808	-57.910	-113.633	-109.584	-107.500	-101.942	14.771	-104.852	-8191	255	
2228.644	1	1	0	0	0.11077	0.054533	0.064404	0.19459	0.13207	0.10105	0.045873	0.23512	0.079915	0.20797	0.053151	0.26137	0.31721	0.18508	0.06823	0.16575	-2.6917	-3.5625	-3.1125	-3.3958	-3.2792	-3.3375	-3.7229	-3.6063	-3.3271	-3.5854	-3.2521	-3.3979	-3.4083	-3.0542	-3.3833	-3.3417	203.069	89.264	172.741	145.603	96.912	219.856	57.249	-120.453	-82.878	68.053	65.703	-117.872	173.917	-103.698	97.296	-8.929	0.00034212	0.00068477	0.00044089	778.66	4.3779e-06	1.5623e-05	665.79	203.8	9.3443e-06	4.4849e-06	196.81	60.568	63.959	23.409	9.1994e-06	27.566	0.007054	0.0082222	0.0023139	872.68	8.8127e-05	9.1277e-05	746.5	230.55	8.7723e-05	9.0913e-05	249.36	77.465	81.052	28.938	8.8662e-05	35.4	172.851	-25.206	1.218	-115.742	137.613	33.153	-117.162	-112.030	-39.893	-28.056	-112.946	-109.859	-107.763	-102.199	60.506	-105.319	-8191	255	
2228.764	1	1	0	0	0.14406	0.050676	0.23014	0.13923	0.22304	0.14189	0.079507	0.26423	0.26057	0.14231	0.14052	0.25505	0.16855	0.28305	0.077293	0.33402	-2.9333	-3.5021	-3.2479	-3.4188	-3.4458	-3.1063	-3.4979	-3.5187	-2.975	-3.6604	-3.3688	-3.2542	-3.5563	-3.25	-3.3146	-3.3875	51.335	58.199	51.599	229.367	161.846	-47.020	113.991	172.046	144.850	217.660	41.309	204.575	226.752	-119.566	153.851	130.197	1.9811e-05	0.00071053	0.00036963	778.87	6.5675e-06	4.4758e-06	668.28	204.3	5.4031e-06	9.8716e-06	196.14	61.185	63.215	23.284	1.5532e-05	27.319	0.0069791	0.0081765	0.002284	870.62	8.7479e-05	9.0709e-05	745.3	229.68	8.6385e-05	9.0263e-05	247.11	77.102	80.446	28.718	8.731e-05	34.909	225.053	62.383	25.122	-116.331	-46.317	-42.791	-117.403	-111.572	226.839	42.946	-113.347	-110.209	-107.708	-101.526	22.076	-104.866	-8191	255	
2228.860	1	1	0	0	0.20574	0.27534	0.057181	0.35852	0.07195	0.2727	0.13309	0.30039	0.24969	0.11395	0.042403	0.087311	0.047422	0.11253	0.20263	0.17806	-2.6271	-3.3187	-3.3917	-3.2396	-3.4625	-3.1917	-3.4521	-3.4979	-3.1854	-3.5167	-3.3333	-3.1312	-3.4021	-3.0583	-3.5062	-3.3729	-8.607	-65.228	133.217	-90.399	-120.927	147.022	84.151	164.794	80.820	17.265	-75.070	-121.861	-15.023	176.010	-27.685	99.111	5.2508e-05	0.00056944	0.00013434	775.28	3.8138e-06	8.7762e-06	661.57	201.57	8.4559e-06	5.8814e-06	192.22	59.593	62.914	23.053	9.7289e-06	26.983	0.0068636	0.0080323	0.0022519	866.08	8.5487e-05	8.854e-05	738.58	227.61	8.4556e-05	8.8057e-05	243.63	75.845	79.429	28.409	8.5667e-05	34.581	176.876	-47.915	-111.508	-115.958	128.685	227.439	-117.318	-111.667	-96.697	-105.392	-113.755	-109.821	-107.161	-101.760	-80.505	-104.643	-8191	255	
2228.956	1	1	0	0	0.053774	0.17927	0.097116	0.26946	0.047074	0.19925	0.19013	0.14195	0.14166	0.10768	0.18248	0.28105	0.12406	0.1834	0.12493	0.063379	-2.8875	-3.4854	-3.0583	-3.1479	-3.4646	-3.2	-3.5229	-3.4	-3.1854	-3.2583	-3.3229	-3.1354	-3.4417	-3.2687	-3.4125	-3.4667	52.961	12.207	-40.077	197.540	-108.505	-60.921	55.450	115.744	-97.214	-60.120	-123.050	203.826	-128.193	71.178	130.007	185.131	0.00022343	0.0015149	0.00023512	771.62	1.5147e-05	1.2153e-05	660.29	202.13	1.062e-05	1.1089e-05	193.67	59.941	62.763	23.128	1.1991e-05	26.981	0.00675	0.0078744	0.0022115	860.09	8.4431e-05	8.6906e-05	734.41	226.98	8.2915e-05	8.6185e-05	242.8	75.562	79.083	28.221	8.3371e-05	34.348	157.990	-17.365	-88.749	-115.867	27.084	12.832	-116.936	-111.399	-49.772	54.613	-113.320	-109.781	-107.886	-102.085	-37.715	-104.652	-8191	255	
2229.075	1	1	0	0	0.22061	0.23754	0.26483	0.29968	0.21596	0.030123	0.065925	0.25459	0.1314	0.32448	0.1944	0.22346	0.15474	0.4006	0.1968	0.1437	-2.9146	-3.35	-3.3396	-3.3146	-3.6063	-3.4896	-3.5125	-3.5833	-3.1854	-3.6188	-3.3354	-3.2896	-3.5375	-3.3792	-3.2771	-3.4875	212.172	211.068	49.154	182.255	188.863	95.940	165.639	122.433	204.426	134.894	207.690	166.601	-47.932	132.688	164.351	176.694	0.00021656	0.00023367	0.00015481	777.78	7.3006e-06	6.6274e-06	661.83	202.29	5.1129e-06	5.8589e-06	194.35	61.171	63.431	23.298	1.0415e-05	27.425	0.0065209	0.0076558	0.0021533	859.22	8.1923e-05	8.4008e-05	733.64	226.24	8.0147e-05	8.3054e-05	242.36	75.799	78.752	28.205	8.016e-05	34.424	189.188	-31.794	-125.381	-115.853	-55.113	102.631	-117.193	-111.423	3.609	-13.713	-113.400	-110.106	-107.861	-102.246	4.283	-104.792	-8191	255	
2229.172	1	1	0	0	0.13223	0.094449	0.12866	0.17361	0.15101	0.14051	0.16436	0.08553	0.21746	0.21854	0.17918	0.075261	0.098351	0.085411	0.21219	0.1715	-2.8625	-3.3083	-3.3937	-3.2208	-3.2375	-3.2896	-3.2521	-3.7125	-3.3438	-3.4	-3.5354	-3.2333	-3.3854	-3.3979	-3.0979	-3.5187	100.811	111.167	44.519	175.398	-5.275	-87.050	-125.781	153.006	-37.547	182.810	160.588	-83.066	184.012	-43.424	7.566	36.461	0.00027147	0.001468	0.00013283	776.08	3.9578e-06	1.046e-05	659.71	201.87	3.3889e-06	2.1607e-05	193.46	59.915	62.894	23.281	9.4266e-06	27.125	0.0063071	0.007369	0.0020771	854.63	7.8956e-05	8.1299e-05	729.48	224.94	7.81e-05	8.0672e-05	239.8	74.653	78.04	27.913	7.7784e-05	33.914	186.128	-43.159	-71.117	-116.071	188.654	26.221	-117.090	-111.408	18.294	-2.820	-113.307	-109.346	-107.919	-101.969	-60.419	-104.988	-8191	255	
2229.268	1	1	0	0	0.12028	0.12967	0.15142	0.19496	0.15704	0.21347	0.33522	0.24801	0.12749	0.04789	0.11853	0.056551	0.11989	0.088578	0.11476	0.26554	-2.7896	-3.3625	-3.4625	-3.2062	-3.3979	-3.4	-3.2438	-3.6937	-3.3312	-3.4167	-3.4125	-3.0875	-3.4208	-3.4625	-3.125	-3.6625	-124.003	219.029	204.834	80.448	122.915	102.341	184.099	110.041	86.501	54.057	136.547	-53.126	-61.675	12.399	92.029	76.941	0.00022444	0.0005771	0.00035675	775.26	3.5812e-06	2.2782e-06	657.2	202.47	6.7412e-06	5.1113e-06	194.01	60.399	63.426	23.2	1.0514e-05	27.235	0.0061558	0.0071565	0.0019995	848.7	7.5848e-05	7.8461e-05	725.64	224.23	7.5402e-05	7.8418e-05	238.4	74.408	77.765	27.894	7.5928e-05	33.846	174.656	-104.947	-10.623	-116.115	-36.028	143.161	-117.198	-111.802	57.848	76.567	-113.757	-110.104	-107.327	-101.731	84.973	-105.047	-8191	255	
2229.339	1	1	0	0	0.046491	0.16221	0.026332	0.057163	0.24605	0.03917	0.18899	0.29137	0.21698	0.039389	0.059674	0.30338	0.028645	0.18703	0.2261	0.10855	-2.7417	-3.2479	-3.6125	-3.2167	-3.55	-3.3521	-3.3479	-3.4208	-3.1833	-3.2354	-3.4958	-3.2208	-3.3354	-3.4562	-3.2167	-3.575	-76.971	48.963	51.662	-82.943	38.154	86.872	156.190	143.238	54.841	94.177	67.123	29.255	31.681	-3.307	124.135	-58.345	0.00041718	0.00020194	4.196e-05	774.37	6.5947e-06	9.379e-06	661.13	202.49	5.7392e-06	8.8563e-06	197.02	60.747	63.732	23.544	2.5623e-06	27.666	0.0059909	0.0069701	0.001955	848.64	7.4818e-05	7.7056e-05	726.69	224.14	7.4421e-05	7.7538e-05	239.4	74.873	77.99	27.994	7.512e-05	34.097	170.183	-83.741	89.866	-115.985	90.254	78.547	-117.010	-111.450	-56.447	104.822	-113.464	-109.824	-107.869	-101.514	104.288	-104.816	-8191	255	
2229.460	1	1	0	0	0.20102	0.009294	0.22608	0.019724	0.22232	0.31945	0.059106	0.36361	0.18275	0.1246	0.048612	0.16292	0.20088	0.021467	0.089636	0.057461	-2.8792	-3.2146	-3.5354	-3.4375	-3.3438	-3.6229	-3.3396	-3.6104	-3.2833	-3.2313	-3.6458	-3.225	-3.3833	-3.4646	-3.0458	-3.4521	23.978	210.375	180.764	61.724	27.357	104.076	-26.103	185.533	120.598	-21.992	169.896	-123.553	91.936	57.996	167.633	108.114	0.00030403	0.0010119	0.00016739	774.9	1.0482e-05	1.5248e-05	663.28	202.99	1.7457e-06	1.0585e-05	194.62	61.12	63.648	23.361	7.8565e-06	27.508	0.0059226	0.0068892	0.0019333	846.64	7.386e-05	7.5959e-05	727.29	223.45	7.2879e-05	7.6178e-05	236.79	74.528	77.345	27.866	7.3406e-05	33.873	205.001	123.041	224.783	-115.788	21.583	75.513	-116.869	-111.511	58.858	-29.556	-113.446	-110.302	-107.384	-101.968	-56.148	-104.893	-8191	255	
2229.556	1	1	0	0	0.14866	0.086073	0.079033	0.092502	0.12367	0.036631	0.20957	0.065338	0.10915	0.28967	0.14429	0.17444	0.22401	0.09634	0.093877	0.27557	-2.9542	-3.2167	-3.4104	-3.2083	-3.3083	-3.5896	-3.2208	-3.5479	-3.4958	-3.1792	-3.5417	-3.2854	-2.9896	-3.6729	-3.175	-3.3708	170.080	163.495	205.928	-3.992	-79.050	166.558	208.813	14.068	34.478	203.005	164.981	-35.525	216.698	63.018	135.717	138.610	1.5339e-05	0.00054144	0.00028476	767.21	6.5251e-06	3.6262e-06	659.05	200.84	5.5727e-06	1.0441e-05	194.42	60.966	63.399	23.162	9.5359e-06	27.509	0.0057787	0.0067339	0.0018859	840.9	7.2515e-05	7.4684e-05	721.75	222.2	7.1685e-05	7.4613e-05	235.94	74.009	77.091	27.719	7.2075e-05	33.824	83.742	146.899	-31.644	-115.900	16.367	86.489	-117.209	-111.626	-66.899	-20.553	-113.356	-109.503	-107.552	-102.097	134.560	-104.875	-8191	255	
2229.652	1	1	0	0	0.16622	0.17636	0.30504	0.30354	0.14835	0.25636	0.23483	0.12312	0.15806	0.19883	0.24881	0.22227	0.29044	0.11567	0.065786	0.24857	-2.9521	-3.1479	-3.3063	-3.2896	-3.2208	-3.5917	-3.2083	-3.4583	-3.5083	-3.0708	-3.3979	-3.3583	-3.1604	-3.5312	-3.2646	-3.425	-70.355	133.572	141.497	64.402	119.187	13.936	198.023	144.240	-119.166	102.285	223.073	135.998	139.255	124.941	22.665	-69.972	0.0001674	0.00079155	0.00038774	769.51	4.1295e-06	2.7366e-05	666.73	202.31	8.1752e-06	1.1233e-05	195.11	61.131	64.274	23.505	8.3632e-06	27.787	0.0056927	0.0065952	0.0018585	841.61	7.1549e-05	7.3529e-05	725	222.52	7.032e-05	7.3182e-05	236.65	74.029	77.276	27.831	7.1408e-05	33.934	173.211	-55.974	31.417	-116.262	-25.783	43.060	-117.261	-111.656	106.011	-13.849	-113.618	-109.750	-107.939	-101.551	-83.139	-104.747	-8191	255	
2229.748	1	1	0	0	0.12986	0.19694	0.12843	0.2131	0.17043	0.078548	0.11931	0.030565	0.23614	0.041971	0.19797	0.066292	0.09928	0.26124	0.28579	0.10996	-3.1958	-3.1146	-3.375	-3.325	-3.3	-3.6542	-3.2771	-3.4792	-3.575	-3.0708	-3.6771	-3.4	-3.4083	-3.5083	-3.2396	-3.4562	-14.514	-115.289	-67.301	-121.725	129.508	-113.744	-94.990	129.917	154.359	187.186	167.493	40.347	166.722	162.649	-129.103	221.356	0.00047788	0.00070438	0.0001885	767.69	1.9684e-06	1.1247e-05	665.5	202.38	2.6945e-06	3.1262e-06	195.22	61.671	63.64	23.784	4.1667e-06	27.965	0.0056694	0.0065959	0.001865	843.01	7.0868e-05	7.3095e-05	724.42	222.8	6.9949e-05	7.2374e-05	235.98	74.25	76.964	27.893	7.0371e-05	34.008	146.923	183.960	14.444	-116.184	-38.690	-53.532	-116.875	-111.513	171.988	110.525	-113.462	-109.925	-107.637	-101.548	-59.432	-105.076	-8191	255	
2229.867	1	1	0	0	0.043951	0.33083	0.29034	0.12836	0.31501	0.18158	0.17391	0.13655	0.16501	0.015492	0.029243	0.18652	0.11046	0.27681	0.039075	0.28842	-2.9896	-3.2667	-3.6	-3.4104	-3.1	-3.425	-3.3312	-3.5062	-3.4521	-3.2687	-3.3646	-3.2542	-3.1542	-3.5708	-3.1333	-3.2792	122.637	16.722	29.247	-100.463	-106.833	182.909	12.078	214.619	26.292	-80.927	-115.976	31.378	-125.628	-67.142	207.145	227.297	0.00029151	0.0015375	0.00029693	771.8	8.6607e-06	9.3411e-06	661.11	202.19	7.7902e-06	7.5826e-06	195.12	60.841	63.559	23.418	1.4979e-05	27.41	0.0055503	0.0064797	0.0018213	839.65	6.9424e-05	7.1821e-05	720.81	220.7	6.8691e-05	7.0865e-05	234.07	73.396	76.277	27.599	6.9083e-05	33.49	187.058	-38.375	-5.299	-115.949	90.367	-96.817	-117.302	-111.582	1.995	15.137	-113.748	-110.435	-107.875	-101.681	15.505	-104.953	-8191	255	
2229.941	1	1	0	0	0.16103	0.13527	0.21383	0.22956	0.1236	0.18075	0.11603	0.31427	0.045549	0.22643	0.10602	0.018129	0.13405	0.38143	0.31805	0.086165	-2.9771	-3.2812	-3.325	-3.3646	-2.9979	-3.6312	-3.3896	-3.3917	-3.5312	-3.3271	-3.4208	-3.45	-3.225	-3.3208	-3.3042	-3.2583	30.117	117.119	189.803	167.957	147.145	178.275	138.692	-74.497	206.727	-77.625	103.944	208.528	194.097	182.962	202.791	159.942	0.00034082	0.00084414	0.00021696	769.9	2.7167e-06	1.539e-05	660.32	201.26	4.402e-06	1.5625e-05	195.63	60.813	63.529	23.431	1.0916e-05	27.506	0.0054787	0.0064087	0.0018006	838.7	6.8961e-05	7.1623e-05	718.29	221.4	6.8524e-05	7.2073e-05	235.17	73.693	76.765	27.703	6.9914e-05	33.665	170.322	-92.757	-68.629	-115.729	-100.521	220.788	-117.150	-111.316	-82.864	27.262	-113.535	-109.489	-107.804	-101.980	15.750	-104.222	-8191	255	
2230.037	1	1	0	0	0.12563	0.15349	0.21142	0.06456	0.038468	0.24607	0.31231	0.23663	0.090447	0.13793	0.15644	0.14219	0.17711	0.071559	0.21377	0.11961	-3.15	-3.1396	-3.3125	-3.4	-3.2333	-3.3958	-3.5125	-3.3292	-3.6083	-3.3375	-3.2083	-3.4562	-3.2938	-3.4646	-3.3167	-3.0646	-44.372	213.656	88.180	-125.847	-102.252	10.295	179.652	222.068	-105.647	165.021	137.383	126.922	-79.612	170.291	22.617	-9.283	0.00032297	0.00074184	0.00038863	769.86	5.8858e-06	1.7092e-05	665.42	202.38	7.2136e-06	1.7834e-05	195.77	60.981	63.616	23.599	1.0346e-05	27.721	0.0055998	0.0064809	0.0018304	841.04	7.0475e-05	7.3328e-05	725.11	222.8	7.0902e-05	7.3708e-05	237.83	74.717	77.463	28.019	7.2788e-05	34.147	156.453	24.838	17.237	-116.013	32.020	44.311	-117.200	-111.480	171.406	-103.399	-113.191	-109.879	-107.862	-101.672	18.099	-105.091	-8191	255	
2230.156	1	1	0	0	0.10951	0.2892	0.1793	0.20766	0.18914	0.16687	0.13639	0.3004	0.18041	0.09855	0.12933	0.20867	0.19482	0.13883	0.17806	0.22389	-3.175	-3.1437	-3.05	-3.625	-3.2583	-3.3479	-3.4854	-3.0625	-3.4833	-3.2729	-3.55	-3.5167	-3.325	-3.3875	-3.4021	-3.2396	187.119	146.733	-106.358	-116.258	158.396	-48.792	99.720	184.390	-32.206	-3.397	117.874	140.577	144.652	173.197	97.853	163.881	0.00014927	0.000308	9.0474e-05	770.15	6.7126e-06	1.4495e-05	661.66	201.51	1.1326e-06	1.3829e-05	195.36	60.191	63.478	23.347	8.0801e-06	27.559	0.0057539	0.006748	0.0018909	841.62	7.2775e-05	7.5206e-05	725.15	222.11	7.1809e-05	7.4866e-05	236.59	74.037	77.309	27.914	7.4157e-05	34.041	83.064	136.297	-116.119	-116.101	-106.264	-40.292	-117.079	-111.543	223.251	86.994	-113.640	-109.839	-107.733	-102.018	79.782	-104.773	-8191	255	
2230.252	1	1	0	0	0.14319	0.37703	0.14012	0.064887	0.22149	0.10037	0.25222	0.071735	0.098786	0.13982	0.11372	0.12418	0.22296	0.14996	0.30046	0.149	-3.0583	-3.2625	-3.1354	-3.6625	-3.3438	-3.4771	-3.475	-3.1375	-3.4292	-3.35	-3.225	-3.7042	-3.3625	-3.2479	-3.5958	-3.1708	14.837	-3.630	115.939	81.011	179.239	69.381	189.563	67.268	149.438	4.260	50.632	-105.642	-124.917	187.924	108.422	23.784	0.00022289	0.001522	0.0001867	761.58	1.0876e-05	7.3908e-06	654.64	198.97	6.018e-06	8.3716e-06	192.29	60.214	63.002	23.397	4.7094e-06	27.219	0.0059177	0.0069695	0.001958	838.78	7.5364e-05	7.8728e-05	722.24	221.17	7.6054e-05	7.952e-05	237.35	74.627	77.455	28.166	7.923e-05	34.354	158.099	-93.916	-81.861	-115.954	-3.987	100.703	-117.486	-111.594	-21.382	58.410	-113.646	-109.662	-107.321	-101.903	2.485	-104.709	-8191	255	
2230.348	1	1	0	0	0.087751	0.25897	0.10885	0.11245	0.093869	0.22512	0.2007	0.12544	0.15106	0.1615	0.26157	0.096055	0.23537	0.15524	0.17773	0.023612	-3.0583	-3.2479	-3.0792	-3.575	-3.275	-3.4125	-3.4062	-3.1	-3.3292	-3.3958	-3.0938	-3.5687	-3.2854	-3.1521	-3.4375	-3.325	56.311	-87.046	88.657	92.719	18.292	107.514	134.265	165.103	1.342	52.865	139.912	80.064	172.266	-120.235	66.037	228.700	0.00015214	0.0010683	0.00017619	762.89	5.202e-06	1.5084e-05	654.4	197.84	5.7333e-06	1.0013e-05	192.14	60.2	62.063	23.343	6.9002e-06	27.424	0.006286	0.007406	0.0020894	843.8	8.0018e-05	8.2901e-05	725.64	221.65	8.0463e-05	8.4251e-05	240.12	75.556	78.23	28.515	8.4218e-05	35.001	181.762	-82.192	70.302	-116.011	4.460	82.217	-117.087	-111.416	-42.680	198.622	-113.613	-110.110	-107.346	-101.998	30.786	-105.161	-8191	255	
2230.444	1	1	0	0	0.038014	0.14606	0.074666	0.17662	0.081222	0.054324	0.14084	0.23782	0.11005	0.1777	0.21617	0.17941	0.15385	0.11708	0.086774	0.13862	-2.8	-3.4271	-3.0604	-3.4188	-3.325	-3.4042	-3.6125	-3.2646	-3.5062	-3.4875	-3.1813	-3.5104	-3.375	-3.1813	-3.575	-3.2854	220.068	-68.582	0.664	-83.175	-90.433	161.308	134.036	113.086	124.292	190.491	179.689	-54.223	216.821	-106.126	-21.962	-64.093	0.00029482	0.0008422	0.00012013	754.89	4.2403e-06	8.6731e-06	653.55	196.66	3.2053e-06	5.5912e-06	191.21	59.748	61.643	23.145	1.7452e-06	27.65	0.006688	0.0078012	0.0022158	848.01	8.5396e-05	8.8549e-05	732.41	222.74	8.5632e-05	8.9786e-05	242.7	76.519	78.707	28.835	8.9067e-05	35.562	163.190	136.395	212.324	-115.806	5.986	44.712	-117.246	-111.406	107.884	-8.247	-113.992	-109.771	-107.533	-101.967	-60.731	-104.902	-8191	255	
2230.540	1	1	0	0	0.17359	0.2138	0.27423	0.16426	0.053367	0.072705	0.038849	0.12828	0.19943	0.16793	0.12368	0.21412	0.23556	0.15774	0.14339	0.13254	-3.0187	-3.4083	-3.2146	-3.4583	-3.2646	-3.1875	-3.6771	-3.2062	-3.2625	-3.5583	-3.2854	-3.4708	-3.5812	-3.15	-3.3688	-3.2458	212.082	-74.740	-125.978	178.464	-120.285	193.693	-118.843	195.160	-51.724	56.377	160.318	-71.532	106.952	164.125	67.305	46.671	0.00017544	0.0011227	0.00014596	754.95	8.917e-06	5.874e-06	650.47	193.96	9.6169e-06	6.5587e-06	188.73	58.859	60.832	23.182	7.3004e-06	27.07	0.0070988	0.0083214	0.0023531	851.73	9.0567e-05	9.378e-05	734.63	222.4	9.0909e-05	9.5021e-05	243.67	76.407	79.139	28.977	9.4297e-05	35.856	174.465	59.110	-45.933	-116.232	208.160	184.045	-117.083	-111.499	13.949	191.271	-113.478	-110.172	-107.496	-102.156	172.306	-105.325	-8191	255	
2230.636	1	1	0	0	0.21633	0.25158	0.041166	0.1319	0.078541	0.11466	0.11554	0.10374	0.060717	0.072495	0.11882	0.18806	0.18199	0.24998	0.10467	0.060325	-2.9188	-3.5438	-3.0292	-3.4375	-3.3104	-3.1979	-3.5333	-3.2958	-3.2917	-3.5146	-3.175	-3.4333	-3.4271	-3.25	-3.4479	-3.3583	172.478	-5.466	148.614	166.484	-75.742	167.644	138.412	3.354	182.576	54.120	190.841	180.024	-66.528	181.875	224.633	88.114	0.00020409	0.00051411	0.0001315	756.12	2.0944e-06	7.0121e-06	645.04	195.06	1.2098e-05	1.0924e-05	188.92	59.398	61.301	23.182	7.4884e-06	27.709	0.0075489	0.0087981	0.0024915	858.33	9.5922e-05	9.9193e-05	736.47	224.53	9.6119e-05	9.9998e-05	246.74	77.571	80.074	29.318	9.7535e-05	36.392	-120.942	-79.151	-107.016	-116.097	-97.250	-103.007	-117.142	-111.357	-40.064	162.579	-113.992	-109.925	-107.193	-101.980	10.555	-105.384	-8191	255	
2230.757	1	1	0	0	0.17107	0.29438	0.17694	0.055093	0.1331	0.1745	0.12204	0.19596	0.13415	0.079738	0.047995	0.026241	0.088385	0.12085	0.1301	0.0059445	-2.8396	-3.5062	-3.1771	-3.2687	-3.4896	-3.2125	-3.6437	-3.4229	-3.2979	-3.4333	-3.1688	-3.4042	-3.3521	-3.2	-3.3854	-3.3167	216.423	62.819	199.939	39.729	32.968	39.966	138.790	80.758	49.853	50.632	-89.478	-48.466	2.742	222.931	135.416	192.196	0.00047178	0.00064515	0.00025123	752.99	1.0763e-06	7.0119e-06	648.3	194.12	5.0776e-06	1.6142e-05	189.74	58.712	61.227	23.286	6.1536e-06	27.761	0.0077471	0.0090315	0.0025446	862.03	9.8448e-05	0.00010161	742.45	225.16	9.8216e-05	0.00010262	248.87	78.2	80.552	29.584	0.00010015	36.818	179.621	226.302	64.882	-116.144	-44.828	17.557	-116.966	-111.583	-48.528	49.052	-113.721	-109.817	-107.345	-101.695	218.750	-104.488	-8191	255	
2230.853	1	1	0	0	0.072027	0.076102	0.17832	0.14621	0.33677	0.090203	0.2254	0.099524	0.0092056	0.059391	0.2166	0.052497	0.12132	0.34096	0.18732	0.19187	-2.6479	-3.4896	-3.1333	-3.4083	-3.5292	-3.175	-3.5333	-3.3917	-2.9604	-3.7125	-3.2646	-3.1896	-3.5979	-3.375	-3.4396	-3.2375	39.112	216.760	8.510	184.823	0.809	37.867	215.965	169.685	162.514	-56.440	163.060	146.588	124.929	-116.964	-30.473	159.837	0.00044911	0.00078104	0.00010014	754.19	5.7846e-06	1.5768e-05	647.36	194.03	9.9578e-07	5.6471e-06	187.02	58.023	60.964	23.199	1.4724e-05	27.745	0.0079286	0.0092614	0.0026159	862.67	9.9829e-05	0.00010431	743.35	224.97	0.00010012	0.00010449	248.2	77.782	80.593	29.591	0.00010194	36.645	180.260	-4.816	77.390	-115.876	194.350	46.977	-117.150	-111.591	-48.508	-80.858	-113.615	-109.791	-106.844	-102.044	-62.240	-104.963	-8191	255	
2230.949	1	1	0	0	0.17525	0.085858	0.10295	0.13485	0.064852	0.2928	0.090006	0.33614	0.13468	0.1444	0.075116	0.21008	0.31588	0.17625	0.084279	0.14496	-2.7854	-3.6625	-3.3396	-3.3958	-3.525	-3.2396	-3.5104	-3.5208	-3.2771	-3.6542	-3.3979	-3.1229	-3.5167	-3.275	-3.525	-3.5125	64.922	57.815	-17.126	-77.585	229.448	20.650	4.383	-102.393	133.338	141.871	-122.285	80.192	203.595	214.600	90.433	-116.567	0.00042978	0.00083758	0.000204	748.1	1.9252e-06	8.2953e-06	644.77	191.44	3.1957e-06	6.281e-06	185.12	58.061	60.238	23.123	7.631e-06	27.685	0.0080492	0.0094229	0.002642	858.06	0.00010084	0.00010489	739.88	223	0.00010053	0.00010469	247.11	77.836	80.321	29.595	0.00010256	36.823	189.325	169.381	-55.585	-115.848	-116.355	105.507	-117.015	-111.645	184.266	130.489	-113.490	-110.178	-107.921	-101.773	13.082	-104.983	-8191	255	
2231.044	1	1	0	0	0.2029	0.13881	0.31965	0.29844	0.12515	0.16626	0.12976	0.19286	0.043335	0.080272	0.097385	0.18529	0.12763	0.044838	0.25229	0.020574	-2.7021	-3.3563	-3.2583	-3.2208	-3.5792	-3.0833	-3.5125	-3.7	-3.3396	-3.4458	-3.3729	-3.2667	-3.5542	-3.4521	-3.3625	-3.3937	-52.387	-60.665	55.276	150.829	224.154	-10.839	-101.585	-81.013	73.174	58.166	89.917	-26.614	223.207	20.350	230.601	-16.357	0.00022827	0.0010552	0.00034205	750.23	8.786e-06	1.6245e-05	648.17	191.25	8.7315e-06	1.6826e-05	186.19	58.729	59.971	23.261	1.5305e-05	27.65	0.0081033	0.0094492	0.0026632	861.09	0.00010163	0.00010543	741.49	223.39	0.00010146	0.00010574	248.14	78.191	80.229	29.736	0.00010302	37.095	217.916	53.832	-58.967	-116.498	-74.850	161.492	-117.130	-111.397	188.639	74.274	-113.570	-109.545	-107.468	-102.099	102.931	-105.150	-8191	255	
2231.164	1	1	0	0	0.21586	0.14353	0.22748	0.1512	0.23361	0.2007	0.068781	0.099726	0.38459	0.32296	0.18688	0.12717	0.44897	0.10661	0.093948	0.2092	-2.8292	-3.4625	-3.4062	-3.3396	-3.4896	-3.4437	-3.3604	-3.6562	-3.1833	-3.3917	-3.5958	-3.1813	-3.4313	-3.3167	-3.4271	-3.4688	46.074	57.626	-3.952	62.137	154.181	163.197	158.170	37.104	-80.830	66.620	63.255	227.184	192.526	223.356	-4.679	56.522	0.00021805	0.00063348	0.00051998	747.7	1.6697e-05	7.3051e-06	647.37	190.57	9.1176e-06	1.0666e-05	188.02	58.028	59.563	23.213	6.2994e-06	28.058	0.0081524	0.0094976	0.0026733	860.35	0.00010267	0.00010586	741.29	222.71	0.00010124	0.00010553	247.21	77.605	79.559	29.719	0.00010166	37.194	151.724	67.446	-75.752	-115.848	40.978	-66.635	-117.190	-111.857	-66.161	-55.434	-113.320	-110.180	-107.244	-101.805	14.606	-104.980	-8191	255	
2231.236	1	1	0	0	0.08945	0.23532	0.27508	0.13479	0.088658	0.14742	0.26476	0.075929	0.17178	0.1902	0.073598	0.17015	0.20808	0.10532	0.12807	0.12464	-2.7771	-3.2938	-3.3646	-3.2271	-3.5229	-3.225	-3.1708	-3.4271	-3.3	-3.4938	-3.4708	-3.0479	-3.5604	-3.4062	-3.0771	-3.6208	160.513	84.876	223.885	46.568	101.801	46.912	114.034	164.730	0.062	101.381	177.045	-106.228	155.098	-96.725	-74.248	-8.393	0.00033335	0.0010642	0.00020145	739.7	5.6103e-06	2.2763e-05	638.18	188.96	1.3403e-06	8.8382e-06	182.43	57.444	58.889	23.211	1.6459e-05	28.074	0.0080482	0.0093945	0.0026555	851.76	0.0001012	0.00010421	734.35	220.1	0.00010042	0.00010464	244.74	76.814	79.132	29.661	0.00010202	37.255	167.293	-62.781	-45.318	-116.140	25.314	50.170	-117.325	-111.382	178.415	83.009	-113.610	-109.606	-107.344	-101.927	221.551	-105.156	-8191	255	
2231.332	1	1	0	0	0.09705	0.047724	0.085829	0.051777	0.18451	0.11211	0.19585	0.26755	0.217	0.34177	0.21584	0.091316	0.083225	0.27044	0.14167	0.22026	-2.7208	-3.2167	-3.4562	-3.1667	-3.3937	-3.45	-3.1958	-3.45	-3.2292	-3.4292	-3.55	-3.2083	-3.6479	-3.3729	-3.225	-3.6375	50.659	157.658	149.123	210.702	-65.471	112.409	123.026	110.078	116.922	209.008	181.523	0.970	44.449	149.252	79.494	123.871	0.00041485	0.00095675	0.00029528	734.12	8.0751e-06	1.4035e-05	638.32	188.85	7.3288e-06	9.2504e-06	182.35	57.807	59.075	23.3	7.4891e-06	28.232	0.008019	0.009401	0.002632	849.82	0.00010098	0.00010405	734.88	220.45	0.00010009	0.00010432	244.07	77.216	79.185	29.679	0.00010158	37.461	173.147	-16.250	89.725	-116.198	49.451	2.305	-117.135	-111.395	-69.566	-79.574	-113.581	-110.054	-107.238	-102.208	-19.793	-104.998	-8191	255	
2231.428	1	1	0	0	0.10345	0.18233	0.040803	0.20404	0.28737	0.18739	0.21427	0.17143	0.1634	0.28315	0.14261	0.21326	0.16677	0.10915	0.058792	0.10566	-3.0417	-3.1458	-3.4562	-3.2125	-3.5271	-3.4792	-3.2938	-3.6375	-3.3667	-3.3146	-3.5583	-3.0625	-3.275	-3.3292	-3.2042	-3.5854	-106.879	-13.239	-1.236	49.581	160.547	-8.110	148.568	165.934	88.496	-11.074	192.446	-75.833	195.642	117.133	5.056	105.902	0.00027009	0.0013312	0.0002398	740.35	1.3843e-05	1.5561e-05	641.05	189.05	2.0958e-06	1.4102e-05	181.77	58.572	59.445	23.505	8.9752e-06	28.479	0.0080168	0.0093393	0.0026447	852.23	0.0001013	0.00010439	737.15	220.23	0.00010039	0.00010507	244.71	77.642	79.325	29.824	0.00010165	37.723	195.150	66.357	-21.949	-115.875	139.268	14.364	-117.023	-111.421	-88.522	34.805	-113.866	-109.772	-107.380	-101.812	-89.275	-105.219	-8191	255	
2231.549	1	1	0	0	0.053138	0.21668	0.011956	0.032588	0.29823	0.14456	0.33662	0.088472	0.27733	0.061016	0.093747	0.10671	0.17213	0.064627	0.146	0.17963	-2.9229	-3.0979	-3.4229	-3.4729	-3.3688	-3.4062	-3.2167	-3.5438	-3.3833	-3.2979	-3.6396	-3.3354	-3.5146	-3.5792	-3.3042	-3.4688	91.001	85.364	30.954	133.117	60.466	-101.710	216.533	45.994	135.848	-39.943	-105.264	-14.183	146.563	29.817	-103.805	-43.251	9.8371e-05	0.0007459	0.00038126	735.29	1.4497e-05	2.8745e-06	638.49	186.8	5.5066e-06	9.8805e-06	181.78	57.152	58.671	23.127	1.5263e-05	28.319	0.007991	0.009363	0.0026384	849	0.00010092	0.00010426	732.54	218.73	0.00010015	0.00010433	241.17	76.32	78.341	29.561	0.00010114	37.421	157.323	-126.523	98.339	-115.897	-60.677	204.792	-117.129	-111.390	11.052	-43.783	-113.715	-109.706	-107.706	-102.169	20.795	-105.178	-8191	255	
2231.645	1	1	0	0	0.10034	0.2104	0.033277	0.072511	0.19606	0.1565	0.30294	0.17958	0.32088	0.2348	0.1839	0.20181	0.13694	0.21631	0.12993	0.2596	-2.775	-3.2062	-3.4437	-3.4125	-3.2771	-3.475	-3.3458	-3.1917	-3.2958	-3.2729	-3.5229	-3.1958	-3.2771	-3.4917	-3.1688	-3.4396	-1.417	-91.007	-61.059	166.154	-54.505	228.050	143.294	225.633	-73.599	183.482	171.113	-24.725	-128.825	187.836	40.023	103.440	0.00023627	0.00074314	0.000286	734.04	4.8532e-06	1.0185e-05	633.46	185.24	1.017e-05	3.9933e-06	179.71	57.029	58.025	23.046	7.3433e-06	28.003	0.0080109	0.0094003	0.0026384	844.3	0.00010096	0.00010374	726.88	216.24	9.836e-05	0.00010228	238.62	76.046	77.78	29.516	0.00010073	37.076	158.594	-9.205	-97.952	-116.082	64.651	-29.671	-117.139	-111.286	-121.233	54.939	-113.838	-109.632	-107.512	-102.116	-115.455	-104.967	-8191	255	
2231.741	1	1	0	0	0.15287	0.16095	0.044574	0.11085	0.3047	0.18641	0.27987	0.26049	0.095927	0.1488	0.14248	0.093951	0.20768	0.24408	0.013665	0.088887	-2.9979	-3.2417	-3.5542	-3.2208	-3.1688	-3.5729	-3.4688	-3.4125	-3.4542	-3.2583	-3.4854	-3.1375	-3.2479	-3.5563	-3.1458	-3.4	-65.566	141.149	77.534	104.987	-72.457	152.059	229.423	227.471	145.253	-62.607	27.170	17.631	-15.408	135.377	-33.173	-71.073	0.00021893	0.00046733	0.00021253	733.84	1.1102e-05	9.3782e-06	629.08	183.48	6.2027e-06	1.1438e-05	177.01	56.593	57.636	22.998	7.5087e-06	28.401	0.007946	0.0092695	0.0025796	840.59	9.7458e-05	0.00010017	719.86	213.8	9.5825e-05	0.00010038	236.5	75.445	77.022	29.266	9.8897e-05	37.135	159.623	104.601	-119.446	-116.107	-31.587	-48.618	-117.392	-111.553	149.807	-6.784	-113.689	-109.790	-107.439	-102.141	36.787	-104.875	-8191	255	
2231.837	1	1	0	0	0.20474	0.26772	0.12891	0.19228	0.20952	0.13454	0.27689	0.20491	0.16157	0.032943	0.028231	0.28434	0.21425	0.34448	0.18186	0.23074	-2.9854	-3.1396	-3.4104	-3.2417	-3.2146	-3.4396	-3.2812	-3.3896	-3.4667	-3.0604	-3.3833	-3.35	-3.1729	-3.5021	-3.2333	-3.3604	79.129	104.054	-6.453	-86.256	179.921	-57.775	168.570	-26.839	15.698	-128.106	121.471	159.530	-60.746	-125.561	153.730	193.824	0.00018834	0.0013157	0.00038286	727.43	1.2416e-05	1.0503e-06	628.53	182.27	8.5728e-06	8.8686e-06	175.1	55.898	57.085	22.983	3.8282e-06	28.513	0.0078089	0.009081	0.0025687	834.85	9.7492e-05	0.00010124	719.06	212.84	9.6415e-05	0.00010024	234.12	74.704	75.939	29.085	9.7541e-05	37.027	80.704	-24.199	216.371	-115.708	-51.560	9.793	-117.387	-111.002	-50.506	157.571	-113.713	-109.856	-107.742	-101.976	-32.394	-105.136	-8191	255	
2231.934	1	1	0	0	0.18547	0.12477	0.35508	0.04237	0.073893	0.14332	0.17141	0.089305	0.1093	0.18159	0.0835	0.1077	0.06056	0.3131	0.13747	0.10196	-3.2562	-3.1833	-3.45	-3.2771	-3.2833	-3.5062	-3.3292	-3.3542	-3.6083	-3.2292	-3.4562	-3.3708	-3.0604	-3.4083	-3.2687	-3.4396	-25.628	170.986	-101.443	180.061	-84.902	28.210	168.165	209.165	117.262	230.076	-3.741	-117.907	201.591	193.191	85.132	86.518	0.0002226	0.00071066	0.00023662	720.22	1.2433e-05	7.0047e-06	621.3	180.49	5.7553e-06	3.7138e-06	173.69	55.263	56.189	22.69	6.9439e-06	27.896	0.0077406	0.0090316	0.0025453	828.6	9.7423e-05	0.00010103	712.92	211.24	9.6775e-05	0.00010042	232.07	74.355	75.488	28.938	9.7916e-05	36.564	151.279	182.373	91.452	-115.630	-88.946	104.000	-117.324	-111.487	100.598	76.406	-113.093	-110.181	-107.064	-101.964	177.514	-105.096	-8191	255	
2232.030	1	1	0	0	0.15346	0.19751	0.2445	0.35839	0.17384	0.16293	0.30453	0.2179	0.16659	0.14155	0.034019	0.23997	0.038785	0.25956	0.059749	0.1154	-3.0083	-3.0708	-3.4021	-3.7167	-3.1708	-3.6813	-3.5312	-3.3125	-3.4813	-3.2896	-3.3375	-3.425	-3.1146	-3.4479	-3.2958	-3.475	-80.023	125.108	163.632	175.437	105.971	219.621	122.650	218.171	-66.859	171.948	-43.125	211.302	211.616	58.234	48.557	-33.261	0.00021619	0.00060734	0.00028861	718.05	1.7958e-06	4.0138e-06	623.54	181.02	4.3321e-06	1.0874e-05	173.79	55.569	56.135	22.918	2.4586e-06	28.134	0.0077438	0.0090337	0.0025391	826.74	9.6932e-05	0.00010089	714.64	211.71	9.6955e-05	0.00010138	234.14	74.706	76.015	29.011	9.8434e-05	36.748	192.335	193.496	124.480	-116.111	-38.575	-79.689	-117.620	-111.530	-5.594	43.147	-113.651	-109.543	-107.230	-101.978	-41.549	-105.080	-8191	255	
2232.126	1	1	0	0	0.076698	0.10461	0.30828	0.27237	0.21866	0.16222	0.043036	0.25285	0.25972	0.30699	0.084089	0.10323	0.2649	0.16576	0.11038	0.068886	-3.1792	-3.225	-3.2958	-3.6083	-3.1292	-3.4125	-3.3917	-3.275	-3.4583	-3.2104	-3.2979	-3.4062	-3.1771	-3.5625	-3.5083	-3.2375	183.400	-115.465	-53.815	176.795	80.965	106.579	-47.486	183.256	-115.516	-37.834	-104.070	130.400	140.495	-101.923	0.627	-22.068	0.00017776	0.0016274	0.00022448	722.27	1.7607e-05	1.2155e-05	624.38	180.33	8.174e-06	1.7058e-05	174.56	56.064	56.799	22.992	1.2148e-05	28.385	0.007749	0.0090156	0.0025469	826.56	9.7203e-05	0.00010032	713.35	210.62	9.5958e-05	9.9758e-05	233.27	74.796	75.781	29.094	9.6523e-05	36.828	174.648	6.729	-52.368	-115.880	-6.743	37.537	-117.335	-111.386	140.371	-53.862	-113.351	-109.833	-107.770	-101.915	228.308	-105.142	-8191	255	
2232.245	1	1	0	0	0.15659	0.033295	0.10227	0.097802	0.15981	0.29755	0.035669	0.12411	0.045048	0.097264	0.20633	0.1095	0.057519	0.093973	0.16143	0.19861	-3.1583	-3.0604	-3.2604	-3.5146	-3.2375	-3.3521	-3.4292	-3.2062	-3.5646	-3.3563	-3.2208	-3.5771	-3.0687	-3.3896	-3.4958	-3.1667	6.833	-66.977	183.376	-24.428	-76.912	199.946	217.657	36.130	1.797	-12.896	-120.858	-58.372	-107.858	-124.506	68.001	212.238	0.00018204	0.00067299	0.00044686	722.44	6.944e-06	9.9522e-06	623.34	181.44	5.4428e-06	9.3581e-06	174.13	55.682	57.035	22.679	1.4639e-06	27.841	0.0076306	0.0089021	0.0025099	826.53	9.4373e-05	9.7138e-05	710.18	209.73	9.0962e-05	9.4334e-05	228.7	73.106	74.034	28.362	8.6589e-05	35.476	209.364	-46.888	0.772	-116.088	166.300	179.749	-117.041	-111.485	180.990	-31.748	-113.551	-109.840	-107.754	-102.027	-79.092	-104.981	-8191	255	
2232.341	1	1	0	0	0.2649	0.30888	0.19501	0.18361	0.15104	0.058042	0.24143	0.18586	0.17313	0.019558	0.31919	0.21052	0.066375	0.11773	0.16765	0.25924	-2.9688	-3.4521	-3.0854	-3.625	-3.2687	-3.3	-3.5896	-3.225	-3.3625	-3.4771	-3.2625	-3.3771	-3.1271	-3.3771	-3.4667	-3.1729	120.024	169.744	41.800	147.660	183.808	99.115	182.597	-74.487	106.039	-106.674	215.742	51.046	-55.793	78.190	-25.616	162.931	0.00011935	0.00099006	5.0699e-05	725.02	3.7219e-06	1.5625e-05	622.6	182.4	8.6323e-06	4.7574e-06	176.59	56.295	57.499	22.926	1.41e-06	28.048	0.0066993	0.0077704	0.0021555	809.11	8.0569e-05	8.221e-05	696.09	205.5	7.6126e-05	7.7993e-05	220.51	70.248	71.607	27.39	7.2381e-05	34.17	162.978	142.854	-31.360	-116.054	-82.080	93.013	-117.161	-111.519	37.829	148.901	-113.662	-109.359	-107.369	-101.818	34.105	-105.481	-8191	255	
2232.437	1	1	0	0	0.35922	0.2138	0.17514	0.027321	0.15957	0.168	0.097535	0.14768	0.18077	0.11895	0.087752	0.084884	0.047614	0.037853	0.12811	0.34594	-2.9688	-3.25	-3.0625	-3.7396	-3.1188	-3.3979	-3.5458	-3.1146	-3.3187	-3.4	-3.275	-3.6312	-3.2375	-3.4208	-3.3708	-3.2521	-33.978	119.526	-125.916	-21.524	-84.325	-105.980	-11.899	-125.513	-77.172	-109.004	218.313	-86.758	18.797	8.608	204.700	213.852	0.00010383	0.0020307	7.5246e-05	729.11	6.7506e-06	1.2074e-05	627.12	183.58	2.8798e-06	1.7077e-05	176.93	56.833	57.776	23.053	3.1582e-06	27.958	0.0056077	0.0064635	0.0018194	794.23	6.8195e-05	7.019e-05	685.93	202.68	6.6612e-05	6.8804e-05	215.75	69.005	70.127	26.897	6.3968e-05	33.506	114.828	-105.000	-61.036	-115.783	4.657	20.216	-117.238	-111.646	9.466	-25.505	-113.842	-109.738	-107.792	-102.127	21.162	-104.935	-8191	255	
2232.533	1	1	0	0	0.2796	0.14576	0.15193	0.089891	0.13177	0.204	0.063808	0.30683	0.086156	0.15224	0.3249	0.16562	0.1097	0.059174	0.35374	0.1443	-2.9917	-3.2604	-3.1271	-3.5687	-3.2521	-3.3208	-3.5021	-3.2104	-3.2667	-3.3375	-3.2188	-3.4875	-3.2583	-3.1063	-3.3854	-3.1167	13.122	-125.349	131.927	191.414	134.217	91.440	185.582	142.753	194.596	88.986	220.745	37.283	-120.066	99.117	-110.527	151.616	0.00014383	0.0010819	0.0001195	726.99	1.6076e-06	9.3887e-06	628.41	184.26	8.0784e-06	1.6012e-06	176.57	56.487	57.301	22.792	2.8278e-06	27.674	0.005006	0.0057474	0.0016097	784.21	6.0735e-05	6.225e-05	678.71	199.94	5.8399e-05	5.9873e-05	209.06	66.958	68.111	26.315	5.7114e-05	32.661	158.722	72.795	-76.350	-115.825	-50.709	4.884	-117.186	-111.365	-88.659	9.834	-113.418	-109.876	-107.884	-102.012	-30.586	-105.268	-8191	255	
2232.629	1	1	0	0	0.21038	0.20517	0.24558	0.050976	0.37874	0.098077	0.060855	0.21609	0.10981	0.14233	0.11818	0.082335	0.36257	0.094386	0.15638	0.031662	-3.1521	-3.275	-3.1417	-3.4188	-3.3125	-3.2667	-3.6729	-3.3625	-3.2271	-3.3146	-3.2771	-3.5333	-3.3333	-3.0125	-3.2146	-3.4396	88.882	3.065	-57.548	192.067	169.066	36.798	147.246	189.969	46.349	-14.932	88.035	-107.837	221.241	-95.118	-1.924	213.731	0.0001981	0.0014244	0.00013446	725.27	7.0714e-06	1.0796e-05	626.68	182.86	2.5019e-06	2.3814e-06	176.04	56.668	58.022	22.992	8.5262e-06	27.865	0.0045188	0.0052141	0.0014641	776.31	5.5675e-05	5.7462e-05	670.57	197.71	5.5159e-05	5.7092e-05	207.76	66.689	68.017	26.238	5.6132e-05	32.657	117.952	147.649	21.758	-116.090	-58.689	7.102	-117.166	-111.485	-48.781	120.271	-113.594	-109.900	-107.503	-101.942	1.533	-105.089	-8191	255	
2232.726	1	1	0	0	0.058808	0.081274	0.2616	0.26348	0.15496	0.2921	0.33626	0.12629	0.1743	0.047004	0.2046	0.2078	0.14188	0.063676	0.19463	0.094928	-2.8771	-3.3458	-3.075	-3.425	-3.3479	-3.0875	-3.4646	-3.325	-3.3396	-3.4229	-3.0521	-3.3937	-3.5229	-3.125	-3.6167	-3.3083	7.998	70.159	183.835	-98.317	-108.012	-84.924	-59.547	-34.938	-47.819	-20.491	108.176	-85.642	120.124	-126.403	85.012	6.021	0.00029122	0.00044992	5.8043e-05	728.53	5.2547e-06	1.1853e-05	628.22	183.35	6.6422e-06	3.3722e-06	177.06	57.452	57.597	22.993	6.6304e-06	27.92	0.0044107	0.0051206	0.0014412	776.95	5.5002e-05	5.6817e-05	672.74	198.69	5.4384e-05	5.6709e-05	208.94	67.082	68.143	26.292	5.5082e-05	32.693	149.984	-123.364	11.472	-115.921	1.966	-6.691	-117.219	-111.332	69.526	130.313	-113.363	-109.709	-107.991	-101.823	218.375	-105.025	-8191	255	
2232.846	1	1	0	0	0.14352	0.0096037	0.096695	0.26676	0.066886	0.086376	0.16597	0.25122	0.20177	0.22211	0.27705	0.29639	0.18739	0.37698	0.23275	0.27463	-2.85	-3.3896	-3.0792	-3.3854	-3.5021	-3.0292	-3.5958	-3.2792	-3.2958	-3.6458	-3.2167	-3.2875	-3.4146	-3.1583	-3.4521	-3.475	96.420	-49.647	168.814	228.754	220.474	-9.868	196.862	190.149	107.198	122.277	-75.331	-90.005	185.970	171.791	-110.813	74.529	0.00021465	0.00055634	0.00028519	726.64	1.0748e-05	7.0418e-06	632.36	184.15	6.5192e-06	2.4523e-06	178.28	57.417	58.018	23.004	2.0046e-06	28.04	0.0043587	0.0050569	0.0014167	776.05	5.4157e-05	5.5701e-05	673.47	198.39	5.3394e-05	5.4886e-05	208.3	66.786	67.79	26.219	5.3054e-05	32.448	214.300	147.184	145.957	-115.769	74.036	-55.884	-117.196	-111.276	89.256	-60.958	-113.511	-109.213	-107.073	-102.005	8.128	-105.113	-8191	255	
2232.941	1	1	0	0	0.032582	0.21102	0.10674	0.13588	0.062362	0.20272	0.22741	0.1264	0.10493	0.30867	0.20347	0.11276	0.2521	0.094316	0.34397	0.047578	-2.7313	-3.5	-3.1813	-3.3917	-3.3167	-3.2771	-3.55	-3.3729	-3.0208	-3.5187	-3.225	-3.1792	-3.5958	-3.1562	-3.25	-3.2208	188.248	128.075	-59.830	-29.210	123.917	-68.757	132.016	-119.365	-108.995	132.720	122.328	176.111	-129.022	-111.412	174.896	211.073	0.000278	0.00063369	0.00029025	727.51	5.8856e-06	1.1619e-05	627	183.61	7.8334e-06	1.2012e-05	176.9	56.729	57.352	22.825	1.6773e-06	27.724	0.0041833	0.0048623	0.0013657	771.92	5.1826e-05	5.3208e-05	668.35	196.87	5.0907e-05	5.2627e-05	205.02	65.65	66.957	25.882	5.0349e-05	31.913	199.450	51.303	29.879	-115.949	-125.108	-47.757	-116.998	-111.525	-61.058	194.204	-113.816	-109.486	-107.742	-101.833	16.346	-104.986	-8191	255	
2233.037	1	1	0	0	0.14256	0.11133	0.094783	0.15441	0.17358	0.12736	0.15367	0.095608	0.1735	0.088536	0.24577	0.029414	0.10101	0.063868	0.16536	0.16108	-2.6125	-3.5021	-3.0917	-3.3146	-3.4083	-3.0583	-3.3	-3.4708	-3.1417	-3.5479	-3.3312	-3.2292	-3.5021	-3.1708	-3.4146	-3.4021	-115.801	131.707	135.219	142.929	190.807	23.095	39.429	2.157	-46.177	108.287	197.918	143.379	66.420	-78.960	-79.023	126.665	0.0001315	0.00054896	0.00032324	730.18	4.4493e-06	2.6086e-06	630.87	184.22	6.794e-06	4.2312e-06	178.44	57.007	58.224	23.003	3.8911e-06	27.589	0.0039931	0.0045968	0.0012911	771.71	4.8888e-05	5.0212e-05	666.73	197.11	4.7643e-05	4.9206e-05	204.57	65.203	66.532	25.605	4.6169e-05	31.441	138.317	14.110	-30.153	-115.847	-78.148	52.705	-117.210	-111.407	-15.668	-14.970	-113.595	-109.587	-107.626	-101.981	106.425	-104.821	-8191	255	
2233.110	1	1	0	0	0.11286	0.11784	0.076394	0.081454	0.17551	0.13274	0.27673	0.12846	0.076753	0.046728	0.35511	0.15612	0.26673	0.24207	0.1053	0.18479	-2.7917	-3.5667	-3.1792	-3.2521	-3.4562	-3.2583	-3.3917	-3.45	-3.1854	-3.5396	-3.3104	-3.2333	-3.525	-3.3354	-3.2896	-3.4646	145.366	-105.310	-100.738	86.683	-41.276	56.112	145.521	-111.922	143.329	-12.377	114.924	-123.173	189.081	177.076	-50.932	156.143	0.00024647	0.00059285	2.8589e-05	731.23	7.4446e-06	1.9163e-06	630.53	185.56	2.9123e-06	5.7779e-06	179.27	56.408	58.078	23.077	1.1973e-06	28.162	0.0036561	0.0042002	0.0011748	767.26	4.4472e-05	4.5642e-05	663.46	195.89	4.3184e-05	4.468e-05	202.32	64.509	65.612	25.454	4.2842e-05	31.57	173.843	38.721	-67.966	-116.090	21.873	111.905	-116.948	-111.564	111.215	-54.008	-113.986	-109.332	-106.927	-101.918	128.829	-104.924	-8191	255	
2233.206	1	1	0	0	0.2563	0.16609	0.24264	0.23729	0.18503	0.11979	0.10629	0.12098	0.31599	0.18351	0.062538	0.10927	0.071768	0.1356	0.25159	0.1292	-2.8563	-3.4292	-3.4479	-3.2271	-3.3958	-3.2208	-3.4437	-3.4021	-3.3729	-3.4562	-3.3896	-3.1458	-3.4792	-3.2396	-3.2396	-3.4896	-12.897	16.837	54.549	223.935	-84.576	45.515	133.267	220.794	-45.457	130.975	206.315	82.515	143.647	161.606	106.641	-122.554	0.00011782	0.00056374	0.00030701	726.17	1.5266e-06	8.8532e-06	630.62	184.87	4.7622e-06	6.0886e-06	177.68	56.855	57.497	23.004	4.055e-06	27.735	0.0033478	0.0039113	0.0010885	759.16	4.1253e-05	4.2766e-05	657.97	193.56	4.0679e-05	4.1907e-05	199.39	63.554	64.63	25.175	4.0013e-05	30.963	178.616	-79.603	-55.773	-116.015	143.971	-33.956	-117.155	-111.215	-53.444	142.022	-113.129	-109.550	-107.740	-101.731	189.486	-104.566	-8191	255	
2233.325	1	1	0	0	0.25873	0.18524	0.094251	0.26807	0.041438	0.10008	0.078349	0.27924	0.078337	0.22667	0.23096	0.29384	0.10164	0.20466	0.12534	0.23344	-2.7812	-3.3812	-3.2812	-3.2958	-3.5062	-3.1937	-3.2875	-3.5042	-3.1437	-3.3375	-3.5187	-3.0771	-3.5104	-3.2958	-2.8854	-3.3187	-63.358	-71.548	-36.230	171.696	30.561	38.385	-120.603	7.372	13.799	-15.351	154.857	200.371	159.444	122.072	137.810	177.640	0.00020374	0.00058361	7.7594e-05	723.65	3.3703e-06	4.9665e-06	625.86	182.71	6.0086e-06	5.3189e-06	176.97	56.419	57.856	23.14	5.7789e-06	27.908	0.0031701	0.003632	0.0010176	752.28	3.8699e-05	3.9891e-05	651.18	191.44	3.8194e-05	3.9488e-05	196.55	63.117	64.347	25.115	3.7795e-05	30.912	149.899	-14.553	69.111	-115.757	134.149	190.104	-117.343	-111.594	227.634	131.256	-113.428	-110.045	-107.638	-101.922	-44.508	-105.248	-8191	255	
2233.421	1	1	0	0	0.20484	0.21325	0.25915	0.57035	0.22738	0.14792	0.10089	0.20268	0.23332	0.046579	0.080371	0.090187	0.040508	0.059546	0.16485	0.099404	-2.75	-3.2687	-3.4417	-3.3812	-3.4771	-3.275	-3.3417	-3.4479	-3.2729	-3.2479	-3.5125	-3.1083	-3.3854	-3.2604	-3.2542	-3.3979	-69.667	192.836	60.241	120.227	189.322	158.421	-117.422	-104.779	-16.902	43.916	-18.016	-128.759	-54.007	97.521	141.661	26.168	0.00019357	0.00017678	0.00011172	723.6	2.155e-06	6.5292e-06	630.61	183.66	9.3663e-06	9.8687e-06	177.95	56.837	57.95	23.237	8.9031e-06	28.07	0.002984	0.0034183	0.00094761	746.66	3.6217e-05	3.7187e-05	650.26	190.95	3.51e-05	3.6261e-05	195.29	62.844	63.901	25.016	3.4285e-05	30.789	169.125	22.501	20.285	-115.647	-68.065	52.271	-116.834	-111.330	-68.841	44.096	-113.375	-110.017	-107.886	-101.954	104.277	-105.082	-8191	255	
2233.518	1	1	0	0	0.17138	0.017462	0.070581	0.028571	0.23157	0.19506	0.20887	0.49173	0.34256	0.18936	0.095904	0.038981	0.12311	0.039838	0.20808	0.13226	-2.9125	-3.3187	-3.3125	-3.1604	-3.3583	-3.2188	-3.1458	-3.6271	-3.2875	-3.2146	-3.5083	-3.0875	-3.4375	-3.3333	-3.0771	-3.4479	75.906	22.771	-27.904	-49.892	188.191	48.030	-125.649	147.662	83.600	91.226	-91.023	-103.622	37.933	-37.911	-18.494	156.487	0.00016625	0.00039933	0.00035541	725.9	2.0859e-06	4.8066e-06	630.1	183.59	3.5679e-06	8.0309e-06	180.04	57.328	57.784	23.098	3.5632e-06	28.152	0.0027305	0.0031249	0.00087783	747.3	3.3229e-05	3.4293e-05	650.09	190.66	3.2479e-05	3.3525e-05	194.81	62.479	63.324	24.8	3.2288e-05	30.516	187.504	-34.027	-36.532	-115.686	-42.734	-126.958	-117.178	-111.548	-99.089	20.016	-113.716	-109.803	-107.214	-101.660	113.169	-105.024	-8191	255	
2233.638	1	1	0	0	0.068453	0.1419	0.14416	0.25815	0.23353	0.17093	0.08033	0.2408	0.12712	0.094243	0.26182	0.050403	0.057671	0.094467	0.17993	0.069748	-2.6417	-3.1292	-3.3896	-3.2542	-3.3042	-3.2708	-3.1708	-3.6188	-3.3812	-3.1771	-3.3708	-3.2687	-3.2542	-3.5167	-3.0479	-3.5438	-89.476	67.040	-65.497	212.849	24.755	182.596	18.353	-63.837	190.607	121.378	180.041	169.542	32.588	23.457	225.001	131.251	0.00030032	0.00052353	0.0001856	725.29	2.3491e-06	3.0247e-06	627.52	183.78	3.6119e-06	2.2176e-06	177.61	56.638	57.749	23.061	6.0601e-06	27.738	0.0025591	0.0029518	0.0008298	741.85	3.1597e-05	3.2263e-05	644.16	189.42	3.1453e-05	3.2435e-05	192.59	61.848	62.902	24.62	3.1574e-05	30.152	157.539	27.964	-64.248	-115.833	189.002	138.984	-116.878	-111.534	82.179	87.985	-113.825	-109.661	-107.144	-102.430	52.512	-104.858	-8191	255	
2233.710	1	1	0	0	0.13086	0.16301	0.017162	0.18194	0.31729	0.053834	0.27633	0.23004	0.13319	0.13668	0.16903	0.01319	0.049938	0.074231	0.053613	0.2417	-2.9458	-3.1958	-3.3958	-3.2833	-3.2875	-3.3979	-3.1396	-3.5021	-3.2542	-3.0958	-3.5292	-3.2521	-3.225	-3.5438	-3.2333	-3.2687	-40.845	-73.087	66.277	101.830	-36.933	181.678	160.887	164.640	-75.633	-111.803	101.344	-112.537	170.342	63.934	-48.177	14.452	0.00032946	0.00020243	0.00022391	724.02	1.7474e-06	7.7256e-06	626.46	183.57	3.428e-06	6.8859e-07	179.13	57.311	58.347	22.965	1.7382e-06	27.98	0.0025277	0.0029123	0.00082041	743.21	3.1307e-05	3.2394e-05	644.21	189.86	3.1258e-05	3.219e-05	193.59	62.107	63.173	24.642	3.1285e-05	30.291	203.823	40.957	-23.226	-115.947	-89.294	32.449	-117.232	-111.182	92.147	31.548	-113.894	-109.700	-107.447	-101.810	13.026	-105.181	-8191	255	
2233.806	1	1	0	0	0.15831	0.22452	0.066605	0.22378	0.10306	0.22674	0.22352	0.16809	0.1178	0.10179	0.25889	0.22403	0.1513	0.052595	0.23224	0.12943	-2.8042	-3.0542	-3.4813	-3.2417	-3.3917	-3.5771	-3.1208	-3.3187	-3.4062	-3.1396	-3.5042	-3.3896	-3.25	-3.5438	-3.0979	-3.2729	187.433	12.029	114.717	137.851	-33.185	7.527	139.641	18.116	56.155	16.857	-116.890	-103.724	-122.815	190.992	124.121	215.891	0.00019853	0.00018195	0.00016291	725.4	2.6793e-06	2.3815e-06	629.22	185.42	5.1924e-06	3.4903e-06	179.68	57.009	58.594	22.918	3.321e-06	27.967	0.0025287	0.0029389	0.00082258	743.65	3.1592e-05	3.2517e-05	646.38	190.64	3.1286e-05	3.2587e-05	194.36	62.492	63.378	24.671	3.1709e-05	30.385	155.998	224.218	-28.118	-115.992	-81.535	-59.679	-117.188	-111.457	-129.309	-42.937	-113.700	-109.814	-107.487	-101.744	133.608	-105.276	-8191	255	
2233.927	1	1	0	0	0.11244	0.24596	0.22608	0.29572	0.10112	0.047177	0.16945	0.077056	0.021703	0.26761	0.17322	0.2212	0.11756	0.051033	0.35214	0.099489	-3.1562	-3.05	-3.5167	-3.325	-3.125	-3.5417	-3.1271	-3.4813	-3.5208	-3.225	-3.3854	-3.3646	-3.2729	-3.375	-3.3667	-3.4542	39.067	21.634	-27.345	176.143	101.022	-129.239	185.854	145.503	21.830	102.473	210.078	0.713	217.149	-83.985	183.613	131.900	0.0002356	0.00058358	0.00015803	724.32	2.3273e-06	3.4226e-06	628.76	184.22	3.9045e-06	9.189e-06	178.47	56.552	58.31	22.911	5.8155e-06	27.635	0.002515	0.0029059	0.00082213	743.11	3.1166e-05	3.188e-05	644.55	189.56	3.0582e-05	3.186e-05	192.7	61.762	63.05	24.492	3.1331e-05	29.964	179.783	-38.784	-82.264	-115.888	189.791	159.663	-117.086	-111.545	-116.838	7.977	-113.307	-109.991	-107.277	-102.114	-11.466	-104.501	-8191	255	
2234.023	1	1	0	0	0.052601	0.17647	0.22582	0.25926	0.04398	0.13429	0.12051	0.066738	0.13467	0.16345	0.16085	0.11846	0.079894	0.12352	0.23897	0.13689	-3.0292	-3.0062	-3.5	-3.4292	-3.0583	-3.4854	-3.2792	-3.375	-3.3979	-3.2021	-3.4208	-3.325	-3.2083	-3.6021	-3.3229	-3.225	-34.779	4.361	134.777	-110.720	145.070	96.176	171.994	135.861	183.600	175.848	130.930	75.379	-96.230	44.015	-100.151	24.811	0.0001552	0.00071328	0.00016113	726.39	3.0752e-06	2.3754e-06	626.23	184.13	4.3315e-06	1.4029e-05	178.97	56.777	57.835	22.893	1.0393e-05	27.701	0.0024863	0.0028848	0.0008102	740.19	3.0765e-05	3.169e-05	642.66	189.25	3.0431e-05	3.1791e-05	192.39	61.809	62.814	24.551	3.0936e-05	30.056	169.204	76.264	-12.179	-115.992	96.008	224.197	-116.983	-111.422	131.632	-30.676	-113.786	-109.765	-107.389	-101.939	21.954	-104.782	-8191	255	
2234.119	1	1	0	0	0.070602	0.083255	0.13492	0.1312	0.078359	0.14344	0.28944	0.077674	0.17848	0.2142	0.15616	0.21169	0.26613	0.15668	0.14131	0.29296	-3.075	-3.0875	-3.3187	-3.3458	-3.1021	-3.3542	-3.5542	-3.2083	-3.5125	-3.2458	-3.4396	-3.4125	-3.1833	-3.4354	-3.3917	-3.1688	53.907	-75.418	105.708	-16.737	-49.248	43.830	127.057	-127.201	149.811	-33.541	59.755	141.140	113.328	176.734	80.831	218.499	0.00023444	0.00081022	7.8662e-05	728.19	5.7325e-06	2.7637e-06	626.92	184	5.0149e-07	7.7289e-06	177.95	56.907	58.237	23.123	6.7486e-06	28.008	0.0024705	0.00285	0.0008123	742.74	3.0848e-05	3.1887e-05	645.17	189.72	3.0365e-05	3.213e-05	193.51	62.095	63.145	24.638	3.1033e-05	30.254	175.063	-1.767	-31.164	-115.770	67.716	-40.568	-117.048	-111.187	36.425	63.340	-113.592	-109.679	-107.095	-102.034	8.416	-105.100	-8191	255	
2234.238	1	1	0	0	0.033748	0.3313	0.13652	0.14183	0.11273	0.096376	0.11382	0.044373	0.23883	0.23537	0.20158	0.2016	0.092242	0.1459	0.062363	0.13029	-3.0542	-3.2542	-3.2833	-3.5812	-3.2667	-3.1562	-3.3	-3.2167	-3.4521	-3.2438	-3.3667	-3.5958	-3.0938	-3.3604	-3.3229	-2.9167	-68.895	145.840	-12.092	-55.375	11.277	-95.948	143.835	209.103	-72.008	60.989	83.032	101.250	-58.835	54.058	182.743	-96.632	0.00017103	0.00032962	0.0001183	727.44	8.397e-06	5.4851e-06	631.41	183.99	3.9563e-06	2.1345e-06	178.34	57.199	58.322	23.009	3.2173e-06	27.884	0.0024849	0.0028429	0.00080357	743.47	3.0809e-05	3.1839e-05	646.93	189.94	3.0365e-05	3.1565e-05	192.99	61.966	62.951	24.593	3.048e-05	30.115	153.711	156.673	-5.204	-115.875	-7.029	112.265	-117.099	-111.349	39.579	70.294	-113.359	-109.781	-107.577	-101.800	-19.349	-104.618	-8191	255	
2234.334	1	1	0	0	0.2439	0.070985	0.1455	0.091296	0.19502	0.064218	0.040531	0.072898	0.15967	0.11277	0.23665	0.11731	0.070859	0.24815	0.29416	0.082925	-3.0833	-3.4	-3.1542	-3.4188	-2.9688	-3.5271	-3.4875	-3.1792	-3.3792	-3.4688	-3.4146	-3.5854	-3.1271	-3.3333	-3.3688	-3.0104	208.082	-9.362	-41.919	-17.406	-99.406	27.105	102.880	195.613	11.039	-116.856	173.823	140.297	207.518	-115.704	202.486	38.249	0.00027377	0.00030046	8.5011e-05	719.87	3.0247e-06	1.9164e-06	627.49	182.54	3.185e-06	5.016e-06	177.3	56.58	58.263	22.858	4.2411e-06	27.783	0.0024344	0.0028236	0.00079454	738.39	3.0424e-05	3.1057e-05	641.8	188.76	3.0247e-05	3.124e-05	192.1	61.644	62.891	24.551	3.037e-05	30.11	174.419	221.057	228.575	-115.938	47.894	-105.414	-117.182	-111.593	32.589	-79.714	-113.256	-109.962	-107.459	-101.837	-48.812	-105.042	-8191	255	
2234.406	1	1	0	0	0.12081	0.15858	0.34781	0.063936	0.24007	0.19672	0.067857	0.099624	0.074469	0.18262	0.22811	0.16864	0.15416	0.20956	0.2887	0.1081	-3.0042	-3.2833	-3.2958	-3.7021	-3.1021	-3.6063	-3.525	-3.2062	-3.6521	-3.3688	-3.2479	-3.5292	-3.2458	-3.2979	-3.3958	-3.1604	57.259	120.468	-55.059	214.124	-34.234	212.238	-64.259	63.204	-13.870	202.941	149.034	-102.867	230.218	205.354	107.674	68.881	0.00026743	0.00014485	0.000258	726.38	5.3256e-06	3.0586e-06	627.72	183.81	3.0408e-06	7.3817e-06	178.68	56.764	58.291	23.117	2.5167e-06	28.1	0.0024382	0.0028288	0.00079434	739.72	3.0187e-05	3.1373e-05	643.2	189.26	2.9967e-05	3.1359e-05	192.82	61.903	63.058	24.646	3.0449e-05	30.365	169.590	152.982	-93.948	-115.829	40.456	163.265	-117.385	-111.379	207.572	-43.497	-113.824	-109.810	-107.440	-102.084	119.844	-104.220	-8191	255	
2234.502	1	1	0	0	0.36926	0.1067	0.097821	0.19141	0.12612	0.1675	0.10407	0.31981	0.13833	0.071829	0.11975	0.31194	0.15451	0.15761	0.17315	0.080764	-2.8146	-3.35	-3.0104	-3.6063	-3.3937	-3.4542	-3.7458	-3.2167	-3.4208	-3.3271	-3.1917	-3.55	-3.1708	-3.3729	-3.5458	-3.2896	103.149	44.516	28.512	182.083	20.924	154.076	97.754	155.863	224.160	127.935	34.989	-74.779	66.872	-38.107	16.845	105.423	0.00028939	0.00083898	9.2472e-05	725.56	5.5287e-06	9.5572e-07	631.92	184.77	5.9806e-06	3.4121e-06	179.85	57.377	58.391	23.161	8.0117e-06	28.119	0.0024564	0.0028443	0.00079653	739.96	3.0418e-05	3.1549e-05	645.33	189.74	3.038e-05	3.1579e-05	193.62	62.367	63.148	24.689	3.0346e-05	30.375	179.716	-8.089	-11.059	-115.950	6.587	91.085	-116.960	-111.511	199.297	152.859	-113.697	-109.851	-107.572	-101.628	-67.568	-105.063	-8191	255	
2234.622	1	1	0	0	0.085546	0.21551	0.083815	0.067775	0.15329	0.20863	0.33504	0.19033	0.2022	0.29028	0.24069	0.067221	0.040358	0.059545	0.12615	0.26295	-3.1083	-3.2771	-3.175	-3.5292	-3.1146	-3.3583	-3.3187	-3.2021	-3.3937	-3.5458	-3.2667	-3.4229	-3.1354	-3.0396	-3.5729	-3.3667	-118.190	56.014	-82.565	110.399	135.643	110.214	83.367	97.978	187.616	138.767	167.569	171.726	6.693	146.377	-100.920	176.079	0.00022979	0.00019973	0.00020117	721.16	1.5867e-06	1.3096e-06	628.03	182.78	7.1211e-06	3.3858e-06	176.33	56.254	57.48	22.869	3.7451e-06	27.683	0.0024298	0.0028208	0.00078956	737.64	3.0118e-05	3.1139e-05	641.38	188.36	2.9996e-05	3.1359e-05	190.95	61.338	62.375	24.415	3.0438e-05	29.945	141.622	171.135	-108.072	-115.798	38.299	226.583	-117.155	-111.270	12.510	172.944	-113.599	-109.745	-107.156	-102.291	84.376	-104.555	-8191	255	
2234.719	1	1	0	0	0.26029	0.15871	0.14395	0.14923	0.21443	0.11886	0.11361	0.19283	0.16527	0.36964	0.1458	0.12839	0.20088	0.14978	0.049633	0.096722	-2.9208	-3.4313	-3.2708	-3.5021	-3.3979	-3.1792	-3.5667	-3.3646	-3.4396	-3.5312	-3.2875	-3.4271	-3.1625	-3.2375	-3.5583	-3.3875	93.707	-88.186	74.869	-47.518	-27.891	34.678	158.464	-5.251	-118.210	95.179	159.632	-50.319	-89.397	199.889	83.646	9.987	0.00033278	0.00036779	0.00018774	719.12	4.1943e-06	1.2824e-06	622.08	180.84	7.2529e-06	1.0992e-05	176.02	56.634	57.164	22.771	3.1481e-06	27.619	0.0024225	0.002777	0.00078024	734.78	3.0051e-05	3.0935e-05	637.33	187.12	2.9742e-05	3.1245e-05	190.07	61.394	62.006	24.343	2.9797e-05	29.865	175.303	25.224	72.946	-115.832	64.653	158.162	-117.211	-111.276	-32.861	42.133	-113.489	-109.340	-107.745	-101.418	-9.475	-105.100	-8191	255	
2234.815	1	1	0	0	0.15398	0.09681	0.03419	0.37365	0.1956	0.13749	0.18893	0.11428	0.08219	0.28667	0.18367	0.11297	0.17259	0.031108	0.19288	0.054385	-2.8896	-3.3667	-3.175	-3.5083	-3.2333	-3.1271	-3.5354	-3.2375	-3.2979	-3.3458	-3.1521	-3.3937	-3.175	-3.1417	-3.3646	-3.2354	154.123	171.836	-7.579	143.881	215.584	210.702	-114.765	147.378	127.996	119.129	137.099	191.935	-109.414	-52.391	17.214	-70.488	0.00012571	0.00050102	0.00020225	718.03	1.1863e-05	1.9016e-06	623.58	180.89	3.2051e-06	1.0138e-05	175.07	56.79	57.417	22.659	1.7184e-06	27.654	0.0023645	0.0027599	0.00077239	733.85	2.952e-05	3.0251e-05	637.9	186.69	2.9292e-05	3.0545e-05	190.76	61.412	62.085	24.299	2.9754e-05	29.89	163.190	201.676	-99.158	-116.181	-55.377	150.080	-117.145	-111.594	151.250	31.273	-113.992	-109.456	-107.304	-101.903	-6.315	-105.012	-8191	255	
2234.911	1	1	0	0	0.045816	0.047121	0.12782	0.023103	0.14329	0.37208	0.19915	0.15663	0.19201	0.073761	0.20676	0.18205	0.2314	0.32261	0.068654	0.064542	-2.7771	-3.3063	-3.0104	-3.3125	-3.4688	-3.1688	-3.425	-3.2854	-3.2188	-3.6208	-3.3312	-3.2875	-3.4562	-2.9271	-3.3146	-3.2167	-24.876	140.500	159.537	-4.936	79.570	149.145	156.282	189.670	-61.087	10.901	126.112	130.046	-118.843	-60.701	-104.496	-123.010	0.00022995	0.00054276	7.984e-05	714.12	8.6852e-08	4.2266e-06	618.22	180.71	3.4505e-06	3.997e-06	175.74	56.351	56.872	22.758	1.4393e-06	27.152	0.0023644	0.0027399	0.00077346	731.68	2.9391e-05	3.0302e-05	636.46	186.07	2.9064e-05	3.0023e-05	189.18	60.875	61.559	24.119	2.9487e-05	29.541	184.010	-27.685	100.797	-115.682	133.612	102.124	-117.250	-111.554	111.123	3.601	-113.381	-109.560	-107.631	-101.661	69.958	-104.830	-8191	255	
2235.007	1	1	0	0	0.13881	0.25802	0.078894	0.025954	0.19553	0.18729	0.22676	0.21513	0.1774	0.22776	0.072061	0.17596	0.096504	0.21817	0.20445	0.00911	-2.7958	-3.5208	-2.9542	-3.2979	-3.3146	-3.0521	-3.6042	-3.3375	-3.0417	-3.4667	-3.3792	-3.4167	-3.4146	-3.0667	-3.3937	-3.5896	172.626	189.651	185.374	-99.708	-120.638	-47.705	133.809	209.269	-34.443	-44.156	178.613	50.554	-101.687	-129.297	-42.577	-71.743	0.00024595	7.1663e-05	9.3125e-05	710.3	5.3917e-06	7.0827e-06	618.65	180.85	7.255e-06	4.7396e-06	173.77	55.59	56.85	22.544	5.5168e-06	27.205	0.0023572	0.0027161	0.00076214	728.16	2.8878e-05	2.9979e-05	632.71	185.37	2.89e-05	2.9958e-05	187.56	60.477	61.381	24.051	2.9283e-05	29.454	191.332	175.209	29.469	-115.794	49.886	-97.683	-117.300	-111.708	-88.583	-40.601	-113.511	-110.076	-107.426	-101.817	27.542	-104.929	-8191	255	
2235.103	1	1	0	0	0.10138	0.18481	0.12654	0.17759	0.13417	0.20131	0.061197	0.029527	0.10589	0.13422	0.19556	0.064491	0.20749	0.080653	0.10695	0.11806	-2.7333	-3.3375	-3.2938	-3.2604	-3.3792	-3.325	-3.4167	-3.3375	-3.0771	-3.5104	-3.3458	-3.2354	-3.4667	-3.2438	-3.4688	-3.5521	162.841	75.254	-112.092	-65.842	-80.363	75.981	201.284	-91.909	61.611	57.909	133.986	-66.749	-32.584	186.165	80.877	33.447	0.0002513	0.0002203	0.000182	712.54	8.6996e-06	3.5668e-06	620.47	180.12	1.6148e-06	2.6065e-06	174.59	56.385	57.158	22.586	3.9488e-06	27.372	0.0023523	0.0027103	0.000765	728.43	2.9213e-05	3.0223e-05	633.97	185.57	2.9088e-05	3.0339e-05	188.84	60.889	61.787	24.094	2.9428e-05	29.573	187.976	-113.868	8.859	-115.789	8.428	83.449	-117.105	-111.415	-106.740	-35.939	-113.481	-110.084	-107.549	-102.082	-48.497	-104.530	-8191	255	
2235.199	1	1	0	0	0.12207	0.075223	0.042917	0.27655	0.065359	0.18122	0.21557	0.070235	0.026005	0.21245	0.15851	0.20217	0.19762	0.1495	0.23197	0.19148	-2.6354	-3.4313	-3.1854	-3.0938	-3.4125	-3.2479	-3.5479	-3.4271	-3.1875	-3.5979	-3.5271	-3.3646	-3.4958	-3.1229	-3.225	-3.5021	63.434	63.149	-99.944	217.476	162.490	41.597	129.527	-101.537	51.133	154.633	-118.121	218.215	-47.872	157.368	-73.120	180.572	0.00015561	0.00052973	0.00011449	718.18	7.8709e-06	7.0667e-06	623.06	180.82	1.1152e-06	8.6423e-06	177.28	56.478	57.153	22.709	2.522e-06	27.329	0.0023522	0.0027036	0.00076744	731.61	2.9463e-05	3.0303e-05	636.24	186.25	2.9074e-05	3.0053e-05	189.71	61.275	61.839	24.154	2.9366e-05	29.526	160.519	-33.025	-26.003	-116.115	38.945	177.894	-117.037	-111.324	119.063	64.696	-113.350	-109.924	-107.607	-101.727	186.967	-104.558	-8191	255	
2235.318	1	1	0	0	0.18624	0.073045	0.14972	0.24617	0.22492	0.36613	0.22036	0.25475	0.24002	0.12911	0.30324	0.088548	0.21375	0.24989	0.26107	0.1317	-2.5708	-3.3542	-3.2771	-3.225	-3.5958	-3.125	-3.3937	-3.4667	-3.1979	-3.575	-3.5958	-3.0125	-3.5208	-3.3146	-3.35	-3.5292	210.579	-41.828	-30.162	100.367	156.017	-54.157	167.151	105.054	-84.794	108.790	77.741	63.923	160.081	196.553	160.524	-94.547	0.00014336	0.0010784	4.5559e-05	709.43	2.6917e-07	6.6347e-06	619.57	179.25	3.4973e-06	1.5058e-06	173.6	56.627	56.44	22.619	3.8331e-07	27.354	0.0023335	0.0026993	0.00075847	725.96	2.9163e-05	3.0026e-05	631.86	184.97	2.9081e-05	3.01e-05	188.01	60.761	61.236	24.166	2.9309e-05	29.64	161.773	163.136	106.995	-115.850	53.681	57.701	-116.962	-111.800	-44.042	-115.230	-113.475	-109.378	-107.190	-101.858	67.828	-104.795	-8191	255	
2235.414	1	1	0	0	0.16645	0.15635	0.16691	0.069224	0.017186	0.25217	0.20082	0.20836	0.083715	0.05021	0.25219	0.27989	0.14074	0.14482	0.185	0.14642	-2.6917	-3.3917	-3.3479	-3.1542	-3.5583	-3.2	-3.225	-3.4688	-3.2375	-3.4625	-3.5521	-3.2646	-3.3458	-3.4167	-3.3375	-3.5417	-11.907	-112.266	171.761	-114.671	198.128	100.693	142.702	104.596	227.727	216.047	201.953	166.837	-9.711	171.188	-54.980	160.460	0.00012887	0.00098039	0.00015318	709.8	9.1358e-06	6.9598e-06	618.51	180.3	1.1073e-06	9.5393e-06	175.38	56.597	56.759	22.804	3.8931e-06	27.743	0.0023372	0.0027138	0.00076062	726.21	2.8993e-05	3.0158e-05	632.94	185.16	2.8948e-05	3.0002e-05	188.99	61.148	61.67	24.316	2.9323e-05	29.948	149.217	50.974	-50.222	-115.727	-26.071	12.279	-116.952	-111.718	-66.501	15.809	-113.412	-110.105	-107.313	-102.008	91.622	-104.424	-8191	255	
2235.510	1	1	0	0	0.12558	0.16277	0.1563	0.1894	0.051319	0.063256	0.13675	0.091064	0.021888	0.24457	0.093067	0.060809	0.15327	0.13747	0.11972	0.12251	-2.7125	-3.2979	-3.6208	-3.0083	-3.2958	-3.3542	-3.1375	-3.4875	-3.3458	-3.2646	-3.5	-3.0667	-3.3271	-3.3667	-3.3625	-3.5125	56.945	229.177	224.922	-39.816	159.314	-53.541	110.410	61.082	57.915	69.578	77.046	163.269	19.366	169.350	136.469	171.815	0.00029286	0.00056444	0.00020069	715.22	5.7807e-06	5.3691e-06	620.5	180.65	6.2591e-06	2.8307e-06	175.6	56.826	57.223	23.093	3.9388e-06	28.105	0.0023366	0.0027158	0.00076361	728.42	2.9195e-05	3.0186e-05	634.55	185.58	2.892e-05	3.0069e-05	189.58	61.5	61.893	24.551	2.9207e-05	30.325	176.780	-6.152	-88.075	-115.668	-84.889	-63.108	-117.076	-111.433	144.067	207.288	-113.126	-109.914	-107.146	-102.092	-73.627	-105.048	-8191	255	
2235.607	1	1	0	0	0.096863	0.18593	0.18767	0.17024	0.12824	0.17118	0.17628	0.2629	0.39727	0.32505	0.20918	0.208	0.05151	0.29246	0.21399	0.11725	-2.85	-3.3729	-3.3583	-3.1979	-3.4146	-3.4458	-3.1958	-3.6437	-3.3521	-3.1854	-3.4854	-3.3583	-3.45	-3.4188	-3.1375	-3.4479	201.649	-117.876	122.410	182.127	213.576	137.764	194.205	151.931	7.631	146.027	116.068	119.057	6.833	152.413	168.680	74.816	0.00016226	0.0010873	0.00025274	707.35	5.4517e-06	4.9745e-06	620.42	179.64	6.5782e-06	7.2704e-06	174.93	56.472	56.761	22.934	1.9625e-06	27.946	0.002333	0.0027032	0.00075274	726.03	2.9019e-05	2.9654e-05	634.69	184.96	2.8595e-05	2.9665e-05	187.8	61.107	61.424	24.453	2.9016e-05	30.108	152.742	-63.184	10.460	-115.637	-114.915	131.348	-116.939	-111.395	107.266	113.911	-113.556	-109.918	-107.377	-101.603	114.493	-104.865	-8191	255	
2235.703	1	1	0	0	0.18877	0.12289	0.32419	0.2753	0.14232	0.10355	0.24455	0.35295	0.11864	0.19269	0.20928	0.11117	0.22717	0.030848	0.085268	0.34967	-2.85	-3.3854	-3.4667	-3.3063	-3.3417	-3.4104	-3.1479	-3.5208	-3.3021	-3.3688	-3.5208	-3.4229	-3.3208	-3.5125	-3.1479	-3.5667	19.781	35.567	-42.459	-104.965	137.456	87.038	117.351	216.157	41.072	-28.141	-23.021	-118.649	131.054	38.449	-77.516	74.878	0.00022648	0.00087271	5.0829e-05	707.53	5.9963e-06	4.7757e-06	617.65	179.23	2.625e-06	1.5711e-05	175.2	56.302	56.238	22.962	3.1045e-06	28.279	0.0023276	0.0026681	0.00075371	723.16	2.8906e-05	3.0033e-05	630.8	184.27	2.8892e-05	2.9617e-05	187.85	61.117	61.395	24.454	2.917e-05	30.4	163.527	-76.346	-15.077	-115.865	-19.707	77.540	-117.022	-111.580	-128.615	118.079	-113.625	-109.948	-107.522	-101.995	23.776	-104.832	-8191	255	
2235.799	1	1	0	0	0.046646	0.11052	0.093064	0.24467	0.12042	0.0054282	0.1156	0.2448	0.13263	0.057953	0.32387	0.23912	0.030641	0.31136	0.093971	0.16701	-2.9833	-3.3354	-3.425	-3.1625	-3.2729	-3.5125	-3.1583	-3.5771	-3.2729	-3.0896	-3.5604	-3.2521	-3.2	-3.4021	-3.3021	-3.3875	73.284	190.665	191.403	143.570	-44.783	-129.179	106.530	181.523	84.737	-39.947	61.632	173.717	206.953	-82.521	-32.481	106.764	0.00022403	0.00053998	4.3534e-05	712.6	5.9573e-06	2.8357e-06	621.21	180.68	2.0957e-06	5.8433e-06	174.53	57.164	57.23	23.061	5.7315e-06	28.452	0.0023448	0.0027117	0.00075315	725.13	2.9394e-05	2.9945e-05	635.26	185.46	2.9035e-05	3.0271e-05	188.95	61.658	61.967	24.604	2.941e-05	30.602	178.343	-58.935	41.558	-115.846	-21.849	126.811	-117.338	-111.362	183.205	60.303	-113.627	-109.981	-107.163	-102.065	33.689	-105.233	-8191	255	
2235.920	1	1	0	0	0.20799	0.14668	0.14099	0.15876	0.088479	0.11059	0.17767	0.083594	0.29225	0.1025	0.24715	0.1443	0.16385	0.11101	0.094104	0.1144	-2.8896	-3.1146	-3.2562	-3.2854	-3.4	-3.4562	-3.2208	-3.4854	-3.4125	-3.2354	-3.3917	-3.45	-3.25	-3.4396	-3.1583	-3.4542	-119.256	66.350	176.249	-41.473	-8.284	73.254	219.306	167.295	-43.913	221.785	173.017	91.046	145.322	152.889	135.986	62.530	0.00023889	0.0010061	0.00010726	711.47	4.1463e-06	5.5198e-06	619.24	179.79	2.3569e-06	4.0642e-06	175.52	56.963	57.48	23.06	3.2149e-06	28.332	0.0023697	0.0027115	0.00076999	727.87	2.9364e-05	3.0324e-05	635.69	185.36	2.9019e-05	3.0257e-05	189.54	61.66	61.822	24.589	2.9231e-05	30.451	178.102	-64.247	-54.494	-115.720	56.408	34.079	-117.005	-111.350	135.731	-55.502	-113.282	-110.078	-107.707	-101.693	64.313	-104.837	-8191	255	
2236.016	1	1	0	0	0.26121	0.1813	0.10141	0.11411	0.12607	0.22374	0.31947	0.052638	0.11603	0.19334	0.11656	0.19753	0.098438	0.084694	0.1033	0.2282	-3.0062	-3.1	-3.4021	-3.3208	-3.1917	-3.5604	-3.3708	-3.3688	-3.3937	-3.1771	-3.3542	-3.2521	-3.2354	-3.5708	-3.2479	-3.4708	-124.565	125.281	154.787	-123.202	-101.974	171.566	200.377	189.301	143.815	30.305	25.268	0.079	109.886	-18.953	103.574	75.023	0.00017144	8.9543e-05	5.0036e-05	706.81	7.8796e-06	4.3824e-06	618.02	178.75	7.1916e-06	9.0254e-06	175.11	56.486	56.702	22.92	1.2008e-06	27.855	0.0023414	0.0026918	0.00076487	724.97	2.9228e-05	2.9809e-05	631.43	184.06	2.9003e-05	3.0099e-05	187.93	61.125	61.366	24.456	2.9302e-05	30.141	143.855	192.673	-58.575	-115.853	89.658	-2.417	-116.858	-111.493	-63.006	-106.187	-113.681	-109.212	-107.516	-101.826	-34.565	-104.711	-8191	255	
2236.110	1	1	0	0	0.21329	0.25018	0.15048	0.20616	0.2221	0.1413	0.27659	0.27613	0.23105	0.058317	0.1811	0.1728	0.12558	0.16222	0.18971	0.23247	-3.0687	-3.1708	-3.3583	-3.3958	-3.2438	-3.4521	-3.3771	-3.5396	-3.5354	-3.1	-3.5	-3.4062	-3.1312	-3.4188	-3.3792	-3.2271	3.501	-64.895	139.044	-104.928	-105.944	143.475	118.870	-126.680	-122.956	86.532	227.317	224.415	-58.650	-50.525	31.369	107.532	0.00018623	0.00054904	0.00026233	709.44	5.0883e-06	7.9777e-06	615.92	180.19	3.0294e-06	1.3915e-05	175.88	56.812	56.66	22.933	2.3313e-06	28.266	0.0023364	0.0027055	0.00076939	724.74	2.9308e-05	3.035e-05	633.28	185.3	2.9187e-05	3.0667e-05	188.79	61.523	61.727	24.512	2.9814e-05	30.468	156.596	154.266	-58.646	-115.784	-18.102	61.893	-117.164	-111.379	200.232	-67.551	-113.307	-109.796	-107.286	-101.556	-51.818	-104.995	-8191	255	
2236.206	1	1	0	0	0.069625	0.25159	0.12544	0.052543	0.18512	0.020503	0.15234	0.20942	0.14032	0.091756	0.033245	0.12872	0.15302	0.077687	0.11291	0.13513	-3.0521	-3.1479	-3.2417	-3.3771	-3.1771	-3.5125	-3.4667	-3.2646	-3.4521	-3.2438	-3.4688	-3.5792	-3.0021	-3.2146	-3.3292	-3.2458	97.049	8.813	142.964	-83.923	9.540	82.145	212.301	-51.589	-20.410	165.844	51.670	215.726	91.954	-74.750	49.504	205.941	0.00019636	0.00011722	9.0929e-05	714.38	6.4516e-06	4.1018e-06	620.96	179.24	4.4939e-06	5.5165e-06	177.34	57.398	57.651	22.995	1.9116e-06	28.274	0.0023851	0.0027582	0.00077833	728.45	2.9686e-05	3.1202e-05	636.28	185.69	2.9809e-05	3.0902e-05	190.83	61.966	62.229	24.623	3.0147e-05	30.573	157.827	-7.214	36.419	-116.189	-29.098	7.812	-117.332	-111.460	-31.003	198.007	-113.678	-110.230	-107.505	-102.119	159.450	-105.293	-8191	255	
2236.302	1	1	0	0	0.16075	0.085178	0.13655	0.081769	0.053892	0.037121	0.10994	0.16068	0.11429	0.070968	0.20878	0.11406	0.26287	0.10138	0.049245	0.217	-3.0896	-3.1958	-3.2562	-3.4396	-3.225	-3.5521	-3.3854	-3.2	-3.3875	-3.125	-3.3021	-3.4437	-3.1417	-3.3646	-3.2062	-3.0833	80.872	-115.041	149.674	216.756	7.596	85.117	221.156	69.307	-28.063	63.795	133.935	-9.095	225.167	34.923	137.198	48.319	0.00026332	0.0006066	0.00018555	710.96	6.2473e-06	2.8378e-06	619.76	179.58	5.0308e-06	1.5438e-06	174.25	56.978	56.517	22.946	1.7907e-06	27.832	0.0023977	0.0028099	0.00077706	726.42	2.9836e-05	3.0676e-05	635.46	185.08	2.9575e-05	3.1012e-05	189.15	61.416	61.809	24.472	2.9734e-05	30.217	166.555	189.017	-118.608	-115.978	11.955	90.386	-117.334	-111.344	-86.128	71.406	-113.706	-109.892	-106.999	-101.992	35.742	-104.821	-8191	255	
#DATA ENDS
