BOXY.EXE: ISS Imagent and Oximeter Data Acquisition Program Version 0.80
Ascii Record File

#ACQ INFORMATION
2  Detector Channels 
16  External MUX Channels 
1  Auxiliary Channels 
5000  Waveform (CCF) Frequency (Hz)
1  Waveforms Skipped 
30  Waveforms Averaged 
1  Cycles Averaged 
16  Acquisitions per Waveform 
10.0806  Updata Rate (Hz) 

#FILE INFORMATION
TRUE -- External MUX Channel results are PARSED.
FALSE -- AC DC and Phase are NOT grouped.
TRUE -- Companion Program Settings File CREATED.
FALSE -- AC data not excluded
FALSE -- DC data not excluded
FALSE -- Phase data not excluded
FALSE -- Auxillary Chn. data not excluded
Tab delimiters

#CALIBRATION STATE
TRUE -- Waveform Calibration Values APPLIED.


#AUX CALIBRATION VALUES
Val Type	aux-1	

Term	1.0000e+00	
Factor	0.0000e+00	


#WF CALIBRATION VALUES
A = Detector Channel
Val Type	A-AC1	A-AC2	A-AC3	A-AC4	A-AC5	A-AC6	A-AC7	A-AC8	A-AC9	A-AC10	A-AC11	A-AC12	A-AC13	A-AC14	A-AC15	A-AC16	A-DC1	A-DC2	A-DC3	A-DC4	A-DC5	A-DC6	A-DC7	A-DC8	A-DC9	A-DC10	A-DC11	A-DC12	A-DC13	A-DC14	A-DC15	A-DC16	A-Ph1	A-Ph2	A-Ph3	A-Ph4	A-Ph5	A-Ph6	A-Ph7	A-Ph8	A-Ph9	A-Ph10	A-Ph11	A-Ph12	A-Ph13	A-Ph14	A-Ph15	A-Ph16	

Term	0.00000e+00	0.00000e+00	0.00000e+00	0.00000e+00	0.00000e+00	0.00000e+00	0.00000e+00	0.00000e+00	0.00000e+00	0.00000e+00	0.00000e+00	0.00000e+00	0.00000e+00	0.00000e+00	0.00000e+00	0.00000e+00	0.00000e+00	0.00000e+00	0.00000e+00	0.00000e+00	0.00000e+00	0.00000e+00	0.00000e+00	0.00000e+00	0.00000e+00	0.00000e+00	0.00000e+00	0.00000e+00	0.00000e+00	0.00000e+00	0.00000e+00	0.00000e+00	0.00000e+00	0.00000e+00	0.00000e+00	0.00000e+00	0.00000e+00	0.00000e+00	0.00000e+00	0.00000e+00	0.00000e+00	0.00000e+00	0.00000e+00	0.00000e+00	0.00000e+00	0.00000e+00	0.00000e+00	0.00000e+00	
Factor	1.00000e+00	1.00000e+00	1.00000e+00	1.00000e+00	1.00000e+00	1.00000e+00	1.00000e+00	1.00000e+00	1.00000e+00	1.00000e+00	1.00000e+00	1.00000e+00	1.00000e+00	1.00000e+00	1.00000e+00	1.00000e+00	1.00000e+00	1.00000e+00	1.00000e+00	1.00000e+00	1.00000e+00	1.00000e+00	1.00000e+00	1.00000e+00	1.00000e+00	1.00000e+00	1.00000e+00	1.00000e+00	1.00000e+00	1.00000e+00	1.00000e+00	1.00000e+00	X	X	X	X	X	X	X	X	X	X	X	X	X	X	X	X	

B = Detector Channel
Val Type	B-AC1	B-AC2	B-AC3	B-AC4	B-AC5	B-AC6	B-AC7	B-AC8	B-AC9	B-AC10	B-AC11	B-AC12	B-AC13	B-AC14	B-AC15	B-AC16	B-DC1	B-DC2	B-DC3	B-DC4	B-DC5	B-DC6	B-DC7	B-DC8	B-DC9	B-DC10	B-DC11	B-DC12	B-DC13	B-DC14	B-DC15	B-DC16	B-Ph1	B-Ph2	B-Ph3	B-Ph4	B-Ph5	B-Ph6	B-Ph7	B-Ph8	B-Ph9	B-Ph10	B-Ph11	B-Ph12	B-Ph13	B-Ph14	B-Ph15	B-Ph16	

Term	0.00000e+00	0.00000e+00	0.00000e+00	0.00000e+00	0.00000e+00	0.00000e+00	0.00000e+00	0.00000e+00	0.00000e+00	0.00000e+00	0.00000e+00	0.00000e+00	0.00000e+00	0.00000e+00	0.00000e+00	0.00000e+00	0.00000e+00	0.00000e+00	0.00000e+00	0.00000e+00	0.00000e+00	0.00000e+00	0.00000e+00	0.00000e+00	0.00000e+00	0.00000e+00	0.00000e+00	0.00000e+00	0.00000e+00	0.00000e+00	0.00000e+00	0.00000e+00	-1.62352e+02	-1.41008e+02	-1.11495e+02	-1.83984e+02	-1.11418e+02	-7.45502e+01	-1.55811e+02	-1.62015e+02	-8.09347e+01	-4.80968e+01	-1.73154e+02	-1.73613e+02	-1.86815e+02	-1.78292e+02	-6.95269e+01	-1.50256e+02	
Factor	2.31503e-05	1.21955e-04	3.53977e-05	1.73479e-01	9.55770e-07	1.44040e-06	1.63553e-01	5.56841e-02	9.89360e-07	1.12439e-06	9.67085e-02	2.82450e-02	5.57543e-02	8.47876e-03	1.11573e-06	1.21845e-02	1.04864e-06	1.07952e-06	3.00291e-07	8.44363e-02	1.18273e-08	1.18528e-08	7.57509e-02	2.71375e-02	1.18471e-08	1.18386e-08	4.50717e-02	1.32853e-02	2.55029e-02	4.11310e-03	1.18525e-08	5.73167e-03	X	X	X	X	X	X	X	X	X	X	X	X	X	X	X	X	



#DISTANCE SETTINGS
A = Detector Channel
A-1	A-2	A-3	A-4	A-5	A-6	A-7	A-8	A-9	A-10	A-11	A-12	A-13	A-14	A-15	A-16	

2.5000e+00	3.0000e+00	2.5000e+00	3.0000e+00	2.0000e+00	3.0000e+00	1.5000e+00	3.0000e+00	3.0000e+00	3.0000e+00	3.0000e+00	3.0000e+00	3.0000e+00	3.0000e+00	1.5000e+00	3.0000e+00	

B = Detector Channel
B-1	B-2	B-3	B-4	B-5	B-6	B-7	B-8	B-9	B-10	B-11	B-12	B-13	B-14	B-15	B-16	

1.0000e+01	1.0000e+01	1.0000e+01	1.4400e+00	1.0000e+01	1.0000e+01	1.5100e+00	1.9400e+00	1.0000e+01	1.0000e+01	1.9900e+00	2.4900e+00	2.4100e+00	2.9000e+00	1.0000e+01	2.9800e+00	




#DATA BEGINS
time	group	step	mark	flag	A-AC1	A-AC2	A-AC3	A-AC4	A-AC5	A-AC6	A-AC7	A-AC8	A-AC9	A-AC10	A-AC11	A-AC12	A-AC13	A-AC14	A-AC15	A-AC16	A-DC1	A-DC2	A-DC3	A-DC4	A-DC5	A-DC6	A-DC7	A-DC8	A-DC9	A-DC10	A-DC11	A-DC12	A-DC13	A-DC14	A-DC15	A-DC16	A-Ph1	A-Ph2	A-Ph3	A-Ph4	A-Ph5	A-Ph6	A-Ph7	A-Ph8	A-Ph9	A-Ph10	A-Ph11	A-Ph12	A-Ph13	A-Ph14	A-Ph15	A-Ph16	B-AC1	B-AC2	B-AC3	B-AC4	B-AC5	B-AC6	B-AC7	B-AC8	B-AC9	B-AC10	B-AC11	B-AC12	B-AC13	B-AC14	B-AC15	B-AC16	B-DC1	B-DC2	B-DC3	B-DC4	B-DC5	B-DC6	B-DC7	B-DC8	B-DC9	B-DC10	B-DC11	B-DC12	B-DC13	B-DC14	B-DC15	B-DC16	B-Ph1	B-Ph2	B-Ph3	B-Ph4	B-Ph5	B-Ph6	B-Ph7	B-Ph8	B-Ph9	B-Ph10	B-Ph11	B-Ph12	B-Ph13	B-Ph14	B-Ph15	B-Ph16	aux-1	digaux	

5885.798	1	1	0	768	0.083389	0.034079	0.046728	0.12553	0.096338	0.11754	0.25176	0.1011	0.078782	0.064083	0.16737	0.23999	0.044861	0.18656	0.18514	0.17846	-2.4125	-3.1875	-2.6521	-2.9708	-3.2729	-2.8937	-2.9833	-3.1312	-2.7729	-3.1333	-2.7625	-2.9667	-3.2625	-3.1042	-3.0479	-3.2042	242.102	200.341	242.422	405.275	401.740	361.733	460.892	272.508	354.550	516.211	493.510	183.186	249.035	517.634	474.177	470.364	0.0012436	0.00091962	0.0002196	712.41	3.4189e-06	1.2745e-05	769.52	308.63	2.9423e-06	5.466e-06	374.28	157.83	137.11	65.086	1.0947e-05	79.786	0.0013736	0.001491	0.00042789	814.53	1.5098e-05	1.6526e-05	871.07	341.18	1.5284e-05	1.6612e-05	426.21	172.02	158.94	70.292	1.68e-05	86.153	519.861	502.965	293.842	179.489	463.737	290.603	178.129	184.297	268.627	195.673	182.155	186.094	187.512	194.111	375.119	190.629	-8191	255	
5885.894	1	1	0	0	0.20236	0.17539	0.012625	0.0796	0.056222	0.11618	0.12265	0.10365	0.17425	0.15146	0.14403	0.15843	0.023322	0.41282	0.10717	0.28247	-2.3417	-3.2604	-3.0333	-2.9354	-3.1521	-2.9313	-3.2417	-3.25	-2.825	-3.1333	-3.1083	-2.8187	-3.1625	-2.8771	-3.2021	-3.3354	197.328	288.345	183.105	458.438	449.763	175.117	446.728	400.557	390.863	468.912	446.080	460.661	467.506	513.596	317.639	472.479	0.001074	0.00053214	0.00024892	709.58	1.054e-06	5.4162e-06	767.21	309.1	5.2314e-06	8.0488e-06	373.66	156.75	136.51	65.174	9.189e-06	79.873	0.0013982	0.0015638	0.00042249	811.91	1.549e-05	1.7251e-05	865.86	341.35	1.5637e-05	1.7179e-05	424	170.98	159.68	70.354	1.6186e-05	85.835	515.791	183.920	314.069	179.568	254.706	299.101	178.357	184.119	215.378	499.752	182.370	185.928	187.158	194.167	311.308	190.466	-8191	255	
5885.990	1	1	0	0	0.39108	0.041166	0.17531	0.040231	0.16055	0.045549	0.26084	0.23037	0.11265	0.27958	0.17314	0.21495	0.11798	0.25996	0.1328	0.36579	-2.5458	-3.0979	-2.8354	-2.9042	-3.2167	-2.9688	-3.0625	-3.0729	-2.6042	-3.0667	-3.0771	-3	-3.0729	-3.05	-2.8042	-3.2875	491.259	371.869	245.094	433.311	199.477	267.920	376.852	450.021	319.118	524.372	415.841	186.275	507.723	515.696	215.008	468.704	0.0011035	0.00093033	0.00025717	708.14	8.4023e-06	8.1147e-06	767.71	310.25	6.7629e-06	4.993e-06	374.12	157.22	136.67	65.191	8.8759e-06	80.205	0.001433	0.001564	0.00040888	808.08	1.5993e-05	1.7127e-05	863.46	339.88	1.6234e-05	1.71e-05	423.7	171.28	161.59	70.264	1.5886e-05	85.854	514.615	282.354	331.828	179.696	182.205	396.063	178.104	183.945	197.630	380.295	181.874	185.880	186.896	194.032	328.889	190.717	-8191	255	
5886.087	1	1	0	0	0.41328	0.076404	0.35422	0.17102	0.18033	0.047164	0.15909	0.22645	0.11068	0.27585	0.29344	0.20171	0.089896	0.21716	0.23692	0.15803	-2.3854	-3.1333	-2.9667	-2.8563	-3.1312	-2.9938	-3.1437	-3.1333	-2.875	-3.0542	-3.0604	-2.9062	-3.1542	-3.1437	-2.9042	-3.3958	458.211	266.743	481.631	476.889	236.775	243.874	228.276	474.084	266.123	411.675	487.500	226.940	285.240	220.772	372.508	456.028	0.0014292	0.00087059	0.00029334	711.89	9.2292e-06	4.5504e-06	770.47	310.58	6.1502e-06	7.406e-06	375.05	157.81	138.36	65.262	1.0536e-05	80.395	0.0014913	0.0015199	0.00039859	805.87	1.6479e-05	1.6571e-05	863.51	340.53	1.6708e-05	1.6515e-05	423.14	172.13	163.33	70.385	1.5705e-05	86.503	525.673	216.607	313.573	179.424	220.752	397.231	177.859	184.081	196.073	398.826	182.103	185.886	187.199	194.095	319.694	190.624	-8191	255	
5886.183	1	1	0	0	0.1981	0.13409	0.2206	0.096405	0.26345	0.036912	0.28276	0.31807	0.16723	0.28043	0.31458	0.16698	0.070509	0.28157	0.22371	0.16802	-2.4875	-2.9375	-3.1583	-3.0333	-2.8771	-3.0104	-2.9188	-3.2812	-2.8521	-3.0417	-3.3146	-3.0771	-3.0458	-3.2042	-2.825	-3.4021	167.780	315.244	286.760	320.699	267.561	196.002	491.019	444.252	382.656	376.485	480.805	500.533	427.452	500.754	303.877	489.265	0.00087356	0.00081582	0.00031476	713.6	9.3531e-06	7.0315e-06	776.36	311.5	4.1452e-06	2.7991e-06	378.8	158.77	138.42	65.407	1.5144e-05	80.774	0.0015459	0.0015147	0.00039702	813.46	1.7132e-05	1.6334e-05	866.2	343.43	1.7139e-05	1.6192e-05	423.52	173.19	163.28	70.255	1.507e-05	86.951	518.499	244.940	244.674	179.573	254.045	387.321	178.024	184.026	320.286	317.441	182.279	185.728	187.592	193.883	348.233	190.645	-8191	255	
5886.279	1	1	0	0	0.20602	0.3732	0.17646	0.21301	0.13741	0.25528	0.083629	0.17824	0.27407	0.25033	0.12854	0.25174	0.1053	0.15723	0.14088	0.17284	-2.4771	-2.8833	-3.2542	-2.8937	-3.2354	-2.975	-2.875	-3.2083	-2.9	-2.9271	-3.3229	-2.95	-3.1458	-3.1021	-2.9125	-3.0708	213.479	454.377	392.033	465.489	346.577	464.390	184.043	486.340	386.975	187.143	318.000	174.144	519.261	168.183	239.787	425.195	0.0010247	0.00087285	0.0001661	711.1	1.5431e-05	1.3664e-05	769.07	310.8	5.5285e-06	5.3746e-06	377.31	159.06	137.24	64.994	2.2781e-06	80.35	0.001515	0.0014279	0.0003801	813.7	1.6589e-05	1.5651e-05	856.79	343.56	1.6732e-05	1.576e-05	421.39	173.17	162.39	69.872	1.5043e-05	86.786	524.117	291.164	348.446	179.463	271.286	322.085	178.083	184.047	367.357	480.793	182.261	185.677	187.222	194.046	476.381	190.654	-8191	255	
5886.400	1	1	0	0	0.043735	0.3083	0.1648	0.17457	0.053845	0.166	0.045273	0.17155	0.15053	0.29278	0.23332	0.17393	0.17014	0.15017	0.1945	0.30277	-2.6292	-2.8979	-3.1396	-2.8792	-3.0583	-3.1083	-2.8667	-3.2146	-2.9813	-2.8896	-3.2812	-3.0354	-3.0792	-3.2562	-2.85	-3.2958	233.897	258.762	187.209	330.997	349.831	503.477	417.129	498.032	296.618	432.903	338.553	263.557	511.296	455.093	242.668	462.301	0.00081655	0.0010866	0.00038236	706.98	1.2052e-05	1.1999e-05	767.7	309.48	4.9196e-06	1.2924e-05	377.22	158.63	137.18	65.138	9.5636e-06	80.185	0.0015013	0.0014324	0.0003804	816	1.6296e-05	1.5519e-05	856.66	343.33	1.6137e-05	1.5259e-05	420.07	173.42	160.58	69.505	1.508e-05	86.649	519.348	253.123	230.569	179.335	243.377	285.794	178.040	184.082	293.394	407.185	182.178	185.773	187.636	194.234	177.492	190.398	-8191	255	
5886.496	1	1	0	0	0.44548	0.29911	0.14885	0.088727	0.12567	0.17406	0.23685	0.094525	0.20681	0.15484	0.1387	0.37283	0.038996	0.073903	0.16599	0.37967	-2.5708	-2.8354	-3.1083	-3.0375	-2.9125	-3.1521	-2.8438	-3.1604	-3.0354	-2.8688	-3.2958	-2.9292	-3.0771	-3.3125	-2.9875	-3.0646	502.784	498.167	186.729	449.357	380.478	194.293	199.559	503.604	461.663	479.245	217.142	186.859	213.377	422.240	518.290	492.410	0.0011124	0.00079928	0.00042999	707.3	6.4581e-06	4.3443e-06	774.91	310.42	7.7194e-06	1.004e-05	375.66	158.31	137.36	64.973	8.105e-06	80.535	0.001425	0.0013718	0.00038773	816.33	1.5745e-05	1.5083e-05	863.64	344.48	1.5988e-05	1.5206e-05	424.21	174.29	161.16	69.66	1.6074e-05	87.161	524.211	230.703	255.706	179.481	218.935	343.576	178.017	184.204	346.771	396.942	181.941	186.028	186.981	194.043	261.096	190.718	-8191	255	
5886.590	1	1	0	0	0.22874	0.078259	0.20118	0.14567	0.11803	0.29707	0.34887	0.24	0.13716	0.47579	0.19999	0.17759	0.16703	0.12333	0.10083	0.14553	-2.7875	-2.9542	-3.1479	-3.0146	-3.0271	-3.1625	-3.0479	-3.2062	-3.0708	-3.0062	-3.2917	-3.1208	-2.9188	-3.3354	-3.0542	-3.2062	518.196	475.984	369.691	363.030	512.637	493.845	478.806	461.774	298.263	339.938	407.463	497.536	525.990	513.883	366.134	482.308	0.0012588	0.0012941	0.00010086	713.34	3.3729e-06	8.8759e-06	772.4	309.23	3.2616e-06	4.1202e-06	376.47	158.78	137.04	65.074	1.0801e-05	80.557	0.0014275	0.0013704	0.00040685	818.03	1.548e-05	1.482e-05	867.11	343.32	1.5466e-05	1.4859e-05	426.74	173.63	159.96	69.557	1.6616e-05	87.186	172.382	256.579	234.957	179.343	302.712	297.571	177.969	184.383	316.611	468.659	182.233	185.827	187.373	194.057	284.772	190.746	-8191	255	
5886.688	1	1	0	0	0.14172	0.054514	0.079461	0.11563	0.19151	0.15955	0.058716	0.10444	0.20278	0.15188	0.28989	0.11048	0.068329	0.17088	0.23454	0.16387	-2.6271	-2.9604	-3.1604	-3.15	-2.8146	-3.1542	-3.05	-3.0042	-3.1042	-2.9208	-3.2833	-3.0187	-3.0021	-3.2625	-3.0125	-3.2687	449.524	312.087	393.533	453.112	180.521	246.332	463.894	442.263	189.942	491.602	432.686	494.115	224.452	184.829	466.578	453.780	0.00098738	0.00083941	0.00023238	708.53	1.6127e-06	4.454e-06	774.39	309.5	6.4086e-06	3.4604e-06	375.28	158.54	137.95	64.912	7.119e-06	80.136	0.0014182	0.0013879	0.00043091	816.93	1.5729e-05	1.5547e-05	875.29	343.64	1.5643e-05	1.5619e-05	429.84	173.46	160.21	69.834	1.7242e-05	86.747	523.620	189.299	210.568	179.508	214.677	497.273	178.300	184.089	293.073	291.021	182.076	185.534	187.439	193.772	362.652	190.759	-8191	255	
5886.782	1	1	0	0	0.27673	0.27383	0.14039	0.27937	0.060577	0.28078	0.035209	0.2277	0.18927	0.1076	0.24991	0.30987	0.1585	0.21048	0.15547	0.35191	-2.6875	-2.7958	-3.1188	-3.1271	-2.9062	-3.2167	-3.0583	-3.025	-3.0458	-2.9167	-3.1771	-3.2708	-2.8937	-3.3917	-2.975	-3.0979	429.723	213.020	231.116	519.084	343.974	166.520	329.999	199.256	317.180	422.739	503.539	469.045	375.227	470.063	518.476	461.860	0.001195	0.0012163	0.00023458	710.21	5.4537e-06	6.6723e-06	774.14	308.89	2.0345e-06	1.7134e-05	374.32	157.51	136.8	64.842	2.0424e-06	79.936	0.0014106	0.0014456	0.0004359	812.42	1.5389e-05	1.6135e-05	873.02	342.59	1.5401e-05	1.6385e-05	428.69	172.39	159.01	69.846	1.7295e-05	86.274	525.191	178.908	329.905	179.307	266.254	276.118	178.283	184.276	486.591	233.258	182.391	185.883	187.253	194.093	421.242	190.685	-8191	255	
5886.879	1	1	0	0	0.10911	0.10538	0.058278	0.34897	0.20924	0.13699	0.0769	0.19973	0.028382	0.048925	0.044494	0.34963	0.30399	0.085684	0.087825	0.021309	-2.8292	-2.9042	-2.9729	-3.1688	-2.8792	-3.2354	-3.1188	-3.0521	-3.2375	-2.8979	-3.3375	-3.3604	-2.9917	-3.3875	-3.0896	-3.0729	252.427	231.295	245.413	521.588	211.866	370.599	397.275	508.799	237.285	195.522	261.716	504.771	359.019	457.562	413.898	255.932	0.0010264	0.0015293	0.00029333	708.49	6.2344e-06	1.0386e-05	774.43	307.04	6.6867e-06	8.592e-06	372.92	156.93	136.43	64.52	9.1895e-06	79.74	0.0014038	0.0015382	0.00043681	810.85	1.5454e-05	1.6879e-05	871.92	340.42	1.5373e-05	1.6859e-05	425.2	171.45	158.55	69.843	1.6655e-05	85.96	519.378	178.857	359.402	179.436	322.489	269.696	178.075	184.312	286.911	273.914	182.445	185.794	187.421	193.982	360.495	190.737	-8191	255	
5886.975	1	1	0	0	0.21038	0.28088	0.28	0.10618	0.033977	0.17391	0.16131	0.36898	0.28784	0.2457	0.092267	0.15914	0.1628	0.31593	0.12191	0.29334	-2.7562	-2.8979	-2.9271	-3.3167	-2.7687	-3.2083	-3.0875	-3.0479	-3.0458	-2.9333	-3.1188	-3.2479	-2.9688	-3.1688	-2.9667	-2.9562	344.920	265.628	493.221	270.624	370.703	309.697	354.103	415.390	235.532	325.067	230.606	507.855	495.653	504.176	336.993	431.497	0.0013559	0.00078351	0.00020542	705.55	5.4971e-06	1.2921e-05	771.91	307.63	9.5978e-06	7.2207e-06	373.9	157.62	136.71	64.728	1.2395e-05	80.391	0.0014119	0.0015761	0.00042223	808.13	1.5736e-05	1.7498e-05	871.04	339.97	1.5884e-05	1.7316e-05	425.63	171.83	160.4	70.024	1.6344e-05	86.321	520.238	495.629	358.579	179.434	283.684	356.815	177.921	184.069	264.843	304.929	182.039	186.039	187.170	193.889	352.856	190.646	-8191	255	
5887.095	1	1	0	0	0.098975	0.099932	0.08414	0.091775	0.22439	0.07107	0.063192	0.17095	0.13073	0.2138	0.19191	0.20439	0.12297	0.1918	0.2237	0.32173	-2.75	-2.6125	-2.95	-3.3333	-2.7625	-2.9979	-3.0771	-2.8854	-3.0875	-3.0896	-3.0312	-3.0938	-2.9083	-3.1729	-3.1229	-2.8187	491.569	289.209	257.927	294.855	361.763	435.657	461.853	477.806	425.801	230.878	468.963	505.594	348.233	484.783	266.927	440.317	0.0011365	0.00076327	0.00020525	707.26	4.0404e-06	1.0955e-05	777.14	308.59	3.3532e-06	8.6818e-06	377.5	157.96	136.32	64.99	1.376e-05	79.999	0.0014773	0.0015838	0.00041566	809.56	1.6446e-05	1.747e-05	873.3	341.16	1.6794e-05	1.7427e-05	426.8	172.69	162.65	70.19	1.6469e-05	86.246	520.043	331.653	250.732	179.549	240.113	380.627	177.905	184.056	223.491	393.010	182.226	185.789	187.102	194.045	271.657	190.763	-8191	255	
5887.191	1	1	0	0	0.073304	0.18152	0.043875	0.24452	0.28624	0.14873	0.12669	0.13831	0.1726	0.18203	0.20124	0.22079	0.34143	0.28492	0.16287	0.15124	-2.65	-2.8896	-2.7771	-3.1083	-2.8917	-3.0687	-3.2208	-3.1854	-3.0854	-3.1167	-3.0896	-3.3375	-2.975	-3.2125	-3.0875	-2.9542	299.290	166.789	201.719	466.137	179.742	302.852	395.969	445.035	506.573	369.226	333.303	378.605	194.701	504.349	381.737	490.655	0.0011791	0.00056701	0.00014098	707.49	8.8826e-06	1.5113e-05	770.14	309.59	7.3367e-06	4.7476e-06	374.79	157.29	136.56	64.438	6.7272e-06	79.522	0.0015671	0.0015798	0.00041791	808.17	1.7348e-05	1.731e-05	868.54	342.19	1.7573e-05	1.7118e-05	424.64	172.01	163.58	69.624	1.6176e-05	85.778	521.714	214.638	463.543	179.700	220.591	320.116	178.186	184.182	234.615	351.209	182.314	186.015	187.355	194.158	235.168	190.795	-8191	255	
5887.288	1	1	0	0	0.15258	0.11621	0.19478	0.18137	0.26951	0.16534	0.15795	0.231	0.31418	0.21837	0.10524	0.1737	0.11288	0.1634	0.1607	0.24634	-2.5104	-2.9333	-2.8063	-3.275	-3.0167	-3.0646	-3.2458	-2.9938	-3.2771	-3.125	-2.9417	-3.2417	-3.0125	-3.1271	-3.475	-2.9604	168.279	489.407	353.228	483.518	268.186	507.694	478.036	177.085	426.221	167.301	293.011	384.243	348.639	460.869	169.415	492.615	0.00099736	0.0009074	0.00027127	704.07	7.3717e-06	1.8713e-05	765.88	308.63	4.5104e-06	8.0308e-06	373.17	156.83	135.47	64.306	1.0074e-05	79.754	0.0015924	0.0015379	0.00040712	809.66	1.7699e-05	1.6958e-05	862.05	341.38	1.7874e-05	1.6881e-05	422.52	172.41	163.6	69.493	1.5969e-05	86.303	519.026	295.339	309.274	179.570	299.314	335.982	178.069	184.003	171.306	268.752	182.162	185.864	187.383	194.167	285.503	190.728	-8191	255	
5887.384	1	1	0	0	0.2639	0.16634	0.21292	0.2545	0.14163	0.15896	0.25924	0.077463	0.22307	0.17728	0.044414	0.16077	0.30755	0.15434	0.12287	0.24895	-2.6125	-3.0125	-2.8583	-3.3	-3.0271	-2.9583	-3.2146	-2.8771	-3.1875	-2.9771	-2.9062	-3.2292	-2.9229	-3.0875	-3.3271	-3.0896	461.409	233.579	491.767	490.435	408.131	335.929	455.347	197.020	182.775	191.339	327.564	439.697	506.298	517.474	428.798	517.048	0.00098845	0.0016618	0.00022122	701.99	1.2444e-05	7.293e-06	773.21	308.24	8.7278e-07	1.4409e-05	374.07	157.45	136.55	64.175	6.264e-06	79.974	0.0016259	0.0015482	0.00041114	817.51	1.8e-05	1.7125e-05	867.21	344.59	1.8088e-05	1.7094e-05	424.6	174.24	164.35	69.533	1.6479e-05	87	526.006	243.336	220.492	179.699	352.041	430.153	178.268	183.998	481.967	347.342	182.164	185.987	187.488	193.966	301.457	190.518	-8191	255	
5887.480	1	1	0	0	0.32853	0.092638	0.098529	0.14742	0.098646	0.11932	0.18639	0.34786	0.18957	0.16454	0.061829	0.31827	0.13953	0.24107	0.1375	0.18633	-2.7875	-3.0479	-2.8667	-3.3542	-2.9396	-2.9292	-3.3125	-2.8479	-3.0229	-3.2104	-2.9229	-3.1229	-2.9104	-2.9667	-3.2562	-3.0458	234.962	301.124	246.838	241.288	391.172	478.235	212.917	181.639	444.502	207.474	419.488	462.689	290.647	169.440	460.970	214.380	0.0010741	0.0003552	0.0002534	704.36	1.0413e-05	1.0621e-05	768.55	306.89	4.6908e-06	3.2641e-06	373.01	157.54	135.68	64.153	1.403e-05	79.655	0.0016338	0.0015655	0.00042124	824.94	1.7887e-05	1.6977e-05	869.15	344.98	1.7836e-05	1.6938e-05	426.31	174.89	163.61	69.461	1.7088e-05	87.48	169.306	315.801	277.187	179.673	272.155	300.516	178.173	184.202	273.873	270.662	182.331	186.048	187.593	194.015	214.640	190.610	-8191	255	
5887.576	1	1	0	0	0.0534	0.078808	0.044981	0.08527	0.10053	0.35973	0.14931	0.26156	0.28196	0.26476	0.19068	0.27109	0.31766	0.22765	0.23445	0.25419	-2.6354	-3.1417	-2.7771	-3.1125	-3.1896	-2.8375	-3.3125	-3.0271	-3.0229	-3.0729	-2.8708	-3.1979	-3.0896	-3.0042	-3.2833	-3.0521	400.236	223.106	407.010	452.738	427.841	413.501	488.123	464.822	175.926	384.084	169.697	496.809	405.953	490.102	187.900	452.124	0.0010456	0.00029728	0.00025176	703.28	5.887e-06	2.268e-05	771.06	308.63	7.626e-06	3.3365e-06	372.8	156.71	134.83	63.985	7.3478e-06	79.221	0.0015994	0.0015346	0.00043995	827.27	1.7664e-05	1.681e-05	873.23	345.75	1.7682e-05	1.6772e-05	428.24	174.56	162.4	69.093	1.7719e-05	86.807	519.085	283.103	184.723	179.642	287.598	392.500	177.807	184.342	373.601	491.925	181.855	185.942	187.285	194.004	306.092	190.421	-8191	255	
5887.672	1	1	0	0	0.067881	0.11833	0.085215	0.028789	0.14946	0.3046	0.31568	0.32821	0.13291	0.252	0.20142	0.010074	0.10534	0.28485	0.18004	0.47111	-2.4729	-3.1521	-2.9354	-3.0042	-3.1083	-2.8396	-3.2646	-2.9792	-2.8208	-3.1354	-2.8583	-3.15	-3.0083	-2.8438	-3.1833	-2.9042	497.824	264.055	410.183	297.737	404.704	244.580	410.446	460.648	352.788	472.540	198.349	493.287	264.101	463.908	172.127	484.438	0.0011965	0.00056221	0.00034099	701.33	3.754e-06	1.2522e-05	768.51	304	1.332e-05	5.3448e-06	374.96	157.05	135.14	64.069	9.8505e-06	79.679	0.0015565	0.0014875	0.00044821	819.39	1.7094e-05	1.6316e-05	875.38	343.37	1.7048e-05	1.6415e-05	430.34	173.62	161.6	69.079	1.838e-05	86.78	518.893	227.953	281.088	179.476	228.520	321.453	177.942	184.093	308.397	300.340	182.247	185.917	187.202	193.879	232.490	190.539	-8191	255	
5887.768	1	1	0	0	0.16332	0.1594	0.30439	0.26315	0.21066	0.11845	0.21176	0.30966	0.091297	0.090429	0.22695	0.15427	0.17095	0.18429	0.018122	0.20443	-2.5062	-3.0729	-2.8354	-2.9417	-3.0812	-2.8604	-3.1917	-3.0604	-2.8396	-3.225	-2.9833	-3.0083	-3.0146	-2.9583	-3.125	-3.2521	435.251	335.667	296.705	506.638	227.156	394.969	451.950	171.781	181.608	190.067	173.164	181.104	226.193	170.865	429.291	461.421	0.0011423	0.00014527	0.00029779	700.46	3.0606e-06	7.9608e-06	769.27	307.87	1.9759e-06	3.0376e-06	374.38	156.91	135.79	64.234	1.1517e-05	79.995	0.0015473	0.0015349	0.00047064	818.43	1.7082e-05	1.7017e-05	880.71	344.49	1.7007e-05	1.7199e-05	433.9	174.01	161.78	69.567	1.8748e-05	87.065	514.170	393.789	168.822	179.742	237.065	269.700	177.992	184.046	216.186	485.924	181.889	185.932	187.038	194.099	310.512	190.654	-8191	255	
5887.887	1	1	0	0	0.024954	0.13361	0.10381	0.26075	0.0031852	0.35976	0.16557	0.15459	0.14716	0.23503	0.20442	0.14076	0.24005	0.30492	0.044905	0.12627	-2.5042	-3.0729	-3.025	-3.0292	-3.0729	-2.7104	-3.2375	-3.1979	-2.9833	-3.1729	-3.0938	-3.15	-3.3542	-3.0417	-3.1104	-3.1292	234.035	402.707	476.212	455.787	512.749	519.533	372.543	460.901	337.405	460.334	467.254	462.015	464.657	397.131	223.196	449.393	0.0011507	0.0011497	0.00037625	704.28	2.757e-08	1.1868e-05	774.67	307.49	3.9229e-06	1.3006e-05	377.81	157.49	136.03	64.525	1.121e-05	80.459	0.0015258	0.0015974	0.00047492	819.1	1.6776e-05	1.7656e-05	883.81	343.5	1.6687e-05	1.79e-05	434.12	174.21	161.51	70.012	1.8478e-05	87.345	169.346	489.539	264.624	179.539	323.774	252.534	178.033	184.108	480.773	231.646	182.162	186.068	187.064	194.081	328.113	190.568	-8191	255	
5887.961	1	1	0	0	0.13741	0.22155	0.1763	0.12263	0.18791	0.07406	0.25979	0.30723	0.11234	0.11068	0.18133	0.28251	0.26007	0.30775	0.17927	0.18446	-2.4813	-3.0979	-2.9437	-3.0417	-3.1875	-2.8979	-3.2083	-3.1729	-2.7667	-3.1229	-2.9708	-2.9333	-3.1063	-2.9375	-2.975	-3.2771	338.407	312.153	190.136	226.305	404.382	334.660	478.009	448.499	524.717	395.859	474.541	521.524	492.596	519.277	411.626	484.876	0.0011975	0.00064143	0.00010652	707.67	2.083e-06	6.0858e-06	776.67	308.94	1.5385e-06	6.8926e-06	378.29	158.04	136.87	64.683	8.1038e-06	80.446	0.0015047	0.0016589	0.00046231	817.34	1.6543e-05	1.824e-05	884.61	344.04	1.6699e-05	1.8537e-05	434.21	174.03	162.2	70.379	1.7866e-05	87.174	521.432	181.675	447.383	179.264	381.988	306.238	178.046	184.321	438.305	182.117	182.075	185.814	187.173	194.066	338.749	190.712	-8191	255	
5888.080	1	1	0	0	0.3359	0.12073	0.11226	0.21608	0.08021	0.039387	0.082817	0.10155	0.087924	0.096179	0.34731	0.28465	0.10517	0.2564	0.17895	0.64972	-2.3292	-2.8604	-2.9188	-2.975	-3.2479	-2.9562	-3.2062	-3.3542	-2.9604	-3.1458	-3.2125	-2.9958	-3.2438	-3.0812	-3.1	-3.2271	351.404	434.443	349.343	519.087	429.300	296.981	191.739	328.385	334.005	333.079	462.947	436.406	285.325	471.438	278.332	446.664	0.0013035	0.0014679	0.00010006	702.76	5.7469e-06	2.3097e-06	770.73	308.7	7.3147e-06	5.9443e-06	377.95	157.37	136.73	64.459	7.0699e-06	79.631	0.0015265	0.0016898	0.00044978	812.86	1.6996e-05	1.8585e-05	875.03	342.98	1.705e-05	1.8629e-05	431.6	173.08	162.75	70.111	1.7418e-05	86.326	520.423	169.565	220.510	179.707	243.108	217.379	177.938	184.053	244.776	355.514	182.048	186.165	187.205	194.144	362.686	190.529	-8191	255	
5888.176	1	1	0	0	0.047191	0.15791	0.35582	0.41313	0.20594	0.037576	0.17058	0.31692	0.14029	0.10404	0.13271	0.15763	0.21876	0.50481	0.13168	0.13258	-2.3688	-3.0417	-3.05	-3.075	-3.1813	-2.9417	-3.0875	-3.2375	-2.9458	-3.2125	-3.0833	-2.9562	-3.2188	-3.1229	-2.8854	-3.3479	280.559	471.752	196.737	507.225	430.713	277.050	189.410	472.134	359.986	435.669	472.485	417.712	477.684	499.984	242.664	237.254	0.0012911	0.00069045	0.00015619	700.34	1.3312e-05	6.4194e-06	767.41	306.44	3.6661e-06	2.8984e-06	374.93	157.83	135.4	63.957	5.7792e-06	79.794	0.001578	0.0016738	0.00043768	808.58	1.7584e-05	1.832e-05	871.87	340.22	1.7867e-05	1.8143e-05	427.16	172.42	163.73	69.642	1.7071e-05	86.21	515.404	201.582	347.503	179.677	260.643	342.969	178.070	184.202	178.842	427.701	181.843	185.986	186.946	194.040	250.618	190.802	-8191	255	
5888.272	1	1	0	0	0.11176	0.070805	0.22421	0.17212	0.17018	0.062208	0.19553	0.16233	0.13252	0.25761	0.21673	0.31856	0.18394	0.2378	0.1943	0.27671	-2.4792	-2.9917	-3.175	-2.9146	-3.2604	-2.9646	-2.9813	-3.3833	-2.8333	-3.025	-3.1437	-3.0333	-3.1917	-3.1979	-2.9229	-3.2667	171.382	172.553	313.970	500.634	329.213	508.786	421.931	187.513	230.350	393.834	449.436	399.795	426.128	191.203	369.443	184.562	0.0012917	0.0006694	0.00018352	703.15	6.2146e-06	4.8636e-06	769.42	306.72	2.0573e-06	2.1874e-06	374.6	158.05	135.41	63.931	1.2043e-05	80.205	0.0016334	0.0016307	0.00042999	809.2	1.8172e-05	1.7861e-05	872.28	340.56	1.8435e-05	1.7817e-05	427.5	173.55	165.21	69.596	1.6784e-05	86.799	518.278	291.705	195.898	179.394	351.129	417.833	178.526	184.000	346.207	342.282	182.318	185.869	187.470	194.120	368.895	190.753	-8191	255	
5888.368	1	1	0	0	0.20577	0.17974	0.26317	0.17961	0.23101	0.17102	0.1158	0.22533	0.10745	0.13697	0.15029	0.10648	0.12826	0.34667	0.1476	0.16218	-2.6	-2.8042	-3.1667	-2.8292	-2.9583	-3.0833	-3.0875	-3.2562	-3.0208	-3.0229	-3.2812	-3.025	-3.2042	-3.0771	-2.7417	-3.4708	450.083	347.045	477.202	167.128	489.104	221.094	393.432	515.900	258.347	408.861	474.134	438.255	499.191	473.331	486.452	182.463	0.0011084	0.0020509	0.00015353	703.66	8.2391e-06	1.4978e-05	773.21	306.86	6.0096e-06	2.2513e-06	377.59	158.41	136.41	64.389	1.7989e-05	80.685	0.0016605	0.0015875	0.00042441	814.09	1.8584e-05	1.7533e-05	872.7	342.8	1.8481e-05	1.7456e-05	427.27	174.79	165.63	69.739	1.6557e-05	87.714	520.821	248.274	271.807	179.360	180.756	300.523	177.754	184.162	337.822	234.922	182.365	185.764	187.545	193.986	318.756	190.781	-8191	255	
5888.489	1	1	0	0	0.099779	0.10391	0.23593	0.39156	0.1532	0.14009	0.33202	0.24276	0.048719	0.069372	0.34233	0.15508	0.10874	0.10313	0.30204	0.19027	-2.5104	-3	-3.1854	-2.7333	-3.1104	-3.0229	-3.0062	-3.3937	-3.0187	-2.9333	-3.2646	-2.9979	-3.1063	-3.2771	-2.8146	-3.2542	456.658	365.649	216.887	512.365	465.177	512.250	195.891	412.131	361.189	204.507	391.158	224.733	217.779	232.178	231.571	448.624	0.0011212	0.0014807	5.2544e-05	704.3	1.775e-06	7.7163e-06	777.62	308.58	9.8579e-06	4.1212e-06	377.21	157.52	136.06	64.303	5.0548e-06	80.349	0.0016639	0.0015866	0.00042019	819.65	1.8227e-05	1.7298e-05	870.66	345.48	1.8193e-05	1.7209e-05	427.25	175.18	164.38	69.484	1.6698e-05	87.45	522.911	257.588	269.905	179.390	194.265	429.316	177.951	184.061	340.803	255.324	182.230	185.665	187.207	194.083	204.225	190.540	-8191	255	
5888.583	1	1	0	0	0.10731	0.11525	0.053409	0.17779	0.035783	0.18106	0.20753	0.221	0.12627	0.023793	0.21568	0.2055	0.18038	0.098458	0.27296	0.30138	-2.7854	-3.0563	-3.175	-2.9542	-3.2333	-3.0271	-2.9	-3.2458	-2.925	-2.9146	-3.2062	-2.9021	-3.0729	-3.2167	-2.9042	-3.2562	280.021	390.635	320.574	463.355	189.875	510.829	483.425	495.007	482.451	183.283	167.713	497.288	497.118	238.005	377.522	176.634	0.00091761	5.4016e-05	0.0001253	698.23	8.93e-07	4.103e-06	769.09	307.12	4.1067e-06	1.2085e-05	376.72	157.36	135.36	64.214	5.6017e-06	79.881	0.0016222	0.0015563	0.0004252	820.89	1.7864e-05	1.6957e-05	869.87	345.72	1.7745e-05	1.6956e-05	427.02	175.05	162.96	69.273	1.7276e-05	87.623	521.882	177.264	260.765	179.470	498.666	372.351	178.007	184.133	174.057	356.739	182.078	186.083	187.627	194.139	364.113	190.739	-8191	255	
5888.681	1	1	0	0	0.12897	0.071297	0.15286	0.027945	0.14091	0.042837	0.009825	0.23656	0.11408	0.11406	0.034823	0.18234	0.16597	0.28483	0.3537	0.27732	-2.6271	-2.8271	-3.1792	-2.8729	-3.0771	-3.2646	-2.8542	-3.2896	-3.1104	-2.9021	-3.3875	-3.2625	-2.9188	-3.3167	-2.8208	-3.15	311.078	482.004	184.760	373.529	262.586	246.177	435.829	512.889	166.259	316.609	184.402	474.160	258.339	480.692	214.098	476.805	0.00093519	0.0010342	0.00035213	700.25	1.2049e-05	2.6352e-06	774.07	307.67	5.9297e-06	5.459e-06	376.02	157.65	136.02	64.391	3.0786e-06	80.28	0.0015938	0.0015321	0.00044341	824.48	1.782e-05	1.6916e-05	878.08	346.39	1.7661e-05	1.6684e-05	432.7	175.49	163.28	69.336	1.8164e-05	87.883	169.338	254.883	178.075	179.569	274.341	434.803	177.789	184.089	250.477	380.955	182.134	186.046	187.538	194.082	342.343	190.541	-8191	255	
5888.775	1	1	0	0	0.071869	0.2834	0.19259	0.19516	0.17809	0.014269	0.24132	0.30563	0.11627	0.38711	0.1225	0.3904	0.22077	0.43024	0.1207	0.28753	-2.8667	-2.8542	-3.1146	-3.0521	-3.0083	-3.1604	-3.1542	-3.3125	-3.0438	-2.8396	-3.3292	-3.0604	-2.8688	-3.3521	-2.8917	-3.0604	351.470	233.572	449.880	477.869	469.843	237.888	492.978	425.231	303.528	263.633	264.467	522.739	184.740	449.299	356.541	392.820	0.0010592	0.00054269	0.00021322	698.4	6.7015e-06	1.0974e-05	774.42	306.13	7.4409e-07	9.8524e-06	377.22	158.01	136.6	64.038	1.2121e-05	80.169	0.0015825	0.0015211	0.00046113	820.65	1.739e-05	1.6635e-05	882.9	344.47	1.734e-05	1.6842e-05	434.8	175.26	162.4	69.185	1.8603e-05	87.59	168.089	237.086	202.073	179.666	234.100	240.491	177.890	184.281	407.716	303.170	182.024	186.169	187.311	194.073	209.774	190.696	-8191	255	
5888.871	1	1	0	0	0.24779	0.11703	0.13314	0.17172	0.12213	0.12962	0.13007	0.19148	0.32481	0.17577	0.15723	0.14092	0.34936	0.21257	0.12391	0.080416	-2.6833	-2.7958	-3.0646	-3.0042	-3.0104	-3.1063	-2.9021	-3.1	-3.1917	-2.9729	-3.2542	-3.25	-2.9875	-3.3146	-2.9167	-3.2604	420.510	327.521	228.688	480.238	370.550	459.054	418.908	179.441	490.445	407.043	433.765	267.374	484.711	504.927	398.983	440.289	0.0011354	0.00048171	0.00018288	700.63	6.281e-06	8.7909e-06	772.18	307.58	8.5228e-06	2.2722e-07	375.6	156.88	135.17	64.002	1.8704e-06	79.982	0.0015577	0.0015603	0.00047723	818.93	1.7139e-05	1.7276e-05	886.55	343.75	1.7103e-05	1.7452e-05	435.91	174.28	161.74	69.328	1.8917e-05	87.112	167.603	243.701	259.347	179.559	265.747	236.330	178.107	184.127	339.265	261.173	181.937	185.793	187.440	193.967	505.890	190.596	-8191	255	
5888.968	1	1	0	0	0.17484	0.028828	0.04894	0.22031	0.080451	0.17859	0.31242	0.19764	0.28738	0.12849	0.10309	0.21233	0.30118	0.16672	0.17674	0.20153	-2.9062	-2.8417	-3.1708	-3.0854	-2.7125	-3.1188	-3.2479	-3.1396	-3.2646	-2.8542	-3.1479	-3.1125	-2.5938	-3.1271	-3.0854	-3.1688	274.138	298.464	469.007	262.486	356.878	347.063	491.645	195.863	247.540	412.164	483.212	217.677	456.911	186.793	376.631	408.569	0.001066	0.00073792	9.1681e-05	694.77	2.8865e-06	5.4401e-06	768.93	305.1	4.27e-06	2.9822e-06	373.03	156.18	135.25	63.642	4.508e-06	79.318	0.001534	0.001643	0.00048093	813.93	1.6941e-05	1.8085e-05	880.92	341.96	1.6789e-05	1.8254e-05	432.18	172.97	160.62	69.282	1.8546e-05	86.527	525.470	193.332	413.075	179.563	260.753	197.098	178.113	184.048	284.461	518.545	182.155	185.744	187.201	193.937	486.514	190.669	-8191	255	
5889.064	1	1	0	0	0.17178	0.36877	0.22444	0.35839	0.20987	0.25795	0.080618	0.16016	0.13947	0.19137	0.037784	0.21825	0.092752	0.33457	0.27603	0.10633	-2.8021	-2.9188	-2.9583	-3.1625	-2.7542	-3.1604	-2.9208	-2.9729	-3.0854	-2.9188	-3.075	-3.1375	-3.0708	-3.2417	-2.9604	-2.9479	333.331	382.084	227.111	436.216	255.956	410.507	315.069	288.885	370.432	182.798	197.214	479.641	276.449	451.384	430.423	197.606	0.0012603	0.00066251	0.0003405	700.15	1.2662e-05	8.1945e-06	771.41	305.05	1.3018e-05	1.5848e-05	376.94	157.76	136.02	63.844	1.6837e-05	80.461	0.001527	0.0016978	0.00047013	811.8	1.7001e-05	1.8893e-05	878.51	341.93	1.719e-05	1.8927e-05	433.57	173.65	162.07	69.768	1.7903e-05	86.907	516.827	187.772	275.470	179.334	256.245	349.493	178.209	184.024	265.643	240.721	182.302	185.980	187.369	194.003	326.737	190.755	-8191	255	
5889.184	1	1	0	0	0.23603	0.043196	0.27224	0.093883	0.11944	0.15657	0.086765	0.11391	0.09151	0.10189	0.12022	0.10285	0.25124	0.30384	0.1787	0.036437	-2.5292	-2.9062	-2.9	-3.3104	-2.8688	-3.1875	-3.075	-2.6833	-3.1312	-3.2542	-3.1333	-3.4083	-2.7583	-3.1604	-3.0563	-2.8625	434.198	506.991	385.192	176.213	213.570	336.955	396.670	496.304	391.585	496.880	198.772	443.958	457.098	458.921	269.252	458.892	0.0011198	0.00037005	0.00032603	697.87	1.0711e-05	1.2431e-05	771.23	306.16	8.3309e-06	7.2517e-06	374.89	157.54	135.14	63.717	1.8631e-06	80.199	0.0015441	0.0016991	0.00044976	806.8	1.7162e-05	1.8584e-05	876.39	340.14	1.7233e-05	1.8326e-05	429.24	172.74	162.25	69.422	1.708e-05	86.529	518.688	200.510	253.723	179.656	232.541	282.303	178.000	184.167	250.353	464.273	182.040	185.799	187.393	194.078	230.506	190.766	-8191	255	
5889.256	1	1	0	0	0.12553	0.072952	0.083986	0.029196	0.066052	0.25927	0.084844	0.2674	0.074194	0.23079	0.13564	0.32179	0.1947	0.14951	0.25025	0.17845	-2.7188	-2.8875	-3.0333	-3.325	-2.8646	-3.1417	-3.0792	-2.9896	-3.2083	-3.0375	-3.1542	-3.2104	-3.0021	-3.2188	-3.1479	-2.9208	419.142	507.086	298.365	272.858	190.247	471.750	510.089	436.873	381.451	474.344	511.136	512.511	490.481	456.976	286.194	522.673	0.001062	0.00010826	0.00018933	699.02	4.7165e-06	8.7482e-06	776.22	307.04	1.2795e-05	1.5239e-05	377.78	158.82	135.44	64.17	5.6789e-06	80.608	0.0015519	0.0016111	0.00042511	801.15	1.6983e-05	1.7449e-05	873.04	338.76	1.719e-05	1.7393e-05	427.76	173.02	162.49	69.41	1.6382e-05	86.663	517.721	462.984	370.811	179.581	266.621	344.767	178.130	184.247	238.683	399.653	182.224	185.845	187.147	193.897	344.973	190.637	-8191	255	
5889.352	1	1	0	0	0.095379	0.32133	0.081524	0.095453	0.033979	0.18457	0.049904	0.068261	0.15108	0.027764	0.13434	0.19044	0.12166	0.32114	0.08604	0.27527	-2.7188	-2.9396	-2.8646	-3.2646	-2.7854	-2.8688	-3.1292	-2.8604	-3.0021	-3.0458	-2.9208	-3.2354	-2.8812	-3.2417	-3.1521	-2.9896	238.167	274.869	407.310	390.302	207.227	404.687	301.949	510.523	394.457	283.453	340.857	173.390	334.626	483.287	244.264	441.257	0.0012094	0.00070768	0.00031799	699.77	3.559e-06	1.6683e-05	775.07	307.42	1.175e-05	1.3448e-05	374.4	158.41	135.47	63.999	6.7505e-06	80.469	0.0015722	0.0015625	0.00041542	800.7	1.7433e-05	1.7031e-05	865.49	338.84	1.7484e-05	1.6767e-05	424.84	172.72	162.43	68.962	1.5932e-05	86.618	521.580	302.891	316.691	179.703	183.958	364.031	178.059	184.313	279.563	452.390	182.197	185.791	187.231	193.871	280.153	190.480	-8191	255	
5889.448	1	1	0	0	0.15566	0.15862	0.2363	0.31228	0.10629	0.1553	0.22816	0.20915	0.068177	0.18728	0.073718	0.21679	0.12784	0.11685	0.075955	0.24357	-2.6437	-2.8646	-2.7396	-3.4583	-2.9125	-3.2062	-3.3417	-2.9437	-3.0042	-2.975	-2.8937	-3.4437	-2.9458	-3.1375	-3.3292	-3.0687	455.914	356.110	294.253	451.429	406.640	454.701	400.617	438.479	172.995	333.549	449.587	436.834	455.077	503.282	481.008	475.040	0.0011826	0.0010852	0.00034517	699.11	2.079e-06	8.8582e-06	769.49	305.93	3.6864e-06	5.9052e-06	374.69	158.18	135.8	63.891	1.4259e-05	80.09	0.0015947	0.0015295	0.00040466	803.95	1.7604e-05	1.6778e-05	863.78	340.13	1.7556e-05	1.6642e-05	423.41	173.45	162.49	68.908	1.581e-05	86.917	517.747	263.494	345.276	179.196	455.961	384.807	177.987	183.928	316.856	189.189	182.477	185.946	187.457	194.057	264.811	190.769	-8191	255	
5889.569	1	1	0	0	0.18336	0.25387	0.099937	0.24304	0.10293	0.13487	0.14422	0.19111	0.23802	0.12569	0.38127	0.12147	0.13987	0.12766	0.069599	0.13206	-2.7354	-2.9583	-2.8563	-3.3438	-3.0875	-2.8042	-3.3396	-3.1292	-3.0187	-3.1562	-2.8083	-3.2604	-2.8708	-3.1104	-3.0979	-2.9229	376.656	474.570	407.679	455.115	278.751	518.677	472.099	173.723	426.617	427.737	405.389	460.668	459.745	439.650	370.045	426.345	0.00098227	0.0012977	0.00022544	698.38	7.5907e-06	6.8973e-06	773.21	306.8	1.6133e-05	7.9187e-06	377.12	158.43	135.75	63.941	1.3503e-05	81.031	0.0015823	0.0015113	0.00040215	810.24	1.7297e-05	1.6487e-05	864.95	342.18	1.7182e-05	1.6263e-05	424.51	174.57	162.36	68.92	1.5872e-05	87.748	521.426	194.195	324.664	179.456	525.115	361.701	177.742	184.040	243.689	391.171	181.843	185.664	186.842	194.090	297.971	190.531	-8191	255	
5889.663	1	1	0	0	0.28471	0.13549	0.14241	0.33706	0.22434	0.03955	0.11928	0.12663	0.12234	0.11591	0.15989	0.13487	0.31351	0.35325	0.10582	0.35739	-2.7792	-3.05	-2.8583	-3.1104	-3.0479	-2.9396	-3.3542	-2.8896	-3.1292	-3.3438	-2.9417	-3.3187	-3.1583	-3.1521	-3.2396	-3.2208	239.436	514.728	335.793	223.966	246.752	306.554	432.512	481.034	386.949	252.964	208.988	335.317	467.947	472.764	289.622	451.076	0.0010717	0.0011668	0.00034907	698.87	1.6811e-05	5.7955e-06	775.36	306.69	3.6415e-06	2.1491e-06	379.84	158.54	136.74	64.285	4.2467e-06	81.045	0.0015522	0.001481	0.00040912	816.09	1.6986e-05	1.6326e-05	871.59	343.81	1.709e-05	1.6032e-05	429.96	175.74	161.74	69.011	1.657e-05	88.201	524.772	237.460	226.665	179.559	301.273	245.804	178.230	183.910	337.701	317.785	181.827	185.991	187.407	194.137	313.222	190.746	-8191	255	
5889.761	1	1	0	0	0.23636	0.25234	0.23774	0.37235	0.14035	0.1515	0.13948	0.32044	0.12035	0.071787	0.16833	0.034773	0.13459	0.30049	0.034701	0.27579	-2.5354	-3.025	-2.85	-3.0438	-2.975	-2.8417	-3.2188	-3.0667	-3.0812	-3.35	-2.8583	-3.1292	-3.1792	-2.9583	-3.2292	-3.1854	363.535	290.453	289.255	466.664	262.293	183.777	440.968	479.485	311.815	261.551	482.025	437.324	250.165	475.983	494.067	481.622	0.0010832	0.00025287	0.0001326	699.66	4.6096e-06	1.1967e-05	776.54	306.14	7.5826e-06	2.2204e-06	377.45	158.85	134.94	63.948	1.0977e-05	80.837	0.0015138	0.0014523	0.00042166	815.14	1.67e-05	1.5954e-05	876.58	343.56	1.6671e-05	1.5824e-05	431.11	175.24	161.04	68.687	1.7429e-05	87.554	525.678	444.395	243.498	179.838	246.771	362.430	178.370	184.145	353.929	353.071	182.093	186.133	187.271	193.891	263.599	190.782	-8191	255	
5889.856	1	1	0	0	0.1339	0.099875	0.085627	0.24895	0.15164	0.1753	0.11207	0.1818	0.14436	0.36045	0.23916	0.027522	0.2136	0.18616	0.12028	0.02659	-2.7417	-3.1604	-3.0021	-3.0875	-3.2313	-2.8	-3.3375	-3.1646	-2.9854	-3.3042	-3.0042	-3.1125	-3.1813	-3.0938	-3.025	-3.2125	283.683	221.984	368.780	459.250	506.047	320.640	189.891	448.130	255.714	253.514	466.303	327.319	226.639	215.943	430.721	429.523	0.00096035	0.0011994	0.00033268	698.18	7.399e-06	9.0403e-06	768.32	308.57	1.4754e-05	6.7498e-06	378.85	158.68	136.71	64.142	1.0588e-05	80.65	0.0015172	0.0014622	0.0004497	813.15	1.66e-05	1.617e-05	877.12	343.05	1.6513e-05	1.6193e-05	433.73	174.87	160.71	69.006	1.7949e-05	87.5	524.643	244.082	210.383	179.259	299.925	233.455	178.107	183.832	340.213	376.056	182.028	186.095	187.184	193.951	213.151	190.687	-8191	255	
5889.952	1	1	0	0	0.11272	0.14824	0.0494	0.23202	0.1383	0.048916	0.19638	0.12086	0.21529	0.091187	0.051745	0.25857	0.093224	0.39488	0.16233	0.30347	-2.4042	-3.2917	-2.8458	-3.125	-3.1729	-2.9792	-3.2042	-3.1333	-2.9625	-3.3	-2.9167	-3.0583	-3.1917	-3.025	-3.1458	-3.2542	409.437	356.268	311.732	216.745	414.226	444.128	425.205	433.898	200.035	259.271	496.330	503.073	170.172	193.285	236.650	451.158	0.0010765	0.00071026	0.000386	703.36	6.9038e-06	7.2423e-06	773.18	308.78	9.3407e-06	1.4423e-05	377	159.1	135.9	64.004	4.7308e-06	80.604	0.0014846	0.0015066	0.00045818	811.81	1.6329e-05	1.6682e-05	881.89	343.29	1.6402e-05	1.6922e-05	435.23	174.7	159.97	69.22	1.802e-05	87.467	169.292	515.140	232.959	179.328	274.115	416.221	178.208	184.035	310.434	280.455	182.226	185.839	187.482	193.989	434.149	190.519	-8191	255	
5890.048	1	1	0	0	0.20708	0.30343	0.018501	0.36778	0.036133	0.12366	0.054289	0.10851	0.10532	0.13405	0.096109	0.035156	0.25851	0.20572	0.12396	0.17297	-2.4167	-3.1104	-2.9437	-3.0187	-3.25	-2.7896	-3.2542	-3.1854	-2.9	-3.0292	-3.0417	-3.0563	-3.2917	-3.0583	-3.2333	-3.2854	337.261	375.964	351.734	495.486	240.220	490.980	457.022	192.222	185.461	167.504	285.496	445.652	306.236	483.859	379.299	491.799	0.0011958	0.0012293	0.00015825	696.38	4.4515e-06	9.5239e-06	777.34	306.84	4.3347e-06	1.1228e-05	379.12	158.85	136.77	64.283	1.118e-05	81.568	0.0014651	0.0015798	0.00045639	809.49	1.6158e-05	1.7552e-05	883.25	342.28	1.6185e-05	1.7688e-05	435.3	175.1	160.29	69.739	1.7892e-05	88.025	168.318	451.781	448.639	179.859	365.851	514.942	178.306	184.006	275.261	259.866	182.095	185.897	187.593	193.980	304.917	190.682	-8191	255	
5890.169	1	1	0	0	0.11323	0.10833	0.060373	0.10179	0.099489	0.14489	0.10821	0.24336	0.088089	0.27933	0.12305	0.12344	0.060771	0.054465	0.20309	0.090116	-2.525	-3.0187	-2.8958	-2.8979	-3.1271	-2.9313	-3.2229	-3.3271	-2.8604	-3.2292	-3.2292	-2.9833	-3.3625	-3.2	-3.1646	-3.3	405.259	401.494	493.949	515.544	525.208	411.406	513.039	204.130	447.530	432.112	433.162	179.671	272.398	513.212	269.427	395.323	0.0011586	0.00071279	0.0005809	702.46	8.3753e-07	1.3917e-05	781.68	308.59	8.1469e-06	8.7038e-06	381.76	160.31	136.37	64.355	5.5773e-06	81.53	0.0014859	0.0016572	0.00045172	811.18	1.6506e-05	1.8254e-05	885.82	343.01	1.6521e-05	1.826e-05	435.31	175.63	162.01	70.018	1.7402e-05	87.899	522.869	473.842	344.069	179.313	315.177	279.061	178.210	183.967	232.771	342.610	182.272	185.767	186.674	194.197	385.840	190.628	-8191	255	
5890.265	1	1	0	0	0.23049	0.2932	0.35471	0.32562	0.29437	0.079609	0.32685	0.15811	0.13563	0.087281	0.2938	0.13881	0.12371	0.09141	0.083456	0.35483	-2.3917	-3.2771	-2.9417	-2.9208	-3.2104	-3.0042	-3.325	-3.3021	-2.8542	-3.1896	-3.1354	-2.9313	-3.3917	-3.0958	-3.0167	-3.3979	372.078	231.953	365.399	467.222	493.041	195.444	432.450	329.538	393.169	201.127	404.773	460.573	406.063	220.620	450.862	525.250	0.0011911	0.00097441	0.00035114	698.82	3.4961e-06	1.032e-05	772.17	307.88	9.617e-06	6.7595e-06	379.28	159.1	136.58	64.203	9.5054e-06	81.196	0.001523	0.0016683	0.00044131	806.13	1.7049e-05	1.8379e-05	879.84	341.96	1.7315e-05	1.8313e-05	433.27	174.14	163.21	69.808	1.7231e-05	87.35	519.896	332.289	266.000	179.486	188.760	249.391	178.140	183.925	270.867	378.964	181.957	185.944	186.795	194.014	327.477	190.620	-8191	255	
5890.361	1	1	0	0	0.19242	0.079556	0.18356	0.0099727	0.25138	0.29659	0.20525	0.13447	0.13729	0.20132	0.16443	0.32917	0.20199	0.14094	0.2009	0.33948	-2.4313	-3.1354	-3.0292	-2.9333	-3.3	-3.0708	-3.1417	-3.2479	-2.925	-3.15	-3.2021	-3.1021	-3.2188	-3.2062	-2.7833	-3.2917	416.507	420.528	252.772	319.414	490.971	522.505	478.800	482.754	383.930	309.126	223.669	484.515	188.023	485.868	270.250	427.107	0.0012599	0.0010833	0.00043222	699.29	4.4389e-06	9.3738e-06	774.74	308.49	1.1995e-05	9.7793e-06	381.24	159.23	135.61	64.175	3.145e-06	81.445	0.0015842	0.0016412	0.00043307	803.49	1.7666e-05	1.788e-05	875.73	341.44	1.7753e-05	1.7757e-05	432.12	174.28	164.35	69.572	1.6805e-05	87.518	514.374	307.074	334.686	179.553	244.174	288.996	178.052	183.891	251.183	413.596	182.047	185.846	187.042	194.050	351.035	190.527	-8191	255	
5890.482	1	1	0	0	0.25873	0.077701	0.078611	0.21153	0.062204	0.066282	0.29832	0.047921	0.10816	0.10323	0.084515	0.2888	0.12996	0.19275	0.19627	0.18075	-2.5354	-3.0958	-3.0292	-2.9354	-3.0729	-3.125	-2.9979	-3.3375	-3.1146	-3.1937	-3.2333	-3.1	-3.3167	-3.1771	-2.8583	-3.3583	275.132	473.753	253.768	439.899	179.223	515.192	271.424	446.683	435.330	259.827	447.459	495.645	471.734	502.347	258.723	180.892	0.0010516	0.00050121	0.00017421	698.48	4.571e-06	1.5075e-05	777.56	310.87	1.6665e-06	1.2551e-05	379.47	159.13	136.68	64.465	1.1183e-05	81.538	0.0016375	0.0016107	0.00042668	805.73	1.8276e-05	1.7601e-05	876.82	343.57	1.8374e-05	1.7504e-05	432.29	175.16	165.92	69.74	1.6472e-05	88.373	522.230	375.500	337.704	179.553	196.778	376.062	177.944	183.894	360.187	393.747	181.982	185.724	187.348	194.200	353.484	190.353	-8191	255	
5890.553	1	1	0	0	0.086377	0.33522	0.11928	0.34705	0.12766	0.12752	0.1276	0.21851	0.20201	0.07321	0.15937	0.14909	0.13295	0.051163	0.14871	0.10555	-2.5667	-2.8417	-3.1354	-2.9208	-3.125	-3.1479	-2.8271	-3.3271	-2.8729	-3.0125	-3.3792	-2.9375	-3.1792	-3.3333	-2.8792	-3.3125	364.925	228.338	353.438	460.451	438.179	482.519	384.762	426.812	280.616	285.618	430.883	476.055	455.229	251.998	504.584	487.548	0.0010131	0.0010961	0.00019773	696.4	3.8429e-06	2.8894e-06	781.94	310.21	8.4766e-06	8.9165e-06	383.71	160.24	137.1	64.559	1.063e-05	82.022	0.0016522	0.0015893	0.00041927	812.67	1.829e-05	1.7409e-05	879.46	346.22	1.8264e-05	1.7414e-05	433.63	177.08	165.56	69.735	1.6612e-05	88.967	523.176	349.353	242.295	179.488	228.774	211.759	178.196	184.039	355.289	395.483	182.121	185.797	187.211	194.171	316.979	190.747	-8191	255	
5890.649	1	1	0	0	0.31341	0.35868	0.18221	0.15645	0.2375	0.11591	0.12182	0.12468	0.13487	0.30867	0.097014	0.048774	0.2288	0.19518	0.14411	0.10855	-2.5604	-2.8937	-3.1104	-2.8354	-3.0125	-3.1562	-3.025	-3.1833	-2.8167	-2.9958	-3.1917	-3.1021	-3.075	-3.1521	-3.0438	-3.3458	516.061	266.804	177.873	259.644	319.860	314.070	419.092	511.351	507.378	210.978	443.112	448.606	367.853	185.662	230.667	188.799	0.00085386	0.00043567	0.00028415	699.92	7.9881e-06	4.0101e-06	776.93	308.26	7.6998e-06	7.6403e-06	382	158.91	136.03	64.138	1.7912e-05	80.92	0.0016525	0.0015745	0.0004217	818.54	1.8094e-05	1.7209e-05	876.51	346.56	1.8035e-05	1.7178e-05	431.46	176.44	163.87	69.182	1.69e-05	88.37	173.864	338.322	256.996	179.410	201.568	280.710	177.960	184.004	357.106	331.047	182.015	186.001	187.501	193.888	231.026	190.955	-8191	255	
5890.746	1	1	0	0	0.016788	0.34845	0.25042	0.11381	0.33268	0.26222	0.1506	0.17242	0.12807	0.2418	0.28572	0.16529	0.1357	0.24848	0.17424	0.15943	-2.5687	-2.8937	-3.0792	-3.0458	-3.1292	-3.1437	-2.875	-3.1688	-2.8854	-2.7833	-3.2771	-3.0458	-3.1083	-3.3271	-2.8646	-3.3458	242.516	426.318	210.449	392.842	245.043	205.129	363.310	170.018	276.257	433.558	523.995	524.819	488.098	167.230	335.689	509.735	0.0010724	0.00062051	0.00023915	696.27	4.9088e-06	1.4173e-06	775.41	307.55	9.2169e-06	1.6995e-05	378.56	158.57	135.29	63.89	2.8475e-06	80.812	0.001619	0.001538	0.00043052	818.71	1.763e-05	1.6839e-05	874.57	345.89	1.7442e-05	1.6645e-05	431.74	176.07	162.67	68.854	1.7368e-05	88.241	516.294	307.800	237.842	179.339	269.297	417.544	177.951	184.208	266.064	333.734	181.942	185.722	187.418	193.920	236.880	190.836	-8191	255	
5890.864	1	1	0	0	0.034893	0.1478	0.1122	0.11489	0.12131	0.13669	0.243	0.088947	0.040802	0.25031	0.14701	0.23021	0.23923	0.12089	0.16037	0.15763	-2.55	-2.8688	-3.1188	-2.9313	-3	-3.2583	-2.8771	-3.2708	-3.2229	-2.9083	-3.2792	-3.0021	-2.8875	-3.3083	-2.9	-3.3937	510.695	358.696	219.179	423.521	332.733	347.183	499.700	471.644	420.377	216.039	490.948	434.291	184.922	492.514	224.771	461.600	0.0011698	0.00050263	0.00038961	695.72	9.1049e-06	6.6806e-06	782.14	307.56	1.2858e-05	3.8998e-06	380.52	158.76	135.75	64.012	1.2044e-05	81.261	0.0015763	0.0015086	0.00044462	816.59	1.7359e-05	1.6505e-05	884.71	345.79	1.731e-05	1.6366e-05	436.15	176.53	162.23	68.946	1.7969e-05	88.411	167.181	260.735	194.721	179.315	291.412	380.385	178.085	184.065	307.412	520.917	182.184	185.677	187.238	193.919	250.130	190.503	-8191	255	
5890.961	1	1	0	0	0.077497	0.050209	0.22729	0.33999	0.1466	0.18626	0.11919	0.12911	0.15666	0.269	0.13665	0.13006	0.39216	0.14173	0.032732	0.11805	-2.6771	-2.9271	-3.2062	-3.0958	-2.8875	-3.2375	-3.0896	-3.1167	-3.1375	-3.0187	-3.2167	-3.0729	-3.0729	-3.2646	-3.15	-3.2062	487.121	448.573	167.075	166.913	477.979	313.863	422.927	177.748	426.094	449.292	414.871	352.584	487.543	481.098	405.139	443.442	0.0010386	0.00077373	0.00010406	695.64	5.3491e-06	2.8293e-06	780.25	309.71	6.8472e-06	4.0377e-06	381.3	159.6	136.22	64.077	8.8146e-06	81.224	0.0015474	0.0015098	0.00046246	815.14	1.7013e-05	1.6652e-05	889.17	345.73	1.6858e-05	1.6676e-05	439.46	176.47	161.56	69.12	1.8279e-05	88.298	168.107	184.682	327.287	179.583	271.757	311.525	177.829	184.183	304.217	260.037	181.959	185.983	187.289	194.019	239.304	190.686	-8191	255	
5891.057	1	1	0	0	0.23523	0.10759	0.099394	0.14157	0.13424	0.25307	0.062746	0.12377	0.2453	0.099494	0.24476	0.1778	0.03153	0.030618	0.031886	0.42007	-2.8167	-2.8312	-3.1188	-3.0625	-2.9458	-3.3146	-2.8958	-3.0625	-3.1667	-2.9208	-3.1875	-3.3063	-2.9437	-3.2646	-2.9479	-3.0354	242.926	444.410	468.145	183.930	397.742	355.863	418.465	490.670	194.009	166.565	437.642	369.618	285.262	476.385	272.099	475.883	0.0010064	0.0014609	0.00031341	696.99	8.816e-06	1.326e-05	776.29	308.8	8.7035e-06	1.4141e-05	378.64	159.49	135.75	63.907	6.9598e-06	81.08	0.0015046	0.0015334	0.00046324	811.1	1.6397e-05	1.6903e-05	884.67	343.07	1.6315e-05	1.7062e-05	436.96	175.61	160.06	69.198	1.7975e-05	87.802	519.447	222.968	304.085	179.544	352.775	177.244	178.104	183.953	289.404	291.874	182.017	186.163	187.633	193.945	470.369	190.666	-8191	255	
5891.128	1	1	0	0	0.13892	0.12991	0.086304	0.29845	0.11562	0.27092	0.30784	0.20825	0.18133	0.19203	0.18947	0.27528	0.21984	0.13093	0.16801	0.31161	-2.7271	-2.8771	-3.1292	-2.9979	-2.8792	-3.3312	-3.2875	-3.0625	-3.1896	-2.8875	-3.15	-3.1125	-2.875	-3.1458	-3.0729	-2.9833	477.109	212.936	221.226	440.622	494.689	474.138	387.420	468.140	256.749	197.531	347.870	166.595	223.800	522.014	228.044	440.777	0.0011888	0.00065328	0.00026551	698.09	4.4508e-06	5.9974e-06	776.2	309.68	6.9724e-06	6.8579e-06	379.3	159.11	136.59	63.76	1.4133e-05	80.731	0.0014663	0.0015907	0.00045685	806.92	1.6132e-05	1.7576e-05	882.57	342.51	1.6036e-05	1.7536e-05	434.69	174.06	159.95	69.267	1.7525e-05	87.339	520.526	465.423	310.755	179.300	332.571	288.462	178.172	183.909	260.129	250.168	182.019	185.857	187.471	193.835	320.609	190.742	-8191	255	
5891.249	1	1	0	0	0.15952	0.1782	0.079654	0.31206	0.13903	0.11954	0.1832	0.15587	0.20699	0.25954	0.154	0.23993	0.15454	0.22214	0.30534	0.018137	-2.8479	-2.7958	-2.9062	-3.2625	-2.8812	-3.1771	-2.9521	-3.0938	-3.2667	-2.9688	-3.0979	-3.3125	-3	-3.3438	-2.9146	-3.0167	191.217	461.917	382.185	496.191	298.933	371.786	166.418	169.066	359.479	409.050	452.043	470.381	174.895	472.999	313.752	327.460	0.0010224	9.0301e-05	0.00035731	695.11	3.9688e-06	3.5156e-06	773.54	306.11	1.0503e-05	8.9125e-06	378.08	158.47	136.24	63.614	1.0622e-05	80.635	0.0014689	0.0016329	0.00044127	803.55	1.6268e-05	1.8021e-05	876.69	340.66	1.6389e-05	1.8055e-05	432.31	173.69	160.49	69.234	1.708e-05	86.894	523.868	419.968	303.746	179.747	231.946	291.870	178.193	184.140	222.031	290.630	182.138	185.763	186.988	193.935	349.084	190.834	-8191	255	
5891.345	1	1	0	0	0.024805	0.16589	0.071376	0.2186	0.11627	0.19658	0.15743	0.20992	0.19778	0.2066	0.031829	0.063964	0.20447	0.10521	0.022923	0.091395	-2.5375	-2.7896	-2.9833	-3.1875	-2.8292	-3.2562	-3.1375	-2.8604	-3.2021	-2.9042	-3.1521	-3.3917	-2.8604	-3.2021	-3.025	-2.9917	454.190	428.770	447.568	454.908	523.621	444.913	335.634	487.980	480.174	196.703	373.167	224.897	453.556	491.385	172.932	480.501	0.0012781	0.0010486	0.00022538	695.93	1.2205e-06	7.2989e-06	777.44	306.86	1.2159e-05	4.0225e-06	379.87	159.58	135.49	63.876	5.0185e-06	81.173	0.0015127	0.001644	0.00043479	800.84	1.6891e-05	1.7997e-05	876.69	339.36	1.7061e-05	1.7812e-05	431.14	173.7	161.87	69.281	1.6614e-05	87.156	516.198	246.346	229.734	179.501	268.547	365.292	177.973	184.184	182.300	281.075	181.995	186.286	187.057	194.023	281.366	190.533	-8191	255	
5891.441	1	1	0	0	0.11471	0.095244	0.16092	0.042161	0.064126	0.18237	0.10232	0.14066	0.10828	0.19382	0.15617	0.04623	0.13832	0.14008	0.15228	0.19925	-2.7542	-2.8563	-2.825	-3.1521	-2.8187	-3.0229	-3.1958	-2.8958	-2.9604	-2.9583	-3.1063	-3.325	-2.775	-3.1292	-3.1146	-3.1021	258.304	195.332	355.127	456.261	341.727	376.663	360.907	378.964	383.867	432.601	427.183	212.488	505.241	202.831	393.438	404.034	0.0010725	0.00090352	0.00013725	697.96	1.0876e-05	5.397e-06	779.77	306.82	8.2078e-06	7.5715e-06	380.34	159.88	136.57	63.806	3.5202e-06	81.342	0.0015528	0.0016015	0.00042076	799.84	1.7471e-05	1.7535e-05	877.61	340.06	1.7644e-05	1.7472e-05	430.92	174.56	163.67	69.178	1.6405e-05	87.393	522.003	268.167	326.633	179.320	181.302	501.186	177.873	183.755	255.697	379.464	182.027	185.812	187.265	193.957	264.137	190.734	-8191	255	
5891.562	1	1	0	0	0.12555	0.22008	0.1502	0.18721	0.019028	0.041931	0.17724	0.12882	0.21706	0.10925	0.10591	0.31262	0.033159	0.33767	0.2431	0.33797	-2.6354	-2.7896	-2.9375	-3.3104	-2.8896	-3.0563	-3.2271	-2.9771	-3.2458	-3.0875	-3	-3.2979	-2.8458	-3.1146	-3.3896	-3.2292	428.829	437.487	442.494	168.641	237.163	501.906	497.090	169.170	419.063	278.732	496.351	442.189	479.688	525.623	492.415	447.760	0.0011149	0.00030369	0.00029384	697.5	2.4644e-06	1.6716e-05	775.01	306.44	4.9974e-06	3.4677e-06	376.31	158.62	135.09	63.715	7.8846e-06	80.543	0.0016093	0.0015776	0.00041381	800.99	1.7733e-05	1.7076e-05	871.41	340.41	1.7821e-05	1.6925e-05	427.69	173.95	163.01	68.863	1.6008e-05	87.171	517.256	189.209	297.247	179.474	499.313	374.514	178.137	183.990	249.247	208.108	182.153	185.923	186.915	194.108	270.234	190.605	-8191	255	
5891.656	1	1	0	0	0.11536	0.031447	0.11531	0.19744	0.1201	0.19489	0.065488	0.19871	0.16255	0.35293	0.31449	0.15472	0.096752	0.20997	0.23715	0.17856	-2.5125	-3.1375	-2.6917	-3.2271	-2.9313	-2.825	-3.4146	-2.8333	-3.2417	-2.9833	-2.9729	-3.3167	-3.1292	-3.0729	-3.1958	-2.9979	435.994	298.764	334.266	496.106	192.758	405.192	189.776	390.997	253.390	432.093	489.811	472.027	459.866	505.459	259.615	517.752	0.0010228	0.00089852	0.00015655	695.62	9.6183e-06	7.8758e-06	775.21	306.06	1.3748e-05	1.2655e-05	377.01	158.55	134.7	63.634	9.6516e-06	80.782	0.0016035	0.0015318	0.00040186	803.56	1.7593e-05	1.6656e-05	866.69	340.63	1.7404e-05	1.6539e-05	425.53	174.34	161.95	68.555	1.5754e-05	87.314	525.298	285.591	287.308	179.156	226.886	250.703	178.112	183.926	300.577	389.161	182.026	185.799	187.123	193.873	276.626	190.603	-8191	255	
5891.752	1	1	0	0	0.11559	0.12539	0.27299	0.26013	0.24462	0.15244	0.21014	0.44038	0.25899	0.1447	0.28829	0.12079	0.11514	0.24215	0.18606	0.078235	-2.6604	-3.0729	-2.6458	-3.2729	-3.1188	-2.9042	-3.3292	-2.9542	-2.9875	-3.0187	-2.9625	-3.2896	-2.7438	-3.0229	-3.0083	-2.9271	252.169	189.015	263.530	432.068	262.950	329.842	376.173	493.863	222.160	196.852	513.343	446.869	500.741	478.612	231.710	431.202	0.0011801	0.00011509	0.0003973	698.44	2.7856e-06	1.3398e-05	776.39	307.57	5.9499e-06	7.0889e-06	379.86	159.27	135.57	63.773	9.3984e-06	81.273	0.0015621	0.0014917	0.00039864	809.88	1.7102e-05	1.6139e-05	869.43	343.36	1.6929e-05	1.5934e-05	427.8	175.54	161.11	68.461	1.5757e-05	87.972	520.970	429.426	350.103	179.425	475.430	356.373	178.039	184.182	292.572	359.416	182.031	185.657	187.346	194.057	229.440	190.272	-8191	255	
5891.849	1	1	0	0	0.21577	0.10104	0.15056	0.2141	0.19056	0.27741	0.28952	0.30801	0.052105	0.098402	0.060313	0.10949	0.092821	0.16564	0.11301	0.20239	-2.5583	-3.15	-2.725	-3.1813	-3.0687	-2.8792	-3.3229	-2.9313	-3.0438	-3.1604	-2.8417	-3.3042	-3.1021	-2.8958	-3.025	-2.9042	496.796	442.246	314.484	509.961	409.465	171.765	168.796	454.485	378.521	181.388	236.183	205.280	466.912	501.853	285.912	520.527	0.00087851	0.0010399	0.00026903	700.15	3.8668e-06	6.2144e-06	780.26	306.75	5.6778e-06	2.3223e-06	380.12	159.87	135.59	63.771	1.2411e-05	80.901	0.0014962	0.0014339	0.00040616	811.96	1.6492e-05	1.5772e-05	874.71	343.31	1.6564e-05	1.5632e-05	431.39	176.18	160.37	68.432	1.6643e-05	87.891	517.709	274.278	165.997	179.577	380.152	351.950	177.880	183.951	275.964	223.819	181.817	185.891	186.985	194.021	226.486	190.554	-8191	255	
5891.945	1	1	0	0	0.093809	0.10852	0.13569	0.17457	0.050324	0.066764	0.20525	0.068838	0.026819	0.22472	0.28291	0.17663	0.13742	0.31152	0.26787	0.083467	-2.6729	-3.3125	-2.7667	-3.0333	-3.0229	-2.8521	-3.3146	-2.9313	-2.8958	-3.2396	-3.0583	-3.0604	-3.1542	-3.0771	-3.1188	-3.1583	304.494	465.965	357.288	316.692	208.077	319.968	481.284	285.685	239.686	170.333	524.380	404.462	473.585	477.666	485.403	209.178	0.0010144	0.0010157	0.00035576	696.89	6.2483e-06	6.3395e-06	777.37	307.19	1.259e-05	1.3325e-06	381.55	159.08	135.33	63.691	1.2305e-05	81.132	0.0014842	0.0014243	0.00042376	808.52	1.6329e-05	1.5555e-05	878.66	342.51	1.6374e-05	1.5518e-05	433.37	174.9	159.36	68.257	1.7115e-05	87.518	513.896	276.912	202.591	179.379	215.708	257.974	177.706	183.984	520.412	366.889	181.980	185.839	187.117	193.899	289.669	190.446	-8191	255	
5892.041	1	1	0	0	0.14984	0.114	0.080819	0.23562	0.05778	0.14356	0.36466	0.17091	0.099084	0.10755	0.20647	0.23058	0.10457	0.14881	0.25428	0.26974	-2.5771	-3.1354	-2.8063	-3.2438	-3.1375	-2.9042	-3.2062	-3.2583	-2.8458	-3.0479	-3.0292	-3.1875	-3.2188	-2.9875	-3.0104	-2.9229	390.531	284.472	273.096	522.976	261.375	471.782	442.160	449.364	355.383	269.648	439.311	230.947	433.205	523.147	266.762	466.966	0.0010826	0.00060132	0.00037699	698.28	1.0791e-05	1.0353e-06	779.86	307.99	1.7921e-05	4.1213e-06	381.32	159.62	135.06	63.604	5.123e-06	81.244	0.0014561	0.0014212	0.00043527	806.35	1.5908e-05	1.5648e-05	880.32	342.2	1.5844e-05	1.5801e-05	435.23	174.36	158.52	68.464	1.7422e-05	87.477	520.863	498.337	214.210	179.615	317.345	386.570	178.016	183.904	296.893	421.110	181.949	186.080	186.805	193.847	242.423	190.582	-8191	255	
5892.162	1	1	0	0	0.034867	0.29917	0.14324	0.15274	0.39971	0.24515	0.096196	0.2617	0.21083	0.091185	0.38317	0.17631	0.28514	0.36632	0.12643	0.16463	-2.4854	-3.1458	-2.8854	-3.1813	-3.0396	-2.9188	-3.3833	-3.1854	-2.7646	-3.1271	-2.925	-3.1	-3.2458	-2.9646	-3.1688	-3.1854	477.420	481.688	499.729	504.875	296.930	456.007	507.089	512.208	192.066	276.034	363.739	222.095	171.897	425.720	319.859	499.825	0.0010749	0.001008	0.00015055	699.93	6.5967e-06	2.1411e-05	778.21	309.15	6.1782e-06	1.1865e-05	384.9	158.89	134.68	63.883	7.2551e-06	81.013	0.0014297	0.0014791	0.00044447	805.9	1.5771e-05	1.644e-05	882.22	342.65	1.5688e-05	1.6533e-05	436.22	174.45	158.02	68.925	1.7218e-05	87.398	525.387	213.109	347.292	179.352	285.638	248.518	177.984	183.924	379.640	284.555	181.976	185.394	187.420	193.702	320.719	190.626	-8191	255	
5892.258	1	1	0	0	0.26884	0.0053095	0.14659	0.24164	0.040555	0.10374	0.18737	0.12018	0.079514	0.12921	0.10202	0.05195	0.084116	0.32006	0.21887	0.24881	-2.1937	-3.2125	-2.8667	-2.925	-3.2125	-2.9	-3.2354	-3.1396	-2.825	-3.2146	-3.125	-3.0042	-3.3167	-3.0479	-3.0812	-3.2521	369.075	493.289	337.383	484.986	397.545	428.230	418.914	228.636	166.399	365.998	186.409	312.617	391.722	172.250	177.480	498.930	0.0010997	0.00015065	5.7771e-05	695.27	3.0527e-06	1.2131e-05	780.45	307.38	3.6065e-06	5.3627e-06	382.71	159.94	135.01	63.883	7.2985e-06	81.587	0.0014053	0.0015352	0.00043352	801.8	1.5514e-05	1.6949e-05	879.78	340.89	1.5368e-05	1.6871e-05	433.37	174.01	157.7	69.037	1.6615e-05	87.5	522.386	450.981	181.726	179.506	217.077	309.212	178.054	184.009	195.242	282.237	182.272	185.531	187.160	193.799	320.490	190.639	-8191	255	
5892.354	1	1	0	0	0.28666	0.1989	0.069278	0.23482	0.15518	0.19969	0.050644	0.15483	0.11026	0.20633	0.13682	0.2649	0.21229	0.31632	0.075479	0.14734	-2.4	-3.025	-2.9875	-2.8708	-3.0896	-3.0167	-3.1354	-3.2458	-2.8917	-2.9771	-3.0396	-2.9437	-3.1813	-2.9313	-2.8146	-3.3063	421.453	423.423	307.923	498.112	314.943	259.624	322.683	184.669	208.262	466.643	337.809	407.194	509.120	510.418	272.744	442.572	0.0010562	0.0011951	0.00020561	702.38	1.5052e-06	1.4588e-05	780.43	308.98	1.0019e-05	7.04e-06	384.51	160.6	136.34	64.267	7.018e-06	81.854	0.0014127	0.0015687	0.0004221	801.77	1.5662e-05	1.7271e-05	879.17	341.1	1.5858e-05	1.7304e-05	434.84	174.74	160.19	69.442	1.6452e-05	87.769	512.060	454.553	327.114	179.656	208.923	264.035	178.232	183.699	513.154	427.759	181.977	185.911	187.020	194.121	374.928	190.458	-8191	255	
5892.426	1	1	0	0	0.18684	0.21062	0.06052	0.32007	0.21507	0.14939	0.092465	0.15362	0.096547	0.10956	0.14193	0.3036	0.20215	0.22313	0.1379	0.20389	-2.2917	-3.1771	-3	-2.9792	-3.1875	-2.9396	-2.9042	-3.325	-2.7042	-3.2021	-3.1083	-2.8312	-3.3833	-2.9833	-3.0333	-3.4042	391.903	312.743	459.943	172.938	351.690	522.978	212.018	522.324	387.170	236.902	431.122	448.546	438.775	494.635	448.199	430.317	0.0011677	0.00019672	0.00034623	695.59	5.44e-06	7.6388e-06	779.32	308.44	5.8389e-06	1.0635e-05	384.27	159.51	134.46	63.603	6.77e-06	80.806	0.0014827	0.0015923	0.00041848	796.36	1.6622e-05	1.731e-05	875.25	340.7	1.6695e-05	1.7231e-05	432.43	173.43	160.57	68.86	1.621e-05	86.921	510.301	356.088	315.847	179.423	224.959	348.865	178.126	184.134	192.333	422.413	181.902	186.036	186.756	193.914	359.891	190.630	-8191	255	
5892.522	1	1	0	0	0.09034	0.25265	0.13782	0.15709	0.20587	0.15548	0.24755	0.17185	0.22992	0.098881	0.088286	0.046414	0.20925	0.13436	0.28149	0.27583	-2.3563	-3.1063	-2.9938	-2.9062	-3.2687	-2.9604	-2.8875	-3.4521	-2.9875	-2.9583	-3.3333	-3.0125	-2.9771	-3.1229	-2.9688	-3.2167	417.520	218.997	336.015	518.096	400.133	368.680	396.900	420.135	482.603	510.202	180.993	491.220	377.296	457.924	310.416	479.236	0.00112	0.00077006	0.00022038	692.51	4.2634e-06	7.8943e-06	777.47	306.67	6.0421e-06	8.3971e-06	378.23	158.51	134.65	63.392	4.6191e-06	80.756	0.0015347	0.001561	0.00041204	795.58	1.7281e-05	1.7151e-05	871.73	339.73	1.7527e-05	1.7127e-05	429.37	173.02	162.08	68.52	1.6131e-05	86.852	512.643	317.310	203.395	179.490	325.604	496.250	178.161	183.982	307.573	377.905	181.713	185.971	186.903	193.890	276.190	190.664	-8191	255	
5892.642	1	1	0	0	0.19477	0.24397	0.16352	0.043676	0.042696	0.09339	0.29921	0.16285	0.13761	0.24254	0.24307	0.114	0.18779	0.22093	0.10388	0.19566	-2.5104	-2.9771	-3.0979	-2.9854	-3.2125	-3.1063	-3.0333	-3.3292	-3.0208	-3.0667	-3.3208	-3.1354	-3.2562	-3.1979	-2.8875	-3.2646	167.609	223.519	167.024	432.492	253.626	169.046	507.176	186.928	190.106	188.983	520.319	195.316	247.323	483.096	193.466	497.032	0.0010378	0.001027	0.0001038	692.51	3.3589e-06	4.2827e-06	775.29	306.78	9.7246e-06	2.3323e-06	378.45	159.09	134.86	63.461	5.1333e-06	80.912	0.0015835	0.0015357	0.00040555	798.2	1.751e-05	1.6719e-05	867.9	339.77	1.757e-05	1.6723e-05	428.46	174.11	162.47	68.673	1.6058e-05	87.607	517.257	277.582	457.076	179.274	231.133	329.496	178.186	183.952	182.391	327.235	182.184	185.641	187.299	193.837	349.434	190.554	-8191	255	
5892.737	1	1	0	0	0.19874	0.15075	0.10427	0.12786	0.13798	0.13967	0.26911	0.25555	0.20067	0.053805	0.22044	0.25472	0.085048	0.11824	0.061723	0.26152	-2.5083	-2.6896	-3.1813	-3.0521	-3.2188	-3.3146	-2.9458	-3.3167	-2.8812	-3.0312	-3.375	-3.0187	-3.0854	-3.1312	-2.9042	-3.3688	193.545	280.941	368.132	176.607	351.982	246.335	443.132	507.688	525.777	286.486	466.314	484.135	269.288	443.851	185.526	428.212	0.0011582	0.00038329	0.00019879	694.58	5.1269e-06	2.094e-05	778.05	307.25	2.5803e-06	1.2508e-05	381.61	160.11	134.43	63.92	7.0321e-06	81.817	0.0016029	0.0015237	0.00040477	804.48	1.7635e-05	1.6767e-05	870.08	342.73	1.7555e-05	1.6664e-05	430.46	175.92	161.95	68.811	1.5607e-05	88.425	515.015	459.272	332.248	179.322	289.052	372.914	178.271	183.968	237.054	377.786	182.078	185.781	187.492	193.841	277.544	190.422	-8191	255	
5892.833	1	1	0	0	0.11983	0.078858	0.11976	0.13822	0.2703	0.049833	0.12408	0.091867	0.031004	0.09512	0.15953	0.24943	0.17842	0.15641	0.24189	0.19408	-2.5604	-3.025	-3.0521	-3.0312	-3.1333	-3.2896	-3.0583	-3.2812	-3.075	-3.0104	-3.2792	-3.0125	-3.1292	-3.3458	-3.0438	-3.3271	355.279	474.067	331.783	235.595	280.859	169.453	474.776	508.700	382.767	500.079	362.304	472.631	453.192	253.579	514.946	215.607	0.00095462	0.00039781	0.00013987	694.59	9.8264e-06	1.3226e-05	778.13	308.71	7.3736e-06	8.063e-06	382.71	159.16	134.43	63.804	8.0761e-06	81.473	0.0015325	0.0014639	0.00039428	806.4	1.6756e-05	1.5915e-05	867.88	342.89	1.6609e-05	1.5905e-05	430.11	175.93	160.32	68.624	1.5923e-05	88.34	522.226	299.380	304.464	179.455	321.565	324.063	178.097	184.231	279.598	344.840	181.871	185.797	187.364	193.903	261.058	190.692	-8191	255	
5892.929	1	1	0	0	0.1566	0.037831	0.15929	0.42839	0.13209	0.18958	0.36302	0.090029	0.082968	0.14788	0.07475	0.095138	0.10714	0.39384	0.33276	0.40482	-2.3833	-2.8854	-3.1562	-2.9417	-3.0125	-3.1625	-3.075	-3.2667	-2.8917	-2.6854	-3.35	-2.9396	-3.1	-3.2938	-3.0729	-3.1937	240.962	387.630	263.113	472.470	234.526	413.767	496.465	414.592	399.103	444.430	220.130	192.577	488.598	474.355	283.012	481.951	0.0010476	0.00070465	7.3022e-05	693.53	4.9445e-06	5.0944e-06	776.83	309.07	8.7857e-06	2.6208e-06	381.07	158.98	134.31	63.633	8.4072e-06	81.418	0.0015095	0.0014369	0.00041023	808.79	1.6508e-05	1.5764e-05	872.61	343.7	1.6486e-05	1.5585e-05	431.66	175.32	159.37	68.324	1.666e-05	88.098	520.258	266.689	204.685	179.448	347.702	318.934	178.008	183.929	307.666	435.540	181.885	185.855	187.452	193.808	228.474	190.757	-8191	255	
5893.025	1	1	0	0	0.20252	0.0242	0.24181	0.22234	0.074724	0.10668	0.21895	0.024045	0.10329	0.10568	0.24795	0.086321	0.10248	0.10321	0.08165	0.27895	-2.5833	-2.875	-3.0938	-2.8917	-3.0021	-3.2687	-3.0812	-3.1188	-2.9896	-2.7271	-3.2	-2.9792	-2.7771	-3.5083	-2.9958	-3.2146	505.258	326.960	349.883	205.949	507.634	352.486	185.191	328.883	173.090	489.161	429.474	212.605	269.255	475.714	477.499	490.547	0.0010323	0.00096906	0.00030135	694.63	9.3107e-06	7.5079e-06	777.37	307.56	6.6895e-06	4.6399e-06	380.99	159.31	134.83	63.671	6.2641e-06	81.22	0.0014772	0.0014168	0.00042947	806.93	1.6424e-05	1.5655e-05	878.06	343.35	1.6616e-05	1.5861e-05	435.27	175.3	159.57	68.494	1.7713e-05	88.117	171.455	265.757	193.675	179.634	310.323	331.960	177.881	183.772	324.350	327.609	181.534	185.925	187.270	193.930	251.257	190.615	-8191	255	
5893.121	1	1	0	0	0.050787	0.36742	0.14613	0.44727	0.12007	0.10619	0.1071	0.15607	0.08607	0.16613	0.34018	0.067547	0.27796	0.34788	0.024456	0.17713	-2.6167	-2.8083	-3.1271	-3.0792	-2.8792	-3.3646	-2.9021	-3	-3.1417	-2.8896	-3.2354	-3.1708	-2.8229	-3.4292	-2.8875	-3.2646	380.787	509.416	167.390	511.965	181.174	290.434	468.375	338.475	502.414	407.053	516.081	505.722	199.768	491.927	183.515	409.075	0.00084946	0.0008394	0.00010899	693.09	5.1823e-06	1.459e-05	779.02	307.23	6.1118e-06	9.5534e-06	380.63	159.23	134.79	63.566	1.4053e-05	81.237	0.0014897	0.0014723	0.00045397	806.86	1.6395e-05	1.6405e-05	884.36	342.35	1.6306e-05	1.6345e-05	436.43	175.14	158.5	68.545	1.7847e-05	87.967	179.096	481.690	524.285	179.531	289.004	248.475	178.217	183.982	276.048	319.493	182.024	186.094	186.874	193.917	308.989	190.419	-8191	255	
5893.242	1	1	0	0	0.13505	0.036555	0.06068	0.22397	0.23782	0.22089	0.20963	0.26015	0.1785	0.18778	0.12032	0.38951	0.17448	0.19921	0.047853	0.18268	-2.8771	-2.8646	-3.2062	-3.1333	-2.8375	-3.1083	-2.9938	-3.2167	-3.2375	-2.7938	-3.0812	-3.1396	-2.9896	-3.2896	-2.8583	-3.2062	418.000	181.860	181.278	181.677	467.245	252.084	186.339	371.100	489.896	251.531	478.986	463.898	503.455	221.303	229.378	304.322	0.001173	0.0015197	0.00030073	695.91	4.4137e-06	1.8898e-05	781.72	307.45	2.0116e-06	8.1456e-06	384.02	159.59	135.36	63.665	6.706e-06	81.505	0.0014639	0.0015332	0.0004552	806.26	1.6141e-05	1.7106e-05	887.47	342.64	1.6029e-05	1.717e-05	438.23	175.07	158.59	68.965	1.7473e-05	87.842	170.916	519.846	330.081	179.580	312.937	204.422	177.857	184.110	513.816	238.096	182.053	185.834	187.275	194.097	369.072	190.680	-8191	255	
5893.338	1	1	0	0	0.13871	0.24912	0.2743	0.34817	0.092323	0.099679	0.049202	0.27727	0.24828	0.10143	0.31856	0.25286	0.1368	0.26061	0.33736	0.18931	-2.8333	-2.7875	-3.05	-3.25	-2.8417	-3.0979	-2.9562	-3.0146	-3.0875	-2.9396	-3.0292	-3.2792	-2.8042	-3.2771	-2.95	-3.1667	478.899	457.315	382.304	499.208	332.405	306.857	319.591	478.625	235.235	184.151	481.082	363.416	184.962	520.684	345.023	224.673	0.0011751	0.0004492	2.3602e-05	693.04	4.1051e-06	5.3001e-06	775.32	306.14	8.032e-06	8.3001e-06	381.41	159.16	134.91	63.208	1.4184e-05	80.712	0.0014381	0.0015836	0.00044341	800.15	1.5842e-05	1.7487e-05	879.21	340.1	1.5937e-05	1.7496e-05	433.95	174.06	158.05	68.739	1.6973e-05	86.938	511.946	521.425	439.316	179.636	521.320	313.980	178.184	184.071	195.935	285.590	182.125	185.630	186.830	194.051	399.777	190.561	-8191	255	
5893.434	1	1	0	0	0.2157	0.23123	0.018756	0.28484	0.26356	0.10426	0.26284	0.17218	0.19111	0.13244	0.3565	0.32179	0.23656	0.16393	0.17976	0.20909	-2.7625	-2.8083	-3.0333	-3.1729	-2.9229	-2.9667	-3.0312	-2.875	-3.0708	-2.9021	-3.1917	-3.2812	-2.7875	-3.3542	-2.9437	-3.0938	515.695	407.764	242.983	439.231	497.263	436.511	500.668	491.072	391.498	222.156	470.308	476.850	504.114	465.293	502.668	486.397	0.00090897	0.00036896	0.00022003	693.49	5.9788e-06	5.1933e-06	772.55	305.02	1.264e-05	8.0534e-06	382.09	158.6	134.97	63.297	4.2513e-06	80.388	0.0014315	0.0015886	0.0004249	793.92	1.5909e-05	1.7357e-05	869.47	337.38	1.608e-05	1.7367e-05	430.47	172.41	158.68	68.476	1.6412e-05	86.34	523.921	367.980	245.046	179.114	284.242	322.662	178.032	184.143	253.702	386.834	182.093	185.638	186.911	193.946	247.919	190.518	-8191	255	
5893.530	1	1	0	0	0.23343	0.15948	0.15241	0.12481	0.11225	0.054161	0.39484	0.25389	0.046747	0.11405	0.12893	0.27804	0.057724	0.14259	0.26897	0.14028	-2.6167	-2.8917	-2.8771	-3.2083	-2.8125	-3.1833	-3.2062	-2.8063	-3.3083	-2.9042	-3.0312	-3.4833	-3.0146	-3.3208	-3.2292	-2.8771	444.375	331.859	292.026	512.359	272.641	300.983	468.558	514.387	231.222	462.691	196.334	444.769	371.510	515.129	230.705	397.301	0.001404	0.00074692	0.00024992	694.4	4.3372e-06	7.5041e-06	770.4	304.99	1.0591e-05	9.8933e-06	377.83	158.03	134.14	63.083	8.638e-06	80.557	0.0014837	0.0015735	0.00041403	792.02	1.6597e-05	1.7352e-05	869.94	336.6	1.7061e-05	1.7524e-05	429.56	172.6	161	68.518	1.6642e-05	86.675	512.406	234.322	355.009	179.416	233.417	330.129	177.897	184.118	248.275	353.151	182.064	185.671	186.856	193.915	355.294	190.396	-8191	255	
5893.651	1	1	0	0	0.17962	0.14576	0.05917	0.012303	0.058546	0.12914	0.10843	0.18839	0.25577	0.22036	0.10419	0.11365	0.08195	0.35826	0.19594	0.32375	-2.725	-2.9021	-2.9062	-3.2042	-2.6437	-3.1042	-3.1875	-2.875	-3.2833	-2.9333	-3.0583	-3.5125	-2.8688	-3.2104	-3.0687	-2.8958	323.001	476.110	517.773	326.864	190.926	375.681	369.055	490.245	395.623	265.458	483.470	516.485	181.337	511.786	339.509	455.707	0.0012068	0.00092783	0.00020865	688.97	6.0047e-06	8.1694e-06	774.2	304.23	5.6016e-06	8.2215e-06	378.22	158.49	133.3	62.637	6.5245e-06	80.755	0.0015785	0.0015736	0.0004151	793.39	1.74e-05	1.7125e-05	869.44	335.85	1.7543e-05	1.7053e-05	426.77	172.7	160.73	67.938	1.593e-05	86.61	519.300	277.904	285.212	179.295	450.466	515.327	177.967	184.028	244.026	445.368	181.917	185.736	186.994	193.930	298.552	190.591	-8191	255	
5893.723	1	1	0	0	0.060681	0.11774	0.17252	0.11588	0.25474	0.22607	0.15283	0.3089	0.089373	0.10746	0.27051	0.27476	0.16067	0.034445	0.20163	0.21178	-2.6333	-2.8417	-2.8167	-3.3458	-2.8917	-2.9938	-3.2188	-3.0292	-3.1125	-3.1188	-2.9521	-3.2833	-3.0062	-3.1917	-3.2125	-2.9458	326.181	390.849	484.717	236.063	218.087	301.517	179.998	452.974	322.765	431.514	501.578	485.201	460.457	173.864	480.379	185.429	0.0012606	0.00051536	0.0003521	693.81	6.3719e-06	4.4204e-06	773.14	302.56	1.1973e-05	1.5758e-06	376.5	157.1	133	62.105	5.6791e-06	79.423	0.0015842	0.0015289	0.00040126	796.98	1.764e-05	1.6772e-05	864.44	336.31	1.7382e-05	1.6472e-05	423.03	172.18	159.89	67.217	1.5634e-05	85.653	513.482	241.511	355.850	179.181	229.309	483.311	178.199	183.786	355.828	395.690	181.924	185.812	187.163	194.024	337.088	190.637	-8191	255	
5893.842	1	1	0	0	0.24275	0.27897	0.25879	0.071818	0.24292	0.18874	0.34285	0.26613	0.046067	0.058634	0.092541	0.096647	0.1276	0.12202	0.093976	0.20292	-2.7958	-2.9229	-2.9271	-3.2104	-2.8	-2.9104	-3.0396	-2.8937	-3.05	-2.9708	-2.9167	-3.1458	-3.0875	-2.8542	-3.0271	-2.9729	325.507	196.406	433.650	167.377	313.069	296.046	477.492	427.050	396.094	406.976	307.910	430.988	205.408	232.795	379.586	519.343	0.0011735	0.0017691	0.00024613	686	3.2725e-06	1.1854e-05	764.35	300.99	4.3488e-06	1.7372e-05	373.45	155.26	133.42	61.876	3.7575e-06	78.708	0.0015718	0.0014958	0.00039609	795.83	1.7229e-05	1.6329e-05	856.56	335.71	1.6985e-05	1.6214e-05	419.46	171.47	158.76	66.753	1.5338e-05	85.52	169.462	303.205	309.468	179.563	320.568	378.779	178.006	183.758	329.197	377.432	181.867	185.697	187.377	194.149	259.155	190.759	-8191	255	
5893.938	1	1	0	0	0.093793	0.24297	0.17921	0.2034	0.1985	0.068058	0.099953	0.13638	0.15366	0.080622	0.25425	0.20538	0.14607	0.26089	0.18634	0.031098	-2.5708	-3.2354	-2.8729	-3.2438	-3.0417	-2.7396	-3.1875	-3.0312	-2.9958	-3.1896	-3.0854	-3.0938	-3.0938	-3.0125	-3.1417	-2.9792	240.918	302.843	285.564	169.854	229.481	290.300	467.859	413.942	489.687	492.891	321.964	430.267	350.653	514.072	229.524	226.498	0.00091694	0.0004452	0.00013193	689.05	1.2966e-05	9.5078e-06	771.41	301.01	6.7157e-06	5.4039e-06	374.25	156.23	132.02	62.172	1.1797e-05	79.219	0.0015093	0.0014541	0.00039575	800.52	1.6723e-05	1.5987e-05	862.57	337.32	1.6704e-05	1.5926e-05	423.39	172.95	158.23	66.972	1.6144e-05	86.082	166.350	289.916	253.975	179.331	268.407	403.538	177.958	183.948	511.159	436.410	181.913	185.993	186.912	193.960	277.357	190.677	-8191	255	
5894.034	1	1	0	0	0.29542	0.13229	0.13099	0.28939	0.25244	0.073316	0.13905	0.094533	0.28251	0.26001	0.26078	0.075667	0.18638	0.28819	0.075089	0.37391	-2.3771	-3.1917	-2.6562	-3.1042	-3.2229	-2.8521	-3.2792	-2.9667	-2.8729	-3.2396	-3.1167	-3.2687	-3.1042	-2.9562	-3.0479	-2.9917	220.177	523.875	333.295	166.422	291.986	498.280	394.771	498.056	194.480	444.580	468.373	284.320	234.976	515.185	372.865	477.761	0.0010009	0.0020047	0.00012411	686.19	1.1485e-05	4.2542e-06	775.09	303.79	7.6751e-06	4.8487e-06	376.51	156.83	134.07	62.498	5.7898e-06	79.85	0.0014919	0.0014353	0.00041074	801.53	1.6345e-05	1.5429e-05	869.98	338.59	1.6143e-05	1.5439e-05	427.18	172.95	157.61	67.117	1.6614e-05	86.483	513.384	292.831	240.991	179.687	309.977	365.613	178.106	183.936	308.105	385.919	181.996	185.751	187.196	194.147	223.476	190.575	-8191	255	
5894.130	1	1	0	0	0.05712	0.035974	0.19577	0.22627	0.21758	0.24162	0.15627	0.33571	0.11665	0.0038137	0.18117	0.090899	0.087424	0.14781	0.078877	0.18043	-2.5271	-3.1104	-2.8521	-3.2146	-3.0646	-2.8396	-3.2792	-3.0167	-3.0292	-3.0604	-2.8792	-3.1688	-2.9375	-3.1167	-3.2104	-3.225	277.099	263.866	197.866	499.252	277.074	494.322	456.050	416.866	370.080	508.499	445.554	327.831	512.422	426.398	251.973	466.787	0.00093526	0.00083949	0.00030078	692.65	2.3736e-06	1.4116e-05	774.49	304.21	6.1672e-06	3.0722e-06	378.73	158.33	132.98	62.425	4.3407e-06	80.059	0.0014622	0.0014082	0.00042836	803.6	1.6206e-05	1.5518e-05	876.48	339.03	1.6168e-05	1.575e-05	431.58	173.58	157.28	67.296	1.7298e-05	86.468	518.492	256.257	506.715	179.607	381.368	281.528	178.100	184.169	250.542	278.407	181.849	185.814	187.185	193.939	227.933	190.631	-8191	255	
5894.226	1	1	0	0	0.15117	0.084046	0.18706	0.27734	0.06	0.30337	0.35838	0.055945	0.13164	0.13859	0.2976	0.098362	0.14324	0.061945	0.18161	0.45863	-2.4375	-3.1396	-2.7875	-3.1188	-3.0917	-2.7354	-3.0229	-3.2083	-2.8063	-3.2292	-2.9083	-2.9479	-3.125	-2.9667	-2.9083	-3.0604	437.314	182.388	203.127	503.422	429.746	216.540	490.872	404.397	345.374	219.282	462.693	521.002	252.103	518.770	192.202	411.087	0.00097115	0.0010794	0.00036599	687.7	3.3117e-06	1.2655e-05	773.24	303.13	4.6243e-06	3.454e-06	374.33	157.36	132.96	62.261	8.8665e-06	78.715	0.0014455	0.0014407	0.00043964	798.47	1.5892e-05	1.5943e-05	876.29	336.75	1.5663e-05	1.5983e-05	429.51	171.98	156.05	67.128	1.7361e-05	85.293	525.307	228.709	237.342	179.284	363.900	248.183	178.081	183.875	443.944	312.862	181.844	185.961	187.509	193.973	389.870	190.605	-8191	255	
5894.322	1	1	0	0	0.078807	0.10427	0.15767	0.29118	0.056447	0.13267	0.14938	0.40696	0.20527	0.24377	0.12801	0.18921	0.090942	0.16161	0.11187	0.24655	-2.2667	-3.2292	-2.7604	-2.9896	-3.15	-2.7333	-3.1521	-2.925	-2.8771	-3.1771	-2.9354	-2.9146	-3.1063	-2.975	-3.1021	-3.0542	345.589	500.130	217.376	515.885	317.932	167.648	451.740	518.591	174.822	508.595	439.368	170.633	487.353	451.135	394.485	446.170	0.0011375	0.0012472	0.00040303	686.2	6.7938e-06	5.5224e-06	770.18	300.22	6.1972e-06	6.1564e-06	375.47	156.49	132.93	61.994	1.2073e-05	79.116	0.001415	0.0015058	0.00044417	795.41	1.5642e-05	1.6691e-05	872.77	334.71	1.5584e-05	1.6815e-05	428.98	170.96	155.79	67.298	1.7271e-05	85.41	512.537	213.944	278.737	179.639	318.407	376.150	178.004	184.248	249.111	274.021	181.725	185.997	187.110	193.999	319.871	190.624	-8191	255	
5894.418	1	1	0	0	0.16907	0.15034	0.27708	0.0096045	0.14196	0.25609	0.11876	0.025589	0.23334	0.049104	0.37443	0.12983	0.19541	0.16454	0.093364	0.095758	-2.3792	-3.3333	-3.0146	-2.9292	-3.0333	-2.9562	-3.2667	-3.2042	-2.6521	-3.3	-3.1312	-3.15	-3.1292	-2.8583	-3.2208	-3.1979	289.144	482.185	388.493	330.341	283.118	412.627	408.051	410.378	347.628	226.349	483.163	229.129	410.115	441.883	342.946	379.107	0.0012137	0.00065112	0.00014354	687.16	2.5662e-06	9.6413e-06	774.19	303.67	5.2409e-06	6.7965e-06	378.16	157.26	133.52	62.555	1.1981e-05	79.685	0.0014141	0.0015715	0.00043747	793.4	1.5757e-05	1.7459e-05	874.84	337	1.5955e-05	1.7665e-05	431.27	171.99	157.74	68.014	1.7207e-05	85.977	522.425	483.139	356.193	179.441	308.180	314.122	178.142	183.933	252.034	364.583	181.825	185.959	187.171	193.958	365.850	190.802	-8191	255	
5894.515	1	1	0	0	0.073967	0.16074	0.20389	0.19409	0.10997	0.073536	0.018082	0.086431	0.11648	0.078013	0.193	0.14192	0.12671	0.050389	0.15989	0.3288	-2.3146	-3.0812	-2.9625	-3.0229	-3.0875	-2.9396	-3.125	-3.3604	-2.8583	-3.075	-2.975	-2.9083	-3.0708	-3.0312	-2.9771	-3.2938	247.367	264.493	426.413	463.869	262.731	375.037	415.406	307.560	289.727	192.417	413.616	496.924	238.255	423.281	396.117	509.512	0.0011904	0.0013774	0.00020012	688.12	2.3661e-06	4.783e-06	779.61	301.97	5.2571e-06	8.2719e-06	379.53	157.42	132.73	62.805	2.5302e-06	79.718	0.0014754	0.0016354	0.00043284	794.29	1.6413e-05	1.7947e-05	875.79	335.83	1.6723e-05	1.8039e-05	431.47	172.45	159.92	68.219	1.7218e-05	86.253	517.828	323.173	411.419	179.684	200.312	231.290	178.150	184.249	307.747	276.607	181.939	185.977	187.176	193.916	346.727	190.401	-8191	255	
5894.611	1	1	0	0	0.086844	0.15099	0.31557	0.25896	0.23388	0.13164	0.27343	0.27149	0.20646	0.16604	0.15509	0.26084	0.14396	0.18654	0.094221	0.084095	-2.4729	-3.0521	-2.9833	-2.9562	-3.2438	-2.9625	-2.9562	-3.175	-2.8354	-3.0792	-3.225	-2.9354	-3.1562	-3.1312	-3.0521	-3.2125	513.314	355.788	490.822	391.496	202.308	364.880	481.080	490.908	318.423	218.931	402.066	518.665	520.572	233.199	437.111	179.911	0.0011727	0.00063456	0.00040322	687.65	6.5924e-06	1.2761e-05	771.3	302.17	1.6615e-06	2.9547e-06	376.53	156.46	133.88	62.506	5.5184e-06	79.566	0.0015626	0.0016472	0.00043307	792.7	1.7364e-05	1.7834e-05	873.57	336.03	1.7513e-05	1.7713e-05	429.3	171.71	160.62	67.905	1.6759e-05	85.842	514.683	277.059	298.255	179.519	315.328	336.317	178.096	184.068	410.701	352.180	182.041	185.801	187.334	193.940	364.862	190.747	-8191	255	
5894.730	1	1	0	0	0.29429	0.30375	0.16801	0.32729	0.21651	0.13824	0.3353	0.17495	0.16332	0.14697	0.076097	0.20294	0.32132	0.31235	0.14339	0.1861	-2.5312	-3.0646	-3.2021	-2.9646	-3.2146	-3.0062	-2.9583	-3.2417	-3.0708	-3.0896	-3.2625	-2.9208	-3.1125	-3.1063	-2.8521	-3.3396	308.935	524.405	352.688	481.923	185.253	474.265	470.380	477.772	376.487	384.961	418.261	472.311	511.660	467.561	242.783	371.309	0.00095747	0.0009808	0.00018459	684.36	4.5098e-06	8.6228e-06	770.49	302.98	1.5287e-05	1.796e-05	375.56	156.47	132.45	62.281	4.3848e-06	79.451	0.0016056	0.0016056	0.00042229	791.62	1.7902e-05	1.7465e-05	868	336.03	1.797e-05	1.732e-05	426.58	171.58	161.23	67.47	1.6137e-05	85.746	167.789	219.453	310.921	179.466	229.287	367.579	177.979	184.078	277.119	365.457	182.201	185.768	186.979	193.888	310.472	190.401	-8191	255	
5894.826	1	1	0	0	0.055171	0.095975	0.17548	0.18328	0.025096	0.13513	0.16568	0.15854	0.10388	0.22718	0.26867	0.22275	0.12949	0.19241	0.2203	0.22269	-2.5396	-2.9667	-3.1458	-2.8812	-3.1729	-2.9938	-2.8396	-3.4146	-2.7313	-2.9271	-3.325	-3.0042	-3.1375	-3.2583	-2.7229	-3.2	259.547	488.426	188.333	414.481	318.903	300.948	510.536	427.695	172.526	395.448	473.396	196.920	377.972	510.261	381.848	467.031	0.0011756	0.00065305	0.00041379	687.3	4.3897e-06	1.6774e-06	770.99	302.62	4.1206e-06	1.0493e-05	376.19	156.11	132.86	62.377	4.1124e-06	79.215	0.0016132	0.0015496	0.00040894	796.06	1.7809e-05	1.6829e-05	864.05	337.04	1.7761e-05	1.6799e-05	424.71	172.17	160.95	67.496	1.616e-05	86.336	524.620	300.389	252.933	179.284	282.906	366.778	178.138	184.074	353.995	328.202	181.867	185.929	187.205	193.965	181.796	190.561	-8191	255	
5894.922	1	1	0	0	0.068226	0.12823	0.10275	0.23451	0.22563	0.29844	0.15823	0.01525	0.11939	0.12953	0.2192	0.14374	0.13841	0.2522	0.041837	0.30572	-2.4458	-2.95	-3.0563	-2.8396	-2.8937	-3.0312	-3.05	-3.3396	-2.8937	-2.8875	-3.2812	-3.0208	-3.0062	-3.3167	-2.8125	-3.4813	428.153	182.873	296.685	477.616	471.820	364.757	477.599	478.073	421.787	461.603	474.082	292.298	422.697	488.786	215.407	455.898	0.00093116	0.00018849	0.00036242	687.2	8.8352e-07	2.0243e-05	767.98	302.88	8.2204e-06	8.2306e-06	375.94	155.89	133.13	61.98	5.5975e-06	79.136	0.0016138	0.0015501	0.00041279	803.28	1.786e-05	1.6984e-05	864.16	338.62	1.7599e-05	1.6809e-05	424.73	172.8	159.89	67.101	1.6203e-05	86.285	521.978	294.406	254.737	179.253	406.845	339.515	178.179	184.181	364.794	316.763	181.790	185.885	187.110	194.143	222.151	190.645	-8191	255	
5895.018	1	1	0	0	0.11902	0.31887	0.23301	0.12501	0.32688	0.24817	0.2859	0.19752	0.30632	0.26311	0.073185	0.135	0.15994	0.19841	0.22602	0.1985	-2.6104	-2.8292	-3.0458	-3.0917	-3.2542	-3.0417	-2.925	-3.3917	-3.2125	-2.9813	-3.1646	-3.0187	-2.9	-3.3021	-2.9021	-3.1271	298.685	263.901	521.632	242.423	290.442	517.872	398.507	522.510	474.688	287.007	259.004	166.524	214.355	485.709	408.080	497.344	0.00080763	0.0010326	0.00035779	686.17	6.9353e-06	1.4198e-05	773.16	300.37	3.3467e-06	7.5769e-06	375.77	156.71	132.18	62.408	5.8547e-06	79.705	0.0015839	0.0015196	0.00041797	803.63	1.7483e-05	1.6715e-05	868.76	338.51	1.7359e-05	1.6648e-05	427.12	173.89	159.2	67.253	1.7025e-05	86.834	514.763	242.857	203.577	179.397	316.321	303.434	177.998	184.151	248.806	468.283	181.954	185.851	187.371	194.029	289.431	190.521	-8191	255	
5895.114	1	1	0	0	0.11846	0.15894	0.089097	0.10923	0.074156	0.13889	0.3983	0.20255	0.26094	0.13783	0.17326	0.11589	0.13191	0.31417	0.18212	0.064316	-2.6771	-2.8958	-3.2521	-3.0271	-2.8917	-3.1688	-2.9021	-3.0062	-3.1104	-2.7958	-3.4042	-3.0792	-3.1646	-3.1792	-2.9771	-3.3	481.822	389.869	309.790	468.685	425.518	167.850	470.051	458.088	375.744	507.739	424.811	461.430	422.280	475.312	225.756	168.349	0.00098528	0.00042233	0.00049774	684.16	2.3414e-06	1.0419e-05	772.23	301.09	6.8389e-06	8.7464e-06	375.46	155.86	132.21	62.07	1.2766e-05	79.106	0.0015634	0.0015017	0.00043297	803.23	1.7185e-05	1.6358e-05	872.11	338.65	1.7147e-05	1.6287e-05	430.04	173	158.57	67.078	1.7905e-05	86.42	524.235	214.667	227.344	179.529	399.004	306.132	178.139	184.173	337.422	343.813	182.279	185.721	187.389	193.930	282.507	190.791	-8191	255	
5895.210	1	1	0	0	0.094879	0.087824	0.22935	0.12937	0.094983	0.10246	0.29208	0.19609	0.1635	0.10336	0.13798	0.25743	0.14152	0.23903	0.14676	0.20126	-2.7875	-2.9375	-3.1333	-3.0104	-2.8604	-3.3438	-3.0312	-3.1792	-3.0042	-3.0375	-3.2042	-3.1417	-3.0042	-3.2188	-2.7958	-3.2687	362.706	408.405	246.803	469.185	337.634	500.970	475.332	457.427	440.058	407.281	504.326	178.319	517.307	492.613	322.640	441.115	0.0010154	0.00038563	0.00021263	685.74	8.5195e-06	9.9496e-06	767.35	300.93	3.6633e-06	7.8303e-06	372.46	155.65	132.09	61.853	1.0877e-05	78.902	0.001544	0.0014973	0.00045778	801.56	1.6893e-05	1.6306e-05	872.26	337.27	1.6592e-05	1.6202e-05	428.96	171.7	156.55	66.82	1.7765e-05	85.704	525.634	499.674	180.234	179.277	277.111	292.494	178.053	184.431	341.978	278.661	182.168	185.890	187.238	193.992	290.346	190.508	-8191	255	
5895.331	1	1	0	0	0.068652	0.22481	0.07434	0.029195	0.25452	0.13126	0.085961	0.096813	0.3399	0.17228	0.20907	0.13823	0.14668	0.30625	0.19607	0.21515	-2.6562	-2.7188	-2.9833	-2.9688	-2.9	-3.2792	-2.9313	-2.9833	-3.1437	-3.0292	-3.2229	-3.0625	-2.9562	-3.3271	-2.8854	-3.1208	322.495	286.572	480.785	199.980	327.503	358.619	518.235	410.678	476.253	353.542	471.106	431.804	175.692	516.401	345.971	412.948	0.00090402	0.0014761	0.0005576	681.18	4.8283e-06	3.5634e-06	767.13	300.41	2.0557e-06	7.2999e-06	375.13	155.19	132.28	61.912	9.7337e-06	78.977	0.0014774	0.0014946	0.00045743	795.65	1.6399e-05	1.665e-05	873.74	335.54	1.6418e-05	1.6805e-05	431.14	171.72	156.63	67.196	1.8118e-05	85.794	510.903	252.990	275.457	179.438	269.768	309.469	178.058	184.169	387.111	339.750	182.094	185.806	187.021	193.964	315.104	190.714	-8191	255	
5895.427	1	1	0	0	0.11008	0.14414	0.010006	0.083527	0.1058	0.18114	0.40557	0.10049	0.093813	0.093343	0.094251	0.28304	0.12464	0.013128	0.16403	0.29866	-2.8625	-2.7292	-3.0542	-3.1542	-2.8563	-3.1937	-2.8542	-3.0229	-3.1917	-2.8229	-3.0667	-3.2354	-2.9	-3.35	-2.9375	-3.0042	400.794	455.690	346.586	222.042	414.251	326.155	473.302	190.837	325.874	441.304	406.381	204.967	329.700	378.220	323.519	518.794	0.0010788	0.00055262	0.00045303	682.86	3.5415e-06	8.4527e-06	769.4	299.81	2.0012e-06	1.3698e-05	374.98	156.79	132.56	61.99	7.2281e-06	79.065	0.00147	0.0015795	0.00045817	795.46	1.6144e-05	1.7478e-05	875.11	335.67	1.6123e-05	1.7461e-05	431.09	172.26	156.62	67.537	1.7663e-05	85.903	520.248	245.384	393.078	179.202	331.480	340.543	177.752	184.156	307.793	304.437	182.229	185.859	186.884	194.045	317.173	190.693	-8191	255	
5895.523	1	1	0	0	0.22217	0.043398	0.20662	0.20213	0.08922	0.25223	0.1058	0.29613	0.23394	0.11291	0.179	0.23862	0.47188	0.24624	0.18295	0.15749	-2.6562	-2.8125	-3.0354	-3.2646	-2.6292	-3.0062	-3.1042	-3.0229	-3.1208	-2.8458	-3.2583	-3.1333	-2.7792	-3.3771	-3.0625	-3.2417	179.198	399.469	390.450	480.209	484.990	360.825	463.543	481.827	420.580	182.178	346.447	463.115	461.254	525.178	256.194	391.794	0.0011772	0.0014248	0.0005318	683.02	8.9446e-06	3.3139e-06	769.11	302.08	1.2617e-05	9.2686e-06	378.1	156.43	132.97	62.176	7.2659e-06	79.383	0.001466	0.0016272	0.00045005	793.39	1.643e-05	1.8177e-05	875.71	335.1	1.6525e-05	1.8246e-05	430.8	171.73	157.68	67.777	1.7143e-05	85.83	521.225	510.289	332.338	179.371	319.029	316.359	178.036	184.206	268.885	275.700	182.102	185.855	186.868	194.126	399.960	190.760	-8191	255	
5895.619	1	1	0	0	0.085299	0.036615	0.34504	0.04907	0.24551	0.26973	0.089715	0.28214	0.20952	0.19465	0.17619	0.1006	0.21918	0.073516	0.20488	0.13159	-2.6562	-2.7521	-2.9458	-3.0604	-2.9083	-3.3646	-3.1917	-2.8854	-3.05	-2.6854	-3.0542	-3.1688	-2.8396	-3.3333	-3.1271	-3.0104	476.889	362.833	199.358	514.682	378.879	356.578	478.630	171.474	374.512	408.240	442.699	448.358	279.190	169.442	299.913	441.651	0.001053	0.00022502	0.00027949	683.23	7.5106e-06	5.3642e-06	770.89	301.05	5.653e-06	2.9267e-06	376.64	156.35	131.62	62.196	1.7981e-06	79.284	0.0014891	0.0016353	0.00043239	786.93	1.6582e-05	1.7957e-05	869.56	333.77	1.6874e-05	1.7847e-05	427.68	171.05	158.61	67.732	1.6865e-05	85.479	511.655	221.373	345.968	179.555	212.716	425.416	178.170	183.948	240.574	217.103	181.836	185.737	186.941	194.152	324.860	190.454	-8191	255	
#DATA ENDS
