BOXY.EXE: ISS Imagent and Oximeter Data Acquisition Program Version 0.80
Ascii Record File

#ACQ INFORMATION
2  Detector Channels 
16  External MUX Channels 
1  Auxiliary Channels 
5000  Waveform (CCF) Frequency (Hz)
1  Waveforms Skipped 
30  Waveforms Averaged 
1  Cycles Averaged 
16  Acquisitions per Waveform 
10.0806  Updata Rate (Hz) 

#FILE INFORMATION
TRUE -- External MUX Channel results are PARSED.
FALSE -- AC DC and Phase are NOT grouped.
TRUE -- Companion Program Settings File CREATED.
FALSE -- AC data not excluded
FALSE -- DC data not excluded
FALSE -- Phase data not excluded
FALSE -- Auxillary Chn. data not excluded
Tab delimiters

#CALIBRATION STATE
TRUE -- Waveform Calibration Values APPLIED.


#AUX CALIBRATION VALUES
Val Type	aux-1	

Term	1.0000e+00	
Factor	0.0000e+00	


#WF CALIBRATION VALUES
A = Detector Channel
Val Type	A-AC1	A-AC2	A-AC3	A-AC4	A-AC5	A-AC6	A-AC7	A-AC8	A-AC9	A-AC10	A-AC11	A-AC12	A-AC13	A-AC14	A-AC15	A-AC16	A-DC1	A-DC2	A-DC3	A-DC4	A-DC5	A-DC6	A-DC7	A-DC8	A-DC9	A-DC10	A-DC11	A-DC12	A-DC13	A-DC14	A-DC15	A-DC16	A-Ph1	A-Ph2	A-Ph3	A-Ph4	A-Ph5	A-Ph6	A-Ph7	A-Ph8	A-Ph9	A-Ph10	A-Ph11	A-Ph12	A-Ph13	A-Ph14	A-Ph15	A-Ph16	

Term	0.00000e+00	0.00000e+00	0.00000e+00	0.00000e+00	0.00000e+00	0.00000e+00	0.00000e+00	0.00000e+00	0.00000e+00	0.00000e+00	0.00000e+00	0.00000e+00	0.00000e+00	0.00000e+00	0.00000e+00	0.00000e+00	0.00000e+00	0.00000e+00	0.00000e+00	0.00000e+00	0.00000e+00	0.00000e+00	0.00000e+00	0.00000e+00	0.00000e+00	0.00000e+00	0.00000e+00	0.00000e+00	0.00000e+00	0.00000e+00	0.00000e+00	0.00000e+00	0.00000e+00	0.00000e+00	0.00000e+00	0.00000e+00	0.00000e+00	0.00000e+00	0.00000e+00	0.00000e+00	0.00000e+00	0.00000e+00	0.00000e+00	0.00000e+00	0.00000e+00	0.00000e+00	0.00000e+00	0.00000e+00	
Factor	1.00000e+00	1.00000e+00	1.00000e+00	1.00000e+00	1.00000e+00	1.00000e+00	1.00000e+00	1.00000e+00	1.00000e+00	1.00000e+00	1.00000e+00	1.00000e+00	1.00000e+00	1.00000e+00	1.00000e+00	1.00000e+00	1.00000e+00	1.00000e+00	1.00000e+00	1.00000e+00	1.00000e+00	1.00000e+00	1.00000e+00	1.00000e+00	1.00000e+00	1.00000e+00	1.00000e+00	1.00000e+00	1.00000e+00	1.00000e+00	1.00000e+00	1.00000e+00	X	X	X	X	X	X	X	X	X	X	X	X	X	X	X	X	

B = Detector Channel
Val Type	B-AC1	B-AC2	B-AC3	B-AC4	B-AC5	B-AC6	B-AC7	B-AC8	B-AC9	B-AC10	B-AC11	B-AC12	B-AC13	B-AC14	B-AC15	B-AC16	B-DC1	B-DC2	B-DC3	B-DC4	B-DC5	B-DC6	B-DC7	B-DC8	B-DC9	B-DC10	B-DC11	B-DC12	B-DC13	B-DC14	B-DC15	B-DC16	B-Ph1	B-Ph2	B-Ph3	B-Ph4	B-Ph5	B-Ph6	B-Ph7	B-Ph8	B-Ph9	B-Ph10	B-Ph11	B-Ph12	B-Ph13	B-Ph14	B-Ph15	B-Ph16	

Term	0.00000e+00	0.00000e+00	0.00000e+00	0.00000e+00	0.00000e+00	0.00000e+00	0.00000e+00	0.00000e+00	0.00000e+00	0.00000e+00	0.00000e+00	0.00000e+00	0.00000e+00	0.00000e+00	0.00000e+00	0.00000e+00	0.00000e+00	0.00000e+00	0.00000e+00	0.00000e+00	0.00000e+00	0.00000e+00	0.00000e+00	0.00000e+00	0.00000e+00	0.00000e+00	0.00000e+00	0.00000e+00	0.00000e+00	0.00000e+00	0.00000e+00	0.00000e+00	5.86631e+01	-1.56400e+02	-1.26551e+02	-1.83880e+02	-1.09246e+02	-7.56946e+01	-1.56632e+02	-1.62015e+02	-4.97451e+01	-9.07007e+01	-1.74091e+02	-1.74047e+02	-1.85978e+02	-1.78374e+02	-8.62442e+01	-1.51155e+02	
Factor	5.26311e-05	1.61735e-04	4.04003e-05	1.79766e-01	1.77941e-06	1.50208e-06	1.73528e-01	5.90053e-02	1.98371e-06	1.52351e-06	1.02683e-01	2.97751e-02	5.44086e-02	8.92468e-03	1.82445e-06	1.29180e-02	1.91554e-06	2.01426e-06	5.61593e-07	8.71805e-02	2.19587e-08	2.21199e-08	7.97260e-02	2.86352e-02	2.18545e-08	2.20121e-08	4.81154e-02	1.39628e-02	2.54592e-02	4.34647e-03	2.18729e-08	6.10577e-03	X	X	X	X	X	X	X	X	X	X	X	X	X	X	X	X	



#DISTANCE SETTINGS
A = Detector Channel
A-1	A-2	A-3	A-4	A-5	A-6	A-7	A-8	A-9	A-10	A-11	A-12	A-13	A-14	A-15	A-16	

2.5000e+00	3.0000e+00	2.5000e+00	3.0000e+00	2.0000e+00	3.0000e+00	1.5000e+00	3.0000e+00	3.0000e+00	3.0000e+00	3.0000e+00	3.0000e+00	3.0000e+00	3.0000e+00	1.5000e+00	3.0000e+00	

B = Detector Channel
B-1	B-2	B-3	B-4	B-5	B-6	B-7	B-8	B-9	B-10	B-11	B-12	B-13	B-14	B-15	B-16	

1.0000e+01	1.0000e+01	1.0000e+01	1.4400e+00	1.0000e+01	1.0000e+01	1.5100e+00	1.9400e+00	1.0000e+01	1.0000e+01	1.9900e+00	2.4900e+00	2.4100e+00	2.9000e+00	1.0000e+01	2.9800e+00	




#DATA BEGINS
time	group	step	mark	flag	A-AC1	A-AC2	A-AC3	A-AC4	A-AC5	A-AC6	A-AC7	A-AC8	A-AC9	A-AC10	A-AC11	A-AC12	A-AC13	A-AC14	A-AC15	A-AC16	A-DC1	A-DC2	A-DC3	A-DC4	A-DC5	A-DC6	A-DC7	A-DC8	A-DC9	A-DC10	A-DC11	A-DC12	A-DC13	A-DC14	A-DC15	A-DC16	A-Ph1	A-Ph2	A-Ph3	A-Ph4	A-Ph5	A-Ph6	A-Ph7	A-Ph8	A-Ph9	A-Ph10	A-Ph11	A-Ph12	A-Ph13	A-Ph14	A-Ph15	A-Ph16	B-AC1	B-AC2	B-AC3	B-AC4	B-AC5	B-AC6	B-AC7	B-AC8	B-AC9	B-AC10	B-AC11	B-AC12	B-AC13	B-AC14	B-AC15	B-AC16	B-DC1	B-DC2	B-DC3	B-DC4	B-DC5	B-DC6	B-DC7	B-DC8	B-DC9	B-DC10	B-DC11	B-DC12	B-DC13	B-DC14	B-DC15	B-DC16	B-Ph1	B-Ph2	B-Ph3	B-Ph4	B-Ph5	B-Ph6	B-Ph7	B-Ph8	B-Ph9	B-Ph10	B-Ph11	B-Ph12	B-Ph13	B-Ph14	B-Ph15	B-Ph16	aux-1	digaux	

2302.754	1	1	0	256	0.071889	0.28808	0.28992	0.30063	0.087348	0.2194	0.13002	0.088781	0.22612	0.10539	0.21781	0.12912	0.13642	0.4489	0.23347	0.28706	-3.1458	-3.2708	-4.4146	-3.3	-3.6	-4.3229	-3.3375	-4.3229	-3.925	-3.2396	-4.3729	-3.425	-3.8583	-4.3354	-3.1875	-4.3938	-52.894	99.620	11.256	244.031	16.297	101.248	133.251	220.982	-84.543	126.767	179.562	168.879	237.474	214.196	-24.415	230.784	0.0011164	0.00094876	8.5274e-05	778.84	1.2412e-05	1.1607e-05	721.71	308.94	6.4359e-06	2.0854e-06	319.71	144.71	118.98	57.463	3.6842e-06	68.551	0.0012493	0.001358	0.00034509	808.04	1.4382e-05	1.5172e-05	751.63	318.95	1.5227e-05	1.5658e-05	341.62	150.7	131.4	59.574	1.4697e-05	71.33	7.690	-79.359	134.570	-83.028	203.226	4.953	-85.004	-78.361	86.309	-78.359	-81.612	-77.745	-74.444	-69.279	248.242	-73.709	-8191	255	
2302.851	1	1	0	0	0.071508	0.078212	0.18594	0.10741	0.06651	0.1841	0.10196	0.10311	0.057405	0.030339	0.09282	0.049603	0.17611	0.11697	0.22255	0.10059	-3.4146	-3.3875	-4.3812	-3.6208	-3.5646	-4.3438	-3.3937	-4.1667	-4.025	-3.5438	-4.4521	-3.6771	-3.7667	-4.3625	-3.0333	-4.4271	38.948	-2.402	102.675	42.382	-27.083	-49.284	-47.333	34.167	-36.939	11.822	98.431	186.508	40.567	200.341	-30.306	244.032	0.0013406	0.0001091	0.0002559	768.69	6.8658e-06	1.0412e-05	713.83	310.66	5.4057e-06	3.4837e-06	323.18	145.09	118.39	57.499	1.0596e-05	69.718	0.0014604	0.0014528	0.0003741	806.3	1.6552e-05	1.5742e-05	752.63	322.17	1.6629e-05	1.5666e-05	345.86	151.48	132.66	59.9	1.5066e-05	72.362	3.491	224.032	-23.989	-83.096	95.030	2.578	-85.095	-78.452	76.130	29.167	-81.591	-77.898	-74.103	-69.255	-22.445	-73.660	-8191	255	
2302.947	1	1	0	0	0.037049	0.056793	0.18754	0.13729	0.23621	0.19694	0.23989	0.12684	0.098496	0.17981	0.090882	0.36195	0.20381	0.098419	0.091058	0.17128	-3.8187	-3.1979	-4.3833	-3.9333	-3.3521	-4.525	-3.5375	-4.1146	-4.1167	-3.2292	-4.3875	-3.8917	-3.4437	-4.5708	-3.3521	-4.1917	-88.366	237.187	-17.488	233.503	14.063	184.567	226.769	230.307	251.148	-28.149	126.309	180.174	251.194	258.284	201.373	241.986	0.00095402	0.00060607	0.00018581	759.16	7.3229e-06	1.12e-05	714.2	313.45	1.8611e-05	9.8105e-06	329.16	145.19	118.42	57.773	1.4225e-05	69.802	0.0016008	0.0015126	0.00040271	809.98	1.8154e-05	1.6444e-05	755.3	326.78	1.7502e-05	1.6165e-05	350.31	152.46	132.55	60.087	1.5051e-05	73.053	28.779	-74.113	44.552	-83.129	-13.343	67.781	-85.151	-78.675	67.197	12.940	-81.309	-77.887	-74.472	-69.505	79.948	-73.699	-8191	255	
2303.043	1	1	0	0	0.18539	0.11677	0.043953	0.12853	0.17777	0.23432	0.095069	0.19353	0.23935	0.099135	0.10923	0.19409	0.04174	0.044827	0.10525	0.43596	-3.8479	-3.15	-4.2812	-3.8292	-3.5854	-4.4792	-3.3729	-3.6604	-4.175	-3.3604	-4.0458	-3.9854	-3.4313	-4.5792	-3.5062	-3.7792	65.357	-81.695	135.564	25.458	96.921	-57.864	51.555	245.750	112.936	188.063	245.840	184.239	109.457	-49.396	86.233	206.052	0.00063777	0.00070883	0.00016779	761.22	1.4591e-05	9.2677e-06	712.19	309.54	4.5876e-06	7.177e-06	325.24	144.03	118.04	57.246	1.4452e-06	68.906	0.00155	0.0014593	0.00039152	812.77	1.7462e-05	1.6202e-05	753.9	326.3	1.7122e-05	1.5965e-05	348.46	152.05	131.43	59.446	1.5485e-05	72.482	3.975	-96.046	-39.948	-83.347	55.865	27.316	-85.348	-78.500	30.172	20.594	-81.653	-77.673	-74.805	-69.130	84.273	-73.402	-8191	255	
2303.162	1	1	0	0	0.072903	0.12752	0.18092	0.14161	0.13149	0.080611	0.15956	0.24246	0.25984	0.11516	0.17217	0.33594	0.21295	0.23255	0.23759	0.2307	-3.9229	-3.2146	-4.0479	-3.9437	-3.3063	-4.4146	-3.75	-3.9833	-4.3771	-3.2812	-4.1771	-4.1625	-3.2667	-4.4229	-3.6396	-3.8563	248.400	65.287	-28.274	147.435	182.849	193.584	166.722	244.938	33.110	-73.510	223.858	244.625	-92.274	221.646	23.686	-67.722	0.00067476	0.0011888	0.00025632	755.4	4.8611e-06	1.659e-05	709.84	307.13	4.9503e-06	1.0236e-05	321.48	143.04	117.41	57.222	7.643e-06	68.692	0.0014975	0.0014233	0.00040228	808.76	1.6416e-05	1.5409e-05	748.59	324.43	1.5963e-05	1.5153e-05	347.12	151.07	130.14	59.226	1.6096e-05	72.087	24.899	0.461	79.387	-83.244	-7.727	41.800	-85.326	-78.435	43.046	37.000	-81.548	-78.091	-74.226	-69.302	-36.564	-73.864	-8191	255	
2303.258	1	1	0	0	0.095623	0.059992	0.03604	0.24852	0.076642	0.26063	0.19171	0.057347	0.044463	0.32573	0.063249	0.25692	0.13409	0.22299	0.16743	0.17046	-3.9271	-3.4854	-3.9521	-4.2167	-3.1479	-4.4104	-3.9437	-3.4583	-4.2438	-3.4854	-3.8521	-4.4208	-3.3063	-4.5646	-3.7771	-3.4458	107.445	7.942	76.788	126.794	-59.909	107.058	219.645	153.220	207.631	-24.913	194.368	173.490	24.500	186.098	204.567	-84.541	0.00085721	0.00015178	0.0001047	752.87	3.9087e-06	1.4709e-05	706.03	309.71	1.0267e-05	1.5321e-06	322.42	143.58	117.59	57.262	5.522e-06	68.98	0.0014056	0.0013676	0.00041957	803.35	1.5691e-05	1.4986e-05	752.09	324.59	1.557e-05	1.4887e-05	350	151.1	129.35	59.354	1.7032e-05	72.16	33.615	13.500	133.777	-83.041	17.251	9.444	-85.344	-78.575	42.798	6.392	-81.661	-77.950	-74.431	-69.418	181.750	-73.711	-8191	255	
2303.330	1	1	0	0	0.048187	0.093776	0.076815	0.19032	0.19117	0.083487	0.15431	0.096586	0.055777	0.18	0.13623	0.30343	0.3109	0.071253	0.068588	0.27446	-3.9021	-3.5917	-3.7333	-4.4062	-3.1854	-4.0312	-3.9396	-3.3583	-4.5	-3.5583	-3.6	-4.4271	-3.175	-4.1125	-4.0917	-3.2125	10.097	201.069	-39.107	241.731	75.778	208.226	234.754	-43.491	128.001	262.060	240.167	175.501	201.141	-85.841	121.447	-24.751	0.00086055	0.00056667	0.00023432	760.46	9.4953e-06	5.4783e-06	713.06	309.31	5.9069e-06	2.2106e-06	324.58	144.99	117.48	57.152	1.1319e-05	68.944	0.001365	0.0013607	0.00043122	802.13	1.488e-05	1.4785e-05	756.23	322.73	1.4514e-05	1.4681e-05	351.1	150.96	128.46	59.273	1.6421e-05	71.915	30.871	85.992	55.766	-83.178	64.899	153.225	-85.441	-78.495	19.366	209.859	-81.572	-78.126	-74.627	-69.214	18.887	-73.658	-8191	255	
2303.427	1	1	0	0	0.2172	0.1109	0.10801	0.10795	0.020829	0.11108	0.12235	0.15254	0.096177	0.25701	0.056003	0.0733	0.26208	0.41378	0.14602	0.24032	-3.8979	-3.3417	-3.4229	-4.2688	-3.3479	-4.1208	-4.2688	-3.2417	-4.1708	-3.5812	-3.6271	-4.4542	-3.2979	-4.0875	-4.1667	-3.0792	55.280	53.064	76.494	-18.076	117.273	244.721	231.769	143.670	-67.696	91.603	199.735	-71.822	189.715	230.360	238.293	149.790	0.00068876	0.0002548	0.00027967	758.42	1.4505e-05	5.8696e-06	714.4	308	1.2403e-05	8.0982e-06	323.52	143.93	117.01	56.93	1.2703e-05	68.939	0.0012749	0.0013573	0.0004183	797.77	1.4038e-05	1.4967e-05	757.48	320.61	1.3803e-05	1.5111e-05	348.68	150.09	126.98	59.117	1.5473e-05	71.355	31.550	178.266	28.816	-83.294	-36.121	133.945	-85.268	-78.622	9.267	187.467	-81.471	-78.022	-74.809	-69.353	-1.708	-73.626	-8191	255	
2303.546	1	1	0	0	0.14985	0.21935	0.075472	0.10329	0.10323	0.14887	0.13117	0.18671	0.30824	0.09167	0.31199	0.15894	0.34968	0.33695	0.15869	0.19246	-3.7313	-3.7354	-3.2271	-4.4187	-3.2646	-3.6979	-4.0229	-3.2438	-4.1583	-3.825	-3.475	-4.4625	-3.4271	-3.9521	-4.2896	-3.2271	65.394	88.440	229.726	-91.998	-41.354	108.728	248.135	83.979	166.046	8.477	-80.987	235.101	44.991	244.431	16.404	228.623	0.00072586	0.00093697	0.00034572	756.23	4.1308e-06	6.1298e-06	706.73	305.58	7.1372e-06	1.535e-06	321.3	143.26	116.14	56.558	1.3481e-05	68.657	0.0012042	0.0013697	0.0003906	792.06	1.3379e-05	1.5163e-05	746.85	317.7	1.3496e-05	1.5277e-05	344.14	148.6	126.95	59.092	1.4797e-05	70.9	35.407	-85.227	7.012	-83.456	8.618	163.210	-85.413	-78.438	-23.190	-3.763	-81.472	-78.011	-74.206	-69.511	40.611	-73.718	-8191	255	
2303.642	1	1	0	0	0.25875	0.16611	0.28411	0.082324	0.066874	0.13848	0.098439	0.1824	0.21742	0.061228	0.044804	0.12797	0.12557	0.11174	0.26052	0.041904	-3.7438	-3.975	-2.9875	-4.375	-3.5646	-3.5687	-4.4812	-3.3083	-4.0896	-3.9604	-3.3417	-4.5646	-3.6771	-3.5563	-4.3562	-3.1937	124.191	85.306	87.144	177.354	117.713	-18.040	-38.833	-80.654	131.985	61.091	-48.887	185.885	189.266	-38.579	82.615	8.020	0.00096349	0.00066344	0.00014243	753.28	7.7371e-06	9.8586e-06	708.45	306.47	5.9729e-06	8.3581e-06	323.63	143.6	116.08	56.932	4.9088e-06	68.836	0.0012243	0.0014186	0.00037319	789.47	1.3654e-05	1.5576e-05	744.09	316.85	1.3632e-05	1.5397e-05	342.88	148.27	126.86	59.033	1.3701e-05	70.819	18.786	10.383	1.310	-83.381	84.163	62.416	-85.206	-78.405	224.774	39.630	-81.589	-77.778	-74.413	-69.455	170.211	-73.802	-8191	255	
2303.739	1	1	0	0	0.11879	0.12151	0.15417	0.072305	0.16691	0.026051	0.11755	0.033052	0.14048	0.22514	0.14773	0.10937	0.15648	0.14172	0.12266	0.15828	-3.5812	-4.1	-3.3042	-4.4938	-3.5563	-3.625	-4.6562	-3.3625	-3.9042	-4.0375	-3.2854	-4.5292	-3.8083	-3.3583	-4.5958	-3.6208	162.030	-90.243	147.865	-77.549	154.568	6.626	67.177	233.832	-61.833	-80.547	-83.457	-52.761	241.209	201.713	262.748	229.375	0.00087445	0.0013053	0.00021627	752.71	5.5017e-06	1.0924e-05	709.33	307.22	5.4746e-06	9.9867e-06	323.15	143.66	116.33	57.161	5.0311e-06	69.369	0.00124	0.0013763	0.00034514	786.97	1.4088e-05	1.4903e-05	743.25	317.56	1.4327e-05	1.4754e-05	343.29	148.85	128.36	59.196	1.3426e-05	71.247	0.789	-30.982	-5.628	-83.268	-6.267	84.536	-85.453	-78.548	0.521	42.082	-81.372	-77.975	-74.411	-69.250	66.502	-73.757	-8191	255	
2303.835	1	1	0	0	0.1518	0.11246	0.099166	0.11998	0.22242	0.23018	0.19281	0.17336	0.34957	0.097805	0.16057	0.17813	0.099529	0.069267	0.20621	0.11659	-3.3812	-4.0563	-3.2167	-4.325	-3.8104	-3.3396	-4.4792	-3.3958	-3.7229	-4.2125	-3.3396	-4.2125	-3.9396	-3.45	-4.1708	-3.7375	119.522	140.031	250.988	179.302	55.828	-47.756	25.379	175.612	-77.821	23.466	260.757	-14.482	-31.220	-90.060	248.144	261.414	0.00080142	0.0010827	0.0001985	753.44	2.7041e-06	7.7906e-06	715.92	308.7	8.7703e-06	1.5402e-05	328.33	144.69	116.58	57.203	6.5565e-06	69.465	0.0013295	0.0013342	0.00034308	787.87	1.4917e-05	1.4507e-05	746.49	319.27	1.5097e-05	1.4427e-05	345.51	149.71	129.27	59.285	1.3236e-05	71.596	27.449	-23.655	55.642	-83.286	-62.397	82.787	-85.370	-78.456	9.261	64.392	-81.491	-77.675	-74.261	-69.141	35.762	-73.531	-8191	255	
2303.955	1	1	0	0	0.12025	0.11311	0.079839	0.1228	0.20664	0.057749	0.12478	0.10437	0.29649	0.10447	0.056741	0.3199	0.13638	0.14965	0.32323	0.11867	-3.2812	-4.2125	-3.1854	-4.1208	-3.9417	-3.2083	-4.4187	-3.6646	-3.6229	-4.3896	-3.3292	-4.0083	-4.2521	-3.2604	-4.3604	-3.8854	245.493	54.387	191.859	129.578	210.413	-41.746	162.660	244.678	172.720	99.016	49.824	235.097	2.126	260.282	72.240	208.503	0.00079693	0.001025	6.7588e-05	753.68	8.0687e-06	9.5685e-06	707.84	309.43	7.984e-06	3.3898e-06	324.1	143.78	117.68	57.527	7.2453e-06	69.278	0.0013745	0.0012835	0.00033633	789.63	1.5204e-05	1.3947e-05	740.18	319.88	1.499e-05	1.3686e-05	342.29	149.25	129.11	59.386	1.2816e-05	71.728	29.808	235.968	53.723	-83.178	37.480	69.076	-85.369	-78.858	61.037	30.666	-81.516	-77.976	-74.270	-69.471	-9.221	-73.789	-8191	255	
2304.027	1	1	0	0	0.088338	0.12738	0.18508	0.041228	0.077567	0.15971	0.13105	0.29721	0.097345	0.054968	0.10694	0.11744	0.19377	0.24851	0.12698	0.21767	-3.2708	-4.4	-3.2646	-3.9042	-4.2146	-3.45	-4.3104	-3.7687	-3.4417	-4.5958	-3.5563	-3.8146	-4.1875	-3.275	-4.3625	-4.1104	5.104	49.327	46.760	225.254	-21.915	65.725	225.377	249.801	130.834	-57.882	54.033	124.258	127.521	250.325	124.644	262.885	0.00068721	0.0008597	0.00027766	750.29	1.1935e-05	1.1767e-05	708.91	309.18	1.3706e-05	5.5861e-06	326.62	144.09	117.86	57.603	5.2321e-06	69.713	0.0013375	0.0012517	0.00033309	791.76	1.4946e-05	1.3664e-05	738.81	321.86	1.4539e-05	1.3319e-05	344.3	150	128.29	59.452	1.2847e-05	72.224	17.403	-22.031	34.990	-83.244	3.699	81.749	-85.096	-78.538	27.339	6.532	-81.553	-77.886	-74.690	-69.326	240.990	-73.959	-8191	255	
2304.148	1	1	0	0	0.088201	0.15406	0.10893	0.11486	0.18431	0.17505	0.36116	0.28089	0.032151	0.12025	0.066878	0.11359	0.24607	0.16545	0.042875	0.20395	-2.9375	-4.3104	-3.6104	-3.7313	-4.3375	-3.2125	-3.8438	-3.8292	-3.2542	-4.4958	-3.5354	-3.5542	-4.4833	-3.4083	-3.925	-4.2479	68.382	-52.612	239.291	209.190	191.061	128.104	217.233	233.978	194.903	-74.120	-21.058	168.577	214.205	-71.740	-82.050	236.249	0.00062059	0.0009067	8.2925e-05	749.91	7.0668e-06	1.3042e-05	712.55	313.44	1.756e-05	1.0986e-05	331.18	144.9	117.87	57.985	7.2508e-06	70.06	0.0012669	0.0012057	0.00033768	793.02	1.4116e-05	1.3358e-05	744.67	325.02	1.4059e-05	1.3231e-05	350.18	151.08	128.37	59.776	1.3812e-05	72.774	34.142	-68.050	190.395	-83.164	34.894	87.284	-84.884	-78.633	53.383	-20.270	-81.646	-77.953	-74.618	-69.271	25.496	-73.728	-8191	255	
2304.242	1	1	0	0	0.043526	0.17522	0.28489	0.10189	0.035804	0.02377	0.10931	0.21076	0.29448	0.062525	0.054875	0.15032	0.24546	0.18275	0.063203	0.27052	-2.8063	-4.1687	-3.5271	-3.4813	-4.3938	-3.2958	-4.0813	-4.1896	-3.3021	-4.3375	-3.7667	-3.45	-4.4583	-3.4042	-3.9146	-4.375	15.440	-31.547	23.477	254.114	196.623	27.034	-95.430	188.790	153.491	33.180	-73.737	262.885	164.350	234.443	114.226	201.109	0.00034556	0.00066578	0.00032312	751.03	4.9519e-06	4.4424e-06	713.22	312.68	1.0838e-05	1.3986e-05	331.54	145.43	117.75	58.051	2.0163e-06	70.262	0.0012517	0.001202	0.0003617	795.5	1.3845e-05	1.3262e-05	750.88	325.59	1.3768e-05	1.3132e-05	353.09	151.15	127.6	59.779	1.4721e-05	72.781	47.778	-93.129	121.951	-82.913	-29.457	32.589	-85.141	-78.567	137.816	9.940	-81.808	-77.949	-74.473	-69.486	61.682	-73.957	-8191	255	
2304.338	1	1	0	0	0.20823	0.22033	0.1344	0.22904	0.063931	0.10885	0.19406	0.16207	0.13989	0.070504	0.22363	0.32398	0.18715	0.18615	0.18451	0.47645	-2.7708	-4.2063	-3.9271	-3.4792	-4.2958	-3.3917	-3.8854	-4.4354	-2.9771	-4.2229	-3.9146	-3.5708	-4.3667	-3.6542	-3.6854	-4.4396	117.524	221.784	-31.217	-23.022	2.699	161.378	-37.148	94.189	-0.275	36.434	255.940	164.465	11.777	167.948	-44.058	143.621	0.00093712	0.00045824	0.00016136	753.24	1.2151e-05	1.8635e-06	708.92	311.92	3.1843e-06	8.1608e-07	324.83	144.37	116.82	57.647	7.8565e-06	69.525	0.0012015	0.0011859	0.00037627	790.03	1.3185e-05	1.2898e-05	746.96	322.47	1.2892e-05	1.2701e-05	347.78	149.66	126.34	59.253	1.4485e-05	71.703	26.681	159.191	-1.145	-83.127	2.472	5.329	-85.373	-78.902	2.023	218.609	-81.364	-78.031	-74.368	-69.360	31.859	-73.541	-8191	255	
2304.434	1	1	0	0	0.041888	0.10966	0.04597	0.21225	0.089269	0.23588	0.3031	0.24468	0.16331	0.08718	0.047026	0.26057	0.072138	0.010476	0.13812	0.10014	-2.8021	-3.9292	-3.9771	-3.3417	-4.3938	-3.6229	-3.5687	-4.6354	-3.3438	-4.1042	-4.2583	-3.3104	-4.1354	-3.8708	-3.4292	-4.5771	209.817	42.889	8.408	236.392	8.851	-73.671	162.854	160.924	134.873	-51.573	121.358	-89.671	119.928	-50.933	-20.007	85.528	0.00097762	0.00038055	0.00024711	747.75	9.5517e-06	7.5097e-06	707.01	310.15	1.1315e-06	5.3008e-06	327.52	144.69	117.33	58.087	9.7092e-06	69.747	0.0011289	0.001183	0.00036934	784.56	1.2551e-05	1.3112e-05	743.18	320.25	1.2313e-05	1.3094e-05	347.11	149.38	125.87	59.693	1.4043e-05	71.72	7.261	-28.889	30.246	-83.261	10.929	101.305	-85.320	-78.616	153.839	244.530	-81.581	-77.952	-74.486	-69.373	13.707	-73.652	-8191	255	
2304.555	1	1	0	0	0.29412	0.062016	0.19484	0.2553	0.18628	0.14933	0.15055	0.29432	0.31135	0.25154	0.037892	0.156	0.15778	0.043973	0.12841	0.19863	-3.0021	-3.9729	-4.3292	-3.3396	-4.4229	-3.6625	-3.5896	-4.5854	-3.3708	-3.9333	-4.2063	-3.3208	-4.2729	-3.8833	-3.2854	-4.5958	77.801	-21.343	83.359	243.161	22.439	-34.469	148.606	225.305	130.584	52.613	190.737	187.404	207.384	-95.247	55.614	-72.655	0.00056006	0.00044003	0.0002362	753.98	1.0029e-05	7.2473e-06	708.9	311.36	1.2948e-05	7.144e-06	328.66	144.94	118.08	57.916	1.5635e-05	70.402	0.0010905	0.0012182	0.00035408	783.65	1.2008e-05	1.3527e-05	743.37	319.76	1.1886e-05	1.3572e-05	346.32	149.37	125.72	59.697	1.327e-05	71.935	11.721	-28.280	-63.874	-83.290	9.769	5.502	-85.217	-78.843	-53.201	62.112	-81.583	-77.989	-74.474	-69.227	21.701	-74.020	-8191	255	
2304.627	1	1	0	0	0.2055	0.12896	0.11979	0.043223	0.24934	0.057618	0.34421	0.15421	0.23003	0.22203	0.23822	0.10313	0.17758	0.078894	0.034019	0.10225	-2.9646	-3.8563	-4.4833	-3.2083	-3.8521	-4.0354	-3.4833	-4.5604	-3.5521	-3.6583	-4.2854	-3.4542	-3.9521	-4.1687	-3.2542	-4.5188	157.923	-86.360	243.693	197.029	176.925	96.970	185.315	179.605	161.667	165.296	234.851	239.609	117.000	110.182	97.046	246.807	0.00090836	0.00021574	0.00023434	751.5	7.1713e-06	9.3438e-06	712.85	310.47	4.4852e-06	2.5599e-06	330.71	146.23	117.97	57.931	9.9762e-06	70.505	0.0010868	0.0012715	0.00033699	783.62	1.221e-05	1.4061e-05	743.01	319.15	1.2117e-05	1.3791e-05	346.94	149.89	126.61	59.828	1.2549e-05	72.016	11.301	-52.661	3.271	-83.204	182.986	112.105	-85.418	-78.687	175.575	66.377	-81.728	-77.842	-74.361	-69.223	45.590	-73.663	-8191	255	
2304.723	1	1	0	0	0.012437	0.18828	0.18608	0.13232	0.13835	0.22445	0.099663	0.25108	0.22913	0.084261	0.02596	0.14931	0.031208	0.082676	0.19454	0.15655	-3.3563	-3.3688	-4.2958	-3.2854	-4.0188	-4.2812	-3.1979	-4.5	-3.675	-3.4646	-4.5354	-3.4229	-3.85	-4.2729	-3.1458	-4.3333	-63.368	202.669	38.329	-22.451	258.987	-74.264	103.758	260.268	225.915	50.201	0.037	226.286	167.832	229.502	-54.365	170.194	0.00077193	0.00060764	0.00036668	750.47	1.0239e-05	1.5258e-05	708.96	309.71	2.3356e-06	1.1176e-05	324.56	144.69	117.43	57.524	6.5746e-06	69.279	0.0011262	0.0012582	0.00032133	780.55	1.2699e-05	1.3739e-05	738.17	317.75	1.2849e-05	1.3583e-05	340.5	148.67	126.6	59.116	1.2039e-05	71.011	21.289	38.206	8.305	-83.166	60.275	64.736	-85.546	-78.392	10.790	39.203	-81.550	-77.763	-74.203	-69.295	2.073	-73.629	-8191	255	
2304.819	1	1	0	0	0.092872	0.15496	0.18366	0.068352	0.14012	0.26066	0.10164	0.42991	0.17213	0.095499	0.16601	0.1606	0.075836	0.050474	0.038437	0.17113	-3.3646	-3.1979	-4.3979	-3.4375	-3.7687	-4.2875	-3.3542	-4.325	-3.8438	-3.1167	-4.4979	-3.5458	-3.6646	-4.3542	-3.0292	-4.1521	231.657	247.470	-12.305	193.526	24.575	-64.809	65.271	233.749	254.411	-79.291	132.400	231.748	146.018	-65.885	-73.715	-58.181	0.001066	0.0010837	0.00014431	751.5	5.4914e-06	4.7069e-06	706.19	307.27	5.7047e-06	2.317e-06	323.97	144.51	117.74	57.374	4.937e-06	69.362	0.0011608	0.0011839	0.0003041	778.85	1.2943e-05	1.2796e-05	733.05	315.23	1.303e-05	1.2574e-05	337.9	148.61	127.09	59.081	1.1567e-05	71.183	9.550	-51.465	217.835	-83.439	43.756	39.869	-85.338	-78.364	3.676	-42.480	-81.601	-77.929	-74.470	-69.312	27.002	-73.332	-8191	255	
2304.940	1	1	0	0	0.17822	0.015927	0.10882	0.20491	0.13397	0.24654	0.086554	0.10393	0.15406	0.26073	0.0039674	0.14389	0.19821	0.22106	0.083495	0.11266	-3.5104	-3.2021	-4.35	-3.3667	-3.5208	-4.1438	-3.4167	-4.05	-4.1146	-3.4562	-4.4646	-3.7396	-3.5104	-4.4583	-3.2354	-3.9708	157.009	53.190	148.408	122.002	-77.700	83.376	243.938	249.812	190.667	170.259	106.061	223.422	-93.100	-94.954	55.176	207.799	0.00094242	0.00044998	0.00028748	752.83	5.0553e-06	5.3891e-06	709.58	308.89	7.1354e-06	9.4584e-06	325.13	145.69	117.89	57.513	4.9482e-06	69.961	0.0011961	0.0011333	0.0002937	780.23	1.3251e-05	1.2239e-05	733.34	317.26	1.303e-05	1.2039e-05	339.46	149.58	127.4	59.101	1.1137e-05	71.804	10.947	-32.194	-22.295	-83.301	-10.166	-18.220	-85.187	-78.509	49.825	19.232	-81.330	-77.826	-74.506	-69.311	-68.463	-73.802	-8191	255	
2305.036	1	1	0	0	0.1015	0.2633	0.089504	0.12026	0.12261	0.15105	0.1296	0.28828	0.26627	0.073336	0.34726	0.13799	0.040222	0.18087	0.21652	0.23599	-3.7458	-3.1917	-4.3271	-3.6625	-3.6271	-4.2083	-3.5438	-3.7854	-4.2625	-2.9188	-4.1646	-4.0104	-3.2083	-4.4625	-3.5208	-3.7979	-84.084	132.557	206.704	-81.871	-38.163	198.828	80.392	173.376	-93.552	36.929	238.671	-5.581	3.763	259.861	138.635	200.926	0.00083844	0.00083545	0.00022343	749.57	4.68e-06	3.6924e-07	711.93	309	9.5995e-06	8.7231e-06	326.19	146.29	117.57	57.765	4.4183e-06	70.131	0.0011556	0.00108	0.00028612	784.24	1.2781e-05	1.1787e-05	736.44	318.83	1.2655e-05	1.1714e-05	340.84	150.57	126.82	59.079	1.1117e-05	72.044	20.569	-64.128	-25.136	-83.163	41.371	208.374	-85.024	-78.431	99.386	44.551	-81.310	-78.242	-74.075	-69.262	-85.007	-73.709	-8191	255	
2305.132	1	1	0	0	0.18809	0.11575	0.088098	0.19802	0.11651	0.17432	0.13267	0.32341	0.14495	0.29121	0.16776	0.25204	0.093962	0.15298	0.27527	0.096725	-3.9375	-3.1375	-4.2854	-3.7875	-3.3896	-4.3271	-3.4354	-3.7042	-4.2063	-3.3042	-4.1417	-4.0938	-3.2438	-4.55	-3.2708	-3.6271	219.177	36.581	96.782	179.706	4.091	24.731	135.395	222.268	69.160	126.770	236.779	-73.891	170.276	220.710	111.861	237.967	0.000856	0.00045388	4.6292e-05	757.31	1.0668e-05	1.2748e-05	712.49	308.64	9.0671e-06	1.2485e-05	325.48	144.99	117.83	57.415	6.646e-06	69.484	0.0011017	0.0010392	0.00028399	788.33	1.2089e-05	1.1274e-05	734.91	317.94	1.1873e-05	1.1199e-05	339.25	149.7	125.67	58.843	1.146e-05	71.66	26.165	-1.866	245.901	-83.155	-20.005	48.552	-85.358	-78.452	90.319	43.269	-81.685	-77.893	-74.553	-69.051	41.327	-73.669	-8191	255	
2305.228	1	1	0	0	0.18972	0.025655	0.23968	0.14005	0.067871	0.064179	0.043584	0.29237	0.25143	0.17767	0.17444	0.2805	0.22168	0.047954	0.056927	0.13231	-3.9146	-3.1021	-3.9396	-4.1771	-3.2333	-4.4042	-3.7875	-3.7021	-4.2854	-3.4271	-3.9854	-4.1875	-3.3021	-4.4125	-3.8958	-3.5521	17.673	86.165	123.061	134.895	263.025	162.303	170.849	246.559	213.930	109.275	-70.123	180.476	207.294	28.993	181.429	221.556	0.00077019	0.00022315	5.5057e-05	751.2	6.6566e-06	2.7116e-06	707.42	308.27	9.7859e-06	3.021e-06	323.66	145.62	117.55	57.476	2.6507e-06	69.688	0.0010536	0.0010191	0.00030087	785.45	1.1844e-05	1.1096e-05	733.3	317.85	1.1765e-05	1.1114e-05	340.6	149.34	125.4	58.962	1.2354e-05	71.712	34.852	0.126	-27.406	-82.990	-53.632	51.203	-85.198	-78.535	96.449	65.355	-81.854	-77.917	-74.297	-69.263	-4.160	-73.795	-8191	255	
2305.323	1	1	0	0	0.12522	0.10231	0.23493	0.077391	0.13408	0.56268	0.097459	0.16281	0.19798	0.21881	0.17185	0.1806	0.29124	0.15355	0.1553	0.036142	-4.0021	-3.2687	-3.7208	-4.4042	-3.2479	-4.1021	-4.0021	-3.3917	-4.4979	-3.4104	-3.9208	-4.4271	-3.375	-4.3042	-4.0167	-3.5563	-71.919	68.503	-66.531	-2.383	67.285	-62.341	185.880	251.783	98.290	183.229	-93.109	161.787	-15.053	226.469	200.566	189.052	0.00087904	0.00012154	0.00025406	753.98	6.3039e-06	8.6932e-06	706.1	309.93	2.6096e-06	8.6277e-06	325.68	145.02	117.68	57.806	1.1357e-05	69.638	0.0010536	0.0010302	0.00032378	784.54	1.1742e-05	1.1397e-05	737.69	318.81	1.1686e-05	1.145e-05	342.64	149.47	125.59	59.132	1.3247e-05	71.773	1.210	234.313	34.883	-83.118	87.051	-1.070	-85.087	-78.586	142.284	137.923	-81.531	-77.881	-74.564	-69.039	-46.921	-73.453	-8191	255	
2305.419	1	1	0	0	0.18627	0.042424	0.099254	0.10349	0.12341	0.029703	0.20909	0.061932	0.075388	0.093546	0.25372	0.14395	0.14748	0.18571	0.12644	0.16381	-3.9875	-3.5021	-3.5687	-4.4333	-3.2333	-4.0854	-4.2417	-3.3792	-4.4875	-3.7479	-3.6562	-4.4729	-3.3979	-4.1292	-4.1083	-3.3292	45.037	-24.440	37.677	213.093	-15.174	-43.678	87.053	-87.823	49.967	111.742	159.998	2.551	104.819	220.524	-26.458	173.991	0.00088738	0.00015192	0.00021548	751.35	1.1626e-05	3.7559e-06	706.9	308.07	3.1464e-06	8.4664e-06	327.48	146.46	117.99	57.82	1.4164e-05	70.366	0.0010572	0.0010886	0.00034273	782.8	1.1754e-05	1.2043e-05	740.58	318.52	1.1644e-05	1.2322e-05	345.62	150.04	125.83	59.552	1.3541e-05	72.175	17.397	-79.278	-10.765	-83.456	-63.035	190.095	-85.139	-78.457	27.539	76.615	-81.435	-77.883	-74.358	-69.218	77.233	-73.677	-8191	255	
2305.539	1	1	0	0	0.036694	0.15953	0.17974	0.059589	0.18631	0.095221	0.069712	0.31735	0.15801	0.14509	0.12464	0.17392	0.11739	0.12826	0.13365	0.1052	-3.9833	-3.6708	-3.4813	-4.4979	-3.2292	-3.9417	-4.1083	-3.3875	-4.1792	-3.8458	-3.4896	-4.4875	-3.3312	-3.8563	-4.3146	-3.1271	105.677	147.273	-44.269	145.022	177.057	118.000	225.358	170.373	0.250	41.483	186.416	70.316	252.579	239.721	235.348	153.031	0.00094914	0.00045842	0.0003067	754.01	7.6791e-06	5.6543e-06	708.89	310.43	1.2449e-05	2.5569e-06	327.82	145.92	118.1	57.49	1.4465e-05	69.925	0.0010532	0.0011755	0.00034766	782.73	1.1686e-05	1.2984e-05	742.22	319.22	1.1567e-05	1.311e-05	344.86	149.38	125.27	59.567	1.294e-05	71.783	9.847	-67.392	-5.360	-83.291	52.003	-31.441	-85.481	-78.601	-18.565	156.998	-81.648	-77.985	-74.451	-69.224	50.393	-73.838	-8191	255	
2305.635	1	1	0	0	0.10668	0.046125	0.049099	0.055821	0.23925	0.11287	0.18598	0.057178	0.12691	0.20681	0.065176	0.14002	0.02714	0.329	0.18405	0.20857	-3.9896	-3.7167	-3.2188	-4.5729	-3.6417	-3.6979	-4.3979	-3.1583	-4.1438	-3.9854	-3.6271	-4.1771	-3.7167	-3.7896	-4.2417	-3.2604	254.066	120.968	5.049	-13.818	31.531	-29.455	223.252	204.558	91.705	109.316	195.367	-43.619	194.418	254.034	136.716	197.712	0.00077754	0.0011539	0.00034649	748.44	2.4128e-06	3.8707e-06	704.4	307.67	7.3482e-06	1.4585e-06	323.18	144.13	117.04	57.532	8.6839e-06	69.5	0.0010483	0.001219	0.00033082	778.27	1.1755e-05	1.3455e-05	734.68	316.47	1.1784e-05	1.3455e-05	341.21	148.13	125.33	59.462	1.2308e-05	71.176	14.598	21.408	-39.891	-83.384	-63.317	189.041	-85.357	-78.587	-6.790	-52.451	-81.803	-78.036	-74.454	-69.287	21.745	-73.610	-8191	255	
2305.730	1	1	0	0	0.29631	0.17084	0.12648	0.13521	0.11483	0.14028	0.34081	0.099209	0.12605	0.3225	0.14038	0.30694	0.19683	0.33111	0.15527	0.16305	-3.6312	-3.9771	-3.3021	-4.5583	-3.4958	-3.7333	-4.4083	-3.2917	-4.1062	-3.9354	-3.3917	-4.3833	-3.7	-3.6792	-4.3208	-3.4354	-54.910	7.844	-81.503	210.004	111.256	230.437	214.492	-71.110	127.977	83.053	257.786	248.763	246.122	-78.305	211.899	-42.084	0.00080743	0.0016509	0.00016179	750.14	1.2288e-05	1.6362e-06	704.47	308.98	1.2132e-05	3.0158e-06	325.85	144.58	117.29	57.693	7.5288e-07	69.684	0.0010797	0.0012194	0.0003132	777.71	1.2294e-05	1.3481e-05	732.66	316.31	1.2233e-05	1.338e-05	340.33	148.38	126.44	59.469	1.2068e-05	71.382	11.868	-34.064	6.112	-83.086	127.046	117.604	-85.138	-78.499	129.838	56.719	-81.316	-77.918	-74.546	-69.135	146.896	-73.955	-8191	255	
2305.826	1	1	0	0	0.21122	0.23359	0.076259	0.21222	0.082925	0.039558	0.22223	0.16819	0.15117	0.11243	0.06421	0.32164	0.04906	0.4208	0.15177	0.32077	-3.6167	-4.0646	-3.4	-4.2125	-3.7292	-3.4625	-4.4208	-3.4167	-3.95	-4.1979	-3.3729	-4.3646	-3.7917	-3.5042	-4.4771	-3.3688	-43.586	233.811	-70.176	197.952	105.649	109.302	-67.269	226.427	125.363	256.022	-34.265	142.619	256.609	222.265	142.575	167.809	0.0010845	0.00033126	2.098e-05	747.24	4.73e-06	7.3661e-06	706.07	308.98	6.8229e-06	9.8575e-06	324.33	145.47	118.02	57.658	7.5242e-06	70.022	0.0011458	0.0012074	0.00031263	776.37	1.308e-05	1.3324e-05	733.45	317	1.3156e-05	1.2958e-05	341.79	149.12	127.54	59.334	1.1874e-05	71.8	25.203	215.776	-80.359	-82.928	13.179	33.629	-85.464	-78.765	244.701	2.499	-81.469	-78.111	-74.677	-69.335	41.011	-73.664	-8191	255	
2305.922	1	1	0	0	0.0409	0.1811	0.093523	0.12925	0.089979	0.11483	0.1275	0.25913	0.055619	0.07125	0.11159	0.058378	0.21667	0.31632	0.10863	0.21115	-3.4021	-4.2833	-2.9479	-4.3208	-4.0563	-3.2271	-4.5271	-3.5708	-3.6708	-4.3812	-3.4021	-3.925	-4.2188	-3.475	-4.1771	-3.8229	240.171	244.848	164.564	-3.330	56.370	43.955	-25.142	169.716	98.736	-20.626	65.645	178.142	71.003	255.004	200.516	197.775	0.00085237	5.8993e-05	0.00012716	748.06	5.332e-06	1.5353e-05	709.19	309.04	9.3671e-06	4.307e-06	325.55	145.39	117.3	57.221	1.3536e-05	69.407	0.0012073	0.0011604	0.0003033	778	1.3535e-05	1.2765e-05	734.49	317.4	1.346e-05	1.2421e-05	339.63	149.09	127.27	58.892	1.1467e-05	71.329	12.090	22.755	-2.026	-83.436	0.317	46.216	-85.196	-78.727	145.185	43.108	-81.484	-77.966	-74.262	-69.296	-42.838	-73.834	-8191	255	
2306.018	1	1	0	0	0.11281	0.10083	0.21422	0.20185	0.1495	0.2161	0.29657	0.18301	0.053879	0.15493	0.035512	0.26572	0.18518	0.062951	0.028284	0.17099	-3.2292	-4.4938	-3.4708	-3.9437	-4.0104	-3.1	-4.5021	-3.9125	-3.325	-4.3417	-3.4083	-4.1146	-4.1479	-3.3979	-4.2458	-3.95	-78.056	-76.090	-92.580	171.704	201.952	-84.731	-70.889	246.438	99.890	160.022	187.624	262.128	-43.477	120.348	167.649	-64.303	0.0010085	0.00045879	0.00023981	747.5	6.0345e-06	8.7803e-06	701.56	305.24	3.3147e-06	4.846e-06	320.23	144.05	117.1	57.051	4.2683e-06	69.015	0.0011999	0.0011134	0.00029503	778.17	1.3132e-05	1.207e-05	726.04	315.22	1.2935e-05	1.1886e-05	335.38	148.61	125.97	58.62	1.1188e-05	71.175	26.499	1.835	34.646	-83.277	-16.922	56.626	-85.031	-78.447	67.260	97.990	-81.501	-77.869	-74.854	-69.407	-54.927	-73.732	-8191	255	
2306.114	1	1	0	0	0.15432	0.14244	0.14499	0.17001	0.1109	0.18456	0.23489	0.049763	0.042638	0.090716	0.10945	0.2437	0.3097	0.38248	0.19003	0.21174	-3.0083	-4.3375	-3.4417	-4.0146	-4.3083	-3.1521	-4.2896	-3.9458	-3.3542	-4.4583	-3.4521	-3.825	-4.4083	-3.3563	-4.1229	-4.175	-57.003	238.897	-86.181	-94.267	179.021	-16.466	50.307	122.940	51.137	-45.780	212.971	167.307	192.990	-84.309	83.385	156.078	0.00058014	0.0014781	0.00011486	748.86	1.0663e-05	9.9708e-06	699.14	304.38	1.4168e-05	8.2048e-06	322.2	144.6	116.67	57.047	8.2581e-06	69.017	0.0011431	0.0010726	0.00029211	782.13	1.2501e-05	1.1674e-05	726.61	315.47	1.2405e-05	1.1493e-05	336.33	149.04	125.04	58.468	1.1593e-05	71.197	14.872	-76.243	30.388	-83.213	0.862	54.426	-85.273	-78.697	89.967	82.223	-81.438	-77.789	-74.254	-69.224	255.802	-73.582	-8191	255	
2306.235	1	1	0	0	0.27967	0.13051	0.1347	0.14095	0.12035	0.11555	0.21012	0.29982	0.12909	0.14056	0.09404	0.36897	0.179	0.12598	0.034453	0.10634	-2.8792	-4.4396	-3.5396	-3.7354	-4.4146	-3.3229	-3.9333	-4.0958	-3.3792	-4.4	-3.7667	-3.5854	-4.3375	-3.4104	-3.8604	-4.1771	196.640	189.262	-41.458	162.096	-92.473	102.004	239.504	256.501	262.514	244.730	209.034	201.382	-81.119	-32.958	-85.535	232.378	0.00068209	0.00072736	5.176e-05	748.62	7.0783e-06	8.8897e-06	704.99	305.06	4.8803e-06	1.2986e-05	319.35	145.04	117.11	56.953	8.3756e-06	69.282	0.0010961	0.0010361	0.00030297	782.74	1.1942e-05	1.1381e-05	730.81	314.99	1.1811e-05	1.1243e-05	337.16	149.69	124.92	58.328	1.239e-05	71.453	23.752	-54.157	109.045	-83.172	49.758	3.714	-85.072	-78.600	57.883	6.098	-81.719	-77.895	-74.292	-69.568	233.884	-73.584	-8191	255	
2306.331	1	1	0	0	0.30515	0.086649	0.22105	0.26476	0.2221	0.057222	0.081554	0.1011	0.075944	0.1688	0.18351	0.048691	0.21329	0.21629	0.12423	0.098111	-2.7917	-4.3187	-3.7167	-3.3042	-4.5563	-3.2062	-3.9042	-4.1792	-3.1604	-4.3146	-3.7917	-3.4458	-4.375	-3.5542	-3.6333	-4.4938	193.591	157.492	128.647	215.028	-10.357	54.738	-25.617	206.822	155.814	244.360	148.012	194.732	16.341	215.864	165.672	-65.954	0.0008421	0.00079496	9.5212e-05	747.79	4.3377e-06	1.3722e-05	705.69	304.75	3.0318e-06	7.4189e-06	321.35	145.87	116.56	56.678	8.058e-06	69.154	0.0010739	0.0010327	0.00032404	783.4	1.1799e-05	1.1378e-05	736.67	314.44	1.1692e-05	1.1223e-05	340.5	149.79	124.44	58.232	1.2804e-05	71.054	14.434	-49.814	-90.621	-83.386	76.903	35.365	-85.265	-78.513	61.560	21.560	-81.108	-77.581	-74.363	-69.272	165.827	-73.533	-8191	255	
2306.427	1	1	0	0	0.077124	0.2484	0.18487	0.18155	0.20995	0.084684	0.23569	0.1277	0.049959	0.067062	0.23435	0.14548	0.24834	0.28229	0.20497	0.13684	-2.7812	-4.1125	-3.8583	-3.2479	-4.3604	-3.5812	-3.6063	-4.4125	-3.2292	-3.8667	-4.1188	-3.3812	-4.325	-3.7208	-3.6583	-4.5396	20.748	197.631	119.342	233.329	46.012	-92.565	236.532	170.263	-64.118	147.889	144.273	-73.756	221.397	248.346	258.082	147.617	0.00095091	0.0010529	0.0001814	748.58	1.5742e-05	5.8181e-06	701.66	304	1.0309e-05	9.2565e-07	316.68	144.9	116.93	56.675	9.5279e-06	68.555	0.0010236	0.0010324	0.00032997	777.85	1.1236e-05	1.1357e-05	732.1	312.07	1.1146e-05	1.1403e-05	335.53	148.38	123.49	57.881	1.2662e-05	70.34	15.644	-4.361	9.888	-83.276	24.739	9.664	-85.541	-78.421	77.169	162.879	-81.649	-77.766	-74.638	-69.232	39.848	-73.641	-8191	255	
2306.499	1	1	0	0	0.029042	0.3087	0.18309	0.074645	0.11891	0.15493	0.091766	0.16658	0.13179	0.039985	0.24324	0.14868	0.059595	0.31195	0.11049	0.16042	-2.8396	-3.9313	-3.9292	-3.1708	-4.1625	-3.8542	-3.5771	-4.4104	-3.3375	-3.9229	-4.1146	-3.3458	-4.1083	-3.8667	-3.7	-4.2208	185.424	44.713	174.223	-32.173	48.742	78.080	134.654	-55.035	-63.549	204.202	192.084	-82.050	242.979	226.840	40.676	-57.232	0.00065674	0.0004419	0.00017976	747.91	5.4419e-06	3.4215e-06	699.82	299.92	5.3174e-06	6.4039e-06	314.26	143.87	116.26	55.976	8.3868e-06	68.508	0.00097738	0.0010678	0.00032037	775.59	1.0957e-05	1.1945e-05	728.69	308.49	1.0822e-05	1.1997e-05	332.54	147.82	123.08	57.623	1.2243e-05	70.111	17.880	116.385	255.139	-83.114	16.752	26.978	-85.236	-78.169	17.236	162.277	-81.241	-77.621	-74.155	-69.271	111.907	-73.400	-8191	255	
2306.618	1	1	0	0	0.17169	0.27779	0.1658	0.22126	0.092371	0.19287	0.17913	0.11257	0.089043	0.22629	0.13836	0.21681	0.22201	0.1685	0.082946	0.18439	-2.7479	-3.7667	-4.1229	-3.2708	-4.05	-3.725	-3.4292	-4.7292	-3.3625	-3.775	-4.3063	-3.2125	-4.2937	-4.0958	-3.1271	-4.5292	21.729	201.326	181.518	-93.877	231.468	83.079	-45.681	237.642	23.325	189.891	140.598	262.656	71.855	-59.484	-35.908	-94.113	0.0010582	0.0012431	0.00022844	751.72	8.4371e-06	8.2683e-06	698.83	300.19	1.2693e-05	1.154e-05	316.19	144.54	115.78	55.794	2.4556e-06	68.268	0.00097796	0.0011221	0.00030756	776.26	1.0794e-05	1.248e-05	726.05	306.88	1.0792e-05	1.2418e-05	330.5	148.05	123.31	57.513	1.1578e-05	69.929	17.766	26.729	-52.403	-82.998	222.631	254.070	-85.279	-78.436	3.019	133.776	-81.654	-77.631	-74.178	-69.250	71.357	-73.570	-8191	255	
2306.714	1	1	0	0	0.046606	0.18381	0.2033	0.11813	0.1628	0.34557	0.16969	0.20882	0.33191	0.18535	0.12556	0.18424	0.14176	0.29168	0.16856	0.094192	-3.1875	-3.7708	-4.4458	-3.3375	-4.1729	-4.0271	-3.3208	-4.4792	-3.4979	-3.6396	-4.3875	-3.2729	-4.1896	-4.1292	-3.2125	-4.5	211.717	19.484	195.071	161.119	85.454	242.418	200.531	196.114	117.529	4.819	231.020	-68.137	-71.872	224.655	47.389	67.385	0.0010715	0.00068747	0.00023879	749.35	7.4204e-06	5.0089e-06	705.6	299.19	1.2488e-05	6.7848e-06	315.2	144.82	116.68	56.024	1.0154e-05	68.75	0.00099474	0.0011446	0.00029336	774.7	1.114e-05	1.2554e-05	728.38	306.68	1.1249e-05	1.2394e-05	330.06	148.19	124.13	57.609	1.1159e-05	70.186	14.887	-28.765	-21.804	-83.058	39.599	107.149	-85.132	-78.388	-77.769	93.888	-81.393	-77.562	-74.330	-69.083	57.991	-73.426	-8191	255	
2306.810	1	1	0	0	0.24935	0.092517	0.096453	0.14367	0.11118	0.18846	0.054639	0.36417	0.048595	0.019866	0.15187	0.20462	0.206	0.23577	0.23282	0.076163	-3.2875	-3.3771	-4.3167	-3.3667	-4.0042	-4.3229	-3.2917	-4.3542	-3.65	-3.3583	-4.5333	-3.4542	-3.8229	-4.5188	-3.1063	-4.2979	-80.010	231.721	-22.532	173.859	261.846	111.177	-39.329	184.215	163.551	155.918	224.092	137.897	24.855	-64.331	-59.365	202.752	0.00091536	0.00039016	0.00021209	747.8	5.8644e-06	3.068e-06	697.14	300.44	8.9881e-06	8.8831e-06	314.08	144.32	116.38	56.192	1.0641e-05	68.637	0.001044	0.0011107	0.00028018	772.94	1.1636e-05	1.2023e-05	722.09	306.26	1.1805e-05	1.1938e-05	328.14	147.59	124.69	57.562	1.0779e-05	69.974	4.934	-86.739	19.397	-83.578	-45.846	58.787	-85.058	-78.416	33.799	32.997	-81.327	-77.454	-74.189	-69.182	48.496	-73.619	-8191	255	
2306.906	1	1	0	0	0.1451	0.051725	0.095765	0.1226	0.024953	0.26232	0.097923	0.26094	0.21045	0.09195	0.1287	0.063743	0.20107	0.15468	0.11899	0.045158	-3.5438	-3.1354	-4.4	-3.3771	-3.6292	-4.2104	-3.1625	-4.2271	-3.8458	-3.2729	-4.3854	-3.6542	-3.4688	-4.3542	-3.2208	-4.2708	124.158	132.641	88.017	28.316	120.523	86.929	148.672	-93.694	-5.298	166.619	227.853	21.316	212.978	210.309	-11.736	183.623	0.0011098	0.0011342	0.00013209	744.74	3.9501e-06	7.1968e-06	697.12	300.08	1.1349e-05	9.7597e-06	313.78	143.51	116.73	56.151	8.3974e-06	68.827	0.0010816	0.0010617	0.00027408	772.85	1.2083e-05	1.151e-05	720.07	306.56	1.2164e-05	1.1373e-05	327.34	147.46	125.28	57.522	1.0581e-05	70.205	24.328	-8.145	-33.434	-83.075	30.525	54.361	-85.257	-78.638	17.934	-12.160	-81.545	-77.809	-74.149	-69.294	207.570	-73.489	-8191	255	
2307.027	1	1	0	0	0.1629	0.0072429	0.17279	0.061446	0.16713	0.14894	0.04247	0.19554	0.101	0.17093	0.034273	0.090922	0.061955	0.080677	0.30455	0.28439	-3.6667	-3.1813	-4.2312	-3.7375	-3.4667	-4.4875	-3.3979	-4.1354	-4.225	-3.1479	-4.3313	-3.8125	-3.4938	-4.3479	-3.2042	-3.9104	17.432	7.589	-38.291	-91.114	34.158	5.150	214.638	260.242	-19.683	232.128	37.448	165.074	196.897	113.712	-18.285	205.806	0.00082042	0.0002183	0.00025244	750.1	7.3336e-06	9.0671e-06	699.1	300.34	2.7108e-06	4.1193e-06	317.45	145.86	117.74	56.518	2.6298e-06	68.694	0.0010969	0.0010197	0.00026773	776.1	1.2288e-05	1.1232e-05	721.99	308.66	1.213e-05	1.1181e-05	329.03	149.37	125.62	57.704	1.0622e-05	70.791	2.086	-59.941	-21.831	-83.321	13.218	16.159	-85.107	-78.354	229.102	82.191	-81.654	-77.746	-74.439	-69.239	11.671	-73.483	-8191	255	
2307.123	1	1	0	0	0.1852	0.14219	0.15241	0.043294	0.26239	0.15014	0.15785	0.1226	0.11439	0.13113	0.041668	0.13514	0.075826	0.091401	0.27305	0.06671	-3.7375	-3.0979	-4.3146	-3.7062	-3.3125	-4.4625	-3.5167	-3.8583	-4.1646	-3.1979	-4.1167	-4.0042	-3.2646	-4.4125	-3.425	-3.7687	6.335	95.433	176.920	156.268	-55.067	-66.550	250.522	-33.034	96.521	216.357	-67.662	-40.840	-90.917	166.875	-82.506	-57.435	0.00048879	0.00076813	0.00033983	752.35	1.0866e-05	8.2391e-06	700.45	300.54	1.3308e-05	5.5792e-06	316.65	145.61	116.37	56.168	1.675e-06	69.219	0.0010934	0.00102	0.00027208	780.43	1.2148e-05	1.1111e-05	724.33	310.17	1.1808e-05	1.1096e-05	330.35	150.16	124.72	57.568	1.099e-05	71.177	26.405	-16.692	-11.070	-83.448	-4.255	-0.901	-85.299	-78.398	29.546	69.560	-81.271	-77.914	-73.976	-69.269	224.129	-73.556	-8191	255	
2307.219	1	1	0	0	0.17926	0.28774	0.2256	0.27548	0.04038	0.082886	0.061246	0.055601	0.13934	0.01925	0.081035	0.25378	0.23167	0.18741	0.23917	0.1347	-4.0979	-3.1063	-4.0458	-3.9729	-3.2125	-4.4708	-3.8937	-3.7438	-4.2	-3.2208	-3.925	-4.0563	-3.2042	-4.4437	-3.4938	-3.6646	157.252	141.670	219.891	-58.551	263.601	215.529	145.643	258.347	247.525	225.349	-79.975	228.622	250.886	218.004	67.999	201.755	0.0007836	0.00040859	0.00016174	749.98	5.3828e-06	8.0778e-06	699.13	299.64	4.2437e-06	4.6551e-06	314.96	144.96	116.86	56.317	4.6787e-06	68.635	0.00104	0.00098675	0.00028093	782.36	1.1547e-05	1.0801e-05	724.72	309.92	1.1347e-05	1.072e-05	330.59	149.71	124.28	57.449	1.1453e-05	70.617	32.212	255.492	261.152	-83.457	-25.620	-39.255	-85.154	-78.279	55.758	9.771	-81.316	-77.761	-73.915	-69.177	211.187	-73.892	-8191	255	
2307.315	1	1	0	0	0.137	0.16769	0.083379	0.31212	0.12171	0.33036	0.27314	0.0054865	0.083494	0.1692	0.15081	0.12833	0.15888	0.26926	0.16937	0.22311	-4.0271	-3.0812	-3.875	-4.0333	-3.1562	-4.3333	-3.7146	-3.5375	-4.4958	-3.3542	-4.0042	-4.4125	-3.2396	-4.3021	-3.6771	-3.6417	-74.207	157.447	38.793	197.592	-23.732	188.020	176.945	25.664	38.867	101.823	139.802	117.796	148.289	182.268	94.808	153.646	0.00078744	0.001425	0.00019129	747.87	2.5846e-06	4.6083e-06	694.81	299.19	9.6424e-06	3.2868e-06	315.44	145.29	117.95	56.078	9.0066e-06	68.919	0.001011	0.00097418	0.00029803	779.73	1.1215e-05	1.0678e-05	725.19	308.71	1.1069e-05	1.0711e-05	331.37	148.95	123.81	57.277	1.2161e-05	70.575	14.223	-31.539	163.620	-83.380	11.298	134.270	-85.085	-78.370	231.656	142.202	-81.331	-77.822	-73.836	-69.067	46.558	-73.727	-8191	255	
2307.412	1	1	0	0	0.1091	0.20856	0.18831	0.25506	0.14677	0.039445	0.12994	0.09482	0.17692	0.25922	0.2336	0.051083	0.12959	0.33349	0.12589	0.14324	-3.9146	-3.4792	-3.5396	-4.3125	-3.1271	-4.3042	-3.9583	-3.35	-4.4292	-3.4292	-3.7792	-4.2958	-2.9646	-4.3667	-4.1438	-3.3167	-61.760	-42.988	-38.588	-79.721	-41.296	146.381	4.408	77.679	163.194	88.574	154.091	170.254	-76.629	260.805	-50.970	216.739	0.00094195	0.00025328	9.6896e-05	745.21	6.6983e-06	7.2866e-06	701.51	300.01	9.9221e-06	6.6247e-06	317.75	144.75	116.74	56.101	9.0043e-06	69.104	0.00099264	0.00099111	0.00031616	775.81	1.1035e-05	1.1048e-05	728.86	308.54	1.0879e-05	1.1061e-05	333.46	148.9	123.72	57.595	1.2553e-05	70.781	12.964	13.702	70.868	-83.351	2.190	96.475	-85.131	-78.665	86.033	60.100	-81.538	-77.703	-73.765	-69.183	-7.155	-73.515	-8191	255	
2307.508	1	1	0	0	0.34405	0.21729	0.039528	0.38196	0.089185	0.028273	0.37471	0.29838	0.18001	0.25667	0.085749	0.25669	0.26258	0.2691	0.08451	0.11828	-3.8646	-3.6458	-3.5	-4.4625	-3.2375	-4.0417	-4.1229	-3.4042	-4.1312	-3.8958	-3.65	-4.5021	-3.3187	-4	-4.1667	-3.0479	-82.197	244.327	93.330	195.223	-36.896	126.453	123.848	189.292	44.066	13.196	221.979	203.663	-75.563	239.704	-15.088	-71.844	0.00082866	0.0001217	0.0001041	749.92	1.8446e-06	2.6789e-06	699.46	300.45	9.0662e-06	3.7076e-06	318.94	145.67	116.55	56.316	7.3957e-06	69.476	0.00097187	0.0010451	0.00032164	776.72	1.0853e-05	1.1672e-05	731.16	308.9	1.0863e-05	1.1874e-05	335.51	149.3	123.78	57.899	1.2327e-05	70.996	11.878	-61.863	20.834	-83.244	-24.064	-57.337	-85.297	-78.480	80.342	75.386	-81.587	-77.864	-73.908	-69.239	44.363	-73.571	-8191	255	
2307.627	1	1	0	0	0.28246	0.25457	0.043669	0.072229	0.058367	0.26748	0.061744	0.1802	0.25555	0.1049	0.21466	0.15915	0.10693	0.53638	0.046005	0.30893	-3.9688	-3.8979	-3.3229	-4.4167	-3.4854	-3.8083	-4.4292	-3.3187	-4.2396	-3.8917	-3.1854	-4.5625	-3.5187	-3.775	-4.2188	-3.25	-46.655	125.024	7.194	226.920	58.173	57.694	-13.089	254.273	120.634	251.723	178.484	215.186	-13.265	211.258	83.563	163.694	0.00080365	0.00067937	9.1015e-05	753.36	5.5403e-06	2.1891e-06	701.54	302.69	8.0879e-06	5.921e-06	316.99	146.02	117.33	56.06	3.3771e-06	68.765	0.00096254	0.0011089	0.00031431	777.82	1.0755e-05	1.2354e-05	732.08	309.46	1.0717e-05	1.2465e-05	333.38	149.15	123.71	57.814	1.1819e-05	70.464	11.774	-34.408	-90.738	-83.291	40.322	-22.145	-85.002	-78.448	30.116	24.241	-81.505	-77.731	-73.945	-69.099	53.515	-73.584	-8191	255	
2307.723	1	1	0	0	0.16255	0.22845	0.16737	0.07917	0.20344	0.032532	0.2189	0.021357	0.11236	0.013671	0.14127	0.18714	0.069042	0.11674	0.17109	0.026708	-3.8354	-3.7938	-3.1042	-4.425	-3.3771	-3.6688	-4.3021	-3.3979	-3.9271	-3.8292	-3.5521	-4.4229	-3.5812	-3.6	-4.4917	-3.2854	-66.234	182.193	-19.205	-91.858	90.883	192.123	209.854	-65.561	99.738	0.246	14.440	124.856	248.441	177.352	-48.084	14.776	0.00097956	0.00089047	8.0763e-05	751.08	3.1005e-06	2.4245e-06	699.55	299.55	6.0694e-06	9.6627e-06	314.76	144.37	116.68	56.102	8.702e-06	68.535	0.00098468	0.0011474	0.00029827	773.6	1.1032e-05	1.2528e-05	724.08	306.5	1.1094e-05	1.2356e-05	329.31	147.81	123.76	57.705	1.114e-05	69.999	5.795	65.876	216.962	-83.299	132.782	61.245	-85.244	-78.571	223.613	10.007	-81.362	-77.666	-73.991	-68.998	33.406	-73.487	-8191	255	
2307.794	1	1	0	0	0.38119	0.065607	0.18558	0.085646	0.21219	0.1359	0.12445	0.21266	0.18543	0.18133	0.075198	0.15874	0.16457	0.26858	0.10176	0.16927	-3.5563	-3.9354	-3.2167	-4.4062	-3.6125	-3.5833	-4.3438	-3.3917	-3.9271	-4.0938	-3.3104	-4.2312	-3.9104	-3.325	-4.45	-3.4104	189.572	52.277	-77.764	232.758	-94.989	7.241	84.712	208.430	-52.146	-2.878	90.938	-29.210	24.518	214.228	247.401	149.817	0.00080537	0.00094476	0.00018748	750.08	9.084e-06	7.0519e-06	698.8	300.06	1.6847e-05	1.2623e-05	315.9	144.6	116.06	56.132	5.0827e-06	69.002	0.001022	0.0011216	0.00028316	770.67	1.1629e-05	1.2273e-05	722.43	306.76	1.174e-05	1.2109e-05	330	148.18	124.5	57.666	1.0972e-05	70.413	20.503	-52.012	-14.997	-83.106	52.367	12.420	-85.318	-78.164	129.730	11.715	-81.344	-77.699	-74.379	-69.133	-33.290	-73.433	-8191	255	
2307.915	1	1	0	0	0.24324	0.091122	0.089572	0.16086	0.11232	0.12065	0.28822	0.25386	0.22985	0.26475	0.13924	0.093377	0.1572	0.0077249	0.084742	0.14368	-3.4146	-4.0563	-2.875	-4.3812	-3.6333	-3.2	-4.5479	-3.5833	-3.4854	-4.3271	-3.0812	-4.0521	-3.9354	-3.1521	-4.2667	-3.7958	-40.099	168.168	162.424	179.132	-39.983	107.035	201.178	-85.048	214.978	178.968	238.391	246.902	1.355	115.283	64.048	43.545	0.0010175	0.00020043	0.00014333	749.31	2.2066e-06	1.1536e-05	699.48	301.18	2.2498e-06	1.506e-05	318.97	145.74	116.97	56.195	6.0906e-06	69.47	0.0010999	0.0010921	0.00028221	772.33	1.2289e-05	1.1918e-05	724.51	307.74	1.2274e-05	1.1714e-05	331.79	149.08	125.33	57.664	1.0743e-05	70.95	12.104	49.917	-61.804	-83.226	51.410	79.826	-85.195	-78.573	158.059	58.557	-81.334	-77.639	-74.004	-69.156	-28.946	-73.597	-8191	255	
2308.011	1	1	0	0	0.11033	0.081991	0.19635	0.19372	0.20096	0.049159	0.063925	0.13463	0.053598	0.21532	0.10432	0.12961	0.19043	0.27379	0.12212	0.015198	-3.1354	-4.2458	-3.1292	-4.0354	-4.0104	-3.2229	-4.5437	-3.5604	-3.55	-4.3042	-3.2875	-4.0604	-4.0854	-3.1375	-4.2229	-3.7854	1.137	86.119	197.064	230.446	112.502	-84.103	246.551	-79.803	118.776	171.811	243.384	176.836	199.279	260.190	-48.338	78.075	0.00066472	0.0010335	0.00021465	748.86	4.1498e-06	8.9752e-06	703.5	300.93	1.083e-05	8.471e-06	319.04	146.44	115.9	56.313	7.4959e-06	69.583	0.0011222	0.0010441	0.00027369	775.87	1.2375e-05	1.1411e-05	726.4	308.82	1.2277e-05	1.1324e-05	331.76	149.84	125.34	57.67	1.0472e-05	71.018	-0.483	-37.418	-22.494	-83.043	46.760	25.432	-85.291	-78.177	-50.042	-11.279	-81.300	-77.538	-74.268	-69.197	-2.459	-73.574	-8191	255	
2308.107	1	1	0	0	0.071522	0.27919	0.33065	0.12309	0.08619	0.18758	0.13406	0.17017	0.22148	0.1797	0.22743	0.1719	0.14409	0.16167	0.093997	0.17915	-3.1729	-4.4042	-3.0604	-3.95	-4.2271	-2.9708	-4.2542	-3.8458	-3.3875	-4.4458	-3.4979	-3.8312	-4.2833	-3.4667	-4.0479	-3.9667	125.706	190.018	235.225	-34.949	129.043	241.308	-82.545	220.673	245.069	-12.122	154.999	-56.894	193.853	136.273	-46.474	100.580	0.00078019	0.00010296	0.00014972	751.04	4.8584e-06	4.632e-06	700.85	298.83	1.1528e-05	1.0716e-05	317.18	144.73	117.35	56.042	3.5438e-06	69.053	0.0010909	0.0010058	0.00026894	778.05	1.1997e-05	1.1043e-05	721.96	308.39	1.1762e-05	1.0831e-05	329.3	149.17	124.66	57.407	1.0502e-05	70.986	12.285	63.322	249.358	-83.233	-4.084	40.747	-85.205	-78.110	3.923	-5.734	-81.514	-77.728	-74.600	-69.062	83.469	-73.568	-8191	255	
2308.204	1	1	0	0	0.10077	0.11178	0.076074	0.18834	0.22568	0.13295	0.25388	0.12755	0.12038	0.16817	0.18988	0.12038	0.21846	0.086565	0.24408	0.053489	-2.8354	-4.3438	-3.7	-3.6917	-4.4375	-3.3104	-4.1417	-4.1542	-3.0396	-4.4437	-3.5938	-3.7687	-4.4521	-3.2875	-4.025	-4.175	52.837	-5.263	77.654	-32.346	104.992	4.715	163.851	242.041	-57.902	-42.383	137.321	231.957	191.292	-75.074	235.352	123.781	0.00066669	0.0013086	0.00016999	744.45	6.6273e-06	5.0451e-06	695.24	300.08	7.7968e-06	4.8929e-06	318.22	145.59	116.59	56.653	7.7871e-06	69.377	0.0010516	0.0009743	0.00027386	777.56	1.1518e-05	1.0893e-05	722.05	310.31	1.1491e-05	1.0809e-05	332	150.09	124.27	57.895	1.134e-05	71.421	18.487	-32.879	146.188	-83.336	9.937	93.689	-85.193	-78.304	7.995	-12.476	-81.384	-77.860	-74.457	-69.279	231.875	-73.716	-8191	255	
2308.324	1	1	0	0	0.15095	0.08494	0.1076	0.26724	0.12143	0.13002	0.23661	0.13887	0.36226	0.031965	0.1651	0.38014	0.13764	0.25234	0.07729	0.23333	-2.7354	-4.3771	-3.4854	-3.6125	-4.1229	-3.7229	-3.8896	-4.3812	-3.0521	-4.3875	-3.7375	-3.775	-4.475	-3.4271	-3.95	-4.3	34.014	-62.109	39.688	210.910	208.454	-32.868	193.026	212.169	71.572	99.312	-30.026	128.869	-48.490	245.470	242.227	188.462	0.00081093	0.00015458	5.0386e-05	746.03	1.5062e-05	4.5667e-06	701	302.31	1.0434e-05	8.349e-06	320.04	145.9	116.81	56.632	4.098e-06	70.184	0.0010311	0.00098146	0.0002968	776.22	1.1399e-05	1.0761e-05	727.21	311.23	1.1336e-05	1.0666e-05	335.87	150.3	124.3	57.884	1.207e-05	71.924	22.713	32.055	94.270	-83.400	-7.104	63.133	-85.261	-78.298	71.198	21.948	-81.199	-77.734	-74.315	-69.301	118.496	-73.736	-8191	255	
2308.420	1	1	0	0	0.32902	0.11486	0.13921	0.049993	0.14128	0.022692	0.10333	0.12534	0.17268	0.1762	0.10578	0.24229	0.21278	0.26852	0.11363	0.23975	-2.8688	-4.1333	-3.9688	-3.4042	-4.6604	-3.4188	-4.0458	-4.4292	-3.1354	-4.3375	-3.7979	-3.3312	-4.3333	-3.5896	-3.7896	-4.2104	193.829	198.855	252.530	118.804	231.260	147.565	97.204	40.883	252.539	-62.128	-85.560	155.448	-20.163	208.728	235.544	183.109	0.00083386	0.00064075	0.00018	745.91	1.2157e-05	4.791e-06	702.68	303.45	1.0255e-05	6.2457e-06	323.46	146.94	118.02	56.746	3.7736e-06	70.037	0.0010238	0.00099714	0.00031794	776.42	1.1298e-05	1.114e-05	735.05	312.03	1.1325e-05	1.1332e-05	341.47	150.8	124.62	58.238	1.2838e-05	71.838	25.353	-36.459	179.623	-83.345	-23.444	53.946	-85.258	-78.429	36.144	75.559	-81.425	-77.787	-74.272	-69.237	23.207	-73.586	-8191	255	
2308.492	1	1	0	0	0.28752	0.1186	0.069162	0.18312	0.10251	0.12123	0.31126	0.15512	0.17518	0.073149	0.25315	0.27954	0.18712	0.062221	0.11908	0.16339	-2.65	-4.1354	-3.8729	-3.4167	-4.225	-3.3958	-3.6875	-4.4187	-3.1917	-3.9625	-4.1354	-3.3812	-4.1104	-3.7396	-3.5312	-4.4917	13.363	82.574	-59.265	30.407	-89.085	70.830	135.014	-83.803	-86.195	-92.168	217.432	162.144	181.186	-29.011	252.515	-95.952	0.00054084	0.00045466	0.0002423	745.37	1.0333e-05	1.4144e-05	700.02	301.66	1.2002e-05	1.0726e-05	322.07	145.31	117.15	56.455	1.1523e-05	69.495	0.001014	0.0010528	0.00032967	773.21	1.1036e-05	1.1609e-05	732.34	310.08	1.0928e-05	1.1756e-05	338.62	149.17	123.59	58.077	1.2589e-05	71.052	41.113	95.685	18.123	-83.228	40.782	56.171	-85.114	-78.580	105.633	30.044	-81.528	-77.822	-74.417	-69.207	176.295	-73.754	-8191	255	
2308.588	1	1	0	0	0.10734	0.17504	0.13999	0.224	0.12196	0.10564	0.23485	0.29865	0.099011	0.092571	0.22376	0.17335	0.011005	0.12504	0.055227	0.1645	-2.8312	-3.6042	-4.1271	-3.1396	-4.3458	-3.6792	-3.45	-4.4563	-3.1437	-3.9125	-4.1813	-3.3479	-4.1521	-4.075	-3.2354	-4.4667	169.151	-69.104	-46.474	170.912	-7.096	-69.358	-83.648	-74.723	44.782	-10.617	124.538	135.221	250.019	235.738	-19.398	218.758	0.00082117	0.0010376	0.00027715	742.56	9.9547e-06	5.6946e-07	701.8	299.88	6.4938e-06	3.4184e-06	319.17	144.67	115.76	56.141	1.0112e-05	68.639	0.00097871	0.0010984	0.00031988	769.45	1.0695e-05	1.2191e-05	728.09	308.22	1.074e-05	1.2203e-05	334.49	148.49	122.91	57.829	1.199e-05	70.417	10.219	5.301	36.428	-83.686	99.087	199.843	-84.990	-78.153	171.108	-14.326	-81.329	-77.943	-74.030	-69.171	28.986	-73.696	-8191	255	
2308.707	1	1	0	0	0.24975	0.25025	0.14356	0.10458	0.11518	0.14835	0.22611	0.34616	0.13013	0.078909	0.14677	0.30267	0.22885	0.14561	0.14068	0.14842	-2.9833	-3.5729	-4.2083	-3.0667	-4.1292	-3.7604	-3.2479	-4.4979	-3.6437	-3.4604	-4.2479	-3.1917	-4.125	-4.1	-3.2354	-4.625	11.797	-66.595	242.993	9.034	158.278	186.977	177.917	219.966	-39.661	54.702	-91.510	212.239	242.806	-39.336	55.937	212.063	0.00079077	0.00087295	0.00021031	744.04	4.4024e-06	2.3343e-06	702.22	299.94	3.1708e-06	1.4937e-05	317.57	144.6	115.63	56.075	5.3943e-06	69.081	0.0009862	0.0011497	0.00030452	769.05	1.0927e-05	1.2494e-05	726.65	307.48	1.0934e-05	1.2396e-05	333.44	148.07	122.91	57.693	1.1298e-05	70.481	22.284	124.216	23.824	-83.075	108.301	176.112	-84.967	-78.437	-63.129	15.717	-81.184	-77.750	-74.582	-69.123	29.009	-73.694	-8191	255	
2308.803	1	1	0	0	0.34003	0.036351	0.11117	0.15894	0.077071	0.18294	0.26881	0.095801	0.19923	0.21869	0.13688	0.24562	0.14729	0.24673	0.19504	0.010222	-3.15	-3.525	-4.3542	-3.2188	-4.1125	-3.9646	-3.3187	-4.3875	-3.6979	-3.4146	-4.4313	-3.3833	-3.8625	-4.4521	-3.0438	-4.2708	16.287	119.801	161.983	171.404	247.839	105.325	146.752	259.346	42.727	-66.534	-48.929	244.803	153.446	262.269	-50.268	62.658	0.00084318	0.00062497	4.6614e-05	746.48	8.7367e-06	5.0554e-06	699.17	301.02	5.3465e-06	9.6887e-06	320.2	144.94	115.86	55.951	6.324e-06	69.241	0.0010198	0.0011402	0.00028813	768.64	1.147e-05	1.2517e-05	725.37	307.33	1.178e-05	1.2441e-05	333.42	148.47	124.02	57.446	1.128e-05	70.55	1.555	-57.244	258.807	-83.253	141.555	25.150	-85.287	-78.365	-66.772	-17.725	-81.756	-77.560	-74.650	-69.308	61.943	-73.825	-8191	255	
2308.899	1	1	0	0	0.12449	0.19729	0.08994	0.11052	0.059154	0.090475	0.22411	0.038519	0.14458	0.13793	0.11437	0.20642	0.19791	0.25541	0.13752	0.25858	-3.3792	-3.2292	-4.4083	-3.375	-3.7021	-4.375	-3.3146	-4.4104	-3.7396	-3.4688	-4.4146	-3.6021	-3.8479	-4.3083	-3.0854	-4.2542	-31.388	179.253	-30.675	129.921	84.161	55.897	140.039	245.799	184.620	63.515	5.335	209.849	-78.575	262.337	55.487	227.098	0.00074297	0.0010011	0.00035088	745.5	1.0254e-05	1.1619e-05	698.76	298.35	4.8813e-06	7.2941e-06	314.81	144.64	114.58	55.514	5.7084e-06	68.139	0.0010945	0.0011109	0.00028174	768.18	1.2163e-05	1.1938e-05	723.53	304.27	1.2045e-05	1.1644e-05	327.66	147.9	123.94	56.958	1.0749e-05	69.583	14.029	-33.762	-17.532	-83.346	-48.217	28.778	-85.200	-78.404	190.569	-2.740	-81.093	-77.798	-73.847	-69.177	8.717	-73.690	-8191	255	
2309.020	1	1	0	0	0.067681	0.093905	0.28133	0.2406	0.047559	0.16888	0.10714	0.13321	0.14603	0.10778	0.17678	0.14558	0.22667	0.26297	0.17257	0.25605	-3.6875	-3.2687	-4.1604	-3.6604	-3.7125	-4.3917	-3.2646	-4.0896	-4.2083	-3.325	-4.475	-3.7167	-3.4354	-4.5708	-3.0583	-4.0521	-8.801	116.591	100.980	195.762	48.987	167.704	146.955	229.051	165.832	74.101	182.476	-74.778	108.499	258.629	194.845	183.848	0.0009881	0.0016306	0.00020028	742.62	6.9292e-06	3.7865e-06	691.29	294.83	9.6937e-06	2.162e-06	312.33	143.61	115.18	55.137	1.0877e-05	67.591	0.0011106	0.0010537	0.00027375	768.4	1.2405e-05	1.1412e-05	714.88	302.24	1.2233e-05	1.1267e-05	324.39	147	123.58	56.55	1.0393e-05	69.378	15.950	-60.004	-38.837	-83.064	44.719	19.349	-85.374	-78.462	37.798	35.473	-81.441	-77.720	-73.940	-69.081	26.255	-73.421	-8191	255	
2309.092	1	1	0	0	0.20914	0.18758	0.067566	0.17902	0.15186	0.18111	0.12115	0.087066	0.096806	0.16405	0.16858	0.08079	0.13853	0.26982	0.17062	0.0072957	-3.6813	-3.025	-4.2562	-3.7313	-3.3917	-4.3562	-3.2458	-3.8417	-4.1021	-3.0083	-4.2188	-3.8063	-3.2812	-4.4688	-3.5312	-3.8688	155.704	-61.106	101.338	218.515	23.578	-17.625	175.573	-94.335	218.673	76.327	226.511	-64.233	-35.044	-94.963	178.654	64.665	0.00099025	0.00056335	9.6065e-05	740.52	8.6845e-06	4.992e-06	692.97	293.99	3.1209e-06	6.5364e-06	309.76	143.07	114.6	54.854	4.9434e-06	67.659	0.0010818	0.0010194	0.00026685	769.88	1.1991e-05	1.0948e-05	714.1	302.32	1.1784e-05	1.0921e-05	322.18	147.1	122.67	56.128	1.0448e-05	69.495	30.000	-24.849	-16.176	-83.522	1.203	20.781	-85.327	-78.417	223.810	26.427	-81.461	-77.813	-74.328	-69.056	75.927	-73.789	-8191	255	
2309.188	1	1	0	0	0.11768	0.2209	0.271	0.14259	0.15642	0.22254	0.18816	0.22427	0.050104	0.16015	0.012031	0.10953	0.095155	0.22147	0.16814	0.1192	-3.8521	-3.0958	-4.0229	-4.1458	-3.2396	-4.375	-3.5354	-3.7875	-4.3271	-3.1625	-4.2396	-3.9417	-3.1063	-4.7354	-3.6458	-3.6771	41.074	259.116	21.995	233.132	-51.172	152.503	191.120	199.443	-33.713	-40.181	151.740	-1.531	31.028	241.368	35.647	227.650	0.00080516	0.0011281	0.0001439	743.42	1.1866e-05	4.6207e-06	692.83	292.15	8.6085e-06	6.2332e-06	309.61	143.02	113.96	54.738	4.938e-06	67.524	0.0010442	0.00098576	0.00026561	772.8	1.1641e-05	1.0736e-05	715.77	301.07	1.1331e-05	1.0654e-05	322.3	147.45	121.74	55.982	1.0896e-05	69.586	29.786	-57.602	-24.598	-83.362	50.119	-35.408	-85.453	-78.150	78.048	-32.680	-81.299	-77.623	-74.368	-68.948	153.451	-73.372	-8191	255	
2309.308	1	1	0	0	0.14863	0.15436	0.19775	0.23879	0.26207	0.19855	0.10776	0.12568	0.11107	0.094143	0.058277	0.1585	0.079205	0.31808	0.14228	0.18811	-4.1062	-3.2271	-3.8354	-4.1896	-3.2167	-4.2875	-3.5687	-3.4021	-4.2729	-3.3229	-4.0437	-4.2021	-3.2875	-4.4042	-3.7833	-3.7	-46.021	128.656	238.883	134.105	213.906	210.842	125.616	30.115	28.497	-21.649	-59.398	140.064	242.328	233.216	-16.509	262.313	0.00071975	0.00054461	0.00015532	746.31	1.4226e-06	7.3655e-06	693.79	292.05	2.4832e-06	2.6733e-06	307.65	143.25	113.83	54.461	7.7958e-06	67.428	0.001011	0.00097291	0.0002854	774.91	1.1295e-05	1.0571e-05	719.37	301.02	1.1122e-05	1.0534e-05	323.91	147.43	121.44	55.752	1.1648e-05	69.205	21.650	-28.207	84.113	-83.128	10.756	110.666	-85.223	-78.197	250.873	-60.250	-81.192	-77.584	-73.922	-68.998	255.294	-73.551	-8191	255	
2309.405	1	1	0	0	0.25371	0.22759	0.23877	0.30577	0.27439	0.055892	0.23359	0.31827	0.19816	0.3871	0.19506	0.19365	0.079907	0.10325	0.047444	0.1828	-4.1062	-3.225	-4.075	-4.2833	-3.1479	-4.4292	-3.7812	-3.5042	-4.4479	-3.2729	-3.8438	-4.3833	-3.4833	-4.3396	-3.9813	-3.5917	230.286	177.143	152.073	186.079	-76.763	7.712	165.568	196.022	-36.224	-57.014	-49.890	-74.353	-20.226	253.822	215.994	167.047	0.0010292	0.00061364	5.8722e-05	742.17	1.0809e-05	5.8354e-06	684.5	289.87	1.253e-05	6.0832e-06	304.93	141.89	113.69	54.281	1.4825e-05	66.833	0.0010077	0.00097174	0.00030453	770.26	1.1135e-05	1.0693e-05	717.1	298.66	1.0971e-05	1.073e-05	321.58	145.75	120.81	55.443	1.2238e-05	68.506	13.576	-9.264	246.241	-83.269	-41.272	64.873	-85.322	-78.450	-37.466	86.523	-81.184	-77.698	-74.304	-68.960	82.254	-73.400	-8191	255	
2309.501	1	1	0	0	0.19017	0.12994	0.07328	0.16774	0.32983	0.20526	0.023674	0.23045	0.11118	0.031852	0.091214	0.11933	0.029699	0.23534	0.13818	0.30777	-4.0208	-3.2875	-3.7292	-4.6188	-3.4	-3.9479	-4.1542	-3.2896	-4.4	-3.5875	-3.7667	-4.5417	-3.2896	-4.3458	-4.2271	-3.3438	229.464	200.026	24.278	248.422	-16.650	-46.117	-17.034	254.880	35.007	-92.972	43.126	11.283	-90.116	-95.967	147.958	200.211	0.00091218	0.00086635	0.00014928	740.78	7.7203e-06	4.7917e-06	686.9	288.1	1.0584e-05	5.1105e-06	303.94	141.54	112.84	53.74	4.7608e-06	66.552	0.00096957	0.00099502	0.00031337	767.2	1.0669e-05	1.0907e-05	715.11	295.87	1.0477e-05	1.0903e-05	319.1	144.9	119.53	55.177	1.199e-05	68.021	17.096	47.853	-44.720	-83.181	1.850	38.212	-85.371	-78.156	80.557	-63.728	-81.248	-77.555	-73.943	-68.979	15.211	-73.476	-8191	255	
2309.620	1	1	0	0	0.074734	0.37439	0.24695	0.062087	0.11002	0.10773	0.11775	0.080529	0.22462	0.12588	0.13248	0.15837	0.27634	0.17979	0.071435	0.26653	-3.8875	-3.65	-3.5812	-4.4417	-3.3854	-3.9583	-4.3208	-3.3729	-4.2625	-3.7	-3.5938	-4.6458	-3.3542	-3.7938	-4.3042	-3.4521	232.767	-1.238	195.374	99.321	-88.608	111.692	229.592	226.117	-24.129	220.726	164.092	-77.587	231.561	243.529	107.172	-85.313	0.00055207	0.00065895	0.00021995	743.29	2.5432e-06	7.6138e-06	686.61	286.3	5.6739e-06	3.1509e-06	301.05	141.22	113.28	53.856	9.1992e-06	66.858	0.00092632	0.001029	0.00030891	767.33	1.0435e-05	1.1589e-05	714.71	294.76	1.0317e-05	1.1658e-05	317.78	144.79	119.64	55.322	1.1622e-05	68.264	30.497	38.320	26.721	-83.228	12.160	154.135	-85.157	-78.312	5.913	152.428	-81.140	-77.487	-73.925	-69.080	65.903	-73.440	-8191	255	
2309.691	1	1	0	0	0.084482	0.20769	0.27263	0.20306	0.073905	0.24801	0.18101	0.20298	0.13356	0.069435	0.21031	0.16522	0.19778	0.20985	0.13275	0.05291	-3.8833	-3.6833	-3.375	-4.4104	-3.4854	-3.7208	-4.3896	-3.3417	-4.1208	-3.8417	-3.5146	-4.4083	-3.5083	-3.9542	-4.4542	-3.0833	-70.486	27.061	-45.037	209.768	131.651	-43.033	-39.680	-91.911	129.399	91.519	-73.822	-34.118	229.487	-34.625	-50.961	222.334	0.00092766	0.00056946	0.00023529	743.03	6.0951e-06	6.197e-06	688.35	287.87	3.7833e-06	1.4921e-05	303.72	142.24	113.84	53.825	1.285e-05	67.285	0.000937	0.0010923	0.00029764	765.98	1.0486e-05	1.2067e-05	716.17	295.9	1.045e-05	1.2095e-05	320.36	145.78	120.36	55.653	1.1158e-05	68.501	25.966	45.765	-9.661	-83.116	39.725	39.704	-85.056	-78.044	-2.849	23.813	-80.945	-77.514	-74.323	-69.101	53.757	-73.215	-8191	255	
2309.787	1	1	0	0	0.16186	0.22398	0.23231	0.10553	0.17836	0.080319	0.10357	0.29784	0.37712	0.1595	0.08985	0.087129	0.25713	0.17408	0.11921	0.070957	-3.7062	-4.1167	-3.3479	-4.4104	-3.5167	-3.5833	-4.3438	-3.3333	-3.8646	-3.9396	-3.3083	-4.5167	-3.5875	-3.7062	-4.6479	-3.2354	198.947	105.981	116.373	-53.770	126.870	23.965	104.593	-80.544	-39.283	-83.899	261.417	196.611	259.685	146.764	73.722	117.805	0.00082667	0.00084707	0.00024999	740.48	5.2168e-06	4.3504e-06	687.24	286.99	7.073e-06	2.9275e-06	302.28	141.39	113.32	53.713	5.0289e-06	67.006	0.00096606	0.0011023	0.00028243	763.35	1.0871e-05	1.1992e-05	710.06	294.71	1.0945e-05	1.1819e-05	316	144.33	120.59	55.355	1.0658e-05	68.046	12.327	-71.634	-2.524	-83.327	162.738	109.508	-85.306	-78.125	112.306	31.520	-81.184	-77.659	-74.055	-68.896	13.100	-73.450	-8191	255	
2309.884	1	1	0	0	0.10742	0.066485	0.2249	0.11156	0.19914	0.040497	0.33117	0.19877	0.09487	0.12647	0.12103	0.22052	0.10483	0.15812	0.17562	0.18792	-3.5208	-4.1979	-3.0729	-4.0979	-3.7125	-3.5542	-4.3479	-3.4854	-3.8646	-4.3042	-3.4792	-4.1062	-3.9104	-3.4833	-4.3604	-3.5271	221.512	-85.756	178.851	188.480	152.793	3.027	224.393	177.911	153.366	-41.731	259.575	-63.734	203.969	166.838	97.739	-65.989	0.00090721	0.00093022	0.00033868	741.68	4.1142e-06	8.1353e-06	681.16	288.12	4.7425e-06	7.2439e-06	303.16	140.94	113.54	53.815	3.8032e-06	66.51	0.0010161	0.001065	0.00027293	760.41	1.1526e-05	1.1698e-05	706.01	295.03	1.1564e-05	1.1451e-05	316.6	144.19	121.08	55.248	1.0453e-05	67.98	24.550	-44.915	-11.377	-83.282	144.207	43.515	-85.117	-77.980	111.720	58.464	-81.391	-77.412	-74.244	-68.708	-58.073	-73.504	-8191	255	
2309.980	1	1	0	0	0.2268	0.14912	0.2704	0.23774	0.1686	0.22072	0.15433	0.099762	0.14333	0.091295	0.12385	0.17887	0.061403	0.047256	0.015341	0.2313	-3.4917	-4.1521	-3.0938	-4.0875	-4.0312	-3.3271	-4.5333	-3.6458	-3.6896	-4.2375	-3.2521	-3.9688	-3.9229	-3.2188	-4.3333	-3.7792	61.819	-77.702	-63.523	256.945	-92.504	-96.236	221.915	211.159	58.741	84.188	-66.742	240.757	119.265	27.318	24.611	194.591	0.00053796	0.0013276	6.2178e-05	742.68	6.5704e-06	6.1491e-06	687.59	288.47	1.5361e-05	7.4849e-06	302.36	141.14	112.8	53.684	4.5208e-06	66.122	0.0010694	0.0010382	0.000269	763.7	1.2026e-05	1.1377e-05	709.12	296.35	1.2185e-05	1.131e-05	316.52	144.86	121.63	55.045	1.05e-05	67.971	10.335	-80.134	-47.663	-83.446	14.782	96.543	-85.198	-78.298	44.240	31.548	-81.063	-77.552	-73.558	-68.841	229.153	-73.443	-8191	255	
2310.100	1	1	0	0	0.19025	0.10839	0.073834	0.13078	0.21511	0.1587	0.21636	0.14482	0.13331	0.052125	0.12455	0.30313	0.11249	0.20761	0.032761	0.36538	-3.0979	-4.4146	-3.1417	-4.0229	-4.1062	-3.1146	-4.3146	-3.8771	-3.3833	-4.3	-3.3604	-3.9042	-4.3458	-3.2896	-4.1562	-3.9208	42.268	44.015	-58.637	-91.257	41.949	-56.808	254.764	147.140	183.801	66.616	63.174	239.582	174.699	119.978	169.942	182.067	0.00067156	0.0010581	0.00014879	736.76	3.4047e-06	4.4503e-06	686.02	287.69	9.3489e-06	1.2012e-05	305.38	141.35	112.74	53.368	6.0944e-06	66.385	0.0011071	0.0010297	0.00027398	766.33	1.2294e-05	1.1263e-05	709.37	296.63	1.2054e-05	1.1078e-05	317.14	145.37	120.76	54.651	1.0484e-05	68.046	25.413	-36.798	-71.349	-83.239	154.231	4.528	-85.324	-78.521	23.062	45.679	-81.230	-77.680	-73.578	-69.007	189.348	-73.509	-8191	255	
2310.196	1	1	0	0	0.25449	0.15578	0.31408	0.28656	0.11075	0.18489	0.060166	0.2542	0.29727	0.15585	0.21234	0.18717	0.15615	0.27359	0.12472	0.22394	-3	-4.4021	-3.4042	-3.7792	-4.0875	-3.175	-4.4333	-3.9125	-3.3396	-4.3458	-3.4958	-3.8187	-4.2729	-3.4667	-4.1917	-4.0521	253.477	22.791	-36.920	237.732	-65.950	-55.943	88.187	87.873	239.809	-10.205	132.811	131.853	46.836	211.328	254.769	111.550	0.00094668	0.00023682	0.00010477	742.02	3.1248e-06	7.9511e-06	682.09	285.47	1.7834e-05	7.5584e-06	300.19	140.03	111.77	52.872	4.1058e-06	65.639	0.0010825	0.0010073	0.00027344	772.18	1.1976e-05	1.1064e-05	707.65	296.17	1.1833e-05	1.0916e-05	315.21	144.62	120.06	54.245	1.0825e-05	67.49	36.148	-70.332	164.488	-83.290	18.533	32.075	-85.318	-78.118	13.215	-4.304	-81.331	-77.343	-73.946	-69.077	255.154	-73.312	-8191	255	
2310.293	1	1	0	0	0.33312	0.13676	0.11758	0.082961	0.1429	0.15816	0.32232	0.21661	0.086608	0.20337	0.31973	0.14211	0.039867	0.21754	0.10843	0.16261	-2.6667	-4.3417	-3.5354	-3.6083	-4.525	-3.0417	-4.1	-3.8187	-3.1813	-4.4812	-3.7583	-3.5854	-4.3375	-3.5021	-3.975	-4.2146	93.405	-4.628	26.563	-81.299	226.059	245.873	246.046	238.113	66.419	-68.661	249.752	256.713	66.604	172.324	167.435	233.633	0.00091962	0.00090996	0.00018535	737.9	3.0665e-06	3.6129e-06	678.8	283.97	5.5364e-06	8.1152e-06	299.82	140.56	112.43	52.954	1.0805e-05	65.692	0.0010319	0.00098038	0.00028145	769.51	1.1344e-05	1.0787e-05	705.46	294.94	1.1238e-05	1.0565e-05	315.41	144.68	119.64	54.269	1.1361e-05	67.585	18.261	-37.300	178.982	-83.231	-10.419	115.891	-85.190	-78.437	123.587	6.638	-81.023	-77.363	-73.695	-68.990	-33.822	-73.474	-8191	255	
2310.389	1	1	0	0	0.28613	0.09153	0.25543	0.072431	0.062831	0.089066	0.19704	0.064582	0.17723	0.10074	0.11912	0.21518	0.13199	0.18599	0.083634	0.23938	-2.9104	-4.2708	-3.7646	-3.5875	-4.3938	-3.3042	-4.1	-4.3938	-3.1792	-4.2688	-3.8354	-3.5062	-4.4875	-3.4875	-3.8	-4.5208	-45.655	-27.503	181.481	96.122	223.978	68.969	254.449	204.445	-78.890	14.733	-32.086	204.959	187.857	-59.035	103.384	257.239	0.00077775	0.0011735	0.00012067	736.56	1.2987e-05	5.7922e-06	679.69	287.62	4.6579e-06	5.9526e-06	300.3	140.86	112.8	53.334	1.1309e-05	66.487	0.00099897	0.00095331	0.00029726	765.91	1.0932e-05	1.0549e-05	708.99	295.75	1.0866e-05	1.0418e-05	318.12	144.83	119.85	54.613	1.1989e-05	68.202	12.749	-48.867	173.742	-83.355	-17.097	-21.363	-85.325	-78.392	30.169	-10.192	-81.334	-77.447	-73.894	-69.070	59.527	-73.242	-8191	255	
2310.485	1	1	0	0	0.26077	0.1555	0.15796	0.04361	0.20298	0.047184	0.044889	0.030483	0.097668	0.18631	0.27608	0.028938	0.05876	0.29136	0.08602	0.22367	-2.7771	-4.3167	-3.8875	-3.3812	-4.6479	-3.3312	-3.7667	-4.4833	-3.0958	-3.925	-3.9896	-3.4562	-4.3417	-3.5187	-3.7896	-4.4229	186.344	-42.788	-76.777	-5.573	78.042	82.297	150.033	249.029	54.198	-72.148	210.655	53.839	240.859	-87.523	243.076	236.782	0.00091319	0.00037077	0.00017745	737.2	1.0443e-05	3.649e-06	685.65	288.29	1.4018e-05	1.4147e-06	303.87	141.05	113.59	53.712	8.1122e-06	66.621	0.0009747	0.00096781	0.00031305	763.67	1.0622e-05	1.0904e-05	714.94	297	1.0756e-05	1.0876e-05	322.33	145.48	120.06	55.066	1.2423e-05	68.447	21.491	163.703	-20.988	-83.322	-34.988	248.668	-84.987	-78.165	64.288	84.937	-81.070	-77.513	-73.733	-68.936	135.617	-73.396	-8191	255	
2310.581	1	1	0	0	0.28773	0.0092191	0.28998	0.11726	0.14759	0.17358	0.092293	0.23401	0.048214	0.18071	0.048316	0.36109	0.1496	0.19011	0.072608	0.30575	-2.6437	-3.9583	-3.875	-3.3792	-4.5938	-3.475	-3.3917	-4.6167	-3.3042	-3.8063	-4.3562	-3.1	-4.3063	-3.7708	-3.5312	-4.5958	-89.511	180.275	-33.954	-84.201	105.206	221.453	67.591	213.033	-93.930	111.018	22.859	222.853	-68.918	233.386	-64.881	204.395	0.00096265	0.00055382	4.4781e-05	739.85	9.2193e-06	7.7279e-06	685.58	288.37	9.7371e-06	7.651e-06	304.43	141.67	112.57	53.293	1.0372e-05	66.323	0.00096572	0.0010427	0.00031931	765.56	1.0585e-05	1.1665e-05	715.9	296.82	1.0661e-05	1.182e-05	321.92	145.15	119.56	55.022	1.2282e-05	67.853	28.393	19.578	155.760	-82.985	-57.219	74.645	-84.993	-78.050	46.834	87.790	-81.445	-77.591	-73.784	-68.955	17.476	-73.632	-8191	255	
2310.700	1	1	0	0	0.021518	0.16651	0.070041	0.28082	0.24788	0.086853	0.16163	0.11788	0.13713	0.061153	0.13665	0.055501	0.28674	0.067117	0.18879	0.01421	-3.0646	-3.7438	-4.1646	-3.2146	-4.3771	-3.7708	-3.4792	-4.3417	-3.4771	-3.8438	-4.4521	-3.3479	-4.05	-4.1521	-3.3833	-4.3812	-19.987	164.065	12.560	196.886	-33.571	130.714	-15.538	226.125	170.764	108.450	210.472	189.643	189.958	197.135	222.476	9.401	0.00082705	0.00051816	0.00021167	735.14	9.6435e-06	4.8526e-06	683.02	287.02	5.1985e-06	6.7331e-06	301.58	140.44	112.81	53.247	8.9026e-06	66.117	0.00096623	0.0011072	0.00030665	760.84	1.0556e-05	1.2266e-05	708.73	294.38	1.0576e-05	1.2334e-05	317.34	143.59	119.55	54.945	1.1588e-05	67.483	21.365	-22.285	-56.828	-83.263	23.996	77.214	-85.152	-78.238	258.505	146.218	-81.178	-77.345	-73.896	-68.976	20.860	-73.467	-8191	255	
2310.796	1	1	0	0	0.028887	0.18805	0.10195	0.12575	0.03616	0.20872	0.14627	0.24983	0.22912	0.3286	0.20836	0.15865	0.11921	0.30704	0.11689	0.13165	-3.0542	-3.6625	-4.1562	-3.2583	-4.1042	-4.0854	-3.2354	-4.2854	-3.5125	-3.4667	-4.4917	-3.4042	-3.8771	-4.15	-3.1521	-4.3792	61.583	-40.081	262.883	192.281	229.231	155.008	104.031	-51.149	66.099	8.386	242.449	254.701	-56.525	202.472	-38.531	227.830	0.00095183	0.00057657	0.00016491	734.49	2.8984e-06	1.3565e-06	685.16	288.4	2.2811e-06	9.8956e-06	301.67	141.67	112.78	53.561	1.0119e-05	66.414	0.00098569	0.0011506	0.00029531	759.37	1.1128e-05	1.2688e-05	707.59	295.57	1.1339e-05	1.2652e-05	317.82	144.51	120.93	55.29	1.1535e-05	67.972	7.848	-71.009	-27.746	-83.109	241.104	-94.497	-85.147	-78.185	-42.650	2.414	-81.327	-77.427	-73.901	-69.010	12.235	-73.615	-8191	255	
2310.892	1	1	0	0	0.20213	0.18682	0.22904	0.086642	0.067763	0.18045	0.093284	0.24157	0.22603	0.019049	0.0694	0.049677	0.19603	0.24934	0.07473	0.032739	-3.1208	-3.4917	-4.4583	-3.3729	-3.8604	-4.25	-3.1437	-4.3979	-3.7854	-3.1792	-4.5104	-3.4229	-3.7917	-4.4812	-3.0833	-4.4083	169.948	32.114	-23.376	9.492	48.131	259.978	131.656	202.549	11.598	88.233	135.675	-74.805	204.946	162.392	24.465	181.556	0.00082468	0.00089659	0.00026097	731.95	5.1425e-06	9.5469e-06	684.8	290.38	5.8007e-06	9.5064e-06	306.42	141	112.4	53.944	6.8805e-06	66.787	0.0010746	0.0011645	0.00029411	758.81	1.2178e-05	1.2765e-05	710.67	297.42	1.2459e-05	1.2741e-05	321.97	145.07	122.1	55.579	1.1598e-05	68.573	8.638	-24.845	61.992	-83.309	134.399	67.161	-85.161	-78.143	105.388	42.938	-81.313	-77.458	-73.506	-69.033	-36.025	-73.343	-8191	255	
2310.988	1	1	0	0	0.14916	0.18269	0.073448	0.16264	0.14912	0.12153	0.056534	0.060796	0.23416	0.21457	0.030353	0.11699	0.20239	0.12049	0.13594	0.15213	-3.5021	-3.4833	-4.3604	-3.3479	-3.8104	-4.4313	-3.2896	-4.1042	-3.9125	-3.2438	-4.5771	-3.6729	-3.4833	-4.5958	-3.1271	-4.0521	105.770	-95.844	-26.277	-87.451	249.427	81.557	109.881	168.288	198.850	14.584	83.027	154.726	163.602	105.716	150.125	139.436	0.00068686	0.00082637	0.00022109	730.96	8.2685e-06	2.9336e-06	685.04	289.1	3.5208e-06	1.594e-05	310.04	142.2	113.77	53.877	6.1036e-06	67.092	0.0011565	0.0011591	0.00029557	759.76	1.3163e-05	1.2691e-05	714.05	298.79	1.3266e-05	1.2583e-05	324.81	146.36	123.55	55.581	1.1606e-05	69.008	8.647	-56.729	-63.659	-83.072	175.765	13.683	-85.147	-78.233	131.523	28.537	-81.407	-77.898	-73.859	-69.131	21.344	-73.361	-8191	255	
2311.085	1	1	0	0	0.091221	0.064067	0.13034	0.21314	0.09543	0.054151	0.20501	0.049045	0.15793	0.15453	0.16405	0.20535	0.18339	0.19662	0.097777	0.28493	-3.6271	-3.1646	-4.2729	-3.5938	-3.5958	-4.4458	-3.1979	-3.9875	-4.075	-3.2812	-4.5333	-3.6396	-3.5208	-4.3063	-3.4688	-3.9146	-94.011	75.617	254.108	194.715	26.397	-20.207	181.862	238.178	220.658	117.826	181.311	231.128	-93.834	245.913	44.233	253.051	0.00090036	0.00072451	0.00017289	730.69	2.0576e-06	5.4434e-06	687.62	290.11	9.2183e-06	1.2075e-05	308	141.38	114.04	53.966	1.087e-05	66.691	0.0012143	0.0011334	0.00029307	760.51	1.34e-05	1.2192e-05	710.65	300.27	1.3196e-05	1.2161e-05	322.64	145.78	122.95	55.478	1.1389e-05	68.799	22.337	-36.203	-3.461	-83.175	40.573	26.660	-85.338	-78.356	165.705	0.003	-81.233	-77.738	-73.822	-69.247	-9.915	-73.437	-8191	255	
2311.181	1	1	0	0	0.19798	0.15414	0.10507	0.13458	0.1897	0.077091	0.17418	0.098468	0.17654	0.22881	0.067345	0.25787	0.24852	0.17404	0.22844	0.19731	-3.9792	-3.1646	-4.3604	-3.9313	-3.3625	-4.3313	-3.5667	-4.1167	-4.2042	-3.3021	-4.325	-3.7562	-3.2333	-4.4625	-3.7896	-3.8042	67.426	206.595	204.088	244.130	204.150	110.746	204.674	-26.157	106.846	234.805	177.926	-90.793	-75.814	210.687	27.968	-83.771	0.0008011	0.00081289	8.0172e-05	728.46	1.6692e-05	6.9777e-06	684.41	290.35	1.0339e-05	2.6441e-06	307.2	140.87	113.08	53.852	3.6484e-06	66.919	0.0011813	0.0011083	0.00029235	761.75	1.3023e-05	1.2051e-05	711.12	301.65	1.3008e-05	1.203e-05	323.12	146.13	122.35	55.497	1.1671e-05	69.041	25.730	30.847	-76.593	-83.098	-23.050	65.474	-85.045	-78.298	56.246	67.919	-81.736	-77.558	-74.360	-69.062	-30.955	-73.435	-8191	255	
2311.277	1	1	0	0	0.025939	0.10433	0.35817	0.096096	0.093039	0.14654	0.29205	0.35377	0.30547	0.17771	0.092684	0.055701	0.027987	0.26063	0.29895	0.10234	-4.0417	-3.1958	-4.0417	-4.1917	-3.2687	-4.4521	-3.6021	-3.6167	-4.1896	-3.3479	-4.175	-4.1188	-3.3271	-4.4854	-3.5563	-3.7646	228.570	175.136	205.337	49.033	209.515	236.318	194.102	202.696	-67.315	166.305	245.961	82.601	139.099	178.514	27.858	86.548	0.00070894	0.00071366	0.00016771	730.93	7.1271e-06	9.8427e-06	682.97	290.11	1.8957e-05	7.119e-06	309.05	141.04	112.66	53.709	5.9954e-06	66.82	0.0011293	0.0010708	0.00029828	765.02	1.2428e-05	1.1518e-05	711.95	301.22	1.2133e-05	1.1411e-05	324.1	146.09	121.08	55.205	1.2043e-05	68.844	17.544	-17.808	9.413	-83.092	34.173	17.277	-85.160	-78.250	37.702	35.051	-81.169	-77.418	-73.651	-69.024	81.171	-73.533	-8191	255	
2311.397	1	1	0	0	0.03708	0.07315	0.20607	0.051538	0.13607	0.14932	0.16898	0.30517	0.07787	0.097819	0.20981	0.1592	0.043008	0.22794	0.1455	0.059185	-3.9292	-3.2854	-3.8333	-4.1646	-3.3688	-4.3396	-3.7021	-3.6646	-4.4083	-3.4021	-4.0021	-4.3625	-3.0875	-4.3417	-3.7208	-3.5312	132.485	27.458	31.370	-84.531	242.283	44.064	12.133	143.421	38.454	260.059	-72.208	-21.587	239.545	-57.841	-47.251	-10.509	0.00055776	0.0008561	3.1059e-05	731.24	1.1848e-05	1.0102e-05	683.81	291.35	4.7309e-06	7.2383e-06	309.1	141.43	112.67	53.642	6.5868e-06	66.754	0.0010679	0.0010302	0.00031381	764.46	1.1918e-05	1.1249e-05	716.7	300.85	1.1724e-05	1.1125e-05	327.13	146.36	120.86	55.054	1.2738e-05	68.688	12.252	-84.157	27.816	-83.333	-2.282	29.628	-85.142	-78.003	-6.368	28.879	-81.386	-77.237	-74.226	-69.086	159.683	-73.705	-8191	255	
2311.494	1	1	0	0	0.073623	0.088158	0.17854	0.15026	0.16908	0.095271	0.26394	0.0901	0.13028	0.13611	0.038155	0.15593	0.15673	0.15266	0.050344	0.13698	-4.1312	-3.4042	-3.6792	-4.3542	-3.1771	-4.1687	-3.9896	-3.3396	-4.3562	-3.4854	-3.8375	-4.5146	-3.0354	-4.2083	-3.9479	-3.1625	46.537	104.763	16.882	-49.487	166.064	44.751	229.244	246.497	-34.250	235.152	123.305	205.978	-33.230	-33.490	224.704	151.616	0.00085165	0.00065155	0.00022854	731.55	3.6522e-06	6.3897e-06	685.34	289.36	8.3921e-06	6.8333e-06	305.74	140.76	112.19	53.04	7.2088e-06	65.73	0.0010378	0.0010313	0.00033149	762.78	1.1517e-05	1.1378e-05	716.25	298.51	1.1371e-05	1.142e-05	324.24	144.7	119.68	54.619	1.2959e-05	67.506	24.710	244.592	82.803	-83.010	-87.791	43.610	-85.120	-78.088	2.332	-31.166	-81.103	-77.416	-74.027	-69.068	-80.711	-73.317	-8191	255	
2311.588	1	1	0	0	0.062613	0.067854	0.30282	0.14055	0.18938	0.17552	0.079265	0.086571	0.21191	0.13104	0.19526	0.25304	0.25021	0.12445	0.05704	0.095383	-3.9104	-3.6896	-3.3333	-4.4646	-3.2125	-3.9167	-4.0521	-3.6125	-4.3833	-3.4708	-3.7375	-4.4646	-3.3042	-3.9875	-3.9979	-3.35	190.621	-15.786	-44.093	172.812	99.779	79.356	149.683	108.703	117.891	29.893	259.613	167.251	-55.775	188.655	186.608	123.846	0.00066088	0.00034689	0.00013172	731.62	8.2338e-06	2.1813e-06	682.29	285.91	1.3093e-05	3.9739e-06	302.58	139.69	111.22	52.939	4.8605e-06	65.297	0.0010031	0.0010603	0.00033261	758.89	1.1026e-05	1.1688e-05	710.85	294.84	1.0875e-05	1.1867e-05	320.57	143.46	118.8	54.479	1.2601e-05	66.93	18.330	-14.862	227.697	-83.228	11.361	148.137	-85.023	-78.107	78.676	38.360	-81.053	-77.612	-73.729	-68.941	88.388	-73.447	-8191	255	
2311.661	1	1	0	0	0.13267	0.059403	0.4529	0.13144	0.10987	0.13086	0.10614	0.35469	0.084928	0.1887	0.22298	0.22331	0.049313	0.20967	0.10943	0.25868	-3.8604	-3.7292	-3.2583	-4.4167	-3.1854	-3.8875	-4.4521	-3.2521	-4.2937	-3.7062	-3.4062	-4.3042	-3.3875	-3.9458	-4.0938	-3.3792	173.482	99.109	-43.364	-40.146	223.777	140.015	162.254	203.897	-2.523	116.795	207.454	-52.671	238.914	255.065	203.021	134.012	0.00069169	0.00052897	1.7128e-05	727.92	1.0717e-05	3.0724e-06	680.13	287.29	5.7478e-06	2.3298e-06	302.81	139.07	111.01	52.921	1.1955e-05	65.383	0.00095757	0.0010917	0.00031536	753.39	1.0521e-05	1.2039e-05	708.26	294.35	1.0458e-05	1.2072e-05	319.56	142.77	118.31	54.667	1.1693e-05	67.025	24.032	222.333	-71.206	-83.001	-91.133	-11.715	-85.086	-78.194	-1.401	81.819	-81.030	-77.521	-74.082	-68.895	-71.308	-73.494	-8191	255	
2311.780	1	1	0	0	0.025822	0.19065	0.19829	0.23397	0.050681	0.13004	0.13985	0.099266	0.20305	0.31902	0.24413	0.062382	0.025088	0.2227	0.1782	0.25176	-3.7083	-4.0229	-3.2562	-4.3979	-3.4167	-3.7354	-4.375	-3.1875	-4.0229	-4.1042	-3.3563	-4.5229	-3.6833	-3.6625	-4.3646	-3.3271	144.689	171.921	242.522	209.715	104.100	-41.798	249.749	109.516	218.437	198.537	-80.850	233.845	-60.055	242.224	222.941	198.185	0.00098746	0.00065396	7.5302e-05	730.33	6.9454e-06	4.2452e-06	682.95	285.47	3.9803e-06	1.0363e-05	303.8	139.47	111.55	52.839	4.7655e-06	65.445	0.00094911	0.0011275	0.00029695	754.13	1.083e-05	1.2442e-05	709.01	294.03	1.0824e-05	1.2422e-05	318.14	142.91	119.07	54.48	1.1243e-05	66.842	0.174	58.423	96.277	-83.146	-18.290	88.057	-85.129	-78.314	-72.624	3.421	-81.252	-77.365	-73.874	-69.065	100.036	-73.288	-8191	255	
2311.876	1	1	0	0	0.14948	0.23514	0.24312	0.20037	0.02871	0.10138	0.27796	0.05714	0.052761	0.038154	0.19715	0.045085	0.23395	0.25248	0.14181	0.015106	-3.7542	-4.0667	-3.3667	-4.4062	-3.5417	-3.5792	-4.3542	-3.5646	-3.9604	-4.0563	-3.3583	-4.3562	-3.8375	-3.5854	-4.4563	-3.3438	-35.970	-26.980	124.554	230.063	153.446	-42.894	227.975	159.171	192.054	-5.655	239.030	-21.001	83.459	-95.239	154.478	80.883	0.00076717	0.00045707	0.00024208	732.61	5.5081e-06	1.2099e-05	679.41	284.02	3.3434e-06	6.9184e-06	300.21	138.89	110.81	52.419	7.9775e-06	64.468	0.0010068	0.0011315	0.00028403	753.17	1.1349e-05	1.2312e-05	705.7	291.31	1.1413e-05	1.1975e-05	313.75	141.77	118.88	53.94	1.079e-05	65.849	-10.632	-53.526	-76.018	-83.374	101.975	17.827	-85.362	-78.248	-14.572	69.816	-80.905	-77.542	-73.978	-69.131	56.081	-73.495	-8191	255	
2311.973	1	1	0	0	0.097696	0.2838	0.1584	0.068118	0.35629	0.1656	0.18547	0.073027	0.15159	0.11666	0.079789	0.15431	0.18173	0.29299	0.12538	0.34947	-3.5312	-4.0312	-3.1188	-4.2937	-3.8292	-3.325	-4.7292	-3.6167	-3.8563	-4.4104	-3.2208	-4.3917	-3.9875	-3.3396	-4.5542	-3.6896	59.993	146.454	152.214	228.352	131.110	209.319	172.809	-66.504	60.247	110.034	154.382	-85.061	259.060	233.947	137.962	186.107	0.00090948	0.00029708	0.00021056	731.16	1.4502e-05	4.3503e-06	672.95	281.01	7.7321e-06	4.8977e-06	294.16	136.96	111.23	51.938	6.2937e-06	63.884	0.0010481	0.001071	0.00027512	752.46	1.191e-05	1.1731e-05	694.79	288.3	1.1939e-05	1.1426e-05	308.24	140.47	119.07	53.392	1.0398e-05	65.332	23.986	-50.669	-32.773	-83.235	130.138	23.255	-85.448	-77.953	10.813	67.678	-81.175	-77.592	-74.257	-68.580	-16.948	-73.493	-8191	255	
2312.069	1	1	0	0	0.12522	0.087352	0.19278	0.051719	0.36688	0.17929	0.14061	0.27423	0.051858	0.1321	0.17366	0.24158	0.035118	0.25548	0.033515	0.056653	-3.3375	-4.4917	-3.2771	-4.2875	-4.1	-3.3375	-4.525	-3.6021	-3.7042	-4.3979	-3.4271	-4.1813	-4.0208	-3.4292	-4.4271	-3.8	-55.207	-53.118	-63.237	72.925	152.890	-19.588	227.641	238.176	70.691	104.293	18.848	221.523	35.848	218.134	-78.380	98.698	0.00089414	0.0011181	0.0002688	724.83	7.8608e-06	7.4573e-06	670.51	278.95	6.3821e-06	2.5064e-06	292.7	136.47	109.91	51.912	5.3428e-06	63.622	0.0010837	0.0010147	0.00026312	751.74	1.2036e-05	1.1055e-05	692.71	287.86	1.1889e-05	1.0809e-05	306.14	140.37	118.4	53.18	9.9344e-06	65.418	8.197	-64.784	-8.763	-83.483	37.293	-3.947	-85.052	-78.123	-2.357	-4.979	-81.550	-77.897	-73.879	-68.769	43.785	-73.357	-8191	255	
2312.189	1	1	0	0	0.081812	0.14074	0.18324	0.13288	0.14353	0.084501	0.12933	0.15961	0.16082	0.11468	0.13568	0.2092	0.07924	0.18876	0.14048	0.19039	-3.2521	-4.4167	-3.5479	-4.0437	-4.3208	-3.2062	-4.5708	-3.8479	-3.3833	-4.5354	-3.2458	-3.9854	-4.2229	-3.2896	-4.3854	-3.8937	-7.135	24.161	208.896	231.451	-46.157	-0.812	250.084	212.746	-85.349	228.857	64.807	-79.235	258.709	260.573	164.066	148.756	0.00066247	0.00052466	0.00013497	727.28	6.2308e-06	5.9287e-06	670.82	278.78	1.5778e-05	8.5586e-06	291.07	136.23	109.14	51.591	4.2404e-06	63.677	0.0010477	0.00096614	0.00025455	755.57	1.1514e-05	1.0657e-05	693.08	287.2	1.1373e-05	1.0451e-05	304.42	140.6	117.42	52.986	1e-05	65.619	21.196	195.760	-72.842	-83.236	-44.464	-11.405	-85.195	-77.961	113.495	4.974	-80.876	-77.458	-74.015	-69.028	-66.755	-73.471	-8191	255	
2312.261	1	1	0	0	0.16187	0.11983	0.17561	0.30481	0.23937	0.22134	0.16493	0.19144	0.1373	0.0076111	0.35414	0.067653	0.25522	0.12629	0.19357	0.12782	-3.0271	-4.3208	-3.4625	-3.8583	-4.3917	-3.1979	-4.2083	-3.9771	-3.4271	-4.275	-3.6229	-3.9	-4.5146	-3.35	-3.9688	-4.1562	123.961	52.850	186.992	211.308	222.392	135.158	119.480	198.432	5.768	-55.876	156.158	-90.092	-56.692	245.890	124.375	187.088	0.00076928	0.00051343	0.00010397	727.85	1.1388e-05	8.1819e-06	672.56	279.2	8.7969e-06	3.6934e-06	293.55	136.71	109.92	51.795	6.2183e-06	63.92	0.0010149	0.00094747	0.00026023	757.13	1.1059e-05	1.0392e-05	694.99	287.88	1.1007e-05	1.027e-05	307.04	141.01	117.08	52.965	1.0492e-05	65.64	13.942	-58.172	-43.741	-82.995	-48.564	-38.238	-85.229	-77.838	31.270	-83.187	-81.278	-77.540	-73.992	-68.894	214.686	-73.494	-8191	255	
2312.382	1	1	0	0	0.19805	0.16548	0.093196	0.013818	0.16433	0.25084	0.19285	0.28597	0.16687	0.2476	0.19514	0.053675	0.059854	0.1838	0.019849	0.35338	-2.8979	-4.3271	-3.4396	-3.4521	-4.3854	-3.1708	-3.9042	-4.0146	-3.0875	-4.2979	-3.6917	-3.55	-4.3854	-3.3875	-4.0437	-4.2479	148.420	63.964	171.727	195.753	44.791	234.061	46.054	199.573	32.534	184.097	239.697	263.919	160.406	223.550	-62.194	177.575	0.00058365	0.00072324	8.3389e-05	728.47	6.8979e-06	1.2188e-05	667.67	277.85	9.8931e-06	6.7418e-06	288.89	135.11	108.55	51.162	8.3207e-06	62.982	0.00098303	0.00092968	0.00027945	757.46	1.0802e-05	1.0336e-05	692.96	285.9	1.0802e-05	1.0176e-05	303.23	139	115.57	52.298	1.1262e-05	64.67	16.829	-37.322	30.353	-83.572	34.735	-37.804	-85.189	-78.016	0.660	44.380	-81.074	-77.110	-73.515	-68.845	204.449	-73.363	-8191	255	
2312.478	1	1	0	0	0.13978	0.025569	0.090898	0.20375	0.14167	0.097828	0.13719	0.31724	0.057846	0.093372	0.23658	0.15628	0.22049	0.25372	0.075652	0.17664	-2.6583	-4.0813	-3.5458	-3.4542	-4.4625	-3.5354	-3.7812	-4.1708	-3.2542	-4.225	-3.7625	-3.45	-4.5104	-3.3167	-3.8896	-4.5271	-9.782	123.336	250.908	232.569	-53.496	193.003	214.345	195.369	243.525	2.964	156.017	-40.379	227.270	234.224	185.904	185.135	0.0005506	0.00039049	0.00016873	725.83	4.8357e-06	3.6949e-06	662.83	273.73	5.6938e-06	5.6996e-06	285.96	134.45	108.52	50.918	5.4811e-06	62.476	0.00095869	0.00091989	0.00029368	752.5	1.0497e-05	1.0261e-05	691.36	282.95	1.0398e-05	1.0139e-05	302.17	138.07	114.75	52.197	1.1777e-05	64.216	20.853	216.508	5.844	-83.417	110.537	119.057	-85.141	-78.077	106.900	-38.879	-80.979	-77.418	-73.953	-68.844	-23.316	-73.163	-8191	255	
2312.574	1	1	0	0	0.25015	0.1287	0.29927	0.17384	0.19425	0.036943	0.20995	0.1184	0.094882	0.23851	0.29992	0.08341	0.15573	0.24696	0.11799	0.19805	-2.8042	-4.0833	-3.6188	-3.1604	-4.4625	-3.4375	-3.9062	-4.3271	-3.2438	-4.0396	-4.0583	-3.4625	-4.5188	-3.6479	-3.4771	-4.6417	112.386	102.104	107.856	-72.865	-85.048	162.793	-69.219	235.588	14.826	76.734	-48.908	-77.147	231.182	222.782	36.694	114.867	0.00094074	0.00065217	0.00022971	726.91	8.2944e-06	4.6636e-06	664.4	272.61	2.2023e-06	6.4708e-06	285.89	134.69	108.4	50.942	3.0957e-06	62.955	0.00094075	0.00095667	0.00030571	750.99	1.0301e-05	1.0653e-05	693.35	281.66	1.035e-05	1.0823e-05	302.24	138.05	114.62	52.286	1.1958e-05	64.364	27.059	10.332	-44.643	-83.085	34.730	78.994	-85.159	-77.953	26.343	111.946	-81.037	-77.245	-73.698	-68.855	-57.864	-73.218	-8191	255	
#DATA ENDS
