BOXY.EXE: ISS Imagent and Oximeter Data Acquisition Program Version 0.80
Ascii Record File

#ACQ INFORMATION
2  Detector Channels 
16  External MUX Channels 
1  Auxiliary Channels 
5000  Waveform (CCF) Frequency (Hz)
1  Waveforms Skipped 
30  Waveforms Averaged 
1  Cycles Averaged 
16  Acquisitions per Waveform 
10.0806  Updata Rate (Hz) 

#FILE INFORMATION
TRUE -- External MUX Channel results are PARSED.
FALSE -- AC DC and Phase are NOT grouped.
TRUE -- Companion Program Settings File CREATED.
FALSE -- AC data not excluded
FALSE -- DC data not excluded
FALSE -- Phase data not excluded
FALSE -- Auxillary Chn. data not excluded
Tab delimiters

#CALIBRATION STATE
TRUE -- Waveform Calibration Values APPLIED.


#AUX CALIBRATION VALUES
Val Type	aux-1	

Term	1.0000e+00	
Factor	0.0000e+00	


#WF CALIBRATION VALUES
A = Detector Channel
Val Type	A-AC1	A-AC2	A-AC3	A-AC4	A-AC5	A-AC6	A-AC7	A-AC8	A-AC9	A-AC10	A-AC11	A-AC12	A-AC13	A-AC14	A-AC15	A-AC16	A-DC1	A-DC2	A-DC3	A-DC4	A-DC5	A-DC6	A-DC7	A-DC8	A-DC9	A-DC10	A-DC11	A-DC12	A-DC13	A-DC14	A-DC15	A-DC16	A-Ph1	A-Ph2	A-Ph3	A-Ph4	A-Ph5	A-Ph6	A-Ph7	A-Ph8	A-Ph9	A-Ph10	A-Ph11	A-Ph12	A-Ph13	A-Ph14	A-Ph15	A-Ph16	

Term	0.00000e+00	0.00000e+00	0.00000e+00	0.00000e+00	0.00000e+00	0.00000e+00	0.00000e+00	0.00000e+00	0.00000e+00	0.00000e+00	0.00000e+00	0.00000e+00	0.00000e+00	0.00000e+00	0.00000e+00	0.00000e+00	0.00000e+00	0.00000e+00	0.00000e+00	0.00000e+00	0.00000e+00	0.00000e+00	0.00000e+00	0.00000e+00	0.00000e+00	0.00000e+00	0.00000e+00	0.00000e+00	0.00000e+00	0.00000e+00	0.00000e+00	0.00000e+00	0.00000e+00	0.00000e+00	0.00000e+00	0.00000e+00	0.00000e+00	0.00000e+00	0.00000e+00	0.00000e+00	0.00000e+00	0.00000e+00	0.00000e+00	0.00000e+00	0.00000e+00	0.00000e+00	0.00000e+00	0.00000e+00	
Factor	1.00000e+00	1.00000e+00	1.00000e+00	1.00000e+00	1.00000e+00	1.00000e+00	1.00000e+00	1.00000e+00	1.00000e+00	1.00000e+00	1.00000e+00	1.00000e+00	1.00000e+00	1.00000e+00	1.00000e+00	1.00000e+00	1.00000e+00	1.00000e+00	1.00000e+00	1.00000e+00	1.00000e+00	1.00000e+00	1.00000e+00	1.00000e+00	1.00000e+00	1.00000e+00	1.00000e+00	1.00000e+00	1.00000e+00	1.00000e+00	1.00000e+00	1.00000e+00	X	X	X	X	X	X	X	X	X	X	X	X	X	X	X	X	

B = Detector Channel
Val Type	B-AC1	B-AC2	B-AC3	B-AC4	B-AC5	B-AC6	B-AC7	B-AC8	B-AC9	B-AC10	B-AC11	B-AC12	B-AC13	B-AC14	B-AC15	B-AC16	B-DC1	B-DC2	B-DC3	B-DC4	B-DC5	B-DC6	B-DC7	B-DC8	B-DC9	B-DC10	B-DC11	B-DC12	B-DC13	B-DC14	B-DC15	B-DC16	B-Ph1	B-Ph2	B-Ph3	B-Ph4	B-Ph5	B-Ph6	B-Ph7	B-Ph8	B-Ph9	B-Ph10	B-Ph11	B-Ph12	B-Ph13	B-Ph14	B-Ph15	B-Ph16	

Term	0.00000e+00	0.00000e+00	0.00000e+00	0.00000e+00	0.00000e+00	0.00000e+00	0.00000e+00	0.00000e+00	0.00000e+00	0.00000e+00	0.00000e+00	0.00000e+00	0.00000e+00	0.00000e+00	0.00000e+00	0.00000e+00	0.00000e+00	0.00000e+00	0.00000e+00	0.00000e+00	0.00000e+00	0.00000e+00	0.00000e+00	0.00000e+00	0.00000e+00	0.00000e+00	0.00000e+00	0.00000e+00	0.00000e+00	0.00000e+00	0.00000e+00	0.00000e+00	-4.91106e+01	-1.29134e+02	-1.27521e+02	-1.82803e+02	-4.69321e+01	-6.59653e+01	-1.55300e+02	-1.62015e+02	-3.08113e+01	-5.60136e+01	-1.72433e+02	-1.69655e+02	-1.79183e+02	-1.77693e+02	-4.59966e+01	-1.49676e+02	
Factor	2.21910e-05	1.68420e-04	4.73740e-05	1.71963e-01	2.02722e-06	1.93536e-06	1.62812e-01	5.14453e-02	1.28848e-06	1.77628e-06	9.95207e-02	3.07250e-02	2.96854e-02	1.01395e-02	1.68739e-06	1.45673e-02	8.04080e-06	1.07497e-05	2.97371e-06	8.54535e-02	1.12668e-07	1.18595e-07	7.62481e-02	2.57182e-02	1.11776e-07	1.19426e-07	4.83138e-02	1.49934e-02	1.50207e-02	5.11324e-03	1.16012e-07	7.12113e-03	X	X	X	X	X	X	X	X	X	X	X	X	X	X	X	X	



#DISTANCE SETTINGS
A = Detector Channel
A-1	A-2	A-3	A-4	A-5	A-6	A-7	A-8	A-9	A-10	A-11	A-12	A-13	A-14	A-15	A-16	

2.5000e+00	3.0000e+00	2.5000e+00	3.0000e+00	2.0000e+00	3.0000e+00	1.5000e+00	3.0000e+00	3.0000e+00	3.0000e+00	3.0000e+00	3.0000e+00	3.0000e+00	3.0000e+00	1.5000e+00	3.0000e+00	

B = Detector Channel
B-1	B-2	B-3	B-4	B-5	B-6	B-7	B-8	B-9	B-10	B-11	B-12	B-13	B-14	B-15	B-16	

1.0000e+01	1.0000e+01	1.0000e+01	1.4400e+00	1.0000e+01	1.0000e+01	1.5100e+00	1.9400e+00	1.0000e+01	1.0000e+01	1.9900e+00	2.4900e+00	2.4100e+00	2.9000e+00	1.0000e+01	2.9800e+00	




#DATA BEGINS
time	group	step	mark	flag	A-AC1	A-AC2	A-AC3	A-AC4	A-AC5	A-AC6	A-AC7	A-AC8	A-AC9	A-AC10	A-AC11	A-AC12	A-AC13	A-AC14	A-AC15	A-AC16	A-DC1	A-DC2	A-DC3	A-DC4	A-DC5	A-DC6	A-DC7	A-DC8	A-DC9	A-DC10	A-DC11	A-DC12	A-DC13	A-DC14	A-DC15	A-DC16	A-Ph1	A-Ph2	A-Ph3	A-Ph4	A-Ph5	A-Ph6	A-Ph7	A-Ph8	A-Ph9	A-Ph10	A-Ph11	A-Ph12	A-Ph13	A-Ph14	A-Ph15	A-Ph16	B-AC1	B-AC2	B-AC3	B-AC4	B-AC5	B-AC6	B-AC7	B-AC8	B-AC9	B-AC10	B-AC11	B-AC12	B-AC13	B-AC14	B-AC15	B-AC16	B-DC1	B-DC2	B-DC3	B-DC4	B-DC5	B-DC6	B-DC7	B-DC8	B-DC9	B-DC10	B-DC11	B-DC12	B-DC13	B-DC14	B-DC15	B-DC16	B-Ph1	B-Ph2	B-Ph3	B-Ph4	B-Ph5	B-Ph6	B-Ph7	B-Ph8	B-Ph9	B-Ph10	B-Ph11	B-Ph12	B-Ph13	B-Ph14	B-Ph15	B-Ph16	aux-1	digaux	

41245.613	1	1	0	256	0.2385	0.17014	0.063001	0.17704	0.19401	0.15742	0.083595	0.31504	0.13193	0.12123	0.2307	0.11422	0.21499	0.27697	0.32714	0.16557	-2.3708	-2.7792	-3.0021	-2.8396	-2.7208	-3.0667	-2.9	-3.1375	-3.0812	-2.7208	-3.0167	-3.0167	-2.9188	-3.0979	-2.5896	-3.1729	438.931	217.617	191.481	463.212	220.826	362.091	423.095	499.153	488.372	262.922	228.151	471.295	439.191	150.638	187.033	501.045	0.00069276	0.0010407	0.0002114	1374.8	8.6112e-06	6.8539e-06	1387.8	385.7	5.1621e-06	1.489e-06	430.41	146.31	129	43.659	6.473e-06	54.045	0.0020748	0.0025443	0.00069913	1416.1	2.6905e-05	2.7842e-05	1422	396.98	2.6296e-05	2.7603e-05	448.82	152.16	134.62	45.932	2.6025e-05	57.094	267.035	218.871	204.267	155.488	283.842	285.947	155.566	160.280	285.712	367.150	159.785	164.471	164.734	169.234	305.679	168.375	-8191	255	
41245.711	1	1	0	0	0.10863	0.15126	0.13972	0.37376	0.096951	0.11315	0.26677	0.29968	0.0697	0.10391	0.2769	0.055862	0.50542	0.1785	0.094715	0.1716	-2.4146	-2.6354	-2.9271	-2.9813	-2.75	-3.0312	-3.0271	-3.0479	-2.8271	-2.6625	-3.1646	-2.8312	-2.7958	-3.2125	-2.6271	-2.9646	232.385	390.024	209.500	403.172	433.749	465.615	477.865	480.403	251.465	421.623	148.593	404.874	463.118	145.102	181.108	485.302	0.00057438	0.00051609	8.3879e-05	1369.7	6.4762e-06	2.7342e-06	1380	382.81	6.024e-06	1.352e-06	427.68	145.87	128.34	43.613	4.5905e-06	53.827	0.0020053	0.0024458	0.00064544	1409.6	2.5624e-05	2.6524e-05	1415.6	394.68	2.5259e-05	2.673e-05	445.74	151.36	133.77	45.735	2.5287e-05	56.826	263.327	198.108	240.769	155.564	298.071	295.101	155.712	160.253	314.074	295.304	159.898	164.081	164.813	168.894	316.909	168.172	-8191	255	
41245.828	1	1	0	0	0.32891	0.085735	0.16729	0.13037	0.087808	0.13835	0.29672	0.1564	0.27772	0.060775	0.27083	0.10793	0.24811	0.48515	0.06453	0.068926	-2.5646	-2.6167	-3.0292	-3.0792	-2.75	-3.2729	-2.8292	-2.9646	-2.8708	-2.5563	-3.0208	-2.9542	-2.7354	-3.1042	-2.9396	-3.0208	178.617	502.282	420.841	491.046	150.465	237.816	172.478	421.695	257.634	348.717	409.819	489.450	184.923	153.486	247.827	329.175	0.00064459	0.0006116	0.00013822	1366.8	4.4366e-06	6.3431e-06	1374.3	381.42	9.4752e-06	8.8757e-06	427.68	144.66	127.91	43.349	2.3931e-06	53.975	0.0019974	0.0024192	0.00065085	1406.1	2.5834e-05	2.6169e-05	1411.1	393.41	2.5795e-05	2.6807e-05	445.14	150.77	133.43	45.496	2.5887e-05	56.776	265.148	259.639	203.958	155.644	258.999	328.097	155.784	160.463	302.122	287.512	159.944	164.208	164.773	169.356	305.263	168.476	-8191	255	
41245.926	1	1	0	0	0.10619	0.090675	0.25892	0.022638	0.053148	0.043258	0.14925	0.29352	0.15711	0.021861	0.058052	0.19101	0.089315	0.088153	0.10637	0.10426	-2.5708	-2.6854	-2.8104	-2.9333	-2.6396	-3.15	-2.9688	-2.9833	-3.0229	-2.6833	-2.9771	-2.9229	-2.5958	-3.0938	-2.8208	-2.875	163.436	451.685	415.447	390.048	244.046	334.166	427.266	161.135	202.011	171.358	277.613	384.377	237.392	228.171	355.382	356.783	0.00067403	0.00092028	7.2033e-05	1364.8	8.1635e-06	2.9759e-06	1365.4	381.72	6.9484e-06	5.8123e-06	426.38	144.68	127.56	43.079	8.6029e-06	53.585	0.0020119	0.0024374	0.00066607	1401.8	2.6178e-05	2.6627e-05	1405.6	392.39	2.6306e-05	2.7004e-05	443.47	150.65	132.89	45.339	2.6595e-05	56.615	266.635	219.738	191.781	155.768	300.242	325.041	155.752	160.360	294.392	325.286	159.882	164.252	164.925	169.191	296.581	168.313	-8191	255	
41245.996	1	1	0	0	0.23278	0.23227	0.1911	0.12487	0.12047	0.33971	0.15623	0.27587	0.27752	0.059345	0.16079	0.13314	0.15488	0.036049	0.079684	0.17156	-2.6646	-2.625	-2.8542	-3.3083	-2.6667	-2.9458	-3.1125	-2.7708	-2.9917	-2.8333	-3.0062	-3.075	-2.8396	-2.8396	-2.9604	-2.8042	326.541	222.776	157.505	477.646	275.849	255.361	460.758	159.977	327.501	255.046	461.853	395.450	419.202	405.634	210.957	176.354	0.00060945	0.00012936	0.00020377	1353.6	7.2753e-06	2.21e-06	1368.3	379.15	4.5574e-06	5.4518e-06	425.36	144.18	126.56	42.87	3.154e-06	53.553	0.0020474	0.0024726	0.0006872	1395.4	2.6692e-05	2.7287e-05	1400.9	390.82	2.6432e-05	2.7115e-05	441.57	149.87	132.22	45.142	2.6921e-05	56.427	269.652	144.835	238.729	155.583	282.823	301.139	155.616	160.462	336.964	324.286	159.784	164.141	164.834	169.348	338.190	168.605	-8191	255	
41246.094	1	1	0	0	0.12049	0.19897	0.21999	0.13476	0.098465	0.16546	0.14261	0.22786	0.16877	0.12237	0.10755	0.2041	0.1224	0.28993	0.21058	0.19797	-2.6813	-2.9021	-2.825	-3.0271	-2.6479	-2.9854	-3.0396	-2.875	-2.875	-2.8417	-2.9	-3.1271	-2.7292	-3.0583	-2.7833	-2.7167	435.895	313.068	446.240	468.009	325.971	175.264	392.611	424.259	408.423	376.540	195.734	498.584	367.436	486.345	290.837	442.845	0.00067325	0.00087532	0.00017086	1353	2.1793e-06	2.3106e-06	1359.2	376.35	2.5582e-06	3.2823e-06	423.54	144.42	126.3	42.879	5.0842e-06	53.319	0.0020206	0.0024558	0.00069082	1393.4	2.6636e-05	2.7024e-05	1397	389.57	2.5971e-05	2.7103e-05	441.35	149.74	131.85	45.049	2.719e-05	56.25	268.931	247.062	210.313	155.815	388.498	301.288	155.778	160.547	341.936	301.708	159.789	164.352	164.866	169.388	302.740	168.244	-8191	255	
41246.215	1	1	0	0	0.15052	0.15581	0.11597	0.14547	0.14103	0.084965	0.53682	0.42991	0.22266	0.3464	0.22148	0.10051	0.23144	0.24341	0.21857	0.22712	-2.475	-2.7271	-2.7583	-3.2562	-2.6667	-3.1688	-3.1854	-2.7167	-3.0479	-2.7812	-2.7938	-3.1312	-2.8271	-3.0187	-2.9625	-2.6458	274.940	363.801	407.985	174.427	501.929	396.876	428.525	478.994	437.953	440.192	459.935	270.156	199.276	171.029	472.391	455.558	0.00064793	0.00071504	0.00013768	1347.6	8.8939e-06	5.1374e-06	1360.3	377.26	4.7963e-06	7.4212e-06	422.71	143.77	126.11	42.763	5.1528e-06	53.152	0.00199	0.0024218	0.00069725	1389.1	2.5363e-05	2.6468e-05	1394.8	389.28	2.5329e-05	2.6814e-05	440.82	149.51	131.38	44.978	2.6777e-05	56.184	273.921	282.273	185.494	155.821	270.974	268.128	155.669	160.468	332.633	290.734	159.984	164.417	164.813	169.403	274.676	168.349	-8191	255	
41246.309	1	1	0	0	0.20794	0.062961	0.13648	0.19075	0.27288	0.1069	0.24408	0.13162	0.15158	0.10504	0.099882	0.24217	0.14268	0.092327	0.084493	0.17996	-2.525	-2.775	-2.7229	-3.2021	-2.7771	-2.8521	-3.0917	-2.8542	-3.0646	-2.8458	-2.8292	-3.1625	-2.9271	-2.9813	-2.9813	-2.8146	143.139	319.058	441.971	495.241	480.281	351.141	406.454	189.257	198.890	259.131	295.817	426.994	430.873	188.457	186.631	376.485	0.00064175	0.00044674	6.7395e-05	1343.2	2.9147e-06	8.8648e-06	1356.8	375.11	6.4035e-06	6.4768e-06	420.74	143.51	125.55	42.669	3.3871e-06	53.219	0.0019392	0.0024055	0.00068983	1384.9	2.5393e-05	2.6876e-05	1391.5	387.59	2.5121e-05	2.7195e-05	439.15	149.06	131.11	44.901	2.6595e-05	55.983	269.613	277.041	187.769	155.662	254.547	281.853	155.589	160.391	321.606	343.626	159.689	164.475	164.835	169.389	300.588	168.254	-8191	255	
41246.406	1	1	0	0	0.44853	0.093014	0.13486	0.11077	0.11586	0.25973	0.17065	0.1738	0.079362	0.050074	0.27897	0.10027	0.16421	0.23108	0.023972	0.19146	-2.6292	-2.8812	-2.7271	-3.3521	-2.8771	-2.7458	-3.3021	-2.9521	-2.9854	-2.9562	-2.7458	-3.15	-2.8458	-2.7708	-3.0146	-2.7771	184.873	287.445	305.661	440.447	388.698	294.137	452.307	152.112	195.453	369.991	434.493	229.368	207.579	232.944	204.180	416.893	0.0006606	0.00047453	0.00028051	1344.9	3.1932e-06	7.332e-06	1354.4	374.58	8.3689e-06	7.7306e-06	418.29	143.08	126.24	42.559	9.4647e-07	53.122	0.0019553	0.0024367	0.00067511	1382.3	2.5079e-05	2.696e-05	1390.9	386.87	2.4858e-05	2.6823e-05	437.88	148.57	131.09	44.872	2.6292e-05	55.966	275.467	192.652	235.366	155.760	409.634	266.913	155.782	160.497	296.068	365.537	159.953	164.339	164.898	169.396	338.003	168.388	-8191	255	
41246.527	1	1	0	0	0.10619	0.1749	0.22001	0.14765	0.16527	0.11231	0.14273	0.20485	0.099091	0.11362	0.081433	0.11843	0.31977	0.11276	0.16067	0.19826	-2.4521	-2.8542	-2.4646	-3.0604	-2.8125	-2.7729	-3.2417	-2.8667	-2.8396	-3.1063	-2.6896	-3.0708	-2.8521	-2.6021	-3.0542	-2.7708	294.637	290.655	269.163	493.631	400.509	369.087	468.426	463.206	397.337	220.247	227.268	400.611	417.473	340.827	258.855	474.614	0.00061831	0.00020973	0.00032719	1337.5	7.1947e-06	2.5878e-06	1351.6	374.24	7.0931e-06	3.4094e-06	419.24	143	125.14	42.508	5.8697e-06	52.929	0.0019527	0.0024475	0.00067635	1378.3	2.5065e-05	2.6804e-05	1386.7	386.07	2.4876e-05	2.7067e-05	437.33	148.57	130.76	44.823	2.618e-05	55.868	266.961	261.326	229.670	155.757	272.079	216.502	155.552	160.369	305.008	319.672	159.802	164.448	164.707	169.250	305.980	168.158	-8191	255	
41246.621	1	1	0	0	0.19752	0.22635	0.22804	0.019271	0.21484	0.34118	0.13584	0.11295	0.21166	0.20984	0.27684	0.15158	0.21879	0.062235	0.38708	0.27308	-2.3292	-2.9333	-2.5062	-3.1104	-2.9188	-2.8146	-3.0583	-2.7458	-2.8333	-2.7979	-2.8667	-3.0583	-3.0229	-2.9167	-2.9104	-2.9313	229.129	484.547	382.842	367.694	452.991	445.095	467.425	405.770	358.642	184.772	416.317	497.858	481.539	279.687	259.555	457.274	0.00068262	0.00068711	0.00025121	1336.6	8.2303e-06	1.0735e-05	1352.8	372.8	4.7217e-06	2.359e-06	420.24	143.04	124.99	42.425	8.2858e-06	52.958	0.0019591	0.0024386	0.00066716	1376.6	2.5338e-05	2.6711e-05	1382.7	385.51	2.5182e-05	2.7089e-05	437.28	148.37	130.61	44.705	2.5918e-05	55.856	271.054	190.973	261.922	155.831	273.989	295.172	155.538	160.480	339.533	313.399	160.037	164.356	164.909	169.454	289.714	168.263	-8191	255	
41246.695	1	1	0	0	0.28337	0.15688	0.18519	0.1166	0.12117	0.35059	0.2394	0.26901	0.12336	0.10752	0.10085	0.24355	0.18031	0.2028	0.23784	0.33427	-2.35	-3.0896	-2.6417	-3.225	-2.8167	-2.7125	-3.2833	-2.8688	-2.5917	-3.0229	-2.7729	-2.9562	-2.9146	-2.6146	-2.9583	-2.9354	384.575	311.095	146.132	475.527	155.720	196.218	150.512	481.519	284.278	446.037	233.460	473.361	459.688	396.388	144.441	422.990	0.00059898	0.0005	0.00018366	1336.5	5.9979e-06	1.9432e-06	1345	372.27	9.5382e-06	7.3027e-06	418.2	142.5	124.79	42.501	9.4863e-06	52.945	0.0019757	0.0024693	0.00067249	1373.6	2.6118e-05	2.7335e-05	1379.9	384.79	2.6624e-05	2.7619e-05	435.77	147.92	130.12	44.7	2.632e-05	55.802	268.080	278.744	222.144	155.916	311.520	265.616	155.745	160.612	314.416	241.094	159.840	164.384	164.930	169.156	309.546	168.206	-8191	255	
41246.789	1	1	0	0	0.26408	0.20251	0.070901	0.11227	0.17146	0.16949	0.26688	0.027821	0.062015	0.079101	0.17612	0.37745	0.16357	0.27319	0.21463	0.1852	-2.25	-2.9688	-2.6667	-3.1937	-3.0521	-2.6729	-3.3833	-3.0479	-2.6667	-3.0417	-2.7792	-3.0687	-3.0438	-2.6542	-3.0438	-2.9938	467.573	475.729	468.076	215.112	276.706	215.317	425.233	421.204	283.936	176.559	396.394	429.958	444.614	471.954	372.901	201.468	0.00067266	0.00073469	0.00019685	1329.4	4.9719e-06	4.8104e-06	1338.6	372.33	8.3652e-06	1.4833e-06	416.34	142.37	124.78	42.313	8.6265e-06	53.021	0.0020281	0.0024923	0.00067258	1369.2	2.6554e-05	2.7008e-05	1374.5	384.48	2.6376e-05	2.7008e-05	435.12	147.85	130.31	44.546	2.6334e-05	55.799	272.260	190.748	210.030	155.713	324.802	326.585	155.884	160.552	310.263	315.612	159.808	164.458	164.931	169.579	372.087	168.450	-8191	255	
41246.910	1	1	0	0	0.12702	0.21096	0.032535	0.36265	0.016842	0.10029	0.12825	0.13424	0.18711	0.20289	0.1299	0.11162	0.47529	0.11062	0.21155	0.090411	-2.275	-3.0479	-2.7396	-3.0354	-3.0792	-2.75	-3.2083	-3.0604	-2.8917	-3.0792	-2.7854	-3.0292	-3.2396	-2.8917	-2.9854	-3.0229	321.504	327.679	205.122	467.017	148.156	219.442	368.947	437.561	489.495	283.326	174.434	436.151	403.369	311.626	425.120	238.492	0.00062396	0.00066823	0.00019935	1322	9.0056e-06	2.4785e-06	1336.9	369.84	7.3563e-06	4.232e-06	416.22	141.33	124.42	42.306	3.0751e-06	52.574	0.0020353	0.00248	0.00067337	1363.6	2.6382e-05	2.7272e-05	1370.2	383.36	2.6157e-05	2.7187e-05	434.65	147.4	129.86	44.545	2.6561e-05	55.517	270.939	271.103	218.345	155.883	308.832	369.576	155.608	160.217	292.845	318.226	159.814	164.380	164.647	169.642	316.740	168.460	-8191	255	
41247.008	1	1	0	0	0.065226	0.033686	0.19303	0.2278	0.37815	0.29774	0.22654	0.2089	0.2495	0.22053	0.1898	0.15753	0.32769	0.19899	0.26059	0.2724	-2.2687	-3.1229	-2.8583	-3.0729	-3.0687	-2.7792	-3.1437	-2.9625	-2.6771	-2.9292	-2.9021	-3.0667	-2.9604	-2.8292	-2.9375	-2.9021	358.291	267.066	435.181	480.354	473.086	212.059	469.077	405.350	319.511	251.546	414.547	177.442	163.367	357.880	464.819	494.584	0.0006494	0.00043775	0.00015462	1325.3	9.5506e-06	2.7836e-06	1333.7	370.29	4.1609e-06	1.0678e-05	416.7	141.73	124.13	42.174	1.4254e-06	52.752	0.0020301	0.0024519	0.00068043	1364	2.649e-05	2.6813e-05	1369.8	382.55	2.6265e-05	2.6986e-05	434.47	147.51	129.7	44.448	2.6782e-05	55.6	266.348	278.203	215.386	155.815	325.940	377.853	155.526	160.515	238.895	312.416	159.916	164.398	165.026	169.393	232.765	168.400	-8191	255	
41247.102	1	1	0	0	0.19738	0.011081	0.06247	0.19182	0.15775	0.17941	0.082583	0.13724	0.072384	0.099474	0.2685	0.3744	0.32377	0.12391	0.050934	0.16846	-2.2792	-3.0812	-2.7667	-2.7375	-3.1333	-2.8521	-3.0604	-3.1	-2.6625	-2.9917	-2.9313	-2.8625	-3.1813	-2.8354	-2.8875	-3.2146	246.362	185.222	276.631	435.512	334.268	363.278	432.395	427.944	325.256	449.214	427.051	353.701	443.045	492.137	191.685	432.466	0.00063385	0.00052875	0.00021594	1323.6	8.0662e-06	5.79e-06	1328.7	370.73	7.4706e-06	1.016e-05	414.78	141.92	123.5	42.185	8.782e-06	52.447	0.0020331	0.0024228	0.00068361	1362.9	2.6449e-05	2.681e-05	1366.8	382.79	2.6375e-05	2.7152e-05	433.98	147.37	129.5	44.444	2.7261e-05	55.495	270.026	263.353	249.623	155.701	301.147	299.174	155.877	160.468	324.620	299.426	160.133	164.352	164.785	169.330	313.151	168.532	-8191	255	
41247.199	1	1	0	0	0.19718	0.19835	0.17495	0.1477	0.18562	0.23339	0.15654	0.12817	0.2873	0.099705	0.19914	0.33782	0.47141	0.26897	0.081434	0.21876	-2.125	-2.9521	-2.8937	-2.9188	-2.8083	-2.6104	-2.9271	-3.2646	-2.8354	-2.9625	-2.9333	-2.6792	-2.9583	-2.8604	-2.825	-3.1375	195.365	195.654	384.653	464.974	357.637	398.156	496.824	412.670	247.450	202.747	447.199	460.660	153.906	494.375	483.801	468.278	0.00061579	0.00053142	0.00018003	1320.4	6.8842e-06	8.0829e-06	1329.4	369.57	6.6972e-06	8.6488e-06	415.36	141.36	123.59	42.136	4.9615e-06	52.521	0.0019999	0.0024518	0.00069488	1359.9	2.5913e-05	2.6846e-05	1367	381.78	2.587e-05	2.6745e-05	433.47	147.12	129.38	44.348	2.6797e-05	55.44	268.962	237.060	209.082	155.703	312.887	285.911	155.702	160.506	332.066	288.148	159.807	164.195	164.978	169.292	292.368	168.199	-8191	255	
41247.297	1	1	0	0	0.11342	0.14789	0.16526	0.15859	0.15528	0.056588	0.29262	0.35303	0.082534	0.070569	0.3463	0.24691	0.11889	0.17062	0.027839	0.025116	-2.2562	-2.9667	-2.9646	-2.8542	-2.9854	-2.7271	-2.8563	-3.0396	-2.7438	-2.8792	-2.9979	-2.8937	-2.775	-3.0667	-2.6625	-3.1521	165.279	339.064	292.681	215.862	315.540	463.628	413.846	456.337	419.589	326.291	181.110	470.230	435.301	453.649	372.214	277.723	0.00063434	0.00050799	0.00013091	1315.8	9.0092e-06	8.6325e-06	1327.9	369.72	2.9188e-06	6.0384e-06	415.43	141.55	123.83	41.939	6.3825e-06	52.721	0.0019491	0.002399	0.00068217	1355	2.4906e-05	2.6182e-05	1364.5	381.59	2.4467e-05	2.6347e-05	432.96	146.97	129.32	44.335	2.6357e-05	55.436	271.196	231.022	187.272	155.834	294.620	256.757	155.663	160.291	331.982	296.572	159.802	164.150	164.758	169.384	330.063	168.732	-8191	255	
41247.391	1	1	0	0	0.30157	0.20171	0.046233	0.078832	0.12726	0.1448	0.27678	0.065537	0.20087	0.29011	0.14976	0.044707	0.21441	0.020784	0.14092	0.13283	-2.275	-2.8125	-3.0042	-2.9292	-2.8958	-2.9646	-3.0479	-3.15	-2.875	-2.7542	-2.975	-2.7667	-2.9292	-3.0396	-2.7354	-3.1937	276.005	329.470	210.961	258.706	229.396	149.706	153.757	197.616	461.484	362.881	452.461	145.727	485.046	367.471	389.772	333.842	0.0006534	0.0010229	0.00021628	1321.8	9.9776e-06	2.0794e-06	1329.6	368.45	6.4697e-06	9.3934e-06	416.31	141.8	123.75	42.303	4.4196e-06	52.508	0.0019029	0.0023844	0.00067142	1357.7	2.4696e-05	2.6523e-05	1363.5	380.68	2.4767e-05	2.6828e-05	432.46	146.85	129.13	44.337	2.6095e-05	55.318	267.482	249.654	252.681	155.836	319.784	332.381	155.795	160.595	273.076	259.054	159.758	164.168	164.839	169.381	321.093	168.229	-8191	255	
41247.512	1	1	0	0	0.1013	0.1453	0.08407	0.20647	0.21757	0.23937	0.36025	0.088022	0.10581	0.090223	0.10365	0.040074	0.10125	0.20361	0.21162	0.2908	-2.3521	-2.7729	-2.9167	-2.7521	-2.7938	-2.9833	-2.7771	-3.0854	-2.65	-2.8958	-3.0958	-2.8625	-3.1458	-2.9292	-2.8125	-3.1167	298.815	295.291	304.636	431.480	498.159	467.175	429.729	424.767	177.261	401.507	294.220	387.729	183.813	500.268	427.188	440.548	0.00068014	0.0010406	0.00016996	1316	5.7335e-06	4.6485e-06	1327.7	368.7	8.8595e-06	5.6801e-06	413.68	140.72	123.37	41.982	9.6055e-06	52.429	0.0019239	0.0024554	0.00067083	1354.7	2.4971e-05	2.6487e-05	1362.5	380.65	2.4834e-05	2.702e-05	431.79	146.5	129.06	44.236	2.6401e-05	55.285	268.795	215.493	223.899	155.699	354.723	277.361	155.680	160.519	341.576	321.302	159.854	164.289	164.936	169.695	279.550	167.917	-8191	255	
41247.605	1	1	0	0	0.24574	0.079489	0.15401	0.32853	0.079681	0.29718	0.25307	0.097788	0.18314	0.18796	0.035499	0.078061	0.19896	0.13957	0.018718	0.13627	-2.4437	-2.7188	-3.0312	-3.0646	-2.775	-3.0646	-2.8854	-3.0563	-2.8271	-2.7354	-3.0229	-2.9729	-2.8021	-2.9979	-2.6104	-3.0229	426.107	210.982	207.971	459.217	231.372	396.664	477.664	477.575	385.026	467.778	424.613	480.759	244.642	460.630	335.625	351.745	0.0005978	0.00068342	0.00017735	1316	3.5321e-06	8.7479e-06	1327.5	369.47	3.9706e-06	2.4983e-06	413.53	140.33	123.73	42.19	2.2929e-06	52.155	0.0019487	0.0024485	0.00068097	1353	2.538e-05	2.7075e-05	1360.8	380.49	2.5309e-05	2.7197e-05	431.85	146.31	129.03	44.321	2.6246e-05	55.143	270.968	246.613	210.167	155.755	328.618	323.789	155.645	160.393	294.029	302.105	159.926	164.326	164.835	169.490	248.707	168.366	-8191	255	
41247.703	1	1	0	0	0.19186	0.19241	0.12969	0.22129	0.13544	0.084521	0.17885	0.31301	0.046695	0.16721	0.099131	0.090567	0.2722	0.27487	0.067789	0.18683	-2.5417	-2.5167	-2.875	-2.9083	-2.9333	-2.8812	-2.9583	-2.9062	-3.1396	-2.6958	-3.0583	-2.9125	-2.9333	-2.9375	-2.8063	-2.8937	160.017	371.305	229.145	423.009	407.864	191.746	389.367	491.472	425.239	370.607	411.696	170.352	493.115	461.833	216.611	435.426	0.00059216	0.000995	0.00014854	1312.2	1.0794e-06	3.3347e-06	1327.7	368.03	9.2262e-06	8.2019e-06	413.07	140.76	123.77	41.871	4.3716e-06	52.525	0.0019504	0.0024376	0.00065738	1353.4	2.5731e-05	2.6439e-05	1360.7	379.77	2.5178e-05	2.6911e-05	430.62	146.2	128.79	44.196	2.5381e-05	55.305	268.131	211.068	241.676	155.734	351.445	319.614	155.614	160.483	284.625	288.404	159.661	164.193	164.663	169.657	356.846	168.389	-8191	255	
41247.801	1	1	0	0	0.052398	0.062611	0.081656	0.16754	0.21947	0.11711	0.19873	0.071821	0.20708	0.082368	0.363	0.08567	0.28422	0.23325	0.050937	0.29621	-2.7042	-2.6	-2.9667	-2.8917	-2.5958	-3.1646	-2.925	-3.0208	-3.1063	-2.6729	-3.1396	-2.9458	-2.6604	-3.1167	-2.7687	-2.8104	369.446	212.064	333.825	376.143	166.103	165.266	468.069	411.146	487.168	358.698	475.527	426.162	436.628	175.161	367.082	389.528	0.00066129	0.00039455	0.00014753	1314.3	5.1357e-06	8.6444e-06	1324.3	367.54	6.5902e-06	4.6552e-06	412.05	140.61	122.84	42.072	7.356e-06	52.18	0.0019591	0.0024129	0.00064644	1349.8	2.5659e-05	2.6345e-05	1357.9	379.49	2.5656e-05	2.7119e-05	430.38	146.1	128.52	44.265	2.5872e-05	55.125	269.598	258.195	241.758	156.018	301.944	310.332	155.529	160.524	301.001	265.274	160.037	164.424	165.072	169.482	270.208	168.244	-8191	255	
41247.918	1	1	0	0	0.011962	0.30185	0.2121	0.11684	0.15906	0.17884	0.2264	0.28898	0.087914	0.23815	0.41088	0.3345	0.3855	0.14382	0.14175	0.37137	-2.5479	-2.4437	-2.8208	-3.0729	-2.7521	-3.1083	-2.9833	-2.9479	-3.1167	-2.6542	-3.0604	-2.8812	-2.925	-2.9479	-2.8167	-2.8042	499.506	261.713	306.907	316.641	408.457	320.061	436.122	451.936	298.575	420.480	408.736	428.815	484.623	365.917	368.025	390.358	0.00061914	0.00040048	0.00012574	1308.4	1.103e-05	4.9578e-06	1319.3	367.39	5.1946e-06	1.2393e-06	411.12	140.16	123.12	41.793	5.8209e-06	52.314	0.0020164	0.0024539	0.00066126	1348.5	2.6358e-05	2.7048e-05	1355.4	379.11	2.5942e-05	2.7054e-05	430	146.01	128.47	44.088	2.6125e-05	55.126	268.859	217.864	168.469	155.804	312.041	321.512	155.747	160.576	337.815	352.910	159.827	164.407	165.118	169.364	297.454	168.784	-8191	255	
41247.992	1	1	0	0	0.10414	0.28047	0.22076	0.28837	0.22276	0.16182	0.22861	0.25605	0.13139	0.09706	0.183	0.28995	0.084865	0.26759	0.075255	0.28068	-2.5938	-2.6042	-2.7812	-2.8312	-2.7292	-2.8229	-2.9958	-2.8625	-3.0167	-2.8312	-3.025	-2.9667	-2.6396	-3.0187	-2.7292	-2.7896	183.914	349.969	416.310	434.068	272.252	224.554	405.880	467.203	381.096	220.759	159.052	484.050	406.486	416.122	211.014	255.711	0.00058602	0.00027558	6.7142e-05	1310.8	5.8442e-06	6.2474e-06	1318.2	365.99	3.0986e-06	3.7505e-06	413.68	140.21	122.85	41.868	6.2922e-06	52.106	0.0019933	0.0024128	0.00065729	1347.2	2.584e-05	2.6479e-05	1353.8	378.22	2.5527e-05	2.6526e-05	429.97	145.95	128.38	44.12	2.5434e-05	55.1	272.599	216.618	249.898	155.856	276.366	289.849	155.741	160.432	304.468	256.179	159.813	164.503	164.983	169.201	292.265	168.501	-8191	255	
41248.086	1	1	0	0	0.15408	0.18199	0.1325	0.1931	0.18422	0.053488	0.21678	0.19582	0.2424	0.20353	0.1374	0.2122	0.35945	0.1775	0.15898	0.33627	-2.5542	-2.8083	-2.8896	-3.1917	-2.6375	-2.9208	-3.1125	-2.9646	-3.0271	-2.8771	-3.0229	-3.0396	-2.65	-3.0687	-3.0021	-2.6188	349.201	446.455	477.083	426.201	430.022	488.590	368.753	454.693	401.934	423.915	172.318	474.795	404.506	205.192	364.166	422.716	0.00059354	0.00070909	0.00020846	1306.8	6.5045e-06	7.2248e-06	1320	367.13	7.6781e-06	4.5163e-06	415.16	140.31	123.72	41.779	5.6497e-06	52.176	0.0019552	0.0023374	0.00064673	1348.3	2.508e-05	2.5234e-05	1355.5	379.1	2.4867e-05	2.5504e-05	430.94	145.82	128.66	44.056	2.562e-05	55.15	272.826	248.813	270.263	155.861	308.941	317.426	155.793	160.498	306.552	317.851	159.692	164.303	164.696	169.074	281.202	168.182	-8191	255	
41248.207	1	1	0	0	0.1537	0.16276	0.092418	0.1303	0.012112	0.21563	0.1954	0.12285	0.14253	0.24458	0.15535	0.086295	0.0086665	0.1285	0.26586	0.042991	-2.5792	-2.6896	-2.7021	-3.2354	-2.5792	-2.7833	-3.1208	-2.7604	-2.7833	-2.7062	-2.7938	-2.9188	-2.5479	-2.9562	-2.9229	-2.7583	405.913	369.785	143.482	307.767	395.749	468.395	402.903	474.927	200.612	261.236	387.191	461.750	149.359	402.916	169.076	310.792	0.00072741	0.00050497	0.00023611	1311.1	3.8569e-06	2.6385e-06	1319.6	365.3	7.6131e-06	7.4745e-06	411.95	140.06	123.18	41.74	7.0446e-06	52.036	0.0019191	0.0023271	0.00065914	1349.2	2.4911e-05	2.5409e-05	1355.7	378.4	2.4989e-05	2.5798e-05	430.48	145.74	128.4	44.047	2.5985e-05	55.067	263.944	228.787	227.072	155.853	285.611	178.813	155.870	160.618	270.270	308.212	159.763	164.139	164.722	169.296	285.204	168.537	-8191	255	
41248.301	1	1	0	0	0.1369	0.35067	0.16922	0.14501	0.15044	0.23903	0.16195	0.14113	0.27095	0.12808	0.11142	0.28969	0.098355	0.16167	0.09632	0.23302	-2.55	-2.75	-2.6292	-3.1604	-2.7583	-2.8187	-2.9104	-2.8646	-2.9375	-2.5708	-2.6208	-3.1229	-2.9667	-2.7542	-3.0729	-2.7229	397.762	391.991	217.066	437.190	195.744	474.302	368.067	158.959	288.467	196.016	433.259	171.773	421.184	451.840	347.966	474.798	0.00066483	0.00076944	0.00017771	1307	5.5179e-06	2.4661e-06	1318.4	365.68	6.3683e-06	8.6135e-06	412.1	139.98	123	41.875	5.749e-06	52.155	0.0019463	0.0023603	0.00067675	1346.1	2.5015e-05	2.5805e-05	1353.9	377.88	2.4938e-05	2.6552e-05	429.81	145.72	128.3	44.035	2.6548e-05	55.023	270.632	241.935	219.585	155.761	318.793	289.171	155.608	160.568	293.685	260.489	159.848	164.444	164.856	169.226	273.828	168.455	-8191	255	
41248.398	1	1	0	0	0.11153	0.3522	0.12791	0.18296	0.32033	0.064021	0.19957	0.16546	0.08646	0.14072	0.24986	0.26059	0.32624	0.12325	0.14023	0.23072	-2.5	-2.8625	-2.5625	-3.2146	-2.7875	-2.7896	-3.3333	-2.9271	-2.975	-2.9396	-2.9833	-3.1542	-2.6792	-2.775	-2.9437	-2.8937	353.021	364.717	413.708	453.018	290.690	207.609	493.415	454.438	488.648	427.885	143.650	447.998	153.079	446.892	351.868	440.249	0.00064008	0.00039005	0.00020195	1307.6	6.6764e-06	2.7359e-06	1315.6	366.96	6.9075e-06	4.2826e-06	412.21	140.04	122.76	41.834	3.7132e-06	52.254	0.0019326	0.0023976	0.00067131	1345.6	2.4921e-05	2.6618e-05	1351	378.07	2.4616e-05	2.6325e-05	429.76	145.55	128	44.01	2.6024e-05	55.039	267.535	181.756	228.655	155.792	294.543	312.623	155.744	160.517	321.632	244.594	159.981	164.379	164.859	169.428	334.495	168.478	-8191	255	
41248.492	1	1	0	0	0.10786	0.11093	0.097848	0.081298	0.17751	0.23084	0.1907	0.32455	0.079283	0.13497	0.14302	0.11709	0.14948	0.065978	0.25434	0.15425	-2.3937	-2.8812	-2.6979	-3.2021	-2.8792	-2.9375	-3.2208	-2.7146	-2.8729	-2.9396	-2.7438	-3.0729	-2.9979	-2.6958	-2.8917	-2.8292	311.215	156.723	413.703	156.362	250.407	240.472	228.646	410.243	203.778	326.450	476.120	447.142	426.917	232.862	360.064	436.653	0.00068067	0.00082891	0.00018696	1304.9	1.213e-05	2.7439e-06	1313.9	365.54	7.0395e-06	8.1597e-06	411.57	139.94	123.06	41.859	6.0529e-06	52.039	0.0019067	0.0023813	0.00066511	1344.4	2.4616e-05	2.6214e-05	1351.8	377.87	2.45e-05	2.6258e-05	429.12	145.38	128.18	43.986	2.5451e-05	54.927	263.470	233.098	223.479	155.773	326.436	233.432	155.698	160.481	316.672	307.452	160.023	164.476	164.811	169.446	318.744	168.156	-8191	255	
41248.590	1	1	0	0	0.10912	0.27091	0.19717	0.11023	0.070742	0.12816	0.29366	0.096789	0.31319	0.17185	0.080792	0.18933	0.45146	0.1894	0.25559	0.22032	-2.4854	-2.9229	-2.8208	-3.0646	-2.9021	-2.6792	-3.3729	-2.7979	-2.6604	-2.8854	-2.8792	-2.9729	-3.1646	-2.5292	-2.7875	-2.9021	344.771	363.358	415.024	440.275	484.659	162.174	467.332	420.417	431.445	453.511	157.941	191.872	153.270	462.389	370.130	335.119	0.00065803	0.00084638	0.00014181	1310.6	2.7543e-06	7.5012e-06	1313.7	364.89	3.4415e-06	4.4788e-06	412.99	139.73	122.74	41.837	1.0471e-05	52.252	0.0019198	0.0024044	0.00065119	1345.9	2.4692e-05	2.6138e-05	1350	377.47	2.4348e-05	2.6626e-05	429.88	145.33	127.94	44	2.5497e-05	54.973	272.823	192.188	268.991	155.642	335.742	271.596	155.634	160.554	314.040	286.902	159.862	164.387	164.935	169.418	310.282	168.228	-8191	255	
41248.688	1	1	0	0	0.21831	0.24578	0.22411	0.2435	0.034327	0.033472	0.23718	0.14734	0.22663	0.014274	0.15527	0.19643	0.14844	0.25883	0.15667	0.19316	-2.3771	-2.8854	-2.5604	-3.0271	-2.7146	-2.5583	-3.2188	-2.7687	-2.5708	-2.8812	-2.9	-2.9396	-2.8438	-2.65	-2.8167	-2.7979	473.841	234.666	471.175	390.465	350.369	429.894	448.900	365.582	258.075	400.133	481.748	170.915	240.882	426.951	251.467	377.138	0.0006084	0.00034388	0.00016992	1301.7	1.3261e-05	4.0279e-06	1315.6	364.99	8.3696e-06	7.9178e-06	409.17	138.71	122.7	41.53	6.3125e-06	52.036	0.0019029	0.0023863	0.00065112	1342.4	2.4854e-05	2.6077e-05	1348.8	376.27	2.5027e-05	2.6841e-05	428.34	145.09	127.9	43.926	2.5564e-05	54.856	271.502	244.019	200.350	155.706	300.083	320.685	155.602	160.656	335.627	313.035	159.995	164.359	164.581	169.513	279.553	168.322	-8191	255	
41248.781	1	1	0	0	0.14371	0.20219	0.11251	0.11288	0.20092	0.20235	0.16112	0.19646	0.19521	0.018996	0.15464	0.18098	0.12945	0.28764	0.1586	0.17664	-2.25	-2.9229	-2.7313	-2.8542	-2.75	-2.6417	-3.0604	-2.9792	-2.6896	-3.0271	-2.8375	-2.9667	-3.1063	-2.7896	-2.9771	-2.7938	431.557	363.626	498.520	240.334	372.951	486.231	420.384	174.680	304.665	266.249	399.871	152.766	428.622	208.916	330.349	409.100	0.00067946	0.00081694	0.00015518	1303.2	6.2407e-06	8.6713e-06	1314.5	363.63	5.6098e-06	8.1802e-06	411.62	139.47	122.51	41.578	4.6791e-06	52.233	0.001968	0.0024172	0.00065984	1341	2.578e-05	2.7018e-05	1346.8	376.17	2.5617e-05	2.7205e-05	429.15	145.16	128.04	43.918	2.5472e-05	54.92	267.712	233.866	275.929	155.884	330.785	279.646	155.735	160.379	337.122	292.800	160.074	164.341	165.016	169.192	290.295	168.149	-8191	255	
41248.879	1	1	0	0	0.36603	0.10876	0.12183	0.46071	0.10451	0.17582	0.23156	0.33698	0.22744	0.366	0.11642	0.17843	0.097598	0.22735	0.106	0.20197	-2.2208	-2.8542	-2.8	-3.0187	-2.9938	-2.6333	-3.2667	-3.0354	-2.6	-3.0958	-2.8146	-2.7812	-3.1688	-2.7583	-2.8729	-3.0938	421.916	496.448	368.912	462.522	283.622	444.195	435.093	453.247	375.912	290.092	414.626	373.924	177.142	153.277	352.503	384.190	0.00058883	0.0006705	0.00020067	1302.7	7.6869e-06	6.0498e-06	1313.4	365.02	3.3623e-06	3.7457e-06	409.05	139.82	122.33	41.814	6.216e-06	52.063	0.0019861	0.0024361	0.00065277	1340.6	2.5741e-05	2.644e-05	1346.9	376.63	2.5606e-05	2.6598e-05	427.37	145.19	127.76	43.88	2.5563e-05	54.925	270.161	219.279	259.381	155.652	285.933	310.939	155.601	160.481	302.747	323.960	159.690	164.335	165.064	169.469	324.246	168.159	-8191	255	
41249.000	1	1	0	0	0.099133	0.16241	0.13976	0.30943	0.062492	0.035251	0.27955	0.10401	0.17104	0.13191	0.08159	0.1937	0.28791	0.17249	0.10843	0.18042	-2.2333	-2.9646	-2.8167	-2.8708	-3.0979	-2.55	-2.9521	-3.0604	-2.7104	-2.9	-2.85	-2.6958	-3.1	-2.9188	-2.9938	-3.0292	457.632	250.228	216.940	401.807	201.927	238.812	427.110	464.813	454.087	259.537	150.375	386.830	231.380	417.484	482.368	300.033	0.00061134	0.00041694	0.0002014	1299.8	1.2304e-05	5.1998e-06	1310.7	364.49	6.6574e-06	1.243e-06	410.17	139.14	122.28	41.698	7.2163e-06	52.1	0.0019597	0.002373	0.00065117	1341.1	2.5686e-05	2.6231e-05	1345.6	376.53	2.5292e-05	2.6129e-05	428.03	144.85	127.82	43.882	2.5698e-05	54.882	270.739	246.800	234.392	155.806	293.799	317.538	155.788	160.461	300.259	252.122	159.829	164.440	165.217	169.395	269.557	168.225	-8191	255	
41249.098	1	1	0	0	0.081916	0.065763	0.15116	0.40297	0.15119	0.29727	0.15549	0.22202	0.22175	0.067381	0.20167	0.10549	0.17094	0.19508	0.21857	0.020777	-2.1604	-3.0354	-2.7542	-2.8125	-2.8271	-2.675	-2.9854	-2.9583	-2.6167	-2.9417	-2.8833	-2.7479	-3.0438	-2.6188	-2.7667	-3.025	146.368	241.458	238.603	455.593	382.783	266.793	364.592	492.516	145.859	473.824	381.233	410.050	283.955	496.957	361.243	230.407	0.00064188	0.00023711	0.00020473	1304.6	6.8285e-06	6.3601e-06	1313.2	364.96	7.5836e-06	5.3655e-06	409.72	138.86	122.44	41.52	1.5223e-06	52.02	0.0019661	0.002357	0.00065251	1340.9	2.5461e-05	2.5855e-05	1346.9	376.47	2.5141e-05	2.5753e-05	427.98	144.76	127.86	43.8	2.586e-05	54.877	261.570	199.045	205.355	155.917	292.485	288.852	155.748	160.555	315.047	304.827	159.896	164.504	164.912	169.365	368.009	168.304	-8191	255	
41249.191	1	1	0	0	0.061631	0.10912	0.064817	0.12656	0.10565	0.15934	0.066931	0.16741	0.25012	0.077405	0.08488	0.26083	0.32689	0.037093	0.21054	0.14873	-2.1875	-2.9042	-2.9104	-2.7583	-3.1167	-2.7854	-3.0062	-3.15	-2.6104	-2.8937	-2.9917	-2.8167	-3.2521	-2.7917	-2.8438	-3.1292	471.420	237.265	198.249	147.598	273.203	307.817	492.443	410.779	194.963	410.012	256.692	145.772	477.022	468.324	256.185	264.360	0.00054982	0.00073093	9.1159e-05	1303.6	5.8644e-06	6.183e-06	1310.7	364.94	6.074e-06	2.9251e-06	409.5	139.07	122.22	41.677	3.2593e-06	52.039	0.0019637	0.0023243	0.00065869	1340.9	2.539e-05	2.575e-05	1347	376.44	2.5348e-05	2.6268e-05	427.59	144.93	127.8	43.859	2.651e-05	54.958	271.512	191.572	248.724	155.636	327.594	272.309	155.609	160.406	332.015	416.282	159.761	164.311	164.842	169.563	267.079	168.286	-8191	255	
41249.289	1	1	0	0	0.086853	0.11138	0.12046	0.26279	0.21064	0.28494	0.31108	0.24527	0.078806	0.22054	0.26904	0.18933	0.13523	0.19465	0.30346	0.29873	-2.4042	-2.9042	-2.9021	-3.0021	-3.05	-2.9208	-2.9479	-3.3729	-2.8104	-2.9729	-3.0708	-2.7021	-3.1437	-2.7792	-2.6188	-3.2146	342.315	431.587	157.786	488.713	357.628	434.722	436.602	388.718	304.190	154.757	478.184	161.780	150.214	375.346	377.248	421.954	0.00070749	0.00065013	7.9218e-05	1304.1	2.9576e-06	4.2035e-06	1313.8	365.74	4.7224e-06	8.6217e-06	409.42	139.32	122.21	41.903	8.0052e-06	51.982	0.0019599	0.0024086	0.00068274	1342.4	2.5795e-05	2.6551e-05	1348.7	376.91	2.5236e-05	2.7035e-05	428.29	145.09	127.82	43.995	2.7218e-05	54.913	271.988	202.874	252.768	155.860	314.469	260.704	155.733	160.597	313.122	304.643	159.946	164.205	164.751	169.188	352.184	168.391	-8191	255	
41249.383	1	1	0	0	0.10665	0.12188	0.12908	0.21791	0.052473	0.054933	0.2447	0.29138	0.14182	0.14165	0.22749	0.20391	0.20556	0.26397	0.16313	0.27438	-2.2708	-2.6208	-2.9062	-2.7896	-2.8417	-3.0729	-2.8979	-3.0792	-2.6896	-2.75	-3.0896	-2.6042	-3.0625	-2.8854	-2.4958	-3.1688	223.028	427.634	465.173	458.592	444.547	222.528	348.980	411.333	396.914	363.929	407.981	185.046	205.546	471.489	208.288	471.240	0.00060718	0.0012803	0.00020732	1304.7	5.7341e-06	6.4671e-06	1316.7	365.18	6.8897e-06	3.5014e-06	412.51	139.46	122.4	41.758	7.14e-06	52.118	0.0019946	0.0024429	0.00069554	1343.2	2.5901e-05	2.7192e-05	1350.6	377.34	2.5601e-05	2.7691e-05	429.29	145.21	128.04	44.053	2.7035e-05	55.079	269.377	244.327	223.613	155.901	345.414	300.105	155.644	160.592	317.274	152.911	160.082	164.343	164.801	169.099	374.106	168.499	-8191	255	
41249.480	1	1	0	0	0.1072	0.16957	0.040908	0.16342	0.17805	0.14568	0.44603	0.28796	0.22882	0.20838	0.24829	0.23059	0.022133	0.14069	0.15734	0.27763	-2.2479	-2.8542	-2.9854	-2.975	-2.9583	-2.8688	-2.7333	-3.1083	-2.7792	-2.8	-3.0354	-2.8708	-2.8792	-3.0812	-2.6937	-2.9729	187.999	187.414	403.512	160.344	371.322	193.764	450.778	446.469	296.795	211.165	338.378	313.496	146.482	437.320	319.264	425.828	0.00061967	0.0011507	9.4973e-05	1307.6	9.6161e-06	7.6282e-06	1318.2	364.87	9.2767e-06	3.378e-06	411.24	139.47	122.83	41.697	6.1591e-06	51.96	0.0019827	0.0025033	0.00069679	1345	2.5562e-05	2.761e-05	1353.4	377.25	2.5383e-05	2.7471e-05	430.04	145.23	128.14	44.005	2.7178e-05	54.906	269.371	226.327	203.913	155.836	260.423	320.208	155.895	160.503	328.373	303.616	159.943	164.134	164.950	169.402	318.256	168.266	-8191	255	
41249.598	1	1	0	0	0.14188	0.29877	0.19585	0.37674	0.18163	0.18496	0.2875	0.069983	0.071041	0.1463	0.031227	0.1945	0.14914	0.14787	0.13675	0.13793	-2.3729	-2.5354	-2.8958	-2.7667	-2.8521	-2.9771	-2.7917	-3.1188	-2.8667	-2.5458	-3.1583	-2.8438	-2.8812	-3.0812	-2.5875	-3.0771	316.649	321.624	491.248	466.674	319.440	195.614	420.765	162.073	189.704	314.498	405.129	447.373	172.745	198.935	248.602	430.135	0.00067084	0.0003858	0.00012176	1307.6	1.1513e-05	6.4788e-06	1317.3	365.04	6.0892e-06	1.0514e-05	411.61	139.45	122.88	41.775	1.2034e-05	51.988	0.0019751	0.0024998	0.00068837	1344.9	2.5567e-05	2.7356e-05	1351.6	377.01	2.5252e-05	2.7091e-05	429.67	145.08	128.11	44.029	2.678e-05	54.908	265.978	242.235	278.524	155.753	277.033	296.096	155.620	160.496	290.982	324.452	159.904	164.415	164.939	169.249	320.964	168.113	-8191	255	
41249.695	1	1	0	0	0.2751	0.15351	0.14841	0.12067	0.18749	0.098654	0.41507	0.16775	0.077775	0.36524	0.1922	0.30126	0.21371	0.17473	0.1452	0.028814	-2.3688	-2.5687	-3.0083	-3.0271	-2.7625	-3.0458	-2.8896	-2.9333	-2.9271	-2.7208	-3.1333	-2.7833	-2.875	-2.8937	-2.6583	-2.9042	408.705	382.424	234.509	486.753	192.565	325.912	414.243	470.738	206.872	347.638	499.897	451.129	289.416	425.579	176.505	440.445	0.00061874	0.00066633	6.7801e-05	1307.5	3.9377e-06	9.9258e-06	1313.6	364.87	1.1423e-05	6.6802e-06	410.35	138.98	122.13	41.84	3.0948e-06	52.05	0.0019696	0.002519	0.00068473	1344.5	2.5896e-05	2.7649e-05	1349.8	376.97	2.5936e-05	2.8091e-05	429.43	145	128.08	44.083	2.7187e-05	55.034	266.144	271.725	200.105	155.632	284.608	235.902	155.586	160.541	319.098	351.954	160.076	164.028	164.807	169.355	290.832	168.354	-8191	255	
41249.793	1	1	0	0	0.18338	0.26472	0.11809	0.038923	0.1347	0.10807	0.35767	0.33829	0.35295	0.090626	0.28256	0.12533	0.22647	0.021758	0.15715	0.28902	-2.4833	-2.6479	-3.0396	-2.8812	-2.8146	-2.9958	-2.9042	-3.0375	-3.0667	-2.7979	-3.1833	-2.8646	-2.6937	-3.1063	-2.6688	-2.9396	271.109	398.642	169.202	303.202	168.291	442.486	466.637	403.170	475.805	472.391	441.311	448.753	446.661	144.000	180.767	393.168	0.00063166	0.00069774	0.00016122	1303.3	4.7735e-06	6.8339e-06	1311.9	365.64	8.5716e-06	2.5927e-06	411.62	139.18	122	41.8	5.6056e-06	52.147	0.0020581	0.0025514	0.00068963	1344.1	2.7059e-05	2.8233e-05	1349.9	377.2	2.6823e-05	2.881e-05	429.17	145.17	128.25	43.986	2.7166e-05	55.075	269.498	222.554	250.952	155.879	354.253	266.511	155.690	160.590	333.718	231.705	159.734	164.155	164.971	169.483	345.964	168.270	-8191	255	
41249.863	1	1	0	0	0.23953	0.34028	0.10759	0.15142	0.067951	0.10053	0.13768	0.16457	0.14412	0.13824	0.27765	0.19806	0.13944	0.076903	0.15476	0.3614	-2.4875	-2.6437	-2.9375	-3.0521	-2.6146	-3.0667	-3.0771	-2.9896	-3.0292	-2.7646	-2.9792	-3.0542	-2.7083	-3.0521	-2.9458	-2.6979	489.042	483.676	256.391	447.167	327.570	477.212	442.995	425.416	240.463	466.899	219.164	366.404	429.004	330.900	234.519	482.164	0.00068833	0.00036524	0.00012947	1303.3	1.0199e-05	7.8088e-06	1314.3	365.51	6.5865e-06	5.7689e-06	411.4	139.46	122.19	41.733	4.7575e-06	52.06	0.0021045	0.0026086	0.00069968	1345	2.7287e-05	2.8638e-05	1352.2	377.32	2.7511e-05	2.8917e-05	429.51	145.66	128.21	44.067	2.7359e-05	55.122	267.754	204.352	165.850	155.713	317.198	249.953	155.734	160.498	297.141	302.986	159.894	164.191	164.815	169.430	299.878	168.496	-8191	255	
41249.984	1	1	0	0	0.1161	0.09569	0.19207	0.23477	0.030835	0.020374	0.163	0.14223	0.19674	0.20873	0.19165	0.14026	0.34932	0.23232	0.12008	0.28596	-2.5458	-2.6958	-2.8604	-3.1896	-2.6437	-2.9958	-2.9354	-2.7771	-3.3104	-2.7042	-3.0125	-2.9188	-2.6521	-3.1083	-2.7687	-2.8979	216.395	435.682	221.769	466.999	455.599	469.234	440.564	443.061	309.903	219.860	442.456	471.396	200.342	492.898	291.529	158.053	0.00063644	0.00050436	0.00011261	1308.1	5.1101e-06	7.7622e-07	1318.7	365.39	4.6415e-06	8.6349e-06	411.36	139.16	122.59	41.744	5.726e-06	52.068	0.0021329	0.0025941	0.00070632	1347.3	2.7802e-05	2.8445e-05	1353.5	377.64	2.7869e-05	2.8604e-05	429.31	145.31	128.35	44.05	2.7924e-05	55.057	263.748	178.995	257.680	155.866	303.849	412.212	155.774	160.589	290.213	314.869	159.963	164.537	164.674	169.301	273.664	168.460	-8191	255	
41250.078	1	1	0	0	0.32256	0.18023	0.043498	0.13556	0.21398	0.1854	0.2138	0.31581	0.025765	0.124	0.12366	0.044887	0.14122	0.1503	0.10514	0.24977	-2.5062	-2.8042	-2.7854	-3.2667	-2.5187	-3.0646	-2.9875	-2.7812	-2.9042	-2.7354	-2.9354	-3.1417	-2.8312	-2.8812	-2.9958	-2.8417	326.782	341.153	425.823	442.157	251.193	431.591	147.137	447.683	495.248	151.486	396.282	242.140	492.063	190.629	323.248	417.190	0.00059119	0.00024195	7.7279e-05	1306.2	6.2428e-06	1.6606e-05	1318.3	364.65	3.5559e-06	8.3589e-06	413.04	139.86	122.8	41.806	1.4569e-06	52.137	0.0021654	0.0026266	0.00071945	1346	2.8639e-05	2.9213e-05	1353.1	377.5	2.8414e-05	2.9365e-05	430.36	145.86	128.36	44.092	2.8963e-05	55.223	268.836	485.693	241.616	155.734	315.168	295.363	155.710	160.489	262.439	289.205	159.838	164.365	164.790	169.353	255.289	168.358	-8191	255	
41250.176	1	1	0	0	0.090176	0.19317	0.096911	0.40355	0.10297	0.040852	0.3621	0.39908	0.27291	0.01836	0.12865	0.17139	0.10751	0.075526	0.22533	0.13118	-2.4958	-2.7896	-2.7687	-3.1583	-2.7479	-2.8542	-2.9167	-2.8979	-3.1542	-2.7771	-2.7854	-3.1021	-2.825	-2.8833	-2.9979	-2.7917	391.986	237.814	154.050	446.299	366.966	180.001	415.732	400.277	369.787	152.183	439.366	154.017	237.679	449.876	360.567	501.024	0.000606	0.00096899	0.00011535	1308.7	7.4001e-06	8.0066e-06	1319.5	364.61	5.1886e-06	6.7639e-06	412.13	139.76	122.78	41.853	2.4775e-06	52.065	0.002223	0.0026722	0.00074811	1349.1	2.8941e-05	2.9436e-05	1355.4	378.25	2.8996e-05	2.9752e-05	431	145.52	128.56	44.175	2.9541e-05	55.193	269.879	220.141	181.416	155.647	285.298	289.751	155.609	160.407	370.847	246.672	159.682	164.393	164.935	169.492	373.142	168.258	-8191	255	
41250.273	1	1	0	0	0.12532	0.23292	0.30724	0.18553	0.093552	0.12603	0.21317	0.26428	0.25838	0.11621	0.12956	0.026515	0.050207	0.15755	0.13229	0.15674	-2.7479	-2.7604	-2.7875	-3.0667	-2.6792	-2.7896	-3.0375	-2.9083	-2.8125	-3.1146	-2.9271	-3.0771	-2.7313	-2.8729	-2.9292	-2.9479	239.651	320.548	181.719	397.071	175.784	202.091	427.644	475.540	426.815	178.386	184.464	488.374	213.936	272.412	154.917	374.178	0.00057521	0.00049719	0.00010022	1308.9	9.6298e-06	3.6096e-07	1319.7	366.36	4.6724e-06	2.3793e-06	413.22	139.37	122.67	41.715	8.6607e-06	51.897	0.0022133	0.0026861	0.00076675	1350.3	2.9218e-05	2.995e-05	1356.6	378.81	2.8632e-05	3.0137e-05	431.93	145.76	128.6	44.158	3.0565e-05	55.207	268.727	231.836	241.943	155.972	278.178	280.257	155.598	160.625	298.866	190.149	159.613	164.185	164.764	169.268	312.005	168.239	-8191	255	
41250.391	1	1	0	0	0.2371	0.1374	0.3636	0.22229	0.15533	0.097948	0.23744	0.31814	0.11135	0.11126	0.079587	0.25555	0.073196	0.16324	0.17055	0.16143	-2.4729	-2.7917	-2.7125	-3.1625	-2.6208	-2.9354	-3.4354	-2.7958	-3	-3.0062	-2.9271	-2.7958	-2.8563	-2.9771	-3.1646	-2.7938	414.297	283.625	368.481	477.541	171.294	390.751	414.649	452.497	259.356	414.151	331.771	343.446	333.973	235.580	220.594	450.364	0.00062301	0.00031689	0.000174	1309.3	6.9951e-06	1.1529e-05	1320.3	365.29	9.7211e-07	5.1561e-06	412.5	139.87	122.84	41.908	2.8546e-06	52.259	0.002224	0.0027502	0.0007871	1351	2.9454e-05	3.0412e-05	1356.3	379.02	2.9099e-05	3.0761e-05	431.93	145.9	128.61	44.224	3.1389e-05	55.398	273.769	220.268	224.706	155.912	299.160	272.898	155.749	160.733	300.442	287.989	159.943	164.074	165.095	169.285	232.534	168.064	-8191	255	
41250.465	1	1	0	0	0.45283	0.37674	0.071987	0.16707	0.076522	0.030336	0.14937	0.27635	0.077695	0.23803	0.063918	0.036878	0.24564	0.31843	0.061331	0.15804	-2.55	-2.9333	-2.6771	-3.0917	-2.5979	-2.7083	-3.1917	-2.8646	-2.9458	-2.8208	-2.8292	-3.1437	-2.9062	-2.7292	-3.1167	-2.6896	378.580	209.362	172.333	442.236	212.595	435.693	451.397	443.241	459.107	453.354	216.635	334.556	337.285	147.396	430.384	184.859	0.00058983	0.000708	0.00010134	1312.4	7.6897e-06	3.6307e-06	1319.2	364.95	4.8839e-06	1.7858e-05	412.04	139.73	123.08	41.878	5.103e-06	52.206	0.0022529	0.0028201	0.00079654	1353.3	2.9387e-05	3.1316e-05	1358.3	378.78	2.901e-05	3.1325e-05	431.93	146.07	128.85	44.324	3.1284e-05	55.29	268.282	217.049	177.125	155.740	302.228	204.346	155.771	160.559	312.296	296.788	159.984	164.304	164.842	169.246	280.857	168.342	-8191	255	
41250.562	1	1	0	0	0.11925	0.21361	0.46061	0.16023	0.18644	0.080602	0.24576	0.22306	0.17751	0.072561	0.35468	0.10668	0.31959	0.043081	0.10842	0.19073	-2.3229	-2.9583	-2.5938	-3.1063	-2.775	-2.7396	-3.2104	-2.8312	-2.8771	-2.95	-2.6479	-3.075	-2.9771	-2.6437	-3.0208	-2.7875	424.505	306.216	236.439	409.636	224.030	412.752	437.271	433.540	227.634	174.198	149.153	219.088	480.340	232.669	197.471	471.403	0.00067151	0.00042085	0.00022971	1306.7	1.0493e-06	1.0099e-05	1319.5	366.52	6.3886e-06	6.0055e-06	410.82	139.63	122.73	41.841	8.3229e-06	52.228	0.00227	0.0028534	0.000799	1350.7	2.9635e-05	3.1547e-05	1357.7	378.75	2.942e-05	3.1903e-05	431.31	145.96	128.77	44.33	3.1114e-05	55.328	266.110	251.466	266.789	155.789	268.441	331.791	155.644	160.331	299.343	387.181	159.978	164.191	164.836	169.360	277.003	168.197	-8191	255	
41250.680	1	1	0	0	0.1817	0.030101	0.093307	0.072636	0.045282	0.14252	0.31583	0.16615	0.17342	0.15625	0.29119	0.078722	0.13163	0.24569	0.092072	0.1095	-2.2521	-2.9896	-2.6271	-3.0438	-2.8812	-2.6167	-3.1604	-2.85	-2.6729	-3.05	-2.8771	-2.9938	-2.9	-2.7271	-2.8542	-2.8	253.267	351.642	440.290	428.589	352.494	280.327	426.529	437.275	457.093	438.271	463.501	172.120	389.225	447.312	143.880	308.497	0.00056966	0.00066704	0.00032048	1312.9	1.1516e-05	6.8614e-06	1318.5	365.83	2.2843e-06	3.4533e-06	413.42	139.32	122.76	41.804	2.8805e-06	52.345	0.0022602	0.00288	0.00079481	1352.5	2.9642e-05	3.1792e-05	1356.4	378.92	2.939e-05	3.1765e-05	432.35	145.89	128.65	44.229	3.0823e-05	55.289	263.514	271.681	229.867	155.665	251.310	353.154	155.638	160.564	295.906	291.876	159.902	164.354	164.646	169.475	295.789	168.123	-8191	255	
41250.777	1	1	0	0	0.21363	0.12964	0.055101	0.16195	0.076243	0.090471	0.23516	0.30869	0.12161	0.05417	0.16259	0.12158	0.15777	0.19498	0.25359	0.13267	-2.2292	-3.0104	-2.85	-2.9458	-2.8688	-2.7938	-3.1188	-2.8333	-2.7521	-2.95	-2.7833	-2.9125	-2.9667	-2.7479	-2.9854	-2.9667	435.375	212.924	244.396	164.441	496.124	414.410	443.567	473.486	366.472	193.709	435.171	455.208	484.103	406.355	170.968	436.099	0.00065151	0.00035002	0.00017535	1313	1.1885e-05	6.6943e-06	1315.8	365.89	5.3114e-06	4.8179e-06	413.32	139.43	122.98	42.024	6.3158e-06	52.284	0.0022746	0.0028725	0.00078593	1352.3	2.987e-05	3.1804e-05	1355.7	378.83	2.9733e-05	3.1893e-05	431.7	145.97	128.89	44.42	3.0592e-05	55.324	270.234	221.453	197.437	155.797	274.632	203.914	155.571	160.365	294.450	316.522	159.859	164.395	164.919	169.165	323.595	168.229	-8191	255	
41250.871	1	1	0	0	0.17509	0.031807	0.27649	0.069218	0.1661	0.12449	0.083293	0.21796	0.17849	0.26313	0.15538	0.18204	0.13572	0.20523	0.18895	0.051287	-2.5042	-2.9313	-2.7542	-2.8021	-2.9125	-2.5521	-2.9688	-3.0417	-2.5312	-3.1083	-2.9917	-2.7667	-3.1167	-2.8979	-2.8833	-3.0125	477.034	259.678	188.010	230.561	473.708	206.423	425.047	446.828	496.958	264.572	479.549	316.222	176.182	180.306	325.068	478.036	0.0006274	0.0010237	0.00024609	1315	9.5497e-06	8.5038e-06	1318.7	365.53	1.8899e-06	8.4696e-06	410.61	140.13	123.44	41.924	5.1332e-06	52.339	0.002312	0.0028844	0.0007835	1355.2	3.0253e-05	3.1622e-05	1357.6	378.68	3.0439e-05	3.2229e-05	431.23	146.4	129.15	44.275	3.0406e-05	55.335	269.175	222.233	281.950	155.799	290.545	244.414	155.683	160.340	316.092	335.140	159.527	164.260	164.875	169.315	267.492	168.253	-8191	255	
41250.992	1	1	0	0	0.072202	0.21373	0.22948	0.06673	0.032009	0.19531	0.14174	0.23329	0.23714	0.20888	0.34532	0.071185	0.099559	0.44039	0.26279	0.23204	-2.1979	-3.0875	-2.9437	-3.0167	-3.2417	-2.7979	-3.0521	-3	-2.6833	-2.8937	-2.85	-2.9188	-3.0062	-2.9104	-2.9917	-3.1396	333.214	458.457	347.364	161.170	193.731	294.762	438.386	449.827	454.102	147.036	184.574	476.876	295.760	453.866	450.829	476.841	0.00069315	0.0011003	0.00019918	1316.1	1.0818e-05	5.8614e-06	1319	365.66	4.8113e-06	4.0216e-06	412.74	139.92	122.24	41.9	7.0432e-06	52.251	0.0023566	0.0029004	0.00077046	1354.6	3.0863e-05	3.1664e-05	1357.1	379.04	3.0485e-05	3.1942e-05	431.94	146.05	128.82	44.305	3.0453e-05	55.411	267.971	203.521	239.318	155.765	280.348	313.084	155.736	160.387	314.775	331.094	159.606	164.440	164.846	169.181	350.779	168.393	-8191	255	
41251.090	1	1	0	0	0.21116	0.15524	0.11549	0.14766	0.10167	0.34307	0.09217	0.094191	0.06925	0.056133	0.32446	0.14778	0.27761	0.29927	0.12333	0.12378	-2.3396	-3.0125	-2.7229	-2.8083	-3.0125	-2.6937	-3.0833	-3.1792	-2.5625	-3.0646	-3.1562	-2.6854	-3.0896	-2.8271	-2.7812	-3.1792	490.290	166.297	364.958	246.500	369.698	280.123	424.377	433.671	332.901	407.369	484.070	440.928	483.305	209.536	277.781	150.762	0.00061063	0.00095812	0.00010271	1309.7	1.2222e-05	8.5479e-06	1317.5	366.37	6.6835e-06	6.9254e-06	411.05	139.82	122.83	41.891	6.6817e-06	52.238	0.0023468	0.0028716	0.00078055	1354	3.0588e-05	3.1379e-05	1356.7	379.07	3.056e-05	3.1437e-05	431.33	145.97	128.92	44.244	3.0644e-05	55.393	265.606	242.316	248.822	155.952	314.814	324.462	155.676	160.462	314.420	221.630	159.684	164.467	165.041	169.256	267.332	168.251	-8191	255	
41251.160	1	1	0	0	0.30979	0.34808	0.17773	0.093501	0.041224	0.12843	0.087902	0.11502	0.013362	0.042896	0.26653	0.076073	0.46252	0.29881	0.09149	0.081253	-2.2917	-3.0146	-2.9771	-2.9188	-3.0083	-2.6625	-3.0625	-3.125	-2.8333	-2.9458	-3.0625	-2.8521	-3.0854	-2.9917	-2.7938	-3.1312	383.747	219.395	291.244	391.053	483.092	465.083	386.459	481.833	259.174	311.065	461.228	287.444	499.838	451.465	326.670	404.179	0.00059504	0.00033042	5.1064e-05	1312.7	8.7402e-06	4.4386e-06	1320.1	365	4.8835e-06	9.2251e-06	409.46	139.4	122.97	41.803	3.1674e-06	51.956	0.0023384	0.002844	0.00077974	1354.1	3.0559e-05	3.1352e-05	1358.2	378.76	3.0603e-05	3.134e-05	431.25	145.97	128.77	44.197	3.1169e-05	55.287	263.920	227.100	202.046	155.862	298.815	241.228	155.693	160.524	372.844	311.242	159.821	164.218	164.977	169.282	380.249	168.123	-8191	255	
41251.281	1	1	0	0	0.14336	0.12895	0.39195	0.06505	0.041908	0.19107	0.23925	0.17776	0.14319	0.21664	0.046087	0.10312	0.18865	0.22098	0.10207	0.19367	-2.3333	-2.7708	-2.8646	-3.1333	-3.0458	-2.9896	-3.0083	-3.2417	-2.6146	-2.8958	-3.1188	-2.9021	-3.1396	-2.8771	-2.6562	-3.1458	161.766	147.455	214.533	476.481	330.276	294.681	451.780	152.702	375.631	177.009	205.882	417.591	502.413	497.310	436.236	461.806	0.00063903	0.00070791	9.4759e-05	1311.2	6.6443e-06	3.1669e-06	1317.8	366.51	3.1114e-06	5.132e-06	411.7	139.78	122.66	41.653	5.5922e-06	52.103	0.0023322	0.0028427	0.00078718	1352.6	3.0136e-05	3.0761e-05	1356.3	379.25	2.9893e-05	3.1223e-05	431.39	145.93	128.61	44.132	3.1039e-05	55.298	268.073	181.973	243.290	155.672	328.129	323.269	155.535	160.452	361.018	388.146	159.683	164.300	164.815	169.374	297.826	168.617	-8191	255	
41251.375	1	1	0	0	0.36484	0.34529	0.052858	0.35063	0.33798	0.094082	0.4403	0.29907	0.25433	0.092142	0.18328	0.3323	0.22067	0.13554	0.1059	0.35125	-2.5104	-2.8187	-2.8208	-2.9604	-3.0792	-2.7896	-2.8812	-3.0333	-2.8146	-2.8021	-3.1312	-2.6896	-3.0979	-2.9729	-2.5896	-3.1375	419.874	229.678	424.035	479.745	289.362	221.356	479.160	464.973	347.089	213.315	440.763	501.903	480.045	143.287	209.905	494.414	0.00063352	0.0006811	0.00021701	1314.7	8.0994e-06	6.2851e-06	1316.5	365.77	8.2814e-06	1.171e-05	413.45	139.58	122.63	41.847	8.9874e-06	52.136	0.0022924	0.0028138	0.00079956	1353.2	2.9847e-05	3.0916e-05	1357.6	378.8	3.0093e-05	3.1397e-05	432.3	146.02	128.6	44.2	3.1764e-05	55.345	270.839	199.037	230.565	155.725	317.515	300.767	155.739	160.539	329.114	303.250	159.848	164.302	164.786	169.296	292.116	168.256	-8191	255	
41251.473	1	1	0	0	0.21616	0.21226	0.13486	0.21761	0.093494	0.11244	0.34535	0.29812	0.11486	0.21727	0.046325	0.20961	0.24491	0.18534	0.024983	0.090815	-2.5542	-2.4708	-2.9188	-3.0646	-2.775	-2.9479	-2.7687	-3.0292	-2.6667	-2.7583	-3.1396	-2.9646	-2.9479	-3.125	-2.6312	-2.9354	498.574	493.224	493.486	452.253	230.677	500.566	381.473	390.518	152.537	472.217	482.711	500.664	430.968	334.507	163.940	384.159	0.00064025	0.00070403	6.061e-05	1308.4	1.324e-05	7.764e-06	1318	365.24	2.8321e-06	6.8888e-06	409.86	139.58	122.63	41.828	2.2807e-06	52.122	0.0022868	0.0028469	0.00082099	1351.1	2.9879e-05	3.1767e-05	1356.7	378.74	2.99e-05	3.209e-05	430.99	145.86	128.69	44.305	3.2435e-05	55.264	268.448	271.159	444.815	155.510	295.519	265.084	155.609	160.395	309.369	257.510	160.051	164.365	165.114	169.239	183.410	168.222	-8191	255	
41251.566	1	1	0	0	0.1859	0.16068	0.069799	0.071573	0.17752	0.06891	0.24754	0.30142	0.25764	0.22019	0.25222	0.28629	0.37683	0.34595	0.24008	0.088883	-2.3958	-2.75	-2.9688	-2.9688	-2.9	-3.0687	-2.8479	-3.0771	-3.0417	-2.7687	-3.1875	-2.9729	-2.9958	-3.0833	-2.6813	-3.0042	428.225	351.091	305.325	443.707	157.490	450.971	479.442	472.273	299.458	168.716	382.747	454.428	426.807	157.815	192.652	252.304	0.00068844	0.001132	0.00019866	1304.1	5.604e-06	3.3768e-06	1316.5	365.17	5.7582e-06	8.0437e-06	411.16	139.43	122.34	41.789	1.0707e-05	52.111	0.0022985	0.0029497	0.00082778	1350.4	3.0741e-05	3.2741e-05	1356.3	378.38	3.0274e-05	3.2602e-05	430.81	145.76	128.65	44.307	3.2521e-05	55.343	267.229	210.452	205.625	155.860	303.869	202.622	155.730	160.337	327.154	336.847	159.766	164.229	164.897	169.543	325.968	168.022	-8191	255	
41251.688	1	1	0	0	0.12739	0.22428	0.088019	0.14388	0.1148	0.21938	0.27885	0.31268	0.269	0.058151	0.1051	0.2	0.075837	0.16996	0.094606	0.048405	-2.3479	-2.4896	-3.1042	-2.9833	-2.8375	-3.0833	-2.9042	-3.2833	-3.1312	-2.7875	-3.1937	-2.85	-2.7812	-3.1021	-2.6	-2.9646	215.884	438.703	337.324	396.657	362.146	497.315	460.109	452.445	242.583	223.247	281.554	409.005	379.492	347.702	197.090	405.360	0.00059307	0.0010213	4.1866e-05	1306.8	1.0648e-05	1.681e-06	1316.8	364.4	5.8557e-06	2.6429e-06	410.25	139.24	122.75	41.847	1.1354e-05	52.029	0.0023291	0.002991	0.00082852	1350.2	3.0465e-05	3.2501e-05	1355.7	378.08	3.042e-05	3.3208e-05	431.65	145.72	128.64	44.31	3.2417e-05	55.268	273.947	178.287	284.344	155.830	345.536	470.047	155.862	160.506	343.575	294.183	159.745	164.365	164.696	169.410	312.698	168.511	-8191	255	
41251.762	1	1	0	0	0.14018	0.13555	0.1645	0.18238	0.040221	0.23233	0.23228	0.32946	0.30503	0.33757	0.17655	0.054638	0.32783	0.1516	0.10563	0.1105	-2.5042	-2.7896	-2.9146	-3.1917	-2.7833	-3.1813	-2.9646	-3.1771	-2.8021	-2.6292	-3.2	-2.975	-2.6854	-3.2167	-2.6958	-3.0271	301.420	241.368	305.043	416.406	323.724	300.337	480.295	150.505	499.432	196.350	459.301	252.721	456.645	223.191	329.350	501.777	0.00063959	9.0047e-05	0.00022043	1307	4.4251e-06	1.6142e-06	1318.4	366.23	8.3661e-06	7.3644e-06	409.57	139.41	122.47	41.478	9.9376e-06	52.247	0.0023755	0.0029994	0.0008264	1350	3.1239e-05	3.3e-05	1354.9	378.63	3.0753e-05	3.3178e-05	431.05	146.05	128.67	44.177	3.1876e-05	55.288	270.412	173.848	294.599	155.782	297.477	392.597	155.529	160.496	324.516	220.744	159.880	164.411	164.844	169.299	315.555	168.191	-8191	255	
41251.855	1	1	0	0	0.3301	0.13646	0.26325	0.09955	0.15933	0.19777	0.15491	0.16739	0.12224	0.21515	0.37472	0.083532	0.24298	0.18046	0.14925	0.17471	-2.5875	-2.8042	-3.0354	-3.0521	-2.7417	-2.9875	-2.8812	-2.9667	-3.0375	-2.8354	-3.2146	-3.025	-2.9042	-3.2104	-2.9313	-2.9354	202.420	293.610	437.441	470.956	182.971	272.674	166.315	195.581	401.129	153.689	448.549	250.725	442.936	226.126	377.983	443.949	0.0006598	0.00054721	0.00019133	1305.7	3.8357e-06	7.2363e-06	1314	365.72	2.8729e-06	8.636e-06	411.36	139.35	122.63	41.678	4.3248e-06	51.942	0.002367	0.003026	0.00080393	1348.6	3.1349e-05	3.2689e-05	1352.2	377.98	3.1168e-05	3.3122e-05	431.46	145.64	128.81	44.252	3.1278e-05	55.169	272.481	226.588	189.415	155.755	292.803	278.417	155.774	160.575	268.510	258.509	160.095	164.385	165.130	169.186	247.966	168.466	-8191	255	
41251.953	1	1	0	0	0.27722	0.026881	0.21753	0.41054	0.20043	0.31382	0.30653	0.19931	0.08163	0.094136	0.099583	0.27544	0.2759	0.10263	0.21875	0.017551	-2.8208	-2.6458	-2.8208	-3.2583	-2.7521	-3.2208	-3.0708	-2.9479	-3.125	-2.7646	-3.1417	-3.0792	-2.6583	-3.1042	-2.8396	-2.7667	295.926	309.489	472.327	478.600	338.375	343.347	461.239	453.725	185.322	364.353	314.229	190.998	403.019	483.794	441.389	184.638	0.00063916	0.00066317	0.00015069	1306.9	3.5891e-06	2.1094e-06	1313.6	365.11	6.3294e-06	4.7037e-06	412.18	138.85	122.19	41.652	9.9329e-06	52.113	0.0023991	0.0029727	0.00080101	1347.7	3.1697e-05	3.293e-05	1352.3	377.75	3.1379e-05	3.3378e-05	431.03	145.65	128.61	44.184	3.1484e-05	55.268	270.358	294.572	253.109	155.562	357.042	186.714	155.626	160.438	291.834	260.959	160.048	164.711	164.814	169.322	319.089	168.381	-8191	255	
41252.074	1	1	0	0	0.075441	0.19182	0.057184	0.08469	0.33248	0.057557	0.18794	0.10776	0.078677	0.19211	0.23252	0.251	0.14882	0.31879	0.082933	0.12177	-2.775	-2.8208	-2.7208	-3.1417	-2.675	-3.2292	-3.2625	-2.9458	-2.9062	-2.8479	-3.0167	-3.0896	-2.6854	-2.8563	-2.8625	-2.7375	469.504	143.175	443.058	476.490	175.249	312.921	459.927	429.057	501.678	179.757	501.160	488.806	500.629	142.870	172.115	415.100	0.00063132	0.00077359	0.00011097	1301	3.8063e-06	7.0974e-06	1313.9	363.22	5.2655e-06	5.7596e-06	410.04	138.92	122.37	41.745	7.3574e-06	52.12	0.0024319	0.0029971	0.00080876	1347.5	3.1722e-05	3.2924e-05	1352.7	378.13	3.1537e-05	3.3015e-05	430.69	145.83	128.69	44.255	3.1518e-05	55.288	267.841	228.776	250.411	155.826	243.068	285.972	155.656	160.598	280.765	382.087	159.524	164.107	164.873	169.471	375.468	168.474	-8191	255	
41252.168	1	1	0	0	0.20566	0.10692	0.10485	0.13643	0.050961	0.14848	0.26375	0.085297	0.11147	0.25878	0.17926	0.090431	0.20619	0.20182	0.16828	0.20578	-2.7313	-2.7917	-2.7479	-3.2062	-2.6833	-3.1042	-3.0896	-2.8792	-2.9042	-2.9875	-2.7521	-3.1063	-2.7625	-3.0521	-3.0938	-2.7625	320.043	263.871	180.171	223.061	173.846	265.562	400.647	416.491	162.516	193.158	461.497	165.849	161.466	476.045	311.708	227.775	0.00061058	0.00030106	9.4131e-05	1306.6	7.608e-06	8.6051e-06	1315.9	363.17	7.0013e-06	3.5793e-06	410.18	139.48	122.59	41.65	9.3603e-07	52.049	0.0024284	0.0029488	0.0008244	1348.3	3.177e-05	3.2302e-05	1353.2	377.26	3.1592e-05	3.2701e-05	431.3	145.91	128.77	44.161	3.1565e-05	55.343	272.432	356.057	242.068	155.807	303.522	268.447	155.869	160.508	336.339	393.184	159.829	164.238	164.804	169.487	296.727	168.519	-8191	255	
41252.266	1	1	0	0	0.35012	0.092695	0.274	0.24562	0.10754	0.1464	0.09715	0.19924	0.099379	0.05236	0.063782	0.15562	0.32701	0.36147	0.084562	0.32027	-2.5521	-2.8063	-2.7542	-3.3125	-2.8646	-3.1271	-3.2354	-3.0938	-3.2062	-2.9229	-2.8396	-3.2521	-2.7062	-3	-3.1229	-2.8604	356.401	439.595	386.903	403.464	169.571	427.027	391.750	476.678	419.178	333.863	196.078	444.039	171.077	224.036	380.610	464.633	0.00064648	0.00086128	0.00011109	1302	3.6845e-06	3.5007e-06	1316.7	364.58	9.3318e-06	6.2e-06	411.12	139.6	122.44	41.727	5.5826e-06	52.038	0.0023965	0.0029093	0.0008184	1347.5	3.1409e-05	3.2113e-05	1355	378.2	3.1482e-05	3.2172e-05	431.02	146.2	128.84	44.195	3.2063e-05	55.325	266.920	259.085	269.271	155.629	370.206	312.825	155.493	160.556	336.202	359.390	160.003	164.353	164.986	169.399	293.973	168.150	-8191	255	
41252.359	1	1	0	0	0.016373	0.21954	0.18379	0.26005	0.29288	0.11458	0.098126	0.12615	0.14432	0.40938	0.16179	0.22615	0.20924	0.025569	0.12471	0.026798	-2.7042	-2.8167	-2.8187	-3.3292	-2.6354	-3.1042	-3.2833	-2.6708	-3.1167	-3.0438	-2.8708	-3.1813	-2.8875	-2.9146	-3.1521	-2.8438	246.827	365.295	169.082	189.007	237.321	404.063	381.744	482.499	498.482	404.712	147.272	481.092	473.072	307.828	264.546	404.128	0.00063278	0.00071653	0.00010641	1307.4	6.7039e-06	6.1934e-06	1314.4	365.47	5.1608e-06	7.7665e-07	412.42	139.59	122.04	41.479	5.3505e-06	52.288	0.0023621	0.0028855	0.00082109	1349.3	3.0844e-05	3.1838e-05	1354.1	378.65	3.0653e-05	3.2045e-05	431.86	145.96	128.53	44.168	3.2377e-05	55.347	270.186	215.388	233.340	155.732	300.307	297.971	155.691	160.460	276.572	351.036	160.132	164.255	164.749	169.244	302.654	168.230	-8191	255	
41252.457	1	1	0	0	0.22562	0.22445	0.045033	0.228	0.093578	0.24273	0.27102	0.1648	0.13482	0.19338	0.17713	0.28784	0.14313	0.34514	0.22529	0.19631	-2.5208	-2.9917	-2.6437	-3.225	-2.9292	-2.6604	-3.1813	-2.9125	-2.9417	-2.9625	-2.9354	-3.2354	-2.8604	-2.825	-3.1771	-2.8042	196.298	363.610	402.552	432.748	366.291	252.815	432.791	303.600	488.000	142.721	177.148	471.932	158.647	194.118	343.864	425.842	0.00059122	0.0010229	3.0384e-05	1307.4	7.9297e-06	8.6049e-06	1317.5	365.32	9.0568e-06	4.8666e-06	410.94	139.5	122.52	41.678	4.2123e-06	52.093	0.0023554	0.0029002	0.00082217	1350.2	3.0839e-05	3.2289e-05	1355.2	378.69	3.039e-05	3.2625e-05	431.82	145.98	128.65	44.21	3.2348e-05	55.327	266.840	268.944	469.375	155.786	330.804	291.588	155.610	160.268	337.614	268.519	159.599	164.332	164.906	169.236	319.298	168.299	-8191	255	
41252.555	1	1	0	0	0.21904	0.061581	0.082834	0.36243	0.031532	0.17665	0.065067	0.26372	0.26374	0.19118	0.27873	0.1468	0.18983	0.10502	0.19384	0.46788	-2.5729	-3.0396	-2.6104	-3.0687	-2.8417	-2.65	-3.3667	-3.075	-2.7521	-3.1771	-2.8063	-3.175	-3.0812	-2.9458	-3.0563	-2.9979	267.474	417.981	198.256	482.306	478.642	478.531	183.422	441.233	386.134	347.122	404.329	375.777	319.833	235.038	309.873	411.094	0.00067556	0.00036669	0.00016479	1309.4	6.9188e-06	6.8592e-06	1318.5	364.93	5.5249e-06	1.4422e-06	412.08	139.83	122.28	41.857	8.3135e-06	52.209	0.002312	0.0029286	0.00082763	1350	3.0697e-05	3.2342e-05	1356.7	378.55	3.0387e-05	3.2539e-05	431.71	146.17	128.77	44.271	3.2466e-05	55.393	271.782	233.415	183.471	155.685	265.041	294.158	155.591	160.659	293.421	350.740	159.868	164.287	164.788	169.401	307.336	168.432	-8191	255	
41252.672	1	1	0	0	0.24017	0.11544	0.074269	0.13294	0.1725	0.2529	0.105	0.16389	0.10355	0.046027	0.11516	0.13421	0.1998	0.076677	0.23745	0.11056	-2.5104	-3.2313	-2.8063	-3.1958	-2.9042	-2.8396	-3.1167	-3.1063	-2.9896	-3.0854	-2.9458	-3.1833	-3.125	-2.7375	-3.1771	-3.025	198.720	349.716	371.794	218.963	343.639	392.356	399.409	499.946	263.346	370.276	292.485	278.153	490.477	171.790	376.339	468.635	0.00058784	3.6342e-05	6.5632e-05	1305.9	1.1168e-05	6.859e-07	1315.1	365.88	5.7447e-06	2.3513e-06	411.9	139.24	122.29	41.747	1.2792e-05	52.168	0.0023306	0.0029823	0.00083647	1349.1	3.11e-05	3.3132e-05	1355.2	378.29	3.0757e-05	3.3681e-05	432.07	145.76	128.66	44.275	3.2229e-05	55.333	265.515	177.763	179.932	155.800	268.828	341.972	155.681	160.596	319.136	251.882	159.885	164.466	164.854	169.181	309.679	168.364	-8191	255	
41252.766	1	1	0	0	0.067571	0.16444	0.21714	0.40319	0.17369	0.23164	0.098695	0.22963	0.12203	0.19757	0.17547	0.25598	0.19607	0.05335	0.12477	0.30035	-2.5062	-2.9854	-2.9042	-3.0292	-2.975	-2.8417	-3.1146	-2.9625	-2.8646	-3.0979	-2.9313	-2.9125	-3.1479	-2.6604	-3.0542	-3.0958	488.572	305.572	216.454	455.448	496.368	145.884	454.136	417.727	355.424	362.663	401.999	438.466	190.493	467.733	168.444	321.348	0.00063943	0.00060153	0.00027375	1305.3	6.0243e-06	9.0296e-06	1316.9	364.5	2.1387e-06	7.4916e-06	410.87	140.12	122.4	41.711	3.0031e-06	52.009	0.0023748	0.0030187	0.00083496	1347.9	3.0975e-05	3.2968e-05	1355.6	377.82	3.1105e-05	3.3338e-05	430.99	146.01	128.41	44.279	3.2409e-05	55.2	276.675	221.445	254.986	155.671	317.693	335.400	155.725	160.433	339.155	333.620	159.646	164.263	164.917	169.370	344.950	168.072	-8191	255	
41252.863	1	1	0	0	0.21931	0.13949	0.14946	0.30927	0.07184	0.17326	0.27816	0.2976	0.15004	0.009924	0.43694	0.020836	0.20429	0.26894	0.27451	0.25476	-2.1312	-2.9854	-2.9708	-3.0021	-3.1042	-2.8979	-3.1229	-3.0396	-2.7354	-3.0021	-3.0208	-2.9562	-3.2083	-2.9458	-2.8854	-3.1479	237.596	345.915	301.234	488.373	176.921	399.227	481.554	430.642	399.567	434.529	452.991	248.920	443.115	477.994	301.571	475.750	0.00061495	0.00046107	0.00017018	1305.8	1.0378e-05	1.0891e-05	1315.2	364.3	5.9719e-06	8.4031e-06	410.42	139.49	122.07	41.764	7.1405e-06	52.134	0.0023849	0.0030201	0.0008205	1349	3.1303e-05	3.3237e-05	1355	377.36	3.1614e-05	3.3498e-05	431.45	145.72	128.67	44.281	3.2197e-05	55.251	273.125	211.960	293.419	155.803	283.970	326.704	155.690	160.400	305.487	263.118	159.918	164.445	165.071	169.259	280.480	168.139	-8191	255	
41252.984	1	1	0	0	0.09847	0.18363	0.2977	0.085178	0.17884	0.052658	0.21856	0.37802	0.28886	0.29972	0.04556	0.30962	0.18375	0.11457	0.11972	0.24442	-2.4583	-3.0708	-2.8208	-2.9979	-3.075	-2.6604	-3.0521	-3.0854	-2.725	-3.0438	-2.9771	-3.0104	-3.3	-2.9521	-3.0146	-3.2083	255.485	199.795	432.772	336.518	429.180	374.111	457.540	427.859	155.273	435.124	481.754	478.401	387.349	466.705	362.000	490.132	0.00064242	0.00050331	0.00011387	1309.1	9.8141e-06	7.8811e-06	1312.4	364.49	6.2451e-06	6.1945e-06	409.94	139.33	122.21	41.708	4.0301e-06	52.296	0.0024268	0.0030569	0.00081927	1350.2	3.2049e-05	3.3486e-05	1353.7	377.87	3.1962e-05	3.3598e-05	431.14	145.87	128.69	44.213	3.1903e-05	55.308	269.276	249.346	292.227	155.826	275.141	277.518	155.595	160.548	329.235	303.246	159.742	164.308	164.998	169.362	291.885	168.442	-8191	255	
41253.055	1	1	0	0	0.21081	0.22203	0.0581	0.31367	0.10011	0.20026	0.13769	0.062	0.10579	0.11272	0.065703	0.22999	0.22448	0.069951	0.30111	0.025758	-2.2875	-2.825	-2.7375	-2.8937	-3.2208	-2.8292	-3.1958	-3.1667	-2.7896	-3	-3.0167	-2.6917	-3.2146	-3.075	-2.6792	-3.2812	261.991	406.729	213.217	163.501	282.561	166.862	465.382	501.794	438.695	432.629	391.466	401.405	387.431	183.503	458.556	379.775	0.00060478	0.00062953	0.00013977	1308.9	1.1117e-05	3.2741e-06	1317.5	366.15	5.3694e-06	5.8508e-06	411.26	139.27	122.54	41.814	8.8414e-06	52.331	0.0024454	0.0030258	0.00081753	1351	3.1834e-05	3.3412e-05	1355.7	378.58	3.1958e-05	3.3094e-05	431.51	145.81	128.86	44.247	3.1879e-05	55.439	270.470	268.327	261.539	155.753	333.415	316.167	155.721	160.444	321.305	392.269	159.812	164.301	164.935	169.312	317.238	168.174	-8191	255	
41253.152	1	1	0	0	0.13084	0.22108	0.21187	0.48922	0.27175	0.19363	0.35899	0.1968	0.19576	0.012053	0.18379	0.065586	0.22013	0.20483	0.051871	0.18198	-2.3646	-2.8333	-2.9375	-2.8979	-3.2313	-2.9354	-3.0604	-3.2521	-2.7208	-2.9625	-2.8854	-2.9	-3.1562	-2.8812	-2.9375	-3.3604	217.675	418.540	226.666	459.158	469.403	441.856	432.530	402.056	351.056	160.013	432.097	157.415	144.977	417.086	431.628	296.545	0.00068171	0.00035649	3.732e-05	1304.8	8.5521e-06	8.3494e-06	1318.2	364.85	3.4054e-06	9.6816e-06	411.73	139.52	122.53	41.5	9.1727e-06	52.04	0.0024289	0.0029959	0.00081507	1351	3.2375e-05	3.3024e-05	1354.9	378.95	3.2056e-05	3.3201e-05	431.93	146.02	128.82	44.178	3.2322e-05	55.403	270.751	429.395	288.959	155.703	319.253	248.539	155.604	160.203	299.653	302.552	159.890	164.215	164.853	169.275	317.305	168.368	-8191	255	
41253.246	1	1	0	0	0.17493	0.2644	0.15867	0.27647	0.10007	0.26317	0.10128	0.17095	0.023005	0.30515	0.18835	0.37643	0.16525	0.095437	0.29245	0.096527	-2.4062	-2.8146	-2.9542	-2.8292	-3.0292	-2.9542	-3.0312	-3.15	-2.7771	-3.0896	-3.0083	-2.925	-3.1104	-2.8729	-2.8021	-3.1104	461.961	485.597	200.028	478.619	248.504	200.448	377.147	173.446	225.953	440.692	393.664	393.012	426.493	176.124	455.466	381.775	0.00060477	0.00067761	0.00013563	1304.4	8.2945e-06	5.5182e-06	1313.8	365.3	3.964e-06	2.8713e-06	411.54	139.11	122.56	41.715	2.8138e-06	52.247	0.002435	0.0029995	0.00082753	1349	3.2144e-05	3.26e-05	1354.6	378.2	3.2204e-05	3.2866e-05	431.25	145.92	128.73	44.138	3.2414e-05	55.392	263.867	298.277	170.112	155.736	306.960	288.804	155.558	160.474	286.597	335.230	159.747	164.322	164.653	169.374	255.732	168.149	-8191	255	
41253.367	1	1	0	0	0.10815	0.14312	0.13308	0.054591	0.14819	0.12195	0.097362	0.12575	0.29052	0.048376	0.070359	0.14384	0.16406	0.18732	0.018321	0.16534	-2.4583	-2.7646	-3.1354	-2.9583	-3.0979	-2.8458	-2.9708	-3.1708	-2.8187	-2.8979	-3.1562	-2.9021	-3.0354	-3.1042	-2.8208	-3.2875	290.321	327.347	312.892	472.049	454.710	205.815	338.831	427.843	194.775	454.253	419.884	471.171	469.281	471.264	205.003	488.437	0.00068129	0.0010984	0.00014432	1309.1	1.3042e-05	6.1155e-06	1313.9	365.74	1.5274e-06	4.6647e-06	410.95	139.58	122.53	41.762	1.0079e-05	52.174	0.0024295	0.0029473	0.00082748	1350.6	3.1607e-05	3.245e-05	1353	378.56	3.1451e-05	3.2643e-05	432.08	146	128.85	44.226	3.2568e-05	55.361	260.829	248.867	260.570	155.674	302.915	291.310	155.501	160.497	204.272	468.548	159.748	164.372	164.960	169.305	321.441	168.441	-8191	255	
41253.465	1	1	0	0	0.093459	0.12785	0.11021	0.046656	0.34252	0.10707	0.25326	0.13762	0.16041	0.20643	0.19584	0.072232	0.19559	0.13647	0.18149	0.24159	-2.425	-2.8417	-3.0708	-2.9042	-2.9458	-2.8875	-2.9521	-3.1833	-2.9021	-2.7333	-3.0729	-2.9958	-3.0062	-3.1333	-2.6792	-3.0687	286.918	394.370	282.947	442.328	409.725	304.732	150.024	393.947	430.587	451.222	403.246	358.038	463.545	468.511	334.449	386.366	0.00062252	0.00038181	0.00032569	1306.4	6.7252e-06	3.5696e-06	1312.9	364.15	5.4516e-06	3.9758e-06	410.6	139.07	122.15	41.556	7.0985e-06	52.213	0.0024011	0.0029367	0.00084899	1350.3	3.1938e-05	3.2639e-05	1354.2	378.21	3.1541e-05	3.3449e-05	431.57	146.1	128.8	44.237	3.3839e-05	55.417	270.465	205.718	218.936	155.731	286.383	248.010	155.702	160.574	318.285	327.630	159.706	164.315	164.858	169.134	301.917	168.391	-8191	255	
41253.562	1	1	0	0	0.23021	0.41728	0.17894	0.23738	0.25767	0.19806	0.26285	0.16279	0.26274	0.20627	0.058243	0.20071	0.053427	0.081573	0.11614	0.10803	-2.5708	-2.8854	-2.9604	-2.8917	-2.7042	-3.1813	-2.9083	-3.1562	-2.8792	-2.7333	-3.1042	-2.9771	-3.1125	-3.1229	-2.8042	-3.1	268.776	201.665	218.007	500.115	376.577	219.618	500.679	451.076	486.662	165.235	333.583	217.816	452.204	151.448	151.995	257.798	0.00059094	0.0001541	0.00033128	1310.5	5.1255e-06	5.735e-06	1317.3	365.59	6.8159e-06	7.5473e-06	408.84	139.37	122.44	41.545	9.309e-06	52.07	0.0024373	0.003063	0.00086951	1349.9	3.1916e-05	3.3686e-05	1355	378.41	3.1844e-05	3.4355e-05	431.36	146.2	128.63	44.207	3.402e-05	55.419	272.920	200.607	228.249	155.720	312.458	313.181	155.827	160.627	299.277	318.399	159.940	164.218	164.873	169.360	320.032	168.211	-8191	255	
41253.633	1	1	0	0	0.094384	0.46627	0.32431	0.1661	0.11022	0.18042	0.22124	0.19253	0.19296	0.12417	0.28341	0.13331	0.25543	0.19175	0.056167	0.24476	-2.6417	-2.7792	-3.1729	-2.9167	-2.7896	-3.1562	-3.1167	-3.2125	-3.0021	-2.7542	-3.0875	-2.8563	-2.7896	-3.2333	-2.6792	-3.1729	452.866	289.118	428.666	158.358	395.285	239.227	433.309	386.398	380.524	352.864	442.730	406.277	465.959	465.097	167.494	455.991	0.0005877	0.00077516	0.00020299	1302.2	1.3553e-05	7.8226e-06	1313.7	364.78	5.4359e-06	6.2132e-06	411.26	139.16	122.51	41.884	5.2182e-06	51.998	0.0024499	0.003094	0.00087203	1349.1	3.2352e-05	3.4775e-05	1354.8	378.15	3.1808e-05	3.479e-05	431.84	145.63	128.74	44.291	3.3896e-05	55.305	266.754	226.465	224.209	155.725	302.645	285.057	155.828	160.504	287.775	278.872	159.752	164.401	164.886	169.271	329.385	168.343	-8191	255	
41253.754	1	1	0	0	0.27191	0.08879	0.1485	0.13783	0.27772	0.13127	0.20343	0.012216	0.038185	0.12032	0.15692	0.2817	0.30494	0.083089	0.32408	0.28071	-2.5979	-2.4271	-2.8979	-3.1542	-2.8542	-3.1083	-3.0771	-3.1667	-3.2188	-2.9313	-3.1958	-3.1375	-3.1188	-3.4708	-3.1479	-3.225	235.669	314.569	479.286	308.449	311.301	214.247	402.678	471.996	221.579	257.807	175.683	197.514	443.849	165.266	415.390	210.423	0.00064887	0.00028769	0.00023659	1304.3	6.3753e-06	1.5122e-05	1313.5	365.18	6.722e-06	9.4142e-07	409.76	138.88	122.31	41.732	3.4217e-06	52.02	0.0024186	0.0031201	0.00086081	1349.1	3.1936e-05	3.3929e-05	1353.2	378.41	3.1715e-05	3.4777e-05	431.15	145.82	128.76	44.254	3.3435e-05	55.33	266.219	273.453	296.449	155.640	315.287	317.014	155.385	160.571	295.425	228.613	159.815	164.285	164.886	169.453	465.129	168.256	-8191	255	
41253.848	1	1	0	0	0.036634	0.26358	0.032542	0.16834	0.14023	0.19045	0.14559	0.17655	0.041112	0.063668	0.18706	0.31845	0.19241	0.20929	0.15398	0.27852	-2.8812	-2.7458	-3.2229	-3.2667	-2.8312	-3.2229	-3.2708	-3.0938	-3.2292	-2.8312	-3.1937	-3.0938	-3.0104	-3.2313	-2.8167	-3.1375	222.034	415.047	456.942	457.651	203.992	227.870	424.454	486.446	367.565	274.921	476.578	501.370	482.558	145.792	209.550	405.618	0.00063587	0.0012571	0.0001397	1306.4	9.2791e-06	6.8665e-06	1314.5	365.01	2.2918e-06	3.0352e-06	409.52	138.97	121.97	41.615	5.3075e-06	52.223	0.0024464	0.0031437	0.00084558	1349.1	3.2648e-05	3.4376e-05	1355.8	378.35	3.2305e-05	3.4795e-05	431.77	145.98	128.69	44.261	3.3587e-05	55.353	266.588	223.866	174.623	155.961	300.147	311.666	155.840	160.543	241.670	349.572	159.754	164.365	165.041	169.333	333.096	168.341	-8191	255	
41253.945	1	1	0	0	0.27193	0.15582	0.077287	0.16531	0.064756	0.24872	0.24644	0.28668	0.010913	0.061113	0.22691	0.31746	0.23588	0.13945	0.12853	0.26565	-2.8375	-2.9729	-3.0708	-3.3271	-2.8896	-3.3417	-3.0458	-3.1063	-3.3354	-2.9	-3.2646	-3.2687	-3.0417	-3.3063	-3.0875	-3.0062	472.794	484.857	372.065	457.388	499.052	142.779	422.313	486.716	352.136	347.426	279.364	145.754	456.745	402.281	473.473	373.058	0.00060399	0.00039409	0.00027095	1304.3	1.1006e-05	8.9136e-06	1316.3	363.2	5.6204e-06	4.8652e-06	412.03	139.54	122.49	41.593	6.1405e-06	52.068	0.0024951	0.0031342	0.00084806	1348.9	3.2888e-05	3.4745e-05	1353.8	377.9	3.2403e-05	3.4601e-05	431.67	145.82	128.93	44.241	3.2788e-05	55.315	276.335	195.557	239.716	155.702	336.683	310.248	155.587	160.457	281.035	365.837	159.761	164.417	164.656	169.090	292.061	168.519	-8191	255	
41254.062	1	1	0	0	0.18023	0.16308	0.3228	0.28292	0.11166	0.17388	0.34415	0.21971	0.16957	0.21149	0.21975	0.078842	0.37567	0.13328	0.051518	0.13102	-2.8063	-2.95	-2.9833	-3.2562	-2.6958	-3.2125	-3.2979	-2.8333	-3.2958	-2.9417	-3.2	-3.3438	-2.9042	-3.2896	-3.0333	-3	433.680	192.150	183.221	150.943	431.806	412.755	444.467	410.694	474.768	394.632	490.447	196.410	494.623	405.577	426.071	436.941	0.00056636	0.00071327	0.00010121	1307.3	1.0501e-05	2.4875e-06	1319.7	365.77	8.4686e-06	1.7838e-06	411.4	138.65	122.36	41.638	5.8465e-06	52.282	0.0025064	0.003124	0.00083842	1348	3.2902e-05	3.4416e-05	1355.2	378.69	3.2548e-05	3.4234e-05	431.26	145.72	128.76	44.2	3.2265e-05	55.351	271.417	165.667	275.574	155.825	303.833	275.224	155.659	160.488	304.867	268.581	159.622	164.474	164.829	168.986	302.593	168.348	-8191	255	
41254.160	1	1	0	0	0.19302	0.14099	0.13554	0.2523	0.087013	0.074903	0.14179	0.12568	0.059692	0.16046	0.14158	0.12382	0.10755	0.17846	0.027098	0.35023	-2.65	-2.9188	-3.0625	-3.3187	-2.9708	-3.1229	-3.2646	-3.0604	-3.2271	-3.0958	-3.1542	-3.4542	-2.9604	-3.1292	-3.3063	-2.9125	232.734	158.673	297.599	449.845	453.532	323.120	409.455	313.482	355.666	253.164	480.288	473.361	399.501	205.479	369.264	486.694	0.00060664	9.1072e-05	0.00017179	1306.7	7.3906e-06	7.2958e-06	1319.4	364.09	4.5295e-06	2.9679e-06	408.93	139.21	122.05	41.811	8.8852e-06	52.041	0.0024853	0.0030564	0.00083346	1349.7	3.2339e-05	3.3618e-05	1355.6	378.18	3.2455e-05	3.3648e-05	431.19	145.83	128.65	44.233	3.2428e-05	55.333	267.478	246.712	240.060	155.710	281.411	286.893	155.640	160.450	275.400	203.224	160.080	164.274	164.939	169.459	299.935	168.189	-8191	255	
41254.258	1	1	0	0	0.28504	0.10646	0.17977	0.28512	0.1654	0.30918	0.14772	0.2155	0.32865	0.23108	0.17896	0.0035182	0.28736	0.15544	0.21344	0.28755	-2.6979	-2.8438	-2.9229	-3.3063	-3.0042	-2.875	-3.2521	-3.0167	-3.2375	-3.0687	-3.0583	-3.3021	-2.9813	-3.1688	-3.3042	-2.9854	449.880	278.384	308.406	487.494	164.418	285.757	486.553	399.155	497.294	362.560	380.816	205.611	433.499	208.424	382.321	411.799	0.00058246	0.00036045	0.00020269	1302.4	1.2335e-05	5.3261e-06	1316.7	365.15	6.5503e-06	5.9059e-06	411.53	138.94	122.86	41.783	7.1521e-06	52.132	0.0024651	0.0030387	0.00083158	1349	3.2987e-05	3.3574e-05	1354.3	378.55	3.2469e-05	3.3657e-05	431.26	145.93	128.9	44.26	3.3185e-05	55.41	266.572	227.331	239.886	155.798	301.118	160.923	155.555	160.404	344.995	224.663	159.773	164.335	164.602	169.517	298.662	168.183	-8191	255	
41254.352	1	1	0	0	0.28011	0.013876	0.17041	0.10706	0.051201	0.20579	0.06081	0.1135	0.21743	0.061002	0.1947	0.15051	0.079732	0.13028	0.13151	0.11015	-2.7021	-3.2313	-2.8958	-3.4042	-3.0438	-3.0771	-3.4396	-3.1708	-3.1604	-3.0042	-2.9542	-3.2667	-3.0979	-3	-3.1771	-3.0292	488.956	417.209	445.141	438.689	370.092	180.029	339.215	405.444	457.892	343.516	451.377	460.327	335.517	173.658	348.553	259.000	0.00054071	0.00063117	0.00022898	1301.2	3.6735e-06	7.6553e-06	1316.9	363.9	7.8755e-06	2.3095e-06	411.14	139.04	121.58	41.671	8.4814e-06	52.309	0.0024975	0.0030428	0.00085244	1348.6	3.2961e-05	3.3355e-05	1353.3	377.86	3.2817e-05	3.3817e-05	431.95	145.9	128.45	44.218	3.3736e-05	55.381	270.771	499.042	204.532	155.818	336.431	326.243	155.824	160.585	338.992	332.030	159.951	164.580	164.729	169.138	295.731	168.130	-8191	255	
41254.449	1	1	0	0	0.24282	0.18093	0.050524	0.17034	0.2044	0.22165	0.38811	0.22812	0.22731	0.092944	0.20147	0.21128	0.12665	0.21841	0.11335	0.20004	-2.8104	-3.25	-2.8208	-3.3375	-2.9333	-2.925	-3.3917	-3.1021	-3.1104	-3.2104	-2.9083	-3.075	-3.0417	-3.1688	-3.2167	-3	339.383	310.124	402.454	438.229	312.898	260.071	421.514	432.539	269.562	432.661	463.997	183.599	240.538	488.245	411.918	227.488	0.00061603	0.00070549	0.0003347	1306.1	6.4887e-06	5.5124e-06	1313	364.49	6.3436e-06	8.0816e-06	410.75	139.12	121.41	41.666	8.332e-06	51.789	0.0025044	0.0030922	0.00086591	1349.1	3.287e-05	3.3881e-05	1352.2	378.06	3.2641e-05	3.4039e-05	432.27	146.01	128.5	44.116	3.3968e-05	55.29	277.220	235.537	232.408	155.868	372.672	200.341	155.590	160.750	330.836	307.697	159.931	164.299	164.708	169.409	289.802	168.248	-8191	255	
41254.547	1	1	0	0	0.12077	0.085727	0.068473	0.20335	0.15019	0.18897	0.26198	0.15194	0.19938	0.12076	0.32136	0.16406	0.2945	0.21958	0.33729	0.25754	-2.6312	-3.1208	-2.85	-3.2667	-3.0604	-2.9792	-3.4583	-3.0187	-2.9146	-3.1708	-2.9646	-3.3063	-3.1	-2.9625	-3.1521	-3.0792	344.186	390.493	483.270	490.806	383.742	488.381	461.752	469.030	320.747	201.225	449.582	176.925	384.200	269.497	412.024	389.120	0.00067949	0.00056489	0.00017839	1303.8	1.0219e-05	5.4464e-06	1314.6	363.91	6.1293e-06	2.7313e-06	410.26	139.1	122.11	41.769	2.3387e-06	51.852	0.0024863	0.0030938	0.00087249	1349.7	3.2569e-05	3.4146e-05	1353.8	377.85	3.1827e-05	3.4216e-05	431.97	146.01	128.6	44.238	3.415e-05	55.249	275.242	196.652	228.224	155.782	313.795	259.642	155.640	160.536	342.368	323.235	159.630	164.559	164.886	169.261	279.268	168.331	-8191	255	
41254.664	1	1	0	0	0.099402	0.16286	0.1022	0.28126	0.15619	0.29735	0.33752	0.15911	0.12774	0.16071	0.13096	0.19695	0.11082	0.0098165	0.024015	0.21792	-2.6792	-3.1979	-2.8583	-3.3458	-3.0792	-3.0021	-3.4979	-3.35	-2.9208	-3.2979	-2.9292	-3.2	-3.3312	-3.0146	-3.1188	-3.05	361.191	169.411	440.161	473.926	299.823	337.127	470.518	388.486	349.577	469.956	421.646	158.211	397.242	492.663	149.777	370.370	0.00060354	0.00040344	0.00017819	1304.7	7.4658e-06	1.0411e-05	1311.5	364.52	9.6593e-06	9.6888e-07	410.71	139.16	122.21	41.628	4.9384e-06	52.182	0.0024099	0.0030836	0.00087189	1348.6	3.1736e-05	3.378e-05	1353	378.2	3.1809e-05	3.3887e-05	431.43	145.83	128.58	44.255	3.3288e-05	55.287	273.812	197.641	255.886	155.685	271.172	288.471	155.660	160.453	304.789	422.758	159.850	164.110	164.740	169.198	283.282	168.222	-8191	255	
41254.762	1	1	0	0	0.17321	0.19758	0.066584	0.38869	0.055767	0.17119	0.1815	0.083673	0.021479	0.42179	0.10487	0.088099	0.36661	0.20649	0.12457	0.17709	-2.5125	-3.0667	-2.8146	-3.2625	-3.2625	-2.9125	-3.375	-3.35	-3.0667	-3.2625	-3.1813	-3.1312	-3.4229	-3.025	-3.1333	-3.1354	419.177	390.412	261.180	160.774	381.437	370.845	477.462	488.156	411.165	451.970	478.933	436.677	458.623	145.672	411.040	212.829	0.00062536	0.0008535	0.00021954	1303.6	3.4958e-06	5.4895e-06	1313.5	365.15	2.7291e-06	3.1952e-06	409.47	139.17	122.54	41.616	4.747e-06	51.974	0.0024148	0.0030738	0.00086264	1346.8	3.1524e-05	3.4311e-05	1352.1	377.93	3.1551e-05	3.4565e-05	431.86	145.56	128.57	44.247	3.412e-05	55.219	268.954	176.360	200.403	155.901	266.373	253.504	155.810	160.395	270.613	397.730	159.960	164.164	164.703	169.413	272.736	168.283	-8191	255	
41254.855	1	1	0	0	0.10854	0.20889	0.28035	0.14487	0.072242	0.14509	0.33503	0.11926	0.2565	0.13367	0.34418	0.031162	0.20648	0.18124	0.18959	0.0014982	-2.3896	-3.2313	-3.0292	-3.1458	-3.2167	-2.9333	-3.2313	-3.3042	-2.8438	-3.2896	-3.1688	-3.0583	-3.2229	-3.0604	-3.0604	-3.1729	260.792	249.434	437.437	463.782	305.283	427.812	430.177	495.990	382.607	402.745	163.216	224.936	404.269	231.984	408.838	180.000	0.00071406	0.0008408	0.00016052	1307.6	6.6745e-06	1.1031e-05	1309.3	363.15	5.6875e-06	1.5452e-06	412.19	139.13	122.67	41.702	1.1144e-05	51.853	0.0024465	0.0031352	0.0008758	1347.5	3.2848e-05	3.4838e-05	1350.9	377.17	3.2218e-05	3.4994e-05	431.75	145.89	128.68	44.22	3.3687e-05	55.204	260.808	259.111	224.959	155.895	320.299	286.501	155.678	160.370	285.504	355.935	159.789	164.363	164.899	169.330	304.596	168.329	-8191	255	
41254.930	1	1	0	0	0.064766	0.12614	0.35282	0.27082	0.18173	0.088224	0.12072	0.44089	0.069306	0.22909	0.27369	0.26162	0.2651	0.13354	0.10832	0.29646	-2.4646	-2.9333	-2.9042	-3.0875	-3.1375	-2.9688	-3.3708	-3.1937	-2.8812	-3.1979	-3.2375	-3.0146	-3.3229	-2.9604	-3.0979	-3.2812	300.098	266.526	381.952	152.998	412.714	154.708	497.989	478.256	161.257	446.621	499.424	159.069	395.687	158.142	403.849	445.046	0.00065135	0.00077385	0.00024781	1304.2	1.009e-05	8.9254e-06	1313.6	363.03	7.5293e-06	7.0304e-06	410.18	138.89	122.61	41.554	1.0326e-06	51.725	0.0024909	0.0031904	0.00086496	1347.3	3.28e-05	3.4731e-05	1351.2	377.13	3.2504e-05	3.494e-05	430.75	145.4	128.67	44.202	3.3197e-05	55.174	270.511	211.766	233.555	155.716	294.724	275.306	155.570	160.552	303.997	292.789	159.653	164.231	164.619	169.301	377.588	168.212	-8191	255	
41255.027	1	1	0	0	0.23172	0.067359	0.2093	0.40025	0.039437	0.14031	0.086294	0.11461	0.10393	0.098193	0.39834	0.25751	0.23781	0.089661	0.24562	0.15917	-2.5646	-3.2479	-3.0375	-3.1167	-3.2562	-2.9667	-3.3417	-3.3375	-3.025	-3.2521	-3.0917	-2.9958	-3.3104	-3.0979	-2.9396	-3.3458	152.122	312.058	206.800	477.122	171.695	243.463	389.393	468.789	325.987	214.707	400.289	209.651	185.735	274.942	281.777	497.693	0.00060328	0.0012171	0.00010279	1303.2	1.5539e-05	6.2342e-06	1313.1	363.82	6.5793e-06	5.5235e-06	412.15	138.84	122.5	41.629	7.0307e-06	52.212	0.0025054	0.0031375	0.00084661	1346.4	3.3117e-05	3.4633e-05	1350.8	377.63	3.3263e-05	3.5389e-05	431.62	145.58	128.57	44.184	3.3323e-05	55.266	274.637	197.016	285.931	155.785	285.390	326.033	155.681	160.542	331.033	281.857	159.773	164.352	164.709	169.438	301.790	168.135	-8191	255	
41255.145	1	1	0	0	0.25318	0.26042	0.082693	0.2952	0.15753	0.19416	0.25669	0.093252	0.18264	0.34012	0.23302	0.13793	0.25826	0.20967	0.0078906	0.28648	-2.6167	-3.1958	-3.2396	-3.0521	-3.2083	-2.9292	-3.1083	-3.4604	-2.9313	-3.1875	-3.3	-2.9771	-3.4021	-3.0542	-2.8	-3.2479	329.715	299.128	456.783	146.712	235.965	470.793	415.550	441.007	156.838	441.801	207.091	319.043	389.828	469.033	229.198	484.821	0.00064836	0.00045662	0.00029299	1300.4	5.2579e-06	2.9028e-06	1308.5	363.76	4.8512e-06	6.7942e-06	409.81	139.32	122.33	41.445	5.6014e-06	51.757	0.0025611	0.0031806	0.00085447	1346.8	3.4181e-05	3.4838e-05	1348.7	377.6	3.3553e-05	3.5089e-05	431.33	145.7	128.61	44.153	3.402e-05	55.236	263.034	250.035	236.008	155.851	264.556	285.390	155.739	160.573	343.105	330.322	159.802	164.276	164.913	169.133	360.858	168.439	-8191	255	
41255.242	1	1	0	0	0.2906	0.079059	0.11269	0.2361	0.3663	0.23251	0.13111	0.17661	0.10288	0.042347	0.2417	0.23961	0.078522	0.32354	0.1094	0.36505	-2.5125	-3.1688	-3.0625	-3.1042	-2.9917	-3.0292	-3.2479	-3.3229	-2.95	-2.9396	-3.4125	-2.9958	-3.2396	-3.1667	-3.0542	-3.3021	307.080	219.817	361.485	492.912	303.039	355.002	409.013	475.889	255.290	151.152	353.081	460.169	199.074	155.812	279.702	492.037	0.00066898	0.0006926	8.6029e-05	1298.6	1.086e-05	3.7772e-06	1306.7	364.45	5.2538e-06	9.5001e-06	411.4	139.11	121.55	41.659	3.0156e-06	52.033	0.0025888	0.0031989	0.00086614	1346.8	3.4155e-05	3.4844e-05	1349.7	377.96	3.4088e-05	3.5078e-05	431.72	145.74	128.39	44.185	3.422e-05	55.399	263.786	252.070	235.412	155.731	326.475	377.073	155.707	160.473	321.346	280.243	159.774	164.289	164.689	169.218	463.515	168.183	-8191	255	
41255.336	1	1	0	0	0.13338	0.05029	0.1561	0.22681	0.36231	0.23216	0.23924	0.21488	0.092075	0.14259	0.10661	0.079371	0.085816	0.13804	0.098416	0.23755	-2.6	-2.8854	-3.1333	-3.1	-3.1625	-3.0125	-3.1729	-3.5375	-3.0271	-3.0708	-3.325	-3.0062	-3.2146	-3.1625	-2.7917	-3.3125	455.806	348.508	308.930	501.810	215.251	155.454	435.160	493.229	295.165	191.603	166.747	198.140	501.141	179.040	320.996	280.102	0.00060962	0.00050227	0.00037644	1300.2	3.2807e-06	5.1872e-07	1314	363.59	7.0921e-06	4.7414e-06	411.39	138.71	121.86	41.637	6.0477e-06	51.84	0.0025879	0.0031791	0.00087262	1347.9	3.4147e-05	3.4682e-05	1352.4	377.61	3.4122e-05	3.4937e-05	431.43	145.82	128.57	44.173	3.4741e-05	55.307	267.967	278.143	197.202	155.754	343.308	479.870	155.683	160.577	318.790	317.293	159.669	164.244	164.852	169.316	326.196	168.256	-8191	255	
41255.434	1	1	0	0	0.26261	0.27516	0.24604	0.32751	0.18883	0.21199	0.24414	0.048559	0.13748	0.059251	0.16113	0.41763	0.31358	0.25127	0.28508	0.061836	-2.5708	-2.8708	-3.1375	-3.1833	-3.0896	-3.2062	-3.1583	-3.3729	-3.0896	-2.8167	-3.3	-2.9667	-3.0458	-3.1229	-3.0271	-3.1958	309.908	300.438	465.757	482.222	231.880	158.877	432.712	448.437	488.995	449.866	487.923	436.376	444.292	453.397	219.173	494.026	0.000584	0.00079569	0.0001893	1304.6	4.7024e-06	7.5668e-06	1313.5	364.52	5.602e-06	8.9541e-06	410.63	139.5	121.88	41.606	3.2459e-06	51.856	0.0025701	0.0031299	0.00088438	1350.6	3.4417e-05	3.4916e-05	1355	378.94	3.3406e-05	3.4999e-05	432.2	145.87	128.41	44.18	3.5171e-05	55.343	277.142	255.488	213.673	155.708	331.709	325.534	155.791	160.457	299.059	311.739	159.767	164.221	164.768	169.352	312.495	168.318	-8191	255	
#DATA ENDS
