BOXY.EXE: ISS Imagent and Oximeter Data Acquisition Program Version 0.80
Ascii Record File

#ACQ INFORMATION
2  Detector Channels 
16  External MUX Channels 
1  Auxiliary Channels 
5000  Waveform (CCF) Frequency (Hz)
1  Waveforms Skipped 
30  Waveforms Averaged 
1  Cycles Averaged 
16  Acquisitions per Waveform 
10.0806  Updata Rate (Hz) 

#FILE INFORMATION
TRUE -- External MUX Channel results are PARSED.
FALSE -- AC DC and Phase are NOT grouped.
TRUE -- Companion Program Settings File CREATED.
FALSE -- AC data not excluded
FALSE -- DC data not excluded
FALSE -- Phase data not excluded
FALSE -- Auxillary Chn. data not excluded
Tab delimiters

#CALIBRATION STATE
TRUE -- Waveform Calibration Values APPLIED.


#AUX CALIBRATION VALUES
Val Type	aux-1	

Term	1.0000e+00	
Factor	0.0000e+00	


#WF CALIBRATION VALUES
A = Detector Channel
Val Type	A-AC1	A-AC2	A-AC3	A-AC4	A-AC5	A-AC6	A-AC7	A-AC8	A-AC9	A-AC10	A-AC11	A-AC12	A-AC13	A-AC14	A-AC15	A-AC16	A-DC1	A-DC2	A-DC3	A-DC4	A-DC5	A-DC6	A-DC7	A-DC8	A-DC9	A-DC10	A-DC11	A-DC12	A-DC13	A-DC14	A-DC15	A-DC16	A-Ph1	A-Ph2	A-Ph3	A-Ph4	A-Ph5	A-Ph6	A-Ph7	A-Ph8	A-Ph9	A-Ph10	A-Ph11	A-Ph12	A-Ph13	A-Ph14	A-Ph15	A-Ph16	

Term	0.00000e+00	0.00000e+00	0.00000e+00	0.00000e+00	0.00000e+00	0.00000e+00	0.00000e+00	0.00000e+00	0.00000e+00	0.00000e+00	0.00000e+00	0.00000e+00	0.00000e+00	0.00000e+00	0.00000e+00	0.00000e+00	0.00000e+00	0.00000e+00	0.00000e+00	0.00000e+00	0.00000e+00	0.00000e+00	0.00000e+00	0.00000e+00	0.00000e+00	0.00000e+00	0.00000e+00	0.00000e+00	0.00000e+00	0.00000e+00	0.00000e+00	0.00000e+00	0.00000e+00	0.00000e+00	0.00000e+00	0.00000e+00	0.00000e+00	0.00000e+00	0.00000e+00	0.00000e+00	0.00000e+00	0.00000e+00	0.00000e+00	0.00000e+00	0.00000e+00	0.00000e+00	0.00000e+00	0.00000e+00	
Factor	1.00000e+00	1.00000e+00	1.00000e+00	1.00000e+00	1.00000e+00	1.00000e+00	1.00000e+00	1.00000e+00	1.00000e+00	1.00000e+00	1.00000e+00	1.00000e+00	1.00000e+00	1.00000e+00	1.00000e+00	1.00000e+00	1.00000e+00	1.00000e+00	1.00000e+00	1.00000e+00	1.00000e+00	1.00000e+00	1.00000e+00	1.00000e+00	1.00000e+00	1.00000e+00	1.00000e+00	1.00000e+00	1.00000e+00	1.00000e+00	1.00000e+00	1.00000e+00	X	X	X	X	X	X	X	X	X	X	X	X	X	X	X	X	

B = Detector Channel
Val Type	B-AC1	B-AC2	B-AC3	B-AC4	B-AC5	B-AC6	B-AC7	B-AC8	B-AC9	B-AC10	B-AC11	B-AC12	B-AC13	B-AC14	B-AC15	B-AC16	B-DC1	B-DC2	B-DC3	B-DC4	B-DC5	B-DC6	B-DC7	B-DC8	B-DC9	B-DC10	B-DC11	B-DC12	B-DC13	B-DC14	B-DC15	B-DC16	B-Ph1	B-Ph2	B-Ph3	B-Ph4	B-Ph5	B-Ph6	B-Ph7	B-Ph8	B-Ph9	B-Ph10	B-Ph11	B-Ph12	B-Ph13	B-Ph14	B-Ph15	B-Ph16	

Term	0.00000e+00	0.00000e+00	0.00000e+00	0.00000e+00	0.00000e+00	0.00000e+00	0.00000e+00	0.00000e+00	0.00000e+00	0.00000e+00	0.00000e+00	0.00000e+00	0.00000e+00	0.00000e+00	0.00000e+00	0.00000e+00	0.00000e+00	0.00000e+00	0.00000e+00	0.00000e+00	0.00000e+00	0.00000e+00	0.00000e+00	0.00000e+00	0.00000e+00	0.00000e+00	0.00000e+00	0.00000e+00	0.00000e+00	0.00000e+00	0.00000e+00	0.00000e+00	-1.62186e+02	-1.31730e+02	-1.27311e+02	-1.82839e+02	-7.22027e+01	-7.27005e+01	-1.55569e+02	-1.62015e+02	-8.76372e+01	-5.40435e+01	-1.72178e+02	-1.69985e+02	-1.81095e+02	-1.77169e+02	-7.66771e+01	-1.49038e+02	
Factor	2.42245e-05	1.56023e-04	3.81428e-05	1.75312e-01	1.40971e-06	1.64037e-06	1.54563e-01	4.71353e-02	1.24050e-06	1.69146e-06	8.91026e-02	2.75073e-02	2.74061e-02	8.82892e-03	1.31004e-06	1.28598e-02	5.15665e-06	6.04778e-06	1.70279e-06	8.69371e-02	6.52167e-08	6.74084e-08	7.23543e-02	2.35215e-02	6.47762e-08	6.74149e-08	4.30885e-02	1.33832e-02	1.37951e-02	4.43508e-03	6.56277e-08	6.27281e-03	X	X	X	X	X	X	X	X	X	X	X	X	X	X	X	X	



#DISTANCE SETTINGS
A = Detector Channel
A-1	A-2	A-3	A-4	A-5	A-6	A-7	A-8	A-9	A-10	A-11	A-12	A-13	A-14	A-15	A-16	

2.5000e+00	3.0000e+00	2.5000e+00	3.0000e+00	2.0000e+00	3.0000e+00	1.5000e+00	3.0000e+00	3.0000e+00	3.0000e+00	3.0000e+00	3.0000e+00	3.0000e+00	3.0000e+00	1.5000e+00	3.0000e+00	

B = Detector Channel
B-1	B-2	B-3	B-4	B-5	B-6	B-7	B-8	B-9	B-10	B-11	B-12	B-13	B-14	B-15	B-16	

1.0000e+01	1.0000e+01	1.0000e+01	1.4400e+00	1.0000e+01	1.0000e+01	1.5100e+00	1.9400e+00	1.0000e+01	1.0000e+01	1.9900e+00	2.4900e+00	2.4100e+00	2.9000e+00	1.0000e+01	2.9800e+00	




#DATA BEGINS
time	group	step	mark	flag	A-AC1	A-AC2	A-AC3	A-AC4	A-AC5	A-AC6	A-AC7	A-AC8	A-AC9	A-AC10	A-AC11	A-AC12	A-AC13	A-AC14	A-AC15	A-AC16	A-DC1	A-DC2	A-DC3	A-DC4	A-DC5	A-DC6	A-DC7	A-DC8	A-DC9	A-DC10	A-DC11	A-DC12	A-DC13	A-DC14	A-DC15	A-DC16	A-Ph1	A-Ph2	A-Ph3	A-Ph4	A-Ph5	A-Ph6	A-Ph7	A-Ph8	A-Ph9	A-Ph10	A-Ph11	A-Ph12	A-Ph13	A-Ph14	A-Ph15	A-Ph16	B-AC1	B-AC2	B-AC3	B-AC4	B-AC5	B-AC6	B-AC7	B-AC8	B-AC9	B-AC10	B-AC11	B-AC12	B-AC13	B-AC14	B-AC15	B-AC16	B-DC1	B-DC2	B-DC3	B-DC4	B-DC5	B-DC6	B-DC7	B-DC8	B-DC9	B-DC10	B-DC11	B-DC12	B-DC13	B-DC14	B-DC15	B-DC16	B-Ph1	B-Ph2	B-Ph3	B-Ph4	B-Ph5	B-Ph6	B-Ph7	B-Ph8	B-Ph9	B-Ph10	B-Ph11	B-Ph12	B-Ph13	B-Ph14	B-Ph15	B-Ph16	aux-1	digaux	

2331.925	1	1	0	256	0.040919	0.11002	0.14689	0.1135	0.094152	0.3341	0.19393	0.14461	0.14871	0.024508	0.10928	0.063672	0.079996	0.11966	0.028766	0.063159	-2.8937	-3.3708	-3.3708	-3.2854	-3.5104	-3.4292	-3.3146	-3.6188	-3.3167	-3.3271	-3.4479	-3.1417	-3.5167	-3.3187	-3.1521	-3.6146	-0.945	-81.865	-169.439	-38.101	181.860	83.117	179.860	97.079	-62.506	-77.558	82.983	72.355	173.891	-143.125	-141.216	125.668	0.00026446	0.00030853	2.8554e-05	522.79	2.1813e-06	1.0614e-06	403.52	156.57	2.4821e-06	1.3796e-06	161.35	59.65	56.806	23.181	1.527e-06	30.282	0.00049624	0.00051509	0.00014491	511.27	5.7346e-06	5.8863e-06	400.71	154.76	5.8918e-06	5.9036e-06	160.22	59.248	56.713	23.13	5.8711e-06	30.308	160.807	-34.716	124.538	-160.975	-83.883	52.263	-161.942	-156.364	-156.675	67.006	-158.992	-154.911	-152.545	-147.090	-48.603	-149.937	-8191	255	
2332.021	1	1	0	0	0.38677	0.15958	0.077098	0.22787	0.20882	0.19141	0.18048	0.10702	0.1852	0.23647	0.28447	0.22906	0.09065	0.19844	0.16825	0.082063	-2.8729	-3.2938	-3.5333	-3.0875	-3.4146	-3.4042	-3.3708	-3.6375	-3.2604	-3.1854	-3.6521	-3.1333	-3.3854	-3.5771	-3.2271	-3.3333	84.680	-45.309	-91.238	177.478	167.743	43.897	180.972	-81.813	150.310	8.802	-125.177	97.085	173.360	-148.975	-98.278	71.364	0.00032759	0.00016492	7.1795e-05	485.91	4.2776e-06	2.6028e-06	409.85	165.1	5.0533e-06	2.6535e-06	183.77	68.119	63.614	26.778	2.5146e-06	34.181	0.00052267	0.00054381	0.00015494	478.95	6.0902e-06	6.2349e-06	406.18	162.74	6.1678e-06	6.3628e-06	182.29	67.666	63.247	26.621	6.4933e-06	34.178	174.068	-79.620	-109.952	-160.470	-45.447	-22.664	-161.970	-156.004	-110.087	-41.526	-158.596	-154.652	-152.289	-146.389	-62.426	-150.469	-8191	255	
2332.141	1	1	0	0	0.13419	0.0088624	0.21676	0.098328	0.095911	0.04943	0.26811	0.14854	0.12038	0.35786	0.085139	0.32736	0.089975	0.13521	0.11488	0.24305	-2.9833	-3.1104	-3.4771	-3.2229	-3.3583	-3.5167	-3.0812	-3.4333	-3.3208	-3.1479	-3.4896	-3.4104	-3.3333	-3.2458	-3.0146	-3.3167	6.656	28.337	-27.831	-60.305	-98.495	7.734	175.131	129.066	156.989	127.021	-49.459	137.741	-157.195	97.709	-164.353	109.633	0.00042785	0.0006143	0.00010035	494.2	3.8691e-06	2.0643e-06	413.91	175.95	3.0579e-06	2.193e-06	190.05	70.691	67.32	28.041	2.9035e-06	35.393	0.00056258	0.00059169	0.0001677	488.23	6.4149e-06	6.5626e-06	411.37	173.52	6.4833e-06	6.7843e-06	188.99	70.745	66.667	27.953	6.7613e-06	35.292	168.208	-81.030	-100.962	-160.262	-19.023	-93.790	-161.208	-155.871	-69.861	-9.545	-158.593	-154.516	-152.299	-146.525	-30.179	-150.074	-8191	255	
2332.213	1	1	0	0	0.33517	0.055229	0.13937	0.12869	0.16648	0.089123	0.13829	0.087616	0.18056	0.006511	0.067222	0.12002	0.057883	0.12374	0.14929	0.21816	-2.7021	-3.1688	-3.5479	-3.2646	-3.0875	-3.5667	-3.2917	-3.3021	-3.3521	-3.1354	-3.5646	-3.2062	-3.2562	-3.4229	-3.1979	-3.3833	-0.463	15.768	-42.169	185.307	19.404	-86.708	177.187	71.366	-43.879	117.481	-131.107	-147.532	175.577	-116.084	-10.487	128.327	0.00047504	0.00032716	0.00010729	495.76	6.0962e-06	2.9401e-06	418.01	177.09	2.5903e-06	2.3451e-06	191.25	72.292	67.127	28.338	4.8845e-06	35.529	0.00058627	0.00060487	0.00016612	489.28	6.448e-06	6.6842e-06	412.95	174.62	6.2448e-06	6.5465e-06	190.17	71.871	66.818	28.238	6.2413e-06	35.661	168.335	-107.474	-87.009	-160.218	-8.628	-24.310	-161.316	-155.737	-67.074	13.419	-158.482	-154.674	-152.360	-146.650	-46.005	-150.067	-8191	255	
2332.309	1	1	0	0	0.067221	0.24719	0.16542	0.24236	0.20159	0.044234	0.14167	0.22007	0.2601	0.074565	0.23856	0.16227	0.046562	0.14324	0.098991	0.094545	-2.9854	-3.2208	-3.3521	-3.3708	-3.1063	-3.4229	-3.2396	-3.4562	-3.5812	-3.1104	-3.3479	-3.3604	-3.1917	-3.5125	-3.3312	-3.4083	-110.025	116.753	112.360	86.940	-103.286	40.613	135.321	176.713	-172.802	-109.749	-132.684	132.374	25.170	-121.999	126.732	139.464	0.00044805	0.00056672	2.4754e-05	493.46	4.325e-06	2.3561e-06	417.12	172.43	2.6996e-06	4.3222e-06	189.83	70.695	65.065	27.413	2.4011e-06	34.873	0.0005544	0.00057145	0.00015913	487.15	6.2972e-06	6.3896e-06	413.12	170.81	6.1913e-06	6.4256e-06	187.9	70.322	64.839	27.408	6.2612e-06	34.911	158.208	-99.905	66.816	-160.144	-79.561	-90.620	-161.721	-156.020	-111.632	-50.857	-158.599	-155.054	-152.243	-147.024	-2.732	-150.105	-8191	255	
2332.430	1	1	0	0	0.086336	0.047954	0.11286	0.12518	0.13431	0.14326	0.14257	0.19443	0.086898	0.038535	0.13528	0.15992	0.06669	0.039252	0.21404	0.1812	-2.8896	-3.1208	-3.5333	-3.3708	-3.1729	-3.6688	-3.2812	-3.3625	-3.6771	-3.1854	-3.4583	-3.3042	-3.1771	-3.5625	-3.2604	-3.3792	132.525	165.563	174.721	78.467	-52.519	-168.289	-25.713	83.789	-95.289	-117.894	15.608	184.103	-23.668	-154.263	81.031	-79.037	0.00043515	0.00012211	5.8194e-05	492.41	2.3236e-06	1.1932e-06	410.69	169.08	3.9454e-06	4.3931e-06	184.6	69.196	63.729	27.172	2.1714e-06	34.507	0.00055329	0.00056811	0.00015692	483.83	6.295e-06	6.2131e-06	406.75	167.38	6.0164e-06	6.2572e-06	183.5	68.639	63.521	27.072	6.1749e-06	34.456	166.803	-2.531	-95.426	-160.200	-106.382	36.930	-161.643	-156.016	-96.322	-51.971	-158.867	-154.588	-151.719	-146.268	-41.375	-149.999	-8191	255	
2332.526	1	1	0	0	0.26345	0.26412	0.013435	0.19751	0.14435	0.27811	0.086611	0.15502	0.13064	0.1328	0.11442	0.084411	0.18904	0.38117	0.24625	0.19806	-3.2438	-3.1667	-3.5229	-3.375	-3.1771	-3.475	-3.2875	-3.3021	-3.5146	-2.8729	-3.375	-3.4437	-3.2562	-3.5	-3.1875	-3.4333	-169.828	118.630	-103.667	88.304	130.193	-126.835	114.002	-170.271	182.615	139.652	180.308	-133.116	-75.015	-156.324	-171.528	-28.074	0.00040659	0.00033348	7.0665e-05	489.13	8.5695e-07	2.4531e-06	412.05	169.72	4.3055e-06	1.3799e-06	184.72	69.06	63.762	26.958	2.2816e-06	34.422	0.0005432	0.00056808	0.00015998	481.44	6.3592e-06	6.3812e-06	408.17	167.22	6.1525e-06	6.5138e-06	183.6	68.681	63.374	26.858	6.1611e-06	34.35	166.028	-97.186	-46.402	-160.099	-142.879	-63.811	-161.536	-155.969	-42.377	67.510	-158.616	-154.733	-152.413	-146.691	41.338	-150.307	-8191	255	
2332.622	1	1	0	0	0.049841	0.078689	0.092029	0.048535	0.30774	0.10341	0.18955	0.18626	0.16143	0.11362	0.35101	0.20726	0.079383	0.06267	0.18053	0.24404	-3.1	-3.2646	-3.2479	-3.3812	-2.9833	-3.3521	-3.2958	-3.3354	-3.5771	-3.0646	-3.3583	-3.4833	-3.3146	-3.4375	-3.4354	-3.2583	-13.226	83.494	65.410	134.699	57.443	-155.122	-130.183	-18.071	-118.483	-38.753	-14.997	185.779	53.493	103.140	9.259	183.253	0.00036012	0.00034635	0.00012591	486.68	1.9197e-06	9.2507e-07	411.44	167.26	3.5066e-06	6.5312e-06	184.79	69.675	63.534	26.715	4.5e-06	34.654	0.00054046	0.00055836	0.00015714	479.88	6.1919e-06	6.3702e-06	408.48	165.78	5.9676e-06	6.1981e-06	184.13	69.184	63.466	26.678	6.1012e-06	34.667	172.284	-103.517	-128.480	-160.092	-73.575	-4.029	-161.722	-155.848	-79.916	61.373	-158.816	-154.774	-152.259	-146.575	-29.685	-150.449	-8191	255	
2332.743	1	1	0	0	0.16613	0.30103	0.2166	0.21265	0.26474	0.13199	0.098847	0.33782	0.036594	0.15129	0.18328	0.19145	0.22985	0.077285	0.02828	0.13534	-3.1646	-3.2	-3.2792	-3.4458	-3.1958	-3.5667	-3.475	-3.1958	-3.3979	-3.3896	-3.2	-3.4667	-3.1958	-3.4479	-3.3917	-3.1188	119.860	40.605	159.933	-156.968	-33.463	-39.071	108.317	-161.363	-163.386	117.558	158.727	139.703	52.828	85.051	-6.689	44.872	0.00041164	0.00061647	7.0672e-05	486.59	1.6748e-06	1.618e-06	408.92	168.73	4.4942e-06	2.3762e-06	182.11	68.829	63.704	26.765	4.6103e-06	34.119	0.00054572	0.00056939	0.00015972	478.96	6.1933e-06	6.2656e-06	404.53	166.6	6.044e-06	6.2428e-06	181.42	68.547	63.383	26.766	6.1921e-06	34.191	159.813	-110.525	-89.105	-160.449	-40.666	-114.199	-161.741	-155.855	-67.611	71.014	-158.962	-154.423	-152.139	-146.732	-36.114	-150.168	-8191	255	
2332.813	1	1	0	0	0.24206	0.16233	0.10807	0.12618	0.086027	0.14008	0.016178	0.3165	0.16438	0.1436	0.20095	0.27398	0.18175	0.14472	0.083768	0.091546	-3.0167	-3.2562	-3.2479	-3.5229	-3.2729	-3.3604	-3.3542	-3.2854	-3.4604	-3.1104	-3.2562	-3.7104	-3.1875	-3.3125	-3.3542	-3.0938	83.498	184.912	-11.633	-68.152	-112.884	69.445	-160.528	148.137	-23.375	155.938	141.499	123.678	110.333	-15.619	56.561	54.413	0.00038609	0.00019123	0.00014292	479.49	2.3345e-06	3.9534e-06	405.06	166.57	4.5124e-06	2.7114e-06	181.47	68.336	62.57	26.455	3.2445e-06	34.009	0.00054428	0.00057065	0.00016438	475.62	6.3363e-06	6.4331e-06	402.52	164.48	6.2331e-06	6.4345e-06	180.51	67.847	62.526	26.353	6.7234e-06	34.031	172.535	-81.391	-109.807	-160.416	59.878	13.742	-161.950	-156.084	-52.088	-46.032	-158.635	-154.692	-152.193	-146.873	-72.522	-150.125	-8191	255	
2332.909	1	1	0	0	0.12961	0.045671	0.1919	0.078814	0.21063	0.17376	0.16848	0.029541	0.1656	0.094803	0.27555	0.22912	0.033345	0.070752	0.22238	0.043219	-3.175	-3.2583	-3.1083	-3.3146	-3.4729	-3.5417	-3.4417	-3.3	-3.5667	-3.3	-3.3625	-3.4729	-3.3021	-3.275	-3.5729	-3.2104	136.473	108.289	-165.413	149.767	162.730	29.394	67.181	-29.163	-102.538	-25.388	13.660	152.582	-85.782	99.547	13.737	-66.093	0.00044499	0.00034061	0.00015883	482.2	3.3926e-06	4.2259e-06	410.76	168.35	2.2214e-06	3.5002e-06	187.05	70.48	64.339	27.163	2.2864e-06	35.128	0.00058657	0.00061573	0.00017072	477.26	6.8867e-06	7.155e-06	407.07	166.99	7.2095e-06	7.3998e-06	186.09	69.909	64.266	27.148	7.4716e-06	35.133	173.229	34.221	-69.862	-160.713	-103.351	29.110	-161.765	-155.953	-59.066	-119.285	-158.579	-154.319	-151.966	-146.457	10.507	-150.039	-8191	255	
2333.005	1	1	0	0	0.034849	0.3177	0.13892	0.092135	0.13998	0.14894	0.095863	0.044174	0.14106	0.12064	0.027111	0.10927	0.43855	0.27853	0.17019	0.10354	-3.075	-3.3958	-3.2083	-3.5979	-3.1312	-3.3312	-3.5062	-3.3542	-3.4313	-3.3208	-3.2604	-3.4833	-3.2167	-3.3354	-3.4313	-3.2229	-141.907	-69.834	22.476	19.247	139.854	-37.133	158.425	115.739	148.395	-31.707	143.296	8.035	149.904	95.648	-18.417	-162.150	0.00038959	0.00027303	1.5518e-05	486.22	3.5558e-06	5.6121e-07	414.75	167.55	1.9508e-06	2.6676e-06	183.93	68.893	62.925	26.691	2.8297e-06	34.354	0.00066391	0.00070576	0.00019894	481.87	7.9916e-06	8.1247e-06	412.21	166.72	7.9498e-06	8.3764e-06	184.7	68.628	62.984	26.718	8.3007e-06	34.576	162.263	-129.984	-154.964	-160.511	114.007	-120.731	-161.482	-156.060	-68.216	-71.756	-158.310	-154.735	-152.554	-146.549	-72.939	-150.156	-8191	255	
2333.126	1	1	0	0	0.1142	0.20129	0.35837	0.17705	0.16973	0.23009	0.11724	0.21716	0.085738	0.24308	0.12799	0.13748	0.10038	0.22479	0.37428	0.12776	-3.0625	-3.4417	-3.2792	-3.5708	-3.2354	-3.4292	-3.7104	-3.2854	-3.4854	-3.4417	-3.1688	-3.5375	-3.2417	-3.2771	-3.5458	-3.2917	-57.181	-43.450	30.813	136.755	-72.493	-14.594	75.266	139.695	159.750	75.712	-105.935	-153.141	54.614	114.339	54.513	64.883	0.00041453	0.00087359	3.8657e-05	486.76	2.274e-06	4.9708e-06	410.58	167.72	3.0107e-06	3.4721e-06	185.73	68.372	63.012	26.709	3.2916e-06	34.7	0.00072593	0.00077412	0.00021815	483.88	8.4814e-06	8.6613e-06	410.87	166.29	8.7788e-06	8.8063e-06	184.99	68.76	63.46	26.861	8.8303e-06	34.908	179.589	-79.077	2.229	-160.564	-34.354	-36.763	-161.944	-156.054	-52.036	-32.349	-158.439	-154.515	-152.743	-146.982	-117.780	-150.398	-8191	255	
2333.222	1	1	0	0	0.10545	0.18003	0.19535	0.05219	0.25012	0.087022	0.14212	0.17836	0.22048	0.2332	0.12464	0.070668	0.21067	0.082235	0.28237	0.12057	-2.8729	-3.3667	-3.175	-3.5104	-3.3708	-3.05	-3.3187	-3.3542	-3.1854	-3.6167	-3.3625	-3.5292	-3.3979	-3.1604	-3.3604	-3.4083	36.692	-12.546	181.530	184.917	116.499	-138.925	91.059	46.056	167.030	42.000	62.139	66.076	143.673	-54.004	20.998	-13.182	0.00041482	0.00049138	6.5908e-05	488.36	3.3184e-06	1.8602e-06	415.7	170.39	4.3458e-06	1.1958e-06	190.32	70.367	64.341	27.296	1.8566e-06	35.543	0.00076819	0.00082896	0.00023254	485.25	9.1769e-06	9.3071e-06	414.82	169.5	9.2751e-06	9.5513e-06	190.36	70.849	64.998	27.54	9.5829e-06	35.623	160.950	-106.972	-110.564	-160.469	-21.460	-29.150	-161.420	-156.097	-13.065	-108.673	-159.020	-154.704	-152.325	-146.649	-55.083	-150.405	-8191	255	
2333.318	1	1	0	0	0.097555	0.33206	0.10609	0.17459	0.13837	0.24417	0.10734	0.30411	0.11475	0.34239	0.36631	0.20349	0.075016	0.22532	0.082758	0.10323	-2.9208	-3.6188	-3.1937	-3.4	-3.4333	-3.425	-3.5542	-3.3542	-3.25	-3.4667	-3.3688	-3.4521	-3.4813	-3.2708	-3.5729	-3.3875	101.171	-49.020	131.475	-154.162	48.747	78.281	132.191	156.395	166.043	131.811	79.736	123.464	73.591	-145.776	-133.804	165.956	0.00041104	0.00044602	5.1126e-05	488.71	1.3351e-06	5.9864e-06	419.58	170.2	2.0899e-06	6.1533e-06	190.1	70.334	63.968	27.255	6.8734e-06	35.305	0.00082793	0.00088866	0.00025372	489	9.9662e-06	1.0052e-05	419.62	170.08	9.9002e-06	1.0251e-05	191.3	70.637	64.515	27.416	1.0188e-05	35.59	164.678	-68.145	-145.988	-160.222	-117.528	-3.304	-161.302	-155.965	-66.865	4.914	-158.629	-155.062	-152.849	-146.640	7.408	-150.377	-8191	255	
2333.414	1	1	0	0	0.14825	0.11458	0.15679	0.049424	0.16161	0.036531	0.070678	0.03611	0.040235	0.12984	0.19228	0.16178	0.18048	0.18356	0.10178	0.14797	-2.7833	-3.7167	-3.3792	-3.4625	-3.5396	-3.2854	-3.3563	-3.3667	-3.2979	-3.5375	-3.35	-3.2146	-3.725	-3.2229	-3.5354	-3.2625	-76.138	-58.940	-99.737	-41.397	-166.142	-170.619	154.474	3.868	111.285	-8.233	107.830	24.199	-169.890	145.318	-111.946	159.898	0.00045364	0.00019534	8.0625e-05	496.72	7.0299e-06	2.8389e-06	420.63	167.4	6.078e-06	4.7341e-06	186.42	67.536	61.607	26.126	3.2867e-06	33.785	0.00086826	0.00093044	0.0002577	493.56	1.0049e-05	1.0348e-05	421.01	167.56	1.004e-05	1.0298e-05	187.39	67.823	62.143	26.375	1.0142e-05	34.103	164.850	40.946	-89.320	-160.141	0.083	-124.541	-161.699	-156.250	-120.443	-46.904	-158.727	-154.687	-152.629	-146.884	-73.380	-150.187	-8191	255	
2333.510	1	1	0	0	0.21908	0.088167	0.27245	0.06635	0.061671	0.065473	0.070021	0.23732	0.11734	0.14699	0.023557	0.27811	0.075434	0.13919	0.15532	0.37695	-2.8458	-3.4708	-3.1667	-3.175	-3.4354	-3.1271	-3.4729	-3.4667	-3.1979	-3.5729	-3.2896	-3.3292	-3.4896	-3.0958	-3.2771	-3.3333	88.360	119.273	54.584	164.809	0.442	-124.867	-159.887	179.611	-63.107	114.670	-120.577	-12.663	103.970	146.673	-11.577	70.128	0.00040089	0.00033934	4.0046e-05	496	7.2756e-07	4.4813e-06	424.69	166.59	1.7218e-06	5.038e-06	185.02	67.386	60.964	25.575	6.6403e-07	33.428	0.00086486	0.00093544	0.00026242	493.49	1.0164e-05	1.0479e-05	424.3	165.88	1.0155e-05	1.0435e-05	186.05	67.459	61.622	25.898	1.0105e-05	33.754	171.773	-112.917	-66.312	-160.736	-51.841	-58.474	-161.577	-156.528	79.859	44.430	-159.191	-154.504	-152.427	-146.680	53.603	-150.334	-8191	255	
2333.606	1	1	0	0	0.16383	0.12614	0.078573	0.18403	0.0311	0.23235	0.14449	0.22039	0.33437	0.27047	0.13644	0.13015	0.161	0.10806	0.11976	0.2219	-2.8063	-3.3896	-3.4313	-3.2125	-3.4125	-3.0917	-3.3667	-3.5062	-3.2396	-3.3771	-3.3063	-3.1312	-3.5979	-3.2625	-3.3646	-3.5333	21.399	-60.298	-41.168	-158.941	-138.095	42.633	32.815	151.423	-75.977	-70.237	61.327	20.759	-115.394	57.059	64.584	125.857	0.0004132	0.00036871	8.8361e-05	496	3.1385e-06	1.8284e-06	428.46	165.91	5.7852e-06	4.8023e-06	188.57	68.135	61.829	26.236	3.0118e-06	34.298	0.00086533	0.00092987	0.00026136	495.82	9.918e-06	1.0313e-05	428.5	165.79	9.9681e-06	1.0203e-05	189.62	68.768	62.604	26.47	9.9248e-06	34.75	176.489	-75.836	-169.129	-160.248	0.090	-64.448	-161.618	-156.332	-5.143	-21.426	-158.482	-155.041	-152.555	-146.813	27.287	-150.307	-8191	255	
2333.703	1	1	0	0	0.069047	0.1167	0.072205	0.20645	0.10548	0.051592	0.16112	0.21163	0.083272	0.031581	0.12927	0.14706	0.040106	0.097635	0.12917	0.18898	-2.6312	-3.3979	-3.2979	-3.1542	-3.4667	-3.0667	-3.3312	-3.4104	-3.2979	-3.5833	-3.4146	-3.4042	-3.4917	-3.2292	-3.3	-3.4667	-18.900	97.255	140.834	90.063	-57.258	115.563	109.035	138.979	78.625	78.403	-12.008	29.903	146.851	-127.022	-104.734	64.442	0.00043873	0.00011944	0.00012106	497.87	3.6489e-06	5.5504e-06	428.39	166.62	6.0763e-06	4.5269e-06	189.01	68.25	62.68	26.575	4.0666e-06	34.276	0.00083493	0.00089377	0.00025025	495.52	9.6363e-06	9.7561e-06	426.52	166.46	9.5264e-06	9.8187e-06	189.22	68.833	62.944	26.618	9.4761e-06	34.639	172.847	-129.161	-157.583	-160.432	94.789	-15.803	-161.727	-155.986	-100.529	-32.319	-158.888	-154.679	-152.365	-146.899	-131.788	-149.913	-8191	255	
2333.823	1	1	0	0	0.22333	0.14037	0.048118	0.19559	0.11552	0.054848	0.20525	0.12855	0.19759	0.12112	0.10094	0.16804	0.029567	0.41145	0.090399	0.12869	-2.7229	-3.3271	-3.275	-3.3396	-3.5812	-3.3625	-3.3812	-3.5333	-3.1146	-3.4958	-3.4854	-3.0896	-3.5062	-3.2375	-3.0979	-3.5667	11.154	139.283	-110.514	77.044	18.416	-147.969	54.500	-49.715	24.740	160.368	-113.143	73.936	154.776	127.379	167.386	154.655	0.00048068	0.00020808	8.4315e-05	494.52	2.5221e-06	3.9858e-06	423.64	168.52	1.4146e-06	4.4574e-06	189.35	68.941	62.812	26.785	5.7448e-06	34.4	0.00080338	0.00086726	0.00024414	491.91	9.3991e-06	9.6734e-06	422.66	167.77	9.3589e-06	9.6656e-06	189.92	69.458	63.47	26.901	9.4649e-06	34.895	168.117	19.159	-30.137	-160.285	-61.118	110.338	-161.513	-156.096	24.563	39.642	-158.814	-155.033	-152.412	-147.023	-42.641	-150.415	-8191	255	
2333.918	1	1	0	0	0.033014	0.12421	0.1429	0.034622	0.20505	0.15844	0.15133	0.28656	0.070019	0.11768	0.057725	0.14131	0.16589	0.11226	0.2302	0.15094	-2.8812	-3.2583	-3.4625	-3.0083	-3.4938	-3.2771	-3.0438	-3.4417	-3.1625	-3.2562	-3.2917	-3.15	-3.4104	-3.1729	-3.2812	-3.4854	102.440	146.672	94.883	-90.428	-2.574	56.815	90.162	168.717	51.485	182.777	114.448	108.929	161.206	184.197	37.356	-111.388	0.00045502	0.000444	0.00019796	495.74	4.6012e-06	4.1085e-06	424.99	170.1	5.4609e-06	2.6721e-06	190.77	70.349	64.097	27.034	2.2233e-06	35.119	0.00079856	0.00087079	0.00024512	491.55	9.1276e-06	9.4612e-06	424.31	168.5	9.2206e-06	9.4705e-06	191.12	70.435	64.135	27.14	9.2454e-06	35.347	165.954	-142.442	-88.184	-160.383	-42.217	-13.641	-161.639	-156.179	-66.954	-50.987	-158.953	-154.972	-152.700	-146.844	-115.706	-150.433	-8191	255	
2334.014	1	1	0	0	0.18261	0.068591	0.10759	0.10691	0.096176	0.34206	0.07557	0.10494	0.12138	0.22238	0.077805	0.085717	0.19398	0.15844	0.18263	0.12453	-2.9542	-3.325	-3.3417	-3.2083	-3.5583	-3.3604	-3.1875	-3.575	-3.3667	-3.3312	-3.5458	-3.1688	-3.3937	-3.4146	-3.1312	-3.3	30.754	121.367	128.601	73.890	140.785	114.263	15.647	160.280	178.757	-68.879	180.011	-126.675	-23.152	80.506	-31.556	123.342	0.00040274	0.00035419	8.3397e-05	493.85	1.607e-06	4.8889e-06	426.75	170.42	7.8068e-06	1.5792e-06	192.38	71.336	64.046	26.923	1.3602e-06	34.896	0.00079668	0.00084345	0.00023782	492.76	8.9907e-06	9.2851e-06	425.18	169.44	8.8676e-06	9.1138e-06	192.72	70.887	64.177	27.038	8.8492e-06	35.083	166.710	-81.301	-173.688	-160.333	154.499	-64.871	-161.814	-155.778	-57.211	19.933	-158.639	-155.004	-152.959	-146.909	-84.904	-150.031	-8191	255	
2334.110	1	1	0	0	0.23038	0.035494	0.22372	0.064192	0.039051	0.14516	0.049515	0.16648	0.054009	0.14289	0.13633	0.45359	0.084968	0.17509	0.097053	0.20973	-2.9104	-3.3958	-3.4313	-3.1771	-3.5083	-3.4021	-3.1229	-3.5438	-3.2583	-3.3042	-3.5167	-3.1937	-3.3563	-3.5604	-3.1208	-3.5312	88.966	120.968	14.410	-101.166	31.238	-108.334	-166.057	145.596	-131.381	-59.526	116.511	143.969	-31.085	-103.558	51.912	129.799	0.00044766	0.00029726	0.00014315	490.72	3.0661e-06	3.2348e-06	420.94	168.54	3.495e-06	3.569e-06	189.11	69.259	63.669	26.907	2.16e-06	34.646	0.00075184	0.00079735	0.00022832	487.03	8.5197e-06	8.9399e-06	419.85	167.67	8.7245e-06	8.6252e-06	189.39	69.431	63.383	26.921	8.4392e-06	34.801	167.594	-34.450	-73.418	-160.553	-43.248	-62.068	-161.758	-156.105	-27.573	-10.759	-158.584	-154.763	-152.864	-147.222	-19.384	-150.038	-8191	255	
2334.206	1	1	0	0	0.079479	0.22974	0.28043	0.147	0.13761	0.056003	0.19829	0.13809	0.094342	0.29488	0.14172	0.12447	0.28476	0.10866	0.2466	0.050156	-2.8917	-3.1146	-3.3771	-3.1292	-3.1958	-3.4875	-3.2292	-3.525	-3.2979	-3.0833	-3.6229	-3.2729	-3.1396	-3.5583	-3.2167	-3.4167	93.527	21.409	23.988	-5.858	135.197	-48.569	144.525	179.821	81.261	136.580	100.786	116.071	137.173	117.758	16.986	139.741	0.00044718	0.0005743	8.3958e-05	490.32	3.0226e-06	2.7721e-06	421.56	169.17	4.3748e-06	6.5648e-06	190.71	69.957	63.818	26.698	2.5144e-06	35.003	0.00072657	0.00076251	0.00021451	485.25	8.2096e-06	8.4152e-06	418.96	167.61	8.2733e-06	8.5094e-06	190.37	70.229	63.994	26.925	8.3119e-06	35.114	165.039	-116.045	-79.153	-160.357	-39.218	2.153	-162.021	-156.417	-81.496	-73.930	-158.549	-154.933	-152.238	-146.567	-19.782	-150.543	-8191	255	
2334.302	1	1	0	0	0.27767	0.0809	0.26822	0.14378	0.088333	0.13442	0.1257	0.1345	0.10658	0.29011	0.30068	0.21815	0.30444	0.19235	0.10815	0.075175	-2.9354	-2.9667	-3.4437	-3.325	-3.3229	-3.5125	-3.1	-3.3771	-3.2812	-3.05	-3.3833	-3.325	-3.2417	-3.5771	-3.3479	-3.4437	125.835	101.807	34.290	172.497	-33.049	108.918	-128.609	51.500	-11.121	5.798	170.616	-105.871	166.948	-114.289	-20.359	40.259	0.00040673	0.00039928	3.5547e-05	489.52	2.3936e-06	5.9247e-06	419.35	170.34	1.3745e-06	6.0259e-06	193.16	71.019	64.773	27.218	5.1693e-07	35.312	0.00072265	0.00075069	0.00021335	485.85	8.2688e-06	8.5324e-06	419.1	169.11	8.2001e-06	8.4777e-06	192.3	70.954	64.735	27.262	8.3999e-06	35.564	160.333	-125.430	-26.308	-160.276	-33.309	19.321	-161.915	-156.096	-15.879	4.839	-158.837	-155.041	-153.022	-147.040	161.998	-150.274	-8191	255	
2334.423	1	1	0	0	0.0058646	0.055796	0.15581	0.06026	0.12327	0.068895	0.22714	0.22328	0.14296	0.17726	0.083012	0.18472	0.13271	0.27483	0.14956	0.057266	-2.8812	-3.1021	-3.3333	-3.3417	-3.3125	-3.5812	-3.3417	-3.4938	-3.4708	-3.1229	-3.4333	-3.3292	-3.2875	-3.525	-3.2125	-3.2854	19.945	-127.358	5.469	162.220	-9.647	-133.231	137.502	94.089	27.095	170.869	158.173	87.145	179.171	-164.301	-112.042	27.368	0.00040839	0.00062804	2.7039e-05	488.53	2.637e-06	3.0836e-06	420.6	169.71	4.3163e-06	3.5753e-06	191.27	70.055	63.806	26.658	2.8953e-06	34.913	0.0007224	0.00077371	0.00021508	485.09	8.2867e-06	8.4303e-06	417.46	168.52	8.3712e-06	8.5792e-06	189.98	70.095	64.074	26.922	8.4787e-06	35.011	157.778	-106.178	49.952	-160.143	-54.374	29.897	-161.381	-156.102	-113.347	32.516	-158.740	-154.731	-152.399	-146.905	-25.101	-150.488	-8191	255	
2334.519	1	1	0	0	0.16253	0.2075	0.17941	0.10959	0.16989	0.046255	0.093643	0.14362	0.090673	0.32714	0.074315	0.21136	0.14573	0.12986	0.051201	0.11431	-2.9375	-3.0083	-3.3729	-3.1771	-3.075	-3.4458	-3.3229	-3.3583	-3.4875	-3.2438	-3.4625	-3.2146	-3.1646	-3.6125	-3.3542	-3.3708	-73.967	-40.291	85.880	162.768	-155.228	-53.978	96.467	110.038	12.060	-157.814	-87.202	-96.611	-110.645	130.101	153.946	-71.291	0.0004664	0.00053576	0.00011895	485.82	4.4269e-06	6.1009e-06	416.76	169.47	2.2913e-06	3.0888e-06	189.3	70.157	63.992	26.97	2.862e-06	35.107	0.00073028	0.00078747	0.00021777	482.91	8.6454e-06	8.7021e-06	415.31	168.29	8.4544e-06	8.6478e-06	190.05	70.314	64.314	27.085	8.6198e-06	35.24	172.501	-78.607	-133.272	-160.805	-26.213	-72.939	-161.945	-156.110	-80.695	-20.605	-158.613	-155.235	-152.243	-146.957	-73.909	-150.497	-8191	255	
2334.615	1	1	0	0	0.052385	0.27422	0.27827	0.18652	0.10241	0.21172	0.1073	0.10794	0.27119	0.18514	0.1904	0.3725	0.12254	0.16328	0.11438	0.19077	-3.2271	-3.1458	-3.3208	-3.4062	-3.2021	-3.4708	-3.2083	-3.3417	-3.4917	-3.3688	-3.3917	-3.5333	-3.2521	-3.5771	-3.3208	-3.3333	21.695	-162.193	31.056	70.869	181.975	60.871	73.087	184.704	180.392	168.053	-112.694	-30.929	51.153	-169.568	94.463	-172.182	0.00042391	0.00039067	0.00011185	486.19	2.8045e-06	2.1995e-06	418.71	170.11	8.7282e-07	4.2295e-06	192.46	70.857	64.564	27.076	8.3255e-07	35.528	0.00072867	0.00079207	0.00022192	484.5	8.6322e-06	8.753e-06	417.49	169.01	8.6534e-06	8.924e-06	192.13	71.022	64.644	27.275	8.7709e-06	35.674	167.815	-80.431	-113.953	-160.486	-31.992	-75.316	-161.356	-156.159	-50.039	57.701	-158.823	-155.004	-152.772	-146.741	139.878	-150.563	-8191	255	
2334.687	1	1	0	0	0.20664	0.13179	0.3052	0.24303	0.075089	0.12369	0.14081	0.17772	0.16696	0.13683	0.18244	0.16464	0.095583	0.15913	0.31731	0.37913	-3.1583	-3.2083	-3.3104	-3.4958	-3.2146	-3.5125	-3.3979	-3.2625	-3.6	-3.2458	-3.3542	-3.4229	-3.0062	-3.4938	-3.3479	-3.2896	-120.395	-21.166	36.969	82.322	179.864	-67.583	-146.805	131.485	-112.806	-128.615	184.264	159.798	100.960	131.460	15.532	38.726	0.00044471	0.00056589	0.00017275	488.82	8.8236e-06	2.6055e-06	424.23	171.41	3.3234e-06	1.6476e-06	192.23	71.248	64.696	27.429	3.4812e-06	35.051	0.00075642	0.00080919	0.00023021	486.35	8.8381e-06	8.8964e-06	422.06	169.88	8.7077e-06	9.0497e-06	192.7	71.375	64.837	27.453	8.8391e-06	35.435	165.887	-120.455	-41.581	-160.340	-49.374	-51.295	-161.684	-156.030	-74.085	49.573	-158.983	-154.848	-152.642	-146.668	-4.636	-150.378	-8191	255	
2334.806	1	1	0	0	0.15822	0.2031	0.13545	0.08885	0.085772	0.13354	0.25674	0.083569	0.2199	0.22305	0.21389	0.013896	0.28937	0.13087	0.13176	0.26411	-3.1875	-3.2417	-3.2854	-3.4271	-3.3396	-3.5083	-3.3042	-3.325	-3.3646	-3.4062	-3.2562	-3.3896	-3.2979	-3.425	-3.4333	-3.2958	-102.709	105.679	7.453	59.799	51.952	-166.973	136.773	54.858	165.924	89.566	-36.189	-8.760	-111.852	96.087	0.565	84.490	0.00036236	0.00066935	3.6338e-05	490.13	3.4067e-06	4.0532e-06	420.2	171.23	3.4124e-06	5.5798e-06	191.14	70.354	64.189	27.245	3.0671e-06	35.375	0.00075909	0.00081317	0.00023078	486.62	8.6659e-06	9.0701e-06	420.18	169.52	8.8208e-06	8.9673e-06	191.07	70.662	64.747	27.411	8.912e-06	35.535	167.528	-133.683	185.092	-160.176	-30.351	-85.746	-161.494	-156.331	-91.743	3.702	-158.718	-154.930	-152.469	-146.951	-65.487	-150.203	-8191	255	
2334.902	1	1	0	0	0.026597	0.13614	0.090155	0.20206	0.10111	0.075713	0.24837	0.25186	0.12162	0.35559	0.13087	0.22727	0.30766	0.28388	0.23131	0.22467	-3.2062	-3.1896	-3.1437	-3.4583	-3.2292	-3.3854	-3.4771	-3.3125	-3.6042	-3.3	-3.1479	-3.525	-3.2479	-3.2313	-3.3375	-3.1458	-33.642	-42.593	145.388	155.974	11.714	113.851	74.073	25.217	-71.974	139.184	-145.927	149.021	-53.591	-173.248	-109.563	-145.814	0.00048402	0.00049028	8.3492e-05	490.36	3.2405e-06	4.5393e-06	426.13	170.83	5.4964e-06	2.672e-06	190.86	71.241	65.233	27.306	1.6973e-06	35.469	0.00075388	0.00081556	0.00023	487.43	8.8374e-06	9.1469e-06	422.23	169.97	8.7056e-06	9.1187e-06	192.27	71.399	65.046	27.516	8.9515e-06	35.678	173.112	-78.867	-80.573	-160.599	-23.935	-75.252	-161.811	-156.271	-77.277	-32.920	-158.853	-154.733	-152.234	-147.042	-44.670	-150.432	-8191	255	
2334.998	1	1	0	0	0.19072	0.0698	0.092812	0.31796	0.15714	0.10117	0.12598	0.12728	0.16024	0.11969	0.16796	0.33973	0.17954	0.20015	0.19788	0.11095	-3.1292	-3.35	-3.1604	-3.55	-3.2896	-3.3438	-3.7271	-3.1958	-3.3917	-3.4313	-3.2708	-3.6188	-3.4354	-3.4562	-3.5771	-3.3021	-162.130	154.484	0.660	134.623	62.232	76.699	84.328	-160.590	113.164	59.250	56.394	167.613	-110.229	-145.279	-39.031	67.405	0.00039605	0.00066683	5.2892e-05	489.82	1.8018e-06	3.4728e-06	422.68	171.29	1.8193e-06	4.3158e-06	193.17	71.954	64.957	27.379	1.8805e-06	35.634	0.00076822	0.000821	0.00023097	487.56	8.9144e-06	9.1146e-06	423.16	170.12	8.9473e-06	9.1061e-06	192.86	71.638	64.949	27.402	8.9125e-06	35.678	165.110	-97.548	-106.377	-160.512	-66.178	-64.390	-161.516	-156.371	-103.053	-26.424	-159.269	-154.707	-152.482	-146.758	-46.795	-150.724	-8191	255	
2335.094	1	1	0	0	0.2485	0.049427	0.18918	0.15409	0.10114	0.17802	0.22852	0.16642	0.28436	0.1409	0.074881	0.13268	0.065462	0.12353	0.13209	0.18679	-3.0521	-3.3729	-3.1479	-3.4354	-3.3688	-3.2104	-3.5812	-3.2042	-3.4792	-3.4625	-3.1583	-3.5854	-3.2396	-3.2646	-3.5604	-3.1229	-3.797	58.152	-133.397	70.051	168.734	-85.500	104.146	136.746	151.769	5.493	113.881	172.786	86.906	-156.427	-173.514	86.508	0.00045047	0.00071018	0.00018781	490.17	4.6439e-06	4.3907e-06	423.47	170.1	3.0384e-06	2.8287e-06	190.01	70.518	63.693	27.089	2.5795e-06	35.048	0.00076879	0.00080458	0.00022817	486.89	8.7447e-06	8.9784e-06	421.54	169.25	8.7611e-06	8.7576e-06	190.34	70.422	64.092	27.133	8.7502e-06	35.178	161.359	-100.837	-127.153	-160.518	28.866	-98.107	-161.669	-156.316	-74.846	53.459	-158.930	-154.947	-152.750	-146.898	16.348	-150.337	-8191	255	
2335.215	1	1	0	0	0.15552	0.075855	0.072341	0.23427	0.39155	0.1971	0.1588	0.055192	0.067581	0.19184	0.20976	0.14634	0.18969	0.26577	0.12672	0.24443	-2.9813	-3.2812	-3.2229	-3.4896	-3.1188	-3.3312	-3.4917	-3.1792	-3.2792	-3.5708	-3.3542	-3.4354	-3.2667	-3.2354	-3.5396	-3.425	67.227	43.388	49.999	-126.201	27.882	-164.349	68.385	69.152	-173.151	-5.189	144.852	172.870	98.554	117.095	-51.453	94.705	0.0004699	0.00058656	6.8705e-05	490.36	1.8702e-06	4.6021e-06	422.18	170.77	2.3197e-06	1.8908e-06	191.36	70.792	64.149	27.109	1.816e-06	34.987	0.00073933	0.00080107	0.00022386	485.84	8.6954e-06	8.9812e-06	421.06	169.34	8.6469e-06	8.9961e-06	190.7	70.728	64.436	27.104	8.9017e-06	35.152	167.650	-88.086	-109.680	-160.539	-62.756	-19.374	-161.749	-156.110	13.049	99.133	-158.628	-155.057	-152.682	-147.026	30.647	-150.759	-8191	255	
2335.311	1	1	0	0	0.16223	0.13285	0.17362	0.15676	0.13073	0.023695	0.18804	0.14198	0.17494	0.22712	0.18125	0.08905	0.18655	0.17943	0.16121	0.06096	-2.7396	-3.4854	-3.1562	-3.5104	-3.3583	-3.0979	-3.5208	-3.2104	-3.0271	-3.4458	-3.2083	-3.4396	-3.4792	-3.1354	-3.4479	-3.5083	-9.710	172.920	-4.413	95.352	-165.477	-7.123	160.416	108.785	25.166	-19.252	-73.239	-76.671	74.213	127.250	-118.760	121.507	0.00046002	0.00032514	0.0001487	491.26	1.2989e-06	5.0508e-06	424.6	170.34	1.3481e-06	4.3935e-06	190.21	69.892	63.125	26.514	2.7711e-06	34.454	0.00075274	0.0008211	0.00022828	488.02	8.7964e-06	9.0173e-06	423.07	169.19	8.7438e-06	8.9784e-06	190.25	70.261	63.747	26.593	8.9109e-06	34.665	175.863	-60.292	-64.851	-160.203	-36.295	112.624	-161.652	-156.158	-164.734	21.425	-158.924	-154.847	-152.494	-146.855	-8.764	-150.529	-8191	255	
2335.383	1	1	0	0	0.19438	0.16827	0.23314	0.057205	0.12354	0.1742	0.02567	0.24592	0.056895	0.12551	0.07291	0.075816	0.25192	0.21092	0.063699	0.058232	-2.7562	-3.4771	-3.1896	-3.2313	-3.3708	-3.25	-3.7292	-3.1562	-3.4479	-3.5229	-3.2521	-3.3333	-3.2438	-3.1792	-3.4542	-3.4896	-163.899	152.802	134.439	21.461	-67.663	90.660	-127.476	107.616	7.335	-30.099	46.841	30.769	139.200	121.119	-139.789	-27.361	0.00040922	3.3241e-05	6.4067e-05	493.61	2.0618e-06	2.111e-06	424.3	168.77	1.6516e-06	3.8715e-06	188.48	69.207	63.049	26.1	2.2418e-06	33.951	0.00076096	0.00081387	0.00022893	489.69	8.8435e-06	9.0631e-06	425.03	168.09	8.7004e-06	8.9403e-06	188.46	69.407	63.229	26.23	8.7203e-06	34.041	167.326	142.456	56.852	-160.673	31.193	72.446	-161.670	-156.026	-23.341	-64.347	-159.009	-154.796	-152.623	-146.773	-44.570	-150.115	-8191	255	
2335.503	1	1	0	0	0.091646	0.15912	0.17246	0.33887	0.14341	0.15613	0.18892	0.14267	0.10248	0.18968	0.089934	0.094285	0.069893	0.15092	0.15658	0.16704	-2.6583	-3.45	-3.0563	-3.3604	-3.4833	-3.2583	-3.4583	-3.4979	-3.125	-3.5271	-3.3417	-3.2146	-3.3375	-3.1979	-3.4042	-3.5812	73.605	22.712	55.130	89.748	-131.816	175.918	13.953	-118.498	143.918	42.968	-8.978	-110.130	-147.289	34.985	104.932	-166.009	0.00047058	0.00030771	6.5179e-05	495.75	1.137e-06	2.4058e-06	425.42	166.49	5.9304e-06	5.6617e-06	184.4	67.39	62.055	25.617	2.4328e-06	33.585	0.00073867	0.00079945	0.00022319	489.06	8.6355e-06	8.9496e-06	421.31	166.06	8.6726e-06	8.7513e-06	184.99	67.791	62.088	25.831	8.6209e-06	33.67	170.876	-48.045	-161.718	-160.292	-2.298	-16.484	-161.807	-156.231	-61.761	-17.045	-159.486	-154.926	-152.465	-146.852	-12.734	-150.774	-8191	255	
2335.599	1	1	0	0	0.33404	0.10388	0.24455	0.125	0.053254	0.043168	0.0898	0.071853	0.19691	0.13378	0.082855	0.13449	0.16311	0.13489	0.079127	0.31249	-2.7667	-3.4979	-3.2375	-3.1958	-3.5938	-3.2521	-3.5021	-3.4229	-3.3479	-3.4062	-3.2042	-3.2979	-3.4542	-2.9708	-3.2146	-3.4208	-30.371	33.295	122.003	152.429	132.037	-73.189	-153.783	89.409	23.125	73.594	181.226	162.898	-77.410	99.864	-94.986	54.378	0.00045147	0.00054165	7.5549e-05	492.2	6.7203e-06	4.8053e-06	423.94	167.88	4.9956e-06	9.5214e-06	185.05	68.002	61.699	25.236	3.269e-06	33.301	0.00074301	0.00078514	0.00022447	487.94	8.4938e-06	8.8444e-06	422.03	166.33	8.4594e-06	8.6908e-06	185.59	67.908	62.034	25.548	8.5477e-06	33.531	163.871	-118.596	-106.634	-160.550	9.810	-24.197	-161.991	-156.557	-101.192	27.686	-159.286	-155.055	-152.774	-146.969	-31.688	-150.533	-8191	255	
2335.695	1	1	0	0	0.057331	0.17205	0.12783	0.15645	0.13469	0.28837	0.041469	0.27721	0.18846	0.16786	0.13839	0.16727	0.14034	0.11591	0.23139	0.029715	-2.8542	-3.3458	-3.3792	-3.2708	-3.4729	-3.2958	-3.3375	-3.3812	-3.2021	-3.4062	-3.2646	-3.1021	-3.5125	-3.2979	-3.3104	-3.4688	-42.316	65.583	-23.133	143.845	-108.171	85.710	137.703	86.297	-51.641	-15.514	173.173	-11.270	9.571	145.425	61.368	-147.324	0.00044747	0.00018942	3.2385e-05	491.51	1.5904e-06	3.7734e-06	426.77	167.62	3.4254e-06	5.342e-06	187.74	68.443	62.451	25.785	1.805e-06	33.82	0.00072765	0.00077677	0.0002207	489.94	8.3582e-06	8.5092e-06	424.59	166.7	8.2542e-06	8.5115e-06	187	68.608	62.505	25.847	8.2394e-06	33.967	170.412	-145.662	-28.694	-160.273	146.618	-74.661	-161.906	-156.322	-84.279	-23.560	-159.192	-155.226	-152.677	-147.018	-60.566	-150.467	-8191	255	
2335.792	1	1	0	0	0.33092	0.099704	0.18643	0.3042	0.042287	0.15611	0.28908	0.0107	0.19009	0.11532	0.17841	0.060534	0.17814	0.18812	0.11637	0.20923	-2.7229	-3.3896	-3.3	-3.1646	-3.4896	-3.2646	-3.2771	-3.6417	-3.125	-3.2896	-3.4333	-3.1104	-3.5208	-3.2375	-3.2854	-3.55	40.827	29.250	-17.523	25.118	95.364	138.613	81.114	11.044	59.178	113.917	122.606	-163.584	-57.617	144.655	-87.092	112.652	0.00037468	0.00025627	0.00010563	493.38	4.2608e-06	4.3522e-06	422.77	170.08	4.3326e-06	2.2872e-06	187.64	69.459	63.342	26.379	1.2714e-06	34.209	0.00071212	0.00075481	0.0002132	488.48	8.1878e-06	8.4988e-06	420.73	167.91	8.0972e-06	8.2823e-06	188.02	69.531	63.491	26.469	8.0829e-06	34.372	160.739	-63.617	-95.066	-160.276	-36.308	-147.557	-161.659	-156.090	-94.699	-67.068	-159.296	-154.722	-152.704	-146.654	72.743	-150.554	-8191	255	
2335.911	1	1	0	0	0.17094	0.092203	0.093076	0.13202	0.16047	0.049859	0.075284	0.066964	0.11193	0.26224	0.029186	0.26533	0.13717	0.13211	0.19884	0.26431	-3.0083	-3.2875	-3.2375	-3.1604	-3.4542	-3.1604	-3.2667	-3.4792	-3.0542	-3.4313	-3.4146	-3.2396	-3.5521	-3.4958	-3.1896	-3.5104	67.740	-80.128	72.305	48.778	84.693	164.009	68.766	-119.046	156.663	108.027	-41.937	110.949	50.735	163.966	-169.373	-171.941	0.00040206	0.00070402	5.5719e-05	487.09	2.3581e-06	6.4643e-06	420.25	169.44	1.7536e-06	4.919e-06	188.45	70.498	63.611	26.727	1.8323e-06	34.901	0.0007017	0.00074191	0.00020701	484.11	8.0901e-06	8.2991e-06	419.23	167.68	8.0115e-06	8.429e-06	188.85	70.114	63.883	26.801	8.1399e-06	35.013	166.088	-94.794	-85.892	-160.349	-142.162	-27.757	-162.035	-156.203	-38.412	-22.662	-158.701	-155.071	-152.612	-146.739	-140.473	-150.333	-8191	255	
2335.982	1	1	0	0	0.061453	0.11874	0.23528	0.25763	0.18774	0.2471	0.10935	0.04286	0.23997	0.066968	0.060472	0.17703	0.18433	0.18898	0.12527	0.093047	-2.8875	-3.2229	-3.3	-3.2229	-3.4062	-3.4208	-3.2583	-3.525	-3.2396	-3.3667	-3.5771	-3.1583	-3.3875	-3.3271	-3.0375	-3.4917	174.438	94.171	-46.358	111.925	41.860	15.851	-89.561	-145.105	150.111	-24.065	-70.816	-10.923	-155.899	121.477	-56.661	-156.613	0.00046999	0.00056951	8.0394e-05	485.35	1.978e-06	3.1887e-06	424.21	169.76	5.9166e-06	6.243e-06	190.26	70.628	63.667	26.798	3.7489e-06	34.985	0.00071889	0.00074946	0.00020999	482.41	8.1988e-06	8.4953e-06	420.35	168.58	8.1838e-06	8.5104e-06	189.39	70.364	64.057	26.949	8.3906e-06	35.174	166.095	-103.339	-114.715	-160.452	-41.948	-62.093	-161.865	-155.919	-54.251	-7.130	-158.993	-155.101	-152.782	-147.012	-100.601	-150.548	-8191	255	
2336.103	1	1	0	0	0.1796	0.17133	0.10713	0.15978	0.17916	0.12309	0.14257	0.08324	0.19804	0.10838	0.2119	0.32872	0.069529	0.099854	0.086629	0.12117	-2.7687	-3.2729	-3.5333	-3.2167	-3.4375	-3.5271	-3.1688	-3.6333	-3.3167	-3.2938	-3.6542	-3.3042	-3.5958	-3.3229	-3.0354	-3.575	-142.052	-74.743	4.197	125.705	113.167	-114.377	-92.379	35.481	80.336	-33.643	165.747	156.787	23.640	14.353	-45.849	36.032	0.00049058	0.00024864	2.7103e-05	486.32	4.0928e-06	3.6902e-06	423.7	169.4	5.1888e-06	1.1035e-06	189.5	70.553	64.473	27.071	4.0107e-06	35.255	0.00073003	0.00078152	0.00021947	484.27	8.3155e-06	8.6948e-06	422.04	168.58	8.2405e-06	8.413e-06	190.07	70.578	64.346	27.137	8.3266e-06	35.229	167.174	125.115	109.455	-160.286	-92.270	-103.683	-161.619	-156.457	-42.794	-45.716	-158.711	-154.962	-152.487	-147.105	-9.323	-150.314	-8191	255	
2336.199	1	1	0	0	0.16767	0.27657	0.087645	0.31036	0.17472	0.12236	0.11681	0.18683	0.08752	0.13259	0.18618	0.13616	0.086369	0.16816	0.13391	0.079863	-2.7646	-3.1688	-3.3479	-3.225	-3.4938	-3.3771	-3.125	-3.5646	-3.3083	-3.2396	-3.4542	-3.2229	-3.3229	-3.4562	-3.1646	-3.3438	167.924	-129.198	68.022	-173.696	-53.586	64.903	120.133	-169.320	30.377	-6.386	8.936	157.764	-171.622	40.481	170.578	-72.616	0.00048347	0.00047262	9.1083e-05	484.64	2.8974e-06	4.6003e-06	419.52	170.3	3.3122e-06	3.5529e-06	190.67	71.141	64.608	27.298	3.2748e-06	35.301	0.000715	0.00075444	0.00021505	482.01	8.3606e-06	8.3991e-06	418.77	169.04	8.3143e-06	8.5295e-06	190.63	70.896	64.614	27.387	8.4229e-06	35.524	162.885	-169.659	-133.019	-160.513	13.859	36.970	-161.836	-156.148	-104.086	-16.105	-158.943	-154.918	-152.470	-146.868	-61.746	-150.334	-8191	255	
2336.295	1	1	0	0	0.19003	0.13666	0.045095	0.20143	0.22373	0.0047665	0.24219	0.1125	0.076165	0.088896	0.1637	0.16812	0.093218	0.073332	0.28875	0.047564	-2.95	-3.0125	-3.3792	-3.2812	-3.3417	-3.6229	-3.2125	-3.5083	-3.3458	-3.0187	-3.6292	-3.1063	-3.3979	-3.5771	-3.1917	-3.2542	-127.468	-133.152	169.334	158.652	-164.247	104.915	30.127	-162.922	-114.987	54.236	96.946	42.354	150.751	-79.683	105.461	-150.726	0.00048466	0.00044717	5.632e-05	484.78	3.5804e-06	1.9722e-06	423.24	171.47	4.3569e-06	5.3448e-06	192.17	71.635	64.986	27.743	2.7659e-06	35.577	0.00074127	0.00077482	0.00022191	481.84	8.5044e-06	8.7413e-06	420.33	169.72	8.407e-06	8.7031e-06	191.99	71.725	65.263	27.754	8.6354e-06	35.929	168.583	-75.749	-82.997	-160.415	-3.458	24.902	-161.847	-156.152	-94.438	23.219	-158.868	-155.163	-153.045	-147.025	-15.132	-150.195	-8191	255	
2336.391	1	1	0	0	0.22579	0.12086	0.17713	0.18902	0.28736	0.0791	0.14845	0.11085	0.12126	0.24346	0.21475	0.11627	0.17553	0.17892	0.0851	0.20412	-3.3625	-3.2083	-3.3438	-3.2979	-3.2542	-3.6729	-3.3208	-3.3479	-3.4146	-3.2083	-3.4833	-3.2687	-3.2604	-3.6125	-3.2875	-3.3875	11.781	159.667	-15.852	107.266	39.049	-19.237	-161.280	-138.578	-90.307	-9.774	102.599	167.851	-142.168	106.991	49.633	95.381	0.00045627	0.00035859	6.9364e-05	485.2	4.3421e-06	4.863e-06	423.59	172.47	2.7547e-06	6.1296e-06	194.26	72.899	65.996	28.129	2.3701e-06	36.269	0.00073567	0.00078122	0.00021982	481.79	8.5783e-06	8.7123e-06	422.1	171.5	8.5293e-06	8.7732e-06	194.41	72.702	66.141	28.182	8.5645e-06	36.419	176.355	-91.136	-162.178	-160.420	-27.742	-41.641	-161.793	-156.153	-84.927	-100.967	-158.771	-154.922	-152.241	-146.797	0.413	-150.121	-8191	255	
2336.512	1	1	0	0	0.12967	0.21799	0.043823	0.15504	0.31713	0.21478	0.34097	0.081156	0.040149	0.1847	0.14879	0.14615	0.13858	0.22578	0.14779	0.11417	-3.0104	-3.25	-3.4271	-3.3563	-3.1333	-3.5062	-3.2354	-3.4125	-3.3917	-3.2208	-3.5167	-3.3354	-3.1542	-3.4771	-3.1146	-3.3417	9.991	118.213	29.455	126.269	-106.661	179.899	145.119	-165.589	102.200	-78.198	155.568	144.060	181.086	77.681	11.459	75.473	0.0004514	0.00059799	9.5125e-05	484.05	1.3862e-06	1.3915e-06	420.87	174.29	7.2735e-07	4.6223e-06	193.42	73.144	66.133	28.437	3.7202e-06	36.359	0.00073036	0.00078725	0.00021857	479.96	8.6037e-06	8.7075e-06	418.6	172.04	8.3476e-06	8.5905e-06	193.38	73.011	66.552	28.566	8.5408e-06	36.556	169.289	-95.400	-116.315	-160.451	-92.754	31.939	-162.196	-155.942	-17.491	-22.581	-158.717	-154.811	-152.721	-146.849	-16.463	-149.993	-8191	255	
2336.608	1	1	0	0	0.1536	0.23568	0.058373	0.25964	0.12706	0.22536	0.2605	0.2229	0.15258	0.12371	0.13003	0.20565	0.18814	0.19828	0.085139	0.21518	-3.0583	-3.0458	-3.3771	-3.4125	-3.1542	-3.5563	-3.1792	-3.3896	-3.5771	-3.2188	-3.5062	-3.3688	-3.2729	-3.4437	-3.3167	-3.3042	-109.438	-30.533	-50.005	179.515	41.662	128.745	17.642	145.899	185.283	90.012	91.640	42.550	61.110	180.301	-114.724	75.701	0.00045447	0.00030637	7.8496e-05	486.2	3.6088e-06	5.9609e-06	418.96	174.81	2.6363e-06	3.829e-06	194.94	73.661	66.802	28.614	1.8495e-06	36.82	0.00072872	0.00077947	0.0002179	480.55	8.3605e-06	8.6951e-06	418.08	172.98	8.4309e-06	8.6726e-06	195.14	73.594	67.184	28.631	8.6155e-06	36.951	166.314	-85.177	-173.218	-160.440	-76.165	-16.783	-161.747	-156.175	-53.250	-47.975	-158.516	-154.731	-152.666	-147.067	-35.372	-150.008	-8191	255	
2336.680	1	1	0	0	0.23256	0.13389	0.060373	0.078547	0.39788	0.083703	0.10353	0.14049	0.053731	0.43491	0.11175	0.067264	0.18951	0.20959	0.079575	0.019269	-3.0125	-3.15	-3.45	-3.5187	-3.275	-3.4938	-3.2938	-3.3438	-3.4771	-3.2188	-3.4042	-3.4583	-3.0958	-3.4646	-3.2708	-3.0708	-34.388	148.150	15.546	126.326	28.653	-134.361	2.486	127.148	13.510	71.154	0.393	153.627	146.479	-31.742	126.775	-130.505	0.00051019	0.00044161	2.3853e-05	480.63	1.0625e-06	2.8317e-06	422.57	174.64	5.7804e-06	8.5221e-06	195.07	73.702	66.872	28.398	3.2412e-06	36.637	0.00074503	0.00078857	0.00022215	479.13	8.418e-06	8.796e-06	420.38	172.89	8.5738e-06	8.8332e-06	195.52	73.645	66.995	28.629	8.8142e-06	36.863	162.569	-106.128	-1.452	-160.274	8.251	3.034	-161.478	-156.016	-116.163	-48.612	-158.515	-154.863	-152.478	-146.531	-2.339	-150.369	-8191	255	
2336.776	1	1	0	0	0.1294	0.04306	0.14209	0.13356	0.21216	0.067769	0.27543	0.30509	0.27361	0.19283	0.10589	0.28244	0.21612	0.1277	0.27829	0.27108	-2.9479	-3.2	-3.2167	-3.4292	-3.2354	-3.4479	-3.4375	-3.3771	-3.5687	-3.2458	-3.3083	-3.4188	-3.225	-3.4854	-3.5271	-3.1896	163.555	111.445	53.784	106.279	-24.758	-96.074	161.100	103.652	69.039	-48.232	98.786	12.981	-67.744	-138.368	126.247	137.338	0.00042602	0.00025016	0.00010816	484.43	2.7377e-06	5.6611e-06	422	173.42	2.092e-06	2.7196e-06	193.92	72.346	66.248	28.379	2.1371e-06	36.455	0.00075772	0.00078948	0.00022447	481.22	8.7265e-06	8.9617e-06	422.13	172.41	8.4973e-06	8.7899e-06	193.87	72.666	66.409	28.497	8.7002e-06	36.52	161.370	26.550	-63.410	-160.257	-33.826	-55.063	-161.651	-155.935	-37.347	34.199	-158.919	-154.688	-152.426	-146.962	-5.472	-150.253	-8191	255	
2336.895	1	1	0	0	0.046386	0.16182	0.15438	0.31517	0.19398	0.027929	0.20742	0.25329	0.15544	0.13205	0.11771	0.26371	0.069368	0.15612	0.24797	0.37712	-3.2021	-3.1813	-3.2542	-3.6333	-3.0687	-3.4333	-3.3396	-3.2104	-3.4417	-3.3271	-3.3542	-3.4417	-3.2729	-3.3375	-3.3688	-3.2604	175.258	-145.798	128.496	-25.092	117.809	-109.293	63.539	134.522	-152.168	97.597	-70.660	157.752	180.153	122.798	107.485	91.579	0.00045811	0.00023867	9.2368e-05	484.53	1.9663e-06	4.9981e-06	421.57	172.15	7.6858e-07	3.7548e-06	191.66	72.354	65.764	28.275	3.9786e-06	36.345	0.0007371	0.00079327	0.00022277	480.2	8.535e-06	8.9124e-06	418.19	171.24	8.5209e-06	8.8354e-06	192.96	72.537	66.083	28.307	8.4844e-06	36.554	165.388	-70.082	-45.823	-160.366	2.556	-14.252	-161.586	-155.987	-9.399	-39.689	-158.616	-155.111	-152.346	-146.623	-110.389	-150.463	-8191	255	
2336.991	1	1	0	0	0.4178	0.13131	0.27943	0.18643	0.20623	0.29529	0.18151	0.17871	0.023688	0.16948	0.061735	0.15654	0.39846	0.21308	0.20403	0.064932	-2.9958	-3.3312	-3.0896	-3.5854	-3.3604	-3.3563	-3.4854	-3.2687	-3.4229	-3.4062	-3.2042	-3.5521	-3.0833	-3.0312	-3.5687	-3.2313	107.238	-146.375	-45.394	185.250	-140.836	15.245	-1.473	-56.363	-93.601	103.613	0.343	-169.992	-162.472	-92.941	54.754	71.678	0.00041948	0.00023779	8.421e-05	478.69	2.5777e-06	1.4746e-06	420.24	172.84	2.0707e-06	3.5218e-06	193.72	72.716	66.001	28.2	2.3979e-06	36.409	0.00073718	0.00079328	0.00022349	478.86	8.5537e-06	8.8503e-06	417.71	171.23	8.4316e-06	8.7451e-06	193.21	72.557	66.164	28.313	8.6131e-06	36.57	165.515	-116.342	-124.344	-160.327	-26.963	-51.993	-161.434	-155.982	-85.419	-7.603	-158.899	-154.784	-152.607	-146.615	-34.078	-150.385	-8191	255	
2337.087	1	1	0	0	0.15846	0.12869	0.19817	0.22423	0.10022	0.080448	0.18308	0.085135	0.074448	0.07629	0.10358	0.065921	0.14875	0.1369	0.077201	0.094193	-3.0687	-3.1833	-3.1167	-3.5312	-3.225	-3.2229	-3.4521	-3.1375	-3.4354	-3.4062	-3.1125	-3.4833	-3.2979	-3.3104	-3.3458	-3.1479	90.158	7.820	158.694	-138.406	-125.794	98.576	174.491	87.052	-20.271	159.820	109.552	-136.283	-168.315	144.106	-108.441	120.133	0.00041646	0.00021722	0.00010851	482.57	3.6087e-06	3.6035e-06	419.45	172.51	2.7295e-06	2.0562e-06	193.42	72.268	65.649	28.091	5.0919e-06	35.999	0.00074487	0.00079566	0.00022361	478.49	8.5816e-06	8.6323e-06	417.52	171	8.4594e-06	8.6371e-06	193.1	72.419	65.907	28.099	8.2804e-06	36.111	167.100	-12.180	-91.035	-160.277	-35.244	54.962	-161.742	-156.052	-42.433	18.672	-158.742	-155.089	-152.825	-146.792	-11.372	-150.298	-8191	255	
2337.183	1	1	0	0	0.095773	0.094907	0.083018	0.26844	0.060418	0.18262	0.24354	0.24309	0.12372	0.14011	0.24131	0.10202	0.26771	0.1899	0.16291	0.1384	-2.9521	-3.4458	-3.1188	-3.5958	-3.2792	-3.3438	-3.4104	-3.2667	-3.3979	-3.4625	-3.3375	-3.3833	-3.2458	-3.25	-3.5229	-3.1875	155.008	-138.071	-105.625	66.564	-116.924	49.887	150.327	40.065	32.183	105.387	-143.276	-168.846	-153.514	-9.647	-125.551	36.963	0.00050204	0.0006955	5.9846e-05	478.39	2.3915e-06	8.3228e-07	413.39	169.36	3.6575e-06	5.8094e-06	190.16	70.828	64.45	27.681	4.1067e-06	35.586	0.00071895	0.00076274	0.00021292	473.86	8.2449e-06	8.4905e-06	412.43	168.82	8.2082e-06	8.3262e-06	189.47	70.845	64.78	27.723	8.1042e-06	35.577	170.409	-60.182	-95.034	-160.426	-101.693	-143.279	-161.643	-156.088	-92.895	-31.140	-158.538	-155.029	-152.904	-146.823	-37.303	-150.688	-8191	255	
2337.279	1	1	0	0	0.20725	0.13421	0.21959	0.26298	0.084072	0.20514	0.091257	0.23301	0.23556	0.13558	0.166	0.083492	0.0954	0.24062	0.09588	0.10581	-2.8958	-3.4021	-3.1229	-3.4313	-3.4271	-3.1854	-3.7438	-3.3312	-3.3229	-3.5625	-3.2083	-3.3979	-3.3542	-3.1708	-3.5333	-3.3438	119.862	-60.667	-23.420	-111.200	25.404	-142.601	-172.443	55.771	6.387	-98.516	-48.104	-130.622	99.287	-63.861	144.451	91.112	0.00047135	0.00020673	9.0432e-05	474.15	1.2589e-06	1.1469e-06	413.11	168.71	4.344e-06	4.1635e-06	190.2	71.351	64.701	27.768	9.6954e-07	35.7	0.0007014	0.00073787	0.00020803	472.69	8.0496e-06	8.1608e-06	411.28	168.26	8.0847e-06	8.2343e-06	189.98	71.269	64.921	27.76	8.064e-06	35.94	165.637	-84.203	-98.760	-160.585	74.542	110.365	-161.823	-156.151	-79.963	12.265	-158.954	-154.741	-152.376	-146.678	-28.794	-150.364	-8191	255	
2337.375	1	1	0	0	0.097544	0.1867	0.35611	0.083252	0.049238	0.18203	0.021199	0.23494	0.14185	0.087251	0.31261	0.12113	0.2382	0.10397	0.21543	0.16603	-2.9	-3.3104	-2.925	-3.6104	-3.4688	-3.3125	-3.5729	-3.225	-3.2062	-3.6479	-3.1729	-3.3667	-3.4625	-3.1125	-3.3917	-3.3021	170.404	-48.234	-114.671	-56.242	86.071	-112.009	75.076	-136.130	-8.746	-162.644	139.572	14.082	-172.821	-28.592	184.826	160.870	0.00042373	0.00032827	4.0986e-05	473.42	1.3969e-06	6.8455e-06	412.31	170.42	2.5935e-06	4.9733e-06	190.77	71.91	65.207	27.739	1.8533e-06	36.08	0.00070937	0.00074809	0.00020676	471.52	8.0499e-06	8.3497e-06	411.4	169.22	7.9756e-06	8.2667e-06	191.1	71.888	65.259	27.89	8.1043e-06	36.145	168.429	-92.328	77.169	-160.386	79.619	-17.321	-161.919	-156.273	-28.812	42.420	-158.619	-154.755	-152.124	-146.756	-42.144	-150.494	-8191	255	
2337.472	1	1	0	0	0.34914	0.10793	0.089101	0.29305	0.26415	0.12885	0.07182	0.12194	0.18417	0.18458	0.13176	0.14722	0.21316	0.083342	0.12593	0.12549	-2.8479	-3.4417	-3.3208	-3.3333	-3.3854	-3.1083	-3.4875	-3.3896	-3.3125	-3.5167	-3.1646	-3.3708	-3.2729	-3.3042	-3.4958	-3.3937	111.354	18.112	34.323	185.060	-123.893	114.960	144.014	145.321	-77.769	152.448	-121.365	90.118	149.224	66.858	91.657	-145.390	0.00038886	0.00063204	0.0001022	476.13	3.6922e-06	5.3072e-06	414.8	170.56	6.3928e-06	2.6394e-06	189.78	71.283	65.643	27.816	3.8091e-06	35.72	0.00071374	0.00074359	0.00020981	472	8.1714e-06	8.3702e-06	411.14	169.1	7.954e-06	8.1481e-06	189.8	71.176	65.168	27.87	7.9758e-06	35.796	168.747	-67.742	-109.098	-160.088	30.692	17.906	-161.773	-156.068	-51.794	-52.441	-158.869	-154.678	-152.439	-146.895	-60.187	-150.504	-8191	255	
2337.592	1	1	0	0	0.36396	0.1524	0.26045	0.23519	0.49447	0.07315	0.14102	0.2988	0.096001	0.13397	0.045517	0.17877	0.18084	0.082785	0.076156	0.23712	-2.7417	-3.55	-3.2542	-3.4188	-3.5521	-3.1208	-3.3042	-3.5458	-3.275	-3.6854	-3.4354	-3.1896	-3.5667	-3.1771	-3.2146	-3.4292	-117.057	147.662	43.158	183.866	-165.462	-72.209	156.971	12.398	-172.382	74.860	73.468	155.887	102.505	117.333	-167.211	-165.689	0.00049945	0.00011624	0.00016497	474.23	3.1417e-06	1.9848e-06	411.22	169.61	6.2228e-06	3.5184e-06	190.13	71.904	65.012	27.858	4.4922e-06	36.111	0.00069665	0.0007368	0.00020879	470.58	8.0297e-06	8.3394e-06	409.2	168.69	8.0028e-06	8.1998e-06	189.77	71.509	65.219	27.927	8.0871e-06	36.13	166.923	-55.765	-109.073	-160.543	-53.134	13.998	-161.594	-156.163	-104.246	-75.922	-158.849	-154.966	-152.435	-147.172	-38.527	-150.488	-8191	255	
2337.688	1	1	0	0	0.28021	0.16379	0.29805	0.17886	0.12692	0.13534	0.069512	0.18465	0.20447	0.26022	0.028177	0.18459	0.18602	0.15446	0.086265	0.13331	-2.7333	-3.6167	-3.1437	-3.3937	-3.5729	-3.3042	-3.3708	-3.3271	-3.025	-3.4042	-3.3333	-3.2062	-3.4688	-3.2667	-3.3937	-3.4354	-52.657	57.112	12.959	-152.740	56.535	-7.166	168.280	181.787	53.067	37.693	119.378	65.503	-144.850	124.565	82.684	85.166	0.00041423	0.00058766	0.00017038	476.69	1.42e-06	8.7912e-06	413.97	172.55	4.5466e-06	1.4561e-06	192.56	72.835	65.581	28.064	3.9042e-06	36.443	0.0007006	0.00075044	0.00021306	471.87	8.1752e-06	8.3165e-06	413.29	170.42	8.1748e-06	8.1917e-06	192.19	72.617	65.796	28.21	8.3318e-06	36.504	170.920	-66.747	-75.248	-160.121	26.505	-16.543	-161.520	-155.794	-19.191	35.871	-158.966	-154.829	-152.317	-146.900	-1.819	-150.555	-8191	255	
2337.785	1	1	0	0	0.048796	0.17841	0.28678	0.063078	0.29104	0.13113	0.30009	0.11209	0.094665	0.05246	0.018931	0.23236	0.074333	0.085724	0.35825	0.19232	-2.6604	-3.4729	-3.2375	-3.2167	-3.4479	-3.2083	-3.3792	-3.4958	-3.2333	-3.4625	-3.3	-3.1813	-3.25	-3.1937	-3.2396	-3.5896	127.242	-102.869	98.196	-83.636	7.439	96.696	60.560	-126.551	-104.153	-140.908	108.939	-39.918	-136.034	134.287	-90.116	-21.480	0.00044197	0.00018519	0.00015852	477.03	1.9951e-06	1.6432e-06	416.88	172.67	3.3719e-06	4.2882e-06	194.4	73.065	65.892	28.398	3.6033e-06	36.515	0.00072031	0.00075295	0.00021696	474.36	8.1e-06	8.4905e-06	416.17	171.26	8.2544e-06	8.3315e-06	193.66	72.871	66.37	28.462	8.1645e-06	36.607	158.399	-69.587	-89.461	-160.239	57.260	-23.024	-161.416	-156.067	-91.731	88.571	-158.607	-154.503	-152.226	-147.072	-32.376	-150.422	-8191	255	
2337.881	1	1	0	0	0.19239	0.23422	0.14238	0.10485	0.11549	0.025801	0.3115	0.18256	0.081841	0.19943	0.26815	0.033095	0.093971	0.043786	0.14064	0.10927	-2.7583	-3.3979	-3.3292	-3.2938	-3.4771	-3.3063	-3.3604	-3.6063	-3.2792	-3.3854	-3.3854	-3.1833	-3.6229	-3.4479	-3.3521	-3.6813	-111.504	54.527	137.741	6.958	123.599	45.145	183.996	136.018	91.940	174.743	66.972	77.685	108.388	-106.687	165.353	97.515	0.00043008	0.00043791	2.9008e-05	477.61	4.0162e-06	5.291e-06	414.58	172.04	2.1816e-06	5.5897e-06	192.76	72.737	66.213	28.505	2.5837e-06	36.405	0.00071044	0.00074462	0.00020978	474.49	8.0212e-06	8.2974e-06	413.43	171.09	7.9528e-06	8.426e-06	192.29	72.548	66.113	28.401	8.2815e-06	36.527	165.365	-81.017	-77.186	-160.366	18.183	-50.399	-161.622	-156.162	-138.244	-11.860	-158.955	-154.765	-152.524	-147.052	-42.272	-150.300	-8191	255	
2337.975	1	1	0	0	0.15021	0.30261	0.090584	0.10907	0.17051	0.14466	0.1636	0.12062	0.091995	0.080621	0.17616	0.13718	0.13334	0.17801	0.027376	0.19801	-2.7958	-3.35	-3.4354	-3.1604	-3.3979	-3.3979	-3.3021	-3.5625	-3.3729	-3.4958	-3.5271	-3.0771	-3.4354	-3.4104	-3.2021	-3.5979	-51.191	57.362	-72.318	29.614	-79.899	-154.184	45.584	114.701	162.582	158.228	-33.951	-170.871	160.423	137.224	-123.830	114.094	0.00047907	0.00060596	7.1312e-05	476.38	4.3977e-06	5.178e-06	417.28	172.98	4.4668e-06	2.5134e-06	193.45	73.564	66.51	28.6	1.6675e-06	36.819	0.0007148	0.00075391	0.00020972	473.85	8.1359e-06	8.4723e-06	415	171.56	8.3482e-06	8.4628e-06	193.85	73.151	66.659	28.608	8.42e-06	36.889	171.352	-67.115	-131.519	-160.464	-31.303	-2.993	-161.495	-155.639	-39.836	-100.428	-158.591	-155.061	-152.507	-146.645	-76.378	-150.216	-8191	255	
2338.071	1	1	0	0	0.11389	0.31901	0.27442	0.16092	0.11839	0.12051	0.091368	0.16874	0.13889	0.071483	0.11037	0.1445	0.082351	0.054139	0.28028	0.095007	-2.7375	-3.2375	-3.4667	-3.2583	-3.4479	-3.4375	-3.2542	-3.6833	-3.3812	-3.1542	-3.5625	-3.2354	-3.5687	-3.3708	-3.125	-3.5354	44.452	120.939	138.326	185.966	-83.887	34.709	-140.048	155.905	34.006	4.057	131.700	160.324	-161.313	-141.960	-125.532	-63.436	0.00043286	0.00057767	1.2161e-05	479.38	4.176e-06	9.5125e-06	421.14	173.45	1.7631e-06	6.0084e-07	196.13	74.216	66.829	28.659	9.2002e-07	37.001	0.00072449	0.00077138	0.00021595	475.13	8.4153e-06	8.6512e-06	418.35	172.32	8.2333e-06	8.57e-06	195.54	73.851	66.802	28.708	8.5029e-06	37.054	169.019	-130.221	-105.694	-160.438	48.501	-61.295	-161.861	-155.817	-105.159	178.659	-158.504	-155.205	-152.201	-146.998	44.148	-150.143	-8191	255	
2338.167	1	1	0	0	0.17458	0.069451	0.11002	0.18876	0.22443	0.043034	0.26702	0.19921	0.10493	0.12283	0.044574	0.19861	0.22756	0.36242	0.098922	0.15255	-2.8063	-3.2313	-3.7208	-3.4583	-3.4229	-3.6979	-3.1021	-3.4458	-3.3521	-3.175	-3.5146	-3.2	-3.4917	-3.6188	-3.1937	-3.4062	20.770	-104.872	-42.439	76.671	28.303	136.568	161.909	123.464	-78.533	50.906	46.746	35.543	174.425	-125.752	39.968	-110.911	0.0004726	0.0003982	4.9694e-05	479.58	2.1059e-06	5.0572e-06	418.38	172.85	3.2419e-06	2.7206e-06	192.46	72.352	66.445	28.551	7.2445e-08	36.261	0.00072651	0.00076959	0.00021488	476.66	8.2808e-06	8.4456e-06	416.41	171.53	8.1515e-06	8.3731e-06	192.75	72.528	66.321	28.526	8.4155e-06	36.545	175.191	-95.569	182.228	-160.091	20.601	-17.072	-161.481	-156.106	-69.183	-27.244	-158.870	-154.939	-152.670	-146.934	75.771	-150.510	-8191	255	
2338.288	1	1	0	0	0.13241	0.23329	0.22805	0.082151	0.14651	0.16387	0.082222	0.10336	0.25483	0.12209	0.13461	0.10161	0.19084	0.33817	0.1526	0.095739	-2.8312	-3.0417	-3.4146	-3.1542	-3.3229	-3.5042	-3.2292	-3.5687	-3.2729	-3.1417	-3.5792	-3.1354	-3.3229	-3.5312	-3.2521	-3.2646	112.031	-134.720	89.832	132.804	136.337	-152.443	160.489	9.849	-32.506	150.901	64.965	53.007	161.094	157.253	-102.514	43.660	0.00047241	0.00064727	3.478e-05	475.02	2.4853e-06	3.8659e-06	418.16	172.31	5.8126e-07	4.5917e-06	193.67	72.999	65.869	28.398	2.1693e-06	36.417	0.00071002	0.00076504	0.00021491	473.67	8.3047e-06	8.4741e-06	415.99	170.97	8.2217e-06	8.5007e-06	193.49	72.934	66.086	28.424	8.4222e-06	36.662	161.282	-54.247	-121.695	-160.458	-44.286	-90.538	-161.851	-156.395	-27.398	-38.837	-158.703	-154.834	-152.456	-146.926	-146.258	-150.188	-8191	255	
2338.384	1	1	0	0	0.068206	0.076812	0.19537	0.091947	0.20419	0.22936	0.038814	0.18094	0.12912	0.26106	0.26144	0.15334	0.15709	0.24898	0.2068	0.24848	-2.9771	-3.2313	-3.4833	-3.2292	-3.3042	-3.4146	-3.325	-3.525	-3.35	-3.1437	-3.5583	-3.2708	-3.3021	-3.6417	-3.1604	-3.4083	148.691	40.277	46.806	-100.638	150.509	80.791	-4.072	34.356	-20.243	75.102	166.737	-161.777	-127.756	142.969	104.310	61.513	0.00046521	0.00021912	8.3724e-05	476.74	3.7583e-07	5.293e-06	420.92	171.94	6.2162e-06	1.9086e-06	194.84	73.617	66.214	28.356	6.1031e-06	36.866	0.00072413	0.00078087	0.00021979	474.94	8.278e-06	8.5099e-06	419.11	171.31	8.3513e-06	8.6141e-06	194.53	73.587	66.715	28.543	8.5104e-06	36.917	165.421	-79.829	-59.295	-160.118	6.374	-38.008	-161.835	-156.121	-64.792	184.933	-158.923	-154.861	-152.679	-146.523	-59.252	-150.440	-8191	255	
2338.480	1	1	0	0	0.2216	0.10623	0.27632	0.10368	0.041273	0.23411	0.099683	0.18224	0.036463	0.20492	0.076345	0.10176	0.25067	0.1439	0.36228	0.04751	-2.8979	-3.35	-3.4375	-3.4583	-3.1708	-3.4021	-3.0812	-3.4896	-3.3771	-3.1312	-3.5167	-3.3729	-3.3917	-3.3833	-3.2417	-3.4938	-164.263	162.650	-42.189	-7.285	-40.984	-126.679	94.840	157.182	2.044	-169.681	134.489	17.392	-74.562	-3.365	141.699	153.571	0.00046178	0.00031292	2.8625e-05	481.59	2.5003e-06	2.9519e-06	419.54	174.05	2.9197e-06	2.4981e-06	192.34	73.198	65.869	28.372	4.2844e-06	36.446	0.00071949	0.00077145	0.00021873	477.21	8.4575e-06	8.6762e-06	419.82	172.44	8.2874e-06	8.6812e-06	193.6	72.822	66.229	28.378	8.3405e-06	36.607	173.789	-144.697	63.784	-160.398	-6.268	-7.099	-161.818	-155.678	-81.119	-53.799	-158.531	-154.759	-152.604	-146.553	-1.287	-150.276	-8191	255	
2338.552	1	1	0	0	0.21605	0.29603	0.087381	0.13116	0.1636	0.16009	0.2249	0.16657	0.14758	0.11447	0.12174	0.10455	0.050452	0.032147	0.076481	0.18302	-3.1937	-3.1646	-3.3333	-3.0812	-3.1396	-3.3917	-3.1083	-3.4917	-3.3937	-3.1979	-3.625	-3.4271	-3.0729	-3.525	-3.1104	-3.1042	3.938	108.294	-93.502	-108.917	-110.549	102.253	-75.570	115.374	-82.138	161.232	31.187	-128.421	-12.430	25.618	-20.570	115.774	0.00040864	0.00038244	1.7068e-05	480.94	4.4929e-06	5.0514e-06	417.32	171.98	3.3184e-06	1.0492e-05	193.6	72.89	65.549	28.387	1.0394e-06	36.321	0.00071774	0.00076895	0.00021404	475.29	8.2196e-06	8.5925e-06	416.12	171.2	8.2016e-06	8.6055e-06	192.58	72.337	65.872	28.314	8.4919e-06	36.492	167.879	-101.010	76.305	-160.252	-130.806	-4.149	-161.942	-156.003	-101.935	33.666	-159.038	-154.908	-152.606	-146.852	171.138	-150.269	-8191	255	
2338.673	1	1	0	0	0.16384	0.15177	0.12219	0.33805	0.056575	0.094273	0.25597	0.33436	0.075346	0.10158	0.19121	0.060742	0.083291	0.07902	0.27156	0.051395	-3.0167	-3.1125	-3.3063	-3.4792	-3.1542	-3.6063	-3.425	-3.1833	-3.3875	-3.2167	-3.4354	-3.5104	-3.0938	-3.5146	-3.2229	-3.2229	-137.095	68.659	147.472	111.829	-112.263	-141.014	128.596	161.715	140.234	-17.521	106.236	25.660	-51.521	66.255	111.047	-169.337	0.00044254	0.00045787	6.0177e-05	476.99	5.9173e-06	1.1365e-06	419.34	172.15	3.5622e-06	3.8116e-06	194.16	72.975	66.008	28.266	4.1713e-06	36.756	0.00071804	0.00078101	0.00022126	474.62	8.5077e-06	8.626e-06	418.38	171.19	8.3614e-06	8.6551e-06	193.64	72.914	66.192	28.368	8.5134e-06	36.76	165.097	-88.046	-113.492	-160.324	-78.139	104.248	-161.484	-155.915	-107.998	-81.680	-158.989	-155.001	-152.629	-146.509	0.263	-150.171	-8191	255	
2338.769	1	1	0	0	0.089212	0.048857	0.31206	0.23964	0.1879	0.096186	0.22905	0.088598	0.18427	0.25522	0.16262	0.2478	0.15123	0.16555	0.1707	0.37726	-3.1937	-3.1188	-3.2	-3.5542	-2.9333	-3.4604	-3.4521	-3.2646	-3.3438	-3.3354	-3.2583	-3.5438	-3.15	-3.5771	-3.3646	-3.1896	53.405	90.781	182.809	-102.539	156.051	117.809	105.140	-76.061	-169.984	66.270	-93.480	61.389	29.694	47.754	-70.313	44.025	0.00044452	0.00017525	6.4329e-05	479.03	4.2936e-06	8.1092e-06	420.54	173.29	4.4505e-06	2.6588e-06	195.77	73.407	66.26	28.396	2.3971e-06	36.635	0.00074402	0.00078256	0.00022087	476.2	8.5293e-06	8.8743e-06	419.94	171.72	8.5478e-06	8.6819e-06	195.22	73.569	66.4	28.501	8.4872e-06	36.776	164.005	7.121	-89.389	-159.789	-93.225	-39.748	-161.609	-156.120	-73.313	-134.805	-158.799	-154.887	-152.582	-146.869	-24.613	-150.097	-8191	255	
2338.865	1	1	0	0	0.10934	0.16616	0.089129	0.31857	0.19732	0.2063	0.13057	0.21499	0.15253	0.12147	0.20595	0.23455	0.2109	0.3459	0.18455	0.20941	-3.2208	-3.2375	-3.3187	-3.6208	-3.2833	-3.5792	-3.6188	-3.2917	-3.6604	-3.3292	-3.1937	-3.6333	-3.1667	-3.3021	-3.4562	-3.1792	-24.033	-57.986	79.870	125.552	171.363	78.055	-118.027	-158.136	97.037	87.653	131.325	-148.064	150.944	-45.865	72.896	124.582	0.00041242	0.00052098	3.8745e-05	479.34	5.7948e-06	3.9675e-06	418.59	171.76	1.4978e-06	5.0491e-06	193.56	72.865	65.518	28.158	4.3113e-06	36.405	0.00072242	0.00077819	0.00021918	475.39	8.3833e-06	8.5477e-06	416.89	170.58	8.3077e-06	8.5617e-06	192.35	72.505	65.941	28.245	8.4425e-06	36.406	161.297	-65.810	49.154	-160.637	-29.242	-18.169	-161.859	-155.971	-45.897	-20.578	-158.424	-154.889	-152.253	-147.064	-77.127	-150.323	-8191	255	
2338.984	1	1	0	0	0.24774	0.19198	0.21078	0.38227	0.13155	0.072311	0.36659	0.085631	0.049012	0.14642	0.31323	0.20851	0.24634	0.068249	0.094304	0.04428	-3.0833	-3.0729	-3.1688	-3.6604	-3.2438	-3.4	-3.5	-3.1917	-3.4396	-3.2313	-3.3438	-3.4417	-3.2833	-3.4062	-3.6521	-3.3063	-135.432	-137.640	-35.304	146.117	78.643	3.394	143.408	161.682	-49.502	170.707	-168.995	-115.967	164.203	113.009	-100.618	141.713	0.00045929	0.00039448	7.5515e-05	479.87	1.3884e-06	4.3533e-06	419.02	171.66	1.0241e-06	5.7949e-06	193.94	72.375	66.538	28.127	3.1318e-06	36.503	0.00073441	0.00076882	0.00021873	474.21	8.5083e-06	8.6666e-06	416.8	170.29	8.4142e-06	8.6387e-06	193.45	72.662	66.225	28.289	8.4337e-06	36.616	170.386	-68.231	-32.826	-160.216	30.268	-4.897	-161.766	-156.032	-66.087	-7.575	-158.839	-155.136	-152.393	-146.797	-81.132	-150.321	-8191	255	
2339.080	1	1	0	0	0.078524	0.14601	0.20034	0.11999	0.16286	0.26063	0.048811	0.36239	0.15231	0.042029	0.21192	0.19719	0.059266	0.21306	0.18055	0.085359	-3.025	-3.5125	-3.2125	-3.5375	-3.3604	-3.4354	-3.5125	-3.1833	-3.3958	-3.4562	-3.1458	-3.4938	-3.3458	-3.3208	-3.4771	-3.2875	66.288	107.847	-30.034	30.376	20.024	-88.281	150.297	73.983	76.364	96.551	-41.285	-115.312	169.135	-117.930	86.785	69.298	0.00038508	0.00018872	0.00019233	476.55	3.4123e-06	6.7724e-06	420.51	172.87	5.4278e-06	5.0582e-06	195.42	73.078	65.957	28.405	2.5277e-06	36.864	0.00073648	0.00079014	0.00022036	475.13	8.5019e-06	8.8188e-06	419.17	171.51	8.5034e-06	8.6219e-06	194.73	73.083	66.265	28.435	8.5375e-06	36.8	160.931	-71.436	-88.584	-160.479	-127.361	2.398	-161.915	-155.972	-46.772	27.454	-158.711	-154.988	-152.376	-146.614	-153.584	-150.459	-8191	255	
2339.153	1	1	0	0	0.17128	0.24777	0.11088	0.094252	0.064058	0.03773	0.17519	0.095594	0.18678	0.063696	0.083699	0.1426	0.058802	0.087794	0.13734	0.29678	-3.0333	-3.3688	-3.1896	-3.6562	-3.3104	-3.1792	-3.5417	-3.3521	-3.4771	-3.5396	-3.2458	-3.5042	-3.1167	-3.2583	-3.5979	-3.1792	-113.491	55.631	31.170	-16.322	144.764	36.282	77.354	174.469	124.669	117.946	-116.504	-145.387	-158.157	-37.746	4.714	179.006	0.0004209	0.00057775	7.0945e-05	479.7	3.0835e-06	3.4674e-06	423.69	171.55	3.7787e-06	5.4183e-06	193.68	72.717	65.715	28.372	2.1134e-06	36.264	0.0007463	0.00077843	0.00022139	476.22	8.4611e-06	8.7537e-06	420.39	171.14	8.3085e-06	8.6676e-06	193.57	72.68	65.884	28.399	8.4591e-06	36.477	163.528	-64.666	-38.145	-160.108	-93.814	-54.382	-161.967	-156.025	-74.656	0.264	-158.681	-155.005	-152.388	-146.988	-38.539	-150.462	-8191	255	
2339.272	1	1	0	0	0.066951	0.29856	0.27541	0.15771	0.063579	0.092518	0.099902	0.2274	0.25143	0.26817	0.1054	0.28016	0.13879	0.061631	0.15602	0.021816	-2.9646	-3.4146	-3.05	-3.4542	-3.4771	-3.275	-3.5229	-3.2562	-3.3271	-3.3625	-3.2417	-3.3833	-3.4521	-3.1958	-3.4896	-3.2542	-173.494	-129.170	71.684	72.796	28.877	81.002	-59.085	153.622	-128.182	109.928	-55.643	124.381	-38.612	181.300	161.192	-168.086	0.00045901	0.00022112	0.00011667	474.92	1.95e-06	5.7605e-06	418.76	171.26	1.0666e-06	8.6887e-07	194.12	72.246	66.071	28.097	1.8656e-06	36.487	0.00072083	0.00076807	0.00021711	472.43	8.3605e-06	8.4626e-06	416.28	170.14	8.3869e-06	8.6388e-06	192.43	72.501	65.893	28.222	8.2992e-06	36.46	159.355	-55.016	-40.525	-160.311	-5.754	-101.082	-161.593	-155.955	-135.614	63.071	-158.964	-154.878	-152.400	-146.675	172.635	-150.438	-8191	255	
2339.368	1	1	0	0	0.35604	0.15456	0.053645	0.12497	0.15566	0.081	0.16056	0.16362	0.14358	0.17576	0.068291	0.27975	0.097905	0.15365	0.088717	0.11613	-2.9896	-3.4833	-3.2146	-3.4146	-3.4437	-3.3563	-3.4708	-3.1958	-3.2625	-3.4333	-3.1958	-3.3292	-3.4313	-3.2812	-3.4188	-3.4	-38.497	-138.875	-85.173	61.157	41.913	171.458	134.816	80.102	88.435	29.403	134.991	131.330	177.313	100.033	-90.032	176.078	0.00047562	0.0002237	0.00010247	475.96	1.8579e-06	7.4508e-06	420.75	171.42	3.0252e-06	4.7807e-06	193.57	73.373	66.232	28.339	1.4217e-06	36.705	0.00072605	0.00077574	0.0002205	472.28	8.367e-06	8.6801e-06	418.01	170.64	8.298e-06	8.6284e-06	193.59	73.167	66.331	28.372	8.4099e-06	36.765	158.989	-72.951	-112.366	-160.370	-54.178	-39.900	-161.620	-156.251	-70.254	-50.458	-158.592	-154.587	-152.535	-146.798	-52.971	-150.511	-8191	255	
2339.465	1	1	0	0	0.13728	0.11897	0.18998	0.0625	0.19425	0.31004	0.16184	0.25613	0.24511	0.22799	0.2073	0.23167	0.14126	0.14914	0.094982	0.12026	-2.8937	-3.425	-3.2104	-3.5125	-3.4375	-3.1562	-3.4667	-3.3125	-3.2125	-3.5438	-3.1125	-3.4437	-3.65	-3.3271	-3.5083	-3.5458	50.841	-95.960	167.167	4.635	-112.389	103.421	60.729	130.135	49.078	146.454	162.615	43.346	-141.713	94.276	116.629	-109.433	0.00048433	0.00018901	0.00015597	477.74	2.7457e-06	3.7186e-06	420.03	172.16	2.9432e-06	4.2287e-06	193.66	73.898	66.373	28.269	1.6937e-06	36.394	0.00073998	0.00078407	0.00022084	474.51	8.3922e-06	8.6851e-06	419.02	171.19	8.5011e-06	8.6587e-06	194.34	73.482	66.427	28.405	8.4178e-06	36.668	167.762	-171.612	-66.766	-160.616	-29.892	-18.206	-161.733	-155.961	-118.821	33.891	-158.996	-154.869	-152.652	-146.612	-43.675	-150.357	-8191	255	
2339.585	1	1	0	0	0.12316	0.16233	0.085465	0.29502	0.059806	0.20094	0.14558	0.143	0.18121	0.030824	0.045726	0.17741	0.054511	0.30177	0.31176	0.15881	-2.8563	-3.4208	-3.1167	-3.3542	-3.4021	-3.1917	-3.4729	-3.3854	-3.2146	-3.5458	-3.2771	-3.275	-3.5792	-3.1354	-3.4562	-3.1583	49.809	-154.930	113.090	97.778	-108.664	-103.924	67.240	151.092	156.928	26.168	66.741	80.599	-136.941	-92.754	121.037	-133.234	0.00042615	0.00040691	1.1943e-05	477.07	3.0794e-06	4.1835e-06	416.66	172.34	3.315e-06	6.0204e-06	193.12	72.232	66.05	28.117	4.2699e-06	36.157	0.00073132	0.00077859	0.00021846	473.15	8.4585e-06	8.6541e-06	415.34	171.08	8.2456e-06	8.5058e-06	192.48	72.184	65.885	28.264	8.545e-06	36.339	160.427	-167.071	61.666	-160.072	-37.472	13.588	-161.900	-156.152	-83.483	-2.499	-158.615	-155.185	-152.350	-146.938	-25.073	-150.233	-8191	255	
2339.681	1	1	0	0	0.22112	0.096177	0.17646	0.25409	0.22599	0.24322	0.1215	0.3551	0.11325	0.13704	0.14983	0.28646	0.17015	0.097719	0.15928	0.19447	-2.7521	-3.4313	-3.2854	-3.1688	-3.5646	-3.2	-3.4229	-3.35	-3.1083	-3.5875	-3.2188	-3.3563	-3.5083	-3.1896	-3.4354	-3.4688	-113.765	185.842	-24.304	75.757	111.824	65.078	-101.835	95.770	104.208	104.284	-1.191	-169.164	-104.275	94.172	-28.466	107.318	0.00049152	0.00029825	0.00010392	476.42	5.4864e-06	4.166e-06	414.49	171.35	2.991e-06	8.7935e-07	191.76	72.731	65.905	28.36	5.6833e-06	36.793	0.00071855	0.00077308	0.00021743	472.53	8.3434e-06	8.6158e-06	415.74	170.25	8.4175e-06	8.6201e-06	192.56	72.876	65.926	28.343	8.5361e-06	36.748	173.000	-34.796	-117.615	-160.163	3.478	7.332	-161.846	-156.027	-9.944	125.113	-158.951	-154.655	-152.340	-146.669	-109.706	-150.175	-8191	255	
2339.776	1	1	0	0	0.11728	0.28304	0.21781	0.079309	0.1639	0.14849	0.21406	0.2061	0.15656	0.2009	0.24798	0.11858	0.13213	0.057998	0.11265	0.21625	-2.6583	-3.2729	-3.2604	-3.3521	-3.3896	-3.1896	-3.2958	-3.4667	-3.0896	-3.5083	-3.4625	-3.1813	-3.5938	-3.1312	-3.1792	-3.5417	70.631	-88.586	151.745	97.569	76.390	-6.823	89.466	101.466	-164.781	-147.174	70.307	28.942	33.800	180.887	-156.661	155.114	0.00042884	0.00041518	3.5681e-05	477.11	2.3005e-06	7.256e-06	419.47	171.55	7.1454e-06	4.4602e-06	193.91	72.858	65.585	28.303	5.6652e-06	36.678	0.00072756	0.0007892	0.00022426	473.53	8.4102e-06	8.8277e-06	419.11	170.57	8.522e-06	8.7203e-06	193.97	73.026	66.139	28.382	8.4416e-06	36.764	166.144	-75.880	-118.178	-160.257	-40.906	19.357	-161.692	-155.753	-54.343	-8.757	-159.001	-155.054	-152.313	-146.924	19.493	-150.350	-8191	255	
2339.849	1	1	0	0	0.13177	0.11545	0.33801	0.24502	0.1634	0.064792	0.14484	0.12381	0.074056	0.049371	0.20041	0.21952	0.089656	0.17049	0.12444	0.11739	-2.9167	-3.275	-3.1375	-3.25	-3.4688	-3.2875	-3.2354	-3.5354	-3.1229	-3.4396	-3.5333	-3.2229	-3.5396	-3.3583	-3.3646	-3.6042	166.075	-5.217	-72.536	-110.828	-64.496	-163.072	62.639	104.837	16.093	153.536	143.304	146.203	-109.501	142.315	-109.114	99.288	0.00043731	0.00035236	6.0887e-05	475.55	3.9616e-06	1.5851e-06	417.51	170.13	1.643e-06	2.2672e-06	191.69	72.287	65.345	28.11	3.3129e-06	36.108	0.00073305	0.00078464	0.00021971	472.94	8.3426e-06	8.6741e-06	416.69	169.79	8.4259e-06	8.6219e-06	191.93	72.247	65.482	28.065	8.3894e-06	36.173	162.414	-64.676	-87.924	-160.308	-22.802	26.284	-161.569	-156.113	-61.807	-14.038	-159.306	-154.961	-152.500	-146.928	-52.726	-150.281	-8191	255	
2339.968	1	1	0	0	0.23297	0.068479	0.18398	0.21139	0.21463	0.22962	0.15279	0.17817	0.04218	0.18165	0.18445	0.057558	0.052864	0.085177	0.24031	0.12962	-2.7146	-3.4521	-3.2667	-3.2938	-3.5229	-3.4979	-3.3021	-3.5479	-3.1979	-3.3125	-3.6833	-3.0438	-3.3479	-3.2833	-3.3271	-3.6437	0.923	-139.710	164.418	-69.751	75.100	54.167	-105.161	135.096	153.259	157.836	50.573	96.904	161.068	133.283	103.092	-69.037	0.00045345	0.00036658	7.8086e-05	473.19	2.6197e-06	2.7011e-06	414.22	170.77	4.444e-06	5.8562e-06	191.19	71.586	64.743	27.866	4.24e-06	35.869	0.00072163	0.00077127	0.00021555	470.79	8.177e-06	8.3909e-06	413.97	169.08	8.1865e-06	8.5097e-06	191.09	71.63	65.21	27.974	8.2367e-06	36.039	163.472	-40.975	-22.203	-160.078	13.952	4.149	-161.676	-156.106	-79.209	-62.095	-158.751	-154.862	-152.402	-146.840	-46.669	-150.376	-8191	255	
2340.064	1	1	0	0	0.12526	0.15912	0.075581	0.056651	0.123	0.071742	0.046909	0.18608	0.20691	0.14609	0.16162	0.13052	0.08588	0.12164	0.21232	0.079562	-2.8771	-3.3083	-3.4167	-3.325	-3.5187	-3.4229	-3.3292	-3.4437	-3.2833	-3.4125	-3.4229	-3.2958	-3.4521	-3.5438	-3.2438	-3.5083	-1.710	-100.531	-106.025	73.655	59.802	180.662	-28.468	120.708	96.429	23.867	-155.114	130.507	166.623	-157.405	-77.335	129.550	0.00045503	0.00039471	7.0438e-05	474.88	1.5204e-06	3.1182e-06	416.88	170.11	5.0094e-06	4.4852e-06	191.36	72.407	64.982	27.859	5.6776e-06	35.933	0.0007174	0.00075183	0.00021242	470.1	8.2596e-06	8.6316e-06	414.29	168.92	8.215e-06	8.4881e-06	191.65	72.236	65.269	27.941	8.4392e-06	36.231	168.602	185.687	-113.807	-160.719	-154.781	-65.439	-161.703	-156.132	-60.400	-1.516	-158.772	-155.035	-152.581	-146.582	-44.193	-150.138	-8191	255	
2340.160	1	1	0	0	0.32612	0.16544	0.19016	0.30195	0.073496	0.11977	0.32955	0.015678	0.23282	0.19656	0.089254	0.11005	0.23746	0.13624	0.082517	0.14872	-2.9479	-3.2375	-3.5438	-3.2979	-3.5125	-3.3563	-3.2479	-3.5479	-3.2833	-3.5187	-3.3917	-3.3167	-3.3646	-3.4646	-3.3521	-3.4854	-120.395	-124.928	-56.212	127.619	144.646	-78.825	38.737	67.767	67.257	181.231	179.751	14.578	94.942	-9.238	63.434	-135.062	0.00046622	0.00011783	5.6395e-05	470.82	3.8488e-06	5.0967e-06	417.2	170.38	5.8279e-07	5.8857e-06	191.55	71.653	64.84	27.722	3.8022e-06	35.478	0.00072598	0.00076997	0.0002166	469.39	8.2407e-06	8.3654e-06	414.58	168.71	8.1602e-06	8.5093e-06	191.22	71.719	65.003	27.778	8.1542e-06	35.746	160.459	-102.571	-49.328	-160.465	-145.761	-65.647	-161.704	-156.016	148.550	47.495	-159.010	-154.776	-152.624	-146.675	-127.771	-150.281	-8191	255	
2340.257	1	1	0	0	0.29282	0.15522	0.048247	0.27	0.17133	0.20119	0.049099	0.18778	0.26784	0.099867	0.1477	0.10866	0.24134	0.13154	0.15832	0.10429	-3.125	-3.1917	-3.7146	-3.2604	-3.2396	-3.5563	-3.2104	-3.6417	-3.3896	-3.3063	-3.6583	-3.1354	-3.4313	-3.525	-3.1333	-3.5354	101.358	89.523	30.738	169.457	-73.373	18.301	-32.833	135.194	-38.033	-16.694	-145.036	39.344	152.283	-68.773	-17.404	170.657	0.00041184	0.00024163	8.0967e-05	467.66	2.2672e-06	3.7946e-06	412.49	168.14	4.0657e-06	5.7731e-06	188.85	70.677	64.37	27.591	9.0607e-07	35.684	0.00069565	0.00075074	0.00021052	466.25	8.0596e-06	8.2709e-06	409.41	167.09	7.9688e-06	8.313e-06	188.43	70.664	64.42	27.634	8.1505e-06	35.648	158.374	-93.175	-84.096	-160.357	-43.828	-10.866	-161.388	-156.077	-32.033	11.000	-158.849	-154.775	-152.310	-146.785	-114.436	-150.563	-8191	255	
2340.377	1	1	0	0	0.10636	0.15288	0.13498	0.13654	0.1034	0.043012	0.26146	0.045587	0.13978	0.076764	0.07672	0.20481	0.12133	0.073467	0.13111	0.2312	-2.7313	-3.1333	-3.3292	-3.2167	-3.3063	-3.3917	-3.0458	-3.4271	-3.4479	-3.2792	-3.6063	-3.2562	-3.275	-3.55	-3.1042	-3.4375	-82.168	-137.880	-70.789	-30.568	-72.619	-143.522	-87.659	16.079	-145.583	-170.299	111.718	-34.823	93.808	-157.972	-100.734	97.945	0.0003989	0.00040782	9.1221e-05	468.08	3.0526e-06	2.4122e-06	410.31	167	4.2595e-06	2.0192e-06	190.72	71.062	64.394	27.57	2.6588e-06	35.773	0.00070839	0.00074514	0.00021034	463.41	8.1313e-06	8.2115e-06	408.73	166.45	7.9486e-06	8.4169e-06	189.4	71.441	64.623	27.671	8.2765e-06	35.815	173.774	-66.868	-80.518	-160.251	-89.084	29.245	-161.773	-155.867	-97.654	89.714	-158.832	-155.052	-152.470	-146.774	-125.214	-150.431	-8191	255	
2340.449	1	1	0	0	0.10207	0.045795	0.13073	0.2684	0.27049	0.36725	0.17056	0.16936	0.14189	0.099437	0.19666	0.16423	0.1549	0.11191	0.23789	0.068004	-2.975	-2.9896	-3.4375	-3.3208	-3.2021	-3.6417	-3.1688	-3.5479	-3.5	-3.1083	-3.5021	-3.2854	-3.3	-3.5542	-3.2146	-3.225	23.641	163.545	162.500	120.013	143.170	-80.987	168.905	3.721	176.016	-145.565	46.076	110.291	152.579	-112.642	-148.937	-133.050	0.00047786	0.00022561	7.3902e-05	465.44	4.006e-06	5.0206e-06	410.88	168.6	3.1687e-06	3.6202e-06	189.03	71.275	64.276	27.657	3.112e-06	35.614	0.00071785	0.00075762	0.0002125	464.11	8.3381e-06	8.3945e-06	409.13	167.02	8.2089e-06	8.4475e-06	189.83	71.381	64.476	27.656	8.3331e-06	35.85	166.831	-62.310	-70.931	-160.270	-81.064	-18.897	-161.624	-156.143	-102.164	-155.583	-158.958	-155.129	-152.852	-146.667	-40.026	-150.135	-8191	255	
2340.545	1	1	0	0	0.067423	0.16388	0.18934	0.17608	0.19339	0.066649	0.058123	0.22647	0.14839	0.11368	0.2032	0.24718	0.17635	0.076038	0.089174	0.07632	-2.9583	-3.1896	-3.5521	-3.3667	-3.225	-3.7	-3.3208	-3.6167	-3.525	-3.4062	-3.4271	-3.3521	-3.0896	-3.6292	-3.1437	-3.3438	-133.897	82.769	47.861	-91.871	-74.855	-172.782	11.687	183.052	36.154	150.111	137.612	126.083	131.092	162.306	-39.003	-174.245	0.00039965	0.00025911	0.00010849	466.38	1.7102e-06	9.3856e-07	407.03	168.22	4.2991e-06	3.9936e-06	187.77	71.286	63.784	27.562	1.3461e-06	35.437	0.00071582	0.00076195	0.00021659	462.61	8.3297e-06	8.3937e-06	407.85	166.86	8.334e-06	8.3461e-06	187.94	70.74	64.212	27.569	8.2709e-06	35.561	172.602	68.912	-155.823	-160.290	-28.553	-73.998	-161.605	-156.294	-106.535	-66.351	-158.818	-154.859	-152.094	-146.772	-23.741	-150.147	-8191	255	
2340.666	1	1	0	0	0.17825	0.045716	0.27374	0.26104	0.08992	0.064989	0.15292	0.13448	0.12855	0.19322	0.21982	0.060909	0.13151	0.094796	0.12083	0.20796	-3.0521	-3.0812	-3.5271	-3.3729	-3.2208	-3.6375	-3.2375	-3.4042	-3.6583	-3.2521	-3.4125	-3.4521	-3.2042	-3.5521	-3.4688	-3.1771	-28.037	-115.558	20.931	169.030	115.229	-163.792	21.219	-143.355	139.997	86.311	122.134	154.075	-159.294	-57.017	152.059	131.963	0.00054214	0.00020911	5.5048e-05	465.91	1.5653e-06	2.6344e-06	410.07	168.58	4.5723e-06	1.547e-06	189.35	71.279	64.458	27.686	4.7546e-06	35.605	0.0007209	0.0007579	0.00021155	463.87	8.1649e-06	8.3654e-06	408.94	167.04	8.2389e-06	8.5818e-06	189.1	71.203	64.683	27.756	8.3138e-06	35.853	166.048	153.245	-85.186	-160.192	-38.101	-41.361	-161.738	-155.986	-57.549	-3.358	-158.758	-154.920	-152.300	-146.807	-77.195	-150.191	-8191	255	
2340.762	1	1	0	0	0.032697	0.060793	0.13447	0.23407	0.11912	0.15842	0.069292	0.056442	0.08086	0.09094	0.17996	0.2341	0.15679	0.18719	0.18937	0.072884	-3.0938	-3.2854	-3.4396	-3.475	-3.2542	-3.4396	-3.3125	-3.3625	-3.45	-3.1562	-3.3812	-3.5438	-3.075	-3.5125	-3.275	-3.2271	-72.580	115.534	165.842	-132.170	57.419	-109.343	-82.176	179.907	-131.762	167.749	160.980	141.839	178.493	122.995	83.896	50.008	0.00047612	0.00036927	0.00011862	468.01	3.2108e-06	4.2317e-06	413.7	168.89	2.6212e-07	3.0451e-06	192.01	72.091	65.215	28.065	1.5169e-06	36.21	0.00072494	0.00076578	0.00021716	464.94	8.3041e-06	8.4633e-06	411.79	167.78	8.2684e-06	8.7201e-06	191.23	72.206	65.312	28.026	8.4865e-06	36.317	162.677	-57.391	-103.200	-160.437	-5.170	14.418	-161.739	-155.947	-158.918	-28.214	-158.691	-154.678	-152.498	-146.769	59.170	-150.353	-8191	255	
2340.856	1	1	0	0	0.054904	0.099479	0.13252	0.26124	0.18445	0.16748	0.13113	0.31578	0.093731	0.12647	0.16756	0.052119	0.22664	0.25568	0.055172	0.077432	-3.0896	-3.1854	-3.3146	-3.4979	-3.1188	-3.2854	-3.5292	-3.2	-3.4729	-3.2292	-3.4271	-3.5292	-3.1542	-3.3646	-3.2875	-3.2542	-21.713	16.926	-42.166	22.311	-100.379	-108.017	71.528	158.460	121.181	70.042	66.777	149.752	67.108	-107.658	122.752	115.311	0.00043137	0.00013232	0.00013835	469.69	3.4611e-06	4.0312e-06	416.89	170.47	4.6192e-07	2.1202e-06	191.61	72.371	65.142	28.04	1.8964e-06	36.088	0.00072656	0.00077074	0.00021948	467.7	8.3115e-06	8.5676e-06	415.73	169.07	8.37e-06	8.6833e-06	191.51	71.994	65.241	28.053	8.3824e-06	36.141	165.730	16.703	-11.542	-160.699	-14.709	-71.004	-161.763	-156.002	-89.450	-9.906	-158.705	-155.229	-152.392	-146.707	-100.517	-150.635	-8191	255	
2340.954	1	1	0	0	0.12804	0.17167	0.080854	0.32172	0.26101	0.15039	0.19635	0.31344	0.2466	0.023237	0.063372	0.056785	0.32609	0.089198	0.18345	0.12992	-3.0458	-3.3458	-3.2125	-3.5771	-3.0792	-3.4542	-3.5146	-3.3208	-3.5708	-3.3542	-3.2417	-3.5833	-3.3854	-3.3354	-3.5667	-3.2479	50.285	-84.199	47.457	135.239	31.948	111.594	153.349	92.814	-111.466	-53.575	65.531	-11.334	83.215	68.054	-166.467	182.084	0.00043878	0.00044844	2.7186e-05	468.54	3.5145e-06	1.0936e-06	413.99	168.96	3.1579e-06	2.8269e-06	189.7	71.562	64.856	27.801	2.4836e-06	36.093	0.00072311	0.0007608	0.00022094	466.38	8.3158e-06	8.5711e-06	412.01	167.43	8.3421e-06	8.6188e-06	190.29	71.622	65.207	27.895	8.3428e-06	36.058	166.811	-94.814	-34.295	-159.804	13.121	24.743	-161.572	-156.276	-21.766	-6.716	-158.667	-154.713	-152.224	-146.499	-62.047	-150.177	-8191	255	
2341.048	1	1	0	0	0.067515	0.16059	0.08979	0.35056	0.14006	0.24652	0.10707	0.21057	0.16052	0.26971	0.14649	0.1493	0.24218	0.21253	0.041059	0.17435	-3.1479	-3.4562	-3.2458	-3.4146	-3.1312	-3.4625	-3.6604	-3.2083	-3.3979	-3.3771	-3.3958	-3.6625	-3.3771	-3.5104	-3.4854	-3.1896	179.595	-158.466	-163.804	91.263	74.204	54.394	-115.884	182.161	132.487	-78.138	175.203	78.321	-134.760	-132.951	-122.383	-94.317	0.00041886	0.00039964	7.9279e-05	468.95	6.5304e-06	1.3395e-06	415.7	169.78	2.6094e-06	7.346e-06	192.03	72.322	64.894	27.935	2.9874e-06	36.185	0.00072507	0.00076618	0.00022136	466.08	8.4563e-06	8.5883e-06	413.53	168.84	8.4212e-06	8.7573e-06	191.94	72.311	65.297	28.15	8.4289e-06	36.353	166.054	-152.258	-69.195	-160.087	-31.888	-13.560	-161.701	-155.886	-75.137	-2.374	-158.989	-154.834	-152.023	-146.932	-50.281	-150.330	-8191	255	
2341.145	1	1	0	0	0.18677	0.099699	0.1452	0.090313	0.15225	0.1793	0.084212	0.10344	0.31383	0.12343	0.25477	0.22881	0.17439	0.073038	0.18871	0.29853	-3.0812	-3.4146	-3.2708	-3.5875	-3.2729	-3.2313	-3.4875	-3.2625	-3.3458	-3.4979	-3.2646	-3.475	-3.4271	-3.2896	-3.4979	-3.3125	-143.456	-87.544	-55.085	148.525	95.227	31.989	-45.445	-38.697	-8.540	68.177	170.711	148.336	149.982	33.013	131.070	131.304	0.00040948	0.00031854	4.8951e-05	469.05	3.6436e-06	4.8183e-06	417.52	170.49	4.4149e-06	2.1843e-06	192.62	72.639	65.13	28.234	3.5719e-06	36.144	0.00073148	0.00078193	0.0002206	468.16	8.625e-06	8.7365e-06	415.91	169.38	8.52e-06	8.7776e-06	193.4	72.764	65.601	28.203	8.5887e-06	36.421	162.431	-92.193	95.311	-160.446	-92.754	17.142	-161.849	-156.034	-24.656	46.640	-158.928	-155.279	-152.331	-146.333	87.817	-150.529	-8191	255	
2341.265	1	1	0	0	0.1453	0.18921	0.2814	0.18503	0.21736	0.26944	0.082927	0.055642	0.16548	0.21132	0.26102	0.15757	0.25169	0.21356	0.059895	0.14129	-2.9688	-3.5542	-3.2354	-3.4583	-3.2812	-3.3479	-3.4896	-3.1708	-3.45	-3.4396	-3.2271	-3.4708	-3.3292	-3.3042	-3.625	-3.4458	184.420	4.212	-168.373	119.631	168.401	76.229	-39.807	38.052	-158.159	-119.784	-167.331	173.019	-148.604	77.255	110.116	121.111	0.00044052	0.00052453	0.00015774	471.35	2.6847e-06	7.426e-06	415.59	170.03	2.8662e-06	5.3745e-06	189.18	71.387	64.919	27.809	1.2819e-06	35.913	0.00074156	0.00078449	0.00022023	468.1	8.5405e-06	8.7132e-06	414.35	168.65	8.3858e-06	8.7312e-06	190	71.582	64.853	27.847	8.5222e-06	35.908	170.063	-118.576	-63.573	-159.824	-88.668	-49.764	-161.763	-156.108	-54.943	-38.646	-159.015	-154.751	-152.470	-146.802	-93.475	-150.402	-8191	255	
2341.361	1	1	0	0	0.33245	0.12525	0.20983	0.17582	0.04134	0.061347	0.21159	0.037161	0.11309	0.18484	0.20196	0.18619	0.068747	0.080311	0.052778	0.12747	-2.9938	-3.3271	-3.1083	-3.4792	-3.3125	-3.05	-3.5958	-3.2188	-3.2292	-3.5083	-3.1771	-3.3646	-3.3042	-3.2604	-3.5896	-3.4958	115.654	20.042	62.843	0.203	-93.179	112.096	-163.449	-118.468	-169.202	-68.840	68.990	90.072	-14.867	-18.729	-70.334	130.323	0.00049198	0.00050264	7.0671e-06	468.32	3.9813e-06	6.8878e-06	415.57	168.88	4.0219e-06	8.2935e-07	192.54	72.147	64.796	27.86	2.7736e-06	36.077	0.00075399	0.00079697	0.00022095	466.94	8.5543e-06	9.052e-06	413.44	168.04	8.6175e-06	9.0771e-06	191.92	72.054	65.214	27.946	8.9096e-06	36.214	162.971	-66.966	-173.874	-160.338	-28.998	-23.713	-161.424	-156.325	-94.510	-52.262	-158.934	-155.255	-152.082	-146.820	-23.814	-150.682	-8191	255	
2341.458	1	1	0	0	0.10818	0.42427	0.14968	0.10021	0.069476	0.13091	0.19499	0.036246	0.13077	0.081401	0.23714	0.036886	0.22563	0.18757	0.10189	0.33476	-3.1354	-3.5979	-3.2313	-3.4604	-3.4042	-3.1708	-3.6625	-3.3583	-3.2313	-3.5354	-3.3042	-3.5854	-3.5563	-3.15	-3.6521	-3.4854	47.458	-119.004	-166.743	-53.410	152.424	131.524	109.580	-88.570	103.395	-44.433	31.996	62.701	-98.262	158.691	-40.526	39.202	0.00049048	0.00029432	7.6124e-05	468.38	2.0306e-06	4.9212e-06	416.72	170.47	3.3025e-06	7.9931e-06	191.66	72.446	65.478	27.85	4.4328e-06	36.445	0.00076726	0.00080471	0.00023657	468.37	9.048e-06	9.1795e-06	416.79	169.24	9.0684e-06	9.2263e-06	192.34	72.624	65.645	28.046	9.1053e-06	36.487	162.509	-2.894	-71.619	-160.315	-65.888	-17.747	-161.752	-156.079	-50.091	-47.555	-158.848	-154.801	-152.355	-146.737	-60.562	-150.300	-8191	255	
2341.554	1	1	0	0	0.06467	0.16568	0.15843	0.23146	0.10181	0.11438	0.13546	0.12752	0.33995	0.22646	0.078817	0.17422	0.14029	0.20052	0.229	0.03836	-2.9583	-3.4167	-3.2542	-3.3896	-3.4667	-3.1688	-3.3583	-3.2771	-3.1833	-3.6104	-3.1937	-3.5146	-3.5625	-3.2188	-3.6063	-3.5375	161.794	-154.951	-46.300	-122.865	-24.939	-14.719	-116.864	182.045	-132.815	174.072	-25.143	-173.483	56.685	117.513	-13.220	110.649	0.00042488	9.5157e-05	0.00013042	473.58	3.2757e-06	4.3506e-06	419.41	170.02	3.8609e-06	6.2662e-06	191.65	72.037	64.981	27.888	3.2595e-06	35.926	0.00079196	0.00082417	0.00023506	469.26	9.1477e-06	9.4165e-06	417.4	169.27	9.0368e-06	9.3264e-06	191.81	72.121	65.296	28.016	9.1086e-06	36.165	169.266	-88.224	-48.220	-160.213	-47.799	20.348	-161.864	-155.912	-81.167	-9.257	-158.954	-154.280	-152.370	-146.780	4.554	-150.389	-8191	255	
2341.674	1	1	0	0	0.093465	0.1637	0.14562	0.19644	0.06517	0.28361	0.13724	0.24747	0.098472	0.18613	0.1067	0.037124	0.10266	0.3283	0.05636	0.27726	-2.8917	-3.4104	-3.1417	-3.3292	-3.5146	-3.15	-3.4667	-3.4396	-3.1937	-3.4958	-3.2812	-3.3542	-3.325	-3.0625	-3.4479	-3.4313	152.050	98.740	-97.488	59.106	147.276	-44.503	117.107	-156.742	-53.561	-129.838	116.283	118.886	138.415	122.392	-114.077	106.341	0.00047321	0.00024959	0.00013151	469.75	3.8652e-07	3.4752e-06	414.67	169.22	4.7139e-06	2.6977e-06	189.93	71.486	64.701	27.864	4.9846e-06	35.987	0.00077278	0.00083265	0.00023389	468.06	8.9419e-06	9.0515e-06	413.57	168.2	8.8909e-06	9.1929e-06	190.54	71.849	65.189	27.93	9.1454e-06	36.204	161.557	-77.483	-90.451	-160.385	-125.206	-52.400	-161.445	-155.798	-72.670	-6.211	-158.386	-155.206	-152.438	-146.770	-16.259	-150.658	-8191	255	
2341.746	1	1	0	0	0.15576	0.18533	0.13419	0.19337	0.041209	0.025809	0.053953	0.24478	0.13541	0.27282	0.10664	0.18121	0.067075	0.12959	0.16658	0.038869	-2.8	-3.5167	-3.1792	-3.2583	-3.5417	-3.0729	-3.3063	-3.4146	-3.1167	-3.6292	-3.475	-3.2417	-3.4604	-3.2062	-3.4208	-3.3646	-140.273	185.348	177.243	157.666	-134.496	-76.159	99.628	110.508	160.110	107.956	-152.020	41.398	-72.966	67.380	24.180	-23.054	0.00040057	0.00060355	0.00014695	468.52	2.7249e-06	2.1665e-06	415.41	170.55	2.5366e-06	1.6545e-06	191.16	72.42	65.223	27.798	1.0422e-06	36.338	0.00077299	0.00081752	0.0002306	466.4	8.9515e-06	9.2083e-06	414.47	169.35	8.8572e-06	9.0812e-06	192.53	72.629	65.695	28.088	9.042e-06	36.519	164.242	-70.215	-100.278	-160.167	-28.951	-92.758	-161.453	-156.118	-16.793	62.832	-158.673	-154.812	-152.463	-146.889	78.405	-150.333	-8191	255	
#DATA ENDS
