BOXY.EXE: ISS Imagent and Oximeter Data Acquisition Program Version 0.80
Ascii Record File

#ACQ INFORMATION
2  Detector Channels 
16  External MUX Channels 
1  Auxiliary Channels 
5000  Waveform (CCF) Frequency (Hz)
1  Waveforms Skipped 
30  Waveforms Averaged 
1  Cycles Averaged 
16  Acquisitions per Waveform 
10.0806  Updata Rate (Hz) 

#FILE INFORMATION
TRUE -- External MUX Channel results are PARSED.
FALSE -- AC DC and Phase are NOT grouped.
TRUE -- Companion Program Settings File CREATED.
FALSE -- AC data not excluded
FALSE -- DC data not excluded
FALSE -- Phase data not excluded
FALSE -- Auxillary Chn. data not excluded
Tab delimiters

#CALIBRATION STATE
TRUE -- Waveform Calibration Values APPLIED.


#AUX CALIBRATION VALUES
Val Type	aux-1	

Term	1.0000e+00	
Factor	0.0000e+00	


#WF CALIBRATION VALUES
A = Detector Channel
Val Type	A-AC1	A-AC2	A-AC3	A-AC4	A-AC5	A-AC6	A-AC7	A-AC8	A-AC9	A-AC10	A-AC11	A-AC12	A-AC13	A-AC14	A-AC15	A-AC16	A-DC1	A-DC2	A-DC3	A-DC4	A-DC5	A-DC6	A-DC7	A-DC8	A-DC9	A-DC10	A-DC11	A-DC12	A-DC13	A-DC14	A-DC15	A-DC16	A-Ph1	A-Ph2	A-Ph3	A-Ph4	A-Ph5	A-Ph6	A-Ph7	A-Ph8	A-Ph9	A-Ph10	A-Ph11	A-Ph12	A-Ph13	A-Ph14	A-Ph15	A-Ph16	

Term	0.00000e+00	0.00000e+00	0.00000e+00	0.00000e+00	0.00000e+00	0.00000e+00	0.00000e+00	0.00000e+00	0.00000e+00	0.00000e+00	0.00000e+00	0.00000e+00	0.00000e+00	0.00000e+00	0.00000e+00	0.00000e+00	0.00000e+00	0.00000e+00	0.00000e+00	0.00000e+00	0.00000e+00	0.00000e+00	0.00000e+00	0.00000e+00	0.00000e+00	0.00000e+00	0.00000e+00	0.00000e+00	0.00000e+00	0.00000e+00	0.00000e+00	0.00000e+00	0.00000e+00	0.00000e+00	0.00000e+00	0.00000e+00	0.00000e+00	0.00000e+00	0.00000e+00	0.00000e+00	0.00000e+00	0.00000e+00	0.00000e+00	0.00000e+00	0.00000e+00	0.00000e+00	0.00000e+00	0.00000e+00	
Factor	1.00000e+00	1.00000e+00	1.00000e+00	1.00000e+00	1.00000e+00	1.00000e+00	1.00000e+00	1.00000e+00	1.00000e+00	1.00000e+00	1.00000e+00	1.00000e+00	1.00000e+00	1.00000e+00	1.00000e+00	1.00000e+00	1.00000e+00	1.00000e+00	1.00000e+00	1.00000e+00	1.00000e+00	1.00000e+00	1.00000e+00	1.00000e+00	1.00000e+00	1.00000e+00	1.00000e+00	1.00000e+00	1.00000e+00	1.00000e+00	1.00000e+00	1.00000e+00	X	X	X	X	X	X	X	X	X	X	X	X	X	X	X	X	

B = Detector Channel
Val Type	B-AC1	B-AC2	B-AC3	B-AC4	B-AC5	B-AC6	B-AC7	B-AC8	B-AC9	B-AC10	B-AC11	B-AC12	B-AC13	B-AC14	B-AC15	B-AC16	B-DC1	B-DC2	B-DC3	B-DC4	B-DC5	B-DC6	B-DC7	B-DC8	B-DC9	B-DC10	B-DC11	B-DC12	B-DC13	B-DC14	B-DC15	B-DC16	B-Ph1	B-Ph2	B-Ph3	B-Ph4	B-Ph5	B-Ph6	B-Ph7	B-Ph8	B-Ph9	B-Ph10	B-Ph11	B-Ph12	B-Ph13	B-Ph14	B-Ph15	B-Ph16	

Term	0.00000e+00	0.00000e+00	0.00000e+00	0.00000e+00	0.00000e+00	0.00000e+00	0.00000e+00	0.00000e+00	0.00000e+00	0.00000e+00	0.00000e+00	0.00000e+00	0.00000e+00	0.00000e+00	0.00000e+00	0.00000e+00	0.00000e+00	0.00000e+00	0.00000e+00	0.00000e+00	0.00000e+00	0.00000e+00	0.00000e+00	0.00000e+00	0.00000e+00	0.00000e+00	0.00000e+00	0.00000e+00	0.00000e+00	0.00000e+00	0.00000e+00	0.00000e+00	-1.03364e+02	-1.28589e+02	-1.22771e+02	-1.82799e+02	-5.29327e+01	-6.36955e+01	-1.54998e+02	-1.62015e+02	-5.44320e+01	-6.23480e+01	-1.71853e+02	-1.69414e+02	-1.80018e+02	-1.77411e+02	-5.74280e+01	-1.48938e+02	
Factor	1.60856e-05	1.42380e-04	4.19562e-05	1.84207e-01	1.34200e-06	1.50499e-06	1.63323e-01	4.88771e-02	1.25689e-06	1.78350e-06	9.25773e-02	2.71365e-02	2.66344e-02	8.67124e-03	1.27850e-06	1.23973e-02	7.02452e-06	9.64614e-06	2.71299e-06	9.29001e-02	1.02271e-07	1.07808e-07	7.77924e-02	2.48455e-02	1.01700e-07	1.07589e-07	4.55974e-02	1.35142e-02	1.37367e-02	4.44083e-03	1.04084e-07	6.15744e-03	X	X	X	X	X	X	X	X	X	X	X	X	X	X	X	X	



#DISTANCE SETTINGS
A = Detector Channel
A-1	A-2	A-3	A-4	A-5	A-6	A-7	A-8	A-9	A-10	A-11	A-12	A-13	A-14	A-15	A-16	

2.5000e+00	3.0000e+00	2.5000e+00	3.0000e+00	2.0000e+00	3.0000e+00	1.5000e+00	3.0000e+00	3.0000e+00	3.0000e+00	3.0000e+00	3.0000e+00	3.0000e+00	3.0000e+00	1.5000e+00	3.0000e+00	

B = Detector Channel
B-1	B-2	B-3	B-4	B-5	B-6	B-7	B-8	B-9	B-10	B-11	B-12	B-13	B-14	B-15	B-16	

1.0000e+01	1.0000e+01	1.0000e+01	1.4400e+00	1.0000e+01	1.0000e+01	1.5100e+00	1.9400e+00	1.0000e+01	1.0000e+01	1.9900e+00	2.4900e+00	2.4100e+00	2.9000e+00	1.0000e+01	2.9800e+00	




#DATA BEGINS
time	group	step	mark	flag	A-AC1	A-AC2	A-AC3	A-AC4	A-AC5	A-AC6	A-AC7	A-AC8	A-AC9	A-AC10	A-AC11	A-AC12	A-AC13	A-AC14	A-AC15	A-AC16	A-DC1	A-DC2	A-DC3	A-DC4	A-DC5	A-DC6	A-DC7	A-DC8	A-DC9	A-DC10	A-DC11	A-DC12	A-DC13	A-DC14	A-DC15	A-DC16	A-Ph1	A-Ph2	A-Ph3	A-Ph4	A-Ph5	A-Ph6	A-Ph7	A-Ph8	A-Ph9	A-Ph10	A-Ph11	A-Ph12	A-Ph13	A-Ph14	A-Ph15	A-Ph16	B-AC1	B-AC2	B-AC3	B-AC4	B-AC5	B-AC6	B-AC7	B-AC8	B-AC9	B-AC10	B-AC11	B-AC12	B-AC13	B-AC14	B-AC15	B-AC16	B-DC1	B-DC2	B-DC3	B-DC4	B-DC5	B-DC6	B-DC7	B-DC8	B-DC9	B-DC10	B-DC11	B-DC12	B-DC13	B-DC14	B-DC15	B-DC16	B-Ph1	B-Ph2	B-Ph3	B-Ph4	B-Ph5	B-Ph6	B-Ph7	B-Ph8	B-Ph9	B-Ph10	B-Ph11	B-Ph12	B-Ph13	B-Ph14	B-Ph15	B-Ph16	aux-1	digaux	

15219.474	1	1	0	512	0.076255	0.17674	0.12687	0.25835	0.084561	0.18322	0.39702	0.16599	0.081474	0.2597	0.068473	0.11174	0.11038	0.22252	0.16319	0.23286	-2.7021	-2.5542	-3.0792	-3.0062	-2.8083	-3.1542	-2.8187	-3.1771	-3.2	-2.7792	-3.0729	-3.0229	-2.7083	-3.0187	-2.7958	-2.9333	114.929	64.604	117.966	236.644	48.905	-94.463	207.597	223.523	11.822	172.396	-27.210	-78.229	205.580	49.544	108.540	22.741	2.7211e-05	0.00040984	0.00024595	1111.6	9.2209e-07	5.7832e-06	887.63	288.84	2.2264e-06	1.9613e-05	229.48	49.265	58.453	14.233	8.2644e-06	14.853	0.0029443	0.004077	0.0011677	1113.3	4.3592e-05	4.6062e-05	888.83	291.44	4.3173e-05	4.5661e-05	241.04	54.093	62.822	15.638	4.2374e-05	16.912	92.364	181.084	45.141	-86.403	-81.986	70.450	-87.222	-82.079	95.653	59.286	-84.238	-79.130	-77.859	-73.361	9.426	-75.177	-8191	255	
15219.570	1	1	0	0	0.14318	0.37345	0.061879	0.22623	0.20777	0.13859	0.3078	0.17875	0.1083	0.31262	0.041617	0.1205	0.3357	0.18376	0.18527	0.11411	-2.5542	-2.7625	-2.9938	-3.1771	-2.725	-3.0667	-2.9042	-2.95	-3.1396	-2.6833	-3.15	-2.8854	-2.7479	-2.8583	-2.9729	-2.6125	-16.178	-8.344	22.590	129.766	-10.083	106.777	161.374	94.336	94.886	-61.302	-0.618	74.516	67.954	42.943	196.276	-96.875	3.2232e-05	0.0009436	0.00013588	1122.8	6.3486e-06	4.8743e-06	887.14	292.95	3.5765e-06	9.9527e-06	233.65	50.195	60.071	14.492	4.8554e-06	14.787	0.0028236	0.0039223	0.0011048	1118.7	4.1379e-05	4.4709e-05	894.09	294.73	4.1539e-05	4.3994e-05	244.17	54.809	64.04	15.865	4.236e-05	16.89	131.378	-17.847	0.550	-86.112	-52.604	110.134	-86.895	-82.316	125.921	79.149	-84.204	-79.680	-77.742	-73.152	5.192	-75.139	-8191	255	
15219.666	1	1	0	0	0.21656	0.05599	0.14388	0.036824	0.17014	0.11187	0.38397	0.25011	0.20524	0.37208	0.21545	0.25624	0.18561	0.10104	0.20553	0.1833	-2.7271	-2.8125	-2.975	-3.2625	-2.6417	-3.0083	-3.1479	-2.8292	-3.2	-2.8104	-2.9313	-3.0625	-2.8417	-2.9625	-3.1583	-2.8104	-2.123	-86.310	-56.372	51.643	74.883	-60.786	217.755	158.854	87.990	-96.158	-30.617	-8.729	-56.183	38.385	195.851	-46.695	6.7604e-05	0.00012008	0.00017047	1124.2	4.626e-06	5.9356e-07	895.26	294.13	1.0793e-05	1.273e-05	234.46	50.307	59.776	14.339	1.6697e-06	14.928	0.0028428	0.0039197	0.001099	1122.6	4.0688e-05	4.3592e-05	899.5	295.54	4.1641e-05	4.4548e-05	245.13	54.965	64.185	15.867	4.3706e-05	17.076	249.430	140.255	-15.564	-86.333	20.550	175.363	-87.091	-82.138	-98.079	86.792	-84.414	-80.091	-77.846	-73.452	153.549	-74.993	-8191	255	
15219.787	1	1	0	0	0.18008	0.11648	0.057231	0.18678	0.23275	0.28265	0.0783	0.19721	0.13025	0.13828	0.059525	0.27776	0.17127	0.19464	0.19073	0.14732	-2.5458	-2.9104	-2.9062	-3.3354	-2.6583	-3.0917	-3.0625	-2.7687	-3.0563	-2.5917	-2.7917	-3.2375	-2.9667	-2.9938	-2.9917	-2.8458	88.302	233.164	-70.286	190.044	-94.903	250.434	135.876	247.313	-53.985	89.463	170.627	2.947	177.479	125.149	-18.990	-22.759	1.9048e-05	0.000414	0.0002355	1120.8	1.9077e-06	3.01e-06	883.28	290.77	6.6508e-06	1.1532e-05	230.28	49.433	59.041	14.254	4.5167e-06	14.611	0.0029635	0.0041397	0.0011453	1120.2	4.3369e-05	4.588e-05	888.35	292.96	4.3455e-05	4.542e-05	241.03	53.9	63.476	15.698	4.2142e-05	16.73	7.024	13.225	2.151	-86.135	19.268	176.982	-87.093	-82.101	172.929	33.153	-84.378	-79.797	-78.209	-73.082	61.473	-75.315	-8191	255	
15219.883	1	1	0	0	0.32788	0.28235	0.31864	0.16728	0.17195	0.16909	0.16508	0.072519	0.28243	0.036803	0.10011	0.13418	0.078202	0.22095	0.083227	0.13594	-2.6583	-2.9896	-2.8292	-3.0875	-2.8083	-2.9708	-3.0812	-2.8354	-3.0917	-2.9729	-3.0438	-3.0667	-2.7042	-2.8292	-3.0229	-2.7021	129.051	-17.341	75.093	-90.394	51.128	-29.836	146.123	30.032	177.670	82.118	26.150	234.234	68.519	-65.811	-38.668	61.137	4.45e-05	0.0006773	0.00043983	1113.8	7.9612e-06	8.2552e-06	887.21	288.7	7.7462e-06	7.1719e-06	230.22	49.697	59.213	14.223	5.7559e-06	14.799	0.0028824	0.0039829	0.0010834	1111.9	4.1439e-05	4.3797e-05	887.34	290.94	4.2132e-05	4.4451e-05	241.53	54.311	63.591	15.739	4.3811e-05	16.956	162.806	-19.443	61.721	-86.517	37.323	115.664	-87.262	-82.094	-74.317	-8.791	-84.080	-79.530	-78.168	-72.838	-3.560	-75.394	-8191	255	
15219.955	1	1	0	0	0.083197	0.18331	0.13322	0.13725	0.075674	0.20972	0.12884	0.031566	0.068129	0.23818	0.51393	0.14736	0.23214	0.11767	0.33673	0.23695	-2.7583	-2.8479	-2.8292	-3.275	-2.7521	-3.0396	-3.0958	-2.8604	-2.9271	-3.0604	-2.9021	-3.1833	-2.7062	-2.6312	-3.0687	-2.8854	-28.181	214.761	2.944	166.592	105.788	-68.422	158.211	174.950	123.026	33.523	220.561	23.841	-95.052	-30.532	100.172	-62.490	4.3394e-05	0.00018602	6.3997e-05	1126.7	1.0141e-05	2.1407e-06	890.31	292.17	6.7628e-06	1.4212e-05	233.85	50.164	59.372	14.424	4.0921e-06	14.9	0.0030169	0.0041351	0.0011358	1125.3	4.4213e-05	4.6067e-05	895.66	295.02	4.4277e-05	4.6252e-05	244.78	54.961	64.192	15.939	4.3873e-05	17.025	193.401	-97.913	39.991	-86.277	-2.981	69.715	-87.163	-82.188	1.899	28.099	-84.158	-79.357	-78.125	-73.731	-75.196	-75.374	-8191	255	
15220.051	1	1	0	0	0.28965	0.17103	0.30242	0.26805	0.25774	0.12584	0.53552	0.14857	0.16276	0.11994	0.14584	0.36788	0.16506	0.02399	0.099756	0.12947	-2.6417	-2.9521	-2.6688	-3	-2.8167	-2.9562	-3.1896	-2.7208	-3.0292	-2.9792	-2.8583	-3.1625	-2.8604	-2.9042	-3.2562	-2.8688	-64.807	170.779	-47.009	206.967	255.795	56.254	172.313	176.544	75.425	140.702	123.495	-83.783	-23.837	-57.220	37.244	124.426	5.8113e-05	0.00030688	0.00015739	1127.8	2.4326e-06	7.802e-06	898.38	293.44	6.3802e-06	6.3935e-07	236.33	50.05	60.129	14.449	3.8738e-06	14.729	0.0030401	0.0040659	0.0011192	1126.9	4.2634e-05	4.4386e-05	901.45	295.91	4.208e-05	4.3102e-05	245.27	54.727	64.225	15.824	4.0684e-05	16.788	221.096	55.589	-4.205	-86.393	1.735	69.886	-87.086	-82.145	-88.904	-83.941	-84.201	-79.824	-77.865	-73.768	118.972	-74.984	-8191	255	
15220.170	1	1	0	0	0.20365	0.3901	0.29761	0.072004	0.10275	0.067578	0.32098	0.11517	0.11331	0.19773	0.32075	0.080254	0.3562	0.12519	0.24236	0.029784	-2.3479	-3.0958	-2.5979	-3.1896	-3.0229	-2.7896	-3.1958	-3.0438	-2.9979	-3.0417	-2.6875	-3.0167	-3.0458	-2.7896	-3.1354	-2.8292	127.651	171.682	49.721	-71.862	25.209	-87.824	193.892	152.262	103.977	72.398	252.635	153.521	235.132	13.042	-94.133	26.077	1.7972e-05	9.767e-05	0.0002297	1136	2.2503e-06	3.1682e-06	894.85	297.98	6.5965e-07	8.5062e-06	236.68	50.256	61.151	14.63	1.5808e-06	14.88	0.0028384	0.0038573	0.0010908	1136.2	4.189e-05	4.4399e-05	901.59	301.32	4.3717e-05	4.5355e-05	247.83	55.45	65.821	16.159	4.4441e-05	17.021	-99.328	-44.689	10.032	-86.451	-43.493	79.739	-87.502	-81.941	248.020	16.059	-83.842	-79.482	-77.960	-73.367	-61.456	-74.921	-8191	255	
15220.266	1	1	0	0	0.17844	0.20927	0.16477	0.36049	0.083374	0.11296	0.24941	0.16429	0.083206	0.18553	0.14611	0.081477	0.18819	0.085092	0.24516	0.28977	-2.5	-2.9521	-2.7062	-3.1104	-3.0125	-2.9062	-3.2458	-2.875	-2.9708	-3.1042	-2.7229	-3.1271	-3.1437	-2.5396	-3.1333	-2.9208	167.846	89.384	-3.869	225.990	147.769	208.586	193.421	237.908	126.871	-28.374	230.333	237.257	-39.307	69.410	173.465	210.643	0.00012504	0.00029237	0.00016444	1141.5	5.3355e-06	3.4985e-06	897.5	298.31	5.2897e-06	5.638e-06	237.2	51.25	61.095	14.618	2.8098e-06	14.76	0.0030151	0.0040626	0.00116	1142.1	4.3262e-05	4.5602e-05	903.65	301.14	4.3774e-05	4.5229e-05	247.95	55.766	65.596	16.067	4.3546e-05	16.997	222.061	-37.595	162.893	-86.525	-87.711	56.328	-87.309	-81.941	-79.454	219.725	-83.829	-79.250	-77.931	-73.560	7.224	-75.665	-8191	255	
15220.362	1	1	0	0	0.2452	0.18518	0.30787	0.12514	0.38927	0.23293	0.16115	0.13	0.047011	0.16078	0.15292	0.17204	0.18771	0.12166	0.21209	0.14235	-2.3958	-3.1646	-2.7417	-3.0583	-2.9188	-2.6667	-3.1417	-2.9083	-2.8542	-3.0812	-2.7208	-2.8729	-3.1729	-2.7646	-3.05	-2.8771	186.197	-50.930	-10.889	200.932	190.855	197.091	131.647	6.222	-21.748	157.369	214.180	37.417	3.777	-49.315	6.245	-86.423	7.7222e-05	0.00083283	8.888e-05	1144.8	4.5797e-06	7.5284e-06	898.03	298.75	4.3574e-06	7.8955e-06	236.93	51.155	61.127	14.683	9.0058e-06	14.974	0.0029328	0.0039542	0.0011334	1142.2	4.1872e-05	4.4041e-05	904.49	301.05	4.1308e-05	4.3491e-05	248.35	55.699	65.467	16.113	4.3244e-05	17.112	224.572	51.057	98.523	-86.383	191.722	-12.732	-87.100	-81.876	160.429	-22.898	-84.540	-80.160	-78.075	-72.914	115.780	-75.249	-8191	255	
15220.458	1	1	0	0	0.2055	0.089212	0.20634	0.13175	0.23084	0.10951	0.16101	0.31443	0.084807	0.19655	0.048787	0.038409	0.12904	0.25184	0.086503	0.10101	-2.3187	-3.1	-2.7417	-3.0729	-3.1729	-2.6854	-3.2875	-3.0792	-2.8979	-3.2271	-2.8812	-2.9083	-3.1667	-2.8375	-3.0854	-3.0417	72.405	-98.553	11.626	203.782	-74.304	242.113	151.364	186.118	-64.118	148.412	108.109	-15.276	219.472	-73.705	106.756	212.805	8.1001e-05	0.00039853	0.00027533	1144.9	4.3584e-06	5.2655e-06	900.91	298.16	2.2784e-06	5.702e-06	236.75	51.079	61.097	14.72	7.5764e-06	14.807	0.0029493	0.0040275	0.0011726	1144.7	4.3626e-05	4.6604e-05	907.92	301.22	4.3977e-05	4.6989e-05	249.43	56.037	65.835	16.283	4.6586e-05	17.145	238.769	-86.893	2.840	-86.367	-74.179	124.746	-87.226	-81.906	67.578	3.932	-84.223	-79.726	-77.552	-73.237	193.389	-74.987	-8191	255	
15220.554	1	1	0	0	0.069766	0.076388	0.18544	0.14717	0.26446	0.33111	0.17905	0.32809	0.18166	0.16397	0.11389	0.072108	0.08682	0.10232	0.22071	0.26517	-2.3646	-3.0062	-2.9208	-3.0917	-3.1042	-2.8875	-3.1792	-3.0271	-2.7729	-3.15	-2.7875	-2.8667	-3.1083	-2.9354	-3.1708	-3.0104	218.129	9.096	94.181	235.963	-100.183	143.723	169.005	237.806	9.664	13.966	39.097	94.412	202.265	196.132	88.843	110.088	8.7095e-05	0.00028521	0.00030527	1141.4	5.9165e-06	6.3957e-06	895.53	298.74	8.0152e-06	1.2656e-05	236	50.214	61.257	14.739	7.9221e-07	14.744	0.0031127	0.0042858	0.0012217	1143.1	4.5214e-05	4.7663e-05	901.79	301.66	4.5175e-05	4.8111e-05	248.56	55.439	66.115	16.312	4.6049e-05	16.89	209.416	201.199	-42.530	-86.491	-18.014	167.889	-87.155	-82.367	-20.082	193.258	-84.415	-79.837	-78.180	-73.144	13.869	-74.818	-8191	255	
15220.650	1	1	0	0	0.14128	0.29127	0.14248	0.10572	0.23369	0.12344	0.15935	0.19999	0.057306	0.339	0.098222	0.16859	0.19429	0.086232	0.12105	0.04731	-2.4729	-3.1292	-2.7313	-2.8854	-3.1021	-2.8167	-3.1271	-3.175	-2.7521	-3.0833	-2.8604	-2.8146	-3.1	-2.6667	-2.8563	-3.1604	229.293	87.782	-48.456	138.742	73.740	108.635	162.749	-95.017	213.045	9.840	-22.030	18.440	121.977	44.098	-12.110	-85.485	5.3919e-05	0.0006873	0.0002457	1141.5	3.3471e-06	1.976e-06	897.64	300.12	9.7718e-06	4.5996e-06	236.42	50.257	61.023	14.555	2.9232e-06	14.685	0.0030943	0.0042609	0.0012026	1145.4	4.5118e-05	4.8063e-05	905.62	302.6	4.5296e-05	4.8589e-05	248.77	55.332	65.713	16.223	4.6519e-05	16.852	164.191	-10.617	23.780	-86.452	76.678	-12.520	-87.099	-82.100	-76.812	140.427	-84.437	-79.647	-78.213	-73.084	77.551	-75.289	-8191	255	
15220.746	1	1	0	0	0.23431	0.16363	0.24013	0.25062	0.078242	0.17012	0.10325	0.057489	0.17259	0.094714	0.13929	0.059075	0.11615	0.18753	0.12113	0.17081	-2.425	-2.9417	-2.6979	-2.8812	-3.0875	-2.8458	-2.9188	-3.2583	-2.7812	-3.1792	-3.0938	-2.8542	-3.3354	-2.9083	-2.7833	-3.1063	221.162	201.723	19.700	235.450	31.827	37.072	161.009	136.002	150.538	50.320	-95.950	170.330	92.343	194.074	227.219	-50.706	7.1404e-05	0.00049099	0.00017669	1136.2	3.0806e-06	4.2513e-06	898.93	297.11	4.4128e-06	1.5164e-05	235.51	50.094	60.637	14.54	3.8118e-06	14.694	0.0031344	0.0043355	0.0012122	1140.8	4.5577e-05	4.8856e-05	905.88	299.85	4.584e-05	4.8356e-05	247.03	55.12	65.533	16.106	4.4973e-05	16.794	-51.466	16.166	75.409	-86.424	195.875	4.912	-87.225	-82.006	245.585	41.268	-84.329	-79.373	-78.069	-72.825	44.316	-75.780	-8191	255	
15220.867	1	1	0	0	0.12409	0.091557	0.14465	0.22059	0.16322	0.14422	0.29161	0.060664	0.11256	0.2094	0.077001	0.048516	0.1929	0.13283	0.21484	0.28693	-2.35	-2.9646	-2.8583	-2.9688	-3.1437	-2.8021	-3.0042	-3.2479	-2.6729	-3.1375	-3.0583	-2.8292	-3.125	-2.9729	-2.7292	-3.1042	-12.984	229.799	196.329	-37.708	1.672	43.492	201.480	-29.162	96.438	-92.012	162.497	-30.274	-35.422	-90.643	21.530	85.358	2.0778e-05	0.00071324	0.00023121	1144.4	1.0561e-05	1.0857e-05	905.79	298.83	2.7244e-06	6.9963e-06	237.6	50.485	61.045	14.597	3.1679e-06	14.518	0.0030607	0.0041981	0.0011684	1142	4.3854e-05	4.6024e-05	908.79	301.18	4.3979e-05	4.6902e-05	248.05	55.27	65.783	16.196	4.5609e-05	16.776	132.702	44.829	56.605	-86.373	74.980	34.609	-87.313	-82.035	-68.584	13.227	-84.450	-79.620	-78.061	-73.414	92.115	-75.134	-8191	255	
15220.963	1	1	0	0	0.17015	0.11847	0.24219	0.20875	0.17224	0.28199	0.12685	0.20124	0.083452	0.08383	0.12816	0.056254	0.1501	0.025301	0.17761	0.11556	-2.4958	-2.9667	-2.95	-2.8021	-3.025	-2.9479	-2.9417	-3.2938	-2.8063	-2.8063	-3.0625	-2.6271	-2.9667	-2.7729	-2.7542	-3.175	244.367	-40.145	226.355	223.693	134.197	62.443	-5.032	228.017	155.816	63.836	132.425	98.225	242.632	124.262	57.411	242.171	9.2178e-05	0.00086979	0.00024102	1148.2	5.3179e-06	2.0669e-06	894.82	298.85	3.8151e-06	1.8401e-06	234.88	50.002	61.759	14.531	1.6085e-06	14.365	0.0031468	0.00427	0.0011984	1151.3	4.6516e-05	4.8979e-05	902.91	302.01	4.7235e-05	4.9544e-05	247.76	54.822	66.265	16.14	4.6438e-05	16.689	189.564	62.044	82.161	-86.086	131.463	-6.902	-87.325	-82.246	-18.745	-7.898	-84.369	-79.640	-78.134	-72.852	239.148	-75.659	-8191	255	
15221.059	1	1	0	0	0.1181	0.088048	0.19428	0.1321	0.089929	0.21586	0.20221	0.29955	0.2938	0.22043	0.070166	0.23449	0.25459	0.1383	0.22827	0.24137	-2.4708	-2.8875	-3.0125	-2.9583	-3.0438	-2.9062	-2.8125	-3.1167	-2.9062	-2.9229	-3.2313	-2.7438	-3.0187	-3.0021	-2.8396	-3.1229	-72.523	91.074	251.564	257.373	224.055	-32.043	148.891	143.307	63.551	161.963	-47.265	45.212	259.057	222.817	137.072	-82.259	2.3014e-05	0.00064808	6.9854e-05	1142.7	3.3051e-06	4.7245e-06	897.95	300.06	3.8445e-06	8.7878e-06	235.75	50.199	61.494	14.575	1.0517e-06	14.306	0.0031954	0.0043614	0.001202	1147.1	4.6325e-05	4.8183e-05	904.53	302.14	4.5554e-05	4.7137e-05	247.27	55.082	66.001	16.127	4.5338e-05	16.694	209.797	205.104	-14.482	-86.303	114.707	-63.254	-87.501	-82.265	111.395	-63.170	-84.378	-79.889	-78.140	-73.245	239.427	-75.869	-8191	255	
15221.178	1	1	0	0	0.13878	0.050596	0.2395	0.14674	0.069124	0.11617	0.1506	0.033488	0.15877	0.30605	0.08446	0.19252	0.18325	0.087698	0.13876	0.23995	-2.2417	-2.8417	-3.0417	-2.9104	-2.9938	-2.7792	-2.9875	-3.3646	-2.9042	-3.0021	-3.0208	-2.8583	-2.8979	-2.8375	-2.7104	-2.9333	209.282	137.703	25.828	230.446	113.269	-44.566	239.100	-2.930	73.849	-73.848	218.280	256.831	204.221	33.478	95.424	9.113	0.0001234	0.00022513	0.00015697	1153.4	1.2787e-06	3.3473e-06	902.1	299.62	4.1074e-06	1.206e-05	234.79	50.218	61.084	14.676	9.7506e-06	14.445	0.0031742	0.0042739	0.0011911	1152.7	4.6216e-05	4.8361e-05	908.73	302.97	4.6773e-05	4.8381e-05	248.19	55.525	66.059	16.191	4.7484e-05	16.865	-92.269	15.305	52.482	-86.433	246.647	103.550	-87.265	-82.090	-36.347	59.459	-83.911	-79.556	-77.715	-73.178	86.645	-74.852	-8191	255	
15221.250	1	1	0	0	0.088786	0.21331	0.19467	0.3612	0.30937	0.22695	0.10488	0.31769	0.18285	0.091057	0.10567	0.16232	0.071691	0.12297	0.27067	0.064235	-2.5187	-2.7062	-3.1042	-3.0354	-2.8812	-3.0979	-2.9125	-3.1229	-2.8458	-2.6917	-2.9979	-2.8667	-2.8187	-2.9396	-2.7417	-2.8417	138.955	63.381	255.355	218.314	109.034	200.553	-47.351	-66.466	-57.910	-89.601	215.192	227.856	235.053	43.613	99.613	98.360	7.6631e-05	0.00049748	0.00026456	1144.8	2.256e-06	6.1436e-06	896.93	296.49	3.459e-06	3.7708e-06	233.2	49.429	60.499	14.453	4.6433e-06	14.434	0.003247	0.004427	0.0012292	1147.6	4.7532e-05	4.9419e-05	905.91	299.73	4.6954e-05	4.8384e-05	245.78	54.995	65.416	16.041	4.6409e-05	16.723	228.308	63.014	-74.789	-86.479	90.041	156.821	-87.042	-82.280	69.769	-20.377	-84.349	-80.009	-78.227	-73.761	214.130	-75.684	-8191	255	
15221.346	1	1	0	0	0.038891	0.064542	0.1762	0.21032	0.0895	0.084661	0.18257	0.26403	0.11296	0.22369	0.036242	0.13576	0.18852	0.29806	0.060674	0.070103	-2.4854	-2.6021	-2.7708	-2.875	-2.8875	-2.9042	-2.8708	-2.9104	-2.8125	-2.6	-3.3396	-2.6521	-2.7417	-2.9979	-2.8729	-2.8187	21.875	102.237	-63.827	237.536	-4.674	-36.107	217.234	215.928	-51.330	-51.586	246.962	102.694	-84.406	184.616	181.399	241.177	6.382e-05	0.00012528	0.00011206	1134.8	3.0987e-06	4.2762e-06	883.5	292.82	5.4954e-06	5.5528e-06	229.84	48.996	59.905	14.369	5.0239e-06	14.167	0.003165	0.0042202	0.0012003	1136.3	4.5454e-05	4.7181e-05	891.25	296.05	4.4976e-05	4.6659e-05	242.78	53.951	64.426	15.823	4.5288e-05	16.516	252.328	81.441	82.588	-86.324	39.020	74.622	-87.406	-82.087	69.807	61.070	-84.298	-80.047	-77.943	-73.265	9.321	-75.206	-8191	255	
15221.467	1	1	0	0	0.25309	0.11962	0.1278	0.20256	0.11328	0.099611	0.29143	0.089293	0.19697	0.13284	0.077365	0.10649	0.14367	0.11174	0.085829	0.23446	-2.5042	-2.8021	-3.0354	-2.8271	-2.7375	-2.9313	-2.8271	-3.1125	-3.2	-2.7708	-3.0938	-2.8021	-2.825	-3.0042	-2.6833	-2.975	211.532	-29.265	121.096	215.620	-34.548	122.824	196.516	196.934	244.856	66.636	119.730	116.554	79.710	30.954	123.388	-57.897	6.9812e-05	0.00045498	9.1157e-05	1132.2	7.3197e-07	6.7756e-06	893.28	294.07	3.7001e-07	7.7336e-06	231.47	49.396	60.38	14.525	1.3197e-05	14.305	0.0030349	0.0041742	0.0012016	1134.9	4.5355e-05	4.7339e-05	899.17	297.8	4.5795e-05	4.9128e-05	245.27	54.913	65.447	16.204	5.0563e-05	16.943	-70.836	21.138	-19.981	-86.245	168.705	67.900	-87.121	-82.107	141.914	-3.712	-83.934	-79.921	-78.373	-72.877	4.155	-75.218	-8191	255	
15221.563	1	1	0	0	0.096783	0.13359	0.16736	0.17586	0.097847	0.033283	0.10847	0.18306	0.029214	0.10551	0.10864	0.12761	0.15141	0.086723	0.16864	0.098459	-2.625	-2.6771	-3.0312	-2.9354	-2.7646	-3.1646	-2.8229	-2.9917	-3.1437	-2.7854	-3.0208	-2.8417	-2.675	-3.0542	-2.6437	-2.825	199.155	167.165	126.816	15.547	242.416	46.609	2.214	230.830	237.542	-5.195	234.496	20.532	-5.058	240.421	10.770	168.322	2.9204e-05	0.0005113	0.00013799	1128.6	1.758e-06	8.2384e-07	887.89	295.59	6.0476e-06	8.6334e-06	231.35	49.375	60.109	14.271	7.051e-06	14.615	0.0033965	0.0046664	0.0013143	1136.5	4.8606e-05	5.0884e-05	898.84	298.27	4.7746e-05	5.1171e-05	245.9	55.16	65.48	16.225	5.1207e-05	17.201	-15.030	-6.974	24.602	-86.062	-48.912	105.209	-87.299	-81.946	169.498	153.932	-84.767	-79.656	-77.844	-73.193	-3.807	-75.055	-8191	255	
15221.659	1	1	0	0	0.25562	0.12423	0.33257	0.19686	0.32991	0.04242	0.34017	0.36069	0.13587	0.26545	0.18636	0.23921	0.334	0.22907	0.049564	0.2043	-2.5396	-2.6646	-2.9354	-2.9604	-2.725	-3.0729	-3.0021	-2.8958	-3.0792	-2.6542	-3.0458	-2.7875	-2.7062	-2.7875	-2.8604	-2.6625	42.886	-18.833	-71.191	169.428	74.485	100.122	195.995	152.808	70.979	186.512	36.288	235.797	206.766	185.980	-94.021	128.763	4.951e-05	0.0008519	0.00017633	1149.4	4.6295e-06	9.0139e-06	901.79	300.69	8.8178e-06	1.1878e-06	237.67	50.15	62.059	14.661	5.0982e-06	14.206	0.0035304	0.0049091	0.0013841	1156.8	5.1883e-05	5.5649e-05	912.78	305.37	5.1806e-05	5.5094e-05	252.54	56.215	67.573	16.533	5.2817e-05	16.978	154.596	24.884	106.671	-86.081	56.865	93.789	-87.212	-82.280	52.725	22.784	-84.430	-80.147	-78.040	-72.697	143.627	-75.930	-8191	255	
15221.755	1	1	0	0	0.064678	0.17567	0.051827	0.20453	0.051742	0.15154	0.11515	0.030543	0.2694	0.046205	0.085264	0.19033	0.25485	0.31712	0.19027	0.04443	-2.7188	-2.6813	-2.7708	-3.0646	-2.8271	-3.1437	-2.9875	-2.9021	-3.1479	-2.9458	-2.975	-3.1375	-2.575	-2.9938	-2.7729	-2.7625	-96.849	211.535	44.452	256.152	86.590	136.265	216.592	157.440	144.632	-91.032	5.679	252.255	184.958	255.096	252.270	256.952	8.2325e-05	0.00047819	8.0369e-05	1152.2	1.1968e-06	5.5656e-06	889.72	301.38	3.6339e-06	2.5965e-06	236.6	49.981	62.089	14.67	6.69e-06	14.16	0.0035322	0.004888	0.0013517	1157.6	4.9523e-05	5.2354e-05	903.21	304.51	4.9584e-05	5.3276e-05	249.51	55.431	67.234	16.469	5.2271e-05	16.856	118.967	137.324	84.297	-86.199	102.571	47.010	-86.915	-82.088	50.470	79.275	-83.996	-79.845	-78.304	-73.042	43.395	-75.086	-8191	255	
15221.851	1	1	0	0	0.078812	0.045903	0.45435	0.076608	0.30795	0.195	0.040751	0.059916	0.12353	0.31511	0.027592	0.17686	0.13358	0.11868	0.14232	0.2118	-2.6729	-2.9292	-2.9313	-3.2208	-2.675	-2.9813	-3.0521	-2.825	-3.0333	-2.7208	-2.8292	-2.9604	-2.7396	-3.0021	-3.0104	-2.5687	-87.065	157.252	177.174	190.320	-86.954	82.338	26.081	30.040	145.000	-48.478	-57.723	162.457	-16.853	156.467	102.278	44.648	6.5244e-05	0.000618	0.00017612	1151.2	4.5884e-06	4.6625e-06	895.42	303.12	3.5712e-06	1.4908e-05	237.46	50.348	61.972	14.698	2.2302e-06	14.379	0.0035205	0.0047888	0.0013383	1157.5	5.0057e-05	5.2411e-05	907.04	306.21	4.8074e-05	5.1388e-05	250.28	55.667	67.169	16.4	4.9493e-05	16.807	56.422	222.174	51.754	-86.211	-1.558	122.651	-87.175	-82.063	26.725	41.990	-84.313	-79.653	-78.164	-73.732	-70.155	-74.957	-8191	255	
15221.947	1	1	0	0	0.26489	0.06098	0.13825	0.26392	0.28122	0.071077	0.35805	0.50604	0.10935	0.36013	0.19043	0.23331	0.068155	0.23188	0.12206	0.16405	-2.575	-2.7292	-2.6646	-3.0875	-2.5917	-2.7938	-3.0479	-2.7333	-3.0104	-2.8438	-2.7292	-2.9854	-2.6354	-2.8646	-2.8542	-2.6813	-35.110	118.302	119.421	-29.602	-32.779	-92.029	229.703	226.942	83.617	177.981	127.027	-27.225	-29.815	230.188	-92.162	215.650	6.1976e-05	0.00064186	0.00029448	1146.7	2.0783e-06	3.4921e-06	895.47	299.5	1.7548e-06	8.6298e-06	235.72	50.19	61.649	14.401	3.2873e-06	14.562	0.0033622	0.0046112	0.0012838	1153.5	4.8014e-05	5.0384e-05	903.06	302.77	4.6603e-05	4.9072e-05	247.73	55.143	66.138	16.153	4.6309e-05	16.865	214.580	-60.400	51.218	-86.449	-77.778	-47.453	-87.038	-81.911	-53.467	-10.620	-83.908	-80.223	-77.987	-73.378	-15.479	-75.380	-8191	255	
15222.044	1	1	0	0	0.14084	0.19045	0.098058	0.10122	0.12204	0.2286	0.34982	0.17708	0.20817	0.070835	0.056852	0.046867	0.097405	0.2676	0.17788	0.026508	-2.6375	-2.6813	-2.9646	-3.1729	-2.8771	-2.9125	-2.9375	-2.9104	-2.95	-2.9604	-2.5792	-3.0687	-2.9354	-2.9646	-2.9833	-2.6562	136.483	9.855	-98.384	110.971	2.607	-17.815	228.853	199.959	173.982	114.432	203.733	158.539	170.254	-16.321	116.455	236.626	9.1075e-05	0.00018945	0.00015229	1143.2	4.3635e-06	5.9325e-06	900.55	299.92	6.9825e-06	3.9541e-06	237.03	49.863	61.409	14.742	9.7453e-06	14.464	0.0032513	0.0044007	0.0012144	1148.3	4.8008e-05	4.9795e-05	905.92	302.71	4.7474e-05	4.9653e-05	248.26	55.344	66.552	16.312	4.7445e-05	16.829	213.550	78.950	56.544	-86.264	33.698	-75.542	-87.437	-82.058	-5.779	166.815	-83.936	-79.556	-78.351	-73.307	17.884	-75.055	-8191	255	
15222.140	1	1	0	0	0.19857	0.10061	0.25364	0.48094	0.26656	0.020326	0.19763	0.079153	0.12436	0.22622	0.069089	0.098972	0.1012	0.26691	0.059929	0.042098	-2.4333	-2.8271	-2.7229	-3.1833	-2.8396	-2.6646	-3.1813	-2.9875	-3.0271	-2.8958	-2.8104	-2.9958	-2.7208	-2.7083	-3.0354	-2.85	254.170	190.157	-53.662	243.400	86.378	-5.356	254.187	147.235	227.688	9.020	-3.686	193.461	150.845	-93.127	72.886	8.190	6.2755e-05	0.00059374	0.00012072	1145.6	4.3541e-06	7.1113e-06	892.03	301.08	1.3376e-06	5.7823e-06	235.48	50.424	62.132	14.636	3.3795e-06	14.481	0.0032649	0.0043978	0.0012255	1148	4.6784e-05	4.7975e-05	899.71	303.33	4.6312e-05	4.8607e-05	247.04	55.123	66.707	16.228	4.6223e-05	16.732	254.970	-77.635	-52.535	-86.565	241.809	66.931	-87.178	-82.295	224.166	99.922	-84.023	-80.271	-78.235	-73.369	74.173	-75.654	-8191	255	
15222.259	1	1	0	0	0.086173	0.20824	0.083587	0.1417	0.10806	0.060481	0.24936	0.10974	0.14438	0.10417	0.10754	0.10187	0.16345	0.32582	0.23307	0.055716	-2.5438	-2.8625	-2.7208	-3.1958	-2.925	-2.7083	-3.1396	-2.825	-2.8854	-2.8667	-2.5938	-2.9896	-3.0604	-2.8875	-3.025	-2.7229	51.887	158.422	-7.234	21.274	-27.969	205.808	142.912	94.889	243.182	229.506	-18.051	158.916	127.405	26.200	98.933	117.600	5.2254e-05	0.00066825	4.1789e-05	1154	2.862e-06	5.2332e-06	898.49	304.22	2.6468e-06	9.5006e-06	238.09	50.474	62.195	14.764	3.7541e-06	14.284	0.0032212	0.0043999	0.0012296	1157.3	4.7552e-05	4.8946e-05	906.17	307.08	4.6457e-05	4.76e-05	250.75	55.62	66.912	16.316	4.5447e-05	16.714	-19.689	10.429	230.514	-86.250	-89.168	-19.566	-86.989	-82.078	-37.865	67.493	-84.289	-79.628	-78.291	-73.399	245.321	-75.344	-8191	255	
15222.355	1	1	0	0	0.30241	0.13378	0.23021	0.19713	0.17458	0.079499	0.16422	0.2599	0.052865	0.068061	0.10231	0.2872	0.22609	0.1899	0.18736	0.10705	-2.4125	-2.9125	-2.5417	-3.1375	-2.9479	-2.7208	-3.2083	-2.9313	-2.8854	-2.9771	-2.7062	-3.0833	-2.9125	-2.6396	-3.0854	-2.8625	1.087	34.765	-91.614	143.959	236.425	7.272	175.486	223.254	113.121	-13.489	-95.708	229.869	99.829	121.355	-49.989	125.012	7.3472e-05	0.00079916	0.00021775	1161.1	5.0087e-06	4.3154e-06	907.72	305.14	1.8056e-06	5.4094e-06	240.18	50.937	62.532	14.793	5.2294e-06	14.564	0.0031465	0.0042144	0.0011904	1161.2	4.5047e-05	4.6e-05	910.63	307.28	4.3156e-05	4.382e-05	250.13	55.262	66.537	16.127	4.2149e-05	16.557	203.949	37.514	-7.709	-86.313	78.358	25.892	-87.089	-82.275	-94.816	19.772	-84.361	-80.070	-78.345	-73.524	250.921	-75.202	-8191	255	
15222.451	1	1	0	0	0.02014	0.15617	0.049129	0.093608	0.15365	0.15088	0.42448	0.39916	0.055668	0.28102	0.25478	0.1628	0.2417	0.12004	0.17056	0.27889	-2.4771	-2.9708	-2.5917	-3.0417	-2.9646	-2.6188	-3.0417	-2.9167	-2.6583	-3.0875	-2.8021	-2.825	-2.9792	-2.6312	-2.9542	-2.9313	38.078	-14.424	194.845	-96.407	-34.714	72.334	194.166	230.562	124.384	-96.483	167.890	33.953	224.585	192.062	-97.919	-88.828	8.7179e-05	0.0011362	0.00019061	1152.6	5.1355e-06	3.1792e-06	909.42	304.74	8.298e-06	9.4878e-06	238.32	50.7	62.54	14.82	6.5454e-06	14.174	0.0028322	0.0038029	0.0010958	1154.2	4.1417e-05	4.3244e-05	910.26	306.09	4.1603e-05	4.382e-05	249.07	55.329	66.442	16.06	4.2628e-05	16.365	204.442	-55.302	-12.619	-86.507	244.279	88.949	-87.186	-82.128	30.576	92.872	-84.387	-79.612	-78.062	-73.560	234.426	-75.275	-8191	255	
15222.547	1	1	0	0	0.35364	0.035053	0.20479	0.20109	0.091312	0.097341	0.21721	0.37304	0.11313	0.13937	0.1637	0.064685	0.050695	0.081222	0.21964	0.058116	-2.2542	-3.0146	-2.5604	-2.975	-2.9625	-2.5167	-3.0854	-2.8875	-2.7542	-3.1625	-2.7271	-2.7875	-3.0812	-2.7792	-3.0896	-3.0062	-31.662	-65.786	224.923	-58.003	113.677	-84.632	136.745	204.221	38.235	165.239	218.417	3.958	-65.377	159.869	101.633	12.699	9.1946e-05	0.00067984	0.0003137	1147	1.676e-06	6.8177e-06	892.77	301.64	4.8358e-06	3.873e-06	233.56	50.059	61.152	14.466	6.417e-06	14.322	0.0028903	0.0039406	0.0011213	1149.6	4.2207e-05	4.4227e-05	897.62	303.2	4.143e-05	4.3671e-05	244.84	54.472	65.429	15.938	4.2682e-05	16.286	219.201	96.611	256.805	-86.378	111.518	121.677	-86.845	-82.311	118.143	5.441	-84.405	-79.607	-78.048	-73.564	106.878	-76.054	-8191	255	
15222.643	1	1	0	0	0.072329	0.10222	0.3127	0.34278	0.12978	0.07062	0.39029	0.21192	0.0045267	0.08762	0.29729	0.13319	0.15721	0.093082	0.13094	0.08532	-2.2208	-3.0354	-2.7208	-3.0375	-3.0354	-2.8042	-3.0167	-3.1417	-2.8354	-3.0979	-2.9125	-2.8396	-2.9458	-2.6312	-2.9396	-2.9583	91.621	-21.957	229.003	233.593	61.390	258.931	225.234	219.161	54.992	149.699	171.847	-17.778	-49.677	211.767	175.638	197.485	3.4405e-05	0.0001922	0.00012105	1136.6	2.2105e-06	1.8917e-06	893.1	299.23	5.0605e-06	4.3807e-06	235.29	50.664	61.595	14.474	3.0112e-06	14.381	0.0027654	0.0037762	0.0010617	1135.6	3.9591e-05	4.2266e-05	896.02	300.83	3.9729e-05	4.253e-05	245.82	54.653	65.592	15.917	4.1978e-05	16.373	233.710	-85.801	-72.912	-86.253	106.318	115.121	-87.000	-82.008	13.146	34.481	-83.692	-79.796	-78.125	-72.847	34.725	-75.490	-8191	255	
15222.739	1	1	0	0	0.28068	0.20892	0.17905	0.13959	0.23755	0.17372	0.13132	0.26257	0.10718	0.13764	0.058049	0.16132	0.23172	0.031157	0.22196	0.035191	-2.1458	-3.0833	-2.7729	-2.6417	-2.9396	-2.8417	-3	-3.1854	-2.5417	-3.0875	-2.8521	-2.8333	-3.0187	-2.7583	-2.975	-2.9479	47.799	-70.259	186.854	223.162	192.618	-55.926	163.154	-85.495	18.489	-10.839	177.062	210.007	-78.044	90.661	80.805	247.676	6.5539e-05	0.00028813	4.1244e-05	1145.4	9.6597e-06	9.1418e-06	892.57	300.79	3.9916e-06	1.1212e-05	238.64	50.404	62.122	14.615	7.3131e-06	14.384	0.0027974	0.0038852	0.0010841	1143.4	3.9304e-05	4.2229e-05	900.29	302.73	3.944e-05	4.1882e-05	248.63	54.712	65.974	16.07	4.1912e-05	16.394	209.262	-43.510	202.374	-86.168	161.323	107.004	-87.242	-82.226	150.126	-12.880	-84.356	-79.595	-77.920	-73.154	35.020	-75.251	-8191	255	
15222.860	1	1	0	0	0.26319	0.086334	0.14265	0.34042	0.1795	0.070245	0.13745	0.21191	0.20782	0.075104	0.10766	0.13072	0.099021	0.10443	0.17563	0.21142	-2.2687	-3.0583	-2.7833	-2.7458	-3.1042	-2.7896	-2.7667	-3.0938	-2.7062	-2.9604	-3.0125	-2.7875	-2.8667	-2.7062	-2.6833	-3.125	141.938	235.531	173.382	206.906	226.669	121.183	-59.610	208.661	155.438	46.401	202.378	0.597	259.453	-70.703	241.928	8.482	4.7355e-05	0.0012857	0.00023119	1157.2	3.5442e-06	4.4415e-06	900.52	303.07	6.6075e-06	4.6287e-06	237.6	50.46	62.101	14.654	1.0975e-05	14.205	0.0028176	0.0038691	0.0010895	1153.9	4.0755e-05	4.3507e-05	907.59	305.1	4.0815e-05	4.4266e-05	248.06	55.056	66.41	16.122	4.301e-05	16.405	156.382	40.746	-92.950	-86.238	64.688	20.235	-87.227	-81.962	238.319	78.693	-84.546	-79.982	-78.317	-73.355	44.663	-75.475	-8191	255	
15222.956	1	1	0	0	0.16102	0.1034	0.24396	0.15732	0.23701	0.11294	0.2822	0.053463	0.097907	0.046954	0.049434	0.16931	0.3282	0.097806	0.068711	0.14761	-2.35	-2.8354	-2.8979	-2.8125	-2.975	-2.7313	-3.0708	-3.1063	-2.8354	-3.0146	-3.0292	-2.7021	-3.05	-2.7979	-2.7167	-3.1292	-0.419	165.742	35.971	194.119	141.447	81.622	115.442	90.141	-40.203	10.392	34.405	-97.942	249.296	-94.991	-94.522	237.396	4.9042e-05	0.00057335	0.00023348	1156.4	5.9596e-06	7.2669e-06	897.05	302.74	3.9378e-06	8.156e-06	236.44	49.501	62.056	14.611	4.8606e-06	14.257	0.0030155	0.0041548	0.0011602	1157.7	4.4823e-05	4.7588e-05	903.34	306.19	4.473e-05	4.7443e-05	247.9	54.772	66.481	16.145	4.447e-05	16.385	-71.574	-53.670	21.775	-86.110	254.814	152.313	-87.028	-82.056	102.628	79.031	-84.442	-79.555	-78.184	-73.474	2.466	-76.118	-8191	255	
15223.051	1	1	0	0	0.046246	0.18469	0.30478	0.087	0.1488	0.079548	0.23528	0.26313	0.14136	0.24218	0.14865	0.1136	0.073225	0.13157	0.29563	0.12881	-2.2417	-2.9458	-2.9833	-2.6771	-3.0458	-2.9458	-2.7562	-3.2125	-2.7979	-2.7625	-2.9875	-2.8187	-2.8792	-2.8625	-2.6063	-2.9125	89.625	9.125	105.351	226.013	99.216	96.231	202.214	225.405	177.044	191.391	69.177	-50.688	58.994	238.347	-4.792	-95.287	9.3288e-05	3.0528e-05	0.00020982	1146	2.7663e-06	9.629e-06	891.01	299.57	1.5394e-06	1.3146e-05	234.29	49.756	61.136	14.559	1.0322e-06	14.239	0.0029913	0.004091	0.0011242	1146.4	4.2926e-05	4.5881e-05	898.27	301.89	4.3934e-05	4.6297e-05	245.98	54.727	65.898	16.111	4.3958e-05	16.566	216.455	2.374	-56.221	-86.296	116.282	3.675	-87.289	-81.978	232.691	53.008	-84.083	-80.045	-77.859	-72.933	209.474	-75.348	-8191	255	
15223.148	1	1	0	0	0.17473	0.055632	0.28142	0.40499	0.0072997	0.0090358	0.14799	0.11896	0.097125	0.22877	0.026228	0.35215	0.21798	0.20161	0.19948	0.28029	-2.3833	-2.7812	-2.8354	-3.0458	-2.8146	-2.7833	-2.8563	-3.1521	-2.7417	-3.0771	-3.2396	-2.5375	-2.9062	-2.7583	-2.7938	-2.9292	258.803	148.368	-75.516	178.476	-85.011	-99.940	-9.811	203.621	114.377	-46.972	113.021	213.927	-20.956	166.387	185.622	152.911	6.8862e-05	0.00061562	1.3139e-05	1149.7	1.8073e-06	9.2485e-06	900.33	302.6	4.2838e-06	8.2402e-06	239.6	50.919	62.368	14.746	3.6445e-06	14.525	0.0030888	0.0041351	0.0011506	1147.8	4.4203e-05	4.6046e-05	904.59	304.22	4.4572e-05	4.6664e-05	249.65	55.667	67.145	16.352	4.5641e-05	16.878	172.866	-70.501	30.675	-86.219	214.084	-5.235	-87.427	-82.051	49.950	-45.595	-84.271	-79.697	-77.664	-73.287	-24.478	-75.327	-8191	255	
15223.243	1	1	0	0	0.31885	0.16727	0.19586	0.1198	0.12159	0.070655	0.31054	0.19253	0.22688	0.35489	0.23784	0.11387	0.11672	0.18553	0.26675	0.21328	-2.3896	-2.675	-2.9354	-2.9042	-2.8187	-2.9104	-2.8042	-3.0396	-2.7646	-2.725	-3.1333	-2.6917	-2.8208	-2.8438	-2.8896	-3.0458	19.037	197.662	203.572	216.503	175.980	-61.059	165.476	245.457	165.619	199.233	215.728	222.247	185.332	106.516	230.584	-75.854	2.8296e-05	0.0009338	9.9502e-05	1159.2	1.43e-06	5.7436e-06	902.53	303.98	4.3197e-06	8.6963e-06	236.1	50.005	62.354	14.634	2.3776e-06	14.287	0.0031858	0.004276	0.0011883	1159.7	4.5739e-05	4.6662e-05	908.35	306.21	4.4564e-05	4.5831e-05	248.33	54.935	66.424	16.096	4.2956e-05	16.39	200.124	-23.055	216.139	-86.511	85.026	55.507	-86.970	-82.039	-86.813	37.508	-84.303	-80.236	-78.071	-73.316	58.667	-75.213	-8191	255	
15223.339	1	1	0	0	0.18901	0.17383	0.24857	0.016575	0.11441	0.074924	0.27909	0.15759	0.20516	0.23633	0.10802	0.058407	0.048738	0.11468	0.068805	0.21224	-2.3521	-2.6229	-3.0563	-2.7792	-2.8604	-2.825	-2.8229	-3.2271	-2.8333	-2.7583	-3.0771	-2.8271	-2.7875	-3.0396	-2.7125	-3.0583	225.804	209.449	186.090	-40.259	155.660	-0.846	203.975	131.585	124.149	117.932	186.482	86.695	-70.229	189.347	-14.251	-19.992	5.0017e-05	0.0007132	0.000136	1147.1	4.5926e-06	5.2691e-06	894.25	302.87	3.4827e-06	3.339e-06	235.66	50.126	62.384	14.805	1.6172e-06	14.322	0.0029358	0.0039201	0.0011097	1146.8	4.2197e-05	4.3933e-05	898.63	304.24	4.2144e-05	4.4225e-05	246.94	54.788	66.653	16.171	4.4261e-05	16.535	254.217	80.144	3.651	-86.072	-18.781	179.501	-87.175	-82.277	183.008	98.530	-84.656	-79.785	-78.000	-73.296	127.798	-75.852	-8191	255	
15223.435	1	1	0	0	0.15834	0.25087	0.40775	0.36976	0.26114	0.077009	0.10616	0.13563	0.046533	0.33598	0.26074	0.087081	0.11193	0.033046	0.034264	0.17514	-2.4104	-2.5167	-3.175	-2.8187	-2.8	-3.0583	-2.8563	-3.0438	-2.8521	-2.8479	-3.1042	-2.7042	-2.825	-3.0854	-2.6833	-2.75	-40.500	135.103	84.599	179.500	43.900	142.552	202.609	202.532	62.548	130.636	167.822	104.801	177.294	-87.987	-62.358	16.324	6.2106e-05	0.00065088	0.00017858	1152.5	5.2952e-06	8.7305e-06	898.37	301.84	3.3989e-06	1.1173e-06	235.36	50.554	62.253	14.58	5.6329e-06	14.413	0.0030857	0.0041525	0.0012003	1157.2	4.4324e-05	4.6135e-05	904.97	305.16	4.3584e-05	4.5677e-05	248.09	55.241	66.356	16.125	4.4938e-05	16.597	-95.146	45.440	10.438	-86.524	128.442	28.695	-87.000	-82.188	157.879	74.992	-84.675	-80.007	-77.764	-73.252	103.210	-75.943	-8191	255	
15223.556	1	1	0	0	0.12747	0.11508	0.19634	0.20724	0.15054	0.18671	0.15856	0.30592	0.064491	0.22264	0.19964	0.10675	0.045407	0.22066	0.18023	0.25294	-2.4833	-2.5542	-2.8875	-2.8271	-2.7896	-2.9938	-2.8667	-3.0604	-2.9521	-2.675	-2.8958	-2.8312	-2.8021	-3.1396	-2.875	-2.9813	49.799	-14.574	69.195	234.417	100.848	40.547	-70.836	244.941	-55.148	208.206	-2.550	114.945	52.077	-73.521	-92.526	132.429	5.1442e-05	0.00039939	0.00016971	1146.1	3.1645e-06	4.5772e-06	896.69	299.05	6.5328e-07	4.9221e-06	234.88	50.171	61.577	14.51	5.0924e-06	14.333	0.0030254	0.004136	0.0011772	1146.3	4.3396e-05	4.5936e-05	903	302.24	4.3936e-05	4.6503e-05	247.45	55.114	65.95	16.143	4.6295e-05	16.679	203.255	-99.061	-23.152	-86.216	9.565	177.221	-87.254	-81.982	-12.589	236.716	-84.530	-79.547	-78.108	-73.409	214.258	-75.654	-8191	255	
15223.652	1	1	0	0	0.10362	0.046111	0.19979	0.078237	0.11516	0.10431	0.064093	0.40128	0.3219	0.14199	0.17526	0.22607	0.1752	0.29223	0.15304	0.26458	-2.6021	-2.7375	-2.9417	-2.8333	-2.5896	-3.0167	-2.6729	-2.9125	-2.9708	-2.6958	-3.0354	-2.8312	-2.7542	-3.1167	-2.6646	-2.8875	67.646	160.918	23.511	209.463	-35.339	231.982	127.939	207.541	80.642	10.020	-60.268	120.384	141.276	165.247	-66.385	166.257	4.4827e-05	0.0006311	0.00011898	1147.1	2.0861e-06	5.9002e-06	896.14	301.29	5.7525e-06	7.7419e-06	235.84	50.073	61.85	14.423	1.1294e-06	14.148	0.0030946	0.0042846	0.0012208	1148.5	4.5e-05	4.7959e-05	904.43	303.51	4.5801e-05	4.8567e-05	248.29	55.083	66.39	16.179	4.7574e-05	16.679	105.162	-25.981	31.895	-86.193	21.565	150.449	-87.200	-82.175	-78.558	105.628	-84.026	-79.776	-78.270	-73.534	-41.842	-75.080	-8191	255	
15223.724	1	1	0	0	0.23058	0.113	0.1707	0.32479	0.16643	0.27657	0.25117	0.060537	0.23995	0.11299	0.16067	0.095056	0.14951	0.24034	0.15653	0.13634	-2.6208	-2.9	-3.0708	-3.0042	-2.5833	-3.0708	-2.8937	-2.9542	-3.1063	-2.7333	-2.9188	-2.8083	-2.6937	-3.0333	-2.7562	-2.8625	6.763	-18.731	100.324	-98.631	220.095	95.009	217.230	-1.178	77.729	28.077	-88.909	-14.673	-65.158	95.265	74.048	-71.157	2.9992e-05	0.00032804	0.00012421	1143	7.8065e-06	6.4498e-06	887.04	300.73	3.0833e-06	1.0205e-05	233.42	50.09	61.862	14.757	9.3674e-06	14.255	0.0032044	0.0044581	0.0012525	1149.2	4.6518e-05	4.9483e-05	900.16	303.75	4.6762e-05	4.9896e-05	248.26	55.174	66.98	16.384	4.9926e-05	16.775	-15.299	101.549	211.141	-86.230	36.577	50.187	-87.082	-81.923	6.356	46.686	-84.150	-80.040	-78.043	-73.502	67.677	-75.565	-8191	255	
15223.820	1	1	0	0	0.098731	0.29195	0.19717	0.28181	0.16057	0.28033	0.32864	0.071609	0.076132	0.15232	0.07368	0.21006	0.30815	0.14354	0.40993	0.070941	-2.7042	-2.5917	-3.0604	-3.1208	-2.7042	-3.0646	-2.9958	-2.825	-3.0708	-2.7625	-2.9896	-2.8771	-2.5646	-3.1104	-2.7854	-2.6271	51.048	-51.511	-6.177	228.853	73.957	219.507	228.005	-32.724	-14.509	95.257	74.458	-77.435	172.121	129.936	-20.183	151.052	9.0427e-05	0.00021016	0.00018035	1145.3	2.1645e-06	1.4209e-06	889.47	299.61	1.5043e-06	6.8211e-06	235.23	49.528	60.706	14.488	2.0845e-06	14.404	0.0033147	0.0045799	0.0012663	1151.1	4.6852e-05	4.973e-05	901.52	303.05	4.6722e-05	5.0166e-05	247.82	54.886	66.234	16.259	4.8658e-05	16.785	240.223	66.876	40.242	-86.286	-88.715	77.481	-87.402	-81.993	-57.236	36.944	-84.072	-79.803	-78.299	-73.365	76.929	-75.523	-8191	255	
15223.940	1	1	0	0	0.13229	0.048865	0.25149	0.11748	0.15088	0.22946	0.15079	0.089222	0.11625	0.1462	0.17884	0.10805	0.19479	0.18917	0.11498	0.37512	-2.6188	-2.6958	-2.8208	-2.9979	-2.6854	-3.1292	-3.025	-2.8854	-3.0208	-2.7708	-2.8375	-2.9083	-2.8292	-2.9083	-3.0125	-2.7938	-84.955	-3.583	-51.804	201.970	4.289	126.475	166.575	227.487	-46.346	-92.693	248.778	6.129	69.408	-77.299	235.329	146.750	5.9581e-05	0.00039916	0.00016173	1150.5	6.4505e-06	3.1617e-06	900.47	302.76	6.9103e-06	8.3648e-06	237.4	50.443	62.167	14.716	2.762e-06	14.573	0.0032874	0.0045241	0.0012736	1155.9	4.7646e-05	5.0852e-05	907.7	306.46	4.8214e-05	5.1388e-05	251.06	55.822	67.517	16.534	5.0018e-05	17.045	141.368	22.592	240.742	-86.546	203.311	19.795	-87.315	-82.097	143.266	101.798	-84.102	-79.709	-78.257	-73.228	43.933	-75.828	-8191	255	
15224.037	1	1	0	0	0.31277	0.12881	0.035196	0.30243	0.13811	0.14201	0.11124	0.22823	0.034851	0.17224	0.23144	0.21138	0.068122	0.21938	0.08773	0.19253	-2.4771	-2.8937	-2.6146	-3.0625	-2.7313	-2.8896	-3.0208	-2.8542	-2.9833	-2.9292	-2.8063	-2.9229	-2.6854	-3.0333	-2.9417	-2.5729	61.458	-38.333	-29.881	71.277	67.844	60.514	117.805	245.161	-26.119	141.784	200.332	-40.650	203.184	204.447	248.337	-45.194	8.1393e-05	0.00023632	1.8564e-05	1157.8	2.4864e-06	4.263e-06	902.76	304.01	3.4203e-06	1.9562e-05	234.89	49.746	61.555	14.507	4.564e-06	14.161	0.0034556	0.0047749	0.0013187	1164.6	4.985e-05	5.2435e-05	909.52	306.29	4.8495e-05	5.0788e-05	247.93	54.922	66.781	16.281	4.8638e-05	16.693	-71.013	203.164	34.891	-86.324	-41.094	-10.071	-87.208	-82.069	-84.444	61.443	-84.651	-79.433	-77.857	-73.390	31.563	-75.641	-8191	255	
15224.131	1	1	0	0	0.14203	0.2398	0.032803	0.31769	0.22023	0.19164	0.19911	0.19482	0.08931	0.01026	0.023215	0.30012	0.27338	0.24697	0.049398	0.12897	-2.625	-2.8729	-2.7542	-3.0875	-2.7	-3.1104	-2.8125	-2.7438	-2.9771	-2.8688	-2.65	-2.8896	-2.6021	-2.95	-3.0083	-2.575	80.301	126.110	77.572	254.958	-32.696	204.103	163.727	-65.434	43.391	44.843	-28.322	183.510	248.144	-34.111	57.478	167.340	2.3759e-05	0.00026812	2.5109e-05	1148.2	4.843e-06	7.8388e-06	887.61	297.86	5.0158e-06	1.3345e-05	230.95	49.134	61.281	14.546	5.2261e-06	14.256	0.0034151	0.0046227	0.0012867	1150.9	4.9165e-05	5.1567e-05	896.39	302.48	4.9234e-05	5.1943e-05	245.72	54.805	66.49	16.303	4.9002e-05	16.719	249.473	-2.243	118.719	-86.398	72.977	-16.612	-86.809	-82.334	141.017	-13.051	-84.194	-79.864	-78.208	-73.574	71.214	-75.748	-8191	255	
15224.229	1	1	0	0	0.38937	0.25455	0.11647	0.18151	0.031734	0.01565	0.19341	0.16042	0.1572	0.21832	0.19148	0.22215	0.2218	0.11758	0.0733	0.14847	-2.4625	-2.7792	-2.7	-3.0812	-2.9313	-2.85	-2.8792	-2.9562	-2.7062	-2.9688	-2.7104	-2.9042	-2.8167	-2.7583	-3.025	-2.8417	-14.513	-90.794	-3.519	213.961	214.418	173.119	158.705	196.339	92.445	174.044	127.716	-85.697	74.407	168.738	3.338	210.551	3.9632e-05	0.0002656	0.00016353	1141.8	5.9648e-06	4.2917e-06	887.48	298.95	5.7017e-06	1.386e-05	234.55	49.457	61.383	14.631	5.0867e-06	14.168	0.003387	0.0046355	0.0012759	1147.7	5.0075e-05	5.1779e-05	896.93	303.09	4.9036e-05	5.1095e-05	246.98	55.044	66.581	16.266	4.8574e-05	16.768	170.225	12.317	-75.789	-86.329	-16.238	97.859	-87.136	-82.216	-6.586	30.766	-84.264	-79.358	-78.095	-72.934	24.833	-76.010	-8191	255	
15224.348	1	1	0	0	0.082763	0.038395	0.2092	0.37636	0.12585	0.14726	0.15862	0.21217	0.15076	0.12124	0.093453	0.024123	0.11209	0.2144	0.088917	0.17092	-2.4771	-2.8333	-2.4938	-2.9	-2.875	-2.7938	-3.0604	-2.6937	-2.8292	-2.9854	-2.7354	-3.0917	-2.8104	-2.7583	-3.0375	-2.6583	-15.071	139.186	-79.191	231.738	110.535	97.238	90.229	-18.924	53.653	-66.156	2.110	-87.383	85.026	205.377	90.316	110.012	1.4729e-05	0.00031326	0.00012168	1143.2	8.0625e-06	1.6649e-06	893.21	300.76	4.2476e-06	7.6251e-06	232.77	50.03	61.433	14.514	6.3013e-06	14.34	0.0033457	0.0045027	0.001256	1149.4	4.8192e-05	5.0119e-05	901.04	303.56	4.8094e-05	5.0138e-05	247.12	55.213	66.348	16.216	4.8622e-05	16.791	-64.301	242.531	143.836	-86.324	-16.421	73.570	-87.074	-82.239	-66.918	57.988	-84.623	-79.393	-78.218	-73.419	165.985	-75.555	-8191	255	
15224.419	1	1	0	0	0.17283	0.078793	0.12807	0.070093	0.13011	0.13436	0.28284	0.081013	0.086815	0.13142	0.11141	0.18169	0.1491	0.20011	0.041385	0.074149	-2.3958	-2.8708	-2.6542	-3.0604	-3.0104	-2.6625	-3.0271	-2.9313	-2.7729	-3.0271	-2.6854	-2.8688	-2.8896	-2.7458	-3.0646	-2.8271	250.635	-83.128	181.280	147.801	-22.777	146.528	215.951	-48.000	-7.211	59.732	-76.962	236.201	-89.371	195.636	-96.457	228.521	2.3057e-05	0.00027376	4.9075e-05	1144.9	1.1172e-06	1.0392e-05	893.24	299.44	4.8123e-06	1.6664e-05	231.62	48.624	61.285	14.486	4.5387e-06	13.992	0.0033573	0.004531	0.001297	1151.2	4.8916e-05	5.0629e-05	898.47	303.39	4.8125e-05	5.0909e-05	245.75	54.762	66.632	16.232	5.0501e-05	16.668	41.767	-7.347	88.391	-85.983	-58.083	24.240	-87.319	-82.133	-31.140	60.697	-84.124	-79.851	-78.371	-73.292	-32.894	-76.052	-8191	255	
15224.540	1	1	0	0	0.038134	0.2921	0.061751	0.24789	0.092349	0.15002	0.17751	0.14575	0.095863	0.17964	0.038444	0.1713	0.10718	0.2514	0.18686	0.099434	-2.375	-2.9188	-2.5667	-3.1083	-2.7667	-2.3583	-3.1354	-2.9396	-2.7188	-3.025	-2.8083	-2.7687	-2.8812	-2.575	-2.8333	-2.8604	108.737	216.003	-92.066	235.528	143.126	10.883	208.193	233.592	68.707	7.206	194.702	243.350	201.514	-99.115	-86.205	-83.082	4.0172e-05	0.00042175	0.00026735	1142.4	2.9284e-06	4.4531e-06	878.52	299.1	6.094e-06	6.4732e-06	234.55	49.412	60.899	14.341	3.8613e-06	13.943	0.0034088	0.0045302	0.001293	1147.7	4.7948e-05	5.0538e-05	890.38	302.71	4.8585e-05	5.0735e-05	246.27	54.784	66.375	16.165	5.023e-05	16.585	205.994	192.095	-77.382	-86.327	39.372	-83.468	-87.232	-82.342	-56.111	43.099	-84.416	-79.555	-77.891	-73.471	54.945	-75.324	-8191	255	
15224.636	1	1	0	0	0.085138	0.1477	0.20142	0.25814	0.22049	0.026841	0.14407	0.30835	0.13172	0.15188	0.27299	0.060821	0.12755	0.024929	0.18547	0.16427	-2.2875	-2.7562	-2.6708	-2.9458	-2.8583	-2.625	-3.1937	-2.9271	-2.7583	-3.0021	-2.9	-2.7938	-3.2146	-2.6312	-2.9167	-2.8646	199.959	64.384	-31.140	171.800	-51.179	258.768	-58.376	188.947	131.142	118.641	-44.057	80.976	-96.923	-78.414	15.602	-7.322	4.608e-05	0.00021492	0.00013098	1147.2	8.3124e-06	1.1948e-06	889.07	301.18	5.9765e-06	4.9788e-06	233.3	49.729	61.295	14.559	1.0132e-05	14.022	0.0034013	0.0046212	0.001332	1154.9	4.965e-05	5.2691e-05	902.17	305.46	4.9975e-05	5.3321e-05	248.26	55.206	66.573	16.298	5.2143e-05	16.654	183.613	54.024	-7.034	-86.236	122.117	179.787	-87.202	-82.275	76.576	-6.703	-84.570	-79.498	-78.086	-73.220	69.357	-75.621	-8191	255	
15224.732	1	1	0	0	0.17968	0.12157	0.11121	0.26328	0.07145	0.14182	0.28542	0.17135	0.11394	0.22671	0.083029	0.17111	0.25418	0.14632	0.011472	0.15571	-2.3333	-2.9688	-2.7521	-2.9417	-2.9938	-2.6271	-3.0792	-2.9854	-2.4292	-2.9333	-2.7771	-2.7458	-3.1104	-2.6833	-3.0792	-2.95	-72.976	142.896	226.957	164.108	214.178	111.557	154.493	249.571	29.853	160.421	120.478	-34.529	-52.870	220.482	63.408	-38.133	1.6668e-05	0.00040824	0.0002425	1133	7.5045e-06	1.1361e-05	882.89	294.4	2.4546e-06	3.1928e-06	232.4	49.015	59.944	14.384	2.6141e-06	14.018	0.0034299	0.0046829	0.0013093	1140.8	4.7585e-05	5.0075e-05	890.86	298.28	4.5618e-05	4.7606e-05	243.6	53.912	64.998	15.956	4.6602e-05	16.45	-89.780	-98.768	248.025	-86.265	105.545	38.893	-87.089	-82.416	142.301	-47.570	-84.788	-79.748	-77.574	-72.754	100.469	-75.306	-8191	255	
15224.829	1	1	0	0	0.06469	0.134	0.32798	0.13137	0.18406	0.1322	0.25684	0.15817	0.18179	0.028562	0.018385	0.12431	0.12687	0.080714	0.09538	0.099058	-2.3292	-3.0042	-2.5208	-2.9313	-3.0333	-2.6813	-3.0729	-3.2042	-2.6625	-3.0708	-2.7812	-2.6479	-2.9792	-2.7375	-2.8875	-3.0062	221.494	254.489	181.121	203.328	-88.371	101.450	157.640	178.504	74.514	251.106	34.086	110.779	17.832	230.843	-91.785	149.928	3.2158e-05	0.00060565	0.00010244	1147.8	4.8771e-06	2.5039e-06	892.2	302.39	8.7653e-06	1.2115e-05	234.11	49.379	61.645	14.463	5.7873e-06	13.889	0.0031941	0.0044896	0.0012954	1156	4.9365e-05	5.3461e-05	906.09	306.68	5.1154e-05	5.4506e-05	248.67	54.904	67.04	16.384	5.2181e-05	16.59	91.085	81.209	71.683	-86.346	198.144	72.551	-87.197	-81.933	259.285	138.994	-83.916	-80.425	-78.461	-73.154	-83.033	-75.320	-8191	255	
15224.949	1	1	0	0	0.045711	0.28016	0.27068	0.18378	0.083258	0.030634	0.13251	0.34327	0.23606	0.12139	0.17389	0.039956	0.18587	0.14994	0.1769	0.37771	-2.2375	-2.9562	-2.6917	-2.8354	-3.0583	-2.6833	-2.825	-3.0375	-2.6146	-2.9479	-2.8479	-2.6125	-3.05	-2.7062	-2.7229	-2.7854	237.113	7.708	209.726	187.076	-45.183	198.402	112.319	221.204	186.202	226.062	37.350	95.185	-62.603	-69.657	-37.901	-9.494	6.2614e-05	0.00057999	0.00045966	1150.8	5.3722e-06	1.2202e-06	887.75	300.88	9.7776e-06	3.7031e-06	231.31	48.814	59.93	14.419	8.6151e-06	14.042	0.0035507	0.0049404	0.0014051	1159.3	5.2468e-05	5.5601e-05	899.7	304.15	5.1154e-05	5.4478e-05	246.07	54.624	66.137	16.268	5.2684e-05	16.792	158.935	30.894	1.113	-86.337	26.839	43.087	-87.252	-82.195	1.080	105.713	-84.515	-80.177	-78.118	-73.477	71.364	-74.881	-8191	255	
15225.021	1	1	0	0	0.07658	0.12545	0.10552	0.16366	0.10178	0.13425	0.21661	0.26368	0.14104	0.035202	0.083343	0.19817	0.24959	0.20143	0.070668	0.094468	-2.2083	-2.7875	-2.7938	-2.7271	-2.9958	-2.725	-2.8208	-3.0792	-2.7604	-2.9417	-2.6979	-2.6667	-3.1083	-2.8	-2.9229	-3.1958	-58.558	211.319	26.160	-55.558	165.232	0.199	218.512	207.243	110.603	-89.992	129.250	89.616	237.350	126.402	55.052	243.882	6.8844e-05	0.0012487	0.00010198	1145.2	5.9958e-06	2.0016e-06	889.52	299.54	2.2405e-06	2.052e-06	231.54	49.077	61.227	14.532	5.8794e-06	14.112	0.0036382	0.0050704	0.0014158	1155.4	5.3054e-05	5.6891e-05	902.01	303.56	5.3387e-05	5.6341e-05	247.83	55.035	66.753	16.415	5.3704e-05	16.898	208.646	-41.618	55.969	-86.265	161.341	71.117	-87.169	-82.079	-89.144	51.563	-84.226	-80.053	-78.174	-73.476	100.471	-76.187	-8191	255	
15225.117	1	1	0	0	0.15111	0.064195	0.084192	0.029404	0.035914	0.055847	0.41553	0.078091	0.014579	0.1314	0.19898	0.11689	0.026423	0.13731	0.25165	0.30519	-2.3167	-2.8208	-2.8875	-2.8563	-2.9646	-3.0875	-2.9354	-3.1375	-2.8833	-2.9229	-3.0187	-2.8083	-3.0979	-2.7438	-2.675	-3.0312	232.333	70.773	2.441	199.111	-39.695	58.815	188.271	52.441	84.564	52.825	157.670	22.156	219.371	67.048	-30.595	108.563	4.4727e-05	0.00059573	9.0912e-05	1152.1	2.2124e-06	2.6146e-06	890.08	303.05	5.9211e-06	7.2709e-06	234.92	50.336	61.945	14.765	3.6991e-06	14.158	0.0037076	0.0050582	0.0014002	1162.5	5.5228e-05	5.8009e-05	909.13	308.36	5.6983e-05	6.0524e-05	251.78	56.669	68.488	16.823	5.8643e-05	17.188	-95.504	23.212	-67.922	-86.460	-96.356	44.948	-87.490	-82.295	-18.449	105.509	-84.675	-80.126	-78.408	-73.056	25.435	-75.328	-8191	255	
15225.236	1	1	0	0	0.024873	0.10038	0.058808	0.21007	0.09819	0.26041	0.11174	0.17222	0.30739	0.1019	0.12524	0.27222	0.13071	0.14219	0.11612	0.2095	-2.5542	-2.7562	-2.9208	-2.7396	-3.0146	-2.75	-2.9208	-3.1625	-2.8271	-2.9667	-3.1521	-2.725	-2.9396	-2.8146	-2.6271	-2.9125	52.315	91.592	-3.377	225.549	239.685	170.651	67.482	-93.449	120.430	122.748	191.792	159.937	84.695	187.390	101.230	-66.445	2.8322e-05	0.00040804	0.00027687	1160.5	1.0769e-05	5.4267e-06	900.6	303.59	1.204e-05	1.5601e-05	232.98	49.09	61.581	14.575	1.7334e-06	13.857	0.0039827	0.0053546	0.0014882	1172.1	5.6407e-05	5.9067e-05	909.09	309.19	5.5849e-05	5.8578e-05	249.79	55.618	68.047	16.615	5.6466e-05	16.909	-62.375	-22.708	98.314	-86.071	84.771	100.727	-87.065	-82.041	257.940	63.158	-84.250	-79.868	-78.277	-73.409	-50.576	-75.572	-8191	255	
15225.332	1	1	0	0	0.17258	0.093863	0.091844	0.37103	0.15787	0.22685	0.044258	0.50432	0.13243	0.2247	0.16968	0.058418	0.25256	0.2763	0.23005	0.12724	-2.3604	-2.9188	-2.9792	-2.825	-2.9458	-2.825	-2.6896	-3.1021	-2.6125	-2.7687	-3.2313	-2.5646	-2.6188	-2.8438	-2.6542	-2.9333	88.642	35.980	81.876	253.630	-65.424	96.094	-60.900	208.456	180.717	-65.505	120.902	209.326	-12.391	88.476	-34.632	122.634	5.3539e-05	0.0008603	0.00016647	1167.6	6.5305e-06	6.3979e-06	899.24	309.05	2.2373e-06	1.2078e-06	236.25	49.7	63.185	14.705	3.9298e-06	13.923	0.003994	0.0054485	0.001539	1183.2	6.0017e-05	6.2825e-05	917.18	315.41	6.0472e-05	6.2941e-05	255.12	56.746	69.92	16.903	6.0312e-05	17.116	163.223	-77.120	129.541	-86.131	155.139	-40.877	-87.235	-82.222	140.075	103.640	-84.696	-79.625	-78.124	-73.703	144.417	-75.000	-8191	255	
15225.428	1	1	0	0	0.38116	0.026721	0.093146	0.12044	0.12381	0.23711	0.11306	0.50697	0.12586	0.13921	0.15502	0.21231	0.094706	0.31331	0.15	0.17356	-2.5125	-2.7	-2.9437	-2.95	-2.7667	-2.8542	-2.9208	-3.0521	-2.8208	-2.775	-3.0938	-2.8187	-2.9042	-2.9646	-2.7792	-2.975	235.495	155.664	210.885	238.703	19.093	178.544	166.399	217.565	132.286	79.872	-68.368	-17.757	40.775	-49.476	10.232	176.873	9.8724e-05	0.00078143	0.00021409	1163.8	1.0765e-05	3.6966e-06	897.55	310.38	9.0438e-06	1.4765e-06	238.77	49.775	62.852	14.719	2.435e-06	13.938	0.0040762	0.0054897	0.0015334	1182.1	5.8146e-05	6.126e-05	914.64	315.57	6.0146e-05	6.3506e-05	257.84	57.26	70.311	17.13	6.5968e-05	17.452	-62.451	-6.906	136.222	-86.339	-25.218	56.047	-87.007	-82.231	96.322	240.568	-84.418	-79.668	-77.690	-73.540	-68.167	-75.366	-8191	255	
15225.524	1	1	0	0	0.25544	0.076004	0.20549	0.31493	0.14166	0.021187	0.15402	0.23883	0.11497	0.13229	0.082688	0.079076	0.17442	0.10501	0.1418	0.086639	-2.475	-2.6729	-2.975	-2.975	-2.725	-3.1208	-2.7792	-3.0521	-2.9	-2.6583	-3.0458	-2.8688	-2.9042	-3.0708	-2.6813	-2.9833	167.614	-35.695	6.899	190.011	193.955	37.595	42.067	254.965	91.047	-59.144	206.125	182.200	149.456	195.789	139.511	-0.122	9.5649e-05	0.00042094	0.00022689	1164	8.1998e-07	1.0941e-05	894.78	307.43	3.5896e-07	1.1178e-05	234.73	49.432	62.478	14.608	7.2637e-06	13.754	0.004477	0.0060603	0.001718	1190.3	6.5785e-05	6.8664e-05	919.01	315.08	6.6087e-05	6.9598e-05	256.97	57.404	69.977	17.1	6.8502e-05	17.547	-80.319	189.126	26.791	-86.588	89.725	80.953	-87.401	-82.208	31.700	44.715	-84.158	-80.145	-77.749	-73.579	200.084	-75.707	-8191	255	
15225.620	1	1	0	0	0.25732	0.13403	0.39952	0.16505	0.38066	0.066887	0.12541	0.36089	0.24866	0.22464	0.11231	0.1324	0.17674	0.2512	0.070785	0.24698	-2.6417	-2.6625	-2.7542	-2.8312	-2.7646	-2.9604	-2.8958	-3.1542	-2.8354	-2.6417	-3.1937	-2.8083	-2.8396	-3.1354	-2.6437	-3.0458	-20.946	237.253	15.791	-11.209	178.311	67.321	256.584	233.926	216.426	108.796	-63.941	165.838	26.362	198.705	223.463	-79.812	5.2959e-05	0.00045449	0.00014312	1164.2	3.0556e-06	1.1519e-05	885.77	303.21	9.4009e-06	5.6466e-06	231.92	48.485	62.044	14.523	3.6122e-06	13.808	0.0045891	0.006305	0.0017881	1183.6	6.7599e-05	7.1728e-05	912.17	312.67	6.9983e-05	7.4645e-05	255.78	57.508	70.193	17.38	7.6927e-05	17.952	-98.488	115.066	3.115	-86.220	134.417	-83.462	-87.241	-82.403	2.992	162.793	-84.528	-79.912	-78.129	-72.855	247.886	-75.010	-8191	255	
15225.715	1	1	0	0	0.085158	0.3047	0.092491	0.4572	0.031173	0.17432	0.14305	0.064138	0.020198	0.17077	0.24012	0.093051	0.24313	0.19791	0.07885	0.077139	-2.5646	-2.5958	-2.8146	-2.9458	-2.5	-3.0312	-2.9896	-2.85	-3.1437	-2.7938	-3.0729	-2.9271	-2.7708	-3.0354	-2.8208	-2.7542	93.245	237.035	49.307	147.323	-22.114	97.082	248.124	89.620	234.177	155.474	258.469	-34.024	-93.564	71.377	70.098	75.686	4.7512e-05	0.0009278	0.00023892	1149.2	7.1432e-06	2.9123e-06	873.34	302.84	6.0035e-06	7.9607e-06	229.11	49.06	61.512	14.42	2.7747e-06	14.064	0.0051319	0.0070837	0.0020395	1186.7	7.8117e-05	8.3687e-05	913.58	314.13	7.893e-05	8.4275e-05	258.8	58.323	70.809	17.549	7.8265e-05	18.181	94.917	11.098	16.441	-86.335	66.248	248.347	-87.197	-82.071	26.588	52.416	-84.247	-80.198	-77.962	-73.270	131.577	-75.668	-8191	255	
15225.813	1	1	0	0	0.26085	0.18228	0.38435	0.52901	0.068812	0.18424	0.035321	0.2569	0.30008	0.12667	0.24759	0.10477	0.15906	0.14243	0.11995	0.15487	-2.6792	-2.7146	-3.0208	-3.0771	-2.5917	-3.0979	-2.8521	-2.9458	-3.1479	-2.7833	-2.9479	-2.9167	-2.8167	-3.0875	-2.8979	-2.8521	159.441	210.387	-84.356	169.935	-59.314	108.671	254.921	210.819	193.809	75.709	-98.341	148.269	246.488	149.488	-49.330	-58.337	7.1144e-05	0.00038563	0.00035654	1146.7	6.2528e-06	8.0009e-06	881.17	302.6	4.5163e-06	5.7493e-06	232.56	49.243	62.338	14.576	3.4404e-06	14.029	0.0051322	0.0070834	0.0019898	1178.3	7.3389e-05	7.7702e-05	910.57	311.96	7.2082e-05	7.7003e-05	256.62	57.595	70.434	17.349	7.2348e-05	17.751	-70.141	-33.658	249.742	-86.249	111.018	88.623	-87.395	-82.111	232.612	-45.895	-84.172	-79.872	-78.264	-73.079	25.617	-75.951	-8191	255	
15225.932	1	1	0	0	0.086724	0.10662	0.17021	0.2877	0.24548	0.13523	0.36288	0.1637	0.35172	0.20338	0.098594	0.094628	0.19716	0.030804	0.12057	0.2719	-2.5563	-2.6875	-2.925	-3.1437	-2.8333	-3.1229	-2.8104	-2.8583	-3.0958	-2.8104	-2.9958	-2.9667	-2.6646	-2.9	-2.8438	-2.7729	-35.565	251.657	169.705	188.998	194.418	99.982	194.359	217.369	-0.586	-57.681	-61.013	234.599	234.343	224.410	166.188	47.928	0.00015784	0.00059606	0.00010123	1152.2	3.5204e-06	7.065e-06	879.89	298.55	6.6826e-06	2.8697e-06	230.92	48.762	61.043	14.431	2.7475e-06	13.883	0.0046815	0.0063348	0.0017592	1167.1	6.2841e-05	6.6144e-05	897.18	305.28	5.8262e-05	6.1403e-05	248.33	55.407	67.396	16.573	5.8224e-05	16.932	208.882	219.260	65.038	-86.094	3.071	190.535	-87.224	-82.257	37.317	53.263	-84.671	-79.330	-78.148	-73.177	95.165	-75.552	-8191	255	
15226.028	1	1	0	0	0.21404	0.084279	0.041527	0.28491	0.25621	0.11605	0.21294	0.214	0.078234	0.41279	0.19647	0.033936	0.25574	0.07165	0.015184	0.065593	-2.6542	-2.8688	-2.7562	-3.1562	-2.6958	-3.0208	-3.1229	-2.7417	-2.8688	-2.8396	-2.8979	-2.9562	-2.6167	-2.9813	-2.7229	-2.7125	-72.668	123.755	-87.866	22.987	199.338	17.734	176.456	194.846	-90.519	-74.487	195.992	156.252	207.263	155.392	202.553	117.375	4.5325e-05	0.00081748	0.00016835	1150	4.1165e-06	7.6223e-06	877.22	301.01	5.362e-06	7.3536e-06	230.36	48.525	61.454	14.434	6.3227e-06	13.651	0.0039616	0.0054748	0.0015325	1161.6	5.7155e-05	5.989e-05	893.47	306.26	5.5092e-05	5.8408e-05	247.28	54.778	67.686	16.483	5.559e-05	16.605	101.099	-72.252	257.741	-86.405	-76.106	40.432	-87.455	-82.374	76.565	135.155	-84.157	-79.964	-77.849	-73.675	42.488	-75.856	-8191	255	
15226.124	1	1	0	0	0.13319	0.19848	0.23911	0.14569	0.12408	0.19081	0.079739	0.1517	0.10321	0.20453	0.14971	0.12987	0.17176	0.093237	0.20024	0.061858	-2.6833	-2.6333	-2.7687	-3.1688	-2.8125	-3.0333	-2.9625	-2.9813	-3.0625	-2.9167	-2.8688	-3.0125	-2.7188	-2.9417	-3.0604	-2.7062	54.116	47.291	-39.323	-99.425	154.660	-85.167	-50.920	170.947	-63.273	-82.168	56.275	49.449	212.421	254.040	195.715	143.138	0.00013046	0.0004529	4.8595e-05	1150.1	4.7437e-06	1.7407e-06	877.69	300.73	5.739e-06	1.0106e-05	230.7	48.196	61.024	14.355	4.5135e-06	13.932	0.0037791	0.0052143	0.0014441	1160.5	5.432e-05	5.7506e-05	892.3	305.13	5.2412e-05	5.4896e-05	245.58	54.153	66.521	16.136	5.1024e-05	16.411	248.640	178.795	111.293	-86.090	7.135	32.066	-87.050	-82.247	237.092	-68.728	-84.201	-79.613	-78.285	-73.022	-11.033	-75.392	-8191	255	
15226.220	1	1	0	0	0.10178	0.073836	0.13885	0.2317	0.23027	0.13033	0.22873	0.085534	0.1255	0.17258	0.10579	0.066957	0.022642	0.40521	0.16749	0.33089	-2.8208	-2.8146	-2.6979	-3.1583	-2.6771	-3.0229	-2.95	-2.6604	-2.8146	-2.9813	-2.7958	-3.0708	-2.8583	-2.8271	-3.1958	-2.9146	161.937	122.263	-95.047	211.121	70.101	203.854	183.741	146.808	223.735	-9.314	136.930	101.932	176.221	189.526	46.735	233.759	5.4154e-05	0.00011978	0.00011018	1143.7	6.7141e-06	6.0716e-06	882.9	298.6	1.9535e-06	8.4547e-06	232.11	49.127	61.316	14.487	4.9998e-07	13.859	0.0035061	0.0047931	0.001323	1149.1	5.1086e-05	5.4199e-05	893.12	303.89	5.1664e-05	5.4665e-05	247.16	54.922	67.064	16.37	5.242e-05	16.666	56.144	148.333	242.760	-86.470	110.686	224.098	-86.881	-82.328	90.695	192.719	-83.846	-79.697	-78.376	-73.435	-60.325	-75.645	-8191	255	
15226.316	1	1	0	0	0.15945	0.20999	0.047852	0.23533	0.13804	0.2	0.064725	0.090378	0.059591	0.2343	0.082096	0.13289	0.068364	0.1854	0.13595	0.2557	-2.6375	-3.0583	-2.4896	-3.0208	-2.7562	-2.8563	-3.2104	-2.8583	-2.7979	-2.9417	-2.6958	-3.0042	-2.7833	-2.8688	-2.8229	-2.6479	-49.319	230.629	-55.934	148.257	-62.697	235.758	49.055	-74.990	228.353	205.959	227.525	222.302	214.649	155.044	259.565	64.622	2.2175e-05	0.00081945	6.4889e-05	1145.7	3.6053e-06	5.3835e-06	880.48	298.67	1.1831e-05	2.1221e-06	231.23	49.306	61.246	14.402	5.1258e-06	14.061	0.003594	0.0048556	0.0013414	1152.6	5.1578e-05	5.3305e-05	892.83	303.6	4.9987e-05	5.2975e-05	245.74	54.831	66.453	16.137	4.8695e-05	16.49	-91.147	32.890	201.491	-86.243	-56.887	102.543	-87.233	-81.988	24.372	59.438	-84.590	-79.843	-78.571	-73.340	54.928	-75.105	-8191	255	
15226.412	1	1	0	0	0.11104	0.30004	0.084665	0.37846	0.23506	0.018883	0.090146	0.27051	0.11954	0.12906	0.2181	0.13436	0.26444	0.18396	0.2052	0.16148	-2.5125	-2.8667	-2.5875	-3.1958	-2.8396	-2.8333	-3.1875	-2.8104	-3.0208	-3.0292	-2.6958	-3.1333	-2.7646	-2.8396	-3.0042	-2.9979	-38.053	-72.739	203.501	254.836	192.179	231.241	200.046	191.446	118.019	235.400	118.641	-81.838	237.175	-64.582	119.332	-36.224	0.0001493	0.00052446	8.098e-05	1139.7	8.0494e-06	2.4979e-06	876.65	297.42	7.8913e-06	9.7541e-06	229.63	48.116	60.491	14.412	4.283e-06	13.719	0.0033071	0.0044597	0.0012388	1146.2	4.7738e-05	4.8671e-05	885.76	300.69	4.6487e-05	4.8308e-05	242.3	53.624	65.574	16.021	4.7456e-05	16.261	-91.814	128.284	97.231	-86.343	89.067	-2.583	-87.268	-82.129	-48.501	121.664	-84.404	-79.590	-78.476	-73.311	-44.551	-75.331	-8191	255	
15226.509	1	1	0	0	0.11361	0.17189	0.17116	0.27874	0.061392	0.26374	0.25504	0.32536	0.15662	0.027889	0.051171	0.1163	0.060989	0.08573	0.16156	0.039066	-2.5729	-2.8146	-2.7292	-2.9729	-2.8438	-2.7354	-3.1375	-2.9708	-2.7896	-2.9729	-2.6646	-3.0938	-2.9146	-2.6896	-3.0292	-2.725	81.739	181.377	-61.375	-93.679	-31.321	-78.797	194.055	256.923	155.279	242.618	250.567	15.580	190.608	129.716	20.302	-73.849	8.4725e-05	0.00066283	2.7834e-05	1145.1	3.4863e-06	5.6352e-06	884	298.8	4.1946e-06	7.8652e-06	231.02	49.018	61.375	14.556	3.4248e-06	13.913	0.0032603	0.0044031	0.0012385	1147	4.6912e-05	4.867e-05	890.25	303.18	4.7493e-05	4.9999e-05	245.44	54.519	66.45	16.202	4.9938e-05	16.55	229.204	3.456	28.680	-86.501	20.784	-23.438	-87.212	-81.971	6.548	-52.484	-84.076	-80.050	-78.328	-73.209	-51.869	-75.017	-8191	255	
15226.627	1	1	0	0	0.16164	0.10415	0.13455	0.1753	0.22512	0.09641	0.15298	0.40106	0.059592	0.18054	0.2378	0.21369	0.10208	0.12871	0.15472	0.16541	-2.3375	-2.9688	-2.6396	-2.9958	-2.9833	-2.7396	-2.9875	-2.8958	-2.7667	-3.0417	-2.6312	-2.9375	-3.0021	-2.7438	-3.0167	-2.9292	-66.433	115.422	228.524	166.863	90.213	103.310	189.727	211.578	0.104	51.236	-74.900	84.774	174.302	194.158	-98.323	191.729	9.499e-05	0.0011784	0.00014579	1145.1	1.2057e-05	6.1324e-06	886.26	302.23	6.2117e-06	1.1598e-05	235.19	50.011	62.125	14.937	4.2709e-06	14.152	0.003435	0.0045976	0.0013126	1155	5.0689e-05	5.2452e-05	900.01	306.63	5.0779e-05	5.3857e-05	250.44	55.773	67.919	16.634	5.4514e-05	17.003	-70.460	-6.105	93.038	-86.531	45.170	-12.770	-86.997	-82.221	56.088	183.859	-84.378	-79.862	-77.859	-73.647	88.929	-75.416	-8191	255	
15226.724	1	1	0	0	0.18814	0.17908	0.11888	0.18597	0.1792	0.040235	0.44021	0.23138	0.18673	0.17223	0.15732	0.22578	0.19937	0.1202	0.084081	0.098117	-2.1167	-2.9521	-2.7625	-2.8583	-2.8125	-2.5667	-3.0896	-2.9	-2.7708	-2.9083	-2.8792	-2.7687	-3.0667	-2.8167	-3.025	-2.8667	-94.048	225.467	-21.837	237.066	74.975	238.570	212.140	192.791	-65.297	57.243	257.309	102.683	112.660	122.394	-91.511	-65.486	0.0001153	0.00067644	8.0799e-05	1167.6	3.9171e-06	3.7145e-06	899.75	304.79	8.6751e-06	1.4784e-05	236.47	50.125	63.14	14.64	2.4794e-06	14.131	0.0036657	0.0049794	0.0014184	1172.6	5.221e-05	5.4885e-05	908.29	309.5	5.0726e-05	5.3595e-05	251.37	55.988	68.365	16.632	5.3479e-05	16.946	243.624	254.150	163.274	-86.149	110.921	105.239	-87.077	-82.223	46.847	47.334	-84.598	-79.918	-77.539	-73.351	-50.947	-75.455	-8191	255	
15226.820	1	1	0	0	0.024708	0.21579	0.23295	0.12417	0.028441	0.162	0.22128	0.23033	0.1388	0.077044	0.15197	0.1548	0.14517	0.083045	0.13309	0.16194	-2.2042	-2.9958	-2.7708	-2.95	-2.9292	-2.8354	-3.1562	-2.9021	-2.8021	-3.0625	-2.8604	-2.6896	-2.9833	-2.5187	-2.9083	-2.7	-59.447	-81.493	-12.893	-43.716	207.534	-65.956	-90.863	220.447	83.244	2.498	130.757	-41.580	67.281	136.757	-79.793	241.471	0.0001633	0.0005965	0.00013641	1176.8	2.8893e-06	5.842e-06	894.51	310.39	6.3307e-06	1.2616e-05	237.38	50.048	63.881	15.025	2.266e-06	14.106	0.0035704	0.0049511	0.0014122	1180.4	5.3342e-05	5.8035e-05	911.36	315.89	5.6668e-05	6.0986e-05	255.06	56.805	69.974	17.146	5.9964e-05	17.154	214.393	-15.407	-54.392	-86.315	74.476	39.389	-87.302	-82.292	119.749	72.162	-83.958	-79.922	-78.384	-73.845	57.126	-75.938	-8191	255	
15226.893	1	1	0	0	0.1524	0.058429	0.12638	0.22925	0.21664	0.14337	0.1186	0.12715	0.16191	0.071005	0.32579	0.2321	0.3701	0.12132	0.030996	0.26557	-2.1604	-2.8708	-2.7562	-2.9896	-3.0312	-2.8187	-3.0646	-2.9104	-2.7646	-2.9229	-2.8792	-2.6937	-2.9938	-2.7354	-2.9542	-3.0917	-92.908	-10.177	-30.325	-88.523	22.183	62.516	110.829	233.176	19.221	184.769	-78.493	236.798	247.787	89.578	76.550	216.378	6.5181e-05	0.00072959	3.818e-05	1162.5	3.8092e-06	2.7039e-06	887.01	306.54	8.577e-06	1.7235e-05	235.72	50.16	62.825	14.754	7.3863e-06	14.043	0.0039432	0.005442	0.0015294	1177.9	5.6445e-05	6.0515e-05	905.69	311.86	5.714e-05	6.1403e-05	253.25	56.522	69.214	16.985	5.9947e-05	17.172	243.726	-60.399	75.428	-86.162	204.061	-99.436	-87.142	-82.124	-3.998	129.559	-84.009	-79.697	-78.124	-72.375	1.641	-75.404	-8191	255	
15227.012	1	1	0	0	0.10656	0.093916	0.037352	0.24513	0.097724	0.098504	0.21117	0.17274	0.019806	0.085281	0.19704	0.10204	0.1626	0.074528	0.32277	0.061692	-2.2458	-2.9021	-2.85	-2.8688	-2.9938	-2.7354	-3.0625	-3.0854	-2.5938	-3.0042	-2.8958	-2.6771	-2.9813	-2.7188	-2.8354	-2.8896	77.939	143.531	97.202	183.658	75.271	203.298	-96.028	137.172	28.363	5.415	158.609	-99.778	246.230	55.082	134.378	100.643	2.7408e-05	0.00081363	0.0001741	1163.9	8.098e-06	6.5401e-06	893.67	307.52	1.3946e-05	1.3277e-05	237.26	50.354	63.09	14.896	4.3375e-06	14.167	0.0040685	0.0056487	0.0015678	1176.8	5.7572e-05	6.138e-05	908.75	311.94	5.6063e-05	5.9931e-05	253.37	56.571	69.335	16.969	5.7561e-05	17.152	118.985	19.525	-7.532	-86.526	54.784	43.495	-87.332	-82.372	-76.708	72.147	-84.369	-80.432	-78.055	-73.347	209.918	-75.366	-8191	255	
15227.108	1	1	0	0	0.060562	0.12345	0.013102	0.028392	0.13189	0.16927	0.10445	0.076297	0.10155	0.44584	0.22368	0.083573	0.014296	0.11548	0.048837	0.28035	-2.3563	-2.8667	-2.8896	-2.9146	-2.8979	-2.8271	-2.9313	-3.2958	-2.7167	-3.0229	-2.9667	-2.6917	-3.1271	-2.6854	-2.9688	-3.0083	-56.660	189.490	101.754	161.411	75.475	230.964	-65.068	206.153	89.000	104.552	240.617	230.525	-82.520	-62.252	-94.050	178.268	0.00010255	0.00022783	2.8716e-05	1168.7	5.0039e-06	4.0406e-06	898.63	308.52	3.0697e-06	7.5906e-06	239.04	50.497	63.109	14.937	9.3367e-06	13.953	0.0039532	0.0053691	0.0014768	1178.9	5.5638e-05	5.9355e-05	910.06	313.46	5.5589e-05	5.905e-05	253.96	56.659	69.527	16.926	5.6518e-05	17.142	58.505	84.289	25.969	-86.270	-57.130	66.896	-87.261	-81.940	139.688	79.085	-83.954	-79.933	-78.155	-73.074	157.262	-76.113	-8191	255	
15227.204	1	1	0	0	0.051472	0.18766	0.17163	0.45812	0.080916	0.16933	0.36608	0.045902	0.18197	0.13153	0.18759	0.098942	0.16237	0.2349	0.21063	0.1249	-2.1625	-2.8375	-2.9917	-2.8229	-2.9042	-2.7562	-2.7062	-2.8854	-2.6646	-2.875	-2.9521	-2.6437	-2.9458	-2.6688	-2.5375	-2.9771	151.961	159.455	254.720	222.779	-6.867	233.752	168.660	162.774	-29.295	213.563	200.258	17.582	145.273	180.970	138.513	174.864	2.9719e-05	0.00065083	7.1338e-05	1168.8	5.5296e-06	5.4277e-06	894.52	308.55	8.0468e-07	3.0816e-06	234.42	49.53	62.737	14.835	3.0398e-06	14.174	0.00391	0.005303	0.0014793	1178.7	5.7145e-05	5.9843e-05	906.85	313.6	5.7062e-05	6.0184e-05	251.8	56.331	69.575	17.041	5.8174e-05	17.154	9.695	-90.090	-0.279	-86.346	76.565	68.409	-87.028	-82.308	-31.617	-16.636	-84.357	-79.812	-78.045	-73.298	159.891	-75.976	-8191	255	
15227.300	1	1	0	0	0.17634	0.048764	0.18248	0.1679	0.076971	0.36328	0.14676	0.38825	0.22903	0.18365	0.1909	0.19781	0.27632	0.24939	0.19745	0.074707	-2.1083	-2.6937	-2.9333	-2.7562	-3.0958	-2.8	-2.7146	-3.1	-2.7438	-2.8146	-2.925	-2.4396	-3.0187	-2.8521	-2.7229	-3.0687	245.533	45.967	-44.920	221.912	192.308	118.439	142.129	224.496	199.549	17.865	-81.770	-27.309	222.480	186.002	-3.840	231.542	7.9421e-05	0.00042803	0.00017308	1171.2	5.851e-06	8.7841e-06	893.78	309.56	2.7997e-06	3.4309e-06	234.82	50.178	63.334	14.897	5.4537e-06	14.308	0.0040532	0.0055223	0.0015345	1183.2	5.9337e-05	6.1588e-05	906.85	314.68	5.7291e-05	6.0554e-05	252.87	56.759	69.931	17.034	5.8913e-05	17.376	238.566	-4.338	64.551	-86.141	-26.882	39.899	-87.097	-82.007	48.634	136.853	-84.534	-79.775	-77.700	-73.163	53.459	-75.505	-8191	255	
15227.419	1	1	0	0	0.17767	0.23911	0.073136	0.11523	0.1156	0.22993	0.13948	0.25651	0.29205	0.40504	0.2023	0.11409	0.2154	0.25732	0.059975	0.40712	-2.4104	-2.8229	-2.9729	-2.75	-2.9	-2.8729	-2.8125	-3.1479	-2.5	-2.8729	-3.2125	-2.6083	-2.9521	-2.8542	-2.5458	-3.0417	233.080	208.430	220.322	177.278	-81.087	-37.486	173.395	214.949	132.781	192.726	235.065	250.445	137.206	-35.452	-90.445	221.418	6.4863e-05	0.0004595	7.7145e-05	1172.4	1.7493e-06	4.2801e-06	897.54	309.38	5.5327e-06	6.1626e-06	236.49	50.048	63.648	14.871	5.1892e-06	14.369	0.0041492	0.0056765	0.0015897	1186.2	6.1015e-05	6.391e-05	912.81	315.67	6.0734e-05	6.2204e-05	254.79	57.092	69.826	17.016	5.8223e-05	17.352	55.452	-14.929	-74.964	-86.339	48.178	-95.813	-87.123	-82.199	228.092	30.712	-84.149	-79.993	-77.892	-73.206	162.671	-75.348	-8191	255	
15227.515	1	1	0	0	0.19685	0.14792	0.13964	0.19959	0.040231	0.26251	0.18643	0.057095	0.15781	0.092473	0.18809	0.20876	0.079135	0.26907	0.27205	0.087846	-2.4396	-2.8958	-3.0875	-2.7896	-2.8896	-3.0208	-2.9229	-3.0896	-2.7146	-2.8354	-3.0729	-2.6083	-2.8958	-3.0229	-2.825	-3.0292	-42.491	122.884	221.604	219.035	259.016	-81.755	168.990	188.161	115.029	221.562	-81.512	59.053	184.399	168.432	23.414	-95.237	2.1649e-05	0.0011635	0.00034545	1163	5.8593e-06	4.7582e-06	889.59	307.81	5.4316e-06	8.6901e-07	237.76	50.359	63.089	14.926	5.9489e-06	14.252	0.0039858	0.0052943	0.0014768	1174	5.5793e-05	5.7545e-05	905.95	312.42	5.5119e-05	5.7311e-05	253.16	56.544	69.053	16.852	5.5654e-05	17.296	38.072	-7.188	-37.536	-86.313	28.484	-6.068	-87.232	-82.180	58.737	-64.667	-84.249	-79.534	-78.284	-73.271	-26.288	-75.467	-8191	255	
15227.613	1	1	0	0	0.19717	0.11964	0.11346	0.17425	0.14848	0.21336	0.22865	0.25666	0.15496	0.21508	0.1245	0.11219	0.074544	0.22587	0.19171	0.15443	-2.3937	-2.5896	-2.9104	-2.7229	-2.8792	-2.9437	-2.6917	-3.0042	-2.9437	-2.6042	-2.8812	-2.7792	-2.7208	-2.9729	-2.6854	-2.9292	52.374	84.598	53.243	-74.984	-49.264	33.958	160.683	222.202	-25.706	-47.977	222.762	142.149	165.195	-78.103	221.939	39.312	3.8694e-05	0.00043502	0.00017866	1173.8	2.6813e-06	6.0981e-06	893.46	310.06	7.1256e-06	1.3638e-05	234.34	50.073	63.842	15.026	4.9275e-06	14.094	0.0038525	0.0052466	0.0014942	1182.8	5.6837e-05	6.0099e-05	908.59	315.68	5.8266e-05	6.1594e-05	254.54	56.9	70.367	17.181	6.0954e-05	17.417	-97.410	-15.607	-23.433	-86.266	2.419	59.493	-87.205	-82.174	74.761	-46.177	-84.078	-79.798	-78.221	-73.146	-68.794	-75.084	-8191	255	
15227.710	1	1	0	0	0.26486	0.079041	0.16311	0.11058	0.069163	0.03333	0.30334	0.10886	0.0094524	0.057647	0.22176	0.19259	0.068814	0.065008	0.20348	0.12302	-2.4875	-2.5604	-2.8063	-2.7354	-2.7354	-3.0458	-2.7938	-3.0479	-2.8333	-2.8146	-3.0396	-2.8979	-2.6479	-3.1729	-2.625	-2.7771	167.316	152.466	82.213	0.613	40.195	100.573	205.290	226.084	204.097	-8.546	136.107	154.662	221.874	206.729	-36.217	-88.654	6.6628e-05	0.0004431	6.6672e-05	1168.4	7.3799e-06	7.7575e-06	890.88	306.9	3.0681e-06	7.0917e-06	233.22	49.611	62.906	14.881	5.0161e-06	14.2	0.0040801	0.0054858	0.0015649	1179.8	5.8266e-05	6.1121e-05	906.6	312.76	5.6772e-05	5.9364e-05	251.32	56.272	68.77	16.903	5.8531e-05	17.225	-87.473	-41.733	83.305	-86.239	118.450	-16.492	-87.378	-82.094	97.950	11.977	-84.354	-79.734	-78.289	-73.371	105.321	-75.474	-8191	255	
15227.804	1	1	0	0	0.21389	0.08948	0.21399	0.085505	0.095909	0.13136	0.066383	0.12019	0.14274	0.12287	0.065567	0.13312	0.31204	0.074614	0.15422	0.19818	-2.4313	-2.7188	-2.8375	-2.8604	-2.6625	-3.125	-2.85	-2.9125	-2.9667	-2.7854	-2.9271	-2.9208	-2.6458	-3.0854	-2.7354	-2.7438	209.894	139.299	178.417	-64.313	68.195	185.794	221.191	168.414	-26.237	185.732	-57.029	201.232	182.659	157.575	-42.852	184.887	8.3432e-05	0.00075941	0.00014526	1153.7	3.0386e-06	5.6065e-06	884.34	303.72	6.7646e-06	1.2342e-05	233.98	49.873	61.892	14.756	7.0471e-06	14.264	0.0039045	0.0053365	0.0015207	1167.1	5.6593e-05	6.0528e-05	903.55	309.51	5.613e-05	5.9784e-05	251.22	56.103	68.461	16.935	5.882e-05	17.339	67.913	70.727	-84.951	-86.031	173.841	231.536	-87.075	-82.204	258.217	92.753	-84.736	-79.522	-77.751	-73.701	76.262	-75.056	-8191	255	
15227.900	1	1	0	0	0.08675	0.10107	0.24439	0.26244	0.17705	0.3042	0.38212	0.17246	0.11749	0.087765	0.13632	0.31666	0.10528	0.30454	0.19018	0.18383	-2.4521	-2.4542	-2.8583	-2.95	-2.4771	-3.1271	-2.8854	-2.9167	-2.975	-2.7271	-2.8688	-2.7333	-2.6354	-2.9604	-2.7188	-2.7771	159.422	127.258	240.734	-93.722	120.747	68.731	129.257	167.343	-83.306	47.424	-27.967	79.376	95.714	12.209	203.222	167.512	1.1801e-05	0.00056071	0.00012516	1161.9	3.6135e-06	8.1452e-06	890.26	306.94	7.9746e-06	6.2724e-06	236.03	49.733	62.146	14.957	1.4709e-05	14.263	0.0039536	0.0055302	0.0015701	1175.4	5.8192e-05	6.3017e-05	909.09	312.2	5.8326e-05	6.1758e-05	253.79	56.794	69.121	17.068	5.9729e-05	17.383	-24.676	41.637	90.503	-86.412	171.713	-21.070	-87.205	-82.031	-74.394	227.080	-84.281	-79.706	-78.091	-72.988	79.380	-75.526	-8191	255	
15228.021	1	1	0	0	0.12568	0.10512	0.17955	0.21274	0.19942	0.17263	0.21042	0.34408	0.27499	0.23124	0.28518	0.14294	0.035471	0.1395	0.12074	0.18428	-2.3958	-2.6063	-2.7479	-3.1667	-2.6875	-2.9646	-2.9542	-2.825	-3.1042	-2.6833	-2.8937	-3.0354	-2.7938	-3.0271	-2.8917	-2.8125	193.847	132.440	48.421	-71.597	-37.999	-35.306	237.487	256.268	212.686	2.823	229.318	-8.046	237.590	161.282	-60.561	-93.591	3.8866e-05	0.00031333	9.6841e-05	1162.5	4.1683e-06	4.6663e-06	884.8	305.17	5.8837e-06	9.4041e-06	232.93	49.578	62.444	14.78	9.5336e-06	14.239	0.0039739	0.0055109	0.0015362	1172.9	5.6679e-05	6.0627e-05	901.62	311.23	5.7366e-05	6.2041e-05	251.83	56.35	69.166	17.067	5.9326e-05	17.273	-86.998	-38.353	242.281	-86.268	13.185	113.309	-87.128	-82.032	76.244	75.873	-84.294	-79.881	-77.864	-73.594	64.431	-75.358	-8191	255	
15228.117	1	1	0	0	0.17674	0.10208	0.16425	0.27909	0.20953	0.089848	0.19156	0.21146	0.24102	0.14168	0.26205	0.1604	0.070024	0.17402	0.24951	0.20185	-2.4771	-2.7583	-2.8958	-3.0917	-2.6979	-2.9437	-3.0896	-2.8563	-3.0583	-2.6979	-2.9396	-3.0438	-2.6813	-2.8417	-2.8521	-2.6375	13.887	-1.280	98.398	200.215	209.435	24.797	185.412	168.424	-52.671	-83.722	253.781	-49.619	38.240	91.580	59.754	217.484	2.8699e-05	0.00077994	0.00042786	1162.7	3.4969e-06	3.413e-06	884.3	306.63	3.8079e-06	1.3418e-05	235.65	49.591	62.317	14.886	3.6319e-06	14.16	0.0039913	0.0055427	0.0015429	1174	5.7759e-05	6.1105e-05	903.91	311.61	5.715e-05	6.0346e-05	251.53	56.084	68.645	16.894	5.7517e-05	17.252	138.442	-49.353	-4.466	-86.372	232.688	106.481	-87.211	-82.364	-77.509	122.616	-84.177	-79.477	-77.829	-73.440	73.068	-75.100	-8191	255	
15228.189	1	1	0	0	0.15677	0.10003	0.20322	0.15448	0.33213	0.16678	0.15357	0.22814	0.14134	0.22411	0.37596	0.17764	0.094083	0.1248	0.082484	0.17331	-2.5604	-2.6813	-2.6667	-3.1375	-2.6333	-2.9813	-3.1125	-2.6771	-3.05	-2.8479	-2.6854	-3.0687	-2.55	-2.8312	-2.9062	-2.7625	-69.484	214.799	220.817	-64.867	184.694	138.351	234.106	239.178	140.230	-92.271	135.809	213.543	171.716	107.624	141.770	227.202	9.8974e-05	0.00030629	0.0001758	1159.2	4.2353e-06	1.083e-05	890.53	304.48	9.6193e-06	1.6197e-05	233.75	49.958	62.744	14.903	5.4024e-06	14.434	0.0039008	0.0052971	0.0014694	1168	5.5625e-05	5.8601e-05	903.34	310.46	5.589e-05	5.8558e-05	251.04	56.242	69.015	16.966	5.6466e-05	17.249	248.330	53.350	-67.560	-86.343	-68.914	26.511	-87.131	-82.228	-4.868	63.188	-84.440	-79.414	-77.897	-73.288	156.708	-75.490	-8191	255	
15228.309	1	1	0	0	0.071755	0.1501	0.071774	0.087607	0.028256	0.0046001	0.14045	0.26585	0.032073	0.079107	0.20152	0.081541	0.19677	0.22807	0.16425	0.031058	-2.4771	-2.6604	-2.6479	-3.1729	-2.725	-2.7042	-3.0333	-2.7062	-2.7896	-2.9583	-2.7021	-2.9833	-2.6042	-3.0563	-2.9771	-2.7	-65.754	-38.527	-85.838	215.147	246.802	32.834	237.684	210.351	228.813	78.665	-96.442	-63.482	68.127	166.836	-12.478	117.873	0.00012095	0.0012656	0.00011089	1164.7	3.0617e-06	9.1503e-06	890.52	307.43	2.2426e-06	6.4037e-06	236.22	50.129	62.842	14.843	7.3161e-06	14.177	0.0038648	0.0052889	0.0014775	1175.7	5.6649e-05	5.9617e-05	907.97	312.21	5.6731e-05	5.9753e-05	253.43	56.644	69.259	16.992	5.6853e-05	17.228	-78.037	-4.157	121.650	-86.523	176.882	164.568	-87.151	-82.047	200.051	175.048	-84.568	-79.942	-78.494	-73.770	-0.625	-75.337	-8191	255	
15228.405	1	1	0	0	0.021979	0.2192	0.37021	0.12547	0.11605	0.15704	0.19031	0.13583	0.096347	0.10676	0.17889	0.08631	0.09432	0.067665	0.049466	0.068871	-2.4396	-2.7292	-2.8354	-3.2562	-2.6813	-2.7687	-3.0833	-2.8312	-2.7375	-2.9833	-2.6562	-2.875	-2.8896	-2.8812	-2.9354	-2.8167	258.316	27.585	204.121	204.444	-15.050	-35.174	195.636	153.790	189.965	0.287	-70.965	-12.068	233.113	-78.852	-73.135	-45.188	5.8328e-05	0.00093226	0.00027993	1161.8	8.2928e-06	4.0899e-06	884.87	303.74	1.3158e-06	5.0924e-06	231.68	49.24	61.759	14.724	9.3741e-06	13.997	0.0038674	0.0052585	0.0014515	1168.4	5.5227e-05	5.808e-05	898.42	309.01	5.4303e-05	5.6523e-05	247.56	55.224	67.57	16.508	5.0418e-05	16.637	-69.105	-39.670	-16.126	-86.400	11.046	101.893	-87.079	-82.255	100.168	223.090	-84.117	-79.685	-77.714	-72.988	48.688	-75.292	-8191	255	
15228.501	1	1	0	0	0.19928	0.20111	0.065354	0.18566	0.1025	0.2179	0.16317	0.39357	0.11793	0.13909	0.11285	0.18076	0.24046	0.18884	0.28195	0.19621	-2.3875	-2.8271	-2.6625	-3.0229	-2.9396	-2.7167	-3.0021	-2.725	-2.8396	-2.925	-2.5375	-2.9437	-2.8646	-2.7146	-2.9042	-2.8292	-96.828	238.489	161.900	-80.728	30.550	1.920	218.284	203.372	-3.816	165.815	121.443	-61.193	-32.948	244.283	100.393	223.061	0.0001083	0.00039428	0.00012779	1146.8	5.521e-06	6.2238e-06	875.77	302.28	8.1361e-07	5.5673e-06	233.67	49.81	61.734	14.766	5.5505e-06	14.244	0.0033703	0.0045754	0.0012984	1154.5	5.0039e-05	5.2182e-05	892.5	306.45	5.0921e-05	5.2763e-05	247.9	55.338	67.548	16.539	5.1425e-05	16.91	-95.677	-47.056	-64.671	-86.196	234.395	26.683	-86.980	-82.164	11.603	194.956	-84.191	-79.464	-78.127	-73.644	104.618	-75.204	-8191	255	
15228.596	1	1	0	0	0.25893	0.11409	0.1192	0.20466	0.11596	0.13633	0.25922	0.26877	0.0015462	0.19064	0.28714	0.13182	0.12597	0.26864	0.098814	0.27902	-2.3917	-2.8875	-2.6333	-3.1479	-2.8583	-2.5771	-3.0187	-2.7792	-2.8479	-3.1729	-2.5875	-2.9958	-2.7979	-2.5625	-3.0812	-2.9375	57.940	-66.078	120.813	86.516	60.334	104.792	230.630	208.385	180.000	117.424	171.008	33.135	87.931	220.327	-97.416	158.331	5.6342e-05	0.0010937	0.00019386	1156.1	7.6145e-07	4.1917e-06	893.88	305.83	1.4946e-06	1.2871e-05	234.33	50.038	62.284	14.799	4.4871e-06	14.277	0.003538	0.004791	0.0013667	1167.2	5.1974e-05	5.4079e-05	904.19	310.46	5.1511e-05	5.4058e-05	250.5	55.877	67.807	16.622	5.1985e-05	16.924	-25.145	-46.336	16.674	-86.384	196.065	80.468	-86.996	-82.127	-65.287	65.760	-83.958	-79.705	-78.262	-72.926	77.148	-75.072	-8191	255	
15228.716	1	1	0	0	0.10056	0.16769	0.042724	0.075743	0.058598	0.091716	0.025787	0.28078	0.1563	0.27016	0.092187	0.26722	0.082389	0.53161	0.12442	0.20208	-2.3021	-3.0167	-2.7438	-3.0792	-3.1063	-2.6771	-3.1417	-2.9042	-2.8063	-2.975	-2.7083	-2.9083	-3.05	-2.8187	-3.0542	-2.875	-62.231	68.776	-96.421	170.265	-88.651	-34.305	-2.682	220.120	27.074	-57.904	-59.914	225.443	218.507	169.156	-58.243	189.391	0.00012058	0.00072383	7.9123e-05	1156.3	4.266e-06	7.9117e-06	896.82	307.14	7.7053e-06	9.3215e-06	236.05	50.391	62.55	14.801	4.477e-06	14.364	0.0034434	0.0046842	0.0013401	1162.7	5.0181e-05	5.2809e-05	907.85	310.4	5.0253e-05	5.3911e-05	251.51	56.257	68.221	16.716	5.3422e-05	17.142	255.515	189.832	11.494	-86.152	1.451	-40.776	-87.167	-82.088	-15.617	-38.853	-84.165	-79.682	-77.927	-73.319	47.228	-75.498	-8191	255	
15228.813	1	1	0	0	0.091518	0.10569	0.075825	0.23921	0.19999	0.27785	0.12903	0.14847	0.16421	0.020476	0.24357	0.084335	0.21498	0.18373	0.14822	0.065461	-2.3208	-3.0438	-2.7687	-3.0375	-2.9396	-2.6937	-2.9521	-2.8458	-2.75	-2.9521	-2.7875	-2.7812	-3.1354	-2.7771	-3.0833	-2.875	37.325	182.671	139.273	217.960	167.559	116.975	205.003	169.111	-89.064	-52.247	205.136	146.484	218.398	187.960	-2.261	-2.741	4.9701e-05	0.00043444	0.00010128	1159	6.1529e-06	1.3668e-06	887.28	304.33	3.5247e-06	7.4688e-06	232.6	49.515	62.464	14.755	2.1234e-06	14.244	0.0035572	0.0048529	0.0013915	1169.2	5.0726e-05	5.3683e-05	899.25	309.47	5.0644e-05	5.3386e-05	248.43	55.548	67.573	16.636	5.2123e-05	16.912	136.639	-76.708	-75.211	-86.424	45.311	89.849	-87.271	-82.151	63.327	-52.639	-83.889	-79.741	-78.420	-73.755	110.444	-75.295	-8191	255	
15228.884	1	1	0	0	0.2503	0.21879	0.080847	0.24864	0.22867	0.14778	0.2295	0.042107	0.024681	0.15379	0.12082	0.20081	0.34889	0.14322	0.18698	0.10002	-2.225	-2.8625	-2.6562	-3.0187	-3.0687	-2.7	-2.9354	-3.0062	-2.8063	-3.0917	-2.8688	-2.8125	-2.9583	-2.7271	-2.9208	-2.9333	138.813	49.130	-0.849	242.642	-65.282	76.855	197.990	-3.199	48.089	54.624	211.170	259.475	198.640	-98.654	-13.041	6.541	6.2967e-05	0.00065183	0.00013398	1161	8.0587e-06	3.5337e-06	890.02	307.5	2.8304e-06	8.6605e-06	235.04	49.915	62.614	14.751	3.8407e-06	14.297	0.0034621	0.0048211	0.0013656	1165.4	5.0207e-05	5.406e-05	902.96	310.32	5.072e-05	5.3727e-05	249.19	55.689	67.768	16.6	5.1885e-05	16.908	-60.478	236.313	30.712	-86.415	164.068	16.479	-87.272	-82.223	34.366	-37.852	-84.517	-79.814	-77.885	-73.269	35.804	-75.123	-8191	255	
15228.980	1	1	0	0	0.21804	0.11894	0.20316	0.22753	0.12175	0.17312	0.20425	0.44313	0.14558	0.097528	0.19203	0.20204	0.20122	0.25937	0.22253	0.26008	-2.1917	-2.9313	-2.8563	-2.7542	-3.0375	-2.8271	-2.825	-3.0875	-2.7229	-3.1854	-2.8542	-2.7938	-3.1	-2.6792	-2.9188	-2.925	244.648	23.397	223.406	224.781	128.237	116.978	152.285	213.352	114.011	88.898	154.131	110.313	247.931	140.989	-91.489	69.196	9.9925e-05	0.0010561	0.00032223	1161	4.9066e-06	4.8044e-06	896.1	305.7	1.1124e-05	8.0459e-06	235.73	50.421	62.502	14.779	5.071e-06	14.413	0.0034538	0.0047572	0.0013364	1165	4.9379e-05	5.2654e-05	903.6	309.03	4.9537e-05	5.3087e-05	250.29	55.823	68.059	16.717	5.2074e-05	17.048	220.541	-30.464	-57.666	-86.367	43.445	-51.649	-87.307	-82.087	101.229	169.807	-84.117	-79.685	-77.862	-72.898	120.127	-75.825	-8191	255	
15229.101	1	1	0	0	0.15791	0.20992	0.08022	0.11851	0.22362	0.045985	0.20854	0.33608	0.092414	0.28247	0.21196	0.16174	0.15885	0.026348	0.063206	0.20052	-2.2188	-2.9917	-2.8375	-2.8792	-3.0375	-2.7021	-2.9313	-3.2	-2.6146	-3.2042	-2.9479	-2.8167	-3.1	-2.8625	-2.8708	-3.0833	107.363	-32.344	-51.731	230.108	233.307	49.016	217.499	170.461	79.541	135.057	102.090	-84.964	-64.879	137.244	120.669	150.393	9.6771e-05	0.00048767	0.00014198	1167.8	8.1198e-06	1.0342e-05	903.49	309.9	2.1418e-06	4.6591e-06	238.99	50.98	63.249	15.135	5.6552e-06	14.303	0.0035114	0.0048516	0.0013803	1174.9	5.1603e-05	5.5107e-05	914.89	313.78	5.1659e-05	5.4753e-05	253.27	56.614	69.006	16.919	5.1948e-05	17.004	-95.502	101.746	41.225	-86.309	-60.175	102.177	-87.077	-82.346	172.616	6.528	-84.428	-79.689	-78.555	-72.928	158.559	-75.588	-8191	255	
15229.197	1	1	0	0	0.060216	0.23002	0.24838	0.33143	0.12713	0.092772	0.12787	0.16896	0.059385	0.2269	0.20765	0.11115	0.20171	0.12973	0.12667	0.11766	-2.3854	-2.8729	-2.8417	-2.8083	-3.0104	-2.7562	-3.1	-3.1833	-2.7083	-3.0062	-3.1312	-2.8208	-2.8625	-3.0708	-2.6708	-2.9813	173.689	-69.378	-68.315	176.936	20.827	168.461	14.532	123.709	101.451	-53.730	-54.388	224.190	-47.889	125.105	176.375	-50.744	0.00011287	0.00048442	0.00015403	1168.6	6.439e-06	7.5567e-06	898.2	309.82	2.0068e-06	1.4064e-05	237.49	50.44	63.256	14.993	5.0886e-06	14.379	0.0035581	0.0048077	0.00135	1175.9	5.0946e-05	5.4234e-05	908.14	314.66	5.2087e-05	5.4948e-05	252.13	56.395	68.823	16.885	5.1373e-05	17.022	236.273	10.743	-35.947	-86.418	172.791	154.269	-87.083	-82.218	240.281	-20.647	-84.260	-79.784	-78.163	-73.519	37.091	-74.962	-8191	255	
15229.293	1	1	0	0	0.088313	0.095753	0.27239	0.37193	0.29422	0.17122	0.13555	0.13783	0.3343	0.21173	0.016889	0.27555	0.13514	0.095525	0.18396	0.013889	-2.1458	-3.0354	-2.7604	-2.8333	-3.0958	-2.8167	-2.9833	-2.9646	-2.6542	-2.8396	-2.9229	-2.5833	-2.9938	-2.6688	-2.7625	-3.0479	62.483	107.892	-1.770	215.922	108.757	35.747	106.325	249.522	138.306	34.657	-51.174	157.603	174.130	218.603	227.323	53.590	0.00011747	0.00051595	0.00010966	1174.7	5.7461e-06	5.5075e-06	898.28	312.65	6.1526e-06	2.4935e-06	239.3	50.734	63.715	15.056	1.1658e-06	14.528	0.0035313	0.004819	0.0013706	1182.2	5.268e-05	5.4887e-05	910.61	315.43	5.2361e-05	5.4627e-05	253.1	56.601	69.391	16.961	5.3161e-05	17.288	174.930	-22.790	237.715	-86.294	7.368	88.631	-87.088	-82.062	227.328	-36.618	-84.329	-79.582	-78.008	-73.024	226.114	-75.293	-8191	255	
#DATA ENDS
