BOXY.EXE: ISS Imagent and Oximeter Data Acquisition Program Version 0.80
Ascii Record File

#ACQ INFORMATION
2  Detector Channels 
16  External MUX Channels 
1  Auxiliary Channels 
5000  Waveform (CCF) Frequency (Hz)
1  Waveforms Skipped 
30  Waveforms Averaged 
1  Cycles Averaged 
16  Acquisitions per Waveform 
10.0806  Updata Rate (Hz) 

#FILE INFORMATION
TRUE -- External MUX Channel results are PARSED.
FALSE -- AC DC and Phase are NOT grouped.
TRUE -- Companion Program Settings File CREATED.
FALSE -- AC data not excluded
FALSE -- DC data not excluded
FALSE -- Phase data not excluded
FALSE -- Auxillary Chn. data not excluded
Tab delimiters

#CALIBRATION STATE
TRUE -- Waveform Calibration Values APPLIED.


#AUX CALIBRATION VALUES
Val Type	aux-1	

Term	1.0000e+00	
Factor	0.0000e+00	


#WF CALIBRATION VALUES
A = Detector Channel
Val Type	A-AC1	A-AC2	A-AC3	A-AC4	A-AC5	A-AC6	A-AC7	A-AC8	A-AC9	A-AC10	A-AC11	A-AC12	A-AC13	A-AC14	A-AC15	A-AC16	A-DC1	A-DC2	A-DC3	A-DC4	A-DC5	A-DC6	A-DC7	A-DC8	A-DC9	A-DC10	A-DC11	A-DC12	A-DC13	A-DC14	A-DC15	A-DC16	A-Ph1	A-Ph2	A-Ph3	A-Ph4	A-Ph5	A-Ph6	A-Ph7	A-Ph8	A-Ph9	A-Ph10	A-Ph11	A-Ph12	A-Ph13	A-Ph14	A-Ph15	A-Ph16	

Term	0.00000e+00	0.00000e+00	0.00000e+00	0.00000e+00	0.00000e+00	0.00000e+00	0.00000e+00	0.00000e+00	0.00000e+00	0.00000e+00	0.00000e+00	0.00000e+00	0.00000e+00	0.00000e+00	0.00000e+00	0.00000e+00	0.00000e+00	0.00000e+00	0.00000e+00	0.00000e+00	0.00000e+00	0.00000e+00	0.00000e+00	0.00000e+00	0.00000e+00	0.00000e+00	0.00000e+00	0.00000e+00	0.00000e+00	0.00000e+00	0.00000e+00	0.00000e+00	0.00000e+00	0.00000e+00	0.00000e+00	0.00000e+00	0.00000e+00	0.00000e+00	0.00000e+00	0.00000e+00	0.00000e+00	0.00000e+00	0.00000e+00	0.00000e+00	0.00000e+00	0.00000e+00	0.00000e+00	0.00000e+00	
Factor	1.00000e+00	1.00000e+00	1.00000e+00	1.00000e+00	1.00000e+00	1.00000e+00	1.00000e+00	1.00000e+00	1.00000e+00	1.00000e+00	1.00000e+00	1.00000e+00	1.00000e+00	1.00000e+00	1.00000e+00	1.00000e+00	1.00000e+00	1.00000e+00	1.00000e+00	1.00000e+00	1.00000e+00	1.00000e+00	1.00000e+00	1.00000e+00	1.00000e+00	1.00000e+00	1.00000e+00	1.00000e+00	1.00000e+00	1.00000e+00	1.00000e+00	1.00000e+00	X	X	X	X	X	X	X	X	X	X	X	X	X	X	X	X	

B = Detector Channel
Val Type	B-AC1	B-AC2	B-AC3	B-AC4	B-AC5	B-AC6	B-AC7	B-AC8	B-AC9	B-AC10	B-AC11	B-AC12	B-AC13	B-AC14	B-AC15	B-AC16	B-DC1	B-DC2	B-DC3	B-DC4	B-DC5	B-DC6	B-DC7	B-DC8	B-DC9	B-DC10	B-DC11	B-DC12	B-DC13	B-DC14	B-DC15	B-DC16	B-Ph1	B-Ph2	B-Ph3	B-Ph4	B-Ph5	B-Ph6	B-Ph7	B-Ph8	B-Ph9	B-Ph10	B-Ph11	B-Ph12	B-Ph13	B-Ph14	B-Ph15	B-Ph16	

Term	0.00000e+00	0.00000e+00	0.00000e+00	0.00000e+00	0.00000e+00	0.00000e+00	0.00000e+00	0.00000e+00	0.00000e+00	0.00000e+00	0.00000e+00	0.00000e+00	0.00000e+00	0.00000e+00	0.00000e+00	0.00000e+00	0.00000e+00	0.00000e+00	0.00000e+00	0.00000e+00	0.00000e+00	0.00000e+00	0.00000e+00	0.00000e+00	0.00000e+00	0.00000e+00	0.00000e+00	0.00000e+00	0.00000e+00	0.00000e+00	0.00000e+00	0.00000e+00	-1.03364e+02	-1.28589e+02	-1.22771e+02	-1.82799e+02	-5.29327e+01	-6.36955e+01	-1.54998e+02	-1.62015e+02	-5.44320e+01	-6.23480e+01	-1.71853e+02	-1.69414e+02	-1.80018e+02	-1.77411e+02	-5.74280e+01	-1.48938e+02	
Factor	1.60856e-05	1.42380e-04	4.19562e-05	1.84207e-01	1.34200e-06	1.50499e-06	1.63323e-01	4.88771e-02	1.25689e-06	1.78350e-06	9.25773e-02	2.71365e-02	2.66344e-02	8.67124e-03	1.27850e-06	1.23973e-02	7.02452e-06	9.64614e-06	2.71299e-06	9.29001e-02	1.02271e-07	1.07808e-07	7.77924e-02	2.48455e-02	1.01700e-07	1.07589e-07	4.55974e-02	1.35142e-02	1.37367e-02	4.44083e-03	1.04084e-07	6.15744e-03	X	X	X	X	X	X	X	X	X	X	X	X	X	X	X	X	



#DISTANCE SETTINGS
A = Detector Channel
A-1	A-2	A-3	A-4	A-5	A-6	A-7	A-8	A-9	A-10	A-11	A-12	A-13	A-14	A-15	A-16	

2.5000e+00	3.0000e+00	2.5000e+00	3.0000e+00	2.0000e+00	3.0000e+00	1.5000e+00	3.0000e+00	3.0000e+00	3.0000e+00	3.0000e+00	3.0000e+00	3.0000e+00	3.0000e+00	1.5000e+00	3.0000e+00	

B = Detector Channel
B-1	B-2	B-3	B-4	B-5	B-6	B-7	B-8	B-9	B-10	B-11	B-12	B-13	B-14	B-15	B-16	

1.0000e+01	1.0000e+01	1.0000e+01	1.4400e+00	1.0000e+01	1.0000e+01	1.5100e+00	1.9400e+00	1.0000e+01	1.0000e+01	1.9900e+00	2.4900e+00	2.4100e+00	2.9000e+00	1.0000e+01	2.9800e+00	




#DATA BEGINS
time	group	step	mark	flag	A-AC1	A-AC2	A-AC3	A-AC4	A-AC5	A-AC6	A-AC7	A-AC8	A-AC9	A-AC10	A-AC11	A-AC12	A-AC13	A-AC14	A-AC15	A-AC16	A-DC1	A-DC2	A-DC3	A-DC4	A-DC5	A-DC6	A-DC7	A-DC8	A-DC9	A-DC10	A-DC11	A-DC12	A-DC13	A-DC14	A-DC15	A-DC16	A-Ph1	A-Ph2	A-Ph3	A-Ph4	A-Ph5	A-Ph6	A-Ph7	A-Ph8	A-Ph9	A-Ph10	A-Ph11	A-Ph12	A-Ph13	A-Ph14	A-Ph15	A-Ph16	B-AC1	B-AC2	B-AC3	B-AC4	B-AC5	B-AC6	B-AC7	B-AC8	B-AC9	B-AC10	B-AC11	B-AC12	B-AC13	B-AC14	B-AC15	B-AC16	B-DC1	B-DC2	B-DC3	B-DC4	B-DC5	B-DC6	B-DC7	B-DC8	B-DC9	B-DC10	B-DC11	B-DC12	B-DC13	B-DC14	B-DC15	B-DC16	B-Ph1	B-Ph2	B-Ph3	B-Ph4	B-Ph5	B-Ph6	B-Ph7	B-Ph8	B-Ph9	B-Ph10	B-Ph11	B-Ph12	B-Ph13	B-Ph14	B-Ph15	B-Ph16	aux-1	digaux	

15257.576	1	1	0	256	0.10076	0.26721	0.18417	0.21102	0.21437	0.10462	0.19687	0.20035	0.1488	0.082781	0.33249	0.070584	0.11994	0.16307	0.15346	0.11395	-2.4938	-2.4896	-2.9813	-2.9437	-2.7	-2.7292	-2.7333	-3.05	-2.7958	-2.6063	-3.0438	-2.8396	-2.625	-2.9625	-2.675	-2.7458	-69.645	-68.859	92.816	221.066	155.145	163.714	197.761	237.651	104.443	2.252	216.469	231.832	161.592	258.576	247.701	-2.663	0.00013973	0.00049558	5.6195e-05	1405.5	4.4868e-06	2.42e-06	990.91	393.76	5.8237e-06	9.9141e-06	275.08	60.994	88.696	22.692	4.0656e-06	17.797	0.0024997	0.003365	0.00095893	1391.4	3.651e-05	3.8167e-05	991.91	391.15	3.6687e-05	3.873e-05	281.65	64.573	91.817	23.659	3.7756e-05	19.564	259.461	-8.408	58.621	-86.790	71.256	246.802	-87.499	-82.429	-56.505	62.146	-85.058	-80.399	-78.772	-74.006	67.372	-76.335	-8191	255	
15257.672	1	1	0	0	0.051618	0.23464	0.14703	0.1622	0.15395	0.20975	0.25333	0.081769	0.22794	0.21395	0.3603	0.20711	0.25969	0.22801	0.11497	0.16545	-2.5104	-2.3833	-2.5979	-2.8146	-2.7521	-3.0375	-2.8292	-2.8354	-2.7667	-2.6979	-2.9562	-2.65	-2.6813	-3.0312	-2.7146	-2.8563	244.192	229.645	87.430	-53.801	-80.552	148.615	181.591	231.292	229.858	32.361	-61.589	253.977	25.863	-52.154	-25.882	161.408	4.3645e-06	0.0002766	0.00016729	1415	1.9678e-06	3.8378e-06	999.39	396.66	9.3242e-06	3.2732e-06	275.7	61.884	90.204	22.965	5.6506e-06	17.926	0.0026218	0.0035075	0.0010041	1401.3	3.8449e-05	4.082e-05	999.63	395.15	3.9902e-05	4.1561e-05	284.58	65.821	93.446	24.208	4.1341e-05	19.992	46.944	22.767	96.722	-86.339	87.712	-30.814	-87.309	-82.257	-39.330	14.205	-84.544	-80.911	-78.251	-74.511	0.990	-76.361	-8191	255	
15257.792	1	1	0	0	0.22699	0.20808	0.34706	0.32465	0.13555	0.098881	0.21561	0.13796	0.15955	0.23541	0.050064	0.11753	0.36255	0.15982	0.10799	0.14504	-2.4729	-2.6437	-2.9208	-2.9313	-2.6625	-3.0812	-2.8729	-2.9729	-2.9104	-2.6354	-3.05	-2.7792	-2.7333	-3.1542	-2.6688	-2.7667	-32.612	178.147	125.954	-72.462	-53.893	169.729	161.885	182.744	-56.421	110.029	-84.992	220.275	-97.427	-78.437	39.748	-36.331	4.4883e-05	0.00076548	0.00022694	1420.4	2.5962e-06	5.194e-06	1005.2	400.59	2.2048e-06	9.9715e-06	278.41	62.137	91.476	23.59	7.9939e-07	18.08	0.0028306	0.0038152	0.0010991	1410.8	4.0592e-05	4.2796e-05	1004.5	398.94	4.0495e-05	4.2929e-05	288.1	66.689	95.029	24.786	4.3199e-05	20.242	177.170	23.553	6.862	-86.359	145.283	3.299	-87.345	-82.305	3.611	84.470	-84.427	-80.421	-78.366	-74.055	212.496	-76.263	-8191	255	
15257.888	1	1	0	0	0.10849	0.11613	0.41011	0.34342	0.21039	0.1025	0.2335	0.19678	0.19559	0.21155	0.17077	0.33965	0.1527	0.19259	0.22746	0.13219	-2.5312	-2.6813	-2.8771	-3.0646	-2.6188	-2.9958	-2.6896	-2.9167	-3.0938	-2.625	-2.8229	-3.1583	-2.5812	-2.9396	-2.8583	-2.8875	12.702	-73.956	145.488	230.960	216.052	-11.489	241.782	250.240	10.095	247.286	178.253	-83.775	184.534	-54.546	217.188	44.635	1.4999e-05	0.0005016	0.0002771	1432.5	3.6923e-06	6.1209e-06	999.39	402.65	1.7268e-06	5.5679e-06	275.92	61.194	90.741	23.363	1.053e-06	18.116	0.0029221	0.0040493	0.0011537	1421	4.3359e-05	4.6162e-05	1001.2	401.67	4.3359e-05	4.623e-05	286.01	65.878	94.646	24.68	4.5684e-05	20.238	259.484	180.099	-55.168	-86.581	-7.110	76.360	-87.159	-82.193	-10.757	145.774	-84.849	-80.862	-78.527	-73.865	-1.759	-76.815	-8191	255	
15257.985	1	1	0	0	0.21112	0.098086	0.22848	0.1141	0.13728	0.12055	0.2459	0.040476	0.012207	0.15381	0.27444	0.095946	0.03453	0.083358	0.016244	0.18226	-2.6813	-2.5479	-2.8292	-3.0208	-2.6875	-2.8063	-3.0125	-2.8771	-2.8	-2.5896	-3	-3.0312	-2.7333	-3.1542	-2.8958	-2.6312	11.377	-88.881	72.817	139.902	113.604	-18.619	242.797	238.407	1.198	-61.042	223.582	108.454	60.789	104.176	-78.916	243.294	9.0332e-05	0.00033546	0.00027684	1415.5	3.1655e-06	1.9152e-06	997.78	399.09	9.3709e-06	5.055e-06	277.3	61.254	90.738	23.435	7.9434e-07	18.11	0.0030813	0.0043162	0.0012379	1415.1	4.6062e-05	4.9116e-05	1004.6	400.98	4.738e-05	5.1171e-05	288.93	66.6	95.441	24.897	5.0188e-05	20.418	183.934	255.571	-31.040	-86.347	-2.856	228.471	-87.429	-82.298	17.411	6.528	-84.718	-80.519	-78.612	-74.219	-77.256	-76.293	-8191	255	
15258.056	1	1	0	0	0.18712	0.21538	0.37885	0.26942	0.18174	0.14739	0.33221	0.11433	0.2149	0.1186	0.20943	0.45926	0.080984	0.067297	0.3092	0.14709	-2.4562	-2.6917	-2.6604	-3.225	-2.6771	-2.9	-3.0229	-2.8063	-3.0458	-2.7583	-2.8875	-3	-2.6604	-2.7542	-2.7104	-2.5271	8.597	23.648	209.102	256.373	173.605	244.452	144.768	143.636	133.846	-57.166	193.847	243.671	2.956	56.532	234.971	222.295	6.6376e-05	0.00051289	0.00011856	1427.5	6.6657e-06	9.0794e-06	1003.8	402.28	5.7585e-06	1.1171e-05	277.18	61.798	90.856	23.404	3.7524e-06	18.066	0.0033809	0.0046536	0.0013061	1424.1	4.8892e-05	5.2674e-05	1013.3	403.07	5.0863e-05	5.4473e-05	291.47	67.236	95.983	25.205	5.3646e-05	20.652	236.202	16.412	-19.355	-86.328	25.771	62.024	-87.516	-82.310	-76.600	31.973	-84.178	-80.481	-78.816	-74.145	56.699	-76.520	-8191	255	
15258.152	1	1	0	0	0.042779	0.090581	0.10808	0.20561	0.07373	0.16262	0.16284	0.06842	0.087727	0.20386	0.093543	0.11132	0.19983	0.16392	0.099985	0.14523	-2.4979	-2.6937	-2.7396	-3.0417	-2.6833	-2.8187	-2.9813	-2.7667	-2.8833	-2.8667	-2.9458	-2.9271	-2.7	-2.9875	-2.8521	-2.7313	168.425	96.482	226.445	175.980	-33.754	209.805	149.720	94.154	40.212	-63.821	141.439	45.767	-34.589	-84.495	215.911	-42.176	7.6347e-05	0.0010869	0.00020612	1433.8	1.141e-06	6.0791e-06	1011.5	404.01	6.2533e-06	1.5617e-05	280.45	61.732	91.425	23.671	5.2486e-06	17.952	0.0036597	0.0050467	0.0014255	1435.1	5.24e-05	5.5848e-05	1021.6	406.04	5.3208e-05	5.7098e-05	293.18	67.761	96.79	25.382	5.4578e-05	20.604	-29.622	36.300	-64.188	-86.527	34.219	221.175	-87.280	-82.321	-41.908	39.132	-84.972	-80.512	-78.065	-74.356	76.865	-76.696	-8191	255	
15258.271	1	1	0	0	0.080538	0.18625	0.33986	0.30896	0.27896	0.12714	0.24078	0.21587	0.1409	0.2347	0.10291	0.47572	0.13499	0.14031	0.10051	0.13876	-2.5625	-2.8729	-2.5583	-3.0417	-2.6667	-2.7771	-3.0646	-2.7104	-3.0042	-2.8208	-2.8604	-3.0229	-2.7812	-2.6979	-2.9854	-2.5687	201.611	132.748	-32.310	191.247	198.409	176.669	219.655	208.075	-48.664	33.221	125.837	-29.313	215.938	72.325	49.428	237.019	4.6182e-05	0.00030239	0.00025783	1431.4	6.9827e-06	8.2179e-06	996.92	402.36	9.3649e-06	3.6272e-06	275.22	61.005	90.814	23.282	2.2766e-06	17.607	0.0037331	0.0050653	0.0014215	1434.4	5.3488e-05	5.6555e-05	1006.9	403.94	5.3001e-05	5.5512e-05	288.34	66.229	96.04	25.096	5.3847e-05	20.366	108.558	88.483	39.638	-86.521	-70.724	27.811	-87.245	-81.977	-32.129	75.479	-84.459	-80.528	-78.448	-73.819	-92.436	-76.592	-8191	255	
15258.367	1	1	0	0	0.043337	0.12149	0.16086	0.12499	0.17106	0.10933	0.20154	0.057634	0.062478	0.16892	0.11392	0.11646	0.13393	0.11533	0.34718	0.0605	-2.45	-2.6333	-2.7167	-3.1896	-2.8167	-2.6417	-2.9729	-2.7583	-2.7604	-3.0167	-2.7208	-3.0229	-2.8958	-2.7188	-3.1146	-2.7125	141.362	-62.023	-71.164	-92.108	176.326	-79.958	257.929	220.574	-49.531	151.412	-58.603	-50.192	213.560	143.290	-47.564	43.198	4.8323e-05	0.0002314	9.9844e-05	1430.1	5.8552e-06	5.4621e-06	1000.7	400.53	1.5605e-06	5.0362e-06	274.5	60.118	90.795	23.513	1.0949e-05	17.772	0.0038256	0.0052413	0.0014425	1433.8	5.4903e-05	5.7066e-05	1009.4	402.49	5.2337e-05	5.4226e-05	287.55	66.01	95.548	25.091	5.041e-05	20.294	184.017	-8.597	-27.595	-86.099	176.871	63.608	-87.368	-82.163	-96.361	82.338	-84.630	-80.501	-78.560	-74.227	100.217	-76.837	-8191	255	
15258.464	1	1	0	0	0.24749	0.10067	0.11214	0.18533	0.2294	0.13122	0.020294	0.047429	0.26381	0.030931	0.088009	0.10036	0.1877	0.25511	0.16197	0.19046	-2.3625	-2.7771	-2.55	-3.1042	-2.8	-2.8104	-3.1479	-2.7333	-2.9062	-2.9229	-2.6104	-3.0646	-2.8688	-2.6854	-3.1562	-2.65	99.788	10.091	-29.120	-80.620	245.769	-61.253	27.022	145.349	30.974	252.886	118.203	236.957	-91.107	-45.252	-3.845	240.254	0.00010166	0.00017902	0.00020457	1425.2	4.786e-06	5.8357e-06	993.22	401.01	4.2431e-06	8.9604e-06	274.01	61.448	91.2	23.315	6.9461e-06	17.915	0.0034559	0.0046151	0.0012739	1422.3	4.7758e-05	4.9169e-05	999.99	401.86	4.6443e-05	4.831e-05	286.09	65.742	95.146	24.67	4.427e-05	20.023	-64.319	259.554	205.713	-86.459	-44.258	128.088	-87.256	-82.182	-76.682	-74.356	-84.506	-80.806	-78.631	-73.905	63.375	-76.723	-8191	255	
15258.584	1	1	0	0	0.30279	0.11072	0.28372	0.35851	0.29316	0.0069318	0.097099	0.28984	0.31673	0.025159	0.17408	0.063861	0.10893	0.26624	0.10576	0.17683	-2.4042	-2.6	-2.5708	-3.1521	-2.7479	-2.6875	-3.1583	-2.7875	-2.7417	-2.9667	-2.8354	-2.8542	-2.9167	-2.7604	-2.9437	-2.8063	167.436	-17.347	64.611	238.097	101.159	60.576	196.975	189.289	114.030	-88.983	162.839	51.983	223.873	199.028	14.764	107.430	2.6549e-05	0.0007177	0.00017046	1425.9	7.6846e-07	5.9537e-06	999.01	402.11	6.4975e-06	1.8607e-05	276.36	61.054	91.788	23.612	1.0809e-05	17.821	0.0030464	0.0039482	0.0010881	1415.2	4.0628e-05	4.2303e-05	997.15	400.63	4.0408e-05	4.2435e-05	284.14	65.305	94.75	24.56	3.9176e-05	19.583	129.855	133.521	-77.944	-86.603	64.751	2.032	-87.397	-82.430	73.470	95.563	-84.450	-80.479	-78.553	-74.403	24.203	-77.000	-8191	255	
15258.656	1	1	0	0	0.16573	0.14864	0.046285	0.33848	0.22596	0.13221	0.13564	0.24746	0.19269	0.10321	0.16649	0.14525	0.10343	0.18504	0.22873	0.12006	-2.35	-3.0583	-2.6458	-3.1583	-2.9333	-2.6813	-3.0917	-2.8833	-2.7917	-3.0958	-2.8896	-2.9229	-2.7458	-2.6375	-2.9104	-2.7667	215.516	113.341	256.048	235.798	92.720	155.962	-28.540	175.755	258.721	97.338	197.646	-44.887	-35.374	170.359	-88.293	239.920	3.2319e-05	0.00038016	0.00013628	1409.7	8.4212e-06	2.7112e-06	977.37	396.36	5.1679e-06	8.703e-06	270.84	60.166	90.367	23.122	4.6298e-06	17.619	0.0026117	0.0034792	0.00098259	1399.4	3.6927e-05	3.8631e-05	976.15	394.84	3.721e-05	3.8295e-05	276.69	63.956	93.164	24.156	3.7811e-05	19.298	-97.381	92.850	-31.846	-86.228	178.190	75.204	-87.414	-82.535	-27.482	73.419	-84.422	-80.638	-78.203	-74.305	47.234	-76.715	-8191	255	
15258.752	1	1	0	0	0.010382	0.1666	0.10745	0.20886	0.11541	0.18369	0.38304	0.1236	0.26907	0.23414	0.30793	0.28054	0.26154	0.24047	0.061745	0.12125	-2.3667	-3.0438	-2.5854	-3.0708	-3.0125	-2.4667	-3.2687	-2.9667	-2.7292	-2.9792	-2.7625	-2.6688	-3.0792	-2.6312	-2.9458	-2.8458	125.243	112.644	170.291	251.218	65.489	17.153	158.399	257.953	94.302	165.423	227.883	-58.011	77.581	212.389	-83.691	-7.131	3.8205e-05	0.00065866	8.5935e-05	1408.2	6.5185e-06	6.4904e-06	980.17	396.61	3.8482e-06	9.6281e-06	270.05	59.723	89.701	22.92	6.0617e-06	17.358	0.0025933	0.0035225	0.0010112	1399	3.7682e-05	3.9122e-05	976.56	393.93	3.5805e-05	3.7258e-05	276.39	63.487	92.403	23.796	3.5616e-05	18.969	257.256	14.556	-69.032	-86.458	112.078	54.236	-87.417	-82.177	133.024	84.857	-84.664	-80.800	-78.510	-73.997	158.824	-76.760	-8191	255	
15258.873	1	1	0	0	0.2447	0.097333	0.22778	0.37395	0.016469	0.30697	0.15581	0.15659	0.3079	0.13771	0.044538	0.14379	0.14046	0.26301	0.14177	0.33058	-2.2687	-2.9417	-2.8146	-2.975	-2.9688	-2.8271	-2.9208	-2.9729	-2.6896	-2.9875	-2.8833	-2.7875	-2.7875	-2.8333	-2.9104	-2.9313	-4.031	156.817	-30.100	205.864	-23.494	22.520	-16.128	244.838	256.909	221.856	-41.851	210.614	117.251	-10.659	195.289	-6.551	7.1761e-05	0.0001486	0.00010581	1403.2	2.5946e-06	1.4373e-06	973.51	390.17	3.3792e-06	1.1915e-05	267.61	60.029	89.025	22.809	2.7437e-06	17.636	0.0023471	0.0032066	0.000918	1385.6	3.376e-05	3.5512e-05	968.89	387.65	3.3112e-05	3.444e-05	272.76	62.923	91.168	23.509	3.3217e-05	18.82	-84.333	158.707	16.696	-86.380	27.764	104.746	-87.252	-82.360	2.815	2.559	-84.733	-80.714	-78.259	-74.397	158.785	-76.748	-8191	255	
15258.969	1	1	0	0	0.25333	0.15478	0.24474	0.11456	0.1371	0.22497	0.27357	0.30735	0.062265	0.12159	0.30509	0.28105	0.13154	0.14876	0.22341	0.15782	-2.3354	-3.0167	-2.5458	-3.0938	-3.0354	-2.7917	-3.0875	-2.8104	-2.525	-2.9417	-2.8292	-2.7083	-3.1375	-2.7896	-2.8792	-3.1063	240.977	173.455	68.824	73.729	66.205	100.738	162.157	200.735	66.587	204.296	227.029	164.738	-72.705	214.255	104.797	149.294	1.9189e-05	0.0010703	0.00021429	1393.2	3.3644e-06	4.2873e-07	971.35	386.75	1.6692e-06	5.9182e-06	266.79	59.38	87.888	22.526	4.9658e-06	17.171	0.0021736	0.0029837	0.00084217	1372.7	3.1529e-05	3.3516e-05	964.34	383.79	3.0924e-05	3.3017e-05	271.62	62.275	90.15	23.247	3.2153e-05	18.546	244.453	-14.205	-26.019	-86.520	142.422	52.294	-87.301	-82.288	-92.622	225.272	-84.758	-80.555	-78.552	-74.162	91.924	-76.332	-8191	255	
15259.065	1	1	0	0	0.094147	0.067874	0.29849	0.1264	0.15614	0.17108	0.23414	0.28777	0.22791	0.20916	0.21257	0.16942	0.25639	0.20698	0.20264	0.29067	-2.1708	-2.7896	-2.7167	-2.9354	-2.8625	-2.6542	-2.9271	-3.1854	-2.725	-2.9479	-2.8125	-2.7375	-2.9188	-2.7729	-2.7167	-2.9208	238.018	227.835	80.440	207.009	27.615	74.155	129.449	-98.905	84.563	243.124	206.952	44.070	206.329	-35.702	32.863	203.353	5.8056e-05	0.001005	6.2577e-05	1380.8	4.6388e-06	3.0234e-06	959.41	383.32	4.7748e-06	4.1268e-06	261.9	58.497	87.736	22.134	1.4771e-06	17.053	0.0021361	0.0029157	0.00082079	1362.3	3.091e-05	3.2576e-05	951.44	379.47	3.0801e-05	3.2967e-05	266.82	61.194	89.264	22.924	3.0848e-05	18.347	213.920	-31.129	257.318	-86.470	101.343	17.425	-87.253	-82.329	28.342	-16.797	-84.806	-80.695	-78.463	-73.956	253.767	-76.381	-8191	255	
15259.184	1	1	0	0	0.10314	0.14919	0.16014	0.36023	0.072025	0.059314	0.093393	0.16553	0.13534	0.24359	0.11437	0.15179	0.062152	0.19975	0.20573	0.21894	-2.1271	-2.8583	-2.8688	-2.7708	-3.0104	-2.9646	-2.9938	-3.0917	-2.7729	-2.8896	-2.8396	-2.5542	-3.0333	-2.7313	-2.6583	-3.0646	1.576	7.300	231.214	223.434	134.557	76.263	-1.873	210.903	10.286	225.361	114.085	-84.731	194.792	-92.815	-37.058	79.933	4.1903e-05	0.00049688	0.00019604	1379.7	1.88e-06	9.1724e-06	963.06	386.98	4.3752e-06	5.5109e-06	265.84	59.344	88.144	22.576	3.0876e-06	17.188	0.0020988	0.0029075	0.00081242	1360.6	3.059e-05	3.2196e-05	957.74	381.62	3.0481e-05	3.2154e-05	269.5	62.09	90.287	23.306	3.0846e-05	18.476	227.522	15.269	-28.404	-86.469	196.737	-10.005	-87.542	-82.231	84.957	54.637	-84.595	-80.641	-78.074	-74.415	191.623	-76.235	-8191	255	
15259.280	1	1	0	0	0.16391	0.16315	0.074322	0.1668	0.13364	0.13205	0.31311	0.011012	0.22118	0.11746	0.2026	0.19469	0.075908	0.096366	0.26081	0.084297	-2.0521	-2.7229	-2.8604	-2.7729	-2.9437	-2.8542	-2.9042	-3.1188	-2.7854	-2.8021	-2.9542	-2.4333	-2.8333	-2.8792	-2.6813	-2.9125	-63.197	-11.745	-86.375	-97.776	64.479	-26.203	224.037	73.588	70.974	-55.365	150.069	189.178	148.473	220.180	58.894	-27.347	5.3576e-05	0.00033351	0.00010261	1386.3	5.7334e-06	8.4824e-06	965.9	384.67	3.6165e-06	6.8757e-06	266.71	59.903	87.815	22.545	2.753e-06	17.35	0.0020262	0.0027186	0.00075453	1360.4	2.7244e-05	2.7948e-05	954.84	380.52	2.5613e-05	2.7501e-05	268.55	61.867	89.527	23.073	2.6224e-05	18.351	191.488	19.005	72.566	-86.608	41.444	134.137	-87.530	-82.356	252.882	255.584	-84.555	-80.527	-78.343	-73.917	19.186	-76.397	-8191	255	
15259.352	1	1	0	0	0.2341	0.31854	0.18538	0.056754	0.15097	0.039607	0.22725	0.13885	0.28711	0.24129	0.22592	0.18935	0.22321	0.25249	0.1107	0.048308	-2.4729	-2.7125	-2.7708	-2.5479	-2.8292	-2.8937	-2.8396	-3.1562	-2.6521	-2.7104	-3.0208	-2.5375	-2.9417	-2.9479	-2.6917	-3.0521	215.582	251.137	242.690	225.314	-55.617	176.111	220.766	237.549	215.540	66.762	146.228	224.353	-95.582	-52.225	130.601	0.829	6.8295e-05	0.00084488	1.8924e-05	1386	2.1087e-06	2.978e-06	972.53	386.59	4.5584e-06	5.0109e-06	267.34	60.207	87.838	22.574	3.5485e-06	17.384	0.0017901	0.0024516	0.00068049	1359.4	2.6582e-05	2.7471e-05	961.86	381.52	2.5788e-05	2.673e-05	269.86	61.984	89.581	23.075	2.605e-05	18.418	215.747	-29.288	9.151	-86.395	119.403	23.635	-87.346	-82.237	-68.222	42.130	-84.872	-80.650	-78.483	-74.019	175.610	-76.898	-8191	255	
15259.448	1	1	0	0	0.040904	0.14128	0.11847	0.28875	0.26521	0.2698	0.19144	0.19578	0.29584	0.077485	0.13018	0.12201	0.12729	0.26989	0.095989	0.19119	-2.0542	-2.7313	-3.0104	-2.6813	-2.7271	-2.7583	-2.8792	-2.9583	-2.5729	-2.7354	-2.8979	-2.625	-3.0687	-2.8042	-2.4938	-2.8812	203.701	-15.094	227.680	219.485	203.994	-61.558	140.861	146.316	42.209	-22.570	-80.552	107.870	255.007	123.990	183.940	-67.743	1.9339e-05	0.00062386	5.3123e-05	1387.8	5.8823e-06	5.0492e-06	968.7	385.03	2.0471e-06	3.5448e-06	265.86	59.107	87.175	22.484	4.6292e-06	17.518	0.0018517	0.0024904	0.00068946	1363.3	2.6943e-05	2.7649e-05	957.91	380	2.6687e-05	2.8073e-05	267.95	61.544	88.871	22.983	2.7878e-05	18.589	258.803	-23.568	-0.761	-86.332	56.354	36.279	-87.360	-82.319	233.468	-62.199	-84.845	-80.716	-78.558	-74.068	-53.154	-76.289	-8191	255	
15259.568	1	1	0	0	0.13366	0.28709	0.2161	0.34511	0.044688	0.21269	0.12166	0.40227	0.15183	0.13429	0.05343	0.16663	0.16077	0.36925	0.21599	0.13802	-2.2292	-2.6	-2.9125	-2.6625	-2.7021	-2.7417	-2.7521	-3.1604	-2.7125	-2.4354	-3.0812	-2.625	-2.8792	-2.9625	-2.6375	-2.9	38.295	-70.526	-13.707	-88.088	94.468	121.439	128.576	226.968	-55.388	257.535	63.314	83.069	193.805	-49.870	242.380	-69.446	3.3631e-05	0.00035841	1.8689e-05	1394.4	4.227e-06	1.6861e-06	984.22	389.81	1.7214e-06	6.5071e-06	270.26	60.814	89.442	23.231	7.5897e-06	17.696	0.0019551	0.002637	0.00073891	1373.1	2.9026e-05	3.0256e-05	971.81	386.62	2.9115e-05	3.0097e-05	274.13	63.204	91.571	23.73	2.9179e-05	18.941	84.247	48.394	43.853	-86.411	38.217	119.689	-87.345	-82.189	-60.326	86.110	-84.545	-80.522	-78.569	-74.062	125.051	-76.046	-8191	255	
15259.665	1	1	0	0	0.15299	0.2113	0.18545	0.11105	0.18146	0.032049	0.17638	0.056316	0.064111	0.21564	0.12533	0.18403	0.14144	0.12276	0.065524	0.20077	-2.3333	-2.4333	-2.9375	-2.6521	-2.8104	-2.9354	-2.6854	-3.0438	-2.85	-2.5812	-2.8729	-2.5083	-2.7687	-2.9479	-2.8833	-2.8187	48.826	-67.166	41.842	209.896	21.346	217.478	233.065	202.309	103.500	-20.231	28.148	6.610	27.292	232.264	51.502	-58.581	6.3399e-05	0.00042063	8.8759e-05	1401.8	4.6045e-06	4.6853e-06	981.22	396.78	4.5085e-06	7.6497e-06	273.03	61.33	91.361	23.205	4.6181e-06	17.865	0.0020219	0.0026618	0.0007554	1383.1	2.8902e-05	2.9629e-05	978.15	391.91	2.8216e-05	2.9198e-05	276.6	64.005	92.922	23.914	2.8093e-05	19.013	221.453	93.545	51.688	-86.521	183.910	30.065	-87.498	-82.181	13.669	81.635	-84.761	-80.201	-78.626	-74.292	-35.465	-76.457	-8191	255	
15259.761	1	1	0	0	0.17942	0.31578	0.12247	0.16007	0.30483	0.15096	0.33613	0.20669	0.088839	0.27946	0.22992	0.025434	0.22809	0.069568	0.28029	0.14187	-2.3729	-2.6146	-3.0146	-2.7562	-2.7708	-3.0292	-2.7062	-3.05	-2.8458	-2.6021	-2.9875	-2.8021	-2.6896	-3.0083	-2.6583	-2.9042	-88.564	12.554	41.155	-40.969	-44.340	237.091	242.476	213.807	92.677	170.048	-60.190	4.106	228.063	15.402	75.408	184.263	0.00011529	0.00045945	0.00016036	1411.5	3.5001e-06	7.8052e-06	996.65	400.11	4.8787e-06	7.3001e-06	276.61	62.023	92.401	23.686	2.9745e-06	17.795	0.0019158	0.0025457	0.0007252	1391.9	2.7632e-05	2.8333e-05	985.6	396.11	2.7857e-05	2.9126e-05	280.47	64.726	94.174	24.233	2.7984e-05	18.868	206.063	7.524	15.920	-86.455	143.247	93.944	-87.356	-82.421	-20.893	16.330	-84.680	-80.892	-78.121	-73.900	-80.493	-76.506	-8191	255	
15259.857	1	1	0	0	0.4909	0.022784	0.19557	0.24772	0.054366	0.055585	0.20071	0.176	0.10824	0.11732	0.12109	0.12111	0.23228	0.17964	0.21147	0.19823	-2.3875	-2.4208	-2.7792	-2.9917	-2.8187	-3.0438	-2.7583	-2.9354	-2.8271	-2.6875	-2.8625	-2.7083	-2.5833	-3.0417	-2.6271	-2.825	5.660	55.281	216.000	214.657	213.213	250.125	184.072	235.572	166.412	17.340	186.920	9.048	8.228	258.422	147.680	135.072	9.0339e-05	8.5691e-05	0.00020899	1408.9	5.46e-06	2.6045e-06	980.69	397.31	4.8678e-06	8.6897e-06	271.83	60.971	90.881	23.28	1.4374e-06	17.774	0.0019016	0.0025383	0.00072317	1387.7	2.7037e-05	2.8311e-05	972.82	392.06	2.646e-05	2.7342e-05	275.59	63.406	92.063	23.749	2.5774e-05	18.71	236.051	-89.898	-9.731	-86.211	236.313	69.608	-87.313	-82.386	81.421	21.460	-84.757	-80.616	-78.527	-74.036	41.860	-76.001	-8191	255	
15259.953	1	1	0	0	0.18822	0.14238	0.05985	0.41053	0.18948	0.18555	0.22245	0.40569	0.058538	0.093373	0.05465	0.14643	0.11058	0.23275	0.21341	0.17266	-2.5187	-2.475	-2.8208	-2.9292	-2.7146	-2.8104	-2.7438	-2.9708	-3.0354	-2.6042	-3.0708	-2.9625	-2.8958	-2.9896	-2.5542	-2.6854	122.501	227.144	-27.981	254.407	105.929	-96.834	172.741	192.261	58.561	-40.021	204.322	89.772	193.000	162.877	193.098	-79.830	1.5766e-05	0.00017536	3.2881e-05	1403	4.426e-06	3.88e-06	988.29	396.12	5.1332e-06	5.8252e-06	274.87	61.757	91.5	23.27	2.5935e-06	17.913	0.0017136	0.002344	0.00066372	1380.2	2.4793e-05	2.6208e-05	975.45	390.74	2.4524e-05	2.6296e-05	276.72	63.703	92.379	23.683	2.5411e-05	18.759	239.818	-34.747	250.581	-86.403	74.283	65.532	-87.438	-82.360	45.850	59.484	-84.403	-80.596	-78.561	-74.227	-56.586	-75.961	-8191	255	
15260.049	1	1	0	0	0.063567	0.1012	0.1077	0.18553	0.12249	0.090009	0.15463	0.1092	0.14157	0.28712	0.19336	0.20347	0.19085	0.23597	0.1065	0.053747	-2.6521	-2.6813	-2.825	-2.9896	-2.5896	-2.9938	-2.8479	-2.9375	-3.0125	-2.6958	-2.9562	-2.9354	-2.6688	-2.9771	-2.8958	-2.7146	6.472	252.176	-53.726	164.551	104.520	254.027	40.148	203.832	36.628	123.230	181.488	144.914	-98.056	31.268	204.685	-25.376	6.7537e-05	0.00064981	9.0704e-05	1410.3	9.0475e-07	7.3088e-06	992.74	398.73	3.4408e-06	8.4373e-06	276.74	62.681	91.36	23.261	5.004e-06	17.912	0.0017263	0.0023495	0.00066481	1384.5	2.5036e-05	2.6579e-05	980.4	393.33	2.4633e-05	2.6295e-05	278.87	64.322	92.633	23.795	2.5878e-05	18.911	217.942	24.873	7.623	-86.446	30.628	42.433	-87.337	-82.324	91.431	51.743	-84.341	-80.678	-78.365	-73.932	12.016	-76.146	-8191	255	
15260.145	1	1	0	0	0.11771	0.039819	0.39598	0.16621	0.22873	0.27833	0.18201	0.10838	0.079099	0.17982	0.20731	0.27761	0.35619	0.13567	0.12849	0.14663	-2.6333	-2.7833	-2.7146	-3.0146	-2.6	-2.9104	-2.9396	-3.0167	-2.9667	-2.6146	-2.7167	-3.0083	-2.6958	-2.9667	-2.6146	-2.5896	34.157	-86.474	66.318	247.119	120.711	225.734	205.852	167.279	-89.748	-33.881	196.667	-75.425	233.254	-68.431	46.744	99.808	9.0137e-05	0.00013615	0.00018736	1420.4	3.237e-06	6.0669e-06	999.17	398.61	2.5214e-06	2.535e-06	279.23	62.202	91.643	23.472	3.4284e-06	17.73	0.0017396	0.0024179	0.00067617	1392.6	2.5264e-05	2.708e-05	987.59	393.44	2.5558e-05	2.7205e-05	280.12	64.139	93.001	23.955	2.6229e-05	18.727	259.150	-55.593	28.931	-86.352	23.639	44.446	-87.325	-82.219	204.483	109.692	-84.903	-80.859	-78.431	-74.272	226.996	-76.478	-8191	255	
15260.264	1	1	0	0	0.092579	0.17003	0.20379	0.31782	0.13266	0.075292	0.20033	0.25249	0.14965	0.08197	0.16418	0.27857	0.11527	0.20723	0.21845	0.16354	-2.5104	-2.7896	-2.675	-2.8937	-2.6104	-2.9292	-2.8146	-2.6271	-2.9417	-2.6875	-2.7521	-2.9188	-2.7729	-2.9813	-2.9313	-2.7458	234.208	203.618	61.156	196.925	-24.688	-76.505	199.289	-94.226	131.245	148.158	-62.859	-15.601	-88.157	-37.298	80.680	215.379	6.3807e-05	0.00038723	7.2209e-05	1410.2	1.1764e-06	9.3047e-07	988.37	398.67	2.0207e-06	2.0597e-06	274.34	61.451	92.115	23.557	2.4637e-06	17.976	0.0017962	0.0024274	0.00068019	1388	2.5578e-05	2.6902e-05	975.96	393.45	2.5386e-05	2.7028e-05	276.77	63.824	93.239	24.103	2.6381e-05	18.951	206.383	-15.930	12.987	-86.176	170.346	-14.265	-87.372	-82.362	19.616	70.774	-84.788	-80.381	-78.729	-74.349	238.985	-76.372	-8191	255	
15260.360	1	1	0	0	0.16065	0.17905	0.10875	0.050266	0.16251	0.13219	0.05512	0.13012	0.24686	0.12102	0.23281	0.29578	0.15011	0.40529	0.23881	0.2336	-2.5062	-2.6562	-2.5625	-3.2	-2.625	-2.925	-2.9896	-2.6917	-2.8292	-2.9333	-2.7875	-2.7917	-2.6667	-2.85	-2.8875	-2.6417	97.111	212.123	-31.029	123.042	-9.331	-1.389	164.582	214.130	-4.513	187.526	-35.976	199.446	206.548	137.123	-67.519	220.144	7.1386e-05	0.00063888	3.558e-05	1431	8.3837e-07	3.6844e-06	1002.2	404.34	4.097e-06	4.5809e-06	278.23	62.267	93.14	23.552	8.999e-07	17.989	0.0018781	0.0025351	0.00072129	1404.2	2.8353e-05	2.9925e-05	992.53	400.16	2.892e-05	3.0194e-05	282.03	64.902	94.295	24.223	2.8377e-05	19.063	237.329	-71.558	-67.888	-86.332	-14.891	-8.953	-87.475	-81.995	-60.960	21.915	-84.215	-80.487	-78.400	-74.279	-1.150	-76.428	-8191	255	
15260.457	1	1	0	0	0.12479	0.24844	0.12212	0.24617	0.086936	0.17212	0.30281	0.21669	0.27748	0.051698	0.18448	0.099904	0.21267	0.18037	0.12292	0.26859	-2.6188	-2.4188	-2.6375	-2.9979	-2.6854	-2.7354	-3.0583	-2.95	-2.95	-2.9188	-2.7562	-2.9333	-2.6292	-2.9542	-2.9896	-2.5646	124.670	137.440	85.483	201.450	11.348	46.462	183.309	169.122	58.789	64.769	-64.735	168.431	-2.478	257.889	-85.433	192.222	3.8352e-05	0.00054617	6.8385e-05	1428.6	3.3058e-06	4.9385e-06	996.27	398.15	4.6056e-06	6.7499e-06	275.2	62.089	90.789	23.092	2.4478e-06	17.829	0.0019607	0.0026944	0.00073597	1403.6	2.8328e-05	2.9383e-05	985.48	394.34	2.6616e-05	2.7251e-05	277.4	64.055	92.132	23.728	2.5382e-05	18.821	-95.414	-93.304	-10.853	-86.396	79.685	-83.863	-87.280	-82.253	-9.972	75.179	-84.519	-80.699	-78.604	-74.279	93.860	-76.322	-8191	255	
15260.553	1	1	0	0	0.24396	0.10918	0.14649	0.13624	0.23563	0.085291	0.058993	0.10721	0.23552	0.14838	0.054627	0.29718	0.11493	0.13003	0.032352	0.2396	-2.5292	-2.6813	-2.6292	-3.0438	-2.7667	-2.6896	-3.1146	-2.9021	-2.6646	-2.7875	-2.6958	-2.9188	-2.7833	-2.7062	-3.0396	-2.6521	30.341	2.636	-81.568	-63.900	-56.911	99.030	189.237	208.539	187.608	-48.360	-71.309	240.200	144.140	-50.123	15.855	27.004	6.1552e-05	0.00078853	0.00023413	1411.3	5.7146e-06	4.8653e-06	996.02	398.78	6.4744e-06	3.2455e-06	277.4	61.87	92.153	23.516	6.2786e-06	17.702	0.0017571	0.0023536	0.00065397	1387.6	2.5659e-05	2.6376e-05	984.52	394.19	2.579e-05	2.654e-05	278.41	64.059	93.036	23.936	2.58e-05	18.76	236.861	-10.142	-0.512	-86.276	75.580	198.194	-87.308	-82.256	-67.115	-93.201	-84.351	-80.850	-78.813	-74.207	63.276	-76.790	-8191	255	
15260.647	1	1	0	0	0.16133	0.24352	0.1737	0.37603	0.17788	0.21887	0.38546	0.33473	0.31865	0.1926	0.22732	0.20931	0.14402	0.23299	0.042438	0.23212	-2.2979	-2.8063	-2.6458	-3.0646	-2.8583	-2.7021	-3.175	-2.8042	-2.8625	-2.9354	-2.6583	-3.1937	-2.925	-2.7625	-3.2917	-2.7042	-11.375	146.710	-74.703	211.541	183.149	239.317	126.971	255.542	176.785	232.903	-61.547	-97.436	244.173	230.941	-94.774	188.541	8.6639e-05	0.0002693	6.4665e-05	1420.7	4.3457e-06	7.844e-06	993.42	401.42	8.1651e-06	2.8362e-06	276.77	62.006	92.12	23.599	2.2031e-06	17.789	0.0018129	0.0024473	0.00068383	1395.4	2.6934e-05	2.8079e-05	982.08	397.96	2.7984e-05	2.9026e-05	279.81	64.273	93.785	24.12	2.7994e-05	18.9	-95.742	2.701	-66.039	-86.318	87.944	-69.106	-87.552	-82.335	-16.872	74.213	-84.859	-80.604	-78.386	-73.896	-6.795	-76.033	-8191	255	
15260.743	1	1	0	0	0.22026	0.11338	0.021166	0.25151	0.074293	0.062332	0.13361	0.065925	0.16329	0.10903	0.26283	0.31976	0.15233	0.18228	0.043312	0.29415	-2.3646	-2.8229	-2.7042	-3.0229	-2.8688	-2.6375	-3.0187	-2.9479	-2.8646	-2.8271	-2.5062	-2.9562	-2.9667	-2.7083	-2.9354	-2.6792	39.099	47.148	67.927	252.869	147.178	213.902	-11.846	195.826	80.983	109.223	102.422	-69.536	19.272	65.938	13.924	108.591	7.5652e-05	0.00059889	0.00016129	1420.6	1.879e-06	4.3677e-06	997.16	399.43	2.3432e-06	6.3377e-06	276.45	61.805	91.148	23.449	2.0651e-06	17.778	0.0019439	0.0025422	0.00071948	1398.6	2.7342e-05	2.8167e-05	983.63	395.41	2.6677e-05	2.7096e-05	277.54	63.932	92.795	23.938	2.6149e-05	18.811	228.329	14.735	-50.529	-86.161	11.902	74.189	-87.365	-82.528	146.184	94.101	-84.629	-80.465	-78.348	-74.163	-27.212	-76.111	-8191	255	
15260.864	1	1	0	0	0.084842	0.39666	0.10699	0.061477	0.12987	0.09643	0.21583	0.10184	0.17356	0.14524	0.25557	0.080932	0.27351	0.22608	0.25526	0.2252	-2.4292	-2.95	-2.6208	-3.0146	-2.7292	-2.4667	-3.125	-3.0042	-2.5896	-3.075	-2.7042	-2.7604	-2.9521	-2.6354	-2.9417	-2.6688	67.071	-88.363	176.784	-58.896	158.688	20.067	199.349	211.335	152.392	53.406	255.931	-65.658	224.382	194.117	110.185	-16.727	7.708e-05	0.00037244	6.9438e-05	1417	2.2782e-07	1.9964e-06	1000.7	401.61	9.4802e-07	8.35e-06	278.57	61.945	91.772	23.278	6.1511e-06	17.867	0.0018519	0.0025056	0.00070358	1398.9	2.6409e-05	2.8085e-05	987.81	396.72	2.6281e-05	2.7521e-05	279.87	64.23	93.314	23.935	2.6861e-05	18.941	-83.259	2.809	66.170	-86.297	188.729	133.517	-87.297	-82.195	-79.632	89.922	-84.362	-80.322	-78.431	-74.054	-4.840	-76.737	-8191	255	
15260.960	1	1	0	0	0.13694	0.10653	0.1024	0.18588	0.21531	0.091702	0.12081	0.29407	0.3208	0.059606	0.12835	0.15889	0.11142	0.27895	0.14959	0.14111	-2.1396	-3.0042	-2.6604	-2.9188	-2.8667	-2.6771	-3.1021	-2.8812	-2.7021	-2.9729	-2.8521	-2.6729	-2.9437	-2.6396	-2.9792	-2.8271	210.991	138.480	33.531	174.260	12.514	61.609	209.200	-97.856	173.989	67.832	191.280	6.506	213.550	212.162	222.552	169.557	7.3065e-05	0.00043058	0.0002131	1432.1	2.3682e-06	2.7137e-06	1006.8	404.13	2.7967e-06	6.3565e-06	280.02	62.478	91.89	23.607	3.7879e-06	17.615	0.0018783	0.0024961	0.0007162	1407.2	2.7549e-05	2.922e-05	995.93	399.53	2.7952e-05	2.9113e-05	281.95	64.486	93.914	24.12	2.8559e-05	18.758	-72.137	-35.703	-6.141	-86.277	-76.574	-12.287	-87.120	-82.260	151.927	70.532	-84.612	-80.958	-78.398	-74.120	62.409	-76.522	-8191	255	
15261.056	1	1	0	0	0.19311	0.21082	0.25915	0.087851	0.10266	0.17817	0.47521	0.14795	0.10106	0.13958	0.080797	0.14052	0.13281	0.3635	0.067463	0.056452	-2.2687	-2.7792	-2.7896	-2.975	-2.9125	-2.5479	-2.9542	-2.825	-2.6917	-3.0375	-2.8187	-2.6833	-3.0167	-2.7771	-3.0812	-2.9146	192.016	211.217	9.536	174.750	-20.511	103.155	218.969	181.415	-23.140	200.347	-87.376	-96.603	196.936	247.909	238.959	245.192	7.3057e-05	0.00026099	0.00019658	1424.7	3.3964e-06	4.6107e-06	994.49	399.07	7.083e-06	4.4567e-06	274.57	61.489	91.314	23.263	2.6374e-06	17.548	0.0019366	0.0026337	0.00075007	1404.7	2.7543e-05	2.8985e-05	984.18	395.19	2.747e-05	2.9207e-05	278.14	63.787	92.849	23.958	2.9921e-05	18.85	-98.994	11.413	6.186	-86.464	189.956	74.138	-87.375	-82.186	13.719	13.188	-84.415	-80.656	-78.433	-74.142	-29.949	-76.713	-8191	255	
15261.152	1	1	0	0	0.1765	0.1982	0.29478	0.048423	0.095902	0.030424	0.46227	0.13577	0.15813	0.11979	0.11731	0.19929	0.22713	0.18822	0.099886	0.35995	-2.0729	-2.8688	-2.7708	-2.8583	-2.9188	-2.7083	-2.8125	-3.0396	-2.6042	-2.9583	-2.8396	-2.6312	-3.05	-2.4854	-2.9708	-2.9271	86.645	10.173	28.663	152.577	91.914	48.443	173.280	196.298	-17.488	218.705	-22.702	153.665	-87.995	250.315	-53.580	195.642	0.00011697	0.00039409	7.029e-05	1426.5	4.0759e-06	2.6588e-06	1001.2	400.39	4.4809e-06	1.2945e-06	276.38	61.621	92.341	23.581	3.9037e-06	17.805	0.0020471	0.0028206	0.00078666	1405.1	2.9214e-05	3.1224e-05	993.16	396.54	2.9426e-05	3.119e-05	280.66	64.43	94.063	24.283	3.0524e-05	19.029	237.000	-47.345	-1.514	-86.226	152.137	51.565	-87.340	-81.997	71.213	42.525	-84.652	-80.863	-78.344	-74.017	13.951	-76.430	-8191	255	
15261.248	1	1	0	0	0.12776	0.09158	0.14698	0.21044	0.17107	0.19209	0.2078	0.096093	0.13148	0.17171	0.22456	0.15151	0.040303	0.17332	0.1818	0.087739	-2.2333	-3	-2.6688	-2.8125	-3	-2.8042	-3.0687	-3.1646	-2.7042	-2.9083	-2.8396	-2.7458	-2.9792	-2.825	-2.9458	-3.0854	83.566	255.346	-75.278	174.532	55.322	191.819	196.412	247.099	-25.955	144.626	-93.632	64.485	40.624	44.276	162.702	249.397	2.5987e-05	0.00012757	0.00013772	1427.8	6.1817e-06	2.4044e-06	1005.4	406.94	3.3335e-06	3.1198e-06	281.55	63.021	93.635	24.107	2.4986e-06	18.154	0.0020405	0.0027551	0.00075899	1407.5	2.8224e-05	3.0043e-05	996	401.52	2.9197e-05	3.138e-05	285.1	65.695	95.389	24.643	3.0598e-05	19.286	175.501	-53.504	-50.986	-86.435	172.311	10.944	-87.112	-82.228	88.802	-7.155	-84.577	-80.658	-78.424	-74.256	163.626	-76.118	-8191	255	
15261.345	1	1	0	0	0.14587	0.18048	0.047073	0.18237	0.31497	0.17089	0.26099	0.23847	0.071667	0.10034	0.14662	0.12779	0.14949	0.092407	0.17083	0.11311	-2.3146	-2.8292	-2.7146	-2.8208	-2.8688	-2.8292	-2.875	-3.1875	-2.6625	-2.8042	-2.9583	-2.5333	-3.0417	-2.8521	-2.7542	-3.0521	82.725	97.053	38.313	194.068	-75.589	129.732	189.601	-98.789	-61.441	121.267	196.534	29.905	-29.960	-70.268	181.491	-91.960	6.4849e-05	0.00039432	9.4305e-05	1446.7	5.0945e-06	5.6677e-06	1009.2	410.56	8.2548e-06	3.5786e-06	279.97	62.76	94.402	24.098	2.4791e-06	17.994	0.002104	0.0028904	0.00080139	1422.1	3.0708e-05	3.2934e-05	1004.2	406.03	3.2542e-05	3.4277e-05	286.26	65.936	96.724	24.815	3.374e-05	19.346	214.992	237.493	-52.397	-86.160	59.087	249.851	-87.200	-82.185	31.563	-23.974	-84.701	-80.340	-78.629	-73.893	-9.294	-76.090	-8191	255	
15261.441	1	1	0	0	0.28846	0.12149	0.35204	0.15141	0.26539	0.23195	0.26206	0.31794	0.20514	0.12317	0.15722	0.14116	0.16095	0.24535	0.20917	0.3457	-2.3688	-2.6813	-2.6583	-2.8104	-2.9583	-2.9	-2.8271	-3.1167	-2.8396	-3.0083	-2.9729	-2.8271	-3.0062	-2.8146	-2.8292	-3.0667	-23.496	-12.011	5.740	248.048	-1.392	259.041	188.694	232.829	-24.468	-23.187	177.744	235.480	8.897	240.339	110.539	221.980	3.7693e-05	0.00044391	7.3617e-05	1439.2	3.4488e-06	6.1735e-06	995.19	404.6	3.0444e-06	9.1873e-06	274.69	61.035	92.07	23.644	5.7907e-06	17.865	0.002299	0.0031242	0.00086152	1419.7	3.2318e-05	3.3049e-05	988	399.9	3.0824e-05	3.1841e-05	278.84	64.064	93.92	24.219	3.0317e-05	19.069	250.875	-51.376	-16.314	-86.454	129.035	73.550	-87.437	-82.286	138.073	-21.406	-84.211	-80.287	-78.662	-74.257	-22.508	-76.080	-8191	255	
15261.537	1	1	0	0	0.29103	0.058994	0.11297	0.11433	0.15981	0.19678	0.21487	0.094955	0.11029	0.18242	0.12263	0.27698	0.28074	0.32722	0.061089	0.11873	-2.3625	-2.8479	-2.975	-2.6771	-2.8521	-2.8021	-2.8854	-3.1937	-2.6604	-2.8521	-3.0854	-2.7313	-3.025	-2.7917	-2.5854	-3.1354	218.297	150.920	131.573	137.622	100.330	-60.006	217.294	108.180	92.028	-85.820	-68.180	131.843	190.302	-90.934	-87.555	174.267	7.5849e-05	0.00075463	0.00014505	1420.3	8.0693e-06	3.1066e-06	996.05	402.54	2.3175e-06	4.2428e-06	279.02	61.81	93.405	23.816	2.6823e-06	17.782	0.002111	0.0028383	0.00079513	1406.1	3.0924e-05	3.2085e-05	989.24	399.61	3.1582e-05	3.3036e-05	282.2	65.004	95.238	24.572	3.2423e-05	19.267	241.242	50.706	-76.557	-86.149	0.635	-87.230	-87.120	-82.199	49.738	145.551	-84.303	-80.978	-78.458	-74.136	-92.073	-76.221	-8191	255	
15261.656	1	1	0	0	0.16456	0.059748	0.15941	0.23036	0.11368	0.19701	0.20609	0.21456	0.25458	0.19876	0.14001	0.25085	0.02401	0.11975	0.086625	0.39987	-2.3083	-2.5417	-2.8542	-2.7354	-2.7521	-2.8979	-2.8583	-3.2188	-2.7167	-2.7354	-3.1646	-2.6729	-2.9458	-2.8646	-2.5521	-2.9771	127.471	-30.278	164.491	196.269	178.264	188.085	187.043	230.408	141.916	64.216	-53.332	-8.067	229.428	230.637	66.372	184.462	6.1613e-06	0.00076571	0.00016249	1435.1	3.3953e-06	1.6357e-06	1002.4	407.58	2.0774e-06	1.9177e-06	281.37	62.574	93.808	23.944	3.4125e-06	17.855	0.0022978	0.0030922	0.00087262	1420.5	3.361e-05	3.5035e-05	997.25	404.18	3.3244e-05	3.4916e-05	285.5	65.831	96.151	24.732	3.3163e-05	19.333	-94.945	-80.210	35.832	-86.305	34.708	106.595	-87.380	-82.195	241.434	256.110	-84.503	-80.910	-78.132	-74.067	34.795	-76.143	-8191	255	
15261.752	1	1	0	0	0.20111	0.081987	0.11459	0.21383	0.069475	0.25412	0.1474	0.27183	0.19142	0.0969	0.25682	0.15184	0.055451	0.1462	0.14013	0.26743	-2.3417	-2.5417	-2.9646	-2.7896	-2.8229	-2.9458	-2.9562	-3.2583	-2.9042	-2.7229	-2.9375	-2.6562	-2.8875	-2.8292	-2.7	-3.0479	166.426	-9.812	211.206	-57.993	248.660	190.748	1.770	190.025	181.885	81.976	188.034	45.872	225.530	186.440	51.485	-86.147	4.6522e-05	0.0004035	8.5695e-05	1438.2	4.0553e-06	3.9078e-06	997.93	407.73	3.8401e-06	9.4752e-06	278.65	61.934	93.587	23.661	6.0157e-06	17.683	0.0022995	0.0030926	0.00087309	1420.7	3.3883e-05	3.4351e-05	996.37	404.15	3.4258e-05	3.6138e-05	283.83	65.383	95.984	24.736	3.6995e-05	19.343	240.308	-23.555	28.232	-86.325	6.338	88.895	-87.219	-82.249	31.909	21.428	-84.397	-80.981	-78.374	-74.146	-64.313	-76.150	-8191	255	
15261.825	1	1	0	0	0.32755	0.057874	0.16679	0.17111	0.20726	0.20168	0.2459	0.34114	0.13197	0.30153	0.10896	0.12244	0.16798	0.40854	0.041507	0.076584	-2.5062	-2.6542	-2.8792	-2.7667	-2.6771	-3.0417	-2.7833	-3.175	-2.7062	-2.5604	-3.1771	-2.7271	-2.7771	-2.9375	-2.6896	-2.9667	176.907	88.559	77.202	228.524	59.492	-18.649	194.289	206.110	244.194	133.243	214.638	3.480	-27.030	214.225	184.004	134.890	7.8785e-05	0.00053589	0.00018452	1434.5	5.9701e-06	7.1685e-06	993.98	406.03	3.6617e-06	2.2422e-06	275.9	61.36	93.215	23.687	5.7857e-06	17.524	0.002547	0.0034014	0.00098067	1418.8	3.6643e-05	3.8157e-05	991.03	402.8	3.6426e-05	3.7511e-05	283.03	64.972	95.622	24.603	3.7188e-05	19.145	-99.357	-15.743	109.433	-86.222	-60.875	-64.014	-87.524	-82.242	119.800	28.845	-84.589	-81.176	-78.258	-74.291	92.988	-75.971	-8191	255	
15261.944	1	1	0	0	0.17671	0.22619	0.19663	0.12679	0.089532	0.23181	0.28315	0.14408	0.1344	0.092802	0.048362	0.11857	0.10691	0.17553	0.26919	0.13219	-2.5146	-2.6208	-2.8083	-2.9646	-2.6271	-2.9375	-2.675	-3.1625	-2.9417	-2.6854	-3.0354	-2.9271	-2.7792	-2.9313	-2.7125	-3.0271	203.321	133.563	243.690	-22.201	168.534	160.947	152.290	214.212	144.112	155.757	254.293	191.274	254.094	-39.237	161.058	236.098	4.8244e-05	0.00068784	0.00012213	1433.9	7.3047e-06	3.1843e-06	993.18	406.63	3.5351e-06	7.0528e-06	278.1	61.86	92.862	23.762	3.6702e-06	17.661	0.0025114	0.0034041	0.00096853	1419.2	3.6331e-05	3.809e-05	991.56	403.8	3.7498e-05	3.9544e-05	285.58	65.717	96.325	24.885	4.1921e-05	19.558	196.437	-76.001	204.843	-86.280	14.097	-47.934	-87.339	-82.392	18.538	150.457	-84.222	-80.458	-78.455	-73.887	183.003	-76.353	-8191	255	
15262.040	1	1	0	0	0.19114	0.015994	0.35396	0.14222	0.10936	0.20069	0.16046	0.20391	0.15711	0.031095	0.039892	0.26621	0.21993	0.19884	0.19117	0.092335	-2.5104	-2.4292	-2.8417	-3.0458	-2.6354	-2.9333	-2.8937	-2.9083	-3.0208	-2.5083	-2.9375	-3.1083	-3	-3.0396	-2.775	-2.7875	-18.589	-67.973	130.714	245.292	64.109	90.344	203.329	154.741	-58.669	11.404	-89.359	-44.503	253.469	209.904	77.555	70.281	4.0087e-05	0.00070447	0.00024153	1443	6.0559e-06	5.9364e-06	998.75	406.25	8.4823e-06	9.0125e-06	277.38	61.632	93.027	23.629	5.3915e-06	17.548	0.0028393	0.0038155	0.0011002	1429.4	4.0127e-05	4.2357e-05	1001.5	405.03	4.0379e-05	4.279e-05	286.48	65.864	96.052	24.769	4.0842e-05	19.478	-5.195	-32.007	-4.894	-86.283	160.832	117.433	-87.375	-82.096	240.526	-85.292	-84.701	-80.545	-78.550	-74.245	66.710	-76.327	-8191	255	
15262.137	1	1	0	0	0.14043	0.16383	0.32006	0.14375	0.064538	0.15544	0.18981	0.13987	0.18304	0.17082	0.043383	0.047531	0.14889	0.18769	0.31769	0.28559	-2.4771	-2.6458	-2.8333	-2.8521	-2.6792	-3.1271	-2.975	-2.8187	-3.0667	-2.7208	-3.0833	-2.9083	-2.8438	-3.0104	-2.8917	-2.8896	247.294	146.021	-37.279	-69.743	125.995	60.934	184.938	234.636	-78.259	39.857	19.138	-11.473	-43.405	34.522	32.440	77.859	6.7706e-05	0.00065456	0.00022922	1438.4	3.1449e-06	3.7983e-06	1001	406.85	5.0551e-06	1.1128e-05	276.68	61.952	92.915	23.765	7.0174e-06	17.207	0.0027092	0.0037087	0.001061	1426.3	3.8849e-05	4.1284e-05	998.24	405.45	3.9046e-05	4.1607e-05	284.81	65.37	96.072	24.855	4.0404e-05	19.172	-85.204	191.161	-4.532	-86.219	-55.853	-47.282	-87.315	-82.217	84.060	79.528	-84.446	-80.360	-78.441	-74.213	165.415	-76.579	-8191	255	
15262.257	1	1	0	0	0.16263	0.097975	0.20915	0.4244	0.32899	0.040499	0.10599	0.15975	0.21374	0.21305	0.18984	0.12669	0.18305	0.1663	0.10495	0.17774	-2.7521	-2.5	-2.6583	-2.9417	-2.7125	-2.8438	-2.9062	-2.9375	-2.8625	-2.6875	-2.9875	-2.9104	-2.8771	-2.9146	-2.8354	-2.6208	63.172	258.383	-32.886	224.879	84.922	166.271	245.928	212.357	130.856	-6.467	190.148	-68.649	138.505	168.102	16.460	13.708	9.0097e-05	0.00021254	0.00029766	1437.3	5.7782e-06	1.9805e-06	991.34	406.34	4.3003e-06	7.7297e-06	279.42	61.685	93.965	24.066	5.0391e-06	17.473	0.002708	0.0037357	0.0010621	1423.3	3.9194e-05	4.2087e-05	989.53	404.95	4.0451e-05	4.418e-05	286.46	65.89	97.314	25.174	4.2845e-05	19.422	170.822	-5.675	-21.932	-86.222	224.093	88.176	-87.187	-82.147	-25.473	59.284	-84.778	-80.733	-78.800	-73.934	26.623	-76.696	-8191	255	
15262.353	1	1	0	0	0.074576	0.17225	0.13728	0.39511	0.13006	0.25187	0.2349	0.25209	0.16126	0.038973	0.067448	0.22335	0.28571	0.11022	0.32086	0.12503	-2.4938	-2.5187	-2.7667	-3.2	-2.7229	-3.0042	-3.0896	-2.8083	-2.9229	-2.7458	-2.8688	-3.0396	-2.8042	-2.8396	-2.8458	-2.7271	-89.655	-37.467	193.931	161.089	-31.719	249.228	210.587	-70.967	196.159	-99.079	105.713	-50.463	203.291	-16.985	244.063	214.860	4.6026e-05	0.0004461	0.00016432	1435.3	4.629e-06	9.6729e-06	992.09	405.22	3.7815e-06	5.3829e-06	277.35	61.289	93.936	23.669	5.3789e-06	17.431	0.0028732	0.0039387	0.0010962	1425.5	3.9776e-05	4.1637e-05	990.36	404.03	3.8282e-05	4.0487e-05	284.27	65.22	96.372	24.781	3.8852e-05	19.265	157.518	-52.707	-45.864	-86.468	34.549	-43.623	-87.313	-82.151	53.711	1.128	-84.627	-80.690	-78.394	-74.391	80.459	-76.747	-8191	255	
15262.449	1	1	0	0	0.0284	0.13204	0.22363	0.21457	0.1886	0.064288	0.10566	0.23075	0.12872	0.040695	0.39944	0.032082	0.067441	0.1986	0.10815	0.18031	-2.5917	-2.7292	-2.7521	-3.0125	-2.6	-2.9167	-3.15	-2.7771	-2.9021	-2.7479	-2.7979	-3.0958	-2.6604	-2.9125	-2.8625	-2.7021	238.873	50.972	-24.728	205.397	-91.600	45.033	201.266	214.740	190.653	6.480	177.155	11.538	237.867	-43.365	122.498	166.287	0.00010292	0.00030925	0.00036282	1437.5	4.6484e-06	8.2075e-06	993.8	406.75	6.3326e-06	4.7172e-06	279.44	61.62	93.63	23.93	8.7352e-06	17.514	0.0026847	0.0036811	0.0010333	1424.4	3.9245e-05	4.1551e-05	993.25	405.3	3.9694e-05	4.1937e-05	286.25	65.765	96.798	24.954	3.9323e-05	19.255	150.327	58.555	29.535	-86.390	82.919	62.223	-87.279	-82.279	164.923	-59.937	-84.041	-80.636	-78.410	-73.961	114.271	-76.463	-8191	255	
15262.546	1	1	0	0	0.086133	0.078643	0.22474	0.20378	0.16907	0.19442	0.27363	0.24972	0.32187	0.14032	0.12767	0.10201	0.10324	0.32889	0.15586	0.1256	-2.5146	-2.7438	-2.6813	-3.0625	-2.7	-2.8979	-2.9958	-2.9188	-3.175	-2.925	-2.7062	-3.2458	-2.6604	-2.9021	-2.8708	-2.7958	-50.595	146.096	132.281	166.937	-83.528	-6.254	192.712	173.844	122.692	184.746	238.970	-22.105	-85.971	205.089	38.479	138.876	5.2109e-05	0.00069354	0.00014496	1438.2	3.6264e-06	1.6109e-06	990.86	407.17	5.7136e-06	8.1813e-06	276.11	61.039	92.715	23.444	6.5403e-06	17.31	0.0026912	0.0036839	0.0010217	1423.6	3.9407e-05	4.1284e-05	991.16	405.36	4.0704e-05	4.2333e-05	283.31	64.887	96.443	24.741	4.0229e-05	19.14	-75.834	175.097	18.092	-86.230	4.112	-92.156	-87.135	-82.281	-54.633	80.200	-84.555	-80.947	-78.333	-73.903	29.037	-76.855	-8191	255	
15262.640	1	1	0	0	0.17692	0.14751	0.15759	0.12636	0.17836	0.20167	0.22212	0.23853	0.25157	0.22487	0.26051	0.32415	0.26772	0.040059	0.10253	0.2455	-2.6958	-2.7021	-2.7458	-3.1896	-2.6708	-2.7646	-3.1208	-2.7771	-3.0062	-2.7479	-2.7604	-2.975	-2.8083	-2.8604	-2.9125	-2.7562	7.918	99.071	-73.677	151.179	80.435	21.522	172.136	241.584	169.279	-94.233	256.996	240.168	224.307	30.307	116.904	102.099	0.00010597	0.00090636	0.00018814	1436.4	5.129e-06	4.5845e-06	987.24	405.09	2.5499e-06	5.6959e-06	272.41	60.392	93.117	23.547	7.7598e-06	17.141	0.0028176	0.0038216	0.001066	1421.9	4.1619e-05	4.3326e-05	985.5	403.57	4.2789e-05	4.4006e-05	282.11	65.034	96.425	24.83	4.3146e-05	19.287	247.481	-32.773	-77.366	-86.351	105.164	-34.365	-87.285	-82.178	-89.835	89.631	-84.637	-80.988	-78.124	-74.146	190.661	-76.385	-8191	255	
15262.736	1	1	0	0	0.16628	0.12695	0.21366	0.29262	0.11258	0.052768	0.23507	0.30213	0.21547	0.2003	0.10293	0.10647	0.22449	0.11932	0.098953	0.21388	-2.4521	-2.8104	-2.6729	-3.1208	-2.7562	-2.8312	-3.275	-2.8542	-2.8604	-3.0292	-2.6354	-2.875	-2.8167	-3.0104	-2.9104	-2.7125	128.720	230.931	46.018	228.522	-1.278	-10.058	-88.550	159.530	157.635	68.915	-14.954	237.883	247.842	202.941	166.206	205.666	9.0645e-05	0.0014265	0.00027325	1439.8	5.0584e-06	4.2895e-06	989.55	405.18	6.54e-07	2.3594e-06	274.3	60.83	92.945	23.605	6.2423e-06	17.136	0.003046	0.0040432	0.0011422	1428.3	4.4724e-05	4.6392e-05	992.11	405.72	4.516e-05	4.5757e-05	285.54	65.712	96.938	24.909	4.5018e-05	19.371	173.378	4.054	-50.600	-86.175	71.328	79.529	-87.240	-82.294	-37.485	78.704	-84.578	-80.472	-78.201	-73.584	123.058	-76.400	-8191	255	
15262.832	1	1	0	0	0.13986	0.11063	0.054616	0.10029	0.31894	0.10499	0.17355	0.066764	0.12789	0.089462	0.14862	0.11149	0.30449	0.14563	0.17675	0.14448	-2.4917	-2.8208	-2.4646	-3.1417	-2.8417	-2.7875	-3.1375	-2.9396	-2.8542	-2.9688	-2.6854	-3.0646	-2.9	-2.8167	-3.0979	-2.7625	-16.209	111.049	171.124	205.840	72.760	213.416	140.062	92.339	229.236	-68.709	177.701	-82.589	-94.731	-21.734	165.413	167.688	9.3177e-05	0.00033447	6.0091e-05	1438.5	4.6197e-06	6.4427e-06	989.52	406.4	5.1588e-06	5.781e-06	275.98	61.43	93.174	23.736	3.4476e-06	17.037	0.0031209	0.0041597	0.001185	1428.4	4.5064e-05	4.6645e-05	994.84	406.26	4.5393e-05	4.7223e-05	287.01	66.041	97.086	25.021	4.6417e-05	19.48	198.426	62.973	-5.972	-86.388	31.862	42.810	-87.234	-82.162	-2.291	87.945	-84.671	-80.637	-78.596	-73.857	-85.652	-76.643	-8191	255	
15262.953	1	1	0	0	0.1643	0.11949	0.20806	0.092477	0.16784	0.19489	0.19882	0.13775	0.31879	0.21393	0.25911	0.14222	0.16724	0.12619	0.29004	0.17826	-2.375	-2.8979	-2.7021	-3.0354	-2.8646	-2.6708	-3.0563	-3.05	-2.7604	-3.0458	-2.6917	-3.0062	-2.9083	-2.6583	-2.9854	-2.8229	-22.574	155.999	142.193	240.128	137.660	170.178	156.903	36.861	-22.832	59.391	250.690	95.603	161.069	84.055	233.325	177.198	9.78e-05	0.00048788	0.00012993	1432.6	6.1336e-06	6.4959e-06	986.6	404.5	4.342e-06	8.4677e-06	272.36	60.703	92.298	23.439	7.1925e-06	17	0.0031566	0.004248	0.0011959	1429.3	4.4727e-05	4.5936e-05	991.52	404.73	4.4012e-05	4.6209e-05	283.83	65.203	96.372	24.752	4.6171e-05	19.215	196.344	-77.796	-48.535	-86.205	70.038	-96.032	-87.391	-82.237	33.828	-27.111	-84.585	-80.907	-78.599	-74.279	-31.704	-76.800	-8191	255	
15263.049	1	1	0	0	0.18363	0.12147	0.21554	0.075307	0.15791	0.21653	0.14677	0.28875	0.18159	0.32519	0.12864	0.24936	0.18014	0.11684	0.14734	0.10968	-2.3208	-2.8958	-2.5875	-3.1271	-2.9	-2.625	-3.2062	-3.025	-2.8042	-3.0187	-2.7604	-2.8625	-2.9521	-2.6437	-2.9562	-2.6229	0.297	223.515	-3.684	29.476	142.364	223.684	150.165	226.822	52.305	81.237	-62.008	215.978	229.172	-75.023	-33.209	-25.071	6.793e-05	0.00057415	0.00022135	1429.5	1.0487e-05	8.305e-06	982.94	402.49	3.1571e-06	5.4206e-06	274.13	60.375	92.901	23.474	2.4925e-06	17.058	0.0031306	0.0042242	0.0012187	1426.1	4.5217e-05	4.7011e-05	985.84	403.79	4.491e-05	4.737e-05	284.58	65.342	96.905	24.844	4.6685e-05	19.292	-68.339	-29.952	3.512	-86.358	95.464	108.777	-87.522	-82.240	11.485	33.494	-84.718	-80.817	-78.179	-74.188	39.006	-76.587	-8191	255	
15263.121	1	1	0	0	0.18537	0.061629	0.22419	0.089358	0.23787	0.18464	0.04713	0.12619	0.15996	0.2612	0.072511	0.15732	0.1883	0.22005	0.021543	0.30052	-2.2271	-2.8604	-2.7333	-3.0396	-3.1688	-2.6771	-3.1396	-2.9104	-2.725	-3.0833	-2.8125	-2.8438	-3.0854	-2.8021	-2.9708	-2.8792	111.497	-85.970	-67.246	227.248	128.228	-98.904	230.040	175.077	6.895	-66.145	103.904	-87.006	240.226	-76.889	220.554	107.484	3.3835e-05	0.00047371	7.8111e-06	1436.1	6.0717e-06	3.6174e-06	986.18	405.24	2.6654e-06	8.3827e-06	274.23	60.517	92.852	23.412	8.7645e-06	17.093	0.0030932	0.0042119	0.0011954	1424.1	4.3833e-05	4.6586e-05	990.61	404.06	4.3436e-05	4.6813e-05	284.74	65.242	96.405	24.823	4.566e-05	19.251	47.464	-3.941	-19.449	-86.182	-82.766	-32.922	-87.366	-82.278	-55.519	89.727	-84.599	-80.169	-78.482	-74.261	132.225	-76.990	-8191	255	
15263.217	1	1	0	0	0.09081	0.12283	0.055774	0.30928	0.034563	0.063449	0.33285	0.2783	0.076626	0.15774	0.18621	0.031536	0.08625	0.17537	0.045382	0.059801	-2.2042	-3.0542	-2.6708	-2.9562	-3.1167	-2.725	-3.1042	-2.9354	-2.7542	-3.1125	-2.8021	-2.85	-3.0479	-2.6896	-3.0812	-3.0833	254.058	-15.354	219.784	224.088	29.612	-33.643	217.044	200.429	116.530	16.983	181.389	198.778	-91.067	179.781	132.673	210.838	0.000121	0.00069632	0.00029009	1431.8	7.5597e-06	5.5682e-06	985.39	403.85	1.2455e-06	7.3481e-06	276.35	61.183	93.316	23.664	6.006e-06	17.134	0.0029973	0.004102	0.0011525	1425.7	4.2639e-05	4.5349e-05	988.04	403.94	4.2556e-05	4.5818e-05	285.26	65.22	96.57	24.838	4.3689e-05	19.084	241.196	238.803	-97.909	-86.255	95.636	185.363	-87.256	-82.191	231.113	-40.083	-84.557	-81.006	-78.126	-74.419	35.422	-76.348	-8191	255	
15263.338	1	1	0	0	0.099963	0.19201	0.13073	0.19348	0.077319	0.058053	0.35337	0.26404	0.038432	0.10416	0.12401	0.22498	0.15364	0.28741	0.21563	0.14716	-2.0938	-2.9542	-2.7125	-2.9562	-2.9375	-2.8167	-3.0771	-2.9292	-2.6729	-2.9375	-2.8563	-2.6562	-3.0875	-2.8729	-2.8312	-3.0042	47.348	-85.264	3.624	-99.642	3.696	-8.963	201.282	211.126	-64.234	1.985	9.101	247.463	-44.168	107.610	80.430	256.015	8.7748e-05	0.00087924	8.5881e-05	1430.5	5.4056e-06	1.2259e-05	980.47	404.22	1.6576e-06	5.448e-06	273.85	59.76	92.251	23.461	1.4958e-06	16.805	0.0028909	0.0039673	0.0011166	1420.3	4.1885e-05	4.4936e-05	984.24	403.65	4.2661e-05	4.5543e-05	282.51	64.421	95.904	24.636	4.3763e-05	18.861	255.483	20.914	146.971	-86.300	44.140	63.843	-87.166	-82.262	114.024	160.149	-84.788	-80.429	-78.299	-74.199	-68.785	-77.001	-8191	255	
15263.434	1	1	0	0	0.088734	0.017461	0.26631	0.19077	0.21231	0.24461	0.20434	0.12206	0.19971	0.25775	0.12008	0.15909	0.20064	0.34079	0.076998	0.16271	-2.2438	-3.0958	-2.7792	-2.8146	-2.9313	-2.6521	-2.9333	-3.0542	-2.6813	-2.9667	-2.7667	-2.6667	-3.0479	-2.7687	-2.7687	-3.1125	234.308	173.491	51.762	247.102	133.924	-46.335	145.357	217.108	221.535	158.372	85.019	-74.508	134.027	186.418	-95.544	219.608	8.0174e-05	0.00051131	0.00029652	1422.3	6.0993e-06	6.9897e-06	975.52	400.62	3.7795e-06	2.6211e-06	270.11	59.61	91.106	23.345	1.1817e-06	16.772	0.0029585	0.0040861	0.0011582	1415.2	4.3232e-05	4.5817e-05	980	400.08	4.3107e-05	4.5678e-05	280.78	64.024	95.287	24.531	4.3482e-05	18.859	218.395	-34.278	53.722	-86.345	239.986	-5.576	-87.410	-81.851	223.546	-32.860	-84.457	-80.373	-78.297	-74.126	184.005	-76.784	-8191	255	
15263.530	1	1	0	0	0.2306	0.080182	0.12981	0.14556	0.12193	0.024313	0.19638	0.19986	0.09425	0.1894	0.089571	0.193	0.3365	0.14284	0.13587	0.17984	-2.2354	-2.8167	-2.7458	-2.7875	-2.9417	-2.6146	-2.9521	-3.1458	-2.7354	-2.9229	-3.0333	-2.6292	-3.0125	-2.8229	-2.6146	-2.8917	103.993	207.927	-30.277	0.483	-16.735	-30.522	141.341	238.944	-68.938	63.232	-70.103	110.722	-92.078	44.218	193.433	113.674	0.0001794	0.00068565	0.0002973	1428.1	3.9888e-06	7.6934e-06	982.91	404.61	1.7957e-06	8.0446e-06	274.3	60.327	92.965	23.511	3.9177e-08	17.11	0.0029995	0.0041383	0.0011412	1419	4.411e-05	4.6584e-05	986.51	403.38	4.4129e-05	4.6893e-05	284.05	64.97	96.911	24.854	4.563e-05	19.223	204.108	16.237	-43.392	-86.252	-55.296	131.564	-87.286	-82.088	-63.866	-28.964	-84.732	-80.663	-78.723	-73.920	-88.805	-76.628	-8191	255	
15263.626	1	1	0	0	0.11859	0.087191	0.092974	0.26984	0.17001	0.23594	0.40129	0.074726	0.02283	0.1592	0.16582	0.52607	0.18101	0.19245	0.16758	0.18503	-2.1646	-2.85	-2.8646	-2.8771	-3.0229	-2.8875	-2.6937	-3.0312	-2.4875	-2.8146	-2.9646	-2.6375	-3.0458	-2.7458	-2.8	-3.0667	126.094	63.768	240.846	188.293	99.465	-55.448	-81.359	245.035	231.364	148.896	249.670	246.145	179.518	6.758	194.447	199.410	0.00012731	0.00088772	0.00018522	1443.5	4.3007e-06	7.8977e-06	992.75	407.76	2.0627e-06	6.4344e-06	275.26	60.918	93.48	23.537	3.682e-06	17.036	0.0032189	0.0044359	0.0012399	1435.1	4.8396e-05	5.0954e-05	997.53	407.63	4.8054e-05	5.0049e-05	287.46	65.826	97.73	25.102	4.7786e-05	19.487	182.320	13.626	100.283	-86.110	121.150	8.236	-87.126	-82.332	-14.627	205.839	-84.613	-81.020	-78.074	-73.973	20.647	-76.932	-8191	255	
15263.745	1	1	0	0	0.095801	0.048136	0.25418	0.31745	0.22288	0.10852	0.2486	0.34168	0.1884	0.10076	0.10928	0.27802	0.14719	0.13743	0.083699	0.066846	-2.225	-3.0354	-2.85	-2.8563	-3.0375	-2.7583	-2.7125	-3.1375	-2.8604	-2.8042	-3.0271	-2.7125	-2.8583	-2.8958	-2.5687	-2.925	126.464	-33.915	121.221	249.428	-64.225	156.421	212.687	218.174	23.393	157.732	66.109	171.201	195.376	254.860	231.878	147.202	8.9639e-05	0.00077407	9.3814e-05	1438.1	6.1933e-06	9.3309e-06	983.11	404.47	5.6566e-06	1.0486e-05	271.66	60.002	92.715	23.584	5.1954e-06	16.86	0.0032964	0.0044482	0.0012243	1432.3	4.6961e-05	4.8405e-05	987.51	405.36	4.5549e-05	4.8096e-05	283.16	64.873	96.865	24.931	4.7061e-05	19.18	178.791	-42.053	-71.806	-86.172	128.644	56.565	-87.185	-82.233	-55.670	-7.074	-84.460	-80.692	-78.232	-74.023	19.169	-76.299	-8191	255	
15263.818	1	1	0	0	0.23932	0.071042	0.1193	0.25387	0.20481	0.23888	0.11134	0.228	0.14641	0.080682	0.097934	0.244	0.099572	0.097209	0.058659	0.37012	-2.3729	-2.6583	-3.0354	-2.8458	-2.9688	-2.8479	-2.8833	-3.15	-2.8688	-2.6937	-3.0208	-2.8021	-3.0604	-2.9688	-2.5979	-2.9562	12.383	90.944	135.929	251.583	151.248	181.835	187.076	208.619	224.435	187.076	221.434	-92.678	-86.016	236.461	2.333	214.870	0.00011044	0.00090853	0.00020051	1433.4	2.2005e-06	9.114e-06	978.38	406.42	2.376e-06	8.9614e-06	272.66	60.44	93.455	23.643	2.836e-06	16.992	0.0033206	0.0044354	0.0012433	1427.4	4.7446e-05	4.8739e-05	985.04	405.72	4.7277e-05	5.0012e-05	285.34	65.682	97.725	25.129	5.0207e-05	19.472	127.446	8.096	-26.031	-86.345	-52.840	-0.570	-87.479	-82.309	-32.042	7.310	-84.780	-80.538	-78.483	-74.218	69.209	-76.224	-8191	255	
15263.937	1	1	0	0	0.096335	0.10749	0.20046	0.15766	0.059872	0.19948	0.36277	0.16046	0.082149	0.253	0.14033	0.28597	0.14902	0.02855	0.27891	0.13236	-2.2896	-2.6167	-2.8958	-2.7104	-2.8771	-2.9167	-2.8979	-2.9229	-2.5417	-2.7604	-3.3417	-2.8812	-2.9979	-2.9208	-2.8667	-2.9146	-92.501	-78.542	162.848	186.016	256.584	108.478	144.268	181.105	33.626	130.517	184.817	136.970	-80.092	-9.395	171.810	-72.765	3.6321e-05	0.00057398	0.00028192	1445.9	2.4163e-06	7.1656e-06	987.45	407.18	6.4996e-06	5.8649e-06	276.16	60.57	92.925	23.514	4.033e-06	16.86	0.003478	0.0046732	0.0013361	1438.5	5.064e-05	5.2221e-05	995.05	408.38	5.028e-05	5.2589e-05	288.19	66.034	97.893	25.112	5.2138e-05	19.615	180.328	-21.203	-54.314	-86.414	49.560	89.512	-87.463	-82.181	-80.761	186.049	-84.406	-80.469	-78.067	-74.418	160.802	-75.993	-8191	255	
15264.033	1	1	0	0	0.22357	0.16409	0.21407	0.2541	0.023549	0.3332	0.20189	0.15738	0.073574	0.21893	0.083902	0.099073	0.10419	0.12093	0.07909	0.092941	-2.3167	-2.4583	-2.9437	-2.9708	-2.7917	-2.9833	-2.7	-3.1479	-2.8792	-2.7771	-3.0833	-2.8187	-2.8208	-3.05	-2.6833	-2.9583	26.706	161.788	77.363	251.526	256.424	112.422	187.250	198.005	214.697	219.982	160.611	203.769	17.181	29.406	212.698	219.722	1.7128e-05	0.00021815	0.00025593	1434.8	6.987e-06	5.2109e-06	988.46	407.99	5.0535e-06	3.3197e-06	274.35	60.736	93.166	23.645	1.7727e-06	16.962	0.0035164	0.0048091	0.0013747	1437.7	5.1908e-05	5.4181e-05	1001.5	409.48	5.1712e-05	5.3934e-05	288.86	66.286	97.814	25.167	5.117e-05	19.567	244.128	-94.855	-32.320	-86.278	-50.419	38.702	-87.355	-82.226	47.359	101.641	-84.764	-80.279	-78.115	-74.021	18.237	-76.288	-8191	255	
15264.129	1	1	0	0	0.10037	0.12665	0.014801	0.021235	0.26762	0.21987	0.34148	0.084525	0.29127	0.11834	0.18944	0.18167	0.29112	0.24957	0.20063	0.20521	-2.4604	-2.5333	-2.9792	-2.9813	-2.5854	-3.0042	-2.7896	-3.0938	-2.8958	-2.5833	-2.8771	-2.7458	-2.9437	-3.0375	-2.575	-2.8146	218.374	98.204	96.067	106.340	-32.949	41.488	226.325	194.580	115.029	242.555	-94.395	145.557	182.269	237.443	176.760	-59.822	4.8055e-05	0.0010064	0.000144	1435.9	8.7191e-06	5.6777e-06	981.67	407.93	7.3389e-06	6.9175e-06	272.33	60.565	93.497	23.657	4.9858e-06	16.739	0.0034268	0.0046401	0.0013401	1437.3	5.0747e-05	5.2935e-05	994.47	409	5.0766e-05	5.3746e-05	287.05	66.032	98.23	25.331	5.3674e-05	19.515	219.424	25.063	43.655	-86.362	49.944	-90.415	-87.403	-82.068	30.122	37.629	-84.875	-81.088	-78.444	-73.674	34.695	-76.425	-8191	255	
15264.226	1	1	0	0	0.12478	0.11369	0.10037	0.16874	0.23818	0.18141	0.24989	0.30961	0.23081	0.18018	0.20203	0.079965	0.15546	0.20229	0.11498	0.12208	-2.3979	-2.7812	-2.8063	-2.8979	-2.6063	-2.9708	-2.8521	-2.9354	-2.8479	-2.6729	-2.9083	-2.8146	-2.5333	-2.9875	-2.7271	-2.675	232.547	-44.983	171.686	-71.586	50.384	-25.883	151.667	185.784	143.287	-50.405	243.127	221.167	-39.945	-64.982	222.453	111.145	9.6457e-05	0.0002663	8.2704e-05	1438.9	4.0954e-06	6.1003e-06	982.95	406.41	2.972e-06	9.948e-06	273.88	60.376	92.618	23.543	3.5241e-06	16.853	0.0036503	0.0050112	0.0014125	1438.9	5.2172e-05	5.5809e-05	994.04	408.06	5.1393e-05	5.5173e-05	287.7	66.046	97.689	25.194	5.2942e-05	19.511	-99.119	181.234	-49.561	-86.466	14.394	66.535	-87.465	-82.133	197.227	-13.029	-84.225	-80.616	-78.291	-74.345	-23.299	-76.317	-8191	255	
15264.346	1	1	0	0	0.11342	0.24771	0.28844	0.086734	0.1626	0.11096	0.25985	0.21114	0.21786	0.073616	0.18167	0.084203	0.13934	0.23505	0.15423	0.26578	-2.6937	-2.5938	-2.9042	-3.0521	-2.7583	-2.9542	-2.9771	-2.9021	-3.0208	-2.7021	-2.9667	-2.8979	-2.6271	-2.9625	-2.6271	-2.7	124.432	93.592	110.460	216.221	58.921	-16.567	188.009	253.041	-58.638	120.385	-22.929	29.361	-78.601	235.282	-57.160	9.335	3.4479e-05	0.00089924	0.0001122	1440.8	1.641e-06	4.0078e-06	983.69	406.15	3.1647e-06	5.4002e-06	275.3	60.422	93.137	23.696	6.1845e-06	17.036	0.0035623	0.0049196	0.0013622	1435.8	5.0537e-05	5.3623e-05	994.09	407.98	5.0671e-05	5.4096e-05	287.77	66.064	98.022	25.287	5.2642e-05	19.564	1.108	-1.398	140.284	-86.256	56.449	95.661	-87.178	-82.195	143.602	158.784	-84.724	-80.636	-78.426	-74.028	170.025	-76.236	-8191	255	
15264.418	1	1	0	0	0.10137	0.1249	0.25539	0.2084	0.17966	0.16621	0.16095	0.27816	0.17271	0.11157	0.10406	0.27329	0.18816	0.18224	0.20133	0.27881	-2.6562	-2.5625	-2.8688	-2.9813	-2.7729	-2.9208	-2.9271	-2.8042	-2.8521	-2.7625	-2.9042	-2.9646	-2.5854	-2.9917	-2.9146	-2.7083	2.547	170.669	233.347	208.844	-90.809	-7.136	152.212	214.872	117.349	-27.557	-95.773	115.764	186.125	96.276	45.595	210.456	6.7895e-05	0.0011121	0.00019841	1438.1	6.2216e-06	1.1364e-05	988.41	408.09	3.719e-06	8.2995e-06	276.6	61.518	93.253	23.965	6.5698e-06	17.222	0.0035226	0.0048815	0.0013662	1437.2	5.1256e-05	5.4375e-05	997.84	409.23	5.1259e-05	5.4222e-05	289.64	66.649	98.552	25.494	5.254e-05	19.663	224.473	-51.610	-1.217	-86.222	89.082	141.703	-87.229	-82.145	-64.605	141.382	-84.637	-81.007	-78.325	-74.157	101.621	-76.314	-8191	255	
15264.514	1	1	0	0	0.1061	0.13303	0.18105	0.094479	0.038113	0.096703	0.093442	0.19003	0.1035	0.11988	0.080365	0.23221	0.42901	0.13097	0.28106	0.27824	-2.7729	-2.6688	-2.85	-3.2542	-2.6708	-3.0521	-2.875	-2.7042	-3.0479	-2.8958	-2.8625	-3.1167	-2.7021	-2.9188	-2.8146	-2.7979	49.919	191.047	-35.456	256.556	-61.199	-64.199	191.446	-77.517	-82.729	173.461	99.878	-44.887	217.899	46.278	180.411	7.114	2.3862e-05	0.00081897	0.00020116	1438.4	4.5069e-06	1.3204e-05	982.28	408.57	5.3531e-06	8.9147e-06	272.32	59.908	92.568	23.671	5.9715e-06	16.739	0.0035532	0.0048518	0.001349	1437.5	5.0891e-05	5.4096e-05	991.41	408.69	4.9833e-05	5.2007e-05	284.97	65.024	97.315	25.091	4.8872e-05	19.168	-3.119	-28.291	36.583	-86.440	129.815	21.308	-87.366	-82.209	14.392	-26.404	-84.267	-80.709	-78.140	-74.373	73.757	-76.574	-8191	255	
15264.610	1	1	0	0	0.18998	0.1444	0.20111	0.1893	0.35109	0.286	0.21026	0.37787	0.095378	0.058138	0.11079	0.14186	0.14613	0.074827	0.21444	0.22024	-2.6479	-2.7313	-2.6396	-3.1063	-2.7438	-2.8812	-3.0021	-2.8375	-2.9062	-2.7875	-2.7896	-2.9938	-2.7	-3.0646	-2.7833	-2.6896	103.004	-78.994	174.082	225.248	60.881	211.082	242.804	185.263	-56.932	221.759	196.083	-96.085	229.436	234.415	239.362	-47.748	0.00011108	0.00074582	0.00021587	1434.2	4.4195e-06	6.0471e-06	977.87	407.18	4.5331e-06	1.0075e-05	273.9	60.797	93.633	23.818	2.5831e-06	16.81	0.0033994	0.0046465	0.0012933	1431	4.9585e-05	5.2263e-05	986.77	407.62	4.9147e-05	5.1795e-05	286.14	65.807	98.082	25.321	5.0453e-05	19.504	-72.308	-90.085	64.253	-86.067	68.101	-25.255	-87.296	-82.386	-70.237	47.072	-84.744	-80.882	-78.267	-74.108	49.369	-76.053	-8191	255	
15264.729	1	1	0	0	0.20499	0.28153	0.17828	0.22439	0.32318	0.15522	0.084113	0.23124	0.04254	0.13277	0.16279	0.28569	0.29522	0.072769	0.21007	0.22406	-2.4875	-2.8917	-2.725	-2.9938	-2.7958	-2.8812	-3.125	-2.7729	-2.9688	-2.9437	-2.7396	-3.1437	-2.5604	-2.8312	-2.7875	-2.7354	19.251	63.998	4.165	225.732	-89.711	-38.810	168.420	209.740	255.064	71.212	34.374	237.392	-87.696	-75.991	-48.194	98.426	0.00012462	0.00048492	0.0001502	1440.8	4.0934e-06	3.5433e-06	986.06	408.01	1.0115e-05	2.1583e-05	276.09	61.22	93.862	23.864	5.3553e-06	16.973	0.0035312	0.0047986	0.0013401	1438	5.2183e-05	5.4805e-05	994.36	409.91	5.3097e-05	5.5132e-05	289.98	66.765	98.889	25.524	5.1993e-05	19.649	-80.077	33.557	-35.564	-86.334	-91.841	109.192	-87.317	-82.191	-3.128	91.399	-84.562	-81.060	-78.652	-74.183	118.188	-76.278	-8191	255	
15264.825	1	1	0	0	0.17045	0.082619	0.13935	0.1687	0.070315	0.1797	0.31824	0.15379	0.032332	0.12716	0.097836	0.18329	0.12979	0.25033	0.2643	0.1026	-2.4917	-2.7104	-2.5896	-3.0771	-2.8937	-2.7792	-3.0438	-2.8688	-2.8021	-2.75	-2.6375	-2.85	-2.7562	-2.7208	-2.9771	-2.7021	-79.156	-94.051	187.435	130.886	-1.318	-28.505	184.983	-96.936	47.464	-0.850	84.555	-63.302	237.847	218.133	52.050	-69.936	6.7694e-05	0.00041585	0.00011537	1435.2	4.1977e-06	5.9355e-06	983.17	407.25	1.3849e-06	4.8569e-06	275.86	60.976	93.6	23.827	1.0713e-05	17.121	0.0035959	0.0047829	0.0013389	1438.3	5.1467e-05	5.3629e-05	994.16	409.37	4.9991e-05	5.1978e-05	288.25	66.305	98.303	25.369	4.9638e-05	19.619	213.506	-97.242	47.821	-86.514	121.689	139.211	-87.230	-82.206	-71.223	19.138	-84.824	-80.536	-78.608	-73.815	32.702	-76.792	-8191	255	
15264.921	1	1	0	0	0.010681	0.14212	0.041585	0.048632	0.35457	0.14483	0.27143	0.26709	0.077386	0.17796	0.24544	0.14823	0.08318	0.32008	0.12086	0.18077	-2.4729	-2.6917	-2.7438	-3.0104	-2.5687	-2.7313	-3.1167	-2.8771	-2.8896	-2.9688	-2.6292	-3.1333	-2.8167	-2.8	-2.9583	-2.5563	254.149	26.760	217.990	-28.258	139.382	-93.941	178.643	220.030	40.926	-99.501	-37.012	-74.461	87.364	242.585	149.592	-52.694	4.0667e-05	0.0004388	0.00011047	1441.7	2.1768e-06	2.9207e-06	985.58	408.27	4.0354e-06	6.6888e-06	274.17	60.495	93.605	24.093	5.5366e-06	16.834	0.003408	0.0045907	0.0012851	1438.6	5.0082e-05	5.1891e-05	989.42	409.5	5.1132e-05	5.3563e-05	287.47	66.236	98.937	25.623	5.2928e-05	19.569	-86.534	-33.159	-5.342	-86.443	138.091	57.059	-87.313	-82.095	104.197	-3.791	-84.749	-80.745	-78.505	-74.107	164.304	-76.452	-8191	255	
15265.018	1	1	0	0	0.12034	0.29991	0.24399	0.22018	0.26765	0.15485	0.16357	0.3801	0.24345	0.2906	0.0089191	0.035618	0.056005	0.20865	0.10108	0.24932	-2.6042	-2.9562	-2.6	-3.3333	-2.9083	-2.6333	-3.2729	-2.8187	-2.7896	-3.0708	-2.8187	-3.0625	-2.8354	-2.8667	-2.8917	-2.6771	1.337	84.262	217.340	-64.951	-5.350	44.665	171.601	238.774	180.806	67.639	-19.297	-58.893	222.328	-37.497	144.341	117.579	6.2227e-05	8.8726e-05	8.6026e-05	1439.2	3.3576e-06	3.4943e-06	980.12	409.01	2.9752e-06	1.241e-05	272.81	60.348	93.174	23.737	3.9145e-06	16.965	0.0036251	0.0048262	0.0013622	1439.9	5.1188e-05	5.2951e-05	990.35	409.17	4.9908e-05	5.1995e-05	285.97	65.817	97.953	25.29	5.0336e-05	19.491	230.983	-12.757	52.660	-85.989	45.148	58.905	-87.449	-82.125	15.725	105.991	-84.339	-80.905	-78.593	-74.380	-56.426	-76.520	-8191	255	
15265.114	1	1	0	0	0.18608	0.10969	0.22525	0.091399	0.15447	0.16231	0.17876	0.18002	0.22322	0.11845	0.169	0.27184	0.24215	0.33817	0.2123	0.16381	-2.2792	-2.825	-2.8583	-3.0875	-2.8521	-2.7313	-2.9917	-2.8667	-2.6063	-3.0146	-2.725	-3.0458	-2.9125	-2.775	-2.9875	-2.8833	132.798	237.156	-79.176	166.402	158.570	52.316	216.973	188.826	115.767	-7.612	251.986	200.918	211.290	230.833	63.624	-96.280	5.2081e-05	0.00072259	0.00031691	1438.1	8.7324e-06	7.1998e-07	986.9	409.34	1.415e-06	9.2223e-06	274.5	60.355	93.945	23.982	3.3442e-06	17.188	0.0034363	0.004627	0.0013345	1437.7	5.0263e-05	5.3043e-05	994.16	410.89	5.0877e-05	5.3748e-05	288.38	66.433	98.932	25.52	5.2145e-05	19.612	229.066	29.507	7.817	-86.224	197.159	112.104	-87.329	-82.234	-57.580	69.025	-84.662	-80.797	-78.520	-74.034	29.316	-76.535	-8191	255	
15265.210	1	1	0	0	0.055258	0.1546	0.30001	0.19439	0.099953	0.11479	0.22832	0.23996	0.20364	0.21868	0.055536	0.039354	0.38083	0.19792	0.13843	0.064011	-2.3458	-2.8917	-2.5771	-3.0917	-2.9396	-2.6833	-3.1333	-2.8146	-2.7458	-2.9979	-2.6896	-2.9	-2.8271	-2.6417	-2.9813	-2.7167	130.355	-10.467	40.583	210.064	-98.151	129.505	152.786	113.850	-68.079	235.280	197.698	140.373	-68.746	254.905	171.744	88.799	7.0523e-05	0.00029756	6.3009e-05	1442.1	4.7318e-06	7.3602e-06	985.18	408.25	2.931e-06	6.1827e-06	277.32	61.219	93.919	24.019	3.5738e-06	17.173	0.0034299	0.004609	0.0013245	1437.9	4.9162e-05	5.2645e-05	993.09	410.64	5.0522e-05	5.4578e-05	290.87	66.738	98.988	25.635	5.3149e-05	19.729	234.629	239.185	214.893	-86.352	-50.233	200.501	-87.227	-82.169	73.905	91.131	-84.857	-80.824	-78.220	-74.152	-84.176	-75.872	-8191	255	
15265.306	1	1	0	0	0.11731	0.1509	0.10514	0.19015	0.3156	0.20705	0.12507	0.15416	0.14505	0.43556	0.14	0.16458	0.15726	0.14597	0.23753	0.19274	-2.3667	-2.8979	-2.6396	-3.0083	-2.8	-2.6958	-3.1208	-3.0333	-2.6479	-3	-2.8083	-2.9167	-2.9813	-2.5938	-2.8458	-2.7896	161.224	202.236	-88.442	229.056	65.769	146.896	111.558	149.471	165.505	-47.705	246.415	220.943	110.483	144.172	21.855	157.863	6.6909e-05	0.00053757	0.00012435	1440.4	3.4062e-06	6.932e-06	979.43	409.08	5.2428e-06	1.8238e-05	271.93	60.018	93.25	23.723	1.5511e-06	16.838	0.0035441	0.0048835	0.0013737	1440.9	5.0913e-05	5.4721e-05	991.62	410.34	5.176e-05	5.5511e-05	286.79	65.584	98.404	25.479	5.4328e-05	19.582	259.280	217.292	36.601	-86.369	256.194	-37.783	-87.118	-82.316	0.733	35.961	-84.716	-80.937	-78.615	-74.452	-40.299	-76.562	-8191	255	
15265.427	1	1	0	0	0.043644	0.1913	0.18435	0.28922	0.19124	0.032513	0.03582	0.31668	0.073117	0.22832	0.23488	0.14534	0.050893	0.3222	0.16815	0.040128	-2.3917	-2.9917	-2.8479	-2.8958	-3.1042	-2.85	-2.9688	-3.1646	-2.5771	-3.0187	-2.8104	-2.8375	-3.1167	-2.6729	-3.0187	-2.9083	242.923	-96.065	-61.844	205.653	88.678	242.750	118.786	165.122	129.662	139.583	34.912	110.819	-54.783	-94.795	-12.219	195.514	9.7699e-05	0.00059613	0.00037635	1439.1	2.0217e-06	6.6474e-06	976.01	406.86	6.2123e-06	8.6348e-06	272.45	60.39	93.781	23.823	9.1933e-07	16.96	0.0036406	0.0050735	0.0014237	1440.3	5.3671e-05	5.7032e-05	990.91	409.03	5.4545e-05	5.8032e-05	288.4	66.041	98.833	25.549	5.6049e-05	19.666	167.237	-47.093	33.100	-86.209	78.652	59.199	-87.545	-82.197	85.514	33.425	-84.450	-80.894	-78.641	-73.943	173.970	-76.309	-8191	255	
15265.521	1	1	0	0	0.24274	0.055363	0.294	0.14363	0.20754	0.099645	0.17672	0.41705	0.1165	0.16329	0.23217	0.050325	0.29033	0.45346	0.21166	0.085113	-2.2021	-2.9688	-2.8812	-2.7958	-2.9688	-2.6542	-3	-3.1729	-2.6104	-3.0708	-2.8042	-2.7938	-3.1979	-2.575	-2.7625	-3.0104	-95.028	-4.914	-26.792	176.299	30.967	54.524	138.727	164.239	5.471	185.909	120.554	247.264	199.985	216.491	257.447	235.839	0.00016536	0.00082259	0.00014203	1439	3.7887e-06	7.1779e-06	982.81	409.06	7.8009e-06	1.9629e-06	273.6	60.249	93.664	23.9	1.8448e-06	16.829	0.0037982	0.0052536	0.0014703	1443.6	5.5294e-05	5.8939e-05	995.21	410.85	5.5032e-05	5.8429e-05	288.34	66.313	99	25.671	5.7647e-05	19.836	233.055	25.055	3.131	-86.266	66.901	198.262	-87.112	-82.117	-0.944	0.613	-84.708	-80.910	-78.355	-74.232	228.035	-76.572	-8191	255	
15265.619	1	1	0	0	0.071757	0.134	0.10622	0.41294	0.10168	0.24744	0.052462	0.17832	0.15669	0.23394	0.13567	0.16912	0.044757	0.085715	0.26869	0.057397	-2.2583	-2.825	-2.7042	-2.725	-3.0354	-2.8146	-2.8417	-3.0792	-2.5875	-2.7	-3.0792	-2.6188	-2.9	-2.5958	-2.7208	-2.7708	160.471	9.710	223.189	-96.484	70.686	169.254	159.273	212.711	-48.498	18.176	193.983	213.589	97.718	186.209	56.525	-91.970	4.3936e-05	0.00065167	0.00015604	1447.5	2.7133e-06	8.881e-06	990.41	410.02	6.1452e-06	4.1441e-06	275.68	61.053	93.491	23.952	2.8858e-06	16.887	0.0039397	0.0054342	0.0015162	1451.1	5.7887e-05	6.229e-05	1003.6	413.15	5.793e-05	6.1809e-05	292.01	66.957	99.586	25.78	5.7372e-05	19.907	205.176	43.560	-5.831	-86.340	245.018	114.530	-87.371	-82.312	203.472	63.330	-84.923	-80.959	-78.457	-73.846	-99.774	-76.489	-8191	255	
15265.715	1	1	0	0	0.16431	0.36156	0.22036	0.27526	0.24866	0.23894	0.16341	0.14417	0.15574	0.05734	0.14648	0.18293	0.093451	0.10499	0.13533	0.088404	-2.0708	-2.7667	-2.7771	-2.65	-3.0146	-2.8646	-2.8042	-3.1708	-2.6312	-3.025	-2.7479	-2.6042	-3.0604	-2.8167	-2.7542	-3.0771	116.761	46.653	-12.399	212.174	214.189	-30.093	231.542	173.123	-8.818	-90.591	-34.174	-52.723	-25.460	-96.048	195.057	146.903	0.00011097	0.00089197	0.00012188	1449.8	3.8913e-06	1.702e-06	988.02	411.63	7.6685e-06	7.2319e-06	273.86	60.188	94.608	23.928	7.7893e-06	16.71	0.0039546	0.0055388	0.0015206	1454.7	6.0448e-05	6.5398e-05	1002.1	416.29	6.3316e-05	6.8077e-05	292.84	67.249	101.09	26.176	6.3454e-05	19.938	-86.999	-18.573	21.642	-86.179	75.427	257.280	-87.180	-82.238	86.833	121.710	-84.610	-80.455	-78.443	-73.939	77.208	-76.494	-8191	255	
15265.809	1	1	0	0	0.091316	0.13598	0.12186	0.33559	0.15397	0.063219	0.12774	0.032425	0.041146	0.031857	0.11187	0.12453	0.26642	0.092215	0.038105	0.040341	-2.1979	-2.6937	-2.9083	-2.7583	-2.9021	-2.6979	-2.8896	-3.1937	-2.6708	-2.7958	-2.9521	-2.5542	-3.1167	-2.6771	-2.5687	-3.0583	-63.951	145.327	165.950	225.638	-27.981	202.005	187.920	98.608	196.732	-0.577	-38.729	160.612	70.615	-82.354	105.451	112.779	6.6765e-05	0.00076395	0.00015231	1453.2	2.8867e-06	7.1261e-06	985.2	411.6	4.3316e-06	1.2864e-05	274.04	60.206	94.566	24.174	4.1655e-06	17.021	0.0043455	0.005888	0.001644	1460.8	6.4018e-05	6.714e-05	1003.9	416.71	6.4416e-05	6.6858e-05	293.25	67.402	100.75	26.121	6.3288e-05	20.16	-9.467	88.287	-71.969	-86.188	72.717	47.257	-87.316	-82.159	48.060	83.973	-84.721	-80.906	-78.317	-74.300	146.407	-76.201	-8191	255	
15265.906	1	1	0	0	0.28355	0.11694	0.13073	0.22828	0.17647	0.16931	0.054597	0.43654	0.28011	0.19082	0.17932	0.10253	0.37732	0.237	0.17011	0.097661	-2.6063	-2.8	-2.9896	-2.7667	-2.9	-2.7083	-2.7292	-3.1396	-2.6875	-2.7375	-2.9562	-2.7354	-2.9021	-2.8271	-2.7167	-2.9396	-73.882	257.226	77.997	104.910	172.024	128.089	19.163	252.744	255.323	-37.843	156.708	191.485	185.461	210.212	11.081	-78.098	0.00013392	0.00097228	0.00012464	1449.6	9.3728e-06	1.0569e-05	991.53	412.87	3.1019e-06	2.391e-06	275.44	60.345	94.691	24.14	5.3344e-06	16.734	0.0044481	0.0060789	0.0017128	1465.5	6.6899e-05	7.0151e-05	1010.9	418.58	6.7966e-05	7.1393e-05	295.69	68.19	101.76	26.258	6.7579e-05	20.307	-97.933	-30.743	249.767	-86.313	167.473	47.809	-87.055	-82.014	116.144	162.502	-84.552	-80.804	-78.327	-74.340	-35.666	-76.492	-8191	255	
15266.026	1	1	0	0	0.22295	0.065771	0.24718	0.10052	0.17464	0.21546	0.079434	0.21341	0.12506	0.12005	0.050088	0.11937	0.12649	0.10276	0.20648	0.19442	-2.2458	-2.7146	-2.9646	-2.7583	-2.9771	-2.9188	-2.9229	-2.9042	-2.8375	-2.6417	-2.8208	-2.7208	-2.8958	-2.8667	-2.6521	-2.85	-22.322	17.691	89.426	110.990	-15.549	154.718	210.191	235.921	104.371	-45.693	135.875	-76.311	71.281	149.537	91.088	-90.062	0.00016937	0.001148	6.5565e-05	1458.7	1.0458e-05	5.0761e-06	990.52	415.09	5.178e-06	4.2358e-06	276.15	61.059	95.704	24.322	1.2976e-05	16.733	0.0046469	0.0062826	0.0018078	1474.8	6.8846e-05	7.1479e-05	1012.4	421.57	6.9002e-05	7.2019e-05	298.61	69.184	103.19	26.674	7.3389e-05	20.766	227.786	-14.898	-62.261	-86.149	102.001	144.800	-87.361	-82.165	-38.590	133.901	-84.505	-80.774	-78.159	-73.837	39.711	-76.254	-8191	255	
15266.122	1	1	0	0	0.10919	0.1673	0.08837	0.17002	0.15928	0.10566	0.32053	0.29685	0.17722	0.30742	0.21168	0.19814	0.17497	0.070998	0.17998	0.1535	-2.2875	-2.5563	-2.7958	-2.6312	-2.7104	-2.9979	-2.6958	-3.0062	-2.9083	-2.6458	-2.9604	-2.6813	-2.6979	-2.9146	-2.75	-2.9708	139.812	-42.932	53.980	158.264	181.465	106.405	192.051	-93.526	-33.744	93.838	147.622	201.806	169.614	-62.991	-1.183	234.184	0.00016415	0.0013512	5.0991e-05	1452.2	4.9161e-06	3.4828e-06	986.04	413.95	1.026e-05	1.0516e-05	272.73	59.546	93.495	23.627	4.209e-06	16.428	0.0050008	0.0067447	0.0018985	1474	7.1056e-05	7.4111e-05	1009.3	419.41	7.1205e-05	7.5275e-05	295.55	67.753	101.02	26.115	7.1901e-05	20.157	249.014	-13.969	130.373	-86.204	-36.810	-38.111	-87.455	-82.261	-22.323	42.552	-84.923	-80.727	-78.423	-73.959	-31.373	-76.737	-8191	255	
15266.219	1	1	0	0	0.025689	0.14333	0.18503	0.44201	0.1541	0.099938	0.15789	0.101	0.10322	0.18902	0.16901	0.08448	0.06955	0.27379	0.27442	0.32867	-2.4542	-2.5625	-2.9417	-2.7521	-2.6937	-2.9958	-2.6354	-2.9292	-2.9292	-2.4292	-2.9667	-2.5729	-2.7896	-3	-2.7104	-2.9417	152.870	-97.344	20.995	228.308	195.967	251.383	99.754	215.351	232.235	-30.443	234.268	-83.567	218.649	232.840	-85.981	-35.538	7.8077e-05	0.00089386	0.00011188	1454	4.2434e-06	5.0535e-06	973.88	410.06	1.3864e-05	9.5755e-07	269.97	59.516	93.787	23.68	1.1154e-05	16.579	0.0048067	0.0065046	0.0018426	1463.9	6.8737e-05	7.2988e-05	1000.4	415.29	6.7595e-05	7.2225e-05	292.77	67.355	100.78	26.142	7.2853e-05	20.39	94.775	-2.104	-60.772	-86.464	107.984	70.952	-87.275	-82.216	-2.364	24.247	-84.728	-80.710	-78.388	-74.069	134.632	-76.460	-8191	255	
15266.290	1	1	0	0	0.1445	0.029757	0.15958	0.22794	0.12415	0.21712	0.10089	0.1458	0.0696	0.28045	0.06496	0.24415	0.087349	0.086542	0.19894	0.22592	-2.4271	-2.6125	-2.85	-2.9833	-2.75	-3.0271	-2.8333	-3.0333	-2.9542	-2.6208	-2.7687	-2.8146	-2.6708	-3.0563	-2.8271	-2.8542	74.507	181.652	38.136	-84.055	49.618	210.811	235.940	214.972	179.567	133.477	-86.823	183.607	-37.985	143.649	3.528	172.875	0.00015003	0.0010402	0.00018923	1457.5	4.7118e-06	9.5323e-06	985.58	413.42	2.7277e-06	8.1474e-06	273.76	60.269	95.292	23.886	4.3568e-06	16.469	0.0049398	0.0068645	0.0019723	1474.3	7.3069e-05	7.8491e-05	1012.4	420.55	7.3076e-05	7.8226e-05	298.23	68.811	102.68	26.474	7.2609e-05	20.202	-91.982	216.342	-41.514	-86.309	169.426	35.446	-87.097	-82.133	-43.211	-55.788	-84.918	-80.822	-78.582	-74.224	204.266	-76.749	-8191	255	
15266.411	1	1	0	0	0.24463	0.093654	0.33103	0.336	0.11211	0.24548	0.28156	0.2623	0.22557	0.23655	0.15701	0.077932	0.11684	0.24084	0.24608	0.11961	-2.4667	-2.4646	-2.8458	-2.9479	-2.7417	-3.1167	-2.8063	-2.8438	-3.0792	-2.6063	-3.0896	-2.7917	-2.4167	-3.0062	-2.8396	-2.6937	226.766	53.753	222.100	222.168	81.572	108.941	210.001	-78.451	44.201	221.925	228.724	-59.584	22.575	187.474	134.213	208.653	6.3266e-05	0.00094216	0.00012165	1440.2	2.1293e-06	7.3e-07	975.04	410.65	2.7358e-06	7.7501e-06	271.19	59.662	93.937	23.561	2.0865e-06	16.362	0.0046796	0.0063085	0.0017713	1454.4	6.2861e-05	6.6022e-05	992.43	412.91	6.0015e-05	6.4264e-05	289.88	66.49	99.762	25.722	6.1148e-05	19.419	208.298	33.252	-23.550	-86.253	200.822	89.661	-87.584	-82.120	103.739	84.167	-84.716	-80.618	-78.144	-74.010	208.000	-76.227	-8191	255	
15266.507	1	1	0	0	0.061204	0.22175	0.0719	0.32068	0.153	0.29173	0.15736	0.38561	0.31391	0.17085	0.08087	0.11144	0.065263	0.12053	0.11837	0.26639	-2.3875	-2.6375	-2.9104	-2.9458	-2.6542	-2.9042	-2.7583	-2.9333	-2.9021	-2.5292	-2.7979	-2.7396	-2.6292	-3.1042	-2.7875	-2.75	22.241	49.361	198.736	212.436	61.822	1.771	182.580	239.526	-5.362	252.020	177.275	240.737	-11.207	221.489	91.912	-66.410	0.00011835	0.0011158	0.00010019	1437.5	2.4825e-06	2.9978e-06	961.26	409.4	4.5959e-06	5.5905e-06	269.68	58.834	92.949	23.584	9.6965e-06	16.167	0.0040297	0.0055864	0.0015693	1442.1	5.9753e-05	6.491e-05	983.11	412.5	6.3147e-05	6.7937e-05	287.93	66.09	99.825	25.766	6.652e-05	19.589	-72.598	63.134	34.615	-86.223	196.797	37.177	-87.322	-82.229	44.222	255.915	-84.481	-80.431	-78.429	-73.617	31.543	-76.679	-8191	255	
15266.603	1	1	0	0	0.20708	0.11472	0.046619	0.18679	0.12949	0.10554	0.1622	0.058878	0.18851	0.24059	0.10336	0.064749	0.11387	0.24943	0.14999	0.088798	-2.4521	-2.65	-2.7646	-2.8688	-2.6646	-3.0208	-2.85	-2.7104	-3.0083	-2.7812	-2.8417	-2.9271	-2.5479	-2.9729	-2.6063	-2.6896	157.129	32.278	-70.573	171.494	67.865	148.549	158.767	139.041	150.148	36.095	-10.750	141.359	154.339	192.557	220.998	49.173	6.5252e-05	0.00060657	0.00016606	1436.2	7.5426e-06	8.8406e-06	960.18	403.42	3.098e-06	5.1963e-06	265.85	57.952	91.576	23.042	2.633e-06	15.825	0.0045174	0.0062037	0.0017252	1447.3	6.4289e-05	6.7557e-05	981.51	408.39	6.0936e-05	6.396e-05	283.2	64.467	97.305	24.919	5.79e-05	18.941	227.504	33.761	48.936	-86.358	22.348	238.528	-87.213	-82.051	15.500	7.970	-84.763	-81.123	-78.301	-74.128	89.276	-76.443	-8191	255	
15266.699	1	1	0	0	0.13347	0.2603	0.088695	0.32174	0.15378	0.041474	0.13316	0.32465	0.11822	0.10718	0.15241	0.30567	0.17924	0.37195	0.15524	0.065703	-2.4354	-2.6688	-2.6833	-2.8542	-2.4708	-2.7271	-3	-2.7771	-2.7917	-2.7938	-2.7396	-2.85	-2.3479	-2.9667	-2.7458	-2.4813	-79.208	233.576	182.650	220.340	-16.565	142.180	121.496	224.271	-12.698	64.654	169.414	206.375	-65.318	246.687	248.648	179.620	9.9574e-05	0.0005167	0.000138	1416.7	2.4116e-06	3.4613e-06	966.01	401	8.7138e-06	4.1132e-06	267.63	58.423	91.471	23.073	3.8713e-06	16.201	0.0039177	0.0054452	0.0015118	1426.7	5.8159e-05	6.118e-05	977.71	403.59	5.7084e-05	6.0419e-05	283.13	64.605	97.663	25.105	6.1063e-05	19.395	161.312	0.130	-31.191	-86.411	247.864	245.289	-87.435	-82.161	58.513	194.384	-84.774	-80.216	-78.377	-73.925	-74.556	-75.927	-8191	255	
15266.818	1	1	0	0	0.020804	0.066952	0.13915	0.074281	0.10819	0.45037	0.14265	0.31597	0.30443	0.084928	0.13885	0.20928	0.27065	0.3006	0.17161	0.035026	-2.4854	-2.8375	-2.8292	-2.8771	-2.6375	-2.8417	-2.8729	-2.5833	-2.8458	-2.6917	-2.85	-2.9562	-2.6208	-2.8187	-2.9375	-2.6854	66.155	-22.941	181.868	243.340	16.892	188.154	164.701	227.067	17.705	252.928	-88.086	220.141	205.641	173.372	209.024	173.675	4.0898e-05	0.00026052	0.00021661	1438.6	3.3602e-06	7.9465e-06	977.77	409.46	1.7099e-06	3.146e-06	270.45	59.576	95.046	23.944	9.0679e-06	16.404	0.004296	0.005971	0.0016861	1448.7	6.5444e-05	6.8661e-05	996.73	414.06	6.6927e-05	7.0176e-05	292.18	67.345	101.37	26.232	6.9876e-05	20.218	201.363	-97.163	-7.628	-86.254	237.051	30.094	-87.284	-82.163	-18.293	46.970	-84.630	-80.686	-78.622	-74.236	-9.416	-76.529	-8191	255	
15266.914	1	1	0	0	0.18534	0.1641	0.18673	0.37099	0.06477	0.034315	0.15862	0.17158	0.096741	0.29236	0.294	0.20979	0.38545	0.20602	0.17926	0.16047	-2.4333	-2.5146	-2.5479	-2.9188	-2.5521	-2.6667	-3.1229	-2.7021	-2.9	-2.8312	-2.9083	-2.9062	-2.7062	-2.7771	-2.9813	-2.4417	247.444	15.175	115.536	249.124	65.756	-1.978	159.516	247.370	-7.928	140.253	104.936	60.030	-42.525	27.442	121.895	254.194	3.1185e-05	0.00041375	0.00025977	1457.3	1.1539e-05	6.6485e-06	968.13	411.54	5.673e-06	4.2466e-06	269.02	59.175	94.97	23.77	3.2157e-06	16.194	0.0048777	0.0066598	0.0018905	1471	7.2754e-05	7.5783e-05	997.73	418.61	7.3002e-05	7.6796e-05	293.24	67.6	102.41	26.33	7.2378e-05	20.07	54.597	17.398	53.767	-86.260	62.715	84.635	-87.685	-82.231	42.721	1.138	-84.404	-80.849	-78.399	-73.994	165.307	-76.378	-8191	255	
15266.986	1	1	0	0	0.21841	0.18875	0.19257	0.12003	0.14318	0.20505	0.23278	0.21395	0.20607	0.37317	0.22768	0.13989	0.18954	0.18287	0.12985	0.23975	-2.4625	-2.8083	-2.5563	-3.025	-2.7458	-2.6417	-2.8375	-2.7021	-2.9813	-2.5854	-2.5833	-2.9354	-2.7958	-2.7833	-2.9188	-2.6458	231.385	25.821	176.922	214.787	148.888	-42.871	141.136	186.570	122.938	136.879	207.413	198.654	248.007	242.628	89.128	236.408	3.2327e-05	0.00057453	0.00032046	1440.2	5.7319e-06	1.2976e-05	975.19	408.72	7.9591e-06	7.8737e-06	271.22	58.771	93.119	23.575	6.3055e-06	16.278	0.0048272	0.0063836	0.0017952	1455.7	6.7845e-05	7.0104e-05	992.46	414.36	6.7721e-05	7.0345e-05	291.04	66.683	100.36	25.864	6.8994e-05	19.884	228.536	3.301	123.220	-86.361	172.272	72.383	-87.458	-82.218	237.949	-72.891	-84.261	-80.534	-78.474	-74.508	10.706	-76.396	-8191	255	
15267.107	1	1	0	0	0.25911	0.14185	0.17497	0.29741	0.11926	0.091406	0.24675	0.026754	0.080343	0.14447	0.11934	0.14055	0.15924	0.16609	0.18111	0.14019	-2.5125	-2.5979	-2.4833	-3.1437	-2.6562	-2.6958	-3.1458	-2.7083	-2.9167	-2.7812	-2.8146	-2.8792	-2.9437	-2.8	-2.9562	-2.5646	205.823	-25.807	141.430	250.681	178.534	39.408	194.461	-22.001	-52.313	206.129	231.929	194.863	73.438	-1.565	9.173	115.723	5.5408e-05	0.00019158	4.0024e-05	1442.9	6.2496e-06	3.9817e-06	979.34	410.17	7.7495e-06	1.2191e-05	273.39	59.247	94.335	24.021	3.7635e-06	16.371	0.0047084	0.0064008	0.0018187	1460.8	6.9379e-05	7.2851e-05	1000.4	416.5	6.9665e-05	7.2508e-05	294.27	67.741	101.66	26.42	7.3584e-05	20.389	202.316	-39.582	145.629	-86.429	105.775	194.229	-87.248	-82.240	210.541	91.687	-84.583	-80.976	-78.400	-74.017	49.719	-76.261	-8191	255	
15267.203	1	1	0	0	0.26094	0.11435	0.23125	0.25033	0.25702	0.11175	0.21801	0.29638	0.11222	0.11349	0.18263	0.1834	0.15551	0.27127	0.0094632	0.14007	-2.4146	-2.8937	-2.5979	-3.1021	-2.6125	-2.8	-3.0667	-2.8708	-2.7979	-2.7812	-2.6063	-2.8833	-2.6625	-2.6708	-2.9562	-2.5396	43.361	98.876	236.962	153.953	134.663	98.100	233.257	126.799	-59.959	164.343	24.514	66.300	255.395	5.344	196.169	-54.583	0.00012599	0.0004295	0.00010609	1452.1	9.4188e-06	1.2039e-05	983.24	411.58	2.6231e-06	8.2258e-06	273.21	59.454	94.176	23.685	5.5443e-06	16.417	0.0050358	0.0068391	0.0019459	1472.9	7.1468e-05	7.4106e-05	1006.5	417.03	6.7546e-05	7.0278e-05	293.64	67.478	100.9	26.05	6.7716e-05	19.94	248.281	87.211	204.892	-86.323	33.481	21.319	-87.355	-82.296	-46.160	124.476	-84.613	-80.950	-78.414	-73.664	144.263	-76.523	-8191	255	
15267.299	1	1	0	0	0.073767	0.13054	0.062646	0.16269	0.10215	0.28607	0.18717	0.17267	0.024869	0.14852	0.036981	0.2557	0.24987	0.13903	0.10215	0.23428	-2.3479	-2.9583	-2.3396	-3.0312	-2.7125	-2.6354	-3.1521	-2.9521	-2.8854	-2.9021	-2.7417	-2.8083	-2.8146	-2.6208	-3.0104	-2.6958	75.287	232.113	18.841	181.714	164.345	153.143	184.197	254.486	118.634	191.828	-52.058	108.527	248.497	-47.241	77.884	217.830	8.1396e-05	0.00067558	0.00042037	1443.2	1.7358e-06	1.0279e-05	968.18	408.89	6.4505e-06	1.0244e-05	270.25	59.187	93.519	23.741	7.3084e-06	16.248	0.0044815	0.006044	0.0016879	1453.7	6.1442e-05	6.4484e-05	984.88	412.43	6.1536e-05	6.5825e-05	288.76	66.285	100.16	25.942	6.665e-05	19.768	238.994	43.373	70.288	-86.261	-79.019	24.366	-87.333	-82.177	55.259	251.634	-84.650	-80.647	-78.584	-74.272	96.941	-76.369	-8191	255	
15267.420	1	1	0	0	0.30418	0.095624	0.20494	0.18963	0.17265	0.10776	0.27154	0.36082	0.18176	0.21595	0.14576	0.078085	0.19619	0.21249	0.20022	0.15481	-2.2083	-2.8875	-2.5542	-3.0875	-2.8146	-2.6375	-2.9917	-2.9688	-2.7333	-2.7833	-2.7229	-2.9792	-2.9042	-2.6396	-2.7958	-2.8438	125.253	140.381	151.294	237.954	161.148	159.928	197.545	217.248	134.273	-4.636	-50.563	25.562	-61.832	139.783	248.670	-51.668	8.9434e-05	0.00083768	0.00015706	1446.7	7.1391e-06	9.8858e-06	979	410.84	2.8759e-06	6.1318e-07	271.61	59.537	94.27	23.98	5.5691e-06	16.489	0.0044337	0.0060911	0.0017185	1457.7	6.3943e-05	6.8321e-05	995.3	415.67	6.3431e-05	6.7277e-05	291.64	66.825	101.04	26.109	6.4317e-05	19.775	-98.368	2.588	53.883	-86.316	158.617	121.767	-87.248	-82.345	-18.471	206.683	-85.163	-80.869	-78.492	-74.027	117.534	-76.535	-8191	255	
#DATA ENDS
