BOXY.EXE: ISS Imagent and Oximeter Data Acquisition Program Version 0.80
Ascii Record File

#ACQ INFORMATION
2  Detector Channels 
16  External MUX Channels 
1  Auxiliary Channels 
5000  Waveform (CCF) Frequency (Hz)
1  Waveforms Skipped 
30  Waveforms Averaged 
1  Cycles Averaged 
16  Acquisitions per Waveform 
10.0806  Updata Rate (Hz) 

#FILE INFORMATION
TRUE -- External MUX Channel results are PARSED.
FALSE -- AC DC and Phase are NOT grouped.
TRUE -- Companion Program Settings File CREATED.
FALSE -- AC data not excluded
FALSE -- DC data not excluded
FALSE -- Phase data not excluded
FALSE -- Auxillary Chn. data not excluded
Tab delimiters

#CALIBRATION STATE
TRUE -- Waveform Calibration Values APPLIED.


#AUX CALIBRATION VALUES
Val Type	aux-1	

Term	1.0000e+00	
Factor	0.0000e+00	


#WF CALIBRATION VALUES
A = Detector Channel
Val Type	A-AC1	A-AC2	A-AC3	A-AC4	A-AC5	A-AC6	A-AC7	A-AC8	A-AC9	A-AC10	A-AC11	A-AC12	A-AC13	A-AC14	A-AC15	A-AC16	A-DC1	A-DC2	A-DC3	A-DC4	A-DC5	A-DC6	A-DC7	A-DC8	A-DC9	A-DC10	A-DC11	A-DC12	A-DC13	A-DC14	A-DC15	A-DC16	A-Ph1	A-Ph2	A-Ph3	A-Ph4	A-Ph5	A-Ph6	A-Ph7	A-Ph8	A-Ph9	A-Ph10	A-Ph11	A-Ph12	A-Ph13	A-Ph14	A-Ph15	A-Ph16	

Term	0.00000e+00	0.00000e+00	0.00000e+00	0.00000e+00	0.00000e+00	0.00000e+00	0.00000e+00	0.00000e+00	0.00000e+00	0.00000e+00	0.00000e+00	0.00000e+00	0.00000e+00	0.00000e+00	0.00000e+00	0.00000e+00	0.00000e+00	0.00000e+00	0.00000e+00	0.00000e+00	0.00000e+00	0.00000e+00	0.00000e+00	0.00000e+00	0.00000e+00	0.00000e+00	0.00000e+00	0.00000e+00	0.00000e+00	0.00000e+00	0.00000e+00	0.00000e+00	0.00000e+00	0.00000e+00	0.00000e+00	0.00000e+00	0.00000e+00	0.00000e+00	0.00000e+00	0.00000e+00	0.00000e+00	0.00000e+00	0.00000e+00	0.00000e+00	0.00000e+00	0.00000e+00	0.00000e+00	0.00000e+00	
Factor	1.00000e+00	1.00000e+00	1.00000e+00	1.00000e+00	1.00000e+00	1.00000e+00	1.00000e+00	1.00000e+00	1.00000e+00	1.00000e+00	1.00000e+00	1.00000e+00	1.00000e+00	1.00000e+00	1.00000e+00	1.00000e+00	1.00000e+00	1.00000e+00	1.00000e+00	1.00000e+00	1.00000e+00	1.00000e+00	1.00000e+00	1.00000e+00	1.00000e+00	1.00000e+00	1.00000e+00	1.00000e+00	1.00000e+00	1.00000e+00	1.00000e+00	1.00000e+00	X	X	X	X	X	X	X	X	X	X	X	X	X	X	X	X	

B = Detector Channel
Val Type	B-AC1	B-AC2	B-AC3	B-AC4	B-AC5	B-AC6	B-AC7	B-AC8	B-AC9	B-AC10	B-AC11	B-AC12	B-AC13	B-AC14	B-AC15	B-AC16	B-DC1	B-DC2	B-DC3	B-DC4	B-DC5	B-DC6	B-DC7	B-DC8	B-DC9	B-DC10	B-DC11	B-DC12	B-DC13	B-DC14	B-DC15	B-DC16	B-Ph1	B-Ph2	B-Ph3	B-Ph4	B-Ph5	B-Ph6	B-Ph7	B-Ph8	B-Ph9	B-Ph10	B-Ph11	B-Ph12	B-Ph13	B-Ph14	B-Ph15	B-Ph16	

Term	0.00000e+00	0.00000e+00	0.00000e+00	0.00000e+00	0.00000e+00	0.00000e+00	0.00000e+00	0.00000e+00	0.00000e+00	0.00000e+00	0.00000e+00	0.00000e+00	0.00000e+00	0.00000e+00	0.00000e+00	0.00000e+00	0.00000e+00	0.00000e+00	0.00000e+00	0.00000e+00	0.00000e+00	0.00000e+00	0.00000e+00	0.00000e+00	0.00000e+00	0.00000e+00	0.00000e+00	0.00000e+00	0.00000e+00	0.00000e+00	0.00000e+00	0.00000e+00	-1.56410e+02	-1.27925e+02	-1.23922e+02	-1.82673e+02	-7.57512e+01	-6.11924e+01	-1.55323e+02	-1.62015e+02	-8.33286e+01	-6.57451e+01	-1.72119e+02	-1.69838e+02	-1.79785e+02	-1.77170e+02	-7.38895e+01	-1.49034e+02	
Factor	2.27176e-05	1.55070e-04	4.33590e-05	1.76889e-01	1.36821e-06	1.78199e-06	1.63072e-01	4.85717e-02	1.34987e-06	1.70672e-06	9.20508e-02	2.79817e-02	2.79836e-02	8.82360e-03	1.44751e-06	1.26394e-02	1.41485e-05	2.59860e-05	7.31483e-06	8.80964e-02	2.56862e-07	2.96358e-07	7.67068e-02	2.43435e-02	2.54028e-07	2.93281e-07	4.48789e-02	1.37183e-02	1.41984e-02	4.46541e-03	2.69071e-07	6.22161e-03	X	X	X	X	X	X	X	X	X	X	X	X	X	X	X	X	



#DISTANCE SETTINGS
A = Detector Channel
A-1	A-2	A-3	A-4	A-5	A-6	A-7	A-8	A-9	A-10	A-11	A-12	A-13	A-14	A-15	A-16	

2.5000e+00	3.0000e+00	2.5000e+00	3.0000e+00	2.0000e+00	3.0000e+00	1.5000e+00	3.0000e+00	3.0000e+00	3.0000e+00	3.0000e+00	3.0000e+00	3.0000e+00	3.0000e+00	1.5000e+00	3.0000e+00	

B = Detector Channel
B-1	B-2	B-3	B-4	B-5	B-6	B-7	B-8	B-9	B-10	B-11	B-12	B-13	B-14	B-15	B-16	

1.0000e+01	1.0000e+01	1.0000e+01	1.4400e+00	1.0000e+01	1.0000e+01	1.5100e+00	1.9400e+00	1.0000e+01	1.0000e+01	1.9900e+00	2.4900e+00	2.4100e+00	2.9000e+00	1.0000e+01	2.9800e+00	




#DATA BEGINS
time	group	step	mark	flag	A-AC1	A-AC2	A-AC3	A-AC4	A-AC5	A-AC6	A-AC7	A-AC8	A-AC9	A-AC10	A-AC11	A-AC12	A-AC13	A-AC14	A-AC15	A-AC16	A-DC1	A-DC2	A-DC3	A-DC4	A-DC5	A-DC6	A-DC7	A-DC8	A-DC9	A-DC10	A-DC11	A-DC12	A-DC13	A-DC14	A-DC15	A-DC16	A-Ph1	A-Ph2	A-Ph3	A-Ph4	A-Ph5	A-Ph6	A-Ph7	A-Ph8	A-Ph9	A-Ph10	A-Ph11	A-Ph12	A-Ph13	A-Ph14	A-Ph15	A-Ph16	B-AC1	B-AC2	B-AC3	B-AC4	B-AC5	B-AC6	B-AC7	B-AC8	B-AC9	B-AC10	B-AC11	B-AC12	B-AC13	B-AC14	B-AC15	B-AC16	B-DC1	B-DC2	B-DC3	B-DC4	B-DC5	B-DC6	B-DC7	B-DC8	B-DC9	B-DC10	B-DC11	B-DC12	B-DC13	B-DC14	B-DC15	B-DC16	B-Ph1	B-Ph2	B-Ph3	B-Ph4	B-Ph5	B-Ph6	B-Ph7	B-Ph8	B-Ph9	B-Ph10	B-Ph11	B-Ph12	B-Ph13	B-Ph14	B-Ph15	B-Ph16	aux-1	digaux	

25690.320	1	1	0	256	0.078351	0.052034	0.085363	0.10295	0.22499	0.059998	0.24595	0.056837	0.15661	0.14861	0.20935	0.22028	0.093377	0.11924	0.070242	0.26713	-2.3417	-2.8729	-3.2125	-2.8542	-3.1146	-3.0021	-2.8688	-3.1771	-2.8229	-2.7667	-3.1688	-2.6771	-3.1479	-2.9625	-2.7	-3.0104	-59.295	25.388	260.855	293.699	24.712	131.347	-60.025	278.005	-37.325	-59.235	182.441	-45.360	252.286	15.207	-50.690	4.434	0.00016297	0.00048303	0.00010511	690.62	3.0452e-06	4.0117e-06	657.63	207.77	1.4647e-06	3.2376e-06	235.33	88.522	71.243	34.61	2.1129e-06	46.51	0.0002652	0.00019809	7.7857e-05	672.51	2.2037e-06	1.9757e-06	638.46	203.58	2.1846e-06	2.1807e-06	228.11	87.439	70.617	34.209	2.2737e-06	45.764	135.452	24.780	46.400	-48.541	79.051	88.544	-49.335	-43.350	101.846	85.401	-46.166	-41.920	-38.987	-34.667	80.555	-38.186	-8191	255	
25690.439	1	1	0	0	0.066224	0.13668	0.19594	0.098415	0.27545	0.087608	0.15735	0.22151	0.33264	0.1117	0.098825	0.26336	0.18361	0.11192	0.25345	0.3481	-2.3854	-2.8375	-3.0125	-2.7812	-3.0208	-3.0042	-2.9896	-3.2208	-2.6792	-2.95	-2.9708	-2.9813	-3.2271	-3.1208	-2.7958	-3.1521	226.875	135.282	279.372	84.643	40.928	160.830	248.889	220.859	66.011	105.967	117.611	265.683	242.124	239.317	74.289	261.343	0.0001915	0.00041388	9.5642e-05	687.5	2.3771e-06	2.9724e-06	650.62	207.19	1.7923e-06	3.6947e-06	232.06	88.761	71.455	34.912	2.6029e-06	46.672	0.00026048	0.00017822	7.2706e-05	667.28	2.1079e-06	2.0381e-06	633.78	202.41	2.3238e-06	2.0921e-06	226.36	87.269	70.577	34.414	2.2877e-06	46.193	138.600	19.043	32.021	-48.383	80.029	105.697	-49.549	-43.324	75.255	66.823	-45.929	-41.772	-39.185	-34.595	95.006	-38.224	-8191	255	
25690.535	1	1	0	0	0.1796	0.1131	0.31735	0.10314	0.10242	0.1309	0.1295	0.17502	0.044577	0.16958	0.13683	0.20927	0.17809	0.25537	0.27721	0.29469	-2.5292	-2.7396	-2.9667	-2.8875	-3.1542	-3.2104	-2.9188	-3.3104	-3.0187	-2.8688	-3.1437	-2.8229	-3.1604	-2.9708	-2.7604	-3.1875	257.692	281.580	255.518	241.093	273.509	107.453	286.774	-22.327	49.182	139.714	21.554	201.716	268.870	203.400	26.826	296.754	0.00014665	0.00029384	0.00014161	684.88	3.1808e-06	3.6097e-06	654.31	208.25	2.7105e-06	3.2496e-06	237.13	91.234	73.369	35.913	2.1969e-06	48.668	0.00025727	0.00018136	7.4764e-05	666.18	2.1839e-06	1.9504e-06	636.73	204.56	2.3207e-06	2.045e-06	231.42	89.55	72.348	35.506	2.2176e-06	47.746	137.052	34.164	35.097	-48.464	80.223	84.050	-49.367	-43.582	77.837	76.048	-45.913	-41.768	-39.458	-34.692	94.950	-38.224	-8191	255	
25690.631	1	1	0	0	0.24568	0.22873	0.013514	0.098378	0.054366	0.081074	0.034061	0.20003	0.093024	0.18483	0.1948	0.28416	0.063804	0.36029	0.14638	0.11579	-2.5917	-2.8688	-3.0938	-2.7021	-2.9979	-3.1562	-2.9583	-3.1813	-2.9625	-2.8729	-3.0979	-2.8438	-2.9708	-3.2188	-2.75	-3.2	199.428	218.048	244.752	83.235	62.330	27.701	243.885	-35.045	199.765	117.319	265.131	180.167	-2.962	277.768	275.598	212.190	0.0001722	0.00030629	0.00013366	687.75	1.9188e-06	4.0405e-06	657.21	210.92	1.0632e-06	4.1858e-06	239.2	91.859	74.247	36.172	2.6006e-06	48.221	0.00027277	0.00018564	7.9686e-05	668.95	2.057e-06	2.048e-06	638.9	206.83	2.3461e-06	2.1379e-06	233.43	90.55	73.042	35.816	2.5343e-06	47.463	137.882	10.511	39.294	-48.359	96.056	91.966	-49.511	-43.415	35.666	95.406	-45.584	-41.459	-38.836	-34.667	59.514	-38.246	-8191	255	
25690.727	1	1	0	0	0.096043	0.29459	0.20248	0.11088	0.12885	0.15165	0.14076	0.28413	0.23396	0.19684	0.26296	0.13188	0.088869	0.028388	0.048155	0.25192	-2.5438	-2.7104	-2.9229	-2.8625	-2.9062	-3.0667	-2.8083	-3.1229	-3.0917	-2.8958	-3.2625	-3.0292	-2.8208	-3.0708	-3.0417	-3.0979	-47.447	241.889	131.610	263.468	-18.288	196.008	266.313	247.068	128.116	79.071	290.844	-21.932	225.192	71.075	116.402	275.124	0.00017679	0.00033641	8.9581e-05	684.92	2.2266e-06	3.7045e-06	654.48	208.2	1.9875e-06	4.7201e-06	234.37	89.63	71.976	34.867	2.7898e-06	46.914	0.00026475	0.00019944	8.0524e-05	667.08	2.254e-06	2.0226e-06	633.49	203.37	2.7615e-06	2.1813e-06	228.42	87.899	70.969	34.606	2.5007e-06	46.044	139.022	22.935	35.615	-48.495	71.901	90.818	-49.269	-43.365	89.456	87.193	-45.764	-41.723	-39.083	-34.777	100.825	-38.117	-8191	255	
25690.848	1	1	0	0	0.069973	0.1925	0.15476	0.21753	0.23002	0.081472	0.22206	0.19308	0.067225	0.1811	0.18453	0.22369	0.23705	0.0090094	0.16581	0.086338	-2.6854	-2.7188	-3.0938	-3.0292	-2.875	-3.0833	-2.8417	-2.9917	-3.0771	-2.8208	-3.2542	-2.9375	-2.7896	-3.2021	-2.7896	-3.0542	-45.266	11.290	-24.759	-49.462	99.736	264.008	205.053	280.111	15.708	82.578	52.142	-35.546	268.915	128.373	-45.057	92.545	0.00018979	0.00026292	9.4884e-05	682.92	1.8083e-06	3.7812e-06	645.09	205.8	1.9695e-06	3.3385e-06	230.71	88.098	71.03	34.775	2.984e-06	46.441	0.00026664	0.00019841	7.7324e-05	664.7	2.2112e-06	1.9134e-06	628.44	201.56	3.0494e-06	2.119e-06	226.29	86.825	70.472	34.355	2.3241e-06	45.777	132.367	27.158	32.860	-48.453	82.953	84.169	-49.282	-43.126	63.808	85.905	-45.602	-41.661	-38.460	-34.601	98.641	-38.246	-8191	255	
25690.920	1	1	0	0	0.014589	0.10858	0.26047	0.073984	0.4948	0.21485	0.12441	0.20224	0.037662	0.15339	0.18033	0.071768	0.20107	0.095597	0.097626	0.26727	-2.7792	-2.8167	-2.9062	-3	-2.8292	-3.1958	-2.9625	-2.7708	-3.1167	-2.7792	-3.1083	-2.9333	-2.7958	-3.1188	-2.7333	-2.9833	75.203	260.334	214.947	138.609	69.841	-34.085	111.291	238.945	153.891	38.083	217.152	154.781	46.440	199.929	30.478	232.712	0.00017063	0.00041745	0.0001103	676.39	1.7521e-06	2.7238e-06	640.18	206.8	1.4616e-06	2.6896e-06	233.3	89.01	72.351	35.057	2.1842e-06	46.758	0.00026045	0.00020372	7.7065e-05	658.59	2.0924e-06	2.0449e-06	624.11	201.71	2.8938e-06	2.2155e-06	227.65	87.737	71.324	34.706	2.346e-06	46.145	135.010	29.351	32.524	-48.238	79.202	95.244	-49.224	-43.405	84.249	93.828	-45.505	-41.717	-38.899	-34.638	72.435	-38.029	-8191	255	
25691.039	1	1	0	0	0.26133	0.13491	0.32141	0.20003	0.22604	0.11594	0.21116	0.12143	0.17384	0.20657	0.20937	0.14788	0.14671	0.11743	0.14157	0.16096	-2.6917	-2.8604	-2.9688	-3.0417	-2.8708	-3.1604	-3.0792	-2.8708	-3.0083	-2.8979	-3.1188	-2.9813	-2.7708	-3.1604	-2.8896	-3.0396	161.936	-5.579	-26.407	-55.174	181.315	-2.361	-27.913	270.260	241.190	104.538	224.925	221.694	-4.549	153.091	57.248	4.920	0.00016256	0.00036937	0.00013108	679.78	1.7296e-06	3.4673e-06	647.66	208.59	1.8196e-06	2.9376e-06	237.32	91.06	73.731	35.514	3.1468e-06	47.65	0.00025839	0.00021022	5.8915e-05	660.92	2.1614e-06	1.9245e-06	630.13	204.64	3.1039e-06	2.0194e-06	231.72	89.459	72.726	35.293	2.3168e-06	47.024	132.572	35.627	30.692	-48.096	78.041	92.861	-49.278	-43.166	100.450	89.515	-45.496	-41.680	-38.807	-34.790	89.822	-37.956	-8191	255	
25691.137	1	1	0	0	0.30547	0.25006	0.1913	0.25653	0.23464	0.10788	0.17965	0.15541	0.17576	0.12431	0.31752	0.22245	0.12009	0.13996	0.085551	0.4596	-2.6875	-2.7958	-2.9625	-3.0792	-2.9625	-3.0875	-2.875	-2.8521	-3.2188	-2.9104	-3.0521	-3.0958	-2.8333	-3.2042	-2.9688	-2.9292	89.031	223.517	-30.376	-31.068	2.843	275.765	163.480	236.880	-28.872	-56.887	-53.491	286.589	24.136	250.472	98.497	201.019	0.00016976	0.00033196	0.0001136	686.35	2.4228e-06	3.8711e-06	648.95	210.33	2.0236e-06	3.0434e-06	236.79	90.785	73.252	35.672	3.1666e-06	47.32	0.00025744	0.00020345	5.5638e-05	665.83	2.1876e-06	1.9757e-06	630.99	206.02	3.1304e-06	2.141e-06	230.41	89.05	72.511	35.297	2.3684e-06	46.799	131.917	23.795	34.431	-48.573	100.878	95.261	-49.406	-43.277	80.743	90.086	-46.125	-41.579	-38.919	-34.731	98.621	-38.274	-8191	255	
25691.232	1	1	0	0	0.21128	0.23533	0.2878	0.22697	0.17125	0.11999	0.018793	0.13391	0.1153	0.25139	0.092014	0.12205	0.15846	0.12255	0.12382	0.14124	-2.6375	-2.8563	-2.8688	-3.1625	-2.7875	-3.2333	-3.0208	-3.0271	-3.1958	-3.1375	-2.8042	-3.0396	-2.8187	-3.0229	-3.1583	-2.8146	-14.575	43.867	213.380	-60.244	221.237	207.298	4.788	-38.918	-6.853	19.430	-51.502	-23.296	69.030	-8.144	257.124	177.059	0.00016376	0.00028821	9.9137e-05	677.57	1.6671e-06	3.4648e-06	642.8	207.7	1.192e-06	3.9892e-06	233.81	89.399	72.237	34.829	2.9334e-06	46.671	0.00026408	0.00018737	5.2011e-05	659.63	2.2839e-06	2.0733e-06	625.93	203.54	3.0854e-06	2.1018e-06	227.44	87.798	71.158	34.507	2.8707e-06	45.779	137.937	43.319	27.168	-48.415	56.702	85.487	-49.161	-43.303	106.816	79.609	-45.672	-41.726	-39.193	-34.493	83.537	-38.002	-8191	255	
25691.326	1	1	0	0	0.10092	0.076628	0.092791	0.17924	0.037752	0.1759	0.1429	0.38681	0.15935	0.11973	0.043344	0.17208	0.19003	0.15044	0.23655	0.09543	-2.7458	-2.9042	-2.8083	-3.1813	-2.9708	-3.0312	-2.9458	-2.9188	-3.1125	-3.0229	-2.9646	-3.1646	-2.8187	-3.0187	-3.0417	-2.9208	-28.645	-30.499	254.632	296.132	-43.080	1.166	-57.998	-56.481	167.214	-13.871	-32.018	-32.567	0.880	201.637	-14.789	113.809	0.00015341	0.00038679	0.00012291	674.94	2.6612e-06	4.7598e-06	639.25	204.54	2.3274e-06	3.6567e-06	232.59	88.335	70.989	34.191	2.8925e-06	46.105	0.00024943	0.00018466	5.9326e-05	656.81	2.3749e-06	2.0585e-06	623.64	200.72	2.9203e-06	2.0915e-06	226.13	87.048	70.003	33.894	2.9637e-06	45.189	132.454	38.506	23.601	-48.479	76.719	97.221	-49.676	-43.470	87.653	116.513	-45.520	-41.594	-38.746	-34.590	52.118	-37.920	-8191	255	
25691.447	1	1	0	0	0.14131	0.060282	0.13791	0.20307	0.36923	0.095701	0.081417	0.14629	0.34565	0.082331	0.19351	0.058007	0.076607	0.20397	0.047218	0.069343	-2.4229	-3.0354	-2.7562	-3.1542	-2.9562	-2.9542	-3.2104	-2.9042	-3.0687	-3.0021	-2.8854	-3.1458	-2.75	-2.9688	-3.0938	-2.7833	-61.038	153.472	-41.784	-18.193	207.453	239.043	147.861	86.899	-7.459	-48.407	277.326	213.586	270.001	297.961	246.052	150.129	0.00016077	0.00046824	9.8984e-05	677.6	1.6805e-06	3.6183e-06	640.28	205.16	2.6573e-06	2.863e-06	231.66	88.65	70.629	34.486	2.3133e-06	46.222	0.00025556	0.00019305	5.2926e-05	657.41	2.133e-06	2.2301e-06	626.39	200.06	2.8097e-06	2.0964e-06	225.96	87.3	70.143	34.144	3.1033e-06	45.611	135.373	37.601	33.455	-48.213	91.720	120.885	-49.383	-43.530	87.543	103.529	-45.598	-41.592	-38.863	-34.700	53.703	-37.880	-8191	255	
25691.545	1	1	0	0	0.1771	0.078561	0.13584	0.10407	0.2334	0.32601	0.11588	0.17292	0.31404	0.15977	0.21233	0.12567	0.080254	0.17562	0.10482	0.11976	-2.6229	-3.0875	-2.7646	-3.1792	-3.0042	-2.8688	-3.1771	-2.925	-3.1625	-3.075	-3.0042	-3.1792	-3.0042	-3.0417	-3.1167	-2.8854	73.191	111.411	250.572	295.878	-19.845	29.220	-46.195	238.623	272.356	216.522	282.905	-50.424	243.175	5.596	173.008	235.433	0.00017152	0.00050682	0.00012427	667.73	1.4235e-06	3.4904e-06	633.16	200.75	2.4792e-06	3.3231e-06	230.49	88.221	70.482	34.791	2.8878e-06	46.483	0.00025111	0.0001937	5.6218e-05	649.71	2.171e-06	1.9337e-06	615.01	197.16	2.3101e-06	2.788e-06	224.41	87.197	69.77	34.292	3.0444e-06	45.941	137.369	18.173	17.920	-48.305	85.879	99.267	-49.688	-43.324	70.100	107.258	-45.662	-41.759	-38.746	-34.827	76.577	-38.063	-8191	255	
25691.615	1	1	0	0	0.074325	0.14476	0.178	0.11352	0.18089	0.13065	0.068782	0.057434	0.13238	0.12872	0.1895	0.50185	0.14007	0.016949	0.36545	0.1501	-2.725	-3.0042	-2.8083	-3.1437	-3.1333	-2.8667	-3.3021	-2.9021	-3.1042	-3.0458	-2.8104	-3.1646	-3.0021	-2.9292	-2.9896	-2.7646	30.879	291.076	132.920	282.241	213.510	234.035	95.272	86.631	-58.772	280.306	208.067	271.762	37.784	2.047	203.730	186.830	0.00018502	0.00032128	9.0362e-05	664.68	2.1896e-06	2.7742e-06	633.1	202.94	2.3836e-06	4.6927e-06	237.49	90.941	72.651	35.833	3.1388e-06	48.765	0.00025854	0.00018163	5.0229e-05	642.72	2.148e-06	1.9035e-06	617.9	198.74	2.2582e-06	2.9835e-06	229.74	89.639	71.587	35.518	3.1313e-06	47.782	137.777	32.440	11.789	-48.293	96.885	97.410	-49.290	-43.196	82.351	82.060	-45.991	-41.451	-38.687	-34.707	66.645	-38.201	-8191	255	
25691.713	1	1	0	0	0.16536	0.0042545	0.040256	0.15767	0.13173	0.13129	0.20229	0.21115	0.17428	0.17435	0.2025	0.15489	0.18268	0.20314	0.042259	0.17174	-2.5625	-3.0687	-2.8438	-3.0417	-3.0625	-2.7917	-3.1958	-3.0292	-2.8375	-3.1104	-2.8417	-3.2583	-2.9354	-2.8604	-3.0208	-3.0771	-35.471	4.260	166.917	-6.438	183.416	286.386	218.536	212.056	110.204	39.809	284.687	238.819	198.744	292.106	43.282	276.939	0.000182	0.00026372	0.00013175	661.69	1.722e-06	3.9705e-06	642.66	207.4	2.0987e-06	4.4765e-06	241.71	93.716	74.964	37.249	3.3584e-06	50.33	0.00025865	0.00017649	5.736e-05	643.3	2.3214e-06	1.9319e-06	625.33	203.02	2.2476e-06	2.8338e-06	235.74	92.596	74.236	36.792	3.2956e-06	49.473	132.925	37.938	32.331	-48.606	85.908	106.085	-49.374	-43.357	59.071	88.560	-45.468	-41.477	-38.883	-34.982	94.674	-38.249	-8191	255	
25691.832	1	1	0	0	0.061399	0.063623	0.29753	0.27973	0.22831	0.096079	0.3554	0.31726	0.26663	0.13019	0.10225	0.14979	0.016298	0.27478	0.16843	0.10236	-2.4396	-3.1792	-2.6833	-3.1646	-3.025	-2.8708	-3.2917	-3.0146	-2.9667	-3.2396	-2.9167	-3.1958	-3.1917	-2.8479	-3.2687	-2.9375	135.338	63.849	-59.951	279.574	81.284	22.282	201.382	234.487	166.333	270.422	-12.961	268.677	230.000	23.558	-15.395	178.953	0.000198	0.00034331	0.00011769	670.19	3.3705e-06	3.3679e-06	653.6	210.84	1.575e-06	4.388e-06	243.2	94.733	75.281	37.059	2.1697e-06	49.977	0.00027487	0.00018017	5.5075e-05	654.24	2.7768e-06	2.1375e-06	634.97	206.13	2.1095e-06	3.0452e-06	237.35	93.182	74.353	36.762	3.3976e-06	49.206	141.215	23.601	33.066	-48.811	98.657	82.762	-49.438	-43.341	83.135	93.391	-45.486	-41.510	-38.892	-34.816	83.605	-38.388	-8191	255	
25691.928	1	1	0	0	0.21534	0.15431	0.039858	0.081698	0.10071	0.079735	0.26765	0.042695	0.093632	0.32869	0.10588	0.21046	0.064745	0.15914	0.11578	0.021744	-2.4292	-3.2313	-2.8521	-3.0292	-3.0354	-2.6729	-3.1063	-3.0625	-2.8417	-3.1437	-2.95	-2.9292	-3.3604	-2.8708	-3.0875	-3.2188	211.330	-33.253	73.491	194.286	206.013	150.318	286.601	66.520	292.581	88.094	261.661	295.849	-29.594	250.954	21.903	195.407	0.00018085	0.00031517	0.00010262	665.12	1.9044e-06	3.2946e-06	640.7	209.39	2.5953e-06	2.9073e-06	242.56	94.049	75.127	37.086	2.6899e-06	49.809	0.00027419	0.00017979	5.6751e-05	648.16	3.0288e-06	2.0615e-06	625.56	204.56	2.1857e-06	3.1082e-06	235.99	92.396	74.138	36.636	2.9744e-06	49.122	131.754	16.405	30.366	-48.180	103.141	98.612	-49.765	-43.274	80.987	98.360	-45.821	-41.874	-39.232	-34.679	76.707	-38.278	-8191	255	
25692.025	1	1	0	0	0.11192	0.16239	0.26751	0.15285	0.19992	0.15798	0.1004	0.22696	0.20779	0.035799	0.19116	0.29042	0.15053	0.044866	0.21374	0.17401	-2.3208	-3.0812	-2.8292	-3.0438	-2.9938	-2.9104	-3.0625	-3.0146	-2.8854	-3.2667	-2.9542	-2.85	-3.1021	-2.9125	-3.0208	-2.9458	19.737	215.878	190.890	209.874	132.002	12.915	160.702	158.946	160.682	-47.814	-26.043	-43.421	-44.493	243.276	15.366	274.517	0.00016706	0.00032854	0.00012283	671.46	2.9085e-06	5.0358e-06	648.58	212.28	1.9351e-06	2.9056e-06	247.19	95.28	76.56	37.814	3.0117e-06	50.524	0.00027106	0.00018959	5.4983e-05	655.55	3.0122e-06	2.0893e-06	632.53	207.99	2.1831e-06	3.0813e-06	240.13	94.045	75.45	37.458	2.2966e-06	50.032	132.689	19.537	36.909	-48.527	78.967	109.504	-49.425	-43.416	70.834	76.766	-45.267	-41.623	-39.049	-34.979	81.857	-38.300	-8191	255	
25692.121	1	1	0	0	0.0644	0.2339	0.10379	0.38495	0.20699	0.24532	0.10174	0.14927	0.057216	0.1194	0.022427	0.085602	0.35464	0.20628	0.18689	0.21749	-2.1562	-2.8917	-2.9333	-2.9583	-3.0833	-2.8563	-2.8958	-3.1271	-2.7479	-2.9854	-3.0958	-3.0604	-2.9625	-3.05	-2.7979	-3.1979	34.692	115.850	105.960	242.770	115.950	66.975	33.737	295.321	-46.623	53.734	132.962	240.856	252.707	123.588	251.206	202.838	0.00017633	0.00049171	8.3467e-05	682.23	2.0269e-06	3.1773e-06	662.63	213.92	3.3596e-06	4.0703e-06	247.03	95.488	76.074	37.725	3.0098e-06	50.239	0.00027377	0.00020513	5.7421e-05	665.11	3.1594e-06	2.0233e-06	645.07	209.66	2.5382e-06	3.2255e-06	241.74	94.148	75.281	37.322	2.4839e-06	49.558	132.967	20.390	27.851	-48.434	74.130	79.862	-49.405	-43.256	68.058	89.350	-45.628	-41.843	-38.715	-34.559	82.164	-37.689	-8191	255	
25692.217	1	1	0	0	0.13246	0.17917	0.028245	0.20625	0.26332	0.026269	0.18206	0.22426	0.14931	0.11596	0.059139	0.22828	0.2268	0.44889	0.12287	0.18037	-2.3479	-2.9729	-2.8521	-3.0604	-2.9708	-2.9625	-3.0812	-3.075	-2.8167	-3.0646	-2.9021	-2.8063	-3.0187	-2.8333	-2.9604	-3.2396	208.939	178.235	93.995	-6.342	125.425	269.372	159.820	110.563	83.434	181.784	131.270	270.543	75.040	221.928	138.265	223.289	0.00018755	0.00043947	0.00011659	704.46	2.9472e-06	2.951e-06	668.99	215.11	2.3271e-06	2.4492e-06	246.08	93.427	74.617	36.806	2.4001e-06	48.837	0.00029302	0.00020415	6.1643e-05	683.07	3.0872e-06	2.3239e-06	651.97	210.4	2.5435e-06	2.7538e-06	238.95	91.953	73.651	36.344	2.3695e-06	48.202	133.683	31.606	38.018	-48.437	94.486	91.571	-49.233	-43.091	63.276	62.555	-45.599	-41.300	-38.695	-34.152	95.045	-37.865	-8191	255	
25692.312	1	1	0	0	0.15085	0.098229	0.095498	0.082417	0.36248	0.13137	0.65358	0.055225	0.023931	0.054677	0.13774	0.17041	0.31196	0.19867	0.148	0.26167	-2.275	-3.0812	-2.8521	-2.9313	-3.0854	-2.7396	-2.9479	-3.2625	-2.9292	-2.9833	-3.2896	-2.8021	-2.9292	-2.8187	-3.0042	-3.2146	195.030	50.674	32.021	84.339	142.086	-60.588	232.346	82.749	12.438	62.489	252.209	247.026	165.009	277.673	-56.608	181.773	0.00017991	0.00033796	8.7637e-05	705.14	2.8568e-06	3.0807e-06	665.17	213.96	1.7466e-06	4.028e-06	241.16	92.148	73.421	36.737	2.8995e-06	48.994	0.00027805	0.00021736	5.4587e-05	685.45	3.3322e-06	2.1264e-06	648.43	209.02	2.5869e-06	2.2271e-06	235.76	90.872	72.857	36.197	2.2249e-06	48.371	138.952	17.867	48.802	-48.191	83.003	78.077	-49.231	-43.283	87.796	75.569	-45.585	-41.434	-38.735	-34.460	84.421	-37.987	-8191	255	
25692.408	1	1	0	0	0.18269	0.090566	0.12274	0.13405	0.15918	0.24989	0.20071	0.02942	0.031001	0.17011	0.21768	0.072818	0.19096	0.12838	0.20117	0.25051	-2.4479	-2.8792	-2.9729	-2.9625	-3.0458	-2.9458	-3.0375	-3.1979	-2.775	-3.1292	-3.0938	-2.6417	-3.1479	-3.0667	-2.9229	-3.1979	-2.470	243.344	-18.983	260.447	182.475	88.552	105.602	105.866	59.412	184.260	33.014	235.988	253.699	246.396	55.163	237.400	0.00017758	0.00030363	0.00010344	699.47	1.2625e-06	2.8642e-06	658.23	211.03	1.3601e-06	3.0419e-06	239.8	91.973	73.625	35.98	2.4838e-06	48.444	0.0002833	0.00020329	5.1387e-05	677.35	2.9694e-06	2.1054e-06	644.15	207.08	2.417e-06	2.0285e-06	234.4	90.633	72.513	35.737	2.4474e-06	47.65	127.372	25.822	39.376	-48.256	87.988	80.513	-49.318	-43.150	81.099	86.324	-45.649	-41.580	-38.698	-34.474	87.625	-37.738	-8191	255	
25692.527	1	1	0	0	0.11819	0.13796	0.15355	0.23419	0.04365	0.06553	0.18543	0.14905	0.27053	0.24167	0.1433	0.23723	0.28636	0.2197	0.21015	0.070023	-2.4729	-2.8812	-3.05	-2.725	-2.975	-3.0563	-2.7667	-3.1125	-2.8708	-2.8979	-3.1354	-2.7458	-3.0417	-2.9896	-2.6646	-3.1771	231.376	-53.604	-1.305	6.950	167.876	256.723	184.431	260.297	-9.934	263.847	173.498	-25.708	290.541	262.836	-40.585	267.568	0.00019851	0.00033657	7.9492e-05	687.05	1.9352e-06	1.6234e-06	653.5	207.47	1.4993e-06	3.5369e-06	237.45	91.448	71.74	35.523	1.9496e-06	48.565	0.00026921	0.00020161	5.2636e-05	668.68	2.6735e-06	2.4906e-06	635	202.8	2.2106e-06	2.0872e-06	231.39	89.996	71.23	35.178	2.3163e-06	47.608	134.117	21.051	12.318	-48.294	76.034	96.458	-49.289	-43.441	74.187	89.115	-45.477	-41.398	-38.894	-34.419	95.414	-38.019	-8191	255	
25692.623	1	1	0	0	0.079641	0.24107	0.25864	0.077501	0.098897	0.18066	0.045568	0.19212	0.048835	0.22163	0.31976	0.025361	0.32929	0.095025	0.1416	0.2949	-2.6021	-2.7542	-2.9813	-2.9833	-3.0104	-2.8312	-2.8646	-3.3417	-2.8396	-2.8125	-3.1688	-2.6625	-2.9833	-3	-2.8083	-3.0896	63.815	26.590	229.727	292.777	18.587	12.494	-33.371	260.537	-21.580	-53.930	277.323	-41.075	229.618	10.242	14.778	275.976	0.00018263	0.00030385	0.00010468	670.31	1.7849e-06	2.9172e-06	639	204.48	1.4358e-06	3.8701e-06	236.06	90.877	72.221	35.938	2.314e-06	48.432	0.00026626	0.00019078	5.3307e-05	651.69	2.1539e-06	2.8907e-06	624.68	200.2	2.2963e-06	1.9094e-06	230.47	89.401	71.623	35.491	2.1386e-06	47.776	141.240	41.378	45.323	-48.096	88.743	107.280	-49.539	-43.243	81.290	104.724	-45.302	-41.606	-38.519	-34.651	90.555	-37.947	-8191	255	
25692.721	1	1	0	0	0.05444	0.19834	0.16331	0.14086	0.32279	0.063159	0.098795	0.19406	0.20877	0.09211	0.12154	0.2614	0.14179	0.099379	0.17585	0.052533	-2.4083	-3.0458	-3.0729	-3.0042	-3.0021	-3.0167	-2.9062	-3.1	-2.7958	-2.9313	-3.1917	-2.7875	-2.9813	-2.875	-2.8563	-3.1646	156.643	76.828	259.885	-54.759	244.088	-60.292	61.401	233.255	193.924	101.796	64.978	256.716	71.821	9.560	141.024	286.717	0.00018303	0.00038802	0.00011167	673.02	2.758e-06	1.7284e-06	647.2	206.95	1.035e-06	3.4552e-06	238.72	91.257	72.914	36.174	2.45e-06	48.645	0.00026614	0.00019159	5.2362e-05	655.23	2.0849e-06	3.1019e-06	630.11	202.34	2.173e-06	2.0102e-06	231.97	90.248	72.111	35.749	2.3981e-06	47.934	134.248	23.242	36.732	-48.436	79.603	111.282	-49.299	-43.200	81.557	95.194	-45.489	-41.625	-39.002	-34.517	79.975	-37.948	-8191	255	
25692.842	1	1	0	0	0.24728	0.16656	0.22082	0.15558	0.18155	0.16517	0.10447	0.17427	0.043351	0.23318	0.18126	0.11874	0.1412	0.099364	0.087342	0.06291	-2.6917	-2.6354	-3.1479	-3.0062	-2.9229	-3.2125	-2.8542	-3.025	-2.9729	-2.775	-3.1646	-3.0125	-2.9688	-3.2729	-2.6792	-3.1104	246.553	177.201	41.986	290.077	-54.434	-32.556	24.761	203.706	43.405	214.186	-49.642	140.389	-31.419	281.100	39.763	229.929	0.00017082	0.00039976	0.00011465	678.57	2.4959e-06	1.4941e-06	650.28	205.87	1.6085e-06	3.6513e-06	239.09	91.657	72.812	36.023	2.4794e-06	48.951	0.00028338	0.00018255	5.4145e-05	660.37	2.1603e-06	2.758e-06	633.71	202.39	2.0862e-06	2.0016e-06	233.26	90.368	72.049	35.69	2.2765e-06	48.155	134.167	17.628	26.331	-48.407	86.613	104.564	-49.512	-43.491	41.784	93.832	-45.650	-41.755	-39.113	-34.998	110.912	-38.231	-8191	255	
25692.912	1	1	0	0	0.24837	0.1484	0.29349	0.13202	0.22497	0.050558	0.16651	0.34194	0.24455	0.28538	0.18219	0.30738	0.092574	0.05953	0.12433	0.19653	-2.7979	-2.7292	-3.1083	-2.7458	-2.9125	-3.025	-2.7958	-3.2	-2.975	-2.8688	-3.0979	-3.025	-2.7313	-3.0854	-2.6625	-3.1437	14.989	277.462	177.339	199.331	65.175	141.332	262.974	188.584	-24.421	-21.317	217.759	62.151	139.461	268.719	298.010	186.646	0.00018427	0.00046809	0.00010261	690.15	2.3574e-06	3.0745e-06	667.73	211.22	2.0205e-06	3.107e-06	242.64	93.083	73.68	36.652	2.9925e-06	49.585	0.00030997	0.00019988	5.0168e-05	671.32	2.0019e-06	3.0185e-06	648.17	206.71	2.192e-06	2.0151e-06	237.07	91.914	72.902	36.304	2.2557e-06	48.856	136.707	37.042	30.077	-48.356	111.748	106.868	-49.678	-43.331	76.754	108.547	-45.874	-41.870	-39.328	-34.778	72.921	-38.329	-8191	255	
25693.010	1	1	0	0	0.13443	0.14596	0.10937	0.24837	0.14053	0.36169	0.091171	0.2002	0.21071	0.1588	0.097269	0.085292	0.21321	0.035102	0.10299	0.15912	-2.6104	-2.6854	-2.8875	-2.9292	-2.775	-3.1458	-2.8729	-3.1063	-3	-2.8042	-3.0417	-3.1896	-2.8604	-3.1375	-2.8542	-2.9583	-0.961	106.017	60.495	224.432	141.633	103.525	236.889	-53.704	124.794	-22.135	262.585	274.134	204.772	292.450	188.263	-17.936	0.0001882	0.00034293	7.7719e-05	684.93	2.8157e-06	3.5199e-06	653.58	209.51	2.046e-06	3.4603e-06	240.64	92.479	73.689	36.63	3.3583e-06	49.405	0.00031958	0.00018282	5.5913e-05	667.09	2.003e-06	3.0747e-06	636.85	205.19	2.119e-06	2.1196e-06	234.79	91.159	72.945	36.205	2.3039e-06	48.476	128.259	14.181	16.848	-48.565	92.536	104.954	-49.717	-43.628	63.262	95.880	-45.908	-41.603	-38.945	-34.966	79.408	-38.020	-8191	255	
25693.129	1	1	0	0	0.072078	0.072656	0.039782	0.23128	0.03035	0.0085059	0.21648	0.11691	0.070495	0.10888	0.16502	0.24402	0.12894	0.22751	0.23074	0.090947	-2.7188	-2.8	-3.1375	-3.0854	-2.625	-3.2125	-3.0354	-3.0062	-3.0146	-2.8792	-2.9354	-3.1167	-2.7146	-3.1271	-2.7875	-3.0417	135.322	239.604	-5.307	258.723	137.954	164.473	207.249	158.942	297.124	151.457	193.298	294.499	268.237	266.138	43.252	39.015	0.00020477	0.00029422	9.9291e-05	683.14	2.245e-06	3.291e-06	651.75	206.59	1.2024e-06	4.0101e-06	234.22	89.946	70.762	35.062	2.3203e-06	47.032	0.00031454	0.00018033	5.4419e-05	664.95	2.0763e-06	3.0753e-06	634.18	202.4	2.038e-06	2.0921e-06	229.3	88.53	70.241	34.617	2.2333e-06	46.339	129.562	32.293	18.094	-48.668	75.939	78.662	-49.569	-43.203	77.387	86.132	-45.919	-41.863	-38.996	-34.742	88.476	-37.997	-8191	255	
25693.225	1	1	0	0	0.21856	0.16172	0.15483	0.038247	0.19923	0.2071	0.30287	0.050323	0.20638	0.098762	0.06211	0.1396	0.028049	0.045675	0.11883	0.31672	-2.4917	-2.8083	-2.9771	-3.1	-2.8583	-3.1167	-3.1958	-2.8187	-3.0646	-2.8333	-3.05	-2.9479	-2.7271	-3.1625	-2.7438	-2.8854	127.809	-24.117	134.257	205.471	150.687	64.142	-1.454	22.999	233.716	-37.067	238.459	277.347	14.014	255.395	-24.023	243.146	0.0001954	0.00028901	0.00010536	679.92	2.0852e-06	2.8011e-06	643.38	202.71	1.3218e-06	2.8067e-06	230.16	88.408	69.906	33.962	2.6384e-06	45.912	0.00029942	0.00018932	5.5364e-05	657.75	1.9816e-06	3.0278e-06	627.3	199.17	1.946e-06	1.9063e-06	225.21	86.874	68.877	33.668	2.1088e-06	45.338	134.373	17.412	16.963	-48.632	89.870	97.466	-49.639	-43.450	80.214	71.498	-45.462	-41.767	-39.031	-34.485	99.771	-38.146	-8191	255	
25693.320	1	1	0	0	0.18431	0.17482	0.20567	0.13662	0.145	0.15065	0.11456	0.17073	0.15731	0.29684	0.31501	0.25164	0.062948	0.074318	0.14556	0.12302	-2.7146	-2.8688	-2.8187	-3.1167	-2.6813	-3.1833	-2.9354	-2.9146	-3.0812	-2.8792	-2.8458	-3.2292	-2.7479	-3.3187	-3.0083	-2.7708	135.447	-7.156	5.074	174.921	157.205	241.982	183.654	196.648	254.963	131.139	-26.207	-50.675	235.341	271.258	82.914	238.896	0.00017453	0.00039207	9.7242e-05	667.96	2.6369e-06	3.3299e-06	640.95	201.31	1.8201e-06	3.5585e-06	230.71	88.859	69.655	34.69	2.688e-06	46.661	0.00028854	0.00018916	5.2865e-05	650.37	2.1212e-06	2.2424e-06	623.54	197.73	2.1439e-06	1.9375e-06	224.35	87.404	69.207	34.24	2.2479e-06	46.022	131.833	18.551	31.015	-48.483	71.558	88.234	-49.675	-43.518	73.479	84.784	-45.790	-41.405	-38.843	-34.973	79.533	-38.357	-8191	255	
25693.416	1	1	0	0	0.24063	0.28319	0.19369	0.14692	0.25179	0.094584	0.19455	0.092805	0.27941	0.083343	0.031366	0.013198	0.25995	0.1515	0.1828	0.19083	-2.6917	-2.7521	-2.7792	-3.1063	-2.7833	-2.9083	-3	-2.85	-3.1688	-3.0375	-2.9229	-3.2396	-2.8292	-3.0333	-3.0458	-2.825	40.006	205.119	43.008	161.172	297.074	119.139	138.508	215.100	39.234	122.577	164.190	-41.811	-43.881	187.888	129.776	232.528	0.00018343	0.00029781	0.0001047	665.94	3.5099e-06	2.5919e-06	629	197.56	2.4346e-06	3.8016e-06	220.74	84.104	66.233	32.14	2.5895e-06	43.122	0.00030576	0.0001838	5.0792e-05	648.13	2.2342e-06	1.8603e-06	614.29	193.18	2.0698e-06	1.9418e-06	215.86	82.86	65.457	31.686	1.9569e-06	42.296	137.190	47.842	29.433	-48.391	73.134	85.732	-49.665	-43.540	72.614	76.785	-45.836	-41.419	-38.793	-34.672	93.435	-37.772	-8191	255	
25693.512	1	1	0	0	0.053866	0.11746	0.12753	0.23174	0.1575	0.15947	0.24919	0.13784	0.24223	0.081279	0.21361	0.08735	0.040481	0.44353	0.044219	0.013091	-2.5896	-2.7896	-2.7771	-2.9792	-2.8896	-3.0521	-3.0979	-2.8458	-2.9958	-2.9583	-2.6604	-3.15	-2.8958	-3.0417	-2.9458	-2.9021	44.275	266.410	214.478	-4.738	170.913	-36.397	263.038	240.523	-11.042	74.041	139.137	55.610	240.646	-41.731	-6.022	49.904	0.00015979	0.00028026	7.8467e-05	652.72	2.6779e-06	2.4776e-06	618.4	188.08	1.9218e-06	2.8145e-06	211.88	79.018	62.432	29.583	2.2044e-06	40.118	0.0002922	0.00017568	5.1524e-05	635.89	2.2861e-06	2.1165e-06	602.68	183.98	2.1222e-06	2.0078e-06	206.25	78.126	61.6	29.287	1.9951e-06	39.475	132.361	26.496	46.256	-48.478	74.443	100.209	-49.612	-43.395	73.945	92.351	-45.351	-41.393	-39.039	-34.511	101.417	-37.989	-8191	255	
25693.607	1	1	0	0	0.15575	0.10364	0.23305	0.20864	0.066463	0.24099	0.24865	0.19266	0.12314	0.26437	0.10438	0.15037	0.19568	0.23403	0.088091	0.16035	-2.7292	-2.8833	-2.8312	-3.2146	-2.8187	-2.8083	-3.2604	-2.9062	-3.0812	-3.0083	-2.8417	-3.15	-2.9396	-2.925	-2.8146	-2.9938	268.706	191.780	23.859	224.302	147.544	18.244	271.641	219.908	163.943	109.928	-52.415	254.114	261.350	253.951	159.156	-60.999	0.0001339	0.00040928	0.00010338	640.93	1.6103e-06	1.8239e-06	619.54	188.04	1.7785e-06	2.6772e-06	213.04	79.99	63.416	30.487	1.9018e-06	41.763	0.00024433	0.00022586	5.093e-05	624.74	2.1143e-06	1.8214e-06	602.06	183.21	2.1709e-06	1.8403e-06	208.23	79.017	62.769	30.28	2.0769e-06	41.17	139.020	25.576	25.850	-48.713	83.220	73.700	-49.240	-43.221	52.416	94.227	-45.393	-41.520	-38.692	-34.513	69.948	-37.889	-8191	255	
25693.705	1	1	0	0	0.083197	0.17025	0.23818	0.04984	0.21793	0.1786	0.26396	0.1977	0.069104	0.12	0.19727	0.19642	0.050472	0.4709	0.082569	0.12937	-2.5875	-2.9688	-2.6562	-3.0833	-2.8375	-2.8896	-3.2729	-2.7938	-3.0583	-2.9792	-2.6312	-3.1917	-2.8812	-2.825	-3.1479	-2.7646	269.744	196.768	152.159	281.087	288.086	171.166	152.269	218.971	220.799	287.486	88.592	271.324	102.633	266.813	45.234	200.025	0.00016424	0.00032145	0.00010372	656.47	2.7091e-06	3.2227e-06	627.69	192.92	1.9615e-06	3.5024e-06	219.22	83.027	66.599	32.337	2.9459e-06	43.543	0.00023873	0.00024882	5.1752e-05	636.17	2.1127e-06	1.8053e-06	611.19	189.53	2.1624e-06	1.8654e-06	213.87	81.99	65.635	32.035	2.1262e-06	43.021	131.236	48.802	35.335	-48.295	90.062	85.681	-49.713	-43.344	57.794	75.405	-45.936	-41.603	-38.833	-34.630	70.697	-37.760	-8191	255	
25693.801	1	1	0	0	0.097923	0.20588	0.18909	0.12453	0.13347	0.11184	0.17962	0.14405	0.087004	0.23082	0.12819	0.2676	0.23609	0.081964	0.22661	0.28532	-2.8021	-2.9583	-2.6208	-3.0854	-2.8187	-2.8333	-3.2521	-2.9417	-2.9313	-2.9313	-2.8708	-3.0938	-3.0458	-2.7792	-3.2313	-2.9396	16.791	261.459	6.238	-17.913	-38.465	291.036	220.778	241.352	229.674	264.363	-31.471	30.433	-14.164	114.435	-31.588	231.865	0.00015567	0.00043883	0.00010712	671.12	2.4109e-06	3.4977e-06	634.24	196.47	8.075e-07	3.6138e-06	219.17	83.157	66.581	32.457	1.0646e-06	43.862	0.00024672	0.00026262	5.5136e-05	654.48	2.1566e-06	2.1548e-06	617.38	191.82	2.2249e-06	1.9699e-06	214.36	82.009	65.544	32.048	2.1195e-06	43.355	131.179	37.787	28.525	-48.299	77.940	79.778	-49.390	-43.350	59.876	84.957	-45.604	-41.377	-38.831	-34.275	45.634	-37.518	-8191	255	
25693.922	1	1	0	0	0.096268	0.0652	0.17002	0.3132	0.078345	0.27475	0.090303	0.26334	0.04303	0.12405	0.11261	0.059158	0.067907	0.16743	0.22227	0.17751	-2.5208	-3.0417	-2.6583	-3.0479	-2.975	-2.8479	-3.2333	-2.8354	-2.9292	-3.1813	-2.6521	-3.1104	-2.825	-2.7833	-3.1646	-2.8063	145.469	54.635	-20.830	297.333	195.658	208.407	113.267	216.484	131.603	212.380	199.905	254.442	126.777	269.008	182.963	248.416	0.00014883	0.00027278	0.00010583	659.59	2.6574e-06	4.0632e-06	628.96	198.49	2.6376e-06	3.2715e-06	230.19	89.255	70.514	35.702	3.4751e-06	48.729	0.00024176	0.00024752	5.8061e-05	641.09	1.996e-06	2.1165e-06	613.07	193.99	2.0941e-06	1.9882e-06	224.97	87.789	70.167	35.295	2.1896e-06	48.131	135.838	20.539	20.175	-48.295	94.206	84.402	-49.585	-43.255	65.257	107.513	-45.804	-41.487	-38.899	-34.872	81.667	-38.001	-8191	255	
25694.018	1	1	0	0	0.25031	0.074645	0.038398	0.22957	0.095517	0.17178	0.24584	0.20168	0.081307	0.17808	0.18387	0.21513	0.23764	0.17582	0.10656	0.11201	-2.5729	-2.9083	-2.7042	-2.9792	-3.0917	-2.7521	-3.1375	-3.0125	-3.0062	-3.2167	-2.7292	-3.05	-3.1188	-2.9771	-2.9417	-3.0583	-58.140	151.470	32.599	221.131	63.020	105.062	218.431	278.859	130.243	210.507	133.982	-49.180	167.639	257.442	219.812	210.510	0.00018084	0.00032534	0.00014031	678.51	2.1797e-06	3.2456e-06	653.48	213.9	2.6634e-06	3.8417e-06	246.33	96.288	77.365	38.842	2.0883e-06	52.131	0.00025456	0.0002735	5.5151e-05	657.67	2.0228e-06	2.0344e-06	633.25	209.95	2.1788e-06	1.9803e-06	241.05	94.821	76.712	38.438	2.2798e-06	51.275	138.741	38.020	21.945	-48.376	89.888	113.188	-49.546	-43.383	72.441	81.189	-45.844	-41.714	-38.840	-34.908	74.237	-38.264	-8191	255	
25694.090	1	1	0	0	0.091366	0.061773	0.13935	0.071854	0.18128	0.282	0.11429	0.13834	0.075668	0.24319	0.078979	0.15655	0.24834	0.19724	0.020915	0.082934	-2.5354	-2.9229	-2.7354	-3.0042	-3.0187	-2.8333	-3.0792	-3.0708	-2.9667	-3.1521	-2.9062	-2.9146	-3.2375	-2.8167	-3.0292	-3.0729	114.112	177.844	215.221	127.209	227.218	-2.767	86.533	135.861	130.972	8.953	59.317	19.977	10.905	-8.913	179.371	-13.528	0.00018859	0.00036654	0.00011563	690.55	2.5957e-06	4.0552e-06	656.06	218.93	1.2517e-06	3.3513e-06	246.9	95.519	77.327	38.341	3.3072e-06	50.65	0.00028044	0.00027935	5.9646e-05	670.29	2.0319e-06	2.1443e-06	639.71	214.38	2.1751e-06	1.9693e-06	241.12	94.323	76.315	37.871	2.3813e-06	49.794	127.526	31.206	32.261	-48.173	65.651	96.393	-49.499	-43.284	80.326	100.946	-45.566	-41.813	-39.080	-34.975	103.458	-38.210	-8191	255	
25694.211	1	1	0	0	0.065264	0.15931	0.26943	0.16821	0.25763	0.13757	0.1299	0.10857	0.14513	0.18101	0.21648	0.15469	0.23899	0.21136	0.17673	0.2292	-2.1854	-2.8979	-2.7771	-2.8458	-3.15	-2.7125	-3.0979	-3.0458	-2.7979	-3.1437	-2.925	-2.8187	-3.0854	-2.9313	-3.0312	-3.2042	75.883	14.210	161.822	219.405	105.247	238.875	223.647	92.715	1.381	89.454	294.051	230.886	273.918	246.576	136.754	253.165	0.00018745	0.00052213	0.00012002	679.69	3.0257e-06	3.5513e-06	644.48	208.08	1.3731e-06	3.7217e-06	236.76	90.544	72.345	35.783	2.1037e-06	47.702	0.00026723	0.00030436	5.64e-05	660.08	2.0817e-06	2.0727e-06	628.4	204.84	2.2206e-06	1.99e-06	230.46	88.994	71.525	35.312	2.1744e-06	46.88	138.125	27.085	31.568	-48.566	85.685	98.219	-49.619	-43.297	46.096	87.431	-45.689	-41.795	-38.912	-34.520	94.246	-38.220	-8191	255	
25694.307	1	1	0	0	0.24378	0.036025	0.16448	0.1465	0.22286	0.23199	0.32952	0.11126	0.035169	0.12936	0.43355	0.057727	0.13056	0.12456	0.17975	0.296	-2.2	-3.0333	-2.8896	-2.9292	-3.1417	-2.7417	-3.075	-2.9604	-2.7125	-3.1958	-2.9396	-2.8937	-3.0646	-2.9667	-2.7667	-3.2521	14.166	-44.643	20.786	137.079	269.921	217.040	169.455	122.276	-0.704	-25.153	283.337	5.916	18.647	252.455	174.712	-42.823	0.00018808	0.0003541	7.9382e-05	670.47	3.0923e-06	4.5516e-06	643.14	205.67	1.6016e-06	2.88e-06	233.38	90.436	72.435	35.945	2.5111e-06	48.349	0.00026714	0.00025104	4.9619e-05	654.03	2.0865e-06	2.0832e-06	623.61	201.81	2.1693e-06	1.8874e-06	228.06	89.134	71.58	35.537	2.1739e-06	47.533	132.322	42.277	53.428	-48.591	107.564	97.203	-49.471	-43.371	88.037	78.153	-45.397	-41.713	-39.059	-34.784	104.183	-38.173	-8191	255	
25694.402	1	1	0	0	0.072037	0.1743	0.02033	0.2891	0.079023	0.054217	0.085554	0.22812	0.1775	0.16877	0.26306	0.29606	0.16236	0.087458	0.36918	0.1538	-2.2687	-2.9896	-2.8479	-2.8396	-3.0021	-2.7875	-3.0312	-3.0833	-2.7292	-3.1188	-3.0417	-2.7896	-3.0771	-2.8917	-2.8563	-3.0521	87.344	247.983	17.035	251.238	277.924	249.741	292.469	225.407	77.102	21.630	-60.742	248.767	282.324	249.638	37.587	184.201	0.00016662	0.00026096	8.869e-05	676.94	2.5673e-06	3.2704e-06	646.78	209.58	1.2798e-06	4.2525e-06	238.62	93.238	74.693	37.103	1.9909e-06	49.916	0.00025992	0.00019289	6.6626e-05	660.42	2.1801e-06	1.9097e-06	629.27	205.54	2.1322e-06	1.9625e-06	233.82	91.591	73.69	36.806	2.1201e-06	49.2	136.220	25.841	34.143	-48.786	104.979	89.996	-49.688	-43.450	75.953	75.147	-46.039	-41.544	-39.254	-34.644	109.411	-38.406	-8191	255	
25694.521	1	1	0	0	0.16436	0.38965	0.27931	0.25236	0.088016	0.08826	0.18368	0.14616	0.1438	0.11092	0.19074	0.080273	0.34142	0.15189	0.16161	0.11817	-2.1229	-2.9813	-3.0021	-2.8	-3.1146	-2.8125	-2.8708	-3.2271	-2.9125	-3.0021	-2.9146	-2.8063	-3.1688	-2.9771	-2.8542	-3.2687	-1.463	228.017	221.158	230.855	179.173	18.976	101.712	53.694	137.242	115.287	83.965	-23.239	285.217	-39.314	161.983	-4.919	0.00017531	0.00035287	8.5304e-05	677.1	2.7065e-06	5.9134e-06	647.02	212.35	2.0896e-06	3.1093e-06	239.23	93.132	75.19	37.612	2.5869e-06	50.137	0.00027242	0.00017865	7.5571e-05	660.12	2.0538e-06	2.1498e-06	628.96	207.51	2.137e-06	1.8556e-06	234.85	91.965	74.268	37.204	2.0472e-06	49.467	136.398	36.058	28.778	-48.316	79.790	99.673	-49.492	-43.095	86.973	79.795	-45.514	-41.615	-39.145	-34.867	82.000	-37.932	-8191	255	
25694.617	1	1	0	0	0.20049	0.21455	0.14638	0.22844	0.13727	0.23197	0.1787	0.11053	0.10941	0.29276	0.36557	0.26313	0.027003	0.12296	0.18121	0.12373	-2.3396	-2.8688	-3.1417	-2.6063	-3.0812	-3.0312	-2.975	-3.0875	-2.9625	-3.1021	-3.1229	-2.9833	-3.225	-3.0208	-2.8875	-3.2646	-52.705	-47.063	284.057	263.976	241.481	127.880	285.113	-58.794	175.165	202.833	236.286	-39.845	172.811	125.514	138.517	104.472	0.00016966	0.00037796	5.527e-05	681.08	3.291e-06	4.4588e-06	648.6	212.88	1.3835e-06	4.448e-06	242.57	94.275	75.147	37.684	2.4269e-06	50.506	0.00026856	0.00017503	7.5419e-05	663	2.1384e-06	1.956e-06	629.83	208.44	2.1137e-06	1.8031e-06	236.28	92.599	74.447	37.381	2.2501e-06	49.704	135.850	28.522	33.960	-48.478	81.934	99.544	-49.638	-43.305	46.959	80.666	-45.644	-42.108	-39.317	-34.801	81.321	-38.564	-8191	255	
25694.713	1	1	0	0	0.16423	0.16686	0.15374	0.09009	0.10129	0.31871	0.11532	0.27032	0.032545	0.13574	0.12444	0.19684	0.13441	0.23953	0.13321	0.063381	-2.525	-3.1292	-3.0104	-2.8	-3.1833	-3.0708	-2.9458	-3.0708	-2.8187	-3.0042	-3.0604	-2.7729	-2.9667	-3.0167	-2.7229	-3.2521	184.224	292.727	209.834	275.142	139.586	15.750	261.253	244.818	176.295	278.205	39.874	261.845	67.499	256.829	12.105	202.493	0.00017935	0.00028866	0.00010247	683.18	2.9916e-06	3.6491e-06	645.6	211.22	2.1528e-06	3.8014e-06	240.77	92.966	74.478	37.148	1.5046e-06	49.573	0.00027206	0.00017957	7.359e-05	663.61	1.9457e-06	1.814e-06	630.02	206.85	2.0873e-06	1.8581e-06	235.12	91.817	73.446	36.808	2.2327e-06	48.955	133.469	9.808	29.965	-48.406	71.405	95.140	-49.418	-43.379	93.377	85.936	-45.670	-41.647	-38.910	-34.991	60.028	-38.268	-8191	255	
25694.809	1	1	0	0	0.04718	0.19694	0.12307	0.13118	0.13007	0.21027	0.12926	0.030069	0.24327	0.2114	0.15578	0.2785	0.16437	0.074348	0.17119	0.04524	-2.3563	-2.8021	-3.1292	-2.9292	-3.1354	-3.0771	-2.7604	-3.1417	-3.0583	-2.8729	-3.175	-2.9833	-2.9771	-3.0604	-2.8187	-3.0875	228.659	40.954	280.016	-47.282	63.432	-58.384	-56.344	-8.720	138.822	206.577	283.942	228.242	75.258	206.002	198.386	206.318	0.00019516	0.00035319	8.4453e-05	673.66	2.9406e-06	3.2231e-06	643.69	207.96	1.5155e-06	3.2623e-06	234.7	91.35	72.809	36.286	2.3978e-06	48.578	0.00026352	0.00018044	7.3621e-05	655.77	1.9784e-06	1.746e-06	627.96	203.22	2.228e-06	1.7304e-06	229.75	89.993	71.829	35.869	2.1189e-06	47.667	130.359	14.224	11.272	-48.216	86.365	84.600	-49.487	-43.365	96.376	84.784	-45.726	-41.561	-39.025	-34.723	92.825	-38.579	-8191	255	
25694.906	1	1	0	0	0.12756	0.17026	0.16546	0.16029	0.099982	0.11883	0.15308	0.22893	0.15109	0.075036	0.15704	0.054836	0.10034	0.17959	0.040994	0.14668	-2.525	-2.8937	-3.175	-2.9021	-2.9896	-3.0792	-2.8479	-3.1271	-2.8771	-2.8771	-3.1146	-2.9792	-2.9625	-3.1583	-2.7917	-3.1792	46.325	160.937	208.741	253.149	111.567	104.619	-51.687	147.967	114.174	62.758	92.621	129.102	151.973	-21.375	67.028	246.243	0.00018022	0.00032012	8.8113e-05	670.16	3.0469e-06	3.5032e-06	631.98	203.05	1.5278e-06	4.9832e-06	232.18	89.208	71.145	35.406	1.873e-06	47.598	0.0002593	0.00018098	7.0161e-05	649.89	1.996e-06	1.7362e-06	616.17	199.34	2.7567e-06	1.8031e-06	225.9	87.955	70.157	35.086	2.0489e-06	46.793	134.223	19.042	33.568	-48.264	93.100	87.238	-49.393	-43.392	52.690	91.824	-45.716	-41.572	-38.882	-34.688	96.895	-38.458	-8191	255	
25695.002	1	1	0	0	0.067716	0.057574	0.19887	0.26202	0.19503	0.051603	0.12615	0.059915	0.064108	0.16286	0.17897	0.27409	0.15831	0.15102	0.16311	0.073145	-2.5792	-2.9417	-3.1542	-2.9729	-2.875	-3.1646	-3.1562	-2.9938	-3.1042	-3.0125	-3.1833	-2.9875	-2.9667	-3.2542	-2.7542	-2.9917	76.494	211.196	119.508	290.135	243.802	84.393	290.323	146.080	180.636	268.995	-52.711	-56.827	271.988	124.056	106.102	198.105	0.00017024	0.000301	8.0212e-05	666.66	2.9239e-06	4.9172e-06	633.01	202.38	2.0416e-06	2.238e-06	231.96	88.753	70.603	35.072	2.8915e-06	47.171	0.00024506	0.00017411	7.3148e-05	648.24	1.9345e-06	1.8275e-06	616.82	198.44	2.7234e-06	1.7505e-06	225.48	87.577	69.81	34.767	2.3157e-06	46.38	135.834	2.784	35.143	-48.566	91.112	92.102	-49.687	-43.360	79.305	92.287	-45.466	-41.862	-39.028	-34.835	85.646	-38.082	-8191	255	
25695.098	1	1	0	0	0.049468	0.080459	0.13014	0.30199	0.077599	0.36121	0.22722	0.20218	0.28334	0.10926	0.10457	0.324	0.092242	0.42977	0.18155	0.069701	-2.5354	-2.6208	-3.0833	-2.9771	-2.9667	-2.9708	-3.0187	-3.125	-3.1208	-2.8187	-3.0938	-3.0125	-2.8833	-3.0062	-2.7333	-3.1646	215.904	293.021	233.482	275.927	16.396	149.834	284.146	73.697	-4.989	182.376	-43.984	290.483	180.510	-35.911	179.321	103.653	0.00018162	0.00025381	7.973e-05	669.88	2.6619e-06	3.6642e-06	633.34	201.63	1.2701e-06	3.7939e-06	228.6	88.304	69.914	34.398	1.7086e-06	46.771	0.0002563	0.00018304	6.431e-05	649.69	1.9372e-06	1.8985e-06	618.03	197.31	2.7483e-06	2.0078e-06	223.21	86.91	69.267	34.238	2.1184e-06	45.976	140.305	28.065	9.521	-48.574	70.213	107.724	-49.665	-43.428	111.164	94.796	-45.547	-41.772	-39.079	-34.758	100.134	-38.249	-8191	255	
25695.193	1	1	0	0	0.1613	0.2662	0.22581	0.24321	0.2552	0.21073	0.30674	0.0926	0.14813	0.28446	0.12588	0.19106	0.28681	0.085123	0.22732	0.21768	-2.5729	-2.7271	-3.0208	-2.9396	-2.7708	-3.1042	-2.9792	-3.0125	-3.1083	-2.8187	-3.1396	-3.0312	-2.7667	-3.2792	-2.8646	-2.9313	65.020	210.188	225.974	152.078	215.772	271.311	-19.403	245.551	28.467	264.303	204.419	134.787	-43.238	259.651	243.672	225.996	0.00017783	0.00034407	9.8454e-05	667.63	2.542e-06	3.5856e-06	629.65	199.69	1.8753e-06	3.7706e-06	225.02	87.391	69.277	34.301	2.8074e-06	45.947	0.00024141	0.00018158	5.0244e-05	646.43	1.9495e-06	1.7967e-06	612.96	195.43	2.8049e-06	1.7939e-06	220.66	85.838	68.482	33.888	1.9956e-06	45.233	134.359	23.300	14.815	-48.820	85.281	86.056	-49.409	-43.582	71.549	99.475	-45.524	-41.865	-39.459	-34.900	87.985	-37.924	-8191	255	
25695.312	1	1	0	0	0.23291	0.12816	0.16514	0.1828	0.17027	0.076257	0.17774	0.12239	0.096119	0.054461	0.31559	0.18709	0.22722	0.22554	0.075046	0.099012	-2.7438	-2.6521	-3.0604	-3.1417	-2.7104	-3.2979	-2.9083	-2.9458	-3.2042	-2.9167	-2.9854	-3.0604	-2.8937	-3.1292	-3.0833	-2.9542	-19.726	217.793	228.075	199.237	88.885	-23.336	276.709	188.307	-59.777	146.690	-43.044	160.115	244.862	189.078	90.001	175.464	0.00015933	0.00035182	9.3313e-05	655.22	1.6877e-06	3.3535e-06	625.07	198.69	2.0808e-06	3.5094e-06	225.46	87.102	69.245	34.233	7.8316e-07	46.143	0.00024601	0.00017373	4.8461e-05	639.06	2.0201e-06	1.8201e-06	606.16	194.2	2.8615e-06	2.0249e-06	220.28	85.551	68.616	33.936	2.1425e-06	45.32	133.637	36.157	37.266	-48.313	72.425	80.501	-49.677	-43.510	87.633	78.066	-45.791	-41.744	-39.215	-34.768	76.554	-38.004	-8191	255	
25695.387	1	1	0	0	0.1344	0.13585	0.25198	0.25192	0.071753	0.23627	0.22098	0.10059	0.053387	0.18056	0.13937	0.23665	0.20113	0.35623	0.153	0.11437	-2.6854	-2.7542	-2.8229	-3.2479	-2.7667	-3.3021	-3.0542	-2.7938	-3.1083	-2.9667	-3.1042	-3.025	-2.85	-3.1312	-3.0771	-2.9792	38.862	-20.168	208.629	277.765	-45.804	152.689	169.419	236.060	0.638	179.665	46.661	0.788	-32.748	132.698	215.894	28.368	0.00016378	0.00036761	0.00011242	658.41	2.61e-06	3.8002e-06	622.26	198.82	3.1224e-06	2.9032e-06	227.15	87.046	69.517	34.517	1.4071e-06	46.177	0.00023392	0.00016642	4.9223e-05	639.17	2.064e-06	1.9202e-06	608.21	194.68	2.9499e-06	1.7762e-06	221.53	85.988	68.791	34.081	2.7602e-06	45.491	137.803	31.867	16.657	-48.670	69.784	88.956	-49.542	-43.585	77.634	74.318	-45.520	-41.683	-39.134	-34.901	119.488	-38.219	-8191	255	
25695.482	1	1	0	0	0.25058	0.17554	0.26968	0.081003	0.059002	0.24183	0.045791	0.21233	0.15029	0.11789	0.18431	0.10057	0.26068	0.083704	0.27799	0.14877	-2.7229	-2.9042	-2.8812	-3.1354	-3.0271	-3.1688	-3.1063	-2.7292	-3.1271	-2.9771	-3.0687	-3.1937	-2.7979	-3.1583	-2.9583	-3.0938	29.387	63.975	194.153	227.482	54.713	27.115	26.882	161.975	137.812	49.706	-38.615	297.130	-1.547	222.703	-16.165	43.410	0.00017824	0.00036635	0.00011136	662.12	2.4117e-06	2.9863e-06	627.59	199.96	1.2162e-06	2.995e-06	227.22	87.195	69.843	34.507	1.6782e-06	45.848	0.00023999	0.00017822	4.9482e-05	645.63	2.0859e-06	1.9467e-06	611.88	196.04	2.8324e-06	1.844e-06	222.79	86.228	68.983	34.051	2.8185e-06	45.394	137.673	36.489	25.292	-48.534	102.087	91.928	-49.623	-43.441	39.099	97.750	-45.777	-41.736	-39.057	-34.722	129.875	-38.065	-8191	255	
25695.602	1	1	0	0	0.053711	0.092271	0.28109	0.029864	0.063863	0.079179	0.020656	0.2141	0.05464	0.10731	0.03852	0.36334	0.28591	0.18208	0.16297	0.081565	-2.7167	-2.6729	-2.8542	-3.125	-2.8521	-3.1229	-2.9979	-2.8312	-3.0396	-2.8833	-2.9396	-3.1792	-2.9917	-3.0438	-3.0292	-2.8167	200.993	195.699	-12.731	19.061	14.320	30.766	235.345	254.105	-18.142	281.053	66.527	245.001	291.778	47.538	34.114	-46.609	0.00017104	0.00037978	0.00012541	661.95	2.9523e-06	3.2394e-06	622.32	197.9	3.3221e-06	2.9633e-06	224.07	85.528	68.698	33.693	2.4959e-06	44.762	0.00025235	0.00016793	4.6876e-05	641.28	2.0217e-06	1.7843e-06	604.4	193.83	2.3921e-06	2.0126e-06	218.9	84.332	67.701	33.319	3.0209e-06	44.131	137.074	18.459	23.191	-48.463	83.765	104.448	-49.534	-43.413	68.215	80.566	-46.037	-41.942	-39.081	-34.710	109.222	-38.255	-8191	255	
25695.697	1	1	0	0	0.1078	0.12485	0.15568	0.047051	0.11915	0.030753	0.024401	0.16778	0.10956	0.15952	0.20155	0.13614	0.13653	0.32893	0.19387	0.045193	-2.6583	-3.0167	-2.8375	-3.0354	-3.025	-2.9208	-3.2417	-2.9375	-3.1292	-2.9104	-2.7562	-3.0667	-2.8542	-3.1292	-2.9146	-2.9729	23.327	-57.402	262.704	96.079	182.267	194.961	189.880	198.930	31.240	110.441	257.066	130.305	31.826	253.953	100.365	199.910	0.00017454	0.00039075	0.00010078	653.71	1.7563e-06	4.3722e-06	617.03	196.85	8.8249e-07	3.4685e-06	224.39	85.033	68.373	33.665	2.1824e-06	45.02	0.0002504	0.00017032	4.7653e-05	636.85	1.9452e-06	1.8732e-06	602.05	192.47	1.9692e-06	2.5827e-06	218.15	83.699	67.531	33.324	2.8763e-06	44.326	129.663	17.301	33.858	-48.285	94.853	101.369	-49.522	-43.641	89.304	86.561	-45.835	-41.292	-39.016	-34.635	80.213	-38.141	-8191	255	
25695.795	1	1	0	0	0.21845	0.19176	0.22339	0.075215	0.14712	0.15843	0.17871	0.28644	0.045406	0.06452	0.1396	0.1217	0.15186	0.22662	0.12253	0.1605	-2.6333	-2.9958	-2.7854	-3.2417	-2.9313	-3.0167	-3.1583	-2.8375	-2.8646	-2.9521	-2.9188	-3.0667	-2.8333	-3.1021	-3.2771	-2.7958	131.023	-55.189	-15.248	283.013	71.256	46.579	258.277	200.260	31.401	-28.721	280.637	141.677	-4.989	-24.532	-50.408	147.997	0.00017112	0.00034062	8.7705e-05	655.55	1.783e-06	2.7395e-06	620.58	196.47	1.4142e-06	4.5873e-06	222.79	85.233	67.587	33.305	1.1718e-06	44.897	0.00024751	0.0001668	5.0579e-05	639.74	1.9778e-06	1.7436e-06	604.72	192.33	1.9968e-06	2.5821e-06	217.33	83.75	67.057	33.088	2.9004e-06	44.226	130.272	15.734	43.156	-48.681	102.691	102.955	-49.426	-43.465	65.813	96.133	-45.959	-41.528	-38.702	-34.556	108.916	-38.007	-8191	255	
25695.891	1	1	0	0	0.17739	0.29555	0.1886	0.040436	0.035372	0.060804	0.10907	0.17371	0.13929	0.13743	0.16533	0.31745	0.30443	0.15069	0.17515	0.18178	-2.8333	-2.9729	-2.8187	-3.125	-2.9625	-3.0604	-3.2125	-2.9729	-2.9375	-3.1396	-2.8063	-3.1875	-3.0438	-2.8208	-3.1854	-2.8958	21.395	218.630	-14.669	277.905	211.604	149.293	127.896	150.093	145.180	60.975	140.334	215.413	257.743	185.318	93.264	122.629	0.00015684	0.00031708	8.8547e-05	657.79	1.3857e-06	2.7458e-06	623.65	196.23	1.2692e-06	3.6098e-06	223.87	85.188	68.24	33.339	2.483e-06	44.784	0.00024256	0.00016063	4.8308e-05	639.48	2.1346e-06	1.8238e-06	606.57	191.99	1.901e-06	2.7269e-06	218.08	83.909	67.108	33.074	2.7955e-06	44.083	133.086	37.034	36.997	-48.345	71.939	105.422	-49.651	-43.562	91.730	87.754	-45.983	-41.604	-38.763	-34.635	83.790	-38.184	-8191	255	
25696.010	1	1	0	0	0.24561	0.0561	0.054288	0.16326	0.13078	0.035643	0.176	0.15331	0.23319	0.093889	0.089805	0.24607	0.022644	0.14182	0.04685	0.14314	-2.7438	-3.0083	-2.7396	-3.0583	-2.9917	-2.8083	-3.1354	-3.0208	-2.8125	-2.9437	-2.7417	-3.1125	-3.0208	-2.9562	-3.3167	-2.8896	89.855	244.410	166.320	295.812	73.801	129.088	200.077	-58.182	197.653	73.899	174.176	229.099	-24.637	1.328	136.560	290.681	0.00016582	0.00030617	9.4169e-05	652.73	1.9254e-06	3.868e-06	615.41	194.64	2.6581e-06	4.4817e-06	220.79	84.95	67.472	33.395	2.4866e-06	44.514	0.00023899	0.00015478	4.9131e-05	632.52	2.6772e-06	1.8683e-06	598.17	190.9	1.9999e-06	2.6792e-06	215	83.406	66.815	33.074	2.911e-06	43.937	135.233	6.394	31.490	-48.746	97.110	99.762	-49.515	-43.442	50.778	94.749	-46.001	-41.678	-39.075	-34.836	100.243	-38.085	-8191	255	
25696.082	1	1	0	0	0.071319	0.14043	0.067187	0.083223	0.091942	0.12018	0.081925	0.052161	0.058286	0.037622	0.067781	0.26099	0.038984	0.11999	0.15681	0.18461	-2.45	-3.1271	-2.9125	-2.9833	-2.9208	-2.8542	-3.1937	-2.8146	-2.8583	-3.1646	-2.8021	-3.2042	-3.1479	-2.9354	-3.2625	-3.0229	-51.659	-61.035	164.716	149.014	26.424	295.615	264.204	267.464	234.619	-30.689	-54.987	-57.675	10.111	274.014	103.660	-30.519	0.00016047	0.00041042	6.6305e-05	649.6	2.7493e-06	3.9185e-06	615.82	194.35	6.8753e-07	2.8837e-06	220.37	84.234	67.447	33.134	2.4747e-06	44.465	0.00023563	0.00016691	4.6876e-05	632.68	2.6564e-06	1.9455e-06	599.63	190.13	1.9396e-06	2.6322e-06	214.92	83.092	66.504	32.794	2.3583e-06	43.657	137.632	17.000	17.736	-48.119	84.337	111.975	-49.706	-43.505	47.391	99.687	-45.737	-41.973	-39.109	-34.743	81.940	-38.376	-8191	255	
25696.203	1	1	0	0	0.12094	0.1468	0.20722	0.2377	0.10792	0.1274	0.18003	0.11135	0.071307	0.1892	0.17727	0.12112	0.4061	0.20939	0.060752	0.22341	-2.3354	-3.0792	-2.7542	-2.9875	-2.9521	-2.7417	-3.1625	-3.0521	-2.8354	-3.1583	-2.8708	-2.9104	-3.175	-2.75	-3.3021	-3.0896	128.844	-33.086	264.329	201.999	79.084	67.584	-28.787	275.123	128.019	123.746	256.263	211.589	244.212	187.567	133.096	270.650	0.0001593	0.00030901	7.8375e-05	650.47	2.8463e-06	3.2441e-06	617.27	193.69	1.5817e-06	3.5567e-06	220.91	85.26	67.405	33.35	1.5513e-06	44.774	0.00023938	0.00017048	5.0899e-05	633.16	2.9116e-06	1.9313e-06	601.15	190.26	1.8465e-06	2.5002e-06	215.75	83.562	66.598	32.891	1.9339e-06	43.921	135.795	41.433	48.106	-48.718	84.504	93.969	-49.347	-43.448	60.327	107.585	-45.962	-41.654	-38.614	-34.689	88.329	-38.116	-8191	255	
25696.299	1	1	0	0	0.16127	0.33114	0.20519	0.14345	0.15026	0.24165	0.219	0.3175	0.064343	0.131	0.10327	0.19645	0.11669	0.32698	0.088086	0.10589	-2.4667	-2.9854	-2.9833	-3.0646	-3.0333	-2.8292	-3.0396	-3.1917	-2.7417	-3.1917	-2.9583	-2.9813	-3.1875	-3.0271	-3.125	-3.0812	249.149	210.272	249.040	231.252	215.511	240.519	155.913	159.879	204.308	138.403	230.887	52.014	-5.181	209.333	243.750	55.298	0.00018099	0.00025261	0.00010196	652.93	1.8245e-06	4.6023e-06	616.67	193.71	1.4283e-06	4.1601e-06	218.55	84.561	67.447	33.119	2.0244e-06	44.4	0.00024371	0.00015976	5.0457e-05	632.99	2.5301e-06	2.0091e-06	599.77	189.51	1.9767e-06	2.8118e-06	214.66	83.279	66.545	32.777	1.9956e-06	43.674	133.420	32.273	36.331	-48.830	81.224	95.638	-49.463	-43.473	93.323	98.121	-45.945	-41.559	-39.130	-34.793	106.569	-37.996	-8191	255	
25696.393	1	1	0	0	0.2514	0.17717	0.081073	0.1168	0.05556	0.13999	0.39472	0.081883	0.20913	0.17731	0.10901	0.13089	0.20061	0.15548	0.049539	0.15608	-2.5146	-3.125	-2.9417	-2.9062	-3.2708	-2.9083	-3.1083	-3.0896	-2.8583	-3.1208	-2.9875	-2.9188	-3.1188	-2.9104	-3.0667	-3.1354	6.744	257.274	137.340	183.879	130.321	-47.526	259.050	-11.472	-56.254	3.000	-41.233	75.305	-57.620	233.456	129.293	262.884	0.00015205	0.0002728	9.1752e-05	647.3	2.9461e-06	2.8118e-06	613.52	193.56	1.6576e-06	3.1405e-06	218.69	83.403	66.155	32.751	3.0323e-06	43.892	0.00023834	0.00015808	4.4331e-05	631.1	2.8105e-06	1.9047e-06	594.98	189.34	2.0714e-06	1.9155e-06	213.04	82.244	65.718	32.434	1.8168e-06	43.139	137.757	51.195	24.345	-48.533	66.647	104.305	-49.471	-43.626	84.168	87.657	-45.990	-41.690	-38.766	-34.636	89.249	-37.947	-8191	255	
25696.488	1	1	0	0	0.33327	0.094325	0.076306	0.26674	0.11836	0.15808	0.19585	0.2116	0.2523	0.069175	0.10104	0.082917	0.34829	0.055655	0.33202	0.10175	-2.4354	-3.2604	-3.0396	-2.7687	-3.1	-2.9021	-3.1875	-3.0375	-2.9146	-3.1958	-3.1021	-2.8958	-3.1708	-2.8396	-2.8542	-3.2521	145.926	255.862	63.376	248.475	155.073	2.708	166.640	242.525	94.723	68.359	-35.857	270.518	292.949	99.216	32.388	227.541	0.00015158	0.00025825	0.00010415	647.44	3.0135e-06	3.9592e-06	612.61	191.17	1.105e-06	3.0889e-06	216.39	83.342	66.391	32.486	2.3056e-06	43.325	0.00024386	0.00016041	4.5382e-05	629.12	2.5162e-06	1.7232e-06	594.7	187.79	1.8518e-06	1.5324e-06	211.71	81.769	65.354	32.136	1.8958e-06	42.847	134.738	27.437	16.626	-48.403	83.275	91.205	-49.539	-43.451	41.273	76.422	-46.245	-41.513	-39.443	-34.530	91.268	-38.149	-8191	255	
25696.609	1	1	0	0	0.18589	0.19657	0.20843	0.20075	0.30011	0.23532	0.06484	0.20894	0.31223	0.15792	0.18388	0.0087857	0.18956	0.13799	0.19682	0.24318	-2.4979	-3.2188	-2.8958	-2.85	-3.1083	-2.8563	-2.8792	-3.1604	-2.7854	-3.0833	-3.0729	-2.7146	-3.15	-3.0667	-3	-3.0958	97.504	140.918	-9.585	24.195	105.312	178.898	52.589	290.100	59.188	183.034	241.420	-27.004	-49.488	219.689	164.550	225.389	0.00016119	0.00039441	8.9136e-05	648.18	2.6517e-06	2.7986e-06	609.98	191.52	2.381e-06	3.8681e-06	218.88	83.506	66.829	32.959	2.2999e-06	44.147	0.00024209	0.00016718	4.462e-05	628.03	2.7506e-06	1.7781e-06	594.27	187.47	1.9428e-06	1.7866e-06	213.74	82.52	65.984	32.589	2.0634e-06	43.48	134.101	34.883	52.921	-48.663	77.759	88.753	-49.830	-43.617	75.997	92.667	-45.973	-42.132	-38.860	-34.582	77.459	-38.490	-8191	255	
25696.682	1	1	0	0	0.27648	0.17699	0.034594	0.20813	0.08931	0.13259	0.37505	0.12747	0.068704	0.19374	0.23262	0.22097	0.38293	0.20572	0.11101	0.25839	-2.2958	-2.9188	-3.0458	-2.7438	-3.2354	-3.0125	-3.0375	-3.2375	-2.9708	-3.1042	-3.1646	-2.8208	-3.25	-3.0146	-3.0104	-3.1813	-29.192	-34.599	-2.184	208.008	19.924	215.622	218.348	141.262	114.011	107.677	214.693	237.254	-7.271	273.034	248.076	-47.106	0.00015871	0.00033084	9.669e-05	647.12	2.5316e-06	2.8738e-06	611.28	193.09	1.6284e-06	2.7901e-06	216.95	83.279	66.281	32.732	7.7966e-07	43.785	0.00023843	0.00016425	4.6845e-05	630.59	2.1357e-06	2.1998e-06	594.63	188.34	2.0338e-06	1.6338e-06	211.98	81.767	65.527	32.257	1.939e-06	42.896	136.319	31.786	35.041	-48.605	72.965	93.735	-49.566	-43.440	38.836	94.840	-45.861	-41.458	-38.754	-34.829	102.175	-38.159	-8191	255	
25696.777	1	1	0	0	0.17134	0.10873	0.186	0.14195	0.27179	0.22119	0.05708	0.38902	0.05732	0.1347	0.18112	0.081935	0.13929	0.10593	0.18478	0.18521	-2.3333	-2.9667	-3.0625	-2.7583	-2.9958	-3.075	-2.9104	-3.1604	-2.8271	-2.8979	-3.2708	-2.9375	-3.0958	-3.1437	-2.7208	-3.0938	12.627	268.340	65.270	271.401	-44.689	291.232	105.570	-20.260	91.718	52.576	263.616	296.622	62.896	209.186	130.990	-51.109	0.0001634	0.00036859	0.00011493	647.8	2.8228e-06	3.7545e-06	608.85	191.7	1.0135e-06	4.345e-06	217.39	82.533	65.914	32.549	2.0621e-06	43.121	0.00024232	0.00016095	4.8278e-05	628.69	1.9398e-06	2.6654e-06	592.86	187.74	1.9296e-06	1.7591e-06	211.22	81.209	65.172	32.051	1.9328e-06	42.49	134.144	31.328	35.104	-48.714	88.698	91.287	-49.520	-43.672	83.145	86.075	-45.794	-41.531	-38.816	-35.042	80.045	-38.277	-8191	255	
25696.873	1	1	0	0	0.17947	0.14866	0.12817	0.083458	0.27857	0.02261	0.17224	0.099314	0.1481	0.12379	0.05059	0.20155	0.14834	0.22596	0.19228	0.31635	-2.5438	-2.9333	-3.0563	-2.8521	-3.0062	-2.9646	-2.9042	-2.9729	-2.9292	-2.8958	-3.125	-2.8187	-3.2208	-2.9896	-2.8104	-3.1937	198.808	106.942	-33.044	284.229	258.387	11.798	59.585	200.007	39.547	76.604	126.254	-30.542	234.998	276.539	214.875	130.160	0.00016176	0.00037373	8.0772e-05	650.14	1.9173e-06	1.5097e-06	609.67	191.93	1.1504e-06	3.8103e-06	215.53	81.572	65.968	32.024	1.6939e-06	42.893	0.00023245	0.00017286	4.6129e-05	629.17	1.8462e-06	2.4542e-06	594.88	187.39	1.8862e-06	1.7481e-06	210.05	80.528	64.845	31.77	2.0847e-06	42.204	129.326	22.532	21.852	-48.653	76.894	85.383	-49.642	-43.760	101.116	84.775	-45.787	-41.512	-38.995	-35.059	77.429	-38.449	-8191	255	
25696.994	1	1	0	0	0.17668	0.38948	0.040426	0.35395	0.13101	0.23361	0.17166	0.096535	0.18406	0.11351	0.19673	0.29808	0.19023	0.11642	0.19385	0.30471	-2.4479	-2.7208	-3.1729	-2.8583	-2.8729	-3.0208	-2.75	-3.0833	-2.9125	-3.0125	-3.1604	-3.0667	-2.9375	-3.0292	-2.6833	-3.2458	82.077	122.653	186.411	-47.575	-12.098	259.648	140.320	266.502	148.921	50.559	132.847	223.703	193.322	131.191	-21.557	240.996	0.00014676	0.00032836	8.4902e-05	651.95	2.2525e-06	3.4854e-06	612.83	190.99	2.3066e-06	3.3265e-06	214.47	81.809	65.323	32.041	1.107e-06	42.963	0.0002456	0.00016972	4.4361e-05	633.11	1.8045e-06	2.6814e-06	595.74	186.77	1.738e-06	1.6931e-06	209.73	80.425	64.536	31.752	2.0107e-06	42.276	146.032	19.409	10.057	-48.508	90.323	74.671	-49.723	-43.706	70.210	60.806	-45.792	-41.643	-38.766	-34.778	98.996	-38.050	-8191	255	
25697.092	1	1	0	0	0.2316	0.10919	0.10407	0.27774	0.21267	0.26738	0.098876	0.2136	0.056577	0.10378	0.14418	0.14923	0.029263	0.20263	0.19692	0.2113	-2.5542	-3.0896	-3.0604	-2.9667	-2.9562	-3.1667	-2.8563	-3.1208	-3.0354	-3.0146	-3.1646	-2.9229	-2.8583	-3.0438	-2.9688	-3.15	-8.826	90.056	242.083	279.827	260.698	236.758	135.540	-45.835	204.655	-41.951	250.969	231.012	163.586	191.963	74.261	265.044	0.00016238	0.00035084	0.00012476	651.05	1.6816e-06	3.6327e-06	606.51	191.82	1.3594e-06	4.111e-06	213.75	80.708	65.124	31.851	3.1097e-06	42.837	0.00027599	0.00017979	4.4377e-05	632.99	2.0185e-06	2.2807e-06	593.51	187.28	1.8163e-06	1.8843e-06	208.25	79.658	64.321	31.568	2.1044e-06	42.036	134.220	24.321	30.618	-48.602	102.858	81.815	-49.285	-43.771	82.150	102.501	-45.893	-41.820	-38.505	-34.734	70.451	-38.237	-8191	255	
25697.188	1	1	0	0	0.13699	0.10954	0.23867	0.30707	0.16145	0.089695	0.12039	0.16273	0.07009	0.12349	0.26889	0.21806	0.21805	0.22882	0.18637	0.15429	-2.4958	-2.7396	-3.1146	-2.975	-2.9729	-3.1083	-3.0687	-3.1521	-3.1813	-2.8104	-3.1958	-2.9854	-2.7771	-3.2458	-2.7687	-3.0812	165.397	189.342	193.138	243.141	140.532	286.611	293.747	162.639	203.678	87.271	225.169	184.074	184.759	283.685	63.550	243.092	0.00017	0.00034025	0.00010697	649.45	2.0254e-06	2.8585e-06	611.95	190.63	2.0372e-06	3.0676e-06	214.1	81.001	65.501	32.141	2.3146e-06	42.647	0.00026178	0.00017102	4.8964e-05	631.93	1.736e-06	2.7209e-06	594.62	187.3	1.7539e-06	1.6961e-06	208.49	79.816	64.467	31.674	1.9984e-06	41.947	142.447	19.225	36.108	-48.563	94.600	88.481	-50.036	-43.887	58.279	112.213	-45.827	-41.882	-39.100	-34.672	93.965	-38.066	-8191	255	
25697.283	1	1	0	0	0.3026	0.059852	0.16816	0.26664	0.23221	0.12196	0.025102	0.14232	0.14908	0.17265	0.052506	0.035877	0.086475	0.10422	0.10403	0.14834	-2.675	-2.6542	-2.9479	-3.0354	-2.6937	-2.925	-2.9021	-3.0146	-2.9646	-2.7646	-3.0729	-2.9333	-2.8354	-3.1625	-2.9271	-3.0625	151.174	53.456	276.442	283.336	129.652	18.772	-27.064	251.473	164.683	112.297	161.902	121.969	246.943	61.180	15.202	192.291	0.00015543	0.00030426	7.2678e-05	655.21	2.5035e-06	4.7099e-06	612.84	191.08	1.5096e-06	3.7161e-06	212.17	80.023	64.189	31.489	1.9117e-06	42.11	0.0002728	0.00017308	4.6007e-05	636.08	1.9409e-06	2.5413e-06	596.28	187.16	1.8555e-06	1.8183e-06	207.16	79.043	63.418	31.144	2.0231e-06	41.359	141.416	32.479	26.878	-48.627	79.997	80.462	-49.874	-43.825	48.483	102.833	-45.786	-41.869	-38.892	-34.389	94.107	-38.236	-8191	255	
25697.377	1	1	0	0	0.17869	0.10224	0.039525	0.13965	0.10942	0.19655	0.25452	0.17899	0.30567	0.054611	0.13376	0.20243	0.13148	0.2836	0.35816	0.043304	-2.7313	-2.7854	-2.9729	-2.9813	-2.8833	-3.2438	-2.9104	-2.9208	-3.1292	-2.85	-3.1146	-3.1188	-2.7292	-3.1833	-2.8521	-2.8042	96.133	112.312	38.705	56.918	157.708	153.176	181.913	283.760	136.787	251.943	214.135	187.997	291.215	286.976	167.371	-13.800	0.00015465	0.00039421	0.00012439	654.38	2.5443e-06	4.7115e-06	612.1	189.74	1.7913e-06	2.6164e-06	211.75	80.149	64.165	31.423	1.6698e-06	42.077	0.00027183	0.00016485	4.5962e-05	633.68	1.8885e-06	2.5252e-06	594.67	185.7	1.9592e-06	1.6851e-06	206.49	78.747	63.196	31.1	1.9255e-06	41.491	141.899	51.860	11.298	-48.435	75.221	95.934	-49.575	-43.630	77.168	91.613	-45.822	-41.653	-38.960	-34.563	82.758	-38.409	-8191	255	
25697.475	1	1	0	0	0.30722	0.25311	0.28234	0.03802	0.12319	0.1968	0.12122	0.15707	0.15746	0.26291	0.23462	0.049452	0.20239	0.1559	0.19303	0.23384	-2.8396	-2.7667	-3.0542	-3.2417	-2.6271	-3.0417	-2.9062	-2.9583	-3.1937	-2.8208	-3.1021	-3.0625	-2.7979	-3.0396	-2.85	-3.0438	-3.082	-55.912	75.360	274.570	186.673	276.837	-53.679	233.462	78.740	53.132	135.027	90.395	72.573	252.124	288.321	246.642	0.0001348	0.00033945	9.5345e-05	644.94	2.8599e-06	3.0679e-06	601.84	187.88	1.6946e-06	3.8167e-06	211.85	79.936	64.539	32.036	1.9059e-06	42.453	0.00027884	0.00017627	4.6708e-05	625.71	1.9222e-06	1.9449e-06	587.11	184.03	1.7888e-06	1.8116e-06	206.37	78.964	63.838	31.564	1.8998e-06	41.841	139.266	13.903	39.179	-48.566	92.648	86.667	-49.815	-43.325	58.148	94.309	-45.660	-41.705	-38.998	-34.704	89.922	-38.145	-8191	255	
25697.572	1	1	0	0	0.061469	0.10586	0.023705	0.21768	0.11471	0.21402	0.18863	0.11959	0.20009	0.18748	0.17122	0.067499	0.089896	0.14719	0.18062	0.21585	-2.6	-2.8292	-3.0062	-3.0792	-2.9208	-3.2438	-3.0021	-2.9271	-3.0563	-3.0854	-3.0208	-3.0771	-2.8208	-3.1854	-3.125	-2.9771	2.500	188.176	129.875	256.933	235.843	20.185	214.044	293.062	175.420	105.471	-55.835	-12.602	217.266	-40.750	88.714	256.339	0.00014741	0.00029054	0.00011189	646.03	1.8225e-06	4.183e-06	604.59	188.32	1.5335e-06	3.4083e-06	211.47	80.592	65.112	31.943	2.4003e-06	42.764	0.00026042	0.00014671	4.4468e-05	626.49	1.8869e-06	1.8677e-06	589.17	184.74	1.8401e-06	1.6741e-06	207.05	79.449	63.987	31.641	1.9418e-06	41.932	133.840	35.827	23.799	-48.935	68.257	113.554	-49.947	-43.920	89.241	89.974	-45.570	-41.715	-39.114	-34.623	85.758	-38.252	-8191	255	
25697.689	1	1	0	0	0.057423	0.33207	0.10427	0.077153	0.24339	0.076479	0.096479	0.21432	0.24443	0.11509	0.43936	0.25737	0.1759	0.33398	0.33815	0.18406	-2.8396	-2.95	-2.9104	-3.1146	-2.8896	-2.9979	-3.0042	-2.7521	-3.1771	-2.9437	-2.9667	-3.2958	-2.9188	-3.1083	-3.0646	-2.75	142.717	201.313	30.039	161.556	235.597	258.583	-30.126	284.546	263.791	223.837	135.737	271.185	219.711	294.361	251.460	254.161	0.00016539	0.00029608	7.745e-05	645.02	1.7533e-06	3.0926e-06	608.07	188.79	7.4716e-07	2.7848e-06	212.09	80.771	64.007	31.978	2.0132e-06	42.783	0.00025798	0.00016036	4.4483e-05	626.85	1.9013e-06	1.8362e-06	589.9	184.92	1.8613e-06	1.7371e-06	206.86	79.732	63.585	31.601	1.8089e-06	42.194	139.473	32.861	32.197	-48.291	84.769	103.055	-49.736	-43.697	79.069	78.371	-45.610	-41.649	-39.155	-34.785	66.086	-38.238	-8191	255	
25697.787	1	1	0	0	0.080989	0.066319	0.031906	0.29213	0.21553	0.091566	0.069603	0.019912	0.096417	0.29285	0.31885	0.095711	0.21872	0.10753	0.3516	0.076153	-2.7271	-2.8396	-2.9417	-3.175	-2.9292	-3.175	-3.1646	-2.8729	-3.1396	-3.0187	-2.9417	-3.1188	-2.8583	-2.9375	-3.2188	-2.8083	217.449	20.198	30.991	243.182	-54.880	-2.649	146.514	69.550	111.634	58.485	227.065	258.710	85.228	79.976	271.053	219.746	0.00014247	0.00028	9.6419e-05	642.53	2.5794e-06	3.6617e-06	606.37	189.86	1.6493e-06	2.9139e-06	214.75	81.58	65.797	33.019	1.4752e-06	43.582	0.00023711	0.00019186	4.3645e-05	625.94	1.9532e-06	1.8467e-06	591.64	185.69	1.8613e-06	1.6357e-06	209.69	80.549	64.905	32.476	1.9592e-06	42.991	135.968	21.703	37.113	-48.542	85.900	89.222	-49.586	-43.802	74.102	104.414	-46.243	-41.625	-39.253	-34.580	93.801	-38.018	-8191	255	
25697.883	1	1	0	0	0.06383	0.058634	0.2387	0.18158	0.29423	0.18861	0.25208	0.1716	0.16609	0.20191	0.12136	0.12219	0.13945	0.18925	0.19311	0.17932	-2.7667	-3.0208	-2.7958	-3.3375	-2.8896	-2.9875	-3.1688	-2.825	-2.9375	-2.9125	-2.9229	-3.1646	-2.8667	-3.1125	-3.0896	-2.9437	73.717	127.958	223.473	167.232	74.168	134.442	204.249	213.541	232.785	86.602	54.101	273.333	7.475	-60.930	167.670	18.416	0.00016933	0.00035312	7.5679e-05	645.64	1.3156e-06	3.6581e-06	603.46	190.38	2.3538e-06	3.4351e-06	215.61	81.886	65.856	32.932	1.0812e-06	43.441	0.00023495	0.00023566	4.4072e-05	627.5	1.7456e-06	1.5627e-06	588.65	186.97	1.9211e-06	1.6467e-06	209.63	80.857	65.102	32.444	1.9653e-06	42.804	131.831	14.579	31.505	-48.651	74.500	76.658	-49.575	-43.488	89.159	90.147	-45.575	-41.975	-39.088	-34.762	73.931	-38.142	-8191	255	
25697.979	1	1	0	0	0.20973	0.19217	0.059952	0.096619	0.16248	0.28251	0.34038	0.07983	0.10691	0.35407	0.20738	0.044277	0.075727	0.11364	0.15326	0.11912	-2.5917	-2.9375	-2.8	-3.0542	-2.8417	-2.7417	-3.1479	-3.0438	-3.0458	-2.9729	-3.0771	-3.3271	-3.0458	-2.7354	-3.0729	-2.8563	-8.219	212.936	84.472	229.500	-48.032	223.854	242.603	199.573	139.652	99.121	220.354	-55.758	-22.278	150.058	101.769	-12.735	0.00016199	0.00036888	9.6153e-05	648.5	1.5009e-06	3.4139e-06	606.62	190.84	1.2981e-06	3.2456e-06	215.39	81.295	65.139	32.371	1.9878e-06	42.9	0.00023139	0.00023701	5.1128e-05	630.1	1.8243e-06	1.7584e-06	590.79	187.03	1.9322e-06	1.5147e-06	209.55	80.286	64.595	31.994	1.9665e-06	42.313	137.720	22.428	39.538	-48.368	104.169	95.952	-49.717	-43.661	117.014	92.937	-45.773	-41.730	-38.997	-34.547	74.250	-38.039	-8191	255	
25698.074	1	1	0	0	0.22256	0.25171	0.10223	0.13201	0.11485	0.23543	0.10838	0.12227	0.060141	0.11033	0.046725	0.30442	0.056335	0.091267	0.22528	0.25651	-2.7458	-3.0521	-2.7687	-3.2604	-3.0312	-2.8187	-3.2354	-2.7417	-2.9062	-3.1229	-2.75	-2.9458	-2.7833	-2.9646	-3.15	-3.0396	261.307	62.041	209.596	-31.110	-49.515	270.799	-1.793	292.889	269.973	-39.527	239.188	143.506	36.301	5.752	62.110	280.693	0.00015803	0.00030892	7.6212e-05	644.58	1.7829e-06	3.7894e-06	607.38	190.52	1.0122e-06	3.7937e-06	215.32	81.662	65.301	32.353	2.1416e-06	42.891	0.00022337	0.0002466	4.4346e-05	627.6	1.8178e-06	1.9109e-06	589.89	186.53	1.9936e-06	1.621e-06	209.59	80.312	64.584	31.964	1.8869e-06	42.135	130.463	24.677	11.217	-48.622	106.923	103.132	-49.763	-43.656	51.975	78.274	-45.508	-41.681	-38.965	-34.457	79.509	-38.303	-8191	255	
25698.172	1	1	0	0	0.2798	0.30062	0.19029	0.074755	0.061728	0.21383	0.19439	0.3152	0.11831	0.11861	0.048482	0.15308	0.13848	0.089523	0.36786	0.032244	-2.6104	-2.8667	-2.7083	-3.2812	-2.9646	-2.8937	-3.15	-2.9646	-2.8958	-3.1833	-2.925	-3.0958	-2.9021	-2.8167	-3.0479	-2.8542	115.262	-23.074	215.685	184.380	32.407	53.536	-56.677	237.768	280.173	-8.748	-53.410	204.544	245.954	280.553	156.660	294.620	0.00014243	0.00042227	8.3938e-05	645.71	3.0333e-06	3.4585e-06	601.77	190.6	1.8431e-06	3.6272e-06	212.24	79.907	64.523	31.982	2.3671e-06	42.168	0.00022499	0.00023653	4.5763e-05	627.75	1.9083e-06	1.8109e-06	587.38	185.82	1.7935e-06	1.6418e-06	206.51	78.97	63.737	31.57	1.9984e-06	41.489	143.327	22.534	24.644	-48.735	70.757	86.115	-49.542	-43.426	88.587	90.902	-46.071	-41.657	-38.814	-34.515	83.655	-38.523	-8191	255	
25698.293	1	1	0	0	0.29774	0.078268	0.18175	0.087267	0.10062	0.32325	0.23374	0.14061	0.32185	0.27616	0.14323	0.16514	0.068102	0.15292	0.2871	0.19725	-2.4458	-3.2021	-2.7917	-3.1937	-3.0271	-2.6437	-3.2646	-3.0229	-2.8208	-2.9333	-2.7479	-2.9146	-2.9917	-2.7833	-3.0833	-2.9479	216.016	139.355	92.952	239.000	98.874	110.163	240.567	243.819	166.752	217.403	-17.341	126.193	274.154	91.068	26.207	143.075	0.00016349	0.00030239	9.8641e-05	644.36	1.9347e-06	3.1733e-06	599.49	187.36	1.9509e-06	3.0637e-06	209.41	78.898	63.338	31.241	1.8553e-06	41.153	0.00021871	0.00025114	4.6647e-05	625	1.7665e-06	1.8208e-06	582.65	183.04	2.0343e-06	1.7536e-06	203.75	77.554	62.798	30.855	1.9889e-06	40.563	145.822	13.217	40.691	-48.520	75.605	103.551	-49.590	-43.426	92.330	92.901	-45.515	-41.551	-39.179	-34.567	82.975	-38.128	-8191	255	
25698.387	1	1	0	0	0.26077	0.15496	0.36547	0.34324	0.11226	0.074819	0.19913	0.36348	0.38978	0.14897	0.0907	0.24548	0.062047	0.15593	0.176	0.12996	-2.5729	-3.1104	-2.8708	-2.9646	-2.9313	-2.7083	-3.0521	-2.9417	-2.6229	-2.8812	-2.7979	-2.8208	-3.0979	-2.8854	-3.0458	-3.0938	77.862	134.759	276.037	-58.256	49.663	-33.911	217.345	208.523	71.073	56.325	126.087	239.563	45.464	211.194	65.827	-41.234	0.00014584	0.00033931	0.00010782	644.29	2.2613e-06	3.5272e-06	596.98	185.71	1.6429e-06	3.6507e-06	207.69	78.224	62.885	30.55	2.3179e-06	40.697	0.00023062	0.00023317	4.9832e-05	623.88	1.7638e-06	1.9733e-06	581.33	182	2.0142e-06	1.8122e-06	202.32	77.016	61.999	30.316	2.0253e-06	40.054	133.102	14.890	18.424	-48.439	93.875	85.960	-49.543	-43.554	97.475	95.916	-45.736	-41.875	-38.891	-34.678	83.387	-38.225	-8191	255	
25698.482	1	1	0	0	0.16285	0.080861	0.13604	0.22532	0.087143	0.13247	0.2085	0.1798	0.18402	0.15109	0.10727	0.079482	0.095383	0.33389	0.074157	0.15302	-2.4625	-2.9083	-2.8417	-3.0625	-3.2562	-2.8333	-2.9667	-3.1125	-2.7271	-3.1521	-3.0563	-2.8146	-3.0167	-2.8833	-2.8896	-2.9354	54.762	99.142	38.827	284.223	233.904	177.285	253.817	280.016	187.062	38.032	287.583	251.068	250.090	265.881	277.116	123.210	0.00014063	0.00045126	8.9768e-05	639.81	2.8382e-06	2.9751e-06	597.52	184.22	1.2425e-06	3.1246e-06	204.68	77.441	62.019	30.141	1.2748e-06	39.771	0.00022399	0.0002185	4.843e-05	621.07	1.8847e-06	1.901e-06	581.79	180.47	1.8745e-06	1.6448e-06	200.34	76.324	61.322	29.843	1.8622e-06	39.258	133.064	29.535	15.468	-48.405	84.817	92.280	-49.501	-43.530	120.612	75.862	-45.788	-41.762	-39.008	-34.163	57.620	-38.459	-8191	255	
25698.555	1	1	0	0	0.14399	0.14065	0.19011	0.16115	0.085192	0.24842	0.044137	0.29422	0.23296	0.17901	0.045836	0.14566	0.08984	0.20906	0.2002	0.053931	-2.325	-3.1104	-2.8396	-3.0417	-3.2	-2.8521	-3.1125	-3.0479	-2.8146	-3.0708	-2.7729	-2.9271	-3.0938	-2.8521	-3.0125	-3.0021	172.871	14.712	237.472	267.078	144.401	29.796	223.828	174.371	42.517	177.945	71.439	15.449	60.785	265.868	178.729	160.053	0.00015644	0.00035875	0.00012353	631.61	2.3932e-06	4.124e-06	593.94	181.45	1.841e-06	2.6965e-06	202.73	76.256	61.106	29.735	2.5506e-06	39.691	0.00023148	0.00016582	5.9433e-05	614.56	1.8521e-06	1.8492e-06	575.97	177.77	1.8264e-06	1.5764e-06	197.08	74.991	60.448	29.539	1.8919e-06	39.039	134.123	24.956	37.334	-48.779	68.315	90.785	-49.675	-43.361	60.770	86.579	-45.974	-41.684	-38.949	-34.695	88.363	-38.281	-8191	255	
25698.676	1	1	0	0	0.097106	0.14261	0.1103	0.26228	0.1543	0.16146	0.18761	0.15322	0.043486	0.0764	0.18644	0.1476	0.17679	0.32475	0.079382	0.27177	-2.4167	-3.1937	-2.9667	-2.8312	-3.0438	-2.9083	-3.1417	-3.0771	-2.8208	-3.05	-3.125	-2.7854	-3.3417	-2.9562	-2.9417	-3.0875	11.369	203.044	85.451	253.384	32.587	199.464	281.917	30.260	-6.907	-13.199	179.080	44.024	130.442	245.298	60.586	285.948	0.00014086	0.0003009	0.000107	630.18	1.8637e-06	2.6386e-06	589.48	182.68	1.6256e-06	2.651e-06	203.84	76.352	61.452	29.973	2.2042e-06	39.9	0.00022086	0.00016025	6.6428e-05	613.31	1.8082e-06	1.9053e-06	575	178.76	1.8978e-06	1.698e-06	197.79	75.368	60.957	29.682	1.8947e-06	39.223	135.948	17.669	41.980	-48.415	76.346	77.807	-49.727	-43.527	74.508	75.842	-46.028	-41.553	-39.010	-34.368	96.167	-38.244	-8191	255	
25698.771	1	1	0	0	0.048891	0.11454	0.23376	0.10821	0.07158	0.12019	0.29415	0.19969	0.14611	0.079891	0.10541	0.22037	0.14368	0.24048	0.074492	0.14356	-2.4875	-3.1229	-3.0167	-2.9583	-3.1437	-3.1229	-2.9042	-3.1729	-2.75	-3.0312	-3.1312	-2.7229	-3.2479	-2.7083	-2.8646	-3.1333	-27.668	163.534	206.274	217.636	-37.538	107.765	229.471	212.072	189.895	-23.219	282.145	231.317	273.587	50.869	20.493	275.724	0.00013365	0.00034922	0.00010986	636.45	1.2356e-06	2.7972e-06	593	182.48	1.7386e-06	2.8655e-06	205.11	75.824	61.206	29.798	1.7727e-06	39.711	0.00022865	0.00014866	6.0774e-05	616.83	1.8419e-06	1.6084e-06	577.02	178.7	1.8184e-06	1.7059e-06	198.82	75.138	60.634	29.462	1.8129e-06	39.049	132.768	34.492	32.585	-48.759	87.759	67.698	-49.770	-43.802	82.418	108.059	-46.172	-41.790	-38.784	-34.346	81.095	-37.978	-8191	255	
25698.867	1	1	0	0	0.20772	0.18981	0.18225	0.11448	0.1361	0.057539	0.14112	0.11869	0.051007	0.20226	0.21864	0.21506	0.35208	0.15618	0.13569	0.19621	-2.4583	-2.9208	-2.975	-2.8896	-3.1437	-3.0792	-3.0375	-3.1104	-2.7979	-3.2062	-3.0021	-2.7583	-3.1583	-3.1396	-2.8063	-3.2729	197.656	204.819	-10.094	-4.514	24.802	-21.692	116.215	-59.106	-13.091	210.961	90.074	171.323	-21.973	230.501	132.334	18.623	0.00014843	0.00029095	8.3907e-05	634.21	2.7344e-06	3.529e-06	591.5	181.68	1.4582e-06	2.6832e-06	202.72	75.459	60.892	29.481	2.153e-06	39.134	0.00021969	0.00015819	6.5178e-05	616.69	1.7954e-06	1.6973e-06	576.1	178.17	1.9195e-06	1.7188e-06	197.01	74.646	60.169	29.24	1.9362e-06	38.499	133.444	40.145	36.055	-48.638	102.401	98.362	-49.799	-43.358	42.681	98.968	-46.157	-41.561	-39.245	-34.596	92.290	-37.845	-8191	255	
25698.963	1	1	0	0	0.073486	0.084211	0.16178	0.16824	0.12907	0.18044	0.20176	0.18333	0.13762	0.036089	0.2852	0.15001	0.062261	0.14454	0.15817	0.32609	-2.4875	-2.8646	-3.2062	-2.8021	-3.0125	-3.0271	-3.0375	-3.1521	-2.9083	-2.9146	-3.2083	-2.9021	-2.9896	-3.1063	-2.7833	-3.05	249.447	254.785	121.394	28.400	-35.272	273.531	128.248	-32.675	-57.171	19.477	274.882	157.006	255.374	264.424	79.020	278.066	0.00013955	0.00023695	0.0001035	633.89	2.0143e-06	3.121e-06	585.83	181.63	2.1184e-06	2.979e-06	202.09	75.936	61.095	29.752	1.7047e-06	39.44	0.00022479	0.00015619	6.2831e-05	613.76	1.9067e-06	1.6812e-06	570.87	177.2	2.2063e-06	1.8092e-06	196.6	74.694	60.543	29.531	1.9474e-06	38.914	131.772	27.519	12.243	-48.582	62.022	86.071	-49.727	-43.475	66.585	78.602	-45.634	-41.780	-38.678	-34.522	72.395	-38.113	-8191	255	
25699.084	1	1	0	0	0.12403	0.053744	0.1917	0.19785	0.1199	0.27354	0.067783	0.30145	0.1794	0.23765	0.12772	0.12525	0.21495	0.26929	0.16724	0.21729	-2.6375	-2.8292	-3.0958	-2.8312	-2.9792	-3.0208	-2.9083	-3.2125	-2.9958	-2.8979	-3.0979	-2.8625	-2.9667	-3.0729	-2.9458	-3.075	145.511	215.102	10.266	-41.662	-44.052	88.751	142.789	247.029	173.218	-24.048	-48.363	289.407	225.705	30.893	108.154	117.103	0.00014395	0.00033486	0.0001036	629.56	2.5778e-06	2.9434e-06	588.67	181.44	1.7488e-06	2.1902e-06	201.88	75.984	61.644	30.221	1.9871e-06	39.823	0.00021553	0.00016469	7.1746e-05	612.72	1.8119e-06	1.7775e-06	570.31	178.1	2.4334e-06	1.7872e-06	197.17	75.078	60.9	29.817	2.0825e-06	39.158	134.992	24.553	55.977	-48.505	81.248	93.655	-50.215	-43.559	84.846	94.095	-45.893	-41.782	-39.175	-34.549	84.832	-38.205	-8191	255	
25699.180	1	1	0	0	0.094363	0.15761	0.20774	0.11652	0.10532	0.15418	0.11119	0.14608	0.20332	0.096713	0.18154	0.28497	0.27575	0.20023	0.19211	0.10199	-2.5333	-2.7812	-3.1167	-3.0187	-3.0458	-3.1646	-2.7542	-3.2104	-3.075	-2.8187	-3.3042	-2.9104	-2.9604	-2.9958	-2.8583	-3.1271	18.431	-13.786	108.433	235.027	32.842	0.923	156.169	291.074	-46.570	270.504	229.545	210.592	286.957	243.488	258.160	244.447	0.00014574	0.00032171	9.546e-05	632.24	2.2919e-06	4.9245e-06	589.88	182.59	1.2445e-06	2.9398e-06	204.85	76.884	62.062	30.427	2.7538e-06	40.33	0.00020975	0.0001662	6.2435e-05	614.18	1.8494e-06	1.8096e-06	573.63	178.77	2.5562e-06	1.6961e-06	198.62	75.715	61.181	30.091	2.0287e-06	39.676	136.294	27.777	29.719	-48.557	111.221	94.659	-49.699	-43.518	81.061	87.319	-45.999	-41.711	-38.603	-34.387	105.201	-38.194	-8191	255	
25699.252	1	1	0	0	0.031592	0.076313	0.12083	0.1598	0.29732	0.060233	0.18881	0.31923	0.2202	0.13127	0.15139	0.2402	0.17633	0.019449	0.14516	0.25469	-2.4708	-2.8187	-3.1458	-3.1354	-2.9188	-3.0896	-3.0438	-3.1813	-2.9542	-2.6771	-3.125	-2.7542	-2.9458	-3.3021	-2.7083	-3.2167	45.161	207.805	69.447	139.076	-12.241	6.520	-14.663	208.419	108.171	37.953	165.662	198.272	283.590	203.858	13.682	229.867	0.00013618	0.00032726	0.00012602	632.94	2.1515e-06	3.0534e-06	588.48	183.58	1.985e-06	2.5572e-06	205.25	77.4	62.505	30.762	2.2572e-06	40.324	0.00021815	0.00016377	5.9631e-05	613.88	1.8815e-06	1.7646e-06	573	179.65	2.6562e-06	1.687e-06	199.61	76.202	61.777	30.39	2.1212e-06	39.851	138.333	41.380	29.530	-48.482	82.192	92.338	-49.767	-43.479	56.327	107.864	-45.797	-42.070	-38.958	-34.473	74.952	-37.945	-8191	255	
25699.371	1	1	0	0	0.090669	0.19419	0.10395	0.27219	0.14725	0.1723	0.26587	0.33268	0.16362	0.031849	0.011415	0.16513	0.1769	0.10909	0.067429	0.01993	-2.5854	-2.7062	-3.0979	-2.9167	-2.9875	-3.1458	-3.0375	-3.1208	-3.1917	-2.7875	-3.1562	-3.1063	-2.8708	-3.2458	-2.8458	-3.0146	275.411	248.553	0.840	65.549	67.656	116.775	294.372	227.597	148.377	174.159	131.704	207.091	34.133	114.901	43.384	217.064	0.00015738	0.00028954	0.0001157	634.92	1.9939e-06	2.677e-06	589.15	184.15	1.5591e-06	2.6915e-06	202.98	76.081	62.149	30.604	2.6643e-06	40.018	0.00022042	0.000174	4.5321e-05	615.16	1.9158e-06	1.7769e-06	572.12	180.09	2.6694e-06	1.7084e-06	197.72	75.371	61.366	30.177	2.0427e-06	39.375	134.779	20.552	22.104	-48.607	115.855	67.456	-49.597	-43.449	60.169	74.187	-45.876	-41.521	-38.933	-34.619	77.479	-38.263	-8191	255	
25699.467	1	1	0	0	0.03525	0.26539	0.071579	0.23068	0.23008	0.12483	0.10924	0.21459	0.038515	0.17179	0.080025	0.15015	0.22269	0.1547	0.18077	0.20992	-2.5187	-2.8125	-3	-2.9062	-2.8375	-3.2083	-2.8958	-2.9146	-3.2729	-2.7708	-3.2333	-3.2	-2.7625	-3.15	-3.1958	-2.9667	94.405	228.580	-15.919	287.361	-42.486	56.258	240.523	247.360	253.890	41.621	131.310	258.440	22.994	293.978	159.556	-47.310	0.00013151	0.00031534	8.3075e-05	632.92	1.85e-06	1.8537e-06	590.35	184.42	1.5755e-06	2.739e-06	203.78	76.103	61.835	30.204	2.4624e-06	39.931	0.00023124	0.00017578	4.9025e-05	616.36	2.0148e-06	1.6176e-06	573.37	179.9	2.6096e-06	1.7096e-06	198.06	74.929	61.09	29.978	2.3129e-06	39.293	130.772	17.736	29.179	-48.491	67.902	98.935	-49.656	-43.539	59.114	86.115	-45.999	-41.928	-39.039	-34.425	98.210	-37.937	-8191	255	
25699.562	1	1	0	0	0.20634	0.2817	0.11538	0.089893	0.038537	0.19004	0.34605	0.31964	0.12215	0.30471	0.1043	0.17259	0.14287	0.058944	0.13174	0.35289	-2.9188	-2.7396	-3.2625	-2.9896	-2.8771	-3.0875	-3.0104	-3.05	-3.0854	-2.9521	-3.1083	-3.2604	-2.8167	-3.3958	-2.9688	-2.8604	-51.632	230.270	88.135	182.839	198.262	52.875	191.252	177.877	-40.612	-60.113	-41.692	272.652	30.012	-10.937	182.299	212.141	0.00014859	0.0003388	8.8826e-05	634.28	2.5038e-06	2.8292e-06	590.63	184.38	5.8623e-07	3.3996e-06	201.97	76.736	61.488	30.421	1.4245e-06	40.187	0.00021933	0.00018017	4.6038e-05	617.52	1.8328e-06	1.6349e-06	575.27	179.92	2.6975e-06	1.7426e-06	197.92	75.354	61.029	30.12	2.5242e-06	39.644	138.194	30.779	14.668	-48.520	72.674	106.777	-49.818	-43.313	144.505	89.360	-45.661	-41.899	-39.122	-34.652	57.405	-38.368	-8191	255	
25699.684	1	1	0	0	0.044785	0.082869	0.0043402	0.20401	0.015569	0.16047	0.33777	0.26991	0.2493	0.1595	0.15367	0.13375	0.12252	0.049012	0.088638	0.073359	-2.7917	-2.75	-2.9875	-3.2896	-2.8375	-3.2354	-3.0938	-2.8521	-3.1521	-2.9542	-3.0104	-3.0542	-2.7229	-3.125	-2.9979	-2.9437	272.632	60.962	228.992	280.318	237.074	246.071	262.082	296.063	-1.193	148.253	162.870	295.691	-53.654	-12.760	123.626	-36.480	0.00015148	0.00027187	7.9651e-05	636.87	1.6325e-06	3.0693e-06	589.3	183.65	6.9959e-07	3.8585e-06	204.96	76.364	62.526	30.912	2.3845e-06	40.754	0.00021547	0.00016664	4.4788e-05	618.49	1.927e-06	1.6997e-06	573.51	179.94	2.4159e-06	1.6955e-06	198.38	75.426	61.663	30.54	2.8174e-06	39.923	129.653	38.702	49.881	-48.506	77.470	112.685	-49.544	-43.257	44.569	67.092	-46.062	-41.569	-38.886	-34.735	50.466	-38.251	-8191	255	
25699.777	1	1	0	0	0.28044	0.16235	0.18143	0.2782	0.049073	0.095494	0.17016	0.24873	0.1407	0.040949	0.21007	0.076603	0.072104	0.1543	0.18239	0.1532	-2.7271	-2.7625	-2.8875	-3.1333	-2.6792	-3.0042	-3.1333	-2.8833	-3.1646	-2.9188	-3.0396	-3.275	-2.9208	-2.9729	-3.1333	-2.8854	-6.439	106.450	-24.849	249.243	-31.663	-50.589	174.481	-48.443	230.782	135.532	-27.996	25.715	-49.695	-35.432	82.048	-22.588	0.00015864	0.00030517	9.486e-05	638.24	1.8839e-06	1.9865e-06	589.1	185.48	1.0044e-06	2.9309e-06	203.55	76.802	62.786	30.918	2.2231e-06	40.271	0.00021196	0.00015651	4.3691e-05	618.07	1.858e-06	1.7331e-06	572.52	180.97	2.2365e-06	2.1868e-06	198.93	75.886	61.856	30.596	2.6688e-06	39.788	133.498	5.250	17.467	-48.472	55.798	105.038	-49.729	-43.608	92.756	123.697	-45.859	-41.690	-38.673	-34.424	90.569	-38.439	-8191	255	
25699.850	1	1	0	0	0.23325	0.25317	0.10559	0.1852	0.16908	0.27094	0.1613	0.064901	0.13396	0.29154	0.096552	0.044294	0.058193	0.094154	0.22228	0.10765	-2.5917	-2.9583	-2.8937	-3.2313	-2.6792	-3.1583	-3.0771	-2.6229	-3.2229	-2.9771	-3.0354	-3.3146	-2.9708	-2.9229	-3.1104	-2.8729	135.536	172.228	42.017	230.118	122.439	128.854	149.897	-37.644	162.054	221.863	258.785	33.965	65.174	247.905	49.868	-21.717	0.00016397	0.00030449	8.4627e-05	640.58	2.6674e-06	2.0954e-06	590.86	184.41	9.431e-07	1.3389e-06	203.72	76.465	62.091	30.465	2.1552e-06	39.799	0.00022364	0.00014893	4.5855e-05	620.83	1.9259e-06	1.7263e-06	575.96	181.04	1.9491e-06	2.2412e-06	198.1	75.168	61.427	30.151	2.7266e-06	39.126	138.258	34.420	5.671	-48.764	84.282	102.975	-49.432	-43.392	62.511	81.410	-46.070	-41.605	-39.118	-34.374	77.310	-38.121	-8191	255	
25699.971	1	1	0	0	0.1015	0.24856	0.12893	0.1996	0.093518	0.46832	0.093332	0.13225	0.20359	0.19314	0.10673	0.21393	0.18068	0.18631	0.14889	0.19145	-2.6708	-2.9917	-3.0292	-3.0667	-2.85	-2.9083	-3.1479	-2.7375	-3.1333	-3.0417	-2.9292	-3.1583	-2.9042	-2.875	-3.0979	-2.9042	-50.710	216.821	169.935	261.963	-52.942	284.420	269.659	209.220	254.142	210.963	30.052	159.367	89.513	268.631	15.669	92.267	0.00014302	0.00021845	0.00010488	635.18	2.7284e-06	3.0732e-06	590.27	182.92	1.7524e-06	6.0947e-07	202.45	75.774	61.266	30.125	2.0302e-06	39.222	0.00021998	0.0001583	4.9147e-05	619.39	1.95e-06	1.6664e-06	574.8	179.01	1.8507e-06	2.6255e-06	196.94	74.544	60.653	29.763	2.5567e-06	38.794	133.801	36.449	25.303	-48.607	87.952	91.999	-49.671	-43.745	51.528	56.856	-46.060	-41.768	-38.560	-34.456	51.231	-38.462	-8191	255	
25700.066	1	1	0	0	0.20454	0.16725	0.070454	0.01398	0.12566	0.14748	0.013188	0.092523	0.10627	0.18564	0.18543	0.11323	0.19859	0.13009	0.10487	0.12527	-2.4854	-3.0958	-2.8292	-3.3479	-3.0708	-3.0271	-3.4292	-2.775	-3.225	-3.1333	-2.8417	-3.2229	-2.9708	-2.9292	-3.2062	-2.7833	110.402	28.190	-47.214	212.454	-40.067	-8.233	-31.259	12.380	147.623	-32.579	-40.067	281.684	280.401	182.794	7.325	265.253	0.00013703	0.00033691	8.2952e-05	633.02	2.3043e-06	3.2462e-06	584.77	183.09	1.9872e-06	2.7743e-06	200.41	75.687	61.534	30.229	3.2207e-06	39.093	0.00021653	0.0001603	4.6617e-05	616.91	2.1667e-06	1.8492e-06	569.85	179.22	1.893e-06	2.3255e-06	194.85	74.354	60.797	29.897	2.9564e-06	38.69	134.785	41.992	38.468	-48.264	106.621	84.482	-49.710	-43.616	90.496	109.244	-46.063	-41.350	-38.915	-34.265	80.378	-38.103	-8191	255	
25700.162	1	1	0	0	0.069643	0.1499	0.3705	0.19233	0.44967	0.071098	0.16687	0.1261	0.13355	0.19622	0.12309	0.083417	0.12454	0.15155	0.10001	0.078718	-2.6063	-3.0312	-2.7042	-3.1833	-3.0583	-3.0479	-3.1604	-2.9667	-3.1125	-3.0729	-2.9938	-3.2917	-2.9	-2.9938	-3.1333	-2.7938	264.484	93.880	51.128	169.574	273.104	260.095	237.725	280.114	4.392	-6.418	-52.777	-0.497	92.660	180.716	15.402	219.918	0.00013986	0.00031377	8.0875e-05	635.36	2.5039e-06	2.0747e-06	584.35	182.5	1.67e-06	3.8956e-06	199.55	74.939	60.748	29.903	2.0805e-06	39.002	0.00021187	0.00015727	4.8385e-05	617.04	2.6318e-06	1.7991e-06	569.37	178.35	1.8089e-06	2.5852e-06	194.25	73.686	60.253	29.656	2.5203e-06	38.412	137.189	29.066	32.751	-48.365	113.151	93.612	-49.285	-43.303	75.041	59.531	-45.686	-41.535	-38.985	-34.482	55.243	-38.158	-8191	255	
#DATA ENDS
