BOXY.EXE: ISS Imagent and Oximeter Data Acquisition Program Version 0.80
Ascii Record File

#ACQ INFORMATION
2  Detector Channels 
16  External MUX Channels 
1  Auxiliary Channels 
5000  Waveform (CCF) Frequency (Hz)
1  Waveforms Skipped 
30  Waveforms Averaged 
1  Cycles Averaged 
16  Acquisitions per Waveform 
10.0806  Updata Rate (Hz) 

#FILE INFORMATION
TRUE -- External MUX Channel results are PARSED.
FALSE -- AC DC and Phase are NOT grouped.
TRUE -- Companion Program Settings File CREATED.
FALSE -- AC data not excluded
FALSE -- DC data not excluded
FALSE -- Phase data not excluded
FALSE -- Auxillary Chn. data not excluded
Tab delimiters

#CALIBRATION STATE
TRUE -- Waveform Calibration Values APPLIED.


#AUX CALIBRATION VALUES
Val Type	aux-1	

Term	1.0000e+00	
Factor	0.0000e+00	


#WF CALIBRATION VALUES
A = Detector Channel
Val Type	A-AC1	A-AC2	A-AC3	A-AC4	A-AC5	A-AC6	A-AC7	A-AC8	A-AC9	A-AC10	A-AC11	A-AC12	A-AC13	A-AC14	A-AC15	A-AC16	A-DC1	A-DC2	A-DC3	A-DC4	A-DC5	A-DC6	A-DC7	A-DC8	A-DC9	A-DC10	A-DC11	A-DC12	A-DC13	A-DC14	A-DC15	A-DC16	A-Ph1	A-Ph2	A-Ph3	A-Ph4	A-Ph5	A-Ph6	A-Ph7	A-Ph8	A-Ph9	A-Ph10	A-Ph11	A-Ph12	A-Ph13	A-Ph14	A-Ph15	A-Ph16	

Term	0.00000e+00	0.00000e+00	0.00000e+00	0.00000e+00	0.00000e+00	0.00000e+00	0.00000e+00	0.00000e+00	0.00000e+00	0.00000e+00	0.00000e+00	0.00000e+00	0.00000e+00	0.00000e+00	0.00000e+00	0.00000e+00	0.00000e+00	0.00000e+00	0.00000e+00	0.00000e+00	0.00000e+00	0.00000e+00	0.00000e+00	0.00000e+00	0.00000e+00	0.00000e+00	0.00000e+00	0.00000e+00	0.00000e+00	0.00000e+00	0.00000e+00	0.00000e+00	0.00000e+00	0.00000e+00	0.00000e+00	0.00000e+00	0.00000e+00	0.00000e+00	0.00000e+00	0.00000e+00	0.00000e+00	0.00000e+00	0.00000e+00	0.00000e+00	0.00000e+00	0.00000e+00	0.00000e+00	0.00000e+00	
Factor	1.00000e+00	1.00000e+00	1.00000e+00	1.00000e+00	1.00000e+00	1.00000e+00	1.00000e+00	1.00000e+00	1.00000e+00	1.00000e+00	1.00000e+00	1.00000e+00	1.00000e+00	1.00000e+00	1.00000e+00	1.00000e+00	1.00000e+00	1.00000e+00	1.00000e+00	1.00000e+00	1.00000e+00	1.00000e+00	1.00000e+00	1.00000e+00	1.00000e+00	1.00000e+00	1.00000e+00	1.00000e+00	1.00000e+00	1.00000e+00	1.00000e+00	1.00000e+00	X	X	X	X	X	X	X	X	X	X	X	X	X	X	X	X	

B = Detector Channel
Val Type	B-AC1	B-AC2	B-AC3	B-AC4	B-AC5	B-AC6	B-AC7	B-AC8	B-AC9	B-AC10	B-AC11	B-AC12	B-AC13	B-AC14	B-AC15	B-AC16	B-DC1	B-DC2	B-DC3	B-DC4	B-DC5	B-DC6	B-DC7	B-DC8	B-DC9	B-DC10	B-DC11	B-DC12	B-DC13	B-DC14	B-DC15	B-DC16	B-Ph1	B-Ph2	B-Ph3	B-Ph4	B-Ph5	B-Ph6	B-Ph7	B-Ph8	B-Ph9	B-Ph10	B-Ph11	B-Ph12	B-Ph13	B-Ph14	B-Ph15	B-Ph16	

Term	0.00000e+00	0.00000e+00	0.00000e+00	0.00000e+00	0.00000e+00	0.00000e+00	0.00000e+00	0.00000e+00	0.00000e+00	0.00000e+00	0.00000e+00	0.00000e+00	0.00000e+00	0.00000e+00	0.00000e+00	0.00000e+00	0.00000e+00	0.00000e+00	0.00000e+00	0.00000e+00	0.00000e+00	0.00000e+00	0.00000e+00	0.00000e+00	0.00000e+00	0.00000e+00	0.00000e+00	0.00000e+00	0.00000e+00	0.00000e+00	0.00000e+00	0.00000e+00	-1.56410e+02	-1.27925e+02	-1.23922e+02	-1.82673e+02	-7.57512e+01	-6.11924e+01	-1.55323e+02	-1.62015e+02	-8.33286e+01	-6.57451e+01	-1.72119e+02	-1.69838e+02	-1.79785e+02	-1.77170e+02	-7.38895e+01	-1.49034e+02	
Factor	2.27176e-05	1.55070e-04	4.33590e-05	1.76889e-01	1.36821e-06	1.78199e-06	1.63072e-01	4.85717e-02	1.34987e-06	1.70672e-06	9.20508e-02	2.79817e-02	2.79836e-02	8.82360e-03	1.44751e-06	1.26394e-02	1.41485e-05	2.59860e-05	7.31483e-06	8.80964e-02	2.56862e-07	2.96358e-07	7.67068e-02	2.43435e-02	2.54028e-07	2.93281e-07	4.48789e-02	1.37183e-02	1.41984e-02	4.46541e-03	2.69071e-07	6.22161e-03	X	X	X	X	X	X	X	X	X	X	X	X	X	X	X	X	



#DISTANCE SETTINGS
A = Detector Channel
A-1	A-2	A-3	A-4	A-5	A-6	A-7	A-8	A-9	A-10	A-11	A-12	A-13	A-14	A-15	A-16	

2.5000e+00	3.0000e+00	2.5000e+00	3.0000e+00	2.0000e+00	3.0000e+00	1.5000e+00	3.0000e+00	3.0000e+00	3.0000e+00	3.0000e+00	3.0000e+00	3.0000e+00	3.0000e+00	1.5000e+00	3.0000e+00	

B = Detector Channel
B-1	B-2	B-3	B-4	B-5	B-6	B-7	B-8	B-9	B-10	B-11	B-12	B-13	B-14	B-15	B-16	

1.0000e+01	1.0000e+01	1.0000e+01	1.4400e+00	1.0000e+01	1.0000e+01	1.5100e+00	1.9400e+00	1.0000e+01	1.0000e+01	1.9900e+00	2.4900e+00	2.4100e+00	2.9000e+00	1.0000e+01	2.9800e+00	




#DATA BEGINS
time	group	step	mark	flag	A-AC1	A-AC2	A-AC3	A-AC4	A-AC5	A-AC6	A-AC7	A-AC8	A-AC9	A-AC10	A-AC11	A-AC12	A-AC13	A-AC14	A-AC15	A-AC16	A-DC1	A-DC2	A-DC3	A-DC4	A-DC5	A-DC6	A-DC7	A-DC8	A-DC9	A-DC10	A-DC11	A-DC12	A-DC13	A-DC14	A-DC15	A-DC16	A-Ph1	A-Ph2	A-Ph3	A-Ph4	A-Ph5	A-Ph6	A-Ph7	A-Ph8	A-Ph9	A-Ph10	A-Ph11	A-Ph12	A-Ph13	A-Ph14	A-Ph15	A-Ph16	B-AC1	B-AC2	B-AC3	B-AC4	B-AC5	B-AC6	B-AC7	B-AC8	B-AC9	B-AC10	B-AC11	B-AC12	B-AC13	B-AC14	B-AC15	B-AC16	B-DC1	B-DC2	B-DC3	B-DC4	B-DC5	B-DC6	B-DC7	B-DC8	B-DC9	B-DC10	B-DC11	B-DC12	B-DC13	B-DC14	B-DC15	B-DC16	B-Ph1	B-Ph2	B-Ph3	B-Ph4	B-Ph5	B-Ph6	B-Ph7	B-Ph8	B-Ph9	B-Ph10	B-Ph11	B-Ph12	B-Ph13	B-Ph14	B-Ph15	B-Ph16	aux-1	digaux	

26239.141	1	1	0	256	0.11175	0.10675	0.070596	0.090127	0.15293	0.29937	0.07295	0.10174	0.092406	0.13979	0.18611	0.18298	0.15857	0.10485	0.14701	0.17081	-2.4542	-2.85	-2.3812	-2.8646	-2.7042	-2.9167	-2.825	-2.6417	-2.9396	-2.9458	-2.725	-3.0417	-2.5646	-2.5687	-2.9771	-2.6458	-21.949	-121.218	4.600	171.807	93.674	-110.382	92.114	171.066	45.179	-37.733	205.368	101.573	127.135	138.698	147.568	33.219	3.396e-05	0.00099254	7.5647e-06	64.963	4.9856e-07	3.6169e-07	54.789	21.626	6.6909e-07	1.0956e-06	18.814	6.8783	7.8381	3.7112	4.6558e-07	3.4046	0.00027999	0.0022712	0.00013549	79.219	4.9537e-06	5.3486e-06	66.995	29.769	4.5693e-06	5.5106e-06	23.428	8.5777	10.905	4.5971	4.9027e-06	4.2315	167.633	-82.792	-11.618	-134.752	127.940	67.947	-136.297	-128.412	-50.928	-40.717	-132.297	-128.235	-125.893	-119.553	-142.789	-124.359	-8191	255	
26239.236	1	1	0	0	0.20988	0.15252	0.18961	0.30636	0.065034	0.21793	0.28512	0.074724	0.16437	0.24985	0.15988	0.34904	0.060903	0.079648	0.093084	0.12116	-2.4625	-2.8292	-2.475	-2.8479	-2.7687	-2.7667	-2.8563	-2.5542	-2.7438	-2.7958	-2.7062	-2.8333	-2.7729	-2.575	-3.0229	-2.6	-48.636	-33.551	103.643	179.823	85.649	-25.168	198.110	45.789	175.287	51.235	-81.937	162.525	-109.259	65.166	176.430	142.556	4.2601e-05	0.0015637	1.3296e-05	64.482	4.6996e-07	6.3829e-07	53.983	21.469	6.9348e-07	3.8278e-07	18.536	6.8277	7.711	3.668	6.3554e-07	3.3094	0.00027996	0.0035537	0.0001365	78.471	5.0067e-06	5.411e-06	66.194	28.51	4.7011e-06	5.5039e-06	23.11	8.4727	11.564	4.5474	4.8304e-06	4.1743	175.746	-59.089	77.894	-134.460	-98.629	6.172	-136.759	-128.679	-68.227	-5.468	-132.126	-128.221	-126.603	-119.595	-9.884	-124.087	-8191	255	
26239.332	1	1	0	0	0.15838	0.078375	0.34813	0.12244	0.05833	0.073783	0.11093	0.18598	0.31718	0.052555	0.23759	0.25656	0.10959	0.044814	0.23124	0.16559	-2.5563	-2.6562	-2.5187	-2.9688	-2.6167	-2.6333	-2.7938	-2.6854	-2.7625	-2.9292	-2.7625	-2.9167	-2.7896	-2.7771	-2.9979	-2.6771	31.236	8.340	74.863	196.894	44.269	2.534	-56.115	33.745	-89.217	192.207	120.749	107.563	-83.654	92.292	-14.475	-144.011	3.4466e-05	0.00095929	6.4939e-05	63.891	1.5035e-07	4.4461e-07	53.47	20.904	8.5841e-07	1.6836e-07	18.19	6.7164	7.69	3.6306	1.095e-06	3.3217	0.00027967	0.0012501	0.00041976	77.653	4.9478e-06	5.4981e-06	65.4	29.559	4.69e-06	5.3573e-06	22.784	8.3392	10.826	4.4963	4.9061e-06	4.1342	173.169	-49.246	-119.082	-135.032	-77.723	-120.221	-136.916	-128.217	-62.252	79.115	-131.984	-127.989	-125.989	-119.587	2.406	-124.063	-8191	255	
26239.430	1	1	0	0	0.1734	0.02022	0.17084	0.21829	0.19115	0.097717	0.09582	0.32081	0.085681	0.073412	0.2588	0.11546	0.16889	0.10679	0.14061	0.11916	-2.2979	-2.8833	-2.6146	-2.9646	-2.6542	-2.6271	-3.1354	-2.7438	-2.7833	-3.0062	-2.725	-2.6813	-2.925	-2.5729	-2.8438	-2.6521	-88.324	157.478	-145.102	-58.626	33.062	122.551	-5.702	79.396	-104.111	171.177	155.414	146.415	-96.351	-83.586	119.176	-69.599	4.1294e-05	4.3419e-05	0.00052401	63.132	4.6113e-07	1.3584e-07	53.583	20.898	2.5312e-07	2.5932e-07	18.25	6.6919	7.7781	3.6433	5.5548e-07	3.3491	0.00028719	0.00046547	0.0011389	77.071	4.8665e-06	5.4771e-06	65.128	28.213	4.7715e-06	5.1801e-06	22.702	8.3282	11.439	4.504	4.8769e-06	4.1568	177.909	-80.436	-57.435	-134.861	33.270	162.421	-137.003	-128.606	210.070	141.606	-132.546	-128.015	-124.823	-119.497	-17.082	-124.318	-8191	255	
26239.549	1	1	0	0	0.22089	0.050854	0.077723	0.12511	0.1288	0.15111	0.18372	0.16273	0.2816	0.037631	0.067561	0.20642	0.09003	0.081	0.11704	0.11825	-2.2854	-2.8625	-2.7	-2.8354	-2.9521	-2.6583	-2.9125	-2.625	-2.7188	-3.0271	-2.6937	-2.7333	-2.975	-2.6646	-2.9792	-2.8187	17.822	-141.549	122.704	-93.073	-106.888	191.064	55.564	-45.690	203.531	-15.574	127.293	179.505	153.717	-71.355	108.105	-50.173	3.5022e-05	0.00010091	0.00034808	63.191	2.4899e-07	9.327e-07	53.607	20.824	2.7995e-07	1.7988e-07	18.367	6.7657	7.7931	3.6414	2.2261e-07	3.3625	0.0002845	0.0004711	0.00077475	77.125	4.8445e-06	5.6283e-06	65.381	29.486	4.8292e-06	5.3218e-06	22.806	8.381	10.021	4.7178	4.8601e-06	4.1633	159.287	-74.098	-47.160	-134.656	98.730	7.671	-137.009	-128.863	209.868	-14.391	-132.443	-128.404	-124.984	-120.431	45.941	-124.199	-8191	255	
26239.646	1	1	0	0	0.2161	0.21636	0.081432	0.074713	0.17353	0.15581	0.094007	0.1553	0.18246	0.18116	0.083463	0.058601	0.18121	0.54527	0.30855	0.049159	-2.1437	-2.7438	-2.6583	-2.5521	-2.8875	-2.7229	-2.9229	-2.7875	-2.5354	-2.9396	-2.6729	-2.6646	-3.0208	-2.5729	-2.8146	-2.6458	-30.489	-85.691	-106.931	29.967	115.226	103.096	-6.308	28.958	-10.167	-137.561	151.374	100.376	-12.291	198.489	101.513	167.018	3.2746e-05	6.249e-05	0.00052295	63.718	4.044e-07	4.2311e-07	53.845	21.247	6.4491e-08	2.9917e-07	18.435	6.7795	7.8303	3.6409	5.6858e-07	3.2887	0.00028795	0.00046618	0.0011258	77.685	4.6936e-06	5.495e-06	65.666	28.459	4.7344e-06	5.1917e-06	22.982	8.4093	9.7428	5.0605	4.882e-06	4.0886	161.215	-46.640	-39.697	-134.401	-50.290	161.719	-137.147	-129.196	-43.507	23.433	-132.225	-127.863	-124.811	-121.059	2.622	-124.264	-8191	255	
26239.742	1	1	0	0	0.06033	0.08086	0.20271	0.20773	0.037704	0.29187	0.15277	0.083625	0.19116	0.10644	0.10284	0.1825	0.24651	0.39922	0.13454	0.091292	-2.2229	-2.8125	-2.4437	-2.6917	-2.9021	-2.7729	-2.8271	-2.6417	-2.4708	-2.9667	-2.7104	-2.6312	-2.8563	-2.5854	-2.7083	-2.8458	11.039	-82.325	-22.317	142.946	-0.367	14.617	103.972	120.045	209.996	56.010	203.083	-92.904	-136.281	155.414	-56.904	171.396	3.6492e-05	1.5447e-05	0.00031786	64.281	7.9702e-07	6.2269e-07	53.767	21.623	5.0942e-07	5.7813e-07	18.558	6.799	7.8028	3.6474	4.521e-07	3.2848	0.00027899	0.00046342	0.00069787	78.44	4.6369e-06	5.7234e-06	65.856	29.456	4.8408e-06	5.1624e-06	23.015	8.4087	9.7506	4.8407	4.8287e-06	4.1072	168.669	-1.903	-36.287	-134.783	-105.594	18.540	-136.938	-128.222	-19.019	-41.925	-132.620	-128.479	-124.688	-120.742	-60.916	-124.437	-8191	255	
26239.838	1	1	0	0	0.061837	0.19841	0.065992	0.23891	0.086083	0.27935	0.10884	0.16703	0.12326	0.26486	0.28076	0.14423	0.1429	0.069889	0.30606	0.17138	-2.1854	-2.9313	-2.725	-2.475	-2.9792	-2.6479	-2.8021	-2.8646	-2.4958	-2.8792	-2.8187	-2.7979	-3.1146	-2.6604	-2.9292	-2.8542	78.833	143.728	35.513	5.593	-43.149	179.880	-115.506	-29.324	30.212	-27.150	-104.826	-33.140	-42.752	-75.845	-100.516	155.091	4.1916e-05	3.0063e-05	0.00044932	64.17	6.8501e-08	5.6754e-07	54.159	21.855	8.6282e-06	9.9321e-07	18.754	6.8866	8.02	3.7431	4.7429e-07	3.3617	0.0002909	0.00046206	0.0010166	78.657	4.5748e-06	5.6178e-06	66.343	27.415	1.4979e-05	5.2229e-06	23.335	8.5659	9.9368	5.1046	4.8281e-06	4.1782	178.115	64.244	-30.195	-134.717	-80.801	190.073	-136.666	-128.793	179.221	-1.003	-132.636	-128.281	-124.738	-121.003	-25.611	-123.986	-8191	255	
26239.934	1	1	0	0	0.26849	0.073548	0.20826	0.098361	0.17167	0.11031	0.12027	0.20453	0.056915	0.24007	0.12559	0.18301	0.086484	0.17017	0.24545	0.042427	-2.1458	-2.9667	-2.7771	-2.5771	-2.9042	-2.7188	-2.7917	-2.9188	-2.5667	-2.7979	-2.8021	-2.7396	-2.9333	-2.5438	-2.8146	-2.9021	-28.674	40.295	67.498	-62.312	2.828	68.758	27.339	186.615	105.220	-32.568	119.641	195.972	31.614	161.852	155.431	-62.070	4.0082e-05	8.8602e-05	0.00026189	65.758	4.3368e-07	5.5856e-07	55.376	22.349	1.257e-05	7.6767e-07	19.238	7.0342	8.118	3.7865	6.8618e-07	3.3921	0.0002891	0.00046244	0.00063555	79.908	4.6144e-06	5.6043e-06	67.466	27.413	3.3006e-05	5.2913e-06	23.803	8.7272	10.095	4.937	4.859e-06	4.2306	163.820	-79.337	-24.291	-134.986	-4.569	-44.040	-136.735	-129.289	145.648	8.224	-132.226	-128.077	-124.919	-120.395	-53.549	-124.452	-8191	255	
26240.027	1	1	0	0	0.037648	0.065414	0.12511	0.21104	0.1538	0.068338	0.067644	0.14983	0.22625	0.036361	0.19628	0.181	0.26239	0.12486	0.085055	0.072811	-2.15	-2.8333	-2.8375	-2.5021	-3.0229	-2.675	-2.7292	-2.8583	-2.6854	-2.8187	-2.7938	-2.6875	-2.85	-2.7604	-2.6833	-2.8958	169.834	-105.718	146.764	-20.427	164.534	4.529	209.483	-123.014	168.593	-28.017	210.952	164.456	135.504	-13.099	49.432	32.415	3.2256e-05	3.7814e-05	0.00048409	65.384	1.5329e-07	3.7297e-07	54.602	22.317	7.0574e-06	5.4188e-07	18.829	6.9681	8.0438	3.7632	2.5854e-07	3.3956	0.00029653	0.00045578	0.00083883	79.606	4.6417e-06	5.5073e-06	66.771	27.27	2.2496e-05	5.1947e-06	23.407	8.622	10.011	5.1332	4.9487e-06	4.1977	175.505	-50.352	-27.655	-134.911	-6.363	0.183	-137.216	-129.453	138.692	-28.450	-132.311	-128.085	-124.752	-120.649	53.431	-124.585	-8191	255	
26240.148	1	1	0	0	0.083671	0.17718	0.10789	0.044682	0.18514	0.017396	0.069714	0.22158	0.20586	0.047621	0.21019	0.19088	0.084644	0.2783	0.22019	0.15613	-2.2687	-2.8375	-2.7458	-2.6542	-2.8146	-3.0125	-2.6333	-2.9813	-2.6917	-2.8104	-2.9292	-2.5771	-3.0125	-2.6896	-2.6229	-2.9896	-65.905	147.453	2.877	103.417	61.157	-101.089	152.803	72.188	144.208	-0.408	11.891	156.649	19.410	53.158	-99.308	160.150	3.0966e-05	9.4358e-05	0.00030786	64.141	1.7309e-07	4.3533e-07	54.068	21.95	1.3683e-05	4.4981e-07	18.869	6.838	7.9392	3.7406	3.8776e-07	3.3637	0.00028919	0.0004612	0.00025306	83.019	4.5861e-06	5.4869e-06	66.43	26.911	3.4557e-05	5.21e-06	23.188	8.5077	9.883	4.9023	4.9784e-06	4.1732	174.294	-41.526	-25.620	-135.007	127.056	-80.261	-136.758	-129.246	152.279	-10.870	-132.527	-128.665	-124.766	-120.377	-132.840	-124.501	-8191	255	
26240.244	1	1	0	0	0.16658	0.073765	0.11046	0.20048	0.2456	0.17528	0.11138	0.23597	0.19992	0.22561	0.11403	0.073378	0.23716	0.13251	0.023296	0.2891	-2.3771	-2.6458	-2.8083	-2.6771	-2.9271	-2.7854	-2.7625	-3.0479	-2.6792	-2.8667	-2.9229	-2.6771	-2.8792	-2.7875	-2.5812	-2.8708	181.242	-108.430	140.467	206.964	135.662	-136.679	72.887	69.911	62.377	79.185	148.814	75.357	152.340	61.050	-70.248	180.592	3.5048e-05	5.3379e-05	1.1151e-05	65.608	2.7414e-07	1.6704e-07	54.277	22.008	8.2193e-06	1.6054e-07	18.625	6.8193	7.9378	3.756	1.0174e-05	3.3542	0.00029311	0.00046883	0.00012982	89.397	4.5909e-06	5.5079e-06	66.2	26.847	2.3228e-05	5.2998e-06	23.093	8.5237	9.8667	5.015	6.1191e-06	4.1864	156.098	-124.179	-73.054	-133.255	120.087	54.609	-136.746	-129.584	156.156	103.721	-132.414	-128.498	-124.676	-119.884	-102.397	-124.010	-8191	255	
26240.342	1	1	0	0	0.24445	0.23829	0.14836	0.22756	0.1523	0.071835	0.17006	0.23768	0.12675	0.16283	0.046547	0.12242	0.09913	0.061006	0.13764	0.13338	-2.45	-2.4729	-2.8229	-2.5292	-2.7625	-2.8229	-2.5167	-3.0479	-2.8208	-2.8625	-2.9562	-2.7396	-2.8563	-2.8958	-2.6021	-2.9854	157.217	-110.145	-91.777	-139.666	103.456	164.454	203.930	121.692	-122.443	-144.693	-44.852	-94.434	-8.452	-145.976	-23.726	-75.490	4.6598e-05	6.0555e-05	1.5887e-05	64.78	5.7665e-08	9.1668e-07	54.236	22.002	1.438e-05	1.1799e-07	18.684	6.8348	7.8857	3.7275	6.7611e-06	3.3512	0.00028668	0.00046634	0.00012958	85.292	4.5689e-06	5.3202e-06	66.291	26.866	3.5594e-05	5.3438e-06	23.049	8.4906	9.8354	4.6212	1.8218e-05	4.1595	175.670	-60.040	-37.704	-133.894	27.518	-28.456	-137.078	-129.445	165.519	110.778	-132.553	-128.469	-124.278	-119.651	-107.009	-124.014	-8191	255	
26240.438	1	1	0	0	0.37938	0.30728	0.24841	0.19786	0.26934	0.19647	0.042853	0.1547	0.17045	0.16745	0.093496	0.13471	0.27478	0.10167	0.15977	0.23309	-2.2521	-2.6042	-2.8646	-2.6729	-2.7521	-2.9417	-2.6312	-2.8812	-2.9083	-2.7271	-2.8792	-2.6917	-2.6646	-3	-2.6792	-2.8333	160.742	134.198	-119.568	-146.990	206.019	127.229	204.334	-77.218	19.903	141.536	84.486	22.790	-118.222	26.148	-31.626	191.214	3.8729e-05	4.8026e-05	5.2668e-06	64.479	6.2516e-07	2.9248e-07	53.558	21.823	8.7474e-06	9.2578e-07	18.48	6.8463	7.9384	3.6777	1.4971e-05	3.3336	0.00029173	0.00047944	0.00013026	89.008	4.5759e-06	5.2912e-06	65.62	26.695	2.3564e-05	5.3823e-06	22.933	8.4929	9.8546	4.5598	3.785e-05	4.1546	178.881	-33.359	159.658	-133.111	16.537	55.366	-136.851	-129.280	174.848	-32.923	-132.395	-128.117	-124.728	-119.690	-57.281	-124.776	-8191	255	
26240.533	1	1	0	0	0.20631	0.19457	0.095756	0.23616	0.049475	0.17037	0.17258	0.26182	0.053396	0.043314	0.12581	0.2233	0.042835	0.27392	0.3637	0.12129	-2.2062	-2.4396	-2.9333	-2.8271	-2.8396	-2.9979	-2.4729	-2.6917	-2.8083	-2.6792	-2.9854	-2.6896	-2.7104	-3.0104	-2.7271	-2.7792	126.974	-37.973	95.471	-62.928	33.703	159.521	180.065	99.919	37.504	-88.918	114.024	169.701	-98.741	-82.266	28.602	-77.253	4.2613e-05	6.7204e-05	1.6628e-05	64.326	2.9886e-07	3.911e-07	53.743	21.9	4.5067e-06	1.9026e-05	18.691	6.8522	7.9675	3.6831	8.6427e-06	3.3582	0.00028633	0.00047203	0.00012979	84.782	4.684e-06	5.1955e-06	65.75	26.746	2.7977e-05	8.0842e-06	23.059	8.4916	9.8535	4.5735	2.4687e-05	4.1829	169.645	209.359	205.908	-133.763	74.782	13.611	-136.558	-129.322	82.692	-145.497	-131.978	-128.311	-125.162	-119.641	-47.326	-124.392	-8191	255	
26240.631	1	1	0	0	0.082126	0.10471	0.10923	0.11971	0.082711	0.088522	0.14693	0.14513	0.2702	0.25272	0.13052	0.15706	0.35984	0.12905	0.070594	0.16764	-2.4396	-2.5729	-2.8937	-2.875	-2.6729	-2.9708	-2.5812	-2.8312	-2.7292	-2.6021	-2.7917	-2.775	-2.7062	-3.0042	-2.6292	-2.7854	174.496	-18.979	130.084	109.378	167.989	-19.545	159.256	-45.892	-77.451	119.851	64.790	182.186	-36.790	19.949	204.375	71.137	3.8238e-05	3.1538e-05	1.7279e-05	64.104	5.7712e-07	6.9347e-07	53.744	21.899	2.5561e-06	1.1803e-05	18.587	6.8646	7.9469	3.709	1.516e-05	3.3692	0.00028141	0.00048366	0.00012845	89.006	4.6578e-06	5.2665e-06	65.93	26.764	7.2742e-06	2.0276e-05	23.047	8.4993	9.8449	4.5822	3.7212e-05	4.1857	182.107	141.602	-75.101	-132.971	11.070	-26.513	-136.507	-129.159	77.821	-143.640	-132.359	-128.434	-124.582	-119.719	-41.190	-124.098	-8191	255	
26240.727	1	1	0	0	0.18601	0.17288	0.31354	0.13302	0.19588	0.21876	0.23349	0.088937	0.17108	0.12534	0.28715	0.028464	0.053224	0.17814	0.071635	0.10091	-2.4083	-2.6208	-2.9333	-2.6688	-2.55	-3.0646	-2.7479	-2.9479	-3.0167	-2.6583	-2.9	-2.7167	-2.6271	-2.875	-2.8417	-2.5833	45.413	191.635	89.500	-21.766	107.296	26.547	76.962	-14.498	-145.042	164.198	31.058	-35.724	-30.700	-104.620	-17.982	193.636	3.7896e-05	4.4374e-05	8.538e-06	63.522	6.9025e-07	8.732e-07	53.462	21.576	1.0087e-07	1.7473e-05	18.253	6.5982	7.6934	3.6115	9.288e-06	3.2575	0.00027366	0.00049254	0.00012845	84.629	4.7134e-06	5.2202e-06	65.406	26.385	4.528e-06	4.1013e-05	22.525	8.2084	9.5736	4.4579	2.5048e-05	4.0406	186.691	-96.195	-38.225	-133.641	-35.872	-34.205	-137.025	-129.202	177.861	211.658	-132.239	-128.300	-124.741	-119.397	-39.870	-124.199	-8191	255	
26240.822	1	1	0	0	0.15169	0.11544	0.098002	0.065321	0.13586	0.16321	0.2034	0.23172	0.26721	0.2099	0.19346	0.19573	0.066403	0.21439	0.15483	0.19683	-2.4083	-2.7479	-2.9354	-2.7625	-2.5312	-2.8917	-2.7229	-2.4625	-2.8771	-2.7188	-2.7083	-2.7958	-2.5833	-2.8688	-2.8604	-2.5563	-123.584	209.714	0.413	129.796	188.317	-55.205	68.561	99.472	-94.850	204.049	-14.510	-82.848	-41.513	150.908	160.601	61.149	3.1798e-05	5.4666e-05	1.133e-05	64.45	9.0326e-06	6.9425e-07	52.845	21.288	7.3406e-08	1.0598e-05	17.945	6.5133	7.6482	3.5527	1.6276e-05	3.231	0.00027357	0.00049308	0.00012972	85.653	8.5626e-06	5.143e-06	64.73	26.11	4.4693e-06	2.7132e-05	22.227	8.117	9.5102	4.4135	3.7351e-05	4.0169	168.888	63.085	-6.765	-133.148	155.734	45.370	-136.808	-129.278	-35.270	-146.686	-132.300	-128.500	-124.588	-119.674	-31.922	-124.052	-8191	255	
26240.941	1	1	0	0	0.15576	0.1665	0.13183	0.11964	0.17457	0.15798	0.1013	0.074319	0.017848	0.11796	0.18753	0.15502	0.25034	0.026111	0.22812	0.19002	-2.6604	-2.6958	-2.7333	-2.7896	-2.5979	-2.8083	-2.6813	-2.5979	-3.2062	-2.8	-2.6458	-3.0312	-2.7438	-2.9083	-2.8187	-2.6125	108.926	8.958	-88.869	120.207	155.364	149.863	104.711	-129.780	-28.788	48.963	148.491	197.865	-88.016	40.975	-146.017	-67.381	4.2744e-05	4.8253e-05	8.6426e-06	64.146	5.916e-06	2.5264e-07	53.012	21.353	2.868e-07	1.7828e-05	18.029	6.5457	7.6651	3.5881	1.0459e-05	3.219	0.00027059	0.00049081	0.00012923	78.376	1.8727e-05	5.098e-06	64.771	26.14	4.4809e-06	4.0611e-05	22.331	8.1298	9.546	4.4315	2.4886e-05	4.0278	185.627	-6.770	-47.084	-133.634	171.701	-50.344	-136.806	-129.382	1.192	-134.536	-132.361	-128.606	-124.945	-119.532	-29.763	-124.073	-8191	255	
26241.037	1	1	0	0	0.12666	0.11836	0.28941	0.057369	0.2622	0.24697	0.12128	0.064837	0.12897	0.012679	0.26587	0.14869	0.18046	0.22763	0.29483	0.07554	-2.5563	-2.5417	-2.7458	-2.8208	-2.625	-2.7896	-2.7375	-2.5563	-2.8688	-2.6833	-2.6292	-2.8271	-2.6562	-2.9562	-2.8083	-2.6042	-58.826	-92.449	-89.768	-99.050	-110.890	141.145	-127.424	-122.361	-134.692	-107.580	76.236	-45.273	-72.850	-101.713	-136.783	159.861	3.8996e-05	3.3962e-05	1.8597e-05	63.451	1.4628e-05	6.7401e-07	52.904	21.265	4.1984e-07	1.042e-05	17.963	6.5061	7.6063	3.5735	1.4938e-05	3.2362	0.00027233	0.00049882	0.00012911	77.451	3.5717e-05	5.2171e-06	64.75	26.065	4.5852e-06	2.7525e-05	22.219	8.0694	9.4619	4.4072	2.7228e-05	4.1076	152.634	136.484	-104.623	-134.928	91.765	-22.299	-136.944	-129.260	-31.137	-136.587	-132.394	-128.283	-125.099	-119.556	-5.684	-124.747	-8191	255	
26241.111	1	1	0	0	0.19272	0.064239	0.13138	0.32567	0.20417	0.21585	0.27101	0.27503	0.11824	0.1254	0.26732	0.092159	0.21288	0.259	0.25425	0.060711	-2.4	-2.8271	-2.5917	-3.1625	-2.5	-2.8292	-3.0771	-2.6542	-2.8583	-2.7792	-2.6979	-2.7812	-2.5458	-2.6688	-2.9458	-2.6896	-48.718	196.040	-116.739	-116.286	112.159	149.351	-12.575	-42.144	-8.580	95.792	198.400	3.151	42.220	-21.925	19.192	176.196	3.5654e-05	1.0121e-05	1.6361e-05	63.287	9.0536e-06	6.9061e-07	52.239	21.075	2.6753e-07	1.7079e-05	17.804	6.3776	7.4885	3.5226	9.5466e-06	3.1912	0.00027041	0.00047717	0.00013057	77.032	2.4326e-05	5.1887e-06	64.002	25.812	4.4672e-06	4.1665e-05	21.93	7.9337	9.3562	4.3525	5.9252e-06	4.3284	177.780	44.533	94.537	-134.817	95.986	-39.915	-136.757	-129.101	-57.620	-126.355	-131.724	-128.288	-124.601	-119.553	3.200	-124.144	-8191	255	
26241.229	1	1	0	0	0.11707	0.13364	0.20801	0.14786	0.20103	0.20541	0.10232	0.015017	0.13416	0.26357	0.2506	0.066993	0.099532	0.14429	0.21927	0.073498	-2.3833	-2.625	-2.45	-2.7542	-2.6729	-2.8146	-2.8792	-2.4646	-2.9229	-2.8604	-2.6396	-2.9854	-2.6271	-2.5417	-2.8146	-2.7146	129.323	15.335	153.331	199.712	190.392	-138.583	128.379	158.139	-130.498	196.498	25.676	-86.445	-87.921	-44.367	83.367	-50.555	3.6985e-05	5.9325e-05	5.6256e-06	62.776	1.4743e-05	5.3015e-07	52.122	21.129	6.437e-07	1.014e-05	18.02	6.5302	7.6463	3.5937	2.4958e-07	3.3681	0.00027083	0.00048312	0.00013092	76.618	3.6178e-05	5.1542e-06	63.761	25.939	4.4624e-06	2.6834e-05	22.173	8.0998	9.5098	4.4586	4.7698e-06	4.8221	163.633	-106.923	0.341	-134.734	109.079	32.649	-137.075	-129.162	-125.893	-115.569	-132.485	-128.347	-124.507	-119.572	-48.189	-122.771	-8191	255	
26241.326	1	1	0	0	0.081875	0.14348	0.19226	0.062264	0.17896	0.13548	0.28629	0.13233	0.18065	0.16557	0.27866	0.053681	0.16122	0.1588	0.14561	0.019913	-2.3292	-2.9167	-2.6562	-2.7833	-2.8896	-2.6479	-2.8875	-2.6437	-2.7667	-2.9604	-2.5917	-2.8104	-2.6833	-2.6	-3.0875	-2.5667	30.439	67.839	-55.384	-67.291	-68.680	-51.589	-101.472	201.301	104.857	-34.515	134.891	1.689	196.849	-116.663	123.280	-88.929	3.2882e-05	6.2688e-05	1.4102e-05	63.104	8.1074e-06	2.4751e-07	52.569	21.416	5.0614e-07	2.6931e-06	18.01	6.6748	7.7621	3.6396	3.7243e-07	3.3684	0.00027024	0.00047663	0.00013411	76.886	2.3359e-05	5.1955e-06	64.355	26.134	4.4561e-06	2.7235e-05	23.542	8.2304	9.6197	4.5131	4.6807e-06	4.5737	171.122	-65.524	128.589	-134.727	119.244	-6.785	-136.995	-129.515	-54.773	-43.568	-135.498	-128.372	-124.461	-119.412	-37.578	-123.277	-8191	255	
26241.422	1	1	0	0	0.11093	0.37734	0.21351	0.1201	0.076596	0.23891	0.024783	0.20229	0.11846	0.089005	0.10593	0.1227	0.25937	0.18177	0.14535	0.084817	-2.3104	-2.8	-2.5938	-2.8354	-2.6833	-2.6875	-2.9938	-2.6521	-2.8104	-2.8333	-2.6292	-2.6396	-2.7854	-2.5792	-2.8812	-2.6562	139.220	152.199	151.911	-4.923	-75.765	-30.452	115.933	-117.049	142.777	138.549	109.301	172.661	82.857	-81.939	171.381	-26.675	3.9694e-05	6.7178e-05	2.0007e-05	63.149	1.3429e-05	7.3379e-07	52.978	21.365	3.0327e-07	3.4169e-06	18.034	6.615	7.7069	3.6109	7.3521e-07	3.3299	0.00027395	0.00045795	0.00013511	77.216	3.4578e-05	5.353e-06	64.644	26.17	4.5217e-06	5.3444e-06	25.083	8.1875	9.5541	4.4659	4.7357e-06	4.7862	172.444	10.865	-109.627	-134.806	117.405	-21.325	-136.886	-129.213	-8.061	-36.971	-134.178	-128.283	-124.570	-119.523	-4.473	-122.013	-8191	255	
26241.543	1	1	0	0	0.31869	0.059117	0.28971	0.25898	0.099447	0.068956	0.12077	0.23481	0.031303	0.084627	0.40827	0.16699	0.14664	0.24059	0.20134	0.14996	-2.3208	-2.825	-2.575	-2.7667	-2.9813	-2.8271	-2.9167	-2.7604	-2.8937	-2.925	-2.6583	-2.85	-2.9625	-2.7396	-2.9542	-2.8208	148.902	-9.243	103.529	-67.903	32.770	170.633	-54.117	122.212	74.264	32.686	68.808	42.133	-130.117	-110.648	182.883	115.386	4.4506e-05	7.591e-05	6.5513e-06	62.869	8.8118e-06	1.0083e-07	52.461	21.282	1.0127e-06	5.936e-07	18.169	6.4791	7.597	3.5482	3.0437e-07	3.2544	0.0002705	0.00044793	0.00013688	76.994	2.3267e-05	5.2752e-06	64.158	26.036	4.5413e-06	5.0866e-06	27.509	8.0341	9.4421	4.3992	4.6897e-06	4.4465	180.728	7.278	-137.197	-134.767	128.823	175.459	-136.789	-129.197	-100.013	-33.947	-135.261	-128.371	-124.579	-119.607	182.903	-122.699	-8191	255	
26241.639	1	1	0	0	0.15466	0.080945	0.16262	0.039207	0.10379	0.11884	0.21714	0.13146	0.33391	0.16937	0.44441	0.081135	0.079371	0.17002	0.18406	0.092432	-2.2417	-2.8917	-2.5667	-2.7354	-2.75	-2.5771	-2.9562	-2.4708	-2.6188	-2.9292	-2.5833	-2.8625	-2.9854	-2.5958	-2.9708	-2.7333	-13.301	70.722	72.712	-63.804	-146.716	47.877	-83.769	-51.731	118.461	200.950	45.277	-53.322	12.583	174.316	155.761	156.192	3.3211e-05	6.1198e-05	1.3391e-05	62.957	1.1469e-05	1.7262e-05	52.494	21.284	4.7236e-07	2.9775e-07	18.159	6.5501	7.6755	3.6024	4.8505e-07	3.3141	0.00027501	0.00045394	0.00013901	77.087	2.2592e-05	1.4108e-05	64.218	26.033	4.591e-06	5.1135e-06	25.502	8.0946	9.5143	4.4552	4.7855e-06	4.7773	180.866	-78.222	-8.111	-134.880	68.695	194.361	-136.856	-129.437	-16.379	114.979	-133.721	-127.666	-124.372	-119.115	109.821	-122.222	-8191	255	
26241.711	1	1	0	0	0.01885	0.08774	0.27624	0.1926	0.012175	0.2263	0.29061	0.15886	0.21009	0.16955	0.11192	0.16407	0.062478	0.159	0.15734	0.10845	-2.2479	-2.7125	-2.7792	-2.8375	-2.9437	-2.5917	-3.0083	-2.8479	-2.5917	-2.9542	-2.6937	-2.7625	-2.9792	-2.5938	-2.9021	-2.8563	151.673	-18.371	-90.791	-55.270	168.967	-113.015	-5.877	-9.063	-74.031	-39.216	-22.280	173.531	-28.487	-56.198	103.571	-72.969	4.2162e-05	3.9456e-05	1.5929e-05	63.121	3.1455e-07	1.1092e-05	52.949	21.487	5.0961e-07	1.1743e-06	18.4	6.616	7.7228	3.6247	7.175e-07	3.2795	0.00027631	0.00045086	0.00013479	77.209	4.5518e-06	2.3936e-05	64.57	26.22	4.6069e-06	5.0958e-06	27.659	8.1899	9.5752	4.48	4.7766e-06	4.5142	160.725	137.315	-14.585	-134.679	-51.900	197.943	-136.829	-129.342	-24.238	-46.214	-135.238	-128.134	-124.868	-119.365	-44.173	-122.668	-8191	255	
26241.830	1	1	0	0	0.17867	0.035648	0.21158	0.032499	0.16124	0.058894	0.013643	0.040675	0.15362	0.33833	0.33391	0.16045	0.12237	0.25005	0.064703	0.24888	-2.2188	-3.0229	-2.6208	-2.7604	-2.9208	-2.7313	-2.8187	-2.7292	-2.7771	-2.9167	-2.6458	-2.6083	-2.8271	-2.7729	-2.8146	-2.9146	82.879	-22.603	120.159	3.709	-21.177	202.501	122.115	193.871	83.548	40.599	-61.408	210.246	-62.886	124.122	-70.383	166.496	3.6708e-05	5.5991e-05	2.276e-05	63.449	3.7073e-07	1.9373e-05	52.573	21.22	3.0002e-07	1.3308e-06	18.181	6.4263	7.6084	3.5446	3.3726e-07	3.2513	0.00027985	0.00045622	0.00013656	77.405	4.464e-06	4.0848e-05	64.109	25.963	4.6159e-06	5.0567e-06	25.416	8.0062	9.412	4.3849	4.7015e-06	4.3759	180.838	5.028	9.536	-134.675	-70.852	162.629	-136.727	-129.189	-52.670	-6.122	-134.035	-128.014	-124.995	-119.565	-118.268	-121.939	-8191	255	
26241.926	1	1	0	0	0.29021	0.13962	0.15234	0.15124	0.066763	0.15558	0.092407	0.15914	0.32346	0.23971	0.21707	0.1613	0.12795	0.2317	0.1388	0.070834	-2.2292	-2.9333	-2.7792	-2.8146	-3.1042	-2.7375	-2.775	-2.7354	-2.6958	-2.9729	-2.7354	-2.5521	-2.8854	-2.6188	-2.7979	-2.9	40.714	-131.409	139.206	185.498	-129.376	145.571	-112.316	182.371	-134.831	82.612	19.545	-60.254	-10.354	208.614	174.563	-135.241	5.4981e-05	5.5852e-05	1.0049e-05	62.822	7.2768e-07	1.1378e-05	51.923	21.005	3.1151e-07	4.6143e-07	18.409	6.3997	7.5159	3.5312	6.5471e-07	3.1703	0.00078404	0.00045102	0.00013238	76.627	4.4207e-06	2.744e-05	63.591	25.732	4.7704e-06	5.0927e-06	27.392	7.9507	9.3613	4.3691	4.7485e-06	3.9479	108.589	10.401	-9.840	-134.787	-36.214	175.515	-136.759	-129.030	-15.390	87.485	-134.228	-128.236	-124.427	-119.791	-76.016	-124.142	-8191	255	
26242.021	1	1	0	0	0.30519	0.05668	0.18307	0.1792	0.082152	0.079252	0.3655	0.054408	0.15222	0.13483	0.14158	0.19781	0.099359	0.10709	0.10714	0.17698	-2.0812	-2.8958	-2.7313	-2.6271	-2.9562	-2.8792	-2.5438	-3.0667	-2.7583	-2.9354	-2.8271	-2.5458	-2.9813	-2.5771	-2.7333	-2.8583	-32.198	47.686	-93.268	58.778	116.602	-42.145	8.057	169.647	209.903	-77.639	42.177	-54.485	-120.740	-14.220	88.992	88.233	4.5332e-05	4.9097e-05	1.5175e-05	62.491	8.4493e-07	1.8303e-05	51.838	21.04	5.4994e-07	5.0932e-07	18.167	6.4858	7.5581	3.5567	3.7311e-07	3.1935	0.0012338	0.00045075	0.00013321	76.551	4.4384e-06	4.0803e-05	63.729	25.829	4.8244e-06	5.0725e-06	25.364	8.0434	9.4202	4.4028	4.813e-06	3.9738	105.159	5.740	186.704	-134.914	-14.366	177.003	-136.730	-129.087	-78.199	-135.727	-133.314	-128.253	-124.450	-119.447	-28.211	-123.615	-8191	255	
26242.117	1	1	0	0	0.1129	0.041218	0.31318	0.063931	0.087792	0.20217	0.090383	0.13173	0.24532	0.16336	0.063779	0.17082	0.063342	0.0081532	0.073696	0.050308	-2.2458	-2.9042	-2.8604	-2.7333	-2.8063	-2.6312	-2.6521	-2.8146	-2.7146	-2.8729	-2.8729	-2.5521	-3.0521	-2.8167	-2.6229	-3.1125	156.759	88.991	-66.842	150.319	173.043	-2.799	-68.901	-19.468	-57.442	137.279	-113.531	50.481	169.838	10.349	182.138	193.949	0.00020605	1.6476e-05	2.6406e-05	62.796	1.4041e-07	9.8328e-06	52.661	21.35	6.6693e-07	2.8969e-07	18.566	6.5842	7.7111	3.5946	1.295e-07	3.2473	0.0019578	0.00046098	0.00013122	76.887	4.4897e-06	2.6411e-05	64.312	26.075	4.8324e-06	5.0683e-06	25.015	8.6879	9.5368	4.4437	4.8539e-06	4.0227	-39.992	-93.179	-61.875	-134.629	-63.705	183.979	-136.523	-129.352	2.327	42.663	-132.138	-130.233	-124.492	-119.706	-100.717	-124.335	-8191	255	
26242.238	1	1	0	0	0.16036	0.076641	0.043198	0.237	0.12928	0.14603	0.36235	0.28115	0.077816	0.27298	0.086698	0.3231	0.33833	0.1313	0.12045	0.061017	-2.1437	-2.7417	-2.775	-2.5354	-3.075	-2.7917	-2.7854	-3.0062	-2.6562	-2.9396	-2.9729	-2.5604	-2.8667	-3.0167	-2.55	-2.8312	140.860	203.659	-30.985	-100.695	-107.781	125.956	-4.625	69.438	205.261	121.477	-99.750	165.029	58.213	-143.817	-70.089	-113.543	0.00010369	5.639e-05	2.3853e-05	63.344	7.0313e-07	1.6231e-05	52.651	21.261	3.6676e-07	3.0829e-07	17.958	6.5356	7.6206	3.592	4.5922e-07	3.2247	0.0012857	0.00045676	0.0001279	77.182	4.4073e-06	3.9805e-05	64.256	26.033	4.7032e-06	5.064e-06	22.229	9.0536	9.4931	4.4393	4.8371e-06	4.0057	-37.780	-51.750	-142.826	-134.767	-5.978	185.628	-136.994	-129.440	22.044	75.218	-132.718	-128.876	-124.761	-119.557	-33.893	-124.309	-8191	255	
26242.334	1	1	0	0	0.15606	0.14686	0.16088	0.095046	0.041738	0.053565	0.14234	0.18521	0.18964	0.050152	0.2058	0.22017	0.059073	0.12147	0.093827	0.1805	-2.3312	-2.8396	-2.9792	-2.5771	-2.8375	-2.8604	-2.6437	-3.0208	-2.7396	-2.725	-3.1021	-2.6917	-3.0167	-2.8021	-2.5375	-3.0646	-27.501	14.795	111.217	153.826	-126.708	208.306	185.979	-125.379	-123.945	-24.066	147.620	33.520	-49.110	210.361	-2.442	92.316	0.00017942	3.6292e-05	1.0458e-05	63.52	7.7214e-07	1.238e-05	52.27	21.154	4.7617e-07	5.0649e-07	17.944	6.7302	7.6076	3.5741	3.5089e-07	3.2234	0.0019438	0.0004521	0.00012748	76.977	4.478e-06	2.6507e-05	63.953	25.958	4.736e-06	5.1031e-06	22.128	9.6994	9.4645	4.4224	4.8792e-06	4.0138	-22.351	-102.826	84.366	-134.655	-20.019	190.357	-136.756	-129.237	-105.717	64.442	-132.333	-129.727	-124.279	-119.741	-77.357	-124.197	-8191	255	
26242.406	1	1	0	0	0.14554	0.23465	0.17953	0.1616	0.16678	0.17727	0.14024	0.13881	0.25201	0.045438	0.1625	0.10317	0.23249	0.19299	0.18971	0.21524	-2.325	-2.6958	-2.8833	-2.525	-2.7167	-2.7687	-2.4813	-2.8104	-2.7729	-2.6271	-2.8917	-2.5708	-2.8625	-2.8375	-2.4375	-2.8958	80.954	58.791	109.300	-128.782	71.753	178.773	197.240	27.106	147.013	-105.320	200.565	-46.490	-109.049	83.733	-108.202	11.704	0.00011076	4.3284e-05	1.7572e-05	63.171	5.0171e-07	6.3718e-06	52.439	21.315	5.7303e-07	6.7708e-07	17.962	6.7341	7.6869	3.5966	9.1667e-07	3.2517	0.0012834	0.00045963	0.00012732	77.248	4.4303e-06	2.1133e-05	67.757	26.093	4.6424e-06	5.2552e-06	22.304	9.1353	9.5403	4.4574	4.9913e-06	4.0451	-20.180	5.317	-103.751	-135.141	-76.358	102.496	-138.566	-129.016	-60.166	14.078	-132.423	-128.834	-124.540	-119.632	-120.486	-123.887	-8191	255	
26242.502	1	1	0	0	0.21306	0.077488	0.092799	0.08466	0.37371	0.053982	0.33981	0.11961	0.0049918	0.20592	0.021133	0.1937	0.1313	0.07788	0.20942	0.20725	-2.3167	-2.7333	-3.0479	-2.7042	-2.7438	-2.8583	-2.6375	-2.8479	-2.8021	-2.8042	-2.9583	-2.5958	-2.8187	-2.7771	-2.7854	-3.0354	74.378	-74.167	161.254	66.214	-63.382	169.510	43.228	-95.402	33.374	-130.982	-101.642	10.307	-18.618	-113.253	3.690	145.375	0.00019048	1.734e-05	1.3434e-05	63.283	3.8673e-07	5.5236e-07	52.38	21.407	3.446e-07	6.1818e-07	17.981	6.8258	7.7007	3.5894	2.6767e-07	3.2438	0.0019655	0.00046602	0.00012674	77.164	4.5657e-06	5.0646e-06	70.163	26.127	4.6201e-06	5.1489e-06	22.335	9.8029	9.553	4.4409	4.9515e-06	4.027	-6.719	-108.756	30.650	-134.944	-119.361	9.158	-138.127	-129.357	36.628	-27.429	-132.111	-128.488	-124.908	-119.542	-47.521	-124.502	-8191	255	
26242.623	1	1	0	0	0.27512	0.22578	0.23796	0.14649	0.3072	0.056833	0.051039	0.017807	0.19191	0.20909	0.16272	0.097678	0.14495	0.24927	0.19062	0.16996	-2.5708	-2.5458	-2.7938	-2.8	-2.6271	-2.9062	-2.6312	-2.9375	-2.9396	-2.5833	-2.9479	-2.8104	-2.7083	-3.0125	-2.7167	-2.7083	170.333	-74.290	13.193	171.672	162.742	-10.528	-62.512	-4.401	-107.318	168.755	80.942	39.284	3.633	-84.217	187.747	159.911	9.3313e-05	4.1947e-05	1.5117e-05	63.146	2.2398e-07	7.8267e-07	52.022	21.33	3.8743e-07	5.0473e-07	18.06	6.6932	7.6779	3.5844	3.3172e-07	3.1986	0.0013005	0.00046683	0.00012766	77.186	4.5695e-06	5.0739e-06	73.449	26.117	4.5873e-06	5.1618e-06	22.264	9.1059	9.5269	4.429	5.1168e-06	4.0063	-1.740	-26.949	-132.960	-134.804	11.147	-18.723	-138.795	-129.153	-11.215	-39.826	-132.816	-128.472	-124.778	-119.703	-5.665	-124.087	-8191	255	
26242.719	1	1	0	0	0.20542	0.069522	0.16787	0.21847	0.039447	0.16959	0.032926	0.16066	0.020131	0.32736	0.12151	0.1404	0.075936	0.16925	0.11927	0.26345	-2.3792	-2.5083	-2.8646	-2.8458	-2.7104	-2.9583	-2.6292	-2.7562	-2.8583	-2.5062	-2.9833	-2.9833	-2.5292	-2.9167	-2.6583	-2.8354	18.997	17.814	-133.553	68.550	3.506	167.302	170.445	-44.951	-140.605	-119.704	-92.373	80.000	-51.345	-103.387	-36.054	129.323	0.00019902	0.00099829	1.6703e-05	63.171	5.4798e-07	2.8456e-07	52.524	21.32	7.0635e-07	4.4269e-07	18.007	6.7795	7.6832	3.5481	4.8772e-07	3.223	0.00096708	0.0017847	0.0001271	77.086	4.5561e-06	5.0813e-06	69.881	26.127	4.4296e-06	5.529e-06	22.334	9.7382	9.5327	4.4194	4.998e-06	4.0136	-39.096	102.796	-136.253	-135.031	11.980	121.666	-138.030	-128.985	-64.351	173.749	-132.354	-127.940	-125.147	-119.532	-66.796	-124.303	-8191	255	
26242.814	1	1	0	0	0.077839	0.14504	0.070365	0.14756	0.26751	0.12043	0.14459	0.21979	0.12375	0.15796	0.1097	0.13265	0.15477	0.077671	0.12088	0.23233	-2.6063	-2.5271	-2.9021	-2.8917	-2.7	-2.95	-2.7604	-2.5187	-3.0062	-2.7146	-2.8	-2.9042	-2.5708	-2.8021	-2.8375	-2.7083	-63.793	202.082	177.000	8.849	123.782	97.651	141.020	146.806	172.705	-91.662	56.328	126.063	137.742	154.679	-54.669	203.840	3.9775e-05	0.00095765	1.604e-05	63.581	1.5042e-07	1.0366e-06	52.694	21.493	3.8854e-07	9.2663e-07	17.997	6.6911	7.6799	3.5727	2.0633e-07	3.2254	0.00026661	0.0023384	0.00012489	77.223	4.6331e-06	5.127e-06	73.669	26.218	4.4418e-06	5.4233e-06	22.355	9.1045	9.5522	4.4267	5.1309e-06	4.0282	183.829	34.450	-117.035	-135.072	-32.739	64.576	-138.502	-129.138	-50.714	62.811	-132.308	-127.642	-124.537	-119.757	125.151	-124.130	-8191	255	
26242.910	1	1	0	0	0.28812	0.03353	0.14908	0.13123	0.23319	0.085434	0.26715	0.14329	0.24112	0.14895	0.15335	0.16589	0.26109	0.15456	0.14413	0.12708	-2.6562	-2.8375	-2.7896	-2.9104	-2.6854	-3.0542	-2.7479	-2.5812	-2.9333	-2.6521	-2.9625	-2.9146	-2.5125	-2.8542	-3.0104	-2.6688	168.331	119.870	130.851	-46.097	133.662	146.335	74.404	140.889	-78.161	-14.824	-135.358	-49.731	21.791	12.373	-109.171	205.099	3.1068e-05	0.0015433	2.4131e-05	63.533	2.1507e-07	2.0033e-07	52.909	21.412	2.6773e-07	9.2453e-07	17.944	6.7814	7.7491	3.5765	1.5633e-07	3.2028	0.00026499	0.0035868	0.00012691	77.338	4.6519e-06	5.1035e-06	70.12	26.213	4.4926e-06	5.4275e-06	22.318	8.7175	10.36	4.4271	4.9576e-06	3.9944	172.728	44.104	-65.552	-134.952	-24.954	23.743	-138.011	-129.407	-88.986	53.791	-132.391	-127.031	-125.357	-119.767	-23.843	-124.143	-8191	255	
26243.006	1	1	0	0	0.032141	0.14415	0.10649	0.10427	0.031472	0.10215	0.22272	0.19219	0.20148	0.17987	0.18531	0.23766	0.090182	0.20963	0.27371	0.083652	-2.5208	-2.55	-2.8438	-2.9938	-2.5062	-2.8583	-2.8917	-2.4625	-2.7396	-2.6146	-2.675	-2.9938	-2.5292	-2.7979	-2.8271	-2.6604	181.168	103.348	-92.274	-101.377	192.624	-96.185	33.210	-26.908	186.094	-57.933	0.541	-19.798	-146.881	83.856	-118.661	194.456	3.9236e-05	0.00093835	1.0843e-05	63.313	2.0191e-07	5.3036e-07	52.872	21.555	1.8134e-07	6.0288e-07	18.198	6.5817	7.9295	3.6128	1.9894e-07	3.2464	0.00026738	0.0023198	0.00012679	77.347	4.8434e-06	5.127e-06	73.442	26.333	4.4815e-06	5.3359e-06	22.483	8.1845	10.627	4.4651	5.003e-06	4.0371	165.691	50.161	-10.773	-134.703	13.688	-63.680	-138.537	-129.286	35.950	-8.602	-132.510	-128.375	-124.503	-119.638	48.657	-124.580	-8191	255	
26243.104	1	1	0	0	0.06317	0.14201	0.36482	0.11773	0.33084	0.070696	0.10773	0.18427	0.040415	0.080883	0.23787	0.27294	0.13102	0.2903	0.17845	0.21517	-2.5375	-2.6562	-2.5771	-3.1188	-2.6562	-2.7958	-2.6958	-2.6625	-2.9062	-2.7354	-2.5875	-2.9646	-2.6458	-2.9125	-2.9625	-2.6042	-130.801	-62.793	-52.498	-3.561	117.008	106.898	-2.593	56.036	-95.871	-109.151	81.897	88.703	-124.087	-21.764	194.466	-14.151	4.6086e-05	0.0016684	9.0034e-06	64.018	4.6628e-07	8.9508e-08	53.128	21.469	3.2961e-07	1.1936e-06	18.232	6.5653	8.0304	3.5919	6.9931e-07	3.2481	0.00026352	0.0035431	0.00012914	77.504	4.8488e-06	5.1004e-06	69.709	26.35	4.4889e-06	5.4709e-06	22.515	8.1496	11.311	4.4466	4.8321e-06	4.0254	169.470	54.851	141.789	-134.592	-31.326	126.728	-136.882	-129.323	211.969	51.323	-132.344	-128.141	-124.183	-119.412	-9.843	-124.118	-8191	255	
26243.223	1	1	0	0	0.26035	0.22253	0.037398	0.41194	0.058427	0.078671	0.16043	0.15847	0.31558	0.20323	0.09754	0.18119	0.1144	0.151	0.07862	0.040338	-2.3396	-2.8729	-2.6625	-2.9	-2.8063	-2.8146	-2.7542	-2.5667	-2.9583	-2.8854	-2.7396	-2.7667	-2.5708	-2.7833	-3.0146	-2.7417	196.473	40.822	172.375	-96.302	-102.435	152.474	157.887	190.167	-112.436	-98.128	48.649	-50.957	-111.200	122.493	82.887	-94.051	4.1962e-05	0.0008923	1.6296e-05	63.322	3.194e-07	6.5692e-07	52.998	21.383	4.7943e-07	1.8829e-07	17.984	6.4379	7.7838	3.5591	1.6854e-07	3.1455	0.00026729	0.0023639	0.0001311	77.214	4.9071e-06	5.1449e-06	67.423	27.702	4.4878e-06	5.3224e-06	22.259	8.0201	10.504	4.3709	4.702e-06	3.9271	171.007	62.874	-28.193	-134.751	84.779	-11.520	-136.662	-130.593	1.986	98.060	-132.442	-128.222	-124.153	-119.484	-134.205	-123.949	-8191	255	
26243.318	1	1	0	0	0.081099	0.059621	0.20094	0.11293	0.20002	0.1594	0.1161	0.10012	0.14584	0.15497	0.058545	0.12983	0.18925	0.31689	0.22712	0.32599	-2.3917	-2.7042	-2.5271	-3.0854	-2.7021	-2.8167	-2.9083	-2.6854	-2.8875	-2.7396	-2.7687	-2.6562	-2.6354	-2.7125	-2.9562	-2.7625	46.209	-120.933	-104.719	17.520	190.264	147.279	168.973	57.967	-7.235	-28.953	-18.808	-112.462	157.901	-16.018	-122.705	194.987	3.9074e-05	0.0016777	3.3224e-06	63.284	5.5332e-07	6.4637e-07	52.149	21.238	3.9924e-07	5.2088e-07	17.58	6.2825	7.7188	3.4321	5.2666e-07	3.0591	0.00027036	0.0036612	0.00013051	77.151	4.6663e-06	5.1677e-06	63.873	27.748	4.4148e-06	5.4263e-06	21.833	7.8217	11.067	4.2561	4.7048e-06	3.8098	156.627	67.028	2.079	-134.950	11.731	29.618	-136.781	-130.022	11.081	36.235	-132.571	-128.007	-123.786	-119.327	-39.455	-124.111	-8191	255	
26243.414	1	1	0	0	0.047926	0.19707	0.077489	0.18822	0.079704	0.084891	0.1383	0.2191	0.21578	0.094277	0.18121	0.23433	0.11605	0.20486	0.05497	0.14985	-2.5312	-2.7292	-2.4167	-3.0187	-2.6958	-2.6604	-2.9958	-2.6375	-2.8312	-2.9125	-2.3937	-2.9375	-2.7896	-2.6854	-2.9771	-2.725	50.599	-95.870	0.356	-1.263	157.856	102.510	52.523	2.032	7.513	-27.162	162.753	-22.749	145.030	-68.823	33.190	-69.888	3.4788e-05	0.00073214	1.5673e-05	62.915	2.833e-07	1.8657e-07	52.265	21.445	6.575e-08	5.0686e-07	17.823	6.3775	7.6775	3.4831	8.4377e-07	3.0858	0.00026844	0.002191	0.0001309	76.878	4.7354e-06	5.1165e-06	63.818	28.896	4.5153e-06	5.1453e-06	22.038	7.883	10.408	4.3007	4.6319e-06	3.8525	171.529	9.617	-11.974	-134.703	90.654	90.611	-137.034	-130.792	48.107	70.219	-133.007	-128.392	-123.933	-119.612	-39.041	-124.203	-8191	255	
26243.512	1	1	0	0	0.045225	0.062945	0.093586	0.10719	0.13128	0.17033	0.23436	0.20961	0.14809	0.1571	0.015776	0.12353	0.18384	0.11633	0.1266	0.20826	-2.3917	-2.8604	-2.6333	-2.8333	-2.8583	-2.7479	-2.9354	-2.8521	-2.775	-2.9625	-2.6437	-2.8021	-2.5271	-2.6042	-2.9313	-2.875	39.719	19.591	-36.535	189.370	138.956	-141.662	-98.918	-67.780	-14.091	79.106	132.081	125.056	168.438	112.251	37.965	-73.601	3.4745e-05	0.0011973	0.00043831	63.516	6.2467e-07	2.4272e-07	52.78	21.505	4.1395e-07	4.2395e-07	17.876	6.4108	7.8622	3.5151	3.9583e-07	3.1439	0.00026829	0.0013284	0.00062428	77.345	4.7081e-06	5.1795e-06	64.318	27.917	4.5016e-06	5.0273e-06	22.242	7.9943	11.204	4.3463	4.7239e-06	3.9262	166.922	12.573	132.810	-134.698	-6.823	-24.303	-136.544	-129.962	-118.754	-145.349	-132.829	-127.873	-123.438	-119.628	7.395	-123.893	-8191	255	
26243.631	1	1	0	0	0.10698	0.11838	0.077765	0.33846	0.16699	0.042138	0.13414	0.21824	0.13559	0.27907	0.27949	0.29456	0.14226	0.17205	0.21738	0.16274	-2.4083	-2.8937	-2.5208	-2.725	-2.8125	-2.525	-2.9313	-2.5604	-2.9167	-2.9562	-2.5833	-2.9417	-2.7104	-2.7313	-2.8812	-2.6896	60.960	-126.405	157.609	-83.686	-99.011	-16.352	97.662	180.360	-102.045	137.379	-25.498	-17.528	95.491	-5.773	186.231	188.565	4.04e-05	7.9376e-05	0.00027075	63.541	1.4825e-07	6.2929e-07	52.693	21.708	6.0331e-07	4.1508e-07	18.05	6.4798	7.7974	3.5028	3.8236e-07	3.1313	0.00027283	0.00044566	0.00066035	77.506	4.7605e-06	5.2412e-06	64.589	29.252	4.5074e-06	5.0298e-06	22.396	8.0406	10.404	4.3535	4.7155e-06	3.8991	177.481	-49.215	101.779	-134.551	63.785	110.266	-136.983	-130.217	-42.834	-85.621	-132.345	-128.600	-123.879	-119.551	-5.336	-123.993	-8191	255	
26243.703	1	1	0	0	0.2718	0.14588	0.17427	0.19545	0.044168	0.34016	0.060139	0.26219	0.067203	0.15682	0.26096	0.098706	0.111	0.19903	0.10666	0.10849	-2.1437	-2.8771	-2.6104	-2.7938	-2.9229	-2.6625	-3.0229	-2.8063	-2.7062	-3.125	-2.7479	-2.8417	-3.0542	-2.7854	-2.975	-2.7396	35.333	122.709	-35.083	-15.729	60.931	209.842	-106.455	-80.980	-41.599	9.465	83.076	26.511	-144.203	-83.789	57.614	169.454	3.9621e-05	6.5249e-05	0.00047143	63.468	4.6565e-07	4.4724e-07	52.318	21.607	4.6393e-07	5.9651e-07	17.713	6.3595	7.8109	3.4499	1.2051e-07	3.0849	0.00027142	0.00044875	0.0010216	77.493	4.5705e-06	5.3493e-06	64.114	27.957	4.4825e-06	5.0402e-06	22.096	7.89	9.7948	4.6111	4.7115e-06	3.8194	171.372	8.699	100.666	-134.797	-41.076	122.583	-136.764	-129.707	91.198	-49.822	-132.662	-128.529	-123.156	-119.401	53.086	-124.094	-8191	255	
26243.799	1	1	0	0	0.19873	0.23042	0.22412	0.064876	0.27426	0.18128	0.099936	0.21491	0.058013	0.18363	0.26083	0.26824	0.17232	0.38751	0.12926	0.19845	-2.2604	-3.0708	-2.7104	-2.8937	-3.0521	-2.6125	-2.9396	-2.8104	-2.7479	-3.1396	-3.025	-2.65	-2.9875	-2.6646	-3.0062	-2.9625	114.836	49.016	-40.809	65.426	69.828	122.930	-108.040	-134.582	127.459	22.374	19.206	36.626	208.371	164.561	-64.274	105.857	2.4908e-05	1.3845e-05	0.00028669	63.783	3.0271e-07	1.202e-06	52.453	21.739	4.2321e-07	3.3827e-07	17.828	6.4364	7.6026	3.5113	4.3505e-07	3.1158	0.00027363	0.00045091	0.00067088	77.45	4.4507e-06	5.4758e-06	64.106	29.08	4.5556e-06	5.0066e-06	22.144	7.9595	9.4283	4.6577	4.8063e-06	3.8891	177.475	20.659	110.223	-134.899	146.778	14.377	-137.195	-129.954	-53.813	-4.660	-132.291	-128.654	-124.527	-118.668	16.430	-123.998	-8191	255	
26243.895	1	1	0	0	0.1309	0.14058	0.11241	0.35765	0.177	0.2153	0.11682	0.19169	0.23092	0.11995	0.2985	0.21599	0.1036	0.063455	0.10598	0.14005	-2.1562	-2.9458	-2.5521	-2.6146	-2.8958	-2.7208	-2.8729	-2.8417	-2.7167	-2.9125	-2.8604	-2.6729	-3.0875	-2.7313	-2.9104	-3.0542	-74.680	51.021	22.335	43.533	31.256	121.314	33.424	161.655	-144.715	149.762	132.076	-3.622	-6.290	-73.390	208.862	42.986	3.9977e-05	2.516e-05	0.00047034	63.507	5.0806e-07	5.8411e-07	53.04	21.655	6.6855e-06	3.5455e-07	17.962	6.4767	7.6382	3.5327	3.3523e-07	3.0733	0.0002764	0.00045459	0.0010235	77.595	4.456e-06	5.4326e-06	64.603	27.756	5.3526e-06	5.0634e-06	22.291	8.0298	9.4818	4.8792	4.7261e-06	3.8403	163.251	-44.344	116.148	-134.491	53.439	19.672	-136.609	-129.335	-114.815	-5.169	-132.299	-128.416	-124.436	-118.276	-97.487	-124.433	-8191	255	
26244.014	1	1	0	0	0.2621	0.11204	0.053264	0.39991	0.39917	0.15345	0.23849	0.15241	0.045931	0.18419	0.077159	0.32756	0.16045	0.11412	0.27089	0.20977	-2.2479	-3.0292	-2.7354	-2.7562	-3.0812	-2.8833	-2.8917	-3.0479	-2.7771	-2.8292	-2.9062	-2.7021	-3.0333	-2.7729	-2.775	-2.9437	-106.838	62.638	-0.074	202.419	180.767	18.594	152.727	16.141	43.726	-76.789	-17.760	-34.539	-69.372	-16.695	-63.600	-73.363	4.0501e-05	3.5434e-05	0.00028677	63.687	4.8607e-07	3.8423e-07	52.846	21.708	1.0837e-05	1.7968e-07	17.61	6.1746	7.425	3.3142	6.5056e-07	2.8518	0.00027734	0.00044377	0.00067821	77.869	4.4244e-06	5.5579e-06	64.476	26.73	2.5245e-05	5.0719e-06	21.907	7.7081	9.216	4.4224	4.7508e-06	3.5694	172.756	-81.895	125.820	-134.666	39.347	20.804	-136.170	-129.218	-118.763	9.289	-132.538	-128.408	-124.882	-118.858	192.989	-124.325	-8191	255	
26244.109	1	1	0	0	0.073869	0.05937	0.15511	0.07315	0.12204	0.0031325	0.1088	0.25742	0.24095	0.086289	0.26125	0.16936	0.063116	0.22562	0.068689	0.11829	-2.2792	-2.7896	-2.8479	-2.6063	-3.0667	-2.7062	-2.8563	-2.9542	-2.7917	-3.1583	-2.9625	-2.6312	-3.075	-2.75	-2.7521	-2.9	-76.057	158.486	-83.869	-109.961	105.507	-33.524	18.557	13.388	-86.867	104.323	203.547	190.737	120.907	-53.615	-77.483	55.230	4.3742e-05	6.0122e-05	0.00046805	64.54	2.6116e-07	5.3047e-07	53.051	21.117	9.3479e-06	2.8554e-07	17.159	5.9858	7.2167	3.1735	4.3978e-07	2.7232	0.00028412	0.00045854	0.001045	78.546	4.4394e-06	5.4178e-06	64.593	25.881	2.3677e-05	5.0805e-06	21.451	7.3843	8.9744	4.4705	4.6561e-06	3.3918	175.406	-70.961	125.862	-134.695	-37.639	90.267	-136.972	-129.583	-62.879	31.472	-132.378	-128.344	-124.558	-117.948	-1.695	-123.937	-8191	255	
26244.207	1	1	0	0	0.16699	0.033965	0.056147	0.17681	0.27429	0.20945	0.10098	0.21981	0.11381	0.24256	0.20589	0.1773	0.085716	0.31578	0.16805	0.1701	-2.3375	-2.8458	-2.7792	-2.6271	-3.0396	-2.8479	-2.7604	-3.0417	-2.8167	-3.0083	-2.8167	-2.8396	-2.9417	-2.8375	-2.7062	-3.1833	-137.119	91.363	130.103	111.595	157.272	7.314	152.685	64.897	-27.082	43.406	71.251	-40.964	88.746	-111.510	-35.628	163.665	3.022e-05	0.00011791	9.8825e-05	63.748	5.4791e-07	3.0937e-07	53.093	21.128	1.5802e-05	7.1887e-07	17.428	5.8735	7.234	3.1647	2.873e-07	2.7264	0.0002792	0.00044636	0.00054418	79.373	4.5213e-06	5.4283e-06	64.714	25.875	3.643e-05	5.0677e-06	21.446	7.3642	8.987	4.2447	4.7693e-06	3.4193	168.463	-88.120	32.722	-135.870	-12.054	18.791	-136.984	-129.346	-64.807	17.771	-132.719	-128.535	-125.001	-118.622	-5.355	-124.220	-8191	255	
26244.303	1	1	0	0	0.20204	0.21039	0.29054	0.093655	0.086121	0.23582	0.10331	0.05044	0.2539	0.2368	0.20873	0.044592	0.099507	0.21148	0.041846	0.20486	-2.3896	-2.8958	-2.9625	-2.8	-3.0479	-2.9375	-2.7438	-2.9354	-2.9437	-2.8208	-3.0687	-2.7771	-2.8375	-2.8292	-2.7875	-3.1312	208.191	19.630	-53.108	-57.779	-52.806	26.476	-133.815	-143.610	71.082	-42.568	172.135	-135.436	-60.530	107.423	76.849	-68.045	4.0643e-05	1.443e-05	0.0001439	63.027	4.4291e-07	5.5178e-07	53.134	21.238	9.1836e-06	2.6515e-07	17.43	5.9908	7.2719	3.23	3.7689e-07	2.7999	0.00028462	0.00044544	0.00025724	86.333	4.3934e-06	5.4252e-06	64.67	25.94	2.3583e-05	5.0933e-06	21.581	7.496	9.0428	4.5462	4.7799e-06	3.4995	173.206	-87.119	35.268	-136.439	7.820	20.479	-136.734	-129.158	-57.649	123.703	-132.879	-128.440	-124.696	-117.896	-80.206	-124.036	-8191	255	
26244.398	1	1	0	0	0.059615	0.046591	0.15151	0.11161	0.19219	0.15894	0.26682	0.11943	0.10679	0.31979	0.148	0.16138	0.184	0.14344	0.058135	0.19898	-2.475	-2.7854	-2.9458	-2.6792	-3.0312	-2.9208	-2.6833	-3.0396	-2.8812	-2.6958	-2.9208	-2.4542	-2.9917	-3.0833	-2.625	-2.9437	-0.067	-86.270	-128.609	40.843	-66.366	-39.243	64.168	148.292	-49.384	190.296	197.208	103.144	172.390	-111.435	179.257	105.701	2.1129e-05	7.4273e-05	2.4046e-05	63.313	3.4834e-07	1.0002e-06	52.524	21.189	1.4228e-05	7.4239e-07	17.532	5.99	7.3447	3.2588	6.1588e-06	2.7943	0.00027973	0.00045611	0.00012507	84.972	4.417e-06	5.3307e-06	64.287	25.877	3.5991e-05	5.0518e-06	21.583	7.4991	9.091	4.2322	7.3776e-06	3.4926	190.304	-59.800	-91.728	-135.665	21.368	48.412	-136.771	-129.160	-50.307	35.528	-132.776	-128.382	-124.992	-118.947	154.521	-124.121	-8191	255	
26244.494	1	1	0	0	0.052083	0.18825	0.14386	0.059741	0.21528	0.28378	0.12344	0.23824	0.067087	0.043966	0.25397	0.21807	0.2912	0.18726	0.2772	0.26874	-2.2562	-2.9292	-2.875	-2.7583	-3.0854	-2.9562	-2.7979	-2.7417	-2.7438	-2.8438	-2.9417	-2.6292	-2.7	-2.9688	-2.6208	-2.9125	123.827	-35.093	88.469	34.077	-122.432	81.694	37.414	2.966	-122.159	-131.885	144.875	81.346	164.922	44.255	-78.959	142.078	2.8428e-05	2.7093e-05	1.3922e-05	63.069	3.8288e-08	1.2417e-06	52.265	21.177	8.788e-06	8.1623e-07	17.254	6.036	7.3352	3.2407	9.7249e-06	2.7595	0.00028108	0.00045389	0.00012719	89.348	4.4646e-06	5.1733e-06	64.138	25.875	2.3723e-05	5.1019e-06	21.502	7.5196	9.0834	4.0091	3.005e-05	3.4438	171.737	-56.820	13.026	-136.310	-58.834	34.115	-136.715	-129.398	-41.616	99.935	-132.375	-128.243	-124.749	-118.022	160.177	-123.730	-8191	255	
26244.592	1	1	0	0	0.14305	0.13072	0.16392	0.44891	0.23096	0.15491	0.17103	0.3179	0.12956	0.16302	0.17458	0.15578	0.11667	0.16697	0.18417	0.18428	-2.6646	-2.3667	-2.9208	-2.6396	-2.7479	-3.1083	-2.6208	-3.0583	-2.8396	-2.7438	-3.0542	-2.7167	-2.8063	-3.0854	-2.7271	-2.8896	143.022	-86.314	17.204	59.183	200.168	3.960	-93.952	-2.278	169.949	126.018	143.826	-7.758	-94.091	141.258	-110.176	-118.833	3.5937e-05	4.791e-05	5.2741e-06	63.413	6.1265e-07	1.5328e-07	52.448	21.024	1.5804e-05	8.2618e-07	17.253	5.8775	7.1997	3.0987	9.1787e-06	2.6876	0.00027398	0.00045535	0.00012176	84.658	4.4576e-06	4.9819e-06	64.071	25.714	3.6619e-05	5.1422e-06	21.29	7.3172	8.9073	3.843	2.5219e-05	3.3597	189.718	-37.511	-119.043	-135.841	-7.920	-35.294	-136.586	-129.336	-42.378	15.811	-132.496	-128.477	-124.605	-119.612	91.531	-124.523	-8191	255	
26244.713	1	1	0	0	0.031881	0.16033	0.16838	0.30347	0.23723	0.12481	0.15592	0.23307	0.28569	0.19351	0.277	0.11613	0.19416	0.17106	0.19672	0.14222	-2.3542	-2.6792	-2.8312	-2.5833	-2.6771	-3.0958	-2.8917	-2.7771	-2.8354	-2.575	-3.1292	-2.9188	-2.6854	-2.8792	-2.7333	-2.75	70.695	89.970	-144.518	138.009	172.709	21.798	10.367	-52.955	196.986	-137.315	158.045	64.403	-39.485	-102.575	-142.270	108.271	3.6589e-05	6.8537e-06	1.5416e-05	62.898	2.0988e-07	1.4345e-07	52.23	20.827	8.4503e-06	3.2368e-06	17.112	5.7944	7.0904	3.0893	1.5889e-05	2.6532	0.00027345	0.00045654	0.00012452	89.195	4.456e-06	4.9998e-06	63.888	25.493	1.7564e-05	8.931e-06	21.193	7.2299	8.8127	3.8245	3.8967e-05	3.3264	172.306	18.295	-141.439	-136.264	-41.183	-15.038	-136.465	-129.377	-14.769	-81.805	-132.285	-128.356	-124.663	-119.552	96.789	-124.092	-8191	255	
26244.809	1	1	0	0	0.10619	0.2665	0.3879	0.074288	0.22346	0.13783	0.045465	0.067694	0.22055	0.1366	0.13556	0.13647	0.15334	0.11974	0.034504	0.18337	-2.5396	-2.6458	-3.0521	-2.9125	-2.7146	-3.1562	-2.5021	-2.7396	-2.9542	-2.8021	-2.8083	-2.9771	-2.5479	-3.1729	-2.8	-2.8958	105.938	-99.156	26.803	149.410	-21.071	59.923	81.859	-37.780	-77.463	-145.013	-17.012	-11.115	11.841	-30.470	151.725	-17.834	2.4133e-05	5.0669e-05	1.0397e-05	63.134	5.4958e-07	9.4944e-07	51.882	20.732	1.5303e-05	5.7039e-06	16.927	5.8021	7.1357	3.09	9.4077e-06	2.6614	0.00026564	0.00046726	0.00012364	84.517	4.4705e-06	5.0029e-06	63.478	25.442	6.1549e-06	3.4518e-05	20.989	7.2326	8.8387	3.8233	2.5237e-05	3.3232	179.157	-24.871	7.531	-135.766	-1.475	-37.783	-136.596	-129.275	-10.683	-77.027	-132.518	-128.061	-125.097	-119.567	102.815	-124.306	-8191	255	
26244.904	1	1	0	0	0.14814	0.24729	0.18517	0.075798	0.071109	0.10498	0.064763	0.080976	0.16935	0.15363	0.25578	0.1884	0.17661	0.10098	0.23131	0.19381	-2.5604	-2.5292	-2.875	-2.7771	-2.775	-3.1979	-2.6312	-2.8958	-3.0812	-2.6125	-3.15	-3.0229	-2.6667	-2.9	-2.8854	-2.7104	56.627	-145.686	43.263	-88.778	126.987	-15.901	-62.104	-60.207	33.044	159.921	172.032	-21.817	6.725	44.846	192.228	10.514	3.4201e-05	9.2304e-05	1.0599e-05	63.187	6.6921e-07	3.085e-07	51.584	20.71	5.5999e-07	1.1727e-05	16.966	5.7352	7.0721	3.0628	1.6468e-05	2.6396	0.0002601	0.00047322	0.000124	88.749	4.5261e-06	4.9875e-06	63.125	25.35	4.3746e-06	2.7651e-05	20.956	7.1896	8.7837	3.8031	3.9466e-05	3.3056	180.130	-50.066	211.874	-136.553	-4.104	-6.723	-137.055	-129.318	-46.628	-1.285	-132.270	-128.716	-124.737	-119.583	109.533	-124.226	-8191	255	
26245.000	1	1	0	0	0.071148	0.1026	0.22717	0.13285	0.23077	0.12919	0.10123	0.047422	0.24544	0.075993	0.22356	0.076894	0.10229	0.053721	0.24185	0.022568	-2.5583	-2.6604	-2.9333	-2.9625	-2.5687	-3.05	-2.7229	-2.7875	-3.2146	-2.9042	-2.9062	-2.9708	-2.6771	-2.9021	-2.8667	-2.7938	66.645	4.927	115.443	89.494	-96.260	138.458	-2.383	-134.550	20.659	39.022	76.855	56.707	-74.079	44.246	-146.924	40.425	2.8787e-05	6.6555e-06	9.4091e-06	63.642	9.6152e-06	2.703e-07	51.649	20.77	9.0056e-07	1.8023e-05	16.914	5.7239	7.0883	3.0748	9.3911e-06	2.6466	0.00026042	0.00047365	0.00012513	81.623	8.7633e-06	5.056e-06	63.235	25.394	4.3613e-06	4.2779e-05	20.975	7.1726	8.8064	3.8063	2.5431e-05	3.3221	184.078	180.236	5.314	-134.908	-131.614	-34.359	-136.774	-129.282	-71.142	2.715	-132.322	-128.513	-124.674	-119.677	120.725	-124.219	-8191	255	
26245.096	1	1	0	0	0.14193	0.035381	0.2409	0.23069	0.19586	0.14275	0.21657	0.059299	0.19998	0.15837	0.27652	0.13698	0.10032	0.22019	0.20588	0.05813	-2.5896	-2.7229	-2.8417	-3.2313	-2.7208	-2.8958	-2.8417	-2.3625	-3.125	-2.8812	-2.8208	-3.1063	-2.7271	-2.9833	-2.9646	-2.6083	-134.550	29.236	162.510	74.334	142.365	115.775	-104.252	-139.971	-9.530	-132.870	93.219	-97.034	24.473	105.566	30.435	20.376	3.5488e-05	8.3353e-05	1.1893e-05	64.039	1.4849e-05	4.9706e-07	51.608	20.764	4.3405e-07	9.9956e-06	16.892	5.7485	7.0031	3.0512	1.5384e-05	2.6072	0.00026039	0.00048004	0.00012508	77.527	3.2144e-05	5.0369e-06	63.3	25.412	4.3767e-06	2.7647e-05	20.93	7.1575	8.7794	3.7785	3.9327e-05	3.2696	178.538	-69.198	-26.316	-134.746	-131.706	8.368	-136.862	-129.557	198.781	15.845	-132.299	-128.359	-124.819	-119.371	122.166	-124.178	-8191	255	
26245.191	1	1	0	0	0.23577	0.10242	0.22265	0.016154	0.16965	0.17148	0.024023	0.045724	0.17543	0.0299	0.0728	0.1763	0.089944	0.20873	0.2709	0.20829	-2.6833	-2.7083	-2.7604	-2.9771	-2.6937	-3.0208	-2.8292	-2.6208	-2.9917	-2.9125	-2.9583	-2.9646	-2.8667	-2.9208	-2.9917	-2.6583	144.932	-116.046	182.006	157.398	-121.433	92.547	-16.999	-15.201	-60.496	153.028	-3.100	179.903	0.219	-46.632	-140.808	172.892	3.6958e-05	0.00012259	1.4825e-05	63.787	9.6943e-06	8.0368e-08	51.778	20.811	2.5571e-07	1.8362e-05	17.077	5.7703	7.095	3.0534	8.4598e-06	2.5769	0.00025641	0.00047251	0.00012546	77.72	2.4063e-05	5.0591e-06	63.519	25.534	4.3756e-06	4.212e-05	21.081	7.1657	8.8224	3.7909	1.6505e-05	3.4088	164.844	-65.976	-77.502	-134.884	-109.626	-40.203	-136.736	-129.560	18.462	15.228	-132.306	-128.192	-125.018	-119.536	72.369	-124.799	-8191	255	
26245.311	1	1	0	0	0.27886	0.13881	0.069366	0.2311	0.096962	0.1474	0.24965	0.16804	0.016522	0.089577	0.082975	0.2147	0.17406	0.25655	0.23741	0.20861	-2.625	-2.8563	-2.6937	-3.0167	-2.8354	-2.8833	-2.9104	-2.7354	-3.0333	-2.8167	-2.7188	-3.1458	-2.8146	-2.925	-3.0333	-2.6833	199.724	-25.781	88.895	-119.398	-134.529	-49.557	130.460	119.390	-6.751	174.841	-56.314	-62.032	-24.690	-57.253	-104.589	61.878	3.7779e-05	8.1457e-05	5.2206e-06	63.79	1.5981e-05	7.3183e-07	52.108	20.859	6.1444e-07	1.1519e-05	17.087	5.8405	7.1416	3.0931	3.5916e-07	2.5897	0.00025812	0.00046851	0.00012764	77.763	3.6892e-05	5.0535e-06	63.573	25.575	4.3402e-06	2.7032e-05	21.16	7.2464	8.8989	3.823	4.586e-06	4.0302	195.507	-0.535	-25.261	-134.686	-103.294	-30.690	-136.969	-129.587	-24.885	26.811	-132.652	-128.419	-124.922	-119.591	-86.818	-126.404	-8191	255	
26245.408	1	1	0	0	0.17312	0.16091	0.074694	0.14193	0.18489	0.37877	0.11277	0.17562	0.14749	0.17572	0.13208	0.08078	0.012071	0.12708	0.099258	0.20341	-2.6542	-2.8479	-2.6688	-3.0604	-2.9833	-2.6396	-3.0479	-2.7792	-2.9833	-2.8542	-2.6646	-3.1	-2.7979	-2.5167	-3.0479	-2.6479	-19.581	45.603	-34.035	101.288	173.721	105.781	135.609	-71.953	-116.900	77.866	152.695	-39.072	48.241	-55.310	29.777	-118.790	3.6472e-05	4.6829e-05	1.5725e-05	63.46	9.5702e-06	2.3374e-07	51.937	20.745	4.1259e-07	2.0069e-05	16.877	5.806	7.08	3.0774	2.605e-07	2.5647	0.00025918	0.00046466	0.00012728	77.388	2.4289e-05	5.0449e-06	63.16	25.45	4.3984e-06	4.3231e-05	21.014	7.213	8.8254	3.8117	4.6219e-06	3.8028	171.457	-84.360	-68.423	-134.850	-102.049	37.437	-136.386	-129.031	60.549	28.325	-132.199	-128.198	-124.474	-119.511	-93.831	-124.330	-8191	255	
26245.504	1	1	0	0	0.14322	0.1712	0.25444	0.17399	0.20785	0.23157	0.41293	0.19567	0.14921	0.20172	0.098805	0.048195	0.20245	0.20104	0.25062	0.11126	-2.4833	-2.7958	-2.7958	-3.0021	-2.8563	-2.9625	-3.0187	-2.6854	-2.875	-2.9542	-2.6479	-2.9938	-2.8708	-2.7125	-3.0687	-2.7104	136.136	204.746	122.408	-90.892	-131.331	191.122	67.998	-48.662	-81.940	146.192	206.794	111.988	-69.503	138.731	13.177	97.990	3.9333e-05	2.1501e-05	6.4652e-06	63.544	1.5848e-05	2.0445e-07	51.295	20.707	1.7811e-08	1.2458e-05	16.624	5.7516	7.0841	3.0498	3.0711e-07	2.4832	0.00026302	0.0004625	0.00012787	77.266	3.8141e-05	5.0751e-06	62.733	25.347	4.4238e-06	1.7598e-05	21.903	7.1534	8.7969	3.7779	4.5467e-06	4.0844	156.057	195.098	-105.554	-134.706	-94.847	136.028	-136.699	-129.249	152.571	28.129	-132.203	-128.266	-124.716	-119.470	-48.310	-125.428	-8191	255	
26245.574	1	1	0	0	0.082556	0.10497	0.26396	0.21174	0.11782	0.18598	0.15443	0.10331	0.052289	0.19576	0.29253	0.27567	0.036882	0.40237	0.013436	0.073067	-2.4104	-2.75	-2.7	-2.8312	-2.7375	-2.7167	-2.9125	-2.7	-2.7042	-2.8771	-2.6375	-2.8958	-2.8333	-2.4083	-3.0479	-2.7104	-119.006	-1.352	145.865	-24.631	96.265	13.701	52.567	-114.742	-126.443	195.356	68.394	21.281	60.921	188.036	-135.204	-124.540	2.8081e-05	7.3486e-05	1.0461e-05	63.022	9.1603e-06	6.0215e-07	51.383	20.634	5.6311e-07	8.6413e-07	16.578	5.6986	7.0762	3.0045	2.9024e-07	2.516	0.00026511	0.00044279	0.00013104	76.778	2.4459e-05	5.161e-06	62.556	25.236	4.4143e-06	4.9357e-06	26.282	7.1163	8.7546	3.7454	4.531e-06	3.7383	186.414	-112.755	-46.148	-134.938	-88.288	59.932	-136.728	-129.304	-95.070	-10.054	-132.748	-128.696	-124.524	-119.212	15.187	-124.734	-8191	255	
26245.695	1	1	0	0	0.2288	0.20309	0.074077	0.05563	0.12358	0.1728	0.17734	0.13765	0.18994	0.16709	0.15361	0.15974	0.31006	0.11032	0.20507	0.15699	-2.3125	-2.975	-2.6021	-2.8583	-2.8708	-2.7562	-3.1104	-2.8042	-2.7521	-3.1646	-2.7812	-2.7687	-2.8688	-2.625	-2.9271	-2.9271	22.879	107.580	48.562	-89.753	-136.651	61.298	180.265	164.215	148.997	117.862	-111.842	144.672	-102.836	54.102	204.661	39.448	3.4173e-05	2.2164e-05	1.4037e-05	62.874	1.5672e-05	1.3003e-06	51.056	20.489	5.4902e-07	7.8363e-07	16.86	5.6998	6.9665	3.022	4.9323e-07	2.4966	0.00026599	0.00043813	0.00013487	76.759	3.8484e-05	5.1684e-06	62.439	25.141	4.4354e-06	4.9827e-06	24.291	7.0878	8.693	3.7444	4.5849e-06	4.0972	164.166	94.827	-81.660	-134.890	-80.224	-66.019	-136.614	-129.563	-74.724	3.043	-130.157	-128.317	-125.042	-119.608	-55.265	-126.070	-8191	255	
26245.793	1	1	0	0	0.060756	0.10174	0.32928	0.22751	0.29717	0.085052	0.15656	0.097397	0.012661	0.2526	0.23218	0.30578	0.22728	0.11825	0.18531	0.21784	-2.3271	-3.0979	-2.5333	-2.7958	-3.05	-2.6688	-3.0125	-2.7458	-2.6583	-2.9208	-2.4979	-2.8625	-2.9125	-2.675	-2.9396	-2.925	33.910	117.860	-118.525	-133.290	199.244	156.120	191.790	11.272	105.550	193.589	40.767	-11.471	-134.408	51.700	206.051	211.302	3.0197e-05	3.191e-05	9.1505e-06	62.922	4.8612e-06	8.9614e-06	51.177	20.674	3.8736e-07	3.6227e-07	17.004	5.7588	7.036	3.053	3.3031e-07	2.575	0.00026216	0.00043776	0.00013071	76.571	1.4847e-05	1.3421e-05	62.488	25.204	4.3973e-06	4.9247e-06	26.903	7.1452	8.7633	3.7962	4.5652e-06	3.7937	171.654	191.894	-45.810	-134.528	-22.510	-99.817	-137.081	-129.627	-54.039	-15.813	-129.010	-128.096	-124.798	-119.388	-42.869	-125.320	-8191	255	
26245.889	1	1	0	0	0.23047	0.12915	0.12405	0.17788	0.081506	0.32793	0.020829	0.11319	0.14593	0.31556	0.22363	0.18515	0.26484	0.20459	0.049681	0.12167	-2.1333	-2.9521	-2.8292	-2.8146	-3.1146	-2.6104	-2.8937	-2.8979	-2.8438	-2.9521	-2.9313	-2.8917	-3.1188	-2.7375	-2.8771	-2.9062	8.770	31.140	-127.535	205.620	-124.477	30.233	150.490	49.288	27.416	-137.751	34.387	76.007	47.092	157.005	-140.035	168.303	2.7378e-05	9.811e-05	7.9734e-06	62.962	1.3634e-07	1.3677e-05	50.841	20.629	2.5779e-07	7.5687e-07	16.842	5.6964	7.0075	3.0397	7.6223e-07	2.4851	0.00026585	0.00044458	0.00013508	76.644	4.3709e-06	4.3382e-05	62.323	25.184	4.555e-06	4.8978e-06	24.339	7.0996	8.709	3.7701	4.5961e-06	4.0704	179.596	-107.053	97.962	-134.706	51.779	-91.106	-137.094	-129.213	-49.874	32.137	-129.937	-128.074	-124.683	-119.717	-6.316	-126.572	-8191	255	
26245.984	1	1	0	0	0.15894	0.10375	0.19838	0.14378	0.19699	0.11235	0.19596	0.15826	0.15421	0.23693	0.20415	0.027889	0.15082	0.08828	0.12632	0.11831	-2.2062	-2.9813	-2.7125	-2.6708	-3.0417	-2.7167	-2.9062	-2.8833	-2.6625	-3.0042	-2.6229	-2.7812	-3.2125	-2.7396	-2.9229	-2.8521	-60.276	-65.451	-36.027	-91.689	38.139	83.845	-27.753	150.931	-67.488	199.485	119.667	33.438	-128.491	-24.100	156.692	-30.826	2.8883e-05	4.4954e-05	6.3891e-06	62.792	5.0396e-07	1.281e-05	50.993	20.422	2.2554e-07	8.0116e-07	16.662	5.6914	6.9687	3.0003	3.6964e-07	2.5399	0.00026605	0.00044209	0.00013327	76.611	4.2992e-06	2.9388e-05	62.195	25.019	4.5413e-06	4.9675e-06	26.728	7.044	8.6426	3.7339	4.5899e-06	3.456	158.649	159.746	15.209	-134.719	5.072	-49.623	-136.176	-129.224	-57.158	-9.011	-128.513	-128.273	-124.630	-119.437	80.382	-123.344	-8191	255	
26246.104	1	1	0	0	0.26076	0.055572	0.25955	0.17453	0.249	0.092632	0.10635	0.27696	0.060393	0.21408	0.16459	0.2951	0.27159	0.038538	0.14654	0.070951	-2.2708	-2.8688	-2.8708	-2.8063	-3.0187	-2.6937	-3.0229	-2.9479	-2.7792	-3.0917	-2.8688	-2.7083	-2.9375	-2.8563	-2.7646	-3.0896	-54.805	50.881	-103.946	-49.026	91.190	41.599	-48.449	163.269	-91.444	49.253	120.654	155.135	-122.678	-125.490	-123.830	38.749	0.00019804	4.1585e-05	5.748e-06	62.58	3.1439e-07	2.3222e-05	51.055	20.477	3.611e-07	3.0143e-07	16.522	5.7202	7.0472	3.0541	6.9173e-07	2.6329	0.00071441	0.00043597	0.00013188	76.57	4.3356e-06	4.5392e-05	62.328	25.07	4.5974e-06	4.9448e-06	24.326	7.1131	8.722	3.7708	4.6409e-06	3.2786	127.906	-64.028	3.954	-134.848	6.641	-41.785	-136.586	-129.153	-107.771	-56.933	-130.384	-128.005	-124.689	-119.397	-9.468	-123.956	-8191	255	
26246.176	1	1	0	0	0.10997	0.27993	0.073613	0.30336	0.1436	0.077528	0.055957	0.12432	0.13019	0.31604	0.043091	0.18662	0.068744	0.060303	0.15788	0.078622	-2.3417	-2.8354	-2.9292	-2.9396	-2.95	-2.9375	-2.9813	-3.0396	-2.8375	-2.9437	-2.9437	-2.6562	-2.9375	-2.8854	-2.7542	-3.0021	128.546	28.315	-96.912	158.255	119.745	87.722	39.325	-67.923	54.689	104.748	133.698	-45.433	-73.488	-7.531	21.612	116.724	0.00027736	2.6677e-05	1.3068e-05	62.863	2.6495e-07	1.3028e-05	51.165	20.679	6.2139e-07	9.8499e-08	16.522	5.7841	7.094	3.0716	2.8257e-07	2.6247	0.0021587	0.00043943	0.00012834	76.559	4.3254e-06	2.8933e-05	62.361	25.252	4.7773e-06	4.9809e-06	26.91	7.2109	8.8198	3.8006	4.6123e-06	3.2733	113.527	-125.159	-63.018	-134.626	-30.290	-29.335	-136.868	-129.179	-74.215	-33.278	-128.845	-127.896	-124.774	-119.628	70.321	-124.064	-8191	255	
26246.273	1	1	0	0	0.056113	0.23695	0.21185	0.090275	0.09804	0.27882	0.21035	0.17473	0.18663	0.11848	0.21204	0.11456	0.14197	0.11522	0.35171	0.11841	-2.3396	-2.8438	-2.95	-2.5292	-2.9958	-2.9521	-2.7333	-3.0771	-2.7792	-2.9667	-2.9646	-2.6271	-2.8854	-2.8563	-2.7687	-3.0417	52.401	-98.823	20.160	-118.691	-132.961	156.825	-4.662	-25.041	162.530	169.582	-60.881	91.117	104.178	53.271	-131.819	123.910	0.0001671	8.0199e-05	2.2384e-05	62.648	4.2068e-07	2.1277e-05	51.058	20.497	6.4781e-07	2.8184e-07	16.875	5.5761	7.0274	3.0209	1.3497e-06	2.579	0.0014093	0.00044582	0.00013028	76.51	4.3624e-06	4.5282e-05	62.226	25.103	4.6312e-06	4.9766e-06	22.216	7.614	8.7442	3.7479	4.646e-06	3.2134	119.255	-65.615	-53.165	-134.567	-81.213	-24.429	-136.785	-129.293	-138.561	-6.756	-130.168	-128.444	-124.878	-119.346	-49.987	-124.470	-8191	255	
26246.393	1	1	0	0	0.1661	0.074967	0.14697	0.20712	0.17565	0.16864	0.054377	0.13573	0.12501	0.2487	0.050898	0.20602	0.3306	0.041214	0.080314	0.29723	-2.3667	-2.8208	-2.9729	-2.5396	-2.9021	-2.9833	-2.7333	-2.9562	-2.8063	-2.7271	-3.0979	-2.8354	-2.8187	-2.7625	-2.5583	-2.9417	24.706	28.549	206.030	203.777	-120.093	-25.663	-73.511	152.572	-122.604	132.307	-31.968	6.857	-45.302	44.770	178.535	17.962	0.00027436	7.5016e-05	1.6135e-05	62.736	7.6653e-07	1.2994e-05	50.946	20.499	4.8626e-07	7.0722e-07	16.584	5.4666	7.045	3.0301	3.3696e-07	2.5635	0.0022034	0.00044528	0.000124	76.497	4.4148e-06	2.9285e-05	62.268	25.074	4.7419e-06	4.9546e-06	20.588	8.9845	8.693	3.7229	4.6757e-06	3.189	125.480	-65.642	49.921	-134.884	-14.424	-16.059	-136.902	-129.319	-141.439	-11.899	-132.357	-125.599	-124.741	-119.321	163.424	-123.895	-8191	255	
26246.488	1	1	0	0	0.11805	0.10886	0.13781	0.13847	0.20156	0.14691	0.20549	0.29643	0.030447	0.1168	0.064583	0.22154	0.21532	0.28035	0.18074	0.16669	-2.5438	-2.8583	-3.1458	-2.875	-2.8875	-3.0687	-2.7313	-2.9604	-2.9938	-2.9896	-3.1875	-2.8812	-2.75	-3.0333	-2.7562	-3.0729	84.737	114.430	29.920	-146.180	-143.779	191.355	-79.148	36.977	103.128	-37.660	50.203	2.120	38.199	107.554	-44.882	35.327	0.00019117	2.4097e-06	1.2503e-05	62.97	7.1359e-07	1.942e-05	50.872	20.386	3.0041e-07	4.2325e-07	16.571	5.4378	6.9698	2.9314	7.0933e-07	2.4684	0.0014362	0.00044057	0.00012319	76.885	4.4293e-06	4.5313e-05	62.272	25.008	4.6572e-06	5.0218e-06	20.556	8.1296	8.6232	3.6386	4.7373e-06	3.1023	136.995	14.082	-51.796	-134.910	58.652	5.576	-136.659	-129.135	62.102	-70.701	-132.656	-126.245	-124.653	-119.533	-30.182	-124.050	-8191	255	
26246.584	1	1	0	0	0.089385	0.025307	0.067249	0.17178	0.10797	0.20244	0.17245	0.19378	0.16798	0.12935	0.14754	0.187	0.30206	0.1588	0.15658	0.037032	-2.3854	-2.6958	-3.1292	-2.6917	-2.7687	-3.1604	-2.8854	-3.05	-2.9833	-2.7687	-2.9833	-2.8167	-2.8708	-2.9646	-2.7208	-2.8542	185.878	84.209	142.150	41.254	-49.808	-28.491	-101.789	37.332	2.287	199.698	29.649	72.889	-71.000	158.054	29.975	-125.418	0.00029189	1.2629e-05	1.9854e-05	62.805	5.8451e-07	1.1786e-05	51.176	20.346	1.4252e-07	3.3757e-07	16.373	5.2021	6.7819	2.838	5.8848e-07	2.3809	0.0022144	0.00044896	0.00012365	76.865	4.4191e-06	1.3927e-05	65.263	24.896	4.6265e-06	5.0652e-06	20.299	8.6973	8.4457	3.5249	4.8601e-06	2.9853	133.144	27.349	-61.227	-134.746	-65.684	6.100	-137.180	-129.332	-102.856	-41.173	-132.809	-125.779	-124.857	-119.298	7.221	-124.011	-8191	255	
26246.705	1	1	0	0	0.075951	0.24934	0.20639	0.29689	0.1718	0.12675	0.23013	0.05258	0.26536	0.14468	0.14961	0.1454	0.095534	0.11469	0.19034	0.021395	-2.6354	-2.7333	-3.2104	-2.7521	-2.75	-3.1208	-2.8667	-3.0521	-3.0438	-2.8833	-3.1437	-2.8875	-2.8979	-2.9271	-2.7667	-2.8042	-44.959	-55.123	199.544	198.042	25.298	206.672	-78.192	-17.172	64.308	201.744	-93.513	-27.062	172.167	141.836	-71.384	-97.628	0.00018684	3.9196e-05	6.3036e-06	63.133	1.115e-07	5.2624e-07	52.362	20.292	1.4605e-07	3.4554e-08	16.152	5.207	6.7386	2.8199	5.0661e-07	2.3857	0.001453	0.00044902	0.00012239	77.197	4.4132e-06	4.8973e-06	73.115	24.776	4.6027e-06	5.0634e-06	20.149	7.8593	8.39	3.4892	5.0193e-06	2.9782	143.768	-55.192	-97.386	-134.828	172.640	135.198	-135.521	-129.486	-78.735	173.344	-132.757	-126.989	-124.729	-119.610	-23.515	-124.100	-8191	255	
26246.801	1	1	0	0	0.16844	0.093097	0.36898	0.1824	0.099127	0.10603	0.22509	0.27097	0.27834	0.16635	0.14957	0.21951	0.10519	0.17037	0.16056	0.048573	-2.5708	-2.6688	-3.0396	-2.9125	-2.7188	-3.2021	-2.9104	-2.9979	-3.0729	-2.7938	-3.0938	-2.825	-2.5958	-3.0187	-2.7792	-2.9646	35.255	62.331	87.260	-51.517	-93.996	97.139	29.668	41.718	208.552	-76.569	-100.014	105.536	78.882	-51.854	-24.408	-128.409	5.0533e-05	4.6697e-05	8.9253e-06	63.177	3.8795e-07	2.8433e-07	51.498	20.215	7.533e-07	7.9891e-07	16.263	5.1369	6.8314	2.8774	2.9725e-07	2.4277	0.0021722	0.00046233	0.0001237	76.988	4.4287e-06	4.9517e-06	68.764	24.756	4.5466e-06	5.2216e-06	20.194	8.8024	8.5051	3.5676	4.8629e-06	3.0543	194.804	-9.381	-67.074	-135.091	-17.411	-0.555	-135.604	-129.175	-36.091	-140.691	-132.896	-125.919	-124.996	-119.358	-20.504	-123.970	-8191	255	
26246.873	1	1	0	0	0.22256	0.17211	0.32714	0.067874	0.081497	0.25277	0.24447	0.25608	0.27462	0.075714	0.070789	0.056831	0.13711	0.087556	0.12242	0.2173	-2.5292	-2.725	-3.1354	-2.7292	-2.5604	-3.175	-2.8667	-2.8104	-2.8979	-2.7062	-2.975	-2.8312	-2.6375	-2.8979	-2.8354	-2.6271	-145.547	17.358	124.900	149.902	104.931	180.034	39.966	-84.328	8.391	203.742	52.234	-84.183	157.146	-87.387	44.684	81.059	4.8783e-05	0.0011291	1.5839e-05	62.526	4.3254e-07	2.9387e-07	51.713	20.391	1.4653e-07	7.422e-07	16.351	5.3995	6.9534	2.9603	9.6729e-07	2.5199	0.00066053	0.0016682	0.00012332	76.642	4.532e-06	4.8782e-06	73.104	24.91	4.3666e-06	5.2705e-06	20.443	8.1551	8.6535	3.6584	5.0675e-06	3.1439	202.168	175.645	-88.226	-134.993	-44.182	195.853	-135.026	-129.131	-115.448	47.059	-132.597	-127.061	-124.857	-119.584	-17.606	-123.654	-8191	255	
26246.992	1	1	0	0	0.17769	0.24449	0.10966	0.1682	0.17591	0.16979	0.043635	0.11291	0.24674	0.33674	0.32825	0.1774	0.17405	0.3119	0.20471	0.19925	-2.6	-2.5667	-2.7771	-2.7542	-2.7354	-2.8896	-2.7792	-2.7667	-2.9354	-2.8167	-2.8583	-2.8958	-2.5375	-2.9396	-2.6604	-2.6	-34.137	57.511	-104.946	-58.191	-55.421	-110.124	70.247	-120.939	152.249	125.590	-138.747	149.235	172.511	-24.081	-76.646	202.714	3.2805e-05	0.0019091	1.1334e-05	63.008	7.0413e-07	5.6393e-07	51.656	20.523	1.9196e-07	3.6378e-07	16.606	5.6326	7.0261	2.9655	7.2396e-07	2.5061	0.00025886	0.0041683	0.00012325	76.904	4.5491e-06	5.0406e-06	68.659	25.128	4.3322e-06	5.5149e-06	20.584	8.802	8.7311	3.6819	4.8455e-06	3.1444	176.258	189.178	-70.577	-134.820	195.297	-39.823	-135.703	-129.371	167.482	10.871	-132.397	-125.548	-124.909	-119.491	-28.646	-123.975	-8191	255	
26247.088	1	1	0	0	0.10968	0.045572	0.089888	0.067638	0.11034	0.28361	0.047718	0.1773	0.14343	0.06848	0.18151	0.11656	0.11496	0.17941	0.10322	0.11055	-2.4208	-2.7583	-2.8187	-2.9292	-2.7979	-3.1417	-2.8979	-2.6792	-3.0354	-2.6542	-2.8187	-2.9625	-2.5354	-2.9167	-2.9604	-2.5687	-60.496	-6.269	-63.932	-74.598	197.090	180.581	-29.723	-56.294	-7.773	112.265	-135.502	119.703	-5.223	41.311	-39.693	-128.134	2.5233e-05	0.0010605	6.7427e-06	63.326	2.5093e-07	2.7758e-07	52.057	20.726	3.8657e-08	1.2581e-06	16.585	5.6069	6.8479	2.9575	9.1257e-07	2.4855	0.00025538	0.0026447	0.00012487	77.067	4.6497e-06	4.9757e-06	73.148	25.246	4.346e-06	5.3121e-06	20.636	7.34	9.3836	3.6562	4.9638e-06	3.1224	177.431	192.565	-15.978	-134.820	170.831	-68.081	-135.136	-129.672	125.297	-49.470	-132.023	-126.535	-125.507	-119.597	20.619	-123.796	-8191	255	
26247.184	1	1	0	0	0.16377	0.062316	0.19389	0.025948	0.081756	0.093163	0.15274	0.036467	0.18523	0.15358	0.087461	0.17763	0.17418	0.17813	0.047415	0.27018	-2.5563	-2.6375	-2.6667	-3.1063	-2.7125	-3.0958	-3.0042	-2.7875	-3.0833	-2.8396	-2.7125	-2.9875	-2.6896	-2.9938	-2.8563	-2.4646	133.405	153.947	-0.717	82.376	63.546	-110.927	-8.500	91.278	106.694	70.335	167.038	-64.507	91.647	2.391	168.829	-1.781	2.3612e-05	0.0018353	8.9473e-06	63.644	3.2593e-07	4.5313e-07	51.414	20.478	1.0964e-07	3.4464e-07	16.51	5.5151	6.5921	2.9158	6.183e-07	2.4444	0.00025927	0.0040588	0.00012481	77.423	4.677e-06	4.9214e-06	69.02	25.101	4.2872e-06	5.4013e-06	20.511	6.8925	10.593	3.6005	4.8113e-06	3.0733	156.498	204.469	30.904	-134.873	48.160	55.650	-135.181	-129.464	3.598	208.598	-132.046	-128.374	-123.710	-119.629	-38.534	-123.854	-8191	255	
26247.279	1	1	0	0	0.061447	0.18173	0.18357	0.24945	0.17568	0.21435	0.11743	0.14224	0.088519	0.05888	0.088784	0.21746	0.036089	0.077591	0.26441	0.13638	-2.6312	-2.9417	-2.5458	-3.1063	-2.875	-2.9604	-2.8125	-2.7938	-3.025	-2.9208	-2.7667	-2.8688	-2.6937	-2.7604	-2.95	-2.6937	-32.087	-60.376	-3.952	48.397	112.566	-91.203	126.714	-43.028	44.602	78.258	137.045	103.315	140.282	171.032	190.009	56.606	2.9834e-05	0.0011322	1.2927e-05	63.007	2.8917e-07	9.0216e-07	51.722	20.407	4.1148e-07	8.9273e-07	16.376	5.5466	6.734	2.8907	8.4785e-07	2.4313	0.00026069	0.0026807	0.00012627	77.115	4.8226e-06	4.9368e-06	71.772	24.989	4.3216e-06	5.2497e-06	20.402	6.8916	9.8043	3.5768	4.6762e-06	3.0557	155.004	204.495	-64.872	-134.751	29.007	-4.790	-134.678	-129.403	-92.638	-51.083	-132.692	-127.976	-124.526	-119.574	-10.455	-123.874	-8191	255	
26247.400	1	1	0	0	0.16641	0.10096	0.074276	0.14693	0.19911	0.077987	0.075676	0.12391	0.10824	0.18601	0.12329	0.18002	0.28754	0.19512	0.034595	0.14697	-2.4604	-2.8729	-2.7938	-2.9792	-2.5563	-2.8896	-2.9625	-2.6021	-3.0917	-2.8917	-2.6604	-2.8646	-2.8563	-2.6188	-3.0312	-2.7188	171.842	-146.077	107.549	-79.845	19.092	-50.000	-143.605	-52.290	179.962	-38.200	32.064	-52.265	16.757	202.691	120.590	-0.084	2.5479e-05	0.0018185	1.6151e-05	63.092	1.0058e-07	5.0759e-07	51.31	20.5	5.286e-07	9.0539e-07	16.48	5.5423	6.6296	2.9159	1.4568e-07	2.47	0.00026004	0.0041149	0.00012697	76.962	4.6428e-06	5.0461e-06	63.807	26.354	4.3486e-06	5.2412e-06	20.477	6.9282	10.641	3.6171	4.5832e-06	3.0936	162.778	-145.909	-87.090	-134.872	-71.671	-29.986	-135.763	-129.501	-79.495	8.373	-132.372	-128.116	-124.263	-119.468	-76.785	-123.937	-8191	255	
26247.473	1	1	0	0	0.145	0.31041	0.13868	0.14447	0.1157	0.14993	0.25902	0.15166	0.23647	0.20832	0.048744	0.30526	0.18893	0.13137	0.24977	0.023061	-2.3125	-2.8646	-2.6521	-2.8146	-2.8187	-2.8292	-3.0667	-2.6292	-3.1604	-2.95	-2.6271	-2.9062	-2.6937	-2.6854	-2.95	-2.5563	-81.925	-63.978	75.806	163.458	-119.779	77.935	11.625	15.935	-6.896	-45.351	59.495	94.602	67.449	11.597	-83.359	-89.842	2.2496e-05	0.0012623	7.5371e-06	63.57	3.2344e-07	4.9537e-07	50.841	20.708	4.1095e-07	9.0878e-07	16.635	5.5778	6.7826	2.9296	6.6285e-08	2.4825	0.0002545	0.0026052	0.00012763	77.235	4.7889e-06	5.0751e-06	62.377	28.581	4.4095e-06	5.1233e-06	20.604	6.9735	9.88	3.628	4.5423e-06	3.108	177.777	-141.582	211.656	-134.784	-25.022	-128.990	-136.587	-127.894	15.802	-76.666	-132.327	-128.277	-125.004	-119.513	197.993	-124.260	-8191	255	
26247.568	1	1	0	0	0.090241	0.12501	0.13565	0.1913	0.050902	0.10416	0.11493	0.038446	0.19821	0.11968	0.37774	0.084092	0.080702	0.16179	0.22027	0.24914	-2.4417	-2.8271	-2.6167	-2.8333	-2.7854	-2.5438	-3.0146	-2.6479	-2.7583	-2.8417	-2.5646	-2.8729	-2.8792	-2.5083	-3.1271	-2.7542	83.746	-41.147	48.155	85.388	198.441	122.339	-144.992	72.191	-126.035	119.207	122.882	134.255	-59.632	-133.754	-116.419	5.863	2.5951e-05	0.0011187	0.00039439	63.527	9.1311e-07	6.139e-07	50.959	20.709	2.539e-07	4.4161e-07	16.696	5.6282	6.6204	2.947	3.1164e-07	2.5314	0.00026033	0.0033962	0.00016855	77.196	4.6e-06	5.1251e-06	62.518	27.323	4.3206e-06	5.2082e-06	20.621	7.0258	10.702	3.6615	4.5288e-06	3.1449	166.856	-90.266	200.566	-134.937	-9.774	-7.179	-136.652	-128.510	-78.640	-0.309	-132.435	-128.247	-125.244	-119.239	-29.576	-123.447	-8191	255	
26247.664	1	1	0	0	0.034912	0.15475	0.24769	0.13003	0.10314	0.35111	0.27383	0.23697	0.23961	0.24589	0.15829	0.135	0.16446	0.14407	0.11528	0.16636	-2.2583	-2.8708	-2.625	-2.8292	-2.7917	-2.5208	-2.9062	-2.6937	-2.7604	-2.9813	-2.5	-2.9	-2.8208	-2.65	-2.9542	-2.7438	-28.108	35.520	-102.417	177.552	87.138	67.819	-71.194	-66.763	192.754	12.877	171.052	-7.039	-61.476	193.881	167.996	174.064	1.9303e-05	0.00069435	0.0002322	63.338	1.1995e-07	6.768e-07	50.787	20.476	1.6698e-07	6.0224e-07	16.58	5.6766	6.7996	2.9649	3.0818e-07	2.5403	0.00026243	0.00085786	0.00053913	76.965	4.6192e-06	5.2425e-06	62.177	28.612	4.4084e-06	4.9393e-06	20.629	7.0408	9.9238	3.6729	4.5787e-06	3.1569	181.614	-79.119	201.687	-134.379	2.631	51.372	-136.566	-127.653	44.051	-29.656	-131.922	-128.418	-125.417	-119.728	72.461	-123.759	-8191	255	
26247.785	1	1	0	0	0.11972	0.25169	0.2006	0.076994	0.12705	0.096617	0.10622	0.15982	0.16392	0.0736	0.042039	0.18478	0.1166	0.018808	0.31031	0.11792	-2.2583	-2.7812	-2.7188	-2.7333	-2.8146	-2.6021	-2.8438	-2.8917	-2.6354	-3.0125	-2.7313	-2.6813	-2.975	-2.5271	-3.0271	-2.7938	192.079	187.622	-6.221	-96.080	1.298	92.868	-144.263	-21.514	-120.690	-30.490	180.045	97.822	112.438	-15.076	122.487	14.110	3.5814e-05	4.2419e-05	0.00056501	63.334	4.0077e-07	9.5713e-07	51.086	20.624	3.6808e-07	6.0791e-07	16.443	5.7128	6.9992	2.9025	2.5925e-07	2.5393	0.00026817	0.00044344	0.0011549	76.94	4.5759e-06	5.1931e-06	62.338	27.3	4.4264e-06	4.954e-06	20.769	7.1029	10.331	3.7637	4.6e-06	3.1832	165.730	-71.277	-114.084	-135.022	104.317	-2.792	-136.825	-128.361	-121.504	46.570	-132.447	-128.378	-123.657	-121.056	-136.718	-124.086	-8191	255	
26247.881	1	1	0	0	0.053021	0.17773	0.12725	0.11138	0.28852	0.10745	0.20591	0.19579	0.14591	0.087977	0.32596	0.065851	0.18859	0.19105	0.061251	0.093347	-2.4062	-2.85	-2.7292	-2.6292	-3.0229	-2.5729	-2.8771	-2.7896	-2.6208	-2.9708	-2.7771	-2.8729	-2.8812	-2.5583	-2.8375	-3.0062	81.067	191.515	1.625	-64.906	139.229	-92.763	19.152	-43.552	-134.538	8.466	179.001	-144.994	132.068	0.133	-55.482	59.860	2.8002e-05	4.2489e-05	0.00029774	62.974	3.6832e-07	3.8061e-07	51.291	20.535	5.1406e-07	4.1244e-07	16.61	5.7007	7.0188	2.9363	9.9099e-07	2.5317	0.00026806	0.00044485	0.00074604	77.078	4.4978e-06	5.3789e-06	62.526	28.747	4.536e-06	4.9186e-06	20.752	7.1275	8.937	3.9681	4.5271e-06	3.1778	178.273	-98.018	-106.821	-134.496	67.000	-16.109	-136.599	-127.596	-115.170	64.207	-132.377	-128.127	-124.146	-120.424	-45.754	-124.090	-8191	255	
26247.977	1	1	0	0	0.18426	0.19068	0.092842	0.056038	0.28806	0.20029	0.078687	0.090916	0.07887	0.052675	0.22912	0.10743	0.11257	0.078701	0.13261	0.17501	-2.2	-3.0062	-2.6833	-2.7812	-3.0208	-2.6813	-2.7583	-2.9313	-2.65	-2.9083	-2.5042	-2.8958	-2.9562	-2.9458	-2.8208	-2.9542	61.387	-45.629	-79.721	95.057	131.236	41.642	148.894	-125.525	-142.103	102.759	202.903	7.749	-73.715	159.095	205.574	-78.168	3.2171e-05	5.0029e-05	0.00049158	63.346	3.5059e-07	3.3358e-07	51.312	20.491	2.9849e-07	2.8817e-07	16.587	5.6325	6.976	2.8553	3.8534e-07	2.5107	0.0002677	0.0004357	0.0011628	77.165	4.3907e-06	5.4616e-06	62.414	27.332	4.4936e-06	4.9571e-06	20.686	7.0322	8.683	4.3011	4.5809e-06	3.1389	167.980	-99.003	-105.804	-134.878	32.605	-116.616	-136.547	-128.469	-42.804	-56.099	-132.594	-128.257	-124.735	-120.676	22.815	-124.246	-8191	255	
26248.074	1	1	0	0	0.10154	0.1634	0.18166	0.18822	0.21094	0.18127	0.16231	0.27133	0.093238	0.25836	0.025971	0.1249	0.21844	0.088468	0.15216	0.14839	-2.1937	-2.9875	-2.7646	-2.6979	-3.1083	-2.6354	-2.8854	-3.0271	-2.7562	-2.9688	-2.7979	-2.5438	-3.0208	-2.8063	-2.85	-2.9604	186.491	5.331	198.231	1.804	140.787	142.882	12.620	196.960	-64.051	50.993	-136.444	152.083	-5.020	-129.580	-31.568	191.949	2.3629e-05	5.1805e-05	0.00033119	63.125	1.2118e-07	3.9996e-07	50.756	20.545	9.396e-06	5.9319e-07	16.424	5.6148	6.9668	2.8909	2.4113e-07	2.4883	0.00026859	0.000439	0.00076964	76.787	4.3715e-06	5.5005e-06	62.011	27.611	9.1831e-06	4.9797e-06	20.453	6.9874	8.6568	4.0461	4.6269e-06	3.1193	191.497	-39.582	-95.469	-134.894	-71.482	207.275	-136.812	-127.509	143.647	-72.209	-131.835	-128.043	-125.030	-119.999	-130.318	-124.030	-8191	255	
26248.168	1	1	0	0	0.3454	0.17687	0.22147	0.15284	0.11563	0.056506	0.19399	0.048135	0.31231	0.089314	0.22405	0.19798	0.19779	0.18767	0.23612	0.08539	-2.0333	-2.9208	-3.0875	-2.6042	-3.0312	-2.6792	-2.7812	-3.0604	-2.6937	-2.8854	-2.7625	-2.6208	-3.1146	-2.7188	-2.7729	-3.0187	-58.131	15.606	127.318	157.243	-71.821	-137.808	119.798	-127.921	-128.266	130.598	39.219	21.072	-52.056	-40.801	-64.754	103.916	3.3757e-05	3.1649e-05	0.00057581	62.481	8.2479e-07	5.4076e-07	50.626	20.55	5.9405e-06	7.418e-07	16.307	5.6159	7.0002	2.8487	1.9394e-07	2.4893	0.00027209	0.00043797	0.001186	76.447	4.41e-06	5.4289e-06	61.668	25.217	2.1224e-05	4.9296e-06	20.504	7.0014	8.6668	4.2959	4.6476e-06	3.1206	166.860	-45.942	-90.215	-134.818	-2.467	105.848	-136.845	-128.340	144.956	-24.581	-132.619	-128.144	-125.029	-120.772	136.309	-123.718	-8191	255	
26248.264	1	1	0	0	0.13581	0.01944	0.21933	0.15952	0.050704	0.10442	0.29166	0.019919	0.39608	0.26799	0.39078	0.099729	0.30644	0.14019	0.028163	0.076483	-2.2958	-2.8187	-2.9	-2.5333	-2.9583	-2.6417	-2.6396	-3.0438	-2.8063	-2.7292	-2.875	-2.8042	-2.8604	-2.8125	-2.6063	-2.9688	-70.686	144.266	-112.009	-120.296	38.540	137.607	-121.172	9.905	-92.210	-37.941	-19.199	209.867	-132.124	-0.760	-63.014	-102.285	2.794e-05	5.8132e-05	0.00034423	63.28	3.8476e-07	2.9082e-07	50.457	20.514	1.7032e-05	4.386e-07	16.549	5.5635	6.9708	2.8884	6.5216e-07	2.4844	0.00027705	0.00044555	0.00076257	76.827	4.4148e-06	5.39e-06	61.984	25.059	4.1199e-05	4.954e-06	20.491	6.9704	8.6633	4.0337	4.6617e-06	3.1197	173.129	-143.150	-83.737	-134.890	-36.193	54.896	-136.658	-129.606	79.225	58.308	-132.377	-127.743	-124.871	-120.266	-6.464	-123.762	-8191	255	
26248.385	1	1	0	0	0.14279	0.11118	0.16532	0.19008	0.28561	0.15677	0.2275	0.26222	0.10738	0.13472	0.10135	0.21628	0.28774	0.26996	0.24317	0.11385	-2.3958	-2.9333	-2.9625	-2.7083	-2.925	-2.7979	-2.7562	-2.9562	-2.6333	-2.8792	-2.9396	-2.6021	-2.7708	-3.0229	-2.6688	-3.0812	-64.777	113.307	118.718	-44.549	180.276	60.045	89.001	16.200	-131.107	-81.925	-129.831	-111.643	189.729	143.068	-17.246	-97.625	2.2631e-05	5.1145e-06	0.00048172	63.326	5.5165e-07	5.5353e-07	51.111	20.432	9.4748e-06	4.4764e-07	16.379	5.5672	6.9184	2.8913	4.091e-07	2.505	0.00028297	0.00044117	0.00084185	78.887	4.418e-06	5.3085e-06	62.304	25.04	2.6702e-05	5.0249e-06	20.499	6.9944	8.6591	4.3031	4.7844e-06	3.1408	173.208	50.470	-55.732	-135.407	-24.827	-13.559	-137.079	-129.450	84.156	82.103	-132.873	-128.012	-124.955	-120.983	1.010	-123.992	-8191	255	
26248.480	1	1	0	0	0.12538	0.30014	0.25071	0.083109	0.10239	0.042886	0.11517	0.13612	0.19725	0.17696	0.18727	0.23832	0.48911	0.20673	0.20625	0.16104	-2.1708	-2.8042	-2.8396	-2.6375	-2.8854	-2.8979	-2.5375	-2.8875	-2.7333	-2.775	-3.0146	-2.7938	-2.7479	-2.95	-2.5979	-2.9104	4.072	1.224	24.483	112.829	191.586	-65.801	105.235	-60.399	52.019	-9.942	-17.833	119.984	-48.322	68.011	-60.192	181.076	2.4032e-05	1.7724e-05	0.00029305	63.068	7.4252e-07	5.6278e-08	50.978	20.483	1.4485e-05	4.8071e-07	16.558	5.6162	6.973	2.9095	8.1046e-07	2.4873	0.00027342	0.00044355	0.00015573	83.055	4.4009e-06	5.3752e-06	62.221	25.119	4.0752e-05	4.9479e-06	20.516	7.0036	8.6583	4.0394	4.6914e-06	3.1287	175.443	-72.443	-53.792	-135.279	3.227	104.197	-136.928	-129.665	90.406	60.413	-132.358	-128.681	-125.106	-120.720	-29.769	-123.868	-8191	255	
26248.576	1	1	0	0	0.28366	0.11116	0.1047	0.054499	0.26355	0.063623	0.065903	0.087686	0.036162	0.29607	0.15833	0.12312	0.30254	0.20018	0.11123	0.01327	-2.3292	-2.7458	-3.1063	-2.5667	-2.9292	-2.9958	-2.4771	-2.9604	-2.8271	-2.8021	-2.9833	-2.7604	-2.8021	-2.975	-2.6208	-2.8479	-43.588	120.557	-123.352	-36.073	206.653	-19.255	46.832	85.295	-97.103	-125.321	184.714	5.028	28.389	-107.859	-128.915	40.714	2.6382e-05	8.0882e-05	8.0238e-06	65.196	1.6625e-07	2.8391e-07	51.027	20.511	1.0315e-05	3.7454e-07	16.418	5.5437	6.9487	2.9491	1.8054e-05	2.4998	0.00027646	0.00044831	0.00012258	89.482	4.3827e-06	5.1647e-06	62.234	25.037	2.6476e-05	5.0848e-06	20.439	6.965	8.6237	4.042	1.3147e-05	3.1042	166.192	-88.467	11.040	-134.634	-89.856	13.301	-136.714	-129.550	96.767	119.672	-132.402	-128.303	-124.895	-119.470	-133.439	-123.979	-8191	255	
26248.674	1	1	0	0	0.18329	0.17552	0.089737	0.043767	0.092725	0.34068	0.3217	0.030781	0.060854	0.17125	0.24379	0.13256	0.039679	0.13959	0.076805	0.097129	-2.4062	-2.7333	-2.9562	-2.825	-2.7146	-2.9333	-2.6208	-2.9313	-2.925	-2.8187	-2.8167	-2.6937	-2.6188	-2.7438	-2.5458	-2.8354	202.375	62.145	57.711	177.455	153.297	106.159	22.864	197.834	-45.605	45.665	21.817	173.097	65.638	-27.379	211.277	153.645	2.6799e-05	9.2015e-06	5.154e-06	64.118	5.7354e-07	5.1774e-07	50.754	20.444	1.6982e-05	4.8298e-07	16.394	5.5299	6.8729	2.9193	1.1446e-05	2.4654	0.00027083	0.00045605	0.00012245	84.466	4.4512e-06	5.1412e-06	61.989	24.883	4.2268e-05	5.1428e-06	20.346	6.9129	8.5763	3.6082	2.5293e-05	3.0911	186.642	64.957	-60.856	-134.895	-30.401	33.365	-136.792	-129.479	104.164	-141.060	-132.209	-128.328	-124.953	-119.207	-128.637	-124.140	-8191	255	
26248.770	1	1	0	0	0.22333	0.21863	0.15276	0.055644	0.15609	0.044566	0.1113	0.090242	0.11867	0.23244	0.17698	0.15123	0.076323	0.15228	0.058243	0.082834	-2.5083	-2.6542	-3.0479	-2.5229	-2.6437	-3.0938	-2.7208	-2.8667	-3	-2.7	-2.8375	-2.8187	-2.7375	-2.9229	-2.7375	-2.8104	-46.271	1.400	84.457	-115.863	27.060	73.565	31.669	-23.846	-32.609	-123.584	118.561	69.566	-110.155	-49.452	-91.890	128.893	2.7763e-05	0.0001078	8.7619e-06	64.753	7.0635e-07	4.1976e-07	50.249	20.101	1.0049e-05	3.5625e-08	16.061	5.5152	6.7856	2.8891	2.024e-05	2.4332	0.00027528	0.00045411	0.0001233	89.797	4.4079e-06	4.9288e-06	61.454	24.724	2.7998e-05	5.174e-06	20.1	6.8515	8.4789	3.5686	4.6198e-05	3.0517	168.163	16.374	-102.730	-134.122	-15.703	88.022	-136.799	-129.617	115.737	173.455	-132.217	-127.747	-125.153	-119.306	-121.006	-123.816	-8191	255	
26248.865	1	1	0	0	0.26657	0.063328	0.089792	0.26698	0.1619	0.080319	0.19383	0.017428	0.17819	0.05248	0.081141	0.12583	0.025482	0.094682	0.1833	0.1411	-2.6688	-2.3625	-2.5646	-2.7375	-2.5125	-3.2062	-2.7167	-2.8083	-2.8604	-2.5479	-2.7938	-2.7625	-2.5792	-2.8812	-2.7292	-2.8104	212.032	147.769	39.504	-118.621	150.601	112.341	37.143	165.454	-14.717	-108.520	-65.373	-117.522	-95.461	-6.545	-141.040	-135.822	3.305e-05	1.9779e-05	2.6771e-05	63.466	7.6955e-08	9.4293e-07	50	20.049	1.5616e-05	1.9932e-05	16.159	5.4596	6.7985	2.8788	1.2262e-05	2.4336	0.00026814	0.00045887	0.00012473	84.221	4.4844e-06	4.9776e-06	61.174	24.575	2.745e-05	1.6726e-05	20.019	6.8001	8.4455	3.5587	2.9748e-05	3.0466	172.081	-73.469	-41.174	-134.155	-56.034	20.618	-136.694	-129.397	60.129	184.807	-132.248	-128.165	-125.063	-119.160	-108.464	-124.069	-8191	255	
26248.963	1	1	0	0	0.12743	0.21621	0.065193	0.20486	0.13174	0.07425	0.20859	0.18925	0.061753	0.092215	0.22915	0.058371	0.08792	0.11897	0.11608	0.12595	-2.6292	-2.7729	-2.9896	-2.7	-2.5833	-3.0812	-2.8208	-2.825	-3.05	-2.7521	-2.8438	-2.7896	-2.6292	-2.8646	-2.9375	-2.7562	29.003	49.746	38.607	-57.662	200.019	110.344	-9.823	-26.561	-95.994	134.932	20.908	109.006	-20.639	-57.866	-128.125	84.923	2.1971e-05	5.1451e-05	2.3897e-05	64.367	5.7539e-07	6.8442e-07	50.116	20.161	4.2212e-07	1.3568e-05	16.117	5.4464	6.8056	2.8643	1.8864e-05	2.4291	0.00026293	0.00047798	0.0001246	89.569	4.5309e-06	4.9683e-06	61.282	24.669	4.3989e-06	2.9306e-05	20.16	6.8327	8.4871	3.5567	4.5801e-05	3.0513	179.716	-78.398	168.549	-133.502	-9.742	33.908	-136.844	-129.341	-140.302	186.297	-132.798	-128.169	-124.828	-119.200	-107.607	-123.787	-8191	255	
#DATA ENDS
