BOXY.EXE: ISS Imagent and Oximeter Data Acquisition Program Version 0.80
Ascii Record File

#ACQ INFORMATION
2  Detector Channels 
16  External MUX Channels 
1  Auxiliary Channels 
5000  Waveform (CCF) Frequency (Hz)
1  Waveforms Skipped 
30  Waveforms Averaged 
1  Cycles Averaged 
16  Acquisitions per Waveform 
10.0806  Updata Rate (Hz) 

#FILE INFORMATION
TRUE -- External MUX Channel results are PARSED.
FALSE -- AC DC and Phase are NOT grouped.
TRUE -- Companion Program Settings File CREATED.
FALSE -- AC data not excluded
FALSE -- DC data not excluded
FALSE -- Phase data not excluded
FALSE -- Auxillary Chn. data not excluded
Tab delimiters

#CALIBRATION STATE
TRUE -- Waveform Calibration Values APPLIED.


#AUX CALIBRATION VALUES
Val Type	aux-1	

Term	1.0000e+00	
Factor	0.0000e+00	


#WF CALIBRATION VALUES
A = Detector Channel
Val Type	A-AC1	A-AC2	A-AC3	A-AC4	A-AC5	A-AC6	A-AC7	A-AC8	A-AC9	A-AC10	A-AC11	A-AC12	A-AC13	A-AC14	A-AC15	A-AC16	A-DC1	A-DC2	A-DC3	A-DC4	A-DC5	A-DC6	A-DC7	A-DC8	A-DC9	A-DC10	A-DC11	A-DC12	A-DC13	A-DC14	A-DC15	A-DC16	A-Ph1	A-Ph2	A-Ph3	A-Ph4	A-Ph5	A-Ph6	A-Ph7	A-Ph8	A-Ph9	A-Ph10	A-Ph11	A-Ph12	A-Ph13	A-Ph14	A-Ph15	A-Ph16	

Term	0.00000e+00	0.00000e+00	0.00000e+00	0.00000e+00	0.00000e+00	0.00000e+00	0.00000e+00	0.00000e+00	0.00000e+00	0.00000e+00	0.00000e+00	0.00000e+00	0.00000e+00	0.00000e+00	0.00000e+00	0.00000e+00	0.00000e+00	0.00000e+00	0.00000e+00	0.00000e+00	0.00000e+00	0.00000e+00	0.00000e+00	0.00000e+00	0.00000e+00	0.00000e+00	0.00000e+00	0.00000e+00	0.00000e+00	0.00000e+00	0.00000e+00	0.00000e+00	0.00000e+00	0.00000e+00	0.00000e+00	0.00000e+00	0.00000e+00	0.00000e+00	0.00000e+00	0.00000e+00	0.00000e+00	0.00000e+00	0.00000e+00	0.00000e+00	0.00000e+00	0.00000e+00	0.00000e+00	0.00000e+00	
Factor	1.00000e+00	1.00000e+00	1.00000e+00	1.00000e+00	1.00000e+00	1.00000e+00	1.00000e+00	1.00000e+00	1.00000e+00	1.00000e+00	1.00000e+00	1.00000e+00	1.00000e+00	1.00000e+00	1.00000e+00	1.00000e+00	1.00000e+00	1.00000e+00	1.00000e+00	1.00000e+00	1.00000e+00	1.00000e+00	1.00000e+00	1.00000e+00	1.00000e+00	1.00000e+00	1.00000e+00	1.00000e+00	1.00000e+00	1.00000e+00	1.00000e+00	1.00000e+00	X	X	X	X	X	X	X	X	X	X	X	X	X	X	X	X	

B = Detector Channel
Val Type	B-AC1	B-AC2	B-AC3	B-AC4	B-AC5	B-AC6	B-AC7	B-AC8	B-AC9	B-AC10	B-AC11	B-AC12	B-AC13	B-AC14	B-AC15	B-AC16	B-DC1	B-DC2	B-DC3	B-DC4	B-DC5	B-DC6	B-DC7	B-DC8	B-DC9	B-DC10	B-DC11	B-DC12	B-DC13	B-DC14	B-DC15	B-DC16	B-Ph1	B-Ph2	B-Ph3	B-Ph4	B-Ph5	B-Ph6	B-Ph7	B-Ph8	B-Ph9	B-Ph10	B-Ph11	B-Ph12	B-Ph13	B-Ph14	B-Ph15	B-Ph16	

Term	0.00000e+00	0.00000e+00	0.00000e+00	0.00000e+00	0.00000e+00	0.00000e+00	0.00000e+00	0.00000e+00	0.00000e+00	0.00000e+00	0.00000e+00	0.00000e+00	0.00000e+00	0.00000e+00	0.00000e+00	0.00000e+00	0.00000e+00	0.00000e+00	0.00000e+00	0.00000e+00	0.00000e+00	0.00000e+00	0.00000e+00	0.00000e+00	0.00000e+00	0.00000e+00	0.00000e+00	0.00000e+00	0.00000e+00	0.00000e+00	0.00000e+00	0.00000e+00	3.11442e+01	-1.32585e+02	-1.25137e+02	-1.82803e+02	-6.99753e+01	-6.57492e+01	-1.55363e+02	-1.62015e+02	-5.19944e+01	-6.84061e+01	-1.72002e+02	-1.69539e+02	-1.79829e+02	-1.77289e+02	-5.95372e+01	-1.49288e+02	
Factor	4.46143e-05	1.55393e-04	3.79425e-05	1.69166e-01	1.65811e-06	1.54395e-06	1.50608e-01	4.38241e-02	2.52180e-06	1.64082e-06	8.20883e-02	2.44333e-02	2.46613e-02	7.74829e-03	1.75397e-06	1.09675e-02	1.31998e-05	1.98917e-05	5.63019e-06	8.76786e-02	2.03302e-07	2.24248e-07	7.35378e-02	2.28266e-02	1.97474e-07	2.25893e-07	4.16175e-02	1.24053e-02	1.29592e-02	4.07900e-03	2.08931e-07	5.61216e-03	X	X	X	X	X	X	X	X	X	X	X	X	X	X	X	X	



#DISTANCE SETTINGS
A = Detector Channel
A-1	A-2	A-3	A-4	A-5	A-6	A-7	A-8	A-9	A-10	A-11	A-12	A-13	A-14	A-15	A-16	

2.5000e+00	3.0000e+00	2.5000e+00	3.0000e+00	2.0000e+00	3.0000e+00	1.5000e+00	3.0000e+00	3.0000e+00	3.0000e+00	3.0000e+00	3.0000e+00	3.0000e+00	3.0000e+00	1.5000e+00	3.0000e+00	

B = Detector Channel
B-1	B-2	B-3	B-4	B-5	B-6	B-7	B-8	B-9	B-10	B-11	B-12	B-13	B-14	B-15	B-16	

1.0000e+01	1.0000e+01	1.0000e+01	1.4400e+00	1.0000e+01	1.0000e+01	1.5100e+00	1.9400e+00	1.0000e+01	1.0000e+01	1.9900e+00	2.4900e+00	2.4100e+00	2.9000e+00	1.0000e+01	2.9800e+00	




#DATA BEGINS
time	group	step	mark	flag	A-AC1	A-AC2	A-AC3	A-AC4	A-AC5	A-AC6	A-AC7	A-AC8	A-AC9	A-AC10	A-AC11	A-AC12	A-AC13	A-AC14	A-AC15	A-AC16	A-DC1	A-DC2	A-DC3	A-DC4	A-DC5	A-DC6	A-DC7	A-DC8	A-DC9	A-DC10	A-DC11	A-DC12	A-DC13	A-DC14	A-DC15	A-DC16	A-Ph1	A-Ph2	A-Ph3	A-Ph4	A-Ph5	A-Ph6	A-Ph7	A-Ph8	A-Ph9	A-Ph10	A-Ph11	A-Ph12	A-Ph13	A-Ph14	A-Ph15	A-Ph16	B-AC1	B-AC2	B-AC3	B-AC4	B-AC5	B-AC6	B-AC7	B-AC8	B-AC9	B-AC10	B-AC11	B-AC12	B-AC13	B-AC14	B-AC15	B-AC16	B-DC1	B-DC2	B-DC3	B-DC4	B-DC5	B-DC6	B-DC7	B-DC8	B-DC9	B-DC10	B-DC11	B-DC12	B-DC13	B-DC14	B-DC15	B-DC16	B-Ph1	B-Ph2	B-Ph3	B-Ph4	B-Ph5	B-Ph6	B-Ph7	B-Ph8	B-Ph9	B-Ph10	B-Ph11	B-Ph12	B-Ph13	B-Ph14	B-Ph15	B-Ph16	aux-1	digaux	

18374.193	1	1	0	256	0.066391	0.093445	0.18172	0.31327	0.24914	0.2185	0.085117	0.10561	0.28057	0.12392	0.22105	0.31581	0.16947	0.16639	0.18676	0.090741	-2.2979	-2.8646	-2.875	-2.7625	-2.9833	-2.8083	-2.7375	-2.9021	-2.6667	-2.85	-2.9833	-2.5625	-2.9188	-2.7542	-2.7833	-3.1271	-60.582	1.543	115.281	118.230	-174.542	132.235	116.606	41.481	-26.361	114.911	17.106	144.576	-35.677	62.941	-84.075	-23.721	0.00027278	0.00033301	5.7034e-05	256.43	9.6892e-07	3.3965e-06	345.17	73.488	5.3005e-06	1.6934e-06	108.81	33.944	20.904	5.74	2.3105e-06	10.443	0.00055772	0.00064934	0.00017999	254.25	6.5573e-06	8.0953e-06	341.46	72.641	6.6133e-06	7.3684e-06	108.48	33.702	20.939	5.8345	6.7711e-06	10.544	10.718	-39.661	-89.092	-164.435	-175.694	-60.048	-165.919	-159.593	-85.531	-26.468	-162.326	-157.321	-156.146	-150.162	65.733	-152.819	-8191	255	
18374.291	1	1	0	0	0.16804	0.24505	0.13726	0.13023	0.27641	0.11169	0.11705	0.21269	0.33058	0.018295	0.24323	0.27716	0.36837	0.1467	0.22309	0.20888	-2.2	-2.7354	-2.8396	-2.6437	-2.9042	-2.7542	-2.8104	-3.0708	-2.7917	-3.0875	-2.9437	-2.6396	-3.0396	-2.7542	-2.6937	-3.1458	-25.420	-13.354	107.518	91.600	148.846	-112.941	154.737	-59.149	79.675	74.565	-110.563	88.488	178.462	145.609	-38.781	-12.864	0.00038415	0.00024963	1.3464e-05	257.92	3.8931e-06	1.8873e-06	345.36	73.692	5.3262e-07	5.2562e-07	109.09	33.858	21.195	5.7932	1.8795e-06	10.453	0.00055802	0.00066297	0.00017789	255.09	6.4811e-06	8.613e-06	341.81	73.107	6.8112e-06	7.1947e-06	108.98	33.799	20.997	5.8718	7.1132e-06	10.584	3.866	-46.765	107.807	-164.979	-30.134	0.519	-166.285	-159.465	-61.184	-11.037	-162.354	-157.619	-154.986	-149.980	20.711	-153.694	-8191	255	
18374.387	1	1	0	0	0.069634	0.079631	0.15392	0.046165	0.054867	0.25126	0.18223	0.020521	0.13286	0.10185	0.30218	0.20342	0.090338	0.026272	0.30049	0.078739	-2.3021	-2.8042	-2.9437	-2.6021	-3	-2.7375	-2.8042	-2.75	-2.8542	-2.7979	-2.9542	-2.55	-2.8771	-2.8771	-2.5938	-3.0583	75.128	54.732	-82.965	-105.355	87.996	156.324	153.078	-131.921	-119.830	125.963	-148.297	-8.308	139.581	-138.559	24.245	-153.598	0.00026702	6.2517e-05	4.5721e-05	257.13	1.4087e-06	2.3472e-06	348	73.74	3.8345e-06	9.9843e-07	108.27	33.902	20.93	5.7304	5.2193e-07	10.534	0.00056704	0.00068937	0.00019229	255.01	7.0825e-06	8.7592e-06	343.64	72.97	7.2255e-06	7.7505e-06	108.64	33.788	21.006	5.8346	7.3443e-06	10.561	2.964	-21.389	-139.095	-164.537	125.501	0.071	-166.448	-159.786	-65.040	72.220	-161.926	-157.962	-155.721	-151.062	-13.863	-153.278	-8191	255	
18374.508	1	1	0	0	0.04578	0.16245	0.14103	0.2492	0.077587	0.052437	0.13464	0.20329	0.17432	0.025845	0.15635	0.34248	0.085656	0.12019	0.18599	0.060536	-2.3396	-2.7271	-2.8854	-2.6333	-2.9417	-2.9208	-2.6917	-3.0438	-2.9167	-2.7271	-2.9646	-2.6479	-2.8604	-2.8271	-2.7042	-2.7583	86.298	-145.272	67.444	-112.372	-141.511	-162.556	-53.232	100.823	-155.046	-53.814	83.627	60.724	50.521	-88.658	27.939	75.323	0.00033339	0.00024213	6.7603e-05	258.21	2.3836e-06	2.2807e-06	344.61	73.75	5.9227e-06	2.1707e-06	108.05	33.45	20.608	5.7592	1.8459e-06	10.281	0.00059592	0.00071171	0.0001903	254.51	7.2414e-06	8.4228e-06	341.15	72.911	7.3284e-06	7.9486e-06	108.19	33.374	20.777	5.814	7.4767e-06	10.431	11.939	-123.490	-98.565	-164.681	23.357	-137.297	-166.387	-159.481	-50.038	17.731	-161.991	-157.243	-155.183	-149.977	-53.198	-153.514	-8191	255	
18374.604	1	1	0	0	0.34356	0.24004	0.18171	0.26481	0.16531	0.12744	0.12667	0.13918	0.28036	0.050315	0.16421	0.084634	0.19792	0.18533	0.124	0.16107	-2.1375	-2.8146	-3.1271	-2.8438	-2.9292	-2.7188	-2.7708	-2.8042	-2.6688	-2.8167	-2.8333	-2.8042	-2.9292	-2.9062	-2.5021	-2.8937	133.394	-48.981	58.479	176.796	111.188	124.851	7.702	-7.036	-143.011	175.188	-149.791	-105.805	42.521	147.648	51.612	124.815	0.00031709	0.0002831	5.89e-05	255.46	1.57e-06	3.2419e-06	345.21	72.853	4.1682e-06	2.6783e-06	108.2	33.573	20.828	5.6501	7.4782e-07	10.433	0.00059704	0.00072742	0.00019938	254.51	7.3523e-06	8.171e-06	341.07	72.56	7.2646e-06	7.9924e-06	108.22	33.508	20.739	5.7663	7.296e-06	10.454	9.777	-49.603	-13.828	-164.966	-43.964	-47.086	-166.327	-159.285	11.310	-75.939	-162.330	-157.241	-155.514	-150.643	114.898	-153.549	-8191	255	
18374.676	1	1	0	0	0.097515	0.11959	0.1474	0.043126	0.15626	0.16136	0.24074	0.29935	0.12241	0.11852	0.038829	0.20718	0.086189	0.13089	0.11402	0.10115	-2.3625	-2.4646	-2.8292	-2.6021	-2.6917	-2.9771	-2.4562	-3.1125	-3	-2.5729	-2.9458	-2.8646	-2.7708	-2.9229	-2.7021	-2.9188	-1.426	-66.818	-143.996	-165.441	118.865	15.525	92.567	-153.258	166.508	152.521	29.601	167.672	137.502	78.798	-60.726	35.488	0.00033772	0.00022162	3.9723e-05	255.52	1.6155e-06	2.3772e-06	345.14	73.197	6.1999e-06	2.6661e-06	108.61	33.363	20.963	5.7268	1.6768e-07	10.286	0.00058258	0.00068929	0.00018838	253.31	7.1037e-06	7.5973e-06	340.83	72.446	6.84e-06	7.3707e-06	107.95	33.511	20.777	5.8166	6.9774e-06	10.412	-1.566	1.588	7.167	-164.761	-78.310	-60.125	-166.446	-159.615	-36.340	-95.321	-161.913	-157.778	-155.426	-150.351	146.781	-154.353	-8191	255	
18374.797	1	1	0	0	0.4187	0.25245	0.031905	0.025631	0.098317	0.15136	0.1448	0.077942	0.1173	0.13689	0.35597	0.16806	0.2685	0.17905	0.13208	0.10572	-2.5104	-2.7208	-2.9521	-2.7708	-2.7292	-3.0917	-2.7521	-2.7146	-2.9479	-2.575	-3.0521	-2.975	-2.6083	-3.0521	-2.4813	-2.8333	131.433	-112.489	136.271	27.754	-6.228	140.145	177.825	-120.326	-157.851	112.695	166.486	28.583	-16.745	26.666	13.389	43.424	0.00027154	0.00024796	7.4744e-05	255.27	1.0859e-06	3.2987e-06	345.43	72.832	3.265e-06	4.4609e-06	108.34	33.759	20.794	5.7655	1.5545e-06	10.331	0.00056385	0.00068461	0.00019329	253.45	6.7467e-06	7.7655e-06	340.85	72.627	6.9202e-06	7.6672e-06	108.12	33.545	20.772	5.8282	7.3591e-06	10.431	7.093	-86.304	-52.474	-164.760	-20.024	-42.378	-166.456	-159.912	25.363	1.464	-162.572	-157.357	-156.010	-150.028	33.852	-152.841	-8191	255	
18374.891	1	1	0	0	0.052004	0.25505	0.066588	0.13018	0.19574	0.22111	0.061503	0.23073	0.14206	0.11894	0.20365	0.046479	0.11667	0.37052	0.084054	0.055124	-2.625	-2.6958	-2.9188	-2.8354	-2.7812	-2.9562	-2.6771	-2.8042	-2.8229	-2.7333	-3.0021	-2.8708	-2.6562	-3.0375	-2.8438	-2.8479	-117.248	-108.830	-51.985	-103.850	115.536	-72.852	137.244	-125.896	78.849	-156.000	-116.265	15.430	-168.518	-130.144	39.481	79.198	0.00034318	6.0652e-05	7.6402e-05	255.24	5.1459e-07	4.0896e-07	342.38	72.58	6.6184e-06	2.7938e-06	107.96	33.368	20.529	5.717	1.8895e-06	10.268	0.00051985	0.00077047	0.00019734	252.9	7.1728e-06	7.3259e-06	340.48	72.273	7.0157e-06	7.9463e-06	107.54	33.382	20.726	5.8041	6.9992e-06	10.419	-1.607	148.774	-52.430	-164.869	-130.499	134.434	-166.555	-160.057	-88.600	-24.594	-162.410	-157.977	-155.385	-151.289	-74.066	-153.639	-8191	255	
18374.986	1	1	0	0	0.086338	0.060766	0.21589	0.22897	0.015369	0.35751	0.40489	0.01942	0.18753	0.081808	0.16623	0.35169	0.085497	0.0924	0.14466	0.046166	-2.4313	-2.7208	-2.9458	-2.9125	-2.7333	-2.8708	-2.6458	-2.7979	-3	-2.6042	-2.9146	-2.7917	-2.5812	-2.9604	-2.8521	-2.8604	-101.184	-24.566	106.521	-157.087	-88.828	-52.786	165.554	23.730	-112.629	-33.613	85.474	-154.243	166.107	103.053	-51.821	112.034	0.00030928	0.00036071	2.587e-05	253.56	1.5841e-06	3.6249e-06	343.34	73.011	2.592e-06	3.5449e-06	108.04	33.297	20.635	5.7373	2.2631e-06	10.267	0.00049695	0.00076011	0.00018751	252.08	7.1274e-06	7.4717e-06	339.45	72.488	6.6072e-06	7.3698e-06	107.45	33.357	20.691	5.8179	6.9948e-06	10.387	6.810	-86.214	-62.151	-164.856	-152.643	2.161	-166.220	-159.295	-56.967	-63.930	-162.218	-157.525	-155.634	-149.610	0.515	-153.732	-8191	255	
18375.082	1	1	0	0	0.12981	0.33939	0.10785	0.06589	0.40516	0.078963	0.14172	0.15603	0.11027	0.21221	0.10181	0.21453	0.021544	0.1074	0.1121	0.16424	-2.4667	-2.5896	-2.9333	-2.9208	-2.5917	-3.0208	-2.875	-2.6604	-3	-2.7625	-2.7	-2.9375	-2.7292	-2.8187	-2.8167	-2.6667	47.224	50.820	-56.500	-134.089	-2.583	94.954	113.181	130.792	81.795	60.725	-137.652	145.693	178.037	-163.637	-107.920	40.306	0.00032349	0.00015531	9.2248e-06	253.71	1.7779e-06	2.3057e-06	343.64	73.327	2.5693e-06	9.4854e-07	108.06	33.651	21.159	5.7547	1.1941e-06	10.423	0.00048685	0.00073077	0.00018257	252.24	6.8191e-06	7.3133e-06	339.35	72.592	6.6816e-06	7.5411e-06	107.56	33.434	20.932	5.8199	6.9813e-06	10.518	3.405	170.266	-161.347	-164.759	-119.669	-46.999	-166.360	-160.139	124.055	-125.240	-161.768	-157.424	-155.708	-150.651	-41.484	-153.505	-8191	255	
18375.203	1	1	0	0	0.037133	0.31352	0.18057	0.24275	0.30321	0.047019	0.10346	0.2	0.30532	0.11424	0.28888	0.12363	0.061044	0.21047	0.12264	0.18636	-2.5	-2.6104	-2.7083	-2.9833	-2.7479	-2.9292	-2.9292	-2.8167	-3.0375	-2.8792	-2.8812	-2.8792	-2.7125	-2.8646	-2.9042	-2.4979	160.369	79.293	157.605	153.602	178.558	56.507	89.059	15.163	-143.821	-125.846	101.085	-109.264	32.363	165.085	98.274	51.788	0.00028748	0.00043269	4.3429e-05	255.41	2.5174e-06	3.0454e-06	346.03	72.956	3.1319e-06	2.6489e-06	107.72	33.695	20.854	5.7451	1.9268e-06	10.446	0.00049568	0.00076314	0.00018875	253.73	6.7907e-06	7.0797e-06	340.94	72.632	6.4072e-06	7.4206e-06	107.94	33.579	20.901	5.8716	7.1715e-06	10.528	0.644	-69.801	-103.234	-164.699	-69.492	-19.437	-166.163	-159.746	-108.210	-36.531	-162.015	-157.807	-154.988	-150.131	-148.271	-153.353	-8191	255	
18375.275	1	1	0	0	0.12851	0.11294	0.10824	0.20028	0.15711	0.073848	0.16618	0.2715	0.19423	0.072704	0.053643	0.12982	0.13366	0.12982	0.18273	0.21632	-2.3896	-2.8187	-2.7708	-3	-2.5542	-2.9792	-2.8958	-2.5625	-2.9625	-2.9167	-2.9188	-2.9375	-2.6688	-2.8354	-2.8354	-2.7771	167.518	169.629	-89.023	110.020	-158.371	-68.877	169.362	-160.721	-112.760	118.361	-91.762	147.157	43.644	-78.008	-66.096	-140.703	0.00031577	0.00033435	5.6024e-05	256.82	2.1898e-06	2.117e-06	343.97	72.816	4.912e-06	1.309e-06	108.14	33.53	21.056	5.7571	1.2299e-06	10.566	0.00049901	0.00076538	0.00019305	254.26	7.0618e-06	7.68e-06	338.63	72.83	6.7754e-06	7.8328e-06	108.11	33.416	21.097	5.897	7.3274e-06	10.617	8.628	-106.462	-57.704	-164.650	-64.093	6.672	-166.469	-159.345	-64.518	-158.045	-162.126	-158.149	-155.677	-150.336	-83.931	-153.804	-8191	255	
18375.371	1	1	0	0	0.25771	0.20447	0.069865	0.12822	0.16027	0.15479	0.095561	0.17354	0.09537	0.14457	0.30336	0.20276	0.070327	0.1855	0.19595	0.15461	-2.3646	-2.7687	-2.7875	-3.0854	-2.6125	-3	-3.0125	-2.6	-2.9104	-2.7208	-2.7	-2.8583	-2.6042	-2.8312	-2.8063	-2.7062	98.893	-174.331	-98.451	105.937	141.749	54.033	66.336	12.901	-53.757	-104.753	36.621	-170.699	-9.291	153.772	-84.902	-82.109	0.00021841	0.00014752	2.817e-05	254.32	1.9814e-06	3.0347e-06	345.71	73.285	4.8789e-06	1.3644e-06	107.75	33.795	21.108	5.8169	1.3711e-06	10.396	0.00052029	0.00079302	0.00018998	253.88	7.4396e-06	7.6202e-06	341.38	73.182	7.007e-06	8.2799e-06	108.04	33.672	21.232	5.9002	7.2273e-06	10.545	-2.260	-41.408	-159.436	-164.830	15.296	-31.345	-166.209	-159.597	11.274	-21.392	-162.088	-157.427	-155.273	-150.037	-95.636	-153.511	-8191	255	
18375.467	1	1	0	0	0.077277	0.32185	0.34754	0.33984	0.24049	0.14758	0.07047	0.068373	0.11389	0.20991	0.2849	0.12918	0.22148	0.33781	0.36989	0.24324	-2.4917	-2.7792	-2.7292	-2.9333	-2.6917	-2.9229	-2.7812	-2.5292	-2.8937	-2.8104	-2.7896	-2.8396	-2.6896	-2.8167	-2.9708	-2.6917	-30.767	-51.963	-155.164	-131.590	-152.720	-34.083	4.198	93.041	147.893	30.136	65.106	30.595	-49.250	-168.602	-118.387	15.316	0.00024574	0.00041354	3.6967e-05	255.17	6.2874e-07	3.0256e-06	349	73.794	4.7265e-06	1.2646e-06	108.37	33.729	21.111	5.8701	2.9344e-06	10.539	0.00052736	0.00080271	0.00020426	254.87	7.3739e-06	7.8309e-06	342.74	73.462	7.2991e-06	8.0846e-06	108.47	33.677	21.208	5.9345	7.2312e-06	10.634	7.691	-57.706	68.250	-164.529	-25.964	-12.834	-166.341	-159.530	-40.390	17.744	-162.102	-157.884	-155.341	-150.203	-26.451	-153.888	-8191	255	
18375.588	1	1	0	0	0.1401	0.189	0.12093	0.18886	0.29089	0.084766	0.1357	0.10839	0.24832	0.096842	0.33474	0.25255	0.15693	0.31289	0.090023	0.14321	-2.2604	-2.8646	-2.55	-3.1167	-2.7125	-2.8229	-3.0042	-2.5729	-2.7625	-3.0062	-2.6396	-2.9813	-2.9021	-2.75	-3.0417	-2.8042	73.289	-136.046	106.832	118.674	-53.145	111.339	113.848	-142.622	-34.022	-3.810	163.797	80.323	-98.221	21.050	-139.208	91.871	0.00035254	0.00032177	5.4508e-05	256.47	2.9889e-06	2.3669e-06	345.5	74.282	1.1066e-06	2.7735e-06	110.73	33.999	21.352	5.8925	1.6635e-06	10.563	0.00053415	0.00079907	0.00020608	255.84	7.5425e-06	8.072e-06	343.98	73.846	7.446e-06	8.0564e-06	110.19	33.936	21.421	6.016	7.7008e-06	10.757	3.191	-90.872	-49.311	-164.293	15.502	25.389	-166.193	-159.631	46.564	-14.326	-162.112	-157.739	-155.457	-151.018	14.226	-153.696	-8191	255	
18375.684	1	1	0	0	0.10025	0.19252	0.02927	0.27512	0.21982	0.043111	0.16493	0.13899	0.046926	0.028346	0.34142	0.18441	0.20535	0.11241	0.2118	0.1887	-2.2625	-2.9333	-2.4521	-2.9771	-2.5896	-2.6583	-2.9375	-2.6583	-2.6917	-3.1	-2.6271	-2.8833	-2.9167	-2.4813	-2.8083	-2.7583	-112.663	72.475	-66.091	-131.571	9.986	132.337	25.741	120.008	-37.747	137.496	122.319	169.269	-136.160	159.306	-119.257	-104.224	0.00023389	0.00020011	6.8363e-05	260.48	3.3369e-06	3.265e-06	348.59	74.832	3.4908e-06	1.7888e-06	111.04	34.334	21.442	5.8713	2.7502e-06	10.826	0.00056979	0.00075576	0.00022779	258.49	7.839e-06	8.6714e-06	345.59	74.64	7.8471e-06	8.7105e-06	110.32	34.282	21.584	6.0848	8.1396e-06	10.946	4.943	-60.805	-124.274	-164.751	-67.498	-37.992	-166.010	-159.628	-16.154	73.168	-162.212	-157.519	-155.208	-149.501	70.862	-153.232	-8191	255	
18375.779	1	1	0	0	0.17827	0.10257	0.17385	0.15879	0.13866	0.21521	0.19866	0.13306	0.011419	0.017775	0.14137	0.1362	0.22787	0.044066	0.060707	0.18186	-2.4167	-2.7833	-2.7	-2.8792	-2.8521	-2.5563	-3.0354	-2.7021	-2.8563	-3.1	-2.6958	-2.9313	-2.5271	-2.7625	-3.1354	-2.7729	90.850	-149.324	108.788	-156.148	-31.924	145.699	157.104	-89.306	151.479	-118.001	176.156	-110.443	-80.489	154.846	-131.845	105.241	0.00027456	0.00029195	1.5653e-05	267.39	3.3714e-06	1.3524e-06	356.82	76.975	2.5358e-06	4.1762e-06	111.48	34.703	21.913	6.2259	2.8651e-06	11.026	0.00060037	0.00084469	0.0002697	263.97	8.8627e-06	9.4268e-06	351.19	76.21	9.0246e-06	1.0116e-05	112.23	35.028	21.996	6.319	9.465e-06	11.316	-2.349	-121.453	179.812	-164.439	-11.727	-62.083	-166.353	-159.124	-136.822	-122.520	-162.665	-157.080	-154.769	-150.667	101.922	-153.957	-8191	255	
18375.877	1	1	0	0	0.15154	0.17362	0.056581	0.26442	0.29905	0.17671	0.1818	0.040201	0.10499	0.042366	0.12204	0.36329	0.11645	0.12622	0.17179	0.091742	-2.3812	-3.075	-2.6083	-2.8563	-2.7667	-2.7917	-2.8979	-2.7979	-2.7104	-3.0042	-2.6604	-3.0062	-2.9292	-2.6188	-3.0646	-2.6771	167.796	125.659	-130.359	38.820	59.518	160.958	-161.949	82.573	-89.422	-31.065	-87.569	102.377	-101.846	-146.477	119.176	13.901	0.0003111	0.00042421	0.00011156	272.54	1.089e-06	2.9556e-06	369.97	78.073	1.3409e-06	5.6897e-07	116.21	35.961	22.431	6.3722	5.1365e-06	11.515	0.00067679	0.00096417	0.00030266	270.73	1.0214e-05	1.1284e-05	363.04	78.533	1.0579e-05	1.1457e-05	115.87	35.941	22.623	6.5426	1.0918e-05	11.775	18.664	-88.022	-87.562	-164.958	-96.588	-51.455	-166.019	-159.238	-11.638	-7.651	-162.507	-157.076	-155.938	-150.040	-4.154	-153.956	-8191	255	
18375.971	1	1	0	0	0.09881	0.098767	0.23966	0.19152	0.16441	0.27842	0.050186	0.19726	0.13914	0.11391	0.052438	0.2739	0.049104	0.25473	0.18211	0.20145	-2.2458	-2.9479	-2.7021	-2.95	-3.0438	-2.8146	-2.9917	-2.8042	-2.6292	-3.0125	-2.7833	-2.9229	-2.9146	-2.6917	-2.9292	-2.8167	168.460	51.180	-150.486	153.224	120.703	-86.665	-120.636	83.809	45.128	51.638	59.143	-177.220	139.723	-67.233	-144.027	42.013	0.00029256	0.00019661	5.1444e-05	275.95	7.2184e-07	1.6734e-06	370.27	79.481	8.4351e-06	1.6636e-06	117.6	36.525	22.684	6.3651	2.0586e-06	11.663	0.00078341	0.0010621	0.0003411	274.67	1.1044e-05	1.2174e-05	367.04	79.06	1.1312e-05	1.2478e-05	117.13	36.371	22.861	6.6228	1.1652e-05	11.934	-0.992	-145.934	-121.550	-164.323	11.407	-71.311	-166.262	-159.551	-86.142	-104.434	-162.292	-157.977	-155.825	-149.857	-90.551	-153.802	-8191	255	
18376.068	1	1	0	0	0.33688	0.11797	0.2258	0.32476	0.29578	0.23755	0.11829	0.082617	0.097306	0.13277	0.084608	0.28501	0.34891	0.0081036	0.17454	0.043749	-2.2417	-2.8521	-2.8688	-2.6646	-2.8979	-2.6021	-3.1208	-2.7042	-2.5812	-2.9708	-2.8458	-2.7771	-2.9583	-2.7708	-2.85	-2.9083	167.614	-40.246	-41.983	-61.139	148.846	52.831	11.793	125.097	52.122	-142.448	-60.181	-17.456	-109.008	-82.287	-143.143	-110.233	0.00032517	0.00019368	5.8564e-05	277.22	5.1475e-06	1.6387e-06	369.51	79.116	5.5812e-06	1.5545e-06	114.27	35.42	22.366	6.4108	1.8852e-06	11.449	0.00079218	0.0011032	0.00034361	277.01	1.0977e-05	1.2139e-05	365.61	79.295	1.1017e-05	1.2395e-05	115.19	35.763	22.654	6.6087	1.1564e-05	11.719	-6.288	-55.212	-42.041	-164.343	-87.774	4.598	-166.208	-159.396	-102.777	-20.229	-161.853	-157.818	-155.126	-150.713	4.562	-153.728	-8191	255	
18376.188	1	1	0	0	0.25129	0.19949	0.024827	0.28141	0.068332	0.23658	0.32118	0.14501	0.035791	0.097434	0.045911	0.23853	0.066654	0.059766	0.11246	0.17864	-2.2417	-2.8792	-2.9479	-2.8021	-2.9958	-2.8292	-3.1208	-3.0062	-2.7667	-2.9604	-2.9583	-2.7792	-2.8667	-2.8312	-2.9938	-2.8458	-3.411	-4.274	-58.504	56.579	5.784	-129.004	86.701	-144.940	-172.620	-6.341	-151.706	72.961	97.418	105.135	-66.719	-127.388	0.0002796	0.00017493	2.9973e-05	276.38	1.4579e-06	3.3492e-06	366.48	78.922	1.6554e-06	2.4553e-06	115.01	35.384	22.239	6.365	4.1675e-06	11.372	0.00080676	0.0010928	0.00034932	274.33	1.122e-05	1.2224e-05	362.99	78.65	1.2108e-05	1.2125e-05	115.2	35.582	22.561	6.5679	1.1543e-05	11.662	5.996	-97.363	-0.293	-165.003	-6.297	-160.834	-166.034	-159.402	-157.103	-40.136	-162.142	-158.034	-155.279	-150.322	-21.257	-153.331	-8191	255	
18376.283	1	1	0	0	0.18	0.21298	0.066594	0.07133	0.16129	0.17878	0.34031	0.10335	0.13891	0.24028	0.21879	0.046198	0.23783	0.23793	0.07497	0.08713	-2.2417	-2.9042	-2.7042	-2.6813	-3.0854	-2.675	-2.8604	-2.8708	-2.6271	-2.8854	-2.8396	-2.6521	-3.0563	-2.8167	-2.9146	-2.8271	149.402	7.549	5.146	57.788	97.472	178.515	-158.795	-105.890	-31.570	-109.923	29.530	-22.821	135.751	-18.296	-140.717	12.617	0.00025677	0.00042499	9.6318e-06	271.07	8.227e-07	3.6035e-06	362.89	77.874	3.4555e-06	2.5523e-06	113.96	35.757	22.147	6.3177	2.3814e-06	11.404	0.00077882	0.0010866	0.00033604	270.91	1.1241e-05	1.2247e-05	359.85	77.809	1.1983e-05	1.2046e-05	114.14	35.67	22.487	6.5724	1.1166e-05	11.661	-5.390	-118.190	146.324	-164.826	-17.694	-84.463	-166.318	-159.367	5.781	-39.276	-161.803	-157.676	-154.820	-150.069	-16.623	-153.326	-8191	255	
18376.381	1	1	0	0	0.19828	0.21908	0.37153	0.32155	0.053292	0.31446	0.29084	0.13708	0.18081	0.24744	0.10733	0.097939	0.29394	0.18859	0.10042	0.16706	-2.1375	-2.7708	-2.8542	-2.7104	-2.9542	-2.6896	-2.7771	-2.9771	-2.6042	-2.9688	-2.8979	-2.6271	-3.0187	-2.8604	-2.8438	-2.8896	52.181	-109.201	134.480	81.954	-41.368	25.777	-111.476	-168.035	88.512	87.961	-103.078	-114.865	-111.458	-79.711	-77.911	-66.964	0.00036859	0.00029877	0.00012761	272.46	1.4483e-06	4.0998e-06	361.34	77.576	8.6814e-06	8.8069e-07	112.65	35.173	21.878	6.3846	2.0502e-06	11.274	0.00075528	0.0010504	0.00031468	270.18	1.0433e-05	1.1548e-05	357.76	77.636	1.1642e-05	1.1524e-05	113.31	35.385	22.224	6.5102	1.0088e-05	11.463	7.293	-107.968	-41.095	-164.139	-93.708	-26.184	-166.258	-159.572	-108.447	-67.775	-161.921	-157.699	-154.883	-150.479	-118.495	-153.730	-8191	255	
18376.477	1	1	0	0	0.18474	0.030937	0.059307	0.20437	0.23111	0.12722	0.12593	0.11097	0.2308	0.13789	0.13353	0.18516	0.059778	0.21848	0.10825	0.11166	-2.3479	-2.8458	-2.9875	-2.6562	-2.9542	-2.8542	-2.875	-2.8604	-2.7958	-2.9833	-2.8563	-2.6333	-2.9146	-2.7917	-2.6771	-2.8042	18.508	48.547	-36.812	-6.253	158.161	-9.055	16.324	116.933	49.775	3.421	-142.005	-75.051	98.702	97.211	-110.579	-143.840	0.00021693	0.00028819	9.377e-05	268.7	1.8807e-06	9.4708e-07	355.35	76.989	6.3384e-06	1.4596e-06	111.21	34.778	21.788	6.1634	1.8701e-06	10.97	0.00067778	0.00092198	0.00025389	266.61	8.986e-06	9.8576e-06	352.01	76.411	1.0357e-05	9.8419e-06	111.56	34.778	22.05	6.3466	9.0075e-06	11.191	-7.419	-28.029	-120.812	-164.578	-44.278	21.952	-166.268	-159.736	-106.517	-122.223	-162.231	-157.894	-154.842	-149.998	-61.050	-153.501	-8191	255	
18376.572	1	1	0	0	0.17572	0.18728	0.23588	0.05963	0.29308	0.18387	0.15833	0.15861	0.18982	0.09754	0.17754	0.32869	0.22112	0.29675	0.04112	0.099863	-2.3375	-2.9792	-3.0104	-2.7771	-2.9229	-2.6021	-2.7917	-2.9896	-2.8979	-3.0125	-3.0125	-2.7438	-3.0271	-2.9479	-2.6542	-3.0687	-149.575	-40.081	180.036	30.267	-3.635	-54.371	117.721	64.599	-167.018	166.360	-28.088	-135.049	-127.274	79.467	95.699	61.542	0.00030806	0.00040843	5.929e-05	268.01	2.0525e-06	1.6679e-06	356.4	76.926	2.9839e-06	3.3383e-06	112.07	34.637	21.854	6.1696	1.2853e-06	11.001	0.00065056	0.00087677	0.00023805	266.69	8.8322e-06	9.5427e-06	351.9	76.57	9.6038e-06	9.5647e-06	111.89	34.712	21.95	6.3026	9.1516e-06	11.141	14.892	-86.143	174.257	-165.137	27.009	-14.752	-166.086	-159.546	-100.405	-16.145	-162.282	-158.049	-154.858	-150.594	109.471	-153.600	-8191	255	
18376.668	1	1	0	0	0.30986	0.28785	0.12373	0.079433	0.13986	0.16168	0.074343	0.15711	0.14311	0.079207	0.10342	0.10632	0.23474	0.23239	0.17635	0.18574	-2.2833	-2.6792	-2.8021	-2.7125	-2.8438	-3.0187	-2.8271	-2.8688	-2.7208	-3.0104	-3.2333	-2.6917	-3.0833	-2.8	-2.7625	-3.0062	-36.263	27.411	51.395	-153.913	-174.367	9.906	-151.553	93.011	181.671	156.966	150.948	130.299	16.116	-161.480	-136.874	131.174	0.00030716	0.00028009	7.4862e-06	267.01	1.2432e-06	2.8367e-06	359.91	76.813	2.5814e-06	1.3296e-06	112.27	35.056	22.006	6.1603	1.7936e-06	11.119	0.00061987	0.00080188	0.000235	267.71	8.4688e-06	9.2044e-06	354.99	77.086	9.9762e-06	9.6734e-06	111.95	35.052	22.225	6.2821	1.0228e-05	11.235	8.751	-97.411	143.012	-164.344	-101.876	-39.800	-166.311	-159.433	117.589	-4.508	-162.256	-157.955	-155.258	-150.752	-86.605	-153.311	-8191	255	
18376.764	1	1	0	0	0.20763	0.17426	0.13839	0.11172	0.24897	0.058042	0.052674	0.24136	0.041539	0.1698	0.19645	0.12543	0.059275	0.11959	0.15315	0.27063	-2.4771	-2.8563	-3.0292	-2.9292	-3.0021	-3.1271	-2.6708	-2.95	-2.8979	-2.6979	-3.0458	-2.9	-3.0062	-2.8563	-2.6708	-2.9479	-59.348	-120.336	-40.955	-155.788	20.399	-148.178	4.860	63.697	-42.110	0.591	179.538	-168.333	-102.962	91.196	136.370	90.096	0.00028114	0.00025748	8.3991e-05	270.57	1.8229e-06	1.4346e-06	363.08	77.579	2.1146e-06	1.8004e-06	112.91	35.355	22.005	6.2057	3.3666e-06	11.121	0.00061638	0.00081179	0.00022366	270.02	8.3756e-06	9.1185e-06	357.83	77.275	9.7758e-06	8.9816e-06	113.05	35.182	22.196	6.32	1.0513e-05	11.273	-5.485	-42.314	-73.834	-164.531	-4.730	-6.417	-166.468	-160.007	136.508	81.039	-161.932	-157.560	-154.946	-149.936	-13.175	-153.762	-8191	255	
18376.883	1	1	0	0	0.22614	0.12146	0.10372	0.21442	0.043972	0.17219	0.10879	0.13424	0.06238	0.15147	0.21637	0.087599	0.085399	0.12598	0.20469	0.11855	-2.4896	-2.7146	-3.0521	-2.7771	-2.6854	-3.1479	-2.625	-2.9938	-2.925	-2.8583	-2.9875	-2.7229	-2.8333	-3.0667	-2.6646	-3.0167	-130.486	99.926	31.383	13.973	-117.285	-16.326	-168.761	165.937	-153.653	98.444	162.885	-134.786	82.265	-66.444	104.398	-145.503	0.0002437	0.00041618	4.4035e-05	275	1.0775e-06	1.6765e-06	362.01	78.91	7.5663e-06	1.5519e-06	113.48	35.337	21.892	6.1391	2.3647e-06	11.015	0.00060224	0.00079886	0.00022263	271.96	8.2562e-06	8.9788e-06	357.75	77.835	8.6654e-06	9.6673e-06	113.29	35.379	22.273	6.3171	9.7227e-06	11.248	6.893	-117.399	36.712	-164.365	72.794	-72.979	-166.169	-159.374	-35.285	-50.817	-162.193	-158.344	-155.237	-150.615	32.129	-154.210	-8191	255	
18376.979	1	1	0	0	0.13712	0.27146	0.13127	0.022092	0.083838	0.15537	0.034361	0.1574	0.088331	0.25904	0.0098473	0.16946	0.2423	0.13055	0.22644	0.24636	-2.3979	-2.7062	-2.8792	-2.8104	-2.9583	-3.1375	-2.8458	-2.9604	-3.0042	-2.6771	-3.0417	-2.8021	-2.6979	-3.1458	-2.6896	-2.8438	-77.552	84.203	-18.786	124.830	-41.589	110.923	153.423	55.212	56.656	130.812	-174.654	46.468	-111.833	133.467	33.421	-98.606	0.00019743	0.00022307	5.1519e-05	274.81	2.087e-06	9.605e-07	360.09	77.558	2.1633e-06	2.3278e-06	114.4	35.371	22.344	6.0997	3.664e-06	11.201	0.00058544	0.00080462	0.0002313	273.86	8.3608e-06	8.6924e-06	358.63	77.828	7.9788e-06	1.047e-05	113.85	35.191	22.347	6.2823	9.5769e-06	11.278	-6.307	-75.520	-166.757	-164.587	-48.010	-21.734	-166.669	-159.941	20.627	-105.641	-162.308	-157.514	-155.569	-149.921	-14.648	-153.155	-8191	255	
18377.074	1	1	0	0	0.26088	0.20267	0.090218	0.12683	0.060243	0.13301	0.10727	0.12554	0.24494	0.098462	0.027184	0.17891	0.24327	0.11772	0.3156	0.035549	-2.5167	-2.6104	-2.8396	-2.6917	-2.8625	-3.0208	-2.7458	-2.9125	-2.9833	-2.7729	-2.8875	-2.8354	-2.6708	-3.05	-2.8	-2.9729	-161.513	-99.357	-30.436	-55.222	-90.865	-158.139	51.548	31.487	135.857	136.123	-112.877	-43.939	176.792	96.408	-105.025	-64.236	0.00024775	0.00030425	5.9831e-05	274.99	1.6172e-06	8.0849e-07	363.17	77.707	4.4124e-06	2.8275e-06	112.69	35.332	22.165	6.1258	1.7762e-06	11.104	0.00056668	0.0007631	0.00021309	272.28	8.1977e-06	8.3528e-06	358.63	77.514	7.6167e-06	1.0011e-05	112.45	35.043	22.277	6.2921	9.6465e-06	11.204	-15.314	-55.075	-167.690	-164.448	10.731	147.024	-166.287	-159.468	-65.591	-81.111	-161.891	-157.943	-155.656	-149.934	11.252	-153.525	-8191	255	
18377.148	1	1	0	0	0.22883	0.071691	0.14404	0.1231	0.18382	0.2134	0.15716	0.2059	0.19243	0.20709	0.34083	0.034566	0.05006	0.055035	0.35327	0.13147	-2.5792	-2.5125	-2.8937	-2.8708	-2.7042	-2.8604	-2.9313	-2.8688	-3.0333	-2.6896	-3.0812	-3.0146	-2.8271	-3.0458	-2.8021	-2.9146	140.554	-16.956	-31.710	-145.672	0.057	-50.567	48.521	93.528	-146.960	-131.764	17.542	70.112	-164.810	115.402	-177.378	-155.907	0.00027068	0.00031609	8.5397e-05	272.88	5.987e-07	3.2565e-06	363.53	78.701	6.8802e-06	5.5819e-06	113.38	35.501	22.186	6.2447	2.8806e-06	11.198	0.00055472	0.00074262	0.00021174	271.68	8.3761e-06	8.2383e-06	360.19	77.827	7.6768e-06	1.0098e-05	113.27	35.22	22.298	6.3322	9.4989e-06	11.327	-1.587	-120.559	-85.569	-164.799	81.930	-21.688	-166.387	-159.608	-81.320	-88.704	-162.080	-158.128	-155.385	-150.313	15.881	-154.009	-8191	255	
18377.268	1	1	0	0	0.10943	0.083663	0.19833	0.31965	0.10238	0.26024	0.21117	0.089112	0.057168	0.18781	0.21327	0.046842	0.15391	0.093565	0.1261	0.2289	-2.7021	-2.7	-2.8646	-2.9354	-2.6104	-2.9813	-2.9958	-2.9188	-2.9729	-2.8146	-2.8438	-2.8438	-2.6875	-2.8521	-2.7062	-2.7792	171.395	166.403	114.913	-104.502	40.931	171.308	81.568	-177.419	-136.083	52.307	138.527	21.681	-166.976	-13.393	-94.797	169.633	0.00035768	0.00018066	1.3893e-05	274.54	4.6447e-07	2.073e-06	368.69	78.966	4.3155e-06	3.6006e-06	114.58	35.271	22.439	6.2406	5.4695e-07	11.242	0.00054939	0.00076165	0.00021335	273.59	9.2443e-06	8.3196e-06	363.93	78.344	7.6349e-06	1.0375e-05	114.14	35.264	22.518	6.3741	9.3466e-06	11.378	1.874	-154.109	125.822	-164.134	139.507	-52.820	-166.345	-159.545	-129.009	-90.234	-162.059	-156.772	-155.389	-150.230	30.320	-152.996	-8191	255	
18377.363	1	1	0	0	0.14735	0.040712	0.17659	0.40779	0.13871	0.075192	0.12652	0.20364	0.11606	0.051397	0.20211	0.35255	0.32628	0.14267	0.08908	0.28507	-2.6083	-2.7167	-2.7667	-2.9271	-2.7958	-2.925	-2.925	-2.7708	-3.1354	-2.7604	-2.9604	-2.925	-2.6437	-2.9792	-2.8646	-2.7062	58.651	-99.184	-2.476	-165.688	-44.880	75.693	29.165	10.567	147.753	-36.338	60.538	-102.129	19.880	75.712	75.716	-174.468	0.00029177	0.00010967	2.7515e-05	274.74	2.5685e-06	4.1341e-07	367.17	78.122	3.5662e-06	3.2219e-06	112.88	35.251	22.324	6.2735	4.3011e-06	11.178	0.00056726	0.00077723	0.00021132	273.31	9.3828e-06	8.2336e-06	361.71	78.04	7.4974e-06	1.0326e-05	113.02	35.162	22.383	6.3855	8.6032e-06	11.392	4.857	178.314	-121.858	-165.388	-50.656	-81.588	-166.183	-159.180	-53.490	-55.550	-161.695	-157.846	-155.406	-149.555	33.544	-153.213	-8191	255	
18377.461	1	1	0	0	0.10284	0.32582	0.10372	0.15638	0.24908	0.052042	0.029844	0.093076	0.18162	0.2281	0.24506	0.1483	0.1231	0.19835	0.14608	0.21173	-2.7333	-2.6562	-2.7646	-3.0187	-2.65	-2.9729	-2.875	-2.7167	-2.7875	-2.5958	-2.7792	-3.1958	-2.6604	-2.8812	-3.0354	-2.6125	42.242	106.702	134.864	120.512	10.012	126.331	78.172	178.497	115.938	-47.491	106.456	14.943	-118.536	-108.365	-9.055	11.938	0.00037904	0.00049303	7.6132e-05	275.89	1.0752e-06	2.5435e-06	366.61	78.766	1.2182e-06	3.1183e-06	113.94	35.492	21.984	6.3432	1.3838e-06	11.172	0.00055401	0.00076185	0.00021414	273.45	9.088e-06	8.3084e-06	362.35	78.238	7.244e-06	1.0127e-05	114.02	35.349	22.333	6.4118	7.7792e-06	11.417	-5.448	-74.331	-77.609	-164.461	169.547	-55.913	-166.236	-159.656	-52.524	-54.341	-162.601	-157.684	-155.371	-150.908	-127.544	-153.485	-8191	255	
18377.557	1	1	0	0	0.13673	0.15545	0.073536	0.11581	0.083548	0.12846	0.12399	0.3574	0.15641	0.093291	0.03149	0.1053	0.082786	0.11474	0.077781	0.10048	-2.7521	-2.8792	-2.6375	-3.15	-2.7583	-2.9729	-2.9417	-2.7167	-2.9667	-2.8792	-2.7062	-3.0083	-2.8146	-2.9896	-2.9625	-2.5938	69.188	162.893	-168.800	-72.937	34.976	34.200	43.063	79.805	79.801	78.021	72.765	-68.403	93.536	-68.211	-125.014	70.328	0.0002228	4.9597e-05	1.069e-05	273.79	7.5898e-07	2.037e-06	365.44	78.72	3.5848e-06	3.9061e-06	113.78	35.474	22.537	6.2483	2.6027e-07	11.221	0.00055984	0.00079567	0.00022008	273.09	9.2884e-06	8.4504e-06	361.72	78.124	7.4522e-06	9.8278e-06	113.39	35.197	22.354	6.3678	7.6042e-06	11.448	-0.028	179.799	-99.330	-164.847	35.928	-79.174	-166.666	-159.616	-163.041	-53.902	-162.329	-157.420	-155.013	-149.865	169.274	-153.151	-8191	255	
18377.678	1	1	0	0	0.18094	0.18125	0.13724	0.047726	0.11059	0.14182	0.17651	0.06401	0.13138	0.36526	0.19956	0.14158	0.1457	0.16387	0.14549	0.1434	-2.4458	-2.6083	-2.875	-3.1	-2.7438	-2.8771	-3.1604	-2.6813	-3.0083	-2.9917	-2.7604	-3.0854	-2.7687	-2.9646	-3.0854	-2.8021	-83.105	80.651	-126.284	-59.744	-92.309	-54.861	113.078	111.647	29.096	-27.519	167.428	-87.927	109.240	-3.527	-162.791	-80.100	0.00031702	0.00024973	9.1726e-05	274.02	2.1549e-06	4.1027e-07	366.15	77.809	6.8892e-06	3.7286e-06	112.98	35.192	22.249	6.2407	1.5795e-06	11.167	0.00055195	0.00074494	0.00020526	271.62	9.0359e-06	7.9197e-06	361.43	77.366	7.2432e-06	8.9948e-06	113.17	35.066	22.217	6.3398	7.4506e-06	11.297	-1.082	-39.417	-97.444	-164.362	-112.543	-15.266	-165.837	-159.598	-92.339	-54.401	-162.413	-157.605	-155.148	-149.806	0.135	-153.513	-8191	255	
18377.771	1	1	0	0	0.21062	0.049195	0.12978	0.059286	0.092846	0.17293	0.059662	0.17062	0.27567	0.19738	0.085974	0.14673	0.19799	0.22621	0.35736	0.12294	-2.5771	-2.9375	-2.5854	-3.1896	-2.7979	-2.9375	-3.0229	-2.7875	-2.9083	-2.9854	-2.75	-2.9646	-2.925	-2.7	-3.2333	-2.5854	110.787	-91.653	172.540	109.279	157.187	118.713	57.580	-61.476	3.977	-60.415	175.928	132.650	131.518	-38.738	-135.647	164.736	0.00030857	0.0002033	5.0921e-05	271.9	2.1706e-06	2.4171e-06	361.26	77.401	5.1686e-06	1.9883e-06	111.98	34.669	22.101	6.1995	1.9927e-06	10.991	0.00053531	0.00075162	0.00019804	269.68	8.8288e-06	7.9398e-06	356.46	77.126	7.365e-06	8.0084e-06	112.05	34.635	22.051	6.2384	7.5298e-06	11.16	1.187	-6.298	-52.324	-164.676	-80.647	33.057	-166.069	-159.958	-95.902	-0.512	-162.225	-157.658	-156.149	-149.739	7.696	-154.067	-8191	255	
18377.869	1	1	0	0	0.20905	0.20753	0.36763	0.11289	0.026472	0.29312	0.033195	0.13381	0.12883	0.20971	0.091923	0.24618	0.22344	0.20143	0.078778	0.15125	-2.5271	-2.9625	-2.4604	-2.825	-2.7771	-2.8312	-2.9667	-2.8667	-2.9896	-3.0083	-2.6542	-2.8937	-2.7833	-2.6708	-2.9396	-2.7625	167.821	-13.688	83.316	-93.403	-97.106	-25.669	96.131	69.519	180.946	-104.803	-143.401	-108.589	130.805	46.464	115.104	-144.159	0.00024644	0.00027496	6.7896e-05	269.61	2.5112e-07	5.4849e-07	356.84	77.252	4.343e-06	1.9872e-06	111.95	34.32	21.946	6.0621	2.1643e-06	10.754	0.00054777	0.00072638	0.00020453	267.67	8.8229e-06	7.9813e-06	353.79	76.497	7.1696e-06	7.9063e-06	111.31	34.458	21.905	6.1917	7.2812e-06	10.996	-5.438	-86.806	-46.179	-164.892	80.890	-123.511	-166.324	-159.765	-128.815	-8.613	-162.411	-157.691	-155.089	-149.572	-115.221	-153.767	-8191	255	
18377.965	1	1	0	0	0.24968	0.14402	0.24599	0.13491	0.093096	0.28699	0.21041	0.075145	0.13164	0.13005	0.13205	0.079065	0.098944	0.073205	0.15504	0.11999	-2.6125	-2.9813	-2.7208	-3.0312	-2.8417	-2.6792	-3.0375	-2.7625	-2.9042	-3.1042	-2.725	-2.9	-3.0104	-2.8479	-2.9437	-2.6396	91.893	75.416	-53.781	163.709	73.685	-24.953	94.035	46.355	-71.021	-84.495	-10.395	140.294	-93.452	172.751	-62.174	-124.235	0.00034062	0.00022375	2.4147e-05	267.32	2.323e-06	2.034e-06	355.28	75.988	2.2633e-06	2.8994e-06	109.78	34.313	21.452	6.089	4.0267e-06	10.735	0.00054161	0.00073168	0.000209	265.2	7.9051e-06	8.783e-06	349.95	75.513	7.1547e-06	7.6592e-06	109.6	34.229	21.584	6.167	7.4227e-06	10.895	-4.109	-108.482	-25.493	-164.699	-99.744	-171.499	-166.230	-159.480	-12.921	-78.832	-162.391	-157.855	-155.219	-150.329	1.024	-153.801	-8191	255	
18378.061	1	1	0	0	0.10581	0.19315	0.011644	0.12218	0.22988	0.19465	0.31594	0.19032	0.12618	0.18187	0.21001	0.23914	0.059054	0.1446	0.073442	0.12408	-2.2979	-3.1813	-2.6792	-3.1104	-2.7833	-2.8417	-3.2396	-2.7729	-2.8667	-3.1063	-2.7938	-3.0333	-2.8438	-2.6792	-3.0687	-2.7146	112.507	-26.489	-52.438	-105.311	-0.306	167.586	-61.571	181.787	-81.725	-174.692	-111.427	-89.247	-18.279	97.292	-56.637	89.736	0.00028102	0.00015611	2.2244e-05	266.87	2.5229e-06	2.0083e-06	353.17	75.833	2.1662e-06	1.0638e-06	110.47	34.612	21.97	6.096	3.2627e-06	10.683	0.00052879	0.00069836	0.0001958	263.43	7.3807e-06	9.2437e-06	350.02	75.484	6.9112e-06	7.9674e-06	110.16	34.463	21.832	6.1965	7.3422e-06	11.004	9.249	25.446	-140.489	-164.697	-106.658	-87.600	-165.867	-159.832	46.702	-6.994	-162.078	-158.005	-154.912	-149.665	-85.612	-153.508	-8191	255	
18378.156	1	1	0	0	0.066251	0.056947	0.12372	0.29428	0.23279	0.15432	0.15037	0.046545	0.10634	0.13491	0.14536	0.16482	0.087989	0.087718	0.14137	0.08246	-2.4667	-2.8771	-2.7896	-2.9833	-2.8979	-2.7583	-3.1333	-2.9104	-2.8146	-3.0375	-2.8063	-2.9146	-3.0146	-2.6521	-3.1333	-2.8542	-26.921	169.177	8.849	-4.441	-135.379	-162.137	-103.938	178.805	148.459	-53.813	-155.211	10.991	-69.368	-158.523	23.736	-120.425	0.00029696	0.00024102	5.8461e-05	266.26	1.2701e-06	1.2408e-06	356.44	76.236	1.6255e-06	5.6728e-07	111.14	34.664	21.809	6.1148	2.4741e-06	10.768	0.00052722	0.00070015	0.000195	264.44	6.9229e-06	9.6861e-06	350.84	75.892	7.2831e-06	7.4098e-06	110.89	34.495	21.886	6.2562	7.5798e-06	11.008	12.435	-86.403	-73.756	-165.132	-147.715	156.950	-166.580	-159.290	-60.908	55.333	-162.077	-157.610	-155.242	-150.700	76.719	-153.068	-8191	255	
18378.275	1	1	0	0	0.25008	0.22854	0.21428	0.087685	0.19379	0.11314	0.31878	0.14085	0.18503	0.12008	0.1857	0.21343	0.082638	0.23485	0.032883	0.21867	-2.4688	-3.1042	-2.6	-2.8125	-3.0375	-2.8854	-2.8896	-3.0583	-2.7375	-3.0833	-2.8896	-2.7354	-3.0125	-2.6583	-2.9771	-3.0312	83.189	-146.224	172.002	138.687	-87.724	45.961	68.866	-62.500	35.987	-51.002	124.002	135.111	100.183	-155.852	97.993	-154.034	0.00036843	0.00033443	4.2722e-05	265.86	1.8152e-06	2.5616e-06	354.02	76.572	2.601e-06	4.8579e-07	111	34.433	21.853	6.1315	6.747e-07	10.793	0.00056954	0.00068655	0.00019402	264.22	7.0749e-06	9.4516e-06	349.69	76.064	6.9244e-06	7.679e-06	110.88	34.397	21.844	6.2374	7.0688e-06	10.975	3.956	-50.917	-168.732	-165.141	-53.979	5.830	-166.144	-159.425	-80.749	13.699	-161.993	-157.262	-155.494	-150.281	-86.388	-153.721	-8191	255	
18378.373	1	1	0	0	0.17181	0.15495	0.053334	0.16576	0.13194	0.23931	0.23714	0.1209	0.1256	0.21642	0.059893	0.19851	0.050316	0.054982	0.054009	0.019811	-2.3729	-3.0625	-2.7062	-2.9104	-3.0729	-2.7208	-2.9375	-2.9021	-2.7708	-3.0104	-2.9667	-2.7938	-2.975	-2.5667	-2.8	-3.0896	-76.125	-92.919	-9.235	120.057	-42.238	-37.089	71.495	49.709	161.411	-8.953	77.628	34.233	-133.260	148.365	-158.153	56.777	0.00026086	0.00023693	1.1603e-05	266.69	2.8157e-06	4.8323e-07	353.18	76.784	2.8387e-06	4.8586e-06	111.33	34.492	22.053	6.1887	5.5684e-07	10.922	0.00058566	0.00067764	0.00019163	263.94	6.6891e-06	9.1512e-06	349.52	76.136	6.557e-06	7.3364e-06	111.22	34.542	21.956	6.2485	6.842e-06	11.04	0.288	-85.649	-79.121	-164.567	-97.417	-15.209	-166.141	-159.421	-38.916	-71.411	-162.117	-157.556	-155.140	-149.720	-46.656	-153.724	-8191	255	
18378.443	1	1	0	0	0.16834	0.12492	0.17614	0.11181	0.26516	0.054798	0.11405	0.040762	0.029959	0.048034	0.12196	0.074267	0.13439	0.23884	0.39455	0.078192	-2.45	-3.0146	-2.7792	-2.8312	-3.1729	-2.7521	-2.9125	-2.9688	-2.6917	-3.2354	-2.7458	-2.8688	-3.0104	-2.7625	-2.8083	-3.0521	463.785	187.774	525.573	279.237	263.750	305.062	313.891	239.744	467.752	439.799	268.868	187.802	511.269	413.303	231.015	506.948	0.00024706	5.4168e-05	3.2864e-05	268.14	8.0862e-07	1.144e-06	349.14	85.32	3.262e-06	1.7619e-06	127.24	39.637	25.103	7.0129	3.7477e-06	12.568	0.00059927	0.00063629	0.00018106	266.31	6.698e-06	8.8241e-06	332.71	82.605	7.2629e-06	7.7364e-06	124.63	39.025	24.689	7.0276	7.2351e-06	12.39	363.068	499.364	192.907	195.407	230.062	217.505	180.337	195.129	313.771	349.249	196.365	201.184	203.643	208.120	318.559	205.038	-8191	255	
18378.539	1	1	0	0	0.25856	0.21749	0.18616	0.16174	0.22445	0.20203	0.068374	0.22989	0.25535	0.10747	0.10458	0.17279	0.24997	0.27992	0.20262	0.21351	-2.3125	-3.0125	-2.8792	-2.6646	-2.9896	-2.9146	-2.9437	-3.0792	-2.8063	-3.0896	-2.6813	-2.7	-3.025	-2.9125	-2.8417	-3.1979	-92.085	31.825	-117.376	61.042	-124.136	-120.398	66.553	153.096	-117.229	-111.985	-145.941	125.418	173.455	6.854	-55.100	7.592	0.00029863	0.00014689	5.5597e-05	303.42	6.2572e-07	4.2286e-06	405.53	87.336	4.0807e-06	8.5596e-07	126.39	39.28	24.973	6.9645	1.2137e-06	12.294	0.00064198	0.00069401	0.00019593	295.61	7.1122e-06	9.7408e-06	392.84	84.887	6.7894e-06	7.7538e-06	123.26	38.608	24.539	6.9958	6.9818e-06	12.265	-11.509	-57.955	-48.410	-166.251	0.851	-153.827	-167.769	-161.041	12.586	-88.717	-163.981	-158.857	-156.752	-151.425	-108.074	-154.252	-8191	255	
18378.660	1	1	0	0	0.20154	0.19867	0.092444	0.10306	0.21895	0.087381	0.19328	0.14628	0.074298	0.15265	0.19964	0.1226	0.23377	0.1791	0.22646	0.13077	-2.4292	-2.7146	-3.0771	-2.75	-3.2292	-2.85	-2.9896	-2.9792	-2.9021	-2.9833	-3.0854	-2.5708	-2.9667	-2.9	-2.7687	-2.9917	87.270	109.522	-10.386	-13.048	-110.600	-4.709	74.931	74.090	-123.708	60.553	152.261	-140.300	-168.439	107.658	-85.287	138.564	0.00033366	0.00049199	1.569e-05	303.66	3.0437e-06	3.3616e-06	404.81	87.134	4.2126e-06	2.4021e-06	125.82	39.581	25.153	6.9516	1.1018e-06	12.273	0.00063032	0.00072016	0.0001936	295.31	6.8818e-06	8.9564e-06	391.17	85.301	6.8873e-06	7.7825e-06	122.81	38.654	24.586	6.9826	6.9465e-06	12.211	-5.272	-80.074	70.496	-166.705	-5.572	-23.417	-167.910	-160.794	-39.418	-67.298	-163.743	-159.192	-157.096	-152.030	-18.734	-155.275	-8191	255	
18378.758	1	1	0	0	0.087782	0.21761	0.090741	0.15118	0.21173	0.17328	0.090238	0.1024	0.08994	0.10191	0.066987	0.1991	0.078825	0.1511	0.17617	0.26165	-2.2812	-2.8229	-2.9167	-2.6625	-2.8646	-2.8563	-2.7208	-3.1396	-2.875	-2.8937	-3.0792	-2.7896	-3.1354	-2.8104	-2.7646	-3.0771	-96.123	-21.268	-20.305	35.244	-104.854	-44.365	-50.909	-159.903	-162.530	56.755	-44.845	-108.639	89.355	109.083	-8.307	114.488	0.00030712	0.00010059	3.8766e-05	305.3	2.9849e-06	7.4086e-07	407.35	87.47	6.4557e-06	1.236e-06	125.78	39.619	25.368	7.0687	7.636e-07	12.42	0.00062875	0.00069468	0.00019258	295.6	6.964e-06	8.2047e-06	393.83	85.27	7.0465e-06	7.6672e-06	123.54	38.772	24.693	7.0305	7.1581e-06	12.317	10.392	-126.624	-124.349	-166.443	-125.109	-31.484	-167.437	-161.066	-126.951	32.661	-164.419	-158.874	-157.286	-151.950	-92.301	-154.894	-8191	255	
18378.854	1	1	0	0	0.21072	0.11774	0.26231	0.29778	0.25947	0.20972	0.24806	0.027905	0.099396	0.19827	0.10145	0.13006	0.1958	0.15067	0.21306	0.075316	-2.3854	-3.0333	-3.1667	-2.8417	-3.1063	-2.9667	-2.9896	-3.1063	-2.8187	-2.9521	-3.0604	-2.8604	-3.1083	-2.9625	-2.7708	-3.1542	-25.389	-10.558	90.726	158.650	78.457	38.272	87.061	-48.810	173.295	11.598	-94.578	1.725	-90.532	-90.505	64.508	-97.749	0.00030197	0.0001818	2.7197e-05	303.64	4.1556e-06	3.9792e-06	406.65	87.803	4.8683e-06	4.0502e-07	127.23	39.345	25.197	7.0339	2.143e-06	12.206	0.0006414	0.00069049	0.00019451	296.73	7.0914e-06	7.8636e-06	394.92	85.527	7.2629e-06	7.894e-06	123.92	38.653	24.662	7.0401	7.3047e-06	11.998	-20.722	-66.503	132.596	-166.377	-22.561	-37.389	-167.394	-161.679	14.773	-152.587	-163.669	-159.100	-155.591	-152.157	22.289	-159.134	-8191	255	
18378.949	1	1	0	0	0.22704	0.20639	0.12887	0.17907	0.30753	0.15259	0.1219	0.15614	0.066435	0.079909	0.22119	0.1894	0.25165	0.025366	0.091156	0.11547	-2.5	-2.8583	-3.0146	-2.7938	-2.9875	-2.975	-2.8833	-3.0354	-3.0146	-2.8354	-3.1562	-2.8021	-3.0312	-3.0875	-2.8646	-2.9938	509.549	299.783	453.655	511.315	347.380	403.692	454.439	477.409	217.081	231.464	526.393	501.656	235.876	212.592	505.932	517.250	0.00040378	0.0003811	6.9131e-05	345.16	2.7391e-06	1.4215e-07	457.32	99.09	2.3201e-06	3.1701e-06	143.18	44.759	28.423	7.9623	2.8122e-06	14.27	0.00068356	0.00080802	0.00021507	329.97	8.4434e-06	8.9624e-06	438.58	94.876	8.2092e-06	9.0423e-06	137.87	42.999	27.483	7.8545	8.5496e-06	13.771	369.742	258.311	205.892	191.758	418.804	201.976	190.983	197.197	320.144	294.516	194.903	198.866	201.464	205.959	328.761	203.136	-8191	255	
18379.045	1	1	0	0	0.1057	0.10897	0.26545	0.042689	0.10738	0.293	0.29251	0.21355	0.078488	0.076271	0.11601	0.21998	0.18323	0.075946	0.03379	0.12715	-2.3833	-2.8333	-3.1271	-2.8333	-3	-3.1604	-2.8625	-3.0021	-3.0271	-2.8	-3.1042	-2.7146	-3.0312	-2.9083	-2.8646	-2.9667	397.980	283.943	330.346	533.414	374.453	454.158	198.112	508.664	254.170	397.366	408.526	349.460	201.832	454.529	182.267	356.983	0.00034695	0.00011897	6.7273e-05	342.25	2.7812e-06	5.7151e-07	457.33	98.49	3.5839e-06	4.3434e-06	141.68	44.782	28.565	7.9854	3.9185e-06	13.656	0.0006617	0.00097793	0.00022868	328.52	8.4383e-06	9.3142e-06	436.6	94.841	8.4466e-06	9.3539e-06	137.1	42.953	27.515	7.8511	8.651e-06	13.566	366.768	268.236	266.793	192.237	352.302	255.089	190.523	197.390	361.071	310.755	195.246	199.214	202.138	207.063	329.603	203.307	-8191	255	
18379.141	1	1	0	0	0.019132	0.22064	0.12592	0.15852	0.25836	0.068697	0.36758	0.17478	0.11799	0.25031	0.022726	0.092352	0.21842	0.12571	0.39219	0.27591	-2.525	-2.75	-3.0792	-2.6771	-2.8937	-2.9896	-2.7313	-2.95	-3.0125	-2.7833	-3.0292	-3.0417	-2.8375	-3.0958	-2.925	-2.9938	447.889	470.721	256.108	398.419	373.784	495.391	526.177	464.064	346.847	376.536	512.883	199.755	266.017	234.903	330.154	437.993	0.00034749	0.00018533	0.00011513	342.96	1.4787e-06	3.8591e-06	462.26	98.571	3.0999e-06	2.2707e-06	142.75	44.668	28.421	8.1382	1.5232e-06	15.211	0.0006078	0.0010069	0.00023378	329.4	8.3693e-06	9.1189e-06	439.23	95.194	8.1886e-06	9.3308e-06	137.93	43.221	27.544	7.9094	9.6752e-06	14.644	361.844	261.739	235.340	192.315	400.758	300.159	190.772	197.844	471.550	348.208	194.833	199.690	202.056	206.561	297.898	198.589	-8191	255	
18379.236	1	1	0	0	0.25885	0.10761	0.22135	0.17489	0.14156	0.062035	0.087039	0.13736	0.21393	0.149	0.13004	0.13422	0.19011	0.071641	0.12199	0.087693	-2.6854	-2.7667	-3.0771	-2.7479	-2.8271	-3.0458	-2.9437	-2.975	-3.1854	-2.7354	-3.1208	-2.9479	-2.8479	-3.1167	-2.8417	-2.9875	260.160	374.539	200.766	459.742	421.936	346.656	299.978	254.338	534.054	462.934	320.430	236.252	229.677	384.921	512.842	214.459	0.0003966	0.00058209	7.7665e-05	391.18	3.3592e-06	2.3977e-06	521.3	112.53	5.1684e-06	1.909e-06	162.16	51.065	32.119	8.9745	8.2417e-06	15.81	0.00067776	0.0011326	0.00025326	367.05	9.4485e-06	1.0208e-05	487.86	106.05	9.3072e-06	1.0426e-05	153.51	48.026	30.72	8.7687	1.006e-05	15.302	356.723	254.243	253.590	190.790	293.339	286.728	189.062	196.070	375.007	286.765	193.415	197.447	200.951	205.548	388.911	201.623	-8191	255	
18379.357	1	1	0	0	0.15953	0.18614	0.12198	0.13974	0.23584	0.041047	0.096862	0.1087	0.098469	0.15878	0.13901	0.1872	0.33989	0.17364	0.088473	0.14615	-2.4958	-2.7021	-3.0521	-3.0583	-2.9333	-2.9896	-3.0083	-2.9146	-3.1083	-2.7979	-3.1146	-2.7875	-2.6521	-2.9979	-2.7833	-2.8854	513.207	382.466	310.415	411.140	440.579	385.769	329.674	316.857	342.492	180.665	246.664	383.198	284.652	216.571	187.838	298.505	0.00040521	0.00039317	7.7979e-05	390.93	5.0485e-06	5.3067e-06	524.82	112.86	2.2421e-06	7.2027e-07	163.5	51.265	32.42	9.0547	7.4487e-07	15.961	0.00069431	0.0011276	0.00026166	367.52	9.1295e-06	9.8786e-06	489.84	105.91	9.3084e-06	1.0659e-05	153.93	48.125	30.86	8.7787	9.6348e-06	15.32	362.880	178.078	237.335	191.064	348.789	332.088	189.068	195.989	327.370	288.991	193.315	197.239	200.561	205.196	299.113	202.241	-8191	255	
18379.453	1	1	0	0	0.10715	0.07399	0.24699	0.093134	0.13104	0.21491	0.15004	0.26087	0.087961	0.17954	0.11762	0.18815	0.12389	0.10996	0.056027	0.18972	-2.4458	-2.7208	-3.0417	-2.9188	-2.6896	-3.0896	-2.8	-2.875	-3.1583	-2.6104	-3.0938	-3.0521	-2.6521	-2.8125	-2.9979	-2.8688	437.399	530.152	300.601	280.038	528.923	320.235	197.557	407.850	399.315	309.632	508.533	502.172	232.949	411.671	193.502	361.170	0.00038856	0.00052218	9.1608e-05	393.01	2.9674e-06	2.4225e-06	512.81	112.77	5.9374e-06	4.3628e-06	161.59	50.189	32.021	9.1551	3.6941e-06	15.867	0.00069618	0.0011129	0.00025906	366.66	9.4993e-06	1.0001e-05	484.31	106.14	9.4236e-06	1.0242e-05	152.76	47.712	30.812	8.8092	9.7375e-06	15.28	372.636	246.813	303.837	190.303	259.965	333.211	189.317	195.651	270.313	316.228	193.432	197.678	200.369	205.664	297.566	201.474	-8191	255	
18379.549	1	1	0	0	0.20479	0.32178	0.1174	0.13873	0.050924	0.28003	0.40415	0.22351	0.21468	0.18036	0.034445	0.24407	0.11587	0.16808	0.086891	0.15468	-2.6042	-2.8458	-3.0521	-3.1146	-2.5625	-3.1125	-3.0271	-2.9292	-3.3187	-2.8271	-2.9167	-3.1125	-2.7229	-3.0542	-2.8771	-3.0708	443.031	501.607	391.581	280.284	347.409	457.125	461.337	469.393	438.484	183.187	258.794	273.131	498.635	221.808	213.904	371.031	0.00041691	0.00034361	1.0588e-05	389.36	1.393e-06	1.6333e-06	581.67	127.91	5.0739e-06	4.2523e-06	181.67	57.267	36.828	10.284	4.1311e-06	18.073	0.00070284	0.0011184	0.00025387	367.83	1.017e-05	1.106e-05	535.75	117.95	1.0228e-05	1.1341e-05	170.29	53.01	34.457	9.7223	1.042e-05	16.966	370.215	335.659	369.426	190.903	307.410	390.672	187.030	194.109	298.874	278.265	191.604	196.259	199.051	203.660	366.175	200.259	-8191	255	
18379.670	1	1	0	0	0.16078	0.14645	0.016073	0.16385	0.087413	0.22786	0.15381	0.12325	0.039798	0.18185	0.051992	0.41815	0.10389	0.041414	0.1105	0.10656	-2.5687	-2.8708	-2.9104	-3.0938	-2.8646	-3.0167	-3.0021	-2.7854	-2.9729	-3.0312	-2.8375	-2.9021	-2.7938	-2.8812	-2.9104	-2.75	237.200	322.466	415.911	227.574	388.170	206.923	371.121	443.312	362.729	506.395	475.628	419.868	188.404	519.234	309.462	423.450	0.00047857	0.0003193	0.00015787	443.97	2.729e-06	4.5962e-07	590.99	128.27	8.1919e-06	4.1114e-06	182.91	58.254	36.898	10.337	3.7623e-06	19.87	0.00076369	0.0012596	0.00027713	409.64	1.0378e-05	1.1091e-05	544.56	118.83	9.963e-06	1.1111e-05	171.13	53.733	34.646	9.8355	1.1003e-05	18.2	370.625	254.628	242.179	188.769	263.584	257.954	187.736	193.912	323.377	370.048	191.891	196.625	198.402	203.741	281.103	195.087	-8191	255	
18379.740	1	1	0	0	0.096675	0.18509	0.14298	0.1579	0.29041	0.12817	0.25359	0.14172	0.16326	0.12565	0.23681	0.2538	0.15032	0.16237	0.24151	0.1604	-2.7	-2.7167	-2.9667	-3.0021	-2.9625	-2.8917	-3.0187	-2.7875	-3.1917	-2.8208	-2.8896	-3.1083	-2.6146	-2.9542	-3.0792	-2.7646	375.789	420.743	347.696	488.446	234.684	487.669	525.497	285.757	278.814	382.495	493.650	243.814	252.222	194.502	513.908	278.144	0.00048229	0.00040159	9.6357e-05	499.86	4.0547e-06	2.8369e-06	661.9	144.82	5.4238e-06	4.2686e-06	207.76	64.865	41.307	11.68	2.3113e-06	20.407	0.00082367	0.0012203	0.00031296	453.78	1.1185e-05	1.1797e-05	600.24	131.01	1.0971e-05	1.2487e-05	188.78	59.044	38.066	10.828	1.1617e-05	18.899	366.421	286.546	189.720	187.709	309.450	344.146	185.386	192.761	285.555	294.768	189.429	194.816	196.666	201.866	463.850	198.780	-8191	255	
18379.838	1	1	0	0	0.12093	0.10895	0.16553	0.26186	0.11848	0.13515	0.036757	0.18372	0.04839	0.22467	0.16276	0.30738	0.08528	0.19891	0.2613	0.12818	-2.5	-2.6271	-2.7625	-3.0979	-2.7958	-2.9375	-2.9375	-2.8	-2.9625	-2.8542	-2.9771	-2.8896	-2.8187	-2.925	-3.1188	-2.9625	212.161	357.599	333.760	431.240	488.255	302.186	187.218	435.633	381.466	389.879	190.972	463.824	238.631	255.140	398.223	490.855	0.00055657	0.00053639	3.0026e-05	502.09	6.4365e-06	1.152e-06	664.72	143.93	3.2471e-07	3.4189e-06	205.12	64.085	41.205	11.604	4.9929e-06	20.183	0.00082128	0.001072	0.00036928	453.78	1.1176e-05	1.2214e-05	598.4	131.01	1.1051e-05	1.2123e-05	187.97	58.541	38.013	10.812	1.1543e-05	18.736	357.677	287.649	475.391	187.485	287.564	328.168	186.078	192.355	233.745	252.920	190.198	194.691	196.856	201.246	382.293	198.678	-8191	255	
18379.955	1	1	0	0	0.11445	0.13233	0.20972	0.12469	0.025655	0.067803	0.36074	0.18124	0.069754	0.28182	0.24779	0.24582	0.18608	0.17504	0.14501	0.11613	-2.5917	-3.0021	-2.6521	-3.1333	-2.8729	-3.0125	-3.1562	-2.8187	-3.1333	-2.9708	-2.6979	-3.0438	-3.0292	-2.8875	-3.0354	-2.9229	487.299	524.818	393.867	202.257	426.122	522.657	467.960	507.582	310.583	465.232	401.940	207.034	279.050	444.040	251.901	396.419	0.00053004	0.00035547	0.00013009	491.97	9.7817e-07	4.9796e-06	657.5	142.45	8.475e-06	1.2262e-06	204.61	64.093	41.295	11.609	4.3715e-06	19.988	0.00084264	0.0010893	0.00037144	450.06	1.0937e-05	1.1857e-05	595.85	130.44	1.0964e-05	1.2002e-05	186.67	58.175	37.626	10.727	1.0819e-05	18.56	360.227	243.954	351.120	187.675	338.339	260.521	186.109	192.549	320.806	460.292	190.329	194.561	197.030	202.572	368.803	198.522	-8191	255	
18380.053	1	1	0	0	0.13923	0.044901	0.23145	0.3299	0.10265	0.192	0.28672	0.13939	0.22003	0.32483	0.20254	0.12667	0.072195	0.13289	0.061447	0.073155	-2.5958	-2.9	-2.8083	-2.9917	-2.9792	-2.8812	-3.2229	-2.9146	-3.0833	-3.0271	-2.7792	-3.0875	-2.875	-2.675	-3.0521	-2.9271	323.596	377.128	523.854	525.752	396.027	403.002	488.183	491.248	449.384	380.509	478.334	270.528	443.063	202.000	249.098	439.671	0.00057947	0.0001628	2.4182e-05	494.36	4.6873e-06	7.3391e-07	659.25	143.28	8.3417e-06	3.1678e-06	204.18	64.542	40.814	11.575	7.8598e-06	20.343	0.0008075	0.0010698	0.00037334	449.37	1.0504e-05	1.1598e-05	594.68	129.43	1.0778e-05	1.1769e-05	186.14	58.319	37.238	10.78	1.0696e-05	18.777	362.652	183.398	513.404	187.381	327.260	523.421	186.052	192.572	340.784	349.399	190.403	194.421	197.490	201.790	337.976	198.777	-8191	255	
18380.148	1	1	0	0	0.23448	0.12799	0.25933	0.11622	0.11288	0.12551	0.15659	0.16467	0.13876	0.23479	0.14907	0.28669	0.08891	0.048777	0.16459	0.035614	-2.575	-2.9375	-2.8104	-3.0375	-2.9021	-2.8125	-3.1083	-3.0083	-2.9396	-2.9396	-2.9146	-3.0938	-3.025	-2.9125	-3.1417	-2.8521	333.366	266.101	421.964	207.674	313.236	495.130	475.651	382.588	303.231	244.359	528.732	307.054	425.109	350.179	280.559	239.513	0.00054037	0.00067001	0.00017153	498.01	4.7657e-06	2.8645e-06	657.4	142.29	4.7991e-06	4.5952e-06	204.67	64.641	40.888	11.527	1.0471e-06	20.117	0.00079974	0.0010355	0.0003548	450.64	1.0586e-05	1.1705e-05	592.69	129.79	1.0345e-05	1.2069e-05	186.01	58.355	37.316	10.771	1.1054e-05	18.565	360.752	313.422	527.585	187.641	201.742	291.612	186.308	192.457	306.438	325.119	190.059	195.080	196.902	202.000	440.796	199.001	-8191	255	
18380.242	1	1	0	0	0.062417	0.14462	0.11836	0.20797	0.11958	0.20002	0.33939	0.19737	0.38815	0.16505	0.19531	0.15321	0.15597	0.078051	0.11063	0.11838	-2.5062	-2.9854	-2.8146	-3.0521	-3.1083	-2.8208	-3.05	-2.8521	-2.9813	-3.2396	-2.9396	-3.0396	-2.8958	-2.5875	-3.0938	-2.9333	327.472	211.550	431.072	498.820	475.915	324.829	468.530	374.564	396.472	455.390	429.469	510.587	473.441	225.610	361.625	314.007	0.00057459	0.00028952	3.2928e-05	495.46	2.2556e-06	3.1611e-06	655.38	142.58	5.529e-06	1.3627e-06	203.67	63.69	40.842	11.488	5.5058e-06	20.011	0.00079353	0.00103	0.00037323	449.61	1.0832e-05	1.132e-05	591.14	129.27	1.1261e-05	1.1805e-05	185.23	57.905	37.439	10.733	1.0771e-05	18.414	366.667	288.413	253.433	187.478	321.436	219.938	185.874	192.407	269.999	292.682	189.698	194.413	196.871	202.308	366.812	198.238	-8191	255	
18380.340	1	1	0	0	0.20453	0.19957	0.12443	0.10048	0.15047	0.044745	0.029767	0.10213	0.21744	0.16295	0.1543	0.23796	0.12723	0.044645	0.12667	0.07393	-2.5708	-3.0479	-2.8	-2.9313	-2.9667	-2.8979	-3.1542	-2.9146	-2.7625	-3.0583	-2.6646	-3.1917	-3.0438	-2.8937	-2.9854	-2.8146	370.428	406.260	531.674	346.142	294.867	479.627	304.076	454.377	221.446	531.591	497.765	358.143	454.535	273.417	211.456	402.064	0.00050662	0.00053071	0.00013053	499.81	5.3878e-06	9.6821e-07	655.31	143.51	1.1659e-05	4.9395e-06	203.7	63.72	41.125	11.378	6.8534e-06	19.881	0.00078921	0.0010257	0.0003482	450.4	1.062e-05	1.1438e-05	590.07	130.07	1.319e-05	1.1877e-05	185.16	57.813	37.492	10.718	1.1294e-05	18.365	369.973	242.153	263.605	187.573	247.985	272.731	186.257	192.663	293.486	348.880	189.614	194.334	196.676	201.908	339.294	198.763	-8191	255	
18380.436	1	1	0	0	0.13585	0.10152	0.35965	0.05366	0.18441	0.15985	0.064607	0.22656	0.14891	0.13641	0.11498	0.25703	0.11667	0.22734	0.042241	0.17351	-2.4625	-3.0167	-2.7771	-3.0125	-3.1354	-2.8229	-3.1188	-2.8104	-2.85	-3.1896	-2.7083	-2.8833	-3.0062	-2.7479	-3.0563	-2.9583	274.758	455.090	483.541	470.419	474.986	195.960	310.343	488.276	472.865	245.421	451.614	442.758	464.033	269.368	178.365	495.575	0.00044249	0.00035947	5.1764e-05	496.29	2.4723e-06	1.9407e-06	656.23	143.06	9.2462e-06	3.5581e-06	204.47	64.241	40.731	11.516	5.2712e-06	20.098	0.0007943	0.0010645	0.0003764	449.21	1.0605e-05	1.1749e-05	591.5	130.03	1.2595e-05	1.126e-05	186.59	58.294	37.458	10.741	1.1129e-05	18.517	364.637	249.681	434.930	187.489	320.598	262.788	186.006	192.527	358.559	362.152	190.233	194.618	197.000	201.797	332.903	198.793	-8191	255	
18380.531	1	1	0	0	0.096499	0.1785	0.2173	0.16358	0.37481	0.065839	0.1041	0.046433	0.039059	0.1296	0.26166	0.044676	0.21504	0.22206	0.21283	0.050049	-2.2438	-3.1396	-2.6708	-2.7979	-3.0438	-2.7771	-3.0458	-3	-2.9042	-2.9708	-2.9167	-2.7667	-2.9	-2.7	-2.9604	-2.975	451.672	486.415	533.834	480.550	249.063	312.866	449.299	303.494	249.918	518.240	349.923	383.517	388.089	522.050	227.439	177.160	0.00052247	0.00027012	5.9992e-05	498.4	3.3407e-06	6.0429e-06	657.3	142.48	4.9996e-06	1.7125e-06	203.98	64.282	41.093	11.461	1.8095e-06	19.809	0.00079061	0.0010094	0.00033185	452.68	1.0483e-05	1.1132e-05	592.64	129.74	1.2846e-05	1.1503e-05	185.97	58.209	37.699	10.738	1.0588e-05	18.373	358.515	311.340	261.216	187.796	272.909	321.220	186.079	192.932	503.318	331.909	190.041	194.969	196.762	202.314	494.631	199.061	-8191	255	
18380.629	1	1	0	0	0.20725	0.037447	0.087955	0.13256	0.14327	0.059643	0.16335	0.20265	0.15908	0.044745	0.080915	0.3376	0.12074	0.042238	0.32242	0.10891	-2.2687	-3.3396	-2.8375	-2.8125	-3.025	-2.7354	-3.1354	-3.0833	-2.6792	-3.1188	-3.1063	-2.9083	-3.2812	-2.8375	-2.8896	-2.9521	384.005	480.565	192.212	390.332	326.475	222.606	471.441	423.180	516.084	193.875	513.222	503.507	188.898	474.270	411.115	283.832	0.00054722	0.00049641	4.8973e-05	501.76	4.2419e-06	4.0695e-06	655.38	142.8	6.2761e-06	4.4663e-06	202.65	63.856	40.987	11.558	2.0554e-06	20	0.00081437	0.0010712	0.00029082	452.48	1.0257e-05	1.1503e-05	591.99	130.12	1.2704e-05	1.1383e-05	185.1	58.009	37.591	10.774	1.0854e-05	18.358	368.579	278.255	512.801	187.765	307.950	381.338	186.260	191.960	340.788	333.516	190.114	194.055	196.521	201.919	202.096	198.891	-8191	255	
18380.748	1	1	0	0	0.035679	0.07419	0.11037	0.13057	0.20592	0.13339	0.21321	0.29081	0.1929	0.058147	0.4772	0.058191	0.21454	0.08334	0.11502	0.10329	-2.4167	-3.1562	-2.9792	-2.8521	-3.1833	-2.7729	-2.9167	-2.8958	-2.7729	-3.0062	-3.0146	-2.8333	-3.1229	-2.8063	-2.8542	-2.9375	477.534	465.929	342.103	302.825	423.571	176.646	231.638	469.757	406.933	302.867	518.219	360.263	311.726	475.207	269.079	490.804	0.00054719	0.00025364	8.2303e-05	489.11	1.7063e-06	3.6137e-06	644.6	141.67	7.7339e-06	1.2928e-06	200.06	62.691	39.924	11.307	4.2013e-06	19.525	0.00079182	0.0010193	0.00027798	445.62	1.0418e-05	1.1616e-05	582.51	128.57	1.2417e-05	1.0935e-05	182.07	56.876	36.574	10.546	1.0527e-05	17.921	361.968	311.381	230.142	187.394	208.381	285.471	185.866	192.588	224.719	295.355	189.979	194.560	196.917	201.404	236.869	198.739	-8191	255	
18380.846	1	1	0	0	0.35316	0.071382	0.27708	0.15787	0.244	0.2935	0.26387	0.084881	0.11581	0.18402	0.063576	0.2142	0.30458	0.098999	0.051456	0.053609	-2.475	-3.0979	-2.9625	-2.8604	-3.1229	-2.8063	-2.9792	-3.0479	-2.6792	-2.8917	-3.0396	-2.8271	-3.0625	-2.8333	-2.8812	-3.3521	362.228	361.318	316.020	220.768	380.628	270.461	452.287	217.761	265.396	195.221	514.112	459.801	505.110	498.430	358.307	366.698	0.00054771	0.00032446	2.125e-05	480.08	3.7511e-06	2.5657e-06	639.73	139.04	6.2182e-06	3.4063e-06	198.25	62.079	39.911	11.24	2.1003e-06	19.575	0.00069866	0.0009466	0.0002604	435.41	9.4908e-06	1.0385e-05	573.82	125.7	1.1137e-05	1.0142e-05	180.34	56.414	36.446	10.488	1.2188e-05	18.015	355.889	296.762	461.554	187.898	306.188	354.966	186.516	192.751	336.617	359.953	190.283	194.514	196.784	202.777	337.645	198.294	-8191	255	
18380.941	1	1	0	0	0.19846	0.011739	0.3236	0.04237	0.18167	0.059074	0.38165	0.13161	0.098411	0.083357	0.1275	0.27387	0.275	0.2207	0.069753	0.157	-2.1875	-2.9417	-2.9167	-2.7313	-3.1458	-2.9375	-2.7583	-3.1083	-2.8187	-3.0625	-3.0667	-2.7479	-2.9938	-2.775	-2.7271	-3.0583	286.882	206.378	359.610	232.527	506.238	392.254	456.743	237.080	453.832	429.613	326.973	295.058	186.457	231.887	280.477	438.181	0.00055201	0.00028198	9.0341e-05	466.89	2.7373e-06	9.7129e-07	715.65	155.97	7.263e-06	1.5249e-06	222.51	69.571	44.377	12.797	4.3072e-06	21.861	0.00072011	0.00093653	0.00025416	416.93	9.7077e-06	1.1375e-05	630.62	138.47	1.3486e-05	1.125e-05	198.06	62.268	39.949	11.605	1.321e-05	19.786	349.979	259.540	288.269	181.490	231.418	400.047	184.247	191.279	343.902	421.610	188.553	193.340	194.846	200.476	218.712	197.088	-8191	255	
18381.037	1	1	0	0	0.12082	0.10133	0.18668	0.11036	0.16164	0.26265	0.33513	0.28806	0.11273	0.062006	0.31725	0.29644	0.18066	0.19792	0.090175	0.1302	-2.3896	-3.0021	-2.9771	-2.8417	-3.0187	-3.0042	-2.9417	-3.0708	-2.8854	-2.8604	-3.2625	-2.6937	-3.0208	-3.0854	-2.6646	-3.0812	290.395	189.818	241.777	471.644	245.891	352.031	440.522	486.732	320.298	247.730	182.042	490.557	444.330	461.349	220.009	412.800	0.00055187	0.00030373	0.00012129	541.01	3.7705e-06	4.8344e-06	716.02	156.1	5.3272e-06	3.8437e-06	221.41	69.394	45.019	12.199	3.2963e-06	23.899	0.00081063	0.001081	0.00027898	481.86	1.0523e-05	1.1569e-05	634.99	139.02	1.1753e-05	1.2692e-05	198.75	62.3	40.392	10.742	1.3982e-05	21.381	361.705	275.731	215.652	185.917	351.720	380.498	184.646	191.167	398.409	263.662	188.449	192.976	195.448	188.719	306.618	195.533	-8191	255	
18381.133	1	1	0	0	0.18306	0.23342	0.1714	0.17594	0.14685	0.079826	0.29586	0.20503	0.13525	0.073655	0.11179	0.023373	0.18518	0.15456	0.18757	0.13085	-2.5396	-2.8625	-3.0542	-2.8979	-3.25	-3.0542	-2.9	-3.0333	-2.9604	-3.0042	-3.1896	-2.8771	-3.0292	-3.1063	-2.8521	-3.0604	451.639	412.673	175.507	487.796	215.316	232.280	480.986	384.931	302.241	411.101	196.146	510.077	388.442	491.798	277.255	212.950	0.00050965	0.00019337	4.2501e-05	598.78	8.2364e-06	2.9277e-06	793.33	173.35	1.0902e-05	3.1139e-06	245.4	77.22	50.044	14.124	4.4459e-06	24.039	0.00087113	0.0011522	0.00029106	523.12	1.111e-05	1.2213e-05	689.37	151.65	1.1433e-05	1.5556e-05	215.48	67.652	43.996	12.597	1.3907e-05	21.451	366.803	250.648	267.413	184.502	281.230	282.435	183.276	189.546	315.255	240.905	187.268	191.506	193.675	199.229	414.248	195.139	-8191	255	
18381.229	1	1	0	0	0.19432	0.28536	0.099184	0.09535	0.042474	0.16717	0.21444	0.23473	0.07284	0.060859	0.25276	0.21648	0.085171	0.2024	0.081462	0.26517	-2.4875	-2.8979	-3.2	-2.8625	-3.1583	-3.0312	-2.8167	-3.1833	-2.8979	-2.7896	-3.0687	-3.0354	-2.8167	-3.0917	-2.8646	-3.1937	502.231	406.151	308.274	308.106	448.365	180.176	435.591	518.223	285.536	288.601	423.480	479.456	339.229	393.694	234.379	450.499	0.00075483	0.00042805	8.8097e-05	600.47	3.4918e-06	3.3092e-06	791.22	173.81	3.3822e-06	3.6245e-06	246.97	78.53	49.77	14.262	7.1954e-06	24.233	0.00086481	0.0011131	0.00029204	526.09	1.1199e-05	1.2253e-05	692.49	151.64	1.1788e-05	1.4978e-05	216.71	68.396	44.032	12.673	1.4591e-05	21.596	359.759	243.166	276.734	184.882	306.328	263.901	182.546	189.576	340.637	373.551	187.868	191.930	193.303	199.208	337.012	195.998	-8191	255	
18381.348	1	1	0	0	0.12645	0.079318	0.034009	0.082607	0.059095	0.16576	0.32231	0.26646	0.15823	0.096859	0.050916	0.12072	0.076596	0.030726	0.18175	0.21124	-2.5687	-2.7542	-3.0542	-2.8396	-3.0938	-3.0708	-2.8958	-3.1667	-3.1771	-2.8625	-3.2146	-2.9271	-2.9833	-2.95	-2.8125	-3.1	190.181	488.078	208.492	274.028	460.247	381.591	462.074	530.209	181.182	244.186	190.228	467.565	461.031	256.438	500.186	390.781	0.00074843	0.00062253	8.8757e-05	601.48	6.1446e-06	2.7884e-06	797.74	172.31	1.5757e-06	5.6889e-06	245.88	77.123	49.929	14.172	3.6704e-06	24.18	0.00081685	0.0010882	0.00030831	525.71	1.2635e-05	1.2743e-05	693.16	151.36	1.0987e-05	1.54e-05	216.45	67.828	44.106	12.629	1.4072e-05	21.495	364.599	243.848	290.281	184.758	307.092	244.260	183.181	189.937	329.722	359.378	187.641	192.084	193.478	199.115	321.693	195.858	-8191	255	
18381.443	1	1	0	0	0.22965	0.097815	0.16905	0.30798	0.33753	0.11779	0.31062	0.075943	0.22925	0.0085819	0.079264	0.18742	0.050804	0.19095	0.17871	0.21853	-2.5271	-2.7521	-2.9604	-2.8896	-2.8583	-3.2708	-2.8792	-3.1292	-2.8833	-2.8667	-3.1583	-2.9583	-3.0396	-3.2062	-2.875	-3.1188	525.245	477.172	336.487	506.766	379.072	462.096	496.551	452.011	348.587	508.867	512.435	338.426	201.129	527.912	504.393	506.522	0.00062316	0.00031087	0.00010739	601.11	5.759e-07	6.8647e-06	787.91	172.62	8.7346e-06	9.0698e-06	245.31	76.933	49.483	14.069	2.6566e-06	23.212	0.00080326	0.0010838	0.00028686	523.93	1.3839e-05	1.1149e-05	688.43	150.44	1.0193e-05	1.363e-05	214.5	67.121	43.586	12.525	1.3333e-05	19.601	353.210	264.092	271.390	184.939	211.396	306.965	183.036	189.201	323.200	334.433	187.125	191.658	194.462	199.295	498.922	182.420	-8191	255	
18381.539	1	1	0	0	0.096735	0.048307	0.12591	0.22327	0.057254	0.2287	0.17503	0.39551	0.28499	0.3061	0.13241	0.17746	0.14351	0.19943	0.099483	0.21119	-2.7604	-2.7812	-3.1042	-3.1667	-3.0979	-3.1854	-2.9896	-3.0042	-3.1396	-2.875	-3.0687	-3.0792	-2.7833	-3.0646	-2.9167	-3.2292	236.609	433.284	427.120	190.097	278.579	521.184	354.344	452.777	249.778	261.879	433.725	395.797	188.456	198.293	386.282	442.706	0.00073145	0.00029397	0.00014599	660.29	7.2142e-06	6.3625e-06	857.72	188.06	1.2911e-05	8.7113e-06	270.18	83.996	54.767	15.617	3.517e-06	26.292	0.00083921	0.0011191	0.00030384	561.22	1.3424e-05	1.2123e-05	736.55	162.1	1.1052e-05	1.6014e-05	232.87	72.405	47.524	13.64	1.2289e-05	22.982	364.374	217.760	233.875	182.963	314.164	317.116	181.760	188.139	330.040	390.059	186.446	190.199	192.566	197.272	347.078	194.560	-8191	255	
18381.637	1	1	0	0	0.069167	0.17897	0.16375	0.16229	0.10713	0.11419	0.12969	0.10206	0.231	0.18363	0.1663	0.050663	0.13314	0.30207	0.27757	0.17714	-2.6854	-2.7083	-3.0333	-3.0042	-2.9604	-3.1063	-3.0062	-2.9667	-3.1292	-2.9708	-3.1937	-3.2208	-2.9958	-3.2479	-2.7417	-2.9917	419.664	342.825	383.287	465.392	461.179	422.871	210.746	298.806	188.227	373.166	461.357	219.133	493.543	228.522	365.293	253.016	0.00080454	0.00027074	0.00021141	663.66	5.7264e-06	4.0706e-06	871.39	191.18	1.3578e-05	1.5514e-06	270.72	84.895	55.071	15.664	9.8512e-06	26.334	0.00089495	0.001161	0.0003093	564.6	1.4621e-05	1.2127e-05	742.96	163.06	1.1781e-05	1.592e-05	232.31	72.885	47.551	13.602	1.2162e-05	23.122	357.427	302.760	270.799	183.159	335.594	347.161	181.828	188.277	285.985	380.996	186.395	190.504	192.722	197.677	336.922	194.775	-8191	255	
18381.732	1	1	0	0	0.074424	0.084538	0.1186	0.1309	0.29848	0.0064216	0.22214	0.052695	0.21321	0.19462	0.16606	0.22505	0.13824	0.092356	0.092378	0.0036589	-2.5938	-2.8604	-3.0229	-3.2104	-2.9229	-3.1604	-2.9667	-2.8958	-3.1521	-2.8583	-3.1063	-2.9542	-2.8479	-3.025	-3.0187	-2.8042	438.005	430.000	409.363	212.211	357.811	428.066	427.365	383.493	337.855	213.926	479.546	183.838	310.337	215.530	521.416	378.346	0.00075507	0.00033441	0.00015346	662.59	7.9143e-06	1.8133e-06	867.96	191.56	5.614e-06	5.4538e-06	268.71	84.907	55.692	15.635	4.046e-06	26.846	0.00089162	0.0011283	0.00032274	566.52	1.3853e-05	1.2424e-05	743.44	163.8	1.154e-05	1.5591e-05	232.88	73.188	47.856	13.705	1.1813e-05	23.423	363.754	263.849	229.087	183.071	293.309	323.520	181.884	188.249	294.704	388.078	186.385	190.154	192.717	197.610	291.057	193.536	-8191	255	
18381.828	1	1	0	0	0.13634	0.12232	0.10908	0.14176	0.092168	0.23278	0.24799	0.15904	0.21146	0.18901	0.069031	0.09125	0.12276	0.015352	0.14033	0.10982	-2.6813	-2.6375	-2.8896	-3.2062	-2.7854	-2.9688	-3.1688	-2.9688	-3.2521	-2.875	-3.0812	-3.1771	-2.8417	-3.0896	-2.9646	-2.8792	251.558	408.536	276.238	185.176	322.132	269.034	372.774	466.161	380.550	290.903	261.156	170.862	514.873	375.922	219.171	198.706	0.00070132	0.000798	9.8323e-05	669.08	8.9757e-06	3.6075e-06	877.2	192.5	7.137e-06	6.2067e-06	272.24	86.414	56.124	15.894	6.8671e-06	27.067	0.00090314	0.0011707	0.00032094	572.33	1.583e-05	1.3141e-05	751.93	165.32	1.1721e-05	1.4239e-05	236.34	74.254	48.489	13.962	1.2168e-05	23.656	359.798	324.778	246.130	183.096	324.194	372.149	181.979	188.156	353.227	332.672	185.569	190.570	192.780	197.251	329.621	193.984	-8191	255	
18381.926	1	1	0	0	0.080278	0.19657	0.19357	0.089866	0.12195	0.083138	0.24412	0.23792	0.21347	0.25679	0.065084	0.11895	0.23825	0.063574	0.19152	0.15556	-2.7021	-2.875	-3.0021	-3.1146	-2.8396	-2.9625	-3.1312	-2.8167	-3.1083	-2.9188	-2.9208	-3.0417	-2.95	-2.9208	-2.8771	-3.0042	448.872	496.568	462.231	468.730	409.178	334.622	416.434	463.262	460.984	314.331	500.136	192.984	412.939	178.700	306.943	473.038	0.00061727	0.00033427	6.8733e-05	676.33	7.7989e-06	3.5818e-06	886	196.46	3.6271e-06	4.9891e-06	275.84	86.795	56.383	16.045	4.6947e-06	27.328	0.00094211	0.0012374	0.00034491	578.9	1.5167e-05	1.3311e-05	760.42	168.89	1.2344e-05	1.328e-05	239.08	74.926	48.794	14.053	1.2072e-05	23.759	366.538	250.073	244.078	183.396	338.090	287.677	181.880	188.225	404.788	299.451	185.969	190.513	192.204	197.264	387.514	194.411	-8191	255	
18382.047	1	1	0	0	0.065745	0.053448	0.26524	0.079509	0.1688	0.17995	0.11662	0.13329	0.1883	0.016681	0.1934	0.034396	0.085052	0.28467	0.17358	0.13072	-2.7604	-2.8521	-2.9104	-3.1375	-2.7896	-2.9604	-3.1729	-2.8104	-3.0792	-3.075	-2.8625	-3.2354	-2.8875	-3.075	-3.0396	-2.9	497.452	226.424	514.131	181.426	219.975	212.244	461.824	462.542	433.317	207.123	495.076	389.129	270.198	466.842	391.093	496.762	0.00059492	0.00030402	0.0001518	673.32	4.1937e-06	8.7421e-06	888.6	195.08	4.6481e-06	3.3593e-06	274.16	86.476	57.001	16.147	7.507e-06	26.945	0.00093394	0.0012298	0.00033035	578.35	1.5243e-05	1.4253e-05	759.43	167.85	1.2101e-05	1.3608e-05	237.72	74.764	49.258	14.017	1.2434e-05	23.659	356.424	335.213	256.674	183.431	332.007	323.222	181.660	188.490	376.442	371.291	186.217	190.444	192.300	198.283	330.484	195.023	-8191	255	
18382.141	1	1	0	0	0.29954	0.23344	0.13885	0.19918	0.28056	0.20363	0.03771	0.23213	0.037201	0.072784	0.012978	0.31179	0.17428	0.24948	0.065078	0.24319	-2.7917	-3.0271	-2.8833	-3.2271	-2.675	-2.8979	-3.3104	-2.7062	-3.0771	-3.0333	-2.8583	-3.1729	-2.9792	-2.8021	-3.1833	-2.7292	411.570	478.143	178.439	422.499	411.962	202.965	304.881	503.502	193.533	348.749	343.938	516.201	442.265	241.650	251.275	501.138	0.00080011	0.00027604	8.7958e-05	679.61	3.6725e-06	2.1579e-06	895.71	196.46	1.9658e-06	2.1541e-06	276.76	86.559	56.828	15.999	4.7313e-06	27.362	0.00091967	0.0012365	0.00033928	581.83	1.2552e-05	1.6169e-05	760.01	168.06	1.2578e-05	1.3547e-05	239.46	74.645	49.131	14.108	1.2104e-05	23.967	358.194	178.509	211.040	183.606	494.980	529.544	181.948	188.421	276.328	379.372	185.927	190.111	192.702	198.539	331.916	194.301	-8191	255	
18382.213	1	1	0	0	0.13264	0.12747	0.14044	0.24251	0.4106	0.18873	0.20785	0.084764	0.090881	0.21931	0.2088	0.15509	0.10041	0.050679	0.14073	0.19072	-2.6729	-3.0458	-2.8021	-3.0271	-2.8958	-2.7896	-3.1354	-2.8771	-3.0938	-3.0042	-2.9604	-3.0917	-2.9208	-2.8333	-3.0438	-2.9104	349.824	493.769	481.368	389.128	411.403	322.362	489.343	419.446	426.376	201.873	464.130	483.435	451.541	448.722	327.331	409.089	0.00073987	0.00066317	0.00023125	672.8	3.6295e-06	6.4038e-06	887.44	195.02	2.6595e-06	1.1788e-05	275.95	86.622	57.402	16.041	8.4606e-07	27.233	0.00094984	0.0011889	0.00034063	577.36	1.2619e-05	1.7576e-05	760.46	167.74	1.2354e-05	1.3945e-05	239.42	74.616	49.183	14.108	1.28e-05	23.894	354.737	300.899	224.480	183.049	288.966	344.971	181.479	188.316	394.856	351.227	186.458	190.413	193.084	197.512	326.108	194.618	-8191	255	
18382.311	1	1	0	0	0.094834	0.17328	0.085577	0.14005	0.19528	0.18378	0.25182	0.051027	0.067989	0.10829	0.2656	0.13434	0.21271	0.1233	0.201	0.043564	-2.6583	-3.1146	-2.8354	-3.2771	-3.0854	-2.7938	-3.1917	-2.9188	-3.0104	-3.1042	-2.9417	-3.2396	-3.0479	-2.8208	-3.1562	-2.7917	274.470	518.092	430.014	466.263	511.935	266.331	447.451	481.135	358.681	328.164	204.396	182.239	526.284	321.816	235.756	424.702	0.00072961	0.00063685	0.00025273	679.27	2.0253e-06	8.8701e-06	886.37	195.99	5.7794e-06	2.781e-06	274.43	86.168	56.743	16.013	2.5363e-06	26.668	0.00098036	0.0012224	0.00034148	580.62	1.2499e-05	1.6991e-05	755.91	168.4	1.2111e-05	1.3643e-05	237.65	74.544	48.983	14.078	1.2722e-05	23.636	357.163	290.941	264.635	183.263	199.147	326.101	181.655	188.539	278.030	295.747	185.757	190.073	192.421	197.720	247.167	194.666	-8191	255	
18382.428	1	1	0	0	0.19119	0.14663	0.09218	0.23015	0.096609	0.10762	0.12015	0.174	0.18496	0.016111	0.22219	0.22124	0.2965	0.17691	0.13936	0.20386	-2.5833	-3.0292	-2.6979	-3.1688	-2.8333	-3.0312	-3.1104	-2.9604	-2.9542	-3.175	-2.9542	-3.075	-3.0208	-2.9333	-3.0854	-3.0979	517.736	346.907	294.681	464.195	330.739	249.653	512.045	430.384	271.412	268.674	383.517	291.290	188.327	339.016	392.458	398.121	0.00079707	0.00034258	7.001e-05	673.92	4.7557e-06	3.1326e-06	889.24	196.36	1.0609e-05	4.5395e-06	276.95	86.324	56.924	15.82	1.8697e-06	26.948	0.0010802	0.0011886	0.00033365	579.6	1.2477e-05	1.7339e-05	759.7	167.77	1.3137e-05	1.3522e-05	238	74.279	48.997	13.94	1.3482e-05	23.408	352.951	260.766	219.371	183.391	287.902	240.857	181.891	188.111	349.254	329.553	185.776	190.402	192.350	197.642	183.453	193.819	-8191	255	
18382.525	1	1	0	0	0.048366	0.17946	0.11281	0.025087	0.10789	0.23499	0.22939	0.18535	0.20614	0.10106	0.15656	0.14618	0.045324	0.18117	0.12629	0.056791	-2.6208	-3.0354	-2.9271	-3.1583	-3.1104	-2.8187	-3.0479	-2.9021	-2.8438	-3.0563	-2.8667	-3.1604	-3.0833	-2.9542	-3.15	-2.7625	221.711	485.250	227.981	522.237	468.618	525.440	514.174	408.982	181.963	525.697	479.255	448.838	407.999	264.963	280.272	227.918	0.00078097	0.0010213	7.1303e-05	678.22	5.3915e-06	7.8235e-07	886.72	195.14	4.312e-06	8.9495e-06	274	85.649	56.559	15.839	2.6679e-06	26.866	0.0011645	0.0012486	0.00034721	579.82	1.2772e-05	1.711e-05	759.2	167.92	1.2984e-05	1.3795e-05	238.58	74.419	49.003	13.971	1.3776e-05	23.562	366.421	260.434	198.575	183.197	332.426	462.208	181.800	187.678	293.653	366.054	186.025	190.188	192.365	198.221	382.328	194.147	-8191	255	
18382.621	1	1	0	0	0.20789	0.16572	0.17903	0.051844	0.2473	0.37447	0.1844	0.020515	0.11008	0.19005	0.36387	0.16008	0.10903	0.30347	0.043362	0.093824	-2.6021	-3.1562	-2.8021	-2.9437	-3.025	-2.9083	-3.2333	-3.0021	-3.1958	-3.1021	-2.9542	-3	-3.1958	-2.8937	-3.2896	-3.1375	466.888	431.583	268.617	410.706	407.400	515.637	338.099	290.439	417.475	285.186	171.994	243.401	455.036	221.895	270.448	190.675	0.00081958	0.00056433	0.00015348	676.75	6.4056e-06	1.0096e-05	892.91	195.98	7.5169e-06	2.549e-06	274.57	87.803	57.116	15.978	7.1253e-06	28.961	0.0011409	0.0012395	0.00034377	581	1.2251e-05	1.7866e-05	761.68	168.45	1.3108e-05	1.2982e-05	238.8	75.247	49.384	14.048	1.3563e-05	24.724	369.429	259.587	263.618	183.436	263.266	368.281	181.741	188.219	275.393	295.336	186.087	190.864	192.624	197.725	345.233	190.243	-8191	255	
18382.740	1	1	0	0	0.10956	0.20982	0.24436	0.037056	0.010501	0.26258	0.125	0.061213	0.23616	0.039541	0.086715	0.25926	0.156	0.20061	0.13127	0.12645	-2.4979	-3.1562	-2.975	-3.1229	-3.1083	-2.9854	-3.1667	-3.0792	-2.8292	-3.1688	-3.0312	-2.9458	-3.0979	-2.9708	-3.0896	-3.0125	197.846	469.077	358.525	441.745	258.366	368.459	177.969	516.529	364.832	190.035	384.162	504.166	498.717	174.931	315.577	206.779	0.00087058	0.00038213	0.0001994	746.44	9.4538e-06	7.3309e-06	974.81	215.74	1.2912e-05	5.9929e-06	306.35	95.843	62.176	17.729	1.0351e-06	29.526	0.0012776	0.0013269	0.00037682	629.72	1.4148e-05	1.9258e-05	824.01	182.83	1.4037e-05	1.5422e-05	258.4	81.353	53.13	15.287	1.3978e-05	25.629	364.894	267.285	249.400	181.906	344.427	342.015	180.694	187.190	297.429	308.090	184.752	189.280	191.190	196.567	259.126	192.642	-8191	255	
18382.838	1	1	0	0	0.234	0.09966	0.17027	0.18077	0.21975	0.15887	0.16824	0.03409	0.1815	0.12215	0.23862	0.085321	0.1381	0.35148	0.12914	0.20693	-2.5542	-2.9854	-2.7208	-2.9146	-3.2562	-2.7646	-3.0667	-3.3063	-2.7854	-3.1312	-2.8688	-3.0479	-3.1229	-2.8104	-3	-3.0021	518.190	284.600	431.520	235.440	512.908	264.967	384.704	186.317	228.845	322.881	395.120	514.497	214.080	508.969	520.182	200.777	0.00086176	0.00030299	0.00013198	751.14	3.8073e-06	5.2419e-06	974.43	218.58	1.5607e-05	7.3514e-06	321.09	104.78	69.005	19.629	6.8858e-06	32.732	0.001252	0.0013752	0.00039139	631.72	1.4062e-05	1.8366e-05	825.49	184.34	1.3831e-05	1.6532e-05	263.37	87.215	57.975	16.613	1.619e-05	27.783	361.542	248.626	217.531	182.081	347.169	387.238	180.594	187.601	259.830	313.757	177.866	187.342	190.674	195.380	293.543	192.569	-8191	255	
18382.908	1	1	0	0	0.24142	0.12205	0.068617	0.36846	0.086494	0.17556	0.24649	0.4058	0.10506	0.20426	0.10872	0.030759	0.081602	0.38497	0.25598	0.14266	-2.3521	-3.1937	-2.8021	-2.7562	-3.2708	-3.0208	-3.2438	-3.075	-2.7896	-3.2229	-3.2146	-3.025	-3.2271	-2.9667	-3.0021	-3.1208	259.046	466.844	484.586	511.353	353.181	506.215	467.708	489.312	514.313	226.850	244.385	493.264	379.501	173.368	250.527	447.739	0.00090288	0.00069434	9.5384e-05	833	3.7332e-06	1.8866e-06	1093.5	241.82	1.1885e-05	6.7579e-06	332.44	105.91	69.099	19.634	8.3894e-06	33.053	0.0014709	0.0015372	0.00041963	690.27	1.6029e-05	1.8039e-05	904.71	200.22	1.5422e-05	1.7577e-05	281.08	88.752	58.043	16.648	1.6436e-05	27.953	375.634	261.615	208.691	180.985	337.035	359.007	179.715	185.615	364.245	316.968	183.464	188.384	190.133	195.868	309.987	192.032	-8191	255	
18383.029	1	1	0	0	0.084497	0.16276	0.066224	0.11501	0.096616	0.037425	0.31355	0.26968	0.023056	0.13453	0.33909	0.22829	0.15421	0.19503	0.07908	0.065342	-2.475	-2.9562	-2.8688	-2.9396	-3.125	-2.8354	-3.1625	-3.1729	-2.8583	-3.2625	-3.0896	-2.9354	-3.0563	-3.0271	-2.8083	-3.1167	197.330	304.188	397.167	218.260	182.986	340.903	512.425	460.058	391.918	275.707	503.477	497.748	215.893	232.825	316.491	421.889	0.00091656	0.00066597	8.8391e-05	831.75	9.7846e-06	4.774e-06	1084.3	241.3	1.2444e-05	4.6258e-06	336.55	105.7	69.165	19.743	2.9606e-06	33.264	0.0013902	0.0015828	0.00043293	688.93	1.6336e-05	1.7004e-05	903.11	199.69	1.5806e-05	1.7327e-05	281.66	88.715	57.741	16.735	1.6601e-05	28.1	357.641	243.673	241.880	180.813	299.687	288.167	179.841	185.981	288.273	201.684	183.465	188.147	190.428	194.806	404.847	192.446	-8191	255	
18383.127	1	1	0	0	0.20377	0.21392	0.13414	0.22117	0.089606	0.13939	0.11338	0.19013	0.028133	0.23952	0.16163	0.15403	0.17656	0.14444	0.14449	0.072869	-2.4896	-3.0167	-2.9896	-2.8187	-3.1188	-2.8875	-3.0812	-3.1708	-2.8646	-2.9104	-3.3208	-2.9021	-3.0083	-2.925	-2.8583	-2.9896	356.417	518.008	416.175	465.372	269.620	283.471	344.731	504.385	366.388	412.040	445.401	485.940	496.886	400.189	513.670	228.543	0.0010178	0.00055293	0.0001198	820.42	6.6423e-06	2.7018e-06	1084.8	239.86	1.6291e-05	4.257e-06	336.34	105.58	69.051	19.677	5.4704e-06	32.591	0.0013748	0.0016589	0.00043961	686.39	1.5706e-05	1.7738e-05	902.55	199.39	1.6001e-05	1.673e-05	280.79	88.112	57.947	16.736	1.6691e-05	27.774	359.324	285.136	466.875	181.190	444.990	239.289	180.144	185.506	323.145	284.319	183.490	188.267	190.566	195.758	246.190	192.273	-8191	255	
18383.223	1	1	0	0	0.25437	0.15417	0.15539	0.14061	0.13459	0.15741	0.071387	0.1003	0.18203	0.10237	0.17965	0.07076	0.2357	0.13569	0.10555	0.079788	-2.4896	-2.7479	-3.0479	-2.8208	-2.9958	-2.9708	-3.025	-3.2583	-2.7958	-2.9083	-2.9833	-2.8042	-2.9729	-2.9479	-2.8208	-3.1188	283.814	221.199	272.459	252.200	493.508	180.457	461.404	242.160	224.078	188.122	240.381	497.560	344.859	477.385	186.272	294.605	0.00071113	0.0012065	0.0001224	831.17	3.9214e-06	3.1889e-06	1070.9	239.05	1.4911e-05	3.2903e-06	336.7	105.72	68.375	19.506	5.3695e-06	32.457	0.0011719	0.0018704	0.00044563	686.86	1.5272e-05	1.7379e-05	893.52	198.48	1.5841e-05	1.7802e-05	279.31	87.84	57.41	16.53	1.6032e-05	27.597	366.171	272.320	416.694	181.028	328.323	276.277	179.612	185.695	322.715	212.911	183.732	188.445	190.600	195.415	309.622	192.296	-8191	255	
18383.342	1	1	0	0	0.043969	0.083378	0.15215	0.21951	0.068094	0.072341	0.047013	0.029525	0.05578	0.051807	0.069206	0.11403	0.16166	0.063514	0.14456	0.31498	-2.3312	-2.7812	-3.0854	-2.7708	-3.1417	-2.9292	-2.7646	-3.1583	-2.6813	-2.7542	-3.2875	-2.6937	-3.1292	-3.0875	-2.7062	-3.2083	399.199	315.731	228.926	473.939	296.832	235.871	380.208	216.475	404.807	182.752	500.834	419.775	486.584	377.469	388.894	387.974	0.00077396	0.00097642	0.00012084	821.5	2.1725e-06	4.7374e-06	1074.5	237.75	2.1514e-05	3.9877e-06	338.02	105.12	68.916	19.292	7.7814e-06	32.545	0.0012024	0.0020205	0.00042662	683.42	1.5925e-05	1.761e-05	893.75	197.87	1.5885e-05	1.7637e-05	280.23	87.593	57.856	16.511	1.6406e-05	27.644	371.783	252.581	232.825	181.381	500.357	425.956	179.822	186.074	274.221	365.384	183.625	187.998	190.220	195.655	285.113	192.331	-8191	255	
18383.438	1	1	0	0	0.16729	0.42449	0.18336	0.14335	0.16334	0.18384	0.14443	0.13227	0.17782	0.19818	0.36058	0.1828	0.10442	0.086363	0.12021	0.06735	-2.5396	-2.6792	-3.0958	-2.8583	-2.8875	-3.0438	-2.9292	-3.0354	-2.9562	-2.8312	-3.1146	-2.9833	-3.0667	-3.0125	-2.9375	-3.2458	192.511	206.772	335.458	440.710	509.945	327.807	457.440	476.363	335.786	323.871	177.866	180.000	527.531	453.901	315.879	434.876	0.00078873	0.0011584	0.00012509	819.63	5.0791e-06	3.4911e-06	1070.5	238.78	1.1863e-05	1.1241e-05	332.76	104.82	69.184	19.328	1.1737e-05	32.63	0.0012199	0.0018715	0.00042286	684.2	1.5909e-05	1.6751e-05	895.86	197.59	1.5236e-05	1.7361e-05	279.67	87.675	58.092	16.495	1.6191e-05	27.621	368.656	250.176	284.121	181.405	339.269	347.091	179.295	185.725	310.717	318.213	183.654	187.954	190.094	195.264	311.849	192.241	-8191	255	
18383.510	1	1	0	0	0.10095	0.35365	0.081992	0.13984	0.12205	0.15137	0.12903	0.23605	0.261	0.10556	0.32223	0.2165	0.13406	0.051419	0.039122	0.16333	-2.4833	-2.7208	-3.2229	-2.8833	-2.8854	-3.1312	-2.9542	-3.1125	-2.9708	-2.8063	-3.3146	-2.9104	-2.9417	-2.9604	-2.9	-3.1083	169.860	434.907	170.659	517.418	487.350	274.691	423.850	467.559	185.550	301.778	452.604	485.530	197.804	299.261	196.303	392.806	0.00083248	0.0010395	2.6956e-05	833.34	4.4681e-06	4.5607e-06	1074.6	238.46	1.0363e-05	6.7758e-06	337.12	104.88	69.116	19.572	1.4053e-06	32.732	0.0011737	0.0019716	0.00041909	686.62	1.6365e-05	1.6932e-05	894.66	198.11	1.5722e-05	1.7173e-05	279.56	87.472	58.28	16.562	1.6738e-05	27.685	354.867	279.039	424.064	181.384	268.925	353.418	179.538	185.921	303.544	341.307	183.658	187.653	190.010	195.627	493.087	191.819	-8191	255	
18383.605	1	1	0	0	0.15669	0.25287	0.088454	0.19168	0.18729	0.038425	0.028669	0.23721	0.088192	0.15826	0.2848	0.16987	0.086909	0.22503	0.20157	0.23558	-2.5083	-2.7125	-2.9917	-3.0604	-2.8187	-3.0021	-2.9875	-3.1583	-3.1	-2.8771	-3.2958	-2.9667	-2.8396	-3.0833	-2.7167	-3.0875	481.176	239.992	476.244	491.135	271.709	497.069	395.977	452.705	253.550	429.179	475.267	177.730	525.637	524.916	220.015	493.408	0.00083337	0.0010162	0.00016349	896.35	5.4656e-06	4.9403e-06	1179.9	261.28	1.5984e-05	9.037e-06	366.1	114.09	74.92	21.409	7.3119e-06	35.618	0.001168	0.0018232	0.00043683	733.45	1.7364e-05	1.8384e-05	961.81	214.56	1.6917e-05	1.7462e-05	300.79	93.938	62.365	17.88	1.7624e-05	29.719	358.418	287.249	255.423	179.493	315.096	272.055	178.692	184.583	235.277	266.843	182.832	186.785	189.117	194.380	329.981	191.137	-8191	255	
18383.727	1	1	0	0	0.29792	0.14534	0.081268	0.16283	0.22925	0.14672	0.047019	0.12636	0.077038	0.10828	0.35298	0.18721	0.31206	0.090384	0.023324	0.35541	-2.5958	-2.8479	-2.9646	-2.9146	-2.9146	-3.1667	-2.9354	-2.9979	-3.0792	-2.8333	-3.1604	-2.8375	-2.8646	-3.175	-2.8688	-3.0292	261.989	202.589	424.353	480.760	240.668	365.706	343.097	481.274	372.864	232.136	477.621	439.960	195.026	498.903	212.234	413.318	0.00087341	0.0011356	6.355e-05	900.61	6.9691e-06	6.3131e-06	1175.9	262.63	2.402e-06	6.8839e-06	372.46	123.08	82.385	23.528	4.2165e-06	38.585	0.0012864	0.0020353	0.00045539	735.71	1.6592e-05	1.8101e-05	961.02	214.83	1.6791e-05	1.9683e-05	290.77	99.491	67.253	19.313	1.8541e-05	31.84	360.206	226.487	329.205	179.712	265.805	242.519	178.535	185.068	227.476	296.815	172.387	184.613	188.016	193.189	207.360	190.453	-8191	255	
18383.822	1	1	0	0	0.15596	0.16309	0.17383	0.3561	0.073498	0.17856	0.090452	0.080986	0.06202	0.21954	0.089447	0.12242	0.083011	0.10049	0.037348	0.36564	-2.8104	-2.7521	-3.0687	-2.8937	-2.8812	-3.1104	-3.2417	-3.1625	-2.9646	-2.8688	-3.0938	-2.8792	-2.8	-3.1729	-2.7875	-2.9896	397.700	458.198	450.465	471.143	448.184	172.324	437.184	454.059	375.857	291.469	474.458	485.781	391.228	282.659	362.626	487.965	0.00099216	0.0011135	0.00016564	1002.5	1.0111e-05	3.3741e-06	1280.4	287.84	3.4624e-06	4.9563e-06	398.14	125.54	82.176	23.537	1.12e-05	39.117	0.0013876	0.0021829	0.00049518	799.15	1.821e-05	2.0505e-05	1039.4	231.61	1.8697e-05	2.0557e-05	324.13	101.85	67.289	19.349	1.9209e-05	32.292	360.463	248.584	313.757	178.920	296.367	407.322	178.139	184.502	211.582	265.490	181.948	186.442	188.651	194.281	310.217	190.431	-8191	255	
18383.918	1	1	0	0	0.14366	0.084185	0.29737	0.19885	0.052758	0.057995	0.39625	0.11487	0.12102	0.25682	0.056786	0.11998	0.091533	0.33315	0.21874	0.40137	-2.7292	-2.7438	-3.0646	-3.0917	-2.7271	-3.1937	-3.0687	-2.9396	-2.9354	-2.7188	-3.0792	-3.2313	-2.7396	-2.9938	-3.0125	-2.8604	354.031	487.978	416.242	468.688	490.293	233.658	464.331	417.626	368.544	406.923	467.029	355.109	521.303	170.369	242.343	392.117	0.0010096	0.00038662	0.0002608	989.53	6.0279e-06	3.4932e-06	1294.3	284.43	1.3131e-05	7.3293e-06	400.11	125.43	84.051	23.713	1.5028e-05	39.129	0.0013868	0.0021152	0.00053571	798.78	1.8584e-05	2.0035e-05	1042.2	231.08	1.8593e-05	2.0438e-05	324.95	101.57	67.991	19.452	1.8702e-05	32.086	364.582	218.262	228.523	179.032	235.306	341.372	177.955	184.042	290.678	342.341	181.810	186.501	188.488	193.790	334.808	190.495	-8191	255	
18384.014	1	1	0	0	0.06819	0.012096	0.18553	0.13356	0.22201	0.14444	0.31441	0.36308	0.13949	0.19314	0.20689	0.16509	0.085408	0.15237	0.15273	0.07631	-2.7042	-2.7167	-3.0938	-3.1354	-2.9708	-3.0708	-3.0146	-2.8708	-3.1312	-2.8417	-2.9979	-3.0854	-2.8083	-3	-2.9208	-2.7042	192.759	311.163	456.645	380.488	377.240	176.445	461.536	502.144	461.645	245.934	412.321	242.965	267.639	478.896	367.348	193.238	0.001131	0.0012837	0.00017174	978.72	1.133e-05	1.621e-06	1288.2	285.79	2.3541e-05	1.1993e-05	395.27	124.71	82.642	23.548	4.515e-06	39.24	0.0013761	0.0019544	0.00062463	788.54	1.9226e-05	2.0467e-05	1035.9	230.99	1.8158e-05	2.1176e-05	321.46	100.9	67.327	19.38	1.8935e-05	32.165	363.838	291.694	295.143	179.361	254.379	438.658	178.538	184.469	341.493	270.558	182.046	186.563	189.274	193.845	388.839	190.534	-8191	255	
#DATA ENDS
