BOXY.EXE: ISS Imagent and Oximeter Data Acquisition Program Version 0.80
Ascii Record File

#ACQ INFORMATION
2  Detector Channels 
16  External MUX Channels 
1  Auxiliary Channels 
5000  Waveform (CCF) Frequency (Hz)
1  Waveforms Skipped 
30  Waveforms Averaged 
1  Cycles Averaged 
16  Acquisitions per Waveform 
10.0806  Updata Rate (Hz) 

#FILE INFORMATION
TRUE -- External MUX Channel results are PARSED.
FALSE -- AC DC and Phase are NOT grouped.
TRUE -- Companion Program Settings File CREATED.
FALSE -- AC data not excluded
FALSE -- DC data not excluded
FALSE -- Phase data not excluded
FALSE -- Auxillary Chn. data not excluded
Tab delimiters

#CALIBRATION STATE
TRUE -- Waveform Calibration Values APPLIED.


#AUX CALIBRATION VALUES
Val Type	aux-1	

Term	1.0000e+00	
Factor	0.0000e+00	


#WF CALIBRATION VALUES
A = Detector Channel
Val Type	A-AC1	A-AC2	A-AC3	A-AC4	A-AC5	A-AC6	A-AC7	A-AC8	A-AC9	A-AC10	A-AC11	A-AC12	A-AC13	A-AC14	A-AC15	A-AC16	A-DC1	A-DC2	A-DC3	A-DC4	A-DC5	A-DC6	A-DC7	A-DC8	A-DC9	A-DC10	A-DC11	A-DC12	A-DC13	A-DC14	A-DC15	A-DC16	A-Ph1	A-Ph2	A-Ph3	A-Ph4	A-Ph5	A-Ph6	A-Ph7	A-Ph8	A-Ph9	A-Ph10	A-Ph11	A-Ph12	A-Ph13	A-Ph14	A-Ph15	A-Ph16	

Term	0.00000e+00	0.00000e+00	0.00000e+00	0.00000e+00	0.00000e+00	0.00000e+00	0.00000e+00	0.00000e+00	0.00000e+00	0.00000e+00	0.00000e+00	0.00000e+00	0.00000e+00	0.00000e+00	0.00000e+00	0.00000e+00	0.00000e+00	0.00000e+00	0.00000e+00	0.00000e+00	0.00000e+00	0.00000e+00	0.00000e+00	0.00000e+00	0.00000e+00	0.00000e+00	0.00000e+00	0.00000e+00	0.00000e+00	0.00000e+00	0.00000e+00	0.00000e+00	0.00000e+00	0.00000e+00	0.00000e+00	0.00000e+00	0.00000e+00	0.00000e+00	0.00000e+00	0.00000e+00	0.00000e+00	0.00000e+00	0.00000e+00	0.00000e+00	0.00000e+00	0.00000e+00	0.00000e+00	0.00000e+00	
Factor	1.00000e+00	1.00000e+00	1.00000e+00	1.00000e+00	1.00000e+00	1.00000e+00	1.00000e+00	1.00000e+00	1.00000e+00	1.00000e+00	1.00000e+00	1.00000e+00	1.00000e+00	1.00000e+00	1.00000e+00	1.00000e+00	1.00000e+00	1.00000e+00	1.00000e+00	1.00000e+00	1.00000e+00	1.00000e+00	1.00000e+00	1.00000e+00	1.00000e+00	1.00000e+00	1.00000e+00	1.00000e+00	1.00000e+00	1.00000e+00	1.00000e+00	1.00000e+00	X	X	X	X	X	X	X	X	X	X	X	X	X	X	X	X	

B = Detector Channel
Val Type	B-AC1	B-AC2	B-AC3	B-AC4	B-AC5	B-AC6	B-AC7	B-AC8	B-AC9	B-AC10	B-AC11	B-AC12	B-AC13	B-AC14	B-AC15	B-AC16	B-DC1	B-DC2	B-DC3	B-DC4	B-DC5	B-DC6	B-DC7	B-DC8	B-DC9	B-DC10	B-DC11	B-DC12	B-DC13	B-DC14	B-DC15	B-DC16	B-Ph1	B-Ph2	B-Ph3	B-Ph4	B-Ph5	B-Ph6	B-Ph7	B-Ph8	B-Ph9	B-Ph10	B-Ph11	B-Ph12	B-Ph13	B-Ph14	B-Ph15	B-Ph16	

Term	0.00000e+00	0.00000e+00	0.00000e+00	0.00000e+00	0.00000e+00	0.00000e+00	0.00000e+00	0.00000e+00	0.00000e+00	0.00000e+00	0.00000e+00	0.00000e+00	0.00000e+00	0.00000e+00	0.00000e+00	0.00000e+00	0.00000e+00	0.00000e+00	0.00000e+00	0.00000e+00	0.00000e+00	0.00000e+00	0.00000e+00	0.00000e+00	0.00000e+00	0.00000e+00	0.00000e+00	0.00000e+00	0.00000e+00	0.00000e+00	0.00000e+00	0.00000e+00	-1.83054e+02	-1.28695e+02	-1.24060e+02	-1.82730e+02	-8.03315e+01	-6.64456e+01	-1.55606e+02	-1.62015e+02	-9.22986e+01	-6.89241e+01	-1.72279e+02	-1.70080e+02	-1.79579e+02	-1.77215e+02	-7.89233e+01	-1.49329e+02	
Factor	2.99331e-05	1.55479e-04	4.19442e-05	1.61934e-01	1.57654e-06	1.69154e-06	1.52548e-01	4.60961e-02	1.71663e-06	1.67939e-06	8.77263e-02	2.69812e-02	2.54748e-02	8.56556e-03	1.66169e-06	1.23162e-02	1.73125e-05	3.46895e-05	9.63778e-06	8.07384e-02	3.25976e-07	3.93007e-07	7.18427e-02	2.31086e-02	3.21270e-07	3.94494e-07	4.28785e-02	1.32135e-02	1.29370e-02	4.33807e-03	3.46650e-07	6.07619e-03	X	X	X	X	X	X	X	X	X	X	X	X	X	X	X	X	



#DISTANCE SETTINGS
A = Detector Channel
A-1	A-2	A-3	A-4	A-5	A-6	A-7	A-8	A-9	A-10	A-11	A-12	A-13	A-14	A-15	A-16	

2.5000e+00	3.0000e+00	2.5000e+00	3.0000e+00	2.0000e+00	3.0000e+00	1.5000e+00	3.0000e+00	3.0000e+00	3.0000e+00	3.0000e+00	3.0000e+00	3.0000e+00	3.0000e+00	1.5000e+00	3.0000e+00	

B = Detector Channel
B-1	B-2	B-3	B-4	B-5	B-6	B-7	B-8	B-9	B-10	B-11	B-12	B-13	B-14	B-15	B-16	

1.0000e+01	1.0000e+01	1.0000e+01	1.4400e+00	1.0000e+01	1.0000e+01	1.5100e+00	1.9400e+00	1.0000e+01	1.0000e+01	1.9900e+00	2.4900e+00	2.4100e+00	2.9000e+00	1.0000e+01	2.9800e+00	




#DATA BEGINS
time	group	step	mark	flag	A-AC1	A-AC2	A-AC3	A-AC4	A-AC5	A-AC6	A-AC7	A-AC8	A-AC9	A-AC10	A-AC11	A-AC12	A-AC13	A-AC14	A-AC15	A-AC16	A-DC1	A-DC2	A-DC3	A-DC4	A-DC5	A-DC6	A-DC7	A-DC8	A-DC9	A-DC10	A-DC11	A-DC12	A-DC13	A-DC14	A-DC15	A-DC16	A-Ph1	A-Ph2	A-Ph3	A-Ph4	A-Ph5	A-Ph6	A-Ph7	A-Ph8	A-Ph9	A-Ph10	A-Ph11	A-Ph12	A-Ph13	A-Ph14	A-Ph15	A-Ph16	B-AC1	B-AC2	B-AC3	B-AC4	B-AC5	B-AC6	B-AC7	B-AC8	B-AC9	B-AC10	B-AC11	B-AC12	B-AC13	B-AC14	B-AC15	B-AC16	B-DC1	B-DC2	B-DC3	B-DC4	B-DC5	B-DC6	B-DC7	B-DC8	B-DC9	B-DC10	B-DC11	B-DC12	B-DC13	B-DC14	B-DC15	B-DC16	B-Ph1	B-Ph2	B-Ph3	B-Ph4	B-Ph5	B-Ph6	B-Ph7	B-Ph8	B-Ph9	B-Ph10	B-Ph11	B-Ph12	B-Ph13	B-Ph14	B-Ph15	B-Ph16	aux-1	digaux	

40347.711	1	1	0	512	0.09323	0.12734	0.078708	0.12031	0.078816	0.15127	0.059674	0.06794	0.090439	0.2594	0.05376	0.086512	0.16753	0.17029	0.17787	0.063486	-2.8625	-2.9958	-2.8875	-3.3729	-2.7917	-3.0854	-3.175	-2.7896	-3.0438	-3.1792	-2.7896	-3.2438	-3.0396	-3.0917	-3.0542	-2.8042	451.007	263.947	138.929	103.724	227.718	344.745	364.020	285.338	313.038	295.721	209.380	126.458	428.605	152.414	369.706	318.946	0.00055144	0.00078089	0.00052257	456.9	2.9497e-06	2.0024e-06	501.16	169.95	2.3514e-06	2.6813e-06	183.32	70.047	57.172	24.773	4.3058e-06	29.516	0.00086923	0.0013569	0.0014399	444.14	1.253e-05	1.517e-05	483.89	167.22	1.2137e-05	1.5144e-05	179.34	67.913	57.105	24.423	1.3394e-05	29.154	125.590	198.456	252.371	114.764	208.994	232.566	112.983	118.938	259.469	240.324	116.782	120.569	123.135	129.028	235.269	124.386	-8191	255	
40347.781	1	1	0	0	0.18162	0.0069658	0.24044	0.19249	0.26437	0.13913	0.14499	0.18421	0.12922	0.094328	0.14665	0.12099	0.14138	0.12119	0.12265	0.18281	-2.7438	-2.9458	-2.7562	-3.3438	-2.9354	-2.9917	-3.1917	-2.7979	-3.1833	-3.2271	-2.9688	-3.3937	-2.8875	-2.9021	-3.2938	-2.9292	340.664	374.509	402.327	329.318	123.763	450.891	364.009	162.528	113.156	459.121	103.067	119.078	133.953	410.805	214.275	446.425	0.00052504	0.00034804	0.00035771	457.64	2.7763e-06	4.0869e-06	496.09	169.57	5.4351e-06	2.7512e-06	182.72	70.072	57.124	24.896	3.3003e-06	29.747	0.00087378	0.0013608	0.0011266	445.64	1.2914e-05	1.502e-05	482.91	168.02	1.2534e-05	1.4991e-05	179.05	67.96	56.236	24.731	1.2599e-05	29.271	118.131	264.875	260.326	114.872	213.385	263.153	113.022	119.148	194.619	258.167	116.552	120.432	123.394	129.252	265.058	124.241	-8191	255	
40347.879	1	1	0	0	0.25812	0.21208	0.10476	0.21004	0.12323	0.16313	0.30175	0.27623	0.19182	0.077315	0.1594	0.22435	0.20721	0.11573	0.10349	0.26505	-2.5771	-2.9792	-2.9667	-3.2188	-3.0021	-2.8333	-3.3125	-3.0375	-3.0833	-3.1562	-2.7375	-3.1063	-3.0354	-3.2062	-3.2292	-3.0187	376.210	424.896	205.697	355.045	146.711	385.829	397.177	447.505	338.248	223.815	317.209	113.671	381.194	323.537	390.680	188.471	0.00046739	0.00021488	0.00045139	461.98	1.8808e-06	1.8788e-06	504.32	169.69	3.6731e-06	3.1765e-06	183.86	69.835	57.846	25.031	3.7946e-06	29.634	0.00091161	0.00136	0.0014406	449.02	1.2871e-05	1.5109e-05	486.8	167.56	1.2784e-05	1.4891e-05	179.66	68.139	56.56	25.04	1.3373e-05	29.346	121.880	176.383	265.488	114.878	262.824	174.893	113.167	119.237	263.277	237.575	116.372	120.305	123.704	128.687	256.306	124.537	-8191	255	
40347.977	1	1	0	0	0.20514	0.2232	0.26837	0.04107	0.25644	0.096743	0.24383	0.18084	0.094324	0.20276	0.20518	0.14648	0.14302	0.053736	0.21433	0.016367	-2.7188	-3.2146	-2.9125	-3.1833	-3.0146	-3.0271	-3.1646	-2.9833	-2.7896	-3.1333	-2.7708	-3.1104	-3.1021	-2.7521	-3.1771	-2.9354	362.033	153.664	339.738	319.046	321.471	238.172	335.708	296.438	161.459	397.734	237.734	109.463	353.867	459.481	420.257	165.728	0.0005344	0.00044148	0.00022255	456.18	2.8378e-06	1.7568e-06	504.01	170.14	1.4361e-05	6.2316e-06	185.56	71.03	57.75	24.844	3.7162e-06	29.97	0.00089682	0.0013181	0.001129	446.38	1.2636e-05	1.5266e-05	487.99	168.11	1.7336e-05	1.442e-05	180.96	68.774	56.651	24.885	1.3319e-05	29.448	119.065	219.122	263.980	114.881	219.690	205.615	112.930	119.224	166.095	250.464	116.945	120.316	123.303	129.122	235.579	124.745	-8191	255	
40348.094	1	1	0	0	0.36818	0.13529	0.17863	0.12747	0.13175	0.22304	0.13023	0.084189	0.1629	0.15007	0.14743	0.19139	0.23238	0.29273	0.092119	0.28884	-2.6333	-3.1188	-2.6688	-3.1063	-2.9479	-3.0271	-3.325	-3	-2.8479	-3.2375	-2.85	-2.9583	-3.0979	-2.8958	-3.1729	-3.0021	166.446	207.631	151.748	421.664	359.851	250.254	441.183	241.085	143.729	262.642	102.029	127.471	407.167	288.124	125.689	384.002	0.00053958	0.00039312	0.00044781	460.98	2.3893e-06	2.2256e-06	502.5	170.26	1.4975e-05	1.6429e-06	184.1	70.169	57.724	24.808	2.9593e-06	29.747	0.00091854	0.0012753	0.0014493	448.91	1.2685e-05	1.5603e-05	485.07	166.1	3.1899e-05	1.5085e-05	179.38	68.057	56.507	25.041	1.3216e-05	29.362	120.096	168.016	281.162	115.065	209.419	260.304	112.808	119.075	163.472	241.223	116.531	120.466	124.011	128.684	244.625	124.954	-8191	255	
40348.191	1	1	0	0	0.2276	0.11465	0.17227	0.28682	0.10172	0.089349	0.2552	0.12756	0.047452	0.10369	0.15653	0.13281	0.060153	0.29524	0.06955	0.10511	-2.45	-3.1521	-2.95	-3.1833	-3.1562	-2.8688	-3.2687	-3.0083	-2.9333	-3.1833	-2.8812	-2.9313	-3	-2.8771	-3.1188	-3.0458	353.381	249.071	119.330	107.603	316.753	234.024	367.241	333.518	105.817	431.677	129.899	203.439	457.348	364.771	129.035	140.837	0.00051937	0.00024616	0.00025064	462.88	3.8396e-06	2.1114e-06	499.38	171.06	1.4664e-05	4.8196e-06	186.04	70.95	58.887	25.212	1.8404e-06	30.117	0.00092481	0.001311	0.0011261	450.15	1.2552e-05	1.5046e-05	485.7	166.55	4.9339e-05	1.4305e-05	181.17	69.139	57.467	25.184	1.3313e-05	29.856	120.928	123.908	237.340	114.901	245.720	303.872	113.160	119.338	461.223	254.685	116.448	120.372	123.279	128.552	230.676	124.369	-8191	255	
40348.285	1	1	0	0	0.19785	0.085938	0.28826	0.16187	0.18294	0.11588	0.52426	0.16987	0.1359	0.1099	0.18563	0.15801	0.15602	0.21705	0.1533	0.12661	-2.3396	-3.1042	-2.9146	-3.0417	-3.1562	-2.8271	-3.175	-3.1188	-3.0208	-3.2188	-2.9271	-2.9542	-3.2229	-2.8875	-2.9604	-3.0521	212.090	224.199	201.736	420.436	440.533	402.426	116.712	141.167	365.000	210.526	302.479	438.498	188.321	422.272	110.400	451.823	0.00058069	0.00041636	0.00045256	470.64	1.4145e-06	4.6858e-06	508.33	171.12	5.7397e-06	4.8661e-06	187.54	72.101	59.23	25.173	2.9923e-06	29.826	0.00091875	0.0013374	0.0011085	458.18	1.2868e-05	1.4746e-05	493.12	167.41	3.6978e-05	1.4203e-05	182.87	70.095	57.929	25.305	1.3535e-05	29.535	123.758	199.450	305.532	115.169	268.743	207.609	113.199	119.402	114.065	274.482	116.419	120.253	123.547	128.906	243.550	124.575	-8191	255	
40348.383	1	1	0	0	0.12182	0.082217	0.32323	0.14794	0.14984	0.05863	0.13817	0.22774	0.068634	0.037945	0.22801	0.15176	0.089965	0.070639	0.12841	0.12721	-2.525	-3.2	-2.8958	-3.0083	-3.2458	-2.8146	-3.1729	-3.0604	-2.9396	-3.225	-3.0146	-2.9292	-3.2729	-2.9271	-3.0583	-3.1833	196.784	376.943	414.669	145.710	399.811	389.416	434.980	343.261	404.574	397.262	176.814	101.867	458.643	146.740	246.369	388.068	0.00051845	0.00043091	0.0002406	468.09	2.7147e-06	4.8759e-06	499.13	169.66	1.042e-05	2.7176e-06	183.25	70.158	57.661	24.643	5.2993e-06	29.462	0.00087591	0.0013014	0.00040722	455.81	1.3029e-05	1.5408e-05	483.95	165.31	4.892e-05	1.5231e-05	178.83	68.372	56.429	24.651	1.3867e-05	29.112	118.545	210.933	287.024	114.813	197.782	256.587	112.858	119.022	454.168	244.701	116.347	120.179	123.693	128.676	235.504	124.308	-8191	255	
40348.480	1	1	0	0	0.10504	0.19965	0.29831	0.30959	0.16039	0.29753	0.22013	0.021923	0.19517	0.062361	0.093993	0.082708	0.14149	0.18859	0.23396	0.2201	-2.6	-3.3021	-3.0833	-2.9458	-3.2833	-2.85	-2.9188	-3.2375	-2.9979	-3.2792	-3.0104	-2.7521	-3.3729	-2.8729	-3.1042	-3.2375	441.749	297.934	236.130	397.634	400.079	346.953	441.939	128.449	188.227	252.495	209.821	261.594	347.243	104.993	223.686	381.424	0.00054219	0.0003403	6.4508e-05	455.38	5.668e-06	2.2606e-06	497.36	169.94	1.0869e-05	3.9364e-06	182.68	70.399	58.273	24.763	1.715e-05	29.896	0.00091013	0.001309	0.0003839	453.85	1.2787e-05	1.5511e-05	481.19	165.01	3.7536e-05	1.5275e-05	178.71	68.459	56.763	24.907	2.2459e-05	29.482	125.378	169.118	200.035	115.260	252.808	211.233	112.983	119.082	117.248	267.127	116.383	120.419	123.579	129.102	227.088	124.464	-8191	255	
40348.574	1	1	0	0	0.057161	0.16755	0.14314	0.15773	0.041847	0.21942	0.15676	0.22776	0.12204	0.15634	0.012565	0.12767	0.12808	0.21692	0.13248	0.17772	-2.4708	-2.9229	-3.1271	-2.8187	-3.1896	-3.1479	-2.9333	-3.3312	-2.8875	-3.0729	-3.0875	-2.85	-3.025	-3.2	-3.0062	-3.0625	195.364	430.366	119.831	417.961	168.209	219.044	356.745	399.785	237.549	394.192	327.651	254.745	149.661	233.814	156.582	269.976	0.00049975	0.00014135	9.3712e-05	462.92	3.8762e-06	2.8609e-06	503.55	171.41	1.9033e-05	4.1702e-06	184.06	71.079	58.596	25.112	1.078e-05	30.07	0.00088272	0.0014139	0.00038366	458.04	1.2797e-05	1.5944e-05	488.78	166.53	4.8925e-05	1.5939e-05	180.61	69.149	57.418	24.799	3.6708e-05	29.803	121.574	138.189	196.092	114.894	191.833	253.973	113.247	119.081	133.592	220.961	116.212	120.377	123.495	128.988	239.798	124.308	-8191	255	
40348.672	1	1	0	0	0.13568	0.12159	0.097194	0.081713	0.15242	0.23072	0.21219	0.18436	0.045941	0.090514	0.24555	0.04046	0.12808	0.063064	0.35216	0.31614	-2.5042	-2.9458	-2.9875	-2.9333	-3.2812	-2.8729	-2.9104	-3.2625	-2.9062	-3.2417	-3.3125	-2.9021	-3.0292	-3.1208	-3.0583	-3.1833	375.528	132.086	218.873	371.025	383.156	217.020	431.932	405.716	126.578	232.911	394.675	289.034	135.679	137.922	278.600	381.931	0.00058288	0.00039548	0.00010295	469.84	3.6146e-06	2.3384e-06	511.44	172.73	8.7727e-06	5.5404e-06	186.52	71.501	58.978	25.557	1.6698e-05	30.629	0.00094721	0.001405	0.00038146	465.46	1.3233e-05	1.543e-05	494.09	167.36	3.7463e-05	1.6303e-05	182.29	69.93	57.872	25.14	5.2059e-05	30.144	121.897	201.418	211.068	114.926	289.651	309.184	113.207	118.989	111.566	218.903	116.492	120.304	123.512	128.832	256.739	124.385	-8191	255	
40348.793	1	1	0	0	0.20378	0.21929	0.14435	0.12165	0.16347	0.056509	0.09667	0.10799	0.050363	0.20747	0.26782	0.20514	0.33839	0.161	0.24523	0.12896	-2.525	-3.1562	-3.0979	-3.1562	-3.1958	-3.1833	-3.0042	-3.1021	-3.0542	-3.1854	-3.2354	-2.8667	-3.1354	-3.0042	-2.8958	-3.1854	279.618	353.918	160.801	277.338	348.396	406.757	423.523	229.227	448.227	150.214	209.028	148.340	427.048	335.463	370.944	452.212	0.00057343	0.00016391	8.9232e-05	467.59	2.2931e-06	5.5634e-06	509.96	171.49	9.6313e-06	1.5604e-05	186.76	71.52	59.262	25.535	1.3028e-05	30.789	0.00093012	0.0013918	0.00037738	462.83	1.2924e-05	1.5444e-05	493.29	167.08	3.4059e-05	2.5987e-05	181.95	69.65	57.992	25.26	3.9754e-05	30.289	121.662	185.327	179.648	114.724	217.055	242.142	112.794	119.381	414.082	196.688	116.525	120.450	123.569	129.171	248.934	124.173	-8191	255	
40348.887	1	1	0	0	0.2097	0.14776	0.066406	0.23205	0.24214	0.1964	0.26007	0.22524	0.071384	0.17959	0.32533	0.15501	0.15395	0.10194	0.22312	0.031316	-2.65	-2.9229	-3.0812	-2.8833	-3.1021	-3.0062	-2.8854	-3.1604	-2.925	-3.1813	-3.2188	-2.8479	-3.0354	-3.0125	-2.775	-3.1437	217.979	386.056	330.696	373.341	232.253	122.663	408.978	281.779	381.314	345.155	396.383	190.366	224.394	150.143	335.936	351.133	0.00060547	0.00023154	2.1791e-05	471.42	3.2417e-06	5.5219e-06	512.77	172.78	1.7819e-06	1.5323e-05	188.5	72.555	60.268	25.886	1.4771e-05	31.079	0.00094267	0.0014072	0.00037891	468.71	1.3283e-05	1.5081e-05	498.18	168.14	1.31e-05	4.1804e-05	183.5	70.692	58.857	25.547	5.1149e-05	30.688	121.094	153.910	213.876	114.635	242.124	235.873	112.639	119.420	307.308	204.823	115.809	120.377	123.462	129.075	266.933	124.682	-8191	255	
40348.984	1	1	0	0	0.25652	0.28266	0.11289	0.20264	0.30744	0.082385	0.2735	0.13567	0.17123	0.14134	0.14064	0.22865	0.078347	0.16803	0.20037	0.15537	-2.6542	-2.8396	-3.3167	-2.8875	-3.0938	-3.2521	-3.0625	-3.1708	-3.0396	-2.8667	-3.4042	-2.9771	-3.0375	-3.1646	-2.7854	-2.9521	326.325	414.370	144.471	423.877	309.725	441.973	425.064	396.815	428.695	396.597	335.553	194.173	444.709	380.934	239.040	422.815	0.00056071	0.00023808	0.00012966	477.77	1.7066e-06	1.9679e-06	517.31	173.52	2.8575e-06	1.0548e-05	190.49	72.572	60.46	25.917	1.047e-05	31.17	0.0009325	0.0014081	0.00036698	469.69	1.3212e-05	1.5592e-05	500.47	168.87	1.2752e-05	5.8697e-05	185.06	70.801	59.082	25.535	3.8691e-05	30.754	124.469	231.403	201.738	114.775	293.979	301.505	113.093	119.287	187.680	176.957	116.255	120.391	123.397	129.159	255.679	124.653	-8191	255	
40349.082	1	1	0	0	0.19641	0.1608	0.15765	0.28685	0.15386	0.26625	0.15164	0.080353	0.15744	0.22619	0.23396	0.14371	0.17569	0.038431	0.11166	0.20187	-2.8417	-2.7354	-3.0896	-3.0458	-3.0104	-3.1625	-2.9583	-3.0792	-3.075	-2.6771	-3.1354	-2.8167	-2.875	-3.1146	-2.7687	-3.1979	267.327	267.273	422.138	171.769	127.869	263.458	391.400	424.495	209.474	391.376	333.398	356.475	438.757	329.546	329.197	373.895	0.00059079	0.00016881	6.3648e-05	472.55	4.7232e-06	7.0976e-06	518.75	173.07	4.723e-06	1.2024e-05	189.15	72.73	60.109	25.968	1.4907e-05	31.226	0.00093347	0.0014028	0.00036881	466.34	2.3327e-05	1.5282e-05	499.19	168.33	1.2799e-05	4.4419e-05	184.32	70.592	58.84	25.631	4.9975e-05	30.799	117.337	150.226	188.827	114.840	184.108	243.982	113.084	119.053	244.413	162.176	116.944	120.311	123.132	128.818	277.073	124.452	-8191	255	
40349.176	1	1	0	0	0.18699	0.23527	0.020444	0.14	0.066153	0.15391	0.18962	0.20834	0.13066	0.078015	0.16128	0.049395	0.099709	0.18096	0.18395	0.33683	-2.5792	-2.75	-3.2062	-2.9833	-2.8917	-3.1937	-2.9375	-2.9146	-3.0563	-2.6729	-3.1646	-3.1063	-2.7542	-3.1646	-2.8708	-3.2938	164.585	286.210	185.514	236.088	158.258	240.851	372.269	403.225	387.025	116.884	317.681	239.369	292.040	415.406	171.769	404.435	0.00056511	0.00015533	3.7412e-05	477.63	3.6555e-06	2.9421e-06	520.55	173.98	3.6615e-06	1.815e-05	191.37	73.855	61.648	26.421	1.3087e-05	32.125	0.00092312	0.0013742	0.00035953	465.7	3.519e-05	1.4844e-05	503.7	169.51	1.2657e-05	5.6933e-05	186.57	71.793	59.972	26.18	3.8548e-05	31.541	121.607	190.279	169.260	114.519	231.740	286.687	113.138	119.426	221.559	165.292	116.321	120.781	123.661	128.816	263.115	124.742	-8191	255	
40349.270	1	1	0	0	0.14221	0.24069	0.089607	0.13492	0.057711	0.13891	0.33419	0.076152	0.26106	0.095655	0.14016	0.098095	0.10568	0.057547	0.079543	0.070584	-2.6188	-2.8312	-3.0792	-3.0375	-2.8	-3.1729	-2.8812	-2.9688	-3.0938	-2.9542	-3.2313	-3.0479	-2.8542	-3.0833	-3.2021	-2.9583	126.959	316.813	291.682	116.707	273.107	148.392	397.266	126.010	235.439	311.659	404.661	312.317	346.761	213.329	162.388	396.905	0.00054633	0.00022424	0.0001158	486.64	1.0276e-05	3.1718e-06	530.83	177.19	5.5099e-06	1.5222e-05	194.37	75.065	62.619	27.048	9.3368e-06	32.813	0.00089967	0.0013757	0.00036867	474.8	4.5685e-05	1.4389e-05	513.29	172.16	1.2849e-05	4.2365e-05	190.1	73.207	61.079	26.65	3.0849e-05	32.377	122.072	129.339	168.711	114.892	394.976	253.003	112.740	119.324	243.551	207.953	116.530	120.438	123.950	128.800	309.405	124.730	-8191	255	
40349.391	1	1	0	0	0.20131	0.14943	0.056166	0.1591	0.072851	0.033729	0.22845	0.14643	0.13732	0.060013	0.028034	0.18811	0.10973	0.31984	0.13402	0.10654	-2.7354	-2.8167	-3.2083	-3.0354	-2.7104	-3.2271	-2.9833	-2.9896	-3.1396	-2.7875	-3.2042	-3.025	-2.6875	-3.2729	-3.0563	-3.0042	311.492	178.559	363.018	384.970	184.229	326.017	373.083	358.141	192.053	249.899	140.006	358.059	402.605	426.169	228.069	295.191	0.00062328	0.00036512	7.6985e-05	495.19	5.3741e-06	3.2623e-06	531.44	176.26	3.203e-06	1.2561e-05	194.36	74.675	62.413	26.679	8.1543e-06	32.282	0.00089019	0.0013005	0.00036272	478.97	3.6316e-05	1.4058e-05	513.89	171.73	1.252e-05	5.53e-05	189.85	72.657	60.794	26.491	1.3576e-05	32.231	122.082	165.771	157.313	114.689	397.060	200.384	112.712	119.274	219.102	197.650	116.421	120.309	123.435	129.128	236.633	124.900	-8191	255	
40349.488	1	1	0	0	0.11362	0.1612	0.13485	0.062768	0.040171	0.019076	0.096398	0.06429	0.051788	0.11338	0.15608	0.061111	0.10468	0.16492	0.099323	0.12158	-2.7062	-2.9875	-2.9562	-3.1333	-2.9979	-3.0708	-3.0542	-3.1417	-3.3417	-2.8792	-3.0521	-2.9938	-2.9375	-3.1729	-2.8812	-2.9354	413.734	267.469	431.884	366.362	266.200	371.904	336.089	154.803	436.080	289.637	102.935	307.719	373.331	427.615	207.701	383.864	0.00057905	0.00047641	5.3876e-05	489.11	1.2237e-05	1.7289e-06	525.3	175.16	5.9022e-06	1.1579e-05	191.15	74.387	61.661	26.529	4.4196e-06	32.029	0.00088103	0.0013139	0.00035933	474.62	4.502e-05	1.4026e-05	508.51	170.6	1.2175e-05	4.1729e-05	186.84	71.996	60.09	26.368	1.3137e-05	32.295	122.436	200.331	262.547	114.817	432.399	285.421	113.089	119.429	240.344	180.394	116.712	120.403	123.762	128.843	255.641	124.543	-8191	255	
40349.586	1	1	0	0	0.13633	0.21939	0.14098	0.14783	0.17525	0.048421	0.13286	0.20201	0.11672	0.29582	0.19864	0.18954	0.075771	0.13427	0.19384	0.13704	-2.8229	-2.8021	-2.9125	-3.1271	-2.6937	-3.1417	-3.2667	-2.8708	-3.1833	-2.8479	-2.9521	-3.2333	-2.9771	-3.2771	-2.9771	-2.8792	303.673	424.379	439.132	114.728	315.151	179.651	458.795	417.931	308.349	385.433	202.315	395.216	376.685	178.158	426.686	379.391	0.00059658	0.0002478	4.6374e-05	488.54	7.916e-06	4.5135e-06	527.61	175.8	4.3607e-06	4.8359e-06	193.97	73.949	61.908	26.924	3.4775e-06	32.645	0.00088002	0.0013579	0.00036987	474.63	3.446e-05	1.3977e-05	511.9	170.96	1.1842e-05	3.3067e-05	189.73	72.369	60.454	26.571	1.3042e-05	32.48	122.186	182.547	151.869	114.807	439.842	199.438	113.028	119.170	227.388	179.911	116.182	120.702	123.363	129.225	232.743	124.531	-8191	255	
40349.656	1	1	0	0	0.078747	0.093424	0.23769	0.054928	0.078958	0.13064	0.025993	0.16843	0.32438	0.16128	0.27284	0.11863	0.22312	0.15558	0.14114	0.13507	-2.8042	-3.0229	-3.0083	-3.1521	-2.7729	-3.1854	-3.1333	-2.7458	-3.2604	-3.0896	-3.1063	-3.1688	-2.7292	-3.1458	-3.0792	-2.8875	435.448	203.125	236.289	376.749	328.463	162.684	125.301	444.594	229.408	415.467	460.290	321.192	122.616	103.256	386.117	252.523	0.00055363	0.00024104	0.0001141	491.39	1.425e-05	1.3641e-06	531.57	175.22	1.8267e-06	3.6379e-06	195.3	74.615	62.111	27.126	2.5738e-06	32.508	0.00087464	0.0012725	0.00036148	477.22	4.4191e-05	1.4389e-05	514.12	171.12	1.2112e-05	1.447e-05	193.06	72.828	60.779	26.723	1.3347e-05	32.739	120.294	140.453	191.284	114.786	448.538	193.504	112.971	119.192	216.106	262.808	115.787	120.519	123.501	128.789	263.368	124.569	-8191	255	
40349.777	1	1	0	0	0.082812	0.21079	0.18081	0.11022	0.19255	0.1566	0.26244	0.13594	0.21536	0.090963	0.28673	0.20995	0.041928	0.26487	0.066962	0.12353	-2.6729	-2.7271	-2.85	-2.9792	-3.0438	-2.9979	-3.1312	-2.8333	-3.1562	-3.0521	-2.8625	-3.2188	-2.9104	-3.1417	-3.1896	-2.9458	302.339	384.860	392.999	257.918	410.880	349.116	384.097	351.213	456.529	375.742	453.792	444.953	199.521	327.871	268.634	375.679	0.00060535	0.00024457	9.4236e-05	487.92	8.2112e-06	3.5912e-06	527.4	175.59	5.2976e-06	1.5502e-06	194.33	74.515	61.757	27.065	4.601e-06	32.495	0.00089462	0.0012998	0.00036931	476.12	3.4061e-05	1.473e-05	512.01	170.85	1.2149e-05	1.4334e-05	192.26	72.398	60.453	26.744	1.2859e-05	32.502	124.281	194.345	212.236	114.904	443.106	243.880	112.911	118.973	215.899	290.661	116.157	120.242	123.725	128.844	253.909	124.252	-8191	255	
40349.871	1	1	0	0	0.30075	0.088327	0.17193	0.043879	0.26344	0.24399	0.13765	0.074336	0.16142	0.27078	0.23828	0.26993	0.23994	0.17286	0.27033	0.21035	-2.8563	-3.0958	-2.8958	-3.2958	-2.8937	-2.9875	-3.1667	-2.8917	-3.1792	-3.1271	-2.9313	-3.1521	-2.9104	-2.9688	-3.2583	-3.0604	210.338	451.135	453.857	210.073	214.759	172.547	277.826	297.955	168.664	323.144	250.006	261.327	184.198	440.766	201.477	273.544	0.00053274	0.00030749	0.00011893	492.43	8.7314e-06	1.1704e-05	530.13	174.94	6.5769e-06	2.4825e-06	193.03	74.339	62.375	27.164	4.5392e-06	32.465	0.00089174	0.0013149	0.00036334	476.87	2.5304e-05	3.1046e-05	512.03	170.52	1.2268e-05	1.4443e-05	191.02	72.359	60.517	26.69	1.2924e-05	32.697	121.004	211.479	196.066	114.512	406.579	166.334	112.825	119.084	222.391	224.637	116.184	120.061	123.553	129.031	217.284	124.784	-8191	255	
40349.969	1	1	0	0	0.25935	0.070861	0.11981	0.070994	0.057188	0.085469	0.2823	0.2327	0.16803	0.23714	0.25706	0.027508	0.25274	0.24166	0.060387	0.073972	-2.7583	-3.05	-2.8583	-3.2583	-2.7938	-2.9875	-3.1979	-3.0438	-3.1312	-3.0812	-2.9104	-3.2188	-2.8896	-2.9667	-3.2562	-2.9604	155.511	108.835	241.988	178.071	125.792	270.159	424.455	324.473	338.571	439.292	447.009	383.102	131.648	391.276	312.599	388.597	0.00060486	0.00022809	4.0192e-05	490	5.6251e-06	7.5134e-06	529.04	176.14	2.641e-06	3.2172e-06	194.52	74.724	61.479	26.81	4.2691e-06	32.091	0.00089895	0.0012809	0.00035116	476.55	1.2429e-05	4.1049e-05	511.56	170.78	1.2836e-05	1.5316e-05	192.76	72.386	60.416	26.512	1.3028e-05	32.245	119.184	121.014	249.055	115.030	231.405	120.172	112.978	119.077	243.033	260.228	116.426	120.581	123.223	128.777	239.797	124.624	-8191	255	
40350.066	1	1	0	0	0.080438	0.073144	0.071935	0.13384	0.1694	0.076004	0.24294	0.082831	0.16914	0.12711	0.08531	0.13525	0.24687	0.10716	0.24116	0.19516	-2.7208	-3.1208	-2.8021	-3.0979	-2.9313	-3.0417	-3.3063	-2.975	-3.0958	-3.0271	-3.1042	-3.2375	-3.1917	-3.0271	-3.2146	-3.1042	192.193	229.200	143.712	420.123	196.182	364.982	334.124	323.222	321.451	159.003	449.448	110.504	109.095	151.899	359.690	152.645	0.00058598	0.00020704	8.6139e-05	488.05	3.5481e-06	1.6773e-05	529.16	175.69	4.1394e-06	8.6465e-07	192.68	73.889	61.932	26.735	6.0173e-06	32.256	0.00090339	0.0012963	0.00036742	474.31	1.2904e-05	5.4261e-05	510.85	170.81	1.2514e-05	1.4524e-05	190.4	72.101	60.363	26.481	1.2715e-05	32.042	126.760	205.543	213.279	114.859	249.990	123.719	112.847	118.944	231.675	229.759	116.342	120.439	123.866	129.092	247.170	124.500	-8191	255	
40350.184	1	1	0	0	0.32538	0.12237	0.098236	0.30324	0.26124	0.16325	0.11486	0.1632	0.081501	0.21734	0.012318	0.090125	0.082295	0.26891	0.17237	0.2095	-2.7104	-3.2729	-2.8563	-3.1458	-3.175	-2.9625	-3.4542	-3.1646	-2.9167	-3.3208	-2.8688	-3.3375	-3.2271	-3.0083	-3.2562	-3.1583	400.285	340.658	339.945	446.579	212.469	329.639	355.820	112.800	272.252	205.035	135.246	308.731	225.710	436.446	399.834	340.115	0.0005877	0.00074556	0.00011868	488.83	4.1872e-06	1.0374e-05	523.8	174.62	5.7327e-06	3.9226e-06	193	74.014	61.653	27.046	1.7227e-06	32.587	0.0017061	0.0012473	0.00036254	474.23	1.2682e-05	4.185e-05	508.16	170.02	1.2637e-05	1.4119e-05	192.03	72.146	60.482	26.684	1.2773e-05	32.085	122.469	196.705	154.051	115.007	260.463	147.868	112.869	119.128	226.672	260.035	116.419	120.147	123.745	129.056	249.236	124.793	-8191	255	
40350.258	1	1	0	0	0.28115	0.21322	0.20482	0.052289	0.10927	0.22678	0.12611	0.25149	0.25382	0.052271	0.17563	0.26071	0.1614	0.25683	0.14753	0.20527	-2.65	-3.1875	-2.9083	-3.2021	-3.1042	-2.9062	-3.2958	-3.1104	-2.9396	-3.4	-2.9104	-3.1771	-3.1271	-3.0354	-3.1813	-3.075	196.199	345.567	307.639	266.316	155.031	362.337	102.989	451.136	356.890	276.072	115.637	426.955	121.600	124.259	436.087	454.032	0.00052633	0.00034911	9.7748e-05	493.11	2.1925e-06	7.5314e-06	530.77	177.82	4.356e-06	2.339e-06	194.71	75.289	62.379	27.254	3.3702e-06	32.912	0.0020707	0.0012605	0.0003729	478.75	1.2417e-05	5.3652e-05	513	172.08	1.2613e-05	1.4217e-05	192.73	73.209	61.131	26.901	1.3406e-05	32.438	127.229	211.965	181.583	114.770	268.969	128.838	112.845	119.016	243.734	250.298	116.459	120.654	124.031	128.704	226.160	124.073	-8191	255	
40350.352	1	1	0	0	0.22914	0.24027	0.076793	0.12441	0.058939	0.021799	0.10827	0.080215	0.2338	0.19276	0.24281	0.16914	0.30386	0.21647	0.18054	0.23462	-2.375	-3.2396	-2.7125	-3.1646	-3.1458	-2.8125	-3.025	-2.9688	-2.9208	-3.0958	-3.0187	-3.1792	-3.1813	-2.8979	-3.2042	-3.0833	275.277	419.558	115.786	107.814	248.444	254.497	396.690	111.030	213.993	346.442	143.442	268.373	179.851	294.276	105.633	103.335	0.00046181	0.00041572	9.2316e-05	498.75	3.3563e-06	8.7359e-06	538.14	177.04	4.2268e-06	3.3452e-06	197.07	76.116	63.306	27.474	1.3979e-06	33.213	0.0025752	0.0012433	0.00035618	483.7	1.2764e-05	4.0033e-05	519.75	172.75	1.2584e-05	1.436e-05	193.22	74.446	61.871	27.128	1.2984e-05	32.593	154.415	204.404	183.446	114.713	207.697	150.201	113.068	119.319	284.397	232.795	116.065	120.700	123.175	129.004	191.219	124.193	-8191	255	
40350.473	1	1	0	0	0.079377	0.064884	0.098623	0.1251	0.10264	0.16763	0.34591	0.13593	0.22828	0.34044	0.11373	0.062518	0.27172	0.18445	0.1637	0.11308	-2.4667	-3.2375	-2.9729	-2.8729	-3.2333	-2.7938	-3.2125	-3.1667	-2.8917	-3.1604	-3.0396	-3.0417	-3.1104	-2.7646	-3.0792	-3.1375	407.719	430.508	407.542	142.748	220.977	221.288	453.100	376.971	152.526	428.599	339.761	379.227	175.064	145.955	198.642	422.656	0.00043765	0.00028858	0.00011868	494.24	4.2436e-06	1.7383e-05	535.32	176.74	2.0907e-06	2.3454e-06	193.77	75.121	62.584	27.18	4.1416e-06	32.823	0.0020609	0.0012696	0.00035913	481.08	1.1883e-05	5.267e-05	516	171.89	1.2124e-05	1.3857e-05	189.74	73.848	60.982	26.89	1.3259e-05	32.341	134.268	204.336	164.204	115.160	228.991	156.719	112.896	119.262	258.874	231.314	116.031	120.528	123.564	129.156	258.784	124.497	-8191	255	
40350.566	1	1	0	0	0.14638	0.041349	0.14934	0.2306	0.11176	0.12713	0.33342	0.10301	0.12269	0.08415	0.01889	0.24681	0.31554	0.20401	0.046019	0.096473	-2.3812	-3.175	-2.875	-2.9313	-3.1583	-3.0771	-3	-3.1396	-2.9479	-3.1271	-3.225	-3.0833	-3.3146	-2.7812	-2.9333	-3.0979	131.970	370.053	337.141	424.614	452.261	113.613	376.115	270.579	132.038	247.560	455.803	399.567	210.552	457.075	337.732	352.268	0.00044476	0.00062834	4.9459e-05	491.5	5.1327e-06	6.3551e-06	533.47	176.44	4.9487e-06	2.9269e-06	196.86	75.536	63.064	27.487	2.3887e-06	33.268	0.0025851	0.0012391	0.0003717	478.32	1.1849e-05	3.7847e-05	516.41	171.43	1.213e-05	1.428e-05	190.57	74.717	61.671	27.137	1.3576e-05	32.701	141.567	184.807	186.052	114.912	210.600	415.638	113.039	119.112	223.690	222.320	116.169	120.859	123.621	128.871	294.595	124.725	-8191	255	
40350.664	1	1	0	0	0.15751	0.12891	0.39041	0.084122	0.13663	0.33126	0.10365	0.13142	0.13285	0.10119	0.18817	0.20883	0.21951	0.19693	0.22131	0.30319	-2.3396	-3.2875	-2.9417	-2.7271	-3.0542	-2.8479	-3.0729	-2.9667	-2.9146	-3.0917	-3.1417	-2.8792	-3.2229	-2.8792	-3.0604	-3.2021	159.708	114.134	284.731	293.264	112.956	174.701	429.217	171.319	340.544	318.832	143.123	210.665	417.382	357.256	271.687	396.554	0.0005128	0.00037305	0.00012012	495.34	5.1649e-06	5.1308e-06	537.87	176.99	3.9932e-06	3.8265e-06	198.91	76.843	63.421	27.562	6.6731e-06	33.562	0.0020271	0.0012984	0.00035889	483.97	1.2084e-05	2.5093e-05	523.95	172.82	1.242e-05	1.4831e-05	193.45	75.225	62.135	27.339	1.3922e-05	32.941	140.025	196.726	196.844	114.965	253.527	430.069	113.008	119.195	245.725	273.541	116.185	120.404	123.553	129.186	252.007	124.088	-8191	255	
40350.785	1	1	0	0	0.10381	0.18065	0.10302	0.26795	0.097382	0.23343	0.18427	0.010634	0.093167	0.062374	0.028557	0.13354	0.2116	0.098182	0.054486	0.19163	-2.4229	-2.9833	-3.0938	-2.75	-3.1292	-2.95	-3.0312	-3.3167	-2.7479	-3.1854	-3.0333	-2.8396	-3.0167	-3.0021	-2.8333	-3.075	153.949	445.714	395.192	440.537	265.473	374.810	194.194	446.051	199.469	273.330	428.170	159.238	361.484	417.279	286.681	387.962	0.00043467	0.00032991	6.9622e-05	498.44	5.7546e-06	3.0798e-06	537.06	177.61	5.8852e-06	4.565e-06	196.23	75.879	62.799	27.324	4.3528e-06	32.961	0.0025579	0.0013476	0.00036371	484.66	1.2096e-05	1.4402e-05	524.81	172.95	1.2436e-05	1.4471e-05	191.28	74.745	61.406	26.995	1.3589e-05	32.521	121.879	163.135	200.384	114.332	226.948	230.315	113.011	119.124	217.153	234.242	115.744	120.476	123.226	128.997	233.038	124.790	-8191	255	
40350.883	1	1	0	0	0.19195	0.014596	0.1366	0.20875	0.2353	0.17382	0.21273	0.25386	0.1589	0.27438	0.1571	0.20921	0.41477	0.097861	0.25708	0.13875	-2.5479	-3.0938	-3.0729	-2.7125	-3.125	-3.15	-2.9646	-3.2583	-2.9083	-3.0563	-3.2646	-2.8312	-3.1	-3.2562	-2.9104	-3.325	359.725	300.653	149.328	123.806	388.324	440.044	374.875	143.947	370.512	210.395	242.390	317.484	244.254	381.476	347.666	221.366	0.00037243	0.00024615	4.9286e-05	495.43	3.9337e-06	5.5512e-06	530.63	176.06	4.7624e-06	1.6677e-06	195.3	75.51	62.917	27.372	1.9248e-06	33.258	0.0018339	0.0013229	0.00035997	481.24	1.2153e-05	1.4594e-05	522.19	171.1	1.2351e-05	1.4614e-05	190.65	74.154	61.527	27.114	1.327e-05	32.62	136.821	209.314	232.022	115.022	240.941	290.035	112.833	119.157	221.053	228.006	116.080	120.602	123.495	128.917	199.490	124.697	-8191	255	
40350.953	1	1	0	0	0.023873	0.20404	0.25884	0.30296	0.23821	0.11722	0.16537	0.3499	0.10533	0.09992	0.073566	0.15835	0.14768	0.10496	0.31148	0.15083	-2.5208	-3.0625	-3.3271	-2.8271	-3.2583	-3.0854	-2.8438	-3.1125	-3.0479	-3.0438	-3.1458	-3.1312	-3.1833	-3.0792	-2.9625	-3.2354	308.016	129.585	223.594	361.982	447.258	443.125	402.495	389.964	275.508	297.336	162.171	320.254	161.328	369.296	361.202	366.066	0.00038088	0.00050036	0.00012228	494.76	1.5949e-06	1.3046e-06	539.08	176.34	4.9072e-06	2.3803e-06	196.32	75.624	62.823	27.376	3.4789e-06	33.567	0.0012852	0.0033526	0.00034377	481.7	1.2322e-05	1.4568e-05	524.01	171.86	1.2039e-05	1.483e-05	191.64	75.024	61.735	27.221	1.2747e-05	32.889	142.265	107.439	180.071	115.017	251.500	278.697	113.059	119.253	216.696	239.367	115.822	120.107	123.620	129.169	281.369	124.339	-8191	255	
40351.074	1	1	0	0	0.34446	0.095592	0.21947	0.20286	0.21246	0.075201	0.084297	0.35975	0.19755	0.1023	0.097286	0.082626	0.095926	0.17882	0.051495	0.20557	-2.5646	-2.8688	-3.1083	-2.9229	-2.9771	-3.0563	-2.9271	-3.1292	-2.9604	-3.0479	-3.3792	-2.8333	-3.125	-3.0833	-2.8646	-3.1208	263.284	228.100	362.208	386.270	182.088	237.202	388.020	389.820	114.512	290.329	210.791	121.797	127.344	291.697	264.635	348.280	0.00056607	0.00069808	0.00011727	497.9	3.7064e-06	3.8245e-06	540.03	176.78	2.8442e-06	4.2359e-06	195.81	75.291	62.78	27.574	5.135e-06	33.264	0.00089315	0.003549	0.00034126	483.53	1.2328e-05	1.4689e-05	526.16	172.01	1.2072e-05	1.496e-05	190.56	74.074	61.481	27.158	1.3004e-05	32.691	119.914	355.875	190.826	114.798	215.313	260.927	112.962	119.064	266.935	248.133	116.661	120.483	123.985	129.050	253.406	124.586	-8191	255	
40351.168	1	1	0	0	0.1767	0.11991	0.17287	0.21891	0.23468	0.28013	0.095122	0.16212	0.18903	0.23516	0.16699	0.14547	0.042835	0.16775	0.12836	0.038817	-2.55	-2.7958	-3.0417	-2.8688	-3.0146	-3.0667	-2.9146	-3.2687	-3.0479	-2.8917	-3.0438	-2.9417	-3.0667	-3.1667	-2.9542	-3.225	280.629	452.736	382.791	419.979	150.173	450.492	322.948	394.703	447.613	391.641	449.287	370.797	146.653	187.649	265.017	102.061	0.00057726	0.00096055	7.3215e-05	495	3.8776e-06	5.1773e-06	533.68	176.05	4.009e-06	3.5149e-06	196.55	75.565	63.062	27.693	2.3703e-06	33.527	0.00088817	0.0045121	0.00035194	481.35	1.2525e-05	1.438e-05	520.92	171.39	1.2215e-05	1.4383e-05	191.4	73.776	62.603	27.347	1.3146e-05	32.979	119.268	361.585	228.329	114.676	228.114	237.587	113.002	118.992	256.829	223.963	116.585	120.576	123.667	129.007	196.584	124.450	-8191	255	
40351.266	1	1	0	0	0.083681	0.19431	0.17575	0.077407	0.16445	0.1367	0.15554	0.06273	0.10668	0.20878	0.13887	0.049342	0.21288	0.26152	0.15158	0.13236	-2.5125	-2.7812	-3.2979	-3.0979	-2.9583	-3.0104	-2.9562	-3.0708	-3.1479	-2.8604	-3.2521	-2.9875	-2.9688	-3.1854	-2.9396	-3.2208	344.626	216.560	431.201	394.369	441.183	169.881	426.851	161.361	147.658	197.118	298.393	309.170	417.461	327.262	109.728	452.931	0.00063468	0.00083873	9.1963e-05	500.54	3.3758e-06	3.5324e-06	537.28	177.47	4.8139e-06	2.3226e-06	199.39	75.89	63.968	27.877	2.3806e-06	33.957	0.0009317	0.0035479	0.00035086	486.19	1.2679e-05	1.404e-05	528.87	173.15	1.214e-05	1.4247e-05	193.36	74.349	63.507	27.613	1.3271e-05	33.344	122.383	365.124	197.888	114.943	239.809	218.486	112.650	119.315	225.751	202.768	116.744	120.235	123.687	129.025	227.686	124.527	-8191	255	
40351.359	1	1	0	0	0.21021	0.13901	0.2224	0.1114	0.05141	0.10096	0.067313	0.023244	0.058873	0.18843	0.27512	0.17684	0.26361	0.22808	0.033732	0.084133	-2.7729	-2.7979	-3.2646	-3.0583	-2.9562	-3.2646	-3.1604	-3.15	-3.125	-2.6729	-3.1583	-3.1208	-3.0542	-3.175	-2.9125	-3.1333	262.969	319.856	356.643	351.993	163.055	396.824	444.678	263.229	256.553	236.893	444.154	187.334	383.253	344.681	382.504	187.035	0.00062547	0.00088337	9.1086e-05	500.62	2.3275e-06	2.717e-06	540.68	177.29	3.209e-06	2.6459e-06	198.46	76.42	63.561	27.684	6.2416e-06	33.672	0.0008895	0.0044463	0.00036122	486.24	1.2465e-05	1.3887e-05	527.25	172.81	1.185e-05	1.4019e-05	193.24	74.207	63.388	27.466	1.3269e-05	33.088	120.327	382.473	206.282	114.513	247.622	240.038	112.851	119.359	200.462	224.781	116.288	120.537	123.919	128.862	244.244	124.452	-8191	255	
40351.480	1	1	0	0	0.33557	0.15747	0.3353	0.056298	0.21565	0.087865	0.13209	0.077211	0.093812	0.39422	0.23179	0.074644	0.13546	0.11962	0.17257	0.24987	-2.7875	-3.0604	-3.2354	-3.0375	-2.8958	-3.2292	-3.0333	-3.0187	-3.125	-2.9229	-3.1688	-3.0521	-2.9396	-3.3333	-3.0083	-3.0917	202.129	453.370	425.941	170.276	103.236	175.091	270.913	415.690	149.682	126.180	376.572	121.970	444.297	394.856	268.160	314.602	0.00066012	0.00061177	0.00011633	499.9	3.1551e-06	3.5481e-06	538.33	177.07	4.0558e-06	3.7457e-06	197.03	75.543	63.354	27.605	5.3838e-06	33.601	0.00086689	0.0034992	0.00036389	483.6	1.2611e-05	1.3687e-05	521.07	173.49	1.1638e-05	1.4139e-05	191.68	73.774	62.927	27.403	1.2769e-05	33.044	121.471	358.450	211.280	114.879	267.455	265.744	112.655	119.158	235.956	246.342	116.469	120.267	123.373	128.788	208.743	124.371	-8191	255	
40351.555	1	1	0	0	0.15437	0.102	0.16529	0.065389	0.0326	0.30025	0.070611	0.18754	0.20829	0.20256	0.042034	0.077675	0.023847	0.18161	0.14268	0.13238	-2.7146	-2.8917	-3.1125	-3.0792	-2.7833	-3.1688	-3.1625	-3.0583	-3.325	-2.8917	-3.2188	-3.1667	-2.9104	-3.3208	-2.9708	-3.1208	437.423	371.562	198.229	279.346	198.750	206.605	447.588	219.153	454.665	406.952	277.082	411.047	116.403	152.044	137.031	448.721	0.00063911	0.00096737	9.7712e-05	494.85	2.8044e-06	2.7912e-06	540.32	177.54	4.0946e-06	2.3175e-06	195.99	76.186	64.112	27.925	5.6197e-06	34.06	0.00086822	0.0045255	0.00035463	483.81	1.212e-05	1.4117e-05	522.25	173.85	1.1884e-05	1.4107e-05	192.37	74.24	63.811	27.642	1.3115e-05	33.435	124.301	398.215	168.519	114.511	259.676	275.407	112.948	118.873	232.912	248.080	116.419	120.395	123.645	128.787	231.475	124.459	-8191	255	
40351.648	1	1	0	0	0.23034	0.25014	0.14425	0.20313	0.12531	0.16588	0.088847	0.19252	0.10692	0.14862	0.23057	0.27409	0.12458	0.28749	0.033464	0.16908	-2.9021	-2.9188	-3.1063	-3.1917	-2.7292	-3.1562	-3.0729	-3.1604	-3.1479	-2.9313	-3.1354	-3.2521	-2.8958	-3.2188	-3.0854	-2.8104	126.408	435.798	370.243	431.793	327.956	153.582	214.912	430.744	401.604	270.248	287.493	356.468	255.563	426.539	260.251	306.124	0.0006382	0.00084479	0.00019142	503.86	3.2545e-06	5.224e-06	545.27	178.56	3.6548e-06	4.5407e-06	200.46	77.395	64.065	28.22	3.8044e-06	34.115	0.00089087	0.0028933	0.00043205	488.88	1.211e-05	1.4147e-05	527.13	175.72	1.1815e-05	1.438e-05	194.73	75.224	63.911	27.803	1.3043e-05	33.549	117.892	362.389	136.101	114.825	217.782	267.924	112.908	119.447	257.004	235.863	115.929	120.100	123.993	129.033	227.223	124.010	-8191	255	
40351.746	1	1	0	0	0.29925	0.15996	0.071895	0.055851	0.13928	0.078267	0.18573	0.11516	0.21102	0.16853	0.1573	0.074964	0.23092	0.11906	0.19436	0.11382	-2.8563	-2.8958	-3.0479	-3.4417	-2.7917	-3.1604	-3.2542	-2.8812	-3.1688	-2.8667	-2.9208	-3.2583	-3.1896	-3.1625	-3.0396	-2.8292	212.064	214.741	246.387	109.626	145.035	191.611	455.063	401.953	448.330	307.695	448.534	388.350	426.828	115.033	161.177	363.599	0.00061615	0.0010063	0.00027841	500.49	3.1579e-06	3.0177e-06	544.81	179.03	5.1298e-06	1.2471e-06	199.21	76.756	64.345	28.055	2.606e-06	34.05	0.00084399	0.0016084	0.0010237	487.2	1.2022e-05	1.4447e-05	525.7	175.11	1.1734e-05	1.4155e-05	193.67	74.673	64.1	27.729	1.2661e-05	33.397	119.559	342.691	138.055	114.916	235.411	308.658	113.286	119.223	223.731	241.448	116.508	120.480	123.781	129.016	201.539	124.131	-8191	255	
40351.863	1	1	0	0	0.17559	0.16742	0.14363	0.16297	0.20208	0.068967	0.095871	0.18619	0.098542	0.097811	0.15348	0.070494	0.13263	0.16702	0.027608	0.17112	-2.8	-2.8187	-2.8292	-3.2208	-2.8729	-3.025	-3.2458	-2.8583	-3.2938	-2.9625	-3.0312	-3.1271	-2.8479	-3.0958	-3.1375	-2.9167	150.800	118.416	248.962	321.303	264.375	399.873	395.273	372.302	317.164	120.075	446.894	262.647	318.409	131.775	206.148	118.934	0.0006263	0.00027297	0.00021026	502.47	5.2163e-06	5.5634e-06	539.23	177.85	5.2767e-06	5.0555e-06	198.21	76.169	64.001	28.068	5.5815e-06	33.973	0.00089206	0.0012573	0.00095902	485.8	1.2198e-05	1.4087e-05	523.41	175.14	1.1401e-05	1.4601e-05	192.99	74.193	63.056	27.759	1.2788e-05	33.383	116.874	156.405	421.342	114.609	263.472	273.925	112.815	119.307	231.185	279.199	116.113	120.633	123.153	128.918	273.504	124.789	-8191	255	
40351.961	1	1	0	0	0.055617	0.064956	0.22498	0.1044	0.22536	0.041221	0.19028	0.063151	0.19759	0.093592	0.14403	0.21334	0.18033	0.17563	0.26753	0.12649	-2.6771	-3.0812	-2.8917	-3.1604	-2.6813	-3.0979	-3.1646	-2.6688	-3.1854	-3.0979	-2.8438	-3.2833	-3.1146	-3.1875	-3.1208	-2.9313	272.923	394.667	227.279	378.696	387.728	304.789	150.617	373.654	359.737	162.635	112.305	355.065	377.619	340.288	181.671	323.628	0.00061449	0.00044012	0.00024312	503.21	3.1422e-06	3.7443e-06	542.76	177.95	3.4497e-06	4.0445e-06	200.6	76.451	64.116	28.234	3.0066e-06	34.16	0.00089268	0.0012898	0.0012193	486.59	1.2276e-05	1.4314e-05	525.09	174.23	1.2168e-05	1.4279e-05	194.1	74.625	62.935	28.161	1.2943e-05	33.629	123.808	155.216	436.715	114.663	254.745	261.430	113.101	118.960	220.408	251.405	116.841	120.443	123.640	128.977	220.374	124.464	-8191	255	
40352.059	1	1	0	0	0.18026	0.066749	0.082592	0.26906	0.16551	0.14301	0.33818	0.18978	0.34144	0.23106	0.092148	0.14892	0.15973	0.04562	0.23347	0.13876	-2.75	-2.9333	-2.8729	-3.1167	-2.7708	-3.0438	-3.2229	-2.7562	-3.0583	-3.0729	-2.8063	-3.2958	-3.1667	-3.0583	-3.0896	-2.9021	390.361	382.942	338.722	222.249	220.750	396.470	358.587	342.304	188.058	326.595	150.455	401.285	115.981	245.630	346.964	455.249	0.00062283	0.00040486	0.00013068	503.53	5.1152e-06	1.2699e-06	547.11	179.31	5.2522e-06	3.8561e-06	200.27	76.972	64.577	28.377	2.6289e-06	34.405	0.00088085	0.001268	0.00096787	488.58	1.2051e-05	1.4161e-05	528.51	175.77	1.2505e-05	1.4334e-05	194.96	74.944	62.892	28.276	1.2605e-05	33.793	121.064	215.629	424.374	114.586	231.225	168.820	112.807	119.381	225.341	232.734	116.161	120.525	123.337	129.198	229.427	124.771	-8191	255	
40352.152	1	1	0	0	0.075184	0.067309	0.17484	0.2798	0.28129	0.18953	0.089459	0.23958	0.24978	0.13748	0.26249	0.21717	0.15367	0.25277	0.14254	0.16845	-2.5479	-3.0438	-3.1146	-3.175	-2.9708	-2.8604	-3.3063	-2.7917	-2.9833	-3.1688	-3.1083	-3.1875	-2.9833	-3.0875	-3.4146	-2.9167	217.626	277.100	124.566	307.241	361.010	307.236	447.493	118.656	383.292	373.224	327.676	225.912	127.041	121.641	118.009	427.642	0.00062094	0.00035467	0.00020675	502.8	2.1683e-06	4.0754e-06	540.48	178.4	1.2136e-05	3.4646e-06	199.03	76.408	64.367	28.128	3.6367e-06	34.029	0.0008991	0.0012941	0.0012344	487.71	1.2473e-05	1.4556e-05	524.65	174.66	1.6808e-05	1.3927e-05	193.86	74.518	62.818	28.228	1.2304e-05	33.524	123.218	145.041	456.460	114.683	204.228	239.165	112.938	119.349	211.287	227.856	115.793	120.487	123.592	129.074	231.167	124.329	-8191	255	
40352.246	1	1	0	0	0.11371	0.15109	0.1678	0.20015	0.10918	0.026833	0.21284	0.0077225	0.1759	0.18849	0.25622	0.31387	0.13297	0.14264	0.16613	0.078456	-2.6042	-3.1521	-2.8917	-3.2958	-3.0854	-2.8083	-3.2125	-3.0125	-2.9437	-3.2771	-2.9729	-3.1292	-3.1188	-2.8187	-3.2354	-2.9875	161.352	377.122	244.840	453.856	118.454	136.760	294.755	274.441	145.949	188.205	141.390	451.091	453.779	428.424	227.667	381.096	0.00058723	0.00021556	0.00022871	503.1	3.7413e-06	1.7558e-06	542.79	178.16	1.5048e-05	3.8137e-06	200.75	77.53	64.692	28.17	3.1525e-06	34.121	0.00088857	0.0012628	0.00096151	487.98	1.2026e-05	1.4301e-05	525.69	173.6	3.6301e-05	1.3951e-05	195.99	75.325	63.446	28.126	1.2409e-05	33.544	123.112	123.999	441.141	115.054	224.340	303.022	112.656	119.422	225.729	256.137	116.366	120.116	123.957	129.044	253.956	124.520	-8191	255	
40352.348	1	1	0	0	0.30419	0.14603	0.30122	0.17772	0.13113	0.082904	0.054612	0.1823	0.17761	0.11364	0.036097	0.14402	0.070348	0.10815	0.12904	0.14156	-2.5125	-3.1854	-2.775	-3.2188	-2.9938	-2.8167	-3.2125	-2.9354	-2.95	-3.2521	-2.7833	-3.1333	-3.1167	-2.8812	-3.0021	-2.8604	440.043	269.031	219.148	390.769	403.923	386.119	331.513	444.803	185.730	355.469	161.737	440.130	177.321	351.481	369.848	411.968	0.00063556	0.00042832	0.00034203	500.76	3.1901e-06	1.4618e-06	544.46	178.69	1.1991e-05	2.128e-06	201.73	77.079	64.584	27.983	3.6696e-06	33.948	0.00091785	0.0012868	0.0012228	489.14	1.2437e-05	1.4121e-05	527.92	173.87	3.2504e-05	1.4106e-05	196.21	75.139	63.016	28.129	1.2547e-05	33.411	119.986	182.597	441.409	114.694	308.858	238.898	112.831	119.166	232.889	253.047	116.266	120.374	123.583	129.087	225.731	124.521	-8191	255	
40352.465	1	1	0	0	0.10073	0.14217	0.22783	0.059181	0.20335	0.11874	0.054238	0.11789	0.065103	0.18162	0.089944	0.16992	0.033938	0.35275	0.12823	0.20203	-2.7625	-3.2354	-2.9	-3.2313	-3.0771	-2.9917	-3.2229	-2.9604	-2.8979	-3.1708	-2.7729	-2.9437	-3.0625	-2.8604	-3.2313	-3.2354	398.912	369.785	279.254	431.343	315.316	225.545	132.453	358.247	231.950	123.582	270.403	144.792	309.339	450.390	349.398	124.252	0.0005769	0.00030103	0.00011649	498.82	3.1259e-06	1.4123e-06	536.77	177.52	1.5352e-05	2.6371e-06	197.01	76.306	63.867	27.607	3.6485e-06	33.637	0.00089228	0.0011864	0.00070269	485.1	1.1765e-05	1.3975e-05	520.88	172.08	4.1864e-05	1.3813e-05	192.28	74.13	62.24	27.722	1.2844e-05	33.083	119.736	193.704	408.846	114.536	226.893	253.868	112.784	119.035	239.338	281.607	116.362	120.362	123.779	128.984	231.136	124.535	-8191	255	
40352.559	1	1	0	0	0.23756	0.21262	0.17887	0.25014	0.26429	0.18999	0.14979	0.14703	0.19131	0.054254	0.13738	0.022804	0.17086	0.21816	0.052666	0.2337	-2.4354	-3.1063	-2.9958	-2.8792	-2.9896	-2.85	-3.1333	-3.0479	-2.7479	-3.3417	-2.9604	-3.0833	-3.2021	-2.9625	-3.1604	-2.9792	337.249	283.299	136.564	120.519	406.560	176.596	326.955	122.562	444.925	166.518	399.760	208.568	122.221	417.234	152.286	356.630	0.00058518	0.00035939	7.5611e-05	498.26	3.9517e-06	2.1139e-06	540.58	177.64	9.0734e-06	3.3191e-06	200.49	77.421	65.095	28.05	3.6225e-06	34.101	0.00089109	0.0011779	0.00035003	488.71	1.1888e-05	1.3877e-05	523.31	172.97	3.255e-05	1.378e-05	195.32	75.118	63.529	28.225	1.2833e-05	33.567	124.313	179.337	172.430	114.831	238.105	296.697	113.064	119.348	265.141	283.184	116.438	120.692	123.811	129.215	226.929	124.496	-8191	255	
40352.656	1	1	0	0	0.21975	0.11142	0.13197	0.28396	0.21553	0.13744	0.083926	0.30518	0.19431	0.18534	0.072698	0.21824	0.10877	0.17611	0.22664	0.20441	-2.3104	-3.1667	-2.8417	-3.0104	-3.3771	-2.8167	-3.1	-3.0917	-2.7729	-3.1188	-3.1646	-3.0208	-3.2396	-2.8854	-3.1521	-3.2271	260.652	427.218	340.767	109.593	428.059	113.028	354.743	321.868	286.630	190.927	225.688	133.934	111.108	369.443	375.068	324.046	0.00067849	0.00044984	4.6544e-05	504.34	3.8633e-06	1.8446e-06	546.31	178.51	1.5232e-05	3.7545e-06	199.61	77.355	64.775	28.015	4.4894e-06	34.094	0.00088261	0.0012113	0.00034576	494.05	1.1622e-05	1.4013e-05	528.86	173.65	4.1056e-05	1.4032e-05	195.08	75.086	63.264	27.939	1.9216e-05	33.485	120.700	192.419	187.681	115.040	244.663	212.488	113.092	118.978	248.689	286.228	116.512	120.473	123.841	128.914	175.168	124.574	-8191	255	
40352.777	1	1	0	0	0.33309	0.13156	0.16956	0.12085	0.25174	0.10286	0.26232	0.13146	0.059065	0.12172	0.38253	0.34156	0.086217	0.085285	0.078642	0.11326	-2.4146	-3.2167	-3.0604	-2.9062	-3.1917	-2.7979	-3.0542	-3.1937	-2.8375	-3.2458	-2.9896	-2.8625	-3.1792	-2.9062	-2.9458	-3.3042	272.638	118.476	319.298	421.786	399.520	129.375	360.709	405.916	191.192	371.540	408.937	415.042	140.103	206.833	130.756	389.080	0.00058303	0.00054117	0.00012879	500.7	4.3643e-06	7.1388e-07	543.43	178.09	1.592e-05	3.2159e-06	198.39	76.718	64.334	28.227	4.5959e-06	33.771	0.00086808	0.0012421	0.00034991	493.97	1.1396e-05	1.4021e-05	526.34	172.92	3.0876e-05	1.3948e-05	194.34	74.573	62.75	27.808	4.2025e-05	33.365	117.634	195.975	181.685	114.967	235.905	177.491	113.067	119.127	240.482	277.149	116.344	120.299	123.636	129.228	440.374	124.366	-8191	255	
40352.848	1	1	0	0	0.17669	0.17275	0.03137	0.04481	0.3137	0.20101	0.32937	0.20948	0.13139	0.16041	0.32697	0.041039	0.11265	0.10308	0.30564	0.066259	-2.3354	-3.1521	-3.0521	-2.7708	-3.1917	-2.9938	-3	-3.2625	-2.9333	-3.1937	-3.1479	-2.8104	-3.2562	-3.0229	-2.95	-3.2438	252.906	274.802	398.094	202.187	370.946	331.503	284.558	377.560	163.945	105.284	371.760	242.427	156.701	379.144	396.255	403.259	0.00064407	0.00025059	0.00011408	501.19	2.6558e-06	1.9511e-06	540.63	177.38	1.6753e-05	3.2678e-06	198.05	76.28	63.977	28.05	3.8653e-06	33.857	0.00087908	0.0012114	0.00034847	489.98	1.1311e-05	1.4009e-05	523.37	172.49	3.9849e-05	1.3657e-05	193.1	74.342	62.418	27.678	3.4323e-05	33.321	117.435	195.516	206.196	114.576	207.808	272.395	112.879	119.098	265.169	173.076	115.845	120.248	124.101	129.289	102.845	124.487	-8191	255	
40352.945	1	1	0	0	0.18514	0.23079	0.24417	0.020335	0.22583	0.31512	0.099906	0.21477	0.018984	0.16427	0.13095	0.22148	0.096335	0.25647	0.13656	0.25204	-2.3979	-3.0729	-3.2042	-3.0187	-3.0312	-3.0208	-2.9958	-3.3292	-2.875	-2.9833	-3.2167	-2.9813	-3.2354	-3.1583	-2.9562	-3.2625	335.552	288.884	446.919	440.332	125.892	239.592	284.559	132.755	227.430	448.152	173.061	122.032	391.599	425.610	254.655	419.034	0.00065804	0.00035177	4.7434e-05	501.98	2.8064e-06	4.3433e-06	544.37	176.58	6.8693e-06	9.8801e-06	198.12	76.563	64.43	28.289	1.3548e-05	34.435	0.00087793	0.0012279	0.00034668	492.6	1.1457e-05	1.3881e-05	525.13	171.91	2.1868e-05	2.2405e-05	193.61	74.448	62.883	27.885	4.3692e-05	33.702	125.236	208.219	152.259	114.948	230.698	286.073	112.619	119.452	264.978	251.755	116.262	120.602	123.424	129.127	405.421	124.835	-8191	255	
40353.039	1	1	0	0	0.12998	0.21165	0.30843	0.12185	0.14147	0.04205	0.26533	0.15281	0.056869	0.069571	0.072144	0.15595	0.29375	0.3345	0.1962	0.074825	-2.3083	-3.0292	-3.1312	-2.9521	-3.1646	-2.9437	-2.9229	-3.2917	-3.1021	-3.0625	-3.2042	-3.0375	-3.2146	-3.0917	-2.8292	-3.2812	288.937	329.801	119.342	404.667	307.776	132.264	328.432	209.388	461.062	269.670	181.051	334.383	426.485	406.391	313.325	190.124	0.00062097	0.00028066	9.7539e-05	503.31	1.258e-06	1.4384e-06	545.02	178.36	6.5835e-06	8.2551e-06	199.98	77.687	64.537	28.394	3.5186e-06	34.278	0.00087215	0.0012337	0.00032973	491.79	1.1827e-05	1.3462e-05	528.93	173.05	1.1773e-05	4.7226e-05	195.06	75.223	63.081	27.974	3.3369e-05	33.741	120.939	165.548	204.122	114.720	205.095	197.644	112.807	119.230	203.098	240.236	116.173	120.564	123.396	129.044	420.708	124.664	-8191	255	
40353.137	1	1	0	0	0.16527	0.02051	0.086946	0.18838	0.26308	0.25582	0.096582	0.23434	0.16685	0.069877	0.12681	0.13066	0.19228	0.24865	0.067104	0.25447	-2.55	-3.0333	-3.2417	-2.9188	-3.1979	-3.2104	-3.1125	-3.2958	-3.2812	-2.9104	-3.3292	-2.9083	-2.8625	-3.2667	-2.8604	-3.1625	422.029	424.264	348.807	130.721	365.265	136.751	296.598	369.058	194.928	412.398	340.028	428.519	137.999	380.944	223.410	120.341	0.00065253	0.00028994	9.7239e-05	502.72	3.4121e-06	4.4843e-06	544.03	176.16	6.6244e-06	5.9234e-06	198.5	76.503	64.304	28.076	8.3877e-06	34.303	0.00087948	0.0012408	0.00032188	493.64	1.1705e-05	1.3659e-05	525.89	172.15	1.1561e-05	3.7848e-05	193.65	74.48	62.658	27.788	4.233e-05	33.579	122.956	203.369	194.917	114.644	215.545	256.177	113.110	119.003	220.223	300.426	116.471	120.717	123.603	129.107	446.289	124.804	-8191	255	
40353.258	1	1	0	0	0.12631	0.30284	0.037973	0.26558	0.15337	0.13102	0.075847	0.25871	0.086166	0.059092	0.10614	0.15935	0.18647	0.21253	0.10234	0.095288	-2.5958	-2.7729	-3.2917	-2.9125	-3.0021	-3.1542	-2.8812	-3.0833	-2.9292	-2.9375	-3.3125	-2.9854	-2.9896	-3.1562	-2.7375	-3.0792	341.854	209.371	394.338	336.575	391.433	320.484	117.697	418.916	126.615	213.743	363.461	106.726	390.364	189.911	313.343	258.613	0.00057164	0.00023491	6.2052e-05	500.21	1.4132e-05	3.0395e-06	546.76	176.98	7.9409e-06	1.5953e-05	199.29	77.2	64.464	28.459	7.8095e-06	34.87	0.00084348	0.0012037	0.00032399	487.53	1.9064e-05	1.3235e-05	528.11	172.28	1.1639e-05	4.8561e-05	195.1	74.992	63.177	28.13	3.2847e-05	34.156	121.487	227.258	187.302	114.852	214.501	246.162	112.969	119.250	226.744	326.202	116.406	120.566	123.553	129.152	436.221	124.530	-8191	255	
40353.352	1	1	0	0	0.13483	0.25668	0.18578	0.020832	0.053131	0.17214	0.17887	0.42056	0.084871	0.16767	0.035897	0.092724	0.19268	0.13373	0.12526	0.11724	-2.6417	-2.9062	-3.0875	-2.8354	-2.9917	-3.2479	-3.0146	-3.0917	-3.0104	-2.8833	-3.2542	-2.8292	-2.9437	-3.2479	-2.8688	-3.25	234.150	432.920	288.121	102.113	445.183	265.380	451.846	456.977	402.389	309.030	396.308	174.549	120.988	131.710	439.929	210.792	0.00064546	0.00030347	8.5809e-05	509.31	1.3167e-05	9.5691e-07	552	179.99	4.0631e-06	1.4102e-05	202.94	77.977	65.584	28.927	7.8917e-06	35.268	0.00086429	0.0012295	0.00033168	493.41	4.1079e-05	1.3144e-05	536.23	174.61	1.1729e-05	3.7706e-05	197.93	75.906	64.161	28.551	4.148e-05	34.534	120.528	176.336	159.115	114.825	219.172	306.617	112.623	119.319	210.307	301.610	116.328	120.298	123.374	129.214	444.623	124.641	-8191	255	
40353.426	1	1	0	0	0.072283	0.27244	0.031364	0.37428	0.21922	0.072696	0.078157	0.26488	0.08461	0.13683	0.15873	0.26276	0.23967	0.17847	0.2375	0.3532	-2.7812	-2.7333	-3.3104	-3.0208	-2.9896	-3.3688	-3.0458	-3.2	-3.1333	-2.8479	-3.1167	-3.0854	-3.0062	-3.2687	-3.0125	-3.2167	182.297	376.039	275.010	424.400	204.184	408.583	109.713	424.082	245.037	414.697	396.565	177.020	425.548	375.410	104.965	456.189	0.00064769	0.00038432	0.00011195	504.69	1.1453e-05	4.0293e-06	554.28	178.09	4.3403e-06	1.1571e-05	201.04	77.945	65.229	28.73	5.7497e-06	35.285	0.00087641	0.0012224	0.00033475	492.97	3.079e-05	1.2968e-05	535.46	173.21	1.1312e-05	4.8293e-05	196.64	75.573	63.848	28.526	2.1287e-05	34.713	121.955	186.453	203.373	115.128	188.060	264.959	112.734	119.190	209.497	319.789	116.366	120.522	123.679	129.345	366.039	124.669	-8191	255	
40353.547	1	1	0	0	0.045076	0.31522	0.05545	0.08582	0.20948	0.13162	0.26677	0.16068	0.16388	0.18817	0.12594	0.16912	0.15265	0.17138	0.16737	0.12133	-2.8271	-2.7583	-3.3229	-3.2188	-2.9562	-3.2479	-2.9708	-3.1437	-3.2313	-2.9146	-3.225	-2.9813	-2.9771	-3.4104	-2.9896	-3.0875	349.987	416.446	246.407	214.649	176.228	401.184	155.431	146.743	191.591	331.921	367.170	170.660	109.666	402.695	237.853	414.333	0.00059997	0.00038267	6.5819e-05	508.87	1.2453e-05	1.9649e-06	555.97	180.17	3.1851e-06	6.9917e-06	202.99	78.02	65.809	29.073	5.0009e-06	35.444	0.00085495	0.0011987	0.00033684	495.8	3.9624e-05	1.2727e-05	537.58	174.8	1.1625e-05	3.7493e-05	197.96	76.076	64.367	28.772	1.2633e-05	35.361	122.760	215.944	238.280	114.727	226.143	235.242	112.696	119.253	260.540	324.385	116.021	120.431	123.366	129.174	271.760	124.653	-8191	255	
40353.641	1	1	0	0	0.099793	0.15415	0.41359	0.1444	0.14843	0.13495	0.1751	0.099994	0.22321	0.17347	0.16143	0.16989	0.30337	0.092478	0.067619	0.32184	-2.8375	-2.8833	-3.1188	-3.0021	-2.7333	-3.2729	-2.9833	-3.0104	-3.1	-2.9375	-3.2979	-3.1333	-2.8646	-3.2146	-2.925	-2.9896	459.253	366.131	158.633	425.240	314.714	233.077	347.358	239.886	209.105	412.958	385.634	333.694	391.342	230.499	197.114	110.299	0.00063028	0.0002787	0.00011288	510.62	9.4207e-06	3.2525e-06	558.59	178.11	3.6834e-06	1.4611e-05	202.42	78.101	65.073	28.874	3.8071e-06	35.216	0.00083757	0.0011706	0.00033035	496.46	3.0698e-05	1.3294e-05	538.77	173.75	1.106e-05	4.739e-05	197.78	75.842	63.702	28.576	1.2591e-05	35.104	124.230	167.397	205.185	114.804	229.628	215.839	112.867	119.191	211.990	345.597	116.280	120.232	123.858	129.046	264.738	124.196	-8191	255	
40353.738	1	1	0	0	0.1655	0.2381	0.24316	0.18748	0.15413	0.10882	0.22734	0.12815	0.093835	0.23874	0.15199	0.020801	0.30407	0.14088	0.14447	0.087862	-2.7438	-2.9083	-3.0792	-3.0583	-2.6063	-3.0438	-3.0458	-3.1042	-3.125	-2.8729	-3.0792	-3.1229	-2.8375	-3.3875	-2.9875	-2.8187	326.495	106.186	182.792	430.087	382.193	420.494	390.248	268.282	155.827	233.756	194.648	274.931	171.111	122.796	158.725	367.969	0.00063349	0.00031356	9.1317e-05	508.61	1.5976e-05	4.4951e-06	557.65	179.21	3.7731e-06	1.1664e-05	204.38	78.556	65.86	29.378	4.8385e-06	35.701	0.0008429	0.0011786	0.00032616	494.02	3.939e-05	1.3483e-05	537.95	174.5	1.0864e-05	2.3181e-05	199.46	76.228	64.257	28.942	1.2636e-05	35.561	122.965	158.441	213.936	114.608	219.847	243.290	112.943	119.016	266.885	335.711	116.142	120.917	123.825	129.036	286.455	124.198	-8191	255	
40353.855	1	1	0	0	0.24691	0.15396	0.3101	0.10574	0.044975	0.21606	0.40446	0.19232	0.28521	0.12266	0.2438	0.24341	0.12914	0.071883	0.25049	0.041375	-2.7021	-3.0646	-3.0125	-3.0604	-2.9083	-3.2313	-2.9146	-2.9813	-3.1833	-3.0167	-3.0083	-3.3333	-2.9688	-3.2104	-3.0062	-3.0062	288.745	173.697	438.125	421.968	122.989	208.578	398.009	114.957	158.972	378.525	368.496	384.423	311.001	351.222	182.861	167.293	0.00065366	0.00031374	7.76e-05	512.15	1.1228e-05	2.2092e-06	559.29	179.21	4.3695e-06	1.2351e-06	202.47	78.306	65.414	29.193	3.9432e-06	35.351	0.00084759	0.0011853	0.00032825	497.67	3.079e-05	1.3189e-05	540.15	174.37	1.1221e-05	1.3654e-05	201.52	75.942	64.006	28.882	1.2856e-05	35.299	119.704	205.246	200.086	114.591	227.029	263.812	112.945	119.260	228.397	228.573	116.796	120.444	123.501	128.816	254.639	124.365	-8191	255	
40353.953	1	1	0	0	0.048922	0.19848	0.27899	0.16595	0.39127	0.10879	0.057303	0.18287	0.21457	0.042241	0.21076	0.27195	0.022343	0.1199	0.1896	0.21212	-2.7625	-2.9146	-2.9792	-3.375	-2.9021	-3.2479	-3.0687	-3.0792	-3.1562	-2.8771	-3.0604	-3.2313	-2.9146	-3.0917	-2.975	-2.9854	310.128	104.492	137.517	136.957	415.392	255.540	299.538	368.292	147.896	286.811	292.027	444.316	199.309	152.386	435.375	419.468	0.00066748	0.00045345	4.1975e-05	507.55	3.4096e-06	1.1995e-06	555.5	179.86	3.0238e-06	3.5091e-06	202.65	78.188	66.092	29.146	3.2355e-06	35.537	0.00083338	0.0012579	0.00033987	494.97	3.8037e-05	1.4113e-05	537.05	173.72	1.139e-05	1.3187e-05	200.4	76.062	64.316	28.929	1.245e-05	35.619	118.468	179.516	206.807	114.569	246.888	270.436	112.772	119.137	177.634	241.226	115.980	120.242	123.559	128.932	229.934	124.088	-8191	255	
40354.051	1	1	0	0	0.14265	0.098555	0.10408	0.14432	0.19281	0.12121	0.19277	0.20213	0.049896	0.12004	0.059992	0.18942	0.05405	0.1497	0.046013	0.034719	-2.8271	-2.8688	-2.8833	-3.3729	-2.8563	-3.1188	-3.0667	-2.875	-3.2438	-3.075	-3.1458	-3.1083	-2.8563	-3.0979	-3.0604	-2.925	442.817	224.124	410.165	187.936	367.356	131.169	404.473	420.575	316.537	289.601	185.153	174.362	416.696	257.762	292.982	235.027	0.00065134	0.00042231	9.4781e-05	510.39	2.8568e-06	1.2112e-05	560.75	180.24	4.7206e-06	4.6023e-06	203.43	78.781	65.944	29.649	4.4276e-06	35.97	0.00086783	0.0012121	0.00034116	496.92	1.752e-05	2.5884e-05	542.11	175.04	1.1146e-05	1.359e-05	203.5	76.672	64.578	29.125	1.2167e-05	35.717	121.457	174.819	233.804	114.780	249.782	240.124	112.699	119.301	236.656	264.017	116.640	120.499	123.730	129.072	215.390	124.809	-8191	255	
40354.145	1	1	0	0	0.15325	0.10168	0.1294	0.21454	0.18471	0.20345	0.23565	0.12441	0.21785	0.050373	0.038316	0.14295	0.29564	0.16903	0.20951	0.23351	-2.7979	-3.0729	-2.8417	-3.3812	-2.8375	-2.9125	-3.2938	-2.8667	-3.1188	-3.0396	-2.8771	-3.1583	-3.1083	-2.8708	-3.2229	-2.8833	138.350	206.789	315.272	416.472	256.324	101.478	422.500	216.774	115.826	193.497	346.647	416.510	438.352	361.980	363.668	372.941	0.00062226	0.00044827	7.0772e-05	515.17	2.4668e-06	1.7589e-05	559.17	179.08	4.3617e-06	5.7546e-06	202.61	78.493	65.606	29.207	3.7289e-06	35.573	0.00085488	0.0012078	0.00033505	497.94	1.1852e-05	4.8319e-05	538.96	174.48	1.176e-05	1.362e-05	200.51	76.144	64.257	28.944	1.1818e-05	35.426	118.720	195.302	143.685	114.625	243.388	256.507	112.649	119.108	205.991	257.128	116.082	120.170	123.529	128.858	230.590	124.567	-8191	255	
40354.242	1	1	0	0	0.30099	0.18058	0.02814	0.17316	0.26179	0.32286	0.057218	0.12418	0.22842	0.19578	0.16796	0.061753	0.12805	0.24288	0.23633	0.19102	-2.7438	-3.0396	-3.1146	-3.3354	-2.925	-3.1312	-3.2479	-2.8625	-3.0958	-3.0479	-2.8979	-3.2812	-2.9938	-2.95	-3.2521	-3.0542	266.195	226.846	126.965	343.430	436.471	348.758	261.737	161.941	172.181	263.225	346.862	427.770	381.992	440.960	267.406	125.701	0.00066867	0.0003031	0.00013639	506.38	4.4935e-06	1.2597e-05	553.92	178.45	6.1588e-06	3.1465e-06	201.6	77.676	65.472	29.054	6.2329e-06	35.121	0.00086029	0.0011588	0.00031353	493.71	1.1466e-05	3.7011e-05	535.41	173.32	1.1613e-05	1.3588e-05	200.02	75.695	63.876	28.758	1.1854e-05	34.775	121.402	211.458	183.361	114.618	234.473	256.900	113.009	119.556	211.755	263.264	116.176	120.385	123.570	128.991	251.821	124.467	-8191	255	
40354.336	1	1	0	0	0.23624	0.20367	0.14349	0.263	0.11852	0.1007	0.18731	0.20036	0.23154	0.15995	0.027089	0.22828	0.1178	0.24799	0.17766	0.29036	-2.5417	-3.2083	-2.9188	-3.1937	-3.1271	-3.0833	-3.3937	-2.7542	-3.1458	-3.2	-2.9354	-3.3396	-3.1479	-3.0271	-3.2479	-2.925	302.057	316.330	268.267	429.109	392.339	310.624	391.819	327.032	189.237	236.305	346.974	437.212	455.113	438.183	144.267	435.857	0.00077376	0.00037097	8.3604e-05	509.85	3.9895e-06	1.4118e-05	556.81	179.49	2.4748e-06	3.5983e-06	202.66	78.151	65.562	29.158	3.2113e-06	35.543	0.001455	0.0011428	0.0003218	495.22	1.1596e-05	4.6798e-05	537.97	174.22	1.1886e-05	1.3261e-05	201.27	76.374	64.279	28.805	1.1762e-05	34.953	113.015	161.110	191.882	114.606	257.867	265.144	112.594	119.017	212.277	235.058	116.210	120.465	123.491	129.054	269.905	124.481	-8191	255	
40354.457	1	1	0	0	0.11158	0.18887	0.20602	0.23585	0.18824	0.18149	0.069521	0.17989	0.19765	0.14531	0.10415	0.13246	0.42111	0.11377	0.1202	0.093886	-2.7521	-3.0208	-3.1104	-3.1354	-3.1792	-2.8167	-3.2979	-2.9333	-2.9854	-3.2042	-2.8979	-3.0667	-3.2167	-2.9604	-3.1042	-2.9833	185.917	371.344	459.095	390.125	375.411	427.527	455.290	357.427	434.268	230.325	387.786	128.704	119.421	216.303	152.379	416.400	0.00067761	0.00036087	0.00010389	511.86	5.0934e-06	1.0764e-05	557.31	178.28	4.7075e-06	5.6716e-06	202.87	77.903	65.08	29.104	4.1184e-06	35.189	0.0023945	0.0011449	0.0003263	496.32	1.1436e-05	3.7248e-05	538.78	173.95	1.2109e-05	1.3375e-05	200.94	76.01	63.981	28.691	1.2412e-05	34.598	458.482	174.936	204.980	114.892	222.250	272.323	112.588	119.019	213.263	225.125	116.484	120.599	123.942	129.123	237.259	124.652	-8191	255	
40354.555	1	1	0	0	0.127	0.08025	0.14718	0.064523	0.25439	0.20655	0.18883	0.097303	0.059499	0.16422	0.12138	0.067121	0.28584	0.11077	0.099222	0.15205	-2.5208	-3.2562	-2.9083	-3.1375	-3.1792	-2.8208	-3.2542	-3.0896	-3.1146	-3.2271	-3.0042	-3.1583	-3.2812	-2.8604	-3.075	-2.9521	275.952	295.359	125.052	444.467	416.461	185.922	454.708	389.951	184.608	253.647	150.378	226.770	120.362	374.875	388.982	435.632	0.00065155	0.000121	0.00011002	504.65	5.3827e-06	1.6054e-05	550.01	177.01	1.5756e-06	2.4069e-06	200.85	77.969	65.191	29.162	6.0916e-06	35.47	0.0019011	0.0011359	0.00033361	491.8	1.1337e-05	4.7425e-05	534.33	173.14	1.1608e-05	1.2832e-05	197.27	76.053	63.875	28.753	1.1907e-05	34.756	106.212	147.299	182.624	114.881	240.091	274.341	113.007	119.366	211.436	282.196	116.535	120.048	123.488	129.066	242.036	124.814	-8191	255	
40354.648	1	1	0	0	0.19991	0.063718	0.18757	0.1837	0.065034	0.11797	0.1444	0.16573	0.29137	0.18214	0.06558	0.10197	0.24792	0.30578	0.12821	0.25791	-2.7125	-3.2292	-2.9437	-3.1937	-3.0563	-2.7562	-3.2583	-3.0604	-2.9125	-3.15	-2.9896	-3.0917	-3.1917	-3.0521	-3.2833	-3.1625	124.271	313.666	358.169	425.576	180.368	298.931	432.489	367.265	313.361	380.398	103.831	299.117	103.369	232.477	366.100	353.139	0.00071297	0.00029484	0.00012415	510.99	3.3953e-06	6.6968e-06	557.76	179.37	5.0921e-06	4.8438e-06	203.14	77.938	66.015	29.117	6.0098e-06	35.626	0.0023735	0.0011336	0.00033234	494.36	1.1074e-05	3.6771e-05	538.19	174.36	1.1709e-05	1.3147e-05	198.37	77.283	64.474	28.77	1.2297e-05	34.822	105.493	190.344	191.775	114.700	246.133	255.216	113.032	119.175	233.543	244.574	116.306	120.575	123.811	129.085	226.752	124.707	-8191	255	
40354.723	1	1	0	0	0.1821	0.235	0.13195	0.25668	0.12249	0.27115	0.19006	0.076044	0.1227	0.18757	0.16709	0.10018	0.11846	0.086969	0.15585	0.20135	-2.4833	-3.2646	-2.975	-3.0396	-3.1292	-2.8063	-3.3125	-3.1646	-2.8479	-3.1083	-2.8896	-3.1688	-3.3354	-2.8063	-3.1167	-3.1708	113.427	221.589	368.943	429.347	380.365	444.059	138.299	400.676	320.657	166.117	305.799	227.951	179.810	136.189	412.219	265.411	0.0007915	0.00029476	5.8513e-05	509.47	4.6217e-06	9.7895e-06	557.79	180.68	4.5346e-06	1.7862e-06	203.6	78.513	66.053	29.197	4.0766e-06	35.435	0.001911	0.0011482	0.00033509	495.15	1.0975e-05	4.097e-05	538.09	175.02	1.1181e-05	1.2821e-05	198.7	77.171	64.512	28.799	1.2126e-05	34.803	109.011	165.706	247.637	114.948	243.493	321.712	112.824	119.101	258.643	281.636	116.361	120.326	123.511	128.783	262.001	124.863	-8191	255	
40354.816	1	1	0	0	0.023302	0.12384	0.038169	0.18639	0.20316	0.18967	0.088416	0.25053	0.23644	0.23484	0.15128	0.0098869	0.17485	0.052494	0.07253	0.097508	-2.5104	-3.1479	-3.1063	-2.7771	-3.2	-2.9437	-3.25	-2.9021	-2.9229	-3.1312	-3.0187	-2.9938	-3.3458	-2.8312	-2.95	-3.2812	358.086	360.611	249.077	215.822	339.237	385.958	126.569	398.486	226.792	414.674	310.761	136.780	121.857	393.160	299.663	318.665	0.00068592	0.00016467	9.2264e-05	511.86	3.3158e-06	7.2585e-06	556.86	179.25	5.1359e-06	5.5957e-06	203.24	78.431	66.269	29.225	3.655e-06	35.747	0.0023403	0.0012391	0.00033497	494.87	1.1104e-05	1.7653e-05	540.49	174.25	1.1311e-05	1.3327e-05	197.59	77.578	64.62	28.967	1.2661e-05	35.048	106.765	257.967	195.938	114.519	212.759	319.669	112.950	119.358	284.396	241.559	116.513	120.214	123.530	129.076	237.257	124.439	-8191	255	
40354.938	1	1	0	0	0.08885	0.1275	0.21433	0.095944	0.17957	0.090533	0.15063	0.078461	0.25814	0.18791	0.16938	0.12932	0.14186	0.19744	0.30666	0.21179	-2.5167	-3.1583	-2.9062	-3.1354	-3.3521	-2.9292	-3.3104	-3.1417	-2.9437	-3.2708	-3.0438	-2.8917	-3.2396	-2.975	-3.1688	-3.2229	127.746	350.011	448.985	426.894	150.976	137.976	121.947	324.299	271.832	167.879	382.742	144.951	396.778	314.150	329.774	403.300	0.00074115	0.00053667	0.00010241	513.28	3.0236e-06	4.2188e-06	555.73	179.4	3.244e-06	2.8964e-06	203.46	78.33	66.476	29.453	1.8631e-06	35.817	0.0018594	0.0011669	0.00032015	496.54	1.046e-05	1.3417e-05	544.95	174.6	1.1253e-05	1.2929e-05	198.53	77.271	64.847	29.098	1.2406e-05	35.199	112.674	191.624	209.709	114.922	228.029	210.193	112.655	119.296	219.581	229.939	116.523	120.130	123.851	128.768	209.306	124.010	-8191	255	
40355.031	1	1	0	0	0.137	0.27405	0.2354	0.069687	0.070019	0.20209	0.29933	0.28021	0.24578	0.18659	0.17509	0.14186	0.24003	0.13429	0.19729	0.20762	-2.5833	-3.0354	-2.9542	-2.9708	-3.2979	-2.9333	-2.9979	-3.1792	-2.9813	-3.1437	-3.1	-2.9167	-3.1042	-2.9792	-2.9521	-3.3417	460.811	446.687	404.466	305.833	359.655	135.024	363.096	415.331	457.928	315.141	177.835	421.873	136.327	146.531	388.278	126.051	0.0006645	0.0013142	0.0001204	509.54	4.0497e-06	2.008e-06	556.28	179.52	5.165e-06	3.0962e-06	205.02	79.102	66.082	29.498	3.3633e-06	35.999	0.0019904	0.0014231	0.00032052	495.28	1.0805e-05	1.3013e-05	543.62	175.1	1.1452e-05	1.3359e-05	199.16	78.022	64.707	29.188	1.23e-05	35.408	116.451	155.824	175.787	114.642	268.483	259.692	113.160	119.057	228.475	252.981	116.147	120.383	123.942	128.814	208.605	124.842	-8191	255	
40355.129	1	1	0	0	0.17976	0.14052	0.11688	0.25618	0.20758	0.11095	0.031444	0.1164	0.10824	0.11912	0.22797	0.14551	0.12012	0.29243	0.15111	0.067286	-2.6083	-3.0125	-3.2188	-2.8271	-3.1229	-2.9667	-2.9667	-3.0854	-2.8854	-3.1875	-3.2521	-2.9458	-3.1271	-3.1688	-2.8646	-3.3396	209.080	280.639	191.880	310.722	233.697	343.107	129.599	385.772	171.438	227.959	327.806	366.281	210.162	444.115	101.201	289.119	0.00060431	0.00064326	0.00010354	515.92	5.6768e-06	2.7821e-06	559.68	179.87	2.9429e-06	2.7532e-06	204.69	78.445	66.303	29.721	4.7926e-06	35.991	0.0010093	0.0026691	0.00032216	498.06	1.1203e-05	1.2855e-05	546.25	175.21	1.1331e-05	1.3978e-05	199.04	77.528	64.956	29.316	1.2088e-05	35.334	116.001	160.560	207.229	115.053	219.792	197.145	113.159	118.969	199.940	254.128	116.559	120.367	123.569	129.106	246.502	124.376	-8191	255	
40355.227	1	1	0	0	0.15819	0.21456	0.082	0.19172	0.068954	0.19306	0.20303	0.16265	0.27654	0.036642	0.18603	0.080338	0.10128	0.34113	0.037859	0.2182	-2.4125	-2.9104	-3.0521	-2.9208	-3.2021	-3.0667	-2.9479	-3.1063	-3.1188	-3.0625	-3.1979	-2.975	-3.2396	-3.1854	-3.0292	-3.3146	183.497	190.798	381.752	353.189	211.302	281.520	456.253	106.339	156.691	317.682	124.729	255.459	125.034	447.788	342.137	363.219	0.00059577	0.0016231	9.4914e-05	512.16	3.3685e-06	1.1455e-06	557.15	180.23	3.0086e-06	2.2081e-06	202.83	78.42	66.107	29.425	4.2109e-06	35.971	0.00084186	0.0041151	0.00031939	496.65	1.1005e-05	1.3203e-05	542.49	174.78	1.1325e-05	1.3514e-05	198.11	77.368	64.959	29.12	1.1791e-05	35.375	123.380	144.641	198.824	114.899	272.936	228.844	113.084	119.206	220.116	278.315	116.145	120.141	123.580	129.131	249.010	124.700	-8191	255	
40355.320	1	1	0	0	0.20395	0.22734	0.2074	0.149	0.0043818	0.20412	0.1971	0.06088	0.24262	0.11031	0.041816	0.27999	0.20866	0.078686	0.15353	0.25838	-2.5062	-2.8729	-3.1729	-2.9417	-3.1063	-3.1604	-2.7708	-3.0708	-2.9083	-3.075	-3.3354	-2.8458	-2.9896	-3.1792	-2.9021	-3.2604	289.053	272.275	270.445	184.222	162.099	373.170	134.228	370.468	443.227	250.264	349.457	325.017	387.179	276.570	273.471	403.444	0.00070322	0.0010122	6.3751e-05	513.85	3.2066e-06	8.1174e-07	557.28	179.79	2.9629e-06	4.1938e-06	203.43	78.332	66.195	29.316	2.8799e-06	35.598	0.0008864	0.0031964	0.00031204	495.9	1.1188e-05	1.2879e-05	544.9	174.64	1.1297e-05	1.3499e-05	198.24	76.449	65.01	29.05	1.1915e-05	35.159	123.480	160.482	178.898	114.638	269.469	340.568	113.102	119.454	209.207	262.435	116.440	120.445	123.997	129.123	260.642	124.629	-8191	255	
40355.418	1	1	0	0	0.12363	0.19845	0.34846	0.23111	0.033088	0.14488	0.19351	0.070276	0.19021	0.20559	0.1447	0.060306	0.2161	0.017767	0.095874	0.3817	-2.7375	-2.8167	-3.3458	-2.9521	-3.2438	-3.2458	-2.9813	-3.1667	-2.9562	-2.9292	-3.0167	-2.8812	-2.9792	-3.2042	-2.8271	-3.0604	367.754	184.629	290.122	399.762	404.660	242.101	449.496	415.566	272.327	394.001	397.944	222.998	102.658	367.974	112.685	358.947	0.00064736	0.001471	5.91e-05	507.87	4.7364e-06	2.0437e-06	555.45	178.6	3.0531e-06	2.8461e-06	202.15	77.775	66.042	29.371	2.6329e-06	35.629	0.00084857	0.004164	0.00030941	492.47	1.1446e-05	1.2572e-05	540.92	173.95	1.1373e-05	1.3122e-05	196.95	75.91	65.503	29.018	1.2383e-05	35.059	121.849	169.940	242.602	114.535	248.253	291.801	112.946	119.310	234.638	234.645	116.046	120.305	123.314	129.028	241.040	124.761	-8191	255	
40355.539	1	1	0	0	0.14842	0.24583	0.24479	0.11059	0.021252	0.27691	0.079402	0.22089	0.14532	0.016366	0.13245	0.24211	0.13486	0.2585	0.21514	0.1899	-2.4875	-2.6583	-3.1896	-2.8792	-3.05	-3.1042	-2.9958	-3.3146	-3.1625	-2.975	-3.3312	-3.0187	-3.0167	-3.4	-2.9979	-3.4146	385.274	245.154	272.453	444.428	456.243	372.585	198.449	417.777	217.695	141.275	157.132	162.549	335.954	180.706	301.693	421.743	0.00065124	0.0011383	0.00016056	505.21	3.3194e-06	1.0183e-06	552.69	179.07	4.9375e-06	2.7508e-06	201.89	77.974	65.696	29.339	3.8118e-06	35.966	0.0008561	0.0032701	0.0003215	492.59	1.1417e-05	1.235e-05	538.6	174.14	1.1098e-05	1.3451e-05	197.32	76.024	65.026	29.052	1.1802e-05	35.319	118.925	179.079	186.902	114.822	252.112	227.492	112.665	119.160	228.591	253.617	116.027	120.373	123.569	128.894	237.922	124.675	-8191	255	
40355.637	1	1	0	0	0.17675	0.024215	0.14777	0.18862	0.23383	0.10602	0.50922	0.29126	0.10046	0.30028	0.043046	0.23029	0.10147	0.19187	0.15645	0.33731	-2.7333	-2.7562	-3.2375	-3.1625	-3.0687	-3.4437	-2.9688	-3.2062	-3.1729	-2.7458	-3.3708	-3.1625	-3.1042	-3.4292	-3.1167	-3.4083	255.165	285.630	453.569	455.637	350.381	261.891	381.369	402.960	166.743	276.080	302.213	107.627	427.167	110.539	315.042	435.294	0.00063076	0.0012324	0.00010773	507.85	4.2286e-06	3.4334e-06	553.27	178.99	6.6889e-06	3.167e-06	203.63	78.284	65.69	29.443	2.7784e-06	35.896	0.00084481	0.0040701	0.00032287	493.48	1.139e-05	1.2328e-05	536.62	175.34	1.1321e-05	1.3225e-05	198.14	76.099	65.516	29.124	1.1939e-05	35.304	118.974	164.386	185.888	114.799	207.826	252.935	112.548	119.219	214.019	282.046	116.194	120.018	123.536	129.054	272.935	124.649	-8191	255	
40355.730	1	1	0	0	0.22514	0.21478	0.16644	0.075635	0.26407	0.17065	0.068754	0.16263	0.10481	0.022989	0.05238	0.153	0.16966	0.064693	0.25218	0.2098	-2.8396	-2.9458	-3.3125	-3.0042	-2.9083	-3.25	-2.8833	-3.1729	-3.1979	-2.9292	-3.0417	-3.0458	-2.9583	-3.4375	-3.1188	-3.0875	220.047	185.341	159.758	279.187	176.474	285.773	301.735	412.855	222.267	334.052	228.409	329.085	318.444	414.990	347.293	365.263	0.00060239	0.0011411	7.9464e-05	511.2	3.9588e-06	2.831e-06	554.92	178.17	6.9638e-06	4.6014e-07	202.83	78.403	65.6	29.441	5.3191e-06	35.918	0.00083266	0.0032365	0.00032879	495.09	1.1559e-05	1.2468e-05	536.68	175.74	1.1011e-05	1.2854e-05	197.49	76.128	65.075	29.051	1.2233e-05	35.345	121.331	160.501	175.023	114.928	260.069	222.719	112.517	119.754	225.287	237.032	116.263	120.314	123.263	129.067	258.550	124.637	-8191	255	
40355.828	1	1	0	0	0.14138	0.16055	0.03098	0.21859	0.20406	0.12013	0.11018	0.17709	0.11802	0.22388	0.17221	0.18831	0.24098	0.056662	0.2554	0.16098	-2.8708	-2.8021	-3.1875	-3.075	-2.8021	-3.2229	-2.9979	-3.0896	-3.1375	-3.0271	-3.0604	-3.0292	-2.8688	-3.3083	-3.0563	-3.0229	127.030	181.915	172.483	256.340	358.952	348.696	358.048	359.179	425.140	220.147	361.325	127.886	442.489	421.063	417.735	314.107	0.00061997	0.00034966	0.00037986	510.83	3.4882e-06	4.6523e-06	552.75	177.88	5.6103e-06	1.9109e-06	204.16	78.609	65.819	29.56	2.6015e-06	36.277	0.00080947	0.0030861	0.0005011	493.64	1.13e-05	1.294e-05	535.5	174.82	1.0812e-05	1.3064e-05	198.09	76.067	65.598	29.284	1.18e-05	35.633	119.283	251.897	176.189	114.605	205.365	244.581	112.724	119.461	221.641	222.152	116.230	120.383	123.577	129.159	242.668	124.466	-8191	255	
40355.945	1	1	0	0	0.06465	0.071881	0.16783	0.024287	0.12643	0.25186	0.20314	0.097907	0.087615	0.19561	0.087594	0.099182	0.19794	0.39641	0.1188	0.26926	-2.8958	-3.0167	-3.2188	-3.1	-2.9917	-3.2646	-3.1708	-2.8542	-3.3042	-2.9708	-3.2604	-3.0563	-2.9104	-3.1396	-3.0563	-3.0146	299.614	334.343	305.870	343.747	163.829	293.381	387.569	412.902	390.514	336.616	199.534	142.354	225.384	140.888	119.287	395.672	0.00061684	0.00039361	0.00019875	513	3.8642e-06	2.8857e-06	560.33	179.93	3.4472e-06	3.0148e-06	202.89	78.709	66.463	29.776	2.1074e-06	36.407	0.00084348	0.001221	0.00079863	496.69	1.1213e-05	1.3039e-05	540.51	176.88	1.0728e-05	1.3317e-05	198.42	76.591	65.581	29.44	1.1943e-05	35.75	120.125	224.329	195.527	114.735	222.905	271.786	112.675	119.094	246.547	238.589	116.508	120.282	123.329	129.302	234.902	124.725	-8191	255	
40356.016	1	1	0	0	0.083879	0.21324	0.16107	0.097773	0.16291	0.092974	0.073677	0.19032	0.15348	0.19087	0.062311	0.20247	0.16542	0.31821	0.088868	0.039991	-2.8146	-2.7396	-3.0208	-3.2521	-2.8333	-3.2417	-3.0521	-2.9854	-3.1063	-2.6958	-2.7875	-3.1312	-2.7917	-3.125	-3.0521	-2.9292	299.461	365.684	172.198	416.258	272.393	313.767	162.475	336.875	190.495	251.600	213.101	132.991	420.308	129.899	107.345	335.173	0.00065868	0.00043864	0.00045417	511.74	4.3148e-06	2.1535e-06	560.2	177.93	6.1891e-06	2.912e-06	201.8	77.922	65.173	29.418	2.8271e-06	35.98	0.00084572	0.0011706	0.0011479	496.08	1.1148e-05	1.3142e-05	539.56	174.7	1.1261e-05	1.2843e-05	197.24	75.727	64.46	29.205	1.1864e-05	35.308	120.271	233.870	197.291	115.006	233.544	305.661	112.622	118.905	217.414	219.301	116.038	120.889	123.826	128.928	244.801	124.259	-8191	255	
40356.113	1	1	0	0	0.24041	0.11755	0.06318	0.19329	0.057717	0.066747	0.16768	0.28458	0.15944	0.083419	0.16776	0.096065	0.22693	0.3184	0.11194	0.048251	-2.6021	-2.8438	-2.925	-3.4396	-2.8688	-3.1104	-3.2562	-2.9021	-3.175	-2.9979	-2.9354	-3.2562	-2.9042	-3.0083	-3.0771	-2.8625	356.729	353.254	287.022	454.788	284.254	215.931	425.381	107.537	134.282	137.572	310.515	433.798	430.359	367.193	293.729	319.325	0.00065383	0.00061108	0.00044183	507.68	3.2174e-06	3.8742e-06	554.57	176.48	1.8946e-06	6.2379e-06	200.78	77.725	64.868	29.371	3.1421e-06	35.709	0.00083894	0.0011539	0.0008988	491.76	1.0878e-05	1.2822e-05	535.19	174.57	1.0799e-05	1.317e-05	195.72	75.31	63.486	29.24	1.1559e-05	35.195	124.140	172.887	214.875	114.632	260.271	275.541	112.737	119.463	207.157	224.798	116.211	120.176	123.639	128.960	240.262	124.871	-8191	255	
40356.234	1	1	0	0	0.27829	0.27317	0.040124	0.040109	0.19941	0.046864	0.095321	0.17992	0.1209	0.13095	0.12078	0.23793	0.17704	0.32491	0.20153	0.14513	-2.8896	-3.1625	-3.0271	-3.4125	-3.0354	-2.9562	-3.1625	-2.8833	-3.1146	-3.0396	-2.9583	-3.1417	-3.0417	-2.825	-3.2854	-3.0375	338.877	381.854	402.833	460.065	441.153	453.956	392.917	420.385	384.986	416.499	203.362	371.403	435.114	400.212	377.782	409.365	0.00064075	0.00032688	0.00037528	504.71	5.9119e-06	1.9326e-06	553.61	177.63	4.3158e-06	3.272e-06	200.81	77.851	65.272	29.461	4.7655e-06	35.809	0.00084211	0.0011938	0.0011349	489.8	1.1185e-05	1.3239e-05	535.46	174.17	1.1388e-05	1.296e-05	195.79	75.57	63.621	29.464	1.1256e-05	35.248	121.874	166.434	216.750	114.491	211.622	248.077	112.728	119.154	263.212	303.319	116.047	120.157	123.657	129.208	257.538	124.501	-8191	255	
40356.328	1	1	0	0	0.027231	0.19164	0.13554	0.23244	0.15465	0.034839	0.19611	0.16623	0.13187	0.1731	0.13537	0.1363	0.14885	0.22656	0.11787	0.10148	-2.6042	-2.8812	-2.8771	-3.2812	-2.8021	-3.0542	-3.2646	-2.8542	-3.1229	-3.0375	-2.8875	-3.2792	-3.025	-3.0396	-3.1625	-2.975	340.633	367.862	206.191	286.220	349.959	267.399	381.708	104.298	334.801	142.225	382.112	164.734	324.380	121.540	457.618	388.599	0.00061529	0.00016812	0.00027676	508.81	4.0892e-06	2.7799e-06	557.13	177.23	9.2174e-06	1.9838e-06	200.44	77.972	64.426	29.311	6.2543e-06	35.53	0.00082353	0.0011453	0.00087244	491.23	1.1113e-05	1.2885e-05	536.28	173.39	1.9427e-05	1.3366e-05	195.34	75.358	63.286	29.147	1.1309e-05	34.983	119.940	181.592	213.232	114.540	215.053	294.423	112.746	118.743	194.657	244.699	116.345	120.461	123.682	129.243	242.715	124.401	-8191	255	
40356.426	1	1	0	0	0.21208	0.2421	0.11775	0.32296	0.22054	0.1383	0.11568	0.080991	0.23306	0.15832	0.047647	0.20295	0.17516	0.064731	0.15302	0.16452	-2.6625	-2.9604	-2.8833	-3.1917	-2.8438	-3.0917	-3.2521	-2.8854	-3.0208	-3.1	-3.0062	-3.3042	-3.0312	-2.825	-3.3104	-2.9062	385.522	301.247	264.558	428.479	298.308	210.387	350.513	195.044	239.086	209.112	138.109	382.482	141.204	206.787	293.819	201.436	0.00065546	0.00020321	0.0004036	501.24	4.8647e-06	2.2184e-06	550.39	175.51	2.9679e-06	2.5335e-06	200.11	76.286	63.742	29.142	6.2083e-06	35.693	0.00085445	0.0011338	0.0011464	486.17	1.0955e-05	1.2449e-05	533.25	170.69	2.9155e-05	1.2635e-05	194.33	74.458	62.594	29.219	1.1559e-05	35.067	121.503	195.806	224.882	114.775	235.626	251.853	112.740	119.163	172.322	292.023	116.067	120.708	123.676	128.880	227.575	124.599	-8191	255	
40356.523	1	1	0	0	0.21687	0.13237	0.10898	0.26779	0.11064	0.063641	0.16222	0.30768	0.15425	0.054863	0.14451	0.20052	0.14252	0.28793	0.16018	0.14301	-2.7188	-2.9208	-2.7104	-3.2125	-3.1146	-2.8688	-3.1958	-2.9458	-3.0792	-3.2958	-2.9042	-3.1813	-3.1875	-2.9271	-3.1167	-2.9417	224.125	158.807	313.149	454.302	204.960	254.130	132.589	133.938	182.301	133.091	143.046	330.576	218.708	421.937	361.285	351.451	0.00062618	0.00029531	0.0002313	499.67	3.1055e-06	1.7957e-06	548.78	175.2	1.0892e-05	3.4474e-06	199.43	75.92	64.025	29.216	3.9593e-06	35.363	0.00087226	0.0010661	0.00086559	485.34	1.0672e-05	1.2489e-05	531.55	170.66	3.7872e-05	1.2406e-05	193.97	74.128	62.543	29.1	1.1342e-05	34.924	120.550	203.337	225.294	115.026	184.132	275.134	112.447	119.398	377.571	266.826	116.246	120.220	123.833	129.061	246.831	124.756	-8191	255	
40356.617	1	1	0	0	0.23724	0.094836	0.1292	0.15948	0.18632	0.1826	0.06854	0.1071	0.029685	0.35897	0.13946	0.30519	0.14379	0.098514	0.10481	0.18387	-2.5812	-3.2396	-2.8812	-3.2208	-3.0146	-2.8521	-3.2708	-2.9125	-2.9521	-3.3792	-2.9479	-3.0312	-3.1104	-2.9625	-3.1729	-2.9062	457.976	188.589	127.030	101.879	200.888	441.273	201.519	180.228	150.840	114.211	177.881	125.907	386.196	183.328	289.638	372.807	0.00067731	0.00053373	0.00017614	498.99	2.5284e-06	3.8736e-06	547.57	175.26	7.4611e-06	3.7035e-06	199.21	76.634	63.49	29.249	2.7298e-06	35.269	0.00086855	0.0010913	0.00073743	486.3	1.0955e-05	1.272e-05	529.61	170.33	2.9874e-05	1.2345e-05	193.32	74.139	62.359	29.1	1.2089e-05	34.817	122.823	205.102	238.093	114.947	231.717	244.221	112.967	119.471	406.410	264.912	116.569	120.685	123.663	128.640	239.960	124.628	-8191	255	
40356.715	1	1	0	0	0.24117	0.049991	0.22357	0.25602	0.099746	0.26351	0.088135	0.21822	0.16347	0.20746	0.18951	0.21791	0.079132	0.14042	0.1205	0.17989	-2.6625	-3.1979	-2.7896	-3.1312	-3.1063	-2.9021	-3.2271	-3.0271	-2.8417	-3.3083	-3.0646	-3.0062	-3.1833	-2.8	-3.1	-2.7771	387.191	108.540	162.624	455.137	201.133	142.621	364.703	370.485	262.915	377.450	341.789	453.398	189.912	113.907	358.836	410.414	0.00060901	0.00038865	0.00013957	501.55	3.4982e-06	1.7966e-06	549.34	176.71	1.0004e-05	2.9112e-06	198.85	76.659	64.564	29.177	3.1428e-06	35.307	0.0008283	0.0010523	0.00031518	489.94	1.1131e-05	1.2593e-05	531.81	171.51	3.8572e-05	1.2417e-05	195.14	74.744	63.012	29.133	1.2212e-05	34.88	120.746	168.798	162.732	114.604	202.617	294.601	112.738	119.177	399.960	257.912	116.146	120.573	124.184	129.077	220.249	124.487	-8191	255	
40356.809	1	1	0	0	0.32127	0.092533	0.065799	0.21031	0.098857	0.12112	0.22025	0.097741	0.15946	0.18052	0.16171	0.27396	0.22575	0.18769	0.14936	0.15495	-2.2583	-3.2562	-2.9542	-3.0771	-3.0938	-2.8563	-3.1958	-3.1312	-2.9521	-3.3167	-2.9375	-3.1417	-3.1396	-2.7562	-3.0958	-3.2167	335.098	106.243	443.405	349.478	215.641	237.757	168.152	135.450	256.970	309.684	375.783	157.250	423.069	367.235	212.641	354.651	0.00063798	0.00019208	6.7077e-05	500.9	4.0419e-06	3.3015e-06	553.1	175.5	4.3026e-06	4.6385e-06	197.6	76.419	64.832	29.092	1.6164e-05	35.546	0.00083306	0.0011111	0.00031546	492.93	1.049e-05	1.2753e-05	532.83	171.17	2.9687e-05	1.2642e-05	193.89	74.457	63.099	28.989	2.3651e-05	34.937	118.393	232.569	255.433	114.798	280.511	297.952	112.582	119.162	435.349	221.278	116.461	120.239	123.554	129.223	210.577	124.719	-8191	255	
40356.906	1	1	0	0	0.082933	0.21689	0.22897	0.15992	0.22589	0.32024	0.0352	0.19089	0.10174	0.068348	0.072602	0.25183	0.22026	0.037782	0.14515	0.32795	-2.5812	-3.1333	-3.0687	-2.9375	-3.2188	-2.8771	-3.1271	-3.1437	-3.0854	-3.1729	-2.9854	-2.9562	-3.2562	-2.9958	-2.8875	-3.3146	235.777	233.436	195.100	252.410	344.223	365.107	169.096	443.579	311.758	111.894	147.733	299.328	173.365	257.136	330.781	406.621	0.00063386	0.00036655	7.9033e-05	503.26	4.2447e-06	2.6956e-06	551.49	175.94	9.8372e-06	2.811e-06	198.91	76.773	64.293	29.384	1.1721e-05	35.437	0.00085203	0.0011431	0.00031845	490.87	1.0534e-05	1.2826e-05	532.21	170.87	3.8786e-05	1.3261e-05	194.66	74.655	63.051	28.935	3.2153e-05	34.96	119.231	168.470	204.026	114.930	235.047	215.654	112.950	119.209	386.359	252.422	116.271	120.690	123.971	129.082	207.280	124.756	-8191	255	
40357.027	1	1	0	0	0.19293	0.099688	0.23313	0.18292	0.061631	0.40846	0.2931	0.14179	0.13255	0.18023	0.11896	0.19165	0.1039	0.24511	0.085019	0.219	-2.55	-3.1	-3.1063	-3.0187	-3.3521	-3.0812	-3.3312	-3.2521	-3.1417	-3.1521	-3.0938	-2.9	-3.3896	-2.9562	-3.0979	-3.3187	219.415	400.549	273.334	404.212	425.435	118.624	204.638	118.941	144.928	248.419	236.126	113.906	360.174	423.580	181.785	358.482	0.00065501	0.00036126	0.00010888	500.62	3.4801e-06	3.4136e-06	555.02	176.75	3.5555e-06	2.9086e-06	200.2	77.163	64.805	29.439	1.3163e-05	35.829	0.00084182	0.0011497	0.00031789	494.09	1.0939e-05	1.2846e-05	534.57	171.8	2.9744e-05	1.2828e-05	195.85	75.126	63.606	29.042	4.1579e-05	35.307	120.419	172.262	213.259	115.043	198.484	260.616	112.810	118.982	459.142	221.073	116.025	120.399	123.360	128.939	210.411	124.756	-8191	255	
40357.121	1	1	0	0	0.12381	0.12559	0.1926	0.10794	0.3094	0.11889	0.11935	0.34445	0.086376	0.12353	0.34094	0.13235	0.060914	0.23457	0.099727	0.20921	-2.4437	-3.0917	-2.9437	-3.0771	-3.1417	-3.0312	-3.175	-3.1104	-3.0062	-3.2313	-3.1188	-2.9542	-3.325	-2.9688	-2.9875	-3.2875	276.629	285.842	250.695	130.177	148.234	421.521	378.527	111.730	208.185	125.509	425.130	330.987	275.069	102.786	360.801	407.610	0.00065538	0.00054841	9.3487e-05	503.42	2.3337e-06	4.4046e-06	556.13	177.38	1.0356e-05	1.0736e-05	202.37	77.921	65.264	29.64	7.689e-06	36.153	0.0008635	0.0011621	0.00031767	495.51	1.085e-05	1.2638e-05	538.02	172.69	2.2405e-05	2.696e-05	196.96	75.705	63.815	29.229	3.1373e-05	35.424	121.069	165.204	206.123	114.812	266.232	238.399	112.743	119.128	391.305	179.089	116.218	120.496	123.310	128.755	210.532	124.603	-8191	255	
40357.219	1	1	0	0	0.20482	0.13429	0.064342	0.046929	0.18264	0.0744	0.024828	0.24463	0.21027	0.21555	0.27755	0.10175	0.29209	0.2566	0.15719	0.22681	-2.5563	-3.2229	-3.0771	-2.8896	-3.2938	-2.9625	-3.1354	-3.2729	-2.9688	-3.1417	-3.1583	-3.0729	-3.3917	-3.1604	-2.9667	-3.3896	306.427	355.710	226.658	379.071	217.731	296.439	103.688	412.192	351.829	401.877	337.189	131.141	385.241	391.582	405.024	219.313	0.00064052	0.00059865	0.00012863	503.65	5.1397e-06	3.4291e-06	553.48	176.58	4.427e-06	8.5073e-06	201.25	76.933	64.83	29.415	1.5492e-05	35.839	0.00084954	0.0011724	0.00029608	496.64	1.0963e-05	1.3203e-05	534.36	172.04	1.0959e-05	3.6463e-05	195.51	74.946	63.505	29.033	4.1351e-05	35.097	122.598	171.502	209.204	114.588	224.534	266.639	112.805	119.110	213.807	137.288	116.092	120.595	123.490	129.069	218.324	124.694	-8191	255	
40357.316	1	1	0	0	0.11514	0.064906	0.17569	0.084116	0.16831	0.1615	0.067094	0.32917	0.085059	0.12877	0.15838	0.19943	0.36252	0.049516	0.11508	0.040402	-2.4458	-2.9729	-3.3063	-3.0354	-3.3021	-3.0021	-2.8667	-3.3271	-2.7958	-3.1688	-3.0042	-2.8521	-3.1021	-3.0792	-2.9042	-3.3021	144.451	415.877	365.716	228.480	284.251	101.947	227.858	433.900	331.077	429.944	397.143	153.876	414.729	443.681	194.667	271.991	0.00065548	0.00053998	0.00010471	502.35	2.8631e-06	2.775e-06	550.43	177.74	3.2789e-06	9.1408e-06	201.57	77.701	64.842	29.397	1.2808e-05	35.56	0.00083695	0.0011964	0.00029943	493.8	1.1358e-05	1.251e-05	533.15	171.97	1.1249e-05	4.707e-05	196.24	75.291	63.551	29.042	3.2082e-05	35.159	121.917	191.599	191.115	114.710	221.094	302.156	113.188	119.333	201.794	131.709	116.704	120.863	123.803	128.984	221.148	124.367	-8191	255	
40357.410	1	1	0	0	0.10117	0.0669	0.15919	0.13748	0.08065	0.30362	0.036423	0.22846	0.29176	0.17356	0.11478	0.16479	0.31446	0.25226	0.16038	0.33287	-2.6354	-3.0062	-3.1437	-2.8333	-3.2917	-3.0167	-3.0833	-3.2792	-3.0542	-3.0146	-3.2438	-2.8604	-3.125	-3.1604	-2.9208	-3.3792	338.491	310.900	311.266	112.965	244.773	430.977	127.754	113.588	149.253	147.854	157.163	398.721	401.227	416.749	375.201	168.843	0.00064211	0.0004813	6.141e-05	503.79	7.2191e-06	2.7863e-06	555.58	177.53	1.6759e-06	9.3083e-06	203.28	77.608	65.197	29.573	1.4622e-05	36.029	0.00086444	0.0011872	0.00030773	492.77	2.4445e-05	1.2286e-05	536.7	172.52	1.1382e-05	3.6036e-05	197.17	75.556	63.766	29.145	4.0886e-05	35.332	119.526	211.667	200.810	114.719	237.761	263.104	112.760	119.284	233.514	130.632	115.835	120.426	123.908	129.021	226.303	124.097	-8191	255	
40357.508	1	1	0	0	0.29344	0.073908	0.089194	0.13652	0.13249	0.16923	0.12002	0.30079	0.089002	0.22868	0.11366	0.11889	0.19827	0.17455	0.066751	0.23724	-2.5229	-2.7229	-3.3438	-3.0917	-3.1792	-3.0646	-2.9417	-3.4729	-3.175	-3.0354	-3.2375	-2.8312	-3.1583	-3.2208	-2.9458	-3.1667	390.919	113.911	214.990	387.042	131.414	141.610	247.409	420.008	351.109	423.083	263.389	164.225	187.397	427.035	235.496	419.436	0.00062292	0.00016081	0.00010421	505.27	6.8383e-06	3.0446e-06	555.79	177.64	4.2548e-06	1.11e-05	201.24	78.009	64.857	29.355	1.9306e-06	35.333	0.00083775	0.0012081	0.00030405	490.56	3.0312e-05	1.243e-05	535.99	172.52	1.1296e-05	4.6032e-05	196.07	75.299	63.477	28.936	3.0221e-05	34.84	121.227	184.895	184.408	114.576	316.191	260.290	113.074	119.048	234.046	107.639	116.200	120.408	123.521	128.849	242.082	124.343	-8191	255	
#DATA ENDS
