BOXY.EXE: ISS Imagent and Oximeter Data Acquisition Program Version 0.80
Ascii Record File

#ACQ INFORMATION
2  Detector Channels 
16  External MUX Channels 
1  Auxiliary Channels 
5000  Waveform (CCF) Frequency (Hz)
1  Waveforms Skipped 
30  Waveforms Averaged 
1  Cycles Averaged 
16  Acquisitions per Waveform 
10.0806  Updata Rate (Hz) 

#FILE INFORMATION
TRUE -- External MUX Channel results are PARSED.
FALSE -- AC DC and Phase are NOT grouped.
TRUE -- Companion Program Settings File CREATED.
FALSE -- AC data not excluded
FALSE -- DC data not excluded
FALSE -- Phase data not excluded
FALSE -- Auxillary Chn. data not excluded
Tab delimiters

#CALIBRATION STATE
TRUE -- Waveform Calibration Values APPLIED.


#AUX CALIBRATION VALUES
Val Type	aux-1	

Term	1.0000e+00	
Factor	0.0000e+00	


#WF CALIBRATION VALUES
A = Detector Channel
Val Type	A-AC1	A-AC2	A-AC3	A-AC4	A-AC5	A-AC6	A-AC7	A-AC8	A-AC9	A-AC10	A-AC11	A-AC12	A-AC13	A-AC14	A-AC15	A-AC16	A-DC1	A-DC2	A-DC3	A-DC4	A-DC5	A-DC6	A-DC7	A-DC8	A-DC9	A-DC10	A-DC11	A-DC12	A-DC13	A-DC14	A-DC15	A-DC16	A-Ph1	A-Ph2	A-Ph3	A-Ph4	A-Ph5	A-Ph6	A-Ph7	A-Ph8	A-Ph9	A-Ph10	A-Ph11	A-Ph12	A-Ph13	A-Ph14	A-Ph15	A-Ph16	

Term	0.00000e+00	0.00000e+00	0.00000e+00	0.00000e+00	0.00000e+00	0.00000e+00	0.00000e+00	0.00000e+00	0.00000e+00	0.00000e+00	0.00000e+00	0.00000e+00	0.00000e+00	0.00000e+00	0.00000e+00	0.00000e+00	0.00000e+00	0.00000e+00	0.00000e+00	0.00000e+00	0.00000e+00	0.00000e+00	0.00000e+00	0.00000e+00	0.00000e+00	0.00000e+00	0.00000e+00	0.00000e+00	0.00000e+00	0.00000e+00	0.00000e+00	0.00000e+00	0.00000e+00	0.00000e+00	0.00000e+00	0.00000e+00	0.00000e+00	0.00000e+00	0.00000e+00	0.00000e+00	0.00000e+00	0.00000e+00	0.00000e+00	0.00000e+00	0.00000e+00	0.00000e+00	0.00000e+00	0.00000e+00	
Factor	1.00000e+00	1.00000e+00	1.00000e+00	1.00000e+00	1.00000e+00	1.00000e+00	1.00000e+00	1.00000e+00	1.00000e+00	1.00000e+00	1.00000e+00	1.00000e+00	1.00000e+00	1.00000e+00	1.00000e+00	1.00000e+00	1.00000e+00	1.00000e+00	1.00000e+00	1.00000e+00	1.00000e+00	1.00000e+00	1.00000e+00	1.00000e+00	1.00000e+00	1.00000e+00	1.00000e+00	1.00000e+00	1.00000e+00	1.00000e+00	1.00000e+00	1.00000e+00	X	X	X	X	X	X	X	X	X	X	X	X	X	X	X	X	

B = Detector Channel
Val Type	B-AC1	B-AC2	B-AC3	B-AC4	B-AC5	B-AC6	B-AC7	B-AC8	B-AC9	B-AC10	B-AC11	B-AC12	B-AC13	B-AC14	B-AC15	B-AC16	B-DC1	B-DC2	B-DC3	B-DC4	B-DC5	B-DC6	B-DC7	B-DC8	B-DC9	B-DC10	B-DC11	B-DC12	B-DC13	B-DC14	B-DC15	B-DC16	B-Ph1	B-Ph2	B-Ph3	B-Ph4	B-Ph5	B-Ph6	B-Ph7	B-Ph8	B-Ph9	B-Ph10	B-Ph11	B-Ph12	B-Ph13	B-Ph14	B-Ph15	B-Ph16	

Term	0.00000e+00	0.00000e+00	0.00000e+00	0.00000e+00	0.00000e+00	0.00000e+00	0.00000e+00	0.00000e+00	0.00000e+00	0.00000e+00	0.00000e+00	0.00000e+00	0.00000e+00	0.00000e+00	0.00000e+00	0.00000e+00	0.00000e+00	0.00000e+00	0.00000e+00	0.00000e+00	0.00000e+00	0.00000e+00	0.00000e+00	0.00000e+00	0.00000e+00	0.00000e+00	0.00000e+00	0.00000e+00	0.00000e+00	0.00000e+00	0.00000e+00	0.00000e+00	-4.91106e+01	-1.29134e+02	-1.27521e+02	-1.82803e+02	-4.69321e+01	-6.59653e+01	-1.55300e+02	-1.62015e+02	-3.08113e+01	-5.60136e+01	-1.72433e+02	-1.69655e+02	-1.79183e+02	-1.77693e+02	-4.59966e+01	-1.49676e+02	
Factor	2.21910e-05	1.68420e-04	4.73740e-05	1.71963e-01	2.02722e-06	1.93536e-06	1.62812e-01	5.14453e-02	1.28848e-06	1.77628e-06	9.95207e-02	3.07250e-02	2.96854e-02	1.01395e-02	1.68739e-06	1.45673e-02	8.04080e-06	1.07497e-05	2.97371e-06	8.54535e-02	1.12668e-07	1.18595e-07	7.62481e-02	2.57182e-02	1.11776e-07	1.19426e-07	4.83138e-02	1.49934e-02	1.50207e-02	5.11324e-03	1.16012e-07	7.12113e-03	X	X	X	X	X	X	X	X	X	X	X	X	X	X	X	X	



#DISTANCE SETTINGS
A = Detector Channel
A-1	A-2	A-3	A-4	A-5	A-6	A-7	A-8	A-9	A-10	A-11	A-12	A-13	A-14	A-15	A-16	

2.5000e+00	3.0000e+00	2.5000e+00	3.0000e+00	2.0000e+00	3.0000e+00	1.5000e+00	3.0000e+00	3.0000e+00	3.0000e+00	3.0000e+00	3.0000e+00	3.0000e+00	3.0000e+00	1.5000e+00	3.0000e+00	

B = Detector Channel
B-1	B-2	B-3	B-4	B-5	B-6	B-7	B-8	B-9	B-10	B-11	B-12	B-13	B-14	B-15	B-16	

1.0000e+01	1.0000e+01	1.0000e+01	1.4400e+00	1.0000e+01	1.0000e+01	1.5100e+00	1.9400e+00	1.0000e+01	1.0000e+01	1.9900e+00	2.4900e+00	2.4100e+00	2.9000e+00	1.0000e+01	2.9800e+00	




#DATA BEGINS
time	group	step	mark	flag	A-AC1	A-AC2	A-AC3	A-AC4	A-AC5	A-AC6	A-AC7	A-AC8	A-AC9	A-AC10	A-AC11	A-AC12	A-AC13	A-AC14	A-AC15	A-AC16	A-DC1	A-DC2	A-DC3	A-DC4	A-DC5	A-DC6	A-DC7	A-DC8	A-DC9	A-DC10	A-DC11	A-DC12	A-DC13	A-DC14	A-DC15	A-DC16	A-Ph1	A-Ph2	A-Ph3	A-Ph4	A-Ph5	A-Ph6	A-Ph7	A-Ph8	A-Ph9	A-Ph10	A-Ph11	A-Ph12	A-Ph13	A-Ph14	A-Ph15	A-Ph16	B-AC1	B-AC2	B-AC3	B-AC4	B-AC5	B-AC6	B-AC7	B-AC8	B-AC9	B-AC10	B-AC11	B-AC12	B-AC13	B-AC14	B-AC15	B-AC16	B-DC1	B-DC2	B-DC3	B-DC4	B-DC5	B-DC6	B-DC7	B-DC8	B-DC9	B-DC10	B-DC11	B-DC12	B-DC13	B-DC14	B-DC15	B-DC16	B-Ph1	B-Ph2	B-Ph3	B-Ph4	B-Ph5	B-Ph6	B-Ph7	B-Ph8	B-Ph9	B-Ph10	B-Ph11	B-Ph12	B-Ph13	B-Ph14	B-Ph15	B-Ph16	aux-1	digaux	

41206.023	1	1	0	256	0.090026	0.15262	0.19878	0.22308	0.13998	0.11751	0.12628	0.23137	0.087565	0.17342	0.17088	0.10684	0.063093	0.30625	0.42825	0.162	-2.6354	-2.7479	-2.8958	-3.1625	-2.7833	-3.0708	-3.1396	-2.9708	-3.1042	-2.7167	-2.8542	-2.9292	-2.8271	-3.0062	-2.9437	-2.6667	423.306	472.078	234.566	465.296	398.374	252.374	229.961	426.582	149.139	147.250	440.789	457.279	402.432	191.319	224.523	484.331	0.00069189	0.00049474	0.00017048	1395	7.4509e-06	3.9479e-06	1406.8	396.32	5.0019e-06	3.2405e-06	445.95	149.93	132.34	45.22	6.9305e-06	55.942	0.00066896	0.00069992	0.00019045	1422.5	7.3619e-06	7.6247e-06	1429.1	405.51	7.2831e-06	7.7565e-06	456.07	153.37	135.19	46.617	7.6447e-06	57.664	268.429	207.155	227.951	155.790	301.308	299.419	155.390	160.351	330.099	306.845	159.475	164.135	164.574	169.103	313.567	168.110	-8191	255	
41206.121	1	1	0	0	0.19309	0.15879	0.095231	0.20924	0.19402	0.29031	0.31352	0.38497	0.20245	0.20159	0.17889	0.28802	0.23464	0.2015	0.16383	0.10911	-2.6292	-2.875	-2.8625	-3.3063	-2.8833	-2.8583	-3.3854	-2.8083	-2.9896	-2.8583	-2.9146	-3.0625	-2.8396	-3.0083	-3.1208	-2.8625	234.540	355.978	316.397	230.756	457.202	299.179	489.921	150.186	232.548	322.667	440.258	450.720	500.119	419.758	407.385	268.184	0.0006442	0.00039096	0.00018662	1401.4	7.2934e-06	4.9493e-06	1404.2	398.25	7.5312e-06	5.54e-06	446.01	150.27	131.87	45.188	5.4747e-06	56.155	0.00069122	0.00070973	0.00019097	1426	7.657e-06	7.7346e-06	1430.5	406.31	7.706e-06	7.8446e-06	456.62	153.63	135.28	46.674	7.3675e-06	57.764	270.057	212.648	233.893	155.659	285.035	293.545	155.434	160.277	309.480	296.607	159.406	164.193	164.631	169.188	307.568	168.190	-8191	255	
41206.215	1	1	0	0	0.24968	0.11354	0.1315	0.15667	0.27199	0.15539	0.17464	0.2407	0.098576	0.15558	0.31167	0.39588	0.27671	0.38285	0.11849	0.050513	-2.7458	-2.7854	-2.7854	-3.0812	-2.8563	-2.9167	-3.2333	-2.9854	-3.0417	-2.9354	-2.8542	-3.1271	-3.0333	-3.125	-3.0833	-2.7958	496.016	385.636	374.947	432.844	385.192	217.158	452.249	431.515	400.745	437.632	414.338	433.007	435.406	441.470	323.802	414.010	0.00066341	0.0004682	0.00016537	1400.5	9.7521e-06	6.8836e-06	1408.5	398.82	4.2987e-06	6.0444e-06	446.96	150.49	132.33	45.291	7.8669e-06	56.191	0.0006797	0.00068941	0.00018374	1426.4	7.2683e-06	7.5004e-06	1430.8	406.56	7.1818e-06	7.3051e-06	457.1	153.72	135.33	46.754	7.1323e-06	57.904	267.531	212.472	229.427	155.625	276.934	320.978	155.550	160.174	314.605	288.729	159.723	164.034	164.636	169.053	305.465	168.081	-8191	255	
41206.312	1	1	0	0	0.19289	0.14502	0.12691	0.59101	0.11439	0.1661	0.18308	0.2558	0.077077	0.09057	0.21891	0.13032	0.39096	0.17886	0.075908	0.19324	-2.5542	-2.8812	-2.6937	-2.9396	-2.6854	-2.7812	-3.2708	-2.9646	-2.8708	-3.0167	-2.8271	-3.1417	-2.825	-3.0062	-3.1167	-2.825	268.514	383.123	316.270	428.754	429.312	267.350	430.136	433.277	225.016	411.158	493.532	452.964	489.391	239.920	213.138	323.958	0.0006726	0.0008597	0.0002323	1401	8.9947e-06	3.6639e-06	1407.5	398.63	7.761e-06	3.718e-06	447.26	150.32	132.19	45.4	6.5122e-06	56.343	0.00067017	0.00066422	0.00017518	1424.8	7.3741e-06	7.2736e-06	1431.2	406.03	7.0775e-06	7.1673e-06	456.45	153.37	135.26	46.711	6.9498e-06	57.86	266.535	217.548	224.889	155.648	322.020	306.638	155.478	160.098	309.378	283.874	159.752	164.140	164.599	168.905	318.237	168.025	-8191	255	
41206.430	1	1	0	0	0.30302	0.13247	0.24498	0.35005	0.04614	0.14326	0.44344	0.23726	0.30616	0.050851	0.27833	0.1376	0.36235	0.35462	0.069031	0.2832	-2.5938	-2.8812	-2.6979	-3.1458	-2.9333	-2.8833	-3.15	-2.9458	-3.0375	-2.9521	-2.8396	-3.1042	-3.0167	-3.0042	-3.0375	-2.9542	240.498	437.292	460.988	492.930	378.191	177.992	433.944	156.383	262.418	471.819	409.503	490.090	448.618	142.732	218.452	157.185	0.00069868	0.00038446	0.00013751	1397.8	5.7922e-06	4.7915e-06	1402.6	397.3	6.5897e-06	5.3453e-06	446.31	149.73	131.94	45.042	6.2539e-06	56.124	0.00066668	0.00063591	0.00017782	1421.3	7.2847e-06	7.2106e-06	1426.3	405.97	7.4119e-06	7.0663e-06	455.62	153.1	135.11	46.608	6.9827e-06	57.682	270.745	237.453	241.842	155.711	298.848	301.288	155.413	160.311	306.086	317.495	159.535	163.975	164.521	169.004	314.890	167.998	-8191	255	
41206.527	1	1	0	0	0.14384	0.2041	0.12801	0.055255	0.061929	0.07219	0.20357	0.28741	0.10595	0.17863	0.13253	0.089055	0.14198	0.23886	0.27365	0.27958	-2.6208	-3.1146	-2.8208	-3.2333	-2.7896	-2.7896	-3.2292	-3.1083	-2.5812	-3.175	-3.0146	-3.0896	-2.8583	-2.9208	-3.125	-3.0604	392.124	414.796	358.388	149.642	256.681	498.789	459.648	422.921	174.631	491.586	163.152	266.231	444.603	457.544	392.778	168.534	0.00067695	0.00052616	0.00018544	1394.4	6.3405e-06	5.3421e-06	1403.7	396.32	5.2726e-06	6.5722e-06	444.48	149.53	132.12	45.032	4.4735e-06	55.877	0.00066432	0.0006362	0.00018345	1420.6	7.2671e-06	7.0698e-06	1425.9	405.04	7.1818e-06	7.0561e-06	454.93	153.03	134.9	46.526	7.2034e-06	57.523	265.269	223.689	240.713	155.700	299.040	286.435	155.423	160.227	316.454	331.332	159.586	163.969	164.611	168.984	307.067	168.113	-8191	255	
41206.625	1	1	0	0	0.27612	0.21346	0.22942	0.19252	0.16844	0.28167	0.065694	0.4937	0.11452	0.16326	0.27168	0.11923	0.32738	0.1978	0.2741	0.22316	-2.4667	-3.0687	-2.8229	-3.3125	-3.0042	-2.6688	-3.2771	-3.0917	-2.8688	-3.1729	-2.7729	-2.9917	-3.2354	-2.7083	-3.0042	-2.9771	326.334	291.493	202.451	188.390	297.367	445.604	501.141	473.420	242.162	310.417	155.578	172.700	453.292	496.254	371.289	459.943	0.00066353	0.00029713	0.00014018	1386.8	5.0396e-06	5.1246e-06	1402.6	396.71	7.9596e-06	4.1651e-06	444.89	148.98	131.33	45.011	7.6319e-06	55.669	0.00066943	0.0006358	0.00017741	1416.4	7.1549e-06	6.8832e-06	1424.6	405	7.2389e-06	7.0601e-06	454.47	152.64	134.58	46.512	7.4228e-06	57.429	272.592	229.732	218.874	155.588	303.212	310.172	155.449	160.179	318.549	276.716	159.510	164.095	164.659	168.832	322.662	167.956	-8191	255	
41206.719	1	1	0	0	0.021535	0.28114	0.19652	0.28304	0.29965	0.15887	0.064918	0.32792	0.074926	0.10466	0.10584	0.31164	0.17156	0.26063	0.13543	0.31131	-2.3854	-3.1375	-2.8875	-3.075	-2.9167	-2.7938	-3.2562	-2.8979	-2.6458	-2.9667	-2.8375	-2.8812	-3.1292	-2.8417	-2.9354	-3.0375	313.898	314.313	382.936	425.732	374.613	169.638	405.038	423.000	315.792	180.533	490.013	479.526	162.365	439.165	224.989	400.008	0.00069183	0.00048553	0.00018898	1395.6	6.3258e-06	4.4962e-06	1404.4	395.98	6.0165e-06	3.9429e-06	445.67	149.12	132.11	45.009	5.7909e-06	55.704	0.00066643	0.0006483	0.00018221	1418.3	7.0249e-06	7.0087e-06	1424.9	404.09	6.9408e-06	7.0937e-06	455.07	152.56	134.76	46.431	7.142e-06	57.38	270.066	256.409	262.442	155.663	287.820	308.733	155.373	160.192	329.306	300.654	159.428	163.859	164.503	169.052	314.406	167.984	-8191	255	
41206.816	1	1	0	0	0.13031	0.13885	0.33247	0.19176	0.17702	0.080044	0.16547	0.30315	0.25178	0.16096	0.085164	0.23487	0.1252	0.26143	0.27821	0.26691	-2.3042	-3.1562	-2.9042	-3.0354	-3.0479	-2.7229	-3.0604	-3.1375	-2.7	-3.2188	-3.0354	-2.7917	-3.1375	-2.7792	-3.0187	-3.1667	208.520	277.594	362.797	489.530	307.016	308.128	438.018	437.779	242.401	195.950	473.082	502.083	436.881	443.403	258.287	419.698	0.00068214	0.00065284	0.00011673	1393.8	5.3848e-06	6.6759e-06	1396.5	394.15	4.7547e-06	3.075e-06	443.83	148.7	131.34	45.105	3.8211e-06	55.75	0.00065263	0.00064588	0.00018509	1417.4	6.9347e-06	6.9413e-06	1421.8	403.6	6.999e-06	7.2609e-06	454.44	152.17	134.19	46.469	7.3145e-06	57.448	268.840	241.891	225.133	155.844	289.041	296.437	155.441	160.111	305.579	341.790	159.749	164.156	164.686	169.134	301.278	168.197	-8191	255	
41206.910	1	1	0	0	0.092663	0.070783	0.091151	0.10595	0.054102	0.14405	0.16319	0.47051	0.1229	0.14685	0.36505	0.12249	0.11268	0.15957	0.24574	0.17181	-2.3458	-2.9521	-2.8937	-3.0312	-3.0667	-2.7438	-3.1729	-2.9708	-2.6437	-3.1167	-2.9521	-2.825	-3.0146	-2.9208	-3.0125	-3.0646	396.564	367.137	289.169	436.824	285.280	321.285	410.532	455.264	450.975	269.667	474.453	440.889	484.502	461.783	497.648	450.337	0.00067652	0.00057181	0.00015727	1392.2	5.0611e-06	6.5269e-06	1401.9	397.03	6.4021e-06	6.0777e-06	442.93	148.87	131.35	44.822	6.8373e-06	55.497	0.00064737	0.00066144	0.00018348	1417.2	6.9425e-06	7.1029e-06	1424.7	404.29	7.0596e-06	7.3636e-06	452.77	152.27	134.5	46.349	7.23e-06	57.306	270.480	210.399	226.061	155.639	293.340	296.425	155.544	160.007	318.866	293.096	159.545	164.275	164.605	169.051	307.140	168.175	-8191	255	
41207.008	1	1	0	0	0.084302	0.21827	0.083098	0.15147	0.34523	0.091468	0.1266	0.33081	0.22155	0.18558	0.19595	0.1848	0.10069	0.11596	0.16243	0.33891	-2.35	-2.9188	-2.7896	-2.9521	-3.0646	-2.975	-3.0083	-3.2687	-2.625	-3.0479	-2.9917	-2.9479	-3.0854	-2.8042	-2.8812	-3.2313	320.396	406.791	399.565	467.249	184.045	388.544	359.529	439.720	245.629	304.495	440.452	483.938	193.420	328.237	151.868	420.424	0.00067944	0.00056232	0.00013814	1387.8	6.7893e-06	5.7061e-06	1397.3	395.48	4.2577e-06	5.6568e-06	441.15	148.5	130.93	44.726	7.0592e-06	55.553	0.00065492	0.00066612	0.00018567	1414.5	7.161e-06	7.4179e-06	1420.4	403.07	7.2033e-06	7.4917e-06	451.99	151.93	133.9	46.261	7.4567e-06	57.191	269.610	232.985	258.763	155.617	293.162	298.011	155.425	160.187	300.247	290.538	159.618	164.172	164.443	168.975	308.431	167.994	-8191	255	
41207.105	1	1	0	0	0.05704	0.059802	0.22641	0.13336	0.087425	0.13936	0.23876	0.19875	0.069703	0.19638	0.11791	0.20977	0.19143	0.045702	0.14804	0.28198	-2.3438	-3.0208	-2.9125	-3.0917	-2.9979	-2.8229	-2.9021	-3.1604	-2.6792	-2.7667	-3.1375	-2.8021	-2.9688	-3.0125	-2.8063	-3.1208	276.262	260.350	498.392	446.870	271.066	163.864	455.432	355.676	142.429	474.408	150.726	472.305	429.308	373.574	438.485	445.279	0.0006446	0.00051848	0.00011781	1391.6	7.9783e-06	3.4017e-06	1394.3	394.96	4.7804e-06	5.786e-06	443.93	148.63	131.14	44.661	7.1846e-06	55.459	0.00066544	0.00067215	0.00018203	1414.3	7.0812e-06	7.2815e-06	1419.3	402.76	7.0917e-06	7.4345e-06	452.88	151.8	133.81	46.267	7.0724e-06	57.207	268.290	236.736	256.204	155.740	295.955	312.308	155.445	160.198	303.413	312.810	159.481	164.086	164.686	169.060	305.321	168.115	-8191	255	
41207.223	1	1	0	0	0.19733	0.28646	0.15	0.14416	0.11094	0.17968	0.39751	0.29719	0.10795	0.069468	0.062959	0.058443	0.25283	0.43897	0.04722	0.12221	-2.275	-3.0375	-3.0208	-2.9229	-2.9417	-2.7771	-3.0854	-3.2417	-2.5083	-2.875	-3.0979	-2.6604	-3.1146	-2.8312	-2.7125	-3.1708	287.896	356.612	497.003	185.145	243.204	500.045	437.829	427.690	328.797	323.028	435.762	435.955	203.881	482.269	272.112	460.681	0.00066699	0.00048622	0.00012851	1386.5	8.1693e-06	6.055e-06	1395.9	395.24	5.5242e-06	4.8313e-06	443.62	147.87	130.77	44.923	5.4344e-06	55.377	0.00065618	0.00066856	0.00017656	1413.1	7.2835e-06	7.3329e-06	1418.4	402.49	7.2973e-06	7.1315e-06	452.24	151.46	133.81	46.242	6.8875e-06	57.175	268.039	229.793	239.605	155.679	300.770	318.458	155.433	160.305	295.999	285.306	159.433	164.157	164.607	168.973	312.233	167.935	-8191	255	
41207.297	1	1	0	0	0.18829	0.072185	0.26179	0.54099	0.17701	0.039123	0.078971	0.3896	0.049307	0.082865	0.17768	0.15682	0.18763	0.21147	0.1837	0.36672	-2.35	-2.9875	-3.1021	-2.8167	-2.9604	-2.85	-2.9979	-3.3292	-2.7854	-2.6937	-3.2667	-2.8688	-3.2208	-3.1021	-2.6229	-3.2229	388.459	440.254	195.259	496.176	431.219	332.424	142.576	445.097	280.297	464.039	484.100	472.705	342.855	152.959	322.336	165.862	0.00064088	0.00053238	0.00012428	1383.4	5.925e-06	4.9202e-06	1395	393.54	7.0562e-06	6.7398e-06	442.57	148.19	130.54	44.756	5.578e-06	55.436	0.00067374	0.00065945	0.00017612	1410.5	7.1873e-06	7.1757e-06	1417.4	402.09	7.2258e-06	7.1685e-06	451.81	151.53	133.72	46.205	6.712e-06	57.199	268.240	215.452	214.121	155.451	314.265	311.029	155.597	160.285	328.077	289.518	159.636	164.170	164.536	168.946	302.659	168.098	-8191	255	
41207.395	1	1	0	0	0.23532	0.084949	0.17882	0.053153	0.19502	0.21367	0.20796	0.22363	0.071534	0.15102	0.48535	0.19651	0.11957	0.3252	0.20854	0.3029	-2.35	-2.7229	-2.9396	-2.9375	-2.75	-3.0979	-3.0854	-3.1958	-2.8187	-2.8312	-3.0917	-2.7833	-3.0167	-3.2208	-2.6896	-3.0625	410.404	206.671	191.837	490.070	433.214	485.776	458.004	427.811	363.966	207.024	156.763	147.341	407.875	438.321	264.253	459.176	0.00070193	0.00040621	0.00016183	1392.6	8.1575e-06	6.0045e-06	1395.8	394.74	8.057e-06	3.6886e-06	441.71	148.31	130.93	44.702	3.7032e-06	55.545	0.00066156	0.00063278	0.00016912	1412.7	7.281e-06	6.815e-06	1418.4	402.91	7.1066e-06	6.9103e-06	452.23	151.69	133.84	46.214	6.9172e-06	57.247	268.017	231.903	242.710	155.534	298.241	306.721	155.372	160.274	318.305	283.155	159.588	164.082	164.793	168.929	307.481	168.132	-8191	255	
41207.512	1	1	0	0	0.2077	0.15652	0.37517	0.19653	0.17979	0.14815	0.18185	0.052472	0.052661	0.22957	0.13512	0.19831	0.20571	0.18344	0.27547	0.070803	-2.4458	-2.7625	-3.0042	-2.9792	-2.9125	-2.9896	-2.925	-3.2146	-3.0958	-2.7583	-3.0521	-3.0375	-3.0042	-3.0687	-2.8458	-3.1292	157.106	499.016	234.226	431.445	149.747	355.670	458.830	283.665	286.154	495.716	213.032	395.480	223.619	476.685	157.081	469.699	0.00067148	0.00049355	0.00012372	1386.6	7.3652e-06	5.9411e-06	1394.8	393.81	4.8578e-06	2.367e-06	440.09	148.25	130.48	44.608	7.3077e-06	55.535	0.00066211	0.00064247	0.00017142	1411.9	7.0115e-06	6.9556e-06	1417.3	401.74	7.3067e-06	7.1148e-06	450.9	151.52	133.41	46.089	7.3404e-06	57.164	270.746	215.510	223.265	155.722	299.750	317.701	155.535	160.304	330.509	298.682	159.711	164.263	164.546	168.895	299.737	168.208	-8191	255	
41207.609	1	1	0	0	0.060768	0.21398	0.164	0.39004	0.18111	0.19733	0.35766	0.39449	0.12862	0.19353	0.094991	0.12727	0.25267	0.14187	0.38324	0.2104	-2.6813	-2.7958	-2.9375	-3.0146	-2.8688	-3.0187	-2.925	-3.1021	-3.0542	-2.7646	-3.1833	-3.0396	-2.8125	-3.1667	-2.9125	-3.3063	227.365	438.939	495.265	384.370	397.561	447.428	430.738	465.157	488.111	151.388	433.336	358.689	449.753	158.391	333.082	148.440	0.00069207	0.00026354	0.0001448	1385.7	6.7019e-06	6.5363e-06	1393.6	393.17	6.9062e-06	7.2049e-06	441.35	147.65	130.11	44.663	8.1437e-06	55.103	0.00067632	0.00066594	0.00018593	1410.6	7.5899e-06	7.2635e-06	1415.6	401.13	7.3844e-06	7.5883e-06	451.06	151.27	133.16	46.116	7.7114e-06	56.983	268.554	263.564	230.027	155.456	299.408	315.953	155.413	160.395	314.060	291.043	159.588	164.057	164.825	169.040	299.650	168.107	-8191	255	
41207.703	1	1	0	0	0.034064	0.41305	0.21538	0.20433	0.42088	0.069294	0.12564	0.18486	0.14664	0.051605	0.25225	0.13147	0.25603	0.15172	0.12557	0.088344	-2.5167	-2.7333	-3.0375	-2.9354	-2.8396	-3.2708	-2.8729	-3.1437	-3.0167	-2.6813	-3.0792	-2.9542	-2.9	-3.0958	-2.7104	-2.7958	494.552	148.131	293.670	499.930	143.981	191.846	325.296	481.167	351.614	372.303	453.038	193.204	483.273	466.463	248.017	495.559	0.00066331	0.0007507	0.00011017	1383.6	4.4266e-06	3.6345e-06	1393.6	395.51	6.0821e-06	7.7233e-06	441.68	148.13	130.19	44.709	4.4936e-06	55.434	0.00067658	0.00069237	0.00019144	1411.1	7.5835e-06	7.467e-06	1415	402.26	7.5148e-06	7.5629e-06	451.03	151.5	133.35	46.028	8.0055e-06	57.062	270.768	245.740	223.944	155.588	310.709	287.656	155.590	160.308	332.439	307.132	159.818	164.369	164.740	169.057	332.743	168.004	-8191	255	
41207.824	1	1	0	0	0.048647	0.25267	0.28623	0.33923	0.41418	0.20541	0.23915	0.10175	0.25877	0.12078	0.074	0.24449	0.026988	0.06314	0.042636	0.045874	-2.5312	-2.8458	-3.1437	-3.0333	-2.5563	-3.1146	-3.0458	-2.8063	-3.0125	-2.6167	-3.1667	-3.1	-2.8438	-3.1354	-2.9667	-2.8708	407.809	343.674	301.299	440.386	447.702	385.894	456.058	478.449	429.028	421.677	437.558	421.514	317.188	502.225	143.039	329.737	0.00068528	0.00062705	0.0001436	1385.3	1.0786e-05	3.5434e-06	1394.8	393.42	5.2663e-06	4.6808e-06	443.43	148.05	130.09	44.602	6.2465e-06	55.267	0.00067603	0.00068785	0.00019638	1409.2	7.6504e-06	7.6926e-06	1416.9	401.8	7.438e-06	7.6761e-06	451.59	151.36	133.42	46.033	8.0101e-06	57.036	271.058	235.647	207.002	155.524	289.642	297.088	155.351	160.431	318.018	305.824	159.797	164.287	164.715	169.057	292.376	168.235	-8191	255	
41207.895	1	1	0	0	0.072935	0.079453	0.12936	0.28495	0.22417	0.20713	0.24414	0.27248	0.064755	0.16498	0.30871	0.14494	0.35251	0.20237	0.48373	0.21059	-2.4813	-2.7687	-3.0167	-3.0479	-2.7208	-2.925	-3.0208	-2.9229	-3.1771	-2.8083	-3.0708	-3.1792	-2.7313	-3.2438	-2.7625	-2.8833	236.190	478.970	446.381	485.663	399.566	373.246	458.319	482.388	250.817	178.039	444.832	500.059	177.126	412.698	168.202	437.484	0.00066917	0.00054633	0.00018362	1389.8	8.1151e-06	1.4578e-06	1394	393.05	5.2966e-06	6.1534e-06	441.68	148.02	129.91	44.66	4.3884e-06	55.296	0.00068769	0.00068861	0.0001989	1412.8	7.5199e-06	7.6566e-06	1417.8	401.73	7.7156e-06	7.8968e-06	451.36	151.22	133.12	46.087	7.9819e-06	56.974	265.114	213.637	240.288	155.704	296.783	334.834	155.379	160.138	323.642	295.048	159.543	164.146	164.796	169.017	314.798	168.172	-8191	255	
41207.992	1	1	0	0	0.12616	0.1503	0.17225	0.34004	0.18009	0.42311	0.32081	0.035999	0.076498	0.22933	0.17707	0.21294	0.26495	0.18478	0.12499	0.2192	-2.6521	-2.7917	-2.7854	-3.0667	-2.6958	-3.1792	-3.2104	-3.0417	-3.1146	-2.9313	-2.9896	-3.2292	-2.7667	-3.1417	-2.9708	-2.6583	347.881	426.541	185.983	481.651	371.495	357.092	429.609	447.981	476.913	208.911	343.346	451.363	160.635	425.826	153.305	434.294	0.00066867	0.00069967	0.00013503	1386	9.0672e-06	4.4772e-06	1393.4	392.63	7.6106e-06	8.2074e-06	441.51	147.4	130.09	44.662	6.3041e-06	54.857	0.00070173	0.00073987	0.00020524	1411.4	7.7227e-06	7.9138e-06	1416	401.5	7.665e-06	8.1411e-06	450.96	150.98	133.26	46.086	7.9913e-06	56.875	269.851	209.455	250.863	155.546	302.635	286.551	155.560	160.186	318.740	307.721	159.921	164.453	165.162	169.175	333.536	168.151	-8191	255	
41208.113	1	1	0	0	0.16811	0.19003	0.14735	0.33215	0.075717	0.23818	0.2344	0.22889	0.15602	0.050737	0.031879	0.17756	0.13792	0.072006	0.19522	0.18637	-2.4854	-2.6063	-2.8688	-3.2167	-2.8208	-2.8792	-3.0625	-2.8417	-3.1937	-3.0542	-3.0625	-2.975	-2.7646	-2.9021	-2.975	-2.8896	158.943	149.772	171.977	470.482	177.873	282.879	429.416	417.939	362.068	222.367	169.681	199.831	262.143	168.237	338.374	333.202	0.00066309	0.00058352	0.00016324	1383.7	8.3485e-06	6.0233e-06	1391.4	392.21	6.1664e-06	4.2603e-06	440.49	147.83	129.92	44.626	8.93e-06	55.465	0.0006991	0.00073011	0.00020415	1411.7	7.8178e-06	8.0706e-06	1417.8	401.12	7.87e-06	8.3046e-06	450.92	151.21	133	46.093	7.8025e-06	57.025	268.461	232.872	251.921	155.741	293.753	292.259	155.411	160.353	301.067	292.814	159.486	164.094	164.806	168.956	302.376	168.216	-8191	255	
41208.207	1	1	0	0	0.07939	0.16992	0.17717	0.11501	0.20101	0.069225	0.37675	0.11442	0.07285	0.1118	0.18138	0.10421	0.044955	0.091517	0.23447	0.11908	-2.525	-2.7062	-2.7271	-3.3208	-2.8312	-2.975	-3.2188	-2.8979	-3.275	-2.7604	-3.0479	-3.25	-2.7396	-2.9917	-2.8792	-2.8312	392.546	151.805	186.399	460.383	156.262	406.484	418.317	373.289	420.576	321.940	167.555	459.114	214.307	260.921	150.449	292.576	0.00064973	0.00072639	0.00020106	1385.1	7.808e-06	6.0325e-06	1396.4	392.37	5.6983e-06	3.8901e-06	440.79	147.59	130.45	44.497	6.508e-06	55.298	0.00070526	0.0007261	0.00020121	1411.9	7.8725e-06	8.0341e-06	1418.1	401.19	7.8665e-06	8.1946e-06	450.88	151.17	133.36	46.056	7.832e-06	56.982	269.486	222.520	227.687	155.587	309.121	305.012	155.656	160.253	316.098	275.838	159.522	164.086	164.571	169.075	300.954	168.280	-8191	255	
41208.305	1	1	0	0	0.30843	0.13552	0.27045	0.23318	0.091147	0.13569	0.35629	0.25922	0.16855	0.070412	0.15352	0.12019	0.24898	0.22746	0.14423	0.10663	-2.7104	-2.7646	-2.6229	-3.2667	-2.9333	-2.7729	-3.1292	-2.95	-3.0625	-2.9792	-2.7333	-3.1417	-2.9917	-2.9271	-3.1125	-2.6083	186.051	433.262	361.255	478.847	272.974	485.531	429.975	445.513	216.957	379.163	436.535	487.141	155.843	162.238	330.709	210.750	0.00067614	0.00059074	0.00017039	1391.3	8.6732e-06	5.7066e-06	1392.1	392.3	6.7337e-06	3.3786e-06	439.83	147.43	130.11	44.519	7.2014e-06	55.003	0.00071736	0.00075228	0.00019545	1414.1	7.9814e-06	8.1453e-06	1416	401.02	8.06e-06	8.0321e-06	451.08	151.01	133.15	46.068	7.6863e-06	56.902	266.173	230.432	205.996	155.505	311.474	280.902	155.470	160.323	325.966	322.961	159.756	164.409	164.857	169.236	297.390	167.970	-8191	255	
41208.398	1	1	0	0	0.085327	0.077378	0.21601	0.45374	0.040118	0.095248	0.38529	0.26749	0.11025	0.12478	0.074339	0.095828	0.078635	0.37381	0.13506	0.023381	-2.5625	-2.7958	-2.775	-3.2167	-2.8208	-2.7896	-2.9833	-2.9417	-3.2833	-2.9	-2.7375	-3.2875	-2.9083	-2.8563	-3.0729	-2.9625	260.941	164.982	236.121	460.994	487.435	245.523	423.207	160.662	355.851	437.999	304.520	218.475	443.948	438.205	236.561	274.630	0.00068342	0.00049436	5.9811e-05	1387.7	8.7905e-06	5.0563e-06	1393.8	392.88	4.7474e-06	6.7053e-06	440.89	147.43	129.67	44.646	6.7934e-06	55.105	0.00073364	0.00072509	0.0001937	1413.7	8.0356e-06	8.1282e-06	1417.8	401.48	8.0949e-06	8.0175e-06	451.34	151.08	133	46.034	7.7172e-06	56.921	270.211	240.537	254.709	155.802	305.502	287.856	155.469	160.415	311.868	316.822	159.430	164.252	164.548	169.009	304.520	168.134	-8191	255	
41208.520	1	1	0	0	0.27249	0.32629	0.25958	0.3103	0.14295	0.27092	0.25616	0.29249	0.27813	0.40527	0.3375	0.18679	0.10324	0.179	0.13457	0.085437	-2.4458	-3.0563	-2.5875	-3.1833	-2.8229	-2.8	-3.2208	-2.9188	-3.0042	-3.1521	-2.8937	-3.0563	-3.0396	-2.8688	-3.2125	-2.7583	322.318	387.201	384.807	465.032	439.930	353.284	365.763	408.767	500.809	261.283	423.239	467.091	457.556	156.810	206.805	226.642	0.00068468	0.00078828	0.00015497	1386.9	4.2421e-06	7.705e-06	1397.4	393.77	3.1983e-06	6.1456e-06	441.25	148.35	130.14	44.452	6.8246e-06	55.397	0.00072431	0.00072428	0.00020178	1411.8	8.1208e-06	8.0146e-06	1418	402.32	8.0826e-06	7.9829e-06	451.09	151.37	133.1	46.037	7.9403e-06	57.071	267.745	235.217	232.340	155.504	323.649	294.407	155.617	160.145	307.503	309.130	159.716	164.213	164.513	169.230	292.359	168.197	-8191	255	
41208.594	1	1	0	0	0.28825	0.12956	0.20408	0.25493	0.080309	0.09915	0.17276	0.20198	0.051514	0.12611	0.23949	0.32552	0.10958	0.35823	0.23062	0.043533	-2.3292	-3.0312	-2.8312	-3.1688	-2.9375	-2.8563	-3.3396	-3.0542	-2.8187	-3.0042	-2.8937	-3.1479	-3.1104	-2.8375	-3.0979	-2.8479	200.099	313.679	478.363	423.115	484.197	413.608	436.356	148.988	198.817	170.245	341.427	474.712	437.047	457.288	425.517	170.783	0.00063113	0.00080016	0.00015572	1390.4	6.9215e-06	4.14e-06	1394.3	393.97	4.5035e-06	4.216e-06	442.17	147.94	130.69	44.607	8.6728e-06	55.19	0.00071843	0.00070433	0.00019824	1415.6	7.9699e-06	7.8255e-06	1419.1	402.01	7.951e-06	7.7363e-06	451.73	151.4	133.38	46.039	7.9516e-06	57.041	271.831	226.389	220.878	155.631	311.057	281.607	155.429	160.238	300.254	307.992	159.603	164.340	164.335	169.064	304.515	168.095	-8191	255	
41208.688	1	1	0	0	0.23487	0.093931	0.069602	0.25128	0.17632	0.052893	0.22483	0.058724	0.14839	0.1519	0.29093	0.072512	0.24848	0.16503	0.19065	0.4094	-2.5708	-3.0292	-2.775	-3.225	-3.1125	-2.7458	-3.2938	-2.8917	-2.9458	-3.1146	-2.9	-2.9792	-2.975	-2.7479	-2.9521	-3.1354	487.326	491.703	457.943	488.133	395.241	379.740	435.112	356.278	212.109	465.045	451.820	472.284	431.992	394.403	175.710	431.814	0.00068265	0.00042876	0.00018568	1388.8	7.6655e-06	6.0278e-06	1398.9	394.17	8.1013e-06	3.2861e-06	442.02	148.11	129.77	44.748	7.159e-06	55.056	0.00071337	0.00070173	0.00019759	1415	7.784e-06	7.7796e-06	1419.3	401.85	7.879e-06	7.8388e-06	451.43	151.49	133.08	46.07	8.1312e-06	57.073	267.255	236.079	229.208	155.518	308.895	272.850	155.475	160.350	314.323	304.610	159.540	164.333	164.566	169.057	298.694	168.048	-8191	255	
41208.785	1	1	0	0	0.17069	0.10439	0.064909	0.18965	0.13119	0.17658	0.48095	0.22709	0.10984	0.16764	0.10417	0.18091	0.039973	0.07886	0.20705	0.33694	-2.2687	-3.1688	-2.9042	-2.9604	-2.9396	-2.6729	-3.0542	-3.075	-2.6521	-3.1521	-2.7917	-3.075	-3.1458	-2.6958	-3.0354	-2.8812	340.197	362.090	241.168	330.787	410.307	396.727	460.099	482.779	343.044	321.694	438.500	493.568	368.513	294.303	429.546	190.052	0.00068737	0.00041752	0.0001613	1389.1	8.6764e-06	6.7571e-06	1393.5	393.88	6.9474e-06	2.0875e-06	440.25	147.34	130.63	44.457	4.9116e-06	55.127	0.0007029	0.00069844	0.00020161	1413.9	7.8192e-06	7.6491e-06	1419.1	401.87	7.7661e-06	7.8224e-06	450.85	151.19	133.4	45.977	8.1527e-06	57.042	267.909	209.646	238.442	155.554	302.280	299.414	155.526	159.928	315.226	315.087	159.680	164.394	164.742	169.101	292.939	168.126	-8191	255	
41208.906	1	1	0	0	0.034637	0.07727	0.18724	0.44831	0.26796	0.11378	0.16777	0.18502	0.19235	0.16284	0.14644	0.058502	0.28568	0.29729	0.24494	0.1259	-2.2396	-3.0667	-2.7479	-3.0729	-2.9062	-2.8333	-2.9646	-3.1521	-2.6688	-3.1729	-2.8187	-2.8979	-3.05	-2.8417	-2.7792	-3.0938	343.862	473.408	499.870	489.494	366.827	211.914	165.026	393.942	267.593	318.921	384.916	257.012	156.404	465.176	157.123	440.252	0.00067477	0.00067103	0.00012847	1384.9	7.2694e-06	5.1081e-06	1394.9	394.32	7.2924e-06	6.9327e-06	441.67	147.94	129.76	44.671	5.0957e-06	55.319	0.00069818	0.00073503	0.00020875	1413.5	7.6678e-06	7.9622e-06	1418.9	401.94	7.7777e-06	8.0428e-06	451.69	151.37	133.22	46.081	8.2161e-06	57.037	266.540	225.630	228.136	155.566	297.319	302.563	155.551	160.227	314.832	273.654	159.472	164.063	164.400	169.237	294.749	167.837	-8191	255	
41209.000	1	1	0	0	0.33135	0.17881	0.15898	0.23868	0.10226	0.18512	0.13011	0.27259	0.41249	0.067664	0.256	0.090821	0.25594	0.30033	0.15206	0.16354	-2.2146	-2.9708	-2.8125	-2.8375	-3.0146	-2.6958	-2.9396	-3.0646	-2.7042	-2.9958	-3.1292	-2.8479	-3.0312	-2.9021	-3.0083	-2.9562	338.825	311.600	250.050	472.942	370.083	299.236	357.548	406.348	227.036	396.555	168.087	385.649	398.480	498.797	480.503	391.575	0.00065214	0.00054447	0.00011566	1383.5	7.2944e-06	8.8951e-06	1399.7	394.26	4.6713e-06	3.0799e-06	441.82	148.1	129.89	44.492	4.6846e-06	55	0.00071154	0.00073982	0.0002059	1413.8	7.8694e-06	8.0496e-06	1420.8	401.77	7.8585e-06	8.3165e-06	451.66	151.4	133.17	45.983	7.9923e-06	57.016	269.396	186.152	254.079	155.727	294.957	252.505	155.609	160.481	299.790	313.605	159.652	164.025	164.602	169.021	297.448	168.278	-8191	255	
41209.098	1	1	0	0	0.092031	0.040558	0.090717	0.25264	0.13903	0.22921	0.10828	0.29066	0.20085	0.13892	0.28236	0.14866	0.19273	0.11025	0.054778	0.15551	-2.3167	-2.8896	-2.7146	-2.7979	-3.1021	-2.8229	-3.0438	-3.1625	-2.8229	-2.8854	-2.9396	-2.8333	-3.2313	-2.8292	-2.8812	-3.0708	256.223	317.574	372.328	450.983	429.610	264.073	413.908	418.586	189.034	281.678	358.565	162.494	405.321	462.000	320.236	426.170	0.00065589	0.00060357	0.00016394	1390	1.1472e-05	3.986e-06	1399.1	394.52	7.2599e-06	4.6468e-06	440.05	148.31	129.75	44.532	5.6415e-06	55.182	0.00071146	0.00072916	0.00020397	1414.6	7.8182e-06	8.2102e-06	1420.8	401.87	7.8937e-06	8.2456e-06	451.22	151.38	133.12	46.046	8.2226e-06	56.972	271.996	244.806	234.542	155.603	309.668	304.452	155.611	160.235	316.289	266.115	159.633	164.139	164.679	169.153	307.676	168.268	-8191	255	
41209.191	1	1	0	0	0.17054	0.068588	0.34118	0.23602	0.10485	0.32221	0.29841	0.39916	0.2035	0.095474	0.13197	0.31461	0.36044	0.092414	0.090954	0.28185	-2.2729	-2.8771	-2.9104	-2.7854	-2.9917	-2.8729	-2.9625	-3.2313	-2.6354	-3.0354	-3.1917	-2.7604	-3.0812	-2.8937	-2.8563	-3.1375	310.439	477.317	405.262	326.021	482.587	174.271	466.426	450.591	421.817	462.600	476.750	424.640	446.094	263.466	499.852	439.915	0.00067717	0.00050005	0.00013382	1389.9	8.4682e-06	5.6927e-06	1393.8	394.96	4.5838e-06	5.4643e-06	441.17	148.1	129.73	44.528	5.3678e-06	55.244	0.00071932	0.0007645	0.0002016	1414.5	7.7434e-06	8.1786e-06	1418.7	402.25	7.8914e-06	8.1041e-06	451.3	151.18	133.18	46.114	8.0478e-06	56.997	266.350	248.507	242.899	155.627	290.686	301.305	155.469	160.240	329.949	321.355	159.473	164.341	164.608	168.787	314.877	168.077	-8191	255	
41209.289	1	1	0	0	0.080976	0.23596	0.13213	0.28182	0.07105	0.19803	0.32763	0.16602	0.063279	0.091555	0.063853	0.27192	0.27371	0.10897	0.19161	0.10427	-2.3479	-2.8083	-2.8688	-2.95	-2.9333	-3.0687	-2.8875	-3.1063	-2.8354	-2.8604	-3.1854	-2.8354	-3.1458	-3.1583	-2.8854	-3.3937	151.900	282.033	383.211	474.117	334.960	343.363	444.882	473.478	258.231	340.846	384.426	179.102	162.357	458.957	151.699	147.875	0.00067787	0.00041151	0.0002174	1387.8	5.7188e-06	5.9158e-06	1397.1	394.59	5.3967e-06	6.5664e-06	440.04	148.06	130.3	44.55	2.2418e-06	55.208	0.00071724	0.00075004	0.00019833	1413.7	7.9811e-06	8.1875e-06	1419.1	401.81	8.1496e-06	8.0819e-06	450.98	151.17	133.2	46.043	7.8874e-06	56.971	269.825	218.322	228.803	155.823	306.221	272.741	155.548	160.292	312.349	295.663	159.514	164.361	164.692	168.947	281.935	168.133	-8191	255	
41209.387	1	1	0	0	0.044125	0.21969	0.10635	0.29777	0.28512	0.13516	0.46821	0.070931	0.068262	0.13141	0.069457	0.29809	0.12744	0.056042	0.13127	0.30311	-2.4854	-2.7875	-3.0229	-3.0125	-3.0229	-2.9313	-2.85	-3.3667	-2.8271	-2.775	-3.0083	-2.875	-3.0167	-3.0438	-2.7188	-3.0938	178.117	312.755	365.115	446.134	473.074	431.625	453.971	387.220	314.662	344.734	442.524	423.241	291.244	455.089	339.245	194.850	0.00067896	0.00060736	0.00018927	1393	3.9508e-06	7.5454e-06	1392.4	395.47	6.7215e-06	4.8257e-06	441.14	148.09	130.08	44.592	7.4356e-06	55.223	0.00073096	0.00074356	0.00019947	1415.7	7.9502e-06	7.8599e-06	1418.3	402.5	7.9584e-06	8.07e-06	451.21	151.15	133.24	46.036	7.9538e-06	57.087	269.085	251.544	234.494	155.723	285.776	270.066	155.614	160.187	313.137	278.609	159.915	164.175	164.931	169.008	286.366	168.233	-8191	255	
41209.504	1	1	0	0	0.22668	0.07094	0.14062	0.15918	0.33218	0.038357	0.046394	0.17827	0.13425	0.21821	0.24751	0.25155	0.18166	0.12304	0.069621	0.14628	-2.475	-2.6937	-2.9792	-2.9875	-2.9625	-2.8604	-3.0875	-3.1146	-2.8417	-2.8417	-3.3312	-3.1937	-2.9167	-3.1479	-2.6958	-2.9271	452.589	227.268	405.065	438.159	373.117	245.388	315.729	483.127	428.404	502.008	228.233	422.821	455.035	472.459	144.826	187.962	0.00065114	0.00048718	0.00014933	1386.9	7.5922e-06	4.2427e-06	1391	393.25	6.4131e-06	4.8033e-06	441.89	147.85	129.42	44.544	5.823e-06	55.11	0.00072208	0.00072735	0.00019635	1413.2	7.9934e-06	7.9619e-06	1418	401.66	8.0285e-06	8.0458e-06	451.43	151.32	133.09	46.08	7.6875e-06	57.032	270.148	240.882	245.247	155.615	322.240	297.717	155.459	160.200	331.895	308.550	159.616	164.185	164.545	168.878	295.398	167.975	-8191	255	
41209.602	1	1	0	0	0.22192	0.14319	0.18532	0.0727	0.066477	0.080288	0.060062	0.28048	0.14211	0.038259	0.13088	0.21355	0.18538	0.18997	0.21512	0.19705	-2.3625	-2.6292	-3.1188	-2.9292	-2.8479	-2.9688	-2.8604	-3.1354	-2.8729	-2.7021	-3.0667	-2.9979	-2.9042	-3.0438	-2.7583	-2.9771	277.669	442.961	432.880	473.312	360.798	202.823	149.001	449.377	374.268	285.951	171.940	439.150	221.264	172.003	274.911	144.099	0.0006906	0.00058291	9.7611e-05	1387.1	6.4135e-06	6.7069e-06	1393.4	393.42	5.1365e-06	4.5813e-06	440.27	147.61	129.25	44.549	6.0702e-06	55.137	0.00072949	0.00072753	0.0001992	1413.8	8.2339e-06	7.6995e-06	1418.3	401.47	8.0281e-06	7.9359e-06	451.3	151.01	132.99	45.974	8.0664e-06	57.001	268.861	240.113	221.986	155.677	279.944	307.252	155.427	160.185	319.915	296.135	159.812	164.149	164.585	168.933	307.513	168.018	-8191	255	
41209.695	1	1	0	0	0.1712	0.27823	0.13183	0.27678	0.08817	0.090056	0.48824	0.48671	0.3133	0.15935	0.047867	0.35588	0.11842	0.1483	0.11439	0.31442	-2.6083	-2.6021	-2.7896	-2.9896	-2.7667	-3.15	-2.9542	-3.1	-2.7792	-2.7313	-3.125	-2.9229	-2.9062	-3.1354	-2.7729	-3.0729	435.504	224.793	146.073	193.352	248.926	361.360	424.431	443.458	353.232	240.779	468.669	398.446	231.347	343.173	489.645	475.346	0.00068027	0.00042692	0.00011371	1388.5	6.5807e-06	3.4123e-06	1395.6	392.88	5.4134e-06	7.615e-06	439.68	147.58	130.41	44.457	5.5208e-06	55.068	0.0007323	0.00071889	0.000206	1412.3	8.0973e-06	7.683e-06	1418.2	401.12	7.931e-06	7.8667e-06	450.84	151.04	133.12	45.966	8.1858e-06	56.952	266.445	249.655	257.917	155.566	325.342	252.092	155.357	160.316	330.488	288.966	159.614	164.335	164.709	168.995	322.136	168.226	-8191	255	
41209.793	1	1	0	0	0.24964	0.23367	0.14169	0.26305	0.22435	0.15931	0.42064	0.10271	0.039335	0.20876	0.28145	0.11852	0.24299	0.095883	0.066538	0.30354	-2.4125	-2.7271	-2.9708	-2.875	-2.7729	-3.1229	-3.1583	-2.9833	-3.1146	-2.6958	-3.0396	-3.0812	-2.6083	-2.9667	-2.7479	-2.8479	315.228	144.969	180.965	159.917	189.001	183.154	439.976	485.551	283.987	321.845	493.477	478.209	323.826	489.858	201.602	457.305	0.00066133	0.00083787	0.00010847	1382.9	8.8486e-06	4.5246e-06	1395.8	394.02	7.0386e-06	6.4136e-06	440.43	147.19	130.4	44.492	5.3957e-06	55.076	0.0007185	0.00072614	0.00020619	1411.4	7.8626e-06	7.937e-06	1418.4	401.67	7.9559e-06	7.8085e-06	450.83	151.14	133.07	46.029	7.9768e-06	56.967	269.063	248.976	266.529	155.670	304.736	267.171	155.369	160.352	317.140	302.352	159.531	164.316	164.813	168.839	297.860	167.999	-8191	255	
41209.891	1	1	0	0	0.20447	0.20676	0.07546	0.20612	0.19316	0.17344	0.32443	0.02314	0.13012	0.16375	0.089659	0.11608	0.40865	0.23739	0.14203	0.17044	-2.5375	-2.8333	-2.9521	-3.1292	-2.8104	-2.9146	-2.9708	-3.0229	-2.9958	-2.7354	-2.9792	-3.0896	-2.7521	-3.1354	-2.7146	-3.0167	443.827	271.478	396.141	416.766	447.979	387.692	440.366	440.096	300.695	211.842	353.772	169.399	199.947	195.568	142.859	360.494	0.00068817	0.00061479	0.0001126	1385.3	6.3465e-06	5.1705e-06	1393.6	392.89	5.5446e-06	8.4904e-06	440.67	148.09	130.34	44.579	4.7809e-06	55.326	0.00070928	0.00071586	0.00020429	1414.1	7.5948e-06	7.7297e-06	1416.3	401.49	7.6355e-06	7.9896e-06	451.29	151.01	133.15	46.013	8.2871e-06	57.036	269.316	231.638	217.339	155.463	288.396	276.907	155.396	160.128	302.430	309.392	159.650	164.125	164.725	168.936	275.547	167.972	-8191	255	
41209.984	1	1	0	0	0.30054	0.056329	0.16137	0.25248	0.1379	0.032387	0.26597	0.18259	0.13208	0.15935	0.19859	0.28036	0.30765	0.25642	0.016816	0.28576	-2.5833	-2.6646	-2.8521	-3.1042	-2.5854	-2.975	-2.9896	-2.8896	-3.0229	-2.7625	-3.0521	-3.0625	-2.8417	-3.1396	-2.8	-2.9667	418.710	358.156	221.705	490.481	348.842	403.307	459.018	389.357	456.360	176.959	498.495	465.648	485.837	455.615	483.275	415.719	0.00069766	0.00042716	0.00023184	1387.2	8.3818e-06	1.1791e-06	1394.5	392.83	5.4204e-06	4.3063e-06	442.78	147.91	129.82	44.602	6.1093e-06	55.235	0.00069759	0.00071676	0.0002058	1412.5	7.8262e-06	7.8755e-06	1417.8	401.31	7.6683e-06	7.964e-06	451.44	150.99	132.94	46.038	8.0196e-06	57.002	268.284	232.084	226.083	155.749	293.950	261.756	155.371	160.388	322.509	284.774	159.584	164.151	164.589	169.093	306.395	168.022	-8191	255	
41210.082	1	1	0	0	0.21146	0.15588	0.10423	0.1502	0.18827	0.331	0.53831	0.35894	0.1469	0.17636	0.15036	0.12808	0.27112	0.16191	0.25153	0.10967	-2.65	-2.6583	-2.925	-3.0687	-2.7438	-2.9479	-3.0833	-2.8063	-3.0521	-2.8417	-3.0563	-3.0042	-2.8458	-3.0333	-2.9792	-2.8417	391.661	306.822	262.733	455.507	386.855	490.964	456.770	150.297	414.717	464.460	454.260	466.847	487.019	343.163	310.388	193.219	0.00064105	0.00071375	0.00015609	1386.2	6.9526e-06	5.0101e-06	1393.6	392.09	4.6628e-06	5.6175e-06	441.53	147.58	130.09	44.467	6.1243e-06	55.335	0.00069352	0.0007377	0.00020482	1411.7	7.5814e-06	7.9802e-06	1416.7	400.62	7.7507e-06	8.1212e-06	451.23	150.95	133.1	45.979	7.9391e-06	56.986	272.400	240.394	219.019	155.706	290.173	294.595	155.372	160.314	301.785	332.566	159.529	164.407	164.799	169.104	284.990	168.168	-8191	255	
41210.203	1	1	0	0	0.33513	0.24637	0.038425	0.17121	0.14104	0.13445	0.30873	0.11963	0.096938	0.19444	0.27246	0.1395	0.067204	0.14885	0.085825	0.23488	-2.5479	-2.9062	-2.6417	-3.1375	-2.7521	-3.0333	-3.1312	-2.8271	-2.9292	-3.0625	-2.9042	-3.0979	-2.8125	-3.0125	-3.0104	-2.7979	227.823	448.068	155.095	462.970	404.268	434.969	424.024	466.837	438.849	172.547	490.492	206.867	432.032	445.609	499.444	385.267	0.00069311	0.00031943	0.00020427	1383.9	6.5078e-06	2.967e-06	1393.7	392.26	5.2391e-06	2.7443e-06	439.95	147.14	129.75	44.492	4.9992e-06	55.224	0.000725	0.00073893	0.00020419	1412.2	7.857e-06	8.0887e-06	1416.7	401.07	7.8578e-06	8.1384e-06	450.68	150.63	132.87	45.978	8.0266e-06	57.006	269.458	249.303	245.254	155.559	301.230	224.596	155.400	160.217	314.616	287.605	159.438	164.240	164.642	169.053	307.265	168.126	-8191	255	
41210.297	1	1	0	0	0.12486	0.063835	0.022007	0.041175	0.26042	0.039082	0.2778	0.21284	0.013333	0.24424	0.20742	0.20464	0.17338	0.31287	0.030473	0.23793	-2.4813	-2.8812	-2.6646	-3.1104	-2.8229	-2.8396	-3.2021	-2.85	-2.7938	-2.8792	-2.8271	-3.1146	-2.9417	-2.9313	-2.7875	-2.8729	437.026	156.661	383.170	260.148	440.894	269.089	444.657	418.458	151.457	490.761	493.810	461.749	156.601	444.038	172.369	485.483	0.00067803	0.00043207	0.00011166	1388.4	7.8886e-06	3.6161e-06	1392.5	393.87	8.0247e-06	5.4933e-06	441.36	147.14	129.39	44.699	4.1576e-06	55.155	0.00072009	0.00075272	0.00020447	1411.7	8.0959e-06	8.1907e-06	1414.7	401.05	8.1382e-06	8.4305e-06	451.28	151.05	132.87	45.993	7.9961e-06	56.957	264.601	224.418	227.467	155.677	283.745	287.757	155.351	160.352	311.447	312.758	159.563	163.969	164.497	168.996	319.467	167.952	-8191	255	
41210.395	1	1	0	0	0.093878	0.14158	0.41394	0.40054	0.055171	0.11511	0.29252	0.29124	0.020533	0.034866	0.19881	0.27363	0.16716	0.28636	0.15679	0.15682	-2.4833	-2.9313	-2.5083	-3.2833	-2.8583	-2.9188	-3.3063	-2.9646	-3.0208	-3.0312	-2.7792	-3.075	-2.9458	-2.825	-2.9042	-2.9042	447.305	493.606	159.514	441.035	185.549	380.942	434.443	406.881	159.124	312.793	475.949	440.559	142.924	176.797	211.217	374.648	0.00068571	0.00050175	0.00011497	1386.5	7.5647e-06	5.7682e-06	1392.3	391.94	4.212e-06	4.2624e-06	440	146.85	130.04	44.398	5.7706e-06	55.103	0.0007184	0.00074692	0.00019615	1411.8	8.1274e-06	8.1969e-06	1415.9	400.4	8.3355e-06	8.1909e-06	449.87	150.49	132.84	45.946	8.1162e-06	56.917	270.166	198.412	264.650	155.552	279.812	300.934	155.683	160.149	315.197	303.815	159.582	163.792	164.682	169.009	306.753	168.259	-8191	255	
41210.465	1	1	0	0	0.35699	0.057628	0.19906	0.33503	0.13571	0.10452	0.29687	0.25135	0.35805	0.031098	0.30156	0.19253	0.19925	0.34014	0.31234	0.098149	-2.2896	-2.925	-2.7542	-3.1896	-2.7729	-2.9104	-3.3583	-2.8771	-2.8375	-3.1188	-2.7625	-3.0563	-3.05	-2.9271	-3.1104	-2.7979	271.896	174.788	371.614	463.008	344.488	411.253	410.011	483.215	258.975	428.409	478.906	320.944	476.572	467.953	190.668	453.353	0.00065125	0.00034805	0.00019057	1384.3	5.956e-06	3.2221e-06	1396.8	392.32	4.1889e-06	5.5591e-06	440.02	147.03	129.46	44.544	5.4741e-06	54.908	0.00073381	0.00073389	0.00020294	1412.4	8.3736e-06	8.5265e-06	1417.2	401.26	8.3261e-06	8.2546e-06	450.39	150.83	132.67	45.934	8.1549e-06	56.758	267.804	237.054	225.455	155.913	279.169	273.458	155.579	160.238	326.260	305.815	159.520	164.102	164.522	169.414	308.637	168.050	-8191	255	
41210.586	1	1	0	0	0.14079	0.033597	0.24803	0.32501	0.29308	0.0039347	0.33533	0.087879	0.13942	0.036189	0.18189	0.054576	0.047542	0.095777	0.12905	0.10626	-2.5833	-2.9562	-2.7396	-3.1979	-2.8458	-2.8771	-3.2271	-2.9625	-2.8271	-3.225	-2.6646	-3.0938	-3.0625	-2.8667	-3.0917	-2.8729	305.750	410.416	295.221	153.401	483.073	148.074	442.572	428.212	259.380	466.402	450.822	207.163	298.599	286.415	378.530	178.352	0.000611	0.00057694	0.00015998	1389.4	7.1449e-06	4.151e-06	1392.7	392.83	6.4222e-06	5.8275e-06	439.78	147.24	129.53	44.304	6.8064e-06	54.826	0.00075223	0.00076273	0.00020946	1413.1	8.6583e-06	8.504e-06	1417.2	400.85	8.5311e-06	8.4151e-06	450.21	150.95	132.72	45.865	8.4297e-06	56.747	269.960	235.635	239.289	155.824	320.176	256.964	155.569	160.423	322.123	298.601	159.487	164.125	164.582	169.149	302.158	168.003	-8191	255	
41210.680	1	1	0	0	0.16438	0.15188	0.11482	0.16326	0.13219	0.016567	0.18163	0.25447	0.35246	0.056074	0.52963	0.11999	0.26484	0.17778	0.25645	0.15657	-2.475	-2.8792	-2.9229	-3.2396	-2.8729	-2.6604	-3.3083	-2.9375	-2.9083	-3.0146	-2.6896	-3.1146	-3.0771	-2.7438	-2.9958	-3.0479	142.892	369.860	310.242	480.095	351.071	447.424	452.154	456.624	328.010	340.405	465.635	168.803	488.583	160.953	273.599	361.901	0.00067028	0.00052191	0.00020884	1380.9	7.5069e-06	8.8114e-06	1396.2	392.18	4.9452e-06	4.6538e-06	439.86	146.52	129.12	44.386	5.6755e-06	55.092	0.00076398	0.00077438	0.00021318	1411.8	8.7302e-06	8.46e-06	1417.9	400.91	8.7299e-06	8.7629e-06	450.64	150.61	132.64	45.921	8.8092e-06	56.874	266.443	224.186	233.184	155.829	285.556	322.709	155.422	160.294	313.379	311.673	159.621	164.139	164.617	169.041	298.620	168.251	-8191	255	
41210.777	1	1	0	0	0.059589	0.33421	0.1638	0.35248	0.15184	0.13841	0.27333	0.11115	0.27494	0.075247	0.12165	0.038359	0.14232	0.034625	0.073067	0.14398	-2.3375	-2.9354	-2.7583	-2.9813	-2.8375	-2.7375	-3.1396	-2.9938	-2.7021	-3.0396	-2.9292	-2.9667	-3.0146	-2.6729	-3.0812	-3.0583	142.934	165.746	306.145	426.634	492.626	471.851	457.579	447.669	383.512	333.348	224.346	365.389	153.288	452.018	280.555	463.454	0.00069568	0.00056051	0.00014302	1389.6	4.4409e-06	4.2333e-06	1394.7	392.91	4.8992e-06	3.1936e-06	439.31	147.24	129.09	44.301	3.8824e-06	55.088	0.0007687	0.00077651	0.00022573	1415.6	8.9161e-06	8.6797e-06	1419.7	401.25	8.7036e-06	8.74e-06	450.23	150.93	132.55	45.823	9.0801e-06	56.784	270.900	238.484	212.117	155.622	306.376	245.366	155.563	160.267	313.375	301.890	159.599	164.161	164.618	169.102	325.921	168.202	-8191	255	
41210.871	1	1	0	0	0.11045	0.089466	0.10984	0.36476	0.095608	0.062009	0.21956	0.28109	0.18259	0.12483	0.098469	0.3881	0.14075	0.22715	0.16863	0.16081	-2.3708	-3.1063	-2.6125	-2.9271	-3.0812	-2.7	-3.2875	-3.1521	-2.8667	-3.3063	-2.9083	-2.8583	-3.0396	-2.8083	-2.7917	-2.9562	383.961	426.055	169.808	476.038	268.941	326.655	423.933	156.122	414.473	215.871	166.903	441.646	455.503	502.159	334.411	437.410	0.00070814	0.00048091	0.00011842	1389.3	8.0203e-06	4.5723e-06	1396.6	393.04	4.5781e-06	5.2359e-06	438.77	147.59	129.51	44.4	5.91e-06	54.997	0.00077713	0.00079198	0.00022987	1415.3	8.5982e-06	8.8353e-06	1420	401.29	8.5078e-06	8.7452e-06	450.26	150.76	132.85	45.932	9.0451e-06	56.882	271.883	243.238	241.220	155.403	310.820	300.446	155.400	160.286	321.668	283.900	159.595	164.138	164.758	168.808	310.988	168.219	-8191	255	
41210.992	1	1	0	0	0.096518	0.27385	0.073583	0.18715	0.081151	0.15295	0.39888	0.16365	0.17775	0.17379	0.089115	0.12731	0.31463	0.17162	0.071472	0.13596	-2.2708	-2.9646	-2.7542	-2.7812	-2.8896	-2.5896	-3.0083	-3.15	-2.6729	-2.9562	-3.0958	-2.8187	-3.1375	-2.8792	-2.9521	-3.2	327.980	294.561	285.203	469.208	352.198	435.446	431.625	494.671	286.263	193.737	477.959	191.242	438.892	360.385	250.451	160.301	0.00067077	0.00056252	0.00020092	1389.6	5.7082e-06	5.4186e-06	1400.7	394.04	5.069e-06	3.296e-06	439.55	147.51	130	44.478	5.7142e-06	55.094	0.00076193	0.00079552	0.00022616	1416.9	8.4574e-06	8.7899e-06	1422.4	401.91	8.5604e-06	8.8609e-06	451.64	150.88	133.02	45.928	8.9583e-06	56.856	270.185	220.732	246.926	155.695	262.918	267.893	155.513	160.125	318.176	271.025	159.819	164.095	164.662	169.068	302.967	167.925	-8191	255	
41211.066	1	1	0	0	0.2217	0.081828	0.067659	0.24449	0.13592	0.22287	0.27278	0.27002	0.32919	0.26894	0.039011	0.40852	0.12892	0.26792	0.15068	0.040607	-2.3708	-2.9875	-2.8292	-3.0125	-3.0375	-3.025	-3.1042	-3.3937	-2.7958	-3.0271	-2.9646	-2.9771	-3.2083	-2.9979	-2.8229	-3.2167	168.333	466.852	442.052	185.895	325.593	413.196	414.722	482.182	227.464	175.477	387.131	465.234	436.153	383.827	435.222	448.273	0.00063572	0.00061197	0.0002107	1389	7.4561e-06	4.5007e-06	1399.4	393.03	6.5905e-06	6.4612e-06	440.93	147.7	129.5	44.58	6.7248e-06	54.991	0.00074588	0.00079382	0.00022611	1417.1	8.298e-06	8.968e-06	1421.4	401.46	8.4549e-06	8.8803e-06	450.96	151.11	132.97	45.964	8.8532e-06	56.827	270.697	219.365	255.928	155.615	310.841	306.801	155.527	160.155	304.640	303.072	159.549	164.225	164.478	169.067	289.185	168.264	-8191	255	
41211.188	1	1	0	0	0.197	0.19593	0.15939	0.084294	0.2005	0.04224	0.20544	0.26322	0.073235	0.19427	0.23935	0.35654	0.14685	0.21732	0.12694	0.076025	-2.0667	-2.8854	-2.8438	-2.8937	-3.1312	-2.7188	-3.0708	-3.1437	-2.6625	-2.975	-3.0104	-2.8583	-2.9958	-2.9333	-2.6542	-3.2708	315.365	399.064	187.484	203.289	426.483	161.913	413.242	477.493	312.480	462.385	427.514	471.187	230.715	194.183	321.650	201.398	0.00066473	0.00079061	0.00016211	1395.7	6.0425e-06	5.1494e-06	1393.9	393.36	6.9907e-06	4.8547e-06	440.74	147.92	129.79	44.562	6.8415e-06	55.448	0.00075185	0.00081147	0.00021926	1418.9	8.4142e-06	8.8927e-06	1420.3	401.76	8.5683e-06	8.8383e-06	451.42	151	132.99	46.039	8.6538e-06	56.988	271.859	285.848	208.221	155.596	306.437	287.433	155.544	160.296	335.658	300.210	159.926	163.976	164.640	168.819	322.431	168.045	-8191	255	
41211.281	1	1	0	0	0.032248	0.10477	0.2157	0.43154	0.17328	0.066555	0.28143	0.24827	0.22819	0.19612	0.19439	0.15176	0.078884	0.079123	0.35155	0.19481	-2.3812	-2.7354	-3.0062	-2.7875	-2.9104	-2.8979	-2.8354	-3.1396	-2.8063	-2.7354	-3.0979	-2.8	-3.0708	-2.9417	-2.6896	-3.175	261.675	381.094	262.637	429.287	485.709	368.344	440.826	476.085	420.406	438.718	438.437	460.451	474.993	435.362	377.349	399.682	0.00069666	0.00058124	0.00013823	1391.2	4.516e-06	6.9302e-06	1390.8	393.61	7.0741e-06	7.2782e-06	441.01	147.01	129.87	44.496	6.8651e-06	55.067	0.00075426	0.00080296	0.00021714	1416.1	8.614e-06	8.7545e-06	1419	401.87	8.6917e-06	8.7761e-06	451.78	150.88	132.89	46.015	8.5235e-06	56.882	266.936	284.513	270.758	155.689	284.964	299.651	155.595	160.070	320.976	289.657	159.612	164.153	164.581	169.007	299.360	168.228	-8191	255	
41211.379	1	1	0	0	0.045467	0.072697	0.1427	0.13494	0.042832	0.053987	0.063448	0.31844	0.037855	0.24135	0.15957	0.13944	0.072302	0.23792	0.16489	0.20573	-2.3667	-2.8583	-3.0771	-3.0271	-2.8542	-2.9292	-3.1208	-3.1792	-2.8292	-2.7979	-3.1146	-2.8917	-2.9729	-2.9167	-2.6708	-3.1354	488.682	478.198	274.436	428.703	363.679	455.303	372.933	430.730	495.299	346.732	455.901	335.137	359.350	352.791	433.891	249.131	0.00066013	0.00056004	9.9219e-05	1393.5	9.0747e-06	6.0459e-06	1396	392.62	4.6564e-06	6.4834e-06	440.16	147.99	129.68	44.568	6.677e-06	55.148	0.00075627	0.00080446	0.00021054	1416.3	8.7248e-06	8.8519e-06	1420.1	401.43	8.7311e-06	8.8139e-06	450.99	151	132.97	46.002	8.5184e-06	56.848	270.179	226.249	183.026	155.646	305.742	281.932	155.438	160.109	302.607	300.085	159.530	164.174	164.784	169.220	313.062	167.883	-8191	255	
41211.477	1	1	0	0	0.19026	0.093805	0.080098	0.19072	0.28119	0.21596	0.28937	0.17728	0.071695	0.20288	0.064734	0.14355	0.14519	0.10286	0.22796	0.25389	-2.4292	-2.7917	-3.0667	-2.7875	-2.9437	-2.9604	-2.9062	-2.9729	-2.9208	-2.7854	-3.1396	-2.9875	-3.0312	-3.2542	-2.7625	-3.0979	157.325	157.560	428.892	469.806	218.690	336.819	413.584	450.197	367.970	235.322	487.112	480.331	432.687	448.433	356.790	465.462	0.00067762	0.00042045	0.00011697	1391.3	1.1287e-05	5.4471e-06	1399.2	394.11	6.5449e-06	2.4827e-06	439.85	147.09	129.86	44.401	8.3403e-06	54.989	0.00077493	0.00079494	0.00020709	1417.6	8.6557e-06	8.6681e-06	1420.8	401.83	8.7451e-06	8.6534e-06	451.1	150.84	133.15	45.952	8.4573e-06	56.896	267.349	240.988	224.205	155.626	300.699	270.070	155.460	160.353	312.413	271.825	159.797	164.146	164.858	168.995	317.256	167.990	-8191	255	
41211.594	1	1	0	0	0.27883	0.1434	0.13108	0.34552	0.077394	0.15642	0.37528	0.22364	0.31333	0.24694	0.068197	0.059411	0.01489	0.31954	0.15503	0.082332	-2.4042	-2.6562	-3.0167	-2.8917	-2.8354	-2.9	-3.0479	-3.1917	-2.875	-2.7542	-3.2583	-2.7167	-2.8146	-2.8896	-2.8187	-3	169.785	381.583	448.629	175.634	401.831	163.734	461.227	413.015	262.413	298.913	368.175	203.606	429.924	207.934	450.168	411.691	0.00065921	0.00036818	0.00016791	1390.9	6.8722e-06	3.1615e-06	1394.4	394.24	4.4998e-06	6.122e-06	440.91	147.36	129.72	44.571	7.0011e-06	55.047	0.00076485	0.00078741	0.00021279	1416.6	8.6029e-06	8.3659e-06	1418.9	401.7	8.4857e-06	8.6579e-06	450.78	150.87	133.07	46.031	8.4432e-06	56.881	269.326	237.992	233.445	155.554	276.132	304.389	155.483	160.411	310.015	287.262	159.528	164.174	164.775	169.053	312.451	168.082	-8191	255	
41211.691	1	1	0	0	0.25808	0.13304	0.31533	0.15324	0.22617	0.026484	0.099682	0.22878	0.19447	0.049343	0.15618	0.078668	0.23564	0.32091	0.16061	0.13698	-2.5333	-2.4854	-3.0604	-3.025	-2.7104	-3.0229	-2.7188	-3.1583	-2.9146	-2.5833	-3.0458	-2.9125	-2.7417	-3.0458	-2.6583	-2.9958	284.236	383.802	363.598	450.059	261.986	267.947	417.877	452.232	170.755	488.140	301.509	162.804	164.062	481.796	147.757	236.353	0.00065804	0.0006064	0.00021793	1390.1	1.0161e-05	4.1581e-06	1395.1	393.17	5.2917e-06	8.2777e-06	440.11	147.66	130.1	44.343	9.1544e-06	55.23	0.00076604	0.000766	0.00020888	1416	8.7332e-06	8.4059e-06	1419.5	401.21	8.627e-06	8.5029e-06	451.13	150.76	133.1	45.847	8.4686e-06	56.945	267.503	266.673	224.999	155.601	292.927	285.477	155.382	160.337	302.890	323.226	159.611	164.210	164.828	168.821	310.445	168.063	-8191	255	
41211.762	1	1	0	0	0.15063	0.14965	0.19778	0.034344	0.12046	0.14683	0.37586	0.2196	0.088839	0.12264	0.3045	0.18877	0.05805	0.20167	0.070297	0.19275	-2.4833	-2.65	-3	-2.9292	-2.7917	-3.0479	-2.95	-2.9854	-2.8854	-2.6896	-2.9375	-2.8688	-2.825	-3.1396	-2.8208	-2.9667	383.494	223.543	157.625	446.027	153.155	349.764	461.663	461.795	295.839	311.672	423.496	348.132	227.146	450.363	437.746	441.730	0.00066682	0.00059734	0.00016429	1389.9	7.6192e-06	5.3634e-06	1395.8	392.52	4.9121e-06	5.5531e-06	441.02	147.3	129.63	44.405	4.9996e-06	55.106	0.00076909	0.00076273	0.00021924	1416.2	8.6522e-06	8.4413e-06	1419.2	401.48	8.5725e-06	8.3782e-06	450.87	150.82	132.86	45.903	8.8104e-06	56.828	270.504	262.901	228.437	155.731	319.386	269.402	155.356	160.328	306.796	297.770	159.634	164.111	164.784	169.037	314.911	168.180	-8191	255	
41211.883	1	1	0	0	0.13738	0.10274	0.12805	0.3606	0.056551	0.19334	0.41444	0.27403	0.28049	0.15475	0.21082	0.12087	0.056732	0.14638	0.03522	0.048734	-2.5979	-2.7792	-2.9833	-3.1042	-2.6396	-2.8875	-3.0563	-2.9062	-3.1583	-2.7771	-3.025	-2.9813	-2.8021	-3.2021	-2.7687	-2.7542	387.507	203.445	468.285	472.226	371.034	446.869	421.500	483.565	406.389	360.981	416.117	439.930	394.842	412.270	424.309	431.419	0.00068149	0.00070727	0.00014884	1388	7.5843e-06	4.3833e-06	1399.2	394.65	7.1099e-06	6.0838e-06	440.5	147.05	129.64	44.445	6.6436e-06	55.087	0.0007555	0.00079154	0.00022176	1415.9	8.4675e-06	8.6587e-06	1420.6	401.71	8.5951e-06	8.8099e-06	450.58	150.74	132.66	45.955	8.8181e-06	56.927	271.093	214.803	238.787	155.591	298.950	317.107	155.437	160.301	291.806	273.325	159.570	164.183	164.460	168.809	304.492	168.141	-8191	255	
41211.977	1	1	0	0	0.19574	0.21695	0.091231	0.12929	0.27148	0.22147	0.47164	0.22312	0.10173	0.15103	0.014021	0.12212	0.067091	0.072491	0.24061	0.11744	-2.6	-2.7938	-2.8521	-3.15	-2.6437	-3.0396	-3.1604	-2.8292	-3.2521	-2.5812	-3.0854	-3.1729	-2.9229	-3.0625	-2.7875	-2.9938	209.933	449.938	401.818	160.334	377.410	398.981	449.671	394.652	427.051	368.558	271.682	412.171	477.728	167.579	469.765	411.250	0.00068261	0.00043507	0.00019779	1390	4.2659e-06	2.8194e-06	1396.1	393.28	5.7713e-06	4.2025e-06	439.99	147.54	129.21	44.478	5.2126e-06	55.101	0.0007554	0.00078621	0.00023122	1416.4	8.5593e-06	8.6525e-06	1419.7	401.21	8.6452e-06	8.9104e-06	451.07	150.57	132.69	45.937	9.1002e-06	56.882	270.105	243.877	228.310	155.781	295.610	296.897	155.554	160.209	326.828	276.385	159.561	164.025	164.740	169.205	297.826	167.852	-8191	255	
41212.074	1	1	0	0	0.19729	0.10618	0.10401	0.044728	0.17004	0.15649	0.4365	0.12751	0.06263	0.13248	0.12663	0.38733	0.18588	0.19256	0.12753	0.17353	-2.4833	-2.725	-2.8042	-3.1063	-2.7667	-2.9375	-3.2583	-2.975	-3.1542	-2.8812	-3.0458	-3.1729	-2.8104	-3.0958	-2.8542	-2.85	196.413	296.344	200.499	475.060	280.604	290.788	437.661	494.509	451.522	167.574	411.755	466.069	158.598	455.240	158.073	460.934	0.00069007	0.00060631	8.2571e-05	1388.1	8.7686e-06	7.4375e-06	1393.9	393.78	5.9897e-06	8.6758e-06	441.01	147.01	129.4	44.346	6.9445e-06	55.043	0.00077386	0.00082201	0.00023398	1415.9	8.6809e-06	9.0024e-06	1418.6	401.78	8.6955e-06	9.0187e-06	450.74	150.6	132.84	45.933	9.3576e-06	56.868	267.657	216.650	244.954	155.663	280.458	289.913	155.430	160.169	318.559	298.714	159.612	163.982	164.806	169.061	311.616	167.935	-8191	255	
41212.172	1	1	0	0	0.17068	0.055138	0.10398	0.23228	0.076095	0.13262	0.37721	0.27246	0.24666	0.214	0.18669	0.17607	0.32766	0.039119	0.22271	0.19878	-2.6854	-2.6625	-3.0771	-3.2354	-2.7271	-2.8958	-3.2292	-2.9042	-2.8854	-2.7958	-2.7188	-3.2	-2.8354	-2.9042	-2.8937	-2.8396	163.205	257.821	491.658	500.232	322.103	251.115	498.734	412.184	265.886	295.637	390.753	425.486	464.517	490.197	208.573	445.147	0.00066606	0.0003404	0.00019159	1392.1	6.6726e-06	5.2046e-06	1396.8	392.04	5.6176e-06	5.2953e-06	438.86	147.45	129.44	44.581	6.1029e-06	54.967	0.00076838	0.00084136	0.00023632	1415.3	8.8264e-06	9.178e-06	1417.7	401.05	8.8499e-06	9.3073e-06	450.57	150.6	132.66	45.971	9.1678e-06	56.848	267.138	182.846	254.049	155.590	299.290	291.514	155.486	160.239	321.142	300.243	159.565	164.135	164.719	169.165	316.363	167.931	-8191	255	
41212.289	1	1	0	0	0.22492	0.062003	0.14818	0.25875	0.15209	0.14046	0.27951	0.097918	0.16702	0.22162	0.11163	0.14102	0.15621	0.19248	0.055171	0.09792	-2.5438	-2.7583	-2.7271	-3.2208	-2.7792	-3.0021	-3.0458	-2.7188	-3.0917	-2.8708	-2.9188	-3.1083	-2.8396	-2.8604	-2.9667	-2.8271	396.916	476.218	456.945	428.400	168.543	355.609	443.577	378.264	241.710	217.174	440.008	489.674	168.220	229.597	256.172	428.196	0.000674	0.00034545	0.00015288	1387.3	8.1328e-06	7.3407e-06	1390.5	392.91	6.5967e-06	4.538e-06	441.44	146.77	129.51	44.442	7.7743e-06	54.815	0.00078423	0.00083601	0.0002316	1413.7	8.9844e-06	9.1921e-06	1417	400.32	8.7937e-06	9.1366e-06	451.19	150.46	132.82	45.935	8.8896e-06	56.834	272.046	202.645	226.785	155.603	287.606	261.163	155.332	160.150	298.773	288.954	159.893	164.346	164.810	168.994	327.633	167.921	-8191	255	
41212.363	1	1	0	0	0.215	0.096247	0.097289	0.089907	0.01406	0.22567	0.16246	0.099198	0.027784	0.19846	0.10119	0.07424	0.11533	0.16526	0.34316	0.16875	-2.4083	-2.8646	-2.7271	-3.2562	-3.0792	-2.7625	-3.4083	-2.9542	-2.9292	-2.9667	-2.7979	-3.0542	-2.8542	-2.7021	-2.9062	-2.8417	314.200	463.286	339.599	445.017	329.664	411.529	490.884	146.293	275.535	410.713	403.388	392.830	160.764	409.553	442.725	157.883	0.00063359	0.00040429	0.00020516	1388.2	1.0453e-05	4.6355e-06	1394.8	391.7	7.1134e-06	4.124e-06	441.4	146.76	129.94	44.576	5.5386e-06	55.073	0.00078565	0.00083182	0.00022727	1414.6	9.0764e-06	9.1417e-06	1418.1	400.9	8.7975e-06	8.9975e-06	450.9	150.46	133.03	46.006	8.7463e-06	56.86	266.830	232.688	249.397	155.589	299.886	254.705	155.565	160.215	316.331	271.222	159.727	164.157	164.780	169.110	292.170	168.094	-8191	255	
41212.457	1	1	0	0	0.1698	0.047921	0.18537	0.36005	0.28335	0.040329	0.24452	0.16137	0.23519	0.10017	0.074898	0.11044	0.17891	0.27256	0.060893	0.059189	-2.5146	-2.7292	-2.6375	-3.3208	-2.9125	-2.7042	-3.1604	-2.8417	-3.0229	-3.1188	-2.6271	-3.1813	-3.1	-2.8521	-3.2333	-2.8937	186.666	299.461	490.074	484.937	492.218	418.850	407.584	402.065	382.681	482.128	250.920	434.702	461.953	469.895	178.734	346.274	0.00067341	0.00064569	6.2806e-05	1389.4	6.6943e-06	6.1576e-06	1392.2	392.88	6.0398e-06	3.5134e-06	439.42	146.53	129.56	44.438	7.5629e-06	54.893	0.00079192	0.00082696	0.00021832	1413.9	8.9933e-06	9.0362e-06	1417.3	401.05	8.8685e-06	9.1115e-06	449.96	150.7	132.76	45.914	8.7768e-06	56.81	271.219	220.742	262.511	155.689	298.169	330.851	155.438	160.175	297.996	255.188	159.620	164.060	164.644	168.986	333.949	168.320	-8191	255	
41212.555	1	1	0	0	0.26374	0.089009	0.096252	0.28763	0.16519	0.19344	0.23725	0.15396	0.30565	0.23434	0.31408	0.06304	0.19489	0.15422	0.19737	0.11648	-2.3458	-2.9188	-2.6813	-3.2104	-2.7646	-2.9188	-3.3063	-2.9146	-2.7542	-3	-2.7854	-3.1833	-2.8187	-2.7417	-3.0479	-2.9479	318.913	350.055	247.341	467.226	167.390	462.148	452.290	402.036	270.412	368.130	465.461	329.573	423.537	304.704	376.141	365.342	0.00068574	0.0003994	0.00014643	1390.8	8.1485e-06	5.1846e-06	1393.5	392.61	7.2613e-06	6.7764e-06	439.98	146.75	129.5	44.585	6.2667e-06	54.809	0.00078262	0.00080421	0.00021851	1415.5	8.9024e-06	8.9453e-06	1416.3	401.16	8.7935e-06	8.799e-06	450.79	150.64	132.82	45.984	8.4739e-06	56.794	265.889	253.265	209.655	155.661	295.160	326.448	155.637	160.196	320.574	333.313	159.511	164.155	164.399	169.162	295.005	168.188	-8191	255	
41212.676	1	1	0	0	0.19249	0.23312	0.080416	0.27714	0.39337	0.20692	0.059053	0.23006	0.16798	0.17593	0.18742	0.30182	0.25731	0.15542	0.2233	0.24151	-2.3104	-3.0542	-2.675	-3.1271	-2.8479	-2.7833	-3.2583	-2.9062	-2.775	-3.0292	-2.5667	-3.0646	-3.1083	-2.7	-3.0167	-2.8187	345.181	452.028	474.057	172.786	404.805	324.382	391.269	412.548	376.675	407.595	336.362	467.195	434.949	462.505	306.563	393.248	0.00065653	0.00060004	8.9307e-05	1387.9	5.1731e-06	4.8539e-06	1399.3	393.25	2.677e-06	3.5423e-06	439.53	147.64	129.72	44.345	3.9871e-06	55.159	0.00076726	0.00076914	0.00021522	1415.1	8.7111e-06	8.5655e-06	1417.8	401.26	8.6501e-06	8.579e-06	450.04	150.82	132.67	45.901	8.5249e-06	56.891	270.376	238.099	273.557	155.672	323.621	304.175	155.194	160.220	319.335	320.541	159.770	164.165	164.547	169.183	280.888	168.217	-8191	255	
41212.770	1	1	0	0	0.18212	0.22124	0.18154	0.47039	0.065085	0.13363	0.1162	0.3106	0.23953	0.22369	0.2803	0.11987	0.14772	0.31174	0.22317	0.3221	-2.3375	-2.8688	-2.6479	-3.0271	-2.9729	-2.875	-3.1729	-2.875	-2.6958	-3.0271	-2.8396	-3.1125	-3.0646	-2.9271	-3.0521	-2.8708	468.488	278.359	346.707	463.681	357.517	393.402	366.502	471.627	328.782	455.641	480.222	174.471	499.815	427.829	162.281	190.337	0.00064293	0.00049904	9.4561e-05	1384.5	6.5429e-06	6.1281e-06	1391.9	392.72	7.9179e-06	2.0478e-06	439.66	146.31	129.45	44.558	5.6236e-06	54.808	0.00077413	0.00077476	0.00021849	1413.7	8.6018e-06	8.4069e-06	1416.9	400.68	8.6161e-06	8.4126e-06	449.84	150.47	132.82	45.97	8.6103e-06	56.814	270.005	243.135	256.298	155.535	282.736	316.327	155.455	160.071	314.815	308.545	159.551	164.124	164.643	169.010	298.066	167.954	-8191	255	
41212.867	1	1	0	0	0.23983	0.081203	0.0087064	0.40781	0.1051	0.058767	0.12671	0.29407	0.20603	0.17041	0.19953	0.045947	0.33653	0.03573	0.19829	0.10265	-2.2521	-2.8812	-2.5042	-3.0687	-2.9437	-2.6646	-3.1188	-3.0333	-2.7333	-3.1063	-2.8438	-2.8063	-3.15	-2.875	-2.9437	-3.0104	212.830	273.485	381.796	456.811	292.488	400.424	441.913	154.570	349.713	436.816	485.936	213.341	482.577	165.714	317.964	190.291	0.00067969	0.00047916	0.00021849	1391.6	8.6666e-06	4.9573e-06	1395.1	392.65	3.3846e-06	1.7234e-06	440.61	147.51	129.7	44.547	7.0759e-06	55.156	0.00077138	0.00077198	0.00022097	1415.9	8.4027e-06	8.3412e-06	1418.7	400.83	8.4104e-06	8.4111e-06	450.64	150.61	132.8	45.964	8.6397e-06	56.96	268.081	240.831	240.761	155.765	302.331	281.310	155.428	160.231	286.641	292.750	159.557	164.130	164.797	169.153	315.006	167.927	-8191	255	
41212.988	1	1	0	0	0.10907	0.17614	0.18532	0.25541	0.22652	0.022118	0.26201	0.072452	0.17915	0.11486	0.18992	0.35218	0.13929	0.29626	0.021808	0.1334	-2.0604	-2.9354	-2.6437	-3.0479	-3.225	-2.675	-3.1792	-3.0521	-2.8458	-3.0667	-3.0062	-2.7125	-3.2021	-2.7188	-2.9792	-2.9229	478.252	143.910	442.505	490.130	339.282	148.952	427.357	186.512	460.096	253.060	490.253	422.133	164.360	190.610	377.675	142.734	0.00069188	0.00067379	0.00012575	1384.5	9.2242e-06	4.6732e-06	1393.8	392.25	6.7171e-06	6.8028e-06	439.41	147.09	129.26	44.229	8.4754e-06	55.133	0.00074401	0.00075676	0.00021991	1414.6	8.3865e-06	8.2246e-06	1416.6	400.7	8.2421e-06	8.5036e-06	450.27	150.6	132.74	45.861	8.7913e-06	56.911	270.761	197.219	224.118	155.617	277.675	270.189	155.375	159.992	282.652	303.371	159.719	164.155	164.963	169.186	291.100	168.049	-8191	255	
41213.059	1	1	0	0	0.16217	0.36068	0.019785	0.30974	0.14087	0.15693	0.37222	0.24174	0.14023	0.050549	0.13327	0.23738	0.019966	0.23187	0.060873	0.20304	-2.1479	-3.0125	-2.7562	-2.9271	-3.1104	-2.8417	-3.05	-2.9896	-2.6604	-2.9875	-2.9313	-2.8292	-3.0854	-2.8896	-2.975	-3.1479	434.218	142.997	190.557	484.671	349.940	263.620	436.854	372.766	312.236	161.881	454.217	478.962	474.468	291.405	155.778	448.135	0.0006568	0.00063484	0.00015814	1385.4	7.6757e-06	5.563e-06	1394.2	391.81	8.3346e-06	3.6512e-06	439.46	147.19	130.01	44.407	4.677e-06	54.972	0.00075009	0.00077651	0.00021686	1413.4	8.157e-06	8.5292e-06	1417.8	400.46	8.1489e-06	8.584e-06	450.02	150.7	132.75	45.975	8.7432e-06	56.919	271.434	243.769	256.821	155.622	315.052	287.476	155.579	160.094	297.806	295.848	159.418	164.223	164.483	169.253	328.142	168.009	-8191	255	
41213.156	1	1	0	0	0.16535	0.17237	0.17135	0.088585	0.26673	0.1106	0.21341	0.083836	0.20877	0.17497	0.25938	0.23617	0.20455	0.035461	0.14783	0.10368	-2.2792	-2.9208	-2.7938	-2.9333	-2.9688	-2.825	-3.1958	-3.1458	-2.7875	-3.0646	-2.9938	-2.7854	-3.1917	-2.8229	-2.8354	-3.1146	392.503	423.349	253.688	433.021	359.248	268.806	149.358	430.153	430.796	354.814	392.853	460.346	470.332	494.324	152.249	465.150	0.00065065	0.00078218	0.00019382	1386.9	4.9277e-06	6.2425e-06	1391.3	392.53	5.9412e-06	4.331e-06	440.19	147.41	129.6	44.459	5.948e-06	55.065	0.00074528	0.00078242	0.00022056	1415	7.9952e-06	8.5586e-06	1418.4	401.36	8.2644e-06	8.4922e-06	450.62	150.71	132.78	46.059	8.5979e-06	56.904	268.037	218.944	231.101	155.753	308.472	276.151	155.434	160.263	311.913	305.838	159.391	164.027	164.759	169.025	310.084	168.128	-8191	255	
41213.273	1	1	0	0	0.040219	0.17716	0.22602	0.34544	0.14242	0.18549	0.31301	0.29826	0.21597	0.1368	0.084584	0.16685	0.093997	0.027349	0.059474	0.17201	-2.3021	-2.8146	-2.9208	-2.8979	-3.0375	-2.8063	-2.8542	-3.1625	-2.7	-3.0917	-3.1646	-2.8417	-2.9583	-2.8937	-2.7417	-3.2604	161.516	169.632	367.215	478.421	314.612	385.995	458.467	372.518	345.945	441.249	224.460	434.586	441.513	214.393	403.515	488.884	0.00069996	0.00055004	0.00018016	1387.6	6.0568e-06	6.7399e-06	1396.4	392.73	5.1366e-06	4.691e-06	440.53	146.82	129.35	44.622	4.739e-06	54.971	0.00072647	0.00077351	0.00021392	1414.5	8.1971e-06	8.509e-06	1419.2	401.3	8.1862e-06	8.5362e-06	450.74	150.69	132.78	46.05	8.4005e-06	56.955	267.352	240.569	256.049	155.579	303.173	294.752	155.408	160.388	294.513	289.225	159.547	164.159	164.510	168.935	318.584	168.176	-8191	255	
41213.371	1	1	0	0	0.20274	0.1852	0.12456	0.13686	0.084324	0.22881	0.21428	0.17864	0.057314	0.19526	0.32597	0.25235	0.072941	0.14878	0.094021	0.12784	-2.2833	-2.6667	-2.8667	-2.8563	-3.1271	-2.9771	-2.8479	-3.3625	-2.9042	-2.9667	-3.0979	-2.7833	-3.0042	-3.0458	-2.6542	-2.9708	376.922	228.883	143.142	438.962	448.321	268.923	427.743	488.856	477.121	312.000	428.712	497.302	358.333	465.835	212.982	414.420	0.0006544	0.0005316	0.00026785	1380	6.0009e-06	7.2566e-06	1393.4	391.71	7.1805e-06	3.8881e-06	439.24	147.95	129.58	44.391	7.7731e-06	55.075	0.00074567	0.00077328	0.00020984	1412.3	8.1234e-06	8.3577e-06	1417	400.7	8.0525e-06	8.4355e-06	449.99	150.77	132.72	45.963	8.2581e-06	56.939	267.948	232.612	226.653	155.429	301.568	287.361	155.614	160.235	322.419	308.447	159.543	164.122	164.600	169.084	320.349	168.284	-8191	255	
41213.465	1	1	0	0	0.16834	0.23578	0.073212	0.22287	0.33936	0.087885	0.2015	0.24579	0.12172	0.11389	0.13447	0.16014	0.15118	0.12119	0.2999	0.13397	-2.3563	-2.6021	-2.9729	-2.8396	-2.8083	-3.0563	-2.8667	-3.2792	-2.7208	-2.7687	-2.9813	-2.9271	-2.9729	-3.2104	-2.5583	-3.1667	444.400	280.799	332.166	474.880	167.605	180.231	467.162	387.076	215.990	345.284	156.566	404.648	156.339	344.993	416.119	304.402	0.000638	0.00063484	0.000162	1384	7.7883e-06	8.9683e-06	1393.4	392.46	4.9968e-06	7.1273e-06	438.74	147.12	129.48	44.492	3.5036e-06	55.437	0.00074135	0.00075517	0.00020384	1411.7	8.3642e-06	8.4813e-06	1417	401.15	8.0919e-06	8.376e-06	449.62	150.62	132.75	45.973	8.1448e-06	56.993	268.691	223.854	231.890	155.570	298.513	310.195	155.549	160.236	290.952	295.101	159.601	164.138	164.586	169.044	321.970	168.029	-8191	255	
41213.586	1	1	0	0	0.12945	0.11567	0.1406	0.011349	0.1019	0.26478	0.2209	0.18584	0.10235	0.20465	0.27065	0.26585	0.17685	0.27673	0.29842	0.13628	-2.3646	-2.7812	-3.0646	-3.0208	-2.9396	-2.95	-2.7104	-3.2	-2.85	-2.7167	-3.1396	-2.8042	-2.9396	-2.8937	-2.6604	-3.1396	303.343	477.653	226.812	187.182	214.726	190.782	465.760	390.107	363.182	450.367	478.053	213.251	266.437	411.383	366.625	480.456	0.00065931	0.00072404	0.00012552	1383.5	5.6503e-06	5.2378e-06	1395.2	390.99	5.9728e-06	3.993e-06	439.6	146.95	129.93	44.343	4.7463e-06	55.276	0.00072613	0.00075181	0.00020156	1412.3	8.2128e-06	8.2112e-06	1416.7	400.45	8.29e-06	8.3021e-06	450.01	150.79	133.03	45.949	8.0012e-06	57.023	270.835	244.179	259.335	155.601	300.177	293.853	155.505	160.147	336.148	331.722	159.652	163.789	164.616	169.088	318.647	168.163	-8191	255	
41213.656	1	1	0	0	0.097299	0.055469	0.22716	0.073541	0.33438	0.13936	0.21076	0.11834	0.31982	0.15324	0.30821	0.27439	0.12927	0.23174	0.19366	0.27689	-2.4646	-2.8333	-3.0812	-2.8688	-2.8896	-3.0917	-3.125	-2.9896	-2.9062	-2.6396	-2.9479	-2.8812	-2.8729	-3.1667	-2.675	-2.9583	455.718	330.251	366.486	448.539	300.429	267.392	456.188	417.037	218.338	347.490	480.735	383.023	387.677	155.092	308.969	435.348	0.00068372	0.00047523	0.00012767	1387	8.0013e-06	5.4721e-06	1393.7	393.16	5.4219e-06	2.3235e-06	438.42	146.6	129.6	44.364	6.418e-06	55.172	0.00074068	0.00074648	0.0001984	1413.4	8.326e-06	8.0321e-06	1417.1	401.17	8.0861e-06	8.276e-06	450.75	150.4	132.82	45.936	8.0457e-06	57.035	266.654	242.773	250.533	155.671	300.591	290.213	155.553	160.171	300.675	347.550	159.588	163.979	164.612	169.083	287.144	168.178	-8191	255	
41213.754	1	1	0	0	0.090182	0.068312	0.28455	0.26913	0.27815	0.065371	0.38146	0.026463	0.2653	0.083295	0.18368	0.11237	0.03724	0.07258	0.21834	0.24255	-2.525	-2.6312	-3.0083	-2.9104	-2.8208	-3.2646	-3.1271	-3.2167	-3.0604	-2.6	-3.0187	-2.8708	-2.6479	-2.9313	-2.8979	-3.0062	473.705	338.712	441.322	392.991	219.010	251.231	446.667	490.099	430.601	261.879	484.272	392.900	502.102	175.959	342.957	488.351	0.00064634	0.00052354	0.00018318	1387.8	7.8722e-06	6.2042e-06	1392.2	392.46	5.7124e-06	4.8364e-06	441.02	147.05	129.47	44.6	6.323e-06	55.02	0.00072014	0.00074292	0.00020283	1412.1	8.2445e-06	8.0598e-06	1416.9	400.64	8.1738e-06	8.1225e-06	451.3	150.64	132.8	46.035	8.1709e-06	56.931	271.904	246.216	227.874	155.685	301.269	330.268	155.540	160.228	306.180	315.456	159.712	164.290	164.815	169.141	336.039	168.163	-8191	255	
41213.852	1	1	0	0	0.13512	0.1563	0.19566	0.40761	0.18546	0.4027	0.29072	0.17503	0.15714	0.13315	0.20424	0.078376	0.12967	0.060612	0.21811	0.29269	-2.4625	-2.7083	-3.0625	-3.0667	-2.8	-3.0812	-3.0229	-3.025	-3.025	-2.5563	-3.1	-3.0125	-2.7062	-2.9875	-2.8542	-2.8958	273.440	496.090	442.643	477.259	183.327	472.699	451.181	467.491	321.029	244.643	470.274	460.960	168.274	290.140	207.852	190.517	0.00070253	0.00033717	0.00022349	1388.3	4.9166e-06	2.3134e-06	1395	392.62	7.5117e-06	6.541e-06	441.19	146.93	129.43	44.5	3.6203e-06	55.027	0.00074831	0.00072782	0.00020913	1415.1	8.1403e-06	8.022e-06	1416	400.36	8.1657e-06	8.1205e-06	450.67	150.52	132.74	45.953	8.1895e-06	56.948	268.262	280.447	228.595	155.729	297.321	316.451	155.457	160.147	309.916	311.026	159.664	164.074	164.745	168.978	273.141	168.249	-8191	255	
41213.945	1	1	0	0	0.28227	0.16216	0.11932	0.1728	0.12256	0.26661	0.38417	0.33521	0.20801	0.21572	0.28351	0.17756	0.15097	0.14875	0.014606	0.053822	-2.5854	-2.7375	-3.0625	-3.1917	-2.7812	-3.0021	-3.2083	-2.9875	-3.0375	-2.7854	-2.9688	-3.1125	-2.7479	-3.0875	-2.7021	-2.5021	192.806	324.850	248.472	487.964	374.228	197.490	426.972	435.408	203.290	386.899	428.992	477.921	443.091	380.385	395.251	368.389	0.0006126	0.00019136	9.2157e-05	1383.9	9.0954e-06	6.3339e-06	1391.6	393.18	3.4746e-06	8.5619e-06	440.67	146.79	129.92	44.593	7.1917e-06	55.122	0.00072706	0.00075358	0.00020874	1413.3	8.1924e-06	8.0835e-06	1417.1	401.14	7.9829e-06	8.1038e-06	450.93	150.29	133.05	45.935	8.3884e-06	56.943	267.490	259.580	233.745	155.636	315.068	280.400	155.541	160.263	298.687	285.710	159.683	164.069	164.662	168.769	295.890	167.921	-8191	255	
41214.066	1	1	0	0	0.12998	0.1734	0.10328	0.098437	0.21509	0.055034	0.13514	0.22586	0.16597	0.16746	0.11932	0.18038	0.22768	0.242	0.23372	0.037506	-2.65	-2.75	-2.6479	-3.05	-2.6312	-2.9729	-3.1771	-2.9875	-3.025	-2.8833	-2.9104	-3.075	-2.8	-3.0958	-2.9813	-2.6312	321.461	440.641	263.724	471.096	172.737	341.234	424.411	411.553	232.526	335.193	409.834	500.936	465.071	252.058	181.705	172.953	0.00066452	0.00076943	0.00010538	1384.9	6.7074e-06	3.977e-06	1391.6	392.73	3.2312e-06	4.0905e-06	441.15	147.14	129.99	44.453	6.4452e-06	55.446	0.00072642	0.00074574	0.0002096	1413.5	7.9924e-06	7.897e-06	1415.5	400.83	7.8888e-06	8.167e-06	450.69	150.52	133.13	45.992	8.3529e-06	57.07	264.871	236.379	241.183	155.581	297.596	324.817	155.440	160.134	320.262	295.936	159.800	164.308	164.756	168.872	321.099	168.214	-8191	255	
41214.164	1	1	0	0	0.16864	0.22812	0.045341	0.27398	0.087457	0.077322	0.25138	0.18469	0.16949	0.027388	0.29527	0.023745	0.13409	0.44343	0.071847	0.26774	-2.6271	-2.8146	-2.7687	-3.1688	-2.7146	-3.0104	-3.075	-2.8979	-2.8167	-2.8208	-2.8312	-3.0229	-2.575	-3.05	-2.8875	-2.8	204.464	184.917	376.593	450.221	328.730	349.448	147.575	346.233	337.532	147.121	150.131	203.939	405.254	463.225	205.181	360.195	0.00069366	0.00049149	0.00011194	1393.5	7.31e-06	5.8555e-06	1398.3	392.74	5.201e-06	3.8202e-06	439.43	146.69	129.24	44.552	5.458e-06	55.092	0.00072022	0.00075496	0.00020942	1415.1	7.9626e-06	8.1976e-06	1418.3	400.58	7.8865e-06	8.277e-06	450.26	150.43	132.58	45.999	8.1158e-06	56.896	265.803	221.062	227.458	155.601	302.341	291.328	155.378	160.251	315.051	317.209	159.734	164.050	164.405	169.179	300.413	168.083	-8191	255	
41214.234	1	1	0	0	0.16841	0.11786	0.04072	0.3072	0.40119	0.097002	0.19673	0.24138	0.089781	0.14937	0.091322	0.12204	0.098466	0.074981	0.24762	0.14255	-2.5396	-2.6042	-2.6167	-3.1292	-2.8146	-2.8063	-3.1021	-2.6896	-3.0208	-2.9542	-2.9062	-3.1042	-2.6042	-2.75	-2.7667	-2.7729	254.903	338.461	244.489	475.830	180.319	269.713	433.828	198.388	467.745	402.378	433.391	296.234	193.753	219.720	396.451	202.911	0.00070242	0.00051722	0.00018619	1385.6	8.877e-06	5.7639e-06	1397	391.55	6.983e-06	7.1063e-06	439.85	146.98	130.13	44.626	5.1653e-06	55.143	0.000706	0.00074047	0.00020696	1412.9	7.9887e-06	8.3172e-06	1418	400.6	7.8418e-06	8.3292e-06	450.62	150.41	133.12	46.095	8.2083e-06	56.951	269.896	225.574	247.923	155.385	284.306	315.521	155.363	160.251	307.405	299.107	159.636	164.286	164.477	169.087	315.215	168.262	-8191	255	
41214.355	1	1	0	0	0.20892	0.27192	0.078995	0.33745	0.23947	0.1383	0.075721	0.31708	0.081881	0.11995	0.06298	0.12226	0.10201	0.31068	0.025299	0.13182	-2.5062	-2.7687	-2.8146	-3.1958	-2.7167	-2.875	-3.275	-2.8063	-2.9792	-2.9417	-2.9437	-3.0292	-2.7521	-2.8208	-3.1	-2.8021	254.421	178.612	220.516	461.467	438.202	266.493	157.535	478.441	331.334	411.276	463.125	278.850	454.308	362.793	418.367	338.332	0.00063881	0.00074637	0.00015881	1387	5.3609e-06	8.4732e-06	1388.6	394.44	6.0267e-06	3.9276e-06	441.38	147.44	129.36	44.616	4.7882e-06	55.393	0.00071494	0.00075517	0.00020888	1414.3	7.8966e-06	8.1213e-06	1416.6	400.78	7.8707e-06	8.1725e-06	450.76	150.66	132.86	46.034	7.9577e-06	57.03	272.592	201.352	225.567	155.592	281.538	267.931	155.553	160.258	303.484	287.766	159.686	164.015	164.645	169.031	313.341	167.909	-8191	255	
41214.453	1	1	0	0	0.14898	0.18435	0.17191	0.44888	0.17007	0.029143	0.45132	0.36875	0.25391	0.088586	0.12939	0.10598	0.30413	0.13677	0.19015	0.20747	-2.6104	-2.8542	-2.5792	-3.3146	-2.9417	-2.7458	-3.2417	-2.9271	-3.0125	-2.8375	-2.7938	-3.1021	-2.9271	-2.8583	-3.0771	-2.8542	430.111	154.667	144.603	428.218	436.126	263.095	419.593	474.312	388.421	145.249	341.883	147.550	489.442	445.949	173.030	452.099	0.00065651	0.00060862	0.0001652	1393.2	7.3539e-06	7.3585e-06	1392.1	392.82	5.4001e-06	6.4936e-06	441.76	146.56	129.46	44.565	7.5683e-06	55.157	0.00071722	0.00072836	0.00019745	1416.1	8.122e-06	8.1989e-06	1418.1	400.57	7.9223e-06	8.1929e-06	450.56	150.55	132.98	46.083	7.7211e-06	56.942	269.498	276.839	215.270	155.656	305.156	290.305	155.533	160.311	302.826	318.809	159.543	164.201	164.529	168.913	313.245	168.134	-8191	255	
41214.547	1	1	0	0	0.25856	0.066991	0.017551	0.19206	0.11345	0.068763	0.20381	0.21261	0.10286	0.098102	0.20389	0.15395	0.21012	0.019773	0.092489	0.24492	-2.4458	-2.9062	-2.6063	-3.0333	-2.8979	-2.8937	-3.2062	-3.1292	-3.0583	-2.9854	-2.8104	-3.0375	-2.9938	-2.6771	-3.0583	-2.7396	424.215	228.545	282.515	389.240	402.953	469.396	445.351	450.935	380.968	464.363	396.639	160.056	457.093	481.941	277.945	322.911	0.00065193	0.00053772	0.00015398	1386.8	9.2937e-06	2.4555e-06	1398.9	392.42	6.3662e-06	3.0566e-06	440.46	146.97	129.74	44.517	4.4117e-06	55.126	0.00070493	0.00073335	0.00019615	1414.7	7.9304e-06	7.8606e-06	1417.4	401.35	8.121e-06	8.0416e-06	450.37	150.63	132.9	46.026	7.825e-06	56.929	267.959	246.813	257.555	155.556	316.053	284.740	155.572	160.054	310.019	280.465	159.639	164.127	164.742	169.159	311.536	168.067	-8191	255	
41214.668	1	1	0	0	0.3472	0.083141	0.32052	0.10001	0.064475	0.15568	0.35605	0.24182	0.12304	0.057801	0.13337	0.10724	0.057847	0.30529	0.14135	0.16158	-2.4083	-2.9	-2.8688	-3.0771	-2.9188	-2.5271	-3.2583	-2.8042	-2.9292	-3.0438	-2.6688	-2.9229	-2.8042	-2.6771	-3.0333	-3.1729	239.073	202.528	184.244	245.214	402.840	494.676	450.017	144.987	348.993	318.581	205.982	325.479	481.522	206.524	342.585	392.034	0.00068766	0.00075257	0.00020354	1388.7	7.0965e-06	6.6997e-06	1391.9	392.98	5.5299e-06	2.292e-06	440.02	148.15	129.71	44.507	3.4282e-06	55.251	0.00071707	0.00071638	0.00019666	1413.8	7.9065e-06	7.8779e-06	1416.2	400.79	8.0346e-06	7.9468e-06	450.25	150.76	132.95	46.055	7.7051e-06	57.049	270.388	242.608	226.497	155.749	314.821	302.087	155.432	160.218	311.540	349.876	159.580	164.074	164.695	168.990	301.914	168.120	-8191	255	
41214.762	1	1	0	0	0.06083	0.27743	0.10972	0.014255	0.15995	0.12388	0.13347	0.27826	0.1003	0.19177	0.23154	0.15944	0.092616	0.131	0.137	0.42223	-2.3083	-3.0042	-2.6417	-3.1396	-3.0354	-2.7	-3.3229	-3.0083	-2.7146	-2.95	-2.8104	-3.0604	-3.0771	-2.6813	-2.8896	-3.0771	311.388	356.201	420.387	199.586	173.170	227.018	385.256	152.975	195.105	395.259	442.796	388.231	193.782	161.566	388.253	434.423	0.00063876	0.00053076	0.00016028	1387.5	7.0175e-06	3.9255e-06	1396.3	392.87	6.699e-06	4.6228e-06	441.5	146.8	129.73	44.522	3.1719e-06	55.08	0.0007134	0.00069271	0.00019421	1413.6	7.6199e-06	7.6741e-06	1418.4	400.86	7.6762e-06	7.642e-06	450.87	150.56	132.87	46.01	7.6609e-06	56.958	268.009	240.359	223.826	155.620	306.371	299.767	155.589	160.229	330.349	272.313	159.674	164.355	164.455	168.973	300.395	167.967	-8191	255	
41214.859	1	1	0	0	0.12565	0.088774	0.091531	0.23188	0.22779	0.34862	0.15707	0.19176	0.28164	0.28116	0.24852	0.16769	0.21558	0.11024	0.14159	0.068363	-2.3979	-2.8729	-2.6917	-2.8729	-3.1937	-2.7188	-3.0563	-3.1833	-2.65	-3.0938	-2.8312	-2.8083	-3.1146	-2.7042	-2.9458	-3.1354	286.849	238.566	493.235	492.398	250.907	491.285	499.903	427.857	246.963	385.549	171.944	425.324	416.826	231.878	162.433	426.966	0.00062855	0.00081768	0.00011003	1384.1	6.5302e-06	4.0086e-06	1395	391.91	5.8767e-06	4.1095e-06	440.56	147.2	130.42	44.614	3.8564e-06	55.252	0.00070543	0.00069472	0.00019135	1413.3	7.7208e-06	7.5291e-06	1417	400.81	7.7577e-06	7.5286e-06	450.96	150.5	133.08	46.017	7.7141e-06	57.055	268.335	249.579	190.444	155.540	326.096	308.912	155.564	159.995	310.540	339.938	159.624	164.238	164.414	169.011	297.180	168.222	-8191	255	
41214.953	1	1	0	0	0.1316	0.24906	0.19979	0.10912	0.14572	0.21023	0.2294	0.36566	0.2265	0.10919	0.083737	0.033554	0.27469	0.085315	0.15061	0.22716	-2.3833	-2.8958	-2.7938	-3.0333	-3.0729	-2.8542	-3.1625	-2.8667	-2.6	-2.8583	-2.7562	-2.9542	-3.0979	-2.8625	-2.9813	-3.0979	389.231	409.820	353.297	257.018	189.584	278.887	397.072	463.885	300.890	167.747	431.743	430.056	457.330	184.553	201.989	209.915	0.00067145	0.00055028	0.00012749	1387.8	8.1447e-06	3.9219e-06	1395.3	391.89	5.7299e-06	4.2121e-06	440.13	147.03	129.66	44.495	6.6914e-06	54.978	0.0006929	0.00068523	0.00019787	1415	7.5516e-06	7.5679e-06	1417.9	400.51	7.7102e-06	7.6788e-06	450.36	150.53	132.94	46.083	7.8139e-06	56.957	270.927	236.790	257.021	155.546	296.589	249.102	155.636	160.265	303.665	291.417	159.422	164.163	164.644	168.947	311.103	168.042	-8191	255	
41215.051	1	1	0	0	0.25121	0.12653	0.03652	0.15302	0.022528	0.38909	0.09447	0.08547	0.20833	0.050671	0.1989	0.16734	0.20052	0.35969	0.18919	0.18816	-2.3438	-2.9229	-2.9229	-3.0125	-3.0167	-2.6688	-3.0687	-3.0083	-2.6708	-2.9708	-3.0438	-2.7604	-3.1312	-2.9125	-2.8792	-3.2417	280.464	458.577	256.482	470.088	289.359	261.612	166.174	475.036	343.095	278.260	425.881	419.650	150.659	437.758	413.220	348.270	0.00070737	0.00060733	0.00016577	1383	5.6082e-06	7.8034e-06	1389.7	392.13	8.2671e-06	4.3782e-06	437.93	146.98	129.92	44.528	6.0186e-06	55.481	0.00069139	0.00068643	0.00019356	1410.6	7.3814e-06	7.598e-06	1415.1	400.44	7.3993e-06	7.3019e-06	449.61	150.55	132.94	45.977	7.7798e-06	57.029	270.374	241.235	236.702	155.528	289.445	293.436	155.278	160.286	317.023	270.848	159.651	164.336	164.549	168.958	301.135	168.075	-8191	255	
41215.148	1	1	0	0	0.34345	0.12156	0.19009	0.28356	0.27511	0.093591	0.24827	0.24954	0.10559	0.037291	0.26637	0.21644	0.22089	0.21168	0.1931	0.090474	-2.1583	-2.8625	-2.8312	-2.8937	-2.9333	-2.8688	-3.1417	-3.1667	-2.7042	-2.9979	-2.9708	-2.7375	-3.1771	-2.9354	-2.8	-2.9562	228.078	483.261	341.500	487.589	385.603	370.988	423.108	434.238	192.039	494.667	151.550	408.640	153.281	490.714	388.281	405.422	0.00071829	0.0006364	0.00016765	1389.9	5.5349e-06	4.7107e-06	1392	393.28	6.8607e-06	4.6281e-06	440.59	146.91	129.53	44.462	5.3301e-06	55.026	0.00067365	0.00070422	0.00019311	1412.7	7.3704e-06	7.6057e-06	1415	401.06	7.5037e-06	7.6353e-06	450.29	150.45	132.9	46.003	7.7863e-06	56.97	270.036	236.767	237.333	155.742	309.373	299.316	155.601	160.186	334.232	314.471	159.454	164.120	164.754	169.177	287.319	168.012	-8191	255	
41215.270	1	1	0	0	0.045434	0.12632	0.23474	0.059202	0.12602	0.14494	0.34509	0.31734	0.25786	0.065746	0.1994	0.086981	0.075912	0.18823	0.078445	0.10032	-2.3125	-2.8708	-2.7854	-2.9583	-3.0167	-2.8292	-3.0167	-3.2188	-2.6042	-2.85	-2.9229	-2.8063	-3.0563	-3.0958	-2.7396	-3.0729	441.948	241.589	204.643	395.086	235.063	285.403	387.183	447.414	441.704	197.902	477.998	224.206	480.423	458.987	383.271	464.987	0.00066329	0.00065008	0.00013089	1383.4	8.9363e-06	6.2619e-06	1391.2	391.51	3.9153e-06	4.2768e-06	440.87	147.13	129.76	44.57	6.5212e-06	55.209	0.00067948	0.00069297	0.00019404	1410	7.3563e-06	7.6407e-06	1413.3	400.16	7.3171e-06	7.6032e-06	450.35	150.24	132.82	46.039	7.7232e-06	56.996	268.812	233.903	225.513	155.679	289.420	292.072	155.588	160.200	274.078	287.983	159.535	164.131	164.643	168.877	305.918	168.061	-8191	255	
41215.363	1	1	0	0	0.24181	0.13022	0.19344	0.42669	0.29195	0.066191	0.32587	0.38232	0.060656	0.11536	0.1733	0.2369	0.17623	0.084482	0.091212	0.1921	-2.4437	-2.8521	-2.9	-2.9562	-2.8958	-2.8625	-2.7625	-3.3792	-2.7687	-2.7292	-3.0458	-2.7062	-3.1	-2.8521	-2.5438	-3.3396	482.083	207.535	399.210	479.603	340.867	309.518	439.207	435.151	211.528	202.442	468.498	433.587	173.029	469.161	388.736	415.848	0.00066203	0.00046466	0.00012528	1383.9	6.1769e-06	5.4487e-06	1390.5	392.37	4.9743e-06	5.1077e-06	440	147.26	129.73	44.564	4.2807e-06	55.494	0.00066358	0.00068894	0.00019197	1409.7	7.3326e-06	7.77e-06	1415.6	400.48	7.333e-06	7.6831e-06	449.77	150.34	132.86	46.02	7.3846e-06	56.994	267.562	243.227	252.758	155.737	305.876	277.779	155.426	160.179	294.633	321.735	159.708	164.233	164.668	168.902	287.241	167.783	-8191	255	
41215.461	1	1	0	0	0.098395	0.096713	0.13708	0.26733	0.28059	0.12032	0.35711	0.26783	0.079803	0.11034	0.094986	0.32315	0.28434	0.33314	0.19514	0.16029	-2.3021	-2.7083	-3.0187	-2.85	-2.9313	-2.9479	-2.9562	-3.3208	-2.7583	-2.9062	-3.2333	-2.8604	-2.9146	-3.1833	-2.5687	-3.1167	440.127	466.883	371.634	445.915	432.588	157.623	443.384	460.246	376.354	400.183	329.837	473.514	446.077	173.312	389.269	421.838	0.00065689	0.00036103	0.00017204	1388.5	7.1772e-06	5.598e-06	1388.5	393.6	6.7311e-06	6.8891e-06	440.12	146.78	129.45	44.51	5.3791e-06	55	0.00067144	0.00068646	0.00018803	1411.2	7.4164e-06	7.4609e-06	1412.4	399.72	7.1264e-06	7.5651e-06	449.29	150.22	132.71	45.945	7.2365e-06	56.914	271.033	232.953	243.869	155.676	283.748	305.071	155.644	160.139	304.795	297.663	159.765	164.163	164.418	168.949	305.572	168.102	-8191	255	
41215.531	1	1	0	0	0.29704	0.17077	0.29039	0.062549	0.28449	0.29191	0.37506	0.31579	0.24019	0.18713	0.048462	0.34832	0.064475	0.30851	0.12024	0.13312	-2.3083	-2.7375	-3.0583	-2.8688	-2.9271	-2.7021	-2.8312	-3.1979	-2.9813	-2.7042	-3.1375	-2.7979	-2.9688	-3.125	-2.6021	-3.0542	325.416	458.351	396.424	408.887	495.389	279.850	451.999	486.343	338.635	261.174	349.717	143.873	316.623	492.739	365.349	402.733	0.00068432	0.00060811	0.00010758	1383.4	7.3402e-06	4.29e-06	1380.6	391.56	8.1319e-06	7.0419e-06	438.9	146.65	129.47	44.675	8.8015e-06	55.219	0.00067672	0.00067448	0.00017755	1408.1	7.3218e-06	7.2009e-06	1410.7	399.9	7.4086e-06	7.4106e-06	449.5	150.02	132.7	46.03	6.9759e-06	56.897	269.385	227.931	250.717	155.677	314.130	284.357	155.549	160.069	315.750	298.484	159.558	164.139	164.753	168.735	301.159	168.046	-8191	255	
41215.629	1	1	0	0	0.1484	0.33346	0.42837	0.013639	0.035991	0.29563	0.21353	0.34362	0.068922	0.086961	0.15949	0.059686	0.11244	0.15933	0.14878	0.1371	-2.4208	-2.5938	-3.0625	-2.8979	-2.8021	-3	-3.1312	-3.1396	-2.8063	-2.6625	-3.1708	-3.0604	-3.0187	-3.0563	-2.7417	-2.95	335.130	231.596	416.949	349.226	315.197	229.737	477.115	479.161	216.927	501.554	310.514	313.841	144.060	454.191	340.442	429.201	0.00067777	0.00042962	0.00021047	1383.6	1.0042e-05	5.9299e-06	1394.9	392.64	7.5991e-06	4.1428e-06	437.92	146.7	129.31	44.61	6.1468e-06	55.444	0.00068275	0.00065972	0.00017653	1409.5	7.3896e-06	7.2074e-06	1413.4	399.54	7.2461e-06	7.3688e-06	448.75	150.09	132.6	46.032	6.9955e-06	57	270.141	252.973	233.647	155.603	295.420	311.844	155.399	160.282	316.047	272.898	159.388	164.026	164.587	169.161	307.624	168.237	-8191	255	
41215.746	1	1	0	0	0.13246	0.41567	0.10858	0.27713	0.056732	0.36208	0.1247	0.17122	0.25348	0.12669	0.22503	0.16116	0.10074	0.064337	0.17376	0.1436	-2.3667	-2.8	-3.1333	-2.9708	-2.6813	-3.1083	-2.7896	-2.9479	-2.9062	-2.6417	-3.1375	-3.0771	-2.7271	-3.2625	-2.7562	-2.9604	258.039	388.015	157.314	476.945	228.054	450.434	330.775	441.043	429.164	224.419	182.924	314.004	404.343	396.634	198.279	359.803	0.00066571	0.00062733	0.00018439	1377	7.1826e-06	7.4019e-06	1390	391.03	5.7665e-06	5.8531e-06	439.87	146.77	129.25	44.501	6.7582e-06	55.355	0.00065218	0.0006599	0.00017386	1406.2	7.1634e-06	7.0599e-06	1413.5	399.14	7.1159e-06	7.0558e-06	449.11	150.22	132.69	45.958	7.0627e-06	56.95	269.187	220.961	227.256	155.572	279.905	310.229	155.513	160.161	310.299	285.883	159.457	163.919	164.627	169.151	335.966	167.821	-8191	255	
41215.844	1	1	0	0	0.29292	0.18482	0.13424	0.17977	0.23011	0.23831	0.23643	0.2108	0.14949	0.24189	0.068795	0.15514	0.1887	0.089672	0.14686	0.03285	-2.4396	-2.7687	-2.8854	-3.0708	-2.5062	-3.1292	-2.9437	-2.9583	-3.0438	-2.8146	-3.0167	-2.9708	-2.7875	-3.1396	-2.9229	-3.0271	474.605	424.213	412.119	465.540	360.086	293.424	455.737	475.001	410.130	401.122	247.546	260.421	430.284	482.604	387.175	231.665	0.00068204	0.00060314	4.5143e-05	1380.5	1.0693e-05	2.4736e-06	1389.6	392.72	6.5086e-06	6.2362e-06	439.96	147.06	129.69	44.676	5.626e-06	55.159	0.00065645	0.00062561	0.00017685	1408.6	7.0796e-06	7.0344e-06	1412.1	400.05	6.9941e-06	6.9822e-06	448.81	150.11	132.79	45.993	7.0291e-06	56.994	268.617	239.246	221.053	155.570	311.399	334.493	155.455	160.218	304.917	302.774	159.617	163.977	164.654	168.786	289.822	168.104	-8191	255	
#DATA ENDS
