BOXY.EXE: ISS Imagent and Oximeter Data Acquisition Program Version 0.80
Ascii Record File

#ACQ INFORMATION
2  Detector Channels 
16  External MUX Channels 
1  Auxiliary Channels 
5000  Waveform (CCF) Frequency (Hz)
1  Waveforms Skipped 
30  Waveforms Averaged 
1  Cycles Averaged 
16  Acquisitions per Waveform 
10.0806  Updata Rate (Hz) 

#FILE INFORMATION
TRUE -- External MUX Channel results are PARSED.
FALSE -- AC DC and Phase are NOT grouped.
TRUE -- Companion Program Settings File CREATED.
FALSE -- AC data not excluded
FALSE -- DC data not excluded
FALSE -- Phase data not excluded
FALSE -- Auxillary Chn. data not excluded
Tab delimiters

#CALIBRATION STATE
TRUE -- Waveform Calibration Values APPLIED.


#AUX CALIBRATION VALUES
Val Type	aux-1	

Term	1.0000e+00	
Factor	0.0000e+00	


#WF CALIBRATION VALUES
A = Detector Channel
Val Type	A-AC1	A-AC2	A-AC3	A-AC4	A-AC5	A-AC6	A-AC7	A-AC8	A-AC9	A-AC10	A-AC11	A-AC12	A-AC13	A-AC14	A-AC15	A-AC16	A-DC1	A-DC2	A-DC3	A-DC4	A-DC5	A-DC6	A-DC7	A-DC8	A-DC9	A-DC10	A-DC11	A-DC12	A-DC13	A-DC14	A-DC15	A-DC16	A-Ph1	A-Ph2	A-Ph3	A-Ph4	A-Ph5	A-Ph6	A-Ph7	A-Ph8	A-Ph9	A-Ph10	A-Ph11	A-Ph12	A-Ph13	A-Ph14	A-Ph15	A-Ph16	

Term	0.00000e+00	0.00000e+00	0.00000e+00	0.00000e+00	0.00000e+00	0.00000e+00	0.00000e+00	0.00000e+00	0.00000e+00	0.00000e+00	0.00000e+00	0.00000e+00	0.00000e+00	0.00000e+00	0.00000e+00	0.00000e+00	0.00000e+00	0.00000e+00	0.00000e+00	0.00000e+00	0.00000e+00	0.00000e+00	0.00000e+00	0.00000e+00	0.00000e+00	0.00000e+00	0.00000e+00	0.00000e+00	0.00000e+00	0.00000e+00	0.00000e+00	0.00000e+00	0.00000e+00	0.00000e+00	0.00000e+00	0.00000e+00	0.00000e+00	0.00000e+00	0.00000e+00	0.00000e+00	0.00000e+00	0.00000e+00	0.00000e+00	0.00000e+00	0.00000e+00	0.00000e+00	0.00000e+00	0.00000e+00	
Factor	1.00000e+00	1.00000e+00	1.00000e+00	1.00000e+00	1.00000e+00	1.00000e+00	1.00000e+00	1.00000e+00	1.00000e+00	1.00000e+00	1.00000e+00	1.00000e+00	1.00000e+00	1.00000e+00	1.00000e+00	1.00000e+00	1.00000e+00	1.00000e+00	1.00000e+00	1.00000e+00	1.00000e+00	1.00000e+00	1.00000e+00	1.00000e+00	1.00000e+00	1.00000e+00	1.00000e+00	1.00000e+00	1.00000e+00	1.00000e+00	1.00000e+00	1.00000e+00	X	X	X	X	X	X	X	X	X	X	X	X	X	X	X	X	

B = Detector Channel
Val Type	B-AC1	B-AC2	B-AC3	B-AC4	B-AC5	B-AC6	B-AC7	B-AC8	B-AC9	B-AC10	B-AC11	B-AC12	B-AC13	B-AC14	B-AC15	B-AC16	B-DC1	B-DC2	B-DC3	B-DC4	B-DC5	B-DC6	B-DC7	B-DC8	B-DC9	B-DC10	B-DC11	B-DC12	B-DC13	B-DC14	B-DC15	B-DC16	B-Ph1	B-Ph2	B-Ph3	B-Ph4	B-Ph5	B-Ph6	B-Ph7	B-Ph8	B-Ph9	B-Ph10	B-Ph11	B-Ph12	B-Ph13	B-Ph14	B-Ph15	B-Ph16	

Term	0.00000e+00	0.00000e+00	0.00000e+00	0.00000e+00	0.00000e+00	0.00000e+00	0.00000e+00	0.00000e+00	0.00000e+00	0.00000e+00	0.00000e+00	0.00000e+00	0.00000e+00	0.00000e+00	0.00000e+00	0.00000e+00	0.00000e+00	0.00000e+00	0.00000e+00	0.00000e+00	0.00000e+00	0.00000e+00	0.00000e+00	0.00000e+00	0.00000e+00	0.00000e+00	0.00000e+00	0.00000e+00	0.00000e+00	0.00000e+00	0.00000e+00	0.00000e+00	-1.62352e+02	-1.41008e+02	-1.11495e+02	-1.83984e+02	-1.11418e+02	-7.45502e+01	-1.55811e+02	-1.62015e+02	-8.09347e+01	-4.80968e+01	-1.73154e+02	-1.73613e+02	-1.86815e+02	-1.78292e+02	-6.95269e+01	-1.50256e+02	
Factor	2.31503e-05	1.21955e-04	3.53977e-05	1.73479e-01	9.55770e-07	1.44040e-06	1.63553e-01	5.56841e-02	9.89360e-07	1.12439e-06	9.67085e-02	2.82450e-02	5.57543e-02	8.47876e-03	1.11573e-06	1.21845e-02	1.04864e-06	1.07952e-06	3.00291e-07	8.44363e-02	1.18273e-08	1.18528e-08	7.57509e-02	2.71375e-02	1.18471e-08	1.18386e-08	4.50717e-02	1.32853e-02	2.55029e-02	4.11310e-03	1.18525e-08	5.73167e-03	X	X	X	X	X	X	X	X	X	X	X	X	X	X	X	X	



#DISTANCE SETTINGS
A = Detector Channel
A-1	A-2	A-3	A-4	A-5	A-6	A-7	A-8	A-9	A-10	A-11	A-12	A-13	A-14	A-15	A-16	

2.5000e+00	3.0000e+00	2.5000e+00	3.0000e+00	2.0000e+00	3.0000e+00	1.5000e+00	3.0000e+00	3.0000e+00	3.0000e+00	3.0000e+00	3.0000e+00	3.0000e+00	3.0000e+00	1.5000e+00	3.0000e+00	

B = Detector Channel
B-1	B-2	B-3	B-4	B-5	B-6	B-7	B-8	B-9	B-10	B-11	B-12	B-13	B-14	B-15	B-16	

1.0000e+01	1.0000e+01	1.0000e+01	1.4400e+00	1.0000e+01	1.0000e+01	1.5100e+00	1.9400e+00	1.0000e+01	1.0000e+01	1.9900e+00	2.4900e+00	2.4100e+00	2.9000e+00	1.0000e+01	2.9800e+00	




#DATA BEGINS
time	group	step	mark	flag	A-AC1	A-AC2	A-AC3	A-AC4	A-AC5	A-AC6	A-AC7	A-AC8	A-AC9	A-AC10	A-AC11	A-AC12	A-AC13	A-AC14	A-AC15	A-AC16	A-DC1	A-DC2	A-DC3	A-DC4	A-DC5	A-DC6	A-DC7	A-DC8	A-DC9	A-DC10	A-DC11	A-DC12	A-DC13	A-DC14	A-DC15	A-DC16	A-Ph1	A-Ph2	A-Ph3	A-Ph4	A-Ph5	A-Ph6	A-Ph7	A-Ph8	A-Ph9	A-Ph10	A-Ph11	A-Ph12	A-Ph13	A-Ph14	A-Ph15	A-Ph16	B-AC1	B-AC2	B-AC3	B-AC4	B-AC5	B-AC6	B-AC7	B-AC8	B-AC9	B-AC10	B-AC11	B-AC12	B-AC13	B-AC14	B-AC15	B-AC16	B-DC1	B-DC2	B-DC3	B-DC4	B-DC5	B-DC6	B-DC7	B-DC8	B-DC9	B-DC10	B-DC11	B-DC12	B-DC13	B-DC14	B-DC15	B-DC16	B-Ph1	B-Ph2	B-Ph3	B-Ph4	B-Ph5	B-Ph6	B-Ph7	B-Ph8	B-Ph9	B-Ph10	B-Ph11	B-Ph12	B-Ph13	B-Ph14	B-Ph15	B-Ph16	aux-1	digaux	

5217.023	1	1	0	256	0.1203	0.06769	0.20028	0.11552	0.072401	0.03159	0.24765	0.27761	0.085363	0.10688	0.23644	0.19153	0.11593	0.255	0.087973	0.13201	-3.0187	-3.2771	-2.9333	-3.6688	-3.0729	-3.3875	-3.625	-3.0479	-3.3937	-3.2271	-2.9958	-3.5917	-3.1125	-3.2	-3.6083	-2.9042	532.972	287.548	266.396	482.029	431.231	318.985	518.945	467.861	298.217	309.650	396.013	476.094	266.313	454.179	330.869	463.358	0.000382	0.00012164	3.3478e-05	1226.1	1.4041e-06	3.8042e-07	1283.8	245.62	2.7833e-06	2.3117e-06	307.08	86.334	67.569	19.177	2.4455e-06	27.283	8.9679e-05	8.965e-05	2.3161e-05	1174.8	9.0767e-07	9.8719e-07	1237.7	237.15	9.3565e-07	9.8697e-07	291.14	83.081	62.25	18.686	8.998e-07	26.565	521.446	294.161	209.135	184.325	209.937	269.797	184.025	191.222	250.391	374.424	190.895	197.133	196.743	205.140	335.558	204.571	-8191	255	
5217.117	1	1	0	0	0.084445	0.11424	0.12895	0.29289	0.13984	0.2049	0.29061	0.16353	0.089121	0.052982	0.37511	0.21456	0.3067	0.20826	0.14608	0.22299	-3.2083	-3.3979	-2.8396	-3.6625	-3.3771	-3.2354	-3.7812	-2.9479	-3.2562	-3.5062	-3.075	-3.6125	-3.0542	-2.9938	-3.7771	-3.0563	487.917	239.997	357.787	385.137	215.842	261.711	467.587	526.404	313.820	489.098	271.092	479.156	226.550	515.157	297.200	250.109	0.00036321	0.00047162	0.00013333	1223.5	2.0059e-06	4.3855e-06	1280.9	247.18	2.1701e-06	6.9204e-07	305.6	86.083	67.579	19.165	4.5158e-06	27.278	9.253e-05	8.4092e-05	2.2128e-05	1171.9	9.7886e-07	9.3457e-07	1232	236.38	9.5307e-07	9.2965e-07	290.09	82.757	62.552	18.659	8.6982e-07	26.479	526.212	261.118	309.507	184.120	262.316	312.398	183.927	191.011	269.299	348.584	191.176	197.177	197.273	204.954	336.585	204.807	-8191	255	
5217.213	1	1	0	0	0.099488	0.36229	0.097975	0.15888	0.086059	0.17664	0.21277	0.17006	0.23564	0.040602	0.15059	0.22106	0.2346	0.12951	0.099302	0.15797	-2.8396	-3.425	-2.7854	-3.7167	-3.2229	-3.0687	-3.7896	-3.2958	-3.1583	-3.4	-3.1208	-3.4521	-3.1521	-2.9833	-3.5792	-3.1854	246.172	451.691	380.257	368.781	358.562	403.484	499.248	449.684	363.443	381.060	240.915	529.198	435.150	262.536	301.144	526.759	0.00035942	0.00022128	0.00012783	1226.2	4.1519e-06	2.5311e-06	1283.1	245.67	2.6756e-06	1.7775e-06	305.07	85.97	67.649	19.041	2.0939e-06	27.331	9.2945e-05	8.3769e-05	2.1757e-05	1173.7	9.9645e-07	9.2363e-07	1235	236.36	1.0081e-06	9.4149e-07	289.7	82.977	62.416	18.637	8.6037e-07	26.532	530.489	256.301	258.519	184.111	251.062	346.056	184.090	191.117	288.328	378.705	191.064	197.042	196.912	205.020	279.070	204.534	-8191	255	
5217.334	1	1	0	0	0.0504	0.12554	0.15896	0.060918	0.059043	0.16647	0.2684	0.089359	0.2102	0.092884	0.068022	0.34565	0.068855	0.11525	0.12125	0.2679	-2.7188	-3.5042	-2.9625	-3.6167	-3.2667	-3.0583	-3.7313	-3.0792	-3.1583	-3.5292	-2.9833	-3.3854	-3.5521	-2.7833	-3.7812	-3.2542	216.009	311.861	351.780	180.339	479.746	248.691	489.676	450.858	195.814	383.789	409.461	518.196	374.559	259.489	310.127	423.957	0.00039915	0.00023214	1.065e-05	1217.8	6.2309e-07	2.0134e-06	1280.4	245.22	3.7981e-06	2.1415e-06	304.78	85.967	67.353	19.202	4.2697e-06	27.162	9.8173e-05	8.1929e-05	2.1211e-05	1170.8	9.8906e-07	8.9753e-07	1233.6	235.65	9.8153e-07	8.9885e-07	289.09	82.979	62.352	18.62	8.2553e-07	26.512	530.705	250.418	174.465	184.102	306.805	228.241	183.982	190.999	299.097	401.646	191.054	196.828	197.135	204.831	336.480	204.467	-8191	255	
5217.430	1	1	0	0	0.18596	0.25866	0.30445	0.28037	0.2214	0.4153	0.31411	0.12565	0.22048	0.19237	0.31895	0.16162	0.11292	0.11028	0.17219	0.24616	-2.6771	-3.4354	-3.2208	-3.6583	-3.5875	-3.0187	-3.6792	-3.3063	-3.0583	-3.4833	-3.0521	-3.3354	-3.5333	-3.0083	-3.5521	-3.3729	198.779	440.105	351.984	512.356	237.363	383.537	447.175	532.614	235.996	476.308	436.898	487.965	408.847	439.699	205.439	528.010	0.00030053	0.00046759	8.466e-05	1219.3	2.3183e-06	2.1081e-06	1279.9	245.56	2.4191e-06	5.0766e-06	304.59	86.098	67.718	19.202	3.2442e-06	27.26	9.5455e-05	8.0701e-05	2.092e-05	1168	9.7358e-07	8.7484e-07	1229.6	235.63	9.4271e-07	8.6799e-07	289.18	82.861	62.325	18.644	8.5911e-07	26.585	525.828	260.157	335.208	184.085	270.594	373.382	184.219	191.204	312.921	354.283	191.061	197.007	196.401	205.006	327.069	204.703	-8191	255	
5217.502	1	1	0	0	0.072101	0.069405	0.21297	0.25542	0.25134	0.18561	0.2143	0.16092	0.15055	0.10148	0.14522	0.32568	0.13376	0.061072	0.15598	0.086709	-2.5229	-3.7438	-3.0896	-3.3104	-3.6021	-3.0812	-3.775	-3.3917	-2.825	-3.6542	-3.3021	-3.3167	-3.6271	-2.9583	-3.5417	-3.3417	444.724	477.592	391.563	513.216	473.850	406.230	487.585	492.518	427.577	260.080	508.291	482.534	268.610	372.976	240.812	261.516	0.00029931	0.00015014	6.8203e-05	1221	1.4648e-06	4.9355e-06	1277.8	245.87	2.6551e-06	1.8302e-06	305.12	86.261	67.529	18.996	3.3139e-06	27.357	9.0515e-05	7.7683e-05	2.1281e-05	1169.1	9.0883e-07	8.4674e-07	1228.5	235.93	9.029e-07	8.2935e-07	288.95	82.913	62.079	18.526	8.8422e-07	26.53	175.666	237.367	247.204	184.238	271.204	317.828	184.130	190.929	251.439	320.131	191.001	197.306	197.120	204.630	334.558	204.292	-8191	255	
5217.598	1	1	0	0	0.18784	0.085812	0.0095902	0.43496	0.14395	0.018612	0.25905	0.27528	0.12977	0.23607	0.085013	0.089582	0.19517	0.22173	0.28335	0.23107	-2.4771	-3.5958	-2.9104	-3.35	-3.4417	-2.9792	-3.8312	-3.3875	-2.9062	-3.6521	-3.2604	-3.3542	-3.5438	-3.0312	-3.4917	-3.5896	324.432	282.108	463.025	484.633	396.926	397.167	474.693	510.684	523.456	226.950	509.606	463.779	482.369	240.110	242.666	191.199	0.0003575	0.00034309	4.637e-05	1214.6	3.8053e-06	2.5938e-06	1273.6	244.9	3.3065e-06	1.3444e-06	300.46	85.528	67.14	19.053	2.9175e-06	27.347	8.6181e-05	7.273e-05	2.2096e-05	1164.8	8.8737e-07	8.0441e-07	1226.4	235.17	8.6558e-07	8.0505e-07	287.99	82.608	61.954	18.548	9.1035e-07	26.46	522.583	231.586	300.034	184.478	275.030	380.313	184.108	191.161	338.882	409.534	191.084	196.981	196.707	204.925	308.421	204.360	-8191	255	
5217.694	1	1	0	0	0.12161	0.24549	0.020207	0.22842	0.10663	0.21372	0.19986	0.25276	0.15801	0.073051	0.17336	0.064585	0.13297	0.16272	0.13898	0.035653	-2.4667	-3.3375	-3.2833	-3.225	-3.5271	-2.9375	-3.5917	-3.6458	-3.0667	-3.6813	-3.3917	-2.8937	-3.5667	-3.0438	-3.1396	-3.6792	284.363	437.617	296.162	483.761	203.349	438.644	467.844	507.516	390.374	337.263	333.763	442.687	175.480	527.957	372.418	460.032	0.00034605	0.00029545	4.4926e-05	1215.3	2.8547e-06	4.5507e-06	1270.2	244.08	5.8569e-07	1.5266e-06	301.63	85.498	67.613	19.204	1.0599e-06	27.07	8.4647e-05	7.2236e-05	2.2649e-05	1162.7	8.4639e-07	7.815e-07	1223.7	234.5	8.0765e-07	7.8887e-07	287.78	82.565	62.152	18.587	8.9753e-07	26.422	522.114	256.035	295.583	184.283	272.081	353.669	184.113	191.308	345.658	316.713	190.840	197.400	196.744	205.018	356.158	204.227	-8191	255	
5217.815	1	1	0	0	0.17772	0.32176	0.18127	0.25861	0.065128	0.20894	0.1371	0.26174	0.14036	0.048527	0.15903	0.047338	0.127	0.25764	0.098264	0.2418	-2.5021	-3.3937	-3.2062	-3.0708	-3.6063	-3.1521	-3.4604	-3.7708	-2.9917	-3.2521	-3.4042	-3.1979	-3.4313	-3.2104	-3.1708	-3.6042	511.293	491.864	415.284	517.555	371.910	276.841	484.813	311.418	479.453	441.119	515.963	346.832	219.771	522.556	451.464	428.599	0.00033	0.0002153	0.00011008	1205.6	2.4028e-06	2.5217e-06	1267.4	243.27	3.2702e-06	1.9135e-06	302.17	85.556	67.291	19.145	6.6184e-08	27.233	8.1244e-05	7.439e-05	2.2721e-05	1158.4	7.9529e-07	7.9789e-07	1222.2	234.13	7.9435e-07	8.3916e-07	287.47	82.295	61.821	18.602	8.719e-07	26.446	530.257	262.541	252.396	184.414	314.988	252.789	184.057	191.181	289.962	382.808	190.862	196.963	196.647	205.541	186.416	204.703	-8191	255	
5217.911	1	1	0	0	0.12616	0.10178	0.13809	0.16885	0.060046	0.2996	0.22335	0.092211	0.08369	0.075148	0.13325	0.14422	0.05184	0.37154	0.20081	0.26929	-2.525	-3.3229	-3.3021	-3.1875	-3.6292	-3.2125	-3.2667	-3.6312	-2.9729	-3.4688	-3.6917	-2.9583	-3.5312	-3.1312	-2.8646	-3.75	325.993	260.734	257.852	253.776	443.246	206.952	522.583	194.687	269.830	285.982	247.073	482.714	359.471	450.963	480.725	507.834	0.0003486	0.00038571	9.1008e-05	1208.5	1.399e-06	4.8046e-06	1260.8	243.17	3.7086e-06	3.3906e-06	300.71	85.21	66.702	18.966	1.3276e-06	27.093	7.8452e-05	7.7656e-05	2.2555e-05	1158.2	7.9469e-07	8.762e-07	1216.8	233.65	7.88e-07	8.6871e-07	287.06	82.264	61.666	18.524	8.6321e-07	26.374	523.532	276.105	275.429	184.393	273.282	264.152	183.920	191.414	316.316	324.688	190.957	196.828	196.445	204.939	326.480	204.719	-8191	255	
5218.007	1	1	0	0	0.15903	0.068852	0.086057	0.16951	0.057496	0.21174	0.32141	0.11164	0.16481	0.13739	0.17658	0.099539	0.29641	0.056098	0.16492	0.15898	-2.6354	-3.1958	-3.4375	-3.0646	-3.5625	-3.3312	-3.3625	-3.7021	-2.9833	-3.2708	-3.6208	-3.0375	-3.4333	-3.3979	-2.9646	-3.65	481.683	269.998	303.061	507.337	334.909	502.098	426.158	371.664	450.242	489.242	208.629	339.455	457.913	201.819	274.003	394.559	0.00032391	0.00039007	9.0876e-05	1206.5	3.4868e-06	2.0455e-06	1260.4	243.74	1.8884e-06	9.7097e-07	302.52	85.703	66.342	19.098	1.1138e-06	27.138	8.061e-05	8.0694e-05	2.0843e-05	1155.2	8.151e-07	8.796e-07	1216.3	233.66	8.0874e-07	8.6153e-07	287.18	82.356	61.638	18.589	8.1644e-07	26.392	526.559	252.459	271.867	184.590	255.741	255.717	183.998	191.104	324.640	332.047	191.103	196.847	196.790	204.935	289.389	204.584	-8191	255	
5218.103	1	1	0	0	0.23783	0.05602	0.05125	0.13694	0.11723	0.18492	0.25046	0.34637	0.1511	0.21545	0.1017	0.23867	0.040247	0.23657	0.26607	0.16618	-2.6479	-3.3104	-3.5542	-3.0563	-3.4021	-3.4625	-3.1917	-3.5479	-3.2125	-3.1479	-3.8125	-3.2062	-3.3667	-3.5438	-3.0458	-3.5917	286.828	422.007	275.590	463.104	433.567	476.745	409.258	432.239	494.380	275.683	314.040	509.722	195.679	487.125	524.966	500.009	0.00033566	0.00029102	4.1201e-05	1207.9	1.2448e-06	6.561e-07	1252.6	243.46	2.3051e-06	3.248e-06	301.84	85.292	67.601	19.126	1.8161e-06	27.275	8.2707e-05	7.6727e-05	1.9924e-05	1154.2	8.2306e-07	8.4217e-07	1213.4	233.86	8.4344e-07	8.5285e-07	286.93	82.173	61.9	18.569	7.7984e-07	26.38	527.971	280.848	286.442	184.448	214.921	342.621	184.147	191.150	273.185	328.389	190.937	197.158	197.105	204.917	276.987	204.539	-8191	255	
5218.197	1	1	0	0	0.18931	0.035217	0.17968	0.26325	0.095463	0.054699	0.14766	0.10795	0.041859	0.0058579	0.28771	0.022138	0.055944	0.10379	0.29959	0.22567	-2.9938	-3.0938	-3.7479	-3.2479	-3.3979	-3.4938	-3.2708	-3.5021	-3.2833	-3.1125	-3.7729	-3.0438	-3.3125	-3.5479	-2.9417	-3.5083	220.717	368.822	425.289	187.037	306.021	405.242	448.030	186.723	235.722	359.639	447.495	203.527	528.040	484.374	238.602	173.761	0.00032146	0.00031072	0.00010295	1202.8	1.4445e-06	4.8009e-06	1261.3	244.97	1.2913e-06	2.3341e-06	303.06	85.127	67.963	19.067	4.6075e-06	27.159	8.4577e-05	7.4557e-05	1.9256e-05	1153.3	8.4141e-07	7.9611e-07	1214.8	234.29	8.3848e-07	8.0397e-07	286.95	82.202	62.161	18.562	7.3246e-07	26.401	532.458	524.411	285.549	184.279	243.041	331.342	184.153	191.020	215.341	319.809	190.766	197.052	196.703	205.035	346.138	204.295	-8191	255	
5218.295	1	1	0	0	0.090975	0.15065	0.25483	0.30742	0.14798	0.15836	0.21619	0.087292	0.29907	0.15538	0.2592	0.25244	0.051828	0.28794	0.19686	0.097366	-2.9875	-3.0229	-3.6708	-3.3312	-3.3063	-3.5125	-3.1604	-3.4354	-3.3958	-2.9437	-3.8812	-3.2479	-3.175	-3.6667	-3.0875	-3.5604	424.394	190.196	429.167	194.048	375.490	217.332	450.536	306.574	282.576	532.105	424.581	489.925	423.121	490.445	415.877	240.496	0.00038644	0.00031516	0.00011555	1202	7.6907e-07	1.5153e-06	1260.1	242.83	3.2752e-06	2.6817e-06	301.6	85.736	67.233	19.222	3.8067e-06	27.166	8.3983e-05	7.1073e-05	1.7932e-05	1150.7	8.3358e-07	7.5265e-07	1213.4	233.67	8.2599e-07	7.4364e-07	286.26	82.405	61.751	18.588	7.0577e-07	26.464	523.135	249.529	285.695	184.257	246.736	497.055	184.284	191.020	310.658	354.645	190.998	197.173	196.602	204.976	340.247	204.596	-8191	255	
5218.414	1	1	0	0	0.22826	0.068555	0.12365	0.067116	0.20241	0.099134	0.26618	0.24966	0.036645	0.29069	0.049732	0.33239	0.20776	0.17588	0.2094	0.25821	-3.0687	-2.8646	-3.6146	-3.2146	-3.0542	-3.6958	-3.1333	-3.5563	-3.4125	-2.9708	-3.5896	-3.2438	-3.0792	-3.5583	-2.9646	-3.5125	179.699	529.060	464.672	504.556	263.279	183.832	483.413	520.469	381.982	459.044	226.751	196.530	262.584	176.094	388.913	483.095	0.00036378	2.9493e-05	4.9809e-05	1201.1	2.3997e-06	2.008e-06	1253.9	244.14	1.845e-06	1.868e-06	300.15	86.353	67.706	18.971	1.0509e-06	27.078	8.2583e-05	6.9386e-05	1.7509e-05	1150.9	8.166e-07	7.3947e-07	1211.7	233.72	7.8129e-07	7.2073e-07	285.85	82.543	61.834	18.506	6.8258e-07	26.406	526.658	233.402	272.501	184.250	283.710	366.864	184.114	191.045	315.322	305.014	191.050	197.244	196.808	205.014	232.713	204.160	-8191	255	
5218.510	1	1	0	0	0.27613	0.087379	0.15599	0.40856	0.21967	0.13716	0.23668	0.067183	0.073807	0.13319	0.068769	0.15673	0.1176	0.43708	0.049281	0.16764	-3.1813	-2.9771	-3.5604	-3.3271	-3.0646	-3.6333	-3.3042	-3.3708	-3.575	-2.8708	-3.4875	-3.4813	-2.9083	-3.6104	-3.0542	-3.2313	434.714	491.305	252.623	517.218	331.201	348.876	484.415	531.471	175.261	191.287	208.860	338.651	417.899	484.340	255.628	195.184	0.00037568	0.00035195	9.4614e-05	1199.9	1.2741e-06	3.2803e-06	1260.9	243.26	2.8102e-06	3.2282e-06	302.21	85.285	67.298	19.113	1.6421e-06	27.042	7.9856e-05	6.5201e-05	1.7217e-05	1151.2	7.9117e-07	6.7346e-07	1212.3	233.73	7.5066e-07	6.9584e-07	286.76	82.315	61.746	18.516	7.269e-07	26.35	526.306	222.800	291.453	184.277	204.276	271.582	184.292	191.096	269.168	346.287	191.079	197.132	197.233	204.987	291.275	204.512	-8191	255	
5218.606	1	1	0	0	0.13653	0.058671	0.0546	0.37654	0.10475	0.070063	0.19782	0.16515	0.11411	0.092309	0.15992	0.17845	0.16513	0.27226	0.076315	0.18061	-3.2479	-2.8438	-3.3083	-3.6375	-3.0062	-3.65	-3.4	-3.4042	-3.7188	-3.0875	-3.6729	-3.5021	-3.15	-3.4688	-3.2417	-3.1604	475.498	391.495	454.643	527.010	443.680	178.054	499.310	434.877	364.792	365.396	232.358	329.574	174.796	204.137	417.565	351.802	0.0003515	0.00019227	6.377e-05	1201.6	2.2569e-06	3.1923e-06	1257.6	243.14	2.5969e-06	3.0396e-06	301.18	84.995	66.811	19.193	6.8674e-07	26.998	7.6645e-05	6.3676e-05	1.8673e-05	1149	7.3371e-07	6.7519e-07	1209.8	233.67	7.477e-07	6.7729e-07	286.38	82.028	61.457	18.507	7.6533e-07	26.351	515.439	249.517	252.967	184.464	298.356	283.403	183.973	191.304	351.310	281.331	190.803	197.318	196.277	204.990	286.933	204.527	-8191	255	
5218.703	1	1	0	0	0.17414	0.23305	0.085698	0.389	0.31075	0.1362	0.23102	0.16105	0.1553	0.17278	0.083932	0.10666	0.040494	0.18396	0.24449	0.12518	-3.3479	-2.9417	-3.3937	-3.6063	-3.0208	-3.5479	-3.5438	-3.1937	-3.7667	-3.0542	-3.5208	-3.5917	-2.8729	-3.5375	-3.3812	-3.1562	441.175	358.924	376.693	455.345	443.390	344.987	421.914	293.029	360.498	179.086	340.856	208.564	263.261	346.008	358.813	473.611	0.00038673	0.00015504	4.9062e-05	1197	1.9108e-06	2.3301e-06	1255	242.68	3.097e-06	3.3028e-07	299.35	84.698	66.894	18.938	1.8522e-06	27.086	7.4141e-05	6.1449e-05	1.9139e-05	1146.7	7.3033e-07	6.6445e-07	1209.7	232.89	7.2726e-07	6.825e-07	285.61	81.916	61.323	18.503	7.8392e-07	26.316	521.380	240.993	269.455	184.267	298.812	273.916	184.003	191.172	310.300	435.708	190.992	197.133	196.256	205.156	319.740	204.904	-8191	255	
5218.799	1	1	0	0	0.14568	0.26354	0.11649	0.14714	0.1639	0.098249	0.34149	0.27525	0.10947	0.12007	0.17035	0.063508	0.17344	0.17249	0.034809	0.13993	-3.1208	-3.1271	-3.3187	-3.5917	-2.8937	-3.5583	-3.4792	-2.9521	-3.4479	-3.1271	-3.3187	-3.6833	-2.8729	-3.4688	-3.2646	-2.9938	352.552	389.470	489.044	506.994	344.425	319.275	439.686	498.207	477.807	212.847	239.544	497.087	378.691	448.884	497.336	402.855	0.00036897	0.000302	9.5335e-05	1196.4	3.3587e-06	3.3614e-07	1249.2	243.6	1.6711e-06	2.3187e-06	300.07	85.092	66.636	18.999	3.9061e-06	26.923	7.2911e-05	6.4263e-05	1.9514e-05	1145.2	7.3125e-07	6.9971e-07	1206.6	232.58	7.013e-07	7.2253e-07	285.45	81.846	61.181	18.451	7.9693e-07	26.207	526.773	234.113	286.896	184.381	261.429	250.145	184.048	190.963	262.607	373.229	191.363	197.100	196.773	205.110	285.150	204.629	-8191	255	
5218.895	1	1	0	0	0.23086	0.11109	0.096185	0.19195	0.065204	0.12168	0.13433	0.092791	0.086236	0.067165	0.19919	0.26289	0.098453	0.058365	0.02503	0.12817	-3.0563	-3.0938	-3.2146	-3.825	-3.0792	-3.4458	-3.6063	-3.0938	-3.6292	-3.1604	-3.1292	-3.6083	-2.9562	-3.4437	-3.5938	-2.9521	475.947	404.465	326.450	526.612	197.323	363.030	420.722	318.943	475.421	471.134	526.239	229.249	454.150	285.610	372.100	215.792	0.00033469	0.00036528	0.00012142	1194.3	1.9075e-06	4.2674e-06	1248.2	243.02	2.7983e-06	2.2499e-06	300.38	84.707	67.299	19.008	4.1964e-06	27.223	7.1961e-05	7.0576e-05	2.0242e-05	1142.4	7.0804e-07	7.9051e-07	1205	232.61	7.3514e-07	8.1144e-07	285.59	81.71	61.319	18.449	8.0903e-07	26.279	529.694	192.897	317.494	184.182	251.112	338.245	184.059	191.359	243.252	401.035	191.151	197.059	196.728	205.396	325.720	204.499	-8191	255	
5218.991	1	1	0	0	0.21357	0.059757	0.081821	0.2527	0.12606	0.18321	0.29475	0.1868	0.10638	0.10695	0.21293	0.28218	0.31647	0.153	0.11597	0.30781	-3.2042	-3.1688	-3.1021	-3.8083	-3.0292	-3.2771	-3.7396	-2.8271	-3.4042	-3.4062	-3.1917	-3.7604	-3.1354	-3.3354	-3.7333	-3.0104	446.410	222.409	328.079	509.616	307.978	198.793	479.856	239.493	218.816	411.861	175.783	390.949	313.239	458.765	469.895	330.155	0.00033123	0.00014943	8.092e-05	1196.5	1.7509e-06	2.0947e-06	1251	243.02	2.8057e-06	2.9275e-06	300.63	85.271	67.036	18.957	1.5271e-06	27.052	7.581e-05	7.3538e-05	2.0051e-05	1143.5	7.4891e-07	7.9895e-07	1206.3	232.55	7.168e-07	7.72e-07	285.44	81.786	61.402	18.478	7.0248e-07	26.266	524.104	272.223	258.755	184.370	195.002	351.096	184.130	191.088	241.564	313.597	191.134	196.992	197.134	205.026	273.302	204.718	-8191	255	
5219.110	1	1	0	0	0.045496	0.25436	0.30309	0.15685	0.17242	0.12101	0.28886	0.0358	0.10298	0.13652	0.15629	0.12313	0.10162	0.087649	0.31434	0.1099	-3.1708	-3.4062	-3.025	-3.5979	-3.0833	-3.2292	-3.8104	-3.125	-3.4	-3.3854	-3.0687	-3.7229	-3.2542	-3.3042	-3.6958	-3.0542	403.763	300.025	212.968	489.355	213.303	382.079	433.304	245.275	398.482	511.048	510.614	184.281	456.388	224.369	441.315	388.315	0.00033819	0.00014782	0.00011918	1194	3.1212e-06	1.2567e-06	1246.6	241.32	7.8057e-07	2.5974e-06	302.01	84.789	66.613	19.039	2.3754e-06	26.97	7.0661e-05	6.8433e-05	1.8243e-05	1140.9	7.2348e-07	7.5836e-07	1202	232.13	7.4321e-07	7.9672e-07	285.93	81.701	61.398	18.484	7.6412e-07	26.202	518.739	498.846	278.914	184.232	212.929	414.510	184.367	191.040	192.395	370.391	191.045	196.761	196.311	205.127	378.018	204.678	-8191	255	
5219.206	1	1	0	0	0.12769	0.14338	0.20169	0.34452	0.26799	0.12151	0.083783	0.18828	0.16767	0.040275	0.13222	0.25492	0.15633	0.1573	0.078797	0.13249	-3.1229	-3.4896	-2.8271	-3.6604	-3.3125	-3.2021	-3.7167	-3.1813	-3.3104	-3.5312	-3.2438	-3.7687	-3.2646	-3.2604	-3.6771	-3.0396	404.340	251.105	414.601	518.819	381.962	491.419	526.755	493.703	302.994	502.169	427.804	454.248	218.456	180.859	274.101	522.670	0.00038472	0.00026481	0.00010556	1196.6	1.886e-06	3.9365e-06	1254.1	242.32	2.4543e-06	2.146e-06	301.88	85.376	66.927	19.001	4.4458e-06	27.003	8.3664e-05	7.5674e-05	1.9829e-05	1143.9	8.6108e-07	8.3106e-07	1208.1	232.6	8.5795e-07	8.161e-07	286.26	82	61.818	18.508	7.6836e-07	26.252	521.028	314.161	287.534	184.613	269.875	274.195	184.087	191.173	292.914	433.252	191.325	197.148	197.120	204.885	344.337	204.771	-8191	255	
5219.302	1	1	0	0	0.10584	0.053139	0.097156	0.3371	0.15921	0.085982	0.34386	0.29118	0.37577	0.038186	0.24693	0.12112	0.1708	0.27455	0.036522	0.0577	-2.8521	-3.5375	-2.8667	-3.5771	-3.3187	-3.0646	-3.7083	-3.0333	-3.2958	-3.5479	-2.8521	-3.4354	-3.275	-2.9521	-3.5563	-3.3021	391.188	312.065	449.732	466.350	307.568	246.732	429.152	518.973	245.901	344.561	515.175	245.935	380.263	385.594	526.060	407.236	0.00037147	0.00011959	8.7274e-05	1196.5	4.0183e-06	3.9659e-06	1257.8	242.64	2.904e-06	3.4098e-06	301.78	85.633	67.335	19.101	2.8002e-06	27.113	8.7833e-05	7.3295e-05	1.9408e-05	1146	8.6472e-07	7.8809e-07	1212.8	233.5	8.4633e-07	7.7449e-07	286.49	82.392	61.773	18.477	7.4113e-07	26.371	524.950	173.483	305.058	184.429	249.765	345.451	183.932	190.997	269.433	328.095	191.243	197.347	196.458	204.874	299.663	204.524	-8191	255	
5219.376	1	1	0	0	0.11261	0.11596	0.1454	0.10109	0.17895	0.10049	0.15562	0.25919	0.26772	0.21084	0.19598	0.157	0.1921	0.14671	0.073603	0.11317	-2.8	-3.6	-2.8042	-3.4646	-3.4104	-2.8375	-3.7979	-3.225	-3.0521	-3.8229	-3.0187	-3.5312	-3.3708	-3.0167	-3.5042	-3.2896	332.142	435.776	383.532	521.194	341.590	386.274	443.833	417.222	465.446	337.119	423.738	439.613	454.533	178.364	344.277	175.021	0.00031669	0.00027709	4.0896e-05	1199.5	1.7652e-06	1.6922e-06	1254.6	242.63	3.6582e-06	2.6059e-06	303.5	85.239	66.833	19.005	1.8016e-06	27.092	8.6142e-05	7.2578e-05	1.8491e-05	1150.8	8.5292e-07	7.8046e-07	1212.3	233.83	8.5563e-07	7.7763e-07	287.57	82.477	61.75	18.54	7.1868e-07	26.404	527.453	242.769	331.503	184.280	282.668	219.277	184.015	191.313	289.151	301.677	191.187	197.265	196.625	204.946	289.607	204.234	-8191	255	
5219.495	1	1	0	0	0.33478	0.15435	0.19101	0.17334	0.1105	0.10275	0.34655	0.14747	0.11935	0.13385	0.33786	0.32684	0.089332	0.31289	0.17167	0.16125	-2.7146	-3.5521	-3.0479	-3.4688	-3.4979	-2.9896	-3.7708	-3.3708	-3.1021	-3.7292	-3.2375	-3.3625	-3.5083	-3.1667	-3.6271	-3.4792	528.351	197.938	481.880	217.288	410.940	177.277	429.047	353.278	433.869	316.700	435.073	487.801	470.763	516.629	383.003	401.266	0.00034911	0.00024706	0.00011076	1203.3	3.6953e-06	2.0448e-06	1260.4	244.07	3.811e-06	3.0509e-06	304.14	85.447	67.126	19.148	3.004e-06	27.202	8.1375e-05	6.8338e-05	1.7526e-05	1152.5	7.757e-07	7.1771e-07	1213.4	233.93	7.8433e-07	7.1925e-07	287.45	82.406	61.532	18.54	7.6283e-07	26.384	527.895	265.308	267.727	184.173	263.440	319.645	184.071	191.007	311.062	302.603	190.927	197.020	196.750	205.041	365.669	204.205	-8191	255	
5219.591	1	1	0	0	0.14137	0.061491	0.16078	0.32199	0.14962	0.099621	0.15245	0.17915	0.13746	0.063644	0.23188	0.1732	0.24677	0.22853	0.11798	0.21472	-2.6708	-3.5396	-3.0729	-3.2708	-3.5312	-2.9604	-3.5979	-3.4646	-2.9396	-3.6542	-3.1188	-3.2938	-3.7687	-2.8167	-3.5062	-3.6083	443.346	330.467	325.276	485.435	334.386	271.674	436.524	482.877	401.973	223.100	259.446	339.978	219.259	503.949	531.214	464.554	0.00037368	0.00052791	6.6813e-05	1202.2	1.818e-06	2.1662e-06	1255.5	243.38	3.5559e-06	1.8123e-06	302.27	84.935	67.005	18.961	2.5029e-06	27.187	8.0671e-05	6.6755e-05	1.9084e-05	1151.3	7.8139e-07	7.3712e-07	1212.2	234.2	7.9242e-07	7.1005e-07	287.24	82.117	61.578	18.482	7.9007e-07	26.468	527.353	266.341	277.158	184.350	298.452	303.579	184.014	191.137	302.814	325.951	191.172	197.080	196.539	205.233	319.284	204.659	-8191	255	
5219.687	1	1	0	0	0.13528	0.13917	0.10736	0.3892	0.066961	0.19662	0.16964	0.34762	0.25526	0.063889	0.21692	0.030813	0.10884	0.31321	0.31183	0.18674	-2.6208	-3.7	-3.0708	-3.2438	-3.4938	-3.2562	-3.7042	-3.6854	-2.9896	-3.5854	-3.325	-3.1625	-3.6854	-3.0708	-3.2979	-3.6104	412.341	302.913	301.761	518.155	316.752	314.556	443.892	530.645	463.918	477.668	458.648	458.692	326.929	406.459	473.715	489.388	0.00033726	0.00024862	1.263e-05	1202.7	3.9054e-06	2.4699e-06	1255.6	243.71	2.3366e-06	2.0497e-06	302.15	85.654	66.744	19.148	2.0831e-06	27.227	7.6536e-05	6.1321e-05	1.9894e-05	1150.5	7.5155e-07	6.7507e-07	1213.6	234.39	7.4903e-07	7.0164e-07	287.3	82.39	61.497	18.56	8.1103e-07	26.411	525.420	226.362	411.612	184.320	276.645	319.469	184.286	190.910	329.639	336.446	191.027	197.277	196.996	204.699	412.704	204.149	-8191	255	
5219.807	1	1	0	0	0.16848	0.13874	0.033737	0.1557	0.12362	0.16372	0.13801	0.24995	0.16716	0.28453	0.12332	0.20884	0.16536	0.12576	0.12557	0.084984	-2.4771	-3.4792	-3.3542	-3.0458	-3.7083	-3.175	-3.4562	-3.5479	-2.7667	-3.6833	-3.6042	-3.1604	-3.6437	-3.1479	-3.4271	-3.5667	318.207	254.016	498.429	455.796	194.404	185.847	429.393	214.168	391.794	244.800	520.811	221.912	345.791	291.302	236.244	189.645	0.00033982	0.00028883	9.8139e-06	1205.9	2.6377e-06	3.5521e-06	1259.2	245.57	2.987e-06	3.6183e-06	302.04	85.878	67.372	19.102	2.3679e-06	27.137	7.4591e-05	6.5795e-05	2.046e-05	1149.6	7.5973e-07	7.4972e-07	1212.5	235.14	7.5308e-07	7.5353e-07	287.66	82.423	61.891	18.586	8.2834e-07	26.339	527.042	251.660	296.624	184.572	310.884	314.151	183.916	190.921	340.476	359.137	190.825	196.988	196.417	205.173	317.776	204.236	-8191	255	
5219.904	1	1	0	0	0.22548	0.22072	0.2884	0.25258	0.11242	0.15	0.028204	0.36986	0.05223	0.045484	0.09129	0.21568	0.16253	0.22907	0.20899	0.12238	-2.4667	-3.5729	-3.3896	-3.1125	-3.6688	-3.4667	-3.1937	-3.7583	-2.9604	-3.4708	-3.5875	-3.0917	-3.5479	-3.2438	-3.0542	-3.5938	354.975	432.128	192.805	454.286	359.965	495.258	268.530	511.285	255.583	433.185	382.462	384.864	200.380	513.761	368.930	462.514	0.0003284	0.00022388	7.78e-05	1203.8	1.4252e-06	3.3982e-06	1258.5	245.45	7.3112e-07	2.5792e-06	303.28	85.684	67.802	19.174	2.3135e-06	27.398	7.368e-05	7.0275e-05	2.0658e-05	1151	7.1498e-07	7.4858e-07	1215.3	235.42	7.0594e-07	7.7198e-07	287.85	82.338	61.9	18.615	8.0856e-07	26.458	526.755	225.357	331.006	184.013	330.952	336.348	184.141	191.274	359.250	311.172	191.064	197.540	196.756	205.154	328.043	204.546	-8191	255	
5219.975	1	1	0	0	0.020715	0.17365	0.06686	0.15035	0.079863	0.044683	0.30632	0.061639	0.10577	0.084745	0.10818	0.22077	0.24136	0.13414	0.23226	0.30733	-2.4958	-3.3812	-3.3896	-3.0521	-3.6312	-3.3458	-3.3646	-3.7125	-3.025	-3.225	-3.5729	-3.1188	-3.5792	-3.3438	-3.0708	-3.625	438.649	251.872	270.311	496.415	217.601	467.352	429.697	309.719	230.432	180.285	455.524	237.845	489.042	367.736	210.066	396.754	0.00034178	0.000322	0.00010646	1201.5	2.2129e-06	3.5198e-06	1267.4	244.08	3.0978e-06	2.2365e-06	302.81	85.647	67.806	19.047	2.7635e-06	27.219	7.5116e-05	7.4055e-05	1.9996e-05	1150.3	7.4073e-07	8.1503e-07	1216.5	235.05	7.4422e-07	8.1257e-07	288.15	82.423	61.947	18.599	7.7088e-07	26.496	526.392	273.103	269.095	184.247	255.433	306.703	183.916	191.458	296.127	339.401	191.185	197.110	196.637	205.238	333.773	204.507	-8191	255	
5220.096	1	1	0	0	0.13155	0.13905	0.1226	0.21873	0.03524	0.161	0.25745	0.052212	0.30395	0.16173	0.081686	0.30792	0.10848	0.18463	0.19619	0.11871	-2.6729	-3.2604	-3.4625	-3.2125	-3.45	-3.3542	-3.1625	-3.4521	-3.2208	-3.4062	-3.6021	-3.0021	-3.5896	-3.4188	-2.9271	-3.7896	300.631	453.010	300.597	492.344	448.323	364.369	482.821	470.566	366.139	457.171	423.015	381.645	262.045	278.195	265.603	471.633	0.00032689	0.0002372	4.4111e-05	1205.1	1.1658e-06	2.7758e-06	1260.2	245.47	2.0924e-06	2.0289e-06	302.07	86.154	67.396	19.289	7.3178e-07	27.197	7.5802e-05	7.2701e-05	1.8544e-05	1152.3	7.5766e-07	7.8525e-07	1214.7	236.06	7.4787e-07	7.6729e-07	288.77	82.71	61.976	18.658	7.4202e-07	26.431	528.696	232.051	358.160	184.123	229.459	313.556	184.036	191.090	268.994	391.513	191.163	197.065	196.846	205.455	508.964	204.775	-8191	255	
5220.190	1	1	0	0	0.25459	0.18165	0.12969	0.19108	0.16872	0.15953	0.15329	0.18516	0.15473	0.10847	0.035125	0.12948	0.1475	0.10311	0.2883	0.14014	-2.7729	-3.15	-3.6854	-3.1021	-3.3438	-3.5667	-3.2083	-3.7375	-3.3021	-3.2396	-3.8063	-3.0854	-3.5146	-3.5792	-2.8729	-3.7146	254.103	275.342	342.465	497.700	383.319	350.870	212.594	424.466	271.110	402.705	500.906	509.523	332.165	476.902	283.183	320.240	0.00036164	0.00033642	0.0001369	1203.9	1.7648e-06	4.2758e-06	1262.5	246	3.1504e-06	3.6747e-06	304.83	85.442	67.777	19.188	1.0217e-06	27.495	7.9015e-05	7.1595e-05	1.8657e-05	1152.2	7.9472e-07	7.531e-07	1215.8	235.19	7.844e-07	7.6256e-07	288.21	82.511	62.184	18.625	7.0288e-07	26.524	523.010	277.202	297.808	184.302	280.814	318.293	183.967	191.263	302.213	358.776	191.257	197.036	197.235	205.046	441.787	204.671	-8191	255	
5220.286	1	1	0	0	0.045274	0.31871	0.083604	0.19062	0.08972	0.10433	0.11963	0.13787	0.019331	0.056627	0.10375	0.22583	0.21815	0.088807	0.072525	0.037626	-2.9688	-3.05	-3.525	-3.0979	-3.2375	-3.5208	-3.0208	-3.6479	-3.4896	-3.0604	-3.775	-3.1354	-3.3583	-3.5854	-3.1583	-3.7167	237.686	266.456	460.773	483.774	419.189	191.370	506.792	362.396	457.324	381.399	176.900	441.055	430.994	451.580	496.008	411.482	0.00035447	0.00011091	1.1249e-05	1201.3	2.4895e-06	3.9163e-06	1259.7	245.17	3.7321e-06	2.6626e-06	305.05	85.617	67.466	19.077	3.9629e-06	27.278	8.1062e-05	6.8057e-05	1.7827e-05	1151.3	8.2786e-07	7.4073e-07	1214.4	235.71	8.2922e-07	7.591e-07	288.94	82.489	62.024	18.626	7.0426e-07	26.457	526.139	330.678	306.121	184.170	236.002	347.955	184.163	191.298	294.257	331.525	190.941	197.259	197.019	205.087	357.715	204.597	-8191	255	
5220.407	1	1	0	0	0.14343	0.18047	0.061932	0.30185	0.19338	0.043203	0.18183	0.20247	0.08219	0.19337	0.17091	0.33165	0.029173	0.1869	0.13709	0.049236	-3.1729	-3.0646	-3.5333	-3.4104	-3.1937	-3.7333	-3.1583	-3.5521	-3.4313	-2.8104	-3.7521	-3.2083	-3.1958	-3.6625	-3.1708	-3.5812	298.762	231.239	494.676	477.414	231.176	452.693	229.335	332.854	468.904	348.753	522.422	531.387	321.294	221.911	343.184	249.953	0.00044106	0.00035555	5.8741e-05	1202.4	1.8853e-06	3.0231e-06	1256.7	246.34	2.5868e-06	2.3007e-06	304.83	85.577	67.866	19.21	2.4226e-06	27.295	8.3094e-05	6.6267e-05	1.7533e-05	1150.1	8.1645e-07	7.3075e-07	1212.1	236	8.0289e-07	7.2766e-07	289.21	82.735	62.164	18.627	7.0441e-07	26.52	531.866	210.921	341.927	184.095	252.442	313.162	184.157	191.308	245.796	379.830	190.831	196.911	196.513	204.845	300.524	204.346	-8191	255	
5220.503	1	1	0	0	0.2243	0.33094	0.23232	0.29536	0.21516	0.14378	0.48195	0.12947	0.19028	0.19456	0.097598	0.065293	0.14933	0.36387	0.19677	0.083592	-3.2562	-3.1708	-3.7458	-3.4062	-3.4042	-3.7167	-3.3104	-3.6083	-3.5708	-3.175	-3.8083	-3.5812	-3.2812	-3.6833	-3.2875	-3.3021	476.133	196.269	424.650	486.762	482.530	440.860	509.188	234.416	201.408	214.050	516.516	419.919	529.486	234.283	410.704	482.889	0.00036218	0.00035099	3.4083e-05	1204.9	2.5903e-06	4.1173e-06	1259.1	245.13	1.6165e-06	2.1961e-06	304.7	86.105	67.422	19.193	2.6645e-06	27.329	7.7477e-05	6.7349e-05	1.7209e-05	1151.1	7.8812e-07	7.0174e-07	1213.2	236.01	7.8655e-07	7.2292e-07	289.25	82.665	62.071	18.661	7.3634e-07	26.508	521.967	259.657	518.802	184.277	271.072	340.859	184.177	191.309	308.680	337.926	191.089	197.025	196.552	204.908	283.462	204.522	-8191	255	
5220.599	1	1	0	0	0.12652	0.075004	0.21966	0.098215	0.11208	0.17876	0.1761	0.17514	0.25219	0.082705	0.11812	0.094462	0.12735	0.23218	0.053864	0.25031	-3.3438	-3.2	-3.6688	-3.7271	-3.1875	-3.7417	-3.4792	-3.5583	-3.8396	-3.3396	-3.7396	-3.5687	-3.1125	-3.8729	-3.4313	-3.3083	461.490	336.833	421.443	526.525	360.767	434.132	363.695	475.441	385.411	394.706	530.322	289.306	357.988	473.833	421.635	521.315	0.00028151	0.00022742	0.00012828	1204.5	2.3638e-06	3.0609e-06	1262.1	245.15	8.8503e-07	2.964e-06	303.94	85.734	67.375	19.274	1.6516e-06	27.275	7.6892e-05	6.5471e-05	1.8679e-05	1150.9	7.7695e-07	6.9228e-07	1214.6	235.67	7.7097e-07	7.132e-07	289.37	82.552	61.759	18.638	7.69e-07	26.489	520.811	221.298	306.939	184.509	250.385	322.549	184.045	190.781	298.477	360.028	191.161	196.988	196.498	204.844	250.446	204.868	-8191	255	
5220.671	1	1	0	0	0.025816	0.26381	0.094212	0.16823	0.15793	0.14747	0.29881	0.11432	0.19014	0.03003	0.023277	0.072857	0.13874	0.086949	0.41302	0.16003	-3.1437	-3.0708	-3.5042	-3.6646	-3.0229	-3.7979	-3.7167	-3.4313	-3.7771	-3.1583	-3.625	-3.7417	-3.1167	-3.7646	-3.4208	-3.3542	390.202	304.624	398.842	498.780	415.740	513.099	455.138	343.510	457.503	426.623	175.703	528.720	418.601	221.639	524.945	425.066	0.0003297	0.00034609	0.00012333	1200.5	2.389e-06	2.5133e-06	1255.3	245.08	3.806e-06	2.4426e-06	303.72	85.846	67.436	19.147	1.8274e-06	27.26	7.6686e-05	6.3651e-05	1.9163e-05	1150.2	7.8164e-07	6.9141e-07	1214.2	235.72	7.4212e-07	6.9268e-07	288.6	82.584	61.897	18.591	7.9624e-07	26.442	527.120	307.988	251.564	184.263	258.518	282.201	184.013	191.046	276.580	370.774	190.757	196.897	196.836	205.163	262.325	204.282	-8191	255	
5220.792	1	1	0	0	0.062426	0.088511	0.19811	0.18998	0.045056	0.13603	0.30063	0.072739	0.28552	0.1226	0.25277	0.051929	0.082513	0.12889	0.20834	0.10592	-3.4104	-3.0604	-3.2354	-3.6396	-3.0187	-3.6729	-3.7208	-3.2667	-3.75	-3.0979	-3.3937	-3.7167	-3.0604	-3.5396	-3.5312	-3.1104	303.787	304.579	185.046	472.489	188.270	359.535	431.602	260.054	508.397	181.263	238.215	282.169	392.695	182.654	208.443	518.370	0.00037626	0.00017838	7.893e-05	1204.8	2.2236e-06	1.8355e-06	1257.8	244.91	2.7666e-06	2.2231e-06	303.39	85.687	68.058	19.133	2.831e-06	27.308	7.4709e-05	6.5066e-05	2.0562e-05	1151	7.345e-07	7.0235e-07	1212.9	235.38	7.3146e-07	7.1002e-07	288.78	82.708	62.234	18.58	7.9767e-07	26.458	530.342	288.999	280.627	184.504	275.617	303.544	184.025	190.977	291.370	357.189	191.384	196.940	196.550	205.035	338.966	204.503	-8191	255	
5220.888	1	1	0	0	0.18977	0.12451	0.11503	0.23961	0.089484	0.082557	0.23398	0.11528	0.20361	0.2377	0.16031	0.08174	0.1331	0.10395	0.22567	0.23132	-3.4229	-3.1979	-3.4167	-3.8271	-3.0563	-3.6833	-3.6667	-3.0042	-3.825	-3.3021	-3.2542	-3.7812	-3.2354	-3.5	-3.6937	-3.0438	456.873	192.826	366.400	220.519	331.835	251.287	439.900	463.114	503.762	453.833	474.381	424.900	337.007	488.407	480.788	402.891	0.00033461	0.00026575	5.2781e-05	1200.3	9.5932e-07	1.5065e-06	1254.4	245.79	2.0573e-06	1.6501e-06	302.8	86.127	68.062	19.069	2.2498e-06	27.321	7.3888e-05	6.4974e-05	1.979e-05	1148.9	7.1139e-07	7.5473e-07	1211.7	235.81	7.0974e-07	7.4561e-07	288.82	82.686	61.623	18.584	7.8582e-07	26.503	525.461	249.220	310.465	184.225	255.176	299.152	184.203	190.806	316.523	335.905	190.845	196.846	196.440	204.994	274.498	204.645	-8191	255	
5220.984	1	1	0	0	0.076186	0.12677	0.1946	0.11648	0.091093	0.17521	0.045469	0.19735	0.23853	0.16884	0.23018	0.19242	0.21078	0.14664	0.24565	0.19873	-3.35	-3.3146	-3.2854	-3.9271	-3.3771	-3.4771	-3.7958	-3.0917	-3.8083	-3.4854	-3.4	-3.6792	-3.2208	-3.3438	-3.7854	-3.1312	354.866	432.318	396.354	175.683	182.795	280.094	303.369	478.306	362.890	328.610	383.405	474.374	531.015	362.595	444.173	510.730	0.00035428	0.00026631	0.00011468	1195.2	2.5693e-06	1.8053e-06	1257.7	245.18	1.491e-06	1.4025e-06	304.28	85.562	67.791	19.24	2.0055e-06	27.02	7.1109e-05	7.1804e-05	1.9319e-05	1148.7	7.1351e-07	7.5453e-07	1213.3	235.83	7.2971e-07	7.8675e-07	288.77	82.478	61.918	18.658	7.5893e-07	26.428	521.167	224.215	284.204	184.197	247.872	328.080	183.890	191.176	325.983	201.542	190.877	196.956	196.671	205.370	326.156	204.769	-8191	255	
5221.080	1	1	0	0	0.10605	0.072698	0.053251	0.14886	0.21323	0.24166	0.2497	0.36535	0.25315	0.099997	0.19055	0.12598	0.072366	0.17737	0.25285	0.17607	-3.3	-3.4083	-3.0792	-4	-3.2875	-3.3	-3.8396	-3.1188	-3.6354	-3.7062	-3.2188	-3.95	-3.2896	-3.4333	-3.7354	-3.2313	453.979	338.926	379.891	474.003	531.326	395.354	439.182	448.221	310.280	433.675	400.280	418.465	463.495	208.463	432.340	518.805	0.000321	0.00042028	9.8012e-05	1201.2	1.3179e-06	2.2403e-06	1258.1	245.16	2.5456e-06	1.9528e-06	302.76	86.023	67.168	19.166	2.6984e-06	27.2	7.3774e-05	7.2004e-05	1.9264e-05	1149.9	7.5399e-07	7.9876e-07	1213.8	235.37	7.3509e-07	8.0503e-07	288.72	82.455	61.778	18.625	7.5614e-07	26.398	528.080	201.990	245.976	184.205	212.885	284.270	184.021	191.173	281.435	361.801	190.963	197.194	197.106	205.236	338.356	204.430	-8191	255	
5221.199	1	1	0	0	0.059128	0.11883	0.16382	0.19619	0.13	0.12354	0.20977	0.11675	0.049019	0.24362	0.29943	0.25984	0.072252	0.10705	0.20281	0.1124	-3.1437	-3.6479	-2.9896	-3.8833	-3.5021	-3.4437	-3.7438	-3.2	-3.475	-3.6312	-3.3104	-3.7062	-3.2875	-3.4479	-3.6792	-3.1292	459.864	418.708	523.748	497.543	355.641	205.055	481.810	198.447	504.325	468.895	209.431	337.611	459.180	484.678	268.116	427.847	0.00034001	0.0001443	9.1085e-05	1195.5	1.5477e-06	9.904e-07	1253.3	244.51	1.9512e-06	2.1778e-06	303.15	85.354	67.234	19.007	1.9363e-06	27.155	8.018e-05	7.2712e-05	1.9043e-05	1147.4	7.9896e-07	7.9226e-07	1209.3	234.48	8.1868e-07	8.1625e-07	287.14	82.195	61.646	18.529	7.594e-07	26.299	530.272	280.563	254.103	184.383	315.043	261.057	184.131	191.182	313.753	347.280	191.333	196.865	196.800	204.932	332.495	204.550	-8191	255	
5221.271	1	1	0	0	0.23425	0.13429	0.092177	0.17444	0.14285	0.055309	0.3517	0.16905	0.26455	0.17829	0.17472	0.058619	0.18563	0.25969	0.051558	0.11052	-3.125	-3.6688	-3.0687	-3.7625	-3.4208	-3.2396	-3.8167	-3.1771	-3.4042	-3.7375	-3.1854	-3.7854	-3.6458	-3.2042	-3.7271	-3.4417	214.758	195.090	511.695	479.220	464.469	258.043	523.762	486.896	314.788	404.275	483.831	340.092	421.523	188.391	393.786	486.817	0.00036669	0.00023695	4.9944e-05	1198.6	1.6859e-06	4.4782e-06	1254.9	243.58	1.8745e-06	2.5156e-06	301.28	85.093	67.794	18.907	1.9646e-06	27.081	8.3804e-05	7.3052e-05	1.9408e-05	1148.3	8.4856e-07	8.0816e-07	1211.3	234.29	8.5358e-07	8.0498e-07	287.16	82.087	62.015	18.507	7.5192e-07	26.391	527.132	251.128	335.279	184.517	295.448	339.484	184.140	190.933	295.609	338.875	190.794	196.995	196.171	205.248	303.892	204.470	-8191	255	
5221.369	1	1	0	0	0.17717	0.24559	0.097144	0.18851	0.20375	0.019377	0.41959	0.32075	0.104	0.20482	0.279	0.36247	0.18537	0.20289	0.21128	0.093034	-2.9896	-3.8187	-3.0938	-3.7	-3.6396	-3.2708	-4.0667	-3.3417	-3.3396	-3.7188	-3.1	-3.6104	-3.5187	-3.2479	-3.8917	-3.3792	328.619	367.192	327.142	524.871	364.954	328.554	455.321	216.280	416.915	499.220	236.838	503.147	466.287	196.885	459.307	526.246	0.00038471	0.00022878	0.00010851	1197.4	2.2009e-06	2.1152e-06	1256.2	243.73	2.1502e-06	1.8977e-06	303.51	85.698	66.999	19.088	5.7685e-07	27.147	8.5604e-05	7.0808e-05	1.8137e-05	1148.5	8.4368e-07	7.6088e-07	1212.7	234.37	8.25e-07	7.4778e-07	287.51	82.436	61.651	18.571	6.9979e-07	26.425	522.517	244.956	307.937	184.378	264.583	265.691	184.012	191.351	277.212	279.939	190.947	197.245	196.419	205.133	472.660	204.923	-8191	255	
5221.487	1	1	0	0	0.079793	0.23714	0.10559	0.2081	0.31955	0.0041131	0.22103	0.29552	0.10184	0.24682	0.18963	0.15473	0.27865	0.041564	0.082276	0.10128	-3.0354	-3.8271	-3.175	-3.7375	-3.6104	-3.2188	-3.8396	-3.3375	-3.2333	-3.8187	-3.4021	-3.6021	-3.6958	-3.0771	-3.7271	-3.5354	368.769	383.687	469.773	485.926	504.367	279.676	479.052	226.146	344.570	269.176	472.600	243.197	426.781	240.790	322.290	238.871	0.00033624	0.00015076	9.6355e-05	1198.7	3.6316e-06	8.1474e-07	1258.1	243.23	1.2457e-06	2.8837e-06	302.65	85.972	68.257	19.194	1.5371e-06	27.246	8.0306e-05	6.8221e-05	1.7949e-05	1150.3	8.2899e-07	7.51e-07	1212.8	234.22	8.3172e-07	7.4805e-07	287.4	82.521	62.037	18.576	7.3234e-07	26.485	531.568	196.275	319.794	184.210	313.173	285.884	184.147	191.143	301.100	320.728	190.822	197.085	196.749	204.852	274.059	204.211	-8191	255	
5221.584	1	1	0	0	0.12879	0.1822	0.17557	0.1115	0.25209	0.13134	0.078022	0.11828	0.1682	0.1172	0.096311	0.16688	0.11205	0.14192	0.057621	0.098674	-2.7021	-3.7687	-3.3167	-3.5646	-3.5292	-3.2083	-3.6958	-3.5479	-3.075	-3.7188	-3.2521	-3.4333	-3.7021	-3.0708	-3.5354	-3.5458	315.700	523.265	443.942	503.575	460.070	246.024	390.755	224.145	378.737	366.194	481.014	252.212	533.334	221.931	181.119	242.500	0.00034742	0.00064214	7.458e-05	1200.5	1.4247e-06	3.7177e-06	1258	243.67	2.302e-06	2.6428e-06	302.85	85.275	66.592	19.075	3.8849e-06	27.175	8.1032e-05	6.7468e-05	1.8479e-05	1148.4	7.8348e-07	7.1371e-07	1213.2	234.22	7.789e-07	6.8457e-07	287.5	82.36	61.521	18.557	7.2552e-07	26.448	528.619	263.363	275.175	184.239	237.980	383.906	184.181	191.333	329.053	319.317	191.033	196.811	196.664	205.517	292.820	204.827	-8191	255	
5221.680	1	1	0	0	0.27111	0.28797	0.081629	0.33667	0.074869	0.17743	0.040337	0.16096	0.066448	0.1868	0.21601	0.30837	0.34368	0.23606	0.12431	0.19237	-2.7042	-3.8167	-3.4604	-3.3958	-3.8458	-3.2396	-3.7854	-3.6437	-3.1667	-3.6729	-3.3521	-3.3021	-3.7687	-3.1917	-3.5875	-3.4271	449.114	503.655	405.581	507.352	490.476	479.947	457.719	435.531	419.830	255.536	459.093	280.508	180.315	196.216	181.310	496.041	0.00032949	0.00023592	9.1878e-05	1195.5	3.0116e-06	3.278e-06	1259.7	245.54	4.1313e-06	8.0246e-07	301.83	85.394	67.11	19.137	2.031e-06	27.092	7.6512e-05	6.0703e-05	1.8198e-05	1146.6	7.3282e-07	6.6368e-07	1212.3	234.91	7.5488e-07	6.7036e-07	287.57	82.117	61.653	18.547	7.9155e-07	26.355	524.300	287.421	249.719	184.625	300.691	269.891	184.254	191.249	285.127	462.299	190.971	196.655	197.326	204.908	368.196	204.426	-8191	255	
5221.776	1	1	0	0	0.31899	0.090714	0.18339	0.22173	0.28524	0.052832	0.069211	0.16406	0.16173	0.10486	0.35454	0.21061	0.2241	0.11894	0.15267	0.13051	-2.7146	-3.5125	-3.3917	-3.2896	-3.5771	-3.2812	-3.5167	-3.6229	-3.1875	-3.8063	-3.5875	-3.1917	-3.9313	-3.3083	-3.3396	-3.5729	340.555	325.264	364.685	510.668	359.433	245.524	475.316	531.924	277.999	192.357	405.279	174.828	452.820	497.428	264.294	325.284	0.00033641	0.00011343	0.00010385	1201.4	2.5746e-06	4.5485e-06	1254.1	242.98	3.6478e-06	1.7987e-06	303.63	85.399	66.861	19.075	2.9402e-06	27.154	7.5588e-05	6.3312e-05	2.0267e-05	1146.8	7.6099e-07	7.0934e-07	1209.1	234.16	7.3941e-07	7.1717e-07	287.52	82.235	61.357	18.548	7.9864e-07	26.346	527.230	288.497	286.478	184.172	276.462	293.653	184.150	191.115	327.939	304.224	190.976	197.142	197.319	205.003	344.863	204.149	-8191	255	
5221.872	1	1	0	0	0.11469	0.28791	0.053938	0.045261	0.059027	0.098472	0.2337	0.30199	0.13287	0.23968	0.17847	0.058864	0.10655	0.01191	0.10753	0.089875	-2.6792	-3.4708	-3.5958	-3.2938	-3.7042	-3.3125	-3.4062	-3.8396	-3.2062	-3.5687	-3.5563	-3.2188	-3.8125	-3.2917	-3.2354	-3.9021	224.278	516.200	441.916	290.127	177.566	459.994	448.621	520.478	189.014	297.902	391.150	487.209	201.215	274.687	425.120	440.362	0.00036739	0.0001481	8.7371e-05	1195.4	2.347e-06	3.3431e-06	1254.6	243.57	1.8983e-06	3.0872e-06	300.21	84.709	66.871	19.028	3.3893e-06	27.002	7.6005e-05	6.6901e-05	2.0363e-05	1145.1	7.3472e-07	7.1828e-07	1207.5	234.01	6.99e-07	7.316e-07	286.4	82.072	61.395	18.524	8.0335e-07	26.226	531.502	232.689	282.203	184.389	291.167	301.333	184.205	191.292	294.233	365.865	191.162	196.833	197.024	205.303	317.996	204.311	-8191	255	
5221.968	1	1	0	0	0.36546	0.16725	0.090951	0.035604	0.14817	0.12044	0.13837	0.35693	0.07522	0.19485	0.29213	0.13828	0.060625	0.13024	0.11832	0.21012	-2.775	-3.5729	-3.625	-3.1625	-3.6479	-3.4813	-3.4917	-3.8438	-3.3125	-3.4833	-3.8271	-2.9979	-3.7354	-3.3958	-3.3729	-3.9333	189.086	210.026	259.001	403.454	457.328	453.217	435.606	497.093	330.356	415.502	460.872	466.473	514.780	431.712	500.281	180.461	0.00035396	0.00020947	0.0001666	1193.4	3.8103e-06	1.7553e-06	1250.2	242.01	2.0052e-06	3.2282e-06	301.59	84.886	66.864	19.045	3.3412e-06	27.014	7.3464e-05	7.043e-05	2.0708e-05	1141.6	7.4031e-07	8.0844e-07	1205.2	232.93	7.5898e-07	8.1874e-07	285.93	81.763	61.293	18.494	8.3264e-07	26.303	525.828	249.173	251.037	184.315	251.395	323.474	183.969	191.096	276.722	342.316	190.842	196.779	197.254	204.950	322.586	204.171	-8191	255	
5222.089	1	1	0	0	0.058603	0.24488	0.33536	0.19303	0.11129	0.16246	0.35839	0.011761	0.13632	0.11789	0.18954	0.099452	0.048839	0.18595	0.069439	0.29458	-2.8667	-3.3354	-3.5604	-3.2667	-3.6917	-3.5062	-3.3042	-3.9417	-3.2229	-3.5375	-3.8042	-3.0604	-3.4833	-3.4958	-3.1979	-3.8708	460.788	308.437	505.507	213.190	512.915	186.799	196.608	360.744	387.467	325.497	476.508	480.779	184.011	366.744	301.616	520.777	0.0003374	0.00018665	9.253e-05	1188.2	2.8322e-06	3.9661e-06	1254.9	242.32	2.2361e-06	9.2529e-07	301.3	84.779	66.92	18.983	2.2644e-06	26.926	7.6577e-05	7.6486e-05	1.9961e-05	1142.2	7.8868e-07	8.4209e-07	1209.4	232.73	8.0338e-07	8.4397e-07	286.65	81.998	61.441	18.526	8.2187e-07	26.279	524.834	298.955	227.391	184.299	237.350	312.512	184.086	191.516	310.456	408.437	190.925	197.273	197.079	205.125	255.134	204.732	-8191	255	
5222.185	1	1	0	0	0.14611	0.12094	0.13755	0.24412	0.077423	0.14874	0.069955	0.17299	0.032876	0.1022	0.25098	0.19509	0.12225	0.3643	0.032784	0.093942	-2.7375	-3.2854	-3.7521	-3.2542	-3.6333	-3.6875	-3.2667	-3.7771	-3.4208	-3.3146	-3.6604	-3.1437	-3.5521	-3.7229	-3.1021	-3.7667	421.073	319.912	357.629	476.325	316.767	356.940	411.570	444.503	331.479	408.200	482.354	456.250	480.952	524.219	315.323	464.969	0.0003478	0.00041696	5.7023e-05	1199.4	6.7575e-07	3.5924e-06	1249.8	242.68	2.2571e-06	2.1096e-06	303.73	85.28	67.284	19.124	4.7684e-06	26.961	8.42e-05	8.0096e-05	2.0886e-05	1147.3	8.7187e-07	8.8768e-07	1210.5	233.54	8.9949e-07	8.7559e-07	287.39	82.015	61.952	18.57	8.461e-07	26.284	527.494	234.496	325.822	184.247	230.339	296.711	184.050	191.105	263.977	311.444	191.019	197.122	197.005	205.132	334.073	204.527	-8191	255	
5222.279	1	1	0	0	0.2299	0.279	0.095255	0.053749	0.087319	0.20304	0.28191	0.22496	0.12488	0.25584	0.15534	0.063353	0.28028	0.077761	0.19948	0.12496	-3.0812	-3.1729	-3.7313	-3.4292	-3.4417	-3.5854	-3.2167	-3.7729	-3.5292	-3.3063	-3.8042	-3.3208	-3.5438	-3.5896	-2.9313	-3.7917	504.725	432.025	311.527	505.781	357.778	179.119	458.109	477.212	230.958	368.107	300.174	191.014	455.991	506.216	233.867	273.210	0.00032776	4.1128e-05	7.2291e-05	1197.3	2.8561e-06	1.5577e-06	1254.9	243.95	2.6001e-06	1.6078e-06	301.07	85.523	66.956	19.162	2.7339e-06	27.016	8.8835e-05	8.1652e-05	2.0609e-05	1146.8	9.4039e-07	8.7202e-07	1211.4	233.49	9.3232e-07	8.986e-07	286.38	82.271	61.816	18.583	8.2688e-07	26.349	518.136	340.110	304.191	184.131	265.219	321.304	184.231	191.268	261.710	317.427	191.085	197.339	196.689	205.146	310.476	204.297	-8191	255	
5222.376	1	1	0	0	0.23025	0.18286	0.19846	0.29172	0.20602	0.16269	0.22143	0.17685	0.049339	0.10016	0.11444	0.17006	0.099216	0.23167	0.06662	0.23317	-3.0729	-3.2292	-3.7729	-3.275	-3.4417	-3.7812	-3.3042	-3.6375	-3.5292	-3.0771	-3.8292	-3.3187	-3.3167	-3.7958	-3.1688	-3.6333	190.424	352.823	215.572	476.387	222.092	486.334	423.992	173.044	456.144	285.351	364.223	486.074	476.814	511.403	351.557	328.990	0.00031184	0.00042715	8.9162e-05	1206.7	2.4702e-06	5.2276e-06	1258	243.05	3.1598e-06	1.4997e-06	301.99	84.896	66.736	18.985	2.0152e-06	27.171	9.4461e-05	8.1137e-05	2.1217e-05	1151.6	9.81e-07	9.0575e-07	1213.3	234.01	9.917e-07	9.1994e-07	286.94	82.212	61.853	18.472	8.5382e-07	26.381	528.461	213.407	242.629	184.299	295.300	264.857	184.212	190.947	359.425	355.660	190.901	196.802	197.207	204.728	362.582	204.338	-8191	255	
5222.496	1	1	0	0	0.23616	0.089743	0.24275	0.076259	0.17352	0.12395	0.31083	0.15592	0.22071	0.18334	0.095334	0.22394	0.056913	0.063927	0.21883	0.27837	-2.9521	-2.9604	-3.7667	-3.3375	-3.3063	-3.8833	-3.4	-3.6604	-3.5083	-3.1562	-3.9354	-3.4688	-3.1083	-3.7271	-3.175	-3.375	498.367	396.397	417.960	406.626	240.215	493.348	506.198	488.800	320.626	264.891	494.864	459.213	503.610	267.187	219.587	473.556	0.00030409	0.00016558	7.8576e-05	1205.9	1.748e-06	4.1317e-06	1260.5	243.13	1.6234e-06	5.5389e-06	301.55	85.218	67.477	18.989	2.288e-06	27.257	9.7423e-05	8.5181e-05	2.1821e-05	1154.9	1e-06	9.0867e-07	1215.7	234.4	9.8874e-07	8.97e-07	287.29	82.216	61.827	18.522	8.6219e-07	26.452	525.012	263.424	205.751	184.153	262.798	303.047	183.914	191.115	295.551	327.785	191.180	196.742	196.554	205.025	360.974	204.726	-8191	255	
5222.568	1	1	0	0	0.10058	0.33449	0.028017	0.21953	0.20895	0.12031	0.34543	0.093636	0.22841	0.11818	0.14182	0.34852	0.1097	0.085188	0.20604	0.15289	-3.2292	-2.8792	-3.4646	-3.3833	-3.0917	-3.7542	-3.2667	-3.4604	-3.8229	-3.2458	-3.7396	-3.6292	-3.1729	-3.8417	-3.2833	-3.4917	405.515	509.985	389.903	461.730	238.109	387.714	420.090	313.766	221.458	522.170	282.155	482.311	314.952	415.081	519.098	222.543	0.00034157	0.00038783	8.8035e-05	1207.7	2.2913e-06	1.4207e-06	1265.4	244.55	2.3011e-06	2.0053e-06	301.03	85.186	67.292	19.087	1.8776e-06	27.076	9.5199e-05	8.0701e-05	2.1521e-05	1156.4	9.7821e-07	8.8627e-07	1220.3	234.93	9.5964e-07	8.6533e-07	287.05	82.286	62.172	18.558	9.1862e-07	26.437	527.920	311.630	241.634	184.181	275.931	345.290	184.075	191.273	306.094	344.567	191.088	197.146	196.837	205.080	253.471	204.890	-8191	255	
5222.664	1	1	0	0	0.32565	0.10913	0.2675	0.18644	0.32545	0.18925	0.062318	0.22348	0.10992	0.09196	0.20904	0.14582	0.13658	0.11907	0.03169	0.09481	-3.3458	-3.0229	-3.7125	-3.7542	-3.2188	-3.85	-3.5354	-3.4938	-3.6562	-3.2	-3.5396	-3.5896	-3.0542	-3.9146	-3.375	-3.3771	181.877	204.374	265.632	483.983	194.756	194.533	416.764	441.189	482.941	306.260	490.230	391.393	190.442	426.073	361.216	408.384	0.00033846	0.0002378	8.5924e-05	1205	5.2379e-07	4.1593e-06	1267.8	243.3	3.5578e-06	2.5175e-06	302.15	85.698	66.891	19.053	4.4393e-06	27.228	9.4513e-05	8.0696e-05	2.3388e-05	1156.6	9.4421e-07	8.5814e-07	1220.2	234.94	9.2923e-07	8.5569e-07	288.32	82.626	61.905	18.573	9.9193e-07	26.382	520.692	296.994	246.206	184.161	282.297	361.077	184.162	191.135	320.209	351.345	190.930	196.855	196.728	205.334	298.754	204.647	-8191	255	
5222.760	1	1	0	0	0.12127	0.032575	0.091954	0.22384	0.25642	0.12373	0.18905	0.20551	0.12442	0.2711	0.22227	0.052789	0.20728	0.13416	0.15921	0.041043	-3.3104	-3.225	-3.5042	-3.8667	-3.1271	-3.8479	-3.5187	-3.3229	-3.7167	-3.2062	-3.5896	-3.8146	-3.1625	-3.7208	-3.5396	-3.3292	202.493	271.619	256.369	517.966	251.170	494.724	489.975	486.291	270.056	404.563	466.206	177.120	433.266	441.657	422.134	325.741	0.00034277	0.00015086	4.8815e-05	1209.4	2.9829e-06	5.7984e-06	1266.8	244.11	4.2001e-06	1.6653e-06	301.89	85.408	67.2	18.904	1.0583e-06	27.174	9.2436e-05	7.8729e-05	2.4919e-05	1158.4	9.1156e-07	8.4809e-07	1219.9	234.87	8.9821e-07	8.3684e-07	288.75	82.427	62.041	18.557	9.6492e-07	26.516	522.699	192.324	288.151	184.319	278.998	288.514	184.188	190.920	269.876	274.364	191.038	196.958	196.450	205.260	384.915	204.543	-8191	255	
5222.881	1	1	0	0	0.14563	0.23685	0.095112	0.1906	0.04866	0.067164	0.19388	0.076925	0.050066	0.11644	0.39491	0.16488	0.10178	0.14327	0.2016	0.11783	-3.4458	-3.1042	-3.5208	-3.8729	-3.2854	-3.6437	-3.8208	-3.2625	-3.75	-3.3896	-3.3667	-3.7208	-3.1604	-3.5854	-3.4646	-3.2167	182.358	222.807	186.163	409.297	281.536	527.161	503.562	525.676	468.509	272.096	515.286	452.127	415.207	486.626	447.800	245.127	0.00035188	4.1409e-05	0.00011955	1206.5	3.7208e-07	2.4343e-06	1264.9	243.87	4.3988e-06	3.0105e-06	302.27	85.769	67.539	19.204	1.8647e-06	27.063	8.6692e-05	7.7989e-05	2.4359e-05	1158.9	8.7379e-07	8.7113e-07	1223.5	235.04	8.5692e-07	8.986e-07	288.73	82.595	62.09	18.625	1.0024e-06	26.402	521.739	192.981	286.124	184.345	226.176	319.282	183.947	190.951	296.776	342.473	190.963	196.947	196.818	205.121	362.350	204.449	-8191	255	
5222.977	1	1	0	0	0.25845	0.30338	0.13555	0.048829	0.12951	0.27874	0.04696	0.30016	0.21747	0.10768	0.24505	0.081293	0.15589	0.25488	0.12299	0.29113	-3.3542	-3.3208	-3.2521	-4.0563	-3.2896	-3.6167	-3.8812	-3.1375	-3.7083	-3.1646	-3.3208	-3.7729	-3.2229	-3.4292	-3.675	-3.2188	212.617	369.683	340.695	407.945	450.813	490.322	495.403	177.016	426.024	203.033	353.279	273.112	502.743	188.206	497.384	419.579	0.00034948	0.00019568	6.6715e-05	1209.8	2.2866e-06	7.7638e-07	1268.8	243.53	2.3879e-06	3.901e-06	302.89	85.479	67.244	19.121	1.8602e-06	27.12	8.6631e-05	8.7138e-05	2.4646e-05	1160.6	8.9249e-07	9.545e-07	1222.6	234.75	8.7762e-07	9.7992e-07	287.88	82.396	61.717	18.626	9.8331e-07	26.457	174.033	232.284	276.014	184.274	222.082	284.953	184.022	191.214	258.788	340.694	190.852	197.076	196.436	205.364	335.705	204.395	-8191	255	
5223.071	1	1	0	0	0.30644	0.25487	0.23161	0.16991	0.19416	0.1975	0.16145	0.11279	0.22414	0.24563	0.27175	0.14368	0.12033	0.13244	0.082734	0.15809	-3.2604	-3.35	-3.2958	-3.9708	-3.2	-3.4875	-3.7188	-3.2229	-3.6854	-3.5729	-3.3729	-3.7771	-3.2562	-3.3521	-3.6542	-3.0292	427.492	417.670	414.198	501.248	509.852	414.255	417.261	442.569	503.916	281.515	467.463	217.362	346.247	488.792	415.603	385.021	0.0003205	0.00045932	0.00011354	1208.5	1.384e-06	4.076e-06	1264.7	242.08	4.5779e-06	6.4593e-07	302.56	85.245	66.339	19.075	4.4942e-06	27.22	8.8894e-05	9.1892e-05	2.4251e-05	1158.9	8.9735e-07	1.0129e-06	1222.4	234	9.26e-07	1.0226e-06	287.89	82.312	61.657	18.594	9.3637e-07	26.449	524.676	261.322	336.298	183.978	269.593	295.513	183.966	191.047	323.841	271.112	191.076	196.995	196.704	205.172	299.737	204.533	-8191	255	
5223.169	1	1	0	0	0.1353	0.16834	0.22716	0.31517	0.10447	0.17482	0.33454	0.39561	0.16438	0.059851	0.068939	0.16808	0.24213	0.10193	0.015887	0.23548	-3.2021	-3.5583	-3.0792	-3.8396	-3.2812	-3.275	-3.7771	-3.2021	-3.8063	-3.5146	-3.1979	-3.775	-3.3646	-3.4229	-3.7188	-3.175	519.863	371.204	369.825	520.302	444.967	260.429	442.192	475.609	241.725	517.292	427.139	186.829	176.208	486.694	239.609	423.603	0.00034648	0.00043563	7.7018e-05	1210.3	9.8442e-07	3.1945e-06	1262	245.18	3.5741e-06	8.4672e-07	302.5	85.02	67.053	18.911	1.9213e-06	27.055	9.3506e-05	9.1181e-05	2.3344e-05	1158.1	9.6084e-07	9.7482e-07	1221.2	234.24	9.6843e-07	9.8931e-07	287.42	82.169	61.948	18.547	9.3136e-07	26.407	524.756	242.050	347.806	184.074	442.743	317.112	184.044	191.100	262.328	368.189	191.039	196.965	196.867	205.458	297.733	204.590	-8191	255	
5223.264	1	1	0	0	0.18337	0.23801	0.076734	0.1736	0.12054	0.088693	0.23492	0.15139	0.20083	0.12574	0.15824	0.20684	0.32539	0.1262	0.15496	0.033534	-3.0812	-3.6188	-3	-3.8312	-3.3333	-3.3312	-3.9896	-3.2917	-3.5292	-3.6854	-3.2792	-3.6917	-3.3625	-3.1667	-3.7438	-3.2604	434.386	173.672	354.897	195.710	408.256	182.640	450.906	280.866	345.301	270.050	363.348	492.430	178.363	342.700	434.378	278.158	0.00030477	0.00023833	0.00013267	1210.3	2.4555e-06	5.3251e-06	1265.8	244.14	2.3994e-06	1.8456e-06	300.82	85.368	67.871	19.053	1.7142e-06	27.026	9.7026e-05	8.7158e-05	2.2842e-05	1159.2	9.9391e-07	9.4966e-07	1220.1	234.34	9.8166e-07	9.3525e-07	287.61	82.266	62.236	18.6	8.9143e-07	26.385	521.913	276.988	308.650	184.508	194.622	305.798	183.996	191.147	262.819	348.450	191.018	196.942	196.654	205.141	249.343	204.393	-8191	255	
5223.360	1	1	0	0	0.090848	0.13536	0.11769	0.15061	0.17673	0.083538	0.20349	0.16942	0.12676	0.097842	0.074329	0.14126	0.18008	0.14002	0.1083	0.10004	-3.1604	-3.5687	-3.0812	-3.775	-3.4771	-3.1708	-3.9688	-3.4292	-3.3542	-3.8063	-3.1771	-3.5771	-3.5271	-3.0687	-3.6875	-3.4562	350.867	397.191	379.738	218.728	241.557	177.583	178.410	177.651	235.046	506.361	377.727	259.684	521.308	490.678	489.691	206.455	0.00034807	0.00024541	0.00013431	1210.4	1.7522e-06	2.2482e-06	1261.6	243.05	4.2807e-06	2.07e-06	303.27	85.337	67.38	19.012	2.5763e-06	27.146	0.00010086	8.4738e-05	2.24e-05	1160.3	1.0261e-06	9.524e-07	1220.4	234.48	1.0384e-06	9.4339e-07	287.64	82.317	62.294	18.547	8.8141e-07	26.455	521.131	258.853	288.514	184.371	235.711	254.579	184.010	191.168	291.251	331.415	190.835	197.166	196.963	205.027	316.064	204.586	-8191	255	
5223.456	1	1	0	0	0.16515	0.1225	0.23429	0.16205	0.13299	0.10501	0.38578	0.25024	0.13219	0.084154	0.18073	0.17565	0.12548	0.24156	0.17919	0.14667	-2.8563	-3.7396	-3.1063	-3.8312	-3.5667	-3.3021	-4.0042	-3.3979	-3.4062	-3.8812	-3.2313	-3.5104	-3.6521	-3.1229	-3.6688	-3.5458	351.947	186.820	404.431	206.867	509.576	352.823	181.460	425.384	317.065	434.914	296.914	501.255	453.670	414.086	295.902	399.103	0.00036295	0.00014046	8.5618e-05	1213.2	1.177e-06	2.7126e-06	1264.7	244.74	2.5971e-06	2.6683e-06	302.33	85.194	66.578	18.996	3.9117e-07	27.006	9.9414e-05	8.4567e-05	2.2048e-05	1161.3	1.0068e-06	9.3746e-07	1219.8	234.77	9.8193e-07	9.0548e-07	287.49	82.369	61.952	18.58	8.4703e-07	26.461	529.469	257.553	269.909	184.408	335.847	376.864	184.065	191.344	296.100	306.235	190.893	197.119	196.863	205.087	265.727	204.343	-8191	255	
5223.577	1	1	0	0	0.15429	0.24099	0.22861	0.30117	0.13562	0.024977	0.24203	0.086327	0.38752	0.042255	0.24045	0.25839	0.19335	0.059558	0.19646	0.20489	-2.9458	-3.7333	-3.0854	-3.5958	-3.7125	-3.0312	-3.6896	-3.575	-3.1604	-3.7021	-3.2542	-3.5125	-3.675	-3.2271	-3.6479	-3.5875	426.388	477.285	329.438	485.280	377.282	505.735	506.242	485.493	390.937	523.178	181.210	509.777	395.284	195.624	449.286	450.243	0.00031754	0.00043939	5.7877e-05	1210.1	2.9426e-06	2.3022e-06	1265.7	243.21	3.6882e-06	1.9819e-06	300.45	85.583	67.378	19.018	1.9271e-06	27.132	9.4288e-05	8.1785e-05	2.1747e-05	1160.4	9.6567e-07	8.9427e-07	1222.2	234.4	9.6068e-07	8.8388e-07	287.23	82.686	62.284	18.534	9.2045e-07	26.457	175.902	263.497	258.165	184.235	266.016	365.712	184.124	191.254	280.497	345.052	191.165	197.227	197.171	204.825	407.550	204.212	-8191	255	
5223.673	1	1	0	0	0.1837	0.14727	0.1771	0.031394	0.18596	0.20417	0.22934	0.26351	0.25653	0.10897	0.29261	0.087186	0.1985	0.23785	0.23785	0.10397	-2.6437	-3.6083	-3.1833	-3.4271	-3.6583	-3.0896	-3.8021	-3.6271	-3.1542	-3.7083	-3.2771	-3.3271	-3.7729	-3.2271	-3.5167	-3.7146	346.900	374.851	269.763	396.877	474.309	191.752	486.264	432.484	423.916	414.523	238.585	178.715	193.479	446.196	239.250	303.574	0.00034324	0.00041893	8.4131e-05	1211.9	2.5468e-06	6.5001e-07	1268.9	244.65	2.729e-06	1.4813e-06	303.2	85.397	66.891	19.092	2.2025e-06	27.046	9.4227e-05	7.7759e-05	2.347e-05	1160.6	9.295e-07	8.5027e-07	1222.6	235.21	9.6936e-07	8.5714e-07	288.21	82.514	61.82	18.539	9.5526e-07	26.452	527.449	278.101	316.368	184.359	268.731	345.382	184.033	191.281	318.056	351.775	190.978	197.041	196.791	204.712	351.035	204.179	-8191	255	
5223.769	1	1	0	0	0.084897	0.16184	0.1496	0.13441	0.25538	0.052125	0.10678	0.1238	0.21078	0.1781	0.30297	0.011233	0.12039	0.25231	0.10787	0.10398	-2.7438	-3.625	-3.2604	-3.1979	-3.7479	-3.0312	-3.675	-3.6042	-3.15	-3.8896	-3.5875	-3.1896	-3.9354	-3.35	-3.3146	-3.5104	350.796	473.902	357.546	524.138	488.268	423.190	410.057	357.971	504.359	429.499	521.671	324.230	523.319	194.283	518.938	520.191	0.00036274	5.9838e-05	5.225e-05	1209.6	2.1561e-06	2.9922e-06	1262.8	244.4	1.6351e-06	3.1215e-06	302.93	85.063	66.412	19.016	1.8685e-06	27.273	9.1267e-05	7.4246e-05	2.4038e-05	1159.3	9.1851e-07	8.3762e-07	1219.1	234.47	8.9297e-07	8.4984e-07	287.95	82.314	61.418	18.541	9.7114e-07	26.503	522.691	232.723	321.415	184.586	304.449	244.676	184.044	191.113	290.699	340.300	190.897	196.894	196.313	204.929	308.927	204.453	-8191	255	
5223.865	1	1	0	0	0.16658	0.067476	0.11283	0.18164	0.16672	0.1878	0.14611	0.17081	0.16434	0.26841	0.042486	0.12353	0.095194	0.22129	0.13256	0.17961	-2.4896	-3.6292	-3.5083	-3.325	-3.6021	-3.2604	-3.5146	-3.6417	-2.9479	-3.5812	-3.6146	-3.3125	-3.6708	-3.1167	-3.375	-3.8812	219.962	520.238	321.854	526.189	309.458	456.454	376.324	187.066	467.722	232.141	379.619	427.846	458.010	477.698	384.715	206.471	0.00035385	0.00032203	0.00010658	1209	2.9974e-06	6.6942e-07	1262.7	244.03	1.1931e-06	3.8889e-07	302.72	84.858	67.153	19.263	2.6725e-06	27.166	8.7983e-05	8.013e-05	2.4478e-05	1157.4	8.6588e-07	8.7743e-07	1220.4	234.72	8.6884e-07	8.6792e-07	287.61	82.131	61.867	18.659	9.4667e-07	26.452	530.017	231.584	283.161	184.389	276.503	363.750	184.107	191.045	304.515	231.792	191.021	196.740	196.780	204.911	329.875	204.351	-8191	255	
5223.961	1	1	0	0	0.1682	0.048596	0.31233	0.08925	0.062944	0.12377	0.19454	0.044762	0.028188	0.21143	0.20115	0.2248	0.19951	0.1387	0.16456	0.1539	-2.7021	-3.6229	-3.675	-3.3021	-3.8042	-3.3021	-3.5125	-4.0396	-3.1708	-3.6521	-3.7396	-3.2229	-3.7104	-3.2812	-3.1833	-3.7625	280.037	436.861	523.780	218.690	485.004	354.429	489.612	442.223	239.464	312.191	177.360	223.845	262.765	526.381	315.487	177.402	0.00030175	0.00022767	0.00010758	1201.7	1.8747e-06	4.5431e-06	1261.5	243.56	3.1605e-06	1.5039e-06	300.16	85.736	67.004	19.089	3.4926e-06	27.202	8.4449e-05	8.2217e-05	2.4246e-05	1156.4	8.7347e-07	9.0222e-07	1220.4	234.66	8.4571e-07	9.2566e-07	288.08	82.47	61.865	18.607	9.118e-07	26.404	523.734	191.252	294.403	184.078	248.909	287.208	184.154	191.110	286.026	493.125	190.907	196.965	196.310	204.933	303.317	204.275	-8191	255	
5224.057	1	1	0	0	0.03912	0.15214	0.12554	0.30759	0.070016	0.18757	0.34826	0.13639	0.15398	0.1074	0.20714	0.24934	0.21349	0.085061	0.054179	0.1803	-2.7396	-3.4375	-3.7146	-3.1917	-3.6521	-3.4833	-3.4708	-3.8958	-3.3187	-3.5062	-3.6021	-2.9625	-3.6896	-3.4979	-3.3	-3.8521	452.628	447.103	463.351	185.015	223.545	447.068	454.353	181.465	235.876	190.393	527.177	252.474	270.838	257.536	361.463	383.103	0.000356	0.00021423	7.8889e-05	1209.8	3.1253e-06	1.704e-06	1261.6	244.05	2.6449e-06	4.8344e-06	303.08	84.93	66.968	19.043	2.4148e-06	27.323	8.4409e-05	8.4994e-05	2.3365e-05	1157.4	8.7487e-07	9.4531e-07	1220	234.06	8.5472e-07	9.6075e-07	288.26	82.153	61.951	18.609	9.2279e-07	26.465	529.245	266.117	269.003	184.297	221.839	212.929	184.275	191.162	274.531	324.593	190.910	197.160	197.198	204.923	297.324	204.463	-8191	255	
5224.176	1	1	0	0	0.1596	0.11563	0.13725	0.29797	0.29026	0.16977	0.31077	0.22667	0.16124	0.20709	0.18536	0.13828	0.048884	0.079129	0.20724	0.31234	-2.8896	-3.4354	-3.825	-3.1562	-3.4938	-3.5563	-3.3521	-3.7917	-3.5146	-3.4396	-3.7583	-3.1854	-3.7146	-3.5917	-3.0438	-3.6833	209.353	186.577	399.310	484.388	446.960	312.928	471.777	512.494	419.810	524.402	494.838	480.082	485.296	197.729	360.630	490.617	0.00038503	0.00035716	0.00011212	1207.2	8.8969e-07	4.8758e-06	1268	243.13	2.6474e-06	3.3289e-06	302.38	85.241	67.197	19.106	2.1616e-06	27.143	8.8669e-05	8.756e-05	2.2036e-05	1158.7	8.9e-07	9.5425e-07	1222.6	234.14	9.1213e-07	9.3177e-07	288.03	82.149	61.997	18.625	9.1222e-07	26.483	527.601	265.425	292.873	184.299	206.382	325.052	184.018	191.015	279.889	321.671	191.059	197.123	197.017	205.043	277.633	204.453	-8191	255	
5224.272	1	1	0	0	0.12778	0.1797	0.064176	0.035878	0.14054	0.25986	0.24864	0.26365	0.084806	0.17863	0.17602	0.23988	0.093924	0.16437	0.16399	0.044154	-2.9146	-3.2708	-3.6521	-3.2062	-3.5583	-3.6042	-3.2354	-3.6792	-3.4104	-3.2604	-3.8125	-3.2646	-3.4208	-3.7292	-3.0792	-3.7521	424.037	513.910	462.473	458.407	390.499	498.550	439.533	461.242	423.408	433.733	474.200	345.788	403.164	452.270	291.983	432.959	0.00032955	0.00022455	5.2744e-05	1209.7	1.9826e-06	3.5459e-06	1268.2	243.61	2.1927e-06	3.0559e-06	300.99	85.895	66.857	19.205	3.2442e-07	27.028	9.5199e-05	8.8602e-05	2.2768e-05	1156.7	9.6649e-07	9.4274e-07	1223.4	234.49	9.6455e-07	9.2936e-07	287.68	82.242	62.156	18.608	8.7029e-07	26.4	529.611	232.587	270.536	184.288	325.487	336.901	184.032	191.116	227.477	356.545	191.122	197.041	197.551	204.874	411.891	204.592	-8191	255	
5224.368	1	1	0	0	0.066358	0.20107	0.095427	0.36758	0.21389	0.12786	0.26102	0.099896	0.13539	0.15028	0.018504	0.28563	0.18448	0.15204	0.20747	0.068883	-2.8896	-3.1792	-3.8458	-3.3104	-3.3833	-3.7292	-3.1521	-3.7979	-3.4458	-3.0854	-3.8167	-3.3979	-3.4646	-3.6729	-2.9792	-3.5563	186.307	414.380	404.597	446.727	389.951	345.367	460.286	184.859	343.433	513.214	211.078	530.965	433.030	329.877	454.547	316.610	0.00036655	0.00049972	6.3583e-05	1208	2.1815e-06	2.5611e-06	1262.5	242.17	8.1467e-07	1.9467e-06	304.11	85.534	67.724	18.999	1.4042e-06	27.273	9.8181e-05	8.4414e-05	2.2325e-05	1156.9	9.8778e-07	9.1474e-07	1219.2	234.04	9.9829e-07	9.3182e-07	287.96	82.592	62.334	18.551	8.8758e-07	26.495	528.443	259.266	268.446	184.478	279.206	258.737	184.081	191.223	296.073	386.204	191.398	197.158	196.979	204.989	352.566	204.597	-8191	255	
5224.440	1	1	0	0	0.11879	0.11382	0.21495	0.25806	0.12469	0.18113	0.009583	0.15393	0.10399	0.28157	0.22724	0.2876	0.10121	0.030074	0.070578	0.13194	-3.1188	-3.0458	-3.5875	-3.3083	-3.3396	-3.8125	-3.2479	-3.6896	-3.5938	-3.1417	-3.8604	-3.5208	-3.3187	-3.7042	-3.2687	-3.5458	442.281	507.766	215.885	494.663	264.135	365.447	184.775	386.963	176.050	413.159	444.011	477.025	523.044	521.901	361.122	188.995	0.00035549	0.00048605	0.00010075	1211.5	3.2126e-06	6.5867e-06	1265	243.73	1.6141e-06	4.4179e-06	301.46	85.896	66.917	19.109	1.7281e-06	27.018	0.00010016	8.452e-05	2.1945e-05	1157.5	1.003e-06	9.2701e-07	1221.5	234.33	1.0107e-06	9.3678e-07	287.07	82.408	62.158	18.574	8.7548e-07	26.43	525.653	230.344	291.400	184.036	269.935	333.441	183.999	190.963	325.876	361.664	190.993	197.090	196.633	204.905	261.168	204.729	-8191	255	
5224.536	1	1	0	0	0.23122	0.14846	0.21575	0.10621	0.22779	0.2042	0.17104	0.19949	0.11492	0.19804	0.17806	0.20192	0.12721	0.27721	0.032997	0.053008	-3.25	-3.1458	-3.8	-3.4021	-3.4396	-3.9313	-3.2438	-3.3792	-3.5979	-3.075	-3.8104	-3.5042	-3.1604	-3.7458	-3.2417	-3.4104	375.840	313.560	266.107	405.593	276.366	249.017	424.560	403.644	462.168	499.893	334.147	412.977	234.848	451.258	405.038	462.572	0.00037245	0.00033115	5.0445e-05	1207.4	1.9349e-06	3.4703e-06	1264.3	243.13	2.1675e-06	1.8091e-06	303.15	85.84	66.539	19.063	3.3269e-06	27.193	9.7967e-05	8.2646e-05	2.1876e-05	1158.3	9.7883e-07	8.8822e-07	1219.7	234.36	9.5559e-07	8.9577e-07	287.66	82.604	61.86	18.558	8.9244e-07	26.46	524.442	307.435	176.961	184.028	234.329	358.118	184.085	191.230	289.303	239.306	190.908	196.868	197.332	204.920	316.858	204.691	-8191	255	
5224.657	1	1	0	0	0.035265	0.025427	0.035378	0.23162	0.21687	0.06642	0.49949	0.036087	0.21325	0.15557	0.21228	0.39528	0.13732	0.22572	0.31802	0.035084	-3.3688	-3.0417	-3.75	-3.55	-3.1208	-3.8958	-3.4354	-3.4792	-3.9021	-2.9896	-3.6375	-3.6292	-3.2229	-3.7208	-3.2646	-3.4313	468.988	497.079	445.483	468.586	228.051	187.833	483.421	478.031	412.956	259.726	430.001	503.072	435.296	502.294	262.273	393.478	0.0003492	0.00017587	0.00015319	1201.4	2.5638e-06	1.0388e-06	1265.2	244.49	1.973e-06	2.5611e-06	301.2	85.189	67.03	19.064	1.9349e-06	27.187	9.4839e-05	7.8281e-05	2.3292e-05	1156.9	9.5165e-07	8.6333e-07	1221.6	235.21	9.5107e-07	8.4883e-07	287.46	82.339	61.945	18.592	9.5072e-07	26.465	525.196	314.571	264.018	184.307	258.162	380.567	184.084	191.053	225.792	380.320	191.144	197.146	196.177	205.248	361.667	204.610	-8191	255	
5224.753	1	1	0	0	0.1264	0.15782	0.13095	0.085982	0.116	0.17598	0.11167	0.030588	0.091581	0.22089	0.169	0.090694	0.15747	0.11771	0.09623	0.062992	-3.4021	-2.9833	-3.4229	-3.625	-3.075	-3.7792	-3.4271	-3.3438	-3.8208	-3.3583	-3.6813	-3.7042	-2.9396	-3.5625	-3.3708	-3.3167	352.229	380.016	379.343	199.749	370.827	254.608	523.025	469.035	473.707	510.457	433.816	196.795	190.978	452.675	268.773	451.653	0.00031358	0.00019449	4.3035e-05	1211.1	2.6501e-06	4.7394e-06	1270.4	243.2	2.1523e-06	3.6419e-06	302.06	85.207	67.29	19.208	2.1913e-06	27.374	9.2412e-05	7.713e-05	2.4155e-05	1159.3	9.2406e-07	8.3649e-07	1222.6	234.57	8.8999e-07	8.3208e-07	288.45	82.585	61.995	18.618	9.2617e-07	26.533	522.865	228.003	258.645	184.086	273.027	305.267	184.270	191.129	297.203	327.917	191.181	197.034	196.587	205.558	277.010	204.407	-8191	255	
5224.849	1	1	0	0	0.19397	0.11839	0.21597	0.32949	0.13235	0.25007	0.13113	0.13307	0.10949	0.13544	0.088364	0.11112	0.055708	0.095303	0.38727	0.21476	-3.2521	-3.1833	-3.225	-3.7729	-3.1042	-3.6917	-3.6437	-3.4125	-3.7542	-3.3125	-3.5021	-3.7229	-3.1854	-3.7104	-3.6	-3.1771	212.661	260.952	216.082	490.487	294.417	226.438	367.683	238.344	359.206	358.529	193.993	531.291	430.800	301.455	184.536	248.993	0.00032912	0.00015859	0.00010676	1211.7	1.8946e-06	3.1757e-06	1272.8	244.76	3.4577e-06	3.882e-06	302.53	85.092	67.142	18.975	2.5812e-06	27.333	8.5187e-05	7.4854e-05	2.3301e-05	1159.1	8.9535e-07	8.4819e-07	1223.2	235.25	8.4378e-07	8.6259e-07	288.36	82.41	61.864	18.596	9.7297e-07	26.523	524.876	285.403	280.128	184.412	266.905	239.429	183.826	191.063	300.235	363.473	190.920	197.043	196.555	204.761	345.652	204.436	-8191	255	
5224.970	1	1	0	0	0.1751	0.17558	0.10506	0.059938	0.25055	0.16556	0.13786	0.16444	0.22694	0.14786	0.20565	0.25359	0.14459	0.10247	0.040107	0.22816	-3.4167	-3.1625	-3.1875	-3.8417	-3.075	-3.6146	-3.7812	-3.0271	-3.7875	-3.325	-3.2708	-3.8354	-3.3438	-3.6063	-3.6375	-3.1833	455.543	371.154	300.164	232.362	201.579	448.128	480.006	483.953	358.643	240.057	228.275	415.920	283.293	509.456	357.227	424.132	0.00033558	5.3835e-05	6.4691e-05	1205.4	3.7182e-06	1.4977e-06	1264.3	243.88	7.4362e-07	9.4503e-07	301.93	85.495	67.181	19.124	6.4829e-07	27.114	8.5545e-05	8.25e-05	2.4163e-05	1157.4	8.5331e-07	8.7703e-07	1222.4	234.45	8.2981e-07	8.989e-07	287.67	82.486	61.904	18.643	9.3156e-07	26.516	531.042	338.729	288.054	184.448	244.948	279.152	184.266	191.056	338.975	329.989	191.237	197.025	196.746	204.935	274.836	204.199	-8191	255	
5225.042	1	1	0	0	0.078657	0.25027	0.062006	0.23502	0.23886	0.24934	0.36765	0.064296	0.093828	0.035084	0.15011	0.12827	0.19289	0.060522	0.070485	0.087041	-3.2875	-3.3792	-3.2833	-4.0813	-3.1417	-3.4688	-3.9125	-3.2333	-3.8042	-3.5708	-3.3667	-3.9062	-3.2458	-3.3708	-3.7354	-3.2292	304.159	211.723	317.408	501.997	492.081	532.311	467.490	255.650	336.286	175.231	405.072	338.821	212.674	174.702	288.664	529.798	0.00036177	0.00037552	0.00010247	1208.1	1.4987e-06	7.0757e-07	1262.8	244.71	2.3189e-06	3.5314e-06	301.82	85.211	66.135	19.174	8.1208e-07	27.152	8.4195e-05	8.5314e-05	2.3622e-05	1158.6	8.5639e-07	9.4225e-07	1222.6	234.98	8.4867e-07	9.4956e-07	288.21	82.414	61.772	18.67	8.9973e-07	26.513	174.001	257.486	309.230	184.140	241.380	423.136	183.994	191.076	355.708	377.447	190.632	196.741	196.998	204.804	427.361	204.543	-8191	255	
5225.138	1	1	0	0	0.11908	0.18132	0.11775	0.14362	0.070368	0.2691	0.17048	0.20923	0.11078	0.11544	0.21554	0.29893	0.19346	0.079949	0.096694	0.022961	-3.3458	-3.3396	-3.15	-4	-3.3396	-3.3771	-3.8792	-3.1479	-3.4104	-3.5104	-3.35	-3.8042	-3.2833	-3.2542	-3.8688	-3.1479	177.628	414.772	202.414	504.722	528.003	195.905	458.817	438.700	218.850	454.459	416.773	182.831	448.005	256.652	304.298	375.108	0.00033493	0.00034737	3.6672e-05	1208.4	1.8993e-06	1.7486e-06	1267.2	244.33	2.3744e-06	3.3917e-06	302.03	85.537	67.016	19.136	4.5931e-06	27.084	8.6319e-05	8.7329e-05	2.3241e-05	1159.4	9.0008e-07	9.487e-07	1222.4	234.64	9.1351e-07	9.5146e-07	287.25	82.561	61.952	18.661	9.0699e-07	26.397	519.155	207.913	232.355	184.363	268.361	266.219	184.188	191.228	329.303	340.611	191.258	196.965	196.369	205.277	376.174	204.439	-8191	255	
5225.257	1	1	0	0	0.27303	0.15661	0.075202	0.25212	0.11464	0.043255	0.34076	0.081217	0.23772	0.29675	0.060132	0.089506	0.19611	0.30936	0.28436	0.071445	-3.1437	-3.5875	-3.1188	-3.8312	-3.425	-3.4396	-3.9917	-3.2646	-3.4875	-3.5354	-3.1688	-3.8563	-3.3146	-3.2896	-3.8125	-3.4021	461.657	444.047	176.273	453.258	408.893	318.432	513.457	468.470	202.572	308.806	240.098	240.481	363.738	517.955	498.846	254.507	0.0003759	0.00014122	3.6392e-05	1213.3	8.0881e-07	1.6674e-06	1267.1	244.79	5.1725e-06	3.0646e-06	301.52	85.613	67.809	18.953	3.5989e-06	27.235	9.135e-05	8.7257e-05	2.2169e-05	1161.7	9.5003e-07	9.3576e-07	1224.2	234.58	9.5808e-07	9.4751e-07	287.65	82.364	62.455	18.61	8.5829e-07	26.496	518.838	289.364	287.194	184.426	259.446	367.480	184.092	191.043	264.185	343.413	191.089	196.811	196.469	205.006	347.034	204.647	-8191	255	
5225.353	1	1	0	0	0.12878	0.096982	0.10566	0.13737	0.23673	0.282	0.2371	0.10389	0.23446	0.33756	0.32265	0.081053	0.075108	0.12172	0.19479	0.28368	-3.125	-3.6646	-2.95	-3.7792	-3.4188	-3.2896	-3.95	-3.3646	-3.3667	-3.8104	-3.2083	-3.7354	-3.5042	-3.3896	-3.775	-3.4125	174.680	453.094	419.406	469.849	201.427	204.467	438.603	494.649	353.073	178.685	429.966	476.833	462.203	399.940	461.154	179.140	0.00036174	0.00040823	6.9791e-05	1209.4	2.6362e-06	3.4428e-06	1266.7	244.46	2.3581e-06	3.2952e-06	301.79	85.451	67.871	19.088	1.9211e-06	27.196	9.3329e-05	8.1549e-05	2.102e-05	1158.7	9.7124e-07	8.8358e-07	1222.5	234.74	9.7294e-07	8.8713e-07	287.2	82.432	62.096	18.612	8.5197e-07	26.428	527.131	241.801	315.936	184.402	251.437	297.533	184.061	191.219	283.076	341.492	191.645	197.148	196.973	205.391	363.004	204.705	-8191	255	
5225.449	1	1	0	0	0.045352	0.096879	0.096386	0.1704	0.10376	0.063375	0.047429	0.14515	0.03228	0.086254	0.076453	0.0096363	0.084512	0.17516	0.12952	0.11101	-3.0354	-3.625	-3.1292	-3.7167	-3.4708	-3.1937	-3.7479	-3.3208	-3.3646	-3.7771	-3.15	-3.5896	-3.6958	-3.0208	-3.8958	-3.2771	355.450	364.715	242.823	182.329	421.250	499.836	195.890	446.699	452.909	403.257	508.423	492.118	345.743	180.662	316.909	492.559	0.00039386	0.00019588	9.7165e-05	1203.6	5.1725e-07	2.3161e-06	1270.6	243.88	1.7092e-06	5.8009e-07	301.68	85.346	67.297	19.198	2.1971e-06	27.276	9.6414e-05	8.2093e-05	2.1255e-05	1158.2	9.9842e-07	8.8849e-07	1222.3	234.87	9.7395e-07	8.8812e-07	287.5	82.522	62.102	18.626	8.4227e-07	26.546	519.508	286.817	217.839	184.287	265.790	479.827	184.163	191.062	248.527	448.183	190.947	197.057	196.652	205.302	326.946	204.461	-8191	255	
5225.569	1	1	0	0	0.020317	0.12333	0.078653	0.29197	0.12654	0.032878	0.20061	0.412	0.17858	0.14243	0.30518	0.14044	0.23099	0.25921	0.14209	0.16734	-2.8042	-3.7708	-3.1708	-3.6521	-3.6167	-3.275	-3.7062	-3.3937	-3.1917	-3.8979	-3.4125	-3.5292	-3.4667	-3.2146	-3.55	-3.4396	472.493	317.408	471.586	506.815	381.131	456.710	450.927	217.843	391.004	254.799	481.219	480.238	356.894	449.921	314.117	233.711	0.00031732	0.00039841	0.00011456	1211.7	2.7631e-06	3.4501e-06	1272	243.13	1.7534e-06	1.907e-06	302.34	85.936	67.555	19.115	2.9516e-06	27.17	9.5175e-05	7.9127e-05	2.1106e-05	1159.6	9.4712e-07	8.6963e-07	1222.6	234.8	9.4044e-07	8.7063e-07	287.49	82.487	62.193	18.619	8.4763e-07	26.509	530.376	282.653	277.738	184.202	261.110	319.977	184.006	191.262	325.417	307.979	191.101	197.551	197.138	205.161	342.858	204.390	-8191	255	
5225.666	1	1	0	0	0.17319	0.17223	0.1489	0.11831	0.21281	0.08985	0.20888	0.07104	0.048018	0.011794	0.2756	0.21848	0.099609	0.4528	0.083749	0.073801	-2.6437	-3.7417	-3.0958	-3.4313	-3.7125	-3.1333	-3.8708	-3.6	-3.1	-3.7854	-3.3812	-3.3396	-3.6625	-3.1229	-3.5854	-3.6208	215.998	356.357	184.392	467.737	215.245	378.247	428.291	528.888	362.733	365.869	469.974	368.784	311.445	205.993	175.014	516.166	0.00031966	0.00032256	8.6947e-05	1209.6	1.5882e-06	4.4635e-06	1266.3	243.14	3.335e-06	2.4761e-06	301.38	85.582	66.978	19.01	4.4855e-07	27.116	9.1621e-05	7.7089e-05	2.1903e-05	1160.6	8.988e-07	8.3614e-07	1222.1	235.05	9.2778e-07	8.4128e-07	287.37	82.538	61.876	18.554	9.1432e-07	26.476	521.461	236.248	290.651	184.356	305.794	301.980	183.915	191.353	310.858	404.831	191.061	197.252	196.774	205.027	401.088	204.439	-8191	255	
5225.737	1	1	0	0	0.17869	0.10747	0.10341	0.2658	0.029925	0.12891	0.16992	0.26338	0.17493	0.27567	0.11297	0.19237	0.12066	0.20042	0.030385	0.074488	-2.7333	-3.6833	-3.2042	-3.3958	-3.7	-3.1667	-3.6354	-3.6875	-3.2208	-3.6729	-3.4333	-3.2833	-3.6333	-3.2729	-3.5583	-3.6646	295.336	508.704	186.436	504.826	183.218	491.407	498.406	493.146	215.394	273.203	524.625	483.809	222.304	188.012	455.775	327.093	0.00035208	0.00018649	2.2712e-05	1208.1	1.5367e-06	3.656e-06	1266.9	243.83	4.4128e-06	1.1987e-06	303.03	85.686	67.039	19.127	2.7801e-06	27.15	9.0577e-05	7.5836e-05	2.3182e-05	1159.8	9.0981e-07	8.3827e-07	1222.9	234.9	8.9584e-07	8.4331e-07	288.28	82.507	61.994	18.621	9.3625e-07	26.507	519.610	224.336	286.660	184.488	317.582	322.593	184.426	191.023	321.951	312.496	190.856	197.076	196.639	204.958	286.915	204.639	-8191	255	
5225.858	1	1	0	0	0.052983	0.15541	0.12045	0.10332	0.11188	0.25701	0.2614	0.14727	0.15872	0.044014	0.3471	0.34858	0.053886	0.24885	0.16798	0.29938	-2.6208	-3.575	-3.6	-3.3479	-3.7396	-3.2	-3.6042	-3.6229	-3.1083	-3.7708	-3.5375	-3.1729	-3.7833	-3.3042	-3.5312	-3.7458	454.829	489.837	470.357	382.774	371.522	341.710	531.194	448.661	182.448	386.924	491.255	424.899	498.666	196.043	477.918	462.055	0.00035561	0.00022546	5.4609e-05	1209.3	1.7361e-06	1.842e-06	1272.5	243.62	2.9707e-06	3.5648e-06	303.26	85.201	67.967	19.033	7.4614e-07	27.219	8.9283e-05	7.7157e-05	2.4374e-05	1161.1	9.073e-07	8.5251e-07	1224	234.93	8.6486e-07	8.7103e-07	288.4	82.54	62.131	18.585	9.7642e-07	26.482	525.094	341.777	268.430	184.315	301.427	339.064	183.882	191.126	275.174	367.448	191.021	196.826	196.745	205.114	355.013	204.219	-8191	255	
5225.954	1	1	0	0	0.18249	0.037498	0.18984	0.18605	0.18411	0.23569	0.20981	0.071816	0.31327	0.12415	0.094578	0.20549	0.25404	0.10485	0.30744	0.2417	-2.6833	-3.6667	-3.5229	-3.1312	-3.7625	-3.2417	-3.4062	-3.8583	-3.1625	-3.5	-3.4646	-2.9958	-3.6229	-3.2917	-3.2958	-3.9208	235.700	452.963	479.758	456.614	313.195	446.619	486.502	418.841	460.869	464.239	193.665	283.813	429.236	509.746	409.409	489.723	0.0003156	0.00016117	1.6457e-05	1211.7	2.7286e-06	4.8979e-06	1266.2	243.46	1.3868e-06	2.8594e-06	302.6	86.056	67.306	19.046	2.5871e-06	27.151	8.3736e-05	7.9169e-05	2.4579e-05	1160.9	8.4779e-07	9.0561e-07	1223.9	234.72	8.6797e-07	9.1397e-07	288.14	82.64	62.015	18.617	9.7879e-07	26.458	524.164	240.571	519.648	184.310	279.288	288.250	184.052	190.954	341.506	315.334	190.810	197.118	196.942	205.004	321.807	204.365	-8191	255	
5226.050	1	1	0	0	0.11703	0.031658	0.21321	0.18796	0.080579	0.03716	0.23752	0.20626	0.084854	0.12319	0.24639	0.020668	0.12507	0.2158	0.13828	0.28106	-2.6833	-3.3688	-3.5958	-3.0958	-3.7417	-3.4021	-3.4646	-3.5854	-3.2562	-3.3792	-3.725	-3.2479	-3.7792	-3.3667	-3.2792	-3.7979	493.160	441.544	494.688	531.831	246.082	178.896	459.927	193.412	410.742	447.055	268.675	514.251	401.318	389.679	478.464	435.616	0.00035358	0.00030094	0.00013363	1212.8	2.9599e-06	2.5417e-06	1266.3	243.1	2.8488e-06	4.6155e-06	302.64	85.806	67.018	19.042	1.0678e-06	26.947	8.8337e-05	8.6863e-05	2.4332e-05	1161	8.5006e-07	9.5929e-07	1224	234.38	8.8846e-07	9.7979e-07	288.42	82.518	61.696	18.62	9.383e-07	26.447	530.740	192.918	269.047	184.112	246.272	297.698	183.878	191.211	280.687	383.939	191.118	196.969	196.935	205.491	326.748	204.595	-8191	255	
5226.145	1	1	0	0	0.18831	0.10823	0.17785	0.17709	0.15996	0.20447	0.20205	0.14189	0.056128	0.075438	0.22443	0.22191	0.075615	0.14043	0.14679	0.14385	-2.6625	-3.3333	-3.7083	-3.2729	-3.6188	-3.5104	-3.275	-3.8979	-3.3958	-3.2438	-3.6604	-3.2354	-3.575	-3.5979	-3.2792	-3.7333	284.869	206.801	263.196	425.271	381.967	513.881	448.600	187.771	294.419	524.662	431.009	503.131	418.081	185.759	472.613	463.547	0.00038047	0.00047798	4.6645e-05	1206	1.3939e-06	1.9236e-06	1266.3	242.55	2.5327e-06	1.4027e-06	305.08	85.185	66.66	19.053	2.6802e-06	27.084	8.8499e-05	9.0239e-05	2.3025e-05	1157.6	9.0363e-07	9.7057e-07	1221.8	234.23	9.0522e-07	9.6773e-07	288.54	82.471	61.98	18.592	9.1185e-07	26.401	519.815	279.327	340.216	184.296	241.269	297.885	184.026	190.919	290.955	343.659	191.231	197.307	197.072	204.902	323.228	204.232	-8191	255	
5226.241	1	1	0	0	0.13168	0.24226	0.024231	0.13039	0.17359	0.23212	0.17309	0.23055	0.13265	0.077755	0.32491	0.17202	0.06735	0.35092	0.17361	0.13363	-2.8083	-3.2292	-3.6896	-3.3146	-3.5604	-3.675	-3.2958	-3.6625	-3.5667	-3.3937	-3.75	-3.1875	-3.4917	-3.6771	-3.1375	-3.8187	508.820	531.240	324.998	477.846	495.240	282.825	422.402	492.929	262.276	504.690	428.126	368.080	310.360	173.391	299.514	412.754	0.00033005	0.00024544	9.9119e-05	1213.1	2.25e-06	2.1813e-06	1260.5	244.98	3.0676e-06	4.5714e-07	302.27	85.695	67.023	19.135	1.1963e-06	27.278	9.225e-05	8.884e-05	2.309e-05	1159.3	9.7166e-07	9.58e-07	1219.8	234.84	9.8116e-07	9.6458e-07	287.74	82.51	61.902	18.61	9.0627e-07	26.443	529.531	225.857	266.875	184.344	267.174	281.745	184.220	190.882	268.636	299.134	191.109	197.100	196.961	205.079	434.497	204.216	-8191	255	
5226.337	1	1	0	0	0.066492	0.093253	0.17981	0.26647	0.058216	0.045623	0.19855	0.15916	0.15211	0.18168	0.092523	0.087341	0.31622	0.13239	0.062211	0.10891	-3.0563	-3.1562	-3.7687	-3.1979	-3.2979	-3.5062	-3.2771	-3.5208	-3.2812	-3.2438	-3.7958	-3.2062	-3.4917	-3.6271	-3.2354	-3.7021	233.363	242.023	291.437	499.265	370.298	250.995	487.188	414.463	397.028	219.564	382.992	237.149	236.078	393.014	413.167	437.948	0.00037154	0.00022682	0.00012724	1209.7	3.2272e-06	4.6756e-06	1271	245.17	2.2228e-06	4.2141e-06	303.26	85.088	66.603	19.007	2.2117e-06	27.081	9.7552e-05	8.5527e-05	2.212e-05	1159.5	9.9753e-07	9.1225e-07	1223.1	235.07	1.0061e-06	9.0201e-07	287.76	82.339	62.008	18.529	8.6518e-07	26.445	519.586	293.495	260.385	184.317	214.823	326.549	184.029	191.022	284.281	336.116	191.149	197.100	196.555	204.669	336.896	204.884	-8191	255	
5226.433	1	1	0	0	0.090181	0.18475	0.13991	0.28486	0.16172	0.29602	0.27322	0.23181	0.16334	0.31931	0.14591	0.040909	0.21883	0.13807	0.2251	0.27437	-3.0812	-3.0833	-3.7938	-3.3521	-3.3479	-3.7313	-3.2271	-3.6063	-3.5521	-3.0208	-3.85	-3.4542	-3.3563	-3.7021	-3.1479	-3.5563	263.936	514.787	408.543	445.233	291.349	365.663	454.978	369.507	415.533	517.628	220.499	402.047	449.394	245.782	453.479	185.788	0.00040648	8.8308e-05	5.2454e-05	1206.4	1.4846e-06	1.3335e-06	1262.4	244.1	2.4647e-06	1.9043e-06	301.25	85.307	66.725	19.092	4.2932e-06	27.231	9.7471e-05	8.5826e-05	2.1749e-05	1157.3	1.0186e-06	9.381e-07	1220.7	234.6	9.9405e-07	9.1582e-07	288.11	82.536	61.979	18.623	8.7639e-07	26.517	529.692	198.624	284.271	184.105	273.081	343.807	183.942	191.190	245.644	342.093	190.844	197.024	196.521	205.195	245.396	204.389	-8191	255	
5226.529	1	1	0	0	0.35413	0.1244	0.11008	0.42148	0.11631	0.223	0.31309	0.15532	0.20695	0.14994	0.071267	0.15026	0.06167	0.13929	0.13512	0.095526	-3.2208	-2.975	-3.5958	-3.6375	-3.4188	-3.7208	-3.1792	-3.5833	-3.5667	-3.2396	-3.6937	-3.4542	-3.2104	-3.8208	-3.0458	-3.4042	203.073	428.268	326.893	489.253	447.193	334.215	430.357	484.046	448.606	201.115	313.347	511.614	486.198	353.169	515.599	375.201	0.00032693	0.00030047	6.204e-05	1210.1	4.8453e-07	2.7952e-06	1266	244.53	4.139e-06	3.8645e-06	301.09	84.878	67.306	19.075	1.5842e-06	27.176	9.5798e-05	8.3773e-05	2.1577e-05	1159.7	9.9714e-07	9.0778e-07	1221.7	235.28	9.6149e-07	8.9855e-07	287.32	82.522	62.223	18.545	8.9163e-07	26.513	528.610	289.376	291.822	184.249	243.219	335.500	184.012	190.985	307.976	363.183	190.912	197.121	196.069	204.791	264.720	204.601	-8191	255	
5226.650	1	1	0	0	0.1917	0.30002	0.079975	0.34736	0.16797	0.14799	0.020394	0.080834	0.13752	0.38297	0.10303	0.27637	0.098213	0.098368	0.11017	0.068118	-3.1854	-3.2708	-3.7229	-3.5771	-3.1646	-3.6729	-3.3146	-3.5563	-3.475	-3.0563	-3.6562	-3.4646	-3.1354	-3.7271	-3.2104	-3.3229	227.023	243.443	382.215	499.220	236.581	486.842	528.992	266.423	281.085	376.583	488.003	468.093	360.121	515.613	470.713	237.742	0.00035027	0.00029951	8.042e-05	1206.7	3.0941e-07	4.1682e-06	1263.1	244.26	3.8409e-06	1.08e-06	302.5	85.41	68.046	18.963	2.6365e-06	27.131	9.5265e-05	8.0681e-05	2.2157e-05	1160.5	9.4066e-07	8.4646e-07	1220.2	235.09	9.2711e-07	8.6045e-07	287.9	82.511	62.252	18.544	9.0094e-07	26.49	175.727	322.492	242.883	184.062	300.521	300.403	183.879	191.159	245.379	337.053	191.035	197.232	197.003	205.124	301.738	204.933	-8191	255	
5226.746	1	1	0	0	0.13912	0.16849	0.13579	0.20017	0.18133	0.11518	0.23833	0.12636	0.221	0.24972	0.1214	0.13767	0.10675	0.021218	0.050504	0.29933	-3.1896	-3.0604	-3.5042	-3.5979	-2.9917	-3.7375	-3.4917	-3.6063	-3.7125	-3.1271	-3.4604	-3.5604	-3.1542	-3.6708	-3.3792	-3.2146	409.192	454.989	308.898	509.195	380.950	491.293	457.881	481.607	319.168	360.987	396.802	508.294	221.681	411.520	523.351	504.089	0.00038418	0.00024216	7.1605e-05	1209.4	1.9266e-06	6.0748e-07	1268.5	244.74	1.7048e-06	1.7156e-06	301.1	85.752	67.071	19.076	5.4621e-07	27.143	9.369e-05	7.8218e-05	2.3632e-05	1160.4	9.1538e-07	8.318e-07	1222.2	235.17	9.1995e-07	8.5403e-07	287.96	82.594	61.981	18.582	9.3758e-07	26.467	528.634	326.727	240.833	184.288	262.478	278.933	184.182	191.055	295.246	385.152	191.513	197.112	196.378	204.900	321.261	204.568	-8191	255	
5226.842	1	1	0	0	0.25383	0.23954	0.043895	0.085705	0.10238	0.065248	0.32781	0.23308	0.085648	0.14095	0.20023	0.14482	0.11753	0.11348	0.13989	0.023202	-3.425	-3.2646	-3.3875	-3.7313	-3.1708	-3.5792	-3.6583	-3.2042	-3.8854	-3.0833	-3.5292	-3.7083	-2.9104	-3.7396	-3.3688	-3.2479	217.653	209.928	227.381	464.367	338.157	365.536	452.607	468.691	392.107	390.577	186.469	514.776	413.812	239.506	397.570	502.859	0.00035384	0.00046626	0.00014251	1211.2	1.0588e-06	4.5406e-06	1262.7	243.66	3.5147e-06	2.2546e-06	302.54	85.199	67.527	19.061	2.6193e-06	27.461	9.0725e-05	7.8533e-05	2.4896e-05	1160.6	9.1681e-07	8.6886e-07	1220.7	235.12	9.1415e-07	8.6533e-07	288.7	82.314	61.942	18.597	1.0127e-06	26.514	527.915	232.279	253.395	184.269	253.887	361.516	183.918	191.198	241.238	353.468	190.997	197.428	196.680	205.102	304.888	204.990	-8191	255	
#DATA ENDS
