BOXY.EXE: ISS Imagent and Oximeter Data Acquisition Program Version 0.80
Ascii Record File

#ACQ INFORMATION
2  Detector Channels 
16  External MUX Channels 
1  Auxiliary Channels 
5000  Waveform (CCF) Frequency (Hz)
1  Waveforms Skipped 
30  Waveforms Averaged 
1  Cycles Averaged 
16  Acquisitions per Waveform 
10.0806  Updata Rate (Hz) 

#FILE INFORMATION
TRUE -- External MUX Channel results are PARSED.
FALSE -- AC DC and Phase are NOT grouped.
TRUE -- Companion Program Settings File CREATED.
FALSE -- AC data not excluded
FALSE -- DC data not excluded
FALSE -- Phase data not excluded
FALSE -- Auxillary Chn. data not excluded
Tab delimiters

#CALIBRATION STATE
TRUE -- Waveform Calibration Values APPLIED.


#AUX CALIBRATION VALUES
Val Type	aux-1	

Term	1.0000e+00	
Factor	0.0000e+00	


#WF CALIBRATION VALUES
A = Detector Channel
Val Type	A-AC1	A-AC2	A-AC3	A-AC4	A-AC5	A-AC6	A-AC7	A-AC8	A-AC9	A-AC10	A-AC11	A-AC12	A-AC13	A-AC14	A-AC15	A-AC16	A-DC1	A-DC2	A-DC3	A-DC4	A-DC5	A-DC6	A-DC7	A-DC8	A-DC9	A-DC10	A-DC11	A-DC12	A-DC13	A-DC14	A-DC15	A-DC16	A-Ph1	A-Ph2	A-Ph3	A-Ph4	A-Ph5	A-Ph6	A-Ph7	A-Ph8	A-Ph9	A-Ph10	A-Ph11	A-Ph12	A-Ph13	A-Ph14	A-Ph15	A-Ph16	

Term	0.00000e+00	0.00000e+00	0.00000e+00	0.00000e+00	0.00000e+00	0.00000e+00	0.00000e+00	0.00000e+00	0.00000e+00	0.00000e+00	0.00000e+00	0.00000e+00	0.00000e+00	0.00000e+00	0.00000e+00	0.00000e+00	0.00000e+00	0.00000e+00	0.00000e+00	0.00000e+00	0.00000e+00	0.00000e+00	0.00000e+00	0.00000e+00	0.00000e+00	0.00000e+00	0.00000e+00	0.00000e+00	0.00000e+00	0.00000e+00	0.00000e+00	0.00000e+00	0.00000e+00	0.00000e+00	0.00000e+00	0.00000e+00	0.00000e+00	0.00000e+00	0.00000e+00	0.00000e+00	0.00000e+00	0.00000e+00	0.00000e+00	0.00000e+00	0.00000e+00	0.00000e+00	0.00000e+00	0.00000e+00	
Factor	1.00000e+00	1.00000e+00	1.00000e+00	1.00000e+00	1.00000e+00	1.00000e+00	1.00000e+00	1.00000e+00	1.00000e+00	1.00000e+00	1.00000e+00	1.00000e+00	1.00000e+00	1.00000e+00	1.00000e+00	1.00000e+00	1.00000e+00	1.00000e+00	1.00000e+00	1.00000e+00	1.00000e+00	1.00000e+00	1.00000e+00	1.00000e+00	1.00000e+00	1.00000e+00	1.00000e+00	1.00000e+00	1.00000e+00	1.00000e+00	1.00000e+00	1.00000e+00	X	X	X	X	X	X	X	X	X	X	X	X	X	X	X	X	

B = Detector Channel
Val Type	B-AC1	B-AC2	B-AC3	B-AC4	B-AC5	B-AC6	B-AC7	B-AC8	B-AC9	B-AC10	B-AC11	B-AC12	B-AC13	B-AC14	B-AC15	B-AC16	B-DC1	B-DC2	B-DC3	B-DC4	B-DC5	B-DC6	B-DC7	B-DC8	B-DC9	B-DC10	B-DC11	B-DC12	B-DC13	B-DC14	B-DC15	B-DC16	B-Ph1	B-Ph2	B-Ph3	B-Ph4	B-Ph5	B-Ph6	B-Ph7	B-Ph8	B-Ph9	B-Ph10	B-Ph11	B-Ph12	B-Ph13	B-Ph14	B-Ph15	B-Ph16	

Term	0.00000e+00	0.00000e+00	0.00000e+00	0.00000e+00	0.00000e+00	0.00000e+00	0.00000e+00	0.00000e+00	0.00000e+00	0.00000e+00	0.00000e+00	0.00000e+00	0.00000e+00	0.00000e+00	0.00000e+00	0.00000e+00	0.00000e+00	0.00000e+00	0.00000e+00	0.00000e+00	0.00000e+00	0.00000e+00	0.00000e+00	0.00000e+00	0.00000e+00	0.00000e+00	0.00000e+00	0.00000e+00	0.00000e+00	0.00000e+00	0.00000e+00	0.00000e+00	-1.62352e+02	-1.41008e+02	-1.11495e+02	-1.83984e+02	-1.11418e+02	-7.45502e+01	-1.55811e+02	-1.62015e+02	-8.09347e+01	-4.80968e+01	-1.73154e+02	-1.73613e+02	-1.86815e+02	-1.78292e+02	-6.95269e+01	-1.50256e+02	
Factor	2.31503e-05	1.21955e-04	3.53977e-05	1.73479e-01	9.55770e-07	1.44040e-06	1.63553e-01	5.56841e-02	9.89360e-07	1.12439e-06	9.67085e-02	2.82450e-02	5.57543e-02	8.47876e-03	1.11573e-06	1.21845e-02	1.04864e-06	1.07952e-06	3.00291e-07	8.44363e-02	1.18273e-08	1.18528e-08	7.57509e-02	2.71375e-02	1.18471e-08	1.18386e-08	4.50717e-02	1.32853e-02	2.55029e-02	4.11310e-03	1.18525e-08	5.73167e-03	X	X	X	X	X	X	X	X	X	X	X	X	X	X	X	X	



#DISTANCE SETTINGS
A = Detector Channel
A-1	A-2	A-3	A-4	A-5	A-6	A-7	A-8	A-9	A-10	A-11	A-12	A-13	A-14	A-15	A-16	

2.5000e+00	3.0000e+00	2.5000e+00	3.0000e+00	2.0000e+00	3.0000e+00	1.5000e+00	3.0000e+00	3.0000e+00	3.0000e+00	3.0000e+00	3.0000e+00	3.0000e+00	3.0000e+00	1.5000e+00	3.0000e+00	

B = Detector Channel
B-1	B-2	B-3	B-4	B-5	B-6	B-7	B-8	B-9	B-10	B-11	B-12	B-13	B-14	B-15	B-16	

1.0000e+01	1.0000e+01	1.0000e+01	1.4400e+00	1.0000e+01	1.0000e+01	1.5100e+00	1.9400e+00	1.0000e+01	1.0000e+01	1.9900e+00	2.4900e+00	2.4100e+00	2.9000e+00	1.0000e+01	2.9800e+00	




#DATA BEGINS
time	group	step	mark	flag	A-AC1	A-AC2	A-AC3	A-AC4	A-AC5	A-AC6	A-AC7	A-AC8	A-AC9	A-AC10	A-AC11	A-AC12	A-AC13	A-AC14	A-AC15	A-AC16	A-DC1	A-DC2	A-DC3	A-DC4	A-DC5	A-DC6	A-DC7	A-DC8	A-DC9	A-DC10	A-DC11	A-DC12	A-DC13	A-DC14	A-DC15	A-DC16	A-Ph1	A-Ph2	A-Ph3	A-Ph4	A-Ph5	A-Ph6	A-Ph7	A-Ph8	A-Ph9	A-Ph10	A-Ph11	A-Ph12	A-Ph13	A-Ph14	A-Ph15	A-Ph16	B-AC1	B-AC2	B-AC3	B-AC4	B-AC5	B-AC6	B-AC7	B-AC8	B-AC9	B-AC10	B-AC11	B-AC12	B-AC13	B-AC14	B-AC15	B-AC16	B-DC1	B-DC2	B-DC3	B-DC4	B-DC5	B-DC6	B-DC7	B-DC8	B-DC9	B-DC10	B-DC11	B-DC12	B-DC13	B-DC14	B-DC15	B-DC16	B-Ph1	B-Ph2	B-Ph3	B-Ph4	B-Ph5	B-Ph6	B-Ph7	B-Ph8	B-Ph9	B-Ph10	B-Ph11	B-Ph12	B-Ph13	B-Ph14	B-Ph15	B-Ph16	aux-1	digaux	

5859.734	1	1	0	768	0.051983	0.26677	0.06384	0.16521	0.057318	0.099988	0.10417	0.15622	0.14604	0.10262	0.14498	0.13339	0.1034	0.17071	0.082967	0.4106	-2.4854	-3.0687	-2.8354	-3.1104	-3.2521	-2.8458	-3.0062	-3.225	-3.0458	-3.3	-2.9458	-3.0521	-3.3604	-3.0729	-3.0917	-3.3563	118.221	68.061	56.508	288.368	-33.237	-0.732	172.192	-2.610	-30.005	94.529	247.564	270.401	1.564	297.047	97.541	258.953	0.00034028	0.00027119	0.00022539	787.86	2.8766e-06	5.5275e-06	813.32	333.83	5.5851e-06	2.0243e-06	383.92	159.6	140.63	65.426	4.2632e-06	81.986	0.00067424	0.00069782	0.00020362	825.34	7.4448e-06	7.7764e-06	849.94	344.9	7.4499e-06	7.7791e-06	398.57	164.33	146.88	66.92	8.0767e-06	83.326	109.654	30.337	70.852	-46.716	-38.753	136.790	-47.520	-42.174	18.199	189.338	-44.576	-40.448	-38.791	-33.146	7.852	-36.408	-8191	255	
5859.831	1	1	0	0	0.13784	0.027624	0.061019	0.24182	0.063031	0.344	0.14525	0.29622	0.26342	0.22743	0.10378	0.23011	0.15332	0.27259	0.085531	0.21143	-2.4729	-3.0854	-2.9375	-2.9771	-3.2583	-2.8333	-3.1271	-3.1417	-2.8958	-3.1188	-3.1271	-2.9458	-3.1375	-2.8917	-2.9896	-3.1396	126.028	196.298	187.679	234.992	174.252	63.862	242.516	238.917	207.699	108.213	298.151	226.618	-54.793	267.868	146.804	264.267	0.00033819	0.00074359	0.00016882	788.25	4.9557e-06	3.375e-06	808.38	334.62	4.9148e-06	1.2303e-06	381.94	159.66	141.51	65.3	8.9137e-06	82.24	0.00067975	0.00072493	0.00020281	824.85	7.4332e-06	7.9924e-06	845.36	344.47	7.4408e-06	7.915e-06	397.94	164.58	147.07	67.001	7.8135e-06	83.407	140.470	41.351	80.024	-46.504	72.248	133.974	-47.509	-42.177	77.105	122.690	-44.547	-40.566	-39.101	-33.269	114.213	-36.338	-8191	255	
5859.927	1	1	0	0	0.32364	0.21175	0.061858	0.26654	0.13506	0.23371	0.10396	0.064823	0.38961	0.26806	0.25463	0.40519	0.042643	0.13256	0.072545	0.37454	-2.3833	-2.9771	-3.0687	-2.9813	-3.1271	-2.8896	-3.1937	-3.3146	-2.725	-3.0771	-2.9667	-2.825	-3.3542	-3.0729	-3.0333	-3.2667	-7.526	170.404	56.949	-37.514	241.483	134.803	275.249	275.532	7.678	-56.145	-9.620	206.430	46.219	250.132	83.492	207.378	0.00036474	0.00048331	0.00021668	788.84	2.3238e-06	3.7563e-06	810.64	334.45	3.6991e-06	3.2506e-06	383.87	158.62	141.29	65.451	5.9232e-06	81.81	0.00068171	0.00073014	0.00019577	823.2	7.5601e-06	8.0908e-06	844.07	344.51	7.6377e-06	8.1233e-06	397.55	163.48	147.63	66.92	7.8056e-06	82.984	126.313	72.779	17.015	-46.660	115.012	292.648	-47.807	-42.096	176.894	111.906	-44.476	-40.632	-38.558	-32.948	107.499	-36.430	-8191	255	
5860.023	1	1	0	0	0.057973	0.084054	0.18969	0.044324	0.30833	0.1412	0.095742	0.12849	0.12682	0.18287	0.26268	0.054365	0.26769	0.21083	0.18817	0.29373	-2.4313	-3.2438	-3.1083	-2.8958	-3.2333	-2.8396	-2.9437	-3.2875	-2.7125	-3.1979	-3.2083	-3.0542	-3.2083	-3.0021	-3.0687	-3.3708	249.400	249.428	21.184	14.742	112.389	129.040	67.730	265.185	234.448	188.145	-28.704	-44.609	265.497	296.808	82.919	-20.450	0.00047096	0.00070126	2.8539e-05	790.65	3.4327e-06	5.2827e-06	808.08	333.97	3.4898e-06	5.8171e-06	384.28	159.43	142.53	65.262	5.2074e-06	82.233	0.00070873	0.00074127	0.00019765	824.87	7.8938e-06	8.1432e-06	846.78	344.6	7.9723e-06	8.1285e-06	398.07	164.31	148.59	66.992	7.8312e-06	83.57	113.467	-15.021	259.121	-46.606	96.820	112.797	-47.428	-42.242	146.397	68.519	-44.356	-40.518	-38.650	-33.064	17.938	-36.227	-8191	255	
5860.117	1	1	0	0	0.17398	0.31906	0.26513	0.10709	0.13864	0.084364	0.19847	0.13595	0.13575	0.16447	0.18894	0.22855	0.059343	0.21432	0.13044	0.12174	-2.325	-3.1625	-2.9979	-2.9146	-3.3042	-3.0125	-3.0542	-3.2708	-2.9625	-3.0687	-3.3604	-2.9167	-3.2438	-3.1917	-2.7208	-3.2521	102.916	155.114	102.449	184.392	-8.550	5.965	159.406	125.212	52.285	187.628	175.929	279.034	119.907	258.151	63.193	170.071	0.00043602	0.00082806	0.00010959	788.96	2.5757e-06	7.366e-06	814.2	336.57	3.3307e-06	3.5541e-06	387.69	161.03	142.16	65.807	9.3231e-06	82.699	0.00073328	0.00073208	0.00019794	826.53	8.1117e-06	7.9967e-06	850.51	347.17	8.1601e-06	8.0535e-06	401.7	165.66	149.4	67.304	7.8108e-06	84.04	130.806	-29.335	-12.819	-46.463	143.883	51.883	-47.851	-42.193	104.131	83.271	-44.673	-40.383	-38.938	-33.221	92.411	-36.391	-8191	255	
5860.215	1	1	0	0	0.19077	0.095751	0.21213	0.14388	0.22331	0.045163	0.4181	0.16264	0.11746	0.24003	0.24071	0.23989	0.091604	0.12063	0.1707	0.29978	-2.5417	-2.9792	-3.1562	-3.0646	-3.0896	-3.0854	-2.875	-3.2792	-3.075	-3.2479	-3.1958	-2.975	-3.2354	-3.2687	-3.0271	-3.4167	276.129	85.953	207.250	35.790	233.369	136.220	251.339	256.280	160.157	208.811	-46.220	205.900	-14.793	-5.679	97.640	288.661	0.00030848	0.0011295	0.00034676	793.65	5.3087e-06	5.1661e-06	820.73	336.1	3.1717e-06	4.4606e-06	386.49	160.31	141.79	65.701	5.3829e-06	81.912	0.00075297	0.00072984	0.00019555	830.3	8.2921e-06	8.0241e-06	850.95	347.59	8.2699e-06	7.9676e-06	399.71	165.54	149.43	67.177	7.6275e-06	83.502	107.181	3.162	-20.395	-46.646	60.450	90.086	-47.372	-41.984	61.792	81.247	-44.521	-40.721	-38.560	-33.114	77.414	-36.440	-8191	255	
5860.334	1	1	0	0	0.34478	0.15727	0.2132	0.1374	0.18111	0.2026	0.23264	0.28146	0.11739	0.038855	0.022222	0.054426	0.082995	0.058588	0.027679	0.32066	-2.3458	-3.1708	-3.0771	-2.7583	-3.1646	-3.0833	-3.1208	-3.275	-2.9104	-3.0167	-3.3125	-3.0208	-3.2104	-3.3708	-2.5771	-3.2667	101.238	175.514	274.744	258.384	-10.792	99.294	292.277	253.555	244.961	198.418	215.522	276.706	110.380	-43.787	243.159	246.403	0.0002495	0.00096044	0.00022625	790.09	2.9142e-06	7.986e-06	809.03	336.53	3.0579e-06	3.6986e-06	386.69	159.91	142.33	65.602	6.1014e-07	82.545	0.00075123	0.00072324	0.00019285	829.29	8.1938e-06	7.8221e-06	846.68	348.36	8.1379e-06	7.7673e-06	399.27	165.26	148.91	67.072	7.5354e-06	83.786	129.837	-21.800	24.814	-46.603	13.896	255.546	-47.667	-42.238	117.962	111.441	-44.294	-40.724	-38.681	-33.182	253.781	-36.240	-8191	255	
5860.430	1	1	0	0	0.12095	0.12935	0.077055	0.31938	0.073361	0.049193	0.1924	0.10816	0.10488	0.15656	0.025453	0.21492	0.22334	0.26758	0.11479	0.13507	-2.6479	-3.0625	-3.0667	-3.0792	-3.2021	-3.1646	-3.0875	-3.3792	-3.1958	-2.9271	-3.2708	-3.0667	-3.1521	-3.5125	-2.8375	-3.35	25.762	191.116	271.570	2.840	-53.321	288.243	138.070	18.628	90.824	-52.580	70.774	253.092	-53.883	231.261	101.489	244.077	0.00042021	0.00035119	3.2565e-05	791.33	3.1836e-06	3.2795e-06	814.4	337.61	5.3975e-06	8.2163e-06	385.83	160.73	142.89	65.429	2.4262e-06	82.248	0.00072955	0.00070581	0.00019305	832.42	7.9882e-06	7.7193e-06	848.12	349.35	8.0876e-06	7.7875e-06	399.72	165.9	149.38	67.086	7.7663e-06	83.785	128.021	85.980	-53.152	-46.642	7.767	53.764	-47.495	-42.310	161.641	102.925	-44.762	-40.410	-38.501	-33.022	278.741	-36.103	-8191	255	
5860.526	1	1	0	0	0.096476	0.18013	0.12188	0.14874	0.063818	0.26844	0.39935	0.13508	0.059967	0.071595	0.102	0.55352	0.33493	0.31685	0.26533	0.39088	-2.6312	-2.7562	-3.1792	-3.1292	-2.9979	-3.2604	-2.9313	-3.2979	-3.0563	-3.0021	-3.2333	-3.0292	-2.7729	-3.2396	-2.7917	-3.2604	76.469	22.932	164.349	259.595	76.611	250.856	268.384	162.926	209.398	117.090	220.481	238.121	210.115	268.771	3.214	251.801	0.00037592	0.000525	0.0003208	791.1	7.7409e-06	3.699e-06	815.33	337.45	4.5536e-06	2.1746e-06	388.47	161.72	142.75	65.589	8.4617e-06	82.514	0.00072574	0.00070694	0.00019954	831.79	8.0106e-06	7.724e-06	851.25	349.56	8.0073e-06	7.6984e-06	402.37	166.66	149.26	67.21	8.112e-06	84.18	129.418	53.055	96.831	-46.473	33.954	77.305	-47.629	-42.086	103.982	-7.308	-44.490	-40.650	-39.012	-32.993	177.132	-36.176	-8191	255	
5860.623	1	1	0	0	0.11302	0.085529	0.16137	0.25857	0.25074	0.2248	0.2424	0.17509	0.1682	0.053354	0.1143	0.21126	0.15518	0.051136	0.13397	0.32981	-2.575	-2.6542	-3.1875	-2.9604	-2.7562	-3.25	-2.8125	-3.2	-3.1146	-2.8042	-3.1875	-3.2604	-3.0333	-3.4667	-3.0979	-3.2375	193.824	15.471	157.119	-56.359	236.734	35.050	210.147	140.073	235.739	22.957	256.649	270.985	159.091	283.822	215.987	263.386	0.00035011	0.00068424	8.0674e-05	793.23	2.7641e-06	2.1813e-06	818.91	339.64	4.4488e-06	1.266e-05	387.31	161.72	142.48	65.579	5.4133e-06	82.385	0.00072633	0.00070041	0.00020687	832.39	7.9939e-06	7.7444e-06	855.94	350.73	7.9959e-06	7.7736e-06	404.15	166.96	149.41	67.183	8.4275e-06	84.077	137.945	-54.772	48.773	-46.496	109.105	161.836	-47.629	-42.042	90.826	149.121	-44.488	-40.604	-38.915	-32.943	164.938	-36.190	-8191	255	
5860.719	1	1	0	0	0.022631	0.040262	0.060664	0.20961	0.17143	0.22122	0.24364	0.19077	0.17824	0.17301	0.25822	0.33161	0.26029	0.16339	0.2155	0.36622	-2.8271	-2.8125	-3.1042	-2.9833	-2.8167	-3.275	-3.0042	-3.1875	-3.1458	-2.9375	-3.2854	-3.1896	-2.9083	-3.3271	-2.975	-3.0438	-28.666	131.314	172.430	4.252	-20.887	-36.433	297.363	274.989	242.488	123.757	-54.703	209.350	-27.459	296.576	42.852	231.185	0.00026941	0.00083016	9.3893e-05	794.09	6.4545e-06	1.021e-05	815.06	337.38	2.1296e-06	1.0521e-05	386.89	159.53	142.22	65.327	6.1882e-06	81.556	0.00072837	0.00072145	0.00021523	834.19	7.9594e-06	7.9231e-06	855.83	349.61	7.9397e-06	7.8782e-06	402.44	165.05	148.39	66.886	8.4601e-06	82.969	119.283	58.213	154.911	-46.758	39.147	101.145	-47.557	-42.281	80.381	113.964	-44.628	-40.577	-38.737	-33.127	111.791	-36.057	-8191	255	
5860.815	1	1	0	0	0.21047	0.18177	0.22009	0.17919	0.13145	0.12931	0.1282	0.17089	0.14003	0.15341	0.050359	0.39394	0.22266	0.13622	0.02918	0.13513	-2.8792	-2.8583	-3.0729	-3.0917	-3.0187	-3.1979	-3.0062	-3.0729	-3.3167	-2.8083	-3.2208	-3.3417	-2.9479	-3.2792	-2.9104	-3.1562	139.726	274.665	225.070	263.408	-35.092	-50.498	-35.169	220.259	212.973	118.517	259.282	254.627	39.934	203.025	-6.836	264.841	0.00046024	0.00058302	0.00031264	789.39	2.6509e-06	4.7729e-06	811.94	337.54	5.6837e-06	4.3478e-06	383.11	159.23	141.42	65.353	8.3834e-06	81.632	0.00071338	0.0007358	0.00021301	829.9	7.8048e-06	8.0715e-06	851.23	348.53	7.7987e-06	8.1318e-06	400.69	164.74	148.2	66.936	8.4067e-06	82.944	130.843	115.244	76.020	-46.587	217.781	113.370	-47.587	-42.319	51.635	240.060	-44.561	-40.509	-38.722	-33.111	100.810	-36.214	-8191	255	
5860.935	1	1	0	0	0.1998	0.11619	0.13785	0.15805	0.18464	0.17014	0.14464	0.33259	0.13118	0.088633	0.080301	0.075685	0.073499	0.27738	0.087424	0.051318	-2.7167	-2.8229	-3.225	-3.1167	-2.9333	-3.225	-3.1125	-3.2167	-3.1063	-2.9021	-3.0771	-3.3063	-3.0083	-3.4333	-3.0187	-2.9333	220.496	274.980	-59.720	230.742	132.865	56.922	294.261	230.174	176.266	178.161	196.839	-17.941	130.976	263.913	94.234	118.414	0.00027776	0.00093396	0.00031298	792.85	1.7244e-06	5.1756e-06	814.35	336.99	5.4453e-06	5.0544e-06	388.82	160.26	142.27	65.819	8.9974e-06	82.321	0.00070608	0.00075002	0.00021223	829.92	7.8151e-06	8.358e-06	852.16	348.66	7.7835e-06	8.3237e-06	402.26	164.97	148.5	67.435	8.1895e-06	83.779	134.375	66.470	59.284	-46.433	47.557	82.053	-47.504	-42.219	225.515	117.857	-44.395	-40.692	-38.793	-33.336	55.094	-36.238	-8191	255	
5861.030	1	1	0	0	0.17249	0.12571	0.068533	0.099432	0.21307	0.085333	0.21241	0.079394	0.25967	0.14975	0.33461	0.11527	0.16965	0.27593	0.1493	0.27893	-2.8438	-2.9479	-3.0042	-3.3521	-2.7875	-3.0771	-3.2125	-2.9188	-3.1354	-3.0604	-3.1625	-3.2313	-2.9229	-3.3083	-3.0646	-3.0354	99.668	154.555	-7.009	122.889	290.953	-27.242	274.171	-2.138	91.965	262.844	250.515	298.866	61.679	-30.649	243.590	210.054	0.00044932	0.00071019	0.0003547	793.38	2.6742e-06	6.154e-06	816.16	340.71	6.0421e-06	3.1811e-06	389.68	161.55	142.44	65.523	8.8019e-06	82.647	0.00071145	0.00076143	0.00020599	829.69	7.8083e-06	8.3528e-06	853.43	350.49	7.8796e-06	8.3472e-06	404.39	166.46	149.38	67.276	8.1035e-06	83.934	141.006	33.168	54.722	-46.299	18.290	85.887	-47.490	-42.223	71.553	187.101	-44.490	-40.575	-38.870	-33.228	82.175	-36.329	-8191	255	
5861.126	1	1	0	0	0.068547	0.17058	0.15762	0.15863	0.17278	0.16642	0.062072	0.14298	0.081435	0.22539	0.21757	0.27575	0.11444	0.20525	0.059867	0.19193	-2.7354	-2.9437	-2.9437	-3.3792	-2.8104	-3.2687	-3.2229	-3.0021	-3.3875	-2.9688	-3.0146	-3.4229	-2.9854	-3.2667	-3.2292	-3.0396	94.120	-60.104	78.153	217.898	123.389	74.582	-26.372	225.748	-37.915	198.889	238.047	293.042	291.534	286.184	221.325	217.770	0.00039995	0.00073012	0.00025755	792.74	7.6228e-06	4.8782e-06	815.86	339.47	5.9142e-06	2.5914e-06	387.2	160.8	142.68	65.222	3.5906e-06	81.714	0.00072702	0.00076605	0.00020465	829.63	8.1445e-06	8.4409e-06	854.24	349.79	8.2875e-06	8.4307e-06	401.94	165.39	149.83	67.124	8.0916e-06	83.008	135.177	-9.902	15.123	-46.496	92.721	52.327	-47.542	-42.243	178.753	194.582	-44.304	-40.687	-39.031	-33.103	106.883	-36.143	-8191	255	
5861.222	1	1	0	0	0.13236	0.20964	0.12818	0.26394	0.1896	0.1654	0.10859	0.17037	0.095951	0.13561	0.2599	0.18354	0.39287	0.30798	0.16999	0.36573	-2.7521	-2.9833	-3.0146	-3.1333	-2.7458	-3.1146	-3.175	-3.0167	-3.0604	-3.2104	-3.0417	-3.2792	-2.9188	-3.1688	-3.1125	-2.9125	-40.588	168.774	65.806	215.786	207.705	136.275	202.972	279.679	233.188	-3.049	213.861	162.847	221.849	284.486	242.141	252.685	0.00033872	0.0006755	0.00017493	790.44	5.658e-06	1.2763e-05	815.36	336.92	2.705e-06	2.5385e-06	381.95	158.34	140.79	64.951	4.5172e-06	80.54	0.00075465	0.00076102	0.00020476	828.33	8.4016e-06	8.3438e-06	851.68	347.64	8.4704e-06	8.3372e-06	397.4	163.33	148.91	66.518	8.0806e-06	81.928	115.728	5.605	58.459	-46.547	62.651	56.202	-47.668	-42.163	279.993	51.707	-44.618	-40.470	-38.661	-32.968	66.010	-36.111	-8191	255	
5861.296	1	1	0	0	0.17461	0.16564	0.18395	0.16299	0.093021	0.20331	0.26271	0.28267	0.093847	0.15735	0.26634	0.050298	0.075166	0.51535	0.26871	0.016268	-2.8229	-2.9417	-2.8208	-3.2417	-2.9083	-2.9708	-3.2083	-3.1083	-3.2687	-3.1958	-3.0583	-3.4125	-2.8187	-3.1583	-3.1604	-3.0146	124.581	246.537	211.997	148.893	89.533	249.731	195.806	-4.838	-50.251	135.039	-53.649	189.927	240.081	269.843	97.258	29.445	0.00022885	0.00042598	0.00019941	790.34	4.3208e-06	3.7509e-06	809.06	333.8	4.2436e-06	2.4895e-06	381.69	156.67	141.38	64.716	9.5261e-06	80.344	0.00077974	0.00075817	0.0002048	827.71	8.6054e-06	8.3408e-06	846.5	346.34	8.6288e-06	8.2375e-06	396.82	162.61	148.87	66.196	7.9391e-06	81.962	116.801	27.589	81.968	-46.567	8.298	-3.302	-47.411	-42.248	93.502	146.629	-44.514	-40.537	-38.313	-32.733	77.584	-36.294	-8191	255	
5861.414	1	1	0	0	0.091943	0.22424	0.10218	0.07578	0.037051	0.052417	0.28264	0.23289	0.076289	0.20099	0.04904	0.18022	0.16241	0.3045	0.066891	0.32949	-2.75	-3	-2.8104	-3.3896	-3.0708	-2.9854	-3.3	-3.0375	-3.1229	-3.1146	-2.9729	-3.375	-2.8792	-3.1354	-3.2521	-3.0333	130.030	-27.376	125.455	192.976	154.046	-52.442	243.455	-56.649	134.584	273.972	266.119	-45.926	129.702	241.852	79.756	272.694	0.00037783	0.00053779	0.00030868	789.68	5.8143e-06	2.0239e-06	813.86	335.39	2.881e-06	2.8793e-06	384.41	158	140.34	64.638	6.5067e-06	80.857	0.00077735	0.00074738	0.00020105	830.74	8.5822e-06	8.2112e-06	850.05	348.06	8.5842e-06	8.201e-06	398.15	163.65	148.45	66.387	7.979e-06	82.405	136.068	9.717	64.002	-46.432	24.115	111.551	-47.761	-42.381	43.108	177.112	-44.626	-40.598	-38.521	-32.767	156.167	-36.358	-8191	255	
5861.511	1	1	0	0	0.096557	0.22042	0.1076	0.17682	0.19047	0.098641	0.25709	0.16625	0.18338	0.24176	0.10269	0.41107	0.1866	0.092651	0.24871	0.18314	-2.6625	-3.1333	-2.8625	-3.2646	-3.1354	-2.9521	-3.3604	-2.9667	-3.2583	-3.1667	-2.9625	-3.1292	-2.9854	-3.0833	-3.2417	-3.1667	214.169	29.528	-41.982	244.501	84.499	140.211	-49.773	277.411	53.172	278.741	190.248	235.016	-54.178	-40.078	238.260	262.169	0.00032803	0.00023814	5.044e-05	791.18	7.7594e-06	3.7515e-06	814.18	336.38	6.7337e-06	4.8962e-06	381.88	156.84	139.69	64.471	8.7754e-06	79.907	0.00077082	0.00074463	0.00020468	834.4	8.4671e-06	8.1495e-06	851.51	348.2	8.5775e-06	8.2537e-06	396.77	163.24	147.95	66.024	8.4042e-06	81.94	136.204	127.468	149.739	-46.495	35.683	34.597	-47.514	-42.352	-2.388	73.142	-44.552	-40.404	-38.747	-33.025	115.031	-36.280	-8191	255	
5861.607	1	1	0	0	0.20575	0.24534	0.0089497	0.32815	0.22999	0.13828	0.093954	0.19954	0.13923	0.22231	0.33646	0.12231	0.11619	0.20313	0.28678	0.2134	-2.7	-3.1646	-2.8	-3.1917	-3.2167	-2.9188	-3.4771	-3.0979	-3.0062	-3.2333	-3.0563	-3.0083	-3.1333	-2.9979	-3.3021	-3.1292	193.682	119.004	122.843	212.491	15.265	26.026	-52.929	299.844	272.597	98.732	292.401	268.757	270.270	285.218	186.138	155.627	0.00023775	0.00074864	0.00010747	792.17	6.6789e-06	7.288e-06	815.8	335.22	5.0485e-06	4.3688e-06	381.13	157.53	139.53	64.614	7.1286e-06	80.115	0.00077926	0.00075095	0.00021174	835.62	8.4941e-06	8.2272e-06	855.52	347.65	8.4618e-06	8.0553e-06	398.13	163.52	147.96	66.069	8.3126e-06	81.857	138.381	-42.605	89.422	-46.569	30.061	119.638	-47.502	-42.165	140.067	173.234	-44.467	-40.821	-38.778	-32.839	180.356	-36.293	-8191	255	
5861.703	1	1	0	0	0.29942	0.077185	0.073707	0.14149	0.18536	0.21204	0.18858	0.19281	0.20493	0.25477	0.20615	0.35179	0.13657	0.34494	0.058578	0.32962	-2.5896	-3.1625	-2.8875	-3.0979	-3.0625	-2.9375	-3.4021	-3.1958	-2.9	-3.2062	-3.0833	-3.2562	-3.1042	-3.0458	-3.3208	-3.3063	145.147	-18.835	212.678	251.811	-26.049	220.769	207.669	232.433	-5.945	148.430	20.014	264.715	-48.484	254.652	-59.895	231.919	0.00045459	0.0010656	0.00023779	790.93	4.4033e-06	1.6702e-06	814.35	332.89	5.7286e-06	3.8825e-06	378.99	156.51	140.7	64.519	8.1174e-06	80.318	0.00075684	0.00073204	0.00021511	833.46	8.3342e-06	8.0575e-06	854.08	346.99	8.266e-06	8.0005e-06	396.61	162.39	147.4	66.03	8.5442e-06	81.883	138.731	51.392	117.206	-46.607	67.365	212.639	-47.642	-41.996	42.591	134.442	-44.468	-40.654	-38.768	-33.083	230.197	-36.009	-8191	255	
5861.824	1	1	0	0	0.14048	0.13667	0.066598	0.21821	0.25795	0.15522	0.46592	0.26473	0.14228	0.067789	0.12853	0.2454	0.24941	0.38923	0.15464	0.28677	-2.6104	-3.2417	-2.8438	-3.1167	-3.0521	-2.8417	-3.3187	-3.2292	-2.9333	-3.2583	-2.9437	-3.2354	-3.3646	-2.9958	-3.2313	-3.2333	270.392	-19.512	237.862	-57.077	197.880	5.374	282.210	287.611	218.142	239.720	223.080	292.368	222.927	-50.348	262.917	271.230	0.00024316	0.00043816	9.8091e-05	793.45	7.9458e-06	3.9329e-06	818.48	336.52	1.2945e-05	3.3898e-06	384.37	158.77	141.6	64.768	3.26e-06	80.973	0.00073699	0.00072871	0.00021617	831.96	8.0112e-06	7.9723e-06	857.32	348.56	7.9651e-06	7.9452e-06	400.97	164.19	147.87	66.452	8.5392e-06	82.568	119.392	28.061	18.236	-46.665	63.260	93.945	-47.631	-42.313	104.285	51.927	-44.514	-40.499	-38.708	-33.037	180.798	-36.101	-8191	255	
5861.895	1	1	0	0	0.037553	0.11082	0.16319	0.27622	0.17006	0.089658	0.26252	0.26833	0.071006	0.23791	0.089664	0.17367	0.3113	0.21473	0.14161	0.14815	-2.525	-3.2146	-2.9	-3.0958	-3.1437	-2.8167	-3.3729	-3.0958	-2.7562	-3.3667	-2.9417	-3.1229	-3.2833	-2.9604	-3.0083	-3.3604	-33.874	-42.855	287.853	285.828	66.872	178.713	196.048	193.719	226.249	94.290	-54.092	255.776	-24.842	207.325	227.174	-18.459	0.0003491	0.00060306	0.00052501	792.56	2.5417e-06	7.7222e-06	814.87	338.33	2.7233e-06	2.462e-06	388.55	159.05	141.01	65.132	4.1809e-06	81.819	0.0007156	0.00072762	0.00021448	831.2	7.8566e-06	8.1103e-06	855.08	349.22	7.8216e-06	8.1042e-06	403.12	165	147.86	66.771	8.3573e-06	83.039	141.369	-2.566	24.421	-46.590	278.323	132.998	-47.841	-42.450	74.478	-37.073	-44.544	-40.412	-38.657	-32.955	132.876	-36.337	-8191	255	
5862.016	1	1	0	0	0.253	0.20579	0.11744	0.097753	0.078333	0.087748	0.079553	0.25799	0.13846	0.073214	0.028962	0.03733	0.23267	0.097698	0.05702	0.29517	-2.25	-3.2271	-2.9917	-3.0542	-3.2562	-3.0187	-3.2417	-3.2062	-2.8937	-3.1354	-3.0875	-3.0312	-3.2229	-3.1604	-2.9875	-3.2208	-51.786	-29.942	-9.122	175.649	296.394	204.404	-12.645	220.513	-31.446	247.602	-22.093	196.990	108.192	-26.456	242.614	268.745	0.00037779	0.00061486	0.00026597	791.1	4.9102e-06	2.8248e-06	817.85	337.62	3.5371e-06	9.9865e-06	384.26	159.03	140.78	64.994	2.2795e-06	80.945	0.00070404	0.00074612	0.00021069	829.94	7.7779e-06	8.3994e-06	856.05	348.88	7.7997e-06	8.3147e-06	402.56	164.56	147.66	66.612	8.4161e-06	82.501	133.982	38.026	-37.526	-46.628	32.368	90.370	-47.304	-42.140	71.162	164.757	-44.495	-40.600	-38.525	-33.113	120.534	-36.398	-8191	255	
5862.110	1	1	0	0	0.15157	0.15545	0.16797	0.27763	0.14184	0.13051	0.14623	0.16299	0.23966	0.097653	0.26513	0.13375	0.071999	0.2092	0.088557	0.059801	-2.4979	-3.1937	-3.0458	-2.9604	-3.3187	-2.8812	-3.2542	-3.1083	-2.8417	-3.175	-3.1458	-3.0833	-3.1854	-2.9875	-2.9	-3.1562	65.065	181.462	195.387	251.261	69.817	10.356	235.418	259.793	184.795	75.822	289.768	206.156	-1.247	-41.315	106.834	104.953	0.00034024	0.00087148	0.00015706	790.68	1.3746e-06	6.6254e-06	814.75	334.57	5.5556e-06	5.0897e-06	383.26	157.4	140.95	64.324	9.1584e-06	79.968	0.00073186	0.00078112	0.00021148	829.83	7.9384e-06	8.6147e-06	854.11	346.59	8.1024e-06	8.5935e-06	398.81	162.84	147.56	66.137	8.2905e-06	81.504	133.986	8.611	96.391	-46.536	64.456	72.313	-47.604	-42.205	81.739	159.571	-44.396	-40.587	-38.369	-32.972	116.274	-36.171	-8191	255	
5862.206	1	1	0	0	0.28897	0.14565	0.098182	0.26674	0.093969	0.16001	0.25207	0.16146	0.061456	0.14607	0.2773	0.14733	0.16898	0.13525	0.079668	0.18166	-2.5375	-3.125	-3.0271	-3.0479	-3.1458	-2.975	-3.0292	-3.2146	-2.9542	-3.3187	-3.1292	-2.9292	-3.2042	-3.1	-3.0354	-3.4167	57.297	66.446	10.303	226.569	245.034	227.782	247.189	177.806	8.649	75.908	-58.226	-22.127	283.339	-57.666	-59.529	287.580	0.00039325	0.00068757	0.00028869	785.17	5.5599e-06	6.8112e-06	810.24	332.57	2.8829e-06	6.4597e-06	378.83	155.54	139.71	64.049	3.4721e-06	78.886	0.00074395	0.00078451	0.00020896	825.04	8.2449e-06	8.5807e-06	847.01	344.3	8.4457e-06	8.6489e-06	394.38	160.64	146.97	65.539	8.3514e-06	80.337	134.314	30.055	62.556	-46.422	99.364	83.697	-47.345	-42.262	107.748	170.360	-44.693	-40.248	-38.667	-32.987	183.263	-36.381	-8191	255	
5862.303	1	1	0	0	0.091939	0.19369	0.10906	0.37565	0.10674	0.21067	0.24305	0.23478	0.10672	0.27973	0.13927	0.20813	0.22936	0.27957	0.23302	0.13907	-2.3229	-3.1562	-3.075	-3.0583	-3.2646	-2.9125	-3.1146	-3.2062	-2.825	-3.1562	-3.2771	-2.9958	-3.175	-3.1896	-2.9042	-3.3979	153.066	137.527	274.196	251.584	-42.505	-54.936	238.649	281.648	144.257	218.847	-39.761	-33.427	296.759	274.024	209.624	200.060	0.0003085	0.00023126	0.00013044	782.52	3.6003e-06	3.9798e-06	807.84	331.89	8.3514e-06	7.2439e-07	374.38	154.01	137.49	63.039	5.0906e-07	77.806	0.00077494	0.00078552	0.00021005	823.9	8.6623e-06	8.6533e-06	845.53	343.32	8.7618e-06	8.6668e-06	391.54	159.76	146.73	64.999	8.4032e-06	79.627	123.461	-39.961	42.048	-46.455	105.006	118.847	-47.596	-42.256	150.104	270.422	-44.336	-40.408	-38.678	-33.034	41.905	-36.223	-8191	255	
5862.423	1	1	0	0	0.11149	0.16582	0.13526	0.052064	0.11521	0.13019	0.22454	0.10859	0.18687	0.17728	0.21289	0.19055	0.29749	0.2428	0.13833	0.23477	-2.4333	-3.125	-3.1896	-3.0104	-3.1833	-3.1063	-2.9333	-3.3792	-2.9604	-3.0958	-3.3833	-3.0854	-3.2687	-3.3063	-3.0833	-3.4125	294.457	138.098	-6.229	181.863	25.910	-57.605	247.138	266.073	14.124	172.509	288.283	279.295	211.103	295.209	88.501	214.112	0.00030211	0.00042864	0.00018194	778.91	1.7614e-06	1.0008e-05	808.21	329.43	9.1755e-06	1.8957e-06	377.21	155.63	138.32	63.926	6.5391e-06	79.266	0.00081935	0.00079398	0.00021291	824.33	8.893e-06	8.6195e-06	848.84	342.17	8.8124e-06	8.4531e-06	393.14	161	147.58	65.496	8.2287e-06	80.879	148.335	-9.074	35.013	-46.418	43.994	29.109	-47.646	-42.143	59.485	242.872	-44.227	-40.486	-38.443	-32.830	288.007	-36.139	-8191	255	
5862.519	1	1	0	0	0.1451	0.038898	0.10987	0.188	0.079184	0.21809	0.1774	0.31018	0.062602	0.19496	0.08529	0.24267	0.43454	0.22875	0.2227	0.16444	-2.5729	-2.9458	-3.1312	-3.0021	-3.1354	-3.1021	-3.25	-3.3333	-2.8208	-3.1604	-3.1583	-2.8458	-3.0542	-3.1937	-2.8479	-3.1333	144.278	121.756	81.657	222.434	137.939	18.617	186.386	259.616	222.063	36.879	-14.592	263.005	269.715	279.219	285.160	219.905	0.00031152	0.00087637	0.00017134	785.93	4.141e-06	1.0907e-05	813.91	332.57	2.23e-06	6.8786e-06	380.6	157.86	140.58	64.526	4.991e-06	80.757	0.00080251	0.00078023	0.00020769	830.09	8.812e-06	8.4329e-06	851.58	345.22	8.7623e-06	8.3524e-06	396.17	163.52	148.51	66.232	8.0306e-06	82.449	115.168	-15.723	52.981	-46.676	79.283	85.996	-47.588	-42.260	81.513	119.612	-44.824	-40.446	-38.731	-32.840	106.062	-36.379	-8191	255	
5862.591	1	1	0	0	0.14326	0.087409	0.27291	0.23255	0.29842	0.083168	0.078614	0.18396	0.13552	0.22614	0.18663	0.050313	0.17652	0.1417	0.070669	0.2061	-2.5604	-2.7958	-3.2396	-2.8937	-3	-3.0667	-3.0125	-3.1958	-3.0312	-2.9417	-3.3521	-3.0375	-3.2354	-3.3708	-2.8333	-3.3646	7.284	182.143	288.393	16.305	127.858	240.050	232.400	247.331	8.242	-50.108	117.900	200.173	280.382	211.072	87.229	218.114	0.00030516	0.00072752	0.00015677	787.87	1.3741e-06	1.4923e-05	817.82	333.76	3.7442e-06	6.0435e-06	381.86	157.58	140.22	64.411	6.9554e-06	79.951	0.000776	0.00074586	0.00020358	832.29	8.5535e-06	8.2612e-06	854.66	347.63	8.5757e-06	8.2515e-06	397.24	163.4	148.26	65.908	8.2475e-06	81.929	152.522	-26.580	65.416	-46.329	-50.421	82.466	-47.653	-41.874	72.553	66.674	-44.398	-40.530	-38.729	-32.914	197.968	-35.858	-8191	255	
5862.712	1	1	0	0	0.19915	0.27054	0.10676	0.1153	0.28389	0.31925	0.24971	0.20915	0.22633	0.031329	0.21183	0.11679	0.14597	0.30549	0.12324	0.10058	-2.5938	-2.7833	-3.25	-3.0292	-2.9188	-3.15	-3.0396	-3.2292	-3.0271	-2.95	-3.3792	-3.0896	-3.2021	-3.4083	-2.9979	-3.3771	-15.771	163.921	-33.216	201.767	226.942	-29.398	1.647	-59.264	183.533	232.322	-43.879	237.452	231.361	274.250	200.703	219.176	0.00038662	0.00093986	8.7105e-05	788.12	3.3694e-06	1.1037e-05	810.66	335.09	2.0749e-06	7.2539e-06	382.84	156.72	140.95	64.236	3.19e-06	79.779	0.00077083	0.00074483	0.00020735	831.64	8.4259e-06	8.1148e-06	851.36	347.55	8.3913e-06	8.0562e-06	397.51	162.98	148.25	65.847	8.4642e-06	81.722	149.262	26.318	149.951	-46.614	33.732	35.370	-47.779	-42.243	224.037	100.549	-44.595	-40.596	-38.366	-32.857	74.409	-36.085	-8191	255	
5862.808	1	1	0	0	0.11297	0.13454	0.16499	0.18525	0.16881	0.062401	0.1745	0.10583	0.13708	0.21209	0.064256	0.22108	0.18518	0.31028	0.20827	0.25813	-2.5854	-2.7375	-3.1708	-3.0396	-2.9875	-3.0979	-3.0292	-3.2062	-3.0604	-3.0875	-3.2521	-2.9896	-3.2625	-3.2646	-2.9479	-3.15	150.274	211.051	148.653	80.027	223.298	-22.302	40.823	170.877	-7.800	85.453	294.727	-28.003	-26.106	287.187	62.591	261.935	0.0003295	0.00019764	0.00014086	782.73	1.7342e-06	1.4008e-05	819.13	333.5	1.0594e-06	4.4786e-07	382.36	157.25	140.47	64.509	9.3397e-06	80.324	0.00076461	0.00074362	0.00021767	831.2	8.5134e-06	8.2302e-06	856.62	347.52	8.521e-06	8.257e-06	399.6	163.77	148.14	66.035	8.7758e-06	82.202	129.387	200.476	17.098	-46.424	88.182	93.007	-47.672	-41.999	177.743	141.096	-44.395	-40.332	-38.502	-32.933	65.043	-36.068	-8191	255	
5862.904	1	1	0	0	0.050721	0.18208	0.056554	0.17693	0.21599	0.21748	0.07875	0.21282	0.21179	0.094508	0.050376	0.30075	0.25375	0.044236	0.13917	0.30629	-2.7375	-2.8042	-3.2	-3.1771	-2.9229	-3.1667	-2.9604	-3.1521	-2.9938	-2.9583	-3.4917	-3.3083	-2.8646	-3.375	-3.0667	-3.0812	21.990	-37.737	168.419	299.500	-49.588	26.637	-41.281	184.803	290.461	261.011	168.832	250.439	219.634	-36.916	229.097	235.035	0.00041688	0.00011648	0.00033845	793	1.2115e-06	8.9959e-06	814.36	332.92	7.8818e-07	3.8116e-06	385.38	157.97	140.74	64.433	2.6242e-06	80.822	0.00076046	0.00075572	0.0002262	832.38	8.3256e-06	8.3122e-06	857.34	346.84	8.3518e-06	8.323e-06	401.84	163.94	148.06	66.2	9.0137e-06	82.507	135.269	13.440	34.370	-46.324	-26.194	42.091	-47.475	-42.307	159.103	51.114	-44.370	-40.692	-38.651	-32.990	227.756	-35.909	-8191	255	
5863.000	1	1	0	0	0.21411	0.24132	0.086671	0.2328	0.19073	0.058292	0.36192	0.17437	0.19474	0.12749	0.17159	0.3303	0.2529	0.14829	0.31089	0.27938	-2.8312	-2.8812	-3.2708	-3.2979	-2.8917	-3.2708	-3.1021	-3.1688	-3.0625	-2.9167	-3.1521	-3.1396	-3.0417	-3.3979	-2.9542	-3.2188	38.299	264.733	200.930	120.152	-47.616	-32.655	201.345	268.910	182.263	259.220	-2.859	286.781	204.675	279.262	248.948	238.311	0.00021153	0.00019839	0.00014804	786.59	5.956e-06	8.6954e-06	812.57	335.29	3.9891e-06	1.6361e-06	382.64	158.35	140.72	64.189	9.1178e-06	80.504	0.00075439	0.00077358	0.00022683	830.62	8.2619e-06	8.523e-06	858.42	348.03	8.2065e-06	8.5533e-06	401.37	164	147.92	66.231	8.8717e-06	82.185	124.309	-35.014	46.425	-46.839	58.145	27.392	-47.733	-42.037	76.170	3.804	-44.499	-40.409	-38.571	-32.678	24.666	-36.043	-8191	255	
5863.119	1	1	0	0	0.19332	0.13234	0.077075	0.34481	0.097551	0.14236	0.25173	0.10049	0.056111	0.23583	0.15248	0.15934	0.045501	0.35428	0.25507	0.28422	-2.8333	-2.9125	-3.1521	-3.3458	-3.0333	-3.0771	-3.1458	-2.9979	-3.2625	-2.9708	-3.2417	-3.1708	-2.9208	-3.3292	-3.0604	-3.2042	46.998	206.466	161.905	272.727	72.473	201.441	214.178	200.313	236.550	279.899	72.512	297.492	200.782	-55.776	202.201	172.416	0.00031146	0.00039885	0.00031236	786.88	2.3709e-06	1.1516e-05	814.83	334.1	5.4424e-07	5.676e-06	383.19	157.4	141.44	64.43	5.4236e-06	80.142	0.00074321	0.00078798	0.00022247	828.27	8.1133e-06	8.624e-06	853.16	346.75	8.0341e-06	8.6159e-06	399.55	163.36	147.42	66.192	8.5631e-06	81.763	128.914	70.065	5.475	-46.475	37.928	114.286	-47.892	-42.166	245.730	202.533	-44.293	-40.503	-38.769	-32.893	124.483	-36.133	-8191	255	
5863.191	1	1	0	0	0.26016	0.070156	0.12678	0.1896	0.27191	0.11951	0.050072	0.13226	0.032809	0.23237	0.33143	0.20138	0.079447	0.1791	0.068404	0.39381	-2.9646	-3.0417	-2.9437	-3.2313	-2.8958	-3.2896	-3.2833	-3.3271	-3.1292	-2.9854	-3.0979	-3.2625	-2.9437	-3.1146	-3.0312	-2.9917	209.215	210.710	192.665	286.375	280.016	232.057	297.290	255.904	246.917	-6.480	271.975	-27.242	105.581	294.546	277.337	279.516	0.00047264	0.00058661	0.00012351	784.26	8.123e-07	2.6852e-06	812.49	336.08	4.8026e-06	1.0562e-05	383.89	157.94	140.21	64.586	6.8134e-06	80.941	0.00073591	0.00080246	0.00021721	825.84	8.1422e-06	8.7385e-06	851.66	346.97	8.1651e-06	8.682e-06	399.44	163.7	148.11	66.455	8.3975e-06	82.149	119.745	20.476	-48.324	-46.329	284.025	186.868	-47.477	-41.975	99.769	143.807	-44.308	-40.336	-38.655	-33.042	71.731	-36.211	-8191	255	
5863.287	1	1	0	0	0.045168	0.25271	0.13937	0.29717	0.085299	0.065228	0.30531	0.20246	0.20037	0.27786	0.25283	0.13058	0.18362	0.075584	0.16855	0.23315	-2.7604	-2.9833	-2.8792	-3.2792	-2.7458	-3.2583	-3.1708	-2.9979	-3.2292	-2.9542	-3.2687	-3.4375	-2.9792	-3.2542	-3.1646	-3.0604	119.964	185.855	37.624	268.136	180.568	48.044	225.769	161.275	228.427	224.079	-49.968	-8.113	203.602	89.480	-25.012	221.497	0.00052328	0.00064484	4.9318e-05	787.64	4.9823e-06	4.2474e-06	812.08	334.19	7.4662e-06	1.209e-05	383.76	158.85	142.08	64.681	4.349e-06	80.868	0.0007567	0.00079688	0.00021293	826.02	8.419e-06	8.6284e-06	851.33	347.06	8.4093e-06	8.6497e-06	399.65	163.91	148.93	66.441	8.2528e-06	82.368	127.179	53.124	66.451	-46.355	147.252	119.285	-47.520	-42.036	192.748	91.503	-44.378	-40.544	-38.591	-33.045	96.926	-35.906	-8191	255	
5863.383	1	1	0	0	0.07095	0.047931	0.094484	0.28628	0.24558	0.15635	0.21991	0.18646	0.32856	0.096682	0.18633	0.11189	0.13774	0.23188	0.099656	0.16921	-2.8333	-3.0271	-2.9979	-3.2208	-2.9125	-3.0917	-3.1854	-2.9875	-3.2687	-3.1083	-2.9854	-3.4646	-2.9437	-3.3896	-3.3354	-3.2458	89.297	193.865	247.545	212.208	48.051	27.274	-1.522	252.881	-43.944	111.540	-1.113	283.077	-36.852	260.152	206.805	230.407	0.00022088	0.00040427	0.00015217	786.34	7.7224e-06	8.5372e-06	818.32	336.97	4.4143e-06	1.1639e-05	387.17	159.38	140.31	64.696	6.4082e-06	81.112	0.00076931	0.00078403	0.00020784	827.6	8.5788e-06	8.5574e-06	855.63	348.1	8.6513e-06	8.5363e-06	401.33	164.64	149.39	66.593	8.2044e-06	82.808	123.491	-37.477	44.032	-46.428	80.677	59.163	-47.598	-42.127	30.630	61.837	-44.512	-40.584	-38.714	-32.907	110.250	-36.271	-8191	255	
5863.504	1	1	0	0	0.20186	0.14716	0.31623	0.10138	0.14196	0.082806	0.10568	0.14311	0.048272	0.19448	0.28581	0.19855	0.25037	0.051654	0.22573	0.15874	-2.7833	-3.1354	-2.8729	-3.2417	-2.8083	-3.2521	-3.3542	-3.1125	-3.3542	-2.9375	-3.0333	-3.3229	-2.8396	-3.2229	-3.2021	-3.0979	-24.315	39.141	232.091	132.397	43.672	275.345	218.351	258.496	-49.229	98.375	223.172	222.777	163.535	-41.575	58.773	-50.818	0.00037362	0.00017291	0.0002181	788.88	6.8549e-06	7.7311e-06	816.24	335.76	2.3408e-06	7.7598e-06	384.97	158.96	141.35	64.653	6.2219e-06	80.571	0.0007928	0.00077698	0.00020777	827.78	8.6861e-06	8.3673e-06	852.49	347.79	8.677e-06	8.3644e-06	399.67	164.41	149.65	66.508	8.0842e-06	82.314	143.250	67.830	-1.225	-46.360	50.615	65.690	-47.570	-42.077	200.814	76.602	-44.263	-40.298	-38.523	-32.949	54.083	-36.174	-8191	255	
5863.600	1	1	0	0	0.10396	0.1459	0.063305	0.2026	0.38953	0.043499	0.091063	0.16178	0.26709	0.29409	0.17458	0.23808	0.10956	0.034925	0.13728	0.23452	-2.8208	-3.0479	-2.8542	-3.5083	-3.0438	-3.0333	-3.3458	-3.0854	-3.1958	-3.0792	-2.8542	-3.1896	-3.1729	-3.2771	-3.2	-3.0458	61.310	272.513	256.349	230.257	70.086	122.448	82.582	195.217	-13.397	43.936	233.132	-42.315	76.939	-17.583	88.171	251.207	0.00033637	9.6642e-05	0.00012521	784.91	3.9102e-06	7.6797e-06	809.75	336.57	1.4806e-06	6.5477e-06	383.54	157.82	140.84	64.72	4.1514e-06	80.976	0.0007824	0.00075923	0.00020479	827.29	8.5749e-06	8.2582e-06	846.7	347.9	8.5763e-06	8.1906e-06	397.2	164.16	148.54	66.229	7.9541e-06	82.598	126.816	196.416	30.350	-46.402	-8.278	52.037	-47.643	-42.173	237.853	86.641	-44.230	-40.499	-38.334	-33.066	60.035	-36.371	-8191	255	
5863.696	1	1	0	0	0.043407	0.055094	0.16054	0.2802	0.26561	0.18313	0.031294	0.24604	0.12531	0.25992	0.19911	0.24651	0.084754	0.16831	0.30429	0.27079	-2.8563	-3.0896	-3.0083	-3.1979	-3.0271	-3.0104	-3.2479	-3.2333	-3.1208	-3.2687	-3.1542	-3.3563	-3.1625	-3.1813	-3.3063	-3.2062	199.071	256.095	112.235	213.469	57.574	80.741	216.189	253.911	5.222	91.422	299.678	263.421	198.167	259.616	-39.648	249.807	0.00028952	0.00026085	0.00015907	787.48	5.5597e-06	4.2345e-06	812.97	336.1	3.8219e-06	6.075e-06	383.7	158.82	141.57	64.929	1.0124e-05	81.319	0.00076637	0.00074221	0.00020276	827.9	8.4579e-06	8.1207e-06	848.18	348.21	8.4253e-06	8.1111e-06	398.38	165.06	148.63	66.418	8.0789e-06	83.089	124.878	65.371	50.026	-46.406	52.578	171.747	-47.396	-41.923	266.616	99.404	-44.669	-40.618	-38.266	-33.185	135.069	-36.127	-8191	255	
5863.792	1	1	0	0	0.069691	0.23721	0.22554	0.13476	0.24107	0.10296	0.12603	0.35537	0.037909	0.12324	0.15151	0.19323	0.30939	0.26309	0.2442	0.19624	-2.5458	-3.0292	-2.8187	-3.25	-3.1125	-2.9708	-3.35	-3.1562	-2.9208	-3.2771	-3.1167	-3.3875	-3.325	-3.0771	-3.375	-3.1958	14.751	43.653	163.131	235.280	249.476	24.485	257.476	-55.724	223.657	19.079	7.904	158.894	234.930	276.554	140.193	267.518	0.00040063	0.00096966	0.00019294	787.98	7.0954e-06	1.0096e-05	814.43	334.92	7.3501e-06	3.3376e-06	381.16	158.4	140.39	65.185	9.3935e-06	81.163	0.00076773	0.00074048	0.00020877	831.77	8.4119e-06	8.1783e-06	851.4	348.21	8.3858e-06	8.1847e-06	399.12	164.84	148.13	66.551	8.5838e-06	83.22	132.531	65.126	66.100	-46.373	54.300	71.297	-47.664	-41.883	49.469	49.199	-44.298	-40.526	-38.306	-32.802	160.347	-36.198	-8191	255	
5863.888	1	1	0	0	0.12039	0.028937	0.24806	0.29877	0.11017	0.098267	0.096563	0.23268	0.036179	0.11756	0.10133	0.17751	0.15262	0.25518	0.12374	0.21919	-2.5771	-3.0854	-2.9646	-3.4083	-3.1479	-3.0417	-3.3354	-3.1875	-3.1	-3.4208	-2.9292	-3.3833	-3.0979	-3.2104	-3.3625	-3.0875	0.880	177.496	65.514	-51.819	280.129	21.280	265.656	291.975	109.521	105.960	134.254	283.610	-33.613	-34.312	249.719	281.795	0.00040448	0.00010279	2.4902e-06	781.7	7.9962e-06	1.236e-05	815.27	335.3	6.508e-06	8.9468e-06	382.73	158.78	139.47	64.916	3.299e-06	81.473	0.000772	0.00075277	0.00021955	830.2	8.517e-06	8.2233e-06	854.15	347.56	8.4763e-06	8.1624e-06	400.98	164.87	148.02	66.587	8.7553e-06	83.238	122.839	-43.883	-52.942	-46.317	92.852	53.977	-47.641	-41.954	89.732	122.514	-44.413	-40.195	-38.610	-32.986	70.528	-36.065	-8191	255	
5863.984	1	1	0	0	0.2413	0.13549	0.28833	0.12563	0.19056	0.058256	0.36753	0.25062	0.13655	0.096464	0.032224	0.05838	0.043484	0.060178	0.2352	0.13952	-2.6542	-3.0896	-2.8208	-3.1542	-3.1646	-2.8917	-3.4479	-3.1688	-2.9313	-3.3438	-3.1042	-3.05	-3.2687	-3.2583	-3.2417	-3.2792	138.018	252.467	211.165	157.922	-49.725	58.532	270.974	264.820	246.758	67.639	249.675	140.952	176.029	284.811	51.682	194.643	0.00033329	0.00043693	0.00035452	786.08	3.0756e-06	9.9318e-06	809.74	332	4.797e-06	3.3506e-06	379.91	157.73	139.26	64.67	3.4257e-06	80.9	0.00076344	0.00075128	0.00022564	829.9	8.3986e-06	8.3006e-06	852.74	346.09	8.3463e-06	8.3087e-06	398.99	163.6	147.18	66.397	8.8993e-06	82.652	153.997	20.866	50.828	-46.524	-20.869	121.968	-47.712	-41.940	36.476	176.808	-44.777	-40.282	-38.334	-32.922	74.902	-36.190	-8191	255	
5864.105	1	1	0	0	0.10833	0.17289	0.16382	0.21507	0.17766	0.12441	0.1923	0.22803	0.10372	0.17698	0.23062	0.11958	0.12296	0.052172	0.15079	0.25273	-2.5208	-3.1396	-2.9396	-3.225	-3.3937	-3.0812	-3.4833	-3.2771	-2.9646	-3.2188	-3.0438	-3.2417	-3.3104	-3.0417	-3.0812	-3.3271	-4.846	197.043	-56.618	246.370	208.462	167.938	234.526	282.785	165.340	-45.638	262.924	-35.654	-22.279	233.243	121.774	127.260	0.00036079	0.00038156	0.0001011	784.23	1.4522e-06	1.0556e-05	803.66	333.55	4.5165e-06	5.5957e-06	381.8	157.87	139.26	64.894	3.5514e-06	81.779	0.00075248	0.00075804	0.00022386	826.96	8.1586e-06	8.3889e-06	846.99	345.43	8.0894e-06	8.3468e-06	398.52	163.88	146.8	66.707	8.6262e-06	83.332	130.220	7.566	-26.215	-46.475	64.205	174.749	-47.256	-41.999	41.157	154.709	-44.379	-40.473	-38.518	-32.770	97.779	-36.023	-8191	255	
5864.199	1	1	0	0	0.13795	0.13182	0.092446	0.18832	0.095132	0.15711	0.12251	0.055853	0.22564	0.12714	0.11191	0.097282	0.056388	0.23064	0.17987	0.25552	-2.7104	-3.3979	-3.0417	-3.125	-3.1396	-3.0333	-3.3042	-3.0771	-2.8979	-3.2292	-3.225	-3.2396	-3.2708	-3.0687	-3.0375	-3.3833	87.661	77.068	24.262	241.506	247.491	4.919	239.371	251.539	-34.004	90.566	213.698	-0.014	162.434	212.641	193.714	155.040	0.00029822	0.00065632	0.00024565	780.45	2.2981e-06	4.4702e-06	809.94	334.56	3.1142e-06	7.947e-06	382.85	158.64	140.08	65.231	3.808e-06	81.697	0.00072531	0.0007673	0.00021732	823.64	7.88e-06	8.453e-06	847.26	345.92	7.9743e-06	8.5124e-06	398.61	164.28	147.32	66.966	8.5597e-06	83.157	125.172	6.489	35.245	-46.329	74.010	127.053	-47.288	-41.889	130.492	167.120	-44.478	-40.801	-38.645	-32.795	101.677	-36.139	-8191	255	
5864.295	1	1	0	0	0.14141	0.063079	0.087841	0.14873	0.13012	0.30747	0.15521	0.1483	0.18374	0.11788	0.18505	0.18408	0.28062	0.43318	0.021878	0.018851	-2.6083	-3.1792	-3.0521	-3.1208	-3.3396	-3.1354	-3.2375	-3.2812	-2.9271	-3.4292	-3.1333	-3.0438	-3.2271	-3.0542	-2.9229	-3.3771	110.750	226.157	-24.049	187.363	94.973	289.025	223.967	243.369	131.380	233.423	-45.712	272.008	284.981	256.077	122.935	208.188	0.00040389	0.00030327	0.00016963	785.61	4.6152e-06	1.6866e-06	809.57	335.29	1.1775e-06	6.8613e-06	382.72	159.9	141.32	65.485	1.0803e-05	82.241	0.00073879	0.00079468	0.00021573	826.4	8.1543e-06	8.7155e-06	850.94	347.17	8.1846e-06	8.7331e-06	400.08	165.24	148.35	67.255	8.4583e-06	83.726	141.359	-35.866	41.281	-46.417	16.645	158.422	-47.411	-42.008	-8.953	146.717	-44.589	-40.472	-38.221	-32.865	100.299	-35.948	-8191	255	
5864.416	1	1	0	0	0.12609	0.06388	0.20106	0.18489	0.2572	0.17895	0.06819	0.069613	0.18752	0.2588	0.30057	0.19888	0.05404	0.36434	0.12284	0.18394	-2.5896	-3.2396	-2.9792	-3.0292	-3.1625	-2.9167	-3.3146	-3.3833	-2.9146	-3.2438	-3.3458	-2.8375	-3.2958	-3.0833	-2.9979	-3.3521	121.095	-36.101	-25.112	-30.298	-46.304	186.249	225.170	276.296	-34.249	12.651	-18.159	290.903	91.202	292.038	43.785	146.881	0.00047939	0.00013207	0.00027962	785.53	2.1089e-06	8.6196e-06	811.87	334.78	2.9608e-06	8.3594e-06	382.85	159.42	141.05	65.468	6.5246e-06	81.596	0.00075655	0.00079502	0.00021151	826.98	8.2648e-06	8.7202e-06	851.7	346.28	8.345e-06	8.659e-06	399.54	164.64	148.53	67.102	8.2337e-06	83.105	150.733	-59.682	26.418	-46.561	170.829	65.031	-47.472	-42.051	124.544	111.689	-44.112	-40.647	-38.424	-33.003	69.332	-36.465	-8191	255	
5864.488	1	1	0	0	0.11155	0.11697	0.1858	0.051495	0.13644	0.089859	0.22721	0.021333	0.057989	0.16699	0.20685	0.15528	0.076491	0.2358	0.033725	0.23786	-2.375	-3.2146	-3.2208	-2.9083	-3.2583	-2.975	-3.0292	-3.4333	-2.8	-3.0958	-3.1958	-3.1958	-3.2271	-3.1833	-3	-3.5354	153.855	171.234	166.302	125.345	145.382	280.192	184.915	281.115	76.542	-39.921	188.937	298.440	14.597	236.637	160.894	259.725	0.0003986	0.0003391	0.0002812	785.54	5.9123e-06	2.1004e-06	805.72	334.31	5.1577e-06	5.2697e-06	382.35	159	141.15	65.349	9.7771e-06	81.443	0.00076633	0.00077487	0.0002069	825.08	8.4301e-06	8.4734e-06	846.34	345.76	8.5451e-06	8.4416e-06	397.2	163.94	148.86	66.855	8.0797e-06	82.94	127.025	62.473	28.033	-46.374	35.252	-33.429	-47.648	-41.947	23.435	143.025	-44.472	-40.727	-38.702	-33.008	62.413	-36.177	-8191	255	
5864.584	1	1	0	0	0.25738	0.19183	0.054939	0.11208	0.132	0.058782	0.19446	0.13109	0.025435	0.17168	0.028967	0.17934	0.12301	0.33223	0.084905	0.14409	-2.5979	-2.9562	-3.175	-3.1104	-3.3312	-3.2771	-2.9479	-3.5021	-2.9667	-3.1396	-3.3125	-3.0833	-3.3458	-3.1896	-2.9667	-3.4938	262.383	6.667	228.064	-40.115	296.564	226.945	271.756	15.747	-34.023	49.513	272.379	284.557	-49.717	279.581	19.432	290.517	0.0003805	0.00079236	0.00015588	788.74	7.8132e-06	9.75e-06	807.17	335.6	3.1317e-06	5.8423e-06	383.6	160.18	142.25	65.547	4.4331e-06	82.328	0.00077737	0.00076127	0.00020504	825.74	8.526e-06	8.2698e-06	845.92	347.23	8.6074e-06	8.2143e-06	398.77	165.2	149.59	67.156	7.9068e-06	83.789	123.956	6.397	57.363	-46.476	109.834	53.268	-47.590	-42.316	95.792	115.873	-44.581	-40.477	-38.632	-33.056	56.453	-36.170	-8191	255	
5864.680	1	1	0	0	0.13158	0.13447	0.16076	0.14554	0.040792	0.34288	0.38279	0.12245	0.11891	0.19177	0.12503	0.25397	0.24174	0.15914	0.2598	0.10279	-2.6458	-3	-3.1458	-3.1063	-3.1917	-3.1958	-3.0792	-3.5854	-3.0687	-3.0125	-3.5	-2.9625	-3.2188	-3.275	-2.8854	-3.4083	224.813	-56.235	90.110	-44.820	291.121	118.129	279.879	293.980	-49.450	260.258	117.033	242.663	281.376	294.431	103.164	-42.645	0.00025251	0.00097463	0.00028022	787.95	4.4913e-06	1.1271e-05	808.89	336.1	4.2112e-06	5.3287e-06	384.96	159.95	141.72	65.484	4.4386e-06	82.126	0.00076739	0.00074533	0.00019935	826.33	8.4442e-06	8.0878e-06	845.19	347.64	8.413e-06	8.1204e-06	398.94	165.85	149.28	67.053	7.8679e-06	83.842	131.999	95.834	43.477	-46.323	44.664	62.689	-47.666	-41.811	108.922	161.103	-44.342	-40.675	-39.112	-32.997	106.127	-36.134	-8191	255	
5864.801	1	1	0	0	0.28199	0.036919	0.23855	0.1386	0.15721	0.23788	0.098777	0.23096	0.014881	0.1525	0.21649	0.14899	0.17154	0.14631	0.29441	0.40393	-2.5396	-2.9417	-3.0458	-3.0417	-3.0708	-3.0354	-3.0042	-3.3896	-3.1063	-3.1167	-3.15	-3.1604	-3.2583	-3.2896	-2.9042	-3.4208	32.705	278.420	205.677	-19.953	34.403	176.261	275.305	228.424	255.480	295.135	269.563	280.364	271.678	-53.134	296.066	214.623	0.00045988	0.00071431	0.0001358	783.19	6.7634e-06	1.2607e-05	809.92	335.54	1.9914e-06	1.0959e-05	387.77	160.79	142.35	65.868	6.43e-06	82.671	0.00076596	0.00073631	0.00019945	826.76	8.3168e-06	8.0339e-06	846.99	347.78	8.2994e-06	7.9473e-06	400.98	166.76	149.38	67.192	7.9241e-06	84.194	127.339	73.453	136.716	-46.453	-21.029	111.967	-47.589	-41.941	134.996	68.255	-44.460	-40.451	-38.655	-32.974	150.434	-36.104	-8191	255	
5864.897	1	1	0	0	0.15725	0.33421	0.13709	0.19079	0.18316	0.070613	0.1876	0.28612	0.091568	0.17725	0.10366	0.18614	0.099681	0.16649	0.2066	0.020477	-2.7625	-2.8021	-3.1437	-3.0979	-3.0729	-3.0792	-3.0875	-3.3833	-3.1083	-2.9792	-3.2417	-3.0979	-3.0729	-3.4229	-3.0083	-3.4208	97.460	121.093	114.774	245.891	156.695	94.365	-55.333	258.998	220.057	222.039	260.219	241.241	259.294	-6.484	60.233	-13.560	0.00036081	0.00051967	0.00016576	789.36	4.944e-06	6.4182e-06	809.37	334.77	3.2026e-06	7.4143e-06	384.37	159.66	141.3	65.574	5.8769e-06	81.622	0.00074537	0.00072331	0.00020256	827.64	8.2218e-06	7.9393e-06	845.46	348.25	8.182e-06	7.861e-06	398.93	165.51	148.23	66.862	8.1175e-06	83.338	135.153	-10.332	8.591	-46.578	35.736	95.442	-47.585	-41.844	-22.969	79.568	-44.177	-40.372	-38.870	-32.907	53.339	-36.170	-8191	255	
5864.991	1	1	0	0	0.23647	0.16084	0.12862	0.15203	0.37915	0.12458	0.22886	0.13935	0.015032	0.2205	0.059268	0.12856	0.056914	0.28873	0.076034	0.208	-2.8083	-2.9604	-3.1833	-3.1271	-2.8479	-3.3438	-2.9	-3.2188	-3.0125	-2.9604	-3.4583	-3.075	-2.9396	-3.4146	-2.8854	-3.2958	7.806	-23.550	233.517	-14.675	125.715	180.341	242.570	131.234	226.767	211.595	36.204	281.027	96.577	290.519	34.706	250.784	0.0005797	0.00062494	0.00014783	782.12	6.0526e-06	2.9504e-06	805.49	334.66	6.5229e-06	7.1076e-06	380.07	158.56	141.25	65.143	6.6296e-06	81.298	0.00073195	0.00071067	0.00020811	825.7	8.0555e-06	7.7878e-06	843.81	346.89	7.9784e-06	7.7669e-06	397.66	164.37	147.62	66.608	8.3091e-06	82.877	138.433	-4.769	2.247	-46.242	19.092	68.733	-47.383	-42.048	78.450	96.866	-44.412	-40.301	-38.619	-32.915	152.449	-36.073	-8191	255	
5865.065	1	1	0	0	0.3012	0.23645	0.17279	0.21762	0.077998	0.22644	0.21346	0.30448	0.11908	0.31879	0.080985	0.11346	0.20723	0.25754	0.25726	0.27299	-2.6542	-2.9396	-3.2062	-3.1063	-2.925	-3.4396	-3.2021	-3.1688	-3.1688	-2.9104	-3.3125	-3.1646	-2.9604	-3.3208	-3.0646	-3.1229	-45.467	80.445	103.565	183.687	95.401	248.089	-44.593	246.235	-51.231	100.163	254.307	267.207	175.722	277.113	229.529	269.322	0.00045085	0.00049235	4.3957e-05	782.24	8.0312e-06	1.6027e-05	807.87	333.67	5.1481e-06	5.4126e-06	382.47	159.64	141.99	65.059	3.7665e-06	81.385	0.00072493	0.00071099	0.00021199	823.29	7.9579e-06	7.8114e-06	846.64	346.13	7.8878e-06	7.7973e-06	399.9	165.14	147.8	66.602	8.5003e-06	83.008	145.732	75.732	51.323	-46.456	32.581	110.100	-47.888	-42.095	99.877	100.583	-44.489	-40.789	-38.892	-32.823	-26.776	-36.014	-8191	255	
5865.184	1	1	0	0	0.19757	0.1384	0.082362	0.19716	0.0091791	0.16606	0.24057	0.11972	0.20565	0.20101	0.21584	0.16848	0.035133	0.24938	0.20963	0.31673	-2.7333	-2.8625	-3.2417	-3.2375	-2.9813	-3.3375	-3.0438	-3.1146	-3.2708	-2.8875	-3.3229	-3.3104	-3.0021	-3.4333	-3.2542	-3.1688	106.893	268.223	259.245	-2.981	183.784	133.528	200.808	243.091	244.310	33.158	256.064	214.698	286.623	-17.156	216.160	241.957	0.00040076	0.00021972	0.00022993	781.4	1.06e-05	7.4507e-06	806.65	334.53	2.3475e-06	6.4493e-06	384.23	160.27	140.82	65.067	7.1731e-06	81.751	0.00071697	0.00072983	0.00021527	822.76	7.89e-06	8.0458e-06	846.55	346.03	7.8235e-06	8.0279e-06	401.41	165.55	147.36	66.801	8.4308e-06	83.263	115.144	23.797	106.123	-46.460	22.164	238.345	-47.782	-42.001	19.978	121.042	-44.657	-40.252	-38.867	-32.982	105.054	-36.175	-8191	255	
5865.280	1	1	0	0	0.163	0.23733	0.052254	0.15761	0.18912	0.15279	0.081691	0.25046	0.35451	0.014494	0.25649	0.24638	0.20982	0.2994	0.032325	0.13397	-2.7979	-2.7958	-3.2687	-3.1333	-2.7438	-3.3833	-3.3042	-3.0646	-3.2042	-3.1042	-3.2375	-3.3229	-2.8583	-3.3521	-3.0458	-3.1104	25.352	259.188	264.663	-24.034	272.002	-0.622	209.917	202.445	180.359	269.792	-37.686	229.838	-53.655	291.515	120.442	253.282	0.00028197	0.00073643	0.00033947	784.31	8.2387e-06	5.5234e-06	807.83	333.75	5.9417e-06	7.8444e-06	383.81	158.7	140.07	64.88	2.1735e-06	80.81	0.00070464	0.00074948	0.00021213	820.49	7.7064e-06	8.2894e-06	847.87	345.7	7.8063e-06	8.3896e-06	399.15	164.24	147.02	66.496	8.4047e-06	82.439	143.146	49.239	32.353	-46.504	31.291	89.192	-47.791	-42.017	75.088	94.267	-44.488	-40.400	-38.422	-32.849	132.150	-36.207	-8191	255	
5865.376	1	1	0	0	0.089353	0.18818	0.14453	0.40392	0.16272	0.11134	0.22676	0.21644	0.12843	0.083501	0.057734	0.17842	0.31904	0.19183	0.10232	0.17791	-2.9292	-2.9479	-3.1979	-3.3854	-3.0521	-3.2625	-3.0375	-3.0292	-3.0854	-2.9646	-3.1292	-3.425	-2.9958	-3.2229	-2.9167	-3.1875	169.723	32.485	56.332	245.251	145.261	279.460	222.980	147.542	175.924	5.041	220.442	-23.249	178.220	-47.800	194.927	298.733	0.00051706	0.00054722	9.044e-05	779.07	5.0306e-06	3.7293e-06	803.3	332.91	7.38e-06	1.983e-06	383.81	159.46	141.32	65.134	3.2989e-06	81.956	0.00071141	0.00077172	0.0002082	818.4	7.7893e-06	8.3361e-06	841.32	344.23	7.7871e-06	8.3168e-06	397.57	164.4	147.78	66.826	8.104e-06	82.945	110.437	36.335	89.042	-46.364	44.867	85.704	-47.761	-42.103	208.778	146.200	-44.422	-40.506	-38.307	-33.154	70.151	-36.312	-8191	255	
5865.496	1	1	0	0	0.023923	0.10594	0.13181	0.28005	0.24731	0.23541	0.19922	0.18529	0.29834	0.1846	0.25294	0.26101	0.06706	0.15599	0.14605	0.12671	-2.7625	-2.8417	-3.0979	-3.3125	-2.7188	-3.0208	-3.1375	-3.0167	-3.2812	-3.0104	-3.1083	-3.2042	-2.9229	-3.2521	-3.1229	-3.0875	-33.134	60.076	32.025	-20.669	157.660	39.207	-18.556	-34.403	17.492	-5.233	-18.935	268.845	-33.505	254.489	279.749	191.661	0.00042878	0.0006156	6.7274e-05	782.71	4.8557e-06	3.6814e-06	806.61	334.69	4.9756e-06	2.3822e-06	383.82	159.17	140.63	64.893	2.7727e-06	81.292	0.00072657	0.00077266	0.00020378	818.83	8.0509e-06	8.3486e-06	840.71	345.06	8.1082e-06	8.3256e-06	398.22	164.48	148.36	66.769	8.1289e-06	82.695	129.190	41.484	64.192	-46.615	113.902	66.736	-47.531	-42.059	116.618	153.570	-44.318	-40.541	-38.645	-32.772	-48.331	-36.191	-8191	255	
5865.593	1	1	0	0	0.10211	0.050114	0.08177	0.2058	0.14573	0.22436	0.1482	0.060673	0.10856	0.055851	0.01388	0.15543	0.089303	0.23099	0.051903	0.18663	-3.0021	-2.9521	-3.1958	-3.2188	-2.9271	-3.1979	-3.3438	-3.1188	-3.1854	-3.2417	-3.0458	-3.3854	-3.0229	-3.4	-3.4	-3.1021	48.764	40.880	-29.320	48.463	39.055	208.377	280.187	254.878	181.628	94.327	210.643	-58.063	172.739	-54.169	75.182	244.896	0.00041035	0.0012699	0.00020644	778.51	3.7504e-06	1.7164e-06	797.83	331.35	1.1606e-07	1.4218e-05	379.58	158.2	139.64	64.373	3.1288e-06	81.247	0.0007615	0.00077942	0.00020783	818.02	8.5407e-06	8.5612e-06	841.47	343.41	8.7168e-06	8.5799e-06	396.51	163.36	148.63	66.142	8.3673e-06	82.352	121.382	34.617	-3.015	-46.339	108.989	5.200	-47.462	-42.097	-54.485	123.719	-44.444	-40.433	-38.770	-32.931	107.014	-36.373	-8191	255	
5865.689	1	1	0	0	0.10722	0.097264	0.12929	0.18268	0.24503	0.23873	0.18183	0.25198	0.081237	0.046229	0.37722	0.27559	0.15956	0.30173	0.062805	0.12124	-2.6813	-3.0917	-2.7771	-3.2583	-3.0187	-3.0896	-3.3292	-2.9479	-3.125	-3.1542	-2.9813	-3.3583	-3.0479	-3.2917	-3.2646	-3.0771	177.892	-14.667	-28.148	223.810	83.726	-55.289	259.467	265.089	-44.708	95.695	242.364	260.099	174.766	-36.057	21.731	272.372	0.00028867	0.00067352	0.00031663	777.16	1.2303e-06	2.4996e-06	803.18	330.67	7.1267e-06	5.2318e-06	381.01	159.19	140.55	64.357	2.2791e-06	80.829	0.00080985	0.00079444	0.00021172	819.39	8.9058e-06	8.4838e-06	840.23	343.76	8.8144e-06	8.3882e-06	396.66	164.7	149.05	66.144	8.1772e-06	82.438	107.999	8.638	97.833	-46.396	54.574	205.250	-47.562	-42.151	84.109	71.191	-44.259	-40.447	-38.817	-32.930	103.538	-36.185	-8191	255	
5865.785	1	1	0	0	0.092584	0.43004	0.1693	0.29985	0.15684	0.2879	0.094911	0.18136	0.11478	0.19374	0.23834	0.24932	0.16931	0.22382	0.097232	0.27824	-2.8438	-2.8875	-2.8208	-3.375	-2.7375	-3.0917	-3.3292	-2.9854	-3.2229	-3.0896	-2.8979	-3.3417	-3.1208	-3.1417	-3.2979	-3.1708	96.981	219.318	226.912	221.042	165.144	186.941	86.945	240.761	5.042	-30.663	282.200	217.325	264.672	230.862	-1.783	212.604	0.00041437	0.0001906	0.00039221	775.3	3.7202e-06	2.965e-06	797.77	330.94	3.2521e-06	3.4605e-06	379.13	156.12	139.27	63.66	1.1534e-06	79.362	0.000801	0.0007722	0.00020725	820.38	8.9227e-06	8.543e-06	837	343.51	8.923e-06	8.5686e-06	393.79	162.49	147.97	65.524	8.2415e-06	81.217	134.487	238.248	21.803	-46.532	-44.087	27.013	-47.404	-41.924	12.153	100.175	-44.484	-40.302	-38.746	-32.717	208.410	-36.219	-8191	255	
5865.881	1	1	0	0	0.22389	0.16754	0.14112	0.26978	0.081984	0.043699	0.29599	0.23838	0.094437	0.075989	0.19792	0.32347	0.17751	0.3851	0.20945	0.073654	-2.7562	-3.1229	-2.8583	-3.2896	-3.0104	-2.9375	-3.2771	-3.05	-3.2208	-3.3021	-2.9313	-3.3604	-3.0583	-3.1083	-3.2021	-3.3125	235.966	136.043	85.114	202.329	276.216	233.440	-46.659	254.986	-44.744	-7.389	108.522	-57.553	-21.819	-49.540	11.481	176.619	0.00032287	3.6873e-05	0.00028859	775.24	3.1856e-06	8.0123e-06	795.55	328.29	2.6795e-06	1.0687e-06	374.48	154.37	138.36	63.233	1.5198e-06	78.324	0.00080933	0.00078753	0.00021136	820.99	8.9422e-06	8.5932e-06	836.25	342.42	8.8673e-06	8.5063e-06	391.61	161.39	146.91	65.063	8.5649e-06	80.375	96.775	-47.935	55.084	-46.418	292.165	87.415	-47.337	-42.094	61.297	247.384	-44.148	-40.269	-38.643	-32.630	245.080	-36.155	-8191	255	
5865.977	1	1	0	0	0.25764	0.44832	0.1532	0.21202	0.027411	0.112	0.12064	0.2015	0.21169	0.032448	0.063877	0.37508	0.060993	0.22508	0.085632	0.23036	-2.7875	-3.3812	-2.8208	-3.1458	-3.1708	-2.9083	-3.2729	-3.1	-2.9792	-3.2083	-2.9042	-3.2771	-2.9208	-2.95	-3.0917	-3.0646	20.537	182.391	62.239	269.377	91.744	150.368	233.989	-27.809	158.584	27.757	162.291	-58.635	106.617	243.203	170.407	259.944	0.00031644	0.00062456	0.00030052	773.7	5.827e-06	4.9872e-06	797.67	321.71	1.0136e-05	4.7302e-06	366.5	151.53	135.54	62.95	1.2847e-05	78.205	0.00081665	0.00079594	0.00022484	822.96	9.2073e-06	8.8694e-06	839.92	337.71	9.3179e-06	8.9193e-06	387.23	158.9	145.76	64.806	9.1854e-06	80.334	124.539	44.434	102.683	-46.331	95.315	124.301	-47.445	-42.079	153.808	65.824	-44.247	-40.350	-38.053	-32.644	196.530	-35.973	-8191	255	
5866.096	1	1	0	0	0.3004	0.19778	0.25949	0.18534	0.16692	0.1871	0.094213	0.054589	0.10261	0.1614	0.12398	0.088892	0.10419	0.23077	0.22307	0.12751	-2.6625	-3.2771	-2.7562	-3.1083	-3.1458	-2.8042	-3.1937	-3.075	-2.9021	-3.1333	-3.0667	-3.2042	-3.15	-3.0687	-3.2896	-3.2333	111.009	142.022	288.852	274.144	94.944	121.749	166.014	295.840	99.866	176.030	124.525	205.577	-55.066	273.273	32.158	285.699	0.00032575	0.00055685	8.9222e-05	778.28	6.9031e-06	9.7394e-06	806.87	324.46	1.6205e-06	6.587e-06	374.24	154.85	136.99	63.56	5.3385e-06	79.608	0.00081867	0.00078867	0.00023162	825	8.9522e-06	8.7196e-06	850.37	340.2	9.0473e-06	8.7361e-06	393.64	161.46	146.99	65.58	9.4473e-06	81.703	142.410	52.924	154.328	-46.740	-5.644	93.099	-47.452	-41.984	85.754	110.001	-44.665	-40.243	-38.872	-32.819	82.817	-36.121	-8191	255	
5866.192	1	1	0	0	0.2601	0.050984	0.29741	0.21823	0.017849	0.06563	0.19564	0.28348	0.078558	0.076556	0.21915	0.081441	0.26991	0.26426	0.24096	0.22321	-2.4667	-3.1875	-2.95	-3.2708	-3.3812	-2.9	-3.3625	-3.1813	-2.9854	-3.3083	-2.925	-3.2146	-3.1792	-3.0458	-3.2521	-3.2521	165.840	99.075	138.914	297.855	243.701	144.312	-56.874	241.860	271.209	214.721	260.946	247.514	233.326	237.738	89.689	189.443	0.00047946	0.00074426	0.00023892	780.91	4.6017e-06	4.4957e-06	809.02	328.57	4.521e-06	9.2526e-06	375.62	155.87	137.27	64.034	2.7942e-06	79.557	0.00081641	0.00080234	0.00023899	828.59	8.9381e-06	8.8064e-06	854.86	342.64	8.9002e-06	8.8098e-06	396.06	162.27	146.77	65.886	9.494e-06	81.614	132.644	65.598	23.881	-46.534	-47.316	86.711	-47.593	-42.134	48.228	69.302	-44.133	-40.394	-38.582	-32.807	67.095	-36.020	-8191	255	
5866.288	1	1	0	0	0.29784	0.13552	0.10368	0.053561	0.22477	0.16097	0.26035	0.12984	0.16166	0.099388	0.048368	0.34689	0.23487	0.37018	0.072833	0.029013	-2.3271	-3.2687	-2.9167	-3.0438	-3.2667	-2.9875	-3.2729	-3.2375	-2.9521	-3.4208	-3.2021	-3.1437	-3.2208	-3.1833	-3.0542	-3.2417	213.785	91.481	-33.129	190.055	225.397	75.681	217.386	234.363	250.185	194.079	292.427	282.920	172.868	278.028	292.239	127.292	0.00032829	0.00016652	0.00019251	776.93	5.9894e-06	5.843e-06	805.41	327.78	4.7405e-06	6.0335e-06	374.15	155.31	138.3	64.24	4.948e-06	79.768	0.00079652	0.0008114	0.0002381	825.99	8.6943e-06	8.93e-06	852.04	341.75	8.7334e-06	9.0003e-06	395.29	161.91	146.68	66.223	9.4613e-06	81.729	150.074	284.636	4.834	-46.237	43.182	161.037	-47.330	-42.026	22.932	130.681	-44.687	-40.382	-38.420	-32.882	259.218	-36.437	-8191	255	
5866.360	1	1	0	0	0.099923	0.15831	0.15873	0.036128	0.0075412	0.17978	0.25445	0.32697	0.13661	0.11464	0.37697	0.10617	0.095506	0.34694	0.19405	0.1449	-2.5896	-3.2188	-2.9583	-3.0062	-3.1792	-3.2417	-3.3271	-3.1937	-2.8521	-3.2687	-3.2375	-3.1125	-3.3063	-3.2	-3.1437	-3.1937	70.023	210.735	217.512	253.516	241.487	26.684	166.493	218.716	16.601	266.697	226.062	5.005	150.965	244.712	-9.895	94.218	0.00029829	0.00021346	0.00033375	779.03	7.2633e-06	3.4994e-06	807.21	329.21	1.7132e-06	3.4555e-06	375.8	155.65	138.56	63.914	9.0062e-06	78.598	0.00078639	0.00083614	0.00023858	827	8.7503e-06	9.346e-06	853.86	344.17	8.9154e-06	9.68e-06	397.48	162.66	147.62	66.06	9.9291e-06	81.164	118.006	217.208	69.225	-46.501	-4.817	130.441	-47.300	-41.999	-21.652	65.492	-44.252	-40.214	-38.314	-32.844	59.209	-35.922	-8191	255	
5866.456	1	1	0	0	0.18764	0.15038	0.22107	0.16819	0.16319	0.32713	0.27708	0.28119	0.28427	0.21428	0.18328	0.16168	0.12197	0.22368	0.067317	0.19082	-2.5354	-3.4208	-2.9979	-3.0917	-3.2292	-2.9979	-3.0979	-3.3708	-2.9604	-3.2771	-3.1562	-3.0333	-3.2646	-3.1042	-3.0062	-3.2438	135.698	-30.241	225.158	126.346	290.042	202.123	197.471	233.631	-23.611	270.386	294.079	227.693	73.489	296.263	-52.281	288.141	0.00043922	0.00037317	0.00016108	775.84	2.5025e-06	7.3315e-06	800.13	320.33	5.1537e-06	5.2078e-06	363.65	150.5	134.83	62.783	4.6862e-06	77.49	0.00085098	0.00093319	0.00025437	825.61	9.6384e-06	1.031e-05	849.89	335.88	9.7313e-06	1.0418e-05	386.48	157.88	145.53	65.367	1.0059e-05	80.102	138.245	8.303	10.248	-46.526	119.932	101.766	-47.526	-41.855	234.068	109.110	-44.124	-40.144	-38.156	-32.623	112.259	-35.829	-8191	255	
5866.577	1	1	0	0	0.18032	0.092797	0.14599	0.30995	0.024804	0.25374	0.35049	0.33056	0.10981	0.13829	0.16902	0.39734	0.1554	0.34789	0.20911	0.10054	-2.5479	-3.0208	-3.0708	-3.0563	-3.3917	-2.9083	-3.0771	-3.3771	-2.8458	-3.325	-3.0833	-2.8583	-3.3625	-3.0958	-2.8792	-3.3688	-2.110	194.793	119.825	297.832	122.841	78.058	222.144	261.050	205.300	287.978	261.303	253.501	194.991	-39.668	268.135	199.815	0.00040038	0.00043291	5.5532e-05	774.1	4.6522e-06	8.9487e-06	796.53	319.51	5.6185e-06	1.2609e-05	364.25	152.26	134.98	63.345	6.5046e-06	78.961	0.00089884	0.00096247	0.00025443	825.09	9.9193e-06	1.0443e-05	847.12	334.72	9.9628e-06	1.0253e-05	387.02	159.01	146.5	65.868	9.7268e-06	81.113	110.612	-8.262	-6.017	-46.412	81.942	-10.846	-47.496	-42.087	266.532	75.646	-44.359	-40.039	-38.578	-32.746	-6.905	-35.887	-8191	255	
5866.673	1	1	0	0	0.075324	0.070202	0.22196	0.096296	0.28113	0.14072	0.24346	0.10446	0.27204	0.13939	0.13092	0.16503	0.28574	0.13827	0.35585	0.0086747	-2.4104	-3.1125	-3.0854	-3.0438	-3.1979	-3.05	-3.0542	-3.3792	-3.2042	-3.1729	-3.1208	-3.0687	-3.1021	-3.2646	-2.9729	-3.3792	-35.678	9.995	-12.860	148.455	115.455	264.961	296.109	176.722	-16.233	155.978	235.884	246.962	282.412	293.143	87.106	297.011	0.00041838	0.00083553	0.00010887	774.04	9.084e-06	5.3425e-06	811.89	327.03	7.8651e-07	7.0137e-06	376.52	157.32	139.13	65.12	5.3608e-06	81.326	0.00089451	0.00091277	0.00024315	825.91	9.7857e-06	9.7303e-06	854.79	342.11	9.6967e-06	9.5304e-06	396.12	163.68	150.05	67.131	9.0123e-06	83.218	138.924	9.713	126.735	-46.429	116.505	-10.270	-47.611	-41.785	31.004	27.493	-44.521	-40.286	-38.562	-32.847	41.893	-35.967	-8191	255	
5866.769	1	1	0	0	0.044831	0.19893	0.30735	0.15053	0.10696	0.25211	0.2127	0.32277	0.088996	0.18637	0.079972	0.2525	0.19018	0.23509	0.20227	0.32193	-2.4646	-2.9354	-3.0646	-2.825	-3.2313	-2.9458	-3.05	-3.1083	-2.8458	-3.0833	-3.2771	-3.1021	-3.3771	-3.375	-2.8187	-3.3729	113.787	175.204	248.689	214.215	51.116	223.658	-59.101	236.338	104.079	185.791	202.710	-18.704	165.694	290.306	274.329	254.305	0.00032692	0.0011633	3.7074e-05	778.7	6.0763e-06	1.0497e-05	813.39	333.27	1.5792e-06	5.2116e-06	382.64	158.69	140.22	65.158	6.9241e-06	81.616	0.00085989	0.0008331	0.00022268	824.67	9.3637e-06	9.0564e-06	853.88	346.67	9.291e-06	8.9407e-06	399.78	164.99	150.04	67.072	8.6084e-06	83.666	109.574	-36.184	-9.524	-46.108	36.454	84.137	-47.629	-42.151	163.047	176.288	-44.397	-40.296	-38.334	-32.760	146.806	-36.454	-8191	255	
5866.865	1	1	0	0	0.12179	0.046657	0.2574	0.074284	0.17771	0.24252	0.12606	0.31226	0.12981	0.099655	0.13446	0.21108	0.073832	0.26379	0.23271	0.32161	-2.3917	-2.8854	-3.05	-2.975	-3.3354	-3.1229	-3.0229	-3.2542	-3.0646	-2.9417	-3.2562	-3.2042	-3.2354	-3.2417	-2.9521	-3.4813	169.963	229.103	12.696	246.708	-49.676	241.839	196.190	249.525	272.380	277.226	-38.415	221.235	146.776	268.675	162.994	265.778	0.000327	0.00014637	0.00011021	779.54	3.5882e-06	6.0608e-06	814.46	334.22	4.7252e-07	8.9681e-06	383.04	159.73	140.49	65.262	5.7594e-06	82.399	0.00083861	0.00080804	0.00021711	825.98	9.1451e-06	8.8195e-06	852.22	346.87	9.147e-06	8.7758e-06	400.16	166.24	150.07	66.928	8.5105e-06	84.189	125.772	33.796	34.268	-46.422	115.465	36.663	-47.559	-41.966	245.605	85.003	-44.198	-40.241	-38.801	-33.158	169.155	-36.296	-8191	255	
5866.961	1	1	0	0	0.04329	0.26758	0.053048	0.2836	0.18526	0.034884	0.21282	0.16311	0.066991	0.22869	0.29489	0.14776	0.12506	0.12251	0.12346	0.05638	-2.5542	-3.0896	-3.2625	-3.2333	-3.0521	-3.0333	-3.0187	-3.3604	-3.1333	-3.0729	-3.4229	-2.9646	-3.2354	-3.4458	-2.8896	-3.3458	68.601	152.441	46.476	183.191	-26.183	-36.866	283.329	263.268	129.775	-1.014	207.438	73.770	174.933	187.826	228.941	13.365	0.00028308	0.00075855	0.00031928	777.91	5.5135e-06	1.6954e-05	813.41	334.02	3.8573e-06	9.7324e-06	382.77	159.69	140.39	65.097	1.7287e-06	82.455	0.00081958	0.0007918	0.00021499	827.05	9.041e-06	8.641e-06	851.75	347.83	8.9812e-06	8.7025e-06	400.4	166.62	148.94	66.802	8.5488e-06	84.233	152.070	35.451	10.523	-46.476	8.951	77.101	-47.331	-42.148	84.171	114.576	-44.446	-40.195	-38.598	-32.885	43.415	-36.024	-8191	255	
5867.058	1	1	0	0	0.27663	0.10913	0.083085	0.24569	0.25101	0.15282	0.14545	0.23881	0.038575	0.074309	0.21554	0.093475	0.034732	0.3195	0.28751	0.21705	-2.7125	-2.7833	-3.2	-3.1375	-2.9583	-3.3396	-2.95	-3.2313	-3.1167	-2.9688	-3.2708	-3.1979	-3.05	-3.3917	-2.975	-3.2542	262.723	265.009	259.289	238.017	25.460	31.787	-38.049	256.540	181.379	-19.526	282.412	235.774	74.476	286.037	255.717	192.301	0.00022827	0.00059394	0.00022623	778.26	5.1114e-06	7.9232e-06	807.28	333.77	2.1237e-06	2.8314e-06	383.76	159.18	140.03	64.79	9.1788e-06	81.564	0.0007962	0.00077849	0.00021681	827.26	8.6659e-06	8.404e-06	849.41	347.53	8.6164e-06	8.3201e-06	400.74	165.86	148.38	66.547	8.7234e-06	83.55	153.415	0.797	73.754	-46.463	-1.808	66.040	-47.396	-41.885	81.135	97.172	-44.425	-40.284	-38.262	-32.783	198.881	-36.247	-8191	255	
5867.176	1	1	0	0	0.12107	0.13209	0.058342	0.034627	0.2959	0.068322	0.16245	0.25472	0.19624	0.092079	0.18606	0.087831	0.14728	0.11426	0.12983	0.032905	-2.5396	-3.0646	-3.0417	-3.1208	-3.0208	-3.2396	-3.0187	-3.2646	-3.0708	-2.8854	-3.2292	-3.0708	-3.1437	-3.3125	-2.9792	-3.3458	216.997	95.686	38.268	224.302	252.214	95.191	234.098	251.519	-41.453	269.995	226.185	190.415	96.488	267.188	264.540	27.500	0.00027052	0.00025994	0.00025968	777.84	3.8812e-06	1.4829e-05	803.66	331.93	1.5906e-06	4.8467e-06	380.96	158.88	140.65	64.455	1.7191e-06	81.206	0.00078355	0.00075817	0.00022155	822.68	8.49e-06	8.2339e-06	845.03	345.58	8.4548e-06	8.2214e-06	398.79	164.83	147.91	66.145	8.8561e-06	83.027	97.851	-44.001	114.756	-46.428	19.525	43.784	-47.779	-42.253	181.454	147.108	-44.401	-40.566	-38.451	-32.849	66.196	-36.057	-8191	255	
5867.273	1	1	0	0	0.15817	0.12424	0.16503	0.31796	0.1687	0.18932	0.10729	0.31305	0.33647	0.20999	0.084906	0.13561	0.085461	0.25326	0.092031	0.32385	-2.8625	-3.0062	-3.175	-3.0312	-3.0187	-3.2271	-3.1562	-3.2583	-3.1875	-3.0438	-3.2438	-3.1688	-2.9958	-3.3854	-3.075	-3.2333	152.966	108.762	-23.188	255.494	143.557	108.499	90.007	194.510	34.284	40.740	251.167	192.337	-17.542	285.910	206.043	240.581	0.00039372	0.00060635	0.00019701	775.35	4.4575e-06	1.4019e-05	806.38	331.79	6.6671e-07	4.4468e-06	380.13	158.76	138.94	64.497	4.0951e-06	81.469	0.00077108	0.00075687	0.00022866	820.28	8.5245e-06	8.348e-06	848.03	345.14	8.4649e-06	8.39e-06	400.08	164.63	147.46	66.369	8.9142e-06	83.021	135.938	71.786	131.589	-46.064	103.704	164.010	-47.273	-42.100	-9.482	19.251	-44.198	-40.380	-38.545	-32.842	197.344	-36.097	-8191	255	
5867.369	1	1	0	0	0.093734	0.062953	0.09503	0.11079	0.11066	0.048466	0.010484	0.1517	0.12406	0.14257	0.39846	0.18066	0.12192	0.33571	0.095113	0.13926	-2.8146	-2.9354	-3.0104	-3.2646	-2.9833	-3.2229	-3.2229	-3.2604	-3.2313	-2.7792	-3.3333	-3.25	-3.0167	-3.5396	-2.9562	-3.0917	167.611	-14.576	-40.634	197.055	196.969	46.186	30.103	297.299	-43.601	291.200	262.643	178.994	187.287	280.371	22.046	248.759	0.00033458	0.00075744	5.5419e-05	773.46	4.6814e-06	9.6337e-06	806.19	332.32	3.1248e-06	1.3091e-05	381.99	159.29	139.61	64.604	7.002e-06	81.707	0.00075312	0.00076859	0.00022724	818.08	8.2834e-06	8.5286e-06	847.36	345.07	8.2671e-06	8.5977e-06	401.19	164.98	147.14	66.413	8.9466e-06	83.355	126.075	-24.219	273.952	-46.353	80.400	152.182	-47.713	-42.012	77.315	158.173	-44.280	-40.423	-38.430	-32.797	165.136	-36.158	-8191	255	
5867.465	1	1	0	0	0.015003	0.17933	0.049548	0.2148	0.048309	0.055234	0.14049	0.17981	0.13375	0.11107	0.14593	0.054069	0.086969	0.3771	0.069445	0.32188	-2.9354	-2.9604	-3.2292	-3.225	-2.875	-3.3292	-3.15	-3.2229	-3.2146	-3.0271	-3.2	-3.1625	-3.0062	-3.4958	-3.0271	-2.9479	19.916	-54.958	30.365	293.711	-1.747	9.527	3.674	182.419	60.131	57.168	123.843	8.037	-11.425	-53.143	126.392	230.441	0.00032719	0.0005138	9.8508e-05	776.73	5.3741e-06	6.663e-06	808.12	332.23	6.7701e-06	9.5208e-06	382.51	158.29	139.3	64.492	5.4094e-06	81.425	0.00074742	0.00079304	0.00022689	819.78	8.273e-06	8.8215e-06	848.54	344.78	8.265e-06	8.8629e-06	400.76	164.67	147.22	66.463	8.8585e-06	82.88	118.545	81.438	18.066	-46.183	99.602	98.450	-47.511	-41.754	16.731	100.033	-44.340	-40.459	-38.851	-32.650	93.757	-36.334	-8191	255	
5867.586	1	1	0	0	0.093416	0.27841	0.18516	0.057318	0.14768	0.13235	0.14527	0.38151	0.095698	0.22662	0.095877	0.20847	0.20855	0.25495	0.18424	0.22298	-2.8896	-2.8896	-3.0042	-3.2646	-2.9833	-3.3417	-3.3542	-2.9646	-3.2271	-2.9375	-3.1875	-3.2833	-3.0187	-3.4292	-2.8521	-3.0958	290.727	89.787	228.781	211.476	190.649	63.762	176.606	213.890	202.197	79.964	203.464	-53.530	242.100	221.152	-33.552	229.343	0.00032835	0.0003318	0.00021808	774.84	8.4231e-06	5.1429e-06	801.02	331.68	4.6646e-06	3.6768e-06	380.72	157.76	139.35	64.263	5.3038e-06	80.571	0.0007558	0.00081963	0.00022351	817.55	8.3413e-06	9.0434e-06	843.2	343.97	8.4411e-06	9e-06	397.59	163.32	147.34	66.181	8.5918e-06	82.204	130.310	16.117	71.839	-46.395	34.265	29.474	-47.634	-42.133	272.881	105.976	-44.591	-40.607	-38.408	-32.958	235.641	-36.012	-8191	255	
5867.657	1	1	0	0	0.22719	0.21711	0.17372	0.17459	0.18875	0.19111	0.1288	0.098359	0.2584	0.21441	0.12885	0.19721	0.1785	0.31027	0.089431	0.12376	-2.8187	-2.8896	-3.0208	-3.0958	-3.0083	-3.3042	-3.2229	-3.1271	-3.3521	-2.9708	-3.1354	-3.4542	-2.9896	-3.4062	-3.1125	-3.0104	-31.426	95.409	298.224	-22.779	73.041	191.895	291.798	194.395	-49.239	235.586	148.094	-29.252	201.258	197.943	135.989	256.503	0.00040158	0.0013212	0.00016038	774.27	4.215e-06	9.5281e-06	803.19	330.88	2.5149e-06	4.5674e-06	380.94	158.23	139.1	64.377	8.7817e-06	80.372	0.00077639	0.00082061	0.00021799	814.98	8.5945e-06	8.8867e-06	840.74	343.18	8.5726e-06	8.8431e-06	396.56	163.25	147.55	66.129	8.4722e-06	82.168	114.498	-22.703	69.136	-46.704	-27.867	88.429	-47.757	-42.047	146.678	106.212	-44.401	-40.396	-38.665	-33.036	174.031	-36.308	-8191	255	
5867.753	1	1	0	0	0.19857	0.15836	0.1999	0.17725	0.36366	0.18115	0.19964	0.35328	0.083487	0.08538	0.33936	0.27983	0.2368	0.052855	0.16715	0.44741	-2.7375	-2.9354	-2.875	-3.3396	-2.7938	-3.1396	-3.2646	-3.1146	-3.1792	-3.1625	-2.9813	-3.1083	-3.0146	-3.3	-3.1979	-2.9396	223.335	184.345	8.061	275.199	-8.305	-29.975	8.180	229.665	-22.796	54.112	-38.643	266.902	222.714	65.502	253.206	274.677	0.00034474	0.00036478	0.00028077	774.08	4.6149e-06	9.082e-06	800.9	331.18	8.9154e-07	5.0717e-06	380.59	158.91	138.78	64.227	5.8097e-06	81.367	0.00078497	0.00079446	0.00021239	813.62	8.6916e-06	8.6397e-06	838.41	342.81	8.6978e-06	8.5674e-06	396.26	163.91	147.87	66.065	8.1991e-06	82.675	136.914	12.945	22.508	-46.331	220.374	-16.624	-47.629	-41.976	168.926	171.052	-44.283	-40.454	-38.443	-32.900	113.325	-36.134	-8191	255	
5867.874	1	1	0	0	0.11898	0.18965	0.089641	0.16001	0.0074892	0.19156	0.12932	0.36905	0.27417	0.21506	0.28946	0.034102	0.12065	0.33168	0.31489	0.21451	-2.7812	-3.0021	-2.7042	-3.1833	-2.9833	-3.1312	-3.5354	-2.9542	-3.2479	-3.0583	-3.0708	-3.1437	-2.85	-3.0979	-3.2271	-3.0333	221.928	157.024	14.777	-56.418	181.012	284.338	235.949	252.468	236.461	134.163	279.387	55.035	19.305	226.418	280.176	252.494	0.00045508	7.1684e-05	0.00027631	771.5	2.7966e-06	1.0359e-05	801.58	331.28	7.9157e-06	9.5404e-06	382.18	158.89	139.84	64.382	3.602e-06	81.518	0.00079294	0.00077462	0.00020789	814.24	8.805e-06	8.4582e-06	838.75	343.99	8.7766e-06	8.4396e-06	397.28	164.67	148.27	66.1	8.107e-06	83.011	113.717	35.199	14.848	-46.255	113.109	123.817	-47.199	-41.894	83.183	101.818	-44.246	-40.690	-38.610	-32.938	202.758	-36.106	-8191	255	
5867.968	1	1	0	0	0.14126	0.17142	0.22265	0.16318	0.17501	0.21384	0.056555	0.10566	0.06928	0.23413	0.34295	0.20484	0.15055	0.2236	0.15636	0.11219	-2.7833	-3.1437	-2.9875	-3.2479	-2.825	-3.1437	-3.3563	-3.1125	-3.0542	-3.1583	-2.9313	-3.3333	-3.0625	-3.125	-3.2729	-3.1937	168.125	162.456	269.346	-37.246	206.703	-43.358	122.866	96.006	75.994	242.753	183.770	-25.131	216.997	284.131	181.037	294.988	0.00047397	0.00089604	0.00031016	776.55	5.9146e-06	4.2757e-06	799.3	330.4	6.6432e-06	1.3491e-06	379.33	158.64	139.07	64.1	8.0131e-07	80.789	0.00079607	0.0007695	0.00020608	817.27	8.7215e-06	8.4094e-06	834.53	344.15	8.7007e-06	8.3336e-06	395.2	164.02	147.55	65.753	8.0995e-06	82.429	129.172	37.256	-20.582	-46.186	92.401	31.115	-47.617	-41.765	70.535	183.488	-44.387	-40.470	-38.962	-32.928	206.484	-36.026	-8191	255	
5868.065	1	1	0	0	0.11525	0.13314	0.23001	0.10236	0.23302	0.20383	0.2101	0.20164	0.041925	0.18862	0.26907	0.23356	0.3135	0.31679	0.030771	0.12647	-2.7042	-2.9292	-2.8333	-3.3688	-2.9896	-2.9854	-3.3312	-2.9583	-3.0833	-3.2792	-2.9833	-3.2771	-3.1917	-3.1	-3.3104	-3.1	232.732	28.729	265.148	3.175	-35.365	-55.830	131.117	-59.096	183.311	111.503	4.155	207.403	-46.136	257.863	297.484	-44.783	0.00027701	0.00058727	0.00012615	771.85	6.407e-06	2.9553e-06	795.66	330.63	4.0375e-06	8.2583e-06	377.25	157.34	138.68	63.786	1.0095e-05	80.092	0.00078636	0.00075928	0.00020611	816.72	8.5994e-06	8.2434e-06	831.38	343.27	8.5899e-06	8.1975e-06	393.23	163.23	146.6	65.368	8.0913e-06	82.052	127.182	-18.444	116.888	-46.347	-15.770	85.237	-47.579	-41.963	140.121	100.596	-44.299	-40.388	-38.807	-32.761	150.068	-36.098	-8191	255	
5868.185	1	1	0	0	0.10116	0.052395	0.094901	0.3182	0.20876	0.29558	0.16233	0.34824	0.23179	0.20155	0.25385	0.020807	0.13497	0.24221	0.091797	0.31794	-2.6833	-3.1021	-2.95	-3.2104	-3.0583	-2.7354	-3.3271	-3.1667	-3.0333	-3.3708	-2.9562	-3.1542	-3.275	-3.0333	-3.2125	-3.1229	87.492	182.391	224.633	-33.741	277.176	80.575	284.537	167.405	164.442	78.509	283.490	232.978	287.461	-26.014	222.887	271.186	0.00036338	0.00078478	0.00031727	773.15	3.3083e-06	9.1862e-06	792.88	329.42	3.4641e-06	3.2463e-06	378.89	157.54	139.61	63.89	2.0405e-06	80.406	0.00075983	0.00072947	0.00020448	815.34	8.2955e-06	7.9287e-06	830.46	342.62	8.3298e-06	7.9314e-06	393.9	163.43	146.3	65.386	8.3045e-06	82.419	138.365	35.455	122.290	-46.377	1.270	82.296	-47.567	-41.822	124.964	26.989	-44.077	-40.438	-38.657	-33.030	68.413	-36.300	-8191	255	
5868.257	1	1	0	0	0.19029	0.23078	0.24628	0.14745	0.20415	0.29047	0.21584	0.1366	0.16387	0.12694	0.051226	0.23297	0.098623	0.30081	0.10195	0.15306	-2.4333	-3.225	-2.8042	-3.3792	-3.0667	-2.8563	-3.4021	-3.275	-3.0563	-3.2604	-3.0917	-3.1667	-3.2229	-3.1104	-3.3083	-3.25	179.603	173.033	140.032	-58.568	104.451	132.645	287.776	283.230	134.609	-56.920	161.990	299.027	14.645	211.436	-41.526	158.886	0.00040688	0.00030016	9.4834e-05	768.35	6.3902e-06	7.2952e-06	795.36	328.48	6.2408e-06	1.3495e-05	379.5	157.49	139.36	64.062	6.3527e-06	80.952	0.00075759	0.00073593	0.00021664	812.87	8.349e-06	8.131e-06	834.93	342.39	8.3619e-06	8.1187e-06	396.22	163.82	146.71	65.566	8.6424e-06	82.752	140.207	-17.787	98.556	-46.341	49.330	91.669	-47.382	-42.092	125.231	162.899	-43.915	-40.434	-38.616	-32.820	169.750	-36.183	-8191	255	
5868.353	1	1	0	0	0.15902	0.26984	0.20374	0.09459	0.044666	0.29564	0.19793	0.18613	0.14459	0.1336	0.2099	0.36123	0.38106	0.25007	0.20427	0.12624	-2.4208	-3.3521	-3.1917	-3.1979	-3.0792	-2.9813	-3.275	-3.0521	-2.9667	-3.1042	-2.9729	-3.3646	-3.2125	-2.9458	-3.3208	-3.175	-4.700	-8.352	295.884	108.094	139.886	-0.139	266.430	-49.532	190.967	89.671	110.921	187.098	-23.737	-9.613	225.637	228.912	0.00032769	0.00047564	0.00015513	767.91	8.5859e-06	5.2529e-06	792	327.6	4.2262e-06	4.7157e-06	377.87	157.23	138.32	63.058	2.3844e-06	80.452	0.00075636	0.00074549	0.0002232	814.58	8.2726e-06	8.3103e-06	835.02	341.07	8.3014e-06	8.2234e-06	395.4	163.11	145.75	64.816	8.7778e-06	81.983	151.309	95.595	69.480	-46.421	150.490	100.887	-47.348	-41.870	23.640	269.576	-44.234	-40.342	-39.042	-32.760	133.272	-36.040	-8191	255	
5868.449	1	1	0	0	0.074761	0.31445	0.19256	0.27178	0.077226	0.12323	0.059601	0.25924	0.37238	0.18487	0.1891	0.34319	0.19677	0.1423	0.15155	0.24076	-2.4875	-3.3583	-2.8187	-3.0146	-3.2229	-2.9708	-3.1813	-3.2375	-2.9708	-3.2792	-3.1375	-3.1396	-3.4729	-3.0458	-3.0625	-3.1688	58.592	-25.418	-48.397	242.715	169.923	188.562	216.018	239.007	179.087	100.474	205.226	222.093	224.920	254.727	237.879	176.439	0.00033288	0.00033116	0.00022544	768.04	2.7892e-06	5.716e-06	787.46	329.68	6.4066e-06	5.9578e-06	375.58	156.73	139.24	63.681	8.4727e-06	80.304	0.00074106	0.00075338	0.0002232	812.04	8.1764e-06	8.3724e-06	830.17	341.42	8.0692e-06	8.3717e-06	393.37	162.45	145.1	65.194	8.5692e-06	81.844	119.584	65.072	155.233	-46.132	23.249	63.900	-47.432	-41.863	164.441	160.017	-44.502	-40.430	-38.454	-32.834	62.216	-36.118	-8191	255	
5868.545	1	1	0	0	0.11218	0.48665	0.092143	0.12449	0.11824	0.065346	0.085598	0.1825	0.13406	0.069493	0.19772	0.17554	0.061754	0.12182	0.19862	0.078463	-2.6167	-3.2646	-2.9938	-3.0771	-3.2625	-2.9333	-3.2708	-3.1229	-2.975	-3.2938	-3.2625	-3.025	-3.3104	-3.1063	-3.1646	-3.2521	-49.441	69.312	101.106	252.129	79.216	122.618	265.417	-31.735	249.298	97.066	283.397	253.824	176.873	-30.996	180.121	284.217	0.00045129	0.00016574	0.00022885	770.53	3.3584e-06	8.0035e-06	783.2	328.45	4.3972e-06	5.6752e-06	375.56	157.22	138.41	62.943	5.0704e-06	80.059	0.00071901	0.00076793	0.00021604	809.44	7.9035e-06	8.3931e-06	826.05	339.84	7.9384e-06	8.4581e-06	391.66	162.35	145.21	64.999	8.4828e-06	81.654	144.787	161.098	-7.050	-46.171	-13.050	105.740	-47.397	-41.783	119.584	173.492	-44.248	-40.506	-38.673	-32.782	82.147	-36.230	-8191	255	
5868.666	1	1	0	0	0.1621	0.26753	0.18971	0.17824	0.066577	0.12991	0.16934	0.11558	0.16418	0.14013	0.19016	0.25886	0.085999	0.20932	0.20678	0.23875	-2.5333	-3.0917	-3.1437	-3.1396	-3.1875	-3.0563	-3.225	-3.3229	-2.9229	-3.2271	-3.1813	-3.2021	-3.1979	-3.1063	-3.0792	-3.3604	265.985	20.793	188.494	295.645	-3.766	100.856	277.156	283.502	51.709	62.756	134.281	-43.402	257.896	-24.038	273.496	285.807	0.0003416	0.0010406	8.6615e-05	764.57	2.2383e-06	6.9218e-06	785.54	327.07	6.3544e-06	1.915e-06	373.21	157.09	137.63	63.215	7.1102e-06	80.312	0.00072703	0.00078191	0.00021431	807.48	8.1123e-06	8.6772e-06	824.15	338.4	8.1794e-06	8.7135e-06	390.87	162.32	145.47	64.961	8.3197e-06	81.96	108.552	29.090	-23.369	-46.380	78.225	265.373	-47.253	-41.890	172.294	148.188	-44.341	-40.323	-38.528	-32.807	103.881	-36.313	-8191	255	
5868.762	1	1	0	0	0.25282	0.11844	0.13505	0.19815	0.085355	0.14142	0.25811	0.14708	0.012281	0.14267	0.25561	0.33237	0.20269	0.31367	0.17959	0.14955	-2.4271	-3.2583	-2.9292	-2.8458	-3.225	-2.8438	-3.1583	-3.3771	-2.9167	-3.2687	-3.1229	-2.9708	-3.3396	-3.0771	-3.0042	-3.2771	10.795	188.595	222.755	-4.822	119.171	247.336	279.188	295.574	-0.715	100.233	222.563	272.147	237.081	245.352	232.849	212.153	0.00037906	0.00048639	0.00018802	769.13	6.0745e-06	5.7798e-06	783.26	327.34	2.7113e-06	7.7662e-06	377.05	157.3	137.96	63.138	1.5825e-06	80.558	0.00074645	0.00078744	0.00021132	807.76	8.2351e-06	8.5298e-06	822.46	338.17	8.196e-06	8.4099e-06	390.68	162.62	145.75	64.861	7.9513e-06	81.792	144.285	31.526	-9.008	-46.407	104.081	29.050	-47.648	-42.048	62.519	150.315	-44.121	-40.433	-38.389	-32.867	16.122	-36.249	-8191	255	
5868.858	1	1	0	0	0.11926	0.29102	0.034921	0.061321	0.08206	0.084519	0.11207	0.32079	0.22147	0.259	0.16737	0.071636	0.26394	0.18355	0.14804	0.063631	-2.4708	-3.1167	-3.15	-3.125	-3.1792	-2.9437	-3.0333	-3.4313	-2.8833	-2.9292	-3.2771	-3.2604	-3.3292	-3.1813	-3.0083	-3.4604	-29.377	-28.484	229.080	159.437	72.074	164.936	221.260	248.681	88.568	62.300	287.919	219.372	-14.308	146.615	32.639	-40.878	0.00041238	0.00063254	0.00012979	767.65	3.4204e-06	6.7392e-06	784.4	326.26	3.1488e-06	3.6824e-06	374.09	156.83	137.98	62.676	5.9882e-06	79.286	0.00074244	0.000751	0.00020091	805.97	8.1871e-06	8.1812e-06	818.25	337.69	8.2413e-06	8.1166e-06	388.02	161.61	145.75	64.298	7.7764e-06	80.83	127.439	61.263	21.387	-46.204	96.533	77.648	-47.360	-41.832	90.952	56.248	-44.198	-40.377	-38.449	-32.723	32.600	-36.225	-8191	255	
5868.954	1	1	0	0	0.09322	0.14089	0.10963	0.11792	0.022807	0.10039	0.28222	0.13656	0.07491	0.28077	0.24781	0.25047	0.052644	0.14842	0.21785	0.2328	-2.5958	-3.1937	-3.1396	-3.0375	-3.2396	-3.275	-2.9917	-3.4104	-2.825	-3.1542	-3.3688	-3.0646	-3.1833	-3.2458	-2.9292	-3.3833	63.544	83.724	-39.646	120.220	224.902	52.402	214.573	234.825	164.234	106.601	298.529	130.506	39.185	43.325	44.387	257.868	0.00035614	0.00075766	0.00022557	765.3	1.0982e-06	7.3305e-06	780.44	325.68	5.1651e-06	4.9769e-06	371.39	155.8	138.18	62.784	6.1002e-06	79.516	0.00075051	0.00072735	0.00019512	805.14	8.2676e-06	8.0207e-06	813.7	337.48	8.3356e-06	7.9363e-06	386.33	161.42	145.65	64.215	7.7393e-06	80.922	127.720	5.988	-3.643	-46.012	103.583	103.130	-47.519	-41.753	220.333	126.378	-44.211	-40.310	-38.866	-32.832	120.700	-36.184	-8191	255	
5869.051	1	1	0	0	0.12723	0.21777	0.26326	0.26356	0.10232	0.19543	0.11598	0.12002	0.17538	0.15421	0.27256	0.19787	0.3642	0.22353	0.22132	0.39764	-2.6625	-2.8958	-3.1896	-2.8438	-3.3979	-3.2667	-2.9375	-3.225	-3.0938	-3.1083	-3.3625	-3.1104	-3.3063	-3.2021	-2.9833	-3.3708	122.041	-50.613	150.504	258.064	-34.667	283.163	226.128	231.405	39.822	33.614	263.784	267.598	263.856	258.870	50.782	263.777	0.00030463	0.00058239	0.00010366	763.02	5.9157e-06	9.8688e-06	780.52	326.09	4.2418e-07	8.1296e-06	372.44	156.13	137.79	62.589	3.9936e-06	79.743	0.00075345	0.00073068	0.00019539	805.69	8.3089e-06	7.9674e-06	812.84	337.6	8.2589e-06	7.8701e-06	385.6	161.54	145.26	64.08	7.6429e-06	81.14	128.847	16.065	-7.906	-46.108	6.817	45.005	-47.616	-41.648	16.474	100.943	-44.435	-40.314	-38.588	-32.738	89.653	-36.193	-8191	255	
5869.147	1	1	0	0	0.13099	0.14533	0.17415	0.093347	0.21735	0.21711	0.18792	0.28811	0.18459	0.21991	0.10134	0.18381	0.066509	0.28224	0.048298	0.1526	-2.6604	-2.9437	-3.1771	-3.1292	-3.1208	-3.1083	-3.0125	-3.3958	-3.0167	-3.0062	-3.4	-2.9625	-3.2062	-3.4417	-2.9875	-3.5521	206.277	144.609	191.744	275.211	200.124	63.737	236.680	236.086	30.749	26.861	249.893	255.005	125.671	263.426	143.160	-30.645	0.00027836	0.00042833	0.00025231	761.29	5.5989e-06	2.7064e-06	781.38	325.02	3.2228e-06	3.0809e-06	371.7	156.66	137.54	61.86	3.211e-06	79.586	0.00074755	0.00072152	0.00019575	807.28	8.1196e-06	7.8536e-06	814.26	337.46	8.166e-06	7.7714e-06	385.84	162.04	144.74	63.61	7.7338e-06	81.032	119.224	90.027	27.999	-46.036	35.351	71.328	-47.143	-41.851	-51.120	131.605	-44.195	-40.135	-38.334	-32.737	98.833	-36.176	-8191	255	
5869.266	1	1	0	0	0.16192	0.21652	0.061006	0.09701	0.2641	0.13257	0.17159	0.19802	0.1722	0.17243	0.18989	0.18925	0.12232	0.17441	0.27133	0.29032	-2.6854	-2.8937	-3.2708	-3.0812	-3.1167	-3.3854	-3.0917	-3.2083	-3.1458	-2.9062	-3.5083	-3.15	-3.15	-3.4437	-3	-3.375	236.399	88.899	59.242	175.981	120.668	35.436	206.438	-30.111	37.761	-33.641	284.523	257.270	106.673	242.788	2.737	290.705	0.00028917	0.0010213	0.00018195	767.77	5.2063e-06	8.2528e-06	776.25	323.67	3.4826e-06	5.878e-06	368.22	155.54	137.42	61.846	1.8563e-06	78.787	0.00072599	0.00070822	0.00019728	809.96	7.9223e-06	7.737e-06	812.16	335.87	7.9136e-06	7.6192e-06	384.2	161.38	144.15	63.417	7.9429e-06	80.484	128.963	19.525	70.153	-46.363	32.203	60.986	-47.341	-41.756	104.226	138.818	-44.159	-40.306	-38.239	-32.768	136.437	-35.962	-8191	255	
5869.362	1	1	0	0	0.061246	0.13117	0.137	0.15268	0.090917	0.24916	0.14285	0.048724	0.17877	0.11417	0.24886	0.19421	0.072513	0.3768	0.12567	0.13982	-2.7292	-2.8292	-3.3375	-3.0938	-3.0625	-3.2646	-3.1271	-3.4042	-3.1583	-3.0542	-3.3542	-3.2333	-3.1188	-3.3229	-2.9229	-3.2438	48.984	155.502	143.300	-33.775	285.878	74.764	249.131	192.314	7.966	257.563	247.478	240.297	-4.153	258.084	185.493	-55.998	0.00036222	0.00069629	0.00010693	766.54	8.977e-06	9.1852e-06	770.94	323.61	8.3692e-06	2.4333e-06	368.68	154.8	137.74	62.213	4.7535e-06	79.031	0.00071755	0.00069203	0.00020335	806.18	7.7935e-06	7.6239e-06	809.51	335.32	7.8656e-06	7.6114e-06	384.86	160.66	144.45	63.758	8.3038e-06	80.539	115.428	24.866	153.975	-46.610	70.004	161.396	-47.534	-41.787	100.870	18.573	-44.229	-40.318	-38.330	-32.646	157.347	-36.216	-8191	255	
5869.458	1	1	0	0	0.10246	0.142	0.30799	0.22664	0.091647	0.06626	0.16236	0.17416	0.084867	0.22518	0.1255	0.42607	0.029541	0.25469	0.061453	0.055259	-2.8958	-2.8917	-3.1354	-3.0917	-3.1396	-3.3125	-3.1396	-3.2521	-3.0646	-3.0812	-3.3292	-3.2417	-3.0146	-3.3667	-3.1271	-3.2958	-34.271	-5.634	268.239	-55.343	155.887	-50.167	202.272	204.754	-33.499	271.218	-38.759	-38.678	271.245	260.289	157.940	174.069	0.00027563	0.0006624	0.00016547	765.87	2.2832e-06	7.0323e-06	776.05	324.34	4.2668e-06	6.9843e-06	370.3	155.16	137.02	62.193	9.8729e-06	78.491	0.00072858	0.00071646	0.00021421	805.86	7.9131e-06	7.8876e-06	815.71	337.3	7.9319e-06	7.8613e-06	387.91	160.56	144.23	63.768	8.5597e-06	80.274	128.247	37.144	43.599	-46.186	182.347	121.977	-47.291	-41.682	49.610	65.526	-44.020	-40.418	-38.366	-32.535	142.077	-36.146	-8191	255	
5869.554	1	1	0	0	0.1223	0.12269	0.14151	0.45408	0.30753	0.18938	0.12911	0.20888	0.10132	0.10848	0.1741	0.29708	0.31287	0.27703	0.27915	0.011367	-2.6854	-2.6562	-2.9979	-3.1104	-3.0812	-3.2146	-3.1833	-3.1542	-3.0604	-2.9188	-3.1271	-3.1646	-3.0021	-3.2542	-3.0417	-3.1937	292.651	11.327	111.114	293.121	-46.592	62.490	290.715	31.967	274.542	68.660	263.650	247.175	120.296	-32.135	-0.589	65.692	0.00023604	0.001204	0.00014137	767.56	6.5109e-06	3.7524e-06	782.72	326.45	3.9401e-06	4.0265e-06	372.47	153.66	134.79	62.449	7.0868e-06	77.927	0.00072586	0.00074416	0.0002184	810	8.0782e-06	8.3494e-06	823.62	340.11	8.208e-06	8.6055e-06	390.92	159.43	143.72	64.24	9.1069e-06	79.853	136.441	75.002	151.412	-46.165	33.304	149.845	-47.432	-41.818	46.423	217.534	-44.061	-40.439	-38.648	-32.831	50.480	-36.322	-8191	255	
#DATA ENDS
