BOXY.EXE: ISS Imagent and Oximeter Data Acquisition Program Version 0.80
Ascii Record File

#ACQ INFORMATION
2  Detector Channels 
16  External MUX Channels 
1  Auxiliary Channels 
5000  Waveform (CCF) Frequency (Hz)
1  Waveforms Skipped 
30  Waveforms Averaged 
1  Cycles Averaged 
16  Acquisitions per Waveform 
10.0806  Updata Rate (Hz) 

#FILE INFORMATION
TRUE -- External MUX Channel results are PARSED.
FALSE -- AC DC and Phase are NOT grouped.
TRUE -- Companion Program Settings File CREATED.
FALSE -- AC data not excluded
FALSE -- DC data not excluded
FALSE -- Phase data not excluded
FALSE -- Auxillary Chn. data not excluded
Tab delimiters

#CALIBRATION STATE
TRUE -- Waveform Calibration Values APPLIED.


#AUX CALIBRATION VALUES
Val Type	aux-1	

Term	1.0000e+00	
Factor	0.0000e+00	


#WF CALIBRATION VALUES
A = Detector Channel
Val Type	A-AC1	A-AC2	A-AC3	A-AC4	A-AC5	A-AC6	A-AC7	A-AC8	A-AC9	A-AC10	A-AC11	A-AC12	A-AC13	A-AC14	A-AC15	A-AC16	A-DC1	A-DC2	A-DC3	A-DC4	A-DC5	A-DC6	A-DC7	A-DC8	A-DC9	A-DC10	A-DC11	A-DC12	A-DC13	A-DC14	A-DC15	A-DC16	A-Ph1	A-Ph2	A-Ph3	A-Ph4	A-Ph5	A-Ph6	A-Ph7	A-Ph8	A-Ph9	A-Ph10	A-Ph11	A-Ph12	A-Ph13	A-Ph14	A-Ph15	A-Ph16	

Term	0.00000e+00	0.00000e+00	0.00000e+00	0.00000e+00	0.00000e+00	0.00000e+00	0.00000e+00	0.00000e+00	0.00000e+00	0.00000e+00	0.00000e+00	0.00000e+00	0.00000e+00	0.00000e+00	0.00000e+00	0.00000e+00	0.00000e+00	0.00000e+00	0.00000e+00	0.00000e+00	0.00000e+00	0.00000e+00	0.00000e+00	0.00000e+00	0.00000e+00	0.00000e+00	0.00000e+00	0.00000e+00	0.00000e+00	0.00000e+00	0.00000e+00	0.00000e+00	0.00000e+00	0.00000e+00	0.00000e+00	0.00000e+00	0.00000e+00	0.00000e+00	0.00000e+00	0.00000e+00	0.00000e+00	0.00000e+00	0.00000e+00	0.00000e+00	0.00000e+00	0.00000e+00	0.00000e+00	0.00000e+00	
Factor	1.00000e+00	1.00000e+00	1.00000e+00	1.00000e+00	1.00000e+00	1.00000e+00	1.00000e+00	1.00000e+00	1.00000e+00	1.00000e+00	1.00000e+00	1.00000e+00	1.00000e+00	1.00000e+00	1.00000e+00	1.00000e+00	1.00000e+00	1.00000e+00	1.00000e+00	1.00000e+00	1.00000e+00	1.00000e+00	1.00000e+00	1.00000e+00	1.00000e+00	1.00000e+00	1.00000e+00	1.00000e+00	1.00000e+00	1.00000e+00	1.00000e+00	1.00000e+00	X	X	X	X	X	X	X	X	X	X	X	X	X	X	X	X	

B = Detector Channel
Val Type	B-AC1	B-AC2	B-AC3	B-AC4	B-AC5	B-AC6	B-AC7	B-AC8	B-AC9	B-AC10	B-AC11	B-AC12	B-AC13	B-AC14	B-AC15	B-AC16	B-DC1	B-DC2	B-DC3	B-DC4	B-DC5	B-DC6	B-DC7	B-DC8	B-DC9	B-DC10	B-DC11	B-DC12	B-DC13	B-DC14	B-DC15	B-DC16	B-Ph1	B-Ph2	B-Ph3	B-Ph4	B-Ph5	B-Ph6	B-Ph7	B-Ph8	B-Ph9	B-Ph10	B-Ph11	B-Ph12	B-Ph13	B-Ph14	B-Ph15	B-Ph16	

Term	0.00000e+00	0.00000e+00	0.00000e+00	0.00000e+00	0.00000e+00	0.00000e+00	0.00000e+00	0.00000e+00	0.00000e+00	0.00000e+00	0.00000e+00	0.00000e+00	0.00000e+00	0.00000e+00	0.00000e+00	0.00000e+00	0.00000e+00	0.00000e+00	0.00000e+00	0.00000e+00	0.00000e+00	0.00000e+00	0.00000e+00	0.00000e+00	0.00000e+00	0.00000e+00	0.00000e+00	0.00000e+00	0.00000e+00	0.00000e+00	0.00000e+00	0.00000e+00	-1.62186e+02	-1.31730e+02	-1.27311e+02	-1.82839e+02	-7.22027e+01	-7.27005e+01	-1.55569e+02	-1.62015e+02	-8.76372e+01	-5.40435e+01	-1.72178e+02	-1.69985e+02	-1.81095e+02	-1.77169e+02	-7.66771e+01	-1.49038e+02	
Factor	2.42245e-05	1.56023e-04	3.81428e-05	1.75312e-01	1.40971e-06	1.64037e-06	1.54563e-01	4.71353e-02	1.24050e-06	1.69146e-06	8.91026e-02	2.75073e-02	2.74061e-02	8.82892e-03	1.31004e-06	1.28598e-02	5.15665e-06	6.04778e-06	1.70279e-06	8.69371e-02	6.52167e-08	6.74084e-08	7.23543e-02	2.35215e-02	6.47762e-08	6.74149e-08	4.30885e-02	1.33832e-02	1.37951e-02	4.43508e-03	6.56277e-08	6.27281e-03	X	X	X	X	X	X	X	X	X	X	X	X	X	X	X	X	



#DISTANCE SETTINGS
A = Detector Channel
A-1	A-2	A-3	A-4	A-5	A-6	A-7	A-8	A-9	A-10	A-11	A-12	A-13	A-14	A-15	A-16	

2.5000e+00	3.0000e+00	2.5000e+00	3.0000e+00	2.0000e+00	3.0000e+00	1.5000e+00	3.0000e+00	3.0000e+00	3.0000e+00	3.0000e+00	3.0000e+00	3.0000e+00	3.0000e+00	1.5000e+00	3.0000e+00	

B = Detector Channel
B-1	B-2	B-3	B-4	B-5	B-6	B-7	B-8	B-9	B-10	B-11	B-12	B-13	B-14	B-15	B-16	

1.0000e+01	1.0000e+01	1.0000e+01	1.4400e+00	1.0000e+01	1.0000e+01	1.5100e+00	1.9400e+00	1.0000e+01	1.0000e+01	1.9900e+00	2.4900e+00	2.4100e+00	2.9000e+00	1.0000e+01	2.9800e+00	




#DATA BEGINS
time	group	step	mark	flag	A-AC1	A-AC2	A-AC3	A-AC4	A-AC5	A-AC6	A-AC7	A-AC8	A-AC9	A-AC10	A-AC11	A-AC12	A-AC13	A-AC14	A-AC15	A-AC16	A-DC1	A-DC2	A-DC3	A-DC4	A-DC5	A-DC6	A-DC7	A-DC8	A-DC9	A-DC10	A-DC11	A-DC12	A-DC13	A-DC14	A-DC15	A-DC16	A-Ph1	A-Ph2	A-Ph3	A-Ph4	A-Ph5	A-Ph6	A-Ph7	A-Ph8	A-Ph9	A-Ph10	A-Ph11	A-Ph12	A-Ph13	A-Ph14	A-Ph15	A-Ph16	B-AC1	B-AC2	B-AC3	B-AC4	B-AC5	B-AC6	B-AC7	B-AC8	B-AC9	B-AC10	B-AC11	B-AC12	B-AC13	B-AC14	B-AC15	B-AC16	B-DC1	B-DC2	B-DC3	B-DC4	B-DC5	B-DC6	B-DC7	B-DC8	B-DC9	B-DC10	B-DC11	B-DC12	B-DC13	B-DC14	B-DC15	B-DC16	B-Ph1	B-Ph2	B-Ph3	B-Ph4	B-Ph5	B-Ph6	B-Ph7	B-Ph8	B-Ph9	B-Ph10	B-Ph11	B-Ph12	B-Ph13	B-Ph14	B-Ph15	B-Ph16	aux-1	digaux	

2291.136	1	1	0	512	0.19137	0.24933	0.046747	0.13776	0.14665	0.23727	0.1303	0.20211	0.081446	0.042884	0.16028	0.151	0.074005	0.046309	0.19431	0.051723	-2.7125	-3.5333	-3.0458	-3.3646	-3.2854	-3.1458	-3.2458	-3.45	-3.2604	-3.3792	-3.1792	-3.2458	-3.2646	-2.9375	-3.4042	-3.325	-28.445	105.519	96.978	25.231	68.082	-121.886	-2.581	126.650	157.176	150.080	105.989	125.093	58.519	98.095	-97.261	112.718	0.00036861	0.0006307	8.8027e-05	528.24	3.7389e-06	2.0056e-06	522.17	164.67	2.9818e-07	1.3187e-05	162.78	59.902	57.975	24.143	3.0003e-06	30.519	0.0017261	0.0019574	0.00055425	541.72	2.1076e-05	2.162e-05	532.93	166.88	2.0904e-05	2.1579e-05	171.91	63.128	61.031	25.116	2.086e-05	31.952	183.834	-11.623	-148.563	-160.288	-6.186	-47.917	-161.403	-155.803	-14.800	73.986	-157.709	-153.895	-151.769	-145.758	-34.689	-149.366	-8191	255	
2291.232	1	1	0	0	0.25765	0.17957	0.21852	0.080547	0.084142	0.14257	0.30475	0.13627	0.13018	0.10358	0.158	0.17128	0.089572	0.10418	0.10652	0.14825	-2.7333	-3.4354	-3.1875	-3.275	-3.55	-3.0792	-3.3958	-3.3646	-3.275	-3.4917	-3.0958	-3.2792	-3.4583	-3.1375	-3.3312	-3.2417	6.464	60.330	-19.753	-147.244	-118.087	117.760	162.592	125.357	-37.696	52.664	32.102	112.235	116.932	120.839	-166.532	-16.077	0.00035292	0.0007207	0.00015863	529.34	1.3511e-06	7.3236e-06	522.17	162.98	6.5013e-06	5.4048e-06	161.88	60.034	57.749	24.087	1.3468e-06	30.656	0.0017151	0.0019292	0.00054245	540.95	2.0718e-05	2.1612e-05	529.35	166.18	2.073e-05	2.1389e-05	171.53	62.858	60.943	25.09	2.1057e-05	32.01	171.184	-71.051	79.157	-160.392	-127.852	-31.344	-161.704	-155.905	-92.097	-53.005	-158.165	-154.281	-151.957	-145.904	28.380	-149.502	-8191	255	
2291.353	1	1	0	0	0.21391	0.18849	0.14067	0.076162	0.055704	0.13613	0.20312	0.048453	0.047738	0.11684	0.18065	0.05874	0.24784	0.24483	0.151	0.20687	-2.6646	-3.5708	-3.1042	-3.2458	-3.2271	-3.2083	-3.3812	-3.3937	-3.0208	-3.4583	-3.1229	-3.0854	-3.4688	-3.1104	-3.3396	-3.2167	36.876	69.622	-37.983	112.120	115.665	-70.700	71.124	-158.393	-138.670	57.187	104.721	101.546	-18.316	59.382	21.694	11.438	0.00034166	0.0004345	8.4691e-05	529.67	5.3919e-06	2.5446e-06	520.91	162.84	3.2482e-06	6.81e-06	163.12	60.681	58.304	24.216	4.9173e-06	31.031	0.0017012	0.0019193	0.00054246	541.59	2.0606e-05	2.1326e-05	530.39	166.65	2.0597e-05	2.1354e-05	172.1	63.47	61.267	25.225	2.0839e-05	32.296	173.030	-78.311	-132.263	-160.356	-70.723	-132.605	-161.426	-155.630	-124.734	-35.386	-157.871	-154.302	-151.690	-145.757	-70.723	-149.180	-8191	255	
2291.447	1	1	0	0	0.33579	0.094846	0.2511	0.21452	0.077265	0.1232	0.27747	0.2105	0.11241	0.24668	0.18047	0.082179	0.21238	0.19275	0.14261	0.11233	-2.7438	-3.1562	-3.2104	-3.2458	-3.4458	-3.0167	-3.5021	-3.3292	-3.1125	-3.2729	-3.0833	-3.1646	-3.5729	-3.225	-3.3167	-3.3729	-7.839	170.253	147.276	-169.905	22.430	-27.214	52.025	-153.972	179.651	-28.631	130.250	132.125	-106.064	102.397	155.858	-61.436	0.00027888	0.00041719	0.00013966	532.72	2.0119e-06	5.688e-06	522.22	164.23	5.2335e-06	4.8601e-06	164.05	60.752	58.712	24.236	6.348e-06	30.578	0.0017014	0.0019246	0.00054445	543.04	2.0893e-05	2.1476e-05	531.84	167.4	2.0668e-05	2.1375e-05	172.87	63.626	61.602	25.263	2.0809e-05	32.102	161.160	109.655	-64.754	-160.235	-27.912	-58.615	-161.167	-155.865	-80.116	-171.583	-157.645	-154.319	-151.809	-145.481	-47.917	-149.174	-8191	255	
2291.543	1	1	0	0	0.16413	0.2163	0.158	0.27615	0.23154	0.12131	0.14368	0.079903	0.18714	0.13193	0.077	0.21559	0.069854	0.071772	0.036422	0.11262	-2.6646	-3.2479	-3.3625	-3.0354	-3.3312	-3.1125	-3.2479	-3.3812	-3.2021	-3.2438	-3.4375	-3.0396	-3.4208	-3.1229	-3.2854	-3.4458	61.691	88.072	-35.267	-135.185	-41.335	-104.735	35.216	81.066	12.931	45.017	-151.705	-154.894	-119.397	-172.609	32.227	-85.570	0.00043084	0.000614	7.9983e-05	531.44	7.267e-06	6.8288e-06	520.96	162.43	7.1633e-06	3.954e-06	162.37	59.964	58.105	24.109	4.4242e-06	30.339	0.0016864	0.001878	0.00053884	541.28	2.0513e-05	2.1381e-05	528.44	166.03	2.0162e-05	2.1191e-05	170.85	62.887	60.935	25.058	2.075e-05	31.887	177.708	-17.125	-60.611	-159.886	39.968	-61.883	-161.345	-155.673	-143.293	-86.958	-157.657	-153.774	-152.063	-145.931	-1.261	-149.597	-8191	255	
2291.639	1	1	0	0	0.28696	0.048921	0.12206	0.072363	0.19783	0.10083	0.28232	0.16892	0.025812	0.16759	0.1385	0.1576	0.035984	0.30539	0.098276	0.19711	-2.7625	-3.3	-3.2792	-3.1229	-3.3854	-3.3187	-3.1604	-3.5292	-3.0312	-3.2708	-3.2833	-3.2708	-3.3958	-3.3854	-3.1146	-3.2958	-151.941	60.607	-7.829	128.746	42.072	55.094	-164.478	-157.656	-165.989	-53.260	-2.931	125.725	-36.356	-125.717	-49.809	150.078	0.00044026	0.00036013	0.00016284	527.2	5.4034e-06	5.4737e-06	519.19	162.33	4.603e-06	2.5354e-06	162.74	60.916	58.3	24.201	2.1156e-06	30.727	0.0016842	0.0019222	0.00053882	539.04	2.0485e-05	2.0974e-05	527.99	166.21	2.0386e-05	2.0983e-05	171.19	63.335	61.316	25.121	2.0483e-05	32.157	170.367	130.594	-33.688	-160.176	-8.738	53.118	-161.137	-155.691	-2.957	-118.726	-157.669	-153.838	-152.179	-145.416	34.041	-148.998	-8191	255	
2291.736	1	1	0	0	0.15616	0.1654	0.13928	0.11122	0.054211	0.15688	0.18044	0.17361	0.07125	0.072934	0.24058	0.13534	0.11457	0.22905	0.13466	0.085128	-2.6688	-3.4271	-3.3167	-3.15	-3.3646	-3.4188	-3.3125	-3.5604	-3.0646	-3.3354	-3.4708	-3.1479	-3.4	-3.3292	-3.0833	-3.4417	127.529	-11.822	172.721	-160.325	82.359	-19.029	-33.532	106.859	7.682	-68.300	-13.262	-97.717	133.811	167.113	-27.206	-103.873	0.00038002	0.00027172	0.00015409	527.57	2.9322e-06	6.9384e-06	521.12	163.68	5.6945e-06	4.324e-06	163.2	60.736	58.274	24.116	6.079e-06	30.733	0.001668	0.0018916	0.00053086	540.87	2.0461e-05	2.1091e-05	530.41	166.4	2.035e-05	2.126e-05	172.17	63.379	61.12	25.208	2.03e-05	32.157	177.700	-93.189	-68.844	-159.966	22.926	36.904	-161.417	-155.527	21.740	51.215	-157.507	-154.513	-151.567	-145.972	-36.120	-149.567	-8191	255	
2291.832	1	1	0	0	0.18995	0.08282	0.26984	0.23454	0.19831	0.16308	0.13045	0.26343	0.072826	0.10597	0.1029	0.13842	0.16507	0.062852	0.27255	0.09614	-2.825	-3.1521	-3.3896	-3.1271	-3.3937	-3.3979	-3.1937	-3.5563	-3.1292	-3.0979	-3.5812	-3.1042	-3.4104	-3.5167	-3.0563	-3.4083	78.439	158.230	-105.101	51.051	170.786	103.383	-131.047	144.237	31.674	-151.169	-143.110	-132.370	126.826	-157.921	-164.106	169.105	0.00043514	0.00056901	9.3578e-05	531.68	3.8921e-06	7.0561e-06	519.72	162.24	4.1137e-06	3.3773e-06	161.74	59.721	57.669	23.889	4.7172e-06	30.289	0.0016611	0.0018775	0.0005278	540.79	2.0039e-05	2.0655e-05	528.85	165.34	1.9698e-05	2.0647e-05	169.55	62.304	60.599	24.899	1.9806e-05	31.667	156.648	-136.525	-113.361	-160.058	-32.810	-79.409	-161.587	-155.917	26.983	54.492	-157.684	-153.871	-151.838	-145.687	-95.615	-149.336	-8191	255	
2291.928	1	1	0	0	0.12786	0.16527	0.14939	0.062068	0.17923	0.13231	0.20143	0.11611	0.29905	0.18999	0.081326	0.22872	0.10784	0.12142	0.053848	0.20334	-2.7104	-3.1875	-3.3396	-3.25	-3.3271	-3.3458	-3.1312	-3.3667	-3.2	-3.1896	-3.6333	-3.2083	-3.2896	-3.3917	-3.3396	-3.3438	-141.368	-37.586	36.753	-135.610	45.980	88.917	113.013	134.086	-81.820	103.791	147.880	140.108	74.755	117.750	84.083	75.041	0.00039928	0.0001716	5.9682e-05	527.1	2.2796e-06	2.2894e-06	517.56	161.63	4.7144e-06	6.2574e-06	159.57	59.311	57.356	24.012	3.9804e-06	30.147	0.0016146	0.0018355	0.00051619	537.17	1.9766e-05	2.0109e-05	524.3	164.13	1.9684e-05	2.0294e-05	168.42	61.975	60.178	24.771	1.9711e-05	31.541	150.932	-115.778	-1.791	-160.555	-5.992	-106.333	-161.852	-155.785	-104.419	-39.273	-158.196	-153.990	-151.917	-145.874	-33.820	-149.644	-8191	255	
2292.049	1	1	0	0	0.21396	0.40312	0.083369	0.22198	0.35224	0.24176	0.090304	0.10855	0.070827	0.10077	0.066357	0.18941	0.086467	0.11991	0.14778	0.15194	-2.7083	-3.15	-3.3563	-3.2375	-3.175	-3.5833	-3.1292	-3.3708	-3.4875	-3.2229	-3.3958	-3.2292	-3.2167	-3.5	-3.0812	-3.4396	-32.924	-68.457	118.824	89.811	-63.998	25.717	-106.507	-15.933	-83.786	-40.218	-29.863	-26.616	124.581	-80.190	115.302	53.472	0.00028275	0.00045722	5.8853e-05	524.41	5.2411e-06	1.0685e-05	512.69	161.73	4.2694e-06	6.7638e-06	160.78	59.894	57.585	23.868	2.643e-06	30.136	0.0016036	0.0018398	0.00050764	535.29	1.979e-05	2.0252e-05	523.58	164.27	1.9487e-05	2.0107e-05	169.19	62.267	60.25	24.717	1.9916e-05	31.597	170.447	-152.443	156.484	-160.486	81.492	-34.296	-161.134	-155.660	-9.601	28.655	-157.883	-154.037	-151.459	-145.635	-108.681	-149.133	-8191	255	
2292.145	1	1	0	0	0.092208	0.27067	0.15184	0.10771	0.1056	0.16728	0.24367	0.26732	0.091694	0.03833	0.031814	0.099267	0.13964	0.34125	0.077558	0.14472	-2.8396	-3.1542	-3.3979	-3.2625	-3.2104	-3.5292	-3.2271	-3.6083	-3.45	-3.1	-3.4021	-3.2146	-3.2062	-3.6146	-3.0542	-3.575	-91.463	-172.760	-50.795	90.780	-109.631	81.098	-86.962	-28.946	-167.376	155.688	33.545	88.913	24.827	-172.835	-90.837	122.172	0.00031002	0.00055324	0.00012329	525.46	5.3292e-06	3.1924e-06	515.98	161.15	6.3717e-06	4.6363e-06	159.65	59.376	57.112	23.752	1.429e-06	30.06	0.0016085	0.0018047	0.00050975	536.6	1.9601e-05	2.0309e-05	524.92	164.08	1.9448e-05	2.0157e-05	168.71	62.049	60.109	24.714	1.9437e-05	31.351	174.839	-67.465	-141.260	-160.093	-106.816	-15.167	-161.011	-155.864	-112.421	-142.459	-157.828	-154.006	-151.878	-145.842	-16.733	-149.799	-8191	255	
2292.216	1	1	0	0	0.17286	0.16365	0.12376	0.22231	0.2197	0.12655	0.20529	0.13699	0.21066	0.14191	0.056339	0.097248	0.029648	0.15788	0.16571	0.14018	-3.1042	-3.1437	-3.4125	-3.2604	-3.0979	-3.7062	-3.2646	-3.2146	-3.3208	-3.0396	-3.3479	-3.2958	-3.0917	-3.4875	-3.1458	-3.2542	-149.118	163.229	173.052	162.539	-87.901	142.635	5.839	138.675	-148.929	-32.196	152.083	19.909	-164.255	-96.349	-124.148	128.625	0.0003266	0.00069738	8.3143e-05	524.84	7.0904e-06	4.5592e-06	511.45	159.26	9.4084e-07	7.5e-06	157.94	58.97	56.833	23.54	2.6944e-06	29.911	0.0015846	0.0017802	0.00049921	534.59	1.9482e-05	1.975e-05	520.44	162.9	1.9231e-05	1.9828e-05	167.13	61.481	59.74	24.46	1.9352e-05	31.136	156.105	-111.007	27.272	-160.341	-21.188	-120.013	-161.100	-155.777	62.459	-52.703	-158.084	-153.645	-151.774	-145.892	-129.170	-149.375	-8191	255	
2292.313	1	1	0	0	0.07251	0.18271	0.14285	0.30348	0.10657	0.14103	0.25244	0.2601	0.13176	0.20489	0.15172	0.1875	0.064752	0.085331	0.28569	0.16196	-3.0187	-3.1042	-3.3292	-3.2354	-3.0646	-3.3583	-3.2896	-3.1646	-3.5229	-3.1375	-3.3021	-3.3688	-3.1792	-3.4292	-3.3	-3.2458	138.549	-149.644	167.705	-145.702	-27.622	-70.799	-116.928	112.803	44.792	164.573	42.334	-87.468	-161.531	-168.036	23.754	37.151	0.00049793	0.00014909	9.2144e-05	520.09	8.3927e-07	2.2632e-06	509.91	160.2	5.2433e-06	1.3645e-05	159.85	59.332	57.152	23.758	9.669e-07	30.005	0.0015546	0.001786	0.00050426	532.59	1.9195e-05	1.9833e-05	519.36	163.15	1.8786e-05	1.9984e-05	167.86	61.763	59.852	24.57	1.9561e-05	31.329	168.694	145.649	-57.449	-160.245	157.645	24.239	-161.360	-155.662	-52.250	8.137	-157.872	-154.003	-151.653	-145.612	1.191	-148.750	-8191	255	
2292.431	1	1	0	0	0.14375	0.16371	0.13407	0.25202	0.21161	0.14505	0.24546	0.049429	0.18625	0.18053	0.17312	0.29692	0.19631	0.23135	0.098378	0.29441	-3.1729	-3.2625	-3.2875	-3.25	-3.1521	-3.3333	-3.2083	-3.2167	-3.4271	-3.2771	-3.2687	-3.5333	-3.1771	-3.5563	-3.1667	-3.1854	-58.330	-12.625	47.144	117.810	139.647	98.872	151.807	-135.915	130.309	-147.857	-95.278	87.476	131.363	24.348	166.651	167.226	0.00040528	0.00042982	0.00011991	521.83	1.1207e-06	1.4302e-06	509.8	160.83	3.1796e-06	2.9019e-06	160.27	60.095	57.803	23.758	3.7825e-06	30.118	0.0015841	0.0017968	0.00051217	533.89	1.9612e-05	2.0233e-05	522.98	163.83	1.9603e-05	2.043e-05	169.23	62.593	60.461	24.79	1.9986e-05	31.553	154.475	126.745	-39.068	-160.341	-135.236	113.906	-161.000	-155.767	-16.709	28.685	-157.616	-154.070	-151.786	-145.685	-29.068	-149.229	-8191	255	
2292.528	1	1	0	0	0.075749	0.13645	0.16731	0.25743	0.1602	0.11809	0.2167	0.1039	0.20652	0.10517	0.2209	0.051286	0.14816	0.060916	0.14912	0.14673	-3.1063	-3.2396	-3.175	-3.4542	-3.2313	-3.5604	-3.3521	-3.0604	-3.6208	-3.3375	-3.3854	-3.4604	-3.2146	-3.4729	-3.3688	-3.2792	145.165	52.582	20.407	176.458	77.346	159.023	-162.030	65.996	75.988	185.175	-135.893	-0.737	143.864	121.757	177.443	-11.216	0.00035155	0.00035633	0.00010331	525.99	3.148e-06	1.7224e-06	513.67	161.49	2.9956e-06	3.9445e-06	160.47	59.424	57.967	23.748	3.5865e-06	30.049	0.0016027	0.0018346	0.00051118	535.79	1.9573e-05	2.0201e-05	523.75	164.25	1.9241e-05	1.9941e-05	168.91	62.125	60.57	24.746	1.9321e-05	31.352	171.681	-26.562	-33.444	-160.363	41.842	73.488	-161.507	-155.446	32.092	25.296	-157.704	-154.453	-151.570	-145.570	-81.447	-149.835	-8191	255	
2292.624	1	1	0	0	0.10281	0.16025	0.060204	0.048366	0.21872	0.095465	0.11303	0.1931	0.058795	0.22146	0.016727	0.10886	0.29092	0.26827	0.055999	0.19403	-3.1521	-3.0792	-3.2542	-3.6792	-3.175	-3.3417	-3.5396	-3.025	-3.4896	-3.35	-3.2875	-3.3937	-3.3146	-3.4437	-3.4792	-3.0917	-26.676	-31.294	103.673	142.171	-84.685	-66.135	-144.094	110.086	120.526	-64.478	116.743	108.307	-145.480	164.220	-143.966	-133.523	0.00032369	0.00056558	0.00017291	527.24	2.278e-06	2.9503e-06	513.32	161.24	1.0769e-06	5.1758e-06	160.78	59.978	57.838	23.914	2.6067e-06	30.127	0.0015815	0.0017694	0.00050321	534.91	1.9338e-05	2.0082e-05	522.02	164.33	1.9134e-05	1.9659e-05	168.85	62.445	60.646	24.779	1.9202e-05	31.513	155.607	-73.857	-91.063	-160.591	91.610	41.659	-161.367	-155.515	-158.211	-22.996	-157.880	-153.764	-151.431	-145.595	-58.139	-149.647	-8191	255	
2292.744	1	1	0	0	0.29329	0.21391	0.11059	0.12364	0.11024	0.27825	0.13096	0.1691	0.20998	0.2579	0.33844	0.15096	0.31222	0.15488	0.14266	0.15893	-2.9708	-3.3521	-3.2229	-3.5396	-3.3312	-3.2604	-3.5438	-3.1896	-3.4083	-3.2333	-3.2958	-3.6146	-3.1	-3.3229	-3.5312	-3.2417	-15.403	115.175	95.348	13.837	91.661	-42.036	49.154	132.596	150.667	90.987	110.871	-116.086	144.481	32.423	137.617	-25.295	0.00038523	0.00029513	9.2007e-05	520.56	2.8137e-06	6.3262e-06	515.23	162.4	1.7845e-06	2.6596e-06	161	60.37	58.429	24.107	3.9898e-06	30.683	0.0015807	0.001784	0.00050418	533.57	1.9341e-05	1.9742e-05	523.09	164.75	1.9182e-05	1.9521e-05	170.05	62.808	60.785	24.999	1.9286e-05	31.89	165.557	-48.763	2.521	-160.731	-16.165	172.618	-161.465	-155.577	9.953	139.352	-157.808	-154.534	-152.164	-146.020	-39.470	-149.478	-8191	255	
2292.816	1	1	0	0	0.25272	0.043598	0.18514	0.078392	0.21577	0.15553	0.14679	0.15002	0.23269	0.069924	0.28821	0.35674	0.098501	0.21203	0.080341	0.18158	-3.1188	-3.5542	-3.1	-3.5729	-3.1875	-3.2521	-3.5458	-3.1146	-3.5333	-3.275	-3.1021	-3.3708	-3.2104	-3.2771	-3.5458	-3.1792	123.604	-69.043	184.210	-38.921	103.985	181.521	166.979	10.037	160.937	-39.404	143.230	182.595	161.698	134.971	54.280	166.628	0.00039526	0.00035218	1.5998e-05	525.31	6.5526e-06	8.8196e-06	515.43	163.78	4.9451e-06	2.6426e-06	162.33	60.545	58.369	23.874	5.0282e-06	30.07	0.0015865	0.0017861	0.00049885	537.74	1.9334e-05	1.98e-05	525.97	165.63	1.9254e-05	1.9798e-05	170.29	62.899	60.955	24.94	1.9308e-05	31.545	168.468	-58.250	-52.489	-160.155	14.161	-58.363	-161.509	-155.599	-157.884	-39.658	-157.787	-154.331	-151.808	-145.772	4.119	-149.742	-8191	255	
2292.912	1	1	0	0	0.066903	0.13837	0.29203	0.1585	0.13971	0.22389	0.28681	0.13739	0.16136	0.05512	0.16738	0.1273	0.027469	0.22259	0.10431	0.15922	-3.0083	-3.3458	-3.0833	-3.2646	-3.2062	-3.2521	-3.5917	-3.3479	-3.2313	-3.4813	-3.2042	-3.4562	-3.2354	-3.3021	-3.3792	-3.1708	-81.225	-6.061	147.417	-136.365	112.858	-19.306	121.690	46.544	-0.913	144.242	-97.675	174.404	112.931	145.489	23.130	-12.092	0.00051091	0.00045605	3.8284e-05	521.89	5.6944e-06	6.4644e-06	513.93	161.83	7.0684e-06	6.1195e-06	161.41	59.805	57.523	23.944	2.2836e-06	30.313	0.001579	0.0017768	0.00049826	534.71	1.9213e-05	1.9844e-05	521.62	164.75	1.8951e-05	1.9632e-05	169.5	62.237	60.515	24.853	1.9278e-05	31.555	165.349	-124.422	28.209	-160.314	-63.504	-93.076	-161.157	-155.890	-100.356	-155.306	-158.117	-154.374	-151.380	-145.812	-100.990	-149.484	-8191	255	
2293.033	1	1	0	0	0.20205	0.1544	0.042153	0.12921	0.14659	0.14639	0.1485	0.0035372	0.073322	0.14115	0.14011	0.16202	0.19895	0.13917	0.18269	0.20997	-2.8812	-3.4417	-2.8604	-3.3667	-3.2833	-3.2438	-3.475	-3.075	-3.25	-3.1917	-3.1292	-3.35	-3.3417	-3.0875	-3.2729	-3.0062	-6.356	-161.226	101.464	134.443	169.300	-19.374	74.244	173.934	154.268	-135.015	-7.637	158.546	147.019	163.715	10.119	63.869	0.00033031	0.00025395	0.00018984	527.86	6.4095e-06	2.5661e-06	516.28	162.93	2.7964e-06	6.2854e-06	161.7	60.113	57.829	23.921	2.9216e-06	30.417	0.0015933	0.0017924	0.0005037	536.95	1.9337e-05	1.9935e-05	524.65	165.29	1.922e-05	1.9968e-05	170.57	62.767	60.952	24.963	1.9657e-05	31.793	173.360	68.738	-72.410	-160.096	-42.333	22.988	-161.373	-155.625	-137.354	48.582	-157.932	-154.353	-151.573	-145.896	21.587	-148.952	-8191	255	
2293.129	1	1	0	0	0.12972	0.058297	0.36194	0.087249	0.061462	0.074815	0.14587	0.18209	0.13084	0.093452	0.17554	0.39396	0.20552	0.36624	0.18334	0.10615	-2.8375	-3.3167	-3.1	-3.2854	-3.3604	-3.2021	-3.4521	-3.4542	-3.1958	-3.6	-3.2188	-3.4313	-3.4396	-3.0271	-3.5875	-3.3646	154.108	173.025	94.054	-86.365	-85.323	-126.414	-131.787	168.110	-143.155	48.476	135.748	129.041	120.410	125.875	-79.135	-93.384	0.0003419	0.00023579	7.349e-05	526	2.6071e-06	5.055e-06	516.55	161.65	6.3847e-06	1.1594e-05	162.63	60.55	57.917	24.032	3.9212e-06	30.44	0.0016034	0.0018077	0.0005095	536.25	1.9419e-05	2.0366e-05	526.88	165.45	1.9509e-05	1.9986e-05	171.05	63.07	61.073	25.006	1.9848e-05	31.819	182.090	25.445	185.803	-159.843	-52.419	-100.211	-161.292	-155.837	-67.364	-22.428	-157.769	-154.238	-151.722	-145.831	-6.712	-149.345	-8191	255	
2293.225	1	1	0	0	0.040217	0.13156	0.23361	0.29342	0.18462	0.23255	0.22438	0.27682	0.27108	0.11248	0.1214	0.19602	0.11737	0.11967	0.12001	0.1541	-2.6813	-3.4792	-3.1771	-3.2646	-3.4208	-3.225	-3.2458	-3.3396	-3.2146	-3.2687	-3.2292	-3.2167	-3.3875	-3.1146	-3.4313	-3.3667	-48.190	-134.764	-152.807	32.084	-127.961	43.638	176.167	158.988	-95.242	108.781	-86.095	-154.590	-160.390	-155.905	-151.339	69.538	0.00038086	0.0006932	3.4651e-05	522.6	5.0517e-06	7.2731e-06	511.53	161.36	9.1056e-06	3.7938e-06	159.9	59.8	57.798	23.925	3.5142e-06	30.003	0.001592	0.0017883	0.00050751	534.01	1.9214e-05	2.0014e-05	521.49	164.54	1.9198e-05	2.0023e-05	168.77	62.157	60.646	24.822	1.9612e-05	31.394	161.163	-120.181	-24.966	-159.888	15.773	123.053	-161.115	-155.599	-45.693	-25.129	-157.882	-154.326	-151.415	-146.004	-126.301	-149.215	-8191	255	
2293.344	1	1	0	0	0.2474	0.1044	0.083724	0.019211	0.067557	0.099181	0.24031	0.12087	0.20383	0.1811	0.081153	0.13901	0.2206	0.046761	0.15998	0.13621	-2.725	-3.4625	-3.2792	-3.3875	-3.5604	-3.2271	-3.4771	-3.4	-3.3229	-3.4208	-3.2417	-3.1312	-3.5625	-3.2833	-3.3688	-3.4271	-150.960	70.905	172.954	-87.513	-133.452	-166.419	173.073	-110.612	181.766	11.686	85.994	-117.676	17.745	78.091	166.989	173.019	0.00046277	0.00041348	0.00010626	523.77	4.6545e-06	5.3878e-06	511.77	160.88	5.9185e-07	7.558e-06	160.86	59.806	58.303	23.919	3.2826e-06	30.169	0.0015975	0.0018044	0.00051374	534.31	1.9509e-05	2.0226e-05	522.11	164.58	1.945e-05	2.0171e-05	169.68	62.416	60.758	24.928	1.9829e-05	31.67	180.530	-16.639	3.751	-160.101	-134.283	20.805	-161.533	-155.815	-86.757	-29.553	-158.080	-154.275	-151.555	-146.195	-142.988	-149.528	-8191	255	
2293.416	1	1	0	0	0.17188	0.17611	0.086868	0.17232	0.18496	0.11498	0.21129	0.046966	0.038035	0.09995	0.24134	0.045736	0.23917	0.20078	0.08186	0.10393	-2.7771	-3.4667	-3.2667	-3.2917	-3.5792	-3.2	-3.425	-3.5062	-3.1042	-3.3979	-3.4062	-3.2062	-3.4437	-3.1979	-3.3771	-3.3771	-111.433	32.509	82.713	15.109	-168.734	-57.677	160.518	-47.246	-138.049	48.488	-40.645	-163.218	122.198	25.708	111.306	-79.612	0.00039106	0.00027924	0.00030187	523.92	1.3667e-06	1.5963e-06	516.11	162.05	4.4784e-06	2.377e-06	161.32	60.07	58.337	23.96	1.7719e-06	30.47	0.0016242	0.001829	0.0005181	535.38	1.9698e-05	2.0505e-05	525.35	165.4	1.9875e-05	2.0485e-05	170.42	63.018	61.051	25.045	2.0227e-05	31.861	174.878	-66.246	-51.124	-160.333	-55.992	-31.222	-161.264	-155.530	-43.168	30.459	-157.999	-153.882	-151.579	-145.381	-48.069	-149.635	-8191	255	
2293.512	1	1	0	0	0.18481	0.082805	0.14337	0.19535	0.17494	0.127	0.11393	0.16696	0.16185	0.41849	0.17778	0.22301	0.011395	0.27737	0.23895	0.21086	-2.7646	-3.5854	-3.1813	-3.0646	-3.475	-3.2562	-3.3354	-3.4854	-3.0938	-3.4292	-3.2938	-3.0083	-3.4313	-3.2313	-3.2625	-3.4104	67.893	-107.457	-145.938	-54.436	-153.142	-163.197	130.984	161.493	-106.234	111.305	78.358	161.406	-120.656	163.963	174.635	-46.052	0.00037849	0.000162	0.0002305	522.95	7.5933e-06	5.2686e-06	513.54	161.99	2.5214e-06	2.1429e-06	161.2	59.84	58.025	23.969	2.135e-06	30.392	0.0016463	0.001873	0.00052613	533.79	2.0174e-05	2.0813e-05	524.26	165.4	1.9955e-05	2.0589e-05	170.03	62.742	60.813	24.936	2.0243e-05	31.57	166.154	-116.458	-76.622	-160.336	-32.092	92.194	-161.295	-156.084	-155.019	-78.842	-157.613	-154.089	-151.516	-145.827	27.663	-149.402	-8191	255	
2293.608	1	1	0	0	0.10299	0.13429	0.20446	0.099996	0.18805	0.070054	0.24181	0.34777	0.16246	0.20909	0.027569	0.15867	0.12068	0.13591	0.17574	0.12106	-2.7479	-3.2583	-3.4625	-3.0667	-3.4646	-3.2396	-3.2521	-3.5708	-3.4083	-3.4125	-3.5125	-3.15	-3.3375	-3.3688	-3.1917	-3.4646	68.904	75.538	160.492	-158.957	-32.179	98.675	162.789	101.393	114.515	182.983	-150.954	-162.170	133.827	29.078	-57.804	51.155	0.00039834	0.00034393	7.6018e-05	522.93	7.3148e-06	1.867e-06	514.6	161.38	2.3699e-06	8.0048e-06	160.37	59.276	57.82	23.967	8.4975e-06	30.4	0.0016326	0.0018552	0.00052481	533.75	2.0271e-05	2.0679e-05	523.12	164.55	2.0058e-05	2.1116e-05	169.95	62.278	60.604	24.947	2.058e-05	31.731	160.941	159.138	-71.524	-160.042	-1.779	154.659	-161.379	-155.498	155.083	-113.772	-157.647	-153.913	-152.051	-145.760	0.169	-149.293	-8191	255	
2293.727	1	1	0	0	0.24023	0.14237	0.14777	0.12996	0.14827	0.20467	0.03249	0.29366	0.15927	0.08604	0.12818	0.038636	0.11055	0.19047	0.17064	0.092891	-2.7625	-3.3479	-3.3417	-3.1813	-3.4042	-3.3812	-3.2687	-3.6708	-3.2375	-3.2917	-3.4021	-3.0625	-3.375	-3.3312	-3.1021	-3.2354	-28.233	85.311	41.054	111.872	130.047	-60.005	176.689	132.577	5.367	95.313	-146.079	-132.698	-27.218	-148.424	-135.733	-170.559	0.00032779	0.00050312	9.2224e-05	523.35	9.4665e-06	2.0944e-06	513.93	162.54	6.0714e-06	2.7949e-06	161.63	60.497	58.112	24.237	1.3629e-06	30.218	0.0016602	0.0018911	0.00052884	534.84	2.0355e-05	2.1034e-05	524.32	165.51	2.0323e-05	2.1085e-05	170.71	62.914	61.081	25.157	2.0651e-05	31.881	167.779	77.478	163.945	-159.975	-59.513	-101.515	-161.168	-155.493	-169.024	-139.592	-157.942	-153.915	-151.552	-145.489	-117.202	-149.490	-8191	255	
2293.823	1	1	0	0	0.3535	0.28445	0.17887	0.17756	0.11903	0.10431	0.068078	0.22965	0.073878	0.18489	0.30328	0.10526	0.10643	0.19067	0.19286	0.14263	-2.8396	-3.1521	-3.4583	-3.0771	-3.4396	-3.275	-3.1271	-3.4	-3.2646	-3.3521	-3.6333	-3.0563	-3.4292	-3.4625	-3.2042	-3.3146	-107.017	-15.727	118.134	162.605	166.207	-123.349	-55.950	128.525	171.581	-9.173	-142.510	-21.784	-102.114	138.715	42.102	-10.850	0.0003602	0.00069535	5.8619e-05	522.62	5.8716e-06	8.5187e-06	517.31	163.35	3.9312e-06	2.3114e-06	163.33	60.015	58.371	24.388	1.7862e-06	30.46	0.0016665	0.0019144	0.00053122	536.55	2.0791e-05	2.1135e-05	527.39	166.14	2.0428e-05	2.0929e-05	172.1	63.146	61.232	25.205	2.036e-05	31.918	166.296	-3.009	-69.597	-160.142	15.961	-77.955	-161.169	-155.710	14.058	-170.959	-158.122	-154.388	-152.357	-145.793	-15.576	-149.419	-8191	255	
2293.919	1	1	0	0	0.1273	0.23367	0.065934	0.39549	0.05501	0.10874	0.10775	0.14532	0.034012	0.22825	0.17501	0.16767	0.042054	0.18331	0.065653	0.2055	-2.9104	-3.025	-3.4083	-3.1937	-3.3375	-3.675	-3.2104	-3.5771	-3.275	-3.2292	-3.4042	-3.2354	-3.4313	-3.3104	-3.0583	-3.3396	-114.128	32.492	85.394	4.908	122.878	76.996	-48.436	134.770	144.072	9.786	-66.753	165.122	50.140	-160.737	25.974	15.874	0.000386	0.00068576	3.4286e-05	527.41	1.6071e-06	5.9859e-06	515.02	161.72	2.6799e-06	5.2006e-06	160.13	59.641	57.895	24.052	7.0167e-06	30.184	0.0016809	0.0018834	0.00052839	537.54	2.0359e-05	2.103e-05	523.53	165.1	2.0141e-05	2.1066e-05	169.82	62.317	60.911	24.992	2.0442e-05	31.681	175.119	-105.550	-79.508	-160.094	-45.440	19.861	-161.465	-155.586	93.398	-14.019	-157.949	-154.144	-151.499	-145.700	18.838	-149.544	-8191	255	
2294.015	1	1	0	0	0.18452	0.12093	0.12579	0.25938	0.14382	0.06662	0.23085	0.089749	0.13534	0.2016	0.18463	0.10298	0.19461	0.23201	0.15233	0.03064	-3.0667	-3.1083	-3.5625	-3.1271	-3.2646	-3.4562	-3.2646	-3.4062	-3.3729	-3.25	-3.575	-3.3208	-3.4104	-3.5354	-3.2417	-3.3312	85.072	158.393	54.198	93.135	167.187	102.022	86.459	185.714	-136.227	79.519	-90.828	21.062	9.310	-71.138	120.452	-1.437	0.00057442	0.00020839	0.00011025	524.83	1.3731e-06	4.3404e-06	512.9	162.4	2.4861e-06	3.7027e-06	161.95	59.726	58.242	24.264	7.0719e-06	30.405	0.0016694	0.0018923	0.00052861	535.22	2.0343e-05	2.1016e-05	524.82	165.53	2.0227e-05	2.1117e-05	171.01	62.689	61.031	25.123	2.0476e-05	31.85	176.853	-114.423	-137.822	-160.495	-11.039	-110.670	-161.285	-155.870	-109.997	-105.589	-157.700	-154.494	-151.932	-145.917	-36.359	-149.415	-8191	255	
2294.111	1	1	0	0	0.15743	0.16607	0.16982	0.09151	0.10129	0.090279	0.23295	0.092094	0.099302	0.26808	0.090206	0.11741	0.14409	0.045878	0.15718	0.076623	-2.9375	-3.0563	-3.3604	-3.3542	-3.2271	-3.5062	-3.2438	-3.4229	-3.3667	-3.0854	-3.5625	-3.2687	-3.3812	-3.4313	-3.2771	-3.3708	165.335	78.876	-5.393	81.706	105.080	114.875	54.960	63.684	67.981	-60.997	75.464	13.772	-5.621	87.864	-83.358	-56.497	0.00035065	0.00041574	1.5638e-05	523.39	7.3806e-06	2.8202e-06	518.01	161.64	6.859e-06	7.98e-06	164.04	60.198	58.465	24.211	5.8443e-06	30.584	0.0016745	0.0018991	0.00053071	535.83	2.042e-05	2.0915e-05	526.41	165.79	2.0244e-05	2.1049e-05	172.28	63.063	61.32	25.172	2.063e-05	32.085	170.320	-134.323	50.789	-160.512	31.499	11.170	-160.968	-155.395	-44.022	-33.032	-157.860	-154.210	-151.848	-145.741	-134.263	-149.188	-8191	255	
2294.208	1	1	0	0	0.16947	0.11132	0.075819	0.097289	0.097149	0.061248	0.34595	0.30362	0.24657	0.083097	0.026899	0.059203	0.11047	0.066529	0.10294	0.050366	-3.1562	-3.175	-3.4062	-3.375	-3.3021	-3.6333	-3.1562	-3.275	-3.4146	-3.1542	-3.3958	-3.4479	-3.1021	-3.3771	-3.0917	-3.4729	178.623	76.856	-74.119	-61.690	131.424	179.007	130.767	133.655	99.045	90.069	98.125	123.167	115.404	35.832	117.241	168.427	0.00040411	0.00044701	0.00017653	523.69	6.1618e-06	4.2453e-06	516.17	162.14	6.5861e-06	1.3597e-06	162.01	59.822	57.985	24.039	3.6588e-06	30.407	0.00167	0.0018928	0.00053125	536.5	2.0597e-05	2.0871e-05	524.96	165.23	2.0421e-05	2.0896e-05	170.5	62.517	60.703	25.073	2.0118e-05	31.706	154.618	-10.056	-75.315	-160.167	-78.545	145.626	-161.424	-155.667	-86.821	45.874	-157.629	-154.124	-151.505	-145.866	33.906	-149.230	-8191	255	
2294.304	1	1	0	0	0.10266	0.14502	0.035273	0.09986	0.17009	0.23035	0.18048	0.17839	0.056712	0.26042	0.052496	0.21183	0.28752	0.15366	0.081913	0.18121	-2.8875	-3.225	-3.4104	-3.3604	-3.1396	-3.4979	-3.2125	-3.3125	-3.3896	-3.0187	-3.3354	-3.425	-3.1229	-3.4188	-3.225	-3.2208	22.252	99.103	-103.670	14.861	-132.012	89.497	-25.755	97.124	-146.802	-169.969	137.636	-142.380	130.419	156.416	-125.003	98.230	0.00039992	0.00073325	0.00011266	524.1	2.9996e-06	1.4789e-05	512.99	160.83	3.6976e-06	4.5349e-06	161.35	59.592	57.896	24.136	3.9556e-06	30.384	0.0016349	0.0018476	0.0005227	535.48	2.0109e-05	2.079e-05	522.3	164.27	2.0107e-05	2.0862e-05	169.85	62.212	60.667	25.052	2.0387e-05	31.757	158.928	-131.661	-30.963	-160.324	-13.288	13.760	-161.282	-155.559	-51.355	15.557	-157.827	-153.996	-152.021	-145.530	-120.177	-149.514	-8191	255	
2294.424	1	1	0	0	0.19911	0.091865	0.078941	0.21002	0.1924	0.15513	0.06865	0.21846	0.29992	0.023114	0.11598	0.17548	0.2091	0.10711	0.13949	0.11207	-3.2604	-3.0729	-3.2687	-3.3625	-3.0187	-3.4833	-3.2021	-3.1083	-3.4146	-3.3354	-3.2979	-3.5312	-3.1583	-3.5771	-3.225	-3.0208	170.958	0.315	164.521	-71.386	89.765	-98.633	38.708	172.286	42.573	62.324	-8.060	111.050	-5.980	-147.657	136.553	88.999	0.00033456	0.00059319	9.0208e-05	522.09	6.1457e-06	7.2377e-06	514.32	161.08	7.0907e-06	4.7719e-06	162.25	59.707	58.356	24.191	8.557e-06	30.705	0.0016424	0.0018665	0.00053264	535.03	2.0328e-05	2.0787e-05	524.76	164.76	2.0243e-05	2.1155e-05	170.48	62.655	61.078	25.141	2.0545e-05	32.019	169.639	-75.004	145.291	-160.042	51.902	-50.690	-161.449	-155.472	-35.078	-68.609	-157.781	-154.157	-151.724	-145.450	-80.958	-149.230	-8191	255	
2294.520	1	1	0	0	0.23584	0.16337	0.1517	0.14081	0.10206	0.10843	0.29747	0.14982	0.12428	0.18402	0.1125	0.023025	0.26963	0.17183	0.19467	0.23489	-3.2708	-3.0521	-3.1437	-3.4583	-3.175	-3.4521	-3.5083	-3.2083	-3.4646	-3.1604	-3.2708	-3.425	-3.075	-3.3375	-3.2521	-3.1625	94.855	154.211	45.019	-41.367	-58.063	-6.425	102.684	-167.833	15.953	27.428	-90.903	123.361	38.223	-121.209	-167.224	130.982	0.00040466	0.00037732	0.00016394	522.94	6.8246e-06	1.2922e-06	519.52	161.87	5.407e-06	4.6987e-06	162.77	60.385	57.689	24.094	4.5017e-06	30.41	0.0016816	0.0018944	0.00053654	535.6	2.0366e-05	2.0961e-05	528.27	165.54	2.0327e-05	2.0952e-05	171.14	62.82	60.951	25.149	2.0336e-05	31.841	153.698	-122.048	-109.952	-160.432	-31.791	1.367	-161.023	-155.636	-53.456	114.191	-157.971	-154.263	-151.815	-145.433	73.929	-149.038	-8191	255	
2294.617	1	1	0	0	0.30321	0.19137	0.018258	0.1916	0.12018	0.23171	0.074619	0.21012	0.14357	0.029667	0.18887	0.10485	0.11175	0.20929	0.26971	0.32133	-2.8563	-3.3146	-3.0333	-3.5292	-3.1021	-3.175	-3.4917	-3.1646	-3.4583	-3.2354	-3.2583	-3.7146	-3.3083	-3.2958	-3.4042	-3.3875	-60.364	-111.847	-85.144	169.560	92.848	73.218	127.794	-71.670	-98.444	3.833	49.514	37.555	97.771	126.347	-5.546	-115.881	0.00036913	5.5094e-06	0.0001581	519.92	8.8273e-06	2.6262e-06	515.43	160.21	1.4302e-06	1.2524e-05	159.8	59.607	57.347	23.941	1.9333e-07	30.286	0.0016649	0.0018931	0.0005351	534.07	2.0378e-05	2.0886e-05	523.23	164.65	2.0123e-05	2.0832e-05	169.27	62.117	60.417	24.996	2.0414e-05	31.644	155.995	45.901	-32.912	-160.492	-56.444	28.358	-161.329	-155.535	158.308	-23.694	-158.483	-153.701	-152.042	-146.084	-36.637	-149.240	-8191	255	
2294.713	1	1	0	0	0.22453	0.089155	0.044214	0.26721	0.13272	0.18025	0.095416	0.18334	0.07412	0.24453	0.25164	0.079745	0.1623	0.013378	0.12343	0.17317	-2.9479	-3.3625	-3.2542	-3.3875	-3.15	-3.2417	-3.4958	-3.1937	-3.4458	-3.2646	-3.1958	-3.525	-3.2938	-3.3146	-3.4604	-3.2313	72.649	40.263	-26.642	28.017	-65.233	173.372	167.400	161.973	-142.542	97.871	88.072	9.382	-104.414	68.679	-114.727	106.741	0.00044413	0.00030564	0.00019671	520.76	2.6486e-06	4.3702e-06	516.09	162	8.8185e-06	2.3178e-06	161.77	59.509	58.16	24.079	3.3481e-06	30.246	0.0016558	0.0018897	0.00052837	534.22	2.0281e-05	2.0985e-05	524.2	164.75	2.0193e-05	2.0914e-05	170.16	62.209	60.769	25.065	2.046e-05	31.771	157.651	94.125	-95.321	-160.157	-68.962	-98.658	-161.521	-155.582	-76.460	-31.194	-157.945	-154.025	-151.557	-145.585	-150.606	-149.211	-8191	255	
2294.807	1	1	0	0	0.089096	0.1564	0.086754	0.17695	0.174	0.058442	0.11823	0.14023	0.15014	0.22134	0.094445	0.2058	0.16613	0.16912	0.091465	0.19011	-3.2292	-3.2625	-3.275	-3.4792	-3.3333	-3.2375	-3.5062	-3.2833	-3.4	-3.4375	-3.1604	-3.5479	-3.2396	-3.2562	-3.5083	-3.1708	-56.727	-129.195	67.504	24.519	64.241	-36.182	-94.157	-23.289	146.964	-3.157	-142.230	87.834	49.534	-86.835	-57.655	126.307	0.000305	0.00084036	9.8185e-05	522.02	2.6691e-06	7.8611e-06	517.7	161.3	3.0841e-06	9.4405e-07	162.1	59.839	57.96	24.069	4.5443e-06	30.671	0.0016508	0.0018662	0.00052875	535.53	2.0362e-05	2.1076e-05	525.39	164.93	1.9994e-05	2.0985e-05	170.72	62.646	60.783	25.076	2.0093e-05	31.88	183.331	-87.438	70.700	-160.217	44.556	-88.075	-161.250	-155.409	-48.589	-48.270	-158.226	-153.807	-151.781	-145.665	184.870	-149.209	-8191	255	
2294.903	1	1	0	0	0.053995	0.14126	0.1671	0.045412	0.071328	0.1678	0.30195	0.09014	0.01474	0.24126	0.19304	0.1559	0.10849	0.15171	0.14609	0.13421	-2.9667	-3.4604	-3.175	-3.3854	-3.2208	-3.1021	-3.4479	-3.2104	-3.4354	-3.5708	-3.1188	-3.425	-3.1167	-3.3146	-3.5708	-3.2167	-3.897	18.951	68.343	116.799	176.182	-10.716	171.079	2.856	-75.105	178.845	156.169	102.221	-15.789	57.069	-115.412	57.607	0.00034234	0.00024279	8.522e-05	522.88	5.046e-06	1.346e-05	512.97	160.68	1.2374e-06	4.7749e-06	159.58	58.493	57.469	23.644	1.8417e-06	30.115	0.0016419	0.0018241	0.00052054	534.08	1.9821e-05	2.0436e-05	521.48	163.53	1.9731e-05	2.0173e-05	167.91	61.544	59.997	24.719	1.9507e-05	31.296	152.820	-74.124	-56.635	-160.256	-38.892	12.227	-161.568	-155.540	28.472	62.315	-157.893	-154.034	-151.868	-145.766	141.104	-149.207	-8191	255	
2295.024	1	1	0	0	0.056878	0.18193	0.19026	0.12525	0.069297	0.18414	0.063818	0.1584	0.104	0.087059	0.13168	0.21269	0.066572	0.11266	0.096304	0.15424	-2.6021	-3.3896	-2.8833	-3.2833	-3.3333	-3.2854	-3.5896	-3.3458	-3.1042	-3.3688	-3.1729	-3.2562	-3.1354	-2.9708	-3.4313	-3.2333	-98.315	177.816	43.545	120.571	142.075	-73.504	-30.572	88.911	-62.057	-115.891	-61.923	-135.030	-2.785	55.667	-77.306	29.612	0.00038768	0.00023193	0.00011433	520.16	2.4527e-06	1.7002e-06	509.29	159	4.7784e-06	3.62e-06	157.88	58.643	56.827	23.743	1.1223e-06	29.789	0.0016068	0.0018186	0.00050352	531.42	1.9497e-05	2.0036e-05	518.5	162.45	1.9539e-05	2.0053e-05	166.77	61.259	59.52	24.644	1.9649e-05	31.186	179.129	-99.830	-97.218	-160.201	72.995	-6.023	-161.447	-155.780	-67.974	-86.689	-158.428	-154.095	-151.653	-145.542	-47.887	-149.263	-8191	255	
2295.120	1	1	0	0	0.073582	0.12461	0.071125	0.33516	0.019516	0.21095	0.25945	0.24924	0.15626	0.19926	0.25777	0.2497	0.15943	0.10599	0.29114	0.18005	-2.8104	-3.3771	-3.1208	-3.2396	-3.3771	-3.2062	-3.6458	-3.2958	-3.1292	-3.5875	-3.1271	-3.3542	-3.2917	-3.15	-3.3375	-3.325	85.003	114.667	-21.425	181.994	135.943	122.731	97.598	45.380	-14.152	-107.364	83.681	-102.132	-157.579	113.788	-97.510	-165.462	0.00043299	0.00017711	8.8811e-05	520.72	7.7345e-06	4.8728e-06	510.61	159.59	1.5572e-06	3.5019e-06	159.27	58.632	56.808	23.942	2.1572e-06	29.853	0.0016023	0.001818	0.00050681	531.45	1.9297e-05	2.0225e-05	519.77	162.77	1.9504e-05	2.0297e-05	167.84	61.5	59.579	24.745	1.9713e-05	31.371	158.866	127.486	130.725	-160.295	-89.076	33.183	-161.057	-155.777	65.227	-94.510	-157.948	-154.116	-151.870	-145.803	-23.274	-149.304	-8191	255	
2295.216	1	1	0	0	0.21871	0.16654	0.10077	0.025364	0.15263	0.16126	0.05934	0.18488	0.35251	0.18436	0.14385	0.27842	0.14756	0.20671	0.12151	0.020425	-2.7562	-3.2604	-3.0812	-3.3208	-3.4646	-3.1125	-3.5438	-3.3688	-3.1063	-3.5042	-3.0146	-3.1937	-3.4354	-3.1063	-3.2396	-3.3292	156.646	-56.534	-49.860	10.926	-76.685	-121.876	-59.126	-107.303	38.620	-15.380	116.057	61.324	-64.407	-172.364	112.123	-170.057	0.00032485	0.00080605	9.259e-05	520.24	4.476e-06	4.592e-06	511.68	159.87	6.2081e-06	3.007e-06	158.41	58.725	57.283	23.525	2.8217e-06	29.621	0.0016137	0.0018024	0.0005053	531.15	1.9684e-05	2.0129e-05	520.01	162.72	1.9225e-05	2.0186e-05	166.8	61.235	59.622	24.554	1.9427e-05	30.962	166.920	174.483	-148.932	-160.310	37.186	-23.219	-161.480	-155.750	-43.982	-50.287	-157.853	-153.855	-151.901	-145.610	101.832	-149.280	-8191	255	
2295.312	1	1	0	0	0.13548	0.1897	0.1989	0.10128	0.011768	0.094233	0.22273	0.1564	0.042669	0.019679	0.17049	0.10154	0.22578	0.048244	0.32006	0.1586	-2.6708	-3.5062	-3.0687	-3.2958	-3.4042	-3.1312	-3.4042	-3.5354	-3.0479	-3.5375	-3.2604	-3.2042	-3.4313	-3.0375	-3.3667	-3.4604	-125.594	-60.687	-43.812	-101.005	-157.393	81.329	100.094	129.509	45.976	-152.116	66.035	-28.124	137.170	110.990	61.550	-143.913	0.00035953	0.0004631	5.4698e-05	516.48	2.8354e-08	5.1515e-06	507.34	159.07	3.3492e-06	4.5484e-06	156.97	57.901	56.788	23.705	1.1841e-06	29.651	0.0015691	0.00179	0.00050363	528.29	1.9154e-05	1.9847e-05	515.87	161.62	1.9251e-05	1.9821e-05	165.97	60.708	59.321	24.541	1.955e-05	31.032	165.801	-76.288	-55.892	-160.242	-142.567	-119.363	-161.245	-155.876	-20.816	-107.344	-158.080	-154.051	-151.383	-145.420	-58.709	-149.484	-8191	255	
2295.409	1	1	0	0	0.27088	0.22901	0.16093	0.23171	0.25788	0.15813	0.266	0.15954	0.07773	0.051912	0.065514	0.17186	0.12885	0.030445	0.13349	0.10736	-2.7083	-3.4146	-3.2687	-3.1792	-3.5458	-3.0438	-3.2854	-3.4542	-3.1229	-3.425	-3.3875	-3.1312	-3.6354	-3.2042	-3.1896	-3.4479	-65.618	177.349	143.108	-89.239	164.084	-23.177	147.934	1.629	122.189	-56.887	126.535	95.049	160.649	58.903	-35.862	66.972	0.00041803	0.0002871	0.0001098	518.28	2.6404e-06	3.793e-06	510.14	160.19	5.8145e-06	2.2073e-06	159.07	58.364	57.078	23.688	7.3708e-06	30.072	0.0016043	0.0017935	0.00051098	529.79	1.9566e-05	2.0191e-05	519.51	162.92	1.9591e-05	2.0348e-05	167.56	61.39	59.85	24.667	2.0017e-05	31.345	164.779	23.511	-71.077	-160.196	49.179	-31.385	-161.370	-155.671	-111.414	-18.687	-157.883	-153.791	-152.000	-145.722	-3.787	-149.429	-8191	255	
2295.505	1	1	0	0	0.027073	0.17337	0.324	0.11954	0.10886	0.18167	0.28155	0.26178	0.1447	0.097102	0.15916	0.16678	0.16294	0.25053	0.24188	0.32414	-2.6437	-3.3021	-3.2667	-3.1854	-3.425	-3.2729	-3.3	-3.5438	-3.2188	-3.6021	-3.3396	-3.1375	-3.6229	-3.3063	-3.4208	-3.5187	-134.680	-86.544	-13.933	-158.759	107.459	-148.817	140.884	146.463	-159.922	-138.751	175.502	126.505	-116.457	129.469	-101.876	147.804	0.00031835	0.00068835	0.00015148	521.21	1.5274e-06	2.4558e-06	511.04	160.02	3.937e-06	1.4346e-06	160.39	59.21	57.801	23.977	3.6489e-06	30.148	0.0016266	0.0018269	0.00051624	533.71	2.0004e-05	2.0377e-05	521	163.71	1.9783e-05	2.0598e-05	168.9	61.985	60.36	24.922	2.0206e-05	31.629	164.214	-104.569	-37.680	-160.416	-40.468	90.439	-161.373	-155.614	-87.082	-121.795	-157.857	-153.988	-151.476	-145.867	-39.946	-149.698	-8191	255	
2295.601	1	1	0	0	0.10873	0.35121	0.094912	0.27688	0.25294	0.23833	0.16957	0.25912	0.28233	0.099065	0.14349	0.19534	0.2056	0.012149	0.079624	0.062543	-2.6354	-3.3312	-3.275	-3.1458	-3.4646	-3.2667	-3.3187	-3.525	-3.25	-3.5729	-3.3292	-3.1542	-3.5125	-3.2521	-3.3187	-3.5708	-89.248	-127.862	11.963	71.566	169.254	55.979	180.554	-145.068	97.804	-107.430	-159.521	178.608	23.303	76.098	-160.783	117.315	0.00044109	0.0004108	0.00011054	525.38	2.024e-06	3.9314e-06	513.06	160.46	2.2004e-06	1.259e-05	159.36	58.917	57.384	23.963	9.7929e-06	29.809	0.0016539	0.0018705	0.00052505	534.67	2.0049e-05	2.0506e-05	522.64	163.87	1.9748e-05	2.057e-05	168.65	61.632	60.312	24.932	2.0374e-05	31.323	163.895	-143.074	-116.748	-160.425	7.259	-71.349	-161.132	-155.594	-95.832	-23.777	-157.851	-154.282	-151.787	-146.043	0.742	-149.303	-8191	255	
2295.697	1	1	0	0	0.090036	0.0665	0.14469	0.19248	0.189	0.073004	0.27857	0.11219	0.14884	0.16441	0.1562	0.2039	0.26869	0.11296	0.073403	0.053084	-2.7687	-3.1917	-3.3542	-3.1542	-3.4125	-3.4125	-3.325	-3.5229	-3.2521	-3.2854	-3.4313	-3.1458	-3.4542	-3.3333	-3.0042	-3.3688	-125.288	-76.532	134.280	150.781	68.192	147.804	178.394	93.399	2.626	70.850	14.825	90.495	45.465	16.484	117.662	171.750	0.00037222	0.00057423	2.3499e-05	523.51	2.3426e-06	3.8468e-06	515.28	160.69	4.8473e-06	6.281e-06	159.47	58.972	57.26	23.89	5.7353e-06	30.137	0.001664	0.0018785	0.00052104	535.3	2.0202e-05	2.0783e-05	523.56	164.55	2.0381e-05	2.0993e-05	169.1	61.923	60.207	24.872	2.0629e-05	31.554	175.086	15.688	123.368	-160.338	-13.270	39.758	-161.186	-155.786	40.689	71.652	-157.406	-154.394	-151.866	-145.853	10.419	-149.290	-8191	255	
2295.816	1	1	0	0	0.1045	0.25251	0.21795	0.15695	0.10019	0.12603	0.11242	0.17323	0.059577	0.08043	0.10864	0.12778	0.23928	0.029295	0.22598	0.1388	-2.7708	-3.2625	-3.2917	-3.1646	-3.2625	-3.4417	-3.2687	-3.4437	-3.1667	-3.2417	-3.4854	-3.1375	-3.3312	-3.4875	-3.1333	-3.3792	49.646	-49.640	42.342	154.627	-139.644	3.914	-56.449	129.482	112.432	-63.926	-86.977	-0.669	157.343	-115.189	33.325	55.536	0.00040154	0.00032393	0.00024195	523.7	7.2142e-06	2.2333e-06	510.36	161.03	3.6645e-06	1.0156e-05	160.58	58.871	57.373	24.136	1.9027e-06	30.456	0.0016711	0.0018908	0.00052941	535.81	2.049e-05	2.1157e-05	524.46	165.23	2.0376e-05	2.1083e-05	169.9	62.029	60.591	25.076	2.08e-05	31.83	161.271	32.952	27.054	-160.016	-106.911	-37.729	-161.254	-155.742	-86.618	6.513	-158.029	-154.337	-151.715	-145.548	-140.197	-149.239	-8191	255	
2295.912	1	1	0	0	0.14961	0.033945	0.071605	0.11902	0.2077	0.27621	0.075247	0.22219	0.13215	0.12523	0.25076	0.08707	0.16805	0.14076	0.23281	0.032185	-2.9583	-3.0333	-3.4604	-3.025	-3.1729	-3.4188	-3.0125	-3.5187	-3.3458	-3.2083	-3.5521	-3.2521	-3.3417	-3.4104	-3.0708	-3.4875	3.781	146.952	-46.503	-166.408	-20.242	-74.143	-168.158	90.310	-58.572	-131.172	105.917	-166.494	-94.933	-90.254	87.884	-165.650	0.00041132	0.00042549	6.1724e-05	525.22	4.0805e-06	2.388e-06	516.88	162.26	2.1715e-06	9.4211e-06	159.76	59.148	57.432	24.09	2.3196e-06	30.214	0.0016889	0.0018992	0.00053162	535.68	2.0709e-05	2.1158e-05	525	164.71	2.051e-05	2.1026e-05	168.98	61.8	60.155	24.973	2.0649e-05	31.607	172.415	89.619	-40.964	-160.483	-28.945	-154.373	-161.597	-155.530	159.367	15.009	-157.810	-154.034	-151.743	-145.666	-141.452	-149.274	-8191	255	
2295.985	1	1	0	0	0.10357	0.034433	0.12335	0.086361	0.057756	0.25525	0.094734	0.16084	0.11633	0.095102	0.15066	0.20583	0.19617	0.20783	0.031219	0.1326	-2.9542	-3.0458	-3.2792	-3.1458	-3.1708	-3.4896	-3.1729	-3.3167	-3.2729	-2.9625	-3.5104	-3.1396	-3.2146	-3.3146	-3.0125	-3.2687	97.545	66.916	121.430	-64.807	-78.099	-35.461	50.521	-88.224	150.490	-127.069	122.554	-160.131	-63.476	-10.425	110.153	169.762	0.00040221	0.00060666	7.1032e-05	517.18	7.8393e-06	4.0626e-06	508.97	160.65	2.6824e-06	6.5596e-06	158.64	58.59	57.41	23.949	3.5582e-06	30.305	0.0016661	0.0018868	0.00052548	531.71	2.0437e-05	2.0947e-05	520.83	163.69	2.0252e-05	2.1062e-05	168.06	61.675	60.14	24.903	2.0508e-05	31.654	177.582	163.617	-112.641	-159.955	-0.316	106.805	-161.065	-155.506	24.353	92.038	-157.498	-153.919	-152.110	-145.729	111.936	-149.325	-8191	255	
2296.104	1	1	0	0	0.08477	0.22428	0.24127	0.095846	0.079525	0.089046	0.21111	0.25152	0.2004	0.29514	0.15224	0.10618	0.065509	0.042921	0.18693	0.10629	-2.9938	-3.1833	-3.4146	-3.2479	-3.2812	-3.3937	-3.1125	-3.2708	-3.4521	-2.9708	-3.4271	-3.3083	-3.1125	-3.65	-3.2188	-3.3896	0.242	-144.241	-73.465	-149.603	-53.806	-127.283	-12.190	170.734	75.297	-83.832	73.148	88.501	-100.209	-129.146	-155.947	-169.674	0.00047531	0.00065171	7.4661e-05	520.74	3.1134e-07	8.5314e-06	515.81	161.93	5.8763e-06	6.5937e-06	160.01	58.98	57.756	24.113	2.6494e-06	30.23	0.0016605	0.0018989	0.00053193	533.98	2.05e-05	2.1484e-05	524.29	164.6	2.0381e-05	2.1246e-05	169.69	62.029	60.44	25.067	2.0752e-05	31.791	176.886	-104.233	-84.528	-160.237	-62.428	-57.772	-161.049	-155.720	-25.117	-70.141	-157.463	-153.916	-151.726	-145.687	-95.365	-149.451	-8191	255	
2296.200	1	1	0	0	0.27405	0.10585	0.21646	0.19839	0.20235	0.13154	0.23371	0.019119	0.16656	0.12733	0.17039	0.19711	0.31898	0.043231	0.062444	0.17675	-3.0042	-2.9979	-3.3688	-3.2917	-3.2146	-3.5833	-3.1521	-3.4875	-3.4208	-3.1625	-3.2917	-3.3563	-3.0042	-3.3833	-3.2917	-3.2771	173.255	-119.651	-52.728	-138.964	81.368	66.425	32.064	-164.670	-155.062	-51.182	127.975	163.184	-38.000	-16.732	4.062	140.371	0.00031187	0.00013264	0.00021802	520.9	3.0475e-06	5.0257e-06	512.6	162.08	2.2043e-07	2.1419e-06	160.39	59.205	57.599	24.119	6.3565e-06	30.262	0.0016934	0.0019414	0.00054432	534.19	2.1102e-05	2.1392e-05	524	164.8	2.0769e-05	2.1623e-05	170.05	62.333	60.646	25.164	2.135e-05	31.882	174.598	79.135	136.316	-160.139	136.232	-82.979	-161.219	-155.484	-12.884	-95.059	-157.482	-154.098	-151.432	-145.648	52.884	-149.182	-8191	255	
2296.297	1	1	0	0	0.16393	0.16383	0.090513	0.14016	0.043838	0.11916	0.20351	0.27043	0.10473	0.027989	0.41411	0.24298	0.15259	0.24893	0.099719	0.043764	-3.0479	-2.9938	-3.3917	-3.3146	-3.1562	-3.3771	-3.2729	-3.2854	-3.5438	-3.0979	-3.4813	-3.4188	-3.1583	-3.4229	-3.2812	-3.2604	11.257	-87.082	-47.369	114.759	123.300	108.168	-36.216	177.281	25.384	-111.284	132.553	168.948	107.651	130.698	66.915	157.660	0.00041008	0.00024405	9.4246e-05	520.44	3.9362e-06	5.0005e-06	511.81	159.93	3.7585e-06	2.3646e-06	159.33	58.709	57.17	24.028	3.9444e-06	30.063	0.0017177	0.0019428	0.0005445	533.44	2.0852e-05	2.1466e-05	522.26	163.99	2.0713e-05	2.1636e-05	168.97	61.679	60.215	24.998	2.0912e-05	31.578	168.454	-71.619	76.774	-160.140	-43.789	12.582	-161.495	-155.536	-75.252	41.370	-157.721	-154.532	-151.664	-145.620	-108.092	-149.173	-8191	255	
2296.417	1	1	0	0	0.11449	0.2555	0.13688	0.22791	0.19855	0.033607	0.16441	0.19244	0.091334	0.13526	0.20864	0.06104	0.1288	0.14972	0.20789	0.065955	-3.1188	-3.0771	-3.2125	-3.5771	-3.2479	-3.5333	-3.2188	-3.4083	-3.4521	-3.3104	-3.1292	-3.4875	-3.1396	-3.2625	-3.3208	-3.2521	25.080	77.080	141.036	65.599	129.019	-138.094	88.222	158.033	-108.871	-78.407	85.004	25.833	-99.076	128.033	-57.698	-132.272	0.00037253	0.00062406	9.5059e-05	519.46	4.6677e-06	4.1107e-06	514.48	161.07	1.9652e-06	4.5001e-06	159.67	59.316	57.649	24.113	1.2852e-06	30.484	0.0016997	0.0019425	0.00055167	532.64	2.0949e-05	2.1749e-05	523.5	164.32	2.062e-05	2.1529e-05	169.63	62.131	60.67	25.121	2.1133e-05	31.84	164.372	-123.554	-44.905	-160.457	150.778	148.397	-161.218	-155.753	-79.624	-120.361	-157.907	-153.867	-151.908	-145.563	40.320	-149.524	-8191	255	
2296.513	1	1	0	0	0.068475	0.15238	0.2062	0.18654	0.19041	0.11644	0.053749	0.056596	0.35595	0.085125	0.049323	0.24274	0.17228	0.15153	0.15205	0.020331	-3.0021	-3.3646	-3.2292	-3.4	-3.1396	-3.4104	-3.4792	-3.3021	-3.4625	-3.0917	-3.4208	-3.4604	-3.1354	-3.4792	-3.2604	-3.175	-11.624	-41.191	108.924	146.186	-26.317	138.717	140.153	134.827	48.122	3.533	-60.854	-27.092	90.335	-135.256	32.249	172.177	0.00035148	0.00066425	0.00013413	523.59	5.3121e-06	4.4536e-06	517.04	161.39	1.2496e-06	7.3471e-06	160.08	59.812	58.092	24.267	1.2744e-06	30.81	0.0017028	0.0019578	0.00054875	535.59	2.1206e-05	2.1675e-05	526.32	165.04	2.0868e-05	2.1708e-05	170.59	62.609	60.929	25.255	2.1218e-05	32.117	174.990	-101.277	1.868	-160.133	-123.429	-111.823	-161.320	-155.611	-0.790	-94.176	-157.528	-153.784	-151.848	-145.555	-55.885	-149.358	-8191	255	
2296.585	1	1	0	0	0.12862	0.088577	0.13562	0.072155	0.28361	0.061224	0.12404	0.016739	0.13867	0.083813	0.26388	0.17174	0.060712	0.030957	0.25856	0.2491	-3.0438	-3.2667	-3.2	-3.4521	-3.1875	-3.3729	-3.4583	-3.1479	-3.4354	-3.2729	-3.2833	-3.5417	-3.1667	-3.325	-3.3812	-3.0708	-3.420	3.217	174.142	8.550	107.409	-146.563	107.196	-64.547	-165.267	27.775	171.922	-85.418	-105.340	-115.736	44.557	-122.566	0.00038809	0.00090931	0.00013535	522.3	6.5434e-06	5.9137e-06	513.54	161.45	8.1783e-06	2.7382e-06	161.17	59.115	57.661	24.232	3.2774e-06	30.218	0.0017198	0.0019711	0.00055259	534.55	2.1155e-05	2.1741e-05	524.36	164.79	2.0923e-05	2.1835e-05	169.98	62.14	60.523	25.199	2.107e-05	31.747	173.927	-101.354	-21.734	-160.273	-36.271	15.629	-161.219	-155.653	1.934	-70.046	-158.010	-154.197	-151.530	-145.741	6.983	-149.107	-8191	255	
2296.706	1	1	0	0	0.087071	0.25979	0.22636	0.16809	0.1175	0.20572	0.20824	0.2082	0.20884	0.12608	0.11553	0.03165	0.14956	0.098766	0.25827	0.25735	-2.8292	-3.2708	-3.1562	-3.4229	-3.1604	-3.2958	-3.7042	-3.1229	-3.5833	-3.2521	-3.1417	-3.4938	-3.2188	-3.4854	-3.5021	-3.2604	43.975	-57.139	-157.847	-31.885	62.224	96.621	70.620	86.908	-26.157	-90.610	-23.714	-93.629	15.948	-166.257	-65.813	-87.362	0.00044107	0.00046034	0.00019027	524.07	3.1591e-06	5.0534e-06	515.05	161.5	3.9781e-06	3.106e-06	160.86	59.409	57.62	24.125	7.6733e-06	30.229	0.0017233	0.0019404	0.00054494	534.37	2.0981e-05	2.1576e-05	522.75	164.56	2.0871e-05	2.1525e-05	169.89	61.987	60.589	25.191	2.1099e-05	31.841	176.047	-108.343	-149.819	-160.279	-47.489	-144.364	-161.327	-155.599	-124.295	65.666	-157.626	-154.432	-151.693	-145.723	-35.890	-149.032	-8191	255	
2296.800	1	1	0	0	0.062	0.1897	0.29232	0.15455	0.2689	0.12702	0.13211	0.1971	0.1472	0.19217	0.15439	0.033203	0.19992	0.064916	0.14547	0.09602	-3.0938	-3.3979	-3.1271	-3.525	-3.0917	-3.4083	-3.5563	-3.3187	-3.5354	-3.5458	-3.1896	-3.3812	-3.3	-3.1958	-3.4437	-3.2958	-122.984	-18.820	77.965	176.592	-121.715	16.412	122.142	138.257	16.026	142.731	171.292	-40.043	-110.529	87.724	-160.607	57.810	0.00040465	0.0003773	8.3856e-05	521.57	4.6626e-06	5.6826e-06	514.27	161.99	4.0261e-06	8.4315e-06	162.07	59.563	57.396	24.297	4.5283e-06	30.622	0.0017139	0.0019492	0.00054878	534.43	2.0974e-05	2.1951e-05	525.88	165.49	2.1033e-05	2.1817e-05	170.95	62.444	60.824	25.339	2.1481e-05	32.093	175.816	-66.745	-128.568	-160.439	22.293	27.841	-160.993	-155.502	-22.326	-24.422	-157.885	-154.576	-151.621	-145.793	-28.198	-149.327	-8191	255	
2296.896	1	1	0	0	0.2347	0.36801	0.23918	0.10899	0.18791	0.17274	0.029246	0.073929	0.29595	0.14684	0.14479	0.23774	0.19393	0.088406	0.16317	0.075976	-3.0292	-3.4854	-3.1063	-3.4646	-3.1854	-3.3563	-3.4646	-3.3375	-3.5312	-3.5125	-3.2625	-3.3542	-3.175	-3.15	-3.5187	-3.2104	69.693	46.021	-153.615	-71.991	164.514	110.191	47.567	-78.998	-142.584	10.070	-17.870	62.153	52.174	109.963	-117.632	-160.486	0.00044529	0.00063459	0.00016401	521.41	3.9246e-06	7.0614e-07	515.46	161.28	5.2448e-06	4.0818e-06	161.87	59.667	57.378	24.315	1.8783e-06	30.692	0.0017439	0.0019776	0.00055631	534.2	2.1415e-05	2.1941e-05	525.8	165.23	2.1214e-05	2.1917e-05	170.92	62.639	60.573	25.291	2.1164e-05	32.128	161.937	-106.109	-149.084	-160.401	81.669	35.402	-161.235	-155.675	-30.637	-14.729	-157.667	-153.957	-151.600	-145.691	-76.171	-149.317	-8191	255	
2296.992	1	1	0	0	0.11337	0.11546	0.11012	0.18594	0.19839	0.14505	0.16426	0.16512	0.14217	0.24595	0.35798	0.32227	0.21466	0.1503	0.1558	0.2603	-3.1125	-3.2958	-3.1042	-3.5062	-3.4	-3.4146	-3.5312	-3.3333	-3.325	-3.6375	-3.2458	-3.5021	-3.4354	-3.2542	-3.4792	-3.1979	-134.850	106.551	168.067	173.117	74.285	115.914	-26.749	-119.827	69.400	29.788	24.713	131.916	98.364	130.182	76.242	168.210	0.00045431	0.00049293	3.1608e-05	522.68	3.1291e-06	5.5605e-06	514.62	160.39	2.1439e-06	3.9454e-06	160.64	59.045	57.271	24.142	4.0601e-06	30.373	0.0017383	0.0019544	0.00055141	533.87	2.0942e-05	2.1835e-05	523.35	164.56	2.0893e-05	2.149e-05	169.74	61.692	60.378	25.183	2.0986e-05	31.838	172.365	-112.819	17.066	-160.079	-66.620	62.786	-161.324	-155.444	-68.590	-48.614	-157.964	-154.162	-151.726	-145.851	34.378	-149.179	-8191	255	
2297.113	1	1	0	0	0.11658	0.2173	0.24607	0.083268	0.021342	0.097509	0.093554	0.18934	0.082755	0.099124	0.24943	0.16385	0.059174	0.20934	0.088174	0.10975	-2.7292	-3.375	-3.1583	-3.4208	-3.4688	-3.2479	-3.6083	-3.4125	-3.1792	-3.4667	-3.2	-3.3396	-3.5687	-3.175	-3.4521	-3.3187	65.395	-55.152	161.008	89.595	-117.024	-93.025	64.560	51.069	-89.268	-28.994	88.229	146.554	19.182	150.570	-142.217	-20.729	0.00038704	0.00026318	8.6697e-05	521.17	2.9871e-06	4.4383e-06	514.43	161.1	5.8775e-06	5.9813e-06	160.12	58.921	57.382	24.357	5.809e-06	30.528	0.0017129	0.0019526	0.00055101	533.47	2.102e-05	2.178e-05	524.31	164.88	2.1168e-05	2.1952e-05	169.92	62.051	60.581	25.372	2.1337e-05	32.111	167.221	-80.796	92.098	-159.949	-12.983	-27.713	-161.495	-155.824	-12.192	-77.980	-157.756	-153.988	-151.875	-145.624	-77.777	-149.061	-8191	255	
2297.209	1	1	0	0	0.22719	0.29666	0.12919	0.13942	0.029778	0.1011	0.21165	0.091847	0.23221	0.25541	0.18846	0.20451	0.13359	0.18257	0.08799	0.23989	-2.8604	-3.5208	-3.2875	-3.4396	-3.5896	-3.2458	-3.4521	-3.5687	-3.1896	-3.5271	-3.2917	-3.5625	-3.4542	-3.3	-3.4583	-3.5187	-0.388	52.959	-79.042	133.004	160.799	186.045	-18.066	148.977	149.683	168.226	46.630	117.943	68.014	141.478	-22.612	154.086	0.00032358	0.0001931	9.0343e-05	522.03	2.8231e-06	5.1838e-06	520.26	162.61	9.7667e-07	3.9322e-06	161.76	59.801	57.562	24.326	2.8303e-06	30.946	0.0017367	0.0019739	0.00055161	535.67	2.1177e-05	2.2005e-05	527.21	165.82	2.1455e-05	2.1804e-05	171.49	62.622	60.748	25.384	2.1506e-05	32.36	163.426	-165.478	5.500	-160.009	-69.837	-68.951	-161.563	-155.303	-145.560	69.388	-158.351	-153.908	-151.626	-145.514	-110.448	-149.303	-8191	255	
2297.281	1	1	0	0	0.050617	0.12819	0.045642	0.12458	0.18292	0.23638	0.27844	0.34233	0.13185	0.094231	0.031655	0.14842	0.22555	0.15388	0.2885	0.039694	-2.8812	-3.4792	-3.3	-3.4083	-3.5771	-3.35	-3.5417	-3.3729	-3.1813	-3.5479	-3.4792	-3.125	-3.4979	-3.1813	-3.4792	-3.4208	-8.865	128.927	16.306	-37.127	28.390	-111.571	79.732	133.703	184.615	-59.756	146.052	-64.496	69.472	-101.084	116.805	-139.616	0.00029953	0.00016667	0.00014576	524.59	4.5915e-06	6.1115e-06	514.46	161.43	2.1092e-06	5.4561e-06	160.9	59.015	57.069	23.995	4.0069e-06	30.344	0.0017428	0.0019729	0.00055276	536.14	2.109e-05	2.1731e-05	524.33	165.14	2.0977e-05	2.1647e-05	170.03	61.813	60.291	25.159	2.1207e-05	31.967	177.921	-92.248	-58.787	-160.341	30.719	-14.612	-161.688	-155.839	-97.276	40.336	-157.836	-154.637	-151.964	-145.660	25.255	-149.326	-8191	255	
2297.377	1	1	0	0	0.23552	0.25494	0.14455	0.10309	0.19239	0.097661	0.11253	0.24121	0.17257	0.044096	0.082966	0.12564	0.018207	0.13698	0.021993	0.074477	-2.6896	-3.2667	-3.2938	-3.3396	-3.5333	-3.3812	-3.3	-3.5167	-3.1729	-3.3812	-3.2729	-3.1417	-3.4979	-3.3563	-3.1583	-3.5083	126.662	66.725	-156.048	143.275	17.566	90.284	159.403	113.177	-82.562	107.037	158.356	154.163	-106.965	82.827	-82.042	91.228	0.00037137	0.00033379	4.7522e-05	519.51	8.2443e-06	2.9906e-06	513.58	161.57	3.6562e-06	9.095e-06	160.63	59.033	57.588	24.325	2.4744e-06	30.613	0.0017162	0.0019454	0.00055075	532.05	2.1048e-05	2.1756e-05	522.58	164.61	2.1159e-05	2.2032e-05	169.81	62.029	60.393	25.21	2.127e-05	32.089	157.698	-126.574	137.914	-160.696	-73.567	-41.475	-161.103	-155.648	81.721	59.553	-158.103	-154.236	-151.961	-145.702	5.471	-149.432	-8191	255	
2297.498	1	1	0	0	0.1397	0.097462	0.065302	0.12302	0.20932	0.09897	0.17237	0.13729	0.31264	0.16111	0.11693	0.12239	0.16587	0.1544	0.17002	0.10998	-2.6771	-3.3021	-3.2	-3.1437	-3.5229	-3.4208	-3.1896	-3.5062	-3.2021	-3.3208	-3.4146	-3.2521	-3.4375	-3.2292	-3.3208	-3.6	92.210	-132.941	10.554	-31.080	-110.458	35.899	-6.455	-103.339	-119.766	-45.737	167.377	0.318	81.404	90.015	-42.784	90.803	0.00035597	0.00017649	0.00016258	514.38	4.7396e-06	7.0869e-06	514.76	161.6	2.3908e-06	4.5734e-06	161.23	59.363	57.507	24.287	3.8229e-06	30.807	0.0017373	0.0019598	0.00055141	531.41	2.114e-05	2.1877e-05	523.14	164.55	2.1076e-05	2.1874e-05	170.06	62.312	60.532	25.307	2.1514e-05	32.356	170.841	-24.196	-132.476	-159.963	-72.735	25.360	-161.295	-155.370	-72.379	-53.848	-157.588	-153.966	-151.872	-145.762	-4.578	-149.492	-8191	255	
2297.594	1	1	0	0	0.20487	0.23623	0.11295	0.22224	0.090541	0.13153	0.23728	0.25856	0.1949	0.1639	0.037531	0.33013	0.28587	0.18205	0.11976	0.19984	-2.9062	-3.3396	-3.4771	-3.2083	-3.2583	-3.1125	-3.2125	-3.5812	-3.1146	-3.4437	-3.5479	-3.2167	-3.5563	-3.3438	-3.1813	-3.4771	-36.159	70.687	82.048	147.693	156.189	-33.711	183.540	155.237	126.309	-8.318	5.617	168.077	112.331	148.602	60.774	80.993	0.00035555	0.00084567	6.9524e-05	518.38	2.0818e-06	6.4935e-06	516.05	160.95	1.6817e-06	7.6615e-06	160.18	58.865	57.692	24.15	4.6481e-06	30.75	0.0017357	0.0019563	0.00054991	530.6	2.0942e-05	2.1859e-05	523.79	164.12	2.0822e-05	2.1745e-05	169.67	61.987	60.403	25.25	2.0818e-05	32.13	169.951	-142.670	-63.103	-160.145	175.629	64.898	-161.174	-155.526	107.964	-113.575	-157.813	-154.172	-151.865	-145.565	-73.404	-149.325	-8191	255	
2297.690	1	1	0	0	0.14365	0.20258	0.12112	0.078687	0.17526	0.24966	0.31173	0.24349	0.17164	0.17297	0.16649	0.077121	0.22442	0.21639	0.054878	0.27064	-2.8312	-3.3333	-3.3187	-3.2	-3.5458	-3.3458	-3.3563	-3.4938	-3.3146	-3.2687	-3.4729	-3.1896	-3.325	-3.2313	-3.2604	-3.3604	89.920	-23.705	165.359	-66.961	115.942	-56.219	-11.871	61.983	42.847	95.092	33.135	94.579	-121.385	-154.627	-26.312	-101.877	0.00033977	0.00017251	0.00018489	517.14	5.8394e-06	2.3177e-06	507.21	159.58	3.1276e-06	4.6046e-06	158.64	58.79	57.073	24.021	2.034e-06	30.228	0.0017015	0.0019096	0.00053547	528.47	2.0773e-05	2.1299e-05	518.38	163.3	2.0542e-05	2.1196e-05	168.14	61.702	60.082	25.089	2.0854e-05	31.863	169.937	-89.860	-54.282	-160.282	135.943	-37.064	-161.402	-155.563	176.087	9.461	-157.256	-154.066	-151.711	-145.687	70.047	-149.178	-8191	255	
2297.786	1	1	0	0	0.25096	0.040929	0.15357	0.13676	0.10228	0.37771	0.30784	0.13704	0.11709	0.058485	0.25271	0.1172	0.23627	0.10096	0.14797	0.18949	-2.9625	-3.2229	-3.2646	-3.2271	-3.3854	-3.4083	-3.1604	-3.6146	-3.2146	-3.3187	-3.5396	-3.2375	-3.3583	-3.475	-3.1813	-3.6333	186.094	-121.090	167.204	117.269	-57.826	-88.663	120.454	-148.111	-136.500	-16.644	135.385	90.902	178.420	166.393	-105.541	41.464	0.00036156	0.00039068	0.00020444	517.95	5.0045e-06	3.6964e-06	507.76	159.82	2.4128e-06	2.4574e-06	159.17	58.788	57.21	24.117	5.9261e-06	30.519	0.001705	0.0019246	0.00053712	529.41	2.068e-05	2.1166e-05	519.1	163.06	2.0524e-05	2.1087e-05	168.22	61.693	60.117	25.115	2.0713e-05	31.989	167.719	-89.002	-66.290	-159.980	-22.070	-23.048	-161.343	-155.733	23.616	77.904	-157.855	-154.006	-151.699	-145.750	8.873	-149.653	-8191	255	
2297.880	1	1	0	0	0.19866	0.11017	0.061962	0.10921	0.11117	0.12658	0.17439	0.18312	0.17987	0.15045	0.13531	0.26119	0.0079827	0.041512	0.077195	0.14811	-2.9021	-3.0583	-3.4979	-3.3208	-3.4667	-3.3542	-3.275	-3.6	-3.4625	-3.2167	-3.6792	-3.1667	-3.5312	-3.4313	-3.1125	-3.4896	-80.520	89.498	99.948	36.888	-61.601	183.232	64.554	-73.810	-10.911	35.456	117.238	159.572	36.954	-117.667	48.037	168.861	0.00046927	0.00030149	0.00017014	516.65	3.2951e-06	2.4708e-06	507.5	159.35	1.8979e-06	1.9233e-06	159.87	58.891	56.973	24.077	5.497e-06	30.414	0.0016854	0.0019103	0.00053301	527.97	2.0573e-05	2.1122e-05	519.38	162.98	2.0457e-05	2.1052e-05	167.99	61.797	59.91	25.088	2.0064e-05	31.92	172.816	-113.959	7.163	-160.254	-87.675	-35.458	-161.353	-156.022	-112.701	33.480	-157.860	-154.408	-151.756	-145.877	17.847	-149.153	-8191	255	
2297.977	1	1	0	0	0.13997	0.12577	0.055299	0.12419	0.18578	0.11472	0.21565	0.17225	0.15484	0.06234	0.11952	0.22494	0.27706	0.27272	0.074595	0.18289	-3.0563	-3.2771	-3.4562	-3.1458	-3.2687	-3.55	-3.1667	-3.4188	-3.5312	-3.2917	-3.3917	-3.1688	-3.2521	-3.6479	-3.2625	-3.5396	-5.402	62.303	96.139	121.821	112.193	124.540	176.306	174.090	170.052	-48.007	-17.682	127.715	108.987	-22.698	-39.301	-150.959	0.00041724	0.00076141	0.00010888	515.96	3.4841e-06	4.1609e-06	506.79	157.8	2.2089e-06	2.7265e-06	155.81	57.833	56.298	23.804	1.635e-06	29.879	0.0016462	0.0018563	0.00052425	526.73	2.0011e-05	2.0661e-05	515.25	161.26	1.9973e-05	2.0631e-05	165.46	60.709	59.171	24.737	1.993e-05	31.294	170.310	-2.749	-26.801	-160.519	-29.660	-161.246	-161.441	-155.679	-38.493	79.102	-157.711	-153.967	-151.708	-145.793	-79.125	-149.390	-8191	255	
2298.097	1	1	0	0	0.17272	0.10469	0.17035	0.33916	0.14194	0.14429	0.23292	0.38477	0.14144	0.19884	0.095835	0.051296	0.058162	0.096332	0.1132	0.092159	-3.2021	-3.0833	-3.1437	-3.2646	-3.2792	-3.5604	-3.1937	-3.3917	-3.3542	-3.1854	-3.5292	-3.3375	-3.3458	-3.4896	-3.3792	-3.4229	183.123	112.707	120.059	129.298	56.355	87.260	2.725	130.504	139.132	-30.984	6.559	40.315	136.145	165.511	3.226	137.824	0.00020696	0.00046419	0.00017539	512.29	3.3126e-06	2.8789e-06	505.37	157.8	4.5191e-06	4.9807e-06	155.3	57.867	55.843	23.644	1.1755e-06	29.931	0.0016303	0.0018285	0.00051868	523.49	2.0127e-05	2.033e-05	513.32	160.31	1.9921e-05	2.0629e-05	165.2	60.553	58.895	24.687	2.0037e-05	31.289	165.575	80.380	-80.164	-160.467	120.762	-46.208	-161.285	-155.465	-83.749	88.621	-158.111	-154.047	-151.414	-145.863	28.602	-149.676	-8191	255	
2298.193	1	1	0	0	0.12806	0.20055	0.17287	0.092598	0.11075	0.37195	0.1273	0.1353	0.23302	0.053465	0.19369	0.30953	0.21228	0.085512	0.078904	0.2307	-2.9437	-3.0271	-3.5833	-3.3937	-3.0875	-3.4854	-3.2292	-3.3792	-3.4375	-3.1583	-3.7771	-3.4125	-3.1979	-3.4208	-3.1792	-3.2771	63.292	174.300	-52.526	-39.493	49.034	9.962	-158.109	-41.635	170.830	155.084	136.692	132.528	102.458	109.677	-85.552	37.588	0.00039038	0.00029965	0.00015922	512.75	3.084e-06	2.2609e-06	502.71	157.93	4.4106e-06	8.8436e-06	157.32	58	56.092	23.764	7.3042e-06	30.252	0.0016477	0.0018537	0.00051808	522.96	2.0047e-05	2.0661e-05	512.93	160.78	1.9991e-05	2.0584e-05	165.88	60.922	59.059	24.8	2.0544e-05	31.556	165.464	155.282	-152.928	-160.138	-13.308	138.106	-161.261	-155.736	-89.988	26.021	-157.453	-154.315	-151.792	-145.528	-67.041	-149.609	-8191	255	
2298.290	1	1	0	0	0.18082	0.099508	0.34032	0.071018	0.27418	0.23336	0.12874	0.081622	0.1834	0.32408	0.20398	0.053672	0.16966	0.079205	0.24066	0.15748	-3.1458	-3.1458	-3.2521	-3.4208	-3.2521	-3.5667	-3.3979	-3.075	-3.4333	-3.0104	-3.1688	-3.4708	-3.2333	-3.5354	-3.2687	-3.2896	34.689	131.608	91.294	152.707	96.704	20.027	-122.747	140.944	-10.372	123.133	123.400	-145.132	157.006	127.571	90.266	112.134	0.00034459	0.00037148	0.00020824	513.83	2.5213e-06	1.3988e-06	504.32	156.1	3.1861e-06	8.5454e-06	156.25	57.995	55.679	23.842	4.9882e-06	29.917	0.001646	0.0018786	0.00053205	524.76	2.0193e-05	2.0818e-05	514.09	160.47	1.9918e-05	2.0899e-05	164.77	60.57	58.726	24.72	2.0054e-05	31.289	157.448	-136.662	-99.523	-160.123	-54.392	-135.570	-161.314	-155.636	-86.528	5.574	-157.902	-154.232	-151.712	-145.658	-25.435	-149.127	-8191	255	
2298.386	1	1	0	0	0.10631	0.062481	0.26974	0.18738	0.033336	0.10459	0.091499	0.09271	0.0616	0.32475	0.14768	0.1121	0.15377	0.22075	0.041366	0.12576	-3.1458	-3.0833	-3.4479	-3.4083	-3.1021	-3.5896	-3.4646	-3.2062	-3.5521	-3.3	-3.4375	-3.6813	-3.0812	-3.3542	-3.375	-3.1479	95.804	178.856	-7.177	155.288	-74.352	150.992	121.088	98.505	-71.117	19.460	0.872	-148.923	-18.937	-154.559	34.086	112.783	0.00040787	0.00012365	5.8008e-05	508.61	3.0421e-06	6.6091e-06	500.03	156.46	8.3511e-06	4.0105e-06	154.88	58.05	56.132	23.81	7.2443e-06	29.819	0.0016324	0.001844	0.00051823	520.08	1.9845e-05	2.0409e-05	509.7	160.28	1.9952e-05	2.0808e-05	164.41	60.488	59.068	24.749	2.0251e-05	31.292	162.943	-19.974	-12.615	-160.233	85.333	-35.455	-161.355	-155.522	-110.784	158.464	-157.813	-154.048	-151.875	-145.852	-105.658	-149.519	-8191	255	
2298.506	1	1	0	0	0.1687	0.17375	0.13388	0.19405	0.21713	0.19552	0.053213	0.045001	0.11322	0.076262	0.17589	0.15807	0.10236	0.322	0.04215	0.27201	-3.075	-3.2354	-3.2812	-3.5292	-3.2917	-3.5854	-3.3958	-3.1375	-3.4792	-3.3312	-3.3146	-3.4917	-3.2396	-3.6042	-3.4708	-3.1854	140.188	160.330	-143.950	72.240	114.345	105.817	62.471	-6.387	-57.866	-164.656	-168.917	-166.056	86.884	-120.538	-17.776	167.214	0.00049089	0.00073297	9.8011e-05	511.72	3.3485e-06	8.1005e-06	503.65	157.45	4.3326e-06	5.5145e-06	156.64	58.176	56.854	23.898	1.3995e-06	30.282	0.001644	0.0018663	0.00052339	522.01	2.0169e-05	2.0663e-05	513.93	161.31	2.0192e-05	2.0938e-05	166.03	61.157	59.46	24.925	2.0638e-05	31.692	167.584	-56.701	-128.439	-160.588	-40.978	-21.102	-161.376	-155.855	-62.039	168.476	-158.025	-154.058	-151.890	-146.049	55.876	-149.342	-8191	255	
2298.578	1	1	0	0	0.091992	0.1941	0.24603	0.16237	0.15373	0.08153	0.18205	0.20081	0.1049	0.10194	0.27335	0.18543	0.21585	0.20193	0.25213	0.18645	-2.9167	-3.3042	-3.1	-3.6354	-3.4042	-3.5458	-3.4458	-3.2062	-3.4625	-3.2729	-3.2438	-3.3667	-3.1667	-3.3146	-3.4792	-3.125	26.018	-52.314	-15.496	68.548	-145.253	-134.731	128.765	-171.820	133.879	-148.264	-79.302	107.428	131.415	168.324	182.084	142.928	0.00039949	0.00035255	0.0001525	514.34	4.5743e-06	7.2317e-06	506.92	159.73	5.5707e-06	4.3929e-06	158.64	59.174	57.27	24.25	2.0253e-06	30.479	0.0016713	0.0018958	0.00053624	526.06	2.0482e-05	2.1402e-05	516.55	162.39	2.0417e-05	2.1206e-05	167.41	61.851	59.898	25.16	2.0474e-05	31.908	163.409	-129.396	-117.739	-160.169	-77.808	-24.589	-161.315	-155.559	4.741	21.278	-157.462	-154.240	-151.917	-145.523	82.575	-149.306	-8191	255	
2298.674	1	1	0	0	0.18644	0.080819	0.33997	0.030031	0.04568	0.097179	0.15759	0.037763	0.035666	0.12605	0.20712	0.085557	0.11454	0.069396	0.18309	0.24264	-2.9542	-3.2479	-3.1833	-3.5104	-3.0875	-3.2896	-3.5146	-3.3271	-3.4021	-3.4979	-3.3063	-3.5312	-3.1562	-3.1792	-3.5083	-3.2542	68.621	122.067	-26.891	-138.934	63.475	-160.406	76.556	144.050	82.374	-81.878	-25.887	-161.126	25.214	21.153	-167.046	6.074	0.00031402	0.00020606	3.6066e-05	513.36	4.9523e-06	3.1102e-06	504.97	158.43	2.4987e-06	4.2117e-06	156.84	58.438	57.046	24.124	5.363e-06	30.295	0.0016795	0.0018959	0.000537	524.28	2.041e-05	2.1024e-05	513.65	161.75	2.0457e-05	2.0963e-05	166.16	61.207	59.603	25.022	2.0479e-05	31.75	161.449	116.584	19.633	-160.524	8.156	54.856	-161.388	-155.664	-169.959	28.105	-157.545	-154.176	-151.930	-145.438	-111.695	-149.110	-8191	255	
2298.795	1	1	0	0	0.26909	0.10643	0.027243	0.06523	0.033476	0.13731	0.18658	0.12433	0.55172	0.055476	0.11968	0.15898	0.21212	0.14329	0.14655	0.26216	-2.8896	-3.0792	-3.1542	-3.3854	-3.2042	-3.3458	-3.5354	-3.3417	-3.3125	-3.2542	-3.1437	-3.4062	-3.3708	-3.2979	-3.4875	-3.3167	-35.259	150.450	-3.599	-172.663	4.373	-114.070	182.576	113.516	-162.747	8.328	68.774	154.112	-121.106	114.818	-42.912	100.626	0.00043173	0.00044369	8.5529e-05	510.4	5.7158e-06	4.2913e-06	503.66	158.89	5.5805e-06	6.0015e-06	158.25	58.558	57.026	24.182	7.935e-06	30.493	0.0016766	0.00187	0.0005341	523.99	2.0406e-05	2.0914e-05	513.76	161.97	2.0216e-05	2.0975e-05	167.07	61.683	59.977	25.176	2.053e-05	31.891	171.810	50.400	128.412	-160.269	-70.812	-91.293	-161.188	-156.028	-157.614	33.269	-158.151	-153.930	-151.864	-145.663	-58.151	-149.081	-8191	255	
2298.889	1	1	0	0	0.2065	0.074526	0.3072	0.13374	0.22124	0.13715	0.12797	0.29952	0.053939	0.037749	0.26659	0.12739	0.10572	0.15638	0.26556	0.3274	-2.9437	-3.2979	-3.1958	-3.3688	-3.325	-3.2271	-3.5854	-3.2458	-3.3542	-3.4042	-3.2021	-3.2875	-3.3229	-3.1583	-3.4104	-3.1417	70.935	168.147	-169.202	96.735	-89.179	-127.738	53.366	34.109	-62.265	-115.115	146.471	69.417	142.188	-145.021	90.706	41.091	0.00034087	0.00079457	0.00010456	515.77	1.9925e-06	7.2862e-06	507.67	158.74	6.7169e-06	6.2037e-06	160.13	58.329	57.341	24.345	5.4591e-06	30.799	0.0016537	0.0019023	0.0005334	527.43	2.0462e-05	2.0877e-05	517.52	162.82	2.0291e-05	2.101e-05	168.47	61.774	60.122	25.258	2.0481e-05	32.189	151.739	-68.560	106.087	-160.376	-78.768	164.276	-161.482	-155.532	-51.861	-50.635	-157.653	-153.939	-151.531	-145.868	-19.672	-149.245	-8191	255	
2298.985	1	1	0	0	0.21228	0.26164	0.1214	0.25212	0.23857	0.12055	0.058685	0.1612	0.17275	0.084855	0.093327	0.15671	0.19708	0.19143	0.090506	0.092732	-2.8896	-3.3417	-3.1042	-3.4042	-3.3542	-3.2771	-3.525	-3.1479	-3.2	-3.4625	-3.1708	-3.3937	-3.3542	-3.2188	-3.3625	-3.3521	110.241	61.323	3.870	-29.206	6.877	-130.737	57.524	128.745	-84.751	-173.106	63.727	162.675	184.855	121.880	13.665	142.092	0.00036807	0.00024708	0.00016309	513.23	4.4574e-06	5.125e-06	505.31	158.06	2.8828e-06	4.7744e-06	156.61	58.686	56.822	24.255	3.5335e-06	30.528	0.0016794	0.001891	0.00052784	525.14	2.0354e-05	2.1239e-05	515.82	162.11	1.9888e-05	2.0596e-05	166.29	61.505	59.585	25.152	2.0218e-05	31.877	158.260	5.910	184.644	-160.154	-118.851	-4.243	-161.336	-155.580	-98.063	-169.948	-157.988	-153.942	-151.489	-146.062	-152.204	-149.536	-8191	255	
2299.081	1	1	0	0	0.16821	0.15169	0.12947	0.12416	0.061662	0.031246	0.44527	0.21158	0.22351	0.065641	0.092737	0.43757	0.099643	0.07484	0.093854	0.10499	-2.9625	-3.3396	-3.1063	-3.2229	-3.3104	-3.2438	-3.5771	-3.2854	-3.2979	-3.5646	-3.2833	-3.4792	-3.4667	-3.2188	-3.4292	-3.4396	100.579	15.327	-69.130	175.097	-92.652	164.574	166.848	25.629	-161.703	32.036	-127.646	-149.646	124.454	173.061	85.957	-11.518	0.00021975	0.00043287	5.2618e-05	512.95	2.888e-06	3.7433e-06	503.54	157.49	5.0537e-06	6.0897e-07	157.89	58.452	56.614	24.164	2.6524e-06	30.907	0.001638	0.0018464	0.00051931	523.39	2.01e-05	2.0589e-05	512.43	161.38	2.0001e-05	2.084e-05	166.39	61.241	59.429	25.129	2.0443e-05	32.225	166.284	89.421	15.916	-160.322	178.410	-12.102	-161.379	-155.745	142.847	-151.462	-158.208	-153.825	-151.885	-145.897	-39.953	-149.579	-8191	255	
2299.178	1	1	0	0	0.25438	0.089941	0.27053	0.077504	0.097744	0.27685	0.31676	0.18449	0.28228	0.079717	0.15967	0.18073	0.1714	0.35966	0.17738	0.20479	-2.7458	-3.4104	-3.3042	-3.3958	-3.4729	-3.4437	-3.5917	-3.4229	-3.0917	-3.4958	-3.1437	-3.3333	-3.5458	-3.225	-3.4333	-3.4333	-158.141	-108.706	-3.970	88.080	-88.415	182.306	-153.597	-168.837	-130.824	-81.112	-170.661	-169.422	184.357	163.843	-8.666	95.256	0.00040911	0.00016837	7.742e-05	511.24	3.4055e-06	2.2326e-06	505.23	158.27	4.1087e-06	8.3869e-06	157.77	59.046	56.774	24.312	4.2724e-06	30.822	0.0016555	0.0018559	0.00053211	524.11	2.0445e-05	2.0967e-05	514.89	161.92	2.0445e-05	2.1052e-05	167.41	61.758	59.608	25.296	2.0556e-05	32.418	174.929	-67.776	-13.417	-160.289	-162.862	64.473	-161.144	-155.819	-75.945	-69.136	-157.947	-154.081	-151.933	-145.865	-42.432	-149.236	-8191	255	
2299.274	1	1	0	0	0.29958	0.039998	0.16145	0.14271	0.18555	0.22882	0.23292	0.28498	0.21364	0.1316	0.28924	0.1152	0.069759	0.049193	0.25379	0.15861	-2.625	-3.4708	-3.275	-3.15	-3.5292	-3.2542	-3.4104	-3.575	-3.0625	-3.4833	-3.3563	-3.1021	-3.4083	-3.125	-3.3479	-3.4625	170.528	-166.168	-20.051	144.783	146.515	11.963	120.253	156.652	181.944	-161.543	-157.160	-62.651	63.812	-114.942	-123.796	97.078	0.00042935	0.00070025	0.00012677	515.4	5.4648e-06	4.1899e-07	503.35	157.92	1.718e-06	8.9411e-06	158.84	59.12	56.776	24.276	2.3817e-06	31.218	0.0016744	0.001884	0.00053726	525.68	2.049e-05	2.1367e-05	515.8	161.88	2.0489e-05	2.1105e-05	167.68	61.972	59.5	25.322	2.0612e-05	32.812	148.970	-73.059	55.924	-160.297	-48.025	61.976	-161.224	-155.538	-98.015	34.620	-157.671	-153.910	-151.390	-145.479	112.297	-148.847	-8191	255	
2299.370	1	1	0	0	0.10562	0.042056	0.1881	0.23021	0.039483	0.1849	0.20045	0.24129	0.21724	0.13249	0.1195	0.16662	0.13769	0.14401	0.10192	0.10826	-2.75	-3.4458	-3.0708	-3.1437	-3.3646	-3.2771	-3.3604	-3.5938	-3.0271	-3.5521	-3.375	-3.2896	-3.4146	-3.0479	-3.4604	-3.5438	-69.916	-117.452	107.805	-153.061	7.426	-61.877	137.388	-126.905	-170.156	-65.791	-104.623	145.733	126.562	11.246	4.658	23.576	0.00043756	0.00040066	0.00011221	512.01	3.1661e-06	8.5526e-06	501.13	156.41	1.6547e-06	7.8136e-06	156.39	58.74	55.698	24.28	1.9438e-06	31.741	0.0016691	0.0018886	0.00052758	523.95	2.0277e-05	2.0953e-05	511.08	160.08	2.0609e-05	2.0852e-05	166.04	61.484	58.795	25.293	2.0621e-05	33.105	167.398	-88.830	180.680	-160.273	2.278	21.161	-161.175	-155.648	-70.772	29.040	-158.002	-154.048	-151.568	-145.730	-151.090	-149.099	-8191	255	
2299.466	1	1	0	0	0.1146	0.036315	0.070481	0.3904	0.25941	0.15893	0.16115	0.060914	0.2174	0.022842	0.18202	0.084362	0.09057	0.35332	0.059872	0.098852	-2.6333	-3.4833	-3.3646	-3.1542	-3.6729	-3.4313	-3.4708	-3.6688	-3.225	-3.5917	-3.4646	-3.1708	-3.7562	-3.2667	-3.4125	-3.4688	5.048	-18.791	-124.749	-168.896	138.622	-96.939	65.788	182.291	96.027	47.629	91.911	-172.487	-17.243	121.429	15.448	147.820	0.00040619	0.00092544	0.00013226	511.51	7.3898e-06	3.2126e-06	501.13	157.29	2.6531e-06	5.3849e-06	159.33	59.601	56.192	24.48	2.5405e-06	32.12	0.0016782	0.0019105	0.00054071	522.36	2.0722e-05	2.1462e-05	511.76	160.77	2.0655e-05	2.1374e-05	168.22	62.198	59.276	25.529	2.0906e-05	33.524	165.279	-108.705	152.933	-160.472	-55.154	-165.374	-161.278	-155.688	129.954	-7.480	-157.763	-154.041	-151.850	-145.371	95.185	-149.230	-8191	255	
2299.587	1	1	0	0	0.1315	0.0050867	0.16408	0.11969	0.089459	0.037922	0.074704	0.10048	0.23911	0.16131	0.11455	0.19648	0.17838	0.11096	0.32353	0.13606	-2.8521	-3.425	-3.4875	-3.2146	-3.475	-3.575	-3.2917	-3.5208	-3.0583	-3.3146	-3.3563	-3.3646	-3.4188	-3.4396	-3.3167	-3.4208	28.756	101.134	21.789	-114.164	50.526	26.702	76.718	118.314	-131.005	-106.037	155.878	180.596	-49.750	95.883	136.313	-91.883	0.00039959	0.00060593	9.1276e-05	509.45	3.5548e-06	7.19e-06	500.97	157.5	6.2883e-06	3.2234e-06	159.97	59.76	56.843	24.561	6.2599e-06	32.013	0.0017076	0.0019215	0.00054511	523	2.1132e-05	2.1423e-05	514.01	161.71	2.0672e-05	2.1549e-05	169.11	62.631	59.656	25.536	2.0884e-05	33.566	161.133	-157.116	-54.874	-160.085	-61.636	-29.064	-161.534	-155.601	-55.533	-45.443	-157.574	-153.951	-151.928	-145.614	-56.489	-149.269	-8191	255	
2299.681	1	1	0	0	0.24091	0.10333	0.20749	0.13471	0.096876	0.044777	0.11193	0.19099	0.056602	0.035215	0.16995	0.21425	0.12483	0.095409	0.19506	0.38246	-2.7125	-3.4	-3.3583	-3.3083	-3.2938	-3.4938	-3.3979	-3.3917	-3.1854	-3.2687	-3.4271	-3.1333	-3.3896	-3.3479	-3.2125	-3.4521	36.840	71.717	124.548	-65.311	140.612	-152.273	145.906	-119.448	-143.223	131.307	174.967	-167.064	-111.678	160.092	-146.651	27.719	0.00039827	0.00040241	0.00015058	508.56	4.3842e-06	7.0066e-06	500.41	157.46	4.2768e-06	4.6102e-06	159.42	58.906	55.789	24.412	5.983e-06	31.696	0.001722	0.0019438	0.00055071	523.37	2.1127e-05	2.1875e-05	512.98	161.42	2.0775e-05	2.1776e-05	168.34	62.099	59.367	25.421	2.114e-05	33.186	163.635	179.837	-95.660	-160.295	-56.448	-21.213	-161.333	-155.490	-64.502	-58.469	-157.909	-154.129	-151.646	-145.542	-56.526	-148.847	-8191	255	
2299.779	1	1	0	0	0.19313	0.038198	0.13362	0.16392	0.13897	0.21728	0.1645	0.14252	0.19339	0.073931	0.10158	0.17107	0.12949	0.13024	0.089721	0.20284	-2.8958	-3.1979	-3.3646	-3.3104	-3.375	-3.4104	-3.2208	-3.6229	-3.3979	-3.2062	-3.3771	-3.3229	-3.4271	-3.4437	-3.2979	-3.3375	-16.637	-63.166	109.317	146.736	79.465	-50.075	152.388	-160.866	-31.773	136.541	147.992	121.883	119.526	-37.574	-122.114	-158.013	0.00040383	0.00058317	0.00019751	512.02	1.8682e-06	2.919e-06	503.01	157.65	1.6904e-06	8.594e-06	159.65	59.145	56.669	24.458	8.5838e-06	31.852	0.0017254	0.0019573	0.00055178	523.61	2.0972e-05	2.1768e-05	513.91	161.52	2.1068e-05	2.1808e-05	168.52	62.029	59.531	25.464	2.1105e-05	33.197	156.669	-87.677	-75.954	-160.253	-43.467	23.267	-161.071	-155.499	-116.972	-70.894	-158.240	-154.247	-151.943	-145.943	-74.118	-148.953	-8191	255	
2299.875	1	1	0	0	0.15498	0.077122	0.17979	0.1949	0.19559	0.18001	0.054178	0.17468	0.04885	0.082991	0.012119	0.1223	0.050171	0.22896	0.12163	0.11296	-3.025	-3.1312	-3.6167	-3.25	-3.4271	-3.5417	-3.1437	-3.3729	-3.1542	-3.2208	-3.5292	-3.3875	-3.2812	-3.375	-3.2167	-3.4688	97.239	33.085	-118.113	109.838	-56.241	77.778	58.859	131.374	102.713	24.619	-25.875	59.946	150.720	90.516	114.320	132.095	0.00039774	0.00075164	8.4152e-05	512.32	3.3241e-06	2.66e-06	506.2	158.16	2.7449e-06	6.092e-06	160.33	59.754	56.611	24.528	6.0676e-06	31.923	0.0017007	0.0019405	0.00054672	524.91	2.0646e-05	2.1598e-05	516.56	162.4	2.0825e-05	2.1394e-05	169.71	62.383	59.759	25.527	2.0895e-05	33.334	174.018	-133.873	-16.327	-160.109	-113.660	101.445	-161.337	-155.960	28.542	0.067	-157.624	-154.153	-151.737	-145.885	-50.012	-148.887	-8191	255	
2299.970	1	1	0	0	0.080289	0.26042	0.030023	0.11667	0.19435	0.169	0.27182	0.10408	0.047808	0.067286	0.40962	0.17419	0.18735	0.15758	0.12303	0.22375	-2.9375	-3.2062	-3.4479	-3.3167	-3.3812	-3.5917	-3.1667	-3.7125	-3.5104	-3.3396	-3.6104	-3.275	-3.3063	-3.6188	-3.1354	-3.5062	-159.045	94.449	-0.514	-23.473	-88.380	-41.096	157.085	178.762	-44.601	-114.820	110.580	164.866	-129.552	81.773	164.454	60.212	0.00044695	0.00094986	7.3867e-05	515.16	3.3048e-06	4.0867e-06	508.82	158.64	2.6539e-06	4.3298e-06	159.71	59.204	56.6	24.546	4.1665e-06	31.482	0.0017086	0.0019523	0.00054728	527.06	2.0866e-05	2.149e-05	517.95	162.82	2.0581e-05	2.1402e-05	169.03	62.268	59.684	25.412	2.0496e-05	33.044	163.295	-122.631	-159.441	-159.983	-61.746	132.149	-161.208	-155.497	-34.362	-70.600	-157.544	-154.007	-151.748	-145.499	-112.312	-149.354	-8191	255	
2300.066	1	1	0	0	0.26051	0.063512	0.13855	0.15624	0.060143	0.021902	0.29124	0.21024	0.15515	0.19348	0.25463	0.30592	0.014454	0.10421	0.15266	0.09398	-3.1125	-3.0479	-3.4562	-3.275	-3.4104	-3.6188	-3.2417	-3.3667	-3.5146	-3.1271	-3.3417	-3.3208	-3.2438	-3.6354	-3.2896	-3.4958	-82.430	50.506	13.181	136.824	-149.475	41.830	-83.049	-109.671	176.601	46.449	85.411	80.474	104.202	-164.613	-169.133	158.616	0.00045504	0.00029776	1.2122e-05	512.45	1.4153e-06	3.9972e-06	504.4	159.13	5.9527e-06	8.6256e-06	159.66	58.426	56.46	24.258	2.7482e-06	31.542	0.0016713	0.0018886	0.00053734	525.23	2.0447e-05	2.1145e-05	514.33	161.93	2.0507e-05	2.1122e-05	167.65	61.624	59.48	25.294	2.0857e-05	32.794	155.931	-151.053	-139.371	-160.370	103.465	112.265	-161.226	-155.793	-45.646	29.612	-157.952	-154.046	-151.666	-145.596	150.110	-149.090	-8191	255	
2300.186	1	1	0	0	0.27142	0.18326	0.12769	0.088388	0.2671	0.070504	0.13891	0.069765	0.17414	0.24538	0.20854	0.088147	0.15059	0.07677	0.14146	0.078319	-3.1083	-3.2562	-3.3312	-3.5938	-3.2438	-3.4583	-3.2708	-3.1979	-3.4875	-3.3042	-3.4229	-3.4938	-3.2208	-3.5146	-3.2958	-3.3792	17.367	-146.359	172.538	47.152	17.182	-8.411	112.787	184.019	121.097	75.589	-155.183	-125.692	-82.544	118.414	-153.604	27.927	0.00044809	0.00033097	0.00010949	512.85	6.4074e-06	4.1859e-06	504.01	159.3	6.8296e-06	1.5463e-06	159.99	59.049	56.917	24.308	8.3461e-06	31.656	0.001683	0.0019088	0.00053999	527.12	2.0751e-05	2.1216e-05	516.9	162.78	2.0554e-05	2.1346e-05	168.92	62.084	59.695	25.368	2.0703e-05	33.08	170.477	-99.759	-119.514	-160.022	-1.475	26.434	-161.417	-155.489	-105.175	-8.397	-157.899	-153.649	-151.745	-145.408	-11.832	-149.411	-8191	255	
2300.282	1	1	0	0	0.048866	0.14349	0.0479	0.20029	0.2199	0.037601	0.026131	0.0080469	0.16107	0.32768	0.037408	0.095925	0.064181	0.22205	0.090802	0.097243	-3.0229	-3.1437	-3.3521	-3.3708	-3.15	-3.5687	-3.425	-3.2062	-3.4396	-3.2521	-3.3042	-3.4042	-3.1312	-3.3688	-3.2333	-3.0708	93.770	-3.167	-25.068	109.014	113.240	105.661	-48.289	185.379	-163.553	120.475	-113.417	139.685	-85.575	110.962	153.728	67.284	0.00040473	0.00038083	8.5285e-05	513.59	7.909e-06	3.0051e-06	505.8	160.53	2.4373e-06	4.4992e-06	160.53	59.092	57.108	24.569	2.9858e-06	31.934	0.0017083	0.0019388	0.00054478	527.49	2.0931e-05	2.1444e-05	517.43	163.15	2.0775e-05	2.1854e-05	170.04	62.335	59.983	25.547	2.1161e-05	33.338	172.716	-68.883	119.504	-160.123	69.825	-11.906	-161.318	-155.566	170.624	-13.510	-157.929	-154.030	-151.401	-145.844	-5.639	-148.926	-8191	255	
2300.379	1	1	0	0	0.079527	0.099238	0.16767	0.12796	0.025889	0.26626	0.060868	0.21574	0.17662	0.16682	0.14345	0.1515	0.15459	0.16294	0.13416	0.20349	-3.1271	-3.0979	-3.2917	-3.5396	-3.2583	-3.4354	-3.4062	-3.3083	-3.4917	-3.1458	-3.4688	-3.3583	-3.2	-3.4625	-3.45	-3.1604	-54.519	45.858	67.989	180.696	-41.536	142.197	121.051	-6.376	-133.375	174.945	80.135	-145.674	114.219	155.912	121.715	43.316	0.00036098	0.00015407	0.00014006	514.55	6.0357e-07	6.3265e-06	505.56	158.75	5.0792e-06	7.7649e-06	158.08	59.05	56.191	24.544	5.9915e-06	31.618	0.0017005	0.0019076	0.00054297	526.45	2.0684e-05	2.1308e-05	514.99	162.32	2.0455e-05	2.1411e-05	168.03	61.928	59.514	25.479	2.0966e-05	32.994	163.907	-111.968	-117.199	-160.043	5.212	-61.692	-161.156	-155.550	-94.924	-87.221	-157.746	-154.019	-151.409	-145.600	-69.829	-149.073	-8191	255	
2300.450	1	1	0	0	0.053557	0.090284	0.13447	0.081736	0.30067	0.36489	0.26379	0.25166	0.16265	0.16481	0.039423	0.26408	0.014692	0.12768	0.068393	0.14933	-3.15	-3.1917	-3.2146	-3.3917	-3.1229	-3.5667	-3.4479	-3.2208	-3.6729	-3.1667	-3.2125	-3.5771	-3.2104	-3.4771	-3.5042	-3.3042	-56.160	-147.979	-87.403	101.015	34.532	-16.685	75.116	136.671	105.229	153.586	108.584	99.854	-167.682	-167.498	42.872	114.865	0.00045873	0.00077065	0.00012115	511.65	4.8672e-06	1.6203e-06	501.83	157.93	2.8635e-06	7.0212e-06	159.64	59.461	56.979	24.556	7.7411e-06	31.895	0.0016879	0.0019252	0.0005373	525.01	2.0598e-05	2.1342e-05	513.47	161.93	2.0534e-05	2.1385e-05	168.44	62.067	59.558	25.451	2.0617e-05	33.235	172.865	-153.372	169.849	-160.066	40.952	-72.294	-161.196	-155.622	-64.257	-136.670	-157.684	-153.498	-151.721	-145.785	-39.654	-149.190	-8191	255	
2300.571	1	1	0	0	0.15168	0.074108	0.069538	0.12008	0.13236	0.30755	0.24503	0.094631	0.30846	0.062789	0.0836	0.15715	0.084104	0.17293	0.017965	0.032088	-3.0708	-3.075	-3.1667	-3.4167	-3.2229	-3.3396	-3.5354	-3.3312	-3.4708	-3.2792	-3.2854	-3.5271	-3.2396	-3.4417	-3.4521	-3.3	-15.515	-32.532	135.643	-103.904	-71.090	-78.554	90.832	108.158	-55.076	-165.607	40.421	51.798	-55.402	136.844	-108.005	168.548	0.00050043	0.00062442	0.00015598	515.81	4.1674e-06	6.191e-06	505.16	159.37	2.2972e-06	8.2773e-06	159.49	59.593	56.946	24.509	4.8818e-06	31.76	0.0017063	0.0019135	0.00054195	528.02	2.0619e-05	2.1592e-05	517.13	162.52	2.095e-05	2.1668e-05	169.39	62.374	59.823	25.544	2.0978e-05	33.374	175.845	-61.239	-33.893	-159.943	-47.196	61.845	-161.343	-155.627	-114.984	-0.082	-157.738	-154.254	-151.440	-145.576	-25.559	-148.802	-8191	255	
2300.667	1	1	0	0	0.063414	0.10893	0.11327	0.22363	0.026461	0.21121	0.10439	0.058352	0.14193	0.05021	0.033621	0.084758	0.24388	0.18031	0.16384	0.16547	-3.15	-3.2667	-3.1771	-3.5	-3.3021	-3.3417	-3.6708	-3.2979	-3.4938	-3.4562	-3.3438	-3.6063	-3.2021	-3.2958	-3.5187	-3.2854	60.171	-111.433	135.134	124.434	49.334	173.966	-33.897	35.907	-170.680	145.259	83.722	98.768	137.602	-162.600	124.432	-17.519	0.00043195	0.00052734	0.00014373	515.68	2.1225e-06	5.5777e-06	506.39	159.62	4.5567e-06	3.7421e-06	159.19	59.402	56.551	24.482	8.7283e-06	31.768	0.0017111	0.0019344	0.00053781	529.02	2.067e-05	2.1093e-05	517.87	162.85	2.0423e-05	2.131e-05	168.21	62.174	59.486	25.457	2.056e-05	33.115	163.038	-93.793	-69.492	-160.159	-49.571	26.532	-161.338	-155.912	-113.207	8.890	-158.217	-154.031	-151.263	-145.593	-135.699	-149.034	-8191	255	
2300.763	1	1	0	0	0.14499	0.16584	0.075723	0.18623	0.23927	0.18177	0.11139	0.17466	0.2898	0.11588	0.10887	0.094327	0.10723	0.16378	0.067141	0.20477	-2.9896	-3.2854	-3.1604	-3.4771	-3.2313	-3.3604	-3.5083	-3.2354	-3.4083	-3.5417	-3.0312	-3.4646	-3.3146	-3.1708	-3.3875	-3.1437	76.714	6.889	-5.120	-89.831	130.250	173.644	54.656	58.033	-130.862	-56.107	-103.913	-171.856	54.848	96.316	-129.261	-173.194	0.00040485	0.00053959	0.00011459	516.33	1.0552e-06	7.4538e-06	505.27	158.16	1.9196e-06	5.0813e-06	158.81	58.346	56.787	24.286	4.0996e-06	31.496	0.0016599	0.0018706	0.00053251	527.35	2.04e-05	2.1061e-05	513.41	161.56	2.0162e-05	2.082e-05	167.17	61.561	59.254	25.295	2.0455e-05	32.83	159.537	-84.201	-9.443	-160.390	-155.225	27.779	-161.312	-155.714	-113.351	-122.025	-157.779	-153.615	-151.528	-145.714	-45.790	-149.250	-8191	255	
2300.859	1	1	0	0	0.21525	0.13097	0.066531	0.22756	0.020112	0.1104	0.10893	0.070886	0.089286	0.24692	0.19784	0.04516	0.14588	0.10903	0.12677	0.1391	-3.0312	-3.3438	-3.0604	-3.3542	-3.3625	-3.2438	-3.5042	-3.1521	-3.3396	-3.2687	-3.2167	-3.5021	-3.2562	-3.1396	-3.4021	-3.2188	-128.022	135.317	94.173	137.194	9.885	75.192	-41.197	-173.092	-99.570	160.171	-23.489	166.169	-10.190	-132.253	13.349	100.283	0.00039051	0.001026	8.7945e-05	516.75	4.422e-06	2.995e-06	503.83	158.08	6.9027e-06	4.7592e-06	158.89	58.445	56.434	24.293	6.576e-06	31.434	0.0016459	0.0018794	0.00052365	526.37	1.9959e-05	2.0565e-05	513.15	161.33	2.0004e-05	2.0576e-05	167.41	61.473	59.288	25.222	2.0043e-05	32.759	165.625	-80.350	143.612	-160.306	-59.153	-8.011	-161.190	-155.579	-68.009	-52.633	-158.066	-154.143	-151.688	-145.677	-108.277	-149.533	-8191	255	
2300.978	1	1	0	0	0.17224	0.16467	0.1215	0.12533	0.012523	0.10297	0.022034	0.30253	0.12221	0.23713	0.18714	0.08639	0.21138	0.16666	0.051885	0.25073	-2.8229	-3.4875	-3.1625	-3.3625	-3.4333	-3.3167	-3.4792	-3.2125	-3.3563	-3.5542	-3.0771	-3.4625	-3.4792	-3.1667	-3.5083	-3.2771	37.425	28.839	7.353	142.274	-171.215	159.633	-18.869	-70.250	98.954	-37.100	145.224	182.867	-153.750	-163.529	-52.418	-162.954	0.00044636	0.00035855	8.1101e-05	512.65	5.9954e-06	4.1452e-06	504.09	158.43	4.0817e-06	6.7517e-06	157.64	58.685	55.881	24.101	1.3312e-06	31.306	0.0016279	0.0018588	0.00052413	524.96	1.9948e-05	2.0441e-05	513.15	161.02	1.9543e-05	2.0414e-05	166.51	61.47	58.835	25.015	1.9819e-05	32.474	158.940	159.129	-27.923	-160.221	-57.157	18.179	-160.988	-155.569	-74.206	-117.478	-157.936	-153.890	-151.731	-145.461	-150.794	-149.492	-8191	255	
#DATA ENDS
