BOXY.EXE: ISS Imagent and Oximeter Data Acquisition Program Version 0.80
Ascii Record File

#ACQ INFORMATION
2  Detector Channels 
16  External MUX Channels 
1  Auxiliary Channels 
5000  Waveform (CCF) Frequency (Hz)
1  Waveforms Skipped 
30  Waveforms Averaged 
1  Cycles Averaged 
16  Acquisitions per Waveform 
10.0806  Updata Rate (Hz) 

#FILE INFORMATION
TRUE -- External MUX Channel results are PARSED.
FALSE -- AC DC and Phase are NOT grouped.
TRUE -- Companion Program Settings File CREATED.
FALSE -- AC data not excluded
FALSE -- DC data not excluded
FALSE -- Phase data not excluded
FALSE -- Auxillary Chn. data not excluded
Tab delimiters

#CALIBRATION STATE
TRUE -- Waveform Calibration Values APPLIED.


#AUX CALIBRATION VALUES
Val Type	aux-1	

Term	1.0000e+00	
Factor	0.0000e+00	


#WF CALIBRATION VALUES
A = Detector Channel
Val Type	A-AC1	A-AC2	A-AC3	A-AC4	A-AC5	A-AC6	A-AC7	A-AC8	A-AC9	A-AC10	A-AC11	A-AC12	A-AC13	A-AC14	A-AC15	A-AC16	A-DC1	A-DC2	A-DC3	A-DC4	A-DC5	A-DC6	A-DC7	A-DC8	A-DC9	A-DC10	A-DC11	A-DC12	A-DC13	A-DC14	A-DC15	A-DC16	A-Ph1	A-Ph2	A-Ph3	A-Ph4	A-Ph5	A-Ph6	A-Ph7	A-Ph8	A-Ph9	A-Ph10	A-Ph11	A-Ph12	A-Ph13	A-Ph14	A-Ph15	A-Ph16	

Term	0.00000e+00	0.00000e+00	0.00000e+00	0.00000e+00	0.00000e+00	0.00000e+00	0.00000e+00	0.00000e+00	0.00000e+00	0.00000e+00	0.00000e+00	0.00000e+00	0.00000e+00	0.00000e+00	0.00000e+00	0.00000e+00	0.00000e+00	0.00000e+00	0.00000e+00	0.00000e+00	0.00000e+00	0.00000e+00	0.00000e+00	0.00000e+00	0.00000e+00	0.00000e+00	0.00000e+00	0.00000e+00	0.00000e+00	0.00000e+00	0.00000e+00	0.00000e+00	0.00000e+00	0.00000e+00	0.00000e+00	0.00000e+00	0.00000e+00	0.00000e+00	0.00000e+00	0.00000e+00	0.00000e+00	0.00000e+00	0.00000e+00	0.00000e+00	0.00000e+00	0.00000e+00	0.00000e+00	0.00000e+00	
Factor	1.00000e+00	1.00000e+00	1.00000e+00	1.00000e+00	1.00000e+00	1.00000e+00	1.00000e+00	1.00000e+00	1.00000e+00	1.00000e+00	1.00000e+00	1.00000e+00	1.00000e+00	1.00000e+00	1.00000e+00	1.00000e+00	1.00000e+00	1.00000e+00	1.00000e+00	1.00000e+00	1.00000e+00	1.00000e+00	1.00000e+00	1.00000e+00	1.00000e+00	1.00000e+00	1.00000e+00	1.00000e+00	1.00000e+00	1.00000e+00	1.00000e+00	1.00000e+00	X	X	X	X	X	X	X	X	X	X	X	X	X	X	X	X	

B = Detector Channel
Val Type	B-AC1	B-AC2	B-AC3	B-AC4	B-AC5	B-AC6	B-AC7	B-AC8	B-AC9	B-AC10	B-AC11	B-AC12	B-AC13	B-AC14	B-AC15	B-AC16	B-DC1	B-DC2	B-DC3	B-DC4	B-DC5	B-DC6	B-DC7	B-DC8	B-DC9	B-DC10	B-DC11	B-DC12	B-DC13	B-DC14	B-DC15	B-DC16	B-Ph1	B-Ph2	B-Ph3	B-Ph4	B-Ph5	B-Ph6	B-Ph7	B-Ph8	B-Ph9	B-Ph10	B-Ph11	B-Ph12	B-Ph13	B-Ph14	B-Ph15	B-Ph16	

Term	0.00000e+00	0.00000e+00	0.00000e+00	0.00000e+00	0.00000e+00	0.00000e+00	0.00000e+00	0.00000e+00	0.00000e+00	0.00000e+00	0.00000e+00	0.00000e+00	0.00000e+00	0.00000e+00	0.00000e+00	0.00000e+00	0.00000e+00	0.00000e+00	0.00000e+00	0.00000e+00	0.00000e+00	0.00000e+00	0.00000e+00	0.00000e+00	0.00000e+00	0.00000e+00	0.00000e+00	0.00000e+00	0.00000e+00	0.00000e+00	0.00000e+00	0.00000e+00	-1.62352e+02	-1.41008e+02	-1.11495e+02	-1.83984e+02	-1.11418e+02	-7.45502e+01	-1.55811e+02	-1.62015e+02	-8.09347e+01	-4.80968e+01	-1.73154e+02	-1.73613e+02	-1.86815e+02	-1.78292e+02	-6.95269e+01	-1.50256e+02	
Factor	2.31503e-05	1.21955e-04	3.53977e-05	1.73479e-01	9.55770e-07	1.44040e-06	1.63553e-01	5.56841e-02	9.89360e-07	1.12439e-06	9.67085e-02	2.82450e-02	5.57543e-02	8.47876e-03	1.11573e-06	1.21845e-02	1.04864e-06	1.07952e-06	3.00291e-07	8.44363e-02	1.18273e-08	1.18528e-08	7.57509e-02	2.71375e-02	1.18471e-08	1.18386e-08	4.50717e-02	1.32853e-02	2.55029e-02	4.11310e-03	1.18525e-08	5.73167e-03	X	X	X	X	X	X	X	X	X	X	X	X	X	X	X	X	



#DISTANCE SETTINGS
A = Detector Channel
A-1	A-2	A-3	A-4	A-5	A-6	A-7	A-8	A-9	A-10	A-11	A-12	A-13	A-14	A-15	A-16	

2.5000e+00	3.0000e+00	2.5000e+00	3.0000e+00	2.0000e+00	3.0000e+00	1.5000e+00	3.0000e+00	3.0000e+00	3.0000e+00	3.0000e+00	3.0000e+00	3.0000e+00	3.0000e+00	1.5000e+00	3.0000e+00	

B = Detector Channel
B-1	B-2	B-3	B-4	B-5	B-6	B-7	B-8	B-9	B-10	B-11	B-12	B-13	B-14	B-15	B-16	

1.0000e+01	1.0000e+01	1.0000e+01	1.4400e+00	1.0000e+01	1.0000e+01	1.5100e+00	1.9400e+00	1.0000e+01	1.0000e+01	1.9900e+00	2.4900e+00	2.4100e+00	2.9000e+00	1.0000e+01	2.9800e+00	




#DATA BEGINS
time	group	step	mark	flag	A-AC1	A-AC2	A-AC3	A-AC4	A-AC5	A-AC6	A-AC7	A-AC8	A-AC9	A-AC10	A-AC11	A-AC12	A-AC13	A-AC14	A-AC15	A-AC16	A-DC1	A-DC2	A-DC3	A-DC4	A-DC5	A-DC6	A-DC7	A-DC8	A-DC9	A-DC10	A-DC11	A-DC12	A-DC13	A-DC14	A-DC15	A-DC16	A-Ph1	A-Ph2	A-Ph3	A-Ph4	A-Ph5	A-Ph6	A-Ph7	A-Ph8	A-Ph9	A-Ph10	A-Ph11	A-Ph12	A-Ph13	A-Ph14	A-Ph15	A-Ph16	B-AC1	B-AC2	B-AC3	B-AC4	B-AC5	B-AC6	B-AC7	B-AC8	B-AC9	B-AC10	B-AC11	B-AC12	B-AC13	B-AC14	B-AC15	B-AC16	B-DC1	B-DC2	B-DC3	B-DC4	B-DC5	B-DC6	B-DC7	B-DC8	B-DC9	B-DC10	B-DC11	B-DC12	B-DC13	B-DC14	B-DC15	B-DC16	B-Ph1	B-Ph2	B-Ph3	B-Ph4	B-Ph5	B-Ph6	B-Ph7	B-Ph8	B-Ph9	B-Ph10	B-Ph11	B-Ph12	B-Ph13	B-Ph14	B-Ph15	B-Ph16	aux-1	digaux	

5901.766	1	1	0	256	0.28664	0.10501	0.042306	0.14892	0.19064	0.22377	0.20839	0.11038	0.14888	0.14556	0.14812	0.37776	0.19892	0.28043	0.22783	0.16124	-2.6875	-2.7812	-2.9813	-3.1458	-2.95	-3.2646	-3.0042	-2.9521	-3.2875	-3.0083	-3.1771	-3.0479	-2.8063	-3.4292	-3.0375	-3.0771	405.410	400.952	240.058	440.526	464.648	193.896	493.249	415.270	307.005	518.756	468.351	441.884	353.361	503.312	399.784	416.382	0.00085352	0.0011149	9.0054e-05	656.63	9.0255e-06	7.9334e-06	714.46	281.18	5.2241e-06	4.3524e-06	320.8	139.01	122.33	55.441	6.7288e-06	66.547	0.0013057	0.0012931	0.00040456	758.73	1.4305e-05	1.4388e-05	807.58	312.25	1.4289e-05	1.4663e-05	373.45	153.26	142.9	59.932	1.624e-05	72.859	517.261	257.760	346.668	180.395	282.700	239.489	178.367	184.983	366.316	265.341	182.759	186.636	188.266	194.857	318.532	190.969	-8191	255	
5901.885	1	1	0	0	0.078552	0.027199	0.24328	0.17251	0.28852	0.078575	0.12552	0.14142	0.047314	0.13097	0.22246	0.14222	0.068447	0.19395	0.15066	0.10943	-2.7938	-3.0146	-3.1125	-3.1083	-2.9396	-3.0667	-3.0667	-2.9625	-3.1937	-2.875	-3.0792	-3.0438	-2.8208	-3.0563	-3.0167	-3.0646	510.200	451.937	409.540	358.732	383.462	360.274	454.495	433.152	459.502	384.624	506.806	476.869	212.067	448.171	390.776	258.706	0.00096822	0.00020521	0.00010459	659.32	4.0031e-06	5.3061e-06	710.06	281.14	4.267e-06	7.2537e-06	320.63	138.58	120.98	55.162	2.4272e-06	66.631	0.0012923	0.0013742	0.0004089	758.94	1.4273e-05	1.536e-05	807.51	312.27	1.4568e-05	1.5861e-05	373.24	152.67	142.92	60.105	1.6301e-05	72.7	171.328	217.927	424.000	180.421	295.828	193.854	178.532	184.771	262.963	285.813	182.434	186.727	188.406	194.969	304.947	191.014	-8191	255	
5901.957	1	1	0	0	0.31399	0.17402	0.18173	0.11712	0.0078839	0.093521	0.17566	0.16234	0.22272	0.19337	0.023373	0.17124	0.10653	0.489	0.3225	0.13151	-2.6604	-2.875	-3.0396	-3.1104	-2.7979	-3.2104	-3.1021	-3.2188	-3.1792	-2.8937	-3.1396	-3.2417	-2.8875	-3.2812	-3.0229	-2.9042	236.169	260.857	360.761	226.048	341.912	525.295	469.057	176.208	402.401	351.199	445.544	398.167	436.212	476.331	387.596	352.261	0.00087564	0.0015576	0.00023277	660.05	5.7367e-06	1.4206e-05	709.73	281.13	1.0146e-05	4.0477e-06	322.48	137.89	121.63	55.473	7.2694e-06	66.488	0.0013063	0.001442	0.00040101	755.47	1.4227e-05	1.5797e-05	802.25	311.39	1.4159e-05	1.5912e-05	369.69	151.72	142.43	60.319	1.5438e-05	72.478	168.922	495.603	265.370	180.173	204.615	280.154	178.694	184.701	261.599	169.919	182.441	186.605	187.880	194.660	364.889	190.980	-8191	255	
5902.055	1	1	0	0	0.028814	0.13038	0.32884	0.10902	0.21124	0.079428	0.14662	0.15467	0.10651	0.22297	0.14218	0.25846	0.18317	0.12698	0.27709	0.28008	-2.7521	-2.9125	-3.0375	-3.2104	-2.925	-3.1396	-3.1458	-2.9958	-3.1708	-2.6417	-2.9896	-3.2458	-2.65	-3.2896	-2.9792	-2.9479	323.083	479.993	418.285	339.259	301.578	349.702	425.533	173.356	504.190	289.918	395.207	203.823	501.294	224.220	259.062	486.806	0.0011235	0.00065585	0.00034973	659.04	1.2591e-05	2.0303e-06	706.16	279.89	9.1954e-06	9.677e-06	322.1	138.86	121.5	55.401	1.1573e-05	67.345	0.0013295	0.0015011	0.00039673	755.44	1.5024e-05	1.6456e-05	800	310.34	1.4993e-05	1.6162e-05	369.89	151.85	144.41	60.344	1.4949e-05	72.586	518.106	507.571	332.252	179.856	237.064	311.777	178.582	184.782	238.144	386.435	182.736	186.732	188.045	194.829	331.916	191.072	-8191	255	
5902.173	1	1	0	0	0.041286	0.11724	0.30802	0.18187	0.050388	0.12891	0.20657	0.16783	0.32053	0.177	0.42786	0.062806	0.14312	0.41465	0.1944	0.42874	-2.6583	-2.8854	-2.8729	-3.2354	-2.8854	-3.1146	-3.0583	-2.7938	-3.1854	-2.9146	-3.1688	-3.1771	-2.8042	-3.1833	-2.9521	-2.9417	398.345	381.672	184.405	236.080	339.914	209.986	191.870	374.048	455.758	357.957	464.744	225.170	210.318	187.037	466.353	448.726	0.0010603	0.00016029	0.00010349	658.07	4.1671e-06	1.0851e-05	710.87	280.91	1.4927e-06	1.5405e-05	323.12	139.15	121.33	55.358	7.9077e-06	67.324	0.0013774	0.0014592	0.00037985	751.73	1.538e-05	1.6047e-05	797.97	309.53	1.5531e-05	1.5715e-05	369.07	152.26	145.46	60.326	1.4872e-05	72.861	523.404	204.810	509.194	180.238	300.604	381.027	178.491	184.697	252.267	383.071	183.000	186.447	188.052	194.953	346.190	191.090	-8191	255	
5902.270	1	1	0	0	0.031742	0.22812	0.36771	0.35612	0.10764	0.15866	0.13522	0.10856	0.050763	0.26008	0.10516	0.25202	0.16677	0.010284	0.29852	0.19676	-2.6292	-2.7354	-2.7542	-3.1458	-2.8625	-2.9021	-3.0604	-3.0292	-3.2396	-2.9979	-3.0771	-3.2167	-2.9562	-3.2521	-3.2833	-3.0812	186.640	385.716	323.201	465.404	309.644	193.047	386.441	440.708	174.097	398.717	184.094	445.177	415.945	258.689	326.406	405.740	0.001024	0.00056947	0.0003526	661.7	7.8848e-06	8.4684e-06	710.2	280.75	7.0948e-06	1.1346e-05	322.77	138.94	122.43	55.27	4.5234e-06	66.435	0.001441	0.0014458	0.00037944	754.32	1.623e-05	1.5798e-05	797.05	310.73	1.626e-05	1.5558e-05	367.25	152.3	147.05	59.918	1.4556e-05	72.461	515.237	171.150	344.330	180.159	240.407	391.971	178.875	184.816	287.740	416.067	182.624	186.681	188.130	195.133	335.703	191.031	-8191	255	
5902.366	1	1	0	0	0.14654	0.27626	0.13555	0.10006	0.16007	0.36894	0.10006	0.16614	0.25687	0.19518	0.16739	0.093394	0.21621	0.37985	0.20486	0.25927	-2.7042	-3.0104	-2.8563	-3.2708	-3.0396	-2.9667	-3.2417	-2.9729	-3.0604	-3.0854	-3.0292	-3.2042	-3.0854	-3.1083	-3.0458	-2.9958	474.807	186.944	484.993	444.182	266.072	363.704	421.678	523.869	490.469	487.722	225.197	332.239	174.335	486.068	300.010	434.030	0.00085131	0.00082964	0.00012559	658.16	7.9879e-06	8.8965e-06	707.8	279.63	8.899e-06	8.8551e-06	318.35	137.75	120.45	54.688	8.0122e-06	66.47	0.0014729	0.0014001	0.0003695	755.22	1.6375e-05	1.5416e-05	792.03	310.74	1.6411e-05	1.5355e-05	364.23	152.25	146.22	59.48	1.4395e-05	72.428	166.936	227.764	325.628	180.097	289.334	245.625	178.550	184.854	340.025	223.694	182.666	186.352	188.520	194.944	386.110	191.282	-8191	255	
5902.486	1	1	0	0	0.04238	0.20692	0.027512	0.24244	0.14241	0.14675	0.21647	0.21598	0.11603	0.14038	0.14582	0.04091	0.3118	0.35457	0.25643	0.16604	-2.6417	-2.9646	-2.8396	-3.1854	-3.0792	-3.0062	-3.1542	-3.1125	-3.1688	-3.2167	-2.8375	-3.2229	-2.85	-3.0875	-3.1437	-2.9792	246.377	397.495	486.518	434.589	372.808	343.911	494.738	452.201	203.029	356.847	507.466	443.436	185.344	204.049	281.527	178.345	0.00084827	0.00042178	0.00019837	656.71	4.7868e-06	8.6566e-06	703.44	279.97	8.4691e-06	8.4527e-06	320.14	138.36	120.77	55.208	1.858e-06	66.76	0.0014427	0.0013586	0.00036122	756.79	1.5806e-05	1.4916e-05	788.18	311.94	1.5855e-05	1.4975e-05	364.64	153.29	145.78	59.697	1.4551e-05	73.313	168.004	190.160	286.163	180.122	341.642	297.268	178.515	184.842	318.137	427.697	182.849	186.328	188.475	194.921	219.138	191.022	-8191	255	
5902.558	1	1	0	0	0.10682	0.055287	0.095498	0.14625	0.14263	0.24088	0.12331	0.25322	0.29546	0.27218	0.023174	0.16649	0.10697	0.30861	0.2197	0.097088	-2.6208	-3.1583	-2.8937	-3.1583	-3.05	-2.9958	-3.2313	-2.9542	-2.9708	-3.0521	-2.7958	-3.2708	-2.9458	-2.9646	-2.9813	-2.9125	379.045	217.169	258.798	432.158	293.244	351.648	491.007	522.664	365.207	194.125	183.629	500.568	174.786	470.360	246.344	196.257	0.00086284	0.00047304	0.00027959	659.08	3.5818e-06	1.3738e-05	708.68	281.51	9.505e-06	1.0125e-05	321.96	139.55	120.97	55.633	3.4266e-06	67.579	0.0014237	0.0013548	0.00037045	764.01	1.5448e-05	1.4691e-05	794.84	314.29	1.5267e-05	1.4545e-05	368.06	155.06	144.9	60.017	1.4885e-05	74.095	169.770	258.293	243.827	180.334	218.181	351.052	178.720	184.754	286.191	348.167	182.353	186.683	188.377	194.767	283.158	190.961	-8191	255	
5902.654	1	1	0	0	0.24123	0.12827	0.076167	0.14782	0.13678	0.1871	0.23885	0.095679	0.031743	0.25905	0.37217	0.071797	0.12817	0.25498	0.23609	0.20894	-2.2604	-3.0479	-2.8	-3.0792	-2.9917	-2.7771	-3.175	-3.0167	-2.8312	-3.2479	-2.9896	-3.0583	-3.0062	-3.0104	-3.1271	-3.0958	404.422	444.292	300.723	486.303	232.809	398.547	422.487	467.118	235.706	463.157	477.255	257.279	180.063	478.983	279.402	513.362	0.00077296	0.0014539	0.00012137	660.71	7.6307e-06	6.2555e-06	710.22	282.65	3.9521e-06	3.5162e-06	324.66	140.55	121.78	55.853	9.5028e-06	67.736	0.0013675	0.0013107	0.00038287	766.2	1.5098e-05	1.4358e-05	803.25	315.52	1.5162e-05	1.4411e-05	372.95	155.41	144.9	59.992	1.5467e-05	74.08	511.412	278.323	198.691	180.129	250.261	257.833	178.883	184.936	219.617	369.497	182.503	186.671	188.160	194.963	230.773	191.126	-8191	255	
5902.750	1	1	0	0	0.093406	0.093513	0.27542	0.24066	0.25208	0.31378	0.12226	0.37653	0.073401	0.2759	0.27144	0.24284	0.10913	0.052528	0.04686	0.24896	-2.475	-3.1333	-2.9292	-3.1375	-3.0208	-2.8083	-3.2125	-2.9854	-2.9604	-3.0062	-2.9542	-3.2229	-3.25	-2.8833	-3.2	-2.9938	413.856	484.153	362.952	197.473	484.482	228.398	475.249	487.401	205.044	357.789	262.393	412.470	492.499	485.825	227.392	482.405	0.00086698	0.00084188	0.00025129	660.44	8.1493e-06	1.2302e-05	714.28	281.12	1.0196e-05	6.3747e-06	322.33	139.29	120.84	55.56	4.2856e-06	66.885	0.0013344	0.0012953	0.00039668	763.28	1.4696e-05	1.4204e-05	805.91	313.94	1.47e-05	1.4351e-05	373.17	153.86	143.43	59.839	1.6017e-05	73.122	524.924	281.193	238.772	180.078	338.036	264.970	178.545	185.090	302.444	368.738	182.355	186.855	188.100	194.816	278.841	191.145	-8191	255	
5902.869	1	1	0	0	0.14519	0.15416	0.12183	0.055301	0.039522	0.18834	0.22196	0.27234	0.044626	0.15892	0.11774	0.26677	0.20969	0.21234	0.078705	0.10412	-2.4583	-3.2042	-2.8312	-2.9542	-3.1583	-2.9375	-3.1417	-3.2208	-2.8667	-3.1854	-3.1729	-3.1021	-3.1896	-3.0687	-3.1354	-3.0604	169.691	526.177	293.560	524.678	450.250	397.576	418.291	457.513	449.724	409.192	219.096	422.490	188.893	199.134	238.086	474.030	0.00079478	0.00027658	0.00020396	654.32	5.5549e-06	8.242e-06	707.91	280.41	8.8599e-06	2.4072e-06	320.68	138.45	120.74	55.303	1.0107e-05	66.783	0.0013152	0.0013169	0.00040788	756.33	1.4392e-05	1.4532e-05	802.38	311.69	1.4432e-05	1.4751e-05	371.44	152.36	142.25	59.712	1.6018e-05	72.518	522.895	286.096	301.054	180.241	223.174	216.898	178.836	184.983	320.977	187.221	182.522	186.875	188.442	194.799	415.989	191.143	-8191	255	
5902.965	1	1	0	0	0.18415	0.12825	0.048906	0.18303	0.20815	0.11773	0.1283	0.10099	0.065673	0.067813	0.16394	0.11608	0.053139	0.22489	0.11177	0.13187	-2.575	-3.1125	-2.7771	-2.9021	-3.1833	-2.7917	-3.275	-3.1521	-2.8146	-3.1562	-3.0375	-2.975	-3.0854	-2.9854	-3.0083	-3.1333	240.345	313.518	337.805	414.455	261.277	408.471	440.519	477.656	216.903	502.312	462.144	220.094	306.405	498.883	181.365	500.360	0.00093352	0.00059804	0.00031874	658.69	5.1881e-06	1.5147e-05	707.42	279	1.1063e-05	9.5386e-06	320.05	139.24	121.19	55.318	1.0822e-05	66.823	0.0012759	0.0013669	0.00040153	753.75	1.4134e-05	1.5177e-05	799.11	309.77	1.4069e-05	1.5278e-05	369.59	152.21	141.78	60.035	1.5628e-05	72.618	524.629	500.213	226.152	180.587	186.684	261.532	178.662	185.021	275.019	251.834	183.026	186.724	188.698	194.881	339.323	190.977	-8191	255	
5903.061	1	1	0	0	0.084076	0.10844	0.16307	0.20649	0.11967	0.23101	0.23464	0.051011	0.15712	0.02916	0.047522	0.29673	0.086581	0.24634	0.1239	0.062031	-2.3604	-3.2687	-2.8417	-3.0083	-3.1833	-3.1146	-3.0646	-3.2271	-2.7583	-3.1958	-2.9375	-3.0104	-3.2146	-2.9396	-3.0417	-3.1625	494.479	270.260	452.807	526.541	514.299	230.627	403.670	507.021	453.648	291.873	463.834	499.455	221.973	460.203	185.609	503.175	0.00087447	0.0011675	0.00012634	656.74	1.7524e-06	6.3706e-06	708.32	279.92	8.0496e-06	1.075e-05	320.8	138.52	121.83	55.566	8.5111e-06	67.089	0.0012785	0.0014348	0.00039698	752.32	1.4246e-05	1.5979e-05	800.99	309.9	1.4368e-05	1.6152e-05	369.41	152.54	143.23	60.453	1.5433e-05	72.926	521.648	489.794	338.591	180.133	234.925	514.695	178.764	184.760	256.628	298.752	183.058	186.778	188.191	194.942	355.181	191.046	-8191	255	
5903.158	1	1	0	0	0.11109	0.27329	0.1865	0.073754	0.046088	0.027518	0.14179	0.2277	0.083218	0.098634	0.086031	0.090091	0.18381	0.12121	0.20978	0.23232	-2.5875	-3.1646	-3.1625	-2.8542	-3.1437	-3.0333	-3.0521	-3.2313	-2.8417	-3.0625	-3.0771	-3.0438	-3.2938	-2.9292	-3.0458	-3.3688	382.025	284.632	368.686	365.334	317.664	397.151	509.605	449.307	183.645	405.483	455.611	313.510	462.639	225.595	196.631	525.468	0.00094998	0.00018404	0.0003842	655.12	4.2121e-06	5.9239e-06	711.04	280.77	1.0365e-05	1.263e-05	324.27	139.27	122.38	55.636	5.5299e-06	67.441	0.0013292	0.0014733	0.00038811	751.1	1.4726e-05	1.6178e-05	799.05	310.23	1.4794e-05	1.6157e-05	369.75	152.86	145.25	60.636	1.5063e-05	73.194	517.201	253.240	300.158	180.400	214.726	247.310	178.909	184.854	244.449	360.243	182.522	186.747	188.052	195.077	437.184	191.129	-8191	255	
5903.252	1	1	0	0	0.1846	0.20365	0.072594	0.19922	0.10764	0.21038	0.1453	0.21328	0.28072	0.14732	0.23414	0.20772	0.14881	0.40102	0.1188	0.089704	-2.55	-3.0833	-2.9104	-2.9646	-3.0604	-2.7792	-2.8917	-3.3312	-2.7917	-3.1208	-3.4167	-3.0812	-3.1979	-3.2104	-2.8542	-3.3917	398.570	288.483	254.802	318.039	396.341	468.608	437.965	420.496	426.420	210.558	432.893	456.557	415.278	452.061	259.892	489.929	0.00097022	0.00049066	0.00016511	656.18	4.1187e-06	9.0612e-06	705.54	279.86	9.2526e-06	5.0465e-06	320.43	139.25	121.56	55.353	3.3565e-06	66.953	0.0013757	0.001455	0.00038027	747.47	1.5319e-05	1.5868e-05	794.98	308.31	1.555e-05	1.5843e-05	366.74	152.25	146.22	60.198	1.4806e-05	72.592	515.013	305.518	514.705	180.294	255.973	334.332	178.751	185.011	253.911	473.315	182.947	186.754	188.214	194.890	378.501	191.040	-8191	255	
5903.348	1	1	0	0	0.18893	0.13037	0.19946	0.11534	0.08302	0.067512	0.11653	0.22411	0.11801	0.088075	0.067646	0.1846	0.35238	0.18883	0.37075	0.1796	-2.5167	-3.0917	-2.9562	-2.85	-3.1271	-3.0687	-2.9708	-3.2958	-2.8125	-3.0521	-3.2438	-2.7792	-3.1042	-3.1708	-2.8896	-3.4354	345.452	317.847	463.713	471.124	272.820	411.763	382.149	326.691	476.668	201.983	500.759	272.714	505.614	173.275	389.624	490.288	0.00080378	0.00057064	0.0003956	655.34	3.226e-06	1.748e-05	703.55	279.61	8.1267e-06	1.3373e-05	319.33	138.36	120.84	55.413	9.5631e-06	67.106	0.001438	0.0014174	0.00037312	747.35	1.5962e-05	1.5493e-05	788.11	308.28	1.6136e-05	1.5398e-05	364.18	151.7	146.57	60.039	1.4491e-05	72.775	516.726	242.433	350.091	180.542	271.297	373.685	178.703	184.807	258.219	387.255	183.019	186.364	188.434	195.009	264.808	191.092	-8191	255	
5903.446	1	1	0	0	0.17147	0.097879	0.049209	0.083233	0.15922	0.3058	0.21443	0.22567	0.013476	0.057323	0.087442	0.27627	0.34121	0.12503	0.035145	0.23623	-2.4271	-3.1083	-3.2313	-3.0146	-3.0938	-3.2354	-2.8542	-3.3271	-2.9083	-3.0542	-3.2479	-2.8854	-3.2062	-3.3292	-2.9771	-3.3187	499.421	438.375	267.551	382.576	301.909	520.824	190.166	430.797	369.633	371.230	190.996	499.152	417.277	444.386	267.765	475.980	0.00092548	0.00024444	0.00019696	655.14	4.8668e-06	9.7879e-06	705.19	278.94	3.6102e-06	4.6067e-06	320.44	138.73	122.17	55.521	9.2698e-07	67.563	0.0014583	0.0013847	0.00036894	753.77	1.6306e-05	1.5331e-05	788.82	310.01	1.6209e-05	1.5143e-05	364.56	153.48	147.25	60.174	1.4298e-05	73.588	519.078	361.738	318.216	180.015	219.634	302.015	178.525	184.849	332.489	340.956	182.698	186.777	188.179	194.989	437.857	191.138	-8191	255	
5903.565	1	1	0	0	0.14504	0.25148	0.13743	0.13344	0.17772	0.11579	0.039303	0.052233	0.28468	0.082024	0.15824	0.30181	0.19375	0.17121	0.18003	0.018497	-2.4833	-2.7708	-3.1458	-2.9	-3.0229	-3.1708	-2.9688	-3.4813	-2.9062	-3.0958	-3.3417	-3.0604	-3.2125	-3.1104	-3.0187	-3.325	481.969	525.933	489.094	203.918	294.036	400.832	516.419	190.343	522.641	369.822	216.013	488.649	489.650	484.387	439.826	306.460	0.00091598	0.0011373	0.00024211	653.47	6.2227e-06	3.2788e-06	706.26	279.59	3.522e-06	7.0845e-06	321.43	140.3	120.82	56.039	1.0731e-05	68.344	0.0014488	0.0013747	0.000363	757.85	1.5892e-05	1.4881e-05	790.65	312.74	1.5646e-05	1.4804e-05	365.69	155.08	145.95	60.356	1.4405e-05	74.445	526.724	274.065	282.012	180.430	394.108	473.824	178.683	184.829	367.463	285.825	182.755	186.813	188.697	194.871	221.274	191.236	-8191	255	
5903.661	1	1	0	0	0.016796	0.15115	0.040745	0.053717	0.22186	0.045423	0.19741	0.119	0.053684	0.15303	0.1022	0.2115	0.13041	0.43531	0.16024	0.21699	-2.4729	-2.8312	-3.2687	-2.9292	-3.1104	-3.1063	-2.8292	-3.4292	-3.2562	-2.9979	-3.3354	-3.0208	-2.9979	-3.1312	-2.9813	-3.2604	404.498	403.289	233.076	495.986	343.643	199.461	489.548	439.874	331.733	218.228	377.272	484.225	425.733	494.532	198.497	501.299	0.00080126	0.0013712	4.2295e-05	656.85	1.1608e-05	4.6662e-06	706.95	279.54	2.5641e-06	1.3753e-05	320.8	139.71	121.21	55.669	3.5891e-06	67.971	0.0014049	0.0013471	0.00037024	762.48	1.5437e-05	1.4707e-05	792.86	313.78	1.5451e-05	1.461e-05	367.55	155	145.25	60.09	1.5052e-05	74.385	515.338	301.034	501.348	180.250	304.290	400.936	178.648	184.900	241.622	366.134	182.904	186.913	188.546	194.979	466.385	191.284	-8191	255	
5903.757	1	1	0	0	0.23093	0.20731	0.041935	0.12082	0.17089	0.15705	0.22257	0.32472	0.14863	0.16009	0.24754	0.097552	0.13182	0.32205	0.21284	0.21478	-2.5938	-2.7667	-3.25	-2.95	-2.7979	-3.2687	-2.9521	-3.275	-3.0125	-2.7938	-3.3125	-2.9375	-3.0312	-3.3542	-2.9062	-3.3271	332.892	382.072	322.165	436.248	317.892	299.513	450.265	496.307	218.536	246.760	436.368	318.762	241.890	482.998	192.610	483.419	0.00093595	0.00080838	0.00021616	655.03	9.0862e-06	7.9366e-06	705.28	280.29	2.6049e-06	6.759e-06	319.41	138.73	120.94	55.475	1.1372e-05	67.067	0.0013784	0.0013136	0.0003852	760.8	1.508e-05	1.4347e-05	793.96	312.74	1.5148e-05	1.4394e-05	368.71	153.95	144.34	59.856	1.5641e-05	73.499	520.643	255.740	253.704	180.270	310.784	356.229	178.727	184.967	308.536	377.168	182.818	186.451	188.169	195.134	296.180	191.084	-8191	255	
5903.853	1	1	0	0	0.047253	0.19818	0.11329	0.14324	0.074698	0.2565	0.25586	0.20039	0.17192	0.13793	0.25513	0.09641	0.19713	0.15428	0.24827	0.095786	-2.8542	-2.6583	-3.1688	-3.0417	-2.9188	-3.2146	-2.9208	-3.2292	-3.1167	-2.9062	-3.1125	-3.1271	-2.9583	-3.225	-2.8187	-2.9875	300.867	372.811	326.774	180.981	515.163	281.150	199.633	429.675	197.740	432.538	202.506	500.243	187.868	192.066	353.383	312.148	0.00077647	0.0011087	0.00026061	651.94	5.9021e-06	6.1041e-06	701.4	277.11	5.5489e-06	1.2908e-05	319.08	137.89	120.84	55.553	9.7992e-06	66.831	0.0013474	0.0013	0.00039669	753.61	1.4676e-05	1.4218e-05	793.4	310.01	1.4648e-05	1.4396e-05	369.43	152.82	143.51	59.894	1.6337e-05	73.196	525.655	249.096	221.461	180.171	393.592	253.507	178.774	184.991	269.060	260.151	182.498	186.940	188.088	195.064	235.029	191.217	-8191	255	
5903.950	1	1	0	0	0.09234	0.021409	0.2645	0.20167	0.046979	0.19073	0.13322	0.021183	0.36054	0.16417	0.073555	0.12517	0.082234	0.20766	0.017616	0.10994	-2.8229	-2.7	-3.0104	-3.0854	-2.9167	-3.2438	-2.9083	-3.3542	-3.0833	-2.9771	-3.1792	-3.0979	-2.75	-3.3604	-2.9521	-3.1958	183.578	326.955	213.182	472.691	222.115	485.691	352.658	374.864	206.027	221.988	475.823	527.003	477.722	167.679	173.449	172.557	0.00081494	0.00024272	0.00021964	656.31	5.9664e-06	1.2911e-05	700.1	277.44	1.5997e-05	1.3133e-05	319.06	138.24	121.16	55.392	1.1222e-05	67.109	0.0013373	0.0013574	0.00042054	754.22	1.4819e-05	1.5044e-05	799.42	309.82	1.4731e-05	1.516e-05	371.68	152.8	143.04	60.183	1.638e-05	73.235	516.293	396.623	217.698	180.288	274.953	296.678	178.765	185.066	287.946	255.259	182.741	186.918	188.472	194.792	354.582	191.122	-8191	255	
5904.046	1	1	0	0	0.17642	0.21069	0.024035	0.12041	0.15167	0.19545	0.29979	0.24675	0.12439	0.23426	0.14402	0.37765	0.050016	0.37748	0.10256	0.17279	-2.6896	-2.8083	-2.9771	-2.9396	-2.7521	-2.9104	-3.0292	-3.1583	-3.0708	-2.9417	-3.0187	-3.2708	-2.8417	-3.4062	-2.7729	-3.1375	207.418	309.661	427.079	231.326	333.696	400.565	425.741	371.331	289.213	240.151	520.645	480.951	486.921	480.603	386.925	474.450	0.00071069	0.0011066	0.00039197	649.73	4.7716e-06	1.1653e-05	702.21	277.54	1.132e-05	4.9536e-06	319.42	138.74	121.59	55.511	1.3493e-06	67.248	0.0013145	0.0014106	0.00041493	751.51	1.4483e-05	1.5663e-05	798.37	308.8	1.4494e-05	1.5911e-05	370.19	152.72	143.22	60.61	1.6032e-05	73.282	169.906	471.208	267.929	180.311	273.839	230.308	178.792	184.679	305.143	261.204	182.536	186.698	188.515	195.015	365.489	191.154	-8191	255	
5904.166	1	1	0	0	0.02769	0.21689	0.13552	0.28882	0.074856	0.15809	0.143	0.19193	0.16551	0.23171	0.22315	0.26756	0.10728	0.17027	0.10924	0.22702	-2.7292	-2.8063	-3.2021	-3.0875	-2.6229	-3.2458	-3.0563	-3.05	-3.1167	-2.8792	-3.0583	-3.1417	-2.8542	-3.2104	-3.0125	-2.9708	383.236	301.353	367.328	486.976	468.266	435.115	181.211	451.101	221.348	447.243	483.439	513.162	309.544	481.206	449.374	275.488	0.00091364	0.0012542	0.00029545	653.36	3.9047e-06	6.6481e-06	703.74	278.64	7.644e-06	1.3776e-06	318.62	138.81	120.92	55.608	8.3006e-06	67.433	0.0013081	0.0014768	0.00040682	751.94	1.4667e-05	1.6447e-05	798.8	308.78	1.487e-05	1.6606e-05	370.09	152.71	143.82	60.743	1.5636e-05	73.345	523.972	211.606	370.348	179.955	293.164	331.807	178.779	184.875	201.262	460.878	182.577	186.826	188.632	194.980	168.957	190.879	-8191	255	
5904.261	1	1	0	0	0.21355	0.24323	0.15421	0.13948	0.16799	0.047805	0.30266	0.18967	0.16157	0.14639	0.06721	0.22441	0.19225	0.15411	0.093444	0.10764	-2.6771	-2.875	-2.9583	-3.1583	-3.0646	-3.0583	-3.0625	-2.9167	-3.0687	-2.8125	-2.9917	-3.4354	-2.8208	-3.0854	-2.8604	-2.9521	349.602	189.596	171.031	449.028	211.631	484.071	455.087	406.283	199.985	471.534	490.425	472.222	306.358	484.219	247.788	521.489	0.00092409	0.0013072	0.00015729	651.66	1.7762e-06	1.1656e-05	704.44	277.99	1.2785e-05	4.8779e-06	319.4	138.7	121.12	55.764	1.035e-05	67.137	0.0013587	0.0015034	0.00039154	748.31	1.5118e-05	1.6461e-05	794.87	308.1	1.521e-05	1.6334e-05	367.19	152.11	144.95	60.746	1.5191e-05	72.839	509.922	252.147	372.063	180.158	175.648	511.170	178.923	185.096	207.747	371.366	182.920	186.744	187.999	194.829	425.220	191.164	-8191	255	
5904.357	1	1	0	0	0.455	0.13144	0.11559	0.34317	0.20552	0.22201	0.22529	0.3775	0.33235	0.10376	0.23828	0.25246	0.10439	0.26552	0.15984	0.20902	-2.625	-2.9146	-2.8833	-3.1708	-2.7771	-3.0208	-3.2833	-2.8937	-3.2938	-3.0333	-3.0812	-3.3	-2.9958	-3.0854	-3.1396	-2.9	245.625	331.062	409.105	300.748	280.018	246.624	342.922	466.632	479.121	334.306	480.627	487.866	436.854	446.774	507.998	490.146	0.00078989	0.00093272	0.00029668	651.02	8.0936e-06	2.3352e-06	700.69	277.69	1.8442e-06	3.1551e-06	318.49	138.81	122.21	55.82	1.4278e-05	67.288	0.0014154	0.0014831	0.00038657	746.1	1.5722e-05	1.6148e-05	790.82	307.75	1.6032e-05	1.6138e-05	366.33	152.08	146.88	60.658	1.5057e-05	73.094	513.258	302.953	364.772	180.191	499.443	406.347	178.919	184.884	352.863	486.125	182.617	186.776	187.959	195.086	407.612	191.277	-8191	255	
5904.453	1	1	0	0	0.16328	0.19398	0.1187	0.25641	0.14772	0.31433	0.067735	0.11768	0.31421	0.099278	0.19654	0.2661	0.17543	0.13214	0.10717	0.22651	-2.7875	-3.0667	-2.9208	-3.3229	-3.0083	-2.9688	-3.2146	-3.0438	-3.0354	-3.0125	-2.9896	-3.3479	-2.9854	-3.2438	-3.1271	-2.7896	315.991	186.428	479.983	183.375	253.646	489.711	426.694	175.028	523.904	475.177	498.860	173.815	524.465	168.530	307.526	418.526	0.00089249	0.0018529	0.00039876	654.48	1.2591e-05	8.0996e-06	703.71	279.65	5.9225e-06	1.1014e-05	319.92	139.78	122.22	56.089	7.8078e-06	68.132	0.0014584	0.0014451	0.0003771	750.1	1.6375e-05	1.5733e-05	791.85	309.79	1.6431e-05	1.5566e-05	366.38	153.27	147.77	60.873	1.4626e-05	73.975	518.394	279.758	314.969	180.228	203.228	422.222	178.437	184.723	305.313	342.764	182.654	186.907	188.081	194.778	439.331	190.934	-8191	255	
5904.549	1	1	0	0	0.069868	0.17941	0.056319	0.16355	0.11375	0.085918	0.16478	0.18834	0.17532	0.13594	0.11017	0.038452	0.1528	0.20996	0.16943	0.32494	-2.6729	-2.8521	-2.9688	-3.2625	-2.85	-3.0792	-3.2167	-2.9562	-3.1583	-3.1167	-3.0396	-3.2583	-3.0104	-3.05	-3.0896	-2.9958	425.656	450.380	387.609	460.970	297.567	310.086	505.969	315.443	203.780	311.291	489.983	524.645	387.696	174.713	254.966	455.233	0.00085252	0.00052014	0.00024095	656.45	9.7591e-06	9.8891e-06	711.64	280.02	3.8092e-06	3.8593e-06	323.49	140.34	123.53	56.527	1.284e-05	68.674	0.0014864	0.0014081	0.00037424	757.46	1.6626e-05	1.5519e-05	795.07	312.93	1.6498e-05	1.5377e-05	368.65	155.1	148.11	61.146	1.4488e-05	74.993	520.191	243.943	179.383	180.322	276.022	397.213	178.819	184.735	322.435	424.590	182.746	186.751	188.592	195.161	279.581	191.277	-8191	255	
5904.645	1	1	0	0	0.17815	0.25326	0.20015	0.11167	0.14364	0.18951	0.051746	0.20086	0.0044537	0.27468	0.15962	0.21555	0.099337	0.25705	0.19778	0.22364	-2.6708	-3.0312	-2.7667	-3.3104	-2.9521	-3	-3.1813	-2.9354	-3.0583	-3.1188	-3.1042	-3.1875	-3.0979	-2.9875	-3.3208	-3.0979	390.363	377.643	333.157	484.068	249.810	470.666	243.027	461.420	340.590	475.594	461.177	467.119	416.806	478.513	207.597	459.750	0.00096613	0.0014008	0.00012062	659.7	6.3342e-06	3.8177e-06	711.76	281.99	8.1605e-06	9.9091e-06	324.78	141.53	122.89	56.783	5.4646e-06	69.07	0.0014614	0.001391	0.00036825	764.43	1.5997e-05	1.5114e-05	798.82	315.44	1.6012e-05	1.5067e-05	370.66	156.88	147.43	61.342	1.4758e-05	75.658	517.862	247.204	265.020	180.451	338.351	375.371	178.662	184.813	360.568	303.815	182.562	186.819	188.379	194.913	215.697	191.083	-8191	255	
5904.742	1	1	0	0	0.12609	0.037723	0.3161	0.17444	0.050523	0.064892	0.19889	0.17	0.17505	0.11834	0.02676	0.17408	0.12943	0.13446	0.11434	0.12518	-2.3792	-2.9979	-2.7417	-3.1333	-2.8458	-2.8104	-3.3	-3.0333	-2.8771	-3.1646	-2.925	-3.3	-3.1271	-3.2042	-3.1375	-3.1375	475.657	198.542	376.131	403.331	301.536	249.756	478.873	512.677	327.509	326.794	298.277	428.233	481.320	485.370	248.122	217.140	0.00075603	0.0013713	0.00013054	663.04	6.9373e-06	7.2321e-06	713.89	282.4	1.2505e-05	8.1456e-06	324.31	140.61	122.43	56.556	7.9935e-07	68.5	0.0014336	0.0013693	0.00037965	769.05	1.5775e-05	1.4913e-05	802.66	316.82	1.5654e-05	1.4829e-05	371.75	156.73	145.91	61.068	1.5258e-05	75.126	521.151	285.613	517.139	180.006	293.693	320.242	178.547	185.030	335.073	416.157	182.417	186.733	188.265	194.739	379.501	191.210	-8191	255	
5904.838	1	1	0	0	0.10554	0.24484	0.18804	0.17664	0.17	0.13433	0.21344	0.17226	0.22522	0.22307	0.12068	0.1628	0.29573	0.15683	0.048825	0.089661	-2.3771	-3.2062	-2.8083	-3.1417	-3.0542	-2.8521	-3.4458	-2.9396	-3.0854	-3.0792	-2.9521	-3.1604	-3.1813	-3.0187	-3.0792	-3.0563	352.267	451.205	241.948	195.099	407.181	512.465	439.760	453.850	318.513	405.582	266.327	205.088	341.602	384.671	323.815	474.936	0.00081496	0.0015785	0.00025371	658.73	1.7782e-06	1.6501e-05	712.28	280.69	2.238e-06	3.2269e-06	324.31	140.89	121.46	56.561	9.4588e-06	68.415	0.0013926	0.0013368	0.00039331	767.14	1.5328e-05	1.4653e-05	805.28	315.25	1.5383e-05	1.4629e-05	374.74	156.18	145.63	60.899	1.611e-05	75.018	522.689	232.613	280.427	180.332	271.648	373.870	178.428	184.789	402.469	334.887	182.621	186.892	188.590	194.676	260.072	191.105	-8191	255	
5904.958	1	1	0	0	0.20863	0.2563	0.16817	0.27861	0.14791	0.18295	0.32142	0.31608	0.2059	0.28025	0.23817	0.294	0.15692	0.27351	0.36634	0.2045	-2.3958	-3.075	-3.0229	-3.1958	-2.9146	-2.7625	-3.3167	-2.95	-2.7687	-3.2396	-2.9729	-3.2479	-2.9875	-2.9813	-3.1271	-3.0354	415.883	179.147	436.693	496.735	478.236	510.797	470.727	516.686	167.533	310.988	492.707	526.334	431.383	507.518	369.518	325.404	0.0009132	0.00073057	7.6456e-05	659.65	1.1567e-06	5.5873e-06	715.47	280.89	3.6219e-06	1.0817e-05	324.48	141.29	122.61	56.644	4.6449e-06	69.003	0.0013923	0.0013395	0.00041569	764.7	1.5213e-05	1.4778e-05	811.71	315.14	1.5072e-05	1.468e-05	377.03	156.04	144.83	61.13	1.6376e-05	75.052	520.761	225.177	477.559	180.407	294.448	345.946	178.334	184.750	169.261	284.549	182.613	186.728	188.309	194.771	283.477	191.159	-8191	255	
5905.053	1	1	0	0	0.090939	0.15136	0.0094968	0.1585	0.14638	0.12355	0.20326	0.1793	0.20386	0.26007	0.21453	0.16447	0.081528	0.05866	0.1478	0.50363	-2.4021	-3.1104	-2.8438	-3.1562	-3.2917	-2.9833	-3.275	-3.2104	-3.0812	-3.2313	-3.2229	-3.0479	-3.1708	-3.0208	-3.1542	-3.0854	374.618	369.472	311.182	390.334	268.335	389.828	521.011	466.322	245.717	176.753	399.157	211.600	393.116	225.414	292.740	439.239	0.00099603	0.00021305	5.1635e-05	659.01	4.58e-06	3.888e-06	712.82	282.17	5.8685e-06	7.209e-06	326.05	141.21	122.49	56.619	7.157e-06	68.876	0.0013445	0.0013598	0.0004172	760.72	1.4726e-05	1.5171e-05	813.18	314.42	1.479e-05	1.5362e-05	378.25	156.19	144.72	61.422	1.6432e-05	75.222	526.581	430.002	222.091	180.320	265.197	266.778	178.649	184.792	361.929	221.351	182.764	186.803	188.501	194.719	318.327	191.170	-8191	255	
5905.126	1	1	0	0	0.2859	0.32438	0.33611	0.096468	0.10781	0.21575	0.22873	0.47403	0.315	0.113	0.12542	0.17755	0.13215	0.10466	0.14504	0.14402	-2.4271	-3.0042	-2.9271	-3.0167	-3.2792	-2.8833	-3.3417	-3.1229	-2.8604	-3.2354	-2.9646	-3.1688	-3.2083	-2.9333	-3.2021	-3.1333	404.766	295.974	241.048	194.438	279.853	306.078	363.978	426.336	289.774	200.325	182.182	508.914	300.136	452.150	430.221	437.028	0.00092102	0.0012861	0.00037598	658.91	3.3037e-06	7.9511e-06	716.18	282.55	9.9988e-06	2.908e-06	325.24	142.76	122.75	56.877	9.4716e-07	69.209	0.0013218	0.0014299	0.0004164	758.76	1.4609e-05	1.5867e-05	813.93	314.12	1.4659e-05	1.6058e-05	378.31	156.73	144.86	61.914	1.6195e-05	75.314	521.886	209.979	298.546	180.315	521.320	220.272	178.780	184.855	223.713	339.895	182.685	186.969	188.220	195.014	444.745	191.075	-8191	255	
5905.247	1	1	0	0	0.090778	0.32054	0.35611	0.20726	0.12702	0.10619	0.070798	0.059463	0.092614	0.097631	0.20781	0.096778	0.10851	0.093068	0.10142	0.29896	-2.525	-3.0354	-2.9354	-2.8521	-3.1396	-3.1208	-3.0708	-3.2583	-2.9146	-3.1125	-3.0958	-2.925	-3.2333	-3.0167	-2.9854	-3.2917	405.663	387.013	470.899	411.041	207.255	271.584	356.894	490.027	202.686	414.641	518.055	167.357	525.460	471.195	344.967	170.012	0.00094328	0.00026432	0.00047644	659.35	2.4692e-06	1.1066e-05	715.43	282.48	2.64e-06	3.8441e-06	327.16	141.63	123.39	56.522	9.9346e-06	69.194	0.0013363	0.0014925	0.00040713	757.29	1.4722e-05	1.649e-05	808.24	312.86	1.488e-05	1.6548e-05	375.95	155.68	145.75	61.825	1.5735e-05	74.79	522.173	450.462	288.032	180.165	450.019	258.116	178.587	185.156	251.230	410.231	182.780	186.705	188.143	194.796	373.408	191.032	-8191	255	
5905.341	1	1	0	0	0.04855	0.095238	0.17464	0.18804	0.085063	0.13629	0.31164	0.40544	0.069318	0.14634	0.18885	0.10564	0.25122	0.14388	0.12812	0.21038	-2.5875	-3.1708	-2.9562	-2.8667	-3.1167	-2.9396	-3.025	-3.2125	-2.9562	-3.1229	-3.2021	-3.0833	-3.1521	-3.0542	-3.0146	-3.2146	246.791	514.572	321.061	351.371	462.800	223.989	494.038	466.522	183.513	306.063	168.651	484.948	448.337	167.847	334.658	431.379	0.0012642	0.00060219	0.00023776	657.28	1.2743e-05	2.6147e-06	712.87	282.02	7.6676e-06	7.8115e-06	325.11	141.57	122.38	56.373	4.4436e-06	68.895	0.0013714	0.0015191	0.00039433	754.01	1.5265e-05	1.6568e-05	804.44	311.76	1.5333e-05	1.6423e-05	373.08	155.12	146.76	61.624	1.5447e-05	74.563	516.300	385.468	338.488	180.239	220.442	207.106	178.806	184.770	238.880	440.929	182.847	186.630	188.079	195.025	380.473	191.068	-8191	255	
5905.437	1	1	0	0	0.27121	0.063207	0.10527	0.091841	0.030053	0.23817	0.045344	0.17778	0.20332	0.072159	0.084316	0.34848	0.044659	0.16791	0.067166	0.21142	-2.5646	-3.0875	-3.1146	-2.8333	-3.1104	-2.8	-3.0167	-3.3354	-2.7917	-3.0896	-3.0396	-3.05	-3.2188	-3.05	-2.7229	-3.4021	219.316	241.312	512.401	209.829	261.606	285.919	367.007	216.347	231.528	380.271	182.927	462.249	230.573	512.162	179.496	493.401	0.0010393	0.00093981	0.00017419	660.98	5.999e-06	5.182e-06	713.87	281.67	7.0057e-06	6.8201e-06	325.08	142.02	122.21	56.493	1.6344e-05	68.813	0.0014327	0.0015031	0.00039133	754.54	1.61e-05	1.6355e-05	804.15	312.11	1.6165e-05	1.6245e-05	372.9	155.32	148.59	61.454	1.5272e-05	74.487	511.218	260.781	320.094	180.079	526.159	357.378	178.732	184.784	198.325	454.132	182.787	186.777	188.159	194.955	319.156	191.410	-8191	255	
5905.558	1	1	0	0	0.17084	0.12738	0.10164	0.26494	0.1062	0.24958	0.15852	0.068111	0.21205	0.038229	0.097232	0.33824	0.21049	0.22662	0.32964	0.31405	-2.5542	-2.9646	-3.1167	-2.9625	-3.2562	-3.1271	-2.9729	-3.2125	-2.7708	-3.0271	-3.2771	-2.8333	-3.0312	-3.175	-2.8896	-3.275	227.911	409.697	406.411	453.264	426.537	313.438	521.120	487.436	419.300	355.811	471.285	183.725	328.523	480.948	479.219	437.970	0.0010458	0.0014499	0.00015117	656.13	8.9014e-07	1.1308e-05	710.57	281.29	6.6704e-06	3.5729e-07	325.02	141.28	121.84	56.352	8.635e-06	69.031	0.0014961	0.0014672	0.00038648	754.61	1.6662e-05	1.6004e-05	802.85	312.25	1.6838e-05	1.5868e-05	372.78	156.05	149.22	61.274	1.4966e-05	75.098	518.016	294.828	284.656	180.235	174.859	345.882	178.900	184.878	236.973	455.874	182.796	186.810	188.276	194.817	320.495	191.235	-8191	255	
5905.654	1	1	0	0	0.1369	0.29896	0.080027	0.21039	0.12458	0.12695	0.22544	0.12407	0.18377	0.096135	0.29732	0.076607	0.18667	0.11358	0.12415	0.083281	-2.5083	-3.0208	-3.2062	-2.8187	-3.1875	-3.1104	-2.9646	-3.2854	-2.8354	-3.1021	-3.2354	-2.8417	-3.1542	-3.2	-2.5542	-3.3333	347.332	190.465	487.487	497.876	266.184	517.234	487.868	435.447	175.424	182.988	485.413	387.074	363.112	437.690	245.487	444.127	0.00074608	0.001449	0.00026698	655.17	5.7435e-06	6.3393e-06	712.8	280.07	1.2329e-05	8.4663e-06	326.27	142.54	123.22	56.465	5.4099e-06	69.052	0.0015069	0.001427	0.00037811	758.48	1.6668e-05	1.5622e-05	800.6	313.34	1.6669e-05	1.558e-05	372.04	157.1	148.96	61.266	1.4912e-05	75.585	170.159	269.827	276.002	180.427	240.883	341.187	178.772	184.829	338.383	359.003	182.768	186.767	188.485	194.787	279.242	191.121	-8191	255	
5905.726	1	1	0	0	0.25972	0.054231	0.14415	0.085238	0.04462	0.12839	0.26119	0.14054	0.36882	0.22435	0.28005	0.29325	0.066994	0.1598	0.1994	0.14339	-2.5708	-2.9125	-3.1083	-2.9188	-3.1625	-3.0021	-2.9917	-3.2646	-3.0396	-3.075	-3.1354	-2.9104	-3.0083	-3.1625	-2.8187	-3.1604	404.156	413.496	365.969	477.360	408.912	340.237	487.241	261.236	405.877	242.002	467.975	423.927	471.418	392.274	394.158	217.471	0.0011048	0.00097103	0.00021044	653.01	6.9954e-06	4.1916e-06	711	281.11	1.4929e-05	7.9054e-06	322.03	140.87	123.17	56.351	1.8094e-06	68.506	0.0014937	0.0014266	0.00038049	762.8	1.6565e-05	1.5614e-05	797.97	315.05	1.6379e-05	1.5446e-05	370.37	157.3	147.89	60.857	1.5056e-05	75.172	521.978	282.985	305.542	180.272	314.563	462.145	178.678	184.975	300.293	315.635	182.965	186.661	188.536	195.012	253.054	191.268	-8191	255	
5905.846	1	1	0	0	0.144	0.14816	0.14488	0.19561	0.15059	0.1669	0.23983	0.19463	0.15716	0.06045	0.14749	0.1239	0.25994	0.21629	0.27495	0.20986	-2.7208	-2.9625	-3.1083	-2.9104	-3.0083	-3.15	-3.0271	-3.1771	-3.0958	-2.8542	-3.2542	-2.9979	-3.1813	-3.2875	-2.75	-3.2146	495.577	403.650	442.182	457.115	461.954	369.053	439.332	440.515	226.418	383.168	168.966	487.445	374.324	187.712	184.406	446.393	0.00087192	0.00013445	0.00030497	653.31	5.545e-06	1.2858e-05	709.39	279.43	8.8348e-06	8.0505e-06	322.96	141.35	121.64	56.389	6.9036e-06	68.384	0.0014495	0.0013802	0.00038456	763.46	1.5949e-05	1.5069e-05	799.1	314.65	1.5829e-05	1.516e-05	372.14	157.11	146.54	60.7	1.5807e-05	75.169	522.724	310.460	525.463	179.925	370.175	323.956	178.679	185.022	325.377	358.071	182.349	186.650	188.402	194.888	289.835	191.495	-8191	255	
5905.943	1	1	0	0	0.058611	0.23253	0.075355	0.11845	0.14999	0.19082	0.14188	0.11255	0.27277	0.17384	0.11144	0.082267	0.16931	0.14118	0.11134	0.37504	-2.5375	-2.8063	-3.1354	-2.9771	-2.9917	-3.1	-2.7771	-3.1771	-2.9583	-2.8708	-3.0938	-2.9646	-3.0312	-3.2917	-2.8812	-3.4479	230.609	296.253	487.852	481.894	518.423	464.843	459.036	452.098	504.156	292.994	488.072	493.576	489.226	499.499	357.443	470.753	0.00099724	0.00032	0.00027046	653.7	3.444e-06	1.3584e-05	707.51	279.98	6.6615e-06	2.4073e-06	322.51	141.89	121.75	56.353	9.1295e-06	68.784	0.0014179	0.0013673	0.0004029	763.52	1.5625e-05	1.4882e-05	803.34	314.66	1.5477e-05	1.4834e-05	375.5	157.71	146.33	60.991	1.6496e-05	75.539	526.954	286.660	287.007	180.304	446.346	343.705	178.656	185.012	251.106	326.813	182.994	186.868	188.477	195.338	226.254	190.919	-8191	255	
5906.039	1	1	0	0	0.13863	0.077446	0.14439	0.4113	0.080766	0.18748	0.41365	0.23109	0.1908	0.1936	0.18231	0.26806	0.035242	0.26537	0.11362	0.22861	-2.575	-2.7188	-3.0146	-2.7896	-2.9583	-3.1854	-3.0208	-3.0792	-2.8646	-2.8333	-3.2021	-3.0167	-2.9917	-3.325	-3.0771	-3.0708	193.083	395.178	285.532	478.624	306.499	423.446	484.918	450.907	505.652	467.753	467.799	463.418	169.446	172.045	500.907	516.925	0.00086902	0.00057982	0.00037758	652.38	3.5148e-06	1.3601e-05	711.56	281.41	6.6553e-06	1.0098e-05	324.96	142.51	123.1	56.32	4.8704e-06	69.352	0.0014055	0.0013659	0.00042053	760.34	1.5413e-05	1.5006e-05	810.8	314.04	1.5391e-05	1.5099e-05	379.28	157.6	146.49	61.324	1.7111e-05	75.915	168.472	212.726	219.947	180.475	349.157	281.003	178.804	185.008	470.605	266.403	182.958	186.945	188.321	194.868	309.483	191.383	-8191	255	
5906.135	1	1	0	0	0.19203	0.15349	0.13347	0.32588	0.17801	0.15749	0.084447	0.42092	0.079698	0.071811	0.26965	0.17901	0.19406	0.15875	0.27525	0.19688	-2.7479	-2.8146	-3.0042	-3.0417	-2.8229	-3.1937	-2.9917	-2.9104	-3.1396	-2.7125	-3.1729	-3.0062	-2.8667	-3.2896	-2.8854	-3.15	398.674	493.442	383.039	405.790	190.802	404.099	437.137	472.287	254.284	239.100	471.411	525.967	448.517	341.164	468.745	463.242	0.00080272	0.001224	0.00029271	659.43	3.1822e-06	1.453e-05	713.44	279.89	8.6492e-06	1.2885e-05	327.22	143.1	123.44	56.627	4.1437e-06	69.105	0.0013853	0.0014235	0.00043521	762.55	1.531e-05	1.5745e-05	816	313.83	1.5193e-05	1.5843e-05	381.09	157.71	145.71	61.69	1.6892e-05	75.684	524.498	168.992	288.843	180.151	213.019	249.503	178.675	184.849	305.314	234.084	182.862	186.882	188.272	194.804	292.198	191.043	-8191	255	
5906.229	1	1	0	0	0.094729	0.047165	0.39567	0.13966	0.13533	0.19311	0.15873	0.084154	0.037236	0.21099	0.1832	0.067794	0.048734	0.28901	0.18707	0.11501	-2.5125	-2.8521	-3.0292	-3.2792	-2.8958	-3.1292	-3.0354	-2.9292	-3.225	-2.9375	-3.1604	-3.125	-2.8708	-3.2479	-2.95	-3.0333	487.037	317.110	408.672	456.092	481.262	332.994	347.263	486.368	323.490	393.074	420.020	339.486	292.866	494.608	180.219	508.579	0.0011131	0.00040356	0.00013864	657.09	5.4843e-06	1.6777e-05	714.7	278.8	8.7525e-06	1.0978e-05	323.89	142.11	122.28	56.587	1.7476e-06	68.503	0.0013561	0.0014869	0.0004307	758.2	1.5113e-05	1.6534e-05	813.96	312.73	1.5216e-05	1.6785e-05	379.26	157	145.59	61.872	1.6747e-05	75.022	517.169	183.751	353.803	180.328	200.248	224.416	178.947	184.876	247.405	261.246	183.109	186.821	188.481	194.921	309.297	191.417	-8191	255	
5906.350	1	1	0	0	0.092873	0.15093	0.24094	0.19164	0.15699	0.15391	0.038459	0.27232	0.35454	0.15557	0.069647	0.10297	0.10702	0.14444	0.03764	0.069814	-2.7083	-2.7333	-2.9688	-3.2542	-2.6	-3.1354	-2.9521	-2.9104	-3.1583	-2.7792	-3.2229	-3.1646	-2.9062	-3.175	-3.0042	-3.1104	365.374	522.576	278.663	468.729	504.822	352.308	220.207	451.749	417.392	285.040	497.598	176.170	198.237	522.019	202.220	259.380	0.0009866	0.00048535	0.00039882	653.26	3.216e-06	7.8025e-06	705.12	278.79	2.6459e-06	1.1736e-05	323.41	141.78	121.47	56.629	1.0638e-05	68.637	0.0013764	0.0015605	0.00042235	754.49	1.5332e-05	1.7225e-05	806.06	311.5	1.5538e-05	1.7307e-05	376.76	156.45	146.37	61.941	1.6386e-05	74.904	510.874	233.913	323.216	180.323	282.120	282.185	178.708	185.071	265.507	281.711	182.818	186.735	188.313	195.244	352.775	191.458	-8191	255	
5906.422	1	1	0	0	0.16251	0.31538	0.10961	0.084764	0.26078	0.16254	0.20008	0.11438	0.091204	0.077804	0.15565	0.021767	0.13496	0.12139	0.087242	0.093955	-2.7375	-2.9188	-3.0771	-3.2854	-2.7792	-3.2146	-2.8729	-2.7708	-3.1667	-2.7625	-2.9688	-3.1146	-2.9021	-3.1729	-3.0062	-3.0687	353.136	415.698	200.501	285.891	209.188	389.902	204.016	370.293	449.839	503.469	420.738	350.436	375.996	380.853	511.757	481.912	0.0009566	0.00046883	0.00033674	652.19	9.3965e-06	8.7189e-06	709.19	278.59	1.1069e-05	1.037e-05	325.15	141.82	122.73	56.67	1.0079e-05	68.729	0.0014399	0.0015818	0.00041426	750.98	1.6028e-05	1.7318e-05	803.72	310.51	1.6308e-05	1.736e-05	375.83	156.16	148.22	61.982	1.6207e-05	75.019	513.447	346.062	234.594	179.999	243.655	354.459	178.990	185.265	250.139	311.445	182.832	186.639	187.906	195.079	358.673	191.267	-8191	255	
5906.519	1	1	0	0	0.089178	0.012853	0.11874	0.10135	0.3286	0.16898	0.27342	0.25082	0.10012	0.02195	0.18361	0.24146	0.12313	0.17112	0.27548	0.23977	-2.7896	-2.8771	-2.8688	-3.1458	-2.875	-3.0687	-3.1708	-3.0104	-3.2667	-2.9562	-2.9562	-3.2917	-2.9667	-3.0104	-2.8104	-2.8771	491.900	216.729	433.618	197.788	367.061	409.886	457.183	460.695	359.136	205.154	449.817	372.262	494.318	437.404	243.070	180.496	0.001042	0.00081502	0.00023948	654.58	9.6417e-06	8.9866e-06	707.61	277.92	1.1316e-05	1.0688e-05	324.69	142.36	122.55	56.753	4.6713e-06	69.206	0.0015171	0.0015773	0.0004101	751.83	1.7023e-05	1.7201e-05	804.54	309.92	1.7205e-05	1.7005e-05	375.6	156.65	149.7	61.968	1.6061e-05	75.632	522.245	311.532	383.826	180.150	246.081	381.890	178.751	185.270	249.735	359.842	182.964	186.918	188.046	194.954	318.659	191.091	-8191	255	
5906.638	1	1	0	0	0.16949	0.10129	0.2167	0.16431	0.20633	0.25335	0.10407	0.15709	0.30418	0.0972	0.14446	0.12976	0.047288	0.26366	0.18042	0.027266	-2.8042	-3.0042	-2.7917	-3.3292	-2.8271	-3.0312	-3.3688	-2.8292	-3.1417	-3.0938	-2.9333	-3.3792	-3.1021	-2.9396	-3.2188	-2.9146	239.967	246.623	251.790	408.431	391.680	351.016	207.342	378.765	402.577	232.425	492.834	192.331	507.535	439.288	478.141	282.987	0.00098697	0.00070731	0.00025459	655.15	5.5281e-06	1.5819e-05	710.4	280.21	4.8138e-06	1.1398e-05	325.04	143.52	121.99	57.01	1.0593e-05	69.594	0.0015893	0.0015661	0.00041121	758.6	1.7892e-05	1.7063e-05	808.45	313.01	1.7862e-05	1.693e-05	377.33	158.58	151.26	62.154	1.5907e-05	76.212	515.221	318.997	243.416	180.231	196.108	351.581	178.688	185.003	228.194	383.425	182.888	186.624	188.547	194.978	333.763	191.048	-8191	255	
5906.734	1	1	0	0	0.16515	0.12382	0.085593	0.16401	0.18222	0.11726	0.12854	0.21546	0.17996	0.026577	0.18717	0.044523	0.10249	0.29965	0.14507	0.13754	-2.65	-2.9396	-2.8229	-3.1771	-2.9208	-2.9896	-3.1813	-2.8896	-3.1208	-3.05	-3.0167	-3.2208	-2.6937	-3.1146	-3.1625	-2.8708	367.601	220.691	187.799	521.495	270.813	327.397	455.263	185.404	460.521	243.722	358.046	206.166	474.140	476.317	301.058	438.344	0.00086424	0.0007743	9.5334e-05	652.35	1.8259e-06	1.2069e-05	712.06	279.34	5.1461e-06	1.3796e-05	325.31	142.5	122.84	56.692	7.4395e-07	69.056	0.0016291	0.0015393	0.00040647	765.32	1.7979e-05	1.6882e-05	805.22	315.83	1.7953e-05	1.6745e-05	375.6	158.89	150.71	61.843	1.5757e-05	76.155	524.851	300.781	460.280	180.277	296.009	383.576	178.925	185.063	290.972	340.247	182.626	186.913	188.330	194.847	248.006	191.233	-8191	255	
5906.831	1	1	0	0	0.1276	0.13221	0.089856	0.30016	0.25381	0.14986	0.031391	0.12572	0.21851	0.25558	0.22542	0.19227	0.15173	0.070342	0.29779	0.267	-2.6042	-3.0792	-2.7625	-3.125	-2.7125	-2.8208	-3.3771	-2.9417	-3.0625	-3.0667	-2.7479	-3.2292	-2.9708	-2.9458	-3.0458	-2.9729	268.480	231.168	290.308	453.551	493.212	330.249	337.135	426.342	477.754	389.640	320.141	374.641	521.539	185.143	328.645	458.255	0.00088568	0.00061269	0.00041669	655.15	4.8257e-06	2.6312e-05	712.42	279.13	1.3182e-05	7.0156e-06	325.4	141.66	123.32	56.729	7.4039e-06	68.891	0.0015765	0.0014846	0.00039863	769.68	1.7289e-05	1.6227e-05	803.3	316.15	1.732e-05	1.6396e-05	375.46	159.17	150.37	61.752	1.6268e-05	76.487	516.391	518.127	213.960	180.251	297.690	322.625	178.496	184.940	304.168	330.133	182.497	186.950	188.510	194.912	308.608	191.176	-8191	255	
5906.927	1	1	0	0	0.22543	0.35527	0.22385	0.15815	0.044428	0.15138	0.24174	0.083221	0.16495	0.11181	0.23803	0.055435	0.10943	0.1706	0.12734	0.29116	-2.6771	-3.2062	-2.7208	-3.1	-3.0917	-2.6937	-3.2229	-3.05	-3.1083	-3.3375	-2.9042	-3.2792	-3.0229	-2.9062	-3.1667	-2.9896	385.704	474.206	432.102	171.829	362.690	262.937	523.681	396.387	435.868	242.592	183.217	250.393	337.593	479.838	255.212	499.686	0.00097738	0.00071773	0.0003035	652.77	7.4123e-06	2.6782e-06	710.17	280.97	3.4049e-06	5.059e-06	325.53	142.36	121.68	56.765	2.5327e-06	69.136	0.001554	0.0014833	0.00041289	774.82	1.6922e-05	1.6082e-05	808.58	317.82	1.6823e-05	1.5931e-05	378.3	159.61	148.42	61.615	1.6852e-05	76.497	525.214	190.857	239.543	180.010	225.260	376.365	178.769	185.120	352.187	296.341	182.704	186.966	188.042	195.000	426.933	191.357	-8191	255	
5907.023	1	1	0	0	0.13925	0.07635	0.15793	0.069966	0.14409	0.30104	0.075182	0.22781	0.18508	0.28583	0.20371	0.2113	0.14166	0.15502	0.097313	0.16399	-2.5542	-3.0875	-2.8271	-3.1667	-3.0354	-2.8229	-3.2896	-2.8771	-2.9188	-3.2812	-2.8417	-3.1063	-3.0833	-2.9938	-3.1188	-3.05	414.955	498.002	412.886	168.332	428.689	360.791	171.029	486.474	443.957	377.192	426.377	502.370	510.669	509.171	352.547	368.897	0.0010319	0.00091286	0.00039974	655.37	4.9323e-06	4.0181e-06	716.46	280.05	3.6029e-06	9.3387e-06	326.63	142.82	121.69	56.739	1.2491e-05	69.371	0.0015166	0.0014542	0.0004329	772.12	1.6805e-05	1.6011e-05	818.65	317.42	1.6779e-05	1.6057e-05	383.43	160.04	148.52	61.666	1.777e-05	76.774	512.975	477.546	496.511	180.356	423.097	183.676	178.602	185.071	362.822	336.103	182.614	187.141	188.243	194.828	298.062	191.163	-8191	255	
5907.119	1	1	0	0	0.25553	0.1529	0.10773	0.13288	0.16942	0.2037	0.17227	0.15863	0.18797	0.1302	0.037976	0.035251	0.037324	0.17729	0.23452	0.13651	-2.5667	-3.1271	-2.9042	-3.2042	-3.15	-2.8208	-3.1792	-2.9167	-2.8958	-3.2125	-3.0208	-3.1813	-3.0917	-2.975	-3.0417	-3.1208	378.263	371.059	473.957	239.656	444.654	268.818	278.050	440.707	377.818	491.767	299.915	217.720	362.778	450.310	220.253	246.197	0.00075322	0.00046132	0.00027196	652.01	1.2749e-05	3.4506e-06	717.16	279.7	1.0822e-05	8.1164e-06	328.04	142.35	122.1	56.476	3.565e-06	69.364	0.0014881	0.0014493	0.00044923	767.5	1.6124e-05	1.58e-05	821.11	315.3	1.6152e-05	1.6099e-05	385.83	159.33	147.89	61.795	1.8253e-05	76.478	525.311	334.377	296.327	180.397	274.384	455.614	178.760	185.067	338.091	318.308	182.635	187.012	188.119	194.912	285.210	191.253	-8191	255	
5907.238	1	1	0	0	0.092304	0.15974	0.089977	0.35074	0.19278	0.096227	0.11946	0.089557	0.14216	0.31546	0.097888	0.33203	0.086922	0.20886	0.2295	0.34798	-2.3792	-3.1688	-2.8187	-3.0563	-3.0208	-2.7812	-3.0563	-3.1333	-2.8292	-3.0875	-2.7521	-2.9833	-3.0542	-3.0458	-3.0708	-3.1396	423.684	187.138	483.328	512.939	204.894	464.370	379.998	457.340	219.906	526.065	474.108	440.412	429.193	494.583	342.105	512.810	0.00095047	0.00043001	0.00019306	652.23	3.9198e-06	6.6814e-06	715.02	279.44	7.365e-06	7.7555e-06	326.55	141.63	122.29	56.508	5.0691e-06	69.14	0.0014826	0.0015221	0.00046393	765.79	1.6148e-05	1.6684e-05	822.06	314.19	1.5751e-05	1.6645e-05	382.61	157.84	146.37	61.729	1.7607e-05	75.615	519.437	261.869	428.603	180.437	216.583	367.297	178.894	185.043	291.020	283.608	182.947	186.723	188.231	194.543	326.959	191.245	-8191	255	
5907.334	1	1	0	0	0.24254	0.14893	0.095646	0.096427	0.20231	0.1481	0.10199	0.047012	0.20034	0.22542	0.17381	0.17265	0.074923	0.17692	0.10832	0.30417	-2.2167	-3.0854	-2.8917	-2.9521	-3.2438	-2.7396	-3.1771	-3.075	-2.8208	-3.1	-3.0896	-3.1167	-3.2042	-2.9917	-3.0812	-3.2438	168.351	253.535	312.878	247.272	516.151	221.351	400.490	277.771	487.492	321.453	190.618	407.532	193.715	471.199	322.901	416.939	0.00094432	0.00047986	0.00027702	651.16	3.4782e-06	9.927e-06	714.14	280.38	8.9776e-06	9.5633e-06	326.34	142.66	122.24	56.784	3.0988e-06	69.264	0.0014367	0.00157	0.00045232	762.75	1.5949e-05	1.7509e-05	817.82	314.18	1.5818e-05	1.7532e-05	382.14	157.76	146.14	62.084	1.7174e-05	75.728	169.015	245.232	295.552	180.304	383.160	247.038	178.931	184.717	261.572	257.616	183.190	186.643	188.087	195.087	178.095	191.177	-8191	255	
5907.430	1	1	0	0	0.019193	0.23113	0.05861	0.063195	0.17267	0.19879	0.39583	0.083955	0.11308	0.11162	0.13803	0.15861	0.2169	0.30227	0.18394	0.14017	-2.4375	-3.0687	-2.9125	-3.0104	-3.1604	-3.05	-3.1417	-3.3792	-2.9688	-3.1188	-3.1063	-2.9792	-3.1354	-2.9958	-3.0854	-3.2521	272.762	443.710	353.901	343.536	378.795	405.298	496.011	372.106	273.275	421.618	466.506	193.931	458.668	526.371	169.377	199.903	0.00082694	0.00030998	9.1865e-05	653	1.1706e-05	8.1663e-06	714.74	279.88	5.1695e-06	6.1723e-07	327.33	142.89	122.61	56.903	1.9131e-06	69.678	0.0014297	0.0016073	0.00043226	759.41	1.592e-05	1.7742e-05	816.53	313.43	1.6113e-05	1.7908e-05	381.92	158.05	147.83	62.414	1.6862e-05	75.987	523.592	500.393	394.657	180.237	201.544	241.745	178.896	185.264	271.062	517.469	183.067	186.664	187.692	194.865	361.253	191.145	-8191	255	
5907.526	1	1	0	0	0.13681	0.12343	0.19221	0.31389	0.097757	0.10617	0.2375	0.24922	0.33106	0.31238	0.11017	0.091694	0.06488	0.20893	0.14899	0.22077	-2.5333	-2.9729	-3.1125	-3.0021	-3.1	-2.8771	-2.9833	-3.2	-2.8937	-3.1292	-3.2583	-2.975	-3.2521	-3.0229	-2.95	-3.4771	417.291	269.905	351.837	181.370	437.502	169.528	470.123	397.656	260.837	259.914	175.114	417.857	287.731	520.699	272.676	488.358	0.00097696	0.00081597	0.00013092	651.36	8.5746e-06	7.647e-06	719.92	280.53	7.4374e-07	7.3387e-06	330	144.97	122.6	56.996	4.8092e-06	69.918	0.0014909	0.0016363	0.00042637	758.25	1.6784e-05	1.795e-05	818.79	313.56	1.702e-05	1.7991e-05	383.6	159.05	150.07	62.655	1.671e-05	76.465	518.735	192.350	306.153	180.496	225.793	326.637	178.682	184.928	383.641	452.104	183.000	187.040	188.538	194.974	435.948	191.219	-8191	255	
5907.647	1	1	0	0	0.27844	0.042254	0.12079	0.14244	0.012434	0.14204	0.1502	0.16497	0.10822	0.17848	0.21446	0.28859	0.18802	0.12973	0.083785	0.37121	-2.4083	-2.925	-3.1	-2.9646	-3.1208	-2.8583	-2.9896	-3.2438	-2.8063	-3.0271	-3.2417	-2.9	-3.1312	-3.0521	-2.9333	-3.1771	502.604	256.027	435.022	282.917	505.370	347.740	234.675	172.602	266.104	273.608	451.163	512.266	398.879	187.451	373.359	408.323	0.0011521	0.00064212	0.00025095	659.02	3.4854e-06	7.5888e-06	721.04	280.54	1.5786e-05	3.1884e-06	329.96	144.88	123.24	57.194	1.5572e-06	70.384	0.001572	0.0016199	0.00042554	761.17	1.7612e-05	1.7675e-05	820.43	314.05	1.7679e-05	1.746e-05	382.44	159.61	151.63	62.533	1.6341e-05	76.875	517.769	254.415	352.187	180.387	254.426	470.529	178.668	184.835	239.241	443.179	183.065	186.870	188.567	194.741	384.790	191.108	-8191	255	
5907.719	1	1	0	0	0.047185	0.22873	0.099323	0.039617	0.26841	0.027031	0.16382	0.11548	0.1309	0.17958	0.18665	0.23853	0.31545	0.27662	0.12768	0.26105	-2.3146	-2.975	-3.0854	-2.9729	-3.0271	-3.0021	-3.0375	-3.1333	-2.9875	-2.9813	-3.425	-2.8708	-3.1167	-3.0229	-2.8458	-3.2708	469.794	502.455	480.768	503.003	420.798	222.157	376.348	362.835	396.576	451.667	405.842	456.461	509.167	510.469	213.936	505.193	0.0010892	0.00088006	0.00010202	654.74	1.8567e-06	9.7001e-06	715.77	280.69	3.4151e-06	8.6832e-06	331.03	143.69	122.24	56.878	5.3941e-06	70.061	0.0016081	0.0015731	0.00041197	760.14	1.7963e-05	1.7123e-05	814.03	314.64	1.7992e-05	1.7031e-05	380.38	159.34	151.56	62.212	1.6045e-05	76.552	514.617	309.870	386.849	180.099	217.519	342.309	178.747	184.977	277.475	460.188	182.652	186.955	188.190	194.801	297.845	191.098	-8191	255	
5907.815	1	1	0	0	0.29812	0.20444	0.24545	0.12068	0.015065	0.10954	0.28266	0.23635	0.035351	0.19453	0.24818	0.2734	0.25129	0.30585	0.2204	0.35301	-2.4271	-3.1375	-3.1375	-2.9604	-3.0208	-3.1188	-2.9062	-3.1354	-2.9521	-2.8833	-3.1708	-2.8625	-3.0333	-3.1875	-2.7	-3.125	435.220	462.992	401.026	253.507	475.156	524.464	473.813	414.870	350.906	502.035	167.760	495.991	430.193	448.800	307.507	450.936	0.00082134	0.00085868	0.00031559	653.59	8.4745e-06	9.1756e-06	715.42	280.69	3.2413e-06	5.923e-06	329.59	143.3	122.96	57.145	9.1479e-06	70.193	0.0016055	0.0015362	0.00040492	764.55	1.7761e-05	1.6775e-05	810.65	316.94	1.7743e-05	1.6736e-05	380.44	160.56	151.31	62.31	1.5982e-05	77.325	526.649	346.374	317.818	180.127	252.100	281.408	178.765	185.015	416.376	250.393	182.972	186.661	188.555	194.953	277.490	191.203	-8191	255	
5907.911	1	1	0	0	0.11735	0.19838	0.061843	0.15781	0.090629	0.13962	0.436	0.077562	0.24428	0.10622	0.13635	0.29908	0.21854	0.23359	0.01489	0.15323	-2.6292	-2.8229	-2.9646	-2.7438	-2.9	-3.1021	-2.7979	-3.2125	-2.8812	-2.8854	-3.1104	-2.8396	-2.9688	-3.2188	-2.8187	-3.1813	408.533	179.367	230.277	485.428	213.683	320.748	449.793	171.837	229.122	387.450	249.513	261.232	212.355	472.531	213.785	481.175	0.0010164	0.00041462	0.00014811	656.53	5.8639e-06	5.6356e-06	720.13	282.23	7.778e-06	1.0568e-05	332.85	144.69	123.06	57.148	1.1244e-05	70.675	0.0016014	0.0015166	0.00040777	772.98	1.7661e-05	1.6752e-05	816.61	319.68	1.7688e-05	1.6741e-05	383.6	162.32	151.07	62.425	1.6614e-05	78.262	522.064	424.068	203.356	180.568	262.289	285.131	179.016	184.692	278.237	365.438	182.814	186.954	188.160	195.013	314.026	191.144	-8191	255	
5908.032	1	1	0	0	0.12642	0.24841	0.25516	0.18783	0.1945	0.11127	0.2809	0.19421	0.12716	0.24094	0.20049	0.093618	0.083415	0.22469	0.20542	0.13335	-2.6417	-2.7	-3.0479	-2.9542	-2.95	-3.1354	-2.9708	-3.2333	-2.8667	-2.7729	-3.3208	-2.8208	-2.8937	-3.15	-2.7146	-3.2646	270.762	513.313	218.368	461.793	515.430	183.955	444.678	410.247	511.371	253.479	478.370	461.308	397.095	466.967	383.898	424.147	0.00095129	0.0012746	5.2718e-05	657.38	5.5171e-06	1.9838e-06	720.33	281.51	4.1099e-06	7.7553e-06	332.63	144.85	122.63	57.455	7.4788e-06	70.928	0.0015821	0.0015148	0.00042341	778.12	1.7286e-05	1.6499e-05	821.36	320.28	1.7289e-05	1.6386e-05	386.91	162.65	150.29	62.498	1.7351e-05	78.472	168.730	271.705	524.349	180.077	351.618	436.771	178.887	185.264	339.747	257.503	183.010	186.834	188.346	194.820	271.544	191.413	-8191	255	
5908.126	1	1	0	0	0.065586	0.30716	0.076642	0.14853	0.15277	0.1595	0.069377	0.26616	0.14529	0.24586	0.19061	0.18508	0.21274	0.11135	0.064522	0.32102	-2.6042	-2.575	-3.1792	-2.8042	-2.9021	-3.0542	-2.7958	-3.1688	-3.1146	-2.6625	-3.3333	-3.0062	-2.8896	-3.3604	-2.7562	-3.1979	233.227	368.409	227.647	242.587	279.237	357.946	260.078	189.596	354.231	465.188	436.011	512.832	202.926	425.438	305.521	423.622	0.00085397	0.0004084	0.00046377	654.82	1.105e-05	1.6561e-05	725.11	283.21	1.3962e-05	1.4103e-06	334.35	145.28	122.68	57.558	1.237e-05	71.043	0.0015481	0.0014964	0.00044822	778.57	1.7172e-05	1.6336e-05	831.92	320.6	1.7024e-05	1.6274e-05	391.13	162.87	149.87	62.576	1.8065e-05	78.219	521.243	272.665	210.538	180.364	260.789	323.109	178.746	185.108	314.752	240.149	182.862	186.970	188.182	194.912	296.581	191.110	-8191	255	
5908.222	1	1	0	0	0.087906	0.17889	0.075873	0.068686	0.030294	0.15073	0.10357	0.17378	0.25474	0.14489	0.0049409	0.014346	0.069221	0.3341	0.12737	0.21176	-2.6271	-2.8667	-3.0979	-3.0125	-2.8146	-3.3479	-2.8917	-3.125	-3.0896	-2.8646	-3.2104	-3.0521	-2.8688	-3.0771	-2.8875	-3.0917	229.457	403.996	462.070	454.053	384.512	189.128	485.677	299.403	172.610	352.591	460.208	277.446	195.051	512.576	284.738	177.996	0.001076	0.00095277	0.00043471	652.23	4.179e-06	9.5806e-06	721.68	282.52	4.6126e-06	5.2252e-06	330.22	145.8	123	57.354	6.698e-06	70.51	0.0015302	0.0014994	0.00046291	773.05	1.6806e-05	1.6594e-05	831.82	318.7	1.6728e-05	1.6654e-05	390.58	161.7	148.67	62.573	1.8168e-05	77.547	512.880	213.868	174.851	180.327	339.349	302.642	178.563	185.200	415.799	297.325	182.713	186.757	188.463	194.903	346.142	191.115	-8191	255	
5908.320	1	1	0	0	0.23628	0.23865	0.23625	0.29304	0.1071	0.086216	0.18148	0.2023	0.25014	0.28286	0.13996	0.41386	0.27323	0.28614	0.27592	0.18433	-2.6437	-2.8438	-3.1167	-2.9854	-2.85	-3.1063	-3.0583	-2.9771	-3.1396	-2.7354	-3.1188	-3.0646	-2.8229	-3.2521	-2.8292	-3.0292	267.320	489.329	175.864	520.033	246.913	218.553	488.147	461.433	200.537	495.906	426.720	181.653	213.749	456.216	374.455	480.488	0.00094414	0.00023499	0.00030334	652.04	1.0874e-05	3.4955e-06	724.74	282.36	5.3139e-06	8.5483e-06	335.11	146.38	124.56	57.649	7.2925e-06	71.361	0.001477	0.0015315	0.00046281	768.59	1.6354e-05	1.7017e-05	833.19	318.44	1.6394e-05	1.7316e-05	393.78	162.88	149.84	63.391	1.8319e-05	78.535	170.286	290.042	411.618	180.262	289.734	294.394	178.851	184.970	306.885	281.888	182.874	186.770	188.435	194.793	435.028	191.236	-8191	255	
5908.414	1	1	0	0	0.14822	0.24929	0.077978	0.29862	0.32054	0.052204	0.19856	0.17236	0.16392	0.17791	0.3482	0.3468	0.21607	0.22356	0.33443	0.15471	-2.7167	-2.7458	-3.0125	-3.0042	-2.8646	-3.3	-2.9729	-3.0229	-3.1417	-2.8729	-3.1875	-3.0521	-2.7667	-3.2542	-3.125	-3.1396	243.234	169.319	379.655	419.219	287.487	179.064	523.846	443.756	218.299	489.703	213.796	466.553	494.957	492.006	420.059	447.087	0.0010525	0.00070705	0.00025164	659.13	7.464e-06	2.885e-06	728.95	282.06	8.2334e-06	9.7695e-06	334.76	145.78	122.73	58.091	5.938e-06	72.149	0.0014909	0.0016342	0.00046514	773.01	1.6362e-05	1.8031e-05	836.7	318.56	1.6359e-05	1.8057e-05	392.75	162.24	149.19	63.677	1.7781e-05	78.758	168.058	175.064	311.500	180.309	233.200	175.661	178.662	185.060	320.947	289.121	183.064	186.992	188.291	194.968	302.338	191.218	-8191	255	
5908.511	1	1	0	0	0.11087	0.043545	0.17004	0.30052	0.24926	0.31054	0.18742	0.32078	0.089246	0.2224	0.031507	0.3665	0.3468	0.33052	0.11385	0.13011	-2.6771	-2.7333	-2.9313	-3	-2.7583	-3.1854	-2.9667	-2.9125	-3.2729	-2.9646	-3.1458	-3.2792	-2.9	-3.2625	-3.1042	-2.9792	317.178	444.553	433.247	167.039	391.796	214.831	432.753	414.876	390.094	175.172	516.292	498.816	423.134	171.958	466.171	181.536	0.001269	0.00059077	0.00041685	663.26	6.8325e-06	9.3985e-06	741.95	288.2	1.4556e-05	7.5316e-06	341.85	149.92	125.1	59.197	5.5363e-06	73.717	0.0015024	0.0016948	0.00045933	777.09	1.7164e-05	1.918e-05	850.53	324.56	1.7971e-05	1.9888e-05	404.13	167.51	155.59	65.661	1.9313e-05	81.364	525.857	179.775	335.049	180.369	338.518	236.117	178.840	184.856	224.673	204.743	183.008	186.819	188.149	194.832	399.825	190.975	-8191	255	
5908.607	1	1	0	0	0.25174	0.20142	0.087746	0.18271	0.2492	0.12198	0.31468	0.098341	0.2638	0.10562	0.19465	0.10416	0.19849	0.12872	0.19041	0.16355	-2.8563	-2.9688	-3.0542	-3.3583	-2.6813	-3.2083	-3.05	-2.8271	-3.1271	-2.8583	-3.0938	-3.175	-2.7708	-3.2333	-3.0062	-2.9396	448.497	405.312	281.629	519.293	359.879	517.873	509.878	460.844	271.922	396.912	184.607	422.982	423.986	392.793	245.444	499.036	0.0012242	0.00072826	0.00014616	671	1.1411e-05	8.8863e-06	747.19	289.28	1.5824e-05	8.1443e-06	343.23	149.27	124.62	58.841	4.6806e-06	73.503	0.0017164	0.0018588	0.000487	791.69	1.9082e-05	2.0249e-05	860.52	327	1.9265e-05	2.0295e-05	406.9	167.14	158.11	65.354	1.9504e-05	80.9	505.769	409.915	331.273	180.176	192.355	225.955	178.698	185.032	207.000	462.129	182.770	186.744	187.969	194.932	400.255	191.152	-8191	255	
5908.727	1	1	0	0	0.20645	0.070923	0.13043	0.17756	0.11948	0.20073	0.17822	0.2952	0.14584	0.16373	0.2662	0.32714	0.14533	0.36996	0.14574	0.077998	-2.5354	-3.0292	-2.9396	-3.2604	-2.9729	-3.0167	-3.0708	-2.8354	-3.0771	-2.9479	-2.8708	-3.1896	-3.1312	-3.1208	-3.2062	-3.1208	273.791	194.262	478.535	393.801	462.940	280.613	376.933	489.853	332.280	195.120	415.279	192.945	513.748	425.470	194.345	470.440	0.00098074	0.00059365	0.00017843	670.04	9.305e-06	2.0793e-05	743.4	289.1	3.0519e-06	7.0448e-06	339.47	147.27	123.86	58.26	9.2745e-07	72.28	0.0018448	0.001895	0.0005025	797.35	2.1279e-05	2.1496e-05	864.75	329.57	2.1978e-05	2.1726e-05	408.19	167.77	162.68	65.26	2.0667e-05	80.836	518.608	371.714	173.132	180.217	170.166	345.082	178.715	184.846	214.603	427.020	182.482	186.217	188.128	194.734	365.939	190.957	-8191	255	
5908.824	1	1	0	0	0.078171	0.13916	0.31674	0.18584	0.33963	0.22793	0.023449	0.17437	0.23766	0.17581	0.18087	0.11075	0.27005	0.28451	0.11845	0.097367	-2.8396	-3.0812	-2.9667	-3.3312	-2.925	-3.1104	-3.1917	-2.9354	-3.1292	-3.1	-3.1	-3.2021	-2.9771	-3.2	-3.2396	-3.0312	342.562	235.725	323.443	207.253	394.365	468.484	454.103	493.170	499.082	416.156	454.734	372.396	463.766	460.751	479.772	216.324	0.00095458	0.00032352	0.00055264	668.68	7.2274e-06	1.9568e-05	738.73	287.12	1.9971e-06	1.9719e-05	340.9	148.11	123.71	58.514	1.5989e-05	72.929	0.0020419	0.0019984	0.00052511	808.48	2.2798e-05	2.1891e-05	867.34	332.28	2.2995e-05	2.183e-05	408.91	169.62	164.48	65.361	2.0758e-05	81.982	517.638	372.039	252.029	180.219	215.852	359.634	178.916	184.690	484.562	320.526	182.742	186.531	188.481	194.793	298.187	190.935	-8191	255	
5908.920	1	1	0	0	0.051145	0.15934	0.2596	0.192	0.23697	0.072706	0.13786	0.25811	0.098634	0.15355	0.10823	0.24018	0.10999	0.098702	0.23831	0.13479	-2.6896	-2.9104	-2.7979	-3.1583	-2.8708	-3.0042	-3.2875	-3.0083	-3.0875	-3	-2.9458	-3.2583	-2.8604	-2.9771	-3.1479	-3.1312	306.242	453.867	376.907	526.398	501.216	269.856	400.268	224.974	521.344	401.936	332.636	483.372	482.625	359.539	342.775	509.221	0.0010619	0.00059471	0.00014738	673.93	6.5386e-06	3.522e-06	745.83	290.08	1.2425e-05	1.0522e-05	343	148.89	124.4	58.327	1.7253e-06	73.037	0.0020913	0.0019948	0.00052633	821.64	2.301e-05	2.1499e-05	867.56	336.63	2.2684e-05	2.1252e-05	408.9	171.01	162.35	65.062	1.9815e-05	82.414	523.694	242.179	228.468	180.250	171.343	349.994	178.670	184.599	308.808	414.329	182.558	186.295	188.284	194.735	357.716	190.907	-8191	255	
5909.016	1	1	0	0	0.10874	0.12911	0.044567	0.15958	0.05634	0.24919	0.097035	0.058128	0.12383	0.043931	0.11434	0.088217	0.14136	0.32704	0.0040133	0.21774	-2.6771	-3.0375	-2.7667	-3.1479	-2.9271	-2.8958	-3.1542	-2.8958	-2.8063	-2.9562	-2.9375	-3.3542	-3.0292	-3.0646	-3.0333	-2.8833	284.133	461.085	342.851	467.917	409.071	293.325	220.565	424.208	203.859	390.177	343.843	371.068	469.101	168.587	507.105	188.958	0.0010647	0.0011535	0.00018712	677.42	7.8915e-06	1.5989e-06	749.62	290.25	1.6905e-05	4.7262e-06	345.71	150.76	124.68	58.849	4.0821e-06	73.239	0.0019508	0.0018768	0.00050497	826.34	2.1862e-05	2.0734e-05	873.69	340	2.1971e-05	2.0952e-05	413.87	173.42	162.39	65.295	2.049e-05	83.075	521.878	335.053	261.271	180.068	373.726	397.375	178.675	184.764	353.293	279.485	182.367	186.687	188.546	194.628	286.526	190.958	-8191	255	
5909.112	1	1	0	0	0.059757	0.15073	0.15463	0.031715	0.14731	0.31434	0.07302	0.13882	0.16082	0.27146	0.16526	0.2364	0.093723	0.34533	0.16796	0.29957	-2.4625	-3.1146	-2.7292	-3.0896	-2.7396	-2.8146	-3.3125	-2.9062	-3.1125	-3.2917	-2.975	-3.1146	-3.1229	-2.9292	-3.1021	-2.9396	488.857	216.872	304.165	232.455	200.682	290.384	216.462	168.168	331.017	486.258	508.642	432.845	361.073	194.044	416.853	508.929	0.00096422	0.00092659	0.00028685	677.27	1.0483e-05	1.5225e-06	754.65	291.95	1.4677e-05	8.7307e-06	345.48	151.17	125.44	58.906	1.2002e-05	73.102	0.0019087	0.0018288	0.00051609	825.67	2.074e-05	1.9655e-05	874.59	338.57	2.0307e-05	1.9155e-05	411.45	171.78	158.5	64.834	2.0233e-05	82.222	167.119	246.367	211.092	180.390	200.950	507.124	178.565	184.844	281.872	309.707	182.651	186.581	187.755	194.664	234.581	191.005	-8191	255	
5909.206	1	1	0	0	0.31449	0.20057	0.073563	0.11584	0.23238	0.035753	0.13129	0.23354	0.14325	0.19989	0.072309	0.057117	0.058163	0.27262	0.28356	0.26316	-2.4688	-3.1292	-2.8396	-3.0812	-3.1854	-2.8167	-3.2188	-2.975	-2.8917	-3.1167	-3.0687	-3.0979	-3.0438	-2.9229	-3.2083	-3.1042	464.517	425.098	523.760	246.512	351.315	501.203	224.300	507.158	523.791	171.200	516.179	355.773	196.026	526.164	168.124	508.739	0.0009532	0.00027381	0.00030402	677.08	7.109e-06	9.3594e-06	751.91	291.57	1.3973e-05	6.3179e-06	344.29	149.76	125.24	58.742	1.2075e-05	72.592	0.0017912	0.0017216	0.0005192	818.6	1.9594e-05	1.8702e-05	873.45	334.93	1.9204e-05	1.8301e-05	410.37	169.09	155.76	64.225	1.9672e-05	80.616	170.051	402.484	187.533	180.258	304.703	379.064	178.603	184.373	355.983	233.986	182.633	186.361	187.892	194.624	266.305	190.759	-8191	255	
5909.327	1	1	0	0	0.095255	0.1462	0.093147	0.097232	0.085269	0.10457	0.18141	0.017474	0.23951	0.25958	0.026634	0.18039	0.15038	0.36205	0.11245	0.14796	-2.4833	-3.0646	-2.8208	-3.0312	-3.15	-2.9125	-3.1833	-3.0104	-2.8729	-3.0563	-3.0062	-3.1125	-3.2625	-2.9125	-3.1583	-3.1229	367.231	424.190	366.356	413.355	354.738	333.517	482.000	523.144	203.393	440.915	340.645	170.697	217.191	458.318	184.603	183.683	0.00098775	0.0005847	0.00012104	673.97	6.9293e-06	9.0223e-06	747.54	291.53	5.2435e-06	5.9372e-06	343.69	150.42	124.94	58.753	6.6962e-07	72.952	0.0016511	0.0016159	0.00050515	802.77	1.8116e-05	1.7989e-05	868.23	331.22	1.8046e-05	1.8071e-05	409.6	168.2	154.27	64.44	1.9937e-05	80.57	521.193	322.697	486.985	180.075	370.061	297.079	178.755	184.527	228.683	230.153	182.287	186.464	188.042	194.513	212.522	190.857	-8191	255	
5909.423	1	1	0	0	0.11064	0.19538	0.13266	0.062307	0.20434	0.087143	0.20326	0.15711	0.27225	0.022316	0.36182	0.14908	0.27712	0.32016	0.094435	0.22583	-2.1937	-3.2271	-2.7812	-3.0354	-3.2042	-2.8583	-3.1146	-3.0854	-2.8021	-3.2958	-2.9417	-2.9875	-3.1854	-2.8375	-3.0625	-3.3312	495.999	419.931	485.803	323.713	365.361	381.101	507.265	499.541	217.810	372.404	188.869	232.481	169.303	456.605	351.595	441.493	0.00086934	0.0012959	0.00024986	675.76	1.1659e-05	5.516e-06	748.13	290.71	1.0034e-05	7.0704e-06	343.87	149.53	124.38	58.738	6.5335e-06	72.825	0.0016162	0.0016934	0.00051077	800.4	1.7818e-05	1.8807e-05	870.45	329.65	1.7787e-05	1.8935e-05	409.58	167.56	153.79	64.75	1.9964e-05	80.6	524.915	193.726	175.205	180.338	292.148	242.150	178.786	184.541	284.307	293.080	182.697	186.610	187.817	194.757	353.670	191.184	-8191	255	
5909.519	1	1	0	0	0.28857	0.025511	0.015013	0.22253	0.11495	0.041082	0.13774	0.069233	0.20468	0.29411	0.22101	0.31926	0.19522	0.25993	0.10631	0.1129	-2.4896	-3.225	-2.8521	-2.9604	-3.2062	-2.7167	-3.1437	-3.1958	-2.7875	-3.2854	-2.9729	-2.9021	-3.1688	-3.0625	-3.0042	-3.3563	400.241	246.125	196.834	487.112	268.022	283.648	189.804	256.594	381.080	475.539	506.694	514.221	427.001	480.597	381.770	432.536	0.0011186	0.00073919	0.00010911	674.3	9.9128e-06	1.769e-05	748.74	290.14	3.5328e-07	7.5609e-06	344.02	150.02	125.22	58.833	1.3874e-05	72.805	0.0016078	0.0017861	0.00050709	800.5	1.788e-05	1.9789e-05	867.07	329.11	1.7844e-05	1.9826e-05	407.46	167.54	154.4	65.045	1.9568e-05	80.537	524.781	510.701	249.093	180.336	270.540	218.447	178.791	184.411	182.646	292.493	182.999	186.687	187.831	194.757	323.396	190.987	-8191	255	
5909.591	1	1	0	0	0.069486	0.043084	0.15729	0.27329	0.18328	0.20234	0.11468	0.32126	0.059128	0.16823	0.27908	0.11359	0.25392	0.082294	0.034387	0.14739	-2.3896	-2.9271	-3.0604	-2.8438	-3.2188	-2.8396	-3.2146	-3.2667	-2.8417	-3.0479	-3.1625	-3.0938	-3.325	-3.2854	-2.9	-3.2229	467.407	372.281	238.620	488.432	306.541	367.241	419.493	427.308	415.218	342.169	481.398	405.913	502.772	418.771	186.516	477.836	0.0010438	0.00021432	0.00012995	675.39	3.5308e-07	1.4159e-05	748.35	291.26	8.2272e-06	3.5831e-06	343.88	149.2	124.2	58.393	1.1528e-05	72.06	0.0016394	0.0018483	0.00048893	795.72	1.8101e-05	2.0126e-05	862.99	328.43	1.8426e-05	2.0321e-05	405.59	166.54	154.92	64.799	1.8957e-05	79.434	522.999	496.388	261.735	180.313	280.719	281.338	178.732	184.517	168.915	372.980	182.727	186.537	187.936	194.683	311.653	191.053	-8191	255	
5909.712	1	1	0	0	0.18576	0.18452	0.1292	0.20445	0.19885	0.088432	0.18041	0.12611	0.20897	0.095275	0.29716	0.051953	0.18439	0.10808	0.18752	0.2375	-2.3896	-3.0458	-3.0563	-2.875	-3.1229	-2.8063	-3.2083	-3.2167	-2.7792	-3.0021	-3.1937	-2.9979	-3.1771	-3.1542	-2.9688	-3.2188	358.188	262.725	350.344	446.723	254.653	518.667	471.100	497.902	264.185	439.862	506.523	400.611	186.256	467.840	319.242	407.360	0.0011422	0.00094666	0.00014986	671.79	9.9107e-06	6.6092e-06	741.5	285.92	1.1926e-05	2.0415e-06	340.15	147.27	123.68	57.958	6.9179e-06	70.904	0.001696	0.0018206	0.0004741	787.62	1.8744e-05	1.9762e-05	852.21	323.97	1.8905e-05	1.9524e-05	399.4	163.79	155.56	63.982	1.8319e-05	78.257	517.809	362.522	304.520	180.442	197.197	322.295	178.774	184.541	226.912	168.955	182.519	186.534	187.948	194.707	344.416	190.955	-8191	255	
5909.808	1	1	0	0	0.10861	0.1199	0.18139	0.088263	0.19968	0.30163	0.26961	0.11836	0.033423	0.10786	0.091825	0.24293	0.24824	0.14817	0.15692	0.084621	-2.4583	-2.8896	-2.9458	-2.975	-3.1604	-3.1604	-3.0167	-3.2125	-2.8208	-3.0646	-3.3104	-2.8438	-2.9646	-3.2146	-2.8375	-3.4333	469.788	278.087	321.932	486.957	199.430	217.513	436.194	481.417	409.816	496.879	449.791	523.443	194.901	492.545	452.822	514.875	0.0010407	0.0012381	0.00025865	664.38	5.7421e-06	1.898e-05	737.51	286.2	3.6059e-06	1.4669e-05	337.46	146.47	122.45	57.732	1.0161e-05	71.221	0.0017528	0.0017719	0.00046057	780.42	1.9333e-05	1.9156e-05	844.31	321.78	1.9318e-05	1.8764e-05	393.23	162.73	155.17	63.468	1.7492e-05	77.999	518.330	251.105	299.267	180.122	185.900	328.314	178.697	184.593	501.451	415.351	182.769	186.725	187.823	194.776	393.161	190.890	-8191	255	
5909.904	1	1	0	0	0.09081	0.1685	0.21927	0.25472	0.17831	0.14647	0.24667	0.29152	0.077291	0.2858	0.23692	0.097882	0.34724	0.38541	0.28585	0.20788	-2.4583	-2.775	-2.9125	-2.8146	-3.1917	-2.9396	-3	-3.2875	-2.8542	-3.1271	-3.2062	-2.9521	-3.0125	-3.1813	-2.8063	-3.3125	419.061	298.141	405.093	521.548	395.562	176.663	485.553	397.579	408.088	321.271	168.782	363.830	495.763	425.113	306.628	178.886	0.0010559	0.00018663	0.00014533	665.78	2.0809e-06	5.3728e-06	735.03	287.32	2.9595e-06	6.0757e-06	337.8	147.89	124.4	58.583	4.0876e-06	72.502	0.0017179	0.0016237	0.00042166	772.56	1.7829e-05	1.6418e-05	824.21	317.17	1.6589e-05	1.5487e-05	381.42	161.48	149.21	62.843	1.3575e-05	77.905	523.421	304.451	359.798	179.957	262.564	336.737	178.545	184.421	339.118	415.722	182.658	186.273	187.536	194.584	366.954	190.931	-8191	255	
5910.000	1	1	0	0	0.18104	0.059739	0.033316	0.37703	0.20398	0.13957	0.1832	0.23947	0.22565	0.24404	0.16184	0.35413	0.16742	0.30369	0.11816	0.18897	-2.3396	-2.7646	-3.2042	-2.8438	-3.2062	-2.9562	-2.8604	-3.1896	-2.8812	-2.9229	-3.3667	-2.9646	-3.0479	-3.3375	-2.8042	-3.3771	413.291	419.088	267.377	509.593	404.964	215.555	484.468	462.391	234.859	401.101	453.528	472.571	389.372	178.141	393.198	509.493	0.00086232	0.00084928	0.00021231	671.72	6.3444e-06	1.0169e-05	743.49	290.38	3.9355e-06	7.0313e-06	342.33	152.41	128.11	60.43	3.4396e-06	74.131	0.0013131	0.0012157	0.00031181	751.55	1.3132e-05	1.2023e-05	809.78	314.28	1.2452e-05	1.1698e-05	374.54	162.48	144.91	63.813	1.1594e-05	79.182	525.889	246.262	334.797	180.097	286.335	297.338	178.808	184.529	309.279	309.343	182.676	186.448	188.026	194.426	243.612	190.794	-8191	255	
5910.119	1	1	0	0	0.15593	0.10344	0.063568	0.50934	0.090028	0.10774	0.32849	0.31717	0.14188	0.22046	0.028155	0.2007	0.069606	0.21009	0.14392	0.19024	-2.4792	-2.7771	-3.1167	-2.8063	-3.0396	-3.1958	-2.9604	-3.2938	-2.9708	-2.7125	-3.25	-2.95	-2.9833	-3.1792	-2.7104	-3.2208	243.999	301.299	355.715	488.357	353.631	388.886	406.030	502.496	390.897	503.204	485.067	460.814	320.725	440.697	331.645	420.583	0.0010156	0.00069196	0.00012373	678.09	8.2818e-06	4.0261e-06	748.55	289.32	1.2419e-05	3.0426e-06	340.61	149.11	126.66	59.094	4.2541e-06	73.053	0.0011716	0.0011193	0.0003074	762.33	1.3463e-05	1.2911e-05	821.21	318.89	1.3991e-05	1.3419e-05	380.23	163.3	146.48	63.139	1.3299e-05	78.656	520.774	284.176	224.316	180.089	177.950	256.135	178.520	184.421	284.025	497.522	182.260	186.398	187.849	194.577	308.495	190.796	-8191	255	
5910.192	1	1	0	0	0.057859	0.094118	0.19091	0.15347	0.087952	0.14044	0.10251	0.18733	0.1558	0.15467	0.029682	0.23544	0.14192	0.25819	0.090802	0.35521	-2.5854	-2.9292	-3.1354	-2.8875	-3.0542	-3.1	-2.9917	-3.1896	-2.8688	-2.8833	-3.4104	-3.0292	-2.8208	-3.3979	-2.5771	-3.2729	356.648	217.154	363.789	504.928	336.044	217.125	457.769	491.516	316.557	472.119	457.865	449.256	193.259	466.550	213.666	456.640	0.00099726	0.00069055	0.00044636	672.56	4.2195e-06	4.4857e-06	738.76	286.13	9.6946e-06	1.048e-06	336.58	148.71	124.12	58.441	9.6938e-06	72.584	0.0012332	0.0011827	0.00033728	763.03	1.3563e-05	1.2952e-05	817.2	316.14	1.3967e-05	1.3316e-05	379.9	162.22	145.58	62.742	1.5308e-05	78.881	517.585	292.054	515.004	179.948	329.549	280.176	178.554	184.757	271.822	199.460	182.119	186.337	187.642	194.676	289.663	191.385	-8191	255	
5910.288	1	1	0	0	0.12645	0.16095	0.28181	0.31491	0.48743	0.045373	0.13414	0.083258	0.19574	0.14188	0.22252	0.12755	0.22566	0.35932	0.17975	0.28395	-2.625	-2.7208	-3.2604	-3.0021	-2.9604	-3.2	-3.0604	-3.0104	-3.3542	-2.8812	-3.1729	-3.0729	-2.9792	-3.2542	-2.9083	-3.2	447.610	267.662	361.340	503.081	245.536	299.897	503.856	195.184	515.126	315.016	434.968	269.562	173.501	184.069	419.941	500.807	0.0010261	0.00085194	0.00044443	672.05	4.4041e-06	4.506e-06	739.03	284.87	2.908e-06	6.725e-06	335.22	147.54	124.34	58.19	7.0696e-06	72.264	0.0013714	0.0013146	0.00039771	771.77	1.4952e-05	1.4176e-05	827.59	317.12	1.4531e-05	1.4074e-05	384.09	161.64	145.88	62.536	1.6049e-05	78.609	169.095	228.571	197.424	179.881	273.616	204.984	178.485	184.398	397.338	260.906	182.270	186.452	187.804	194.481	329.710	190.895	-8191	255	
5910.407	1	1	0	0	0.097835	0.24422	0.075781	0.34507	0.29102	0.16828	0.25279	0.22482	0.12709	0.33796	0.056859	0.33507	0.20762	0.23408	0.18196	0.044534	-2.6104	-2.7271	-3.0687	-2.9562	-2.6312	-3.1417	-2.8958	-2.9604	-3.0604	-2.6	-3.2271	-3.1437	-2.7458	-3.2917	-2.8875	-3.125	253.540	245.182	481.491	483.544	219.138	175.525	440.190	423.248	360.471	253.646	221.320	437.992	460.127	505.220	306.150	471.234	0.00095613	0.00097215	0.0002799	664.49	1.1311e-06	8.0557e-06	730.8	284.06	3.1958e-06	8.8249e-06	336.28	147.25	122.44	58.299	1.703e-05	72.551	0.0013541	0.0013421	0.00042155	769.81	1.5388e-05	1.5416e-05	835.75	317.48	1.5452e-05	1.5518e-05	389.97	161.95	145.23	62.917	1.6762e-05	78.895	519.034	283.950	201.413	180.180	276.492	341.265	178.322	184.421	324.759	286.085	182.645	186.646	187.860	194.591	302.163	191.115	-8191	255	
5910.504	1	1	0	0	0.085668	0.041399	0.27013	0.096477	0.15168	0.10596	0.22247	0.13558	0.17253	0.11039	0.44863	0.35434	0.1244	0.27945	0.084582	0.16202	-2.6896	-2.8167	-2.9542	-2.8812	-2.7646	-3.2021	-2.9208	-3.1354	-3.05	-2.825	-3.3479	-3.1521	-2.7042	-3.0938	-3.0687	-3.1229	495.116	509.913	275.449	337.938	331.517	448.126	418.741	388.029	433.773	316.339	456.631	517.528	204.866	494.957	346.908	293.437	0.00093168	0.00086359	0.00026623	666.82	7.8339e-06	1.1585e-05	737.01	284.43	5.9468e-06	2.0943e-06	336.81	147.67	123.16	58.445	8.2371e-06	73.092	0.0013424	0.0014192	0.00042463	770.33	1.4895e-05	1.578e-05	836.94	316.87	1.4736e-05	1.5968e-05	390.06	162.67	145.88	63.57	1.7111e-05	79.257	524.383	184.222	226.537	180.208	194.899	268.860	178.608	184.517	283.021	269.105	182.668	186.524	187.542	194.541	388.620	191.217	-8191	255	
5910.600	1	1	0	0	0.13258	0.17895	0.14414	0.28085	0.12064	0.12456	0.1407	0.13634	0.19024	0.1054	0.12321	0.13242	0.1011	0.18765	0.11934	0.42541	-2.6875	-2.8438	-2.9396	-2.9646	-2.7479	-3.1396	-2.8667	-2.8917	-3.1417	-2.7958	-3.0854	-3.2167	-2.9292	-3.2	-2.8896	-3.0042	346.822	298.177	525.712	452.271	335.559	326.420	440.763	521.856	495.179	252.957	469.691	472.981	379.164	176.860	369.182	444.231	0.0012176	0.00064797	8.5464e-05	667.03	3.4752e-06	7.7727e-06	735.56	286.36	7.5702e-06	4.9167e-06	337.46	147.62	123.62	58.527	9.6065e-06	72.4	0.0013591	0.0014768	0.00040726	762.95	1.4087e-05	1.5331e-05	823.24	313.75	1.3632e-05	1.5282e-05	382.46	160.62	143.83	63.221	1.515e-05	77.983	518.704	489.164	362.499	180.233	295.916	283.397	178.620	184.303	224.999	329.632	182.574	186.479	187.987	194.495	348.604	190.955	-8191	255	
5910.720	1	1	0	0	0.27656	0.21413	0.1563	0.18607	0.24052	0.10524	0.35976	0.32033	0.049065	0.049606	0.1376	0.19895	0.3223	0.28895	0.2378	0.24003	-2.9104	-2.975	-2.8917	-3.1479	-2.7625	-3.1333	-2.9437	-2.7646	-3.0167	-2.8375	-3.025	-3.1562	-2.6729	-3.2687	-3.0792	-2.9313	302.968	341.293	267.754	166.603	225.908	450.663	181.753	449.614	512.437	383.413	512.497	474.745	504.342	457.159	485.746	444.624	0.00097354	0.00033272	0.0001133	666.97	2.6776e-06	9.2292e-06	731.95	284.55	1.4009e-05	7.5832e-06	335.33	146.4	123.33	58.2	7.948e-06	71.454	0.0013118	0.001482	0.00039818	762.78	1.5264e-05	1.6946e-05	827.57	316.14	1.5599e-05	1.6987e-05	384.51	160.26	146.96	63.226	1.5437e-05	77.35	520.673	197.666	347.586	179.734	197.727	250.684	178.710	184.400	221.713	368.187	182.593	186.328	187.516	194.580	241.712	190.790	-8191	255	
5910.816	1	1	0	0	0.15433	0.28603	0.25184	0.011684	0.2818	0.23909	0.11251	0.1967	0.14218	0.077421	0.1178	0.095671	0.19003	0.12126	0.10764	0.095171	-2.7396	-2.9708	-3.025	-3.2812	-2.7146	-3.0708	-3.1646	-2.8792	-3.075	-2.7542	-3.0812	-3.3271	-2.7521	-3.0854	-3.125	-2.8854	351.661	273.860	194.956	263.379	518.234	177.464	185.297	479.126	213.716	456.506	437.712	183.061	492.659	456.435	515.793	169.009	0.0011237	0.00039625	0.00022369	664.18	6.3966e-06	7.5093e-06	728.58	283.38	6.9089e-06	2.316e-06	332.44	147.03	123.85	57.828	6.0475e-06	70.911	0.0013833	0.0014824	0.00038483	757.49	1.5669e-05	1.6624e-05	823.67	315.11	1.6526e-05	1.7243e-05	385.38	160.87	150.49	63.298	1.6645e-05	77.719	518.972	249.463	298.498	180.040	299.630	435.970	178.520	184.580	271.102	402.664	182.605	186.498	187.612	194.568	327.773	190.862	-8191	255	
5910.888	1	1	0	0	0.25695	0.084661	0.1938	0.26873	0.093149	0.17174	0.1291	0.16437	0.12861	0.12981	0.0082541	0.10743	0.1033	0.24177	0.061639	0.15915	-2.8146	-2.8833	-2.8354	-3.2	-2.7938	-3.0812	-3.3438	-2.9042	-3.0208	-2.975	-2.9667	-3.1208	-2.8646	-3.2042	-3.0438	-2.8771	494.589	525.090	420.157	509.110	486.861	343.338	469.675	399.169	241.467	422.250	233.966	498.311	478.693	218.149	430.592	393.166	0.0011897	0.0011484	0.00023735	663.54	3.895e-06	1.5816e-05	724.74	281.02	9.4807e-06	1.0438e-05	329.45	144.02	121.86	56.942	1.9561e-06	70.313	0.0016334	0.0016616	0.00043907	772.5	1.898e-05	1.8628e-05	828.94	316.69	1.9021e-05	1.8337e-05	384.36	160.37	153.59	62.739	1.7522e-05	77.436	510.848	262.227	335.710	179.967	261.886	355.564	178.485	184.394	265.222	388.465	182.532	186.626	188.034	194.560	420.196	191.192	-8191	255	
5911.009	1	1	0	0	0.10338	0.22463	0.19962	0.15512	0.25195	0.17641	0.13546	0.20651	0.037316	0.10109	0.3144	0.26519	0.21021	0.11008	0.13461	0.054521	-2.5938	-2.8167	-2.8104	-3.2146	-2.8604	-3.0625	-3.3083	-2.8875	-3.0625	-3.1167	-2.8333	-3.1667	-2.8083	-2.9562	-3.1875	-2.8167	314.965	174.362	269.745	287.248	524.438	440.624	351.636	495.246	260.661	444.241	454.527	504.707	506.083	381.909	463.508	279.321	0.00098183	0.0010427	0.00018245	654.06	3.6333e-06	5.1693e-06	718.68	277.94	1.0215e-05	7.626e-06	327.18	142.89	121.22	56.185	4.961e-06	69.177	0.0017904	0.0017315	0.00046161	779.18	2.0624e-05	1.9441e-05	826.63	318.23	2.0486e-05	1.909e-05	385.6	161.33	155.23	62.399	1.8345e-05	77.419	516.535	257.843	258.957	180.001	216.909	272.751	178.787	184.598	322.140	369.337	182.560	186.241	187.750	194.477	259.197	190.790	-8191	255	
5911.105	1	1	0	0	0.098844	0.26516	0.16663	0.17949	0.2019	0.064257	0.27953	0.19039	0.1233	0.19457	0.1484	0.19695	0.073597	0.19314	0.13019	0.096285	-2.6104	-3	-2.7958	-3.1667	-2.875	-2.7708	-3.1917	-2.8354	-2.9542	-3.3042	-3.0187	-3.2958	-3.0542	-3.1479	-3.1542	-3.0104	229.643	471.620	260.220	171.054	506.677	395.382	476.555	500.649	329.033	474.801	264.668	261.514	515.340	483.294	445.867	401.364	0.0012502	0.00035834	0.00053992	649.26	1.1355e-06	6.0088e-06	705.25	272.63	6.8722e-06	1.1139e-05	318.44	139.82	118.75	55.375	1.1754e-05	67.775	0.0018881	0.0017854	0.0004687	784.72	2.0794e-05	1.932e-05	814.93	316.19	2.0466e-05	1.9096e-05	378.36	159.91	153.47	61.438	1.857e-05	76.502	169.027	316.793	228.165	180.015	437.949	319.052	178.590	184.439	355.174	336.144	182.860	186.668	188.007	194.659	300.242	190.894	-8191	255	
5911.199	1	1	0	0	0.36205	0.12593	0.20695	0.10016	0.12788	0.030144	0.3071	0.14607	0.10921	0.15029	0.22803	0.28137	0.12215	0.28446	0.16603	0.16218	-2.7042	-3.0521	-2.8792	-3.1167	-2.9958	-2.9854	-3.1729	-2.8979	-2.8833	-2.7958	-2.8792	-3.1625	-3.0542	-3.0208	-3.1125	-2.9625	245.735	469.016	257.805	484.407	456.659	494.953	443.059	478.560	352.555	499.283	471.111	494.556	465.241	501.240	480.812	476.071	0.00077623	0.00034469	0.00018185	647.05	2.928e-06	1.2509e-05	707.3	274.09	7.6053e-06	9.8981e-06	318.7	139.79	119.5	55.332	2.6889e-06	67.686	0.0018367	0.0017259	0.00046309	779.66	1.8882e-05	1.7618e-05	807.38	314.54	1.8119e-05	1.7079e-05	375.32	158.71	149.13	60.841	1.8051e-05	76.05	172.991	231.598	244.550	179.646	278.929	303.909	178.605	184.420	325.721	356.009	182.421	186.629	187.978	194.661	294.906	191.087	-8191	255	
5911.295	1	1	0	0	0.16742	0.22995	0.1738	0.31633	0.061893	0.070391	0.091475	0.11779	0.16092	0.15874	0.26777	0.16845	0.15011	0.4348	0.2436	0.39362	-2.4625	-3.0833	-2.7313	-3.1063	-2.9729	-2.9875	-3.2521	-3.0438	-3.0521	-3.0708	-2.8521	-3.2583	-3.1833	-2.9396	-3.1646	-3.1688	451.492	439.731	282.561	504.102	362.962	373.754	514.905	458.266	177.420	291.883	514.092	406.984	221.424	513.712	480.796	174.417	0.00083332	0.00082727	0.0005861	644.43	1.4904e-06	6.5148e-06	696.95	270.55	6.1158e-06	4.7506e-06	316.73	138.07	117.82	54.876	3.2111e-06	66.964	0.0017239	0.001659	0.00049212	786.91	1.9988e-05	1.9068e-05	816.99	315.02	1.8592e-05	1.7158e-05	377.4	156.94	146.54	60.17	1.8858e-05	75.295	524.091	263.487	174.182	180.261	290.687	437.492	178.481	184.665	295.607	321.429	182.708	186.449	187.809	194.849	177.171	191.461	-8191	255	
5911.416	1	1	0	0	0.10405	0.21908	0.091471	0.12696	0.16473	0.040614	0.21866	0.044182	0.28159	0.23112	0.14125	0.24905	0.12571	0.20562	0.26804	0.33846	-2.6583	-3.1562	-2.8479	-3.1979	-3.0021	-2.9958	-3.2062	-2.9375	-2.8688	-3.075	-2.8333	-2.9958	-3.0333	-2.8729	-3.0521	-2.9042	174.310	519.676	508.436	208.765	383.143	452.831	424.880	390.986	462.453	523.510	192.218	190.825	508.414	207.633	494.247	173.314	0.00075854	0.00073529	0.00011456	643.1	3.7145e-06	6.3486e-06	704.94	271.71	1.9921e-06	3.9441e-06	318.28	139.69	118.83	54.991	3.9491e-06	67.014	0.001653	0.0015727	0.00047533	763.57	1.6674e-05	1.5281e-05	794.67	303.02	1.3525e-05	1.2888e-05	364.41	153.05	139.49	59.274	1.6979e-05	74.011	519.315	262.573	329.985	180.084	213.936	193.403	178.423	184.712	204.966	231.709	182.629	186.704	187.801	194.617	226.587	191.293	-8191	255	
5911.488	1	1	0	0	0.20412	0.14127	0.052752	0.2204	0.090489	0.080696	0.17164	0.10697	0.17831	0.16462	0.044837	0.22758	0.092291	0.16779	0.21848	0.21119	-2.4167	-3.075	-2.6854	-3.0042	-3.1667	-2.7812	-3.25	-3.0771	-2.8833	-3.1958	-2.8354	-3.0604	-3.1	-2.9729	-3.0125	-3.1188	285.041	185.542	175.547	471.966	301.895	358.946	423.609	189.257	292.391	325.155	186.753	386.486	512.460	429.636	323.078	486.463	0.0010733	0.00069395	4.6362e-05	641.4	6.5467e-06	3.9681e-06	695.97	268.48	1.0444e-05	2.7554e-06	321.3	141.29	120.51	57.135	4.23e-06	71.223	0.0015094	0.0015231	0.00047405	753.17	1.561e-05	1.4991e-05	788.68	298.64	1.2772e-05	1.2356e-05	360.03	151.02	133.71	59.886	1.058e-05	74.607	177.252	263.697	453.934	179.809	278.476	278.759	178.662	184.534	252.443	180.903	182.841	186.617	188.247	194.505	268.096	190.935	-8191	255	
5911.584	1	1	0	0	0.1273	0.3194	0.21877	0.15326	0.15105	0.01352	0.036861	0.20533	0.019907	0.06298	0.10291	0.077498	0.066444	0.06556	0.14234	0.29893	-2.2562	-3.05	-3.0292	-2.9896	-3.1729	-2.8917	-3.1417	-2.9229	-2.6771	-3.1083	-2.8688	-2.9521	-3.0833	-2.9458	-3.0375	-3.1125	195.288	282.380	517.045	345.199	412.997	375.387	351.781	488.176	380.268	219.110	487.759	254.609	398.825	202.325	225.829	438.497	0.00092044	0.00090589	1.7276e-05	661.77	6.0957e-06	9.576e-07	724.16	280.01	4.9487e-06	4.4947e-06	322.84	138.7	118.31	54.3	8.5237e-06	65.23	0.00084744	0.00087707	0.00026304	723.36	9.5753e-06	1.0445e-05	786.53	301.51	1.033e-05	1.108e-05	355.98	148.39	132.22	57.616	1.1665e-05	69.267	525.885	173.001	332.760	179.913	227.799	294.534	178.759	184.617	232.662	322.410	182.701	186.642	187.957	194.932	290.408	191.303	-8191	255	
#DATA ENDS
