BOXY.EXE: ISS Imagent and Oximeter Data Acquisition Program Version 0.80
Ascii Record File

#ACQ INFORMATION
2  Detector Channels 
16  External MUX Channels 
1  Auxiliary Channels 
5000  Waveform (CCF) Frequency (Hz)
1  Waveforms Skipped 
30  Waveforms Averaged 
1  Cycles Averaged 
16  Acquisitions per Waveform 
10.0806  Updata Rate (Hz) 

#FILE INFORMATION
TRUE -- External MUX Channel results are PARSED.
FALSE -- AC DC and Phase are NOT grouped.
TRUE -- Companion Program Settings File CREATED.
FALSE -- AC data not excluded
FALSE -- DC data not excluded
FALSE -- Phase data not excluded
FALSE -- Auxillary Chn. data not excluded
Tab delimiters

#CALIBRATION STATE
TRUE -- Waveform Calibration Values APPLIED.


#AUX CALIBRATION VALUES
Val Type	aux-1	

Term	1.0000e+00	
Factor	0.0000e+00	


#WF CALIBRATION VALUES
A = Detector Channel
Val Type	A-AC1	A-AC2	A-AC3	A-AC4	A-AC5	A-AC6	A-AC7	A-AC8	A-AC9	A-AC10	A-AC11	A-AC12	A-AC13	A-AC14	A-AC15	A-AC16	A-DC1	A-DC2	A-DC3	A-DC4	A-DC5	A-DC6	A-DC7	A-DC8	A-DC9	A-DC10	A-DC11	A-DC12	A-DC13	A-DC14	A-DC15	A-DC16	A-Ph1	A-Ph2	A-Ph3	A-Ph4	A-Ph5	A-Ph6	A-Ph7	A-Ph8	A-Ph9	A-Ph10	A-Ph11	A-Ph12	A-Ph13	A-Ph14	A-Ph15	A-Ph16	

Term	0.00000e+00	0.00000e+00	0.00000e+00	0.00000e+00	0.00000e+00	0.00000e+00	0.00000e+00	0.00000e+00	0.00000e+00	0.00000e+00	0.00000e+00	0.00000e+00	0.00000e+00	0.00000e+00	0.00000e+00	0.00000e+00	0.00000e+00	0.00000e+00	0.00000e+00	0.00000e+00	0.00000e+00	0.00000e+00	0.00000e+00	0.00000e+00	0.00000e+00	0.00000e+00	0.00000e+00	0.00000e+00	0.00000e+00	0.00000e+00	0.00000e+00	0.00000e+00	0.00000e+00	0.00000e+00	0.00000e+00	0.00000e+00	0.00000e+00	0.00000e+00	0.00000e+00	0.00000e+00	0.00000e+00	0.00000e+00	0.00000e+00	0.00000e+00	0.00000e+00	0.00000e+00	0.00000e+00	0.00000e+00	
Factor	1.00000e+00	1.00000e+00	1.00000e+00	1.00000e+00	1.00000e+00	1.00000e+00	1.00000e+00	1.00000e+00	1.00000e+00	1.00000e+00	1.00000e+00	1.00000e+00	1.00000e+00	1.00000e+00	1.00000e+00	1.00000e+00	1.00000e+00	1.00000e+00	1.00000e+00	1.00000e+00	1.00000e+00	1.00000e+00	1.00000e+00	1.00000e+00	1.00000e+00	1.00000e+00	1.00000e+00	1.00000e+00	1.00000e+00	1.00000e+00	1.00000e+00	1.00000e+00	X	X	X	X	X	X	X	X	X	X	X	X	X	X	X	X	

B = Detector Channel
Val Type	B-AC1	B-AC2	B-AC3	B-AC4	B-AC5	B-AC6	B-AC7	B-AC8	B-AC9	B-AC10	B-AC11	B-AC12	B-AC13	B-AC14	B-AC15	B-AC16	B-DC1	B-DC2	B-DC3	B-DC4	B-DC5	B-DC6	B-DC7	B-DC8	B-DC9	B-DC10	B-DC11	B-DC12	B-DC13	B-DC14	B-DC15	B-DC16	B-Ph1	B-Ph2	B-Ph3	B-Ph4	B-Ph5	B-Ph6	B-Ph7	B-Ph8	B-Ph9	B-Ph10	B-Ph11	B-Ph12	B-Ph13	B-Ph14	B-Ph15	B-Ph16	

Term	0.00000e+00	0.00000e+00	0.00000e+00	0.00000e+00	0.00000e+00	0.00000e+00	0.00000e+00	0.00000e+00	0.00000e+00	0.00000e+00	0.00000e+00	0.00000e+00	0.00000e+00	0.00000e+00	0.00000e+00	0.00000e+00	0.00000e+00	0.00000e+00	0.00000e+00	0.00000e+00	0.00000e+00	0.00000e+00	0.00000e+00	0.00000e+00	0.00000e+00	0.00000e+00	0.00000e+00	0.00000e+00	0.00000e+00	0.00000e+00	0.00000e+00	0.00000e+00	5.86631e+01	-1.56400e+02	-1.26551e+02	-1.83880e+02	-1.09246e+02	-7.56946e+01	-1.56632e+02	-1.62015e+02	-4.97451e+01	-9.07007e+01	-1.74091e+02	-1.74047e+02	-1.85978e+02	-1.78374e+02	-8.62442e+01	-1.51155e+02	
Factor	5.26311e-05	1.61735e-04	4.04003e-05	1.79766e-01	1.77941e-06	1.50208e-06	1.73528e-01	5.90053e-02	1.98371e-06	1.52351e-06	1.02683e-01	2.97751e-02	5.44086e-02	8.92468e-03	1.82445e-06	1.29180e-02	1.91554e-06	2.01426e-06	5.61593e-07	8.71805e-02	2.19587e-08	2.21199e-08	7.97260e-02	2.86352e-02	2.18545e-08	2.20121e-08	4.81154e-02	1.39628e-02	2.54592e-02	4.34647e-03	2.18729e-08	6.10577e-03	X	X	X	X	X	X	X	X	X	X	X	X	X	X	X	X	



#DISTANCE SETTINGS
A = Detector Channel
A-1	A-2	A-3	A-4	A-5	A-6	A-7	A-8	A-9	A-10	A-11	A-12	A-13	A-14	A-15	A-16	

2.5000e+00	3.0000e+00	2.5000e+00	3.0000e+00	2.0000e+00	3.0000e+00	1.5000e+00	3.0000e+00	3.0000e+00	3.0000e+00	3.0000e+00	3.0000e+00	3.0000e+00	3.0000e+00	1.5000e+00	3.0000e+00	

B = Detector Channel
B-1	B-2	B-3	B-4	B-5	B-6	B-7	B-8	B-9	B-10	B-11	B-12	B-13	B-14	B-15	B-16	

1.0000e+01	1.0000e+01	1.0000e+01	1.4400e+00	1.0000e+01	1.0000e+01	1.5100e+00	1.9400e+00	1.0000e+01	1.0000e+01	1.9900e+00	2.4900e+00	2.4100e+00	2.9000e+00	1.0000e+01	2.9800e+00	




#DATA BEGINS
time	group	step	mark	flag	A-AC1	A-AC2	A-AC3	A-AC4	A-AC5	A-AC6	A-AC7	A-AC8	A-AC9	A-AC10	A-AC11	A-AC12	A-AC13	A-AC14	A-AC15	A-AC16	A-DC1	A-DC2	A-DC3	A-DC4	A-DC5	A-DC6	A-DC7	A-DC8	A-DC9	A-DC10	A-DC11	A-DC12	A-DC13	A-DC14	A-DC15	A-DC16	A-Ph1	A-Ph2	A-Ph3	A-Ph4	A-Ph5	A-Ph6	A-Ph7	A-Ph8	A-Ph9	A-Ph10	A-Ph11	A-Ph12	A-Ph13	A-Ph14	A-Ph15	A-Ph16	B-AC1	B-AC2	B-AC3	B-AC4	B-AC5	B-AC6	B-AC7	B-AC8	B-AC9	B-AC10	B-AC11	B-AC12	B-AC13	B-AC14	B-AC15	B-AC16	B-DC1	B-DC2	B-DC3	B-DC4	B-DC5	B-DC6	B-DC7	B-DC8	B-DC9	B-DC10	B-DC11	B-DC12	B-DC13	B-DC14	B-DC15	B-DC16	B-Ph1	B-Ph2	B-Ph3	B-Ph4	B-Ph5	B-Ph6	B-Ph7	B-Ph8	B-Ph9	B-Ph10	B-Ph11	B-Ph12	B-Ph13	B-Ph14	B-Ph15	B-Ph16	aux-1	digaux	

414.575	1	1	0	768	0.092078	0.21647	0.073589	0.22125	0.12834	0.22254	0.18855	0.06897	0.079814	0.4462	0.10707	0.1206	0.25218	0.16551	0.14376	0.10692	-3.4708	-3.6063	-3.9	-4.0375	-3.7188	-4.0083	-3.8187	-3.9688	-4.0125	-3.6625	-4.0646	-3.9792	-3.7062	-4.1896	-3.6229	-4.0917	51.098	106.721	-25.137	217.854	-39.580	-118.719	203.046	231.532	154.939	-35.106	-59.658	172.380	-19.617	148.486	-22.738	71.788	0.00089734	0.00067552	7.9929e-05	1361.8	3.9853e-06	6.3364e-06	1359.5	367.97	5.0307e-06	5.9756e-06	418.56	140.15	121.59	41.678	2.8851e-06	51.439	0.0005513	0.00062662	0.00015855	1378.7	6.0271e-06	6.8397e-06	1379.4	374.21	6.1533e-06	6.7878e-06	426.91	142.7	124.3	42.89	5.9993e-06	52.937	20.124	-35.579	31.358	-107.064	84.682	38.760	-107.479	-102.539	-75.285	1.810	-102.895	-98.942	-98.847	-93.510	32.555	-94.420	-8191	255	
414.671	1	1	0	0	0.086394	0.09628	0.087253	0.35778	0.073842	0.13371	0.29395	0.18455	0.068262	0.2051	0.18209	0.026567	0.26067	0.18702	0.33602	0.070791	-3.6562	-3.5521	-3.9021	-4.0333	-3.7792	-4.2562	-3.9688	-3.8438	-4.075	-3.7188	-4.0167	-3.9979	-3.7229	-4.3187	-3.8417	-3.9729	-100.290	-14.554	226.030	214.098	-76.454	113.864	178.457	198.775	-13.292	147.830	-56.802	-3.661	208.596	172.141	-32.007	-57.088	0.00098717	0.0005252	0.000316	1358.6	4.1101e-06	3.0148e-06	1357.9	365.83	7.2838e-06	6.028e-06	418.48	139.36	121.97	41.741	3.6545e-06	51.566	0.00058059	0.00061635	0.00015368	1377.4	6.4855e-06	6.6302e-06	1377.6	373.29	6.5019e-06	6.5027e-06	426.71	142.69	124.99	42.884	5.8263e-06	53.02	9.273	-2.195	-41.031	-106.966	185.575	-4.765	-107.561	-102.404	-24.010	20.187	-102.838	-98.868	-98.546	-93.597	40.565	-94.342	-8191	255	
414.768	1	1	0	0	0.14986	0.25412	0.19238	0.13988	0.12831	0.10853	0.24754	0.082363	0.18675	0.20994	0.25092	0.050617	0.08096	0.064466	0.12197	0.25586	-3.6771	-3.6646	-3.9667	-4.2021	-3.725	-4.0917	-4.0667	-3.8063	-4.0396	-3.725	-3.9667	-4.1958	-3.6937	-3.9375	-4.0125	-3.8125	186.111	182.717	118.764	128.376	195.569	209.079	-117.743	181.115	212.135	2.659	191.966	24.060	189.655	-90.762	-2.564	186.546	0.00095098	0.001199	1.5243e-05	1358.7	3.2532e-06	5.0451e-06	1355.7	366.44	3.2895e-06	3.3853e-06	415.95	139.77	122	41.732	3.6747e-06	51.563	0.00060362	0.00057844	0.00014845	1377.9	6.6511e-06	6.2712e-06	1375.6	373.14	6.6505e-06	6.1192e-06	425.45	142.82	125.16	42.824	5.6255e-06	53.06	20.368	-67.100	-112.304	-107.009	-115.093	-3.342	-107.494	-102.628	34.202	-23.293	-102.867	-98.787	-98.476	-93.596	19.288	-94.437	-8191	255	
414.864	1	1	0	0	0.14538	0.093152	0.06362	0.27668	0.083645	0.16005	0.21259	0.21419	0.23495	0.18817	0.041011	0.36124	0.11828	0.2617	0.16259	0.1888	-3.8854	-3.8646	-3.8208	-4.05	-3.5708	-3.9354	-4.0542	-3.9792	-4.1292	-3.7854	-4.0729	-4.1813	-3.65	-4.1229	-3.8479	-3.9083	109.837	-69.032	183.824	237.258	203.421	170.790	209.952	230.222	-43.293	76.248	207.908	227.039	156.486	-92.107	21.174	156.091	0.00075902	0.00032468	0.00014497	1360.2	6.4606e-06	6.4599e-06	1359.8	367.46	3.8965e-06	7.7527e-06	418.08	138.96	121.99	41.588	4.5109e-06	51.505	0.00060454	0.00054607	0.00014271	1377	6.5449e-06	5.9885e-06	1376.2	373.96	6.448e-06	5.8476e-06	425.89	142.85	124.81	42.769	5.5495e-06	53.121	41.021	-32.455	-2.673	-107.103	-14.597	18.909	-107.279	-102.611	10.378	-7.193	-103.097	-98.526	-98.257	-93.296	41.547	-94.500	-8191	255	
414.960	1	1	0	0	0.042322	0.17622	0.18072	0.154	0.13997	0.11433	0.12128	0.34032	0.10408	0.083198	0.11778	0.048887	0.37269	0.18506	0.2776	0.24755	-3.7042	-3.5792	-3.75	-4.1625	-3.6104	-3.9188	-3.9208	-3.7979	-3.975	-3.7125	-3.7854	-4.1312	-3.7812	-3.7875	-3.8979	-3.7625	-110.301	55.004	19.068	41.324	-95.505	50.407	192.292	163.517	-39.665	163.914	-57.271	-57.180	237.399	-54.847	-30.199	192.686	0.00083954	0.00076484	0.00011825	1355.5	5.5495e-06	5.0259e-06	1355.3	368.38	9.3819e-06	5.516e-06	418.65	139.77	122.01	41.69	4.3862e-06	51.43	0.00058774	0.00053199	0.00014282	1377.8	6.3232e-06	5.8838e-06	1374.3	374.71	6.3159e-06	5.7449e-06	426.02	143.2	124.65	42.772	5.6837e-06	53.245	21.643	-56.129	-15.641	-107.245	-31.145	6.172	-107.449	-102.481	39.401	-12.249	-103.127	-98.943	-98.036	-93.512	10.375	-94.092	-8191	255	
415.056	1	1	0	0	0.14957	0.19337	0.15728	0.11153	0.036406	0.23542	0.020848	0.083598	0.16041	0.23911	0.19107	0.27249	0.15688	0.094259	0.1196	0.22125	-3.6833	-3.8187	-3.7292	-4.2104	-3.7479	-4.0437	-4.0042	-3.7896	-4.1146	-3.8604	-3.8438	-4.2792	-3.7812	-4.025	-4.0729	-3.7958	24.742	66.835	19.843	113.893	70.978	33.449	66.741	227.294	-19.538	130.820	137.013	152.750	130.082	154.107	-120.195	197.810	0.00061422	0.00077694	5.4901e-05	1359.3	5.0322e-06	5.204e-06	1356.3	365.8	6.0591e-06	5.573e-06	417.89	139.71	121.86	41.813	6.024e-06	51.483	0.00056365	0.00052059	0.00014823	1378.5	6.1044e-06	5.6711e-06	1374.4	374.29	6.0265e-06	5.5823e-06	425.96	143.3	123.92	42.751	6.0698e-06	53.087	22.513	-70.824	46.526	-107.137	36.716	31.991	-107.362	-102.567	-30.742	-74.307	-102.972	-98.740	-98.252	-93.386	-4.158	-94.388	-8191	255	
415.177	1	1	0	0	0.010404	0.1371	0.047426	0.30637	0.10142	0.08848	0.18659	0.21032	0.21253	0.13404	0.27808	0.35259	0.12418	0.19687	0.27265	0.081966	-3.5667	-3.8771	-3.5687	-4.2604	-3.6917	-3.7042	-4.2271	-3.675	-3.9813	-3.8917	-3.7292	-4.1479	-3.75	-3.9562	-4.0208	-3.6271	21.280	-58.424	-28.942	231.644	138.069	-80.722	172.115	192.135	-74.539	92.472	-89.341	-114.555	86.346	231.840	154.515	143.036	0.00089917	0.00052638	6.2717e-05	1352.9	7.164e-06	3.7022e-06	1353.1	366.73	6.9144e-06	2.0984e-06	418.5	140.25	121.08	41.501	2.5591e-06	51.822	0.00054972	0.00050479	0.00015672	1376.6	5.8739e-06	5.5505e-06	1376.9	374.33	5.7929e-06	5.4494e-06	427.06	143.14	124.02	42.693	6.3912e-06	53.207	29.724	-65.763	144.519	-107.036	-20.576	32.860	-107.225	-102.801	-56.319	175.840	-103.112	-98.637	-98.491	-93.393	-64.323	-94.280	-8191	255	
415.273	1	1	0	0	0.047599	0.071538	0.12057	0.22802	0.069953	0.069641	0.29584	0.24447	0.27025	0.13096	0.18108	0.042623	0.12481	0.43686	0.12089	0.092119	-3.5292	-3.8896	-3.65	-4.2854	-3.8521	-3.8292	-4.0792	-3.75	-3.7583	-4.0625	-3.7771	-4.1708	-3.6604	-3.7062	-4.0354	-3.6979	73.191	194.941	12.106	166.501	-117.564	143.927	189.345	222.343	125.946	-47.372	38.079	-120.705	180.589	211.104	43.670	236.745	0.00082025	0.00078842	2.2273e-05	1356.1	1.3813e-06	2.4001e-06	1350.8	365.45	6.0792e-06	5.4925e-06	419.35	139.47	121.2	41.521	3.6506e-06	51.549	0.00053062	0.00051149	0.00016516	1376.9	5.7326e-06	5.6622e-06	1376.4	373.76	5.6843e-06	5.7193e-06	427.84	143.02	123.58	42.736	6.5352e-06	52.997	28.779	-76.581	227.568	-107.052	-27.605	106.166	-107.281	-102.738	7.009	-27.889	-102.981	-98.799	-98.565	-93.456	33.439	-94.185	-8191	255	
415.369	1	1	0	0	0.17697	0.14415	0.069591	0.12474	0.049594	0.036373	0.23495	0.064299	0.16121	0.21245	0.16286	0.02324	0.29762	0.12176	0.078869	0.32186	-3.4417	-3.9354	-3.5438	-4.0938	-3.8104	-3.6125	-4.1021	-3.8854	-3.6875	-3.9167	-3.7313	-4.0062	-3.8458	-3.6583	-4.075	-3.7292	224.981	223.212	18.751	219.671	119.505	60.459	131.190	65.364	113.562	165.043	-90.797	111.975	-112.903	-90.412	176.108	192.272	0.00076439	0.00047826	0.00016766	1353.2	7.9821e-06	3.1485e-06	1351.7	367.29	4.8441e-06	2.8906e-06	420.74	139.13	121.61	41.546	2.7717e-06	51.373	0.00052113	0.00054146	0.00016762	1375	5.6239e-06	6.0646e-06	1376.5	373.63	5.6215e-06	6.185e-06	427.86	142.69	123.45	42.793	6.4266e-06	52.91	22.024	-101.096	-12.556	-107.142	-15.969	39.818	-107.330	-102.360	170.282	24.964	-102.932	-98.922	-98.377	-93.543	209.284	-94.378	-8191	255	
415.465	1	1	0	0	0.20204	0.3677	0.31997	0.23704	0.1563	0.060128	0.17566	0.15029	0.2544	0.33457	0.23618	0.12719	0.17413	0.21081	0.26963	0.17749	-3.2396	-4.0104	-3.575	-4.0854	-3.7521	-3.6354	-4.3812	-3.8125	-3.8833	-3.9313	-3.55	-3.9729	-3.8875	-3.8521	-4.05	-3.9813	44.947	57.161	167.440	166.761	-42.945	131.130	199.960	170.872	174.491	2.143	-71.213	142.352	185.653	166.156	162.411	103.292	0.00082955	0.00059867	0.00017178	1358.8	7.4793e-06	6.5028e-06	1353.8	366.71	8.0209e-06	2.7609e-06	416.06	139.17	120.59	41.565	5.4694e-06	51.454	0.00051706	0.00057971	0.00016137	1375.5	5.5713e-06	6.4709e-06	1374.6	372.37	5.6148e-06	6.5413e-06	426.19	142.57	123.36	42.828	6.1991e-06	52.814	26.983	-26.150	-61.563	-106.868	28.433	47.969	-107.292	-102.445	-50.167	55.697	-102.858	-98.867	-98.147	-93.512	-47.508	-94.388	-8191	255	
415.561	1	1	0	0	0.037427	0.089838	0.069503	0.19196	0.1206	0.1016	0.19809	0.18136	0.032826	0.14302	0.14889	0.042575	0.069168	0.22376	0.26246	0.26578	-3.3479	-3.9437	-3.8187	-3.9208	-3.825	-3.6708	-4.1771	-3.8937	-3.8667	-4.0188	-3.9229	-3.8729	-4.1354	-3.7938	-3.9562	-3.8917	5.472	186.001	-32.308	-114.743	142.818	136.113	155.172	-111.093	232.364	17.200	235.746	21.982	164.393	153.036	61.960	226.198	0.0010382	0.00055953	0.00010383	1356.5	5.1766e-06	5.7423e-06	1351.6	367.61	2.1214e-06	5.068e-06	415.64	139.87	121.17	41.567	7.5174e-06	51.328	0.00053695	0.00061173	0.00015544	1373.8	5.8687e-06	6.6133e-06	1372.8	372.77	5.9851e-06	6.614e-06	424.89	142.55	124.06	42.857	5.9521e-06	52.825	19.327	-25.643	-19.252	-106.910	-59.492	63.625	-107.376	-102.431	-65.080	-51.059	-103.183	-98.897	-98.253	-93.404	-95.583	-94.314	-8191	255	
415.656	1	1	0	0	0.20686	0.14376	0.27136	0.14622	0.19356	0.074434	0.46885	0.26913	0.13373	0.13327	0.10458	0.15544	0.12643	0.22859	0.11199	0.11582	-3.1417	-4.0729	-3.5187	-4.0083	-3.9562	-3.7542	-4.1354	-3.8771	-3.6083	-3.9562	-3.7521	-3.825	-3.9833	-3.6396	-4.0479	-3.9229	-75.537	-33.154	129.764	166.400	-105.892	-47.856	190.868	207.258	-106.292	196.995	143.169	-101.833	148.578	104.288	154.522	157.896	0.0009088	0.00011506	0.00020055	1353.8	4.3064e-06	1.1102e-05	1351.1	366.25	6.036e-06	8.5459e-06	417.34	139.16	121.55	41.624	2.9013e-06	51.357	0.00056821	0.00060641	0.00015277	1373.5	6.3221e-06	6.5579e-06	1373.8	372.88	6.3718e-06	6.5234e-06	425.47	142.15	124.41	42.815	5.88e-06	52.793	19.831	51.141	-3.040	-106.905	-27.570	43.017	-107.344	-102.537	-84.260	11.076	-102.967	-98.705	-98.370	-93.246	157.368	-94.310	-8191	255	
415.752	1	1	0	0	0.16247	0.053605	0.057744	0.3033	0.36895	0.12409	0.1342	0.32873	0.17414	0.18097	0.2738	0.13029	0.21403	0.16828	0.098285	0.27553	-3.2375	-3.9771	-3.6188	-3.8792	-3.8229	-3.6667	-4.0708	-4.0854	-3.6729	-4.0271	-4.0042	-3.8729	-4.0646	-3.7646	-3.8729	-3.9667	103.264	68.402	192.765	213.592	-34.501	9.553	-106.120	179.944	117.330	138.421	233.028	231.049	-64.210	230.273	137.393	168.655	0.00084156	0.0010757	0.0001284	1357.1	6.5041e-07	6.6452e-06	1353.3	367.43	2.4329e-06	3.0669e-06	418.96	139.72	121.14	41.662	3.144e-06	51.492	0.00059849	0.00058386	0.0001488	1374.2	6.6376e-06	6.289e-06	1372.4	373.14	6.6572e-06	6.2066e-06	425.38	142.45	124.94	42.827	5.7244e-06	52.897	11.065	-53.621	7.189	-107.086	200.172	11.678	-107.331	-102.616	-43.458	53.565	-102.933	-98.743	-98.310	-93.301	-47.092	-94.335	-8191	255	
415.872	1	1	0	0	0.054608	0.3284	0.083074	0.3616	0.15623	0.090553	0.14806	0.13628	0.10316	0.19278	0.11077	0.11418	0.15619	0.37512	0.092104	0.072446	-3.2292	-4.0958	-3.9437	-3.6646	-3.9562	-3.7	-3.9271	-3.9667	-3.525	-3.8625	-3.8021	-3.7646	-4.1042	-3.7792	-3.7875	-3.8937	-23.499	-99.620	188.089	-105.651	24.208	21.521	192.404	-30.815	-16.527	103.209	225.840	154.413	-113.465	-91.074	21.220	-118.103	0.00082998	0.0010262	0.00017135	1352.2	5.2626e-06	5.169e-06	1351.5	366.37	1.0501e-05	9.6414e-06	416.77	139.49	121.54	41.507	9.4252e-06	51.358	0.00061579	0.00056317	0.00014504	1375.3	6.6623e-06	6.0604e-06	1371.8	373.77	6.6439e-06	6.0102e-06	424.79	142.85	124.53	42.704	5.636e-06	53.008	17.152	-64.132	-27.395	-107.187	-35.070	32.676	-107.333	-102.386	-23.111	35.608	-103.089	-98.655	-98.698	-93.294	32.296	-94.183	-8191	255	
415.969	1	1	0	0	0.14368	0.28326	0.1059	0.32485	0.21585	0.23639	0.15484	0.31461	0.24628	0.18847	0.07133	0.20026	0.082078	0.30805	0.014258	0.076459	-3.2958	-3.7687	-3.8792	-3.8021	-3.9583	-3.6458	-3.9292	-3.975	-3.7146	-4.0875	-3.8833	-3.7792	-3.9146	-3.8521	-3.7188	-3.9979	-14.270	51.159	-120.432	-115.951	-93.544	205.342	172.093	210.716	185.492	168.484	-112.216	236.109	126.640	-93.268	156.261	-78.658	0.00083667	0.00059143	0.00010147	1357.6	7.0481e-06	2.0286e-06	1356.3	365.51	1.2555e-05	4.6744e-06	417.75	139.68	121.51	41.472	5.2887e-06	51.327	0.00059742	0.00055211	0.00014568	1377.1	6.3851e-06	5.9481e-06	1372.3	373.65	6.3869e-06	5.8923e-06	424.91	143.25	124.45	42.644	5.7261e-06	53.04	36.009	-56.592	-13.766	-107.063	-14.337	49.677	-107.451	-102.485	17.354	3.229	-102.706	-98.688	-98.386	-93.364	18.312	-94.603	-8191	255	
416.065	1	1	0	0	0.14426	0.054499	0.051031	0.37999	0.071484	0.074588	0.16985	0.29807	0.054954	0.23396	0.14695	0.06479	0.077254	0.10739	0.058366	0.2391	-3.2146	-3.8333	-3.8312	-3.6542	-3.825	-3.9437	-3.8292	-4.0854	-3.65	-3.8792	-3.9458	-3.6917	-3.9729	-3.8854	-3.7812	-4.1604	41.565	156.017	50.266	212.570	10.147	-13.202	234.401	-119.065	-74.878	-116.550	160.649	-71.940	227.852	197.561	-78.305	140.931	0.00082879	0.00068807	0.00015468	1352.1	6.4231e-06	4.0895e-06	1349.4	367.5	6.3687e-06	2.9553e-06	416.86	139.14	122.03	41.49	6.8519e-06	51.301	0.00056982	0.00053499	0.00014815	1377.2	6.1863e-06	5.7371e-06	1372.1	374.29	6.0891e-06	5.6963e-06	425.77	142.86	123.86	42.574	6.083e-06	53.116	26.048	-97.410	-30.192	-106.936	-50.258	84.805	-107.393	-102.381	-47.523	67.720	-103.244	-98.746	-98.396	-93.515	6.058	-94.197	-8191	255	
416.136	1	1	0	0	0.36863	0.22967	0.22532	0.24056	0.11138	0.14399	0.033904	0.32403	0.1436	0.12603	0.028565	0.17802	0.35274	0.080824	0.13077	0.20506	-3.0812	-3.6625	-3.9146	-3.6604	-3.9062	-3.8083	-3.8563	-4.1146	-3.6188	-3.7313	-4.1854	-3.6125	-3.9188	-3.9667	-3.55	-4.0292	197.785	-80.661	1.897	-117.994	-43.504	61.625	216.110	185.299	102.605	135.697	-91.605	-73.993	-5.294	-40.546	-104.700	194.652	0.00078235	0.00048078	0.000101	1358	5.5368e-06	5.4942e-06	1348.2	367.18	5.4924e-06	8.627e-06	417.95	138.81	121.21	41.608	7.3878e-06	51.213	0.00055853	0.00051916	0.00015851	1377.1	5.9755e-06	5.5814e-06	1372.6	373.89	5.9012e-06	5.5811e-06	426.52	142.6	123.86	42.587	6.432e-06	52.982	15.621	-35.362	-43.577	-107.074	-49.023	13.543	-107.390	-102.624	18.493	-55.620	-103.001	-99.149	-98.129	-93.309	-15.741	-94.166	-8191	255	
416.257	1	1	0	0	0.18706	0.24594	0.056047	0.073185	0.10062	0.16656	0.24675	0.1927	0.16673	0.28236	0.22779	0.25226	0.12252	0.18979	0.22528	0.2253	-3.3875	-3.6792	-3.8812	-3.9104	-3.8688	-3.8875	-3.8187	-4.1042	-3.725	-3.8	-4.0062	-3.775	-3.9688	-3.9813	-3.7208	-4.1562	182.772	-36.037	-14.919	8.181	189.027	130.530	172.694	184.404	145.744	111.729	201.403	221.942	-54.983	158.558	-25.468	-120.069	0.0008624	0.0002896	3.9755e-05	1355.5	3.7216e-06	3.2514e-06	1345.7	365.98	5.9885e-06	4.2652e-07	417.98	139.51	121.55	41.635	3.2598e-06	51.462	0.00053856	0.00051901	0.0001661	1376.5	5.8148e-06	5.6921e-06	1372.9	373.47	5.7432e-06	5.7863e-06	426.98	142.58	123.71	42.697	6.5891e-06	52.927	25.735	-27.974	29.339	-107.247	-44.331	-49.769	-107.452	-102.469	4.799	-56.539	-102.959	-98.843	-98.279	-93.548	-56.718	-94.378	-8191	255	
416.353	1	1	0	0	0.072745	0.11691	0.15709	0.21377	0.056212	0.11155	0.26111	0.098282	0.24664	0.26196	0.21779	0.20146	0.25222	0.18064	0.17159	0.18537	-3.4271	-3.5229	-3.9458	-3.7917	-3.8708	-3.9396	-3.8458	-4.0625	-3.6813	-3.7771	-4.1458	-3.6604	-3.9792	-4.1271	-3.6083	-4.1458	81.009	101.019	108.734	174.950	168.283	159.863	-117.575	187.835	85.878	-13.752	235.929	-51.460	-111.173	-109.505	-119.214	-110.485	0.00083358	0.00061218	0.00010352	1355	9.4117e-07	4.3362e-06	1348.7	366.56	5.8281e-06	2.2108e-06	416.14	139.24	121.52	41.611	7.9355e-06	51.347	0.0005182	0.0005426	0.00016835	1373.9	5.6024e-06	6.026e-06	1373.2	372.46	5.5775e-06	6.1006e-06	425.89	142.52	123.45	42.791	6.4185e-06	52.932	23.676	-30.734	-78.513	-107.259	-100.395	-21.709	-107.320	-102.560	-15.652	-46.942	-103.060	-98.720	-98.350	-93.486	-7.205	-94.198	-8191	255	
416.449	1	1	0	0	0.1574	0.11641	0.19782	0.19224	0.22333	0.097658	0.15378	0.28361	0.072503	0.12292	0.20561	0.11587	0.1686	0.19934	0.15978	0.18621	-3.5438	-3.7604	-4.0271	-3.7	-3.7458	-3.9458	-3.9125	-4.0917	-3.7708	-3.7188	-4.2042	-3.8896	-3.7021	-4.1021	-3.5646	-3.9458	69.197	31.693	230.256	235.056	-79.319	-22.001	208.273	139.303	103.792	52.958	-86.950	-52.183	25.033	220.680	229.042	182.311	0.00069001	0.00092329	7.4525e-05	1354.7	2.9273e-06	6.8053e-06	1351.3	366.02	8.6854e-07	6.0479e-06	417.54	139.37	120.92	41.582	4.3861e-06	51.211	0.00051137	0.00057097	0.0001635	1372.1	5.5625e-06	6.4526e-06	1373.9	372.57	5.5491e-06	6.436e-06	425.97	142.49	123.23	42.842	6.1253e-06	52.804	27.500	-42.886	-67.358	-106.991	106.795	-67.429	-107.410	-102.585	154.193	-12.805	-103.082	-98.831	-98.245	-93.611	-14.784	-94.329	-8191	255	
416.570	1	1	0	0	0.20816	0.048475	0.23443	0.074396	0.071374	0.12414	0.10366	0.099051	0.31259	0.13231	0.040877	0.18842	0.10455	0.24242	0.17128	0.037097	-3.4917	-3.6104	-4.0458	-3.9	-3.6667	-4.1729	-3.8937	-3.8979	-3.9896	-3.7708	-4.1188	-3.8271	-3.6833	-4.0521	-3.5563	-3.9188	-63.591	136.482	139.301	229.939	195.780	-76.978	186.689	175.662	-25.402	65.250	-3.117	206.401	-63.382	229.443	125.990	-63.220	0.00087357	0.00089195	6.8022e-05	1354.8	4.8119e-06	9.2261e-06	1353.3	365.51	2.3718e-06	4.7146e-06	418.09	139.6	121.18	41.637	1.0265e-05	51.593	0.00052085	0.00059998	0.00015451	1372.3	5.7233e-06	6.5099e-06	1373.1	372.11	5.8101e-06	6.5042e-06	425.93	142.35	123.9	42.887	5.8667e-06	52.796	17.341	-106.192	122.284	-107.033	228.653	67.764	-107.406	-102.345	196.353	6.390	-103.026	-98.779	-98.275	-93.278	17.863	-94.266	-8191	255	
416.664	1	1	0	0	0.1417	0.11994	0.08767	0.29788	0.10861	0.028924	0.15769	0.23193	0.0034922	0.045356	0.05895	0.21668	0.064842	0.20428	0.18158	0.12394	-3.575	-3.7	-3.8521	-4.0188	-3.7146	-4.1917	-3.8083	-3.9646	-3.8792	-3.6521	-3.9958	-4.1104	-3.6292	-4.0375	-3.5708	-4.0271	-48.648	230.578	107.180	191.693	120.617	123.709	184.364	168.807	135.835	-29.169	63.636	92.244	-46.185	-78.768	58.050	-47.892	0.00084379	0.00076892	0.0002722	1355.3	1.0027e-05	8.4458e-06	1347.9	365.59	1.1063e-05	4.8924e-06	418.75	140.15	120.81	41.579	7.4784e-06	51.18	0.00055145	0.00059286	0.00014935	1371	6.1285e-06	6.3617e-06	1369.5	372.58	6.1109e-06	6.2811e-06	425.12	142.45	124.25	42.865	5.7285e-06	52.744	35.294	-63.162	-32.736	-107.091	158.177	15.378	-107.142	-102.534	-33.775	42.929	-102.804	-98.605	-98.667	-93.515	5.763	-94.304	-8191	255	
416.738	1	1	0	0	0.31848	0.072709	0.1853	0.40149	0.11352	0.10431	0.23015	0.13211	0.13551	0.071073	0.15378	0.15809	0.2185	0.26823	0.16094	0.081025	-3.7812	-3.525	-3.9292	-4.1875	-3.775	-4.0854	-3.8583	-3.8312	-3.9771	-3.7979	-3.875	-4.0854	-3.6562	-4.1479	-3.7833	-3.7083	-5.328	75.658	-113.366	191.076	95.236	-82.820	152.655	236.148	117.533	-86.402	181.296	208.362	188.875	-82.984	6.461	120.300	0.00086374	0.00077717	7.8289e-05	1352.9	4.7245e-06	2.4732e-06	1351.9	367.07	5.6148e-06	4.8508e-06	417.77	139.61	120.59	41.556	7.4462e-06	51.571	0.00058199	0.00056548	0.00014613	1371.4	6.4412e-06	6.1894e-06	1369.3	372.5	6.4946e-06	6.0505e-06	424.85	142.5	124.44	42.716	5.5507e-06	52.961	11.504	-84.689	-2.528	-106.935	49.469	39.419	-107.228	-102.471	-11.455	3.543	-102.870	-98.818	-98.225	-93.719	-28.079	-94.112	-8191	255	
416.857	1	1	0	0	0.097622	0.12876	0.15961	0.38033	0.20736	0.0546	0.14358	0.11163	0.11532	0.070571	0.27914	0.17828	0.11249	0.082213	0.25465	0.081843	-3.6167	-3.6333	-3.8375	-3.9646	-3.6708	-3.9229	-3.9646	-3.9542	-4.0708	-3.6708	-3.95	-4.0375	-3.7146	-3.9104	-3.9313	-3.8542	88.195	215.154	-37.455	193.170	-96.115	-90.679	232.624	185.773	-101.750	235.024	185.076	-118.633	-97.995	-98.653	85.120	-110.630	0.00078749	0.00032767	0.00013394	1354.6	5.6832e-06	1.2926e-06	1351.9	365.28	1.3274e-05	5.2981e-06	418.04	139.58	121.49	41.346	7.2194e-06	51.447	0.00059876	0.00054176	0.00014095	1373.5	6.5014e-06	5.9023e-06	1370.4	372.74	6.4705e-06	5.8655e-06	424.42	142.78	124.4	42.644	5.4209e-06	53.029	32.326	-108.136	-26.265	-107.025	-119.913	-112.557	-107.425	-102.442	13.122	-17.264	-103.184	-98.669	-98.318	-93.255	31.506	-94.411	-8191	255	
416.953	1	1	0	0	0.12767	0.20428	0.076991	0.18548	0.045393	0.23597	0.32142	0.12429	0.21186	0.099444	0.046807	0.27974	0.064622	0.42608	0.35462	0.14051	-3.7583	-3.7354	-3.775	-4.1771	-3.7375	-4.0521	-4.0021	-3.7708	-3.975	-3.7354	-4.0146	-4.1083	-3.5875	-3.9125	-3.9375	-3.7104	-88.192	226.192	-33.873	191.799	235.495	209.100	-116.850	166.829	113.252	119.387	-65.291	235.284	124.809	153.230	-94.012	137.021	0.00086436	0.0003649	7.4015e-05	1356.4	6.5168e-06	4.4565e-06	1351.9	365.71	8.5406e-06	6.3191e-06	419.09	139.83	121.17	41.551	3.344e-06	51.255	0.00058731	0.00052917	0.00013887	1375.6	6.3033e-06	5.6977e-06	1368.7	373.13	6.1707e-06	5.6581e-06	424.91	143.13	124.13	42.681	5.4725e-06	53.008	24.449	227.283	-76.030	-106.822	4.673	47.294	-107.282	-102.560	-0.700	6.550	-103.180	-98.880	-98.408	-93.301	125.550	-94.339	-8191	255	
417.049	1	1	0	0	0.21055	0.09932	0.19944	0.19601	0.17649	0.13463	0.18547	0.17609	0.21046	0.13513	0.25381	0.1091	0.055254	0.22378	0.20218	0.20861	-3.7167	-3.7042	-3.6625	-3.9792	-3.7854	-3.8646	-4.2979	-3.825	-4.0542	-3.8833	-3.8146	-4.1729	-3.7083	-3.7687	-4.0604	-3.4625	211.463	220.477	-108.167	195.774	116.930	216.762	141.602	74.198	152.935	120.190	-89.803	217.067	-111.928	-81.532	19.850	-84.535	0.00088874	0.00073573	0.00017175	1359.7	6.5061e-06	6.3668e-06	1346.4	365.53	7.6915e-06	7.0168e-06	416.9	139.66	121.11	41.486	3.2908e-06	51.66	0.00056213	0.00050768	0.00014397	1376.1	6.0001e-06	5.5748e-06	1369.8	373.26	5.9388e-06	5.4545e-06	425.24	143.06	123.77	42.662	5.8522e-06	53.162	29.201	-27.929	-34.983	-107.037	35.532	24.675	-107.271	-102.240	3.027	69.930	-103.057	-99.099	-98.266	-93.468	4.647	-94.419	-8191	255	
417.170	1	1	0	0	0.13421	0.12071	0.24237	0.17079	0.065027	0.10286	0.31499	0.15523	0.12604	0.11754	0.17233	0.14073	0.062068	0.040311	0.21855	0.12269	-3.7375	-4.0167	-3.65	-4.0917	-3.5646	-3.7646	-4.0854	-3.7875	-4.0333	-3.8729	-3.7667	-4.1562	-3.7646	-3.8604	-4.0687	-3.6063	69.519	81.988	109.815	211.096	30.485	105.135	200.339	188.766	-115.196	-67.935	133.739	92.794	-77.876	228.744	201.977	66.638	0.00070951	0.00060376	6.8447e-05	1350.3	2.9725e-06	2.6923e-06	1345.8	366.09	6.0054e-06	5.4107e-07	415.7	139.56	121.64	41.742	6.2653e-06	51.76	0.00054417	0.00050228	0.00015308	1375.1	5.8518e-06	5.4966e-06	1369.9	373.94	5.8225e-06	5.4076e-06	425.15	142.88	123.71	42.709	6.2201e-06	53.038	7.916	-26.259	150.534	-107.100	63.501	30.934	-107.138	-102.336	14.749	-25.476	-102.981	-98.749	-98.198	-93.464	-26.097	-94.241	-8191	255	
417.266	1	1	0	0	0.31606	0.16628	0.2113	0.26781	0.29868	0.099144	0.024566	0.08908	0.13385	0.22688	0.087682	0.22584	0.23095	0.24886	0.053273	0.14074	-3.6396	-3.8208	-3.55	-4.1375	-3.8083	-3.8042	-3.9896	-3.7396	-3.8396	-3.9896	-3.7792	-4.1833	-3.9125	-3.7	-3.9958	-3.6688	-47.190	-107.429	4.892	180.483	-115.083	184.471	-77.464	-118.683	167.736	-63.590	199.444	198.495	-113.230	179.642	41.612	234.073	0.0009404	0.00032907	4.594e-05	1348.8	6.6748e-06	3.0954e-06	1348.3	366.54	3.2429e-06	4.1733e-06	418.05	139.61	121.09	41.646	6.0116e-06	51.433	0.00053494	0.00050506	0.00016268	1371.7	5.6934e-06	5.5243e-06	1372.6	372.87	5.6416e-06	5.5711e-06	426.84	142.69	123.41	42.69	6.4635e-06	52.87	20.753	-59.691	-38.513	-106.950	-34.635	-22.454	-107.216	-102.536	-1.785	5.509	-103.239	-98.763	-98.290	-93.429	-60.639	-94.365	-8191	255	
417.362	1	1	0	0	0.15811	0.055906	0.27411	0.13478	0.12116	0.031924	0.22311	0.16201	0.054862	0.017344	0.051892	0.090344	0.21726	0.11633	0.16633	0.12672	-3.55	-3.8479	-3.6271	-4.1521	-3.8333	-3.6208	-4.2708	-3.9896	-3.9771	-4.0188	-3.6458	-4.1438	-3.9062	-3.7104	-4.0458	-3.5708	88.846	-103.591	-84.758	195.978	188.996	-54.751	195.919	208.560	192.714	232.359	-113.777	230.916	195.810	-112.317	16.773	160.828	0.00077708	0.00067069	6.7633e-05	1352.4	5.9748e-06	2.9695e-06	1348.6	365.63	8.9341e-06	2.9886e-06	417.85	139.57	121.11	41.514	8.8051e-06	51.252	0.00052253	0.00053058	0.00016798	1373	5.6515e-06	5.942e-06	1372.5	372.94	5.6101e-06	6.0594e-06	426.92	142.66	123.26	42.769	6.4765e-06	52.802	35.977	-12.565	-41.234	-106.982	-19.810	-31.269	-107.370	-102.532	38.722	-26.216	-103.025	-98.760	-98.591	-93.356	-10.000	-94.083	-8191	255	
417.434	1	1	0	0	0.1134	0.28249	0.30562	0.15921	0.119	0.28311	0.26717	0.31331	0.33029	0.21918	0.16493	0.16022	0.16939	0.34475	0.069196	0.042771	-3.3875	-4.0417	-3.5167	-4.0479	-3.9896	-3.7833	-4.2188	-3.7604	-3.8438	-3.8625	-3.6521	-4.0458	-4.0479	-3.5417	-3.9042	-3.8479	182.562	236.721	167.225	211.715	-17.964	-45.227	156.234	-110.021	170.629	-104.457	-79.832	-112.307	157.163	192.541	218.137	206.665	0.00098006	0.00059746	6.6099e-05	1353.6	8.441e-06	2.0909e-06	1346.7	366.51	5.9855e-06	9.1478e-07	420.93	139.75	120.78	41.494	1.5218e-06	51.725	0.00051391	0.00057069	0.00016616	1370.8	5.5988e-06	6.4184e-06	1371.9	373.01	5.6564e-06	6.4028e-06	426.26	142.54	123.28	42.718	6.2009e-06	52.81	30.603	10.299	-46.881	-106.926	-0.777	12.303	-107.477	-102.698	-29.269	227.742	-102.981	-98.790	-98.374	-93.323	41.874	-94.274	-8191	255	
417.552	1	1	0	0	0.18703	0.071477	0.11809	0.18064	0.13021	0.068793	0.12362	0.10865	0.2636	0.2678	0.16599	0.090413	0.22971	0.23364	0.18158	0.34708	-3.5062	-3.9667	-3.6542	-4.0771	-4.0896	-3.7229	-4.2958	-3.9021	-3.8563	-4.0583	-3.8771	-3.9062	-4.0479	-3.6875	-3.8542	-3.8646	127.737	-32.828	-48.323	160.470	54.978	-104.757	191.664	137.065	-0.142	80.206	-109.710	117.984	197.585	163.702	100.367	145.330	0.00086624	0.00066263	0.00014018	1354.8	4.0144e-06	4.2866e-06	1347.3	365.47	7.4722e-06	1.4928e-06	416.86	139.8	120.3	41.444	1.0707e-05	51.22	0.00052334	0.00059888	0.00015714	1370.4	5.6918e-06	6.5619e-06	1370	372.43	5.7961e-06	6.5076e-06	425.42	142.39	123.36	42.687	5.9945e-06	52.716	19.230	-18.760	-41.503	-106.843	-87.534	-8.251	-107.328	-102.520	-28.868	91.855	-102.770	-98.759	-98.401	-93.585	-24.526	-94.473	-8191	255	
417.649	1	1	0	0	0.16661	0.25569	0.14138	0.30689	0.13708	0.12157	0.14574	0.18376	0.059691	0.20336	0.048356	0.18363	0.17077	0.15628	0.014469	0.11739	-3.3563	-4.0583	-3.7938	-3.925	-4.0458	-3.6104	-4.1229	-3.9562	-3.6562	-4.0458	-3.9688	-4.0167	-3.8958	-3.7104	-3.8604	-4.0188	154.205	-0.056	-60.681	237.466	74.858	122.058	156.534	191.753	-68.392	-56.746	232.584	196.842	-101.422	-87.951	24.795	30.064	0.00081824	0.0010252	9.2845e-05	1353.3	2.2735e-06	4.5646e-06	1345.6	365.38	4.1864e-06	4.6002e-06	418.15	139.25	120.6	41.615	3.0767e-06	51.201	0.00055373	0.00060246	0.00015035	1370.5	6.0821e-06	6.5457e-06	1369.5	371.83	6.163e-06	6.4325e-06	425.09	142.29	123.92	42.789	5.8692e-06	52.719	18.366	-49.898	-18.623	-107.028	109.319	-41.886	-107.235	-102.463	-35.945	42.247	-102.929	-98.762	-98.614	-93.332	-115.634	-94.056	-8191	255	
417.745	1	1	0	0	0.11034	0.18541	0.21406	0.22814	0.34265	0.15152	0.41327	0.073276	0.068373	0.1907	0.061257	0.19296	0.10776	0.10087	0.080394	0.1261	-3.3521	-4.0604	-3.7687	-3.8542	-3.9917	-3.5875	-4.1	-3.8854	-3.6917	-4.0146	-3.8875	-3.7438	-4.0792	-3.825	-3.9771	-3.975	-91.363	23.164	-8.839	213.118	24.260	169.845	234.260	-98.004	19.608	219.469	127.646	172.499	204.197	229.182	211.107	55.869	0.0010366	0.0010996	0.00014543	1357.2	3.0036e-06	6.1679e-06	1348.3	366.02	2.4284e-06	6.3467e-06	418.06	138.94	121.37	41.577	4.1363e-06	51.621	0.00058664	0.00057764	0.0001469	1371.7	6.4994e-06	6.2393e-06	1369.1	372.22	6.5239e-06	6.2384e-06	424.73	142.05	124.38	42.698	5.7223e-06	52.832	18.416	-67.176	-34.462	-106.923	-97.220	-6.647	-107.464	-102.537	-8.135	34.978	-103.009	-98.598	-98.270	-93.602	10.420	-94.369	-8191	255	
417.841	1	1	0	0	0.28011	0.19472	0.15517	0.10799	0.19344	0.029913	0.22359	0.059428	0.079196	0.21607	0.23777	0.24307	0.06593	0.15964	0.13564	0.076273	-3.2188	-3.775	-3.8167	-3.8896	-4.0813	-3.6625	-4.0083	-4.0938	-3.6917	-3.9708	-3.9167	-3.8563	-3.8479	-3.7146	-3.9021	-4.0792	-92.368	-1.116	-59.827	-94.178	-42.467	231.385	223.091	201.149	113.171	-61.185	190.194	218.131	124.443	173.660	65.580	-101.766	0.00077048	0.00021102	8.2519e-05	1351.1	2.0789e-06	1.9924e-06	1347.6	366.12	4.9193e-06	8.4898e-06	416.5	139.21	120.95	41.711	7.2013e-06	51.468	0.0006052	0.00055967	0.00014438	1371.4	6.6192e-06	6.0081e-06	1369.3	373.15	6.5386e-06	5.9943e-06	423.9	142.55	124.42	42.726	5.6085e-06	52.95	16.992	31.490	-22.039	-107.125	0.330	33.427	-107.245	-102.405	-87.703	-1.619	-103.075	-98.606	-98.360	-93.446	43.024	-94.468	-8191	255	
417.962	1	1	0	0	0.15982	0.089517	0.10453	0.34343	0.079806	0.23257	0.14222	0.19464	0.14413	0.078462	0.10539	0.066203	0.15909	0.19979	0.074011	0.1587	-3.2833	-4.0062	-3.7313	-3.6437	-4.15	-3.7854	-3.9688	-4.05	-3.6	-3.8688	-4.0021	-3.7542	-4.1375	-3.7896	-3.4896	-4.0563	109.283	132.022	-19.345	219.191	110.557	98.542	146.730	181.471	-35.897	162.769	38.000	40.631	220.033	-116.138	-112.006	-120.175	0.0008315	0.00020849	0.00028574	1356.7	6.8043e-06	5.3572e-06	1345.9	365.89	9.7685e-06	6.4112e-06	417.52	138.94	120.97	41.675	5.0628e-06	51.51	0.00059259	0.0005492	0.00014197	1375	6.4731e-06	5.9201e-06	1368.4	373.5	6.3788e-06	5.8103e-06	424.57	142.68	124.16	42.699	5.6428e-06	53.092	24.781	-112.476	13.854	-106.958	-29.688	15.406	-107.282	-102.397	27.101	10.706	-103.035	-98.607	-98.254	-93.312	-66.431	-94.327	-8191	255	
418.033	1	1	0	0	0.045416	0.069403	0.16909	0.56114	0.12209	0.21015	0.25083	0.24381	0.21848	0.043021	0.12601	0.045832	0.11859	0.1414	0.16901	0.086167	-3.2667	-4.0146	-3.7313	-3.8479	-4.1104	-3.9083	-3.9667	-4.1687	-3.6917	-3.7708	-4.0833	-3.775	-4.1104	-3.9562	-3.7188	-4.0167	-100.899	-18.155	-93.249	216.260	201.142	56.333	-95.940	239.731	230.408	13.365	144.892	175.266	-78.509	-86.141	99.732	107.173	0.00084901	0.00057581	0.00023297	1354.2	9.8543e-06	6.6955e-06	1350.8	365.55	1.0155e-05	6.9346e-06	416.54	139.34	120.68	41.61	3.9689e-06	51.42	0.00057384	0.00052974	0.00014504	1373.4	6.2203e-06	5.768e-06	1371.1	374.08	6.1362e-06	5.7618e-06	424.94	142.92	124.02	42.689	5.9139e-06	53.094	19.739	-53.697	-10.793	-106.890	5.389	-11.756	-107.477	-102.264	-6.058	18.636	-103.012	-98.849	-98.165	-93.356	33.308	-94.243	-8191	255	
418.129	1	1	0	0	0.17659	0.20507	0.041422	0.083581	0.23187	0.1722	0.36129	0.13157	0.10467	0.15665	0.18242	0.22029	0.20885	0.22902	0.32335	0.10582	-3.4417	-3.8583	-3.8854	-3.7833	-3.9167	-3.8583	-3.775	-4.1729	-3.7083	-3.6875	-4.1854	-3.6188	-4.0479	-3.9813	-3.7292	-3.9875	-66.952	-5.108	82.812	165.955	27.517	131.765	184.452	153.827	200.615	2.886	188.115	230.200	186.209	-105.144	205.007	-101.804	0.00093836	0.00067113	5.5993e-05	1354.9	8.5733e-06	6.1197e-06	1349.6	365.32	4.8801e-06	5.6009e-06	416.81	139.82	121.19	41.68	3.071e-06	51.281	0.0005563	0.00052216	0.00015562	1376.1	6.0538e-06	5.611e-06	1371.2	373.53	5.9548e-06	5.6775e-06	426.43	142.84	123.9	42.668	6.3806e-06	53.048	26.114	-19.596	-14.147	-106.841	12.222	61.044	-107.305	-102.350	58.916	-15.979	-103.087	-98.852	-98.356	-93.464	104.057	-94.223	-8191	255	
418.250	1	1	0	0	0.17927	0.23762	0.03372	0.19246	0.12353	0.20807	0.33384	0.10428	0.053008	0.38397	0.26739	0.0513	0.10041	0.22654	0.1596	0.068915	-3.2021	-3.6208	-3.9813	-3.6979	-3.9958	-3.8375	-3.9292	-4.2771	-3.5417	-3.6104	-4.1292	-3.8	-3.95	-4.1021	-3.7188	-4.1458	-89.181	61.520	-46.444	197.524	51.931	130.042	162.479	162.287	26.098	-52.589	201.471	152.823	-67.931	-79.086	195.203	125.565	0.00081342	0.0006741	7.501e-05	1354.3	4.213e-06	6.4287e-06	1346.2	366.31	1.0073e-05	1.998e-06	417.33	139.39	121.29	41.341	7.3219e-06	51.176	0.00054218	0.0005203	0.00016565	1375.3	5.9818e-06	5.7402e-06	1374.3	373.54	5.8697e-06	5.7086e-06	426.99	142.65	123.66	42.592	6.6091e-06	52.856	32.036	-64.327	-108.817	-106.933	17.893	-31.907	-107.581	-102.486	5.883	128.313	-102.898	-98.636	-98.190	-93.313	-42.026	-94.275	-8191	255	
418.346	1	1	0	0	0.31131	0.17886	0.092175	0.24968	0.1788	0.073223	0.24518	0.13465	0.14176	0.15397	0.18386	0.16775	0.26474	0.15691	0.15905	0.16653	-3.4583	-3.7833	-3.9833	-3.8729	-3.8042	-3.975	-3.8458	-4.2375	-3.8042	-3.7271	-4.0958	-3.6437	-3.85	-3.9875	-3.5312	-4.1312	-39.362	93.807	-72.918	184.752	124.077	-62.795	235.068	215.359	228.001	7.748	186.347	199.846	-14.860	-109.800	-19.939	-101.926	0.00078875	0.00034066	0.00012559	1355	6.9327e-06	7.0723e-06	1350.5	366.16	1.3717e-06	6.3651e-06	418.51	139.82	120.73	41.584	1.089e-06	51.205	0.00052904	0.00053832	0.00017155	1373.5	5.8518e-06	6.0751e-06	1375	373.27	5.7194e-06	6.1323e-06	427.26	142.65	123.18	42.745	6.7032e-06	52.813	23.152	-67.569	-76.795	-107.078	-55.046	-22.573	-107.189	-102.318	97.522	33.641	-102.941	-98.862	-98.267	-93.178	48.642	-93.948	-8191	255	
418.442	1	1	0	0	0.085325	0.13349	0.082198	0.086496	0.14538	0.044376	0.11852	0.28705	0.13418	0.13348	0.1878	0.18614	0.13308	0.16686	0.043681	0.16134	-3.4313	-3.7812	-4.1229	-3.7812	-3.6979	-4	-3.7292	-4.0188	-3.8396	-3.5833	-4.0521	-3.8688	-3.6437	-4.0771	-3.525	-4.0917	177.282	-29.018	-101.879	174.489	11.389	-107.547	182.507	187.560	198.350	-64.761	-76.501	212.250	48.903	226.923	200.804	170.428	0.00082106	0.00081512	0.00016281	1356.5	2.9335e-06	3.0003e-06	1347.9	365.58	1.0729e-05	4.5108e-06	416.47	139.75	120.74	41.681	1.1284e-05	51.467	0.00052305	0.00058085	0.0001679	1372.8	5.6394e-06	6.4175e-06	1372	372.9	5.6502e-06	6.498e-06	426.1	142.66	123.26	42.795	6.3509e-06	52.936	25.035	-74.088	-6.823	-106.922	192.935	72.028	-107.403	-102.438	-28.051	38.208	-102.874	-98.749	-98.218	-93.444	54.820	-94.126	-8191	255	
418.538	1	1	0	0	0.1442	0.050299	0.16076	0.17362	0.16218	0.15964	0.095515	0.24304	0.075097	0.2788	0.17015	0.12586	0.29207	0.20467	0.13622	0.19154	-3.3833	-3.5271	-3.9938	-3.8187	-3.8667	-4.15	-3.7562	-3.9938	-3.9792	-3.6875	-4.0583	-4.05	-3.9792	-4.2562	-3.6354	-3.9771	-57.039	194.548	44.141	232.790	210.547	41.652	195.138	149.848	0.652	-1.755	185.110	149.211	210.946	-105.916	137.421	187.555	0.00079375	0.00056878	0.0001615	1354.2	1.9659e-06	8.7294e-06	1351	367.38	4.4484e-06	3.7938e-06	417.98	139.9	120.39	41.492	9.0675e-06	51.193	0.00052623	0.00060612	0.00015997	1371.2	5.8289e-06	6.6671e-06	1372.7	372.85	5.8198e-06	6.7395e-06	425.97	142.42	123.55	42.769	6.0749e-06	52.769	17.428	-91.504	-1.632	-106.871	-0.313	59.185	-107.076	-102.484	-35.024	44.224	-103.223	-99.022	-98.365	-93.446	-10.175	-94.456	-8191	255	
418.633	1	1	0	0	0.14589	0.13199	0.23639	0.2029	0.1649	0.13697	0.26828	0.13726	0.11284	0.066857	0.26159	0.25506	0.079052	0.07261	0.31869	0.1962	-3.6333	-3.6542	-3.7687	-3.7938	-3.5792	-4	-3.8083	-3.8792	-4.0417	-3.7417	-4.0188	-3.9479	-3.65	-4.1687	-3.7542	-3.9167	28.481	209.204	98.686	222.450	165.601	113.533	217.397	220.069	95.149	89.124	-83.999	166.335	13.136	0.056	35.074	191.569	0.00070526	0.0005713	0.00013348	1356.8	5.3835e-06	2.945e-06	1347.9	366.41	4.1519e-06	2.3146e-06	418.54	139.69	120.51	41.517	9.1929e-06	51.533	0.00055983	0.00061421	0.00015617	1373.3	6.1891e-06	6.68e-06	1370.5	372.5	6.2155e-06	6.4935e-06	425.78	142.46	123.98	42.813	5.8922e-06	52.815	22.335	-67.622	-61.383	-107.259	86.710	214.463	-107.227	-102.443	-88.050	101.981	-102.862	-98.617	-98.438	-93.296	-36.471	-94.400	-8191	255	
418.729	1	1	0	0	0.049222	0.051227	0.056676	0.15975	0.19637	0.21651	0.14198	0.27712	0.05351	0.02859	0.12781	0.17384	0.25365	0.22535	0.047185	0.075597	-3.5687	-3.5979	-3.9625	-4.1146	-3.8104	-3.9813	-4.0104	-3.8937	-3.9437	-3.6542	-4.0896	-4.0167	-3.7333	-4.1062	-3.8729	-3.8021	227.733	66.543	-53.114	-109.394	27.848	-94.089	-107.093	170.664	147.365	-109.946	204.741	-50.414	149.221	-104.600	108.959	158.218	0.00090468	0.00063366	0.00010158	1354.8	6.6196e-06	5.2254e-06	1347.9	364.65	9.7368e-06	7.2563e-06	417.78	140.09	121.63	41.722	1.1451e-05	51.348	0.00058841	0.0005879	0.0001506	1372.5	6.5278e-06	6.3256e-06	1370.5	372.16	6.4888e-06	6.2505e-06	425.57	142.57	124.48	42.787	5.6716e-06	52.831	23.404	-47.548	22.435	-106.990	51.199	20.846	-107.279	-102.506	-66.737	3.862	-102.884	-98.756	-98.127	-93.565	1.890	-94.237	-8191	255	
418.850	1	1	0	0	0.1185	0.1405	0.19127	0.39723	0.11269	0.31852	0.14371	0.15854	0.20004	0.039153	0.1981	0.18036	0.18423	0.28777	0.14965	0.13783	-3.5479	-3.5687	-3.7542	-3.9479	-3.4271	-3.9917	-4.0229	-3.8417	-4.1521	-3.6333	-3.9	-4.0125	-3.6646	-3.9896	-4.0125	-3.7021	186.023	97.944	195.228	204.575	-6.323	226.311	158.864	146.465	-39.879	-85.169	-4.286	106.856	-33.481	-90.135	103.204	224.645	0.00058805	0.00074601	0.00012177	1353.5	2.2989e-06	5.3947e-06	1350.2	365.88	7.3526e-06	2.7297e-06	418.67	139.18	121.41	41.641	4.8424e-06	51.509	0.00059402	0.00055411	0.00014412	1373.1	6.5365e-06	6.0115e-06	1369.9	372.88	6.4658e-06	5.9508e-06	424.01	142.35	124.39	42.681	5.5063e-06	52.87	12.945	-76.404	-48.207	-107.108	21.340	52.390	-107.248	-102.425	-13.570	-34.750	-102.896	-98.833	-98.666	-93.380	17.208	-94.284	-8191	255	
418.946	1	1	0	0	0.064646	0.045141	0.17387	0.32464	0.26413	0.10799	0.32194	0.1317	0.065011	0.14634	0.19469	0.16055	0.14817	0.2278	0.11246	0.13318	-3.5375	-3.5062	-3.7104	-4.0521	-3.8083	-3.8875	-4.1438	-3.7854	-3.9521	-3.8021	-3.7979	-4.1562	-3.6771	-3.9188	-3.8833	-3.6167	109.573	164.903	-75.707	219.112	166.650	-98.763	173.217	119.128	4.535	97.454	197.860	172.950	118.027	215.541	213.918	-55.775	0.00065614	0.00057948	0.00010335	1356.1	9.4601e-06	1.2813e-05	1349.6	366.28	8.2322e-06	8.0033e-06	416.42	139.11	120.73	41.58	3.6802e-06	51.466	0.00059556	0.00053749	0.00014293	1375.4	6.48e-06	5.8997e-06	1370.3	373.3	6.4371e-06	5.8291e-06	424.91	142.79	124.02	42.724	5.4974e-06	53.134	24.664	-52.868	6.249	-106.889	-7.529	20.266	-107.272	-102.311	-24.235	29.581	-103.081	-98.705	-98.507	-93.481	-45.853	-94.299	-8191	255	
419.042	1	1	0	0	0.17431	0.041744	0.30063	0.077519	0.10005	0.2205	0.14696	0.34278	0.25477	0.3207	0.11366	0.15121	0.46191	0.071067	0.13027	0.017324	-3.5875	-3.725	-3.5729	-4.2833	-3.5958	-3.9479	-4.1396	-3.7167	-4.0708	-3.8083	-3.8083	-4.1375	-3.7979	-3.8354	-3.8604	-3.7875	10.004	-24.352	88.927	149.845	89.331	-16.530	-104.534	189.575	72.499	-79.445	161.570	227.374	-105.238	7.570	-33.993	237.964	0.0008091	0.00037694	4.1671e-05	1352.5	3.2729e-06	2.6419e-06	1348.7	367.7	8.1611e-06	4.2988e-06	414.96	139.31	121.2	41.647	3.6212e-06	51.546	0.00056984	0.00051952	0.00014193	1373.8	6.1018e-06	5.646e-06	1368.8	373.84	6.0124e-06	5.5561e-06	424.05	142.95	123.54	42.7	5.602e-06	53.125	21.627	-45.309	40.827	-107.155	27.683	111.746	-107.337	-102.520	-81.250	19.399	-103.133	-98.560	-98.284	-93.525	25.055	-94.544	-8191	255	
419.138	1	1	0	0	0.087536	0.14151	0.21318	0.26189	0.27813	0.13174	0.25433	0.24282	0.34078	0.22674	0.1544	0.046101	0.20225	0.058945	0.16358	0.26258	-3.6208	-3.7458	-3.55	-4.0437	-3.7229	-3.6937	-4.0792	-3.5417	-3.8688	-3.8271	-3.7896	-4.0875	-3.7208	-3.7271	-3.8875	-3.6271	113.774	93.487	-97.928	226.817	37.914	-69.377	191.910	213.240	211.419	224.058	-92.889	-32.213	-116.089	-111.138	-93.698	155.465	0.0009553	0.00075299	2.1946e-05	1357.1	5.0196e-06	8.7873e-06	1350.1	366.64	1.4279e-05	6.0688e-06	417.96	139.68	121.48	41.787	2.0595e-06	51.565	0.00054014	0.00049497	0.00014834	1375.2	5.7344e-06	5.4213e-06	1371.9	373.59	5.6949e-06	5.2513e-06	425.35	142.97	123.42	42.616	5.9356e-06	52.986	23.286	-85.355	-50.493	-106.856	-54.641	39.412	-107.240	-102.364	-13.737	-8.539	-103.009	-98.878	-98.509	-93.343	6.112	-94.238	-8191	255	
419.259	1	1	0	0	0.14423	0.079992	0.29249	0.24358	0.1083	0.091079	0.29058	0.066346	0.14431	0.11314	0.032889	0.081254	0.15756	0.17698	0.04992	0.14808	-3.5792	-3.8958	-3.6625	-4.1604	-3.6667	-3.8417	-4.3333	-3.7958	-3.8417	-3.7896	-3.6271	-4.0229	-3.65	-3.9521	-4.0583	-3.7104	224.764	93.250	187.780	189.864	-21.947	229.114	224.420	90.229	25.817	219.082	189.318	-7.057	-18.804	205.462	-46.503	198.079	0.00067089	0.000763	9.7309e-05	1351.6	2.6341e-06	4.5399e-06	1354.1	366.37	5.4705e-06	4.9331e-06	417.09	139	121.86	41.561	1.2513e-06	51.394	0.00052271	0.00048294	0.00015306	1372.3	5.446e-06	5.2144e-06	1369.9	372.5	5.3205e-06	5.1034e-06	424.16	142.13	123.16	42.544	5.9083e-06	52.795	20.236	-31.411	-19.328	-106.859	-116.330	58.289	-107.234	-102.397	123.340	41.284	-102.671	-98.778	-98.330	-93.250	30.877	-94.418	-8191	255	
419.330	1	1	0	0	0.18876	0.092986	0.14862	0.33863	0.081033	0.066023	0.33285	0.15191	0.12348	0.15299	0.13983	0.12692	0.036111	0.29532	0.10815	0.10805	-3.4875	-3.8396	-3.7667	-4.1771	-3.8208	-3.8937	-4.2063	-3.6917	-3.6875	-4.0208	-3.5458	-4.1104	-3.9167	-3.8083	-3.9604	-3.7375	83.448	-38.883	2.240	177.599	91.730	-22.563	168.240	70.548	189.826	118.214	219.561	114.366	50.714	206.246	-42.495	-75.095	0.00077596	0.00051027	9.8382e-05	1340.6	5.3644e-06	4.7702e-06	1335.3	364	9.6078e-06	4.8694e-07	415.96	138.89	120.34	41.417	5.9244e-06	51.278	0.00047595	0.00047081	0.00015092	1358.7	5.0963e-06	5.2461e-06	1358.3	370.04	5.135e-06	5.3415e-06	422.73	141.87	122.21	42.438	5.9569e-06	52.526	28.660	-41.868	16.968	-106.765	-50.894	-12.844	-107.210	-102.528	-2.061	61.491	-102.932	-98.724	-98.029	-93.443	-22.901	-94.159	-8191	255	
419.427	1	1	0	0	0.13555	0.18163	0.027187	0.24201	0.10222	0.14436	0.12439	0.36754	0.072999	0.10943	0.13041	0.028513	0.26535	0.20208	0.10358	0.2327	-3.3542	-4.075	-3.5208	-4.1646	-3.7875	-3.7458	-4.1417	-3.7604	-3.7333	-3.9833	-3.6042	-3.9729	-3.8021	-3.7917	-3.8937	-3.7062	25.291	4.841	165.979	159.814	-99.108	54.754	172.359	205.393	89.517	183.449	126.862	205.881	216.707	169.755	87.592	84.799	0.00091411	0.0003534	0.00013231	1336.6	4.5278e-06	4.7852e-06	1337.9	364.03	2.5221e-06	3.3402e-06	414.99	139.7	120.87	41.492	9.1603e-07	51.185	0.00047201	0.00050844	0.00015019	1355.5	4.9923e-06	5.6836e-06	1356.9	370.05	5.0101e-06	5.6591e-06	422.08	141.76	122.11	42.621	5.5571e-06	52.502	21.884	-114.770	-34.965	-107.090	-49.102	170.694	-107.123	-102.341	-56.094	53.800	-102.685	-98.729	-98.459	-93.427	-69.864	-94.181	-8191	255	
419.523	1	1	0	0	0.10962	0.12616	0.11852	0.24983	0.048447	0.060066	0.20226	0.2594	0.073035	0.085078	0.28508	0.15334	0.10494	0.07661	0.020435	0.16745	-3.3396	-3.8792	-3.5625	-4.2229	-3.8438	-3.7313	-4.3083	-3.8042	-3.6146	-3.9688	-3.6229	-3.9646	-3.8563	-3.9146	-3.9833	-3.8604	227.978	31.240	-116.012	238.150	-30.210	217.004	119.263	126.395	71.974	74.311	195.255	155.454	-89.739	147.409	10.394	162.731	0.00084618	0.00058809	0.00022991	1339.9	5.3762e-06	5.291e-06	1334.3	363.27	8.3159e-06	7.0914e-06	416.19	139.21	120.96	41.68	9.0825e-06	51.525	0.00045967	0.00052954	0.00014122	1354.8	5.036e-06	5.9027e-06	1354.6	369.29	5.1317e-06	5.8544e-06	421.96	141.61	122.54	42.746	5.2719e-06	52.575	22.783	-93.118	1.665	-106.934	-76.273	108.482	-107.321	-102.328	-88.276	-15.162	-103.084	-98.679	-98.237	-93.207	-62.062	-94.454	-8191	255	
419.642	1	1	0	0	0.04095	0.041202	0.16172	0.35456	0.10722	0.20987	0.20096	0.19394	0.057411	0.044879	0.035112	0.27164	0.07804	0.074554	0.071909	0.15853	-3.2042	-4.1646	-3.5667	-3.9313	-3.8688	-3.7542	-4.0604	-3.8896	-3.7208	-4.0229	-3.6875	-3.8542	-4.0417	-3.6625	-3.9625	-3.8438	-33.639	-79.533	148.722	155.214	6.020	188.816	209.882	191.373	156.985	28.260	130.802	171.783	49.168	-64.265	129.583	139.158	0.0007233	0.00078238	0.00021783	1338.3	3.8457e-06	2.2213e-06	1334.6	362.47	3.1557e-06	6.0107e-06	414.03	139.35	120.83	41.501	3.2306e-06	51.12	0.00047234	0.00051991	0.00012966	1352	5.1142e-06	5.586e-06	1351.1	368.27	5.2112e-06	5.499e-06	420.03	141.02	122.4	42.543	4.9989e-06	52.34	11.944	-29.190	-10.507	-106.875	69.245	12.362	-107.288	-102.408	-104.683	-26.291	-103.036	-98.674	-98.129	-93.349	1.499	-94.340	-8191	255	
419.738	1	1	0	0	0.16736	0.2327	0.10335	0.067452	0.1787	0.036661	0.22345	0.28089	0.13685	0.0046729	0.12571	0.17918	0.15735	0.33839	0.10827	0.10896	-3.25	-3.9208	-3.6125	-3.9479	-3.9875	-3.6146	-4.1292	-4.0021	-3.8083	-4.1271	-3.9354	-3.8229	-3.9938	-3.8021	-3.9062	-3.9333	79.714	224.065	-66.326	173.982	-22.771	85.665	235.554	168.546	93.376	203.694	222.641	227.793	164.078	-110.752	-31.221	161.781	0.00086259	0.00044537	7.3651e-05	1333.7	5.9589e-06	1.576e-06	1329.6	362.59	6.8008e-06	1.0832e-05	414.5	138.85	120.9	41.322	5.5735e-06	51.201	0.00049848	0.00050318	0.00012857	1348.8	5.5414e-06	5.4797e-06	1348.8	367.7	5.5528e-06	5.3298e-06	419.58	141.05	122.72	42.362	4.8856e-06	52.384	21.526	-32.736	-81.992	-106.876	-20.555	-16.793	-107.317	-102.478	-39.814	-8.464	-103.031	-98.518	-98.405	-93.627	-14.730	-94.297	-8191	255	
419.834	1	1	0	0	0.061961	0.069516	0.22566	0.24241	0.093121	0.24204	0.1545	0.20468	0.22206	0.095911	0.050699	0.096619	0.087492	0.10718	0.21336	0.23065	-3.2667	-4.0437	-3.6229	-3.7146	-3.9333	-3.7396	-3.9938	-4.1062	-3.4146	-3.9437	-3.8083	-3.8	-4.0458	-3.5646	-3.9146	-4.0104	166.122	-18.170	-29.884	219.544	-104.940	232.172	169.852	-0.558	157.879	0.763	219.132	-64.211	111.141	123.224	-43.468	191.744	0.00089479	0.00024916	0.00013268	1331.1	3.4088e-06	2.6186e-06	1327.7	362.37	6.8326e-06	5.3799e-06	413.25	137.7	119.45	41.249	5.4963e-06	51.292	0.00051731	0.00048564	0.00012289	1346.6	5.7087e-06	5.1953e-06	1345	368.12	5.6662e-06	5.1838e-06	418.34	140.98	122.38	42.309	4.7727e-06	52.453	24.491	-53.891	-47.686	-106.879	-95.875	-4.714	-107.134	-102.409	64.457	70.397	-102.949	-98.830	-98.163	-93.126	-7.086	-94.547	-8191	255	
419.930	1	1	0	0	0.10971	0.15916	0.14146	0.23014	0.22651	0.3285	0.18662	0.087893	0.14739	0.034563	0.13591	0.15468	0.10712	0.21277	0.097488	0.11575	-3.3563	-3.9292	-3.6854	-3.9229	-3.9417	-3.5771	-3.9042	-4.1438	-3.6458	-3.8625	-3.8688	-3.7771	-4.0479	-3.8646	-3.7229	-4.225	230.072	170.999	-111.332	172.271	134.379	-4.542	141.908	-120.239	112.043	28.037	110.881	235.409	102.291	238.086	100.083	121.094	0.0010118	0.00066503	0.00017861	1327.4	4.0855e-07	3.5976e-06	1329.9	363.46	5.6084e-06	4.0302e-06	411.97	138.32	120.6	41.36	2.8286e-06	50.907	0.00051818	0.00046791	0.00012198	1345.5	5.5764e-06	5.0144e-06	1345.1	368.3	5.4905e-06	5.0406e-06	417.78	141.09	122.17	42.225	4.7495e-06	52.471	26.146	-52.583	10.602	-106.977	108.147	10.993	-107.263	-102.369	-71.472	59.350	-102.915	-98.726	-98.445	-93.425	15.265	-94.129	-8191	255	
420.026	1	1	0	0	0.16813	0.12857	0.076928	0.34443	0.25508	0.093713	0.24203	0.082202	0.12815	0.19404	0.12039	0.32864	0.12846	0.11598	0.24461	0.27134	-3.3021	-3.8417	-3.8979	-3.8521	-3.9042	-3.7646	-3.8271	-4.1104	-3.8021	-3.8854	-4.0458	-3.6396	-4.2104	-3.8208	-3.75	-4.1792	-33.341	45.425	215.775	213.827	218.224	204.451	206.488	-66.703	235.807	202.709	-102.976	-87.119	83.981	210.106	5.846	-118.986	0.00085852	0.00070515	8.9439e-05	1332.4	6.5442e-06	3.8562e-06	1321.4	362.32	5.7985e-06	3.2236e-06	411.85	138.28	120.05	41.264	7.7981e-06	51.204	0.00049229	0.0004506	0.00012027	1348.1	5.3643e-06	4.92e-06	1342.4	368.66	5.3021e-06	4.9447e-06	418.5	141.23	121.69	42.219	4.9911e-06	52.547	24.230	-27.750	5.750	-106.882	-45.714	52.157	-107.034	-102.179	-72.204	26.334	-102.769	-98.762	-98.146	-93.365	207.432	-94.054	-8191	255	
420.122	1	1	0	0	0.1748	0.11094	0.083238	0.40335	0.079362	0.15946	0.18862	0.27893	0.19612	0.10085	0.21322	0.23537	0.081219	0.11794	0.061288	0.16799	-3.2333	-3.7833	-3.9875	-3.7812	-3.8417	-3.8042	-3.7958	-3.9396	-3.5979	-3.6625	-4.0333	-3.7042	-3.9729	-3.9083	-3.5708	-4.1125	194.350	188.745	20.114	180.571	192.506	-47.014	173.694	198.992	23.988	-4.892	107.380	122.584	-73.051	-106.294	206.916	-21.319	0.00096308	0.00062407	0.00010057	1332.9	5.8271e-06	4.1447e-06	1323.7	361.3	2.5224e-06	8.3114e-06	413.96	138.59	120.37	41.238	2.4914e-06	51.122	0.00047488	0.00044269	0.00012976	1347.3	5.1494e-06	4.766e-06	1344.4	368.32	5.1351e-06	4.8881e-06	419.91	141.5	122.08	42.209	5.4606e-06	52.493	32.802	-89.168	-38.396	-106.963	3.331	3.979	-107.126	-102.457	6.013	22.625	-103.128	-98.560	-98.224	-93.467	175.427	-94.309	-8191	255	
420.218	1	1	0	0	0.18772	0.074295	0.13785	0.11408	0.14839	0.15751	0.10968	0.14605	0.16827	0.23595	0.36255	0.19453	0.24439	0.16628	0.18476	0.17498	-3.1312	-3.7667	-3.9708	-3.8792	-3.9437	-3.875	-3.8271	-4.0042	-3.6813	-3.7729	-4.1042	-3.7208	-3.8458	-3.9917	-3.5292	-4.1208	-60.800	117.765	125.886	97.572	176.378	124.328	46.656	0.885	-116.443	191.209	208.126	222.720	203.705	114.577	45.322	149.554	0.00078096	0.0005692	4.2757e-05	1336.1	1.5694e-06	3.7369e-06	1330.9	363.26	2.9726e-06	7.2104e-06	414.25	138.78	120.78	41.398	1.585e-06	51.159	0.00047477	0.00044421	0.00014061	1351.4	5.1372e-06	4.9002e-06	1348.8	368.65	5.068e-06	4.9388e-06	421.4	141.31	122.03	42.32	5.6772e-06	52.511	24.431	-91.955	15.472	-106.683	-23.807	16.503	-107.274	-102.304	13.551	84.775	-102.938	-98.642	-98.112	-93.558	-92.212	-94.316	-8191	255	
420.339	1	1	0	0	0.25547	0.14658	0.1966	0.2298	0.10933	0.096529	0.33676	0.23249	0.11565	0.14875	0.30253	0.11418	0.13136	0.048989	0.19119	0.12101	-3.3625	-3.6479	-4.0021	-3.6688	-3.7729	-3.8896	-3.7604	-4.0833	-3.7396	-3.6937	-4.1646	-3.8187	-3.7646	-4.1292	-3.5708	-3.9604	153.043	86.302	-48.171	218.244	-3.713	-95.947	153.744	156.786	151.051	19.699	200.954	191.492	205.431	188.313	164.434	-75.774	0.0007767	0.0001514	0.00015198	1333.7	2.8202e-06	4.7236e-06	1331.9	362.29	1.027e-05	1.8252e-06	414.99	137.97	120.19	41.434	2.6564e-06	51.199	0.00046588	0.00045839	0.00014623	1350	5.0518e-06	5.1019e-06	1351.8	368.55	4.9654e-06	5.1332e-06	422.11	140.92	121.33	42.366	5.7436e-06	52.44	25.295	3.280	2.347	-106.931	55.015	37.410	-107.185	-102.346	16.772	-30.454	-102.884	-98.807	-98.577	-93.425	15.049	-94.246	-8191	255	
420.435	1	1	0	0	0.23127	0.27198	0.20532	0.039256	0.31979	0.17949	0.30897	0.21852	0.031919	0.10127	0.34275	0.10341	0.18109	0.17277	0.10109	0.37947	-3.5083	-3.5938	-4.1021	-3.7271	-3.6854	-3.9562	-3.8583	-4.1167	-3.7958	-3.7812	-4.1542	-3.9	-3.7729	-4.0563	-3.4792	-3.95	155.327	17.848	54.114	-14.785	-55.235	129.194	233.368	172.279	53.669	83.785	181.146	179.265	157.933	230.755	-49.588	173.751	0.00081975	0.00016195	0.00010666	1338	4.4662e-06	5.8868e-06	1330.8	363.56	4.7116e-06	1.6135e-06	414.06	138.4	119.93	41.286	5.1983e-06	51.053	0.00045587	0.00049855	0.00014864	1350.5	4.9801e-06	5.5197e-06	1352.2	369.05	4.922e-06	5.5997e-06	421	141.13	121.67	42.424	5.6729e-06	52.352	33.254	-89.084	-34.502	-106.899	-27.064	65.832	-107.136	-102.692	10.431	-61.746	-102.785	-98.883	-98.365	-93.430	36.149	-94.086	-8191	255	
420.531	1	1	0	0	0.26056	0.18874	0.17259	0.27698	0.034918	0.12285	0.0045512	0.12084	0.1227	0.098991	0.17854	0.20325	0.2844	0.13818	0.1962	0.15952	-3.5917	-3.6167	-4.0208	-3.7896	-3.6396	-3.9	-3.8229	-3.9646	-3.9729	-3.6188	-4.1354	-3.8167	-3.7979	-4.0708	-3.6083	-4.0833	-14.641	-102.159	-21.306	215.075	-46.382	133.369	204.033	174.679	-32.996	-71.813	186.804	-96.708	236.293	156.947	99.828	-51.122	0.00075085	0.00057791	4.2642e-05	1327.6	2.8696e-06	7.0222e-06	1331	363.78	6.4411e-06	5.1271e-06	415.29	138.47	119.71	41.147	1.0622e-05	51.118	0.00046999	0.00053675	0.00014536	1347.2	5.1636e-06	5.9039e-06	1349.5	368.81	5.1305e-06	5.8923e-06	420.73	141.01	121.98	42.426	5.42e-06	52.286	19.549	-79.937	-44.839	-107.065	210.659	40.132	-107.249	-102.223	17.389	9.419	-102.971	-98.767	-98.201	-93.429	13.073	-94.158	-8191	255	
420.628	1	1	0	0	0.12148	0.093977	0.2553	0.037872	0.098961	0.11805	0.15928	0.17681	0.23701	0.24531	0.11791	0.10337	0.12216	0.085148	0.2851	0.022234	-3.5687	-3.6354	-4.0958	-3.8146	-3.625	-4.1104	-3.6875	-3.9333	-4.0021	-3.8542	-4.0208	-3.8958	-3.7167	-4.1208	-3.6375	-3.8187	83.517	-22.751	-68.570	91.498	71.420	56.395	223.670	162.139	-70.290	144.268	182.350	164.403	237.014	228.822	-27.395	-34.562	0.00078188	0.0013587	0.00017897	1328	2.9395e-07	5.31e-06	1327.4	362.88	6.0137e-06	4.3285e-06	413.17	137.73	119.8	41.275	4.6569e-06	50.642	0.00049169	0.00054312	0.00013877	1346.4	5.4414e-06	5.9402e-06	1346.8	367.85	5.4517e-06	5.84e-06	419.49	140.63	122.13	42.368	5.2524e-06	52.204	27.921	-31.737	-9.184	-106.912	-18.510	27.497	-107.125	-102.464	-7.896	43.365	-102.697	-98.575	-98.314	-93.262	-21.041	-94.265	-8191	255	
420.722	1	1	0	0	0.11919	0.15088	0.13393	0.25791	0.12932	0.13467	0.27415	0.15683	0.21269	0.041528	0.13793	0.36232	0.20524	0.30114	0.029693	0.28316	-3.4708	-3.5167	-3.9521	-3.8583	-3.7875	-4.0875	-3.8063	-3.9813	-4.2896	-3.5083	-3.9917	-4.2021	-3.8375	-3.9708	-3.6583	-3.6333	57.624	6.593	-37.290	-98.498	-89.896	-58.866	186.034	134.644	57.189	61.509	-116.231	170.760	-117.957	222.404	236.731	209.949	0.00097677	0.00097334	0.00018218	1333.4	3.493e-06	1.1485e-05	1325.4	362.41	9.2797e-06	5.0337e-06	412.38	137.58	119.67	41.239	8.4274e-06	50.755	0.00051782	0.00052523	0.000134	1345.9	5.7066e-06	5.6964e-06	1345.5	366.84	5.754e-06	5.6623e-06	417.97	140.26	122.12	42.142	5.1882e-06	52.068	14.852	-67.815	-7.829	-107.033	39.343	3.166	-107.257	-102.231	16.111	-66.853	-102.845	-98.516	-97.976	-93.440	1.721	-94.351	-8191	255	
420.818	1	1	0	0	0.064587	0.23462	0.080425	0.12869	0.081936	0.21175	0.044259	0.089635	0.13193	0.059117	0.064454	0.30131	0.08296	0.087911	0.15417	0.16595	-3.4062	-3.5417	-3.8708	-3.9604	-3.7313	-3.9833	-3.8833	-3.725	-4.0396	-3.6167	-3.7792	-3.9792	-3.4813	-4.0458	-3.8479	-3.6521	121.188	-74.565	49.932	234.005	33.205	238.421	153.830	115.592	133.444	-109.862	-112.788	-57.963	214.850	-85.830	202.946	202.918	0.00081741	0.00033001	0.00020562	1328.3	2.1313e-06	2.5945e-06	1324.1	360.8	6.3122e-06	4.8396e-06	413.29	137.69	120.08	40.905	8.4946e-06	50.871	0.00054806	0.00051419	0.00013336	1342	6.0368e-06	5.5975e-06	1342.5	366.97	6.0378e-06	5.4986e-06	418.21	140.36	122.19	42.009	5.0966e-06	52.181	12.590	-103.387	-40.014	-106.805	-100.039	87.670	-107.252	-102.318	-81.377	-46.210	-102.749	-98.726	-98.376	-93.047	-21.941	-94.318	-8191	255	
420.914	1	1	0	0	0.1049	0.18794	0.048736	0.22039	0.19668	0.29113	0.24738	0.25701	0.23176	0.13392	0.20183	0.05134	0.11148	0.18891	0.11732	0.036367	-3.6958	-3.6375	-3.6458	-4.1833	-3.6646	-3.8979	-4.1188	-3.8583	-3.9479	-3.6771	-3.7458	-4.0021	-3.4813	-3.9896	-3.8979	-3.7375	66.711	-64.697	193.229	178.953	176.554	-44.918	153.858	-84.633	59.603	19.408	42.033	72.749	-101.711	203.100	133.399	-55.251	0.00090369	0.00045745	0.00015744	1327.6	3.5177e-06	3.8888e-06	1325.1	362.36	5.7621e-06	5.9598e-06	412.68	137.75	120.07	40.978	6.9782e-06	50.932	0.00056433	0.00050302	0.00013343	1347	6.0724e-06	5.5512e-06	1342.7	368.22	6.0601e-06	5.5029e-06	418.51	141.02	122.46	42.118	5.2193e-06	52.351	17.835	-48.455	-46.528	-106.756	114.022	5.541	-107.238	-102.404	-19.619	14.351	-102.988	-98.954	-98.144	-93.464	-35.488	-94.153	-8191	255	
421.035	1	1	0	0	0.053731	0.31698	0.029745	0.17722	0.15464	0.044759	0.094773	0.31796	0.1173	0.14376	0.099258	0.088366	0.19898	0.14534	0.19947	0.095382	-3.6167	-3.5687	-3.7458	-4.1083	-3.5083	-3.9104	-4.025	-3.4458	-4.0125	-3.5771	-3.8042	-4.1375	-3.6833	-3.8438	-3.8312	-3.6375	-40.371	104.810	37.888	185.917	71.133	51.892	196.967	-107.231	-57.958	-84.194	-106.982	36.401	178.928	-53.411	-11.569	181.661	0.00096386	0.00063545	0.00014849	1330.2	5.8849e-06	8.0553e-06	1333.7	363.41	8.4391e-06	6.2017e-06	412.46	137.98	120.07	41.039	2.1664e-06	50.841	0.00054727	0.00049299	0.00013494	1350.8	5.8456e-06	5.3939e-06	1349.9	369.17	5.7634e-06	5.3119e-06	419.32	141.06	122.06	42.132	5.3862e-06	52.396	30.827	-22.363	-70.065	-106.961	-19.778	6.192	-107.158	-102.122	33.603	-29.531	-102.677	-98.603	-98.379	-93.357	21.885	-94.122	-8191	255	
421.131	1	1	0	0	0.08084	0.15678	0.033977	0.36616	0.15773	0.25254	0.063823	0.22508	0.16022	0.090864	0.066655	0.17514	0.3132	0.20626	0.056797	0.09039	-3.7271	-3.7875	-3.5729	-4.0813	-3.5687	-3.6542	-4	-3.675	-3.9188	-3.7062	-3.7	-4.0667	-3.5646	-3.7938	-3.9938	-3.4479	20.656	14.916	226.287	153.985	-63.562	19.185	-70.329	174.797	-25.185	-23.182	172.532	190.518	147.117	-113.232	157.073	141.947	0.00066174	0.00075362	9.6365e-05	1333.7	5.0188e-06	3.7598e-06	1326.3	361.54	6.8527e-06	1.8991e-06	411.13	137.81	120.25	40.935	1.159e-06	50.794	0.00052671	0.00047461	0.00014201	1351.6	5.5998e-06	5.2694e-06	1346.2	368.73	5.5138e-06	5.1153e-06	418.63	140.68	121.78	41.988	5.7068e-06	52.225	17.196	-82.549	-114.416	-106.921	-112.695	50.865	-107.233	-102.217	42.479	-9.637	-102.916	-98.422	-98.510	-93.147	-57.279	-94.443	-8191	255	
421.203	1	1	0	0	0.1778	0.012761	0.12374	0.13734	0.18191	0.14897	0.049864	0.012883	0.22054	0.16919	0.14507	0.1617	0.17621	0.172	0.057416	0.21178	-3.6417	-3.8146	-3.525	-4.0833	-3.6479	-3.7125	-4.0833	-3.6667	-3.8187	-3.8208	-3.5687	-3.925	-3.7562	-3.7	-4.0312	-3.6479	-92.940	-81.781	-20.275	204.745	153.574	5.110	164.107	110.176	-28.796	228.218	-16.554	76.208	-104.636	189.557	95.636	169.299	0.00072568	7.3332e-05	0.0001257	1324	7.9649e-06	3.9441e-06	1325.5	361.64	3.6892e-06	5.6184e-06	410.94	138.17	120.62	40.967	2.5785e-06	50.722	0.0005014	0.00046652	0.00014762	1344.9	5.3106e-06	5.1201e-06	1344.6	367.73	5.3677e-06	5.1039e-06	418.86	140.8	121.54	41.973	6.0509e-06	52.178	20.063	-80.755	-30.841	-106.800	-32.472	172.885	-107.127	-102.326	61.623	-27.525	-102.789	-98.889	-98.193	-93.373	98.844	-94.035	-8191	255	
421.299	1	1	0	0	0.051408	0.13202	0.14114	0.20236	0.13936	0.36735	0.11132	0.074332	0.056196	0.30899	0.040318	0.15386	0.14181	0.33089	0.026023	0.14916	-3.5979	-3.9354	-3.5354	-4.0521	-3.7938	-3.6958	-4.1354	-3.6562	-3.8271	-3.8833	-3.6896	-3.9875	-3.7687	-3.6667	-4.0062	-3.6708	93.405	122.460	148.118	201.679	169.702	-113.519	152.648	201.356	48.928	-34.903	221.606	-92.226	152.064	208.909	-12.050	-109.063	0.00069678	0.00048756	0.00010854	1329.3	8.4235e-06	3.1207e-06	1327.9	359.35	4.5561e-06	7.2056e-06	410.25	137.91	119.16	40.972	4.6748e-06	50.903	0.0004962	0.00048132	0.00015562	1345.2	5.2962e-06	5.367e-06	1346.4	367.14	5.2624e-06	5.4649e-06	419.09	140.4	121.33	42.004	6.0673e-06	52.14	36.063	37.196	-45.590	-106.832	-63.427	6.473	-107.139	-102.281	-52.455	33.846	-103.095	-98.761	-98.102	-93.366	-8.324	-94.272	-8191	255	
421.419	1	1	0	0	0.076364	0.20353	0.040815	0.078248	0.19782	0.13559	0.42069	0.070722	0.19814	0.20803	0.44601	0.14225	0.23727	0.036625	0.14028	0.15214	-3.3417	-3.9146	-3.5625	-4.0312	-3.6667	-3.8167	-4.1146	-3.6021	-3.7229	-3.8167	-3.8021	-3.7646	-3.8917	-3.6208	-3.9437	-3.7812	-74.745	-101.279	63.751	-112.983	169.953	25.755	216.260	18.888	19.232	77.968	219.138	188.347	-78.565	120.008	-15.194	93.796	0.00052593	0.00035805	0.00015159	1327.1	7.4847e-06	1.8835e-06	1319.7	360.55	7.2257e-06	3.2668e-06	410.69	136.81	119.25	40.888	4.503e-06	50.88	0.00048323	0.00051409	0.00015507	1343.4	5.1839e-06	5.7527e-06	1342.7	366.75	5.2128e-06	5.8206e-06	418.69	140.07	121.09	42.142	5.9002e-06	52.064	29.576	5.369	-35.383	-106.676	-46.483	106.573	-107.263	-102.217	55.302	17.620	-103.094	-98.824	-98.466	-93.381	-1.196	-94.279	-8191	255	
421.516	1	1	0	0	0.1663	0.14844	0.25955	0.058076	0.17241	0.25448	0.1809	0.42192	0.31414	0.09156	0.11578	0.35804	0.087247	0.11382	0.21687	0.10914	-3.3792	-4.0396	-3.4042	-3.8896	-3.9354	-3.6042	-4.1896	-3.8688	-3.6729	-4.0125	-3.6854	-3.9938	-3.9333	-3.5271	-3.9542	-3.8167	-45.951	161.087	4.293	231.379	79.584	10.068	-97.055	196.199	-108.429	-61.201	-81.342	-106.894	211.572	130.331	53.239	177.457	0.001116	0.00026292	0.0001345	1329.5	8.963e-06	6.1852e-06	1320.8	360.78	4.6152e-06	2.1351e-06	411.62	137.61	119.08	40.926	5.0857e-06	50.723	0.00048146	0.00055086	0.00014905	1343.6	5.2125e-06	6.1146e-06	1343.1	366.52	5.2475e-06	6.0737e-06	417.99	140.13	120.94	42.144	5.6433e-06	52.029	24.487	192.451	-53.071	-106.948	-21.783	25.109	-107.224	-102.250	56.507	-93.957	-102.728	-98.625	-98.402	-93.419	-23.072	-94.083	-8191	255	
421.612	1	1	0	0	0.14337	0.18615	0.14044	0.2376	0.15055	0.17008	0.32879	0.22807	0.16858	0.13293	0.08987	0.13457	0.14231	0.11543	0.12484	0.037662	-3.2938	-3.8854	-3.6	-3.8667	-4.0292	-3.6125	-4.1562	-3.8979	-3.5625	-4.0146	-3.8125	-3.6562	-4.0042	-3.6917	-3.9396	-4.0708	-2.553	41.510	-61.563	215.947	-10.016	136.510	235.049	191.930	124.612	45.568	186.847	179.608	236.433	226.469	140.678	108.327	0.00099793	0.00073039	0.00025533	1326.8	5.0058e-06	4.7532e-06	1323.3	361.05	7.1997e-06	2.0931e-06	410.31	137.11	119.78	40.901	6.038e-06	50.722	0.00049947	0.00055507	0.00014128	1341.4	5.4321e-06	6.0744e-06	1341	366.74	5.5613e-06	5.9005e-06	418.05	139.83	121.58	42.117	5.472e-06	51.906	20.732	-49.843	-49.431	-106.811	198.254	49.662	-107.095	-102.475	5.992	20.700	-102.689	-98.546	-98.246	-93.251	22.541	-93.969	-8191	255	
421.731	1	1	0	0	0.22139	0.20276	0.040957	0.3978	0.075567	0.23848	0.22426	0.19043	0.16016	0.19178	0.073663	0.1753	0.024833	0.23066	0.086753	0.20333	-3.1708	-3.9083	-3.7625	-3.8833	-3.8396	-3.6437	-4.0167	-4.0208	-3.6521	-4.1438	-3.8229	-3.9167	-4.0646	-3.5271	-3.8979	-3.9229	111.461	184.456	-33.530	189.130	75.288	181.758	193.455	-81.896	199.616	220.916	25.436	162.729	220.677	162.215	-58.645	168.132	0.00098594	0.00077233	8.1304e-05	1327.9	8.2847e-07	5.0631e-06	1318.9	360.85	8.0139e-06	6.9969e-06	408.92	136.95	118.97	40.946	6.7965e-06	50.916	0.00053175	0.00055092	0.00014017	1341.2	5.9409e-06	5.9514e-06	1340.3	366.61	5.9602e-06	5.8642e-06	417.17	140.01	121.84	42.099	5.4367e-06	52.065	21.077	-30.600	32.086	-106.996	86.054	27.927	-107.307	-102.375	21.281	-8.536	-103.141	-98.905	-98.029	-93.264	-4.290	-94.300	-8191	255	
421.802	1	1	0	0	0.19818	0.3174	0.19617	0.36508	0.14785	0.32291	0.1395	0.054976	0.087802	0.006228	0.16307	0.27287	0.20825	0.11776	0.1746	0.029319	-3.2042	-3.7188	-3.6479	-3.8542	-4.0375	-3.5479	-3.95	-3.9854	-3.6104	-4.0083	-3.9208	-3.7812	-4.1062	-3.7292	-3.65	-4.1562	-35.265	-13.474	-92.312	221.710	-28.108	78.412	173.536	52.029	231.196	193.160	58.329	161.397	221.973	-89.947	117.243	-41.808	0.00076395	0.00077378	1.8725e-05	1324.5	6.3673e-06	7.8653e-06	1323.2	360.59	5.4118e-06	6.1667e-06	410.42	137.33	119.5	41	2.3401e-06	50.619	0.00056134	0.00052728	0.00013542	1340.2	6.1664e-06	5.7039e-06	1341.2	366.86	6.1181e-06	5.6523e-06	417.37	140.1	122.21	42.031	5.2631e-06	52.141	30.594	-73.798	-69.957	-106.852	-38.672	29.695	-107.091	-102.362	-31.881	17.634	-102.651	-98.450	-98.250	-93.197	-12.273	-94.077	-8191	255	
421.900	1	1	0	0	0.32253	0.22598	0.11657	0.050556	0.27135	0.20606	0.28856	0.19133	0.049122	0.29789	0.11547	0.2173	0.13582	0.40001	0.16784	0.094792	-3.2625	-3.9583	-3.8312	-3.8167	-4.1229	-3.7333	-3.9437	-4.0208	-3.5104	-3.8979	-3.9896	-3.7062	-4.0563	-3.6771	-3.8438	-4.0792	203.351	216.435	210.851	-77.052	13.250	116.698	-119.632	146.116	199.594	96.169	188.689	-72.281	211.167	-105.983	185.532	215.478	0.00066222	0.00066723	7.0237e-05	1323.5	7.9904e-06	9.625e-06	1318	360.66	6.8181e-06	3.6429e-06	411.33	137.69	120.02	40.93	6.9857e-06	50.937	0.00056816	0.00051581	0.00013235	1343	6.1501e-06	5.5005e-06	1338.8	367.4	6.166e-06	5.5323e-06	417.51	140.59	122.29	41.97	5.3178e-06	52.285	19.563	-84.097	-25.540	-106.831	-56.585	-16.594	-107.190	-102.256	-45.748	-18.953	-102.900	-98.704	-98.114	-93.127	-51.241	-94.259	-8191	255	
422.019	1	1	0	0	0.09298	0.10841	0.13941	0.27419	0.12047	0.054764	0.2315	0.12806	0.039571	0.083769	0.2061	0.098666	0.066274	0.08701	0.21107	0.15345	-3.1312	-3.9813	-3.7542	-3.7771	-4.2	-3.7083	-3.7958	-4.0583	-3.7333	-3.9604	-3.8542	-3.7771	-4.0417	-3.9729	-3.7062	-3.9146	-6.043	-114.106	54.335	194.748	-34.620	130.569	127.498	129.528	-10.049	-111.441	86.214	158.496	154.870	-72.355	80.545	61.650	0.00077953	0.00062772	0.00013046	1325.2	9.4752e-06	2.6338e-06	1326	360.84	7.2767e-06	6.768e-06	410.89	137.55	119.32	40.913	9.6408e-06	50.45	0.00055721	0.0005079	0.00013447	1347.6	6.0281e-06	5.4738e-06	1343.7	368.02	5.9114e-06	5.4422e-06	418.06	140.65	121.64	41.97	5.4336e-06	52.179	30.659	-38.931	-13.239	-106.853	-7.444	-2.148	-107.126	-102.353	38.696	3.084	-102.615	-98.660	-98.325	-93.272	-9.405	-94.102	-8191	255	
422.115	1	1	0	0	0.045971	0.10305	0.20845	0.13565	0.049987	0.033638	0.25709	0.20191	0.22278	0.22925	0.14179	0.26424	0.22236	0.22581	0.15778	0.2731	-3.1625	-3.6458	-3.7125	-3.7708	-4.0792	-3.8354	-3.7354	-3.9729	-3.5292	-3.9542	-4.0667	-3.7917	-3.7792	-3.9313	-3.6125	-4.1292	28.585	69.186	-42.616	114.886	190.002	41.036	177.007	157.731	-11.420	-86.237	-114.950	-114.628	-81.497	177.759	206.945	180.341	0.00064502	0.0010888	0.00010973	1324.7	1.9893e-06	4.2558e-06	1322.2	359.15	4.1568e-06	1.7572e-06	409.43	137.45	118.8	40.982	3.7634e-06	50.531	0.00053376	0.00049331	0.00013899	1344.5	5.7575e-06	5.2587e-06	1342.8	367.92	5.6703e-06	5.3204e-06	417.78	140.74	121.74	41.923	5.8485e-06	52.224	20.149	-63.549	32.070	-106.832	-76.364	36.539	-107.030	-102.147	8.708	23.593	-102.914	-98.715	-98.283	-93.317	-80.134	-94.434	-8191	255	
422.211	1	1	0	0	0.32177	0.22896	0.059753	0.11961	0.11333	0.14808	0.047301	0.27636	0.079902	0.17833	0.14224	0.026572	0.063487	0.10713	0.11756	0.17541	-3.0833	-3.6167	-4.0479	-3.7729	-4.0333	-3.9437	-3.9667	-4.175	-3.7104	-3.8042	-4.0896	-3.65	-3.8792	-4.0625	-3.6021	-4.1521	-51.389	-116.900	134.032	209.649	110.565	44.290	-25.646	127.631	133.811	203.499	51.148	-87.149	-12.103	-55.899	-38.803	123.694	0.0009493	0.00059525	6.5457e-05	1326.7	1.4313e-06	4.1089e-06	1317.8	361.4	4.507e-06	1.1328e-05	410.35	136.75	119.18	40.932	8.9063e-07	50.437	0.00052043	0.00048977	0.00015327	1345.3	5.6384e-06	5.3369e-06	1343.2	367.92	5.5673e-06	5.3232e-06	418.6	140.37	121.39	41.939	6.2068e-06	52.101	32.937	-25.164	-75.267	-106.883	11.414	-3.055	-107.168	-102.191	26.465	-23.074	-102.941	-98.626	-98.189	-93.311	205.584	-94.209	-8191	255	
422.332	1	1	0	0	0.17999	0.18829	0.21876	0.26154	0.10668	0.14134	0.29966	0.17715	0.1494	0.15225	0.30519	0.059262	0.032313	0.41774	0.048528	0.21145	-3.4562	-3.6521	-3.8167	-3.675	-3.75	-3.8042	-3.7917	-4.0604	-3.6583	-3.5771	-3.9208	-3.6833	-3.8958	-3.9458	-3.5292	-4.0104	112.615	39.786	-31.617	238.086	47.155	66.910	148.479	53.887	28.480	73.365	172.823	80.015	171.307	216.149	134.725	107.024	0.00071258	0.00063874	0.00014845	1320.4	6.413e-06	1.9043e-06	1323	360.07	4.3034e-06	2.5303e-06	410.66	137.33	119.09	40.715	9.2483e-06	50.785	0.00051	0.00050199	0.00016076	1343.8	5.5949e-06	5.5814e-06	1345.5	366.9	5.4684e-06	5.6454e-06	419.52	140.25	121.15	41.932	6.3625e-06	52.078	26.233	-118.652	-80.188	-107.034	3.976	-46.512	-107.246	-102.499	-42.346	231.123	-102.953	-98.457	-98.098	-93.599	13.388	-94.224	-8191	255	
422.428	1	1	0	0	0.14876	0.054507	0.17739	0.30207	0.032198	0.29531	0.24515	0.32939	0.064754	0.42631	0.12571	0.34771	0.13235	0.043781	0.088534	0.11449	-3.4354	-3.6771	-4.0583	-3.8646	-3.8979	-4.1125	-3.8354	-3.9458	-3.8063	-3.5979	-4.1271	-3.6667	-3.9083	-3.9229	-3.7104	-4.0104	134.115	166.987	23.547	216.221	177.616	50.345	145.158	168.348	-55.342	-39.419	68.536	149.178	-100.197	136.706	90.651	-119.560	0.00068006	0.00022938	0.00017493	1322.8	2.4013e-06	8.6202e-06	1321.3	362.14	6.8841e-06	4.8493e-06	409.1	136.53	119.32	40.933	9.8662e-06	50.424	0.00050175	0.00053776	0.00016331	1345.2	5.421e-06	5.9261e-06	1343.7	367.41	5.3657e-06	5.9912e-06	419.05	139.96	121.05	42.044	6.1774e-06	52.037	27.765	2.879	19.740	-106.636	-31.940	31.323	-107.380	-102.273	20.824	-1.387	-102.801	-98.507	-98.624	-93.361	6.744	-94.138	-8191	255	
422.500	1	1	0	0	0.069828	0.1764	0.13866	0.18299	0.31032	0.19662	0.26379	0.21384	0.23783	0.077608	0.13502	0.15747	0.18033	0.072806	0.18405	0.067076	-3.4333	-3.7062	-4.1937	-3.8021	-3.8167	-4.125	-3.8375	-4.0854	-3.9375	-3.6375	-4.0938	-3.75	-3.65	-4.0375	-3.6042	-3.9146	95.784	214.970	34.294	207.603	133.466	14.944	171.758	218.138	13.222	173.186	-63.306	-118.597	8.782	209.732	-2.853	4.156	0.00080274	0.00061054	0.00024402	1325	2.5547e-06	4.4498e-06	1319.7	361.23	2.8636e-06	3.0677e-06	408.69	137.26	119.06	40.858	3.6617e-06	50.65	0.00049757	0.00056924	0.00015659	1344.3	5.4244e-06	6.3152e-06	1342.4	367.06	5.4598e-06	6.3023e-06	418.3	140.14	121.22	42.092	5.8823e-06	52.047	26.682	-77.228	-17.118	-106.740	-112.432	94.833	-107.140	-102.470	65.873	0.366	-102.956	-98.660	-98.351	-93.072	59.078	-94.142	-8191	255	
422.620	1	1	0	0	0.067292	0.18198	0.16972	0.33235	0.2825	0.33996	0.18988	0.43657	0.071414	0.21001	0.24801	0.11024	0.12175	0.32573	0.22831	0.27293	-3.5	-3.6229	-3.8958	-3.8771	-3.7229	-4.0083	-3.7708	-3.8875	-3.9208	-3.4875	-4.1479	-3.9333	-3.6312	-4.1958	-3.6312	-3.8937	144.208	110.978	50.405	147.780	-109.428	181.131	159.283	112.243	32.398	-118.449	183.753	-31.204	128.297	194.634	47.778	160.993	0.00079569	0.00044018	0.00013561	1327	1.9303e-06	7.143e-06	1324.8	361.48	1.4372e-06	4.454e-06	411.44	137.47	118.58	41.08	5.5148e-06	50.569	0.0005152	0.00058799	0.00015113	1343.7	5.7504e-06	6.3832e-06	1343.4	367.25	5.7825e-06	6.4114e-06	418.08	139.86	121.66	42.186	5.729e-06	51.944	22.592	-59.759	-51.142	-106.896	187.339	-111.132	-107.239	-102.463	-91.631	39.381	-102.798	-98.712	-98.229	-93.194	14.149	-93.845	-8191	255	
422.715	1	1	0	0	0.32179	0.28159	0.1315	0.14793	0.10135	0.17902	0.19005	0.3105	0.1636	0.14433	0.25091	0.29454	0.13824	0.19162	0.16131	0.1482	-3.5875	-3.3792	-3.9667	-3.8812	-3.575	-3.9479	-3.8396	-3.825	-3.9292	-3.6208	-4.1	-3.925	-3.6583	-4.0792	-3.6083	-3.8792	231.843	147.782	-84.346	-42.491	157.415	74.697	138.996	164.946	143.866	1.235	-45.164	163.157	-27.729	219.398	62.586	177.475	0.00094282	0.0011169	0.0001421	1326.7	3.5189e-06	2.4096e-06	1317.7	361.22	2.7214e-06	8.3732e-06	409.92	137.03	118.5	40.928	3.1937e-06	50.587	0.00055374	0.00057525	0.00014725	1343.5	6.1266e-06	6.2997e-06	1342.9	366.45	6.168e-06	6.0917e-06	417.84	139.85	121.9	42.051	5.5791e-06	51.977	22.077	-18.357	-48.914	-106.759	207.352	47.190	-107.085	-102.369	82.375	26.094	-102.950	-98.534	-98.208	-93.239	-89.616	-94.030	-8191	255	
422.811	1	1	0	0	0.20615	0.18151	0.28222	0.23501	0.35541	0.13436	0.33676	0.16146	0.25929	0.19559	0.032586	0.18874	0.12191	0.044442	0.051651	0.21404	-3.7562	-3.5312	-3.7083	-3.9292	-3.4354	-4.1375	-4.0458	-3.7521	-4.2292	-3.5938	-3.9667	-3.9271	-3.4917	-4.025	-3.7	-3.7083	187.858	-94.589	82.429	144.206	212.989	211.396	162.056	155.613	5.608	33.398	149.385	153.596	-46.949	-90.029	88.642	231.276	0.00086877	0.00027605	8.0599e-05	1328.6	5.8356e-06	3.5249e-06	1324.7	361.33	4.0795e-06	5.0846e-06	410.94	137.09	118.45	40.899	6.2224e-06	50.595	0.00057986	0.00055192	0.0001429	1345.9	6.4097e-06	5.9829e-06	1342.2	367.65	6.3395e-06	5.9218e-06	417.51	139.94	122.13	41.997	5.4686e-06	52.031	30.711	233.306	-51.943	-106.856	-16.243	52.643	-107.182	-102.397	96.331	7.843	-102.846	-98.706	-98.224	-93.538	12.068	-94.302	-8191	255	
422.907	1	1	0	0	0.20413	0.1469	0.18198	0.17905	0.30889	0.028634	0.067111	0.30201	0.10395	0.19943	0.17411	0.14635	0.22908	0.18739	0.33967	0.14122	-3.6083	-3.5521	-3.5979	-4.1062	-3.4938	-3.9562	-3.8542	-3.5625	-3.9521	-3.4125	-3.7542	-4.075	-3.4917	-4.025	-3.6875	-3.6437	8.646	-119.179	-38.986	213.277	239.270	-21.757	-39.470	166.829	208.659	-42.973	-102.075	173.914	151.782	225.568	230.404	174.683	0.00072737	0.00051432	0.00019467	1329.7	2.0196e-06	6.9599e-07	1320.7	360.67	7.8296e-06	2.5159e-06	411.47	137.14	119.54	40.802	5.531e-06	50.672	0.00058944	0.00052867	0.00013911	1345.8	6.4004e-06	5.8379e-06	1342.2	367.3	6.3004e-06	5.703e-06	417.5	140.39	121.99	41.955	5.3267e-06	52.216	32.151	-28.577	-16.164	-106.769	15.295	38.301	-107.363	-102.241	12.556	151.483	-102.866	-98.722	-98.242	-93.377	-43.008	-94.019	-8191	255	
423.003	1	1	0	0	0.024452	0.348	0.17034	0.20856	0.048964	0.19626	0.25529	0.23692	0.099182	0.19389	0.22149	0.12353	0.08073	0.035086	0.1606	0.021531	-3.4958	-3.5187	-3.6917	-4.0646	-3.4333	-3.8896	-4.0458	-3.6458	-3.8917	-3.7687	-3.7938	-4.0542	-3.6417	-3.8917	-3.8958	-3.6271	149.978	-3.138	187.855	169.621	165.625	-109.078	207.952	168.753	194.725	-80.520	222.538	127.124	95.517	-86.406	34.225	141.680	0.00067734	0.00029806	0.00013147	1326.7	1.1646e-05	7.7261e-06	1324.4	361.21	6.2587e-06	4.3736e-06	409.04	136.48	118.62	40.796	2.3044e-06	50.6	0.00057002	0.00051768	0.00013739	1347.9	6.1395e-06	5.6965e-06	1343.1	367.81	6.0345e-06	5.5765e-06	416.72	140.46	121.35	41.907	5.5127e-06	52.177	26.072	-14.537	-31.906	-106.687	-44.853	65.445	-107.163	-102.385	51.244	40.090	-103.136	-98.625	-98.039	-93.427	19.299	-94.268	-8191	255	
423.099	1	1	0	0	0.24533	0.10012	0.14892	0.20867	0.034751	0.24303	0.23056	0.33749	0.12572	0.098626	0.087702	0.20469	0.044009	0.30723	0.20183	0.21226	-3.6521	-3.6354	-3.7021	-4.1125	-3.575	-3.8333	-4.2458	-3.775	-3.8208	-3.8604	-3.8104	-3.9229	-3.5292	-3.7125	-3.9333	-3.6333	168.427	221.105	211.529	61.660	101.223	127.748	63.184	227.782	-79.998	67.324	40.581	227.440	21.184	-116.417	200.368	73.316	0.0007777	0.00040973	0.00013865	1324.8	1.683e-06	5.5548e-06	1316.3	362.17	8.2505e-06	2.7622e-06	409.17	137.16	118.82	40.907	7.6048e-06	50.562	0.00055017	0.00050192	0.00014363	1346.3	5.7498e-06	5.4415e-06	1339.5	368.35	5.6103e-06	5.1536e-06	417.37	140.29	121.19	41.924	5.643e-06	52.074	30.618	-58.417	-73.949	-106.939	-57.579	62.553	-107.257	-102.457	-59.109	22.384	-102.926	-98.659	-98.442	-93.322	16.219	-94.373	-8191	255	
423.196	1	1	0	0	0.29368	0.22428	0.1797	0.20982	0.18636	0.19493	0.07821	0.17898	0.22364	0.034962	0.25998	0.33443	0.042311	0.16387	0.074751	0.34476	-3.5	-3.8312	-3.6583	-4.1042	-3.5563	-3.6542	-4.2646	-3.7021	-3.9146	-3.8042	-3.8521	-4.1292	-3.6854	-3.8	-3.9896	-3.4354	106.583	232.503	-113.957	192.834	178.127	-40.030	6.639	178.677	228.340	78.041	158.097	-70.353	208.434	179.459	-16.866	227.735	0.00085946	0.00037007	0.00018016	1321	1.8274e-06	3.1957e-06	1319.7	360.38	5.0013e-06	2.5991e-06	411.44	137.56	119.13	40.994	4.9084e-06	50.833	0.0005044	0.00046574	0.00014642	1340.9	5.4921e-06	5.2222e-06	1339.3	367.28	5.4599e-06	5.1427e-06	418.4	140.27	121.18	41.971	6.0388e-06	52.168	23.356	-72.249	-85.550	-106.710	12.397	52.520	-107.204	-102.329	30.711	28.980	-102.896	-98.635	-98.417	-93.370	-5.879	-94.297	-8191	255	
423.292	1	1	0	0	0.054605	0.042442	0.27961	0.15778	0.22054	0.26735	0.18675	0.047136	0.057933	0.10821	0.19841	0.15787	0.10085	0.093983	0.13179	0.057945	-3.4854	-3.7	-3.5958	-4.1813	-3.7042	-3.4833	-4.1667	-3.6729	-3.6271	-3.8021	-3.6854	-3.9688	-3.7854	-3.7479	-4.0938	-3.8667	-25.997	214.723	118.149	166.748	-68.877	187.431	148.466	234.374	106.639	-36.325	-115.430	-86.471	-88.733	60.042	70.357	124.157	0.00090901	0.00063328	0.00012151	1328	2.4843e-06	1.4915e-06	1322.6	361.82	8.2404e-06	3.3708e-06	410.05	136.87	119.58	40.915	3.5173e-06	50.669	0.00050453	0.00047924	0.00015503	1344.5	5.3995e-06	5.3786e-06	1344.7	368.06	5.4119e-06	5.4083e-06	419.45	140.24	120.95	42.021	6.1509e-06	52.112	23.372	-21.400	33.350	-106.938	4.567	17.932	-107.112	-102.359	8.420	31.303	-102.630	-98.493	-98.309	-93.323	2.821	-94.128	-8191	255	
423.412	1	1	0	0	0.19724	0.10157	0.19464	0.015253	0.03259	0.18125	0.34944	0.32973	0.1397	0.074758	0.22974	0.22364	0.054866	0.21396	0.17633	0.058261	-3.5167	-3.8021	-3.5479	-4.0292	-3.7625	-3.5354	-4.2375	-3.7062	-3.8333	-3.9083	-3.7042	-3.9646	-3.7354	-3.7042	-3.8875	-3.8063	230.880	101.153	138.533	134.724	46.754	22.782	150.058	195.291	175.484	-75.722	-64.886	-12.638	87.043	-40.075	237.678	74.357	0.00078976	0.00035202	0.00015652	1330.5	5.2868e-06	5.1545e-06	1321.6	361.98	6.1584e-06	2.0099e-06	410.58	137.39	119.25	40.873	8.5568e-06	50.635	0.00049108	0.00051228	0.00015704	1346.6	5.1778e-06	5.6841e-06	1344.8	367.69	5.1701e-06	5.6964e-06	418.96	140.17	121.13	42.085	5.939e-06	52.01	24.808	-44.728	27.222	-106.793	-10.674	65.846	-107.202	-102.254	12.532	228.011	-103.231	-98.628	-98.232	-93.482	-38.691	-94.207	-8191	255	
423.509	1	1	0	0	0.19327	0.2202	0.23438	0.36056	0.13295	0.19143	0.20184	0.15582	0.20546	0.076828	0.27334	0.18941	0.31493	0.26238	0.16194	0.13615	-3.2938	-4.0833	-3.6333	-3.925	-3.8667	-3.5438	-4.1562	-3.9021	-3.4771	-3.9896	-3.8229	-3.8979	-3.9188	-3.6292	-3.8667	-3.9021	-92.031	122.925	3.802	196.619	171.760	-27.872	174.190	211.338	84.547	111.907	-106.017	227.228	198.272	-116.053	149.494	-45.850	0.00066757	0.00038408	0.00013787	1327.9	3.4238e-06	5.8879e-06	1320.5	362.42	1.7545e-06	5.812e-06	409.24	137.42	119.17	40.823	6.2703e-06	50.666	0.00047593	0.00053867	0.00014797	1341.7	5.1747e-06	5.9307e-06	1343.3	367.98	5.198e-06	5.9801e-06	417.9	140.05	121.04	42.05	5.6666e-06	52.052	36.002	-0.874	-4.312	-106.967	-15.214	-15.893	-107.188	-102.460	97.597	19.402	-102.817	-98.804	-98.159	-93.223	47.351	-94.140	-8191	255	
423.603	1	1	0	0	0.10249	0.21346	0.19998	0.047172	0.14322	0.13007	0.11683	0.26827	0.096749	0.095089	0.19458	0.22684	0.24273	0.33725	0.10108	0.26406	-3.2646	-3.9437	-3.6146	-3.9125	-3.9062	-3.5062	-4	-3.7687	-3.45	-4.0563	-3.8083	-3.6813	-3.9667	-3.4729	-3.8958	-3.9125	141.721	-116.970	-99.907	131.366	191.298	15.155	177.727	128.929	-92.931	103.829	103.801	-103.027	221.873	-82.606	-40.682	169.952	0.00083298	0.0010232	0.00017039	1328	2.1721e-06	7.7746e-06	1319.8	361.42	4.8879e-06	5.1442e-06	409.24	136.79	119.14	40.985	8.829e-06	50.997	0.00049069	0.00055427	0.00014113	1340.2	5.3614e-06	6.051e-06	1339.1	366.51	5.4398e-06	6.0453e-06	416.93	139.81	121.44	42.042	5.4246e-06	52.015	21.302	-72.659	-6.537	-106.820	53.494	2.235	-106.994	-102.276	-30.182	-7.830	-102.769	-98.515	-98.553	-93.330	-37.754	-94.322	-8191	255	
423.701	1	1	0	0	0.013719	0.046575	0.17932	0.053162	0.075195	0.048088	0.13371	0.25534	0.052838	0.15261	0.05419	0.27826	0.20644	0.10333	0.13618	0.21424	-3.075	-3.9604	-3.5146	-3.9667	-3.925	-3.5708	-4.0958	-3.8646	-3.6688	-4.1333	-3.8458	-3.8208	-3.9583	-3.7188	-3.6688	-4.1271	100.285	182.225	-115.292	110.426	-118.091	-34.259	187.690	151.015	89.222	-10.765	136.508	184.348	-99.490	157.955	74.270	180.679	0.00088946	0.00017573	0.00012532	1320.5	3.1306e-06	7.8779e-06	1317.4	361.72	9.6014e-06	5.6016e-06	410.94	137.31	119.27	40.908	1.1681e-05	50.686	0.00052421	0.00054169	0.00013752	1338	5.7499e-06	5.9859e-06	1338.2	366.69	5.863e-06	5.8342e-06	418.03	139.98	121.9	42.102	5.4168e-06	52.046	20.775	-27.354	-17.511	-106.726	166.449	31.048	-107.292	-102.463	39.925	-18.322	-102.644	-98.650	-98.103	-93.297	-2.354	-94.210	-8191	255	
423.795	1	1	0	0	0.15391	0.14883	0.20177	0.23421	0.11214	0.067013	0.20233	0.22819	0.051118	0.063688	0.1992	0.20427	0.10008	0.12866	0.21479	0.096346	-3.2646	-3.9083	-3.6396	-3.8292	-3.9896	-3.6063	-4.1354	-3.9542	-3.5167	-4.0083	-3.7583	-3.7979	-4.275	-3.7896	-3.9854	-3.9667	-83.248	25.915	69.774	209.801	167.464	-101.123	183.588	-86.585	168.139	48.195	99.080	147.290	-64.149	-36.456	205.770	-2.439	0.00075245	0.00067785	0.00017754	1324.8	7.6041e-06	5.3223e-06	1320.6	361.56	9.642e-06	6.1455e-06	409.75	137.38	119.48	40.936	4.2906e-06	50.484	0.00055803	0.00053933	0.00013524	1343.1	6.1729e-06	5.8207e-06	1342.3	367.33	6.2747e-06	5.829e-06	417.6	140.13	122.49	42.021	5.4296e-06	52.045	29.205	-29.626	-62.510	-106.689	235.038	32.098	-107.187	-102.135	-40.464	14.236	-102.980	-98.566	-98.219	-93.291	-13.056	-93.954	-8191	255	
423.891	1	1	0	0	0.23441	0.10422	0.21251	0.18236	0.14659	0.2586	0.075755	0.059369	0.085106	0.10337	0.25139	0.181	0.035865	0.1416	0.28894	0.21189	-3.3104	-3.875	-3.7125	-3.7854	-4.0542	-3.6771	-4.0542	-4.0771	-3.5812	-3.8021	-3.9688	-3.6312	-4.1333	-3.7333	-3.6396	-4.0583	112.838	-29.225	13.313	183.588	57.211	50.856	-110.594	134.774	-3.559	202.886	29.895	105.646	24.496	192.609	69.674	195.930	0.00086676	0.00095807	0.00015255	1324.8	4.3878e-06	4.1652e-06	1318.6	361.7	1.1845e-05	1.9844e-06	411.1	137.15	119.54	41.031	9.452e-06	50.831	0.00058343	0.00052742	0.00013794	1344.2	6.3315e-06	5.7883e-06	1341.9	368.17	6.2434e-06	5.6923e-06	417.21	140.52	122.2	42.068	5.3362e-06	52.284	23.841	-46.085	-35.356	-106.795	-45.686	94.802	-107.247	-102.323	-54.808	14.544	-102.821	-98.725	-98.005	-93.280	-19.494	-94.120	-8191	255	
424.012	1	1	0	0	0.13768	0.051779	0.19073	0.15918	0.14017	0.24274	0.2855	0.17558	0.35487	0.010702	0.19764	0.23483	0.048987	0.045462	0.11072	0.19223	-3.2396	-3.9792	-3.775	-3.7417	-3.9896	-3.7396	-3.7979	-3.9771	-3.5125	-3.8646	-4.0813	-3.5896	-4.0083	-3.7396	-3.5917	-4.0292	-119.768	234.307	235.081	187.255	-20.061	-33.008	134.094	70.499	11.581	154.859	188.523	174.560	100.429	-98.387	17.165	7.178	0.00084279	0.00029756	0.00018428	1322.3	6.1015e-06	8.4071e-06	1323.8	362.02	9.0929e-06	8.8034e-06	412.94	137.68	118.87	40.896	4.4088e-06	50.674	0.00056424	0.00051817	0.00013748	1347.4	6.1861e-06	5.7208e-06	1343.2	368.56	6.1473e-06	5.6507e-06	418.59	140.73	121.81	42.002	5.5277e-06	52.265	29.200	-3.555	-22.757	-106.929	26.279	13.810	-107.263	-102.316	49.626	-17.766	-102.977	-98.430	-98.103	-93.452	6.619	-94.117	-8191	255	
424.108	1	1	0	0	0.17178	0.18557	0.11533	0.29284	0.19084	0.26617	0.1029	0.39984	0.092687	0.074171	0.38919	0.17736	0.15988	0.16612	0.058432	0.035804	-3.1667	-3.8021	-3.8	-3.7896	-3.9708	-3.8875	-3.7729	-4.1708	-3.5417	-3.6479	-3.9896	-3.5771	-4.0396	-4.075	-3.6625	-4.175	181.766	11.794	33.986	145.955	199.354	32.995	194.434	181.570	70.742	-85.052	225.538	142.788	74.224	222.706	159.821	38.160	0.00078627	0.0010582	5.0771e-05	1327.2	3.5958e-06	7.2625e-06	1320.7	363.06	9.8604e-06	1.9396e-06	410.97	137.59	119.89	40.85	2.7361e-06	50.877	0.00055415	0.00050826	0.00014169	1349.2	5.8782e-06	5.4982e-06	1341.6	368.82	5.8606e-06	5.4681e-06	418.19	140.81	121.79	41.945	5.8579e-06	52.223	31.769	-47.654	-45.435	-106.864	-3.584	0.992	-107.158	-102.184	27.527	-42.510	-102.745	-98.581	-98.085	-93.127	28.265	-94.043	-8191	255	
424.204	1	1	0	0	0.20281	0.30881	0.12786	0.09821	0.10318	0.17573	0.23984	0.28257	0.11119	0.16524	0.16355	0.28875	0.053475	0.19488	0.037771	0.030701	-3.2229	-3.5438	-3.8937	-3.6625	-3.7562	-3.9333	-3.9042	-4.1104	-3.6646	-3.8396	-4.0542	-3.575	-3.8771	-4.0896	-3.3958	-4.0146	-116.080	16.953	29.918	-107.588	-92.777	-106.296	190.853	207.758	188.201	225.739	-89.633	-120.253	97.805	194.601	148.615	204.752	0.00086009	0.00030838	5.8467e-05	1329.2	4.963e-06	5.9085e-06	1325	361.82	1.9763e-06	1.3154e-06	409.43	137.18	119.11	40.978	6.25e-06	50.987	0.00052968	0.00049494	0.00015291	1348.9	5.7618e-06	5.3414e-06	1346.3	368.65	5.5862e-06	5.2681e-06	419.03	140.35	121.33	41.959	6.1547e-06	52.328	28.556	-84.204	-37.243	-107.028	-7.538	-47.166	-107.286	-102.413	-1.246	216.788	-102.782	-98.675	-98.450	-93.247	-42.068	-94.301	-8191	255	
424.300	1	1	0	0	0.11959	0.20486	0.26716	0.37481	0.098503	0.23057	0.079654	0.076007	0.084341	0.13679	0.2082	0.28223	0.28118	0.13603	0.22717	0.13208	-3.3104	-3.6771	-4.0292	-3.8354	-3.825	-4.0271	-3.8125	-3.9771	-3.8563	-3.5625	-4.1188	-3.6979	-3.8646	-4.0854	-3.5271	-4.1167	-101.438	232.300	199.357	209.347	39.079	-29.862	95.177	-92.827	-106.270	154.020	-82.189	158.031	-48.248	25.583	-40.715	109.949	0.00074544	0.00055114	0.0001124	1328.9	2.8505e-06	4.4562e-06	1322.3	361.64	1.5812e-05	6.161e-06	412.56	136.88	118.69	40.949	3.4808e-06	50.666	0.00051456	0.00049001	0.00015852	1345.8	5.5317e-06	5.3788e-06	1344.7	368.2	5.4356e-06	5.4676e-06	419.71	140.35	120.92	41.993	6.2712e-06	52.14	17.006	-44.269	-3.896	-106.698	51.271	-24.133	-107.128	-102.358	5.916	224.748	-102.969	-98.612	-97.944	-93.419	18.963	-94.196	-8191	255	
424.397	1	1	0	0	0.2007	0.20619	0.013689	0.16988	0.10638	0.039968	0.039036	0.42492	0.048708	0.21417	0.14132	0.20732	0.1503	0.19757	0.16157	0.053413	-3.3896	-3.7375	-3.8875	-3.725	-3.5583	-3.9437	-3.6583	-3.9437	-3.8542	-3.7729	-3.9979	-3.6188	-3.8438	-4.1208	-3.4792	-3.9938	119.010	131.951	40.012	197.331	191.819	-22.708	182.858	139.821	57.613	-89.134	216.140	233.724	-94.678	-94.691	145.140	-91.159	0.00092448	0.00061451	0.00012685	1322.6	8.2929e-06	2.3104e-06	1325.1	361.41	2.6689e-06	9.2401e-07	410.21	137.57	119.05	40.821	5.694e-06	50.516	0.00050047	0.00051578	0.00015979	1344.9	5.356e-06	5.7278e-06	1345.1	367.8	5.2583e-06	5.7382e-06	419.41	140.11	120.99	42.037	6.0936e-06	51.996	26.205	-107.810	2.274	-106.961	6.998	135.308	-107.327	-102.292	239.045	211.322	-103.104	-98.771	-98.147	-93.493	-9.503	-94.249	-8191	255	
#DATA ENDS
