BOXY.EXE: ISS Imagent and Oximeter Data Acquisition Program Version 0.80
Ascii Record File

#ACQ INFORMATION
2  Detector Channels 
16  External MUX Channels 
1  Auxiliary Channels 
5000  Waveform (CCF) Frequency (Hz)
1  Waveforms Skipped 
30  Waveforms Averaged 
1  Cycles Averaged 
16  Acquisitions per Waveform 
10.0806  Updata Rate (Hz) 

#FILE INFORMATION
TRUE -- External MUX Channel results are PARSED.
FALSE -- AC DC and Phase are NOT grouped.
TRUE -- Companion Program Settings File CREATED.
FALSE -- AC data not excluded
FALSE -- DC data not excluded
FALSE -- Phase data not excluded
FALSE -- Auxillary Chn. data not excluded
Tab delimiters

#CALIBRATION STATE
TRUE -- Waveform Calibration Values APPLIED.


#AUX CALIBRATION VALUES
Val Type	aux-1	

Term	1.0000e+00	
Factor	0.0000e+00	


#WF CALIBRATION VALUES
A = Detector Channel
Val Type	A-AC1	A-AC2	A-AC3	A-AC4	A-AC5	A-AC6	A-AC7	A-AC8	A-AC9	A-AC10	A-AC11	A-AC12	A-AC13	A-AC14	A-AC15	A-AC16	A-DC1	A-DC2	A-DC3	A-DC4	A-DC5	A-DC6	A-DC7	A-DC8	A-DC9	A-DC10	A-DC11	A-DC12	A-DC13	A-DC14	A-DC15	A-DC16	A-Ph1	A-Ph2	A-Ph3	A-Ph4	A-Ph5	A-Ph6	A-Ph7	A-Ph8	A-Ph9	A-Ph10	A-Ph11	A-Ph12	A-Ph13	A-Ph14	A-Ph15	A-Ph16	

Term	0.00000e+00	0.00000e+00	0.00000e+00	0.00000e+00	0.00000e+00	0.00000e+00	0.00000e+00	0.00000e+00	0.00000e+00	0.00000e+00	0.00000e+00	0.00000e+00	0.00000e+00	0.00000e+00	0.00000e+00	0.00000e+00	0.00000e+00	0.00000e+00	0.00000e+00	0.00000e+00	0.00000e+00	0.00000e+00	0.00000e+00	0.00000e+00	0.00000e+00	0.00000e+00	0.00000e+00	0.00000e+00	0.00000e+00	0.00000e+00	0.00000e+00	0.00000e+00	0.00000e+00	0.00000e+00	0.00000e+00	0.00000e+00	0.00000e+00	0.00000e+00	0.00000e+00	0.00000e+00	0.00000e+00	0.00000e+00	0.00000e+00	0.00000e+00	0.00000e+00	0.00000e+00	0.00000e+00	0.00000e+00	
Factor	1.00000e+00	1.00000e+00	1.00000e+00	1.00000e+00	1.00000e+00	1.00000e+00	1.00000e+00	1.00000e+00	1.00000e+00	1.00000e+00	1.00000e+00	1.00000e+00	1.00000e+00	1.00000e+00	1.00000e+00	1.00000e+00	1.00000e+00	1.00000e+00	1.00000e+00	1.00000e+00	1.00000e+00	1.00000e+00	1.00000e+00	1.00000e+00	1.00000e+00	1.00000e+00	1.00000e+00	1.00000e+00	1.00000e+00	1.00000e+00	1.00000e+00	1.00000e+00	X	X	X	X	X	X	X	X	X	X	X	X	X	X	X	X	

B = Detector Channel
Val Type	B-AC1	B-AC2	B-AC3	B-AC4	B-AC5	B-AC6	B-AC7	B-AC8	B-AC9	B-AC10	B-AC11	B-AC12	B-AC13	B-AC14	B-AC15	B-AC16	B-DC1	B-DC2	B-DC3	B-DC4	B-DC5	B-DC6	B-DC7	B-DC8	B-DC9	B-DC10	B-DC11	B-DC12	B-DC13	B-DC14	B-DC15	B-DC16	B-Ph1	B-Ph2	B-Ph3	B-Ph4	B-Ph5	B-Ph6	B-Ph7	B-Ph8	B-Ph9	B-Ph10	B-Ph11	B-Ph12	B-Ph13	B-Ph14	B-Ph15	B-Ph16	

Term	0.00000e+00	0.00000e+00	0.00000e+00	0.00000e+00	0.00000e+00	0.00000e+00	0.00000e+00	0.00000e+00	0.00000e+00	0.00000e+00	0.00000e+00	0.00000e+00	0.00000e+00	0.00000e+00	0.00000e+00	0.00000e+00	0.00000e+00	0.00000e+00	0.00000e+00	0.00000e+00	0.00000e+00	0.00000e+00	0.00000e+00	0.00000e+00	0.00000e+00	0.00000e+00	0.00000e+00	0.00000e+00	0.00000e+00	0.00000e+00	0.00000e+00	0.00000e+00	-1.56410e+02	-1.27925e+02	-1.23922e+02	-1.82673e+02	-7.57512e+01	-6.11924e+01	-1.55323e+02	-1.62015e+02	-8.33286e+01	-6.57451e+01	-1.72119e+02	-1.69838e+02	-1.79785e+02	-1.77170e+02	-7.38895e+01	-1.49034e+02	
Factor	2.27176e-05	1.55070e-04	4.33590e-05	1.76889e-01	1.36821e-06	1.78199e-06	1.63072e-01	4.85717e-02	1.34987e-06	1.70672e-06	9.20508e-02	2.79817e-02	2.79836e-02	8.82360e-03	1.44751e-06	1.26394e-02	1.41485e-05	2.59860e-05	7.31483e-06	8.80964e-02	2.56862e-07	2.96358e-07	7.67068e-02	2.43435e-02	2.54028e-07	2.93281e-07	4.48789e-02	1.37183e-02	1.41984e-02	4.46541e-03	2.69071e-07	6.22161e-03	X	X	X	X	X	X	X	X	X	X	X	X	X	X	X	X	



#DISTANCE SETTINGS
A = Detector Channel
A-1	A-2	A-3	A-4	A-5	A-6	A-7	A-8	A-9	A-10	A-11	A-12	A-13	A-14	A-15	A-16	

2.5000e+00	3.0000e+00	2.5000e+00	3.0000e+00	2.0000e+00	3.0000e+00	1.5000e+00	3.0000e+00	3.0000e+00	3.0000e+00	3.0000e+00	3.0000e+00	3.0000e+00	3.0000e+00	1.5000e+00	3.0000e+00	

B = Detector Channel
B-1	B-2	B-3	B-4	B-5	B-6	B-7	B-8	B-9	B-10	B-11	B-12	B-13	B-14	B-15	B-16	

1.0000e+01	1.0000e+01	1.0000e+01	1.4400e+00	1.0000e+01	1.0000e+01	1.5100e+00	1.9400e+00	1.0000e+01	1.0000e+01	1.9900e+00	2.4900e+00	2.4100e+00	2.9000e+00	1.0000e+01	2.9800e+00	




#DATA BEGINS
time	group	step	mark	flag	A-AC1	A-AC2	A-AC3	A-AC4	A-AC5	A-AC6	A-AC7	A-AC8	A-AC9	A-AC10	A-AC11	A-AC12	A-AC13	A-AC14	A-AC15	A-AC16	A-DC1	A-DC2	A-DC3	A-DC4	A-DC5	A-DC6	A-DC7	A-DC8	A-DC9	A-DC10	A-DC11	A-DC12	A-DC13	A-DC14	A-DC15	A-DC16	A-Ph1	A-Ph2	A-Ph3	A-Ph4	A-Ph5	A-Ph6	A-Ph7	A-Ph8	A-Ph9	A-Ph10	A-Ph11	A-Ph12	A-Ph13	A-Ph14	A-Ph15	A-Ph16	B-AC1	B-AC2	B-AC3	B-AC4	B-AC5	B-AC6	B-AC7	B-AC8	B-AC9	B-AC10	B-AC11	B-AC12	B-AC13	B-AC14	B-AC15	B-AC16	B-DC1	B-DC2	B-DC3	B-DC4	B-DC5	B-DC6	B-DC7	B-DC8	B-DC9	B-DC10	B-DC11	B-DC12	B-DC13	B-DC14	B-DC15	B-DC16	B-Ph1	B-Ph2	B-Ph3	B-Ph4	B-Ph5	B-Ph6	B-Ph7	B-Ph8	B-Ph9	B-Ph10	B-Ph11	B-Ph12	B-Ph13	B-Ph14	B-Ph15	B-Ph16	aux-1	digaux	

25519.379	1	1	0	256	0.27445	0.18267	0.11709	0.22003	0.095039	0.24429	0.16644	0.19405	0.21289	0.086012	0.079156	0.13205	0.24861	0.10993	0.10572	0.18982	-2.6167	-3.4104	-3.2021	-3.4625	-3.3229	-3.1167	-3.4833	-3.4292	-3.1312	-3.4854	-3.2062	-3.1854	-3.3563	-3.2708	-3.2958	-3.2896	66.263	119.473	289.692	295.229	261.692	-44.490	237.335	237.293	248.465	-1.566	94.320	280.742	277.690	254.053	-48.077	-52.808	0.00013005	0.00034274	0.00010025	1269.1	1.3473e-06	3.5215e-06	1333.3	260.55	1.0155e-06	3.925e-06	322.58	89.795	70.742	20.362	2.0113e-06	28.479	0.00018243	0.00013053	4.0902e-05	1239	1.9398e-06	1.4571e-06	1308.1	258.26	1.8967e-06	1.4218e-06	319.86	89.563	70.657	20.418	1.7159e-06	28.668	119.840	36.970	34.600	-46.640	88.688	98.862	-46.431	-39.729	97.336	109.458	-40.120	-33.553	-33.547	-26.066	103.575	-26.314	-8191	255	
25519.451	1	1	0	0	0.27137	0.17669	0.11405	0.36418	0.07107	0.097065	0.2848	0.20296	0.1483	0.11243	0.20663	0.13836	0.30225	0.067843	0.1131	0.095196	-2.6083	-3.4354	-3.2333	-3.2229	-3.3271	-2.9875	-3.525	-3.5229	-2.9875	-3.3292	-3.1063	-3.375	-3.3	-3.2896	-3.1417	-3.2396	186.112	208.974	125.009	285.244	27.186	40.642	243.918	-39.070	75.821	256.867	262.063	282.008	293.065	159.522	222.707	-15.526	0.00010122	0.00036915	9.8905e-05	1270.8	2.2299e-06	2.6359e-06	1336.3	262	1.822e-06	2.286e-06	326.85	89.862	71.043	20.428	2.4536e-06	28.504	0.00017226	0.00014319	4.2975e-05	1244.3	1.9195e-06	1.5435e-06	1312.5	258.6	1.901e-06	1.442e-06	321.45	89.62	70.896	20.452	1.8286e-06	28.709	120.994	37.979	34.981	-46.537	113.273	104.110	-46.534	-39.692	79.056	100.568	-40.016	-33.532	-33.442	-26.182	103.615	-26.531	-8191	255	
25519.547	1	1	0	0	0.18992	0.11286	0.18543	0.13735	0.13365	0.21703	0.16394	0.17045	0.16155	0.045672	0.11755	0.19465	0.072111	0.25047	0.051938	0.15445	-2.4688	-3.3812	-3.1688	-3.2313	-3.5021	-3.1437	-3.4083	-3.3083	-2.8604	-3.2687	-3.2771	-3.1625	-3.3125	-3.0187	-3.1625	-3.4292	37.972	165.894	151.496	23.307	186.154	262.218	287.257	170.229	49.115	155.503	233.124	254.590	212.182	243.997	220.141	146.727	0.00011842	0.00025606	6.7592e-05	1273.4	2.4546e-06	2.7612e-06	1342.4	263.23	3.5799e-07	3.8137e-06	326.04	90.203	71.764	20.443	2.051e-06	28.586	0.00017167	0.00014244	4.8019e-05	1247.6	1.8767e-06	1.588e-06	1316.4	259.84	1.7824e-06	1.5648e-06	321.94	90.038	71.24	20.525	1.9166e-06	28.763	115.736	41.862	44.388	-46.737	102.054	107.451	-46.545	-39.740	56.012	93.757	-39.995	-33.606	-33.363	-26.326	103.546	-26.225	-8191	255	
25519.643	1	1	0	0	0.30037	0.16961	0.17746	0.24433	0.061389	0.1096	0.30516	0.12744	0.17147	0.12524	0.197	0.19303	0.36285	0.07518	0.096599	0.18416	-2.6333	-3.2375	-3.1625	-3.2292	-3.5458	-3.0583	-3.2146	-3.4542	-3.0604	-3.4854	-3.4771	-3.2854	-3.3646	-3.2354	-3.0958	-3.4604	271.200	-49.036	118.297	277.568	130.612	54.733	213.837	143.699	-6.612	263.264	295.970	297.271	283.693	145.194	197.893	68.056	0.00010281	0.00027784	7.3123e-05	1279.6	2.861e-06	3.1812e-06	1341.8	264.61	1.8764e-06	3.3099e-06	326.89	90.181	71.159	20.5	1.9484e-06	28.363	0.0001826	0.00015965	4.0704e-05	1252.1	2.1491e-06	1.638e-06	1320.9	260.79	2.0206e-06	1.7157e-06	322.93	90.206	71.164	20.531	1.7568e-06	28.671	125.921	35.127	44.071	-46.772	114.865	97.502	-46.651	-39.658	117.354	101.589	-40.232	-33.740	-33.002	-26.025	85.632	-26.819	-8191	255	
25519.764	1	1	0	0	0.11827	0.19726	0.13735	0.16732	0.31763	0.10815	0.1977	0.085117	0.32229	0.25394	0.24024	0.03078	0.1093	0.16576	0.13774	0.17109	-2.6708	-3.3208	-3.2625	-3.0292	-3.5104	-3.2729	-3.1646	-3.4938	-3.1792	-3.2583	-3.4062	-3.1417	-3.3292	-3.2125	-3.1437	-3.5479	40.503	40.372	-56.171	243.359	174.831	125.071	-56.887	93.415	167.706	151.689	-17.599	-37.075	199.093	-24.829	182.596	282.123	0.0001121	0.00029472	6.7001e-05	1279.1	2.3948e-06	3.7982e-06	1348	263.25	7.9337e-07	3.7737e-06	326.33	89.303	71.854	20.434	2.769e-06	28.786	0.00017963	0.00013989	4.1557e-05	1253.6	2.0683e-06	1.6695e-06	1322.3	260.71	1.9714e-06	1.613e-06	323.35	89.942	71.273	20.543	1.5046e-06	28.855	118.543	44.352	47.561	-46.752	89.366	112.040	-46.720	-39.857	115.474	77.307	-40.000	-33.763	-33.849	-26.694	96.630	-26.546	-8191	255	
25519.859	1	1	0	0	0.067898	0.1325	0.1367	0.26562	0.1778	0.14043	0.14654	0.16876	0.090412	0.045125	0.30264	0.11534	0.093579	0.1841	0.10169	0.03415	-2.8187	-3.2208	-3.4062	-3.225	-3.3625	-3.3063	-3.1604	-3.5042	-3.1667	-3.1188	-3.5042	-2.9688	-3.3187	-3.2354	-3.2958	-3.3875	129.894	257.591	223.879	283.828	106.131	292.776	231.706	274.123	191.954	240.947	-41.462	278.152	220.859	130.550	9.408	-2.666	0.00011172	0.00042543	8.5027e-05	1283.4	1.7756e-06	2.3323e-06	1344.4	263.82	1.2925e-06	3.4029e-06	327.21	89.824	71.085	20.464	2.4289e-06	28.683	0.00018803	0.00014606	3.9424e-05	1253.8	2.0774e-06	1.6979e-06	1323.2	260.37	1.9862e-06	1.6931e-06	322.66	90.146	71.087	20.532	1.5477e-06	28.808	125.727	29.509	29.986	-46.695	105.719	117.411	-46.532	-39.826	131.288	89.522	-40.095	-33.487	-33.285	-26.120	72.662	-26.250	-8191	255	
25519.955	1	1	0	0	0.11476	0.21472	0.13927	0.25658	0.30217	0.066393	0.19473	0.2859	0.18524	0.15264	0.082232	0.25711	0.04962	0.13358	0.1778	0.094437	-2.8583	-3.1354	-3.2938	-3.2125	-3.4375	-3.2292	-3.3521	-3.525	-3.2625	-3.0417	-3.5521	-3.2771	-3.2125	-3.3583	-3.1292	-3.3958	-9.805	245.129	161.007	248.474	10.641	263.563	206.235	276.500	-13.886	-53.788	13.069	290.429	-7.234	259.545	168.625	79.760	9.1241e-05	0.00037048	7.774e-05	1276.7	2.1778e-06	3.3757e-06	1347.3	263.32	1.0538e-06	2.4221e-06	325.25	90.109	71.678	20.408	2.2235e-06	28.493	0.00018482	0.00015023	3.822e-05	1251.9	2.0041e-06	1.5435e-06	1319.9	260.28	1.9946e-06	1.3882e-06	322.2	89.909	71.292	20.545	1.5814e-06	28.727	116.636	41.532	38.656	-46.672	109.060	95.248	-46.591	-39.966	111.411	70.917	-39.877	-33.810	-33.277	-26.197	96.361	-26.560	-8191	255	
25520.053	1	1	0	0	0.19312	0.079455	0.19787	0.13841	0.20045	0.25738	0.39869	0.21052	0.25976	0.15851	0.081529	0.18289	0.17874	0.22843	0.067886	0.12655	-2.7833	-3.0042	-3.4375	-3.1146	-3.4562	-3.2083	-3.1729	-3.4604	-3.3542	-3.25	-3.6521	-3.2021	-3.1813	-3.4313	-3.0229	-3.3438	278.653	262.740	-48.602	256.654	48.067	205.815	216.202	227.885	104.892	38.436	130.561	-8.271	204.544	238.763	186.008	143.401	9.5699e-05	0.00029853	9.2e-05	1277.2	2.9687e-06	2.4673e-06	1339.9	263.66	1.7207e-06	3.6154e-06	323.3	89.867	71	20.37	2.5603e-06	28.644	0.00017338	0.00014763	3.1896e-05	1250	2.079e-06	1.2904e-06	1316.8	260.13	1.9322e-06	1.4542e-06	321.64	89.829	71.009	20.416	1.5999e-06	28.694	118.188	33.512	39.564	-46.747	81.624	119.177	-46.753	-39.443	104.513	108.253	-40.073	-33.795	-33.243	-26.237	88.491	-26.395	-8191	255	
25520.148	1	1	0	0	0.040645	0.028898	0.15863	0.08121	0.1135	0.061741	0.10986	0.234	0.14972	0.19359	0.13661	0.1163	0.21143	0.087762	0.10463	0.13431	-2.9167	-3.0417	-3.4417	-3.2229	-3.2208	-3.3271	-3.2875	-3.4583	-3.3708	-3.0667	-3.4083	-3.2125	-3.2542	-3.4188	-3.175	-3.3438	253.400	119.669	-31.574	-29.708	205.346	177.128	-31.867	287.346	89.639	20.898	200.041	166.975	252.182	281.586	-32.165	229.431	9.8735e-05	0.0004063	6.5481e-05	1272.5	2.157e-06	2.7155e-06	1337.9	263	1.6359e-06	3.6281e-06	324.76	89.64	71.369	20.423	1.5831e-06	28.605	0.00018125	0.00014222	3.374e-05	1245.9	2.0367e-06	1.3435e-06	1314.4	259.43	1.7454e-06	1.368e-06	321.29	89.884	70.944	20.44	1.5023e-06	28.691	118.047	30.065	28.164	-46.671	92.972	94.640	-46.528	-39.829	88.767	101.864	-40.138	-33.841	-33.200	-26.349	91.269	-26.517	-8191	255	
25520.242	1	1	0	0	0.25	0.072422	0.30643	0.39087	0.11854	0.23203	0.1627	0.22337	0.066926	0.24662	0.094548	0.10833	0.31783	0.16797	0.18344	0.34327	-2.8583	-3.0917	-3.4875	-3.2812	-3.1625	-3.4396	-3.3812	-3.6042	-3.1875	-3.1188	-3.4979	-3.2833	-3.0875	-3.3292	-3.2333	-3.3167	196.724	176.255	115.535	-56.509	224.487	128.715	-40.506	-25.753	-32.054	23.130	-54.399	-49.304	192.142	-22.838	124.899	294.479	9.0301e-05	0.00036769	0.00010095	1274.3	2.1852e-06	4.0429e-06	1338.4	262.03	2.0601e-06	3.119e-06	326.36	89.637	70.631	20.238	2.1631e-06	28.541	0.0001707	0.00012831	3.6376e-05	1245.1	2.057e-06	1.3528e-06	1312.7	259.08	1.7782e-06	1.3772e-06	321.6	89.614	70.728	20.355	1.5982e-06	28.666	120.604	40.475	33.786	-46.558	110.780	80.038	-46.587	-39.697	78.212	96.852	-39.478	-33.732	-33.297	-26.067	82.262	-26.372	-8191	255	
25520.340	1	1	0	0	0.23817	0.030566	0.23142	0.2507	0.13406	0.1741	0.12045	0.17793	0.073694	0.098961	0.11399	0.089976	0.022493	0.28236	0.1275	0.27944	-2.9	-3.0208	-3.3292	-3.4708	-3.2604	-3.4292	-3.4667	-3.4396	-3.25	-3.3208	-3.5083	-3.3229	-3.2167	-3.475	-3.2104	-3.3333	30.576	23.800	96.106	-21.870	267.279	205.631	257.587	279.423	140.521	283.191	298.090	42.463	191.824	-10.027	30.437	62.016	0.00011066	0.00034155	0.00010789	1270.9	2.0134e-06	2.7857e-06	1334.9	260.56	1.2025e-06	2.9785e-06	322.4	88.733	70.215	20.255	2.9247e-06	28.233	0.0001671	0.00012766	3.5965e-05	1241.1	1.9703e-06	1.2194e-06	1310	257.87	1.756e-06	1.3473e-06	318.91	89.033	70.394	20.231	1.7204e-06	28.449	119.821	50.616	32.696	-46.760	123.468	100.404	-46.594	-39.676	105.216	100.258	-39.819	-33.529	-33.517	-26.395	96.974	-26.610	-8191	255	
25520.459	1	1	0	0	0.054913	0.30273	0.27793	0.16575	0.19808	0.14179	0.27029	0.21999	0.18368	0.10318	0.092934	0.14298	0.15588	0.19745	0.094538	0.27065	-3.025	-3.0354	-3.2354	-3.4125	-3.1125	-3.3333	-3.2479	-3.2458	-3.4229	-3.1042	-3.3292	-3.2625	-3.1542	-3.3521	-3.1146	-2.95	145.799	-53.473	247.189	13.390	233.644	97.537	225.148	281.978	158.352	33.905	24.497	-48.446	190.615	300.647	231.419	237.952	0.00011178	0.00029478	0.00013095	1265.6	1.6276e-06	4.0117e-06	1329.6	260.02	1.0797e-06	3.521e-06	323.73	88.892	70.095	20.337	9.7532e-07	28.192	0.0001661	0.00012273	3.947e-05	1235.8	1.8526e-06	1.2713e-06	1304	256.69	1.5739e-06	1.5538e-06	318.7	88.812	70.245	20.201	1.4967e-06	28.366	120.686	35.205	38.831	-46.734	126.880	106.731	-46.777	-39.702	83.448	82.863	-39.937	-33.612	-33.042	-25.955	94.960	-26.448	-8191	255	
25520.555	1	1	0	0	0.19015	0.019631	0.22849	0.25213	0.11702	0.1389	0.38314	0.17757	0.002948	0.16445	0.13687	0.096176	0.15518	0.1357	0.11832	0.14285	-2.9396	-2.9396	-3.1729	-3.5229	-3.1979	-3.4208	-3.1667	-3.1208	-3.4562	-3.225	-3.4146	-3.2188	-3.0687	-3.3125	-3.2	-3.1896	165.117	-33.088	177.441	230.277	159.912	160.689	230.527	213.030	31.088	224.977	247.726	-52.543	-34.517	75.974	139.913	252.380	0.00010919	0.00033894	9.4416e-05	1263.4	2.3509e-06	3.802e-06	1329.4	258.79	1.3169e-06	4.2399e-06	321.6	88.633	70.232	19.995	2.047e-06	28.226	0.00016436	0.00014688	3.9287e-05	1237.6	1.8564e-06	1.5003e-06	1301.4	256.18	1.7549e-06	1.4511e-06	317.48	88.561	69.964	20.056	1.5797e-06	28.346	121.068	34.751	41.785	-46.672	99.810	90.197	-46.732	-39.810	107.724	86.007	-39.724	-33.720	-33.004	-26.090	121.500	-26.650	-8191	255	
25520.652	1	1	0	0	0.10129	0.069182	0.085674	0.057653	0.30367	0.18573	0.38628	0.20182	0.044131	0.099674	0.14335	0.10527	0.27895	0.036483	0.091545	0.11564	-3.0667	-3.2021	-3.1167	-3.4896	-3.0104	-3.3563	-3.4104	-3.0167	-3.4375	-3.15	-3.175	-3.45	-3.2667	-3.5354	-3.3771	-3.1979	172.274	-49.916	-32.911	122.338	183.603	124.425	279.566	223.303	93.608	271.713	184.067	289.033	265.096	55.451	97.930	6.471	0.00010866	0.0002735	6.8032e-05	1255.7	2.5983e-06	2.9462e-06	1327.6	258.15	1.2222e-06	2.7569e-06	320.9	88.319	69.955	20.094	2.7606e-06	28.085	0.00016144	0.00014623	3.9668e-05	1230.2	1.9687e-06	1.4262e-06	1301.2	255.47	1.7295e-06	1.4322e-06	316.91	88.43	69.718	20.128	1.583e-06	28.287	113.099	27.858	32.439	-46.803	114.641	98.701	-46.311	-39.626	75.355	92.666	-39.933	-33.629	-32.992	-26.217	93.763	-26.595	-8191	255	
25520.748	1	1	0	0	0.22033	0.10293	0.13237	0.15604	0.26253	0.36625	0.37643	0.21611	0.07536	0.30828	0.079136	0.12033	0.16793	0.048932	0.18534	0.17637	-2.825	-3.2542	-3.1875	-3.4667	-3.1854	-3.3708	-3.4417	-3.2958	-3.4646	-3.1792	-3.3146	-3.4042	-3.3104	-3.2979	-3.2458	-3.2417	247.856	182.662	17.442	294.224	96.330	12.480	167.071	176.112	11.425	261.485	72.049	81.836	73.873	-15.127	247.172	-54.483	0.0001045	0.00045078	6.6538e-05	1264.6	1.7881e-06	3.0992e-06	1326.4	258.54	5.8073e-07	3.5404e-06	320.28	88.515	70.188	19.943	2.9773e-06	28.304	0.00016271	0.00014834	3.4684e-05	1233.5	1.8954e-06	1.4812e-06	1302.4	255.73	1.7327e-06	1.5263e-06	317.54	88.478	70.02	20.071	1.5057e-06	28.27	118.706	31.719	32.235	-46.547	122.260	99.272	-46.671	-39.683	62.406	98.772	-39.872	-33.706	-33.190	-25.936	77.859	-26.334	-8191	255	
25520.844	1	1	0	0	0.16899	0.15941	0.20679	0.15859	0.21557	0.23753	0.52932	0.058101	0.048977	0.35294	0.34757	0.19051	0.25723	0.15334	0.28657	0.070351	-2.9417	-3.1688	-3.2896	-3.4417	-2.9854	-3.1646	-3.4604	-3.0729	-3.4479	-3.3167	-3.1833	-3.3271	-3.0375	-3.2729	-3.3625	-3.1292	239.085	19.280	128.598	-5.463	64.070	-45.320	231.550	47.484	286.833	-42.165	272.342	109.138	262.761	287.946	38.511	-17.483	9.0257e-05	0.00029411	9.4933e-05	1261.4	1.8868e-06	3.3167e-06	1321.3	258.31	1.5769e-06	1.9145e-06	321.26	88.221	69.681	19.994	2.3222e-06	28.087	0.00016949	0.00013367	3.8403e-05	1232.5	1.8601e-06	1.4262e-06	1298.5	255.24	1.8745e-06	1.31e-06	317.6	88.373	69.742	20.096	1.2983e-06	28.218	118.449	25.045	28.144	-46.590	114.362	120.836	-46.627	-39.686	93.383	121.919	-39.938	-33.683	-33.091	-26.417	83.046	-26.472	-8191	255	
25520.939	1	1	0	0	0.16487	0.24773	0.15618	0.29107	0.062193	0.13211	0.13583	0.15631	0.12137	0.12898	0.20287	0.14959	0.13019	0.1143	0.16634	0.17628	-3.0625	-3.1771	-3.0646	-3.475	-3.0854	-3.2458	-3.4979	-3.1729	-3.3146	-3.2583	-3.2562	-3.4625	-3.175	-3.2375	-3.4729	-3.0021	30.299	254.469	121.862	291.716	204.892	19.298	134.201	-53.749	74.092	-41.561	292.425	295.857	199.148	193.040	21.278	-28.102	9.7828e-05	0.00028848	0.00010046	1259.7	1.5091e-06	3.3297e-06	1321.8	258.58	1.6318e-06	3.3031e-06	321.87	88.146	70.407	20.086	3.138e-06	28.063	0.00016604	0.0001295	3.3618e-05	1233.1	1.836e-06	1.4373e-06	1300.7	255.48	1.8449e-06	1.3644e-06	317.36	88.438	69.936	20.105	1.3549e-06	28.322	123.305	27.361	40.201	-46.613	105.176	101.489	-46.446	-39.588	117.369	94.572	-39.799	-33.452	-33.243	-26.214	77.738	-26.694	-8191	255	
25521.061	1	1	0	0	0.14086	0.20591	0.13279	0.15658	0.048954	0.17556	0.067911	0.23159	0.17786	0.27558	0.15165	0.12798	0.23644	0.2635	0.047912	0.33683	-2.9958	-3.2167	-3.125	-3.5708	-3.1479	-3.2146	-3.7292	-3.0563	-3.2354	-3.2438	-3.0312	-3.4667	-3.2229	-3.1917	-3.3208	-3.1354	242.078	122.773	-39.946	-54.136	160.458	287.564	165.661	258.521	145.389	160.572	184.733	290.655	294.140	65.245	41.151	204.211	0.00011191	0.00037325	0.00010606	1262.7	7.158e-07	2.2435e-06	1324.2	258.7	1.7296e-06	3.2138e-06	322.06	88.666	70.267	20.148	2.4313e-06	28.303	0.00016863	0.00013437	3.8449e-05	1233.2	1.8863e-06	1.3966e-06	1300.6	255.6	1.9888e-06	1.3253e-06	317.15	88.762	69.973	20.153	1.259e-06	28.325	121.976	31.066	36.416	-46.730	45.660	104.239	-46.604	-39.799	97.973	94.736	-39.696	-33.319	-33.007	-25.942	90.849	-26.542	-8191	255	
25521.156	1	1	0	0	0.16879	0.14478	0.030495	0.34638	0.071766	0.26276	0.037154	0.30965	0.043483	0.21062	0.13782	0.27571	0.1873	0.096119	0.32841	0.19027	-2.9146	-3.3688	-3.1292	-3.5292	-3.35	-3.225	-3.5438	-3.0062	-3.1688	-3.2938	-3.0812	-3.4792	-3.3792	-3.2771	-3.3125	-3.125	269.595	172.333	282.032	254.556	221.195	244.203	246.630	-53.959	238.909	233.789	232.313	279.906	-51.656	75.540	275.345	229.281	0.00010245	0.00030397	9.5489e-05	1253.5	2.2325e-06	2.9439e-06	1328.9	258.5	1.7669e-06	2.8687e-06	321.18	88.536	69.713	20.073	1.6738e-06	28.419	0.00016966	0.00012295	3.4319e-05	1232.3	1.896e-06	1.2817e-06	1301.2	255.53	1.8803e-06	1.2935e-06	317.57	88.627	69.953	20.154	1.1906e-06	28.384	127.641	37.529	24.441	-46.559	103.712	109.379	-46.465	-39.684	84.999	99.479	-39.721	-33.444	-33.156	-26.111	117.163	-26.427	-8191	255	
25521.252	1	1	0	0	0.2281	0.14581	0.17771	0.22735	0.20247	0.14851	0.29775	0.11322	0.17495	0.19568	0.2766	0.076849	0.33885	0.10021	0.046387	0.29053	-2.9688	-3.325	-3.0438	-3.525	-3.0292	-3.1229	-3.5625	-3.2917	-3.2646	-3.5583	-3.1208	-3.3229	-3.1688	-3.1708	-3.45	-3.1875	123.548	186.345	223.042	230.533	-17.200	-13.004	241.505	27.032	95.528	35.735	293.191	-51.893	218.170	81.494	38.556	180.320	9.4648e-05	0.00021543	9.4201e-05	1262	9.0465e-07	3.2541e-06	1326.7	258.6	1.6655e-06	2.742e-06	320.11	88.149	70.342	20.134	1.8002e-06	28.142	0.00016872	0.00011374	3.5706e-05	1234.7	1.8853e-06	1.3867e-06	1301.4	255.58	1.8666e-06	1.208e-06	317	88.554	69.997	20.157	1.2585e-06	28.362	115.000	26.120	22.711	-46.680	91.854	95.074	-46.475	-39.801	76.158	80.539	-39.937	-33.300	-33.286	-26.207	93.171	-26.522	-8191	255	
25521.348	1	1	0	0	0.15556	0.19383	0.15695	0.37881	0.13644	0.23387	0.20196	0.21405	0.16788	0.13772	0.20776	0.16696	0.13718	0.040092	0.32221	0.13374	-2.7708	-3.3063	-3.1083	-3.4042	-3.2396	-3.1854	-3.6437	-3.3063	-3.2292	-3.6083	-3.1729	-3.3854	-3.325	-3.1354	-3.2646	-3.1437	272.426	21.399	89.529	279.914	229.715	36.527	188.545	263.292	233.595	170.358	228.738	-33.765	50.410	-23.888	40.313	254.578	0.00010345	0.00027578	8.7028e-05	1262.5	1.8231e-06	2.5346e-06	1322.4	258.41	2.3277e-06	1.7792e-06	321.49	88.526	70.578	20.079	2.8487e-06	28.151	0.00016863	0.00011228	3.697e-05	1233.9	1.8548e-06	1.3348e-06	1300.8	255.38	1.7713e-06	1.054e-06	317.85	88.644	70.276	20.169	1.5432e-06	28.337	122.826	48.521	37.057	-46.695	109.890	101.839	-46.758	-39.801	66.075	125.537	-40.035	-33.658	-33.328	-26.553	88.513	-26.498	-8191	255	
25521.422	1	1	0	0	0.081796	0.20961	0.15536	0.21039	0.071923	0.025507	0.39806	0.16077	0.22662	0.055359	0.11696	0.15046	0.099488	0.066386	0.11168	0.27277	-2.5896	-3.525	-3.0229	-3.5312	-3.1792	-2.9813	-3.5958	-3.2854	-3.0938	-3.4646	-3.1167	-3.1958	-3.4167	-3.1229	-3.2771	-3.1937	122.237	235.984	63.963	300.413	17.072	215.533	239.042	-25.793	120.266	81.672	-36.042	284.258	-27.575	131.601	22.854	254.384	0.00011782	0.00032707	9.5018e-05	1266.5	2.3667e-06	3.2516e-06	1325.2	259.69	1.0504e-06	2.3643e-06	321.16	89.069	70.071	20.172	2.5063e-06	28.264	0.00016857	0.00011791	3.6102e-05	1235	1.7167e-06	1.2262e-06	1302.2	256.16	1.6491e-06	1.079e-06	318.06	88.921	70.114	20.186	1.5612e-06	28.378	121.823	21.872	38.548	-46.549	110.626	100.147	-46.396	-39.822	88.096	99.781	-39.787	-33.396	-33.236	-26.185	103.453	-26.309	-8191	255	
25521.539	1	1	0	0	0.058792	0.0059934	0.071557	0.14954	0.2231	0.31172	0.41885	0.28597	0.36665	0.11746	0.059547	0.30067	0.1432	0.052582	0.13584	0.11869	-2.6146	-3.4125	-3.0563	-3.3479	-3.2917	-3.0333	-3.5438	-3.4313	-3.1562	-3.4021	-3.3063	-3.3104	-3.5062	-3.2062	-3.3896	-3.3521	2.120	244.515	101.537	4.498	276.766	291.164	270.269	224.787	12.182	-50.684	-49.427	-56.059	29.579	47.118	290.476	237.389	9.6303e-05	0.00029837	0.00010928	1261.3	1.8422e-06	2.5172e-06	1323.2	258.69	1.0659e-06	2.852e-06	322.02	88.531	70.821	20.113	3.2039e-06	28.424	0.00015764	0.00011948	3.7549e-05	1234.7	1.7162e-06	1.3997e-06	1303.1	255.98	1.8126e-06	1.3363e-06	317.96	88.918	70.187	20.216	1.6027e-06	28.484	115.681	30.887	23.423	-46.618	115.150	91.547	-46.734	-39.968	81.644	126.890	-40.006	-33.863	-33.069	-26.486	78.352	-26.377	-8191	255	
25521.637	1	1	0	0	0.38275	0.17085	0.022938	0.11423	0.077064	0.22232	0.40767	0.25766	0.29834	0.19626	0.21104	0.27162	0.2109	0.082486	0.19818	0.094658	-2.7812	-3.3104	-3.2062	-3.2604	-3.3125	-2.9979	-3.5875	-3.3896	-2.9271	-3.3229	-3.225	-3.1042	-3.2687	-3.1583	-3.3354	-3.425	-41.745	30.093	162.035	232.889	-20.011	279.620	271.402	-42.142	247.933	-45.063	-23.896	-48.220	194.306	22.433	273.153	99.660	0.00011707	0.00032461	0.00011069	1260.7	2.2367e-06	2.7991e-06	1328.8	259.5	1.6424e-06	2.2294e-06	322.86	88.842	70.217	20.221	2.9372e-06	28.285	0.00017214	0.00012186	4.0171e-05	1235.4	1.7873e-06	1.5139e-06	1305.2	256.45	1.7771e-06	1.2147e-06	318.78	88.989	70.194	20.24	1.5982e-06	28.434	122.378	45.833	28.593	-46.474	93.565	100.063	-46.429	-39.638	88.221	84.766	-39.988	-33.743	-33.115	-26.260	106.466	-26.933	-8191	255	
25521.732	1	1	0	0	0.15321	0.078554	0.17472	0.23921	0.1898	0.086858	0.20857	0.086015	0.15405	0.16609	0.19339	0.1503	0.094298	0.22409	0.13476	0.247	-2.8812	-3.4104	-3.2708	-3.3479	-3.4292	-3.1646	-3.4083	-3.4354	-3.0125	-3.5146	-3.4625	-3.1958	-3.4833	-3.35	-3.0729	-3.3792	96.347	83.332	22.312	-45.998	228.601	135.108	293.195	213.641	103.490	150.699	-41.159	-23.097	216.396	302.179	202.423	-52.275	0.00010121	0.00030929	8.5423e-05	1262	2.1886e-06	4.2851e-06	1325.1	258.71	1.7091e-06	3.2882e-06	323.81	88.855	70.388	20.148	2.5065e-06	28.248	0.00017308	0.00012354	3.7519e-05	1236.3	1.7654e-06	1.3966e-06	1303.5	256.37	1.6935e-06	1.3839e-06	318.51	89.136	70.091	20.262	1.5746e-06	28.451	116.551	12.506	42.733	-46.676	127.213	112.217	-46.610	-39.764	111.287	93.631	-39.794	-33.302	-33.313	-26.238	76.062	-26.201	-8191	255	
25521.828	1	1	0	0	0.27644	0.27811	0.13997	0.36602	0.25631	0.27845	0.11965	0.15688	0.15853	0.20173	0.21006	0.26911	0.24139	0.17107	0.21732	0.027205	-2.8208	-3.2979	-3.1188	-3.0333	-3.4729	-3.2208	-3.3833	-3.475	-2.9458	-3.4375	-3.3229	-3.1833	-3.3167	-3.3167	-3.2208	-3.5292	73.361	189.016	256.577	-51.821	32.757	272.933	174.731	218.661	63.455	116.950	283.311	274.229	294.324	203.529	75.793	265.904	0.00010646	0.00029724	8.274e-05	1263	2.1787e-06	3.2156e-06	1332.8	259.09	1.0343e-06	3.6516e-06	323.64	89.109	71.158	20.188	2.5824e-06	28.203	0.00016436	0.00013025	3.441e-05	1237.6	1.7643e-06	1.4725e-06	1306.1	256.36	1.8274e-06	1.387e-06	318.43	89.09	70.528	20.285	1.425e-06	28.43	121.163	25.052	35.717	-46.587	100.624	110.059	-46.793	-39.563	90.140	119.193	-39.753	-33.283	-32.861	-26.011	94.566	-26.274	-8191	255	
25521.949	1	1	0	0	0.33163	0.1891	0.11121	0.12275	0.13477	0.20477	0.098398	0.18523	0.14901	0.0888	0.12759	0.16699	0.20306	0.1532	0.17402	0.25107	-2.5521	-3.2979	-3.3042	-2.9562	-3.3021	-3.2417	-3.2188	-3.625	-3.1125	-3.2771	-3.3646	-3.1167	-3.2812	-3.3	-3.1104	-3.2375	65.035	176.053	124.750	241.233	38.903	258.728	240.445	212.202	104.832	163.732	280.960	290.815	81.785	71.882	-20.584	-4.583	8.3869e-05	0.00037911	8.9958e-05	1265.8	2.3423e-06	3.9405e-06	1328.8	260.55	2.0515e-06	3.2386e-06	322.33	89.304	70.092	20.147	2.3561e-06	28.373	0.00017282	0.00013453	3.4578e-05	1238.6	1.873e-06	1.4627e-06	1305.6	256.69	1.8936e-06	1.4132e-06	318.9	89.118	70.218	20.273	1.4311e-06	28.457	118.801	34.661	25.499	-46.613	111.293	108.636	-46.417	-39.601	93.359	97.383	-40.205	-33.460	-33.053	-26.288	82.776	-26.556	-8191	255	
25522.020	1	1	0	0	0.29443	0.18978	0.035201	0.3158	0.11135	0.27642	0.32979	0.2275	0.089899	0.23966	0.066186	0.20137	0.14451	0.20363	0.086493	0.11575	-2.6958	-3.3625	-3.3229	-3.1604	-3.2625	-3.2875	-3.3271	-3.3958	-3.1771	-3.3187	-3.3042	-2.9833	-3.4854	-3.4146	-3.1167	-3.5208	139.312	132.371	276.741	262.065	145.065	115.754	191.149	195.636	60.698	-37.527	-45.675	238.933	298.620	140.262	118.154	193.728	0.00010333	0.00032084	7.635e-05	1265	2.3852e-06	1.9557e-06	1328.3	259.91	2.4545e-06	4.0555e-06	322.98	89.137	70.112	20.242	2.0924e-06	28.363	0.00017308	0.00013226	3.185e-05	1236.9	1.8489e-06	1.183e-06	1304	256.63	1.8332e-06	1.4078e-06	318.48	88.951	70.258	20.282	1.4031e-06	28.453	123.367	21.491	24.040	-46.588	90.243	99.964	-46.423	-39.822	76.564	108.685	-39.673	-33.634	-32.928	-26.350	88.349	-26.734	-8191	255	
25522.141	1	1	0	0	0.39328	0.17154	0.022754	0.20083	0.30335	0.061987	0.094566	0.097509	0.080017	0.13563	0.21823	0.10009	0.20457	0.031086	0.22161	0.20025	-2.7729	-3.1979	-3.3354	-3.0875	-3.1396	-3.2583	-3.2729	-3.4333	-3.0354	-3.2625	-3.3812	-3.1521	-3.1833	-3.2104	-3.2	-3.4313	169.656	210.997	64.776	164.626	131.060	149.666	205.515	190.699	184.737	73.880	248.067	228.586	257.022	257.315	181.062	240.346	0.0001081	0.00036986	0.00011311	1261.6	2.041e-06	3.9073e-06	1331.7	259.56	1.7697e-06	4.2031e-06	323.74	89.014	70.515	20.154	1.4265e-06	28.227	0.00016952	0.00012024	2.9732e-05	1236.3	1.8954e-06	1.2237e-06	1306.6	256.3	1.7771e-06	1.2874e-06	318.68	89	70.311	20.283	1.384e-06	28.41	114.902	38.826	26.494	-46.692	94.956	98.757	-46.480	-39.544	54.280	79.781	-39.968	-33.539	-33.319	-26.044	87.130	-26.425	-8191	255	
25522.236	1	1	0	0	0.13159	0.27649	0.10932	0.20718	0.13493	0.33929	0.16893	0.18928	0.25265	0.10242	0.19186	0.081054	0.1709	0.14603	0.24702	0.28986	-2.7875	-3.0083	-3.2583	-3.2729	-3.3708	-3.3375	-3.1479	-3.3333	-3.275	-3.1562	-3.2375	-2.9896	-3.1625	-3.2562	-3.0812	-3.4729	4.209	235.323	248.705	283.271	139.105	77.678	251.864	301.586	189.445	209.866	236.719	-54.313	236.508	293.917	260.906	276.971	0.0001127	0.00033942	0.00011238	1260	2.6266e-06	2.802e-06	1332.4	260.68	2.0481e-06	2.7697e-06	322.42	89.051	70.535	20.127	2.6952e-06	28.125	0.00016153	0.00013437	2.9137e-05	1236.5	1.782e-06	1.1941e-06	1306.4	257.17	1.9634e-06	1.2568e-06	318.85	89.206	70.341	20.197	1.5331e-06	28.452	125.293	19.344	26.920	-46.546	111.126	100.930	-46.485	-39.528	100.654	111.702	-39.999	-33.506	-32.905	-26.233	97.446	-26.869	-8191	255	
25522.332	1	1	0	0	0.093153	0.035907	0.06888	0.35588	0.064784	0.10226	0.069388	0.13697	0.026083	0.10577	0.27772	0.29401	0.19862	0.12108	0.17933	0.14963	-2.7146	-3.0354	-3.4667	-3.1688	-3.2479	-3.1896	-3.2083	-3.3958	-3.15	-3.0333	-3.6458	-3.0687	-3.3854	-3.2917	-3.0563	-3.3917	8.702	57.325	197.285	-48.781	166.871	108.922	206.220	12.458	128.454	197.062	300.570	-15.080	199.697	29.674	136.300	90.757	0.00011765	0.00030707	0.00010775	1264.2	1.7695e-06	2.7542e-06	1326.7	258.84	1.1917e-06	4.1611e-06	323.32	88.984	70.799	20.145	2.5916e-06	28.401	0.00017235	0.00011104	3.4151e-05	1236	1.8949e-06	1.1873e-06	1303.4	256.28	1.8798e-06	1.3375e-06	319.15	89.029	70.334	20.247	1.4833e-06	28.477	117.883	20.777	42.958	-46.752	111.132	111.225	-46.614	-39.652	52.524	123.917	-39.800	-33.339	-33.073	-26.407	91.977	-26.601	-8191	255	
25522.428	1	1	0	0	0.12588	0.040193	0.17896	0.23124	0.22467	0.061331	0.25961	0.30175	0.1777	0.12362	0.19602	0.33328	0.082534	0.093133	0.089891	0.45423	-2.7854	-3.0708	-3.3396	-3.3812	-3.2396	-3.25	-3.3354	-3.3063	-3.2875	-3.0458	-3.4375	-3.2708	-3.3417	-3.4667	-3.0667	-3.2792	236.644	155.620	202.052	273.869	10.699	6.000	221.649	260.204	-17.667	-57.080	286.022	233.740	166.919	-36.385	199.378	217.475	0.0001014	0.00035982	9.1173e-05	1265.6	2.279e-06	3.0292e-06	1325	258.83	2.0969e-06	3.3505e-06	324.56	88.983	70.568	20.178	2.0707e-06	28.203	0.00016424	0.00012766	3.345e-05	1236	1.8146e-06	1.2274e-06	1305.2	256.51	1.8348e-06	1.4273e-06	318.76	89.16	70.331	20.248	1.6127e-06	28.429	126.877	9.798	47.134	-46.657	109.467	93.876	-46.463	-39.630	106.463	105.293	-40.032	-33.111	-33.088	-26.251	81.568	-26.784	-8191	255	
25522.549	1	1	0	0	0.12752	0.15793	0.053022	0.24941	0.29213	0.21262	0.12927	0.26495	0.24142	0.14583	0.12206	0.30586	0.24102	0.18906	0.14805	0.10896	-2.8042	-3.1146	-3.4458	-3.3042	-2.9792	-3.2417	-3.3792	-3.4833	-3.1854	-3.1562	-3.4437	-3.3125	-3.0438	-3.4188	-2.9979	-3.2708	91.868	181.905	162.755	284.777	195.920	1.158	59.663	253.817	8.310	62.497	161.452	227.346	-50.543	173.856	33.751	-28.659	0.00011069	0.0002844	6.3005e-05	1264.6	1.2683e-06	3.1043e-06	1330.9	259.88	1.58e-06	3.8308e-06	322.41	88.771	70.783	20.235	2.2646e-06	28.419	0.00016262	0.00012024	3.2429e-05	1238.2	1.7467e-06	1.1305e-06	1305.5	257.13	1.8205e-06	1.4591e-06	318.93	89.243	70.429	20.299	1.4608e-06	28.553	118.402	27.800	24.769	-46.619	98.826	83.457	-46.545	-39.718	88.603	80.891	-39.634	-33.397	-33.080	-26.165	78.662	-26.477	-8191	255	
25522.619	1	1	0	0	0.15203	0.39543	0.13554	0.13492	0.15554	0.095974	0.097507	0.18714	0.22824	0.28692	0.18473	0.20178	0.075745	0.29893	0.068341	0.18005	-2.7271	-3.0312	-3.2021	-3.1604	-3.2771	-3.25	-3.2542	-3.3333	-3.375	-2.9896	-3.3417	-3.1854	-3.2958	-3.4979	-3.1604	-3.1542	-25.536	85.948	184.551	280.742	157.556	189.212	43.095	119.256	214.861	244.527	228.506	258.544	198.406	47.976	-24.834	78.303	0.00011465	0.00038353	8.0465e-05	1261	1.7079e-06	3.5525e-06	1328.7	260.08	1.0729e-06	4.0755e-06	321.9	88.533	69.761	20.085	3.2773e-06	28.372	0.00015398	0.00013708	3.6483e-05	1234.3	1.7402e-06	1.3237e-06	1303	256.29	1.5533e-06	1.423e-06	318.21	88.891	69.99	20.221	1.5494e-06	28.505	119.865	42.079	40.716	-46.676	116.446	118.664	-46.295	-39.755	89.192	111.475	-39.880	-33.381	-33.510	-26.260	110.416	-26.595	-8191	255	
25522.740	1	1	0	0	0.20971	0.1635	0.092147	0.08057	0.10401	0.083259	0.090707	0.16191	0.25731	0.23313	0.22314	0.14604	0.085428	0.18646	0.16249	0.17669	-3.0292	-3.15	-3.3167	-3.3667	-3.0292	-3.45	-3.3521	-3.2208	-3.4208	-3.0021	-3.2417	-3.4813	-3.0708	-3.2812	-3.1375	-3.1104	52.592	227.961	-12.501	142.949	282.209	11.739	285.668	-17.422	224.693	73.785	282.341	252.425	-44.002	279.833	132.494	219.669	9.7515e-05	0.00033278	0.00011579	1262	1.3883e-06	3.4185e-06	1327.3	260.61	1.2736e-06	3.6371e-06	323.25	88.233	69.9	20.201	2.1378e-06	28.222	0.00015422	0.00013486	3.7519e-05	1235.2	1.7301e-06	1.37e-06	1301.5	256.57	1.5131e-06	1.4615e-06	317.78	88.734	70.002	20.239	1.5483e-06	28.431	117.942	40.371	31.670	-46.538	113.209	100.182	-46.340	-39.771	118.706	102.529	-40.063	-33.450	-33.305	-26.072	78.360	-26.536	-8191	255	
25522.838	1	1	0	0	0.25494	0.16936	0.15905	0.14448	0.073692	0.23792	0.062887	0.027576	0.034667	0.18283	0.095633	0.066882	0.094829	0.065802	0.11192	0.44732	-2.9083	-2.9667	-3.1521	-3.2562	-3.1542	-3.2667	-3.3542	-3.1417	-3.2729	-3.1937	-3.2812	-3.5708	-3.1333	-3.3229	-3.1271	-3.1125	22.260	295.048	51.871	29.091	-13.184	158.151	148.839	289.504	134.542	154.275	277.928	214.223	89.800	291.390	191.158	208.089	0.00011657	0.00034021	8.3359e-05	1261.7	3.6703e-06	3.7687e-06	1325.2	258.99	1.2724e-06	3.0255e-06	320.3	88.962	70.073	20.115	2.8942e-06	28.149	0.00016241	0.00014352	3.7184e-05	1233.8	1.9425e-06	1.454e-06	1301.9	256.25	1.7909e-06	1.4041e-06	317.78	88.939	69.901	20.218	1.4709e-06	28.387	118.783	37.774	26.044	-46.437	103.526	93.250	-46.598	-39.816	96.959	80.400	-40.139	-33.689	-33.173	-26.066	88.201	-26.574	-8191	255	
25522.934	1	1	0	0	0.30047	0.28581	0.24766	0.30218	0.079167	0.017313	0.12214	0.073251	0.12842	0.068053	0.21871	0.15406	0.19287	0.14239	0.19159	0.30322	-3.0042	-3.0646	-3.15	-3.4188	-3.0458	-3.4146	-3.3771	-3.1292	-3.3125	-3.3354	-3.2771	-3.3917	-3.2542	-3.3937	-3.3083	-3.2979	113.337	-36.287	-36.132	273.830	28.691	71.473	163.467	262.636	294.253	294.395	5.229	120.536	-47.757	86.420	187.915	97.104	0.00010959	0.00037961	7.677e-05	1259.3	1.9639e-06	4.3288e-06	1322.1	258.53	8.3507e-07	2.3854e-06	319.74	88.294	70.109	20.105	2.2486e-06	28.308	0.00016106	0.00013193	3.4273e-05	1230.3	1.8954e-06	1.3707e-06	1299.8	255.9	1.7449e-06	1.2587e-06	317.44	88.746	70.044	20.155	1.3723e-06	28.369	115.518	54.569	27.693	-46.667	89.788	107.238	-46.405	-39.585	109.939	103.701	-39.706	-33.795	-33.114	-26.139	95.324	-26.355	-8191	255	
25523.029	1	1	0	0	0.0071416	0.20683	0.041466	0.39694	0.24079	0.32321	0.15984	0.070103	0.2125	0.17263	0.19421	0.13269	0.031074	0.19293	0.17098	0.095045	-2.9583	-3.1521	-3.0958	-3.4062	-2.95	-3.2333	-3.4562	-3.0292	-3.4917	-3.2687	-3.1562	-3.55	-3.2083	-3.2313	-3.3771	-3.2313	-14.039	34.308	99.650	297.988	15.985	243.946	212.650	67.808	166.776	-17.375	225.511	-3.920	78.399	149.644	141.311	219.031	9.0727e-05	0.00044067	0.00010456	1258.1	2.8104e-06	4.1435e-06	1323.2	257.49	9.3487e-07	3.5586e-06	321.04	88.007	70.175	20.143	2.7806e-06	28.285	0.00016368	0.00014363	3.6407e-05	1230.9	1.9404e-06	1.4991e-06	1297.7	255.15	1.7512e-06	1.376e-06	317.32	88.666	69.998	20.132	1.3325e-06	28.337	117.121	27.995	34.206	-46.445	103.937	110.613	-46.533	-40.074	49.138	106.184	-39.557	-33.395	-33.076	-26.258	83.432	-26.413	-8191	255	
25523.123	1	1	0	0	0.21822	0.31932	0.030892	0.27287	0.22272	0.08389	0.39355	0.19885	0.25347	0.139	0.10211	0.11537	0.18987	0.097868	0.075818	0.30364	-2.9083	-3.0563	-3.0458	-3.5083	-2.9562	-3.2104	-3.4625	-3.2292	-3.4062	-3.1958	-3.1854	-3.4938	-3.2854	-3.1646	-3.4896	-3.1854	158.445	274.760	48.542	281.201	234.443	200.795	254.820	271.395	164.009	205.564	264.397	2.807	187.195	293.435	-52.989	261.440	0.0001158	0.00033346	7.3889e-05	1259.9	2.1042e-06	3.0386e-06	1320.4	258.76	1.254e-06	3.3828e-06	321.84	88.637	70.385	19.938	2.5339e-06	28.314	0.00016887	0.00013247	3.438e-05	1230.7	1.9297e-06	1.3472e-06	1297	256.2	1.8348e-06	1.2727e-06	318.02	88.788	70.044	20.095	1.3162e-06	28.375	120.197	39.608	27.888	-46.666	94.842	97.372	-46.558	-39.604	95.462	92.776	-39.885	-33.349	-33.309	-26.021	108.338	-26.610	-8191	255	
25523.244	1	1	0	0	0.11703	0.11954	0.13578	0.13018	0.088475	0.08763	0.33512	0.075907	0.1142	0.052068	0.17282	0.043932	0.06366	0.10469	0.06066	0.11151	-3.0563	-3.275	-3.0229	-3.5854	-3.2042	-3.3667	-3.5354	-3.1833	-3.5208	-3.4708	-3.2625	-3.2854	-3.25	-3.1583	-3.5062	-3.2417	243.764	132.077	284.879	244.920	248.698	-29.758	257.195	243.813	1.829	132.572	264.390	22.695	218.554	-0.237	-22.303	42.892	0.00010138	0.00040906	6.4342e-05	1254.8	2.5691e-06	3.0895e-06	1323.3	257.65	1.0652e-06	3.5172e-06	321.87	88.34	69.885	20.082	2.6086e-06	28.19	0.00017143	0.00012462	2.9869e-05	1230.4	1.9179e-06	1.3725e-06	1298.5	255.46	1.8285e-06	1.1792e-06	317.76	88.698	69.912	20.148	1.3409e-06	28.371	121.036	42.106	36.411	-46.727	95.681	96.498	-46.547	-39.770	105.705	88.389	-40.035	-33.514	-32.972	-26.214	94.433	-26.217	-8191	255	
25523.316	1	1	0	0	0.20893	0.09491	0.016518	0.13752	0.19718	0.1288	0.32038	0.25492	0.10248	0.097503	0.086238	0.19879	0.16336	0.21579	0.065181	0.10483	-2.8854	-3.2354	-3.0417	-3.4437	-3.2729	-3.2729	-3.6354	-3.1604	-3.3042	-3.2604	-3.1875	-3.4104	-3.3688	-3.1083	-3.4708	-3.1292	-16.386	-21.301	221.533	-28.624	260.726	88.797	255.586	1.225	220.292	142.053	213.799	209.400	298.456	234.906	88.317	185.875	9.7368e-05	0.00029335	5.4298e-05	1258.8	1.0618e-06	4.2531e-06	1326.1	258.17	1.7453e-06	3.0639e-06	322.17	88.413	70.43	20.076	1.7201e-06	28.075	0.00016583	0.00012419	3.1911e-05	1230.5	1.8398e-06	1.3441e-06	1298.9	255.68	1.8375e-06	1.1682e-06	317.51	88.495	69.929	20.144	1.4451e-06	28.279	118.596	32.107	57.870	-46.727	125.322	113.789	-46.757	-39.519	102.239	90.108	-40.064	-33.282	-33.198	-26.144	84.839	-26.702	-8191	255	
25523.412	1	1	0	0	0.078025	0.1091	0.20601	0.10034	0.065694	0.067443	0.28593	0.27002	0.24803	0.17637	0.20601	0.30564	0.15637	0.12268	0.1626	0.19948	-2.7479	-3.4125	-3.1167	-3.4229	-3.1542	-3.4062	-3.5833	-3.1833	-3.2708	-3.4146	-3.1417	-3.2875	-3.5083	-3.0708	-3.4021	-3.0396	98.925	-20.238	134.919	180.351	229.608	-30.293	295.208	212.265	34.436	254.440	224.622	240.616	197.137	0.779	212.818	-39.420	9.8202e-05	0.0002712	8.8458e-05	1258.5	1.8246e-06	2.2081e-06	1320.2	258.65	1.437e-06	3.7814e-06	322.04	88.678	69.396	19.964	2.7571e-06	28.213	0.00016315	9.9938e-05	3.8982e-05	1229.5	1.737e-06	1.3947e-06	1296.8	255.37	1.7496e-06	1.1487e-06	317.3	88.641	69.61	20.048	1.4395e-06	28.311	117.068	28.158	41.891	-46.553	110.245	97.308	-46.446	-39.732	117.353	92.100	-39.902	-33.598	-33.100	-26.498	94.321	-26.578	-8191	255	
25523.508	1	1	0	0	0.25896	0.18735	0.31017	0.041043	0.33098	0.24817	0.22944	0.17352	0.10896	0.1417	0.041132	0.13822	0.069955	0.084846	0.19818	0.077166	-2.9229	-3.1917	-3.0458	-3.5	-3.2021	-3.0563	-3.6813	-3.4396	-3.1417	-3.575	-3.0771	-3.2708	-3.325	-3.125	-3.5792	-3.2188	-6.460	222.310	284.558	221.478	148.340	-20.065	210.337	-27.438	-18.231	-36.457	170.952	259.501	274.525	4.149	-36.049	201.997	0.00010915	0.00027175	0.00010661	1252.2	2.4732e-06	3.5904e-06	1319.2	259.44	2.0332e-06	4.6737e-06	323.03	87.994	69.645	19.98	2.8489e-06	28.129	0.00017126	0.00011315	4.2182e-05	1226.4	1.7178e-06	1.3256e-06	1295.3	255.87	1.6813e-06	1.324e-06	317.86	88.453	69.868	20.113	1.518e-06	28.291	114.599	35.775	45.090	-46.690	103.301	108.839	-46.449	-39.391	105.338	85.030	-39.520	-33.519	-33.172	-26.310	98.259	-26.086	-8191	255	
25523.629	1	1	0	0	0.096107	0.11287	0.29267	0.35692	0.033901	0.29072	0.19861	0.078836	0.11164	0.20731	0.16673	0.14253	0.25268	0.095264	0.02449	0.16648	-2.775	-3.3771	-3.0396	-3.4542	-3.4437	-3.0812	-3.3458	-3.2396	-3.0917	-3.4771	-3.2021	-3.2771	-3.5375	-3.0708	-3.4417	-3.3208	76.501	58.379	173.672	300.301	166.355	110.047	-37.893	12.046	171.405	227.640	275.821	274.666	-47.395	203.980	58.815	270.989	0.0001045	0.00034516	8.6046e-05	1254.5	2.6832e-06	3.6975e-06	1322.3	258.88	1.1758e-06	3.5806e-06	320.67	87.897	70.289	20.051	2.0531e-06	28.093	0.00016843	0.00010941	4.107e-05	1230.5	1.6733e-06	1.4799e-06	1298.4	255.61	1.5686e-06	1.2825e-06	317.34	88.53	70.047	20.18	1.3908e-06	28.215	123.102	21.598	38.492	-46.580	95.601	80.391	-46.380	-39.903	94.896	85.364	-39.827	-33.395	-33.179	-26.314	81.864	-26.590	-8191	255	
25523.725	1	1	0	0	0.1613	0.12952	0.28784	0.016486	0.17028	0.081474	0.14444	0.21538	0.13031	0.3292	0.07146	0.23386	0.15345	0.098005	0.2747	0.34058	-2.675	-3.425	-2.9354	-3.4125	-3.3417	-3.0521	-3.7417	-3.4583	-3.1271	-3.5104	-3.2875	-3.1521	-3.4	-3.2938	-3.4104	-3.3937	15.348	103.470	81.944	219.081	219.137	292.890	194.333	220.971	148.319	171.638	230.706	274.905	71.938	245.509	187.940	134.757	0.00011359	0.00028908	9.0648e-05	1257.3	2.071e-06	3.1249e-06	1321.8	259.39	2.3723e-06	4.442e-06	320.68	88.413	69.828	20.035	2.2398e-06	28.175	0.00016118	0.00011553	3.7077e-05	1229.7	1.6814e-06	1.3614e-06	1297.9	255.92	1.8486e-06	1.2507e-06	317.34	88.634	69.781	20.118	1.5029e-06	28.3	113.065	33.599	29.348	-46.540	105.630	100.961	-46.426	-39.826	89.497	78.702	-40.348	-33.420	-33.031	-26.300	110.579	-26.340	-8191	255	
25523.820	1	1	0	0	0.2451	0.21684	0.14435	0.22227	0.32071	0.071258	0.23532	0.14637	0.095015	0.12908	0.39527	0.12148	0.046414	0.13873	0.060876	0.13457	-2.8729	-3.4062	-3.1854	-3.2521	-3.4708	-3.0583	-3.4854	-3.3646	-3.0938	-3.4354	-3.4021	-3.1688	-3.4354	-3.2958	-3.2188	-3.3396	205.547	-18.016	-36.789	264.918	294.427	82.355	285.895	253.090	242.459	3.340	208.904	159.910	107.153	288.949	73.337	109.810	0.00012243	0.00034763	8.0204e-05	1258.5	1.3082e-06	2.974e-06	1320.4	258.23	2.0179e-06	3.7247e-06	321.35	88.784	69.913	20.064	2.2557e-06	28.202	0.0001727	0.00012609	3.9073e-05	1228.9	1.6562e-06	1.3052e-06	1299.7	255.6	1.8481e-06	1.4102e-06	317.35	88.786	70.089	20.157	1.3734e-06	28.298	117.643	36.834	54.098	-46.538	87.660	100.168	-46.506	-39.788	81.660	94.838	-39.985	-33.301	-32.961	-25.920	101.150	-26.563	-8191	255	
25523.918	1	1	0	0	0.10589	0.12307	0.19683	0.26378	0.17574	0.3163	0.30127	0.1494	0.23984	0.14038	0.14274	0.23237	0.1708	0.21577	0.16414	0.15912	-2.7896	-3.4792	-3.1229	-3.2812	-3.325	-3.0917	-3.3167	-3.4437	-2.8917	-3.2625	-3.3104	-3.2708	-3.3333	-3.1208	-3.2146	-3.3021	192.231	-43.363	40.396	300.532	145.181	46.574	284.003	261.935	274.114	96.761	251.681	216.665	-0.058	143.233	101.997	255.625	8.0857e-05	0.00028093	8.8544e-05	1256.3	2.0277e-06	3.1036e-06	1323.5	259.16	1.5502e-06	2.3631e-06	322.21	88.703	70.04	20.033	2.8922e-06	28.011	0.00016928	0.00012105	3.3435e-05	1230.7	1.737e-06	1.3799e-06	1299.9	255.97	1.884e-06	1.1187e-06	317.86	88.732	70.007	20.162	1.4788e-06	28.33	114.753	30.015	32.262	-46.554	112.496	117.670	-46.731	-39.571	86.558	107.666	-39.918	-33.679	-33.149	-26.149	90.482	-26.692	-8191	255	
25524.014	1	1	0	0	0.21308	0.12471	0.075624	0.17913	0.23522	0.16479	0.31355	0.27136	0.13604	0.1145	0.31467	0.23157	0.13721	0.26955	0.26738	0.06399	-2.5	-3.3521	-3.2833	-3.2125	-3.4	-3.025	-3.325	-3.5271	-3.1688	-3.4771	-3.3	-3.2667	-3.4333	-3.0417	-3.2833	-3.35	254.768	225.581	276.960	268.955	-42.459	116.522	277.749	262.807	-0.142	106.065	256.825	221.423	-5.533	-35.839	156.239	87.074	0.00010504	0.00039374	8.8516e-05	1259.2	2.1473e-06	3.881e-06	1326.7	257.26	9.6922e-07	3.2186e-06	321.97	88.688	70.398	20.122	2.4891e-06	28.451	0.00016445	0.00012993	2.9976e-05	1233.1	1.7129e-06	1.4392e-06	1301.3	255.59	1.7581e-06	1.3436e-06	317.41	88.805	70.138	20.174	1.3779e-06	28.423	116.087	34.115	30.792	-46.664	110.106	89.803	-46.378	-39.547	89.557	110.021	-40.095	-33.353	-32.917	-26.021	78.438	-26.930	-8191	255	
25524.109	1	1	0	0	0.25134	0.16727	0.092764	0.13901	0.20138	0.072932	0.38327	0.30252	0.10415	0.31374	0.20356	0.41223	0.25545	0.22357	0.17473	0.077023	-2.8375	-3.1521	-3.15	-3.1729	-3.3792	-3.3021	-3.425	-3.4208	-3.1458	-3.2458	-3.425	-3.0771	-3.275	-3.1312	-3.0979	-3.4625	133.404	277.725	206.374	208.588	107.629	141.877	210.374	195.515	4.959	224.250	230.918	156.555	172.592	19.704	-28.731	-2.757	0.00011607	0.00033718	9.7503e-05	1259.5	2.169e-06	3.4112e-06	1324.6	259.48	1.7891e-06	3.7491e-06	323.71	88.63	70.223	20.176	2.4209e-06	27.901	0.00017479	0.00012988	3.1225e-05	1232.7	1.9575e-06	1.3528e-06	1302.3	256.43	1.8015e-06	1.3919e-06	318.88	88.764	70.02	20.19	1.3476e-06	28.301	117.593	27.809	36.327	-46.607	84.223	99.259	-46.544	-39.721	81.993	87.710	-39.834	-33.632	-33.038	-26.509	98.080	-26.461	-8191	255	
25524.229	1	1	0	0	0.050351	0.13343	0.050945	0.51097	0.13697	0.096251	0.32959	0.040502	0.1331	0.16056	0.20392	0.12237	0.049333	0.098787	0.12961	0.11561	-2.6188	-3.2125	-3.3375	-3.0604	-3.225	-3.1333	-3.1833	-3.4875	-3.1042	-3.225	-3.45	-3.0625	-3.2479	-3.1833	-3.0458	-3.4	162.819	106.932	245.028	288.895	218.201	88.804	242.757	258.149	293.144	206.362	3.541	201.685	268.841	-22.693	255.962	242.186	9.2203e-05	0.00031579	4.7382e-05	1257.5	1.5931e-06	3.0479e-06	1322	259.27	1.8655e-06	2.2258e-06	322.89	88.892	70.595	20.152	3.0612e-06	28.153	0.00016822	0.00011461	2.961e-05	1232.4	1.8542e-06	1.2706e-06	1300.4	256.58	1.7888e-06	1.3448e-06	318.67	89.004	70.216	20.196	1.4446e-06	28.373	117.293	29.335	53.483	-46.626	104.728	132.343	-46.496	-39.589	93.860	104.078	-39.840	-33.342	-33.094	-25.877	88.908	-26.540	-8191	255	
25524.324	1	1	0	0	0.012104	0.033324	0.2156	0.17529	0.15979	0.19766	0.17602	0.22051	0.07017	0.32946	0.064871	0.098723	0.060437	0.074383	0.21933	0.088325	-2.7938	-3.0042	-3.2146	-3.2354	-3.2375	-3.4021	-3.25	-3.4521	-3.1604	-3.0687	-3.4896	-3.1625	-3.3146	-3.3063	-3.2271	-3.4813	93.670	90.721	48.937	-0.817	94.585	162.451	180.030	230.982	204.965	-38.566	61.892	68.929	62.721	-13.363	-51.819	92.576	0.00010255	0.00029732	8.4531e-05	1260.1	1.853e-06	2.8839e-06	1320.1	259.23	8.8546e-07	3.4452e-06	321.93	89.186	70.781	20.055	2.3732e-06	28.311	0.00016312	0.00013031	3.246e-05	1233.2	1.958e-06	1.2898e-06	1302	256.09	1.7226e-06	1.2299e-06	318.2	88.971	70.272	20.208	1.4793e-06	28.413	122.310	31.026	45.067	-46.467	148.793	101.986	-46.665	-39.646	118.095	91.837	-40.242	-33.367	-33.230	-26.400	86.991	-26.598	-8191	255	
25524.422	1	1	0	0	0.17006	0.1295	0.032954	0.25452	0.19092	0.063721	0.20867	0.080682	0.21812	0.073362	0.1037	0.12167	0.17358	0.082475	0.13941	0.10928	-2.8063	-3.0687	-3.4813	-3.1417	-3.3542	-3.2062	-3.2729	-3.4833	-3.2479	-3.1813	-3.5854	-3.1042	-3.3375	-3.3312	-2.9604	-3.5875	-5.812	-18.713	87.615	222.573	119.734	79.981	269.300	289.794	29.154	238.891	-38.085	16.442	177.535	103.370	-1.334	78.453	0.00011028	0.00024723	7.1319e-05	1260.7	2.1808e-06	3.6791e-06	1326	259.21	1.0373e-06	3.6015e-06	323.66	89.354	69.899	20.115	2.089e-06	28.142	0.00016589	0.00010838	3.569e-05	1233.6	1.8045e-06	1.0916e-06	1302.5	256.76	1.7359e-06	1.2391e-06	318.89	89.118	70.087	20.217	1.5769e-06	28.343	123.519	18.213	44.839	-46.987	110.881	110.143	-46.495	-39.619	116.338	86.290	-39.783	-33.440	-32.962	-26.399	100.801	-26.180	-8191	255	
25524.541	1	1	0	0	0.11691	0.39619	0.083811	0.11355	0.36145	0.11336	0.15226	0.032327	0.05323	0.040755	0.20733	0.14692	0.2558	0.22637	0.18303	0.15759	-2.7146	-3.0812	-3.4021	-3.175	-3.0833	-3.3417	-3.15	-3.3542	-3.1063	-3.1854	-3.5667	-3.1917	-3.2708	-3.2562	-3.1854	-3.2167	278.905	300.321	300.514	260.654	117.649	291.687	189.692	251.041	109.443	170.273	181.088	-41.432	234.077	107.451	-34.424	154.596	9.4495e-05	0.00036366	8.3416e-05	1260.6	1.6343e-06	2.3949e-06	1327.6	259.35	1.3437e-06	3.4008e-06	323.29	89.309	70.38	20.223	2.2736e-06	28.206	0.00016392	0.00012262	3.2155e-05	1235	1.8045e-06	1.1194e-06	1301.8	256.66	1.7226e-06	1.2128e-06	318.97	89.081	70.118	20.224	1.5236e-06	28.388	122.855	34.634	44.269	-46.757	148.197	95.265	-46.747	-39.707	85.562	96.178	-40.091	-33.638	-33.516	-26.514	95.646	-26.547	-8191	255	
25524.613	1	1	0	0	0.30122	0.16289	0.13981	0.076407	0.033702	0.1776	0.050517	0.04705	0.32281	0.13284	0.25124	0.2177	0.18516	0.23898	0.17913	0.20174	-2.8312	-3.0792	-3.3375	-3.2	-3.2854	-3.3438	-3.2125	-3.4979	-3.2896	-3.1771	-3.4417	-3.1063	-3.1937	-3.5521	-2.9854	-3.3729	214.797	-32.970	146.782	-28.635	301.633	166.556	60.667	21.814	211.999	260.331	267.383	22.656	289.928	285.977	-27.370	13.609	9.1456e-05	0.00028178	0.00010119	1259.2	1.2521e-06	2.5226e-06	1321.7	259.31	1.5205e-06	3.2838e-06	323.15	88.726	70.324	20.185	1.8977e-06	28.152	0.00016094	0.00013123	3.5873e-05	1232.2	1.675e-06	1.1595e-06	1302.5	256.68	1.6649e-06	1.4102e-06	318.13	88.96	70.153	20.214	1.236e-06	28.378	121.024	23.416	29.823	-46.661	112.239	119.387	-46.551	-39.724	95.799	102.090	-39.663	-33.488	-33.509	-26.175	96.711	-26.864	-8191	255	
25524.707	1	1	0	0	0.1674	0.067039	0.16592	0.38018	0.24072	0.12018	0.22517	0.091644	0.1807	0.12111	0.03525	0.24169	0.26284	0.1705	0.097105	0.1431	-2.9396	-3.0208	-3.3271	-3.2854	-3.1146	-3.5125	-3.1979	-3.2	-3.2542	-3.1104	-3.3292	-3.1917	-3.1542	-3.475	-3.0042	-3.3125	-51.956	23.674	275.233	-42.948	-23.589	249.115	168.391	251.429	-23.879	167.873	35.853	235.671	126.548	48.778	265.315	108.903	0.00010539	0.00035255	9.1536e-05	1259.3	1.9697e-06	2.7697e-06	1323.2	258.95	1.6518e-06	2.6302e-06	322.72	88.531	70.269	20.167	2.8428e-06	28.295	0.00016227	0.00011829	3.6909e-05	1233.6	1.6343e-06	1.1873e-06	1302	256.21	1.5998e-06	1.3479e-06	318.17	88.75	70.27	20.168	1.5842e-06	28.381	124.633	47.428	44.334	-46.720	109.226	97.735	-46.562	-39.764	114.029	72.340	-39.663	-33.485	-33.229	-26.224	106.661	-26.402	-8191	255	
25524.805	1	1	0	0	0.16815	0.16655	0.078574	0.083449	0.1583	0.061394	0.024697	0.10265	0.19785	0.14377	0.16867	0.1219	0.25261	0.17814	0.12818	0.34245	-3.0604	-3.1104	-3.4188	-3.5146	-3.1958	-3.3771	-3.1854	-3.3167	-3.3812	-3.2729	-3.5292	-3.2833	-3.2125	-3.3312	-3.2896	-3.2833	95.900	-47.049	234.759	256.156	188.637	-47.734	-46.720	192.633	229.998	99.700	40.453	179.331	13.923	222.081	-39.792	221.909	0.00010938	0.0003138	9.2869e-05	1264	1.9521e-06	3.2661e-06	1325.6	258.48	1.4582e-06	2.3301e-06	322.82	88.664	69.86	20.093	2.9802e-06	28.098	0.00015973	0.000123	3.5462e-05	1234	1.7734e-06	1.3521e-06	1299.9	255.97	1.5739e-06	1.4322e-06	317.89	88.745	70.101	20.212	1.4821e-06	28.306	117.653	29.564	42.575	-46.784	118.547	105.241	-46.326	-39.729	107.150	105.574	-39.955	-33.458	-33.235	-25.933	75.789	-26.468	-8191	255	
25524.924	1	1	0	0	0.040899	0.029365	0.019443	0.36521	0.12599	0.1475	0.14474	0.25228	0.10481	0.097192	0.16478	0.25041	0.24691	0.21289	0.19057	0.13268	-2.9667	-2.9417	-3.4229	-3.4646	-3.15	-3.3896	-3.2687	-3.2667	-3.4292	-3.3167	-3.3688	-3.2208	-3.1042	-3.2562	-3.2625	-3.1063	37.335	210.254	58.283	238.613	129.281	174.660	166.250	279.397	105.395	108.674	6.441	82.989	243.204	139.676	293.793	208.795	0.00011351	0.00029763	7.1348e-05	1259.5	2.5633e-06	4.2622e-06	1322.8	259.44	1.4314e-06	2.5838e-06	320.59	88.941	69.989	20.052	3.0507e-06	27.992	0.00015537	0.00013935	3.6376e-05	1232.1	1.7729e-06	1.2793e-06	1298.5	256.12	1.7872e-06	1.4524e-06	317.81	88.726	70.101	20.14	1.3257e-06	28.31	118.846	32.054	37.218	-46.652	104.687	93.325	-46.557	-39.864	83.934	75.454	-39.979	-33.567	-33.255	-26.201	78.265	-26.525	-8191	255	
25525.020	1	1	0	0	0.08129	0.32059	0.10693	0.058816	0.10892	0.083011	0.25745	0.12835	0.068127	0.20944	0.19465	0.12843	0.25466	0.10349	0.18755	0.25651	-3.0646	-2.9708	-3.2104	-3.4313	-3.0229	-3.3604	-3.4042	-3.1771	-3.2812	-3.1583	-3.3	-3.3	-3.0917	-3.5333	-3.3812	-3.1396	110.705	228.028	237.896	290.897	81.852	105.628	231.953	149.434	39.545	-29.993	193.447	38.228	-40.933	228.870	160.090	134.989	0.00010365	0.00028558	0.00011202	1261.9	3.3133e-06	3.6743e-06	1326.5	260.17	1.968e-06	3.4659e-06	320.5	88.498	69.475	20.116	3.1853e-06	28.305	0.00017367	0.0001309	3.5172e-05	1229.9	2.0003e-06	1.4133e-06	1299	256.48	1.6448e-06	1.4915e-06	317.61	88.724	69.882	20.224	1.4474e-06	28.334	122.037	19.009	51.003	-46.670	100.024	101.339	-46.641	-39.803	106.698	99.474	-39.702	-33.463	-33.389	-26.125	91.649	-26.236	-8191	255	
25525.115	1	1	0	0	0.11515	0.19478	0.15191	0.09508	0.17145	0.16831	0.19675	0.11929	0.21718	0.055354	0.12207	0.20117	0.14521	0.054265	0.05913	0.24579	-2.8958	-2.9417	-3.1625	-3.4375	-3.1354	-3.1208	-3.5375	-3.0771	-3.3542	-3.0875	-3.3563	-3.475	-3.1458	-3.3667	-3.3125	-3.1125	137.175	-20.029	85.159	114.039	5.766	243.226	-56.495	150.848	124.133	165.143	164.714	-8.851	2.355	74.662	112.733	242.008	0.00012207	0.00030464	8.8928e-05	1253.1	2.1e-06	2.7272e-06	1326.9	258.69	1.8933e-06	2.3443e-06	321.44	88.816	70.397	20.069	2.7193e-06	28.029	0.00016716	0.00013285	3.278e-05	1227.8	1.8708e-06	1.3719e-06	1299	256.03	1.8391e-06	1.4047e-06	318.31	88.928	70.065	20.168	1.4053e-06	28.302	121.544	45.808	41.173	-46.436	99.299	87.024	-46.534	-39.474	90.306	88.817	-39.800	-33.615	-32.982	-26.218	84.774	-26.598	-8191	255	
25525.188	1	1	0	0	0.17867	0.14699	0.12989	0.14546	0.15155	0.1548	0.13494	0.23344	0.10211	0.17855	0.41596	0.0971	0.13178	0.14645	0.38551	0.31819	-2.9458	-3.2042	-3.0208	-3.5083	-3.1625	-3.2771	-3.4188	-3.2062	-3.3083	-3.1417	-2.9646	-3.4854	-3.0667	-3.2062	-3.4125	-3.0917	103.288	154.215	170.582	245.987	159.025	-4.701	262.614	271.983	-22.576	80.816	-39.018	290.766	300.430	-31.118	12.852	292.018	0.00010827	0.00030582	8.7528e-05	1252.9	1.0525e-06	3.2976e-06	1320.7	259.5	1.6395e-06	2.7643e-06	322.33	87.999	69.99	20.132	2.4748e-06	28.34	0.00016931	0.00012814	3.2962e-05	1227.9	1.8655e-06	1.3361e-06	1299.1	255.65	1.7988e-06	1.2257e-06	318.5	88.398	69.87	20.158	1.2607e-06	28.449	108.317	31.035	44.294	-46.741	102.246	105.639	-46.469	-39.701	70.106	92.387	-39.896	-33.609	-33.099	-26.097	85.587	-26.310	-8191	255	
25525.309	1	1	0	0	0.059829	0.27141	0.13869	0.33417	0.15276	0.033367	0.24258	0.044418	0.17833	0.2073	0.20268	0.22212	0.05677	0.065625	0.18967	0.29472	-3	-3.1	-2.8729	-3.2625	-3.0542	-3.1688	-3.5854	-2.9646	-3.3208	-3.1417	-3.1542	-3.5187	-2.9854	-3.1167	-3.4437	-3.05	282.073	52.218	239.240	285.838	244.372	-6.086	269.985	-41.828	208.702	261.618	29.580	253.915	49.934	-18.064	-8.139	218.876	0.00010758	0.0003221	8.8441e-05	1255.7	1.3411e-06	2.6764e-06	1319.7	259.92	1.1158e-06	3.1429e-06	319.84	88.908	70.041	20.066	2.7394e-06	28.115	0.00016345	0.00012078	3.3557e-05	1228.4	1.8526e-06	1.2836e-06	1297.6	256.5	1.702e-06	1.2526e-06	317.62	88.825	70.078	20.143	1.3235e-06	28.33	114.535	40.306	38.789	-46.460	102.876	110.929	-46.567	-39.555	108.637	86.750	-39.911	-33.272	-33.021	-26.013	107.610	-26.567	-8191	255	
25525.404	1	1	0	0	0.2406	0.20708	0.20348	0.056432	0.17134	0.25586	0.40253	0.21015	0.15498	0.12873	0.072681	0.03909	0.034333	0.19203	0.29466	0.082792	-2.8354	-3.1188	-3.0438	-3.525	-3.0646	-3.0708	-3.5458	-3.1042	-3.1375	-3.1979	-3.1792	-3.4021	-3.2458	-3.0625	-3.3646	-3.0521	263.167	185.981	116.294	165.136	95.288	14.160	228.305	265.329	230.159	-32.479	-48.670	51.865	239.160	253.234	282.800	203.227	0.00011165	0.00027517	8.7897e-05	1258	1.7846e-06	3.6089e-06	1320.3	258.78	1.9943e-06	3.2163e-06	323.03	88.805	70.261	20.215	2.2809e-06	28.207	0.00017014	0.00011553	3.6818e-05	1230	1.9398e-06	1.2904e-06	1298.4	256.05	1.7819e-06	1.2422e-06	318.08	88.778	70.028	20.147	1.3532e-06	28.339	114.710	28.786	15.025	-46.766	105.477	100.494	-46.386	-39.623	48.836	101.128	-39.707	-33.404	-33.213	-26.051	91.818	-26.363	-8191	255	
25525.502	1	1	0	0	0.16956	0.086943	0.1958	0.17239	0.20298	0.16233	0.1442	0.020259	0.068155	0.1485	0.14619	0.25775	0.28797	0.137	0.20413	0.063318	-2.8688	-3.3271	-3.0083	-3.4583	-3.1417	-3.0104	-3.5146	-3.2	-3.05	-3.2333	-3.1125	-3.4479	-3.3312	-3.2042	-3.3	-3.2396	-46.530	1.989	74.044	-54.620	228.966	-42.534	265.473	78.232	150.077	293.493	280.388	143.538	-19.735	-19.832	-10.415	202.553	9.2512e-05	0.00031528	0.00010126	1258.6	1.8396e-06	3.6263e-06	1320.3	260.33	8.0397e-07	2.2756e-06	322.07	88.492	70.232	20.222	1.9363e-06	28.249	0.00017335	0.00010476	3.6742e-05	1230.6	1.9361e-06	1.3015e-06	1299.1	256.21	1.6533e-06	1.0803e-06	317.58	88.726	69.963	20.23	1.3919e-06	28.329	114.858	38.086	33.509	-46.493	100.724	103.486	-46.427	-39.939	72.608	71.308	-40.171	-33.784	-33.067	-26.096	89.028	-26.548	-8191	255	
25525.619	1	1	0	0	0.14763	0.17419	0.15444	0.25506	0.091502	0.16379	0.16055	0.17331	0.17822	0.09805	0.12926	0.29337	0.15986	0.22541	0.078071	0.22025	-2.6729	-3.2375	-3.0396	-3.3604	-2.9896	-2.9854	-3.325	-3.2396	-3.1646	-3.4125	-3.0938	-3.0896	-3.0917	-3.1083	-3.2667	-3.1104	164.765	236.955	67.134	272.488	70.212	116.861	271.402	222.124	146.678	131.653	80.244	222.759	-54.806	152.909	-0.305	250.605	0.00010291	0.00029564	8.7514e-05	1258.1	1.6077e-06	2.4749e-06	1322.5	259	1.5922e-06	4.0487e-06	321.58	88.854	70.227	20.134	3.0311e-06	28.197	0.00015608	9.3604e-05	3.7687e-05	1230.5	1.7536e-06	1.2984e-06	1299.6	256.05	1.6644e-06	1.324e-06	317.64	88.848	70.072	20.161	1.4877e-06	28.303	125.551	37.827	36.458	-46.452	85.024	103.027	-46.702	-39.632	125.162	110.749	-39.957	-33.704	-33.174	-26.193	81.543	-26.222	-8191	255	
25525.717	1	1	0	0	0.19281	0.28752	0.10335	0.20717	0.19062	0.12884	0.25515	0.09771	0.099059	0.14763	0.21647	0.33171	0.13542	0.24258	0.21447	0.095242	-2.8229	-3.2729	-3.1771	-3.4458	-3.1312	-3.1458	-3.5333	-3.3292	-3.1667	-3.4125	-3.1875	-3.3542	-3.3312	-3.1833	-3.4292	-3.3271	-6.011	-34.926	52.839	272.655	142.982	126.143	194.578	301.641	219.679	-53.702	38.240	281.515	186.050	145.831	152.317	116.856	0.00011647	0.00039141	8.4638e-05	1254.9	2.0467e-06	3.7275e-06	1322.9	259.77	1.3284e-06	4.3154e-06	322.25	88.864	69.859	20.113	2.3883e-06	28.191	0.00016566	0.00010763	3.8479e-05	1230.8	1.6145e-06	1.4244e-06	1299.5	256.03	1.6274e-06	1.1951e-06	318.31	88.655	69.833	20.158	1.4748e-06	28.304	118.550	34.014	33.623	-46.565	104.524	95.151	-46.368	-39.757	68.298	94.597	-40.000	-33.252	-33.011	-25.738	97.919	-26.311	-8191	255	
25525.789	1	1	0	0	0.13419	0.18172	0.24527	0.31876	0.078494	0.29086	0.21753	0.023749	0.12976	0.096204	0.22353	0.38911	0.18927	0.072269	0.16146	0.12288	-2.8354	-3.3833	-3.0729	-3.3229	-3.2729	-3.0729	-3.6667	-3.2458	-3.3	-3.3229	-3.1667	-3.275	-3.3563	-2.9521	-3.3229	-3.1667	288.806	14.478	104.735	234.203	266.352	72.875	206.502	148.881	271.019	101.514	175.984	-41.943	43.944	138.410	7.914	288.062	0.00011884	0.00038955	7.0804e-05	1254.2	2.585e-06	2.6761e-06	1319.9	258.07	1.2787e-06	3.8355e-06	322.65	88.533	70.203	19.977	1.5499e-06	28.137	0.00016866	0.00011997	3.5401e-05	1226.9	1.7333e-06	1.3157e-06	1296.8	255.61	1.6639e-06	1.2794e-06	317.54	88.537	69.916	20.123	1.4513e-06	28.336	110.302	27.337	52.593	-46.506	124.126	98.871	-46.337	-39.589	107.669	89.365	-40.126	-33.383	-33.273	-25.791	82.444	-26.613	-8191	255	
25525.908	1	1	0	0	0.26004	0.071262	0.44955	0.049137	0.22637	0.25765	0.17888	0.1987	0.22379	0.18344	0.21127	0.065707	0.098374	0.16263	0.11013	0.089948	-2.65	-3.3333	-2.8917	-3.2396	-3.2917	-3.0333	-3.4208	-3.1583	-3.1604	-3.4292	-3.0958	-3.2938	-3.5208	-3.1521	-3.3792	-3.3771	99.348	73.465	62.209	65.071	73.203	115.928	239.436	201.549	8.561	-12.249	301.670	-33.223	236.732	-26.684	165.701	238.714	0.00011206	0.00025422	9.9871e-05	1255.8	1.9466e-06	3.0138e-06	1314.6	258.26	1.4844e-06	3.0733e-06	322.4	88.38	69.82	20.098	2.1257e-06	28.102	0.0001689	0.00012392	4.1176e-05	1227.5	1.6942e-06	1.4583e-06	1294.2	255.81	1.6697e-06	1.3534e-06	317.55	88.472	69.844	20.152	1.3515e-06	28.301	115.731	42.687	48.103	-46.716	96.678	95.655	-46.598	-39.846	76.319	85.122	-40.157	-33.795	-32.927	-26.158	100.431	-26.439	-8191	255	
25526.006	1	1	0	0	0.33123	0.12362	0.051669	0.16546	0.32343	0.14838	0.031393	0.068472	0.15299	0.11865	0.055333	0.11551	0.54373	0.13715	0.087845	0.065261	-2.7458	-3.3271	-3.1562	-3.3292	-3.1479	-3.1979	-3.4896	-3.3187	-2.9062	-3.4104	-3.2646	-3.3396	-3.425	-3.0312	-3.3104	-3.3729	290.662	-44.351	19.909	217.332	147.652	-20.709	149.796	203.202	204.613	178.160	45.120	285.590	-36.587	187.584	301.585	272.969	0.00011576	0.0003551	9.1885e-05	1250.4	2.5282e-06	3.0029e-06	1319.9	258.72	1.7589e-06	3.665e-06	320.72	87.856	69.804	19.983	2.6987e-06	28.169	0.0001691	0.00012804	3.3709e-05	1225.3	1.7493e-06	1.3663e-06	1295.5	255.45	1.8803e-06	1.3644e-06	317.28	88.386	69.782	20.091	1.4933e-06	28.28	117.905	34.493	29.061	-46.640	82.604	103.894	-46.580	-39.774	109.640	102.796	-39.973	-33.572	-33.298	-26.493	89.198	-26.653	-8191	255	
25526.102	1	1	0	0	0.052362	0.31523	0.018418	0.32419	0.22183	0.026113	0.22877	0.1603	0.038076	0.10952	0.11748	0.25566	0.26685	0.27215	0.21834	0.088357	-2.6875	-3.2604	-3.1229	-3.2208	-3.4	-3.1729	-3.4458	-3.4125	-3.1979	-3.4938	-3.2708	-3.3292	-3.3563	-3.2542	-3.1688	-3.475	-14.223	266.210	289.251	258.976	-50.907	-47.964	217.401	31.357	245.444	297.230	157.243	233.402	213.055	292.479	130.179	195.366	0.00010298	0.00026245	8.4462e-05	1255.1	1.2638e-06	3.9057e-06	1316.4	258.5	1.5508e-06	1.7978e-06	324.5	88.38	69.907	20.049	2.4891e-06	28.007	0.00017706	0.00013025	3.5035e-05	1225.3	1.7092e-06	1.4349e-06	1292.1	255.58	1.9057e-06	1.3106e-06	318.27	88.383	69.693	20.108	1.254e-06	28.16	115.324	18.457	35.819	-46.773	101.544	100.998	-46.602	-39.727	91.677	123.713	-40.024	-33.433	-33.257	-26.542	98.979	-26.931	-8191	255	
25526.221	1	1	0	0	0.13973	0.1634	0.17705	0.045203	0.12663	0.12756	0.40229	0.41291	0.13624	0.038802	0.15042	0.23244	0.051916	0.094862	0.073856	0.10492	-2.6688	-3.275	-3.2104	-3.2479	-3.3229	-3.1042	-3.3083	-3.6354	-3.0979	-3.3583	-3.3937	-3.1354	-3.4104	-3.3292	-3.2542	-3.575	18.847	247.116	194.680	173.025	268.306	177.459	259.524	260.236	-14.907	236.013	-47.401	181.056	265.276	208.735	115.557	184.325	0.00011153	0.00033183	9.0889e-05	1254	1.8157e-06	3.2263e-06	1323	259.62	1.432e-06	4.8155e-06	322.47	87.905	69.8	20.022	1.64e-06	28.118	0.00017217	0.00013729	3.092e-05	1227.3	1.7975e-06	1.3719e-06	1297.5	255.65	1.8565e-06	1.2972e-06	317.08	88.374	69.732	20.126	1.3571e-06	28.25	114.956	46.622	35.160	-46.691	134.110	102.504	-46.601	-39.743	84.490	92.917	-39.970	-33.598	-33.225	-26.347	98.542	-26.501	-8191	255	
25526.316	1	1	0	0	0.097873	0.21868	0.18348	0.32541	0.10421	0.27431	0.12761	0.10922	0.28219	0.089498	0.21153	0.31266	0.093124	0.11586	0.21701	0.059792	-2.7042	-3.2104	-3.2417	-3.2292	-3.3146	-3.2354	-3.3125	-3.5729	-3.0479	-3.3292	-3.3958	-3.1646	-3.3688	-3.2438	-3.0771	-3.4458	71.327	17.580	-21.643	195.947	95.740	116.243	201.960	285.899	68.662	71.437	261.812	-47.909	205.402	213.176	-6.877	230.213	8.027e-05	0.00040253	8.9054e-05	1253.5	2.1381e-06	3.2128e-06	1319.4	257.51	1.2421e-06	2.8045e-06	321.56	87.876	69.718	20.201	1.4583e-06	27.928	0.00017061	0.00012982	2.7766e-05	1227.4	1.79e-06	1.3182e-06	1297	255.11	1.8639e-06	1.3784e-06	317.43	88.404	69.696	20.125	1.3863e-06	28.196	119.537	42.071	51.637	-46.456	108.402	120.766	-46.541	-39.818	111.966	110.158	-39.823	-33.588	-33.249	-26.530	107.579	-26.403	-8191	255	
25526.412	1	1	0	0	0.16948	0.24491	0.12797	0.18787	0.21296	0.0796	0.10659	0.066709	0.10847	0.33955	0.23323	0.14949	0.22968	0.34137	0.077135	0.1281	-2.5792	-3.3333	-3.4146	-3.2771	-3.3896	-3.2021	-3.4083	-3.5458	-3.1937	-3.2771	-3.5167	-2.9896	-3.3625	-3.2313	-3.225	-3.525	-32.694	129.375	42.543	-34.250	-53.315	199.954	217.745	286.703	170.184	220.682	18.367	83.978	273.678	220.993	1.319	174.441	0.00010936	0.00029434	0.00010095	1250.8	1.5538e-06	3.3584e-06	1317.9	260.54	1.2205e-06	3.1613e-06	319.86	88.132	69.875	20.163	2.6504e-06	27.984	0.00016548	0.00012197	3.0235e-05	1225.9	1.7895e-06	1.2706e-06	1295.6	256.31	1.9248e-06	1.1139e-06	317.13	88.444	69.776	20.126	1.5999e-06	28.23	117.640	30.254	15.671	-46.621	73.467	108.464	-46.463	-39.717	90.063	96.127	-40.235	-33.333	-32.822	-26.250	93.785	-26.284	-8191	255	
25526.484	1	1	0	0	0.11219	0.098053	0.12704	0.22281	0.17903	0.19171	0.41869	0.09153	0.11399	0.23368	0.28471	0.081023	0.039445	0.23505	0.28501	0.11163	-2.7958	-3.1646	-3.3458	-3.1917	-3.3563	-3.1104	-3.2375	-3.4875	-3.2188	-3.1167	-3.3	-3.1021	-3.1937	-3.4833	-2.8146	-3.4479	21.086	132.116	53.418	251.836	52.396	267.563	253.549	32.123	-3.351	95.893	268.448	248.142	220.609	-47.529	267.659	291.967	9.9435e-05	0.00025325	8.7245e-05	1251.9	1.8415e-06	2.4688e-06	1320.4	258.78	1.268e-06	3.0753e-06	322.23	87.97	69.714	19.996	2.4701e-06	28.032	0.00016642	0.00011656	3.4883e-05	1227.1	1.8253e-06	9.3229e-07	1295.1	255.73	1.7671e-06	1.1945e-06	317.36	88.437	69.692	20.077	1.6004e-06	28.199	129.044	55.960	32.847	-46.515	95.727	94.452	-46.647	-39.908	84.914	98.965	-40.009	-33.694	-33.049	-26.242	90.602	-26.465	-8191	255	
25526.580	1	1	0	0	0.24727	0.27287	0.13639	0.32914	0.034839	0.22288	0.25207	0.21589	0.11243	0.21452	0.018333	0.18826	0.18824	0.18598	0.24714	0.13286	-2.9583	-3.1229	-3.4396	-3.2938	-3.3083	-3.3271	-3.4021	-3.4354	-3.3229	-3.1833	-3.4979	-3.2562	-3.2708	-3.4813	-3.1292	-3.3458	298.294	90.073	-45.519	267.361	206.486	-28.707	233.639	269.212	125.101	6.266	153.553	284.642	296.945	178.258	143.384	206.545	9.5693e-05	0.00027918	7.5239e-05	1250.6	8.5582e-07	3.6223e-06	1320	258.18	1.4735e-06	3.0549e-06	324.54	88.681	70.196	20.148	2.4602e-06	28.103	0.00017235	0.00011802	3.2856e-05	1225.4	1.6707e-06	1.3132e-06	1294.6	255.23	1.666e-06	1.1291e-06	318.3	88.469	69.757	20.09	1.5842e-06	28.189	110.588	19.673	36.460	-46.561	115.066	91.281	-46.607	-39.663	84.039	97.790	-39.946	-33.732	-33.213	-26.524	95.483	-26.255	-8191	255	
25526.699	1	1	0	0	0.19089	0.10029	0.081922	0.21331	0.15864	0.17571	0.14173	0.11465	0.21745	0.13559	0.091794	0.18392	0.23096	0.08617	0.16191	0.022903	-2.7125	-3.1104	-3.4271	-3.2146	-3.2708	-3.3333	-3.2396	-3.4146	-3.2021	-3.1479	-3.6562	-3.2	-3.2083	-3.4271	-3.1729	-3.4979	112.170	122.491	243.236	-44.283	115.528	194.413	194.348	289.126	211.732	-15.208	-52.256	238.921	120.276	145.516	130.548	-6.936	0.00010577	0.00034548	9.593e-05	1253.9	2.9718e-06	3.1502e-06	1319.9	258.59	1.7004e-06	2.8565e-06	321.34	87.951	70.37	19.997	2.2146e-06	28.236	0.00015672	0.0001178	3.473e-05	1226.5	1.9131e-06	1.1706e-06	1295.6	255.5	1.8708e-06	1.2691e-06	317.66	88.366	69.872	20.066	1.43e-06	28.307	127.860	24.932	30.476	-46.590	113.540	98.455	-46.306	-39.795	91.901	100.349	-39.900	-33.546	-33.192	-26.100	98.044	-26.229	-8191	255	
25526.797	1	1	0	0	0.23833	0.16928	0.17319	0.27218	0.19016	0.1756	0.38333	0.23781	0.1248	0.043055	0.15633	0.24136	0.21134	0.14172	0.16755	0.21765	-2.9313	-2.8375	-3.4729	-3.3625	-3.3458	-3.3917	-3.3229	-3.4458	-3.2188	-2.95	-3.5062	-3.1063	-3.1688	-3.6104	-3.1042	-3.2938	-36.026	178.845	161.274	222.664	21.361	-12.716	235.999	252.445	83.049	58.330	273.312	254.648	246.301	201.151	-46.682	166.009	0.000101	0.00028253	8.1712e-05	1256.9	1.605e-06	4.5188e-06	1317.4	259.41	8.9026e-07	3.3011e-06	320.91	88.144	69.939	20.106	2.7485e-06	27.921	0.00015873	0.00012446	3.6315e-05	1226.6	1.7536e-06	1.2719e-06	1294.6	256	1.5231e-06	1.1866e-06	316.98	88.377	69.754	20.079	1.578e-06	28.255	121.616	22.469	46.727	-46.563	99.751	98.934	-46.618	-39.818	85.558	114.584	-40.173	-33.387	-33.165	-26.227	77.868	-26.606	-8191	255	
25526.893	1	1	0	0	0.13021	0.17064	0.33207	0.27212	0.078408	0.14235	0.41528	0.047584	0.097444	0.22274	0.25176	0.086889	0.17185	0.19133	0.18552	0.20351	-2.8854	-3	-3.325	-3.4938	-3.0187	-3.3937	-3.1771	-3.3979	-3.2875	-3.1188	-3.325	-3.1917	-3.1312	-3.4771	-2.9437	-3.2812	96.714	182.423	210.860	291.014	95.292	261.407	295.896	292.051	82.631	66.354	300.551	185.031	264.232	-30.342	56.093	247.428	0.00010217	0.00026772	6.6236e-05	1257.3	1.5037e-06	3.3244e-06	1315.6	258.66	1.4153e-06	2.1793e-06	320.93	88.263	70.273	20.129	2.0799e-06	28.078	0.00016527	0.00012186	3.4867e-05	1227.6	1.706e-06	1.2533e-06	1293.9	255.5	1.7671e-06	1.3222e-06	317.11	88.531	69.864	20.131	1.5948e-06	28.24	118.964	27.361	36.027	-46.649	87.418	106.143	-46.758	-39.621	98.105	94.100	-40.027	-33.292	-33.168	-26.390	74.305	-26.805	-8191	255	
25527.014	1	1	0	0	0.10902	0.24904	0.13297	0.045147	0.14303	0.10233	0.18384	0.33491	0.19733	0.030064	0.075339	0.17944	0.12574	0.13551	0.029295	0.12951	-2.8354	-3.1375	-3.35	-3.2979	-3.0917	-3.5354	-3.3708	-3.4125	-3.3625	-3.1833	-3.3646	-3.3438	-3.025	-3.4125	-3.1	-3.2208	31.616	282.249	122.469	271.340	284.727	210.709	104.011	257.791	291.226	24.665	-51.887	-44.321	275.595	246.885	-47.639	264.081	0.00011198	0.00031119	8.6491e-05	1253.5	1.17e-06	2.9855e-06	1315.8	257.93	1.6863e-06	3.3579e-06	320.98	88.445	69.81	20.06	1.8969e-06	28.095	0.00016138	0.00013908	3.8083e-05	1226.6	1.8842e-06	1.2855e-06	1294.2	255.19	1.6819e-06	1.3662e-06	317.13	88.523	69.787	20.086	1.416e-06	28.253	116.459	46.534	32.486	-46.642	104.684	100.996	-46.462	-39.565	115.111	76.098	-39.923	-33.346	-32.941	-25.976	79.088	-26.178	-8191	255	
25527.086	1	1	0	0	0.18259	0.045353	0.10387	0.15339	0.2889	0.26386	0.27018	0.13141	0.13598	0.2354	0.19458	0.13386	0.1441	0.11566	0.3078	0.062022	-2.8271	-3.0854	-3.1562	-3.4125	-3.025	-3.3187	-3.2188	-3.2542	-3.3417	-3.1646	-3.3667	-3.3312	-3.0938	-3.4875	-3.1312	-3.2354	-23.947	201.878	221.529	219.194	46.278	289.445	216.922	237.322	263.861	115.443	224.297	113.517	-14.817	-29.180	197.704	198.456	0.00011459	0.00035439	7.8868e-05	1253.4	2.4441e-06	3.6566e-06	1317.5	258.29	1.7082e-06	2.9681e-06	322.62	88.527	70.176	20.143	2.6402e-06	28.312	0.00016642	0.00013637	3.4776e-05	1226.7	1.9323e-06	1.3571e-06	1294.9	255.61	1.866e-06	1.3179e-06	317.93	88.678	69.833	20.156	1.3454e-06	28.284	112.130	36.593	41.308	-46.313	88.812	114.822	-46.658	-39.676	66.779	88.331	-39.864	-33.588	-33.196	-26.371	78.376	-26.422	-8191	255	
25527.182	1	1	0	0	0.20822	0.055392	0.18724	0.22103	0.13368	0.17624	0.42795	0.10234	0.10441	0.10891	0.092191	0.2834	0.14732	0.077755	0.23775	0.17373	-2.9	-3.15	-3.0646	-3.5229	-3.0208	-3.4188	-3.3479	-3.0062	-3.3792	-3.1	-3.2458	-3.2687	-3.0833	-3.3583	-3.1813	-3.1521	-15.700	104.688	-28.752	246.361	-41.418	93.850	227.817	148.849	284.722	-49.703	105.530	302.049	61.506	8.343	26.901	123.370	0.00011509	0.00036386	0.00011711	1253.4	2.22e-06	3.9341e-06	1323.8	258.98	1.7736e-06	3.6026e-06	321.47	88.682	69.781	19.969	2.8035e-06	27.99	0.00017423	0.000138	3.5294e-05	1226.8	1.8986e-06	1.3836e-06	1297.5	255.53	1.7438e-06	1.3039e-06	317.02	88.624	69.757	20.109	1.439e-06	28.262	115.910	33.113	40.774	-46.707	88.665	106.878	-46.663	-39.477	115.296	90.023	-39.757	-33.554	-33.317	-26.065	89.982	-26.905	-8191	255	
25527.303	1	1	0	0	0.14487	0.18789	0.18586	0.25762	0.14762	0.14055	0.38196	0.085468	0.13601	0.1781	0.17357	0.21925	0.13787	0.14373	0.043079	0.22746	-3.0771	-3	-3.1958	-3.475	-3.1917	-3.4979	-3.3854	-3.0979	-3.4375	-3.2771	-3.2458	-3.4125	-3.2562	-3.4104	-3.3271	-2.9833	62.782	-16.408	216.579	278.345	180.612	230.565	162.259	-1.886	21.841	187.320	-38.294	-20.841	274.623	201.451	288.247	163.017	9.5869e-05	0.00036544	0.00011217	1256.9	2.1966e-06	3.1714e-06	1320.2	258.36	9.1664e-07	3.0186e-06	322.28	88.469	69.657	20.125	2.3999e-06	28.28	0.00017067	0.00012939	3.1591e-05	1228	2.0265e-06	1.4293e-06	1296.9	255.47	1.7147e-06	1.2116e-06	317.93	88.569	69.775	20.094	1.2831e-06	28.291	115.117	40.130	33.325	-46.506	115.390	104.697	-46.513	-39.647	94.959	89.882	-39.673	-33.555	-32.751	-26.131	76.909	-26.655	-8191	255	
25527.398	1	1	0	0	0.16866	0.17485	0.14613	0.036108	0.11951	0.19565	0.18771	0.21905	0.096845	0.15267	0.25569	0.21675	0.054154	0.19663	0.049726	0.11113	-3.0875	-3.2062	-2.8688	-3.6292	-2.7896	-3.3229	-3.4333	-3.1104	-3.2354	-3.2708	-3.2313	-3.3917	-3.0875	-3.2396	-3.4021	-2.9854	-38.777	-8.185	-8.805	290.867	53.472	231.151	279.202	-52.097	207.774	300.796	286.394	123.770	39.657	150.709	254.941	147.550	0.00010186	0.00033129	0.00011678	1258.7	1.9146e-06	2.3035e-06	1320	258.84	1.7271e-06	4.2717e-06	320.69	88.252	69.795	20.075	3.1914e-06	27.965	0.00015808	0.0001152	3.5416e-05	1229.7	1.9928e-06	1.2027e-06	1295.4	255.61	1.7851e-06	1.2464e-06	317.04	88.58	69.788	20.127	1.3913e-06	28.197	129.470	39.771	30.144	-46.744	88.211	100.891	-46.551	-39.430	87.166	100.645	-39.756	-33.329	-32.991	-26.218	104.796	-26.325	-8191	255	
25527.494	1	1	0	0	0.10562	0.17289	0.22933	0.063001	0.059586	0.12385	0.054701	0.24382	0.1835	0.021317	0.18088	0.12723	0.080312	0.27567	0.088465	0.14626	-2.9104	-3.1167	-3.0396	-3.4938	-3.1542	-3.1562	-3.5	-3.0771	-3.3167	-3.2021	-3.1667	-3.4333	-3.1854	-3.1937	-3.3271	-3.2812	262.567	-23.716	286.520	281.562	97.216	91.772	179.485	268.932	29.494	282.616	251.363	275.866	63.225	68.882	-18.465	-42.758	0.00010545	0.00028022	0.00010031	1253.2	1.8135e-06	3.9399e-06	1314.5	257.91	1.3722e-06	2.474e-06	319.65	88.573	69.734	19.921	2.7914e-06	28.042	0.0001671	0.00010892	3.4075e-05	1227	1.851e-06	1.1712e-06	1292.9	255.46	1.7411e-06	1.1841e-06	316.92	88.594	69.674	20.084	1.4177e-06	28.189	108.589	19.169	48.442	-46.660	122.019	90.854	-46.627	-39.798	70.974	100.859	-39.794	-33.438	-33.204	-26.239	106.370	-26.681	-8191	255	
25527.590	1	1	0	0	0.20364	0.028346	0.36167	0.29472	0.075812	0.25699	0.030416	0.062545	0.23135	0.18708	0.17266	0.1036	0.3673	0.15649	0.19552	0.096434	-3.0146	-3.2625	-3.0479	-3.5396	-3.1146	-3.1813	-3.4521	-3.1562	-3.3729	-3.5062	-3.0542	-3.3833	-3.275	-3.1521	-3.3688	-3.2104	249.642	194.141	44.682	277.551	-3.256	98.635	125.503	-3.338	282.461	144.665	-19.283	-23.965	-16.353	233.584	72.446	-45.585	0.00010138	0.00031829	8.3073e-05	1248.2	2.2186e-06	2.7989e-06	1315.8	258.1	7.049e-07	3.6967e-06	321.28	88.282	69.673	20.077	3.0865e-06	28.017	0.00016003	0.00010508	3.3557e-05	1223.7	1.7445e-06	1.0768e-06	1292.5	255.33	1.5819e-06	1.208e-06	316.35	88.331	69.675	20.057	1.4311e-06	28.115	108.857	29.592	30.636	-46.511	126.209	110.271	-46.714	-39.930	114.139	98.101	-39.809	-33.629	-32.920	-26.145	87.753	-26.305	-8191	255	
25527.709	1	1	0	0	0.099968	0.055512	0.14785	0.10798	0.022493	0.2367	0.13454	0.2085	0.063685	0.17292	0.063076	0.23555	0.098718	0.023458	0.1669	0.072508	-2.975	-3.2917	-3.0292	-3.5854	-3.2458	-3.2917	-3.4771	-3.1833	-3.3438	-3.1354	-3.0125	-3.2896	-3.35	-3.0521	-3.5229	-3.075	-56.090	200.974	27.548	210.547	253.648	-34.473	201.678	178.285	247.291	175.459	-30.375	-45.594	286.547	99.024	239.146	-39.363	9.4867e-05	0.00038654	9.3626e-05	1245.1	2.3929e-06	3.5958e-06	1306.4	256.97	1.5725e-06	2.7716e-06	319.51	87.506	69.193	19.843	2.4548e-06	28.036	0.00015018	0.00010043	3.6757e-05	1218.6	1.6787e-06	1.2089e-06	1282.5	253.55	1.5485e-06	9.7883e-07	314.4	87.915	69.192	19.88	1.3414e-06	28.084	126.711	49.598	46.540	-46.520	95.719	92.786	-46.706	-39.599	97.857	95.291	-40.008	-33.250	-32.934	-25.939	88.647	-26.454	-8191	255	
25527.781	1	1	0	0	0.12874	0.11179	0.17887	0.39533	0.18954	0.20307	0.19984	0.12076	0.058467	0.078565	0.19235	0.35974	0.11122	0.26719	0.12222	0.21746	-2.7625	-3.2375	-3.0354	-3.3	-3.1688	-2.9729	-3.5167	-3.0458	-3.1188	-3.1958	-3.3771	-3.0958	-3.3604	-3.0729	-3.3771	-3.0687	4.985	-22.564	185.688	262.294	229.511	188.167	279.083	44.938	233.084	60.599	195.669	266.187	101.407	56.216	95.769	-38.103	8.7362e-05	0.00035947	0.00010749	1232.7	1.9726e-06	3.1956e-06	1302.4	255.18	1.412e-06	3.5526e-06	321.01	87.713	69.151	19.762	2.7477e-06	27.786	0.00014912	0.00010459	3.5111e-05	1206.6	1.6016e-06	1.254e-06	1277.1	252.21	1.503e-06	1.1249e-06	314.29	87.723	68.99	19.944	1.1239e-06	28.066	122.354	48.064	35.732	-46.424	113.162	102.732	-46.432	-39.956	122.345	101.739	-40.014	-33.285	-33.076	-26.231	89.370	-26.384	-8191	255	
25527.900	1	1	0	0	0.18765	0.30167	0.13427	0.13747	0.36632	0.056758	0.2093	0.056446	0.16369	0.17425	0.21291	0.098854	0.053481	0.03102	0.15873	0.066895	-2.8708	-3.4271	-2.9208	-3.5146	-3.1667	-2.9833	-3.5646	-3.0979	-3.1521	-3.4521	-3.2292	-3.25	-3.3563	-3.1167	-3.2417	-3.3021	82.049	116.249	115.332	291.947	68.971	84.798	250.289	103.486	121.802	140.480	177.582	247.584	172.241	236.770	280.469	212.552	0.00011497	0.00030802	7.2199e-05	1232.4	1.3541e-06	3.7236e-06	1296	253.68	1.4879e-06	3.1923e-06	317.12	87.275	69.666	19.876	2.5538e-06	27.896	0.0001661	0.00011526	3.0509e-05	1204.3	1.4871e-06	1.17e-06	1273.4	251.46	1.6136e-06	1.0277e-06	313.24	87.639	68.932	19.91	1.4194e-06	28.027	114.770	32.471	34.725	-46.435	121.250	99.408	-46.559	-39.817	113.535	111.927	-39.978	-33.618	-32.893	-26.247	93.357	-26.499	-8191	255	
25527.996	1	1	0	0	0.10993	0.03389	0.12058	0.15566	0.024624	0.19106	0.15021	0.046586	0.12459	0.19543	0.089731	0.1743	0.022615	0.25455	0.077078	0.094539	-2.5646	-3.2396	-2.9542	-3.425	-3.1708	-3.2812	-3.4562	-3.2146	-3.0792	-3.3333	-3.1021	-3.3958	-3.3833	-3.1063	-3.3396	-3.2896	239.584	190.160	184.972	288.985	-4.054	-54.256	281.523	189.056	165.684	130.291	-55.925	140.666	244.903	298.871	-0.507	64.283	9.9333e-05	0.00040616	9.9002e-05	1229.3	1.5017e-06	3.6889e-06	1296.4	255.24	1.8229e-06	3.9625e-06	317.21	87.138	68.689	19.928	2.0031e-06	27.929	0.00014735	0.00011623	3.2947e-05	1203.2	1.6461e-06	1.304e-06	1272.4	251.57	1.6538e-06	1.1426e-06	313.11	87.498	68.944	19.924	1.2641e-06	28.067	126.510	32.114	53.484	-46.347	101.185	88.285	-46.419	-39.577	111.093	97.710	-39.467	-33.508	-33.122	-26.204	110.325	-26.343	-8191	255	
25528.094	1	1	0	0	0.16309	0.18065	0.043035	0.18126	0.068365	0.12329	0.1363	0.17103	0.19619	0.16616	0.34719	0.12352	0.043829	0.18055	0.12977	0.11705	-2.8229	-3.2729	-3.0542	-3.3	-3.2229	-3.0708	-3.4271	-3.1229	-3.0354	-3.4688	-3.1208	-3.2875	-3.3667	-3.0438	-3.2958	-3.2979	78.317	294.516	-43.501	-49.643	248.670	260.142	197.373	286.266	236.139	-19.049	47.718	-40.996	217.455	181.448	-12.198	290.987	0.00010103	0.00037277	8.5588e-05	1228.2	1.6277e-06	4.1767e-06	1302.1	254.64	1.3449e-06	2.294e-06	315.65	87.629	69.44	19.991	1.9026e-06	27.965	0.00016421	0.00010254	3.2612e-05	1202.6	1.6252e-06	1.3299e-06	1274.7	251.59	1.6538e-06	1.153e-06	312.62	87.65	68.929	19.962	1.2299e-06	28.04	112.182	42.673	34.384	-46.478	97.632	95.260	-46.368	-39.479	94.231	86.865	-39.767	-33.389	-32.993	-26.184	100.900	-26.556	-8191	255	
25528.189	1	1	0	0	0.21928	0.14921	0.18993	0.092368	0.20801	0.14495	0.37396	0.25109	0.21729	0.057761	0.165	0.1129	0.17169	0.1735	0.15103	0.19638	-2.5687	-3.2979	-3.1771	-3.2417	-3.4083	-3.0896	-3.3479	-3.3708	-3.0479	-3.3729	-3.0896	-3.2062	-3.4479	-2.9229	-3.2833	-3.4042	-32.647	224.902	131.380	287.401	10.136	101.636	205.573	215.233	152.735	110.031	212.553	254.601	-41.115	28.986	-49.407	211.643	0.00010787	0.00021414	7.7927e-05	1229.6	1.5696e-06	3.5987e-06	1296.2	253.06	5.4801e-07	3.3486e-06	315.91	87.337	68.897	19.829	2.4593e-06	27.805	0.00015684	0.00010102	2.8894e-05	1202.2	1.5968e-06	1.3793e-06	1272.6	250.68	1.6866e-06	1.2092e-06	313.18	87.581	68.932	19.896	1.1441e-06	28.01	121.091	44.470	23.877	-46.678	124.625	96.327	-46.450	-39.625	90.411	72.663	-39.659	-33.757	-33.177	-26.067	91.230	-26.297	-8191	255	
25528.285	1	1	0	0	0.15954	0.10928	0.10223	0.089158	0.19893	0.1521	0.1479	0.18656	0.21581	0.19459	0.17951	0.21975	0.28359	0.02299	0.34287	0.3117	-2.6833	-3.4333	-3.2167	-3.1604	-3.4604	-3.1875	-3.4167	-3.3125	-3.1583	-3.3812	-3.4104	-3.0917	-3.5271	-3.0458	-3.0667	-3.2604	24.861	33.579	21.629	301.140	-45.190	155.601	219.199	287.019	121.429	250.495	289.307	203.720	208.687	58.653	239.645	43.358	9.7363e-05	0.00023472	0.0001028	1226.2	1.4806e-06	3.3871e-06	1289.9	254.3	1.2571e-06	3.9686e-06	316.07	87.644	68.918	19.852	2.0916e-06	27.936	0.00016112	0.00010551	2.7751e-05	1201.1	1.562e-06	1.2379e-06	1269.9	251.2	1.6088e-06	1.2458e-06	312.66	87.562	68.595	19.87	1.1817e-06	28.036	122.487	29.456	33.188	-46.528	93.931	95.198	-46.494	-39.410	114.378	92.731	-39.877	-33.392	-32.882	-25.740	99.326	-26.239	-8191	255	
25528.383	1	1	0	0	0.24091	0.19985	0.16031	0.22339	0.16496	0.24654	0.17307	0.23496	0.20568	0.15536	0.069801	0.16973	0.066367	0.17508	0.042561	0.11271	-2.5521	-3.4333	-3.2479	-3.1583	-3.3125	-3.1188	-3.2833	-3.3583	-3.1042	-3.2792	-3.3187	-3.1	-3.4958	-3.0021	-3.2583	-3.3625	88.292	44.523	122.573	-50.590	272.504	59.790	179.375	231.021	97.575	262.638	-29.092	152.187	179.201	222.163	223.601	288.305	0.00011594	0.00032865	9.455e-05	1223.7	2.4453e-06	3.1161e-06	1283.8	253.74	1.4137e-06	3.6296e-06	315.73	86.657	68.826	19.847	2.4599e-06	27.786	0.00015731	0.00011705	2.8863e-05	1198.1	1.6364e-06	1.0243e-06	1266	250.5	1.7089e-06	1.0998e-06	312.23	87.275	68.523	19.857	1.2848e-06	27.995	117.517	35.458	27.313	-46.415	113.712	101.919	-46.122	-39.423	84.383	93.927	-39.521	-33.312	-32.693	-26.166	97.477	-26.223	-8191	255	
25528.479	1	1	0	0	0.023326	0.13043	0.14482	0.050951	0.069043	0.20757	0.25091	0.1001	0.035528	0.076818	0.10882	0.1543	0.26161	0.22796	0.091166	0.21354	-2.6167	-3.3333	-3.2771	-3.0708	-3.3708	-3.2646	-3.1479	-3.4604	-3.2208	-3.3646	-3.2875	-3.0958	-3.3417	-3.4083	-3.0812	-3.3563	44.090	181.254	35.056	254.637	170.630	136.100	243.860	252.331	53.024	242.899	175.356	196.174	-15.956	-11.260	250.325	282.481	9.7802e-05	0.00038255	0.000102	1229.1	2.2536e-06	2.689e-06	1287.9	253.99	1.6651e-06	3.0522e-06	315.91	87.43	69.037	19.737	3.5057e-06	27.761	0.00015796	9.7448e-05	2.8071e-05	1196.7	1.7071e-06	8.8722e-07	1266.5	250.96	1.7126e-06	1.0155e-06	312.06	87.388	68.899	19.857	1.4137e-06	27.943	118.701	49.615	35.869	-46.508	94.886	80.344	-46.275	-39.747	83.085	95.440	-39.893	-33.497	-32.974	-25.996	87.623	-26.656	-8191	255	
25528.574	1	1	0	0	0.25441	0.15913	0.060183	0.36685	0.19132	0.39151	0.20982	0.070125	0.24325	0.16036	0.055733	0.28538	0.14606	0.089052	0.17929	0.06205	-2.6125	-3.125	-3.3521	-3.2188	-3.3875	-3.2438	-3.375	-3.5375	-3.075	-3.2521	-3.3792	-3.1063	-3.6063	-3.1813	-3.1542	-3.5771	265.448	247.745	56.649	275.203	98.812	-1.977	250.778	60.798	-12.566	7.224	-53.642	261.324	225.709	247.686	105.893	127.514	9.8139e-05	0.00032489	6.0711e-05	1218.6	2.1124e-06	2.749e-06	1293.5	252.68	1.4804e-06	3.1081e-06	317.04	87.222	69.195	19.767	1.8051e-06	27.832	0.00015622	0.00010005	2.9168e-05	1195.1	1.539e-06	1.007e-06	1266.2	250.32	1.4877e-06	9.4767e-07	312.38	87.208	68.651	19.83	1.2613e-06	27.987	118.014	41.527	40.718	-46.381	107.257	104.425	-46.368	-39.572	111.951	95.881	-40.010	-33.588	-32.820	-25.934	69.589	-26.363	-8191	255	
25528.672	1	1	0	0	0.07095	0.25199	0.32788	0.16482	0.31474	0.065981	0.23776	0.28463	0.229	0.13549	0.10113	0.36178	0.013092	0.12604	0.05758	0.27119	-2.8375	-3.1458	-3.5083	-3.1042	-3.4354	-3.3937	-3.2104	-3.5104	-3.1937	-3.3479	-3.3729	-3.1854	-3.1875	-3.2771	-3.1271	-3.4958	130.037	-34.117	72.004	298.690	251.274	-43.154	241.603	202.958	5.788	47.875	141.410	212.486	169.572	-9.231	92.227	185.199	9.6167e-05	0.00030023	9.0173e-05	1225	2.4187e-06	2.7993e-06	1288.1	253.94	1.0841e-06	2.8776e-06	315.3	87.318	68.757	19.796	2.3454e-06	27.804	0.00015852	9.6419e-05	2.9991e-05	1194.3	1.5091e-06	1.0379e-06	1264.2	250.62	1.4813e-06	1.046e-06	311.34	87.457	68.687	19.834	1.3605e-06	27.982	113.939	12.954	38.106	-46.617	119.055	86.025	-46.474	-39.627	69.521	92.823	-39.942	-33.495	-32.953	-26.507	101.722	-26.229	-8191	255	
25528.789	1	1	0	0	0.24344	0.17501	0.11147	0.23084	0.32032	0.091635	0.25898	0.11215	0.18544	0.10281	0.051587	0.23196	0.033609	0.14498	0.13226	0.32475	-2.7833	-3.2333	-3.2417	-3.1063	-3.2229	-3.3521	-3.1813	-3.3458	-3.1729	-2.9396	-3.4	-3.1937	-3.1604	-3.3667	-3.0083	-3.5125	74.526	81.930	77.634	241.203	19.864	100.723	194.221	298.259	136.502	218.662	281.265	217.237	226.291	35.775	86.310	280.676	0.00011708	0.00034056	7.7983e-05	1223.5	1.213e-06	2.219e-06	1284	253.45	1.826e-06	3.5595e-06	314.58	87.121	68.646	19.782	2.8327e-06	27.825	0.0001477	0.00011006	3.1469e-05	1193.1	1.5578e-06	1.1175e-06	1260.1	250.11	1.4019e-06	1.1487e-06	311.4	87.327	68.556	19.81	1.333e-06	27.948	112.939	43.847	28.035	-46.496	118.442	124.676	-46.183	-39.502	83.056	90.205	-39.814	-33.108	-33.010	-25.995	98.601	-26.408	-8191	255	
25528.887	1	1	0	0	0.062957	0.14785	0.39056	0.14671	0.14046	0.42748	0.29835	0.16038	0.22435	0.060146	0.37768	0.18713	0.062733	0.27731	0.085317	0.21983	-2.9646	-3.0542	-3.4375	-3.1604	-3.2208	-3.4458	-3.0792	-3.4688	-3.2271	-3.0396	-3.4667	-3.325	-3.1208	-3.5021	-2.8771	-3.35	234.797	195.719	102.509	104.611	282.803	283.009	227.774	187.490	-16.242	124.048	212.034	198.102	135.691	-9.379	262.517	265.643	0.00010649	0.00032551	0.00011708	1213.4	1.9358e-06	3.6148e-06	1281.9	252.94	1.6939e-06	2.8831e-06	314.06	87.198	68.229	19.782	1.6468e-06	27.972	0.0001516	0.00010292	3.0235e-05	1189.1	1.5824e-06	9.4217e-07	1259.1	249.48	1.4278e-06	1.1835e-06	310.75	87.273	68.402	19.801	1.2467e-06	28.021	119.981	31.887	28.571	-46.594	109.225	121.277	-46.336	-39.840	85.085	92.272	-39.672	-33.555	-33.182	-26.242	92.025	-26.102	-8191	255	
25528.982	1	1	0	0	0.15938	0.31753	0.27736	0.25306	0.14263	0.14641	0.12868	0.14646	0.12679	0.14319	0.26762	0.11292	0.10562	0.17886	0.32641	0.0092301	-2.9104	-3.0792	-3.2479	-3.2708	-3.1708	-3.475	-3.2646	-3.3688	-3.4021	-3.0917	-3.3479	-3.2417	-3.1937	-3.4437	-3.0104	-3.3833	54.118	167.130	286.421	-56.673	-1.765	-1.774	162.168	284.877	255.297	43.542	-31.921	-22.921	71.708	197.168	-10.794	263.187	9.4539e-05	0.00038185	8.4171e-05	1213.7	2.405e-06	3.6715e-06	1282.6	252.5	1.6258e-06	3.143e-06	314.46	86.913	68.808	19.79	2.4115e-06	27.766	0.00014933	0.00010459	2.5221e-05	1188.6	1.5455e-06	9.4464e-07	1259.8	249.6	1.6036e-06	1.2495e-06	311.24	87.299	68.488	19.768	1.2848e-06	27.934	128.778	37.565	37.764	-46.465	115.024	88.372	-46.386	-39.666	123.147	98.518	-39.820	-33.466	-32.914	-26.030	73.226	-25.964	-8191	255	
25529.078	1	1	0	0	0.19398	0.22719	0.12814	0.069698	0.15693	0.18563	0.16957	0.12714	0.10702	0.13009	0.15788	0.17133	0.11538	0.23107	0.11591	0.10216	-2.9375	-2.7833	-3.3479	-3.2979	-3.15	-3.5667	-3.2542	-3.2771	-3.2938	-2.9833	-3.5583	-3.2833	-3.3333	-3.3917	-3.1979	-3.2667	106.285	123.645	219.545	276.629	179.354	172.384	258.771	285.174	-17.734	80.771	256.162	274.149	195.337	282.531	-20.515	231.200	8.4496e-05	0.00027998	6.9934e-05	1212.6	2.1945e-06	2.8212e-06	1285.1	251.97	1.6901e-06	3.6445e-06	313.39	86.473	68.235	19.693	3.0796e-06	27.791	0.00014555	0.00011033	2.865e-05	1188.8	1.6846e-06	1.0947e-06	1259.5	249.23	1.4993e-06	1.2935e-06	310.59	87.015	68.386	19.804	1.3924e-06	27.954	113.446	38.162	18.356	-46.376	106.483	91.411	-46.447	-39.527	77.363	86.325	-39.943	-33.277	-33.120	-26.017	95.343	-26.269	-8191	255	
25529.174	1	1	0	0	0.18675	0.079025	0.13915	0.11837	0.13569	0.12274	0.21263	0.016258	0.089891	0.19074	0.20169	0.11587	0.062313	0.19481	0.17161	0.30076	-2.9542	-3.1063	-3.3833	-3.3167	-3.1063	-3.4708	-3.3333	-3.2354	-3.3104	-3.0917	-3.5646	-3.2521	-3.0979	-3.3438	-3.2146	-3.0208	70.480	185.324	40.914	-13.589	247.220	-21.050	214.441	107.687	116.002	277.510	167.233	131.768	-49.547	-49.078	251.287	272.992	9.6991e-05	0.0002682	7.9736e-05	1212.8	2.6405e-06	3.2846e-06	1281	253.07	5.2723e-07	3.3026e-06	314.42	86.666	68.47	19.595	3.1856e-06	27.712	0.0001549	0.00010589	2.8589e-05	1188.9	1.8317e-06	1.0064e-06	1258.6	249.89	1.4855e-06	1.1249e-06	310.55	87.023	68.336	19.77	1.2714e-06	27.888	115.541	43.150	42.496	-46.516	112.590	101.070	-46.283	-39.535	57.198	77.892	-39.823	-33.368	-33.553	-25.761	91.639	-26.128	-8191	255	
#DATA ENDS
