BOXY.EXE: ISS Imagent and Oximeter Data Acquisition Program Version 0.80
Ascii Record File

#ACQ INFORMATION
2  Detector Channels 
16  External MUX Channels 
1  Auxiliary Channels 
5000  Waveform (CCF) Frequency (Hz)
1  Waveforms Skipped 
30  Waveforms Averaged 
1  Cycles Averaged 
16  Acquisitions per Waveform 
10.0806  Updata Rate (Hz) 

#FILE INFORMATION
TRUE -- External MUX Channel results are PARSED.
FALSE -- AC DC and Phase are NOT grouped.
TRUE -- Companion Program Settings File CREATED.
FALSE -- AC data not excluded
FALSE -- DC data not excluded
FALSE -- Phase data not excluded
FALSE -- Auxillary Chn. data not excluded
Tab delimiters

#CALIBRATION STATE
TRUE -- Waveform Calibration Values APPLIED.


#AUX CALIBRATION VALUES
Val Type	aux-1	

Term	1.0000e+00	
Factor	0.0000e+00	


#WF CALIBRATION VALUES
A = Detector Channel
Val Type	A-AC1	A-AC2	A-AC3	A-AC4	A-AC5	A-AC6	A-AC7	A-AC8	A-AC9	A-AC10	A-AC11	A-AC12	A-AC13	A-AC14	A-AC15	A-AC16	A-DC1	A-DC2	A-DC3	A-DC4	A-DC5	A-DC6	A-DC7	A-DC8	A-DC9	A-DC10	A-DC11	A-DC12	A-DC13	A-DC14	A-DC15	A-DC16	A-Ph1	A-Ph2	A-Ph3	A-Ph4	A-Ph5	A-Ph6	A-Ph7	A-Ph8	A-Ph9	A-Ph10	A-Ph11	A-Ph12	A-Ph13	A-Ph14	A-Ph15	A-Ph16	

Term	0.00000e+00	0.00000e+00	0.00000e+00	0.00000e+00	0.00000e+00	0.00000e+00	0.00000e+00	0.00000e+00	0.00000e+00	0.00000e+00	0.00000e+00	0.00000e+00	0.00000e+00	0.00000e+00	0.00000e+00	0.00000e+00	0.00000e+00	0.00000e+00	0.00000e+00	0.00000e+00	0.00000e+00	0.00000e+00	0.00000e+00	0.00000e+00	0.00000e+00	0.00000e+00	0.00000e+00	0.00000e+00	0.00000e+00	0.00000e+00	0.00000e+00	0.00000e+00	0.00000e+00	0.00000e+00	0.00000e+00	0.00000e+00	0.00000e+00	0.00000e+00	0.00000e+00	0.00000e+00	0.00000e+00	0.00000e+00	0.00000e+00	0.00000e+00	0.00000e+00	0.00000e+00	0.00000e+00	0.00000e+00	
Factor	1.00000e+00	1.00000e+00	1.00000e+00	1.00000e+00	1.00000e+00	1.00000e+00	1.00000e+00	1.00000e+00	1.00000e+00	1.00000e+00	1.00000e+00	1.00000e+00	1.00000e+00	1.00000e+00	1.00000e+00	1.00000e+00	1.00000e+00	1.00000e+00	1.00000e+00	1.00000e+00	1.00000e+00	1.00000e+00	1.00000e+00	1.00000e+00	1.00000e+00	1.00000e+00	1.00000e+00	1.00000e+00	1.00000e+00	1.00000e+00	1.00000e+00	1.00000e+00	X	X	X	X	X	X	X	X	X	X	X	X	X	X	X	X	

B = Detector Channel
Val Type	B-AC1	B-AC2	B-AC3	B-AC4	B-AC5	B-AC6	B-AC7	B-AC8	B-AC9	B-AC10	B-AC11	B-AC12	B-AC13	B-AC14	B-AC15	B-AC16	B-DC1	B-DC2	B-DC3	B-DC4	B-DC5	B-DC6	B-DC7	B-DC8	B-DC9	B-DC10	B-DC11	B-DC12	B-DC13	B-DC14	B-DC15	B-DC16	B-Ph1	B-Ph2	B-Ph3	B-Ph4	B-Ph5	B-Ph6	B-Ph7	B-Ph8	B-Ph9	B-Ph10	B-Ph11	B-Ph12	B-Ph13	B-Ph14	B-Ph15	B-Ph16	

Term	0.00000e+00	0.00000e+00	0.00000e+00	0.00000e+00	0.00000e+00	0.00000e+00	0.00000e+00	0.00000e+00	0.00000e+00	0.00000e+00	0.00000e+00	0.00000e+00	0.00000e+00	0.00000e+00	0.00000e+00	0.00000e+00	0.00000e+00	0.00000e+00	0.00000e+00	0.00000e+00	0.00000e+00	0.00000e+00	0.00000e+00	0.00000e+00	0.00000e+00	0.00000e+00	0.00000e+00	0.00000e+00	0.00000e+00	0.00000e+00	0.00000e+00	0.00000e+00	-4.91106e+01	-1.29134e+02	-1.27521e+02	-1.82803e+02	-4.69321e+01	-6.59653e+01	-1.55300e+02	-1.62015e+02	-3.08113e+01	-5.60136e+01	-1.72433e+02	-1.69655e+02	-1.79183e+02	-1.77693e+02	-4.59966e+01	-1.49676e+02	
Factor	2.21910e-05	1.68420e-04	4.73740e-05	1.71963e-01	2.02722e-06	1.93536e-06	1.62812e-01	5.14453e-02	1.28848e-06	1.77628e-06	9.95207e-02	3.07250e-02	2.96854e-02	1.01395e-02	1.68739e-06	1.45673e-02	8.04080e-06	1.07497e-05	2.97371e-06	8.54535e-02	1.12668e-07	1.18595e-07	7.62481e-02	2.57182e-02	1.11776e-07	1.19426e-07	4.83138e-02	1.49934e-02	1.50207e-02	5.11324e-03	1.16012e-07	7.12113e-03	X	X	X	X	X	X	X	X	X	X	X	X	X	X	X	X	



#DISTANCE SETTINGS
A = Detector Channel
A-1	A-2	A-3	A-4	A-5	A-6	A-7	A-8	A-9	A-10	A-11	A-12	A-13	A-14	A-15	A-16	

2.5000e+00	3.0000e+00	2.5000e+00	3.0000e+00	2.0000e+00	3.0000e+00	1.5000e+00	3.0000e+00	3.0000e+00	3.0000e+00	3.0000e+00	3.0000e+00	3.0000e+00	3.0000e+00	1.5000e+00	3.0000e+00	

B = Detector Channel
B-1	B-2	B-3	B-4	B-5	B-6	B-7	B-8	B-9	B-10	B-11	B-12	B-13	B-14	B-15	B-16	

1.0000e+01	1.0000e+01	1.0000e+01	1.4400e+00	1.0000e+01	1.0000e+01	1.5100e+00	1.9400e+00	1.0000e+01	1.0000e+01	1.9900e+00	2.4900e+00	2.4100e+00	2.9000e+00	1.0000e+01	2.9800e+00	




#DATA BEGINS
time	group	step	mark	flag	A-AC1	A-AC2	A-AC3	A-AC4	A-AC5	A-AC6	A-AC7	A-AC8	A-AC9	A-AC10	A-AC11	A-AC12	A-AC13	A-AC14	A-AC15	A-AC16	A-DC1	A-DC2	A-DC3	A-DC4	A-DC5	A-DC6	A-DC7	A-DC8	A-DC9	A-DC10	A-DC11	A-DC12	A-DC13	A-DC14	A-DC15	A-DC16	A-Ph1	A-Ph2	A-Ph3	A-Ph4	A-Ph5	A-Ph6	A-Ph7	A-Ph8	A-Ph9	A-Ph10	A-Ph11	A-Ph12	A-Ph13	A-Ph14	A-Ph15	A-Ph16	B-AC1	B-AC2	B-AC3	B-AC4	B-AC5	B-AC6	B-AC7	B-AC8	B-AC9	B-AC10	B-AC11	B-AC12	B-AC13	B-AC14	B-AC15	B-AC16	B-DC1	B-DC2	B-DC3	B-DC4	B-DC5	B-DC6	B-DC7	B-DC8	B-DC9	B-DC10	B-DC11	B-DC12	B-DC13	B-DC14	B-DC15	B-DC16	B-Ph1	B-Ph2	B-Ph3	B-Ph4	B-Ph5	B-Ph6	B-Ph7	B-Ph8	B-Ph9	B-Ph10	B-Ph11	B-Ph12	B-Ph13	B-Ph14	B-Ph15	B-Ph16	aux-1	digaux	

41228.664	1	1	0	256	0.10383	0.11391	0.19313	0.085936	0.17578	0.082279	0.28535	0.36235	0.20392	0.05474	0.19894	0.1757	0.28941	0.099271	0.20128	0.12366	-2.1896	-2.7917	-2.5604	-3.0521	-2.7542	-2.7396	-3.0104	-2.5	-2.8417	-2.9021	-2.7208	-2.7917	-2.5021	-2.7354	-2.8375	-2.5229	439.729	496.346	337.440	455.632	387.762	292.791	418.682	457.661	286.722	251.471	426.707	408.473	184.648	345.923	310.415	244.421	0.00032264	0.00025573	0.00011278	1160	6.1737e-06	3.4122e-06	1216	230	3.4353e-06	3.648e-06	287.3	80.682	63.166	17.451	4.6791e-06	24.738	0.000578	0.00068903	0.00019537	1146.9	7.3648e-06	7.5992e-06	1203.1	230.32	7.2913e-06	7.6221e-06	287.47	81.355	63.615	17.847	7.6623e-06	25.408	266.010	205.866	251.443	157.420	313.473	316.115	157.431	164.841	317.108	287.121	164.404	170.864	171.767	178.781	348.455	177.842	-8191	255	
41228.762	1	1	0	0	0.18331	0.14893	0.11427	0.0208	0.090852	0.2385	0.16385	0.34301	0.13028	0.061191	0.081886	0.040017	0.16495	0.12215	0.17558	0.12896	-2.4917	-2.8458	-2.3917	-2.9771	-2.6208	-2.5896	-3.2146	-2.5667	-2.7083	-2.8458	-2.7812	-2.9021	-2.7542	-2.6375	-2.875	-2.6937	176.497	162.732	189.683	236.795	283.344	300.098	408.184	149.137	384.524	341.649	257.908	380.439	156.384	457.600	219.628	157.710	0.00031936	0.00020609	7.9217e-05	1162.1	5.1245e-06	1.6758e-06	1220.3	231.74	2.8848e-06	3.6501e-06	287.79	80.79	63.256	17.277	4.3832e-06	24.901	0.00059376	0.00070762	0.00019083	1148.4	7.5957e-06	7.7633e-06	1205	230.94	7.4708e-06	7.7918e-06	287.49	81.348	63.779	17.786	7.8504e-06	25.501	272.078	269.058	311.378	157.502	290.798	313.860	157.609	164.588	283.354	310.480	164.455	171.053	171.467	178.431	327.262	178.030	-8191	255	
41228.855	1	1	0	0	0.12768	0.28282	0.11238	0.28921	0.098167	0.044926	0.34217	0.03208	0.090125	0.13745	0.22861	0.055713	0.080501	0.11104	0.066272	0.050729	-2.3875	-2.875	-2.5979	-3.0021	-2.7771	-2.65	-3.0833	-2.725	-2.7313	-2.9333	-2.8167	-2.9604	-3.0375	-2.6437	-2.8208	-2.7	464.925	481.969	227.733	450.795	450.126	443.161	435.848	279.861	166.352	457.365	323.967	420.501	466.822	497.829	479.926	208.549	0.00030721	0.00022326	4.9855e-05	1164	6.3751e-06	7.394e-06	1220.4	232.09	2.4455e-06	3.0088e-06	286.4	80.623	63.298	17.414	3.7822e-06	24.755	0.0006038	0.00072119	0.00019555	1151.4	7.6237e-06	7.7492e-06	1206.5	231.09	7.4324e-06	7.9622e-06	288.19	81.456	63.902	17.828	7.6087e-06	25.533	275.825	194.594	504.819	157.566	310.923	290.543	157.449	164.765	316.715	398.698	164.561	171.342	171.472	178.673	248.802	178.498	-8191	255	
41228.949	1	1	0	0	0.18749	0.12189	0.13525	0.0026596	0.08534	0.15042	0.13603	0.1705	0.23365	0.088423	0.079979	0.15813	0.23523	0.091239	0.08943	0.24038	-2.2979	-3.0125	-2.5708	-2.8021	-2.7125	-2.5687	-3.1437	-2.7604	-2.6688	-3.0521	-2.6813	-2.7771	-2.9458	-2.6042	-2.9562	-2.7	321.596	249.536	418.904	440.077	400.911	196.088	497.583	377.613	327.431	469.672	170.796	469.265	389.120	321.776	248.553	396.636	0.00029661	0.00018	9.8212e-05	1163.5	6.9383e-06	3.5302e-06	1222.9	233.37	4.1218e-06	3.5253e-06	287.22	81.152	63.092	17.477	4.4571e-06	24.902	0.00060105	0.000714	0.00019595	1150	7.7049e-06	7.8693e-06	1207.7	231.85	7.6534e-06	7.9717e-06	287.89	81.336	63.759	17.887	7.4738e-06	25.456	280.796	322.579	276.779	157.216	284.592	230.992	157.612	164.999	270.505	337.902	164.189	171.437	171.410	178.655	350.149	177.934	-8191	255	
41229.047	1	1	0	0	0.12552	0.088348	0.22654	0.023442	0.14856	0.19205	0.33274	0.19018	0.049274	0.088175	0.070145	0.33269	0.14736	0.049881	0.10812	0.1579	-2.2417	-2.9562	-2.4583	-2.9146	-2.8292	-2.6813	-2.9896	-2.8792	-2.8125	-2.9396	-2.6312	-3.0104	-3.0062	-2.5167	-2.8729	-2.7917	296.940	344.728	389.873	268.825	162.732	228.570	425.159	433.314	316.527	469.760	293.127	354.863	447.629	193.577	194.656	282.824	0.00026965	0.00040377	0.00011983	1165.9	8.062e-06	2.2304e-06	1220.8	232.48	4.7596e-06	4.1146e-06	287.6	81.165	63.391	17.526	4.0178e-06	24.747	0.00060659	0.00070764	0.00018964	1153.9	7.5706e-06	7.788e-06	1208.5	231.94	7.7272e-06	7.7614e-06	287.98	81.467	63.909	17.928	7.4245e-06	25.503	265.790	236.996	216.636	157.403	299.209	443.596	157.527	164.698	279.537	369.378	164.030	171.100	171.685	178.727	324.702	177.978	-8191	255	
41229.145	1	1	0	0	0.3942	0.053765	0.044116	0.18955	0.16426	0.11844	0.22645	0.30633	0.051933	0.12381	0.37763	0.043769	0.087046	0.090119	0.23514	0.19029	-2.3688	-3.2104	-2.6063	-2.6875	-3.1729	-2.6021	-2.9229	-2.9042	-2.6042	-2.9417	-2.7771	-2.7583	-3.0354	-2.6625	-2.9104	-3.1	310.415	238.322	377.181	177.925	160.273	310.491	420.192	464.740	242.302	259.018	419.695	150.004	283.531	308.668	369.638	438.393	0.00025342	0.00034134	9.3168e-05	1165.6	3.4467e-06	1.9103e-06	1219	232.74	6.1831e-06	2.746e-06	286.86	81.076	63.266	17.461	3.0076e-06	24.74	0.00061398	0.00069718	0.00019334	1152.8	7.5826e-06	7.7919e-06	1206.9	231.86	7.4813e-06	7.6527e-06	288.28	81.506	63.97	17.933	7.4733e-06	25.476	272.414	239.959	194.019	157.373	275.563	353.287	157.257	164.595	326.661	329.181	164.368	171.540	171.344	178.542	348.984	178.387	-8191	255	
41229.238	1	1	0	0	0.033723	0.22802	0.08914	0.40949	0.212	0.13752	0.096475	0.15514	0.18093	0.087898	0.18825	0.069144	0.10362	0.19244	0.15669	0.19016	-2.1854	-2.9021	-2.8021	-2.7604	-2.95	-2.7771	-2.9917	-2.8438	-2.6188	-3.0104	-2.8979	-2.6083	-2.8063	-2.6604	-2.7896	-2.9521	196.316	156.059	360.126	460.807	403.201	372.152	484.640	173.969	370.819	278.366	468.243	439.460	484.629	442.470	284.916	300.172	0.00027592	0.00029592	7.7888e-05	1168	8.5128e-06	2.4974e-06	1223.6	232	1.5321e-06	4.211e-06	288.86	80.802	63.23	17.442	2.8388e-06	24.62	0.00060917	0.00070256	0.00019939	1153.3	7.741e-06	7.7556e-06	1209.3	231.66	7.5032e-06	7.6002e-06	288.75	81.582	63.917	17.877	7.5497e-06	25.488	271.161	255.126	243.715	157.349	324.946	350.718	157.388	164.941	301.318	352.236	164.343	170.932	171.432	178.745	300.391	178.307	-8191	255	
41229.336	1	1	0	0	0.32182	0.18259	0.25356	0.043154	0.20971	0.39877	0.28912	0.18394	0.11488	0.11206	0.2258	0.035428	0.09833	0.32661	0.10616	0.16267	-2.2771	-2.7292	-2.6083	-2.6021	-3.0521	-2.6854	-2.8604	-2.8854	-2.5979	-3.0021	-2.7792	-2.5896	-2.825	-2.7333	-2.6042	-2.9188	386.868	200.242	404.959	288.597	277.152	357.145	408.223	492.902	337.635	437.637	494.621	238.422	327.646	448.189	228.802	301.087	0.00030769	0.00016658	0.00012439	1166.5	1.4668e-06	1.6749e-06	1227.2	233.58	5.5018e-06	1.9e-06	287.47	81.513	63.767	17.583	4.4081e-06	24.901	0.00059504	0.00068758	0.00018993	1154.2	7.4575e-06	7.448e-06	1213.5	232.01	7.5905e-06	7.5223e-06	289.05	81.853	64.295	17.933	7.6481e-06	25.49	274.098	279.694	225.821	157.660	412.225	348.493	157.555	164.721	283.273	301.367	164.313	171.274	171.600	178.472	326.422	177.943	-8191	255	
41229.457	1	1	0	0	0.12531	0.21324	0.11901	0.3031	0.05129	0.062611	0.45463	0.1254	0.42151	0.13062	0.13171	0.1043	0.12345	0.23825	0.017903	0.25293	-2.1604	-2.85	-2.7917	-2.6312	-2.7979	-2.6312	-2.9896	-2.8688	-2.825	-2.8729	-2.8583	-2.6375	-2.8375	-2.8042	-2.6083	-2.8333	471.661	154.598	181.745	485.162	186.384	404.401	432.991	150.970	155.407	262.859	445.504	453.224	465.374	205.288	410.645	432.209	0.00032568	0.00026045	7.9126e-05	1168.1	3.9109e-06	4.4689e-06	1223.1	233.43	5.1805e-06	3.2927e-06	288.81	80.588	63.489	17.551	4.1953e-06	24.65	0.00058907	0.00068973	0.00019127	1156.2	7.5223e-06	7.5785e-06	1211.6	232.13	7.2608e-06	7.7224e-06	288.31	81.561	63.97	17.902	7.9705e-06	25.444	272.288	196.545	280.881	157.456	350.845	349.646	157.435	164.833	267.609	279.015	164.465	171.010	171.268	178.251	335.064	178.084	-8191	255	
41229.527	1	1	0	0	0.076594	0.15992	0.021779	0.28365	0.1556	0.25644	0.1324	0.084218	0.146	0.082286	0.23341	0.2716	0.036227	0.30746	0.20377	0.046762	-2.2479	-2.7188	-2.6417	-2.5187	-2.9021	-2.6708	-2.9333	-3.05	-2.4396	-2.6521	-2.8792	-2.7812	-2.9104	-2.7687	-2.5708	-3.0979	357.976	288.060	204.742	410.647	431.571	246.007	493.064	402.744	398.718	377.903	211.559	240.802	161.125	150.188	162.460	223.282	0.00029193	0.00025608	9.1318e-05	1167	2.8045e-06	4.8979e-06	1226.3	233.32	4.3819e-06	5.1495e-06	287.61	81.034	63.515	17.433	3.0772e-06	24.705	0.00060579	0.00072838	0.00020283	1153.9	7.83e-06	8.0625e-06	1211.9	232.27	7.6527e-06	7.9354e-06	288.47	81.609	64.032	17.891	7.8857e-06	25.505	274.713	231.561	201.619	157.206	252.597	269.076	157.411	164.617	331.988	319.811	164.330	171.143	171.477	178.369	256.870	177.502	-8191	255	
41229.625	1	1	0	0	0.11746	0.076593	0.22087	0.16139	0.081818	0.35353	0.07517	0.074456	0.13213	0.13578	0.1245	0.26085	0.18079	0.058062	0.23303	0.19685	-2.1646	-2.5375	-3.0104	-2.7167	-2.8542	-2.7562	-2.8458	-2.9979	-2.6562	-2.5667	-2.9354	-2.5479	-2.7708	-2.8229	-2.4917	-3.1542	260.780	216.006	328.172	375.872	287.859	289.637	501.524	161.136	195.562	454.183	366.264	427.331	399.305	380.014	165.751	180.116	0.00031116	0.00030818	0.00010755	1166.2	5.363e-06	4.5905e-06	1225.1	233.4	2.5211e-06	1.4381e-06	287.24	80.368	63.984	17.354	3.2486e-07	24.749	0.00062129	0.00072368	0.00019868	1154.9	7.8525e-06	7.9491e-06	1210.8	232.26	7.7181e-06	7.9468e-06	288.68	81.436	64.236	17.914	7.7174e-06	25.582	280.614	205.758	233.570	157.481	280.680	354.908	157.554	164.599	365.765	247.654	164.416	171.279	171.456	178.970	383.696	177.690	-8191	255	
41229.746	1	1	0	0	0.1162	0.13234	0.014294	0.14056	0.18586	0.071683	0.014269	0.17061	0.22995	0.26563	0.023708	0.14416	0.10551	0.12774	0.14754	0.16243	-2.2979	-2.6792	-2.8896	-2.8042	-2.7854	-2.8063	-2.75	-3.1146	-2.6083	-2.6833	-3.0458	-2.7646	-2.6188	-3.0292	-2.7667	-2.9854	281.673	181.928	322.232	460.190	208.109	365.648	495.711	436.965	307.526	199.346	172.854	423.681	352.260	497.683	342.972	300.071	0.00028697	0.00025251	0.00012329	1173.6	5.5215e-06	3.0033e-06	1229.2	234.85	2.6984e-06	5.4991e-06	288.55	81.486	63.737	17.581	1.0239e-06	25.026	0.00060676	0.0007076	0.00019711	1159.7	7.5112e-06	7.8873e-06	1215.8	232.93	7.6026e-06	8.123e-06	289.5	82.003	64.278	17.989	7.8724e-06	25.586	272.111	231.534	236.388	157.393	282.374	257.244	157.564	164.580	307.645	250.863	164.201	171.548	171.728	178.650	458.331	178.070	-8191	255	
41229.840	1	1	0	0	0.3475	0.32417	0.27511	0.068668	0.25044	0.13386	0.11327	0.067858	0.25506	0.14207	0.16773	0.15018	0.18039	0.10085	0.30086	0.12526	-2.175	-2.5667	-2.8625	-2.7875	-2.6729	-2.9083	-2.7896	-2.8396	-2.8833	-2.5625	-3.0729	-2.7854	-2.7604	-3.0938	-2.5729	-2.9146	225.250	466.983	201.549	197.156	275.671	253.433	257.301	303.754	241.359	482.805	446.328	270.678	434.676	171.668	267.646	246.259	0.00028766	0.00028076	0.00012259	1169.9	3.9747e-06	1.4714e-06	1227.6	234.82	1.8323e-06	1.5819e-06	289.62	81.13	63.537	17.523	3.3081e-06	25.112	0.00060262	0.00072623	0.00020325	1159.9	7.7131e-06	7.953e-06	1216.5	233.67	7.6629e-06	7.953e-06	289.86	81.965	64.379	17.983	7.8808e-06	25.647	274.117	258.641	223.901	157.385	267.589	306.786	157.430	164.740	310.880	199.907	164.591	171.271	171.544	178.359	274.871	177.702	-8191	255	
41229.938	1	1	0	0	0.4297	0.057677	0.13018	0.40318	0.086505	0.11405	0.1263	0.13274	0.1138	0.10144	0.13117	0.28287	0.1238	0.15413	0.096191	0.2531	-2.3917	-2.5146	-2.8729	-2.9042	-2.8146	-3.0208	-2.7583	-3.0687	-2.8438	-2.625	-2.8208	-2.8521	-2.9604	-2.9667	-2.5333	-2.8583	314.294	415.357	168.540	476.956	388.340	367.730	154.781	416.193	149.815	207.364	408.033	483.664	188.461	352.793	149.641	200.899	0.00030792	0.00055802	0.00013855	1176.4	5.6776e-06	3.1061e-06	1235.9	234.81	4.9393e-06	2.0492e-06	288.7	81.424	64.44	17.567	4.091e-06	25.06	0.00062561	0.00073705	0.00020263	1164	7.7229e-06	8.002e-06	1219.9	233.6	7.683e-06	8.2954e-06	289.4	82.196	64.64	18.016	7.693e-06	25.726	275.939	240.207	289.878	157.354	258.971	273.584	157.451	164.872	310.114	292.087	164.405	171.327	171.687	178.669	301.355	177.991	-8191	255	
41230.031	1	1	0	0	0.13786	0.073109	0.061909	0.26758	0.12252	0.32096	0.11643	0.16626	0.28524	0.18952	0.22066	0.07054	0.36875	0.20133	0.16816	0.13605	-2.3604	-2.4479	-2.9333	-2.9979	-2.4417	-3.0042	-2.8729	-2.7729	-2.75	-2.5917	-3.0542	-2.8083	-2.6708	-3.0042	-2.7417	-2.9646	458.060	340.929	320.524	457.958	284.684	154.749	437.250	237.901	406.199	492.143	465.561	190.315	473.946	190.125	399.479	437.212	0.00031173	0.00040736	6.7145e-05	1178.1	8.5276e-06	2.714e-06	1233.7	234.75	2.7084e-06	3.9153e-06	288.45	81.747	64.242	17.525	1.8209e-06	24.964	0.00060976	0.00072404	0.00019153	1166.3	7.7098e-06	7.7961e-06	1222.7	233.8	7.59e-06	7.8779e-06	290.31	82.145	64.528	18.014	7.5961e-06	25.615	275.083	231.023	329.151	157.203	317.117	293.358	157.298	164.743	339.566	274.366	164.508	171.376	171.659	178.153	333.943	177.763	-8191	255	
41230.129	1	1	0	0	0.15698	0.20832	0.18489	0.12503	0.23073	0.35118	0.22606	0.30973	0.14165	0.065202	0.23803	0.12983	0.19269	0.20763	0.19726	0.13289	-2.5458	-2.5833	-2.8125	-2.8958	-2.5333	-2.9938	-2.8354	-2.7208	-2.7396	-2.7729	-2.8875	-2.7583	-2.7062	-3.0979	-2.8021	-2.8604	176.768	424.036	256.260	222.567	331.169	180.633	437.543	424.625	503.116	462.297	426.184	459.199	155.718	403.931	202.212	308.694	0.00034214	0.00044282	0.00010797	1180.8	7.4059e-06	1.5561e-06	1241.2	234.94	1.0813e-06	1.4777e-06	289.45	81.981	64.101	17.657	4.1782e-06	25.099	0.00060132	0.00070856	0.00019393	1167.7	7.734e-06	7.7445e-06	1226	234.33	7.3453e-06	7.7759e-06	290.29	82.312	64.577	18.081	7.5587e-06	25.7	273.471	217.011	251.377	157.522	304.127	268.733	157.335	164.577	302.844	348.386	164.293	171.212	171.225	178.426	321.944	177.742	-8191	255	
41230.223	1	1	0	0	0.21462	0.041387	0.14688	0.12497	0.41631	0.063118	0.37112	0.35933	0.11514	0.17785	0.16607	0.083505	0.065475	0.036851	0.0068329	0.24839	-2.6	-2.6813	-2.9188	-3.0854	-2.7333	-3.0583	-2.9417	-2.8354	-2.8917	-2.6833	-2.9521	-3.0354	-2.7021	-2.8563	-2.6667	-2.5187	428.008	366.874	329.256	425.224	346.083	410.542	370.358	430.643	434.295	332.265	484.171	336.384	209.427	472.947	332.620	302.070	0.00031888	0.00063327	5.6269e-05	1181.7	5.177e-06	3.5309e-06	1243.6	235.16	2.2748e-06	6.2938e-06	290.51	81.632	64.167	17.46	1.1133e-06	25.057	0.00060706	0.0007048	0.00019185	1170	7.726e-06	7.8097e-06	1226.2	234.42	7.4895e-06	7.7261e-06	290.82	82.227	64.751	17.986	7.5188e-06	25.664	272.910	270.237	289.898	157.366	292.462	259.596	157.376	164.712	314.946	295.483	164.177	171.304	171.066	178.576	362.577	177.781	-8191	255	
41230.344	1	1	0	0	0.22977	0.12761	0.15074	0.2598	0.17039	0.11368	0.36772	0.26072	0.13498	0.1917	0.36761	0.2365	0.10706	0.12693	0.18342	0.071695	-2.6479	-2.6917	-2.9542	-3.0521	-2.5792	-3.0271	-3.0042	-2.8042	-3.0958	-2.5812	-2.8271	-3.0458	-2.7396	-2.8479	-2.8896	-2.6063	486.744	214.556	180.641	441.275	418.639	498.347	472.300	458.870	402.390	221.482	456.818	465.031	358.706	352.797	397.659	401.962	0.00029834	0.00024216	5.5053e-05	1181.4	6.6933e-06	3.5903e-06	1246.3	236.2	4.3678e-06	4.1759e-06	291.6	82.048	64.344	17.499	4.6858e-06	25.009	0.00060825	0.00070395	0.00019121	1169.8	7.5936e-06	7.68e-06	1229.1	234.41	7.5239e-06	7.534e-06	290.5	82.306	64.718	18.015	7.5473e-06	25.686	269.036	257.113	244.048	157.449	270.706	252.495	157.446	164.990	281.997	372.916	164.320	171.059	171.740	178.662	297.247	178.073	-8191	255	
41230.441	1	1	0	0	0.14294	0.2263	0.17353	0.30413	0.074909	0.17081	0.27695	0.19622	0.3752	0.051461	0.10738	0.23184	0.19349	0.082503	0.36819	0.13632	-2.4938	-2.4437	-2.6667	-3.0417	-2.6208	-3.0167	-2.9813	-2.6104	-3.0792	-2.7188	-2.7458	-3.0042	-2.7167	-2.9104	-2.6688	-2.5062	159.840	453.916	458.658	502.096	302.144	451.644	470.245	468.301	216.912	173.772	232.207	159.615	387.256	221.281	193.826	185.022	0.00029144	0.00030774	0.00017926	1183.2	6.9458e-06	2.2536e-06	1241	236.17	3.5423e-06	3.6783e-06	287.73	82.017	64.227	17.761	3.8096e-06	24.859	0.00059569	0.00069958	0.00019115	1171.1	7.6837e-06	7.6163e-06	1226.6	234.46	7.3318e-06	7.7632e-06	290.19	82.393	64.81	18.122	7.5865e-06	25.696	269.088	190.232	231.877	157.187	346.111	284.588	157.520	164.541	323.422	362.010	164.510	170.831	171.672	178.516	336.585	177.668	-8191	255	
41230.535	1	1	0	0	0.089806	0.20229	0.060059	0.22163	0.21724	0.24658	0.032372	0.22641	0.34329	0.12434	0.17723	0.22412	0.20881	0.22234	0.2076	0.27519	-2.5646	-2.6146	-2.55	-3.0062	-2.5667	-2.6375	-2.9875	-2.5896	-2.8333	-2.8125	-2.7208	-3.0187	-2.7208	-2.7938	-2.7938	-2.5354	207.394	404.405	417.556	450.636	354.504	227.097	270.593	420.698	470.598	263.112	444.585	486.572	490.503	484.628	444.394	456.821	0.00029158	0.00021882	6.2496e-05	1183.5	6.5138e-06	1.8579e-06	1246.3	236.85	1.6029e-06	6.9551e-06	290.08	81.978	64.187	17.677	3.5011e-06	25.049	0.00059547	0.0006816	0.00019218	1171.3	7.6971e-06	7.5444e-06	1229.3	234.98	7.5581e-06	7.7694e-06	291.02	82.477	64.916	18.097	7.7102e-06	25.785	277.084	221.604	209.048	157.468	333.810	179.018	157.203	164.593	277.656	291.828	164.533	170.943	171.449	178.839	340.233	177.926	-8191	255	
41230.633	1	1	0	0	0.050292	0.066934	0.10375	0.12292	0.24487	0.26167	0.28639	0.096286	0.12469	0.040775	0.16143	0.1388	0.091083	0.24996	0.089672	0.16742	-2.4396	-2.7479	-2.6312	-3.1437	-2.6958	-2.5438	-3.1521	-2.45	-2.8063	-2.7708	-2.4896	-2.8854	-2.7625	-2.9562	-2.9271	-2.6854	468.224	307.693	448.828	310.588	460.887	330.319	431.367	494.717	179.659	289.241	469.154	199.926	225.392	382.702	326.295	231.896	0.00032106	0.00033885	3.986e-05	1185.2	4.5755e-06	4.1495e-06	1242.6	236.6	3.1644e-06	5.1046e-06	290.85	81.675	64.65	17.652	4.3224e-07	25.158	0.00060795	0.00070733	0.00019623	1173	7.4934e-06	7.7828e-06	1229.8	235.12	7.2747e-06	7.81e-06	291.18	82.363	65.14	18.062	7.6964e-06	25.792	268.573	195.278	240.306	157.377	341.307	301.138	157.424	164.717	316.220	296.028	164.244	170.977	171.877	178.000	232.698	177.514	-8191	255	
41230.754	1	1	0	0	0.20923	0.16091	0.078221	0.20273	0.27145	0.1197	0.249	0.35147	0.083937	0.16287	0.15516	0.1208	0.12318	0.1668	0.060932	0.1252	-2.5187	-2.8792	-2.7458	-3.15	-2.7375	-2.7188	-3.0729	-2.575	-2.7188	-2.9146	-2.6	-2.9271	-2.6417	-2.8021	-3.0417	-2.7583	279.666	266.331	374.970	476.139	329.165	492.437	473.183	437.822	322.920	189.255	487.091	251.561	325.932	436.265	240.292	501.430	0.00029781	0.0003197	0.0001388	1186.7	3.271e-06	3.2656e-06	1245.9	236.26	3.3481e-06	2.4276e-06	290.06	82.138	64.464	17.637	2.2925e-06	24.848	0.00060241	0.00071053	0.00019839	1172.9	7.7776e-06	7.8043e-06	1230.1	235.34	7.557e-06	7.812e-06	291.57	82.544	65.009	18.1	7.8035e-06	25.677	272.921	251.275	186.317	157.247	274.157	288.607	157.515	164.603	347.202	307.535	164.051	170.925	171.313	178.831	277.661	177.697	-8191	255	
41230.824	1	1	0	0	0.10344	0.040767	0.041124	0.10311	0.2442	0.12358	0.10057	0.11793	0.067218	0.097425	0.16643	0.16207	0.12356	0.16533	0.15225	0.40268	-2.2604	-2.9083	-2.375	-2.9938	-2.8521	-2.6083	-3.0812	-2.7938	-2.6604	-2.9417	-2.6042	-2.9062	-2.7771	-2.5771	-3.0563	-2.7313	457.245	481.214	293.200	189.127	488.495	156.587	437.585	477.067	162.815	320.855	479.289	226.289	300.039	273.593	261.872	184.052	0.00028573	0.00049889	9.3723e-05	1190	4.1257e-06	6.1379e-06	1247.3	236.45	4.804e-06	1.1534e-06	290.69	81.727	64.522	17.775	4.2447e-06	25.156	0.00060425	0.00071761	0.00019824	1175.2	7.5382e-06	7.9441e-06	1232.7	235.13	7.563e-06	8.0555e-06	291.03	82.398	64.956	18.147	7.7484e-06	25.785	273.851	222.713	203.166	157.531	356.882	243.430	157.364	164.761	314.862	290.626	164.491	171.123	171.621	178.496	314.112	177.373	-8191	255	
41230.922	1	1	0	0	0.17325	0.2551	0.25728	0.15424	0.029629	0.16707	0.21892	0.22761	0.053674	0.020752	0.31578	0.30216	0.20977	0.17818	0.061968	0.14477	-2.3812	-2.7729	-2.5583	-3.1229	-2.8771	-2.7125	-3.1729	-2.6375	-2.5625	-2.8792	-2.7708	-2.9604	-2.875	-2.6271	-2.9792	-2.7562	232.451	497.300	488.534	429.426	164.583	170.722	412.829	421.413	173.257	331.868	181.132	430.042	163.272	183.428	469.285	367.388	0.00029118	0.00043752	0.00015207	1192.3	7.3804e-06	2.125e-06	1246.8	236.57	6.1635e-06	5.301e-06	292.12	81.778	65.028	17.719	4.5463e-06	24.997	0.0006151	0.00071566	0.00019804	1175.6	7.7065e-06	7.9703e-06	1233.7	235.16	7.8562e-06	7.9269e-06	292.2	82.391	65.201	18.121	7.7771e-06	25.748	278.835	213.419	245.189	157.298	302.911	324.169	157.479	164.430	310.907	387.853	164.242	170.990	171.620	178.622	300.175	177.778	-8191	255	
41231.016	1	1	0	0	0.084538	0.079839	0.17136	0.17377	0.12193	0.16377	0.19312	0.16338	0.26053	0.15006	0.16812	0.0025554	0.31332	0.034412	0.0050512	0.21671	-2.2562	-2.95	-2.7146	-2.9354	-2.9896	-2.5604	-3.1917	-2.8396	-2.5021	-2.9875	-2.7521	-2.7042	-3.0167	-2.5375	-2.9771	-2.6896	239.807	180.418	216.926	161.869	375.831	319.665	326.494	190.664	212.310	247.634	486.713	357.902	450.032	501.488	423.143	455.055	0.00030191	0.00033141	8.048e-05	1192.6	5.8955e-06	3.573e-06	1251.3	237.08	6.3486e-06	3.5516e-06	290.79	82.042	65.02	17.682	3.3882e-06	25.372	0.00061041	0.00073105	0.00020173	1177.2	7.7103e-06	7.8443e-06	1234.9	235.49	7.5928e-06	7.9926e-06	291.75	82.707	65.284	18.148	7.5562e-06	25.875	273.721	205.590	435.199	157.364	269.452	269.421	157.562	164.750	333.095	299.715	164.247	171.275	171.274	178.550	320.763	177.937	-8191	255	
41231.137	1	1	0	0	0.041273	0.20811	0.19328	0.13592	0.21664	0.086289	0.18047	0.21691	0.2036	0.094327	0.13914	0.04651	0.16348	0.13973	0.21741	0.21062	-2.0875	-2.825	-2.525	-2.7708	-2.8438	-2.6813	-2.9667	-2.8771	-2.6292	-2.8604	-2.7458	-2.7083	-3.0583	-2.5187	-2.8771	-2.7625	494.179	243.893	174.428	480.504	479.318	264.189	168.531	439.821	396.266	261.318	170.440	465.084	219.095	184.579	216.603	289.377	0.00035199	0.00034427	7.5424e-05	1190.2	3.3676e-06	2.608e-06	1253.7	236.99	3.9758e-06	2.4713e-06	293.17	81.973	65.093	17.832	2.6919e-06	25.277	0.0006217	0.0007164	0.00020068	1178.5	7.73e-06	7.8792e-06	1237.8	235.86	7.8106e-06	7.8294e-06	292.96	82.823	65.478	18.188	7.5584e-06	25.869	274.789	219.924	297.638	157.405	305.218	272.757	157.474	164.874	300.946	291.761	164.136	171.080	171.368	178.303	310.407	177.717	-8191	255	
41231.234	1	1	0	0	0.019053	0.042162	0.14039	0.13528	0.21243	0.039517	0.26017	0.26065	0.033974	0.099715	0.12571	0.16345	0.2499	0.43189	0.34706	0.17202	-2.1312	-2.9104	-2.6917	-2.5583	-3.0104	-2.6771	-3.05	-2.7875	-2.5604	-2.8208	-2.6562	-2.6146	-2.975	-2.7083	-2.7208	-2.9646	425.389	264.407	286.231	495.343	470.005	233.054	419.045	468.644	279.265	185.085	379.729	467.552	483.021	428.019	410.124	487.459	0.00032746	8.1431e-05	0.00011512	1193.6	4.5813e-06	1.9748e-06	1255.4	236.37	4.1138e-06	5.2842e-06	293.14	82.141	65.042	17.756	2.7914e-06	25.184	0.00063529	0.00072316	0.00019118	1182	7.6981e-06	8.0099e-06	1240.7	236.16	7.6571e-06	8.0797e-06	293.05	82.722	65.619	18.192	7.8511e-06	25.904	270.865	301.631	302.042	157.301	339.717	287.166	157.372	164.784	329.273	308.549	164.330	171.268	171.543	178.896	320.565	177.972	-8191	255	
41231.328	1	1	0	0	0.098273	0.24754	0.23226	0.10284	0.19333	0.22941	0.13607	0.19444	0.16993	0.18175	0.086162	0.19372	0.3079	0.07087	0.30872	0.17911	-2.2333	-2.9	-2.7042	-2.6813	-2.8083	-2.7271	-2.8375	-2.9396	-2.5667	-2.7833	-2.8812	-2.4708	-2.8333	-2.6375	-2.7938	-3.1667	352.040	478.809	245.760	295.748	298.938	500.515	485.433	469.538	228.935	436.284	441.085	378.922	355.854	468.382	208.176	203.413	0.00031442	0.00031062	0.00010817	1197.6	5.5336e-06	2.3354e-06	1256	237.97	4.2245e-06	1.3929e-06	292.7	82.101	65.348	17.707	2.2011e-06	25.376	0.00063484	0.00074654	0.00020003	1183	7.8366e-06	8.0687e-06	1241.5	237.02	7.7386e-06	7.9388e-06	293.36	82.949	65.898	18.179	7.7665e-06	26.013	275.184	210.950	213.168	157.220	346.667	494.391	157.547	164.724	307.133	383.676	164.252	171.044	171.144	178.803	282.035	177.945	-8191	255	
41231.426	1	1	0	0	0.05899	0.17675	0.1268	0.27045	0.15389	0.1738	0.079702	0.20654	0.23391	0.072733	0.035144	0.15987	0.19759	0.16996	0.053192	0.067547	-2.2125	-2.8167	-2.65	-2.7146	-2.7792	-2.8396	-2.8417	-3.025	-2.6521	-2.8771	-2.9062	-2.7604	-2.9917	-2.6958	-2.6625	-3.0521	444.196	285.659	497.976	464.923	232.304	154.090	420.848	255.276	444.740	467.894	486.599	271.504	456.390	349.164	359.339	296.648	0.00032896	0.00029959	6.7956e-05	1198.5	4.2019e-06	5.6996e-06	1260.2	237.16	3.3893e-06	3.0893e-06	291.37	83.24	65.642	17.915	3.4395e-06	25.454	0.0006366	0.00072462	0.00019678	1186.5	7.9328e-06	7.8446e-06	1244.5	236.75	7.9328e-06	8.0804e-06	293.29	83.362	65.884	18.295	7.6976e-06	25.957	270.598	183.728	231.215	157.372	296.403	342.347	157.439	164.601	315.018	317.264	164.090	171.125	171.525	178.504	275.606	177.519	-8191	255	
41231.520	1	1	0	0	0.11118	0.11761	0.16747	0.050801	0.13677	0.24001	0.35994	0.11382	0.13363	0.19992	0.2854	0.38412	0.18646	0.15657	0.11534	0.15529	-2.2083	-2.6375	-2.7417	-2.5833	-2.8104	-2.8583	-2.7896	-3.0792	-2.5667	-2.7875	-3.0687	-2.6167	-2.8063	-2.6333	-2.675	-3.0479	356.769	152.107	419.431	500.064	230.352	217.494	462.896	177.866	237.590	357.726	206.005	501.607	490.482	376.969	444.881	372.184	0.00026075	0.00032046	0.00012251	1201.2	5.4797e-06	7.4767e-06	1260.7	238	2.7904e-06	7.3566e-06	291.98	82.772	65.474	17.891	2.5048e-06	25.368	0.00061941	0.00072106	0.00019807	1187.2	7.9405e-06	7.768e-06	1247.8	237.32	7.8073e-06	7.8796e-06	293.43	83.25	65.989	18.303	7.9207e-06	25.966	280.885	259.177	237.855	157.244	304.584	327.523	157.086	164.468	300.092	322.661	164.145	171.120	171.397	178.378	227.692	177.972	-8191	255	
41231.617	1	1	0	0	0.2669	0.10695	0.10998	0.15399	0.28339	0.049098	0.099461	0.21788	0.21452	0.076069	0.12269	0.039216	0.13969	0.17862	0.17814	0.16544	-2.0875	-2.7792	-3.0042	-2.7104	-2.8521	-2.7896	-2.7146	-3.1208	-2.6312	-2.8208	-3.0625	-2.4458	-2.7583	-2.9313	-2.6083	-3.0354	425.528	299.356	301.921	503.123	495.664	343.672	155.932	418.130	434.843	462.553	454.688	181.188	206.116	431.047	304.278	466.812	0.00033249	8.6242e-05	0.00015629	1206.4	6.2465e-06	1.5865e-06	1267.5	238.01	3.5611e-06	1.9442e-06	293.86	82.71	65.326	17.709	2.3488e-06	25.395	0.00061827	0.00072151	0.00019951	1189.9	8.0302e-06	7.9345e-06	1249.5	237.55	7.7186e-06	7.9147e-06	294.3	83.341	65.927	18.256	7.8175e-06	25.986	273.090	276.402	224.719	157.319	380.952	292.312	157.575	164.447	292.340	323.117	163.994	170.788	171.585	178.474	270.389	177.971	-8191	255	
41231.715	1	1	0	0	0.18996	0.14735	0.10714	0.17811	0.085737	0.14622	0.42153	0.35511	0.12211	0.099285	0.14372	0.11199	0.12417	0.32566	0.15891	0.085702	-2.2708	-2.8604	-2.9313	-2.7687	-2.8375	-2.8354	-2.8396	-2.9313	-2.825	-2.6771	-3.0563	-2.65	-2.7083	-2.8021	-2.8604	-2.9188	417.427	294.445	462.123	422.640	164.517	336.784	449.929	460.616	398.776	169.531	178.522	272.221	329.312	295.012	460.370	212.783	0.00028499	0.00042081	0.00014906	1206	3.4535e-06	2.0567e-06	1267.2	239.53	3.0753e-06	2.8744e-06	295.57	82.032	65.528	17.776	1.7227e-06	25.112	0.00062567	0.00074108	0.00020708	1193.1	7.8767e-06	8.0879e-06	1252.4	238.31	7.8318e-06	8.175e-06	294.91	83.203	66.025	18.293	8.2796e-06	25.965	272.274	229.119	260.003	157.262	281.317	374.654	157.159	164.624	318.569	319.052	163.974	171.067	171.537	178.442	362.454	177.868	-8191	255	
41231.836	1	1	0	0	0.080086	0.16645	0.12828	0.14985	0.057244	0.20356	0.22301	0.29886	0.20648	0.090335	0.15532	0.040251	0.39951	0.16157	0.13396	0.14575	-2.275	-2.7083	-2.9688	-2.8104	-2.7875	-2.8625	-2.725	-2.8167	-3.0271	-2.5542	-2.925	-2.6146	-2.8167	-2.9271	-2.6188	-3.0229	468.695	349.520	205.230	324.105	403.291	305.235	427.474	176.610	419.624	266.643	148.887	478.614	197.529	473.127	235.950	494.284	0.00028773	0.00041796	8.6208e-05	1202	9.1698e-06	3.3502e-06	1268.2	238.97	5.3633e-06	4.1167e-06	295.61	82.73	65.807	17.895	2.3807e-06	25.35	0.00063412	0.00074233	0.00020777	1191.8	8.0492e-06	8.3409e-06	1252.6	238.32	7.9789e-06	8.2847e-06	295.6	83.216	66.213	18.373	8.0904e-06	25.972	273.546	224.902	232.115	157.290	307.337	266.207	157.225	164.534	306.179	333.801	164.317	170.774	171.273	178.358	291.822	177.860	-8191	255	
41231.930	1	1	0	0	0.062977	0.052942	0.1043	0.13778	0.18564	0.15699	0.22699	0.25696	0.25329	0.095792	0.17315	0.091745	0.17408	0.1518	0.12114	0.13757	-2.4292	-2.5458	-3.0167	-2.8125	-2.8063	-2.85	-2.7104	-2.9021	-2.7562	-2.7812	-3.0563	-2.7125	-2.625	-3.0687	-2.6229	-2.825	214.996	480.515	232.555	287.940	363.260	486.381	415.766	406.035	355.985	460.001	294.545	293.821	283.172	215.464	468.259	151.751	0.00029939	0.0004913	0.00016073	1207.2	6.7087e-07	5.3577e-06	1268.1	238.68	4.3562e-06	4.7365e-06	292.69	83.044	65.65	17.946	4.0254e-06	25.199	0.00063933	0.00076782	0.00021187	1194.2	7.9642e-06	8.1611e-06	1254.6	238.45	8.0583e-06	8.4802e-06	294.76	83.408	66.181	18.36	8.1646e-06	26.006	277.653	218.250	222.848	157.269	476.053	287.031	157.315	164.752	290.250	338.320	164.196	170.971	171.202	178.580	281.405	177.932	-8191	255	
41232.023	1	1	0	0	0.15518	0.049874	0.032415	0.27914	0.16023	0.18748	0.35487	0.28732	0.068914	0.14958	0.1393	0.1076	0.15429	0.070995	0.18337	0.11173	-2.3063	-2.6542	-3.0938	-2.8417	-2.6583	-3.0563	-2.8542	-2.8771	-2.8354	-2.5563	-2.9354	-2.7479	-2.7292	-3.0917	-2.7604	-2.7729	469.298	170.510	372.438	431.329	276.700	160.765	429.308	471.735	294.642	169.073	481.046	487.201	161.544	404.861	222.449	358.268	0.00034119	0.00035187	8.562e-05	1212.6	4.0903e-06	3.4362e-06	1272.6	239.66	5.5407e-06	2.0802e-06	295.75	82.9	65.748	17.978	5.1613e-06	25.444	0.0006381	0.0007482	0.00020518	1197.7	8.1152e-06	8.1448e-06	1256.4	238.76	7.9093e-06	8.5671e-06	295.63	83.438	66.436	18.379	8.2199e-06	26.06	277.894	251.033	244.814	157.306	332.090	330.747	157.372	164.499	317.507	355.038	164.529	171.117	171.459	178.712	341.156	178.290	-8191	255	
41232.121	1	1	0	0	0.15607	0.10434	0.025091	0.12285	0.066017	0.025521	0.017663	0.10289	0.1389	0.1569	0.27507	0.12533	0.25087	0.17736	0.24226	0.24105	-2.6375	-2.5146	-2.8	-2.8354	-2.7271	-2.8792	-2.8438	-2.7896	-2.9958	-2.6896	-2.8688	-2.9042	-2.6146	-3.0187	-2.6	-2.7208	257.756	227.260	396.803	490.962	418.377	229.340	375.668	430.639	457.848	410.248	501.310	418.500	469.628	470.567	248.689	409.824	0.00028298	0.00034842	0.00016578	1213.4	8.4725e-06	2.7221e-06	1272.6	239.85	4.8925e-06	3.7693e-06	294.86	82.993	65.64	17.856	3.209e-06	25.476	0.00063827	0.00075214	0.00020854	1198	8.2966e-06	8.403e-06	1257.3	238.98	8.1268e-06	8.4327e-06	295.09	83.496	66.231	18.414	8.1588e-06	26.069	278.781	224.952	198.518	157.419	298.580	365.226	157.340	164.756	295.418	342.416	164.199	171.092	171.475	178.349	329.098	178.029	-8191	255	
41232.219	1	1	0	0	0.045746	0.13726	0.15637	0.33723	0.2386	0.085115	0.075065	0.31935	0.26564	0.26281	0.084044	0.16874	0.37565	0.22709	0.18161	0.09412	-2.5396	-2.5938	-2.9583	-2.8917	-2.6583	-2.9396	-2.8896	-2.7771	-2.9458	-2.5667	-2.8333	-2.8604	-2.5521	-2.8708	-2.8688	-2.5708	331.196	366.191	483.477	150.750	305.295	405.536	500.246	457.262	256.111	491.964	165.358	195.187	444.437	219.511	419.232	321.148	0.00034677	0.00024742	8.073e-05	1217.7	4.4914e-06	1.5222e-06	1275.7	239.31	1.6261e-06	2.1029e-06	292.98	82.527	65.776	17.878	4.5229e-06	25.313	0.0006536	0.00075125	0.00020842	1200.5	8.1877e-06	8.2681e-06	1261.1	239.13	8.1245e-06	8.2334e-06	295.16	83.664	66.314	18.362	8.0147e-06	26.042	273.239	200.390	215.316	157.464	289.997	272.467	157.235	164.611	251.227	346.490	164.069	171.078	171.214	178.472	310.421	177.385	-8191	255	
41232.312	1	1	0	0	0.25437	0.14284	0.019386	0.17028	0.020173	0.20755	0.28059	0.1596	0.16734	0.085131	0.19733	0.048644	0.14095	0.19114	0.17288	0.29014	-2.5146	-2.5187	-2.6875	-2.9104	-2.575	-2.8417	-3.0312	-2.8187	-2.9083	-2.6958	-2.775	-3.0771	-2.6312	-2.8583	-2.8354	-2.6729	247.542	353.240	476.341	429.640	174.539	317.099	399.411	395.147	279.918	260.164	464.279	411.378	217.308	299.482	311.953	306.054	0.00028528	0.00040943	4.5418e-05	1218.6	6.0267e-06	1.7572e-06	1279	239.39	2.9071e-06	6.4129e-06	293.73	83.062	65.689	18.008	2.4488e-06	25.492	0.0006479	0.00076332	0.00020922	1203.3	8.2236e-06	8.1495e-06	1262.8	238.96	8.3392e-06	8.1568e-06	295.88	83.814	66.304	18.458	7.9074e-06	26.151	267.532	232.205	206.928	157.331	298.645	277.824	157.416	164.449	279.937	313.167	164.410	171.238	171.302	178.220	363.586	177.778	-8191	255	
41232.434	1	1	0	0	0.019261	0.14445	0.077586	0.20353	0.18659	0.10211	0.18154	0.3687	0.084507	0.11566	0.020112	0.081974	0.1709	0.19711	0.25398	0.16801	-2.5833	-2.7313	-2.6646	-3.1271	-2.6583	-2.8729	-3.0187	-2.75	-2.9833	-2.8833	-2.7708	-3.0208	-2.5812	-2.7771	-2.9125	-2.4979	465.690	215.814	317.245	490.231	286.228	382.463	438.321	457.745	160.949	433.415	423.672	429.512	393.275	487.360	162.366	319.524	0.00033341	8.6454e-05	0.00012336	1214.4	6.5489e-06	4.2181e-06	1277.7	240.61	2.951e-06	3.8812e-06	295.89	83.308	65.761	17.874	4.211e-06	25.537	0.00064911	0.00075362	0.00021278	1202.6	8.318e-06	8.354e-06	1261.6	239.49	8.0739e-06	8.3548e-06	296.36	83.689	66.498	18.404	8.2878e-06	26.171	274.084	179.096	204.598	157.394	309.505	277.136	157.323	164.854	274.114	336.899	164.430	170.991	170.768	178.317	336.498	177.535	-8191	255	
41232.531	1	1	0	0	0.25916	0.17263	0.12076	0.056491	0.094596	0.12426	0.29659	0.20122	0.11834	0.32953	0.12307	0.035123	0.27099	0.030194	0.13045	0.19997	-2.5229	-2.75	-2.4792	-3.1562	-2.8208	-2.8354	-3.0083	-2.6437	-2.8917	-2.8667	-2.8	-2.9604	-2.8854	-2.6833	-3.0604	-2.8083	159.266	254.992	276.299	401.781	374.301	501.167	441.262	160.907	461.380	350.232	388.883	253.666	199.028	353.098	252.299	441.617	0.00034232	0.00056037	0.00013785	1217.1	4.1482e-06	4.231e-06	1281.7	241.33	4.5592e-06	1.9334e-06	294.9	83.102	65.896	17.892	3.7307e-06	25.356	0.00065512	0.00076757	0.0002102	1203.6	8.4335e-06	8.2624e-06	1265.9	239.59	8.3979e-06	8.5412e-06	295.69	83.878	66.522	18.415	8.3741e-06	26.213	274.948	247.074	225.081	157.299	301.975	261.133	157.479	164.717	336.264	279.558	163.940	171.434	171.123	178.425	316.246	177.567	-8191	255	
41232.625	1	1	0	0	0.18823	0.25951	0.07381	0.25716	0.13265	0.13197	0.26731	0.1639	0.10633	0.28964	0.21937	0.31317	0.16699	0.17981	0.26744	0.16649	-2.5625	-2.8271	-2.6271	-3.075	-2.6208	-2.8396	-3.2625	-2.6146	-2.9813	-2.9375	-2.6854	-3.0417	-2.8708	-2.6875	-3.0625	-2.8229	246.812	349.469	421.107	489.041	381.682	182.028	446.904	434.692	295.306	412.127	418.464	422.822	327.006	449.825	266.298	324.136	0.00033379	0.00013621	0.00010913	1221.3	5.0293e-06	7.5172e-06	1278.4	240.87	4.4881e-06	4.0446e-06	296.3	83.52	65.531	17.952	3.5298e-06	25.545	0.00065189	0.00077566	0.0002153	1207.6	8.2954e-06	8.5015e-06	1264.7	239.95	8.3967e-06	8.4006e-06	296.4	84.007	66.533	18.447	8.4882e-06	26.297	272.246	205.909	251.156	157.365	344.177	316.051	157.580	164.641	303.813	368.153	164.085	171.167	171.245	178.220	320.413	177.547	-8191	255	
41232.699	1	1	0	0	0.26045	0.16894	0.082664	0.15059	0.14621	0.06935	0.079178	0.16119	0.028662	0.35393	0.12257	0.1772	0.17299	0.22905	0.15118	0.043628	-2.425	-2.825	-2.4458	-3.1458	-2.7583	-2.6729	-3.0812	-2.8104	-2.8417	-2.95	-2.5896	-2.9417	-2.6667	-2.875	-2.8646	-2.6917	210.556	263.177	183.688	466.292	409.849	245.926	187.722	438.018	199.000	473.584	471.584	446.708	175.586	354.470	232.203	235.148	0.00028536	0.00045629	0.00014952	1219.6	3.0616e-06	3.0865e-06	1276.4	240.52	1.7948e-06	2.0563e-06	296.06	83.445	66.282	18.066	5.2958e-06	25.476	0.00066255	0.00078399	0.00021494	1206.2	8.3804e-06	8.5468e-06	1265.6	240.1	8.3247e-06	8.4842e-06	296.98	84.156	66.827	18.487	8.619e-06	26.244	276.960	227.485	271.388	157.324	270.898	332.121	157.413	164.657	345.150	229.528	163.929	171.039	171.130	178.729	355.766	177.625	-8191	255	
41232.816	1	1	0	0	0.16991	0.060945	0.1777	0.058834	0.14786	0.057545	0.28477	0.31277	0.28949	0.061454	0.22585	0.19298	0.27054	0.064582	0.078856	0.23475	-2.2625	-2.9542	-2.5896	-2.9875	-2.7521	-2.7896	-3.1417	-2.9188	-2.6979	-3.2146	-2.65	-2.8167	-2.9417	-2.8063	-2.9896	-2.7938	460.954	458.702	338.867	185.014	388.579	190.821	493.642	444.099	174.992	495.199	283.004	412.474	444.783	297.958	214.697	325.039	0.00029436	0.00017398	0.00011636	1223.2	1.3893e-06	5.7909e-06	1285.2	242.14	3.1885e-06	2.5792e-06	296.54	83.235	66.211	18.043	1.8548e-06	25.526	0.00066469	0.00077834	0.00022036	1208.5	8.5013e-06	8.5379e-06	1268.6	240.24	8.2621e-06	8.9721e-06	297.32	83.889	66.749	18.523	8.5902e-06	26.233	265.853	280.332	215.995	157.492	285.243	286.178	157.221	164.746	308.090	292.678	164.291	170.881	171.671	178.691	327.127	178.065	-8191	255	
41232.914	1	1	0	0	0.10447	0.26353	0.17543	0.32478	0.11729	0.18452	0.3177	0.13892	0.13011	0.12975	0.27132	0.24849	0.11866	0.19855	0.039675	0.25155	-2.3917	-3.05	-2.5708	-2.9521	-2.8667	-2.5771	-3.2333	-2.5896	-2.7958	-3.0062	-2.7021	-2.6917	-2.7479	-2.7333	-3.0458	-2.9396	362.875	456.964	426.490	456.745	195.264	259.707	415.100	363.869	270.164	328.931	155.972	442.945	420.485	443.911	146.825	443.495	0.0002752	0.0002762	0.00013119	1221	3.1951e-06	4.961e-06	1285.4	240.83	6.9445e-06	3.5634e-06	294.64	83.272	66.148	18.052	5.4457e-06	25.354	0.00066514	0.00079431	0.00022242	1208.7	8.4931e-06	8.8657e-06	1268.7	240.4	8.2991e-06	8.8704e-06	296.25	84.071	66.881	18.545	8.7674e-06	26.254	271.493	226.648	253.069	157.341	285.020	297.751	157.319	164.543	318.076	353.330	164.217	171.030	171.253	178.603	294.316	177.597	-8191	255	
41233.008	1	1	0	0	0.14303	0.13417	0.24089	0.078603	0.090017	0.16628	0.20275	0.2024	0.17976	0.11508	0.15642	0.0977	0.21819	0.24445	0.12891	0.25393	-2.2375	-2.9479	-2.7062	-3.0312	-3.0687	-2.6188	-3.1854	-2.9	-2.7812	-3.0021	-2.7938	-2.7625	-2.9813	-2.4604	-2.8292	-2.9188	288.840	350.167	180.835	313.143	291.017	437.399	506.380	283.796	338.590	354.932	443.303	494.318	418.460	230.965	279.533	485.580	0.00028244	0.00075818	0.00011041	1221.8	6.503e-06	6.0683e-06	1281.6	241.83	3.8031e-06	8.38e-07	296.85	83.308	66.222	18.238	3.4793e-06	25.384	0.00066915	0.0007957	0.00022261	1210.2	8.4384e-06	8.8576e-06	1268.1	240.51	8.4996e-06	8.9214e-06	297.9	83.976	66.85	18.618	8.5929e-06	26.314	280.960	226.634	274.698	157.322	315.038	312.782	157.391	164.737	314.313	300.411	164.302	171.003	171.498	178.314	329.654	177.815	-8191	255	
41233.105	1	1	0	0	0.11999	0.13757	0.11165	0.069021	0.099045	0.2045	0.21042	0.13463	0.37386	0.015373	0.083828	0.076703	0.26956	0.1007	0.20191	0.19226	-2.4271	-3.1458	-2.8167	-3.0042	-2.8396	-2.4604	-3.0438	-2.8187	-2.5271	-2.9104	-2.75	-2.5771	-2.9562	-2.5979	-2.8521	-2.9458	339.357	338.180	343.008	181.628	442.014	226.232	443.884	486.302	259.477	271.730	156.137	186.814	246.483	448.914	435.966	449.637	0.00034607	0.00018192	8.7424e-05	1220.8	4.7477e-06	1.7123e-06	1285.2	240.85	4.3506e-06	2.1201e-06	298.08	83.841	67.062	18.195	2.711e-06	25.578	0.00066848	0.00078916	0.00021996	1209.6	8.4534e-06	8.7407e-06	1270.2	240.81	8.4535e-06	8.5472e-06	298.12	84.323	67.156	18.601	8.4452e-06	26.401	270.804	258.908	234.794	157.526	256.530	272.149	157.304	164.762	270.681	292.709	164.402	170.965	171.506	178.530	326.433	177.997	-8191	255	
41233.227	1	1	0	0	0.18927	0.069137	0.18114	0.28786	0.17699	0.12521	0.27451	0.10367	0.22949	0.19694	0.19412	0.032099	0.029354	0.085796	0.19696	0.13039	-2.2604	-2.8563	-2.8917	-2.6937	-2.9375	-2.8208	-3.0042	-3.2292	-2.6	-2.9979	-2.8521	-2.625	-2.9271	-2.6396	-2.8542	-2.8125	319.418	364.270	340.937	466.939	340.489	425.712	484.761	467.122	275.391	335.469	185.738	161.143	285.953	223.335	237.324	456.227	0.00028829	0.00029204	0.0001262	1224.1	5.7458e-06	3.5889e-06	1286.6	241.78	2.736e-06	3.4532e-06	297.33	83.517	66.328	18.015	4.0774e-06	25.746	0.00066755	0.00079366	0.00021603	1212.2	8.4729e-06	8.8363e-06	1272.7	240.97	8.3823e-06	8.7236e-06	297.78	84.259	67.026	18.569	8.6419e-06	26.428	273.999	220.806	239.322	157.331	290.363	268.653	157.572	164.437	278.261	313.052	163.895	170.997	171.320	178.297	345.027	177.712	-8191	255	
41233.297	1	1	0	0	0.060512	0.2062	0.29057	0.16965	0.28451	0.029066	0.097872	0.11054	0.15415	0.17987	0.095087	0.17978	0.30701	0.15455	0.31768	0.13992	-2.0458	-2.8792	-2.6646	-2.9375	-3.0375	-2.7104	-2.8792	-3.0229	-2.5792	-2.875	-3.0771	-2.9	-3.1729	-2.7917	-2.7708	-2.9938	427.296	158.303	463.763	460.263	217.664	378.777	448.450	421.877	469.867	307.934	464.445	436.820	426.364	487.324	199.132	275.632	0.00031451	0.00035621	0.00011036	1223.7	6.836e-06	7.3934e-07	1283.3	241.03	3.6342e-06	5.52e-06	296.33	83.633	66.225	18.156	4.3602e-06	25.809	0.00068829	0.00079205	0.00021807	1211.9	8.5938e-06	8.8279e-06	1272.4	240.79	8.5716e-06	8.7659e-06	297.68	84.379	66.981	18.658	8.4188e-06	26.418	274.107	244.874	252.275	157.360	313.732	376.051	157.196	164.448	294.310	301.307	163.809	171.155	171.703	177.897	322.059	177.999	-8191	255	
41233.395	1	1	0	0	0.36526	0.15474	0.34706	0.17353	0.15299	0.15894	0.33937	0.12078	0.015854	0.30527	0.043188	0.18348	0.2455	0.32927	0.057985	0.20452	-2.1312	-2.7708	-2.7958	-2.8354	-3.0229	-2.6312	-2.8792	-2.8896	-2.6083	-2.9667	-3.0583	-2.7938	-3.0354	-2.875	-2.6667	-3.0271	360.200	216.969	259.898	442.426	324.048	284.057	451.802	433.460	299.856	354.797	411.971	493.231	203.314	444.924	457.205	423.812	0.00032988	0.00057162	9.8528e-05	1228.5	6.8197e-06	2.8565e-06	1290.9	242.56	4.311e-06	1.5633e-06	298.44	83.938	66.309	18.264	9.5283e-07	25.592	0.00068337	0.0007802	0.00021803	1213.6	8.5877e-06	8.5752e-06	1274.1	241.44	8.4524e-06	8.7527e-06	298.06	84.22	67.005	18.686	8.3901e-06	26.49	272.839	253.475	249.173	157.238	279.371	226.165	157.380	164.658	315.433	357.485	164.134	171.035	171.276	178.335	352.523	177.500	-8191	255	
41233.516	1	1	0	0	0.19295	0.069272	0.20115	0.24397	0.12396	0.10371	0.22235	0.011476	0.16352	0.10696	0.31103	0.1345	0.18512	0.26256	0.1153	0.136	-2.3229	-2.9104	-2.8125	-2.9208	-2.8146	-2.7938	-3.0167	-3.1646	-2.65	-2.9229	-2.9479	-2.7438	-2.8875	-3.0021	-2.6792	-3.1292	195.651	177.422	324.669	447.805	202.181	179.541	466.812	260.820	369.312	502.964	429.068	181.970	166.337	370.747	395.932	394.909	0.00032706	0.0001969	0.00015967	1227.5	5.3262e-06	5.1735e-06	1289.3	242.55	5.0398e-06	3.0576e-06	298.64	83.863	66.74	18.198	4.8389e-06	25.722	0.00066291	0.00077216	0.00022072	1214	8.5945e-06	8.5529e-06	1275.2	241.32	8.3878e-06	8.5502e-06	298.71	84.51	67.126	18.692	8.3342e-06	26.521	273.050	156.099	221.638	157.287	325.083	258.092	157.127	164.403	328.182	304.569	164.217	170.900	171.146	178.351	267.628	177.690	-8191	255	
41233.609	1	1	0	0	0.28661	0.25416	0.046567	0.45381	0.13407	0.080047	0.17486	0.059919	0.20895	0.033756	0.24078	0.055117	0.20612	0.11696	0.30895	0.20756	-2.3312	-2.7854	-2.9875	-2.7521	-2.7979	-2.8167	-2.725	-3.1583	-2.8479	-2.8542	-2.95	-2.6083	-2.9021	-2.8937	-2.6	-2.9021	352.879	226.465	390.345	488.236	436.689	362.140	438.935	440.050	215.252	212.843	466.987	307.501	174.385	376.568	476.116	449.765	0.00031014	0.00031549	5.3555e-05	1228.1	5.0741e-06	2.8326e-06	1289.4	240.61	2.6176e-06	4.3901e-06	298.12	83.638	66.509	18.225	6.1116e-06	25.871	0.00067524	0.00077364	0.00021431	1214	8.4431e-06	8.4319e-06	1273.9	240.95	8.4982e-06	8.685e-06	298.41	84.473	67.051	18.664	8.538e-06	26.539	272.334	243.577	228.098	157.225	293.072	352.419	157.581	164.406	351.285	317.674	164.256	171.009	171.350	178.261	297.855	178.106	-8191	255	
41233.707	1	1	0	0	0.037018	0.14728	0.13991	0.37135	0.1325	0.077498	0.17804	0.25538	0.12496	0.13938	0.02051	0.28267	0.13754	0.12238	0.067889	0.11455	-2.1813	-2.5938	-2.9938	-2.8083	-2.975	-2.8458	-2.8063	-2.9771	-2.5875	-2.7479	-3.1813	-2.7583	-2.8958	-2.7979	-2.6063	-2.9979	192.255	212.545	470.711	454.861	209.640	354.921	379.205	463.627	275.833	395.846	341.621	461.913	213.237	350.262	316.853	471.504	0.00033817	0.00030952	4.6852e-05	1228.1	4.1118e-06	4.247e-06	1291.1	242.39	3.8746e-06	1.4561e-06	297.35	83.515	67.158	18.177	1.9744e-06	25.979	0.00066886	0.00077774	0.00021862	1215.7	8.3797e-06	8.6063e-06	1274.8	241.53	8.4544e-06	8.7492e-06	298.42	84.299	67.409	18.71	8.449e-06	26.583	273.212	278.826	240.047	157.281	303.785	277.902	157.294	164.648	307.671	323.529	164.097	170.882	171.182	178.564	321.141	177.369	-8191	255	
41233.824	1	1	0	0	0.22209	0.036892	0.1374	0.19931	0.074338	0.12481	0.27318	0.17224	0.042355	0.38559	0.15211	0.15363	0.04811	0.042149	0.25459	0.11136	-2.2542	-2.6771	-2.9083	-2.8812	-2.5979	-2.9813	-2.8271	-3.0104	-2.7583	-2.8083	-2.8396	-2.8625	-2.8729	-2.9271	-2.5438	-2.8417	464.238	319.554	215.107	439.759	487.344	446.597	425.777	359.795	353.697	377.257	386.590	340.308	217.692	183.697	167.935	337.776	0.00030001	0.00056957	6.5232e-05	1226	3.9298e-06	2.6457e-06	1292.4	242.12	4.8641e-06	3.4908e-06	298.26	83.403	66.293	18.038	4.6852e-06	25.833	0.00066834	0.00078784	0.00021628	1213.3	8.3858e-06	8.5888e-06	1275.8	241.6	8.2912e-06	8.7597e-06	298.39	84.182	67.176	18.691	8.7553e-06	26.55	278.907	210.338	209.981	157.399	264.002	263.699	157.285	164.428	340.466	308.576	164.113	171.093	171.160	178.543	323.460	177.959	-8191	255	
41233.922	1	1	0	0	0.068452	0.10488	0.027825	0.046747	0.20324	0.35105	0.35581	0.45751	0.15565	0.020294	0.18006	0.19144	0.31004	0.20072	0.23257	0.07479	-2.4333	-2.5208	-3.0563	-2.8271	-2.7604	-2.9125	-2.9062	-2.95	-2.8646	-2.6063	-3.0583	-2.8646	-2.7604	-3.0687	-2.6688	-2.9	425.432	194.804	445.110	486.248	247.797	253.527	430.751	432.705	356.056	501.353	365.229	454.886	450.499	185.550	498.500	159.499	0.00037123	0.00037703	3.66e-05	1229.1	5.9818e-06	2.3214e-06	1294.2	243.28	2.6227e-06	7.6558e-06	297.94	83.989	66.803	18.329	3.1013e-06	25.735	0.00067017	0.0008054	0.00021992	1214.7	8.4501e-06	8.6041e-06	1276.6	242.03	8.4102e-06	8.7482e-06	298.18	84.437	67.24	18.737	8.7234e-06	26.451	271.246	268.886	333.240	156.955	278.146	228.387	157.429	164.572	319.277	300.725	164.183	170.996	171.304	178.603	338.787	177.666	-8191	255	
41233.992	1	1	0	0	0.1	0.24322	0.24589	0.14563	0.22974	0.045142	0.18498	0.12987	0.15313	0.07097	0.043675	0.21634	0.12127	0.21754	0.17645	0.20175	-2.3896	-2.6458	-2.8812	-2.9188	-2.7188	-2.9042	-2.7771	-2.7479	-2.7938	-2.6688	-2.9208	-2.8937	-2.575	-2.9437	-2.5125	-2.8458	305.830	454.354	166.092	153.685	350.193	285.516	394.549	441.471	354.422	463.447	237.717	496.044	408.846	304.680	169.525	312.661	0.0002845	0.00041489	0.00010388	1228.3	4.9142e-06	2.0749e-06	1286.4	242.88	4.4848e-06	2.0927e-06	298.05	83.803	66.74	18.249	4.0989e-06	25.92	0.000661	0.00080428	0.00022132	1215.9	8.533e-06	8.6871e-06	1275	241.6	8.4712e-06	8.8079e-06	298.54	84.489	67.188	18.707	8.7613e-06	26.603	272.532	223.882	232.868	157.526	335.422	214.561	157.232	164.611	305.759	280.355	164.049	171.066	171.336	178.427	292.123	177.540	-8191	255	
41234.090	1	1	0	0	0.18411	0.097799	0.11263	0.33602	0.21167	0.005667	0.26807	0.019907	0.22325	0.1484	0.10146	0.030326	0.32598	0.13497	0.0078617	0.10411	-2.6562	-2.5938	-2.7062	-2.7458	-2.4917	-3.0083	-2.8292	-2.9062	-2.975	-2.6021	-2.9417	-2.8688	-2.7542	-2.7896	-2.85	-2.8896	282.987	283.132	297.504	154.039	440.905	351.332	443.597	388.465	216.222	499.093	481.498	485.218	506.230	173.624	253.348	489.974	0.00028445	5.4368e-05	1.3379e-05	1221.2	3.9807e-06	1.6395e-06	1291.9	242.11	5.7352e-06	3.0219e-06	299.22	83.736	66.408	18.186	7.2145e-06	25.848	0.00066702	0.00081272	0.00021977	1213.5	8.7257e-06	8.7884e-06	1275.4	241.44	8.6056e-06	9.044e-06	298.92	84.246	67.275	18.752	8.6796e-06	26.53	269.505	164.918	250.907	157.186	318.083	265.545	157.396	164.699	323.368	310.203	164.255	171.300	171.474	178.519	320.177	177.818	-8191	255	
41234.211	1	1	0	0	0.2468	0.39267	0.16766	0.26448	0.19351	0.065777	0.2099	0.07759	0.24735	0.1405	0.1761	0.077008	0.19492	0.093009	0.22355	0.069671	-2.5167	-2.6083	-2.8521	-2.8021	-2.5417	-3.0042	-2.9854	-2.7875	-2.8833	-2.7687	-2.9562	-2.8792	-2.6521	-2.9917	-2.8688	-2.7854	308.019	276.958	312.356	451.969	247.235	188.374	399.732	147.236	470.290	363.404	436.370	178.062	198.453	435.170	491.994	356.627	0.0002923	0.00025816	7.468e-05	1230.4	5.7885e-06	1.6026e-06	1295.2	241.65	3.0487e-06	3.4012e-06	298.84	83.144	66.42	18.183	3.4382e-06	25.843	0.00067715	0.0008097	0.00022634	1217	8.6452e-06	8.7911e-06	1279.6	241.38	8.5306e-06	8.9784e-06	299.31	84.112	67.329	18.713	8.6115e-06	26.514	270.571	261.959	169.116	157.579	263.813	391.535	157.290	164.796	317.843	267.163	164.273	170.944	171.339	178.547	280.527	178.171	-8191	255	
41234.305	1	1	0	0	0.12478	0.12231	0.16533	0.2546	0.17419	0.22999	0.089018	0.30365	0.10717	0.26883	0.20462	0.19943	0.18689	0.14558	0.077278	0.14448	-2.575	-2.85	-2.9875	-3.0417	-2.7667	-3.0167	-3.0271	-2.6375	-2.8417	-2.6333	-2.8542	-3.0021	-2.6042	-2.9083	-2.7062	-2.7021	320.875	484.891	293.825	434.988	264.402	500.052	337.385	367.712	496.836	259.531	162.444	437.126	241.598	169.398	467.157	209.676	0.00028649	0.00054253	6.9894e-05	1230.4	7.7334e-06	2.1704e-06	1292.6	243.39	4.8099e-06	4.6559e-06	297.96	84.012	66.817	18.271	1.4163e-06	25.708	0.00066306	0.00080797	0.00021893	1216.4	8.5421e-06	8.7521e-06	1276.3	242.35	8.5495e-06	8.9689e-06	298.8	84.413	67.317	18.751	8.5979e-06	26.491	267.746	236.885	259.441	157.102	274.463	257.251	157.158	164.774	285.176	264.126	164.042	171.018	171.425	178.531	464.111	177.914	-8191	255	
41234.402	1	1	0	0	0.22436	0.13297	0.147	0.12145	0.2481	0.31195	0.42805	0.19346	0.24478	0.14144	0.40583	0.18995	0.10964	0.084044	0.14028	0.13903	-2.5958	-2.7	-2.6292	-3.0875	-2.6688	-2.8542	-3.0312	-2.8021	-2.9688	-2.7062	-2.8604	-2.9854	-2.7729	-2.7417	-2.9229	-2.825	171.966	500.959	219.559	463.715	147.893	440.160	446.865	499.777	185.239	484.722	466.014	447.813	328.315	400.579	422.916	495.401	0.00034354	5.1401e-05	0.00011217	1228.2	5.1442e-06	7.3067e-06	1290.3	242.55	5.0123e-06	3.0182e-06	297.42	83.651	66.025	18.202	3.1107e-06	25.784	0.00067447	0.00080524	0.00021877	1217.7	8.8445e-06	8.7432e-06	1276.8	242.05	8.4256e-06	8.7746e-06	298.52	84.452	67.104	18.769	8.5755e-06	26.556	271.277	309.083	246.453	157.340	308.111	261.357	157.240	164.622	306.899	307.502	164.208	170.645	171.115	178.190	288.059	177.954	-8191	255	
41234.523	1	1	0	0	0.1882	0.088992	0.12734	0.37238	0.063891	0.016539	0.20237	0.10821	0.24615	0.12577	0.22177	0.22595	0.28579	0.086295	0.21294	0.31484	-2.425	-2.6417	-2.5146	-2.9875	-2.6125	-2.8625	-3.0104	-2.625	-2.7479	-2.8417	-2.8021	-3.0292	-2.7771	-2.7625	-2.7104	-2.7188	368.152	498.479	503.797	475.234	483.057	311.956	415.215	470.443	451.298	433.946	151.005	149.310	392.119	224.935	343.122	504.959	0.00030551	0.00069312	0.00014763	1228.5	5.8874e-06	3.2873e-06	1295.6	242.21	3.1402e-06	1.3355e-06	300.62	83.94	66.478	18.204	4.954e-06	25.88	0.00065672	0.00077942	0.00021388	1217.8	8.6506e-06	8.57e-06	1277.7	241.74	8.5679e-06	8.6922e-06	298.89	84.522	67.193	18.707	8.5979e-06	26.57	263.126	240.052	215.656	157.282	326.098	315.734	157.465	164.720	331.990	323.136	164.311	170.581	171.622	178.256	267.432	177.459	-8191	255	
41234.594	1	1	0	0	0.13127	0.16269	0.13119	0.16146	0.076965	0.036693	0.34843	0.15253	0.12349	0.18415	0.077435	0.091065	0.27403	0.19218	0.092776	0.061823	-2.4042	-2.8937	-2.5687	-3.0896	-2.7792	-2.7542	-3.1333	-2.6896	-2.6688	-2.8958	-2.6375	-2.9854	-2.7521	-2.6104	-2.9	-2.7167	332.690	386.711	242.367	179.969	285.758	358.892	421.132	181.566	306.232	274.531	179.643	269.254	347.711	268.236	152.608	387.792	0.00032924	0.00032401	0.00014008	1225.2	3.876e-06	1.309e-06	1289.4	242.96	2.4887e-06	1.8524e-06	298.94	83.564	66.787	18.246	3.5985e-06	25.747	0.00068605	0.00079501	0.00022224	1214.8	8.7722e-06	8.9134e-06	1277.4	241.82	8.6719e-06	8.9176e-06	298.75	84.244	67.275	18.721	8.8094e-06	26.525	276.601	241.436	207.437	157.325	263.921	374.868	157.227	164.495	309.784	284.728	164.548	170.950	171.537	178.133	320.712	177.218	-8191	255	
41234.691	1	1	0	0	0.10354	0.285	0.085263	0.23657	0.27391	0.28585	0.26769	0.091805	0.082701	0.15824	0.2285	0.10581	0.20253	0.3788	0.099777	0.22412	-2.3875	-2.7562	-2.7146	-3.1771	-2.7208	-2.9604	-3.1562	-2.7146	-2.7875	-3.0687	-2.7125	-2.925	-2.9437	-2.7167	-2.9375	-2.9229	246.562	397.244	214.513	474.922	449.068	328.796	477.267	479.021	217.262	428.460	201.624	478.742	399.332	485.974	297.267	196.775	0.00029133	0.00018659	0.00011478	1225.3	3.3473e-06	4.3643e-06	1294.1	242.3	4.9351e-06	3.1632e-06	298.64	84.254	66.357	18.129	5.5121e-06	25.782	0.0006895	0.00081422	0.00023132	1215.1	8.8757e-06	9.1301e-06	1276.3	241.85	8.7318e-06	8.8895e-06	299.04	84.533	67.158	18.7	8.7229e-06	26.495	266.500	241.076	243.814	157.461	311.359	257.408	157.415	164.416	292.077	303.893	164.058	171.195	171.496	178.593	317.610	177.927	-8191	255	
41234.785	1	1	0	0	0.078255	0.060525	0.04182	0.18805	0.11631	0.28391	0.14506	0.27902	0.17181	0.092586	0.11745	0.20987	0.098955	0.1357	0.14308	0.39254	-2.4458	-2.8583	-2.5708	-3.1188	-2.7271	-2.7271	-3.2687	-2.7417	-2.7208	-3.0563	-2.6104	-3.0042	-2.9125	-2.6854	-3.0563	-2.8521	319.013	347.753	243.469	167.819	490.853	199.511	417.442	373.573	403.635	392.103	366.293	272.615	432.693	384.821	458.123	461.819	0.00031381	0.00027401	0.00018844	1234.5	5.5059e-06	3.4201e-06	1290.5	243.12	4.4402e-06	2.7848e-06	299.09	83.845	66.253	18.259	4.5373e-06	25.864	0.00069122	0.00079599	0.00022455	1219.4	8.7769e-06	8.9043e-06	1276.5	241.7	8.7306e-06	8.7054e-06	299.19	84.372	67.141	18.732	8.7903e-06	26.529	268.712	262.618	249.472	157.297	264.471	329.590	157.396	164.801	328.897	392.545	164.166	170.598	171.129	178.514	254.974	177.664	-8191	255	
41234.906	1	1	0	0	0.44029	0.14139	0.26613	0.12504	0.11971	0.13446	0.2126	0.14726	0.23091	0.18994	0.19891	0.15823	0.22894	0.1662	0.095094	0.061377	-2.1542	-2.8958	-2.4979	-2.95	-2.8354	-2.7042	-3.1854	-2.6562	-2.6021	-3.0042	-2.6646	-2.8625	-2.8104	-2.6521	-2.9083	-2.6437	259.847	271.629	444.142	453.872	432.771	256.451	455.382	422.781	342.294	379.495	383.189	421.421	446.272	457.456	495.721	157.515	0.00031128	0.00043104	0.00011512	1232.4	3.5612e-06	3.1713e-06	1287	243.05	4.7908e-07	1.6693e-06	299.31	84.16	66.715	18.343	4.6756e-06	25.857	0.0006791	0.00079828	0.00022342	1218.3	8.6004e-06	8.7671e-06	1278.7	242	8.4961e-06	9.0368e-06	299.52	84.534	67.376	18.765	8.7896e-06	26.49	270.364	204.897	248.182	157.436	345.934	302.909	157.279	164.442	321.740	219.920	164.039	171.023	171.187	178.705	283.737	177.521	-8191	255	
41235.004	1	1	0	0	0.053166	0.080626	0.21096	0.29226	0.17946	0.16683	0.30212	0.25482	0.15736	0.3416	0.25136	0.088116	0.096913	0.11885	0.1586	0.10871	-2.1979	-2.8333	-2.4938	-2.9458	-2.8479	-2.6104	-3.0687	-2.8	-2.6375	-2.9188	-2.7521	-2.7083	-2.7854	-2.5646	-2.9271	-2.7542	339.535	201.040	494.327	158.449	278.508	162.755	468.606	347.405	422.255	243.457	408.576	345.512	159.087	409.753	189.347	194.561	0.00033476	0.0002309	0.00020122	1233.2	5.2572e-06	3.1329e-06	1293.1	243.71	3.1236e-06	2.8852e-06	297.96	83.821	66.812	18.149	1.6977e-06	25.596	0.00065908	0.00081436	0.00021885	1219.3	8.5973e-06	8.862e-06	1278.7	242.26	8.5474e-06	9.0047e-06	299.09	84.426	67.314	18.705	8.6035e-06	26.458	278.095	195.303	285.460	157.228	336.816	270.386	157.327	164.499	302.395	291.419	164.335	171.163	171.059	178.684	337.937	177.885	-8191	255	
41235.098	1	1	0	0	0.1838	0.15853	0.16539	0.37794	0.098264	0.073829	0.23487	0.14301	0.14247	0.25884	0.12054	0.1471	0.16852	0.10111	0.26114	0.20858	-2.1854	-2.9604	-2.6625	-2.9021	-2.8063	-2.5354	-3.0938	-2.9	-2.6292	-2.9437	-2.825	-2.925	-3.0312	-2.7583	-2.9021	-2.9208	342.928	272.654	388.096	412.619	480.951	353.509	433.995	502.894	402.789	323.636	493.170	364.044	450.636	490.472	153.789	257.624	0.00029583	0.00014144	6.9472e-05	1230	4.0834e-06	2.7651e-06	1294.5	242.7	5.3014e-06	4.2401e-06	298.41	83.91	66.883	18.172	4.4316e-06	25.727	0.00067831	0.0007925	0.00021794	1218.8	8.5196e-06	8.8351e-06	1279.4	241.96	8.4647e-06	8.9112e-06	299.21	84.435	67.287	18.706	8.7922e-06	26.551	269.052	226.304	201.355	157.098	342.641	315.041	157.386	164.493	328.001	335.955	164.207	171.068	171.146	178.490	305.597	177.755	-8191	255	
41235.195	1	1	0	0	0.026846	0.25809	0.29771	0.35624	0.061898	0.14248	0.086328	0.16599	0.16871	0.1852	0.039712	0.21044	0.24876	0.15904	0.098551	0.09668	-2.0583	-2.8271	-2.6583	-2.7667	-3.0542	-2.6021	-3.0021	-2.9813	-2.6667	-2.8792	-2.7042	-2.7021	-2.8583	-2.6312	-2.7771	-3.0521	388.981	483.077	375.339	468.489	200.302	366.184	349.212	474.073	292.398	446.827	264.672	443.775	472.888	172.485	261.481	346.450	0.00030626	0.00051959	0.00011906	1234.6	7.5578e-06	4.4702e-06	1294.4	243.39	5.83e-06	3.8045e-06	299.22	83.948	67.099	18.16	4.6935e-06	25.703	0.00066993	0.00079124	0.00021619	1220.1	8.5194e-06	8.7817e-06	1280.5	242.38	8.3399e-06	8.6902e-06	298.81	84.223	67.402	18.686	8.3541e-06	26.476	268.290	308.931	263.296	157.484	305.746	306.978	157.514	164.594	340.407	299.674	164.416	170.956	171.184	178.572	322.051	178.017	-8191	255	
41235.289	1	1	0	0	0.24509	0.098754	0.11744	0.4539	0.22494	0.027061	0.22351	0.29045	0.10667	0.047142	0.25821	0.33703	0.30295	0.1946	0.11915	0.27721	-2.1958	-2.95	-2.6229	-2.8229	-2.9854	-2.6458	-2.9729	-2.875	-2.5187	-2.9771	-2.8688	-2.6646	-2.8417	-2.6833	-2.7042	-2.9062	463.898	248.864	484.637	458.354	262.226	461.663	366.847	397.931	209.093	323.572	503.379	452.034	351.852	346.325	367.432	419.605	0.00029368	0.00040004	8.2635e-05	1238.2	2.7044e-06	4.927e-06	1296.2	242.89	1.7686e-06	1.4933e-06	298.03	84.08	66.535	18.236	4.1982e-06	25.878	0.00067523	0.00078439	0.00021168	1221.4	8.2623e-06	8.5643e-06	1280.1	242.23	8.2269e-06	8.3655e-06	299.41	84.404	67.23	18.684	8.1808e-06	26.489	274.850	249.804	203.890	157.232	267.122	319.479	157.365	164.348	322.983	349.472	164.263	171.149	171.757	178.603	355.692	177.789	-8191	255	
41235.387	1	1	0	0	0.11332	0.12088	0.23284	0.20135	0.19879	0.067967	0.246	0.33823	0.11109	0.070939	0.067297	0.37419	0.11345	0.19913	0.060689	0.077889	-2.1146	-2.7604	-2.7521	-2.8187	-2.8229	-2.6521	-2.9271	-2.9771	-2.4021	-2.8312	-3.0479	-2.6792	-3.075	-2.6583	-2.8896	-2.8812	243.848	364.545	451.780	483.574	409.026	172.074	408.379	195.281	338.259	286.219	220.724	437.066	193.283	339.832	318.763	249.498	0.00031112	0.00034217	3.8181e-05	1234.7	8.0512e-06	3.9148e-06	1293.3	242.93	4.0647e-06	4.7988e-06	298.52	83.55	66.578	18.172	3.5259e-06	25.691	0.00066	0.00077192	0.00021201	1219.4	8.4529e-06	8.4037e-06	1280.4	242.16	8.3047e-06	8.482e-06	299.05	84.298	67.306	18.694	8.3889e-06	26.421	273.514	242.166	190.747	157.099	268.194	292.097	157.404	164.461	327.623	252.256	164.042	171.272	171.182	178.511	231.066	177.780	-8191	255	
41235.504	1	1	0	0	0.16656	0.067188	0.17502	0.33039	0.14531	0.1082	0.23314	0.10228	0.2086	0.14327	0.17887	0.28322	0.088842	0.10332	0.24141	0.16139	-2.2854	-2.7979	-2.7458	-2.7313	-2.8958	-2.9167	-2.8292	-2.9938	-2.7208	-2.8312	-3.0208	-2.6604	-2.9104	-2.6521	-2.5292	-2.8458	363.166	199.821	222.912	484.332	191.812	367.127	454.045	469.076	468.146	185.055	397.376	503.068	278.256	298.230	291.615	167.587	0.00032527	0.00029701	0.00017053	1230.5	5.2969e-06	6.0161e-06	1288.6	243.19	6.1976e-06	2.2954e-06	299.23	83.572	66.896	18.207	5.5478e-06	25.873	0.00064574	0.00077772	0.0002118	1219	8.4417e-06	8.6708e-06	1279	242.5	8.3357e-06	8.8002e-06	299.27	84.368	67.329	18.66	8.3968e-06	26.444	267.019	277.026	181.633	157.295	309.066	281.597	157.438	164.748	320.950	280.639	164.457	171.251	171.211	178.261	318.718	177.327	-8191	255	
41235.602	1	1	0	0	0.18955	0.089208	0.12917	0.043715	0.18948	0.23959	0.18863	0.1217	0.088946	0.2843	0.17942	0.10631	0.14508	0.15928	0.14633	0.085359	-2.3104	-2.7896	-3.0458	-2.6917	-2.8063	-2.95	-2.9854	-2.9708	-2.8271	-2.7521	-3.0958	-2.6042	-2.9229	-2.7792	-2.5792	-2.9854	448.020	353.727	321.139	164.676	231.765	504.184	176.056	166.311	311.294	236.200	455.944	308.482	448.522	325.864	268.639	166.940	0.00028907	0.00030021	9.8896e-05	1231.2	5.7285e-06	1.6544e-06	1296.3	243.46	4.6897e-06	1.749e-06	297.3	83.387	66.961	18.079	3.6335e-06	25.837	0.00065301	0.00078721	0.00021471	1218.4	8.3351e-06	8.443e-06	1280.9	242.15	8.2828e-06	8.5805e-06	298.44	84.087	67.271	18.63	8.5339e-06	26.458	267.229	197.000	221.933	157.341	257.802	259.274	157.336	164.500	328.742	307.276	164.227	171.056	171.143	178.674	308.079	177.552	-8191	255	
41235.699	1	1	0	0	0.26691	0.065216	0.08421	0.29322	0.22261	0.20124	0.27728	0.24497	0.2276	0.099979	0.2145	0.22282	0.043019	0.13474	0.3351	0.18111	-2.2521	-2.7458	-2.9542	-2.7125	-2.8521	-2.8229	-2.6271	-2.925	-2.7229	-2.725	-2.9292	-2.6708	-2.7313	-2.8771	-2.6896	-2.7875	205.357	410.334	221.020	448.691	505.601	476.524	480.427	475.798	226.923	225.910	390.187	487.148	293.709	436.072	475.380	442.785	0.00033892	0.00019146	3.3331e-05	1237.8	2.7431e-06	6.0996e-06	1290.4	242.17	4.7047e-06	2.4578e-06	298.04	83.644	66.805	18.24	3.5396e-06	25.606	0.00066975	0.00077828	0.0002172	1221.5	8.4335e-06	8.4205e-06	1279.5	241.85	8.0735e-06	8.5507e-06	299.4	84.573	67.211	18.68	8.3253e-06	26.398	278.433	251.076	319.102	157.254	179.623	266.544	157.248	164.447	331.886	387.845	163.918	170.951	171.113	178.255	287.277	177.567	-8191	255	
41235.793	1	1	0	0	0.021462	0.27275	0.12041	0.1708	0.12958	0.2744	0.095915	0.22587	0.21661	0.16641	0.16074	0.17585	0.029252	0.1698	0.22231	0.18091	-2.3312	-2.5708	-2.9188	-2.8083	-2.6958	-2.9333	-2.7896	-2.8563	-2.7271	-2.6437	-2.9208	-2.7583	-2.6396	-2.8333	-2.5167	-2.775	436.408	365.492	163.573	418.485	475.463	472.582	332.684	186.091	171.166	301.731	439.264	434.554	455.556	287.334	287.355	216.002	0.00031352	0.0001579	4e-05	1231.2	5.6838e-06	2.3694e-06	1293.1	243.78	1.7237e-06	2.2458e-06	299.51	84.053	66.858	18.235	3.641e-06	25.499	0.0006536	0.0007826	0.00021508	1219.8	8.2351e-06	8.5203e-06	1278.8	242.7	8.297e-06	8.8102e-06	299.23	84.449	67.303	18.663	8.6248e-06	26.398	276.941	268.950	269.884	157.302	318.970	236.630	157.408	164.447	318.152	293.719	164.539	170.867	171.271	178.819	314.873	177.522	-8191	255	
41235.891	1	1	0	0	0.0946	0.14469	0.14928	0.27529	0.36441	0.10461	0.14943	0.49266	0.086204	0.19497	0.025572	0.168	0.14563	0.20172	0.05752	0.088574	-2.2625	-2.4104	-2.8625	-2.875	-2.5958	-2.8438	-2.7917	-2.7313	-2.7729	-2.75	-2.8042	-2.6625	-2.6792	-3.1021	-2.5604	-2.95	432.703	342.714	364.155	452.805	436.302	277.092	375.994	456.321	306.735	299.689	254.050	235.931	487.572	283.350	462.199	186.665	0.00034377	0.00020155	0.00010446	1230.4	6.4388e-06	2.4439e-06	1290.2	243.14	2.0176e-06	1.7735e-06	296.8	84.108	66.755	18.195	3.5223e-06	25.857	0.00065114	0.00079512	0.00021994	1218.8	8.3832e-06	8.548e-06	1279.4	242.34	8.1967e-06	8.6131e-06	298.71	84.589	67.324	18.678	8.5605e-06	26.489	268.034	220.930	271.253	157.255	289.167	343.953	157.364	164.746	310.934	201.914	164.067	170.561	170.891	178.208	290.875	177.783	-8191	255	
41235.984	1	1	0	0	0.18845	0.26531	0.16036	0.29277	0.14906	0.25321	0.26162	0.31754	0.045822	0.04569	0.26181	0.15362	0.129	0.022055	0.075084	0.11742	-2.5604	-2.5812	-2.9583	-2.7958	-2.6021	-3.0021	-2.9583	-2.9854	-2.8563	-2.6479	-3.1396	-2.9104	-2.6125	-2.8458	-2.65	-2.725	428.674	388.610	405.025	438.903	446.569	423.339	457.552	499.932	155.941	479.028	473.729	472.067	234.774	471.512	378.265	297.125	0.00034686	0.00034415	0.000179	1231.1	7.5172e-06	4.342e-06	1290	244.32	2.4416e-06	2.5289e-06	299.76	83.462	66.705	18.223	3.2484e-06	25.891	0.00065782	0.00077857	0.0002149	1221	8.4884e-06	8.502e-06	1279.9	242.51	8.1978e-06	8.8569e-06	299.07	84.383	67.405	18.691	8.6028e-06	26.472	266.253	234.367	235.650	157.254	327.442	334.868	157.172	164.668	357.645	281.830	164.223	170.719	171.301	178.434	297.135	177.656	-8191	255	
41236.082	1	1	0	0	0.10471	0.1341	0.11261	0.028188	0.085165	0.22777	0.22294	0.097886	0.18862	0.20088	0.2678	0.19725	0.036389	0.22139	0.18815	0.099325	-2.3521	-2.6271	-2.8812	-2.9188	-2.6333	-2.9437	-2.6583	-3.0312	-3.0104	-2.6167	-2.9667	-2.8292	-2.7167	-3.0875	-2.7229	-2.6521	397.619	390.693	182.311	188.984	294.526	241.001	498.206	164.884	414.691	153.718	476.784	451.000	375.241	198.937	468.849	459.741	0.00036553	0.00044479	0.00011001	1229.3	5.6906e-06	6.4776e-06	1299.8	244.05	4.4437e-06	7.1648e-06	299.13	83.801	66.713	18.257	5.4912e-06	25.876	0.00065797	0.00078173	0.00022009	1220.7	8.4191e-06	8.6542e-06	1281.3	242.17	8.3976e-06	8.735e-06	299.22	84.489	67.31	18.678	8.6504e-06	26.531	270.217	275.565	496.428	157.228	272.667	288.814	157.472	164.436	307.950	303.263	164.149	171.134	171.456	178.152	293.038	177.634	-8191	255	
41236.180	1	1	0	0	0.15467	0.18121	0.13657	0.086676	0.19769	0.11141	0.020121	0.26066	0.18762	0.088433	0.29184	0.23723	0.33491	0.10909	0.20314	0.28186	-2.3479	-2.6729	-2.8333	-2.9271	-2.6583	-2.9313	-2.7646	-2.8937	-3.0021	-2.5708	-2.8896	-2.8083	-2.6104	-2.8458	-2.8792	-2.8646	440.912	332.251	377.671	313.006	333.348	178.191	148.769	480.327	392.468	483.557	470.790	497.733	176.935	489.242	400.513	457.554	0.00032986	0.00041567	7.8385e-05	1230.9	4.1101e-06	2.3045e-06	1296.9	242.86	2.6622e-06	1.872e-06	298.45	83.824	66.876	18.291	2.6003e-06	25.789	0.00067358	0.00081064	0.00022296	1220.8	8.6736e-06	8.8959e-06	1280.8	241.98	8.4007e-06	9.0065e-06	299.36	84.671	67.447	18.719	8.6675e-06	26.509	265.097	236.449	413.062	157.295	296.688	280.428	157.299	164.567	302.861	358.477	164.181	171.109	171.337	178.325	345.573	177.523	-8191	255	
41236.297	1	1	0	0	0.1876	0.11125	0.27506	0.16886	0.24636	0.17604	0.084862	0.21378	0.087123	0.05219	0.10613	0.23373	0.21713	0.079106	0.19935	0.14301	-2.4375	-2.6312	-2.7542	-3.0542	-2.5792	-2.9896	-3.0333	-2.5646	-3.0625	-2.5187	-2.8563	-3.0167	-2.7042	-2.8708	-2.8729	-2.5583	499.740	177.352	393.599	502.715	163.924	150.847	459.177	478.304	180.198	203.809	482.012	463.622	249.943	244.703	444.614	169.222	0.00029637	0.00021697	6.6073e-05	1238.9	7.1042e-06	2.8165e-06	1297.7	243.2	4.1088e-06	4.62e-06	297.36	84.097	66.99	18.254	3.1049e-06	25.818	0.00067039	0.00081091	0.00021622	1223.9	8.7008e-06	8.8316e-06	1282.5	242.77	8.4852e-06	8.9639e-06	299.7	84.433	67.426	18.717	8.603e-06	26.495	279.822	258.487	221.261	157.028	335.170	360.912	157.226	164.611	316.416	294.461	164.205	170.935	171.213	178.059	336.574	177.864	-8191	255	
41236.395	1	1	0	0	0.27615	0.087895	0.18885	0.10806	0.11383	0.03852	0.34009	0.30001	0.18377	0.096028	0.24428	0.14027	0.11288	0.063711	0.054455	0.12505	-2.5979	-2.6979	-2.6042	-2.7604	-2.6542	-2.85	-3.0396	-2.5521	-3.0396	-2.8896	-2.8729	-3.1792	-2.5687	-3.1063	-2.8646	-2.8104	167.021	333.669	296.339	500.482	347.443	333.228	413.831	413.690	327.975	293.069	166.579	440.640	496.477	432.265	293.272	186.557	0.00029475	0.00051662	9.0216e-05	1230.6	1.9996e-06	4.0832e-06	1295.5	243.51	3.4789e-06	8.3016e-07	299.2	84.215	66.618	18.21	1.9313e-06	25.661	0.00066888	0.00077454	0.00021986	1220.7	8.783e-06	8.7921e-06	1282.7	242.36	8.4912e-06	8.9308e-06	299.74	84.679	67.417	18.691	8.4466e-06	26.45	275.625	191.661	188.798	157.287	236.603	211.778	157.239	164.606	330.163	348.188	164.466	171.296	171.041	178.012	314.339	177.464	-8191	255	
41236.469	1	1	0	0	0.13947	0.085914	0.13602	0.29698	0.20127	0.13168	0.14565	0.097464	0.18493	0.28987	0.093765	0.17485	0.17631	0.056603	0.31558	0.07348	-2.6396	-2.725	-2.6458	-3.1792	-2.5979	-2.9333	-2.8979	-2.7438	-2.9875	-2.9021	-2.6937	-2.9917	-2.6792	-2.8542	-2.9042	-2.6771	329.952	262.031	232.129	446.781	246.718	400.095	355.765	173.517	319.353	306.538	495.646	216.573	147.208	376.081	184.386	498.872	0.00028478	0.00034487	0.00013612	1237.4	6.6728e-06	2.9591e-06	1296.6	243.28	5.2258e-06	4.5697e-06	298.67	83.601	66.365	18.349	2.714e-06	25.85	0.00068273	0.00078544	0.00021784	1222.4	8.8686e-06	8.7936e-06	1282.2	242.51	8.5364e-06	8.8681e-06	299.57	84.623	67.189	18.747	8.5551e-06	26.556	270.006	231.575	212.128	157.201	305.526	339.802	157.390	164.598	312.741	353.243	164.156	171.305	171.372	178.504	299.691	177.841	-8191	255	
41236.586	1	1	0	0	0.19652	0.21769	0.12278	0.44547	0.14853	0.090766	0.082274	0.043146	0.17827	0.15877	0.1544	0.21133	0.21024	0.14664	0.071268	0.013653	-2.5333	-2.9896	-2.5417	-3.0021	-2.55	-2.7979	-3.2125	-2.6979	-2.8479	-2.8542	-2.7604	-3.0125	-2.7583	-2.7625	-2.9188	-2.6312	463.404	345.663	490.435	492.844	478.012	324.965	156.311	277.104	189.218	235.817	163.240	359.218	147.623	396.393	424.085	397.374	0.00029326	0.00024629	5.0342e-05	1235.6	1.6844e-06	1.9507e-06	1295.8	244.45	4.6792e-06	4.1324e-06	298.21	83.948	66.587	18.315	2.1232e-06	25.72	0.00068119	0.00080641	0.00022199	1223.8	8.5522e-06	8.8299e-06	1283.1	243.08	8.5658e-06	8.7049e-06	299.22	84.545	67.479	18.783	8.4715e-06	26.542	261.555	220.584	209.432	157.320	271.914	263.820	157.208	164.511	324.809	226.259	164.178	170.914	171.430	178.642	311.528	177.575	-8191	255	
41236.684	1	1	0	0	0.13389	0.093815	0.077374	0.23405	0.46021	0.028431	0.48022	0.34238	0.25883	0.19097	0.13181	0.088009	0.10349	0.1602	0.1609	0.11761	-2.3229	-3.0208	-2.4021	-2.9958	-2.8354	-2.6208	-3.1396	-2.6521	-2.625	-2.8417	-2.7896	-2.8812	-2.5833	-2.7542	-2.9938	-2.7708	450.738	324.092	289.513	451.973	293.699	374.455	471.136	440.505	497.574	316.738	270.283	444.307	435.892	258.561	171.470	475.044	0.00038408	0.00039701	0.00010048	1241	7.4543e-06	2.7907e-06	1303.4	243.24	2.053e-06	3.6468e-06	299.08	84.04	67.192	18.26	2.7941e-06	25.988	0.00068049	0.00078853	0.00022167	1225.5	8.7379e-06	8.5304e-06	1284.6	242.78	8.5574e-06	8.8037e-06	299.55	84.692	67.44	18.742	8.668e-06	26.569	273.561	234.039	238.006	157.322	321.895	298.300	157.209	164.335	280.895	332.554	164.178	171.040	171.620	178.296	295.923	177.480	-8191	255	
41236.777	1	1	0	0	0.09001	0.18954	0.2778	0.20262	0.29099	0.097822	0.2714	0.21589	0.16282	0.22102	0.29649	0.16178	0.18981	0.085562	0.16972	0.20352	-2.3979	-2.8354	-2.4083	-3.0146	-2.8229	-2.725	-3.05	-2.7271	-2.875	-2.825	-2.6562	-3	-2.8521	-2.6167	-2.9292	-2.7792	447.681	200.398	392.859	485.070	190.126	408.956	427.325	463.915	149.943	175.191	433.224	171.716	154.314	256.869	275.913	390.105	0.00029373	8.9301e-05	7.8605e-06	1234.4	5.6728e-06	2.5673e-06	1298.3	244.14	3.7375e-06	5.291e-06	300.22	83.726	67.044	18.287	3.6411e-06	25.888	0.00068062	0.00078708	0.00022599	1223.9	8.7886e-06	8.757e-06	1284.9	242.9	8.409e-06	8.7599e-06	301.01	84.619	67.508	18.79	8.6093e-06	26.569	281.646	428.502	221.432	157.291	215.783	411.436	157.304	164.445	344.103	389.525	164.424	171.094	171.152	178.054	296.844	177.726	-8191	255	
41236.875	1	1	0	0	0.27743	0.15171	0.094385	0.35447	0.061886	0.14295	0.32971	0.088328	0.045037	0.015302	0.028763	0.30297	0.14679	0.21778	0.20729	0.038153	-2.325	-2.9146	-2.6167	-3.0042	-2.8417	-2.6375	-3.1104	-2.8896	-2.7417	-2.9583	-2.6521	-2.7313	-2.8375	-2.6	-2.8521	-2.8958	484.076	261.096	365.224	490.600	421.877	439.297	465.767	425.913	266.195	458.603	308.784	156.989	225.834	162.939	345.924	472.169	0.00029851	0.00020899	6.5523e-05	1236.9	7.3201e-06	1.5612e-06	1306.4	244.08	6.5719e-06	3.1087e-06	299.21	84.018	66.897	18.229	1.783e-06	25.663	0.00067092	0.00076959	0.000217	1226.8	8.5558e-06	8.4207e-06	1287.9	243.26	8.4745e-06	8.5504e-06	299.87	84.76	67.48	18.718	8.6286e-06	26.53	268.048	151.359	211.242	157.134	325.057	283.384	157.198	164.488	304.321	283.754	164.419	171.053	171.268	178.477	362.213	177.862	-8191	255	
41236.996	1	1	0	0	0.14465	0.083467	0.15678	0.035467	0.30152	0.23005	0.26477	0.23853	0.21605	0.025062	0.16798	0.087965	0.088561	0.42222	0.20666	0.28595	-2.4104	-2.9125	-2.5375	-2.7625	-2.7917	-2.4771	-3.0604	-2.9667	-2.5708	-2.9042	-2.7438	-2.7583	-2.8438	-2.65	-2.9813	-2.8	363.347	420.106	320.340	274.521	417.802	310.505	441.572	420.035	449.839	307.414	466.662	398.141	218.500	157.226	301.532	478.656	0.00025691	0.00046278	6.1286e-05	1240.2	6.5441e-06	2.1738e-06	1305.7	244.09	3.926e-06	6.2252e-06	300.16	84.318	67.005	18.3	8.9765e-07	25.754	0.00066606	0.0007832	0.00021839	1227.5	8.2999e-06	8.5776e-06	1287.9	243.22	8.2318e-06	8.4041e-06	300.79	84.859	67.775	18.836	8.3768e-06	26.522	268.203	257.383	199.678	157.201	316.797	505.020	157.287	164.542	291.190	308.202	164.213	170.748	171.517	178.427	419.331	177.950	-8191	255	
41237.090	1	1	0	0	0.15544	0.040376	0.14474	0.17586	0.029248	0.18754	0.18931	0.24572	0.14765	0.089731	0.17874	0.16977	0.27181	0.21053	0.16903	0.20679	-1.9917	-2.8875	-2.6625	-2.9458	-2.9625	-2.6	-2.9958	-2.8083	-2.4375	-2.7521	-2.7479	-2.7729	-2.8771	-2.6958	-2.7646	-2.8688	296.903	314.068	468.557	406.485	200.082	482.520	445.177	279.724	160.433	320.769	491.419	440.847	475.861	149.877	296.763	206.450	0.00029736	0.00037234	8.8335e-05	1238.6	4.5753e-06	5.0983e-06	1301.4	243.45	2.5725e-06	1.9309e-06	298.84	84.179	67.211	18.339	2.0959e-06	26.004	0.00065176	0.00076719	0.00020917	1228.5	8.1593e-06	8.6073e-06	1290	243.05	8.1464e-06	8.5454e-06	300.21	84.779	67.806	18.787	8.0971e-06	26.602	264.364	325.221	224.213	157.251	320.825	250.029	157.385	164.377	344.910	197.560	163.941	171.285	171.386	178.166	379.454	177.029	-8191	255	
41237.188	1	1	0	0	0.09112	0.25337	0.23816	0.15129	0.063561	0.28631	0.20792	0.11279	0.099612	0.12307	0.090773	0.031227	0.29318	0.22526	0.091206	0.28551	-2.1958	-2.7917	-2.7396	-2.875	-2.9083	-2.85	-2.8917	-3.0229	-2.6021	-2.9938	-2.7125	-2.675	-2.9771	-2.6458	-2.8	-3.0146	161.318	279.204	255.601	459.245	366.753	205.284	465.995	363.410	408.187	439.582	488.952	462.930	493.420	364.720	381.758	458.390	0.00030311	0.0005102	4.0002e-05	1240.6	2.9184e-06	4.7168e-06	1306.5	245.3	1.4355e-06	3.6509e-06	301.01	84.217	67.831	18.38	3.664e-06	26.33	0.00063591	0.00075485	0.0002044	1229.4	7.9065e-06	8.0422e-06	1291.2	244.13	7.6781e-06	7.9324e-06	300.84	84.885	68.241	18.863	7.6887e-06	26.848	280.917	230.588	324.777	157.313	311.172	290.554	157.165	164.457	275.888	270.588	164.323	170.836	171.346	178.245	316.522	177.483	-8191	255	
41237.281	1	1	0	0	0.17839	0.23484	0.18216	0.18142	0.15831	0.10366	0.10797	0.13955	0.076458	0.10379	0.24706	0.16586	0.21003	0.051709	0.078574	0.083619	-2.1917	-2.8563	-2.7396	-2.7438	-2.9146	-2.6292	-2.9021	-3.0625	-2.6125	-2.8312	-2.8146	-2.7687	-2.9062	-2.8438	-2.7083	-3.075	248.013	302.259	300.596	452.322	314.504	250.827	410.783	442.962	456.879	210.246	160.277	155.973	492.166	465.412	353.612	438.566	0.00032468	0.00020492	0.00014315	1242.3	5.432e-06	2.0114e-06	1306.7	244.91	2.4186e-06	3.9884e-06	301.91	84.439	67.731	18.832	4.4117e-06	26.896	0.0006106	0.00070482	0.00019424	1228.9	7.8445e-06	7.8083e-06	1291.7	243.52	7.5183e-06	7.8602e-06	300.87	85.225	68.471	19.384	7.6418e-06	27.525	276.257	248.502	176.916	157.136	309.051	229.612	157.444	164.638	319.616	274.834	163.633	170.675	171.104	178.077	316.513	177.751	-8191	255	
41237.379	1	1	0	0	0.12482	0.25973	0.13599	0.12127	0.2051	0.20613	0.26761	0.073452	0.087501	0.23052	0.15377	0.19599	0.36902	0.23115	0.15294	0.086619	-2.15	-2.7458	-2.6208	-2.7771	-2.875	-2.6646	-2.9083	-2.9938	-2.6437	-2.8937	-2.7687	-2.7021	-2.8417	-2.8208	-2.7125	-2.8792	390.266	466.420	493.127	448.229	431.626	428.699	462.347	191.608	382.697	401.998	238.523	269.758	433.675	161.695	254.628	501.495	0.00031987	0.00045896	0.00015632	1241.6	3.5387e-06	2.3241e-06	1304.3	245.68	2.8217e-06	4.0535e-06	301.02	84.506	68.081	19.06	3.4489e-06	26.956	0.00061423	0.00072184	0.00019543	1229.5	7.7614e-06	7.91e-06	1290.8	244.81	7.6685e-06	7.8801e-06	301.65	85.176	68.576	19.484	7.7046e-06	27.562	276.239	243.333	220.991	157.290	302.990	295.123	157.215	164.575	331.675	269.095	164.266	170.858	170.999	178.158	343.999	177.886	-8191	255	
41237.473	1	1	0	0	0.21357	0.23922	0.086124	0.17887	0.082357	0.12154	0.25751	0.21932	0.15132	0.13201	0.25623	0.1119	0.10902	0.057838	0.15664	0.13558	-2.2875	-2.6979	-2.9313	-2.7521	-2.7896	-2.8375	-2.8646	-3.1125	-2.7042	-2.8563	-2.9917	-2.7854	-2.9917	-2.7562	-2.5875	-2.9792	471.262	251.333	172.837	428.249	155.610	327.653	404.550	463.609	356.064	232.087	148.273	455.385	200.848	341.684	216.902	204.078	0.00036203	0.00020396	0.00010171	1244.5	4.9225e-06	3.697e-06	1305.1	246.31	4.0974e-06	1.6519e-06	302.73	84.338	68.259	19.03	3.703e-06	27.067	0.00062832	0.00071479	0.00020076	1232.6	7.8891e-06	7.9842e-06	1290.4	244.94	7.8255e-06	7.9505e-06	303.29	85.175	68.553	19.512	7.8726e-06	27.638	267.899	246.979	213.666	157.131	270.722	316.425	157.292	164.560	306.504	250.577	164.291	170.918	171.489	178.116	344.412	177.192	-8191	255	
41237.594	1	1	0	0	0.07503	0.081862	0.23677	0.18321	0.057911	0.15333	0.38356	0.20423	0.20995	0.17008	0.089563	0.18162	0.073112	0.19968	0.1473	0.043928	-2.2333	-2.6479	-2.8458	-2.9354	-2.8438	-2.8542	-2.8083	-2.8917	-2.7354	-2.8021	-3.0812	-2.6521	-2.9625	-2.8	-2.4375	-2.8521	463.577	379.049	174.039	193.046	325.998	201.393	470.704	505.854	371.165	147.180	222.699	358.809	402.806	448.481	388.544	234.723	0.00033773	0.00039698	4.2808e-05	1243	3.5387e-06	2.1618e-06	1303.2	245.47	1.1543e-06	4.7123e-06	301.15	84.768	67.788	19.145	3.2476e-06	26.978	0.00061688	0.00072807	0.00019636	1230.5	7.8049e-06	7.9481e-06	1289.8	245.18	7.8944e-06	8.2071e-06	302.21	85.492	68.629	19.481	7.9396e-06	27.623	267.540	147.126	262.861	157.426	294.992	231.794	157.421	164.462	312.297	382.199	164.214	171.363	171.355	178.201	299.446	177.413	-8191	255	
41237.691	1	1	0	0	0.27552	0.22832	0.10032	0.33733	0.32451	0.20719	0.046749	0.21573	0.096912	0.27452	0.18038	0.045555	0.09312	0.032656	0.059523	0.10568	-2.3542	-2.7438	-2.8667	-2.9208	-2.9521	-2.9396	-2.7562	-2.8333	-2.6167	-2.6688	-3.0833	-2.7458	-2.6917	-3.0146	-2.5833	-2.9521	233.148	337.814	240.528	459.627	487.535	221.135	503.047	389.612	229.788	505.808	506.068	219.555	484.328	444.376	280.329	250.137	0.00033979	0.00037239	5.8323e-05	1248.9	7.3416e-06	7.2717e-06	1307.6	244.9	2.5159e-06	5.3403e-06	300.5	84.556	67.758	18.971	3.8181e-06	26.814	0.00063732	0.00073725	0.00020662	1232.7	8.2846e-06	8.1697e-06	1292.6	244.89	8.1308e-06	8.533e-06	302.51	85.273	68.597	19.496	8.2047e-06	27.577	273.445	260.080	224.828	157.243	313.635	312.645	157.285	164.600	410.058	296.693	164.006	171.140	171.219	177.819	310.695	177.295	-8191	255	
41237.762	1	1	0	0	0.26056	0.23304	0.13764	0.27499	0.099836	0.25506	0.34745	0.11296	0.21756	0.024886	0.0076652	0.096652	0.3342	0.13135	0.20911	0.068866	-2.3104	-2.6146	-2.9542	-2.8042	-2.6208	-2.8937	-2.975	-2.9813	-2.7604	-2.8083	-3.05	-2.625	-2.7438	-2.9208	-2.5625	-3.0625	358.137	281.297	193.804	432.386	410.438	160.675	441.060	416.333	438.598	456.533	184.861	485.840	447.715	333.012	374.290	425.921	0.00035023	0.00014143	0.00010893	1240.3	8.031e-06	1.9024e-06	1309	245.03	4.0357e-06	6.7763e-06	303.43	84.995	68.098	18.924	3.0015e-06	26.929	0.00065546	0.0007804	0.00021686	1228.4	8.4896e-06	8.59e-06	1291.5	244.41	8.5821e-06	9.0264e-06	302.95	85.458	68.64	19.506	8.8321e-06	27.718	275.093	265.975	217.577	157.448	311.310	264.722	157.426	164.663	299.208	312.142	164.261	170.688	171.167	178.232	362.179	177.761	-8191	255	
41237.859	1	1	0	0	0.16387	0.15115	0.12329	0.18484	0.15147	0.144	0.094789	0.14042	0.24404	0.16223	0.32736	0.35499	0.11971	0.11837	0.12854	0.028544	-2.3375	-2.8229	-3.0208	-2.8812	-2.7542	-3.0062	-2.8417	-2.8521	-2.8292	-2.7354	-3.0062	-2.9313	-2.7833	-3.0042	-2.6625	-2.7146	164.404	423.367	350.857	185.222	468.050	219.434	412.519	491.985	342.620	257.743	146.987	472.510	486.228	174.838	414.409	484.550	0.00032042	0.00037739	0.0001234	1243.3	3.1156e-06	7.3698e-06	1307.7	245.57	4.055e-06	2.1081e-06	302.85	84.27	67.719	19.15	3.9743e-06	26.952	0.00067935	0.00080885	0.00022394	1231.1	8.8996e-06	8.6602e-06	1290.6	244.98	8.8296e-06	9.2702e-06	303.09	85.284	68.53	19.572	9.047e-06	27.667	280.155	204.684	224.584	157.294	357.770	274.806	157.168	164.432	329.594	284.139	164.345	170.920	171.242	177.847	312.245	177.235	-8191	255	
41237.980	1	1	0	0	0.17599	0.27677	0.097663	0.063225	0.20435	0.19648	0.27589	0.18688	0.055182	0.21774	0.34585	0.12418	0.16943	0.22699	0.35766	0.027184	-2.5896	-2.5438	-2.7938	-2.8604	-2.6646	-2.8438	-2.7917	-2.9146	-3.025	-2.8563	-2.9708	-2.8604	-2.7729	-3.0771	-2.6958	-2.9062	222.866	291.038	163.338	402.501	288.182	242.710	320.953	408.574	260.599	496.747	484.426	400.531	303.161	156.989	501.477	343.953	0.0003727	0.0003769	0.00016128	1243.1	5.333e-06	2.6994e-06	1302.2	246.33	2.413e-06	5.4205e-06	300.96	84.645	68.059	19.036	4.2102e-06	27.043	0.00070295	0.00083144	0.00023675	1232	9.0421e-06	9.2309e-06	1291.9	245.33	8.8443e-06	9.3934e-06	303.02	85.489	68.726	19.532	9.1688e-06	27.681	267.393	226.417	219.725	157.260	275.842	326.184	157.307	164.794	275.667	228.362	164.236	170.732	171.247	178.001	266.011	177.722	-8191	255	
41238.074	1	1	0	0	0.33491	0.12679	0.067938	0.087021	0.028244	0.26482	0.078601	0.030134	0.060688	0.071767	0.29068	0.057585	0.29459	0.19923	0.12562	0.15618	-2.6917	-2.7208	-3.0417	-3.0563	-2.7042	-2.9375	-2.8604	-3	-2.9188	-2.7687	-2.9104	-2.9646	-2.6562	-2.9958	-2.6521	-2.6854	329.175	315.208	291.272	169.712	483.849	341.800	429.986	298.762	360.493	231.132	337.677	227.873	388.086	340.529	161.987	493.935	0.00031388	0.00013034	0.00016796	1246.7	2.6178e-06	8.2332e-07	1309	245.85	4.0022e-06	4.1456e-06	302.95	84.435	68.067	19.09	2.0986e-06	26.843	0.00070687	0.00085908	0.00023891	1234.2	8.9907e-06	9.1948e-06	1294.9	245.06	8.8308e-06	9.3359e-06	303.78	85.424	68.713	19.564	9.3527e-06	27.591	270.247	186.890	245.313	157.214	391.483	315.036	157.339	164.505	300.314	293.787	164.232	170.891	170.985	178.278	223.879	177.462	-8191	255	
41238.172	1	1	0	0	0.11925	0.44507	0.1875	0.1644	0.2233	0.077714	0.08848	0.12506	0.053561	0.1431	0.080121	0.11558	0.2642	0.22881	0.15204	0.094626	-2.4854	-2.4062	-2.8479	-3.0979	-2.6333	-2.8563	-2.9146	-2.6125	-2.9208	-2.7938	-2.8979	-3.0208	-2.8083	-2.8875	-2.6312	-2.7562	243.334	312.349	346.230	405.266	408.669	476.971	332.141	385.135	451.545	383.618	413.699	152.613	176.113	224.455	312.533	276.705	0.00033639	0.0006499	0.00018241	1244.8	5.689e-06	5.7694e-06	1305.2	246.44	3.111e-06	2.4128e-06	301.94	84.588	68.115	18.937	5.6025e-07	26.796	0.00069764	0.00084909	0.00023455	1231.9	9.0484e-06	9.3937e-06	1294.2	245.77	9.0655e-06	9.2518e-06	302.81	85.464	68.582	19.62	9.2768e-06	27.68	264.977	244.598	258.758	157.261	386.854	329.194	157.363	164.305	325.814	361.929	164.403	170.626	171.181	177.908	251.960	177.175	-8191	255	
41238.270	1	1	0	0	0.056007	0.15126	0.15802	0.2943	0.26527	0.11225	0.23847	0.1985	0.16321	0.09364	0.11833	0.26751	0.20173	0.2216	0.19832	0.052639	-2.7375	-2.8063	-2.8875	-3.1833	-2.6021	-2.9125	-3.2292	-2.7062	-2.975	-2.8417	-2.8708	-3.1229	-2.7167	-3.0771	-2.7417	-2.6479	221.998	251.742	341.518	440.317	493.601	199.202	432.816	202.751	177.768	446.035	304.775	149.345	377.519	469.629	354.727	480.581	0.00031899	0.00052733	0.00011061	1250.5	3.0976e-06	3.5606e-06	1313.9	247.6	1.6593e-06	8.6246e-07	302.3	84.689	68.23	19.173	2.782e-06	27.063	0.00070335	0.00085241	0.00023441	1233	8.9128e-06	9.182e-06	1296.4	245.98	8.8713e-06	9.3583e-06	303.61	85.644	68.765	19.598	8.9965e-06	27.765	270.799	251.795	258.399	157.136	243.938	333.167	157.369	164.534	329.365	416.338	164.543	170.885	171.191	177.966	344.248	177.499	-8191	255	
41238.387	1	1	0	0	0.025499	0.096827	0.22423	0.31728	0.10636	0.26062	0.38153	0.43022	0.099458	0.15114	0.2758	0.12163	0.14283	0.25779	0.095205	0.12127	-2.6437	-2.7375	-2.7438	-3.1896	-2.4708	-2.7229	-3.0208	-2.6417	-2.9583	-2.7229	-2.7292	-2.75	-2.6521	-3.0292	-3.1042	-2.7104	215.489	376.175	276.551	475.818	431.060	241.813	431.362	443.882	388.222	421.403	505.170	304.431	213.247	208.947	216.947	442.607	0.00033652	0.00041956	0.00015218	1243.2	5.4252e-06	1.7635e-06	1313.5	246.75	7.4836e-07	4.8592e-06	303.22	84.858	68.264	19.146	2.8358e-06	27.158	0.00070736	0.000823	0.00023162	1234.6	8.9801e-06	9.161e-06	1298.1	246.03	8.6959e-06	9.3078e-06	303.76	85.604	69.144	19.617	8.8051e-06	27.804	276.490	259.267	259.411	157.084	258.339	330.224	157.283	164.529	231.594	268.543	164.118	170.878	171.555	178.194	322.057	177.507	-8191	255	
41238.457	1	1	0	0	0.26949	0.18112	0.25192	0.11885	0.17658	0.18791	0.42516	0.31463	0.10041	0.25582	0.16773	0.21366	0.17714	0.022524	0.11775	0.024062	-2.5708	-2.9354	-2.5479	-3.0979	-2.9021	-2.9708	-2.9792	-2.9062	-3.0438	-2.8042	-2.8604	-3.0958	-2.8167	-2.8396	-2.95	-2.5104	337.358	175.579	174.472	428.513	440.134	395.204	492.013	379.656	216.347	400.057	437.407	479.763	306.641	401.625	379.522	266.271	0.00029666	0.00014318	0.00017508	1250.7	7.6813e-06	7.6809e-06	1315	247.42	5.1808e-06	4.0022e-06	303.6	85.106	68.506	19.089	3.0758e-06	27.127	0.00070218	0.00081756	0.00022617	1237.6	9.0386e-06	9.0029e-06	1298.3	246.13	8.8089e-06	9.1923e-06	304.82	85.776	68.939	19.62	8.7671e-06	27.819	270.778	503.052	250.322	157.376	314.939	258.622	157.249	164.398	312.936	253.389	164.331	170.458	170.837	178.412	357.609	177.315	-8191	255	
#DATA ENDS
