BOXY.EXE: ISS Imagent and Oximeter Data Acquisition Program Version 0.80
Ascii Record File

#ACQ INFORMATION
2  Detector Channels 
16  External MUX Channels 
1  Auxiliary Channels 
5000  Waveform (CCF) Frequency (Hz)
1  Waveforms Skipped 
30  Waveforms Averaged 
1  Cycles Averaged 
16  Acquisitions per Waveform 
10.0806  Updata Rate (Hz) 

#FILE INFORMATION
TRUE -- External MUX Channel results are PARSED.
FALSE -- AC DC and Phase are NOT grouped.
TRUE -- Companion Program Settings File CREATED.
FALSE -- AC data not excluded
FALSE -- DC data not excluded
FALSE -- Phase data not excluded
FALSE -- Auxillary Chn. data not excluded
Tab delimiters

#CALIBRATION STATE
TRUE -- Waveform Calibration Values APPLIED.


#AUX CALIBRATION VALUES
Val Type	aux-1	

Term	1.0000e+00	
Factor	0.0000e+00	


#WF CALIBRATION VALUES
A = Detector Channel
Val Type	A-AC1	A-AC2	A-AC3	A-AC4	A-AC5	A-AC6	A-AC7	A-AC8	A-AC9	A-AC10	A-AC11	A-AC12	A-AC13	A-AC14	A-AC15	A-AC16	A-DC1	A-DC2	A-DC3	A-DC4	A-DC5	A-DC6	A-DC7	A-DC8	A-DC9	A-DC10	A-DC11	A-DC12	A-DC13	A-DC14	A-DC15	A-DC16	A-Ph1	A-Ph2	A-Ph3	A-Ph4	A-Ph5	A-Ph6	A-Ph7	A-Ph8	A-Ph9	A-Ph10	A-Ph11	A-Ph12	A-Ph13	A-Ph14	A-Ph15	A-Ph16	

Term	0.00000e+00	0.00000e+00	0.00000e+00	0.00000e+00	0.00000e+00	0.00000e+00	0.00000e+00	0.00000e+00	0.00000e+00	0.00000e+00	0.00000e+00	0.00000e+00	0.00000e+00	0.00000e+00	0.00000e+00	0.00000e+00	0.00000e+00	0.00000e+00	0.00000e+00	0.00000e+00	0.00000e+00	0.00000e+00	0.00000e+00	0.00000e+00	0.00000e+00	0.00000e+00	0.00000e+00	0.00000e+00	0.00000e+00	0.00000e+00	0.00000e+00	0.00000e+00	0.00000e+00	0.00000e+00	0.00000e+00	0.00000e+00	0.00000e+00	0.00000e+00	0.00000e+00	0.00000e+00	0.00000e+00	0.00000e+00	0.00000e+00	0.00000e+00	0.00000e+00	0.00000e+00	0.00000e+00	0.00000e+00	
Factor	1.00000e+00	1.00000e+00	1.00000e+00	1.00000e+00	1.00000e+00	1.00000e+00	1.00000e+00	1.00000e+00	1.00000e+00	1.00000e+00	1.00000e+00	1.00000e+00	1.00000e+00	1.00000e+00	1.00000e+00	1.00000e+00	1.00000e+00	1.00000e+00	1.00000e+00	1.00000e+00	1.00000e+00	1.00000e+00	1.00000e+00	1.00000e+00	1.00000e+00	1.00000e+00	1.00000e+00	1.00000e+00	1.00000e+00	1.00000e+00	1.00000e+00	1.00000e+00	X	X	X	X	X	X	X	X	X	X	X	X	X	X	X	X	

B = Detector Channel
Val Type	B-AC1	B-AC2	B-AC3	B-AC4	B-AC5	B-AC6	B-AC7	B-AC8	B-AC9	B-AC10	B-AC11	B-AC12	B-AC13	B-AC14	B-AC15	B-AC16	B-DC1	B-DC2	B-DC3	B-DC4	B-DC5	B-DC6	B-DC7	B-DC8	B-DC9	B-DC10	B-DC11	B-DC12	B-DC13	B-DC14	B-DC15	B-DC16	B-Ph1	B-Ph2	B-Ph3	B-Ph4	B-Ph5	B-Ph6	B-Ph7	B-Ph8	B-Ph9	B-Ph10	B-Ph11	B-Ph12	B-Ph13	B-Ph14	B-Ph15	B-Ph16	

Term	0.00000e+00	0.00000e+00	0.00000e+00	0.00000e+00	0.00000e+00	0.00000e+00	0.00000e+00	0.00000e+00	0.00000e+00	0.00000e+00	0.00000e+00	0.00000e+00	0.00000e+00	0.00000e+00	0.00000e+00	0.00000e+00	0.00000e+00	0.00000e+00	0.00000e+00	0.00000e+00	0.00000e+00	0.00000e+00	0.00000e+00	0.00000e+00	0.00000e+00	0.00000e+00	0.00000e+00	0.00000e+00	0.00000e+00	0.00000e+00	0.00000e+00	0.00000e+00	-1.83054e+02	-1.28695e+02	-1.24060e+02	-1.82730e+02	-8.03315e+01	-6.64456e+01	-1.55606e+02	-1.62015e+02	-9.22986e+01	-6.89241e+01	-1.72279e+02	-1.70080e+02	-1.79579e+02	-1.77215e+02	-7.89233e+01	-1.49329e+02	
Factor	2.99331e-05	1.55479e-04	4.19442e-05	1.61934e-01	1.57654e-06	1.69154e-06	1.52548e-01	4.60961e-02	1.71663e-06	1.67939e-06	8.77263e-02	2.69812e-02	2.54748e-02	8.56556e-03	1.66169e-06	1.23162e-02	1.73125e-05	3.46895e-05	9.63778e-06	8.07384e-02	3.25976e-07	3.93007e-07	7.18427e-02	2.31086e-02	3.21270e-07	3.94494e-07	4.28785e-02	1.32135e-02	1.29370e-02	4.33807e-03	3.46650e-07	6.07619e-03	X	X	X	X	X	X	X	X	X	X	X	X	X	X	X	X	



#DISTANCE SETTINGS
A = Detector Channel
A-1	A-2	A-3	A-4	A-5	A-6	A-7	A-8	A-9	A-10	A-11	A-12	A-13	A-14	A-15	A-16	

2.5000e+00	3.0000e+00	2.5000e+00	3.0000e+00	2.0000e+00	3.0000e+00	1.5000e+00	3.0000e+00	3.0000e+00	3.0000e+00	3.0000e+00	3.0000e+00	3.0000e+00	3.0000e+00	1.5000e+00	3.0000e+00	

B = Detector Channel
B-1	B-2	B-3	B-4	B-5	B-6	B-7	B-8	B-9	B-10	B-11	B-12	B-13	B-14	B-15	B-16	

1.0000e+01	1.0000e+01	1.0000e+01	1.4400e+00	1.0000e+01	1.0000e+01	1.5100e+00	1.9400e+00	1.0000e+01	1.0000e+01	1.9900e+00	2.4900e+00	2.4100e+00	2.9000e+00	1.0000e+01	2.9800e+00	




#DATA BEGINS
time	group	step	mark	flag	A-AC1	A-AC2	A-AC3	A-AC4	A-AC5	A-AC6	A-AC7	A-AC8	A-AC9	A-AC10	A-AC11	A-AC12	A-AC13	A-AC14	A-AC15	A-AC16	A-DC1	A-DC2	A-DC3	A-DC4	A-DC5	A-DC6	A-DC7	A-DC8	A-DC9	A-DC10	A-DC11	A-DC12	A-DC13	A-DC14	A-DC15	A-DC16	A-Ph1	A-Ph2	A-Ph3	A-Ph4	A-Ph5	A-Ph6	A-Ph7	A-Ph8	A-Ph9	A-Ph10	A-Ph11	A-Ph12	A-Ph13	A-Ph14	A-Ph15	A-Ph16	B-AC1	B-AC2	B-AC3	B-AC4	B-AC5	B-AC6	B-AC7	B-AC8	B-AC9	B-AC10	B-AC11	B-AC12	B-AC13	B-AC14	B-AC15	B-AC16	B-DC1	B-DC2	B-DC3	B-DC4	B-DC5	B-DC6	B-DC7	B-DC8	B-DC9	B-DC10	B-DC11	B-DC12	B-DC13	B-DC14	B-DC15	B-DC16	B-Ph1	B-Ph2	B-Ph3	B-Ph4	B-Ph5	B-Ph6	B-Ph7	B-Ph8	B-Ph9	B-Ph10	B-Ph11	B-Ph12	B-Ph13	B-Ph14	B-Ph15	B-Ph16	aux-1	digaux	

39990.586	1	1	0	256	0.16562	0.13138	0.05663	0.36138	0.04206	0.10493	0.18419	0.044174	0.19613	0.14325	0.14572	0.16993	0.048593	0.31414	0.10924	0.32564	-2.5729	-3.0625	-3.0292	-2.9437	-3.1042	-2.8021	-3.2833	-3.4313	-2.8542	-3.0271	-3.1646	-3.0812	-3.3771	-3.2708	-2.9917	-3.2604	406.142	445.877	208.147	459.105	215.429	323.947	497.936	511.558	510.915	253.164	510.620	331.839	293.493	489.936	262.462	398.301	0.00089515	0.00055943	0.00016153	1313.5	4.9897e-06	5.813e-06	1306.4	353.16	7.6518e-06	6.0157e-06	403.93	137.84	118.93	40.92	7.4867e-06	50.395	0.0007286	0.00069263	0.00018332	1333.8	7.2441e-06	7.6579e-06	1332.2	361.07	7.8986e-06	7.6096e-06	414.7	140.68	121.87	42.043	7.1908e-06	52.216	498.996	248.432	243.089	171.012	269.733	323.738	170.612	175.576	264.206	295.121	175.226	178.917	179.616	184.609	279.660	183.837	-8191	255	
39990.680	1	1	0	0	0.10797	0.10288	0.22917	0.26231	0.1901	0.063632	0.28537	0.38968	0.26634	0.24554	0.29405	0.51928	0.19795	0.14279	0.20298	0.42447	-2.4854	-3.1063	-2.9583	-3.0896	-3.2479	-2.9958	-3.1708	-3.3771	-3.0521	-2.9833	-3.275	-3	-3.0979	-3.0812	-2.925	-3.3875	399.997	292.155	478.791	167.448	174.054	324.024	428.629	447.730	223.701	306.949	516.952	465.116	461.471	460.688	286.746	463.635	0.00093516	0.00060012	0.00015429	1314.4	5.2772e-06	5.4838e-06	1308.8	354.23	8.4214e-06	6.1966e-06	403.4	137.65	119.01	40.803	6.0314e-06	50.606	0.00074108	0.00067211	0.0001842	1336.4	7.4309e-06	6.966e-06	1333.3	361.5	7.6623e-06	7.1642e-06	415.37	140.4	121.96	42.019	7.3511e-06	52.31	500.141	249.392	254.599	171.152	283.756	305.359	170.613	175.640	268.293	307.579	175.031	178.773	179.544	184.736	280.934	183.907	-8191	255	
39990.777	1	1	0	0	0.31872	0.16671	0.11117	0.15586	0.19069	0.158	0.15006	0.2912	0.18289	0.17056	0.17707	0.2244	0.2103	0.22265	0.21662	0.1865	-2.5125	-2.8104	-3.0792	-3.1333	-3.1542	-3.0312	-3.1542	-3.4229	-2.9417	-3.0104	-3.3854	-2.9396	-3.1604	-3.3063	-2.8292	-3.2542	374.849	421.227	390.224	466.404	169.948	382.993	441.853	499.747	411.079	350.135	157.967	509.843	223.142	415.293	412.628	216.936	0.00094668	0.0005971	0.00013613	1314.5	4.9679e-06	3.4875e-06	1309.8	354.95	9.016e-06	4.0852e-06	406.76	138.14	119.57	41.035	6.9835e-06	50.552	0.00072842	0.00067276	0.00019002	1339.1	7.2611e-06	7.1183e-06	1337.6	362.29	7.4883e-06	7.3261e-06	416.33	141.13	122.45	42.215	7.3865e-06	52.426	499.658	246.775	251.276	170.986	278.485	311.845	170.745	175.613	255.706	310.877	175.070	178.878	179.555	184.846	278.361	183.536	-8191	255	
39990.871	1	1	0	0	0.023115	0.11771	0.1104	0.1903	0.084117	0.17122	0.45677	0.37199	0.062818	0.227	0.089983	0.10653	0.20712	0.13585	0.14351	0.1046	-2.6792	-3.1562	-3.2562	-3.0604	-2.9646	-3.1667	-3.0833	-3.4271	-2.9646	-2.9917	-3.2062	-3.025	-3.3625	-3.15	-2.7271	-3.3021	412.231	240.607	244.743	459.208	302.149	442.286	501.207	457.901	472.751	277.201	207.543	458.128	243.453	429.861	319.547	415.233	0.00093066	0.00058532	0.00013237	1319.2	5.9479e-06	4.4304e-06	1314.1	354.09	7.401e-06	6.3414e-06	405.95	138.22	119.34	40.919	5.9478e-06	50.623	0.00071616	0.00067775	0.00019163	1344	7.111e-06	7.1044e-06	1340.2	362.3	6.9481e-06	7.2784e-06	416.24	141.09	122.14	42.043	7.5447e-06	52.354	498.468	258.110	241.046	170.881	281.336	309.558	170.740	175.557	271.254	284.689	175.180	179.123	179.720	184.415	282.656	183.812	-8191	255	
39990.992	1	1	0	0	0.20429	0.09122	0.083923	0.33518	0.091654	0.038693	0.28838	0.35716	0.15217	0.23375	0.025534	0.14609	0.17114	0.13883	0.13313	0.11739	-2.4958	-2.9083	-3.1646	-3.0687	-3.1229	-3.2	-2.9958	-3.3979	-3.0646	-2.9417	-3.4	-3.0479	-3.1	-3.2542	-2.8479	-3.3042	253.540	513.282	309.146	477.728	228.751	435.196	449.320	433.910	253.870	371.697	291.888	427.168	247.432	449.382	355.588	396.188	0.00093095	0.00053781	0.00010196	1317.1	4.7473e-06	4.7933e-06	1310	354.86	7.9001e-06	5.4009e-06	406.79	138.44	119.16	40.995	4.9025e-06	50.737	0.00070502	0.00069531	0.00019414	1340.4	6.762e-06	7.2264e-06	1337.7	362.03	7.0713e-06	7.525e-06	415.8	140.81	122.05	42.105	7.757e-06	52.365	498.345	242.677	245.468	171.116	288.776	301.773	170.664	175.685	254.142	312.007	175.406	179.143	179.619	184.768	296.514	183.727	-8191	255	
39991.062	1	1	0	0	0.078744	0.21632	0.18616	0.14823	0.1249	0.18384	0.21173	0.23079	0.22702	0.26815	0.16941	0.049141	0.18447	0.15051	0.3466	0.1804	-2.5938	-2.8563	-3.3042	-3.1188	-2.9917	-3.4125	-3.1042	-3.4792	-3.1833	-2.8917	-3.2333	-3.1292	-3.1042	-3.3729	-2.9271	-3.1146	365.033	282.764	392.644	184.391	348.382	186.271	160.386	445.317	483.182	330.442	430.679	231.711	485.737	478.941	210.855	430.395	0.00099596	0.00046509	0.00012583	1316.1	4.5765e-06	5.0817e-06	1313.3	354.57	8.2197e-06	4.5126e-06	406.18	138.18	119.33	40.697	6.0098e-06	50.531	0.00072301	0.00071395	0.0001978	1340.8	6.7749e-06	7.5613e-06	1339.4	361.95	6.9983e-06	7.7724e-06	416.07	140.84	121.91	41.999	7.5938e-06	52.317	498.136	246.069	242.086	171.104	273.722	303.337	170.759	175.692	261.076	305.787	175.215	178.829	179.629	184.729	289.570	183.791	-8191	255	
39991.160	1	1	0	0	0.12082	0.060073	0.25272	0.087661	0.15056	0.045974	0.19145	0.39937	0.18871	0.10364	0.23891	0.15881	0.26919	0.12546	0.085576	0.21945	-2.6604	-2.9562	-3.2521	-3.1437	-2.7833	-3.2458	-2.9479	-3.1646	-3.1958	-2.8958	-3.4167	-3.0396	-2.7917	-3.3646	-2.9167	-3.1437	507.489	379.042	183.155	387.275	462.035	337.701	417.344	487.279	203.529	300.907	180.826	489.371	485.479	364.140	498.546	423.077	0.00092771	0.0005544	0.00013078	1314.7	6.3235e-06	3.5567e-06	1313	354.35	5.9057e-06	5.6653e-06	405.29	137.7	119.43	40.792	5.8399e-06	50.623	0.00071703	0.0007253	0.00019551	1340.3	7.3019e-06	7.5441e-06	1338.1	361.74	7.2125e-06	7.9154e-06	415.75	140.73	121.97	42.09	7.5295e-06	52.283	500.104	250.235	252.191	171.136	286.261	312.724	170.728	175.786	272.110	315.826	175.091	179.146	179.630	184.804	291.179	183.620	-8191	255	
39991.258	1	1	0	0	0.23123	0.1378	0.048664	0.15252	0.039291	0.16303	0.088681	0.52036	0.083469	0.41037	0.35713	0.12817	0.14974	0.11635	0.26869	0.12409	-2.7687	-2.8312	-3.0354	-3.3292	-2.9104	-3.2896	-3.1167	-3.2729	-3.2646	-2.85	-3.1021	-3.1146	-2.9208	-3.1833	-2.9958	-3.2687	402.655	390.529	456.330	512.752	453.299	243.788	390.030	462.546	420.867	414.459	500.043	292.063	285.513	500.973	463.401	447.315	0.00098068	0.00047964	0.00013072	1316.8	4.9793e-06	4.2372e-06	1310.7	354.78	8.1873e-06	3.7173e-06	407.28	138.2	119.53	40.738	6.717e-06	50.663	0.00072741	0.00071713	0.00018559	1342.4	7.3025e-06	7.9158e-06	1339.3	362.34	7.4535e-06	8.1389e-06	417.04	140.94	122.16	41.984	7.4631e-06	52.307	497.767	252.439	268.882	170.983	283.147	291.110	170.615	175.623	261.458	310.673	175.096	178.630	179.704	184.860	280.413	183.611	-8191	255	
39991.375	1	1	0	0	0.17871	0.17437	0.22733	0.20498	0.1166	0.087884	0.40251	0.15323	0.15091	0.11418	0.18034	0.28884	0.1763	0.21511	0.32449	0.2874	-2.8042	-2.8542	-3.1188	-3.4062	-2.8167	-3.2438	-3.0729	-3.1604	-3.2812	-2.775	-3.2417	-3.175	-3.1562	-3.2354	-3.1917	-3.2021	237.438	316.085	175.346	503.775	413.640	455.862	426.083	432.059	263.887	341.566	485.554	418.040	408.116	445.768	231.205	403.661	0.0010036	0.00055704	0.00010645	1320.8	5.6356e-06	5.2222e-06	1314	354.12	9.5488e-06	3.9398e-06	406.1	137.53	119.18	40.628	4.8099e-06	50.652	0.00076013	0.00074308	0.00019193	1342.6	7.7032e-06	7.8438e-06	1339.3	361.42	7.7125e-06	7.9228e-06	416.1	140.44	121.89	41.949	7.25e-06	52.187	499.842	253.649	245.230	171.162	273.108	300.462	170.581	175.749	264.483	299.470	175.224	178.911	179.566	184.600	292.992	183.571	-8191	255	
39991.473	1	1	0	0	0.19339	0.033871	0.36303	0.13338	0.21931	0.060526	0.14989	0.1314	0.28693	0.024462	0.12476	0.11187	0.251	0.14704	0.16525	0.14913	-2.9396	-2.8146	-2.9688	-3.3042	-2.8021	-3.4021	-3.1271	-3.0563	-3.1229	-2.8896	-3.2333	-3.2958	-3.0042	-3.3063	-3.0479	-2.8563	455.345	304.800	299.859	445.819	493.537	495.822	508.433	515.436	348.770	477.221	162.729	166.203	517.039	175.911	377.159	399.718	0.00096957	0.00039986	0.00012062	1315.1	6.9009e-06	3.843e-06	1313.4	353.77	8.3657e-06	5.2054e-06	404.15	137.06	119.55	40.662	7.1432e-06	50.381	0.0007492	0.00072942	0.0001826	1342.5	7.5328e-06	7.5105e-06	1339.1	361.64	7.6583e-06	7.5685e-06	415.27	140.53	122.02	41.961	7.0218e-06	52.238	496.771	242.074	251.715	170.954	296.183	301.905	170.634	175.645	264.151	298.631	175.266	178.867	179.431	184.702	290.512	183.815	-8191	255	
39991.566	1	1	0	0	0.24413	0.13042	0.12585	0.24016	0.17517	0.19616	0.093014	0.17224	0.081014	0.33539	0.29791	0.19723	0.29529	0.18357	0.28707	0.10872	-2.8312	-2.8708	-3.0187	-3.2938	-2.7583	-3.1562	-3.3625	-3.1083	-3.0729	-2.9	-3.0854	-3.2854	-3.1604	-3.3646	-3.1229	-2.8312	495.556	276.698	368.073	509.679	414.844	499.598	511.689	416.329	485.981	468.639	485.718	177.048	472.646	463.181	469.125	267.116	0.00096103	0.0004551	0.00011832	1317.8	6.6017e-06	5.4495e-06	1315.4	354.61	8.869e-06	5.391e-06	405.03	137.62	119.04	40.797	6.6155e-06	50.107	0.00072233	0.0006969	0.00018155	1342	7.5606e-06	7.2158e-06	1337	361.45	7.5191e-06	7.262e-06	415	140.19	121.54	41.884	6.6528e-06	52.075	499.495	246.202	267.387	170.983	295.282	306.596	170.588	175.786	268.459	327.034	175.286	179.009	179.695	184.893	300.039	184.025	-8191	255	
39991.664	1	1	0	0	0.075917	0.2082	0.068959	0.16184	0.1432	0.17664	0.33333	0.24285	0.34971	0.078845	0.13715	0.24217	0.076316	0.085144	0.10909	0.16054	-2.8625	-2.9625	-2.9625	-3.4021	-2.6917	-3.2917	-3.1937	-3.1104	-3.1521	-3.0854	-2.9708	-3.3833	-2.7146	-3.2875	-3.1437	-2.8979	517.251	514.477	282.823	174.439	406.740	394.648	469.916	410.619	497.914	393.132	450.907	503.733	307.280	473.168	356.770	490.628	0.00092361	0.00044105	0.00014892	1315.7	5.5296e-06	4.097e-06	1311.7	354.05	7.6254e-06	4.8028e-06	405.7	136.55	118.53	40.617	6.8837e-06	50.153	0.00071151	0.00066409	0.00017872	1337.4	7.5851e-06	7.0684e-06	1333.7	360.83	7.4555e-06	7.299e-06	414.52	140.07	121.52	41.789	6.9287e-06	51.936	501.022	253.040	253.577	170.965	285.731	313.934	170.725	175.635	256.569	320.855	175.216	179.000	179.489	184.997	292.265	183.639	-8191	255	
39991.762	1	1	0	0	0.15064	0.17958	0.15099	0.2101	0.15792	0.078213	0.1409	0.26072	0.073627	0.085976	0.10098	0.17722	0.21795	0.24568	0.26181	0.23581	-2.9292	-3.0708	-2.7729	-3.2562	-2.8021	-3.0792	-3.3229	-2.9771	-3.15	-3.1479	-2.9688	-3.3958	-2.9417	-3.1833	-3.1958	-2.8812	159.747	336.709	213.941	402.664	387.845	442.921	468.133	456.417	270.642	333.058	392.856	158.296	377.285	487.161	280.515	406.654	0.00096368	0.00035671	0.00014001	1315.5	6.2941e-06	5.0906e-06	1310.8	353.57	8.4253e-06	4.6118e-06	403.77	136.54	118.33	40.614	4.8888e-06	50.233	0.00072824	0.00064624	0.00019272	1336.7	7.2353e-06	7.0176e-06	1335.1	360.38	7.4059e-06	7.1264e-06	413.97	139.83	121.05	41.7	7.0861e-06	51.927	499.776	256.621	249.910	171.251	285.938	312.339	170.593	175.780	255.086	311.404	175.277	178.899	179.501	184.910	290.391	183.655	-8191	255	
39991.855	1	1	0	0	0.25386	0.29568	0.074775	0.19464	0.10232	0.11972	0.036104	0.077363	0.33831	0.17991	0.38545	0.17501	0.2031	0.36192	0.20253	0.038521	-2.6312	-2.9896	-2.75	-3.2646	-2.9688	-2.9833	-3.3979	-3.0208	-3.0167	-3.0146	-2.9938	-3.2396	-3.0292	-3.1146	-3.225	-2.8937	319.725	321.820	404.194	463.034	352.736	273.116	383.930	355.790	239.090	293.686	165.861	426.941	477.451	486.341	318.314	399.308	0.00098269	0.00053122	0.00013432	1312	5.381e-06	3.2705e-06	1303.8	351.98	7.9957e-06	5.8864e-06	405.43	136.52	118.58	40.467	5.5217e-06	50.304	0.00073196	0.00062998	0.00019111	1338.4	7.2632e-06	7.2796e-06	1333.8	359.81	7.2312e-06	7.1658e-06	413.47	139.65	121.12	41.616	7.2926e-06	51.852	500.493	245.176	244.689	171.220	286.513	324.148	170.504	175.549	269.261	297.404	175.364	179.066	179.835	184.610	289.443	183.887	-8191	255	
39991.977	1	1	0	0	0.18935	0.1271	0.20107	0.22318	0.24455	0.24778	0.27231	0.15892	0.17118	0.14694	0.20308	0.24249	0.058589	0.17256	0.093087	0.10593	-2.7604	-3.1125	-2.8271	-3.4062	-2.9667	-2.9208	-3.5875	-2.9313	-3.0042	-3.0521	-3.0542	-3.375	-3.2146	-2.9688	-3.3625	-3.1063	462.379	285.039	327.903	446.377	237.124	371.118	407.726	204.683	465.553	463.568	415.620	492.323	253.266	446.145	274.881	174.409	0.00091602	0.00046221	0.00011549	1311.4	5.904e-06	4.3005e-06	1303.9	351.99	7.1503e-06	5.0024e-06	402.6	136.38	117.71	40.244	5.3219e-06	49.947	0.00070621	0.00064819	0.00019414	1333.4	6.8509e-06	7.1699e-06	1329.7	358.57	6.9629e-06	7.3943e-06	412.38	139.44	120.6	41.536	7.4811e-06	51.774	497.841	238.989	251.771	171.134	282.872	320.838	170.665	175.690	262.730	284.101	175.295	178.923	179.675	184.906	273.273	183.678	-8191	255	
39992.074	1	1	0	0	0.1781	0.12245	0.23731	0.26378	0.13463	0.087185	0.14604	0.1439	0.28065	0.20291	0.10078	0.13477	0.09501	0.23592	0.070275	0.16298	-2.7521	-3.0167	-2.7938	-3.4333	-2.9646	-2.8479	-3.5687	-3.1167	-3.0625	-3.2042	-3.0042	-3.2729	-3.1708	-3.0583	-3.2188	-2.9688	312.103	459.963	303.037	473.240	288.571	508.530	195.861	394.865	199.929	255.835	400.066	445.564	192.012	478.305	440.908	188.679	0.00092762	0.00043343	0.00011113	1303.3	4.4209e-06	6.2452e-06	1301	351.19	7.4625e-06	5.3498e-06	401.64	135.65	117.96	40.407	5.9291e-06	49.912	0.00068839	0.00067804	0.00019175	1328.4	6.9202e-06	7.4205e-06	1326.1	358.08	6.831e-06	7.465e-06	411.36	138.95	120.56	41.52	7.531e-06	51.682	499.579	244.862	267.232	171.290	268.798	296.399	170.676	175.695	262.508	321.386	175.183	178.900	179.657	184.762	293.254	183.802	-8191	255	
39992.168	1	1	0	0	0.15777	0.15784	0.13869	0.19342	0.15297	0.31999	0.088849	0.19642	0.091052	0.22977	0.11625	0.19036	0.076672	0.24635	0.21689	0.30721	-2.5708	-3.0792	-2.7313	-3.45	-3.1333	-2.9896	-3.6021	-3.0812	-3.0583	-3.125	-2.8875	-3.1917	-3.1188	-2.9479	-3.1208	-3.1479	167.185	178.950	273.913	499.773	468.801	252.166	294.646	424.856	466.427	454.596	358.785	411.004	438.036	504.776	345.901	197.166	0.00092081	0.00062215	0.00016169	1304.4	6.2621e-06	4.3601e-06	1300.3	351.21	7.2932e-06	4.5951e-06	399.8	136.26	117.76	40.36	5.7105e-06	49.945	0.00070195	0.00069003	0.00019402	1328.5	6.7878e-06	7.9306e-06	1324.8	357.99	7.1636e-06	7.4896e-06	411.03	139.23	120.38	41.572	7.0507e-06	51.663	499.717	251.964	257.365	171.267	287.174	295.498	170.661	175.557	262.816	301.640	175.176	179.104	179.879	184.819	286.589	183.739	-8191	255	
39992.289	1	1	0	0	0.14358	0.25319	0.19131	0.30359	0.018294	0.13605	0.2501	0.2673	0.18983	0.15333	0.080055	0.26453	0.17428	0.14584	0.059354	0.1624	-2.4396	-3.0458	-2.9479	-3.3771	-3.0771	-2.8521	-3.2583	-3.1208	-2.8979	-3.3875	-2.9833	-3.0417	-3.2167	-2.9313	-3.0667	-3.2354	225.636	222.458	372.790	471.209	445.549	189.956	457.019	451.245	407.014	198.878	179.999	496.144	462.843	493.510	249.871	417.263	0.00089386	0.00066218	0.00013683	1302.2	5.5709e-06	5.0983e-06	1294.5	350.83	8.9212e-06	4.4657e-06	401.17	136.12	117.75	40.338	6.0982e-06	50.018	0.00069409	0.00071432	0.00018701	1325.5	7.0071e-06	7.7766e-06	1322.7	358.06	7.2426e-06	7.488e-06	411.49	138.85	120.57	41.493	7.0623e-06	51.661	498.505	252.827	250.752	171.141	275.775	305.198	170.803	175.810	257.588	319.488	175.205	178.957	179.859	184.876	274.219	183.781	-8191	255	
39992.359	1	1	0	0	0.29779	0.22061	0.086417	0.13092	0.078005	0.20767	0.39352	0.22878	0.17602	0.12702	0.14434	0.39041	0.040852	0.21085	0.22113	0.22716	-2.6125	-3.2854	-2.9188	-3.3229	-3.0854	-2.825	-3.3125	-3.2646	-2.9437	-3.1458	-3.0479	-3.0896	-3.2729	-2.8	-3.0229	-2.9688	278.695	452.769	258.064	207.924	482.262	222.460	427.106	484.071	274.347	343.491	357.499	469.149	409.529	499.899	361.156	450.752	0.00096328	0.00052802	0.00013665	1304.7	4.749e-06	4.1185e-06	1301.7	349.42	9.2372e-06	6.7769e-06	401.06	136.25	117.88	40.377	7.4578e-06	50.199	0.0007259	0.00069683	0.00018792	1327.7	7.308e-06	7.8127e-06	1324.1	357.84	7.5686e-06	7.7041e-06	411.77	139.19	120.72	41.51	6.9612e-06	51.804	498.443	252.099	255.169	171.095	282.626	307.025	170.621	175.522	254.938	298.969	175.241	178.927	179.669	184.788	302.144	183.711	-8191	255	
39992.457	1	1	0	0	0.36657	0.11294	0.032778	0.17839	0.062818	0.048306	0.28317	0.24679	0.16079	0.14157	0.30646	0.10723	0.085013	0.050044	0.18363	0.028747	-2.4979	-3.2521	-2.9354	-3.0771	-3.2042	-2.9646	-3.2562	-3.2083	-2.8563	-3.125	-3.0521	-3.0458	-3.5583	-2.9896	-3.3542	-3.2958	314.020	450.840	296.415	396.594	373.954	498.384	436.468	458.785	321.811	458.527	475.522	313.054	361.080	183.520	166.025	232.873	0.00096683	0.00059977	0.00014603	1301.5	6.0894e-06	5.9934e-06	1302.8	350.87	7.9872e-06	3.2686e-06	402.41	136.72	117.93	40.175	5.5078e-06	50.102	0.00074588	0.00069639	0.00018408	1328	7.3202e-06	7.8323e-06	1326.5	357.76	7.602e-06	7.5135e-06	411.97	139.28	120.69	41.479	6.9727e-06	51.778	500.225	249.023	254.560	171.227	275.930	318.663	170.634	175.661	261.557	313.277	175.075	179.121	179.323	184.867	275.159	183.627	-8191	255	
39992.551	1	1	0	0	0.2109	0.20162	0.14729	0.14691	0.16542	0.12828	0.15131	0.35868	0.071748	0.10181	0.27794	0.18471	0.3956	0.11775	0.1663	0.22297	-2.2	-3.175	-2.9167	-3.1292	-3.4146	-2.8604	-3.3354	-3.2208	-2.7646	-3.0521	-3.0563	-2.9708	-3.4979	-2.9958	-3.0021	-3.2854	430.053	350.431	250.454	457.215	416.034	401.427	424.418	465.258	192.358	453.668	225.138	409.135	166.580	448.459	327.721	471.468	0.00098549	0.00052898	0.00012354	1305.5	5.0416e-06	5.362e-06	1301.3	350.85	8.5514e-06	5.2422e-06	403.17	135.94	118.04	40.278	4.6182e-06	50.002	0.00075172	0.00071757	0.00017999	1329.1	7.4289e-06	7.5449e-06	1325.4	357.94	7.5398e-06	7.3647e-06	412.31	139.05	120.8	41.503	6.9641e-06	51.78	497.448	247.342	255.588	171.225	280.816	305.793	170.704	175.697	256.411	315.162	175.313	179.382	179.565	184.747	286.222	183.815	-8191	255	
39992.672	1	1	0	0	0.089808	0.11944	0.1235	0.026682	0.19281	0.16526	0.1284	0.082576	0.24062	0.22172	0.0952	0.36051	0.1802	0.19435	0.040114	0.21969	-2.6	-3.2583	-3.0563	-3.0396	-3.2896	-3.025	-3.2375	-3.475	-2.8958	-3.1917	-3.1667	-2.95	-3.1146	-3.1833	-3.1229	-3.2375	417.784	339.199	294.884	398.584	337.593	300.941	446.188	389.154	505.162	423.048	269.044	497.418	510.839	403.901	260.561	397.651	0.00092139	0.00048017	0.00017742	1304.3	6.2801e-06	5.6032e-06	1301.1	351.37	6.8173e-06	5.0659e-06	403.57	136.54	118.05	40.28	5.5875e-06	49.972	0.00074036	0.00067854	0.00018111	1330.1	7.1939e-06	7.2027e-06	1328.1	358.29	7.5298e-06	7.2809e-06	413.18	139.43	120.75	41.535	7.0724e-06	51.773	500.500	242.832	249.127	171.123	277.280	309.264	170.642	175.555	262.220	315.892	175.064	178.996	179.687	184.774	284.663	183.350	-8191	255	
39992.766	1	1	0	0	0.15348	0.2479	0.26092	0.18967	0.023541	0.12154	0.18401	0.2643	0.077794	0.096513	0.24568	0.12961	0.15006	0.21136	0.25712	0.24968	-2.45	-3.0208	-2.9396	-3.0917	-3.0563	-2.9771	-3.0625	-3.3771	-3.0771	-3.0583	-3.3542	-3.0896	-3.1396	-2.9896	-3.0417	-3.3146	398.577	258.497	288.814	476.832	241.423	342.887	486.733	383.064	373.851	500.253	484.698	494.077	435.828	398.538	344.891	426.289	0.00096291	0.00053908	0.00010279	1313.9	5.653e-06	3.5736e-06	1301.9	351.52	6.8664e-06	4.462e-06	404.33	136.07	118.03	40.32	5.8812e-06	49.787	0.00073881	0.00065513	0.00017906	1334.2	7.3902e-06	6.8662e-06	1330.5	358.63	7.4936e-06	7.0573e-06	413.35	139.21	120.9	41.512	7.3764e-06	51.619	500.903	264.476	258.365	171.069	277.142	311.618	170.778	175.543	257.633	315.024	175.338	178.920	179.718	184.883	282.095	183.499	-8191	255	
39992.863	1	1	0	0	0.21048	0.20418	0.0092846	0.22092	0.022012	0.021835	0.45042	0.030636	0.24776	0.30226	0.13658	0.084419	0.5279	0.25576	0.094602	0.13181	-2.5375	-3.175	-3.1583	-2.9854	-3.1562	-3.1729	-3.0417	-3.3167	-2.9417	-3.0417	-3.1646	-2.9625	-3.2146	-3.2229	-3.0083	-3.3479	218.964	363.716	458.706	474.672	181.576	313.838	434.945	404.752	376.208	350.999	497.172	412.068	509.973	493.027	241.851	180.907	0.00092651	0.00060978	0.00015034	1312.2	4.4941e-06	4.4609e-06	1304.3	351.22	5.9539e-06	4.7757e-06	402.34	136.16	118.31	40.234	6.7547e-06	50.156	0.00072143	0.00065751	0.00018342	1333	7.0778e-06	6.9963e-06	1330.8	358.65	7.4066e-06	7.317e-06	412.16	139.2	121.04	41.538	7.6841e-06	51.784	498.460	244.860	232.202	171.199	291.653	294.223	170.681	175.683	250.791	312.162	175.253	178.910	179.770	184.822	290.098	183.869	-8191	255	
39992.938	1	1	0	0	0.19907	0.15327	0.2175	0.078799	0.09078	0.28343	0.13613	0.16153	0.16181	0.12523	0.027218	0.067656	0.088524	0.10635	0.22597	0.036361	-2.4354	-2.7958	-3.1771	-3.1063	-3.0333	-3.2062	-2.9896	-3.1813	-2.9979	-3.1896	-3.2375	-2.8063	-3.2354	-3.1021	-2.9354	-3.3583	212.711	462.292	250.702	487.832	242.899	478.244	434.177	462.718	340.179	275.412	412.367	318.681	400.309	442.918	232.491	474.186	0.00095057	0.00055598	0.00012944	1321.1	6.2217e-06	5.5232e-06	1315.5	352.94	7.8162e-06	6.3403e-06	404.47	137.17	119.18	40.595	6.551e-06	50.114	0.00074574	0.00071012	0.00020211	1343.2	7.3806e-06	7.4393e-06	1341	360.4	7.6763e-06	7.6433e-06	415.03	140.14	121.43	41.725	7.7585e-06	51.946	499.674	250.228	263.768	170.988	276.242	312.807	170.592	175.739	250.551	296.012	174.855	179.146	179.559	184.747	290.029	183.660	-8191	255	
39993.055	1	1	0	0	0.13479	0.18029	0.20222	0.33537	0.12262	0.27414	0.30763	0.063362	0.063088	0.12102	0.10573	0.059339	0.10578	0.12367	0.2103	0.2067	-2.6208	-2.9958	-3.1521	-3.1833	-3.2354	-3.2042	-3.0771	-3.2417	-3.0771	-3.1604	-3.4417	-3.0854	-3.1063	-3.1646	-3.0146	-3.3292	165.556	348.193	329.083	477.291	373.967	400.091	435.072	263.557	243.739	188.936	431.396	477.746	164.590	476.355	506.451	455.673	0.00093312	0.0005288	0.00013365	1319.9	5.7754e-06	4.4115e-06	1316.9	353.42	7.6064e-06	3.0254e-06	405.73	136.99	118.99	40.502	6.1695e-06	50.107	0.00071021	0.00069249	0.00018318	1346.3	6.711e-06	7.1953e-06	1342.6	361.63	6.4823e-06	7.1371e-06	415.82	140.12	121.51	41.697	7.0283e-06	51.943	499.292	251.428	271.121	171.089	282.262	312.640	170.679	175.454	270.642	323.726	175.261	178.985	179.498	184.737	281.638	183.784	-8191	255	
39993.152	1	1	0	0	0.055804	0.037069	0.21166	0.19571	0.13985	0.29616	0.41412	0.21665	0.17633	0.13391	0.13684	0.18606	0.30073	0.19708	0.12979	0.2143	-2.5208	-2.8271	-3.1729	-2.9958	-3.1854	-3.2792	-3.1375	-3.4437	-3.0604	-3	-3.425	-3.0292	-3.2417	-3.2	-2.9021	-3.3625	285.717	168.075	503.705	475.664	448.813	307.463	439.678	431.529	217.128	470.046	235.546	511.433	492.347	463.371	329.961	441.504	0.00095792	0.00059248	0.00017134	1322	7.1865e-06	5.4303e-06	1317.3	353.78	8.3956e-06	3.2421e-06	406.15	137.3	118.82	40.516	6.9765e-06	50.403	0.00068164	0.00065238	0.00017414	1345.8	6.4109e-06	6.7139e-06	1342.4	361.63	6.742e-06	6.8872e-06	415.46	140.36	121.68	41.779	7.1793e-06	52.004	498.978	238.569	243.637	171.076	283.837	295.000	170.631	175.747	256.040	293.991	175.182	178.982	179.810	184.646	291.777	183.797	-8191	255	
39993.246	1	1	0	0	0.11352	0.041905	0.18308	0.10055	0.20116	0.10159	0.3341	0.18812	0.076636	0.1428	0.047765	0.039087	0.12128	0.18964	0.21682	0.19575	-2.6125	-2.8375	-3.1833	-3.0917	-3	-3.2083	-2.9688	-3.4188	-3.1667	-2.7188	-3.2479	-2.9333	-3.2687	-3.3063	-2.9229	-3.1813	243.509	482.630	422.995	418.188	328.448	292.680	484.318	377.739	193.552	364.437	414.486	459.685	165.222	452.591	184.723	374.417	0.00093333	0.00042567	0.00015619	1324	4.6366e-06	5.49e-06	1318.7	354.61	9.3455e-06	4.4983e-06	406.24	137.69	118.88	40.48	6.0971e-06	50.199	0.00069023	0.00065014	0.00016948	1346	6.6003e-06	7.1052e-06	1344.4	362.17	6.667e-06	7.1592e-06	416.51	140.39	121.68	41.77	6.6152e-06	51.792	499.746	245.670	252.216	171.112	283.248	326.314	170.509	175.669	264.023	320.998	175.053	179.109	179.626	184.465	285.967	183.675	-8191	255	
39993.367	1	1	0	0	0.3276	0.15902	0.14769	0.29702	0.10885	0.063266	0.29039	0.052727	0.2102	0.30173	0.15807	0.38465	0.15847	0.18795	0.18501	0.11247	-2.6833	-2.8458	-3.4042	-3.0875	-3.0167	-3.2938	-3.2812	-3.1875	-3.0187	-3.0021	-3.45	-3.1333	-3.0729	-3.1896	-2.9104	-3.1208	162.853	343.863	291.420	425.788	317.194	194.292	429.211	237.697	273.308	250.351	236.635	499.102	509.374	158.644	459.206	366.494	0.00093989	0.00051177	0.0001468	1320.6	5.3493e-06	5.1993e-06	1313.8	353.55	8.3387e-06	4.3069e-06	405.83	136.99	118.62	40.327	4.9534e-06	50.224	0.0006802	0.00065296	0.00017386	1344.8	6.5216e-06	6.7524e-06	1341	361.32	6.5198e-06	6.9316e-06	415.48	139.98	121.51	41.599	6.5748e-06	51.87	498.647	248.330	256.400	171.135	285.657	307.040	170.534	175.705	256.277	303.426	174.827	179.233	179.693	184.652	292.084	183.856	-8191	255	
39993.465	1	1	0	0	0.17241	0.20352	0.090492	0.24789	0.1166	0.069545	0.27319	0.3891	0.083721	0.010087	0.092702	0.032313	0.16566	0.083043	0.14134	0.19706	-2.775	-2.9917	-3.0938	-3.1854	-2.9917	-3.3479	-3.225	-3.2313	-3.1583	-2.8479	-3.2938	-3.2104	-3.1208	-3.2188	-2.8625	-3.0583	269.817	417.139	188.978	449.958	267.535	462.576	427.599	480.063	231.371	265.855	488.682	319.430	181.443	344.326	416.093	474.595	0.00090619	0.00055814	0.00014058	1317.7	5.601e-06	5.1248e-06	1312.3	354.08	8.8483e-06	5.2035e-06	405.19	137.12	118.4	40.537	5.5836e-06	49.99	0.00067811	0.00065252	0.00016392	1345.1	6.8387e-06	6.8694e-06	1340	361.45	6.7922e-06	7.0516e-06	415.18	139.88	121.3	41.67	6.6369e-06	51.79	498.147	260.594	247.410	170.914	285.477	305.387	170.639	175.679	255.336	298.912	175.213	178.761	179.683	184.680	284.178	183.939	-8191	255	
39993.535	1	1	0	0	0.19401	0.30035	0.31338	0.29909	0.10768	0.12816	0.27536	0.30684	0.23219	0.22907	0.085315	0.23063	0.086598	0.17056	0.27262	0.10649	-2.8729	-2.8896	-2.9583	-3.2917	-3.0938	-3.3083	-3.2042	-3.2333	-3.2	-2.9125	-3.3229	-3.2938	-2.95	-3.3354	-2.9958	-3.1542	412.805	485.877	493.285	186.941	186.716	406.079	437.247	513.839	459.631	157.796	174.423	516.000	426.547	402.618	309.808	511.263	0.00092659	0.00043394	0.00012401	1324.5	5.6884e-06	5.0726e-06	1317.4	356.01	7.3278e-06	5.4959e-06	407.13	136.57	118.92	40.482	6.492e-06	49.996	0.00069135	0.00066965	0.00016663	1348.5	7.545e-06	7.2444e-06	1345.9	362.65	7.6168e-06	7.5102e-06	417.19	139.92	121.69	41.711	6.8174e-06	51.869	498.600	255.850	262.024	170.995	275.456	303.728	170.577	175.632	266.840	287.901	175.266	178.965	179.939	184.485	284.273	183.721	-8191	255	
39993.656	1	1	0	0	0.15437	0.010422	0.18056	0.52921	0.21136	0.28033	0.15514	0.29184	0.25354	0.028954	0.073684	0.059264	0.062836	0.10912	0.2364	0.18527	-2.8	-2.7833	-3.1063	-3.3833	-2.9708	-3.1146	-3.3187	-3.2313	-3.2021	-2.7979	-3.2542	-3.3063	-3.1	-3.2562	-3.0104	-3.2542	294.737	279.983	471.397	508.444	178.991	449.645	462.643	439.060	379.075	458.536	202.622	398.422	404.956	178.727	357.468	419.625	0.00095281	0.00044571	0.00013299	1329.3	5.6462e-06	4.8569e-06	1326.4	356.43	8.1382e-06	6.6996e-06	408.87	136.95	119.07	40.524	6.5815e-06	50.057	0.00071843	0.00067984	0.00016695	1355.4	7.3997e-06	7.201e-06	1351.8	363.63	7.4414e-06	7.1592e-06	417.49	140.28	122	41.787	6.8752e-06	51.806	500.045	249.122	258.296	171.212	280.674	322.891	170.723	175.467	254.590	308.055	174.901	179.103	179.717	184.726	291.613	183.788	-8191	255	
39993.754	1	1	0	0	0.16384	0.23258	0.11817	0.24939	0.28232	0.096099	0.23509	0.33655	0.083974	0.097381	0.22436	0.24862	0.11618	0.014641	0.19622	0.068373	-2.8063	-2.8979	-2.9875	-3.1771	-2.85	-3.275	-3.3396	-3.2333	-3.1167	-2.9896	-3.0792	-3.3833	-2.9437	-3.2021	-3.1479	-2.9271	490.267	337.280	273.336	450.587	421.971	288.257	423.853	480.951	251.393	210.134	459.048	416.381	348.464	171.980	440.661	403.005	0.00098902	0.00058813	9.6944e-05	1331.7	4.8252e-06	6.471e-06	1320.5	355.49	8.114e-06	3.2158e-06	406.86	137.54	118.78	40.344	5.3952e-06	50.105	0.00071836	0.00063012	0.00016709	1352.9	7.2781e-06	6.8056e-06	1346.4	363.09	6.833e-06	6.7664e-06	416.68	140.1	121.54	41.666	6.5235e-06	51.811	499.135	250.378	266.658	171.077	279.799	327.141	170.352	175.709	262.266	316.003	175.130	178.944	179.569	184.727	286.731	184.052	-8191	255	
39993.848	1	1	0	0	0.094455	0.12954	0.12694	0.18781	0.072818	0.043342	0.46127	0.054427	0.21416	0.14956	0.18097	0.095117	0.21462	0.26869	0.13638	0.29064	-2.7438	-3.0625	-3.125	-3.4021	-2.9083	-3.1083	-3.3187	-3.2479	-3.1667	-2.875	-3.1792	-3.1875	-3.0896	-3.3083	-3.0375	-3.0771	338.711	308.833	344.455	483.538	326.465	371.303	448.421	472.764	481.827	206.875	502.926	160.862	350.023	512.545	309.334	394.025	0.00097896	0.00043346	0.00012277	1323	6.6749e-06	5.5547e-06	1318.6	356.09	7.7098e-06	4.7673e-06	404.92	136.45	118.18	40.39	5.3838e-06	50.113	0.0007044	0.00058676	0.00016312	1346.9	6.7871e-06	6.194e-06	1341.4	361.97	6.7567e-06	6.2527e-06	414.57	139.52	121.06	41.49	6.6643e-06	51.746	500.282	242.149	257.942	171.010	283.669	300.800	170.421	175.737	268.787	301.922	175.249	178.925	179.998	184.971	294.308	183.939	-8191	255	
39993.969	1	1	0	0	0.22281	0.13276	0.071705	0.13453	0.16862	0.18305	0.11283	0.22984	0.18685	0.36016	0.16218	0.19301	0.097352	0.25413	0.11143	0.15662	-2.8125	-3.0521	-2.925	-3.4229	-2.9521	-3.1437	-3.4437	-3.1583	-3.3187	-3.0458	-2.9396	-3.5167	-3.0833	-3.2521	-3.3563	-2.9146	257.434	160.223	313.752	501.500	213.513	237.515	404.330	455.516	160.731	204.810	163.438	460.203	194.485	161.015	515.747	425.148	0.00096372	0.00058003	0.00014182	1316.5	6.2995e-06	3.4954e-06	1309.7	354.53	8.01e-06	5.0538e-06	404.55	136.77	118.24	40.484	6.0929e-06	50.013	0.00069636	0.00061278	0.00017932	1340.5	6.5236e-06	6.4461e-06	1337.4	361.13	6.6416e-06	6.1295e-06	414.01	139.43	120.87	41.534	6.9402e-06	51.557	499.711	256.493	257.535	170.989	282.101	300.707	170.776	175.517	268.570	295.093	175.318	179.176	179.628	184.724	278.498	183.679	-8191	255	
39994.062	1	1	0	0	0.092648	0.046223	0.15193	0.14396	0.10068	0.12247	0.37235	0.27167	0.061995	0.14723	0.1724	0.12604	0.066721	0.22257	0.074975	0.31052	-2.8708	-3.1688	-3.0938	-3.4125	-2.8917	-3.0333	-3.5792	-3.1917	-3.15	-3.15	-2.8312	-3.3354	-3.1646	-3.1479	-3.1333	-2.9938	414.959	485.469	417.319	493.144	331.392	254.582	472.481	449.417	187.714	402.440	327.476	383.303	429.280	171.218	516.651	351.070	0.00094312	0.00043566	0.00014983	1317.8	4.8517e-06	3.5876e-06	1313.4	352.52	6.3778e-06	7.1393e-06	403.13	136.48	117.92	40.257	6.4996e-06	49.951	0.00068255	0.00058965	0.00017838	1338	6.4774e-06	6.0752e-06	1334.2	359.64	6.4649e-06	6.8757e-06	413.31	139.35	120.74	41.366	6.8189e-06	51.532	498.463	251.805	246.949	171.104	261.466	313.486	170.535	175.496	285.149	302.634	175.228	179.117	179.736	184.667	291.052	183.607	-8191	255	
39994.160	1	1	0	0	0.11144	0.073978	0.16138	0.10699	0.17751	0.04968	0.33197	0.39778	0.15196	0.26161	0.098124	0.18671	0.22236	0.1181	0.14998	0.17764	-2.7542	-3.2625	-2.9229	-3.4979	-3.0646	-2.9896	-3.6625	-3.0417	-3.1292	-3.2208	-2.975	-3.2625	-3.0875	-3.125	-3.2667	-3.1792	505.339	174.649	495.786	426.645	492.033	291.472	443.883	466.144	420.677	190.478	191.705	429.279	183.905	165.006	301.625	164.319	0.00093607	0.00052568	0.0001417	1314.5	6.3761e-06	5.2081e-06	1310.1	352.22	8.2504e-06	4.1776e-06	403.06	136.44	117.86	40.112	5.028e-06	49.718	0.00067627	0.00061111	0.00017643	1337.6	6.0604e-06	6.406e-06	1333.8	359.47	6.2614e-06	6.6628e-06	412.47	139.02	120.32	41.318	6.5878e-06	51.455	499.500	248.061	255.665	171.061	284.219	297.584	170.558	175.582	266.339	306.874	175.351	179.076	179.661	184.881	283.483	183.882	-8191	255	
39994.230	1	1	0	0	0.18713	0.10302	0.095958	0.3215	0.1894	0.19247	0.1818	0.22233	0.1222	0.080905	0.30733	0.22882	0.11647	0.083127	0.20073	0.11017	-2.6396	-3.1604	-2.8125	-3.4188	-3.0708	-2.8958	-3.4062	-3.2146	-3.1458	-3.0729	-3.0375	-3.3458	-3.075	-2.9083	-3.0604	-3.1458	445.848	324.458	193.732	386.428	463.943	395.397	450.053	397.845	191.615	389.237	512.308	469.816	478.979	456.858	210.547	377.178	0.00093531	0.00052522	0.00014703	1306.3	5.7919e-06	4.8688e-06	1308.3	352.09	7.8395e-06	4.8577e-06	400.64	135.11	117.45	40.02	4.6386e-06	49.653	0.00067068	0.00059659	0.00016832	1332.2	6.146e-06	6.5747e-06	1329	358.65	6.3919e-06	6.7426e-06	411.74	138.59	120.12	41.238	6.4405e-06	51.324	499.868	256.839	263.366	171.294	286.663	301.305	170.768	175.782	261.291	307.411	175.074	179.121	179.603	184.586	277.109	183.783	-8191	255	
39994.352	1	1	0	0	0.20121	0.29419	0.13101	0.24455	0.28248	0.34839	0.22061	0.32668	0.11391	0.091975	0.16055	0.066463	0.1949	0.12427	0.084711	0.21559	-2.6896	-3.1396	-2.8083	-3.4833	-3.0312	-2.9313	-3.4021	-3.1833	-2.9042	-3.2042	-2.8375	-3.2542	-3.1688	-2.9875	-3.1375	-3.1292	417.895	431.195	368.093	164.621	272.573	426.559	417.474	475.422	245.180	218.496	381.860	403.272	417.388	326.937	199.130	453.389	0.00094185	0.00049561	0.00015807	1306.7	5.5905e-06	5.0924e-06	1302.4	351.57	7.7189e-06	4.8104e-06	400.27	135.43	117.43	40.047	5.2567e-06	49.565	0.00066617	0.00059464	0.00016914	1330.5	5.9463e-06	6.6574e-06	1325.3	358	6.4046e-06	6.2281e-06	411.01	138.43	120.05	41.249	6.1631e-06	51.25	498.957	247.140	253.757	171.217	272.382	305.080	170.757	175.577	269.495	327.155	175.303	179.010	179.578	184.959	280.954	183.706	-8191	255	
39994.449	1	1	0	0	0.14406	0.13937	0.16164	0.29588	0.25355	0.26317	0.41434	0.10556	0.055924	0.25107	0.18281	0.18291	0.21931	0.17949	0.11696	0.082976	-2.5917	-3.2833	-2.8458	-3.3729	-3.1708	-3.0271	-3.4354	-3.1333	-3.1063	-3.2167	-2.9833	-3.2479	-3.2125	-2.8583	-3.3	-3.2625	171.820	323.832	398.296	468.142	468.673	207.624	474.925	423.298	162.490	208.240	515.926	493.088	483.851	465.625	249.590	407.253	0.0009623	0.00043115	8.6009e-05	1301.5	3.9594e-06	3.5737e-06	1301	350.41	7.3664e-06	4.6513e-06	401.77	135.39	117.42	39.984	4.9816e-06	49.44	0.00067537	0.00060273	0.00015852	1325.9	6.2968e-06	6.3356e-06	1322.6	357.05	6.4107e-06	6.4952e-06	410.97	138.31	119.87	41.143	5.8042e-06	51.2	498.309	235.106	242.289	171.137	280.781	301.556	170.580	175.610	256.854	305.685	175.070	179.121	179.540	184.891	292.059	183.769	-8191	255	
39994.547	1	1	0	0	0.079777	0.071339	0.10153	0.13321	0.15062	0.30402	0.37794	0.20786	0.2116	0.25049	0.20144	0.081345	0.19044	0.2653	0.076961	0.042849	-2.4917	-3.4396	-2.8146	-3.2271	-3.2833	-2.8979	-3.4958	-3.2687	-2.9021	-3.3229	-2.9958	-3.15	-3.3083	-3.0375	-3.2271	-3.2729	275.934	463.208	286.788	431.384	166.504	268.390	448.015	296.960	302.045	394.531	479.994	477.054	388.933	486.296	287.414	476.320	0.00091461	0.00051726	0.00013749	1301.9	5.5001e-06	5.0931e-06	1294.4	351.04	7.5337e-06	5.7436e-06	401.61	135.24	117.3	40.067	5.5643e-06	49.608	0.00067638	0.00058929	0.00015503	1325.4	6.309e-06	6.284e-06	1322.2	357.51	6.4957e-06	6.6554e-06	410.66	138.41	119.99	41.212	5.6692e-06	51.316	498.985	255.222	245.041	171.117	284.478	294.252	170.648	175.589	263.767	317.468	175.117	179.128	179.607	184.826	292.520	183.945	-8191	255	
39994.641	1	1	0	0	0.19845	0.12447	0.083467	0.15832	0.27782	0.072682	0.34461	0.13966	0.30299	0.19162	0.28182	0.16746	0.28329	0.24492	0.12615	0.066465	-2.4354	-3.1479	-2.9646	-3.2396	-3.0917	-2.9417	-3.4167	-3.3792	-2.8646	-3.2313	-3.0792	-2.9813	-3.3208	-3.05	-2.8875	-3.3833	421.569	456.703	206.594	481.666	183.568	284.590	466.070	494.525	185.130	191.833	478.287	488.094	432.401	516.353	312.422	193.390	0.00093728	0.00040985	0.00011559	1303.4	6.09e-06	3.5851e-06	1302.1	349.84	7.7013e-06	4.6747e-06	401.09	135.84	117.75	39.792	5.6215e-06	49.589	0.00068262	0.00056717	0.00014858	1325.5	6.2737e-06	6.492e-06	1323	357.18	6.3993e-06	6.2223e-06	411.02	138.49	120.09	41.172	5.81e-06	51.322	498.304	236.662	261.119	171.263	266.297	320.747	170.532	175.695	260.800	314.190	175.384	179.016	179.609	184.864	280.898	183.961	-8191	255	
39994.738	1	1	0	0	0.042554	0.075728	0.060015	0.15222	0.10974	0.0926	0.029118	0.13714	0.081482	0.065226	0.28652	0.3917	0.34123	0.23739	0.21534	0.10318	-2.6813	-3.1	-2.9667	-3.25	-3.1729	-2.9813	-3.3604	-3.4625	-2.7667	-3.1917	-3	-3.0417	-3.3	-3.0208	-3.0417	-3.2042	191.633	492.826	271.033	342.344	252.498	176.006	449.680	394.347	179.226	365.788	434.079	459.076	262.980	495.315	290.197	413.914	0.00090415	0.00051083	9.4609e-05	1301.2	7.1721e-06	5.9946e-06	1292.1	349.74	7.4921e-06	4.5581e-06	400.67	135.29	116.88	39.97	4.9101e-06	49.55	0.00066751	0.0005718	0.0001426	1324.1	6.2655e-06	6.0613e-06	1318.5	357.24	6.7165e-06	5.8287e-06	409.9	138.36	119.86	41.232	5.9046e-06	51.221	499.372	237.032	237.917	171.150	276.906	299.056	170.656	175.703	262.779	302.162	175.178	178.951	179.801	184.864	282.309	183.804	-8191	255	
39994.832	1	1	0	0	0.07848	0.13702	0.16074	0.019546	0.1121	0.23906	0.44038	0.38903	0.11396	0.1646	0.24522	0.13916	0.15165	0.19274	0.054066	0.31531	-2.4104	-3.1458	-3.1208	-3.0146	-3.1937	-2.9646	-3.2146	-3.3479	-3.0229	-3.225	-3.1979	-2.9354	-3.2917	-3.1917	-3.0812	-3.3479	165.673	389.019	319.663	435.519	316.853	298.431	424.407	464.472	205.867	300.388	355.545	417.926	402.521	454.195	514.424	496.106	0.00094572	0.00052147	0.00012698	1302.1	6.2816e-06	4.0107e-06	1291.4	350.68	6.9946e-06	4.7935e-06	400.72	135.35	117.3	39.955	4.8721e-06	49.529	0.00067122	0.00054217	0.00015226	1322.1	6.2227e-06	5.8009e-06	1318.2	357.4	6.315e-06	5.7785e-06	410.37	138.53	119.88	41.175	6.0043e-06	51.289	497.307	255.273	251.580	171.189	281.233	295.745	170.757	175.767	262.852	298.613	175.183	179.006	179.746	184.763	261.975	183.881	-8191	255	
39994.930	1	1	0	0	0.064181	0.12392	0.10087	0.15304	0.28831	0.12043	0.36991	0.099239	0.089223	0.11458	0.02833	0.29949	0.22612	0.21443	0.20055	0.087649	-2.4437	-3.0312	-3.1042	-3.0792	-3.3729	-3.0021	-3.2833	-3.4479	-2.9333	-3.1146	-3.2375	-3.0896	-3.2542	-2.8479	-2.8979	-3.35	469.978	490.269	262.335	165.314	502.944	326.501	448.737	445.418	267.256	509.087	276.064	424.862	455.055	183.111	498.111	406.356	0.00096827	0.00046025	0.00011297	1302.8	5.2889e-06	5.2977e-06	1291.8	350.4	7.1711e-06	4.6193e-06	400.2	135.27	117.67	39.912	5.3223e-06	49.508	0.00067223	0.0005189	0.00014826	1323.1	5.9409e-06	5.941e-06	1317.8	356.73	5.9268e-06	5.9215e-06	409.95	138.36	119.98	41.135	6.0974e-06	51.29	499.075	259.977	257.374	171.346	264.589	309.260	170.783	175.548	260.515	315.978	175.150	179.022	179.588	184.759	271.619	183.584	-8191	255	
39995.047	1	1	0	0	0.080308	0.12021	0.086767	0.24155	0.066769	0.105	0.28014	0.1903	0.080605	0.14669	0.32038	0.22077	0.21792	0.14467	0.20193	0.10775	-2.5417	-3.0021	-3.2542	-2.9813	-3.1375	-3.1125	-3.1667	-3.2479	-2.9375	-2.9375	-3.0875	-3.0979	-3.1083	-3.175	-2.8187	-3.3875	289.147	329.591	468.800	464.013	167.673	170.627	454.774	444.340	288.548	211.940	455.762	497.652	433.562	224.491	176.348	492.799	0.00095116	0.00040299	0.0001699	1299.2	6.8727e-06	3.8012e-06	1294.7	350.31	7.9437e-06	4.1398e-06	401.35	135.81	117.44	40.056	4.7514e-06	49.645	0.00064323	0.0005275	0.00015051	1320.9	5.8458e-06	5.8386e-06	1320.2	357.49	5.8746e-06	5.8073e-06	409.87	138.6	120.15	41.199	6.3487e-06	51.33	499.057	253.259	256.452	171.172	277.269	308.770	170.793	175.486	261.245	304.529	175.264	178.776	179.635	184.873	296.085	183.608	-8191	255	
39995.145	1	1	0	0	0.21517	0.18766	0.15834	0.048776	0.058551	0.22031	0.17592	0.36391	0.23702	0.11207	0.14239	0.10302	0.15314	0.22108	0.073964	0.14579	-2.5479	-3.0396	-3.225	-3.0938	-3.2417	-3.2021	-3.1792	-3.4375	-3.1104	-3.1854	-3.3125	-3.0854	-3.1896	-3.2458	-2.7208	-3.2458	313.008	248.229	405.858	423.456	365.133	408.335	428.722	415.134	369.414	196.182	435.512	384.558	478.892	474.654	336.922	198.659	0.00090713	0.0004024	0.00016964	1298.5	5.7858e-06	4.2076e-06	1291.1	348.94	7.5038e-06	5.2307e-06	400.14	135.44	117.49	39.97	5.0994e-06	49.677	0.00063761	0.00053335	0.00015483	1321	5.8037e-06	6.0842e-06	1317.2	356.87	5.8806e-06	6.0843e-06	410.7	138.46	120.03	41.237	6.2079e-06	51.338	497.080	251.524	240.670	171.046	289.473	304.155	170.736	175.567	261.161	298.492	175.422	178.959	179.724	184.830	283.532	183.791	-8191	255	
39995.242	1	1	0	0	0.27887	0.021611	0.22079	0.042318	0.1833	0.11639	0.31682	0.24698	0.16845	0.17821	0.20486	0.30715	0.23512	0.19868	0.13712	0.071768	-2.575	-2.8063	-3.2667	-3.1312	-2.9688	-3.1417	-3.1208	-3.3417	-2.7646	-2.8208	-3.4229	-2.8833	-3.1021	-3.1271	-2.8563	-3.1396	255.662	239.328	454.764	461.728	293.873	378.638	455.278	395.647	329.822	457.057	508.902	437.340	515.940	491.225	404.270	166.853	0.00092643	0.00053727	0.00012588	1294.7	6.535e-06	4.7075e-06	1290.4	350.08	8.5476e-06	3.5542e-06	401.3	135.79	117.43	40.056	5.4916e-06	49.673	0.00063281	0.00056623	0.000158	1318.8	5.6638e-06	5.7985e-06	1316.6	356.79	6.0071e-06	6.2001e-06	410.57	138.48	119.97	41.2	6.2628e-06	51.307	499.964	247.013	255.679	171.195	276.743	305.137	170.774	175.684	268.793	307.194	175.124	179.075	179.629	184.792	296.124	183.797	-8191	255	
39995.336	1	1	0	0	0.10971	0.25699	0.2248	0.3214	0.30201	0.15761	0.36245	0.22241	0.17148	0.17845	0.21531	0.11628	0.32605	0.3288	0.23006	0.37048	-2.6708	-2.8125	-3.1292	-3.1917	-3.0979	-3.2417	-3.0271	-3.3042	-3.0312	-2.9625	-3.3271	-3.1333	-2.9375	-3.3021	-2.8688	-3.1646	367.307	376.208	303.548	510.085	296.839	213.209	455.725	273.488	418.356	238.730	516.484	379.541	508.990	509.381	210.201	474.962	0.00094561	0.00053222	0.00013903	1297.6	5.051e-06	3.1448e-06	1288.4	349.2	8.4556e-06	3.6799e-06	401.25	135.67	117.44	39.901	6.5515e-06	49.772	0.00063926	0.00058083	0.0001525	1319.9	5.4866e-06	5.7838e-06	1316.3	356.51	6.1175e-06	6.1853e-06	410.07	138.43	120.03	41.234	6.1408e-06	51.337	500.755	250.490	247.777	171.223	278.090	309.153	170.482	175.754	263.950	311.715	175.203	178.949	179.694	184.859	287.995	183.725	-8191	255	
39995.457	1	1	0	0	0.096576	0.23657	0.14232	0.15517	0.31794	0.13259	0.16599	0.20044	0.36519	0.21623	0.34199	0.15647	0.20873	0.12559	0.040062	0.11431	-2.4646	-2.8021	-3.075	-3.1833	-2.925	-3.2979	-3.0312	-3.2417	-3.1188	-2.85	-3.325	-3.1333	-3.05	-3.2	-2.9021	-3.1375	322.477	203.241	513.199	452.557	214.297	423.360	444.447	449.355	350.692	388.383	164.931	358.342	468.574	427.072	455.006	171.120	0.00093258	0.00045851	0.00010171	1293.7	5.1036e-06	5e-06	1293.4	351.03	9.1221e-06	5.6659e-06	400.83	135.57	117.51	39.969	5.6768e-06	49.475	0.00064817	0.00058445	0.00014983	1316.9	5.856e-06	6.1416e-06	1314.6	357.17	6.2286e-06	6.3251e-06	410.32	138.29	120.17	41.19	5.9631e-06	51.213	499.404	246.270	249.188	171.209	288.404	299.066	170.876	175.638	263.843	314.895	175.433	179.182	179.609	184.945	289.633	183.729	-8191	255	
39995.527	1	1	0	0	0.077926	0.038717	0.12912	0.10923	0.089415	0.21431	0.31722	0.40962	0.079726	0.19534	0.13224	0.1936	0.40491	0.037816	0.011997	0.35078	-2.7083	-2.8563	-3.1354	-3.1562	-3.0104	-3.1813	-3.2667	-3.0958	-3.1667	-2.8708	-3.4042	-3.0958	-3.025	-3.3438	-2.9375	-3.2083	359.458	343.041	360.023	516.899	211.078	312.671	439.319	488.180	502.646	174.642	417.440	493.455	484.059	159.986	355.227	456.342	0.00088347	0.00051991	0.00012379	1299	6.6623e-06	5.4463e-06	1292	349.25	8.1322e-06	3.9652e-06	401.5	135.19	117.74	40.046	6.2144e-06	49.446	0.00065164	0.00059102	0.00014519	1320.1	6.163e-06	6.2709e-06	1316.2	356.98	6.23e-06	6.2355e-06	411.51	138.17	120.15	41.189	5.8981e-06	51.244	498.804	248.093	243.875	171.057	285.866	304.248	170.663	175.655	252.830	317.185	175.495	178.871	179.785	184.721	288.072	183.810	-8191	255	
39995.648	1	1	0	0	0.020546	0.21114	0.18339	0.25725	0.18327	0.16567	0.13024	0.39117	0.20031	0.20401	0.14416	0.35601	0.20169	0.23009	0.15684	0.14696	-2.6208	-2.7979	-3.0667	-3.25	-2.9521	-3.2125	-3.1917	-3.2	-3.1729	-2.9729	-3.1667	-3.2438	-2.8875	-3.1646	-2.9833	-3.1833	379.291	181.292	413.182	164.084	237.041	333.011	509.555	477.712	328.130	380.578	444.376	167.353	493.763	244.280	269.984	498.568	0.00094697	0.00057773	0.00014611	1295.7	7.1035e-06	4.0487e-06	1292.9	349.4	8.6953e-06	4.328e-06	400.87	135.7	117.65	40.04	5.0612e-06	49.6	0.0006595	0.00057664	0.00014069	1318.8	6.1902e-06	5.7567e-06	1316.7	357.06	6.2025e-06	5.8525e-06	410.6	138.61	120.13	41.203	5.6894e-06	51.308	499.477	253.419	252.250	171.316	281.529	316.634	170.498	175.816	262.326	293.134	175.152	179.099	179.520	184.717	282.863	183.678	-8191	255	
39995.746	1	1	0	0	0.13525	0.11375	0.11268	0.20027	0.041418	0.050061	0.1393	0.084359	0.2021	0.14395	0.2209	0.1982	0.095675	0.30631	0.1712	0.078075	-2.7333	-2.7958	-3.1042	-3.1937	-2.95	-3.3479	-3.0979	-3.2188	-3.2	-2.8063	-3.2833	-3.2479	-3.0021	-3.3229	-3.1	-3.2292	186.302	181.782	471.790	488.196	383.789	411.624	463.670	364.221	185.875	382.782	473.441	464.399	350.535	471.160	306.555	503.264	0.00094907	0.00058367	0.00010881	1299.2	6.1051e-06	5.2282e-06	1291.4	350.23	8.0266e-06	3.985e-06	401.9	135.28	117.44	40.138	5.9645e-06	49.792	0.00064944	0.0005551	0.00013872	1320.6	6.0774e-06	6.212e-06	1317	357.49	6.153e-06	5.8048e-06	410.51	138.59	120.09	41.28	5.5211e-06	51.363	498.250	246.348	257.799	171.157	273.229	299.676	170.768	175.703	265.333	317.285	175.197	179.081	179.628	184.829	275.860	183.630	-8191	255	
39995.840	1	1	0	0	0.25007	0.25158	0.17612	0.089013	0.31452	0.12957	0.39961	0.30632	0.26287	0.13838	0.21821	0.040201	0.12977	0.10501	0.21581	0.1403	-2.8792	-2.9979	-2.9708	-3.4083	-2.8125	-3.3042	-3.4188	-2.9896	-3.1375	-2.8125	-3.1958	-3.2021	-2.9708	-3.3187	-3.0042	-3.0083	502.868	348.002	479.926	418.112	317.943	412.729	471.001	425.329	190.647	507.595	396.730	234.212	479.811	211.738	507.802	472.448	0.00091459	0.00056102	0.00013712	1300.6	4.8235e-06	4.5784e-06	1295.4	351.06	7.8548e-06	6.3862e-06	400.57	136.26	117.57	40.084	4.9005e-06	49.718	0.00066141	0.00055706	0.00014788	1323.1	6.0489e-06	5.4382e-06	1320.6	357.94	6.0499e-06	5.8303e-06	410.91	139.1	120.3	41.37	5.8201e-06	51.553	497.487	253.964	251.633	171.141	277.347	304.633	170.717	175.677	259.296	306.150	175.253	179.152	179.809	184.942	272.287	183.735	-8191	255	
39995.938	1	1	0	0	0.17219	0.19636	0.146	0.23298	0.2292	0.14496	0.37178	0.20947	0.22074	0.14538	0.12346	0.1952	0.092768	0.046979	0.11737	0.1276	-2.6813	-2.7438	-3.0396	-3.1792	-2.875	-3.225	-3.3208	-3.1479	-3.1625	-3.0021	-3.125	-3.3042	-2.9458	-3.0417	-2.8396	-2.825	485.086	211.145	428.204	473.343	416.836	313.431	428.692	477.508	483.252	239.784	234.025	446.021	171.861	461.176	296.294	165.378	0.0009284	0.00052907	0.00012011	1299.8	6.3551e-06	5.0954e-06	1296.9	349.81	9.8025e-06	6.1119e-06	400.79	135.97	117.84	40.216	5.2859e-06	49.535	0.00065726	0.00051261	0.00014274	1324	6.0774e-06	5.629e-06	1324.7	357.55	6.1255e-06	5.7432e-06	411.75	138.73	120.48	41.343	6.0418e-06	51.437	498.143	262.538	238.416	171.042	283.684	295.531	170.548	175.721	260.784	299.434	174.848	178.775	179.556	184.699	295.919	183.999	-8191	255	
39996.031	1	1	0	0	0.12207	0.17879	0.19886	0.25491	0.11315	0.091381	0.31009	0.10831	0.081783	0.10145	0.1965	0.21455	0.33828	0.21834	0.25325	0.21458	-2.7792	-2.9833	-3.0208	-3.4875	-2.9604	-3.1667	-3.325	-2.9396	-3.0563	-3.0146	-3.1188	-3.2375	-3.0333	-3.1021	-3.1167	-2.9292	285.768	441.818	201.103	172.295	270.862	486.782	434.025	163.641	486.153	239.454	464.615	493.933	488.255	479.646	378.809	388.461	0.00090773	0.00048439	0.00015256	1298.1	5.9944e-06	4.6708e-06	1298.8	351.28	8.523e-06	4.7523e-06	403.19	135.78	118.03	40.029	4.557e-06	49.789	0.00064684	0.00053566	0.00015041	1323.5	5.9593e-06	5.7878e-06	1323.8	357.99	6.0459e-06	5.8936e-06	412.1	138.83	120.57	41.339	6.343e-06	51.525	501.018	257.803	247.617	171.027	281.316	305.249	170.649	175.767	264.268	314.131	175.182	178.888	179.729	184.793	282.067	183.718	-8191	255	
39996.129	1	1	0	0	0.21137	0.05902	0.08844	0.15861	0.16515	0.14689	0.18432	0.28592	0.086757	0.19069	0.046709	0.22756	0.074259	0.091811	0.16676	0.10287	-2.7292	-2.9375	-2.8979	-3.2958	-2.675	-2.9667	-3.3667	-2.9104	-3.0812	-3.0938	-2.9333	-3.3	-2.9667	-3.1917	-3.1521	-3.0854	499.847	365.099	423.125	158.535	306.716	356.280	396.267	166.355	354.984	396.485	282.664	181.965	489.883	505.396	313.115	429.195	0.00092918	0.00045409	0.00018385	1301.3	5.0838e-06	6.3087e-06	1297.3	351.19	8.8689e-06	5.331e-06	401.78	135.63	117.73	40.043	5.7159e-06	49.846	0.0006362	0.00052533	0.00016354	1324.6	5.7419e-06	5.9213e-06	1322.3	358.37	5.7481e-06	6.0686e-06	411.41	138.89	120.56	41.335	6.1061e-06	51.496	498.943	233.788	254.000	171.203	272.041	311.700	170.534	175.673	272.871	303.112	175.172	178.740	179.612	184.762	284.002	183.742	-8191	255	
39996.227	1	1	0	0	0.023247	0.06608	0.17039	0.50413	0.067497	0.19477	0.33585	0.11299	0.11253	0.20305	0.066935	0.093526	0.078094	0.089234	0.21781	0.20165	-2.65	-3.0708	-2.7792	-3.2625	-3.1333	-3.0625	-3.4208	-3.0021	-3.1688	-3.2646	-2.8104	-3.1667	-2.9042	-2.9542	-3.025	-2.9479	473.797	363.713	316.633	460.209	483.467	211.504	431.366	480.684	330.011	447.022	220.345	517.627	494.928	447.905	413.193	481.029	0.00097617	0.00063115	0.00013944	1302.6	5.8396e-06	5.1825e-06	1292.3	351.12	7.0911e-06	6.2352e-06	401.64	136.15	117.42	40.232	5.2993e-06	49.59	0.00064994	0.00055821	0.00015342	1323	5.5891e-06	5.7305e-06	1319.7	358.28	5.823e-06	5.7284e-06	411.45	138.97	120.49	41.398	5.9682e-06	51.465	499.041	243.148	258.582	171.230	284.233	306.354	170.791	175.745	258.053	306.811	175.144	179.176	179.751	184.909	290.636	183.792	-8191	255	
39996.320	1	1	0	0	0.063016	0.32646	0.15683	0.39088	0.20084	0.20038	0.22001	0.24512	0.17427	0.21608	0.1808	0.3616	0.22465	0.16944	0.17865	0.15089	-2.7583	-3.1583	-2.7958	-3.2333	-3.0083	-2.8917	-3.475	-2.9708	-2.9833	-3.1875	-3.0375	-3.3417	-3.1729	-2.9667	-3.1583	-2.9562	359.209	376.709	393.767	495.993	213.110	281.196	447.055	427.370	246.346	438.377	486.897	458.572	443.023	510.367	341.267	174.248	0.00096284	0.00043667	0.00013343	1296.2	5.2233e-06	5.4699e-06	1291.3	350.85	8.1866e-06	4.9959e-06	400.49	136.26	117.78	39.939	5.0711e-06	49.481	0.00064082	0.00054499	0.00015539	1318.2	5.6272e-06	5.9049e-06	1314.4	357.86	5.7333e-06	6.0374e-06	410.88	138.88	120.33	41.258	5.7522e-06	51.348	499.427	255.974	238.711	171.306	270.844	295.701	170.506	175.668	272.798	295.332	175.118	178.918	179.654	184.811	279.493	183.614	-8191	255	
39996.418	1	1	0	0	0.16782	0.13564	0.1075	0.32563	0.28824	0.28237	0.12717	0.25942	0.1842	0.18011	0.1036	0.20082	0.11881	0.09749	0.16151	0.30505	-2.6604	-3.0417	-2.8458	-3.3	-2.9021	-2.9167	-3.4333	-2.85	-3.0792	-3.2021	-2.9042	-3.225	-3.0021	-3.0208	-3.0604	-2.8958	310.622	258.083	338.239	491.359	158.021	194.071	384.169	460.594	365.547	485.649	192.660	281.556	205.971	380.816	515.271	436.656	0.00091797	0.00037717	0.00012388	1288.1	6.1707e-06	4.9291e-06	1283.9	349.39	8.1262e-06	4.9498e-06	401.12	135.6	117.71	40.082	4.5063e-06	49.674	0.00061625	0.00051601	0.00014788	1311	5.6312e-06	5.936e-06	1308.8	356.32	5.6503e-06	5.9002e-06	410.09	138.7	120.26	41.241	5.3001e-06	51.342	498.940	242.746	261.434	171.180	293.810	320.417	170.771	175.667	265.638	294.619	175.379	178.984	179.679	184.817	289.430	183.974	-8191	255	
39996.539	1	1	0	0	0.24945	0.2267	0.24921	0.33321	0.06571	0.30741	0.26699	0.36581	0.1673	0.15041	0.23855	0.20376	0.21158	0.0862	0.31245	0.066418	-2.4104	-3.1708	-2.7875	-3.2729	-3.0417	-2.9854	-3.35	-3.1	-2.8292	-3.0625	-2.9333	-3.3312	-3.1458	-2.8229	-3.2333	-2.9125	392.537	227.633	386.792	501.763	217.813	280.107	450.487	461.513	392.466	509.372	486.578	431.117	502.908	222.742	392.339	395.600	0.00092631	0.0005348	0.00011192	1286.5	6.072e-06	4.2558e-06	1283.8	349.06	8.1609e-06	4.0806e-06	399.57	135.88	117.46	40.013	7.2329e-06	49.806	0.00064695	0.00052005	0.00013848	1309.2	5.5803e-06	5.6282e-06	1306.5	355.91	6.0466e-06	5.4843e-06	409.05	138.66	120.15	41.313	5.5031e-06	51.389	499.095	240.182	246.698	171.121	290.290	314.425	170.664	175.614	257.721	298.580	175.270	179.194	179.600	184.917	280.155	183.750	-8191	255	
39996.633	1	1	0	0	0.10637	0.21844	0.1403	0.13355	0.17781	0.052047	0.192	0.20567	0.22513	0.19345	0.25939	0.21607	0.23583	0.38271	0.099986	0.078349	-2.5104	-3.1229	-2.7625	-3.2646	-2.8542	-2.7833	-3.3688	-3.1688	-2.8729	-3.2562	-2.9167	-3.1979	-3.2104	-2.8375	-3.2229	-3.0792	388.635	276.035	460.310	432.276	290.838	414.215	456.908	469.461	475.763	511.570	159.807	500.044	171.665	508.313	324.458	516.802	0.00092183	0.00047561	0.00012703	1287.2	5.846e-06	5.9333e-06	1277.6	349.41	7.9697e-06	5.6506e-06	398.3	135.78	117.13	40.08	6.4157e-06	49.592	0.00064453	0.00052786	0.00013822	1309.3	5.6149e-06	5.9303e-06	1303.7	356.11	5.995e-06	5.8295e-06	409.13	138.57	119.95	41.28	5.1254e-06	51.324	499.565	244.018	257.550	171.120	281.520	308.299	170.577	175.597	272.720	309.264	175.573	179.199	179.798	184.921	283.057	183.668	-8191	255	
39996.730	1	1	0	0	0.28453	0.21556	0.1746	0.18665	0.17062	0.23941	0.32187	0.14039	0.13782	0.1639	0.21904	0.3624	0.043069	0.28166	0.26903	0.21447	-2.6312	-3.275	-2.9042	-3.1708	-3.2542	-2.7125	-3.3896	-3.0854	-2.8229	-3.15	-3.0479	-3.0208	-3.2208	-2.8354	-3.1396	-3.1	170.862	262.583	351.094	435.899	483.952	230.374	437.995	448.201	336.279	369.656	501.770	159.782	162.679	208.391	457.192	478.508	0.0009437	0.00058284	0.00012663	1284.4	6.4711e-06	4.7409e-06	1283.2	348.22	7.763e-06	4.1579e-06	400.32	135.93	117.51	40.093	6.2353e-06	49.671	0.00064846	0.00050502	0.00013296	1307.5	5.8051e-06	5.697e-06	1307.5	355.89	5.9937e-06	5.3816e-06	409.56	138.68	120	41.289	5.2395e-06	51.38	499.416	240.616	249.566	171.163	288.095	322.514	170.704	175.724	272.732	301.573	175.312	179.084	179.774	184.711	300.913	183.805	-8191	255	
39996.824	1	1	0	0	0.11877	0.1434	0.15235	0.094613	0.11434	0.193	0.14775	0.076365	0.13189	0.30083	0.29023	0.15228	0.11866	0.073409	0.1665	0.22035	-2.5167	-3.1688	-2.9396	-3.0417	-3.0938	-2.7854	-3.2979	-3.175	-2.8146	-3.1042	-3.0812	-2.95	-3.3708	-3.0375	-3.1229	-3.1979	416.930	515.153	486.532	451.743	457.157	278.750	396.522	456.305	307.433	473.938	509.597	207.924	254.119	424.011	429.845	455.193	0.00091725	0.00043441	0.00013156	1290.2	5.5457e-06	4.5969e-06	1285.6	348.43	6.9243e-06	4.977e-06	401.06	135.87	117.12	39.972	5.9406e-06	49.815	0.00064457	0.00048833	0.000127	1311.7	5.8696e-06	5.4947e-06	1309.3	356.03	6.1985e-06	5.2599e-06	409.89	138.59	120.03	41.289	5.6843e-06	51.426	499.510	262.695	243.526	171.212	284.516	317.277	170.833	175.820	255.124	305.963	175.198	179.069	179.764	184.661	292.146	183.922	-8191	255	
39996.922	1	1	0	0	0.23597	0.081631	0.066868	0.21737	0.18943	0.13025	0.1696	0.19221	0.028305	0.099452	0.21922	0.3043	0.085693	0.10552	0.19199	0.31802	-2.3708	-2.9375	-2.8583	-3.0771	-3.05	-2.8979	-3.0771	-3.4333	-2.8771	-3.2729	-3.2125	-2.8854	-3.0083	-3.0521	-2.9688	-3.2	376.181	440.203	271.234	461.028	443.377	395.399	464.819	504.871	433.433	468.445	398.607	474.005	467.697	312.219	439.214	443.528	0.00097156	0.00057709	0.00013092	1288.6	5.3101e-06	5.818e-06	1285.6	348.34	5.8366e-06	5.623e-06	400.52	135.55	117.52	40.101	5.5449e-06	49.95	0.00065589	0.0004884	0.00014079	1313.2	5.6733e-06	5.2565e-06	1310	356.23	5.9415e-06	5.3799e-06	409.39	138.5	120.19	41.279	5.7089e-06	51.447	500.318	254.670	248.655	171.284	276.063	299.929	170.768	175.671	266.806	290.958	175.227	178.927	179.729	184.867	293.596	183.886	-8191	255	
39997.020	1	1	0	0	0.21738	0.082292	0.14125	0.22535	0.46065	0.18463	0.27344	0.16859	0.15493	0.045048	0.070915	0.14235	0.36758	0.13593	0.18317	0.26615	-2.5208	-3.1104	-3.0604	-3.0083	-3.275	-2.8292	-3.2313	-3.325	-2.9292	-3.0396	-3.0771	-2.9167	-3.2604	-2.8979	-2.9271	-3.2604	453.706	484.306	395.574	404.892	452.026	474.956	476.494	450.526	483.209	183.544	241.895	508.724	468.812	498.721	313.132	492.985	0.00087944	0.00052232	0.00015462	1290.9	5.6983e-06	4.3027e-06	1283.8	350.11	7.4711e-06	5.2669e-06	400.51	135.51	117.52	39.945	6.3355e-06	49.61	0.00062837	0.00048125	0.00014396	1313.5	5.6869e-06	5.5692e-06	1309.5	356.62	6.0466e-06	5.2747e-06	409.49	138.41	120.01	41.211	6.0411e-06	51.351	497.959	237.682	255.067	171.202	281.814	291.272	170.661	175.867	271.207	298.446	175.229	179.039	179.836	184.750	291.073	183.603	-8191	255	
39997.137	1	1	0	0	0.19108	0.24216	0.38932	0.18515	0.18581	0.0624	0.45982	0.34258	0.15325	0.23507	0.23621	0.17915	0.34845	0.17398	0.13635	0.20366	-2.3875	-2.9437	-2.8354	-3.0833	-2.9333	-2.8542	-3.2333	-3.4	-2.8958	-3.15	-3.2104	-2.7771	-3.3104	-3.0271	-2.8312	-3.3708	286.971	227.846	194.336	481.731	263.589	461.599	461.775	429.769	251.165	505.372	490.358	492.446	416.705	185.971	454.684	455.954	0.00093813	0.00053315	0.00013042	1288.6	5.5343e-06	5.8919e-06	1287.7	350.14	8.6784e-06	4.4415e-06	400.24	135.7	117.25	40.001	4.9445e-06	49.69	0.00064749	0.00052468	0.00014539	1313.6	5.5776e-06	5.5177e-06	1312.6	356.31	5.8451e-06	5.3824e-06	409.73	138.49	120.06	41.231	5.8035e-06	51.387	499.663	250.901	236.291	171.033	283.040	314.155	170.571	175.784	264.868	313.245	175.347	178.914	179.687	184.617	283.621	183.936	-8191	255	
39997.234	1	1	0	0	0.14297	0.15482	0.10019	0.15022	0.11803	0.12641	0.5174	0.09312	0.26129	0.066297	0.13835	0.2054	0.21848	0.21947	0.12538	0.18214	-2.4542	-3.0417	-3.2188	-3.0479	-3.1479	-2.8979	-3.1146	-3.3417	-2.9	-2.9792	-3.3021	-2.8854	-3.2417	-3.0396	-3.0021	-3.3167	185.976	512.862	501.488	481.157	211.241	411.302	433.377	179.234	321.611	321.212	321.104	162.450	503.601	162.386	198.638	177.083	0.00091989	0.00048891	0.00015206	1286.8	4.7632e-06	4.5615e-06	1284.5	348.44	7.7957e-06	5.328e-06	400.03	135.37	117.26	39.909	6.7895e-06	49.775	0.000634	0.0005473	0.00015268	1312.6	5.6706e-06	5.9385e-06	1311.7	355.57	5.7481e-06	6.044e-06	409.64	138.37	119.76	41.19	6.252e-06	51.385	498.304	248.952	252.881	171.024	270.940	305.915	170.816	175.715	262.969	311.988	175.283	178.861	179.574	184.854	295.018	183.853	-8191	255	
39997.328	1	1	0	0	0.27115	0.16908	0.2115	0.18258	0.1972	0.30478	0.076992	0.24059	0.34555	0.20914	0.0899	0.13797	0.10343	0.3929	0.21859	0.24208	-2.6188	-3.0521	-3.3667	-3.0187	-3.2083	-3.0458	-3.1458	-3.3187	-2.8458	-2.8021	-3.15	-2.8979	-3.4	-3.1688	-2.9104	-3.3604	203.623	422.602	491.785	445.320	376.525	436.647	505.032	490.059	475.593	348.506	321.967	423.791	482.273	492.750	259.543	179.071	0.0008772	0.0005164	0.00014193	1291	6.5732e-06	3.8069e-06	1287.5	348.99	7.4715e-06	5.8621e-06	399.53	135.72	117.2	40.081	6.9271e-06	49.511	0.00063605	0.00055171	0.0001518	1314.1	5.5959e-06	6.1604e-06	1310.6	355.52	5.8177e-06	6.016e-06	409.5	138.38	119.71	41.177	6.2708e-06	51.238	497.159	251.663	250.539	171.277	292.495	300.114	170.585	175.589	262.433	317.180	175.307	179.093	179.725	184.981	275.570	183.949	-8191	255	
39997.426	1	1	0	0	0.31924	0.037845	0.018952	0.3149	0.12671	0.21506	0.1194	0.38123	0.17244	0.013747	0.022513	0.31768	0.12698	0.016081	0.21527	0.029763	-2.3833	-2.9938	-3.2521	-3.0417	-3.1583	-3.0833	-2.9604	-3.3312	-2.875	-2.9167	-3.3458	-2.9375	-3.0375	-3.2375	-2.9396	-3.2333	226.782	237.200	228.337	458.665	455.295	160.902	514.678	484.848	501.639	392.398	455.272	484.592	503.371	321.233	239.142	361.615	0.00089784	0.00056067	0.00012278	1292.2	4.4518e-06	6.1012e-06	1288.1	349.59	6.7881e-06	4.1548e-06	399.99	135.48	117.39	39.733	7.0573e-06	49.625	0.00064323	0.00059008	0.0001543	1313.9	5.9104e-06	6.0736e-06	1313.1	355.9	5.8833e-06	6.39e-06	409.3	138.33	119.75	41.05	6.0202e-06	51.26	498.720	245.128	251.095	171.065	273.957	300.814	170.739	175.639	270.453	318.225	175.037	178.992	179.644	184.873	289.441	183.841	-8191	255	
39997.523	1	1	0	0	0.083565	0.13595	0.17011	0.21239	0.050189	0.16417	0.23413	0.27106	0.2045	0.084534	0.17155	0.19726	0.086633	0.20336	0.3381	0.20867	-2.5979	-2.8792	-3.3021	-3.0292	-3.0687	-3.1104	-3.1354	-3.1854	-3.0729	-2.9333	-3.4313	-2.8167	-3.0646	-3.2167	-2.7771	-3.15	424.607	497.175	244.893	491.747	444.210	485.008	443.625	389.819	225.348	495.148	365.667	158.371	427.175	175.279	318.160	479.225	0.00090822	0.0006409	0.00015332	1294.7	4.9687e-06	4.6582e-06	1286.9	349.26	8.6594e-06	3.3575e-06	400.07	135.08	117.58	40.002	6.2812e-06	49.579	0.00066062	0.0006041	0.00015398	1315.2	6.182e-06	6.2578e-06	1313.4	355.97	6.3578e-06	6.5823e-06	409.67	138.24	119.93	41.184	6.0613e-06	51.224	500.133	248.683	246.459	171.319	278.302	299.621	170.635	175.650	266.154	308.968	175.124	178.886	179.860	185.026	289.702	183.903	-8191	255	
39997.617	1	1	0	0	0.12212	0.26127	0.050392	0.36652	0.15284	0.20234	0.49685	0.34098	0.24559	0.023548	0.14785	0.28248	0.35192	0.18239	0.12092	0.028846	-2.775	-2.6458	-3.0938	-3.1	-2.9542	-3.2792	-3.0979	-3.2417	-3.025	-3.0687	-3.3521	-3.2479	-3.05	-3.1542	-2.8667	-3.0812	380.395	262.419	195.480	491.614	237.049	402.668	479.262	173.016	479.144	385.585	297.299	512.384	463.062	208.864	253.959	336.292	0.00092538	0.00044696	0.00016147	1294.9	4.9414e-06	5.3614e-06	1287.1	349.82	8.9333e-06	4.8821e-06	400.15	135.47	117.02	40.011	6.7209e-06	49.662	0.00066808	0.0005997	0.00015278	1317.6	6.1202e-06	6.1907e-06	1315.3	356.41	6.3732e-06	6.3431e-06	409.51	138.35	119.81	41.127	5.9241e-06	51.257	500.034	227.156	267.130	171.143	289.736	307.591	170.679	175.550	258.450	294.328	175.241	179.107	179.710	184.750	299.349	183.730	-8191	255	
39997.715	1	1	0	0	0.14391	0.11914	0.25233	0.16178	0.27268	0.046377	0.44094	0.21231	0.22218	0.018849	0.026024	0.087788	0.45045	0.16284	0.10641	0.26815	-2.6167	-3.0479	-3.1604	-3.1333	-3.0687	-3.2396	-2.9188	-3.2229	-2.9562	-2.9458	-3.2104	-3.1729	-3.0042	-3.2896	-3.0062	-3.3521	457.614	358.491	512.621	515.106	290.316	183.825	456.123	159.071	246.826	396.624	403.829	387.069	269.852	455.969	342.836	461.571	0.00094801	0.00045219	0.00014866	1295.6	3.6395e-06	4.7414e-06	1294	348.56	8.1869e-06	3.6385e-06	399.3	135.16	117.07	39.919	5.6386e-06	49.452	0.00067021	0.0005843	0.00014641	1318.1	6.5677e-06	6.2177e-06	1316	355.7	6.5767e-06	6.2642e-06	409.17	137.98	119.68	41.072	5.8916e-06	51.154	499.031	265.737	257.224	171.166	295.560	329.351	170.646	175.647	257.450	288.860	175.232	178.920	179.772	184.809	285.216	183.831	-8191	255	
39997.832	1	1	0	0	0.15406	0.081052	0.040411	0.34055	0.10604	0.36608	0.031939	0.19096	0.098584	0.16543	0.11652	0.38353	0.068956	0.21398	0.029191	0.036288	-2.6979	-2.8458	-3.0854	-3.125	-2.8854	-3.3187	-3.1646	-3.075	-3.2479	-2.7604	-3.3417	-3.2542	-3.1292	-3.2625	-3.1542	-3.2042	338.207	336.028	430.191	513.694	377.966	458.153	224.256	452.673	495.285	490.837	503.237	492.444	451.583	475.551	254.482	496.852	0.00092671	0.00058568	0.00014798	1294.9	5.5926e-06	4.2463e-06	1293.7	348.66	6.1803e-06	4.9275e-06	399.99	135.25	117.05	39.805	5.7196e-06	49.53	0.00066689	0.00058372	0.00015617	1316.5	6.5806e-06	6.1669e-06	1315.4	355.71	6.4562e-06	6.3292e-06	409.05	137.8	119.5	41.054	6.1003e-06	51.018	499.458	248.898	259.127	171.091	274.445	291.738	170.669	175.630	264.886	312.082	175.038	179.006	179.662	184.659	272.787	183.776	-8191	255	
39997.930	1	1	0	0	0.20355	0.15877	0.066267	0.18413	0.18245	0.088417	0.21702	0.41648	0.21551	0.15649	0.12966	0.23962	0.20391	0.28548	0.11406	0.34522	-2.7042	-2.6833	-3.0979	-3.3521	-2.8875	-3.3	-3.2458	-3.1521	-3.3833	-2.9854	-3.2396	-3.1896	-2.9375	-3.2896	-2.9375	-3.05	377.597	276.843	362.174	158.963	179.266	462.754	359.981	443.926	332.373	486.093	450.346	513.593	194.808	405.410	371.856	440.543	0.00092589	0.00058056	0.00014387	1292.5	5.8601e-06	4.4353e-06	1291	348.29	8.1424e-06	5.5864e-06	399.35	134.57	116.56	39.724	5.1265e-06	49.42	0.00068042	0.00060035	0.00014804	1317.3	6.4822e-06	6.1538e-06	1315.5	355.63	6.41e-06	5.9191e-06	408.64	137.83	119.25	40.932	6.2881e-06	51.122	499.671	250.835	243.333	171.162	274.620	314.451	170.708	175.630	260.476	316.019	174.889	178.892	179.753	184.879	286.884	183.969	-8191	255	
39998.000	1	1	0	0	0.29455	0.059688	0.106	0.13545	0.16669	0.043784	0.22247	0.15823	0.075463	0.28496	0.090158	0.09898	0.38807	0.2513	0.038196	0.26515	-2.8771	-2.9354	-2.9354	-3.2875	-2.7667	-3.0104	-3.1	-3.0521	-3.0292	-2.825	-3.2917	-3.2354	-2.9292	-3.2771	-3.2542	-2.9708	268.784	405.831	254.791	189.750	496.215	441.107	421.136	451.713	281.687	366.410	488.582	384.378	439.993	487.096	164.059	169.128	0.00092558	0.00047177	0.00012845	1293.8	5.3488e-06	3.9266e-06	1290	349	7.7364e-06	4.8063e-06	397.66	134.48	116.48	39.634	5.984e-06	49.157	0.00067883	0.00057599	0.00015607	1316.8	6.328e-06	5.5864e-06	1314.4	355.45	6.5372e-06	5.993e-06	408.11	137.66	119.34	40.889	6.3849e-06	51.001	498.756	246.844	243.341	171.183	288.362	306.355	170.705	175.652	259.187	308.917	175.186	179.196	179.771	184.929	284.998	183.948	-8191	255	
39998.098	1	1	0	0	0.28607	0.24026	0.45025	0.031829	0.16899	0.10587	0.20222	0.27852	0.12238	0.059129	0.32242	0.050611	0.33854	0.020583	0.20939	0.30471	-2.6792	-2.7667	-2.9729	-3.3792	-2.8937	-3.0771	-3.2625	-3.0042	-3.1896	-2.8792	-2.9979	-3.2542	-2.9813	-3.2	-2.8729	-3.075	202.280	450.942	275.084	193.942	427.254	312.056	465.082	456.644	433.614	309.716	163.208	202.277	506.657	442.697	245.123	413.468	0.00093656	0.00042713	0.00013474	1293.1	6.4145e-06	5.5945e-06	1286.5	348.41	7.4613e-06	4.6251e-06	398.68	134.84	116.49	39.594	5.8359e-06	49.403	0.00065723	0.00055359	0.00015766	1314.9	6.1582e-06	6.1252e-06	1314.2	355.4	6.2005e-06	6.201e-06	408.66	137.81	119.22	40.868	6.4787e-06	51.086	497.884	259.384	251.218	171.199	282.887	314.797	170.502	175.719	265.070	288.648	175.340	179.182	179.644	184.990	288.096	183.793	-8191	255	
39998.219	1	1	0	0	0.07904	0.27659	0.085324	0.24796	0.045673	0.10192	0.17065	0.32552	0.23377	0.16493	0.225	0.071684	0.2332	0.15692	0.092956	0.085013	-2.7271	-2.8646	-2.9604	-3.3417	-2.8271	-3.1562	-3.2021	-2.9771	-3.2938	-2.9604	-2.9896	-3.2125	-2.9292	-3.1104	-3.075	-2.8812	457.977	302.312	244.526	437.327	177.255	468.608	497.981	514.709	485.249	380.282	274.739	387.246	467.130	227.515	366.880	497.473	0.00091314	0.00052966	0.00014662	1291.8	5.971e-06	5.2933e-06	1289.9	348.55	8.4294e-06	4.8591e-06	398.04	134.8	117.06	39.64	4.8507e-06	49.532	0.00065221	0.00058343	0.00017143	1315.7	6.1718e-06	6.3978e-06	1314.4	354.92	6.1931e-06	6.3941e-06	408.35	137.58	119.41	40.919	6.4578e-06	51.159	498.359	258.089	269.375	171.067	266.218	316.751	170.679	175.584	257.920	310.662	175.236	178.897	179.613	184.977	282.439	183.719	-8191	255	
39998.312	1	1	0	0	0.13238	0.14934	0.16221	0.25069	0.076851	0.092944	0.26396	0.095666	0.12065	0.23186	0.22212	0.37138	0.047174	0.15805	0.32389	0.19797	-2.7313	-3.05	-2.875	-3.5187	-2.9646	-3.1229	-3.2667	-3.0958	-3.0062	-2.9146	-2.9792	-3.3021	-2.8729	-3.2062	-3.1583	-2.7729	504.036	515.595	159.490	500.126	452.853	289.114	419.255	310.843	378.560	191.029	402.538	445.079	249.744	497.238	389.923	483.739	0.00093082	0.00050456	0.00011016	1295.3	5.1259e-06	5.473e-06	1288.5	347.8	8.9427e-06	4.1849e-06	398.02	135.25	117.38	39.829	7.0783e-06	49.307	0.0006485	0.0005968	0.00016495	1316.2	6.0075e-06	6.2537e-06	1312.4	355.22	6.1945e-06	6.3727e-06	408.52	137.84	119.49	40.998	6.6954e-06	51.035	499.588	253.423	252.722	170.929	290.937	315.179	170.613	175.891	258.305	298.096	175.235	179.143	179.555	185.176	275.190	183.752	-8191	255	
39998.410	1	1	0	0	0.18863	0.091296	0.14834	0.23828	0.15555	0.22077	0.21506	0.2375	0.22815	0.074949	0.24676	0.24897	0.04548	0.15938	0.11594	0.16386	-2.6771	-3.2354	-2.7979	-3.5396	-2.9167	-3.0146	-3.2146	-3.0729	-3.0104	-2.8979	-3.0375	-3.1792	-3.0146	-3.1021	-3.1417	-2.9313	188.361	228.024	285.793	473.561	444.823	345.476	464.883	496.639	269.885	184.634	445.653	484.383	409.316	287.975	501.870	431.495	0.00094548	0.00055422	0.00015871	1289.5	5.8548e-06	5.6734e-06	1288.1	347.18	8.302e-06	4.7403e-06	400.56	134.59	116.63	39.813	5.5472e-06	49.385	0.0006476	0.00059131	0.00016485	1313.9	5.8798e-06	6.4109e-06	1313.5	355.2	6.2902e-06	6.3325e-06	408.79	137.57	119.4	40.989	6.166e-06	51.077	500.459	252.041	253.566	171.049	277.315	317.647	170.661	175.538	261.439	306.910	175.252	179.035	179.594	184.695	275.793	183.762	-8191	255	
39998.531	1	1	0	0	0.19283	0.15343	0.28361	0.063124	0.10137	0.19178	0.15191	0.32083	0.038694	0.13493	0.057663	0.39447	0.20796	0.18476	0.1758	0.23152	-2.9021	-3.1417	-2.7479	-3.3958	-3.0292	-3.0833	-3.35	-3.1833	-3.2375	-3.3521	-2.9542	-3.0396	-3.0479	-2.9417	-3.0812	-2.9271	379.364	164.940	214.634	237.421	371.606	477.784	414.022	443.843	393.258	223.458	315.587	467.452	160.770	448.115	454.727	398.758	0.00094231	0.00051979	0.0001274	1293.2	4.3713e-06	4.0762e-06	1287	347.61	6.3772e-06	5.2454e-06	398.97	134.26	116.92	39.805	5.7586e-06	49.349	0.00065863	0.00059796	0.00015878	1315.5	5.909e-06	6.4633e-06	1312.2	355.25	6.0861e-06	6.4557e-06	408.88	137.41	119.23	40.973	6.2195e-06	51.035	498.866	235.721	250.053	171.130	273.709	289.287	170.544	175.796	265.582	296.462	175.152	178.982	179.634	184.877	294.940	183.595	-8191	255	
39998.629	1	1	0	0	0.12465	0.19651	0.13758	0.2343	0.14249	0.21845	0.25448	0.29676	0.14866	0.22499	0.11274	0.20218	0.17185	0.17045	0.04072	0.33901	-2.5979	-2.9729	-2.7604	-3.3104	-3	-2.9833	-3.3958	-2.9979	-2.9792	-3.0583	-2.9875	-3.275	-3.2458	-2.9333	-3.2083	-2.8479	280.895	452.871	166.402	510.937	369.092	356.386	479.924	321.671	207.197	364.162	463.642	488.043	452.772	424.238	482.138	456.176	0.00095155	0.00064528	0.00013333	1290.3	5.676e-06	4.3464e-06	1287.2	347	6.5555e-06	4.4309e-06	397.97	134.58	116.51	39.505	5.7023e-06	49.165	0.00067385	0.00058119	0.0001581	1313.4	6.3287e-06	6.4298e-06	1312.5	354.53	6.489e-06	6.3341e-06	408.43	137.52	119.19	40.886	5.901e-06	50.939	499.443	267.892	260.132	171.086	271.425	315.445	170.804	175.546	258.703	309.404	175.283	179.018	179.758	184.673	279.940	183.650	-8191	255	
39998.699	1	1	0	0	0.16532	0.10544	0.13799	0.23928	0.24918	0.24327	0.19101	0.23748	0.072038	0.30803	0.18916	0.11707	0.25705	0.16425	0.2801	0.30896	-2.7	-3.0792	-2.775	-3.1937	-3.0104	-2.7396	-3.4417	-3.1208	-2.9458	-3.1771	-3.0083	-3.2271	-3.2208	-3.1063	-3.1417	-3.05	332.989	325.736	322.631	420.711	340.093	260.364	392.440	378.967	365.020	210.333	233.821	249.000	410.275	375.695	236.976	425.560	0.00091634	0.0005347	0.00013417	1293.9	5.793e-06	3.9076e-06	1286.4	348.61	7.4298e-06	4.5122e-06	397.16	135.31	116.54	39.602	5.8915e-06	49.376	0.00068485	0.00057303	0.00015057	1314	6.4231e-06	6.5681e-06	1312.5	354.84	6.7467e-06	6.1171e-06	407.91	137.71	119.11	40.911	5.9205e-06	51.09	498.842	242.705	253.198	171.157	273.285	297.334	170.650	175.699	268.124	304.716	175.257	178.883	179.492	184.852	283.630	183.815	-8191	255	
39998.820	1	1	0	0	0.14473	0.19314	0.094284	0.28723	0.07023	0.31538	0.27149	0.27156	0.17602	0.23276	0.17208	0.11534	0.088439	0.16073	0.20331	0.12613	-2.5917	-3.2354	-2.8125	-3.1979	-3.1104	-2.9333	-3.3583	-3.1875	-3.0708	-3.3833	-2.8563	-3.2479	-3.3187	-2.9604	-3.1813	-3.1917	499.279	231.813	510.242	465.694	281.767	246.846	476.876	489.602	402.612	468.735	351.492	359.303	506.927	170.518	407.488	171.843	0.00088875	0.00052486	0.0001529	1290.8	4.8407e-06	5.6469e-06	1288	347.43	7.1782e-06	5.196e-06	399.53	134.68	116.21	39.767	6.6992e-06	49.239	0.0006674	0.0005778	0.00014955	1315.6	6.4598e-06	6.6033e-06	1311	354.86	6.6965e-06	5.9256e-06	408.13	137.51	119.11	40.948	5.8605e-06	51.053	497.013	245.858	252.026	171.115	270.737	307.582	170.710	175.594	269.889	309.081	175.082	178.961	179.657	184.709	282.935	183.756	-8191	255	
39998.914	1	1	0	0	0.26122	0.36653	0.18256	0.32098	0.14243	0.12953	0.28417	0.20664	0.098002	0.064258	0.026286	0.088003	0.23791	0.23215	0.25156	0.20943	-2.4083	-3.0458	-2.8667	-3.2229	-3.1958	-2.9271	-3.4	-3.1437	-2.9354	-3.2188	-3.0458	-3.0458	-3.0583	-3.0563	-3.2542	-3.25	234.264	287.803	360.187	459.565	283.021	208.527	164.217	422.811	503.545	494.746	289.102	421.926	209.310	485.148	176.251	444.704	0.00090676	0.00054032	0.00011349	1293.9	5.8356e-06	5.0827e-06	1288.6	348	9.2106e-06	5.1036e-06	396.68	134.68	116.69	39.756	5.7541e-06	49.242	0.0006542	0.0005559	0.00015182	1314.9	6.3633e-06	6.0539e-06	1313	354.78	6.317e-06	6.1722e-06	407.48	137.66	119.26	40.943	5.8634e-06	50.968	499.385	258.268	267.027	171.302	281.292	293.573	170.632	175.735	262.039	327.072	175.204	179.191	179.593	184.681	284.008	183.825	-8191	255	
39999.012	1	1	0	0	0.22498	0.085016	0.053007	0.1537	0.2244	0.26438	0.27823	0.089042	0.11094	0.15215	0.048977	0.057002	0.27979	0.35603	0.045633	0.13536	-2.4333	-3.2792	-2.9333	-3.2271	-3.2667	-3.0396	-3.3	-3.2917	-2.9562	-3.1813	-3.175	-3.0396	-3.2708	-3.1021	-3.0062	-3.2979	420.178	217.055	163.885	173.394	171.608	348.604	472.492	484.282	511.929	178.053	260.939	205.219	224.736	167.028	352.425	168.652	0.00089511	0.00054739	0.00012677	1285.3	4.9523e-06	4.8742e-06	1289.4	348.69	8.6913e-06	5.175e-06	398.69	134.71	116.77	39.737	4.5648e-06	49.216	0.0006617	0.00054701	0.00015378	1313.9	6.0917e-06	5.8517e-06	1312.8	354.8	6.5834e-06	5.8089e-06	408.34	137.39	119.17	40.945	6.101e-06	51.023	498.859	240.303	256.104	171.086	260.328	311.202	170.533	175.702	261.560	297.200	175.078	179.109	179.905	184.963	282.431	183.998	-8191	255	
39999.129	1	1	0	0	0.3361	0.1559	0.2058	0.46373	0.17969	0.12441	0.15104	0.19736	0.16226	0.19463	0.061652	0.090767	0.31947	0.28735	0.10602	0.10224	-2.4521	-3.2729	-2.8104	-3.05	-3.4271	-3.0104	-3.3604	-3.3021	-2.8667	-3.2354	-2.9625	-2.9417	-3.3583	-2.8333	-3.1292	-3.2604	304.628	378.670	515.283	508.807	201.246	230.033	164.129	516.401	449.599	384.963	500.127	485.785	508.077	486.356	430.245	252.850	0.00091413	0.00057226	0.00013768	1294.6	6.017e-06	5.1254e-06	1291.4	347.94	8.1916e-06	4.9454e-06	398.84	134.58	116.24	39.731	4.7638e-06	49.4	0.00065492	0.00054585	0.00015469	1316.9	5.9192e-06	6.1547e-06	1314.3	354.91	6.1818e-06	5.7769e-06	408.23	137.44	119.05	40.926	6.2534e-06	51.03	499.049	254.428	252.359	171.352	289.966	292.765	170.828	175.685	269.190	312.161	175.232	178.920	179.629	184.797	273.331	183.820	-8191	255	
39999.227	1	1	0	0	0.31326	0.40988	0.18734	0.33436	0.16108	0.26972	0.32821	0.37042	0.099259	0.13761	0.15643	0.22959	0.25418	0.20124	0.22923	0.051917	-2.4417	-2.9437	-3.0021	-3.1354	-3.1625	-2.9625	-3.2729	-3.4375	-2.9229	-3.2167	-3.225	-3.1021	-3.375	-3.0583	-2.9458	-3.2833	463.514	213.881	238.023	161.170	203.400	239.520	504.986	472.928	372.143	335.762	194.867	211.273	178.832	485.375	435.394	270.938	0.00092133	0.00038543	0.00011707	1291.3	5.455e-06	4.0383e-06	1291.8	348.04	7.8688e-06	5.7291e-06	399	134.66	116.31	39.607	6.2533e-06	49.418	0.0006652	0.00054405	0.00016573	1314.2	6.0666e-06	6.4674e-06	1313.5	355.08	6.5445e-06	6.2946e-06	408.9	137.57	119.07	40.871	6.7878e-06	51.01	499.596	261.924	241.702	171.220	287.581	297.852	170.675	175.799	262.947	308.369	174.958	179.001	179.525	184.809	281.720	183.874	-8191	255	
39999.297	1	1	0	0	0.1196	0.15652	0.19172	0.36752	0.12891	0.1646	0.09593	0.16531	0.035613	0.091984	0.42918	0.15441	0.21339	0.21416	0.11305	0.076271	-2.4542	-3.0354	-3.0208	-3.0312	-3.0146	-2.9646	-3.1646	-3.4062	-2.8208	-3.1208	-3.2438	-2.9854	-3.2062	-3.0708	-3.0812	-3.2792	223.182	269.277	217.692	499.446	499.938	516.544	217.766	482.181	296.868	264.275	493.768	182.356	179.725	439.707	382.579	415.030	0.00096851	0.0004874	0.00012469	1290.6	5.4397e-06	6.4557e-06	1293.7	349.56	6.8941e-06	4.755e-06	398.49	134.76	116.75	39.684	6.3684e-06	49.371	0.00067357	0.00059052	0.00016922	1315.4	6.1664e-06	6.6115e-06	1314.7	355.71	6.4301e-06	6.6637e-06	408.44	137.49	119.34	40.901	6.9287e-06	50.986	500.142	243.958	243.313	171.210	284.943	302.922	170.567	175.649	263.568	317.098	175.207	179.008	179.437	184.557	274.462	183.682	-8191	255	
39999.395	1	1	0	0	0.44091	0.12872	0.1618	0.25534	0.17176	0.24493	0.19908	0.17146	0.092236	0.1482	0.098845	0.19929	0.16384	0.13858	0.0079117	0.13657	-2.4562	-3.0062	-2.9208	-3.0625	-3.2604	-2.9771	-3.3021	-3.5563	-3.0062	-3.1417	-3.3167	-2.9437	-3.1458	-3.05	-3.0542	-3.4062	407.467	339.279	170.924	436.714	414.677	449.588	441.070	452.152	481.167	317.083	468.966	200.404	455.427	501.187	356.259	161.481	0.00094904	0.00057158	0.00015691	1292.5	4.0977e-06	4.8787e-06	1292.9	347.99	8.6368e-06	5.3959e-06	398.39	134.65	116.57	39.483	4.0827e-06	49.044	0.00067364	0.00062723	0.00016784	1315.9	5.9287e-06	6.4682e-06	1316.1	355.62	6.4381e-06	6.5724e-06	408.7	137.58	119.27	40.841	6.5863e-06	50.886	500.433	240.802	239.515	171.229	259.231	312.705	170.578	175.793	266.312	313.917	175.295	179.107	179.819	184.745	300.399	183.889	-8191	255	
39999.516	1	1	0	0	0.06965	0.16514	0.11157	0.40282	0.061952	0.11547	0.38159	0.27461	0.1571	0.14433	0.31388	0.075304	0.13737	0.11787	0.022361	0.22542	-2.5812	-3.0104	-3.1979	-2.9979	-3.1813	-2.9875	-2.9458	-3.2521	-3.1083	-3.0646	-3.4	-3.0146	-3.2646	-3.1937	-2.8187	-3.4208	514.549	273.481	477.200	475.060	333.770	354.620	454.499	497.934	363.773	239.711	512.301	472.604	355.516	223.137	461.694	427.906	0.000976	0.00054314	0.00011182	1288.6	5.2848e-06	5.0824e-06	1287.4	348.68	7.174e-06	4.8488e-06	398.67	134.68	116.64	39.664	5.5601e-06	49.422	0.0006982	0.00063345	0.00016551	1314.5	6.3443e-06	6.6926e-06	1314.8	355.52	6.5131e-06	7.3401e-06	409.04	137.7	119.39	40.886	6.4275e-06	51.019	498.096	232.251	233.017	171.279	274.552	310.843	170.833	175.490	271.378	304.700	175.258	178.835	179.631	184.885	289.542	183.757	-8191	255	
39999.609	1	1	0	0	0.21799	0.12727	0.018199	0.26449	0.18543	0.15459	0.10628	0.36962	0.12293	0.17516	0.11386	0.18956	0.20171	0.027134	0.33614	0.052587	-2.6188	-3.025	-3.2292	-3.0021	-3.1354	-3.1562	-3.2542	-3.275	-2.9104	-3.1104	-3.2583	-2.9562	-3.2333	-3.0083	-2.7396	-3.1917	300.724	426.770	285.317	495.915	280.950	171.450	469.888	454.942	237.445	374.304	435.204	424.106	495.385	499.809	461.800	382.449	0.00092859	0.00053456	0.00013092	1293.1	6.6012e-06	6.1541e-06	1292.9	349.71	6.6262e-06	5.1526e-06	399.28	134.51	116.45	39.718	6.3588e-06	49.209	0.00068002	0.00065563	0.00016479	1318.6	6.5161e-06	6.9325e-06	1318	355.76	6.6436e-06	6.953e-06	409	137.65	119.32	40.92	6.335e-06	51.071	501.142	237.077	258.180	171.068	266.336	312.444	170.616	175.491	252.066	305.372	175.063	179.005	179.612	184.654	297.875	183.775	-8191	255	
39999.707	1	1	0	0	0.26085	0.045057	0.15408	0.26574	0.1241	0.064484	0.42629	0.22451	0.089814	0.40383	0.27935	0.25425	0.21416	0.12959	0.073618	0.11079	-2.6312	-2.8563	-3.1833	-3.0458	-3.0438	-3.1667	-3.1271	-3.3104	-2.8396	-3.1146	-3.3479	-3.0167	-3.1896	-3.4521	-2.8708	-3.1875	388.088	399.226	370.381	471.524	167.139	380.253	469.893	509.935	276.446	333.827	275.275	500.153	186.828	467.028	472.736	218.455	0.00093601	0.0004463	0.00013403	1294.8	4.7129e-06	4.9224e-06	1296.6	349.3	7.2136e-06	5.9947e-06	400.03	134.68	116.53	39.772	5.4005e-06	49.446	0.00069618	0.00065469	0.00015449	1318.7	6.5304e-06	6.9898e-06	1318.7	356.1	6.7667e-06	6.9357e-06	409.49	137.76	119.4	40.969	6.1783e-06	51.073	498.445	257.082	250.038	171.085	285.719	297.248	170.663	175.496	268.725	300.952	175.148	178.884	179.575	184.790	283.457	183.622	-8191	255	
39999.805	1	1	0	0	0.19289	0.13804	0.32719	0.42916	0.21755	0.14203	0.25729	0.091896	0.21064	0.25254	0.048211	0.15878	0.22114	0.10107	0.22926	0.28563	-2.5229	-2.8042	-3.1958	-3.2188	-2.95	-3.2417	-2.9104	-3.2792	-2.9625	-2.9313	-3.3375	-3.1104	-3.1271	-3.4583	-3.0021	-3.2083	365.118	383.480	420.377	456.196	469.469	161.413	449.455	405.466	417.838	176.060	368.655	459.522	173.777	307.199	487.367	490.762	0.00092376	0.00050772	0.00014938	1299.4	5.4663e-06	4.1055e-06	1296.2	349.78	6.7345e-06	4.6517e-06	399.56	135.17	116.56	39.82	5.9515e-06	49.525	0.00069741	0.00063193	0.00015798	1322	6.961e-06	6.8703e-06	1320.6	356.33	7.0659e-06	6.8839e-06	409.91	137.92	119.5	41.016	6.1501e-06	51.09	499.794	239.460	250.871	171.048	280.025	288.807	170.765	175.668	255.363	314.843	174.970	178.975	179.754	185.073	278.063	183.617	-8191	255	
39999.898	1	1	0	0	0.29748	0.041654	0.096321	0.18746	0.083848	0.14563	0.06546	0.16167	0.15155	0.16863	0.1571	0.13464	0.10722	0.30586	0.13604	0.24641	-2.7583	-2.8083	-3.0958	-3.0771	-2.9	-3.2167	-2.925	-3.0708	-3.1292	-2.8688	-3.2146	-3.2062	-3.1625	-3.3979	-2.7812	-3.0917	337.603	186.001	192.615	503.758	474.155	281.676	506.856	472.011	228.707	330.824	225.916	390.223	369.968	441.047	435.976	508.038	0.00090629	0.00053676	0.00013954	1300.3	4.47e-06	5.1096e-06	1292.8	349.59	6.362e-06	4.7699e-06	400.92	135.5	117.03	39.743	5.0362e-06	49.158	0.00069081	0.00064494	0.00016336	1323.1	6.8523e-06	6.727e-06	1321.4	356.68	6.823e-06	6.6793e-06	409.97	138.01	119.49	41.013	6.3047e-06	51.136	500.302	247.085	251.514	171.069	272.803	313.512	170.691	175.525	278.030	291.009	175.153	179.253	179.633	184.616	266.786	183.770	-8191	255	
39999.992	1	1	0	0	0.24042	0.22389	0.14394	0.2083	0.093814	0.12955	0.13227	0.17613	0.14371	0.064819	0.25013	0.18426	0.34014	0.30719	0.16545	0.24936	-2.4958	-2.7625	-2.9917	-3.1271	-2.8312	-3.3792	-3.0542	-3.1604	-3.1063	-2.7667	-3.2104	-3.0625	-2.7438	-3.3208	-2.9229	-3.0583	496.448	411.228	189.069	494.914	292.843	211.342	509.611	500.231	360.949	484.880	511.639	517.031	511.557	470.482	421.218	480.720	0.00093467	0.00054773	0.00015238	1302.8	5.924e-06	4.7462e-06	1296.4	349.82	8.0038e-06	4.814e-06	401.59	135.38	117.58	39.83	6.5895e-06	49.625	0.0006903	0.00062304	0.00016246	1325.5	6.8713e-06	6.3782e-06	1322.8	357.03	6.9823e-06	6.3661e-06	409.85	138.12	119.86	41.038	6.7972e-06	51.208	501.199	255.245	265.703	170.969	281.381	314.282	170.593	175.668	268.646	302.649	175.359	178.956	179.616	184.664	289.974	183.887	-8191	255	
40000.094	1	1	0	0	0.1176	0.17466	0.09375	0.20032	0.19199	0.086406	0.41701	0.33985	0.12605	0.11528	0.083681	0.082044	0.3195	0.22101	0.14716	0.062141	-2.8063	-2.7396	-3.1104	-3.0729	-2.8229	-3.0854	-3.2938	-3.1479	-3.3	-2.8375	-3.2917	-3.1979	-2.9521	-3.3125	-2.9354	-3.0917	236.708	227.520	362.796	163.288	196.097	477.220	423.355	430.152	396.206	342.879	451.339	191.410	440.428	395.619	195.510	188.584	0.00091191	0.00051445	0.00011388	1301	6.0304e-06	5.3703e-06	1299.2	349.52	7.895e-06	5.5091e-06	399.86	134.36	117.15	39.821	4.5418e-06	49.502	0.00068056	0.00059941	0.00016659	1326.9	6.7905e-06	6.5002e-06	1325.1	357.06	6.841e-06	6.5157e-06	410.68	137.93	119.77	41.09	6.7127e-06	51.224	497.867	256.059	257.726	171.064	281.365	290.619	170.606	175.493	256.508	311.087	175.188	178.980	179.609	184.818	295.088	183.468	-8191	255	
40000.211	1	1	0	0	0.20242	0.055704	0.11449	0.30844	0.13765	0.20813	0.19759	0.36272	0.19464	0.23103	0.20608	0.33045	0.25564	0.16048	0.31228	0.15022	-2.7792	-2.8625	-2.8917	-3.2792	-2.9167	-3.0979	-3.1104	-3.1979	-3.1583	-2.9167	-3.1646	-3.2521	-2.8542	-3.1833	-2.9688	-2.9688	178.572	313.352	471.303	479.453	260.575	179.612	433.524	474.100	352.421	218.789	471.988	478.751	497.122	430.545	393.877	448.748	0.00093805	0.00050334	0.00014195	1301.1	6.2719e-06	6.7099e-06	1305.5	350.88	8.5833e-06	7.1513e-06	402.2	135.22	117.39	39.879	5.6982e-06	49.423	0.00068882	0.00063229	0.00017842	1328.4	6.5881e-06	6.6688e-06	1327.7	357.83	6.5332e-06	6.8831e-06	411.22	138.27	119.87	41.148	6.9756e-06	51.259	499.299	263.615	251.721	171.086	275.464	314.902	170.509	175.532	263.124	306.672	175.209	178.964	179.553	184.717	279.077	183.767	-8191	255	
40000.309	1	1	0	0	0.29665	0.028499	0.25398	0.26316	0.17947	0.072257	0.28531	0.28271	0.10075	0.16084	0.3069	0.18074	0.12972	0.17323	0.057212	0.045005	-2.9229	-2.8312	-3.0604	-3.2917	-2.8521	-3.0458	-3.2417	-2.9708	-3.3646	-2.8979	-3.0542	-3.1646	-2.8854	-2.9792	-3.0083	-2.9833	231.487	356.971	200.783	487.554	192.976	230.658	426.971	471.727	331.829	308.270	475.784	513.915	171.832	267.551	343.028	281.099	0.00095989	0.00033596	0.00013626	1312.4	5.0415e-06	4.8691e-06	1302.1	351.03	9.1636e-06	3.8823e-06	402.18	135.62	117.84	40.029	4.9434e-06	49.409	0.0006815	0.00066076	0.00018619	1334.6	6.69e-06	6.763e-06	1331.6	358.43	6.6858e-06	7.1987e-06	411.95	138.55	120.17	41.212	6.9987e-06	51.342	498.790	232.510	256.658	171.115	272.025	322.908	170.549	175.730	260.393	306.662	175.173	179.085	179.391	184.767	283.760	183.664	-8191	255	
40000.402	1	1	0	0	0.11217	0.078564	0.30865	0.22157	0.2029	0.049415	0.16721	0.12173	0.072954	0.39143	0.10795	0.2591	0.059105	0.15602	0.095587	0.019719	-2.8396	-2.9083	-2.9854	-3.3875	-3.0021	-3.1875	-3.2854	-2.9271	-3.1917	-2.8833	-2.8438	-3.375	-3.075	-3.1417	-2.9875	-2.8312	296.467	404.429	430.546	331.848	503.539	304.739	429.392	183.726	293.073	395.229	180.839	454.876	451.913	497.616	163.327	435.027	0.00091752	0.00071355	0.00011791	1312.6	6.1325e-06	3.6538e-06	1310.4	351.39	8.4157e-06	5.6612e-06	403.44	135.83	117.8	39.874	6.6625e-06	49.841	0.00067609	0.00066445	0.0001876	1338.3	6.6357e-06	7.1748e-06	1335.8	359.09	6.8056e-06	7.4773e-06	413	138.78	120.46	41.234	7.4999e-06	51.428	498.101	248.505	243.996	171.022	288.224	310.505	170.575	175.788	253.689	294.057	175.000	178.999	179.446	184.855	291.859	183.624	-8191	255	
#DATA ENDS
