BOXY.EXE: ISS Imagent and Oximeter Data Acquisition Program Version 0.80
Ascii Record File

#ACQ INFORMATION
2  Detector Channels 
16  External MUX Channels 
1  Auxiliary Channels 
5000  Waveform (CCF) Frequency (Hz)
1  Waveforms Skipped 
30  Waveforms Averaged 
1  Cycles Averaged 
16  Acquisitions per Waveform 
10.0806  Updata Rate (Hz) 

#FILE INFORMATION
TRUE -- External MUX Channel results are PARSED.
FALSE -- AC DC and Phase are NOT grouped.
TRUE -- Companion Program Settings File CREATED.
FALSE -- AC data not excluded
FALSE -- DC data not excluded
FALSE -- Phase data not excluded
FALSE -- Auxillary Chn. data not excluded
Tab delimiters

#CALIBRATION STATE
TRUE -- Waveform Calibration Values APPLIED.


#AUX CALIBRATION VALUES
Val Type	aux-1	

Term	1.0000e+00	
Factor	0.0000e+00	


#WF CALIBRATION VALUES
A = Detector Channel
Val Type	A-AC1	A-AC2	A-AC3	A-AC4	A-AC5	A-AC6	A-AC7	A-AC8	A-AC9	A-AC10	A-AC11	A-AC12	A-AC13	A-AC14	A-AC15	A-AC16	A-DC1	A-DC2	A-DC3	A-DC4	A-DC5	A-DC6	A-DC7	A-DC8	A-DC9	A-DC10	A-DC11	A-DC12	A-DC13	A-DC14	A-DC15	A-DC16	A-Ph1	A-Ph2	A-Ph3	A-Ph4	A-Ph5	A-Ph6	A-Ph7	A-Ph8	A-Ph9	A-Ph10	A-Ph11	A-Ph12	A-Ph13	A-Ph14	A-Ph15	A-Ph16	

Term	0.00000e+00	0.00000e+00	0.00000e+00	0.00000e+00	0.00000e+00	0.00000e+00	0.00000e+00	0.00000e+00	0.00000e+00	0.00000e+00	0.00000e+00	0.00000e+00	0.00000e+00	0.00000e+00	0.00000e+00	0.00000e+00	0.00000e+00	0.00000e+00	0.00000e+00	0.00000e+00	0.00000e+00	0.00000e+00	0.00000e+00	0.00000e+00	0.00000e+00	0.00000e+00	0.00000e+00	0.00000e+00	0.00000e+00	0.00000e+00	0.00000e+00	0.00000e+00	0.00000e+00	0.00000e+00	0.00000e+00	0.00000e+00	0.00000e+00	0.00000e+00	0.00000e+00	0.00000e+00	0.00000e+00	0.00000e+00	0.00000e+00	0.00000e+00	0.00000e+00	0.00000e+00	0.00000e+00	0.00000e+00	
Factor	1.00000e+00	1.00000e+00	1.00000e+00	1.00000e+00	1.00000e+00	1.00000e+00	1.00000e+00	1.00000e+00	1.00000e+00	1.00000e+00	1.00000e+00	1.00000e+00	1.00000e+00	1.00000e+00	1.00000e+00	1.00000e+00	1.00000e+00	1.00000e+00	1.00000e+00	1.00000e+00	1.00000e+00	1.00000e+00	1.00000e+00	1.00000e+00	1.00000e+00	1.00000e+00	1.00000e+00	1.00000e+00	1.00000e+00	1.00000e+00	1.00000e+00	1.00000e+00	X	X	X	X	X	X	X	X	X	X	X	X	X	X	X	X	

B = Detector Channel
Val Type	B-AC1	B-AC2	B-AC3	B-AC4	B-AC5	B-AC6	B-AC7	B-AC8	B-AC9	B-AC10	B-AC11	B-AC12	B-AC13	B-AC14	B-AC15	B-AC16	B-DC1	B-DC2	B-DC3	B-DC4	B-DC5	B-DC6	B-DC7	B-DC8	B-DC9	B-DC10	B-DC11	B-DC12	B-DC13	B-DC14	B-DC15	B-DC16	B-Ph1	B-Ph2	B-Ph3	B-Ph4	B-Ph5	B-Ph6	B-Ph7	B-Ph8	B-Ph9	B-Ph10	B-Ph11	B-Ph12	B-Ph13	B-Ph14	B-Ph15	B-Ph16	

Term	0.00000e+00	0.00000e+00	0.00000e+00	0.00000e+00	0.00000e+00	0.00000e+00	0.00000e+00	0.00000e+00	0.00000e+00	0.00000e+00	0.00000e+00	0.00000e+00	0.00000e+00	0.00000e+00	0.00000e+00	0.00000e+00	0.00000e+00	0.00000e+00	0.00000e+00	0.00000e+00	0.00000e+00	0.00000e+00	0.00000e+00	0.00000e+00	0.00000e+00	0.00000e+00	0.00000e+00	0.00000e+00	0.00000e+00	0.00000e+00	0.00000e+00	0.00000e+00	-1.27073e+02	-1.37189e+02	-1.14034e+02	-1.82642e+02	-6.77074e+01	-7.36674e+01	-1.55275e+02	-1.62015e+02	-8.16783e+01	-5.49491e+01	-1.72245e+02	-1.69834e+02	-1.79515e+02	-1.77360e+02	-7.51326e+01	-1.49195e+02	
Factor	1.75894e-05	1.35949e-04	4.03037e-05	1.76583e-01	1.21743e-06	1.73254e-06	1.64385e-01	4.98919e-02	1.01420e-06	1.41505e-06	9.45280e-02	2.88164e-02	2.76675e-02	9.24122e-03	1.14402e-06	1.32298e-02	1.94680e-06	2.10307e-06	5.83844e-07	8.62186e-02	2.28121e-08	2.29967e-08	7.60499e-02	2.45492e-02	2.27457e-08	2.30251e-08	4.47580e-02	1.37852e-02	1.36628e-02	4.53901e-03	2.28964e-08	6.30002e-03	X	X	X	X	X	X	X	X	X	X	X	X	X	X	X	X	



#DISTANCE SETTINGS
A = Detector Channel
A-1	A-2	A-3	A-4	A-5	A-6	A-7	A-8	A-9	A-10	A-11	A-12	A-13	A-14	A-15	A-16	

2.5000e+00	3.0000e+00	2.5000e+00	3.0000e+00	2.0000e+00	3.0000e+00	1.5000e+00	3.0000e+00	3.0000e+00	3.0000e+00	3.0000e+00	3.0000e+00	3.0000e+00	3.0000e+00	1.5000e+00	3.0000e+00	

B = Detector Channel
B-1	B-2	B-3	B-4	B-5	B-6	B-7	B-8	B-9	B-10	B-11	B-12	B-13	B-14	B-15	B-16	

1.0000e+01	1.0000e+01	1.0000e+01	1.4400e+00	1.0000e+01	1.0000e+01	1.5100e+00	1.9400e+00	1.0000e+01	1.0000e+01	1.9900e+00	2.4900e+00	2.4100e+00	2.9000e+00	1.0000e+01	2.9800e+00	




#DATA BEGINS
time	group	step	mark	flag	A-AC1	A-AC2	A-AC3	A-AC4	A-AC5	A-AC6	A-AC7	A-AC8	A-AC9	A-AC10	A-AC11	A-AC12	A-AC13	A-AC14	A-AC15	A-AC16	A-DC1	A-DC2	A-DC3	A-DC4	A-DC5	A-DC6	A-DC7	A-DC8	A-DC9	A-DC10	A-DC11	A-DC12	A-DC13	A-DC14	A-DC15	A-DC16	A-Ph1	A-Ph2	A-Ph3	A-Ph4	A-Ph5	A-Ph6	A-Ph7	A-Ph8	A-Ph9	A-Ph10	A-Ph11	A-Ph12	A-Ph13	A-Ph14	A-Ph15	A-Ph16	B-AC1	B-AC2	B-AC3	B-AC4	B-AC5	B-AC6	B-AC7	B-AC8	B-AC9	B-AC10	B-AC11	B-AC12	B-AC13	B-AC14	B-AC15	B-AC16	B-DC1	B-DC2	B-DC3	B-DC4	B-DC5	B-DC6	B-DC7	B-DC8	B-DC9	B-DC10	B-DC11	B-DC12	B-DC13	B-DC14	B-DC15	B-DC16	B-Ph1	B-Ph2	B-Ph3	B-Ph4	B-Ph5	B-Ph6	B-Ph7	B-Ph8	B-Ph9	B-Ph10	B-Ph11	B-Ph12	B-Ph13	B-Ph14	B-Ph15	B-Ph16	aux-1	digaux	

32079.035	1	1	0	256	0.23919	0.15944	0.17425	0.20774	0.21664	0.13175	0.48026	0.2433	0.21768	0.11665	0.0808	0.2225	0.2582	0.12928	0.24177	0.32859	-2.8458	-2.8292	-3.3333	-3.2188	-3.2	-3.5542	-3.3708	-3.4125	-3.3021	-3	-3.4125	-3.2062	-3.2375	-3.5833	-3.125	-3.2354	162.414	318.707	490.494	466.550	156.251	332.336	482.678	435.276	325.686	357.513	358.810	217.947	443.952	429.796	404.845	244.686	0.00035887	0.00042588	6.2976e-05	1380.2	6.5132e-07	1.302e-05	1461.7	297.19	3.1983e-06	4.8053e-06	364.31	103.68	82.414	24.08	7.2954e-06	32.549	0.0007528	0.00078527	0.00021784	1370.6	8.5618e-06	8.5416e-06	1451.6	299.07	8.4567e-06	8.5655e-06	368.15	106.1	84.83	25.385	8.5279e-06	34.581	195.210	169.791	233.245	162.925	208.320	318.760	163.135	169.785	187.126	296.364	169.803	175.685	175.744	182.441	319.416	182.471	-8191	255	
32079.105	1	1	0	0	0.078611	0.16667	0.085349	0.20112	0.11906	0.036154	0.18746	0.084063	0.18291	0.15759	0.033314	0.054345	0.11697	0.073236	0.25458	0.0279	-2.9396	-2.9813	-3.4292	-3.2896	-3.1417	-3.4417	-3.25	-3.4021	-3.2583	-3.1646	-3.4208	-3.1833	-3.0583	-3.5938	-3.2396	-3.1854	260.497	173.436	279.210	500.171	407.601	267.941	153.097	436.038	323.996	339.571	229.482	448.145	445.866	359.240	424.258	216.335	0.00035922	0.00038976	0.00022874	1379.4	2.5613e-06	9.1946e-06	1456.3	296.68	3.6891e-06	2.511e-06	363.22	102.88	81.625	23.769	1.6797e-06	32.361	0.00074836	0.0007836	0.0002154	1366.1	8.5202e-06	8.4895e-06	1444.1	297.35	8.4848e-06	8.4899e-06	367.68	105.56	84.225	25.02	8.5666e-06	34.139	202.741	184.190	275.980	163.181	307.690	353.702	163.099	169.874	262.844	336.387	169.695	175.864	176.014	182.379	164.276	182.095	-8191	255	
32079.227	1	1	0	0	0.0515	0.19821	0.11438	0.21619	0.14344	0.067253	0.32574	0.25318	0.27018	0.087464	0.076213	0.27313	0.42499	0.079209	0.13643	0.0828	-2.925	-2.8354	-3.2438	-3.4354	-3.0354	-3.4917	-3.3042	-3.2812	-3.4938	-3.0292	-3.3396	-3.2958	-2.9979	-3.4604	-3.0438	-3.2333	208.526	497.773	262.455	435.376	509.133	428.452	439.500	452.129	358.179	456.719	291.573	474.376	177.463	284.672	397.313	384.684	0.00031804	0.00061918	7.0825e-05	1371.5	7.2976e-06	8.9302e-06	1452.3	293.88	2.656e-06	2.8308e-06	359.74	101.26	80.527	23.254	6.1868e-07	31.764	0.000745	0.00077441	0.00021737	1360.9	8.5517e-06	8.4314e-06	1439.5	294.88	8.4786e-06	8.4263e-06	363.7	103.89	82.799	24.463	8.4347e-06	33.574	199.182	230.031	225.164	163.315	273.368	294.280	163.145	169.856	246.916	381.667	169.658	175.852	176.060	182.927	359.178	182.567	-8191	255	
32079.322	1	1	0	0	0.14699	0.17155	0.12659	0.29917	0.14759	0.18996	0.22712	0.28709	0.13202	0.020766	0.25796	0.098095	0.29882	0.19865	0.092361	0.18709	-2.9167	-2.95	-3.2188	-3.3979	-3.1125	-3.2521	-3.3312	-3.2812	-3.3979	-3.0125	-3.3021	-3.3167	-2.9042	-3.4417	-3.1937	-3.2833	232.277	320.984	186.986	428.889	471.692	201.627	471.105	451.937	339.027	447.576	411.261	193.806	317.027	494.704	381.840	425.031	0.00037676	0.00052745	0.00032356	1360.8	5.9826e-06	6.2492e-06	1434.2	290.53	1.4917e-06	8.4592e-06	355.78	99.708	79.91	22.812	3.6435e-06	31.37	0.00073894	0.0007637	0.00021175	1348.8	8.3145e-06	8.4155e-06	1426.8	292.05	8.2418e-06	8.39e-06	360.96	102.37	81.922	24.042	8.244e-06	33.103	196.290	273.173	235.325	163.232	284.391	408.345	163.186	169.853	290.487	178.107	169.658	175.807	176.160	182.820	297.123	182.768	-8191	255	
32079.420	1	1	0	0	0.12754	0.20193	0.17658	0.13847	0.041099	0.096779	0.18998	0.16478	0.21859	0.071027	0.076237	0.043216	0.13815	0.51494	0.064153	0.13993	-3.0042	-3.0021	-3.1667	-3.45	-2.9833	-3.2313	-3.4854	-3.1729	-3.5042	-3.1208	-3.3104	-3.3833	-2.9979	-3.3812	-3.2792	-3.0271	456.432	333.283	154.699	193.383	173.971	310.886	429.815	329.828	248.490	357.609	354.813	493.386	434.462	442.199	446.889	431.595	0.00032385	0.00033555	9.1852e-05	1352.8	6.9175e-06	6.7669e-06	1420.8	288.02	4.9201e-06	4.6202e-06	352.92	99.307	78.639	22.644	2.8083e-06	31.228	0.00072988	0.00076682	0.00021139	1338.4	8.3423e-06	8.3907e-06	1413.9	288.62	8.4068e-06	8.4738e-06	357.66	101.71	81.003	23.833	8.507e-06	32.926	200.805	276.175	281.105	163.331	298.176	269.327	163.177	170.198	285.542	364.689	170.332	175.849	176.154	182.978	211.415	182.908	-8191	255	
32079.539	1	1	0	0	0.17367	0.16118	0.10139	0.27536	0.031296	0.25113	0.4818	0.23369	0.1581	0.15238	0.21987	0.23126	0.36182	0.17611	0.1235	0.15396	-2.8854	-3.1646	-3.1	-3.5458	-3.1125	-3.3187	-3.4271	-3.1229	-3.5833	-3.2854	-3.2646	-3.4208	-3.0563	-3.3312	-3.1583	-3.0354	465.626	222.226	288.043	158.171	260.409	195.943	455.665	424.903	155.966	215.572	361.480	462.927	458.527	438.270	481.496	490.967	0.00032882	0.0003415	0.00018436	1342.9	3.8273e-06	9.3657e-06	1417.6	285.25	5.533e-06	3.9259e-06	352.62	98.73	77.922	22.434	8.471e-06	30.906	0.00073474	0.00077603	0.00021543	1329.4	8.3691e-06	8.4437e-06	1406.8	287.14	8.3615e-06	8.4147e-06	356.6	101.21	80.686	23.706	8.3852e-06	32.807	194.868	490.898	276.611	163.064	340.997	247.014	163.150	170.038	216.628	364.845	170.168	175.756	176.355	182.984	333.214	183.250	-8191	255	
32079.635	1	1	0	0	0.084152	0.084319	0.20068	0.2832	0.24885	0.13382	0.037447	0.30522	0.14571	0.069533	0.36924	0.1823	0.16958	0.1186	0.23194	0.24306	-3.0521	-3	-2.9208	-3.4792	-2.9479	-3.1917	-3.5292	-3.1604	-3.4396	-3.0542	-3.0896	-3.4125	-3.1521	-3.2396	-3.3	-3.0563	409.087	462.299	197.727	453.052	394.685	361.225	492.693	427.232	407.944	398.078	440.881	185.374	473.739	179.374	365.117	206.934	0.00030265	0.00010576	0.00010288	1338.7	5.1095e-06	3.4491e-06	1418.7	285.7	4.3948e-06	3.2031e-06	350.92	98.353	77.891	22.333	4.6023e-06	30.79	0.00073639	0.0007774	0.00021518	1327.6	8.3755e-06	8.439e-06	1405.5	286.98	8.3987e-06	8.3755e-06	355.71	101.02	80.639	23.578	8.4102e-06	32.57	198.716	324.233	255.988	163.433	371.332	497.329	163.191	169.998	262.167	284.657	170.010	175.951	176.262	183.228	277.216	182.935	-8191	255	
32079.705	1	1	0	0	0.065936	0.20887	0.18645	0.24336	0.2468	0.11312	0.28837	0.14636	0.044195	0.18794	0.13691	0.069065	0.15832	0.25283	0.12783	0.083388	-3.1042	-3.0792	-3.0333	-3.5104	-3.0208	-3.1125	-3.3812	-3.1292	-3.3937	-3.2021	-3.075	-3.3875	-3.2417	-3.1813	-3.3708	-3.1854	335.385	292.508	373.460	457.572	404.771	263.630	478.715	435.885	443.021	196.414	475.491	458.079	365.815	451.388	201.147	342.347	0.00035439	0.0011813	0.00022816	1330.8	6.6779e-06	6.0193e-06	1408.4	285.2	4.7677e-06	4.1589e-06	350.46	98.237	77.059	22.265	1.2847e-06	30.737	0.00073787	0.00077451	0.00021542	1322.8	8.307e-06	8.4243e-06	1399.3	286.21	8.3866e-06	8.4956e-06	354.88	100.54	80.007	23.427	8.4672e-06	32.442	191.053	243.274	250.397	163.298	335.263	321.298	163.234	170.013	305.025	410.820	169.658	175.931	176.399	183.293	348.535	183.566	-8191	255	
32079.826	1	1	0	0	0.15411	0.082902	0.20518	0.17335	0.077724	0.163	0.14386	0.16905	0.26241	0.23095	0.182	0.048707	0.17766	0.21676	0.05344	0.16166	-2.9521	-3.1979	-3.0729	-3.6104	-3.1375	-3.1312	-3.5812	-3.2854	-3.3625	-3.1542	-3.0062	-3.3208	-3.1604	-3.225	-3.3583	-2.9854	472.393	291.378	342.890	410.203	451.065	202.244	430.652	455.419	441.371	219.927	406.383	501.469	437.063	389.589	316.299	264.855	0.00039854	0.0001606	0.00018116	1330.6	6.0492e-06	3.0845e-06	1404.4	282.89	3.4382e-06	4.8538e-06	348.2	97.36	76.498	22.121	4.3728e-06	30.452	0.00074224	0.00077658	0.00021417	1320.5	8.4824e-06	8.4365e-06	1394.2	284.23	8.4565e-06	8.4838e-06	353.25	99.844	79.595	23.28	8.447e-06	32.333	200.541	246.525	233.389	163.429	302.684	451.375	163.123	170.201	236.851	300.760	169.828	175.901	176.336	183.626	267.188	183.141	-8191	255	
32079.924	1	1	0	0	0.15583	0.018804	0.055067	0.24578	0.13993	0.018421	0.15299	0.086077	0.30222	0.23309	0.10126	0.018851	0.15657	0.22169	0.21475	0.1477	-2.75	-3.1021	-3.0229	-3.5458	-3.2458	-3.0417	-3.5479	-3.2708	-3.1063	-3.3771	-3.0083	-3.3187	-3.1688	-3.0146	-3.3875	-2.9896	223.798	201.793	505.550	475.349	506.604	449.765	487.766	474.782	161.825	216.118	375.783	167.234	511.214	477.324	458.176	373.673	0.00023197	0.00067187	5.8591e-05	1327.2	2.3383e-06	4.607e-06	1401.3	281.37	5.4102e-06	4.955e-06	348.19	97.116	76.812	22.069	5.5953e-06	30.501	0.00074315	0.000777	0.00021552	1317.2	8.4765e-06	8.4158e-06	1389.5	283.49	8.4177e-06	8.5153e-06	352.81	99.789	79.657	23.262	8.4309e-06	32.289	205.047	337.898	298.054	163.364	243.824	175.861	163.353	170.205	257.477	286.142	169.749	176.158	176.675	183.372	321.323	183.070	-8191	255	
32080.020	1	1	0	0	0.1507	0.17027	0.11062	0.27844	0.28026	0.094557	0.36416	0.32292	0.10665	0.17194	0.29649	0.29081	0.076195	0.13839	0.077257	0.067523	-2.7625	-3.1708	-2.9542	-3.4875	-3.1208	-2.8229	-3.5458	-3.2375	-3.1125	-3.3979	-3.1604	-3.1896	-3.2313	-3.0771	-3.4167	-3.1854	466.065	222.770	444.035	475.831	282.136	215.435	488.741	446.122	205.231	469.579	415.035	154.232	425.971	344.946	265.134	198.284	0.00030265	0.00050718	0.00014539	1324.4	3.755e-06	5.75e-06	1401.2	282.37	2.3332e-06	4.2583e-06	346.97	96.774	76.988	21.921	2.3707e-06	30.413	0.00073873	0.00078524	0.00021374	1314.8	8.4413e-06	8.4908e-06	1389.8	283.7	8.4017e-06	8.5153e-06	352.63	99.594	79.57	23.205	8.4877e-06	32.236	194.683	491.169	249.968	163.306	221.592	266.938	163.267	169.897	235.514	272.638	169.429	175.965	176.230	183.079	484.399	183.036	-8191	255	
32080.115	1	1	0	0	0.11032	0.083248	0.089216	0.36002	0.12867	0.086052	0.26683	0.05417	0.26461	0.10473	0.059118	0.16275	0.054808	0.17656	0.0058703	0.29514	-2.7042	-3.3542	-2.9854	-3.2708	-3.3042	-3.0708	-3.6125	-3.1479	-3.1917	-3.4917	-2.9958	-3.1333	-3.1979	-3.1646	-3.2812	-3.0812	248.123	366.198	205.838	414.942	440.486	413.586	464.630	430.885	448.044	246.629	187.194	503.051	414.285	382.278	233.079	430.857	0.00030191	0.00011218	0.00013471	1326.1	1.8787e-06	2.3512e-06	1396.7	281.38	1.0419e-06	4.8427e-06	347.76	97.265	76.467	21.937	3.2485e-06	30.5	0.00074123	0.00077536	0.00021649	1315.1	8.4374e-06	8.4776e-06	1389.4	283.5	8.4267e-06	8.5119e-06	351.91	99.507	79.513	23.143	8.4784e-06	32.207	195.287	261.211	223.985	163.380	185.697	161.455	163.211	170.068	223.819	312.952	169.636	175.797	176.016	183.285	267.747	183.087	-8191	255	
32080.236	1	1	0	0	0.18535	0.14643	0.15364	0.17687	0.029576	0.26539	0.20847	0.19824	0.29311	0.12942	0.17866	0.10284	0.1852	0.38464	0.12964	0.13271	-2.7479	-3.2542	-2.9938	-3.4042	-3.3187	-3.1688	-3.5021	-3.3458	-2.9271	-3.2438	-3.1604	-3.2188	-3.2833	-3.1396	-3.2979	-3.15	413.047	486.354	334.590	383.100	466.699	439.132	467.638	438.714	408.611	281.802	410.300	376.479	441.881	511.598	198.874	407.587	0.00034616	0.00038455	2.9162e-05	1322.4	3.9114e-06	7.2558e-06	1396.3	281.6	3.749e-06	2.1612e-06	347.97	96.439	76.404	21.827	2.8608e-06	30.415	0.00073711	0.00078037	0.00021574	1313.7	8.4547e-06	8.3881e-06	1388.2	282.92	8.426e-06	8.443e-06	352.26	99.188	79.168	23.05	8.4301e-06	32.096	203.873	232.682	313.100	163.366	441.815	332.738	163.179	170.008	239.123	419.832	170.001	176.044	176.445	183.633	350.205	182.819	-8191	255	
32080.332	1	1	0	0	0.2164	0.029337	0.29066	0.19715	0.171	0.055879	0.1632	0.29174	0.12558	0.1073	0.23756	0.15	0.13253	0.25013	0.16907	0.10661	-2.5875	-3.1771	-3	-3.2938	-3.4083	-3.0938	-3.4062	-3.3667	-3.1188	-3.3646	-3.2375	-3.0896	-3.3208	-2.9	-3.275	-3.3167	504.379	285.573	416.732	164.061	202.827	446.655	488.481	168.047	491.105	392.154	385.481	235.937	179.389	435.360	171.236	324.434	0.0003191	0.00072431	0.000123	1322	2.1962e-06	3.4232e-06	1396.6	279.81	3.5825e-06	4.6008e-06	345.41	96.147	75.873	21.774	4.6224e-06	30.153	0.00074171	0.00077419	0.00021688	1310	8.4817e-06	8.4547e-06	1385.8	282.04	8.451e-06	8.5075e-06	350.86	99.025	78.864	23.028	8.5006e-06	32.047	188.456	232.554	293.131	163.400	177.068	299.449	163.320	170.095	310.342	254.237	169.683	175.657	176.399	183.252	291.666	183.134	-8191	255	
32080.402	1	1	0	0	0.17713	0.22404	0.2193	0.25128	0.10716	0.19844	0.05691	0.17348	0.27588	0.082184	0.095684	0.215	0.18472	0.14202	0.040924	0.16201	-2.5833	-3.1896	-3.1917	-3.3896	-3.275	-3.0646	-3.525	-3.2333	-3.0729	-3.3542	-3.4083	-3.0938	-3.4979	-3.1125	-3.1813	-3.4479	166.676	406.553	213.423	175.440	278.234	341.321	244.874	432.865	354.034	183.814	365.686	492.925	413.536	437.541	277.264	467.216	0.00026451	0.00021164	0.00026343	1318.3	3.2771e-06	2.9321e-06	1395.1	280.38	7.4556e-07	7.9077e-06	345.28	96.639	76.28	21.817	1.42e-07	30.228	0.00073603	0.00078622	0.00021676	1307.9	8.4574e-06	8.4491e-06	1385.2	281.68	8.396e-06	8.5275e-06	351	99.131	78.904	22.998	8.5324e-06	32.048	186.190	238.808	336.884	163.497	330.876	221.883	163.138	170.153	367.488	338.491	169.777	176.122	176.618	183.193	388.622	183.183	-8191	255	
32080.500	1	1	0	0	0.16117	0.070242	0.13896	0.23136	0.050308	0.19321	0.1342	0.2351	0.20214	0.03831	0.145	0.09168	0.022895	0.22496	0.20224	0.1237	-2.6146	-3.2542	-3.1396	-3.05	-3.1583	-2.9396	-3.2188	-3.5062	-3.1479	-3.2229	-3.2583	-2.9813	-3.375	-3.1146	-3.1854	-3.3479	225.607	158.678	352.007	176.905	356.183	190.130	467.117	475.143	386.884	316.897	309.432	506.273	197.266	428.920	367.219	360.755	0.00032644	0.00031915	0.00017361	1323.5	4.494e-06	5.7505e-06	1398.7	280.5	4.433e-06	5.4628e-06	344.82	95.62	76.702	21.807	5.3679e-06	29.969	0.00074174	0.00077934	0.00021671	1311.1	8.5363e-06	8.4846e-06	1386.4	282.09	8.4401e-06	8.4894e-06	350.6	98.914	79.028	23.082	8.4204e-06	31.963	187.590	473.597	155.301	163.482	313.166	292.303	163.309	169.875	244.691	490.753	170.274	176.178	176.435	183.076	262.218	183.405	-8191	255	
32080.617	1	1	0	0	0.14508	0.17892	0.19684	0.14305	0.099673	0.23329	0.27013	0.21724	0.10844	0.17526	0.14397	0.27379	0.082533	0.12379	0.16224	0.22465	-2.5021	-3.0958	-3.2354	-3.1729	-3.4688	-3.1833	-3.2542	-3.3917	-3.0292	-3.2021	-3.475	-3.0479	-3.2313	-3.0417	-3.1667	-3.4854	285.330	232.023	316.347	498.561	263.961	362.724	412.566	238.674	334.934	200.200	172.664	181.271	391.905	482.122	420.532	362.433	0.0003292	0.00066773	0.00016873	1314.8	4.1654e-06	3.8033e-06	1392.1	279.4	5.0374e-06	1.9541e-06	345.28	96.174	75.939	21.709	3.5725e-06	30.166	0.00074801	0.00078396	0.00021738	1308.6	8.4403e-06	8.5254e-06	1384.7	281.58	8.4893e-06	8.4729e-06	350.36	98.804	78.729	22.953	8.5394e-06	31.917	193.839	258.685	227.925	163.279	249.830	377.730	163.152	170.072	277.102	346.394	169.810	175.906	176.830	183.384	261.973	183.100	-8191	255	
32080.715	1	1	0	0	0.20727	0.14131	0.3147	0.22584	0.095452	0.045694	0.26552	0.15947	0.07841	0.12553	0.17671	0.28522	0.10205	0.11721	0.20867	0.30908	-2.6	-3.1896	-3.2771	-3.1521	-3.2375	-3.2354	-3.2646	-3.5	-3.0687	-3.2354	-3.4792	-3.0875	-3.2583	-3.1979	-2.9313	-3.3729	170.249	316.602	179.519	491.449	415.356	251.098	404.719	326.095	307.307	188.113	170.845	457.674	182.328	258.809	499.471	223.116	0.00033205	0.00082858	0.00010908	1312.5	3.3718e-06	1.2669e-05	1396.1	279.67	6.6509e-06	3.8698e-06	343.13	95.149	75.762	21.64	7.2823e-06	30.184	0.00075092	0.00077773	0.00021795	1306.8	8.5029e-06	8.5704e-06	1383.6	281.47	8.5149e-06	8.4856e-06	349.67	98.512	78.688	22.935	8.5412e-06	31.918	187.243	216.433	208.941	163.334	309.155	378.931	163.291	169.957	269.163	281.923	170.083	176.360	176.810	183.496	292.582	183.509	-8191	255	
32080.811	1	1	0	0	0.057189	0.15832	0.28	0.12058	0.33771	0.22964	0.21625	0.21308	0.23755	0.22598	0.21417	0.067244	0.019435	0.16538	0.046579	0.22658	-2.6792	-3.1104	-3.1708	-3.2438	-3.275	-3.2417	-3.1688	-3.4396	-3.1688	-3.1042	-3.3812	-3.0792	-3.1312	-3.1104	-3.0833	-3.3208	185.779	207.575	324.043	498.543	492.847	334.999	462.899	430.015	481.108	212.586	389.997	500.713	261.523	407.588	272.500	457.950	0.00033412	0.00051168	0.00011403	1318.1	2.9482e-06	7.4595e-06	1393.8	278.7	1.7531e-06	4.9507e-06	344.57	95.756	75.77	21.663	4.1604e-06	30.117	0.00074554	0.0007858	0.00021782	1307	8.4579e-06	8.6069e-06	1382.5	280.98	8.5513e-06	8.5752e-06	349.53	98.417	78.607	22.917	8.5228e-06	31.897	202.213	230.432	302.101	163.255	505.386	234.453	163.508	170.188	212.620	317.398	169.754	175.968	176.485	183.528	308.009	183.096	-8191	255	
32080.906	1	1	0	0	0.094556	0.20048	0.24058	0.26513	0.13607	0.02456	0.25817	0.23583	0.10539	0.093532	0.093514	0.10976	0.15315	0.070516	0.22163	0.16069	-2.6208	-3.025	-3.4458	-3.0521	-3.2562	-3.2625	-3.1937	-3.2521	-3.2396	-3.1646	-3.2979	-2.9917	-3.2333	-3.1167	-3.0042	-3.1396	273.629	290.339	507.549	488.701	319.470	426.585	402.739	437.277	162.807	314.413	492.930	425.323	411.538	256.859	508.366	234.563	0.0003725	0.00026172	0.0001301	1311.2	4.4722e-06	4.7797e-06	1389.8	279.41	2.5404e-06	4.1886e-06	343.6	95.297	75.587	21.45	1.1457e-06	29.815	0.00075223	0.0007882	0.00021591	1303.2	8.5524e-06	8.5772e-06	1378.2	280.29	8.5024e-06	8.6303e-06	349.03	98.062	78.314	22.797	8.5069e-06	31.717	198.226	487.067	364.012	163.409	252.824	368.151	163.406	170.116	235.009	344.008	170.229	176.333	176.224	183.374	354.374	183.423	-8191	255	
32081.004	1	1	0	0	0.1154	0.12921	0.12792	0.23224	0.20306	0.097658	0.33858	0.1002	0.11325	0.12455	0.27649	0.4021	0.09943	0.32749	0.15289	0.064704	-2.7854	-3.0667	-3.25	-3.1208	-3.1292	-3.3375	-3.0854	-3.2229	-3.1958	-2.9125	-3.3563	-3.075	-3.2	-3.3812	-3.0854	-3.1188	171.482	221.092	233.274	463.422	299.856	212.091	450.304	401.329	403.454	380.907	506.060	497.847	292.718	478.950	180.385	466.108	0.00039128	0.0007036	0.00013032	1304.4	3.6169e-06	9.0607e-06	1376.4	276.4	5.4797e-06	1.376e-06	339.46	94.379	74.616	21.215	3.7576e-06	29.615	0.00075046	0.00077424	0.00021637	1295.1	8.5195e-06	8.5309e-06	1367.3	277.85	8.469e-06	8.4914e-06	345.27	97.351	77.557	22.493	8.5109e-06	31.387	209.377	243.852	213.551	163.189	290.631	292.873	163.424	169.972	242.373	189.127	169.876	175.929	176.157	183.829	235.773	183.244	-8191	255	
32081.100	1	1	0	0	0.23302	0.15436	0.14844	0.28529	0.039311	0.09824	0.18271	0.1117	0.020007	0.08403	0.20746	0.14577	0.26299	0.34959	0.16023	0.027891	-2.8	-2.9396	-3.2375	-3.1958	-3.0896	-3.2	-3.2208	-3.2917	-3.175	-3.0604	-3.3604	-3.175	-2.9021	-3.2333	-2.9083	-3.125	204.288	418.642	184.424	490.818	409.368	312.274	418.396	494.156	276.600	234.632	498.045	202.115	331.417	280.913	448.890	298.540	0.00035476	0.00037038	9.2711e-05	1296.7	7.457e-06	7.997e-06	1363.4	273.68	6.7517e-06	3.5344e-06	338.61	93.713	74.311	21.197	5.4914e-06	29.605	0.0007459	0.0007779	0.00021556	1283.5	8.3924e-06	8.4914e-06	1355.6	275.78	8.4634e-06	8.506e-06	342.43	96.703	76.939	22.389	8.4379e-06	31.299	188.485	262.003	167.326	163.434	251.941	285.534	163.427	170.134	283.708	312.907	169.891	176.146	176.447	183.582	367.152	182.915	-8191	255	
32081.221	1	1	0	0	0.015169	0.18096	0.23428	0.3241	0.042761	0.095916	0.084546	0.10643	0.18397	0.12301	0.037499	0.31714	0.25952	0.055473	0.33875	0.30096	-2.8542	-3.0333	-3.3771	-3.325	-3.0896	-3.3521	-3.2229	-3.225	-3.1396	-2.8604	-3.5083	-3.1771	-3.1042	-3.3021	-3.0729	-3.2021	482.060	259.740	233.013	457.336	364.931	202.765	446.393	426.903	244.404	467.749	414.255	499.830	462.541	214.195	484.327	419.861	0.00035573	0.0001243	3.4622e-05	1285.3	4.7167e-06	5.3237e-06	1363.8	271.86	4.077e-06	7.829e-06	338.14	93.545	74.227	21.09	5.3668e-06	29.478	0.00074502	0.00076994	0.00021275	1276.3	8.5175e-06	8.4857e-06	1351.9	273.88	8.4742e-06	8.4826e-06	342.49	96.412	76.682	22.357	8.5405e-06	31.203	196.435	252.143	224.906	163.329	328.281	369.697	163.540	170.282	313.030	288.985	169.956	176.352	176.550	183.768	295.988	183.097	-8191	255	
32081.316	1	1	0	0	0.19825	0.15273	0.16256	0.29246	0.15578	0.18918	0.10594	0.085941	0.15481	0.043873	0.30884	0.36286	0.23518	0.18039	0.18289	0.31641	-2.8021	-2.8688	-3.0438	-3.2687	-2.7687	-3.3854	-3.1667	-3.0375	-3.2104	-2.8875	-3.2125	-3.25	-2.9729	-3.3063	-3.1396	-3.0875	163.575	456.319	370.622	159.505	240.786	493.832	424.655	428.409	377.760	362.492	399.309	177.602	405.133	387.571	244.735	156.035	0.00018879	0.00038591	5.0813e-05	1290.8	9.7429e-07	7.158e-06	1352.8	272.33	3.037e-06	3.3574e-06	335.88	93.511	73.821	20.995	3.1164e-06	29.161	0.00074265	0.00077166	0.00021639	1277.8	8.4088e-06	8.4238e-06	1347.2	273.67	8.4962e-06	8.5344e-06	341.91	96.392	76.463	22.263	8.5467e-06	31.089	198.887	235.602	499.198	163.436	266.040	255.701	163.390	170.214	228.258	281.556	169.712	176.447	176.692	183.563	412.731	183.595	-8191	255	
32081.412	1	1	0	0	0.2092	0.16579	0.055799	0.17749	0.077476	0.21833	0.27947	0.08997	0.15947	0.13645	0.20585	0.37326	0.12339	0.14995	0.16573	0.10747	-2.9292	-3.0896	-3.2375	-3.2875	-2.9792	-3.2687	-3.1979	-3.0938	-3.3104	-3.0167	-3.0458	-3.1708	-3.1125	-3.1958	-3.05	-2.9625	255.222	300.826	346.731	163.133	498.445	430.604	490.892	476.150	294.678	353.821	456.548	472.599	419.355	346.286	291.544	375.616	0.00033086	0.0006463	0.00019685	1285.3	3.3498e-06	6.8276e-06	1353.7	270.7	1.9992e-06	8.1129e-06	335.33	93.454	73.335	20.934	8.0483e-07	29.358	0.00073851	0.00077677	0.00021513	1275.9	8.4085e-06	8.4278e-06	1346.2	273.61	8.4082e-06	8.407e-06	340.27	96.158	76.403	22.177	8.4409e-06	31.041	198.254	208.075	205.680	163.437	261.618	328.705	163.287	170.381	241.131	318.478	170.096	176.261	176.727	183.970	320.401	183.748	-8191	255	
32081.508	1	1	0	0	0.19697	0.072581	0.20869	0.35721	0.24082	0.1257	0.30358	0.212	0.13593	0.20921	0.14669	0.14955	0.17618	0.1617	0.24599	0.10294	-2.9667	-2.8458	-3.1896	-3.3396	-2.8417	-3.2625	-3.25	-3.0542	-3.325	-3.0104	-3.1188	-3.2354	-2.9813	-3.1833	-3.0708	-2.9729	229.313	292.935	195.589	449.606	436.181	353.810	473.742	424.120	348.277	349.532	463.753	237.410	229.208	502.784	405.298	333.299	0.00027842	0.00013855	5.5417e-05	1280.8	4.2038e-06	3.0069e-06	1345.9	271.99	2.9884e-06	3.1241e-06	334.26	93.361	73.497	20.976	2.9015e-06	29.163	0.00073908	0.00076888	0.00021604	1270	8.3846e-06	8.4369e-06	1341.5	272.72	8.334e-06	8.3672e-06	339.8	95.918	76.23	22.215	8.4054e-06	31.002	198.653	220.320	226.482	163.468	303.011	313.420	163.565	170.477	237.222	423.302	170.464	175.947	176.557	183.990	222.335	183.337	-8191	255	
32081.627	1	1	0	0	0.29967	0.054847	0.17513	0.27942	0.099948	0.21884	0.090903	0.28404	0.12307	0.3029	0.22051	0.060381	0.18798	0.24483	0.21038	0.096778	-2.85	-3.1208	-3.0812	-3.4021	-2.8438	-3.225	-3.3104	-3.0104	-3.2562	-3.1063	-3.2771	-3.3708	-2.9688	-3.0375	-3.1437	-2.9667	496.201	421.889	289.374	250.447	443.829	169.072	465.736	168.882	214.931	155.162	484.660	195.307	409.354	165.917	290.138	366.402	0.00028586	0.00056976	8.2855e-05	1282.9	3.9888e-06	1.0287e-06	1354.7	270.07	4.1313e-06	1.137e-05	333.53	92.613	73.253	20.888	4.5425e-06	29.186	0.00073576	0.00077654	0.00021515	1270.4	8.4582e-06	8.4754e-06	1344	272.41	8.3536e-06	8.4408e-06	339.28	95.71	76.252	22.257	8.4503e-06	31.029	181.214	254.658	298.998	163.239	278.907	480.551	163.394	170.091	503.065	373.806	170.242	176.185	176.812	183.441	293.810	183.390	-8191	255	
32081.699	1	1	0	0	0.24767	0.12899	0.1199	0.27132	0.2202	0.084912	0.26889	0.065263	0.15913	0.1442	0.11892	0.30317	0.089779	0.1958	0.14689	0.064706	-2.8125	-3.1688	-2.9917	-3.5396	-3.0687	-3.3063	-3.2896	-3.1229	-3.375	-3.1292	-3.0229	-3.3333	-2.875	-3.0854	-3.2	-3.0021	162.386	449.040	226.044	509.999	194.222	487.031	455.518	415.812	198.878	171.830	190.181	466.100	161.628	353.828	290.748	457.927	0.00027164	0.00055602	0.00018277	1275.2	4.2879e-06	5.7715e-06	1349.9	271.06	4.3954e-06	4.1328e-06	335.83	93.254	72.824	20.984	2.8582e-06	29.253	0.00073859	0.00077585	0.00021367	1268.1	8.4608e-06	8.4498e-06	1343.1	272.47	8.3876e-06	8.4907e-06	340.26	95.91	76.125	22.17	8.3627e-06	31.03	180.655	224.365	341.986	163.439	323.951	281.366	163.514	170.143	273.266	308.935	170.014	176.034	176.688	183.674	294.862	183.325	-8191	255	
32081.795	1	1	0	0	0.17483	0.44833	0.24814	0.21517	0.057996	0.077211	0.21991	0.23734	0.17917	0.26964	0.12772	0.21429	0.26729	0.18823	0.11006	0.33117	-2.75	-3.1854	-2.9396	-3.55	-3.0333	-3.3417	-3.3021	-2.9646	-3.2354	-3.2562	-3.0021	-3.4062	-2.9917	-3.1292	-3.2896	-3.0812	217.258	343.205	456.470	390.848	270.381	369.241	384.919	506.495	478.400	155.804	428.694	345.676	503.933	233.406	255.175	433.580	0.00028503	0.00028068	0.00021114	1275.3	2.1263e-06	1.4301e-05	1346.7	270.47	4.9162e-06	5.7794e-07	334.44	93.401	73.723	21.028	3.4475e-06	29.32	0.00074058	0.00077288	0.00021306	1265.9	8.3814e-06	8.4427e-06	1339.6	272.18	8.3463e-06	8.4764e-06	339.23	95.948	76.164	22.236	8.3874e-06	31.01	200.559	467.254	234.540	163.220	388.609	350.272	163.142	170.258	239.519	176.860	170.135	176.021	176.453	183.763	505.817	183.283	-8191	255	
32081.891	1	1	0	0	0.032414	0.067532	0.16652	0.34872	0.17454	0.22882	0.2272	0.29364	0.15477	0.045606	0.18396	0.12202	0.29138	0.059322	0.26068	0.07462	-2.9125	-3.125	-3.0292	-3.4	-3.1479	-3.0271	-3.5812	-3.0125	-3.2188	-3.1937	-3.0583	-3.2146	-2.8688	-3.0146	-3.2	-3.1708	504.388	240.876	408.839	457.523	466.605	232.492	460.893	499.769	429.140	221.699	425.487	449.185	156.116	157.779	407.493	181.341	0.00032302	0.00038084	0.00026781	1279.2	6.3631e-06	1.4948e-06	1349.2	270.48	5.1938e-06	5.0174e-06	334.04	93.201	73.99	21.054	9.64e-06	29.337	0.00073441	0.0007742	0.0002143	1268	8.3493e-06	8.3845e-06	1341.4	271.9	8.3529e-06	8.4719e-06	339.62	95.947	76.346	22.263	8.4175e-06	31.096	194.776	307.953	260.176	163.689	274.939	465.786	163.141	170.256	273.359	298.023	170.235	176.390	176.566	183.566	262.445	183.660	-8191	255	
32082.012	1	1	0	0	0.26203	0.24365	0.10546	0.17306	0.11131	0.11481	0.23224	0.34303	0.16335	0.14999	0.071019	0.064099	0.40819	0.10245	0.080209	0.26432	-2.6375	-3.0438	-3.1333	-3.3583	-3.1625	-3.0687	-3.5958	-2.9667	-2.9458	-3.2417	-2.9979	-3.2812	-3.1396	-3.0146	-3.2042	-3.2375	227.142	273.118	323.254	379.787	299.408	183.189	486.461	440.043	259.467	250.196	171.344	431.483	489.031	177.757	181.910	462.519	0.00027479	0.00056875	0.00016022	1280.6	8.6839e-06	2.3694e-06	1353	270.03	6.0152e-06	5.5633e-06	336.27	93.758	73.687	21.152	4.6516e-06	29.227	0.00073131	0.00077397	0.0002131	1270.8	8.3797e-06	8.4303e-06	1345.2	272.44	8.3292e-06	8.5232e-06	340.16	96.196	76.615	22.332	8.434e-06	31.149	188.637	287.072	365.302	163.522	327.388	375.799	163.340	170.217	303.326	280.831	169.714	176.184	176.137	184.125	244.902	183.260	-8191	255	
32082.107	1	1	0	0	0.18223	0.10653	0.19156	0.31661	0.2336	0.098196	0.36424	0.16009	0.24442	0.05465	0.23811	0.1216	0.13936	0.33517	0.1407	0.2317	-2.5708	-3.3125	-2.7062	-3.3354	-3.3208	-2.975	-3.4792	-3.15	-3.0729	-3.2292	-3	-3.1188	-3.1063	-2.9042	-3.0812	-3.1396	390.065	320.016	245.054	473.107	436.740	338.731	442.023	410.404	275.009	328.459	497.774	394.539	405.042	189.032	383.148	154.687	0.0002236	0.00067211	0.00023823	1277.1	6.195e-06	8.8926e-06	1347.9	269.49	3.9497e-06	3.6785e-06	335.55	94.368	73.762	21.138	2.0066e-06	29.415	0.00072865	0.00076636	0.00021341	1271	8.4397e-06	8.3653e-06	1343.8	272.62	8.3565e-06	8.3974e-06	340.01	96.431	76.558	22.274	8.4224e-06	31.204	199.967	259.022	252.770	163.552	281.623	241.672	163.551	170.279	282.026	380.029	170.027	175.943	176.441	183.899	408.617	183.119	-8191	255	
32082.203	1	1	0	0	0.17003	0.1018	0.12891	0.042357	0.15517	0.13447	0.50754	0.12091	0.095986	0.1484	0.19005	0.11601	0.3651	0.058303	0.14018	0.14122	-2.5	-3.3354	-2.9979	-3.3812	-3.4104	-3.0521	-3.4875	-3.3271	-2.9417	-3.2687	-3.0229	-3.075	-3.1875	-2.8625	-3.0542	-2.9938	341.459	294.250	408.371	386.955	327.915	240.305	445.043	484.715	489.055	484.035	169.515	253.205	501.114	437.850	167.296	183.319	0.00029888	0.000967	0.00035279	1284.8	9.0108e-07	3.8955e-06	1355.5	271.89	7.1749e-06	7.109e-06	336.14	93.591	74.009	21.156	6.8887e-06	29.409	0.0007353	0.00077529	0.00021574	1274	8.404e-06	8.3818e-06	1348.7	273.13	8.3765e-06	8.5793e-06	341.6	96.531	76.857	22.336	8.4753e-06	31.233	208.519	241.843	260.747	163.352	390.145	280.907	163.360	170.200	287.382	283.048	169.910	176.332	176.105	183.540	320.844	183.027	-8191	255	
32082.301	1	1	0	0	0.11226	0.25077	0.11084	0.24293	0.23077	0.1318	0.33439	0.094856	0.071741	0.23973	0.13929	0.045506	0.16782	0.11609	0.14311	0.15267	-2.525	-3.275	-2.8812	-3.2917	-3.2792	-2.8854	-3.4437	-3.1375	-2.9354	-3.175	-3.2146	-3.2938	-3.3604	-3.125	-3.2333	-3.275	365.175	447.981	158.353	506.303	174.222	284.235	414.565	437.533	177.792	400.252	366.676	375.598	434.617	319.672	257.320	262.385	0.00028495	0.00024893	9.1461e-05	1295.7	2.1711e-06	2.6407e-06	1371.7	274.02	5.7065e-06	1.552e-06	337.66	95.07	74.32	21.306	5.3911e-06	29.66	0.00074208	0.0007731	0.00021596	1285.3	8.5306e-06	8.536e-06	1361.5	275.97	8.4612e-06	8.5534e-06	343.92	97.31	77.262	22.525	8.5306e-06	31.408	207.834	273.626	404.924	163.290	277.343	464.055	163.261	170.287	307.425	324.167	170.022	175.996	176.747	183.443	220.548	183.067	-8191	255	
32082.396	1	1	0	0	0.11646	0.17755	0.14029	0.13252	0.22502	0.2338	0.20708	0.23577	0.10191	0.24804	0.066738	0.19103	0.17717	0.096756	0.18547	0.285	-2.5687	-3.2625	-3.0833	-3.2271	-3.2104	-2.7896	-3.4521	-3.0625	-2.8896	-3.1854	-3.1771	-3.2604	-3.5021	-3.0062	-3.1562	-3.3021	312.156	467.223	318.209	160.886	503.410	295.957	419.154	486.960	171.507	350.409	411.757	394.888	463.939	482.667	153.828	399.527	0.00024703	7.8748e-05	0.00015084	1299.4	6.1816e-06	5.1987e-06	1379.3	275.44	5.4593e-06	7.9194e-06	340.65	94.625	74.961	21.256	1.2587e-06	29.649	0.00074527	0.00077493	0.00021663	1292.2	8.5546e-06	8.522e-06	1368.7	277.44	8.5415e-06	8.5941e-06	345.31	97.573	77.821	22.577	8.4396e-06	31.535	203.572	285.474	156.554	163.438	399.204	267.879	163.325	170.129	205.040	287.197	169.889	176.224	176.292	183.302	486.661	183.919	-8191	255	
32082.492	1	1	0	0	0.24779	0.084381	0.11267	0.06878	0.15059	0.12233	0.32664	0.35085	0.084761	0.011256	0.18579	0.20847	0.15613	0.23886	0.22256	0.24099	-2.3292	-3.2042	-2.9146	-3.0958	-3.3479	-2.875	-3.2562	-3.2542	-2.8292	-3.3083	-3.0042	-2.975	-3.2479	-2.9167	-2.9875	-3.2938	440.410	278.432	470.870	431.675	383.496	458.424	407.637	428.456	457.750	436.052	395.402	419.726	198.435	488.953	505.109	434.798	0.00029309	0.000105	0.00020967	1308.1	7.5255e-06	9.6769e-06	1380.4	275.79	5.276e-06	4.1695e-06	341.02	94.863	75.655	21.404	3.4115e-06	29.738	0.00074911	0.00077886	0.00021722	1299.2	8.544e-06	8.5804e-06	1372.3	278.4	8.5127e-06	8.5889e-06	346.75	97.952	78.057	22.605	8.5427e-06	31.469	217.272	176.192	197.416	163.539	380.951	328.196	163.351	170.003	289.165	324.682	170.172	176.003	176.636	182.794	394.265	183.378	-8191	255	
32082.590	1	1	0	0	0.45969	0.048016	0.35445	0.34034	0.34976	0.11312	0.3561	0.32361	0.1266	0.26376	0.11282	0.0652	0.15107	0.052129	0.064891	0.11425	-2.5083	-3.225	-2.9333	-2.9313	-3.2125	-2.9708	-3.1813	-3.4021	-2.9708	-3.2083	-3.2271	-3.0146	-3.3187	-3.1667	-3.0021	-3.375	379.497	479.255	352.028	446.338	181.741	161.059	437.800	444.158	433.075	202.781	219.531	188.909	431.748	339.748	347.765	232.532	0.00032943	0.00082175	0.00027876	1307.6	4.2879e-06	1.1212e-05	1384	276.31	4.0148e-06	5.2447e-06	341.2	95.187	75.005	21.567	4.8023e-06	29.726	0.00074587	0.00077861	0.00021781	1298.6	8.5611e-06	8.5031e-06	1373.9	278.28	8.5239e-06	8.6262e-06	346.36	97.693	77.831	22.658	8.6369e-06	31.523	177.980	485.647	216.492	163.359	417.968	307.557	163.131	170.063	277.989	309.764	170.079	175.845	176.520	183.771	333.827	183.104	-8191	255	
32082.707	1	1	0	0	0.077876	0.12162	0.1454	0.1821	0.09802	0.25447	0.39519	0.079826	0.11886	0.094189	0.20482	0.1349	0.039344	0.15077	0.095395	0.016988	-2.5667	-3.2667	-3.15	-3.0563	-3.2771	-3.1521	-3.1437	-3.3563	-3.1417	-3.1688	-3.2229	-2.8667	-3.35	-2.9729	-3.1375	-3.4229	443.174	319.810	344.610	487.815	293.329	320.543	433.236	365.317	314.481	503.850	443.158	485.384	499.539	376.598	262.399	225.549	0.00037229	0.00042055	0.00017319	1308.3	1.0464e-06	3.7995e-06	1380.3	277	4.0938e-06	4.2525e-06	341.24	95.565	75.749	21.331	3.3474e-06	29.879	0.0007519	0.0007941	0.00021952	1299.7	8.5449e-06	8.5756e-06	1372.8	278.55	8.4345e-06	8.5709e-06	346.69	97.934	78.083	22.663	8.581e-06	31.637	185.820	246.552	228.127	163.387	207.508	392.860	163.488	170.391	271.243	307.724	170.128	176.056	176.644	183.595	347.671	183.219	-8191	255	
32082.805	1	1	0	0	0.04928	0.17848	0.25238	0.1164	0.20913	0.16224	0.23848	0.16163	0.07	0.025773	0.15473	0.065422	0.1738	0.17594	0.21756	0.021247	-2.5875	-3.1167	-3.1667	-3.0896	-3.1063	-3.1813	-3.2479	-3.2833	-2.9646	-3.0896	-3.2396	-3.0979	-3.1188	-2.9104	-2.9583	-3.2458	414.846	267.228	367.144	450.883	256.452	290.364	468.745	462.780	430.473	226.122	190.442	480.569	161.545	504.181	387.862	342.351	0.00029107	0.00083557	6.7124e-05	1310.6	3.7572e-06	7.6727e-06	1385.2	277.34	5.0159e-06	1.2172e-06	342.72	95.514	75.079	21.406	6.5326e-06	29.802	0.00074889	0.00078904	0.0002171	1301	8.5481e-06	8.5927e-06	1377	279.14	8.4679e-06	8.5145e-06	347.66	98.13	77.972	22.706	8.5469e-06	31.562	193.700	218.274	473.813	163.344	289.392	163.956	163.345	170.108	316.767	292.666	169.928	175.784	176.412	183.480	296.063	183.302	-8191	255	
32082.900	1	1	0	0	0.21642	0.20869	0.3654	0.34418	0.10643	0.19126	0.14244	0.32195	0.2758	0.20655	0.12691	0.27581	0.1731	0.25724	0.16022	0.21036	-2.7062	-3.1729	-3.3875	-3.1625	-3.2042	-3.2104	-3.125	-3.325	-2.9729	-3.1583	-3.3167	-3.0521	-3.2	-3.2375	-3.075	-3.2667	398.030	362.097	368.673	451.174	404.928	253.367	455.564	500.024	432.245	250.507	448.680	472.593	342.923	227.020	256.040	414.560	0.0003312	0.00036525	0.00010106	1316.5	4.2489e-07	4.9272e-06	1385.7	276.44	4.8975e-06	1.9085e-06	341.65	95.06	74.928	21.558	5.2843e-06	29.757	0.00075342	0.00078006	0.00021977	1301.8	8.51e-06	8.5551e-06	1374.2	278.51	8.556e-06	8.632e-06	346.62	97.864	77.836	22.673	8.4636e-06	31.531	180.365	233.120	337.873	163.275	266.631	511.346	163.343	170.155	254.472	286.618	170.168	176.307	176.593	183.529	373.064	183.269	-8191	255	
32082.996	1	1	0	0	0.19031	0.3455	0.21441	0.24985	0.063791	0.046108	0.23681	0.20861	0.0077136	0.13421	0.29407	0.10662	0.041345	0.18009	0.12706	0.25634	-2.6417	-3.1396	-3.2896	-3.0854	-3.0812	-3.3146	-3.1188	-3.4458	-2.9479	-3.1646	-3.3542	-3.0458	-3.0979	-3.0854	-2.9854	-3.3604	339.999	365.035	414.685	184.823	410.923	259.115	469.221	413.441	502.646	364.564	468.493	175.610	258.517	484.488	414.754	435.488	0.00024309	0.00068634	0.00012127	1308.4	6.857e-06	1.0781e-06	1377.6	276.66	8.5702e-06	1.8898e-06	337.58	95.058	75.05	21.349	4.023e-06	29.832	0.00075282	0.00077693	0.00021685	1297	8.4995e-06	8.5578e-06	1368.7	277.91	8.3588e-06	8.528e-06	344.61	97.596	77.703	22.652	8.3999e-06	31.557	216.681	251.462	252.020	163.609	236.179	183.657	163.473	170.280	257.275	454.457	170.263	175.791	176.660	183.763	260.970	183.246	-8191	255	
32083.092	1	1	0	0	0.23717	0.28416	0.085157	0.057097	0.15491	0.085752	0.27891	0.18118	0.10717	0.20131	0.12221	0.20337	0.27072	0.19973	0.092916	0.050384	-2.6458	-2.9354	-3.2958	-3.1833	-3.1646	-3.2708	-3.1167	-3.2875	-3.1354	-3.1354	-3.3937	-3.0667	-3.0812	-3.3937	-2.7979	-3.3021	232.219	328.593	425.278	202.899	342.115	452.309	181.184	160.131	192.435	489.924	494.636	185.069	449.967	212.145	276.341	337.747	0.00029325	0.00064131	0.00020997	1299.6	7.193e-06	9.3149e-06	1374.9	275.45	2.0802e-06	4.1191e-06	339.18	94.677	74.832	21.359	8.6347e-06	29.776	0.00074264	0.00076937	0.00021464	1289.3	8.4652e-06	8.407e-06	1363	277.02	8.3659e-06	8.4122e-06	344.21	97.464	77.542	22.581	8.4169e-06	31.522	203.981	256.015	211.656	163.302	369.756	298.041	163.277	170.136	328.396	247.547	169.921	176.318	176.080	183.446	248.415	183.180	-8191	255	
32083.188	1	1	0	0	0.078959	0.29349	0.28474	0.11786	0.087037	0.24122	0.22341	0.21312	0.11912	0.17745	0.32389	0.23941	0.19875	0.16226	0.048832	0.14233	-2.7458	-2.8937	-3.3063	-3.2938	-2.9688	-3.3208	-3.1937	-3.2812	-3.0833	-2.975	-3.3646	-3.0958	-2.9708	-3.2167	-3.075	-3.1813	189.984	371.109	313.101	463.009	483.362	227.137	471.309	368.253	182.361	271.539	454.934	272.437	498.170	252.543	411.299	257.033	0.00029981	0.00061671	3.7241e-05	1291.5	5.1065e-06	4.808e-06	1369.3	275.28	7.3719e-07	4.2147e-06	338.54	94.585	75.061	21.335	5.6474e-06	29.859	0.00074325	0.00077344	0.0002139	1285.3	8.3606e-06	8.3406e-06	1361.4	276.47	8.391e-06	8.4031e-06	343.54	97.4	77.696	22.621	8.3833e-06	31.536	210.971	207.811	283.629	163.272	208.688	284.688	163.353	169.959	292.141	214.470	170.314	176.191	176.660	183.309	288.373	183.266	-8191	255	
32083.309	1	1	0	0	0.10366	0.28151	0.13026	0.50066	0.04294	0.061729	0.34695	0.34133	0.15674	0.099622	0.23608	0.12515	0.07411	0.048559	0.23507	0.11091	-2.7	-2.8563	-3.225	-3.2542	-3.0354	-3.3354	-3.1542	-3.225	-3.15	-2.8604	-3.1521	-3.1146	-3.075	-3.3812	-2.9938	-3.1333	364.871	156.403	226.634	482.764	280.185	490.165	425.881	435.656	275.912	166.655	459.303	492.840	470.584	216.370	282.429	411.547	0.00029505	5.1262e-05	0.00017276	1292	4.4971e-06	3.6053e-06	1365.6	273.62	3.4621e-06	2.6065e-06	338.31	94.605	74.757	21.332	2.6358e-06	29.711	0.00074426	0.00076313	0.0002133	1283.4	8.3616e-06	8.4036e-06	1356.6	275.47	8.3362e-06	8.4567e-06	343.64	97.178	77.198	22.581	8.3411e-06	31.462	193.831	278.837	352.685	163.237	284.432	260.029	163.390	169.987	262.591	363.781	170.461	176.053	176.376	183.638	419.679	183.413	-8191	255	
32083.404	1	1	0	0	0.1897	0.13485	0.073002	0.18858	0.059354	0.14703	0.046098	0.33982	0.09101	0.20188	0.10253	0.12377	0.018948	0.23275	0.086863	0.20945	-2.7625	-2.9313	-3.2979	-3.2062	-2.8896	-3.2562	-3.3917	-3.2396	-3.2792	-2.9688	-3.3458	-3.3438	-2.9958	-3.3292	-2.9729	-3.025	193.421	347.893	466.603	159.369	404.659	430.830	409.458	450.224	493.114	153.263	441.831	462.775	276.979	341.761	457.415	439.103	0.0002571	0.00064072	7.3326e-05	1287.5	5.3483e-06	5.974e-06	1360.6	273.4	3.9519e-06	1.5753e-06	337.6	94.149	74.335	21.232	2.1789e-06	29.63	0.00073807	0.00076936	0.00021316	1276.2	8.2929e-06	8.41e-06	1350.7	274.64	8.3316e-06	8.3e-06	343.03	97.004	77.112	22.524	8.3407e-06	31.404	200.018	239.030	259.118	163.352	175.732	356.988	163.338	170.368	297.001	308.176	170.169	176.120	175.933	183.906	293.122	183.378	-8191	255	
32083.498	1	1	0	0	0.2035	0.10245	0.19986	0.17935	0.20395	0.31509	0.22156	0.12458	0.087937	0.12191	0.31417	0.17454	0.38623	0.2402	0.13229	0.17824	-2.8396	-2.9375	-3.0583	-3.2792	-2.9604	-3.3958	-3.3667	-3.0521	-3.5083	-2.9292	-3.2938	-3.3083	-3.0458	-3.3979	-3.2062	-2.9813	164.923	369.333	460.549	163.023	280.129	295.345	449.345	471.627	354.505	163.953	445.124	412.607	422.930	344.676	313.601	331.906	0.00030187	0.00042422	0.00016009	1287.6	5.1491e-06	8.4846e-06	1356.3	271.86	3.3098e-06	9.2789e-07	337.32	94.384	74.451	21.277	9.5334e-06	29.779	0.00073336	0.00076712	0.00021387	1277.5	8.3058e-06	8.4305e-06	1350.4	274.54	8.3299e-06	8.4332e-06	342.42	97.27	77.196	22.621	8.3545e-06	31.396	198.920	276.967	255.879	163.433	320.601	303.636	163.369	170.275	184.189	363.185	170.172	176.423	176.581	183.780	245.196	183.179	-8191	255	
32083.572	1	1	0	0	0.11755	0.029794	0.062493	0.072548	0.28973	0.1837	0.19673	0.050445	0.10389	0.081665	0.21191	0.23523	0.27075	0.19961	0.33495	0.14938	-2.9333	-3.0479	-3.1646	-3.4708	-2.8833	-3.3875	-3.3187	-3.1375	-3.3896	-3.2604	-2.9958	-3.4292	-2.9896	-3.1437	-3.125	-3.0146	259.509	389.289	316.600	414.455	299.481	281.949	343.489	295.987	296.521	348.021	441.020	465.805	212.786	434.242	311.238	459.902	0.00030216	0.00070405	0.0001564	1283.8	4.0883e-06	2.4323e-06	1359.8	272.75	3.6557e-06	4.4071e-06	337.72	94.192	74.526	21.439	3.0654e-06	29.883	0.00073569	0.00077687	0.00021103	1276.1	8.2557e-06	8.3881e-06	1351.5	274.32	8.3037e-06	8.4116e-06	342.91	97.032	77.173	22.573	8.3892e-06	31.481	199.259	193.651	285.087	163.414	254.172	359.029	163.558	170.512	260.521	282.830	169.976	176.186	176.063	183.767	230.769	182.752	-8191	255	
32083.691	1	1	0	0	0.17982	0.098411	0.084782	0.24302	0.22022	0.12754	0.33063	0.38843	0.061431	0.23171	0.069701	0.18772	0.057562	0.20263	0.28041	0.1434	-3.0438	-3.0354	-3.1042	-3.5938	-2.9521	-3.3521	-3.2583	-2.9208	-3.3104	-3.0187	-2.9938	-3.2292	-3.125	-3.0458	-3.2458	-3.0062	315.804	296.741	225.003	469.985	367.017	303.387	400.424	467.774	165.033	257.368	162.683	455.178	178.762	351.194	353.748	244.091	0.00032708	0.0005346	0.00010869	1293.1	4.2011e-06	3.283e-06	1361.5	273.16	5.3908e-06	8.7212e-06	336.07	94.365	74.535	21.308	3.9528e-06	29.358	0.00073432	0.00077203	0.00021331	1278.1	8.355e-06	8.46e-06	1351.8	274.57	8.4504e-06	8.5131e-06	342.16	97.137	77.199	22.541	8.3576e-06	31.395	179.949	233.176	341.030	163.373	260.686	286.598	163.266	170.185	190.604	301.710	169.897	176.290	176.342	183.385	290.677	183.380	-8191	255	
32083.787	1	1	0	0	0.30916	0.18422	0.093343	0.25625	0.23423	0.1703	0.38036	0.20619	0.054504	0.096508	0.13815	0.2074	0.152	0.1139	0.078797	0.42221	-2.7625	-3.0312	-3.1896	-3.5563	-3.0542	-3.0354	-3.3604	-3.0417	-3.1729	-3.1312	-3.1167	-3.3542	-3	-3.0563	-3.1937	-2.9521	375.870	338.684	503.299	374.628	374.523	237.193	416.350	504.915	479.949	162.303	381.893	427.644	492.247	471.386	388.778	417.590	0.00027914	0.00083073	7.3618e-05	1285.8	4.4507e-06	3.5965e-06	1361.7	272.41	3.0568e-06	6.7019e-06	339.31	94.219	74.438	21.403	4.3838e-06	29.842	0.00073811	0.00077122	0.00021501	1276.3	8.3564e-06	8.4276e-06	1352.4	274.17	8.3246e-06	8.4378e-06	343.77	96.757	77.144	22.572	8.4624e-06	31.436	186.411	260.110	200.225	163.367	259.928	173.724	163.239	170.258	252.029	368.198	170.136	176.312	176.070	183.528	303.106	183.550	-8191	255	
32083.885	1	1	0	0	0.26856	0.22333	0.036154	0.071893	0.14987	0.12129	0.27005	0.20776	0.19194	0.19482	0.17195	0.27587	0.088321	0.16358	0.10174	0.18955	-2.7667	-3.1292	-3.0521	-3.4521	-3.0167	-3.1417	-3.3625	-3.1333	-3.2125	-3.2854	-2.9875	-3.3917	-2.9313	-3.0604	-3.2771	-3.2083	435.603	459.625	343.265	186.815	299.728	503.941	431.571	412.869	379.723	284.019	499.769	168.613	255.299	243.171	287.894	451.642	0.00032655	0.00058909	0.00014774	1286.2	4.967e-06	7.578e-06	1358.4	272.84	1.6322e-06	1.2469e-06	338.3	94.659	75.001	21.484	5.1228e-06	29.622	0.00073346	0.00076983	0.00021404	1278.2	8.4683e-06	8.3744e-06	1352.5	275.08	8.3181e-06	8.5154e-06	342.54	96.929	77.409	22.569	8.388e-06	31.422	177.285	337.795	320.787	163.505	314.813	333.251	163.399	170.352	284.857	190.849	169.971	175.898	176.480	183.438	286.584	182.765	-8191	255	
32083.980	1	1	0	0	0.29999	0.091949	0.090292	0.26326	0.076738	0.076481	0.11077	0.17888	0.066872	0.035251	0.14236	0.21287	0.36092	0.11374	0.044665	0.18596	-2.7167	-3.2375	-2.9	-3.3792	-3.1	-2.95	-3.5333	-3.0854	-3.2062	-3.1771	-2.9396	-3.4042	-3.2313	-3.0458	-3.275	-2.9833	347.415	399.385	215.505	473.554	426.143	349.191	455.396	487.851	422.132	185.088	169.416	441.992	493.270	239.303	252.068	264.493	0.0002955	0.00064118	7.2125e-05	1286.5	3.9025e-06	2.3171e-06	1367.1	274.18	4.3115e-06	3.5e-06	336.9	94.297	74.387	21.276	2.8423e-06	29.935	0.00072693	0.00076793	0.00021108	1278.7	8.3576e-06	8.3667e-06	1354	275.34	8.2979e-06	8.3529e-06	342.38	96.937	77.137	22.528	8.3709e-06	31.5	181.880	224.463	485.708	163.456	292.134	371.039	163.381	170.291	190.248	221.034	169.878	176.167	176.305	183.728	365.560	182.635	-8191	255	
32084.102	1	1	0	0	0.15432	0.157	0.23129	0.15755	0.15564	0.08725	0.46586	0.19189	0.12918	0.1154	0.23596	0.22233	0.12906	0.13718	0.11256	0.10692	-2.8208	-3.1292	-2.9521	-3.3187	-3.1042	-2.9375	-3.525	-3.1479	-3.1583	-3.1979	-3.025	-3.3146	-3.0708	-3.1625	-3.2396	-2.9625	160.956	491.530	339.081	395.439	388.867	271.998	469.502	396.220	498.897	338.794	455.658	428.372	209.463	435.862	305.776	341.350	0.00033901	0.00081411	0.00012224	1289.8	3.53e-06	2.6115e-06	1359.5	272.11	2.7538e-06	2.193e-06	337.97	94.189	74.327	21.396	3.5294e-06	29.645	0.000729	0.00077164	0.00021251	1278.5	8.3614e-06	8.3673e-06	1352.4	275.01	8.3183e-06	8.3797e-06	341.95	96.933	77.057	22.521	8.4054e-06	31.427	196.289	219.338	248.436	163.352	301.966	303.751	163.331	170.379	249.303	264.905	169.751	176.130	176.849	183.250	328.556	183.326	-8191	255	
32084.174	1	1	0	0	0.11688	0.25753	0.24089	0.15163	0.13403	0.088355	0.27574	0.079092	0.22314	0.26615	0.25302	0.061003	0.18933	0.097976	0.024387	0.084757	-2.6083	-3.2917	-2.9271	-3.3354	-3.0854	-2.9167	-3.5417	-3.0958	-2.9104	-3.2708	-2.9583	-3.1271	-3.2375	-2.9958	-3.2417	-3.2646	344.957	190.721	249.988	401.718	401.733	392.439	484.736	401.349	443.168	441.078	487.027	369.577	353.540	302.817	233.177	477.883	0.00030543	1.4099e-05	4.8029e-05	1286.3	7.9796e-06	4.4277e-06	1359	272.49	3.6565e-06	2.9564e-06	337.36	93.77	74.297	21.315	2.0185e-06	29.829	0.00073024	0.00077077	0.00021369	1277.6	8.3959e-06	8.3563e-06	1352.2	274.51	8.3163e-06	8.3768e-06	341.83	96.663	77.115	22.498	8.3245e-06	31.409	195.756	494.394	333.111	163.520	213.034	368.254	163.408	170.146	252.647	246.638	169.937	176.335	176.577	183.644	423.612	183.341	-8191	255	
32084.270	1	1	0	0	0.34434	0.090633	0.019282	0.20632	0.096112	0.030523	0.38717	0.15251	0.12797	0.28646	0.15202	0.28026	0.049775	0.073149	0.10425	0.020097	-2.5646	-3.1937	-3.0396	-3.2979	-3.0604	-2.9792	-3.5062	-3.2375	-3.0458	-3.325	-3.1437	-3.225	-3.0958	-2.9729	-3.2229	-3.3	283.132	382.218	174.817	425.939	359.939	358.012	470.568	355.785	342.371	463.105	422.675	468.660	463.780	271.659	214.769	373.854	0.00033579	0.00044145	2.6487e-05	1283.5	5.4858e-06	1.7336e-06	1358	272.98	9.8989e-07	1.8512e-06	337.14	93.782	73.942	21.252	3.3624e-06	29.485	0.00072698	0.00077288	0.00021368	1274	8.4116e-06	8.3557e-06	1350.3	274.58	8.3226e-06	8.4619e-06	341.81	96.783	76.96	22.503	8.271e-06	31.212	203.173	222.712	466.411	163.362	304.337	285.011	163.273	170.295	291.499	273.381	170.163	176.167	176.253	183.674	422.407	183.345	-8191	255	
32084.389	1	1	0	0	0.12143	0.19653	0.12486	0.19113	0.14084	0.16743	0.41571	0.33938	0.26711	0.12148	0.21656	0.048484	0.13624	0.059694	0.039385	0.30692	-2.4562	-3.3354	-2.9979	-3.3208	-3.2438	-3.0521	-3.5896	-3.2021	-3.0187	-3.3208	-3.1542	-3.1167	-3.25	-3.0917	-3.1396	-3.1771	314.778	273.936	246.729	487.945	376.216	375.887	452.874	462.097	216.471	187.666	463.866	440.603	464.770	405.944	286.845	406.856	0.00033084	0.00045526	0.00010957	1281.2	6.8144e-06	1.0188e-06	1356	272.63	4.5196e-06	2.4107e-06	335.66	93.579	73.877	21.213	3.1473e-06	29.43	0.00073222	0.00076511	0.00021286	1273.6	8.3773e-06	8.4485e-06	1347.8	273.59	8.4358e-06	8.3551e-06	341.12	96.525	76.805	22.436	8.367e-06	31.327	201.498	229.603	443.992	163.478	300.975	232.317	163.247	170.138	292.879	172.605	170.104	176.331	176.304	183.737	380.029	183.368	-8191	255	
32084.484	1	1	0	0	0.073791	0.20008	0.31309	0.14028	0.29158	0.058509	0.48138	0.25672	0.094709	0.21534	0.00425	0.039013	0.22961	0.11872	0.31728	0.23264	-2.5208	-3.3438	-3.0812	-3.2	-3.3063	-2.8958	-3.2958	-3.3354	-3.0896	-3.3604	-3.2188	-3.1813	-3.4313	-2.9667	-3.35	-3.3104	430.786	476.777	487.648	504.785	459.454	415.854	464.041	508.027	455.337	209.534	182.979	282.545	490.662	255.554	294.339	222.251	0.00031001	0.00091721	8.4541e-05	1279.8	3.5541e-06	7.6635e-06	1353.3	271.44	5.8268e-06	4.1648e-06	337.31	93.501	73.887	21.129	2.4017e-06	29.434	0.00073735	0.00076643	0.00021401	1273	8.382e-06	8.3563e-06	1346.6	273.07	8.2735e-06	8.3454e-06	341.25	96.476	76.713	22.42	8.3429e-06	31.239	203.945	208.762	240.376	163.513	257.406	289.147	163.444	170.066	263.590	273.564	170.314	175.844	176.717	183.499	412.909	182.893	-8191	255	
32084.582	1	1	0	0	0.2033	0.1654	0.28215	0.28239	0.26105	0.2501	0.18465	0.095217	0.018582	0.1968	0.12927	0.22636	0.10868	0.11399	0.21634	0.15039	-2.3896	-3.3	-3.0833	-3.3271	-3.3812	-3.0979	-3.3937	-3.3542	-2.9083	-3.3542	-3.1813	-3.1688	-3.275	-2.9979	-3.0229	-3.2771	449.853	189.387	378.259	495.659	269.734	291.188	457.016	388.319	335.218	250.380	206.341	462.794	494.283	489.556	360.802	419.441	0.00031472	0.00039239	0.00011566	1277.3	6.3678e-06	3.9426e-06	1351.6	270.14	3.8933e-06	3.9813e-06	333.32	93.561	73.737	21.284	1.3947e-06	29.521	0.00073011	0.00076319	0.00021325	1268.8	8.3308e-06	8.3818e-06	1343.4	272.45	8.1854e-06	8.3395e-06	339.96	96.132	76.423	22.376	8.4036e-06	31.162	189.602	314.017	162.072	163.396	275.324	203.896	163.358	170.187	298.185	386.692	170.119	176.452	176.590	183.579	266.628	183.272	-8191	255	
32084.699	1	1	0	0	0.079195	0.15332	0.16543	0.31738	0.26813	0.24769	0.2392	0.23849	0.12044	0.15949	0.16771	0.0813	0.18482	0.27575	0.27698	0.090521	-2.3646	-3.1188	-3.1542	-3.1	-3.3021	-3.1083	-3.3563	-3.4	-2.9958	-3.1604	-3.3292	-3.1042	-3.4167	-3.0854	-3.0958	-3.3896	207.160	395.581	202.223	470.582	311.626	169.102	464.685	476.811	357.686	507.163	472.460	395.846	433.216	461.137	371.600	263.600	0.00031243	0.00031679	0.00019854	1273.9	6.1744e-06	1.3358e-05	1345.4	269.3	5.0895e-06	8.5715e-06	334.04	93.413	73.784	20.982	3.149e-06	29.308	0.00073284	0.00076747	0.00021298	1263.2	8.2544e-06	8.3699e-06	1339.6	271.23	8.2282e-06	8.3435e-06	338.69	95.89	76.296	22.221	8.2669e-06	31.037	199.552	440.213	299.396	163.476	348.877	184.014	163.308	170.369	282.627	348.312	169.991	176.265	176.559	183.731	233.209	183.202	-8191	255	
32084.797	1	1	0	0	0.29839	0.1361	0.093258	0.11369	0.14003	0.09408	0.1972	0.13462	0.03418	0.039783	0.24111	0.21992	0.07587	0.12511	0.041106	0.11565	-2.5	-3.0563	-3.2833	-3.1979	-3.3375	-3.2104	-3.2104	-3.3042	-2.9333	-3.2729	-3.4188	-3.1188	-3.4688	-3.1813	-2.8667	-3.3333	498.983	462.156	467.400	463.011	287.852	206.786	402.984	509.587	397.446	495.515	474.616	355.039	495.383	328.885	296.528	362.660	0.00036618	0.00040072	6.926e-05	1264	3.3885e-06	5.1082e-06	1334.7	268.42	4.5469e-06	3.0046e-06	330.62	92.344	72.621	20.956	4.5628e-06	29.21	0.00072882	0.00076314	0.00021146	1255.8	8.2312e-06	8.2812e-06	1328.6	269.4	8.1734e-06	8.3275e-06	335.92	95.005	75.478	22.082	8.1777e-06	30.828	195.360	249.669	223.355	163.448	507.265	265.227	163.345	170.388	308.723	329.801	170.241	176.272	176.510	184.018	342.501	183.522	-8191	255	
32084.867	1	1	0	0	0.10558	0.15236	0.29514	0.40379	0.24203	0.23071	0.18806	0.29413	0.12784	0.26785	0.32022	0.23438	0.09495	0.30628	0.25047	0.12764	-2.7292	-3.1875	-3.2188	-3.1292	-3.05	-3.2021	-3.2604	-3.3667	-3.0417	-3.2229	-3.3125	-3.0604	-3.325	-3.1542	-2.8375	-3.3583	416.965	185.623	253.830	478.444	231.075	410.084	435.464	485.813	481.203	452.801	460.579	188.555	155.498	512.379	155.809	354.295	0.00025164	0.00043394	0.00015295	1255.8	3.3501e-06	1.1865e-05	1326.3	267.7	5.1729e-06	5.4695e-06	330.42	91.807	72.62	20.781	2.9646e-06	29.137	0.00071477	0.00075346	0.00020904	1247	8.2118e-06	8.1418e-06	1319.9	268.69	8.2221e-06	8.2045e-06	334.1	94.623	75.242	21.961	8.2437e-06	30.793	184.288	290.517	191.512	163.635	438.080	277.608	163.395	170.725	258.583	350.856	170.122	176.258	176.335	183.572	288.027	183.214	-8191	255	
32084.988	1	1	0	0	0.18531	0.22002	0.27568	0.26643	0.080426	0.139	0.12513	0.18886	0.37061	0.1696	0.097706	0.18428	0.20719	0.15329	0.038549	0.33674	-2.7271	-3.3417	-3.4917	-3.2562	-3.2771	-3.2042	-3.2833	-3.3958	-3.0708	-3.1417	-3.3396	-3.1125	-3.2125	-3.2146	-3.0375	-3.1271	371.387	192.839	351.673	443.780	462.804	311.434	155.898	499.667	301.516	402.324	357.035	198.661	354.110	272.653	483.524	379.442	0.00029903	0.00010886	0.00022366	1248.3	2.9713e-06	3.9643e-06	1326.3	265.63	3.3075e-06	4.6136e-06	329.19	92.084	72.526	20.752	8.4324e-07	29.008	0.00072048	0.00075388	0.00020938	1241.8	8.1974e-06	8.2845e-06	1316.1	267.4	8.1504e-06	8.2779e-06	333.99	94.764	75.107	22.008	8.2116e-06	30.779	195.522	315.223	232.074	163.602	216.747	285.863	163.320	170.402	210.678	267.555	170.073	176.410	176.666	183.849	179.026	183.672	-8191	255	
32085.086	1	1	0	0	0.29628	0.34925	0.17212	0.13794	0.088059	0.039041	0.26576	0.19698	0.14901	0.28646	0.17187	0.017559	0.33835	0.35538	0.18725	0.23603	-2.7188	-3.0333	-3.1396	-3.2208	-3.2854	-3.2167	-3.1688	-3.2938	-3.1417	-3.0271	-3.2396	-3.2104	-3.2062	-3.2729	-2.8583	-3.3792	270.304	493.965	385.570	173.616	255.589	366.307	436.864	168.883	309.607	199.410	250.930	394.162	204.169	489.169	154.070	464.458	0.00029682	0.00019426	4.8811e-05	1251.4	3.6573e-06	4.8751e-06	1321.2	265.77	7.5631e-07	1.5069e-06	329.99	92.306	71.738	20.798	3.2604e-06	28.851	0.00072363	0.00075719	0.00020992	1241	8.222e-06	8.2228e-06	1313.1	266.95	8.2093e-06	8.2324e-06	333.52	94.524	74.637	21.88	8.2491e-06	30.658	189.718	467.650	189.254	163.434	335.001	332.784	163.282	170.457	509.273	369.563	170.309	176.356	176.682	183.678	277.978	183.781	-8191	255	
32085.182	1	1	0	0	0.11685	0.02201	0.077264	0.27499	0.2128	0.2553	0.20451	0.051118	0.18794	0.048288	0.086449	0.2197	0.15622	0.18683	0.14115	0.12131	-2.7396	-3.0021	-3.1521	-3.1854	-3.2188	-3.4292	-3.1375	-3.3854	-3.1708	-3.0833	-3.3208	-3.0917	-2.9583	-3.2062	-2.9646	-3.25	386.365	230.487	273.143	178.575	206.643	472.039	463.864	361.198	450.985	487.299	207.585	200.019	471.010	459.234	375.624	488.447	0.00029448	0.00025969	0.00015629	1242	2.5795e-06	2.6121e-06	1315.7	264.45	4.7011e-06	3.7129e-06	326.83	92.112	72.032	20.586	5.2952e-06	28.835	0.00071959	0.00075159	0.00021069	1235.5	8.1594e-06	8.2619e-06	1309.3	266.08	8.1636e-06	8.1405e-06	332.6	94.433	74.692	21.819	8.1146e-06	30.679	204.429	182.956	253.303	163.410	216.728	303.453	163.298	170.445	235.675	198.433	170.296	176.408	176.488	184.035	277.889	183.441	-8191	255	
32085.277	1	1	0	0	0.12162	0.32672	0.18146	0.31717	0.11659	0.17869	0.37228	0.2821	0.054356	0.2499	0.18772	0.12774	0.25586	0.068529	0.21274	0.081755	-2.5458	-2.8771	-3.2333	-3.2667	-3.0104	-3.4	-3.0917	-3.2729	-3.2687	-2.9333	-3.3688	-3.2438	-3.0979	-3.2521	-3.0833	-3.125	377.252	173.962	289.036	455.261	412.876	456.498	468.965	392.316	451.777	253.324	166.483	437.778	160.840	297.905	212.212	411.560	0.00029558	0.000856	2.3798e-05	1241.1	8.9696e-06	3.9024e-06	1314.2	263.17	6.9338e-06	5.9048e-06	328.2	91.863	71.443	20.623	3.4206e-06	28.862	0.0007171	0.00075296	0.0002084	1232.2	8.0956e-06	8.1382e-06	1306.4	265.39	8.1183e-06	8.2271e-06	331.68	94.377	74.539	21.82	8.1799e-06	30.55	198.811	268.875	410.988	163.541	254.943	318.944	163.553	170.438	235.708	386.413	170.047	176.298	176.952	184.066	271.946	183.670	-8191	255	
32085.398	1	1	0	0	0.15218	0.097018	0.17258	0.065485	0.16888	0.17233	0.21192	0.12779	0.028837	0.18286	0.15793	0.20909	0.11033	0.12986	0.08709	0.20738	-2.6688	-2.9979	-3.2646	-3.3937	-3.0458	-3.3625	-3.3667	-3.3063	-3.1583	-2.8458	-3.375	-3.3083	-2.9229	-3.3438	-2.9333	-3.1271	416.007	307.211	377.713	358.693	353.932	201.170	442.734	443.482	246.662	279.226	178.328	504.938	265.059	154.577	353.454	428.601	0.00033328	0.0002725	6.0111e-05	1238.9	7.1303e-06	6.3161e-06	1312.4	263.84	4.6196e-06	3.7748e-06	326.8	91.165	71.894	20.427	3.8313e-06	28.884	0.0007206	0.00074968	0.00020917	1230.4	8.1641e-06	8.1912e-06	1304.7	265.23	8.1094e-06	8.1933e-06	331.29	94.099	74.402	21.739	8.1842e-06	30.55	188.380	277.053	173.085	163.373	350.786	283.817	163.659	170.139	324.180	317.081	170.182	176.930	176.874	183.762	270.119	183.662	-8191	255	
32085.471	1	1	0	0	0.14174	0.14365	0.20617	0.44578	0.14588	0.14921	0.20305	0.021552	0.2402	0.089241	0.14809	0.21555	0.0043891	0.16098	0.14496	0.25022	-2.8292	-3.0062	-3.1542	-3.275	-2.95	-3.4208	-3.2625	-3.2875	-3.2313	-3.0521	-3.2417	-3.1479	-2.8417	-3.2667	-3.0354	-3.0708	473.196	456.548	289.343	497.474	480.078	411.787	402.147	436.744	486.192	364.067	476.352	497.340	419.153	486.291	303.825	471.942	0.00034726	0.00057951	0.0002384	1243	4.7258e-06	5.9882e-06	1312	264.04	1.6544e-06	3.7566e-06	326.91	90.993	71.801	20.58	1.4988e-06	28.878	0.00071765	0.00075455	0.00020883	1231.6	8.0587e-06	8.1452e-06	1305.7	265.13	8.1399e-06	8.1804e-06	331.24	93.915	74.377	21.827	8.1856e-06	30.562	188.218	290.666	222.391	163.363	301.184	253.362	163.471	170.495	340.213	297.844	170.116	176.575	176.607	183.781	334.195	183.449	-8191	255	
32085.566	1	1	0	0	0.1158	0.2357	0.078826	0.32599	0.041394	0.017398	0.42246	0.39361	0.13148	0.22971	0.10041	0.12183	0.17393	0.19313	0.034287	0.30032	-2.8438	-2.9125	-3.0854	-3.2625	-2.8604	-3.3792	-3.2854	-3.1521	-3.4792	-3.1333	-3.2667	-3.3937	-3.0396	-3.4417	-2.9313	-3.1	359.286	250.946	368.264	470.802	214.487	374.941	472.311	156.778	175.012	155.776	352.320	351.828	313.253	183.230	494.635	453.255	0.00028706	0.00096639	0.00013303	1243.3	7.3106e-06	9.2516e-06	1307.7	262.94	3.3165e-06	3.3248e-06	324.61	91.42	71.627	20.569	4.9407e-06	28.782	0.00071183	0.00074345	0.00020964	1231.3	8.1485e-06	8.151e-06	1302.5	264.98	8.1932e-06	8.1786e-06	331.5	94.155	74.398	21.787	8.2155e-06	30.531	191.389	219.457	210.900	163.682	297.865	291.687	163.566	170.534	289.786	250.384	170.364	176.090	176.642	183.730	311.563	183.087	-8191	255	
32085.662	1	1	0	0	0.22701	0.048231	0.091487	0.10287	0.16295	0.14295	0.37117	0.13956	0.082404	0.2007	0.13799	0.11703	0.18066	0.19048	0.15802	0.15992	-2.7396	-2.9208	-3.0458	-3.3708	-3.0187	-3.2812	-3.3	-3.0479	-3.3063	-2.9458	-3.1583	-3.2875	-2.8896	-3.1521	-3.1625	-3.0729	246.724	365.555	214.195	478.319	262.717	434.164	427.750	317.655	230.625	423.220	423.525	300.566	216.828	200.997	300.876	424.567	0.00031913	0.00068018	0.00014773	1237.3	2.5651e-06	1.3476e-06	1315.3	262.77	4.6684e-06	9.6251e-06	327.42	91.081	71.688	20.642	4.1384e-06	28.833	0.00071653	0.00075278	0.00020983	1229.8	8.1665e-06	8.1535e-06	1302.7	264.71	8.1067e-06	8.2836e-06	331.62	93.951	74.522	21.788	8.1882e-06	30.463	200.468	488.495	265.525	163.449	253.233	392.990	163.546	170.166	259.514	265.524	170.189	176.341	176.613	184.145	264.310	183.163	-8191	255	
32085.781	1	1	0	0	0.1064	0.29533	0.12194	0.28252	0.28631	0.11786	0.1056	0.067296	0.20776	0.086296	0.081181	0.027687	0.59292	0.12953	0.077197	0.2535	-3.0479	-2.9313	-2.8229	-3.525	-2.9354	-3.3667	-3.3563	-2.9396	-3.2188	-3.0062	-3.0292	-3.1792	-2.7167	-2.9958	-3.1917	-3	341.234	433.020	270.008	494.189	186.698	314.320	300.778	187.106	152.455	233.521	178.838	405.165	474.420	157.308	295.858	491.248	0.00027359	0.00027837	3.8306e-05	1234.3	4.411e-06	7.5922e-06	1316.4	263.12	1.3872e-06	4.6859e-06	327.14	91.377	71.34	20.646	4.0504e-06	28.931	0.00071896	0.00074846	0.00020962	1228.7	8.177e-06	8.2412e-06	1304.6	264.88	8.1349e-06	8.2765e-06	331.46	93.943	74.266	21.777	8.2098e-06	30.517	191.159	182.487	266.032	163.746	223.221	317.654	163.555	170.193	217.704	337.039	170.268	176.541	176.859	183.700	319.686	183.739	-8191	255	
32085.877	1	1	0	0	0.13952	0.1709	0.099848	0.032775	0.29337	0.066931	0.27772	0.14955	0.17045	0.2279	0.13107	0.17461	0.22094	0.11223	0.19721	0.088764	-2.9458	-3.0812	-3.0187	-3.4458	-2.8917	-3.1083	-3.2	-3.0333	-3.2104	-3.175	-3.1792	-3.3104	-3.0708	-3.2729	-3.2771	-3.1083	463.385	205.648	256.315	195.008	159.907	232.180	442.683	481.337	207.229	493.191	288.356	409.850	500.440	455.469	363.956	284.928	0.00033346	8.7318e-05	0.00024512	1236.5	7.1607e-06	2.6142e-06	1311	263.49	5.984e-06	5.8278e-06	326.92	90.926	72.047	20.575	8.5999e-07	28.891	0.00071403	0.0007477	0.00020607	1228.9	8.1965e-06	8.1253e-06	1302.6	265.24	8.1162e-06	8.2009e-06	331.03	93.89	74.651	21.764	8.0992e-06	30.586	198.300	176.193	486.156	163.410	177.239	200.588	163.278	170.490	256.028	303.480	170.032	176.510	176.746	184.014	351.295	183.835	-8191	255	
32085.973	1	1	0	0	0.22453	0.1482	0.22327	0.060846	0.27852	0.043147	0.11101	0.095226	0.082988	0.16594	0.20736	0.16477	0.035603	0.17716	0.15718	0.033153	-2.9479	-3.0771	-2.9729	-3.3375	-3.0458	-3.1188	-3.3792	-2.9	-3.2208	-3.1521	-2.9833	-3.2729	-3.0667	-2.8333	-3.1396	-3.0396	281.392	348.788	234.333	497.529	468.500	258.068	157.401	464.390	363.324	255.772	250.258	232.183	299.136	162.300	169.861	441.970	0.00035528	0.00067215	5.1286e-05	1240.1	4.853e-06	8.258e-06	1312.8	262.75	2.8243e-06	2.2173e-06	326	91.666	71.752	20.435	4.1847e-06	28.977	0.00071533	0.00075096	0.00020677	1229.2	8.2194e-06	8.1456e-06	1303	264.72	8.1742e-06	8.178e-06	331.81	94.154	74.514	21.739	8.2188e-06	30.573	200.778	434.606	382.894	163.484	325.107	294.633	163.694	170.381	300.583	355.342	170.024	176.234	176.496	184.031	365.491	183.346	-8191	255	
32086.068	1	1	0	0	0.15986	0.16561	0.095435	0.15543	0.20767	0.13591	0.3359	0.1837	0.077198	0.15991	0.33222	0.311	0.22581	0.0049372	0.067903	0.24062	-2.9417	-3.1813	-3.0875	-3.3354	-3.0354	-3.0479	-3.4604	-2.8812	-3.2458	-3.2667	-2.9479	-3.4104	-2.9417	-2.9646	-3.2646	-3.0208	333.749	184.177	319.698	407.078	465.451	359.514	444.225	506.504	403.039	236.944	164.409	424.491	193.504	466.590	478.002	243.742	0.00036633	0.001052	0.00013978	1239.4	5.1039e-06	7.332e-06	1308.6	263.5	2.4771e-06	9.8281e-06	325.48	91.387	72.139	20.58	4.7979e-07	29.083	0.00071475	0.00075153	0.00020769	1229.6	8.1253e-06	8.1998e-06	1302.1	264.81	8.1374e-06	8.2334e-06	331.3	93.966	74.487	21.757	8.2091e-06	30.579	198.782	258.315	263.565	163.660	238.913	306.084	163.435	170.289	267.923	397.868	170.160	176.323	176.603	184.109	366.373	183.937	-8191	255	
32086.164	1	1	0	0	0.14345	0.079698	0.11425	0.42544	0.075019	0.14747	0.33913	0.19169	0.068662	0.14338	0.37426	0.24873	0.12359	0.13941	0.10359	0.10018	-2.7625	-3.0125	-2.8542	-3.2354	-3.0021	-3.0104	-3.3833	-3.1875	-3.0667	-3.1958	-2.9979	-3.2354	-3.1271	-3.0208	-3.4104	-2.9938	190.377	441.435	245.383	439.695	433.789	502.532	459.025	487.679	424.230	288.646	486.812	406.194	509.930	312.387	153.275	215.096	0.00035016	0.00051992	0.00017333	1239	2.9664e-06	1.3581e-06	1313.6	262.39	5.3555e-06	1.666e-06	325.83	91.334	71.961	20.53	4.8721e-06	28.847	0.0007207	0.00075322	0.00020701	1229.2	8.1957e-06	8.1486e-06	1301.5	264.38	8.123e-06	8.2126e-06	331.06	94.118	74.558	21.703	8.1081e-06	30.532	196.732	294.310	330.711	163.445	329.117	330.271	163.424	170.386	291.523	419.973	170.087	176.197	176.608	183.780	296.631	183.855	-8191	255	
32086.262	1	1	0	0	0.23324	0.10834	0.23728	0.29157	0.14154	0.2825	0.16317	0.22805	0.1871	0.16324	0.1499	0.24153	0.19097	0.10217	0.10538	0.13768	-2.5104	-3.1437	-2.9562	-3.2833	-3.1521	-3.0292	-3.375	-3.2479	-3.0438	-3.2896	-3.0479	-3.4479	-3.2333	-3.0458	-3.1875	-3.1354	256.726	152.980	481.654	505.694	426.693	504.119	389.661	234.652	456.985	283.802	434.212	259.215	469.202	463.787	442.997	361.772	0.00031967	0.00062176	8.8263e-05	1238.6	5.0121e-06	5.0797e-06	1307.7	263	4.189e-06	1.0462e-05	327.04	91.428	71.351	20.678	7.3265e-06	28.67	0.00072408	0.00075405	0.00020859	1227.7	8.2356e-06	8.1601e-06	1300.8	264.65	8.1195e-06	8.1957e-06	330.84	93.929	74.388	21.723	8.1429e-06	30.437	205.180	319.547	246.456	163.551	248.993	396.814	163.559	170.588	248.893	262.720	170.638	176.315	176.474	183.902	272.052	184.003	-8191	255	
32086.383	1	1	0	0	0.082492	0.093722	0.14533	0.1323	0.15845	0.28613	0.24596	0.27956	0.27719	0.10242	0.1993	0.096751	0.15377	0.26798	0.062775	0.18592	-2.7292	-3.3083	-2.9479	-3.3333	-3.1604	-3.0812	-3.5229	-3.1958	-2.8271	-3.3312	-3.0708	-3.0854	-3.0396	-2.9479	-3.1625	-3.0167	432.863	355.234	503.543	458.657	350.670	458.776	181.199	482.082	392.532	270.455	392.085	198.779	496.021	498.901	279.903	232.066	0.00030636	0.00035452	0.00014539	1234.9	7.8708e-06	5.5329e-06	1310.6	261.9	4.0989e-06	2.5618e-06	325.98	91.431	71.384	20.477	1.4405e-06	28.836	0.00071866	0.00074723	0.00020827	1224.9	8.2212e-06	8.178e-06	1300.1	264.1	8.0608e-06	8.2723e-06	330.48	93.711	74.319	21.685	8.1856e-06	30.458	209.208	296.038	261.084	163.791	299.220	310.977	163.463	170.298	286.449	233.731	170.088	176.633	176.756	184.044	252.546	183.846	-8191	255	
32086.479	1	1	0	0	0.17511	0.10851	0.030203	0.17967	0.24492	0.081356	0.3145	0.15737	0.10828	0.12941	0.13523	0.13237	0.023463	0.25111	0.19093	0.16927	-2.5687	-3.0563	-3.0979	-3.1771	-3.3208	-2.8479	-3.4813	-3.0979	-2.9854	-3.3458	-3.0125	-3.1979	-3.2833	-2.975	-3.1208	-3.1583	338.367	315.495	251.495	507.778	438.046	177.225	474.512	161.095	502.402	330.640	196.062	394.247	370.115	497.072	214.197	175.101	0.00030504	0.0001299	0.00014264	1239.1	4.3414e-06	8.311e-06	1307.4	260.74	8.4475e-07	1.9742e-06	326.99	91.033	71.688	20.552	6.8923e-06	28.64	0.0007087	0.00075163	0.00020764	1226.4	8.2412e-06	8.1073e-06	1299.1	264.43	8.1675e-06	8.1322e-06	330.91	93.493	74.273	21.701	8.1508e-06	30.416	203.013	242.667	290.259	163.502	277.072	252.974	163.469	170.777	205.665	257.636	170.284	176.276	176.891	183.582	292.349	183.959	-8191	255	
32086.572	1	1	0	0	0.30363	0.064955	0.12185	0.29125	0.17563	0.23319	0.18677	0.23599	0.19833	0.19301	0.098961	0.17714	0.27055	0.21496	0.071581	0.077147	-2.4562	-3.3042	-3.15	-3.2313	-3.0958	-3.1104	-3.4	-3.2792	-3.0667	-3.3208	-3.125	-2.9313	-3.5417	-2.9562	-3.2208	-3.2333	175.535	155.357	417.120	502.841	308.159	228.610	378.914	461.556	499.255	394.112	507.173	369.100	166.736	306.286	496.955	280.676	0.00027866	0.00073688	0.00013383	1234.2	1.0191e-06	5.9516e-06	1300.7	262.14	3.9217e-06	5.287e-07	325.35	90.79	71.446	20.647	6.2729e-06	28.834	0.00070362	0.00074252	0.00020745	1224.8	8.1938e-06	8.1675e-06	1295.5	264.01	8.137e-06	8.1957e-06	330.34	93.587	74.277	21.753	8.1605e-06	30.39	185.020	239.769	379.424	163.524	393.241	298.403	163.667	170.694	276.966	309.126	169.932	176.490	176.800	184.029	333.027	183.703	-8191	255	
32086.672	1	1	0	0	0.23314	0.10746	0.081798	0.20234	0.16971	0.2723	0.078825	0.13254	0.18085	0.11402	0.17945	0.048616	0.076754	0.11789	0.06886	0.21892	-2.6771	-3.0833	-2.7313	-3.0396	-3.4437	-3.175	-3.25	-3.35	-3.0062	-3.0958	-3.1063	-3.2062	-3.2917	-2.9688	-3.0083	-3.2771	236.294	363.752	472.241	468.477	214.887	403.790	420.640	276.392	298.191	159.549	460.608	446.495	326.287	230.953	313.227	357.776	0.00034566	0.00014309	6.641e-05	1235	4.0327e-06	3.6958e-06	1308.4	261.87	5.3732e-06	7.2885e-06	327.69	90.868	71.593	20.599	3.9552e-06	28.492	0.00071585	0.00075171	0.00020853	1224.7	8.1122e-06	8.0834e-06	1298.2	263.47	8.1389e-06	8.1837e-06	330.37	93.722	74.088	21.72	8.149e-06	30.375	203.982	160.753	303.480	163.673	255.038	162.172	163.665	170.169	250.076	301.581	170.079	176.415	176.524	184.011	296.319	183.111	-8191	255	
32086.766	1	1	0	0	0.24697	0.2479	0.080463	0.1185	0.23851	0.2835	0.18178	0.34142	0.39583	0.25024	0.029418	0.23104	0.12227	0.037148	0.16225	0.17907	-2.5583	-3.2333	-3.1083	-3.15	-3.3	-3.0229	-3.2208	-3.2417	-2.8458	-3.1646	-3.0563	-2.875	-3.3063	-3.1167	-2.925	-3.3167	154.574	487.071	193.382	385.004	302.157	237.481	432.190	478.537	279.468	220.530	284.848	482.403	353.640	186.452	308.586	215.073	0.00030085	0.00034045	8.7649e-05	1236.3	3.6298e-07	2.305e-06	1308.3	260.99	3.5045e-06	2.9545e-06	322.9	90.377	71.533	20.417	4.3226e-06	28.783	0.00071336	0.00075242	0.0002072	1223.5	8.1942e-06	8.1852e-06	1298.1	263.73	8.1111e-06	8.1512e-06	330.11	93.331	74.264	21.629	8.1624e-06	30.445	194.371	267.525	187.625	163.390	339.148	487.527	163.416	170.463	333.026	423.886	170.295	175.975	176.616	183.729	336.579	183.496	-8191	255	
32086.861	1	1	0	0	0.053525	0.20808	0.15446	0.29609	0.093631	0.11006	0.39705	0.26334	0.17811	0.09682	0.12708	0.25148	0.085588	0.22489	0.22837	0.20504	-2.5687	-3.1792	-3.3083	-3.1813	-3.2271	-2.9771	-3.2271	-3.375	-3.0021	-3.0208	-3.2167	-3.0083	-3.3187	-3.0708	-2.9	-3.3604	497.785	321.652	181.561	170.470	191.920	330.679	432.448	472.272	312.744	193.069	337.977	443.858	444.489	214.460	223.976	224.619	0.00033805	0.00052436	0.00017845	1235	4.5273e-06	1.5322e-06	1305.9	262.56	5.5274e-06	3.6103e-06	323.88	90.921	71.15	20.655	2.8829e-06	28.675	0.00071094	0.00074937	0.00020886	1223.1	8.2406e-06	8.1967e-06	1297.3	263.86	8.0229e-06	8.1844e-06	330.29	93.41	74.106	21.745	8.2168e-06	30.379	202.039	274.428	234.719	163.610	266.637	162.762	163.498	170.544	264.654	327.096	170.139	176.308	176.644	183.883	327.896	183.344	-8191	255	
32086.957	1	1	0	0	0.046256	0.23562	0.25714	0.13532	0.20645	0.13982	0.29597	0.28043	0.026861	0.093618	0.11107	0.18717	0.15885	0.12881	0.20069	0.076652	-2.5187	-3.175	-3.3563	-3.0771	-3.1708	-3.2062	-3.1562	-3.4854	-3.0563	-3.0958	-3.2396	-3.1333	-3.4125	-3.2333	-2.6958	-3.1833	504.992	271.994	255.840	481.122	377.591	170.945	397.894	411.219	269.994	424.081	423.202	463.722	263.730	289.077	234.485	509.465	0.0003	0.00049079	0.00018759	1230.8	3.2274e-06	7.9269e-06	1307.1	262.74	4.0945e-06	4.936e-06	325.28	91.344	71.537	20.485	1.1109e-06	28.636	0.00071519	0.00074589	0.00020782	1221	8.1461e-06	8.1945e-06	1297.7	264.09	8.1618e-06	8.0993e-06	330.32	93.702	74.11	21.631	8.1573e-06	30.376	193.688	226.338	250.114	163.613	333.909	319.300	163.557	170.405	257.923	395.820	170.259	176.520	176.851	183.565	269.285	183.895	-8191	255	
32087.055	1	1	0	0	0.19582	0.27249	0.21309	0.20518	0.298	0.072182	0.20922	0.35108	0.084193	0.088358	0.29332	0.091211	0.24448	0.051738	0.087746	0.092465	-2.4562	-2.9188	-3.2083	-3.1125	-3.1771	-3.1354	-2.9938	-3.3333	-2.9396	-3.2812	-3.4938	-3.1312	-3.1708	-3.1625	-3.0229	-3.2479	388.229	222.665	298.681	425.283	222.255	351.028	500.694	409.679	391.639	356.699	407.380	479.769	399.395	178.068	431.607	477.030	0.00033733	0.00015013	4.6333e-05	1234.4	6.3484e-06	4.6567e-06	1303.4	261.58	4.4354e-06	1.2071e-06	323.88	91.431	71.09	20.413	3.1265e-06	28.365	0.00071403	0.00074524	0.00020608	1223.3	8.2096e-06	8.2729e-06	1297.8	263.96	8.1169e-06	8.1197e-06	329.63	93.546	74.022	21.669	8.1546e-06	30.327	190.027	155.431	231.192	163.539	308.491	340.810	163.712	170.312	242.919	397.028	170.176	176.319	176.369	183.814	277.405	183.296	-8191	255	
32087.174	1	1	0	0	0.10118	0.15417	0.08616	0.30317	0.19244	0.32486	0.044028	0.24381	0.17851	0.19186	0.083112	0.051179	0.23496	0.14525	0.064146	0.16902	-2.6104	-2.9896	-3.3625	-3.2271	-3.1521	-3.2104	-3.0333	-3.3396	-3.0271	-2.9688	-3.2687	-3.0479	-3.1437	-3.2396	-2.8958	-3.0542	307.468	403.313	470.965	489.128	465.065	281.889	480.507	470.647	166.660	367.911	483.561	456.136	412.046	483.997	503.456	404.239	0.00031535	0.00038869	0.00019116	1236.3	2.7682e-06	2.2284e-06	1300.5	261.95	5.8432e-06	2.0043e-06	324.81	90.631	71.578	20.347	8.4449e-07	28.578	0.00071543	0.00074752	0.00020957	1224.9	8.1743e-06	8.2703e-06	1296.3	264.3	8.0882e-06	8.176e-06	330.11	93.528	74.195	21.591	8.1262e-06	30.35	204.254	283.078	287.708	163.363	293.768	256.544	163.368	170.396	301.017	291.026	170.431	176.622	177.102	183.857	292.909	183.470	-8191	255	
32087.270	1	1	0	0	0.21044	0.12406	0.12449	0.14304	0.1818	0.17512	0.32919	0.084344	0.31007	0.20031	0.16964	0.16096	0.19001	0.099772	0.064634	0.043926	-2.6521	-2.8688	-3.1833	-3.1917	-3.0271	-3.2958	-3.1646	-3.2521	-3.1854	-2.8875	-3.3063	-2.9021	-3.1354	-3.3312	-2.9583	-3.1625	296.821	168.140	269.967	448.714	259.111	481.274	443.503	492.353	356.289	188.794	419.715	384.944	364.174	438.173	421.418	193.265	0.00030758	0.00052342	0.0001842	1235.2	3.6214e-06	9.043e-06	1309.1	262.2	3.1205e-06	2.5128e-06	325.23	90.822	71.4	20.505	6.7016e-06	28.825	0.00072056	0.00075085	0.00020783	1223.7	8.1651e-06	8.209e-06	1297.9	263.97	8.0972e-06	8.1222e-06	330.25	93.585	74.048	21.708	8.1302e-06	30.431	192.892	208.414	291.668	163.457	328.843	342.656	163.579	170.634	264.609	323.301	170.058	176.233	176.495	183.857	256.468	183.245	-8191	255	
32087.342	1	1	0	0	0.086672	0.19675	0.22224	0.059314	0.13592	0.0494	0.30995	0.046717	0.091842	0.18754	0.056445	0.17506	0.41519	0.16854	0.10756	0.12148	-2.5958	-2.7708	-3.2958	-3.2333	-3.0729	-3.2062	-3	-3.3688	-3.1688	-2.9167	-3.3271	-3.1188	-3.175	-3.4021	-2.975	-3.1833	267.006	473.055	196.090	416.392	446.585	399.370	154.005	331.553	424.342	303.869	454.599	165.850	319.037	207.265	192.704	493.160	0.00033899	0.00024955	5.1722e-06	1232	7.489e-06	5.4686e-06	1302.2	262.23	5.0158e-06	3.7053e-06	324.51	91.018	71.888	20.68	5.2678e-06	28.741	0.00072223	0.00074743	0.00020634	1223.7	8.1482e-06	8.1835e-06	1297.1	264.45	8.1013e-06	8.1661e-06	330.68	93.606	74.328	21.699	8.138e-06	30.364	198.918	314.061	350.063	163.502	267.837	255.847	163.521	170.671	264.932	381.097	170.324	176.239	177.009	183.935	278.204	183.571	-8191	255	
32087.463	1	1	0	0	0.23615	0.24534	0.063816	0.35445	0.13383	0.24359	0.18298	0.28634	0.066883	0.073913	0.060616	0.11239	0.14598	0.15437	0.18417	0.070879	-2.8083	-2.9875	-3.1271	-3.2188	-3.0146	-3.3708	-3.3583	-3.3	-3.3083	-2.9979	-3.2104	-3.2313	-3.2271	-3.3125	-2.9542	-3.1854	506.119	325.901	157.400	438.456	480.587	170.043	484.177	437.814	350.759	296.671	499.072	406.642	453.686	437.468	326.630	181.442	0.00030938	0.00044163	9.4893e-05	1236	7.5917e-06	4.732e-06	1303.4	260.69	4.3344e-06	2.6567e-06	324.39	90.837	71.702	20.412	6.0706e-06	28.835	0.00071272	0.0007405	0.00020931	1225	8.1245e-06	8.1565e-06	1296.3	263.59	8.1755e-06	8.1491e-06	330.45	93.514	74.154	21.639	8.1507e-06	30.354	185.209	234.389	331.513	163.369	279.264	158.604	163.550	170.344	257.022	294.616	170.055	176.404	177.176	184.161	277.750	183.357	-8191	255	
32087.559	1	1	0	0	0.022961	0.1695	0.23587	0.206	0.18371	0.10152	0.15241	0.20889	0.10617	0.12366	0.20328	0.3172	0.21238	0.088858	0.14748	0.16699	-2.7771	-2.8771	-3.0708	-3.2812	-2.8771	-3.2604	-3.3375	-3.2188	-3.2583	-2.9437	-3.3187	-3.1833	-2.875	-3.4667	-2.8542	-2.9167	277.200	407.588	483.360	450.655	368.525	379.775	407.943	502.182	437.479	486.880	260.294	462.195	179.936	499.811	402.808	419.333	0.00027212	0.001169	0.00026688	1232.9	5.3904e-06	8.5521e-06	1304.1	261.6	6.4899e-06	2.475e-06	323.75	91.137	71.303	20.219	2.2807e-06	28.581	0.0007216	0.00073835	0.00020893	1223.6	8.0834e-06	8.21e-06	1296	263.75	8.1866e-06	8.1917e-06	329.21	93.721	74.163	21.563	8.1612e-06	30.401	198.349	217.321	293.236	163.615	307.279	317.868	163.350	170.491	255.170	277.585	170.246	176.521	176.555	183.774	439.831	183.534	-8191	255	
32087.652	1	1	0	0	0.083422	0.16305	0.1049	0.31336	0.15353	0.11008	0.39098	0.31473	0.19045	0.035644	0.07679	0.097382	0.21936	0.14339	0.29948	0.22246	-2.8083	-2.9146	-2.9625	-3.3854	-2.9	-3.2958	-3.1958	-3.2938	-3.2354	-2.9688	-3.3354	-3.3833	-2.95	-3.3167	-3.1229	-3.1583	484.205	468.337	326.690	485.839	404.632	180.800	424.907	453.736	419.383	162.930	377.764	501.040	332.398	189.395	328.900	448.619	0.00031761	0.0002165	0.00010989	1231.7	5.4915e-06	7.2858e-06	1304.5	261.5	5.5704e-06	7.1403e-06	327.2	90.508	71.554	20.484	4.4293e-06	28.576	0.00071245	0.00075224	0.00020683	1222.8	8.1111e-06	8.218e-06	1297.6	264.26	8.1215e-06	8.1846e-06	330.6	93.488	74.211	21.713	8.0991e-06	30.387	200.217	244.819	234.361	163.391	241.077	412.410	163.394	170.389	263.723	281.322	170.120	176.716	176.615	184.205	227.867	183.518	-8191	255	
32087.752	1	1	0	0	0.2794	0.19355	0.096197	0.16186	0.13164	0.089678	0.14014	0.13487	0.08217	0.067406	0.092744	0.35967	0.097651	0.23921	0.12002	0.14124	-2.9333	-2.9208	-3.2313	-3.3563	-3.0083	-3.2833	-3.4062	-3.0167	-3.2271	-3.1083	-3.1	-3.175	-3.0354	-3.2271	-3.2792	-3.0646	276.242	487.172	434.937	165.323	412.357	180.627	394.765	456.362	404.515	365.332	458.665	197.399	489.560	444.375	236.864	499.426	0.00034138	0.0010345	6.9866e-05	1230.5	3.8588e-06	7.0527e-06	1302.6	262.38	5.9719e-06	3.4954e-06	324.7	90.695	71.292	20.519	5.211e-06	28.774	0.0007178	0.00075001	0.00020719	1221.3	8.1707e-06	8.1268e-06	1297.9	264.08	8.0999e-06	8.2046e-06	329.89	93.731	74.065	21.698	8.1688e-06	30.462	188.000	207.719	253.578	163.583	311.281	323.455	163.600	170.440	259.847	347.715	170.287	176.282	176.537	183.990	326.027	183.117	-8191	255	
32087.869	1	1	0	0	0.21963	0.23071	0.13585	0.22883	0.10535	0.24306	0.25299	0.32331	0.095298	0.1408	0.079404	0.23473	0.1254	0.079666	0.18334	0.19976	-2.6688	-3.0792	-2.9688	-3.5208	-3.0854	-3.1792	-3.1667	-3.0021	-3.2	-3.0771	-3.2125	-3.2229	-2.9771	-3.1125	-3.175	-2.8896	476.870	399.736	493.151	449.219	327.134	190.874	444.248	423.794	287.131	306.952	249.639	486.340	484.948	368.473	420.394	414.010	0.00030028	0.00069294	0.00025406	1233.7	3.9003e-06	8.6089e-06	1304.8	262.98	5.3052e-06	2.4896e-06	324.97	91.026	71.611	20.714	4.1392e-06	28.695	0.00070967	0.00075097	0.00020703	1224.1	8.1839e-06	8.1164e-06	1298	264.4	8.1125e-06	8.207e-06	330.22	93.618	74.414	21.741	8.1903e-06	30.438	193.898	203.311	275.045	163.367	235.873	242.785	163.364	170.274	168.877	282.722	170.297	176.490	176.780	183.836	301.805	183.329	-8191	255	
32087.967	1	1	0	0	0.10192	0.098626	0.0042254	0.26376	0.35167	0.21052	0.44427	0.20203	0.1664	0.12329	0.19496	0.13279	0.14592	0.084236	0.064988	0.1737	-2.7875	-2.8958	-2.9625	-3.3271	-2.9271	-3.0604	-3.2938	-3.0438	-3.1312	-3.1146	-2.9333	-3.1854	-2.9917	-3.025	-3.1521	-3.0542	295.926	451.254	165.436	394.239	201.036	484.896	441.178	502.765	159.578	408.437	227.679	229.792	445.992	457.756	274.307	228.822	0.00032018	0.00081091	7.7922e-05	1235.3	8.2758e-06	7.2651e-06	1303.2	261.03	2.7093e-06	3.558e-06	326.95	90.945	71.926	20.53	3.0703e-06	28.539	0.00071608	0.00075072	0.000209	1225.4	8.1869e-06	8.1686e-06	1297.9	263.72	8.1667e-06	8.1575e-06	331.22	93.714	74.401	21.747	8.2185e-06	30.417	201.454	234.479	411.630	163.455	273.642	221.961	163.460	170.840	234.678	388.252	170.351	176.278	176.557	183.876	225.132	183.484	-8191	255	
32088.062	1	1	0	0	0.18496	0.17256	0.22063	0.13304	0.048851	0.081482	0.29086	0.22073	0.117	0.13301	0.23652	0.21665	0.076917	0.30872	0.22805	0.12242	-3.0021	-3.1271	-2.9146	-3.2604	-2.9833	-3.1667	-3.5604	-3.0271	-3.2917	-3.1958	-3.0792	-3.4792	-3.1458	-3.0833	-3.2625	-2.9313	394.244	165.428	367.247	496.192	386.166	457.373	477.779	252.152	333.345	250.043	476.929	477.152	357.176	437.278	159.753	402.467	0.00028194	0.00023894	3.9469e-05	1237.9	4.0813e-06	5.1852e-06	1308.1	262.7	1.2118e-06	6.1371e-06	324.91	91.638	71.686	20.511	4.5571e-06	28.845	0.00071774	0.00074454	0.00020643	1227.2	8.0515e-06	8.1735e-06	1301.8	263.91	8.0876e-06	8.217e-06	330.31	93.97	74.421	21.719	8.1427e-06	30.439	188.669	199.846	239.954	163.836	381.393	487.995	163.368	170.411	249.249	264.286	170.554	176.161	176.743	184.226	225.603	183.261	-8191	255	
32088.158	1	1	0	0	0.1835	0.36697	0.19565	0.20956	0.25214	0.26214	0.19588	0.1627	0.22057	0.28312	0.1656	0.034331	0.40415	0.15271	0.29544	0.10996	-2.6208	-3.1437	-2.8896	-3.4625	-2.9125	-2.9354	-3.5125	-2.8875	-3.1125	-3.0187	-2.9604	-3.3958	-3.0125	-2.9354	-3.2062	-3.1104	287.633	454.207	400.060	416.828	193.820	223.831	455.211	462.894	496.058	397.003	499.511	276.423	475.128	222.285	487.500	345.261	0.00026956	0.00050187	0.00016234	1233.8	2.6113e-06	5.858e-06	1306.6	262.62	3.6447e-06	8.0559e-06	324.55	90.864	71.517	20.636	7.6804e-07	28.686	0.00071386	0.00075936	0.00020776	1226.5	8.1652e-06	8.1964e-06	1298.1	264.39	8.1362e-06	8.141e-06	330.73	93.688	74.328	21.774	8.1734e-06	30.402	190.908	272.041	294.224	163.643	332.992	313.136	163.351	170.281	265.272	342.317	170.081	176.205	176.748	183.977	296.704	183.467	-8191	255	
32088.256	1	1	0	0	0.20664	0.16239	0.17467	0.14081	0.27408	0.088337	0.29398	0.38352	0.16586	0.14718	0.20608	0.16228	0.34561	0.10316	0.18103	0.094666	-2.6354	-3.2375	-2.8104	-3.2958	-2.9708	-2.9333	-3.3854	-3.1	-3.1854	-3.1917	-3.1063	-3.2687	-3.1771	-2.875	-3.2083	-3.1458	413.904	169.165	223.516	202.050	314.619	375.184	462.256	418.005	482.611	210.656	496.042	193.029	156.409	485.672	290.596	385.128	0.00028932	0.00038901	0.0002399	1232.9	2.8873e-06	4.0328e-06	1306.7	261.94	2.1319e-06	6.7319e-06	324.6	90.786	71.963	20.476	1.0803e-06	28.74	0.00071589	0.00075055	0.00020692	1225	8.1749e-06	8.2681e-06	1298.5	264.25	8.0987e-06	8.1842e-06	330.01	93.672	74.409	21.735	8.1752e-06	30.426	208.138	183.329	272.636	163.555	275.514	195.052	163.427	170.258	342.447	376.324	170.342	176.167	176.983	183.548	391.742	183.455	-8191	255	
32088.352	1	1	0	0	0.38146	0.059909	0.21097	0.29585	0.048287	0.33571	0.3276	0.19471	0.08528	0.22761	0.208	0.12054	0.1445	0.10686	0.14648	0.082237	-2.7083	-3.3625	-3.0167	-3.2104	-3.3042	-2.9604	-3.45	-3.3563	-3.1437	-3.1896	-3.0167	-3.2479	-3.2292	-2.975	-3.1562	-3.0521	430.106	415.185	340.382	441.192	293.028	161.396	426.838	487.157	438.205	234.080	319.368	435.203	164.263	499.798	272.041	473.731	0.00023453	0.00057139	8.4233e-05	1237.8	4.6551e-06	1.0932e-05	1304.5	261.85	7.1441e-06	8.7543e-06	324.32	91.244	71.542	20.544	2.1977e-06	28.659	0.00071077	0.00074099	0.00020738	1227.3	8.1578e-06	8.1269e-06	1299.3	263.74	8.0612e-06	8.148e-06	330.34	93.825	74.382	21.686	8.1109e-06	30.433	188.779	262.202	472.532	163.591	311.878	247.141	163.516	170.321	243.881	342.917	170.053	176.371	176.524	183.483	463.319	183.532	-8191	255	
32088.471	1	1	0	0	0.24188	0.13495	0.11009	0.34243	0.10283	0.19901	0.086221	0.16154	0.076519	0.075007	0.19812	0.043506	0.15815	0.067929	0.079144	0.20253	-2.5083	-3.2229	-3.0354	-3.5042	-3.1479	-2.9667	-3.4875	-3.2375	-3.1625	-3.2208	-2.9583	-3.15	-3.2062	-2.9313	-3.2	-3.1625	297.731	312.858	400.805	491.224	189.347	305.456	362.759	430.095	411.396	197.726	435.951	299.607	317.040	317.566	336.442	450.808	0.00031994	0.00056513	0.0002145	1235.1	2.4271e-06	7.3077e-06	1309.1	262.86	3.6342e-06	6.2682e-06	327.68	90.988	71.825	20.578	4.2017e-06	28.724	0.0007122	0.00074885	0.00020726	1225.8	8.1604e-06	8.1671e-06	1298.6	264.29	8.1011e-06	8.2122e-06	330.91	93.808	74.335	21.716	8.1403e-06	30.439	202.530	287.581	252.841	163.812	214.845	220.874	163.410	170.581	308.956	286.838	170.147	176.403	176.932	183.831	269.469	183.674	-8191	255	
32088.566	1	1	0	0	0.37403	0.40634	0.14683	0.079283	0.2947	0.13077	0.25481	0.28054	0.2659	0.084513	0.20855	0.18886	0.23959	0.18467	0.14291	0.060705	-2.5542	-3.3229	-2.9458	-3.35	-3.1813	-2.7938	-3.4542	-3.1708	-2.8833	-3.4313	-3.0312	-3.1542	-3.2667	-2.8771	-3.2812	-3.1625	495.643	378.014	234.735	351.126	362.708	438.992	173.877	382.834	222.470	273.994	296.027	506.572	486.332	501.431	158.535	173.055	0.00028674	0.00015258	9.559e-05	1233.8	2.2541e-06	6.5615e-06	1305.6	261.8	3.0733e-06	5.5392e-06	323.99	91.197	71.968	20.624	4.5134e-06	28.804	0.00070847	0.0007417	0.00020696	1222.8	8.1921e-06	8.1876e-06	1297.2	263.98	8.1812e-06	8.1373e-06	329.83	93.708	74.372	21.711	8.1556e-06	30.418	201.157	201.883	270.339	163.540	468.359	302.589	163.624	170.355	209.185	358.748	170.495	176.482	176.526	183.635	225.357	183.286	-8191	255	
32088.639	1	1	0	0	0.25481	0.093082	0.19578	0.19662	0.11662	0.26844	0.21194	0.10613	0.16703	0.095915	0.29036	0.11452	0.062708	0.19093	0.034668	0.13364	-2.5375	-3.2938	-3.0667	-3.2417	-3.3187	-3.1292	-3.3146	-3.3229	-2.9917	-3.2583	-3.1875	-3.0083	-3.2167	-2.7896	-3.1312	-3.1729	217.344	333.312	247.569	486.625	480.104	224.086	437.941	401.118	164.730	196.132	168.046	172.623	353.311	190.701	280.917	324.454	0.00028408	0.00040793	0.0001504	1230.2	7.5275e-06	5.2394e-06	1303.8	261.5	1.6967e-06	2.2741e-06	323.96	90.89	71.719	20.577	7.188e-06	28.78	0.00071523	0.00074787	0.00020732	1223.9	8.2059e-06	8.1292e-06	1297.2	263.78	8.0604e-06	8.1035e-06	329.78	93.791	74.402	21.729	8.2026e-06	30.469	198.124	259.966	203.774	163.522	191.868	228.824	163.578	170.404	224.107	383.671	170.271	176.278	176.842	183.537	321.499	183.603	-8191	255	
32088.734	1	1	0	0	0.20153	0.076293	0.042149	0.20996	0.28492	0.18586	0.19081	0.083984	0.037678	0.19248	0.22514	0.17341	0.071745	0.1136	0.15939	0.20392	-2.4521	-3.0917	-3.0396	-2.9833	-3.1167	-3.0917	-3.1396	-3.3083	-2.9167	-3.2792	-3.0812	-3.0375	-3.3875	-3.0417	-3.2458	-3.3688	454.824	212.326	228.745	470.133	426.716	186.894	422.970	379.133	195.966	176.455	281.949	483.070	395.815	225.526	363.379	263.259	0.00028746	0.00040618	9.3572e-05	1233.7	3.4181e-06	8.1587e-06	1310.6	262.97	6.164e-06	4.7157e-06	323.87	91.683	71.695	20.499	7.4895e-06	28.751	0.0007108	0.00074178	0.00020856	1224.2	8.0828e-06	8.258e-06	1299.2	264.25	8.1317e-06	8.2392e-06	330.45	93.808	74.364	21.676	8.1827e-06	30.467	192.401	288.851	438.773	163.709	435.519	371.645	163.448	170.348	230.318	347.906	170.251	176.147	176.558	184.544	249.018	183.341	-8191	255	
32088.854	1	1	0	0	0.040506	0.23937	0.081428	0.079172	0.25563	0.17391	0.1474	0.18729	0.091524	0.32015	0.1324	0.16805	0.18882	0.035701	0.026345	0.15361	-2.6229	-3.1354	-3.075	-3.2583	-3.2396	-3.0792	-3.1292	-3.4437	-2.8937	-3.1833	-3.2479	-3.1312	-3.3312	-3.0521	-3.1688	-3.4313	286.278	361.674	286.771	170.721	433.182	170.464	445.561	470.926	274.830	153.928	432.892	502.164	360.649	172.213	343.973	183.009	0.00030986	0.0004016	0.00012729	1229.4	4.8923e-06	1.3767e-05	1302.3	262.88	6.1544e-06	3.9708e-06	324.67	91.017	71.776	20.441	3.8443e-06	28.592	0.00070885	0.00075817	0.00020705	1223.5	8.1116e-06	8.1327e-06	1298.6	264.25	8.1532e-06	8.1918e-06	330.77	93.724	74.301	21.715	8.0747e-06	30.428	203.318	217.830	217.492	163.651	264.244	280.102	163.824	170.449	261.594	332.169	170.354	176.517	177.045	184.078	337.095	183.686	-8191	255	
#DATA ENDS
