BOXY.EXE: ISS Imagent and Oximeter Data Acquisition Program Version 0.80
Ascii Record File

#ACQ INFORMATION
2  Detector Channels 
16  External MUX Channels 
1  Auxiliary Channels 
5000  Waveform (CCF) Frequency (Hz)
1  Waveforms Skipped 
30  Waveforms Averaged 
1  Cycles Averaged 
16  Acquisitions per Waveform 
10.0806  Updata Rate (Hz) 

#FILE INFORMATION
TRUE -- External MUX Channel results are PARSED.
FALSE -- AC DC and Phase are NOT grouped.
TRUE -- Companion Program Settings File CREATED.
FALSE -- AC data not excluded
FALSE -- DC data not excluded
FALSE -- Phase data not excluded
FALSE -- Auxillary Chn. data not excluded
Tab delimiters

#CALIBRATION STATE
TRUE -- Waveform Calibration Values APPLIED.


#AUX CALIBRATION VALUES
Val Type	aux-1	

Term	1.0000e+00	
Factor	0.0000e+00	


#WF CALIBRATION VALUES
A = Detector Channel
Val Type	A-AC1	A-AC2	A-AC3	A-AC4	A-AC5	A-AC6	A-AC7	A-AC8	A-AC9	A-AC10	A-AC11	A-AC12	A-AC13	A-AC14	A-AC15	A-AC16	A-DC1	A-DC2	A-DC3	A-DC4	A-DC5	A-DC6	A-DC7	A-DC8	A-DC9	A-DC10	A-DC11	A-DC12	A-DC13	A-DC14	A-DC15	A-DC16	A-Ph1	A-Ph2	A-Ph3	A-Ph4	A-Ph5	A-Ph6	A-Ph7	A-Ph8	A-Ph9	A-Ph10	A-Ph11	A-Ph12	A-Ph13	A-Ph14	A-Ph15	A-Ph16	

Term	0.00000e+00	0.00000e+00	0.00000e+00	0.00000e+00	0.00000e+00	0.00000e+00	0.00000e+00	0.00000e+00	0.00000e+00	0.00000e+00	0.00000e+00	0.00000e+00	0.00000e+00	0.00000e+00	0.00000e+00	0.00000e+00	0.00000e+00	0.00000e+00	0.00000e+00	0.00000e+00	0.00000e+00	0.00000e+00	0.00000e+00	0.00000e+00	0.00000e+00	0.00000e+00	0.00000e+00	0.00000e+00	0.00000e+00	0.00000e+00	0.00000e+00	0.00000e+00	0.00000e+00	0.00000e+00	0.00000e+00	0.00000e+00	0.00000e+00	0.00000e+00	0.00000e+00	0.00000e+00	0.00000e+00	0.00000e+00	0.00000e+00	0.00000e+00	0.00000e+00	0.00000e+00	0.00000e+00	0.00000e+00	
Factor	1.00000e+00	1.00000e+00	1.00000e+00	1.00000e+00	1.00000e+00	1.00000e+00	1.00000e+00	1.00000e+00	1.00000e+00	1.00000e+00	1.00000e+00	1.00000e+00	1.00000e+00	1.00000e+00	1.00000e+00	1.00000e+00	1.00000e+00	1.00000e+00	1.00000e+00	1.00000e+00	1.00000e+00	1.00000e+00	1.00000e+00	1.00000e+00	1.00000e+00	1.00000e+00	1.00000e+00	1.00000e+00	1.00000e+00	1.00000e+00	1.00000e+00	1.00000e+00	X	X	X	X	X	X	X	X	X	X	X	X	X	X	X	X	

B = Detector Channel
Val Type	B-AC1	B-AC2	B-AC3	B-AC4	B-AC5	B-AC6	B-AC7	B-AC8	B-AC9	B-AC10	B-AC11	B-AC12	B-AC13	B-AC14	B-AC15	B-AC16	B-DC1	B-DC2	B-DC3	B-DC4	B-DC5	B-DC6	B-DC7	B-DC8	B-DC9	B-DC10	B-DC11	B-DC12	B-DC13	B-DC14	B-DC15	B-DC16	B-Ph1	B-Ph2	B-Ph3	B-Ph4	B-Ph5	B-Ph6	B-Ph7	B-Ph8	B-Ph9	B-Ph10	B-Ph11	B-Ph12	B-Ph13	B-Ph14	B-Ph15	B-Ph16	

Term	0.00000e+00	0.00000e+00	0.00000e+00	0.00000e+00	0.00000e+00	0.00000e+00	0.00000e+00	0.00000e+00	0.00000e+00	0.00000e+00	0.00000e+00	0.00000e+00	0.00000e+00	0.00000e+00	0.00000e+00	0.00000e+00	0.00000e+00	0.00000e+00	0.00000e+00	0.00000e+00	0.00000e+00	0.00000e+00	0.00000e+00	0.00000e+00	0.00000e+00	0.00000e+00	0.00000e+00	0.00000e+00	0.00000e+00	0.00000e+00	0.00000e+00	0.00000e+00	-1.03364e+02	-1.28589e+02	-1.22771e+02	-1.82799e+02	-5.29327e+01	-6.36955e+01	-1.54998e+02	-1.62015e+02	-5.44320e+01	-6.23480e+01	-1.71853e+02	-1.69414e+02	-1.80018e+02	-1.77411e+02	-5.74280e+01	-1.48938e+02	
Factor	1.60856e-05	1.42380e-04	4.19562e-05	1.84207e-01	1.34200e-06	1.50499e-06	1.63323e-01	4.88771e-02	1.25689e-06	1.78350e-06	9.25773e-02	2.71365e-02	2.66344e-02	8.67124e-03	1.27850e-06	1.23973e-02	7.02452e-06	9.64614e-06	2.71299e-06	9.29001e-02	1.02271e-07	1.07808e-07	7.77924e-02	2.48455e-02	1.01700e-07	1.07589e-07	4.55974e-02	1.35142e-02	1.37367e-02	4.44083e-03	1.04084e-07	6.15744e-03	X	X	X	X	X	X	X	X	X	X	X	X	X	X	X	X	



#DISTANCE SETTINGS
A = Detector Channel
A-1	A-2	A-3	A-4	A-5	A-6	A-7	A-8	A-9	A-10	A-11	A-12	A-13	A-14	A-15	A-16	

2.5000e+00	3.0000e+00	2.5000e+00	3.0000e+00	2.0000e+00	3.0000e+00	1.5000e+00	3.0000e+00	3.0000e+00	3.0000e+00	3.0000e+00	3.0000e+00	3.0000e+00	3.0000e+00	1.5000e+00	3.0000e+00	

B = Detector Channel
B-1	B-2	B-3	B-4	B-5	B-6	B-7	B-8	B-9	B-10	B-11	B-12	B-13	B-14	B-15	B-16	

1.0000e+01	1.0000e+01	1.0000e+01	1.4400e+00	1.0000e+01	1.0000e+01	1.5100e+00	1.9400e+00	1.0000e+01	1.0000e+01	1.9900e+00	2.4900e+00	2.4100e+00	2.9000e+00	1.0000e+01	2.9800e+00	




#DATA BEGINS
time	group	step	mark	flag	A-AC1	A-AC2	A-AC3	A-AC4	A-AC5	A-AC6	A-AC7	A-AC8	A-AC9	A-AC10	A-AC11	A-AC12	A-AC13	A-AC14	A-AC15	A-AC16	A-DC1	A-DC2	A-DC3	A-DC4	A-DC5	A-DC6	A-DC7	A-DC8	A-DC9	A-DC10	A-DC11	A-DC12	A-DC13	A-DC14	A-DC15	A-DC16	A-Ph1	A-Ph2	A-Ph3	A-Ph4	A-Ph5	A-Ph6	A-Ph7	A-Ph8	A-Ph9	A-Ph10	A-Ph11	A-Ph12	A-Ph13	A-Ph14	A-Ph15	A-Ph16	B-AC1	B-AC2	B-AC3	B-AC4	B-AC5	B-AC6	B-AC7	B-AC8	B-AC9	B-AC10	B-AC11	B-AC12	B-AC13	B-AC14	B-AC15	B-AC16	B-DC1	B-DC2	B-DC3	B-DC4	B-DC5	B-DC6	B-DC7	B-DC8	B-DC9	B-DC10	B-DC11	B-DC12	B-DC13	B-DC14	B-DC15	B-DC16	B-Ph1	B-Ph2	B-Ph3	B-Ph4	B-Ph5	B-Ph6	B-Ph7	B-Ph8	B-Ph9	B-Ph10	B-Ph11	B-Ph12	B-Ph13	B-Ph14	B-Ph15	B-Ph16	aux-1	digaux	

16383.857	1	1	0	768	0.12508	0.078863	0.10099	0.26435	0.15478	0.10004	0.1904	0.17141	0.074588	0.11195	0.076284	0.11	0.11331	0.084578	0.12651	0.13257	-2.6521	-3.2396	-2.9583	-3.3167	-3.0896	-2.9542	-3.3667	-3.1917	-3.1667	-3.3667	-3.1208	-3.3125	-3.0604	-3.0229	-3.1896	-3.0125	76.195	121.477	99.878	239.855	-49.926	242.768	138.124	236.864	107.876	101.792	-20.771	189.661	-48.243	151.717	18.909	86.278	0.00018349	0.0015395	0.00014357	1731.5	6.327e-06	9.4243e-06	1251.3	433.6	1.9784e-05	1.2026e-05	316.34	85.634	117.87	44.908	1.0665e-05	38.259	0.0088926	0.012234	0.0034145	1606.2	0.00013027	0.0001373	1174	404.52	0.0001324	0.00013676	329.42	91.714	119.61	44.703	0.00013177	40.66	252.679	36.096	228.365	-92.350	-4.890	-0.376	-93.174	-88.042	216.980	22.570	-90.653	-85.679	-82.962	-77.902	-83.362	-80.842	-8191	255	
16383.953	1	1	0	0	0.056339	0.16467	0.11354	0.20858	0.065378	0.030407	0.0897	0.10678	0.13573	0.20818	0.18274	0.24809	0.16505	0.28159	0.10071	0.091143	-2.4875	-3.1937	-2.95	-3.3167	-3.0854	-3.0146	-3.4625	-3.1958	-3.0646	-3.2375	-2.8688	-3.2062	-3.2896	-2.8625	-3.1646	-3.0146	131.057	152.695	62.172	-70.501	119.787	23.727	-88.422	-67.548	52.975	90.933	154.864	-43.013	198.905	-93.703	212.499	67.625	9.6487e-05	0.0030378	0.00047969	1736.7	2.3433e-05	1.9525e-05	1251	437.67	9.6569e-06	3.9163e-05	323.95	86.782	119.48	45.242	1.6611e-05	38.518	0.0089949	0.012234	0.0034106	1603.9	0.00012944	0.00013762	1179.5	407.79	0.00013007	0.00013712	335.18	92.96	121.57	44.996	0.00013401	40.883	241.476	-18.110	197.266	-91.838	30.717	-106.284	-93.039	-88.435	199.691	90.790	-90.706	-85.972	-83.537	-78.083	-97.430	-82.153	-8191	255	
16384.049	1	1	0	0	0.080368	0.080446	0.075949	0.37778	0.085939	0.038823	0.2116	0.18835	0.14326	0.016453	0.21555	0.12296	0.17311	0.13563	0.13427	0.22466	-2.4938	-3.3125	-2.9562	-3.1396	-2.9583	-2.9208	-3.2896	-3.2958	-2.8208	-3.2979	-2.9917	-3.0146	-3.4021	-2.8021	-3.0542	-3.1875	203.333	-68.696	-31.190	195.477	194.104	191.937	200.364	180.026	200.591	135.847	149.201	184.133	209.420	170.090	-88.745	179.350	0.00012881	0.0009651	0.00041159	1765.4	8.7712e-06	2.068e-05	1279.5	437.8	5.0635e-06	1.3958e-05	327.01	87.266	120.21	45.529	7.9836e-06	38.702	0.00896	0.012277	0.0034146	1635.6	0.00012968	0.00013638	1196.8	411.25	0.00012943	0.00014113	338.43	93.81	122.56	45.279	0.00013446	41.41	100.054	-93.001	-85.995	-92.076	108.109	194.634	-93.311	-88.497	247.084	32.577	-90.376	-85.684	-83.625	-78.074	241.581	-80.736	-8191	255	
16384.145	1	1	0	0	0.036878	0.25258	0.12224	0.29448	0.12556	0.15876	0.38523	0.28759	0.10423	0.075919	0.14817	0.11333	0.16705	0.24863	0.18584	0.21817	-2.4396	-3.0646	-3.0542	-2.975	-3.1646	-2.8667	-3.3167	-3.1562	-2.9646	-3.2604	-3.1125	-2.9646	-3.3563	-3.0563	-3.1083	-3.2979	-4.526	164.397	75.294	-102.591	-67.208	80.461	161.901	197.360	187.439	106.481	247.122	225.610	-72.435	171.162	30.301	-72.391	0.00024091	0.0011463	0.00030522	1778	1.8585e-05	2.0796e-05	1288.7	442.36	1.4084e-05	1.9248e-05	329.03	87.812	120.43	45.722	5.0622e-06	39.264	0.0090553	0.012395	0.0034638	1647.4	0.00013167	0.00013748	1206.1	413.34	0.00012848	0.00013673	338.3	93.693	122.12	45.238	0.00013262	41.41	-84.560	61.314	-29.352	-92.204	-11.199	207.852	-93.123	-88.185	-18.872	-10.086	-90.552	-85.488	-83.243	-78.029	-76.470	-81.320	-8191	255	
16384.240	1	1	0	0	0.076839	0.14212	0.17045	0.13867	0.072914	0.20448	0.15075	0.34858	0.17278	0.239	0.18281	0.15731	0.088135	0.1963	0.10824	0.2126	-2.4167	-3.1958	-2.9396	-3.1437	-3.1875	-2.9188	-3.1604	-3.2396	-2.9625	-3.2562	-3.0875	-3.0521	-3.2438	-2.9854	-3.1104	-3.0687	-70.054	-30.189	209.978	175.412	212.945	-87.063	118.108	203.625	-101.318	248.367	166.145	183.389	112.401	248.395	203.544	143.327	0.00024313	0.0016309	0.00010596	1782.3	8.9409e-06	6.3811e-06	1288.8	442.53	1.7697e-05	2.7567e-05	326.1	87.579	119.58	45.347	2.9913e-06	38.617	0.0088106	0.011974	0.0033682	1640.6	0.00012696	0.00013411	1201	412.51	0.00012655	0.00013544	335.39	92.766	121.48	44.861	0.00013038	40.904	-45.813	-45.403	165.420	-92.150	104.093	194.197	-93.438	-88.137	220.682	57.675	-90.724	-85.995	-83.387	-78.127	214.526	-81.092	-8191	255	
16384.338	1	1	0	0	0.27266	0.075261	0.24167	0.20106	0.3171	0.28638	0.2297	0.29144	0.14109	0.15571	0.17569	0.27898	0.2503	0.19591	0.18344	0.05784	-2.3604	-3.0354	-2.7792	-3.3583	-3.1479	-2.9229	-3.1021	-3.3667	-2.8458	-3.15	-3.0875	-2.9958	-3.2625	-3.0312	-2.9583	-3.1229	95.088	126.483	182.127	156.013	145.561	-16.528	209.662	99.299	43.981	159.471	234.175	210.545	224.713	236.305	-63.297	-54.201	0.00019861	0.00059009	0.00032725	1779.2	6.3694e-06	1.5132e-05	1287.1	438.27	1.8692e-05	1.287e-05	323.44	87.978	120.86	45.146	1.0287e-05	38.063	0.0087395	0.011801	0.0033453	1636.5	0.00012623	0.00013114	1199.1	410.03	0.00012309	0.00013071	332.94	92.043	121.03	44.531	0.00012643	40.399	179.935	37.681	-27.934	-92.414	-24.833	141.529	-93.121	-88.129	70.573	35.251	-90.225	-85.804	-83.332	-77.901	-46.171	-80.795	-8191	255	
16384.457	1	1	0	0	0.25829	0.21445	0.13065	0.091251	0.21887	0.18426	0.37252	0.1803	0.15815	0.095373	0.15649	0.10153	0.14137	0.018471	0.058216	0.02473	-2.4188	-3.0687	-2.9688	-3.0417	-3.1104	-3.0083	-3.1875	-3.5021	-2.8729	-3.2396	-3.3104	-2.7979	-3.3604	-3.0229	-3.0417	-3.2667	36.046	-61.533	157.812	13.032	19.269	-87.597	196.891	195.091	83.005	127.258	108.229	244.066	32.686	-47.981	227.270	186.801	0.00010324	0.0022442	0.0006245	1782.4	1.027e-05	1.4157e-05	1288.8	442.05	2.1494e-05	1.2573e-05	329.6	87.771	120.71	45.763	1.467e-05	38.269	0.0084555	0.011565	0.003256	1638.3	0.0001231	0.0001289	1199.3	410.64	0.00012202	0.0001321	335.51	92.562	121.18	44.854	0.00012543	40.77	188.180	49.745	54.014	-92.237	-70.037	-86.275	-93.162	-88.110	89.403	-27.210	-90.258	-85.418	-83.802	-78.550	-98.795	-80.957	-8191	255	
16384.555	1	1	0	0	0.33143	0.16351	0.16678	0.28284	0.071288	0.15121	0.20312	0.15313	0.11352	0.22684	0.10707	0.12946	0.1705	0.072095	0.045682	0.17108	-2.3521	-3.0438	-3.0187	-3.0938	-3.1583	-3.0396	-3.1625	-3.375	-2.9458	-3.225	-3.2396	-2.9188	-3.2208	-3.1125	-2.9813	-3.1583	-78.172	25.551	131.116	232.328	160.096	228.857	155.446	-87.050	11.371	251.697	-71.383	203.821	233.051	73.356	73.668	-93.166	5.6599e-05	0.0010109	0.00044738	1782.3	1.4789e-05	2.0316e-05	1294	442.03	1.0414e-05	2.6978e-05	327.39	87.927	120.22	45.269	9.8036e-06	38.712	0.0083797	0.011468	0.0032142	1636.5	0.00012326	0.00012813	1203.2	411.01	0.0001201	0.00013013	333.81	92.317	121.02	44.764	0.00012316	40.984	-63.798	130.267	-99.074	-92.127	-41.354	103.287	-93.282	-87.980	220.536	101.702	-90.467	-85.338	-83.403	-78.156	-96.643	-81.269	-8191	255	
16384.650	1	1	0	0	0.1421	0.17268	0.13051	0.20744	0.15449	0.166	0.18373	0.27564	0.30234	0.1618	0.22031	0.086856	0.18888	0.26006	0.24362	0.1143	-2.6542	-3.0812	-3.0292	-2.8458	-3.0167	-3.2667	-3.1958	-3.3979	-2.8104	-2.975	-3.2083	-2.7104	-3.225	-3.2396	-2.8	-3.2438	-11.557	59.794	71.003	149.589	145.692	-19.072	216.183	230.479	67.309	-93.805	-47.098	69.450	66.952	196.198	102.063	8.612	0.00018628	0.0013924	0.00035396	1762.3	9.6473e-06	1.2765e-05	1270.8	434.37	1.3674e-05	1.6923e-05	319.21	85.947	117.84	44.878	1.6423e-05	38.332	0.0083197	0.011366	0.0032245	1623.5	0.0001224	0.00012775	1181.7	404.07	0.0001199	0.00012961	328.14	90.811	118.65	44.45	0.00012349	40.348	240.079	112.238	7.524	-92.351	169.668	-65.781	-92.961	-88.117	-31.005	107.513	-90.713	-85.770	-82.987	-77.750	-72.951	-80.654	-8191	255	
16384.746	1	1	0	0	0.24602	0.15661	0.043979	0.43504	0.15152	0.14467	0.14087	0.16062	0.085622	0.084746	0.064521	0.23065	0.10461	0.20868	0.14062	0.082072	-2.2938	-2.9104	-3.075	-3.0438	-3.0979	-3.1167	-2.9479	-3.3563	-3.0771	-3.0083	-3.1875	-3.0125	-3.2562	-3.1271	-2.925	-3.2583	104.535	136.783	-88.196	235.179	17.101	100.917	229.566	239.238	56.438	96.914	196.574	-100.186	244.338	211.692	79.977	-61.588	0.00019093	0.0019074	0.00015102	1718.5	1.7077e-05	1.0147e-05	1235.6	424.48	4.7175e-06	1.6131e-05	312.65	83.968	116.95	44.668	1.8363e-05	38.264	0.0084059	0.011513	0.0032017	1584.7	0.00012385	0.00012926	1156.9	395.88	0.00011945	0.00012946	322.1	89.914	117.75	44.09	0.00012355	40.357	243.152	66.781	78.906	-92.231	41.453	145.622	-93.066	-87.676	100.285	20.060	-90.470	-84.909	-83.205	-78.014	217.280	-80.446	-8191	255	
16384.844	1	1	0	0	0.11521	0.16958	0.12342	0.3365	0.048117	0.15509	0.027889	0.12068	0.1762	0.088571	0.35482	0.062011	0.13581	0.18901	0.11312	0.22887	-2.4521	-2.8792	-3.2542	-3.0125	-3.05	-3.25	-2.9646	-3.3104	-3	-2.9958	-3.2	-3	-2.9479	-3.0854	-2.8312	-3.1083	222.220	-83.837	49.795	223.713	237.502	61.542	-71.731	160.965	83.174	125.892	147.986	-63.722	238.461	169.235	-3.749	162.355	0.00036451	0.00028766	0.00042078	1711.8	2.7779e-06	4.7419e-06	1242.9	424.21	9.1716e-06	5.8716e-06	310.02	85.678	117.07	44.785	2.5431e-05	38.042	0.0084186	0.011607	0.0032205	1579.1	0.00012346	0.00012843	1159.6	395.81	0.00012065	0.00012823	323.19	90.178	118.36	44.235	0.00012269	40.543	-93.331	-84.433	-39.684	-92.175	63.847	192.656	-93.014	-87.916	152.787	120.861	-90.829	-85.304	-83.447	-77.931	-16.270	-81.127	-8191	255	
16384.938	1	1	0	0	0.01841	0.095467	0.15722	0.49399	0.090757	0.056528	0.20141	0.26443	0.25811	0.1202	0.12359	0.11669	0.15147	0.15893	0.15825	0.096928	-2.6792	-2.7	-3.1625	-3.0812	-2.9292	-3.1188	-3.0458	-3.3187	-3.0146	-2.8896	-3.1229	-3.0458	-2.9771	-3.1771	-2.8333	-3.1063	108.569	27.003	64.997	220.169	252.580	117.305	247.608	95.207	198.023	-22.693	179.144	-65.247	225.041	228.008	-43.459	-22.130	0.00022333	0.0016143	0.00024576	1738.9	1.0207e-05	1.7778e-05	1258.1	433.22	1.6163e-05	2.4001e-05	321.7	87.078	119.44	45.331	4.9175e-06	38.662	0.0084428	0.011641	0.0032529	1606.8	0.0001266	0.00013081	1178	405.3	0.00012287	0.0001316	331.78	92.04	120.29	44.782	0.00012592	41.099	236.827	-35.585	-49.586	-92.264	87.106	111.681	-93.091	-88.019	142.335	100.765	-90.541	-85.153	-83.074	-77.814	184.640	-80.890	-8191	255	
16385.059	1	1	0	0	0.11848	0.20919	0.20208	0.33791	0.10375	0.30083	0.25954	0.16212	0.21335	0.037283	0.23298	0.2813	0.17389	0.30067	0.056969	0.25232	-2.6583	-2.6813	-3.0958	-2.9625	-2.8438	-3.2354	-2.9167	-3.3708	-3.0708	-2.8542	-3.2167	-3.0854	-2.875	-3.3125	-2.8229	-2.9833	183.029	237.639	120.295	241.553	114.830	221.147	172.512	127.221	43.916	84.781	158.888	183.716	-17.941	213.725	157.803	207.259	0.00012137	0.0016646	4.5025e-05	1747	3.9792e-06	7.8896e-06	1261.7	431.46	2.9383e-06	2.38e-05	319.01	86.022	117.92	45.041	9.2411e-06	38.365	0.0086009	0.011737	0.0033198	1611.7	0.00012421	0.00013176	1176.4	403.47	0.00012277	0.00013122	328.12	91.177	119.45	44.519	0.00012567	40.563	193.590	68.488	237.030	-92.283	-102.515	-23.698	-92.893	-88.072	54.960	29.797	-90.465	-85.446	-83.394	-77.874	-1.987	-80.881	-8191	255	
16385.154	1	1	0	0	0.12538	0.091269	0.32087	0.18316	0.2578	0.19908	0.49137	0.36353	0.16268	0.19237	0.017138	0.25827	0.29966	0.24304	0.12959	0.10137	-2.5938	-2.7333	-3.1312	-3.0812	-2.8479	-3.3229	-3.0417	-3.1937	-3.1229	-2.8708	-3.3646	-3.1146	-2.8187	-3.0604	-3.0458	-2.7833	102.748	111.043	-95.835	188.446	171.183	-78.839	147.797	231.331	175.756	-103.107	228.277	-57.004	212.881	89.601	214.854	-72.447	0.00022971	0.00068895	0.00024547	1736.5	4.5501e-06	1.3831e-06	1260.3	430.97	8.0557e-06	1.4085e-05	313.62	85.79	117.36	44.988	1.4968e-05	37.965	0.0086393	0.011785	0.0032882	1602.8	0.0001244	0.00013472	1171.7	402.65	0.00012357	0.00012949	326.83	90.867	119.11	44.291	0.00012365	40.482	158.861	58.005	-33.338	-92.309	118.762	102.423	-93.093	-87.944	219.774	107.592	-90.625	-85.752	-83.343	-78.036	29.806	-81.483	-8191	255	
16385.250	1	1	0	0	0.13408	0.052917	0.2544	0.3255	0.17882	0.096316	0.087946	0.12451	0.18051	0.12772	0.17203	0.12519	0.19382	0.25268	0.26954	0.024562	-2.5708	-2.6542	-3.0542	-3.1813	-2.8229	-3.2542	-3.1083	-2.9771	-3.1937	-2.8958	-3.1625	-3.1771	-2.9271	-3.3417	-2.8354	-3.2167	157.973	195.578	-79.845	135.905	-25.828	-102.835	68.287	145.664	209.738	40.080	-44.506	198.486	-94.189	239.879	105.463	-29.355	0.00017935	0.0012467	0.00044237	1745.9	2.096e-05	1.4566e-05	1250.7	430.02	2.3565e-05	1.717e-05	315.13	85.179	118.6	44.982	1.8523e-05	38.234	0.0083881	0.011367	0.0032066	1601.8	0.00011834	0.00012704	1168.1	399.34	0.00011748	0.00012361	323.61	89.708	117.86	44.079	0.00011807	40.007	-2.406	-15.438	-36.009	-92.152	148.735	60.313	-92.987	-88.000	-56.915	-3.694	-90.595	-85.375	-83.233	-77.859	145.520	-80.678	-8191	255	
16385.346	1	1	0	0	0.15276	0.27748	0.19941	0.26544	0.16526	0.055078	0.20573	0.32888	0.19328	0.046615	0.10818	0.19274	0.31115	0.10254	0.15543	0.13771	-2.9583	-2.9437	-3.0333	-3.3583	-2.8021	-3.2708	-3.0687	-2.8958	-3.1625	-3.0042	-3.2542	-3.0625	-2.8083	-3.3333	-3.0583	-2.9708	-74.165	168.764	174.685	-92.676	-79.782	108.797	142.219	215.882	-7.729	-30.644	-97.725	164.115	205.494	205.815	115.239	171.440	0.00014758	0.0012284	0.0002583	1746.7	1.122e-05	7.7395e-06	1250.6	429.56	1.7509e-05	2.527e-05	316.53	86.455	118.51	45.099	7.6918e-06	37.938	0.0080487	0.010887	0.0030651	1601.8	0.0001153	0.00012407	1167.5	398.98	0.0001147	0.00012021	322.65	90.181	117.89	43.929	0.00011633	39.834	192.868	-46.479	17.496	-92.035	170.183	234.727	-93.216	-88.123	-1.145	57.806	-90.493	-85.287	-83.133	-77.925	-37.043	-80.919	-8191	255	
16385.418	1	1	0	0	0.14867	0.011336	0.040771	0.15981	0.27551	0.2025	0.23847	0.13872	0.30261	0.028148	0.26806	0.10409	0.14819	0.28674	0.089425	0.12236	-2.875	-2.9083	-2.9875	-3.4833	-3.0208	-3.2229	-3.0146	-2.8958	-3.1625	-2.95	-3.0292	-3.1562	-2.9021	-3.2458	-3.0292	-2.8771	87.175	124.830	150.574	222.893	31.546	144.430	51.281	198.646	-82.449	143.075	203.376	141.003	-52.372	-86.466	-86.651	161.869	0.00019181	0.0018939	0.00035405	1722.8	2.3045e-05	1.1307e-05	1220.2	413.99	1.5588e-05	8.7518e-06	298.75	82.423	112.3	43.957	3.1078e-06	36.852	0.0080131	0.010678	0.0030155	1576	0.00010979	0.00011768	1129.9	382.19	0.00010724	0.00011331	304.44	85.299	111.94	42.727	0.0001072	38.417	-19.565	61.300	-40.420	-92.229	-15.145	79.769	-93.155	-87.903	-81.089	53.445	-90.163	-85.079	-82.637	-77.456	250.934	-81.085	-8191	255	
16385.537	1	1	0	0	0.18347	0.25948	0.089486	0.074837	0.16041	0.11392	0.064517	0.31581	0.08797	0.11607	0.028478	0.29308	0.23919	0.095815	0.16773	0.27218	-2.8	-2.8375	-3.0479	-3.4104	-2.8917	-3.3042	-3.2188	-3.0979	-3.1625	-2.8583	-3.0354	-3.2042	-2.9146	-3.2854	-3.2938	-2.8229	124.372	158.417	-67.538	230.534	119.748	99.826	207.109	200.602	16.900	151.045	107.051	17.836	-103.074	-53.441	136.967	204.645	0.00022356	0.0015382	0.00029601	1642.5	8.8084e-06	1.6652e-05	1168.9	399.96	1.1557e-05	2.6993e-06	292.73	82.504	113.48	43.624	2.1229e-05	37.419	0.0073841	0.010011	0.002817	1503.6	0.00010518	0.00011337	1082.6	370.27	0.00010509	0.00011085	299.76	85.673	112.86	42.765	0.00011451	39.072	232.111	145.061	222.424	-91.846	82.544	4.246	-92.882	-87.548	92.143	109.043	-89.705	-85.705	-83.321	-77.770	149.447	-81.122	-8191	255	
16385.635	1	1	0	0	0.16848	0.13926	0.13475	0.31998	0.15332	0.080371	0.14988	0.37776	0.29148	0.15308	0.1525	0.037137	0.19197	0.17535	0.1835	0.16696	-2.7438	-2.9729	-2.7271	-3.2792	-2.8354	-2.9437	-3.1771	-2.9854	-3.2438	-2.9646	-2.7896	-3.1562	-2.9229	-3.2604	-3.2083	-3.0563	139.851	-97.244	207.595	229.007	157.194	-26.643	-9.918	234.199	214.929	-0.057	190.790	-27.987	130.752	-90.112	163.029	-86.514	0.00021365	0.0021348	0.00015982	1724.8	2.959e-06	1.7716e-05	1238.3	424.33	2.9275e-06	4.9517e-06	309.78	85.459	116.89	44.373	1.1976e-05	37.596	0.0080471	0.010971	0.0030916	1581.7	0.00011506	0.00012394	1154.1	393.41	0.0001138	0.00011941	315.76	88.848	116.18	43.242	0.00010879	38.648	-55.102	27.499	251.183	-92.236	-51.804	-61.479	-93.077	-88.107	-68.691	166.217	-90.302	-84.750	-82.970	-77.751	110.631	-80.848	-8191	255	
16385.730	1	1	0	0	0.11408	0.23371	0.12452	0.32635	0.12004	0.20004	0.28823	0.24449	0.21075	0.11831	0.20515	0.10048	0.21686	0.14339	0.21902	0.093557	-2.7458	-2.8979	-3.0146	-3.3104	-3.1417	-2.8063	-3.2083	-3.0396	-3.0875	-3.15	-3.0333	-3.1437	-2.9792	-3.0938	-3.0875	-3.0563	28.703	137.792	-83.885	207.650	7.685	-55.777	72.820	181.283	-53.711	6.933	237.894	53.657	-94.334	-58.960	102.449	-25.457	8.2536e-05	0.0018597	3.522e-05	1689.4	6.5218e-06	7.9307e-06	1183.4	404.66	1.0163e-05	2.5017e-05	294.49	82.386	111.99	43.428	8.4835e-06	37.036	0.0072314	0.0095711	0.0026754	1536.6	9.8224e-05	0.00010557	1098.6	372.85	9.6893e-05	0.00010492	295.98	84.601	110.7	42.173	0.00010396	38.142	216.489	-12.628	68.027	-92.015	110.209	103.429	-93.019	-87.561	44.085	-9.559	-90.294	-84.771	-82.797	-77.657	76.446	-80.840	-8191	255	
16385.826	1	1	0	0	0.16255	0.058002	0.11605	0.097958	0.23976	0.11392	0.20715	0.052479	0.13358	0.13551	0.093166	0.25865	0.032501	0.22896	0.13745	0.19195	-2.7271	-2.9646	-2.7271	-3.1833	-3.0062	-3.0979	-3.2896	-3.1562	-3.1625	-3.0375	-2.9313	-3.2396	-3.0521	-2.8083	-3.2833	-3.1208	128.415	170.255	-87.202	192.367	-81.455	84.479	164.847	208.531	230.842	-51.465	163.360	-71.641	144.439	197.354	72.273	-95.023	0.00017783	0.0015319	0.00073103	1649.9	1.0381e-05	4.5772e-06	1178.3	403.76	1.3285e-05	1.7028e-05	297.46	82.457	112.78	43.607	1.9781e-05	37.061	0.0074449	0.010046	0.0028432	1513.8	0.00011029	0.00011842	1103.1	375.57	0.00011389	0.00012157	305.91	87.466	113.81	43.089	0.00012145	39.205	185.282	-75.727	16.334	-92.144	-72.135	38.234	-92.801	-87.403	-67.064	149.218	-90.344	-85.205	-82.925	-77.525	79.590	-80.852	-8191	255	
16385.945	1	1	0	0	0.18186	0.17736	0.25843	0.18927	0.10406	0.14259	0.10249	0.31988	0.31617	0.11741	0.26133	0.062161	0.14343	0.1276	0.2616	0.28178	-2.7208	-3.3083	-2.9146	-3.2625	-3.0042	-3	-3.4146	-3.1	-3.1604	-3.0125	-2.9854	-3.2854	-3.1562	-2.9833	-3.0771	-3.0583	-103.544	30.577	-88.005	248.840	166.594	12.995	157.953	192.899	131.676	41.466	140.582	11.389	180.632	164.811	240.079	201.005	5.5262e-05	0.0019459	0.00013214	1647.4	1.242e-05	9.4551e-06	1180.3	406.91	3.6181e-06	2.8864e-06	302.29	82.012	113.09	43.646	8.3491e-06	37.174	0.0084275	0.011404	0.0031963	1525.4	0.00012165	0.00012815	1110.6	379.79	0.00012087	0.00012778	310.57	87.613	114.64	43.194	0.00012101	39.142	-95.048	250.451	-22.327	-91.826	120.284	29.294	-92.639	-87.544	181.980	89.894	-89.955	-85.517	-83.265	-77.975	-2.957	-81.222	-8191	255	
16386.020	1	1	0	0	0.083239	0.27186	0.11686	0.11128	0.097967	0.19625	0.041814	0.25584	0.1154	0.11319	0.22159	0.082023	0.19385	0.17514	0.083096	0.10497	-2.6625	-3.0792	-2.8771	-3.1875	-3.1813	-3.0208	-3.3958	-2.9521	-2.9875	-3.3604	-2.8417	-3.025	-3.2458	-3.0062	-3.0771	-3.0833	99.122	24.172	73.660	200.925	-4.817	147.830	122.684	243.181	119.339	67.458	141.126	-33.020	217.304	213.351	-55.057	51.489	0.00020044	0.0015069	7.6716e-05	1666.4	9.2915e-06	1.356e-06	1191.2	409.61	7.5342e-06	1.6293e-05	298.78	82.755	113.39	43.521	1.2285e-05	37.5	0.0084009	0.011272	0.0031206	1542.7	0.00011875	0.00012613	1115.6	381.08	0.00011835	0.00012516	308.08	87.669	114.37	43.082	0.00012	39.368	46.702	-100.827	-83.827	-91.909	210.675	159.104	-92.820	-87.568	-35.332	109.925	-89.955	-85.704	-82.908	-78.037	-25.869	-81.435	-8191	255	
16386.139	1	1	0	0	0.12832	0.16803	0.20733	0.28158	0.087729	0.095472	0.16712	0.19318	0.29516	0.18692	0.12086	0.099841	0.042579	0.0079339	0.10269	0.22451	-2.5438	-3.1688	-2.8958	-3.2917	-3.0979	-2.9229	-3.3229	-3.0708	-2.8292	-3.3063	-3.1271	-2.9396	-3.2687	-2.9646	-3.2375	-3.2396	-10.803	193.533	-73.909	199.567	109.553	142.101	99.618	-82.083	183.460	253.931	-97.440	-92.577	-79.986	118.680	-84.766	-67.426	0.00015959	0.00073065	0.00066911	1661.6	1.7658e-05	2.6811e-05	1184.7	404.45	1.5362e-05	1.6245e-05	300.55	82.899	112.93	44.179	2.0736e-05	37.656	0.0083903	0.011488	0.0031874	1529.1	0.00012051	0.00012645	1112.3	377.95	0.00012048	0.00012623	310.7	88.42	114.71	43.451	0.0001236	40.01	207.693	114.336	-20.190	-91.886	24.704	92.317	-92.825	-87.530	72.357	95.814	-90.014	-85.308	-82.600	-78.067	41.428	-80.849	-8191	255	
16386.234	1	1	0	0	0.051196	0.1979	0.071855	0.25232	0.1065	0.034399	0.18526	0.31161	0.088861	0.12212	0.18223	0.097971	0.18617	0.40279	0.15936	0.13712	-2.5333	-3.2375	-2.9083	-3.1792	-3.1875	-2.6146	-3.3937	-3.1854	-2.9021	-3.25	-3.0729	-3.0792	-3.1688	-2.925	-3.2792	-3.0333	182.283	167.505	172.426	201.353	158.166	23.600	232.336	151.575	-81.365	29.775	164.520	-57.356	241.977	244.355	-97.913	210.096	0.00014971	0.0011681	0.00014615	1656.8	7.4023e-06	1.7269e-05	1179.6	402.03	8.8227e-06	1.4229e-05	296.42	83.309	113.62	44.023	5.2465e-06	37.685	0.0084249	0.011741	0.003208	1528.3	0.00012074	0.00012677	1111.6	377.62	0.00012061	0.00012689	308.94	88.53	114.68	43.467	0.00012366	39.869	-101.186	18.727	-11.522	-91.976	-86.260	27.772	-92.727	-87.686	53.911	-1.658	-89.648	-84.904	-82.580	-77.724	190.582	-81.011	-8191	255	
16386.330	1	1	0	0	0.11302	0.18154	0.17532	0.35924	0.092414	0.068748	0.22246	0.073445	0.22028	0.16618	0.18196	0.0397	0.16548	0.15931	0.24757	0.0083945	-2.4854	-3.2917	-2.975	-3.1354	-3.3146	-2.8771	-3.4125	-3.3438	-2.7917	-3.2354	-3.1104	-3.1104	-3.1854	-2.9813	-3.0354	-3.3271	-75.680	-58.261	34.478	225.349	-39.456	-48.325	-95.030	147.129	107.943	-77.220	149.775	-61.978	-44.512	-68.202	188.506	18.063	0.00028365	0.0015219	0.00045271	1663.2	3.1317e-05	6.7302e-06	1188.8	405.73	1.736e-05	1.151e-05	296.12	82.851	113.27	44.31	8.5441e-06	37.676	0.0084176	0.011469	0.0031986	1536	0.00012226	0.00012611	1117.2	379.67	0.00012035	0.00012734	309.81	87.979	114.78	43.534	0.00012541	39.911	168.052	81.415	120.761	-91.948	112.005	58.196	-93.094	-87.457	-18.806	-11.018	-89.893	-84.959	-82.698	-77.524	106.812	-81.116	-8191	255	
16386.426	1	1	0	0	0.06307	0.23471	0.27754	0.31565	0.15807	0.18478	0.10832	0.088564	0.057304	0.08837	0.11077	0.061682	0.16563	0.286	0.11323	0.14055	-2.4437	-3.2146	-2.9417	-3.1667	-3.0729	-2.85	-3.2458	-3.2521	-2.9958	-3.125	-3.0229	-3.1229	-3.3667	-3.0687	-3.0208	-3.2292	131.547	-31.471	50.519	-103.865	62.530	52.049	172.578	186.685	202.071	-2.995	203.688	191.002	228.427	-96.642	28.355	196.242	0.00017607	0.00034504	0.00013191	1659.8	1.4348e-05	1.4063e-05	1183.7	402.82	1.0577e-05	2.0075e-05	297.51	83.131	113	44.066	8.1291e-06	37.892	0.0084745	0.011714	0.0032569	1534.4	0.00012159	0.00012939	1113.5	378.29	0.00012087	0.00012833	309.12	88.082	114.62	43.568	0.00012413	40.181	213.597	145.659	-34.680	-92.031	100.374	111.575	-93.082	-87.290	111.838	237.561	-89.858	-85.101	-82.538	-77.879	126.551	-80.810	-8191	255	
16386.547	1	1	0	0	0.1505	0.27458	0.18404	0.25124	0.10578	0.13879	0.020944	0.23257	0.17443	0.066859	0.10283	0.038889	0.10901	0.38815	0.054842	0.20375	-2.3688	-3.1437	-2.9896	-3.0708	-3.075	-3.1188	-3.1146	-3.2583	-2.8937	-3.0854	-3.0042	-2.8187	-3.2354	-2.9604	-3	-3.1979	-17.158	-86.143	127.667	-88.376	10.232	125.365	79.237	226.898	73.950	143.184	-33.373	-89.727	245.970	-71.584	120.947	183.209	9.381e-05	0.001808	0.00051323	1644.7	1.1204e-05	1.4828e-05	1167.1	399.56	9.512e-06	1.3375e-05	292.62	82.473	111.58	44.005	1.8625e-05	38.068	0.0084672	0.01154	0.0032356	1514.1	0.00011986	0.00012678	1098.1	374.81	0.00011912	0.0001254	305.48	87.642	113.85	43.428	0.00012301	40.072	-76.692	-18.373	-38.911	-91.844	173.821	56.050	-92.555	-87.373	-38.939	27.897	-89.435	-85.098	-82.684	-77.627	-41.071	-81.011	-8191	255	
16386.643	1	1	0	0	0.39746	0.17998	0.056875	0.32982	0.14207	0.14307	0.20497	0.15434	0.25301	0.10193	0.19461	0.14796	0.34909	0.29697	0.20551	0.2962	-2.3771	-3.0375	-3.0833	-2.9917	-3.1479	-3.0938	-3.0292	-3.2938	-3.0646	-2.9875	-3.1229	-2.9542	-3.1917	-3.0646	-2.8729	-3.2875	163.643	100.052	-37.039	-104.295	-91.364	143.605	170.373	84.030	31.240	80.408	51.782	-43.943	212.258	155.914	10.275	46.868	0.00016005	0.0012601	0.00054715	1640.3	8.1231e-06	6.4862e-06	1184.8	403.9	1.0497e-05	2.8251e-05	298.97	83.15	113.16	44.217	1.4117e-05	37.291	0.0082998	0.011537	0.0031978	1519.4	0.00012032	0.00012763	1108.7	378.63	0.00011875	0.00012666	308.53	87.834	114.49	43.645	0.00012197	39.738	198.997	-57.678	-45.699	-91.808	80.536	-61.962	-92.742	-87.399	202.135	-70.172	-89.618	-84.795	-82.999	-77.907	214.423	-80.955	-8191	255	
16386.715	1	1	0	0	0.28496	0.18154	0.094461	0.14996	0.11961	0.17524	0.082262	0.46996	0.14655	0.10149	0.24276	0.15729	0.063658	0.29312	0.058123	0.273	-2.3667	-2.9125	-3.1583	-3.1146	-3.2458	-3.0479	-2.8771	-3.2417	-2.9479	-3.0146	-3.1042	-3.0167	-3.2854	-3.0875	-2.8563	-3.1167	-55.265	-3.559	188.639	236.287	77.561	171.512	-66.707	199.847	116.924	162.151	202.173	197.698	221.340	220.393	-51.053	199.989	0.0002399	0.0018575	0.00031175	1643.9	8.8611e-06	4.5637e-06	1167.1	397.66	5.0115e-06	1.1452e-05	290.18	80.861	110.94	43.635	1.4328e-05	37.792	0.0081836	0.011391	0.0031584	1515.4	0.00011677	0.00012413	1090.6	372.25	0.0001137	0.00012138	299.21	85.4	111.71	42.711	0.00011486	39.161	170.381	209.467	-25.863	-91.765	103.797	-13.084	-92.873	-87.278	78.072	-27.546	-89.672	-84.768	-82.789	-77.718	84.741	-80.344	-8191	255	
16386.834	1	1	0	0	0.16775	0.23668	0.2039	0.25502	0.11359	0.15017	0.26355	0.29131	0.1305	0.32012	0.29869	0.08519	0.11033	0.30932	0.02604	0.12103	-2.6354	-3.1167	-3.1312	-2.9396	-3.1229	-3.1229	-2.9604	-3.2625	-2.8208	-2.9333	-3.2646	-2.9104	-3.2354	-3.0062	-2.775	-3.2167	-104.269	-72.370	192.583	191.119	-71.343	28.926	168.499	117.714	-45.158	-91.333	254.644	78.823	180.866	235.310	7.955	149.626	0.00018403	0.001719	0.00018917	1624.6	1.8432e-06	2.0458e-05	1164.2	398.25	9.5357e-06	3.0873e-05	292.99	80.909	111.84	43.631	1.4113e-05	37.966	0.0078825	0.010989	0.003051	1496.3	0.00011522	0.00012114	1087	371.65	0.00011271	0.00012216	301.46	86.091	112.54	42.925	0.000117	39.347	222.466	-18.064	179.666	-91.716	244.466	-18.833	-92.840	-87.293	29.153	94.484	-89.625	-85.245	-82.817	-77.650	87.576	-79.871	-8191	255	
16386.930	1	1	0	0	0.15017	0.25855	0.10779	0.30371	0.19963	0.25072	0.20822	0.33671	0.074801	0.19966	0.38535	0.18882	0.026694	0.13098	0.41519	0.40411	-2.6667	-2.9396	-3.1979	-3.1125	-3.1021	-3.1646	-3.0229	-3.2125	-2.7687	-2.9479	-3.3375	-3.0563	-3.1854	-3.225	-2.7729	-3.1646	-44.037	-70.233	-0.148	203.259	153.782	-3.696	219.809	168.773	141.280	-12.990	197.199	59.380	252.198	250.490	171.007	207.380	0.00025649	0.0020119	0.00021848	1617.2	6.8813e-06	1.4218e-05	1152.5	395.13	1.1163e-05	1.1631e-05	291.9	81.739	109.71	43.284	7.1977e-06	38.172	0.0079115	0.010839	0.0030672	1493.9	0.00011474	0.00012169	1078.9	368.2	0.00011466	0.00012361	301.1	86.399	111.86	43.026	0.00012396	40.1	-99.339	38.996	171.362	-91.683	239.092	-14.588	-92.957	-87.218	-49.788	-13.584	-89.897	-84.293	-82.223	-77.250	-49.349	-80.635	-8191	255	
16387.025	1	1	0	0	0.05476	0.092724	0.15074	0.16679	0.023225	0.091281	0.11183	0.16311	0.11195	0.027186	0.038285	0.14114	0.23162	0.21844	0.13856	0.11648	-2.7562	-2.9458	-3.1083	-3.0958	-3.0792	-3.0021	-3.1542	-3.2333	-3.1042	-2.9417	-3.2979	-3.1083	-2.9562	-3.2417	-2.9604	-3.2812	65.105	169.351	-47.558	237.179	8.582	-90.954	195.914	247.503	245.918	166.075	122.828	-61.010	152.124	253.760	168.691	-58.187	0.00015946	0.0015168	0.00017923	1553.5	9.1404e-06	3.9039e-05	1095.5	377.49	1.5508e-05	2.0928e-05	280.11	80.556	106.79	43.136	2.0577e-05	37.951	0.0085034	0.011483	0.0033096	1442.7	0.00012254	0.00012938	1037.2	355.54	0.00012303	0.0001301	295.18	86.052	110.21	43.086	0.00013007	40.376	225.804	37.667	33.022	-91.288	-66.257	5.588	-92.378	-86.883	-14.464	-24.339	-89.525	-84.653	-82.526	-77.703	-1.222	-80.640	-8191	255	
16387.121	1	1	0	0	0.17524	0.041545	0.299	0.32602	0.091316	0.094133	0.19412	0.16273	0.031094	0.25319	0.18178	0.10097	0.090715	0.17712	0.21385	0.26828	-2.5771	-2.8187	-3.0396	-3.1708	-3	-3.1167	-2.9271	-3.2104	-3.1354	-2.8937	-3.0917	-2.9437	-3.0458	-3.2438	-3.0083	-3.2417	-8.143	-102.474	143.104	236.299	58.862	-49.681	235.453	-97.699	104.956	-54.829	105.151	-74.310	113.510	119.817	64.848	77.188	0.00035688	0.0019459	0.00025373	1577.3	1.0384e-05	1.7695e-06	1145.4	393.78	5.6816e-06	9.5753e-06	293.29	81.74	111.36	43.895	8.497e-06	37.623	0.0090549	0.012405	0.0035561	1473.4	0.00013348	0.00014148	1081.8	373.42	0.00013265	0.00013841	309.24	88.417	114.59	43.656	0.00013017	40.033	223.948	-14.483	-40.841	-91.722	170.007	218.264	-92.704	-87.392	239.186	-48.957	-89.451	-85.039	-82.427	-77.726	43.737	-80.593	-8191	255	
16387.242	1	1	0	0	0.20996	0.22157	0.11314	0.21773	0.078399	0.047417	0.4171	0.14135	0.15218	0.42831	0.20274	0.348	0.16633	0.11325	0.21309	0.17908	-2.4833	-2.8333	-3.2583	-3.1896	-2.9146	-3.2375	-3.1604	-3.2271	-3.2854	-2.8979	-3.0062	-3.0958	-3.0563	-3.2417	-3	-2.9938	66.169	233.218	-88.990	-84.870	183.653	3.248	206.510	183.570	193.539	-4.620	246.769	229.648	187.249	178.094	-20.482	120.433	5.1856e-05	0.001199	0.00027688	1657.5	1.6394e-05	2.3835e-05	1200.7	413.89	7.8054e-06	5.6913e-06	304.37	83.67	114.42	43.875	5.3381e-06	37.938	0.0087455	0.011809	0.0034075	1537.1	0.00012492	0.00013027	1123.9	386.79	0.00012352	0.00013108	316.4	89.457	116.67	43.955	0.00012668	40.25	-78.857	-78.062	101.764	-92.005	60.442	-19.475	-92.928	-87.387	-69.677	237.378	-90.167	-85.552	-83.038	-77.591	86.752	-81.011	-8191	255	
16387.314	1	1	0	0	0.22956	0.30406	0.27648	0.14761	0.079463	0.13877	0.21423	0.2371	0.16258	0.16312	0.12567	0.14913	0.16408	0.045141	0.10839	0.17089	-2.7458	-2.7875	-3.1708	-3.2938	-2.8833	-3.2229	-3.05	-3.1458	-3.175	-2.6937	-3.4167	-2.9729	-2.7958	-3.3833	-2.9917	-2.9833	56.323	68.102	-70.190	189.187	198.515	58.107	210.209	166.191	-5.431	-100.628	227.318	161.710	197.242	55.034	146.252	147.223	0.00016552	0.00076977	0.00043288	1665.8	5.5613e-06	1.4993e-05	1188.2	407	4.5502e-06	1.603e-05	299.32	83.609	113.93	44.403	1.3496e-05	37.93	0.0086908	0.011821	0.0033698	1545.4	0.00012619	0.00013211	1118.4	383.05	0.00012643	0.00013331	313.53	89.89	116.41	44.356	0.0001341	40.931	147.876	237.969	43.335	-92.032	-22.840	-23.859	-93.103	-87.426	62.444	10.453	-89.935	-85.268	-82.852	-77.475	-6.125	-80.860	-8191	255	
16387.410	1	1	0	0	0.074332	0.22152	0.05147	0.14764	0.091765	0.21862	0.099943	0.30047	0.083667	0.038334	0.15041	0.035152	0.041033	0.17858	0.17849	0.074255	-2.725	-2.8937	-2.9396	-3.2229	-2.7687	-3.2125	-3.0458	-3.1188	-3.1396	-2.8542	-3.2521	-3.175	-2.9604	-3.1312	-2.9938	-3.0687	-85.686	110.935	162.217	211.927	-98.706	-60.495	242.086	223.414	-19.795	-41.741	160.999	185.003	-89.927	183.230	170.816	192.461	0.00020499	0.0014758	0.00057277	1649.9	4.2361e-06	1.3096e-05	1182.5	407.69	7.6485e-06	3.9054e-05	300.81	83.573	113.59	44.539	4.8679e-06	37.937	0.009136	0.012593	0.0035767	1540.7	0.00013191	0.00013858	1120.3	383.46	0.0001323	0.00013895	316.49	90.056	116.53	44.32	0.00013455	40.685	224.521	46.323	71.901	-91.988	-17.100	-54.307	-92.521	-87.368	-99.520	152.460	-89.682	-84.869	-82.846	-77.564	10.239	-80.642	-8191	255	
16387.508	1	1	0	0	0.16212	0.15954	0.10472	0.40503	0.14119	0.11264	0.20295	0.17059	0.093134	0.093116	0.10418	0.15614	0.075531	0.37195	0.054836	0.097083	-2.7354	-2.9646	-3.0375	-3.1958	-2.9188	-3.2625	-3.1479	-3.0875	-3.1771	-2.9313	-3.2562	-3.2833	-3.0438	-3.2188	-3.1562	-2.8	157.321	49.203	-91.495	232.398	152.379	246.821	133.605	199.409	30.242	-75.532	-65.464	164.425	-80.835	-100.388	-36.429	237.165	0.00010533	0.0008331	0.00035252	1657.9	9.831e-06	2.7052e-06	1186.5	406.64	6.9945e-06	9.959e-06	298.02	83.37	113.51	43.629	1.9586e-05	37.842	0.0091449	0.012361	0.0035701	1543.1	0.00013197	0.0001402	1121.1	384.07	0.00013405	0.00013938	315.39	89.851	116.47	44.129	0.00013592	40.424	250.317	18.272	77.769	-91.838	139.750	185.713	-93.406	-87.274	-99.429	-20.018	-90.346	-85.106	-83.007	-77.706	-93.036	-80.465	-8191	255	
16387.627	1	1	0	0	0.17662	0.03779	0.20111	0.26294	0.20363	0.048797	0.39711	0.35125	0.034537	0.21423	0.26807	0.071474	0.17059	0.085612	0.35246	0.021014	-2.7646	-2.8438	-2.9104	-3.3312	-2.6396	-3.125	-3.1437	-2.9042	-3.3063	-3.0354	-2.8875	-3.2021	-2.9333	-3.1208	-2.9146	-2.8854	177.300	236.007	116.891	215.023	115.303	-55.505	146.757	172.130	168.016	10.272	232.915	193.508	214.511	-67.677	-76.086	98.406	0.00020378	0.0010453	0.00016764	1673.5	6.6261e-06	1.5457e-05	1189.1	405.66	1.454e-06	1.9961e-05	298.55	82.734	113.07	43.807	1.6539e-05	37.831	0.0091173	0.012414	0.0035467	1547.7	0.00012985	0.00013761	1119.9	382.45	0.00013048	0.00013627	314.91	89.213	115.52	43.853	0.0001302	40.378	196.374	149.003	-41.187	-91.911	149.246	-36.940	-92.743	-87.452	75.832	204.546	-89.906	-85.512	-82.655	-77.795	238.173	-80.892	-8191	255	
16387.725	1	1	0	0	0.13317	0.14842	0.16541	0.036344	0.3071	0.23129	0.27943	0.44518	0.18762	0.13022	0.060982	0.092091	0.17623	0.088932	0.24351	0.21263	-2.8125	-2.9833	-2.8229	-3.1729	-2.7729	-3.1521	-3.2604	-3.0604	-2.9646	-2.9854	-2.9208	-3.1396	-2.8146	-3.15	-3.1208	-2.8833	114.516	23.552	161.907	-94.968	146.201	37.363	165.982	213.597	146.020	-47.545	160.759	251.269	229.570	-88.308	68.572	92.510	2.9327e-05	0.0020473	0.00055288	1647.3	4.084e-06	2.2729e-05	1174.1	400.81	1.2832e-05	2.9758e-05	292.24	82.744	111.37	44.091	2.1499e-05	37.967	0.0088199	0.012012	0.003414	1523.7	0.00012522	0.00013337	1102.4	376.64	0.00012654	0.00013081	307.79	88.177	113.76	43.724	0.00012759	40.158	221.715	-38.446	162.894	-91.815	100.962	108.346	-92.837	-87.322	-97.449	15.800	-89.543	-84.837	-82.553	-77.465	10.290	-80.752	-8191	255	
16387.820	1	1	0	0	0.10313	0.11096	0.10547	0.37746	0.061786	0.028671	0.18183	0.081265	0.10232	0.014712	0.12846	0.097356	0.34907	0.23437	0.020663	0.11137	-2.8979	-2.9688	-2.8208	-3.4062	-2.9688	-3.0812	-3.2646	-3.0417	-3.0729	-3.0563	-2.9021	-3.2083	-2.8958	-2.9917	-3.2354	-2.85	246.015	4.426	-61.353	213.866	-14.271	146.681	233.895	-50.465	-86.369	222.062	224.761	190.978	222.606	218.327	-100.020	101.116	8.6665e-05	0.00084044	0.0003022	1613.5	2.4074e-05	2.6226e-05	1151.1	395.83	1.4425e-05	2.4973e-05	294.43	81.125	110.2	43.58	1.7025e-05	37.594	0.0086354	0.011867	0.0033398	1500.7	0.0001236	0.00013276	1086.7	370.43	0.00012378	0.00013078	305.6	87.055	112.44	43.301	0.0001261	39.74	206.300	98.801	-8.693	-91.376	114.129	8.444	-92.873	-87.301	212.868	9.580	-90.036	-84.610	-82.189	-77.332	53.374	-80.637	-8191	255	
16387.916	1	1	0	0	0.076054	0.15784	0.18573	0.30048	0.15581	0.32885	0.16395	0.14931	0.15661	0.17269	0.10711	0.13053	0.13373	0.15564	0.1753	0.27113	-2.7229	-3.0229	-2.8937	-3.3292	-2.975	-2.8875	-3.0438	-2.9708	-3.1583	-3.0167	-3.0104	-3.2646	-2.9917	-2.7458	-3.2896	-2.9625	73.546	-25.590	77.360	138.524	194.941	-88.490	148.311	215.568	-11.824	204.622	123.392	-75.835	217.133	215.927	143.445	219.444	0.00011777	0.00082988	0.0003645	1585	7.0127e-06	1.8698e-05	1124	388.24	2.9899e-06	5.7214e-06	284.04	80.229	108.69	42.711	1.069e-05	36.767	0.0084356	0.011564	0.0032173	1469.1	0.00012126	0.00012651	1061.8	362.56	0.00012166	0.00012619	297.82	85.131	110.47	42.5	0.00012351	39.094	-81.995	-27.850	-10.246	-91.869	85.874	80.502	-92.621	-87.163	5.543	175.110	-89.753	-84.804	-82.295	-77.624	-12.715	-81.105	-8191	255	
16388.010	1	1	0	0	0.17112	0.080044	0.28345	0.16595	0.16736	0.067183	0.19545	0.30215	0.15265	0.12217	0.17353	0.15845	0.12245	0.23356	0.2728	0.22072	-2.8604	-2.9458	-2.6521	-3.2479	-2.8854	-2.9479	-3.4125	-3.0542	-3.0667	-3.0312	-2.8625	-3.3021	-3.0563	-3.0583	-3.2333	-3.0417	-52.199	-101.243	71.657	151.896	108.083	108.845	195.670	246.315	166.053	29.866	236.353	111.689	251.450	223.882	216.569	180.999	0.0003782	0.00015037	0.00048513	1592.2	8.4662e-06	1.2776e-05	1133.2	387.87	1.4549e-05	1.0339e-05	282.42	80.097	108.71	42.972	1.942e-05	36.845	0.0084455	0.011511	0.0032105	1477.3	0.00012253	0.00012989	1068.8	364.67	0.00012525	0.0001303	298.5	85.843	110.94	42.559	0.00012775	39.344	241.163	50.493	-64.714	-91.617	96.645	44.827	-92.761	-87.100	197.313	-44.882	-89.847	-84.617	-82.676	-77.351	-28.425	-80.586	-8191	255	
16388.107	1	1	0	0	0.37335	0.1856	0.2609	0.26203	0.16946	0.14886	0.11025	0.16891	0.097339	0.26498	0.084514	0.032751	0.27454	0.22023	0.13883	0.12796	-2.4521	-3.1979	-2.9917	-3.3354	-3.0146	-2.7854	-3.3	-3.2021	-2.9771	-3.1042	-2.8667	-3.3229	-3.175	-2.925	-3.2604	-2.8021	222.711	47.986	189.406	-103.728	51.799	-79.066	179.006	199.578	78.708	185.778	-60.562	103.287	247.074	194.967	120.056	168.101	0.00014729	0.0012653	0.0004942	1570.4	6.3282e-06	1.659e-05	1125.6	383.09	8.1556e-06	2.4557e-05	283.38	79.427	107.79	42.807	1.6377e-05	37.412	0.0086745	0.011626	0.0032511	1462.3	0.00012484	0.00013163	1057.3	361.95	0.0001249	0.00013332	297.65	85.86	110.79	42.688	0.00012812	39.815	100.691	21.454	97.168	-91.719	13.774	71.515	-92.775	-87.023	-37.412	-64.478	-89.942	-84.682	-82.515	-76.904	53.370	-80.474	-8191	255	
16388.227	1	1	0	0	0.058461	0.29837	0.1214	0.1149	0.25009	0.086563	0.12424	0.21839	0.14394	0.13125	0.24522	0.25626	0.10079	0.19205	0.2509	0.18237	-2.3688	-3.0708	-2.8708	-3.2333	-2.8979	-2.8771	-3.3604	-3.1	-2.8812	-3.2354	-2.8396	-3.2771	-3.1854	-3.0312	-3.1937	-2.9854	22.455	56.614	9.339	130.786	96.552	-29.619	135.373	200.110	9.666	-70.615	-7.643	196.430	-65.873	192.523	147.225	186.325	0.00027744	0.0016047	0.00026663	1549.7	1.6432e-05	8.0926e-07	1109.5	381.74	8.7016e-06	2.1935e-05	280.84	79.286	107.54	42.914	1.2342e-05	37.41	0.0087487	0.011766	0.0033308	1450.8	0.00012569	0.00013291	1046.5	358.81	0.00012602	0.00013451	297.71	85.789	110.14	42.741	0.00013084	39.92	231.570	196.515	87.423	-91.349	62.252	231.873	-92.324	-87.125	210.368	-75.436	-89.771	-85.243	-82.322	-77.300	121.557	-81.325	-8191	255	
16388.322	1	1	0	0	0.16909	0.18265	0.21396	0.13645	0.20685	0.21981	0.16885	0.26006	0.04664	0.26519	0.024558	0.18043	0.088652	0.17082	0.20115	0.054723	-2.4104	-3.1146	-2.8208	-3.1625	-3.1437	-2.775	-3.2104	-2.9729	-3.0771	-3.1479	-2.9375	-3.0896	-2.9917	-2.9521	-3.0542	-3.0104	17.468	2.952	253.830	227.012	147.035	-58.784	229.235	167.728	162.633	26.283	124.767	183.446	89.118	221.640	150.008	189.843	0.00012854	0.0015657	0.0006784	1542.7	9.0736e-06	3.337e-05	1091.6	375.75	8.8771e-06	1.265e-05	275.83	77.414	105.78	42.6	7.7929e-06	37.213	0.0088799	0.011894	0.0033502	1437.9	0.00012701	0.00013278	1036.6	354.8	0.00012611	0.00013508	292.89	84.792	108.78	42.395	0.00012952	39.738	156.945	195.877	208.107	-91.420	17.765	29.316	-92.290	-86.946	-46.261	-78.141	-89.351	-84.577	-82.411	-77.669	-84.304	-80.700	-8191	255	
16388.420	1	1	0	0	0.11011	0.16141	0.2543	0.087519	0.037969	0.092447	0.20652	0.11306	0.057069	0.24213	0.14151	0.14172	0.3436	0.060716	0.11549	0.074786	-2.4979	-3.15	-2.9021	-2.9125	-3.1688	-2.8646	-3.2458	-3	-2.9104	-3.1813	-2.9104	-2.9167	-3.2062	-3.0062	-3.0729	-3.0229	-51.894	7.307	-36.011	182.226	156.435	147.919	131.426	234.438	146.165	-32.581	39.348	238.321	214.629	28.860	6.139	239.981	0.0002232	0.00056839	0.00025401	1534	2.2122e-05	9.5454e-06	1087.1	374.95	5.5201e-06	5.073e-06	277.55	78.51	106.23	42.549	9.4387e-06	37.33	0.0087112	0.011849	0.0033564	1431.4	0.00012831	0.00013301	1034.3	353.34	0.00012438	0.00013374	294.41	84.781	108.75	42.317	0.000131	39.813	-89.582	234.367	-25.199	-91.530	-40.596	138.457	-92.458	-86.794	207.083	116.814	-89.197	-84.273	-82.196	-77.187	-78.248	-80.307	-8191	255	
16388.539	1	1	0	0	0.23277	0.081817	0.13128	0.1995	0.078442	0.040163	0.26843	0.16327	0.1398	0.14562	0.15755	0.039872	0.090981	0.21802	0.15615	0.081587	-2.4917	-3.1458	-2.9042	-3.1646	-3.2292	-2.7271	-3.1208	-3.3375	-3.0187	-3.1083	-3.2229	-2.8063	-3.25	-2.8937	-2.9771	-2.9062	26.262	144.334	-68.052	212.595	126.281	145.662	-61.293	250.728	183.770	173.982	121.737	168.802	181.652	232.689	55.166	-68.390	0.00025448	0.00075996	0.00048974	1537.6	6.509e-06	1.4357e-05	1083.8	375.89	1.2704e-05	1.1289e-05	276.42	78.734	105.73	42.674	1.6315e-05	37.068	0.0087239	0.011887	0.0033313	1426.4	0.00012717	0.00013241	1034	354.06	0.00012406	0.00013373	293.23	85.058	108.84	42.465	0.00013026	39.849	228.496	231.978	34.638	-91.698	-22.959	64.047	-92.642	-86.924	79.641	6.131	-89.003	-84.471	-82.150	-77.483	80.998	-80.676	-8191	255	
16388.611	1	1	0	0	0.17259	0.27978	0.034874	0.05962	0.097897	0.14147	0.22938	0.32087	0.23026	0.20759	0.16958	0.23488	0.20011	0.22417	0.059434	0.19403	-2.3646	-3.1604	-2.7292	-2.9729	-3.2875	-2.8083	-3.1792	-3.2417	-2.8438	-3.0708	-3.0917	-2.95	-3.4062	-3.0375	-2.9271	-3.1312	75.878	-81.860	168.935	156.666	158.118	122.461	-89.360	199.451	60.064	188.021	-101.965	235.430	-26.380	-77.510	224.398	159.662	7.0822e-05	0.0014926	0.00026038	1537.8	1.763e-05	1.238e-05	1085.3	376.83	6.8573e-06	1.9084e-05	279.56	79.962	107.48	42.915	2.4311e-05	37.363	0.0086948	0.011991	0.0033816	1427.5	0.00012823	0.00013376	1036.6	356.23	0.00012573	0.00013554	297.32	86.379	109.89	42.902	0.00013162	40.345	66.055	108.216	146.478	-91.524	194.767	133.803	-92.049	-86.625	-31.848	-25.345	-89.050	-85.459	-82.914	-77.092	75.896	-80.779	-8191	255	
16388.707	1	1	0	0	0.1707	0.23793	0.04839	0.071401	0.10492	0.008163	0.20178	0.43204	0.070228	0.24339	0.14294	0.19584	0.29414	0.11606	0.18719	0.18023	-2.4375	-3.0771	-2.9333	-3.0875	-3.1917	-2.8937	-3.1229	-3.3125	-2.85	-3.2875	-3.0958	-2.7854	-3.2	-2.9604	-2.9896	-3.3167	222.446	190.584	144.992	194.091	-46.401	186.545	150.309	212.003	223.348	-55.365	244.131	9.774	86.999	56.310	-21.038	-99.821	0.00026161	0.0014961	0.00054751	1535	1.5009e-05	1.2463e-05	1090	375.61	1.0954e-05	1.9409e-05	277.74	78.309	106.58	42.561	1.897e-06	37.372	0.008895	0.012112	0.0034053	1431.6	0.00012854	0.00013509	1035.5	354.35	0.00012627	0.00013745	294.12	84.853	109.09	42.632	0.00013096	39.91	198.984	-21.498	131.574	-91.841	-44.965	11.953	-92.506	-86.865	-48.151	168.480	-89.017	-84.415	-82.056	-77.453	4.207	-80.597	-8191	255	
16388.805	1	1	0	0	0.06858	0.13432	0.17358	0.25981	0.20322	0.20433	0.3174	0.16779	0.087582	0.13161	0.1241	0.16173	0.20131	0.26512	0.091397	0.16483	-2.1813	-3.0396	-3.0687	-2.7188	-3.0917	-2.9646	-2.9979	-3.3521	-2.8604	-3.1292	-3.2479	-2.9667	-3.2167	-3.1958	-3.0604	-3.3042	61.967	169.409	42.686	-49.774	228.097	19.709	177.710	-87.824	100.181	14.488	216.340	174.891	173.992	215.547	151.391	217.669	0.00025029	0.00068997	0.00061827	1522.4	1.3725e-05	4.7359e-06	1085.3	371.48	6.7784e-06	8.5426e-06	277.87	78.438	105.69	42.688	5.8138e-06	37.256	0.0087637	0.01218	0.0034329	1423.4	0.00012951	0.0001336	1029.3	351.4	0.00012469	0.00013524	291.96	84.858	108.48	42.506	0.00012924	39.829	-81.541	-45.797	168.660	-91.561	177.044	114.636	-92.848	-86.667	-53.766	-43.569	-89.524	-85.093	-82.561	-77.056	112.406	-80.323	-8191	255	
16388.924	1	1	0	0	0.16196	0.16134	0.23197	0.10911	0.056591	0.11941	0.20652	0.44155	0.19035	0.21585	0.29253	0.12523	0.20068	0.16917	0.10494	0.091291	-2.3583	-2.9083	-3.0792	-2.8937	-2.9208	-2.9562	-3.075	-3.2792	-2.9042	-3.1063	-3.0479	-3.0354	-3.2188	-3.2083	-2.9313	-2.9167	-98.456	21.543	52.183	-49.392	8.440	250.616	218.915	218.213	134.051	103.310	107.322	35.448	-70.953	222.354	-12.515	-78.896	0.00015879	0.0013512	0.00016109	1533.1	2.1907e-05	1.9365e-05	1080.8	371.49	1.6258e-05	1.0901e-05	281.96	79.046	105.52	42.73	1.7106e-05	37.815	0.0088083	0.01207	0.0033546	1420.8	0.00012828	0.00013386	1026.2	352.14	0.00012669	0.0001359	295.15	85.175	108.6	42.604	0.00012876	40.052	141.298	-17.008	79.303	-91.512	82.298	1.038	-92.630	-86.816	-12.306	-102.542	-89.655	-84.613	-82.285	-77.084	77.082	-80.621	-8191	255	
16389.020	1	1	0	0	0.1897	0.20761	0.021406	0.40335	0.19167	0.15849	0.092347	0.15276	0.27083	0.15209	0.19868	0.32815	0.1334	0.15471	0.40891	0.33473	-2.4188	-2.8708	-3.2667	-3.0146	-3.1542	-3.1583	-2.9625	-3.2979	-2.9083	-3.0167	-3.175	-2.8563	-3.1729	-3.3229	-3.0625	-3.3812	49.735	-71.836	172.073	252.742	-83.841	-52.582	-89.051	156.665	26.937	237.213	-83.250	221.768	13.634	-1.544	135.444	200.166	0.00021994	0.0012458	0.00068802	1506.4	3.5179e-06	2.9314e-05	1073.6	370.24	4.4414e-06	6.6052e-06	278.08	78.986	105.74	42.837	2.6037e-05	37.924	0.0087797	0.012075	0.0033291	1407	0.00012836	0.00013283	1020.7	349.84	0.00012544	0.00013273	293	85.289	108.65	42.786	0.0001274	40.38	190.350	19.050	-59.116	-91.520	-24.200	-35.178	-92.492	-86.436	-86.693	-38.344	-89.554	-84.959	-81.987	-77.628	14.895	-80.316	-8191	255	
16389.115	1	1	0	0	0.16295	0.065241	0.107	0.19118	0.059659	0.14463	0.15333	0.18858	0.067175	0.31148	0.044179	0.27991	0.22291	0.12609	0.18177	0.13775	-2.4833	-3.0917	-3.1146	-3.0375	-3.2396	-3.1042	-2.825	-3.1021	-2.9229	-3.0375	-3.2188	-2.9146	-3.1417	-3.3792	-2.975	-3.0604	-32.232	156.237	-4.792	246.102	165.180	64.558	147.588	200.993	152.919	106.997	59.137	163.818	2.201	-53.653	121.597	80.472	0.00014865	0.0016075	7.9175e-05	1527.1	6.6656e-06	6.9987e-06	1087.1	375.4	3.992e-06	5.6459e-06	276.19	78.401	105.42	42.602	1.7415e-05	36.845	0.008884	0.012073	0.0033666	1430.3	0.00012991	0.00013414	1036.5	354.7	0.00012699	0.00013385	294.13	84.881	109.05	42.514	0.0001272	39.74	210.550	-1.303	13.967	-91.469	21.211	42.628	-92.236	-86.842	51.656	70.744	-89.303	-84.841	-82.281	-77.330	-91.385	-80.455	-8191	255	
16389.189	1	1	0	0	0.24671	0.067542	0.21214	0.17748	0.13697	0.26698	0.024411	0.25235	0.03932	0.16356	0.25658	0.063903	0.090317	0.21648	0.11765	0.10494	-2.5375	-2.7542	-3.0771	-2.8667	-2.9833	-3.125	-3.0104	-3.2625	-2.8875	-2.8312	-3.2729	-2.8146	-3.0833	-3.1708	-2.7833	-3.275	161.811	148.115	29.837	231.671	38.160	210.487	174.080	185.497	-96.703	-17.594	177.733	174.293	203.054	173.652	70.154	-99.884	0.00028431	0.00051518	0.00034249	1521.2	1.3452e-05	9.648e-06	1077.8	371.54	1.2458e-05	1.5822e-05	277.11	78.152	105.4	42.644	1.7551e-05	37.359	0.0088416	0.011921	0.0033292	1413.2	0.00012609	0.00013381	1022.9	350.65	0.00012564	0.00013423	293.3	84.495	108.51	42.442	0.00012762	39.991	-95.114	48.006	194.728	-91.738	114.715	212.523	-92.388	-86.963	180.203	52.048	-89.091	-84.921	-82.079	-77.545	-97.456	-80.269	-8191	255	
16389.307	1	1	0	0	0.026977	0.1857	0.14336	0.41771	0.05316	0.14589	0.1637	0.28943	0.015371	0.18256	0.15286	0.24675	0.18529	0.11176	0.15739	0.2801	-2.6125	-2.9062	-3.1	-3.1146	-2.9396	-3.1188	-3.0187	-3.2562	-2.9458	-2.9833	-3.2771	-2.9437	-3.0333	-3.2604	-2.8563	-3.1937	122.173	5.020	49.767	-88.448	74.767	81.210	-93.740	192.016	76.826	20.192	-86.545	243.255	227.328	92.692	138.749	69.604	0.00025574	0.0012097	0.00027401	1512	1.5927e-05	9.1259e-06	1076.6	370.8	1.1857e-05	1.7748e-05	277.6	78.252	105.8	42.681	1.2598e-05	37.969	0.0088463	0.011842	0.0033002	1413	0.00012569	0.00013338	1023.2	350.74	0.00012521	0.00013188	293.9	84.796	108.79	42.556	0.00012769	40.276	213.364	-18.364	-55.677	-91.559	121.475	166.933	-92.445	-86.538	184.789	-0.255	-89.076	-84.861	-81.952	-77.386	3.112	-80.617	-8191	255	
16389.404	1	1	0	0	0.23907	0.059975	0.30239	0.19291	0.28404	0.10617	0.055034	0.19959	0.15407	0.13611	0.19309	0.16793	0.015886	0.25455	0.27536	0.11075	-2.5938	-2.8312	-3.1146	-3.0979	-2.9417	-3.2854	-3.0687	-3.2833	-3.1437	-2.9458	-3.3042	-3.0208	-2.975	-3.2729	-2.9896	-3.0708	244.654	-7.876	-28.765	170.765	90.783	225.400	223.766	186.476	-98.221	45.400	61.507	217.842	237.142	-44.361	170.812	221.326	6.3905e-05	0.001217	0.00029206	1531.7	2.0005e-06	7.9921e-06	1093.7	375.44	8.3475e-06	7.9213e-06	280.12	79.076	106.34	42.887	1.2107e-05	37.811	0.0088615	0.011999	0.0033366	1428.2	0.00012744	0.00013566	1036.1	355.42	0.00012574	0.00013269	297.14	85.981	109.48	42.68	0.00012974	40.481	71.755	21.062	-92.865	-91.850	198.437	188.410	-92.603	-86.598	84.986	130.754	-89.606	-84.651	-82.807	-77.539	50.986	-81.082	-8191	255	
16389.500	1	1	0	0	0.27061	0.22442	0.083226	0.47222	0.098769	0.16267	0.20153	0.2089	0.15088	0.31892	0.3123	0.10421	0.13265	0.13199	0.10927	0.14926	-2.4813	-2.7958	-2.9813	-3.0583	-3.0708	-3.2792	-3.0083	-3.1	-3	-2.9167	-2.9667	-3.0979	-3.025	-3.3333	-3.0542	-2.9938	216.580	101.015	226.011	230.067	-71.914	230.977	212.146	155.978	205.609	86.105	182.586	162.842	37.666	227.045	182.759	104.103	9.4909e-05	0.0014999	0.00052693	1529.8	1.344e-06	1.5129e-05	1093.7	373.05	6.5468e-06	3.0311e-05	280.44	78.891	105.86	42.736	1.2207e-05	37.12	0.0089046	0.011917	0.0033746	1424.6	0.00012533	0.00013285	1033.9	352.86	0.0001251	0.00013208	294.83	85.342	108.97	42.528	0.00012919	39.885	-58.413	192.549	108.297	-91.464	2.327	83.679	-92.620	-86.727	215.273	88.570	-89.187	-83.939	-82.079	-77.318	144.719	-80.522	-8191	255	
16389.619	1	1	0	0	0.17345	0.4664	0.32215	0.17832	0.0079306	0.16887	0.41462	0.063545	0.096513	0.14069	0.10869	0.1255	0.093098	0.20329	0.055851	0.29619	-2.9708	-2.6958	-3.15	-3.0812	-2.9625	-3.1312	-3.1104	-3.1979	-3.25	-2.8917	-3.075	-2.9625	-2.7438	-3.2875	-2.9562	-3.0354	133.038	161.061	-96.459	207.577	221.507	22.669	180.915	178.881	206.334	-48.503	103.914	164.107	186.844	232.051	-88.835	226.525	0.00017614	0.0016307	0.0001338	1541.1	2.2007e-06	2.1484e-05	1091.7	376.8	3.3219e-06	1.6392e-05	277.32	78.741	105.17	42.601	3.0363e-06	37.518	0.0088744	0.01195	0.0033988	1433.4	0.000126	0.00013615	1034.4	354.64	0.00012482	0.00013316	294.86	85.26	108.39	42.505	0.00012875	39.961	174.498	135.975	20.882	-91.574	232.976	139.272	-92.541	-86.674	236.364	151.666	-88.790	-84.515	-82.070	-77.248	100.465	-80.339	-8191	255	
16389.717	1	1	0	0	0.1419	0.066005	0.36652	0.15157	0.37806	0.42798	0.28731	0.28243	0.17867	0.23532	0.24949	0.23955	0.070053	0.12081	0.19757	0.23621	-2.7104	-2.9729	-3.025	-3.275	-2.9688	-3.1354	-3.1562	-3.025	-3.1167	-3.0104	-3.1813	-3.1312	-3.0479	-3.1625	-3.1479	-3.0271	134.471	198.456	106.153	242.922	-2.186	71.236	154.069	-103.424	254.810	-81.284	200.865	224.889	192.940	-3.110	-61.158	204.081	0.00011099	0.00095215	0.00042078	1538.4	1.209e-05	4.4457e-06	1084.6	375.83	1.7416e-05	1.5186e-05	277.7	79.515	107.33	42.978	1.7482e-05	37.526	0.0088497	0.0118	0.0033856	1429.3	0.00012447	0.000135	1035.1	354.78	0.00012504	0.00013359	296.32	86.259	110.18	42.928	0.00013214	40.349	-1.320	-13.530	21.477	-91.409	121.699	-73.573	-92.230	-87.178	9.771	87.102	-89.380	-84.887	-82.387	-77.402	5.367	-80.489	-8191	255	
16389.811	1	1	0	0	0.11649	0.31412	0.16075	0.31749	0.2053	0.13389	0.21715	0.049675	0.1047	0.097353	0.1985	0.23647	0.1145	0.076883	0.071502	0.11589	-2.7771	-2.9458	-3.0146	-3.3167	-2.8187	-3.3125	-3.2562	-2.9542	-3.1083	-2.8854	-2.8625	-3.1854	-2.8896	-3.1396	-2.9979	-2.9979	47.896	59.651	198.995	238.462	165.096	76.161	217.178	184.289	208.870	14.914	56.233	142.129	-54.181	-1.088	-35.692	-14.262	0.00022847	0.0018692	9.61e-05	1562.8	7.6526e-06	1.4161e-05	1115.7	381.4	1.6161e-05	6.2035e-06	282.01	81.47	108.81	43.552	1.2524e-05	37.591	0.00893	0.012233	0.0034806	1459.2	0.00013053	0.00014113	1060.6	361.55	0.00012856	0.00013801	303.86	88.086	112.13	43.645	0.0001342	40.587	222.031	41.999	192.701	-91.769	-33.372	-74.290	-92.379	-86.834	-59.809	-23.465	-89.285	-85.121	-82.159	-77.213	220.317	-81.230	-8191	255	
16389.908	1	1	0	0	0.12768	0.070387	0.1269	0.11417	0.084353	0.31511	0.14932	0.27357	0.11352	0.20834	0.027285	0.1233	0.21829	0.088119	0.2088	0.15754	-2.7083	-2.9833	-2.9479	-3.3708	-2.8208	-3.1083	-3.05	-2.7812	-3.2604	-3.1188	-3.1833	-3.1188	-3.0604	-3.1333	-3.05	-2.9313	165.711	160.374	-64.278	206.798	184.384	98.770	171.761	231.462	-44.415	176.614	-61.399	85.562	-88.110	-68.900	180.179	87.887	0.0001254	0.00070177	0.00012217	1570.6	4.4382e-06	1.087e-05	1122.4	387.22	1.0386e-05	2.8578e-05	285.77	81.432	109.44	43.437	1.0043e-05	37.32	0.0092844	0.012637	0.0035656	1469.4	0.0001328	0.00014399	1068.3	366.18	0.00013244	0.00014301	306.04	88.206	113.53	43.543	0.00013793	40.364	171.631	-53.784	-30.408	-91.633	-16.705	62.745	-92.558	-87.301	145.828	49.763	-89.888	-85.292	-82.552	-77.452	-35.845	-81.214	-8191	255	
16390.004	1	1	0	0	0.043672	0.0025993	0.11548	0.25856	0.18908	0.12427	0.12039	0.47416	0.024602	0.18867	0.082802	0.098141	0.10821	0.045074	0.063276	0.149	-2.8625	-2.8812	-2.9208	-3.25	-2.9479	-3.0042	-3.2604	-2.8292	-3.1188	-2.9958	-2.8458	-3.3083	-3.0271	-3.0625	-3.125	-2.8271	-43.423	60.126	-57.286	244.171	240.457	-41.899	-104.876	193.454	187.705	80.335	81.129	-12.787	-14.648	73.757	5.128	-73.907	9.8486e-05	0.0008323	0.00047084	1599.3	1.6298e-05	1.4357e-05	1143.2	394.78	1.4662e-05	9.1256e-06	289.14	80.839	110.43	43.168	2.9647e-06	37.226	0.0094542	0.012804	0.0036276	1495.2	0.00013485	0.00014259	1089.4	372.29	0.00013412	0.00014155	308.74	88.677	114.34	43.548	0.00013697	40.38	-36.606	194.831	125.932	-91.773	-60.858	110.305	-92.707	-87.340	-79.848	32.793	-89.658	-85.095	-82.930	-77.629	-34.398	-81.298	-8191	255	
16390.100	1	1	0	0	0.049557	0.13894	0.19969	0.33005	0.12289	0.1829	0.25718	0.35863	0.17518	0.29528	0.12149	0.020494	0.11699	0.10459	0.1951	0.2345	-2.8875	-3.0312	-2.8312	-3.3187	-2.7896	-3.0021	-3.3021	-3.0292	-3.225	-3.1104	-2.9771	-3.3083	-3.0479	-3.0896	-3.0979	-2.9021	-45.724	-57.728	-18.402	200.393	-26.613	220.615	182.295	208.162	233.101	199.392	-82.026	-11.005	-57.645	199.561	93.013	128.542	0.00010365	0.00057424	0.00054046	1616.6	1.3751e-05	7.7548e-06	1150	397.31	3.1638e-06	8.6379e-06	292.44	82.064	110.03	43.567	2.5616e-06	37.777	0.0095895	0.012879	0.0036024	1504.4	0.0001359	0.00014347	1094.5	374.88	0.00013648	0.00014424	310.4	89.503	114.25	43.748	0.00013721	40.57	11.494	45.591	249.669	-91.734	-69.514	-59.147	-92.923	-87.433	210.745	246.470	-89.778	-84.563	-82.408	-77.530	96.940	-80.803	-8191	255	
16390.221	1	1	0	0	0.30488	0.16988	0.03616	0.24326	0.16835	0.17519	0.16375	0.11402	0.068605	0.50584	0.12261	0.12154	0.16186	0.18749	0.082968	0.114	-2.5333	-3.1521	-2.9792	-3.2146	-2.8125	-2.8542	-3.275	-2.9417	-2.8646	-2.975	-2.975	-3.1312	-3.0833	-3.1188	-3.0604	-2.95	-69.764	224.297	67.959	242.843	142.606	-10.613	162.131	251.938	114.491	186.244	117.514	202.961	129.279	-92.570	243.645	207.171	0.00011124	0.0023541	0.00077624	1577	1.7264e-05	1.633e-05	1108.6	383.08	1.8783e-05	1.8004e-05	284.28	79.843	108.96	43.253	1.2917e-05	37.515	0.0095039	0.012819	0.0035296	1469.4	0.00013469	0.00014207	1061.8	364.13	0.00013468	0.0001425	305.13	88.146	112.67	43.541	0.0001393	40.985	-87.315	-14.530	-16.951	-91.788	67.875	151.304	-92.623	-87.017	218.754	-52.923	-89.501	-84.773	-82.555	-76.985	-36.518	-80.874	-8191	255	
16390.316	1	1	0	0	0.24673	0.12409	0.32939	0.19942	0.044119	0.15261	0.24642	0.31572	0.1829	0.27569	0.31041	0.17531	0.11282	0.29731	0.088821	0.15746	-2.6896	-2.9479	-2.7958	-3.1312	-2.8646	-2.9729	-3.25	-3.0875	-2.8563	-2.9833	-2.8292	-3.0417	-3.1	-2.8688	-3.1146	-2.9833	111.326	250.324	78.576	213.488	193.130	-16.905	131.419	193.499	-35.671	251.540	196.730	213.062	145.904	236.949	118.997	-70.843	0.00034513	0.0021597	0.00013559	1595.6	8.8739e-06	1.8091e-05	1133.9	392.31	6.7652e-06	1.194e-05	292.23	81.27	110.71	43.331	1.1431e-05	36.911	0.009604	0.013367	0.0036353	1490.8	0.00013953	0.00014545	1088.2	373.11	0.00013549	0.00014114	309.46	88.761	113.77	43.337	0.00013218	40.002	-85.322	-22.094	93.958	-91.594	139.039	163.639	-92.473	-87.407	137.894	210.207	-89.550	-84.774	-81.899	-77.385	156.477	-81.016	-8191	255	
16390.412	1	1	0	0	0.13163	0.22145	0.19412	0.047336	0.12022	0.1181	0.17038	0.082256	0.10593	0.051488	0.18171	0.22957	0.18387	0.092165	0.058523	0.34433	-2.3875	-3.0729	-2.6833	-3.3625	-2.9792	-2.8271	-3.2604	-2.9604	-2.8458	-3.2438	-2.9125	-3.1312	-3.2917	-2.9083	-3.1167	-3.0042	191.697	238.928	-77.843	-95.713	-94.389	0.293	161.096	197.729	130.077	72.163	219.096	92.426	43.050	-19.912	53.683	202.135	0.00014243	0.00089948	0.00061303	1617.8	1.2443e-05	9.9445e-06	1156.3	398.18	9.9688e-06	3.3415e-05	295.78	82.239	111.12	43.517	1.0767e-05	37.212	0.0091054	0.012418	0.0034456	1505.6	0.00013143	0.00013637	1098.1	376.03	0.0001303	0.00013773	309.89	88.546	113.93	43.333	0.00013357	40.183	-15.132	84.986	-41.639	-91.453	11.162	192.237	-92.923	-87.156	248.741	67.963	-89.515	-84.972	-82.401	-77.943	27.966	-80.449	-8191	255	
16390.484	1	1	0	0	0.056564	0.21509	0.20076	0.31534	0.040938	0.2166	0.27139	0.11967	0.12291	0.098982	0.18062	0.12976	0.15639	0.029327	0.23055	0.31206	-2.4833	-3.0125	-2.9292	-3.1562	-3.0417	-3.0146	-3.3292	-3.35	-2.8833	-3.175	-2.7854	-3.0771	-3.3146	-2.9	-3.2333	-3.0687	127.565	121.118	159.099	232.347	239.149	159.387	198.538	-79.514	107.922	90.631	-85.024	244.568	-86.380	205.615	88.460	-90.036	0.00014253	0.001368	0.00025782	1614.2	1.8547e-05	1.8437e-05	1142.7	391.33	1.3058e-05	2.5863e-05	285.3	80.854	110.1	43.556	8.8073e-06	37.389	0.0090935	0.012639	0.0034982	1501.2	0.00013123	0.00013639	1082.1	369.79	0.00013112	0.00013881	305.79	88.049	113.93	43.558	0.00013738	40.711	253.863	157.606	80.301	-91.848	164.191	-84.359	-92.771	-87.112	75.613	33.999	-89.021	-85.011	-82.557	-77.701	-82.557	-80.791	-8191	255	
16390.605	1	1	0	0	0.078336	0.26247	0.22647	0.41556	0.20895	0.027504	0.13367	0.13006	0.30318	0.14273	0.077833	0.078083	0.14587	0.14847	0.3038	0.18128	-2.425	-3.0625	-2.8521	-2.9896	-3.225	-2.8229	-3.3521	-3.2313	-2.6188	-3.1208	-2.9729	-3.0854	-3.1396	-2.8125	-2.9854	-2.9813	187.709	113.618	124.074	199.908	90.917	-49.348	200.767	196.502	227.418	62.951	200.914	213.379	230.876	19.283	154.867	144.117	0.0001767	0.0012558	0.00021535	1593.2	1.3841e-05	1.1923e-05	1131.2	389.78	2.3195e-05	1.1541e-05	289.39	80.48	109.58	43.469	1.3669e-05	37.519	0.0092642	0.01276	0.0035817	1490.5	0.00013266	0.00014206	1081.6	369.76	0.00013182	0.00013965	307.65	87.674	113.35	43.531	0.00013591	40.598	212.273	104.088	231.428	-91.494	78.876	-70.587	-92.622	-87.140	58.240	137.987	-89.927	-85.327	-82.965	-77.784	-9.079	-81.046	-8191	255	
16390.701	1	1	0	0	0.29711	0.1623	0.17322	0.29289	0.25278	0.14448	0.32612	0.35685	0.047891	0.11254	0.29688	0.17535	0.091391	0.34504	0.14636	0.2233	-2.4958	-2.9813	-2.9208	-2.975	-3.1604	-2.775	-3.225	-3.0979	-2.8354	-3.15	-3.1167	-2.9104	-3.1729	-2.8271	-3.0687	-3.1562	-27.406	57.880	73.659	-99.492	161.928	195.130	185.472	197.576	-28.995	-85.308	225.983	187.630	-88.677	-84.524	226.463	63.391	8.6991e-05	0.0010171	0.00017489	1600.5	1.9596e-05	1.6022e-06	1155.7	398.16	1.3989e-05	2.0949e-05	294.05	82.423	111.77	43.891	1.3588e-05	37.173	0.0091423	0.012877	0.0035805	1498.2	0.00013477	0.00014327	1101.4	376.27	0.00013319	0.00014199	312.73	89.14	115.15	43.866	0.00013988	40.276	185.306	194.151	199.275	-91.549	20.536	181.993	-92.893	-87.346	-14.156	-13.698	-89.885	-85.475	-82.808	-77.512	-83.545	-81.043	-8191	255	
16390.797	1	1	0	0	0.35358	0.17256	0.027711	0.34055	0.12498	0.083731	0.52087	0.17558	0.11017	0.14444	0.26331	0.063002	0.32588	0.15119	0.20058	0.08932	-2.4	-3.0687	-2.7646	-3.2167	-3.2542	-2.925	-3.0229	-3.2875	-2.8271	-3.1188	-3.1083	-2.8896	-3.2188	-3.0187	-2.8229	-3.2812	15.697	247.945	217.660	213.050	137.749	180.573	203.719	151.321	214.996	-99.854	126.402	-26.456	158.039	-98.477	-66.904	57.423	0.00029389	0.00071395	0.00020405	1623.8	1.0739e-05	2.8978e-05	1161.4	397.27	4.9862e-06	2.8661e-05	290.86	81.088	110.11	43.388	6.8741e-06	37.28	0.0092409	0.012945	0.0036405	1517.8	0.00013477	0.00014336	1098.9	375.73	0.0001337	0.00014257	310.45	88.357	114.16	43.633	0.00014057	40.467	-93.694	32.212	7.379	-92.171	37.189	-26.915	-92.658	-87.352	-43.283	-60.288	-89.755	-85.626	-82.489	-77.940	27.059	-80.936	-8191	255	
16390.891	1	1	0	0	0.18957	0.074892	0.27035	0.17733	0.079451	0.11237	0.13561	0.41718	0.059372	0.2647	0.33052	0.080058	0.22295	0.17926	0.056461	0.17056	-2.375	-3.0104	-2.9437	-2.9125	-3.1875	-2.7896	-3.0833	-3.375	-2.8083	-3.0687	-3.1521	-2.8812	-3.1167	-3.0812	-2.9688	-3.3812	123.544	177.832	173.288	-88.107	-32.158	122.064	181.202	200.736	39.260	-56.454	189.452	224.780	161.260	135.951	75.141	150.458	0.00024233	0.0006711	0.0005791	1605.4	1.1026e-05	4.9909e-06	1144.1	392.82	2.0536e-05	3.0995e-05	286.24	79.924	109.4	43.17	1.1825e-05	37.422	0.009393	0.013293	0.0036815	1499.8	0.0001358	0.00014631	1086.4	371.66	0.00013605	0.00014526	307.72	88.349	113.4	43.472	0.00013974	40.399	212.640	59.074	-10.587	-91.917	46.792	-53.841	-92.613	-87.117	45.056	22.483	-89.913	-84.593	-82.189	-77.678	179.516	-80.722	-8191	255	
16390.988	1	1	0	0	0.092584	0.13881	0.06885	0.11971	0.15957	0.061714	0.3609	0.22651	0.12152	0.42645	0.067576	0.17716	0.18973	0.17136	0.22478	0.027169	-2.5042	-3.2812	-3.075	-3.0708	-3.1	-3.0521	-3.05	-3.4021	-2.7854	-3.2542	-3.1292	-2.8167	-3.1104	-3.0125	-2.7417	-3.2771	96.354	212.029	128.801	218.482	149.683	88.713	-45.626	245.352	162.629	254.790	161.677	200.586	180.006	-94.810	-89.837	-79.787	0.00011449	0.0023304	0.00063349	1593.1	1.4141e-05	1.0554e-05	1132.2	389.59	1.5906e-05	1.9291e-05	288.31	81.596	109.59	43.503	2.2908e-05	37.658	0.0093347	0.013051	0.0036271	1482.9	0.00013558	0.00014407	1077.6	370.85	0.00013592	0.00014573	309.02	88.654	114.16	43.667	0.00013837	40.536	186.276	185.554	-0.044	-91.673	83.504	-83.905	-92.638	-87.120	52.352	17.392	-89.936	-85.176	-82.645	-77.197	-2.265	-81.069	-8191	255	
16391.084	1	1	0	0	0.24432	0.17058	0.23794	0.30164	0.089879	0.12336	0.29083	0.29235	0.20795	0.28852	0.076352	0.1728	0.233	0.33725	0.14165	0.1905	-2.6	-2.9521	-3.0104	-2.9896	-3.2854	-2.9479	-3.0687	-3.3729	-2.8771	-3.0375	-3.1354	-2.7833	-3.2833	-3.0583	-2.925	-3.1479	135.213	210.083	98.791	230.870	99.283	-82.564	201.277	-104.242	242.745	204.954	-10.552	152.895	180.388	248.330	-88.794	78.918	0.00026028	0.0021854	0.00059794	1604.1	9.6014e-06	2.6998e-05	1142	391.67	1.3504e-05	1.0458e-05	290.49	80.092	110.62	43.481	5.1824e-06	37.223	0.009391	0.013001	0.0036827	1493.3	0.00013613	0.00014544	1085	370.23	0.00013547	0.00014447	308.6	87.931	114.22	43.416	0.00013728	40.347	217.930	-35.323	44.996	-91.906	111.324	50.160	-92.872	-87.194	236.773	230.637	-89.495	-84.612	-82.432	-77.390	123.611	-81.378	-8191	255	
16391.182	1	1	0	0	0.097571	0.1418	0.15203	0.19623	0.11933	0.23324	0.11162	0.32913	0.27984	0.20523	0.093167	0.07452	0.15791	0.26494	0.10626	0.074658	-2.4938	-2.8958	-3.0229	-2.9521	-3.1083	-3.025	-2.9625	-3.3521	-2.9521	-2.8604	-3.0646	-2.8083	-3.075	-3.0271	-2.6937	-3.3125	199.568	55.548	100.366	212.780	-75.484	246.073	-36.661	231.830	36.273	49.223	170.967	135.432	-89.929	210.936	247.022	240.175	0.00026177	0.001269	0.00059689	1573.7	4.6934e-06	1.0807e-05	1124	387.83	9.1305e-06	1.6144e-05	284.05	79.971	108.68	42.939	1.1345e-05	37.695	0.0093254	0.012822	0.0036562	1478.9	0.00013598	0.0001445	1071.1	368.05	0.00013368	0.00014342	303.58	87.38	112.66	43.258	0.00013694	40.334	254.299	32.833	-95.985	-91.882	-90.640	-53.108	-92.733	-86.958	174.972	89.114	-89.349	-84.573	-82.681	-77.233	20.001	-80.509	-8191	255	
16391.301	1	1	0	0	0.06118	0.14004	0.061715	0.32177	0.058574	0.18626	0.098823	0.2612	0.23725	0.029525	0.23213	0.13127	0.10388	0.28195	0.028913	0.15601	-2.5292	-3.0187	-3.1854	-2.8208	-2.9167	-3.0771	-2.8937	-3.3354	-2.9479	-3.0708	-3.3417	-2.9042	-3.1688	-3.0958	-2.8521	-3.0833	55.983	-76.817	120.625	233.866	9.868	245.773	-78.695	-70.284	25.369	63.609	205.844	175.187	-33.827	232.041	108.650	192.346	0.00018286	0.0019286	0.00080294	1567.8	3.8748e-06	2.4073e-05	1125.5	387.4	4.9166e-06	2.5072e-05	286.05	80.557	109.26	42.992	5.6914e-06	37.754	0.0095437	0.012953	0.0036892	1472.7	0.00013671	0.00014316	1072.9	367.83	0.00013732	0.00014332	305.94	88.103	113.34	43.565	0.00013927	40.812	231.462	195.475	-42.622	-91.510	-27.961	19.027	-92.405	-86.975	190.791	-34.273	-90.374	-84.799	-82.565	-77.702	99.849	-81.063	-8191	255	
16391.396	1	1	0	0	0.055177	0.15298	0.093514	0.14339	0.18154	0.1839	0.39908	0.16034	0.20544	0.065233	0.25863	0.32526	0.25262	0.04338	0.024158	0.27506	-2.4417	-2.8833	-3.1104	-3.1188	-2.8708	-3.2354	-2.9458	-3.2667	-2.7875	-2.7938	-3.0896	-2.8333	-3.2458	-3.0042	-2.8792	-3.1042	133.277	-93.363	-12.286	137.037	-89.631	-26.270	170.303	-90.290	154.633	157.259	110.234	196.097	178.930	-0.343	191.957	77.704	0.00031981	0.002127	0.00039137	1595.2	5.4923e-06	1.5476e-05	1139	393.96	4.9439e-06	2.8832e-05	289.25	81.667	110.35	43.503	1.2087e-05	37.73	0.0095382	0.012996	0.0036941	1493.6	0.00013947	0.00014432	1087.2	374.15	0.00013632	0.00014315	310.87	89.203	114.31	43.759	0.00013702	40.81	196.622	68.028	202.130	-91.917	180.441	68.337	-92.863	-87.048	-2.939	54.061	-89.628	-84.889	-82.483	-77.429	137.251	-80.687	-8191	255	
16391.492	1	1	0	0	0.23103	0.21268	0.083414	0.27067	0.12119	0.15452	0.33408	0.34766	0.1225	0.20151	0.24291	0.16796	0.20244	0.49249	0.082215	0.030376	-2.7354	-2.9833	-3.0833	-3.0583	-2.8583	-3.175	-3.0354	-3.2833	-3.2896	-2.8063	-3.3021	-2.7417	-3.1125	-3.1875	-2.9417	-3.1083	70.936	106.505	53.792	221.230	-95.825	19.191	199.686	185.428	79.276	-77.202	-92.385	-81.248	251.688	223.279	-55.463	-93.404	0.00012315	0.0020175	6.1159e-05	1597.3	2.1574e-05	8.7573e-06	1134.9	391.2	9.0838e-06	1.3761e-05	285.68	80.353	109.36	43.219	1.9208e-05	37.687	0.0093897	0.012587	0.0035959	1492.5	0.00013418	0.00013967	1079	370.25	0.00013328	0.00013902	304.42	87.659	112.55	43.4	0.00013445	40.345	200.187	104.896	-34.402	-91.587	13.526	90.365	-92.776	-87.070	57.302	103.336	-90.209	-85.377	-82.545	-77.779	164.433	-80.664	-8191	255	
16391.590	1	1	0	0	0.094919	0.18802	0.31466	0.13982	0.17863	0.27298	0.36671	0.25524	0.18788	0.17873	0.12835	0.21401	0.035915	0.2057	0.38236	0.20038	-2.6063	-2.925	-3.1917	-3.1958	-2.9125	-2.9896	-3.0187	-3.0938	-2.9854	-2.6542	-3.2479	-3.0708	-2.9417	-3.2229	-2.8229	-2.9562	121.823	235.914	129.620	-45.635	65.059	97.288	192.604	236.595	232.685	204.509	217.945	55.185	250.744	185.187	-82.407	-98.079	0.00011119	0.00066794	0.00030247	1583.5	1.4251e-05	1.2575e-05	1127.3	385.49	1.5067e-05	1.2299e-05	282.28	80.047	107.29	42.834	1.1422e-05	36.808	0.0091058	0.012204	0.0035172	1477.8	0.00013073	0.00013602	1067.6	365.33	0.0001313	0.00013457	301.55	86.664	110.98	42.785	0.00013134	39.629	204.552	84.924	-99.511	-91.536	31.834	-32.152	-92.553	-87.469	143.549	64.898	-89.721	-84.929	-82.413	-77.385	147.049	-80.752	-8191	255	
16391.709	1	1	0	0	0.10941	0.30175	0.13564	0.20577	0.18339	0.14108	0.33766	0.17578	0.16263	0.22767	0.064008	0.088393	0.079958	0.28487	0.016608	0.07462	-2.6896	-2.8417	-3.0521	-3.1125	-2.8167	-2.9396	-3.1583	-3.2375	-3.0521	-2.7188	-3.2896	-3.0396	-2.7542	-3.3937	-2.9583	-3	155.611	-15.627	-30.664	226.618	-35.557	88.342	163.688	210.055	142.195	148.187	-23.419	-89.040	81.297	227.267	126.031	-50.497	0.00010368	0.00072172	4.2314e-06	1580.1	1.1784e-05	1.4812e-05	1123.7	388.17	9.8211e-06	1.7903e-05	290.32	80.294	109.06	42.887	8.0806e-06	37.143	0.0088193	0.011967	0.0034749	1472.7	0.00012555	0.0001309	1066.1	365.43	0.00012558	0.00013125	302.18	86.134	111.05	42.685	0.000129	39.709	242.161	124.568	208.508	-91.295	86.515	24.508	-92.805	-86.990	9.337	-19.124	-89.858	-85.129	-82.478	-77.006	164.448	-80.625	-8191	255	
16391.781	1	1	0	0	0.13707	0.25737	0.26072	0.21141	0.20039	0.029319	0.26263	0.11119	0.092739	0.18266	0.13172	0.1079	0.1383	0.24991	0.257	0.203	-2.6813	-2.7833	-3.0167	-3.2167	-2.9188	-3.3042	-2.9938	-3.1708	-3.2604	-3.025	-3.1396	-3.2792	-3.1312	-3.05	-2.9271	-3.0354	239.075	70.081	-22.524	178.441	78.419	247.107	186.760	32.403	139.052	35.742	104.776	147.820	-70.168	244.695	169.197	172.321	9.6739e-05	0.0015925	0.00038104	1583	1.8214e-05	4.6168e-06	1120.7	384.48	1.1915e-05	1.1204e-05	280.81	79.746	107.58	42.585	5.291e-06	37.274	0.0085698	0.011629	0.0033317	1468.3	0.00012271	0.00012963	1061	362.29	0.00012353	0.00012978	297.72	85.481	109.92	42.369	0.00012617	39.438	222.174	-72.856	-27.828	-91.560	-5.352	244.903	-92.391	-86.798	130.616	235.227	-89.237	-84.989	-81.989	-77.189	44.852	-80.100	-8191	255	
16391.902	1	1	0	0	0.27117	0.22412	0.15936	0.20714	0.20182	0.13131	0.20133	0.34034	0.22693	0.12643	0.19397	0.15771	0.38657	0.06081	0.087341	0.19139	-2.7062	-2.7229	-3.0312	-3.1	-2.8792	-3.1021	-2.9313	-2.9021	-3.05	-2.9542	-3.0896	-3.1292	-2.8083	-3.1667	-3.1083	-3.1396	213.584	-48.844	52.539	197.826	-53.718	-41.830	126.449	168.345	-32.438	95.018	247.416	0.129	-55.748	193.444	74.871	131.561	6.328e-05	0.00032782	0.00058189	1580.8	3.4019e-06	2.5597e-05	1119.2	380.01	1.6766e-05	2.6106e-05	282.05	78.923	107.15	42.297	8.3485e-06	36.438	0.0083767	0.011567	0.0032876	1460.9	0.00012082	0.00012928	1053.8	359.61	0.00012227	0.0001292	296.12	84.443	109.35	42.118	0.00012552	38.74	185.435	246.710	-24.708	-91.664	50.507	206.345	-92.380	-86.969	118.480	174.361	-89.904	-84.583	-82.086	-77.759	243.530	-80.668	-8191	255	
16391.996	1	1	0	0	0.20133	0.17614	0.2106	0.21479	0.27857	0.028611	0.3369	0.1949	0.049279	0.15892	0.29296	0.045995	0.15254	0.06408	0.14951	0.1355	-2.7208	-2.8646	-2.8083	-3.2625	-2.8187	-3.0542	-3.2729	-2.9667	-3.15	-2.8833	-3.0479	-3.0812	-2.9021	-3.15	-2.9958	-2.7854	164.963	88.618	-35.109	-78.197	-13.552	-24.955	190.521	206.582	73.348	-100.941	182.968	79.214	57.424	-55.125	88.918	163.230	0.0002514	0.0014018	0.00034718	1561.1	2.8775e-06	1.5505e-05	1106	379.18	1.6742e-05	1.3421e-05	276.92	77.529	105.83	41.787	1.1108e-05	36.097	0.0083067	0.011557	0.0032423	1447.8	0.00011959	0.00012908	1042.9	356.83	0.00012231	0.00012848	291.89	83.565	108.12	41.61	0.00012641	38.692	203.560	94.966	176.173	-91.493	-63.122	82.981	-92.685	-87.256	26.278	-14.249	-89.284	-84.591	-82.313	-77.220	-100.962	-80.077	-8191	255	
16392.092	1	1	0	0	0.10354	0.24515	0.14514	0.32857	0.18531	0.12448	0.19637	0.095423	0.12811	0.16335	0.094941	0.22281	0.13093	0.23361	0.28289	0.20579	-2.6312	-2.8312	-2.9021	-3.4042	-2.9229	-3.1042	-3.0042	-3.0292	-3.1875	-3.0875	-2.8375	-3.2729	-2.8729	-3.1958	-3.0271	-2.9354	-48.218	223.536	225.059	196.604	29.082	196.365	213.427	21.200	-93.603	-51.569	55.693	86.868	-91.721	-39.571	215.424	-30.557	0.00020686	0.0010331	0.00046642	1535.4	2.5057e-05	9.0648e-06	1097.7	374.94	1.1693e-05	8.1854e-06	278.67	77.86	106.06	41.645	7.645e-06	36.4	0.0084395	0.011655	0.0032763	1432.3	0.00012308	0.00013148	1038.2	354.14	0.00012446	0.00013094	294.06	84.035	108.72	41.801	0.00013109	39.14	218.975	-97.254	-9.469	-91.735	114.567	236.743	-92.831	-87.020	-64.219	168.134	-89.345	-84.810	-82.301	-77.443	202.957	-80.566	-8191	255	
16392.189	1	1	0	0	0.26887	0.10863	0.24954	0.3981	0.093088	0.061063	0.30315	0.36346	0.21492	0.22467	0.16294	0.17269	0.2591	0.11487	0.11971	0.21728	-2.8417	-2.9896	-2.8021	-3.1917	-3.1271	-2.975	-3.2375	-2.9896	-3.2229	-3.0208	-2.9292	-2.9771	-3.1042	-2.9333	-3.2417	-2.9667	236.544	22.459	-21.768	224.344	-15.969	57.333	185.121	217.843	202.726	-50.182	93.456	179.037	232.102	208.962	102.393	227.014	0.00016154	0.0010572	0.00048741	1563.5	1.9258e-05	3.4999e-05	1114.8	385.05	5.0808e-06	2.1692e-05	284.79	79.462	107.9	42.381	9.3827e-06	36.933	0.0088047	0.01208	0.0034087	1458.1	0.0001287	0.0001383	1058	362.73	0.00013139	0.00013736	300.77	85.794	110.58	42.42	0.00013196	39.486	-83.905	34.369	33.625	-91.663	0.068	51.032	-92.574	-86.758	248.388	9.752	-89.022	-84.755	-82.609	-77.529	-12.643	-80.474	-8191	255	
16392.309	1	1	0	0	0.16051	0.095202	0.34531	0.30458	0.092911	0.22734	0.18458	0.17022	0.2192	0.045969	0.2007	0.20697	0.11135	0.13154	0.034277	0.21646	-2.7	-3.0625	-2.9062	-3.4188	-3.0438	-3.0646	-3.3333	-3.0542	-3.0687	-3.0187	-2.9917	-3.1688	-3.1292	-2.9375	-3.2542	-2.7	102.270	84.775	145.971	194.235	233.205	221.823	200.808	204.891	105.593	74.454	-94.732	67.194	235.876	58.402	40.938	210.953	0.00024285	0.0015146	0.00057503	1575.8	1.7805e-05	2.3547e-05	1116.6	384.14	7.9547e-06	1.3453e-06	284.02	79.52	107.49	42.345	1.0265e-05	36.689	0.0089811	0.012131	0.0033902	1468.1	0.00012949	0.00013579	1060.5	363.87	0.00013052	0.00013892	300.72	86.248	111.29	42.536	0.00013428	39.475	214.372	-46.308	53.185	-91.703	-30.750	6.182	-92.352	-86.871	80.302	74.472	-89.941	-85.436	-82.347	-77.033	204.358	-80.880	-8191	255	
16392.381	1	1	0	0	0.13327	0.19115	0.074591	0.33258	0.1151	0.10055	0.037812	0.083248	0.14284	0.21475	0.056175	0.14213	0.10931	0.25549	0.10336	0.33104	-2.5979	-3.15	-2.7479	-3.0958	-2.9938	-3.1146	-3.2875	-2.7667	-3.1625	-2.9729	-3.0208	-3.2875	-3.0875	-3.0146	-3.2229	-2.9375	193.254	239.177	-16.905	200.903	74.482	94.296	77.757	-95.775	54.965	249.093	143.327	30.108	210.484	-77.622	181.953	180.783	0.00020553	0.00053275	0.00067773	1556.8	1.6978e-05	1.8677e-05	1105.1	380.64	1.0237e-05	9.3e-06	282.48	78.325	107.08	42.463	6.5087e-06	36.269	0.0090821	0.012398	0.0034517	1454.9	0.00013165	0.00013697	1048.8	360.79	0.00013276	0.00014052	298.83	85.704	110.94	42.435	0.00013607	39.505	221.039	165.732	-39.160	-91.949	221.587	88.662	-92.770	-86.968	183.603	-94.593	-89.716	-85.589	-82.565	-77.286	98.118	-80.616	-8191	255	
16392.477	1	1	0	0	0.20696	0.14321	0.17786	0.17845	0.090478	0.1414	0.10022	0.24729	0.04966	0.14287	0.20873	0.22529	0.15051	0.074627	0.16422	0.27568	-2.5833	-3.1021	-2.8167	-3.225	-3.0271	-2.9833	-3.3812	-2.9125	-2.9729	-3.1708	-2.8083	-3.075	-3.0979	-2.8333	-3.2771	-2.9875	-46.081	250.447	152.636	248.636	80.715	-40.151	218.009	131.225	73.355	73.899	-62.751	139.265	-9.009	-68.135	208.227	198.503	0.00020667	0.0003909	0.00055706	1581	8.6201e-06	1.2105e-05	1131.9	389.57	2.2232e-05	6.7285e-06	290.45	80.485	110	43.245	2.2609e-06	37.245	0.0092771	0.012604	0.0035068	1478.4	0.00013548	0.00014138	1076.9	369.76	0.00013547	0.00014377	309.35	88.41	114.16	43.237	0.00014241	40.31	175.240	158.621	31.243	-92.010	-77.035	98.919	-92.757	-87.373	-31.022	157.271	-89.529	-85.050	-82.936	-77.675	210.163	-80.770	-8191	255	
16392.572	1	1	0	0	0.13186	0.16615	0.057708	0.28126	0.066371	0.12174	0.11098	0.073375	0.25148	0.1238	0.13598	0.094253	0.043883	0.12478	0.2168	0.10653	-2.5458	-3.0667	-2.6896	-3.1729	-2.9479	-2.8854	-3.0917	-2.7896	-2.8146	-3.2542	-3.0458	-3.1437	-3.1208	-3.0146	-3.2167	-3.2104	102.879	253.694	-5.914	249.733	245.528	111.339	-76.087	177.593	209.891	253.313	26.059	-82.508	240.663	-31.720	188.918	162.087	0.0003222	0.0020051	0.00055227	1628.9	9.5145e-06	7.699e-06	1165.5	398.06	2.2939e-05	7.2177e-06	292.65	81.388	109.88	42.945	9.2372e-06	37.075	0.0095365	0.012835	0.0036588	1521.6	0.00013846	0.00014376	1100.6	376.02	0.00013521	0.0001447	311.5	88.775	113.95	43.273	0.00014115	40.466	-64.534	13.188	-9.864	-91.780	-15.126	-14.642	-92.861	-87.248	180.326	22.237	-89.749	-84.856	-82.565	-77.738	98.817	-80.625	-8191	255	
16392.670	1	1	0	0	0.37563	0.19805	0.33855	0.2013	0.20867	0.2213	0.40802	0.14517	0.11266	0.10418	0.14736	0.20717	0.13704	0.10772	0.37659	0.18421	-2.5458	-3.1667	-2.8917	-3.1875	-3.1396	-2.8229	-3.1208	-3.0917	-2.875	-3.0896	-2.8208	-2.9875	-3.0125	-3.0187	-3.15	-2.9375	-0.298	179.286	-86.190	200.287	-11.873	-4.359	214.284	249.159	-37.320	-3.330	-30.816	206.740	-97.288	-75.657	17.605	23.341	6.6805e-05	0.0017999	0.00020529	1624.6	1.3763e-05	6.5171e-06	1161.1	400.74	8.44e-06	1.5932e-05	291.24	81.957	110.72	42.895	2.7812e-06	37.061	0.0095026	0.012811	0.0036461	1519.4	0.0001398	0.00014457	1104.8	378.44	0.00013477	0.00014304	312.22	89.053	114.44	43.31	0.00013956	40.267	-97.563	-65.195	95.747	-91.804	42.559	-75.641	-92.794	-87.224	210.526	43.743	-89.668	-85.727	-82.417	-77.679	238.633	-80.504	-8191	255	
16392.789	1	1	0	0	0.021641	0.24062	0.075932	0.29454	0.22961	0.14584	0.1216	0.26161	0.13781	0.25629	0.25119	0.16383	0.20811	0.23919	0.11948	0.38608	-2.3208	-3.225	-2.7938	-3.2375	-2.9604	-2.8521	-3.2208	-3.075	-2.9813	-3.2167	-2.9583	-3.0667	-3.125	-3.0021	-3.0417	-3.0417	-56.596	-4.943	-50.811	189.912	-78.230	31.237	122.131	139.709	-44.307	102.988	138.797	-96.526	247.889	174.712	-82.701	142.878	0.0003185	0.0010565	0.00042768	1624.8	2.0933e-05	1.4609e-05	1150.6	392.94	2.2638e-05	2.0534e-05	287.43	80.091	109.56	42.801	1.5996e-05	36.608	0.0093244	0.012649	0.0036222	1510.7	0.00013635	0.00014322	1092.5	373.11	0.00013586	0.00014708	309.09	88.008	113.32	43.164	0.00014209	40.197	239.652	-12.671	39.820	-91.646	-7.824	-89.295	-92.705	-87.108	67.782	-34.075	-89.754	-85.516	-82.378	-77.485	50.246	-80.872	-8191	255	
16392.885	1	1	0	0	0.38387	0.38497	0.15757	0.30036	0.24305	0.070295	0.17726	0.24302	0.19423	0.31952	0.1552	0.045148	0.080506	0.046956	0.19921	0.24861	-2.4854	-3.1583	-2.825	-3.0604	-3.225	-2.9417	-3.3021	-3.1396	-2.7833	-3.2562	-2.9667	-2.9917	-3.2167	-2.9375	-3.0917	-3.0875	86.709	-6.375	57.361	180.438	-63.945	-84.613	156.084	182.525	154.704	22.794	171.594	250.774	-33.297	199.014	-7.313	154.216	0.00019809	0.0014127	0.00055462	1603.7	5.8464e-06	1.7148e-05	1137.8	390.91	1.4935e-06	2.7688e-05	286.13	80.053	108.81	42.855	3.129e-06	37.028	0.0094065	0.012998	0.0036698	1495.5	0.00013992	0.00014629	1083.4	370.56	0.00013509	0.00014526	308.93	88.256	113.32	43.173	0.00013986	40.329	-98.121	100.472	-17.897	-91.656	252.737	154.307	-92.641	-87.054	-56.639	-11.175	-89.476	-84.604	-82.260	-77.546	-46.151	-80.718	-8191	255	
16392.982	1	1	0	0	0.1466	0.073523	0.14971	0.16671	0.20745	0.16888	0.17398	0.28255	0.27314	0.21111	0.037863	0.17791	0.23514	0.13606	0.24223	0.18393	-2.3479	-3.1521	-2.9208	-2.9979	-3.0958	-2.875	-3.1958	-3.4292	-2.9208	-3.2021	-2.8417	-2.8333	-3.0729	-2.8063	-2.9458	-3.2354	9.841	-55.933	-102.707	224.937	208.191	-84.232	210.710	190.024	192.838	-35.871	141.169	133.979	164.067	142.328	215.584	137.694	0.00033618	0.0023141	0.00040825	1606.3	2.2175e-05	1.0006e-05	1149.4	394.27	1.9442e-05	1.1744e-05	291.14	80.848	110.29	43.209	3.7143e-06	37.445	0.0092045	0.012725	0.0036035	1495.9	0.00013321	0.00014013	1088.5	372.92	0.00012991	0.00014238	308.24	87.695	113.05	43.18	0.00013417	40.101	228.155	84.543	92.029	-91.540	9.406	79.546	-92.816	-86.925	118.989	162.827	-89.780	-84.880	-82.871	-77.634	18.318	-80.728	-8191	255	
16393.076	1	1	0	0	0.10966	0.074707	0.096248	0.15969	0.061522	0.019685	0.3754	0.22488	0.14465	0.10398	0.15557	0.12976	0.22588	0.1488	0.1728	0.1512	-2.4688	-3.1208	-3.0312	-3.1667	-3.2083	-2.9146	-2.9354	-3.2917	-2.9917	-3.1146	-3.0958	-2.8021	-3.2354	-2.9938	-3.1104	-3.3312	103.550	103.275	129.209	182.698	21.019	182.363	178.935	212.849	111.441	-65.508	22.962	177.973	198.471	-26.130	220.716	199.656	0.0001815	0.0014696	0.00012139	1604.9	1.0502e-05	1.7281e-05	1146.4	394.07	1.8843e-05	1.7735e-05	293.36	81.822	110.24	43.224	1.1431e-05	37.304	0.0090046	0.012459	0.0035713	1499.7	0.00013512	0.00014174	1091.3	372.78	0.00013455	0.00014343	311.26	88.49	114.41	43.423	0.00013777	40.553	211.198	195.786	40.704	-91.768	45.172	47.121	-92.669	-87.113	55.657	64.713	-89.362	-84.690	-82.725	-77.938	-5.709	-81.012	-8191	255	
16393.174	1	1	0	0	0.22005	0.025863	0.07632	0.37151	0.0966	0.10107	0.06452	0.34711	0.2882	0.015994	0.31414	0.36767	0.060478	0.26149	0.19825	0.083137	-2.5312	-3.05	-3.05	-2.9542	-3.1083	-2.975	-3.1083	-3.3271	-2.8958	-3.125	-3.0938	-2.7479	-3.1833	-3.1375	-2.925	-3.1937	62.567	248.832	49.771	225.734	-89.219	55.626	108.107	144.362	222.473	179.132	175.218	242.390	-69.014	183.872	100.678	28.292	2.4929e-05	0.00090965	0.00032371	1614.1	3.4773e-05	1.4875e-05	1142.2	394.09	2.2085e-05	9.5657e-06	294.16	81.154	110.13	43.087	3.5597e-06	37.06	0.0093406	0.012892	0.0036074	1501.1	0.00013722	0.00014519	1089.5	374.1	0.0001357	0.00014333	312.33	88.595	114.51	43.386	0.0001391	40.202	-87.811	27.987	-3.453	-91.820	93.150	192.989	-92.823	-87.400	218.891	228.315	-89.928	-84.820	-82.952	-77.913	-89.066	-81.278	-8191	255	
16393.270	1	1	0	0	0.33785	0.18543	0.14099	0.35997	0.1536	0.13162	0.26362	0.19754	0.031242	0.21166	0.048756	0.35173	0.13476	0.011218	0.15086	0.074981	-2.4354	-3.0625	-3.1083	-3.0833	-3.1688	-3.0542	-2.9208	-3.3438	-3.0021	-3.0479	-3.1688	-2.8646	-3.1937	-2.9917	-2.9917	-3.3438	106.482	-69.827	-8.861	241.826	70.909	93.691	174.042	198.465	57.080	93.404	234.036	-99.725	237.720	61.680	67.247	47.952	0.00026264	0.00082429	0.00017217	1637.8	1.8841e-05	1.5608e-05	1168.4	404.35	1.2648e-05	7.6013e-06	294.39	82.591	112.23	42.833	6.7669e-06	36.95	0.0094566	0.013088	0.003624	1525.4	0.00013797	0.00014426	1109.2	380.01	0.00013518	0.000142	313.65	88.874	115.68	43.437	0.00013486	40.295	-86.188	-69.032	-102.307	-91.566	-43.105	-80.434	-92.702	-87.448	250.179	73.563	-90.277	-85.164	-82.644	-77.618	189.677	-80.799	-8191	255	
16393.391	1	1	0	0	0.077965	0.17429	0.14131	0.23056	0.18971	0.15993	0.12673	0.22677	0.11339	0.26057	0.22573	0.12207	0.038947	0.21661	0.24991	0.38385	-2.2771	-2.8875	-3.0542	-2.9396	-2.9667	-3.1396	-2.9688	-3.3688	-2.9375	-3.0062	-3.2979	-2.8583	-3.2896	-3.0125	-2.9	-3.1792	87.831	193.486	-46.260	228.700	231.390	163.529	218.986	242.369	-2.891	-100.910	180.592	171.105	63.991	-73.260	75.230	-81.885	0.00010739	0.0016303	0.00055684	1651.8	1.003e-05	9.1084e-06	1174.9	408.37	1.1649e-05	3.2615e-06	301.52	82.855	111.43	43.391	3.3361e-06	37.295	0.0093617	0.012846	0.0035509	1537.4	0.00013595	0.00014425	1118.9	383.99	0.00013566	0.00014208	318.37	90.09	115.74	43.648	0.00013649	40.563	-94.659	221.203	28.186	-91.751	90.063	224.589	-92.903	-87.294	156.503	18.862	-90.029	-85.021	-83.069	-77.366	5.819	-80.649	-8191	255	
16393.486	1	1	0	0	0.24348	0.085423	0.12473	0.25557	0.12358	0.046116	0.27295	0.18736	0.067029	0.074164	0.098794	0.231	0.092862	0.25163	0.10567	0.1685	-2.55	-3.0375	-3.075	-3.0438	-3.0958	-3.0521	-2.9042	-3.3438	-3.0187	-2.9625	-3.2125	-2.9417	-2.975	-3.275	-2.8604	-3.1646	19.522	194.032	106.060	222.520	197.446	177.408	206.767	182.851	108.712	-73.112	156.617	160.689	186.926	178.446	-29.804	-1.874	3.3016e-05	0.00062474	0.00022771	1666.2	6.9555e-06	1.5663e-05	1196.3	411.37	1.0404e-05	2.0789e-05	303.36	83.526	113.85	43.738	1.5495e-05	37.03	0.0094259	0.012846	0.0035784	1547.1	0.00013585	0.00014563	1129.4	388.08	0.00013553	0.00014265	320.85	90.798	117.39	43.737	0.00013681	40.49	121.687	-24.711	-85.575	-91.703	-95.714	14.673	-92.767	-87.447	194.756	-15.744	-89.826	-85.361	-82.697	-77.674	8.066	-80.949	-8191	255	
16393.582	1	1	0	0	0.29842	0.26668	0.08281	0.017593	0.1046	0.026811	0.13791	0.077496	0.12283	0.079131	0.043981	0.28918	0.21362	0.085176	0.062398	0.12973	-2.5292	-2.9521	-3.2521	-3.1875	-2.9979	-3.175	-2.9729	-3.2062	-2.925	-2.9083	-3.3271	-2.85	-3.0854	-3.0938	-2.7271	-3.0938	-91.616	167.340	96.839	23.410	-65.150	-101.585	183.538	208.577	56.109	189.473	208.546	241.934	217.412	65.075	90.411	128.511	0.00024411	0.0011388	0.00070404	1691.6	5.5348e-06	1.2686e-05	1212.4	419.86	1.1713e-05	9.4306e-06	305.54	83.139	115.45	43.501	1.8482e-05	36.925	0.0094835	0.012736	0.003561	1572.4	0.00013696	0.00014381	1146.7	395.62	0.00013716	0.0001444	325.08	91.633	119.17	43.811	0.00014089	40.483	177.976	-90.774	88.766	-92.032	-5.808	-64.816	-92.765	-87.584	-57.342	52.551	-90.082	-85.192	-83.015	-78.303	66.049	-80.962	-8191	255	
16393.678	1	1	0	0	0.10346	0.036764	0.014749	0.18518	0.35753	0.12712	0.57927	0.16116	0.16985	0.21074	0.18335	0.28774	0.26879	0.089208	0.073622	0.20871	-2.4938	-2.7208	-3.0042	-2.8375	-3.0812	-3.0708	-3.0438	-3.1813	-3.0479	-2.8896	-3.1896	-3.0354	-3.1437	-3.1521	-2.8146	-3.1	187.563	239.595	71.760	225.060	-30.435	182.383	239.564	-79.126	128.212	172.105	99.465	188.455	174.979	-3.420	80.261	-63.361	0.00013156	0.0025359	0.00091812	1706.6	1.4361e-05	1.0538e-05	1216.4	424.26	8.2671e-06	1.1443e-05	313.53	85.131	116.58	43.695	1.549e-05	36.986	0.0096744	0.013012	0.0036696	1589.4	0.00013836	0.0001471	1159.2	401.04	0.00013973	0.00014576	331.97	92.548	120.53	44.012	0.00014345	40.721	106.275	-44.699	-42.662	-91.904	37.457	205.664	-92.853	-87.756	95.402	-29.039	-90.260	-85.295	-82.979	-78.155	-6.772	-80.910	-8191	255	
#DATA ENDS
