BOXY.EXE: ISS Imagent and Oximeter Data Acquisition Program Version 0.80
Ascii Record File

#ACQ INFORMATION
2  Detector Channels 
16  External MUX Channels 
1  Auxiliary Channels 
5000  Waveform (CCF) Frequency (Hz)
1  Waveforms Skipped 
30  Waveforms Averaged 
1  Cycles Averaged 
16  Acquisitions per Waveform 
10.0806  Updata Rate (Hz) 

#FILE INFORMATION
TRUE -- External MUX Channel results are PARSED.
FALSE -- AC DC and Phase are NOT grouped.
TRUE -- Companion Program Settings File CREATED.
FALSE -- AC data not excluded
FALSE -- DC data not excluded
FALSE -- Phase data not excluded
FALSE -- Auxillary Chn. data not excluded
Tab delimiters

#CALIBRATION STATE
TRUE -- Waveform Calibration Values APPLIED.


#AUX CALIBRATION VALUES
Val Type	aux-1	

Term	1.0000e+00	
Factor	0.0000e+00	


#WF CALIBRATION VALUES
A = Detector Channel
Val Type	A-AC1	A-AC2	A-AC3	A-AC4	A-AC5	A-AC6	A-AC7	A-AC8	A-AC9	A-AC10	A-AC11	A-AC12	A-AC13	A-AC14	A-AC15	A-AC16	A-DC1	A-DC2	A-DC3	A-DC4	A-DC5	A-DC6	A-DC7	A-DC8	A-DC9	A-DC10	A-DC11	A-DC12	A-DC13	A-DC14	A-DC15	A-DC16	A-Ph1	A-Ph2	A-Ph3	A-Ph4	A-Ph5	A-Ph6	A-Ph7	A-Ph8	A-Ph9	A-Ph10	A-Ph11	A-Ph12	A-Ph13	A-Ph14	A-Ph15	A-Ph16	

Term	0.00000e+00	0.00000e+00	0.00000e+00	0.00000e+00	0.00000e+00	0.00000e+00	0.00000e+00	0.00000e+00	0.00000e+00	0.00000e+00	0.00000e+00	0.00000e+00	0.00000e+00	0.00000e+00	0.00000e+00	0.00000e+00	0.00000e+00	0.00000e+00	0.00000e+00	0.00000e+00	0.00000e+00	0.00000e+00	0.00000e+00	0.00000e+00	0.00000e+00	0.00000e+00	0.00000e+00	0.00000e+00	0.00000e+00	0.00000e+00	0.00000e+00	0.00000e+00	0.00000e+00	0.00000e+00	0.00000e+00	0.00000e+00	0.00000e+00	0.00000e+00	0.00000e+00	0.00000e+00	0.00000e+00	0.00000e+00	0.00000e+00	0.00000e+00	0.00000e+00	0.00000e+00	0.00000e+00	0.00000e+00	
Factor	1.00000e+00	1.00000e+00	1.00000e+00	1.00000e+00	1.00000e+00	1.00000e+00	1.00000e+00	1.00000e+00	1.00000e+00	1.00000e+00	1.00000e+00	1.00000e+00	1.00000e+00	1.00000e+00	1.00000e+00	1.00000e+00	1.00000e+00	1.00000e+00	1.00000e+00	1.00000e+00	1.00000e+00	1.00000e+00	1.00000e+00	1.00000e+00	1.00000e+00	1.00000e+00	1.00000e+00	1.00000e+00	1.00000e+00	1.00000e+00	1.00000e+00	1.00000e+00	X	X	X	X	X	X	X	X	X	X	X	X	X	X	X	X	

B = Detector Channel
Val Type	B-AC1	B-AC2	B-AC3	B-AC4	B-AC5	B-AC6	B-AC7	B-AC8	B-AC9	B-AC10	B-AC11	B-AC12	B-AC13	B-AC14	B-AC15	B-AC16	B-DC1	B-DC2	B-DC3	B-DC4	B-DC5	B-DC6	B-DC7	B-DC8	B-DC9	B-DC10	B-DC11	B-DC12	B-DC13	B-DC14	B-DC15	B-DC16	B-Ph1	B-Ph2	B-Ph3	B-Ph4	B-Ph5	B-Ph6	B-Ph7	B-Ph8	B-Ph9	B-Ph10	B-Ph11	B-Ph12	B-Ph13	B-Ph14	B-Ph15	B-Ph16	

Term	0.00000e+00	0.00000e+00	0.00000e+00	0.00000e+00	0.00000e+00	0.00000e+00	0.00000e+00	0.00000e+00	0.00000e+00	0.00000e+00	0.00000e+00	0.00000e+00	0.00000e+00	0.00000e+00	0.00000e+00	0.00000e+00	0.00000e+00	0.00000e+00	0.00000e+00	0.00000e+00	0.00000e+00	0.00000e+00	0.00000e+00	0.00000e+00	0.00000e+00	0.00000e+00	0.00000e+00	0.00000e+00	0.00000e+00	0.00000e+00	0.00000e+00	0.00000e+00	-1.03364e+02	-1.28589e+02	-1.22771e+02	-1.82799e+02	-5.29327e+01	-6.36955e+01	-1.54998e+02	-1.62015e+02	-5.44320e+01	-6.23480e+01	-1.71853e+02	-1.69414e+02	-1.80018e+02	-1.77411e+02	-5.74280e+01	-1.48938e+02	
Factor	1.60856e-05	1.42380e-04	4.19562e-05	1.84207e-01	1.34200e-06	1.50499e-06	1.63323e-01	4.88771e-02	1.25689e-06	1.78350e-06	9.25773e-02	2.71365e-02	2.66344e-02	8.67124e-03	1.27850e-06	1.23973e-02	7.02452e-06	9.64614e-06	2.71299e-06	9.29001e-02	1.02271e-07	1.07808e-07	7.77924e-02	2.48455e-02	1.01700e-07	1.07589e-07	4.55974e-02	1.35142e-02	1.37367e-02	4.44083e-03	1.04084e-07	6.15744e-03	X	X	X	X	X	X	X	X	X	X	X	X	X	X	X	X	



#DISTANCE SETTINGS
A = Detector Channel
A-1	A-2	A-3	A-4	A-5	A-6	A-7	A-8	A-9	A-10	A-11	A-12	A-13	A-14	A-15	A-16	

2.5000e+00	3.0000e+00	2.5000e+00	3.0000e+00	2.0000e+00	3.0000e+00	1.5000e+00	3.0000e+00	3.0000e+00	3.0000e+00	3.0000e+00	3.0000e+00	3.0000e+00	3.0000e+00	1.5000e+00	3.0000e+00	

B = Detector Channel
B-1	B-2	B-3	B-4	B-5	B-6	B-7	B-8	B-9	B-10	B-11	B-12	B-13	B-14	B-15	B-16	

1.0000e+01	1.0000e+01	1.0000e+01	1.4400e+00	1.0000e+01	1.0000e+01	1.5100e+00	1.9400e+00	1.0000e+01	1.0000e+01	1.9900e+00	2.4900e+00	2.4100e+00	2.9000e+00	1.0000e+01	2.9800e+00	




#DATA BEGINS
time	group	step	mark	flag	A-AC1	A-AC2	A-AC3	A-AC4	A-AC5	A-AC6	A-AC7	A-AC8	A-AC9	A-AC10	A-AC11	A-AC12	A-AC13	A-AC14	A-AC15	A-AC16	A-DC1	A-DC2	A-DC3	A-DC4	A-DC5	A-DC6	A-DC7	A-DC8	A-DC9	A-DC10	A-DC11	A-DC12	A-DC13	A-DC14	A-DC15	A-DC16	A-Ph1	A-Ph2	A-Ph3	A-Ph4	A-Ph5	A-Ph6	A-Ph7	A-Ph8	A-Ph9	A-Ph10	A-Ph11	A-Ph12	A-Ph13	A-Ph14	A-Ph15	A-Ph16	B-AC1	B-AC2	B-AC3	B-AC4	B-AC5	B-AC6	B-AC7	B-AC8	B-AC9	B-AC10	B-AC11	B-AC12	B-AC13	B-AC14	B-AC15	B-AC16	B-DC1	B-DC2	B-DC3	B-DC4	B-DC5	B-DC6	B-DC7	B-DC8	B-DC9	B-DC10	B-DC11	B-DC12	B-DC13	B-DC14	B-DC15	B-DC16	B-Ph1	B-Ph2	B-Ph3	B-Ph4	B-Ph5	B-Ph6	B-Ph7	B-Ph8	B-Ph9	B-Ph10	B-Ph11	B-Ph12	B-Ph13	B-Ph14	B-Ph15	B-Ph16	aux-1	digaux	

11069.582	1	1	0	256	0.23127	0.32065	0.18568	0.1574	0.12069	0.18605	0.053663	0.21063	0.2301	0.13711	0.13249	0.27941	0.0094562	0.1344	0.13282	0.17716	-2.6896	-3.2146	-2.9958	-3.3646	-3.2292	-2.975	-3.3646	-3.075	-3.2354	-3.2125	-3.0042	-3.1667	-3.1542	-2.8417	-3.2562	-2.9583	182.943	-36.268	-23.351	206.480	150.424	193.972	214.382	194.989	-25.720	194.878	224.160	226.122	151.932	-78.891	184.830	140.390	0.00015973	8.1429e-05	4.1291e-05	1288.1	3.3824e-06	5.5498e-06	1340.7	258.06	4.8964e-07	7.8205e-06	318.93	85.963	68.533	19.717	2.1724e-06	27.777	0.0008359	0.0011301	0.00031577	1265.4	1.187e-05	1.2362e-05	1322.8	256.21	1.173e-05	1.2228e-05	316.54	87.397	69.757	20.27	1.2318e-05	28.444	233.801	-45.561	18.385	-112.664	71.341	40.254	-112.312	-105.836	43.534	38.072	-105.346	-99.244	-99.225	-92.007	22.258	-92.313	-8191	255	
11069.679	1	1	0	0	0.1605	0.062776	0.15416	0.09602	0.23052	0.040003	0.20312	0.077648	0.12062	0.11196	0.13421	0.18174	0.1785	0.13552	0.11086	0.26016	-2.6875	-3.1937	-3.0729	-3.2854	-3.2021	-2.9562	-3.3667	-3.0271	-2.9479	-3.3083	-3.0083	-3.225	-3.0458	-2.8625	-3.2958	-3.1667	214.904	166.323	-60.109	-52.591	223.535	-44.443	126.051	219.765	-86.141	-69.990	228.373	221.049	-79.197	227.119	46.678	96.390	0.00011861	0.00029326	0.00013056	1300.2	6.3211e-06	4.504e-06	1342.9	257.46	2.1517e-06	7.5692e-06	318.15	86.409	68.342	19.986	1.2476e-06	27.683	0.00086672	0.0011462	0.00031141	1270	1.1931e-05	1.2663e-05	1324.5	256.48	1.2068e-05	1.2501e-05	316.79	87.615	69.635	20.316	1.2134e-05	28.344	204.342	-28.034	-42.911	-112.475	-6.237	37.834	-112.407	-105.837	92.541	30.378	-105.592	-99.191	-99.287	-91.829	-13.403	-92.301	-8191	255	
11069.775	1	1	0	0	0.20744	0.1591	0.14676	0.22171	0.12212	0.27971	0.1542	0.44197	0.16979	0.15377	0.24321	0.089239	0.091279	0.0826	0.076098	0.25985	-2.5458	-3.2854	-3.075	-3.2229	-3.1813	-3.0312	-3.4521	-3.1979	-2.9729	-3.2854	-3	-3.1646	-3.1792	-2.8438	-3.2333	-3.0625	-8.881	-59.784	25.903	209.033	-47.503	204.837	190.414	162.104	86.378	-91.419	209.223	-34.751	82.687	202.331	-39.784	-9.607	0.00014226	0.00027217	0.00010361	1290.4	3.7598e-06	2.8533e-06	1334.3	256.09	2.9092e-06	2.2454e-06	316.55	84.951	67.89	19.824	5.6693e-06	27.6	0.00085733	0.0011195	0.00031064	1264.3	1.1608e-05	1.186e-05	1313.3	254.65	1.125e-05	1.1667e-05	315.21	86.696	69.074	20.1	1.1097e-05	28.162	236.117	-8.823	-31.782	-112.694	64.509	-24.797	-112.499	-105.498	0.593	30.974	-105.731	-99.683	-98.949	-91.887	11.853	-92.147	-8191	255	
11069.871	1	1	0	0	0.018058	0.24834	0.11327	0.12705	0.21978	0.2203	0.15551	0.22178	0.11349	0.18941	0.054814	0.086038	0.11679	0.35806	0.096449	0.1391	-2.4354	-3.2625	-3.15	-3.1146	-3.2854	-3.1396	-3.5417	-3.2896	-2.7729	-3.3312	-3.2792	-3.1958	-3.1521	-3.0708	-3.3646	-3.375	-100.695	119.376	-42.699	147.375	206.831	-119.550	127.563	149.716	-68.710	-53.206	222.697	22.540	-88.307	157.226	-52.670	162.933	0.00012119	0.00029877	0.0001406	1278.6	3.6108e-06	3.0288e-06	1329.7	255.94	2.4839e-06	3.1321e-06	313.41	85.337	68.003	19.64	6.3304e-07	27.488	0.00079733	0.0010225	0.00028402	1255.3	1.106e-05	1.1302e-05	1310.5	254.37	1.0845e-05	1.1112e-05	313.31	86.788	69.061	20.042	1.1098e-05	28.093	214.872	205.001	50.625	-112.586	64.365	106.268	-112.383	-105.395	12.075	-4.721	-105.579	-99.502	-98.647	-92.480	-88.580	-92.227	-8191	255	
11069.992	1	1	0	0	0.22604	0.028118	0.10452	0.30934	0.19612	0.3413	0.34197	0.17784	0.19625	0.1034	0.079111	0.21281	0.01482	0.19592	0.057562	0.15958	-2.5708	-3.3396	-3.0875	-3.2938	-3.2333	-2.8604	-3.5083	-3.2979	-2.9938	-3.5833	-3.2729	-2.8833	-3.2104	-3.0208	-3.275	-3.2771	72.081	178.538	16.998	185.305	37.671	187.367	150.154	156.975	-84.158	122.287	-14.854	139.142	78.630	-90.110	-104.762	-51.561	0.00011555	0.00047679	0.00015607	1276	2.9138e-06	2.1319e-06	1331.5	257.41	4.3531e-06	5.9226e-06	313.67	85.56	67.504	19.77	1.0575e-06	27.492	0.00077009	0.0010009	0.00027699	1252.6	1.0649e-05	1.1097e-05	1308.3	254.18	1.054e-05	1.1051e-05	313.04	86.72	68.796	20.042	1.0477e-05	28.087	-122.925	-25.994	-30.267	-112.438	-0.106	22.253	-112.289	-105.536	-18.334	19.206	-105.896	-98.987	-98.934	-91.738	19.665	-91.995	-8191	255	
11070.063	1	1	0	0	0.16461	0.064503	0.23251	0.2559	0.28562	0.11762	0.16633	0.17903	0.2975	0.1169	0.27383	0.27737	0.19997	0.039818	0.12991	0.13516	-2.6646	-3.3917	-3.0438	-3.0896	-3.2979	-3.0375	-3.3792	-3.2729	-2.9458	-3.2625	-3.1292	-2.9792	-3.3042	-3.0146	-3.1271	-3.375	159.757	-58.204	171.825	-95.204	182.235	101.392	127.995	139.356	173.088	142.382	218.257	-121.204	-86.153	2.856	110.581	126.353	0.00012976	0.00052132	2.8996e-06	1276.1	8.8296e-07	2.3409e-06	1328.8	255.53	4.9496e-06	5.5644e-06	314.09	85.511	67.562	19.684	5.6831e-06	27.397	0.00077507	0.0010033	0.00028121	1251.9	1.0869e-05	1.1237e-05	1307.6	253.92	1.0967e-05	1.1234e-05	313.17	86.78	68.984	20.021	1.0799e-05	28.131	212.011	223.383	20.013	-112.536	236.066	210.334	-112.351	-105.616	-31.144	30.977	-105.511	-99.313	-98.689	-92.200	48.153	-92.149	-8191	255	
11070.159	1	1	0	0	0.17095	0.12329	0.074361	0.12762	0.22835	0.1732	0.23658	0.11699	0.10898	0.16889	0.047014	0.059336	0.1656	0.32981	0.18878	0.24594	-2.6271	-3.2792	-3.025	-2.9625	-3.1937	-3	-3.2375	-3.3354	-2.7917	-3.1271	-3.0875	-3.0604	-3.2479	-2.8438	-3.1396	-3.4229	-62.861	125.102	-21.633	123.953	87.041	10.293	222.143	122.767	91.201	-87.078	226.708	193.906	111.368	-21.835	180.921	149.118	0.00013277	0.00047566	8.225e-05	1278.4	1.577e-06	2.4832e-06	1327.6	255.38	4.4195e-06	3.8622e-06	313.79	85.303	68.054	19.718	1.3173e-06	27.657	0.00079215	0.00098859	0.00027492	1250.4	1.0809e-05	1.0864e-05	1307.5	254.1	1.0844e-05	1.0761e-05	312.89	86.902	68.92	20.037	1.0677e-05	28.145	218.952	-34.163	7.792	-112.395	5.323	3.224	-112.374	-105.378	-43.847	21.749	-105.666	-99.282	-98.724	-91.861	108.920	-92.418	-8191	255	
11070.278	1	1	0	0	0.11715	0.19653	0.075891	0.34462	0.21792	0.070035	0.27848	0.17603	0.22576	0.14389	0.15442	0.22345	0.30349	0.23552	0.25237	0.032609	-2.4708	-3.1771	-2.9729	-2.9104	-3.0958	-3.1479	-3.1979	-3.2854	-2.6292	-3.1792	-3.3833	-2.9604	-3.15	-3.1292	-3.0708	-2.9562	132.523	173.556	186.233	-122.300	131.038	32.330	124.029	127.941	-111.828	125.007	157.133	218.981	150.154	163.220	-96.999	77.406	0.00011768	0.0005296	8.4292e-05	1283.3	4.0178e-06	3.698e-06	1325.1	254.89	3.1875e-06	9.6311e-06	314.73	85.157	67.709	19.699	3.8555e-06	27.492	0.00076879	0.00097285	0.00027136	1249.3	1.0717e-05	1.0592e-05	1303.8	252.96	1.0344e-05	1.0446e-05	311.8	86.47	68.722	19.991	1.0225e-05	28.013	230.614	-7.514	33.326	-112.572	27.157	75.672	-112.454	-105.384	-13.760	45.490	-105.381	-99.352	-98.718	-91.933	63.197	-92.043	-8191	255	
11070.374	1	1	0	0	0.045893	0.18079	0.29345	0.25275	0.19994	0.16925	0.17812	0.18068	0.18571	0.22343	0.25593	0.065838	0.091729	0.16157	0.11554	0.32811	-2.5625	-3.0312	-3.1521	-2.8042	-3.2188	-3.0917	-3.0417	-3.4042	-3.0021	-3.275	-3.35	-3.1125	-3.2521	-3.1021	-3.1229	-3.3479	-8.841	70.201	182.435	-65.414	-118.481	-85.883	156.790	152.972	76.468	-29.350	182.027	224.380	147.504	4.340	101.174	220.198	0.00015503	0.00028849	5.189e-06	1267.9	3.4397e-06	3.2764e-06	1318.7	254.67	3.3945e-06	4.6164e-06	312.18	85.035	67.658	19.519	8.7987e-07	27.424	0.0007262	0.00093236	0.00026294	1244.7	1e-05	1.037e-05	1299.1	252.07	1.0011e-05	1.0276e-05	311.04	86.425	68.534	19.883	1.0064e-05	28.036	227.492	-42.416	-120.582	-112.419	14.210	106.083	-112.055	-105.387	-16.452	53.795	-105.562	-99.084	-98.809	-91.836	-9.350	-92.022	-8191	255	
11070.471	1	1	0	0	0.15428	0.25004	0.3339	0.15672	0.27445	0.13657	0.15294	0.28265	0.21193	0.013192	0.1057	0.10931	0.10304	0.22768	0.091101	0.30256	-2.6	-3.0771	-3.1542	-3.1625	-3.2292	-3.0292	-2.9938	-3.4146	-3.2208	-2.9938	-3.5083	-3.125	-3.3458	-3.2042	-2.6542	-3.3479	215.120	225.134	-99.826	96.572	-23.624	31.627	88.496	211.996	144.907	147.223	89.196	-73.553	179.931	175.989	48.399	-86.059	0.00012039	0.00047713	9.3926e-05	1268.6	2.787e-06	2.648e-06	1318.6	254.55	1.6412e-06	3.7385e-06	313.49	85.201	67.074	19.573	2.8259e-06	27.537	0.00071741	0.00094884	0.00025765	1242.6	9.9521e-06	1.0258e-05	1296.6	252.18	9.7344e-06	1.0279e-05	311.25	86.223	68.116	19.864	9.751e-06	27.89	207.591	-47.288	-23.519	-112.554	10.861	-4.878	-112.366	-105.691	27.877	71.749	-105.502	-99.513	-98.732	-92.289	-4.699	-92.197	-8191	255	
11070.567	1	1	0	0	0.28103	0.21281	0.20306	0.17702	0.089117	0.095163	0.16401	0.12611	0.10847	0.11347	0.10369	0.29082	0.042887	0.2038	0.12721	0.092191	-2.825	-2.8104	-3.2604	-3.1167	-3.1125	-3.3083	-3.2062	-3.3646	-2.9833	-2.9771	-3.3937	-3.1417	-3.2792	-3.2333	-2.7708	-3.2292	-72.899	37.419	233.430	204.670	53.648	-69.704	136.939	-110.726	52.210	4.695	91.616	145.963	-95.734	83.954	226.688	130.923	0.000111	5.4936e-05	6.9031e-05	1259.7	2.0074e-06	4.1505e-06	1313.7	253.08	4.5461e-06	1.5049e-06	311.39	84.906	67.422	19.549	1.2081e-06	27.413	0.00070378	0.00088857	0.00025544	1236.5	9.7552e-06	9.9597e-06	1293.2	251.61	9.7028e-06	9.8296e-06	310.35	85.995	68.193	19.841	9.9739e-06	27.888	235.364	-36.130	14.820	-112.444	-103.492	60.968	-112.010	-105.512	-23.771	70.797	-105.498	-99.090	-98.777	-92.124	180.551	-91.774	-8191	255	
11070.663	1	1	0	0	0.17951	0.31059	0.18296	0.14208	0.14758	0.18559	0.42658	0.24325	0.20664	0.10342	0.20294	0.16101	0.13826	0.046476	0.25791	0.025091	-2.8833	-2.8854	-3.2812	-3.1208	-3.0771	-3.2687	-3.2167	-3.3854	-3.1708	-2.7188	-3.2562	-3.1271	-3.0208	-3.3729	-2.9896	-3.1688	129.465	206.583	20.756	200.686	-70.035	179.234	189.517	159.444	69.714	-5.101	145.328	192.797	-24.057	155.773	4.502	-32.506	9.6579e-05	0.00045392	0.00012381	1263	2.8066e-06	5.2262e-06	1313.7	253.09	1.8988e-06	2.9012e-06	311.33	85.054	67.49	19.428	2.4503e-06	27.416	0.00071251	0.00091524	0.00025538	1237.2	9.5526e-06	9.8512e-06	1291.2	251.17	9.4962e-06	1.0048e-05	310.02	86.121	68.32	19.858	9.6564e-06	27.951	224.145	-41.152	-27.128	-112.657	49.859	79.968	-112.400	-105.542	-84.102	86.904	-105.551	-99.019	-98.511	-92.165	40.461	-92.425	-8191	255	
11070.759	1	1	0	0	0.07499	0.23304	0.16797	0.26954	0.11373	0.073536	0.24907	0.12282	0.219	0.1737	0.10296	0.34748	0.054906	0.17677	0.024431	0.1853	-2.8646	-2.9083	-3.2771	-3.2458	-3.0417	-3.3396	-3.0667	-3.3396	-3.1396	-2.9833	-3.3375	-2.9979	-3.0604	-3.3354	-3.1354	-3.275	-42.411	-97.337	-103.766	194.234	-22.428	-73.639	218.429	158.211	-3.226	37.996	-104.624	167.462	222.707	226.679	-16.444	146.884	0.0001199	0.00052465	7.2342e-05	1265.3	9.6834e-07	2.5911e-06	1313.5	252.56	2.9292e-06	3.3951e-06	313.56	85.183	66.826	19.472	2.1834e-06	27.338	0.00071694	0.0009164	0.00025531	1236.2	9.7731e-06	1.0048e-05	1291.5	251.27	9.6126e-06	9.8337e-06	310.35	86.089	68.131	19.827	9.6261e-06	27.864	224.505	-53.150	-56.709	-112.501	175.348	84.412	-112.400	-105.403	-15.601	132.412	-105.798	-99.413	-98.603	-92.186	64.355	-92.294	-8191	255	
11070.855	1	1	0	0	0.12936	0.11964	0.18318	0.30328	0.14772	0.043369	0.45056	0.32295	0.20075	0.17434	0.19693	0.29548	0.10363	0.30465	0.085682	0.14864	-2.5187	-2.95	-3.3542	-3.2146	-2.9896	-3.2104	-3.1937	-3	-3.1813	-2.9375	-3.2104	-3.0563	-2.8771	-3.35	-3.0187	-3.1937	179.749	-54.601	107.285	204.206	-70.431	-70.148	160.307	209.796	-87.793	122.418	222.752	103.875	40.481	-107.955	74.480	57.858	9.6112e-05	0.00058281	3.2587e-05	1257.2	3.7037e-06	3.2311e-06	1312.3	253.73	7.7809e-07	7.7532e-06	312.53	84.684	67.372	19.598	3.381e-06	27.517	0.00069566	0.0008775	0.00025494	1235.9	9.6964e-06	1.0082e-05	1289.8	251.06	9.4068e-06	9.9224e-06	309.88	85.983	68.143	19.856	9.5317e-06	27.881	212.230	-52.430	-114.469	-112.603	54.772	95.270	-112.137	-105.566	12.197	-10.772	-105.777	-99.201	-99.263	-91.585	19.287	-92.384	-8191	255	
11070.976	1	1	0	0	0.27106	0.15653	0.20962	0.32002	0.13094	0.20775	0.33079	0.42523	0.20716	0.39066	0.15952	0.19221	0.11568	0.17862	0.079677	0.065616	-2.875	-3.0146	-3.0833	-3.2229	-2.95	-3.1521	-3.2833	-3.0021	-3.4771	-2.9417	-3.1479	-3.3417	-3.0458	-3.3479	-3.0042	-3.1271	-36.890	-111.421	-51.711	111.511	60.931	-29.806	170.236	163.139	0.001	137.496	11.890	177.350	15.151	73.604	-120.773	178.707	0.00013226	0.00047998	8.233e-05	1261.8	2.6004e-06	4.8112e-06	1306.5	252.49	2.9202e-06	3.1583e-06	311.51	84.94	67.298	19.563	1.6282e-06	27.245	0.00069992	0.00089958	0.00024782	1236.2	9.4565e-06	9.8492e-06	1287.9	250.92	9.5384e-06	9.9567e-06	309.67	86.085	68.034	19.82	9.3787e-06	27.905	225.799	-95.719	-54.359	-112.450	-71.881	2.953	-112.357	-105.439	4.442	52.159	-105.619	-99.257	-98.849	-91.883	-44.804	-92.183	-8191	255	
11071.072	1	1	0	0	0.10119	0.037276	0.26222	0.15527	0.34656	0.19174	0.2355	0.052782	0.11577	0.10853	0.29293	0.14908	0.05062	0.25483	0.15944	0.31361	-2.8937	-3.0271	-3.0875	-3.0896	-2.8729	-3.2146	-3.2625	-2.8792	-3.3479	-2.9813	-3.2354	-3.3521	-2.9354	-3.2958	-3.0312	-2.9854	41.209	29.891	-40.073	132.065	186.611	18.364	189.171	117.679	55.625	-102.234	149.196	67.806	3.742	-81.978	-42.947	129.479	0.00013139	0.00038708	0.00015321	1258.5	1.4706e-06	2.1603e-06	1310.2	253.68	3.7558e-06	6.2392e-06	312.18	84.905	67.654	19.63	3.5709e-06	27.374	0.00070257	0.00088539	0.0002416	1233.8	9.5217e-06	9.787e-06	1290.2	251.13	9.4935e-06	9.8014e-06	310.14	85.925	68.223	19.86	9.4784e-06	27.901	232.434	-27.680	-14.127	-112.326	-72.389	49.160	-112.250	-105.460	-31.878	57.309	-105.555	-99.354	-98.695	-92.054	-15.078	-92.252	-8191	255	
11071.166	1	1	0	0	0.11661	0.25131	0.14123	0.2332	0.13014	0.084326	0.1707	0.29728	0.086437	0.025183	0.30737	0.10945	0.35546	0.31628	0.16322	0.1002	-2.8688	-3.0438	-3.0729	-3.3667	-2.7625	-3.1229	-3.1813	-2.9396	-3.3708	-3.1125	-3.0917	-3.3438	-2.9083	-3.2021	-3.0167	-3.1104	-90.528	194.250	-122.365	215.906	81.690	-51.569	-41.638	167.156	182.301	-13.474	178.422	188.923	208.175	222.366	117.368	76.177	0.0001378	9.5858e-05	9.92e-05	1261.6	2.4182e-06	7.1015e-07	1312.8	252.61	3.1302e-06	6.9384e-06	308.85	85.151	67.293	19.497	5.2916e-06	27.472	0.00071633	0.0008784	0.0002504	1235.5	9.8091e-06	9.8294e-06	1290.8	251.3	9.5704e-06	9.898e-06	309.01	86.137	68.19	19.813	9.3906e-06	27.931	227.002	-76.222	-11.789	-112.521	-28.487	-97.004	-112.012	-105.252	70.501	33.787	-105.567	-99.034	-99.106	-92.083	51.756	-92.150	-8191	255	
11071.287	1	1	0	0	0.14236	0.1153	0.02396	0.044884	0.11884	0.18326	0.2381	0.27725	0.17487	0.087334	0.040576	0.18178	0.20498	0.23643	0.083968	0.18654	-2.8854	-3.2542	-3.1917	-3.4083	-2.9833	-3.2687	-3.2896	-3.0042	-3.1771	-3.0729	-3.1312	-3.2687	-2.9042	-3.0917	-3.1896	-3.0812	-59.629	8.674	188.334	60.033	82.794	-118.580	157.921	194.114	171.435	-82.040	-35.443	161.882	177.327	220.794	-8.273	168.811	0.00013607	0.00052863	8.9165e-05	1258	3.3576e-06	2.7078e-06	1310.7	253.14	1.0706e-06	3.9832e-06	311.76	84.719	66.992	19.532	1.7285e-06	27.252	0.00070015	0.00088992	0.00024897	1233	9.6766e-06	9.831e-06	1289.2	250.69	9.6473e-06	9.6234e-06	309.86	86.027	68.086	19.837	9.4548e-06	27.86	235.127	-19.619	-1.319	-112.456	36.135	39.727	-112.241	-105.392	7.343	124.006	-105.395	-99.056	-98.953	-91.564	48.070	-92.294	-8191	255	
11071.359	1	1	0	0	0.050806	0.058142	0.23466	0.15604	0.074607	0.14287	0.16022	0.086551	0.16565	0.19545	0.19215	0.23993	0.080665	0.17354	0.068919	0.1655	-2.975	-2.9917	-2.8542	-3.5333	-2.8042	-3.125	-3.5021	-3.0417	-3.3396	-3.1604	-3.0104	-3.4146	-3.0396	-3.1479	-3.2792	-3.0542	107.037	219.662	152.699	181.891	35.237	30.331	183.004	230.264	164.823	81.446	196.361	111.616	172.742	217.806	48.820	133.473	0.00012185	0.00020084	0.00015666	1260.8	3.5852e-06	5.4186e-06	1306.2	251.91	2.0937e-06	4.13e-06	312.64	84.816	67.09	19.59	1.8416e-06	27.52	0.00069685	0.00085668	0.00024428	1233.5	9.52e-06	9.7921e-06	1289.1	251	9.4168e-06	9.7315e-06	309.8	85.957	68.088	19.826	9.6655e-06	27.923	221.615	-8.724	-14.477	-112.433	57.808	-49.245	-112.434	-105.491	14.735	56.587	-105.732	-99.010	-98.795	-91.787	74.521	-92.104	-8191	255	
11071.455	1	1	0	0	0.080323	0.19715	0.097314	0.16279	0.12553	0.12503	0.19208	0.09729	0.010944	0.18187	0.1079	0.26476	0.40642	0.18677	0.16157	0.20882	-2.8708	-3.2542	-2.8375	-3.4167	-2.9917	-3.0125	-3.4688	-3.2708	-3.2521	-3.2854	-3.0729	-3.3375	-2.9583	-3.1396	-3.4	-3.0042	142.083	234.402	72.165	181.886	-12.636	-120.596	67.065	213.487	-26.446	82.791	-7.948	234.544	213.592	-86.644	-39.950	124.182	0.00012125	0.00039884	7.1167e-05	1258.4	3.5507e-06	3.3905e-06	1304.9	252.82	2.1556e-06	3.4048e-06	313.29	84.76	66.806	19.507	9.8996e-07	27.248	0.00069151	0.00086236	0.0002456	1232.4	9.2575e-06	9.4867e-06	1287.9	250.9	9.1418e-06	9.4304e-06	310.13	85.839	67.947	19.787	9.1627e-06	27.821	227.146	-18.550	4.182	-112.567	20.359	18.348	-112.090	-105.351	-11.051	72.016	-105.431	-99.247	-99.005	-91.634	-110.325	-91.979	-8191	255	
11071.551	1	1	0	0	0.060807	0.16652	0.090777	0.32355	0.088987	0.32551	0.326	0.16704	0.10437	0.013492	0.064566	0.094653	0.16856	0.18117	0.14105	0.13727	-2.8021	-3.1729	-3.0458	-3.3042	-3.0792	-2.8875	-3.4958	-3.0187	-3.1646	-3.275	-2.9292	-3.3688	-3.2146	-3.0875	-3.2625	-3.0917	154.643	115.418	82.052	191.951	-95.795	233.162	146.853	199.185	209.108	-118.308	205.393	-88.952	-107.054	87.428	23.174	7.812	0.00013477	0.00022493	0.00012045	1254.4	1.7847e-06	4.6867e-06	1306.4	250.64	4.4344e-06	5.4703e-06	310.11	84.809	67.062	19.533	1.2334e-06	27.236	0.00066737	0.00084084	0.00023829	1229.3	8.9673e-06	9.4182e-06	1284	249.62	9.0585e-06	9.4802e-06	308.7	85.78	67.934	19.787	9.2733e-06	27.823	233.186	-34.105	-41.921	-112.586	74.053	61.800	-112.334	-105.498	-27.611	17.360	-105.404	-99.258	-98.959	-92.133	15.453	-92.091	-8191	255	
11071.670	1	1	0	0	0.18447	0.054216	0.18144	0.23248	0.09233	0.2046	0.10226	0.35956	0.066952	0.16023	0.17993	0.06744	0.2427	0.21773	0.17969	0.3459	-2.7062	-3.0917	-2.8563	-3.4333	-3.2083	-2.7979	-3.4458	-3.1063	-3.1813	-3.4396	-3.1042	-3.2958	-3.3958	-2.9604	-3.3479	-2.9646	131.793	125.499	-122.600	176.323	77.061	189.701	216.501	-99.049	-24.500	11.478	193.757	-117.962	-119.175	-76.486	-121.728	146.651	8.9258e-05	0.00039106	8.8053e-05	1255.5	3.6312e-06	4.3816e-06	1305.2	250.72	5.2635e-06	4.2137e-06	311.14	84.597	67.028	19.495	8.5196e-07	27.469	0.00066863	0.00084432	0.00023918	1228.8	8.9095e-06	9.3571e-06	1282.2	249.78	9.0142e-06	9.6324e-06	309.04	85.674	67.818	19.769	9.265e-06	27.844	-97.792	18.184	-38.091	-112.598	26.339	91.703	-112.357	-105.415	-18.514	80.392	-105.509	-99.160	-99.032	-91.693	-17.698	-92.542	-8191	255	
11071.766	1	1	0	0	0.096701	0.17417	0.065916	0.14934	0.14744	0.24051	0.35666	0.10403	0.0959	0.19144	0.21247	0.18991	0.13526	0.10935	0.20399	0.20018	-2.6813	-3.3979	-2.9729	-3.2208	-3.2062	-3.05	-3.3958	-3.0812	-3	-3.3667	-3.1292	-3.3229	-3.2188	-3.0312	-3.2625	-3.2625	108.440	77.392	-34.684	-122.579	208.765	98.640	104.139	5.421	208.331	204.236	112.015	196.939	-12.505	217.289	64.403	-115.096	0.0001956	0.00012369	7.2943e-05	1251	2.6238e-06	5.0326e-06	1301.1	250.81	5.1685e-06	5.9344e-07	309.14	84.342	67.079	19.42	3.684e-06	27.239	0.00068458	0.00088638	0.00024152	1227.8	9.2179e-06	9.7782e-06	1283	249.95	9.2377e-06	9.5082e-06	308.15	85.538	67.975	19.714	9.3236e-06	27.755	228.068	9.460	-41.791	-112.356	97.720	29.851	-112.299	-105.525	-42.289	-102.735	-106.076	-99.357	-99.008	-92.322	28.374	-91.960	-8191	255	
11071.862	1	1	0	0	0.18866	0.26537	0.108	0.30076	0.26389	0.35451	0.37726	0.1991	0.24449	0.1213	0.15346	0.18443	0.1419	0.38043	0.24693	0.25389	-2.6917	-3.1646	-2.9833	-3.1292	-3.3312	-2.9875	-3.3563	-3.2979	-2.9271	-3.3187	-3.1458	-3.1312	-3.2875	-3.0333	-3.1375	-2.9875	-35.453	-91.575	133.252	154.521	149.018	76.090	119.488	193.098	-28.755	-34.222	-108.928	-71.261	-67.882	185.562	-22.732	179.086	0.00013117	0.00020924	9.5607e-05	1252.6	1.6369e-06	1.9189e-06	1304.7	252.05	5.0232e-06	7.0369e-06	311.97	84.669	67.522	19.327	2.7536e-06	27.354	0.00067785	0.00084862	0.00024315	1227.9	9.3357e-06	9.5561e-06	1282.4	249.91	9.5202e-06	9.6499e-06	308.59	85.635	67.993	19.716	9.2247e-06	27.805	214.994	-44.079	-110.610	-112.234	23.592	76.865	-112.054	-105.549	19.593	47.698	-105.801	-98.845	-99.044	-92.045	56.454	-92.161	-8191	255	
11071.958	1	1	0	0	0.053165	0.13739	0.16078	0.21321	0.11939	0.031147	0.32966	0.12765	0.079985	0.16025	0.068147	0.080346	0.15811	0.18583	0.25752	0.11868	-2.6229	-3.175	-2.9792	-3.1562	-3.1729	-2.9521	-3.2458	-3.4125	-2.9208	-3.2771	-3.0146	-3.0438	-3.1312	-2.9458	-3.0542	-3.25	-71.950	142.933	151.697	210.047	37.089	-123.349	176.932	141.141	130.065	87.131	96.414	208.883	193.289	-97.549	-74.641	206.567	0.00010447	0.00026244	6.6985e-05	1249.4	2.2914e-06	5.988e-06	1301.1	251.28	3.2844e-06	4.6521e-06	309.54	84.504	67.197	19.445	2.405e-06	27.325	0.00067214	0.00082159	0.0002425	1226.6	9.1919e-06	9.5244e-06	1282.3	249.72	9.06e-06	9.4105e-06	308.09	85.748	67.922	19.752	9.164e-06	27.801	223.177	-77.847	-34.555	-112.419	23.687	36.837	-112.226	-105.757	49.384	42.100	-105.274	-99.359	-98.915	-92.044	-17.111	-92.208	-8191	255	
11072.054	1	1	0	0	0.072434	0.11004	0.18547	0.13633	0.080211	0.054885	0.21137	0.20807	0.055477	0.35212	0.18871	0.12813	0.20448	0.32858	0.2177	0.17499	-2.5771	-3.1583	-3.1063	-3.1312	-3.1875	-2.9375	-3.2375	-3.2938	-3.1792	-3.2062	-3.2083	-3.0333	-3.3604	-3.0563	-3.0979	-3.3458	199.623	141.213	-8.266	-115.991	-31.749	-107.384	83.227	176.930	183.282	-7.744	213.555	-81.434	177.766	-109.551	202.274	-112.429	0.00012276	0.00048423	7.937e-05	1251.3	4.7277e-07	3.9858e-06	1300.8	252.6	1.5248e-06	2.9183e-06	309.81	84.629	66.828	19.477	4.1785e-07	27.478	0.00067999	0.00083628	0.00024155	1226.2	9.403e-06	9.1817e-06	1280.8	249.99	9.1778e-06	9.332e-06	308.17	85.636	67.879	19.734	8.9634e-06	27.821	-111.866	10.569	-73.688	-112.487	191.164	38.536	-112.454	-105.352	1.149	98.918	-105.946	-99.411	-98.629	-91.851	140.280	-92.110	-8191	255	
11072.151	1	1	0	0	0.19727	0.31534	0.097127	0.099946	0.18502	0.18052	0.20486	0.15587	0.057868	0.16599	0.11467	0.13517	0.14065	0.14242	0.27889	0.19299	-2.6104	-3.0708	-3.2521	-3.1583	-3.2625	-3.0479	-3.3104	-3.4167	-2.8542	-3.1042	-3.3125	-3.0333	-3.2625	-3.1437	-3.1063	-3.375	-48.045	-121.060	-41.735	187.265	221.734	3.841	220.743	236.909	89.003	-54.810	222.791	-106.482	29.251	67.519	8.735	183.225	0.00011888	0.00054634	0.00010431	1253.4	1.3032e-06	5.9478e-06	1300.9	251.63	2.3791e-06	3.3433e-06	310.74	84.791	67.305	19.458	2.0863e-06	27.264	0.00065988	0.00082965	0.00023316	1226.3	9.0866e-06	9.2401e-06	1280.5	249.45	9.049e-06	9.222e-06	307.88	85.679	68.002	19.762	8.9751e-06	27.774	-114.687	-21.682	-81.582	-112.337	77.746	66.171	-112.168	-105.097	-53.348	86.469	-105.631	-99.013	-99.111	-91.919	84.537	-92.268	-8191	255	
11072.247	1	1	0	0	0.33102	0.10197	0.10952	0.17946	0.21418	0.18063	0.033883	0.048469	0.15593	0.17558	0.14783	0.16974	0.041108	0.1028	0.18056	0.044322	-2.5271	-3.0479	-3.0604	-3.0708	-3.175	-3.1646	-3.0958	-3.3625	-3.1813	-3.0812	-3.1625	-3.0187	-3.3896	-3.0062	-3.0062	-3.4354	112.949	72.833	-28.374	-113.252	-2.258	90.185	0.860	-91.486	159.143	15.012	-33.514	130.957	183.810	224.741	117.398	162.121	0.00010446	0.00034639	7.3051e-05	1252.1	3.4598e-06	8.499e-07	1299.6	253.33	3.0293e-06	1.8565e-06	311.93	84.345	66.486	19.437	1.7226e-06	27.388	0.00067472	0.00084148	0.00023545	1225.7	9.1045e-06	9.2805e-06	1281.4	249.77	9.0511e-06	9.2271e-06	308.89	85.605	67.626	19.745	9.0887e-06	27.766	210.095	0.657	-39.487	-112.482	83.431	5.243	-112.393	-105.523	6.780	61.086	-105.380	-98.827	-98.757	-91.932	10.631	-92.355	-8191	255	
11072.367	1	1	0	0	0.075173	0.079318	0.13576	0.17259	0.12197	0.043392	0.37983	0.13573	0.13273	0.12658	0.14817	0.16916	0.11739	0.19245	0.13493	0.14556	-2.4708	-3.0687	-3.0833	-2.9854	-3.05	-3.275	-3.1208	-3.3042	-2.9062	-3.1208	-3.2458	-2.9896	-3.3104	-3.1208	-2.9583	-3.1292	-84.653	0.416	46.672	-103.351	161.877	-0.649	171.604	112.035	-81.801	-7.148	181.440	122.930	-110.957	-81.746	27.807	1.112	0.00013041	0.00013788	0.00011669	1242.8	3.374e-06	3.4902e-06	1299	251.04	2.5545e-06	4.1281e-06	309.41	84.195	66.788	19.484	1.8346e-06	27.359	0.00066762	0.00081689	0.00023189	1222.4	8.8537e-06	9.0054e-06	1275.7	248.75	8.6214e-06	9.1637e-06	306.77	85.197	67.52	19.743	8.8287e-06	27.72	235.099	-10.909	4.937	-112.542	38.609	-3.417	-112.352	-105.603	29.644	55.703	-105.276	-99.078	-98.642	-91.868	-57.395	-92.017	-8191	255	
11072.463	1	1	0	0	0.12881	0.36061	0.15588	0.17516	0.13771	0.27769	0.17207	0.29726	0.155	0.13612	0.14862	0.023695	0.15695	0.24017	0.1011	0.18776	-2.7042	-2.9167	-3.4875	-3.0604	-3.325	-3.1063	-2.9667	-3.3521	-3.1208	-3.0146	-3.3854	-3.0375	-3.3042	-3.4062	-2.8625	-3.3583	93.087	-31.427	169.564	-71.523	-108.554	106.919	121.969	-120.774	-23.552	183.467	197.919	74.845	-63.942	165.654	90.155	15.685	8.107e-05	0.00037282	0.00020596	1244.6	1.7852e-06	2.3406e-06	1293.4	250.51	1.9605e-06	2.9986e-06	310.97	84.305	66.875	19.22	2.0694e-06	27.359	0.00065242	0.00081092	0.00022998	1218.7	8.6692e-06	8.9694e-06	1273.3	248.9	8.6477e-06	8.9274e-06	307.65	85.213	67.498	19.599	8.8457e-06	27.648	-119.215	-25.748	-44.014	-112.764	28.932	31.762	-112.273	-105.443	70.001	79.089	-105.356	-99.161	-98.858	-91.905	0.110	-92.298	-8191	255	
11072.560	1	1	0	0	0.16794	0.07591	0.1627	0.28794	0.11841	0.083416	0.25671	0.15816	0.13925	0.060487	0.1184	0.33863	0.19389	0.21986	0.21005	0.25892	-2.6562	-3.0625	-3.2583	-3.0875	-3.1229	-3.1521	-3.1125	-3.1479	-2.9417	-3.025	-3.2875	-3.0125	-3.1917	-3.2792	-2.8312	-3.2667	-31.291	-60.464	-115.648	-111.222	172.108	214.029	199.406	-97.139	-7.277	146.314	-26.558	228.360	181.935	26.251	-103.829	156.862	0.0001142	0.00063963	0.0001715	1241.4	2.4323e-06	3.1597e-06	1292.4	250.68	2.616e-06	4.736e-06	310.03	84.087	67.027	19.496	3.5955e-06	27.298	0.00063055	0.00080547	0.00022978	1217.9	8.734e-06	9.1527e-06	1272.1	248.27	8.6678e-06	9.0133e-06	307.61	85.095	67.553	19.667	9.0907e-06	27.671	-114.742	-54.130	-24.996	-112.413	78.966	58.155	-112.287	-105.371	9.392	50.353	-105.162	-98.785	-98.610	-91.883	117.461	-92.002	-8191	255	
11072.656	1	1	0	0	0.098837	0.107	0.051988	0.19555	0.096468	0.15995	0.18348	0.26894	0.03726	0.029607	0.046755	0.22696	0.063855	0.13857	0.17668	0.047747	-2.4792	-2.9646	-3.3187	-3.0729	-3.1937	-3.2333	-3.0563	-3.1063	-3.0083	-2.9542	-3.3125	-2.9625	-3.0167	-3.2313	-2.8208	-3.2313	113.253	-93.453	-6.890	190.881	-5.947	79.063	188.151	174.579	88.259	-99.741	-96.281	-50.165	96.947	-117.890	-32.048	-74.722	0.0001198	0.00031406	0.00014492	1246.2	6.7383e-06	2.3324e-06	1290.5	250.44	2.3832e-06	4.7674e-06	308.4	84.128	66.775	19.343	2.4791e-06	27.322	0.00065615	0.00084904	0.00024186	1218.5	9.0544e-06	9.1787e-06	1272.3	248.64	9.0483e-06	9.5048e-06	306.2	85.269	67.428	19.665	9.2245e-06	27.69	231.562	-31.244	8.207	-112.595	10.647	-7.385	-112.279	-105.736	97.717	31.285	-105.227	-98.921	-98.589	-91.938	4.529	-92.199	-8191	255	
11072.750	1	1	0	0	0.092017	0.16829	0.044525	0.18453	0.11327	0.11922	0.17315	0.25549	0.1421	0.17808	0.055594	0.19101	0.16023	0.053734	0.17013	0.31204	-2.8688	-2.9104	-3.2292	-3.1937	-2.9417	-3.4604	-3.1875	-3.1042	-3.1375	-2.8354	-3.3	-3.2104	-2.9521	-3.3854	-3.0417	-3.2042	-49.511	228.434	147.355	169.882	40.612	-64.538	166.282	197.046	-47.783	130.909	205.360	22.249	-76.974	104.417	64.445	198.127	8.7093e-05	0.00041505	0.00018875	1243	4.9392e-06	3.7351e-06	1296.4	250.85	3.564e-06	3.9066e-06	309.55	84.214	66.514	19.18	3.4391e-06	27.264	0.00065565	0.00083043	0.00023119	1216.7	8.7429e-06	9.0557e-06	1271.8	248.23	8.764e-06	9.0216e-06	306.68	85.189	67.381	19.656	8.9009e-06	27.728	225.653	-49.693	-46.416	-112.555	3.199	-36.356	-112.350	-105.400	-11.893	48.480	-105.547	-99.254	-98.586	-92.044	-22.695	-91.801	-8191	255	
11072.846	1	1	0	0	0.038624	0.10438	0.10971	0.23871	0.16882	0.05833	0.13797	0.05045	0.088026	0.092771	0.21239	0.13557	0.38025	0.064867	0.23205	0.030633	-2.8208	-3.0396	-3.1958	-3.3792	-2.9792	-3.55	-3.0167	-3.1271	-3.2667	-2.9125	-3.2125	-3.1229	-2.9604	-3.2354	-3.0146	-2.9583	6.573	-109.393	211.985	207.144	128.673	-19.163	195.236	45.109	-85.290	19.340	-51.390	108.452	205.466	222.813	152.393	-64.379	0.00013291	0.00014853	9.9773e-05	1247.4	2.5722e-06	3.8983e-06	1287	250.2	6.1769e-06	8.4332e-06	308.83	84.018	66.866	19.314	3.6495e-06	27.068	0.00064191	0.00082997	0.00023184	1217.8	8.9929e-06	9.2823e-06	1270.6	247.75	8.9036e-06	9.1657e-06	306.61	85.09	67.562	19.653	9.0395e-06	27.605	222.830	25.329	-29.373	-112.430	20.037	-8.670	-112.249	-105.445	17.012	-8.489	-105.330	-98.796	-99.134	-92.082	104.945	-92.354	-8191	255	
11072.967	1	1	0	0	0.16422	0.095605	0.15187	0.24669	0.26658	0.15618	0.36676	0.10846	0.079807	0.16306	0.19245	0.098243	0.12367	0.074628	0.13623	0.10511	-2.8708	-2.975	-3.1708	-3.2875	-2.9479	-3.2687	-3.1	-2.9854	-3.1167	-2.9875	-3.1813	-3.2687	-2.9	-3.2188	-2.9708	-2.9208	-20.493	-0.666	-96.903	228.188	82.661	83.831	175.379	218.398	213.272	58.929	205.287	182.076	-62.796	172.226	-8.956	133.417	0.00013514	0.00017991	0.00016846	1241.7	2.0142e-06	5.1612e-06	1291.7	250.65	3.717e-06	5.2186e-06	308.86	84.093	66.585	19.362	3.1482e-07	27.127	0.00066093	0.00083479	0.00023145	1216.2	9.0593e-06	9.0678e-06	1271.4	248.4	8.9848e-06	9.304e-06	307.25	85.229	67.446	19.659	9.1065e-06	27.679	235.607	-27.851	-54.344	-112.684	-13.849	63.356	-112.323	-105.459	8.302	65.680	-105.591	-99.297	-98.645	-92.004	125.288	-92.074	-8191	255	
11073.063	1	1	0	0	0.15466	0.34039	0.17114	0.2356	0.12702	0.21143	0.24045	0.25192	0.079328	0.095135	0.14034	0.2934	0.14761	0.2806	0.15057	0.11764	-3.0771	-2.8667	-3.1479	-3.2062	-2.9375	-3.3417	-3.3542	-3.1437	-3.3833	-2.8063	-3.1396	-3.2375	-3.0125	-3.2354	-2.9604	-3.0917	-114.768	15.961	-84.568	-85.400	90.378	21.050	155.206	177.872	-48.340	169.508	165.477	225.458	32.405	226.658	115.605	234.142	0.00012374	0.00042525	0.00012779	1243	3.1378e-06	2.218e-06	1289.4	250.85	2.2849e-06	4.4737e-06	309.66	84.558	66.893	19.469	3.6092e-06	27.185	0.00065719	0.00086745	0.00023446	1215.5	9.113e-06	9.4348e-06	1271.5	248.43	8.9477e-06	9.4405e-06	306.78	85.217	67.682	19.658	8.9148e-06	27.7	234.147	37.199	12.543	-112.611	-9.714	-39.050	-112.118	-105.389	37.347	31.775	-105.630	-99.250	-98.580	-92.012	-9.974	-91.845	-8191	255	
11073.159	1	1	0	0	0.35724	0.11335	0.16196	0.18999	0.27977	0.18906	0.24062	0.15843	0.14994	0.065473	0.18404	0.18503	0.22548	0.33294	0.097996	0.098166	-2.975	-2.9479	-3.0271	-3.3604	-3.0563	-3.2625	-3.3604	-3.1021	-3.125	-3.0563	-3.2062	-3.1625	-2.9792	-3.1125	-3.0417	-3.0687	-34.967	108.907	-102.251	210.441	92.822	102.200	170.286	3.334	-12.645	108.624	221.320	172.484	161.172	65.559	188.055	212.484	0.00011531	0.00043626	0.00016485	1241.1	3.9317e-06	1.4399e-06	1290.5	249.82	1.0918e-06	2.7386e-06	310.65	84.352	66.631	19.263	1.6395e-06	27.301	0.00065769	0.0008449	0.00023722	1216.4	9.282e-06	9.473e-06	1270.4	248.35	9.0852e-06	9.3468e-06	307.71	85.373	67.468	19.641	8.8539e-06	27.74	222.481	-18.322	-70.788	-112.558	-96.124	11.864	-112.383	-105.574	-41.827	8.114	-105.271	-99.230	-99.192	-91.739	-50.730	-91.873	-8191	255	
11073.231	1	1	0	0	0.03437	0.19851	0.23759	0.054734	0.046413	0.18579	0.2659	0.29831	0.218	0.27707	0.079482	0.22707	0.22149	0.048578	0.13608	0.37118	-2.8563	-3.1333	-3.0083	-3.4271	-2.9354	-3.1063	-3.35	-3.0812	-3.3479	-3.0104	-3.1063	-3.3563	-3.2167	-3.1	-3.1562	-2.9771	120.211	194.224	-7.073	68.149	11.526	106.315	187.813	166.739	52.878	-120.668	191.788	80.644	-111.763	-38.365	-117.095	161.913	0.00014329	0.00029655	0.0001601	1245.5	7.023e-07	7.2269e-07	1291.2	250.07	2.6345e-06	5.4777e-06	310.21	83.947	66.72	19.505	2.0325e-06	27.329	0.0006621	0.00084878	0.00023994	1217.8	9.4454e-06	9.4963e-06	1271.5	248.8	9.053e-06	9.3036e-06	307.37	85.325	67.597	19.682	8.9853e-06	27.651	236.334	-88.543	-68.109	-112.314	2.766	116.842	-112.252	-105.427	-25.157	-11.763	-105.348	-99.216	-98.711	-91.942	8.416	-92.392	-8191	255	
11073.352	1	1	0	0	0.11753	0.28521	0.13827	0.20078	0.17869	0.16275	0.23548	0.1803	0.11778	0.39407	0.11972	0.2434	0.20794	0.096802	0.16086	0.17957	-2.9208	-3.1312	-3.0021	-3.3771	-2.8438	-3.2083	-3.1042	-2.9854	-3.2687	-3.1354	-3.0187	-3.2687	-3.0479	-3.2167	-3.2188	-2.9417	-84.220	-38.960	-75.383	204.311	41.950	-87.350	184.305	232.095	179.049	116.454	54.508	-116.191	225.070	150.129	216.068	-63.154	8.8456e-05	0.00016573	2.8627e-05	1241.7	2.2668e-06	2.8876e-06	1291.9	250.48	4.3329e-06	6.5316e-06	308.92	84.282	66.776	19.403	2.7065e-06	27.254	0.00067349	0.00083837	0.00023622	1216.6	9.226e-06	9.4404e-06	1271.3	248.36	9.0941e-06	9.1713e-06	307.01	85.291	67.365	19.664	9.1169e-06	27.706	-121.813	-9.759	224.387	-112.276	144.003	53.658	-112.254	-105.391	31.240	-24.840	-105.295	-99.274	-99.079	-92.000	72.820	-91.995	-8191	255	
11073.448	1	1	0	0	0.27981	0.2576	0.25519	0.21515	0.09307	0.23362	0.29886	0.14584	0.22791	0.1115	0.024819	0.19519	0.095147	0.10428	0.36378	0.19504	-2.875	-3.1375	-2.9208	-3.3583	-2.9583	-2.9979	-3.3104	-3.0083	-3.2292	-3.0771	-2.9313	-3.2979	-3.1875	-3.0667	-3.2042	-2.9104	-85.811	-122.766	236.375	196.421	-118.746	-43.473	154.837	210.140	36.392	-114.958	-115.872	159.433	36.051	-54.872	141.143	195.746	0.00011691	0.00028361	0.00012686	1245.2	1.5893e-06	5.0966e-06	1286.7	250.62	2.1195e-06	4.9862e-06	308.05	84.364	66.887	19.434	5.1285e-06	27.273	0.00067765	0.00085087	0.0002454	1218.8	9.4335e-06	9.7499e-06	1272.3	248.67	9.2174e-06	9.5564e-06	307.22	85.397	67.687	19.718	9.4574e-06	27.751	229.511	-31.062	-46.105	-112.365	102.739	60.882	-112.050	-105.363	42.105	17.489	-105.498	-99.035	-98.958	-91.881	34.544	-92.051	-8191	255	
11073.544	1	1	0	0	0.14981	0.16977	0.18408	0.17993	0.029189	0.23029	0.20942	0.27809	0.13196	0.11591	0.2121	0.069058	0.093121	0.23203	0.46616	0.13234	-2.7958	-2.9729	-2.7146	-3.2375	-3.025	-3.1458	-3.5187	-3.0396	-3.1625	-3.3312	-2.9708	-3.2604	-3.1875	-3.0521	-3.2479	-3.15	216.266	164.861	208.233	171.982	-28.279	25.739	153.362	194.371	219.446	109.529	94.034	-67.528	175.831	183.031	42.232	25.262	0.00014336	0.00018974	0.00021307	1246.6	1.3335e-06	9.2106e-07	1294.1	250.26	9.4024e-07	2.5686e-06	311.03	84.163	66.445	19.407	3.3582e-06	27.24	0.00066863	0.00086496	0.00024345	1220.6	9.3431e-06	9.5612e-06	1273.7	248.86	9.253e-06	9.4779e-06	308.03	85.347	67.536	19.745	9.363e-06	27.734	230.790	-91.113	-41.353	-112.594	-6.669	-46.820	-111.857	-105.246	43.044	52.895	-105.680	-99.241	-98.502	-91.803	61.561	-92.346	-8191	255	
11073.640	1	1	0	0	0.20313	0.11452	0.13164	0.17393	0.09934	0.034475	0.30233	0.2038	0.064932	0.14082	0.22782	0.13068	0.16401	0.042102	0.1979	0.33227	-2.6292	-3.1396	-2.975	-3.3521	-3.0792	-2.8292	-3.375	-3.1354	-3.1104	-3.2833	-2.9917	-3.4104	-3.0792	-2.8937	-3.3021	-3.1125	219.733	-111.320	137.145	-98.595	-58.130	191.176	182.600	210.763	-100.784	213.525	116.142	91.039	49.109	-95.763	-69.907	176.998	0.00010617	0.00040043	5.9499e-05	1242.2	1.9759e-06	4.9911e-06	1294.8	250.98	2.0412e-06	4.5162e-06	309.73	84.55	67.085	19.314	2.8787e-06	27.083	0.00068043	0.00087374	0.00024712	1219.9	9.446e-06	9.8764e-06	1273.8	248.77	9.5248e-06	9.7104e-06	307.56	85.518	67.638	19.679	9.5092e-06	27.65	-120.881	-23.995	-77.365	-112.563	-94.814	55.077	-112.218	-105.420	158.255	37.004	-105.274	-99.290	-98.900	-91.838	23.190	-92.085	-8191	255	
11073.759	1	1	0	0	0.19229	0.064993	0.13327	0.16607	0.20567	0.2242	0.45889	0.39806	0.087217	0.20251	0.10635	0.25841	0.43949	0.037785	0.023919	0.046789	-2.6813	-3.2479	-2.8937	-3.3667	-3.15	-2.8583	-3.3979	-3.1479	-2.8104	-3.2854	-3.1021	-3.2354	-3.1375	-2.9	-3.2938	-3.0187	-92.276	137.276	-102.706	170.621	159.404	161.276	150.845	206.248	12.274	-123.277	57.456	136.454	223.913	-76.171	135.219	20.250	9.0644e-05	0.00038277	3.996e-05	1246.7	1.2765e-06	3.6084e-06	1289.4	250.85	5.0108e-06	3.9956e-06	310.92	84.283	66.635	19.35	4.773e-06	27.26	0.00069875	0.00087693	0.00025214	1221.7	9.2988e-06	9.6756e-06	1272.1	248.74	9.3585e-06	9.7288e-06	308.52	85.111	67.672	19.694	9.5341e-06	27.706	234.334	-37.857	-16.004	-112.440	-10.800	33.161	-112.229	-105.431	-0.186	10.864	-105.665	-99.316	-98.974	-91.665	61.566	-92.239	-8191	255	
11073.831	1	1	0	0	0.097743	0.12079	0.26648	0.35717	0.27055	0.22798	0.065051	0.21927	0.060264	0.075181	0.094454	0.13651	0.10496	0.33809	0.18045	0.17611	-2.5583	-3.2333	-3.1292	-3.0625	-3.3333	-2.8771	-3.3146	-3.1708	-3.075	-3.55	-2.925	-3.0521	-3.1875	-2.9458	-3.2375	-3.0792	43.085	233.034	225.363	197.760	-120.172	191.075	192.968	141.825	145.238	-57.115	155.311	-96.011	-57.697	-50.854	121.470	91.241	0.00014278	0.00041745	0.00017898	1242.1	3.0481e-06	4.5646e-06	1293.9	249.76	2.7447e-06	5.4045e-06	309.83	84.274	66.81	19.346	4.9188e-06	27.102	0.0006895	0.00087621	0.00024454	1218.4	9.2771e-06	9.7223e-06	1273.9	248.55	9.3638e-06	9.6918e-06	307.89	85.355	67.746	19.673	9.3388e-06	27.673	228.016	-34.821	1.640	-112.561	-2.680	-13.954	-112.236	-105.244	39.364	1.527	-105.483	-98.832	-98.609	-91.721	44.551	-91.977	-8191	255	
11073.928	1	1	0	0	0.10137	0.025979	0.13426	0.2271	0.20016	0.20225	0.20989	0.069985	0.15883	0.24745	0.10289	0.080204	0.19443	0.14088	0.23145	0.34668	-2.3854	-3.1	-2.875	-3.1208	-3.2542	-2.9146	-3.425	-3.1229	-3.0187	-3.2687	-3.0083	-3.0229	-3.1875	-3.0187	-3.2562	-3.2188	-81.840	-26.675	232.818	139.899	169.739	-6.333	142.275	-113.532	11.005	165.756	195.979	145.509	212.603	173.681	51.739	99.372	0.00015336	0.00049062	0.00010671	1244	1.7047e-06	3.3379e-06	1293.9	250.61	4.5032e-06	6.1378e-06	309.66	84.377	67.274	19.409	1.4248e-06	27.126	0.0006901	0.00085073	0.00024139	1220.1	9.3636e-06	9.7885e-06	1273.6	248.68	9.3651e-06	9.6528e-06	307.53	85.355	67.846	19.773	9.3301e-06	27.681	-122.171	-16.832	-34.225	-112.310	68.500	11.922	-112.185	-105.403	6.594	60.280	-105.547	-99.053	-98.698	-91.697	131.741	-92.062	-8191	255	
11074.047	1	1	0	0	0.086008	0.19419	0.32133	0.13607	0.33304	0.10664	0.32865	0.22345	0.20526	0.040197	0.28756	0.16701	0.13698	0.32037	0.23516	0.411	-2.6208	-3.2958	-3.2958	-3.0521	-3.3312	-2.9792	-3.3292	-3.4688	-2.9125	-3.2292	-3.3354	-2.9875	-3.4313	-2.9646	-3.1521	-3.375	45.483	51.312	28.224	163.731	-29.197	-24.434	158.991	-66.849	82.324	-10.142	172.102	-68.523	172.731	-59.932	-113.439	-66.109	8.8624e-05	0.00046925	0.00010097	1245.5	7.2089e-07	3.2812e-06	1292.2	251.19	1.6024e-06	1.0908e-06	307.94	84.33	66.852	19.502	4.5029e-06	27.144	0.00069451	0.00090149	0.00024277	1219.8	9.5157e-06	9.6628e-06	1275.5	249.3	9.5236e-06	9.5205e-06	306.65	85.432	67.815	19.757	9.5029e-06	27.733	-117.634	-24.686	-115.702	-112.580	-120.182	12.765	-112.200	-105.366	-25.934	-70.572	-105.510	-99.098	-98.606	-91.993	-14.633	-92.246	-8191	255	
11074.143	1	1	0	0	0.053462	0.26302	0.19411	0.26909	0.056514	0.22984	0.1935	0.064508	0.048142	0.24159	0.19011	0.17707	0.17667	0.29088	0.082086	0.24067	-2.4917	-2.9417	-2.9354	-3.0875	-3.1667	-2.9437	-3.0333	-3.2292	-2.9479	-3.2104	-3.15	-3.0479	-3.2083	-2.9604	-2.9562	-3.3083	127.036	-21.159	133.766	218.981	70.449	225.840	189.646	-100.120	144.078	107.011	151.531	164.752	-68.157	157.200	-82.118	170.124	0.00015188	0.00046414	0.00011355	1246.2	3.3871e-06	2.9895e-06	1299.6	250.24	3.5572e-06	3.0973e-06	308.38	84.565	66.911	19.535	4.4707e-06	27.172	0.00068723	0.00087766	0.00024087	1221.3	9.4166e-06	9.7903e-06	1276.9	248.93	9.3384e-06	9.6048e-06	307.24	85.525	67.781	19.763	9.291e-06	27.735	-111.738	-50.005	-51.584	-112.597	34.134	68.815	-112.339	-105.296	-34.950	27.647	-105.389	-99.192	-99.066	-91.756	26.886	-91.736	-8191	255	
11074.240	1	1	0	0	0.10221	0.2361	0.041141	0.080403	0.30123	0.25154	0.18017	0.16607	0.20267	0.24709	0.1867	0.18011	0.25341	0.24341	0.20205	0.30002	-2.7146	-3.25	-3.0875	-3.0104	-3.3208	-2.9396	-3.1458	-3.3708	-2.8125	-3	-3.1167	-2.8896	-3.3375	-3.1208	-2.9396	-3.1896	19.462	-56.584	236.025	54.340	-21.779	37.146	127.303	188.254	-115.876	207.251	23.959	154.876	202.298	-115.018	61.238	228.656	8.6317e-05	0.0002821	7.516e-05	1243.7	3.4732e-06	3.8008e-06	1295.3	251.9	1.7366e-06	5.8647e-06	308	84.167	66.677	19.371	1.3641e-06	27.505	0.00068524	0.00088483	0.00024649	1220.1	9.5115e-06	9.6293e-06	1275.9	249.15	9.5738e-06	9.4457e-06	307.36	85.423	67.737	19.684	9.6304e-06	27.777	223.068	-40.575	-88.113	-112.671	133.024	-4.288	-112.118	-105.552	5.042	47.502	-105.685	-99.486	-99.085	-92.222	-111.779	-92.326	-8191	255	
11074.360	1	1	0	0	0.20731	0.12625	0.42184	0.093573	0.15158	0.14174	0.34278	0.29633	0.14415	0.14423	0.1883	0.18373	0.15807	0.36209	0.27791	0.42153	-2.3958	-3.1688	-3.2458	-2.9667	-3.0563	-3.0167	-3.0417	-3.2854	-3.0333	-3.1833	-3.4646	-2.7354	-3.1271	-3.1688	-2.7833	-3.3771	-31.298	83.214	21.856	-10.580	12.394	75.886	158.404	223.665	9.161	-115.578	234.797	200.833	209.443	205.592	197.272	92.354	0.00011233	0.0001734	5.8638e-05	1250.4	1.8392e-06	2.1944e-06	1292.7	250.86	1.1764e-06	5.0196e-06	308.45	83.937	67.133	19.505	1.6134e-06	27.364	0.00070655	0.0008749	0.00024405	1222.1	9.2926e-06	9.5076e-06	1274.4	248.69	9.3606e-06	9.3903e-06	307.13	85.329	67.707	19.733	9.1998e-06	27.745	-115.855	-122.805	-41.693	-112.456	15.045	-20.616	-112.221	-105.514	58.143	29.622	-105.706	-99.262	-98.661	-92.381	69.088	-92.007	-8191	255	
11074.456	1	1	0	0	0.27837	0.006126	0.15867	0.36192	0.22044	0.11385	0.29857	0.20091	0.16628	0.13645	0.19032	0.12588	0.028166	0.0047584	0.14841	0.11112	-2.5708	-3.1188	-3.1229	-2.9667	-3.1813	-3.1104	-3.0396	-3.1937	-3.0021	-2.9917	-3.425	-2.8271	-3.1021	-3.1333	-2.8875	-3.3187	104.904	69.898	-60.401	183.325	88.797	184.450	145.097	163.222	31.986	220.628	174.993	100.411	181.475	-111.763	76.038	216.422	0.0001772	0.00017217	0.00013378	1248.4	1.8986e-06	1.0582e-06	1293.1	249.85	3.4879e-06	3.4348e-06	308.81	84.253	66.642	19.354	1.8892e-06	27.201	0.0006704	0.0008449	0.00023861	1220	9.2138e-06	9.3149e-06	1274	248.84	9.2439e-06	9.3403e-06	307.35	85.429	67.769	19.663	9.2568e-06	27.724	232.730	210.901	2.942	-112.530	-67.264	12.724	-112.378	-105.387	6.217	6.856	-105.556	-99.055	-98.954	-92.027	-25.257	-92.379	-8191	255	
11074.528	1	1	0	0	0.10974	0.2491	0.23772	0.08699	0.13852	0.076015	0.30216	0.073199	0.15302	0.19287	0.31952	0.22659	0.2006	0.043757	0.12639	0.12848	-2.6146	-2.9375	-3.2104	-3.0771	-3.2708	-3.1833	-2.8438	-3.2479	-3.0896	-3.0708	-3.3125	-2.95	-3.2458	-3.2042	-2.8792	-3.2542	221.140	95.078	77.381	172.202	-19.255	85.487	142.349	208.808	128.153	176.099	182.353	-113.781	211.243	-56.254	-17.849	182.820	0.00011541	0.0004377	2.2588e-05	1249	1.1658e-06	5.5065e-06	1295	250.75	1.8339e-06	7.121e-06	308.08	83.92	66.629	19.285	8.5861e-07	27.185	0.00066793	0.00083001	0.00023665	1219.8	9.0591e-06	9.1428e-06	1271.8	248.74	9.0149e-06	9.1088e-06	306.95	85.277	67.512	19.653	9.2123e-06	27.678	-121.489	-5.916	167.723	-112.861	-34.728	42.634	-112.283	-105.359	37.935	36.220	-105.431	-99.057	-98.884	-91.648	102.082	-92.453	-8191	255	
11074.649	1	1	0	0	0.081881	0.27415	0.21674	0.17209	0.063029	0.2752	0.22649	0.030946	0.10046	0.11209	0.13685	0.1789	0.030056	0.26612	0.26836	0.1595	-2.55	-2.9083	-3.0979	-3.0333	-2.9979	-3.35	-2.8312	-3.1229	-3.1063	-2.9188	-3.2313	-3.2146	-2.9583	-3.2792	-2.9625	-2.9833	210.399	-116.220	226.702	-59.285	-21.794	-12.985	140.294	37.211	137.050	212.535	-63.623	200.437	-74.028	186.961	107.907	210.206	0.00014546	0.00037865	0.00012643	1239.8	2.6548e-06	1.0213e-06	1292.8	250.63	3.7979e-07	6.6443e-06	309.49	84.124	66.908	19.464	2.5281e-06	27.33	0.00066386	0.00083849	0.00024233	1218.7	8.8995e-06	9.135e-06	1270.4	248.83	8.9583e-06	9.159e-06	307.26	85.156	67.809	19.684	9.2147e-06	27.637	226.755	-8.130	-18.106	-112.420	68.095	-30.873	-112.156	-105.203	-88.916	10.548	-105.340	-99.192	-98.742	-92.035	22.586	-92.541	-8191	255	
11074.743	1	1	0	0	0.2667	0.16163	0.12256	0.37647	0.018002	0.14376	0.35181	0.057553	0.20421	0.17355	0.208	0.18175	0.27144	0.3164	0.29711	0.20912	-2.7458	-2.9167	-3.2917	-3.0812	-2.9958	-3.4	-3.0396	-3.1083	-3.1292	-2.8583	-3.2812	-3.0542	-2.9062	-3.4333	-2.9146	-3.0875	-65.621	192.505	-105.012	209.643	1.133	-69.634	163.717	-30.084	-98.135	96.723	234.424	-108.759	180.671	211.439	220.558	100.718	0.00012069	0.00027989	0.00011019	1243.3	4.4828e-06	2.8729e-06	1299	250.04	1.3063e-06	3.2061e-06	311.2	84.767	66.868	19.401	1.6082e-06	27.361	0.00065507	0.00082706	0.0002422	1217.6	9.1152e-06	9.1576e-06	1271.9	248.48	8.8704e-06	9.2989e-06	307.77	85.303	67.559	19.681	8.8832e-06	27.673	229.905	14.841	230.024	-112.273	17.468	81.162	-112.240	-105.371	101.515	137.967	-105.582	-99.307	-99.007	-91.947	14.016	-92.410	-8191	255	
11074.839	1	1	0	0	0.23883	0.15729	0.20655	0.2181	0.24398	0.070383	0.15744	0.27425	0.065238	0.11082	0.10365	0.14643	0.16629	0.16223	0.14141	0.1243	-2.8958	-2.8542	-3.2021	-3.0333	-2.8542	-3.1958	-3.0104	-3.0521	-3.3104	-2.8604	-3.3375	-3.1396	-2.9792	-3.1625	-3.0771	-2.9896	82.963	6.110	-36.122	-54.458	-36.243	-14.258	231.678	216.449	-29.402	202.727	-60.210	-112.862	132.402	-21.603	-38.228	-75.857	0.00015578	0.00032449	4.2637e-05	1238.2	3.3449e-06	4.8415e-06	1289.8	250.77	2.7285e-06	3.744e-06	307.98	84.29	66.738	19.317	2.5892e-06	27.437	0.00065691	0.00082579	0.00023082	1214.4	9.0941e-06	9.205e-06	1271	248.26	8.7223e-06	9.2841e-06	305.98	85.196	67.536	19.642	8.9573e-06	27.687	223.622	-14.961	48.701	-112.455	3.072	66.984	-112.303	-105.198	5.542	-0.825	-105.361	-99.036	-98.717	-91.819	52.002	-92.021	-8191	255	
11074.935	1	1	0	0	0.22685	0.12306	0.22654	0.22453	0.14936	0.097959	0.26939	0.071771	0.078618	0.082909	0.43634	0.089356	0.089159	0.27841	0.12672	0.196	-2.8958	-2.8937	-3.0417	-3.3292	-2.7417	-3.1958	-3.1896	-3.0917	-3.3083	-3.1104	-3.1417	-3.1688	-2.9875	-3.2208	-3.1292	-3.1354	229.191	82.948	123.109	222.789	17.737	177.215	67.588	38.660	-110.596	-5.228	201.011	-50.271	215.379	214.807	-120.895	198.193	0.0001279	0.00018533	4.5854e-05	1241.3	1.7891e-06	4.2177e-06	1289.2	251.01	3.7681e-06	6.3329e-06	309.48	83.448	66.836	19.426	2.9721e-06	27.208	0.00065799	0.00083652	0.00023186	1214	8.9038e-06	9.1491e-06	1268.2	248.52	8.767e-06	9.135e-06	306.92	84.793	67.388	19.64	8.6828e-06	27.618	-121.064	-88.601	31.121	-112.276	-54.750	28.896	-112.198	-105.354	-66.144	18.593	-105.835	-99.332	-98.691	-91.747	162.193	-92.031	-8191	255	
11075.056	1	1	0	0	0.25037	0.04667	0.2155	0.30066	0.19468	0.099895	0.38027	0.25754	0.23763	0.37989	0.12818	0.045545	0.19764	0.21141	0.028968	0.047054	-2.8417	-2.9167	-2.9333	-3.3708	-2.8438	-3.2687	-3.2562	-3.0125	-3.4458	-2.8583	-3.3833	-3.2583	-3.0396	-3.3208	-2.9646	-2.9479	103.476	12.366	-101.125	203.123	211.929	13.219	183.964	183.983	222.328	-53.110	-12.760	87.674	163.687	82.248	2.645	13.809	0.00011588	0.00028968	0.00013502	1238	1.0301e-06	1.0709e-06	1285.5	249.37	1.5954e-06	2.6752e-06	307.65	84.153	66.653	19.239	1.1667e-06	27.254	0.00064561	0.00081701	0.000226	1213	8.9541e-06	9.2636e-06	1264.2	247.14	8.9742e-06	8.9956e-06	306.2	85.035	67.466	19.597	9.1909e-06	27.606	223.673	25.640	-54.695	-112.724	-36.023	21.517	-112.203	-105.434	10.701	31.753	-105.637	-98.969	-98.681	-91.843	51.490	-92.369	-8191	255	
11075.128	1	1	0	0	0.28295	0.087062	0.061718	0.22189	0.11731	0.23223	0.18434	0.036137	0.10779	0.25526	0.14165	0.057688	0.26242	0.11236	0.2078	0.15308	-2.9458	-3.0208	-3.1021	-3.45	-3.0938	-3.1333	-3.3333	-2.8563	-3.2104	-3.0146	-2.9917	-3.2667	-3.1146	-2.9688	-3.1167	-3.0729	-14.472	150.409	36.297	168.234	55.478	-38.157	111.985	-4.280	98.496	-80.586	184.038	-64.096	1.926	212.669	-63.232	-42.134	0.00012694	0.00045519	0.00011576	1242.3	2.6793e-06	2.3144e-06	1289.5	250.14	2.6515e-06	3.7051e-06	308.54	83.832	67.061	19.509	2.58e-06	27.14	0.00067241	0.00086204	0.00024175	1214.7	9.4936e-06	9.9599e-06	1270.1	248.24	9.4467e-06	9.59e-06	306.83	85.101	67.655	19.68	9.5012e-06	27.626	233.080	-48.960	10.008	-112.719	187.566	15.909	-112.058	-105.598	-18.954	136.279	-105.742	-99.615	-98.579	-91.710	57.104	-92.324	-8191	255	
11075.224	1	1	0	0	0.36744	0.14453	0.25614	0.29005	0.24698	0.11448	0.31034	0.31638	0.12911	0.2738	0.10137	0.20944	0.082797	0.19753	0.15773	0.10295	-2.7979	-2.9625	-3.0708	-3.3542	-3.0521	-3.1146	-3.1979	-3.0687	-3.1021	-3.0771	-3.0062	-3.2562	-3.1146	-3.1604	-3.2313	-2.8708	-24.007	234.771	217.483	178.929	-119.375	46.831	206.713	116.619	147.447	113.361	-98.874	192.087	-122.223	-68.155	62.019	170.108	0.00011688	4.0648e-05	9.2289e-05	1243.5	3.9173e-07	1.4227e-06	1294.4	251.01	3.6216e-06	2.0208e-06	309.14	84.071	67.031	19.311	3.8477e-06	27.263	0.00068777	0.00088308	0.00024672	1217	9.4631e-06	9.6109e-06	1270.2	248.21	9.4291e-06	9.7915e-06	307.02	85.257	67.632	19.671	9.4626e-06	27.709	-108.417	-36.174	-48.027	-112.458	-69.552	84.877	-112.176	-105.396	-8.246	-37.668	-105.590	-98.950	-99.243	-91.487	6.454	-92.356	-8191	255	
11075.320	1	1	0	0	0.031844	0.14091	0.1577	0.19482	0.15151	0.27034	0.27661	0.21618	0.15178	0.44952	0.19939	0.18842	0.22813	0.27034	0.070354	0.14909	-2.7875	-3.0354	-2.9542	-3.2313	-3.0458	-3.2854	-3.4458	-2.9333	-3.0771	-3.1104	-3.0417	-3.2708	-2.9896	-2.9646	-3.3417	-2.8688	127.466	126.307	81.279	-98.057	-3.163	-112.113	229.375	170.856	73.708	190.103	-29.678	-80.886	160.920	-21.456	-60.100	-113.495	0.00011894	0.00036433	0.00014953	1245.2	1.5143e-06	6.9801e-06	1292.2	250.61	3.1478e-06	4.3788e-06	307.96	84.464	66.876	19.516	2.0114e-06	27.327	0.00068911	0.00086261	0.00024491	1215.6	9.537e-06	9.9653e-06	1271	248.6	9.5704e-06	9.9025e-06	306.96	85.571	67.716	19.78	9.5465e-06	27.717	230.652	-28.328	52.274	-112.426	159.575	34.351	-112.279	-105.616	-81.990	-100.155	-105.307	-99.163	-99.170	-92.137	62.632	-92.345	-8191	255	
11075.441	1	1	0	0	0.29054	0.1672	0.25288	0.36842	0.33643	0.15011	0.095902	0.12572	0.25844	0.057191	0.048757	0.17448	0.11524	0.28768	0.25176	0.39126	-2.75	-3.0479	-2.8417	-3.3271	-2.9979	-3.0021	-3.3563	-3.0479	-3.2396	-3.3604	-2.8021	-3.2271	-3.1667	-3.0146	-3.2375	-2.9542	216.935	231.014	-35.360	209.553	77.220	67.386	224.926	202.492	156.006	197.518	162.378	185.984	86.610	94.085	182.845	-109.376	0.0001034	0.00030558	0.00017534	1244.6	3.5539e-06	4.3124e-06	1289.7	251.26	2.1855e-06	2.5597e-06	310.44	84.539	66.883	19.356	3.0779e-06	27.162	0.00069822	0.0008896	0.00024566	1219.3	9.6913e-06	9.9024e-06	1273.7	248.77	9.5797e-06	9.7601e-06	308.24	85.391	67.718	19.727	9.8496e-06	27.765	-120.606	-104.996	-28.275	-112.288	-5.997	40.051	-112.227	-105.513	-1.662	93.012	-105.180	-99.417	-98.762	-91.865	-60.160	-91.859	-8191	255	
11075.537	1	1	0	0	0.076345	0.23875	0.084221	0.41174	0.060651	0.3595	0.41614	0.26821	0.11918	0.19579	0.34355	0.18133	0.14699	0.12254	0.17992	0.060196	-2.6854	-3.2	-2.6625	-3.5292	-3.0896	-3.0333	-3.4604	-3.2167	-3.0604	-3.2	-3.0146	-3.3292	-3.1312	-3.0833	-3.3	-3.0312	163.714	-36.948	226.719	185.803	34.298	197.738	179.911	175.363	-98.163	-112.963	120.206	236.242	166.922	165.623	209.425	64.620	9.6365e-05	0.00051352	3.8159e-05	1251	3.7328e-06	6.9942e-06	1293	251	1.5609e-06	2.1998e-06	309.21	84.574	67.038	19.439	1.7611e-06	27.345	0.00070165	0.00087189	0.00025011	1221.9	9.7066e-06	9.7319e-06	1272.1	249.01	9.2933e-06	9.4784e-06	307.23	85.473	67.673	19.721	9.5328e-06	27.737	-109.013	-47.503	-6.227	-112.537	30.024	63.830	-112.199	-105.450	17.412	-36.041	-105.425	-99.330	-99.016	-91.789	9.449	-91.948	-8191	255	
11075.631	1	1	0	0	0.15503	0.20368	0.16584	0.49928	0.073507	0.11391	0.27709	0.26915	0.21964	0.19638	0.1473	0.11346	0.38098	0.094131	0.097577	0.15894	-2.7062	-3.1813	-2.8833	-3.2833	-2.9188	-2.8896	-3.3063	-3.0083	-3.1458	-3.3167	-2.9208	-3.1729	-3.0896	-2.9938	-3.3958	-2.9771	-68.032	-123.275	20.982	198.551	90.640	217.051	234.205	175.480	150.729	-79.003	132.822	-15.487	170.035	210.707	133.046	155.157	0.00010433	0.0003528	7.8649e-05	1247.1	3.2494e-06	1.5443e-06	1292.1	251.25	2.1626e-06	3.0699e-06	310.43	84.284	66.851	19.43	1.4933e-06	27.418	0.00068214	0.00087892	0.00024516	1219.7	9.2236e-06	9.6396e-06	1272.5	248.91	9.4153e-06	9.5754e-06	307.29	85.337	67.581	19.721	9.6621e-06	27.72	216.467	-56.070	-7.948	-112.668	-29.228	-60.421	-112.128	-105.609	-24.062	34.573	-105.592	-99.336	-98.985	-91.629	17.517	-92.330	-8191	255	
11075.729	1	1	0	0	0.11672	0.091973	0.2168	0.17652	0.14834	0.086163	0.31133	0.47436	0.26059	0.14265	0.246	0.19398	0.064462	0.38094	0.13969	0.34927	-2.5729	-3.1792	-2.8458	-3.2125	-3.2083	-2.9542	-3.4062	-3.0396	-3.0854	-3.3042	-2.8146	-3.1917	-3.2646	-2.9938	-3.2396	-3.1312	-105.466	7.289	-3.667	200.119	199.800	229.401	185.454	115.317	-6.905	118.168	221.308	175.374	-98.659	-121.038	85.838	81.258	0.00014697	0.00049512	6.0608e-05	1245.6	5.4796e-07	3.3033e-06	1298.6	249.93	7.3498e-07	2.3338e-06	310.12	84.633	66.935	19.47	3.212e-06	27.228	0.0006906	0.00086661	0.00025221	1220.4	9.1921e-06	9.6522e-06	1275.3	248.34	9.2585e-06	9.6059e-06	307.78	85.463	67.732	19.755	9.4736e-06	27.719	230.439	-14.624	-69.452	-112.399	60.684	110.064	-112.121	-105.693	93.865	8.993	-105.373	-99.372	-98.309	-91.721	32.045	-92.027	-8191	255	
11075.824	1	1	0	0	0.16497	0.048273	0.046743	0.28992	0.15974	0.19339	0.29514	0.17266	0.16267	0.1519	0.027474	0.1511	0.353	0.060591	0.073662	0.20672	-2.5354	-3.2042	-3.0396	-3.3729	-3.2	-2.9771	-3.2687	-3.3688	-2.9104	-3.1896	-2.9667	-3.1104	-3.3271	-2.9125	-3.2583	-3.1063	195.942	216.072	4.651	-98.104	150.990	57.878	142.709	-55.045	187.903	-101.147	42.028	163.863	201.047	181.305	-90.880	173.468	0.000104	0.00047456	9.1035e-05	1241.4	2.9122e-06	2.1732e-06	1293.4	250.58	4.7001e-06	5.0691e-06	307.58	83.667	66.385	19.299	3.928e-06	27.322	0.00068066	0.00088314	0.00024316	1218.8	9.3851e-06	9.815e-06	1274.2	248.84	9.4708e-06	9.7193e-06	307.57	85.276	67.598	19.703	9.291e-06	27.713	232.852	-19.053	0.095	-112.444	-42.847	19.327	-112.371	-105.464	5.656	59.073	-105.457	-99.299	-98.574	-91.948	7.646	-92.387	-8191	255	
11075.920	1	1	0	0	0.11627	0.25839	0.14573	0.26047	0.2256	0.054925	0.36736	0.033851	0.1185	0.068328	0.34972	0.30883	0.10035	0.15121	0.14859	0.14786	-2.4146	-3.3833	-2.9667	-3.0687	-3.3812	-2.9396	-3.4792	-3.375	-2.9229	-3.2146	-3.0583	-2.8271	-3.2583	-3.025	-3.075	-3.3979	-113.607	69.530	58.888	206.607	-31.560	200.002	167.688	-111.769	200.210	140.662	165.654	189.219	-101.281	198.268	-37.140	-53.653	0.00010431	0.00020768	0.00012013	1243.7	1.1849e-06	2.2264e-06	1292.2	252.5	1.4252e-06	1.9188e-06	310.96	84.103	67.062	19.438	1.5518e-06	27.356	0.00068493	0.00087161	0.00024775	1219.5	9.4467e-06	9.7182e-06	1273.3	249.41	9.5312e-06	9.8706e-06	307.78	85.273	67.788	19.727	9.2529e-06	27.756	229.258	1.659	-27.025	-112.608	122.298	-4.885	-112.259	-105.606	20.024	88.348	-105.241	-99.247	-99.237	-91.983	-120.601	-91.957	-8191	255	
11076.040	1	1	0	0	0.18281	0.063875	0.21619	0.22202	0.24105	0.26681	0.30091	0.3312	0.40211	0.15076	0.15093	0.10738	0.2181	0.12433	0.1289	0.055311	-2.4479	-3.2313	-2.9854	-2.9667	-3.2229	-2.9208	-3.3688	-3.2875	-2.9354	-3.3896	-3.2396	-2.9854	-3.3771	-3.0563	-3.0812	-3.2104	126.710	-29.881	203.635	230.440	214.238	41.769	158.944	-108.643	86.316	21.855	199.422	163.242	-113.504	174.367	-48.223	-116.066	0.00011109	0.00032194	0.00013986	1243.8	3.5986e-06	4.6034e-06	1293.3	251.54	2.3233e-06	3.0203e-06	309.79	84.713	67.283	19.393	1.5128e-06	27.31	0.000708	0.000869	0.00024794	1220.4	9.6653e-06	9.696e-06	1272.8	249.34	9.4267e-06	9.7785e-06	307.69	85.592	67.891	19.699	9.3218e-06	27.757	223.053	-88.208	-1.155	-112.436	30.195	18.498	-112.336	-105.410	-45.882	-63.296	-105.576	-99.141	-98.797	-91.676	-7.265	-91.961	-8191	255	
11076.136	1	1	0	0	0.095895	0.29691	0.37717	0.030719	0.12746	0.1326	0.1114	0.18048	0.26491	0.19294	0.47229	0.040009	0.13118	0.094594	0.093681	0.1747	-2.3312	-3.0938	-2.9333	-3.0771	-3.2229	-3.25	-3.2062	-3.1646	-2.8542	-2.9313	-2.9625	-2.8292	-3.0979	-3.0292	-2.9479	-3.2979	-87.713	-75.606	55.448	151.897	-71.404	123.091	159.069	188.246	200.413	153.678	187.233	187.613	158.917	90.630	229.311	145.640	0.00015939	0.00032463	0.00016663	1246.1	3.0611e-06	5.2844e-06	1296.5	251.22	1.2272e-06	5.0864e-06	308.61	83.966	67.218	19.455	3.5491e-06	27.333	0.0007004	0.00089353	0.00024751	1220.9	9.494e-06	9.9096e-06	1274.3	249.09	9.6028e-06	9.7075e-06	307.25	85.406	67.8	19.754	9.3119e-06	27.808	-116.763	0.141	-15.990	-112.411	63.215	18.222	-112.183	-105.696	53.365	31.964	-105.756	-99.193	-98.585	-91.576	34.050	-91.789	-8191	255	
11076.233	1	1	0	0	0.05095	0.21219	0.12703	0.16575	0.14758	0.34212	0.1026	0.093348	0.19656	0.054651	0.080726	0.14761	0.25045	0.17238	0.11682	0.17044	-2.6042	-2.9417	-3.2646	-2.9792	-3.2438	-2.9979	-3.2542	-3.2438	-3.0062	-3.2646	-3.5	-2.9021	-3.1833	-3.0604	-2.85	-3.4646	-58.099	-26.890	132.013	185.547	68.126	21.714	173.377	216.272	217.487	131.258	-14.582	87.168	183.041	185.515	-24.262	-43.793	0.00011958	0.00058943	7.8779e-05	1247	2.5107e-06	1.4436e-06	1295.9	251.96	2.4459e-06	3.0088e-06	309.18	84.633	66.657	19.551	1.6024e-06	27.295	0.00070649	0.00088395	0.00024404	1220.3	9.54e-06	9.941e-06	1273.6	249.29	9.4414e-06	9.6201e-06	307.58	85.367	67.614	19.767	9.4118e-06	27.779	224.887	-95.520	-51.661	-112.818	45.356	69.023	-112.304	-105.193	-6.351	114.945	-105.432	-99.055	-98.930	-91.987	10.627	-91.987	-8191	255	
11076.329	1	1	0	0	0.084728	0.19556	0.25466	0.089381	0.13643	0.062582	0.43226	0.2733	0.038418	0.18942	0.13538	0.26439	0.016873	0.18951	0.072592	0.024082	-2.4479	-3.1958	-3.2396	-3.0625	-3.3479	-3.0938	-3.0708	-3.3937	-2.9562	-3.075	-3.4542	-3.1188	-3.2146	-3.0312	-2.9104	-3.2333	88.353	-38.051	-29.057	-58.480	-102.564	-76.370	168.934	172.380	10.573	-53.148	-121.982	170.801	73.900	-68.366	28.510	96.683	0.0001227	0.00036223	0.00015025	1246.6	2.4924e-06	4.056e-06	1296.9	250.56	4.2233e-06	4.08e-06	310.17	84.04	66.598	19.453	1.3931e-06	27.274	0.00069418	0.00086918	0.00024809	1221.1	9.4931e-06	9.807e-06	1275.3	249.01	9.7009e-06	9.7075e-06	307.48	85.404	67.655	19.717	9.4196e-06	27.74	218.177	-34.361	-18.236	-112.567	50.200	44.767	-112.228	-105.431	-31.336	4.026	-105.687	-99.470	-98.796	-92.247	54.059	-92.254	-8191	255	
11076.425	1	1	0	0	0.20902	0.095396	0.21364	0.18365	0.28366	0.14788	0.30215	0.18625	0.25919	0.29328	0.12283	0.065505	0.05165	0.10851	0.16629	0.31635	-2.5521	-3.0187	-3.0479	-2.9417	-3.1063	-3.0396	-3.1146	-3.4417	-3.05	-3.0125	-3.4375	-3.1208	-3.0062	-3.1125	-3.0354	-3.1688	20.037	53.682	31.416	215.002	72.855	-66.685	179.348	198.071	-122.134	8.514	71.692	127.306	25.934	-36.392	-9.384	210.355	0.00011941	0.00034712	7.5122e-05	1241.8	1.5771e-06	1.5914e-06	1290.7	250.73	8.9951e-07	4.2622e-06	309.94	84.065	66.938	19.435	3.7713e-06	27.388	0.00069884	0.0008567	0.00024224	1217.6	9.3242e-06	9.3587e-06	1270.1	248.65	9.3013e-06	9.5828e-06	307.52	85.296	67.727	19.716	9.5658e-06	27.739	-116.993	-30.121	-17.638	-112.565	51.595	58.516	-112.087	-105.436	203.008	19.366	-105.569	-99.094	-98.866	-92.065	66.772	-92.023	-8191	255	
11076.521	1	1	0	0	0.42546	0.13107	0.23941	0.097652	0.19307	0.10473	0.083076	0.12562	0.075704	0.29171	0.32535	0.15124	0.18395	0.22751	0.17998	0.21193	-2.7	-2.8667	-3.3375	-2.9521	-3.2167	-3.3167	-3.1167	-3.4292	-3.0583	-2.8792	-3.4083	-2.9437	-2.9458	-3.2458	-3.0125	-3.2646	-64.349	-32.723	-112.038	-78.319	-3.581	160.919	149.196	168.212	230.868	236.057	183.082	165.962	-100.553	202.872	131.826	188.353	0.00012078	0.00027944	0.00016251	1241.9	8.0885e-07	4.7646e-06	1296.9	251.07	1.9292e-06	3.1073e-06	309.68	83.752	66.643	19.418	2.7455e-06	27.458	0.00069955	0.00086946	0.00024882	1220.9	9.534e-06	9.6479e-06	1272.5	248.69	9.1793e-06	9.6212e-06	307.09	84.954	67.75	19.712	9.2149e-06	27.78	222.806	-34.127	13.821	-112.513	72.408	12.387	-112.288	-105.497	70.822	41.830	-105.303	-99.521	-98.785	-92.031	-29.608	-92.218	-8191	255	
11076.617	1	1	0	0	0.15169	0.16983	0.23643	0.16647	0.12762	0.13523	0.2945	0.21022	0.17974	0.17807	0.18065	0.27429	0.067938	0.30692	0.2512	0.18566	-2.7104	-2.8792	-3.1458	-3.1021	-3.0563	-3.2354	-3.1688	-3.35	-3.1188	-3.0104	-3.3333	-3.0771	-3.1542	-3.3771	-2.9479	-3.0396	191.711	52.962	102.347	207.825	124.071	200.521	122.715	132.594	53.028	212.938	94.672	-67.238	156.916	-123.338	90.358	82.216	0.00015107	0.00051432	0.00011437	1246.2	4.4661e-06	1.4949e-06	1290.9	250	3.1881e-06	4.7709e-06	310.07	84.193	67.016	19.294	7.7269e-07	27.297	0.00068177	0.00086894	0.00023891	1218.8	9.1435e-06	9.4734e-06	1271.3	248.34	8.9098e-06	9.2794e-06	307.26	85.353	67.656	19.655	9.2774e-06	27.718	216.989	-81.282	-38.477	-112.510	34.176	2.744	-112.055	-105.572	-23.487	-20.610	-105.056	-99.349	-99.142	-91.935	217.413	-92.349	-8191	255	
11076.738	1	1	0	0	0.2595	0.25934	0.095059	0.13756	0.086019	0.15812	0.25366	0.34837	0.11797	0.12134	0.24465	0.27166	0.13175	0.28196	0.017393	0.28959	-2.575	-2.7938	-3.1417	-3.3625	-2.9	-3.2167	-3.1917	-3.2125	-3.1646	-2.9313	-3.3542	-3.0625	-2.9562	-3.3833	-2.8625	-3.1125	145.905	103.536	38.055	152.137	154.661	108.578	140.623	132.804	235.020	-9.859	-104.752	160.631	157.756	-67.974	-54.975	-113.488	0.00010419	0.00047237	0.00013969	1239.3	3.4042e-06	2.1947e-06	1285.4	250.72	3.7625e-06	3.9572e-06	311.92	84.413	66.844	19.441	2.9797e-06	27.273	0.00066508	0.00085776	0.00024416	1217	9.1765e-06	9.3245e-06	1270.8	248.26	9.206e-06	9.4443e-06	307.74	85.324	67.676	19.703	9.2423e-06	27.707	-123.037	0.522	-5.144	-112.638	20.833	38.809	-112.204	-105.259	23.606	18.348	-105.411	-99.315	-98.943	-91.831	34.341	-92.389	-8191	255	
11076.832	1	1	0	0	0.066522	0.15027	0.10777	0.27986	0.28982	0.23073	0.39507	0.033302	0.17448	0.15117	0.26297	0.40035	0.15302	0.3659	0.1195	0.25283	-2.7854	-2.8042	-3.3417	-3.1937	-2.8521	-3.3812	-3.0812	-3.1042	-3.4104	-3.0417	-3.2542	-3.0875	-2.8458	-3.2854	-2.9042	-3.0042	105.173	12.304	88.976	219.619	138.494	1.868	182.837	91.665	234.396	115.794	-101.394	218.481	-14.528	174.526	69.419	84.497	0.00014212	0.00026625	9.6933e-05	1240.4	2.1411e-06	2.4306e-06	1289.4	250	1.3653e-06	5.6994e-06	309.69	83.681	67.146	19.483	4.7954e-06	27.27	0.00065354	0.00086309	0.00024281	1216.7	9.2892e-06	9.6603e-06	1271.4	248.47	9.1108e-06	9.8875e-06	307.68	85.095	67.733	19.728	9.8119e-06	27.753	233.389	-91.326	-34.130	-112.494	89.457	83.992	-112.318	-105.421	20.075	36.742	-105.468	-98.888	-98.934	-91.490	1.865	-92.107	-8191	255	
11076.928	1	1	0	0	0.12247	0.11253	0.30184	0.3384	0.1198	0.23136	0.20637	0.19947	0.076008	0.10328	0.039242	0.030283	0.24486	0.15386	0.12902	0.12727	-2.8292	-2.9229	-3.1521	-3.2521	-2.9	-3.3229	-3.2438	-3.1083	-3.3375	-2.8937	-3.1437	-3.2354	-2.9083	-3.1896	-3.1792	-2.9813	141.163	190.967	-44.192	233.605	-34.176	-93.814	198.581	79.443	10.949	120.069	-0.541	62.464	172.179	-69.585	72.156	-120.403	0.0001075	0.00043515	0.00016502	1253.7	4.7293e-06	5.3005e-07	1292	250.46	1.6309e-06	5.627e-06	311.18	84.004	66.684	19.462	3.5232e-06	26.993	0.00069897	0.00088419	0.00025085	1222.8	9.569e-06	9.8278e-06	1271.9	248.69	9.3723e-06	9.9655e-06	308.2	85.19	67.627	19.765	9.8316e-06	27.688	230.716	-45.882	35.051	-112.432	-5.029	-42.307	-112.251	-105.415	-37.445	81.891	-105.585	-99.377	-98.900	-92.014	54.769	-92.245	-8191	255	
11077.002	1	1	0	0	0.22367	0.21129	0.17875	0.59159	0.10311	0.28148	0.39197	0.16041	0.22543	0.13602	0.18172	0.1278	0.31021	0.29202	0.1257	0.13708	-2.75	-2.7875	-3.0354	-3.3042	-2.8417	-3.2083	-3.1167	-3.0083	-3.2646	-3.0208	-3.1042	-3.4396	-2.7812	-3.1958	-3.1542	-2.9583	46.635	84.932	-87.860	204.763	142.507	83.050	111.250	-91.458	-113.247	83.284	226.000	140.515	185.501	193.647	12.263	181.161	0.00014796	0.00034937	9.3664e-05	1245.8	9.5899e-07	5.7495e-06	1292.5	250.56	8.9933e-07	5.4018e-06	311	84.206	67.32	19.603	2.8572e-06	27.184	0.00071268	0.00092219	0.00025348	1220.6	9.7495e-06	1.005e-05	1271.7	249.29	9.6537e-06	9.9495e-06	307.56	85.459	67.884	19.842	9.9084e-06	27.719	-109.105	-8.016	-42.721	-112.524	112.923	33.860	-112.498	-105.443	49.346	-25.707	-105.204	-99.204	-98.673	-91.645	36.875	-92.330	-8191	255	
11077.121	1	1	0	0	0.28584	0.076965	0.12795	0.1875	0.037429	0.16105	0.29287	0.44598	0.11044	0.13411	0.22929	0.28318	0.13844	0.18193	0.22212	0.032531	-2.8042	-2.8271	-3.0958	-3.4479	-3.0812	-3.3187	-3.15	-3.0771	-3.3917	-3.0229	-3.1312	-3.2104	-2.9271	-3.1667	-3.2083	-2.9042	183.983	1.382	10.874	224.950	103.140	79.927	199.428	201.112	176.915	-51.542	34.264	191.558	168.529	154.240	-115.330	235.354	0.00011787	0.00046818	8.0374e-05	1248.8	1.3646e-06	4.9696e-06	1299.2	249.42	1.8143e-06	8.115e-07	309.5	83.775	66.989	19.423	3.2221e-06	27.27	0.00070872	0.00090889	0.00024434	1220	9.784e-06	1.0177e-05	1273.3	248.51	9.5369e-06	1.0187e-05	307.27	85.214	67.735	19.753	9.7276e-06	27.785	-122.764	-12.511	218.089	-112.420	53.105	37.257	-112.229	-105.603	71.329	0.439	-105.527	-99.285	-98.507	-92.125	30.500	-92.317	-8191	255	
11077.217	1	1	0	0	0.089187	0.26731	0.1663	0.37228	0.060089	0.088884	0.38679	0.24059	0.011139	0.18679	0.095247	0.11782	0.050501	0.20936	0.13054	0.15026	-2.8312	-2.8875	-2.9437	-3.3688	-2.9646	-3.1125	-3.2521	-2.9062	-3.1188	-3.025	-3.0667	-3.0458	-3.0187	-3.1146	-3.2542	-2.9583	210.159	166.677	-108.082	210.741	181.565	-12.966	174.517	195.592	23.550	175.554	82.735	198.766	153.027	161.709	156.132	64.347	0.00013629	0.00032084	8.5691e-06	1244.9	2.129e-06	4.5841e-06	1292.9	250.68	2.5905e-06	4.2704e-06	310.19	84.251	66.819	19.435	1.6316e-06	27.121	0.00070934	0.00091084	0.00025639	1221.9	9.9148e-06	1.0112e-05	1272.2	248.94	9.8683e-06	1.0297e-05	307.71	85.449	67.57	19.715	9.7573e-06	27.699	232.525	-53.828	-2.668	-112.581	75.785	11.115	-112.544	-105.240	-23.015	54.617	-105.776	-99.035	-98.614	-91.665	52.078	-92.291	-8191	255	
11077.313	1	1	0	0	0.12992	0.2611	0.14824	0.17253	0.072462	0.18272	0.10824	0.10273	0.10597	0.16911	0.082314	0.11205	0.066697	0.056905	0.30537	0.010752	-2.8396	-3.0563	-2.9188	-3.3146	-2.9958	-2.9375	-3.4458	-3.0042	-3.0604	-3.0563	-2.95	-3.25	-2.9583	-3.0521	-3.1437	-2.8729	-100.697	130.713	77.887	168.267	69.421	112.438	161.157	167.564	142.683	93.789	111.805	209.180	186.034	180.032	106.939	42.898	0.00010184	0.00040667	8.9202e-05	1250.7	3.219e-06	5.1171e-06	1292.1	250.96	4.5712e-06	8.1708e-06	309.55	84.301	67.063	19.413	4.113e-07	27.392	0.00072761	0.00090983	0.00025062	1223.4	1.0219e-05	1.0154e-05	1274.7	248.89	1.0046e-05	1.0228e-05	308	85.521	67.991	19.781	1.006e-05	27.853	226.301	-23.877	-49.991	-112.584	183.737	31.736	-112.260	-105.469	124.786	18.215	-105.412	-99.227	-98.819	-92.001	108.993	-92.402	-8191	255	
11077.409	1	1	0	0	0.23858	0.18396	0.053029	0.21887	0.13177	0.097384	0.20288	0.089549	0.10922	0.13506	0.10758	0.18482	0.18661	0.17979	0.040212	0.12316	-2.7354	-3.1271	-2.9042	-3.2375	-2.7917	-3.075	-3.5042	-2.9771	-3.2271	-3.3083	-3.0104	-3.1583	-2.9083	-3.0292	-3.2667	-2.9938	212.056	-17.022	26.797	206.216	135.849	92.764	154.862	195.267	29.310	203.083	236.308	56.441	-88.144	148.498	176.724	136.508	0.00010384	0.00014915	6.7753e-05	1247.4	3.7109e-06	2.4914e-06	1292.9	251.37	1.6938e-06	8.1934e-07	308.45	84.21	67.015	19.524	8.309e-07	27.256	0.00074158	0.00093849	0.00026202	1223.3	1.0417e-05	1.0326e-05	1274.4	249.67	1.0236e-05	1.0294e-05	307.47	85.456	67.834	19.778	9.8874e-06	27.809	219.578	235.773	-99.173	-112.395	12.343	54.517	-112.340	-105.469	-6.900	-60.390	-105.327	-99.311	-98.894	-92.249	-79.816	-92.072	-8191	255	
11077.530	1	1	0	0	0.17322	0.13634	0.11203	0.062781	0.24607	0.082544	0.13566	0.12002	0.045212	0.1744	0.092424	0.10461	0.23013	0.18175	0.094123	0.071773	-2.7875	-3.2583	-2.6583	-3.2479	-3.0563	-2.7917	-3.3812	-3.0604	-2.9562	-3.1667	-2.7979	-3.2917	-2.9979	-2.8354	-3.0479	-2.9792	149.267	149.877	-92.284	136.504	42.029	123.862	142.179	230.254	-95.791	113.329	234.851	-42.007	198.972	173.414	-9.026	-5.431	0.00016846	0.00045319	4.22e-05	1243.7	2.6808e-06	4.0942e-06	1298.5	250.92	1.17e-06	5.4621e-06	307.74	84.549	67.037	19.499	6.1407e-06	27.284	0.00072955	0.00093405	0.00026689	1220.8	1.0167e-05	1.0478e-05	1277.6	249.25	1.0235e-05	1.0575e-05	307.69	85.597	67.976	19.785	1.0467e-05	27.814	218.710	-49.221	-82.632	-112.359	62.068	53.921	-112.120	-105.342	124.565	-25.630	-105.368	-99.268	-98.731	-91.648	46.003	-92.274	-8191	255	
11077.624	1	1	0	0	0.043015	0.17148	0.27348	0.10825	0.19494	0.17896	0.26366	0.30009	0.095036	0.077293	0.17165	0.1472	0.39603	0.12197	0.18831	0.24765	-2.7792	-3.075	-2.9938	-3.2229	-3.0042	-3.0083	-3.2771	-3.1479	-2.9896	-3.1396	-2.8688	-3.1875	-3.1208	-3.0125	-3.45	-3.025	-17.807	168.644	64.802	214.885	-39.295	210.999	184.339	159.909	-88.619	-27.836	225.221	-68.928	168.372	139.267	158.578	-75.249	0.00012742	0.00018229	0.00011528	1247.6	1.784e-06	1.2541e-06	1301.4	250.89	9.9826e-07	3.4388e-06	308.4	84.591	67.258	19.334	3.1393e-06	27.323	0.00074723	0.0009666	0.0002706	1225	1.0452e-05	1.0644e-05	1280.9	249.55	1.0321e-05	1.0715e-05	308.66	85.662	68.044	19.78	1.0495e-05	27.839	-118.537	-56.650	-71.233	-112.377	-61.756	17.210	-112.211	-105.187	201.801	87.001	-105.355	-99.355	-98.780	-91.848	4.133	-92.394	-8191	255	
11077.722	1	1	0	0	0.16521	0.17484	0.17718	0.16932	0.031275	0.094885	0.011755	0.14478	0.071111	0.050109	0.14637	0.29477	0.17584	0.18331	0.10019	0.14103	-2.7188	-3.2313	-2.9813	-3.1354	-3.3042	-3.0042	-3.3646	-3.5	-2.9875	-3.1104	-2.9854	-3.0687	-3.3167	-2.9062	-3.25	-3.1063	64.076	167.989	137.382	-91.560	128.008	51.501	-50.168	181.936	38.865	110.229	-79.965	169.904	201.529	186.032	5.842	-54.760	0.00016031	8.617e-05	0.00027615	1255	3.7707e-06	2.4734e-06	1302.3	252.22	1.3401e-06	5.2115e-06	310.9	84.888	66.567	19.546	3.7421e-06	27.147	0.00076304	0.00096471	0.00027133	1228	1.0419e-05	1.0525e-05	1280.9	250.01	1.0307e-05	1.0638e-05	309.43	85.895	67.816	19.84	1.0299e-05	27.864	227.392	-97.129	-25.965	-112.613	4.702	101.112	-112.179	-105.285	36.262	11.958	-105.373	-99.288	-99.073	-92.035	85.303	-92.182	-8191	255	
11077.818	1	1	0	0	0.18691	0.14798	0.091811	0.28736	0.29023	0.11901	0.35242	0.35287	0.012961	0.14337	0.22015	0.059897	0.2144	0.20355	0.19965	0.16864	-2.4958	-3.3375	-2.9354	-3.1042	-3.2313	-2.9062	-3.3063	-3.2021	-2.9708	-3.3625	-3.0438	-3.0604	-3.2354	-2.8896	-2.9771	-3.3646	189.195	125.598	209.729	200.728	189.358	59.473	148.527	-120.050	-79.730	74.148	118.681	13.300	77.144	207.445	39.855	133.685	0.00011095	0.00028423	0.00018171	1255.4	1.0984e-06	2.9677e-06	1299.1	251.57	3.181e-06	2.9336e-06	310.94	84.72	66.953	19.393	3.9142e-06	27.248	0.00073414	0.00095077	0.00027102	1230.4	9.9423e-06	1.0427e-05	1280.2	249.71	9.9863e-06	1.0834e-05	309.06	85.787	68.029	19.793	1.0255e-05	27.851	229.530	-4.338	-11.579	-112.720	157.659	65.493	-112.296	-105.534	-34.242	34.013	-105.705	-99.176	-98.828	-92.381	-8.139	-91.833	-8191	255	
11077.913	1	1	0	0	0.14141	0.17268	0.26922	0.096775	0.1289	0.25895	0.19032	0.37299	0.2001	0.031546	0.05582	0.11941	0.095367	0.17922	0.096198	0.20068	-2.4875	-3.1479	-2.8438	-3.3021	-3.1958	-2.9771	-3.3917	-3.1667	-2.8292	-3.1833	-3.2083	-2.9688	-3.3354	-2.9021	-3.1354	-3.2896	235.420	-25.093	-88.566	215.366	200.920	60.979	-101.463	204.057	127.517	146.040	171.706	-121.058	52.255	71.587	-17.779	59.613	0.00014037	0.00051712	0.00015237	1252.6	4.8806e-06	7.2581e-06	1302.1	252	1.1393e-06	4.0811e-06	310.57	84.436	67.542	19.532	2.4806e-06	27.308	0.0007457	0.00094767	0.00027075	1227.7	9.9843e-06	1.0513e-05	1281.1	250.08	1.0166e-05	1.0596e-05	308.06	85.625	68.043	19.793	1.0527e-05	27.871	230.667	-19.452	-37.903	-112.403	100.257	11.142	-112.276	-105.403	63.339	106.024	-105.749	-99.390	-98.736	-91.914	70.490	-92.133	-8191	255	
11078.009	1	1	0	0	0.19026	0.28857	0.14508	0.25753	0.19697	0.20663	0.21075	0.1809	0.27222	0.1599	0.018098	0.17509	0.14375	0.22768	0.22918	0.0848	-2.6875	-3.0021	-3.1396	-3.1604	-3.2917	-3.0729	-3.1479	-3.3083	-3.0104	-3.225	-3.1396	-2.9896	-3.3292	-2.8646	-2.9479	-3.2542	85.319	131.286	175.365	202.895	49.133	-107.405	194.439	184.248	-96.318	172.180	23.735	23.157	-79.933	-115.335	-96.871	3.830	0.00013465	0.00018183	8.5702e-05	1253.8	1.5306e-06	1.54e-06	1299.2	251.59	5.2403e-06	7.014e-06	310.93	84.795	67.291	19.502	6.789e-07	27.448	0.00074779	0.00095	0.00027137	1227.5	1.0339e-05	1.0641e-05	1281.5	249.91	1.041e-05	1.0752e-05	309.16	85.81	67.989	19.808	1.0284e-05	27.907	231.569	-78.325	-77.386	-112.466	130.175	80.313	-112.182	-105.318	-1.484	48.663	-105.684	-99.145	-99.323	-92.017	105.663	-92.211	-8191	255	
11078.129	1	1	0	0	0.03063	0.12885	0.25625	0.2435	0.11302	0.3155	0.14369	0.069698	0.053069	0.054849	0.11347	0.16404	0.25669	0.080107	0.060386	0.046964	-2.4896	-3.0854	-3.0125	-3.0271	-3.3688	-3.05	-3.2917	-3.2292	-2.8146	-3.2875	-3.2917	-2.9417	-3.3292	-3.1854	-2.9896	-3.3333	-51.043	-57.458	191.836	161.565	82.159	193.071	98.250	42.173	168.516	128.325	198.807	-54.092	222.423	-52.484	-64.466	20.092	0.00012134	0.000562	4.0659e-05	1249.5	4.0887e-06	3.7356e-06	1303.1	252.96	2.0316e-06	5.4868e-06	311.95	84.906	67.028	19.493	4.0911e-06	27.424	0.00075582	0.00098039	0.000262	1226.8	1.0356e-05	1.0718e-05	1281.4	250.27	1.0402e-05	1.0762e-05	309.5	85.747	68.033	19.826	1.033e-05	27.862	-104.917	-5.478	167.380	-112.559	99.789	-32.620	-112.104	-105.713	-59.972	29.858	-105.572	-99.604	-98.444	-91.654	40.124	-92.123	-8191	255	
11078.226	1	1	0	0	0.12412	0.23526	0.16337	0.36505	0.16876	0.14691	0.15771	0.29827	0.21615	0.27435	0.49311	0.14007	0.035464	0.23042	0.15955	0.29282	-2.4229	-3.3229	-3.1396	-3.1542	-3.2396	-3.2292	-3.1729	-3.2542	-2.9396	-3.1229	-3.2104	-2.9917	-3.275	-3.1167	-3.0271	-3.3	179.744	112.073	197.782	-110.229	54.964	87.944	0.614	191.738	-44.989	-94.474	152.607	74.591	-86.338	224.905	-60.706	39.996	0.00010476	0.00028464	0.00013071	1248.2	3.738e-06	7.4979e-06	1300.4	252.71	2.6472e-06	9.3489e-06	311.37	84.418	66.852	19.411	2.8653e-06	27.271	0.00075923	0.00095812	0.00026493	1227	1.0446e-05	1.0615e-05	1279.5	249.99	1.0613e-05	1.0999e-05	309.46	85.843	68.098	19.815	1.0313e-05	27.886	-118.853	-35.727	-39.809	-112.511	13.511	19.267	-112.257	-105.498	35.366	33.482	-105.330	-99.198	-98.642	-92.184	59.085	-92.302	-8191	255	
11078.297	1	1	0	0	0.193	0.26117	0.18896	0.22004	0.17128	0.15329	0.33799	0.31349	0.091791	0.20456	0.22113	0.43335	0.082642	0.11208	0.19128	0.1144	-2.4417	-2.9375	-3.3708	-3.1083	-3.2625	-3.1958	-3.0625	-3.4854	-3.0604	-3.1021	-3.2938	-2.8458	-3.3271	-3.1542	-2.8375	-3.3063	23.851	98.654	-44.778	191.848	-118.586	113.689	184.388	157.084	227.102	6.555	220.706	182.531	85.673	115.025	0.018	-99.734	0.00014466	0.0002261	0.00011906	1253.4	4.6144e-06	3.8222e-06	1298	251.6	2.7829e-06	5.6449e-06	310.89	84.465	67.162	19.558	3.9194e-06	27.587	0.00075817	0.00095987	0.0002673	1227.7	1.0269e-05	1.0721e-05	1277.4	250.33	1.03e-05	1.0695e-05	309.28	85.719	68.062	19.896	1.0227e-05	27.907	228.179	67.038	-38.596	-112.428	21.706	27.553	-112.341	-105.179	11.938	40.188	-105.471	-99.225	-98.789	-92.154	76.180	-92.170	-8191	255	
11078.393	1	1	0	0	0.1111	0.16585	0.099978	0.23995	0.05879	0.16722	0.16755	0.17721	0.13815	0.047609	0.12892	0.086144	0.13427	0.20797	0.21609	0.1514	-2.7167	-2.9583	-3.2542	-3.1125	-2.975	-3.075	-2.9729	-3.3896	-3.0875	-3.0938	-3.5083	-3.0938	-3.1125	-3.2	-2.7979	-3.2583	190.807	229.180	-86.758	180.077	5.940	15.314	88.766	187.209	83.317	-120.036	218.127	204.491	-0.514	-118.541	78.829	186.135	0.00015264	0.0004035	9.0972e-05	1250.1	3.1951e-06	2.9522e-06	1304	252.27	2.5747e-06	3.9385e-06	308.99	84.628	67.101	19.401	2.2532e-06	27.613	0.00075679	0.00095274	0.00026447	1227.6	1.026e-05	1.0612e-05	1281.9	250.24	1.019e-05	1.059e-05	308.91	85.74	67.988	19.779	1.0304e-05	27.947	225.165	-35.833	-43.150	-112.449	16.046	17.421	-112.255	-105.578	13.137	39.499	-105.684	-99.085	-98.686	-91.980	98.695	-92.323	-8191	255	
11078.514	1	1	0	0	0.1248	0.057446	0.35175	0.25912	0.12584	0.22448	0.2411	0.12493	0.094613	0.11015	0.095823	0.17998	0.26622	0.12335	0.084394	0.15886	-2.5896	-2.8271	-3.1104	-3.0521	-3.1708	-3.0604	-2.9479	-3.2458	-2.9813	-2.9875	-3.3396	-2.9646	-3.2438	-3.0625	-3.0563	-3.4688	39.822	-64.092	102.849	147.514	-4.818	232.812	179.946	186.174	-74.854	48.245	232.493	118.630	207.823	-59.098	-102.883	172.018	0.00011851	0.00011927	0.0001116	1252.2	2.7778e-06	2.3521e-06	1298.6	251.29	4.7116e-06	5.6153e-06	311.31	84.264	67.345	19.445	3.5275e-06	27.344	0.00074936	0.00095865	0.0002615	1225.6	1.0284e-05	1.0509e-05	1279.2	250.18	1.0142e-05	1.0424e-05	309.02	85.693	68.123	19.788	1.0245e-05	27.83	-123.282	84.534	-56.775	-112.490	39.437	4.886	-112.322	-105.344	-19.742	3.478	-105.255	-99.401	-98.980	-91.838	27.119	-92.198	-8191	255	
11078.610	1	1	0	0	0.22283	0.1639	0.14363	0.21909	0.30712	0.070815	0.26914	0.16944	0.23717	0.026894	0.23386	0.23712	0.42506	0.15517	0.059251	0.26553	-2.6604	-2.9292	-3.0875	-3.1458	-3.0625	-3.3625	-3.1437	-3.0646	-3.1521	-3.0875	-3.2708	-3.1583	-2.9771	-3.3646	-2.8917	-3.1083	187.161	24.094	-104.083	-104.569	-91.733	196.876	139.365	-117.791	106.627	-84.569	169.484	-113.952	152.471	-0.710	-90.050	163.518	8.7279e-05	0.00048714	9.9782e-05	1248.2	2.4287e-06	1.4583e-06	1297.3	252.61	2.9652e-06	7.7819e-06	312.55	84.577	67.109	19.426	2.575e-06	27.312	0.00074229	0.00093248	0.00025866	1223.8	1.0129e-05	1.0458e-05	1277.5	250.55	1.022e-05	1.034e-05	309.11	85.834	68.122	19.741	1.0062e-05	27.8	210.525	-16.897	-80.241	-112.717	121.007	-63.739	-112.490	-105.383	-22.978	24.240	-105.728	-99.159	-98.874	-91.968	37.285	-92.083	-8191	255	
11078.705	1	1	0	0	0.15506	0.24531	0.29379	0.091014	0.35573	0.082908	0.37082	0.062561	0.19001	0.13869	0.21734	0.35054	0.22192	0.28623	0.21662	0.2124	-2.9479	-2.9375	-3.1229	-3.0438	-3.125	-3.3312	-3.125	-3.1167	-3.1937	-2.9083	-3.4458	-2.9083	-2.9437	-3.3625	-3.0667	-3.1583	150.520	155.908	-88.830	-49.512	-90.481	233.918	148.844	221.166	51.606	28.000	-96.123	192.636	-115.973	231.256	-79.975	167.236	0.00014737	0.00057468	0.00011566	1250.7	3.1353e-06	6.1659e-06	1296.7	252.09	6.0207e-06	4.5645e-06	312.24	84.566	66.646	19.417	3.5407e-06	27.345	0.00071057	0.00090818	0.00026334	1227.7	9.7556e-06	1.0249e-05	1277.2	249.67	9.6867e-06	1.0101e-05	308.82	85.542	67.806	19.807	9.9873e-06	27.831	232.323	-45.129	-39.687	-112.553	183.044	30.350	-112.119	-105.590	-17.997	-25.731	-105.256	-99.423	-98.865	-91.752	37.061	-92.037	-8191	255	
11078.802	1	1	0	0	0.3658	0.17494	0.1011	0.086875	0.21928	0.08769	0.37106	0.24125	0.14275	0.078057	0.077261	0.26446	0.1213	0.27592	0.16447	0.23626	-2.8708	-2.7333	-3.2687	-3.1271	-3.0083	-3.3417	-3.0896	-3.2292	-3.2083	-3.0875	-3.2104	-3.0062	-3.025	-3.2354	-2.8875	-3.175	-69.026	-52.281	218.410	-123.540	-96.546	102.445	164.561	112.388	11.096	173.292	73.187	93.722	215.127	14.221	234.345	210.590	0.00011322	0.00026408	0.00014196	1247.6	2.955e-06	5.359e-06	1296.6	251.63	4.6001e-06	4.2976e-06	310.9	84.826	67.226	19.548	1.869e-06	27.388	0.00070973	0.00091871	0.00025451	1223.7	9.7004e-06	9.8831e-06	1276.8	249.78	9.4899e-06	1.0113e-05	308.23	85.511	67.851	19.777	9.7204e-06	27.805	221.778	26.928	-8.087	-112.670	-36.536	-10.660	-112.373	-105.698	30.372	-13.486	-105.224	-99.173	-98.492	-91.666	-29.745	-91.908	-8191	255	
11078.897	1	1	0	0	0.22859	0.14555	0.20967	0.20594	0.13373	0.10912	0.10646	0.056569	0.16882	0.16204	0.17794	0.077304	0.20131	0.24426	0.088926	0.17634	-2.9979	-2.8708	-3.1229	-3.2875	-2.9479	-3.3833	-3.1667	-2.8917	-3.4354	-3.0542	-3.4313	-3.3979	-3	-3.3771	-3.1354	-3.0479	11.287	-4.984	37.694	138.034	209.079	-51.552	-78.133	161.294	52.076	113.806	219.740	169.906	224.057	209.034	-118.846	-103.057	0.00010577	0.00033209	0.00010239	1250	2.8328e-06	1.5512e-06	1298.2	250.68	5.1981e-06	4.1292e-06	308.54	84.151	67.215	19.417	8.1879e-07	27.34	0.00069799	0.00090883	0.0002523	1223.6	9.3968e-06	1.0056e-05	1276.8	249.79	9.6433e-06	9.9758e-06	307.75	85.265	67.96	19.782	9.8871e-06	27.864	224.331	-44.306	-67.613	-112.709	21.953	-17.988	-112.369	-105.383	-4.709	27.384	-105.664	-99.201	-98.784	-91.804	107.160	-92.101	-8191	255	
11078.993	1	1	0	0	0.12345	0.36658	0.096459	0.34309	0.36962	0.10148	0.28313	0.10505	0.29961	0.14975	0.16088	0.28291	0.33621	0.14674	0.12348	0.15789	-2.7854	-3.1437	-3.0812	-3.1229	-2.9917	-3.2542	-3.4104	-3.1854	-3.3354	-2.9771	-3.1396	-3.1458	-2.9313	-3.2458	-3.2167	-3.0667	123.926	78.850	100.628	-110.903	205.927	81.594	137.513	107.128	-72.925	-37.447	-67.510	208.140	-45.422	191.656	100.599	129.229	0.00010593	0.00097606	5.2577e-05	1250.6	3.5675e-06	2.2514e-06	1295.5	251.12	4.2326e-06	6.4765e-06	308.91	84.836	66.622	19.332	2.5535e-06	27.259	0.00072535	0.00091437	0.00026062	1225	9.7275e-06	1.0071e-05	1275.1	249.46	9.7066e-06	1.0052e-05	308.21	85.489	67.929	19.728	9.8995e-06	27.752	-111.384	-22.767	228.531	-112.736	21.135	64.280	-112.100	-105.444	-16.808	63.470	-105.584	-99.141	-98.976	-92.137	60.106	-92.053	-8191	255	
11079.089	1	1	0	0	0.19265	0.1942	0.16997	0.29928	0.024528	0.099056	0.11595	0.16293	0.22035	0.27799	0.14745	0.17988	0.11626	0.29247	0.42221	0.26789	-2.9562	-2.9167	-2.7646	-3.3896	-2.8937	-2.9833	-3.175	-2.9667	-3.1375	-2.9625	-3.1	-3.475	-3.1104	-3.2	-3.05	-2.9417	82.677	92.746	-90.354	177.790	-27.315	12.124	194.433	175.697	182.668	112.389	189.068	220.169	227.290	-79.944	153.301	16.230	0.00015497	0.00030975	6.002e-05	1249.8	1.4818e-07	3.0221e-06	1296.5	251.09	4.0529e-06	6.8302e-06	307.92	84.569	66.585	19.452	2.7168e-06	27.126	0.00070116	0.0009064	0.00025371	1225.2	9.7032e-06	1.0136e-05	1277.5	249.16	9.6609e-06	1.013e-05	307.88	85.545	67.714	19.703	9.7416e-06	27.708	220.597	-14.671	44.959	-112.786	55.806	-2.230	-112.149	-105.252	-40.884	-1.044	-105.371	-99.372	-98.753	-91.799	-3.877	-92.238	-8191	255	
11079.210	1	1	0	0	0.17427	0.13523	0.091555	0.12202	0.15865	0.16409	0.24286	0.17953	0.10584	0.16731	0.17418	0.16367	0.018602	0.26525	0.075119	0.21462	-2.9146	-2.8917	-2.8375	-3.2375	-2.75	-3.0083	-3.3354	-2.9042	-3.2417	-2.9854	-3.1521	-3.4562	-2.8792	-3.1521	-3.2313	-2.9646	-110.892	27.790	-105.729	177.016	-33.423	157.262	61.566	113.295	79.647	7.958	174.739	201.746	205.677	128.832	-78.372	58.796	0.00012251	0.00054786	7.8596e-05	1249.8	2.5443e-06	2.4422e-06	1296.4	251.35	3.3437e-06	8.108e-06	310.89	83.832	67.235	19.48	5.2434e-06	27.208	0.00070983	0.00091158	0.00025325	1221.4	9.9361e-06	9.8645e-06	1275.8	249.56	9.6579e-06	1.0176e-05	308.98	85.5	68.033	19.793	9.6785e-06	27.705	228.443	-25.524	5.694	-112.569	78.861	82.489	-112.639	-105.521	52.220	35.857	-105.658	-99.184	-98.898	-92.100	64.084	-91.964	-8191	255	
11079.306	1	1	0	0	0.09958	0.10746	0.19146	0.30183	0.15021	0.11289	0.079683	0.2482	0.096228	0.057804	0.056918	0.24819	0.11494	0.17086	0.05041	0.10794	-2.8979	-3.2938	-3.0583	-3.2729	-3.0708	-3.0187	-3.2958	-2.9729	-3.1875	-3.1854	-2.9333	-3.3312	-3.0833	-3.1479	-3.2542	-3.0771	-72.614	-8.119	208.063	-41.558	-49.320	116.472	138.503	149.168	80.660	50.974	122.104	189.759	49.073	196.835	136.336	151.310	0.00017002	0.00019923	0.00012981	1245.2	3.2241e-06	2.9301e-06	1288.9	250.32	1.5907e-06	5.4144e-06	309.3	84.372	66.972	19.257	4.1169e-06	27.147	0.00070721	0.00088487	0.000249	1221.1	9.6721e-06	9.9428e-06	1273.8	248.77	9.1496e-06	9.7247e-06	307.35	85.387	67.774	19.677	9.412e-06	27.642	228.181	227.920	-44.765	-112.547	-20.097	115.543	-112.271	-105.412	-11.787	19.525	-105.665	-99.107	-98.854	-91.268	16.837	-92.120	-8191	255	
11079.402	1	1	0	0	0.35953	0.095423	0.15668	0.091568	0.1151	0.079605	0.19099	0.11495	0.26122	0.055177	0.18276	0.10428	0.21284	0.086947	0.074709	0.31726	-2.7562	-3.2667	-2.8729	-3.4771	-3.175	-3.1896	-3.4	-3.1354	-3.1354	-3.2062	-3.1042	-3.3896	-3.0125	-3.0833	-3.3604	-3.2229	-115.851	228.785	-9.036	214.616	-75.877	107.873	166.147	77.875	16.334	-70.479	-75.289	185.904	234.231	23.074	42.369	174.314	0.00013738	0.00054905	1.5392e-05	1244.1	3.5658e-06	3.5735e-06	1297.6	251.32	4.2788e-06	5.8698e-06	310.39	84.521	66.675	19.414	2.5703e-06	27.291	0.00069134	0.00085829	0.00024794	1222.4	9.7637e-06	9.8957e-06	1274.2	249.26	9.488e-06	9.9619e-06	308.07	85.471	67.685	19.778	9.4604e-06	27.78	221.429	16.162	-111.498	-112.406	-45.732	34.946	-112.212	-105.601	50.177	56.341	-105.735	-99.279	-98.628	-91.856	-41.569	-92.068	-8191	255	
#DATA ENDS
