BOXY.EXE: ISS Imagent and Oximeter Data Acquisition Program Version 0.80
Ascii Record File

#ACQ INFORMATION
2  Detector Channels 
16  External MUX Channels 
1  Auxiliary Channels 
5000  Waveform (CCF) Frequency (Hz)
1  Waveforms Skipped 
30  Waveforms Averaged 
1  Cycles Averaged 
16  Acquisitions per Waveform 
10.0806  Updata Rate (Hz) 

#FILE INFORMATION
TRUE -- External MUX Channel results are PARSED.
FALSE -- AC DC and Phase are NOT grouped.
TRUE -- Companion Program Settings File CREATED.
FALSE -- AC data not excluded
FALSE -- DC data not excluded
FALSE -- Phase data not excluded
FALSE -- Auxillary Chn. data not excluded
Tab delimiters

#CALIBRATION STATE
TRUE -- Waveform Calibration Values APPLIED.


#AUX CALIBRATION VALUES
Val Type	aux-1	

Term	1.0000e+00	
Factor	0.0000e+00	


#WF CALIBRATION VALUES
A = Detector Channel
Val Type	A-AC1	A-AC2	A-AC3	A-AC4	A-AC5	A-AC6	A-AC7	A-AC8	A-AC9	A-AC10	A-AC11	A-AC12	A-AC13	A-AC14	A-AC15	A-AC16	A-DC1	A-DC2	A-DC3	A-DC4	A-DC5	A-DC6	A-DC7	A-DC8	A-DC9	A-DC10	A-DC11	A-DC12	A-DC13	A-DC14	A-DC15	A-DC16	A-Ph1	A-Ph2	A-Ph3	A-Ph4	A-Ph5	A-Ph6	A-Ph7	A-Ph8	A-Ph9	A-Ph10	A-Ph11	A-Ph12	A-Ph13	A-Ph14	A-Ph15	A-Ph16	

Term	0.00000e+00	0.00000e+00	0.00000e+00	0.00000e+00	0.00000e+00	0.00000e+00	0.00000e+00	0.00000e+00	0.00000e+00	0.00000e+00	0.00000e+00	0.00000e+00	0.00000e+00	0.00000e+00	0.00000e+00	0.00000e+00	0.00000e+00	0.00000e+00	0.00000e+00	0.00000e+00	0.00000e+00	0.00000e+00	0.00000e+00	0.00000e+00	0.00000e+00	0.00000e+00	0.00000e+00	0.00000e+00	0.00000e+00	0.00000e+00	0.00000e+00	0.00000e+00	0.00000e+00	0.00000e+00	0.00000e+00	0.00000e+00	0.00000e+00	0.00000e+00	0.00000e+00	0.00000e+00	0.00000e+00	0.00000e+00	0.00000e+00	0.00000e+00	0.00000e+00	0.00000e+00	0.00000e+00	0.00000e+00	
Factor	1.00000e+00	1.00000e+00	1.00000e+00	1.00000e+00	1.00000e+00	1.00000e+00	1.00000e+00	1.00000e+00	1.00000e+00	1.00000e+00	1.00000e+00	1.00000e+00	1.00000e+00	1.00000e+00	1.00000e+00	1.00000e+00	1.00000e+00	1.00000e+00	1.00000e+00	1.00000e+00	1.00000e+00	1.00000e+00	1.00000e+00	1.00000e+00	1.00000e+00	1.00000e+00	1.00000e+00	1.00000e+00	1.00000e+00	1.00000e+00	1.00000e+00	1.00000e+00	X	X	X	X	X	X	X	X	X	X	X	X	X	X	X	X	

B = Detector Channel
Val Type	B-AC1	B-AC2	B-AC3	B-AC4	B-AC5	B-AC6	B-AC7	B-AC8	B-AC9	B-AC10	B-AC11	B-AC12	B-AC13	B-AC14	B-AC15	B-AC16	B-DC1	B-DC2	B-DC3	B-DC4	B-DC5	B-DC6	B-DC7	B-DC8	B-DC9	B-DC10	B-DC11	B-DC12	B-DC13	B-DC14	B-DC15	B-DC16	B-Ph1	B-Ph2	B-Ph3	B-Ph4	B-Ph5	B-Ph6	B-Ph7	B-Ph8	B-Ph9	B-Ph10	B-Ph11	B-Ph12	B-Ph13	B-Ph14	B-Ph15	B-Ph16	

Term	0.00000e+00	0.00000e+00	0.00000e+00	0.00000e+00	0.00000e+00	0.00000e+00	0.00000e+00	0.00000e+00	0.00000e+00	0.00000e+00	0.00000e+00	0.00000e+00	0.00000e+00	0.00000e+00	0.00000e+00	0.00000e+00	0.00000e+00	0.00000e+00	0.00000e+00	0.00000e+00	0.00000e+00	0.00000e+00	0.00000e+00	0.00000e+00	0.00000e+00	0.00000e+00	0.00000e+00	0.00000e+00	0.00000e+00	0.00000e+00	0.00000e+00	0.00000e+00	-1.27073e+02	-1.37189e+02	-1.14034e+02	-1.82642e+02	-6.77074e+01	-7.36674e+01	-1.55275e+02	-1.62015e+02	-8.16783e+01	-5.49491e+01	-1.72245e+02	-1.69834e+02	-1.79515e+02	-1.77360e+02	-7.51326e+01	-1.49195e+02	
Factor	1.75894e-05	1.35949e-04	4.03037e-05	1.76583e-01	1.21743e-06	1.73254e-06	1.64385e-01	4.98919e-02	1.01420e-06	1.41505e-06	9.45280e-02	2.88164e-02	2.76675e-02	9.24122e-03	1.14402e-06	1.32298e-02	1.94680e-06	2.10307e-06	5.83844e-07	8.62186e-02	2.28121e-08	2.29967e-08	7.60499e-02	2.45492e-02	2.27457e-08	2.30251e-08	4.47580e-02	1.37852e-02	1.36628e-02	4.53901e-03	2.28964e-08	6.30002e-03	X	X	X	X	X	X	X	X	X	X	X	X	X	X	X	X	



#DISTANCE SETTINGS
A = Detector Channel
A-1	A-2	A-3	A-4	A-5	A-6	A-7	A-8	A-9	A-10	A-11	A-12	A-13	A-14	A-15	A-16	

2.5000e+00	3.0000e+00	2.5000e+00	3.0000e+00	2.0000e+00	3.0000e+00	1.5000e+00	3.0000e+00	3.0000e+00	3.0000e+00	3.0000e+00	3.0000e+00	3.0000e+00	3.0000e+00	1.5000e+00	3.0000e+00	

B = Detector Channel
B-1	B-2	B-3	B-4	B-5	B-6	B-7	B-8	B-9	B-10	B-11	B-12	B-13	B-14	B-15	B-16	

1.0000e+01	1.0000e+01	1.0000e+01	1.4400e+00	1.0000e+01	1.0000e+01	1.5100e+00	1.9400e+00	1.0000e+01	1.0000e+01	1.9900e+00	2.4900e+00	2.4100e+00	2.9000e+00	1.0000e+01	2.9800e+00	




#DATA BEGINS
time	group	step	mark	flag	A-AC1	A-AC2	A-AC3	A-AC4	A-AC5	A-AC6	A-AC7	A-AC8	A-AC9	A-AC10	A-AC11	A-AC12	A-AC13	A-AC14	A-AC15	A-AC16	A-DC1	A-DC2	A-DC3	A-DC4	A-DC5	A-DC6	A-DC7	A-DC8	A-DC9	A-DC10	A-DC11	A-DC12	A-DC13	A-DC14	A-DC15	A-DC16	A-Ph1	A-Ph2	A-Ph3	A-Ph4	A-Ph5	A-Ph6	A-Ph7	A-Ph8	A-Ph9	A-Ph10	A-Ph11	A-Ph12	A-Ph13	A-Ph14	A-Ph15	A-Ph16	B-AC1	B-AC2	B-AC3	B-AC4	B-AC5	B-AC6	B-AC7	B-AC8	B-AC9	B-AC10	B-AC11	B-AC12	B-AC13	B-AC14	B-AC15	B-AC16	B-DC1	B-DC2	B-DC3	B-DC4	B-DC5	B-DC6	B-DC7	B-DC8	B-DC9	B-DC10	B-DC11	B-DC12	B-DC13	B-DC14	B-DC15	B-DC16	B-Ph1	B-Ph2	B-Ph3	B-Ph4	B-Ph5	B-Ph6	B-Ph7	B-Ph8	B-Ph9	B-Ph10	B-Ph11	B-Ph12	B-Ph13	B-Ph14	B-Ph15	B-Ph16	aux-1	digaux	

32667.340	1	1	0	768	0.1701	0.31944	0.087257	0.21606	0.10969	0.19444	0.010465	0.098263	0.12434	0.064095	0.20496	0.065676	0.10574	0.062468	0.1949	0.23205	-2.4896	-3.1146	-2.8958	-3.1	-2.875	-2.7896	-3.2354	-3.1333	-2.9792	-3.225	-2.8792	-3.0479	-3.1437	-2.9083	-3.0229	-2.9979	265.057	123.937	162.211	137.081	111.681	6.765	174.039	245.947	88.077	290.829	-38.082	267.187	145.113	128.642	296.203	293.031	2.3842e-05	4.1787e-05	3.3016e-05	61.434	3.2124e-07	6.8903e-07	62.533	20.766	6.3794e-07	7.6114e-07	23.335	12.139	10.093	4.9725	1.2786e-07	5.5969	2.0644e-06	-3.1809e-06	3.0591e-06	71.545	-2.8895e-08	-2.0649e-08	73.404	24.596	1.9263e-07	-3.473e-08	27.196	14.223	11.846	5.8767	-2.199e-08	6.5426	153.300	35.606	59.486	-31.802	92.530	142.453	-32.413	-27.093	210.803	98.882	-29.571	-25.527	-23.174	-20.309	250.949	-23.224	-8191	255	
32667.436	1	1	0	0	0.069336	0.09464	0.20039	0.33448	0.02769	0.16899	0.058823	0.23476	0.018666	0.18275	0.23117	0.16788	0.20668	0.087928	0.13095	0.10433	-2.4417	-3.1771	-2.8292	-2.9896	-2.9708	-2.9083	-3.0479	-2.9792	-2.8708	-3.0708	-2.7458	-3.0521	-3.3604	-2.7667	-3.1208	-3.0187	207.566	8.869	251.395	220.373	179.596	22.237	232.906	42.044	101.177	-10.204	52.082	82.856	75.653	280.004	-14.655	116.312	2.602e-05	4.6366e-05	6.0967e-05	61.458	3.1921e-07	8.0502e-07	62.842	21.249	4.2665e-07	4.2474e-08	24.041	12.232	10.095	4.9938	6.9075e-08	5.636	2.9324e-06	-2.8391e-06	3.497e-06	71.691	-2.7184e-08	-2.4386e-08	73.723	24.905	1.2984e-07	-3.377e-08	27.652	14.381	11.945	5.9209	-2.0607e-08	6.5703	162.425	28.566	19.222	-31.784	122.570	82.539	-32.520	-26.907	197.430	117.403	-29.236	-25.840	-23.660	-20.232	153.342	-23.416	-8191	255	
32667.531	1	1	0	0	0.26579	0.15574	0.12837	0.29042	0.10181	0.066983	0.14735	0.072352	0.19276	0.072048	0.183	0.1468	0.027102	0.14881	0.10637	0.11688	-2.6646	-3.1979	-2.9542	-3	-3.2979	-3.1583	-3.0292	-3.0208	-2.8937	-3.0958	-2.9667	-2.9938	-3.3229	-2.8667	-3.1208	-3.0938	140.168	-13.270	265.198	-18.535	311.420	148.863	112.399	56.693	289.601	28.755	188.756	221.081	165.938	233.190	15.720	54.421	2.1865e-05	5.1406e-05	3.9475e-05	61.657	5.6581e-07	7.7789e-07	62.84	21.296	5.7386e-07	3.6699e-07	23.594	12.189	10.216	5.0056	2.9298e-07	5.6401	2.4578e-06	-2.7121e-06	-2.7124e-07	72.285	-3.1462e-08	-2.4865e-08	73.531	24.957	1.9703e-07	-3.2091e-08	27.467	14.309	11.961	5.9025	-2.5615e-08	6.5588	156.475	29.276	32.690	-31.538	106.371	79.643	-32.722	-26.584	161.747	124.049	-29.290	-25.737	-23.439	-20.123	147.240	-23.694	-8191	255	
32667.629	1	1	0	0	0.12455	0.26909	0.023704	0.24471	0.1044	0.19122	0.16148	0.17471	0.17188	0.096418	0.10246	0.085143	0.14298	0.28325	0.30384	0.23617	-2.3937	-3.125	-3.0042	-2.9875	-3.15	-3.1	-3.15	-3.1375	-2.8292	-3.1333	-3.0396	-2.9542	-3.1792	-2.9396	-3.2146	-3.2062	73.037	59.760	41.485	129.355	36.293	184.476	-17.981	46.470	197.367	170.988	195.160	8.908	61.682	-38.468	219.643	57.286	2.3002e-05	3.4359e-05	1.1183e-05	61.726	3.9994e-07	1.0796e-06	62.802	21.378	5.0676e-07	2.0619e-07	23.922	12.266	10.223	5.0255	3.0735e-07	5.6636	2.255e-06	-2.8611e-06	-6.5926e-07	72.613	-2.3763e-08	-2.6111e-08	73.506	25.098	1.2453e-07	-3.6792e-08	27.66	14.396	11.983	5.918	1.0685e-08	6.585	160.214	65.469	23.091	-31.769	114.415	106.183	-32.344	-27.166	170.133	297.668	-29.676	-25.636	-23.419	-20.281	117.475	-23.174	-8191	255	
32667.725	1	1	0	0	0.11643	0.35381	0.12974	0.28005	0.2877	0.10268	0.35166	0.073477	0.17188	0.16757	0.15342	0.026815	0.043404	0.24376	0.076615	0.057945	-2.4625	-3.2042	-2.7958	-2.8354	-3.2479	-2.8875	-3.0812	-3.1521	-2.7812	-3.1729	-3.0771	-2.7979	-3.3292	-2.8833	-3.0792	-3.1125	-7.779	91.343	-3.642	118.505	8.853	277.328	201.818	249.928	45.339	93.470	-36.860	77.645	3.633	280.611	-44.726	68.822	2.2838e-05	5.9784e-05	2.2661e-05	61.479	3.7727e-07	6.8168e-07	62.788	21.279	8.5972e-07	6.3885e-07	23.699	12.228	10.206	5.0395	3.673e-08	5.6779	2.4011e-06	-2.5193e-06	-7.2251e-07	72.358	-2.5331e-08	-2.5536e-08	73.809	25.08	1.949e-07	-3.0844e-08	27.57	14.388	11.986	5.8987	1.0089e-07	6.5961	157.489	58.859	82.457	-31.717	113.916	69.265	-32.581	-26.923	250.912	109.682	-29.182	-25.658	-22.784	-20.350	-19.969	-23.570	-8191	255	
32667.820	1	1	0	0	0.18371	0.045666	0.056163	0.21394	0.025928	0.051972	0.047461	0.10478	0.14273	0.15201	0.21775	0.1716	0.24053	0.11547	0.079862	0.20956	-2.5479	-3.1333	-3.1292	-2.7521	-3.2687	-2.9083	-2.8292	-3.2812	-2.7833	-3.2812	-3.0458	-2.8229	-3.1688	-3.0083	-3.0146	-3.0854	87.680	276.188	51.822	229.492	279.763	146.138	238.937	139.218	301.921	290.030	116.305	43.249	186.431	1.961	298.455	79.594	2.5775e-05	3.1279e-05	2.2606e-05	62.004	4.7508e-07	2.8066e-07	62.735	21.03	1.6981e-07	5.8431e-07	23.821	12.199	10.128	5.0253	6.5863e-07	5.6563	2.4903e-06	-2.4448e-06	-7.2494e-07	72.793	-2.7422e-08	-2.8027e-08	73.702	24.9	1.2633e-07	-2.2881e-08	27.463	14.295	11.932	5.8654	1.9271e-07	6.5422	148.586	21.522	20.532	-31.808	112.588	-16.547	-32.233	-26.979	181.077	102.216	-29.457	-25.763	-23.106	-20.294	38.338	-23.340	-8191	255	
32667.939	1	1	0	0	0.27864	0.20289	0.11732	0.026691	0.17194	0.13664	0.15163	0.18906	0.063395	0.15732	0.13745	0.17119	0.14182	0.20293	0.13207	0.1566	-2.3125	-3.0896	-3.1021	-2.8229	-3.0729	-2.7479	-2.8979	-3.2104	-2.9792	-3.175	-3.1333	-2.775	-3.0375	-2.8479	-2.8292	-3.0833	202.753	-34.551	104.049	99.003	35.960	167.472	-25.509	289.641	203.899	114.438	288.902	263.823	176.984	195.679	89.868	19.160	2.1995e-05	7.5686e-05	1.4624e-05	61.277	1.4715e-07	3.3535e-07	62.686	21.206	1.454e-07	1.0581e-06	23.929	12.141	10.113	5.0116	3.5997e-07	5.6454	2.2348e-06	-2.3134e-06	-7.2737e-07	72.111	-2.5569e-08	-2.5919e-08	73.504	25.016	1.1752e-07	1.9763e-08	27.617	14.296	11.924	5.8677	1.2956e-07	6.5413	158.114	-8.663	66.413	-31.667	87.065	136.234	-32.195	-26.892	285.470	215.778	-29.338	-25.643	-23.451	-20.310	24.859	-23.165	-8191	255	
32668.035	1	1	0	0	0.4117	0.23076	0.20482	0.29711	0.10395	0.32464	0.14136	0.2419	0.065513	0.21913	0.37889	0.18818	0.032048	0.17278	0.26393	0.15227	-2.5521	-3.0187	-3.0792	-2.7208	-3.0583	-3.0333	-2.7646	-3.1063	-3.0563	-3	-3.3375	-2.7583	-2.9667	-3.1562	-2.7479	-3.1354	264.329	215.162	184.113	-44.242	184.711	234.979	135.704	273.808	181.556	130.153	201.234	131.041	2.547	120.327	161.141	60.567	2.6264e-05	4.36e-05	9.0359e-06	61.516	3.2521e-07	7.8448e-07	63.071	21.281	3.9229e-07	5.9372e-07	23.865	12.15	10.183	5.0089	6.8615e-07	5.68	2.109e-06	-1.8533e-06	-7.4683e-07	72.493	-2.2812e-08	-3.3633e-08	73.663	25.1	-1.867e-08	9.7857e-08	27.675	14.326	11.965	5.8648	2.0044e-07	6.5753	154.822	51.542	59.396	-31.446	123.612	114.108	-32.245	-26.818	9.744	214.577	-29.155	-25.727	-23.416	-20.136	17.374	-23.750	-8191	255	
32668.131	1	1	0	0	0.21093	0.10374	0.14481	0.39746	0.13429	0.18705	0.11149	0.075222	0.12482	0.37985	0.16497	0.18024	0.18942	0.20247	0.1355	0.066163	-2.5521	-2.8667	-3.2	-2.7708	-2.9917	-3.1271	-2.8646	-3.1125	-2.9437	-2.8479	-3.1479	-2.8667	-3.0125	-3.1646	-2.9	-3.2938	136.537	75.752	211.982	-9.276	279.165	143.310	290.212	130.856	138.083	208.076	-15.980	253.837	105.217	128.468	118.703	266.734	2.5092e-05	2.6419e-05	2.5656e-05	61.532	5.8055e-08	1.1662e-06	62.305	21.302	2.3902e-07	1.2072e-06	23.716	12.179	10.176	4.9906	2.7054e-07	5.6395	2.0117e-06	-1.827e-06	-8.7212e-07	72.211	-2.5141e-08	-3.1716e-08	73.64	25.155	-2.0376e-08	1.9048e-07	27.574	14.345	11.96	5.8675	1.3266e-07	6.5524	149.390	94.464	31.745	-31.558	226.472	79.185	-32.453	-26.541	45.473	266.304	-29.402	-25.606	-23.468	-20.345	20.209	-23.528	-8191	255	
32668.229	1	1	0	0	0.32349	0.043167	0.23606	0.17361	0.038721	0.16945	0.040167	0.21254	0.13443	0.024042	0.21765	0.073001	0.15187	0.20353	0.1028	0.15304	-2.6042	-2.7958	-3.1292	-2.8063	-2.8708	-3.3104	-2.9229	-3.0438	-3.0229	-2.7729	-3.1937	-3.0083	-2.8833	-3.0021	-2.7812	-3.1562	184.371	314.055	271.994	56.462	99.685	197.022	304.355	290.733	56.660	161.152	113.037	-31.955	126.085	286.747	124.281	55.452	2.41e-05	9.7776e-05	1.8261e-05	61.599	1.1919e-06	1.0863e-06	62.162	21.137	2.3929e-07	6.2529e-07	23.572	12.016	10.199	4.9661	1.3151e-06	5.6414	1.6507e-06	-2.1863e-06	-7.6994e-07	72.007	3.0559e-08	-3.1381e-08	73.197	24.887	-2.1182e-08	1.2093e-07	27.304	14.236	11.901	5.8443	1.8785e-07	6.5177	153.765	14.662	28.941	-31.771	208.488	124.871	-32.450	-26.677	49.631	309.810	-29.508	-25.609	-23.699	-20.313	28.390	-23.331	-8191	255	
32668.324	1	1	0	0	0.24692	0.022137	0.090407	0.089648	0.36172	0.06429	0.0099266	0.10224	0.074851	0.22148	0.24455	0.32006	0.055838	0.2815	0.064652	0.33136	-2.75	-2.7333	-3.0687	-2.9188	-2.9292	-3.4458	-2.7	-3.2188	-3.0875	-2.8333	-3.2938	-3.0042	-3.0062	-3.1146	-3.0625	-3.1479	173.130	62.408	-22.531	131.424	171.708	257.514	157.651	134.756	261.056	212.114	310.700	313.449	126.085	233.210	78.736	48.204	1.7531e-05	2.1033e-05	8.8155e-06	60.823	7.2344e-07	4.0226e-07	62.126	21.191	5.6234e-08	1.4293e-06	23.543	12.093	10.092	4.9815	7.6902e-07	5.6141	1.6913e-06	-1.9848e-06	-7.1399e-07	71.185	1.0494e-07	-2.9273e-08	73.168	24.886	-2.3788e-08	1.8929e-07	27.289	14.207	11.86	5.8313	1.287e-07	6.5237	147.921	16.505	22.827	-31.677	151.784	61.005	-32.299	-26.860	126.463	305.189	-29.278	-25.722	-23.571	-20.209	67.758	-23.219	-8191	255	
32668.420	1	1	0	0	0.1816	0.23413	0.10413	0.36678	0.3055	0.17873	0.14842	0.078815	0.31896	0.22418	0.13423	0.081659	0.17692	0.208	0.091589	0.19619	-2.5938	-2.9292	-3.2042	-2.9271	-3.0333	-3.3063	-2.8708	-2.9771	-3.1604	-2.9188	-3.3604	-3.0021	-3.0187	-3.2417	-3.0563	-3.0062	253.541	52.657	2.892	238.579	157.293	41.279	266.102	297.245	216.334	3.863	163.674	66.498	63.649	-40.310	268.965	33.769	2.2416e-05	5.337e-05	3.8313e-06	61.421	1.3117e-06	1.4231e-07	62.487	21.039	4.0116e-07	7.1243e-07	23.36	12.115	10.123	4.9704	1.1916e-06	5.6022	1.7035e-06	-1.9059e-06	-8.6968e-07	71.336	1.9229e-07	-3.8424e-08	73.224	24.751	-2.7484e-08	1.2309e-07	27.214	14.236	11.854	5.8354	1.0084e-07	6.5524	159.333	34.632	15.914	-31.785	139.954	-41.378	-32.656	-27.029	112.446	242.578	-29.466	-25.595	-23.318	-20.356	20.424	-23.695	-8191	255	
32668.539	1	1	0	0	0.16803	0.26353	0.11275	0.099721	0.042559	0.20885	0.12416	0.15322	0.27181	0.067392	0.053783	0.090418	0.16087	0.20116	0.34888	0.018669	-2.5938	-2.9	-3.0375	-3.0167	-2.8229	-3.1063	-3.0042	-2.7375	-3.2146	-2.9792	-3.1771	-3.1583	-2.9708	-3.1312	-2.8458	-3.0563	90.351	31.643	265.859	194.039	135.093	225.468	-22.818	-4.464	219.652	256.481	58.709	17.834	125.002	291.448	198.745	14.905	2.4026e-05	5.2755e-05	2.0889e-05	60.791	9.185e-07	9.6897e-07	62.004	20.977	9.7433e-08	7.7119e-07	23.651	12.088	10.028	4.9642	1.5228e-07	5.587	1.2249e-06	-2.0724e-06	-7.8089e-07	71.101	1.1934e-07	-3.6507e-08	73.026	24.688	-2.4262e-08	1.9092e-07	27.295	14.211	11.832	5.8206	-1.7888e-08	6.5419	154.910	83.264	38.439	-31.917	146.289	115.176	-32.258	-26.855	228.640	-24.533	-28.988	-25.670	-23.468	-20.003	122.281	-23.318	-8191	255	
32668.637	1	1	0	0	0.13286	0.10593	0.112	0.1029	0.13336	0.10916	0.45592	0.18093	0.030869	0.23667	0.080416	0.049241	0.20792	0.24785	0.10615	0.046385	-2.6708	-2.8333	-3.2292	-3.0479	-2.7062	-3.0521	-2.9375	-2.8833	-2.9583	-2.8854	-2.8917	-3.0104	-2.6958	-3.15	-3.0312	-2.7875	171.956	-3.233	97.042	195.057	113.044	106.640	263.748	277.892	96.281	268.541	298.151	174.066	-43.875	68.763	111.822	304.362	1.8141e-05	0.00011381	1.657e-05	61.195	1.4597e-06	5.0439e-07	62.349	20.999	3.3808e-07	8.7236e-07	23.506	12.089	10.081	4.963	1.7382e-07	5.5859	1.4966e-06	-2.1162e-06	-7.4683e-07	71.325	1.9851e-07	-3.1956e-08	73.036	24.72	-2.8337e-08	1.1647e-07	27.211	14.225	11.879	5.8366	-2.1465e-08	6.5747	153.783	21.313	13.822	-31.627	157.622	119.305	-32.213	-26.258	126.620	13.967	-29.188	-25.672	-23.137	-20.330	128.792	-23.811	-8191	255	
32668.730	1	1	0	0	0.11137	0.28374	0.15192	0.12709	0.14828	0.234	0.10213	0.16577	0.14401	0.35426	0.14837	0.20812	0.15997	0.094028	0.32116	0.14825	-2.7062	-2.8417	-3.1562	-3.0646	-2.8104	-2.95	-2.875	-2.8792	-3.0979	-2.7521	-3.0708	-3.0979	-2.85	-3.2042	-2.85	-2.9625	137.759	187.676	12.357	-9.479	191.328	291.760	179.498	269.696	-12.130	290.283	117.432	-20.412	158.596	203.696	69.026	312.731	2.3385e-05	4.3354e-05	2.008e-05	61.474	1.0436e-06	3.5237e-07	62.594	21.19	2.2477e-07	6.2884e-07	23.686	12.226	10.122	4.9889	3.2838e-07	5.64	1.4682e-06	-1.8051e-06	-7.4805e-07	71.386	1.354e-07	-3.1525e-08	73.242	24.99	-2.8432e-08	8.5481e-08	27.658	14.35	11.954	5.8535	-2.3087e-08	6.5899	158.608	-27.300	67.782	-31.482	188.338	85.241	-32.423	-27.034	138.841	55.878	-29.285	-25.604	-23.255	-20.209	51.524	-23.199	-8191	255	
32668.826	1	1	0	0	0.25276	0.0063336	0.1014	0.18009	0.29135	0.23026	0.094078	0.29024	0.21506	0.15479	0.084583	0.26927	0.14507	0.099949	0.15812	0.11661	-2.7396	-2.6854	-3.0021	-3.2021	-2.6604	-3.1458	-3.0021	-2.7542	-3.1354	-3.0938	-3	-3.1208	-2.8208	-3.0354	-3.2062	-2.8125	275.096	280.010	104.254	-12.915	230.448	169.405	208.791	235.884	254.775	62.105	33.949	269.849	23.197	290.630	-5.301	214.922	2.6085e-05	5.2784e-05	1.4315e-05	61.459	9.0579e-07	6.6383e-07	62.769	21.22	5.5035e-07	4.2779e-07	23.744	12.191	10.146	5.0111	3.7856e-07	5.6448	1.7886e-06	-2.0636e-06	-5.2911e-07	71.687	1.968e-07	-3.2148e-08	73.594	25.019	-2.7058e-08	-2.5088e-08	27.807	14.321	11.94	5.8713	-2.4852e-08	6.619	142.350	61.662	60.737	-31.458	158.264	-10.908	-32.493	-26.826	57.839	86.209	-29.925	-25.533	-23.094	-20.028	83.255	-23.444	-8191	255	
32668.900	1	1	0	0	0.066916	0.1312	0.21096	0.11688	0.14514	0.14983	0.019628	0.199	0.11653	0.15022	0.072272	0.18524	0.2612	0.14702	0.12335	0.14375	-2.7229	-2.9354	-2.9375	-3.1125	-2.9083	-3.2521	-3.1417	-2.9062	-3.25	-2.9458	-3.0146	-3.275	-2.95	-3.0542	-3.1583	-2.8625	120.035	249.511	116.186	186.973	251.386	86.496	289.790	202.798	291.434	98.686	157.283	-45.049	306.547	291.856	151.977	168.763	2.7596e-05	3.7357e-05	1.5055e-05	61.1	5.1895e-07	4.9748e-07	62.639	21.142	1.2964e-07	7.5435e-07	23.758	12.036	10.235	4.9803	4.2322e-07	5.597	1.2654e-06	-2.6376e-06	-5.3033e-07	71.309	1.2147e-07	-2.9417e-08	73.215	24.947	-2.739e-08	-3.1036e-08	27.821	14.271	11.976	5.8538	-2.3373e-08	6.5765	145.221	68.542	35.233	-31.606	208.660	101.151	-32.638	-27.194	93.266	103.986	-29.330	-25.604	-23.524	-20.548	92.806	-23.286	-8191	255	
32669.020	1	1	0	0	0.1499	0.024979	0.078711	0.33266	0.203	0.43829	0.16657	0.26147	0.11299	0.093909	0.16889	0.042041	0.27951	0.34293	0.17751	0.017606	-2.7313	-2.9229	-2.9479	-3.0687	-2.6896	-3.1479	-3.1312	-2.9062	-3.2125	-2.9375	-2.8854	-3.2229	-2.6771	-2.9792	-3.1688	-2.9167	308.839	229.731	271.240	231.435	-10.231	211.234	233.529	-42.824	181.004	205.150	52.240	-11.278	286.126	293.594	159.275	75.389	2.6404e-05	4.2558e-05	1.2803e-05	61.072	7.5515e-07	1.2819e-06	62.038	21.346	4.6989e-07	7.3148e-07	23.774	12.212	10.245	5.0027	1.6981e-07	5.651	1.8413e-06	-2.3966e-06	-5.437e-07	71.264	8.2551e-08	5.3515e-08	73.242	25.168	-2.3456e-08	-2.7966e-08	27.956	14.373	11.994	5.876	-2.8239e-08	6.648	161.294	75.740	75.167	-31.683	118.639	228.670	-32.217	-26.913	129.116	116.042	-29.657	-25.656	-23.388	-20.542	115.205	-23.475	-8191	255	
32669.115	1	1	0	0	0.074002	0.14363	0.12455	0.17513	0.13193	0.11345	0.21395	0.11955	0.17816	0.1139	0.059593	0.19817	0.073254	0.20466	0.17634	0.16037	-2.8292	-3.1125	-2.9313	-3.1354	-2.8458	-2.9229	-3.1479	-2.8583	-3.2208	-2.9625	-2.8667	-3.2604	-2.9	-2.9542	-3.075	-2.7062	135.761	300.366	54.452	269.934	118.735	176.334	111.748	-6.817	100.555	160.596	-10.845	62.935	160.371	309.590	293.169	315.352	2.6275e-05	6.6787e-05	1.2097e-05	61.194	6.7e-07	6.3295e-07	62.44	21.571	2.9128e-07	3.8081e-07	23.938	12.283	10.263	5.0359	4.5385e-07	5.6762	1.9387e-06	-2.3922e-06	-5.0113e-07	71.305	-1.8915e-08	1.2236e-07	73.493	25.395	-2.2319e-08	-2.9309e-08	28.362	14.467	12.054	5.9003	-2.4137e-08	6.6488	145.466	36.691	70.395	-31.732	89.132	170.917	-32.464	-26.569	84.490	115.656	-29.409	-25.480	-23.108	-20.268	147.287	-23.568	-8191	255	
32669.213	1	1	0	0	0.12375	0.12836	0.12834	0.12238	0.22473	0.081709	0.073745	0.11775	0.17852	0.22156	0.036545	0.26637	0.1809	0.18746	0.17014	0.050047	-2.5667	-2.9875	-2.8979	-2.9792	-3.0583	-2.9313	-3.0729	-2.7854	-2.9479	-3.0563	-2.9542	-3.125	-2.9437	-2.8104	-3.3812	-2.8104	135.257	190.703	19.814	251.352	58.835	67.835	145.207	250.067	121.354	262.216	263.377	140.070	49.654	166.270	177.827	234.260	2.3887e-05	6.7633e-05	1.3353e-05	61.338	2.1617e-07	1.7248e-06	62.643	21.356	2.0323e-07	5.941e-07	23.891	12.182	10.073	4.9624	5.1507e-07	5.6343	1.7359e-06	-2.4536e-06	-5.5465e-07	71.42	-2.4238e-08	1.88e-07	73.504	25.178	-1.9855e-08	-2.8733e-08	27.906	14.321	11.929	5.8414	-2.9098e-08	6.5553	162.084	42.076	64.497	-31.701	56.745	170.092	-32.673	-26.654	180.697	129.002	-29.269	-25.419	-23.186	-20.197	77.603	-23.614	-8191	255	
32669.309	1	1	0	0	0.15637	0.15829	0.13969	0.10632	0.091261	0.18072	0.16552	0.1769	0.14151	0.1866	0.15925	0.081215	0.14657	0.16641	0.075903	0.12145	-2.4813	-3.0812	-2.8583	-3.0396	-2.8542	-2.9521	-3.3167	-2.65	-2.9875	-3.2625	-2.8833	-3.2021	-2.8812	-2.9042	-3.2375	-2.9583	114.464	285.096	26.256	37.752	-26.080	66.449	230.194	201.347	52.810	82.679	299.519	199.024	174.088	-43.225	224.220	221.995	3.0987e-05	4.6232e-05	2.8822e-05	60.7	5.5644e-07	1.262e-06	61.977	21.181	1.1222e-07	4.1676e-07	23.543	12.093	10.13	4.9868	1.4849e-07	5.6003	9.5109e-06	-2.6507e-06	-4.6099e-07	71.083	-2.2812e-08	1.2121e-07	73.035	24.995	-1.8907e-08	-3.2571e-08	27.844	14.234	11.912	5.8268	-2.4995e-08	6.5293	145.901	71.966	40.838	-31.926	91.485	182.785	-32.447	-26.673	199.069	137.983	-29.211	-25.956	-22.963	-20.520	51.847	-23.550	-8191	255	
32669.430	1	1	0	0	0.11096	0.11575	0.14026	0.11242	0.12525	0.049591	0.1836	0.21999	0.056178	0.36052	0.1397	0.22572	0.12169	0.11145	0.2404	0.11928	-2.5979	-3.1958	-2.6396	-2.9729	-2.8125	-2.7625	-3.1521	-3.0396	-3.0875	-3.2104	-2.9354	-3.1792	-3.1646	-2.7979	-3.2167	-2.9333	-5.618	-4.993	216.623	246.154	59.088	192.624	215.216	-6.766	-12.339	92.590	31.461	53.104	114.122	-41.111	153.392	116.470	2.4658e-05	7.449e-05	1.5834e-05	60.921	2.2554e-07	1.2234e-06	62.155	21.177	4.7133e-07	9.1427e-07	23.861	12.216	10.154	4.9781	8.6101e-07	5.603	1.4147e-05	-2.6201e-06	-3.3085e-07	71.315	-2.2812e-08	1.9174e-07	73.013	24.948	-1.7154e-08	-3.3578e-08	27.873	14.272	11.889	5.8293	-2.4184e-08	6.5232	141.476	9.814	59.488	-31.786	78.188	171.399	-32.619	-26.924	89.643	93.587	-29.732	-25.520	-23.391	-20.584	70.315	-22.898	-8191	255	
32669.500	1	1	0	0	0.33913	0.16964	0.26547	0.1063	0.18955	0.17941	0.1621	0.24287	0.13153	0.13373	0.073842	0.29772	0.32387	0.26661	0.19472	0.15128	-2.6	-3.2167	-2.8521	-3.0125	-3.1292	-2.8646	-3.1542	-2.8063	-2.9938	-3.0896	-2.8563	-3.0479	-3.0438	-2.7771	-3.0354	-3.0667	259.715	162.407	46.661	218.571	307.024	89.270	252.210	-31.819	87.824	311.014	38.939	215.276	306.861	23.002	-34.541	44.151	2.6782e-05	4.2521e-05	2.71e-05	60.948	5.868e-07	5.0021e-07	62.556	21.106	6.2095e-07	2.9951e-07	23.794	12.025	10.162	4.9574	3.3181e-07	5.584	2.0125e-05	-2.6113e-06	-4.7072e-07	71.24	-2.785e-08	1.2931e-07	73.34	24.89	-1.0946e-08	-3.5305e-08	27.651	14.335	11.905	5.8261	-2.1465e-08	6.5268	116.104	-7.746	27.808	-31.984	61.974	210.729	-32.792	-26.808	73.969	172.674	-29.204	-25.620	-23.377	-20.308	141.671	-23.653	-8191	255	
32669.621	1	1	0	0	0.28201	0.14495	0.22338	0.19699	0.15569	0.074812	0.037206	0.20446	0.29973	0.099383	0.21686	0.086313	0.079266	0.37698	0.077955	0.0417	-2.5646	-3.3854	-2.9021	-3.1271	-3.0854	-2.9437	-2.9833	-2.8021	-3.0083	-3.2333	-2.8917	-2.9	-2.9688	-2.7229	-3.0625	-3.1125	102.214	131.404	265.967	120.935	-43.935	118.239	188.357	299.167	111.249	189.687	86.589	70.334	-29.431	186.496	226.454	283.899	2.9945e-05	1.8567e-05	1.2598e-05	60.79	2.7554e-07	1.5653e-06	62.43	20.92	4.4606e-07	4.3906e-07	23.301	12.098	10.09	4.9118	3.2041e-07	5.5609	1.4435e-05	-2.826e-06	-6.2885e-07	71.312	-2.5616e-08	1.879e-07	72.996	24.702	-1.8481e-08	-3.5833e-08	27.123	14.256	11.822	5.7767	-2.1704e-08	6.4577	127.235	290.575	104.494	-31.850	136.431	201.920	-32.505	-27.120	72.015	115.338	-29.551	-26.116	-23.363	-20.336	27.756	-23.101	-8191	255	
32669.717	1	1	0	0	0.33999	0.29045	0.17868	0.10596	0.29589	0.11068	0.30519	0.10795	0.10543	0.13113	0.11852	0.35145	0.12069	0.050213	0.15279	0.29004	-2.5187	-3.1417	-2.7708	-2.7979	-3.1917	-2.8292	-2.9375	-2.7938	-2.7729	-3.2667	-2.85	-2.9083	-3.0458	-2.7854	-3.2542	-2.9875	71.978	285.557	35.308	47.919	245.800	164.565	87.211	109.981	267.767	3.100	289.083	59.575	229.771	40.615	214.333	147.490	2.5807e-05	3.2275e-05	1.6276e-05	60.649	3.6286e-07	3.5545e-07	61.979	21.011	4.487e-07	3.2379e-07	23.251	11.986	10.019	4.9092	2.3747e-07	5.5342	2.0336e-05	-2.8391e-06	-5.6073e-07	70.895	-2.6424e-08	1.1302e-07	72.742	24.677	-1.9144e-08	-3.9191e-08	27.066	14.222	11.756	5.7658	-2.428e-08	6.4493	115.761	28.384	28.512	-32.155	114.667	98.850	-32.031	-27.001	67.529	33.701	-29.376	-25.994	-23.598	-20.038	29.027	-23.239	-8191	255	
32669.811	1	1	0	0	0.18415	0.10878	0.10912	0.186	0.25628	0.23081	0.11105	0.071388	0.18333	0.22215	0.10228	0.25362	0.12062	0.08073	0.18326	0.11863	-2.5271	-3.1479	-2.9833	-2.9271	-3.2771	-2.9979	-3.0646	-2.9875	-2.8042	-3.3833	-3.0563	-2.8854	-3.1146	-2.8271	-2.9917	-3.1437	248.845	98.785	90.205	-6.474	70.935	302.080	254.728	264.802	312.546	250.675	109.872	-22.914	46.042	279.823	53.623	137.160	2.5757e-05	1.1827e-05	1.3864e-05	60.811	2.5046e-08	3.3709e-07	62.219	21.003	3.5528e-07	4.5435e-07	23.139	12.036	10.023	4.923	1.4256e-07	5.5731	1.4333e-05	-3.0495e-06	-7.1156e-07	71.127	-3.1177e-08	4.4796e-08	73.225	24.683	-1.1515e-08	-3.0988e-08	27.056	14.243	11.808	5.7935	-2.1131e-08	6.4886	133.498	44.841	22.110	-32.005	308.822	269.163	-32.441	-26.674	40.336	168.591	-29.909	-25.855	-23.227	-20.372	52.813	-23.721	-8191	255	
32669.908	1	1	0	0	0.27056	0.16473	0.12266	0.055535	0.15515	0.2031	0.10187	0.20706	0.19138	0.029356	0.17064	0.078897	0.27137	0.20158	0.076983	0.31763	-2.4292	-3.0687	-3.1479	-3.0125	-3.175	-2.9875	-2.9083	-3.1042	-2.7583	-3.1271	-2.9729	-2.9979	-3.2021	-2.8854	-2.8521	-3.2229	97.027	-20.743	136.973	108.829	237.496	-31.032	-38.780	166.525	189.457	305.199	23.704	-38.731	255.553	212.591	272.324	73.803	2.9843e-05	1.3668e-05	1.9245e-05	60.825	1.0255e-07	7.7537e-07	62.244	21.029	2.3471e-07	3.8243e-07	23.538	12	10.059	4.9185	2.0662e-07	5.5386	2.002e-05	-2.6113e-06	-6.8115e-07	71.154	-3.2365e-08	-2.7644e-08	73.6	24.756	-1.8291e-08	-3.8327e-08	27.268	14.274	11.816	5.7785	-2.1322e-08	6.4505	134.362	217.753	55.131	-31.472	313.475	113.749	-32.498	-27.228	126.930	130.898	-29.384	-25.545	-23.123	-20.236	44.060	-23.441	-8191	255	
32670.027	1	1	0	0	0.070863	0.10239	0.072279	0.16927	0.15567	0.1074	0.090131	0.087546	0.31074	0.11965	0.068785	0.33293	0.13397	0.21042	0.020116	0.14749	-2.5771	-3.225	-2.9062	-2.7875	-3.1583	-2.8729	-3.0854	-2.9979	-2.8292	-3.0396	-3.1354	-2.7771	-3.2188	-3.0333	-2.95	-3.1333	22.865	-34.940	84.410	38.887	221.458	54.792	93.217	33.444	165.094	59.324	47.637	308.022	88.514	-21.555	182.403	300.123	1.9309e-05	6.7154e-05	2.8909e-05	60.441	5.2849e-07	8.4411e-07	61.891	20.931	1.3317e-07	4.2559e-07	23.145	11.899	9.9361	4.8857	3.8251e-07	5.4975	1.3056e-05	-2.8873e-06	-8.5509e-07	70.91	-2.9133e-08	-2.7644e-08	73.245	24.522	-1.8054e-08	-2.5999e-08	26.94	14.125	11.734	5.7389	-1.2355e-08	6.4044	146.089	0.848	70.692	-31.598	142.779	128.832	-32.210	-26.739	174.084	92.691	-29.416	-25.601	-23.270	-20.395	110.962	-23.805	-8191	255	
32670.123	1	1	0	0	0.074672	0.20385	0.1186	0.153	0.037585	0.23406	0.26775	0.24041	0.29534	0.066225	0.092733	0.31219	0.12071	0.14717	0.084088	0.15429	-2.4479	-3.1583	-2.9688	-2.7687	-3.1937	-2.9625	-2.8146	-3.2792	-2.8958	-3.0479	-2.9333	-2.7396	-3.0479	-2.9958	-2.7521	-3.1396	303.671	70.152	79.920	251.064	-37.841	56.059	112.287	297.961	242.120	-1.134	70.326	99.203	176.507	287.272	78.510	304.784	1.4869e-05	0.00015602	2.2043e-05	60.951	5.3388e-07	9.4188e-07	61.573	20.88	2.5083e-07	5.7506e-07	23.329	12.021	10.015	4.9029	2.8639e-07	5.531	7.2883e-06	8.6314e-06	-6.7994e-07	71.025	-2.8515e-08	-2.5728e-08	73.024	24.571	-1.9523e-08	-2.7342e-08	26.992	14.238	11.77	5.7542	-1.4024e-08	6.4418	121.232	102.681	71.546	-31.398	101.946	71.807	-33.010	-26.637	281.637	71.086	-29.663	-25.514	-23.209	-20.264	89.422	-23.215	-8191	255	
32670.195	1	1	0	0	0.29349	0.36241	0.077575	0.17783	0.24165	0.14029	0.086791	0.034296	0.091865	0.052018	0.17068	0.26086	0.13468	0.13122	0.22948	0.2924	-2.4521	-2.9354	-2.9333	-2.8375	-3.1792	-3.0812	-2.7938	-3.1708	-3.0417	-2.8563	-3.15	-2.7208	-3.0896	-2.9396	-2.8167	-2.9208	278.082	215.018	230.497	228.734	141.279	-1.831	128.654	29.312	171.078	229.349	-30.321	154.309	147.750	254.198	57.218	210.994	2.814e-05	9.6986e-05	1.8782e-05	60.682	5.0649e-07	4.6017e-07	61.275	21.057	1.0349e-07	4.3106e-07	23.377	11.924	10.041	4.9049	3.6599e-07	5.5289	2.036e-06	1.1063e-05	-7.7968e-07	71.022	-2.7089e-08	-2.98e-08	73.257	24.643	-2.0376e-08	-2.4608e-08	27.104	14.17	11.774	5.7603	-1.3833e-08	6.4514	139.646	96.538	50.586	-31.263	98.748	13.377	-32.279	-26.672	118.934	93.913	-29.578	-25.786	-23.305	-20.382	27.766	-23.369	-8191	255	
32670.316	1	1	0	0	0.26235	0.076957	0.26875	0.10198	0.20439	0.26767	0.37198	0.075397	0.12978	0.030571	0.20691	0.16856	0.048226	0.097864	0.2107	0.10507	-2.5708	-2.7583	-3.175	-2.8146	-3.0375	-3.1021	-2.8021	-3.2479	-2.85	-2.9437	-3.1125	-2.7104	-3.1562	-2.8354	-2.9417	-3.2042	54.521	93.055	159.067	86.290	138.708	242.414	14.809	-11.242	-34.988	171.630	234.985	-8.474	87.625	169.030	298.409	-11.683	1.7414e-05	0.00015571	1.1044e-05	60.853	3.6372e-07	5.2984e-07	61.685	20.816	3.0465e-07	2.1963e-07	23.331	12.013	10.062	4.8953	4.1967e-07	5.5147	1.9103e-06	1.7017e-05	-7.3954e-07	70.855	-2.9038e-08	-3.5453e-08	73.023	24.671	-2.1703e-08	-2.5424e-08	27.139	14.16	11.919	5.7587	-1.3738e-08	6.4313	160.280	66.464	8.178	-31.791	143.032	91.473	-32.538	-26.866	246.114	78.761	-29.758	-25.622	-23.162	-20.209	100.999	-23.317	-8191	255	
32670.412	1	1	0	0	0.16697	0.051233	0.18202	0.33463	0.096388	0.10835	0.056229	0.14693	0.1426	0.25711	0.10042	0.38325	0.0397	0.14694	0.13771	0.11949	-2.4208	-3.0396	-3.0396	-2.775	-3.0604	-3.0646	-2.6354	-3.1792	-3.0146	-2.9125	-3.0271	-2.8708	-2.9583	-3.0875	-2.8229	-2.9396	169.945	131.721	284.573	167.058	246.570	194.154	10.663	11.670	87.433	303.439	-34.565	269.169	40.467	25.646	166.223	312.722	2.7612e-05	0.0001098	1.0013e-05	60.631	1.5133e-07	4.5443e-07	61.384	21.112	2.3306e-07	1.8512e-07	23.623	12.079	10.223	4.9424	4.1253e-07	5.5121	1.959e-06	1.1194e-05	-8.1495e-07	70.677	-2.3763e-08	-3.5166e-08	73.144	25.005	-2.3456e-08	-2.2689e-08	27.477	14.27	12.017	5.7871	-1.493e-08	6.4595	149.879	89.395	69.912	-31.524	72.213	90.765	-32.895	-26.659	119.645	126.594	-29.090	-25.391	-23.094	-20.554	77.186	-23.430	-8191	255	
32670.510	1	1	0	0	0.17684	0.11437	0.17576	0.041249	0.26333	0.084008	0.044877	0.042274	0.27485	0.073636	0.067817	0.035348	0.17999	0.094535	0.1273	0.074826	-2.4979	-2.8563	-3.1396	-2.8375	-3.0292	-3.0292	-2.9625	-2.9875	-3.0333	-2.7687	-3.0375	-2.9292	-2.7938	-3.0292	-2.8312	-3.1479	44.239	32.567	92.712	14.181	301.328	42.481	232.780	183.680	60.775	111.307	189.347	74.128	181.790	61.755	69.863	55.435	1.9578e-05	0.00014776	9.3833e-06	60.452	5.3671e-07	5.137e-07	61.757	21.605	2.8738e-07	5.8151e-07	23.94	12.209	10.21	4.9546	1.7386e-07	5.5865	1.5331e-06	1.6925e-05	-7.9062e-07	71.01	-2.2479e-08	-3.6411e-08	73.308	25.287	-2.104e-08	-1.8276e-08	27.74	14.305	12.081	5.8204	-1.4263e-08	6.4939	145.956	111.420	64.734	-31.417	143.649	87.832	-32.171	-26.616	98.649	72.640	-29.557	-26.044	-23.494	-20.308	137.060	-23.771	-8191	255	
32670.605	1	1	0	0	0.09292	0.097836	0.04887	0.23054	0.22888	0.28925	0.12685	0.15832	0.14734	0.16987	0.26608	0.21116	0.30493	0.11439	0.068249	0.20074	-2.7417	-2.7542	-2.9625	-2.8083	-2.7667	-3.1937	-2.7708	-3.0625	-3.0771	-2.7021	-3.1354	-2.9437	-2.8292	-3.0167	-2.8438	-3.0854	211.759	248.581	92.944	21.421	209.221	22.672	97.782	181.371	16.307	242.563	152.494	274.905	-1.230	269.756	13.577	252.277	2.7535e-05	9.2732e-05	1.8324e-05	60.834	4.2378e-07	7.4126e-07	61.97	21.592	7.0552e-08	3.5905e-07	23.948	12.113	10.253	4.9467	3.642e-07	5.6056	1.6953e-06	1.1431e-05	-7.4075e-07	71.052	-1.8535e-08	-3.6364e-08	73.108	25.572	-2.2272e-08	-1.842e-08	27.963	14.375	12.133	5.8254	-1.6171e-08	6.5289	166.285	95.586	74.803	-31.796	137.257	93.184	-32.432	-26.943	194.094	118.087	-29.490	-25.761	-23.400	-20.166	64.452	-23.509	-8191	255	
32670.725	1	1	0	0	0.10929	0.14025	0.13283	0.10452	0.087096	0.31669	0.16918	0.25236	0.10798	0.29015	0.094532	0.17404	0.10457	0.19223	0.16874	0.11512	-2.5646	-2.7917	-3.2854	-2.8875	-2.8729	-3.1854	-2.8812	-2.8063	-2.9458	-2.7958	-3.1292	-3.0542	-2.8354	-2.9875	-3.0042	-3.0771	279.958	128.250	204.944	38.802	158.739	-27.995	286.861	108.331	33.293	25.477	-19.665	36.308	192.240	42.906	25.571	192.252	2.0999e-05	9.8659e-05	1.7556e-05	60.886	2.3226e-07	8.9059e-07	62.255	21.646	4.2564e-07	6.1373e-07	24.015	12.252	10.278	4.9503	2.9887e-07	5.5866	1.5899e-06	1.7311e-05	-7.2981e-07	70.901	-1.8392e-08	-3.4878e-08	73.024	25.648	-2.5494e-08	-2.4992e-08	27.856	14.361	12.151	5.8239	-1.536e-08	6.4975	168.451	84.627	78.770	-31.930	138.387	105.833	-32.651	-27.171	92.043	108.441	-29.482	-25.633	-23.585	-20.290	60.316	-23.577	-8191	255	
32670.797	1	1	0	0	0.27273	0.080097	0.054618	0.19491	0.18254	0.090042	0.19861	0.074304	0.26893	0.16548	0.17664	0.18849	0.084122	0.091225	0.151	0.14266	-2.6937	-2.7542	-3.0896	-2.9417	-2.8167	-3.2167	-3.0125	-3.0563	-3.0833	-2.8958	-3.2333	-3.0062	-2.8375	-3.0833	-2.8146	-3.0333	205.003	117.794	-39.531	250.994	44.804	240.137	288.829	171.926	152.784	-32.324	37.890	53.899	255.897	-17.660	243.290	64.230	2.9006e-05	4.7112e-05	2.6945e-05	60.818	4.1404e-07	6.1741e-07	61.994	21.631	4.0635e-07	5.5936e-07	24.002	12.146	10.237	4.9765	3.4593e-07	5.6029	1.4763e-06	8.1669e-06	-3.6977e-07	70.998	-1.3687e-08	-3.4256e-08	72.973	25.699	-2.6584e-08	-2.3265e-08	27.866	14.315	12.076	5.8256	-1.8079e-08	6.493	162.178	78.860	123.448	-32.101	97.391	96.679	-32.522	-26.805	145.816	113.379	-29.328	-25.764	-23.567	-20.148	149.778	-23.260	-8191	255	
32670.895	1	1	0	0	0.083207	0.23623	0.12109	0.3159	0.10472	0.14303	0.14011	0.10888	0.16641	0.075218	0.095348	0.25693	0.084692	0.049838	0.23171	0.16388	-2.8021	-2.7354	-3.0854	-2.9292	-2.8333	-3.1708	-3.0062	-2.9771	-3.0812	-2.8333	-3.0479	-3.1104	-2.8312	-3.0062	-2.7604	-2.8354	-41.859	241.188	210.861	109.362	226.183	-6.044	301.445	67.604	-8.541	121.441	199.962	36.086	179.205	119.028	312.453	289.739	2.0358e-05	4.9283e-05	2.2742e-05	60.913	3.8853e-07	3.886e-07	62.145	21.456	3.3046e-07	4.61e-07	23.893	12.197	10.205	4.9583	6.2287e-07	5.6019	1.4195e-06	4.8634e-07	2.9058e-06	70.942	-2.2052e-08	-3.21e-08	73.04	25.557	-2.8148e-08	-2.3169e-08	27.847	14.349	12.121	5.8222	-1.846e-08	6.5247	154.742	6.528	183.107	-31.895	151.379	62.151	-32.722	-27.291	105.712	87.335	-29.338	-25.578	-23.018	-20.227	125.233	-23.432	-8191	255	
32670.990	1	1	0	0	0.13336	0.18737	0.11351	0.028773	0.12028	0.18702	0.11926	0.029753	0.1806	0.31383	0.07071	0.21045	0.24141	0.20667	0.19342	0.19185	-2.6958	-2.8354	-3	-3.0458	-2.8438	-3.1083	-2.975	-2.8583	-3.2667	-2.8833	-2.9375	-3.0667	-2.775	-3.0062	-2.9792	-2.7729	125.108	223.191	296.948	33.715	206.541	102.496	-39.487	121.989	145.489	195.518	5.045	5.799	-22.823	34.077	232.080	203.680	2.4209e-05	5.1442e-05	1.7483e-05	60.59	3.0386e-07	4.9156e-07	62.391	21.516	3.7439e-07	7.4404e-07	23.878	12.134	10.154	4.9182	3.7242e-07	5.557	1.7967e-06	-1.9366e-06	3.1418e-06	71.061	-1.5113e-08	-3.3441e-08	73.161	25.647	-2.9949e-08	-1.9523e-08	27.821	14.279	12.028	5.8074	-2.5234e-08	6.4763	163.787	46.527	134.949	-31.852	129.870	173.556	-32.694	-26.916	101.917	70.973	-29.347	-25.534	-23.409	-20.204	276.914	-23.114	-8191	255	
32671.109	1	1	0	0	0.072775	0.14133	0.022939	0.11748	0.10663	0.27676	0.20679	0.0394	0.27415	0.17355	0.21436	0.18613	0.16784	0.31012	0.21053	0.17553	-2.6875	-2.7562	-2.8771	-3.1188	-2.7521	-3.1437	-2.8875	-2.8458	-3.2292	-2.9604	-2.9604	-3.2021	-2.9333	-2.8875	-3.2667	-2.8896	-6.782	117.163	-4.516	165.780	284.780	-17.218	153.941	30.778	55.670	-43.506	211.565	-38.334	235.922	123.534	-24.426	314.252	2.303e-05	4.2866e-05	3.8682e-05	61.059	8.7284e-07	2.9834e-07	62.125	21.528	2.3814e-07	3.7172e-07	24.052	12.185	10.171	4.9277	4.8592e-07	5.5766	1.4317e-06	-1.8884e-06	4.7924e-06	71.078	-1.9818e-08	-3.1525e-08	72.719	25.544	-2.7721e-08	-2.7102e-08	27.838	14.281	11.966	5.8251	-2.1465e-08	6.4712	167.440	20.012	127.118	-31.794	54.385	113.987	-32.719	-26.854	18.265	78.323	-29.321	-25.897	-23.510	-20.284	66.352	-23.251	-8191	255	
32671.205	1	1	0	0	0.073697	0.18959	0.18023	0.17299	0.057581	0.12563	0.088771	0.21033	0.17177	0.20812	0.25428	0.31267	0.1492	0.068774	0.26348	0.048858	-2.7375	-2.8438	-2.8896	-3.3021	-2.8	-3.0958	-3.1667	-2.9542	-3.2917	-2.9625	-2.9813	-3	-2.9	-2.9875	-2.9542	-2.7271	103.364	-16.643	-33.015	253.302	43.409	204.918	110.637	162.917	308.109	311.810	264.616	300.570	116.460	244.087	20.573	-13.849	2.5123e-05	2.8373e-05	3.1062e-05	60.777	4.5935e-07	1.1137e-06	62.179	21.666	3.7108e-07	5.8545e-07	23.841	12.122	10.076	4.956	3.6905e-07	5.6225	1.4195e-06	-2.0505e-06	3.098e-06	70.969	-2.3573e-08	-2.5584e-08	73.041	25.691	-2.5305e-08	-2.6623e-08	27.8	14.257	11.931	5.8276	-2.2849e-08	6.4974	163.680	87.856	162.365	-31.993	115.155	125.374	-32.822	-26.861	86.873	101.167	-29.808	-25.551	-23.348	-20.186	88.643	-23.630	-8191	255	
32671.301	1	1	0	0	0.1604	0.14532	0.15051	0.11692	0.076149	0.26179	0.18735	0.13256	0.13048	0.15781	0.21183	0.12461	0.17861	0.16207	0.4047	0.25825	-2.875	-2.7354	-2.7167	-3.3187	-2.9208	-2.9833	-3.2167	-2.6437	-3.0208	-2.9667	-2.8063	-3.1104	-2.875	-3.0375	-3.1542	-2.7208	142.325	282.249	162.361	-40.013	138.922	-38.953	-33.384	260.713	60.566	84.303	258.313	-12.972	153.655	204.953	233.963	37.055	2.0902e-05	2.4396e-05	1.952e-05	60.491	3.601e-07	8.193e-07	62.175	21.599	2.8262e-07	6.9027e-07	23.941	12.085	10.126	4.9667	3.1629e-07	5.622	1.5818e-06	-2.1118e-06	4.8873e-06	70.798	-2.2004e-08	-3.2148e-08	72.967	25.55	-2.6063e-09	-2.3457e-08	27.938	14.32	11.964	5.8605	-2.9336e-08	6.5074	155.240	50.061	155.137	-31.986	85.417	35.243	-32.635	-27.028	64.322	160.204	-29.131	-25.687	-23.158	-20.598	132.022	-23.836	-8191	255	
32671.396	1	1	0	0	0.15714	0.057534	0.20758	0.037113	0.18541	0.13316	0.2718	0.053356	0.028483	0.10318	0.23441	0.11864	0.046904	0.068962	0.15436	0.32746	-2.6854	-2.8688	-2.7229	-3.1312	-2.8604	-3.0729	-3.2396	-2.7	-3.1333	-3.0062	-2.9104	-3.1688	-3.0396	-2.9813	-3.2333	-2.8604	160.617	52.124	8.327	25.468	-38.383	122.063	213.016	16.570	29.366	2.734	-18.119	68.753	267.814	163.791	270.206	34.642	2.4472e-05	4.0411e-05	1.7621e-05	60.973	5.7471e-07	8.8825e-07	61.68	21.531	2.6911e-07	5.0246e-07	23.835	12.036	10.121	4.9287	4.8421e-07	5.5535	1.5696e-06	-2.3221e-06	3.1369e-06	70.795	-2.1434e-08	-2.5201e-08	72.582	25.318	1.4268e-07	-3.1132e-08	27.669	14.215	11.903	5.8071	-2.9622e-08	6.4664	164.447	18.825	160.659	-31.329	65.948	61.454	-32.276	-27.171	-8.624	134.962	-29.458	-25.638	-23.170	-20.376	88.586	-23.434	-8191	255	
32671.492	1	1	0	0	0.15993	0.26636	0.23309	0.15291	0.099149	0.19793	0.083658	0.10524	0.12579	0.091273	0.31292	0.073102	0.22996	0.20585	0.088326	0.3074	-2.5854	-3.0125	-2.8396	-3.1125	-2.8708	-2.9354	-3.1937	-2.8792	-3.1854	-3.1104	-2.8	-3.1	-2.8729	-3.0583	-3.0938	-2.8563	268.049	30.933	271.848	279.200	251.453	309.486	181.753	274.170	143.307	292.856	243.734	-8.903	-12.357	257.917	120.816	311.592	2.3942e-05	4.7247e-05	2.3008e-05	59.895	6.6363e-07	1.1267e-07	61.402	21.625	3.6201e-07	6.5259e-07	23.832	12.142	10.223	4.9448	2.1308e-07	5.6092	1.9306e-06	-2.3528e-06	4.8191e-06	70.641	-2.4998e-08	-2.7548e-08	72.57	25.332	1.1501e-07	-3.1899e-08	27.786	14.288	11.966	5.8567	-2.4804e-08	6.4905	167.958	57.420	164.416	-31.733	127.660	42.571	-32.143	-26.566	-40.819	89.289	-29.523	-25.399	-23.300	-20.196	110.020	-23.489	-8191	255	
32671.590	1	1	0	0	0.034928	0.202	0.21747	0.19464	0.16088	0.071138	0.21866	0.20631	0.13345	0.080169	0.31262	0.14801	0.24156	0.1367	0.17314	0.12892	-2.5417	-2.9333	-2.8667	-3.0854	-2.8167	-2.9458	-3.0812	-2.9021	-2.9083	-3.1771	-2.7854	-3.2396	-3.0625	-3.0563	-3.125	-2.8604	0.236	132.111	99.194	158.237	235.898	237.719	112.951	295.694	-9.657	145.344	280.193	297.022	216.417	205.342	285.592	-39.716	2.638e-05	7.7924e-05	8.5782e-06	60.562	2.9697e-07	8.1115e-07	62.434	21.555	7.5808e-07	9.3559e-08	24.159	12.209	10.234	4.994	1.8111e-07	5.6013	2.0401e-06	-2.9443e-06	1.7746e-06	70.877	-2.4618e-08	-2.2278e-08	72.977	25.504	1.8443e-07	-3.4873e-08	27.951	14.394	12.011	5.8662	-2.6999e-08	6.5164	158.594	24.560	126.462	-31.866	115.290	77.647	-32.315	-26.920	7.820	93.082	-29.438	-25.756	-23.352	-20.251	82.186	-23.404	-8191	255	
32671.711	1	1	0	0	0.087096	0.18095	0.026687	0.28427	0.23442	0.25262	0.13423	0.27456	0.18903	0.22801	0.26782	0.16355	0.24287	0.10672	0.17366	0.10316	-2.5896	-3.0333	-2.8667	-3.0229	-2.9958	-2.9271	-3.1729	-3.0583	-3.1271	-3.0208	-2.9146	-3.0354	-3.0938	-2.8167	-3.35	-3.0625	49.527	-28.955	82.616	83.605	19.683	45.155	148.661	228.380	291.134	15.438	236.079	264.561	-23.862	269.879	281.391	42.803	1.9863e-05	5.9376e-05	1.4906e-05	60.397	4.0171e-07	5.0668e-07	61.882	21.644	6.504e-07	3.4e-07	23.999	12.144	10.194	4.9637	5.0068e-07	5.5812	2.1658e-06	-2.4492e-06	-4.8775e-07	71.53	-2.2527e-08	-2.4242e-08	72.95	25.438	1.2302e-07	-3.5881e-08	27.884	14.316	11.976	5.8528	-2.6808e-08	6.484	162.204	16.665	-30.128	-31.198	109.571	109.624	-32.321	-26.875	15.338	97.010	-29.540	-25.312	-23.084	-20.381	139.787	-23.504	-8191	255	
32671.805	1	1	0	0	0.2503	0.12639	0.06914	0.082003	0.14849	0.10114	0.15737	0.109	0.20163	0.20762	0.16956	0.24256	0.11937	0.035349	0.19517	0.19123	-2.4729	-3.0542	-2.725	-2.9583	-2.9708	-2.8	-3.2958	-2.9396	-3.0458	-3.1667	-2.8625	-3.2354	-3.1688	-2.8208	-3.0083	-2.8708	165.936	228.551	-33.798	190.231	55.975	283.649	298.938	162.147	231.993	264.168	309.245	107.678	171.726	50.882	128.763	4.075	2.6132e-05	6.0251e-05	2.9132e-05	60.599	4.87e-07	2.2515e-07	62.079	21.626	5.6249e-07	6.8633e-07	24.003	12.105	10.092	4.9499	8.6285e-07	5.528	2.1293e-06	-3.1283e-06	-6.8358e-07	71.375	-3.0226e-08	-2.132e-08	72.775	25.363	1.904e-07	-3.6073e-08	27.751	14.213	11.881	5.811	1.0399e-08	6.4543	140.873	14.891	29.668	-31.585	70.872	135.537	-32.521	-27.146	4.988	92.072	-29.798	-25.418	-23.185	-20.551	170.181	-23.461	-8191	255	
32671.900	1	1	0	0	0.078035	0.12186	0.05837	0.20944	0.3041	0.26082	0.0361	0.19366	0.11191	0.34731	0.087717	0.068486	0.08514	0.22197	0.209	0.11372	-2.3979	-3.3396	-2.9333	-2.8625	-3.0583	-2.8458	-3.0917	-2.9583	-2.9417	-3.1729	-2.9792	-3.0229	-3.1229	-2.6396	-3.0625	-2.9021	108.921	-2.189	239.965	68.739	305.684	249.121	85.750	294.857	41.407	187.979	-4.195	189.395	131.355	241.952	166.592	81.408	2.354e-05	4.909e-05	1.7719e-05	60.694	6.5747e-08	7.3295e-07	61.686	21.512	2.6041e-07	2.0799e-07	24.03	12.034	10.013	4.8991	1.0976e-06	5.5817	2.182e-06	-3.1327e-06	-7.0183e-07	71.687	-2.6377e-08	-2.6159e-08	72.671	25.27	1.2467e-07	-4.063e-08	27.686	14.184	11.845	5.773	1.5985e-07	6.4713	160.294	7.728	101.722	-31.806	184.620	90.271	-32.269	-27.162	54.872	76.810	-29.583	-25.873	-23.613	-20.249	186.555	-23.476	-8191	255	
32672.021	1	1	0	0	0.17742	0.011247	0.088445	0.19649	0.14046	0.088504	0.1171	0.084619	0.12647	0.066417	0.27657	0.19072	0.19873	0.22223	0.086785	0.07918	-2.3688	-3.2271	-2.9729	-2.95	-3.0979	-2.8	-2.9938	-2.9938	-2.8125	-3.1417	-2.8604	-2.7583	-3.1937	-2.7396	-3.0896	-2.9479	313.302	24.225	194.089	312.059	189.499	282.741	174.223	-30.077	297.954	105.739	311.947	246.780	129.233	240.210	189.005	-26.886	2.1176e-05	9.153e-05	2.9284e-05	60.41	3.0752e-07	2.7286e-07	61.636	21.503	1.0315e-06	5.8321e-07	23.985	12.093	10.134	4.9381	6.5859e-07	5.5458	2.5146e-06	-2.7515e-06	-7.0913e-07	71.336	-3.2697e-08	-2.8746e-08	72.811	25.224	1.9092e-07	-3.5017e-08	27.667	14.228	11.848	5.7925	1.2064e-07	6.478	144.596	-3.570	63.013	-31.823	107.137	77.073	-32.292	-27.208	39.870	128.833	-29.243	-25.744	-23.052	-20.346	135.173	-23.361	-8191	255	
32672.094	1	1	0	0	0.10897	0.036099	0.072902	0.28504	0.28531	0.199	0.29662	0.18266	0.061041	0.1434	0.11908	0.15379	0.22025	0.13213	0.21943	0.21912	-2.3771	-3.1188	-2.8688	-2.9646	-3.0938	-2.9083	-3.0396	-3.0812	-2.9292	-3.3312	-3.0479	-2.9	-3.0667	-2.8187	-3.0792	-3.0604	251.173	57.464	42.985	91.124	134.178	85.657	56.025	215.998	98.008	56.808	207.184	261.559	19.640	276.456	220.939	158.614	2.3298e-05	3.3766e-05	1.5206e-05	60.91	2.195e-07	4.269e-07	61.814	21.476	5.9584e-07	2.06e-07	23.789	12.076	10.086	4.9105	1.0795e-06	5.5333	2.4376e-06	-2.6595e-06	-7.7238e-07	71.836	-3.1889e-08	-2.7884e-08	72.727	25.204	5.6912e-08	3.4538e-09	27.578	14.202	11.864	5.7806	1.8341e-07	6.4715	165.026	48.877	84.928	-31.753	145.736	107.323	-32.462	-26.766	40.238	173.301	-29.694	-25.751	-23.596	-20.635	162.938	-23.325	-8191	255	
32672.189	1	1	0	0	0.28744	0.12644	0.07164	0.12355	0.11419	0.15494	0.21066	0.24056	0.19544	0.013894	0.10612	0.092311	0.23055	0.27478	0.38963	0.053789	-2.4021	-3.15	-2.9	-2.7375	-3.0479	-2.8312	-3.025	-3.1063	-2.8229	-3.1292	-3.0021	-2.7208	-2.8833	-2.9479	-3.0271	-3.2917	-13.204	14.678	52.020	67.635	216.753	-25.806	284.560	86.889	208.308	292.574	5.938	165.820	250.110	230.245	286.694	245.653	2.7658e-05	6.4791e-05	1.9568e-05	60.866	3.5974e-07	4.3075e-07	62.545	21.69	1.7483e-07	5.5748e-07	24.11	12.189	10.178	4.9568	7.3415e-07	5.5537	1.813e-06	-2.3703e-06	-6.6169e-07	71.61	-3.0606e-08	-2.453e-08	72.977	25.505	-1.6396e-08	1.5969e-07	27.872	14.31	11.964	5.8205	1.172e-07	6.5006	142.100	40.296	31.598	-31.473	123.545	74.551	-32.415	-26.754	63.039	194.288	-29.203	-25.763	-23.097	-19.864	153.038	-23.612	-8191	255	
32672.285	1	1	0	0	0.18461	0.26276	0.058857	0.39128	0.24885	0.19817	0.14538	0.19604	0.057939	0.095262	0.16136	0.21093	0.14325	0.14387	0.076033	0.068129	-2.3708	-3.125	-3.0438	-2.8396	-3.1854	-3.0479	-2.9104	-3.2438	-2.8604	-3.1063	-3.0625	-2.7271	-3.2396	-3.05	-2.8833	-3.1625	225.243	2.400	96.423	195.148	312.187	290.756	-0.868	142.791	204.407	29.913	-37.381	56.141	26.527	19.315	287.830	213.261	2.3584e-05	9.8038e-05	1.8313e-05	60.461	1.4123e-07	5.8031e-07	61.855	21.584	4.0626e-07	1.1819e-06	24.138	12.165	10.164	4.9428	1.0092e-06	5.5814	1.9995e-06	-2.4098e-06	-7.5656e-07	71.955	-2.8373e-08	-3.0519e-08	72.946	25.442	-2.0613e-08	1.0947e-07	27.833	14.32	11.916	5.8073	1.9762e-07	6.5053	151.143	9.758	51.388	-31.683	73.603	86.554	-32.538	-26.988	82.990	107.829	-29.405	-25.892	-23.060	-20.316	160.142	-23.291	-8191	255	
32672.406	1	1	0	0	0.20686	0.42053	0.072056	0.17647	0.155	0.10497	0.16092	0.099255	0.02822	0.16151	0.32659	0.21759	0.15457	0.15012	0.15104	0.13375	-2.3875	-2.8479	-3.0917	-2.9104	-3.1625	-3.0354	-2.8021	-3.1333	-2.7687	-2.9083	-3.1146	-2.8312	-2.9479	-2.9146	-2.9167	-3.0333	-7.552	188.180	-31.964	213.866	205.592	89.280	67.343	-1.754	94.881	91.366	273.150	-28.411	-4.460	305.693	294.373	181.009	2.2432e-05	6.4921e-05	1.6107e-05	60.982	4.1028e-07	6.2899e-07	62.511	21.616	4.9068e-07	1.386e-06	24.023	12.133	10.109	4.9057	5.2385e-07	5.5442	1.886e-06	-2.4843e-06	-7.517e-07	71.436	1.939e-08	-3.1093e-08	73.149	25.39	-1.8197e-08	1.8075e-07	27.714	14.245	11.863	5.7838	1.2188e-07	6.4491	164.750	39.783	13.043	-31.828	231.818	140.307	-32.617	-26.954	70.645	65.529	-29.286	-25.774	-23.328	-20.246	140.377	-23.287	-8191	255	
32672.502	1	1	0	0	0.14958	0.23688	0.070575	0.27849	0.094863	0.095816	0.17643	0.11043	0.16129	0.28733	0.072923	0.20271	0.27011	0.079715	0.21502	0.17704	-2.4271	-2.9604	-2.9625	-2.7979	-3.1063	-3.1208	-2.7042	-3.125	-2.95	-3.1854	-3.3875	-2.8896	-3.0083	-3.0583	-2.8083	-3.1042	34.010	223.264	170.560	285.420	208.240	33.503	289.635	264.934	300.913	195.866	29.408	84.368	232.157	-12.481	14.158	177.049	2.1484e-05	5.2116e-05	1.1596e-05	60.875	7.8953e-07	3.629e-07	61.495	21.317	1.5686e-07	1.5525e-06	23.357	11.909	9.9882	4.8774	1.0114e-06	5.4981	1.9752e-06	-2.0374e-06	-7.5413e-07	70.991	1.699e-07	-3.4064e-08	72.482	24.978	-1.9855e-08	1.2074e-07	27.25	14.038	11.732	5.7341	1.878e-07	6.4092	157.930	41.375	69.744	-31.410	250.458	78.871	-32.503	-27.130	179.859	92.097	-29.162	-25.407	-23.314	-20.483	151.265	-23.706	-8191	255	
32672.598	1	1	0	0	0.28931	0.109	0.14285	0.10371	0.19848	0.15338	0.15178	0.049405	0.045395	0.28022	0.21502	0.07905	0.21637	0.10238	0.085778	0.065194	-2.4729	-2.7896	-3.1583	-2.8583	-2.9479	-2.9708	-2.8979	-3.3354	-2.8792	-2.8208	-3.2354	-2.8542	-2.9792	-3.0563	-2.9229	-3.0979	246.995	9.660	225.840	190.551	218.640	126.614	75.722	-5.965	129.594	-11.044	217.142	258.473	58.831	93.111	75.091	142.014	2.3258e-05	2.1087e-05	4.3482e-06	60.545	3.3752e-07	6.7199e-07	61.607	21.128	5.9518e-07	1.2705e-06	23.447	11.892	10.063	4.8738	3.9754e-07	5.4687	2.182e-06	-2.0111e-06	-8.4171e-07	70.815	1.1691e-07	-3.5837e-08	72.505	24.823	-2.3362e-08	1.854e-07	27.192	14.02	11.763	5.7118	5.0801e-08	6.4221	134.043	-31.857	41.098	-31.695	-34.111	91.677	-32.084	-26.864	82.866	101.211	-29.068	-25.847	-23.329	-20.296	120.458	-23.603	-8191	255	
32672.670	1	1	0	0	0.16701	0.18061	0.26022	0.15989	0.12222	0.11232	0.14273	0.019634	0.067799	0.15521	0.18856	0.12863	0.15721	0.13127	0.19658	0.16654	-2.5604	-2.9479	-3.125	-2.8125	-2.9708	-3.0375	-2.9146	-3.1437	-3.0958	-2.9354	-3.0833	-3.0292	-2.9583	-3.0167	-2.9229	-3.0292	220.879	35.194	314.761	209.364	139.724	11.439	277.579	53.232	187.293	310.093	179.477	-17.638	210.485	-8.811	73.846	243.174	2.0276e-05	4.446e-05	7.0473e-06	60.839	5.2613e-07	8.4948e-07	61.794	21.257	2.6308e-07	1.4652e-06	23.519	12.079	10.087	4.9549	2.7402e-07	5.5851	1.6588e-06	-2.5587e-06	-8.0157e-07	70.878	1.7946e-07	-3.7034e-08	72.654	24.933	-2.7579e-08	1.2011e-07	27.393	14.21	11.861	5.7923	-2.0082e-08	6.5543	144.377	-21.512	-15.722	-31.595	11.826	89.431	-32.206	-26.598	65.670	118.196	-28.978	-25.596	-23.916	-20.369	63.126	-23.281	-8191	255	
32672.789	1	1	0	0	0.21956	0.075586	0.27596	0.11126	0.23976	0.16645	0.18214	0.14143	0.21517	0.15584	0.18293	0.17271	0.35363	0.059723	0.015628	0.12615	-2.5438	-2.7542	-3.05	-3.0542	-2.8833	-3.1708	-2.9958	-3.0146	-3.15	-2.8833	-3.1583	-2.8521	-2.9833	-3.1396	-2.9208	-3.0021	301.571	168.103	96.189	109.644	-41.739	211.662	25.138	-19.837	55.147	39.272	296.782	-35.904	271.338	35.787	255.726	-39.667	2.8624e-05	6.5636e-05	1.3414e-05	61.177	3.684e-07	7.7559e-07	61.93	21.34	5.2998e-07	1.8398e-06	23.82	12.11	10.114	4.9478	3.1934e-07	5.5118	1.456e-06	-1.9497e-06	-7.5656e-07	70.992	1.1877e-07	-3.531e-08	72.703	25.215	-2.4215e-08	1.8502e-07	27.604	14.24	11.909	5.786	-1.7602e-08	6.4801	170.079	67.079	30.805	-31.722	296.307	58.056	-32.631	-26.556	95.209	102.632	-29.555	-25.671	-23.144	-20.428	96.459	-23.418	-8191	255	
32672.885	1	1	0	0	0.21902	0.21004	0.070065	0.038891	0.18728	0.17804	0.13847	0.029631	0.19898	0.2348	0.22266	0.11874	0.11323	0.071627	0.17427	0.097077	-2.7458	-2.7875	-3.225	-2.8812	-2.8688	-3.0271	-2.7479	-3.1188	-3.2042	-2.8729	-3.2313	-3.0646	-2.9562	-3.2667	-2.9271	-3.1646	57.507	229.494	216.041	173.802	206.655	59.148	247.954	3.128	-12.663	116.855	143.361	80.245	87.975	228.401	121.885	8.614	2.5432e-05	4.1176e-05	1.8813e-05	60.797	1.9292e-07	4.7435e-07	61.175	21.29	3.1439e-07	8.1409e-07	23.473	12.012	10.05	4.8798	3.0219e-07	5.4825	1.7846e-06	-2.0724e-06	-6.921e-07	70.796	1.7908e-07	-3.713e-08	72.363	25.033	-2.938e-08	3.3626e-08	27.355	14.088	11.776	5.7336	-1.7983e-08	6.4633	157.868	6.334	95.132	-31.745	-21.966	104.252	-32.748	-26.820	123.574	74.461	-29.466	-25.691	-23.225	-20.443	131.283	-23.338	-8191	255	
32672.982	1	1	0	0	0.1053	0.2378	0.15153	0.11082	0.024815	0.13665	0.14718	0.27694	0.13072	0.070693	0.25342	0.038104	0.13367	0.0765	0.19393	0.41877	-2.7167	-2.7542	-3.0979	-2.8792	-2.9104	-3.1792	-2.9833	-2.9354	-3.2479	-2.9917	-3.2375	-3.0771	-3.0229	-3.1208	-2.9583	-3.0729	267.309	294.912	259.484	265.235	-43.959	257.749	301.249	128.160	167.859	274.824	136.136	101.177	236.040	105.921	106.000	79.846	2.7989e-05	6.2089e-05	1.8235e-05	60.584	5.2512e-07	6.7853e-07	61.393	21.105	9.7729e-08	4.8139e-07	23.614	12.041	10.01	4.9168	1.6919e-07	5.5157	1.5574e-06	-2.0943e-06	-7.2129e-07	70.789	1.2071e-07	-3.3729e-08	72.254	24.862	-2.8006e-08	-2.5711e-08	27.759	14.139	11.803	5.7599	-2.0416e-08	6.4799	148.800	12.181	31.860	-31.575	6.451	118.216	-32.470	-26.751	100.071	87.678	-29.165	-25.462	-23.212	-20.539	224.082	-23.341	-8191	255	
32673.102	1	1	0	0	0.014688	0.20107	0.23016	0.16915	0.10433	0.016217	0.1171	0.19907	0.19828	0.087079	0.10816	0.29883	0.2229	0.25702	0.23963	0.25006	-2.8438	-2.9021	-3.1688	-2.8563	-2.8812	-3.2771	-2.925	-2.9083	-3.1937	-2.9313	-3.1167	-3.1896	-2.8875	-3.2146	-2.9042	-2.975	110.373	-24.908	143.535	277.552	192.896	314.181	-29.050	-27.671	105.602	81.243	122.038	100.395	58.021	-15.418	29.290	37.329	2.8456e-05	6.6357e-05	9.1444e-06	60.943	8.6298e-07	5.1258e-07	61.967	21.427	2.4792e-07	2.9169e-07	24.137	12.127	10.09	4.9284	7.5909e-08	5.5314	1.0383e-06	-2.3835e-06	-6.5926e-07	70.936	1.8763e-07	-3.5405e-08	72.711	25.278	-2.7579e-08	-2.6431e-08	28.075	14.267	11.91	5.7784	-2.1322e-08	6.5049	155.111	311.006	66.995	-31.899	40.453	108.724	-32.508	-26.795	90.382	203.238	-29.098	-25.775	-23.530	-20.246	138.836	-23.695	-8191	255	
32673.197	1	1	0	0	0.1558	0.1201	0.18538	0.06335	0.11191	0.26117	0.14868	0.12198	0.22766	0.16231	0.21591	0.17923	0.16937	0.019694	0.20713	0.16536	-2.6708	-2.9083	-3.1979	-3.0375	-2.8167	-3.0229	-2.8729	-2.9813	-3.1292	-2.8229	-2.975	-3.2333	-2.9042	-3.2417	-3.0479	-2.9625	42.968	269.621	252.052	307.491	-29.334	161.619	231.861	9.722	113.164	267.887	137.646	4.338	26.159	309.709	241.807	22.203	2.2216e-05	6.2864e-05	1.4497e-05	60.578	6.165e-07	3.3967e-07	61.591	21.626	1.8397e-07	5.4514e-07	24.107	12.22	10.086	4.9294	1.2986e-07	5.55	1.3425e-06	-2.2959e-06	-6.3007e-07	70.689	2.9751e-08	3.0087e-08	72.67	25.412	-2.8811e-08	-2.5328e-08	28.178	14.27	11.911	5.7913	-2.3517e-08	6.497	161.737	27.799	74.509	-31.935	42.386	102.942	-32.445	-26.987	93.095	156.578	-29.285	-26.072	-23.517	-20.675	74.396	-23.644	-8191	255	
32673.295	1	1	0	0	0.077773	0.066383	0.10501	0.13245	0.12412	0.16259	0.21087	0.072971	0.099427	0.16514	0.03322	0.11947	0.17275	0.28151	0.19665	0.19638	-2.7854	-2.8187	-3.05	-3.275	-2.7854	-3.1896	-3.0125	-2.9458	-3.1729	-2.8875	-3.0292	-3.0021	-2.8417	-3.0917	-3.1104	-2.7583	144.283	223.394	10.761	222.247	-12.142	129.613	131.627	263.832	164.715	263.061	120.919	-44.594	288.422	138.378	98.123	-19.309	2.2047e-05	8.7053e-05	1.9286e-05	60.951	8.0955e-08	1.2934e-06	61.873	21.852	3.6761e-07	3.0492e-07	24.427	12.273	10.287	4.9805	4.2831e-07	5.6109	1.4682e-06	-2.3791e-06	-6.1669e-07	70.994	-1.7442e-08	1.7674e-07	73	25.658	-2.6537e-08	-2.8685e-08	28.404	14.431	12.095	5.8296	-2.3469e-08	6.5644	157.693	72.619	57.290	-32.073	267.906	38.289	-32.065	-26.942	123.370	123.297	-29.039	-25.486	-23.496	-20.426	95.295	-23.681	-8191	255	
32673.391	1	1	0	0	0.32228	0.057903	0.146	0.082488	0.13091	0.29723	0.10582	0.21625	0.21064	0.12825	0.050539	0.041123	0.15111	0.23084	0.084443	0.1252	-2.7562	-2.9729	-2.9333	-3.1271	-2.8187	-2.9354	-3.0104	-2.7583	-3.1542	-2.9083	-2.7958	-3.0938	-3.0062	-3.1979	-3.0229	-2.8729	52.221	29.327	26.062	249.563	290.859	108.412	0.444	99.884	107.887	129.261	221.858	96.049	-5.542	305.099	-17.005	214.848	2.5534e-05	6.2875e-05	2.0704e-05	61.366	5.4077e-07	7.9444e-07	62.307	21.998	2.9418e-07	6.8096e-07	24.625	12.338	10.332	5.0032	2.0343e-07	5.6369	1.3303e-06	-2.1337e-06	-5.3276e-07	71.167	-1.8202e-08	1.0641e-07	73.498	25.892	-2.7911e-08	-2.8254e-08	28.874	14.513	12.149	5.8582	-2.7142e-08	6.5584	160.982	21.917	100.895	-32.136	118.825	30.020	-32.514	-26.816	94.953	122.627	-28.633	-25.990	-23.551	-20.449	122.349	-23.427	-8191	255	
32673.486	1	1	0	0	0.27909	0.23289	0.025065	0.080239	0.12034	0.223	0.18412	0.16866	0.19505	0.2871	0.057046	0.12571	0.04747	0.20223	0.2075	0.29714	-2.6437	-2.8354	-2.8521	-3.0771	-2.8854	-3.05	-3.0104	-2.9167	-3.0375	-3.1333	-3.0125	-3.2188	-2.7979	-2.9021	-2.9917	-2.975	237.277	193.482	87.745	282.937	45.152	50.847	75.556	56.522	17.254	142.995	264.320	237.141	198.529	310.478	215.081	80.544	3.1315e-05	6.5244e-05	1.6564e-05	61.496	8.0035e-07	1.6702e-06	62.855	22.117	7.6427e-07	3.4892e-07	24.289	12.323	10.276	4.9315	4.1676e-07	5.5166	7.479e-06	-2.2301e-06	-5.5952e-07	71.34	-2.0008e-08	1.8268e-07	73.509	25.85	-2.3693e-08	-2.6959e-08	28.543	14.451	12.072	5.8096	-2.8144e-08	6.4746	160.827	51.969	73.892	-31.646	84.551	33.776	-32.346	-26.669	110.875	130.439	-29.379	-25.707	-23.690	-20.252	67.429	-23.477	-8191	255	
32673.582	1	1	0	0	0.10827	0.083341	0.23468	0.080868	0.13298	0.15803	0.11979	0.17106	0.030233	0.10486	0.13046	0.22076	0.22521	0.22073	0.22732	0.21376	-2.875	-2.9938	-2.7292	-3.0458	-2.8167	-2.9333	-3.1562	-2.8042	-3.0083	-3.0771	-3.0104	-3.2	-2.8271	-3.0208	-3.2458	-2.8479	192.312	266.796	66.923	236.883	150.062	181.703	-14.832	83.180	15.795	136.632	198.086	-12.041	264.785	229.856	177.117	-38.342	4.1735e-05	3.2009e-05	1.9816e-05	61.195	2.1306e-07	1.3835e-06	61.926	21.974	3.3581e-07	4.694e-07	24.276	12.246	10.235	4.9393	6.4487e-07	5.5286	1.8989e-05	-2.2389e-06	-5.2059e-07	71.292	-1.863e-08	1.1489e-07	73.245	25.825	-2.3456e-08	-3.2379e-08	28.56	14.372	12.034	5.8045	-2.9575e-08	6.4499	173.312	25.112	46.080	-31.903	123.136	33.589	-32.495	-26.640	101.033	95.567	-29.176	-25.615	-23.386	-20.342	153.655	-23.736	-8191	255	
32673.703	1	1	0	0	0.057513	0.05435	0.20041	0.29519	0.0874	0.16447	0.30018	0.15114	0.17753	0.082056	0.14457	0.077081	0.13271	0.28724	0.15999	0.21362	-2.6104	-2.9208	-2.7833	-3.2125	-2.8125	-2.9833	-3.2	-2.8479	-3.1271	-3.0542	-2.8771	-3.2896	-2.9771	-2.7708	-3.1854	-2.8333	306.683	214.648	-0.509	230.305	51.573	-26.530	-39.591	147.108	46.345	140.169	129.791	301.233	-6.504	294.182	202.723	241.220	3.1061e-05	2.608e-05	2.1697e-05	60.822	2.4575e-07	1.4152e-06	62.608	21.891	1.2611e-07	5.7874e-07	24.22	12.172	10.184	4.953	1.2777e-07	5.551	1.3563e-05	-2.4536e-06	-5.5708e-07	71.167	-2.0578e-08	1.8814e-07	73.375	25.801	-2.1561e-08	-3.1036e-08	28.301	14.427	12.029	5.804	-2.6522e-08	6.4816	163.389	57.459	49.303	-31.516	116.059	39.287	-32.436	-27.029	57.499	138.058	-29.018	-25.400	-23.387	-20.731	162.266	-23.164	-8191	255	
32673.797	1	1	0	0	0.15624	0.12174	0.17605	0.14885	0.12943	0.13202	0.12495	0.25132	0.12889	0.12529	0.24757	0.18503	0.24101	0.21837	0.27829	0.18954	-2.65	-3.1729	-2.7812	-3.1396	-3.0208	-3.0458	-3.2229	-3.0312	-3.0708	-3.2062	-2.7917	-3.2188	-2.8979	-2.8729	-3.0604	-2.8417	-0.332	178.928	-22.045	73.488	115.158	55.782	224.054	217.628	61.217	312.592	75.979	162.059	151.508	278.317	110.073	265.358	3.3356e-05	8.2539e-05	2.1517e-05	61.133	4.4701e-07	1.54e-06	62.739	21.906	2.33e-07	5.5867e-07	24.371	12.278	10.179	4.9121	3.8458e-07	5.5326	1.9225e-05	-2.3397e-06	-5.4006e-07	71.115	-3.2032e-08	1.135e-07	73.406	25.808	-2.2082e-08	-3.7272e-08	28.236	14.503	11.969	5.782	-2.6474e-08	6.4557	176.790	2.653	73.445	-31.783	71.545	49.474	-32.587	-27.005	111.981	131.043	-29.070	-25.605	-23.254	-20.477	76.504	-23.510	-8191	255	
32673.893	1	1	0	0	0.15042	0.23675	0.23442	0.14904	0.29347	0.20065	0.047855	0.13269	0.22956	0.18419	0.28647	0.13366	0.046491	0.19626	0.023744	0.13986	-2.7562	-3.0875	-2.9667	-3.1625	-2.9979	-2.9646	-3.1167	-2.9896	-2.7958	-3.15	-2.8875	-3.2313	-2.8958	-2.7812	-3.1375	-3.0875	223.636	86.245	301.692	235.717	9.925	304.923	231.434	-28.911	183.419	279.537	180.885	163.971	-5.733	112.797	60.111	228.048	2.8811e-05	6.1286e-05	1.7788e-05	61.043	5.6314e-07	1.6653e-06	62.274	21.681	2.1051e-07	4.4166e-07	24.195	12.171	10.131	4.9159	4.028e-07	5.4886	1.3599e-05	-2.9881e-06	-5.5587e-07	70.939	-2.6662e-08	1.5125e-07	73.065	25.595	-2.0519e-08	-3.4394e-08	27.998	14.347	11.916	5.7551	-2.5329e-08	6.4154	173.232	-14.399	23.574	-32.238	114.445	41.548	-32.411	-26.868	81.252	92.661	-29.581	-25.855	-23.508	-20.330	122.223	-23.369	-8191	255	
32673.965	1	1	0	0	0.1285	0.26744	0.10235	0.11502	0.05662	0.22662	0.083739	0.17886	0.18272	0.19711	0.15372	0.21822	0.11771	0.11779	0.15919	0.20862	-2.3563	-3.2542	-2.8729	-2.9708	-3.1167	-2.8875	-3.0208	-2.9562	-3.0062	-3.1583	-2.8854	-3.0687	-2.9708	-2.8312	-3.2042	-3.0354	214.574	118.101	243.913	136.940	40.271	152.192	57.859	99.524	-13.383	-7.195	50.249	193.975	267.946	-8.419	7.658	76.143	3.1822e-05	3.9184e-05	1.8673e-05	60.686	3.9555e-07	8.1325e-07	62.057	21.62	2.4842e-07	2.3283e-07	24.109	12.112	10.127	4.8909	3.1688e-07	5.4558	1.9679e-05	-2.9049e-06	-5.6803e-07	70.764	-2.8087e-08	1.0828e-08	72.937	25.445	-1.9618e-08	-3.0844e-08	27.906	14.363	11.877	5.754	-2.8811e-08	6.4052	175.082	25.919	-4.576	-31.720	100.703	65.487	-32.594	-26.977	15.637	146.083	-28.931	-25.876	-23.290	-20.191	128.894	-23.316	-8191	255	
32674.062	1	1	0	0	0.018126	0.17229	0.10644	0.16587	0.25859	0.2058	0.035383	0.3155	0.35863	0.1476	0.18035	0.093628	0.13918	0.12999	0.16566	0.024904	-2.4688	-3.1833	-2.8792	-3.1146	-3.1854	-2.8771	-3.1271	-2.8542	-3.0625	-3.2042	-2.9604	-3.1146	-3.075	-2.8125	-3.1229	-3.1125	-37.045	163.460	-14.241	7.529	13.874	265.793	119.614	253.246	178.053	177.850	67.224	-14.485	247.068	307.440	284.241	259.256	3.0483e-05	4.4602e-05	1.8327e-05	60.2	8.693e-08	1.05e-06	62.066	21.72	3.1304e-07	1.2679e-07	23.952	12.076	10.131	4.9057	5.1045e-07	5.563	1.422e-05	-3.3123e-06	-6.0087e-07	70.702	-2.8705e-08	-2.4626e-08	73.366	25.522	-2.0708e-08	-3.8375e-08	27.887	14.319	11.898	5.7571	-2.2467e-08	6.4541	180.479	26.379	52.914	-31.760	24.681	84.703	-32.779	-26.868	72.928	145.787	-28.967	-25.486	-23.380	-20.737	108.164	-23.375	-8191	255	
32674.182	1	1	0	0	0.063285	0.013167	0.049219	0.013536	0.11211	0.078615	0.28225	0.049694	0.12829	0.20923	0.017431	0.29028	0.22438	0.11384	0.11193	0.29299	-2.4792	-3.1396	-2.85	-2.8354	-3.1896	-2.7521	-3.0042	-3.0479	-2.8375	-3.3104	-2.9771	-2.9229	-3.2521	-2.8125	-3.2542	-3.1104	60.830	131.784	106.851	-24.510	260.572	38.167	129.917	-16.796	100.261	200.070	228.885	238.164	243.960	185.335	98.207	206.914	2.2953e-05	4.498e-05	1.3188e-05	60.694	8.8821e-08	4.3169e-07	61.774	21.51	2.7061e-07	2.7282e-07	23.866	12.077	10.063	4.888	4.8733e-07	5.4814	1.6365e-05	-2.6113e-06	-6.848e-07	70.743	-3.1889e-08	-2.1607e-08	73.024	25.383	-1.7344e-08	-3.2523e-08	27.734	14.34	11.843	5.7434	-2.3994e-08	6.382	169.209	153.826	28.777	-32.124	116.891	74.316	-32.324	-26.510	156.079	128.852	-28.933	-25.332	-23.080	-20.332	83.439	-23.842	-8191	255	
32674.277	1	1	0	0	0.052697	0.21447	0.26094	0.080786	0.17959	0.15859	0.10861	0.18894	0.058706	0.11039	0.17594	0.11419	0.091443	0.12361	0.16468	0.046072	-2.4854	-2.9583	-2.9979	-2.8333	-3.3125	-2.9	-2.9688	-2.9833	-2.7271	-3.3354	-3.0333	-2.8792	-3.2958	-2.8	-2.9104	-3.275	185.032	-5.278	180.235	165.858	4.846	98.075	136.128	12.799	93.332	48.416	-44.273	226.264	132.203	218.220	2.839	39.944	2.069e-05	4.0925e-05	2.7372e-05	60.472	2.8166e-07	1.5279e-07	61.919	21.506	1.789e-07	1.8461e-07	23.923	12.016	9.9999	4.904	5.6468e-07	5.4977	4.7981e-06	5.5688e-06	-6.775e-07	70.582	-3.4456e-08	-3.0087e-08	73.043	25.32	-1.7817e-08	-3.2955e-08	27.622	14.222	11.818	5.7257	-1.9462e-08	6.3937	149.920	93.689	46.358	-32.083	70.520	2.453	-32.293	-26.695	154.205	64.703	-29.622	-25.840	-23.635	-20.588	141.205	-23.555	-8191	255	
32674.373	1	1	0	0	0.21974	0.031595	0.1547	0.13916	0.16818	0.17644	0.10137	0.051696	0.1026	0.17614	0.062303	0.14008	0.052507	0.13793	0.013891	0.13853	-2.5125	-3.0708	-3.0021	-2.9354	-3.2313	-3.05	-3.125	-3.1833	-2.8	-3.1083	-2.9188	-2.9958	-3.2021	-3.0271	-2.8937	-3.1396	10.179	53.525	125.497	3.025	89.823	-13.275	271.185	308.561	221.021	133.722	136.150	80.526	247.125	-35.157	226.622	49.045	2.0321e-05	7.2649e-05	1.9144e-05	60.537	1.3054e-07	1.5055e-07	62.111	21.453	4.6781e-08	1.7069e-07	23.961	12.108	10.102	4.8994	5.7773e-08	5.4698	2.1942e-06	1.6163e-05	-8.2833e-07	70.642	-2.861e-08	-3.0519e-08	72.915	25.273	-2.2746e-08	-3.425e-08	27.719	14.288	11.861	5.7446	-1.9987e-08	6.4131	160.398	239.612	24.079	-31.573	123.808	10.258	-31.958	-27.190	1.040	63.492	-29.049	-25.817	-22.698	-20.292	110.463	-23.564	-8191	255	
32674.494	1	1	0	0	0.034513	0.26924	0.13991	0.13644	0.20456	0.099807	0.18731	0.15811	0.057752	0.19178	0.068042	0.25637	0.038703	0.21353	0.10475	0.098404	-2.5583	-3.1583	-2.9458	-2.9771	-3.0583	-2.8333	-3.1208	-3.3042	-2.6562	-2.9667	-3.0417	-2.8979	-3.1083	-2.8792	-2.9938	-3.3063	152.547	-5.685	-3.397	66.958	313.899	14.735	126.159	70.752	82.396	151.863	-26.139	86.498	263.315	307.758	65.886	310.995	2.116e-05	2.9769e-05	1.4296e-05	60.724	2.9384e-07	8.3362e-07	61.818	21.519	2.0631e-07	1.9209e-07	23.712	12.01	10.019	4.8659	2.9705e-07	5.4892	1.744e-06	1.002e-05	-7.2129e-07	70.74	-2.6044e-08	-2.8698e-08	73.304	25.317	-2.0282e-08	-3.1612e-08	27.532	14.173	11.844	5.7231	-2.4137e-08	6.3778	156.736	-17.080	-9.651	-31.503	100.516	59.734	-32.057	-26.807	115.412	69.173	-29.287	-25.767	-23.328	-20.386	144.333	-23.405	-8191	255	
32674.566	1	1	0	0	0.25223	0.096883	0.16808	0.062619	0.18173	0.21389	0.24425	0.10084	0.15228	0.254	0.22019	0.24279	0.16327	0.12681	0.23634	0.26569	-2.55	-3.0354	-2.9875	-2.7438	-3.1021	-2.9625	-2.9604	-3.2083	-2.9938	-3.1854	-3.1479	-2.8583	-3.2271	-2.9729	-2.9958	-3.0875	98.607	255.206	200.521	-0.756	197.964	23.338	38.508	312.675	310.121	260.096	40.288	-24.163	35.194	87.669	313.655	296.496	2.5971e-05	0.00010611	1.5905e-05	60.618	3.7542e-07	8.2065e-07	61.639	21.278	4.5429e-07	4.0322e-07	23.617	11.805	9.9432	4.8661	3.3915e-07	5.4477	1.7967e-06	1.5992e-05	-9.3415e-07	70.517	-2.9133e-08	-3.1333e-08	72.492	25.003	-2.1893e-08	-2.8158e-08	27.276	13.977	11.84	5.6915	-1.9367e-08	6.3359	157.008	-44.358	84.451	-32.323	94.395	119.444	-32.904	-26.728	119.783	120.577	-29.354	-25.727	-23.018	-20.497	165.074	-23.209	-8191	255	
32674.662	1	1	0	0	0.17926	0.2328	0.15833	0.017727	0.18076	0.19519	0.23905	0.14526	0.2633	0.069852	0.23881	0.16432	0.049196	0.10326	0.098049	0.2314	-2.4938	-3.0083	-3.0854	-2.8875	-3.2188	-3.1167	-2.8563	-3.2562	-2.8917	-3.1688	-2.9167	-2.8042	-3.2083	-3.0312	-2.9333	-3.3438	108.951	21.983	273.639	46.643	21.046	228.146	277.284	-14.129	252.112	281.826	135.176	-29.787	66.491	194.726	140.560	-21.730	2.4806e-05	5.2361e-05	6.3417e-06	60.32	4.1592e-07	8.2221e-07	61.341	21.133	2.496e-07	5.7138e-07	23.14	11.828	9.9496	4.8199	5.7797e-07	5.4401	1.7278e-06	9.9984e-06	-8.8428e-07	70.315	-2.7517e-08	-3.0662e-08	72.235	24.909	-2.1466e-08	-3.1324e-08	27.057	13.955	11.765	5.659	-2.2324e-08	6.3256	161.293	-33.917	112.311	-31.653	131.603	95.372	-32.030	-27.028	13.389	105.047	-29.264	-25.586	-23.398	-20.065	153.854	-23.739	-8191	255	
32674.783	1	1	0	0	0.31595	0.11608	0.22212	0.25853	0.20002	0.088757	0.11498	0.075107	0.16342	0.056985	0.075332	0.062506	0.070841	0.086174	0.062457	0.072726	-2.5354	-3.0729	-3.1	-2.8396	-3	-2.9896	-2.8438	-3.2375	-2.9479	-2.9938	-3.4	-2.7729	-2.9396	-3.0604	-2.7542	-3.125	309.274	47.373	29.294	277.880	74.464	59.515	10.804	209.909	147.618	198.708	19.319	128.110	61.169	194.996	40.866	17.709	2.1696e-05	0.00010516	1.0062e-05	60.107	5.6978e-07	5.3943e-07	61.483	21.145	6.9302e-08	1.9548e-07	23.501	11.828	9.9354	4.8189	3.283e-07	5.482	1.4763e-06	1.693e-05	-8.7577e-07	70.191	-2.3715e-08	-3.6891e-08	71.992	25.028	-2.7532e-08	-2.6047e-08	27.146	13.915	11.767	5.6631	-1.536e-08	6.3331	155.749	308.470	288.857	-31.760	148.361	121.846	-32.177	-27.018	24.212	119.085	-29.705	-26.145	-23.298	-20.507	81.327	-23.431	-8191	255	
32674.879	1	1	0	0	0.25688	0.043448	0.0066524	0.15179	0.063527	0.27859	0.20592	0.16796	0.095362	0.096751	0.055999	0.28939	0.086364	0.20888	0.28559	0.11926	-2.6312	-2.8688	-3.3167	-2.7896	-2.9896	-3.0438	-2.8542	-3.1604	-2.8833	-2.7958	-3.2625	-2.8271	-3.0896	-3.0896	-2.9271	-3.0625	130.152	133.776	42.913	11.671	50.058	164.179	84.497	-1.575	244.463	97.050	-3.050	69.628	131.818	-26.618	103.078	-5.804	2.3587e-05	4.1195e-05	1.1944e-05	60.508	3.9792e-07	1.1692e-06	61.045	20.975	1.581e-07	2.7469e-07	23.098	11.735	9.8402	4.7714	9.879e-08	5.3671	1.3749e-06	1.0112e-05	-9.2807e-07	70.413	-2.1006e-08	-3.2818e-08	71.61	24.909	-2.6774e-08	-2.5184e-08	26.848	13.835	11.656	5.6256	-1.7506e-08	6.2656	154.853	286.843	56.715	-31.483	103.219	102.873	-32.431	-26.738	82.975	100.606	-29.223	-25.922	-23.235	-20.120	-11.394	-23.727	-8191	255	
32674.975	1	1	0	0	0.078598	0.055421	0.30504	0.15237	0.12695	0.028314	0.23783	0.32142	0.19318	0.13499	0.19219	0.0937	0.38557	0.39445	0.21578	0.15317	-2.5917	-3.0604	-3.2021	-3.0563	-3.0875	-3.2	-2.8688	-3.0208	-3.075	-3.0187	-3.2167	-2.8312	-3.1	-3.1917	-2.9042	-3.0854	302.804	95.255	25.627	70.425	-1.068	18.453	250.765	80.404	294.971	226.610	268.473	150.448	-5.778	215.029	12.910	94.179	2.4662e-05	0.00010503	1.0665e-05	59.985	2.9021e-07	1.0755e-06	60.862	21.061	1.7774e-07	2.6886e-07	23.352	11.808	9.8803	4.8205	2.0998e-07	5.4083	1.2573e-06	1.0822e-05	-8.7577e-08	70.145	-2.5901e-08	-3.2866e-08	71.526	24.89	-2.6726e-08	-2.9021e-08	27.058	13.913	11.777	5.6549	-1.9844e-08	6.3114	159.361	-43.386	-0.703	-31.505	121.470	104.837	-32.203	-27.030	68.786	221.066	-29.661	-25.868	-23.375	-20.332	149.715	-23.290	-8191	255	
32675.070	1	1	0	0	0.048104	0.21484	0.30174	0.13377	0.062757	0.19998	0.24474	0.18444	0.23338	0.20852	0.13041	0.099874	0.1721	0.24917	0.22086	0.15417	-2.775	-2.7167	-3.2	-2.8104	-2.9729	-3.2771	-2.8979	-3.1292	-3.2083	-2.8563	-3.0875	-2.7479	-3.0271	-3.25	-2.7438	-3.1792	244.229	122.352	124.452	261.179	267.160	280.151	-37.787	296.175	69.828	-5.164	263.870	-38.016	30.391	146.793	178.221	270.292	2.2851e-05	8.9775e-05	4.9684e-06	59.949	3.2121e-07	3.5642e-07	61.58	21.145	6.3471e-07	4.1575e-07	23.383	11.835	9.8975	4.7891	1.3296e-07	5.4201	1.2492e-06	-1.31e-06	1.9182e-06	70.214	-2.2575e-08	-3.943e-08	71.817	25.131	-2.412e-08	-2.3697e-08	27.161	13.916	11.704	5.6346	-1.8699e-08	6.2949	148.919	-39.598	115.242	-31.744	104.810	123.402	-32.493	-26.632	60.184	157.906	-29.672	-25.531	-23.616	-20.194	92.222	-23.271	-8191	255	
32675.191	1	1	0	0	0.1213	0.15066	0.11102	0.22714	0.27417	0.096423	0.057108	0.17476	0.011464	0.22821	0.14592	0.053889	0.071578	0.1847	0.077122	0.080645	-2.5687	-2.6646	-3.1104	-2.9396	-2.8958	-3.1979	-3.0292	-2.9625	-3.1729	-2.9313	-3.1813	-2.95	-2.7271	-3.3688	-2.9125	-3.0938	75.642	143.846	284.644	93.759	122.624	148.729	193.656	277.217	217.526	67.022	51.114	13.431	244.450	249.530	230.900	189.993	2.2781e-05	6.1629e-05	2.4011e-05	59.727	3.4629e-07	3.6822e-07	61.153	21.151	1.9684e-07	8.0385e-08	23.302	11.802	9.833	4.8036	4.7665e-07	5.3844	1.0423e-06	-1.8446e-06	4.5418e-06	70.082	-2.5711e-08	-4.0101e-08	71.49	24.877	-3.1086e-08	-2.5376e-08	26.995	13.852	11.654	5.6305	-1.9653e-08	6.2731	158.831	25.929	-2.393	-31.679	156.087	44.921	-32.339	-26.845	44.634	266.001	-29.849	-26.088	-23.392	-20.436	91.326	-23.596	-8191	255	
32675.262	1	1	0	0	0.21205	0.26727	0.095999	0.065446	0.16808	0.23697	0.081179	0.24752	0.15738	0.035917	0.067539	0.10214	0.12983	0.17305	0.24234	0.12228	-2.7271	-2.8646	-2.9604	-2.8792	-2.8417	-3.0563	-2.7604	-2.9333	-3.0521	-2.6688	-3.0021	-2.9229	-2.8125	-3.2625	-3.0417	-3.0563	-2.980	233.140	-18.792	245.939	127.276	-40.434	80.378	174.339	-44.673	-26.575	155.745	267.438	290.904	107.466	-32.222	188.334	2.6871e-05	2.5751e-05	2.919e-05	60.012	4.385e-07	6.6484e-07	60.759	20.857	3.3202e-07	4.1905e-07	22.915	11.607	9.788	4.7132	2.2187e-07	5.3055	1.1843e-06	-2.4448e-06	2.8438e-06	69.926	-2.4476e-08	-3.2675e-08	71.197	24.737	-2.6726e-08	-2.4464e-08	26.64	13.704	11.492	5.6026	-2.1131e-08	6.1995	159.748	-17.741	-17.135	-31.728	97.500	124.158	-32.153	-26.883	126.512	130.514	-29.156	-25.333	-23.214	-20.320	136.792	-23.562	-8191	255	
32675.383	1	1	0	0	0.14523	0.14848	0.34018	0.19881	0.061056	0.17214	0.17583	0.13063	0.23394	0.14798	0.23691	0.10175	0.13033	0.043129	0.21252	0.11615	-2.7167	-2.8125	-3.0187	-3.0875	-2.8	-3.2354	-3.0292	-2.9938	-3.3458	-2.8167	-2.9062	-3.0667	-2.6708	-3.1146	-3.0292	-2.9188	220.655	-5.518	-31.677	271.973	149.327	205.969	86.890	-41.501	275.838	147.849	-8.691	268.604	280.094	-40.153	253.320	77.103	2.2277e-05	2.3981e-05	5.1953e-05	59.878	5.4301e-07	3.5995e-07	60.599	20.737	1.2818e-07	3.5016e-07	23.025	11.679	9.7747	4.7588	7.871e-07	5.3342	1.2695e-06	-2.2564e-06	4.4895e-06	69.78	-1.6301e-08	-3.5645e-08	70.926	24.649	-2.938e-08	-2.787e-08	26.645	13.734	11.501	5.6227	-1.8842e-08	6.2278	155.926	14.385	4.760	-32.031	119.218	44.915	-32.639	-27.239	106.513	71.024	-29.220	-25.655	-23.393	-20.421	83.301	-23.387	-8191	255	
32675.479	1	1	0	0	0.18376	0.046881	0.23193	0.13335	0.10984	0.21046	0.084862	0.10144	0.19468	0.17959	0.28185	0.039732	0.088203	0.19088	0.11678	0.11674	-2.6875	-2.7875	-3.0167	-3.1521	-2.8083	-3.1917	-3.0708	-3.0604	-3.0729	-2.9021	-2.9208	-3.1125	-2.8833	-3.1979	-2.9729	-2.9896	258.903	99.756	110.590	155.953	40.255	157.871	73.048	-14.389	156.752	95.777	21.663	218.995	-39.202	200.633	133.843	258.899	2.5391e-05	5.2704e-05	4.1066e-05	59.528	2.3264e-07	7.7414e-07	60.612	20.942	6.4694e-07	5.9779e-07	23.308	11.72	9.8143	4.7846	4.0574e-07	5.3969	1.1113e-06	-2.2827e-06	2.9435e-06	69.854	-1.9818e-08	-2.98e-08	71.242	24.758	2.1988e-08	-2.7726e-08	26.895	13.808	11.619	5.6591	-2.1752e-08	6.2829	156.607	61.135	25.320	-31.608	83.252	68.236	-32.398	-26.668	151.629	114.594	-29.702	-25.501	-23.516	-20.488	98.759	-23.197	-8191	255	
32675.574	1	1	0	0	0.40306	0.20472	0.14214	0.085337	0.071559	0.24023	0.26086	0.16819	0.12582	0.19328	0.26834	0.1951	0.10391	0.048439	0.19473	0.25988	-2.8396	-2.6958	-2.9021	-3.0875	-2.8167	-3.2604	-2.8396	-2.8771	-3.1813	-2.9854	-3.0021	-2.9813	-2.8042	-2.95	-2.8729	-2.8458	66.234	74.586	287.124	157.167	97.586	212.446	202.655	110.082	153.555	138.046	-9.573	246.048	298.045	291.397	68.665	32.450	2.6984e-05	6.0967e-05	4.4661e-05	60.193	4.309e-07	6.6788e-07	60.551	21.126	9.9401e-07	5.6594e-07	23.474	11.883	9.9827	4.8356	2.846e-07	5.3939	1.4033e-06	-2.677e-06	4.6732e-06	69.946	-1.9675e-08	-3.416e-08	71.453	24.936	9.4489e-08	-3.118e-08	27.246	13.965	11.684	5.6963	-2.2753e-08	6.3045	168.355	24.766	7.548	-31.855	53.690	99.059	-32.673	-26.739	174.238	92.121	-29.078	-25.881	-23.667	-20.395	150.154	-23.543	-8191	255	
32675.672	1	1	0	0	0.032126	0.10727	0.15092	0.098613	0.081552	0.19843	0.085712	0.27296	0.18348	0.10462	0.1904	0.28578	0.21859	0.12675	0.24359	0.1921	-2.7562	-2.9062	-2.7667	-3.2042	-2.8833	-3.15	-3.025	-2.7042	-3.2167	-3.0646	-2.8604	-3.2271	-2.7313	-3.0104	-3.2	-2.8542	18.990	-16.695	291.487	93.268	31.597	119.527	187.875	130.617	195.128	60.087	186.687	102.923	60.230	142.795	-13.430	302.571	2.1714e-05	7.5359e-05	3.5614e-05	60.115	2.3946e-07	3.4128e-07	61.226	21.44	1.0936e-06	3.8292e-07	23.746	11.921	10.011	4.8165	3.5885e-07	5.4078	1.6467e-06	-2.2871e-06	2.9861e-06	70.212	-1.8535e-08	-3.1093e-08	71.763	25.222	1.7263e-07	-2.7294e-08	27.424	14	11.746	5.6889	-2.6235e-08	6.2953	165.327	11.299	27.946	-31.755	106.029	15.968	-32.348	-26.912	148.239	70.063	-28.965	-25.783	-23.282	-20.064	107.801	-23.491	-8191	255	
32675.768	1	1	0	0	0.095751	0.16796	0.10825	0.12265	0.22669	0.14344	0.16218	0.089969	0.26233	0.23433	0.25093	0.029816	0.20589	0.23932	0.1782	0.041632	-2.8187	-3.0104	-2.8375	-3.1937	-2.9333	-3.0917	-2.9396	-3	-3.15	-2.8958	-2.9521	-3.1063	-2.8917	-2.9646	-3.2646	-2.9542	13.516	-17.762	159.618	281.727	301.453	102.919	-2.873	231.685	244.817	11.718	-40.710	104.065	296.301	209.234	264.109	163.916	2.6736e-05	3.5637e-05	5.5754e-05	60.217	4.4752e-07	5.4706e-07	61.383	21.364	6.9851e-07	4.4701e-07	23.688	11.885	9.9672	4.8278	2.0137e-07	5.4007	1.5858e-06	-2.677e-06	2.3196e-06	70.465	-2.1862e-08	-2.8123e-08	71.916	25.131	1.0378e-07	-3.3338e-08	27.416	13.96	11.728	5.6925	-2.4423e-08	6.288	152.201	20.590	-2.659	-31.872	184.960	52.678	-32.474	-27.040	117.594	82.609	-29.516	-25.653	-23.353	-20.398	162.983	-23.317	-8191	255	
32675.861	1	1	0	0	0.19805	0.24154	0.15426	0.23104	0.18012	0.27222	0.11608	0.18623	0.16355	0.16128	0.18413	0.23242	0.38455	0.17346	0.218	0.049232	-2.725	-3.0938	-2.8312	-3.0979	-2.8854	-2.925	-3.2479	-2.8125	-3.0125	-2.975	-2.7479	-3.1208	-3.0229	-2.7958	-3.2458	-2.7917	103.709	113.948	-22.159	239.532	287.207	41.149	128.670	103.621	68.470	186.388	241.393	76.708	287.028	-12.987	106.825	56.420	2.393e-05	6.5817e-06	1.0304e-05	60.283	5.0347e-07	2.6637e-07	61.196	21.327	9.9662e-07	4.9705e-07	23.695	11.92	10.006	4.8221	2.4719e-07	5.4129	1.1802e-06	-3.0144e-06	-6.0331e-07	70.781	-2.286e-08	-2.2949e-08	71.837	25.104	1.8779e-07	-2.8014e-08	27.468	14.017	11.725	5.6842	-2.6522e-08	6.3041	159.279	109.412	94.028	-31.974	127.746	83.717	-32.526	-26.944	127.660	113.125	-29.158	-25.935	-23.118	-20.320	202.705	-23.915	-8191	255	
32675.957	1	1	0	0	0.043244	0.22033	0.15638	0.48278	0.23029	0.12764	0.1768	0.18462	0.23423	0.088766	0.11413	0.10954	0.2629	0.078811	0.15673	0.087637	-2.6979	-3.1813	-2.6021	-3.125	-2.9208	-2.9688	-3.1688	-2.7375	-3.0104	-3.2167	-2.8646	-3.2812	-2.9396	-2.9	-3.2229	-2.7812	305.264	175.847	172.819	93.322	91.150	140.426	76.233	265.825	292.865	192.881	98.595	171.290	131.079	93.039	159.134	11.078	2.5633e-05	8.393e-05	2.8662e-05	60.444	5.8977e-07	5.309e-07	60.566	21.409	7.6346e-07	5.9549e-07	23.597	11.811	9.9549	4.782	4.1315e-07	5.3653	1.6953e-06	-2.7515e-06	-6.0574e-07	70.914	-2.1719e-08	-2.4674e-08	71.598	25.079	1.1515e-07	-3.4586e-08	27.249	13.906	11.647	5.632	4.1214e-08	6.2577	145.796	29.774	60.829	-32.004	118.401	75.773	-32.430	-27.221	161.385	63.396	-29.272	-25.547	-23.245	-20.447	244.513	-23.406	-8191	255	
32676.055	1	1	0	0	0.17012	0.14898	0.14285	0.1215	0.019729	0.10069	0.050243	0.073878	0.11599	0.20511	0.086638	0.14864	0.10037	0.29802	0.14239	0.22257	-2.6	-3.0292	-2.9354	-3.0958	-2.9583	-2.8208	-3.2229	-2.9813	-2.9562	-3.1229	-2.8688	-3.0729	-2.9188	-2.7875	-3.2438	-3.0563	-12.266	150.763	98.425	196.176	276.713	190.397	270.657	10.779	307.816	24.864	282.445	122.061	138.392	303.768	237.338	98.834	2.1203e-05	5.6097e-05	1.9099e-05	60	4.6634e-07	5.8125e-07	60.773	21.096	9.1394e-07	3.5347e-07	23.262	11.62	9.8015	4.7502	7.9533e-07	5.3049	1.6426e-06	-2.8961e-06	-5.4249e-07	70.45	-2.4048e-08	-2.5871e-08	71.346	24.807	1.7979e-07	-3.6744e-08	26.842	13.714	11.518	5.5766	1.1162e-07	6.1998	166.073	54.249	31.413	-32.002	134.202	125.460	-32.432	-27.091	149.409	76.165	-29.745	-25.764	-23.630	-20.255	188.720	-23.466	-8191	255	
32676.152	1	1	0	0	0.27219	0.076367	0.15773	0.11739	0.076977	0.10023	0.22568	0.24095	0.17544	0.15112	0.040279	0.13358	0.28563	0.097552	0.20549	0.24273	-2.3729	-3.1042	-2.95	-3.1729	-2.9958	-2.7396	-3.15	-2.9521	-2.8792	-3.3417	-2.9729	-3.1562	-3.1312	-2.8688	-3.1208	-2.9792	235.057	52.060	-12.333	227.651	-19.744	92.126	195.315	307.467	-42.992	-6.859	119.373	11.915	291.004	138.772	227.497	230.062	2.584e-05	7.7657e-05	1.5973e-05	59.974	4.2546e-07	3.0837e-07	60.383	20.973	7.2084e-07	6.6868e-07	22.906	11.704	9.8945	4.7759	5.2391e-07	5.3459	1.8535e-06	-3.216e-06	-7.1886e-07	70.603	-2.5806e-08	-2.4626e-08	71.222	24.645	1.2212e-07	-3.9095e-08	26.818	13.752	11.545	5.5931	1.8541e-07	6.2184	148.701	12.356	48.598	-31.753	158.857	37.760	-32.296	-27.115	157.533	78.761	-28.773	-25.553	-23.155	-20.171	-11.882	-23.618	-8191	255	
32676.271	1	1	0	0	0.31001	0.23868	0.18855	0.05116	0.201	0.22785	0.13927	0.2098	0.073705	0.19058	0.049096	0.20639	0.27348	0.060606	0.10769	0.12315	-2.5167	-3.4542	-2.8146	-2.9792	-3.1937	-2.9458	-3.1021	-2.8104	-2.8458	-3.1646	-2.925	-3.1104	-3.3438	-2.6396	-3.0563	-3.1229	110.565	227.220	-4.864	14.135	166.849	-34.154	192.420	41.433	126.319	59.218	-18.909	207.731	189.923	25.628	74.025	144.775	2.0883e-05	3.3454e-05	2.4183e-05	60.057	4.1086e-07	3.5831e-07	60.511	20.989	7.1693e-07	1.2041e-06	23.366	11.803	9.8457	4.7733	3.256e-07	5.3815	1.9509e-06	-2.7559e-06	-5.7776e-07	70.397	-3.0321e-08	-2.7596e-08	71.291	24.808	7.1649e-08	4.6626e-08	27.066	13.838	11.603	5.6122	1.1854e-07	6.2444	167.455	23.848	36.005	-31.451	75.063	137.381	-32.616	-26.926	100.173	220.311	-29.831	-25.493	-23.616	-20.364	-10.754	-23.665	-8191	255	
32676.367	1	1	0	0	0.082189	0.099895	0.31073	0.13131	0.21869	0.078709	0.39837	0.085825	0.28295	0.25107	0.19949	0.21213	0.30921	0.14109	0.22702	0.32822	-2.6937	-3.2062	-3.0167	-3.1375	-2.9646	-2.9854	-3.0479	-2.875	-2.9917	-3.05	-2.8937	-2.9833	-3.0438	-2.7458	-3.2	-3.0521	58.268	37.825	193.418	1.410	30.931	190.669	116.586	158.933	134.329	144.483	176.809	145.496	-30.558	239.475	-26.510	261.300	2.124e-05	5.9767e-05	2.1021e-05	60.056	5.8547e-07	7.8432e-07	61.048	21.218	2.5565e-07	1.1544e-06	23.281	11.768	9.888	4.7866	8.5215e-07	5.3608	2.0076e-06	-2.5675e-06	-6.8237e-07	70.624	-2.9941e-08	-2.9704e-08	71.41	24.909	-1.9713e-08	1.0083e-07	27.013	13.805	11.623	5.6103	1.8074e-07	6.2434	149.971	73.773	43.400	-31.583	119.142	155.145	-32.449	-26.744	81.212	189.752	-29.485	-26.149	-23.480	-20.169	-33.832	-23.611	-8191	255	
32676.463	1	1	0	0	0.2039	0.20145	0.11502	0.21201	0.14794	0.076619	0.12375	0.039512	0.15354	0.27905	0.21666	0.1298	0.12943	0.21058	0.20925	0.081934	-2.3625	-2.9562	-2.925	-2.8771	-3.25	-2.7896	-3.0792	-2.8937	-2.8667	-3.0771	-2.8458	-3.0083	-3.0292	-2.9167	-3.1063	-3.2562	69.750	82.434	265.426	-24.929	140.329	268.186	252.306	303.358	195.426	199.550	41.629	58.375	89.049	40.759	68.714	284.357	2.1891e-05	5.4784e-05	9.3128e-06	59.965	5.1116e-07	6.5135e-07	60.616	21.256	5.4115e-08	1.2577e-06	23.653	11.765	9.8552	4.7587	6.4872e-07	5.354	2.109e-06	-2.8654e-06	-7.0183e-07	70.471	-2.9893e-08	-2.453e-08	71.399	25.023	-1.4548e-08	1.7561e-07	27.265	13.876	11.657	5.6235	1.1563e-07	6.242	166.038	25.165	57.810	-31.604	103.367	93.326	-32.557	-26.813	-36.263	156.613	-29.539	-25.837	-23.048	-20.292	-3.888	-23.602	-8191	255	
32676.559	1	1	0	0	0.06406	0.070829	0.17672	0.30759	0.37642	0.0081553	0.13947	0.050797	0.24963	0.21033	0.20179	0.17254	0.23099	0.11131	0.18267	0.070285	-2.4792	-3.0687	-2.9729	-2.8896	-3.2062	-3.1458	-3.1	-3.125	-2.9479	-3.2479	-3.0438	-2.9479	-3.1937	-2.9562	-3.0896	-3.15	173.560	-13.311	177.481	64.013	165.552	270.195	98.971	97.816	171.098	167.821	132.919	89.373	221.097	229.396	57.318	239.131	2.1893e-05	9.4071e-05	1.9776e-05	60.121	7.2831e-07	2.8329e-07	60.999	21.386	9.4111e-08	1.258e-06	23.689	11.923	9.9817	4.8328	8.4757e-07	5.433	2.4254e-06	-2.6201e-06	-7.5656e-07	70.474	5.2706e-08	-2.956e-08	71.741	25.203	-2.0282e-08	1.1378e-07	27.496	14.029	11.781	5.6703	1.8799e-07	6.3078	165.883	10.631	79.368	-32.219	152.469	115.132	-32.073	-26.867	168.216	216.622	-29.775	-26.065	-23.175	-20.496	-39.965	-23.441	-8191	255	
32676.656	1	1	0	0	0.22206	0.17945	0.295	0.22438	0.15253	0.14299	0.19614	0.16119	0.23465	0.04546	0.13597	0.19001	0.20837	0.10382	0.087494	0.20797	-2.3937	-3.0625	-3.0896	-2.8187	-3.1125	-2.9417	-3.0396	-3.0563	-2.8583	-3.0583	-3.0187	-2.8187	-3.0896	-2.8	-2.9813	-2.9833	35.690	145.961	306.271	180.416	203.416	303.337	97.524	155.319	278.604	58.690	143.664	8.357	72.170	269.566	289.461	163.678	2.1123e-05	3.4953e-05	9.9228e-06	60.265	9.6034e-07	8.5132e-07	61.589	21.393	3.4077e-07	1.7118e-06	23.59	11.826	10	4.8251	1.9294e-07	5.3287	2.036e-06	-2.6288e-06	-7.6265e-07	70.297	1.028e-07	-2.6782e-08	72.064	25.175	-2.5305e-08	1.7605e-07	27.337	13.935	11.711	5.6409	1.1362e-07	6.2404	152.203	-8.140	96.625	-31.291	105.521	103.121	-32.320	-26.963	-24.625	197.070	-29.295	-26.028	-23.425	-20.231	2.454	-23.229	-8191	255	
32676.752	1	1	0	0	0.041057	0.11046	0.16055	0.13752	0.17004	0.06935	0.35932	0.15152	0.01499	0.43423	0.041605	0.24557	0.10576	0.21888	0.16256	0.059913	-2.4188	-2.8417	-2.9417	-2.5917	-3.2062	-2.9708	-2.8375	-3.1458	-2.9313	-3.1521	-3.1542	-2.8917	-3.2729	-2.8333	-2.9083	-3.1583	185.023	-13.783	298.526	172.801	207.611	90.696	309.471	66.105	215.332	165.420	262.496	82.723	-21.744	105.904	242.658	19.989	2.225e-05	3.6106e-05	2.1284e-05	60.364	1.2695e-06	1.0109e-06	60.911	21.252	1.2233e-07	8.7219e-07	23.393	11.806	9.9051	4.8074	1.0312e-06	5.3737	1.6345e-06	-2.3572e-06	-8.0279e-07	70.158	1.7542e-07	-3.1764e-08	71.496	25.063	-2.3741e-08	1.0404e-07	27.259	13.925	11.689	5.6444	5.8624e-08	6.285	162.649	15.422	58.906	-32.010	90.845	142.057	-32.545	-26.740	126.080	238.345	-29.163	-26.071	-23.416	-20.170	7.144	-23.347	-8191	255	
32676.871	1	1	0	0	0.13074	0.080721	0.32044	0.06358	0.18278	0.12437	0.15321	0.10356	0.18285	0.14492	0.27709	0.17698	0.13093	0.24024	0.30308	0.19948	-2.2542	-2.9854	-3.1229	-2.7917	-3.1667	-2.8854	-2.8104	-3.1146	-2.9229	-3.2375	-3.1333	-2.9708	-3.2792	-2.7896	-2.9958	-3.1063	15.551	304.383	55.662	287.989	98.133	75.163	164.716	-29.941	237.486	262.848	261.574	185.682	240.042	287.302	75.988	197.376	1.8695e-05	9.0338e-05	1.933e-05	59.764	5.9753e-07	6.6759e-07	61.103	21.43	1.818e-07	1.15e-06	23.599	11.89	10.014	4.8079	2.6244e-07	5.3322	1.9225e-06	-2.4054e-06	-7.5535e-07	70.172	1.0745e-07	-2.7452e-08	71.829	25.203	-1.7107e-08	1.7485e-07	27.349	13.988	11.741	5.6538	-1.7315e-08	6.299	162.342	-23.216	91.015	-31.417	119.037	153.835	-32.637	-26.495	19.771	225.722	-28.733	-25.571	-23.472	-20.602	123.258	-23.587	-8191	255	
32676.967	1	1	0	0	0.39756	0.11058	0.091679	0.12251	0.1032	0.19412	0.14401	0.33085	0.17841	0.067201	0.14932	0.14834	0.34808	0.14755	0.18214	0.21257	-2.5396	-2.8438	-3.0625	-2.8167	-3.1625	-3.1125	-3.0208	-3	-2.7875	-2.9542	-3.0938	-2.7917	-3.1021	-3.0104	-2.85	-3.1083	36.803	-1.069	27.299	-3.626	113.891	111.120	106.963	-2.109	153.912	198.734	294.411	103.136	10.688	139.905	-30.392	105.852	2.3286e-05	4.8112e-05	2.2521e-05	60.28	1.5574e-06	1.6585e-07	61.312	21.386	2.9255e-07	5.3483e-07	23.505	11.839	9.995	4.8119	3.9025e-07	5.3943	1.6021e-06	-2.2915e-06	-8.1738e-07	70.242	1.796e-07	-3.4256e-08	71.913	25.143	-2.5352e-08	1.0241e-07	27.31	13.947	11.684	5.6274	-1.97e-08	6.3105	151.449	79.916	50.789	-31.322	102.516	21.199	-32.436	-27.132	-35.702	109.310	-29.267	-25.643	-23.414	-20.373	122.228	-23.200	-8191	255	
32677.062	1	1	0	0	0.29166	0.089431	0.16479	0.29763	0.067678	0.27042	0.094384	0.132	0.26892	0.15697	0.01621	0.22506	0.085122	0.17769	0.094839	0.16471	-2.4917	-2.9521	-3.1458	-2.7354	-3.1042	-3.1021	-2.625	-3.2	-2.9792	-2.9625	-3.0792	-2.9042	-3.0687	-2.9292	-2.7604	-3.125	298.773	197.240	43.774	273.144	212.284	160.226	49.460	186.257	93.578	302.331	34.763	-18.453	225.187	215.461	77.298	209.408	2.5526e-05	9.4795e-05	1.8444e-05	60.006	1.0651e-06	4.4607e-07	61.136	21.278	1.6644e-07	1.7443e-07	23.21	11.709	9.9348	4.7646	1.9039e-07	5.3529	2.0604e-06	-2.1425e-06	-8.3806e-07	69.904	1.0855e-07	-3.5884e-08	71.331	24.993	-2.7863e-08	4.0534e-08	27.244	13.793	11.623	5.5966	-1.9128e-08	6.2493	160.489	61.909	99.146	-31.943	140.773	61.893	-32.699	-27.113	54.283	312.542	-29.336	-25.489	-23.489	-20.483	185.710	-23.644	-8191	255	
32677.158	1	1	0	0	0.167	0.25651	0.10122	0.098199	0.16769	0.10441	0.17144	0.10856	0.10723	0.080568	0.16755	0.14471	0.096776	0.31527	0.21966	0.086452	-2.3688	-2.8396	-2.9229	-2.8146	-2.9104	-3.0938	-2.8917	-3.0458	-2.9625	-2.9021	-3.2562	-2.5229	-3.1396	-2.9229	-2.8667	-3.1604	161.847	107.379	281.294	117.014	278.776	77.211	66.715	-30.564	231.343	44.560	166.207	282.105	175.355	233.351	-41.312	15.101	1.8546e-05	6.1952e-05	2.088e-05	59.551	8.9511e-07	2.6607e-07	60.832	21.26	3.908e-07	4.5917e-07	23.282	11.713	9.8702	4.7609	2.0517e-07	5.3502	1.3587e-06	-2.3791e-06	-8.0279e-07	69.934	1.8302e-07	-3.2627e-08	71.315	24.939	-2.7674e-08	-2.9981e-08	27.307	13.791	11.603	5.5862	-1.6314e-08	6.2585	147.669	16.673	81.077	-31.663	110.301	101.343	-32.260	-26.818	89.425	94.543	-29.673	-25.756	-23.256	-20.151	49.058	-23.413	-8191	255	
#DATA ENDS
