BOXY.EXE: ISS Imagent and Oximeter Data Acquisition Program Version 0.80
Ascii Record File

#ACQ INFORMATION
2  Detector Channels 
16  External MUX Channels 
1  Auxiliary Channels 
5000  Waveform (CCF) Frequency (Hz)
1  Waveforms Skipped 
30  Waveforms Averaged 
1  Cycles Averaged 
16  Acquisitions per Waveform 
10.0806  Updata Rate (Hz) 

#FILE INFORMATION
TRUE -- External MUX Channel results are PARSED.
FALSE -- AC DC and Phase are NOT grouped.
TRUE -- Companion Program Settings File CREATED.
FALSE -- AC data not excluded
FALSE -- DC data not excluded
FALSE -- Phase data not excluded
FALSE -- Auxillary Chn. data not excluded
Tab delimiters

#CALIBRATION STATE
TRUE -- Waveform Calibration Values APPLIED.


#AUX CALIBRATION VALUES
Val Type	aux-1	

Term	1.0000e+00	
Factor	0.0000e+00	


#WF CALIBRATION VALUES
A = Detector Channel
Val Type	A-AC1	A-AC2	A-AC3	A-AC4	A-AC5	A-AC6	A-AC7	A-AC8	A-AC9	A-AC10	A-AC11	A-AC12	A-AC13	A-AC14	A-AC15	A-AC16	A-DC1	A-DC2	A-DC3	A-DC4	A-DC5	A-DC6	A-DC7	A-DC8	A-DC9	A-DC10	A-DC11	A-DC12	A-DC13	A-DC14	A-DC15	A-DC16	A-Ph1	A-Ph2	A-Ph3	A-Ph4	A-Ph5	A-Ph6	A-Ph7	A-Ph8	A-Ph9	A-Ph10	A-Ph11	A-Ph12	A-Ph13	A-Ph14	A-Ph15	A-Ph16	

Term	0.00000e+00	0.00000e+00	0.00000e+00	0.00000e+00	0.00000e+00	0.00000e+00	0.00000e+00	0.00000e+00	0.00000e+00	0.00000e+00	0.00000e+00	0.00000e+00	0.00000e+00	0.00000e+00	0.00000e+00	0.00000e+00	0.00000e+00	0.00000e+00	0.00000e+00	0.00000e+00	0.00000e+00	0.00000e+00	0.00000e+00	0.00000e+00	0.00000e+00	0.00000e+00	0.00000e+00	0.00000e+00	0.00000e+00	0.00000e+00	0.00000e+00	0.00000e+00	0.00000e+00	0.00000e+00	0.00000e+00	0.00000e+00	0.00000e+00	0.00000e+00	0.00000e+00	0.00000e+00	0.00000e+00	0.00000e+00	0.00000e+00	0.00000e+00	0.00000e+00	0.00000e+00	0.00000e+00	0.00000e+00	
Factor	1.00000e+00	1.00000e+00	1.00000e+00	1.00000e+00	1.00000e+00	1.00000e+00	1.00000e+00	1.00000e+00	1.00000e+00	1.00000e+00	1.00000e+00	1.00000e+00	1.00000e+00	1.00000e+00	1.00000e+00	1.00000e+00	1.00000e+00	1.00000e+00	1.00000e+00	1.00000e+00	1.00000e+00	1.00000e+00	1.00000e+00	1.00000e+00	1.00000e+00	1.00000e+00	1.00000e+00	1.00000e+00	1.00000e+00	1.00000e+00	1.00000e+00	1.00000e+00	X	X	X	X	X	X	X	X	X	X	X	X	X	X	X	X	

B = Detector Channel
Val Type	B-AC1	B-AC2	B-AC3	B-AC4	B-AC5	B-AC6	B-AC7	B-AC8	B-AC9	B-AC10	B-AC11	B-AC12	B-AC13	B-AC14	B-AC15	B-AC16	B-DC1	B-DC2	B-DC3	B-DC4	B-DC5	B-DC6	B-DC7	B-DC8	B-DC9	B-DC10	B-DC11	B-DC12	B-DC13	B-DC14	B-DC15	B-DC16	B-Ph1	B-Ph2	B-Ph3	B-Ph4	B-Ph5	B-Ph6	B-Ph7	B-Ph8	B-Ph9	B-Ph10	B-Ph11	B-Ph12	B-Ph13	B-Ph14	B-Ph15	B-Ph16	

Term	0.00000e+00	0.00000e+00	0.00000e+00	0.00000e+00	0.00000e+00	0.00000e+00	0.00000e+00	0.00000e+00	0.00000e+00	0.00000e+00	0.00000e+00	0.00000e+00	0.00000e+00	0.00000e+00	0.00000e+00	0.00000e+00	0.00000e+00	0.00000e+00	0.00000e+00	0.00000e+00	0.00000e+00	0.00000e+00	0.00000e+00	0.00000e+00	0.00000e+00	0.00000e+00	0.00000e+00	0.00000e+00	0.00000e+00	0.00000e+00	0.00000e+00	0.00000e+00	3.11442e+01	-1.32585e+02	-1.25137e+02	-1.82803e+02	-6.99753e+01	-6.57492e+01	-1.55363e+02	-1.62015e+02	-5.19944e+01	-6.84061e+01	-1.72002e+02	-1.69539e+02	-1.79829e+02	-1.77289e+02	-5.95372e+01	-1.49288e+02	
Factor	4.46143e-05	1.55393e-04	3.79425e-05	1.69166e-01	1.65811e-06	1.54395e-06	1.50608e-01	4.38241e-02	2.52180e-06	1.64082e-06	8.20883e-02	2.44333e-02	2.46613e-02	7.74829e-03	1.75397e-06	1.09675e-02	1.31998e-05	1.98917e-05	5.63019e-06	8.76786e-02	2.03302e-07	2.24248e-07	7.35378e-02	2.28266e-02	1.97474e-07	2.25893e-07	4.16175e-02	1.24053e-02	1.29592e-02	4.07900e-03	2.08931e-07	5.61216e-03	X	X	X	X	X	X	X	X	X	X	X	X	X	X	X	X	



#DISTANCE SETTINGS
A = Detector Channel
A-1	A-2	A-3	A-4	A-5	A-6	A-7	A-8	A-9	A-10	A-11	A-12	A-13	A-14	A-15	A-16	

2.5000e+00	3.0000e+00	2.5000e+00	3.0000e+00	2.0000e+00	3.0000e+00	1.5000e+00	3.0000e+00	3.0000e+00	3.0000e+00	3.0000e+00	3.0000e+00	3.0000e+00	3.0000e+00	1.5000e+00	3.0000e+00	

B = Detector Channel
B-1	B-2	B-3	B-4	B-5	B-6	B-7	B-8	B-9	B-10	B-11	B-12	B-13	B-14	B-15	B-16	

1.0000e+01	1.0000e+01	1.0000e+01	1.4400e+00	1.0000e+01	1.0000e+01	1.5100e+00	1.9400e+00	1.0000e+01	1.0000e+01	1.9900e+00	2.4900e+00	2.4100e+00	2.9000e+00	1.0000e+01	2.9800e+00	




#DATA BEGINS
time	group	step	mark	flag	A-AC1	A-AC2	A-AC3	A-AC4	A-AC5	A-AC6	A-AC7	A-AC8	A-AC9	A-AC10	A-AC11	A-AC12	A-AC13	A-AC14	A-AC15	A-AC16	A-DC1	A-DC2	A-DC3	A-DC4	A-DC5	A-DC6	A-DC7	A-DC8	A-DC9	A-DC10	A-DC11	A-DC12	A-DC13	A-DC14	A-DC15	A-DC16	A-Ph1	A-Ph2	A-Ph3	A-Ph4	A-Ph5	A-Ph6	A-Ph7	A-Ph8	A-Ph9	A-Ph10	A-Ph11	A-Ph12	A-Ph13	A-Ph14	A-Ph15	A-Ph16	B-AC1	B-AC2	B-AC3	B-AC4	B-AC5	B-AC6	B-AC7	B-AC8	B-AC9	B-AC10	B-AC11	B-AC12	B-AC13	B-AC14	B-AC15	B-AC16	B-DC1	B-DC2	B-DC3	B-DC4	B-DC5	B-DC6	B-DC7	B-DC8	B-DC9	B-DC10	B-DC11	B-DC12	B-DC13	B-DC14	B-DC15	B-DC16	B-Ph1	B-Ph2	B-Ph3	B-Ph4	B-Ph5	B-Ph6	B-Ph7	B-Ph8	B-Ph9	B-Ph10	B-Ph11	B-Ph12	B-Ph13	B-Ph14	B-Ph15	B-Ph16	aux-1	digaux	

18411.119	1	1	0	256	0.18062	0.11641	0.21936	0.21191	0.086891	0.2254	0.17039	0.23491	0.030351	0.19511	0.25106	0.23308	0.14921	0.2203	0.18457	0.04381	-2.4458	-2.8417	-2.7021	-3.0812	-2.8979	-2.7542	-3.1604	-3.0375	-2.7792	-3.0979	-2.7875	-2.9396	-2.8937	-2.7479	-3.025	-2.7458	319.090	360.747	366.957	466.869	177.629	244.309	429.360	444.269	253.065	368.147	481.952	525.017	502.382	503.599	437.018	486.636	0.0011516	0.0006577	0.00014537	1078.7	7.9223e-06	3.9991e-06	1350.6	310.26	1.8581e-05	8.4835e-06	419.74	123.64	83.949	26.111	6.6149e-06	39.2	0.00103	0.0013407	0.00035467	839.42	1.6794e-05	1.3136e-05	1052.7	241.9	1.2549e-05	1.417e-05	329.96	96.551	65.794	20.53	1.2687e-05	31.072	367.242	294.145	321.384	178.601	285.955	254.425	177.105	183.092	292.475	298.720	181.100	186.069	188.006	193.642	246.915	189.870	-8191	255	
18411.217	1	1	0	0	0.12891	0.48971	0.10866	0.1538	0.20868	0.16527	0.32815	0.18542	0.14929	0.19617	0.091891	0.22179	0.23954	0.072211	0.3366	0.21069	-2.4354	-2.925	-2.7833	-3.0125	-3.0875	-2.9313	-3.1146	-2.825	-2.9208	-3.0208	-2.8917	-3.0896	-2.8333	-2.7021	-3.0583	-3.0042	293.204	201.049	368.423	520.646	283.559	514.344	489.969	412.748	278.643	453.512	447.811	496.461	480.469	463.695	499.998	386.535	0.00096367	0.0013075	0.00028332	1089.7	4.8432e-06	7.5079e-06	1360.7	311.77	1.8905e-05	3.4087e-06	419.36	124.67	84.533	25.998	1.5885e-05	39.435	0.0010128	0.0012147	0.00034598	842.64	1.296e-05	1.7175e-05	1058.9	241.65	1.2373e-05	1.3651e-05	329.9	96.914	66.188	20.671	1.2424e-05	31.27	357.045	287.553	262.315	178.311	251.941	340.672	177.066	183.403	330.413	221.879	181.337	185.849	188.014	193.297	339.286	189.826	-8191	255	
18411.312	1	1	0	0	0.1609	0.16587	0.16508	0.10591	0.31892	0.05618	0.15408	0.13897	0.17012	0.13102	0.21607	0.24562	0.19316	0.046603	0.05287	0.31606	-2.4354	-3.0062	-2.7875	-2.9896	-2.9729	-2.6437	-3.3104	-2.8688	-2.85	-3.2542	-2.9458	-3.15	-3.0604	-2.8	-2.9958	-2.9938	396.630	370.453	452.217	473.729	511.778	322.652	414.863	477.461	417.167	322.338	469.786	489.574	176.189	387.242	456.131	482.124	0.00094867	0.00089837	0.00010295	1082.9	8.5067e-06	5.6433e-06	1354.8	312.65	1.2682e-05	3.3097e-06	421.59	125.31	85.104	26.249	8.0507e-06	38.91	0.0010465	0.0011817	0.00034368	841.72	1.2708e-05	1.783e-05	1053.3	243.23	1.2468e-05	1.4035e-05	329.14	97.599	66.023	20.789	1.2429e-05	30.976	349.481	297.922	313.989	177.977	359.917	334.097	176.934	183.137	282.933	356.912	180.523	185.266	188.279	193.127	353.376	190.141	-8191	255	
18411.408	1	1	0	0	0.14172	0.065473	0.20527	0.17668	0.18911	0.12554	0.28009	0.13747	0.054245	0.19745	0.10314	0.080036	0.16826	0.2988	0.14883	0.24271	-2.1583	-2.9208	-2.7104	-2.8604	-2.9729	-2.775	-3.2146	-3.1188	-2.7792	-3.1333	-2.9417	-2.9521	-3.0771	-2.7625	-3.0229	-2.9979	189.958	281.661	382.305	419.747	321.268	191.095	506.232	513.787	480.183	392.593	192.951	366.729	283.665	420.549	236.781	505.882	0.0011913	0.00074813	0.00018877	1072.8	3.1486e-06	1.3282e-05	1347.6	311.31	9.434e-06	1.0925e-06	418.52	123.7	84.212	25.923	4.8509e-06	39.02	0.00099392	0.001187	0.00033433	834.71	1.2207e-05	1.7037e-05	1049.5	241.26	1.2397e-05	1.2794e-05	328.32	96.134	65.868	20.601	1.2394e-05	30.948	365.637	282.260	202.593	178.071	232.880	297.308	177.227	183.151	232.590	386.905	180.876	185.601	188.604	193.873	255.552	189.573	-8191	255	
18411.480	1	1	0	0	0.30736	0.3481	0.18336	0.042442	0.14449	0.12313	0.1797	0.19324	0.13877	0.065138	0.21648	0.31631	0.15202	0.19564	0.19561	0.10406	-2.1854	-3.0646	-2.8729	-3.0167	-3.1312	-2.6875	-3.2104	-3.1042	-2.8187	-3.1208	-2.9396	-2.975	-3.1437	-2.8333	-2.975	-3.0625	291.925	275.952	501.312	382.735	286.817	265.396	456.938	338.145	351.783	229.016	202.284	458.210	467.428	418.326	226.775	441.362	0.0010465	0.001132	6.5422e-05	1082.1	3.9881e-06	4.2603e-06	1367.6	309.72	9.0726e-06	3.2533e-06	422.1	125.01	84.714	26.351	1.0909e-05	39.393	0.0011005	0.0011906	0.00031387	838.11	1.1895e-05	1.7157e-05	1055.8	241.69	1.2642e-05	1.2707e-05	330.69	97.283	66.268	20.878	1.2787e-05	31.114	365.099	334.008	195.396	178.007	291.923	386.002	176.770	183.119	308.990	460.729	180.763	185.854	188.294	193.764	294.877	190.200	-8191	255	
18411.600	1	1	0	0	0.1421	0.20625	0.14885	0.31409	0.14652	0.015741	0.17689	0.25044	0.0060532	0.11727	0.14738	0.1682	0.099259	0.082398	0.16941	0.20269	-2.2708	-3.0396	-2.9021	-2.7938	-2.9542	-2.8875	-3.0875	-3.3271	-2.7354	-3.0833	-2.8729	-2.8583	-3.2958	-2.8271	-2.8229	-3.175	284.779	180.148	445.658	214.758	431.934	241.963	461.574	489.402	315.757	474.961	449.934	509.887	476.785	499.497	476.655	434.341	0.0011117	0.00068169	0.00015443	1085.4	2.3552e-06	1.2316e-05	1368.1	311.9	6.3505e-06	1.7727e-06	422.75	124.97	84.881	26.593	7.3947e-07	39.638	0.0012293	0.0012456	0.0003383	842.03	1.2285e-05	1.76e-05	1060.4	242.54	1.2499e-05	1.3869e-05	331.78	97.349	66.455	20.962	1.2888e-05	31.332	357.578	286.498	268.395	178.434	292.325	314.165	176.574	183.342	337.312	302.314	180.617	184.985	187.876	193.919	441.224	189.357	-8191	255	
18411.697	1	1	0	0	0.22911	0.2926	0.31058	0.16163	0.1421	0.061415	0.21501	0.3869	0.013465	0.2171	0.20106	0.24217	0.016364	0.090893	0.071736	0.04146	-2.4625	-2.9167	-2.8875	-3.0271	-3.2042	-2.8021	-3.0875	-3.1354	-2.8208	-3.0875	-3.0896	-2.7438	-3.2625	-2.9396	-2.8604	-3.1271	500.655	279.255	475.294	418.683	185.726	190.876	406.561	177.054	382.764	418.723	173.072	185.459	244.753	194.299	365.789	383.760	0.00094209	0.00012047	0.00016206	1082.4	6.338e-06	4.5085e-06	1352.3	311.42	8.7364e-06	8.9131e-06	418.23	124.31	84.05	26.405	2.9173e-06	39.792	0.0012272	0.0012799	0.00034712	838.36	1.2639e-05	1.7817e-05	1055.2	242.74	1.2961e-05	1.38e-05	329.09	97.505	66.128	20.9	1.291e-05	31.252	343.612	371.179	225.097	177.790	259.876	264.772	176.530	183.435	286.854	322.551	181.028	185.652	188.164	193.335	390.295	190.061	-8191	255	
18411.793	1	1	0	0	0.018672	0.12267	0.16173	0.17223	0.14171	0.12326	0.2492	0.24481	0.25935	0.26456	0.13464	0.15149	0.072368	0.17735	0.16832	0.13416	-2.4271	-3.0083	-2.8875	-2.8479	-3.1229	-2.9708	-2.8167	-2.8979	-2.8396	-2.7438	-3.1375	-2.6854	-3.1188	-2.8771	-2.9708	-3.0792	195.253	217.208	341.894	473.692	369.168	340.431	486.100	414.046	246.200	321.131	443.089	320.259	514.616	512.060	279.670	440.848	0.0010695	0.0011933	0.00033558	1076.6	4.6245e-06	7.5667e-06	1349.3	308.49	1.1904e-05	6.7718e-06	417.56	123.51	84.953	26.005	2.3347e-06	39.324	0.0013228	0.0012781	0.00033834	838.34	1.2378e-05	1.7363e-05	1046.8	241	1.2698e-05	1.3207e-05	327.15	96.788	66.119	20.64	1.4034e-05	31.123	361.883	282.400	204.907	178.255	267.998	342.903	177.163	183.279	349.910	251.908	180.984	185.376	188.277	193.036	379.237	190.185	-8191	255	
18411.912	1	1	0	0	0.18538	0.22048	0.10813	0.22237	0.19555	0.11479	0.13224	0.28827	0.12688	0.11724	0.15274	0.14069	0.33126	0.20275	0.1208	0.040122	-2.2438	-2.8583	-2.9083	-2.8396	-2.925	-2.8771	-2.8479	-3.0687	-2.8667	-2.9125	-3.1833	-2.825	-3.0438	-2.75	-2.5833	-3.0208	459.710	407.027	362.464	441.388	406.751	420.491	438.438	420.785	206.963	321.190	241.718	263.636	271.441	186.018	368.877	203.453	0.0010245	0.00027124	5.9247e-05	1069.8	4.6452e-06	4.9578e-06	1336.4	310.18	4.105e-06	1.65e-05	417.41	124.57	83.627	26.242	8.0204e-06	39.634	0.0012695	0.0012262	0.00032785	833.5	1.225e-05	1.6594e-05	1046.1	241.35	1.2688e-05	1.4267e-05	327.3	97.073	65.557	20.745	1.2851e-05	31.278	357.508	329.419	269.944	178.092	250.545	307.509	176.879	183.405	457.691	292.823	180.800	186.158	188.590	193.624	356.075	190.048	-8191	255	
18412.008	1	1	0	0	0.091851	0.069255	0.34109	0.23419	0.21719	0.24405	0.35397	0.28256	0.13336	0.22985	0.23736	0.30366	0.24431	0.10939	0.12887	0.22768	-2.3458	-2.8688	-2.9313	-2.8375	-2.8292	-2.7417	-2.6521	-3.0333	-2.7958	-2.8771	-3.1937	-2.6958	-3.0479	-2.8417	-2.75	-3.0646	367.015	453.535	423.564	495.535	352.087	272.819	470.184	205.130	214.760	455.665	445.205	499.060	520.339	200.650	523.579	461.257	0.0013525	0.0012904	0.00021063	1070.9	7.3943e-06	8.4637e-06	1346.6	310.44	8.2354e-06	2.2446e-06	418.27	122.58	84.594	26.205	5.4754e-06	39.965	0.0012717	0.001303	0.00036249	832.43	1.2826e-05	1.382e-05	1050.7	241.64	1.3593e-05	1.3703e-05	327.89	96.664	66.094	20.825	1.259e-05	31.508	361.502	251.092	286.062	178.171	270.944	330.106	177.202	183.259	267.936	375.581	181.049	186.142	188.970	193.859	361.800	189.624	-8191	255	
18412.080	1	1	0	0	0.26721	0.16222	0.10495	0.042226	0.058932	0.034683	0.20247	0.232	0.26115	0.14566	0.20531	0.28541	0.12322	0.1409	0.088249	0.14606	-2.2729	-2.7125	-3.0333	-2.6958	-2.9104	-2.9375	-2.6646	-3.1646	-2.7667	-2.8646	-3.0292	-2.7062	-2.8375	-3.2167	-2.8354	-3.0396	510.812	329.602	275.794	308.823	244.306	398.167	489.492	186.915	502.959	207.325	513.218	509.242	435.005	493.395	429.029	241.116	0.00099573	0.0006139	0.00013109	1077.3	1.2023e-05	1.2274e-05	1357.7	308.96	1.5284e-05	1.4859e-06	419.94	122.82	84.017	26.317	1.0557e-06	39.645	0.0011985	0.001282	0.0003503	833.56	1.3504e-05	1.3576e-05	1053.1	240.79	1.2847e-05	1.3672e-05	328.11	96.373	65.943	20.821	1.3303e-05	31.245	357.107	211.630	219.430	177.889	294.356	335.439	176.999	183.464	354.370	502.328	181.568	185.343	187.779	193.442	467.375	189.563	-8191	255	
18412.199	1	1	0	0	0.072508	0.1303	0.38706	0.17177	0.25931	0.1916	0.12681	0.14983	0.16445	0.19626	0.29119	0.41259	0.13317	0.16995	0.13794	0.043642	-2.2896	-2.7271	-2.9083	-2.7021	-2.8812	-3.2104	-2.8125	-3.2021	-2.8875	-2.8229	-3.05	-2.9333	-2.9604	-3.2292	-2.7167	-3.0271	287.941	270.991	211.564	208.620	349.720	253.934	226.701	305.504	472.337	451.789	486.517	500.521	449.394	183.370	419.283	207.586	0.0010333	0.0011007	0.00019551	1077.2	7.1808e-06	7.9303e-06	1346.5	308.18	1.3697e-05	1.2463e-05	418.84	123.07	84.582	26.262	5.1326e-06	39.456	0.0012458	0.0014357	0.00034286	832.08	1.3504e-05	1.4341e-05	1047.8	240.69	1.3457e-05	1.4812e-05	327.01	96.13	65.822	20.714	1.3123e-05	31.041	365.771	208.222	363.307	178.069	309.153	366.871	176.633	183.476	249.201	340.064	181.297	185.661	188.059	192.868	348.879	189.998	-8191	255	
18412.297	1	1	0	0	0.088294	0.23772	0.023052	0.10726	0.071903	0.13941	0.053145	0.13251	0.0098224	0.0084834	0.057905	0.10787	0.19659	0.2902	0.072908	0.27468	-2.6375	-2.7125	-3.1813	-2.9583	-2.6542	-2.9146	-3.0771	-3.1208	-3.2625	-2.8021	-3.0125	-2.8708	-2.775	-2.9417	-2.8271	-2.9292	277.329	405.277	318.189	190.301	403.305	314.792	404.936	487.133	196.008	204.468	286.544	223.342	177.324	443.419	339.804	450.845	0.00093846	0.0003594	3.6887e-05	1079.4	8.0818e-06	4.0265e-06	1347.7	308.87	1.5637e-05	9.4115e-06	420.01	123.02	84.033	26.177	2.5159e-06	38.544	0.0010377	0.0015929	0.00035191	838.78	1.314e-05	1.4121e-05	1049.3	240.82	1.3527e-05	1.434e-05	328.6	96.722	65.942	20.782	1.356e-05	30.765	364.827	280.457	508.601	178.167	266.468	332.204	177.166	183.267	339.272	303.046	180.683	184.997	187.549	193.085	344.851	189.725	-8191	255	
18412.393	1	1	0	0	0.33103	0.090163	0.15139	0.020948	0.05433	0.22453	0.17701	0.27309	0.11262	0.098678	0.050972	0.11749	0.095183	0.041697	0.20046	0.16392	-2.5896	-2.7854	-2.9562	-2.8354	-2.7979	-2.9979	-3.1229	-2.9604	-3.1083	-2.65	-3.0125	-3.0042	-2.8042	-3.0917	-2.7979	-2.9417	406.614	201.837	183.892	495.724	191.481	266.108	446.625	485.706	447.390	259.947	321.586	253.796	320.766	387.114	521.580	335.739	0.0011473	0.00090264	0.00022792	1078.6	4.5047e-06	3.8851e-06	1364.6	310.66	2.625e-05	8.8658e-06	421.98	124.72	85.133	26.154	1.7692e-06	39.042	0.001048	0.001825	0.0003738	840.49	1.3246e-05	1.4956e-05	1059.4	242.62	1.335e-05	1.4738e-05	328.91	97.153	66.404	20.776	1.3743e-05	31.115	366.491	253.437	351.744	178.513	286.920	420.864	176.687	183.231	308.759	496.221	180.973	185.222	188.576	193.363	331.010	189.886	-8191	255	
18412.514	1	1	0	0	0.035499	0.19927	0.18466	0.20272	0.22324	0.068471	0.11901	0.14361	0.32093	0.26429	0.18411	0.25297	0.187	0.12004	0.24515	0.13091	-2.5021	-2.6979	-2.9833	-2.8438	-2.7958	-2.9688	-2.8563	-2.8542	-2.9813	-2.8375	-3.1042	-3.0687	-2.7562	-3.175	-2.8688	-2.9562	365.370	407.094	480.594	494.122	406.626	315.148	451.267	488.601	475.657	194.293	191.396	458.755	471.965	348.580	219.996	455.684	0.00092549	0.00073306	0.00010487	1088.1	8.5066e-06	9.2404e-06	1368	313.99	1.5185e-05	6.4016e-06	424.93	126.53	86.044	26.883	5.6116e-06	39.836	0.0010648	0.0017188	0.0003766	845.4	1.3989e-05	1.4869e-05	1063.5	245.36	1.5012e-05	1.5406e-05	332.31	98.457	67.66	21.148	1.4774e-05	31.614	358.178	214.051	243.712	178.264	324.120	301.448	177.259	183.210	328.054	380.745	181.126	185.971	188.049	193.154	307.108	189.682	-8191	255	
18412.609	1	1	0	0	0.088117	0.21233	0.30206	0.079351	0.17674	0.11974	0.16422	0.11151	0.02897	0.10716	0.14292	0.084077	0.20838	0.091643	0.18906	0.13876	-2.7542	-2.7687	-2.7812	-3.0333	-2.8312	-3.0604	-2.8479	-2.9188	-3.0917	-2.7375	-3.0042	-3.0896	-2.9562	-3.0271	-2.8438	-2.8771	476.347	257.081	423.925	518.984	376.139	336.168	440.789	450.346	344.684	361.925	223.793	206.135	500.980	431.605	182.347	194.529	0.00092975	0.0018739	0.00010324	1092.3	6.2126e-06	4.0364e-06	1368	318.87	1.382e-05	4.3698e-06	427.23	126.41	86.824	27.063	1.4968e-05	39.979	0.001174	0.0020004	0.00042205	854.4	1.5561e-05	1.6663e-05	1065.2	247.72	1.5885e-05	1.7038e-05	334.52	98.571	68.47	21.317	1.5644e-05	31.652	358.240	230.921	258.626	178.419	348.384	308.222	177.151	183.392	301.914	222.355	181.201	185.538	187.400	193.708	295.910	189.928	-8191	255	
18412.705	1	1	0	0	0.27929	0.32413	0.055271	0.30462	0.22678	0.096597	0.3278	0.21142	0.21244	0.28381	0.039351	0.12777	0.18637	0.43107	0.28102	0.23789	-2.8063	-2.8146	-2.9271	-3.0958	-2.8125	-3	-3	-2.8875	-3.2875	-2.9833	-3.0333	-3.2604	-2.8271	-2.9437	-2.9062	-3.0167	179.646	214.197	178.736	483.026	288.370	510.335	435.720	480.006	501.606	173.529	237.786	508.679	291.844	411.224	258.321	344.935	0.00090201	0.00092258	0.00025377	1097.3	1.2061e-05	5.6061e-06	1372	316.72	1.0448e-05	2.4494e-06	428.16	125.47	86.992	27.15	8.2804e-06	39.917	0.0011969	0.0018746	0.00041187	853.37	1.509e-05	1.7796e-05	1069.5	247.46	1.5602e-05	1.6611e-05	333.54	98.25	68.307	21.339	1.5739e-05	31.683	363.998	235.863	216.815	178.096	254.571	254.796	176.429	183.073	294.464	332.558	181.576	185.941	188.406	193.401	295.859	189.722	-8191	255	
18412.777	1	1	0	0	0.10046	0.39224	0.14308	0.20721	0.15709	0.14106	0.34031	0.23343	0.053625	0.20071	0.15431	0.26924	0.071111	0.005862	0.19187	0.1332	-2.5812	-2.8292	-3.0062	-3.1562	-2.75	-3.1292	-2.9625	-2.7083	-2.9896	-2.6437	-2.8771	-2.9979	-2.9	-3.0417	-3.0521	-2.8792	222.470	435.705	482.671	406.836	473.683	287.738	479.157	487.542	222.226	454.547	202.607	481.954	413.123	252.467	471.032	317.634	0.0010165	0.0011872	8.8802e-05	1092.9	1.623e-06	4.2041e-06	1360.8	316.47	1.3443e-05	8.7458e-06	425.68	126.52	87.197	26.715	1.0617e-05	39.476	0.0012107	0.0018945	0.0004292	852.04	1.5181e-05	1.6954e-05	1061	247.12	1.4712e-05	1.7504e-05	333.19	98.299	68.108	21.288	1.5682e-05	31.601	359.015	267.957	243.070	177.937	335.253	319.527	177.302	183.256	280.859	307.957	180.865	185.468	187.758	193.406	340.292	189.677	-8191	255	
18412.896	1	1	0	0	0.12182	0.24646	0.11196	0.1602	0.11804	0.23644	0.17046	0.19654	0.20227	0.047104	0.15447	0.25228	0.22877	0.15013	0.23401	0.29564	-2.5187	-2.6437	-2.7625	-3.0729	-2.7	-2.9979	-2.9792	-2.8021	-3.1021	-2.9167	-2.9354	-3.0458	-2.8563	-2.9313	-3.0167	-2.8458	321.049	482.681	483.995	415.093	365.156	492.091	476.440	505.335	383.771	478.380	404.971	450.952	391.871	348.136	172.177	475.225	0.0010984	0.0012201	8.088e-05	1088.8	6.684e-06	9.6495e-06	1373.4	316.85	8.5359e-06	7.4038e-06	424.45	124.59	86.277	26.236	8.6671e-06	39.656	0.0011652	0.0018616	0.00040224	846.6	1.5036e-05	1.5853e-05	1060.1	246.97	1.4182e-05	1.6508e-05	331.94	97.525	67.66	20.966	1.4636e-05	31.332	362.206	270.357	282.693	178.190	313.805	350.936	176.680	183.467	318.181	369.472	181.765	185.920	188.164	193.349	282.905	189.791	-8191	255	
18412.992	1	1	0	0	0.21937	0.15179	0.14139	0.30121	0.21494	0.069933	0.30545	0.23078	0.34449	0.11824	0.15915	0.097782	0.34095	0.20055	0.12447	0.16087	-2.6354	-2.65	-2.7833	-3.2396	-2.7417	-2.9354	-3.1604	-2.7104	-3.075	-2.9188	-2.8146	-3.0583	-2.9146	-2.8646	-2.925	-2.7646	416.063	281.423	308.621	514.959	404.699	511.792	421.668	178.076	446.360	290.929	505.273	478.844	483.101	204.778	461.247	376.475	0.00085109	0.00069127	0.00014832	1089.6	2.6791e-06	4.4393e-06	1352.1	312.07	1.5281e-05	2.6449e-06	419.05	123.14	85.394	26.414	6.3429e-06	39.016	0.0011033	0.001617	0.00041719	841.71	1.4062e-05	1.4904e-05	1048.6	243.8	1.2663e-05	1.4911e-05	328.71	96.175	67.061	21.001	1.3881e-05	30.995	366.206	249.066	249.563	178.178	244.307	245.887	176.904	183.617	295.251	495.756	180.863	185.991	188.045	193.325	293.243	189.760	-8191	255	
18413.088	1	1	0	0	0.16291	0.093692	0.2429	0.31691	0.16264	0.23619	0.29709	0.15426	0.20119	0.16427	0.30522	0.31867	0.075602	0.35974	0.15972	0.14832	-2.7167	-2.8583	-2.6542	-3.0396	-2.7958	-2.8229	-3.1	-2.675	-3.0042	-2.9354	-2.8542	-3.0062	-2.7729	-2.8479	-2.9625	-2.6417	439.647	471.431	524.469	176.093	510.137	194.287	500.793	407.314	429.500	449.943	472.104	193.289	512.222	205.432	469.463	520.377	0.00089215	0.00053551	0.00020047	1085.1	7.0861e-06	4.5485e-06	1355.2	313.77	5.0448e-06	6.3341e-06	419.32	124	85.969	26.596	9.0397e-06	39.393	0.0010286	0.0012606	0.00043383	842.86	1.3465e-05	1.4229e-05	1052.6	245.28	1.3413e-05	1.4403e-05	328.96	97.232	67.271	21.045	1.3405e-05	31.352	358.594	209.853	234.829	178.063	264.127	402.015	176.985	183.538	423.780	265.698	180.309	185.895	187.401	193.449	324.636	189.844	-8191	255	
18413.184	1	1	0	0	0.08883	0.24227	0.23667	0.31575	0.055705	0.089062	0.41489	0.10477	0.12731	0.020561	0.23944	0.23713	0.16117	0.11921	0.10262	0.1361	-2.5125	-2.9958	-2.7188	-3.2313	-2.7938	-2.9792	-3.0917	-2.9313	-3.15	-3.1125	-2.9417	-3.1375	-2.9896	-2.675	-3.1521	-2.9437	523.256	468.115	319.414	504.160	169.507	221.120	491.770	444.593	335.753	398.032	452.072	410.901	183.420	252.117	367.607	524.703	0.0011867	0.00096401	0.000191	1086.4	1.0506e-05	3.9028e-06	1373.7	313.51	6.0017e-06	1.0394e-05	428.38	127.03	86.5	27.019	9.8102e-06	40.028	0.0010193	0.0013307	0.00049726	845.69	1.3597e-05	1.4924e-05	1067.5	246.65	1.3214e-05	1.4666e-05	334.66	98.64	67.756	21.325	1.4053e-05	31.624	361.427	215.587	312.448	178.372	235.849	285.331	177.179	182.964	240.338	269.292	180.710	184.942	188.140	193.772	371.459	189.667	-8191	255	
18413.305	1	1	0	0	0.066559	0.25168	0.1906	0.24434	0.21001	0.1357	0.4535	0.13248	0.1167	0.010162	0.33692	0.047204	0.29472	0.10594	0.082886	0.21828	-2.4104	-3.0396	-2.7792	-3.1708	-2.9313	-2.8229	-3.1625	-2.7917	-2.9521	-3.0854	-2.9646	-3.0792	-2.9104	-2.675	-3.0021	-2.8667	501.912	312.155	524.453	481.840	486.402	268.315	457.979	419.988	431.611	370.320	510.208	320.130	232.428	219.811	436.975	171.843	0.0010237	0.00069131	0.00032216	1109	5.0583e-06	8.4121e-06	1370.7	320.11	1.8067e-05	3.454e-06	431.35	127.3	87.785	27.153	6.971e-06	40.853	0.0011517	0.0013685	0.00047443	856.75	1.3752e-05	1.5999e-05	1071.9	249.56	1.3779e-05	1.5251e-05	336.42	99.401	68.821	21.548	1.5126e-05	32.006	358.471	317.574	223.717	178.493	342.269	276.907	176.882	183.336	313.341	250.641	180.877	185.618	187.870	193.416	292.241	189.893	-8191	255	
18413.377	1	1	0	0	0.17227	0.32774	0.13858	0.19866	0.1418	0.11537	0.18123	0.27866	0.15047	0.19639	0.21063	0.13342	0.28117	0.18456	0.29079	0.35227	-2.4354	-2.9562	-2.7729	-3.1646	-2.8812	-2.7542	-3.1729	-2.8792	-2.9208	-2.9917	-2.7958	-3.0979	-2.8708	-2.8167	-2.8937	-2.9458	176.219	429.635	363.106	447.057	411.346	390.436	517.077	504.823	472.280	428.959	518.770	437.059	507.876	522.024	339.040	458.972	0.0010298	0.0005683	0.00037131	1116.8	1.9186e-06	7.2327e-06	1386.8	323.31	5.4571e-06	9.2865e-06	433.25	127	87.921	26.734	5.0005e-06	40.058	0.0011552	0.0013856	0.00053244	868.43	1.4199e-05	1.5533e-05	1077.8	252	1.3946e-05	1.593e-05	337.52	99.491	68.662	21.371	1.507e-05	31.849	351.223	229.684	274.888	178.188	372.354	403.250	176.871	183.479	315.838	298.518	181.637	185.503	188.122	193.281	364.441	189.943	-8191	255	
18413.473	1	1	0	0	0.19761	0.16708	0.096735	0.17565	0.060757	0.19308	0.29645	0.18931	0.13303	0.18319	0.13634	0.11135	0.22612	0.22178	0.033031	0.13488	-2.3771	-3.0812	-2.7333	-3.0875	-2.8812	-2.6104	-2.9625	-2.6813	-2.6688	-3.0271	-2.7833	-2.8396	-2.9479	-2.8187	-3.1	-2.9646	202.860	182.187	447.162	193.617	311.161	207.568	427.967	470.522	245.526	300.519	487.510	392.270	370.854	275.411	518.968	438.147	0.00090451	0.00051914	0.00015174	1113.3	8.631e-06	7.5928e-06	1382.4	322.64	1.2438e-05	2.7498e-06	424.86	126.53	87.878	26.631	5.6403e-06	39.666	0.0011815	0.0014424	0.00049153	867.5	1.4346e-05	1.5447e-05	1075	250.66	1.6917e-05	1.6339e-05	334.69	98.862	68.436	21.236	1.505e-05	31.555	351.913	317.454	303.425	178.323	280.202	318.418	177.100	183.266	445.189	229.327	180.863	186.142	187.490	193.106	361.889	189.529	-8191	255	
18413.594	1	1	0	0	0.11194	0.29437	0.1806	0.14037	0.19487	0.01442	0.21588	0.23382	0.097633	0.11813	0.40939	0.24859	0.11441	0.18205	0.10596	0.14511	-2.2125	-2.8812	-2.7292	-2.8979	-2.9042	-2.5896	-2.9125	-3.0104	-2.6937	-3.0708	-2.9104	-2.8354	-3.0542	-2.7875	-2.7938	-2.9625	287.614	335.118	257.554	172.072	364.522	449.500	440.967	499.187	431.363	234.909	477.017	496.610	509.776	465.000	502.142	175.925	0.00096248	0.0011213	0.00025418	1112.1	1.1448e-06	4.1354e-06	1387.8	322.8	6.4395e-06	8.4221e-06	433	126.61	88.537	27.246	5.3862e-06	39.848	0.0011523	0.0013856	0.00052206	863.24	1.4343e-05	1.5976e-05	1075.3	250.96	1.6956e-05	1.5628e-05	337.03	98.893	68.575	21.467	1.4649e-05	31.664	375.902	260.474	257.727	178.618	520.195	363.953	176.792	183.426	241.391	361.605	180.826	184.935	188.137	193.357	353.079	189.099	-8191	255	
18413.689	1	1	0	0	0.27936	0.13566	0.094115	0.1795	0.17338	0.34115	0.075424	0.15163	0.37387	0.20181	0.12298	0.2962	0.28499	0.33818	0.072335	0.29593	-2.3375	-2.9833	-2.7979	-2.7229	-2.9396	-2.6625	-3.0979	-3.0146	-2.6562	-2.9146	-2.9167	-2.9479	-2.9792	-2.7687	-2.9208	-3.0708	198.012	500.336	238.101	185.908	189.049	448.205	431.262	355.940	445.168	261.757	418.792	503.436	470.516	305.916	212.850	189.792	0.00096606	0.00096182	0.00020286	1113.2	1.1295e-06	1.0467e-05	1383.1	320.87	1.4704e-06	1.2675e-06	434.41	126.68	86.377	26.73	5.2062e-06	40.263	0.0011166	0.0014511	0.00048234	866.46	1.4619e-05	1.5634e-05	1078.5	250.36	1.7752e-05	1.4906e-05	336.55	99.123	68.084	21.336	1.4512e-05	31.699	358.030	256.918	283.771	178.230	278.756	206.127	176.735	182.904	175.982	376.885	181.084	185.526	188.385	193.223	334.616	189.777	-8191	255	
18413.785	1	1	0	0	0.14565	0.05307	0.074913	0.042014	0.1291	0.089774	0.23025	0.18852	0.12406	0.26505	0.27633	0.1552	0.31629	0.19799	0.45906	0.32178	-2.3354	-2.8688	-3.0167	-2.9479	-3.1083	-2.7458	-3.1	-3.0583	-2.5146	-3.1583	-3.1896	-2.7229	-2.9083	-2.7771	-2.95	-3.0167	195.824	261.933	337.801	329.406	245.013	386.413	193.458	453.687	387.954	256.038	456.307	179.387	524.162	464.531	472.954	472.706	0.0010614	0.0014045	4.5108e-05	1116.2	1.3981e-05	6.7269e-06	1382.7	321.75	8.1012e-06	2.5026e-06	431.34	126.88	88.24	27.138	1.1612e-05	40.075	0.0011492	0.0013682	0.00042124	863.03	1.4054e-05	1.5315e-05	1074.7	250.3	1.7288e-05	1.501e-05	335.81	98.686	68.67	21.608	1.4669e-05	31.745	366.184	271.920	349.648	178.271	327.901	366.473	176.906	183.125	306.068	346.362	181.262	185.678	188.251	192.647	331.501	189.412	-8191	255	
18413.883	1	1	0	0	0.2196	0.092511	0.045858	0.26986	0.13558	0.10412	0.49075	0.23092	0.083114	0.23133	0.017056	0.12589	0.33396	0.2179	0.049628	0.28702	-2.2062	-2.7292	-2.7625	-2.9229	-2.9917	-2.7917	-3.1729	-3.1	-2.7083	-2.9	-2.8854	-2.6667	-3.0875	-2.7229	-2.6813	-3.0438	262.201	207.648	412.416	477.278	386.895	340.080	491.153	478.648	505.940	170.466	224.145	465.816	209.102	204.058	499.374	452.949	0.00093467	0.00016343	0.00018601	1106.9	2.9479e-06	1.6686e-06	1366.2	319.36	7.9234e-06	9.0709e-06	425.57	126.14	85.662	26.56	1.2765e-05	39.629	0.001065	0.0013354	0.00037833	862.5	1.4262e-05	1.4343e-05	1068.3	249.55	1.8638e-05	1.544e-05	333.59	98.067	67.489	21.372	1.4521e-05	31.398	360.677	286.324	220.199	178.172	266.935	458.707	176.965	183.498	269.100	350.037	181.130	185.609	187.903	193.560	306.808	189.560	-8191	255	
18413.979	1	1	0	0	0.26396	0.07593	0.095171	0.19931	0.072523	0.1148	0.11812	0.22671	0.2895	0.088859	0.40144	0.19102	0.19741	0.30076	0.25563	0.16582	-2.3521	-2.8125	-3.0167	-2.8083	-3.0187	-2.8438	-2.7833	-3.2146	-2.8104	-3.0646	-2.9042	-2.6167	-3.1	-2.7917	-2.6521	-3.0667	336.890	272.251	524.407	189.676	503.803	279.088	425.078	365.173	314.934	432.276	513.808	455.463	398.519	489.478	302.007	446.265	0.00091449	0.00059299	0.0001229	1109.7	1.0226e-05	1.0391e-05	1385	319.19	5.344e-06	1.7669e-06	428.41	125.44	87.066	27.041	7.9158e-06	40.268	0.0010643	0.0013249	0.00039135	862.89	1.4198e-05	1.4769e-05	1074.3	248.89	1.7161e-05	1.4909e-05	333.98	98.204	67.795	21.468	1.6849e-05	31.837	361.244	323.859	234.843	178.351	218.502	289.474	176.851	183.152	287.657	384.176	181.048	185.711	187.426	193.789	278.175	189.788	-8191	255	
18414.072	1	1	0	0	0.21919	0.13411	0.054366	0.34513	0.084995	0.1517	0.33779	0.19352	0.093441	0.28653	0.28013	0.33878	0.24571	0.10568	0.12521	0.36445	-2.3563	-2.9646	-2.9083	-2.7917	-3.0979	-2.8688	-3.0125	-3.0646	-2.8688	-2.9813	-3.1292	-2.6729	-3.0229	-2.8771	-2.7104	-2.9729	437.909	184.376	221.065	489.195	204.619	296.658	412.509	459.721	308.337	432.987	468.817	178.870	441.366	491.467	377.619	167.906	0.00098003	0.00063874	0.00019199	1108	7.4997e-06	5.9093e-06	1383.5	323.39	8.9249e-06	5.3963e-06	422.05	126.5	87.195	27.14	6.4463e-06	40.127	0.0010774	0.001393	0.00039427	862.3	1.418e-05	1.549e-05	1073	250.62	1.7813e-05	1.5554e-05	333.38	98.755	68.336	21.373	1.7524e-05	31.702	363.127	304.217	254.616	178.081	320.508	202.705	176.972	183.150	356.833	253.032	180.785	185.188	187.721	192.999	269.324	189.763	-8191	255	
18414.193	1	1	0	0	0.18925	0.036423	0.068227	0.1958	0.3401	0.052319	0.36116	0.18367	0.10847	0.13937	0.1404	0.2181	0.21103	0.24201	0.12488	0.16581	-2.3167	-2.8375	-2.9875	-2.8208	-2.8708	-2.875	-2.7979	-3.1146	-2.9292	-2.7625	-3.0312	-2.825	-3.1417	-3.0292	-2.8958	-2.9313	353.713	503.640	338.229	505.494	281.744	186.485	486.816	514.146	329.046	262.702	518.002	461.598	182.405	458.490	477.770	456.831	0.0010154	0.0011332	0.00018153	1111	1.1916e-05	5.7682e-06	1374	320.54	8.8883e-06	1.0421e-05	429.44	125.63	87.218	27.127	5.5884e-06	39.792	0.0011344	0.0014432	0.00037128	861.68	1.4331e-05	1.5288e-05	1069.2	249.3	1.7736e-05	1.5119e-05	334.71	98.162	68.066	21.35	1.9219e-05	31.483	371.165	283.661	268.004	178.251	273.827	316.215	176.798	183.468	279.913	307.318	180.671	185.143	187.406	192.446	239.130	189.893	-8191	255	
18414.289	1	1	0	0	0.21206	0.082873	0.13312	0.27415	0.16018	0.13471	0.38454	0.35495	0.15113	0.10876	0.20582	0.21139	0.064806	0.10806	0.19934	0.19343	-2.4667	-2.775	-3	-2.7521	-2.9375	-2.8625	-2.8333	-2.9604	-2.7167	-2.7687	-3.0833	-2.7771	-2.95	-3.0417	-2.6792	-3.1042	185.387	192.608	264.144	472.523	288.413	204.316	493.234	461.597	235.661	319.334	512.768	484.407	217.282	515.225	345.434	183.735	0.0010906	0.00067628	0.00010651	1098.6	1.0898e-05	7.1167e-06	1367	317.62	4.4492e-06	6.1708e-06	422.65	125.3	86.884	26.618	1.0499e-05	39.779	0.0011391	0.0014478	0.00037397	851.5	1.4019e-05	1.5441e-05	1058	247.46	1.5406e-05	1.8074e-05	330.69	97.572	67.976	21.232	1.7821e-05	31.426	358.213	286.136	248.940	178.136	332.701	429.334	176.790	183.475	222.601	308.912	180.752	185.425	187.574	193.738	313.283	189.913	-8191	255	
18414.385	1	1	0	0	0.086582	0.13686	0.25084	0.23594	0.17683	0.074621	0.23953	0.14269	0.18396	0.15204	0.30137	0.090914	0.13859	0.19098	0.32062	0.059812	-2.3167	-2.7646	-3.0958	-2.7292	-2.7354	-2.9271	-2.7083	-3.0708	-2.7708	-2.85	-3.1167	-2.8187	-2.6688	-2.9729	-2.8104	-2.8896	507.730	496.686	388.140	428.209	346.047	194.732	415.305	464.338	515.211	195.532	474.365	467.153	415.894	419.040	337.172	347.802	0.00094201	0.00040141	0.00011582	1097.3	8.0781e-06	1.2429e-05	1362.6	316.54	1.9639e-05	7.0902e-06	420.9	124.56	86.129	26.561	7.1239e-06	39.095	0.0011017	0.0014509	0.0003873	855.18	1.4664e-05	1.5262e-05	1060.1	247.13	1.4122e-05	1.8983e-05	331.07	97.309	67.246	21.112	1.8554e-05	31.155	357.935	271.765	293.687	178.261	243.487	316.036	176.941	183.136	362.438	262.910	181.283	185.703	188.059	193.496	325.791	189.417	-8191	255	
18414.480	1	1	0	0	0.011422	0.06086	0.18403	0.12892	0.12939	0.073007	0.11048	0.24079	0.055885	0.2264	0.19726	0.0939	0.14499	0.1066	0.11832	0.27923	-2.625	-2.7125	-3.0146	-2.7771	-2.7	-2.9521	-3.0042	-3.1271	-2.9604	-2.7271	-3.1667	-2.9354	-2.8521	-3.2833	-2.8104	-3.0187	226.835	524.061	249.046	438.134	402.695	394.322	471.917	479.151	178.620	215.091	507.115	518.683	184.736	489.449	284.966	486.367	0.00078595	0.00066666	0.00015838	1092.7	2.8157e-06	6.4365e-06	1358.8	318.91	1.6813e-05	9.414e-06	424.25	125.61	86.315	26.955	3.8821e-06	39.43	0.0011041	0.0014291	0.00035977	851.62	1.4353e-05	1.4747e-05	1059.8	247.54	1.362e-05	1.8965e-05	331.71	97.729	67.585	21.198	1.6964e-05	31.314	350.560	272.112	223.986	178.086	390.360	317.711	176.688	183.127	327.875	165.208	181.401	185.215	188.573	192.995	231.235	189.903	-8191	255	
18414.602	1	1	0	0	0.14979	0.15125	0.10468	0.23428	0.22003	0.21986	0.16843	0.24953	0.10631	0.21003	0.46404	0.1902	0.055763	0.15586	0.21121	0.03534	-2.4917	-2.4542	-2.8625	-2.9375	-2.5938	-3.0833	-2.9813	-3.0521	-3.0646	-2.8333	-3.1104	-2.8333	-2.8875	-3.1521	-2.6729	-3.0062	473.306	469.267	424.044	517.051	234.093	294.944	512.620	486.495	260.626	176.712	212.128	294.751	317.003	507.541	345.939	514.175	0.0012363	0.00046921	6.0989e-05	1089	9.5641e-06	8.6395e-06	1366.8	317.24	1.4073e-05	4.2683e-06	420.66	124.82	87.68	26.633	1.0548e-05	39.686	0.0009987	0.0012784	0.0003826	852.24	1.5486e-05	1.4407e-05	1060.9	247.31	1.3789e-05	1.8154e-05	330.45	97.551	68.209	21.162	1.76e-05	31.334	352.026	318.932	280.971	177.923	280.750	351.967	176.829	183.194	290.650	222.663	181.097	185.792	188.010	193.011	342.940	189.998	-8191	255	
18414.674	1	1	0	0	0.20954	0.20813	0.17199	0.30739	0.22264	0.12796	0.24259	0.16954	0.1846	0.09601	0.12523	0.18103	0.29369	0.18449	0.17424	0.33677	-2.5896	-2.7771	-2.9979	-2.9479	-2.9125	-3.0854	-2.9437	-3.0833	-2.9104	-2.7521	-3.1208	-3.0792	-2.8292	-3.1063	-2.8812	-2.7875	236.477	493.332	350.008	479.534	493.169	205.370	419.121	519.283	236.796	253.254	179.931	172.394	293.287	378.286	190.547	432.610	0.00089014	0.00099498	0.00014852	1099.5	7.0329e-06	3.0788e-06	1364.7	319.64	1.8741e-05	5.5658e-06	427.9	125.45	86.596	26.892	1.2094e-05	39.289	0.0010333	0.0013327	0.00037031	853.15	1.6337e-05	1.5089e-05	1057.4	248.62	1.3619e-05	1.9185e-05	331.71	97.663	68.095	21.219	1.6205e-05	31.175	373.865	263.543	205.498	177.922	296.559	266.868	177.046	183.325	331.310	300.302	181.280	185.487	187.812	193.913	308.355	190.014	-8191	255	
18414.770	1	1	0	0	0.14794	0.12817	0.17448	0.21318	0.28155	0.074906	0.30563	0.48914	0.057305	0.2253	0.19825	0.1991	0.11991	0.066767	0.27837	0.43966	-2.5792	-2.7875	-3.0104	-3.0229	-2.6479	-3.1458	-2.8771	-2.8333	-3.0208	-2.6792	-2.9542	-3.0771	-2.6375	-3.0125	-2.8063	-2.7875	439.217	297.081	267.736	196.167	438.286	342.774	465.760	471.652	174.082	500.887	363.747	516.424	488.665	503.478	390.390	467.521	0.00081646	0.00091807	0.00018424	1101.9	1.2528e-05	3.9829e-06	1360.3	317.47	1.6483e-05	9.1532e-06	423.32	124.86	87.507	26.855	8.1436e-06	39.598	0.0010716	0.00132	0.00036288	850.31	1.7494e-05	1.4038e-05	1059.6	247.39	1.3153e-05	1.8559e-05	330.01	97.231	67.844	21.287	1.4916e-05	31.414	360.164	283.628	260.734	177.871	348.268	300.123	176.595	183.796	326.624	332.416	181.138	185.871	188.368	193.197	294.382	189.849	-8191	255	
18414.863	1	1	0	0	0.17588	0.16	0.11362	0.20251	0.18852	0.18489	0.40641	0.36627	0.1723	0.22664	0.19313	0.20423	0.047195	0.1015	0.18707	0.18435	-2.4938	-2.7333	-2.9979	-3.025	-2.6396	-3.0146	-3.0521	-2.9896	-3.1104	-2.7687	-2.8854	-2.9417	-2.6354	-2.9875	-2.6917	-2.8104	348.334	363.009	300.377	515.144	218.086	285.274	484.711	469.721	410.407	196.291	484.606	488.471	279.654	197.992	333.229	349.474	0.00084509	0.00058367	0.0001209	1097.3	3.9693e-06	3.6137e-06	1359.5	318.93	1.0376e-05	7.1246e-06	424.67	125.44	85.648	26.782	8.788e-06	39.643	0.0010591	0.0013046	0.0003445	853.03	1.6931e-05	1.4943e-05	1060	248.29	1.321e-05	2.0037e-05	332.64	97.867	67.413	21.3	1.365e-05	31.478	352.490	241.942	181.751	177.959	221.865	234.858	176.656	183.340	355.632	309.738	181.103	185.191	187.974	193.893	331.611	189.909	-8191	255	
18414.984	1	1	0	0	0.044066	0.15822	0.11376	0.15213	0.14282	0.11433	0.13797	0.12566	0.3242	0.22143	0.12188	0.30336	0.21725	0.22567	0.09905	0.10145	-2.6063	-2.8125	-2.9	-2.9792	-2.7313	-3.0208	-3.0708	-2.8979	-2.9667	-2.8917	-2.9813	-3.1188	-2.6625	-3.0271	-2.7271	-2.625	472.104	472.164	499.104	499.337	224.738	426.721	476.310	508.091	418.207	330.054	488.283	208.362	437.611	445.030	393.471	462.435	0.00098573	0.00060442	0.00013191	1102.7	3.2749e-06	6.4981e-06	1370.7	316.94	1.2479e-05	2.6532e-06	426.17	125.49	87.685	26.809	7.7948e-06	39.451	0.0010605	0.0013343	0.0003681	855.44	1.7808e-05	1.4969e-05	1062.2	247.69	1.3745e-05	1.7734e-05	333.2	98.291	68.264	21.358	1.3781e-05	31.511	356.991	239.473	270.882	178.285	283.067	335.345	176.823	183.129	306.385	221.110	180.453	185.790	188.223	193.446	320.024	189.910	-8191	255	
18415.080	1	1	0	0	0.28832	0.067865	0.21061	0.32875	0.1483	0.058874	0.24485	0.30402	0.087701	0.18388	0.11746	0.21624	0.1667	0.066305	0.031054	0.082833	-2.6208	-2.8375	-2.8438	-3.0875	-2.7167	-2.9646	-3.0312	-2.8854	-2.8125	-2.9458	-2.7833	-3.175	-2.8146	-3.05	-3.0917	-2.7438	233.853	299.627	292.403	449.238	434.518	263.847	497.731	188.975	446.450	225.154	440.886	507.413	376.193	480.232	444.972	326.083	0.00096668	0.00073939	0.00024979	1093.6	4.481e-06	2.2861e-06	1368.8	321.02	1.6907e-05	6.1826e-06	422.93	125.33	86.854	27.156	2.3664e-06	39.332	0.0011138	0.0013179	0.00038174	852.9	1.7286e-05	1.4969e-05	1060.2	249.17	1.4418e-05	1.6065e-05	331.74	98.059	68.2	21.453	1.4811e-05	31.466	370.052	306.812	277.498	177.961	482.908	272.211	177.003	182.828	298.157	312.818	180.845	185.433	188.080	193.281	244.171	189.051	-8191	255	
18415.178	1	1	0	0	0.14169	0.3094	0.153	0.22102	0.11951	0.073416	0.40502	0.37627	0.22263	0.17635	0.10314	0.2476	0.2127	0.038255	0.23514	0.12275	-2.5583	-2.8771	-2.7646	-3.2104	-2.875	-3.1417	-3.1792	-2.825	-3.1458	-2.8542	-2.875	-3.1167	-2.6958	-2.9729	-3.0917	-2.9167	408.716	170.426	271.377	502.331	328.951	321.097	466.111	174.641	179.309	369.462	322.797	514.371	517.905	229.552	179.707	352.897	0.00089432	0.00036466	0.0003464	1100.3	7.0001e-06	1.4658e-06	1364.1	319.05	7.2034e-06	5.6023e-06	421.07	126.01	88.039	26.995	7.9815e-06	39.639	0.0010353	0.0013841	0.00039071	855.52	1.8151e-05	1.5402e-05	1060.3	248.73	1.3744e-05	1.5313e-05	331.52	97.951	68.448	21.363	1.3748e-05	31.408	358.382	194.549	334.953	177.967	274.221	278.725	176.845	183.635	255.640	364.523	181.101	185.601	188.063	193.673	330.672	189.752	-8191	255	
18415.273	1	1	0	0	0.038261	0.069307	0.21889	0.074526	0.19835	0.39375	0.42093	0.26575	0.43946	0.040822	0.056003	0.19984	0.24613	0.28122	0.087364	0.27954	-2.6312	-3.0958	-2.85	-3.1104	-2.7854	-2.7938	-3.1792	-2.8896	-2.9604	-2.9562	-2.7646	-3.1625	-2.6896	-2.7812	-2.9875	-2.8542	355.036	254.457	393.980	506.771	445.490	389.665	432.507	505.601	281.605	359.066	442.329	517.834	386.561	491.729	295.288	409.778	0.00097871	0.00098212	9.6342e-05	1105.8	1.0397e-05	2.2846e-06	1370	321.57	5.5398e-06	6.6519e-06	426.55	125.28	87.334	27.171	6.6436e-06	39.438	0.0011003	0.0013819	0.00039725	858.48	1.6168e-05	1.4775e-05	1067.3	249.98	1.416e-05	1.5625e-05	333.23	98.356	68.27	21.49	1.412e-05	31.64	360.539	288.813	324.710	178.390	390.991	272.075	176.303	183.420	282.403	328.124	181.350	185.526	188.118	193.911	256.894	189.955	-8191	255	
18415.367	1	1	0	0	0.23944	0.065688	0.29369	0.24226	0.15756	0.29336	0.19121	0.32954	0.062762	0.082535	0.16563	0.2955	0.21983	0.020838	0.22281	0.052221	-2.5563	-2.9021	-2.8021	-2.9917	-2.7354	-2.8896	-3.1083	-2.8604	-2.8583	-2.9271	-2.6729	-3.0896	-2.8917	-2.8312	-2.8854	-2.7292	502.221	329.837	364.594	394.196	523.736	318.967	485.076	480.147	474.150	406.907	448.052	445.421	470.936	286.239	421.815	210.995	0.0009813	0.00089041	0.00013327	1107.8	2.3051e-06	2.8751e-06	1380.1	319.47	1.0682e-05	3.3698e-06	427.18	127.32	87.831	27.469	1.2629e-05	39.749	0.0011232	0.0014184	0.00036258	858.86	1.4429e-05	1.831e-05	1070	249.51	1.4033e-05	1.4044e-05	334.47	98.806	68.538	21.577	1.3938e-05	31.924	369.965	255.419	243.412	177.867	311.208	380.212	176.820	183.527	406.395	291.188	181.082	185.950	187.904	193.193	269.094	189.850	-8191	255	
18415.467	1	1	0	0	0.06946	0.10285	0.062223	0.24637	0.31659	0.20586	0.31921	0.29839	0.18452	0.0090044	0.31888	0.20529	0.092187	0.14201	0.10317	0.33067	-2.5354	-3.1271	-2.7604	-3.1208	-2.8563	-2.8646	-3.0687	-2.7375	-2.9354	-3.0938	-2.9688	-2.9688	-3.0417	-2.65	-3.0208	-2.8021	308.561	389.938	353.213	512.794	248.818	182.185	470.802	441.573	312.472	316.597	507.171	166.378	523.907	239.037	452.688	465.093	0.0012245	0.0006508	0.0001123	1103.2	4.9147e-06	2.4679e-06	1367.7	320.24	6.7543e-06	3.8334e-07	424.27	125.53	87.121	26.97	4.4458e-06	39.725	0.0010941	0.0012545	0.00036227	856.83	1.3412e-05	1.8676e-05	1065.9	249.23	1.3271e-05	1.4167e-05	332.88	98.143	68.053	21.45	1.3729e-05	31.459	370.536	249.002	252.586	177.681	358.906	277.135	176.803	183.369	328.193	411.529	181.057	185.296	187.655	193.963	210.797	189.257	-8191	255	
18415.586	1	1	0	0	0.26656	0.16322	0.11064	0.42342	0.21723	0.1409	0.2758	0.19973	0.15782	0.17824	0.2762	0.18708	0.20962	0.15816	0.12209	0.48662	-2.2833	-2.9771	-2.7021	-3.0563	-2.9333	-2.4417	-3.1312	-2.8563	-2.7271	-3.0187	-2.8438	-2.9583	-2.8958	-2.9	-3.0417	-2.7458	438.164	525.202	302.132	467.281	491.474	400.020	465.763	214.610	356.458	248.274	521.503	407.472	373.958	512.548	200.292	439.094	0.00096433	0.00042196	0.00022019	1098	2.5356e-06	4.6316e-06	1349.5	319.91	2.237e-05	1.0926e-05	420.11	125.12	86.824	26.814	8.5627e-06	39.733	0.0010901	0.0013484	0.00038274	854.51	1.3734e-05	1.9127e-05	1053.7	249.09	1.3648e-05	1.4785e-05	330.56	97.386	67.888	21.31	1.3476e-05	31.351	365.473	251.451	232.242	178.212	217.688	282.751	176.672	183.544	341.295	305.555	180.143	185.316	187.589	193.614	380.886	189.607	-8191	255	
18415.682	1	1	0	0	0.13526	0.18965	0.048445	0.16543	0.13554	0.052211	0.34297	0.098335	0.21093	0.11347	0.087085	0.1247	0.11042	0.28848	0.17533	0.048572	-2	-2.9292	-2.7167	-2.9208	-2.8604	-2.8937	-3.2583	-2.8958	-2.7229	-3.0854	-2.9708	-2.9313	-3.0646	-2.7229	-3.05	-2.9833	430.886	184.499	174.682	403.342	448.586	420.398	467.916	487.892	448.259	480.866	523.278	503.097	515.990	475.076	452.645	515.908	0.0010785	0.00065214	0.00029402	1111.3	5.2517e-06	2.7747e-06	1371.7	319.45	2.5851e-05	4.9916e-06	421.24	125.19	86.353	27.044	1.0463e-05	39.97	0.0012777	0.0013667	0.00037122	856.13	1.3805e-05	1.8848e-05	1058.6	249.12	1.3692e-05	1.4722e-05	332.84	97.842	67.768	21.373	1.4378e-05	31.624	370.445	242.237	261.265	178.404	236.190	473.971	176.731	182.826	324.477	291.425	181.000	185.681	187.871	193.479	323.715	189.126	-8191	255	
18415.777	1	1	0	0	0.36668	0.17289	0.19404	0.2038	0.13865	0.2378	0.17945	0.33594	0.058848	0.14576	0.1178	0.056427	0.33378	0.042683	0.18356	0.18063	-2.3292	-2.9667	-2.7	-2.7292	-2.9479	-2.6542	-3.1771	-3.0146	-2.7292	-2.9813	-2.9792	-2.7771	-3.0479	-2.7917	-2.8458	-2.8125	423.943	176.582	245.173	325.718	209.702	339.138	342.608	427.934	314.549	439.599	446.430	498.558	462.906	468.098	407.804	472.056	0.00098048	0.00048601	6.6913e-05	1100.4	9.3546e-06	1.2135e-06	1367.1	317.07	1.8438e-05	6.8097e-06	423.01	125.34	86.586	27.078	8.9731e-06	40.464	0.0012794	0.0012728	0.00037461	855.72	1.3762e-05	1.9282e-05	1062	246.74	1.3687e-05	1.5113e-05	332.27	97.665	67.718	21.448	1.4018e-05	31.664	362.472	271.105	293.808	178.195	277.781	363.980	177.171	182.821	292.230	370.482	180.991	185.388	188.075	193.714	367.365	189.462	-8191	255	
18415.873	1	1	0	0	0.21024	0.039762	0.39807	0.26816	0.27005	0.041038	0.2673	0.29853	0.18232	0.12623	0.25247	0.17045	0.06119	0.086229	0.20554	0.19295	-2.2042	-2.9271	-2.875	-2.8792	-2.8479	-2.7958	-3.0708	-3.0979	-2.8063	-3.1458	-2.7979	-2.9958	-3.1646	-2.6646	-2.8125	-3.0062	389.460	218.570	248.087	202.885	302.476	496.974	436.647	461.931	435.408	300.989	484.268	240.582	507.455	425.953	223.897	414.349	0.00109	0.001302	0.00011434	1096.2	8.1806e-06	7.5929e-06	1349.7	318.46	2.1214e-05	8.9262e-06	419.05	123.82	85.596	26.814	1.1119e-05	39.226	0.0013446	0.0013403	0.00036244	849.82	1.3467e-05	1.7749e-05	1051.8	247.02	1.3621e-05	1.4876e-05	328.39	97	66.844	21.177	1.3853e-05	31.021	363.647	227.603	253.047	178.807	344.727	341.305	176.609	183.187	312.722	296.282	180.787	185.475	188.071	193.261	224.293	189.638	-8191	255	
18415.969	1	1	0	0	0.18077	0.2277	0.12728	0.1319	0.11185	0.14037	0.067403	0.20089	0.23792	0.13657	0.13013	0.043459	0.1908	0.36993	0.3219	0.23699	-2.2042	-2.9938	-2.9833	-2.8208	-3.175	-2.7354	-3.0292	-3.2146	-2.8083	-2.925	-2.9917	-2.8042	-2.9708	-2.7792	-2.9333	-2.9062	214.607	214.000	192.622	190.075	259.204	350.269	494.619	416.910	494.015	408.637	516.949	171.124	507.544	467.841	504.536	451.555	0.00088581	0.0001214	0.00021015	1099.2	9.7803e-06	7.8591e-06	1351.5	316.25	6.4928e-06	5.0347e-06	420.41	120.65	86.404	26.545	9.0199e-06	38.753	0.0012404	0.0013575	0.00037061	848.72	1.3669e-05	1.9438e-05	1045.4	246.27	1.3572e-05	1.4472e-05	327.58	95.826	67.269	20.991	1.4314e-05	30.753	374.666	274.386	225.950	178.098	280.001	345.648	176.406	182.736	344.867	224.063	180.785	184.999	188.238	193.023	406.152	189.729	-8191	255	
18416.064	1	1	0	0	0.24643	0.2766	0.11266	0.19704	0.10747	0.16205	0.37265	0.085857	0.17385	0.10598	0.24932	0.44438	0.096771	0.06901	0.28025	0.17022	-2.35	-2.85	-2.8583	-2.9458	-2.9313	-3.0563	-2.9229	-3.0625	-2.9708	-3.0563	-2.7896	-2.6958	-3.1354	-2.825	-2.8208	-3.1437	481.773	258.498	188.491	409.071	273.315	438.380	481.032	339.963	253.667	209.114	491.701	477.500	412.591	355.505	363.643	473.652	0.0010519	0.0011199	0.00016256	1079.6	7.2478e-06	9.3184e-06	1339.5	315.24	9.9625e-06	6.0777e-06	415	123.98	85.754	26.318	3.9699e-06	38.925	0.0013563	0.0014225	0.00036195	846.89	1.2912e-05	1.607e-05	1046.7	245.69	1.3143e-05	1.5034e-05	325.26	96.453	67.074	20.997	1.3267e-05	30.937	367.414	274.380	207.104	178.253	273.024	348.838	176.703	183.491	311.307	323.749	180.710	185.667	188.497	193.097	450.710	189.688	-8191	255	
18416.160	1	1	0	0	0.081534	0.16763	0.091981	0.35035	0.081739	0.13929	0.28207	0.27296	0.32994	0.20625	0.38749	0.27024	0.046884	0.08317	0.16421	0.10582	-2.2521	-2.9229	-2.9229	-2.8563	-3.05	-2.775	-3.0021	-3.1958	-2.7771	-2.9792	-2.9938	-2.9	-3.0958	-2.9542	-2.7375	-2.95	376.956	457.360	495.328	464.682	273.061	252.807	474.846	464.312	505.151	400.062	522.906	169.111	380.420	427.331	452.079	431.717	0.0010284	0.00039086	0.00013028	1091.1	1.277e-05	1.5736e-05	1360.9	316.27	6.6485e-06	9.5611e-06	421.96	122.5	86.484	26.619	9.4773e-06	39.165	0.0013015	0.0012899	0.00035469	846.61	1.3798e-05	1.4637e-05	1058.8	246.23	1.3068e-05	1.5425e-05	328.86	96.482	67.341	21.199	1.4004e-05	31.006	366.944	306.585	279.294	177.842	264.841	322.853	176.742	182.962	246.765	284.092	180.969	185.730	187.778	193.459	321.657	189.571	-8191	255	
18416.281	1	1	0	0	0.19886	0.030633	0.14231	0.38798	0.19936	0.11415	0.19576	0.28283	0.026841	0.2153	0.35012	0.074969	0.13502	0.018317	0.24178	0.17481	-2.4646	-2.9458	-2.9021	-2.9146	-3.05	-2.8812	-2.8896	-3.1562	-2.8833	-2.9208	-3.1208	-2.925	-2.9542	-2.9833	-2.9083	-3.0229	368.995	194.883	418.793	455.364	403.435	369.190	486.648	179.680	465.517	379.624	475.475	442.996	492.000	457.083	519.010	521.199	0.0012192	0.0008143	0.00019417	1101.9	8.5254e-06	5.8409e-06	1354.5	316.85	9.8771e-06	4.6181e-06	418.46	123.17	84.814	26.528	6.0191e-06	38.749	0.0013432	0.0013068	0.00034765	852.77	1.4047e-05	1.524e-05	1057.7	246.85	1.3577e-05	1.4556e-05	327.58	96.117	66.919	21.13	1.3508e-05	30.789	366.335	313.038	333.563	178.324	240.794	322.191	177.019	183.052	272.696	354.540	181.160	185.559	188.030	193.291	276.608	189.217	-8191	255	
18416.377	1	1	0	0	0.036546	0.1672	0.25186	0.37026	0.084909	0.090213	0.1067	0.090618	0.1415	0.11958	0.14328	0.34338	0.26979	0.1833	0.31616	0.17668	-2.4125	-2.9646	-3.0417	-2.7667	-3.0125	-3.0375	-2.9125	-3.15	-3.0708	-3.0229	-3.1333	-2.8937	-2.8354	-3.0563	-2.6271	-3.0479	214.474	468.866	284.667	481.844	343.851	427.185	411.587	385.599	211.480	206.319	388.426	466.456	463.996	203.395	169.392	471.306	0.0011503	0.00052086	0.00015576	1093.5	8.7388e-06	3.191e-06	1344.2	316.88	8.1108e-06	2.8429e-06	415.88	122.55	86.104	26.426	1.3929e-05	38.477	0.0012411	0.0014068	0.00036081	847.95	1.3273e-05	1.4239e-05	1046.6	246.31	1.3903e-05	1.4347e-05	324.95	95.637	66.929	20.884	1.3967e-05	30.442	369.206	166.143	265.441	177.927	251.336	270.523	176.624	183.193	389.608	377.424	181.519	185.896	188.134	193.257	321.697	188.691	-8191	255	
18416.473	1	1	0	0	0.098818	0.12242	0.17569	0.31235	0.32157	0.2484	0.42963	0.22619	0.11776	0.1872	0.16418	0.16767	0.3278	0.38192	0.10274	0.31588	-2.3854	-2.8396	-3.0146	-2.7687	-2.8333	-3.0417	-2.8542	-2.9729	-2.7833	-2.7771	-3.1833	-2.7625	-3.0604	-2.8688	-2.7875	-3.0458	434.533	469.481	346.375	492.474	176.056	222.191	512.838	465.137	204.564	174.303	423.832	503.212	433.955	175.230	507.068	445.041	0.0012409	0.0011664	0.0001153	1083.2	9.0724e-07	4.4017e-06	1339.8	314.07	7.7663e-06	4.2255e-06	418.31	122.16	84.996	26.666	8.3146e-06	38.634	0.0010841	0.0016353	0.0003597	842.96	1.3506e-05	1.4887e-05	1048.5	245.24	1.3314e-05	1.4491e-05	326.23	95.959	66.821	20.965	1.2898e-05	30.606	360.540	215.720	294.884	178.169	237.867	308.038	177.056	183.282	305.280	295.514	180.853	185.386	188.196	193.481	253.799	188.827	-8191	255	
18416.547	1	1	0	0	0.090452	0.19648	0.29533	0.32149	0.13513	0.12596	0.11258	0.098408	0.35008	0.076936	0.18794	0.162	0.083772	0.06291	0.1601	0.074514	-2.5042	-2.825	-3.0687	-2.8	-2.9896	-3.0938	-2.8729	-3.1437	-2.8563	-2.8292	-3.0687	-2.75	-2.8292	-2.7292	-2.65	-3.125	220.667	300.856	254.020	192.018	293.776	216.323	430.661	478.371	222.334	224.897	436.254	166.271	505.059	171.597	255.689	214.335	0.001088	0.00080912	0.0001817	1100.4	6.9504e-06	4.3287e-06	1355	313.04	1.3242e-05	1.2751e-05	416.47	123.15	85.542	26.334	3.7809e-06	38.768	0.0010621	0.0016206	0.00034677	849.52	1.3524e-05	1.3817e-05	1055.9	244.72	1.2563e-05	1.4901e-05	326.97	95.944	67.122	20.976	1.3625e-05	30.721	353.297	348.441	233.172	178.514	306.929	354.004	176.959	183.384	300.558	384.669	180.782	186.029	187.854	193.351	223.523	189.879	-8191	255	
18416.664	1	1	0	0	0.20298	0.047379	0.076306	0.036967	0.26754	0.3019	0.15115	0.094882	0.071133	0.14137	0.41293	0.13695	0.083742	0.06799	0.037863	0.095091	-2.3479	-2.6813	-3.0312	-2.8604	-2.8146	-3.0187	-2.9208	-3.0896	-3.0062	-2.9146	-3.125	-2.8875	-2.7521	-3.0083	-2.8125	-3.25	425.685	294.140	252.871	423.621	184.546	456.920	423.798	524.812	201.152	458.633	469.570	504.450	509.893	459.612	432.232	458.969	0.0011315	0.0011169	0.00020273	1098.1	7.3629e-06	4.395e-06	1353.5	318.32	1.1314e-05	6.9801e-06	421.97	123.68	85.803	26.508	7.6881e-06	38.706	0.0010572	0.0016341	0.00035563	851.81	1.3237e-05	1.3506e-05	1055.3	247.34	1.2607e-05	1.4673e-05	328.05	96.374	67.115	21.013	1.2541e-05	30.668	363.295	284.586	190.022	177.722	265.945	290.968	177.161	183.350	279.273	324.803	181.550	185.564	187.613	193.258	307.949	190.083	-8191	255	
18416.762	1	1	0	0	0.12702	0.14305	0.072047	0.23839	0.18592	0.047648	0.49268	0.28371	0.069369	0.32941	0.2307	0.080946	0.12049	0.0988	0.26871	0.11951	-2.725	-2.7854	-3.0625	-2.9542	-2.8396	-3.0708	-2.8958	-3.1583	-2.8771	-2.7958	-3.1292	-2.8021	-2.7333	-3.1729	-2.8104	-3.0917	410.871	335.132	220.072	440.477	327.641	239.179	487.541	497.690	422.765	359.388	427.080	366.765	375.758	196.806	345.291	427.465	0.00095918	0.0010024	0.00023614	1092.4	9.368e-06	4.6491e-06	1348	316.26	7.7883e-06	1.5932e-05	414.85	122.6	85.353	26.63	6.073e-07	38.942	0.00098451	0.0015902	0.00033948	847.98	1.2975e-05	1.3555e-05	1047.6	246.42	1.3246e-05	1.4323e-05	325.52	95.613	67.03	20.916	1.2797e-05	30.582	357.073	281.800	269.193	178.301	328.650	290.817	176.865	183.603	358.104	309.151	181.456	185.265	187.738	193.204	520.468	189.626	-8191	255	
18416.857	1	1	0	0	0.056167	0.058018	0.19775	0.14456	0.22804	0.080391	0.45032	0.18372	0.1573	0.16794	0.051832	0.14208	0.18025	0.28611	0.39891	0.17904	-2.4958	-2.6813	-3.0438	-2.85	-2.775	-3.0708	-2.8458	-2.8812	-3.0396	-2.8396	-3.0167	-3.0896	-2.8083	-3.1125	-2.6063	-2.8812	353.525	514.984	337.375	273.364	394.342	274.405	495.594	490.003	469.071	168.254	444.221	425.903	494.288	444.634	305.144	507.073	0.0012754	0.0010531	0.00014969	1087.4	8.1379e-07	4.314e-06	1352.4	315.75	1.3253e-05	5.4847e-06	416.39	122.09	84.785	26.426	7.1621e-06	38.463	0.001017	0.0016121	0.00034622	846.15	1.2657e-05	1.2936e-05	1047.7	245.13	1.2536e-05	1.402e-05	325.78	95.697	66.86	20.89	1.354e-05	30.662	362.513	306.066	298.858	177.926	276.623	272.404	176.683	183.071	351.431	310.963	181.321	185.352	188.434	193.742	361.724	189.828	-8191	255	
18416.953	1	1	0	0	0.10448	0.22431	0.20718	0.088278	0.1128	0.11564	0.29893	0.085649	0.1308	0.25441	0.36992	0.22547	0.15117	0.18377	0.34204	0.14803	-2.6063	-2.7146	-3.0396	-3.1208	-2.6646	-3.0583	-3.0646	-3.0187	-3.275	-2.8292	-3.0729	-3.0687	-2.7625	-3.1833	-2.8042	-2.9062	230.751	194.129	403.055	468.445	193.533	180.441	441.832	506.397	286.548	203.768	168.473	423.835	262.879	469.800	338.408	405.719	0.00096415	0.00093066	0.00012878	1109.4	8.9355e-06	8.6817e-06	1353.3	317.37	2.3176e-05	1.8736e-06	418.55	122.97	85.882	26.459	3.3438e-06	38.961	0.0010178	0.0015624	0.00034413	851.86	1.2732e-05	1.3148e-05	1054.5	247.16	1.2851e-05	1.325e-05	327.11	96.407	67.435	21.068	1.3111e-05	30.814	359.763	376.022	194.439	177.531	313.180	283.652	177.193	183.320	322.366	245.171	181.038	185.619	188.299	193.215	266.832	189.359	-8191	255	
18417.074	1	1	0	0	0.12104	0.076842	0.061226	0.104	0.23841	0.061916	0.22886	0.15453	0.13192	0.15396	0.079311	0.20322	0.15118	0.27645	0.060707	0.31308	-2.8937	-2.7583	-2.9167	-3.0125	-2.6646	-3.1562	-2.9458	-2.9917	-3.3083	-2.9396	-2.9208	-3.2229	-2.575	-3.1042	-2.9333	-2.8125	504.450	518.951	404.044	173.788	372.537	464.683	435.196	200.827	429.929	403.146	347.989	510.241	276.409	204.983	472.794	465.434	0.0013175	0.00053701	0.00017015	1097.1	1.0521e-05	9.809e-07	1355.3	316.14	6.0712e-06	8.8042e-06	424.33	123.76	85.986	26.619	9.7819e-06	39.403	0.0010638	0.0017001	0.00033993	852.75	1.3229e-05	1.4442e-05	1057.7	246.8	1.2828e-05	1.4129e-05	329.39	96.491	67.57	21.12	1.2785e-05	30.965	366.296	261.161	247.494	178.512	254.783	271.713	176.567	183.353	296.612	375.802	180.892	185.604	188.179	193.429	338.463	189.451	-8191	255	
18417.146	1	1	0	0	0.19393	0.17225	0.10474	0.22807	0.16443	0.12542	0.16748	0.15095	0.12768	0.13012	0.15237	0.34626	0.33055	0.21413	0.015029	0.33767	-2.4979	-2.6396	-2.9938	-2.9562	-2.7958	-2.8854	-3.0667	-3.0229	-3.0187	-2.975	-3.1042	-3.1542	-2.725	-2.8604	-3.0375	-2.7667	207.567	270.528	253.100	443.408	504.672	309.990	482.271	518.781	367.308	248.393	444.368	491.321	490.434	521.610	220.130	461.480	0.0009692	0.00080293	0.00030082	1086	9.6267e-06	1.0242e-05	1352.6	314.26	1.359e-05	6.5145e-06	414.73	122.3	86.577	26.798	8.4055e-06	39.024	0.00098781	0.0014449	0.0003753	845.13	1.2532e-05	1.4262e-05	1050	246.83	1.2255e-05	1.3074e-05	325.91	95.664	67.711	21.109	1.2782e-05	30.714	365.947	196.491	227.039	178.402	372.594	302.387	176.702	183.095	312.518	362.132	181.145	185.915	188.004	193.200	320.595	189.654	-8191	255	
18417.266	1	1	0	0	0.074357	0.10413	0.12355	0.12876	0.1519	0.19941	0.12132	0.13227	0.064419	0.17683	0.1538	0.11792	0.14342	0.23763	0.16417	0.059801	-2.6021	-2.8625	-2.8	-3.175	-2.8229	-3.0104	-3.1271	-2.7792	-3.1021	-2.9896	-2.9083	-3.1875	-2.8083	-3.0875	-2.9229	-2.9354	490.757	203.499	273.863	300.270	452.355	348.323	212.476	456.105	199.699	251.630	515.527	410.750	514.942	483.174	385.849	302.996	0.00087626	0.00070003	0.00035921	1101.7	1.3409e-05	4.9621e-06	1351.7	315.61	1.5733e-05	7.1471e-06	422.31	123.12	85.805	26.323	4.4217e-06	38.687	0.0010047	0.0011903	0.00045776	851.92	1.3282e-05	1.3505e-05	1048.2	245.87	1.3639e-05	1.4115e-05	327.95	95.679	67.375	21.044	1.2814e-05	30.667	371.256	288.891	269.774	178.153	257.597	315.140	176.883	183.454	334.398	306.802	180.625	185.288	188.035	193.835	299.588	190.081	-8191	255	
18417.361	1	1	0	0	0.26936	0.15693	0.27898	0.19424	0.12929	0.12492	0.29868	0.11978	0.075776	0.24489	0.11491	0.088907	0.18057	0.27845	0.18616	0.14418	-2.5833	-2.9583	-2.9521	-3.1792	-2.6292	-3.0146	-3.1229	-2.7687	-3.0167	-2.8771	-2.9333	-3.0438	-2.8396	-2.8708	-3.2	-2.8333	495.947	274.602	272.211	480.585	322.115	496.053	453.836	182.593	286.251	186.004	238.835	392.578	216.102	462.025	249.732	460.727	0.0012594	0.00077525	1.8487e-05	1093.1	9.768e-08	6.2444e-06	1363.5	316.54	1.2155e-05	3.3052e-06	421.12	123.94	86.065	26.93	1.1159e-05	38.623	0.0010307	0.001232	0.00044835	851.88	1.3323e-05	1.351e-05	1054.5	246.57	1.1922e-05	1.4332e-05	328.97	96.232	67.657	21.249	1.3082e-05	30.783	353.423	315.634	353.153	178.324	220.936	204.694	176.878	183.169	336.868	282.409	181.003	185.279	188.517	193.060	340.726	190.045	-8191	255	
18417.457	1	1	0	0	0.22336	0.24189	0.13073	0.18159	0.16212	0.14597	0.32752	0.1528	0.12296	0.15284	0.17132	0.05603	0.15878	0.16457	0.16468	0.20208	-2.4708	-2.9833	-2.575	-3.1917	-2.8458	-2.8521	-3.2083	-3.0312	-3.0375	-2.8458	-2.9375	-3.1146	-2.7833	-2.9646	-3.0854	-2.6271	481.140	464.273	454.365	519.523	238.521	478.314	474.874	466.747	234.652	276.603	459.053	431.846	497.591	473.056	523.763	228.245	0.0010102	0.0011781	8.2506e-05	1102.6	3.3199e-06	1.2234e-05	1365	318.59	1.6872e-05	1.375e-05	423.27	124.05	85.79	26.691	6.723e-06	38.633	0.0010048	0.0012888	0.00046334	855.77	1.3271e-05	1.3337e-05	1059.9	247.55	1.2688e-05	1.4103e-05	329.86	96.932	67.262	21.273	1.341e-05	30.821	354.210	308.157	362.836	177.999	326.673	249.900	176.721	182.869	352.236	306.507	181.229	185.557	188.131	193.312	274.896	190.310	-8191	255	
18417.553	1	1	0	0	0.13238	0.26855	0.19478	0.19559	0.17323	0.20281	0.28419	0.17476	0.065188	0.11331	0.098851	0.18511	0.11431	0.30763	0.10273	0.10188	-2.4792	-2.8729	-2.6375	-2.8937	-2.8854	-2.7833	-3.1021	-2.7188	-2.9396	-2.9667	-2.8229	-3.0604	-2.9437	-2.8583	-3.175	-3.0146	306.621	293.773	205.760	206.952	398.222	172.467	459.483	431.715	236.820	446.226	454.097	173.725	252.652	184.432	397.160	255.755	0.0009991	0.00047047	0.00014925	1098.6	1.0137e-05	6.8763e-06	1361.7	320.63	5.036e-06	8.6953e-06	420.67	121.87	86.309	26.867	7.7546e-06	38.817	0.0010232	0.0013409	0.0004426	854.97	1.3048e-05	1.501e-05	1055.4	248.64	1.3262e-05	1.4677e-05	328.76	95.986	67.536	21.251	1.3063e-05	30.77	364.347	327.206	227.979	178.577	235.654	312.970	176.605	183.491	319.121	291.412	180.681	185.642	188.470	193.490	265.783	188.959	-8191	255	
18417.674	1	1	0	0	0.072853	0.27456	0.082033	0.2963	0.14876	0.22353	0.21583	0.20134	0.19886	0.10585	0.21041	0.32361	0.2481	0.098111	0.082662	0.10452	-2.5792	-2.9	-2.6458	-3.075	-2.9479	-2.8438	-3.2896	-3.0521	-2.8458	-3.0104	-2.8729	-3.0583	-3.0542	-2.7	-3.1625	-2.8812	247.753	183.402	172.629	200.253	501.381	356.232	466.205	422.748	409.585	192.375	459.815	447.607	511.762	485.070	458.121	390.362	0.0010789	0.00089804	7.7081e-05	1107.7	7.092e-06	1.0072e-05	1353.6	319.65	6.3883e-06	5.5082e-06	421.23	123.38	86.462	26.791	8.6019e-06	38.528	0.00098743	0.001181	0.00046006	857.24	1.33e-05	1.3789e-05	1053.8	248.21	1.461e-05	1.3897e-05	328.13	96.292	67.548	21.156	1.2359e-05	30.567	364.660	238.898	463.295	177.813	235.383	297.214	177.172	183.422	188.167	309.304	180.509	185.330	187.977	193.355	313.319	189.757	-8191	255	
18417.770	1	1	0	0	0.040838	0.11241	0.078103	0.11563	0.17498	0.21648	0.25762	0.094764	0.20942	0.19656	0.30194	0.11386	0.19167	0.096721	0.24125	0.23734	-2.525	-3.1458	-2.6937	-3.2521	-2.8	-2.6625	-3.2062	-2.9188	-3.0312	-2.9104	-2.8042	-3.1146	-2.8438	-2.7188	-3.0875	-2.8729	221.116	293.621	272.859	521.604	264.867	490.147	439.955	273.787	482.069	363.305	492.681	393.805	445.180	510.687	343.234	383.055	0.00090635	0.00050054	0.00012267	1095.1	5.5438e-06	8.7603e-06	1358.7	317.28	1.6262e-05	7.7429e-06	424.2	122.94	85.564	26.945	9.4338e-06	38.851	0.00096339	0.0012924	0.00044101	852.68	1.265e-05	1.3251e-05	1053.3	246.84	1.6495e-05	1.3184e-05	329.69	96.102	66.96	21.323	1.2636e-05	30.657	361.634	261.367	283.677	178.163	382.541	309.272	176.761	183.330	280.807	307.244	180.971	185.498	188.110	193.024	273.494	189.829	-8191	255	
18417.842	1	1	0	0	0.10625	0.078039	0.15761	0.26857	0.19007	0.10346	0.35716	0.21766	0.070787	0.094919	0.22714	0.16336	0.3968	0.14862	0.16724	0.04531	-2.5	-3.0333	-2.6417	-2.9875	-2.9333	-2.7292	-3.0521	-2.9229	-2.8667	-2.9521	-2.8854	-3.0104	-3.1583	-2.8125	-3.0687	-2.8292	523.932	340.396	499.258	174.947	189.364	224.810	488.080	500.911	194.129	353.015	458.034	471.749	477.927	410.493	214.047	327.494	0.0010893	0.00077538	0.0002775	1098.8	4.5033e-06	9.1186e-06	1353.9	321.16	8.8096e-06	8.9033e-06	419.64	123.38	86.352	26.877	4.782e-06	39.001	0.00098592	0.0012093	0.00044459	851.69	1.2421e-05	1.3338e-05	1055	248.31	1.479e-05	1.3785e-05	328.74	96.551	67.413	21.304	1.2802e-05	30.871	368.220	313.244	277.159	178.126	368.448	314.479	177.249	183.025	218.149	316.539	181.073	185.525	188.397	193.449	454.697	189.606	-8191	255	
18417.963	1	1	0	0	0.042157	0.19326	0.071947	0.32997	0.15988	0.018498	0.09931	0.22335	0.35813	0.32875	0.25161	0.026529	0.25993	0.12233	0.27714	0.11222	-2.3333	-3.0208	-2.7417	-2.9958	-2.9229	-2.7313	-3.0521	-3	-2.825	-3.2083	-2.8833	-2.9083	-2.9604	-2.8917	-3.0479	-2.9354	518.607	168.024	248.634	183.496	319.217	510.212	443.397	507.321	521.126	475.017	293.597	382.389	170.179	329.137	488.838	444.771	0.00094209	0.00097949	7.4003e-05	1102	1.1761e-05	9.8913e-06	1356.9	315.45	1.4392e-05	4.5693e-06	418.63	123.78	86.432	26.766	1.0778e-05	38.776	0.00097558	0.0012225	0.00036223	854.02	1.2239e-05	1.3664e-05	1054.4	247.09	1.6152e-05	1.435e-05	328.13	96.435	67.749	21.319	1.2933e-05	30.728	366.442	269.082	232.282	178.233	317.395	285.584	176.765	183.132	309.852	201.199	180.872	185.528	188.119	194.065	294.234	189.958	-8191	255	
18418.059	1	1	0	0	0.074211	0.1165	0.24578	0.26833	0.28836	0.23982	0.13051	0.24174	0.28508	0.37863	0.12551	0.24489	0.14926	0.24656	0.093944	0.081613	-2.3312	-2.8771	-2.7854	-3.0396	-3.0667	-2.7729	-3.175	-2.9458	-2.6521	-3.0062	-2.9083	-2.8979	-3.1208	-2.8083	-2.9667	-2.9792	212.305	487.239	397.194	479.726	483.935	307.993	450.865	511.996	250.140	313.746	444.006	380.191	287.498	175.134	442.804	214.774	0.0012263	0.0011371	9.7236e-05	1098.1	8.7965e-06	1.0326e-05	1347.1	318.16	4.0678e-06	5.2157e-06	421.62	122.45	85.992	26.639	8.3105e-06	38.839	0.0009676	0.0012281	0.00032813	853.85	1.2706e-05	1.3234e-05	1049.9	246.94	1.5405e-05	1.4189e-05	328.18	95.52	67.097	21.145	1.268e-05	30.72	363.276	256.412	477.721	178.132	314.778	337.431	176.989	183.096	322.486	342.337	181.330	185.946	188.089	193.032	327.140	190.029	-8191	255	
18418.154	1	1	0	0	0.10329	0.072	0.17357	0.30202	0.24076	0.059285	0.36447	0.30946	0.086248	0.15904	0.16074	0.087881	0.11691	0.26426	0.1783	0.074595	-2.5458	-3.0396	-2.8333	-3.0354	-3.0521	-2.8458	-3.1167	-3.0375	-2.7687	-3.2188	-2.9021	-2.8312	-3.0833	-2.8688	-2.8917	-2.9958	288.342	459.831	492.601	493.481	421.237	221.293	478.851	447.434	195.882	236.166	380.758	184.534	480.911	453.063	240.644	470.025	0.00098029	0.00075554	0.00031856	1091.2	1.0821e-05	1.3416e-05	1344.7	315.78	2.3035e-05	2.2227e-06	415.03	123.34	85.412	26.88	1.0921e-05	38.862	0.00098512	0.0012446	0.00033042	849.87	1.204e-05	1.2847e-05	1048.1	245.3	1.6838e-05	1.2847e-05	325.97	95.986	66.658	21.206	1.4226e-05	30.738	352.146	307.867	306.744	178.061	287.664	315.316	176.598	183.122	267.271	282.372	181.042	185.646	187.904	193.221	291.914	189.976	-8191	255	
18418.252	1	1	0	0	0.091627	0.15725	0.14842	0.37213	0.098898	0.2656	0.084785	0.31926	0.074377	0.19036	0.44265	0.2531	0.069854	0.055968	0.15177	0.15666	-2.3604	-2.9104	-2.8125	-2.7896	-3.0167	-2.9917	-3.0396	-2.9708	-2.8792	-3.0021	-2.9625	-2.825	-3.0625	-2.7958	-2.9229	-3.2521	485.015	406.940	442.430	465.864	312.922	437.358	415.053	489.250	516.325	317.943	518.703	479.708	210.474	433.715	199.879	421.194	0.0010657	0.00093299	4.9961e-05	1084.5	1.3555e-05	1.6265e-06	1352	315.61	1.295e-05	1.0061e-05	420.66	123.39	85.94	26.823	7.0508e-06	39.232	0.00096988	0.001187	0.00031222	847.23	1.1829e-05	1.3147e-05	1046.1	245.63	1.5367e-05	1.3777e-05	327.61	95.869	67.178	21.238	1.7216e-05	31.236	361.495	264.250	270.657	178.549	324.470	216.905	176.847	183.515	313.633	309.604	181.367	185.900	188.518	193.572	351.510	190.255	-8191	255	
18418.369	1	1	0	0	0.2628	0.084974	0.088183	0.39478	0.25464	0.22915	0.3231	0.17864	0.18258	0.21983	0.20948	0.2393	0.15891	0.11402	0.066095	0.22953	-2.2062	-2.9354	-2.8458	-2.8625	-3.0208	-2.7667	-2.8854	-3.0396	-2.7146	-2.9313	-2.9792	-2.9146	-3.1542	-2.8458	-2.7646	-3.0312	230.545	232.931	469.280	175.189	203.507	385.583	490.783	519.417	439.275	281.315	458.970	511.528	421.018	348.188	380.242	448.997	0.00086417	0.0011115	8.6275e-05	1093.8	1.0728e-05	5.8459e-06	1362.1	316.98	2.6985e-05	1.0966e-05	417	121.98	86.115	26.718	4.4177e-06	38.514	0.0010142	0.0012416	0.00033677	850.63	1.1952e-05	1.2973e-05	1050.7	246.45	1.5939e-05	1.3441e-05	326.75	95.821	67.071	21.192	1.5597e-05	30.697	359.713	253.267	239.901	178.097	296.202	320.293	177.057	183.017	283.346	330.489	180.825	185.039	187.825	193.498	439.689	190.015	-8191	255	
18418.441	1	1	0	0	0.24034	0.1726	0.070163	0.10876	0.02953	0.092071	0.25827	0.11264	0.21944	0.28515	0.15566	0.099142	0.24048	0.039788	0.10206	0.13272	-2.3271	-3.025	-2.9167	-2.8333	-3.0062	-3.0292	-2.7792	-3.3375	-2.8396	-3.0146	-3.0125	-2.7771	-2.9646	-3.0979	-2.7771	-2.9125	446.248	492.131	207.135	484.977	312.354	335.776	458.924	323.244	422.645	339.542	443.590	426.550	475.089	379.446	512.553	308.161	0.001081	0.00036973	0.00011582	1088	8.4876e-06	5.0067e-06	1344.8	315.04	9.7881e-06	1.4064e-06	416.65	122.74	85.513	26.383	5.5845e-06	38.588	0.0010103	0.0012013	0.00033012	848.75	1.2416e-05	1.2721e-05	1045.5	245.02	1.316e-05	1.6618e-05	326.72	95.245	67.143	20.958	1.6605e-05	30.637	364.332	262.949	248.464	178.503	313.501	383.398	176.892	183.165	342.140	317.913	180.570	185.184	188.181	192.934	423.263	189.692	-8191	255	
18418.537	1	1	0	0	0.13954	0.081698	0.31337	0.26646	0.075795	0.1012	0.28404	0.21834	0.22841	0.17092	0.084232	0.091467	0.074624	0.41577	0.078956	0.14336	-2.2208	-2.9437	-2.9042	-2.775	-3.1417	-2.975	-3.0083	-3.1729	-2.85	-3.0062	-3.1146	-2.6813	-2.9917	-2.7646	-2.8271	-2.9979	228.203	357.858	495.776	498.156	422.896	339.753	398.752	505.956	520.806	253.189	209.872	446.472	519.397	402.775	445.499	222.504	0.0011239	0.00060875	0.00018051	1085.7	7.0673e-06	5.0349e-06	1351.1	313.46	1.0104e-05	4.7065e-06	418.62	121.59	86.117	26.427	6.1e-06	39.11	0.0010643	0.0012457	0.00034282	845.49	1.3065e-05	1.3881e-05	1049.2	244.55	1.2213e-05	1.8197e-05	326.22	95.373	67.085	21.048	1.6762e-05	30.738	360.292	504.403	263.939	177.925	328.046	295.501	176.949	183.197	283.553	307.117	180.494	185.077	187.995	193.718	427.317	189.567	-8191	255	
18418.635	1	1	0	0	0.31417	0.16005	0.29381	0.20502	0.11474	0.10438	0.16057	0.16606	0.0080267	0.10823	0.25094	0.24486	0.27661	0.084925	0.22159	0.053124	-2.4062	-2.8438	-3.0563	-2.8667	-2.9688	-3.0854	-2.825	-3.0667	-2.7938	-2.9437	-3.1875	-2.7042	-2.9479	-3.1146	-2.7021	-2.9437	210.844	228.320	297.634	479.281	235.643	359.286	393.369	371.793	316.940	346.722	462.474	450.551	214.551	180.935	342.089	269.085	0.0010006	0.00051327	0.00016384	1092.7	8.098e-06	2.9956e-06	1344.2	318.5	6.2525e-06	2.2683e-07	417.43	123.05	85.567	26.708	6.9655e-06	38.682	0.00098297	0.0012067	0.00033442	849.48	1.3507e-05	1.4049e-05	1047.7	246.57	1.2198e-05	1.7285e-05	327.52	95.819	67.145	21.091	1.7546e-05	30.675	357.240	295.659	220.981	178.327	272.701	286.324	176.728	183.367	285.893	487.143	181.158	185.658	187.571	193.447	350.714	189.720	-8191	255	
18418.754	1	1	0	0	0.18625	0.1696	0.12015	0.23374	0.077702	0.13656	0.4548	0.25026	0.079876	0.025715	0.031057	0.24802	0.16499	0.088106	0.17442	0.15131	-2.4542	-2.9583	-2.9688	-2.8771	-2.9104	-3.0396	-2.9604	-2.9979	-2.8354	-2.7812	-3.1146	-2.8604	-2.6542	-2.9771	-2.8	-3.2125	369.345	393.136	246.309	501.538	379.398	173.787	476.977	485.973	306.423	480.479	472.630	459.036	400.793	488.430	349.548	481.808	0.00091049	0.00086049	0.00013193	1089.4	7.2363e-06	2.8479e-06	1360.8	316.8	1.1458e-05	1.1212e-05	418.63	122.49	85.428	26.669	7.0179e-06	38.244	0.00097877	0.0012674	0.00032707	848.17	1.5257e-05	1.2773e-05	1050.4	245.71	1.2543e-05	1.8326e-05	325.88	95.695	67.107	21.014	1.6137e-05	30.328	363.951	213.560	304.498	178.438	304.524	299.465	176.984	183.155	372.644	297.202	180.934	185.729	187.956	192.772	363.039	190.056	-8191	255	
18418.850	1	1	0	0	0.1044	0.12688	0.15667	0.14592	0.13248	0.15219	0.32696	0.12214	0.078496	0.095035	0.29743	0.19374	0.29453	0.11183	0.12792	0.27587	-2.5979	-2.6729	-2.9062	-2.9667	-3.0333	-3.1375	-2.9167	-3.0167	-2.9583	-2.9375	-3.1875	-2.9521	-2.7458	-3.075	-2.7542	-3.0333	387.541	459.403	350.697	169.319	169.658	269.943	495.789	432.281	302.781	184.507	502.156	436.494	506.579	519.117	501.103	521.143	0.0010548	0.0008681	0.00015974	1088.7	1.1282e-05	3.2485e-06	1343.2	313.74	1.3801e-05	5.5988e-06	411.67	121.21	86.398	26.698	7.8495e-06	38.368	0.0009736	0.0012459	0.00034464	842.9	1.6904e-05	1.3496e-05	1044.1	245.21	1.2007e-05	1.7333e-05	324.54	94.915	67.188	21.021	1.5851e-05	30.457	366.435	261.607	283.929	177.984	262.919	276.641	176.766	183.403	299.057	346.961	180.891	185.553	187.883	193.383	314.739	190.120	-8191	255	
18418.945	1	1	0	0	0.19096	0.12145	0.39832	0.32623	0.22229	0.033252	0.35694	0.11503	0.27102	0.25695	0.24641	0.11767	0.14323	0.18508	0.10808	0.30571	-2.6792	-2.6875	-3.2208	-2.9229	-2.8021	-3.1312	-3.025	-3.1375	-2.9667	-2.7292	-3.1813	-2.8979	-2.8146	-3.0896	-2.6813	-2.9042	234.483	274.113	231.753	385.782	361.065	259.920	460.639	431.443	306.973	297.308	516.779	453.409	500.082	481.946	515.615	280.871	0.00088042	0.00091356	8.0206e-05	1089.3	1.1451e-05	2.2184e-06	1354.5	312.78	1.5883e-05	7.5112e-06	416.12	122.62	86.235	26.634	6.8588e-06	38.54	0.00096345	0.0012742	0.00034912	845.38	1.6126e-05	1.3262e-05	1048.5	244.9	1.2893e-05	1.8154e-05	324.37	95.397	66.996	21.018	1.2687e-05	30.461	356.674	315.540	293.285	178.140	292.569	446.018	176.987	183.225	309.138	341.043	180.736	185.392	187.981	192.722	314.327	189.602	-8191	255	
18419.066	1	1	0	0	0.16736	0.18893	0.11264	0.20398	0.17132	0.18983	0.26146	0.34424	0.11298	0.15731	0.2013	0.16185	0.14311	0.031365	0.13025	0.090366	-2.6813	-2.6292	-3.0125	-2.9479	-2.8312	-2.9562	-2.8229	-2.9896	-3.0583	-2.8312	-3.0271	-3.0271	-2.925	-3.1021	-2.9417	-2.9729	354.932	432.840	456.433	235.669	188.369	322.398	416.795	393.891	237.027	375.028	380.254	494.983	430.284	482.091	355.716	520.367	0.00088994	0.0010924	5.3351e-05	1096	1.2392e-05	2.4845e-06	1350.4	315.47	9.3054e-06	6.4785e-06	416.14	123.11	86.485	26.939	2.9097e-06	38.338	0.0010141	0.0012304	0.00034506	847.62	1.6739e-05	1.3373e-05	1048.9	245.31	1.2652e-05	1.7614e-05	326.1	96.044	67.412	21.219	1.3746e-05	30.715	361.467	198.719	347.187	178.276	254.064	357.931	176.908	183.420	293.937	369.207	180.905	185.546	188.453	193.230	211.766	189.323	-8191	255	
18419.139	1	1	0	0	0.19894	0.12368	0.088913	0.072431	0.071567	0.1782	0.2955	0.13407	0.23996	0.12218	0.14411	0.14804	0.22155	0.13855	0.10073	0.14493	-2.6437	-2.8083	-3.0042	-3.0083	-2.8187	-3.1646	-3.0646	-3.0854	-3.0062	-2.925	-3.1937	-2.9792	-2.625	-3.1229	-2.6896	-2.8896	415.048	301.407	356.884	197.999	432.211	473.455	467.235	287.425	361.467	493.232	460.022	199.623	299.871	462.485	367.895	301.876	0.0010732	0.00091955	0.00012858	1099.4	8.081e-06	5.6918e-06	1354.9	317.19	1.1287e-05	9.6316e-06	417.39	123.29	87.64	26.716	2.89e-06	38.542	0.0010321	0.0012216	0.000333	852.23	1.5921e-05	1.2877e-05	1055.6	247.07	1.2891e-05	1.6584e-05	328.04	96.47	67.885	21.273	1.2297e-05	30.698	369.743	215.728	267.293	178.093	345.020	336.373	176.917	183.191	260.371	312.017	180.901	185.875	187.966	192.962	408.960	189.720	-8191	255	
18419.234	1	1	0	0	0.18606	0.084697	0.075232	0.15445	0.1046	0.090181	0.11551	0.23247	0.15526	0.28293	0.22761	0.09438	0.20719	0.11313	0.13067	0.2514	-2.7	-2.5771	-2.9729	-2.9042	-2.6667	-2.9167	-3.0687	-2.8729	-3.1604	-2.6437	-2.8458	-3.1104	-2.6542	-2.9458	-2.8521	-2.9896	412.319	205.987	371.390	491.452	422.179	368.139	416.894	513.293	190.944	205.964	492.579	402.948	166.490	478.498	219.741	186.244	0.00097245	0.00076293	0.00025779	1089.4	1.4429e-05	5.118e-06	1351.1	317.41	7.8151e-06	8.4477e-06	420.3	122.89	87.496	26.764	1.2281e-06	38.325	0.00096741	0.0012397	0.00034179	847.35	1.7099e-05	1.3205e-05	1048.3	247.21	1.206e-05	1.3667e-05	327.6	95.705	67.787	21.248	1.2442e-05	30.551	360.535	265.621	257.652	178.405	264.507	203.935	176.956	183.628	288.747	343.848	180.896	185.443	188.064	193.939	390.547	189.933	-8191	255	
18419.355	1	1	0	0	0.10683	0.09914	0.17424	0.35984	0.13923	0.16342	0.46268	0.3678	0.057599	0.17627	0.19426	0.31474	0.17955	0.13582	0.044049	0.19305	-2.6583	-2.6896	-2.8292	-3.1729	-2.7562	-3.1125	-2.8667	-2.8625	-3.1229	-2.7438	-3.0646	-2.8958	-2.8521	-3.1	-2.9083	-2.7771	442.368	315.109	274.998	174.909	420.926	344.558	437.076	492.217	483.682	413.040	460.447	432.466	431.096	454.950	494.317	410.876	0.0010881	0.00045523	0.00025282	1093.5	6.2788e-06	1.42e-05	1348.2	315.77	1.4776e-05	9.6972e-06	414.03	122.38	85.876	26.84	6.2008e-06	38.902	0.00096463	0.0012247	0.00032303	849.98	1.5517e-05	1.3887e-05	1044.4	245.24	1.2475e-05	1.3705e-05	324.74	95.18	67.128	21.141	1.2493e-05	30.629	362.654	201.154	243.837	178.160	235.328	315.507	176.979	182.996	311.313	282.902	181.139	185.707	187.956	193.439	349.957	190.246	-8191	255	
18419.449	1	1	0	0	0.090813	0.147	0.058218	0.21759	0.097084	0.057951	0.32271	0.25839	0.047981	0.14268	0.22264	0.41723	0.22374	0.26095	0.10396	0.21719	-2.7354	-2.8187	-2.6729	-3.1958	-2.5125	-3.0708	-2.975	-2.7375	-3.0542	-2.9604	-2.9	-3.0125	-2.7958	-3.0667	-2.9229	-2.8688	229.188	365.463	320.069	393.111	226.355	184.015	481.839	372.551	336.761	250.570	488.357	502.630	475.726	202.799	357.605	249.475	0.0010745	3.0269e-05	0.00013412	1097.7	5.6439e-06	7.4664e-06	1356	317.1	5.2908e-06	3.4316e-06	416.63	122.55	86.549	27.047	4.6988e-06	38.482	0.00099455	0.001157	0.00034483	851.19	1.4278e-05	1.4121e-05	1050.5	246.35	1.2148e-05	1.3595e-05	327.39	95.785	67.692	21.242	1.2361e-05	30.712	357.680	275.656	274.186	178.345	269.686	262.812	176.753	183.121	292.421	276.361	181.113	185.686	187.974	193.314	267.400	189.837	-8191	255	
18419.547	1	1	0	0	0.2479	0.089542	0.23376	0.063593	0.09273	0.14084	0.25423	0.24406	0.24393	0.16491	0.1649	0.13811	0.20212	0.26976	0.071574	0.16212	-2.5875	-2.7917	-2.8271	-3.1813	-2.8187	-3.0312	-3.2333	-2.625	-3.1729	-3.0042	-2.9562	-3.2521	-3.0104	-2.9	-2.9667	-2.9708	431.689	421.006	182.065	485.066	223.990	236.697	445.169	463.304	167.138	197.041	474.798	421.917	485.529	266.305	177.930	443.985	0.00099235	0.00045111	7.0706e-05	1097.1	9.7781e-06	1.2549e-05	1365.4	317.09	3.5595e-06	3.4104e-06	417.64	122.77	85.594	26.809	5.6661e-06	39.08	0.00098193	0.0012299	0.0003431	851.28	1.2565e-05	1.6451e-05	1055.6	246.59	1.2023e-05	1.2895e-05	328.05	95.841	67.104	21.155	1.1885e-05	30.719	356.355	297.382	365.767	178.072	275.990	307.253	176.973	183.371	287.043	350.664	181.170	185.204	188.705	193.416	305.470	189.693	-8191	255	
18419.643	1	1	0	0	0.091227	0.058631	0.19842	0.18972	0.1727	0.089365	0.32657	0.32573	0.12297	0.058086	0.20671	0.24445	0.10578	0.2976	0.047386	0.11297	-2.8021	-2.9229	-2.9667	-3.1396	-2.85	-2.7938	-3.1771	-2.9208	-2.8146	-3.0417	-2.8229	-3.1521	-2.8146	-2.9521	-3.1646	-2.8812	489.446	254.861	507.947	180.972	166.613	521.724	466.934	440.998	377.566	474.330	436.193	471.946	168.092	477.414	197.754	442.838	0.00087248	0.00059885	0.00021264	1094	5.5333e-06	1.0784e-05	1344.2	318.55	9.4623e-06	1.0077e-05	419.98	122.76	85.696	26.524	6.837e-06	37.909	0.00093939	0.0012387	0.00032213	848.95	1.1942e-05	1.7099e-05	1041.8	246.34	1.1936e-05	1.1884e-05	326.2	94.949	66.932	21.015	1.1277e-05	30.183	361.251	285.259	242.896	178.272	331.871	276.977	177.130	183.110	296.213	339.913	181.044	185.835	188.162	193.667	323.011	189.995	-8191	255	
18419.738	1	1	0	0	0.16963	0.17869	0.12915	0.28156	0.096248	0.31568	0.15075	0.10133	0.14803	0.10702	0.16987	0.3462	0.14122	0.15846	0.2348	0.11956	-2.5854	-2.7375	-2.4979	-3.0771	-2.7875	-2.7521	-3.3167	-2.9125	-2.875	-2.9958	-2.8354	-3.0458	-3.0312	-2.9125	-3.2083	-2.7875	356.641	442.156	309.358	454.968	262.138	410.548	205.169	234.673	400.193	177.734	460.124	464.231	434.736	458.603	224.336	521.275	0.00092989	0.00077257	5.3879e-05	1100.2	6.0411e-06	9.5542e-06	1345.9	316.03	7.4819e-06	7.6898e-06	413.68	120.47	85.566	26.651	2.7134e-06	38.056	0.0010251	0.001178	0.00030337	850.42	1.1595e-05	1.6974e-05	1043.5	245.4	1.2347e-05	1.3596e-05	324.93	94.239	66.782	20.944	1.2345e-05	30.036	369.732	278.108	281.701	177.806	201.366	332.112	177.217	183.756	330.815	334.768	180.971	185.285	188.074	193.501	349.430	189.040	-8191	255	
18419.834	1	1	0	0	0.27611	0.21247	0.083871	0.12822	0.19597	0.11122	0.16401	0.26867	0.21038	0.19024	0.42766	0.08698	0.20695	0.088516	0.068056	0.046753	-2.5667	-2.7875	-2.8187	-2.95	-2.8812	-2.925	-3.2729	-2.9104	-2.7792	-2.9729	-2.8083	-3.0938	-2.9792	-2.9	-3.0396	-2.7271	422.974	483.297	375.644	494.717	379.853	330.277	467.599	494.994	179.119	222.761	459.181	513.815	208.250	305.362	276.618	449.185	0.0009794	0.00024949	2.179e-05	1089.2	2.9409e-06	1.3407e-05	1344.8	315.39	5.0719e-06	7.5493e-07	415.45	123.35	85.921	26.752	4.1291e-06	38.485	0.0011553	0.0011869	0.00034063	848.85	1.1881e-05	1.7254e-05	1045	245.93	1.1781e-05	1.3283e-05	325.17	95.795	67.221	21.089	1.2213e-05	30.383	364.061	227.114	478.285	178.326	299.302	261.353	176.915	183.427	263.319	272.945	180.868	185.950	187.831	193.919	378.651	190.064	-8191	255	
18419.932	1	1	0	0	0.27463	0.22004	0.16372	0.38048	0.052887	0.23273	0.10754	0.28666	0.11896	0.21548	0.28058	0.14078	0.30342	0.18754	0.072588	0.1351	-2.3354	-3.0646	-2.775	-3.1333	-3.0792	-2.8083	-3.3167	-2.9688	-2.9479	-3.0479	-2.9104	-3.15	-3.0062	-2.8625	-3.1146	-2.9521	309.665	306.185	390.350	464.406	209.808	398.845	502.227	478.997	216.398	485.214	483.522	180.604	482.956	496.279	171.977	515.705	0.00092512	0.00033097	0.00011967	1099.6	1.3343e-05	3.1487e-06	1360.6	316.09	8.5221e-06	3.6807e-06	420.07	123.61	86.115	26.465	8.1952e-06	38.502	0.0011929	0.0011388	0.00034004	853.44	1.2333e-05	1.623e-05	1054.5	246.27	1.2148e-05	1.3081e-05	327.86	96.122	67.444	21.108	1.232e-05	30.551	365.448	306.680	366.364	178.039	270.326	292.187	176.630	183.103	340.745	277.877	180.933	185.500	188.135	193.654	258.002	189.709	-8191	255	
18420.027	1	1	0	0	0.12511	0.15282	0.080947	0.042475	0.049595	0.11836	0.064518	0.23062	0.1411	0.33201	0.12422	0.2315	0.15767	0.054259	0.068631	0.27158	-2.5625	-3.0875	-2.6125	-3.2146	-3.0604	-2.7333	-3.2021	-2.8417	-2.8083	-3.1083	-2.5958	-2.9875	-2.9979	-2.7042	-3.0854	-2.9854	498.934	281.212	223.530	412.244	451.495	322.512	209.578	464.841	407.187	373.359	278.669	443.868	434.992	455.418	424.459	209.668	0.00084576	0.00092528	0.00030414	1099.4	9.0875e-06	1.642e-05	1355.2	318.19	6.7214e-06	4.7237e-06	418.67	122.11	85.286	27.209	1.285e-05	38.532	0.001153	0.001224	0.00033371	853.86	1.2163e-05	1.8125e-05	1054	246.91	1.1855e-05	1.2545e-05	326.93	95.497	66.94	21.286	1.2683e-05	30.491	357.263	281.092	247.165	177.902	319.137	286.810	177.024	183.728	397.568	257.816	180.703	185.781	188.172	193.487	333.656	189.952	-8191	255	
18420.146	1	1	0	0	0.10732	0.32816	0.090398	0.20856	0.22484	0.10273	0.19945	0.15076	0.17266	0.11103	0.32401	0.11386	0.2312	0.43945	0.14472	0.095714	-2.4396	-3.0187	-2.6271	-2.9583	-2.9188	-2.75	-3.1813	-2.9688	-2.6813	-3.2354	-2.8583	-2.8333	-2.9021	-2.4813	-2.9667	-2.9875	193.636	395.549	346.499	500.711	430.926	165.601	454.080	191.897	462.469	323.998	187.256	402.052	524.820	512.332	393.280	316.492	0.00066772	0.00094859	0.00016457	1098.6	7.2224e-06	4.0556e-06	1353.3	316.76	1.9685e-06	1.2012e-05	419.86	121.06	86.508	26.705	8.5125e-06	38.134	0.00125	0.0011951	0.00032534	851.8	1.1588e-05	1.7228e-05	1048.2	246.88	1.2721e-05	1.3034e-05	327.25	95.241	67.44	21.151	1.1728e-05	30.293	356.816	263.598	258.804	178.859	296.445	315.775	176.609	183.320	229.003	257.631	180.904	185.430	188.124	193.403	350.537	189.564	-8191	255	
18420.242	1	1	0	0	0.071856	0.15986	0.089258	0.40564	0.086359	0.12965	0.12073	0.30561	0.23279	0.18267	0.25046	0.23021	0.24626	0.30512	0.28289	0.23712	-2.2417	-3.0792	-2.7125	-2.9125	-2.9792	-2.725	-3.1542	-3.1104	-2.6958	-3.125	-2.9354	-2.9062	-3.1271	-2.7583	-2.9375	-2.9188	278.832	416.038	383.049	467.222	291.844	458.470	451.243	448.856	175.979	222.990	483.597	514.373	475.535	426.163	491.762	456.878	0.00095929	0.0008932	0.00017412	1108.9	1.1329e-05	8.0626e-06	1348.4	317.78	4.5702e-06	6.6969e-06	415.95	122.2	84.837	26.753	7.0929e-06	38.692	0.0011713	0.0012382	0.00033751	855.46	1.203e-05	1.4894e-05	1047	246.41	1.1428e-05	1.3542e-05	325.4	95.669	66.911	21.077	1.2249e-05	30.392	363.536	257.388	244.435	178.491	256.612	318.941	176.847	183.334	323.385	289.006	181.036	186.022	188.112	193.371	290.798	190.272	-8191	255	
18420.314	1	1	0	0	0.21959	0.10628	0.099281	0.074983	0.11056	0.13225	0.16826	0.17646	0.17813	0.11121	0.19542	0.30569	0.27118	0.097036	0.045267	0.18068	-2.25	-2.9417	-2.7625	-3.0812	-3.0604	-2.8312	-3.1896	-3.1125	-2.875	-3.0604	-2.9938	-2.9229	-2.9562	-2.8479	-3.0125	-3.2167	328.932	216.493	303.061	430.239	474.432	338.128	463.793	469.690	180.985	431.373	169.760	415.301	253.358	183.877	519.130	215.381	0.0011295	0.00065014	0.00019377	1105.3	1.2262e-05	2.1951e-06	1345.5	315.91	6.0081e-06	4.2573e-07	415.33	121.76	85.927	26.543	9.3909e-06	38.263	0.001244	0.0011766	0.00033039	853.29	1.1927e-05	1.3063e-05	1052.1	245.76	1.2551e-05	1.3094e-05	325.22	95.319	66.792	21.005	1.2122e-05	30.247	361.873	280.634	235.993	178.558	359.846	263.281	176.938	183.401	306.704	372.976	180.915	185.491	187.893	193.176	274.795	189.737	-8191	255	
18420.436	1	1	0	0	0.09073	0.33048	0.1633	0.35888	0.074056	0.14011	0.19537	0.43267	0.13434	0.075061	0.16829	0.29708	0.16976	0.20792	0.33018	0.13956	-2.3187	-3.0042	-2.9646	-2.9458	-3.15	-2.7979	-2.8937	-3.0125	-2.8646	-3.1167	-2.9833	-2.7792	-2.8521	-2.8604	-2.7583	-2.9625	479.077	433.646	216.577	491.319	341.648	290.729	428.236	507.590	446.843	268.720	463.000	520.291	472.490	199.525	517.590	504.424	0.0010876	0.00065934	3.753e-05	1097	5.5193e-06	2.0922e-06	1343.3	313.01	1.6081e-05	9.7558e-07	419.47	122.02	85.652	26.387	4.9849e-06	38.088	0.0011967	0.0011506	0.00031554	853.86	1.2097e-05	1.2916e-05	1050.9	244.99	1.2373e-05	1.3011e-05	326.3	95.31	67.017	21.006	1.2998e-05	30.233	357.700	230.746	519.873	177.858	313.732	233.331	176.914	183.242	300.096	241.152	181.082	185.274	187.713	193.614	271.483	189.277	-8191	255	
18420.529	1	1	0	0	0.34379	0.22293	0.19694	0.20322	0.21204	0.17263	0.028212	0.37074	0.2803	0.26868	0.10182	0.12092	0.084406	0.052648	0.29389	0.067199	-2.2354	-2.9521	-2.8	-2.8375	-3.0417	-2.85	-2.9708	-2.9604	-2.7354	-3.0479	-3.0563	-2.7542	-3.0917	-2.8146	-2.9375	-3.1542	297.389	423.637	238.727	439.049	513.638	394.931	216.117	437.250	409.120	419.610	436.014	381.459	511.157	380.865	305.290	448.930	0.00089006	0.00061405	0.00017247	1099.8	4.4019e-06	5.6881e-06	1348.8	313.13	8.4591e-06	6.4805e-06	412.99	121.6	84.906	26.377	5.3223e-06	38.227	0.0010931	0.0014083	0.00032168	850.07	1.2123e-05	1.2905e-05	1047.4	245.1	1.2029e-05	1.3161e-05	323.24	95.193	66.745	20.979	1.3069e-05	30.183	368.168	286.828	281.396	177.456	302.413	315.937	176.958	182.970	234.397	353.444	180.561	185.372	187.834	193.705	284.001	189.623	-8191	255	
18420.627	1	1	0	0	0.057574	0.026984	0.059272	0.26395	0.092125	0.30174	0.41179	0.25918	0.13756	0.19494	0.10158	0.14017	0.26823	0.21148	0.10997	0.18521	-2.4062	-2.8	-2.8187	-2.7354	-2.8875	-2.8333	-2.8646	-3.1896	-2.7396	-2.9875	-3.1813	-2.8312	-3.0771	-2.8875	-2.8146	-3.2458	230.405	474.091	346.194	250.487	221.299	317.185	475.453	469.682	474.220	477.444	472.115	245.277	480.427	391.946	248.239	385.441	0.0011729	0.00030904	0.00024459	1090.2	4.0086e-06	3.3449e-06	1351	313.96	9.6773e-06	8.5585e-06	416.99	123.16	84.877	26.589	6.7344e-06	38.06	0.0010326	0.0015212	0.00032845	846.96	1.2416e-05	1.2456e-05	1049.6	244.63	1.2108e-05	1.2971e-05	324.69	95.264	66.444	20.94	1.2335e-05	30.188	364.040	311.240	226.105	178.103	314.225	257.614	176.930	182.947	286.434	284.781	181.155	185.451	188.546	193.901	309.370	189.560	-8191	255	
18420.746	1	1	0	0	0.017186	0.21826	0.22582	0.28334	0.18376	0.14689	0.39179	0.063028	0.1635	0.15985	0.11026	0.25009	0.098049	0.18656	0.023506	0.16383	-2.4583	-2.8667	-2.8875	-2.5979	-3.1792	-2.9375	-3.0958	-3.1292	-2.9854	-2.8771	-3.3396	-2.8042	-2.9917	-2.9	-2.7333	-3.1167	190.100	258.253	291.355	187.786	265.789	240.240	450.932	175.738	180.294	339.530	479.536	182.623	247.666	472.968	432.601	204.559	0.00095784	0.0003565	0.00018575	1096.1	5.9701e-06	3.7847e-06	1355.5	312.18	6.4108e-06	2.538e-06	416.3	121.06	85.359	26.779	3.5646e-06	38.127	0.00094007	0.0015458	0.00030734	849.24	1.174e-05	1.2392e-05	1048.5	243.69	1.1907e-05	1.2755e-05	324.51	94.611	66.929	20.973	1.2085e-05	30.136	366.317	279.486	284.538	178.569	206.626	285.249	176.840	183.244	272.361	337.018	180.879	185.208	188.309	193.518	448.582	189.551	-8191	255	
18420.844	1	1	0	0	0.16374	0.13133	0.14331	0.45044	0.2237	0.20428	0.13	0.38814	0.16079	0.10418	0.057809	0.1034	0.20348	0.24382	0.1993	0.33474	-2.2562	-2.8229	-2.9833	-2.8271	-2.9542	-2.9146	-2.9708	-3.1375	-2.7375	-2.9292	-3.2708	-2.8833	-2.975	-2.9667	-2.8271	-3.0792	224.651	451.244	226.886	497.969	471.300	331.806	435.611	477.003	473.252	251.869	363.484	293.264	223.861	508.357	251.539	424.259	0.00097522	0.00072967	0.000223	1089.7	9.3831e-06	3.8658e-06	1358	316.2	1.4503e-05	4.5768e-06	415.58	122.19	86.713	26.632	2.0644e-06	38.529	0.00096683	0.0014464	0.00032444	848.62	1.2157e-05	1.27e-05	1054.5	245.94	1.1774e-05	1.2694e-05	324.06	95.089	67.213	21.037	1.1681e-05	30.381	362.122	519.188	291.732	178.283	313.291	454.759	176.814	183.584	289.340	206.791	180.910	185.453	188.340	193.658	322.425	190.494	-8191	255	
18420.939	1	1	0	0	0.25267	0.2862	0.086293	0.20295	0.19134	0.084746	0.35507	0.15368	0.076244	0.2595	0.16056	0.067198	0.1192	0.23676	0.17686	0.19273	-2.5208	-2.7104	-2.9562	-2.7542	-2.9292	-3.1375	-2.9667	-3.1792	-2.9042	-2.7687	-3.1813	-2.8521	-2.85	-2.9854	-2.7979	-2.9208	470.732	389.782	491.590	189.369	170.394	237.148	453.650	498.280	326.647	182.735	442.353	244.640	207.769	520.940	297.484	247.853	0.00095095	0.00018341	0.0001222	1083.2	2.0211e-06	4.2796e-06	1342	314.83	1.3086e-05	9.9732e-06	417.29	120.16	85.705	26.653	9.2807e-06	37.962	0.00095201	0.0016282	0.00031923	844.83	1.2735e-05	1.2364e-05	1046.7	245.13	1.2078e-05	1.2811e-05	324.45	94.054	67.102	21.065	1.2285e-05	30.104	356.212	332.506	255.244	177.852	314.403	345.578	176.816	183.389	310.208	287.983	180.775	185.803	188.160	193.119	315.306	189.384	-8191	255	
#DATA ENDS
