BOXY.EXE: ISS Imagent and Oximeter Data Acquisition Program Version 0.80
Ascii Record File

#ACQ INFORMATION
2  Detector Channels 
16  External MUX Channels 
1  Auxiliary Channels 
5000  Waveform (CCF) Frequency (Hz)
1  Waveforms Skipped 
30  Waveforms Averaged 
1  Cycles Averaged 
16  Acquisitions per Waveform 
10.0806  Updata Rate (Hz) 

#FILE INFORMATION
TRUE -- External MUX Channel results are PARSED.
FALSE -- AC DC and Phase are NOT grouped.
TRUE -- Companion Program Settings File CREATED.
FALSE -- AC data not excluded
FALSE -- DC data not excluded
FALSE -- Phase data not excluded
FALSE -- Auxillary Chn. data not excluded
Tab delimiters

#CALIBRATION STATE
TRUE -- Waveform Calibration Values APPLIED.


#AUX CALIBRATION VALUES
Val Type	aux-1	

Term	1.0000e+00	
Factor	0.0000e+00	


#WF CALIBRATION VALUES
A = Detector Channel
Val Type	A-AC1	A-AC2	A-AC3	A-AC4	A-AC5	A-AC6	A-AC7	A-AC8	A-AC9	A-AC10	A-AC11	A-AC12	A-AC13	A-AC14	A-AC15	A-AC16	A-DC1	A-DC2	A-DC3	A-DC4	A-DC5	A-DC6	A-DC7	A-DC8	A-DC9	A-DC10	A-DC11	A-DC12	A-DC13	A-DC14	A-DC15	A-DC16	A-Ph1	A-Ph2	A-Ph3	A-Ph4	A-Ph5	A-Ph6	A-Ph7	A-Ph8	A-Ph9	A-Ph10	A-Ph11	A-Ph12	A-Ph13	A-Ph14	A-Ph15	A-Ph16	

Term	0.00000e+00	0.00000e+00	0.00000e+00	0.00000e+00	0.00000e+00	0.00000e+00	0.00000e+00	0.00000e+00	0.00000e+00	0.00000e+00	0.00000e+00	0.00000e+00	0.00000e+00	0.00000e+00	0.00000e+00	0.00000e+00	0.00000e+00	0.00000e+00	0.00000e+00	0.00000e+00	0.00000e+00	0.00000e+00	0.00000e+00	0.00000e+00	0.00000e+00	0.00000e+00	0.00000e+00	0.00000e+00	0.00000e+00	0.00000e+00	0.00000e+00	0.00000e+00	0.00000e+00	0.00000e+00	0.00000e+00	0.00000e+00	0.00000e+00	0.00000e+00	0.00000e+00	0.00000e+00	0.00000e+00	0.00000e+00	0.00000e+00	0.00000e+00	0.00000e+00	0.00000e+00	0.00000e+00	0.00000e+00	
Factor	1.00000e+00	1.00000e+00	1.00000e+00	1.00000e+00	1.00000e+00	1.00000e+00	1.00000e+00	1.00000e+00	1.00000e+00	1.00000e+00	1.00000e+00	1.00000e+00	1.00000e+00	1.00000e+00	1.00000e+00	1.00000e+00	1.00000e+00	1.00000e+00	1.00000e+00	1.00000e+00	1.00000e+00	1.00000e+00	1.00000e+00	1.00000e+00	1.00000e+00	1.00000e+00	1.00000e+00	1.00000e+00	1.00000e+00	1.00000e+00	1.00000e+00	1.00000e+00	X	X	X	X	X	X	X	X	X	X	X	X	X	X	X	X	

B = Detector Channel
Val Type	B-AC1	B-AC2	B-AC3	B-AC4	B-AC5	B-AC6	B-AC7	B-AC8	B-AC9	B-AC10	B-AC11	B-AC12	B-AC13	B-AC14	B-AC15	B-AC16	B-DC1	B-DC2	B-DC3	B-DC4	B-DC5	B-DC6	B-DC7	B-DC8	B-DC9	B-DC10	B-DC11	B-DC12	B-DC13	B-DC14	B-DC15	B-DC16	B-Ph1	B-Ph2	B-Ph3	B-Ph4	B-Ph5	B-Ph6	B-Ph7	B-Ph8	B-Ph9	B-Ph10	B-Ph11	B-Ph12	B-Ph13	B-Ph14	B-Ph15	B-Ph16	

Term	0.00000e+00	0.00000e+00	0.00000e+00	0.00000e+00	0.00000e+00	0.00000e+00	0.00000e+00	0.00000e+00	0.00000e+00	0.00000e+00	0.00000e+00	0.00000e+00	0.00000e+00	0.00000e+00	0.00000e+00	0.00000e+00	0.00000e+00	0.00000e+00	0.00000e+00	0.00000e+00	0.00000e+00	0.00000e+00	0.00000e+00	0.00000e+00	0.00000e+00	0.00000e+00	0.00000e+00	0.00000e+00	0.00000e+00	0.00000e+00	0.00000e+00	0.00000e+00	-1.27073e+02	-1.37189e+02	-1.14034e+02	-1.82642e+02	-6.77074e+01	-7.36674e+01	-1.55275e+02	-1.62015e+02	-8.16783e+01	-5.49491e+01	-1.72245e+02	-1.69834e+02	-1.79515e+02	-1.77360e+02	-7.51326e+01	-1.49195e+02	
Factor	1.75894e-05	1.35949e-04	4.03037e-05	1.76583e-01	1.21743e-06	1.73254e-06	1.64385e-01	4.98919e-02	1.01420e-06	1.41505e-06	9.45280e-02	2.88164e-02	2.76675e-02	9.24122e-03	1.14402e-06	1.32298e-02	1.94680e-06	2.10307e-06	5.83844e-07	8.62186e-02	2.28121e-08	2.29967e-08	7.60499e-02	2.45492e-02	2.27457e-08	2.30251e-08	4.47580e-02	1.37852e-02	1.36628e-02	4.53901e-03	2.28964e-08	6.30002e-03	X	X	X	X	X	X	X	X	X	X	X	X	X	X	X	X	



#DISTANCE SETTINGS
A = Detector Channel
A-1	A-2	A-3	A-4	A-5	A-6	A-7	A-8	A-9	A-10	A-11	A-12	A-13	A-14	A-15	A-16	

2.5000e+00	3.0000e+00	2.5000e+00	3.0000e+00	2.0000e+00	3.0000e+00	1.5000e+00	3.0000e+00	3.0000e+00	3.0000e+00	3.0000e+00	3.0000e+00	3.0000e+00	3.0000e+00	1.5000e+00	3.0000e+00	

B = Detector Channel
B-1	B-2	B-3	B-4	B-5	B-6	B-7	B-8	B-9	B-10	B-11	B-12	B-13	B-14	B-15	B-16	

1.0000e+01	1.0000e+01	1.0000e+01	1.4400e+00	1.0000e+01	1.0000e+01	1.5100e+00	1.9400e+00	1.0000e+01	1.0000e+01	1.9900e+00	2.4900e+00	2.4100e+00	2.9000e+00	1.0000e+01	2.9800e+00	




#DATA BEGINS
time	group	step	mark	flag	A-AC1	A-AC2	A-AC3	A-AC4	A-AC5	A-AC6	A-AC7	A-AC8	A-AC9	A-AC10	A-AC11	A-AC12	A-AC13	A-AC14	A-AC15	A-AC16	A-DC1	A-DC2	A-DC3	A-DC4	A-DC5	A-DC6	A-DC7	A-DC8	A-DC9	A-DC10	A-DC11	A-DC12	A-DC13	A-DC14	A-DC15	A-DC16	A-Ph1	A-Ph2	A-Ph3	A-Ph4	A-Ph5	A-Ph6	A-Ph7	A-Ph8	A-Ph9	A-Ph10	A-Ph11	A-Ph12	A-Ph13	A-Ph14	A-Ph15	A-Ph16	B-AC1	B-AC2	B-AC3	B-AC4	B-AC5	B-AC6	B-AC7	B-AC8	B-AC9	B-AC10	B-AC11	B-AC12	B-AC13	B-AC14	B-AC15	B-AC16	B-DC1	B-DC2	B-DC3	B-DC4	B-DC5	B-DC6	B-DC7	B-DC8	B-DC9	B-DC10	B-DC11	B-DC12	B-DC13	B-DC14	B-DC15	B-DC16	B-Ph1	B-Ph2	B-Ph3	B-Ph4	B-Ph5	B-Ph6	B-Ph7	B-Ph8	B-Ph9	B-Ph10	B-Ph11	B-Ph12	B-Ph13	B-Ph14	B-Ph15	B-Ph16	aux-1	digaux	

32443.736	1	1	0	256	0.161	0.18298	0.13656	0.10039	0.076705	0.26191	0.058808	0.12516	0.1469	0.17506	0.21716	0.12558	0.1141	0.33378	0.20412	0.11749	-2.3583	-3.0083	-2.9104	-2.7521	-3.2604	-2.9125	-3.0021	-3.15	-2.8354	-2.925	-2.9104	-2.6021	-3.1375	-2.9104	-2.7479	-3.2938	-8.524	3.099	98.351	-43.197	119.226	105.067	138.726	85.280	155.534	11.445	115.542	-34.908	278.333	198.723	242.480	64.568	1.4152e-05	5.675e-05	2.4967e-05	65.791	8.9704e-07	1.1902e-06	52.944	21.098	1.0338e-07	4.7093e-07	17.134	5.8651	7.5006	2.6944	8.1306e-07	2.2353	5.1485e-05	5.032e-05	1.4045e-05	78.91	5.454e-07	6.247e-07	63.532	25.443	5.5907e-07	5.5054e-07	21.161	7.2389	9.1402	3.2699	5.5543e-07	2.7467	162.221	-30.897	-9.458	-38.276	76.289	303.784	-39.664	-33.515	87.808	181.022	-36.795	-32.125	-30.095	-25.533	68.639	-28.787	-8191	255	
32443.855	1	1	0	0	0.13211	0.11882	0.27825	0.18985	0.13217	0.13027	0.31531	0.1441	0.078188	0.044317	0.22831	0.4074	0.2082	0.12742	0.27435	0.10013	-2.5375	-3.0021	-3.0229	-2.7042	-3.325	-2.8563	-2.9208	-3.3812	-2.8521	-3.0292	-3.1	-2.7938	-3.1021	-2.8521	-2.9146	-2.9875	14.047	37.851	-19.940	63.043	111.227	214.763	66.752	-35.976	114.823	148.413	290.277	146.035	-18.546	-8.764	-8.569	195.641	8.2334e-06	0.00015782	9.8642e-06	66.554	3.6531e-07	9.906e-07	53.253	21.321	2.1571e-07	6.4973e-07	17.425	5.8684	7.6622	2.7426	2.8098e-07	2.2517	5.5232e-05	5.0903e-05	1.3872e-05	79.659	5.3989e-07	5.9614e-07	64.151	25.718	5.5523e-07	5.5361e-07	21.36	7.2759	9.2902	3.3064	5.5214e-07	2.7638	128.364	61.907	71.401	-37.986	131.597	290.728	-39.612	-33.653	174.848	84.395	-36.387	-32.401	-29.731	-25.263	271.919	-28.720	-8191	255	
32443.951	1	1	0	0	0.12514	0.07096	0.24669	0.26892	0.25266	0.019078	0.057615	0.20484	0.22338	0.1121	0.1907	0.11962	0.15082	0.29016	0.18758	0.074734	-2.2979	-3.0604	-2.9646	-2.6771	-3.1833	-2.9938	-2.8479	-3.0896	-2.8542	-3.0917	-3.0021	-2.7938	-3.0333	-2.9854	-2.825	-3.025	101.939	57.841	198.671	254.522	58.766	54.329	205.003	-30.806	111.021	54.534	213.047	266.176	294.209	26.146	253.576	50.762	2.0526e-05	4.5136e-05	2.1219e-05	66.556	2.8921e-07	4.0208e-07	52.874	21.489	8.3584e-07	6.8387e-07	17.4	5.8163	7.6139	2.7232	3.8066e-07	2.2472	5.243e-05	4.9887e-05	1.3878e-05	79.76	5.5144e-07	6.2058e-07	64.042	25.708	5.5196e-07	5.5457e-07	21.177	7.2695	9.2513	3.2942	5.5061e-07	2.7605	161.979	276.736	46.015	-38.099	157.230	40.140	-39.411	-33.770	35.754	143.061	-36.559	-31.291	-29.643	-25.026	175.387	-28.857	-8191	255	
32444.047	1	1	0	0	0.20491	0.020642	0.20167	0.037393	0.21502	0.22331	0.18649	0.16116	0.12848	0.26539	0.17141	0.36767	0.15053	0.14273	0.20783	0.1348	-2.4375	-2.8479	-3.1958	-2.8167	-3.1875	-3.1479	-2.9354	-3.1312	-2.7542	-2.9458	-3.1458	-2.8208	-3.0208	-3.1354	-2.9896	-3.1625	288.434	207.971	56.307	121.838	13.586	211.266	115.349	49.915	184.610	262.172	122.481	-34.861	-10.295	142.202	114.709	292.819	1.8409e-05	3.2093e-05	2.8031e-05	66.406	1.1357e-06	2.9257e-07	53.473	21.257	6.4904e-07	4.669e-07	17.426	5.9214	7.5478	2.7271	2.519e-08	2.2632	5.5808e-05	5.0483e-05	1.3737e-05	79.76	5.4754e-07	5.9044e-07	64.251	25.689	5.5708e-07	5.468e-07	21.277	7.3393	9.2534	3.3045	5.5505e-07	2.7882	197.899	-15.298	17.830	-38.272	68.824	-19.032	-39.673	-33.929	-45.585	137.223	-36.632	-32.034	-29.738	-25.004	80.288	-28.384	-8191	255	
32444.143	1	1	0	0	0.40944	0.15578	0.076617	0.21481	0.41207	0.086532	0.13968	0.11008	0.029942	0.4192	0.19281	0.18085	0.10391	0.19118	0.29295	0.13334	-2.6646	-2.8146	-3.2896	-2.8167	-3.0687	-3.1833	-3.0354	-3.2875	-3.0583	-2.8417	-3.2396	-2.8104	-2.9208	-3.1708	-2.8458	-3.2708	239.143	291.617	37.807	83.760	192.172	79.067	148.987	235.503	126.470	145.150	-23.164	225.455	234.032	128.729	204.501	306.551	1.2329e-05	9.1755e-05	2.0687e-05	66.501	2.6039e-07	3.1727e-07	53.665	21.499	3.1706e-07	8.0828e-07	17.617	5.9919	7.6344	2.7486	8.9546e-07	2.2769	5.2795e-05	5.0176e-05	1.3903e-05	79.873	5.5229e-07	6.1023e-07	64.686	25.782	5.5428e-07	5.5308e-07	21.467	7.3756	9.2903	3.3223	5.58e-07	2.8075	142.637	-10.268	103.666	-38.595	289.883	289.425	-39.946	-33.845	141.109	90.621	-36.657	-32.105	-29.427	-25.045	-11.289	-28.347	-8191	255	
32444.238	1	1	0	0	0.10626	0.23158	0.22029	0.089012	0.24073	0.21989	0.26418	0.15068	0.2629	0.056537	0.054451	0.18616	0.032698	0.031163	0.049501	0.23105	-2.6188	-2.9562	-3.0479	-3.0583	-2.9979	-3.1188	-2.9729	-3.1312	-2.9479	-2.9188	-3.1896	-2.8521	-3.0312	-3.2208	-2.8167	-3.0021	62.900	129.283	22.048	202.082	196.206	-45.635	131.851	156.130	37.678	292.977	236.690	77.225	184.023	142.803	291.919	262.134	2.1135e-05	8.9086e-05	1.8087e-05	67	4.0491e-07	4.4368e-07	53.534	21.395	3.9726e-07	3.6363e-07	17.603	5.9936	7.5876	2.7433	6.4814e-07	2.2795	5.5289e-05	5.1008e-05	1.3805e-05	80.176	5.5505e-07	5.5168e-07	64.764	25.803	5.5144e-07	5.563e-07	21.428	7.3617	9.2687	3.3158	5.6449e-07	2.7941	150.699	-39.907	282.111	-38.012	291.429	168.826	-39.674	-33.351	138.585	141.406	-36.439	-32.067	-29.183	-24.842	200.459	-28.199	-8191	255	
32444.336	1	1	0	0	0.25277	0.01813	0.12587	0.11457	0.096795	0.12869	0.34103	0.19388	0.069104	0.20287	0.12212	0.17686	0.024137	0.23246	0.38423	0.14181	-2.65	-2.875	-3.1437	-3.05	-2.8792	-3.0646	-2.8187	-3.0521	-3.1104	-2.8167	-3.2938	-2.9771	-2.7875	-3.275	-2.9083	-2.9583	128.830	75.332	251.690	44.884	294.224	120.347	48.757	33.136	-27.860	125.799	84.565	275.619	75.188	167.477	200.849	4.840	1.1641e-05	9.2947e-06	3.8602e-06	67.104	6.1768e-07	5.5138e-07	54.227	21.403	2.1143e-07	8.0399e-07	17.442	5.9566	7.6568	2.7648	3.3002e-07	2.3041	5.2839e-05	5.2055e-05	1.3961e-05	80.248	5.5205e-07	5.4569e-07	65.087	25.838	5.5969e-07	5.5903e-07	21.447	7.3741	9.2902	3.3357	5.5786e-07	2.8217	195.338	-41.855	55.600	-38.589	187.614	133.591	-39.418	-33.176	231.261	64.555	-36.657	-32.081	-29.192	-24.613	106.364	-28.486	-8191	255	
32444.455	1	1	0	0	0.33583	0.11928	0.17518	0.099029	0.07173	0.10597	0.12434	0.28664	0.29427	0.23169	0.22918	0.22928	0.10865	0.24917	0.094278	0.039285	-2.8542	-2.8625	-3.1437	-2.9604	-2.675	-3.2938	-2.7542	-3.0771	-3.0542	-2.8042	-3.15	-3.0604	-2.8438	-3.2646	-2.8854	-2.8563	123.573	247.105	274.799	137.934	239.965	-15.630	143.097	67.842	40.028	25.195	49.221	170.979	60.668	246.031	213.217	38.716	1.4831e-05	0.00014899	2.374e-05	66.77	5.4152e-07	7.0484e-07	53.721	21.516	2.6223e-07	3.6795e-07	17.783	6.0193	7.6914	2.7693	3.7074e-07	2.312	5.4125e-05	5.1727e-05	1.3989e-05	80.279	5.5543e-07	5.5211e-07	65.183	25.882	5.5158e-07	5.5812e-07	21.609	7.4408	9.3365	3.355	5.5371e-07	2.8418	189.135	132.564	12.235	-38.497	149.136	209.704	-39.446	-33.388	200.465	93.333	-36.566	-31.360	-29.142	-25.605	163.812	-28.274	-8191	255	
32444.551	1	1	0	0	0.12166	0.17893	0.20657	0.085681	0.093647	0.090184	0.17971	0.049437	0.18259	0.1284	0.080274	0.12484	0.057145	0.18306	0.23523	0.18599	-2.5042	-2.7854	-3.2375	-3.0375	-2.9271	-3.1437	-2.9583	-2.9813	-2.9792	-2.8021	-3.0604	-2.9188	-2.8333	-3.2562	-3.0083	-3.0062	58.530	29.220	282.204	62.369	131.908	85.562	67.719	-25.405	116.705	101.754	153.273	105.708	-23.461	138.188	118.275	165.015	5.2445e-06	8.7471e-05	1.3193e-05	66.997	7.0063e-07	5.7836e-07	54.037	21.566	2.7911e-07	4.7175e-07	17.758	6.0873	7.7296	2.766	2.208e-07	2.3164	4.9449e-05	5.3558e-05	1.4028e-05	80.572	5.6484e-07	5.4986e-07	65.572	26.029	5.512e-07	5.6805e-07	21.669	7.4709	9.3688	3.3597	5.5996e-07	2.8368	231.944	24.618	63.013	-38.308	106.892	-25.352	-39.644	-33.318	102.747	-30.896	-36.437	-31.808	-29.185	-25.285	85.667	-28.946	-8191	255	
32444.646	1	1	0	0	0.36382	0.077051	0.1895	0.1135	0.11204	0.099709	0.082389	0.14873	0.16477	0.12124	0.17873	0.31287	0.19047	0.069659	0.21713	0.14124	-2.7896	-2.7021	-2.8396	-2.9646	-2.8729	-3.1542	-3.0021	-2.8229	-3.2583	-2.9833	-3.1104	-3.025	-2.8958	-3.1792	-3.0125	-2.9958	40.674	245.459	24.195	127.266	93.284	15.507	112.039	43.324	273.291	98.415	61.552	48.746	282.772	198.451	-0.138	-16.137	6.4426e-06	5.6956e-05	7.4035e-06	67.294	1.6918e-07	2.935e-07	53.991	21.594	4.1564e-07	9.4122e-07	17.884	6.0288	7.7027	2.7991	2.4656e-07	2.316	4.8885e-05	5.7944e-05	1.4141e-05	80.739	5.6374e-07	5.5614e-07	65.482	26.046	5.503e-07	5.5817e-07	21.737	7.4654	9.3678	3.3752	5.5285e-07	2.8483	157.253	24.163	-25.959	-37.791	26.900	100.210	-39.696	-33.258	153.641	72.801	-36.099	-32.124	-29.567	-25.116	71.434	-28.058	-8191	255	
32444.721	1	1	0	0	0.16635	0.045124	0.15756	0.12775	0.086177	0.17229	0.26044	0.011243	0.026904	0.14995	0.19345	0.22617	0.22504	0.16925	0.095477	0.13844	-2.7604	-2.9021	-2.9792	-3.1271	-2.8812	-3.1771	-2.9521	-3.0062	-3.3917	-2.9646	-3.0521	-3.0958	-2.9354	-3.2521	-3.0708	-2.8417	271.077	109.839	276.040	122.090	136.184	-24.831	48.941	-41.167	223.397	265.454	92.979	-47.490	149.954	175.709	-20.749	-26.545	1.1969e-05	4.1748e-05	9.8576e-06	67.672	5.0742e-07	4.5359e-07	54.37	21.727	5.7112e-07	3.5184e-07	17.804	6.0037	7.7063	2.8087	3.0947e-07	2.3438	4.9197e-05	5.5823e-05	1.4157e-05	80.943	5.6854e-07	5.5379e-07	65.792	26.093	5.5751e-07	5.633e-07	21.752	7.4469	9.4197	3.3827	5.5161e-07	2.8675	129.496	207.300	147.577	-38.049	53.765	82.256	-39.617	-33.195	215.100	96.753	-35.911	-31.998	-29.696	-25.162	152.803	-28.059	-8191	255	
32444.840	1	1	0	0	0.13284	0.24545	0.20687	0.15823	0.14235	0.2209	0.26571	0.22695	0.12652	0.12109	0.15579	0.084436	0.15137	0.10492	0.13287	0.28876	-2.8542	-2.8208	-2.8458	-3.3104	-2.7646	-3.1167	-3.05	-2.8646	-3.2333	-3.0062	-2.8604	-3.2354	-2.8771	-3.15	-2.9917	-2.8104	205.142	-15.191	151.096	76.419	183.863	134.402	110.955	-23.094	296.962	70.725	18.388	196.315	-20.788	28.546	8.212	193.284	1.8464e-05	6.7317e-05	1.5922e-05	67.171	8.4576e-07	1.2415e-06	54.239	21.797	1.3515e-07	1.2203e-07	17.759	6.1105	7.7207	2.8159	4.1237e-07	2.341	4.9246e-05	5.8575e-05	1.4211e-05	80.978	5.665e-07	5.5322e-07	65.92	26.214	5.5613e-07	5.5649e-07	21.762	7.4794	9.4803	3.3875	5.5424e-07	2.8756	132.545	236.274	250.601	-38.308	17.638	68.419	-39.842	-33.358	143.610	87.596	-36.458	-31.977	-29.085	-24.833	-32.421	-28.633	-8191	255	
32444.936	1	1	0	0	0.014167	0.15731	0.034552	0.39641	0.14845	0.23919	0.06068	0.14574	0.14326	0.031591	0.086322	0.069236	0.31562	0.17173	0.17109	0.15156	-2.6521	-3.0187	-2.8854	-3.1937	-2.8354	-3.1729	-3.0917	-2.7229	-3.1958	-3.0083	-2.8792	-3.2208	-2.7812	-3.1104	-3.0979	-2.8146	86.123	134.397	90.670	78.227	233.659	233.846	-16.954	58.807	248.656	11.921	117.962	236.774	98.174	254.148	14.782	226.879	1.5571e-05	4.2046e-05	1.6673e-05	67.186	3.7208e-07	8.7552e-07	54.751	21.676	1.7057e-07	1.8141e-07	17.877	6.026	7.7871	2.7849	1.9578e-07	2.3351	4.9514e-05	5.5894e-05	1.4262e-05	81.103	5.6032e-07	5.5283e-07	66.059	26.164	5.5495e-07	5.6215e-07	21.796	7.4498	9.4476	3.3736	5.5276e-07	2.8588	167.210	304.174	41.471	-38.098	19.765	133.779	-39.710	-33.393	40.469	29.231	-36.185	-31.666	-29.525	-25.148	63.519	-28.051	-8191	255	
32445.031	1	1	0	0	0.20074	0.29896	0.056883	0.062337	0.24133	0.11889	0.15487	0.19528	0.14053	0.30137	0.2664	0.097724	0.1726	0.30107	0.12977	0.20173	-2.7917	-2.9229	-3.0812	-3.0563	-2.7958	-3.15	-3.1875	-2.8979	-3.0729	-2.9146	-2.8104	-3.0792	-2.9875	-2.7833	-3.2604	-2.6583	213.378	2.819	-32.479	-27.348	146.738	-42.290	247.683	163.649	-0.145	284.916	247.485	160.389	247.709	219.089	160.280	-47.223	9.3662e-06	0.00010154	3.093e-05	67.395	6.0999e-07	3.0569e-07	54.481	21.724	3.8484e-07	3.6387e-07	17.851	6.0237	7.7864	2.7676	1.35e-07	2.3075	4.9063e-05	5.8001e-05	1.4203e-05	81.012	5.5548e-07	5.5815e-07	65.766	26.236	5.4846e-07	5.5342e-07	21.813	7.4322	9.4611	3.3667	5.6006e-07	2.8591	116.899	222.245	140.914	-38.031	218.581	233.511	-39.539	-33.515	92.176	140.734	-36.659	-31.589	-29.435	-24.980	15.122	-28.805	-8191	255	
32445.129	1	1	0	0	0.2199	0.2049	0.06379	0.098793	0.15847	0.13152	0.18968	0.1287	0.22941	0.26746	0.15172	0.20976	0.27332	0.086306	0.086285	0.063752	-2.6708	-3.1188	-2.8979	-3.1729	-3.0208	-2.9125	-3.1021	-2.8146	-3.0125	-3.1667	-2.7062	-3.1708	-2.9542	-2.9917	-3.1667	-2.9562	281.964	167.720	246.376	2.128	-2.832	66.841	306.900	-36.780	103.176	184.818	268.904	137.044	-12.790	43.321	139.747	-45.702	1.5271e-05	2.662e-05	4.9878e-06	68.084	1.4322e-07	3.4846e-07	54.714	21.789	1.4379e-07	9.0889e-07	17.998	6.1053	7.7729	2.7798	8.4751e-08	2.3267	4.9579e-05	5.5745e-05	1.4135e-05	81.458	5.5495e-07	5.5686e-07	65.992	26.317	5.567e-07	5.6129e-07	21.906	7.4612	9.4765	3.3687	5.6301e-07	2.8621	186.706	178.408	18.719	-37.920	179.020	129.150	-39.590	-33.325	-19.701	2.906	-36.047	-32.373	-29.358	-25.121	18.812	-28.033	-8191	255	
32445.248	1	1	0	0	0.057946	0.063453	0.13176	0.14746	0.084344	0.14573	0.24368	0.14724	0.15559	0.21453	0.090584	0.18566	0.14277	0.13266	0.0041784	0.20992	-2.6542	-3.0312	-2.7354	-3.1479	-2.9792	-2.9979	-3.0854	-2.8958	-3.0396	-3.1917	-2.9208	-3.2167	-2.9417	-2.9375	-3.2812	-3.1229	226.436	239.699	293.794	242.794	190.698	233.597	105.938	66.465	73.891	131.756	95.759	19.102	73.100	-48.234	-50.001	28.996	1.3396e-05	2.446e-06	1.8947e-05	67.87	5.6153e-07	9.3199e-07	54.864	21.802	5.4617e-07	9.7907e-07	17.871	6.0322	7.7087	2.7811	2.7901e-07	2.3391	4.9716e-05	5.5802e-05	1.486e-05	81.596	5.5942e-07	5.5441e-07	66.207	26.354	5.6063e-07	5.4766e-07	21.883	7.4753	9.4731	3.3691	5.5357e-07	2.8562	157.914	287.724	182.673	-38.070	37.217	185.702	-40.206	-33.523	120.390	46.850	-36.637	-31.516	-29.580	-25.038	-3.814	-28.255	-8191	255	
32445.344	1	1	0	0	0.019519	0.088991	0.26795	0.076411	0.16687	0.28132	0.1824	0.17541	0.33097	0.077928	0.10474	0.057228	0.11886	0.12026	0.1096	0.090067	-2.6896	-3.2375	-2.9292	-3.0417	-3.075	-2.7604	-3.2521	-2.9688	-2.9146	-3.15	-2.9979	-3.0667	-2.8854	-2.9229	-3.2062	-2.8521	10.657	200.688	298.757	63.804	250.704	170.427	105.479	90.520	51.745	299.889	282.620	237.803	198.875	55.310	108.262	38.923	6.9165e-06	4.2318e-05	3.4717e-05	67.79	4.8742e-07	4.362e-07	54.252	21.807	6.0651e-07	6.422e-07	17.901	6.0356	7.7398	2.7817	6.0254e-07	2.2932	4.9234e-05	5.0504e-05	1.5173e-05	81.505	5.5776e-07	5.6514e-07	65.987	26.284	5.5409e-07	5.5802e-07	21.84	7.4167	9.4224	3.3636	5.5452e-07	2.8318	123.271	297.033	-6.364	-38.006	71.323	115.017	-39.814	-33.078	137.843	-26.343	-35.815	-32.006	-29.272	-25.122	64.707	-28.353	-8191	255	
32445.416	1	1	0	0	0.11705	0.20791	0.24025	0.13198	0.091342	0.27875	0.15779	0.21515	0.077166	0.077581	0.2169	0.33681	0.12813	0.028814	0.067504	0.078147	-2.4896	-3.0938	-2.9708	-3.1708	-3.0604	-2.8688	-3.1604	-3.0583	-2.95	-3.3063	-3.0021	-3.0062	-3.1333	-2.7292	-3.1021	-3.025	89.384	275.414	289.705	-7.230	270.909	119.479	68.439	5.834	27.968	286.172	213.377	12.880	-20.356	139.640	294.774	103.300	9.2589e-06	4.3504e-05	3.8713e-05	67.888	1.2846e-07	1.6489e-07	54.917	21.69	6.0201e-07	1.8403e-07	17.859	5.9959	7.7286	2.7745	3.5532e-07	2.3168	4.8402e-05	5.057e-05	1.6261e-05	81.418	5.5543e-07	5.5987e-07	66.236	26.235	5.6011e-07	5.5539e-07	21.841	7.4176	9.4242	3.3635	5.5204e-07	2.8387	102.789	38.667	281.104	-38.490	124.647	29.191	-39.572	-33.096	149.536	193.661	-36.478	-31.619	-29.287	-24.860	244.874	-28.223	-8191	255	
32445.537	1	1	0	0	0.19941	0.023361	0.22372	0.091748	0.01546	0.30525	0.14941	0.30649	0.22479	0.048036	0.11661	0.056754	0.12588	0.20705	0.26155	0.19171	-2.4458	-3.0938	-2.6625	-3.0896	-3.0938	-2.8875	-3.1	-3.0646	-2.9083	-3.0646	-2.7667	-2.8917	-3.2062	-2.8229	-3.2208	-3.0271	-24.769	78.212	120.042	41.911	40.996	92.406	9.264	149.122	304.979	175.792	-35.202	23.928	156.251	-11.553	21.782	-32.009	8.6424e-06	5.9529e-05	1.6018e-05	68.185	1.7826e-07	5.1116e-07	54.987	21.968	3.7222e-07	6.2142e-07	17.865	6.0707	7.7525	2.7839	4.2197e-07	2.3446	4.908e-05	5.0329e-05	1.5551e-05	81.643	5.5272e-07	5.5858e-07	66.388	26.352	5.6239e-07	5.5529e-07	21.911	7.4593	9.4111	3.3823	5.551e-07	2.8695	176.251	304.971	0.829	-38.429	0.765	77.351	-39.454	-33.296	234.946	82.758	-36.821	-31.560	-29.247	-25.046	39.897	-28.668	-8191	255	
32445.631	1	1	0	0	0.23172	0.097728	0.28431	0.063195	0.11971	0.06944	0.11671	0.21146	0.29557	0.10531	0.20137	0.29701	0.11573	0.23765	0.14819	0.042417	-2.4062	-2.9896	-2.8542	-2.9792	-3.2146	-2.9875	-3.1188	-3.0458	-2.7333	-3.0542	-3.0354	-2.9396	-3.0958	-2.8667	-3.0854	-3.1562	134.722	27.374	-49.240	137.422	104.085	-44.503	8.647	255.524	-21.072	159.414	110.411	7.040	35.469	156.977	-21.239	80.036	1.6111e-05	3.2673e-05	3.4424e-05	68.532	4.7243e-07	2.7399e-07	54.928	21.822	1.6793e-07	7.8786e-07	17.925	6.0938	7.7766	2.7758	7.4569e-08	2.3203	4.9895e-05	5.0934e-05	1.6445e-05	81.955	5.5205e-07	5.5504e-07	66.468	26.329	5.6362e-07	5.5011e-07	21.895	7.4357	9.3983	3.3817	5.5281e-07	2.8555	102.314	102.168	-17.105	-38.007	136.891	84.335	-39.441	-33.272	-32.856	66.813	-36.658	-32.320	-29.842	-24.843	191.341	-27.740	-8191	255	
32445.729	1	1	0	0	0.15519	0.080267	0.066191	0.037729	0.13524	0.23847	0.30217	0.19469	0.23456	0.2935	0.27285	0.22453	0.049398	0.073527	0.21725	0.10884	-2.3604	-3.15	-2.8625	-3.1521	-2.875	-3.0021	-2.8625	-3.1083	-3.0062	-3.2313	-3.075	-2.7812	-3.1771	-2.9188	-3.1333	-3.0979	-46.562	-31.670	254.764	13.586	217.531	174.475	170.580	161.212	116.469	204.506	170.448	47.673	43.907	241.801	57.373	239.716	1.0844e-05	4.0063e-05	1.0249e-05	67.65	5.5681e-07	6.7216e-07	55.185	21.883	2.707e-07	5.1516e-07	18.12	6.0347	7.71	2.7809	5.6772e-07	2.3015	4.9846e-05	5.0535e-05	1.5272e-05	81.772	5.6156e-07	5.6213e-07	66.331	26.38	5.884e-07	5.526e-07	21.953	7.436	9.3999	3.3851	5.549e-07	2.8572	151.666	-15.627	237.008	-38.189	117.972	130.704	-39.758	-33.747	74.671	116.392	-36.596	-31.664	-29.090	-25.523	90.038	-28.366	-8191	255	
32445.848	1	1	0	0	0.23113	0.12681	0.14868	0.20023	0.15193	0.19453	0.19508	0.040003	0.19828	0.10581	0.17022	0.086538	0.14596	0.1689	0.031566	0.15916	-2.5396	-3.2667	-2.9625	-2.9417	-3.0729	-3.0333	-2.9625	-3.1458	-2.6479	-3.1437	-2.8979	-2.7229	-3.0854	-2.85	-2.9896	-3.1917	249.017	14.175	264.458	176.009	101.446	81.253	260.889	57.600	-47.237	114.264	135.812	221.217	-11.920	119.257	47.507	146.237	1.0883e-05	9.5992e-05	5.0237e-06	68.006	3.9422e-07	4.9643e-07	55.466	21.841	5.231e-07	6.1699e-07	17.963	6.0391	7.7503	2.8007	1.1809e-07	2.3398	4.9355e-05	5.0903e-05	1.6363e-05	81.71	5.5357e-07	5.5523e-07	66.588	26.263	6.0451e-07	5.5371e-07	21.967	7.4565	9.4129	3.3979	5.5915e-07	2.8745	171.709	234.838	178.025	-38.433	93.175	230.019	-39.327	-33.066	130.570	127.000	-36.678	-32.043	-29.313	-24.947	288.979	-27.971	-8191	255	
32445.943	1	1	0	0	0.2168	0.19379	0.034367	0.30845	0.23641	0.13394	0.24761	0.17086	0.21241	0.05209	0.30049	0.2492	0.068772	0.14608	0.13447	0.083333	-2.4229	-3.0062	-2.8937	-2.7521	-3.1208	-2.9979	-3.1292	-3.2938	-2.7646	-3.1208	-3.0687	-2.825	-3.2438	-2.7979	-2.8583	-3.2313	87.104	157.254	80.318	124.356	204.216	138.224	258.301	70.798	213.928	42.792	265.669	188.050	-1.641	216.331	-16.102	39.848	1.2896e-05	3.8263e-05	2.0472e-05	68.257	2.0563e-07	1.8708e-07	55.303	21.85	2.9432e-07	2.4425e-07	18.01	6.075	7.7243	2.7821	4.7772e-07	2.3144	5.0264e-05	5.0645e-05	1.5182e-05	82.079	5.4901e-07	5.5992e-07	66.792	26.359	6.3949e-07	5.4958e-07	21.999	7.4774	9.4081	3.3869	5.5705e-07	2.8554	172.372	54.756	239.631	-38.561	224.868	30.193	-39.710	-33.297	89.540	58.446	-36.307	-32.389	-29.306	-25.044	292.676	-28.299	-8191	255	
32446.016	1	1	0	0	0.055824	0.18173	0.14376	0.055213	0.036981	0.12067	0.063755	0.10808	0.22789	0.10672	0.076147	0.098187	0.093167	0.10845	0.19427	0.090918	-2.5125	-3.0062	-3.1229	-2.8563	-3.2917	-2.9979	-3.0479	-3.2271	-2.8958	-3.125	-3.0521	-2.8208	-3.0333	-2.9729	-2.9729	-3.2021	186.006	-0.410	77.672	278.121	134.654	58.952	87.357	271.636	40.869	59.516	118.173	169.885	58.840	137.833	-41.630	3.177	1.2942e-05	0.0001198	4.2271e-05	68.736	3.8827e-07	6.63e-07	55.077	21.828	2.5928e-07	1.5734e-07	18.117	6.0508	7.728	2.7625	4.6964e-07	2.3268	4.9875e-05	4.9865e-05	1.521e-05	82.149	5.4735e-07	5.5595e-07	66.603	26.229	6.1252e-07	5.6373e-07	21.908	7.4278	9.378	3.3742	5.5891e-07	2.8456	171.093	70.576	-18.080	-38.288	220.126	89.288	-39.360	-33.303	111.950	100.595	-36.338	-31.800	-29.223	-25.134	260.595	-28.749	-8191	255	
32446.137	1	1	0	0	0.17067	0.097409	0.19938	0.28246	0.20363	0.19004	0.14128	0.24422	0.08722	0.10008	0.12709	0.20771	0.202	0.04966	0.30008	0.26763	-2.5125	-2.8375	-3.0917	-2.7625	-3.1437	-3.0542	-2.775	-3.3563	-3.0771	-3	-3.2313	-2.8125	-3.0729	-3.0146	-2.8979	-3.1958	183.720	47.967	1.607	191.620	-36.512	83.192	305.531	140.859	94.988	33.367	36.750	109.517	23.936	229.545	220.150	80.358	1.4476e-05	4.5502e-05	1.001e-05	68.163	5.8291e-07	5.9508e-08	54.783	21.824	6.5653e-07	4.6262e-07	17.969	6.0004	7.7121	2.7821	5.0579e-07	2.2977	4.9067e-05	5.0754e-05	1.4031e-05	82.224	5.4911e-07	5.5221e-07	66.574	26.263	6.4456e-07	5.5697e-07	21.934	7.404	9.358	3.3701	5.6459e-07	2.8288	164.448	265.485	73.729	-38.552	112.678	25.505	-39.447	-32.927	144.315	111.359	-36.723	-31.716	-29.041	-25.102	12.318	-27.871	-8191	255	
32446.232	1	1	0	0	0.094438	0.090934	0.18579	0.092599	0.144	0.12303	0.12246	0.11559	0.085865	0.18434	0.24514	0.059656	0.056766	0.23237	0.20808	0.23315	-2.4188	-3.1479	-3.1125	-2.9771	-3.1896	-2.9917	-2.7687	-3.2708	-2.9354	-2.8354	-3.225	-2.8479	-3.1104	-3.0104	-2.8021	-3.2583	79.459	202.125	29.880	51.817	222.792	-0.593	21.331	296.316	141.787	16.886	254.294	-4.825	147.334	202.389	103.240	-37.757	1.2331e-05	2.1782e-05	2.646e-05	68.644	3.6e-07	7.8017e-07	55.145	21.702	4.5802e-07	7.426e-07	18.153	5.9917	7.7221	2.7622	5.6791e-07	2.2991	4.9996e-05	5.1425e-05	1.406e-05	82.338	5.5519e-07	5.4833e-07	66.751	26.182	6.1532e-07	5.5682e-07	22.006	7.4138	9.3475	3.3488	5.9874e-07	2.8419	162.835	286.375	301.881	-38.140	260.480	179.617	-39.560	-33.480	23.251	31.357	-36.864	-31.923	-29.505	-24.958	139.732	-27.619	-8191	255	
32446.328	1	1	0	0	0.18187	0.22783	0.24935	0.26273	0.14474	0.054898	0.096932	0.18635	0.12533	0.17143	0.30532	0.15939	0.12041	0.44399	0.066941	0.23224	-2.6063	-2.8625	-3.1917	-2.7021	-2.9292	-3.0083	-2.7667	-2.975	-3.0625	-2.7375	-3.0667	-2.8083	-2.8229	-3.1312	-2.8875	-3.1271	131.409	122.960	229.777	200.201	214.209	305.776	256.941	192.782	289.794	109.284	294.259	170.801	114.891	236.660	5.201	247.928	8.2855e-06	1.5463e-05	3.7488e-06	67.943	3.5154e-07	7.6902e-07	55.092	21.789	5.1196e-07	4.5299e-07	17.873	6.0188	7.6421	2.7483	1.3626e-07	2.3008	4.9266e-05	5.1065e-05	1.4256e-05	82.237	5.6094e-07	5.5633e-07	66.796	26.238	6.3906e-07	5.5356e-07	21.829	7.3746	9.2962	3.3301	6.0757e-07	2.8139	148.055	271.381	290.728	-38.418	82.370	6.046	-39.859	-33.447	116.008	111.080	-36.382	-31.740	-29.098	-24.677	184.549	-28.679	-8191	255	
32446.426	1	1	0	0	0.26851	0.2255	0.25339	0.088227	0.27155	0.21746	0.10242	0.13817	0.032348	0.23839	0.28511	0.1869	0.18107	0.15035	0.11588	0.21299	-2.5771	-2.6854	-2.9625	-2.75	-2.95	-3.0729	-2.7646	-2.9771	-2.9208	-2.7104	-3.1021	-2.9333	-2.7958	-3.2333	-2.7708	-3.0458	281.961	34.759	72.152	268.870	190.171	280.016	280.103	-6.847	204.487	51.927	75.019	20.485	15.850	-28.717	81.374	-7.694	6.0251e-06	9.9582e-06	2.6905e-05	68.342	4.4506e-07	5.8913e-07	54.939	21.665	2.2504e-07	5.7813e-08	17.86	5.9341	7.5647	2.7289	6.2107e-07	2.2692	4.9088e-05	5.1245e-05	1.4124e-05	82.376	5.5961e-07	5.4502e-07	66.547	26.083	5.985e-07	5.6162e-07	21.791	7.3331	9.255	3.3063	6.5613e-07	2.7918	127.784	63.761	17.605	-38.337	215.104	278.018	-39.427	-33.278	144.053	-31.065	-36.675	-31.448	-29.237	-24.853	291.976	-28.512	-8191	255	
32446.545	1	1	0	0	0.24938	0.27578	0.20407	0.20887	0.36481	0.25888	0.091404	0.19684	0.12629	0.33381	0.091241	0.040834	0.22063	0.18366	0.33501	0.15215	-2.4646	-2.8417	-3.0917	-3.075	-2.8333	-3.0458	-2.8771	-2.8958	-3.0792	-2.9604	-3.0479	-2.8833	-2.8542	-3.1958	-2.8229	-2.9167	250.130	265.154	11.067	175.251	88.324	141.599	72.119	275.279	-0.910	139.476	137.607	11.135	146.693	37.658	132.447	243.099	9.309e-06	8.9183e-05	1.1683e-05	68.954	5.4709e-07	2.677e-07	54.997	21.648	3.5309e-07	1.0954e-06	17.686	5.9445	7.5583	2.7073	7.0146e-07	2.2712	4.8739e-05	5.1297e-05	1.4191e-05	82.273	5.6351e-07	5.5456e-07	66.678	26.038	5.8575e-07	5.987e-07	21.768	7.3173	9.2534	3.3048	6.1358e-07	2.8022	179.125	-12.039	171.607	-38.368	64.992	95.852	-39.872	-33.130	-15.263	142.107	-36.601	-31.650	-29.763	-25.016	227.181	-28.080	-8191	255	
32446.641	1	1	0	0	0.062225	0.19896	0.11861	0.12164	0.25944	0.15982	0.058668	0.25012	0.27913	0.15873	0.24077	0.10466	0.15106	0.2584	0.19716	0.28987	-2.4646	-2.7708	-3.1688	-2.7812	-2.7438	-3.0625	-2.9083	-3.075	-3.175	-2.9562	-3.2062	-2.8375	-2.8771	-3.2	-2.9542	-2.9729	266.329	170.983	108.512	283.790	204.176	280.459	-51.275	43.887	51.675	106.760	203.186	308.591	105.857	152.247	57.103	-30.877	1.2228e-05	5.165e-05	1.0843e-05	68.214	7.8178e-07	3.2813e-07	55.322	21.539	1.405e-07	7.578e-07	17.844	5.9328	7.5869	2.7016	4.2159e-07	2.2766	4.8617e-05	5.1942e-05	1.4026e-05	82.376	5.588e-07	5.5753e-07	66.836	26.04	5.6082e-07	6.1237e-07	21.827	7.3264	9.2233	3.2932	6.5126e-07	2.7977	179.513	-5.599	109.028	-38.740	179.866	277.573	-39.997	-33.352	53.745	165.856	-35.976	-31.660	-29.380	-24.796	304.678	-28.220	-8191	255	
32446.711	1	1	0	0	0.065259	0.11631	0.22405	0.092194	0.21301	0.22595	0.17504	0.24665	0.088085	0.12995	0.2567	0.23526	0.25478	0.1137	0.35467	0.20158	-2.7104	-2.9417	-3.0896	-2.9062	-2.8208	-3.0583	-2.9	-2.8625	-3.0583	-2.8708	-2.8875	-2.9604	-2.5396	-2.8729	-3.1083	-2.8708	-16.604	80.274	174.924	293.000	170.192	-46.642	90.890	-38.425	5.616	71.720	237.631	-35.223	236.067	58.781	200.320	-16.918	1.0551e-05	5.3885e-05	1.1085e-05	68.527	4.0372e-07	3.0807e-07	55.315	21.561	1.1663e-07	5.8714e-07	17.7	5.8806	7.602	2.7102	1.3035e-07	2.2308	4.8646e-05	5.1258e-05	1.4035e-05	82.23	5.6303e-07	5.5254e-07	66.648	26.031	5.5765e-07	6.4969e-07	21.715	7.2528	9.2116	3.2858	6.0232e-07	2.7734	189.813	-42.795	205.110	-38.270	3.072	-9.105	-39.685	-33.382	104.907	144.124	-36.430	-31.813	-29.060	-24.970	276.507	-28.007	-8191	255	
32446.809	1	1	0	0	0.37208	0.03577	0.10959	0.26419	0.1328	0.14552	0.28227	0.092448	0.33044	0.18294	0.24106	0.26177	0.24666	0.071087	0.078994	0.067291	-2.7729	-2.8583	-2.8292	-3.0062	-2.8458	-3.1813	-2.9917	-2.8229	-3.0125	-2.9021	-2.9979	-3.1479	-2.6042	-2.9813	-2.9479	-2.75	99.619	-10.309	300.197	126.469	254.105	91.401	281.585	48.493	54.113	58.483	81.709	70.828	213.315	297.306	31.637	0.060	1.1285e-05	1.2858e-05	8.3945e-06	68.493	3.356e-07	8.9979e-07	54.812	21.631	7.7786e-07	3.9223e-07	17.72	5.8566	7.4989	2.6932	3.4452e-07	2.259	4.8771e-05	5.0653e-05	1.3989e-05	82.108	6.0438e-07	5.5662e-07	66.481	25.922	5.5755e-07	6.0321e-07	21.682	7.2189	9.144	3.2675	6.4415e-07	2.7705	155.152	248.463	29.041	-38.384	205.140	46.843	-39.431	-33.235	77.608	226.313	-36.012	-31.722	-29.768	-24.722	53.235	-27.621	-8191	255	
32446.928	1	1	0	0	0.16766	0.19588	0.15187	0.12247	0.2106	0.10346	0.13355	0.1417	0.066377	0.2924	0.055202	0.27074	0.26314	0.28676	0.19072	0.20034	-2.7313	-2.8375	-2.8812	-3.1708	-2.7667	-3.0687	-3.1042	-2.9521	-3.1167	-2.9104	-3.0583	-3.1188	-2.8854	-3.0729	-3.0333	-2.6854	197.810	224.064	33.418	281.651	189.651	116.772	-41.405	17.476	122.880	185.624	195.868	60.608	76.950	120.147	1.702	98.771	8.4414e-06	5.0942e-05	3.577e-06	68.794	2.1994e-07	8.5858e-07	55.08	21.459	4.4785e-07	9.3249e-07	17.786	5.8341	7.5169	2.7028	5.4435e-07	2.2707	4.8248e-05	5.1004e-05	1.4146e-05	81.895	6.0405e-07	5.4766e-07	66.486	25.85	5.5362e-07	6.3924e-07	21.693	7.2291	9.1316	3.2676	6.0189e-07	2.7759	131.985	24.171	-1.836	-38.313	63.716	242.514	-39.498	-33.270	170.423	168.661	-36.455	-32.187	-29.722	-24.531	30.277	-28.699	-8191	255	
32447.023	1	1	0	0	0.2848	0.28378	0.20576	0.1148	0.22158	0.21728	0.22215	0.21965	0.043002	0.11826	0.071233	0.043455	0.16299	0.19283	0.12791	0.1671	-2.8292	-2.7979	-2.9083	-3.0646	-2.9667	-3.1271	-3.0167	-2.7938	-3.1562	-3.0667	-2.8583	-3.3271	-2.9875	-2.9625	-3.1792	-2.8021	171.851	-16.267	39.827	243.036	143.302	-28.008	238.309	150.013	8.851	166.354	154.839	56.838	182.112	239.653	-39.166	289.127	1.395e-05	6.3583e-05	2.0465e-05	68.146	5.6757e-08	1.2134e-06	55.171	21.614	4.9346e-07	9.2825e-07	17.709	5.8832	7.4843	2.6686	2.4503e-07	2.2428	4.8938e-05	5.0772e-05	1.4195e-05	81.871	6.3722e-07	5.4761e-07	66.655	25.921	5.5078e-07	6.0403e-07	21.587	7.2656	9.1158	3.2597	5.8114e-07	2.7685	149.682	74.368	86.134	-38.092	59.444	187.217	-39.867	-33.076	147.646	118.014	-36.327	-31.926	-29.519	-25.050	208.518	-28.253	-8191	255	
32447.119	1	1	0	0	0.14715	0.14552	0.063272	0.12387	0.013611	0.07433	0.2827	0.17978	0.16722	0.048867	0.20155	0.17651	0.076023	0.19255	0.067453	0.1494	-2.7271	-2.9938	-2.8542	-3.175	-2.8187	-3.0563	-3.0708	-3.0458	-3.15	-3.0854	-3.025	-3.0792	-2.7625	-2.9104	-3.1979	-2.8396	183.616	-44.819	305.158	286.160	-20.302	128.087	176.205	211.066	139.841	143.711	213.787	204.999	-15.926	303.136	129.255	97.459	1.0931e-05	1.779e-05	7.6901e-06	68.027	6.7008e-07	1.2822e-06	54.778	21.349	2.9416e-07	1.0156e-06	17.846	5.7996	7.471	2.6812	4.76e-07	2.225	4.8609e-05	5.0277e-05	1.4252e-05	81.562	6.0561e-07	5.5115e-07	66.248	25.751	5.5229e-07	6.4e-07	21.578	7.1729	9.0856	3.2512	5.5204e-07	2.7655	150.584	53.362	243.785	-38.532	52.161	35.252	-39.878	-33.443	108.459	156.123	-36.460	-31.848	-29.413	-25.033	101.757	-28.241	-8191	255	
32447.217	1	1	0	0	0.15689	0.041471	0.25286	0.13312	0.36835	0.20324	0.24499	0.091145	0.22325	0.15761	0.13762	0.070384	0.03774	0.30967	0.18568	0.12102	-2.8979	-3.1937	-2.9813	-3.2125	-2.9167	-2.9771	-3.2125	-2.8646	-3.0854	-3.3333	-2.7271	-3.1729	-3.0229	-3.0208	-3.1937	-2.825	193.219	238.552	36.622	218.327	257.011	99.665	229.881	56.353	134.204	97.458	135.505	144.474	143.159	257.826	296.243	60.479	5.446e-06	5.2198e-05	2.8908e-06	68.324	6.9667e-07	6.1463e-07	54.964	21.43	7.4279e-08	4.1169e-07	17.706	5.8982	7.4564	2.6786	1.1119e-07	2.2179	4.8585e-05	5.0355e-05	1.4043e-05	81.608	6.4026e-07	5.5063e-07	66.33	25.798	5.5831e-07	5.9098e-07	21.599	7.1898	9.1145	3.2543	5.4784e-07	2.7809	149.135	-10.831	167.414	-38.311	29.039	87.766	-39.933	-33.298	69.774	187.178	-36.271	-32.152	-29.644	-24.913	111.618	-27.898	-8191	255	
32447.312	1	1	0	0	0.038121	0.088522	0.14879	0.13557	0.088999	0.046013	0.17185	0.35062	0.3053	0.043081	0.1247	0.11992	0.25112	0.064175	0.13396	0.097853	-2.5292	-2.9771	-2.9313	-3.1167	-2.9167	-2.7812	-3.1646	-2.7979	-2.9417	-3.1083	-2.8229	-3.1125	-2.95	-2.8854	-3.2208	-2.9333	105.327	248.585	277.733	229.394	304.049	204.036	168.566	251.552	3.255	23.541	297.730	122.543	56.488	250.039	27.609	59.154	7.7607e-06	6.2293e-05	8.596e-06	68.38	4.4353e-07	1.0508e-06	54.969	21.328	6.1048e-07	7.2558e-07	17.492	5.8612	7.4721	2.687	6.3827e-07	2.2372	4.8974e-05	5.1092e-05	1.3984e-05	81.805	6.0419e-07	5.5638e-07	66.475	25.805	5.5054e-07	5.774e-07	21.676	7.2085	9.1184	3.2519	5.5195e-07	2.7746	101.834	166.846	29.636	-37.798	48.156	178.188	-40.081	-33.631	81.358	157.290	-36.879	-32.353	-29.027	-24.931	-10.880	-27.984	-8191	255	
32447.408	1	1	0	0	0.18441	0.20321	0.010828	0.0508	0.098086	0.10493	0.28562	0.20443	0.21677	0.16556	0.27689	0.070322	0.22533	0.21117	0.060972	0.17177	-2.3646	-3.0812	-2.8417	-3.1542	-3.0438	-2.8792	-3.2042	-2.8042	-3.0667	-3.1917	-2.8458	-3.0875	-3.0062	-2.7104	-3.2604	-2.9583	-12.357	266.946	225.152	69.708	60.211	133.908	81.985	150.793	30.540	178.691	16.078	274.519	47.479	260.938	219.803	107.248	1.3385e-05	7.0423e-05	8.9806e-06	68.529	1.1339e-06	2.9518e-07	55.152	21.458	5.8905e-07	4.4827e-07	17.629	5.7755	7.4611	2.6619	1.9446e-07	2.2265	4.8804e-05	5.0421e-05	1.4288e-05	81.701	6.4164e-07	5.6155e-07	66.42	25.792	5.5594e-07	5.4934e-07	21.66	7.1571	9.0513	3.2393	5.499e-07	2.7695	143.910	65.236	263.253	-38.222	37.709	249.385	-39.761	-33.577	-48.755	78.780	-36.287	-31.814	-29.427	-24.840	190.851	-28.965	-8191	255	
32447.529	1	1	0	0	0.028864	0.13494	0.10642	0.063645	0.042614	0.11395	0.22639	0.20576	0.16972	0.057683	0.11821	0.023688	0.088753	0.24743	0.24267	0.17478	-2.4313	-3.1	-2.8021	-2.925	-3.1167	-3.0521	-3.1854	-2.9729	-2.8854	-3.075	-3.0542	-3.0271	-3.1813	-2.7	-3.2167	-2.8875	7.017	126.165	184.308	8.173	231.713	109.121	6.297	-13.336	93.802	122.841	-0.670	92.144	225.693	16.825	282.883	42.694	9.7446e-06	4.2441e-05	1.3627e-05	68.082	1.0422e-07	1.4867e-07	54.765	21.327	6.1437e-07	1.5679e-07	17.704	5.746	7.3795	2.6528	7.1643e-07	2.2121	4.8877e-05	5.0465e-05	1.4184e-05	81.463	5.9587e-07	5.5398e-07	66.252	25.697	5.5608e-07	5.4522e-07	21.655	7.1137	9.0342	3.2313	5.5018e-07	2.7518	114.112	280.913	48.468	-38.409	77.781	40.502	-39.593	-33.607	124.493	8.374	-36.651	-31.788	-29.851	-24.810	127.639	-28.273	-8191	255	
32447.623	1	1	0	0	0.089543	0.12996	0.053441	0.035912	0.094712	0.032753	0.22045	0.069197	0.085682	0.13514	0.098656	0.13886	0.048337	0.081885	0.17262	0.16159	-2.6021	-3.2208	-2.9	-3.0708	-3.0271	-2.7458	-3.025	-3.0708	-3.0312	-3.0917	-2.8979	-2.925	-3.1063	-2.7917	-3.1958	-3.0021	222.226	-50.747	178.552	35.748	128.849	156.639	252.056	253.355	226.551	-45.661	-43.495	153.475	293.750	38.616	57.187	106.404	7.1912e-06	6.6023e-05	1.8094e-05	67.966	7.348e-07	8.3286e-07	55.022	21.298	2.0821e-07	6.8716e-07	17.684	5.8113	7.3884	2.6568	7.4446e-07	2.2131	4.8816e-05	4.9904e-05	1.3832e-05	81.599	5.6522e-07	6.0295e-07	66.408	25.702	5.4808e-07	5.5519e-07	21.555	7.1582	9.0143	3.2296	5.4708e-07	2.7703	138.446	53.226	130.765	-38.552	53.254	232.647	-39.525	-33.086	164.882	193.512	-36.254	-31.746	-29.581	-25.187	58.708	-28.432	-8191	255	
32447.721	1	1	0	0	0.26482	0.11768	0.20463	0.27267	0.064242	0.17216	0.18029	0.23104	0.018637	0.11446	0.16747	0.067681	0.32218	0.10647	0.019304	0.12862	-2.3812	-3.2792	-2.8292	-2.925	-2.9604	-2.9646	-3.0708	-3.0771	-2.7375	-3.1854	-2.9333	-2.9437	-3.0771	-2.7667	-2.9583	-3.0146	266.690	-33.258	61.356	278.790	187.490	55.852	-26.819	-50.644	254.840	84.010	39.487	289.815	235.694	39.199	-46.077	70.357	1.2223e-05	3.889e-05	1.136e-05	68.14	2.8365e-07	9.1239e-07	55.218	21.275	6.2569e-07	1.8638e-07	17.629	5.7643	7.4532	2.6734	6.6191e-08	2.2036	4.8544e-05	4.9795e-05	1.4204e-05	81.621	5.4497e-07	6.098e-07	66.435	25.642	5.4542e-07	5.491e-07	21.664	7.121	9.0455	3.2349	5.5495e-07	2.7393	170.406	50.276	74.229	-38.357	287.465	82.447	-40.191	-33.206	53.675	190.200	-36.240	-31.976	-29.654	-24.786	-10.908	-28.169	-8191	255	
32447.816	1	1	0	0	0.10742	0.13354	0.070751	0.13613	0.11094	0.22636	0.12988	0.22917	0.10341	0.14465	0.011113	0.07895	0.1313	0.2095	0.15676	0.11994	-2.2292	-2.9542	-2.7812	-2.8167	-3.0812	-2.7354	-3.1125	-3.0396	-2.8	-3.0354	-2.8333	-2.9833	-3.125	-2.7062	-2.9917	-3.0333	213.962	213.224	301.773	19.122	144.724	153.204	102.744	101.808	-49.408	-33.221	82.378	169.655	216.318	130.781	-3.918	207.109	2.0604e-05	1.8951e-05	8.6821e-06	67.964	3.1356e-07	1.249e-06	54.647	21.367	4.3616e-07	2.5623e-07	17.61	5.7431	7.3529	2.6437	5.9739e-08	2.2017	4.9059e-05	5.0145e-05	1.3947e-05	81.47	5.4488e-07	6.3528e-07	66.115	25.639	5.5452e-07	5.5303e-07	21.494	7.09	8.9566	3.2208	5.5314e-07	2.7259	173.726	-13.883	52.860	-38.180	190.237	124.463	-39.619	-33.448	8.266	40.349	-36.379	-32.208	-29.131	-24.978	285.239	-28.433	-8191	255	
32447.912	1	1	0	0	0.22149	0.13659	0.096736	0.30369	0.13363	0.16978	0.15394	0.1319	0.10367	0.27832	0.13635	0.30124	0.21723	0.05443	0.12652	0.26732	-2.4	-3.0583	-2.9896	-2.7417	-2.9396	-2.8438	-2.9208	-3.0146	-2.7375	-3.1375	-2.9625	-2.8521	-3.2313	-2.8875	-3.0021	-3.1917	137.214	-23.529	191.471	58.182	2.100	57.418	189.135	211.170	213.556	264.624	6.599	47.502	107.616	157.255	128.866	171.078	7.3443e-06	7.0046e-05	2.5191e-05	67.384	2.2485e-07	1.2739e-06	54.691	21.138	4.085e-07	2.4365e-07	17.49	5.7343	7.379	2.6401	3.8957e-07	2.2359	5.391e-05	5.0088e-05	1.4035e-05	81.246	5.4264e-07	6.1143e-07	66.061	25.532	5.6073e-07	5.5203e-07	21.592	7.1088	8.9651	3.2081	5.4722e-07	2.7364	172.044	40.368	53.933	-38.479	110.783	117.583	-39.920	-33.328	246.642	202.825	-36.681	-31.989	-29.524	-24.798	-32.409	-28.033	-8191	255	
32448.010	1	1	0	0	0.27058	0.083392	0.031856	0.18673	0.3301	0.077779	0.1529	0.18746	0.14731	0.098433	0.12762	0.26255	0.1716	0.082868	0.25448	0.11332	-2.2146	-3.0521	-2.8667	-2.6604	-3.1063	-2.9271	-2.7021	-3.175	-3.0125	-3.0687	-3.0083	-2.7396	-3.0792	-2.775	-2.9375	-3.1333	259.905	78.735	109.802	243.901	-2.853	37.069	137.077	140.130	8.337	-26.545	131.348	172.338	41.030	-25.225	237.737	-18.303	8.8625e-06	2.2583e-05	7.3718e-06	67.799	2.5917e-07	1.2273e-06	55.582	21.352	1.4429e-07	3.7774e-07	17.558	5.7576	7.3571	2.6502	2.2515e-07	2.2145	5.3841e-05	5.0434e-05	1.4017e-05	81.409	5.4326e-07	6.4285e-07	66.476	25.64	5.559e-07	5.5937e-07	21.507	7.1308	8.9739	3.2232	5.6053e-07	2.7377	206.280	-8.508	162.821	-38.138	16.482	69.036	-39.662	-33.524	90.737	149.328	-36.267	-32.404	-29.482	-24.709	148.721	-28.490	-8191	255	
32448.105	1	1	0	0	0.18913	0.23407	0.14125	0.070394	0.015943	0.021045	0.12703	0.2171	0.18965	0.2301	0.22613	0.044639	0.24731	0.17298	0.20067	0.092802	-2.3563	-3.0104	-2.8479	-2.6979	-3.0812	-2.8333	-2.9583	-3.2042	-2.6979	-2.8875	-3.0375	-2.8708	-3.0229	-3.0521	-2.8667	-3.1104	95.773	-29.588	130.345	284.671	154.639	-17.769	207.010	-16.077	45.446	290.991	256.475	187.077	304.288	207.395	162.809	62.691	1.2299e-05	3.9609e-05	1.4349e-05	68.171	4.0372e-07	7.6793e-07	54.553	21.261	4.1524e-07	3.0751e-07	17.541	5.7324	7.3794	2.655	1.9839e-07	2.2193	5.6323e-05	5.0667e-05	1.3903e-05	81.592	5.5205e-07	6.1095e-07	66.447	25.604	5.6063e-07	5.5457e-07	21.464	7.1479	8.992	3.2207	5.6516e-07	2.736	178.288	26.813	23.065	-38.127	50.096	99.419	-39.772	-33.552	135.414	97.062	-36.545	-31.077	-29.116	-24.973	140.135	-28.620	-8191	255	
32448.225	1	1	0	0	0.19821	0.27625	0.10147	0.22082	0.30761	0.25172	0.18239	0.14889	0.24763	0.053962	0.15353	0.15115	0.089243	0.051499	0.18079	0.14797	-2.2938	-2.725	-2.925	-2.7479	-2.9792	-2.8708	-2.7979	-3.1146	-2.8083	-2.9521	-3.0875	-2.75	-3.05	-2.9354	-2.675	-3.2292	157.875	155.614	307.690	88.048	3.397	60.164	192.767	267.714	138.169	87.973	233.468	78.242	-50.613	196.958	281.467	266.283	1.7227e-05	8.014e-05	1.9822e-05	67.85	2.369e-07	1.327e-06	54.82	21.229	7.0862e-07	1.7792e-07	17.548	5.7917	7.3736	2.6499	4.7982e-07	2.2181	5.3322e-05	5.0807e-05	1.4054e-05	81.458	5.5115e-07	6.4908e-07	66.279	25.609	5.657e-07	5.514e-07	21.443	7.1368	8.9787	3.2139	5.5925e-07	2.7392	217.278	7.107	-22.191	-38.644	271.941	127.082	-39.482	-33.305	84.677	162.476	-36.414	-32.347	-29.150	-25.055	9.702	-27.248	-8191	255	
32448.320	1	1	0	0	0.18051	0.16723	0.22662	0.010388	0.30202	0.28524	0.24022	0.26854	0.35565	0.043369	0.094076	0.044849	0.070712	0.16177	0.084959	0.21839	-2.2812	-2.8521	-2.9688	-2.75	-3.0646	-3.0771	-2.7896	-3.0708	-2.6792	-2.7708	-3.1667	-2.9229	-3.1083	-3.1917	-2.7188	-3.0146	149.736	294.355	258.770	216.592	-19.729	43.723	278.547	291.033	-3.682	29.532	209.732	162.672	186.043	-35.673	90.534	133.732	8.0104e-06	1.2457e-05	1.4594e-05	68.019	6.303e-07	6.1011e-07	55.008	21.344	8.2169e-08	1.3696e-06	17.453	5.7453	7.3351	2.6595	3.4754e-07	2.2261	5.6997e-05	5.1017e-05	1.408e-05	81.435	5.5828e-07	5.9384e-07	66.357	25.587	5.549e-07	5.6503e-07	21.415	7.1619	8.9769	3.2208	5.5934e-07	2.7503	147.540	194.658	60.135	-38.029	125.825	135.899	-39.930	-33.623	120.215	99.503	-36.734	-32.048	-29.301	-24.830	241.200	-28.876	-8191	255	
32448.418	1	1	0	0	0.30426	0.011943	0.065611	0.081873	0.12098	0.11452	0.35373	0.14759	0.06759	0.027479	0.071187	0.062311	0.090602	0.20111	0.24876	0.31246	-2.4188	-2.8375	-3.1417	-2.7875	-3	-2.95	-2.7792	-3.2521	-3.0354	-2.8042	-3.1646	-2.8042	-2.8917	-3.1958	-2.7396	-3.1146	222.560	229.793	96.655	3.316	166.085	72.109	289.936	-43.879	-19.039	-9.710	-29.780	107.558	167.279	167.183	155.649	152.270	1.3504e-05	5.1854e-05	1.6481e-06	67.692	3.3882e-07	5.3845e-07	54.894	21.321	1.8159e-07	4.3521e-07	17.713	5.7934	7.3837	2.6736	1.8118e-07	2.2634	5.3768e-05	5.0325e-05	1.4279e-05	81.362	5.5139e-07	5.6816e-07	66.685	25.661	5.477e-07	5.5169e-07	21.478	7.1801	8.9917	3.2317	5.5772e-07	2.7539	168.002	-3.831	-4.382	-38.303	212.657	81.674	-39.231	-33.486	19.385	105.906	-36.387	-31.830	-29.818	-24.726	119.976	-27.877	-8191	255	
32448.512	1	1	0	0	0.10904	0.2818	0.016825	0.10763	0.13226	0.22529	0.19133	0.11454	0.089182	0.02246	0.22423	0.12382	0.27033	0.088283	0.15522	0.20168	-2.4021	-2.7958	-3.0521	-2.9625	-2.8958	-3.3042	-2.8542	-2.8937	-3.0104	-2.8229	-3.0875	-2.9583	-2.7979	-3.0833	-2.7021	-3.1083	283.555	88.557	-3.416	208.495	121.487	257.331	249.224	253.578	-6.111	65.340	191.243	97.706	194.531	61.574	186.058	211.832	2.6759e-06	5.667e-05	2.1589e-05	68.014	1.509e-07	1.2648e-07	55.352	21.299	3.937e-07	1.1108e-06	17.575	5.7648	7.3088	2.6581	1.5749e-07	2.2319	5.6591e-05	5.1232e-05	1.3905e-05	81.588	5.5405e-07	5.5619e-07	66.588	25.645	5.5258e-07	5.6268e-07	21.419	7.1691	8.9666	3.2244	5.6588e-07	2.7424	282.143	40.015	40.263	-38.238	154.574	113.458	-39.885	-33.353	243.736	53.283	-36.559	-32.730	-29.334	-24.502	19.216	-28.454	-8191	255	
32448.607	1	1	0	0	0.052234	0.16366	0.16775	0.039175	0.26399	0.16773	0.32997	0.23322	0.15834	0.29485	0.44527	0.034822	0.17927	0.022927	0.082985	0.091482	-2.6	-2.7833	-3.0375	-2.8333	-2.825	-3.0312	-2.9479	-2.8583	-2.9688	-2.85	-3.1188	-2.9125	-2.8958	-2.9771	-2.8229	-3.0229	188.130	110.235	155.048	124.096	78.353	-13.446	186.859	204.447	230.818	297.955	71.463	27.248	255.479	-13.755	180.812	38.678	1.0108e-05	6.9106e-05	2.4274e-05	67.4	7.7968e-07	2.6879e-07	54.917	21.311	5.7319e-07	6.614e-07	17.499	5.7909	7.3853	2.6681	2.8679e-07	2.246	5.2551e-05	5.2169e-05	1.4161e-05	81.453	5.6664e-07	5.5633e-07	66.61	25.628	5.5466e-07	5.6603e-07	21.502	7.1753	8.9856	3.2259	5.6292e-07	2.7562	178.668	127.775	29.404	-38.055	139.995	80.841	-39.589	-33.559	-34.877	193.605	-36.251	-32.052	-29.406	-24.407	-48.597	-27.923	-8191	255	
32448.703	1	1	0	0	0.1413	0.32456	0.17054	0.042811	0.043419	0.20739	0.35221	0.071521	0.17251	0.20656	0.22529	0.16441	0.11858	0.22663	0.29513	0.15276	-2.7458	-2.7583	-3.0042	-2.9896	-2.7958	-3.2292	-2.9562	-3.1708	-3.1604	-2.8021	-3.1604	-3.0208	-2.7875	-3.1708	-3.125	-2.9146	175.249	117.645	-8.150	31.591	144.588	262.551	26.949	66.280	147.599	222.037	51.409	5.802	242.121	64.388	301.507	-29.940	8.6778e-06	1.6575e-05	2.0175e-05	68.131	1.5281e-07	5.0173e-07	55.171	21.274	7.3985e-07	8.6237e-08	17.721	5.7858	7.392	2.6536	4.8289e-07	2.2381	4.968e-05	5.7962e-05	1.4203e-05	81.545	5.5761e-07	5.546e-07	66.768	25.686	5.4846e-07	5.5121e-07	21.582	7.2176	9.0231	3.2309	5.5738e-07	2.7548	229.449	17.686	92.076	-38.095	37.405	182.661	-39.995	-33.477	65.778	248.216	-36.672	-32.331	-29.225	-24.782	202.250	-27.611	-8191	255	
32448.801	1	1	0	0	0.16386	0.043177	0.25509	0.1761	0.0077641	0.15428	0.070438	0.16049	0.084339	0.39592	0.21239	0.10498	0.19423	0.11671	0.12544	0.18818	-2.7104	-2.6604	-3.0187	-2.9	-2.775	-3.0417	-2.9646	-2.8354	-3.1333	-2.875	-2.9667	-3.1	-2.8438	-3.1167	-2.9813	-2.9083	-22.644	257.508	199.266	144.572	161.558	268.562	-43.727	146.537	14.130	39.103	-6.518	187.923	46.280	69.846	205.671	187.156	5.3242e-06	4.818e-05	2.5517e-05	68.445	4.5865e-07	7.2712e-07	55.2	21.39	5.7835e-07	5.2828e-07	17.562	5.7352	7.3917	2.6545	7.1734e-07	2.2375	4.9108e-05	5.6564e-05	1.4084e-05	81.638	5.5818e-07	5.4459e-07	66.933	25.774	5.5215e-07	5.5567e-07	21.534	7.1423	9.0159	3.2235	5.6182e-07	2.7481	146.933	2.927	53.549	-38.601	85.412	118.406	-39.095	-33.252	77.409	302.686	-36.282	-32.067	-29.280	-24.527	92.394	-28.334	-8191	255	
32448.896	1	1	0	0	0.32459	0.28939	0.15659	0.16764	0.18204	0.15811	0.19555	0.099928	0.13962	0.26021	0.2009	0.14231	0.053418	0.13323	0.081409	0.21768	-2.7167	-2.5875	-3.1083	-2.7812	-2.8146	-3.2875	-3.0146	-2.9458	-3.1875	-2.8333	-3.0979	-2.9708	-2.7229	-3.0604	-2.9417	-3.0187	115.896	181.415	-41.847	160.148	32.293	189.925	222.525	194.008	151.046	55.408	140.951	49.436	106.732	141.220	-29.215	98.404	2.0428e-06	9.6443e-05	2.1957e-05	68.119	4.905e-07	1.0413e-06	55.083	21.444	1.0278e-07	2.0198e-07	17.524	5.7544	7.3942	2.6496	7.5795e-08	2.2176	4.8569e-05	5.9596e-05	1.428e-05	81.528	5.6218e-07	5.5384e-07	66.446	25.7	5.6068e-07	5.5654e-07	21.459	7.1111	9.0479	3.2204	5.5242e-07	2.7502	251.404	33.806	95.464	-38.251	73.218	146.503	-39.385	-33.712	47.374	130.180	-36.374	-32.328	-29.297	-25.058	144.811	-28.318	-8191	255	
32449.018	1	1	0	0	0.046628	0.19844	0.081015	0.13421	0.17384	0.29678	0.1072	0.12051	0.26192	0.1387	0.133	0.31724	0.12235	0.36774	0.13713	0.063399	-2.6958	-2.95	-2.8271	-3.1937	-2.9479	-3.0042	-3.0333	-2.8042	-3.2438	-2.8	-3.1271	-2.9938	-2.5812	-2.9188	-2.9271	-2.7604	139.623	206.933	95.322	297.613	274.427	295.023	92.160	40.880	31.478	52.794	218.922	-16.445	226.494	260.852	105.044	-4.068	9.1973e-06	6.2643e-05	1.1568e-05	67.911	5.1763e-07	3.7579e-08	55	21.391	4.9851e-07	4.7812e-07	17.503	5.778	7.3465	2.6568	3.3006e-07	2.2415	4.8743e-05	5.6625e-05	1.4304e-05	81.486	5.6465e-07	5.397e-07	66.681	25.705	5.5779e-07	5.5471e-07	21.465	7.1258	9.0348	3.2337	5.5967e-07	2.7526	174.303	29.088	131.565	-38.229	168.791	57.248	-39.473	-32.962	87.198	70.950	-36.677	-31.689	-29.142	-24.991	199.765	-28.789	-8191	255	
32449.113	1	1	0	0	0.25895	0.10957	0.17484	0.039318	0.33491	0.046276	0.22215	0.069593	0.078534	0.12693	0.19153	0.18619	0.18519	0.026518	0.10509	0.22081	-2.7417	-2.6875	-2.6854	-3.1729	-2.8542	-2.9833	-3.2	-2.7292	-3.0146	-2.7875	-3.0146	-3.0479	-3.0521	-2.9625	-2.9083	-2.6479	133.659	141.210	257.237	-22.053	24.297	68.015	224.474	105.936	283.605	-24.430	298.269	25.847	-32.735	264.776	169.621	127.258	1.1715e-05	8.6323e-05	1.1588e-05	67.959	7.4428e-07	6.1816e-07	55.017	21.229	2.1623e-07	3.7555e-07	17.639	5.8162	7.3261	2.6493	2.9632e-07	2.2277	4.8167e-05	5.9342e-05	1.418e-05	81.538	5.626e-07	5.6122e-07	66.536	25.68	5.5661e-07	5.5361e-07	21.542	7.1402	9.0545	3.2329	5.5424e-07	2.7593	161.278	19.533	65.795	-38.404	84.457	87.481	-39.689	-33.406	120.341	177.416	-35.959	-31.653	-29.498	-25.062	105.465	-28.459	-8191	255	
32449.211	1	1	0	0	0.15239	0.15744	0.25514	0.18137	0.081269	0.20289	0.080445	0.098489	0.081421	0.15395	0.22734	0.1206	0.085833	0.30626	0.15371	0.10663	-2.6292	-2.8979	-2.9375	-3.0938	-2.8729	-3.1063	-3.1833	-2.7917	-3.1125	-3.0479	-2.6042	-3.2042	-3.0229	-3.0021	-3.0563	-2.9	200.636	-9.444	25.965	16.235	215.721	-25.379	298.706	-4.407	303.824	21.182	209.174	6.853	189.111	256.140	87.465	46.461	1.4977e-05	8.5392e-05	2.2746e-05	67.785	4.0334e-07	4.3329e-07	54.731	21.257	2.9926e-07	7.6723e-07	17.502	5.6875	7.34	2.6474	3.8859e-07	2.211	4.8909e-05	5.5999e-05	1.4181e-05	81.515	5.6104e-07	5.5537e-07	66.246	25.777	5.5826e-07	5.5601e-07	21.486	7.0738	9.0283	3.2202	5.56e-07	2.7328	126.053	44.721	58.170	-38.445	53.108	34.402	-39.416	-33.356	-9.623	61.804	-36.980	-31.691	-29.018	-24.850	91.362	-28.290	-8191	255	
32449.307	1	1	0	0	0.11579	0.16235	0.087639	0.14753	0.23215	0.11969	0.15412	0.21607	0.20609	0.13485	0.021679	0.1083	0.17636	0.092367	0.054917	0.21624	-2.5979	-2.9396	-2.7979	-3.0604	-2.9917	-2.9854	-3.1479	-2.6271	-3.1021	-3.0417	-2.7167	-3.2188	-2.7958	-2.8688	-3.1854	-2.7729	26.323	98.789	130.758	146.342	5.519	-51.086	206.550	176.404	238.907	181.978	-38.450	166.853	296.586	154.391	-40.689	249.985	1.1581e-05	7.6781e-05	1.2304e-05	68.027	3.4167e-07	9.6288e-07	55.17	21.324	3.2473e-07	7.5674e-07	17.515	5.7281	7.3813	2.6669	1.9499e-07	2.2364	4.8224e-05	5.9228e-05	1.4127e-05	81.509	5.5647e-07	5.546e-07	66.136	25.729	5.4362e-07	5.5361e-07	21.422	7.0877	9.042	3.215	5.5572e-07	2.7391	154.012	54.083	-10.220	-38.307	192.831	238.591	-39.967	-33.784	191.912	139.227	-36.526	-31.854	-29.684	-24.745	241.389	-27.817	-8191	255	
32449.402	1	1	0	0	0.022389	0.106	0.17841	0.10306	0.081167	0.16183	0.20591	0.14239	0.29434	0.1826	0.14073	0.14747	0.10351	0.081637	0.24716	0.23433	-2.7687	-3.0708	-2.6083	-3.1542	-2.9833	-3.0021	-3.1375	-2.6979	-2.9938	-3.1583	-2.8688	-3.1125	-3.0083	-2.7125	-3.2729	-2.9208	76.162	64.804	272.218	16.866	109.913	166.211	234.184	103.962	293.064	223.273	43.187	52.765	156.126	81.753	51.246	-14.796	1.3409e-05	3.8963e-05	1.4523e-05	68.075	1.9636e-07	6.9759e-07	54.61	21.366	6.1198e-07	5.1281e-07	17.665	5.793	7.391	2.6518	2.1528e-07	2.2488	4.9274e-05	5.3396e-05	1.4316e-05	81.403	5.5224e-07	5.5638e-07	66.256	25.799	5.5926e-07	5.5236e-07	21.504	7.1208	9.0187	3.2202	5.5629e-07	2.7469	178.403	-21.428	132.500	-38.235	262.591	201.171	-39.896	-33.512	232.782	135.485	-36.282	-32.039	-29.558	-24.452	-32.963	-28.351	-8191	255	
32449.498	1	1	0	0	0.1614	0.27117	0.12301	0.12931	0.088985	0.24116	0.30024	0.039265	0.043595	0.20207	0.14962	0.2027	0.080937	0.024859	0.22042	0.18698	-2.7	-3.0479	-2.7917	-3.1458	-3.0896	-2.8396	-3.1417	-3.0333	-3.0042	-3.2125	-2.7104	-3.0354	-3.0396	-2.5875	-3.1063	-3.0042	284.137	213.636	-36.600	164.730	39.023	-44.029	270.985	146.201	79.768	41.782	157.812	57.509	226.394	178.218	63.986	-43.510	1.142e-05	2.1071e-05	1.4687e-05	67.979	4.0944e-07	3.3961e-07	54.253	21.254	4.0996e-07	3.589e-07	17.657	5.7222	7.3767	2.6401	2.7995e-07	2.2169	4.8731e-05	5.0934e-05	1.6297e-05	81.515	5.5481e-07	5.6165e-07	66.145	25.711	5.5717e-07	5.491e-07	21.513	7.1124	9.0459	3.2162	5.4226e-07	2.7323	160.450	178.974	104.354	-38.498	201.407	159.341	-39.696	-32.979	181.738	2.963	-36.708	-31.990	-29.502	-24.744	235.078	-28.426	-8191	255	
32449.617	1	1	0	0	0.15801	0.20116	0.18478	0.27175	0.21639	0.0487	0.15283	0.026083	0.13513	0.14643	0.15256	0.051823	0.14903	0.31007	0.30033	0.15717	-2.4167	-3.1667	-2.7771	-2.8875	-3.1	-2.8146	-3.3083	-2.8187	-2.8708	-3.2188	-2.9479	-3.0312	-2.9062	-2.7792	-3.1917	-3.0979	133.793	15.740	148.926	97.054	95.660	-40.584	-11.661	74.282	271.608	120.746	257.022	-20.402	181.384	188.631	77.640	214.471	1.5994e-05	3.6646e-05	4.1416e-05	67.869	3.3969e-07	6.0133e-07	54.557	21.223	3.8197e-07	6.605e-07	17.558	5.7127	7.3048	2.656	1.378e-07	2.195	4.927e-05	5.0583e-05	1.5732e-05	81.245	5.5638e-07	5.6318e-07	65.861	25.731	5.5893e-07	5.5543e-07	21.364	7.0464	8.9485	3.2037	5.54e-07	2.7014	111.866	67.518	58.291	-38.411	-13.872	66.813	-39.844	-33.432	76.222	154.606	-36.322	-31.328	-29.538	-24.405	20.631	-28.722	-8191	255	
32449.713	1	1	0	0	0.10271	0.10433	0.042175	0.065658	0.058077	0.12225	0.052942	0.15275	0.14862	0.024406	0.18328	0.13274	0.22465	0.17205	0.074862	0.11346	-2.5979	-3.0333	-2.8208	-2.9625	-3.0979	-2.9083	-3.2125	-2.9813	-2.8708	-3.0292	-2.875	-3.1521	-2.9667	-2.8021	-3.2875	-3.0042	39.457	-31.007	50.981	252.952	248.239	184.780	230.528	2.017	224.441	-32.811	-16.603	195.624	41.649	199.728	188.069	57.048	1.3072e-05	5.1065e-05	3.544e-06	67.615	2.1572e-07	8.9781e-08	54.172	21.253	1.0707e-07	3.4952e-07	17.302	5.7067	7.2981	2.6301	3.0958e-07	2.2068	4.9011e-05	5.0461e-05	1.6439e-05	81.149	5.5253e-07	5.5575e-07	65.898	25.606	5.5604e-07	5.4996e-07	21.31	7.0543	8.9259	3.2104	5.4932e-07	2.7192	171.654	86.849	189.882	-38.260	-41.897	84.148	-40.083	-33.468	21.575	-36.541	-36.636	-31.779	-29.519	-24.977	170.914	-27.767	-8191	255	
32449.809	1	1	0	0	0.1667	0.090006	0.085372	0.1095	0.20255	0.18857	0.14883	0.20994	0.27398	0.3066	0.072361	0.28688	0.14148	0.089493	0.16588	0.0566	-2.4417	-3.0896	-2.9208	-2.9042	-3.1396	-2.8146	-3.1542	-3.175	-2.8896	-3.2188	-2.9958	-2.9271	-3.1042	-2.9146	-3.1875	-3.1479	122.158	-27.074	103.060	207.224	202.927	293.204	10.704	88.841	295.901	288.099	64.673	196.122	66.764	303.972	286.632	264.314	4.8934e-06	2.8024e-05	2.4186e-05	68.021	9.222e-07	7.8352e-07	54.555	21.06	6.7787e-07	5.0393e-08	17.532	5.7422	7.2983	2.6391	2.5875e-07	2.2099	4.8536e-05	5.1122e-05	1.5649e-05	81.311	5.5001e-07	5.5868e-07	66.016	25.575	5.6267e-07	5.5615e-07	21.356	7.0522	8.9168	3.2151	5.5161e-07	2.7242	127.787	102.043	51.906	-38.635	71.212	64.070	-40.326	-33.287	-19.757	-42.039	-36.076	-31.077	-29.622	-24.843	69.775	-28.523	-8191	255	
32449.883	1	1	0	0	0.099269	0.075709	0.1137	0.04318	0.25334	0.26604	0.19125	0.048086	0.088339	0.21145	0.019236	0.25507	0.27597	0.032077	0.10839	0.39457	-2.3271	-3.2292	-2.9042	-3.0021	-3.0417	-2.9292	-2.9104	-2.8563	-2.7604	-3.1625	-2.7667	-2.8458	-3.0583	-2.7208	-3.1479	-3.2333	207.880	58.963	71.901	292.888	200.984	173.945	127.895	151.543	90.494	-4.850	-43.011	-47.480	-6.911	85.069	286.168	102.618	1.2342e-05	9.9253e-05	2.193e-05	68.052	9.9203e-07	2.4112e-07	54.509	21.079	5.1994e-07	5.3893e-07	17.436	5.7152	7.3406	2.6459	1.2618e-06	2.1941	4.9818e-05	5.0969e-05	1.6558e-05	81.317	5.4683e-07	5.5441e-07	65.809	25.512	5.6987e-07	5.5371e-07	21.225	7.0294	8.8916	3.2055	5.5557e-07	2.698	140.948	-17.642	49.297	-38.690	104.360	-18.530	-39.474	-33.619	214.567	277.341	-36.019	-32.154	-29.467	-24.670	52.840	-28.427	-8191	255	
32450.002	1	1	0	0	0.042732	0.050718	0.16433	0.06069	0.21212	0.010597	0.076104	0.1685	0.23782	0.057769	0.18407	0.072305	0.2346	0.25459	0.21172	0.15733	-2.3875	-3.3271	-2.8187	-2.8083	-3.0354	-3.1104	-2.9813	-2.9833	-2.9646	-3.1104	-2.9813	-2.8187	-3.2292	-2.7146	-2.8792	-3.1604	136.139	201.616	80.778	141.757	228.775	-6.739	20.723	138.371	61.493	122.364	183.309	207.706	139.160	29.382	112.413	95.814	9.9997e-06	1.7189e-05	2.0919e-05	67.414	1.4158e-07	2.4218e-07	54.219	20.974	1.939e-07	4.8764e-07	17.399	5.6104	7.3257	2.6014	4.6923e-07	2.1852	4.895e-05	5.0592e-05	1.5586e-05	80.973	5.5039e-07	5.5537e-07	65.594	25.364	6.5129e-07	5.5462e-07	21.19	6.9827	8.8985	3.1812	5.5519e-07	2.6882	156.114	132.987	49.326	-38.224	306.022	127.202	-39.658	-33.661	-9.134	43.522	-36.475	-32.580	-29.490	-25.437	214.148	-28.192	-8191	255	
32450.098	1	1	0	0	0.19043	0.022486	0.15785	0.2396	0.1565	0.3754	0.062616	0.29321	0.25543	0.38433	0.14535	0.1596	0.015269	0.20794	0.10635	0.10406	-2.2167	-3.0167	-2.8729	-2.7542	-3.1042	-2.9729	-2.9271	-3.0583	-2.8604	-3.0271	-2.8896	-2.8896	-3.0333	-2.9229	-2.8729	-3.1937	89.669	-37.136	60.676	115.035	295.975	-36.909	-43.865	163.852	110.978	220.875	240.220	55.034	123.830	120.166	49.383	75.105	8.8847e-06	2.4821e-05	8.4944e-06	67.718	2.3302e-07	9.0826e-07	54.368	21.115	1.2773e-07	2.3992e-07	17.533	5.6412	7.3034	2.5971	1.759e-07	2.1813	4.9112e-05	5.0908e-05	1.6402e-05	80.873	5.5243e-07	5.5211e-07	65.733	25.358	6.0665e-07	5.433e-07	21.228	6.9954	8.8829	3.1855	5.6273e-07	2.6887	165.859	109.704	99.148	-38.588	99.726	-23.557	-39.672	-33.944	69.504	14.867	-36.127	-32.210	-29.285	-25.250	121.326	-28.388	-8191	255	
32450.193	1	1	0	0	0.20539	0.20532	0.17979	0.12994	0.1272	0.31074	0.10964	0.033644	0.1877	0.13961	0.23988	0.1048	0.28782	0.17438	0.14447	0.082429	-2.0854	-2.7583	-3.1188	-2.8083	-3.1312	-2.9458	-2.9125	-3.3042	-2.8646	-3.0125	-3.0875	-2.825	-3.1604	-2.8	-2.875	-3.1667	137.926	88.389	136.570	177.711	-31.806	128.407	228.774	301.674	46.459	202.920	65.409	123.265	-48.259	198.592	201.462	116.619	2.446e-05	5.8238e-05	1.6397e-05	67.552	3.7579e-07	1.0823e-06	54.588	21.017	6.4971e-07	7.6424e-07	17.441	5.6848	7.3319	2.6159	6.2927e-07	2.1819	4.9793e-05	5.1061e-05	1.4897e-05	81.057	5.5586e-07	5.536e-07	65.97	25.381	6.4735e-07	5.4565e-07	21.305	7.0545	8.8968	3.1934	5.6225e-07	2.6999	145.416	-26.664	13.833	-38.259	241.803	22.838	-40.017	-33.368	231.902	156.416	-36.461	-32.073	-29.770	-24.853	130.531	-28.319	-8191	255	
32450.289	1	1	0	0	0.1593	0.18065	0.15458	0.2206	0.14205	0.2206	0.065773	0.30645	0.18669	0.2618	0.062144	0.092962	0.32625	0.25551	0.15668	0.11688	-2.4458	-3	-2.9229	-2.8208	-3.0521	-2.9542	-3.0104	-3.0125	-2.9104	-2.8688	-3.0458	-2.6833	-3.0375	-3	-2.7583	-3.1417	-22.080	296.253	113.323	158.216	94.922	162.345	43.459	104.193	-44.502	77.106	70.107	276.724	87.279	42.506	294.274	250.512	4.5528e-06	6.2841e-05	5.5507e-06	67.347	4.2786e-08	6.7616e-07	54.2	20.989	4.6204e-07	2.4945e-07	17.434	5.7086	7.261	2.6142	4.4872e-07	2.1743	4.9489e-05	5.075e-05	1.3975e-05	81.223	5.4697e-07	5.5384e-07	65.696	25.383	6.0361e-07	5.5179e-07	21.223	7.0288	8.895	3.1922	5.4999e-07	2.6925	108.861	10.079	55.724	-38.185	105.937	34.201	-39.795	-33.593	131.884	97.476	-36.530	-31.684	-29.775	-24.711	120.661	-28.453	-8191	255	
32450.410	1	1	0	0	0.17088	0.11835	0.11283	0.41483	0.13983	0.1802	0.2674	0.34826	0.2172	0.093417	0.068597	0.12019	0.20582	0.095185	0.18001	0.063994	-2.3917	-3.0896	-3.3354	-2.7729	-3.0125	-3.0208	-2.8708	-3.0125	-3.0792	-2.8896	-3.1188	-2.8042	-3.0438	-3.025	-2.7313	-3.2667	73.070	-29.516	307.918	275.305	93.159	17.853	84.984	21.741	60.550	11.016	134.645	305.995	-39.769	84.020	174.525	179.101	2.769e-06	2.5016e-05	1.2736e-05	67.516	9.8374e-07	8.128e-07	54.611	21.07	4.2601e-07	5.5838e-07	17.485	5.653	7.3238	2.6107	2.3503e-07	2.2071	4.9067e-05	5.0899e-05	1.4106e-05	81.344	5.502e-07	5.5465e-07	65.779	25.436	6.4745e-07	5.5908e-07	21.274	7.043	8.9138	3.1857	5.7852e-07	2.7123	148.411	-32.688	76.525	-38.383	95.347	296.831	-39.861	-33.239	238.170	71.199	-35.771	-32.104	-29.363	-24.941	168.771	-28.001	-8191	255	
32450.482	1	1	0	0	0.16643	0.155	0.092149	0.37786	0.34788	0.11226	0.098443	0.028939	0.23915	0.043414	0.19397	0.1351	0.078511	0.07456	0.08375	0.18662	-2.6375	-2.9188	-3.175	-2.9146	-3.0396	-3.075	-2.8104	-3.0458	-2.8771	-2.8354	-3.2292	-2.8542	-2.9688	-3.0167	-2.6708	-2.9979	55.022	214.336	3.412	102.728	277.527	225.426	138.200	179.272	58.385	61.500	299.649	-51.332	55.741	257.242	198.573	165.329	5.927e-06	7.7977e-05	2.5643e-05	67.848	4.2691e-07	9.0591e-07	54.522	21.232	4.785e-07	3.0025e-07	17.522	5.7209	7.3049	2.6102	6.8583e-07	2.2169	4.9396e-05	5.103e-05	1.4176e-05	81.6	5.5034e-07	5.5638e-07	66.193	25.522	6.0821e-07	5.5937e-07	21.36	7.0679	8.9154	3.1834	6.5193e-07	2.7298	210.097	55.005	-19.859	-38.199	151.878	100.183	-39.520	-33.428	110.159	80.274	-36.605	-32.299	-29.556	-24.519	45.949	-27.900	-8191	255	
32450.578	1	1	0	0	0.12936	0.24786	0.11902	0.1877	0.17822	0.095503	0.078104	0.041564	0.093867	0.23689	0.072841	0.13512	0.18173	0.23638	0.081611	0.088476	-2.4854	-2.8438	-3.2062	-2.9417	-2.9854	-3.2396	-2.8542	-3.0312	-3.1437	-2.8917	-3.225	-2.9	-2.8917	-3.1875	-2.7833	-2.9979	193.996	79.254	139.179	186.747	225.940	6.194	239.334	229.982	-37.945	48.702	40.305	237.140	0.674	187.884	-19.258	218.994	9.9227e-06	1.7181e-05	1.0665e-05	67.819	6.9905e-07	6.5463e-07	54.969	21.384	5.6715e-07	6.8601e-07	17.543	5.689	7.4202	2.6172	8.8964e-07	2.2219	4.8974e-05	5.181e-05	1.4078e-05	81.784	5.6056e-07	5.546e-07	66.381	25.614	6.4366e-07	5.6762e-07	21.363	7.0507	8.9412	3.1906	6.1625e-07	2.7141	80.075	81.696	46.605	-38.081	166.927	143.683	-39.934	-33.069	57.377	42.946	-36.799	-31.906	-29.318	-24.896	73.569	-28.015	-8191	255	
32450.699	1	1	0	0	0.15971	0.19721	0.12857	0.16987	0.14614	0.23257	0.059204	0.092633	0.23681	0.12598	0.13655	0.14868	0.018157	0.20441	0.17953	0.076598	-2.75	-2.8479	-2.9646	-2.9125	-2.9958	-3.0958	-2.7812	-3.1042	-3.0521	-2.825	-3.1417	-2.9667	-2.8667	-3.0792	-2.9521	-2.9917	70.685	217.446	108.526	272.105	279.070	80.943	119.641	-50.021	9.916	119.805	127.492	7.029	104.668	299.858	298.510	198.478	1.0753e-05	3.5212e-05	5.4056e-06	68.116	5.6278e-07	1.1397e-06	54.81	21.221	7.4405e-07	2.7106e-07	17.41	5.6817	7.2877	2.6427	7.0749e-07	2.1934	4.9465e-05	5.1587e-05	1.384e-05	81.705	5.5918e-07	5.5168e-07	66.12	25.51	5.7869e-07	5.941e-07	21.374	7.046	8.9283	3.1977	6.6481e-07	2.7189	155.533	15.849	177.627	-38.402	153.360	169.877	-39.669	-33.202	141.270	218.774	-36.820	-31.798	-29.758	-24.675	77.842	-27.849	-8191	255	
32450.793	1	1	0	0	0.17752	0.17933	0.051735	0.18888	0.14667	0.39115	0.10157	0.067554	0.12612	0.17278	0.099265	0.17045	0.19627	0.094472	0.21871	0.11202	-2.7521	-2.8167	-3.0792	-3.0292	-2.9771	-3.1562	-2.9417	-2.9938	-3.0687	-2.8396	-3.1375	-3.0021	-2.9021	-3.1625	-2.8542	-2.9604	271.601	75.468	195.585	122.077	-34.536	232.017	226.819	37.778	29.449	286.243	273.631	131.145	187.983	182.875	139.758	120.113	1.1031e-05	4.9375e-05	1.6103e-05	67.778	2.2242e-07	3.3238e-07	54.847	21.218	1.5655e-07	4.8267e-07	17.573	5.7023	7.36	2.6312	3.1119e-07	2.2227	4.8913e-05	5.1446e-05	1.4236e-05	81.668	5.5709e-07	5.5149e-07	66.377	25.554	5.5713e-07	6.5113e-07	21.455	7.0815	8.9482	3.2065	6.1978e-07	2.7394	176.985	23.998	-37.467	-38.143	195.905	290.842	-39.864	-33.472	124.997	-36.995	-36.579	-31.853	-29.306	-24.759	13.723	-28.090	-8191	255	
32450.891	1	1	0	0	0.13933	0.25787	0.26818	0.18566	0.23525	0.071316	0.14794	0.14802	0.19245	0.067823	0.083947	0.18141	0.087124	0.25187	0.04773	0.12784	-2.8458	-2.6375	-3.1917	-3.0938	-2.9771	-3.1667	-2.8646	-2.7792	-3.0167	-2.8625	-2.9417	-2.7438	-2.8167	-3.2125	-2.9562	-2.7875	210.677	-22.412	84.984	289.598	-18.252	-35.147	103.991	69.603	170.611	35.492	159.067	269.427	274.766	10.873	275.921	25.117	7.3958e-06	5.374e-05	1.6628e-05	68.526	3.3825e-07	1.1777e-06	55.001	21.305	6.2253e-08	8.5651e-07	17.586	5.7424	7.3527	2.6351	2.6664e-07	2.2446	4.878e-05	5.2003e-05	1.4213e-05	82.031	5.5999e-07	5.5125e-07	66.595	25.678	5.5476e-07	6.2153e-07	21.476	7.0879	8.9647	3.2083	6.5074e-07	2.7433	121.368	-8.130	87.164	-38.282	136.688	86.481	-40.117	-33.574	112.747	-43.404	-36.151	-31.897	-29.287	-24.809	34.875	-28.381	-8191	255	
32451.010	1	1	0	0	0.048958	0.10279	0.11286	0.14817	0.2297	0.1607	0.18329	0.12449	0.17179	0.16587	0.16428	0.15625	0.092568	0.18076	0.15511	0.14524	-2.6229	-2.6792	-3.0229	-3.1667	-2.7917	-3.15	-2.975	-2.9	-3.1625	-2.8375	-3.1354	-2.8646	-2.8583	-2.9062	-2.9813	-2.8708	-34.282	34.535	241.778	-7.796	-51.319	3.515	2.196	82.566	164.415	-14.870	124.634	74.579	37.523	-0.454	271.553	-25.150	1.0763e-05	2.9123e-05	1.3115e-05	67.808	3.7165e-07	9.7131e-07	54.632	21.178	3.175e-07	7.7811e-07	17.552	5.6803	7.3779	2.6361	2.462e-07	2.2152	4.9522e-05	5.1381e-05	1.4291e-05	81.587	5.9226e-07	5.5302e-07	66.213	25.569	5.5523e-07	6.4504e-07	21.426	7.0598	8.9524	3.1969	6.1758e-07	2.7217	176.061	272.209	107.723	-38.188	295.748	126.628	-39.359	-33.744	79.870	-6.301	-36.406	-32.079	-29.153	-24.986	61.174	-28.380	-8191	255	
32451.082	1	1	0	0	0.29761	0.19158	0.38993	0.25413	0.10645	0.15941	0.04804	0.23091	0.083929	0.1701	0.12762	0.053005	0.13176	0.23084	0.1888	0.27612	-2.6042	-2.8396	-3.0792	-2.9167	-2.8771	-3.1562	-2.8604	-2.7646	-3.2604	-2.8104	-2.8458	-3.1979	-2.7292	-3.0083	-3.0583	-2.8812	103.561	212.753	-8.352	268.867	198.396	206.952	117.763	148.976	45.365	67.175	10.989	-18.058	-42.761	138.932	197.057	174.096	4.8803e-06	1.6466e-05	1.022e-05	67.589	4.3494e-07	3.1047e-07	54.754	21.145	4.6057e-07	2.5126e-07	17.543	5.6849	7.3345	2.6226	1.1295e-06	2.2277	4.8873e-05	5.0881e-05	1.4178e-05	81.436	6.5461e-07	5.5734e-07	66.295	25.563	5.5433e-07	6.0854e-07	21.428	7.0774	8.9279	3.1869	6.38e-07	2.73	125.659	-8.352	76.296	-38.303	152.840	239.051	-39.876	-33.799	-39.240	83.946	-36.434	-31.906	-29.545	-24.841	68.571	-28.652	-8191	255	
32451.178	1	1	0	0	0.32307	0.095437	0.029606	0.10847	0.090699	0.23597	0.31391	0.11108	0.089418	0.12104	0.20456	0.16686	0.37066	0.10911	0.052753	0.12726	-2.5792	-2.9021	-2.7417	-3.0521	-2.7521	-3.0375	-2.9229	-2.75	-3.0312	-3.0417	-2.9271	-3.0854	-2.6771	-2.9562	-3.1375	-2.8542	189.981	279.789	69.639	186.230	228.920	33.416	215.278	15.577	92.559	199.244	148.971	133.630	272.537	80.881	-18.896	60.805	1.1963e-05	7.5405e-05	2.5947e-05	68.091	6.5e-07	6.5155e-07	55.095	21.102	9.3185e-08	5.8316e-07	17.716	5.7203	7.3765	2.6289	5.7083e-07	2.2109	4.927e-05	5.1302e-05	1.4444e-05	81.58	6.2111e-07	5.6562e-07	66.459	25.529	5.5826e-07	6.531e-07	21.493	7.0723	8.9362	3.1875	5.7351e-07	2.7342	152.770	65.758	57.617	-38.152	47.208	80.521	-39.760	-33.318	45.759	1.419	-36.520	-31.706	-29.257	-24.825	79.298	-28.309	-8191	255	
32451.299	1	1	0	0	0.28093	0.096061	0.11077	0.23526	0.11924	0.16691	0.3635	0.24257	0.071587	0.1285	0.026639	0.14645	0.21473	0.039987	0.045952	0.16357	-2.7417	-2.8792	-2.8396	-3.3625	-2.9	-3.0146	-3.0396	-2.7208	-3.0521	-3.1146	-2.7104	-2.9479	-2.6167	-3.025	-2.9313	-2.7354	213.103	22.240	136.093	189.047	240.221	254.949	273.471	196.107	37.127	27.152	223.370	-25.123	169.057	248.043	183.705	77.566	1.1828e-05	7.621e-05	2.1756e-05	68.044	3.9112e-07	1.6254e-06	55.074	21.332	4.2277e-07	8.2289e-07	17.781	5.7498	7.2956	2.6038	3.0643e-07	2.2127	4.9351e-05	5.0447e-05	1.4393e-05	81.701	6.5761e-07	5.571e-07	66.444	25.607	5.5746e-07	6.1324e-07	21.508	7.0906	8.9038	3.1782	5.5619e-07	2.74	160.409	18.491	35.959	-38.170	210.613	100.749	-39.826	-33.490	116.872	75.620	-36.082	-32.241	-29.484	-24.901	97.181	-27.763	-8191	255	
32451.395	1	1	0	0	0.064866	0.115	0.1868	0.1376	0.26794	0.077752	0.039849	0.18186	0.014477	0.096653	0.15695	0.11898	0.16314	0.28174	0.1458	0.20343	-2.5125	-2.9313	-2.8125	-3.1083	-2.8542	-2.9625	-3.2	-2.7708	-3.2833	-3.0958	-2.8292	-3.1	-2.7021	-2.8542	-3.0833	-2.8375	176.979	125.399	22.801	188.595	1.284	101.436	184.628	-28.753	250.408	63.307	-2.284	103.262	104.327	200.108	41.747	83.827	2.4606e-06	1.5379e-05	1.3131e-05	67.99	4.7191e-07	1.8726e-07	54.861	21.118	2.3338e-07	9.4277e-07	17.525	5.7617	7.2998	2.6002	2.5561e-07	2.1914	4.9347e-05	5.114e-05	1.433e-05	81.574	6.1574e-07	5.5523e-07	66.314	25.554	5.4339e-07	6.4197e-07	21.371	7.038	8.8989	3.1649	5.5529e-07	2.7205	243.256	108.699	-23.852	-38.369	303.829	59.832	-39.261	-33.244	-40.078	5.036	-36.948	-31.876	-29.409	-25.046	281.161	-28.394	-8191	255	
32451.490	1	1	0	0	0.095219	0.17245	0.34498	0.16113	0.049374	0.2009	0.17003	0.18203	0.1465	0.27861	0.26229	0.18105	0.14051	0.094928	0.045514	0.29441	-2.5583	-2.95	-2.8833	-3.1688	-2.8104	-2.7646	-3.0458	-2.8167	-2.9604	-3.1125	-2.7417	-2.8625	-2.8958	-2.85	-3.2917	-2.725	220.876	1.136	176.094	225.487	229.496	104.245	103.676	87.652	30.881	24.424	-29.373	10.843	236.176	-4.407	83.738	230.799	4.1419e-06	7.3258e-05	1.4417e-05	67.824	1.073e-06	5.8714e-07	55	21.131	3.4968e-07	3.5431e-07	17.453	5.7229	7.2558	2.5931	5.0293e-07	2.1653	4.9858e-05	5.1306e-05	1.4046e-05	81.447	6.5081e-07	5.489e-07	66.279	25.508	5.5717e-07	5.6997e-07	21.49	7.0466	8.8733	3.1566	5.5347e-07	2.726	162.577	259.821	88.099	-38.405	219.044	2.928	-39.788	-33.450	261.121	114.487	-36.950	-31.620	-29.270	-24.941	152.989	-28.350	-8191	255	
32451.588	1	1	0	0	0.1834	0.076156	0.17574	0.20456	0.17339	0.083658	0.1902	0.20958	0.093303	0.18897	0.23246	0.23248	0.096724	0.3138	0.09011	0.22149	-2.6396	-2.9979	-2.85	-3.0938	-3.0542	-2.8833	-3.1	-2.8292	-2.9437	-3.1729	-2.9188	-2.9771	-2.8771	-2.8917	-3.1146	-2.8688	40.329	27.557	269.638	31.548	28.386	274.035	5.750	167.980	299.706	209.209	61.622	156.481	196.761	-24.072	221.420	84.190	1.0975e-05	5.9826e-05	1.6775e-05	68.195	5.8532e-07	5.0336e-07	55.142	21.152	2.7931e-07	4.3773e-07	17.548	5.6683	7.3005	2.5885	2.5946e-07	2.1921	4.9157e-05	5.0789e-05	1.4277e-05	81.511	6.1445e-07	5.5197e-07	66.389	25.473	5.5822e-07	5.6421e-07	21.546	7.0434	8.8864	3.167	5.591e-07	2.7226	141.001	72.563	92.632	-38.519	54.331	193.717	-39.602	-33.270	217.531	76.590	-36.570	-32.237	-29.724	-24.450	-41.262	-28.148	-8191	255	
32451.705	1	1	0	0	0.26177	0.018084	0.17369	0.046481	0.12317	0.25677	0.10175	0.11269	0.09077	0.13565	0.19482	0.11538	0.23883	0.25794	0.14073	0.19906	-2.5083	-2.9083	-2.7271	-2.9417	-2.9479	-3.0125	-3.0229	-2.7562	-2.8208	-3.1396	-2.8125	-3.1312	-3.1021	-2.8063	-3.0625	-2.975	-25.001	192.503	-1.927	-4.077	213.178	-26.166	61.006	99.627	-29.198	71.490	194.098	6.197	307.975	-29.358	140.092	63.798	7.3318e-06	3.1032e-05	2.1538e-05	67.872	4.6783e-07	1.0039e-06	54.969	21.213	7.1051e-07	4.0696e-07	17.543	5.7048	7.2219	2.5803	2.1882e-07	2.1492	4.981e-05	5.043e-05	1.4086e-05	81.489	6.2486e-07	5.7161e-07	66.326	25.52	5.6187e-07	5.456e-07	21.462	6.998	8.8489	3.1473	5.4789e-07	2.7011	224.014	107.415	84.545	-37.963	52.472	227.777	-39.670	-33.423	-41.015	77.470	-36.842	-31.600	-29.696	-24.701	122.323	-28.320	-8191	255	
32451.777	1	1	0	0	0.26365	0.24055	0.11229	0.19598	0.14529	0.088571	0.12602	0.21355	0.12748	0.1819	0.094821	0.28399	0.10648	0.096065	0.20584	0.10487	-2.3542	-3.1063	-2.7958	-3.1354	-3.1875	-2.9271	-3.2229	-3.0417	-3.0563	-3.3292	-2.9021	-2.9792	-3.0833	-2.8104	-3.0375	-2.9604	93.430	260.412	176.510	48.699	253.408	222.214	137.831	233.268	121.139	177.194	169.924	130.047	298.811	55.092	86.785	296.835	4.6508e-06	4.7098e-05	8.6907e-06	67.771	4.0697e-07	1.0746e-07	54.482	21.252	3.1291e-08	4.5173e-07	17.285	5.6827	7.3136	2.5989	2.714e-07	2.1722	4.8723e-05	5.0408e-05	1.4442e-05	81.292	5.6764e-07	5.9269e-07	66.181	25.475	5.5604e-07	5.5663e-07	21.428	7.0045	8.8793	3.1601	5.5133e-07	2.703	-33.880	87.227	131.792	-38.386	-33.624	235.530	-39.306	-33.371	4.439	22.715	-36.900	-31.552	-28.916	-24.651	137.006	-27.437	-8191	255	
32451.873	1	1	0	0	0.060353	0.14584	0.14195	0.18809	0.32263	0.26937	0.11056	0.17809	0.34054	0.19282	0.20209	0.11815	0.13852	0.082023	0.28324	0.19163	-2.5458	-3.1188	-2.7396	-2.9646	-3.1354	-2.8896	-3.0854	-3.0917	-2.8792	-2.9271	-2.7646	-3.0229	-3.3937	-2.85	-2.9792	-2.975	207.508	218.624	122.136	251.252	47.503	193.989	219.020	273.058	3.161	230.593	259.298	59.464	300.573	99.834	59.044	54.669	5.9723e-06	2.1108e-05	2.91e-05	67.998	3.863e-07	5.7841e-07	54.445	21.048	4.2827e-07	6.1988e-07	17.26	5.5976	7.2153	2.5809	3.2889e-07	2.1695	4.9493e-05	5.0539e-05	1.4037e-05	81.275	5.5714e-07	6.5756e-07	65.853	25.344	5.5917e-07	5.5198e-07	21.325	7.0045	8.8055	3.1311	5.5562e-07	2.6989	158.904	147.095	-20.414	-38.052	154.891	204.281	-40.191	-33.448	55.396	107.375	-36.954	-31.519	-28.865	-24.612	189.654	-28.097	-8191	255	
32451.971	1	1	0	0	0.23094	0.1183	0.12434	0.11448	0.13267	0.10415	0.12507	0.042753	0.30283	0.1879	0.068856	0.22222	0.066787	0.13446	0.19898	0.0421	-2.4104	-3.1792	-2.9604	-2.6979	-3.1542	-2.6458	-3.0208	-3.1125	-2.8917	-3.0417	-2.75	-2.8563	-3.2062	-2.7458	-2.9667	-3.0417	239.275	92.258	83.136	157.826	77.472	252.313	248.568	129.732	-19.643	92.520	-41.680	-4.379	179.494	56.520	26.778	305.860	1.8476e-05	1.2127e-05	7.5052e-06	67.581	4.4344e-08	7.5802e-07	54.449	20.87	1.4339e-07	5.2243e-07	17.423	5.7216	7.2533	2.5844	6.5914e-07	2.1695	4.9676e-05	5.0526e-05	1.4095e-05	80.918	5.5491e-07	6.1842e-07	65.578	25.299	5.6722e-07	5.5658e-07	21.453	7.0193	8.7811	3.1347	5.5781e-07	2.6832	127.840	35.020	202.507	-38.895	204.550	202.011	-39.623	-33.213	-11.248	101.847	-36.203	-32.230	-29.618	-24.692	145.680	-27.749	-8191	255	
32452.092	1	1	0	0	0.37567	0.1141	0.30107	0.15264	0.059108	0.34447	0.31394	0.17147	0.11702	0.22424	0.09408	0.15144	0.10361	0.29081	0.22664	0.093528	-2.25	-2.975	-2.9208	-2.7979	-3.2188	-2.8812	-3.1833	-3.2271	-2.7854	-2.9062	-3.0792	-2.8438	-2.9833	-2.9146	-3.1646	-3.0646	11.919	289.368	46.745	158.078	39.022	207.339	23.047	-32.505	169.331	-42.127	88.121	183.301	296.318	-22.772	150.404	241.470	1.6203e-05	5.9727e-05	2.4424e-05	66.965	4.8344e-07	7.7376e-07	54.109	21.054	2.3343e-07	1.0707e-06	17.317	5.6836	7.2098	2.5785	1.9514e-07	2.1436	5.3322e-05	5.1429e-05	1.4135e-05	80.606	5.5685e-07	6.5541e-07	65.522	25.353	5.5935e-07	5.5908e-07	21.388	6.9986	8.7759	3.1276	5.4985e-07	2.672	143.687	4.421	93.371	-38.603	89.780	189.336	-39.703	-33.429	-37.895	71.092	-36.857	-32.333	-29.302	-25.057	77.189	-28.398	-8191	255	
32452.188	1	1	0	0	0.11831	0.024543	0.19021	0.20217	0.23529	0.17402	0.19732	0.033918	0.14298	0.12508	0.13065	0.16548	0.066087	0.16157	0.17429	0.33217	-2.3771	-2.8937	-2.9833	-2.7271	-3.1271	-2.8146	-2.9521	-2.9979	-2.8521	-3.0062	-3.0292	-2.7625	-3.1667	-2.8104	-3.0292	-3.2771	-31.312	149.937	108.573	17.125	53.620	183.489	-28.397	-42.884	182.909	144.681	11.398	169.619	286.940	67.188	134.340	238.683	8.1346e-06	5.6034e-05	1.5253e-05	66.633	4.407e-07	6.6261e-07	54.304	21.242	2.0903e-07	7.6619e-07	17.524	5.6462	7.1788	2.5682	2.4886e-07	2.161	5.8363e-05	5.1197e-05	1.404e-05	80.619	5.56e-07	6.1756e-07	65.558	25.392	5.5831e-07	5.5251e-07	21.457	6.9754	8.7761	3.1287	5.5753e-07	2.6638	129.298	82.253	18.175	-38.501	68.836	263.032	-39.525	-33.395	281.975	15.775	-36.166	-31.983	-29.148	-24.890	289.805	-28.135	-8191	255	
32452.283	1	1	0	0	0.13156	0.029699	0.18866	0.16525	0.17358	0.18025	0.15478	0.20956	0.068786	0.10276	0.1271	0.16024	0.11801	0.066946	0.16752	0.09488	-2.3146	-2.9917	-2.8458	-2.8875	-3.1292	-2.8479	-2.8312	-3.1083	-2.6312	-3.1229	-3.0187	-2.7438	-3.1125	-3.0312	-2.9042	-3.2687	16.426	78.072	285.699	107.919	291.545	132.384	45.288	-36.062	-14.188	20.655	253.037	221.438	-8.607	152.019	114.517	248.601	1.1247e-05	2.5521e-05	1.3211e-05	67.335	2.6853e-07	6.8534e-07	54.51	21.21	8.1343e-07	9.6947e-07	17.398	5.6318	7.1948	2.5678	2.167e-07	2.1752	5.4997e-05	4.9948e-05	1.4209e-05	80.891	5.5676e-07	6.5924e-07	65.974	25.39	5.6225e-07	5.6364e-07	21.261	6.999	8.7904	3.1247	5.5538e-07	2.6708	119.172	1.165	-38.095	-38.194	114.591	228.523	-39.723	-33.443	222.682	64.101	-36.587	-32.202	-29.148	-24.866	256.658	-28.050	-8191	255	
32452.379	1	1	0	0	0.0954	0.1081	0.089281	0.16421	0.032328	0.050226	0.10739	0.15325	0.18658	0.21345	0.18906	0.11161	0.020055	0.17325	0.16696	0.20325	-2.5229	-2.9562	-2.7938	-2.8396	-3.1208	-3.0875	-2.8563	-3.25	-2.8563	-2.9792	-3.0854	-2.8521	-3.0917	-3.0479	-2.9479	-3.0417	-43.315	114.507	39.273	283.746	78.598	298.222	44.910	234.139	120.136	19.045	117.623	84.251	204.673	219.190	148.004	265.966	1.3654e-05	5.3465e-05	1.7183e-05	68.118	3.5505e-07	5.941e-07	55.011	21.076	5.4622e-07	1.3177e-06	17.304	5.6851	7.1533	2.5792	7.8946e-07	2.1826	5.7812e-05	5.1008e-05	1.4158e-05	81.218	5.5315e-07	6.1694e-07	66.131	25.391	5.5907e-07	5.5649e-07	21.241	7.0581	8.7951	3.1327	5.549e-07	2.6667	157.726	76.724	-8.907	-38.223	216.887	272.614	-39.093	-33.758	-6.141	-12.671	-36.650	-32.043	-29.352	-24.742	146.320	-27.858	-8191	255	
32452.475	1	1	0	0	0.33493	0.28329	0.18392	0.20344	0.17837	0.30878	0.22307	0.095961	0.28577	0.10239	0.063419	0.21948	0.057677	0.18777	0.15699	0.048242	-2.4229	-2.9271	-3.2521	-2.85	-3.1375	-2.9979	-2.7208	-3.1729	-2.8854	-3.1021	-3.2292	-2.8125	-3.1188	-3.1375	-2.8479	-3.1792	111.294	212.918	126.702	49.639	48.115	114.230	284.307	215.104	-8.069	172.056	295.752	282.353	224.624	215.194	-0.843	284.359	1.329e-05	3.622e-05	3.3478e-05	68.034	2.7133e-07	6.9129e-07	54.526	21.186	1.7394e-07	6.4519e-07	17.461	5.6502	7.2503	2.5644	2.4777e-08	2.1622	5.421e-05	5.1026e-05	1.4125e-05	81.269	5.5063e-07	6.2331e-07	66.261	25.41	5.6381e-07	5.5246e-07	21.305	6.9944	8.8057	3.1336	5.6158e-07	2.6631	132.508	142.590	70.958	-38.568	289.854	-30.871	-39.853	-33.440	198.600	47.050	-36.541	-31.994	-29.571	-24.743	18.487	-28.608	-8191	255	
32452.570	1	1	0	0	0.20245	0.12981	0.0867	0.17596	0.24735	0.19148	0.16846	0.15304	0.056817	0.035573	0.075663	0.23628	0.22202	0.16192	0.16076	0.091883	-2.575	-3.0479	-3.1271	-2.9417	-3.2	-3.0083	-2.975	-3.2188	-2.8542	-2.9688	-3.3187	-2.8438	-3.0042	-3.0583	-2.675	-3.1063	-37.696	251.915	152.326	239.985	-39.691	32.572	87.516	69.163	106.810	30.497	306.753	-48.352	293.633	193.876	268.378	53.431	1.886e-05	3.8682e-05	3.627e-06	67.562	3.5281e-07	8.6391e-07	55.201	21.245	5.0052e-07	2.3168e-07	17.397	5.6948	7.2244	2.5688	4.859e-07	2.165	5.7151e-05	5.1438e-05	1.4265e-05	81.439	5.5681e-07	5.5302e-07	66.415	25.429	5.5798e-07	5.5855e-07	21.234	7.0567	8.8005	3.1253	5.6788e-07	2.6678	133.248	66.348	21.171	-38.246	39.065	41.690	-39.860	-33.362	72.836	40.165	-36.669	-31.948	-28.875	-24.987	223.644	-28.837	-8191	255	
32452.689	1	1	0	0	0.26856	0.23448	0.15697	0.10269	0.16397	0.19818	0.079686	0.16625	0.29998	0.15199	0.26807	0.12269	0.26799	0.22751	0.31064	0.21583	-2.4875	-2.7979	-3.0646	-2.7625	-3.0875	-3.2313	-2.8146	-2.9958	-2.9292	-2.8	-3.0896	-2.8833	-3.15	-3.1729	-2.8979	-3.25	272.208	286.295	130.937	4.330	-48.446	222.860	184.581	304.157	9.909	233.988	168.461	119.722	272.649	268.621	-2.216	89.725	1.0278e-05	7.2321e-05	2.2158e-06	68.003	8.092e-07	5.6273e-07	54.673	21.042	6.3864e-07	1.5183e-07	17.357	5.6544	7.2159	2.5771	5.0717e-08	2.1635	5.3269e-05	5.0263e-05	1.3923e-05	81.593	5.5158e-07	5.5001e-07	66.882	25.366	5.5864e-07	5.5917e-07	21.245	7.0001	8.7794	3.1315	5.6945e-07	2.6782	138.331	11.386	242.960	-38.523	170.768	66.895	-39.897	-33.425	248.904	-43.027	-36.163	-32.057	-29.235	-24.864	125.692	-28.256	-8191	255	
32452.785	1	1	0	0	0.076494	0.15361	0.15912	0.11653	0.27605	0.18424	0.11912	0.16637	0.19468	0.3365	0.11396	0.17464	0.19563	0.094382	0.19494	0.13897	-2.4479	-2.7958	-3.1	-2.9625	-2.9479	-3.3354	-2.8208	-2.9292	-2.9792	-2.7542	-3.1375	-3.0625	-2.8167	-3.1146	-2.8542	-2.9062	274.524	16.870	294.624	138.398	-13.925	38.791	-20.451	205.022	69.096	-38.944	18.097	220.262	-5.361	159.357	135.860	-11.828	1.103e-05	8.8808e-05	2.4042e-05	67.703	3.67e-07	1.1056e-06	54.686	21.075	8.2424e-07	2.7519e-07	17.283	5.6349	7.133	2.5484	4.0869e-07	2.1346	5.3768e-05	5.3926e-05	1.4e-05	81.383	5.5923e-07	5.445e-07	66.532	25.331	5.5315e-07	5.7107e-07	21.14	6.9748	8.738	3.1127	5.6535e-07	2.6379	150.171	130.190	75.752	-38.326	121.618	48.191	-39.881	-33.498	-22.794	150.170	-36.373	-31.924	-29.392	-24.455	151.108	-28.431	-8191	255	
32452.883	1	1	0	0	0.20573	0.20258	0.10704	0.11532	0.26423	0.20964	0.17633	0.1764	0.28592	0.21695	0.086787	0.21672	0.19282	0.13665	0.16623	0.2405	-2.6833	-2.8229	-2.9604	-3.025	-2.8167	-3.0792	-2.8312	-3.0042	-2.9646	-2.6521	-3.1667	-2.8917	-2.8979	-3.0292	-2.8417	-2.8792	-42.903	32.577	225.691	-32.158	-22.973	171.517	-24.276	122.845	6.341	-45.946	282.580	-24.914	30.839	2.693	167.139	234.137	1.1954e-05	9.6424e-05	2.4589e-06	67.826	5.9689e-07	2.9822e-07	54.928	20.997	4.697e-07	4.6091e-07	17.368	5.5488	7.1404	2.5343	5.6546e-07	2.1328	4.8873e-05	5.5096e-05	1.4198e-05	81.183	5.5971e-07	5.513e-07	66.546	25.222	5.5651e-07	5.6133e-07	21.176	6.9147	8.7123	3.0948	5.6974e-07	2.643	181.684	88.843	-44.437	-38.643	78.096	240.037	-39.868	-33.363	256.565	179.663	-36.018	-31.957	-29.280	-24.861	121.691	-27.800	-8191	255	
32452.979	1	1	0	0	0.10366	0.059415	0.22427	0.089292	0.15141	0.18	0.15104	0.15309	0.074827	0.18428	0.020514	0.23763	0.099192	0.052176	0.09765	0.21317	-2.6937	-2.775	-3.0458	-2.9938	-2.8396	-3.0729	-2.9375	-2.7979	-3.1937	-2.8854	-2.9646	-3.0729	-2.7958	-3.1771	-2.9146	-2.9396	63.008	17.309	196.344	15.946	270.231	301.080	219.418	80.180	220.857	308.461	65.188	162.423	190.597	81.093	275.626	99.186	9.4202e-06	9.5536e-05	8.4794e-06	67.493	2.5408e-07	7.9314e-07	54.34	20.916	6.8301e-07	4.1565e-07	17.442	5.629	7.1787	2.5458	6.2598e-07	2.1197	4.9258e-05	5.9228e-05	1.4079e-05	81.17	5.5747e-07	5.5259e-07	66.238	25.205	5.4964e-07	5.6172e-07	21.104	6.9512	8.7251	3.0984	5.6158e-07	2.638	176.823	135.126	62.011	-38.039	86.051	49.938	-39.745	-33.163	-34.353	175.702	-36.431	-32.505	-29.178	-24.885	-7.025	-27.876	-8191	255	
32453.074	1	1	0	0	0.099132	0.053062	0.055209	0.24162	0.31849	0.45568	0.095085	0.3081	0.059387	0.09585	0.17389	0.29043	0.12119	0.042779	0.14099	0.071134	-2.5979	-2.9	-3.0438	-3.0083	-2.8187	-3.2	-2.8563	-2.8896	-3.2479	-2.8417	-3.0729	-2.9708	-2.7521	-3.1396	-2.9479	-2.9042	108.931	-33.274	289.937	49.393	127.680	239.137	20.718	84.340	238.264	59.305	1.895	268.466	226.144	111.323	51.841	242.135	1.2062e-05	3.388e-05	2.7617e-05	67.705	4.7655e-07	9.1373e-07	54.937	20.966	2.5556e-07	7.7437e-07	17.086	5.5814	7.1502	2.5327	8.5849e-07	2.1118	4.7534e-05	5.6485e-05	1.3914e-05	81.116	5.6075e-07	5.4766e-07	66.418	25.191	5.4391e-07	5.6157e-07	20.988	6.8868	8.7409	3.0767	5.4608e-07	2.6182	173.756	115.990	26.592	-38.400	122.759	27.836	-40.152	-33.502	57.429	-15.991	-36.552	-31.762	-29.157	-24.424	112.544	-28.447	-8191	255	
32453.172	1	1	0	0	0.18549	0.086498	0.12126	0.083596	0.094661	0.12967	0.2577	0.15945	0.25637	0.14839	0.047133	0.12532	0.018343	0.13583	0.11815	0.087827	-2.8208	-2.7667	-3.0521	-3.0604	-2.8521	-3.1542	-2.9354	-2.8292	-3.1271	-3.0021	-3	-3.2125	-2.8063	-3.0625	-2.9854	-2.8542	189.238	154.606	-35.184	57.134	168.388	146.404	83.427	204.918	236.946	114.878	110.101	-6.347	133.533	156.244	110.910	5.238	7.305e-06	5.5161e-06	1.389e-05	67.676	2.5336e-07	9.8546e-07	54.166	20.889	2.3799e-07	4.4234e-07	17.186	5.5072	7.0846	2.534	3.7611e-07	2.1156	4.8467e-05	5.8965e-05	1.3947e-05	80.977	5.5519e-07	5.5115e-07	65.888	25.101	5.5419e-07	5.5937e-07	20.9	6.8159	8.6942	3.0588	5.5624e-07	2.6023	190.784	282.091	24.990	-38.345	-26.990	-39.345	-39.505	-33.668	191.690	117.959	-36.322	-32.513	-29.292	-24.877	70.142	-28.237	-8191	255	
32453.268	1	1	0	0	0.24481	0.24793	0.27058	0.078229	0.066308	0.10179	0.08107	0.17246	0.14755	0.087326	0.094232	0.11114	0.056355	0.006478	0.26183	0.17145	-2.6792	-2.7438	-2.8	-2.9938	-2.8479	-3.0333	-3.0271	-2.6854	-3.1104	-2.6875	-2.8187	-3.1542	-2.675	-3.1125	-3.1625	-2.6292	101.704	150.459	259.137	34.164	-46.644	18.077	246.168	272.926	45.675	-0.759	303.683	250.537	61.372	293.804	107.793	276.381	1.5671e-05	1.6012e-05	1.2516e-05	67.766	1.9256e-07	6.7335e-07	54.477	20.84	3.8934e-07	4.2854e-07	17.076	5.5213	7.0864	2.5148	3.7899e-07	2.1034	4.8224e-05	5.656e-05	1.414e-05	81.026	5.5419e-07	5.5417e-07	65.991	25.108	5.4523e-07	5.5735e-07	20.95	6.8261	8.646	3.0451	5.4517e-07	2.6099	194.163	77.850	-16.992	-38.569	-2.324	53.116	-39.538	-33.580	196.335	242.747	-36.465	-32.576	-29.252	-24.828	57.982	-28.639	-8191	255	
32453.389	1	1	0	0	0.14985	0.055295	0.14789	0.29963	0.15591	0.24157	0.29361	0.03265	0.38596	0.32351	0.27969	0.19247	0.080432	0.10503	0.25018	0.13681	-2.7104	-2.9042	-2.6667	-3.2292	-2.8187	-2.8521	-3.1083	-2.7979	-3.1104	-3.0042	-2.8625	-3.2	-2.6729	-2.8792	-3.0354	-2.8438	269.955	-16.162	112.057	56.815	154.384	-4.164	33.575	199.749	295.817	56.260	173.013	176.133	271.891	94.675	-36.308	22.289	1.1076e-05	7.5388e-05	2.6793e-05	67.412	7.4817e-07	4.1693e-07	54.889	20.769	1.0147e-07	1.1741e-07	17.18	5.529	7.0355	2.4953	3.5768e-07	2.1021	4.8455e-05	5.9683e-05	1.4077e-05	80.885	5.6241e-07	5.5781e-07	66.091	25.054	5.4841e-07	5.538e-07	21.021	6.7988	8.6298	3.0301	5.4913e-07	2.5912	128.255	-15.531	52.706	-38.502	112.210	76.758	-40.125	-33.263	93.559	277.000	-36.241	-31.827	-29.200	-25.028	220.512	-27.943	-8191	255	
32453.484	1	1	0	0	0.04058	0.030983	0.080377	0.035704	0.19303	0.27964	0.23312	0.15941	0.11715	0.058008	0.17031	0.11617	0.11231	0.15032	0.087249	0.17689	-2.8646	-3.0042	-2.9354	-3.1125	-2.8896	-2.9771	-3.1875	-2.7833	-3.0062	-3.1937	-2.8646	-3.0875	-2.9104	-3.0167	-3.1188	-2.8438	137.114	292.548	-11.854	124.656	162.607	232.591	105.823	248.880	25.328	-24.890	39.666	37.807	65.911	-9.988	4.305	133.282	1.3054e-05	3.3334e-05	1.7729e-05	67.791	3.8602e-07	5.6777e-07	54.742	20.751	1.7505e-07	9.2342e-07	17.153	5.3544	6.9484	2.4636	1.9736e-07	2.0591	4.9003e-05	5.5596e-05	1.4102e-05	81.508	5.4882e-07	5.4598e-07	66.199	25.034	5.4523e-07	5.4517e-07	20.861	6.6968	8.5236	2.9956	5.5667e-07	2.5498	180.003	77.040	-9.139	-38.346	174.956	-8.418	-39.639	-33.472	142.697	72.615	-36.889	-32.031	-29.330	-25.082	75.484	-28.221	-8191	255	
32453.578	1	1	0	0	0.092483	0.055559	0.1688	0.029675	0.24458	0.13563	0.20954	0.12037	0.22673	0.041667	0.20287	0.15509	0.069374	0.14244	0.31498	0.061567	-2.6146	-2.8854	-2.6604	-3.1646	-2.8438	-2.9271	-3.0146	-2.7292	-3.2521	-3.0458	-2.8208	-3.1375	-2.7562	-2.9125	-3.2208	-2.9625	-8.834	-17.324	15.042	199.289	-42.954	282.131	162.797	23.183	51.379	-48.014	233.571	-50.241	228.562	18.916	3.600	110.277	8.4149e-06	5.0332e-05	2.7435e-05	67.882	4.167e-07	4.0363e-07	54.73	20.665	3.8847e-07	3.3445e-07	17.02	5.3851	7.0098	2.46	1.223e-07	2.062	4.8731e-05	5.4159e-05	1.4939e-05	81.405	5.5894e-07	5.6002e-07	66.069	24.984	5.4945e-07	5.5054e-07	20.769	6.6614	8.5559	2.9878	5.549e-07	2.5432	98.718	-20.235	132.923	-38.607	76.753	36.561	-40.066	-33.405	1.589	114.767	-37.071	-31.900	-29.438	-24.878	80.224	-27.965	-8191	255	
#DATA ENDS
