BOXY.EXE: ISS Imagent and Oximeter Data Acquisition Program Version 0.80
Ascii Record File

#ACQ INFORMATION
2  Detector Channels 
16  External MUX Channels 
1  Auxiliary Channels 
5000  Waveform (CCF) Frequency (Hz)
1  Waveforms Skipped 
30  Waveforms Averaged 
1  Cycles Averaged 
16  Acquisitions per Waveform 
10.0806  Updata Rate (Hz) 

#FILE INFORMATION
TRUE -- External MUX Channel results are PARSED.
FALSE -- AC DC and Phase are NOT grouped.
TRUE -- Companion Program Settings File CREATED.
FALSE -- AC data not excluded
FALSE -- DC data not excluded
FALSE -- Phase data not excluded
FALSE -- Auxillary Chn. data not excluded
Tab delimiters

#CALIBRATION STATE
TRUE -- Waveform Calibration Values APPLIED.


#AUX CALIBRATION VALUES
Val Type	aux-1	

Term	1.0000e+00	
Factor	0.0000e+00	


#WF CALIBRATION VALUES
A = Detector Channel
Val Type	A-AC1	A-AC2	A-AC3	A-AC4	A-AC5	A-AC6	A-AC7	A-AC8	A-AC9	A-AC10	A-AC11	A-AC12	A-AC13	A-AC14	A-AC15	A-AC16	A-DC1	A-DC2	A-DC3	A-DC4	A-DC5	A-DC6	A-DC7	A-DC8	A-DC9	A-DC10	A-DC11	A-DC12	A-DC13	A-DC14	A-DC15	A-DC16	A-Ph1	A-Ph2	A-Ph3	A-Ph4	A-Ph5	A-Ph6	A-Ph7	A-Ph8	A-Ph9	A-Ph10	A-Ph11	A-Ph12	A-Ph13	A-Ph14	A-Ph15	A-Ph16	

Term	0.00000e+00	0.00000e+00	0.00000e+00	0.00000e+00	0.00000e+00	0.00000e+00	0.00000e+00	0.00000e+00	0.00000e+00	0.00000e+00	0.00000e+00	0.00000e+00	0.00000e+00	0.00000e+00	0.00000e+00	0.00000e+00	0.00000e+00	0.00000e+00	0.00000e+00	0.00000e+00	0.00000e+00	0.00000e+00	0.00000e+00	0.00000e+00	0.00000e+00	0.00000e+00	0.00000e+00	0.00000e+00	0.00000e+00	0.00000e+00	0.00000e+00	0.00000e+00	0.00000e+00	0.00000e+00	0.00000e+00	0.00000e+00	0.00000e+00	0.00000e+00	0.00000e+00	0.00000e+00	0.00000e+00	0.00000e+00	0.00000e+00	0.00000e+00	0.00000e+00	0.00000e+00	0.00000e+00	0.00000e+00	
Factor	1.00000e+00	1.00000e+00	1.00000e+00	1.00000e+00	1.00000e+00	1.00000e+00	1.00000e+00	1.00000e+00	1.00000e+00	1.00000e+00	1.00000e+00	1.00000e+00	1.00000e+00	1.00000e+00	1.00000e+00	1.00000e+00	1.00000e+00	1.00000e+00	1.00000e+00	1.00000e+00	1.00000e+00	1.00000e+00	1.00000e+00	1.00000e+00	1.00000e+00	1.00000e+00	1.00000e+00	1.00000e+00	1.00000e+00	1.00000e+00	1.00000e+00	1.00000e+00	X	X	X	X	X	X	X	X	X	X	X	X	X	X	X	X	

B = Detector Channel
Val Type	B-AC1	B-AC2	B-AC3	B-AC4	B-AC5	B-AC6	B-AC7	B-AC8	B-AC9	B-AC10	B-AC11	B-AC12	B-AC13	B-AC14	B-AC15	B-AC16	B-DC1	B-DC2	B-DC3	B-DC4	B-DC5	B-DC6	B-DC7	B-DC8	B-DC9	B-DC10	B-DC11	B-DC12	B-DC13	B-DC14	B-DC15	B-DC16	B-Ph1	B-Ph2	B-Ph3	B-Ph4	B-Ph5	B-Ph6	B-Ph7	B-Ph8	B-Ph9	B-Ph10	B-Ph11	B-Ph12	B-Ph13	B-Ph14	B-Ph15	B-Ph16	

Term	0.00000e+00	0.00000e+00	0.00000e+00	0.00000e+00	0.00000e+00	0.00000e+00	0.00000e+00	0.00000e+00	0.00000e+00	0.00000e+00	0.00000e+00	0.00000e+00	0.00000e+00	0.00000e+00	0.00000e+00	0.00000e+00	0.00000e+00	0.00000e+00	0.00000e+00	0.00000e+00	0.00000e+00	0.00000e+00	0.00000e+00	0.00000e+00	0.00000e+00	0.00000e+00	0.00000e+00	0.00000e+00	0.00000e+00	0.00000e+00	0.00000e+00	0.00000e+00	5.86631e+01	-1.56400e+02	-1.26551e+02	-1.83880e+02	-1.09246e+02	-7.56946e+01	-1.56632e+02	-1.62015e+02	-4.97451e+01	-9.07007e+01	-1.74091e+02	-1.74047e+02	-1.85978e+02	-1.78374e+02	-8.62442e+01	-1.51155e+02	
Factor	5.26311e-05	1.61735e-04	4.04003e-05	1.79766e-01	1.77941e-06	1.50208e-06	1.73528e-01	5.90053e-02	1.98371e-06	1.52351e-06	1.02683e-01	2.97751e-02	5.44086e-02	8.92468e-03	1.82445e-06	1.29180e-02	1.91554e-06	2.01426e-06	5.61593e-07	8.71805e-02	2.19587e-08	2.21199e-08	7.97260e-02	2.86352e-02	2.18545e-08	2.20121e-08	4.81154e-02	1.39628e-02	2.54592e-02	4.34647e-03	2.18729e-08	6.10577e-03	X	X	X	X	X	X	X	X	X	X	X	X	X	X	X	X	



#DISTANCE SETTINGS
A = Detector Channel
A-1	A-2	A-3	A-4	A-5	A-6	A-7	A-8	A-9	A-10	A-11	A-12	A-13	A-14	A-15	A-16	

2.5000e+00	3.0000e+00	2.5000e+00	3.0000e+00	2.0000e+00	3.0000e+00	1.5000e+00	3.0000e+00	3.0000e+00	3.0000e+00	3.0000e+00	3.0000e+00	3.0000e+00	3.0000e+00	1.5000e+00	3.0000e+00	

B = Detector Channel
B-1	B-2	B-3	B-4	B-5	B-6	B-7	B-8	B-9	B-10	B-11	B-12	B-13	B-14	B-15	B-16	

1.0000e+01	1.0000e+01	1.0000e+01	1.4400e+00	1.0000e+01	1.0000e+01	1.5100e+00	1.9400e+00	1.0000e+01	1.0000e+01	1.9900e+00	2.4900e+00	2.4100e+00	2.9000e+00	1.0000e+01	2.9800e+00	




#DATA BEGINS
time	group	step	mark	flag	A-AC1	A-AC2	A-AC3	A-AC4	A-AC5	A-AC6	A-AC7	A-AC8	A-AC9	A-AC10	A-AC11	A-AC12	A-AC13	A-AC14	A-AC15	A-AC16	A-DC1	A-DC2	A-DC3	A-DC4	A-DC5	A-DC6	A-DC7	A-DC8	A-DC9	A-DC10	A-DC11	A-DC12	A-DC13	A-DC14	A-DC15	A-DC16	A-Ph1	A-Ph2	A-Ph3	A-Ph4	A-Ph5	A-Ph6	A-Ph7	A-Ph8	A-Ph9	A-Ph10	A-Ph11	A-Ph12	A-Ph13	A-Ph14	A-Ph15	A-Ph16	B-AC1	B-AC2	B-AC3	B-AC4	B-AC5	B-AC6	B-AC7	B-AC8	B-AC9	B-AC10	B-AC11	B-AC12	B-AC13	B-AC14	B-AC15	B-AC16	B-DC1	B-DC2	B-DC3	B-DC4	B-DC5	B-DC6	B-DC7	B-DC8	B-DC9	B-DC10	B-DC11	B-DC12	B-DC13	B-DC14	B-DC15	B-DC16	B-Ph1	B-Ph2	B-Ph3	B-Ph4	B-Ph5	B-Ph6	B-Ph7	B-Ph8	B-Ph9	B-Ph10	B-Ph11	B-Ph12	B-Ph13	B-Ph14	B-Ph15	B-Ph16	aux-1	digaux	

517.694	1	1	0	256	0.10068	0.084369	0.16132	0.24301	0.048411	0.29469	0.14214	0.21292	0.08272	0.050604	0.17076	0.26213	0.11035	0.15154	0.39416	0.34153	-3.125	-3.9792	-3.6708	-3.7583	-3.9708	-3.5146	-4.0333	-3.9625	-3.5375	-3.8417	-3.8729	-3.75	-3.8896	-3.4562	-3.8229	-3.8625	108.632	115.277	-96.535	226.259	-51.695	41.354	157.423	152.035	-112.322	31.379	200.336	-83.619	76.554	207.812	15.474	236.285	0.00030242	0.00047498	9.8229e-05	1093.3	2.6218e-06	4.3261e-06	1160.4	228.14	5.2378e-06	2.7045e-06	284.73	79.513	61.107	17.978	3.7976e-06	25.615	0.00011964	0.0001058	2.6829e-05	1062.3	1.2398e-06	1.1144e-06	1132.3	221.8	1.2051e-06	1.105e-06	276.79	78.109	59.039	17.904	1.0391e-06	25.448	28.279	-46.004	-9.770	-103.530	39.262	3.179	-103.584	-96.361	-54.982	-26.939	-96.535	-90.600	-89.974	-82.702	15.503	-83.556	-8191	255	
517.766	1	1	0	0	0.087567	0.097884	0.076296	0.38444	0.1459	0.074487	0.19127	0.2326	0.0023425	0.12003	0.19698	0.18949	0.14963	0.20503	0.11103	0.16403	-3.1917	-3.9021	-3.6125	-3.7438	-3.8563	-3.5333	-3.7188	-3.8792	-3.5583	-3.8708	-3.7104	-3.6354	-3.775	-3.5375	-3.675	-3.9083	136.363	219.444	0.217	202.516	86.637	105.584	138.958	187.282	22.357	-58.984	132.883	33.634	64.488	-102.883	83.198	97.398	0.00029429	0.00036557	8.0827e-05	1095.9	2.5887e-06	4.8062e-06	1163.2	226.99	3.5136e-06	1.2927e-06	283.76	79.055	61.529	17.934	1.9322e-06	25.772	0.00011794	9.83e-05	2.5179e-05	1061.1	1.2307e-06	1.0437e-06	1130.5	221.84	1.2004e-06	1.0582e-06	276.83	77.957	59.05	17.904	1.0087e-06	25.515	26.135	-56.170	-8.717	-103.513	-52.572	49.854	-103.745	-96.555	22.557	17.143	-96.781	-90.248	-89.920	-82.902	39.043	-83.523	-8191	255	
517.862	1	1	0	0	0.18986	0.096404	0.10009	0.20299	0.12168	0.16687	0.041433	0.16421	0.19568	0.17228	0.11943	0.096684	0.20102	0.047042	0.13834	0.02852	-3.1333	-3.6979	-3.7208	-3.6625	-3.8875	-3.5625	-3.9062	-3.8792	-3.5812	-3.8729	-3.725	-3.4646	-3.8208	-3.7208	-3.7438	-3.9125	-76.529	-79.034	-16.364	221.705	-77.812	63.458	209.094	-69.422	83.185	43.328	29.257	154.034	50.467	133.391	204.081	132.798	0.0003345	0.00031538	6.5817e-06	1094.6	1.3358e-06	1.9838e-06	1156.8	228.05	2.6805e-06	1.9329e-06	283.94	79.323	60.925	17.984	2.2624e-06	25.575	0.00011547	9.579e-05	2.5341e-05	1060.3	1.1762e-06	1.048e-06	1127.6	221.93	1.1577e-06	1.0547e-06	276.8	78.142	58.834	17.876	9.8118e-07	25.414	16.608	-63.777	-91.664	-103.667	-18.390	-24.283	-103.616	-96.400	2.070	12.643	-96.825	-90.136	-90.299	-82.892	50.761	-83.305	-8191	255	
517.958	1	1	0	0	0.11845	0.13175	0.23271	0.1522	0.18416	0.10895	0.13533	0.28101	0.072567	0.019389	0.11926	0.083334	0.064912	0.094879	0.24293	0.089842	-3.3625	-3.7938	-3.7104	-3.7021	-3.8688	-3.7771	-3.7604	-4.0104	-3.5833	-3.7833	-3.8229	-3.4625	-4.0917	-3.7021	-3.6917	-4.1188	-111.250	-57.800	-91.263	-101.840	220.730	50.434	227.126	230.477	-37.272	153.980	207.173	110.149	156.691	41.893	-28.865	153.870	0.00031708	0.00062188	5.3077e-05	1084.6	2.3971e-06	1.3501e-06	1162.4	226.64	5.9174e-07	3.7886e-06	283.75	79.492	61.198	18.098	4.841e-06	25.603	0.00011166	9.313e-05	2.5464e-05	1056.4	1.1212e-06	9.8378e-07	1128.4	221.62	1.0976e-06	1.005e-06	276.02	78.031	59.001	17.869	1.1115e-06	25.419	30.694	-34.635	-76.353	-103.508	71.712	64.924	-103.519	-96.771	134.914	8.220	-96.866	-90.555	-90.307	-82.550	64.552	-83.556	-8191	255	
518.078	1	1	0	0	0.14896	0.067814	0.13724	0.13918	0.062782	0.3102	0.192	0.18825	0.1569	0.22259	0.092905	0.2069	0.049621	0.19262	0.24114	0.15395	-3	-3.6083	-3.8354	-3.6771	-3.7458	-3.8333	-3.5604	-4.0563	-3.5167	-3.6625	-3.8937	-3.5542	-3.7542	-3.6479	-3.525	-3.9875	69.639	100.801	-105.521	147.075	163.823	22.642	152.848	176.877	-57.964	105.853	228.359	-99.216	179.316	151.136	212.717	-99.547	0.00032137	0.00025169	6.0717e-05	1085.5	2.4971e-06	2.8488e-07	1153.4	226.14	5.9351e-06	1.6007e-06	284.36	78.963	60.519	18.015	3.6264e-06	25.605	0.00010644	9.4683e-05	2.8549e-05	1057.7	1.0983e-06	9.8249e-07	1127.2	221.05	1.1011e-06	9.8344e-07	276	78.023	58.632	17.905	1.1618e-06	25.518	28.111	-21.481	-27.430	-103.429	12.329	241.034	-103.615	-96.825	53.960	60.709	-96.640	-90.652	-90.038	-82.681	-15.674	-83.377	-8191	255	
518.175	1	1	0	0	0.12026	0.15207	0.03839	0.15818	0.18657	0.22699	0.078667	0.051893	0.09828	0.10578	0.093409	0.053926	0.16376	0.27965	0.24063	0.27392	-3.2646	-3.5479	-4.0229	-3.6667	-3.7562	-3.8542	-3.8792	-3.9125	-3.5687	-3.5667	-3.9125	-3.5062	-3.8708	-3.9146	-3.7125	-4.0646	37.162	27.888	120.801	230.569	191.005	50.680	208.455	217.068	107.064	95.881	-110.974	152.433	171.096	-60.247	-60.948	-66.629	0.00035164	0.00027248	8.3018e-05	1087.4	4.8476e-07	6.2483e-07	1147.9	226.74	3.0809e-06	9.7314e-07	284.5	79.143	61.557	17.994	1.5287e-06	25.712	0.00010546	9.2119e-05	2.8957e-05	1058	1.038e-06	9.9489e-07	1124.3	221.1	1.037e-06	9.8609e-07	276.56	77.875	58.888	17.869	1.1442e-06	25.403	20.360	-86.615	-5.684	-103.532	28.238	58.334	-103.615	-96.603	-16.248	30.374	-96.710	-90.338	-90.642	-82.695	60.678	-83.543	-8191	255	
518.271	1	1	0	0	0.26509	0.15382	0.14453	0.094905	0.20251	0.049372	0.15332	0.24315	0.11154	0.11328	0.13625	0.22187	0.131	0.069239	0.09283	0.3101	-3.4688	-3.6417	-3.9292	-3.775	-3.6417	-3.8104	-3.6417	-3.8583	-3.7667	-3.4771	-4	-3.6021	-3.6292	-3.7917	-3.55	-3.925	62.402	-77.081	122.186	180.254	-39.775	163.432	169.010	172.145	109.243	76.420	163.793	186.235	160.758	44.747	103.377	130.888	0.00035453	0.00045306	6.6686e-05	1083.6	5.4191e-07	2.036e-06	1151.4	227.27	6.1577e-06	7.471e-07	282.57	79.565	61.137	18.055	2.0767e-06	25.524	0.00010023	9.1305e-05	2.8155e-05	1052.3	9.9944e-07	9.9636e-07	1121.9	220.76	9.7412e-07	9.9568e-07	275.32	77.943	58.547	17.894	1.0895e-06	25.362	23.309	-31.807	-43.722	-103.559	242.007	-5.597	-103.850	-96.447	14.631	148.483	-96.711	-90.268	-89.812	-82.690	-14.016	-83.387	-8191	255	
518.365	1	1	0	0	0.10949	0.051897	0.21318	0.1782	0.16922	0.12199	0.3497	0.10527	0.13672	0.18897	0.066469	0.27927	0.2217	0.23441	0.058375	0.068999	-3.3063	-3.5458	-3.8521	-3.7792	-3.7021	-3.8625	-3.6167	-3.8729	-3.8146	-3.4979	-3.8333	-3.5958	-3.7042	-3.825	-3.5083	-3.8771	206.680	-33.675	12.911	-75.159	87.107	-30.599	184.978	190.419	95.946	35.312	219.084	-81.377	-79.355	158.986	131.349	-26.461	0.00028938	0.00023638	0.00010647	1080.5	6.2651e-07	4.793e-06	1148.1	226.17	4.1244e-06	1.2866e-06	283.84	79.029	60.901	18.042	1.5924e-06	25.578	9.5553e-05	9.3772e-05	2.7468e-05	1049	9.6014e-07	1.0541e-06	1120.1	219.99	9.2267e-07	1.0318e-06	274.95	77.729	58.5	17.878	1.0118e-06	25.329	36.647	-87.705	-59.646	-103.669	128.852	22.936	-103.675	-96.499	37.469	-21.945	-96.829	-90.040	-89.945	-82.848	47.438	-82.991	-8191	255	
518.461	1	1	0	0	0.32007	0.2092	0.1829	0.046948	0.19608	0.0037072	0.30318	0.070945	0.14726	0.1178	0.18645	0.097541	0.07178	0.12242	0.22136	0.058485	-3.4271	-3.6854	-3.8812	-3.6375	-3.625	-3.8104	-3.6042	-3.9458	-3.8187	-3.6521	-3.7604	-3.725	-3.5208	-3.8917	-3.625	-3.5687	84.949	189.362	140.508	137.812	-75.313	66.800	121.712	125.227	124.885	23.408	93.870	-109.037	221.941	154.248	119.122	4.929	0.00029916	0.00025899	9.3777e-05	1075.6	1.8372e-06	1.7599e-06	1148.6	224.68	3.1817e-06	5.8007e-06	284.23	78.719	60.884	18.016	3.438e-06	25.554	9.3498e-05	9.6319e-05	2.5136e-05	1046.5	9.7515e-07	1.0439e-06	1117.9	219.69	9.5472e-07	1.0691e-06	275.43	77.613	58.595	17.873	9.5429e-07	25.374	27.949	-3.754	7.647	-103.665	-6.154	47.433	-103.553	-96.571	-52.479	9.303	-96.757	-89.992	-90.165	-82.882	26.604	-83.292	-8191	255	
518.559	1	1	0	0	0.084621	0.17403	0.21577	0.28973	0.12147	0.19963	0.32003	0.23792	0.12223	0.040448	0.073514	0.097716	0.15853	0.092759	0.055872	0.25942	-3.4479	-3.4521	-3.9292	-3.8146	-3.6979	-4.0729	-3.6125	-3.725	-3.9	-3.5021	-3.8854	-3.7396	-3.475	-3.9437	-3.6188	-3.6646	-4.567	225.385	12.107	237.022	-75.440	21.982	174.882	206.843	-54.260	-56.245	193.415	171.725	159.154	-16.101	-83.620	-29.303	0.00026935	0.00055469	4.9242e-05	1080.1	2.6034e-06	7.2074e-07	1142.3	225.79	2.2859e-06	2.1691e-06	283.39	79.253	60.894	17.884	3.6629e-06	25.533	9.8395e-05	9.5702e-05	2.5045e-05	1046.2	1.0325e-06	1.0356e-06	1114.6	219.02	1.0244e-06	1.0204e-06	274.11	77.563	58.583	17.822	9.116e-07	25.335	35.366	-24.097	-3.357	-103.521	-18.354	-38.524	-103.455	-96.418	67.865	-5.069	-96.978	-90.325	-89.809	-82.562	36.307	-83.265	-8191	255	
518.678	1	1	0	0	0.12382	0.065679	0.1379	0.1685	0.19684	0.071044	0.22644	0.15603	0.058585	0.21525	0.024899	0.096515	0.17431	0.1782	0.1292	0.32961	-3.5	-3.4625	-3.5625	-3.8438	-3.4833	-3.9146	-3.6896	-3.6333	-4.0312	-3.575	-3.8979	-3.8083	-3.5708	-3.8021	-3.6417	-3.7646	24.741	-38.676	156.048	-107.222	222.049	219.292	193.102	190.990	-19.481	179.547	52.470	-85.180	209.582	166.071	-92.146	-25.029	0.00041783	0.00033416	8.0802e-05	1072.7	8.0909e-07	2.3961e-06	1141.1	224.72	4.0879e-06	5.0906e-06	280.31	79.182	60.764	17.929	5.1774e-06	25.662	0.00010405	9.0297e-05	2.3624e-05	1040.2	1.0666e-06	9.8305e-07	1111.5	218.8	1.0715e-06	9.9788e-07	273.4	77.399	58.347	17.785	8.7979e-07	25.333	21.257	-87.430	-52.017	-103.519	58.482	53.964	-103.521	-96.326	24.099	-9.724	-96.994	-90.264	-89.670	-82.358	4.092	-83.735	-8191	255	
518.774	1	1	0	0	0.029812	0.037752	0.014119	0.11702	0.24429	0.282	0.22068	0.097453	0.23009	0.25131	0.16842	0.074017	0.30784	0.27916	0.051238	0.27629	-3.6229	-3.3667	-3.7333	-3.9271	-3.5646	-3.7479	-3.8792	-3.5375	-3.9083	-3.4437	-3.7292	-3.8438	-3.5229	-3.8875	-3.7521	-3.5167	-54.133	121.501	83.239	-104.442	160.414	-95.471	151.104	-21.025	-0.338	-48.581	-37.869	164.510	203.695	-34.756	-45.421	57.483	0.00026914	3.369e-05	5.868e-05	1070.6	2.2964e-06	3.7012e-07	1135.7	224.52	4.098e-06	3.3519e-06	279.55	78.836	60.343	17.761	2.3998e-06	25.327	0.00010591	8.8153e-05	2.257e-05	1041	1.0671e-06	9.2807e-07	1107.5	219.1	1.0211e-06	9.3616e-07	272.97	77.458	58.183	17.738	8.6516e-07	25.345	13.838	26.495	31.593	-103.387	-4.440	98.376	-103.635	-96.196	-30.727	8.121	-96.444	-90.260	-90.527	-82.682	1.498	-83.490	-8191	255	
518.870	1	1	0	0	0.11977	0.11658	0.16046	0.076128	0.13241	0.11671	0.41539	0.13315	0.061717	0.31389	0.13957	0.089888	0.12786	0.073673	0.045975	0.093658	-3.6125	-3.5125	-3.6	-3.8354	-3.4292	-3.8333	-3.8354	-3.6604	-3.9479	-3.5958	-3.7208	-3.9229	-3.4646	-3.7583	-3.6917	-3.6292	101.588	91.076	-36.355	-89.313	0.279	225.339	166.635	194.267	192.351	182.404	236.707	-102.977	-99.087	-100.515	-1.700	-61.556	0.00038587	0.00049379	0.00011398	1062.1	1.216e-06	4.7937e-06	1133	223.01	1.5815e-06	2.4088e-06	280.03	78.359	60.733	17.965	3.4283e-06	25.51	0.00010387	8.4851e-05	2.1831e-05	1033.2	9.8654e-07	9.0079e-07	1103.4	218.17	9.7749e-07	8.4526e-07	271.99	77.026	58.183	17.777	7.9002e-07	25.254	13.748	-32.450	-61.050	-103.283	-59.745	64.445	-103.796	-96.194	-97.651	12.767	-97.024	-90.179	-90.127	-83.174	3.161	-83.445	-8191	255	
518.991	1	1	0	0	0.2878	0.1444	0.1005	0.28119	0.073496	0.28221	0.15668	0.02883	0.2469	0.12613	0.13204	0.080515	0.11196	0.074411	0.19873	0.092096	-3.4062	-3.6417	-3.55	-3.95	-3.5187	-3.5229	-3.8021	-3.5208	-3.7979	-3.6583	-3.6583	-3.9667	-3.6271	-3.8	-3.8312	-3.4854	-101.850	230.537	136.391	222.146	219.189	204.257	-58.669	2.201	-31.244	141.295	195.439	188.050	-29.493	8.036	35.904	-77.907	0.00029385	0.00027866	4.7458e-05	1062.8	3.4109e-06	3.3307e-06	1121.6	221.64	3.1876e-06	4.4251e-06	280.99	78.59	60.452	17.945	2.5515e-06	25.406	9.1303e-05	7.7855e-05	2.1314e-05	1028.7	9.4784e-07	8.3005e-07	1094	217.36	8.9713e-07	8.3733e-07	271.81	77.051	57.982	17.692	8.3951e-07	25.249	24.225	-36.853	-22.090	-103.415	4.705	51.228	-103.367	-96.381	35.429	22.398	-96.596	-89.987	-90.218	-82.669	2.069	-83.377	-8191	255	
519.063	1	1	0	0	0.19565	0.073944	0.095622	0.2427	0.1533	0.19568	0.32102	0.074889	0.21447	0.24576	0.12762	0.34617	0.28383	0.070016	0.19344	0.21709	-3.425	-3.7104	-3.6625	-4.0771	-3.5646	-3.8583	-3.9917	-3.4729	-3.8625	-3.65	-3.6833	-3.8229	-3.3917	-3.5146	-3.8438	-3.3625	-14.471	-99.824	96.326	147.450	-72.798	143.820	210.393	156.621	79.569	203.271	198.386	-10.898	-16.707	-61.993	32.996	-99.563	0.00041579	0.00039883	3.9828e-05	1057.6	2.7878e-06	3.2801e-06	1120.8	222.63	1.8152e-06	1.5201e-06	278.9	77.76	60.007	17.775	3.4074e-06	25.443	9.1032e-05	7.2538e-05	2.2072e-05	1025.2	9.1206e-07	8.2659e-07	1091	216.6	8.6234e-07	7.5974e-07	270.28	76.704	57.821	17.652	8.7296e-07	25.136	26.800	-40.755	10.755	-103.315	29.413	51.980	-103.305	-96.442	-5.830	-9.666	-96.406	-90.086	-89.796	-82.578	32.598	-83.167	-8191	255	
519.157	1	1	0	0	0.2055	0.30731	0.053654	0.12604	0.08743	0.35257	0.080413	0.16435	0.12279	0.13196	0.21024	0.092437	0.19174	0.12085	0.1489	0.047963	-3.3146	-3.7521	-3.4313	-3.9875	-3.5229	-3.6396	-4.0563	-3.4667	-3.6917	-3.8688	-3.6396	-3.9708	-3.7604	-3.6604	-3.975	-3.4146	180.349	222.926	-82.238	175.376	10.145	215.828	68.850	142.458	223.419	-66.165	161.314	206.636	109.709	146.774	-12.711	113.140	0.00031352	0.00041961	7.2522e-05	1050.1	2.4501e-06	1.5331e-06	1112.5	220.53	3.3438e-06	2.0643e-06	277.86	77.844	59.707	17.884	2.3686e-06	25.143	8.2324e-05	7.0872e-05	2.2434e-05	1017.6	8.4248e-07	7.6194e-07	1086.2	214.7	8.0329e-07	7.5671e-07	268.67	76.361	57.179	17.635	8.7241e-07	25.018	25.978	-34.873	-21.124	-103.266	-26.934	-14.505	-103.275	-96.340	-53.927	3.986	-96.488	-90.314	-89.514	-82.442	-67.081	-83.152	-8191	255	
519.253	1	1	0	0	0.097922	0.23474	0.28986	0.13955	0.30377	0.047462	0.10958	0.27606	0.16727	0.29025	0.09768	0.072842	0.088178	0.055474	0.17046	0.21072	-3.4125	-3.6792	-3.3604	-4.0625	-3.6312	-3.5396	-4.1792	-3.5521	-3.6625	-3.7833	-3.5563	-3.9479	-3.7438	-3.4813	-3.95	-3.5042	184.654	26.226	243.007	207.841	-48.612	42.943	209.579	-110.194	15.682	-59.269	-44.720	90.656	-6.886	-92.232	4.462	179.828	0.00033413	0.00029468	0.00012591	1041.3	2.3064e-06	2.5821e-06	1107	218.98	2.3635e-06	3.8e-06	275.89	77.457	59.727	17.759	2.8468e-06	25.285	8.1047e-05	7.446e-05	2.2322e-05	1010.2	7.9998e-07	7.7968e-07	1077.7	214.22	7.7902e-07	7.9376e-07	268.22	76.283	57.12	17.615	8.74e-07	25.086	37.313	-47.317	-1.585	-103.311	-31.899	18.613	-103.629	-96.326	5.663	31.281	-96.553	-90.255	-90.048	-82.706	14.491	-82.702	-8191	255	
519.349	1	1	0	0	0.21594	0.19008	0.19139	0.022359	0.067835	0.11231	0.25341	0.2413	0.093741	0.21172	0.12433	0.10089	0.11495	0.13725	0.25718	0.2405	-3.3063	-3.95	-3.4188	-3.925	-3.6854	-3.5208	-4.0896	-3.6833	-3.7479	-3.8229	-3.5563	-3.85	-3.7583	-3.5729	-3.9771	-3.5542	104.383	106.480	244.664	159.816	205.314	110.565	204.095	178.484	-96.395	24.930	0.890	74.946	32.852	73.721	186.547	141.972	0.00026179	6.0478e-05	0.00011492	1037.7	1.1658e-06	2.2958e-06	1099.1	220.21	1.4274e-06	3.1784e-06	276.03	77.948	60.013	17.691	4.1058e-06	25.319	7.5911e-05	7.1418e-05	2.1428e-05	1007.6	7.6366e-07	7.8521e-07	1072.4	213.77	7.7788e-07	8.1275e-07	266.94	76.257	57.411	17.604	8.3623e-07	25.076	22.666	25.891	-31.534	-103.405	-10.223	21.795	-103.724	-96.406	-7.354	19.062	-96.655	-90.265	-89.960	-82.659	4.519	-83.215	-8191	255	
519.470	1	1	0	0	0.068024	0.28344	0.14206	0.06297	0.1901	0.35162	0.062111	0.14391	0.24024	0.23491	0.10935	0.26005	0.0052211	0.34859	0.060886	0.066978	-3.1688	-3.8625	-3.4437	-4.1271	-3.75	-3.5771	-4.0292	-3.7833	-3.5458	-3.8438	-3.6854	-3.8833	-3.7812	-3.4833	-3.9	-3.7917	219.793	-10.593	-74.182	-37.872	78.408	132.737	-58.705	113.932	47.817	-86.401	-112.395	181.649	212.217	209.983	123.822	87.577	0.000303	0.00044346	5.8285e-05	1037.1	1.9894e-06	2.193e-06	1099.5	218.77	3.9929e-06	2.6622e-06	275.07	77.733	59.339	17.703	7.3237e-07	25.173	8.1335e-05	7.9878e-05	2.097e-05	1006.2	8.202e-07	9.0332e-07	1072.8	213.85	8.7026e-07	9.661e-07	267.59	76.079	57.031	17.567	8.9829e-07	24.969	23.443	7.245	-59.275	-103.608	-9.402	123.601	-103.372	-96.319	32.811	-98.939	-96.877	-90.538	-90.632	-82.743	-14.358	-82.735	-8191	255	
519.566	1	1	0	0	0.15051	0.13057	0.046249	0.24031	0.10368	0.12239	0.22691	0.11832	0.14496	0.25358	0.13346	0.22677	0.14518	0.095592	0.02157	0.27372	-3.1292	-3.8083	-3.3708	-3.65	-3.9062	-3.5208	-3.9125	-3.6917	-3.4083	-3.8708	-3.8042	-3.5938	-3.8708	-3.4917	-3.8604	-3.8479	217.920	74.869	47.617	168.229	56.493	-90.742	183.822	244.464	105.235	-43.361	131.228	240.260	-51.260	175.265	-101.006	66.458	0.00032799	0.00025971	4.8634e-05	1040.1	3.6026e-06	2.9527e-06	1095.8	219.23	2.2618e-06	2.3794e-06	275.14	77.497	59.475	17.82	2.6774e-06	25.108	9.0892e-05	8.8803e-05	2.25e-05	1006.3	9.1993e-07	9.3968e-07	1072.4	213.8	9.0614e-07	9.0552e-07	267.21	76.093	57.321	17.637	8.6689e-07	24.891	24.385	-0.180	-74.397	-103.500	-25.593	17.464	-103.523	-96.369	19.300	58.333	-96.449	-89.901	-89.728	-82.947	36.524	-83.718	-8191	255	
519.662	1	1	0	0	0.079131	0.25475	0.072152	0.011404	0.11414	0.17079	0.16041	0.15735	0.14852	0.13934	0.24528	0.11597	0.0076581	0.21195	0.075816	0.16648	-3.1063	-3.8854	-3.5354	-3.7021	-3.9104	-3.5854	-3.8708	-3.8792	-3.5146	-3.9625	-3.7292	-3.8146	-3.9917	-3.4729	-3.75	-3.9	-54.219	138.826	139.323	-3.265	213.588	39.108	204.173	217.789	-11.727	54.249	245.791	124.942	-74.488	203.314	-75.143	209.014	0.00036309	0.0004132	7.1417e-05	1037.7	1.3373e-06	1.7337e-06	1105.7	218.58	4.1019e-06	1.379e-06	274.43	77.14	59.607	17.731	3.453e-06	25.185	9.6388e-05	8.42e-05	2.1374e-05	1004.8	9.6705e-07	9.2226e-07	1072.8	213.05	9.7262e-07	8.9236e-07	266.73	75.967	57.221	17.551	8.0971e-07	24.919	17.545	-19.454	16.652	-103.381	-57.671	-19.347	-103.777	-96.087	88.317	19.720	-96.716	-90.217	-89.767	-82.357	-43.496	-82.982	-8191	255	
519.757	1	1	0	0	0.34577	0.16895	0.14576	0.087238	0.013271	0.24206	0.21375	0.14246	0.012009	0.16718	0.063299	0.049682	0.16025	0.12877	0.234	0.086107	-3.1958	-3.8312	-3.6042	-3.7417	-3.8479	-3.5104	-4.0083	-3.8292	-3.5438	-3.9458	-3.7417	-3.7125	-3.8604	-3.6188	-3.75	-3.9604	39.245	31.536	117.474	244.364	240.404	22.626	226.585	243.004	93.634	-41.620	82.594	-40.590	-38.880	203.972	-47.225	202.758	0.00034318	0.00013143	4.4968e-05	1037.3	1.7999e-06	2.1014e-06	1098.7	217.79	3.3123e-06	3.5473e-06	275.78	77.123	59.14	17.658	3.6006e-06	25.227	9.7405e-05	7.9303e-05	2.0001e-05	1004	9.7872e-07	8.4908e-07	1070.1	213.29	9.6064e-07	8.3096e-07	267.07	75.913	57.095	17.502	7.789e-07	24.918	21.321	-55.645	-24.724	-103.322	-96.085	13.754	-103.527	-96.267	11.134	23.047	-97.044	-90.166	-90.102	-82.497	14.080	-83.664	-8191	255	
519.853	1	1	0	0	0.1301	0.19738	0.20259	0.068471	0.071095	0.078362	0.20233	0.057621	0.13356	0.14518	0.14181	0.095884	0.04861	0.10159	0.20842	0.0902	-3.1333	-3.8646	-3.7812	-3.6937	-3.8625	-3.5667	-3.8583	-3.9625	-3.4792	-3.9271	-3.7188	-3.6417	-3.9667	-3.7146	-3.5375	-4.0125	34.869	176.446	-43.132	-58.640	-17.021	-9.759	203.357	-16.839	115.419	208.257	125.773	-43.795	-32.092	235.092	5.983	88.005	0.00030264	0.00050274	4.6546e-05	1033.9	1.378e-06	1.0736e-06	1101.2	218.46	3.5892e-06	2.8823e-06	273.87	77.002	59.119	17.604	2.1287e-06	25.219	9.2529e-05	7.6584e-05	1.9144e-05	1003.2	9.4912e-07	8.0074e-07	1068.6	212.92	9.331e-07	8.0193e-07	266.56	75.882	57.032	17.509	7.769e-07	24.926	32.447	-51.556	-3.481	-103.588	42.443	82.218	-103.557	-96.374	37.327	-20.112	-96.691	-90.659	-90.204	-82.381	20.463	-83.000	-8191	255	
519.951	1	1	0	0	0.026892	0.084871	0.2219	0.24161	0.12641	0.14351	0.12474	0.3505	0.27762	0.1314	0.098328	0.26324	0.1883	0.14159	0.2146	0.18574	-3.0292	-3.7687	-3.7313	-3.7167	-3.8292	-3.4917	-3.6625	-3.9604	-3.3708	-3.8208	-3.9354	-3.4104	-3.8937	-3.6417	-3.5625	-3.9208	-50.688	-105.107	-50.806	206.707	158.347	-52.308	67.571	215.582	142.427	38.644	50.787	38.501	58.578	83.364	-105.884	203.620	0.00035009	0.00034978	6.2222e-05	1033.2	2.9463e-06	3.7311e-06	1097.5	218.33	3.7387e-06	4.4673e-06	274.56	76.728	59.273	17.616	2.4873e-06	25.005	9.1192e-05	7.5182e-05	1.9818e-05	1004.2	8.7203e-07	7.6083e-07	1067.9	213.15	8.9836e-07	8.0633e-07	266.58	75.632	56.954	17.434	8.3919e-07	24.85	37.502	-54.178	-12.291	-103.567	-17.264	24.181	-103.642	-96.528	48.442	12.161	-96.583	-90.115	-90.494	-82.412	-28.294	-83.239	-8191	255	
520.070	1	1	0	0	0.035756	0.030833	0.1993	0.075378	0.09444	0.19281	0.018715	0.18874	0.10458	0.13983	0.24019	0.29127	0.16785	0.11041	0.21772	0.068208	-3.2104	-3.8208	-3.7	-3.5896	-3.9792	-3.5812	-3.6667	-3.9875	-3.3792	-3.7438	-3.8312	-3.4958	-3.6708	-3.7979	-3.6	-3.9104	87.549	-97.521	-30.912	179.340	159.734	188.232	188.763	199.670	59.240	192.247	214.730	-103.651	237.814	193.320	105.058	75.218	0.00034071	0.00020597	1.7327e-05	1033.7	2.6519e-06	2.3512e-06	1094.3	217.79	2.5748e-06	1.1123e-06	275.28	77.44	59.118	17.631	2.7608e-06	25.041	8.7277e-05	7.1779e-05	2.1123e-05	1002.8	8.7652e-07	7.7857e-07	1065.4	212.92	8.592e-07	7.6533e-07	266.01	75.612	56.812	17.458	9.0973e-07	24.82	21.191	-14.428	-84.720	-103.518	45.221	-18.915	-103.474	-96.493	-25.030	18.782	-96.601	-89.984	-90.236	-82.657	-1.800	-83.201	-8191	255	
520.166	1	1	0	0	0.074854	0.24213	0.075363	0.16854	0.079807	0.117	0.08375	0.05046	0.2092	0.069405	0.1926	0.24889	0.072218	0.1676	0.057502	0.31926	-3.05	-3.7313	-3.9313	-3.6646	-3.6292	-3.6583	-3.7562	-3.9958	-3.4625	-3.6958	-3.9146	-3.7104	-3.7313	-3.6937	-3.55	-3.9646	239.291	93.425	78.752	-95.702	124.688	-84.320	205.297	-83.276	236.091	-13.146	12.403	168.872	221.776	18.420	153.328	214.099	0.0002802	0.00034741	5.2313e-05	1035.8	1.9218e-06	1.0429e-06	1096.1	218.86	2.3607e-06	1.9293e-06	274.54	76.972	59.047	17.533	2.0269e-06	25.123	8.6511e-05	7.1737e-05	2.1952e-05	1003.8	8.8525e-07	7.888e-07	1067.2	213.15	8.5155e-07	7.906e-07	266.17	75.641	56.857	17.422	9.4295e-07	24.895	29.788	-67.877	-36.886	-103.417	-1.205	227.131	-103.562	-96.622	-0.918	58.650	-96.401	-90.061	-90.245	-82.888	14.045	-83.247	-8191	255	
520.262	1	1	0	0	0.093999	0.25952	0.15661	0.11425	0.073919	0.23502	0.15646	0.2639	0.083395	0.16567	0.098347	0.12743	0.07311	0.17411	0.0098183	0.35606	-3.3167	-3.3563	-3.8479	-3.4875	-3.7458	-4.0771	-3.6188	-3.7917	-3.5687	-3.4792	-3.9875	-3.6646	-3.6583	-3.7625	-3.45	-3.8708	153.049	23.890	-65.291	242.838	67.380	63.952	115.381	181.179	178.145	95.768	150.522	176.981	-112.133	156.109	169.096	164.026	0.00028548	0.00018287	8.0236e-05	1032.8	1.781e-06	1.3921e-06	1095.5	218.17	1.075e-06	7.0977e-07	274.19	77.005	59.718	17.705	5.3548e-06	25.047	8.3861e-05	7.3227e-05	2.294e-05	1001.7	8.493e-07	7.8701e-07	1068.3	212.8	8.3156e-07	8.1752e-07	266.3	75.673	56.978	17.509	9.4623e-07	24.822	26.256	32.695	-12.352	-103.463	185.746	2.964	-103.958	-96.448	-60.384	9.027	-96.441	-90.240	-89.496	-82.893	10.343	-83.274	-8191	255	
520.358	1	1	0	0	0.10137	0.061705	0.16527	0.17576	0.098788	0.21343	0.24994	0.085225	0.15076	0.021727	0.16921	0.081928	0.24038	0.086261	0.11203	0.44206	-3.3125	-3.3583	-3.8146	-3.5104	-3.6562	-3.7729	-3.5292	-4.0604	-3.6354	-3.5646	-4.1021	-3.7104	-3.7042	-3.8417	-3.4188	-3.9062	9.717	38.770	91.065	102.398	12.492	33.532	195.860	-94.393	187.725	102.807	146.784	-94.792	-3.470	143.007	109.471	157.554	0.00033433	0.00027366	9.0742e-05	1029.6	4.4017e-07	1.5791e-06	1091.7	217.29	2.4287e-06	2.2647e-06	274.13	77.356	59.013	17.479	9.7996e-07	24.858	8.1997e-05	7.8539e-05	2.3292e-05	1000.2	8.041e-07	8.459e-07	1066.9	212.36	7.5352e-07	8.7342e-07	266.02	75.657	56.741	17.435	8.6548e-07	24.755	24.094	-87.925	-28.994	-103.364	31.692	12.906	-103.737	-96.133	-43.246	16.217	-96.506	-90.209	-90.174	-82.640	4.268	-82.881	-8191	255	
520.454	1	1	0	0	0.2399	0.18216	0.17827	0.11677	0.055369	0.12957	0.1371	0.15861	0.16932	0.14243	0.056976	0.13724	0.2233	0.19771	0.066387	0.13152	-3.5104	-3.5812	-3.8625	-3.7167	-3.6146	-3.8771	-3.6833	-3.8583	-3.9375	-3.6271	-3.8979	-3.6729	-3.6604	-3.9375	-3.4625	-3.6333	3.655	149.044	234.653	-48.337	-73.584	201.114	151.509	220.155	229.486	96.224	-4.965	-69.082	-1.468	166.214	132.290	-106.367	0.00038972	0.00020921	2.5127e-05	1027.4	1.6737e-06	1.2743e-06	1095.2	217.82	1.8151e-06	1.5184e-06	274.77	76.559	59.153	17.711	3.7807e-06	25.222	8.3529e-05	8.2308e-05	2.2463e-05	999.76	8.245e-07	8.8148e-07	1066	212.69	7.9355e-07	8.869e-07	265.33	75.569	56.792	17.485	8.4666e-07	24.856	23.080	-71.228	-21.145	-103.460	-22.283	10.344	-103.538	-96.257	1.293	-54.425	-96.605	-90.025	-89.860	-82.493	16.960	-83.427	-8191	255	
520.550	1	1	0	0	0.16596	0.22506	0.12107	0.1773	0.087904	0.1854	0.24317	0.12129	0.19515	0.27116	0.053805	0.10984	0.15443	0.30119	0.073944	0.27026	-3.4604	-3.5687	-3.75	-3.6229	-3.4979	-3.9792	-3.6958	-3.7458	-3.8271	-3.6354	-4.0042	-3.9208	-3.4958	-3.8312	-3.4375	-3.625	219.292	146.117	-33.966	200.579	82.104	-70.755	78.502	-42.223	-65.084	28.930	192.378	98.129	108.160	-103.900	129.254	202.738	0.00034022	0.00032426	0.00010742	1032.1	4.2597e-06	1.7751e-06	1096	217.24	1.4503e-06	1.4666e-06	272.89	77.135	59.019	17.605	5.9229e-06	25.099	8.3929e-05	8.4729e-05	2.1778e-05	1000	8.8155e-07	9.0037e-07	1065.2	211.99	8.8615e-07	9.2721e-07	265.78	75.384	56.638	17.412	8.3819e-07	24.729	21.797	-22.082	-27.769	-103.525	-26.410	44.149	-103.435	-96.316	113.239	223.893	-96.550	-90.111	-89.332	-82.944	-21.719	-83.289	-8191	255	
520.669	1	1	0	0	0.094836	0.18191	0.11973	0.20853	0.12169	0.084021	0.38567	0.083028	0.17895	0.14065	0.2331	0.10476	0.029763	0.13407	0.18285	0.15931	-3.6437	-3.6667	-3.8875	-3.6417	-3.6146	-3.9896	-3.8375	-3.7292	-3.7875	-3.5229	-3.9729	-3.7958	-3.5521	-3.9562	-3.8688	-3.8	5.571	-55.004	163.384	177.235	86.512	10.419	175.727	77.777	-86.777	-107.523	171.756	110.722	160.879	9.522	109.866	238.746	0.00030303	0.00031561	6.0645e-05	1031.6	8.4475e-07	3.1618e-06	1092.9	217.75	8.3386e-07	1.9164e-06	274.18	77.262	59.49	17.592	3.1313e-06	24.981	9.2983e-05	8.4582e-05	2.1397e-05	1000.8	9.5154e-07	9.1696e-07	1066	212.25	9.3219e-07	8.891e-07	265.69	75.599	56.982	17.435	8.2e-07	24.771	38.885	-1.246	-27.634	-103.378	-28.282	48.876	-103.494	-96.338	-18.677	-5.910	-96.574	-90.255	-90.247	-82.765	-16.413	-83.398	-8191	255	
520.765	1	1	0	0	0.1865	0.12568	0.23055	0.076121	0.15484	0.11308	0.20609	0.025572	0.014495	0.19709	0.034261	0.28182	0.19787	0.4423	0.13067	0.11754	-3.5167	-3.5396	-3.7792	-3.9896	-3.6167	-3.9104	-3.9188	-3.6333	-3.9313	-3.5167	-3.7542	-3.8167	-3.5125	-3.75	-3.6771	-3.6854	-77.319	10.671	238.481	-90.496	137.090	-11.290	179.420	169.491	-1.108	65.953	2.623	-86.940	182.171	167.549	203.683	148.986	0.00030131	0.00028161	8.5999e-05	1035.9	4.8448e-06	2.5919e-06	1097	217.98	1.4672e-06	3.6217e-06	273.39	77.202	58.598	17.659	3.378e-06	25.029	0.00010071	8.4045e-05	2.1462e-05	1002.5	1.033e-06	8.8775e-07	1067.4	212.61	9.8969e-07	9.0859e-07	266.1	75.579	57.013	17.415	9.0071e-07	24.805	22.724	-29.351	-96.906	-103.290	-8.619	25.721	-103.553	-96.527	7.835	18.222	-96.896	-90.104	-90.237	-82.901	-10.346	-83.105	-8191	255	
520.862	1	1	0	0	0.31107	0.095896	0.029525	0.29211	0.25146	0.078273	0.13578	0.14209	0.17689	0.16257	0.32248	0.26629	0.051212	0.17285	0.13407	0.092972	-3.6625	-3.6417	-3.7979	-3.9104	-3.4688	-3.8042	-3.8583	-3.6021	-3.9083	-3.6271	-3.7438	-3.9625	-3.5104	-4.0083	-3.775	-3.6083	70.407	225.986	37.912	197.579	227.261	-97.092	213.361	220.980	243.320	234.408	230.604	-77.530	218.168	204.603	108.364	41.003	0.00028659	0.00026193	7.2668e-05	1044	2.9085e-06	3.4767e-06	1099.7	217.97	2.5337e-06	5.1673e-07	275.91	77.034	59.24	17.73	1.8202e-06	25.11	0.0001053	8.3667e-05	2.2477e-05	1007.6	1.0608e-06	9.3378e-07	1072.3	213.44	1.0542e-06	9.3267e-07	267.51	75.83	57.191	17.514	9.224e-07	24.923	34.707	-75.339	-47.534	-103.463	33.780	17.015	-103.721	-96.535	-23.646	33.818	-96.942	-90.122	-90.160	-82.684	-66.472	-83.263	-8191	255	
520.933	1	1	0	0	0.42872	0.2768	0.14152	0.0513	0.08472	0.1477	0.27546	0.11636	0.27103	0.04709	0.25058	0.18993	0.15129	0.15402	0.034553	0.084794	-3.6875	-3.7104	-3.5958	-4.0625	-3.6167	-3.7313	-3.9688	-3.6979	-3.7979	-3.8208	-3.6854	-4.05	-3.5229	-3.7229	-3.7396	-3.6562	183.979	-60.714	191.364	-62.428	23.089	55.917	191.370	-87.911	125.812	207.495	151.619	200.866	-43.403	-101.896	112.500	138.742	0.00030668	0.00036057	8.5773e-05	1043.7	1.4899e-06	1.923e-06	1109.3	218.14	5.4282e-07	2.7595e-06	278.15	77.194	59.517	17.804	1.1466e-06	25.185	0.00010425	8.9441e-05	2.3238e-05	1012.9	1.0851e-06	9.5779e-07	1079	214.07	1.0527e-06	9.3703e-07	269.09	76.175	57.37	17.539	9.4195e-07	24.926	11.742	-32.904	-17.902	-103.668	21.633	99.119	-103.802	-96.506	90.939	-20.499	-96.730	-90.385	-90.280	-82.543	-10.674	-83.367	-8191	255	
521.054	1	1	0	0	0.24585	0.073983	0.21015	0.35355	0.038758	0.022021	0.1521	0.078257	0.27333	0.27351	0.060053	0.10396	0.066615	0.092325	0.075821	0.065945	-3.4458	-3.7708	-3.5229	-4.0167	-3.5646	-3.6292	-3.9104	-3.5271	-3.8146	-3.6854	-3.525	-4.0625	-3.6021	-3.6354	-3.8438	-3.4208	-53.709	138.897	60.528	243.576	-8.819	-84.309	116.903	39.603	73.722	112.777	65.558	245.073	150.375	-76.554	-101.576	-5.240	0.00031676	0.00041187	3.6661e-05	1052.1	2.5194e-06	2.2915e-06	1112.7	219.34	3.682e-06	1.994e-07	276.26	77.688	59.475	17.652	5.0357e-06	25.185	0.00010075	8.6273e-05	2.4163e-05	1017.8	1.0305e-06	9.2231e-07	1081.1	214.36	9.8655e-07	9.0965e-07	268.69	76.304	57.214	17.46	9.6582e-07	24.985	27.719	18.121	245.481	-103.595	-78.165	5.422	-103.589	-96.439	2.103	80.882	-96.579	-90.466	-90.029	-82.722	45.172	-83.549	-8191	255	
521.150	1	1	0	0	0.2836	0.14851	0.068141	0.10126	0.15157	0.146	0.069397	0.2586	0.18629	0.24939	0.11889	0.17068	0.11954	0.13385	0.062255	0.26376	-3.4938	-3.6813	-3.5104	-3.9479	-3.6813	-3.7146	-4.0229	-3.6021	-3.8604	-3.825	-3.6562	-3.8854	-3.6896	-3.8438	-3.8625	-3.6333	-12.240	216.232	238.730	158.079	31.542	50.218	150.092	191.828	199.542	-76.017	-109.971	25.985	-69.315	115.668	98.365	49.944	0.0003098	0.0001792	7.1287e-05	1054.9	4.2823e-07	1.4495e-06	1111.6	220.47	4.3487e-06	1.4533e-06	276.37	77.966	59.599	17.775	1.3296e-06	25.043	9.7497e-05	8.0956e-05	2.6152e-05	1020.5	1.0166e-06	9.0871e-07	1084.5	215.47	9.4115e-07	8.5049e-07	269.23	76.513	57.429	17.534	1.0126e-06	24.846	35.660	14.688	-14.085	-103.304	-2.353	23.378	-103.714	-96.367	47.934	45.425	-96.855	-90.516	-90.064	-82.446	66.910	-83.212	-8191	255	
521.246	1	1	0	0	0.14004	0.098381	0.20825	0.075922	0.07899	0.23393	0.083681	0.21802	0.059607	0.17228	0.072229	0.27832	0.2175	0.037623	0.16213	0.20194	-3.3458	-3.6458	-3.4625	-3.9354	-3.5104	-3.6375	-4.1396	-3.6875	-3.8771	-3.7646	-3.6083	-4.1	-3.6729	-3.7729	-3.9958	-3.6312	156.991	230.718	-103.954	169.785	165.204	94.054	190.939	144.429	-89.773	16.681	-17.459	112.340	-107.913	159.003	33.314	150.053	0.00030542	0.00017478	5.4944e-05	1050.5	1.8294e-06	4.1351e-06	1109.7	219.89	1.4901e-06	2.7129e-06	276.48	77.738	59.752	17.778	3.6252e-06	25.254	9.0948e-05	8.1212e-05	2.6085e-05	1020.7	8.7597e-07	8.2484e-07	1086.6	215.48	8.5205e-07	8.2729e-07	269.23	76.265	57.374	17.52	8.9328e-07	24.982	18.103	33.560	-9.845	-103.345	-69.806	46.714	-103.553	-96.401	-64.893	-72.384	-96.745	-90.126	-90.403	-82.533	53.246	-83.154	-8191	255	
521.342	1	1	0	0	0.11237	0.12712	0.12334	0.1161	0.13392	0.11251	0.20022	0.17275	0.33488	0.25285	0.018966	0.062294	0.16693	0.16602	0.18359	0.25312	-3.2833	-3.8542	-3.5208	-4.0292	-3.7938	-3.6417	-3.9771	-3.5187	-3.7083	-3.8125	-3.4458	-3.8229	-3.6667	-3.6583	-4.0083	-3.8208	79.115	88.413	56.399	164.337	91.559	120.697	109.062	-99.754	120.856	99.247	-103.693	-90.130	-7.379	-74.832	231.624	-85.533	0.00038533	0.00021666	8.8639e-05	1051.1	5.4325e-07	7.5546e-07	1112.4	220.19	1.5903e-06	2.5255e-06	277.1	77.613	60.145	17.704	2.8091e-06	25.121	8.3462e-05	7.7154e-05	2.3991e-05	1020.4	8.3054e-07	8.389e-07	1084.7	215.23	7.6591e-07	8.1513e-07	269.63	76.322	57.388	17.527	8.6539e-07	24.861	23.833	-41.563	-9.759	-103.437	-33.996	-91.426	-103.618	-96.532	1.621	67.318	-96.292	-90.052	-90.338	-82.814	68.628	-83.138	-8191	255	
521.463	1	1	0	0	0.1521	0.10165	0.086973	0.13396	0.13403	0.2636	0.034337	0.22124	0.18101	0.31925	0.088204	0.20641	0.10818	0.21327	0.13746	0.18272	-3.1208	-3.8708	-3.3792	-3.8979	-3.7667	-3.6375	-4.0292	-3.5563	-3.7292	-3.8542	-3.5854	-3.8792	-3.8167	-3.5417	-3.9646	-3.725	-12.346	-21.755	158.785	154.607	-92.591	-94.346	-107.829	-54.153	62.471	-24.408	208.011	191.024	176.424	-93.888	99.546	127.531	0.00038432	0.00020819	5.5463e-05	1052	2.9529e-06	4.0912e-06	1113.7	219.83	3.1004e-06	1.92e-06	276.89	77.877	59.398	17.623	3.0374e-06	25.331	7.7899e-05	7.6324e-05	2.0773e-05	1019.5	7.492e-07	8.1853e-07	1086.2	214.9	7.3176e-07	8.0541e-07	269.29	76.21	57.133	17.511	7.7334e-07	24.955	22.039	-34.610	-46.264	-103.157	-38.861	25.024	-103.652	-96.348	72.932	-4.600	-97.034	-89.996	-89.794	-82.715	14.196	-83.897	-8191	255	
521.535	1	1	0	0	0.11526	0.10803	0.1902	0.088921	0.03387	0.25467	0.34266	0.093138	0.25834	0.10912	0.1111	0.20724	0.068883	0.12993	0.036745	0.27179	-3.1708	-3.9729	-3.6896	-4	-3.8292	-3.7021	-3.9125	-3.825	-3.6375	-3.9583	-3.5896	-3.7292	-3.7333	-3.5938	-3.9042	-3.7604	-64.664	163.872	229.810	169.353	139.342	24.243	153.565	32.129	-93.746	17.808	182.305	-56.867	109.886	177.147	-11.683	128.165	0.00034789	0.00029289	5.4271e-05	1051.6	2.2506e-06	3.6904e-06	1114	221.69	8.5311e-07	2.9218e-06	279.33	77.861	60.031	17.807	3.6938e-06	25.372	7.746e-05	7.3424e-05	1.8674e-05	1021	7.3854e-07	7.8968e-07	1086.4	215.51	7.2193e-07	7.6437e-07	270.04	76.248	57.371	17.568	6.7984e-07	24.976	25.582	-23.650	-15.592	-103.582	-2.858	46.715	-103.467	-96.523	13.692	4.147	-96.714	-89.977	-89.630	-82.855	14.394	-83.352	-8191	255	
521.631	1	1	0	0	0.078559	0.11803	0.089588	0.15558	0.19631	0.040761	0.14568	0.24576	0.22277	0.17692	0.20298	0.1062	0.091582	0.119	0.21633	0.19058	-3.125	-3.8958	-3.3979	-3.7021	-3.9292	-3.4854	-4.0188	-3.9708	-3.5312	-3.8979	-3.6	-3.5354	-3.9813	-3.75	-3.8167	-3.8354	22.562	-56.783	-73.347	186.725	213.480	141.325	133.614	212.730	149.147	153.763	207.860	-17.376	-104.129	-114.365	-61.886	227.142	0.00034657	0.00032377	5.4207e-05	1050.5	2.4989e-06	3.7609e-06	1118.1	221.13	4.0963e-06	1.0239e-06	277.45	77.694	60.412	17.789	9.8505e-07	25.223	7.5568e-05	6.8707e-05	1.6904e-05	1021.2	7.5506e-07	7.2705e-07	1088.1	215.59	7.196e-07	6.8613e-07	269.02	76.398	57.444	17.572	6.0223e-07	24.877	28.017	-39.754	-0.966	-103.455	-14.177	43.672	-103.657	-96.556	9.813	-58.303	-96.833	-90.228	-89.780	-82.503	75.756	-83.488	-8191	255	
521.751	1	1	0	0	0.03656	0.22626	0.17074	0.31334	0.13775	0.24833	0.40695	0.10282	0.049002	0.14672	0.20589	0.19497	0.1488	0.12922	0.11185	0.20192	-3.2896	-3.7854	-3.7042	-3.7313	-3.9437	-3.4938	-3.8417	-3.6833	-3.3396	-3.9354	-3.6521	-3.6021	-3.95	-3.7104	-3.8187	-3.9021	-58.629	-58.518	235.893	229.725	-112.977	192.098	176.522	63.723	0.742	57.101	-91.601	-95.636	-63.105	136.398	216.157	219.415	0.00033406	0.00032287	7.5307e-05	1044.1	2.6404e-06	2.4656e-06	1111.2	220.59	3.4399e-06	7.3927e-07	277.3	77.662	59.99	17.784	2.3571e-06	25.044	7.1118e-05	5.7415e-05	1.3986e-05	1012.4	6.2678e-07	5.477e-07	1078.4	214.3	6.2481e-07	5.2618e-07	267.98	76.105	57.255	17.504	5.2755e-07	24.847	16.101	-62.281	-7.255	-103.449	-67.215	19.321	-103.594	-96.425	16.869	34.064	-96.529	-90.249	-89.876	-82.452	26.591	-82.981	-8191	255	
521.846	1	1	0	0	0.049462	0.073991	0.19708	0.024889	0.052051	0.15141	0.33752	0.019247	0.21931	0.12022	0.32628	0.16671	0.087868	0.078228	0.072665	0.21767	-3.1396	-3.8937	-3.7021	-3.8292	-4.0563	-3.2708	-3.7979	-3.9396	-3.5833	-3.8958	-3.85	-3.5708	-4.0062	-3.4271	-3.5542	-3.8979	127.606	-114.214	78.676	244.698	120.736	177.314	211.461	-14.845	12.062	-71.401	185.035	-106.005	225.334	171.194	106.860	138.214	0.00030286	0.00029698	4.2071e-05	1043	2.5506e-06	2.3773e-06	1109.2	220.31	2.7818e-06	2.2646e-06	277.09	77.511	59.578	17.784	1.7609e-06	25.344	7.0344e-05	5.4322e-05	1.3691e-05	1013.8	7.0117e-07	6.0263e-07	1079.3	214.63	7.0208e-07	5.9749e-07	268.57	76.265	57.191	17.529	5.3361e-07	25.051	23.287	-87.579	19.319	-103.638	-11.802	23.066	-103.725	-96.614	-49.111	-13.001	-96.348	-90.215	-89.489	-82.262	-59.012	-82.958	-8191	255	
521.942	1	1	0	0	0.19019	0.054265	0.15828	0.20986	0.15317	0.045142	0.13408	0.11619	0.13097	0.038697	0.1625	0.26929	0.060248	0.25058	0.22626	0.099419	-3.2896	-3.7375	-3.8604	-3.6417	-3.9729	-3.6958	-3.7396	-3.9271	-3.5187	-3.8417	-3.9729	-3.4292	-3.8021	-3.725	-3.6896	-3.9354	-14.701	97.829	-89.218	201.947	-9.572	108.134	-15.811	66.440	243.486	2.826	-60.323	230.796	160.935	-109.425	108.600	24.349	0.00035568	0.00034927	6.1079e-05	1047.1	1.3612e-06	2.9276e-06	1110.5	221.8	2.9731e-06	3.2477e-06	278.5	77.683	59.784	17.849	1.914e-06	25.539	6.4965e-05	4.898e-05	1.2401e-05	1015.1	5.7157e-07	4.6636e-07	1079.6	214.82	5.2774e-07	4.4863e-07	268.66	76.584	57.278	17.66	4.4748e-07	25.159	22.603	-14.580	-38.407	-103.450	-36.067	45.129	-103.708	-96.275	19.194	26.864	-96.835	-90.451	-90.008	-82.850	13.665	-83.471	-8191	255	
522.063	1	1	0	0	0.19579	0.089464	0.024921	0.13479	0.07506	0.23714	0.22595	0.12077	0.073618	0.12557	0.27489	0.13368	0.080065	0.15607	0.21552	0.27409	-3.0729	-3.675	-3.8146	-3.6854	-3.9646	-3.6396	-3.6083	-4.0083	-3.475	-3.7125	-3.9125	-3.5687	-3.8333	-3.6958	-3.4458	-3.9979	3.421	175.383	210.718	227.163	232.457	228.658	181.753	-107.253	52.135	-96.476	207.341	188.811	116.374	225.399	38.654	147.969	0.00030576	0.0002832	1.2195e-05	1042.2	4.1312e-06	1.5066e-06	1104.4	221.4	1.413e-06	3.2967e-06	278.19	78.397	60.479	18.055	4.737e-06	25.668	5.6045e-05	4.044e-05	1.1454e-05	1009.3	4.9951e-07	4.3917e-07	1077.2	214.95	5.1636e-07	4.4065e-07	269.05	76.64	57.28	17.78	4.6913e-07	25.3	30.022	-53.851	-85.311	-103.158	-36.399	33.436	-103.814	-96.494	-3.243	20.056	-96.801	-90.165	-89.868	-82.867	1.857	-82.945	-8191	255	
522.159	1	1	0	0	0.061457	0.15297	0.13199	0.23417	0.19389	0.18718	0.15313	0.098797	0.088597	0.15486	0.13523	0.14483	0.14076	0.073561	0.083627	0.069579	-3.1375	-3.5396	-3.8667	-3.6708	-3.9604	-3.8104	-3.65	-3.8792	-3.5292	-3.7479	-3.8937	-3.5687	-3.7083	-3.675	-3.5812	-3.8812	92.974	26.841	233.300	182.601	-64.922	208.459	-84.465	-91.405	36.437	-20.781	233.652	-24.600	-82.145	-83.802	-18.664	-69.939	0.00033588	0.00036906	7.9969e-05	1039.6	2.2116e-06	2.5916e-06	1111.5	222.13	1.3778e-06	1.7988e-06	279.01	78.811	60.574	18.095	1.0099e-06	25.575	5.5479e-05	4.0038e-05	1.214e-05	1010.2	4.8012e-07	4.1982e-07	1079.4	215.89	4.9724e-07	3.9498e-07	269.94	77.177	57.514	17.818	4.9032e-07	25.269	22.935	-41.309	9.632	-103.527	-48.064	48.426	-103.571	-96.391	-2.408	9.697	-96.898	-90.114	-89.835	-82.660	64.877	-83.077	-8191	255	
522.230	1	1	0	0	0.31951	0.092002	0.091184	0.1689	0.13879	0.054753	0.05434	0.38517	0.12316	0.083925	0.054335	0.080261	0.022532	0.29823	0.25019	0.1924	-3.3271	-3.5771	-3.875	-3.5771	-3.7604	-3.8438	-3.7271	-3.9771	-3.5438	-3.7542	-3.9917	-3.6292	-3.6146	-3.9062	-3.5167	-3.8542	-11.263	134.370	38.144	-61.198	183.574	82.084	116.804	172.045	19.419	92.769	18.933	152.543	138.066	229.324	-68.667	29.038	0.00030286	0.00024018	4.8988e-05	1041.9	3.2979e-06	1.3946e-06	1105.3	220.66	2.0626e-06	2.7979e-06	278.76	78.635	60.181	17.991	1.6568e-06	25.472	5.2605e-05	3.9236e-05	1.2609e-05	1007.3	5.0953e-07	4.2595e-07	1073.5	215.32	5.1381e-07	4.6904e-07	269.93	76.79	57.333	17.652	5.429e-07	25.083	19.219	-13.462	-77.109	-103.485	-54.105	66.614	-103.430	-96.611	27.043	-22.786	-96.608	-89.981	-89.649	-82.622	25.554	-83.276	-8191	255	
522.327	1	1	0	0	0.21663	0.16207	0.21719	0.16401	0.15968	0.2383	0.42394	0.062122	0.088591	0.083531	0.18305	0.18221	0.053233	0.30825	0.14046	0.069569	-3.4188	-3.5896	-3.875	-3.6937	-3.6167	-3.8417	-3.7313	-4.0104	-3.7229	-3.4042	-4.0062	-3.5896	-3.5396	-3.8521	-3.4104	-3.75	-0.520	39.015	55.526	75.227	-33.233	184.516	162.853	217.305	-81.002	-88.909	159.456	168.035	161.083	-84.267	132.098	232.034	0.00037878	0.00040256	0.00010055	1046.9	4.2217e-06	2.2923e-06	1108.2	221.85	4.1432e-06	1.3465e-06	279.91	78.479	60.671	18.073	2.2423e-06	25.631	5.3763e-05	4.3848e-05	1.3993e-05	1010.5	5.0862e-07	4.8558e-07	1077.2	216.09	4.7543e-07	4.8954e-07	270.63	76.918	57.513	17.72	5.0604e-07	25.249	25.114	-35.443	-68.174	-103.384	-18.939	56.656	-103.676	-96.271	8.461	7.894	-96.645	-90.154	-89.912	-82.387	-7.963	-83.259	-8191	255	
522.447	1	1	0	0	0.16728	0.25531	0.13518	0.13258	0.11536	0.1084	0.24783	0.048411	0.12678	0.21661	0.067403	0.030297	0.19039	0.12486	0.14518	0.173	-3.2667	-3.4604	-3.8104	-3.5771	-3.5563	-3.9646	-3.5542	-3.7833	-3.7646	-3.6	-3.8479	-3.5833	-3.6271	-3.8563	-3.5687	-3.925	-52.201	-6.085	-46.304	24.473	77.228	39.999	200.504	-29.239	27.784	77.870	85.420	78.229	-80.659	226.512	144.579	53.079	0.00036323	0.00028036	4.1136e-05	1043.3	3.3029e-06	4.8166e-07	1102.3	221.43	2.0039e-06	2.5808e-06	278.58	77.966	60.411	17.783	3.6715e-07	25.427	5.2837e-05	4.595e-05	1.2784e-05	1009.3	4.7975e-07	5.0521e-07	1073.9	215.74	4.6951e-07	5.3191e-07	270.02	76.523	57.301	17.594	5.1114e-07	25.059	27.065	-33.889	-30.594	-103.512	21.549	-4.657	-103.505	-96.145	-7.501	11.564	-96.664	-90.213	-89.879	-82.392	2.594	-83.238	-8191	255	
522.543	1	1	0	0	0.068653	0.094183	0.13839	0.18323	0.073851	0.15232	0.32297	0.22986	0.22123	0.09675	0.2328	0.15931	0.13742	0.16941	0.30893	0.14633	-3.3542	-3.5833	-3.7146	-3.7958	-3.6083	-3.8312	-3.6292	-3.6042	-3.8896	-3.5021	-3.9313	-3.6854	-3.4292	-3.8708	-3.3792	-3.95	168.493	118.803	-90.302	234.365	151.233	231.018	106.822	237.348	241.609	51.954	130.545	215.721	200.479	-98.119	92.985	42.684	0.00038521	0.00028476	0.00013227	1044.2	1.2988e-06	2.3205e-06	1101.7	220.91	2.5563e-06	1.175e-06	278.3	78.38	60.304	17.742	1.9601e-06	25.555	5.5096e-05	4.9899e-05	1.2422e-05	1007	5.067e-07	5.2286e-07	1074.8	215.75	5.0939e-07	5.3769e-07	270.18	76.561	57.555	17.63	4.9533e-07	25.167	23.546	-35.245	1.364	-103.512	26.176	20.838	-103.478	-96.547	-10.376	18.676	-96.823	-90.282	-90.178	-83.123	53.240	-83.441	-8191	255	
522.639	1	1	0	0	0.18544	0.098022	0.10483	0.062567	0.25482	0.20487	0.32006	0.23434	0.20842	0.20218	0.19316	0.29463	0.21498	0.22264	0.10752	0.12506	-3.3354	-3.3771	-3.7292	-3.8937	-3.4896	-4	-3.7604	-3.7958	-3.825	-3.7125	-3.9146	-3.7625	-3.5187	-3.8583	-3.4958	-3.725	126.992	-67.416	120.921	-18.164	-99.306	128.477	207.810	-53.386	125.162	40.277	209.351	213.228	163.051	226.208	7.769	169.692	0.0003345	0.0001693	7.1998e-05	1042.8	3.2623e-06	2.3356e-06	1104	222.68	2.5098e-06	1.3254e-06	279.52	78.533	60.753	17.895	2.7034e-06	25.47	5.8747e-05	5.0696e-05	1.2342e-05	1009.9	5.3648e-07	5.3461e-07	1076.2	216.18	5.7341e-07	5.4374e-07	270.95	76.808	57.631	17.705	5.1666e-07	25.183	27.698	-64.046	-15.104	-103.289	39.777	101.653	-103.484	-96.614	-96.805	63.419	-96.782	-90.635	-90.445	-82.949	10.884	-83.144	-8191	255	
522.734	1	1	0	0	0.095498	0.13837	0.10943	0.33799	0.19752	0.22284	0.27864	0.2039	0.066707	0.16797	0.17273	0.27849	0.092753	0.11239	0.12788	0.12131	-3.4833	-3.4833	-3.7333	-3.8312	-3.3583	-3.8625	-3.8083	-3.5208	-3.8563	-3.5375	-3.6104	-3.7812	-3.5167	-3.7271	-3.7125	-3.7458	148.165	114.608	-96.238	214.994	129.221	200.837	189.348	169.865	72.918	207.973	-87.863	212.534	110.544	-90.376	-97.954	212.900	0.00037915	0.00029561	7.2688e-05	1041.7	1.1667e-06	2.9124e-06	1110.9	222.06	2.5567e-06	2.567e-06	279.22	78.858	60.595	17.937	2.8364e-06	25.498	6.4426e-05	5.0314e-05	1.2355e-05	1010.9	6.1576e-07	5.1327e-07	1079.6	215.82	6.1507e-07	5.1054e-07	270.01	76.937	57.707	17.714	4.8471e-07	25.181	33.259	-20.490	-1.041	-103.366	-97.826	10.664	-103.492	-96.435	13.421	69.001	-96.600	-89.909	-89.526	-82.666	-2.973	-83.069	-8191	255	
522.830	1	1	0	0	0.22999	0.27754	0.055963	0.11703	0.34561	0.23063	0.28019	0.036865	0.16038	0.17803	0.1508	0.1741	0.094499	0.027248	0.148	0.25912	-3.5563	-3.6583	-3.7271	-3.9042	-3.2875	-3.9417	-3.8125	-3.7687	-3.9896	-3.6458	-3.8187	-3.9479	-3.55	-3.9271	-3.6896	-3.4771	77.761	132.681	-74.489	-54.894	-5.446	132.789	179.827	-69.265	131.318	-77.554	182.461	120.407	80.193	-42.596	-23.387	227.277	0.00034017	0.00033652	7.2439e-05	1042.4	2.7481e-06	2.9559e-06	1106.2	222.65	2.1504e-06	3.2789e-06	277.67	78.314	60.655	17.864	2.6675e-06	25.642	6.3169e-05	4.6701e-05	1.2068e-05	1012	5.9947e-07	5.0475e-07	1079.6	216.54	5.8324e-07	4.8482e-07	270.48	76.99	57.863	17.682	4.602e-07	25.208	26.008	-59.885	-31.073	-103.386	-30.416	39.542	-103.399	-96.219	-13.788	-5.352	-96.743	-90.101	-89.781	-82.573	-13.448	-82.444	-8191	255	
522.926	1	1	0	0	0.045861	0.19878	0.13718	0.33195	0.10041	0.087291	0.14903	0.043747	0.16257	0.1335	0.057562	0.17193	0.25201	0.093764	0.041142	0.08046	-3.5604	-3.5687	-3.6771	-4.0292	-3.4542	-3.95	-3.975	-3.6312	-3.9688	-3.4875	-3.6333	-4.1646	-3.6854	-3.8104	-3.8875	-3.6021	58.100	43.109	137.150	-100.782	226.728	-19.413	167.923	148.121	113.593	-13.390	213.118	-29.376	-87.096	143.531	-1.452	186.037	0.00038805	0.0001371	7.3602e-05	1047.4	1.1664e-06	2.128e-06	1107.2	221.61	1.7804e-06	1.9861e-07	279.88	78.476	60.57	17.91	2.0836e-06	25.644	6.164e-05	4.5405e-05	1.2127e-05	1013.7	5.766e-07	5.0756e-07	1079.8	216.34	5.7605e-07	4.9853e-07	270.36	76.828	57.704	17.721	4.8284e-07	25.224	29.265	-28.992	-50.655	-103.595	-18.955	44.109	-103.601	-96.317	17.556	16.856	-96.581	-90.126	-89.943	-82.852	-35.962	-83.509	-8191	255	
523.022	1	1	0	0	0.085117	0.10508	0.16955	0.16249	0.11748	0.082519	0.33772	0.11629	0.080895	0.15942	0.18083	0.090099	0.014717	0.14248	0.063537	0.12901	-3.4333	-3.4562	-3.6208	-4.0958	-3.5375	-3.9313	-4.0729	-3.5667	-3.9229	-3.7583	-3.4313	-4.0271	-3.6396	-3.875	-4.0312	-3.5771	58.615	47.396	9.017	211.888	-112.131	19.625	187.441	-40.473	-89.390	99.160	104.971	185.657	130.491	-6.845	144.920	134.258	0.00029253	0.00038309	2.8099e-05	1047.6	1.4226e-06	2.415e-06	1109	222.41	2.5549e-06	2.0332e-06	279.55	78.741	60.384	17.983	2.1692e-06	25.622	6.2191e-05	4.6089e-05	1.2495e-05	1012.9	5.6123e-07	4.6913e-07	1078.8	216.58	5.3994e-07	4.8156e-07	270.79	76.947	57.431	17.707	5.2727e-07	25.231	29.702	-69.011	17.812	-103.463	5.940	2.779	-103.410	-96.718	13.970	19.830	-96.816	-90.022	-90.212	-82.356	72.860	-83.283	-8191	255	
523.143	1	1	0	0	0.27663	0.14503	0.099455	0.40576	0.22825	0.032929	0.24604	0.22779	0.29047	0.019544	0.092493	0.15991	0.23818	0.10993	0.016332	0.12461	-3.475	-3.8021	-3.2167	-4.0771	-3.4104	-3.5875	-4.1479	-3.4958	-3.7708	-3.7458	-3.4479	-3.9917	-3.5458	-3.5354	-3.8833	-3.4021	207.374	68.965	171.252	168.058	63.471	83.487	169.996	186.060	7.354	12.615	221.626	-38.661	108.100	-20.716	69.577	22.061	0.0003761	0.00024416	4.6444e-05	1040.8	2.8695e-06	2.5881e-06	1103.6	223.1	1.9893e-06	2.4747e-06	278.4	78.048	60.733	17.86	2.1443e-06	25.424	6.1589e-05	4.3118e-05	1.3298e-05	1011.4	5.4627e-07	4.8576e-07	1077.2	216.76	5.3207e-07	4.5258e-07	270.01	76.697	57.385	17.626	5.583e-07	25.108	22.625	-48.890	-90.192	-103.363	11.931	45.694	-103.579	-96.376	-45.690	52.017	-96.904	-90.034	-90.160	-82.980	125.254	-83.117	-8191	255	
523.239	1	1	0	0	0.037031	0.06604	0.060152	0.13854	0.32024	0.1746	0.12866	0.16337	0.14121	0.085278	0.02713	0.057852	0.19348	0.27685	0.12378	0.10084	-3.35	-3.6667	-3.5417	-4.0188	-3.4958	-3.5729	-3.8167	-3.5167	-3.7708	-3.7938	-3.4917	-4.0875	-3.625	-3.6188	-4.0583	-3.5833	156.723	110.801	180.026	-108.372	2.241	163.475	66.543	195.360	55.844	-96.914	-45.483	-32.914	-15.398	-86.398	2.836	165.811	0.0003433	0.00030948	6.9214e-05	1042.2	9.6254e-07	1.0145e-06	1102.4	222.27	2.5756e-06	1.8151e-06	277.45	77.972	59.957	17.858	8.3768e-07	25.616	5.8723e-05	4.3596e-05	1.3805e-05	1008.9	5.4531e-07	4.8277e-07	1075.6	216.07	5.1677e-07	4.7895e-07	270.45	76.486	57.281	17.63	5.6856e-07	25.162	26.817	-50.429	-24.423	-103.561	-80.204	45.157	-103.669	-96.435	-38.566	-13.506	-96.816	-90.315	-89.838	-82.422	180.067	-83.065	-8191	255	
523.335	1	1	0	0	0.18311	0.20329	0.12047	0.375	0.162	0.092152	0.17897	0.14052	0.12728	0.066949	0.14173	0.10547	0.11168	0.11787	0.19882	0.16543	-3.2062	-3.6667	-3.1937	-4.1604	-3.6375	-3.4313	-4.1188	-3.5708	-3.7104	-3.9562	-3.6708	-3.8646	-3.8688	-3.5146	-3.9479	-3.7417	203.044	201.845	171.042	-113.977	-55.491	229.085	151.044	-7.163	218.955	-10.829	204.316	-102.070	150.355	-26.041	230.641	229.986	0.00031879	0.00020412	0.00010272	1040.2	1.5255e-06	4.0011e-06	1105	220.99	4.2711e-06	2.8888e-06	278.77	78.476	59.675	17.959	2.8594e-06	25.452	5.5299e-05	4.535e-05	1.4498e-05	1008.4	5.1026e-07	5.1456e-07	1076.9	215.72	4.9646e-07	5.1183e-07	270.26	76.709	57.122	17.652	5.6537e-07	25.152	21.660	-1.020	-19.480	-103.424	-10.894	2.610	-103.299	-96.530	-4.675	16.486	-96.781	-89.955	-89.783	-82.813	60.068	-83.360	-8191	255	
523.431	1	1	0	0	0.072634	0.11707	0.038092	0.31961	0.13304	0.23184	0.27692	0.21703	0.30863	0.12526	0.11632	0.059034	0.12856	0.25957	0.1685	0.2319	-3.3625	-3.9229	-3.5521	-3.9125	-3.7354	-3.5187	-3.9458	-3.5312	-3.7	-3.9208	-3.5604	-3.7083	-3.7708	-3.6729	-3.9688	-3.7708	59.037	123.870	141.626	176.582	173.423	119.434	180.017	166.997	155.123	98.486	203.543	-68.174	73.873	217.818	-46.872	229.156	0.00029406	0.00025779	3.8737e-05	1041.5	2.6905e-06	2.7982e-06	1106.5	222.2	5.0044e-06	1.5136e-06	278.84	78.458	59.59	17.908	3.4852e-06	25.338	5.579e-05	4.8812e-05	1.4275e-05	1010.4	5.1402e-07	5.4304e-07	1077.1	216.17	5.3753e-07	5.3499e-07	270.02	76.723	57.187	17.609	5.4381e-07	25.015	26.020	-51.071	-32.734	-103.375	2.616	-27.947	-103.471	-96.110	11.762	5.901	-96.646	-90.160	-89.910	-82.384	-20.485	-83.555	-8191	255	
523.528	1	1	0	0	0.23036	0.14855	0.2583	0.17742	0.16059	0.30751	0.35091	0.25591	0.30986	0.098952	0.077167	0.21246	0.062985	0.081682	0.2589	0.28586	-3.3104	-3.7917	-3.6104	-3.7375	-3.7	-3.475	-4.1833	-3.7604	-3.6583	-3.8875	-3.5833	-3.6229	-3.6437	-3.5417	-3.8063	-3.6333	-24.336	233.245	-108.671	222.116	93.769	145.533	163.023	156.180	37.036	221.328	187.321	155.469	12.810	46.094	64.346	130.149	0.00029703	0.00038363	0.00010902	1041.2	9.2621e-07	1.229e-06	1100.5	222.23	2.1916e-06	1.2143e-06	278.72	78.443	60.21	17.881	3.9721e-06	25.567	5.8747e-05	5.3386e-05	1.3617e-05	1008.5	5.1223e-07	5.741e-07	1074.8	216.22	5.3762e-07	5.4773e-07	270.65	76.633	57.41	17.709	5.255e-07	25.061	16.432	-63.864	-16.229	-103.580	98.594	33.693	-103.684	-96.190	27.517	29.010	-96.780	-90.083	-90.288	-82.342	23.498	-83.361	-8191	255	
523.624	1	1	0	0	0.3852	0.24371	0.23212	0.25451	0.13793	0.19411	0.21497	0.12968	0.17164	0.2057	0.10693	0.023653	0.047866	0.13023	0.045881	0.22306	-3.05	-3.8917	-3.4813	-3.7125	-3.7833	-3.4583	-4.0188	-3.6104	-3.4813	-3.8	-3.4938	-3.5917	-3.8667	-3.55	-3.8937	-3.7646	74.921	77.683	182.735	-63.410	109.645	-34.731	158.075	113.537	-30.553	-70.896	-31.508	-99.303	209.933	-93.501	-9.093	-49.023	0.00036505	2.7251e-05	3.9335e-05	1035.9	1.9805e-06	8.1946e-07	1104.5	222.22	2.1744e-06	2.5658e-06	278.99	78.099	59.893	17.877	1.5678e-06	25.556	6.1317e-05	5.1687e-05	1.3194e-05	1008	5.5121e-07	5.4526e-07	1075.2	216.17	5.7172e-07	5.4567e-07	270.05	76.601	57.315	17.62	5.0982e-07	25.1	24.376	62.572	-13.906	-103.310	-15.285	100.844	-103.281	-96.372	-23.016	11.063	-96.711	-90.620	-90.416	-82.881	-7.560	-83.171	-8191	255	
523.744	1	1	0	0	0.13257	0.03183	0.18257	0.15916	0.13082	0.16666	0.12054	0.078828	0.029721	0.20091	0.1818	0.23288	0.074397	0.10044	0.36569	0.11529	-3.1792	-3.8521	-3.4354	-3.7875	-3.7896	-3.4	-3.8625	-3.8563	-3.4708	-3.8167	-3.7229	-3.5167	-3.6958	-3.5542	-3.7562	-3.8688	42.915	112.194	57.104	-83.464	27.901	20.914	-90.874	-90.995	-39.158	116.334	-95.724	147.379	51.231	-65.654	235.873	14.032	0.00037161	0.00018119	4.8251e-05	1044.1	1.7827e-06	3.3878e-06	1101.2	222.17	2.5403e-06	1.9099e-06	278.13	78.198	60.345	17.952	2.1191e-06	25.358	6.4067e-05	4.9689e-05	1.2385e-05	1008.3	5.7518e-07	5.3461e-07	1074.2	216.07	5.9303e-07	5.1948e-07	269.73	76.74	57.444	17.658	4.9205e-07	25.136	18.473	1.495	-3.607	-103.297	-104.532	36.797	-103.480	-96.329	-13.953	-2.392	-96.732	-90.427	-89.775	-82.595	30.830	-82.809	-8191	255	
523.839	1	1	0	0	0.18781	0.13481	0.19563	0.18686	0.1225	0.065898	0.16301	0.048671	0.058793	0.19176	0.17998	0.073152	0.13025	0.1228	0.11673	0.076885	-3.0458	-3.6813	-3.5167	-3.6875	-3.6875	-3.4167	-3.5812	-3.8979	-3.4458	-3.7708	-3.6458	-3.6521	-3.8271	-3.4583	-3.6312	-3.7917	62.759	231.010	-32.573	-92.238	129.352	-61.183	109.812	231.749	-87.516	-22.414	-61.893	197.356	-50.276	90.794	-65.893	168.532	0.00028248	0.00041509	7.4221e-05	1043.2	1.3006e-06	2.6162e-06	1103.4	222.35	2.6641e-06	2.2812e-06	280.08	78.208	60.846	17.964	2.3722e-07	25.213	6.4582e-05	4.9404e-05	1.2194e-05	1010.6	5.8158e-07	4.9138e-07	1074.2	216.12	5.9458e-07	5.0142e-07	270.1	76.534	57.525	17.641	4.807e-07	25.013	24.777	-63.442	0.293	-103.386	27.480	32.692	-103.543	-96.189	80.622	14.051	-97.052	-89.995	-90.129	-82.489	110.204	-83.461	-8191	255	
523.935	1	1	0	0	0.061659	0.1773	0.16613	0.13318	0.19998	0.093768	0.24744	0.1293	0.13233	0.18376	0.069109	0.25092	0.19712	0.036407	0.21953	0.19347	-2.9771	-3.6021	-3.6708	-3.5625	-3.9437	-3.6104	-3.7229	-4.0875	-3.4646	-3.7833	-3.9771	-3.425	-3.8375	-3.5542	-3.4562	-3.9875	207.542	57.812	-71.928	-62.196	130.145	-55.275	94.712	81.183	-95.826	-23.627	43.605	-6.022	-75.362	222.096	233.230	-25.814	0.00034088	0.0002862	5.5263e-05	1038.1	3.2856e-06	1.1077e-06	1102.7	222.16	2.9906e-06	2.1461e-06	279.22	78.089	60.15	17.879	1.6574e-06	25.212	6.2945e-05	4.548e-05	1.2628e-05	1008.4	5.7289e-07	4.8996e-07	1074	216.33	5.7118e-07	4.8284e-07	269.88	76.542	57.507	17.596	4.8389e-07	25.086	36.555	-73.947	-15.884	-103.312	-4.817	35.978	-103.463	-96.273	-49.305	14.247	-96.831	-90.080	-89.640	-82.794	-15.963	-83.236	-8191	255	
524.031	1	1	0	0	0.2839	0.099641	0.030715	0.13859	0.087724	0.12636	0.53448	0.093989	0.084508	0.11679	0.05916	0.10946	0.25764	0.23876	0.24737	0.12139	-3.1458	-3.7396	-3.6333	-3.5583	-3.8458	-3.6646	-3.6125	-4.125	-3.3667	-3.7167	-3.8542	-3.5917	-3.7896	-3.7917	-3.5875	-3.95	108.960	154.074	-31.832	206.686	116.215	-33.876	200.831	221.346	-33.465	232.074	236.026	234.823	166.699	-94.947	80.186	120.979	0.00031639	0.0002606	7.6993e-05	1042.6	1.1124e-06	2.263e-06	1103.5	221.07	4.1718e-06	1.9367e-06	279.32	78.474	59.704	17.817	5.2253e-06	25.457	6.0874e-05	4.4213e-05	1.2111e-05	1010.3	5.6685e-07	4.6221e-07	1073.9	215.91	5.6653e-07	4.7693e-07	269.97	76.72	57.266	17.584	5.2226e-07	25.088	24.574	-38.836	-27.528	-103.080	-0.779	-2.511	-103.784	-96.303	-8.592	4.099	-97.017	-90.041	-89.849	-82.762	30.927	-83.540	-8191	255	
524.127	1	1	0	0	0.13111	0.015576	0.11913	0.17396	0.31554	0.13554	0.25106	0.15003	0.17018	0.063426	0.19551	0.098829	0.035919	0.19676	0.12948	0.11452	-3.0896	-3.6	-3.8667	-3.4792	-3.7958	-3.7938	-3.7979	-4	-3.4354	-3.7292	-4.0292	-3.5458	-3.8583	-3.7188	-3.5208	-3.9458	180.817	-109.571	-50.290	-76.774	-70.340	160.374	218.890	-102.025	90.704	-16.670	191.425	41.673	-71.895	-79.095	96.643	9.896	0.00033958	0.00043567	0.00010215	1044.4	2.2337e-06	2.8039e-06	1105.3	222.13	2.5931e-06	2.7543e-06	280.4	78.284	60.079	17.89	1.8514e-06	25.472	6.0188e-05	4.6139e-05	1.2801e-05	1010.3	5.5377e-07	4.6922e-07	1074.9	216.19	5.6926e-07	4.8706e-07	270.15	76.718	57.473	17.635	5.6113e-07	25.042	13.275	-51.831	12.487	-103.186	-81.628	20.001	-103.598	-96.098	69.198	21.098	-96.591	-90.357	-89.745	-82.963	17.613	-83.524	-8191	255	
524.223	1	1	0	0	0.20131	0.17346	0.082489	0.16114	0.040095	0.16566	0.19511	0.06926	0.18286	0.39562	0.081172	0.061952	0.18508	0.22495	0.17207	0.11113	-3.1458	-3.7188	-3.7646	-3.5563	-3.7458	-3.6583	-3.5479	-3.8625	-3.7646	-3.6458	-3.9021	-3.4062	-3.775	-3.75	-3.5521	-3.9917	-13.980	68.970	-86.614	198.131	219.955	60.700	183.430	-66.090	146.337	-58.321	35.163	144.009	62.405	-45.555	90.169	234.745	0.00031167	0.00030207	0.00014201	1041	2.6038e-06	2.1444e-06	1102.8	221.26	3.3138e-06	4.0589e-07	278.34	78.276	59.603	17.859	2.334e-06	25.491	6.026e-05	4.4737e-05	1.4128e-05	1009.1	5.1621e-07	4.8401e-07	1076.3	215.7	5.195e-07	4.9156e-07	270.4	76.511	57.222	17.571	5.9121e-07	25.017	19.109	-8.732	-10.680	-103.541	35.876	58.906	-103.624	-96.528	-11.689	88.020	-96.326	-90.078	-90.080	-82.236	-10.937	-83.082	-8191	255	
524.319	1	1	0	0	0.12891	0.16022	0.079046	0.085192	0.092134	0.19877	0.20111	0.3351	0.18653	0.23866	0.19789	0.16925	0.0021044	0.25801	0.16259	0.28158	-3.2729	-3.5	-3.8896	-3.7542	-3.6646	-3.8229	-3.6146	-3.8917	-3.6375	-3.6542	-3.9	-3.3646	-3.6813	-3.8458	-3.4313	-3.8521	-31.675	-104.657	68.149	-67.950	231.718	-52.122	114.426	176.748	-97.016	184.455	123.830	213.338	7.450	170.765	165.328	218.193	0.00030021	0.00035997	7.7978e-05	1040.1	2.6159e-06	2.2071e-06	1104	221.95	2.0593e-06	1.244e-06	280.44	78.794	59.8	17.786	2.3056e-06	25.337	5.771e-05	4.7352e-05	1.4479e-05	1006.7	5.3218e-07	5.0784e-07	1074.1	215.68	5.1859e-07	5.1316e-07	270.65	76.653	57.426	17.602	5.8323e-07	25.039	22.125	-24.813	-111.332	-103.448	-44.170	65.516	-103.441	-96.229	-49.644	37.635	-96.676	-90.270	-90.026	-82.610	22.699	-82.625	-8191	255	
524.416	1	1	0	0	0.098059	0.02029	0.24851	0.2606	0.13631	0.16415	0.36228	0.067626	0.19246	0.12656	0.17641	0.20071	0.074747	0.32715	0.2229	0.10337	-3.3292	-3.6167	-3.85	-3.7042	-3.5854	-3.9938	-3.5208	-3.7917	-3.7333	-3.65	-4.0146	-3.5438	-3.5604	-3.6958	-3.5604	-4.0021	-35.941	235.922	174.612	188.407	161.144	225.448	187.619	-41.899	-48.974	129.069	52.358	207.479	220.015	197.704	-93.703	234.879	0.00029964	0.00023195	7.6067e-05	1042.4	2.3476e-06	1.2264e-06	1106.3	221.37	2.2238e-06	7.7586e-07	279.63	78.219	59.965	17.801	9.2232e-07	25.234	5.6468e-05	4.9463e-05	1.4758e-05	1009	5.3867e-07	5.3959e-07	1074.7	215.8	5.1977e-07	5.387e-07	269.69	76.58	57.302	17.591	5.7562e-07	24.978	29.768	-36.044	-22.044	-103.427	-0.804	63.043	-103.497	-96.577	3.823	90.405	-96.883	-89.899	-89.905	-82.145	-43.429	-83.059	-8191	255	
524.536	1	1	0	0	0.11183	0.15127	0.19341	0.21751	0.068024	0.23391	0.21315	0.065054	0.1095	0.2063	0.052018	0.18326	0.29627	0.14983	0.030572	0.033566	-3.2354	-3.6417	-3.7542	-3.6896	-3.6708	-3.9479	-3.5958	-3.8125	-3.7792	-3.4938	-4.0708	-3.5938	-3.6958	-3.8417	-3.5542	-3.775	51.125	-30.844	194.311	134.421	-51.991	163.576	153.934	106.753	228.552	141.719	156.799	165.283	-75.081	244.222	71.823	137.966	0.00030423	0.0002566	7.1292e-05	1041.4	4.8048e-06	1.9422e-06	1103.6	221.56	1.4816e-06	2.26e-06	279.26	77.986	59.597	17.892	3.9464e-06	25.313	5.6006e-05	5.2555e-05	1.4009e-05	1007.5	5.4672e-07	5.6309e-07	1073.1	215.61	5.2897e-07	5.636e-07	269.42	76.366	57.059	17.619	5.2048e-07	25.014	35.409	-46.206	-27.965	-103.470	-6.403	98.495	-103.455	-96.234	35.691	27.673	-96.551	-90.178	-90.065	-82.916	2.873	-83.097	-8191	255	
524.631	1	1	0	0	0.23023	0.22788	0.20362	0.18951	0.089564	0.14739	0.15539	0.26855	0.19408	0.16313	0.075118	0.073381	0.15428	0.034306	0.074605	0.26761	-3.3875	-3.5875	-3.7167	-3.7333	-3.6604	-3.9333	-3.8125	-3.7125	-3.9208	-3.6958	-4.0271	-3.7	-3.5896	-3.9417	-3.7667	-3.6312	22.300	-81.229	-88.951	178.374	230.478	107.895	134.407	180.478	77.586	106.740	214.604	38.823	41.163	233.289	-5.144	-24.788	0.00032951	0.00020305	8.8662e-05	1036	1.5832e-06	2.6045e-06	1106.2	220.87	1.2018e-06	1.37e-06	280.36	77.834	60.111	17.805	1.4872e-06	25.611	5.7406e-05	5.2119e-05	1.3192e-05	1006	5.4471e-07	5.3756e-07	1073	215.4	5.2164e-07	5.5287e-07	269.53	76.282	57.214	17.572	5.183e-07	25.069	37.204	-26.304	6.883	-103.270	-22.382	54.185	-103.525	-96.536	-29.933	-35.390	-96.801	-90.018	-90.428	-82.459	31.334	-83.168	-8191	255	
524.704	1	1	0	0	0.1147	0.11231	0.16336	0.072015	0.081912	0.11363	0.11527	0.060216	0.027231	0.20978	0.2081	0.21686	0.13466	0.18599	0.20973	0.24225	-3.3833	-3.6479	-3.7562	-3.8146	-3.4083	-3.8208	-3.7479	-3.7958	-3.9625	-3.5479	-4.0458	-3.8063	-3.5854	-3.9229	-3.5292	-3.7812	124.809	200.302	62.076	140.774	206.734	36.879	227.444	-13.088	-39.719	162.919	204.206	-47.327	207.807	-106.532	-51.760	161.240	0.00039511	0.00026523	4.3341e-05	1045.2	1.1644e-06	1.6721e-06	1104.3	221.98	5.8874e-06	2.506e-06	279.16	77.982	60.441	17.833	2.2539e-06	25.406	6.1732e-05	5.1825e-05	1.2637e-05	1009.4	5.8122e-07	5.4908e-07	1073.5	215.33	5.8784e-07	5.1196e-07	269.4	76.387	57.109	17.607	4.9373e-07	25.011	15.962	-55.864	-23.131	-103.326	213.742	38.010	-103.377	-96.599	20.522	16.611	-96.302	-89.981	-90.093	-82.651	5.935	-82.933	-8191	255	
524.825	1	1	0	0	0.095898	0.20035	0.13457	0.17302	0.11632	0.15417	0.17627	0.14091	0.02485	0.019812	0.10256	0.13749	0.15653	0.090237	0.094819	0.10708	-3.5104	-3.5042	-3.8208	-4.1188	-3.6292	-3.8771	-3.8896	-3.7021	-3.9854	-3.5146	-3.6458	-3.9167	-3.6312	-3.85	-3.7417	-3.7583	-54.463	96.318	-95.870	208.369	-75.678	214.745	184.994	237.199	231.918	43.068	142.526	232.073	165.138	-63.791	219.657	129.646	0.00031611	0.00039993	9.9871e-05	1039.5	3.025e-06	3.3576e-06	1100.3	220.15	3.6704e-06	1.7649e-06	277.96	77.77	59.871	17.891	4.3335e-07	25.212	6.2842e-05	4.762e-05	1.2147e-05	1005.6	5.8941e-07	5.0535e-07	1072.6	215.24	6.1356e-07	5.2123e-07	269.2	76.288	57.29	17.57	4.8262e-07	24.999	19.116	-56.934	-29.736	-103.327	-65.351	85.866	-103.756	-96.188	-4.452	-1.919	-96.999	-90.399	-89.287	-82.815	37.712	-82.989	-8191	255	
524.919	1	1	0	0	0.066093	0.061917	0.1429	0.20243	0.27995	0.16604	0.25627	0.089021	0.1467	0.061678	0.075177	0.1713	0.15556	0.11981	0.069628	0.073494	-3.5438	-3.7375	-3.6958	-4.0563	-3.6021	-3.8208	-3.8917	-3.5229	-3.7833	-3.5938	-3.7271	-4.0042	-3.5917	-3.6813	-3.7792	-3.6917	139.129	213.843	-113.431	203.203	159.113	112.205	187.812	205.805	190.683	125.196	-22.306	196.380	199.174	183.849	173.773	53.582	0.00032045	0.00031491	6.8906e-05	1042	7.9919e-07	2.3989e-06	1101.8	221.83	2.6262e-06	2.714e-06	279.65	77.816	60.1	17.897	2.3502e-06	25.325	6.3732e-05	4.689e-05	1.2095e-05	1007.3	6.0894e-07	4.9148e-07	1072.8	215.74	5.6553e-07	5.0545e-07	269.59	76.378	57.374	17.536	4.9264e-07	24.996	25.361	-15.533	2.598	-103.296	20.003	33.358	-103.594	-96.440	-11.085	-22.187	-96.505	-89.995	-90.054	-82.302	3.974	-83.491	-8191	255	
525.015	1	1	0	0	0.14213	0.08286	0.022199	0.25573	0.15506	0.010319	0.18361	0.088572	0.24333	0.19052	0.17927	0.089586	0.18931	0.26764	0.1482	0.1313	-3.6125	-3.6437	-3.6646	-4.1729	-3.6708	-3.9333	-4.0604	-3.3563	-3.9313	-3.6396	-3.5312	-3.8833	-3.5604	-3.7896	-3.7188	-3.5229	104.692	-80.088	-102.585	174.612	-67.582	195.548	189.584	-79.085	118.041	-75.518	36.447	173.471	116.843	-97.854	175.661	-96.593	0.00029448	0.00022304	5.5879e-05	1038.7	2.0202e-06	2.0861e-06	1102.7	220.47	3.1332e-06	3.7733e-06	278.6	77.814	60.281	17.884	4.6371e-06	25.182	6.2028e-05	4.407e-05	1.2311e-05	1006.5	5.7898e-07	5.0986e-07	1073.4	215.48	5.5652e-07	4.9224e-07	269.11	76.457	57.3	17.558	5.0558e-07	25.009	30.279	-48.071	38.905	-103.486	80.605	22.594	-103.651	-96.616	-54.786	43.242	-96.686	-89.905	-90.083	-82.543	-15.023	-82.925	-8191	255	
525.111	1	1	0	0	0.16792	0.12004	0.28772	0.15914	0.20701	0.08075	0.12961	0.13795	0.03276	0.24654	0.12113	0.27645	0.076507	0.1363	0.07197	0.15104	-3.4146	-3.7313	-3.4729	-3.9	-3.4625	-3.6729	-4.1312	-3.4938	-3.85	-3.8458	-3.725	-3.9688	-3.6083	-3.675	-4.0542	-3.5146	25.535	240.289	6.882	-107.166	-22.704	-76.360	89.577	197.195	156.849	-9.633	173.086	177.827	94.268	-82.980	12.117	210.494	0.00032788	0.00022804	6.1423e-05	1033.8	3.5192e-06	1.7961e-06	1095.9	220.5	3.6992e-06	3.883e-06	278.13	78.025	59.913	17.746	1.3142e-06	25.352	5.8939e-05	4.3902e-05	1.2638e-05	1004.9	5.524e-07	4.7608e-07	1070	215.49	5.3484e-07	4.7055e-07	269.57	76.386	57.089	17.509	5.2987e-07	25.019	31.910	-88.403	-48.338	-103.154	-68.151	44.769	-103.304	-96.368	17.042	41.629	-96.516	-90.388	-89.899	-82.612	33.927	-83.395	-8191	255	
525.232	1	1	0	0	0.2419	0.072221	0.12477	0.11267	0.17626	0.20149	0.1283	0.12053	0.22264	0.10091	0.17433	0.13358	0.18706	0.13854	0.12673	0.095334	-3.3812	-3.7458	-3.5875	-4.0375	-3.6021	-3.6813	-4.0417	-3.5854	-3.6771	-3.6937	-3.675	-4.1458	-3.6583	-3.5896	-3.9583	-3.5104	-20.882	105.151	179.757	225.448	184.718	134.311	97.879	225.810	155.990	9.033	-108.543	72.891	-98.876	-99.626	242.338	138.216	0.0003377	0.00019624	7.1897e-05	1040.2	3.6559e-06	2.0174e-06	1100.5	220.42	1.3275e-06	2.6983e-06	279.36	78.108	59.848	17.895	2.5803e-06	25.409	5.8723e-05	4.2845e-05	1.392e-05	1006.4	5.3135e-07	4.6991e-07	1071.1	215.38	5.5237e-07	4.7353e-07	269.18	76.339	57.032	17.538	5.5024e-07	24.961	15.694	-40.068	-46.066	-103.156	-20.736	47.110	-103.413	-96.482	-55.842	13.772	-96.531	-90.155	-90.433	-82.597	44.156	-83.332	-8191	255	
525.328	1	1	0	0	0.097814	0.20162	0.088247	0.19187	0.12805	0.17424	0.20369	0.32266	0.15041	0.11409	0.10841	0.089153	0.14745	0.13562	0.016594	0.25601	-3.4646	-3.5979	-3.3125	-3.9167	-3.6229	-3.6583	-4.0479	-3.5042	-3.65	-3.8604	-3.4667	-3.9729	-3.5521	-3.7042	-3.9562	-3.4104	190.487	182.262	211.401	-70.293	38.426	192.207	166.957	241.159	168.315	154.252	-49.459	167.341	-92.913	-11.052	21.401	-88.509	0.00031271	0.00021118	6.4714e-05	1034.2	7.9317e-07	3.1073e-06	1099.5	220.75	2.7837e-06	2.4171e-06	277.93	77.791	60.142	17.818	1.6583e-06	25.26	5.7913e-05	4.0998e-05	1.3988e-05	1004.6	5.335e-07	4.7134e-07	1071.9	215.24	5.383e-07	4.6193e-07	269.15	76.299	56.876	17.54	5.3725e-07	24.973	24.952	-50.781	-45.498	-103.228	231.426	-16.282	-103.263	-96.174	43.233	6.343	-96.675	-90.173	-89.300	-82.898	12.186	-83.500	-8191	255	
525.424	1	1	0	0	0.20528	0.055839	0.10224	0.30558	0.064141	0.14725	0.1092	0.089415	0.079108	0.25234	0.17065	0.14678	0.13534	0.13256	0.081002	0.13187	-3.2583	-3.7687	-3.4313	-3.875	-3.6688	-3.6479	-4.0042	-3.6	-3.6125	-3.9229	-3.4333	-3.8	-3.7313	-3.4229	-3.9208	-3.6063	195.305	197.707	197.682	157.318	174.766	29.212	206.381	171.982	-103.326	65.299	170.551	19.507	-24.824	-106.415	-98.249	112.661	0.00026587	0.00045067	4.6803e-05	1039.1	3.1882e-06	1.3131e-06	1101.9	220.83	2.2499e-06	1.2867e-06	279.36	78.523	59.624	17.863	2.875e-06	25.182	5.6133e-05	4.6848e-05	1.3949e-05	1004.5	5.222e-07	5.1973e-07	1070.9	215.19	5.1604e-07	5.3122e-07	269.37	76.478	56.876	17.54	5.5735e-07	24.983	17.269	-59.269	8.662	-103.260	-64.482	-14.469	-103.459	-96.350	3.019	81.452	-96.227	-90.216	-89.705	-82.508	32.275	-83.429	-8191	255	
525.520	1	1	0	0	0.15542	0.22947	0.021158	0.14681	0.12863	0.091428	0.076509	0.2463	0.11337	0.020425	0.043802	0.2249	0.054466	0.12946	0.12723	0.23481	-3.2625	-3.8104	-3.4688	-4.0292	-3.7042	-3.4896	-4.0854	-3.6792	-3.6688	-3.9167	-3.4104	-3.7083	-3.8312	-3.6958	-3.8146	-3.6708	49.989	111.335	231.477	-102.211	116.811	-73.749	237.550	221.826	-37.981	80.501	4.648	-69.191	228.341	-43.418	226.477	165.752	0.00032703	0.00022373	8.4632e-05	1037	1.7917e-06	2.9161e-06	1101.5	220.86	1.9096e-06	2.594e-06	277.45	77.845	59.696	17.897	2.7825e-06	25.259	5.5946e-05	5.0432e-05	1.3803e-05	1004.6	5.1452e-07	5.4102e-07	1071.6	214.85	5.18e-07	5.3884e-07	268.73	76.229	57.131	17.557	5.1725e-07	25.001	29.045	-58.271	13.507	-103.407	35.799	49.371	-103.495	-96.464	-28.821	5.070	-96.729	-90.612	-89.972	-82.154	6.172	-83.338	-8191	255	
525.617	1	1	0	0	0.22863	0.23424	0.10092	0.090679	0.19315	0.18421	0.13204	0.19079	0.12429	0.14706	0.093739	0.060596	0.075263	0.13888	0.16049	0.19704	-3.0187	-3.9437	-3.2542	-3.7	-3.9458	-3.3625	-3.9021	-3.625	-3.5104	-3.7479	-3.5708	-3.725	-3.8104	-3.4979	-3.7854	-3.7542	-54.096	157.601	59.553	-24.239	182.457	241.273	181.978	-81.944	146.523	175.344	224.890	213.314	72.389	191.920	48.112	-107.173	0.00041456	0.00035546	9.2107e-05	1038.9	2.796e-06	9.2055e-07	1101	221.47	6.2263e-07	3.403e-06	277.59	77.651	60.004	17.846	3.1336e-06	25.301	5.7406e-05	5.0944e-05	1.2524e-05	1006.6	5.368e-07	5.3267e-07	1070	215.28	5.3462e-07	5.4429e-07	269.31	76.116	57.012	17.56	5.0317e-07	24.922	23.062	-30.005	-26.080	-103.285	-46.500	78.866	-103.733	-96.251	-13.053	63.811	-96.644	-90.106	-89.338	-82.514	34.904	-83.148	-8191	255	
525.711	1	1	0	0	0.16425	0.1787	0.091466	0.098795	0.25281	0.10819	0.27131	0.07653	0.035575	0.31648	0.10699	0.30015	0.13507	0.32386	0.15919	0.11864	-3.2875	-3.7188	-3.4104	-3.7333	-3.7771	-3.3167	-3.9333	-3.7729	-3.4562	-3.8125	-3.7479	-3.5271	-3.7229	-3.4146	-3.7562	-3.9167	100.684	-97.288	-104.167	87.004	-78.386	69.500	170.008	226.600	-58.090	124.782	98.227	176.169	-114.322	-75.995	-70.292	137.143	0.0002899	0.00038528	6.362e-05	1036.2	3.2166e-07	2.1894e-06	1099.3	221.22	2.3699e-06	3.3371e-06	278.2	77.638	59.785	17.779	1.5407e-06	25.279	6.0906e-05	4.9169e-05	1.2919e-05	1003.7	5.685e-07	5.3102e-07	1070.2	214.71	5.7905e-07	5.1467e-07	268.85	76.286	56.965	17.549	4.9547e-07	24.939	27.446	-58.479	-73.667	-103.392	-35.944	54.895	-103.321	-96.363	-10.585	19.705	-96.636	-89.844	-90.089	-82.755	57.057	-83.063	-8191	255	
525.832	1	1	0	0	0.31098	0.17593	0.32064	0.13472	0.13649	0.11389	0.2653	0.069401	0.088984	0.25279	0.31229	0.12185	0.073496	0.23541	0.19995	0.03209	-3.1146	-3.6958	-3.7375	-3.75	-3.8375	-3.5083	-3.8354	-3.8792	-3.5354	-3.9958	-3.6125	-3.5583	-3.9208	-3.4938	-3.525	-3.9146	229.569	58.577	-53.518	-112.405	83.286	105.496	104.730	161.398	-101.172	-72.019	-0.720	240.349	216.464	201.796	34.882	216.444	0.00032037	0.00033323	8.2195e-05	1035	1.6811e-06	9.6003e-07	1099.8	220.22	4.0769e-06	1.8411e-06	279.39	77.768	59.162	17.826	3.3994e-06	25.385	6.4019e-05	4.9291e-05	1.1843e-05	1002.6	5.776e-07	5.0871e-07	1069.1	215.07	6.1807e-07	5.0275e-07	269.38	76.17	56.756	17.515	4.7806e-07	24.955	27.019	-30.957	-4.717	-103.497	-105.364	92.369	-103.537	-96.193	-12.707	32.441	-96.800	-90.230	-90.105	-82.384	53.639	-83.129	-8191	255	
525.928	1	1	0	0	0.13436	0.25746	0.048724	0.19899	0.082113	0.089954	0.14059	0.13221	0.07381	0.26959	0.13392	0.10203	0.17876	0.15445	0.15799	0.166	-2.9667	-3.7646	-3.6854	-3.6417	-3.8646	-3.5042	-4.0417	-3.9542	-3.4646	-3.7208	-3.7292	-3.5687	-3.8604	-3.5333	-3.6875	-4.0917	-68.031	6.721	71.645	155.073	195.791	224.174	131.228	192.795	86.771	15.614	178.622	113.134	15.891	219.163	50.976	168.125	0.00031638	0.00028027	2.6084e-05	1030.6	2.2947e-06	1.5424e-06	1099	220.4	2.7695e-06	1.8394e-06	278.02	77.126	59.314	17.764	1.7719e-06	25.119	6.4306e-05	4.7029e-05	1.2004e-05	1002.9	5.8689e-07	4.9083e-07	1068.2	214.58	5.5916e-07	5.0793e-07	268.3	75.921	56.877	17.462	4.7715e-07	24.908	22.410	-69.861	5.280	-103.299	1.764	38.779	-103.343	-96.029	-34.878	37.672	-96.448	-90.236	-90.398	-82.394	2.296	-82.956	-8191	255	
525.999	1	1	0	0	0.22397	0.13347	0.2445	0.14451	0.17331	0.14173	0.10613	0.17388	0.19971	0.22646	0.064698	0.086009	0.10899	0.11398	0.066268	0.135	-3.0417	-3.9729	-3.7917	-3.525	-3.8438	-3.6479	-3.7417	-3.9417	-3.5187	-3.8125	-3.7375	-3.5958	-3.9125	-3.5521	-3.5646	-3.8458	150.349	20.794	82.368	222.229	-21.835	3.956	221.230	203.881	30.394	184.357	60.370	239.356	49.644	184.684	200.423	98.161	0.0003516	0.00018725	6.3457e-05	1029.3	2.6167e-06	3.6434e-06	1093	219.56	2.0149e-06	2.2251e-06	276.36	77.064	59.356	17.789	1.9704e-06	25.3	6.1082e-05	4.3722e-05	1.1604e-05	998.84	5.3474e-07	4.8263e-07	1065.3	214.05	5.5779e-07	4.662e-07	267.76	75.856	56.782	17.505	5.0604e-07	24.935	24.311	-83.038	-9.312	-103.371	0.424	23.455	-103.229	-96.406	-43.563	38.220	-96.541	-89.860	-90.019	-82.671	74.967	-83.149	-8191	255	
526.096	1	1	0	0	0.26099	0.16307	0.18168	0.1131	0.2657	0.19403	0.069809	0.14045	0.090889	0.11737	0.12222	0.18539	0.18443	0.19535	0.39267	0.062217	-3.1271	-3.6479	-3.8479	-3.5417	-3.7021	-3.6729	-3.6896	-3.7896	-3.5208	-3.7562	-3.7729	-3.5333	-3.9062	-3.9042	-3.3646	-3.9437	149.794	221.089	42.753	196.293	4.910	197.840	67.719	-107.443	146.374	-49.154	93.082	173.077	90.643	-57.849	-95.485	64.147	0.00030057	0.0003674	7.9216e-05	1029.4	1.5802e-06	2.2323e-06	1097	220.15	2.8625e-06	3.1343e-06	277.34	77.352	59.913	17.687	1.3377e-06	25.223	5.9565e-05	4.2845e-05	1.232e-05	1000.9	5.6685e-07	4.6793e-07	1067.1	214.22	5.4595e-07	4.9816e-07	268.53	75.833	56.938	17.452	5.5639e-07	24.898	28.608	-83.674	-5.352	-103.373	240.197	28.578	-103.307	-96.323	6.030	-0.932	-96.793	-90.023	-89.527	-82.458	42.767	-83.218	-8191	255	
526.216	1	1	0	0	0.18268	0.10384	0.15826	0.19549	0.15732	0.1294	0.1436	0.27278	0.027606	0.090757	0.064908	0.13951	0.29799	0.09886	0.11647	0.24348	-3.1312	-3.6625	-3.8792	-3.6896	-3.8812	-3.7875	-3.6833	-3.9833	-3.5521	-3.8312	-3.9958	-3.3708	-3.7562	-3.8	-3.4938	-3.9979	-76.241	142.222	36.273	187.625	-104.965	64.227	209.923	195.072	83.891	129.243	-47.177	-13.403	33.078	-58.484	171.929	133.186	0.00022813	6.8241e-05	6.6174e-05	1035.4	5.3067e-07	1.9435e-06	1095.5	219.81	3.6328e-07	2.0922e-06	277.43	77.654	59.273	17.649	9.5992e-07	25.185	6.2147e-05	4.5787e-05	1.3843e-05	1002.1	5.3689e-07	4.6267e-07	1067.7	214.13	5.6134e-07	4.9637e-07	268.88	76.09	56.682	17.462	5.6628e-07	24.908	24.629	-9.261	24.319	-103.332	31.531	38.187	-103.368	-96.322	-34.647	-8.330	-96.470	-89.889	-89.601	-82.744	232.556	-83.145	-8191	255	
526.312	1	1	0	0	0.098568	0.17054	0.081766	0.058727	0.27747	0.091177	0.15468	0.22702	0.14934	0.12239	0.17626	0.11854	0.18353	0.15138	0.17305	0.11012	-3.3146	-3.6396	-3.775	-3.5375	-3.6208	-3.7708	-3.6125	-3.925	-3.5458	-3.5625	-4.0229	-3.4542	-3.5021	-3.8625	-3.4958	-3.9021	101.611	44.097	130.359	111.528	-84.134	204.631	147.889	216.734	232.512	8.731	-55.729	196.451	-44.148	134.879	-37.646	-33.611	0.0003222	0.00023731	0.00010057	1029.3	1.5047e-06	2.1349e-06	1096.1	219.29	3.0041e-06	2.4125e-06	277.74	77.547	59.661	17.798	1.0469e-06	25.23	5.9031e-05	4.6319e-05	1.4516e-05	999.58	5.4398e-07	4.9853e-07	1068.5	214.48	5.282e-07	5.1421e-07	268.64	75.797	56.88	17.51	5.9872e-07	24.831	22.405	-65.020	0.571	-103.280	17.699	-11.928	-103.474	-96.403	-33.047	20.114	-96.558	-89.860	-90.002	-82.848	32.550	-82.927	-8191	255	
526.409	1	1	0	0	0.19283	0.17828	0.10656	0.22829	0.1042	0.0814	0.33353	0.20272	0.078682	0.043769	0.095823	0.14503	0.22149	0.23457	0.1313	0.35398	-3.2792	-3.6042	-3.8458	-3.6813	-3.6	-3.8667	-3.5792	-3.8458	-3.7	-3.6333	-3.8771	-3.3958	-3.6333	-3.8479	-3.4021	-3.875	114.776	164.769	118.540	191.594	199.851	-84.729	216.063	12.254	46.025	239.644	218.754	136.221	89.983	78.262	-112.726	-79.560	0.00034644	0.00026136	7.1022e-05	1031.4	2.1943e-06	3.0483e-06	1100.6	220.16	1.1172e-06	8.2453e-07	276.04	77.381	59.424	17.694	1.2937e-06	25.179	5.8404e-05	5.115e-05	1.442e-05	1000	5.4188e-07	5.4028e-07	1067.6	214.31	5.2519e-07	5.221e-07	268.05	75.856	56.675	17.465	6.0529e-07	24.813	20.418	-86.400	-9.371	-103.492	60.134	67.482	-103.368	-96.404	80.166	70.639	-96.583	-89.851	-89.767	-82.800	8.257	-83.374	-8191	255	
526.505	1	1	0	0	0.29594	0.19048	0.14286	0.1569	0.057857	0.25607	0.12171	0.27437	0.12755	0.07756	0.39899	0.11988	0.20454	0.093987	0.13084	0.1399	-3.3729	-3.4562	-3.8875	-3.7104	-3.6104	-3.8812	-3.5875	-3.7646	-3.7333	-3.5	-3.8042	-3.6792	-3.4729	-3.8417	-3.5521	-3.55	-9.401	-105.501	172.220	220.226	66.104	-102.775	-58.147	240.096	157.447	-105.879	25.414	150.821	151.701	34.366	199.037	-27.317	0.00033913	0.00033545	8.8407e-05	1027.1	2.4014e-06	2.409e-06	1098.5	220.16	4.9402e-06	1.3657e-06	273.72	76.993	59.208	17.625	4.8028e-07	24.986	5.9166e-05	5.2967e-05	1.4608e-05	999.86	5.3414e-07	5.4926e-07	1068.5	214.23	5.2123e-07	6.0593e-07	267.42	75.612	56.624	17.416	5.7321e-07	24.755	15.726	-74.203	-4.741	-103.470	-93.112	44.180	-103.448	-96.122	-9.383	40.548	-96.804	-90.255	-89.702	-82.602	29.705	-82.746	-8191	255	
526.601	1	1	0	0	0.20163	0.14364	0.10349	0.083409	0.058011	0.080998	0.18586	0.21209	0.054535	0.25036	0.10361	0.03918	0.063569	0.15958	0.404	0.16606	-3.4125	-3.5563	-3.7042	-3.5958	-3.5375	-3.6979	-3.5896	-3.6833	-3.7313	-3.5083	-3.9458	-3.55	-3.5	-3.8375	-3.4562	-3.7021	-48.490	55.564	-53.872	-42.165	77.193	85.413	164.529	149.808	136.842	-38.865	-33.327	197.633	65.685	-17.602	53.583	99.535	0.00037081	0.0003733	5.4057e-05	1032.3	5.4259e-07	1.7538e-06	1095.3	217.99	3.7713e-06	3.1438e-06	275.05	77.293	59.535	17.584	2.4696e-06	24.986	6.1549e-05	5.7486e-05	1.4662e-05	1002.9	5.9476e-07	6.1802e-07	1067.8	213.58	6.0195e-07	6.4234e-07	267.33	75.442	56.507	17.376	5.9549e-07	24.638	25.933	-109.311	32.829	-103.412	100.918	56.010	-103.625	-96.061	-23.421	-14.133	-96.448	-90.270	-90.042	-82.663	59.301	-83.185	-8191	255	
526.697	1	1	0	0	0.22345	0.16881	0.17547	0.24857	0.14061	0.038678	0.11793	0.065778	0.30994	0.22722	0.13897	0.22106	0.047639	0.030087	0.10102	0.094044	-3.425	-3.2958	-3.7542	-3.7812	-3.5917	-3.875	-3.4896	-3.7562	-3.725	-3.3917	-3.7438	-3.8312	-3.4458	-3.8417	-3.5396	-3.4562	209.842	2.815	203.480	193.574	-55.046	39.646	93.335	-21.353	59.092	-110.579	-84.680	151.989	-52.651	8.020	-29.322	203.276	0.00032793	0.00032241	5.698e-05	1034.3	3.151e-06	1.9264e-06	1095.5	218.84	1.2744e-06	1.9508e-06	273.62	77.17	59.487	17.624	3.2237e-06	25.01	6.5599e-05	5.7226e-05	1.4619e-05	1002.5	6.2953e-07	5.9816e-07	1066.3	213.22	6.2504e-07	5.8882e-07	266.26	75.498	56.664	17.358	5.5056e-07	24.668	21.467	-56.367	-104.415	-103.146	-0.353	34.669	-103.379	-95.933	-45.644	53.375	-96.552	-89.996	-89.561	-82.714	4.943	-83.039	-8191	255	
526.793	1	1	0	0	0.1536	0.26843	0.17278	0.18318	0.01617	0.15558	0.15641	0.13715	0.15307	0.21516	0.095192	0.058092	0.23011	0.14449	0.11287	0.16831	-3.3979	-3.4437	-3.7958	-3.775	-3.3125	-3.7458	-3.6437	-3.7104	-3.9458	-3.4125	-3.6521	-3.7896	-3.5125	-3.8917	-3.5229	-3.5354	193.063	47.595	145.540	-94.724	217.366	-95.754	53.450	166.113	-97.107	72.272	-65.949	-102.158	-31.401	43.370	-5.664	122.978	0.00037393	0.00049798	4.0449e-05	1032.1	2.9188e-06	3.3924e-06	1095	219.02	1.7696e-06	2.0317e-06	274.81	76.891	59.465	17.542	1.9867e-06	24.929	6.8129e-05	5.4116e-05	1.3433e-05	1000.4	6.4023e-07	5.8032e-07	1065.1	213.05	6.4125e-07	5.7319e-07	266.75	75.345	56.722	17.304	5.1884e-07	24.65	11.509	-24.617	1.941	-103.296	-63.023	5.035	-103.622	-96.011	-10.554	-5.589	-96.619	-90.073	-90.091	-82.270	-13.694	-83.044	-8191	255	
526.912	1	1	0	0	0.15918	0.2814	0.21226	0.085007	0.1538	0.28037	0.18856	0.15	0.11817	0.25678	0.15231	0.14079	0.18185	0.30286	0.22412	0.14949	-3.4542	-3.3792	-3.5792	-3.9104	-3.3292	-3.7687	-3.9708	-3.4458	-3.8667	-3.4292	-3.6125	-3.8937	-3.4625	-3.8729	-3.7125	-3.6583	212.953	243.580	-74.207	-106.700	29.065	64.522	229.023	-72.342	191.775	174.674	141.251	121.098	95.393	174.109	90.921	197.176	0.00030947	0.00021628	3.437e-05	1032.8	2.898e-06	2.2099e-06	1093.1	217.85	2.5601e-06	3.2587e-06	274.93	76.992	59.219	17.63	2.2221e-06	25.08	6.8457e-05	5.141e-05	1.3082e-05	999.05	6.529e-07	5.318e-07	1064.8	212.77	6.4302e-07	5.7474e-07	266.25	75.32	56.597	17.285	5.2554e-07	24.643	9.683	-39.316	35.413	-103.579	-10.859	93.773	-103.292	-96.339	-8.297	10.930	-96.627	-90.287	-90.012	-82.401	64.267	-83.088	-8191	255	
527.008	1	1	0	0	0.25014	0.04922	0.15386	0.17635	0.14218	0.05921	0.12579	0.2133	0.20648	0.19309	0.19949	0.089996	0.099903	0.17901	0.16918	0.079653	-3.3688	-3.4646	-3.5646	-3.8771	-3.4542	-3.8625	-3.6312	-3.7229	-3.9021	-3.6667	-3.6958	-3.8083	-3.4229	-3.7771	-3.8771	-3.3708	-55.008	44.552	186.550	208.290	21.261	133.917	169.738	167.543	218.703	-21.894	-77.685	-63.786	156.234	-109.450	222.974	170.041	0.00035534	0.00031543	4.4177e-05	1031.4	2.368e-06	2.9765e-06	1093.6	218.12	3.8668e-06	1.2466e-06	274.8	76.51	59.115	17.434	1.5243e-06	24.86	6.7627e-05	4.8506e-05	1.2951e-05	1000.9	6.0981e-07	5.3397e-07	1065.2	212.63	6.4134e-07	5.3453e-07	266.23	75.36	56.625	17.302	5.2454e-07	24.714	22.324	-68.551	-71.963	-103.280	-109.266	59.425	-103.344	-96.256	13.297	114.446	-96.869	-90.012	-89.654	-82.316	38.352	-83.320	-8191	255	
527.104	1	1	0	0	0.1781	0.1707	0.13877	0.18887	0.14322	0.18241	0.13739	0.29183	0.043806	0.071385	0.15577	0.18583	0.061604	0.20705	0.20353	0.2195	-3.3771	-3.5021	-3.5312	-4.05	-3.4021	-3.7438	-3.8854	-3.3667	-3.7958	-3.7292	-3.5646	-4.175	-3.5333	-3.5062	-3.6583	-3.5375	-60.229	199.952	245.575	-112.345	123.826	-9.386	102.887	124.645	10.235	-104.121	-49.031	234.564	234.935	-78.142	185.967	-81.880	0.00038178	0.00014317	9.099e-05	1034	3.004e-06	2.1634e-06	1093.7	218.8	1.4774e-06	2.0431e-06	275.71	76.854	59.114	17.637	2.684e-06	25.168	6.4458e-05	4.971e-05	1.3386e-05	1001	6.2111e-07	5.2373e-07	1064.6	212.94	6.1889e-07	5.1701e-07	266.8	75.534	56.443	17.35	5.604e-07	24.749	19.991	-27.317	-7.145	-103.198	-51.214	48.628	-103.193	-96.138	59.747	7.143	-96.718	-89.910	-89.624	-82.583	-28.568	-83.242	-8191	255	
527.225	1	1	0	0	0.40513	0.19021	0.27597	0.15288	0.2083	0.16948	0.22726	0.2673	0.19402	0.15473	0.1057	0.12916	0.16033	0.18671	0.10898	0.034218	-3.4062	-3.5729	-3.4271	-4.0521	-3.4729	-3.5521	-3.8563	-3.5	-3.8625	-3.7	-3.5563	-4.0167	-3.3937	-3.5875	-3.8083	-3.4417	167.662	-63.432	-41.230	-109.319	166.679	214.637	185.067	-66.012	179.674	0.090	57.934	155.844	-56.203	-106.438	122.290	218.737	0.00029214	0.00016328	6.2849e-05	1028.6	1.4492e-06	2.5244e-06	1095.1	218.01	3.285e-06	4.2234e-06	275.45	76.572	58.74	17.517	2.3214e-06	25.044	6.3101e-05	4.7469e-05	1.4821e-05	998.35	6.0176e-07	5.259e-07	1062.8	212.82	5.9462e-07	5.254e-07	266.81	75.461	56.418	17.316	6.0442e-07	24.71	37.910	-2.456	-38.277	-103.240	-13.138	11.336	-103.529	-96.400	0.215	-0.834	-96.577	-89.943	-89.919	-82.528	47.805	-83.023	-8191	255	
527.297	1	1	0	0	0.14972	0.12361	0.17704	0.19249	0.13326	0.078543	0.11368	0.098516	0.0636	0.074568	0.25756	0.18729	0.15146	0.20324	0.15227	0.2307	-3.3292	-3.6562	-3.4354	-3.8438	-3.6917	-3.675	-4.0167	-3.5854	-3.6063	-3.8417	-3.5812	-3.8604	-3.6479	-3.6729	-3.8958	-3.4292	186.278	-56.780	79.374	-105.819	2.120	200.760	225.421	236.605	-82.368	-17.856	213.864	-81.188	87.080	233.691	138.591	165.413	0.00035082	0.0003226	3.4487e-05	1033.4	3.786e-06	2.8769e-06	1097.2	218.71	3.3007e-06	8.4571e-07	274.71	77.2	58.644	17.635	3.3255e-06	25.019	6.1812e-05	4.7494e-05	1.5293e-05	999.79	5.7619e-07	5.1922e-07	1065.9	212.7	5.7518e-07	5.5218e-07	266.72	75.428	56.289	17.338	6.2265e-07	24.751	22.852	-41.378	-23.326	-103.207	-13.340	-21.859	-103.558	-96.471	-0.234	-10.815	-96.448	-89.997	-89.686	-82.478	21.197	-82.804	-8191	255	
527.393	1	1	0	0	0.037953	0.041322	0.20294	0.087761	0.14494	0.027128	0.12372	0.19249	0.17051	0.29987	0.048887	0.10639	0.06059	0.186	0.17957	0.14848	-3.2229	-3.85	-3.3458	-4.0104	-3.8583	-3.5583	-4.1208	-3.6042	-3.5792	-3.9437	-3.3729	-3.8792	-3.6188	-3.6167	-3.8958	-3.5187	-26.228	96.417	16.183	-100.052	20.032	-18.439	-67.169	194.308	227.387	201.017	110.681	-109.652	46.834	-80.829	230.913	117.730	0.00026281	0.00026327	6.404e-05	1031.1	2.0464e-06	1.4285e-06	1089.8	218.45	2.3961e-06	2.6275e-06	275.87	76.924	59.186	17.573	2.1354e-06	24.913	6.0743e-05	5.0222e-05	1.5781e-05	999.55	5.5212e-07	5.73e-07	1063.5	212.95	5.3657e-07	5.3907e-07	266.98	75.584	56.6	17.365	6.0123e-07	24.66	23.195	-21.937	-8.223	-103.341	-28.771	24.012	-103.451	-96.506	8.204	-10.276	-96.606	-90.092	-90.062	-82.621	-1.791	-83.323	-8191	255	
527.513	1	1	0	0	0.059837	0.20207	0.096347	0.11291	0.15916	0.018075	0.14163	0.20085	0.13928	0.093643	0.030406	0.030714	0.072004	0.15443	0.12225	0.074745	-3.2167	-3.7708	-3.3875	-4.0104	-3.8229	-3.5062	-4.0333	-3.4188	-3.6125	-3.8625	-3.6354	-3.8958	-3.8229	-3.5167	-3.7812	-3.7	95.885	186.004	89.346	49.494	236.189	68.063	179.720	156.665	178.323	-11.104	26.532	31.307	92.185	213.447	15.522	-1.456	0.00030065	0.0002373	7.1851e-05	1026.7	2.1226e-06	2.662e-06	1090.5	218.47	3.2751e-06	2.3544e-06	276.01	76.819	59.179	17.554	9.117e-07	25.227	6.0958e-05	5.1129e-05	1.536e-05	998.27	5.3982e-07	5.8627e-07	1063.4	212.61	5.4026e-07	5.8323e-07	266.66	75.469	56.421	17.306	5.5885e-07	24.764	26.401	-91.427	-39.646	-103.485	28.482	33.552	-103.603	-96.382	-1.624	1.657	-96.497	-90.004	-90.338	-82.489	-73.004	-82.953	-8191	255	
#DATA ENDS
