BOXY.EXE: ISS Imagent and Oximeter Data Acquisition Program Version 0.80
Ascii Record File

#ACQ INFORMATION
2  Detector Channels 
16  External MUX Channels 
1  Auxiliary Channels 
5000  Waveform (CCF) Frequency (Hz)
1  Waveforms Skipped 
30  Waveforms Averaged 
1  Cycles Averaged 
16  Acquisitions per Waveform 
10.0806  Updata Rate (Hz) 

#FILE INFORMATION
TRUE -- External MUX Channel results are PARSED.
FALSE -- AC DC and Phase are NOT grouped.
TRUE -- Companion Program Settings File CREATED.
FALSE -- AC data not excluded
FALSE -- DC data not excluded
FALSE -- Phase data not excluded
FALSE -- Auxillary Chn. data not excluded
Tab delimiters

#CALIBRATION STATE
TRUE -- Waveform Calibration Values APPLIED.


#AUX CALIBRATION VALUES
Val Type	aux-1	

Term	1.0000e+00	
Factor	0.0000e+00	


#WF CALIBRATION VALUES
A = Detector Channel
Val Type	A-AC1	A-AC2	A-AC3	A-AC4	A-AC5	A-AC6	A-AC7	A-AC8	A-AC9	A-AC10	A-AC11	A-AC12	A-AC13	A-AC14	A-AC15	A-AC16	A-DC1	A-DC2	A-DC3	A-DC4	A-DC5	A-DC6	A-DC7	A-DC8	A-DC9	A-DC10	A-DC11	A-DC12	A-DC13	A-DC14	A-DC15	A-DC16	A-Ph1	A-Ph2	A-Ph3	A-Ph4	A-Ph5	A-Ph6	A-Ph7	A-Ph8	A-Ph9	A-Ph10	A-Ph11	A-Ph12	A-Ph13	A-Ph14	A-Ph15	A-Ph16	

Term	0.00000e+00	0.00000e+00	0.00000e+00	0.00000e+00	0.00000e+00	0.00000e+00	0.00000e+00	0.00000e+00	0.00000e+00	0.00000e+00	0.00000e+00	0.00000e+00	0.00000e+00	0.00000e+00	0.00000e+00	0.00000e+00	0.00000e+00	0.00000e+00	0.00000e+00	0.00000e+00	0.00000e+00	0.00000e+00	0.00000e+00	0.00000e+00	0.00000e+00	0.00000e+00	0.00000e+00	0.00000e+00	0.00000e+00	0.00000e+00	0.00000e+00	0.00000e+00	0.00000e+00	0.00000e+00	0.00000e+00	0.00000e+00	0.00000e+00	0.00000e+00	0.00000e+00	0.00000e+00	0.00000e+00	0.00000e+00	0.00000e+00	0.00000e+00	0.00000e+00	0.00000e+00	0.00000e+00	0.00000e+00	
Factor	1.00000e+00	1.00000e+00	1.00000e+00	1.00000e+00	1.00000e+00	1.00000e+00	1.00000e+00	1.00000e+00	1.00000e+00	1.00000e+00	1.00000e+00	1.00000e+00	1.00000e+00	1.00000e+00	1.00000e+00	1.00000e+00	1.00000e+00	1.00000e+00	1.00000e+00	1.00000e+00	1.00000e+00	1.00000e+00	1.00000e+00	1.00000e+00	1.00000e+00	1.00000e+00	1.00000e+00	1.00000e+00	1.00000e+00	1.00000e+00	1.00000e+00	1.00000e+00	X	X	X	X	X	X	X	X	X	X	X	X	X	X	X	X	

B = Detector Channel
Val Type	B-AC1	B-AC2	B-AC3	B-AC4	B-AC5	B-AC6	B-AC7	B-AC8	B-AC9	B-AC10	B-AC11	B-AC12	B-AC13	B-AC14	B-AC15	B-AC16	B-DC1	B-DC2	B-DC3	B-DC4	B-DC5	B-DC6	B-DC7	B-DC8	B-DC9	B-DC10	B-DC11	B-DC12	B-DC13	B-DC14	B-DC15	B-DC16	B-Ph1	B-Ph2	B-Ph3	B-Ph4	B-Ph5	B-Ph6	B-Ph7	B-Ph8	B-Ph9	B-Ph10	B-Ph11	B-Ph12	B-Ph13	B-Ph14	B-Ph15	B-Ph16	

Term	0.00000e+00	0.00000e+00	0.00000e+00	0.00000e+00	0.00000e+00	0.00000e+00	0.00000e+00	0.00000e+00	0.00000e+00	0.00000e+00	0.00000e+00	0.00000e+00	0.00000e+00	0.00000e+00	0.00000e+00	0.00000e+00	0.00000e+00	0.00000e+00	0.00000e+00	0.00000e+00	0.00000e+00	0.00000e+00	0.00000e+00	0.00000e+00	0.00000e+00	0.00000e+00	0.00000e+00	0.00000e+00	0.00000e+00	0.00000e+00	0.00000e+00	0.00000e+00	-8.04234e+01	-1.37847e+02	-1.26162e+02	-1.82834e+02	-5.24038e+01	-6.82097e+01	-1.55347e+02	-1.62015e+02	-4.71552e+01	-6.29094e+01	-1.72033e+02	-1.69492e+02	-1.81206e+02	-1.77425e+02	-5.66357e+01	-1.49202e+02	
Factor	1.68067e-05	1.52540e-04	4.40358e-05	1.87130e-01	1.38784e-06	1.99638e-06	1.64779e-01	5.01756e-02	1.18323e-06	1.85048e-06	9.42551e-02	2.86956e-02	2.94153e-02	9.20885e-03	1.44991e-06	1.33427e-02	1.24920e-05	2.31203e-05	6.69980e-06	9.28491e-02	2.39388e-07	2.69183e-07	7.70233e-02	2.51105e-02	2.33104e-07	2.70199e-07	4.56869e-02	1.40546e-02	1.49162e-02	4.64599e-03	2.50135e-07	6.52096e-03	X	X	X	X	X	X	X	X	X	X	X	X	X	X	X	X	



#DISTANCE SETTINGS
A = Detector Channel
A-1	A-2	A-3	A-4	A-5	A-6	A-7	A-8	A-9	A-10	A-11	A-12	A-13	A-14	A-15	A-16	

2.5000e+00	3.0000e+00	2.5000e+00	3.0000e+00	2.0000e+00	3.0000e+00	1.5000e+00	3.0000e+00	3.0000e+00	3.0000e+00	3.0000e+00	3.0000e+00	3.0000e+00	3.0000e+00	1.5000e+00	3.0000e+00	

B = Detector Channel
B-1	B-2	B-3	B-4	B-5	B-6	B-7	B-8	B-9	B-10	B-11	B-12	B-13	B-14	B-15	B-16	

1.0000e+01	1.0000e+01	1.0000e+01	1.4400e+00	1.0000e+01	1.0000e+01	1.5100e+00	1.9400e+00	1.0000e+01	1.0000e+01	1.9900e+00	2.4900e+00	2.4100e+00	2.9000e+00	1.0000e+01	2.9800e+00	




#DATA BEGINS
time	group	step	mark	flag	A-AC1	A-AC2	A-AC3	A-AC4	A-AC5	A-AC6	A-AC7	A-AC8	A-AC9	A-AC10	A-AC11	A-AC12	A-AC13	A-AC14	A-AC15	A-AC16	A-DC1	A-DC2	A-DC3	A-DC4	A-DC5	A-DC6	A-DC7	A-DC8	A-DC9	A-DC10	A-DC11	A-DC12	A-DC13	A-DC14	A-DC15	A-DC16	A-Ph1	A-Ph2	A-Ph3	A-Ph4	A-Ph5	A-Ph6	A-Ph7	A-Ph8	A-Ph9	A-Ph10	A-Ph11	A-Ph12	A-Ph13	A-Ph14	A-Ph15	A-Ph16	B-AC1	B-AC2	B-AC3	B-AC4	B-AC5	B-AC6	B-AC7	B-AC8	B-AC9	B-AC10	B-AC11	B-AC12	B-AC13	B-AC14	B-AC15	B-AC16	B-DC1	B-DC2	B-DC3	B-DC4	B-DC5	B-DC6	B-DC7	B-DC8	B-DC9	B-DC10	B-DC11	B-DC12	B-DC13	B-DC14	B-DC15	B-DC16	B-Ph1	B-Ph2	B-Ph3	B-Ph4	B-Ph5	B-Ph6	B-Ph7	B-Ph8	B-Ph9	B-Ph10	B-Ph11	B-Ph12	B-Ph13	B-Ph14	B-Ph15	B-Ph16	aux-1	digaux	

741.841	1	1	0	256	0.39597	0.10637	0.23317	0.16351	0.085448	0.065754	0.056161	0.49719	0.094201	0.16009	0.20979	0.1511	0.092711	0.18047	0.213	0.089329	-2.65	-3.1542	-3.3729	-3.2104	-3.5146	-3.3604	-3.2875	-3.4625	-3.2104	-3.2208	-3.5375	-3.2458	-3.5271	-3.4833	-3.1312	-3.6188	243.700	200.994	135.001	359.377	56.433	306.836	142.879	365.572	115.770	86.496	28.406	191.140	38.553	112.676	162.044	345.358	0.00034615	0.00057275	0.00013248	1375.5	4.7657e-06	4.9203e-06	1382.3	370.31	4.4756e-06	3.9737e-06	425.06	140.78	122.39	42.373	4.986e-06	52.845	0.00085445	0.0012212	0.0003454	1391.6	1.3005e-05	1.3909e-05	1394.8	377.37	1.2605e-05	1.4098e-05	432.12	144.49	125.81	43.559	1.3325e-05	54.303	195.418	124.627	130.049	39.397	189.157	196.151	39.354	44.142	210.463	166.817	43.614	48.539	48.762	52.807	200.123	52.287	-8191	255	
741.935	1	1	0	0	0.22773	0.070132	0.16054	0.30442	0.22005	0.22913	0.32231	0.22507	0.13892	0.062577	0.087869	0.31117	0.29198	0.14047	0.23133	0.11704	-2.8292	-3.1188	-3.6354	-3.2229	-3.3646	-3.3604	-3.3521	-3.5438	-3.3042	-3.2313	-3.3708	-3.3312	-3.3792	-3.6896	-3.225	-3.4854	128.683	109.017	296.304	374.049	29.171	353.076	301.400	27.275	269.488	229.889	186.781	382.625	236.749	385.309	50.060	355.790	0.00033171	0.00061716	0.00019656	1377.8	4.6991e-06	5.7261e-06	1384.9	370.84	4.8562e-06	3.6938e-06	426.89	140.94	122.59	42.431	5.5134e-06	52.919	0.00087376	0.0012678	0.00035089	1395.5	1.3466e-05	1.4301e-05	1398.8	377.94	1.324e-05	1.3948e-05	433.76	144.99	126.08	43.649	1.3595e-05	54.274	201.710	85.452	138.482	39.423	253.281	196.763	39.384	44.156	214.746	174.010	43.673	48.463	48.638	52.938	205.321	52.203	-8191	255	
742.033	1	1	0	0	0.15161	0.14503	0.13389	0.4434	0.095428	0.18533	0.26368	0.25486	0.26914	0.13181	0.14471	0.22933	0.086076	0.25553	0.20669	0.26469	-2.9292	-3.2062	-3.4521	-3.3542	-3.3812	-3.4583	-3.4771	-3.7562	-3.4146	-3.3354	-3.5042	-3.5292	-3.3771	-3.4167	-3.1333	-3.3896	213.418	378.036	74.617	360.849	223.763	179.225	348.186	280.871	306.479	258.802	366.184	383.180	196.152	336.145	325.687	335.741	0.00033218	0.00052283	0.00011732	1372.6	5.3298e-06	4.3253e-06	1381.1	370.93	3.4094e-06	5.2236e-06	424.5	140.36	122.23	42.355	5.1141e-06	52.889	0.00085271	0.001232	0.00035188	1392	1.3097e-05	1.3824e-05	1393.6	377.62	1.2424e-05	1.3776e-05	431.95	144.41	125.7	43.55	1.2962e-05	54.128	191.649	117.444	118.071	39.395	204.218	178.352	39.603	44.058	193.886	214.046	43.382	48.426	48.578	52.902	204.406	52.230	-8191	255	
742.152	1	1	0	0	0.098169	0.119	0.17309	0.0073169	0.14412	0.12785	0.22783	0.30544	0.16134	0.16309	0.0956	0.22835	0.25885	0.219	0.29144	0.12339	-2.8208	-3.2875	-3.5563	-3.2417	-3.2896	-3.4646	-3.4875	-3.5208	-3.3312	-3.1333	-3.7	-3.2812	-3.4229	-3.5	-3.0292	-3.3417	169.863	270.179	45.243	296.566	178.437	327.571	296.993	291.260	150.691	292.293	84.093	376.208	350.669	330.036	116.718	282.552	0.00034522	0.00058694	0.00014312	1372.6	5.9757e-06	4.9566e-06	1377.6	370.03	3.2839e-06	5.0281e-06	426.89	140.76	122.65	42.403	5.0298e-06	52.839	0.00083139	0.0011894	0.00033713	1387.6	1.2122e-05	1.2978e-05	1391.1	377.18	1.2204e-05	1.3006e-05	432.68	144.65	125.92	43.678	1.2542e-05	54.289	198.623	111.718	129.703	39.500	199.591	186.669	39.438	44.111	200.411	197.233	43.717	48.496	48.696	52.871	188.350	52.382	-8191	255	
742.248	1	1	0	0	0.12421	0.30125	0.084361	0.052541	0.13222	0.14904	0.055824	0.16942	0.063134	0.16209	0.037972	0.086545	0.22166	0.30477	0.21034	0.071214	-2.9938	-3.1562	-3.5396	-3.4417	-3.3521	-3.5604	-3.3583	-3.6188	-3.3542	-3.3312	-3.5563	-3.3563	-3.4271	-3.4688	-3.2125	-3.5438	365.674	69.756	261.973	192.024	331.139	362.608	315.438	29.985	41.388	88.029	27.953	377.841	381.328	245.028	135.024	198.598	0.00033932	0.00040215	0.00017092	1379.8	6.753e-06	5.3599e-06	1386.2	372.08	3.5709e-06	3.6696e-06	426.85	141.67	123.37	42.613	3.8869e-06	53.247	0.00083171	0.0011517	0.00032983	1396	1.2529e-05	1.3138e-05	1400.7	378.62	1.2178e-05	1.3349e-05	435	145.16	126.53	43.821	1.3e-05	54.56	200.016	108.782	116.718	39.389	189.719	181.785	39.567	44.066	217.730	207.400	43.480	48.370	48.819	52.934	177.784	51.932	-8191	255	
742.320	1	1	0	0	0.057897	0.14474	0.18775	0.25024	0.2274	0.17455	0.16966	0.14341	0.0071264	0.20163	0.24267	0.088502	0.21507	0.18779	0.10281	0.10045	-2.9042	-3.0354	-3.2771	-3.5812	-3.175	-3.6312	-3.3521	-3.3896	-3.4437	-3.2354	-3.6458	-3.4104	-3.2729	-3.6354	-3.3063	-3.2042	149.196	86.759	31.860	334.306	355.932	241.575	313.915	313.215	228.693	367.768	369.459	346.124	345.730	313.872	156.891	373.638	0.00033584	0.00060545	0.00013032	1386.7	4.04e-06	4.5711e-06	1391.3	372.89	6.1257e-06	7.1478e-06	429.06	141.94	123.47	42.637	4.4829e-06	52.912	0.00083199	0.0011864	0.00033542	1403.9	1.2308e-05	1.3304e-05	1405.2	380.05	1.2483e-05	1.346e-05	435.95	145.54	126.69	43.805	1.3184e-05	54.443	200.851	114.538	111.541	39.377	214.566	183.536	39.493	44.432	230.308	188.858	43.387	48.289	48.869	52.830	188.902	52.257	-8191	255	
742.441	1	1	0	0	0.11527	0.15393	0.10456	0.26411	0.1116	0.12416	0.05615	0.24588	0.17011	0.32059	0.12533	0.19796	0.051963	0.12043	0.15513	0.21171	-2.8979	-3.1104	-3.4125	-3.4604	-3.2354	-3.5938	-3.5042	-3.3292	-3.5167	-3.1833	-3.3708	-3.6208	-3.2625	-3.5125	-3.0854	-3.2542	354.943	352.021	242.845	358.852	272.533	117.800	96.993	315.692	256.848	239.428	368.421	174.908	59.695	377.815	75.562	103.391	0.00035441	0.00056115	0.0001396	1380.9	3.659e-06	5.7281e-06	1384.7	373.29	4.1912e-06	5.2948e-06	426.86	141.39	123	42.564	4.5832e-06	53.089	0.00086046	0.0011978	0.00034804	1400	1.3218e-05	1.3955e-05	1402.1	379.55	1.3019e-05	1.4343e-05	435.85	145.38	126.45	43.774	1.3661e-05	54.487	198.295	107.307	121.207	39.335	210.216	179.790	39.297	44.111	218.604	166.187	43.402	48.229	48.843	52.730	186.089	52.155	-8191	255	
742.537	1	1	0	0	0.15883	0.23104	0.099397	0.25248	0.27494	0.20402	0.232	0.04575	0.16108	0.16477	0.28318	0.15026	0.076651	0.18877	0.15748	0.1296	-2.8521	-3.1083	-3.3792	-3.45	-3.1417	-3.3958	-3.3	-3.6271	-3.3042	-3.1312	-3.4625	-3.6271	-2.975	-3.6	-3.4437	-3.3083	260.237	75.515	231.944	304.484	241.614	382.072	354.971	275.213	159.447	126.536	385.532	372.439	134.723	273.109	209.554	68.941	0.00034252	0.00053764	0.00012131	1381.4	5.4556e-06	8.2903e-06	1386.8	372.44	3.9527e-06	6.5414e-06	427.76	141.42	123.51	42.643	5.5647e-06	52.982	0.00086994	0.0012237	0.00035401	1400.1	1.3115e-05	1.3764e-05	1403.6	379.07	1.2794e-05	1.3972e-05	435.15	145.48	126.45	43.765	1.4091e-05	54.419	194.136	102.516	134.967	39.548	202.454	173.234	39.471	44.171	226.845	201.600	43.504	48.263	48.712	53.009	199.898	52.263	-8191	255	
742.633	1	1	0	0	0.38921	0.068354	0.1426	0.1885	0.21595	0.10219	0.21819	0.14141	0.12069	0.067295	0.046592	0.022944	0.09912	0.14167	0.13563	0.18026	-2.9104	-3.2562	-3.3146	-3.5083	-3.2167	-3.2958	-3.4688	-3.3563	-3.5146	-3.125	-3.4667	-3.6542	-3.0333	-3.4146	-3.45	-3.0625	179.517	288.665	156.197	27.652	199.274	139.573	356.049	120.975	359.617	63.598	190.818	108.558	328.029	28.543	295.853	27.892	0.00030986	0.00027372	0.00012176	1385.7	3.2515e-06	5.7243e-06	1394.7	373.1	5.4833e-06	5.8155e-06	428.28	141.58	123.15	42.553	2.9613e-06	53.153	0.00088579	0.0013019	0.0003712	1402.5	1.3922e-05	1.4933e-05	1408.2	380.51	1.372e-05	1.5097e-05	436.71	145.71	126.43	43.762	1.4579e-05	54.443	202.428	112.693	138.988	39.344	236.919	200.833	39.303	44.146	215.849	162.432	43.598	48.334	48.781	52.866	213.216	52.191	-8191	255	
742.754	1	1	0	0	0.2799	0.066104	0.19822	0.058156	0.1892	0.065689	0.33281	0.1587	0.094099	0.24809	0.11358	0.2618	0.21069	0.13509	0.10159	0.21277	-3.0229	-3.0833	-3.3354	-3.5479	-3.4083	-3.4146	-3.675	-3.3937	-3.4375	-3.1333	-3.675	-3.6417	-3.0687	-3.5792	-3.3563	-3.1063	219.297	103.901	337.183	108.455	324.783	343.458	308.621	318.743	349.625	87.531	147.023	313.856	340.852	62.183	230.957	291.370	0.00032203	0.00054821	7.2576e-05	1385.2	4.5208e-06	7.1069e-06	1388.4	372.71	4.2176e-06	7.1678e-06	427.89	142.02	123.5	42.663	2.9419e-06	53.019	0.00089744	0.0013452	0.00038055	1404.2	1.3904e-05	1.5161e-05	1406	379.96	1.393e-05	1.5425e-05	436.36	145.64	126.45	43.827	1.4965e-05	54.438	200.867	90.651	148.605	39.362	184.535	177.176	39.368	44.043	216.205	168.124	43.617	48.396	48.869	52.770	209.217	52.167	-8191	255	
742.848	1	1	0	0	0.17064	0.098724	0.14245	0.09967	0.2666	0.14544	0.31902	0.19434	0.077728	0.24464	0.088292	0.26726	0.13879	0.23469	0.10681	0.12295	-2.9479	-3.4417	-3.1208	-3.4479	-3.2104	-3.4562	-3.5771	-3.3604	-3.5187	-3.2646	-3.1354	-3.4479	-3.2438	-3.3979	-3.4146	-3.4896	257.899	244.355	384.519	316.220	264.882	345.109	278.994	35.044	342.441	358.347	364.612	117.799	349.738	354.978	312.875	251.565	0.00033548	0.00037842	0.00016125	1384.9	4.4022e-06	4.8463e-06	1386.7	373.22	5.2022e-06	5.9167e-06	427.98	140.94	123.48	42.438	4.3462e-06	52.96	0.00094072	0.0014007	0.00039622	1402.3	1.4763e-05	1.6141e-05	1405.5	380.08	1.455e-05	1.5512e-05	435.44	145.24	126.53	43.71	1.4976e-05	54.428	197.481	125.404	129.251	39.436	199.138	146.076	39.252	44.093	217.945	171.533	43.393	48.455	48.815	52.787	196.241	52.189	-8191	255	
742.944	1	1	0	0	0.096683	0.17189	0.1127	0.24185	0.15743	0.14634	0.16855	0.18226	0.11843	0.37979	0.16924	0.11266	0.051481	0.10136	0.016596	0.055501	-2.9708	-3.2375	-3.3688	-3.4333	-3.0729	-3.2708	-3.7354	-3.3021	-3.2188	-3.2125	-3.1729	-3.4625	-3.3	-3.1396	-3.4979	-2.9521	87.858	224.813	293.373	47.843	287.121	194.270	251.638	33.164	156.847	271.498	337.583	47.226	303.512	102.651	376.815	311.483	0.00034394	0.00060434	0.0001064	1382.3	5.5607e-06	5.1547e-06	1385	373.11	3.1534e-06	6.0236e-06	427.92	141.03	122.95	42.512	4.5332e-06	52.955	0.00095514	0.00138	0.0003958	1399.4	1.466e-05	1.5754e-05	1402.2	379.74	1.4554e-05	1.5702e-05	435.38	144.9	126.12	43.684	1.4926e-05	54.377	197.753	109.699	134.653	39.273	209.201	173.046	39.459	44.121	190.414	188.419	43.578	48.612	48.857	53.058	172.872	51.987	-8191	255	
743.016	1	1	0	0	0.20489	0.17212	0.11634	0.17005	0.15781	0.079227	0.27844	0.23358	0.074742	0.11996	0.15623	0.298	0.31211	0.08896	0.089032	0.089315	-2.9729	-3.5771	-3.0292	-3.5521	-3.2521	-3.3333	-3.625	-3.3354	-3.2917	-3.3771	-3.2229	-3.65	-3.1958	-3.2938	-3.4521	-3.2479	353.873	211.752	228.120	86.426	182.119	284.853	358.066	346.259	120.154	141.059	68.925	363.128	49.965	148.712	163.430	270.134	0.0003242	0.00057053	0.0001256	1378.5	4.5722e-06	5.5945e-06	1386	373.86	2.8452e-06	7.5e-06	428.26	140.71	122.69	42.443	6.6092e-06	53.056	0.00094887	0.0013836	0.00039439	1395.5	1.4677e-05	1.59e-05	1398.1	379.68	1.4323e-05	1.6059e-05	435.38	144.91	126.08	43.686	1.4538e-05	54.286	195.355	108.870	154.315	39.356	202.262	170.794	39.378	44.133	224.451	191.423	43.722	48.355	48.606	52.902	193.596	52.397	-8191	255	
743.136	1	1	0	0	0.036145	0.058962	0.10251	0.21821	0.12869	0.23468	0.18555	0.12929	0.16117	0.0063851	0.080806	0.035032	0.12463	0.1613	0.19279	0.028177	-3.0542	-3.3604	-2.9542	-3.6958	-3.2333	-3.1896	-3.5271	-3.2708	-3.4917	-3.4854	-3.2417	-3.5	-3.3812	-3.15	-3.4229	-3.3042	201.214	347.052	193.943	60.884	223.226	237.337	269.749	92.414	198.210	266.679	325.969	115.598	55.143	317.527	366.920	86.701	0.00032861	0.00057967	0.00015266	1385.4	4.8536e-06	5.7547e-06	1386.9	372.82	5.0713e-06	3.6927e-06	427.3	141.13	122.91	42.384	6.3093e-06	52.896	0.00093346	0.0013378	0.00038073	1402.2	1.4424e-05	1.5656e-05	1402	380.32	1.4222e-05	1.5155e-05	436.04	145.18	126.33	43.606	1.4238e-05	54.277	196.948	123.235	131.783	39.444	209.259	180.266	39.584	44.135	210.223	185.745	43.565	48.221	48.956	52.951	196.711	52.163	-8191	255	
743.233	1	1	0	0	0.093391	0.11927	0.204	0.047377	0.1399	0.16122	0.12699	0.35288	0.24228	0.12428	0.24971	0.24299	0.11036	0.16316	0.11545	0.1184	-2.9917	-3.3042	-2.9771	-3.7083	-3.4062	-3.0042	-3.875	-3.4021	-3.1521	-3.5104	-3.4333	-3.4583	-3.3083	-3.275	-3.4813	-3.3187	110.440	267.948	355.573	279.099	48.583	354.898	236.754	349.251	244.807	84.039	44.137	369.680	100.911	385.111	245.028	283.505	0.00032794	0.00049718	0.00018937	1379.9	5.6176e-06	5.7577e-06	1386.2	372.04	3.42e-06	1.2241e-06	426.63	141.07	122.52	42.165	4.9909e-06	52.755	0.0009064	0.0012747	0.00036388	1398.4	1.3393e-05	1.4497e-05	1400	379.37	1.2723e-05	1.3636e-05	434.56	144.79	125.88	43.41	1.2822e-05	54.156	195.869	108.097	117.199	39.328	200.236	177.275	39.509	44.155	223.091	183.715	43.522	48.475	48.983	52.870	187.773	51.860	-8191	255	
743.329	1	1	0	0	0.075171	0.15983	0.18566	0.27458	0.12132	0.066587	0.22503	0.33871	0.14869	0.11828	0.039283	0.083709	0.17299	0.14051	0.13451	0.042796	-2.8688	-3.4708	-3.1396	-3.625	-3.2229	-3.1917	-3.4813	-3.2854	-3.3625	-3.5687	-3.4	-3.4625	-3.425	-3.2167	-3.4708	-3.275	380.875	34.394	279.063	362.106	41.760	47.459	276.484	322.254	228.843	146.846	293.440	192.620	363.106	320.814	131.607	364.850	0.00036021	0.00052218	9.5929e-05	1379.2	5.2725e-06	5.521e-06	1377.6	370.7	4.5184e-06	3.2891e-06	428.3	140.86	122.49	42.361	4.7702e-06	52.953	0.0008665	0.001166	0.00034725	1392.8	1.256e-05	1.366e-05	1395.5	378.53	1.2475e-05	1.3568e-05	435.06	144.55	125.78	43.571	1.3385e-05	54.174	201.358	96.562	119.947	39.327	185.830	154.455	39.449	44.206	218.215	177.565	43.446	48.442	48.795	53.175	179.750	52.285	-8191	255	
743.425	1	1	0	0	0.098064	0.052979	0.34422	0.051157	0.2584	0.23657	0.055037	0.32975	0.13392	0.037252	0.062879	0.25712	0.16739	0.25031	0.057043	0.042384	-2.9125	-3.5292	-3.1146	-3.4271	-3.625	-3.1458	-3.6813	-3.4688	-3.1437	-3.5396	-3.3896	-3.375	-3.6771	-3.45	-3.3292	-3.625	225.123	51.575	192.233	372.401	123.342	282.373	382.644	294.293	306.391	286.421	364.571	301.750	315.298	30.295	72.500	209.641	0.00033855	0.000454	7.8619e-05	1371.7	6.2651e-06	4.919e-06	1373.7	372.35	4.4551e-06	7.3342e-06	424.73	140.56	121.67	42.238	4.9269e-06	52.671	0.00085627	0.0012032	0.00034078	1390.3	1.2609e-05	1.2907e-05	1391.5	378.29	1.177e-05	1.2569e-05	431.81	144.28	125.17	43.341	1.1984e-05	53.897	198.890	85.738	107.367	39.323	216.328	172.781	39.527	44.223	215.429	156.993	43.509	48.441	48.744	52.920	195.989	52.151	-8191	255	
743.545	1	1	0	0	0.065202	0.15491	0.014222	0.13447	0.25619	0.091069	0.076421	0.15933	0.027914	0.15329	0.033353	0.25856	0.0078009	0.15036	0.11108	0.2257	-2.9021	-3.5729	-3.1354	-3.4271	-3.475	-3.1875	-3.6229	-3.7146	-3.1792	-3.2979	-3.5417	-3.5167	-3.6562	-3.3187	-3.5146	-3.7125	332.439	277.238	280.946	308.351	83.455	281.692	367.954	346.757	100.095	115.571	347.069	383.596	348.491	350.344	67.922	296.597	0.00032099	0.00026122	0.00017274	1361.1	5.5512e-06	4.4538e-06	1367.8	369.62	3.0657e-06	4.0479e-06	424.78	140.11	121.77	42.373	3.4685e-06	52.366	0.00078767	0.0010728	0.00030956	1380.2	1.1426e-05	1.2245e-05	1382.6	375.88	1.1716e-05	1.2286e-05	431.77	144.02	125.06	43.351	1.2139e-05	53.801	199.883	96.142	106.008	39.416	209.086	165.811	39.584	44.364	216.577	185.100	43.502	48.560	48.533	52.901	217.580	52.092	-8191	255	
743.617	1	1	0	0	0.26433	0.11984	0.060446	0.15352	0.099177	0.29683	0.15563	0.23975	0.25729	0.043742	0.23607	0.22485	0.1125	0.33806	0.14808	0.22651	-2.6625	-3.3083	-3.2333	-3.4	-3.5208	-3.1021	-3.4021	-3.6625	-3.2229	-3.3875	-3.4104	-3.5375	-3.5417	-3.3937	-3.45	-3.3292	381.407	293.001	351.406	373.152	95.523	316.117	326.415	381.310	296.944	67.492	355.577	55.836	132.068	361.014	362.707	324.805	0.00031741	0.00040192	0.00016804	1364.5	4.2873e-06	5.291e-06	1368.8	369.97	4.6732e-06	6.2638e-06	426.19	139.86	121.75	42.033	5.4957e-06	52.268	0.00078171	0.001086	0.0003089	1382.6	1.1402e-05	1.2271e-05	1386.1	376.68	1.0949e-05	1.2179e-05	431.9	143.73	124.97	43.178	1.1788e-05	53.747	199.238	117.131	122.679	39.437	224.917	178.079	39.551	44.305	196.637	197.157	43.462	48.322	48.740	52.900	183.683	52.355	-8191	255	
743.713	1	1	0	0	0.052666	0.041027	0.1311	0.084705	0.043153	0.090746	0.39299	0.30725	0.15036	0.12899	0.1958	0.11472	0.25028	0.31243	0.2673	0.14781	-2.7292	-3.4146	-3.325	-3.2021	-3.4896	-3.0125	-3.7625	-3.7875	-3.0333	-3.4229	-3.5312	-3.2604	-3.6229	-3.3563	-3.1833	-3.7083	195.042	31.843	298.625	335.872	197.648	266.633	296.632	315.550	163.614	369.004	321.987	214.422	359.450	229.322	130.445	290.106	0.00033351	0.00043475	0.00011464	1363.4	5.1645e-06	6.0371e-06	1367.3	369.57	3.5636e-06	4.6678e-06	421.83	140.24	121.96	42.097	4.7258e-06	52.56	0.0007763	0.0010503	0.00030391	1380.5	1.111e-05	1.1996e-05	1381.5	376.53	1.0837e-05	1.1659e-05	430.51	143.78	124.92	43.206	1.1293e-05	53.749	196.749	109.065	147.460	39.527	191.401	173.477	39.647	43.999	221.931	190.190	43.677	48.142	48.809	52.952	203.052	52.557	-8191	255	
743.834	1	1	0	0	0.12274	0.046042	0.15299	0.25394	0.094294	0.053064	0.20528	0.24544	0.05094	0.010509	0.10931	0.25852	0.28015	0.099967	0.082836	0.027642	-2.7812	-3.4813	-3.2271	-3.2875	-3.3417	-3.1521	-3.4229	-3.4979	-3.2812	-3.2833	-3.4521	-3.2562	-3.6063	-3.3563	-3.0896	-3.6292	215.460	55.634	334.775	330.143	39.419	127.566	328.062	300.778	283.327	106.082	310.159	350.370	272.600	385.556	69.619	108.993	0.00031849	0.00057198	9.866e-05	1363.4	5.4002e-06	5.4529e-06	1367.8	369.31	4.0591e-06	5.3581e-06	423.91	139.49	121.71	42.012	5.2003e-06	52.339	0.00076154	0.001011	0.00029196	1377.1	1.0637e-05	1.1457e-05	1380.6	376.47	1.0903e-05	1.1598e-05	431.1	143.53	124.83	43.142	1.1385e-05	53.766	197.329	113.999	112.830	39.441	189.413	179.495	39.547	44.131	222.919	200.257	43.515	48.546	48.880	52.936	197.781	52.196	-8191	255	
743.928	1	1	0	0	0.15084	0.19897	0.11622	0.15244	0.26033	0.12798	0.22657	0.19913	0.30613	0.04612	0.086103	0.16061	0.049618	0.14017	0.1567	0.12893	-2.7104	-3.325	-3.3375	-3.4479	-3.5812	-3.3396	-3.3104	-3.7333	-3.2917	-3.2979	-3.6229	-3.4208	-3.325	-3.3396	-3.2479	-3.3917	200.108	211.693	362.966	324.189	237.492	247.130	328.908	313.833	367.638	193.940	308.119	302.068	334.337	27.758	130.643	78.587	0.00033298	0.00035133	9.1176e-05	1364.5	7.3629e-06	5.732e-06	1369.7	370.18	3.4541e-06	7.0714e-06	423.51	139.88	121.72	42.064	3.7087e-06	52.761	0.00074671	0.0010407	0.00029146	1377.6	1.0742e-05	1.1509e-05	1382.9	376.56	1.063e-05	1.1468e-05	430.98	143.53	124.77	43.175	1.1011e-05	53.766	199.914	119.896	125.041	39.411	214.297	164.877	39.616	44.177	209.659	170.160	43.517	48.584	48.828	52.934	172.669	52.351	-8191	255	
744.025	1	1	0	0	0.047639	0.20668	0.014773	0.048593	0.21656	0.12931	0.20703	0.11936	0.048382	0.35492	0.13033	0.13427	0.10638	0.17557	0.31614	0.23872	-2.675	-3.1729	-3.2708	-3.2562	-3.2167	-3.3187	-3.3583	-3.7083	-3.3583	-3.4646	-3.4562	-3.3104	-3.3958	-3.3146	-3.225	-3.4688	294.830	327.442	157.657	284.460	170.255	312.203	36.978	250.745	110.839	198.309	56.824	301.105	349.914	309.135	300.388	34.914	0.0003272	0.0004029	0.00016789	1359.8	5.4343e-06	6.2147e-06	1362.9	368	3.136e-06	4.8273e-06	422.65	140.09	121.34	41.922	4.4061e-06	52.192	0.00074278	0.00099384	0.00027898	1374.8	1.0462e-05	1.1169e-05	1376.5	375.32	1.0107e-05	1.1014e-05	430.49	143.49	124.51	43.122	1.0679e-05	53.533	197.459	104.229	119.265	39.518	188.728	180.116	39.538	44.279	220.816	178.725	43.707	48.297	48.941	52.983	211.249	52.473	-8191	255	
744.121	1	1	0	0	0.1773	0.12389	0.15188	0.10477	0.24247	0.13577	0.31206	0.1615	0.18044	0.14436	0.15911	0.26243	0.25651	0.28048	0.29406	0.26633	-2.5896	-3.2292	-3.5333	-3.2104	-3.5417	-3.2438	-3.4708	-3.5563	-3.2604	-3.1729	-3.5958	-3.1354	-3.4688	-3.4271	-3.1667	-3.7479	218.960	231.192	264.992	322.912	256.688	374.698	333.380	321.774	38.287	337.992	266.243	313.785	372.915	307.283	117.433	349.207	0.00031114	0.00059871	0.00014831	1353.3	4.0825e-06	5.6594e-06	1360.4	369.2	3.9719e-06	5.8819e-06	422.24	139.02	121.2	41.794	5.471e-06	52.572	0.00072792	0.00096431	0.00027235	1369	1.0287e-05	1.1091e-05	1373.1	375.36	1.0317e-05	1.1271e-05	429.65	142.77	124.42	43.033	1.0692e-05	53.67	197.268	131.333	120.879	39.358	222.764	170.564	39.544	44.281	216.122	168.295	43.506	48.490	48.855	52.837	187.631	52.247	-8191	255	
744.217	1	1	0	0	0.12665	0.21839	0.20761	0.38313	0.10071	0.12875	0.14368	0.077984	0.10885	0.18474	0.20837	0.28697	0.23463	0.50766	0.0094002	0.36383	-2.8583	-3.1729	-3.4333	-3.3563	-3.5604	-3.4125	-3.4979	-3.4458	-3.4625	-3.1937	-3.5604	-3.3229	-3.3854	-3.5292	-3.2417	-3.5625	226.312	340.946	80.034	315.901	379.134	96.079	188.188	371.431	112.188	311.535	106.238	43.518	43.715	347.413	91.472	272.924	0.00031359	0.0006424	0.00013658	1352.7	4.7975e-06	7.6359e-06	1358.4	367.76	3.9493e-06	5.65e-06	422.33	139.59	121.31	41.986	4.0734e-06	52.358	0.00072906	0.00098998	0.00028074	1368.2	1.074e-05	1.0937e-05	1372.9	374.68	1.0616e-05	1.1115e-05	429.6	143.2	124.38	43.025	1.0665e-05	53.557	197.079	117.023	121.714	39.373	188.873	193.857	39.607	44.260	230.843	181.618	43.629	48.512	48.988	52.489	206.452	52.249	-8191	255	
744.313	1	1	0	0	0.13896	0.11962	0.010845	0.29879	0.19054	0.11772	0.34789	0.21812	0.10957	0.053583	0.20712	0.06906	0.38112	0.11658	0.15059	0.20812	-3.0542	-3.2	-3.5187	-3.2771	-3.3438	-3.5667	-3.3021	-3.8083	-3.4917	-3.1958	-3.9229	-3.1854	-3.2104	-3.5812	-3.1688	-3.4	115.343	229.206	345.086	315.749	64.034	129.242	351.678	288.810	154.412	160.117	345.459	257.089	378.387	312.325	91.615	347.978	0.00034304	0.00055561	0.00016583	1352	4.8123e-06	2.7701e-06	1351.7	368.55	5.2556e-06	7.2552e-06	422.82	139.37	121.21	41.814	4.7405e-06	52.355	0.0007483	0.00099003	0.00027087	1369	1.0361e-05	1.0956e-05	1368.5	375.24	1.0646e-05	1.1391e-05	429.5	143.17	124.45	43.012	1.0939e-05	53.63	197.539	107.889	114.317	39.263	195.776	156.782	39.529	44.225	216.003	170.475	43.468	48.515	48.919	52.811	215.238	52.158	-8191	255	
744.434	1	1	0	0	0.19603	0.075295	0.24315	0.17791	0.21814	0.15861	0.31948	0.22027	0.14992	0.17663	0.27356	0.28315	0.19123	0.13808	0.054314	0.25728	-3.1167	-3.0458	-3.3792	-3.4125	-3.0792	-3.725	-3.4521	-3.5729	-3.5062	-3.1667	-3.4188	-3.4396	-3.175	-3.4458	-3.1917	-3.4729	226.130	372.065	42.829	350.072	295.513	356.309	335.534	296.462	364.825	202.848	354.911	356.995	328.676	363.048	155.624	211.970	0.0003288	0.00073895	0.00016086	1352	4.5502e-06	5.168e-06	1347.6	367.99	3.629e-06	6.1697e-06	422.35	139.2	121.37	41.861	6.3936e-06	52.357	0.00072331	0.00097688	0.00028337	1366.8	1.0689e-05	1.0794e-05	1367.2	374.75	1.0488e-05	1.099e-05	428.91	142.87	124.37	43.005	1.0689e-05	53.524	199.023	88.702	133.563	39.401	210.637	197.526	39.599	44.269	207.965	179.637	43.254	48.274	48.813	53.032	218.045	52.234	-8191	255	
744.530	1	1	0	0	0.16566	0.19338	0.10506	0.19662	0.091381	0.30828	0.1957	0.11159	0.18521	0.16513	0.045894	0.075932	0.33203	0.093475	0.24313	0.24329	-3.0187	-3.2396	-3.4625	-3.5208	-3.4562	-3.4583	-3.4833	-3.6208	-3.5146	-3.1354	-3.6396	-3.5104	-3.5042	-3.4625	-3.3229	-3.1063	355.226	344.690	258.626	374.387	108.312	374.673	260.281	53.907	62.901	88.666	340.384	235.188	36.217	79.957	139.654	215.253	0.00032089	0.00034916	0.00014669	1349.1	3.8466e-06	3.6377e-06	1351	367.49	5.1957e-06	3.8448e-06	422.41	139.24	120.83	41.926	5.0492e-06	52.364	0.0007115	0.0009329	0.00027095	1362.9	1.0307e-05	1.0705e-05	1366	374.33	1.0027e-05	1.0757e-05	428.73	142.8	124.06	42.993	1.0656e-05	53.535	195.975	97.141	112.516	39.439	193.978	173.816	39.611	44.272	207.396	201.839	43.819	48.365	49.065	52.870	177.973	52.303	-8191	255	
744.626	1	1	0	0	0.29122	0.17809	0.21491	0.15078	0.147	0.086062	0.43126	0.21616	0.30948	0.21387	0.13394	0.0075678	0.050559	0.19411	0.089468	0.25702	-3.1229	-2.9646	-3.4104	-3.2479	-3.2146	-3.4208	-3.45	-3.4479	-3.5312	-3.1562	-3.3417	-3.3396	-3.0521	-3.6229	-2.9354	-3.1688	72.309	289.350	369.533	367.525	199.096	39.240	292.334	335.672	239.140	340.147	378.277	275.135	205.183	356.087	244.886	325.457	0.00033071	0.0004597	0.00014729	1346.4	5.2968e-06	5.2356e-06	1358	368.43	5.1267e-06	6.4645e-06	422.82	139.37	120.88	41.847	3.5045e-06	52.232	0.00073442	0.0010065	0.00028064	1364.3	1.0791e-05	1.0842e-05	1369.9	374.88	1.0311e-05	1.1282e-05	429.23	143.06	124.14	42.994	1.1075e-05	53.492	196.687	138.644	125.813	39.475	196.312	180.154	39.620	44.482	206.650	194.147	43.775	48.622	48.910	53.114	212.160	51.998	-8191	255	
744.722	1	1	0	0	0.18223	0.14951	0.10134	0.4047	0.068954	0.15868	0.1417	0.12885	0.11083	0.13232	0.24755	0.058671	0.20653	0.27595	0.22343	0.14755	-3.0708	-3.0375	-3.4	-3.5604	-3.1667	-3.575	-3.4583	-3.2771	-3.4979	-3.2083	-3.5438	-3.4292	-3.1188	-3.5479	-3.3729	-2.9271	39.183	201.689	73.418	284.877	130.174	29.376	331.380	366.314	299.042	126.934	309.624	315.570	367.594	294.403	152.112	51.276	0.00033221	0.00058928	0.00019209	1352.8	2.2738e-06	5.3949e-06	1359.9	368.34	4.6288e-06	6.2618e-06	422.8	139.21	121.1	41.969	5.2433e-06	52.495	0.00072917	0.0010387	0.00028982	1367.9	1.0614e-05	1.154e-05	1372.1	375.07	1.0326e-05	1.1584e-05	429.35	143.12	124.3	43.055	1.1048e-05	53.689	200.281	96.997	106.891	39.407	225.615	176.555	39.733	44.238	211.937	158.213	43.686	48.338	48.862	52.959	184.413	52.295	-8191	255	
744.841	1	1	0	0	0.10071	0.096277	0.17486	0.23922	0.25092	0.15332	0.17922	0.12458	0.16494	0.1723	0.14183	0.081954	0.067937	0.1777	0.21817	0.1456	-3.2292	-3.0312	-3.225	-3.7438	-3.0792	-3.4021	-3.5729	-3.3688	-3.2958	-3.1771	-3.4896	-3.7021	-3.1979	-3.6167	-3.2458	-3.2812	386.086	155.800	254.940	26.957	110.225	328.647	250.282	316.784	36.772	380.084	161.554	336.771	101.687	290.341	166.507	358.045	0.00031809	0.00067921	9.9944e-05	1352.5	3.7904e-06	4.2316e-06	1358.9	367.76	3.8561e-06	4.9693e-06	421.58	139.35	121.79	41.953	5.2143e-06	52.394	0.0007307	0.0010437	0.00028974	1369.3	1.064e-05	1.1454e-05	1373.3	375.06	1.0445e-05	1.1313e-05	429.18	142.91	124.7	43.028	1.102e-05	53.614	198.431	110.396	121.717	39.354	204.584	152.432	39.518	44.205	214.199	184.582	43.509	48.676	48.780	52.923	201.290	52.459	-8191	255	
744.914	1	1	0	0	0.083292	0.047627	0.20887	0.20938	0.24557	0.02715	0.33325	0.27177	0.13221	0.22599	0.079298	0.072695	0.17618	0.17142	0.26423	0.20496	-3.0792	-3.2625	-3.1479	-3.5062	-3.1271	-3.6	-3.5542	-3.4188	-3.35	-3.4729	-3.4292	-3.7125	-3.3604	-3.5146	-3.15	-3.25	227.218	285.900	304.327	358.288	194.883	43.500	371.745	331.851	338.915	32.294	365.955	348.530	382.118	385.436	288.322	46.194	0.00032837	0.00030166	0.00010471	1353.1	5.7928e-06	6.1722e-06	1360.1	367.78	5.3193e-06	5.9468e-06	422.45	138.8	121.81	42.007	4.9308e-06	52.66	0.00074208	0.0010208	0.00028086	1368.4	1.0788e-05	1.1535e-05	1371.9	374.93	1.0436e-05	1.1464e-05	428.39	142.91	124.58	43.079	1.0798e-05	53.625	198.459	116.864	98.920	39.567	199.102	192.810	39.386	44.208	218.213	188.802	43.559	48.416	48.884	53.049	183.164	52.089	-8191	255	
745.009	1	1	0	0	0.16509	0.0628	0.19931	0.40348	0.13151	0.2793	0.1602	0.14676	0.12274	0.1276	0.040846	0.071153	0.18443	0.18835	0.10399	0.10859	-3.1229	-3.3021	-3.3792	-3.6271	-3.1479	-3.3396	-3.6937	-3.5104	-3.3917	-3.3542	-3.3458	-3.6354	-3.3375	-3.3792	-3.3396	-3.3729	203.815	298.898	190.584	370.154	201.786	269.795	287.645	178.204	298.231	259.375	357.130	61.843	56.161	153.797	320.284	331.201	0.00032062	0.00046076	0.00010706	1348.2	4.1946e-06	5.6115e-06	1355.9	368.39	3.4276e-06	4.5563e-06	421.38	139.53	121.36	41.711	3.007e-06	52.19	0.00073976	0.00098473	0.00027663	1366	1.0574e-05	1.1052e-05	1369.9	374.47	1.0292e-05	1.1118e-05	428.39	142.94	124.28	42.969	1.0451e-05	53.465	198.512	115.711	125.330	39.509	209.064	160.447	39.423	44.067	214.998	208.770	43.485	48.671	48.678	52.879	193.962	52.257	-8191	255	
745.105	1	1	0	0	0.24519	0.35884	0.2258	0.23703	0.20544	0.12824	0.27677	0.25927	0.029608	0.32886	0.16065	0.32264	0.24093	0.35466	0.28363	0.34561	-3.0042	-3.3708	-3.1896	-3.5563	-3.2083	-3.4625	-3.6375	-3.2354	-3.3354	-3.3604	-3.125	-3.7333	-3.3833	-3.1896	-3.4104	-3.3146	35.742	304.142	64.645	348.554	190.894	197.337	329.797	351.237	311.769	187.399	188.520	269.580	200.966	334.994	100.332	334.628	0.0003265	0.00049173	0.00013146	1351.5	4.5764e-06	5.8841e-06	1350.6	367.58	3.6509e-06	5.9942e-06	420.43	138.87	121.31	41.786	3.9664e-06	52.03	0.00072532	0.0010057	0.00027863	1367.2	1.0511e-05	1.0898e-05	1368.3	374.2	1.0385e-05	1.0792e-05	428.23	142.97	124.49	43.077	1.0105e-05	53.442	196.343	128.028	120.613	39.339	202.777	175.905	39.508	44.117	205.576	187.184	43.457	48.327	48.611	53.046	203.630	52.405	-8191	255	
745.226	1	1	0	0	0.11637	0.10395	0.12237	0.1875	0.17368	0.041155	0.30476	0.032756	0.19695	0.084958	0.065921	0.20712	0.044802	0.079169	0.07646	0.19163	-2.9396	-3.2687	-3.2542	-3.6354	-3.0958	-3.2708	-3.6833	-3.2896	-3.1604	-3.4188	-3.2812	-3.4729	-3.3333	-3.3125	-3.4562	-3.1271	91.594	316.548	62.991	77.234	186.335	320.033	329.491	167.947	45.760	106.754	29.034	384.269	116.089	74.518	250.672	69.466	0.00033598	0.00060242	0.00012627	1350.3	7.0593e-06	5.876e-06	1353.7	367.1	3.7811e-06	6.929e-06	421.72	139.23	121.22	42.05	6.2385e-06	52.183	0.00072766	0.000975	0.00026614	1365.3	1.0409e-05	1.0885e-05	1369.2	374.03	1.0177e-05	1.1092e-05	428.6	143.14	124.4	43.049	1.053e-05	53.629	198.607	99.688	117.243	39.468	192.397	169.993	39.445	44.081	212.168	191.676	43.573	48.569	48.740	53.030	194.892	52.213	-8191	255	
745.322	1	1	0	0	0.24674	0.051283	0.073298	0.28166	0.064391	0.27159	0.20858	0.1597	0.3296	0.066381	0.066057	0.042686	0.10312	0.13481	0.17372	0.18701	-3	-3.3563	-3.0771	-3.6896	-3.3125	-3.0771	-3.7646	-3.2604	-3.1458	-3.5083	-3.4542	-3.475	-3.3333	-3.2771	-3.4542	-3.1875	80.828	347.841	292.508	53.357	321.143	293.496	330.875	362.679	292.589	299.338	374.388	357.252	363.702	331.050	100.211	317.182	0.00034109	0.0008005	0.00018105	1350.4	4.0113e-06	7.0787e-06	1357.2	367.13	4.4683e-06	3.1214e-06	422.06	138.62	121.89	41.915	5.2265e-06	52.42	0.0007244	0.00098733	0.00027924	1368.5	1.0481e-05	1.1246e-05	1372.2	374.73	1.0678e-05	1.091e-05	429.57	142.85	124.61	43.056	1.0484e-05	53.718	195.403	112.842	125.213	39.542	172.284	183.949	39.293	44.280	213.397	172.400	43.740	48.344	48.794	52.984	196.941	52.162	-8191	255	
745.418	1	1	0	0	0.15643	0.097299	0.15729	0.29287	0.15267	0.029595	0.24856	0.24838	0.14019	0.092383	0.11378	0.1198	0.171	0.41786	0.061444	0.17986	-2.9437	-3.4813	-3.1354	-3.4479	-3.4875	-3.0687	-3.5625	-3.2854	-3.1417	-3.4792	-3.1042	-3.4708	-3.3021	-3.2354	-3.4417	-3.4042	64.881	262.940	143.261	373.990	283.770	171.735	352.835	327.729	307.163	347.450	281.969	385.275	367.986	346.485	331.611	220.808	0.00031281	0.00061669	0.00014657	1350.5	4.8292e-06	4.5916e-06	1361.1	367.12	3.9232e-06	5.7784e-06	422.66	139.81	121.41	41.922	2.6785e-06	52.398	0.00073318	0.0009594	0.00028421	1370.6	1.0699e-05	1.0914e-05	1374.8	374.74	1.0498e-05	1.1102e-05	429.62	143.25	124.49	43.113	1.0746e-05	53.697	198.552	107.920	122.099	39.348	204.424	173.044	39.267	44.361	216.381	163.010	43.497	48.645	48.914	52.864	160.795	52.376	-8191	255	
745.514	1	1	0	0	0.15519	0.089096	0.045832	0.13836	0.093338	0.057211	0.18719	0.30789	0.071797	0.01086	0.096158	0.28248	0.17287	0.21938	0.19119	0.12578	-2.6771	-3.4083	-3.1375	-3.4396	-3.5229	-3.0417	-3.6396	-3.3604	-3.15	-3.5979	-3.425	-3.4313	-3.5438	-3.2521	-3.3396	-3.2875	224.496	248.395	302.018	370.618	345.172	58.032	259.472	313.073	150.084	262.826	322.671	30.764	347.667	333.878	71.491	291.985	0.00029884	0.00037283	0.00016988	1351.6	3.1395e-06	4.4287e-06	1362	368.03	4.6262e-06	5.7746e-06	422.79	139.95	121.83	42.074	5.4533e-06	52.294	0.00072162	0.00097307	0.00027912	1369.3	1.0378e-05	1.1104e-05	1374.2	374.83	1.0505e-05	1.0946e-05	429.75	143.4	124.8	43.094	1.0859e-05	53.626	199.188	109.022	102.317	39.464	185.636	171.597	39.430	44.182	198.508	160.260	43.470	48.188	48.901	52.991	198.660	52.561	-8191	255	
745.610	1	1	0	0	0.037542	0.08936	0.18936	0.24812	0.19094	0.19259	0.33869	0.28924	0.095094	0.060259	0.022568	0.13105	0.079058	0.25019	0.29347	0.1047	-2.8875	-3.4396	-2.9479	-3.3792	-3.375	-3.175	-3.6979	-3.45	-3.2125	-3.5167	-3.3229	-3.3563	-3.5	-3.2833	-3.4562	-3.35	353.721	52.960	331.823	372.470	79.003	354.006	340.214	342.681	322.895	182.867	180.429	283.849	312.434	65.181	359.238	340.501	0.00035589	0.0004275	0.00017255	1353.7	6.2749e-06	7.1753e-06	1358.8	367.61	3.881e-06	6.9939e-06	422.18	139.76	121.49	41.923	6.4039e-06	52.574	0.00071988	0.00098411	0.00028654	1369.7	1.0594e-05	1.1098e-05	1373.4	374.84	1.048e-05	1.1129e-05	429.6	143.34	124.73	43.119	1.0935e-05	53.669	197.259	108.616	122.572	39.388	197.921	191.601	39.661	44.313	223.510	176.941	43.695	48.419	48.966	52.914	204.112	52.333	-8191	255	
745.706	1	1	0	0	0.072669	0.14174	0.041943	0.21633	0.20038	0.13455	0.35824	0.20306	0.38842	0.11693	0.24993	0.11718	0.10204	0.10675	0.05352	0.065258	-2.7583	-3.4667	-3.2083	-3.3521	-3.5312	-3.1688	-3.6688	-3.4042	-3.3208	-3.5146	-3.4188	-3.4062	-3.5375	-3.1646	-3.4167	-3.3771	225.379	356.830	309.607	341.736	219.603	240.442	352.013	294.502	258.412	273.236	289.868	59.856	241.535	79.378	242.977	320.387	0.00032351	0.00054026	7.196e-05	1357.2	4.0336e-06	5.1596e-06	1365.1	367.91	3.3062e-06	5.4998e-06	424.18	140.1	122.01	42.062	5.0512e-06	52.512	0.00072844	0.00099639	0.00028917	1372	1.0771e-05	1.1354e-05	1375.1	374.67	1.0639e-05	1.1303e-05	430.14	143.49	124.87	43.197	1.1361e-05	53.766	197.697	108.748	96.484	39.464	208.189	180.867	39.523	44.379	230.328	197.737	43.741	48.294	48.722	52.988	179.871	52.442	-8191	255	
745.802	1	1	0	0	0.11587	0.1298	0.12154	0.10931	0.14728	0.26543	0.18442	0.42305	0.074227	0.17904	0.20798	0.14052	0.25089	0.22079	0.34558	0.12662	-2.7042	-3.3875	-3.2875	-3.1667	-3.6271	-3.1312	-3.5625	-3.4708	-2.9292	-3.6458	-3.25	-3.2938	-3.6479	-3.3021	-3.3708	-3.7146	271.293	380.425	204.672	315.169	186.580	353.479	287.760	370.536	339.902	359.223	46.872	124.648	38.915	290.497	137.980	107.020	0.00034921	0.0004605	0.0001567	1355.8	5.8706e-06	2.4275e-06	1359.4	366.85	2.6988e-06	5.6605e-06	424.5	140.13	121.35	41.995	6.0305e-06	52.551	0.00074751	0.0010363	0.00029478	1374.2	1.1112e-05	1.172e-05	1375.2	374.35	1.1043e-05	1.1926e-05	430.23	143.56	124.73	43.152	1.1642e-05	53.792	199.665	101.291	98.481	39.356	213.718	181.550	39.508	44.096	204.921	179.210	43.480	48.481	48.872	52.982	204.264	52.403	-8191	255	
745.923	1	1	0	0	0.05987	0.22373	0.2108	0.10036	0.12684	0.27543	0.37696	0.20383	0.13908	0.23509	0.078948	0.099456	0.18822	0.16606	0.1175	0.30282	-2.5875	-3.5208	-3.3271	-3.2438	-3.5208	-3.2062	-3.4042	-3.6688	-3.1167	-3.4771	-3.4146	-3.0646	-3.4771	-3.5583	-3.3958	-3.6583	150.054	188.615	154.729	55.403	28.079	206.832	317.132	325.639	175.523	146.845	75.812	346.635	30.792	340.272	120.126	302.634	0.00033173	0.00045118	8.1644e-05	1355.1	5.3949e-06	5.1741e-06	1368.2	368.09	2.9867e-06	3.031e-06	423.53	139.7	121.86	42.082	4.3729e-06	52.313	0.00077029	0.0010791	0.00030562	1374	1.1234e-05	1.2432e-05	1380.5	375.47	1.1195e-05	1.2315e-05	430.68	143.71	125.01	43.225	1.1909e-05	53.696	198.446	140.423	137.596	39.481	190.250	172.860	39.474	44.373	251.212	155.040	43.463	48.331	48.977	52.997	179.418	52.174	-8191	255	
746.017	1	1	0	0	0.14048	0.15206	0.11088	0.13809	0.19457	0.11854	0.16277	0.18491	0.30156	0.17715	0.16706	0.22882	0.17717	0.34314	0.25551	0.018056	-2.8688	-3.2375	-3.3333	-3.4146	-3.3875	-3.3063	-3.6188	-3.7313	-3.1292	-3.475	-3.4646	-3.3167	-3.6396	-3.2917	-2.9542	-3.5854	352.337	316.830	234.230	50.918	84.203	289.007	318.777	343.929	235.556	277.252	68.931	275.951	279.782	84.892	385.849	240.116	0.00035976	0.00060243	0.00011513	1359.6	4.3599e-06	3.9153e-06	1367.4	368.71	4.1452e-06	5.6053e-06	423	139.84	121.65	42.02	4.5259e-06	52.641	0.00078046	0.0010601	0.00030472	1376.1	1.1625e-05	1.2239e-05	1380.8	375.73	1.1521e-05	1.2283e-05	430.2	143.73	125.02	43.233	1.1971e-05	53.814	193.913	108.378	133.008	39.338	201.803	169.301	39.662	44.127	214.846	171.851	43.539	48.731	48.792	52.911	205.946	52.214	-8191	255	
746.114	1	1	0	0	0.093172	0.15114	0.11972	0.15056	0.16224	0.13055	0.20939	0.081856	0.13213	0.27715	0.11447	0.27788	0.26865	0.34671	0.26556	0.083124	-2.8042	-3.3479	-3.4188	-3.3208	-3.5	-3.4313	-3.3583	-3.7458	-3.1771	-3.2229	-3.6104	-3.3417	-3.4729	-3.5479	-3.0875	-3.5917	200.543	31.581	105.564	39.272	247.183	100.019	276.095	373.638	91.128	256.393	349.931	336.604	55.562	33.520	114.434	241.803	0.00032303	0.00034519	0.00013006	1362.7	4.2077e-06	4.8612e-06	1369.4	368.85	3.1036e-06	4.7215e-06	422.63	140.62	121.34	42.108	4.6958e-06	52.395	0.00079982	0.0010942	0.00030875	1379.5	1.1652e-05	1.2504e-05	1380.5	376.45	1.1768e-05	1.2545e-05	430.65	143.7	124.8	43.258	1.1964e-05	53.747	196.753	113.864	143.142	39.377	213.230	172.022	39.239	44.166	233.749	175.260	43.532	48.240	48.566	52.863	197.187	52.050	-8191	255	
746.210	1	1	0	0	0.1869	0.081476	0.086482	0.076834	0.12707	0.21314	0.15706	0.2055	0.081244	0.059034	0.14896	0.069685	0.25502	0.31964	0.046223	0.11581	-2.8854	-3.1292	-3.4375	-3.4229	-3.4708	-3.1292	-3.2021	-3.7833	-3.1688	-3.3333	-3.7292	-3.2479	-3.4	-3.4104	-3.2417	-3.4854	144.107	120.169	186.784	241.832	39.004	203.284	257.951	328.402	187.992	361.437	364.306	243.486	380.743	34.116	38.566	320.133	0.00032269	0.00053144	0.0001607	1366.5	4.6337e-06	5.8201e-06	1363.7	369.27	3.6141e-06	6.051e-06	421.68	140.11	121.53	42.022	4.2968e-06	52.518	0.0007953	0.001105	0.00030947	1379.5	1.1763e-05	1.2718e-05	1380.4	375.89	1.1727e-05	1.2847e-05	430.52	143.99	124.89	43.19	1.1819e-05	53.807	199.194	112.267	119.585	39.408	188.565	164.309	39.506	44.189	201.218	177.465	43.505	48.636	48.801	52.916	187.691	52.354	-8191	255	
746.306	1	1	0	0	0.086954	0.023494	0.20057	0.36023	0.094121	0.21683	0.42264	0.26556	0.27803	0.10608	0.32252	0.23014	0.32666	0.28026	0.23049	0.15597	-2.8896	-3.2583	-3.4688	-3.3792	-3.6312	-3.4625	-3.3417	-3.4104	-3.3167	-3.4437	-3.5792	-3.3229	-3.5646	-3.5292	-3.1083	-3.5667	28.115	149.152	284.722	367.178	300.363	164.338	358.695	340.054	271.774	170.321	295.198	126.796	45.987	65.831	292.829	31.149	0.00030025	0.00056188	0.00010063	1360.2	5.4377e-06	5.7601e-06	1365.1	369.14	3.9832e-06	3.4216e-06	424.14	140.31	121.43	41.917	4.5117e-06	52.546	0.00080258	0.001092	0.00030688	1378	1.1805e-05	1.2515e-05	1380.3	376	1.1641e-05	1.2437e-05	430.93	143.88	124.81	43.233	1.1904e-05	53.793	197.964	93.061	115.907	39.400	208.724	173.532	39.434	44.345	231.477	175.968	43.557	48.348	48.952	53.200	195.417	52.307	-8191	255	
746.402	1	1	0	0	0.25599	0.14294	0.14927	0.18141	0.060295	0.080161	0.11685	0.4185	0.086215	0.10375	0.28298	0.22469	0.30395	0.073699	0.129	0.27694	-2.9667	-3.25	-3.5625	-3.3771	-3.1937	-3.5354	-3.2667	-3.4917	-3.1667	-3.3333	-3.6437	-3.3917	-3.3063	-3.6167	-3.2521	-3.4188	114.286	54.978	67.416	344.188	234.022	213.023	361.474	373.153	331.680	383.129	354.952	44.043	301.708	334.510	193.127	274.044	0.00032992	0.00079497	0.00015953	1359.8	4.0267e-06	4.1785e-06	1366.2	368.95	2.303e-06	6.9697e-06	424.69	140.32	122.01	42.087	4.3288e-06	52.278	0.00079579	0.0010995	0.00030086	1375.8	1.1805e-05	1.2326e-05	1381.5	375.66	1.143e-05	1.2282e-05	430.77	144.11	125.02	43.206	1.2053e-05	53.748	201.333	121.037	107.349	39.295	195.824	192.178	39.572	44.399	221.681	189.815	43.383	48.379	48.750	52.824	187.927	52.518	-8191	255	
746.523	1	1	0	0	0.19358	0.17132	0.41115	0.19723	0.083033	0.10851	0.13423	0.40598	0.29749	0.34473	0.15661	0.05959	0.15086	0.11684	0.081508	0.35743	-2.9458	-3.15	-3.4021	-3.2687	-3.2729	-3.5042	-3.2917	-3.7188	-3.2604	-3.0875	-3.4646	-3.2771	-3.2979	-3.6458	-3.1167	-3.4396	30.267	299.454	36.649	358.256	69.312	330.025	290.821	321.634	35.680	171.130	298.972	184.767	245.604	382.460	39.112	373.371	0.00034064	0.00068612	9.3941e-05	1365.8	2.7167e-06	6.5453e-06	1365.3	369.75	5.9592e-06	7.2826e-06	423.56	140.21	121.77	42.202	5.572e-06	52.692	0.0007795	0.0010596	0.00030767	1378.5	1.165e-05	1.2213e-05	1382	375.97	1.1361e-05	1.2292e-05	430.77	143.92	124.98	43.258	1.1791e-05	53.83	198.106	107.869	105.091	39.380	192.135	175.542	39.543	44.163	196.166	199.797	43.469	48.270	48.847	53.057	190.694	52.237	-8191	255	
746.619	1	1	0	0	0.03754	0.11163	0.076187	0.40323	0.087078	0.31894	0.45775	0.089751	0.13487	0.10785	0.17158	0.30226	0.074351	0.08879	0.19867	0.13562	-3.0354	-3.0187	-3.4333	-3.3438	-3.1708	-3.6146	-3.2083	-3.4625	-3.2875	-3.2021	-3.7583	-3.4521	-3.2938	-3.5479	-3.2042	-3.3917	262.178	125.477	266.671	289.714	242.758	297.826	305.443	96.966	33.927	39.237	311.317	266.803	299.191	28.984	259.385	303.452	0.0003293	0.00067207	0.00012193	1362	4.5167e-06	7.595e-06	1364.6	369.33	5.1692e-06	5.9811e-06	423.87	140.28	122.29	42.093	3.562e-06	52.669	0.00076628	0.0010709	0.00030686	1376.5	1.1535e-05	1.1995e-05	1381.3	376.21	1.1299e-05	1.2472e-05	431.22	144.03	125.17	43.208	1.1899e-05	53.905	197.605	97.656	120.640	39.435	207.793	178.438	39.474	44.112	237.375	169.552	43.403	48.100	48.889	53.044	220.798	52.156	-8191	255	
746.715	1	1	0	0	0.08764	0.049635	0.13904	0.33968	0.24096	0.11106	0.26346	0.32314	0.20163	0.19772	0.31307	0.37309	0.17933	0.2754	0.17544	0.13158	-2.9854	-3.0854	-3.4542	-3.3229	-3.2042	-3.4604	-3.3625	-3.5604	-3.4104	-3.3604	-3.5896	-3.3333	-3.3333	-3.6229	-3.325	-3.3521	127.369	333.825	243.158	346.023	234.847	177.011	328.517	345.104	179.749	258.987	350.804	314.308	243.014	103.503	295.640	275.072	0.00030977	0.00044116	0.00012335	1362.7	3.8745e-06	5.0425e-06	1366.6	370	4.554e-06	3.3113e-06	425.59	139.8	122.4	42.042	3.9954e-06	52.515	0.00077125	0.0010733	0.00030841	1380.8	1.1617e-05	1.234e-05	1382.1	376.69	1.1488e-05	1.2472e-05	431.72	143.97	125.38	43.23	1.2051e-05	53.855	193.555	108.870	118.642	39.406	197.427	163.155	39.474	44.284	212.181	186.240	43.437	48.463	48.983	53.000	193.661	52.214	-8191	255	
746.787	1	1	0	0	0.14864	0.12107	0.15541	0.22894	0.11264	0.041802	0.06418	0.0076695	0.086071	0.19678	0.26674	0.16068	0.22318	0.25349	0.11209	0.11604	-2.9021	-3.0667	-3.35	-3.4771	-3.2979	-3.4979	-3.4271	-3.4021	-3.5479	-3.0979	-3.4146	-3.3771	-3.1896	-3.6229	-3.2438	-3.2729	316.920	155.527	309.343	52.749	381.990	358.999	350.206	81.075	83.176	76.031	342.941	241.230	52.971	330.138	29.486	64.232	0.00035087	0.00038976	0.00012712	1364.1	5.9362e-06	7.3335e-06	1364.3	369.37	4.6151e-06	4.306e-06	424.33	140.14	121.64	42.128	4.243e-06	52.651	0.00077573	0.0010874	0.00031266	1380.1	1.1576e-05	1.2117e-05	1381.4	376.35	1.132e-05	1.2521e-05	432.06	143.96	125.11	43.341	1.1911e-05	53.936	198.321	93.870	93.702	39.522	191.138	177.190	39.310	44.213	211.786	172.891	43.524	48.468	48.630	52.870	211.887	51.876	-8191	255	
746.883	1	1	0	0	0.28197	0.076277	0.18942	0.065413	0.11251	0.031082	0.20257	0.18081	0.19696	0.083698	0.15255	0.20194	0.12238	0.24718	0.19443	0.23235	-3.0458	-3.05	-3.1312	-3.4521	-3.0917	-3.7167	-3.5021	-3.3229	-3.7062	-3.3438	-3.3375	-3.5208	-3.2604	-3.5792	-3.1562	-3.1708	254.208	303.028	76.461	255.713	182.482	148.109	74.693	335.120	357.041	384.516	336.837	295.711	189.553	221.893	279.207	298.522	0.00033444	0.00055708	0.00016962	1366.9	5.4558e-06	6.1258e-06	1368.1	368.42	3.5743e-06	4.3094e-06	423.55	140.13	121.83	41.997	2.4502e-06	52.501	0.00076714	0.0011075	0.00030594	1380	1.147e-05	1.2095e-05	1383.2	376.38	1.1203e-05	1.2125e-05	431.22	143.73	125.2	43.193	1.1572e-05	53.838	196.908	115.938	115.200	39.311	179.463	162.402	39.637	44.345	204.408	165.795	43.587	48.504	48.801	52.685	202.915	52.298	-8191	255	
747.002	1	1	0	0	0.11566	0.19943	0.085011	0.25408	0.18064	0.14768	0.41277	0.19734	0.12498	0.22877	0.10371	0.18273	0.11372	0.34939	0.18259	0.17108	-3.1708	-3.3979	-3.3021	-3.5646	-3.4021	-3.4208	-3.4458	-3.5333	-3.6312	-3.1521	-3.4083	-3.5333	-3.1437	-3.6146	-3.5271	-3.3187	166.908	252.428	214.238	33.763	106.131	230.420	309.907	59.843	295.887	33.705	29.572	365.017	38.857	340.346	260.975	301.307	0.00031853	0.00057825	0.0001272	1364.9	3.9296e-06	8.0986e-06	1368.5	368.42	5.5766e-06	3.955e-06	424.32	140.7	122.04	42.191	4.5921e-06	52.334	0.00076001	0.0010641	0.00030199	1381.2	1.1396e-05	1.2395e-05	1381	376.05	1.0978e-05	1.2266e-05	430.73	144.04	125.19	43.231	1.152e-05	53.77	198.301	126.123	151.255	39.493	222.433	165.158	39.356	44.194	215.391	192.649	43.509	48.609	48.795	53.064	183.529	52.489	-8191	255	
747.098	1	1	0	0	0.17134	0.18643	0.07494	0.32662	0.057583	0.20483	0.2378	0.17998	0.12113	0.10687	0.11201	0.26806	0.28555	0.29968	0.22363	0.16367	-3.175	-3.2562	-3.1854	-3.5667	-3.1458	-3.2687	-3.6042	-3.3125	-3.4146	-3.3729	-3.4333	-3.5854	-3.2125	-3.3604	-3.3563	-3.375	177.386	347.529	325.438	351.122	133.667	87.421	314.017	337.135	147.018	120.089	40.834	375.667	350.891	320.865	44.629	333.258	0.00031751	0.00061873	0.00015194	1361.8	4.6329e-06	3.3949e-06	1367.3	369.58	3.7709e-06	4.5273e-06	425	140.1	121.65	42.001	5.1045e-06	52.527	0.00076768	0.0010676	0.00031155	1378.3	1.1481e-05	1.209e-05	1382.8	376.15	1.1314e-05	1.2253e-05	431.72	143.83	125.09	43.201	1.1704e-05	53.747	200.780	117.311	115.758	39.311	196.042	168.534	39.441	44.218	208.706	224.628	43.361	48.400	48.576	52.909	170.341	52.154	-8191	255	
747.194	1	1	0	0	0.2815	0.18796	0.098466	0.067498	0.1471	0.29515	0.066223	0.22641	0.21657	0.27804	0.23203	0.16076	0.2039	0.053664	0.29389	0.19187	-3.0271	-3.2667	-3.275	-3.6937	-3.2667	-3.4396	-3.3896	-3.1937	-3.5292	-3.1729	-3.3563	-3.5708	-3.175	-3.3292	-3.5083	-3.2333	214.878	328.213	136.960	339.832	89.535	315.020	203.682	359.358	170.884	277.943	341.842	358.965	356.596	96.275	142.730	67.770	0.00035261	0.00040788	9.1368e-05	1362.8	4.9776e-06	5.9497e-06	1370.4	369.53	4.8695e-06	8.275e-06	422.75	140.37	122.13	42.024	4.8399e-06	52.695	0.00078431	0.001071	0.00030423	1381.7	1.1392e-05	1.2482e-05	1383.1	376.65	1.1295e-05	1.2283e-05	430.38	143.86	125.3	43.32	1.1421e-05	53.868	199.332	91.546	130.264	39.471	194.862	154.210	39.476	44.183	181.066	192.688	43.587	48.436	49.019	53.056	182.105	52.259	-8191	255	
747.315	1	1	0	0	0.079651	0.24082	0.26965	0.25456	0.19613	0.27877	0.38747	0.10712	0.086249	0.11977	0.09286	0.25494	0.06795	0.17818	0.10333	0.31327	-3.0229	-3.3396	-3.0187	-3.7958	-3.375	-3.3354	-3.5729	-3.2854	-3.6479	-3.65	-3.2771	-3.625	-3.5625	-3.3604	-3.3479	-3.4417	92.028	332.350	382.728	358.662	159.557	317.729	351.422	241.972	272.526	75.455	41.962	335.618	381.784	62.066	51.731	29.680	0.00033369	0.00040389	0.00013733	1366.4	4.8064e-06	4.6895e-06	1369.4	369.46	3.7872e-06	4.2782e-06	426.65	140.64	121.85	42.14	3.6844e-06	52.499	0.00075902	0.0010323	0.00030846	1382	1.1349e-05	1.1919e-05	1383.9	376.14	1.1292e-05	1.2093e-05	431.88	144.07	125.17	43.226	1.1451e-05	53.846	199.914	104.070	128.662	39.526	196.047	189.041	39.476	44.325	205.632	175.647	43.642	48.451	48.868	52.888	193.738	52.580	-8191	255	
747.386	1	1	0	0	0.15794	0.080409	0.1593	0.25485	0.12402	0.26825	0.16977	0.2224	0.041992	0.12473	0.38053	0.23168	0.021844	0.24536	0.047006	0.15521	-3.1437	-3.2292	-3.15	-3.4417	-3.375	-3.2729	-3.7229	-3.425	-3.3646	-3.3125	-3.1417	-3.6083	-3.4104	-3.2188	-3.7146	-3.3625	239.070	294.260	289.581	315.073	353.763	232.136	302.388	295.731	110.872	336.320	69.914	70.582	148.109	341.339	159.906	53.150	0.00033372	0.00052319	0.00017225	1363	3.6449e-06	6.8024e-06	1369.9	369.33	4.6476e-06	4.7423e-06	422.51	140.46	122.39	42.009	4.2198e-06	52.319	0.00077252	0.0010686	0.00030534	1381.3	1.1458e-05	1.2206e-05	1385.5	376.48	1.1379e-05	1.2073e-05	430.63	144	125.31	43.214	1.1483e-05	53.778	194.389	126.678	106.517	39.370	193.196	184.651	39.686	44.257	225.664	178.575	43.604	48.484	48.708	52.945	180.108	52.310	-8191	255	
747.482	1	1	0	0	0.05642	0.3331	0.26253	0.39764	0.29638	0.22128	0.19183	0.12909	0.15666	0.024679	0.26661	0.28677	0.30973	0.20967	0.13488	0.09333	-2.9313	-3.3917	-3.2271	-3.6292	-3.3396	-3.2062	-3.6937	-3.4375	-3.4	-3.4354	-3.5229	-3.5792	-3.2521	-3.3187	-3.4521	-3.4646	43.521	62.650	305.509	47.354	269.752	267.307	341.552	358.613	332.048	80.881	39.381	316.706	30.099	29.570	373.137	374.560	0.00035345	0.00046844	0.00010401	1363.1	5.2339e-06	5.255e-06	1369.6	368.91	4.0233e-06	5.9817e-06	426.88	140.27	122.09	42.079	3.4298e-06	52.42	0.00078088	0.0010389	0.00030198	1381.5	1.1743e-05	1.1793e-05	1384.6	376.42	1.1063e-05	1.1759e-05	431.73	143.97	125.29	43.251	1.1527e-05	53.76	199.544	120.939	149.719	39.556	191.185	166.725	39.453	44.187	195.913	200.263	43.650	48.113	48.911	52.986	196.568	52.142	-8191	255	
747.603	1	1	0	0	0.15313	0.16934	0.081956	0.07161	0.26974	0.14811	0.12822	0.15836	0.032441	0.11888	0.080203	0.10681	0.1436	0.16383	0.14386	0.0813	-2.7521	-3.4229	-3.0396	-3.5271	-3.4396	-3.2375	-3.5687	-3.6292	-3.2208	-3.5271	-3.2812	-3.4375	-3.2729	-3.2333	-3.5812	-3.3583	162.275	145.515	155.989	29.345	323.630	232.817	385.129	48.039	362.937	240.631	75.730	61.787	268.000	116.327	196.871	267.363	0.00033602	0.00038742	0.00010733	1364.9	3.8427e-06	3.3738e-06	1368.8	369.71	4.5607e-06	6.1567e-06	425.46	140.06	121.75	42.191	4.3617e-06	52.501	0.00075975	0.0010216	0.00029398	1381.5	1.1143e-05	1.2059e-05	1384.2	376.48	1.1171e-05	1.201e-05	432.13	143.93	125.34	43.352	1.1415e-05	53.879	198.430	104.096	100.155	39.471	190.986	192.474	39.462	44.223	207.622	192.177	43.414	48.421	48.838	52.967	184.263	52.169	-8191	255	
747.699	1	1	0	0	0.067484	0.13258	0.20022	0.041279	0.064423	0.19326	0.054862	0.11446	0.10979	0.083148	0.21069	0.22765	0.17895	0.23102	0.18575	0.084944	-2.9333	-3.4583	-3.1917	-3.4375	-3.425	-3.3063	-3.725	-3.4604	-3.1854	-3.5521	-3.375	-3.5	-3.4979	-3.1146	-3.3396	-3.3208	116.321	208.749	170.735	180.119	216.243	68.083	247.421	301.201	280.052	108.276	381.793	28.800	36.399	342.587	337.599	40.097	0.00033029	0.00053265	0.00014149	1369.8	4.8918e-06	8.4911e-06	1371.4	368.42	3.3437e-06	8.1949e-06	425.12	140.6	122.49	42.253	4.7375e-06	52.544	0.00073049	0.00099119	0.00029299	1384.9	1.0589e-05	1.1354e-05	1386.8	376.53	1.0205e-05	1.0887e-05	432.12	144.32	125.32	43.254	1.0839e-05	53.803	194.802	112.927	119.022	39.475	210.621	167.620	39.512	44.237	228.820	194.033	43.529	48.356	48.902	53.153	206.810	52.265	-8191	255	
747.795	1	1	0	0	0.11316	0.15729	0.11104	0.035443	0.18145	0.13957	0.32287	0.073103	0.15331	0.16193	0.16763	0.26453	0.257	0.19769	0.14706	0.051381	-2.8438	-3.4562	-3.0479	-3.5438	-3.3771	-3.1458	-3.5687	-3.425	-3.3979	-3.7	-3.4208	-3.5104	-3.6604	-3.1792	-3.3583	-3.3563	331.712	355.869	285.935	350.126	322.989	34.533	334.209	271.213	148.921	340.898	41.211	353.661	43.912	152.744	195.697	376.385	0.00032689	0.00044679	0.00011447	1368.5	5.0075e-06	4.6601e-06	1360.3	367.74	5.0168e-06	6.1322e-06	424.02	140.22	121.62	41.889	4.1765e-06	52.469	0.00073245	0.0009986	0.0002894	1381.1	1.0737e-05	1.173e-05	1378	375.59	1.0882e-05	1.1552e-05	430.52	143.69	124.96	43.106	1.136e-05	53.744	198.714	114.174	121.453	39.553	204.036	162.235	39.500	44.261	196.644	184.831	43.305	48.389	48.749	52.850	199.020	52.407	-8191	255	
747.914	1	1	0	0	0.095896	0.09721	0.026758	0.2152	0.040214	0.099398	0.39562	0.10938	0.32818	0.20857	0.22398	0.32663	0.086764	0.19528	0.10965	0.14268	-2.9396	-3.4958	-3.2167	-3.5604	-3.5354	-3.3604	-3.5646	-3.5021	-3.0896	-3.525	-3.2771	-3.4917	-3.3542	-3.2188	-3.4146	-3.2562	356.864	317.172	322.288	322.634	155.819	52.041	327.300	250.980	113.266	156.471	370.158	376.943	231.161	361.213	233.425	270.269	0.00034548	0.00058985	0.0001266	1360.8	4.5952e-06	6.479e-06	1365.2	369.07	5.0854e-06	4.8066e-06	423.16	139.87	122.03	42.083	7.3035e-06	52.419	0.00075751	0.0010431	0.0002908	1379.4	1.0957e-05	1.2107e-05	1382.6	375.68	1.0786e-05	1.1781e-05	431.45	143.76	125.12	43.184	1.147e-05	53.684	198.552	126.507	98.274	39.352	199.322	156.931	39.544	44.173	219.472	198.581	43.621	48.485	48.794	52.811	194.759	52.370	-8191	255	
748.010	1	1	0	0	0.18601	0.31086	0.18649	0.1044	0.18975	0.21492	0.22011	0.24123	0.20555	0.059201	0.32086	0.16172	0.065913	0.025867	0.15856	0.087852	-2.9042	-3.3646	-3.275	-3.5875	-3.4125	-3.0771	-3.4354	-3.4979	-3.1979	-3.4042	-3.4	-3.45	-3.4938	-3.3937	-3.3271	-3.625	212.403	80.308	89.891	227.896	28.222	372.784	361.354	363.976	364.140	217.728	62.998	300.685	83.356	298.509	258.328	194.139	0.00033008	0.00059828	0.00015212	1358.3	4.6573e-06	6.4554e-06	1367.6	368.8	3.5965e-06	3.0354e-06	424.25	140.13	121.97	42.198	2.4758e-06	52.295	0.00075865	0.0010706	0.00029903	1377.7	1.1228e-05	1.2129e-05	1382.7	375.9	1.1156e-05	1.175e-05	430.77	143.98	125.25	43.264	1.1788e-05	53.792	195.053	104.990	125.406	39.351	218.822	186.797	39.358	44.295	195.984	198.804	43.559	48.578	48.964	53.263	163.633	52.125	-8191	255	
748.082	1	1	0	0	0.067075	0.10643	0.074955	0.0598	0.023269	0.20755	0.15972	0.22959	0.067517	0.11259	0.15732	0.076857	0.0094668	0.15244	0.3017	0.1565	-2.7479	-3.2229	-3.2604	-3.2687	-3.5187	-3.1271	-3.6042	-3.7458	-3.2188	-3.4313	-3.4	-3.3375	-3.5854	-3.3708	-3.0479	-3.5167	151.812	160.552	343.055	332.638	138.443	289.675	319.444	366.799	369.672	238.065	324.610	383.902	87.825	146.983	99.569	264.264	0.00033934	0.00058626	0.00017093	1370.3	3.5507e-06	6.6271e-06	1371.7	368.77	3.0248e-06	6.3503e-06	424.12	140.83	122.46	42.302	4.912e-06	52.672	0.00077013	0.0010999	0.00031038	1386.4	1.1446e-05	1.2385e-05	1387.2	376.72	1.1347e-05	1.2277e-05	432.79	144.32	125.52	43.379	1.1764e-05	53.906	199.953	118.791	105.117	39.305	223.600	186.684	39.611	44.133	223.796	166.412	43.561	48.133	48.676	52.787	206.161	52.407	-8191	255	
748.203	1	1	0	0	0.013714	0.20909	0.17944	0.35506	0.22579	0.055889	0.18136	0.18969	0.20214	0.064203	0.248	0.39577	0.20913	0.057028	0.13451	0.06486	-2.6958	-3.5792	-3.2313	-3.2417	-3.475	-3.2167	-3.4625	-3.6271	-3.2125	-3.3625	-3.3187	-3.2333	-3.5563	-3.0938	-3.3896	-3.6854	186.998	84.561	378.934	305.887	247.526	385.834	29.147	352.671	141.839	328.769	329.862	29.163	244.895	357.823	244.593	198.347	0.00031419	0.00053632	0.00010616	1376.4	4.7647e-06	3.9384e-06	1374.8	371.99	5.0802e-06	4.555e-06	425.62	140.65	122.41	42.222	3.5042e-06	52.29	0.00077737	0.001066	0.00030255	1391.1	1.1333e-05	1.2335e-05	1392.7	377.52	1.1326e-05	1.2017e-05	432.12	144.08	125.37	43.292	1.157e-05	53.795	194.260	108.196	115.080	39.527	192.412	161.248	39.546	44.218	213.585	174.694	43.540	48.255	48.836	53.067	177.722	52.077	-8191	255	
748.299	1	1	0	0	0.16533	0.18131	0.13314	0.090084	0.21904	0.33465	0.080253	0.22572	0.15713	0.20969	0.095058	0.15163	0.383	0.30052	0.21839	0.38152	-2.7167	-3.2604	-3.3146	-3.225	-3.5	-3.1688	-3.5292	-3.7833	-3.0917	-3.2812	-3.625	-3.2625	-3.5979	-3.3604	-3.1604	-3.5667	199.612	125.345	269.515	60.459	343.997	187.071	322.124	372.555	53.538	81.039	61.689	169.956	320.679	369.433	128.342	311.407	0.00031722	0.0005319	0.00020092	1369	4.3946e-06	6.1333e-06	1374.3	368.61	5.1734e-06	3.9513e-06	424.26	140.62	121.99	42.071	6.7936e-06	52.55	0.00077586	0.0010871	0.00029922	1386.6	1.127e-05	1.2083e-05	1388.5	376.13	1.1376e-05	1.212e-05	431.93	144.15	125.25	43.218	1.2011e-05	53.907	197.060	114.894	136.561	39.264	217.661	150.410	39.392	44.273	213.953	163.758	43.447	48.506	48.957	52.993	208.999	52.227	-8191	255	
748.395	1	1	0	0	0.22339	0.033417	0.15853	0.18996	0.077394	0.072407	0.23618	0.22748	0.17042	0.14868	0.30151	0.27878	0.3407	0.16142	0.061191	0.15854	-2.7729	-3.05	-3.5083	-3.3604	-3.4583	-3.3083	-3.3208	-3.7292	-3.2771	-3.2104	-3.5125	-3.1083	-3.5021	-3.4208	-3.1125	-3.4625	210.051	239.558	202.783	346.916	275.406	320.293	337.747	305.641	162.624	284.439	326.243	280.244	376.497	379.692	178.534	364.177	0.00032889	0.0004521	0.00011679	1370.2	6.2739e-06	2.6176e-06	1373	370.55	3.0289e-06	6.1074e-06	423.35	140.21	122.02	42.098	4.433e-06	52.144	0.00077864	0.0011093	0.00029842	1385.6	1.1281e-05	1.2155e-05	1387.1	376.94	1.124e-05	1.1965e-05	430.97	143.94	125.19	43.271	1.1722e-05	53.726	198.317	100.616	130.610	39.358	213.103	181.601	39.566	44.118	172.322	195.304	43.488	48.334	48.628	53.084	199.739	52.547	-8191	255	
748.491	1	1	0	0	0.19864	0.1993	0.1134	0.070397	0.059603	0.24623	0.24819	0.19327	0.092359	0.045367	0.043022	0.12352	0.34547	0.1093	0.074348	0.19699	-2.7396	-3.2083	-3.4083	-3.1271	-3.3688	-3.3063	-3.3063	-3.6875	-3.0417	-3.2521	-3.6375	-3.3167	-3.4333	-3.5479	-3.1917	-3.4813	250.825	69.587	143.440	316.712	338.304	74.809	299.613	319.977	153.635	376.106	266.846	187.811	330.570	347.378	213.396	292.508	0.00031253	0.00038998	0.00015203	1370.5	3.7505e-06	6.578e-06	1371.9	369.82	3.9351e-06	3.1155e-06	425.92	139.98	121.84	42.035	5.1953e-06	52.593	0.00077789	0.0010637	0.00030565	1385.8	1.1739e-05	1.2077e-05	1388.1	376.93	1.1384e-05	1.2292e-05	432.06	143.79	125.15	43.278	1.1851e-05	53.856	199.264	91.759	116.946	39.114	217.232	169.162	39.525	44.264	210.898	185.702	43.495	48.671	48.731	52.885	193.198	52.385	-8191	255	
748.587	1	1	0	0	0.13898	0.099351	0.13897	0.31948	0.1865	0.24961	0.25641	0.30628	0.15509	0.21058	0.010741	0.16328	0.20391	0.31975	0.26015	0.25951	-3.0771	-3.2271	-3.3333	-3.225	-3.475	-3.4125	-3.2292	-3.3854	-3.2458	-3.3979	-3.6271	-3.3542	-3.4417	-3.4458	-2.8667	-3.4375	231.514	324.613	71.033	31.525	283.489	45.079	356.272	329.534	311.395	104.784	359.223	68.919	69.861	360.146	367.650	311.731	0.00032825	0.00062437	0.0001259	1371.2	4.6687e-06	7.2419e-06	1377.2	369.22	4.4516e-06	5.5351e-06	425.03	140.16	122.17	41.994	3.807e-06	52.363	0.00079079	0.0011047	0.00030678	1386.1	1.1532e-05	1.2218e-05	1390	376.94	1.1254e-05	1.2319e-05	432.3	143.85	125.17	43.19	1.1944e-05	53.76	198.007	104.548	122.688	39.401	211.891	210.064	39.604	44.172	199.706	179.378	43.449	48.542	48.842	52.996	195.306	52.256	-8191	255	
748.683	1	1	0	0	0.19007	0.12927	0.089865	0.38553	0.066022	0.18369	0.20478	0.23444	0.20141	0.032948	0.096317	0.23206	0.11793	0.10769	0.069616	0.20246	-3.0563	-3.0729	-3.3688	-3.4521	-3.1292	-3.3417	-3.4125	-3.3438	-3.3604	-3.2146	-3.5583	-3.5187	-3.3896	-3.5312	-3.0563	-3.5062	255.070	199.430	354.117	334.676	156.643	77.379	236.965	345.837	211.117	105.111	331.560	66.267	335.613	338.062	281.012	328.856	0.00035374	0.00067692	0.00016712	1375.2	5.3562e-06	4.6879e-06	1378	370.48	4.8382e-06	5.5953e-06	423.76	140	122.19	41.945	5.607e-06	52.714	0.00078366	0.0010898	0.00031436	1389.7	1.1845e-05	1.2535e-05	1389.1	377.54	1.1595e-05	1.2461e-05	432.04	144.1	125.35	43.18	1.1913e-05	53.903	199.035	109.919	137.318	39.171	213.286	177.500	39.465	44.183	211.123	174.368	43.515	48.362	48.895	52.855	202.343	52.362	-8191	255	
748.780	1	1	0	0	0.064009	0.17276	0.21987	0.32189	0.24251	0.26253	0.14664	0.13671	0.10118	0.15498	0.42761	0.13725	0.094077	0.086938	0.21914	0.073264	-3.0229	-3.1417	-3.4271	-3.4167	-3.2521	-3.4833	-3.4521	-3.6604	-3.4062	-3.0833	-3.5583	-3.2417	-3.2833	-3.5542	-2.9896	-3.3896	46.310	342.544	63.666	375.800	280.580	344.122	255.076	353.527	64.313	181.965	289.859	222.363	282.791	294.003	145.533	70.357	0.0003156	0.00051739	0.00014652	1372.5	5.3511e-06	5.3734e-06	1374.4	369.76	3.248e-06	4.9154e-06	424.85	140.37	122.3	41.924	4.5554e-06	52.489	0.00078049	0.0010713	0.00030762	1387	1.1469e-05	1.1978e-05	1389.7	376.9	1.1198e-05	1.2371e-05	432.55	144.07	125.28	43.223	1.1913e-05	53.839	196.936	108.501	109.276	39.309	211.917	172.902	39.478	44.192	222.730	179.978	43.559	48.398	48.751	53.027	191.145	52.106	-8191	255	
748.876	1	1	0	0	0.14859	0.08901	0.11624	0.087768	0.067182	0.20545	0.21912	0.088448	0.16248	0.085162	0.2388	0.19075	0.098653	0.19723	0.12144	0.07274	-2.8458	-3.0687	-3.2583	-3.55	-3.1021	-3.4979	-3.3771	-3.6104	-3.3875	-3.175	-3.4708	-3.5271	-3.3312	-3.5396	-3.2042	-3.4292	306.520	30.326	213.866	97.070	322.779	290.807	310.252	343.667	158.821	227.050	321.350	229.608	359.326	115.929	53.848	211.210	0.00033155	0.00044461	0.00014596	1373.5	4.8027e-06	4.4055e-06	1375.7	370.58	4.0139e-06	5.6721e-06	424.91	140.46	122.62	42.164	3.8263e-06	52.569	0.00076724	0.0010915	0.0003113	1389	1.1557e-05	1.2528e-05	1390	377.04	1.1313e-05	1.2425e-05	432.67	144.13	125.29	43.279	1.1779e-05	53.819	197.213	96.840	130.231	39.426	207.517	203.537	39.533	44.132	205.087	180.098	43.666	48.537	48.950	52.983	209.635	52.258	-8191	255	
748.996	1	1	0	0	0.21577	0.2073	0.11835	0.24665	0.13137	0.038665	0.15816	0.14574	0.20006	0.22998	0.063607	0.08239	0.1229	0.18131	0.42173	0.18817	-3.1562	-3.0438	-3.4813	-3.4125	-3.1417	-3.5625	-3.3083	-3.4333	-3.2458	-3.1729	-3.2833	-3.4313	-2.9667	-3.5208	-3.1354	-3.3167	154.612	129.809	147.437	357.077	270.538	343.238	26.648	323.391	327.763	204.038	151.799	333.026	359.886	66.201	201.689	385.304	0.00033765	0.00053771	0.00012254	1367.8	2.9887e-06	4.7291e-06	1377.5	371.71	4.869e-06	5.1265e-06	423.97	140.7	121.81	42.107	3.5523e-06	52.326	0.00077122	0.0010871	0.00030759	1386.6	1.1401e-05	1.204e-05	1392.7	377.31	1.1258e-05	1.2281e-05	432.32	144.2	125.27	43.244	1.1824e-05	53.756	198.099	125.062	125.357	39.386	199.313	152.949	39.541	44.141	221.875	165.294	43.494	48.452	48.819	53.000	212.536	52.430	-8191	255	
749.091	1	1	0	0	0.21261	0.2342	0.13193	0.31048	0.20994	0.11277	0.1753	0.2489	0.039314	0.085018	0.057982	0.24116	0.45332	0.18238	0.11926	0.090326	-3.0042	-3.0333	-3.4854	-3.3083	-3.2229	-3.4417	-3.4396	-3.1875	-3.575	-3.1021	-3.2979	-3.6562	-3.0833	-3.6437	-3.2292	-3.3458	341.243	359.296	309.285	380.920	361.290	60.689	260.309	385.152	47.426	269.469	122.063	31.013	351.831	332.484	374.376	135.801	0.0003188	0.00048082	0.0001809	1370.1	7.404e-06	4.997e-06	1377.2	371	2.9287e-06	6.8502e-06	425.81	140.61	122.08	42.125	4.1622e-06	52.396	0.00076865	0.0010962	0.0003046	1387.8	1.1615e-05	1.2599e-05	1392.6	377.9	1.1523e-05	1.2232e-05	432.11	144.26	125.38	43.28	1.1781e-05	53.887	194.896	130.542	121.790	39.521	202.443	136.439	39.397	44.364	208.479	172.961	43.237	48.283	48.719	52.943	177.749	52.015	-8191	255	
749.187	1	1	0	0	0.29186	0.16459	0.12845	0.38535	0.28313	0.23877	0.22588	0.13814	0.15428	0.27987	0.17707	0.23958	0.2836	0.032479	0.11693	0.26577	-3.1583	-3.0687	-3.3438	-3.6458	-2.9646	-3.3375	-3.4417	-3.0125	-3.5854	-3.1917	-3.2833	-3.4562	-3.1146	-3.5104	-3.3792	-3.2021	87.866	342.995	98.740	314.461	315.210	81.083	33.999	318.641	107.058	235.273	356.857	73.749	300.577	134.569	107.760	342.443	0.00034683	0.0004366	0.00014545	1370.7	3.3956e-06	6.39e-06	1375.1	369.72	4.2372e-06	5.98e-06	423.89	140.84	122.42	42.208	4.3615e-06	52.393	0.00078853	0.001104	0.0003085	1388.1	1.1861e-05	1.2388e-05	1393.7	377.38	1.1594e-05	1.2529e-05	432.96	144.17	125.64	43.252	1.1831e-05	53.818	199.605	98.079	103.024	39.466	230.391	170.718	39.600	44.144	216.539	188.401	43.667	48.446	48.974	53.047	193.229	52.151	-8191	255	
749.283	1	1	0	0	0.014883	0.09004	0.12528	0.23296	0.20149	0.16012	0.22734	0.10612	0.10075	0.09227	0.44822	0.04681	0.29625	0.30014	0.24222	0.23425	-3.2521	-3.2875	-3.1125	-3.6125	-3.2	-3.3229	-3.4167	-3.2938	-3.3271	-3.3875	-3.2667	-3.5729	-3.0875	-3.3542	-3.4021	-3.1479	202.854	186.285	339.007	322.539	181.641	121.647	337.015	360.151	304.307	364.123	345.607	314.140	377.936	43.672	375.535	213.803	0.00031057	0.00052454	0.00014402	1375.1	4.1646e-06	5.6427e-06	1375	370.53	2.7356e-06	4.5664e-06	427.45	140.98	122.15	42.236	7.2155e-06	52.467	0.00077713	0.0011044	0.00030375	1391.8	1.1475e-05	1.26e-05	1393.7	377.84	1.1526e-05	1.2512e-05	433.07	144.18	125.32	43.276	1.1988e-05	53.778	198.486	111.895	126.955	39.343	208.572	178.120	39.368	44.138	226.180	169.335	43.584	48.694	48.832	52.806	202.267	52.389	-8191	255	
749.377	1	1	0	0	0.14511	0.048132	0.18943	0.25006	0.28311	0.29148	0.23055	0.34446	0.36354	0.11561	0.17149	0.1878	0.22573	0.13523	0.22211	0.087238	-3.075	-3.2104	-3.0854	-3.5062	-3.2229	-3.2833	-3.4729	-3.3646	-3.5167	-3.2854	-3.3771	-3.5812	-3.3563	-3.4167	-3.3	-3.2271	285.223	246.131	238.269	336.797	312.924	87.124	360.520	285.469	328.087	180.228	30.664	334.297	374.741	28.329	360.875	312.363	0.0003128	0.00045646	8.3291e-05	1372.4	4.9283e-06	6.4288e-06	1380	371.85	3.3164e-06	4.1672e-06	425.41	140.36	122.01	42.174	3.6597e-06	52.525	0.00078476	0.0011122	0.00031708	1391.3	1.1951e-05	1.2347e-05	1392.4	378.02	1.1634e-05	1.2288e-05	432.52	144.19	125.36	43.24	1.1547e-05	53.795	199.584	147.118	111.872	39.576	191.506	167.186	39.361	44.300	202.199	151.162	43.546	48.401	48.988	52.733	206.772	52.251	-8191	255	
749.474	1	1	0	0	0.071488	0.14138	0.09769	0.15155	0.10187	0.10855	0.22079	0.09688	0.052294	0.13594	0.086054	0.30445	0.18498	0.15506	0.034799	0.19033	-3.1188	-3.1917	-3.2188	-3.6104	-2.8271	-3.3729	-3.5375	-3.3333	-3.525	-3.4417	-3.1396	-3.8187	-3.2833	-3.0938	-3.6312	-2.9833	366.110	279.017	216.476	80.721	132.221	182.958	362.417	217.027	62.175	90.874	359.438	325.667	368.159	46.301	175.755	359.461	0.00031892	0.00059611	0.00015308	1374.9	8.4091e-06	6.8266e-06	1379.9	370.21	3.4361e-06	5.3972e-06	425.02	141.03	122.58	42.19	3.6079e-06	52.452	0.00077643	0.0010894	0.00030816	1390.4	1.1856e-05	1.2298e-05	1393.1	377.5	1.1569e-05	1.2343e-05	432.59	144.13	125.36	43.293	1.1515e-05	53.743	200.506	111.784	143.799	39.543	195.061	155.792	39.563	44.136	215.355	167.092	43.489	48.357	48.720	52.634	191.800	52.484	-8191	255	
749.594	1	1	0	0	0.29048	0.18235	0.21566	0.036843	0.15667	0.14299	0.15445	0.41649	0.058973	0.22255	0.19404	0.16283	0.30361	0.21103	0.19569	0.38341	-3.0208	-3.3604	-2.9417	-3.5333	-3.2188	-3.2271	-3.6792	-3.4646	-3.4417	-3.4958	-3.3187	-3.5938	-3.2771	-3.25	-3.5667	-3.1521	171.852	31.063	184.375	292.016	326.054	277.237	319.738	344.113	358.738	150.771	266.900	91.938	381.470	291.474	136.273	362.587	0.00034115	0.00054435	0.00019856	1378.9	5.3839e-06	7.0161e-06	1375.4	370.07	3.5738e-06	5.5654e-06	425.97	140.53	122.51	42.159	3.3037e-06	52.454	0.00078343	0.0010707	0.00030635	1391	1.1703e-05	1.2144e-05	1393	377.83	1.1659e-05	1.2133e-05	433.42	144.12	125.49	43.256	1.1876e-05	53.765	195.881	93.698	113.264	39.254	197.279	144.429	39.385	44.200	214.516	182.954	43.599	48.501	49.029	52.853	176.343	52.422	-8191	255	
749.690	1	1	0	0	0.10911	0.11826	0.071231	0.2454	0.0060883	0.16399	0.33395	0.22399	0.12975	0.16008	0.36939	0.19727	0.44186	0.14655	0.20521	0.31092	-3.0042	-3.3292	-3.1771	-3.5833	-3.2271	-3.0812	-3.6542	-3.2458	-3.4583	-3.3354	-3.1958	-3.3958	-3.55	-3.2229	-3.4	-3.3812	142.781	120.404	90.295	346.774	36.794	270.388	338.951	377.208	350.160	200.553	346.960	146.846	69.174	374.045	195.832	41.452	0.00036855	0.00084001	9.7327e-05	1378	5.0434e-06	7.0823e-06	1377.4	371.03	3.7983e-06	4.6513e-06	427.26	140.57	122.4	42.152	5.9046e-06	52.633	0.00077164	0.0010604	0.0003134	1393.8	1.1406e-05	1.2088e-05	1394.9	377.92	1.1131e-05	1.2323e-05	433.02	144.04	125.49	43.308	1.1789e-05	53.818	189.931	109.818	136.199	39.548	214.496	172.757	39.586	44.176	214.158	154.959	43.666	48.312	48.883	53.003	181.401	52.198	-8191	255	
749.787	1	1	0	0	0.20106	0.19441	0.16398	0.12208	0.2235	0.2051	0.27805	0.28646	0.0062437	0.22357	0.099894	0.24743	0.17672	0.33147	0.20565	0.24731	-2.875	-3.2396	-3.1	-3.5958	-3.4125	-3.2792	-3.6854	-3.5208	-3.0438	-3.3646	-3.1833	-3.5333	-3.4604	-3.1917	-3.3708	-3.3083	270.372	47.890	65.445	30.250	27.576	113.935	324.800	280.389	108.308	206.527	59.388	357.570	332.929	246.638	225.889	228.227	0.00036015	0.00069885	0.00018124	1377.8	4.9311e-06	6.9519e-06	1381.7	371.97	3.9038e-06	6.0601e-06	426.41	140.3	122.64	41.977	4.3764e-06	52.18	0.00077846	0.001081	0.00030846	1393.2	1.1336e-05	1.1959e-05	1395.3	377.79	1.1155e-05	1.2167e-05	433.13	144.02	125.43	43.233	1.1883e-05	53.72	196.020	108.335	115.764	39.309	194.408	175.229	39.668	44.086	220.767	186.122	43.494	48.431	48.911	52.880	192.288	52.399	-8191	255	
749.883	1	1	0	0	0.157	0.16764	0.079941	0.40823	0.13364	0.16665	0.19651	0.24453	0.24263	0.15759	0.19723	0.27352	0.092685	0.12179	0.23802	0.41262	-2.7979	-3.5292	-3.0979	-3.5312	-3.3979	-3.15	-3.4188	-3.2958	-3.1521	-3.5167	-3.2083	-3.3604	-3.5	-3.2771	-3.2771	-3.3792	287.227	65.076	232.189	294.684	349.100	52.964	378.076	310.925	322.642	123.475	67.014	305.319	184.695	370.876	264.920	311.848	0.00031687	0.00053854	9.7231e-05	1379.4	7.0593e-06	6.8909e-06	1380.7	369.64	5.2024e-06	3.5878e-06	423.74	140.23	122.14	42.043	6.3559e-06	52.336	0.00077698	0.0010703	0.00031084	1394.7	1.1304e-05	1.2319e-05	1394.5	377.3	1.1416e-05	1.2145e-05	432.9	143.98	125.51	43.212	1.2035e-05	53.74	192.802	103.959	125.584	39.347	188.936	172.715	39.567	44.056	193.370	186.620	43.335	48.507	48.927	52.711	181.154	52.256	-8191	255	
749.979	1	1	0	0	0.10422	0.16242	0.26522	0.22963	0.037171	0.16098	0.29802	0.13581	0.38724	0.092884	0.082224	0.055578	0.2387	0.10519	0.2351	0.08443	-2.7313	-3.2458	-3.0833	-3.5917	-3.3854	-3.2375	-3.6396	-3.3167	-3.2229	-3.5583	-3.3146	-3.325	-3.4708	-3.3979	-3.45	-3.3458	80.350	303.347	294.440	53.082	373.097	170.292	247.630	314.548	114.092	78.098	179.198	82.094	133.246	339.636	87.048	226.368	0.00032844	0.00066701	0.0001497	1381.5	3.9913e-06	7.2747e-06	1381.3	369.87	5.2344e-06	5.6271e-06	428.05	140.5	122.84	42.174	5.1265e-06	52.184	0.00078468	0.0010992	0.00030642	1393.6	1.1673e-05	1.2489e-05	1395	377.4	1.1465e-05	1.2211e-05	433.35	144.16	125.36	43.248	1.1937e-05	53.644	198.132	100.547	115.935	39.466	208.187	172.074	39.666	44.008	207.167	191.072	43.813	48.357	48.751	53.088	175.308	52.173	-8191	255	
750.075	1	1	0	0	0.11835	0.12736	0.073467	0.39755	0.1015	0.0073787	0.1999	0.12992	0.067903	0.25879	0.022723	0.14904	0.10847	0.1922	0.15928	0.25624	-2.7625	-3.2917	-3.1083	-3.2854	-3.5854	-3.2458	-3.5896	-3.5896	-2.9833	-3.4604	-3.3229	-3.2833	-3.5333	-3.2792	-3.3125	-3.4521	84.865	296.804	225.173	41.951	71.220	58.228	381.671	283.967	139.700	209.296	45.711	303.048	288.719	66.054	184.468	288.153	0.00031094	0.00062153	0.00017665	1380.3	4.0713e-06	9.0618e-06	1379.7	371.11	3.8003e-06	4.0255e-06	426.7	139.79	122.3	42.06	6.7157e-06	52.468	0.00077953	0.0010705	0.00031087	1395.8	1.1582e-05	1.2384e-05	1394.8	377.69	1.1153e-05	1.2206e-05	432.39	143.88	125.39	43.216	1.1884e-05	53.761	194.561	101.675	117.017	39.294	196.786	160.093	39.518	44.059	194.718	166.974	43.419	48.646	48.940	52.855	185.576	52.422	-8191	255	
750.171	1	1	0	0	0.18194	0.20235	0.29406	0.1509	0.23623	0.067943	0.3022	0.10688	0.18411	0.11162	0.12479	0.079673	0.019399	0.28359	0.097591	0.47549	-2.6667	-3.1813	-3.1646	-3.5354	-3.6125	-2.9917	-3.6667	-3.6354	-3.1583	-3.6354	-3.2458	-3.2542	-3.6167	-3.1542	-3.2292	-3.5854	261.745	340.674	255.010	31.872	209.552	217.336	369.644	325.962	203.107	297.674	38.773	338.205	130.859	360.730	226.485	384.995	0.00032823	0.0004206	8.6084e-05	1380.8	3.5455e-06	4.5964e-06	1377.4	371.7	3.8843e-06	5.2853e-06	426.07	140.65	121.99	42.107	5.846e-06	52.498	0.00077333	0.0010795	0.00030244	1394.1	1.1452e-05	1.2271e-05	1396.6	377.77	1.1394e-05	1.2277e-05	433.02	144.14	125.35	43.244	1.2017e-05	53.754	199.195	103.900	123.577	39.531	197.092	188.381	39.420	44.069	220.170	182.394	43.653	48.344	48.744	52.832	211.899	52.194	-8191	255	
750.267	1	1	0	0	0.26852	0.046985	0.061837	0.077348	0.10269	0.11928	0.25622	0.16023	0.12064	0.19012	0.17775	0.14207	0.27441	0.25455	0.11522	0.054419	-2.6979	-3.3396	-3.4125	-3.1958	-3.4	-3.2479	-3.7167	-3.5604	-3.0917	-3.4833	-3.3208	-3.2396	-3.35	-3.3125	-3.2792	-3.4292	292.967	198.230	162.641	334.090	287.911	145.469	282.076	328.459	328.472	136.640	36.729	105.841	54.419	379.983	50.046	271.474	0.00034184	0.00038487	0.0001973	1377.5	5.1734e-06	5.3948e-06	1379.4	369.84	4.035e-06	6.5564e-06	424.87	140.13	121.73	42.059	5.3382e-06	52.58	0.00078247	0.0010882	0.00031276	1394.7	1.1531e-05	1.2486e-05	1397.4	377.11	1.1592e-05	1.2649e-05	432.62	144.1	125.22	43.248	1.2013e-05	53.848	197.465	139.842	143.258	39.241	206.637	191.135	39.537	44.146	196.477	160.094	43.742	48.395	48.781	52.908	208.628	52.342	-8191	255	
750.386	1	1	0	0	0.032158	0.15847	0.056977	0.29649	0.10196	0.11718	0.24676	0.26251	0.056028	0.043943	0.35156	0.096987	0.1057	0.1665	0.041226	0.027282	-2.8375	-3.5542	-3.2667	-3.3812	-3.3521	-3.3688	-3.45	-3.4521	-3.2354	-3.4896	-3.3667	-2.9292	-3.7375	-3.3021	-3.4813	-3.6542	381.603	297.624	125.624	368.764	147.304	69.066	364.924	282.936	139.057	299.446	314.597	51.523	37.406	204.847	59.600	223.430	0.00035042	0.0005558	0.0001429	1379.8	5.0125e-06	7.8956e-06	1379.3	370.69	3.371e-06	5.5384e-06	426.66	140.55	122.26	42.191	4.2288e-06	52.328	0.00079433	0.0010814	0.00030392	1395.9	1.1549e-05	1.245e-05	1396.4	377.67	1.1681e-05	1.2358e-05	433.44	144.12	125.45	43.308	1.2104e-05	53.756	196.700	137.796	109.696	39.290	198.123	174.332	39.578	44.136	192.908	216.071	43.443	48.286	48.779	53.019	213.374	52.322	-8191	255	
750.482	1	1	0	0	0.18713	0.10717	0.2677	0.26259	0.20791	0.12074	0.26749	0.15335	0.15367	0.079587	0.042883	0.22138	0.25882	0.24038	0.1191	0.090264	-2.8438	-3.3458	-3.3292	-3.2479	-3.5479	-3.2625	-3.3	-3.5979	-3.175	-3.4375	-3.4583	-3.2292	-3.3812	-3.6771	-3.1146	-3.7438	120.746	341.067	182.721	339.288	123.301	37.881	280.517	336.300	279.241	36.376	97.127	308.309	344.003	367.337	112.890	84.975	0.00034237	0.00061879	0.00018568	1377.5	4.5112e-06	4.3916e-06	1379.3	370.2	2.3167e-06	4.1373e-06	425.36	140.02	122.55	42.188	5.1286e-06	52.537	0.00080011	0.001111	0.00032033	1394.5	1.2181e-05	1.2241e-05	1396.7	377.52	1.1692e-05	1.2626e-05	433.36	144.03	125.63	43.226	1.1971e-05	53.825	199.648	113.217	110.618	39.368	198.827	180.845	39.435	44.327	214.086	183.495	43.486	48.574	48.828	52.968	189.976	52.220	-8191	255	
750.556	1	1	0	0	0.21931	0.11776	0.21967	0.099471	0.13027	0.071691	0.28204	0.18727	0.1399	0.11755	0.19935	0.23472	0.1279	0.043403	0.20492	0.25058	-2.7104	-3.2313	-3.3229	-3.4	-3.4188	-3.1917	-3.5729	-3.5667	-2.9979	-3.4062	-3.5979	-3.3896	-3.5417	-3.5187	-3.0563	-3.5	302.851	274.990	256.420	332.091	147.724	55.292	316.702	259.529	188.251	129.608	384.164	252.289	43.519	291.124	195.061	151.136	0.00033737	0.0005145	0.00018188	1378.5	2.7495e-06	4.1125e-06	1384.6	371.1	4.3024e-06	6.4055e-06	425.66	139.51	122.21	42.085	4.8257e-06	52.391	0.00082424	0.0011132	0.00032033	1395	1.1888e-05	1.2677e-05	1399.6	378.22	1.1406e-05	1.2852e-05	432.76	143.95	125.47	43.26	1.2197e-05	53.844	197.038	92.534	104.217	39.518	180.808	185.687	39.568	44.142	214.588	192.724	43.691	48.249	48.684	52.766	209.591	52.372	-8191	255	
750.675	1	1	0	0	0.26067	0.20722	0.098062	0.20993	0.20694	0.1477	0.14219	0.18208	0.17602	0.3857	0.19433	0.081328	0.04289	0.16876	0.22964	0.16441	-2.8708	-3.2562	-3.5104	-3.3021	-3.4958	-3.4896	-3.3396	-3.7396	-3.3958	-3.2229	-3.6125	-3.375	-3.3458	-3.6312	-3.1208	-3.5583	301.209	111.721	51.660	48.310	152.266	226.416	321.650	298.441	301.819	229.437	322.267	63.974	108.835	34.364	228.837	271.506	0.00035157	0.0005321	0.00011462	1380.2	6.7982e-06	3.9074e-06	1383.7	371.44	6.0646e-06	5.8479e-06	426.77	140.82	122.33	42.268	8.0305e-06	52.334	0.00081318	0.0011505	0.00032576	1397.2	1.201e-05	1.2582e-05	1398.5	378.3	1.1683e-05	1.2609e-05	433.27	144.25	125.63	43.351	1.2126e-05	53.753	198.690	107.229	119.976	39.456	205.527	180.041	39.459	44.213	216.943	151.372	43.445	48.179	48.875	53.023	195.683	52.119	-8191	255	
750.771	1	1	0	0	0.49044	0.072536	0.16725	0.091198	0.17573	0.07589	0.46357	0.19161	0.018109	0.12612	0.19318	0.12603	0.071225	0.1079	0.10606	0.061674	-2.8146	-3.1917	-3.5229	-3.2104	-3.3979	-3.4729	-3.2229	-3.6646	-3.275	-3.1354	-3.5521	-3.2333	-3.4792	-3.3583	-3.2604	-3.4375	99.821	184.160	35.128	334.519	207.592	341.098	354.385	296.394	362.774	225.327	379.911	91.009	351.344	91.520	187.455	239.870	0.00035144	0.00058748	0.00013898	1375.2	3.4383e-06	4.0487e-06	1382.5	372.17	5.081e-06	7.8414e-06	426.04	139.87	122.23	41.945	4.9483e-06	52.466	0.00078913	0.0011184	0.00030586	1395.5	1.1549e-05	1.2301e-05	1397.4	378.26	1.1663e-05	1.2502e-05	433.56	143.95	125.1	43.17	1.1956e-05	53.83	197.070	101.439	134.784	39.369	201.544	173.678	39.493	44.180	217.746	158.085	43.475	48.122	48.850	52.811	188.041	52.264	-8191	255	
750.867	1	1	0	0	0.055014	0.033022	0.14884	0.25329	0.15816	0.1937	0.056099	0.069372	0.1118	0.085683	0.23869	0.21605	0.24054	0.11877	0.063183	0.35355	-3.0417	-3.1542	-3.4479	-3.4292	-3.1937	-3.4188	-3.475	-3.6042	-3.3417	-3.1271	-3.4542	-3.2833	-3.3708	-3.4437	-3.1625	-3.45	322.387	303.453	98.901	315.057	164.221	198.802	310.165	361.336	373.036	364.073	337.795	89.414	358.719	227.795	43.436	256.771	0.00035952	0.00036294	0.00011817	1375.6	3.1849e-06	3.8931e-06	1380.5	371.75	4.2792e-06	4.4339e-06	425.62	140.52	122.05	42.079	4.5001e-06	52.503	0.0007809	0.0010988	0.00030967	1393.4	1.1391e-05	1.2305e-05	1396.5	378.4	1.1616e-05	1.2532e-05	432.62	144.25	125.32	43.236	1.2119e-05	53.846	199.728	117.183	121.991	39.426	204.542	197.804	39.366	44.089	208.050	181.153	43.556	48.318	48.695	53.008	189.273	52.204	-8191	255	
750.988	1	1	0	0	0.13219	0.18221	0.11753	0.36649	0.19614	0.02185	0.071541	0.16396	0.14819	0.13046	0.13986	0.33393	0.14296	0.14333	0.101	0.11309	-2.9896	-2.9604	-3.5604	-3.1792	-3.1458	-3.525	-3.1375	-3.4688	-3.4542	-3.0958	-3.6521	-3.3688	-3.5563	-3.7958	-3.1667	-3.5854	125.948	45.454	114.113	384.340	117.739	304.765	310.165	289.857	255.886	360.018	304.423	301.680	361.904	252.235	41.904	259.503	0.00033527	0.00062651	8.2688e-05	1377	4.8942e-06	5.1409e-06	1384.5	372.84	4.1003e-06	6.6838e-06	426.63	141.15	122.18	41.974	5.5205e-06	52.324	0.00080735	0.0011256	0.00031644	1393.5	1.2166e-05	1.3099e-05	1398.1	378.83	1.2019e-05	1.282e-05	433.79	144.35	125.42	43.251	1.2693e-05	53.847	203.649	100.695	98.478	39.359	189.666	167.681	39.388	44.266	190.148	176.140	43.467	48.331	48.492	52.891	187.374	52.023	-8191	255	
751.084	1	1	0	0	0.082848	0.17842	0.012635	0.24918	0.21968	0.08355	0.25538	0.30164	0.16103	0.15962	0.18056	0.13058	0.13285	0.074021	0.071488	0.11918	-3.025	-3.0625	-3.5354	-3.3	-3.3063	-3.3438	-3.375	-3.4979	-3.4646	-3.0292	-3.2938	-3.4333	-3.3458	-3.5708	-3.1188	-3.3979	171.142	186.514	51.381	27.228	29.076	109.350	355.434	356.797	313.623	224.270	366.171	32.463	80.427	318.344	156.456	329.575	0.00034125	0.00063543	0.00011943	1381	5.4383e-06	6.7493e-06	1378.7	370.72	5.1393e-06	8.1909e-06	426.32	140.04	122.82	41.961	4.4133e-06	52.627	0.00081224	0.0011498	0.00032904	1395.2	1.2207e-05	1.3308e-05	1396.7	378.26	1.2012e-05	1.327e-05	433.71	144.12	125.78	43.302	1.262e-05	53.876	200.540	101.075	112.371	39.358	198.246	168.496	39.356	44.192	222.411	186.041	43.535	48.244	48.839	52.912	193.462	52.149	-8191	255	
751.180	1	1	0	0	0.086595	0.12445	0.073394	0.33992	0.19733	0.17541	0.11259	0.24637	0.18591	0.22512	0.15756	0.30775	0.04002	0.22694	0.14831	0.053376	-2.9562	-3.1417	-3.2042	-3.5125	-3.1604	-3.3354	-3.4813	-3.375	-3.4979	-3.325	-3.3833	-3.3625	-3.1917	-3.5854	-3.2188	-3.4917	320.384	195.828	187.272	375.331	116.653	44.676	252.297	370.576	105.332	311.635	165.943	34.897	352.273	343.919	198.706	302.759	0.00032301	0.00047853	0.00012493	1383.4	5.5568e-06	4.0512e-06	1387.5	373.06	3.0454e-06	3.3645e-06	427.43	140.81	122.26	42.204	4.2975e-06	52.512	0.00082234	0.0011378	0.00032555	1399.6	1.2287e-05	1.3192e-05	1402	379.13	1.266e-05	1.3453e-05	434.38	144.42	125.77	43.32	1.286e-05	53.86	194.923	116.965	105.644	39.408	201.572	182.531	39.621	44.226	209.344	163.850	43.507	48.205	48.965	52.706	198.587	52.228	-8191	255	
751.276	1	1	0	0	0.12669	0.16824	0.034302	0.25916	0.21852	0.13844	0.096122	0.20083	0.062391	0.21991	0.19472	0.19462	0.19568	0.10066	0.065042	0.31809	-3.0917	-3.15	-3.1937	-3.6417	-2.9729	-3.4354	-3.4042	-3.4521	-3.5125	-3.0458	-3.4104	-3.4896	-3.0333	-3.3563	-3.2854	-3.1521	190.081	292.765	344.236	196.228	31.962	67.359	246.488	304.514	192.711	179.129	341.669	52.428	316.428	363.018	380.830	363.726	0.00032569	0.00070646	8.3797e-05	1384.6	5.3028e-06	6.7687e-06	1389.9	371.84	5.6314e-06	5.3904e-06	427.48	141.03	122.7	42.293	5.6234e-06	52.607	0.00083647	0.0011791	0.00033789	1402.5	1.284e-05	1.3949e-05	1403.6	379.49	1.2554e-05	1.3997e-05	434.43	144.67	126.11	43.426	1.2871e-05	53.995	202.413	118.148	107.094	39.384	204.162	171.713	39.566	43.973	217.512	165.663	43.639	48.748	48.795	52.974	187.478	52.296	-8191	255	
751.370	1	1	0	0	0.25064	0.08881	0.17346	0.27591	0.27593	0.031148	0.10066	0.24174	0.13738	0.093811	0.1521	0.29115	0.26484	0.16001	0.13786	0.13698	-3.1229	-3.2188	-3.1813	-3.4396	-3.1646	-3.2917	-3.5208	-3.2188	-3.525	-3.2292	-3.1479	-3.6229	-3.0042	-3.5292	-3.3875	-3.2229	190.249	117.995	266.550	35.891	372.261	133.770	362.913	348.406	154.324	146.815	271.560	352.378	270.691	338.751	127.971	58.060	0.000361	0.00050851	0.00018824	1387.3	6.0016e-06	2.9668e-06	1391.9	372.34	3.7008e-06	6.0234e-06	427.72	140.81	122.55	42.231	4.4506e-06	52.761	0.00085177	0.0012077	0.00034323	1404.8	1.2815e-05	1.3689e-05	1406	379.79	1.2372e-05	1.3606e-05	435.23	144.65	125.94	43.408	1.2808e-05	53.952	196.673	89.005	129.621	39.454	199.884	195.448	39.345	44.161	187.803	186.538	43.633	48.222	48.793	52.802	168.694	52.137	-8191	255	
751.467	1	1	0	0	0.17782	0.1193	0.19419	0.14464	0.13974	0.092231	0.34956	0.18531	0.1779	0.2026	0.29807	0.11975	0.22244	0.22329	0.24914	0.20552	-3.0917	-3.2708	-3.25	-3.6521	-3.1396	-3.4479	-3.6042	-3.2958	-3.4938	-3.375	-3.3292	-3.5104	-3.1917	-3.3083	-3.4396	-3.3208	243.779	186.195	102.771	141.883	137.697	244.150	349.098	294.505	56.885	248.068	338.706	320.309	260.678	68.451	258.432	240.886	0.00032164	0.00049971	0.00013678	1387.5	4.4719e-06	4.8794e-06	1388	371.64	3.9077e-06	6.4617e-06	426.98	140.38	122.77	42.277	4.2611e-06	52.428	0.0008378	0.0011945	0.00033805	1404.2	1.2455e-05	1.3566e-05	1406	379.64	1.2556e-05	1.3403e-05	434.7	144.66	125.86	43.424	1.2551e-05	53.937	193.802	109.572	136.476	39.430	195.936	208.836	39.621	44.192	202.853	180.217	43.554	48.491	48.784	52.897	177.901	52.227	-8191	255	
751.563	1	1	0	0	0.073194	0.09908	0.33947	0.16652	0.081164	0.17801	0.24822	0.050486	0.074199	0.13777	0.37788	0.17611	0.064568	0.13816	0.22911	0.13999	-2.9292	-3.1958	-3.1083	-3.5229	-3.1667	-3.275	-3.5833	-3.3187	-3.3812	-3.2833	-3.3979	-3.5312	-3.2229	-3.5604	-3.4104	-3.2375	208.025	361.716	222.930	229.806	360.329	188.151	297.638	365.728	306.071	273.883	355.630	376.379	289.775	349.939	153.333	26.165	0.00033582	0.00044099	0.00010558	1388.8	5.1532e-06	4.4318e-06	1386.7	371.87	2.6828e-06	5.3458e-06	427	140.27	122.72	42.125	5.4254e-06	52.928	0.00082988	0.001168	0.00033157	1403.7	1.2552e-05	1.32e-05	1404.9	379.68	1.2379e-05	1.3215e-05	434.51	144.53	126.06	43.368	1.2773e-05	53.998	199.482	112.890	104.724	39.409	195.130	181.617	39.359	44.049	184.974	171.258	43.487	48.383	48.896	53.194	211.042	52.077	-8191	255	
751.683	1	1	0	0	0.10985	0.18674	0.055441	0.17398	0.10129	0.13194	0.13964	0.27257	0.017832	0.093877	0.20496	0.12929	0.049871	0.042076	0.096983	0.21652	-3.1042	-3.4062	-3.0146	-3.7646	-3.475	-3.4062	-3.7375	-3.2354	-3.4625	-3.3125	-3.2458	-3.7875	-3.5062	-3.5604	-3.4062	-3.3021	28.553	288.666	305.171	369.837	201.025	167.491	322.802	352.352	185.317	85.362	267.638	316.355	372.479	88.577	313.273	266.379	0.00032986	0.00035131	0.00016109	1387.2	5.8093e-06	5.7771e-06	1394	373.59	3.5608e-06	5.7045e-06	428.43	140.77	123.11	42.187	5.3242e-06	52.676	0.00083511	0.0011617	0.00033082	1404.7	1.2379e-05	1.3299e-05	1407.1	379.62	1.202e-05	1.3115e-05	434.98	144.77	126.08	43.421	1.2783e-05	53.907	202.214	99.691	147.264	39.335	187.521	161.270	39.580	44.228	213.172	191.201	43.673	48.382	48.840	52.937	180.313	52.164	-8191	255	
#DATA ENDS
