BOXY.EXE: ISS Imagent and Oximeter Data Acquisition Program Version 0.80
Ascii Record File

#ACQ INFORMATION
2  Detector Channels 
16  External MUX Channels 
1  Auxiliary Channels 
5000  Waveform (CCF) Frequency (Hz)
1  Waveforms Skipped 
30  Waveforms Averaged 
1  Cycles Averaged 
16  Acquisitions per Waveform 
10.0806  Updata Rate (Hz) 

#FILE INFORMATION
TRUE -- External MUX Channel results are PARSED.
FALSE -- AC DC and Phase are NOT grouped.
TRUE -- Companion Program Settings File CREATED.
FALSE -- AC data not excluded
FALSE -- DC data not excluded
FALSE -- Phase data not excluded
FALSE -- Auxillary Chn. data not excluded
Tab delimiters

#CALIBRATION STATE
TRUE -- Waveform Calibration Values APPLIED.


#AUX CALIBRATION VALUES
Val Type	aux-1	

Term	1.0000e+00	
Factor	0.0000e+00	


#WF CALIBRATION VALUES
A = Detector Channel
Val Type	A-AC1	A-AC2	A-AC3	A-AC4	A-AC5	A-AC6	A-AC7	A-AC8	A-AC9	A-AC10	A-AC11	A-AC12	A-AC13	A-AC14	A-AC15	A-AC16	A-DC1	A-DC2	A-DC3	A-DC4	A-DC5	A-DC6	A-DC7	A-DC8	A-DC9	A-DC10	A-DC11	A-DC12	A-DC13	A-DC14	A-DC15	A-DC16	A-Ph1	A-Ph2	A-Ph3	A-Ph4	A-Ph5	A-Ph6	A-Ph7	A-Ph8	A-Ph9	A-Ph10	A-Ph11	A-Ph12	A-Ph13	A-Ph14	A-Ph15	A-Ph16	

Term	0.00000e+00	0.00000e+00	0.00000e+00	0.00000e+00	0.00000e+00	0.00000e+00	0.00000e+00	0.00000e+00	0.00000e+00	0.00000e+00	0.00000e+00	0.00000e+00	0.00000e+00	0.00000e+00	0.00000e+00	0.00000e+00	0.00000e+00	0.00000e+00	0.00000e+00	0.00000e+00	0.00000e+00	0.00000e+00	0.00000e+00	0.00000e+00	0.00000e+00	0.00000e+00	0.00000e+00	0.00000e+00	0.00000e+00	0.00000e+00	0.00000e+00	0.00000e+00	0.00000e+00	0.00000e+00	0.00000e+00	0.00000e+00	0.00000e+00	0.00000e+00	0.00000e+00	0.00000e+00	0.00000e+00	0.00000e+00	0.00000e+00	0.00000e+00	0.00000e+00	0.00000e+00	0.00000e+00	0.00000e+00	
Factor	1.00000e+00	1.00000e+00	1.00000e+00	1.00000e+00	1.00000e+00	1.00000e+00	1.00000e+00	1.00000e+00	1.00000e+00	1.00000e+00	1.00000e+00	1.00000e+00	1.00000e+00	1.00000e+00	1.00000e+00	1.00000e+00	1.00000e+00	1.00000e+00	1.00000e+00	1.00000e+00	1.00000e+00	1.00000e+00	1.00000e+00	1.00000e+00	1.00000e+00	1.00000e+00	1.00000e+00	1.00000e+00	1.00000e+00	1.00000e+00	1.00000e+00	1.00000e+00	X	X	X	X	X	X	X	X	X	X	X	X	X	X	X	X	

B = Detector Channel
Val Type	B-AC1	B-AC2	B-AC3	B-AC4	B-AC5	B-AC6	B-AC7	B-AC8	B-AC9	B-AC10	B-AC11	B-AC12	B-AC13	B-AC14	B-AC15	B-AC16	B-DC1	B-DC2	B-DC3	B-DC4	B-DC5	B-DC6	B-DC7	B-DC8	B-DC9	B-DC10	B-DC11	B-DC12	B-DC13	B-DC14	B-DC15	B-DC16	B-Ph1	B-Ph2	B-Ph3	B-Ph4	B-Ph5	B-Ph6	B-Ph7	B-Ph8	B-Ph9	B-Ph10	B-Ph11	B-Ph12	B-Ph13	B-Ph14	B-Ph15	B-Ph16	

Term	0.00000e+00	0.00000e+00	0.00000e+00	0.00000e+00	0.00000e+00	0.00000e+00	0.00000e+00	0.00000e+00	0.00000e+00	0.00000e+00	0.00000e+00	0.00000e+00	0.00000e+00	0.00000e+00	0.00000e+00	0.00000e+00	0.00000e+00	0.00000e+00	0.00000e+00	0.00000e+00	0.00000e+00	0.00000e+00	0.00000e+00	0.00000e+00	0.00000e+00	0.00000e+00	0.00000e+00	0.00000e+00	0.00000e+00	0.00000e+00	0.00000e+00	0.00000e+00	-1.03364e+02	-1.28589e+02	-1.22771e+02	-1.82799e+02	-5.29327e+01	-6.36955e+01	-1.54998e+02	-1.62015e+02	-5.44320e+01	-6.23480e+01	-1.71853e+02	-1.69414e+02	-1.80018e+02	-1.77411e+02	-5.74280e+01	-1.48938e+02	
Factor	1.60856e-05	1.42380e-04	4.19562e-05	1.84207e-01	1.34200e-06	1.50499e-06	1.63323e-01	4.88771e-02	1.25689e-06	1.78350e-06	9.25773e-02	2.71365e-02	2.66344e-02	8.67124e-03	1.27850e-06	1.23973e-02	7.02452e-06	9.64614e-06	2.71299e-06	9.29001e-02	1.02271e-07	1.07808e-07	7.77924e-02	2.48455e-02	1.01700e-07	1.07589e-07	4.55974e-02	1.35142e-02	1.37367e-02	4.44083e-03	1.04084e-07	6.15744e-03	X	X	X	X	X	X	X	X	X	X	X	X	X	X	X	X	



#DISTANCE SETTINGS
A = Detector Channel
A-1	A-2	A-3	A-4	A-5	A-6	A-7	A-8	A-9	A-10	A-11	A-12	A-13	A-14	A-15	A-16	

2.5000e+00	3.0000e+00	2.5000e+00	3.0000e+00	2.0000e+00	3.0000e+00	1.5000e+00	3.0000e+00	3.0000e+00	3.0000e+00	3.0000e+00	3.0000e+00	3.0000e+00	3.0000e+00	1.5000e+00	3.0000e+00	

B = Detector Channel
B-1	B-2	B-3	B-4	B-5	B-6	B-7	B-8	B-9	B-10	B-11	B-12	B-13	B-14	B-15	B-16	

1.0000e+01	1.0000e+01	1.0000e+01	1.4400e+00	1.0000e+01	1.0000e+01	1.5100e+00	1.9400e+00	1.0000e+01	1.0000e+01	1.9900e+00	2.4900e+00	2.4100e+00	2.9000e+00	1.0000e+01	2.9800e+00	




#DATA BEGINS
time	group	step	mark	flag	A-AC1	A-AC2	A-AC3	A-AC4	A-AC5	A-AC6	A-AC7	A-AC8	A-AC9	A-AC10	A-AC11	A-AC12	A-AC13	A-AC14	A-AC15	A-AC16	A-DC1	A-DC2	A-DC3	A-DC4	A-DC5	A-DC6	A-DC7	A-DC8	A-DC9	A-DC10	A-DC11	A-DC12	A-DC13	A-DC14	A-DC15	A-DC16	A-Ph1	A-Ph2	A-Ph3	A-Ph4	A-Ph5	A-Ph6	A-Ph7	A-Ph8	A-Ph9	A-Ph10	A-Ph11	A-Ph12	A-Ph13	A-Ph14	A-Ph15	A-Ph16	B-AC1	B-AC2	B-AC3	B-AC4	B-AC5	B-AC6	B-AC7	B-AC8	B-AC9	B-AC10	B-AC11	B-AC12	B-AC13	B-AC14	B-AC15	B-AC16	B-DC1	B-DC2	B-DC3	B-DC4	B-DC5	B-DC6	B-DC7	B-DC8	B-DC9	B-DC10	B-DC11	B-DC12	B-DC13	B-DC14	B-DC15	B-DC16	B-Ph1	B-Ph2	B-Ph3	B-Ph4	B-Ph5	B-Ph6	B-Ph7	B-Ph8	B-Ph9	B-Ph10	B-Ph11	B-Ph12	B-Ph13	B-Ph14	B-Ph15	B-Ph16	aux-1	digaux	

11106.100	1	1	0	256	0.07286	0.066692	0.34041	0.2246	0.10341	0.082738	0.13435	0.1911	0.14735	0.10009	0.11677	0.14303	0.11284	0.038298	0.10241	0.13327	-2.5729	-2.7542	-3.1271	-3.0708	-3.025	-3.0479	-3.0229	-3.2792	-2.9042	-2.85	-3.3375	-3.1083	-2.9437	-3.0396	-2.9437	-3.0938	-15.232	-22.835	-54.401	182.335	73.828	89.135	168.680	97.740	195.557	-2.044	221.038	-61.985	135.937	23.830	-42.199	-98.162	0.00011832	0.0001725	0.00011277	1227.2	2.1708e-06	3.474e-06	1282.6	244.42	3.3102e-06	4.3879e-06	306.48	83.172	64.9	18.546	2.6065e-06	26.307	0.00047916	0.00060441	0.00016822	1200	6.4186e-06	6.8263e-06	1261.6	241.7	6.5207e-06	6.6726e-06	303.8	83.532	65.512	18.759	6.4387e-06	26.569	234.673	27.518	1.714	-112.498	-11.164	70.203	-112.536	-105.501	103.856	8.915	-105.467	-99.081	-99.139	-91.875	51.070	-92.024	-8191	255	
11106.196	1	1	0	0	0.06369	0.14127	0.098261	0.094427	0.097424	0.23312	0.28212	0.43131	0.081689	0.26219	0.11471	0.080908	0.10721	0.080718	0.17036	0.08074	-2.7604	-2.8042	-3.1312	-3.0896	-2.7438	-3.3458	-3.1562	-3.0167	-3.1021	-2.8167	-3.3438	-2.9167	-2.7167	-3.2458	-2.9854	-2.8458	108.789	-86.735	123.479	129.999	217.618	105.348	208.999	164.673	103.063	112.858	124.107	135.507	-97.559	219.745	233.188	72.365	9.7468e-05	0.0003226	8.6424e-05	1221.1	3.239e-06	4.2334e-06	1278	243.29	7.5889e-07	3.5426e-06	306.75	82.946	64.655	18.679	2.4708e-06	26.349	0.00048844	0.00059884	0.00016349	1193.8	6.4435e-06	6.5626e-06	1255.2	240.84	6.2834e-06	6.6891e-06	302.82	83.479	65.274	18.787	6.3609e-06	26.557	232.646	-25.368	-11.656	-112.345	13.508	53.843	-112.163	-105.608	70.715	8.734	-105.859	-98.663	-98.515	-91.744	32.682	-92.371	-8191	255	
11106.291	1	1	0	0	0.33461	0.064746	0.16687	0.33234	0.17291	0.12624	0.13155	0.071639	0.05514	0.23015	0.10138	0.22035	0.21712	0.15748	0.21448	0.10385	-2.7333	-2.7896	-3.2375	-3.1458	-2.8542	-2.9604	-3.1125	-3.1729	-3.0396	-2.8917	-3.125	-3.1292	-2.8396	-3.1125	-2.9792	-3.0396	-0.666	-35.354	186.797	190.894	75.392	46.576	184.534	232.997	30.191	125.331	-96.885	175.822	228.231	197.145	-80.816	-33.061	0.00013358	0.00043772	4.256e-05	1218.2	3.8885e-06	4.8158e-06	1274.7	242.16	1.6351e-06	4.1934e-06	306.52	82.976	64.527	18.433	2.3262e-06	26.285	0.00047638	0.00058383	0.00016254	1191	6.4045e-06	6.4265e-06	1251	240.04	6.3728e-06	6.4742e-06	302.06	83.301	65.29	18.71	6.3203e-06	26.473	231.142	-9.402	-9.173	-112.591	24.448	8.982	-112.194	-105.483	141.113	20.334	-105.500	-99.157	-99.192	-91.968	90.740	-91.798	-8191	255	
11106.387	1	1	0	0	0.16453	0.063861	0.12005	0.099593	0.016637	0.052774	0.28908	0.080836	0.14375	0.27942	0.055763	0.16494	0.17959	0.073822	0.2258	0.16567	-2.5812	-2.7812	-3.0354	-3.275	-2.9271	-3.0625	-3.1792	-2.8917	-3.1979	-2.9	-3.1792	-3.175	-2.8604	-3.1646	-2.8979	-3.0479	44.758	-101.748	192.532	-90.778	95.998	23.421	198.574	44.733	99.331	72.092	74.025	194.314	201.832	-117.233	38.933	135.646	0.00016466	0.00038383	0.00014657	1218.6	1.7585e-06	3.0861e-06	1278.5	242.28	3.4817e-06	2.7441e-06	307.45	82.305	64.838	18.548	3.0806e-06	26.264	0.00047149	0.00059054	0.00015998	1193.4	6.3741e-06	6.5029e-06	1251.6	240.28	6.4796e-06	6.5582e-06	303.05	83.156	65.295	18.745	6.4391e-06	26.475	231.084	-50.580	-25.252	-112.281	20.479	102.446	-112.404	-105.598	4.673	33.411	-105.477	-99.034	-98.913	-92.074	61.534	-91.915	-8191	255	
11106.483	1	1	0	0	0.16224	0.083464	0.0084164	0.18125	0.17697	0.13263	0.22606	0.089771	0.080412	0.19166	0.10125	0.21172	0.14163	0.19011	0.10885	0.12781	-2.8729	-2.8583	-2.9833	-3.275	-2.8187	-3.1479	-3.2812	-2.8417	-3.3	-2.9292	-3.0938	-3.2542	-2.9396	-3.3021	-3.2	-2.8292	205.674	-29.487	178.331	211.752	230.268	38.839	171.769	153.558	208.608	18.350	178.136	227.890	156.692	201.679	159.893	177.614	0.00010322	0.00020259	5.7909e-05	1225.2	1.4578e-06	8.8491e-07	1274.4	243.02	2.7687e-06	4.3992e-06	303.39	82.874	64.449	18.45	3.8891e-06	26.186	0.0004831	0.00059673	0.00016444	1193.6	6.6387e-06	6.559e-06	1252.2	240.28	6.3599e-06	6.6167e-06	301.8	83.423	65.31	18.75	6.3257e-06	26.519	228.705	-67.728	-79.025	-112.276	-10.937	45.658	-112.247	-105.502	41.604	21.992	-105.464	-99.171	-99.015	-91.419	61.249	-92.031	-8191	255	
11106.604	1	1	0	0	0.021045	0.2367	0.0995	0.17935	0.2033	0.27703	0.2526	0.2089	0.25535	0.26749	0.14839	0.22229	0.085609	0.13193	0.049346	0.251	-2.7229	-2.8292	-2.8375	-3.1125	-2.6896	-3.0479	-3.1813	-2.8896	-3.2792	-2.9104	-2.9521	-3.2896	-2.7625	-3.0375	-3.1813	-2.9	-42.419	-50.837	53.629	222.600	14.812	180.882	146.280	147.440	201.697	111.100	185.669	183.428	61.844	175.881	1.089	-116.067	0.0001323	0.00017998	0.00012825	1221.7	4.0814e-07	3.014e-06	1273.1	243.62	2.6494e-06	6.1739e-06	305.08	82.43	64.386	18.456	4.6894e-06	26.238	0.00048136	0.00059247	0.00016695	1191	6.393e-06	6.5186e-06	1251.5	240.17	6.4664e-06	6.4229e-06	301.94	83.28	64.951	18.726	6.4469e-06	26.53	234.496	-74.996	-49.141	-112.510	-32.557	46.636	-112.319	-105.605	33.528	65.954	-105.402	-99.028	-98.948	-91.630	24.761	-91.945	-8191	255	
11106.698	1	1	0	0	0.23725	0.22406	0.10734	0.13422	0.10364	0.1692	0.065051	0.10118	0.060353	0.064197	0.19884	0.12289	0.092506	0.1035	0.061878	0.23712	-2.725	-2.9104	-2.9333	-3.2896	-2.8104	-3.1542	-3.3104	-2.8375	-3.2417	-3.0354	-2.7833	-3.2042	-2.8812	-2.8958	-3.1646	-2.9333	-34.093	-106.493	-106.676	116.989	58.877	-120.496	179.749	218.909	171.900	140.679	180.482	-111.246	-85.479	-3.141	-84.193	180.852	0.00011088	0.00067662	0.00015936	1215.9	4.2853e-07	5.269e-06	1270.4	242.75	2.4369e-06	5.6352e-06	302.08	82.188	64.478	18.609	3.3924e-06	26.32	0.00048419	0.00057919	0.00016627	1190	6.5518e-06	6.5648e-06	1249.6	240	6.4764e-06	6.6508e-06	301.41	82.956	65.06	18.762	6.3815e-06	26.478	233.689	-67.269	-29.529	-112.505	140.073	40.799	-112.223	-105.455	7.814	74.387	-105.568	-99.382	-98.824	-91.828	30.072	-91.919	-8191	255	
11106.794	1	1	0	0	0.16766	0.17359	0.075021	0.13875	0.13611	0.31118	0.094752	0.35483	0.27728	0.25502	0.11563	0.24855	0.37723	0.11089	0.0755	0.20617	-2.7562	-2.9917	-2.7917	-3.3625	-3.0354	-2.9333	-3.3521	-2.8854	-3.1146	-3.0271	-2.8563	-3.1562	-3.1146	-2.9875	-3.1167	-2.7458	13.362	123.681	67.309	200.368	225.226	114.833	90.497	164.722	232.218	-80.367	205.955	124.404	162.517	-70.518	-46.246	160.639	0.00010327	0.00035777	6.4283e-05	1213.5	3.7739e-06	1.9452e-06	1259.6	241.71	3.5629e-06	3.5243e-06	303.81	81.943	64.234	18.504	3.2345e-07	26.151	0.00047658	0.00058632	0.00016765	1185.9	6.3883e-06	6.3984e-06	1241.6	238.93	6.2668e-06	6.3e-06	300.18	82.665	64.596	18.616	6.2229e-06	26.339	233.771	-1.805	-15.293	-112.480	-4.014	30.111	-112.117	-105.319	23.739	23.001	-105.257	-99.175	-98.699	-91.313	73.873	-91.739	-8191	255	
11106.891	1	1	0	0	0.15541	0.032315	0.3389	0.13108	0.19112	0.22524	0.23685	0.20745	0.11154	0.058248	0.05851	0.29482	0.15153	0.21216	0.15248	0.11574	-2.5708	-3.1146	-2.6063	-3.3125	-2.8792	-3.025	-3.2708	-3.0458	-3.0563	-3.2042	-2.8729	-3.2188	-3.0625	-2.8333	-3.1354	-3.0625	-17.459	-4.012	175.702	198.854	169.265	37.325	236.412	-122.036	88.793	-106.892	185.747	4.227	181.372	-6.095	219.799	12.489	0.00012796	4.6825e-05	0.00011046	1206	2.7918e-06	2.5079e-06	1259.7	241.17	1.4625e-06	2.7706e-06	299.41	80.866	64.112	18.335	3.4723e-06	25.893	0.00045289	0.0005601	0.00016345	1178.1	6.1382e-06	6.1395e-06	1236.4	237.99	5.8213e-06	6.1223e-06	297.56	82.187	64.248	18.448	5.6444e-06	26.128	235.810	-51.367	26.278	-112.268	42.478	-4.994	-112.281	-105.388	40.513	56.297	-105.040	-98.894	-98.261	-91.852	44.604	-91.757	-8191	255	
11106.987	1	1	0	0	0.046893	0.082007	0.031785	0.26325	0.075817	0.19045	0.27111	0.15722	0.35513	0.29734	0.11837	0.15439	0.35115	0.081067	0.29781	0.16836	-2.6562	-3.0958	-2.7667	-3.1667	-3.0833	-2.975	-3.4229	-3.1	-3.0167	-3.2104	-2.85	-3.1333	-3.0438	-2.7917	-3.175	-2.9896	81.188	-62.521	137.837	191.944	137.627	147.123	156.310	223.852	-95.656	10.777	214.507	205.067	225.928	204.656	175.942	130.450	0.00012538	0.00021061	5.7287e-05	1190.1	1.5124e-06	2.6202e-06	1243.5	237.58	2.8224e-06	1.6826e-06	299.89	81.28	64.364	18.284	2.0549e-06	25.845	0.00042996	0.00052314	0.00014645	1163	5.6861e-06	5.991e-06	1222.5	235.43	5.8848e-06	6.1429e-06	296.81	81.974	64.329	18.469	6.1074e-06	26.158	-119.511	-52.533	-81.964	-112.324	56.023	51.616	-112.287	-105.280	10.858	42.631	-105.600	-98.783	-98.564	-92.065	28.065	-91.860	-8191	255	
11107.083	1	1	0	0	0.12441	0.10726	0.30453	0.1876	0.086452	0.16303	0.15121	0.065178	0.20738	0.27107	0.1061	0.05705	0.24713	0.13601	0.12017	0.10701	-2.3354	-3.2417	-2.8688	-3.1042	-3.0708	-2.8292	-3.2354	-2.9271	-2.8375	-3.2104	-2.9854	-3.2062	-3.1396	-2.8646	-3.3833	-2.9417	118.450	162.590	-7.285	172.812	206.969	-78.057	172.493	78.679	145.183	200.906	158.415	-105.021	119.861	183.538	13.503	96.153	0.00011818	0.00035809	0.00012061	1189.8	1.5554e-06	3.7175e-06	1242.3	238.16	2.2902e-06	3.7209e-06	300.72	81.399	63.876	18.473	2.562e-06	25.94	0.00045368	0.00056448	0.00015157	1163.1	5.9801e-06	6.1116e-06	1223.4	235.7	5.9497e-06	6.1859e-06	297.18	82.028	64.112	18.5	5.8495e-06	26.178	-117.423	-10.104	-33.180	-112.303	85.229	6.055	-112.329	-105.450	-3.411	70.174	-105.485	-98.797	-98.740	-91.460	62.016	-91.566	-8191	255	
11107.203	1	1	0	0	0.024913	0.27718	0.093117	0.21544	0.12765	0.18778	0.22367	0.052032	0.080117	0.1499	0.09449	0.15317	0.12161	0.17741	0.23864	0.13973	-2.4104	-3.025	-2.6562	-3.1417	-3.2687	-2.8292	-3.2583	-3.1917	-2.6688	-3.1583	-2.9083	-3.0812	-2.8792	-2.9542	-3.1708	-3.1854	115.475	191.451	-113.163	130.370	11.701	-79.803	115.419	225.201	170.981	28.156	101.795	83.310	-101.585	96.625	177.712	-68.118	9.7822e-05	0.00024971	7.3125e-05	1191.2	3.2658e-06	3.8404e-06	1241.1	239.4	1.067e-06	2.4894e-06	300.76	80.863	63.901	18.383	1.9479e-06	25.756	0.00045052	0.00055194	0.00015179	1166	5.9373e-06	5.971e-06	1221.2	235.69	5.7573e-06	5.791e-06	296.67	81.752	64.245	18.491	5.7131e-06	26.074	232.233	-47.725	-19.080	-112.247	39.764	49.978	-112.298	-105.243	8.485	32.387	-105.347	-99.157	-98.893	-91.468	18.981	-92.127	-8191	255	
11107.300	1	1	0	0	0.12765	0.20055	0.10229	0.11969	0.12207	0.060988	0.07336	0.1978	0.32646	0.054873	0.14737	0.089711	0.17035	0.10826	0.37945	0.18431	-2.4146	-3.3104	-2.9292	-3.0312	-3.2792	-2.7812	-3.2583	-3.1042	-2.8292	-3.2167	-3.1583	-3.1125	-3.275	-2.9625	-3.0854	-3.2438	150.742	68.400	51.706	-78.462	186.302	188.334	-113.004	209.415	-96.712	-114.222	-47.118	209.382	96.901	156.297	-2.309	208.779	0.00010675	0.00024056	9.0168e-05	1187.8	1.9651e-06	1.0626e-06	1242.2	237.52	1.5876e-06	2.2017e-06	300.67	81.083	63.705	18.274	3.1483e-06	25.75	0.00042632	0.00053512	0.0001446	1160.1	5.7468e-06	5.635e-06	1218.5	234.99	5.5823e-06	5.6059e-06	296.36	81.899	63.981	18.413	5.5013e-06	26.075	229.206	-54.694	-43.475	-112.317	99.389	-48.093	-112.215	-105.362	10.092	-11.852	-105.471	-99.202	-98.667	-91.649	217.935	-91.858	-8191	255	
11107.396	1	1	0	0	0.12621	0.10518	0.101	0.21724	0.34514	0.026988	0.31553	0.16368	0.11769	0.1874	0.33217	0.043916	0.16123	0.17532	0.29505	0.22611	-2.4813	-3.2313	-2.875	-2.9417	-3.2646	-2.9875	-3.0312	-3.2479	-2.8104	-3.2333	-3.0958	-3.1208	-3.2	-2.9583	-3.2188	-3.4354	-25.915	-9.745	127.241	232.067	5.710	208.667	155.978	236.087	-9.793	127.702	118.166	231.821	-105.875	-120.447	-27.814	-56.121	0.00011524	0.00036592	0.00012521	1188.9	4.1816e-06	3.9974e-06	1243.3	237.62	3.5383e-07	8.1235e-07	298.86	81.128	63.205	18.17	2.3552e-06	25.834	0.00042435	0.00051526	0.00014094	1160.9	5.6594e-06	5.7817e-06	1219.5	235.12	5.7022e-06	5.6881e-06	296.42	81.734	63.905	18.4	5.5577e-06	26.085	234.786	-29.070	-35.068	-112.408	34.536	51.569	-111.822	-105.124	-70.571	-71.857	-105.503	-98.773	-98.648	-91.494	36.898	-92.335	-8191	255	
11107.467	1	1	0	0	0.21204	0.051878	0.078558	0.27174	0.2473	0.21069	0.21219	0.12413	0.18837	0.10738	0.031953	0.20997	0.16409	0.10606	0.1695	0.32042	-2.5458	-3.325	-3.1917	-2.9771	-3.1792	-3.0667	-3.1875	-3.1792	-2.9333	-3.1688	-3.1875	-2.9354	-3.2229	-3.125	-2.9229	-3.2938	73.098	-14.517	227.264	162.607	33.259	135.494	214.432	36.553	-46.367	140.728	195.941	63.468	175.048	219.169	47.158	141.399	0.00011389	0.00033129	3.8346e-05	1184.5	2.9159e-06	3.775e-06	1242.1	238.81	2.1961e-06	4.9886e-06	297.56	81.222	63.941	18.183	1.427e-06	25.717	0.00044473	0.00052141	0.00014228	1159.5	5.7551e-06	5.8057e-06	1218.8	235.28	5.7308e-06	5.767e-06	295.9	81.863	64.006	18.406	5.5948e-06	26.019	221.337	-4.425	-47.338	-112.297	41.233	6.476	-112.143	-105.200	-11.964	8.500	-105.261	-99.127	-98.715	-91.543	100.490	-91.826	-8191	255	
11107.588	1	1	0	0	0.22767	0.035479	0.11723	0.24598	0.15107	0.092788	0.11963	0.053294	0.11339	0.1937	0.1059	0.1187	0.10869	0.27531	0.23028	0.030602	-2.3604	-3.0187	-3.0521	-3.1083	-3.3646	-3.1333	-3.1792	-3.3854	-2.95	-3.125	-3.2687	-2.9813	-3.15	-3.1333	-2.9417	-3.2438	167.454	68.725	-122.661	-73.462	74.485	233.763	105.341	160.829	114.864	-114.937	-38.826	115.730	74.899	145.752	150.415	85.596	0.0001159	0.00032504	4.9843e-05	1185.9	2.2483e-06	2.5142e-06	1240.1	237.92	1.3109e-06	3.3049e-06	299.39	80.918	63.627	18.423	3.4713e-06	25.586	0.00043292	0.0005111	0.00014008	1157.9	5.7342e-06	5.5171e-06	1217.6	235.05	5.5183e-06	5.4996e-06	295.73	81.67	63.966	18.477	5.7806e-06	26.003	-117.303	4.572	-14.301	-112.462	-45.632	41.415	-112.038	-105.195	-96.915	29.861	-105.548	-98.992	-98.877	-91.559	10.115	-91.864	-8191	255	
11107.684	1	1	0	0	0.074101	0.11872	0.16427	0.20772	0.40677	0.14936	0.1427	0.18811	0.22583	0.12638	0.13874	0.13465	0.14373	0.077453	0.18778	0.16478	-2.4708	-3.1833	-3.1646	-2.8667	-3.0854	-3.1437	-3.1542	-3.3333	-2.8333	-3.025	-3.3312	-3.0417	-3.2292	-3.2417	-2.875	-3.3063	156.371	87.038	82.840	216.961	-84.435	-68.445	170.317	-104.700	106.673	-90.229	94.605	165.022	-29.539	168.085	50.255	138.025	0.00011622	0.00040254	0.00010043	1187.6	4.171e-06	3.4977e-06	1235.9	237.93	2.9131e-06	3.5386e-06	298.79	80.831	63.082	18.249	2.5217e-06	25.568	0.00041812	0.00050305	0.00014269	1159	5.5112e-06	5.7408e-06	1215.7	234.95	5.6306e-06	5.4974e-06	295.7	81.594	63.77	18.393	5.3588e-06	25.987	236.937	-34.265	-38.833	-112.411	-4.313	9.783	-112.310	-105.003	21.785	46.596	-105.365	-98.968	-98.751	-91.564	3.496	-91.852	-8191	255	
11107.779	1	1	0	0	0.32649	0.13361	0.21876	0.31386	0.21336	0.22797	0.1579	0.016459	0.063879	0.23542	0.13697	0.27343	0.16662	0.23518	0.17929	0.19251	-2.525	-2.8479	-3.2292	-3.1188	-3.2	-3.1521	-2.9792	-3.2271	-2.9375	-2.8479	-3.3521	-2.9688	-3.1188	-3.2604	-2.8333	-3.3208	66.227	-49.215	-119.746	105.078	100.034	-79.360	160.647	46.440	37.802	-14.480	-83.932	215.501	64.173	117.842	195.584	-37.507	0.00011622	0.00023539	5.6776e-05	1186.7	3.1204e-06	2.8865e-06	1237	236.76	1.9722e-06	5.0813e-06	299.29	81.327	63.704	18.258	1.3865e-06	25.998	0.00041699	0.00050859	0.00014134	1157.8	5.5823e-06	5.5488e-06	1215.5	234.3	5.4744e-06	5.5234e-06	296.3	81.776	64.012	18.416	5.6524e-06	26.149	-122.098	1.991	74.137	-112.356	32.490	-35.867	-112.317	-105.369	22.326	5.475	-105.487	-98.908	-98.864	-92.063	95.700	-91.924	-8191	255	
11107.875	1	1	0	0	0.30115	0.16296	0.15453	0.26101	0.071003	0.21324	0.21402	0.20513	0.15802	0.10629	0.074599	0.083289	0.15142	0.27077	0.25472	0.11369	-2.6854	-2.8896	-3.0687	-3.0438	-3.0521	-3.2833	-3.1188	-3.1083	-2.9604	-3.0312	-3.2	-2.9938	-2.925	-3.1521	-2.8625	-3.2062	163.564	30.460	33.625	-77.536	-54.841	10.039	147.536	-122.793	223.869	-93.990	-37.811	202.154	183.108	41.641	12.627	44.297	9.736e-05	0.00041292	5.8777e-05	1179.2	2.9379e-06	7.0382e-07	1227.7	237.41	6.3837e-07	4.2044e-06	298.98	80.766	63.387	18.27	3.9789e-06	25.745	0.00041683	0.00051078	0.00014292	1154.6	5.564e-06	5.569e-06	1212	234.83	5.6287e-06	5.7128e-06	295.44	81.698	63.946	18.415	5.6559e-06	26.039	224.873	-59.920	-22.608	-112.483	-40.748	-48.661	-111.853	-105.037	163.496	47.921	-105.175	-99.158	-98.664	-91.914	-0.250	-92.223	-8191	255	
11107.995	1	1	0	0	0.10801	0.16914	0.27068	0.090746	0.12979	0.31888	0.24501	0.33624	0.12792	0.08594	0.15012	0.2842	0.10243	0.17642	0.22302	0.082269	-2.6562	-2.8167	-3.0917	-3.1167	-2.9771	-3.1604	-3.0312	-3.2146	-3.1125	-2.7625	-3.4542	-3.2083	-2.8896	-3.2583	-2.85	-3.1604	-65.048	40.990	-117.925	188.222	-115.807	157.673	225.526	207.622	-111.915	199.057	86.589	227.270	221.678	-107.361	-89.288	-23.924	0.00011487	0.00047471	9.9305e-05	1182.1	3.5171e-06	2.3727e-06	1235.5	237.36	2.1128e-06	3.3687e-06	299.61	80.739	63.71	18.183	2.073e-06	25.768	0.00040859	0.00052161	0.00014899	1153.2	5.6006e-06	5.7704e-06	1215.7	234.82	5.6024e-06	5.667e-06	295.6	81.473	63.923	18.405	5.691e-06	26.082	228.914	-44.303	-39.789	-112.275	-4.865	19.850	-112.122	-105.397	-7.923	35.002	-105.384	-99.333	-98.326	-91.684	75.428	-92.120	-8191	255	
11108.092	1	1	0	0	0.15928	0.089529	0.10962	0.071967	0.23785	0.076026	0.35874	0.16579	0.15043	0.20441	0.20974	0.24128	0.085202	0.11278	0.2706	0.09263	-2.575	-2.9229	-3.3187	-3.1792	-2.8937	-3.1333	-3.0563	-2.9708	-3.125	-2.8708	-3.2083	-3.0854	-3.0542	-3.3063	-2.9437	-3.1188	62.347	98.100	65.087	174.759	-0.335	218.132	189.159	137.364	14.202	43.830	172.591	198.736	-108.652	-78.139	-35.238	140.433	0.00013708	0.00022409	7.2501e-05	1182.7	1.1083e-06	3.7967e-06	1233.6	236.18	3.1614e-06	2.8417e-06	297.31	81.07	63.293	18.294	4.2843e-06	25.962	0.00042264	0.0005224	0.00014232	1155.1	5.4059e-06	5.6128e-06	1214.9	233.9	5.289e-06	5.592e-06	294.48	81.5	63.801	18.403	5.4018e-06	26.079	231.323	-77.800	-19.998	-112.430	-107.062	36.388	-111.994	-105.252	31.368	72.884	-105.328	-99.091	-98.566	-91.727	26.813	-91.685	-8191	255	
11108.163	1	1	0	0	0.11908	0.10238	0.31173	0.21423	0.13192	0.077909	0.31241	0.064593	0.1049	0.23733	0.1144	0.27106	0.20706	0.064796	0.15534	0.11121	-2.9396	-2.7875	-3.2188	-3.0854	-3.0438	-3.4604	-3.0938	-3.05	-3.1958	-2.8292	-3.1979	-3.2021	-2.8333	-3.1708	-3.0417	-2.9521	-79.066	17.241	225.360	236.440	147.691	85.859	199.085	92.907	93.978	-69.421	224.956	216.096	208.247	233.802	-105.018	138.361	0.00013394	0.0006073	4.5541e-05	1182.3	2.0046e-06	3.9279e-06	1229.9	237.26	2.3968e-06	2.4742e-06	299.11	80.576	63.41	18.358	1.493e-06	25.772	0.00040656	0.00048277	0.00013684	1150.8	5.3903e-06	5.255e-06	1209.7	233.93	5.2475e-06	5.5148e-06	295.39	81.357	63.748	18.393	5.2877e-06	26.008	-120.433	-56.660	26.960	-112.269	131.250	62.414	-111.990	-105.284	34.958	86.422	-105.260	-99.057	-98.458	-91.306	5.386	-92.345	-8191	255	
11108.284	1	1	0	0	0.045904	0.16441	0.099909	0.29589	0.011998	0.077297	0.11229	0.13664	0.24368	0.17331	0.041198	0.074776	0.30438	0.18552	0.071061	0.22162	-2.7229	-2.8104	-3.0104	-3.2854	-2.9604	-3.2708	-3.2062	-3.025	-3.0812	-2.8563	-3.2062	-3.2021	-2.8896	-3.1083	-3.0208	-3.0292	105.275	-11.923	-80.375	214.270	-106.826	28.167	219.223	115.125	218.864	168.672	210.328	16.100	201.648	45.685	109.047	191.507	0.00012927	0.0006461	0.00019374	1183	3.2095e-06	3.2218e-06	1231.7	236.62	1.9565e-06	3.1847e-06	299.96	80.925	63.295	18.264	3.3333e-06	25.735	0.00040315	0.00050498	0.00014273	1153	5.5288e-06	5.4405e-06	1210.2	234.14	5.4293e-06	5.5438e-06	295.39	81.457	63.733	18.363	5.3243e-06	25.965	230.886	-27.983	-50.427	-112.538	2.065	-0.504	-112.165	-105.414	46.662	37.842	-105.451	-99.381	-98.329	-91.958	-7.717	-92.161	-8191	255	
11108.380	1	1	0	0	0.20943	0.095464	0.086322	0.26167	0.25571	0.11043	0.22261	0.30339	0.1289	0.22519	0.36844	0.18036	0.03312	0.16838	0.069547	0.082028	-2.9104	-2.8542	-3.0917	-3.2833	-2.7125	-3.0667	-3.1375	-3.15	-3.3104	-3.025	-3.05	-3.1542	-2.825	-3.0708	-2.9938	-2.8958	-111.909	220.362	-86.557	191.680	-114.058	-70.830	198.380	137.078	216.311	-122.873	132.305	-7.726	189.748	-69.002	54.064	70.638	0.00012952	0.00020438	6.9833e-05	1171.8	9.8053e-07	2.588e-06	1231.7	236.62	1.6096e-06	4.6198e-06	297.63	80.653	63.196	18.361	3.7097e-06	25.725	0.00041066	0.00049227	0.00013385	1146.9	5.3326e-06	5.3756e-06	1208	233.8	5.3481e-06	5.4658e-06	294.39	81.313	63.456	18.375	5.343e-06	26.017	230.868	-81.170	-6.891	-112.210	139.758	-37.758	-111.992	-105.361	-18.851	31.823	-105.108	-98.969	-99.113	-91.638	41.016	-91.677	-8191	255	
11108.476	1	1	0	0	0.044345	0.14632	0.23494	0.27596	0.081355	0.22179	0.19286	0.29316	0.11636	0.051777	0.20637	0.18396	0.13468	0.20671	0.16159	0.31974	-2.725	-2.8292	-2.9167	-3.2458	-2.8354	-2.9958	-3.0729	-2.8958	-3.2229	-3.125	-2.9729	-3.2062	-2.9938	-3.15	-3.1937	-2.9896	9.026	-114.280	163.681	145.262	-21.713	-59.378	167.824	182.608	216.588	108.882	162.149	225.890	169.218	-43.206	98.238	137.444	8.9456e-05	0.000519	8.5401e-05	1174.6	8.0117e-07	1.6682e-06	1224.7	236.42	2.7471e-06	1.2479e-06	299.06	80.544	63.498	18.075	1.649e-06	25.73	0.00041391	0.00049133	0.0001377	1144.8	5.3066e-06	5.4785e-06	1206	233.26	5.5124e-06	5.5886e-06	294.51	81.239	63.596	18.319	5.3315e-06	25.992	-122.286	-51.411	-59.189	-112.212	-0.710	65.706	-112.132	-105.578	65.508	31.666	-105.476	-98.858	-98.523	-91.435	20.823	-91.719	-8191	255	
11108.572	1	1	0	0	0.074297	0.061317	0.36695	0.19291	0.21551	0.26894	0.25645	0.21493	0.16449	0.2514	0.29224	0.12218	0.1509	0.10846	0.097397	0.15354	-2.7104	-2.9458	-2.6729	-3.2396	-2.9042	-3.1271	-3.2333	-2.9542	-3.1896	-2.9396	-2.8667	-3.1167	-2.6542	-2.8625	-3.2938	-2.9	-114.160	174.836	14.436	-106.022	116.231	-15.870	115.278	165.457	-28.484	93.124	-90.762	153.110	-94.995	-1.400	-83.760	-42.165	9.704e-05	0.00030754	0.00011451	1172.5	1.2655e-06	1.4097e-06	1233.5	236.09	1.6224e-06	3.4901e-06	298.59	80.549	62.983	18.082	6.9048e-07	25.65	0.00042503	0.00049233	0.0001393	1145.5	5.5122e-06	5.6222e-06	1207.2	233.54	5.4706e-06	5.4431e-06	294.87	81.228	63.427	18.301	5.3996e-06	25.933	-120.767	-23.915	-7.468	-112.473	-26.095	3.008	-112.177	-105.315	-85.425	62.781	-105.780	-98.713	-98.634	-91.562	119.338	-92.035	-8191	255	
11108.693	1	1	0	0	0.41914	0.20719	0.19601	0.22371	0.15949	0.19612	0.35498	0.41321	0.064238	0.18152	0.11165	0.43786	0.11192	0.2055	0.040503	0.23543	-2.8417	-2.9792	-2.7458	-3.275	-3.0792	-2.9917	-3.3542	-3.0729	-2.9875	-2.975	-3.0125	-3.2708	-2.9708	-2.9917	-3.2646	-3.0938	11.477	83.348	76.936	-107.086	-60.697	70.204	127.971	144.457	-30.577	-89.780	-47.322	198.877	-103.957	10.503	107.583	212.662	0.00010033	0.00031636	9.8549e-05	1174.7	7.5486e-07	9.4391e-07	1228.9	235.54	2.8276e-06	4.0923e-06	299.51	80.276	63.248	18.291	2.0577e-06	25.608	0.00041219	0.00049382	0.00013773	1146.3	5.4711e-06	5.5449e-06	1205.6	232.68	5.3363e-06	5.5007e-06	294.22	81.086	63.433	18.337	5.402e-06	25.91	-118.834	-25.218	-23.738	-112.569	135.301	58.799	-111.937	-105.185	-92.405	38.195	-105.222	-99.126	-98.465	-91.535	72.904	-91.909	-8191	255	
11108.765	1	1	0	0	0.21888	0.066452	0.14098	0.084442	0.045323	0.28762	0.33997	0.40507	0.27424	0.069684	0.20456	0.19119	0.12283	0.19154	0.12678	0.26704	-2.8146	-3.0604	-2.675	-3.25	-2.9583	-2.8312	-3.2604	-2.8187	-3.0542	-3.0521	-2.9604	-3.1063	-2.9896	-2.9104	-3.1583	-2.9583	233.816	92.276	46.802	106.680	-22.105	117.239	176.298	127.110	66.305	-65.780	221.816	192.092	64.585	203.270	202.588	166.034	9.2601e-05	0.00027964	0.00013801	1175.4	2.8499e-06	4.9234e-06	1223.7	235.45	1.8159e-06	2.9482e-06	297.43	81.284	63.393	18.462	1.4989e-06	25.695	0.00040594	0.00049595	0.0001424	1143.7	5.3488e-06	5.4261e-06	1206.1	233.13	5.5626e-06	5.2936e-06	294.33	81.497	63.641	18.399	5.407e-06	25.961	-115.077	-46.944	-2.662	-112.199	2.641	13.260	-112.188	-105.172	31.748	72.203	-105.510	-98.878	-98.715	-91.609	49.954	-91.810	-8191	255	
11108.883	1	1	0	0	0.21959	0.16847	0.33913	0.1852	0.24252	0.24125	0.11585	0.18765	0.11478	0.15542	0.18479	0.14898	0.38504	0.19129	0.10221	0.12656	-2.5396	-3.0667	-2.7771	-3.2562	-3.0583	-2.9167	-3.2417	-3.0083	-3.1063	-3.2208	-2.75	-3.1333	-2.9979	-2.9646	-3.3667	-2.9271	62.632	-87.769	-111.803	154.842	177.041	-78.045	209.648	191.786	7.420	42.372	213.713	90.234	113.944	182.258	-70.430	190.359	0.00010529	0.00041386	9.7864e-05	1176.4	2.2334e-06	4.0612e-06	1225.2	236.97	2.2844e-06	1.3064e-06	295.89	81.165	63.063	18.344	2.3172e-06	25.485	0.00040903	0.00048156	0.00014086	1145.5	5.5578e-06	5.56e-06	1203.9	233.19	5.349e-06	5.5128e-06	294.03	81.475	63.506	18.361	5.5347e-06	25.876	234.611	-25.898	-15.804	-112.476	8.350	63.913	-112.277	-105.356	-1.519	53.820	-105.240	-98.973	-98.337	-91.743	38.279	-91.928	-8191	255	
11108.980	1	1	0	0	0.041096	0.087891	0.051112	0.16148	0.10648	0.05455	0.28421	0.22369	0.15609	0.1864	0.12764	0.28082	0.2275	0.16757	0.058901	0.34682	-2.6729	-2.9958	-2.6729	-3.2396	-2.9917	-2.8208	-3.15	-2.9854	-2.9188	-3.0187	-2.9062	-3.0062	-2.9417	-2.8271	-3.0563	-2.9667	101.635	-34.646	27.911	-41.176	123.723	206.070	-110.320	142.397	44.161	217.589	79.683	-42.825	-90.487	43.869	87.875	113.464	0.00012045	0.00037075	9.837e-05	1174.5	2.4464e-06	5.1999e-06	1222.2	235.79	1.3184e-06	3.412e-06	297.88	80.891	62.94	18.344	1.8335e-06	25.694	0.00041256	0.00050371	0.00013759	1146.3	5.394e-06	5.7037e-06	1202.4	232.95	5.3426e-06	5.4451e-06	293.58	81.345	63.44	18.375	5.5523e-06	25.935	232.986	-33.931	-12.012	-112.336	34.286	38.739	-112.097	-105.174	-16.214	26.145	-105.362	-99.161	-98.863	-91.649	14.172	-91.952	-8191	255	
11109.076	1	1	0	0	0.070396	0.069526	0.31687	0.18674	0.08587	0.13369	0.13766	0.11089	0.099977	0.075205	0.086553	0.20541	0.22461	0.10481	0.11171	0.048012	-2.6146	-3.2417	-2.9521	-3.15	-2.8854	-2.9667	-3.3542	-3.1604	-3.0125	-3.2812	-2.9854	-2.9688	-3.1708	-2.7396	-3.2125	-2.9146	11.330	35.949	-23.653	-96.240	103.751	-55.471	111.658	-39.705	146.286	-91.173	-46.535	-46.447	-95.181	182.124	137.858	143.284	0.00011985	0.00021038	0.00011766	1171.1	2.8883e-06	5.1222e-06	1225.5	235.33	3.0467e-06	2.7765e-06	299.56	80.348	63.519	18.236	1.744e-06	25.548	0.00041655	0.00050966	0.00014466	1145.4	5.2949e-06	5.6148e-06	1204.1	233.44	5.3564e-06	5.574e-06	294.66	81.422	63.51	18.352	5.3339e-06	25.889	233.409	-5.843	3.663	-112.501	31.556	13.586	-112.065	-105.321	-45.449	77.546	-105.483	-98.773	-98.654	-91.598	33.914	-91.672	-8191	255	
11109.172	1	1	0	0	0.25785	0.14499	0.11883	0.20338	0.21647	0.35361	0.10075	0.088691	0.098169	0.27751	0.1844	0.12819	0.11877	0.1766	0.053119	0.10343	-2.3167	-3.1125	-2.7542	-3.1333	-3.125	-2.9	-3.2417	-3.1729	-2.7833	-3.2292	-3.1354	-3.0812	-3.1958	-2.8063	-3.0354	-3.0208	198.345	147.837	-32.455	14.470	-43.308	156.818	88.689	-17.608	-84.623	110.945	124.594	210.150	8.194	56.211	-45.008	-53.827	0.00010608	0.00031281	5.0716e-05	1169.7	2.9758e-06	3.2971e-06	1223	236.55	3.1046e-06	2.9501e-06	297.72	80.385	63.287	18.168	1.4268e-06	25.833	0.00040717	0.00050922	0.00014412	1144.4	5.3588e-06	5.6792e-06	1205.6	233.55	5.4984e-06	5.5216e-06	294.1	81.03	63.582	18.327	5.4516e-06	25.938	218.470	-52.648	-73.372	-112.407	22.220	4.057	-112.214	-105.216	-10.574	64.185	-105.365	-99.074	-98.389	-91.723	51.654	-91.658	-8191	255	
11109.293	1	1	0	0	0.15913	0.12983	0.18539	0.14407	0.18072	0.186	0.19186	0.17401	0.18897	0.20261	0.30685	0.13284	0.061954	0.14227	0.18416	0.18173	-2.4708	-3.2125	-2.7292	-3.1542	-3.3375	-2.8229	-3.2542	-3.2083	-2.9104	-3.0104	-3.1333	-2.8708	-3.2417	-2.8083	-2.9062	-3.0687	-39.601	-26.142	76.787	41.690	213.271	84.485	151.654	-17.989	-119.875	-23.840	193.354	-94.700	161.883	226.355	101.429	46.838	0.00011076	0.00036589	0.00020486	1169.6	1.167e-06	1.0857e-06	1231.5	236.57	1.9312e-06	1.7121e-06	297.46	80.545	63.625	18.18	1.8553e-06	25.611	0.00040972	0.00050467	0.00014248	1144	5.4632e-06	5.4468e-06	1205.5	233.48	5.499e-06	5.6285e-06	294.18	81.16	63.642	18.331	5.3794e-06	25.94	222.062	-17.286	-16.165	-112.065	71.462	146.205	-112.145	-105.173	-53.608	61.743	-105.248	-98.682	-98.827	-91.749	21.946	-92.108	-8191	255	
11109.389	1	1	0	0	0.28602	0.36095	0.18584	0.12003	0.27416	0.17022	0.36144	0.09312	0.23337	0.18676	0.12496	0.031194	0.30985	0.25817	0.21618	0.18242	-2.2896	-3.2208	-2.875	-2.9646	-3.3146	-2.9125	-3.1667	-3.2375	-2.7771	-3.0271	-3.0125	-2.8854	-3.1771	-2.9375	-3.05	-3.1833	-10.456	-9.871	180.675	174.878	3.819	-32.982	96.661	85.712	-42.700	-63.581	-59.863	127.822	-42.144	199.789	-29.644	145.005	0.00013295	0.00021735	6.8022e-05	1169	2.3775e-07	4.0073e-06	1224.4	235.49	2.4828e-06	3.6321e-06	295.91	81.231	63.251	18.1	3.9858e-06	25.79	0.00042295	0.00048858	0.00013808	1143.8	5.258e-06	5.5162e-06	1203.8	232.92	5.534e-06	5.3815e-06	293.39	81.452	63.416	18.327	5.1726e-06	25.949	231.672	-14.713	19.323	-112.334	58.093	57.058	-112.127	-105.355	-11.342	32.226	-105.617	-98.897	-98.552	-91.769	62.846	-91.726	-8191	255	
11109.460	1	1	0	0	0.32623	0.19911	0.11722	0.081783	0.11975	0.094313	0.13946	0.056539	0.29231	0.070446	0.1812	0.029713	0.045766	0.22503	0.30623	0.054374	-2.2625	-2.9667	-2.9938	-2.9813	-3.2896	-2.9625	-3.0833	-3.15	-2.7479	-3.2083	-3.0042	-2.9625	-3.2333	-2.9583	-2.9333	-3.075	-84.353	-37.939	81.716	198.702	100.628	-75.567	233.052	172.669	96.591	-8.631	164.050	83.586	-87.905	84.448	-63.271	37.663	0.00010471	0.00025231	6.3888e-05	1171.8	4.2905e-06	4.5683e-06	1227	235.07	2.1271e-06	2.8281e-06	296.46	80.645	63.135	18.137	2.8992e-06	25.556	0.00040963	0.00049091	0.00013331	1142.8	5.2235e-06	5.5079e-06	1204.4	232.78	5.6066e-06	5.5597e-06	294.06	81.207	63.552	18.313	5.3302e-06	25.898	232.467	-3.574	56.723	-112.326	12.654	14.740	-112.158	-105.066	-25.258	55.010	-105.027	-98.861	-98.312	-91.724	79.139	-91.543	-8191	255	
11109.556	1	1	0	0	0.12974	0.074761	0.038882	0.18285	0.051504	0.21457	0.12965	0.021912	0.057599	0.11048	0.22531	0.12829	0.051933	0.13796	0.12875	0.29277	-2.525	-3.15	-2.9437	-2.8625	-3.1937	-3.075	-3.1083	-3.1333	-2.8125	-3.05	-3.2083	-2.9167	-3.0708	-3.0875	-2.7938	-3.2479	158.221	236.187	78.213	198.806	-87.312	204.257	152.518	82.418	68.055	65.673	-8.266	108.773	-56.762	207.026	-74.772	-17.777	0.00014513	0.00023604	7.272e-05	1171.7	1.3131e-06	1.9943e-06	1220.7	235.56	4.1412e-07	5.5607e-06	297.56	80.776	63.345	18.169	2.8904e-06	25.741	0.00041714	0.00049666	0.00013969	1146.2	5.4532e-06	5.4515e-06	1203.2	233.32	5.445e-06	5.3557e-06	294.62	81.314	63.576	18.324	5.2129e-06	25.868	235.994	-43.483	-74.009	-112.467	-3.877	104.917	-112.043	-105.270	195.661	37.254	-105.836	-98.760	-98.606	-91.907	-10.759	-91.584	-8191	255	
11109.653	1	1	0	0	0.10506	0.13219	0.23805	0.1828	0.084058	0.11052	0.41674	0.022865	0.23325	0.25524	0.28928	0.2186	0.26422	0.017107	0.11544	0.16158	-2.4562	-3.025	-3.1437	-3.1083	-3.0354	-3.0354	-2.85	-3.325	-2.9729	-2.9917	-3.2313	-2.875	-3.1188	-3.1104	-2.9542	-3.125	219.334	-32.997	120.002	148.723	227.514	-16.194	196.928	186.807	155.639	-4.707	128.290	189.138	-104.630	168.674	109.139	135.371	0.00012878	0.00011365	9.7351e-05	1169.4	2.7486e-06	2.7321e-06	1224.9	234.51	3.8595e-06	1.2176e-06	298.12	80.556	63.109	18.41	1.2006e-06	25.689	0.00041767	0.00049599	0.00013663	1143.4	5.4781e-06	5.5739e-06	1203.5	232.91	5.4395e-06	5.4037e-06	294.54	81.245	63.416	18.389	5.4803e-06	25.893	231.457	-58.515	-33.492	-112.551	2.107	30.291	-112.194	-105.179	40.364	95.295	-105.641	-98.697	-98.372	-91.529	10.351	-91.843	-8191	255	
11109.772	1	1	0	0	0.032787	0.11043	0.092965	0.29408	0.13391	0.12912	0.17311	0.12097	0.029612	0.20831	0.3346	0.23294	0.1056	0.21536	0.028794	0.15042	-2.4792	-2.7354	-3.1104	-3.0125	-2.9167	-3.0521	-2.8604	-3.3667	-3.0187	-2.875	-3.0833	-2.9062	-3.0312	-2.7875	-2.6708	-3.0667	-83.375	22.513	111.936	215.648	136.255	-66.944	145.115	211.681	160.479	158.761	165.226	175.933	-78.890	181.386	109.947	189.615	0.00010866	0.00037171	6.1449e-05	1169.9	3.9807e-06	3.6922e-06	1224.9	235.73	2.3176e-06	3.4793e-06	298.85	80.427	62.819	18.282	9.633e-07	25.84	0.00040918	0.00048002	0.0001395	1145.1	5.309e-06	5.4032e-06	1204.8	233.04	5.4498e-06	5.6045e-06	294.7	81.269	63.524	18.342	5.5585e-06	26.007	228.304	4.208	18.672	-112.340	28.565	18.660	-112.400	-105.287	24.860	27.990	-105.419	-98.909	-98.528	-91.947	-29.983	-92.166	-8191	255	
11109.868	1	1	0	0	0.046977	0.1132	0.18769	0.1112	0.059664	0.24657	0.2491	0.26252	0.037379	0.16124	0.15945	0.17317	0.32507	0.13256	0.099321	0.14192	-2.375	-2.9417	-3.2333	-3.05	-2.9688	-3.0104	-2.9708	-3.3187	-3.0396	-2.8438	-3.2417	-2.8792	-3.025	-3.1979	-2.7458	-3.0333	-8.063	0.080	-100.672	226.150	-15.282	57.367	170.458	227.481	175.609	6.763	-9.672	209.049	227.248	231.924	-4.123	224.081	0.00012461	0.00040242	2.9995e-05	1173.8	4.1623e-06	5.2553e-06	1222.8	235.5	3.482e-06	2.8754e-06	299.02	80.407	63.264	18.141	2.9359e-06	25.834	0.00041328	0.00049083	0.00013749	1144.4	5.2035e-06	5.4551e-06	1204.9	233	5.3437e-06	5.3774e-06	294.37	81.229	63.472	18.346	5.4479e-06	26.047	228.278	-16.321	-8.893	-112.360	30.734	21.853	-112.388	-105.410	18.673	60.350	-104.945	-98.922	-98.401	-92.084	45.477	-92.342	-8191	255	
11109.964	1	1	0	0	0.20011	0.24497	0.13814	0.2616	0.18317	0.26941	0.1462	0.13946	0.18605	0.26403	0.048417	0.19556	0.22018	0.056283	0.010335	0.15876	-2.6167	-2.7792	-3.0938	-2.9583	-3.05	-3.1875	-2.9708	-3.0292	-2.9542	-2.8083	-3.2417	-2.9604	-2.9458	-3.0875	-2.7687	-3.0146	81.751	11.880	-56.048	184.109	83.617	170.617	173.557	-83.952	80.853	145.585	205.132	227.839	-118.466	-121.249	-111.806	159.346	0.00011407	0.00022551	0.00012488	1170.6	3.9301e-06	1.9659e-06	1228.8	236.92	2.9341e-06	6.1348e-06	297.71	80.706	63.625	18.282	8.2133e-07	25.632	0.00040654	0.00048856	0.00013884	1146	5.4856e-06	5.4506e-06	1204	233.28	5.4543e-06	5.7498e-06	294.13	81.325	63.747	18.354	5.4332e-06	25.948	225.092	29.301	-14.414	-112.339	15.246	18.027	-112.273	-105.399	-44.911	2.822	-105.192	-99.181	-98.791	-91.906	88.602	-91.618	-8191	255	
11110.060	1	1	0	0	0.13919	0.045777	0.20459	0.16882	0.19181	0.12453	0.28583	0.16935	0.16954	0.17778	0.21833	0.10612	0.21443	0.34119	0.10479	0.24051	-2.6042	-2.6271	-3.1333	-2.8875	-2.7042	-3.1688	-3.0083	-3.0062	-2.9021	-2.9417	-3.1271	-3.0271	-2.8646	-3.0292	-2.8833	-2.9875	95.439	75.433	72.181	142.874	-107.159	218.039	110.708	-84.808	222.829	178.586	200.648	-119.428	-20.010	174.333	-17.101	-3.370	0.00012297	0.00044134	5.6336e-05	1174.4	2.0243e-06	3.9108e-06	1225.4	236.51	4.3499e-07	3.9393e-06	298.48	81.128	63.311	18.133	3.9536e-06	25.715	0.00041259	0.00051094	0.00014124	1145.1	5.4596e-06	5.5395e-06	1202.6	233.39	5.3592e-06	5.6204e-06	294.7	81.219	63.611	18.309	5.5516e-06	25.95	224.222	-39.888	-50.278	-112.345	37.163	-20.805	-111.901	-105.292	88.441	38.551	-105.370	-99.110	-98.815	-91.683	74.907	-91.916	-8191	255	
11110.156	1	1	0	0	0.10227	0.14211	0.27782	0.12489	0.072242	0.17576	0.32728	0.25346	0.14537	0.11952	0.27255	0.013644	0.28006	0.14954	0.30894	0.15728	-2.6958	-2.8208	-3.1104	-3.1542	-2.875	-3.1896	-3.0521	-2.9083	-3.3292	-2.85	-3.1	-3.0104	-2.8875	-3.2021	-2.8312	-3.0771	61.985	-99.510	71.476	216.242	45.084	9.319	144.066	-71.623	206.938	134.041	172.399	54.253	-105.403	210.860	79.437	-85.806	7.8975e-05	0.0004148	0.00016658	1172.8	5.7426e-06	2.9144e-06	1224.3	235.87	2.8051e-06	1.8895e-06	296.17	80.763	63.487	18.243	1.4818e-06	25.61	0.00040694	0.00051139	0.00014121	1145.8	5.6032e-06	5.5669e-06	1202.8	232.96	5.4965e-06	5.767e-06	293.45	81.219	63.641	18.341	5.4447e-06	25.975	219.210	0.326	-32.017	-112.491	30.346	24.431	-112.189	-104.989	-1.773	33.646	-105.517	-99.175	-98.652	-91.911	44.809	-92.224	-8191	255	
11110.252	1	1	0	0	0.16012	0.1888	0.060843	0.43822	0.12478	0.28084	0.3441	0.14387	0.088266	0.24893	0.03532	0.36834	0.41563	0.22779	0.20788	0.039245	-2.6688	-2.75	-3.0312	-3.2438	-2.9813	-3.1479	-3.05	-3	-3.2792	-2.6833	-3.2792	-3.1688	-2.8729	-3.0667	-3.0771	-3.0167	74.861	125.232	119.835	166.213	71.265	7.549	128.379	134.492	-18.105	57.113	132.442	190.274	9.020	98.411	140.360	198.432	0.00012116	0.00041699	5.4309e-05	1172.4	2.6311e-06	2.8144e-06	1221.2	234.75	3.899e-06	3.1626e-06	298.13	80.681	63.372	18.259	6.2327e-07	25.68	0.00041112	0.00051297	0.00014322	1145.2	5.6582e-06	5.7466e-06	1201.9	232.83	5.6395e-06	5.6621e-06	294.3	81.184	63.554	18.356	5.4623e-06	25.907	232.208	-71.643	-52.231	-112.054	-4.791	20.735	-112.154	-105.258	43.286	4.996	-105.567	-98.734	-98.792	-91.763	80.452	-91.561	-8191	255	
11110.373	1	1	0	0	0.075638	0.078224	0.063094	0.27727	0.18049	0.26417	0.33831	0.10103	0.14733	0.12747	0.074088	0.10718	0.17004	0.020878	0.23817	0.095886	-2.5917	-2.8417	-2.9604	-3.025	-2.8646	-3.0875	-3.0312	-2.9708	-3.1354	-2.9479	-2.9833	-3.1917	-2.725	-3.0333	-2.9458	-2.7292	79.276	228.330	157.093	229.324	63.175	-6.139	158.150	114.381	-20.911	83.284	143.574	107.280	-35.610	154.870	42.795	88.869	0.00012186	0.00042344	0.00010013	1168.8	2.4211e-06	2.7516e-06	1225.3	235.96	3.8466e-06	2.2196e-06	297.36	80.583	63.366	18.19	7.1573e-07	25.62	0.00042787	0.00051231	0.00013967	1142.9	5.5757e-06	5.7091e-06	1204	233.18	5.6475e-06	5.6735e-06	294.17	81.136	63.563	18.401	5.4449e-06	25.967	229.646	-9.201	-1.300	-112.335	76.704	23.618	-112.189	-105.097	55.250	20.084	-105.529	-98.938	-98.635	-91.631	35.674	-91.750	-8191	255	
11110.469	1	1	0	0	0.10918	0.077972	0.19162	0.19209	0.24584	0.043	0.24333	0.059967	0.23437	0.20509	0.024158	0.14039	0.12524	0.1238	0.24487	0.32273	-2.8042	-2.725	-3.075	-3.175	-2.7375	-3.0854	-3.0875	-2.9875	-3.1042	-3.0062	-3.0042	-3.2396	-2.8354	-3.1646	-3.1229	-2.8271	-97.614	50.939	234.828	214.374	188.220	-79.488	213.470	95.499	-49.776	-45.649	151.072	-33.418	221.282	0.649	216.732	56.756	0.00010198	0.00037535	0.00013177	1169.3	1.3392e-06	9.9616e-08	1226.4	235.42	6.6504e-07	3.8576e-06	297.96	80.284	63.084	18.104	1.1631e-06	25.596	0.00042247	0.00051088	0.00014325	1143.9	5.5455e-06	5.6554e-06	1203.1	232.95	5.6382e-06	5.7011e-06	294.21	81.192	63.356	18.34	5.4421e-06	25.941	230.377	-46.178	-22.110	-112.405	20.111	84.697	-112.258	-105.205	-6.746	62.749	-105.740	-98.791	-98.678	-91.616	3.073	-91.591	-8191	255	
11110.565	1	1	0	0	0.16218	0.095119	0.048779	0.41045	0.12237	0.12128	0.08814	0.25392	0.05085	0.022969	0.19533	0.0756	0.12668	0.19788	0.17784	0.14154	-2.6583	-2.9542	-2.9	-3.2583	-3.0292	-3.1958	-3.3917	-2.7875	-2.9292	-3.3021	-3.0479	-3.3104	-2.8937	-3.05	-3.2292	-2.8792	138.089	165.397	149.218	153.437	-65.496	122.957	156.395	138.986	-24.396	-47.897	151.913	-7.201	156.717	-67.250	75.531	216.070	9.2462e-05	0.00053789	0.00010196	1170.2	1.8107e-06	3.5593e-06	1228.1	234.87	1.065e-06	4.7748e-06	298.57	80.476	63.622	18.275	1.9722e-06	25.682	0.00043128	0.00051247	0.00014579	1144	5.7468e-06	5.8275e-06	1203.7	232.58	5.674e-06	5.7856e-06	294.22	81.195	63.717	18.363	5.6284e-06	25.962	225.202	-3.007	-71.974	-112.480	11.848	27.877	-112.096	-105.286	58.589	-0.483	-105.494	-98.789	-98.690	-91.343	6.976	-91.942	-8191	255	
11110.661	1	1	0	0	0.15296	0.12181	0.12657	0.17913	0.19082	0.3039	0.30743	0.22196	0.16636	0.23154	0.29229	0.065665	0.30901	0.099486	0.022854	0.11593	-2.675	-2.8271	-2.9042	-3.2042	-2.8521	-3.1458	-3.55	-2.9375	-3.0604	-3.0771	-2.9813	-3.1729	-2.9021	-2.8396	-3.1125	-2.7812	77.509	204.860	-21.250	-80.179	90.006	-14.819	117.016	220.197	191.502	57.882	177.241	4.142	172.954	219.955	40.281	-40.137	0.00012706	0.0002402	8.4267e-05	1171.2	1.8521e-06	1.7624e-06	1226.1	235.61	2.9761e-06	3.2665e-06	297.11	80.317	63.103	18.146	3.1371e-06	25.859	0.00042838	0.0005319	0.00014555	1144.2	5.7675e-06	5.8136e-06	1204.1	233.15	5.7609e-06	5.6758e-06	293.87	81.221	63.504	18.327	5.5399e-06	26.003	-122.674	-32.692	20.598	-112.309	80.264	14.649	-112.021	-105.298	35.227	52.920	-105.236	-98.982	-99.043	-91.921	36.747	-91.891	-8191	255	
11110.756	1	1	0	0	0.06883	0.25429	0.21663	0.15952	0.13911	0.23062	0.15799	0.1785	0.053252	0.13535	0.41114	0.1833	0.11066	0.16665	0.18764	0.11677	-2.5438	-3.0938	-2.7042	-3.2083	-2.9979	-2.9458	-3.3771	-2.9625	-3.0438	-3.2042	-2.8708	-3.2625	-3.05	-3.0417	-3.1146	-3.0729	34.711	196.614	-53.824	218.982	217.762	-43.549	155.351	-66.346	-82.095	120.018	-75.105	113.084	142.539	174.156	66.965	74.483	0.00011886	0.00071444	0.00014714	1172.7	1.4995e-06	2.9925e-06	1223.5	236.03	1.7538e-06	2.7297e-06	297.37	80.603	63.298	18.309	1.4761e-06	25.568	0.00043635	0.00052166	0.00015035	1144.6	5.7398e-06	5.7183e-06	1203.2	233.29	5.621e-06	5.8726e-06	293.52	81.301	63.633	18.434	5.7669e-06	25.911	221.615	-27.774	-61.099	-112.351	-13.725	86.449	-112.038	-105.262	50.794	37.385	-105.221	-99.092	-98.294	-91.935	90.886	-91.541	-8191	255	
11110.852	1	1	0	0	0.096002	0.17993	0.09287	0.22927	0.15585	0.11231	0.097579	0.32149	0.23569	0.060175	0.14174	0.095029	0.097101	0.16455	0.034181	0.05304	-2.6063	-3.175	-2.6813	-3.1167	-3.1312	-2.9313	-3.2167	-3.0375	-3.0375	-3.0812	-3.0938	-3.0271	-2.9833	-3.0375	-3.2104	-3.0917	-0.188	43.151	57.907	187.928	191.422	116.974	99.393	134.258	119.075	53.053	76.542	175.422	150.412	-117.507	-48.052	213.010	0.00011253	0.00043016	6.9099e-05	1166.7	1.9982e-06	4.6634e-06	1228.7	235.73	1.0119e-06	4.4969e-06	295.41	80.343	63.009	18.405	1.9059e-06	25.589	0.00043826	0.00051121	0.00014795	1142.1	5.6545e-06	5.8151e-06	1201.5	232.99	5.7753e-06	5.6998e-06	293.53	81.283	63.582	18.431	5.837e-06	25.913	230.183	-31.987	-26.989	-112.431	43.626	39.599	-112.153	-105.207	158.879	15.094	-105.327	-99.137	-98.790	-91.204	29.495	-92.219	-8191	255	
11110.973	1	1	0	0	0.21489	0.17655	0.13384	0.24847	0.062683	0.12854	0.27156	0.19223	0.11768	0.033492	0.11283	0.044046	0.067534	0.07214	0.21937	0.15445	-2.5479	-3.0458	-2.775	-3.1646	-3.0583	-2.8104	-3.2958	-2.8354	-2.9604	-3.0229	-2.8	-3.1521	-3.0229	-2.9646	-3.1562	-2.8542	-75.583	-93.861	224.613	-122.007	177.476	82.280	164.542	205.553	93.462	-43.651	137.888	-112.095	114.226	155.240	-75.088	169.403	0.00012223	0.00034025	9.0111e-05	1169.9	3.2722e-06	2.6808e-06	1217.2	236.6	1.6241e-06	3.4529e-06	297.69	80.411	62.868	18.149	3.7565e-06	25.792	0.00043662	0.00051884	0.00014671	1143.5	5.7344e-06	5.8113e-06	1200.4	233.34	5.8367e-06	5.7601e-06	294.66	81.268	63.398	18.352	5.7637e-06	25.988	235.495	-13.606	-24.711	-112.506	16.522	8.773	-112.151	-105.164	-18.716	-7.449	-105.358	-98.770	-98.444	-91.788	10.742	-91.808	-8191	255	
11111.069	1	1	0	0	0.058474	0.23165	0.3023	0.36064	0.14304	0.34405	0.11994	0.22645	0.070291	0.031809	0.32896	0.24111	0.37884	0.16119	0.20042	0.11333	-2.675	-3.2313	-2.8937	-2.9417	-3.0438	-2.9	-3.2188	-3.0271	-2.7917	-3.1333	-3.0146	-3.0708	-3.3958	-2.8292	-3.2583	-2.9625	16.716	13.814	37.658	217.637	129.917	81.037	150.406	159.192	-3.025	120.570	-122.347	234.413	225.383	171.816	105.348	120.098	0.00012561	0.00024078	8.6217e-05	1163	1.9033e-06	1.2116e-06	1218.9	235.54	2.4881e-06	4.0774e-06	295.97	80.288	62.79	18.205	3.0744e-06	25.721	0.00042522	0.00052905	0.00014595	1139	5.7485e-06	5.8733e-06	1198.3	232.6	5.8713e-06	5.8098e-06	293.2	81.147	63.359	18.306	5.7474e-06	25.914	221.745	28.800	-100.755	-112.489	22.124	-76.270	-112.228	-105.303	-53.589	75.487	-105.415	-98.887	-98.476	-91.433	28.365	-91.920	-8191	255	
11111.165	1	1	0	0	0.30011	0.12272	0.082066	0.30316	0.22533	0.12371	0.35213	0.074533	0.16008	0.053908	0.23297	0.3548	0.18998	0.1112	0.13898	0.19638	-2.5292	-3.1458	-2.7687	-3.0917	-3.0375	-2.8604	-3.3958	-3.0583	-2.9208	-3.2771	-3.0646	-2.7562	-3.3312	-3.1354	-3.2646	-2.975	-20.236	-101.498	-53.315	207.597	-113.885	-45.297	229.909	59.529	161.185	224.830	118.943	123.429	191.812	-110.235	184.494	-19.929	0.00011112	0.00019304	7.3264e-05	1163.9	3.6313e-06	2.3458e-06	1222.2	235.04	3.2673e-06	4.8135e-06	297.21	80.614	63.043	18.168	2.9435e-06	25.408	0.00043128	0.00052776	0.00015274	1138.3	5.8425e-06	6.0081e-06	1197.2	232.61	5.8151e-06	6.1862e-06	293.37	81.292	63.478	18.341	5.8565e-06	25.885	233.331	6.179	1.138	-112.297	9.960	0.722	-112.405	-105.299	7.999	20.700	-105.687	-98.802	-98.608	-92.002	61.765	-91.831	-8191	255	
11111.261	1	1	0	0	0.195	0.053223	0.093031	0.053924	0.031843	0.096894	0.13615	0.50268	0.09784	0.11847	0.05648	0.17338	0.019817	0.23874	0.14646	0.09236	-2.3729	-3.1354	-2.8958	-2.975	-3.2188	-2.9375	-3.2833	-3.3	-2.9333	-3.1125	-2.9458	-2.8979	-3.1708	-2.9813	-2.9708	-3.1229	-88.370	-106.904	66.267	215.117	152.282	201.651	-69.075	183.282	-86.972	-50.540	211.342	200.231	181.814	-21.675	-5.782	15.337	0.00010736	0.00041001	0.00011776	1162.8	1.594e-06	1.4189e-06	1216.6	234.38	2.8483e-06	6.5326e-06	295.86	80.706	63.216	18.158	1.0171e-06	25.564	0.00044014	0.00054569	0.00015035	1138.8	5.6786e-06	6.1406e-06	1196.6	232.29	5.8132e-06	6.0066e-06	293.42	81.083	63.416	18.355	5.927e-06	25.858	228.671	-24.300	-74.904	-112.375	-9.266	-31.831	-112.104	-104.932	30.449	24.451	-105.427	-98.954	-98.897	-91.290	18.698	-92.263	-8191	255	
11111.333	1	1	0	0	0.042166	0.19099	0.082963	0.22044	0.24058	0.088352	0.48388	0.2051	0.082008	0.35247	0.036987	0.051172	0.30964	0.14557	0.15954	0.051351	-2.1917	-3.0687	-2.7729	-2.9833	-3.2333	-2.9854	-3.3417	-3.2583	-2.8563	-3.1958	-3.1458	-2.9875	-3.1708	-2.925	-2.9667	-3.2021	99.274	-21.905	37.311	10.277	-121.664	120.169	231.152	74.767	-101.645	-81.985	141.279	209.373	195.554	60.438	223.664	143.069	0.00012091	0.00044984	0.00015289	1164.7	4.6152e-07	2.6716e-06	1223.1	236.37	4.1651e-06	5.8893e-06	296.26	80.301	63.079	18.188	2.6409e-06	25.511	0.0004315	0.00054678	0.00015413	1138.9	5.9407e-06	6.0853e-06	1198.3	232.94	5.8541e-06	6.0676e-06	293.04	81.118	63.383	18.366	5.8578e-06	25.884	-117.471	-50.721	-49.396	-112.575	40.485	21.553	-111.819	-105.148	-10.060	4.538	-105.190	-99.336	-98.687	-91.862	83.026	-91.491	-8191	255	
11111.453	1	1	0	0	0.052542	0.10239	0.18778	0.10628	0.1642	0.035593	0.14194	0.20946	0.10834	0.20304	0.19278	0.27693	0.24973	0.083474	0.17225	0.21507	-2.5396	-3.3208	-2.9271	-2.8729	-3.1271	-2.9667	-3.1312	-3.2188	-2.9646	-3.0521	-2.9688	-2.8708	-3.1146	-3.0125	-2.925	-3.3063	102.086	214.627	37.198	223.544	48.428	17.178	-116.557	192.889	122.147	-114.951	130.395	188.258	196.934	156.709	73.369	-83.418	0.0001113	0.00048496	7.4468e-05	1164.3	2.2844e-06	3.0755e-06	1221.9	234.63	3.9429e-06	2.2312e-06	297.72	80.242	63.157	18.105	2.5578e-06	25.648	0.00044552	0.00054326	0.00014947	1138.6	5.8625e-06	6.0175e-06	1198	232.23	5.9274e-06	5.9674e-06	293.78	81.082	63.557	18.322	5.6624e-06	25.89	223.209	-15.967	-51.277	-112.505	-27.893	18.908	-112.056	-105.430	32.163	52.778	-105.100	-99.186	-98.729	-91.839	137.504	-91.738	-8191	255	
11111.549	1	1	0	0	0.054275	0.26133	0.12063	0.087664	0.053014	0.18925	0.30875	0.070281	0.32217	0.078711	0.10867	0.24879	0.22515	0.19864	0.22315	0.1324	-2.3	-3.0104	-2.8958	-2.8563	-3.1229	-3.0604	-3.0062	-3.2188	-2.8958	-2.975	-3.0625	-2.7854	-3.2042	-3.0583	-2.9646	-3.0938	85.564	-15.818	70.057	145.463	-64.406	2.277	146.778	188.670	-1.194	139.293	68.595	166.479	109.809	6.798	189.448	58.895	0.0001214	0.0004174	8.506e-05	1164.2	2.4251e-06	2.5303e-06	1216.6	235.36	2.6526e-06	3.4766e-06	297.6	80.732	63.294	18.231	3.7982e-06	25.719	0.00044707	0.00053757	0.00014665	1137.1	5.8308e-06	5.8805e-06	1194.6	232.52	5.9215e-06	5.9766e-06	294.26	81.32	63.564	18.336	5.6524e-06	25.93	-122.951	-26.898	-19.225	-112.357	80.384	47.074	-112.098	-105.309	-3.388	47.524	-105.262	-99.005	-98.924	-92.046	18.154	-91.615	-8191	255	
11111.646	1	1	0	0	0.19098	0.23368	0.25897	0.16726	0.13775	0.15008	0.33046	0.19891	0.10922	0.088306	0.12049	0.080177	0.17677	0.040384	0.17444	0.11544	-2.4688	-2.9583	-3.0958	-2.8896	-3.0667	-3.1104	-2.9646	-3.2687	-2.9896	-3.1292	-3.1375	-3.0312	-3.0542	-2.8812	-2.9333	-3.2333	-3.553	4.811	-104.716	164.218	118.955	113.912	153.824	116.312	69.338	-54.607	214.021	122.921	231.308	78.135	-58.929	-36.211	0.00012339	0.00022663	7.1801e-05	1170.3	1.3886e-06	3.5076e-06	1217.1	234.94	1.7403e-06	5.1134e-06	295.71	80.397	62.758	18.241	9.7942e-07	25.405	0.00044101	0.00053827	0.00014504	1139.3	5.6756e-06	5.8297e-06	1196.4	232.36	5.8855e-06	5.7724e-06	293.1	81.103	63.321	18.339	5.6609e-06	25.87	227.151	-14.390	-19.286	-112.436	6.985	24.834	-112.140	-105.428	-1.917	-7.151	-105.288	-98.684	-98.474	-91.918	65.924	-92.182	-8191	255	
11111.764	1	1	0	0	0.12329	0.19459	0.046299	0.25043	0.12447	0.2558	0.14717	0.20013	0.12379	0.050652	0.32202	0.17438	0.16581	0.15496	0.086683	0.078278	-2.5062	-2.9688	-3.0458	-2.9938	-3.0812	-3.1146	-3.1437	-3.1937	-2.9417	-2.8708	-3.4813	-2.8771	-3.125	-3.2687	-2.6646	-3.35	-30.665	2.991	193.906	-122.249	17.383	73.829	178.346	226.110	11.011	120.659	117.599	39.690	-63.148	187.416	95.478	39.713	0.00012318	0.00044746	4.6604e-05	1164.6	4.2857e-06	3.0919e-06	1215.9	234.15	3.8348e-06	2.6048e-06	297.01	80.292	63.071	18.077	2.4643e-06	25.687	0.00043859	0.00051543	0.0001454	1137.9	5.7666e-06	5.6514e-06	1196.3	232.04	5.8812e-06	5.8668e-06	293.31	81.067	63.347	18.276	5.6949e-06	25.923	229.968	-28.482	-9.241	-112.403	46.722	100.678	-112.283	-105.155	6.624	-13.907	-105.397	-99.165	-98.689	-91.579	4.490	-91.696	-8191	255	
11111.861	1	1	0	0	0.078198	0.15398	0.11491	0.28839	0.15446	0.10837	0.11894	0.017554	0.060183	0.27693	0.097822	0.18848	0.041601	0.21694	0.16846	0.18337	-2.5792	-2.9604	-3.0563	-2.9583	-3.0687	-3.0875	-2.9813	-3.2562	-3.0271	-3.0333	-3.275	-2.9958	-3.1542	-3.175	-2.8875	-3.15	-23.166	123.154	170.524	216.538	-16.688	170.197	223.828	-19.841	-19.633	119.833	141.186	127.964	1.399	171.982	146.846	70.694	0.00012457	0.00045688	2.8425e-05	1166.3	1.3409e-06	3.9253e-06	1219.4	235.58	9.66e-07	3.5429e-06	296.91	80.635	62.942	18.262	1.2121e-06	25.812	0.00042592	0.00051382	0.0001453	1138	5.6139e-06	5.6584e-06	1193.2	232.5	5.5405e-06	5.6424e-06	293.13	81.105	63.414	18.354	5.5932e-06	25.967	234.607	-19.433	-113.327	-112.545	60.872	22.636	-111.953	-105.539	63.000	28.406	-105.382	-99.035	-98.693	-91.389	99.703	-91.590	-8191	255	
11111.934	1	1	0	0	0.15661	0.17622	0.17646	0.069018	0.23975	0.21639	0.26896	0.18759	0.07447	0.12911	0.069282	0.068131	0.14727	0.1064	0.13751	0.11457	-2.6083	-2.6646	-2.8708	-3.0333	-3.0438	-3.1958	-3.0833	-3.0896	-3.0833	-2.9167	-2.9979	-2.9979	-3.0354	-3.2958	-2.8875	-3.1271	9.207	-52.867	223.124	-118.535	26.515	114.600	207.193	230.158	6.981	-50.876	105.882	153.143	190.400	-82.146	-40.448	222.222	0.0001045	0.00038177	8.5775e-05	1159.7	2.2239e-06	3.9159e-06	1217.8	233.59	3.2683e-07	3.4018e-06	296.9	80.721	62.839	18.065	2.507e-06	25.552	0.00041774	0.0005224	0.00014304	1136.4	5.6812e-06	5.5101e-06	1194.6	231.97	5.6725e-06	5.6561e-06	292.54	80.98	63.291	18.286	5.6745e-06	25.878	-123.247	-23.267	14.574	-112.318	26.150	27.324	-112.198	-105.317	76.244	5.583	-105.569	-98.726	-98.339	-91.602	100.834	-91.795	-8191	255	
11112.053	1	1	0	0	0.062137	0.20991	0.14042	0.247	0.21313	0.23249	0.23906	0.21846	0.18203	0.18431	0.081455	0.19151	0.41742	0.21733	0.14391	0.050551	-2.7979	-2.8875	-3	-3.35	-2.9188	-3.3833	-2.8292	-3.1292	-3.2438	-2.95	-3.2667	-3.2438	-2.9396	-3.2167	-3.0333	-3.0604	236.006	-21.180	151.810	217.367	53.863	37.943	142.598	222.526	23.590	74.470	-81.436	198.740	178.968	173.425	54.682	-47.950	0.00012155	0.00058241	7.8732e-05	1162.4	1.7577e-06	4.1413e-06	1220.5	235.21	1.9492e-06	2.3917e-06	295.47	80.119	62.493	18.234	4.3796e-06	25.646	0.00042475	0.00050755	0.00014435	1138	5.4719e-06	5.6186e-06	1194.2	232.49	5.4543e-06	5.5778e-06	292.91	80.816	63.188	18.307	5.6132e-06	25.892	218.400	-30.472	-35.027	-112.382	124.792	58.011	-111.958	-105.153	-18.902	63.399	-105.473	-98.833	-98.560	-91.668	19.202	-91.669	-8191	255	
11112.149	1	1	0	0	0.080119	0.15406	0.082551	0.17875	0.074859	0.22572	0.09697	0.16214	0.40147	0.27203	0.37579	0.042961	0.050196	0.1395	0.14875	0.11782	-2.8792	-2.9	-3.0833	-3.1937	-2.8771	-3.2104	-3.2104	-3.0667	-3.1	-2.8708	-3.1292	-3.175	-2.8896	-3.1875	-2.9083	-3	143.234	136.553	44.143	169.735	-52.315	204.187	127.185	189.585	-72.844	52.057	101.919	147.588	-16.774	198.989	-100.490	4.883	8.7678e-05	0.00014962	0.00014513	1167.8	1.0789e-06	6.9769e-06	1217.5	234.61	1.0049e-06	4.9169e-06	297.45	80.671	62.81	18.144	3.8114e-06	25.729	0.0004215	0.00050773	0.00014446	1138.8	5.6271e-06	5.6995e-06	1195.8	232.09	5.5854e-06	5.7146e-06	293.54	80.974	63.384	18.302	5.6221e-06	25.993	-121.769	-29.876	-8.150	-112.231	-114.742	39.798	-112.133	-105.310	40.306	2.606	-105.484	-98.896	-98.664	-91.687	39.158	-91.691	-8191	255	
11112.245	1	1	0	0	0.039582	0.030053	0.16479	0.2137	0.22554	0.13981	0.14736	0.12692	0.036404	0.21053	0.069642	0.067521	0.10062	0.1655	0.088611	0.10456	-2.7833	-2.8812	-3.0208	-3.1708	-2.825	-3.1437	-3.025	-3.1917	-3.1521	-2.9083	-3.1771	-3.2313	-3.0312	-3.1417	-3.0583	-3.1729	12.630	61.761	-113.376	208.928	101.571	-120.601	78.877	143.280	37.190	53.959	179.323	116.346	11.494	131.815	203.721	143.438	0.00011255	0.00042747	4.639e-05	1164.4	5.8658e-07	2.9249e-06	1213.8	234.64	4.2204e-06	2.3445e-06	296.43	80.434	63.021	18.204	2.64e-06	25.615	0.00041819	0.00050849	0.00014286	1140	5.6264e-06	5.7177e-06	1197.7	232.19	5.381e-06	5.6821e-06	293.05	81.062	63.469	18.326	5.6201e-06	25.885	226.286	-24.154	-37.260	-112.439	120.167	-16.872	-112.036	-105.190	58.262	-7.823	-105.478	-99.004	-98.678	-91.913	-13.103	-92.017	-8191	255	
11112.366	1	1	0	0	0.14245	0.11808	0.21259	0.10388	0.20029	0.27129	0.28983	0.17567	0.07863	0.034756	0.10755	0.068472	0.1863	0.035445	0.097028	0.19975	-2.7875	-2.8063	-3.0208	-3.2458	-2.7417	-3.0667	-3.0917	-2.9729	-3.1792	-3.0229	-3.2104	-3.2146	-2.9437	-3.1937	-2.9062	-3.0563	203.867	-48.957	-34.958	-61.202	97.021	27.973	173.833	220.095	152.220	-47.754	200.564	101.106	212.358	110.331	-31.223	-100.314	0.00013456	0.00014014	0.00012957	1166.9	2.3985e-06	4.2161e-06	1219.3	235.83	3.1182e-06	3.7474e-06	298.96	80.659	63.126	18.121	3.1423e-06	25.525	0.00042165	0.00052059	0.00014097	1139.8	5.7534e-06	5.6736e-06	1199.4	232.56	5.4759e-06	5.5951e-06	294.08	81.12	63.515	18.332	5.3877e-06	25.908	229.265	-53.001	-40.923	-112.275	45.514	52.772	-112.033	-105.228	-37.593	41.639	-105.151	-98.970	-98.636	-91.658	75.011	-91.599	-8191	255	
11112.462	1	1	0	0	0.2017	0.21428	0.19219	0.34206	0.058121	0.2236	0.22549	0.14523	0.04773	0.30915	0.30399	0.20738	0.23806	0.19634	0.1865	0.44127	-2.8542	-3.1042	-3.0458	-3.2687	-2.8625	-3.1437	-3.1813	-2.75	-3.3583	-3.0583	-3.0833	-3.2375	-2.8667	-3.0896	-3.1479	-2.7896	-114.613	109.857	-65.252	186.126	176.926	209.022	151.535	127.234	198.922	170.319	165.744	17.490	183.312	-42.501	-117.899	178.312	0.00011415	0.00052839	0.00010468	1169.4	1.4079e-06	3.4328e-06	1221.7	235.15	2.1871e-06	4.5764e-07	295.69	80.977	62.947	18.236	2.9564e-06	25.935	0.00042304	0.00051257	0.00014216	1139.3	5.5989e-06	5.5683e-06	1199.3	232.54	5.4621e-06	5.5859e-06	292.98	81.23	63.413	18.382	5.3207e-06	26.027	235.995	1.904	-12.617	-112.304	-6.086	23.001	-112.265	-105.256	30.833	-28.568	-105.547	-98.986	-98.596	-91.700	31.536	-91.579	-8191	255	
11112.558	1	1	0	0	0.12799	0.1592	0.28968	0.046902	0.43003	0.15192	0.42517	0.18718	0.055199	0.3104	0.097641	0.10954	0.16458	0.10856	0.093602	0.074177	-2.7271	-2.7812	-2.8583	-3.3979	-2.9208	-3.1021	-3.2646	-3.1	-3.2479	-3.1813	-2.9292	-3.225	-3.1	-3.0708	-3.0729	-2.9188	147.164	160.983	169.791	154.385	157.227	-71.144	189.043	200.422	220.127	1.644	144.097	-109.916	135.070	-84.172	174.253	130.797	0.00010598	0.0004994	9.7775e-05	1167.8	1.8342e-06	1.2219e-06	1224	234.96	1.7237e-06	3.8533e-06	295.82	79.77	63.077	18.289	1.115e-06	25.617	0.00041515	0.00048822	0.00013329	1136.5	5.499e-06	5.5908e-06	1196.6	232.11	5.6151e-06	5.5417e-06	292.57	80.877	63.411	18.318	5.2099e-06	25.882	233.919	-17.676	-40.080	-112.344	-58.646	-9.291	-112.144	-105.028	-0.546	57.625	-105.360	-98.847	-98.843	-91.399	32.025	-91.942	-8191	255	
11112.630	1	1	0	0	0.21835	0.293	0.29203	0.20302	0.29236	0.081499	0.21264	0.40958	0.11922	0.015372	0.078298	0.14372	0.1502	0.31607	0.13973	0.12222	-2.9417	-3.0646	-2.9437	-3.3792	-2.7396	-3.125	-3.3292	-2.7833	-3.2958	-3.1208	-3.0125	-3.3521	-2.9417	-2.8771	-3.2542	-2.825	13.054	-20.029	169.494	-115.086	28.135	10.802	205.971	171.854	157.010	-63.582	128.476	-53.464	139.738	189.674	104.458	137.923	0.00012164	0.00050512	5.0434e-05	1162.2	1.9033e-06	2.5758e-06	1212.9	235.86	1.1899e-06	4.8981e-06	295.83	80.608	62.713	18.252	2.4546e-06	25.593	0.00041576	0.00049674	0.00013874	1136.7	5.4841e-06	5.7091e-06	1193.5	232.75	5.4571e-06	5.4111e-06	292.94	81.053	63.194	18.326	5.3046e-06	25.861	216.841	-41.353	-38.737	-112.242	-36.353	2.082	-112.321	-105.218	1.771	35.843	-105.408	-98.886	-98.581	-91.660	-28.160	-92.243	-8191	255	
11112.749	1	1	0	0	0.20056	0.052963	0.16987	0.24911	0.22634	0.35935	0.19155	0.14033	0.11539	0.13411	0.14214	0.4287	0.10285	0.22746	0.24521	0.21579	-2.5354	-3.2833	-2.7854	-3.1771	-2.9083	-3.0458	-3.4146	-3	-2.9917	-3.0896	-3.075	-3.1833	-2.975	-2.8104	-3.1188	-2.95	66.524	19.263	57.082	-99.801	79.224	88.858	228.804	-101.832	-41.497	93.096	-2.282	172.064	132.333	234.456	62.702	76.641	9.356e-05	0.00025912	8.8381e-05	1167	4.2273e-06	4.0973e-06	1216.3	234.75	1.1878e-06	4.2396e-06	295.61	80.666	62.969	18.29	2.7007e-06	25.666	0.00040221	0.00048625	0.00013964	1137.9	5.48e-06	5.3671e-06	1195.9	232.48	5.3395e-06	5.5881e-06	293.08	81.116	63.239	18.337	5.3011e-06	25.881	224.532	-27.589	-28.123	-112.553	91.455	29.221	-112.092	-105.186	-40.846	32.488	-105.312	-99.132	-98.564	-91.558	62.018	-91.823	-8191	255	
11112.845	1	1	0	0	0.11953	0.056539	0.017588	0.13076	0.10761	0.23117	0.19507	0.13691	0.27675	0.05885	0.093859	0.11107	0.10119	0.16828	0.14233	0.1008	-2.5354	-2.9437	-2.7333	-3.1167	-3.0271	-2.8458	-3.4021	-2.9521	-2.9854	-3.1125	-3.025	-3.0833	-2.9083	-2.7833	-3.2833	-3.0375	-74.549	83.516	-4.661	163.994	41.382	103.518	132.415	195.382	-27.320	125.999	-94.969	-110.167	71.297	-114.800	-80.789	-116.458	0.00010491	0.00014619	8.2041e-05	1163.2	2.3694e-06	2.0748e-06	1214.1	234.62	2.6033e-06	3.9917e-06	297.24	80.495	62.911	18.268	2.6845e-06	25.638	0.00040609	0.00048657	0.00013966	1138	5.5048e-06	5.3756e-06	1193.9	232.35	5.5272e-06	5.4602e-06	293.29	81.033	63.619	18.373	5.5397e-06	25.915	219.465	18.185	-6.497	-112.375	-3.076	12.461	-112.121	-105.401	-14.353	51.277	-105.321	-99.104	-98.492	-91.750	56.485	-91.675	-8191	255	
11112.941	1	1	0	0	0.114	0.078235	0.32048	0.10443	0.23521	0.17269	0.16885	0.28378	0.10807	0.28549	0.12051	0.17549	0.32263	0.31297	0.14446	0.08551	-2.5083	-3.2438	-2.9208	-3.325	-2.9188	-2.8875	-3.3333	-2.9229	-3.0875	-3.1354	-2.925	-3.0812	-3.0417	-2.9458	-3.125	-2.9813	42.782	91.098	161.691	-2.011	-44.946	24.314	-94.992	151.559	-68.390	147.933	153.676	-76.580	227.387	151.782	55.242	-85.768	0.00012841	0.00045065	0.00010988	1164	3.0122e-06	1.2352e-06	1212.9	234.26	1.617e-06	4.1112e-06	296.37	80.589	62.914	18.192	1.4752e-06	25.733	0.00041734	0.00049921	0.00014237	1138.7	5.4019e-06	5.4933e-06	1194.6	232.24	5.5397e-06	5.6072e-06	293.1	81.111	63.481	18.356	5.4714e-06	25.919	-122.733	-62.105	-15.482	-112.462	63.213	38.847	-112.019	-105.180	-8.595	50.546	-105.441	-98.935	-98.693	-91.542	-2.861	-91.615	-8191	255	
11113.037	1	1	0	0	0.1392	0.13048	0.038021	0.23532	0.2792	0.097044	0.22417	0.063475	0.30969	0.11341	0.052492	0.14901	0.068886	0.051842	0.25047	0.16063	-2.475	-3.0167	-2.8271	-3.2375	-2.9479	-2.7958	-3.2208	-3.1104	-2.8833	-3.0896	-2.9604	-2.9917	-3.0458	-2.8292	-3.1562	-3.05	17.775	157.188	126.988	168.733	-113.228	165.049	109.075	150.805	203.124	107.731	-16.435	221.855	30.483	-65.854	218.835	12.247	9.0679e-05	0.00041238	9.2738e-05	1164.8	1.6406e-06	3.1131e-06	1219.4	234.36	2.6945e-06	2.8476e-06	296.54	79.899	63.439	18.182	2.9315e-06	25.686	0.00042321	0.00049617	0.00014202	1138.7	5.5161e-06	5.7105e-06	1198.3	231.87	5.4558e-06	5.6635e-06	293.37	80.907	63.415	18.312	5.515e-06	25.902	230.262	-28.058	-5.410	-112.274	189.045	49.743	-112.184	-105.485	-22.150	4.384	-105.325	-99.077	-98.544	-91.909	12.507	-91.973	-8191	255	
11113.158	1	1	0	0	0.28883	0.12951	0.10882	0.20289	0.073693	0.15033	0.31129	0.016401	0.31569	0.1197	0.097385	0.071625	0.26249	0.063715	0.099336	0.2062	-2.4958	-3.1813	-2.8583	-3.2188	-3.2375	-2.8063	-3.2875	-3.1021	-2.9292	-3.3292	-3.0417	-2.9375	-3.3604	-3.0854	-2.9	-3.0625	31.856	-9.467	164.962	190.285	167.278	115.072	209.123	-62.447	57.291	85.187	69.613	131.747	110.299	112.894	48.814	-18.587	0.00013962	0.00042574	9.9582e-05	1167.6	2.0769e-06	2.8096e-06	1214.5	234.45	1.2503e-06	7.9827e-07	296.18	80.797	63.244	18.141	3.2912e-06	25.589	0.00041519	0.00051201	0.00014273	1139.6	5.5795e-06	5.6462e-06	1196.4	232.29	5.5257e-06	5.5774e-06	293.06	81.209	63.481	18.314	5.7012e-06	25.927	227.550	-23.205	-23.826	-112.256	39.169	35.660	-112.476	-105.123	-29.693	-11.420	-105.380	-98.906	-98.786	-91.456	19.955	-91.872	-8191	255	
11113.229	1	1	0	0	0.25579	0.11427	0.18855	0.17805	0.062659	0.10335	0.11321	0.24104	0.27021	0.32242	0.090941	0.37772	0.0855	0.16124	0.32866	0.26933	-2.3542	-3.1604	-2.9188	-2.9854	-3.4479	-2.9021	-3.0646	-3.3021	-2.7667	-3.1188	-3.1125	-3.0521	-3.2104	-2.9542	-3.1396	-3.3021	80.374	38.462	19.602	121.887	178.795	-15.995	132.897	151.098	190.021	189.985	195.353	-31.562	-100.973	55.794	66.729	34.514	0.00011604	0.00030303	9.924e-05	1166.1	1.6079e-06	3.1108e-06	1219.3	235.34	2.52e-06	6.0006e-06	295.73	80.182	63.46	18.272	3.4289e-06	25.665	0.00041219	0.00050228	0.00014096	1139.8	5.4513e-06	5.5935e-06	1196.3	232.39	5.5348e-06	5.4642e-06	292.9	80.939	63.521	18.362	5.3846e-06	25.871	226.294	-29.638	-18.305	-112.254	-15.717	18.157	-112.361	-105.158	38.072	37.261	-105.395	-98.923	-98.636	-91.797	31.075	-91.672	-8191	255	
11113.326	1	1	0	0	0.25796	0.19684	0.11446	0.25568	0.23595	0.22468	0.23028	0.068421	0.078359	0.12032	0.1308	0.23483	0.16661	0.10893	0.2351	0.013344	-2.4396	-3.0542	-2.9396	-3.0708	-3.2479	-3.0521	-3.075	-3.1042	-2.95	-3.0292	-3.1292	-2.9625	-3.2438	-2.8563	-2.975	-3.2083	83.909	48.424	233.345	204.581	-16.351	192.389	142.529	142.908	-117.871	215.446	219.669	161.472	-99.302	165.359	169.573	41.202	0.00010654	0.00023945	0.00010684	1165.9	8.6469e-07	1.7293e-06	1217.9	234.71	3.9762e-06	3.053e-06	296.49	80.386	62.79	18.147	2.3115e-06	25.617	0.00040552	0.00051629	0.00014498	1137.4	5.6492e-06	5.7841e-06	1198.1	232.52	5.6613e-06	5.6933e-06	293.19	81.018	63.387	18.328	5.431e-06	25.907	228.760	31.251	-43.731	-112.537	150.041	83.767	-112.183	-105.149	4.138	35.389	-105.572	-98.763	-98.540	-91.712	71.742	-91.978	-8191	255	
11113.446	1	1	0	0	0.14046	0.068801	0.099999	0.18852	0.23821	0.11093	0.11354	0.17017	0.20606	0.13482	0.14544	0.24424	0.094525	0.27795	0.080983	0.056321	-2.3625	-3.0292	-3.0938	-3.0104	-3.1188	-2.9313	-3.0583	-3.1688	-2.7979	-3.0771	-3.0792	-2.6813	-3.2333	-2.8917	-3.0104	-3.2625	74.611	145.384	-83.009	58.415	37.626	-86.283	36.035	225.718	200.921	-45.254	-58.046	-57.213	66.890	-76.114	-17.877	56.912	0.00012418	0.00031829	0.00012431	1163.8	1.3627e-06	4.3495e-06	1222.8	234.67	2.7906e-06	5.2485e-06	296.15	80.342	62.794	18.246	1.1192e-06	25.429	0.00042058	0.0005219	0.0001424	1138.3	5.5919e-06	5.6784e-06	1198.9	232.39	5.5922e-06	5.7536e-06	292.83	80.924	63.324	18.33	5.8187e-06	25.848	221.610	-18.403	-15.358	-112.161	-115.720	29.087	-112.259	-105.455	-6.435	24.995	-105.453	-98.932	-98.686	-91.506	28.106	-91.752	-8191	255	
11113.542	1	1	0	0	0.13931	0.11154	0.20229	0.16889	0.27225	0.029417	0.088315	0.28262	0.10143	0.1929	0.17175	0.26921	0.063076	0.19659	0.22884	0.11509	-2.4604	-3.1542	-3.0396	-2.7542	-3.2604	-3.0771	-3.3479	-3.3646	-2.8521	-3.0812	-3.1188	-2.9188	-3.1792	-3.0333	-2.8812	-2.9896	4.057	2.123	6.742	57.333	168.713	40.227	91.923	202.273	67.459	-66.796	-1.930	182.461	122.123	192.414	44.537	171.096	0.00010531	0.00035641	0.00014812	1167.3	9.5568e-07	4.3021e-06	1216.7	234.38	1.3208e-06	4.0149e-06	296.12	80.784	62.989	18.316	3.442e-06	25.669	0.00044092	0.00052819	0.00014544	1139.4	5.8284e-06	5.8679e-06	1196	232.35	5.8134e-06	5.7419e-06	293.11	81.139	63.535	18.379	5.6706e-06	25.907	229.142	-19.261	-21.583	-112.333	-103.112	32.714	-112.009	-105.563	-32.980	21.651	-105.126	-99.132	-98.525	-91.637	52.265	-91.887	-8191	255	
11113.639	1	1	0	0	0.16933	0.30231	0.20523	0.2678	0.1562	0.18969	0.027464	0.1071	0.11436	0.14732	0.09278	0.16496	0.13055	0.28309	0.26929	0.29544	-2.4146	-3.0167	-3.25	-2.8333	-3.0417	-3.3042	-3.05	-3.3792	-3.0104	-2.9458	-3.2146	-2.9292	-3.1771	-2.9146	-2.8937	-3.2938	-16.699	99.679	152.096	228.220	-104.516	-42.724	125.954	109.749	28.226	139.978	-22.710	92.190	28.023	-111.531	1.934	196.030	0.00011396	0.00022232	7.9507e-05	1168.1	2.028e-06	2.8082e-06	1218.7	234.95	2.6917e-06	2.8971e-06	296.54	80.598	62.912	18.129	8.8937e-07	25.735	0.00043357	0.00052338	0.00014132	1139.8	5.73e-06	5.7349e-06	1198	232.21	5.7774e-06	5.6605e-06	293.11	81.272	63.506	18.303	5.6635e-06	25.86	217.861	-4.241	-20.799	-112.472	1.563	56.896	-112.092	-105.223	74.020	6.016	-105.059	-98.966	-98.545	-91.730	1.439	-91.691	-8191	255	
11113.735	1	1	0	0	0.43099	0.073708	0.087802	0.1287	0.0027727	0.16349	0.18327	0.05738	0.18477	0.21678	0.37295	0.086967	0.065326	0.13387	0.15049	0.22854	-2.4833	-2.9979	-2.9313	-2.8312	-3.0771	-3.1604	-3.1188	-3.3604	-2.9875	-2.9	-3.25	-2.8187	-3.1083	-3.0958	-2.7229	-3.2958	-32.888	-56.253	-11.054	-110.709	-64.109	-86.217	202.327	-84.557	-75.650	-37.808	135.187	167.079	64.676	-38.764	103.111	186.873	0.00011004	0.00043798	8.505e-05	1167	1.1896e-06	4.0097e-06	1221.5	233.52	1.0727e-06	3.9087e-06	296.99	80.476	63.179	18.073	1.825e-06	25.807	0.00044237	0.00052997	0.00014289	1139.3	5.8173e-06	5.7864e-06	1199.3	232.25	5.6577e-06	5.6856e-06	293.07	80.961	63.464	18.308	5.6993e-06	25.934	227.246	-31.248	-89.189	-112.304	89.918	26.039	-112.219	-105.339	-17.129	0.011	-105.746	-98.883	-98.634	-91.351	-3.600	-91.850	-8191	255	
11113.829	1	1	0	0	0.23821	0.1383	0.13192	0.11033	0.32962	0.18977	0.094982	0.29186	0.077454	0.074151	0.19367	0.096488	0.18675	0.05967	0.19229	0.26059	-2.7	-2.9646	-3.075	-2.8521	-2.9729	-3.2188	-3.0958	-2.9875	-3.0271	-2.6583	-3.3104	-2.8125	-3.1167	-3.1583	-2.7313	-2.9729	63.240	-121.719	-109.216	-113.017	70.770	-117.066	162.440	219.250	-48.654	182.170	79.835	68.483	88.977	130.041	-24.931	116.733	9.7472e-05	0.00040039	0.00016371	1162.8	1.4153e-06	3.2247e-06	1217.2	236.29	1.9671e-06	4.3061e-06	296.62	80.726	62.681	18.306	2.4221e-06	25.676	0.00042885	0.0005051	0.00014498	1137.8	5.6243e-06	5.6372e-06	1196.6	232.65	5.6795e-06	5.5879e-06	292.88	81.242	63.231	18.343	5.7652e-06	25.971	-115.614	-8.741	-43.267	-112.532	40.705	75.402	-112.470	-105.342	-41.235	21.785	-105.280	-99.313	-98.773	-91.925	58.856	-92.311	-8191	255	
11113.925	1	1	0	0	0.1248	0.048577	0.15451	0.24098	0.25189	0.097512	0.20622	0.018001	0.067202	0.22509	0.12528	0.15373	0.28445	0.094261	0.15971	0.02488	-2.6479	-2.9042	-3.0062	-2.8792	-3.0729	-3.2646	-3.1125	-3.3604	-3.0875	-2.8812	-3.2354	-2.9167	-3	-3.2333	-2.8521	-3.1458	-66.727	97.321	-116.035	194.732	199.185	193.667	140.970	109.161	67.239	187.623	187.990	-18.415	157.186	-119.285	-31.497	-95.823	0.00011785	0.00023386	8.5004e-05	1166.2	7.5218e-07	3.9274e-06	1216.5	236.85	1.4563e-06	4.26e-06	295.17	80.546	62.997	18.273	3.5567e-06	25.802	0.0004246	0.00051106	0.00014356	1140.3	5.6569e-06	5.7242e-06	1197.3	233.11	5.6738e-06	5.7356e-06	292.82	81.09	63.488	18.383	5.5824e-06	25.933	230.861	-6.157	-17.356	-112.192	-9.397	82.347	-112.150	-105.376	-20.516	28.422	-105.623	-98.910	-98.694	-91.618	43.980	-91.636	-8191	255	
11114.046	1	1	0	0	0.084012	0.30113	0.07778	0.2871	0.091241	0.16727	0.12331	0.30447	0.26978	0.37085	0.25765	0.15255	0.11935	0.15408	0.24401	0.29154	-2.5167	-2.8229	-3.1625	-3.0187	-2.9458	-3.2729	-3.1188	-3.0917	-3.2438	-2.725	-3.0646	-2.95	-2.7958	-3.1479	-2.7875	-2.9625	83.575	26.639	2.356	224.157	134.632	-64.822	188.148	202.368	-29.608	217.939	126.176	150.509	117.972	-78.737	125.256	189.246	0.00010123	0.00019553	0.00011294	1162.4	2.521e-06	1.7908e-06	1215.2	234.35	4.786e-07	8.24e-07	297.6	80.56	63.112	18.228	2.5935e-06	25.739	0.00041759	0.00050063	0.00014478	1137.4	5.6371e-06	5.6525e-06	1196.6	232.38	5.5346e-06	5.6776e-06	293.24	81.08	63.467	18.386	5.6776e-06	25.941	228.623	-68.695	-41.335	-112.423	-2.099	40.359	-112.071	-105.295	19.731	-26.792	-105.393	-99.329	-98.514	-91.343	-34.415	-91.773	-8191	255	
11114.142	1	1	0	0	0.10576	0.086616	0.16711	0.20373	0.069919	0.17255	0.17447	0.30713	0.24523	0.15176	0.078339	0.058217	0.26997	0.20262	0.059119	0.076296	-2.7292	-2.9771	-2.9813	-3.1729	-3.0125	-3.1167	-2.9583	-3.0646	-3.0667	-3.0021	-3.2125	-3.075	-2.9979	-3.2854	-2.9437	-3.0875	231.285	177.362	155.322	-90.599	177.279	162.817	169.868	200.659	-114.167	-33.361	-80.549	170.909	191.967	164.157	109.954	79.484	0.00010819	0.00024726	0.00014369	1164.4	5.1587e-06	3.021e-06	1217.5	235.64	1.7534e-06	3.6952e-06	295.51	80.587	63.164	18.162	2.4622e-07	25.783	0.00041468	0.00051504	0.00014276	1138.9	5.5382e-06	5.5887e-06	1195.5	232.68	5.4778e-06	5.7029e-06	293.05	81.209	63.481	18.302	5.6633e-06	25.896	226.099	-25.465	-39.007	-112.375	67.568	5.645	-112.032	-105.316	17.185	54.455	-105.356	-99.118	-99.325	-91.805	5.136	-91.578	-8191	255	
11114.238	1	1	0	0	0.16646	0.05096	0.32607	0.27113	0.026872	0.09233	0.10133	0.11221	0.30749	0.12878	0.15674	0.1707	0.18251	0.23288	0.23856	0.16497	-2.6958	-2.9313	-3.0938	-3.2021	-2.9167	-3.0479	-3.1688	-2.9938	-3.1917	-2.9521	-3.2104	-2.8583	-2.7396	-3.1562	-2.8187	-2.7896	-80.544	-65.618	30.397	84.410	25.818	-91.019	148.960	-69.700	-0.473	127.585	123.001	58.878	140.848	189.332	121.222	-6.311	0.00012578	0.00048922	0.00011026	1163.4	3.0301e-06	4.5074e-06	1221.6	234.82	1.9721e-06	2.272e-06	296.55	79.722	62.911	18.316	1.5217e-06	25.801	0.00041194	0.00052292	0.00014651	1138.8	5.5329e-06	5.757e-06	1195.3	232.11	5.4693e-06	5.774e-06	293.35	80.913	63.328	18.38	5.5674e-06	25.916	230.504	-55.542	-22.592	-112.265	20.342	57.476	-112.481	-105.266	-78.362	28.508	-105.276	-99.087	-98.526	-91.523	59.370	-91.976	-8191	255	
11114.334	1	1	0	0	0.063577	0.13108	0.19767	0.25611	0.01563	0.16344	0.033436	0.1481	0.18033	0.18028	0.16707	0.11837	0.11001	0.36654	0.13971	0.25998	-2.8771	-2.7625	-2.9583	-3.0687	-2.7229	-3.1417	-3.0687	-2.8937	-3.2458	-2.8688	-3.0854	-3.5062	-2.9271	-3.3396	-3.0625	-2.8417	-66.379	181.038	-60.093	173.854	116.639	-84.628	24.521	158.882	217.286	-15.967	194.640	205.168	-109.233	215.117	110.817	170.537	0.00016173	0.00034627	0.00010081	1161.5	4.8986e-06	4.562e-06	1218.1	235.28	1.5425e-06	4.2142e-06	297.36	80.227	63.302	18.183	2.4519e-06	25.561	0.00042097	0.00049971	0.00014332	1137.7	5.6456e-06	5.7435e-06	1197.1	232.55	5.6251e-06	5.774e-06	293.53	81.109	63.368	18.309	5.5835e-06	25.928	228.445	-10.974	-21.792	-112.375	13.871	0.097	-112.094	-105.272	4.780	-21.465	-105.445	-98.999	-98.877	-91.714	74.746	-92.142	-8191	255	
11114.455	1	1	0	0	0.094426	0.1796	0.043594	0.046803	0.15231	0.069328	0.10055	0.25199	0.24048	0.24242	0.048008	0.21802	0.16434	0.36249	0.12871	0.17934	-2.8	-2.95	-2.8854	-3.1896	-3.0146	-3.0208	-3.3417	-3.0604	-2.9604	-2.8792	-2.9542	-3.3854	-2.7021	-3.0542	-3.0146	-2.8083	12.064	200.302	-95.114	198.644	-62.739	229.477	229.844	168.350	174.233	-101.537	-0.410	108.415	100.396	-19.238	224.438	-102.267	0.00010597	0.00026309	9.2824e-05	1166.1	1.7849e-06	2.9632e-06	1212.9	235.7	2.3021e-06	2.2078e-06	296.3	80.845	63.05	18.268	2.3685e-06	25.744	0.00042267	0.00051669	0.000147	1138.8	5.7596e-06	5.7563e-06	1195.3	232.64	5.7033e-06	5.6816e-06	293.03	81.183	63.405	18.387	5.4978e-06	25.956	-122.822	22.972	20.997	-112.366	16.331	-34.796	-112.241	-105.091	113.796	70.947	-105.256	-98.987	-98.542	-91.966	65.597	-91.654	-8191	255	
11114.527	1	1	0	0	0.1775	0.078588	0.25976	0.14553	0.1078	0.072623	0.23624	0.20963	0.12526	0.16892	0.090288	0.23018	0.27135	0.10927	0.25614	0.051113	-2.6896	-2.9833	-2.8458	-3.1021	-2.9646	-3.0979	-3.1333	-2.8354	-3.1792	-2.9208	-2.8667	-3.3479	-2.925	-3.0417	-3.2417	-2.9583	145.135	193.425	-64.833	154.465	209.430	-49.057	176.291	83.752	-60.473	63.074	185.160	119.665	211.663	-26.529	-41.969	-3.144	0.00012943	0.00021907	3.5258e-05	1161.8	4.2579e-06	2.3988e-06	1220.2	234.95	4.458e-06	7.0269e-07	297.91	80.457	63.157	18.124	2.1629e-06	25.664	0.00043281	0.00051571	0.00014599	1137.7	5.6952e-06	5.8302e-06	1197.5	232.72	5.6799e-06	5.8531e-06	294.14	81.177	63.567	18.328	5.5475e-06	25.93	228.068	-68.650	-59.230	-112.411	64.814	64.278	-112.161	-105.255	-7.829	-16.598	-105.004	-98.742	-98.822	-91.748	30.473	-91.786	-8191	255	
11114.623	1	1	0	0	0.20026	0.14429	0.18332	0.3813	0.22292	0.23502	0.22883	0.43279	0.16627	0.061649	0.19743	0.15778	0.086378	0.34515	0.18423	0.074431	-2.7333	-2.8479	-2.7833	-3.4396	-2.7833	-2.9562	-3.3667	-2.8229	-2.9979	-3.0938	-2.8917	-3.0375	-3.0438	-3.0042	-3.3333	-2.7042	56.578	88.576	79.997	163.302	198.737	158.615	138.886	182.721	-94.567	180.785	220.341	194.995	-2.120	195.818	93.909	-51.342	0.00011082	0.00043041	5.9271e-05	1161	1.4992e-06	1.7349e-06	1216.4	235.06	1.6149e-06	2.1436e-06	299.06	79.705	62.62	18.259	2.8536e-06	25.829	0.00043024	0.00052019	0.00014251	1138.9	5.7719e-06	5.856e-06	1194.9	232.83	5.8325e-06	5.878e-06	294.5	80.762	63.435	18.353	5.6101e-06	25.94	233.514	-28.146	-23.818	-112.521	40.497	101.193	-112.151	-105.178	65.731	44.563	-105.406	-99.108	-99.063	-91.676	-7.438	-91.915	-8191	255	
11114.719	1	1	0	0	0.25894	0.12806	0.071118	0.28563	0.18007	0.099856	0.22804	0.20857	0.052941	0.31669	0.12602	0.20888	0.23822	0.089312	0.20404	0.080204	-2.6667	-3.0917	-2.8729	-3.0667	-2.9729	-2.9167	-3.3396	-2.8812	-3.2	-3.0854	-2.775	-3.1042	-2.9062	-2.8812	-3.1479	-2.8458	179.385	4.318	-47.858	-112.609	201.096	208.041	162.256	127.298	36.236	216.477	131.708	122.352	220.801	62.240	8.838	121.318	0.00011694	0.0003658	4.6616e-05	1168.2	3.481e-06	2.7961e-06	1215.6	235.91	4.1787e-07	4.0181e-06	296.88	80.425	63.169	18.156	2.5081e-06	25.767	0.00042983	0.00051366	0.00014234	1138.3	5.8791e-06	5.8592e-06	1196.5	232.91	5.7721e-06	5.8278e-06	294.01	81.141	63.534	18.342	5.6004e-06	25.975	229.153	0.947	-60.063	-112.375	30.091	13.266	-112.176	-105.188	-19.852	21.480	-105.394	-99.149	-98.554	-91.673	79.299	-92.113	-8191	255	
11114.838	1	1	0	0	0.1819	0.35919	0.07559	0.16519	0.10475	0.2424	0.33253	0.332	0.25652	0.14733	0.17044	0.098565	0.16828	0.20171	0.17818	0.067498	-2.7292	-3.0062	-2.7792	-3.125	-2.8917	-2.775	-3.3583	-2.8958	-2.8979	-3.175	-3.0104	-3.15	-3.0521	-2.7354	-3.1917	-2.9896	4.300	-109.428	113.515	-94.852	-39.787	-86.026	189.216	145.209	193.798	-89.681	197.030	196.659	111.629	-26.458	228.745	177.375	0.00011784	0.00042719	0.00013292	1166.4	2.4968e-06	2.1446e-06	1219.7	235	1.0445e-06	1.0968e-06	296.69	80.766	63.256	18.164	2.7691e-06	25.64	0.00041884	0.00052368	0.00014092	1139.2	5.8007e-06	5.6341e-06	1197.2	232.87	5.6958e-06	5.7083e-06	293.31	81.15	63.586	18.314	5.7283e-06	25.945	228.997	-12.527	-35.358	-112.358	49.476	69.097	-112.093	-105.277	32.320	9.479	-105.322	-99.179	-98.662	-91.804	-6.952	-91.925	-8191	255	
11114.934	1	1	0	0	0.17493	0.10458	0.088148	0.37906	0.072082	0.081017	0.52213	0.38535	0.063551	0.17904	0.069087	0.14185	0.091526	0.22637	0.067618	0.09667	-2.4792	-3.0896	-2.8875	-3.1333	-3.0521	-2.7417	-3.2917	-2.9604	-2.8625	-3.1667	-2.8958	-3.1333	-2.8979	-2.9542	-2.9958	-3.0708	-118.479	222.700	1.891	-119.550	142.229	-121.095	194.024	212.734	141.653	-87.129	-75.654	110.163	-70.181	-50.051	107.470	-9.572	0.00010348	0.00013936	8.0486e-05	1168.3	1.9974e-06	1.3555e-06	1217.4	234.54	2.8487e-06	2.22e-06	296.24	80.34	63.084	18.298	1.3908e-06	25.637	0.00043312	0.00051022	0.00014642	1140.9	5.6158e-06	5.7763e-06	1198	233.04	5.699e-06	5.527e-06	292.99	81.039	63.384	18.351	5.6347e-06	25.911	219.906	-79.670	-27.589	-112.332	50.749	12.307	-112.312	-105.421	-1.650	83.240	-105.585	-98.752	-98.510	-91.797	82.802	-91.938	-8191	255	
11115.030	1	1	0	0	0.1299	0.1698	0.58309	0.11963	0.07328	0.062939	0.051115	0.071102	0.29033	0.41678	0.26547	0.20061	0.06597	0.20659	0.23277	0.24733	-2.4417	-3.1667	-2.9208	-3.1562	-3.2313	-2.8979	-3.375	-3.0542	-2.85	-3.1813	-2.9688	-3.1042	-3.0896	-2.8312	-3.0687	-3.1646	-46.971	16.869	-32.445	-53.173	-92.339	83.794	139.878	8.947	-65.699	32.151	196.052	-76.034	145.315	222.894	-36.808	180.138	0.00011571	0.00019731	0.00013193	1163.1	2.4253e-06	1.5799e-07	1217.6	233.48	1.9385e-06	6.2538e-06	297.13	80.751	63.025	18.209	2.0059e-06	25.569	0.00043198	0.00050481	0.0001468	1139.4	5.4839e-06	5.717e-06	1196.1	231.97	5.6043e-06	5.5769e-06	293.17	81.088	63.535	18.331	5.5859e-06	25.912	213.694	-76.041	-33.197	-112.460	-61.011	77.956	-112.153	-105.132	-57.747	85.923	-105.184	-98.874	-98.816	-91.796	49.657	-91.612	-8191	255	
11115.126	1	1	0	0	0.10159	0.21265	0.10131	0.040202	0.081364	0.051952	0.088718	0.21252	0.073428	0.25793	0.35121	0.13911	0.23728	0.12045	0.1276	0.15106	-2.5	-3.1521	-3.0333	-3.2271	-3.1125	-2.9104	-3.4146	-2.9292	-3.0062	-3.1458	-2.8792	-2.9646	-3.05	-2.925	-3.1521	-3.1083	10.592	-108.768	136.100	-93.233	-45.609	157.455	127.624	180.342	-104.051	234.328	131.336	-66.131	-102.245	-111.403	14.494	215.846	0.0001205	0.00020146	5.8688e-05	1164	3.8252e-06	2.3631e-06	1220.8	235.49	1.4719e-06	3.468e-06	295.95	79.928	62.673	18.168	3.0981e-06	25.689	0.00042413	0.00051064	0.00014646	1139.5	5.6571e-06	5.7257e-06	1199.1	232.99	5.646e-06	5.8289e-06	293.54	80.899	63.339	18.371	5.5828e-06	25.904	232.677	-8.860	-1.348	-112.602	21.566	-115.646	-111.969	-105.099	-34.888	5.978	-105.352	-98.947	-98.737	-91.727	79.836	-92.326	-8191	255	
11115.222	1	1	0	0	0.19609	0.065065	0.16069	0.12788	0.088619	0.10996	0.21534	0.17527	0.082081	0.24353	0.21832	0.085877	0.37029	0.03017	0.11973	0.092859	-2.4479	-3.15	-2.975	-3.0104	-3.0833	-3.0729	-3.1667	-3.1875	-2.8292	-3.3021	-3.2521	-3.0812	-3.1479	-2.9708	-3.0104	-3.1417	215.654	33.464	114.975	-107.785	69.909	-98.648	208.823	235.861	-85.911	-53.182	77.756	66.263	-71.782	56.271	94.562	146.762	0.00011983	0.00038532	4.9346e-05	1165.4	1.1684e-06	2.0913e-06	1213.8	234.73	7.5891e-07	1.3456e-06	298.62	80.877	63.361	18.229	2.0696e-06	25.739	0.00042778	0.0005139	0.00014325	1139.6	5.4939e-06	5.6435e-06	1194.7	232.91	5.5657e-06	5.8562e-06	293.85	81.265	63.527	18.386	5.5592e-06	25.943	222.777	-59.148	-13.429	-112.308	-28.143	-42.912	-112.247	-105.233	2.733	29.726	-105.195	-98.591	-98.719	-91.703	116.327	-92.079	-8191	255	
11115.319	1	1	0	0	0.16789	0.25683	0.13858	0.097343	0.09515	0.18757	0.39253	0.29132	0.22471	0.24406	0.059357	0.1679	0.1448	0.3013	0.050364	0.022263	-2.3708	-3.0604	-2.8667	-2.9917	-3.2167	-2.8583	-3.15	-3.25	-2.9167	-3.2521	-3.0729	-2.8312	-3.2625	-2.9354	-3.0083	-3.2833	-54.382	92.320	-103.247	109.403	112.805	-31.481	190.140	193.509	99.984	39.260	-102.940	-28.203	96.087	221.614	-85.580	-37.525	0.00011732	0.00038417	0.00014895	1169.9	2.7033e-07	4.2851e-06	1221.2	234.66	2.4499e-06	4.3013e-06	297.69	80.466	62.996	18.25	1.2319e-06	25.708	0.00042008	0.00051066	0.00014666	1140.3	5.5487e-06	5.6238e-06	1197.1	232.57	5.5274e-06	5.7175e-06	293.55	81.068	63.381	18.341	5.5373e-06	25.958	-113.139	19.979	-111.088	-112.381	-57.487	18.879	-112.151	-105.522	-12.819	85.933	-105.401	-99.064	-98.399	-91.748	-26.649	-91.806	-8191	255	
11115.415	1	1	0	0	0.17951	0.03416	0.1981	0.53977	0.23569	0.19096	0.19902	0.2392	0.2529	0.14938	0.19032	0.16071	0.13816	0.18814	0.061228	0.17049	-2.4	-3.1521	-2.9938	-3.1167	-3.2125	-3.0917	-3.2083	-3.175	-2.7104	-3.025	-3.1125	-3.0479	-3.2521	-2.9792	-3.0542	-3.1208	80.349	-109.355	95.720	203.221	-66.203	-102.529	202.835	109.815	139.591	17.398	189.885	-88.452	231.159	-94.849	-73.965	229.672	0.00012341	0.00050784	0.00017948	1168.9	2.0083e-06	2.0562e-06	1212.6	234	2.4521e-06	1.6474e-06	297.74	79.98	63.174	18.156	2.5949e-06	25.763	0.00042277	0.00051299	0.00014583	1140.5	5.6626e-06	5.5878e-06	1196.5	232.31	5.6282e-06	5.6258e-06	294.36	80.853	63.496	18.298	5.3773e-06	25.903	-117.774	-37.940	-39.423	-112.412	8.823	60.451	-111.851	-105.327	-45.003	34.631	-105.231	-99.068	-98.657	-91.859	44.974	-91.764	-8191	255	
11115.535	1	1	0	0	0.23979	0.13935	0.10323	0.29934	0.16019	0.17808	0.19624	0.27769	0.17679	0.061858	0.11624	0.15935	0.15204	0.057978	0.18779	0.041915	-2.375	-2.9917	-2.9938	-2.9646	-3.1375	-3.0563	-2.9896	-3.2125	-2.9625	-3.0583	-3.2188	-3.0146	-3.2625	-3.2062	-2.7479	-3.2521	135.612	99.923	162.861	199.981	-55.366	-0.715	117.653	164.120	-23.387	-95.559	230.054	216.070	190.746	-82.246	-77.000	-78.673	0.0001021	0.00032589	4.5112e-05	1162.4	6.7216e-07	3.0435e-06	1218.6	234.32	2.8784e-06	4.1318e-06	296.21	80.619	62.823	18.184	2.7385e-06	25.512	0.0004131	0.00051997	0.00014041	1136.1	5.5438e-06	5.5054e-06	1197	232.21	5.4901e-06	5.6173e-06	292.97	81.015	63.418	18.347	5.3538e-06	25.831	234.423	8.018	-56.194	-112.292	-49.056	62.716	-112.216	-105.394	83.607	81.179	-105.288	-99.143	-98.594	-92.036	53.990	-92.072	-8191	255	
11115.630	1	1	0	0	0.095573	0.26115	0.23217	0.13024	0.18158	0.19355	0.23113	0.30551	0.1263	0.036201	0.23289	0.063698	0.2786	0.20065	0.31235	0.26859	-2.5	-2.7938	-3.1167	-2.9042	-2.8708	-3.0979	-3.0625	-3.1917	-2.8625	-2.9208	-3.3229	-2.8771	-2.9917	-3.0875	-2.7417	-3.0833	115.845	75.317	4.362	206.144	211.823	184.436	187.933	129.974	-96.277	136.997	98.353	66.436	203.524	89.105	175.980	50.207	0.00010441	0.00035751	0.00011486	1168.6	2.0108e-06	2.5246e-06	1216.3	235.27	1.6965e-06	2.722e-06	296.49	80.519	62.802	18.299	4.0469e-06	25.768	0.00040479	0.00049597	0.00014122	1139.3	5.5876e-06	5.4315e-06	1194.5	232.49	5.4443e-06	5.4525e-06	293.04	81.064	63.276	18.364	5.3727e-06	25.929	229.612	-45.680	-27.753	-112.196	-52.511	24.627	-112.271	-105.218	-3.695	46.215	-105.600	-98.857	-98.819	-91.645	19.814	-91.943	-8191	255	
11115.728	1	1	0	0	0.2324	0.2285	0.24136	0.28287	0.2768	0.11576	0.26437	0.19215	0.12304	0.17809	0.32603	0.29873	0.17127	0.15241	0.021182	0.22372	-2.4479	-2.8792	-3.1021	-2.9021	-3.1896	-3.0646	-2.9021	-3.2854	-2.9729	-2.8333	-3.1667	-2.8708	-3.1	-2.9542	-2.8812	-3.2021	79.393	94.544	72.325	124.169	38.739	178.183	166.833	100.633	-18.142	56.117	157.009	167.797	-52.780	-105.507	187.956	212.401	0.00012678	0.00042361	0.00013457	1164.7	1.0687e-06	2.2287e-06	1218.6	235.39	2.6424e-06	4.007e-06	295.86	80.458	63.096	18.076	2.435e-06	25.752	0.00040875	0.00049334	0.00013694	1137.3	5.5659e-06	5.4926e-06	1193.7	232.34	5.3761e-06	5.4454e-06	292.89	81.053	63.358	18.244	5.4391e-06	25.972	228.522	-18.454	-36.289	-112.334	-16.485	20.517	-112.118	-105.077	-4.931	39.014	-105.535	-99.477	-98.367	-91.672	-4.189	-92.301	-8191	255	
11115.824	1	1	0	0	0.15627	0.16611	0.13721	0.096634	0.16426	0.21824	0.2377	0.27197	0.13359	0.24318	0.22948	0.13729	0.074393	0.22503	0.28481	0.044715	-2.4062	-2.8271	-3.0979	-2.9938	-3.0208	-3.1229	-3.0667	-3.1417	-2.9417	-2.6792	-3.1437	-2.8375	-2.7896	-3.2417	-2.8187	-3.1708	233.275	116.929	227.810	203.079	139.938	-27.854	172.185	197.472	-51.419	91.449	-120.952	204.808	-84.515	167.561	-53.000	77.918	0.00012082	0.00041844	3.7705e-05	1160.1	2.6891e-06	1.8754e-06	1217.8	235.73	4.9708e-06	6.3867e-07	296.97	80.438	63.244	18.214	6.3928e-07	25.74	0.00040758	0.00049744	0.00013605	1136.9	5.4741e-06	5.3738e-06	1194.9	232.37	5.4335e-06	5.3954e-06	292.81	80.942	63.458	18.326	5.3191e-06	25.921	-121.776	-45.668	-60.272	-112.439	68.029	73.884	-112.040	-105.005	-4.593	-107.143	-105.423	-99.053	-98.735	-91.966	39.340	-92.268	-8191	255	
11115.918	1	1	0	0	0.098246	0.050277	0.087143	0.29774	0.074126	0.091748	0.31414	0.12618	0.064804	0.12007	0.1914	0.17979	0.12043	0.17957	0.12171	0.27516	-2.5146	-2.7792	-3.2083	-3.0167	-3.1167	-3.0792	-3.0521	-3.0271	-2.8125	-2.8396	-3.2979	-2.9083	-2.9458	-3.0729	-2.975	-3.0979	-41.676	84.665	80.362	184.670	10.043	-93.933	173.455	-93.026	26.942	35.139	202.551	-65.672	6.884	-56.733	146.781	208.198	8.2224e-05	0.00033855	0.00010261	1167.2	2.0512e-06	2.8577e-06	1214.8	235.51	2.8459e-06	1.0308e-06	296.33	80.049	63.43	18.132	1.7906e-06	25.944	0.00041273	0.00049473	0.00014067	1137.2	5.4457e-06	5.2909e-06	1193.6	232.25	5.4225e-06	5.4299e-06	293.23	80.787	63.437	18.337	5.2847e-06	25.955	-122.265	-24.231	-47.318	-112.245	38.043	48.442	-112.229	-105.019	-0.536	39.442	-104.924	-98.819	-98.345	-91.872	-37.616	-91.740	-8191	255	
#DATA ENDS
