BOXY.EXE: ISS Imagent and Oximeter Data Acquisition Program Version 0.80
Ascii Record File

#ACQ INFORMATION
2  Detector Channels 
16  External MUX Channels 
1  Auxiliary Channels 
5000  Waveform (CCF) Frequency (Hz)
1  Waveforms Skipped 
30  Waveforms Averaged 
1  Cycles Averaged 
16  Acquisitions per Waveform 
10.0806  Updata Rate (Hz) 

#FILE INFORMATION
TRUE -- External MUX Channel results are PARSED.
FALSE -- AC DC and Phase are NOT grouped.
TRUE -- Companion Program Settings File CREATED.
FALSE -- AC data not excluded
FALSE -- DC data not excluded
FALSE -- Phase data not excluded
FALSE -- Auxillary Chn. data not excluded
Tab delimiters

#CALIBRATION STATE
TRUE -- Waveform Calibration Values APPLIED.


#AUX CALIBRATION VALUES
Val Type	aux-1	

Term	1.0000e+00	
Factor	0.0000e+00	


#WF CALIBRATION VALUES
A = Detector Channel
Val Type	A-AC1	A-AC2	A-AC3	A-AC4	A-AC5	A-AC6	A-AC7	A-AC8	A-AC9	A-AC10	A-AC11	A-AC12	A-AC13	A-AC14	A-AC15	A-AC16	A-DC1	A-DC2	A-DC3	A-DC4	A-DC5	A-DC6	A-DC7	A-DC8	A-DC9	A-DC10	A-DC11	A-DC12	A-DC13	A-DC14	A-DC15	A-DC16	A-Ph1	A-Ph2	A-Ph3	A-Ph4	A-Ph5	A-Ph6	A-Ph7	A-Ph8	A-Ph9	A-Ph10	A-Ph11	A-Ph12	A-Ph13	A-Ph14	A-Ph15	A-Ph16	

Term	0.00000e+00	0.00000e+00	0.00000e+00	0.00000e+00	0.00000e+00	0.00000e+00	0.00000e+00	0.00000e+00	0.00000e+00	0.00000e+00	0.00000e+00	0.00000e+00	0.00000e+00	0.00000e+00	0.00000e+00	0.00000e+00	0.00000e+00	0.00000e+00	0.00000e+00	0.00000e+00	0.00000e+00	0.00000e+00	0.00000e+00	0.00000e+00	0.00000e+00	0.00000e+00	0.00000e+00	0.00000e+00	0.00000e+00	0.00000e+00	0.00000e+00	0.00000e+00	0.00000e+00	0.00000e+00	0.00000e+00	0.00000e+00	0.00000e+00	0.00000e+00	0.00000e+00	0.00000e+00	0.00000e+00	0.00000e+00	0.00000e+00	0.00000e+00	0.00000e+00	0.00000e+00	0.00000e+00	0.00000e+00	
Factor	1.00000e+00	1.00000e+00	1.00000e+00	1.00000e+00	1.00000e+00	1.00000e+00	1.00000e+00	1.00000e+00	1.00000e+00	1.00000e+00	1.00000e+00	1.00000e+00	1.00000e+00	1.00000e+00	1.00000e+00	1.00000e+00	1.00000e+00	1.00000e+00	1.00000e+00	1.00000e+00	1.00000e+00	1.00000e+00	1.00000e+00	1.00000e+00	1.00000e+00	1.00000e+00	1.00000e+00	1.00000e+00	1.00000e+00	1.00000e+00	1.00000e+00	1.00000e+00	X	X	X	X	X	X	X	X	X	X	X	X	X	X	X	X	

B = Detector Channel
Val Type	B-AC1	B-AC2	B-AC3	B-AC4	B-AC5	B-AC6	B-AC7	B-AC8	B-AC9	B-AC10	B-AC11	B-AC12	B-AC13	B-AC14	B-AC15	B-AC16	B-DC1	B-DC2	B-DC3	B-DC4	B-DC5	B-DC6	B-DC7	B-DC8	B-DC9	B-DC10	B-DC11	B-DC12	B-DC13	B-DC14	B-DC15	B-DC16	B-Ph1	B-Ph2	B-Ph3	B-Ph4	B-Ph5	B-Ph6	B-Ph7	B-Ph8	B-Ph9	B-Ph10	B-Ph11	B-Ph12	B-Ph13	B-Ph14	B-Ph15	B-Ph16	

Term	0.00000e+00	0.00000e+00	0.00000e+00	0.00000e+00	0.00000e+00	0.00000e+00	0.00000e+00	0.00000e+00	0.00000e+00	0.00000e+00	0.00000e+00	0.00000e+00	0.00000e+00	0.00000e+00	0.00000e+00	0.00000e+00	0.00000e+00	0.00000e+00	0.00000e+00	0.00000e+00	0.00000e+00	0.00000e+00	0.00000e+00	0.00000e+00	0.00000e+00	0.00000e+00	0.00000e+00	0.00000e+00	0.00000e+00	0.00000e+00	0.00000e+00	0.00000e+00	-1.27073e+02	-1.37189e+02	-1.14034e+02	-1.82642e+02	-6.77074e+01	-7.36674e+01	-1.55275e+02	-1.62015e+02	-8.16783e+01	-5.49491e+01	-1.72245e+02	-1.69834e+02	-1.79515e+02	-1.77360e+02	-7.51326e+01	-1.49195e+02	
Factor	1.75894e-05	1.35949e-04	4.03037e-05	1.76583e-01	1.21743e-06	1.73254e-06	1.64385e-01	4.98919e-02	1.01420e-06	1.41505e-06	9.45280e-02	2.88164e-02	2.76675e-02	9.24122e-03	1.14402e-06	1.32298e-02	1.94680e-06	2.10307e-06	5.83844e-07	8.62186e-02	2.28121e-08	2.29967e-08	7.60499e-02	2.45492e-02	2.27457e-08	2.30251e-08	4.47580e-02	1.37852e-02	1.36628e-02	4.53901e-03	2.28964e-08	6.30002e-03	X	X	X	X	X	X	X	X	X	X	X	X	X	X	X	X	



#DISTANCE SETTINGS
A = Detector Channel
A-1	A-2	A-3	A-4	A-5	A-6	A-7	A-8	A-9	A-10	A-11	A-12	A-13	A-14	A-15	A-16	

2.5000e+00	3.0000e+00	2.5000e+00	3.0000e+00	2.0000e+00	3.0000e+00	1.5000e+00	3.0000e+00	3.0000e+00	3.0000e+00	3.0000e+00	3.0000e+00	3.0000e+00	3.0000e+00	1.5000e+00	3.0000e+00	

B = Detector Channel
B-1	B-2	B-3	B-4	B-5	B-6	B-7	B-8	B-9	B-10	B-11	B-12	B-13	B-14	B-15	B-16	

1.0000e+01	1.0000e+01	1.0000e+01	1.4400e+00	1.0000e+01	1.0000e+01	1.5100e+00	1.9400e+00	1.0000e+01	1.0000e+01	1.9900e+00	2.4900e+00	2.4100e+00	2.9000e+00	1.0000e+01	2.9800e+00	




#DATA BEGINS
time	group	step	mark	flag	A-AC1	A-AC2	A-AC3	A-AC4	A-AC5	A-AC6	A-AC7	A-AC8	A-AC9	A-AC10	A-AC11	A-AC12	A-AC13	A-AC14	A-AC15	A-AC16	A-DC1	A-DC2	A-DC3	A-DC4	A-DC5	A-DC6	A-DC7	A-DC8	A-DC9	A-DC10	A-DC11	A-DC12	A-DC13	A-DC14	A-DC15	A-DC16	A-Ph1	A-Ph2	A-Ph3	A-Ph4	A-Ph5	A-Ph6	A-Ph7	A-Ph8	A-Ph9	A-Ph10	A-Ph11	A-Ph12	A-Ph13	A-Ph14	A-Ph15	A-Ph16	B-AC1	B-AC2	B-AC3	B-AC4	B-AC5	B-AC6	B-AC7	B-AC8	B-AC9	B-AC10	B-AC11	B-AC12	B-AC13	B-AC14	B-AC15	B-AC16	B-DC1	B-DC2	B-DC3	B-DC4	B-DC5	B-DC6	B-DC7	B-DC8	B-DC9	B-DC10	B-DC11	B-DC12	B-DC13	B-DC14	B-DC15	B-DC16	B-Ph1	B-Ph2	B-Ph3	B-Ph4	B-Ph5	B-Ph6	B-Ph7	B-Ph8	B-Ph9	B-Ph10	B-Ph11	B-Ph12	B-Ph13	B-Ph14	B-Ph15	B-Ph16	aux-1	digaux	

32468.801	1	1	0	768	0.049247	0.24654	0.12756	0.059409	0.11694	0.095213	0.1909	0.15803	0.15123	0.21477	0.12156	0.29344	0.024163	0.1088	0.14529	0.16225	-2.6937	-2.8729	-2.875	-3.1312	-2.9542	-3.1625	-2.9417	-2.7792	-3.1562	-2.9333	-2.9771	-2.9771	-2.7833	-2.9458	-3.1521	-2.8375	227.043	251.197	201.549	300.222	420.594	117.684	312.726	321.118	373.529	171.631	435.918	415.305	310.173	354.971	212.022	431.177	2.2017e-05	4.9777e-05	1.8008e-05	61.354	6.1215e-07	4.0921e-07	50.822	16.688	6.304e-07	2.7126e-07	13.915	4.295	5.5907	2.0837	3.459e-07	1.6493	4.7182e-05	4.9089e-05	1.3583e-05	74.585	5.8242e-07	5.3314e-07	61.775	20.424	5.2893e-07	6.0134e-07	17.226	5.3449	6.8864	2.5739	5.383e-07	2.1014	183.876	421.791	220.473	127.297	330.927	274.464	125.584	132.123	259.788	326.145	129.410	133.698	136.312	140.943	303.080	137.610	-8191	255	
32468.898	1	1	0	0	0.11524	0.066959	0.36996	0.062588	0.044715	0.15649	0.28897	0.15729	0.23241	0.29266	0.26038	0.096549	0.27866	0.15165	0.14412	0.13977	-2.7146	-2.7958	-3.0208	-3.1063	-2.8208	-3.1042	-3.1521	-2.775	-2.9938	-2.9333	-2.8563	-3.2833	-2.7667	-3.0917	-3.0563	-2.7687	125.695	152.590	173.109	368.473	147.311	457.153	385.816	465.075	222.276	421.638	177.323	259.107	371.597	452.070	305.839	328.388	2.1411e-05	7.5086e-05	1.9946e-05	61.712	4.2911e-07	2.6472e-07	51.179	17	7.1692e-07	4.3495e-07	13.871	4.228	5.5735	2.0893	8.8039e-08	1.657	4.7981e-05	4.9102e-05	1.3793e-05	74.607	6.0324e-07	5.3487e-07	61.914	20.589	5.2979e-07	5.7347e-07	17.319	5.3413	6.9155	2.5763	5.4188e-07	2.1183	189.721	178.869	283.188	127.711	222.098	299.826	126.062	132.437	183.485	362.848	129.672	133.741	136.514	141.008	244.023	137.769	-8191	255	
32468.994	1	1	0	0	0.15194	0.28889	0.0533	0.24863	0.16198	0.26809	0.22949	0.063462	0.09288	0.26377	0.13103	0.16846	0.13593	0.26031	0.27863	0.20768	-2.6833	-2.7333	-2.7771	-3.0458	-2.8208	-3.05	-3.0354	-2.7771	-3.1229	-3.0187	-2.9375	-3.0563	-2.8625	-2.9083	-3.0229	-2.9562	129.077	380.818	314.846	186.607	288.067	223.965	300.850	165.009	292.098	124.128	318.139	428.137	368.193	422.426	398.377	137.561	1.2141e-05	7.6057e-05	1.5192e-05	62.56	3.3847e-07	3.0545e-07	50.978	16.907	4.3288e-07	3.8225e-07	13.923	4.3415	5.5967	2.0782	8.2145e-07	1.6392	4.7924e-05	5.0022e-05	1.3978e-05	75.105	5.7534e-07	5.4167e-07	62.087	20.591	5.3647e-07	5.6747e-07	17.518	5.3978	6.8981	2.5844	5.487e-07	2.119	192.032	438.405	295.770	127.723	129.748	115.600	125.444	132.322	256.285	362.164	129.743	134.390	136.121	141.140	316.000	137.474	-8191	255	
32469.090	1	1	0	0	0.12715	0.2474	0.031449	0.59666	0.28255	0.14993	0.31881	0.057133	0.18655	0.19087	0.074274	0.28696	0.18603	0.18114	0.13251	0.074916	-2.8542	-2.9437	-2.8417	-3.0917	-2.7021	-3.125	-3.2521	-2.8146	-3.2292	-3.1021	-2.7792	-3.1042	-2.8063	-2.7333	-3.1458	-2.8812	420.789	322.386	353.593	292.556	382.115	373.629	209.276	136.102	427.254	400.076	470.192	184.490	357.022	145.748	185.949	231.889	2.3627e-05	5.301e-05	3.5448e-06	62.186	1.2153e-07	3.073e-07	51.188	17.049	4.3096e-07	4.2411e-07	14.133	4.3158	5.6587	2.0691	5.8217e-07	1.668	4.893e-05	5.0114e-05	1.4167e-05	75.375	6.1659e-07	5.5528e-07	62.525	20.768	5.5893e-07	5.6335e-07	17.652	5.4239	6.9705	2.5793	5.6626e-07	2.1271	169.163	196.297	325.753	127.784	230.438	217.847	125.634	132.653	279.024	187.334	129.625	133.479	136.164	140.939	154.706	136.941	-8191	255	
32469.186	1	1	0	0	0.25289	0.031973	0.23314	0.21084	0.095585	0.22777	0.15994	0.15598	0.21436	0.30405	0.17634	0.24202	0.10418	0.1701	0.17412	0.18773	-2.7313	-3.0292	-2.875	-3.1104	-3.0062	-2.9271	-3.2146	-2.7188	-3.1083	-3.2125	-2.8	-3.0875	-2.95	-2.7188	-3.1771	-2.7938	276.146	199.316	361.605	315.683	470.731	138.958	352.744	421.676	289.749	286.348	124.032	439.626	389.697	167.562	245.453	327.407	1.5098e-05	4.5606e-05	1.2013e-05	62.062	1.1946e-06	1.3066e-07	51.395	16.987	2.6062e-07	2.6942e-07	14.141	4.3403	5.6657	2.0703	1.6697e-07	1.6434	5.0171e-05	5.0837e-05	1.4265e-05	75.511	6.0162e-07	5.6505e-07	62.551	20.782	5.6168e-07	5.6272e-07	17.723	5.4076	6.9464	2.5746	5.5381e-07	2.1101	154.726	192.186	341.587	127.627	438.784	329.460	125.744	132.346	410.632	247.515	129.353	133.887	136.794	141.131	354.242	137.411	-8191	255	
32469.281	1	1	0	0	0.13973	0.057946	0.28085	0.056829	0.091728	0.18855	0.18852	0.13112	0.19592	0.24797	0.17484	0.13179	0.077031	0.084629	0.051843	0.17648	-2.6917	-3.2042	-2.8479	-3.2188	-2.9958	-2.8542	-3.1167	-2.7667	-2.9104	-3.1792	-2.7042	-2.9958	-2.9792	-2.9417	-3.3021	-2.9	251.214	120.148	243.169	398.039	134.006	227.522	357.852	130.908	143.335	338.203	421.107	343.026	246.686	419.677	231.264	420.196	2.9443e-05	6.0834e-05	6.7422e-06	62.872	1.6281e-07	1.3513e-06	52.033	16.898	3.9003e-07	6.9565e-07	14.214	4.3161	5.664	2.0619	1.3679e-07	1.6445	5.0053e-05	5.1398e-05	1.4387e-05	75.691	5.7506e-07	6.0553e-07	62.834	20.754	5.6215e-07	5.5793e-07	17.759	5.4202	6.9569	2.567	5.5624e-07	2.1168	187.583	261.050	292.771	127.423	393.257	164.611	125.877	132.206	260.334	132.837	128.925	133.609	136.362	141.145	401.141	137.275	-8191	255	
32469.400	1	1	0	0	0.12969	0.11982	0.29355	0.085354	0.030016	0.043313	0.18704	0.1162	0.12736	0.34975	0.090282	0.1488	0.16262	0.076796	0.080963	0.20074	-2.6167	-2.9917	-2.6292	-3.2	-3.0333	-2.7771	-3.3229	-2.6542	-2.9437	-3.1604	-2.8208	-2.8208	-2.9125	-2.7313	-3.175	-3.1354	311.415	409.760	264.926	392.884	240.798	465.377	378.394	159.936	406.398	130.089	218.580	324.718	393.329	297.862	309.432	394.658	2.5662e-05	6.1725e-05	1.3234e-05	62.373	2.2243e-07	9.0891e-07	51.729	17.045	3.235e-07	1.4066e-07	14.323	4.3301	5.6241	2.0819	5.168e-07	1.6616	5.0495e-05	5.1508e-05	1.438e-05	75.73	5.6189e-07	6.0611e-07	62.834	20.809	5.6149e-07	5.5692e-07	17.828	5.4266	6.9659	2.5683	5.6134e-07	2.1053	183.927	276.252	210.141	127.299	276.563	136.541	126.130	131.986	321.918	307.901	129.158	134.316	136.404	141.414	142.758	137.338	-8191	255	
32469.496	1	1	0	0	0.1727	0.18379	0.29252	0.04673	0.12065	0.26253	0.22384	0.19143	0.089401	0.1884	0.25543	0.29226	0.26932	0.069095	0.093042	0.073903	-2.5979	-3.15	-2.5938	-3.0563	-3.1667	-2.6667	-3.1	-2.8208	-2.825	-3.2354	-2.8521	-2.9542	-3.0333	-2.725	-3.1271	-3.0521	137.505	242.155	344.049	418.049	303.630	339.551	164.766	172.491	272.316	458.009	138.411	353.157	383.204	252.682	334.841	471.553	1.8959e-05	2.743e-05	5.5294e-06	62.75	5.3164e-07	7.6761e-07	51.228	17.107	5.84e-07	3.8633e-07	14.105	4.3565	5.6081	2.0612	3.4786e-07	1.632	5.0195e-05	5.057e-05	1.429e-05	75.922	5.6622e-07	6.4305e-07	62.748	20.818	5.6637e-07	5.4977e-07	17.597	5.4015	6.9454	2.5582	5.5147e-07	2.0886	202.941	157.690	465.102	127.491	192.299	234.924	125.710	132.407	265.132	247.671	128.798	134.018	136.417	140.945	344.178	136.977	-8191	255	
32469.594	1	1	0	0	0.086637	0.10763	0.17118	0.20518	0.0093693	0.16446	0.23462	0.027514	0.19892	0.059058	0.15406	0.27418	0.25836	0.12117	0.033582	0.067016	-2.4792	-3.1479	-2.7646	-2.9729	-3.0021	-2.8458	-3.1292	-2.7646	-2.9271	-3.3875	-2.7208	-2.9771	-3.1104	-2.5875	-3.0646	-3.1104	267.142	244.104	134.982	409.014	366.937	397.298	283.070	443.781	319.833	234.921	123.828	361.603	472.333	427.123	315.407	460.237	1.8568e-05	6.673e-05	5.04e-05	62.121	5.5377e-07	1.4483e-06	51.683	17.09	7.4584e-07	8.8359e-07	14.202	4.2811	5.6162	2.0711	4.2777e-07	1.6313	5.3131e-05	4.9795e-05	1.4322e-05	75.439	5.4673e-07	5.9619e-07	62.773	20.779	5.5305e-07	5.5044e-07	17.721	5.3952	6.9182	2.5554	5.4193e-07	2.079	173.096	133.893	203.706	127.145	250.201	249.162	125.756	132.226	249.208	338.129	128.484	133.472	136.319	141.258	370.021	137.361	-8191	255	
32469.689	1	1	0	0	0.18689	0.14877	0.14291	0.13215	0.099603	0.18832	0.25173	0.055153	0.080374	0.35562	0.22778	0.25066	0.21378	0.047073	0.16894	0.17807	-2.5375	-3.0896	-2.9083	-3.1333	-2.8979	-2.9208	-3.1167	-2.9646	-2.8771	-2.975	-2.8438	-2.9458	-3.0854	-2.7542	-3.1917	-2.95	328.961	435.306	149.887	466.297	383.579	328.281	284.504	446.915	186.313	227.210	428.338	394.120	305.164	414.713	450.862	148.343	1.6125e-05	0.00010406	1.4914e-05	62.526	2.4365e-07	1.9033e-07	51.321	16.941	3.0538e-07	7.2807e-07	14.071	4.2851	5.623	2.0703	4.4271e-07	1.647	5.277e-05	4.9238e-05	1.3866e-05	75.637	5.3228e-07	6.1013e-07	62.518	20.681	5.4073e-07	5.3409e-07	17.563	5.3878	6.9326	2.5487	5.342e-07	2.0865	196.853	183.882	141.804	127.147	372.827	449.871	125.678	131.984	241.747	189.877	129.502	133.444	135.799	140.945	312.839	137.147	-8191	255	
32469.785	1	1	0	0	0.19947	0.15863	0.086634	0.18951	0.45553	0.09356	0.1191	0.06477	0.075389	0.099707	0.16263	0.077872	0.11847	0.099186	0.12832	0.20924	-2.4354	-3.1104	-2.8542	-2.8396	-3.0083	-2.9271	-3.0271	-3.2229	-2.9271	-3.0812	-2.8417	-2.9479	-3.1333	-2.7438	-3.0271	-3.05	367.169	180.478	426.922	359.842	141.409	160.816	165.939	222.375	298.353	439.319	136.032	224.723	162.410	275.705	204.942	178.315	2.4134e-05	4.9682e-05	2.0507e-05	62.469	5.1291e-07	7.355e-07	51.579	16.997	1.1382e-06	6.6641e-07	14.155	4.3027	5.6592	2.0633	2.2556e-07	1.643	5.2953e-05	4.8261e-05	1.3552e-05	75.581	5.2862e-07	5.7487e-07	62.691	20.725	5.3997e-07	5.2752e-07	17.558	5.4168	6.9199	2.5491	5.3788e-07	2.08	200.606	221.177	140.946	127.434	285.890	140.427	125.714	132.318	223.823	147.374	129.091	133.563	136.620	141.059	302.508	137.011	-8191	255	
32469.883	1	1	0	0	0.27475	0.058949	0.33339	0.077907	0.13722	0.37594	0.18337	0.31665	0.1794	0.079524	0.10503	0.15796	0.066146	0.30072	0.23108	0.071582	-2.3958	-3.1167	-2.9042	-2.9375	-3.2125	-2.8438	-2.9521	-3.0229	-2.85	-3.1167	-2.9688	-2.8396	-3.1708	-2.9167	-2.9167	-3.1021	312.430	218.323	201.357	366.542	382.538	352.608	183.845	122.635	253.595	313.752	342.948	228.944	354.391	337.188	230.784	409.168	1.7538e-05	4.8959e-05	1.1631e-05	61.954	7.0375e-07	9.9479e-07	51.495	16.93	5.0732e-07	8.9909e-07	14.055	4.3234	5.6106	2.0654	2.674e-07	1.6356	5.0734e-05	4.8318e-05	1.3534e-05	75.088	5.2406e-07	5.903e-07	62.398	20.618	5.3059e-07	5.302e-07	17.484	5.4092	6.9044	2.55	5.311e-07	2.0713	227.838	131.502	248.877	127.501	289.654	451.019	125.433	132.221	158.269	299.487	129.075	133.615	136.538	140.913	245.431	137.911	-8191	255	
32470.002	1	1	0	0	0.12938	0.10721	0.16376	0.247	0.24944	0.11529	0.18912	0.04387	0.18675	0.13346	0.1286	0.22977	0.19795	0.20433	0.16516	0.081922	-2.5208	-3.0375	-2.9104	-2.8354	-3.1375	-3.0792	-2.8646	-3.1562	-2.7812	-3.0354	-2.9562	-2.8187	-3.1625	-2.7896	-3.0542	-3.0354	161.344	235.601	240.295	182.306	207.492	341.548	469.864	358.789	145.378	412.831	459.852	204.096	177.180	309.333	354.115	238.803	2.0683e-05	2.1478e-05	2.1329e-05	62.521	4.561e-07	5.4381e-07	50.873	16.967	4.2618e-07	2.1713e-07	14.06	4.3714	5.6457	2.0775	3.9332e-07	1.6617	5.23e-05	4.8169e-05	1.3546e-05	75.392	5.2829e-07	5.5197e-07	62.348	20.674	5.3097e-07	5.207e-07	17.515	5.435	6.9104	2.5492	5.2504e-07	2.075	231.121	129.435	256.154	127.778	215.658	225.579	125.582	132.521	193.136	249.139	129.161	132.825	136.517	140.761	208.059	136.656	-8191	255	
32470.100	1	1	0	0	0.23865	0.21064	0.098407	0.14907	0.18898	0.26185	0.11359	0.29071	0.17629	0.041823	0.047048	0.21397	0.14622	0.17675	0.11233	0.20927	-2.4	-3.2125	-2.9938	-2.8729	-3.2188	-3.0146	-2.9437	-3.2438	-2.9313	-2.9562	-3.2229	-2.9417	-3.2604	-3.0312	-2.8667	-3.0958	260.832	278.168	202.812	313.776	322.321	308.409	210.360	249.551	372.378	361.860	387.007	456.394	256.255	248.613	208.673	438.988	2.0243e-05	8.4132e-05	6.1162e-06	61.751	8.7606e-07	8.4575e-07	51.799	17.092	4.5056e-07	1.688e-07	14.209	4.3265	5.6334	2.0783	2.4142e-07	1.6449	4.9923e-05	4.802e-05	1.3357e-05	75.208	5.2088e-07	5.3031e-07	62.9	20.77	5.2784e-07	5.2253e-07	17.574	5.4261	6.9311	2.5654	5.2385e-07	2.0893	189.139	120.872	366.322	127.414	209.795	174.381	125.584	131.785	284.858	336.316	128.932	133.089	136.043	140.885	260.394	137.210	-8191	255	
32470.195	1	1	0	0	0.15591	0.083169	0.024764	0.14251	0.35576	0.16611	0.13288	0.064242	0.066673	0.22401	0.14237	0.26365	0.15053	0.043276	0.11314	0.20117	-2.4437	-3.1	-3.3354	-2.7854	-3.0979	-3.0229	-2.9958	-3.2812	-2.7958	-2.9604	-3.1896	-2.7583	-3.2313	-3.0646	-2.9708	-3.1833	282.822	252.131	322.022	131.244	322.031	385.626	191.846	199.889	145.736	116.973	327.316	127.040	451.636	151.702	157.749	307.124	1.5884e-05	5.0124e-05	6.614e-06	62.762	7.3909e-07	3.526e-07	51.419	17.187	4.7118e-07	6.9056e-08	14.067	4.3155	5.6329	2.0889	3.7416e-07	1.6537	5.2251e-05	4.7836e-05	1.322e-05	75.525	5.2059e-07	5.1537e-07	62.813	20.795	5.2291e-07	5.2176e-07	17.506	5.4463	6.9599	2.5688	5.3873e-07	2.0864	215.661	170.498	382.658	127.418	219.661	246.955	125.461	132.115	383.980	293.595	128.376	133.874	136.290	140.578	209.159	137.094	-8191	255	
32470.289	1	1	0	0	0.20032	0.05181	0.070663	0.1336	0.17823	0.13039	0.049936	0.13455	0.16482	0.2961	0.074051	0.22229	0.15461	0.13139	0.26307	0.031961	-2.5771	-2.8187	-3.1521	-2.7833	-3.1646	-3.15	-2.7854	-3.1875	-2.8854	-2.95	-3.0396	-2.9208	-3.0729	-3.1146	-2.7521	-2.9875	186.750	125.874	216.109	305.916	337.430	191.055	258.764	420.284	452.696	221.080	289.241	199.022	337.131	370.320	221.619	139.575	1.4611e-05	4.1938e-05	2.1437e-05	62.098	1.4597e-07	3.8245e-07	51.394	17	3.6584e-07	5.4347e-07	14.1	4.3201	5.6407	2.0784	3.056e-07	1.6603	4.8873e-05	4.8585e-05	1.3169e-05	75.466	5.0976e-07	5.1647e-07	62.691	20.758	5.1292e-07	5.2967e-07	17.456	5.4073	6.9324	2.5729	5.1922e-07	2.0834	196.357	162.607	273.663	127.255	451.980	357.366	125.956	132.179	275.611	227.910	129.864	133.776	136.437	141.369	322.076	137.568	-8191	255	
32470.363	1	1	0	0	0.15186	0.068995	0.19837	0.061914	0.12649	0.11788	0.063124	0.233	0.15163	0.13232	0.15428	0.027704	0.21674	0.05621	0.28593	0.20166	-2.6125	-2.8271	-3.1937	-2.7417	-2.9292	-3.1604	-2.6688	-3.1229	-3.05	-2.7292	-3.1417	-2.7687	-2.8438	-3.0021	-2.7896	-3.1437	435.425	332.788	261.815	364.572	218.310	389.073	257.461	254.629	251.031	249.847	270.186	390.387	458.274	221.170	275.946	146.370	1.8069e-05	7.5308e-05	8.261e-06	62.004	5.7634e-07	5.4937e-07	51.311	17.004	3.8726e-07	4.7523e-07	14.171	4.3675	5.6288	2.0903	4.7195e-07	1.6767	4.6172e-05	5.1999e-05	1.309e-05	75.265	5.1793e-07	5.112e-07	62.556	20.758	5.1339e-07	5.2046e-07	17.498	5.4462	6.9462	2.577	5.1827e-07	2.0907	203.114	163.890	170.747	127.597	294.077	231.656	125.408	132.491	247.093	140.420	128.892	133.816	136.715	140.985	202.216	137.844	-8191	255	
32470.480	1	1	0	0	0.19573	0.022994	0.17996	0.0293	0.0071011	0.1413	0.32802	0.39398	0.06525	0.3244	0.09839	0.18254	0.20521	0.15714	0.17273	0.067787	-2.5521	-2.8896	-3.1646	-2.75	-2.8854	-3.3688	-2.825	-2.9875	-2.9708	-2.8187	-3.2771	-2.9292	-2.9583	-3.1708	-2.8292	-2.9042	195.232	369.597	389.359	142.826	388.139	392.524	456.724	330.083	144.217	160.900	357.624	135.440	204.608	462.016	184.056	384.038	1.9191e-05	4.4975e-05	6.3818e-06	61.982	7.2746e-07	4.0774e-07	51.545	17.115	1.1671e-07	2.035e-07	14.109	4.3829	5.6798	2.1234	5.2797e-07	1.6723	4.5945e-05	5.1893e-05	1.3157e-05	75.307	5.1285e-07	5.0569e-07	62.853	20.818	5.169e-07	5.2421e-07	17.616	5.4426	6.9788	2.5904	5.2137e-07	2.1117	193.252	469.812	202.607	127.600	285.688	265.895	125.732	132.661	147.575	367.421	128.778	133.299	136.219	141.084	265.511	136.884	-8191	255	
32470.578	1	1	0	0	0.14678	0.21207	0.14169	0.073842	0.025504	0.26988	0.21466	0.10269	0.12048	0.2105	0.13541	0.3267	0.10705	0.16603	0.14641	0.32384	-2.5062	-2.9458	-3.2521	-2.8708	-2.9042	-3.1479	-2.9437	-2.9042	-3.1417	-2.675	-3.0583	-3.0083	-2.8917	-3.1521	-2.9188	-3.0875	210.701	314.206	131.349	350.287	327.344	435.770	168.262	444.386	448.161	328.915	268.197	434.978	148.263	199.528	394.762	409.727	2.0976e-05	1.9174e-05	1.255e-05	62.691	6.6792e-07	9.9722e-07	51.391	17.242	5.5143e-07	5.4325e-07	14.245	4.3716	5.6543	2.1001	6.9845e-07	1.6674	4.6374e-05	5.4421e-05	1.301e-05	75.405	5.2088e-07	5.089e-07	62.757	20.9	5.1836e-07	5.1476e-07	17.574	5.4294	7.0116	2.5827	5.208e-07	2.0925	189.304	362.833	341.026	127.492	185.362	218.058	125.648	132.175	268.246	301.641	128.988	133.475	136.408	140.672	229.916	136.607	-8191	255	
32470.674	1	1	0	0	0.16312	0.15398	0.12798	0.134	0.27548	0.23507	0.19088	0.047504	0.18222	0.018858	0.095463	0.29429	0.12443	0.24507	0.047421	0.26661	-2.825	-2.6375	-3.1417	-2.8542	-2.9521	-3.2625	-2.8354	-2.7646	-3.15	-2.9104	-2.9729	-2.925	-2.9062	-3.1875	-2.9146	-3.0708	273.971	221.361	171.398	185.194	405.618	459.087	313.639	276.276	202.926	176.249	411.214	118.433	314.280	218.062	448.499	241.945	1.9921e-05	1.756e-05	1.2001e-05	62.509	5.3212e-07	6.7233e-07	51.405	17.118	8.5133e-07	5.693e-07	14.221	4.3515	5.6857	2.0811	4.9545e-07	1.6639	4.5867e-05	5.1407e-05	1.3113e-05	75.575	5.2687e-07	5.1081e-07	62.883	20.866	5.2239e-07	5.114e-07	17.673	5.4416	7.0341	2.5798	5.1388e-07	2.1025	179.411	237.416	216.336	127.338	281.192	182.915	125.485	132.213	249.295	401.040	129.464	133.241	136.452	140.876	314.789	137.037	-8191	255	
32470.770	1	1	0	0	0.21557	0.11676	0.085751	0.17499	0.41979	0.15303	0.14284	0.089788	0.072519	0.080065	0.091808	0.19548	0.28386	0.21869	0.312	0.051437	-2.7708	-2.6875	-2.9792	-3.0521	-2.7313	-3.1542	-2.9688	-2.8042	-3.1625	-2.8333	-2.9771	-3.0229	-2.5646	-3.0917	-3.0042	-3.1146	327.380	339.357	204.316	281.862	446.803	309.062	372.487	377.110	126.563	434.718	140.166	162.284	294.423	117.596	247.990	456.370	1.3601e-05	6.5277e-05	2.3972e-05	62.245	4.5119e-07	2.7625e-07	51.623	17.118	1.9455e-07	6.304e-07	14.293	4.334	5.7539	2.1206	4.0819e-07	1.6624	4.6111e-05	5.3545e-05	1.2908e-05	75.594	5.2183e-07	5.0856e-07	62.744	20.912	5.069e-07	5.2761e-07	17.676	5.4551	7.0572	2.604	5.1355e-07	2.1036	164.055	320.015	355.374	127.582	273.891	352.197	125.744	132.229	295.574	228.042	129.245	133.896	136.032	140.606	338.159	137.086	-8191	255	
32470.891	1	1	0	0	0.095629	0.22743	0.18727	0.051868	0.17417	0.20423	0.14932	0.053708	0.28069	0.18883	0.2372	0.15328	0.22696	0.079805	0.11307	0.062908	-2.7812	-2.8937	-3.0354	-3.0271	-2.9125	-3.125	-3.0458	-2.9479	-3.1958	-2.8354	-2.9729	-2.975	-2.8729	-3.1104	-3.0042	-2.9271	424.050	397.296	400.658	433.172	164.160	272.288	421.755	460.671	303.204	128.158	147.434	164.141	335.858	209.992	190.950	372.775	1.8889e-05	7.3406e-05	1.1147e-05	62.561	7.4636e-07	5.3812e-07	51.859	17.046	2.6465e-07	7.1997e-07	14.312	4.4035	5.6908	2.1272	2.8904e-07	1.6565	4.5129e-05	5.1096e-05	1.2982e-05	75.714	5.1817e-07	5.0837e-07	62.853	20.938	5.1026e-07	5.0962e-07	17.615	5.468	7.0363	2.6085	5.093e-07	2.1082	195.354	369.229	468.267	127.878	365.653	219.082	125.482	132.235	209.548	212.228	128.630	133.884	136.513	140.378	286.679	136.568	-8191	255	
32470.963	1	1	0	0	0.12284	0.30993	0.041065	0.20075	0.22495	0.30416	0.20085	0.26714	0.25659	0.15586	0.1126	0.12593	0.28935	0.26556	0.30845	0.27111	-2.6167	-2.8167	-2.8458	-3.1125	-2.9875	-3.2188	-3.0792	-2.925	-3.1542	-3.0438	-2.8708	-3.1646	-2.7104	-2.9458	-3.0458	-2.8667	263.848	425.405	380.347	384.014	439.873	324.320	183.958	125.707	353.651	385.002	412.968	168.439	373.515	270.990	200.286	308.696	1.8879e-05	6.4033e-05	7.9679e-06	62.45	1.9276e-07	5.6119e-07	51.498	17.271	4.2469e-07	5.4449e-07	14.144	4.352	5.7502	2.1174	4.9932e-07	1.6588	4.5093e-05	5.2888e-05	1.293e-05	75.581	5.118e-07	4.9927e-07	62.652	20.909	4.8913e-07	5.0243e-07	17.614	5.4417	7.07	2.6124	5.0682e-07	2.1182	203.636	398.612	272.168	127.399	188.456	215.698	125.516	132.092	288.374	346.110	128.777	132.988	136.566	141.273	219.148	137.169	-8191	255	
32471.082	1	1	0	0	0.08819	0.050058	0.19915	0.03296	0.15602	0.16075	0.097718	0.28265	0.2061	0.28308	0.10618	0.17404	0.1377	0.055522	0.18938	0.39035	-2.725	-2.8458	-2.725	-3.0458	-2.8875	-2.9521	-3.0479	-2.825	-3.175	-2.7917	-2.8333	-3.1063	-2.8833	-2.8625	-3.0896	-2.875	217.742	293.085	448.232	180.813	237.609	290.895	209.164	356.330	423.383	174.180	149.741	210.279	154.872	397.714	422.594	393.354	2.0872e-05	3.312e-06	3.6185e-06	62.363	5.3202e-07	1.3248e-06	51.512	17.324	5.1078e-07	1.2505e-07	14.209	4.4327	5.7692	2.1523	1.0474e-07	1.6979	4.4034e-05	4.7556e-05	1.3022e-05	75.547	5.0429e-07	4.9491e-07	62.655	21.068	4.8908e-07	4.9375e-07	17.623	5.4564	7.0639	2.6233	4.9704e-07	2.1275	191.277	158.053	163.744	127.509	257.589	275.434	125.657	132.399	257.778	338.562	128.902	132.944	136.775	140.451	127.132	137.301	-8191	255	
32471.180	1	1	0	0	0.29139	0.11376	0.31888	0.18166	0.22696	0.22306	0.23271	0.059676	0.11928	0.30066	0.22584	0.13435	0.27465	0.16464	0.23928	0.10041	-2.5917	-2.925	-2.8333	-3.0417	-2.9896	-3.0062	-3.1229	-2.7458	-3.1854	-2.9104	-2.8187	-3.0875	-2.875	-2.9146	-3.1042	-2.9417	342.167	367.533	352.714	338.979	115.481	249.560	298.017	328.705	376.559	124.868	392.040	299.225	259.225	379.423	333.273	302.649	1.5954e-05	2.3612e-05	3.181e-06	62.703	1.747e-07	7.7324e-07	51.841	17.208	5.1482e-07	5.0585e-07	14.189	4.4048	5.7328	2.1346	5.6479e-07	1.6986	4.4026e-05	4.5155e-05	1.4108e-05	75.574	5.0306e-07	4.986e-07	62.816	20.987	4.8804e-07	4.9897e-07	17.707	5.4782	7.0992	2.6277	4.8822e-07	2.1332	161.963	273.612	185.417	127.505	225.845	116.717	125.202	132.074	267.355	337.451	129.134	133.693	136.394	141.066	290.748	137.637	-8191	255	
32471.275	1	1	0	0	0.19316	0.25326	0.17798	0.17266	0.17487	0.21419	0.083191	0.38787	0.20418	0.38292	0.1531	0.062821	0.22943	0.14154	0.097893	0.23398	-2.7229	-2.8521	-2.8708	-3.2417	-2.9417	-2.8979	-2.9292	-2.7562	-3.1292	-2.9854	-2.9708	-3.0542	-2.8542	-2.8792	-3.1292	-2.8333	155.459	361.966	148.426	272.559	359.562	429.715	286.338	419.740	151.206	240.751	152.449	114.629	362.139	335.684	126.861	176.024	2.6006e-05	1.829e-05	3.274e-05	62.477	1.8319e-07	7.1294e-07	51.886	17.238	1.5823e-07	3.3403e-07	14.209	4.4204	5.7708	2.1277	4.7163e-07	1.6867	4.3442e-05	4.5019e-05	1.3667e-05	75.558	4.8975e-07	4.9419e-07	62.725	21.02	4.9069e-07	4.901e-07	17.611	5.474	7.0729	2.6264	4.8965e-07	2.1208	163.134	207.308	166.553	127.436	274.216	371.258	125.529	132.038	333.889	187.024	128.850	133.489	136.252	141.188	225.268	137.220	-8191	255	
32471.371	1	1	0	0	0.10904	0.050792	0.055357	0.057278	0.097024	0.16849	0.24904	0.096247	0.11832	0.049475	0.1358	0.073262	0.35038	0.08939	0.19051	0.091785	-2.7104	-2.9625	-2.6437	-3.0396	-2.8167	-3.0208	-3.0854	-2.6104	-3	-3.0354	-2.6396	-3.1813	-2.8792	-2.6167	-3.0604	-2.6375	461.135	451.074	172.016	326.860	385.277	307.292	131.565	437.492	208.809	241.217	173.386	343.129	131.784	431.289	288.460	189.033	2.5699e-05	7.7456e-05	1.5325e-05	62.832	9.0643e-07	6.1391e-07	52.133	17.438	1.4816e-07	6.3063e-07	14.297	4.3769	5.739	2.1231	5.775e-07	1.6932	4.4456e-05	4.4682e-05	1.4224e-05	75.589	4.935e-07	4.8849e-07	62.704	20.993	4.9363e-07	4.948e-07	17.637	5.4558	7.0208	2.6383	4.8459e-07	2.1199	191.730	203.477	213.559	127.604	246.537	346.337	125.534	131.737	197.958	319.388	129.250	133.544	135.827	140.962	325.641	136.999	-8191	255	
32471.490	1	1	0	0	0.17573	0.14583	0.12821	0.087058	0.084942	0.060593	0.10228	0.21796	0.097302	0.11032	0.034956	0.21001	0.23257	0.10344	0.13436	0.18199	-2.5479	-3.0958	-2.8271	-3.15	-3.0396	-2.875	-3.2646	-3.0375	-2.9	-3.2875	-2.9021	-3.0958	-2.8937	-2.7896	-3.0729	-2.9104	413.687	292.285	456.758	212.201	289.733	312.526	323.828	127.633	232.760	173.807	149.538	276.710	267.823	176.522	271.133	357.352	1.7135e-05	6.3403e-05	1.0785e-05	62.318	7.4964e-07	5.1581e-07	51.336	17.25	4.1236e-07	5.0968e-07	14.227	4.3853	5.6935	2.1331	4.5562e-07	1.6823	4.3503e-05	4.5128e-05	1.3341e-05	75.471	4.8813e-07	4.9548e-07	62.452	20.97	4.8605e-07	4.841e-07	17.558	5.4607	7.0285	2.6288	4.8216e-07	2.1254	210.520	180.509	160.761	127.059	252.599	176.900	125.364	132.563	316.306	187.513	128.868	133.713	136.313	141.144	228.378	137.308	-8191	255	
32471.586	1	1	0	0	0.13146	0.071135	0.12815	0.4123	0.036395	0.1094	0.25184	0.21508	0.080982	0.18219	0.1982	0.060205	0.25672	0.1554	0.15764	0.26436	-2.6708	-2.9396	-2.6813	-3.0521	-2.9271	-2.7667	-3.2021	-2.8708	-2.8688	-3.025	-2.6083	-3.0375	-2.8646	-2.8167	-3.1125	-2.8979	216.300	388.062	326.073	150.982	160.818	278.628	128.466	221.983	469.570	311.091	236.667	417.634	148.190	239.994	409.037	282.606	2.1787e-05	5.0565e-05	1.4344e-05	62.62	1.353e-06	4.8901e-07	51.556	17.054	3.7277e-07	1.0622e-06	14.321	4.4436	5.7076	2.1343	4.6151e-07	1.6784	4.4046e-05	4.4094e-05	1.4221e-05	75.41	4.8001e-07	4.8619e-07	62.537	20.866	4.977e-07	4.8847e-07	17.647	5.4918	7.0264	2.6325	4.7792e-07	2.1224	175.016	328.351	240.516	127.861	231.439	257.645	126.077	132.608	227.059	174.451	129.790	133.650	136.606	140.771	174.606	137.737	-8191	255	
32471.658	1	1	0	0	0.065257	0.29153	0.10172	0.24855	0.14604	0.068636	0.066006	0.075454	0.097831	0.072252	0.014695	0.16568	0.14412	0.036552	0.072154	0.1565	-2.425	-2.9625	-2.7917	-2.9792	-2.9958	-2.8292	-3.0042	-3.0104	-2.9896	-3.1646	-2.7208	-2.9396	-3.0312	-2.7396	-3.1312	-2.8771	441.970	307.738	305.372	161.853	375.065	421.893	233.247	250.540	151.414	194.100	290.584	362.498	397.639	297.353	132.158	171.973	2.4093e-05	0.00010249	2.1608e-05	62.176	2.7321e-07	5.4236e-07	51.504	17.075	4.8067e-07	4.0348e-07	14.242	4.368	5.7128	2.137	2.9801e-07	1.6859	4.283e-05	4.3157e-05	1.3136e-05	74.93	4.7934e-07	4.8648e-07	62.307	20.799	5.4168e-07	4.8027e-07	17.531	5.4538	7.0097	2.6362	4.8016e-07	2.1112	180.628	194.138	228.480	127.668	319.085	409.410	125.944	132.276	246.643	438.077	129.136	133.518	136.586	141.322	313.821	137.703	-8191	255	
32471.779	1	1	0	0	0.25481	0.12359	0.24686	0.11231	0.18144	0.088339	0.11314	0.16054	0.14053	0.0081036	0.17439	0.13357	0.17488	0.09102	0.14928	0.11072	-2.4646	-3.0292	-2.8063	-2.9896	-3.2333	-2.8792	-3.0354	-3.0667	-2.8646	-3.2583	-2.7708	-2.9833	-3.275	-2.8458	-3.1729	-3.0187	225.676	361.460	418.276	457.848	115.941	461.882	274.644	136.593	346.097	399.682	332.984	449.747	163.039	274.874	232.551	167.078	2.1552e-05	3.0371e-05	1.9591e-05	62.094	7.1717e-07	1.0349e-06	51.495	17.277	5.332e-07	7.9458e-07	14.192	4.3147	5.7049	2.1327	5.6518e-07	1.6756	4.3657e-05	4.4261e-05	1.3689e-05	75.133	4.773e-07	4.8432e-07	62.303	20.875	5.122e-07	4.8113e-07	17.452	5.417	7.0084	2.6348	4.8917e-07	2.1124	191.757	258.565	447.941	127.537	240.673	219.645	125.693	132.121	245.522	176.438	129.396	133.265	136.702	140.433	362.717	136.323	-8191	255	
32471.875	1	1	0	0	0.29624	0.39098	0.15143	0.17083	0.12229	0.24468	0.1051	0.029977	0.15439	0.2036	0.18681	0.23172	0.3422	0.15644	0.20816	0.17244	-2.4271	-3.0167	-2.8917	-2.9375	-3.1667	-2.7833	-2.9917	-2.9042	-2.7708	-3.0146	-2.875	-2.8229	-2.9667	-2.7438	-2.8729	-3.0854	276.199	200.218	158.340	295.558	127.414	309.795	346.177	452.925	414.605	441.876	347.852	141.306	337.447	446.193	309.527	145.854	2.0738e-05	4.6595e-05	4.7946e-06	62.274	3.6694e-07	4.8006e-07	51.573	17.249	4.5318e-07	4.8416e-07	13.962	4.3656	5.7722	2.1448	1.4976e-07	1.6913	4.3442e-05	4.3919e-05	1.2731e-05	75.452	4.8067e-07	4.9247e-07	62.4	20.89	5.4997e-07	4.8343e-07	17.441	5.4229	7.0096	2.6383	4.7553e-07	2.1162	180.286	213.797	264.505	127.374	257.381	458.604	125.490	132.233	267.937	386.852	129.011	133.753	136.572	141.069	281.464	137.456	-8191	255	
32471.971	1	1	0	0	0.10813	0.085223	0.25536	0.042302	0.13459	0.15269	0.18053	0.17984	0.23207	0.12816	0.13137	0.14655	0.084054	0.099446	0.099781	0.10026	-2.2875	-3.0229	-2.7896	-2.6917	-2.9938	-2.8083	-2.8417	-3.1312	-2.7542	-3.1771	-2.8417	-2.6146	-3.1667	-2.8854	-2.9083	-3.1708	184.313	176.360	423.284	441.372	217.062	276.513	162.647	365.670	255.085	137.990	383.398	317.397	350.795	396.707	223.734	332.476	2.6285e-05	9.3588e-05	1.6393e-05	62.501	2.0157e-07	7.6477e-07	51.409	17.115	2.227e-07	6.0624e-07	14.077	4.3598	5.7544	2.149	2.9489e-07	1.6936	4.2039e-05	4.2933e-05	1.1937e-05	75.562	4.6442e-07	4.7345e-07	62.268	20.824	5.1107e-07	4.6559e-07	17.424	5.4318	7.0219	2.6465	4.6799e-07	2.1261	196.613	139.870	229.144	127.290	126.655	333.991	125.475	132.217	187.267	182.088	128.491	133.633	136.123	140.505	262.162	136.663	-8191	255	
32472.066	1	1	0	0	0.17037	0.14806	0.043844	0.068616	0.19821	0.15196	0.16124	0.099686	0.1302	0.16794	0.16396	0.1894	0.060782	0.22839	0.043524	0.16028	-2.2646	-2.9958	-3.0167	-2.8458	-3.15	-3.0687	-2.9771	-2.9604	-2.8646	-3.1396	-3.0083	-2.7375	-3.1792	-2.9771	-2.8688	-3.1958	132.722	175.573	368.761	209.413	445.276	115.527	165.721	221.706	263.085	191.276	243.153	358.225	211.094	411.220	187.949	441.282	1.4594e-05	6.2671e-05	1.5089e-05	62.317	4.4466e-07	6.6254e-07	51.171	17.159	3.6608e-07	5.996e-07	14.277	4.4313	5.7904	2.1674	4.6194e-07	1.6919	4.2509e-05	4.2381e-05	1.1738e-05	75.246	4.5553e-07	4.6267e-07	62.148	20.864	5.3969e-07	4.6079e-07	17.444	5.4457	7.0416	2.6589	4.8812e-07	2.12	204.182	242.235	141.598	127.197	332.673	350.241	125.854	132.001	317.804	255.300	128.724	133.891	136.360	140.808	157.308	137.309	-8191	255	
32472.186	1	1	0	0	0.15427	0.16143	0.17356	0.099744	0.14292	0.0505	0.28252	0.054729	0.057796	0.12715	0.07544	0.15257	0.21056	0.29819	0.18281	0.090304	-2.1229	-2.7979	-2.8604	-2.8187	-3.2375	-3.0271	-2.8604	-3.0729	-2.8542	-2.9896	-2.9917	-2.7354	-3.0354	-2.725	-2.9417	-3.1146	277.513	137.841	368.629	281.585	342.183	145.208	377.859	364.529	383.574	298.874	369.473	254.682	369.859	204.836	133.326	313.409	1.4653e-05	5.878e-05	1.4797e-05	62.291	4.7562e-07	2.0056e-07	51.618	17.255	5.183e-07	4.8087e-07	14.065	4.4204	5.7738	2.1783	3.054e-07	1.7161	4.2075e-05	4.2224e-05	1.1852e-05	75.721	4.6256e-07	4.6794e-07	62.593	20.971	5.1088e-07	4.7624e-07	17.499	5.4397	7.0665	2.6641	5.3539e-07	2.1364	161.455	200.219	318.346	127.047	439.306	456.088	125.593	132.358	225.942	278.312	128.895	132.955	136.532	140.521	378.221	137.492	-8191	255	
32472.260	1	1	0	0	0.25658	0.24028	0.10037	0.082137	0.066811	0.18908	0.25309	0.13698	0.1828	0.20092	0.049275	0.18022	0.13623	0.12489	0.092781	0.15072	-2.4042	-3.0104	-2.9104	-2.75	-3.075	-2.9938	-2.9146	-3.0687	-2.9417	-2.9604	-3.175	-2.6771	-3.0083	-2.9729	-2.8146	-3.0792	299.712	234.121	346.035	316.006	267.645	473.763	238.223	217.334	337.020	154.062	229.908	424.830	417.955	196.332	408.018	287.257	1.3594e-05	8.0294e-05	7.9866e-06	62.817	2.3282e-07	3.4702e-07	51.794	17.326	3.3517e-07	2.0461e-07	14.15	4.4465	5.7906	2.1522	2.0028e-07	1.7013	4.2639e-05	4.3253e-05	1.1942e-05	75.819	4.6831e-07	4.8054e-07	62.789	21.011	5.3903e-07	4.8348e-07	17.567	5.4676	7.0729	2.6519	5.2547e-07	2.1326	164.624	293.185	217.330	127.595	235.023	371.088	125.645	132.374	329.152	468.575	129.018	133.626	136.342	141.186	243.773	136.617	-8191	255	
32472.355	1	1	0	0	0.13584	0.17802	0.058717	0.18235	0.15415	0.20288	0.29104	0.13559	0.061193	0.062626	0.064542	0.10017	0.12984	0.13996	0.050078	0.152	-2.4958	-2.8312	-3.2062	-2.6479	-2.9417	-3.1229	-2.9313	-2.9771	-2.7521	-2.8854	-3.1	-2.6875	-3.0083	-3.0125	-2.7396	-3.0708	298.984	460.641	219.367	452.662	417.521	208.266	378.620	308.017	168.645	158.655	455.286	166.175	375.974	153.557	186.575	116.540	2.0529e-05	2.9719e-05	1.0322e-05	62.477	6.3622e-07	5.3667e-07	52.026	17.223	3.5733e-07	6.663e-07	14.187	4.3885	5.7943	2.1546	4.7567e-07	1.719	4.2781e-05	4.4191e-05	1.2275e-05	75.726	4.8585e-07	4.7828e-07	62.789	20.936	4.8974e-07	4.9777e-07	17.487	5.4391	7.0597	2.6511	5.5333e-07	2.121	183.499	360.291	275.524	127.294	266.523	433.208	125.507	132.345	256.370	385.072	129.096	133.575	135.784	140.769	136.209	137.090	-8191	255	
32472.451	1	1	0	0	0.21517	0.10108	0.02151	0.0483	0.19959	0.2626	0.017927	0.036013	0.30485	0.15528	0.026038	0.17109	0.15902	0.30779	0.10037	0.059139	-2.6312	-2.7938	-2.9938	-2.7188	-2.9188	-3.1521	-2.9458	-3.0146	-3.0062	-2.9104	-3.1021	-2.8667	-2.8292	-2.9792	-2.8354	-3.0396	251.149	256.848	215.524	193.187	423.493	271.290	337.758	400.422	178.398	251.633	324.520	158.001	318.880	130.972	353.169	197.403	2.3987e-05	7.9927e-05	2.2458e-05	62.545	6.0877e-07	6.1229e-07	51.804	17.35	1.6853e-07	4.6239e-07	14.223	4.4068	5.7391	2.1438	3.9769e-07	1.6992	4.2927e-05	4.448e-05	1.2154e-05	75.798	4.8124e-07	4.7924e-07	62.669	21.027	4.8363e-07	5.5284e-07	17.539	5.4511	7.0274	2.6391	5.2056e-07	2.122	192.206	144.964	119.859	127.243	172.144	204.891	125.760	132.727	306.202	392.105	128.700	133.846	136.164	140.875	229.063	136.485	-8191	255	
32472.570	1	1	0	0	0.047408	0.083189	0.28515	0.11505	0.1834	0.26705	0.041115	0.14684	0.1161	0.087442	0.098657	0.089527	0.17197	0.15048	0.10764	0.11533	-2.5521	-2.7062	-3.0479	-2.9104	-2.875	-3.0333	-2.8542	-3.0375	-2.9458	-2.8812	-3.1729	-2.9833	-2.9583	-3.0667	-2.6979	-3.0479	140.678	279.499	275.560	387.477	272.430	347.428	397.272	402.031	418.302	263.349	398.816	256.196	439.565	292.204	228.899	455.382	2.0847e-05	3.7643e-05	6.0528e-06	62.603	3.3064e-07	3.898e-07	51.509	17.33	5.6203e-07	5.451e-07	14.255	4.4242	5.7586	2.1574	4.0955e-07	1.6978	4.2805e-05	4.3792e-05	1.2036e-05	75.939	4.7592e-07	4.7982e-07	62.888	21.043	4.7775e-07	5.3035e-07	17.589	5.4715	7.0818	2.6597	5.4956e-07	2.1358	198.115	210.236	157.642	127.552	277.539	151.263	125.463	132.493	206.915	291.073	129.298	132.977	136.560	141.276	163.874	136.452	-8191	255	
32472.668	1	1	0	0	0.13538	0.2272	0.045999	0.093881	0.060188	0.099226	0.12036	0.23088	0.11598	0.12474	0.13994	0.20662	0.18153	0.31323	0.12976	0.2468	-2.55	-2.8438	-3.0646	-2.9917	-2.8479	-3.1937	-2.8479	-2.8958	-3.0563	-2.6917	-3.075	-3.0312	-2.7833	-3.2479	-2.8812	-2.9625	399.199	144.323	230.306	303.864	463.356	304.747	287.763	354.338	185.217	291.582	256.807	266.692	212.168	335.772	403.700	255.447	1.66e-05	9.7568e-06	7.9874e-06	62.973	5.1664e-07	5.1168e-07	52.118	17.267	7.4799e-07	6.9616e-07	14.179	4.4668	5.7797	2.16	5.4215e-07	1.7264	4.2927e-05	4.4353e-05	1.2112e-05	75.852	5.0144e-07	4.7943e-07	63.019	21.078	4.7581e-07	5.5232e-07	17.648	5.4865	7.0667	2.655	5.2686e-07	2.1318	182.653	190.283	214.703	127.327	225.603	208.406	125.506	132.064	269.238	380.664	128.943	133.205	136.377	140.277	139.548	136.747	-8191	255	
32472.764	1	1	0	0	0.087046	0.07851	0.35609	0.15219	0.13164	0.16876	0.12159	0.11426	0.1074	0.064401	0.21352	0.080483	0.2598	0.083474	0.072412	0.12976	-2.6729	-2.9125	-3.1146	-2.9333	-2.8021	-3.1729	-2.9021	-2.9646	-2.9542	-2.8563	-3.1521	-2.9333	-2.7042	-3.1396	-2.7729	-2.9104	172.621	408.612	340.473	353.918	204.374	218.885	123.159	383.987	128.811	304.378	303.859	273.516	401.869	296.990	123.221	293.694	2.0672e-05	3.7526e-05	1.2549e-05	62.643	1.0937e-06	3.7784e-07	52.27	17.303	6.5262e-07	5.8956e-07	14.418	4.3911	5.7293	2.1749	4.2041e-07	1.7042	4.326e-05	4.4519e-05	1.2069e-05	75.667	5.4469e-07	4.7335e-07	62.935	21.04	4.7742e-07	5.2411e-07	17.667	5.4806	7.0832	2.6645	5.4098e-07	2.1364	171.706	254.898	156.708	127.791	242.632	275.219	125.347	132.168	284.474	356.538	128.754	132.743	136.295	140.714	302.185	136.912	-8191	255	
32472.859	1	1	0	0	0.18667	0.084026	0.31421	0.14596	0.17627	0.061957	0.18242	0.038096	0.1307	0.14518	0.11197	0.075187	0.052183	0.10024	0.10361	0.041055	-2.8125	-2.6813	-2.9625	-2.9521	-2.8917	-3.2229	-2.9354	-2.8937	-3.0667	-2.9417	-3.0083	-2.8688	-2.7375	-2.9875	-2.9521	-2.8688	293.263	349.107	216.939	430.775	153.662	355.222	252.313	464.460	163.298	376.415	240.482	447.187	254.445	372.191	465.095	363.626	1.6089e-05	2.5177e-05	1.5363e-05	62.797	4.2489e-07	5.2423e-07	52.207	17.386	1.0503e-07	6.4063e-07	14.304	4.4583	5.7991	2.1836	5.7329e-07	1.6967	4.3016e-05	4.4327e-05	1.2106e-05	76.01	5.2477e-07	4.8619e-07	63.207	21.132	4.7363e-07	5.5016e-07	17.687	5.508	7.0986	2.6692	4.907e-07	2.1504	216.176	377.055	294.393	127.538	189.177	237.204	125.927	132.436	206.611	429.179	129.518	133.417	136.518	140.683	148.264	137.098	-8191	255	
32472.955	1	1	0	0	0.039651	0.17795	0.16339	0.30724	0.17202	0.11195	0.25729	0.34636	0.095588	0.24288	0.14359	0.20339	0.18418	0.17284	0.086919	0.16261	-2.8458	-2.7083	-2.9	-3.0729	-2.7604	-3.2354	-2.8875	-2.7604	-3.1667	-2.9	-2.9854	-2.8896	-2.7458	-3.1583	-3.1896	-2.9437	334.233	191.268	261.771	472.522	210.131	452.117	262.026	471.964	205.925	276.096	312.120	140.432	194.782	138.507	254.114	306.656	2.6743e-05	6.2337e-05	1.6246e-05	62.935	2.4371e-07	5.8239e-08	51.876	17.498	1.2638e-07	4.3707e-07	14.433	4.4307	5.8553	2.1799	4.5609e-07	1.7063	4.2882e-05	4.4721e-05	1.2205e-05	76.166	5.5571e-07	4.8494e-07	63.192	21.171	4.8254e-07	5.2387e-07	17.807	5.5287	7.1374	2.6646	4.8001e-07	2.1622	185.440	333.168	304.188	127.547	269.832	289.475	125.797	132.319	276.102	230.911	129.282	133.758	135.898	140.809	289.375	137.335	-8191	255	
32473.051	1	1	0	0	0.18872	0.23395	0.18487	0.097069	0.1772	0.49228	0.12502	0.09767	0.15311	0.16488	0.15194	0.2424	0.11826	0.22499	0.25491	0.073795	-2.7792	-2.8625	-2.9479	-3.0417	-2.9062	-3.2125	-3.0563	-2.875	-3.1104	-2.8875	-3.175	-2.9833	-2.6688	-3.0708	-3.0812	-2.9542	390.431	232.300	418.469	463.503	176.521	309.983	177.294	364.186	128.116	322.187	377.222	241.482	434.410	277.043	288.985	323.859	2.0357e-05	3.6648e-05	1.51e-06	62.983	8.2745e-07	5.0325e-07	52.024	17.523	2.7651e-07	5.5503e-07	14.471	4.4852	5.7922	2.1522	4.9503e-07	1.7133	4.3333e-05	4.4103e-05	1.2313e-05	76.027	5.3281e-07	4.8542e-07	63.1	21.151	4.7709e-07	5.3437e-07	17.758	5.5072	7.1114	2.6639	4.8545e-07	2.1477	179.662	180.194	132.989	126.963	269.809	123.079	125.717	132.614	293.662	210.982	128.889	132.514	136.043	140.899	320.046	137.059	-8191	255	
32473.172	1	1	0	0	0.10315	0.18298	0.249	0.077098	0.13005	0.14218	0.12018	0.28614	0.14715	0.1197	0.032546	0.24432	0.18065	0.033965	0.14664	0.12687	-2.6146	-2.8292	-2.925	-2.9875	-2.8354	-3.1625	-2.9958	-2.7854	-3.0875	-2.9625	-2.9167	-3.0812	-2.6583	-3.1083	-3.0083	-2.8146	210.149	197.134	401.157	142.351	125.036	117.934	401.524	358.625	336.840	328.821	367.326	326.373	115.668	277.592	302.951	197.726	1.7634e-05	3.6634e-05	1.3556e-05	62.534	1.8266e-07	5.0264e-07	52.213	17.357	1.4337e-07	1.4679e-07	14.294	4.4535	5.8036	2.1755	3.1417e-07	1.6963	4.3146e-05	4.4322e-05	1.2419e-05	75.878	5.4336e-07	4.8087e-07	63.005	21.085	4.743e-07	4.9816e-07	17.71	5.5015	7.1119	2.6646	4.8302e-07	2.1574	169.653	362.126	170.618	127.190	166.021	302.967	125.736	132.259	260.876	203.564	128.856	133.266	136.526	140.878	370.707	136.577	-8191	255	
32473.268	1	1	0	0	0.10755	0.10226	0.025347	0.14151	0.3321	0.26051	0.16274	0.19451	0.24365	0.22008	0.18479	0.2904	0.070413	0.17516	0.14258	0.17963	-2.7208	-2.9792	-2.8438	-3.1896	-2.8875	-3.0938	-3.0625	-2.7708	-2.9979	-2.8604	-2.7542	-3.0771	-2.7833	-2.8146	-3.0792	-2.8792	160.108	352.444	217.068	445.381	247.930	310.280	292.253	361.643	363.982	234.642	134.510	318.266	395.673	245.027	447.858	448.682	2.5185e-05	3.4794e-05	5.8376e-06	62.809	8.3013e-07	4.0126e-07	51.891	17.326	2.5322e-07	5.3245e-07	14.179	4.4396	5.7753	2.1814	1.8382e-07	1.7099	4.2444e-05	4.4086e-05	1.2275e-05	75.883	5.1655e-07	4.7895e-07	63.065	21.082	4.7742e-07	4.8655e-07	17.786	5.5053	7.1193	2.6708	4.8016e-07	2.1503	183.172	207.601	441.499	127.177	230.901	184.913	125.691	132.298	333.092	360.295	128.904	133.541	137.120	141.063	255.992	137.241	-8191	255	
32473.361	1	1	0	0	0.16356	0.072522	0.083477	0.12802	0.1723	0.041022	0.028749	0.32497	0.22993	0.13013	0.17358	0.12051	0.095577	0.1363	0.14815	0.17291	-2.7021	-2.8979	-2.7229	-3.1229	-2.9562	-2.8833	-3.1375	-2.6896	-3.0625	-2.9562	-2.7896	-3.0917	-2.9479	-2.8688	-3.2083	-2.9604	175.973	143.449	329.042	347.107	188.434	412.064	340.703	184.855	215.954	444.626	454.466	439.949	211.772	430.603	295.321	413.013	1.7152e-05	7.0807e-05	2.0256e-05	63.065	6.4968e-07	1.1683e-06	52.206	17.362	3.8923e-07	2.942e-07	14.508	4.4108	5.7553	2.1701	7.0757e-08	1.7111	4.2895e-05	4.4406e-05	1.2396e-05	76.082	5.2981e-07	4.8418e-07	63.025	21.117	4.7856e-07	4.8948e-07	17.801	5.5027	7.0941	2.6653	4.741e-07	2.1568	198.156	146.616	266.251	127.342	166.112	221.341	125.502	131.989	206.922	264.593	129.420	133.353	136.435	140.744	208.440	137.395	-8191	255	
32473.482	1	1	0	0	0.19472	0.16304	0.26096	0.22162	0.089896	0.1234	0.10026	0.053207	0.13896	0.074783	0.15311	0.29806	0.088517	0.12803	0.072223	0.28619	-2.6688	-2.8979	-2.7562	-3.1646	-2.8792	-3.0396	-3.1792	-2.8312	-3.1729	-3	-2.7583	-3.2854	-3.1875	-2.9021	-3.0062	-3.0187	453.021	379.170	208.108	173.413	287.706	188.172	268.148	295.565	318.540	121.966	419.941	355.708	303.506	266.505	118.679	451.856	1.3462e-05	4.6663e-05	2.4412e-05	62.274	7.0961e-07	3.9458e-07	51.803	17.434	4.7783e-07	5.8939e-07	14.103	4.4218	5.7639	2.173	6.7584e-07	1.6779	4.2895e-05	4.4392e-05	1.2634e-05	75.771	4.8561e-07	5.1316e-07	62.683	21.053	4.8259e-07	4.8852e-07	17.709	5.4652	7.0815	2.6611	4.7448e-07	2.1319	185.863	340.314	376.438	127.731	272.106	350.052	125.305	132.037	268.698	405.848	129.182	133.689	136.273	141.091	203.019	137.507	-8191	255	
32473.555	1	1	0	0	0.31628	0.31177	0.14168	0.12316	0.22809	0.11351	0.1361	0.074863	0.12284	0.23858	0.31032	0.17872	0.13947	0.14119	0.16506	0.10106	-2.5979	-3.2167	-2.8792	-3.1667	-2.9	-3.0438	-3.0875	-2.7729	-2.95	-3.1896	-2.7854	-2.9229	-2.8375	-2.7083	-3.1479	-2.7938	234.338	312.321	168.858	467.744	412.320	240.366	389.401	172.287	383.538	215.292	281.972	114.112	377.821	304.737	253.256	283.229	2.424e-05	6.3444e-05	3.3637e-05	62.731	7.1852e-08	4.8951e-07	52.052	17.349	4.0431e-07	2.6719e-07	14.286	4.428	5.7563	2.1495	1.1803e-07	1.6892	4.3243e-05	4.4024e-05	1.2421e-05	75.64	4.8357e-07	5.4919e-07	62.936	21.064	4.7861e-07	4.806e-07	17.704	5.4669	7.0623	2.6494	4.8035e-07	2.1444	173.810	161.830	218.264	127.732	141.048	241.843	125.433	131.955	236.942	205.791	129.662	133.426	135.961	140.640	354.623	136.806	-8191	255	
32473.650	1	1	0	0	0.21941	0.23502	0.17906	0.062261	0.14916	0.11032	0.17235	0.22832	0.32102	0.19183	0.071273	0.20036	0.05846	0.28194	0.15626	0.05122	-2.6792	-2.9958	-2.8917	-3.0271	-3.2125	-2.9417	-3.1354	-2.8167	-2.9625	-3.2687	-2.6979	-3.0167	-3.0458	-2.7354	-3.0729	-2.7979	258.205	167.930	355.116	174.791	289.490	176.306	405.898	144.101	396.884	226.912	279.545	399.809	265.390	239.791	345.439	324.388	2.1778e-05	7.6728e-05	4.1292e-06	62.717	4.0551e-07	5.5319e-07	51.922	17.338	1.1758e-07	5.7397e-07	14.468	4.3966	5.7945	2.1654	7.1176e-07	1.7083	4.4318e-05	4.3661e-05	1.2379e-05	75.621	4.8371e-07	5.2404e-07	62.861	21.026	4.8136e-07	4.7331e-07	17.806	5.452	7.0801	2.6567	4.7286e-07	2.134	163.268	225.081	470.242	127.423	177.836	139.692	125.761	132.395	405.224	301.760	129.760	133.528	136.361	141.127	310.760	137.229	-8191	255	
32473.746	1	1	0	0	0.10225	0.15057	0.17413	0.19291	0.10275	0.12359	0.1361	0.064926	0.18018	0.093773	0.37739	0.12314	0.1312	0.077259	0.2341	0.083216	-2.5271	-3.1458	-2.7729	-2.9417	-3.0563	-2.9021	-3.1042	-2.9896	-2.7833	-3.1479	-2.6333	-3.0187	-3.15	-2.7313	-3.0042	-2.7562	453.379	309.957	377.152	194.896	116.521	166.629	121.590	154.852	149.339	469.717	250.836	252.808	422.353	218.532	395.520	261.598	1.6405e-05	6.483e-05	5.663e-06	62.803	3.5517e-07	7.1515e-07	51.775	17.237	3.2493e-07	2.6678e-07	14.255	4.4394	5.7	2.1567	2.8596e-07	1.6784	4.5665e-05	4.3328e-05	1.2455e-05	75.782	4.7934e-07	5.5015e-07	62.817	21.033	4.8671e-07	4.7417e-07	17.641	5.4659	7.0343	2.65	4.7424e-07	2.1126	170.925	436.680	386.492	127.590	446.468	296.333	125.503	132.554	243.370	205.653	128.185	133.549	135.764	140.539	229.288	136.690	-8191	255	
32473.867	1	1	0	0	0.26307	0.20335	0.085746	0.13683	0.13718	0.11199	0.029651	0.27981	0.21867	0.095457	0.19503	0.2976	0.11723	0.22241	0.15827	0.16561	-2.3812	-3.1667	-2.9854	-2.7562	-3.0833	-2.7479	-2.9917	-2.9354	-2.8438	-3.2417	-2.8792	-2.7771	-3.1417	-2.7792	-3.0687	-2.7417	267.471	319.341	323.597	125.132	273.270	288.249	361.248	256.651	352.904	456.819	278.410	139.780	314.526	225.696	279.896	399.454	2.1989e-05	3.7524e-05	8.97e-06	62.648	2.0267e-07	1.1514e-07	51.613	17.182	2.0119e-07	3.0271e-07	14.101	4.3744	5.6919	2.1473	2.9298e-08	1.6914	4.8577e-05	4.3945e-05	1.2106e-05	75.582	4.801e-07	5.1728e-07	62.425	20.946	4.7534e-07	4.7993e-07	17.546	5.4311	7.0412	2.6481	4.6837e-07	2.1142	170.981	273.731	246.474	127.512	312.338	449.276	125.562	132.102	232.463	345.350	128.555	133.774	137.068	140.759	240.725	137.213	-8191	255	
32473.965	1	1	0	0	0.085727	0.10376	0.27032	0.10952	0.18889	0.035216	0.19806	0.16738	0.052135	0.16635	0.1416	0.21439	0.25436	0.11814	0.21152	0.18494	-2.2354	-3.0938	-2.9271	-2.7875	-3.0896	-2.7229	-3	-2.925	-2.7854	-3.1833	-2.8292	-2.7417	-3.0167	-2.7208	-3.1042	-2.9813	226.215	433.947	293.827	388.028	177.928	394.635	397.298	144.570	133.977	296.142	358.484	412.135	374.850	445.600	323.752	403.420	2.1601e-05	4.2845e-05	5.3021e-07	62.054	9.3439e-08	1.1201e-06	51.439	17.426	3.2374e-07	1.3344e-07	14.311	4.3976	5.7712	2.1656	5.696e-07	1.6863	4.6095e-05	4.3113e-05	1.2245e-05	75.432	4.8138e-07	5.4799e-07	62.411	20.997	4.8657e-07	4.6909e-07	17.56	5.453	7.057	2.6514	4.7396e-07	2.121	145.985	133.270	343.877	127.374	236.729	229.082	125.848	132.099	258.938	266.433	129.408	133.446	135.963	140.459	245.923	137.211	-8191	255	
32474.061	1	1	0	0	0.12121	0.13102	0.26397	0.16655	0.14276	0.33289	0.26902	0.050861	0.29243	0.077674	0.31344	0.064247	0.094073	0.13112	0.046464	0.015485	-2.35	-2.9958	-2.8708	-2.7729	-3.2854	-2.8104	-2.9125	-2.9479	-2.6333	-3.175	-2.7771	-2.8271	-2.9229	-2.7313	-3.0229	-3.1354	362.472	301.045	464.363	376.593	283.537	363.065	318.152	189.753	255.908	275.083	174.045	173.717	471.299	180.007	343.362	454.897	1.3499e-05	4.8484e-05	1.5719e-05	62.306	1.0769e-06	1.458e-06	51.713	17.375	3.837e-07	6.9984e-07	14.198	4.4076	5.8148	2.1601	1.3568e-07	1.6901	4.7263e-05	4.2903e-05	1.1971e-05	75.312	4.7212e-07	5.0717e-07	62.723	21.014	4.752e-07	4.7139e-07	17.495	5.4871	7.0658	2.6565	4.6995e-07	2.1283	163.920	239.492	186.595	126.837	169.869	266.854	125.562	132.298	336.497	279.402	128.653	134.110	136.509	141.227	259.367	137.289	-8191	255	
32474.133	1	1	0	0	0.090723	0.050519	0.11841	0.23772	0.32695	0.12335	0.24061	0.036942	0.27502	0.22464	0.11047	0.22736	0.07624	0.1095	0.14773	0.14237	-2.3833	-2.9896	-2.8875	-2.8187	-3.1646	-2.8396	-3.0667	-2.9708	-2.6375	-3.2062	-3.0396	-2.7021	-3.0708	-2.9229	-2.9562	-3.1188	134.246	211.768	285.822	257.587	267.101	340.384	147.430	147.421	339.078	441.575	172.726	410.721	284.038	404.364	437.444	443.598	2.0873e-05	2.6575e-05	1.4694e-05	62.387	2.2614e-07	9.3178e-07	51.176	17.255	1.4507e-07	2.2828e-07	14.049	4.3924	5.7799	2.1857	6.1561e-07	1.6964	4.4849e-05	4.2745e-05	1.1868e-05	75.397	4.5905e-07	5.0334e-07	62.371	20.954	4.7098e-07	4.6055e-07	17.454	5.4618	7.0708	2.6693	4.6065e-07	2.121	195.536	259.692	460.895	127.264	287.023	302.088	125.238	132.576	124.945	215.238	128.710	133.608	136.531	140.927	291.663	137.162	-8191	255	
32474.252	1	1	0	0	0.068653	0.17852	0.069699	0.24797	0.30022	0.22127	0.24915	0.18877	0.14254	0.27136	0.10155	0.19436	0.093074	0.23716	0.030357	0.19676	-2.55	-2.9479	-2.8771	-2.9042	-3.1958	-2.9583	-2.9021	-3.1458	-2.6896	-2.9646	-3.0375	-2.9208	-2.9792	-2.9708	-2.75	-3.1042	357.283	374.018	156.665	378.382	224.116	380.191	385.891	145.399	246.373	292.787	380.274	362.557	348.153	412.810	405.614	260.010	1.5832e-05	6.2839e-05	7.691e-06	62.56	1.4441e-07	3.7437e-07	51.581	17.271	5.3706e-07	3.4263e-07	14.15	4.4064	5.7883	2.1708	4.086e-07	1.7045	4.6853e-05	4.2605e-05	1.1636e-05	75.444	4.5553e-07	4.5725e-07	62.62	21.024	4.6747e-07	4.6468e-07	17.528	5.4962	7.0675	2.668	4.69e-07	2.1317	178.992	439.213	431.667	127.594	187.966	352.543	125.754	132.364	279.811	133.015	128.542	132.958	136.605	140.435	338.329	136.416	-8191	255	
32474.348	1	1	0	0	0.063586	0.11423	0.029274	0.21312	0.21957	0.31272	0.1351	0.17283	0.24947	0.18278	0.36253	0.16543	0.16024	0.12641	0.21212	0.12773	-2.3292	-2.9313	-2.95	-2.8063	-3.1125	-2.9958	-2.8438	-2.9292	-2.8104	-2.9188	-3.0542	-2.8958	-3.0125	-2.9979	-2.8292	-3.1958	374.059	308.677	143.452	432.832	218.787	192.427	446.603	257.984	367.437	461.763	145.197	305.025	331.487	308.899	335.165	145.550	2.6583e-05	3.2631e-05	1.6619e-05	62.817	2.4125e-07	5.588e-07	51.862	17.394	2.8331e-07	5.4609e-07	14.375	4.4371	5.7764	2.1646	3.7338e-07	1.7207	4.5263e-05	4.2351e-05	1.1768e-05	75.579	4.5976e-07	4.6209e-07	62.845	21.052	4.6577e-07	4.6674e-07	17.616	5.4765	7.0714	2.6598	4.7066e-07	2.1309	178.449	417.367	227.144	127.552	408.114	378.139	126.073	132.260	201.325	203.229	129.344	133.677	136.725	140.701	228.467	136.619	-8191	255	
32474.445	1	1	0	0	0.16032	0.24874	0.083452	0.19971	0.22628	0.32686	0.091416	0.22614	0.15	0.2008	0.25684	0.1444	0.056605	0.066999	0.17409	0.094842	-2.4583	-2.9	-2.8771	-2.7583	-3.075	-2.9625	-2.7854	-3.0292	-2.9792	-2.9562	-3.0708	-2.7	-3.2	-3.0229	-2.9188	-3.1958	259.335	131.121	287.599	367.777	161.965	140.425	453.513	307.941	296.055	224.090	358.109	428.586	224.379	415.717	260.614	251.027	2.1888e-05	3.5086e-05	3.2704e-06	63.15	2.5324e-07	1.5014e-07	51.614	17.54	4.7969e-07	6.9311e-07	14.128	4.4098	5.7802	2.1737	3.2716e-07	1.6775	4.5409e-05	4.4524e-05	1.1968e-05	75.645	4.6561e-07	4.6041e-07	62.824	21.052	4.6652e-07	4.6257e-07	17.514	5.495	7.0704	2.6658	4.7004e-07	2.1192	193.102	189.862	217.615	127.676	297.400	348.531	125.704	132.367	154.642	214.863	129.059	133.229	136.337	141.239	141.876	136.801	-8191	255	
32474.562	1	1	0	0	0.061792	0.029137	0.15961	0.13061	0.20546	0.18333	0.13822	0.16874	0.12652	0.074449	0.1552	0.16701	0.10373	0.14019	0.16557	0.077603	-2.3896	-2.7979	-3.1604	-2.9167	-2.9479	-3.0563	-2.8229	-3.0812	-2.8729	-2.9083	-3.0812	-2.7167	-2.9437	-2.9833	-2.6437	-2.8771	321.386	214.200	139.363	347.806	150.936	397.211	142.663	411.540	435.547	346.003	208.168	261.895	330.147	429.298	392.321	184.265	1.5641e-05	5.4847e-05	2.8728e-05	62.746	2.6649e-07	3.4835e-07	51.129	17.301	1.8008e-07	4.0465e-07	14.17	4.4075	5.7238	2.186	6.6682e-07	1.7038	4.1978e-05	4.579e-05	1.158e-05	75.398	4.6808e-07	4.6228e-07	62.515	20.976	4.6283e-07	4.6837e-07	17.466	5.4706	7.0869	2.6734	4.7004e-07	2.1368	188.305	381.076	181.462	127.650	214.072	217.215	125.846	132.277	350.658	210.919	128.393	133.302	136.534	140.571	460.910	137.394	-8191	255	
32474.660	1	1	0	0	0.14705	0.11007	0.12575	0.12755	0.33857	0.12304	0.2157	0.21067	0.033566	0.17784	0.26465	0.058479	0.34059	0.1934	0.085428	0.15209	-2.3937	-2.6063	-3.0771	-2.7354	-3.0583	-2.9562	-2.7458	-3.0062	-3.0667	-2.6958	-2.9917	-2.8688	-2.85	-3.0062	-2.6854	-2.9979	162.245	387.636	327.239	244.817	331.684	430.605	123.836	251.723	463.888	349.537	194.596	247.988	211.087	168.923	355.139	431.252	2.2557e-05	8.2167e-05	1.1385e-05	62.723	4.0937e-07	4.3855e-07	51.959	17.398	1.1979e-07	3.4943e-07	14.288	4.4001	5.8298	2.1903	2.4588e-07	1.7203	4.1698e-05	4.802e-05	1.1643e-05	75.617	4.58e-07	4.6391e-07	62.798	21.045	4.5965e-07	4.6962e-07	17.558	5.4969	7.1283	2.6825	4.6947e-07	2.1477	195.142	122.900	321.407	126.909	210.479	236.844	125.255	132.561	217.252	286.776	129.063	133.703	136.077	140.834	162.485	136.530	-8191	255	
32474.756	1	1	0	0	0.34162	0.10189	0.25313	0.13082	0.074809	0.11236	0.16282	0.11097	0.236	0.12054	0.20953	0.21329	0.16651	0.02039	0.11115	0.068283	-2.5583	-2.8333	-3.0729	-2.9875	-3.0229	-3.1729	-2.7729	-2.9521	-2.8833	-2.9	-3.025	-2.8937	-2.8708	-2.9771	-2.8563	-2.9979	204.781	154.034	396.246	415.360	355.529	300.362	335.576	135.051	354.087	180.037	168.404	121.345	215.484	186.809	283.414	423.740	2.3894e-05	8.0466e-05	7.9597e-06	62.317	4.713e-07	1.1878e-06	52.118	17.568	5.5492e-07	1.7109e-07	14.291	4.4367	5.7962	2.185	7.1961e-07	1.7309	4.1288e-05	4.5878e-05	1.1636e-05	75.633	4.724e-07	4.641e-07	63.142	21.129	4.6349e-07	4.6664e-07	17.64	5.5031	7.1356	2.6816	4.6985e-07	2.156	172.307	120.184	134.952	127.107	251.345	230.633	125.651	132.357	207.506	182.558	128.780	133.436	135.970	140.894	244.786	137.666	-8191	255	
32474.852	1	1	0	0	0.050195	0.081896	0.05432	0.096624	0.2254	0.17496	0.13797	0.15411	0.25427	0.20551	0.013888	0.13799	0.15563	0.14668	0.18551	0.059859	-2.5812	-2.6125	-3.1396	-2.8292	-2.7604	-3.1083	-2.8417	-3.0292	-3.0896	-2.7646	-3.0208	-2.9688	-2.775	-3.0354	-2.8	-3.1208	450.089	375.048	326.090	436.832	387.340	210.130	459.239	187.020	400.113	260.545	369.494	376.229	446.341	172.384	202.881	460.278	1.6844e-05	7.9175e-06	1.8546e-05	63.043	3.588e-07	3.3627e-07	51.631	17.444	4.488e-07	4.7317e-07	14.248	4.41	5.8056	2.1804	3.5482e-07	1.6844	4.1901e-05	4.9431e-05	1.1853e-05	75.969	4.7126e-07	4.699e-07	63.032	21.115	4.6671e-07	4.8674e-07	17.617	5.4874	7.1636	2.679	4.7772e-07	2.142	208.584	201.024	159.503	127.502	200.818	282.531	125.516	132.354	282.409	314.511	128.821	133.216	136.446	140.652	225.009	136.991	-8191	255	
32474.947	1	1	0	0	0.1656	0.17606	0.47065	0.10549	0.1884	0.28918	0.1615	0.12107	0.19703	0.053078	0.052531	0.24853	0.1709	0.18458	0.064264	0.28033	-2.6104	-2.8146	-2.9813	-2.9188	-2.6875	-2.9437	-2.8208	-2.8479	-2.9792	-2.6792	-2.9833	-2.8917	-2.7354	-3.1688	-2.7875	-2.9667	203.686	189.275	286.391	320.610	399.330	273.460	143.134	263.900	286.878	341.155	235.487	332.597	446.356	424.076	440.342	124.570	2.4193e-05	8.3296e-05	9.9571e-06	62.744	6.7413e-07	4.171e-07	51.945	17.379	2.3738e-07	6.2871e-07	14.372	4.4171	5.8027	2.1877	1.1437e-07	1.75	4.1868e-05	4.6649e-05	1.1746e-05	75.882	4.7468e-07	4.7474e-07	63.067	21.172	4.6027e-07	4.6981e-07	17.634	5.5099	7.1462	2.6827	4.7043e-07	2.1564	179.427	228.894	140.957	127.392	312.519	175.182	125.499	132.273	294.574	237.473	129.710	133.190	136.064	140.163	427.022	137.173	-8191	255	
32475.045	1	1	0	0	0.16348	0.14341	0.084222	0.29698	0.18739	0.20945	0.15411	0.07921	0.32583	0.18915	0.040617	0.17872	0.14827	0.10358	0.25043	0.044527	-2.7188	-2.7729	-2.825	-2.9354	-3.0021	-3.2292	-2.9104	-2.7479	-3.0646	-2.8021	-2.9542	-3.0042	-2.8312	-2.9729	-2.9813	-2.9042	450.317	136.015	429.599	411.640	468.025	310.307	121.989	462.967	175.471	326.241	299.027	374.201	374.354	225.099	289.887	204.692	1.4438e-05	4.7149e-05	2.2272e-05	62.993	2.3798e-07	2.5706e-07	52.169	17.471	3.8043e-07	2.9649e-07	14.408	4.4899	5.8335	2.1891	4.3335e-07	1.7358	4.2375e-05	4.9405e-05	1.1909e-05	75.964	4.7487e-07	4.641e-07	63.093	21.259	4.6482e-07	4.7086e-07	17.769	5.5365	7.1942	2.6975	4.6885e-07	2.1671	174.797	180.561	213.413	127.395	470.669	316.431	125.592	132.741	261.798	372.335	129.126	133.176	136.490	141.093	323.370	136.765	-8191	255	
32475.164	1	1	0	0	0.33569	0.029739	0.013305	0.033267	0.17524	0.028675	0.22551	0.21974	0.28415	0.13562	0.18464	0.23578	0.36941	0.10586	0.14176	0.10064	-2.7438	-2.7917	-3.0167	-3.0271	-2.7062	-3.1	-2.7875	-2.7979	-3.1333	-2.9604	-2.8479	-3	-2.5542	-3.0479	-2.8271	-2.8042	180.330	354.118	120.923	340.914	354.885	150.380	458.735	146.409	187.508	335.220	242.825	259.884	167.158	217.932	468.602	430.312	2.6538e-05	3.9203e-05	2.8016e-05	62.743	4.2314e-07	4.8153e-07	51.928	17.649	1.7044e-07	3.1053e-07	14.402	4.4725	5.8305	2.1927	4.401e-07	1.721	4.1641e-05	4.6215e-05	1.1959e-05	76.039	4.7359e-07	4.7086e-07	63.135	21.318	4.6202e-07	4.7278e-07	17.788	5.522	7.1623	2.6978	4.7224e-07	2.1541	181.488	283.476	277.739	127.628	226.317	400.247	125.933	132.015	185.456	236.190	129.305	133.735	136.885	140.295	266.655	137.181	-8191	255	
32475.260	1	1	0	0	0.1222	0.24383	0.090104	0.065752	0.065995	0.17811	0.25678	0.069362	0.16677	0.10871	0.30361	0.29742	0.095485	0.15678	0.35917	0.22402	-2.6708	-2.7812	-2.9146	-2.9625	-2.7604	-3.1146	-3.1146	-2.7125	-3.1729	-3.0187	-2.8854	-3.2562	-2.8958	-2.9833	-2.9	-2.8479	220.824	116.575	471.467	244.786	211.856	268.226	186.630	416.322	380.750	121.355	273.281	374.582	148.722	376.770	245.904	383.291	2.128e-05	1.4693e-05	8.1023e-06	63.223	3.9005e-07	1.2361e-07	52.213	17.552	3.7515e-07	4.4216e-07	14.278	4.5011	5.8128	2.188	4.4818e-07	1.7354	4.1426e-05	4.5589e-05	1.266e-05	76.15	4.7373e-07	4.6818e-07	63.02	21.264	4.6984e-07	4.7307e-07	17.633	5.5209	7.182	2.6919	4.6866e-07	2.1506	193.723	167.290	170.763	127.865	199.369	198.947	125.763	132.210	198.836	251.064	129.270	133.579	135.799	140.859	248.075	136.440	-8191	255	
32475.355	1	1	0	0	0.28838	0.12015	0.10928	0.21389	0.046419	0.074232	0.17383	0.17345	0.039101	0.319	0.12384	0.088818	0.17814	0.057739	0.077491	0.091653	-2.7396	-2.7417	-2.8979	-3.0854	-2.9354	-2.9854	-3.1417	-2.875	-3.075	-3.0167	-2.9333	-3.1688	-2.6479	-3.0187	-2.9729	-2.7188	340.980	268.661	338.496	272.588	261.217	287.076	261.809	122.994	247.354	128.640	341.193	311.607	294.339	242.036	195.470	136.524	2.677e-05	3.247e-05	1.6864e-05	63.081	1.6533e-07	3.3733e-07	52.192	17.449	1.6021e-07	2.076e-07	14.243	4.4405	5.7849	2.191	3.5877e-07	1.7151	4.1909e-05	4.2841e-05	1.2969e-05	76.009	4.7763e-07	4.7057e-07	63.142	21.253	4.6155e-07	4.6659e-07	17.639	5.4991	7.1655	2.6846	4.7343e-07	2.1516	180.091	236.397	134.565	127.871	144.951	216.492	125.610	132.578	192.491	294.856	129.211	133.183	136.286	141.115	279.504	136.800	-8191	255	
32475.430	1	1	0	0	0.13113	0.0597	0.31416	0.13425	0.18067	0.33244	0.24232	0.11711	0.16312	0.18241	0.16496	0.21112	0.23539	0.17021	0.13201	0.14381	-2.6188	-2.8125	-2.6146	-2.9188	-2.9625	-2.9271	-3.0729	-2.8458	-2.9292	-3.0375	-2.8312	-3.1396	-2.7958	-2.9313	-3.2458	-2.6958	194.934	451.696	319.040	171.666	307.180	367.564	390.723	318.277	463.002	458.759	219.537	343.149	420.714	334.837	322.176	122.169	1.6564e-05	7.4179e-05	3.0049e-05	63.063	7.2405e-07	6.7681e-07	51.72	17.369	2.485e-07	7.8371e-07	14.327	4.4812	5.8431	2.2074	1.3052e-07	1.7379	4.1718e-05	4.2513e-05	1.375e-05	76.113	4.7782e-07	4.7886e-07	63.062	21.204	4.7188e-07	4.699e-07	17.711	5.5336	7.1637	2.6954	4.7386e-07	2.1601	172.886	173.042	225.742	127.626	218.215	462.131	126.070	132.097	212.825	396.561	128.936	133.832	136.173	140.782	255.215	137.120	-8191	255	
32475.549	1	1	0	0	0.26506	0.034389	0.12184	0.086411	0.13367	0.056258	0.12651	0.12017	0.33021	0.18128	0.091329	0.18018	0.085993	0.10978	0.056017	0.27334	-2.6583	-2.7375	-2.6479	-2.8354	-2.8292	-2.9104	-3.1271	-2.7729	-3.0083	-3.0354	-2.7417	-3.0292	-2.8146	-2.8167	-2.9292	-2.7625	147.799	273.286	170.306	387.207	373.651	156.399	431.938	158.232	429.765	207.158	189.318	149.328	313.273	174.978	118.338	293.061	1.8498e-05	0.00010793	1.9772e-05	63.012	4.5268e-07	4.4115e-07	52.071	17.438	4.6036e-07	4.324e-07	14.325	4.4471	5.7917	2.2017	2.9749e-08	1.709	4.2598e-05	4.3301e-05	1.3029e-05	76.014	4.7259e-07	4.7584e-07	63.156	21.233	4.7387e-07	4.6448e-07	17.606	5.5161	7.1086	2.6932	4.7701e-07	2.1369	187.711	234.378	209.724	127.741	266.027	157.919	125.704	132.265	273.833	293.428	129.094	133.175	136.674	141.024	318.057	137.152	-8191	255	
32475.645	1	1	0	0	0.1518	0.13845	0.2321	0.22059	0.21126	0.049852	0.13995	0.13559	0.077346	0.33268	0.060714	0.14532	0.22217	0.1957	0.11004	0.2514	-2.5729	-2.9896	-2.5687	-2.8646	-3.0812	-2.9167	-3.0792	-2.7062	-3.1729	-3.0083	-2.8417	-3.1542	-2.8896	-2.6979	-3.1625	-3.0604	448.214	308.303	279.873	285.119	221.159	469.570	379.349	321.480	311.785	261.492	312.476	471.579	221.335	288.106	459.402	423.783	1.4766e-05	1.2362e-05	1.2654e-05	62.741	7.4853e-07	1.1189e-06	51.799	17.357	1.6097e-07	4.4724e-07	14.325	4.4069	5.7517	2.1991	3.8307e-07	1.6985	4.2566e-05	4.3047e-05	1.3602e-05	75.724	4.7473e-07	4.8767e-07	62.817	21.148	4.6359e-07	4.5777e-07	17.627	5.487	7.0928	2.69	4.6561e-07	2.1355	208.111	257.125	231.342	127.571	345.090	463.122	125.681	131.934	275.074	261.623	129.338	133.717	136.974	140.753	156.985	136.838	-8191	255	
32475.740	1	1	0	0	0.26424	0.12432	0.27354	0.046526	0.18148	0.11756	0.052536	0.17798	0.13693	0.20402	0.24727	0.038124	0.08203	0.047968	0.15399	0.2101	-2.5896	-3.15	-2.7229	-3.0229	-2.9625	-2.75	-2.9667	-3.0583	-3.0271	-2.9667	-2.8083	-3.0438	-3.0479	-2.6083	-3.2229	-2.9333	162.253	204.121	416.051	289.323	233.669	355.804	182.037	154.654	272.631	453.547	195.227	346.602	132.049	419.029	339.497	150.173	1.5657e-05	3.4847e-05	2.0236e-05	62.681	3.2853e-07	1.1053e-06	52.062	17.435	6.3411e-07	6.051e-07	14.365	4.399	5.8019	2.1848	3.3851e-07	1.6928	4.2164e-05	4.2736e-05	1.3025e-05	75.754	4.7525e-07	4.7503e-07	62.985	21.142	4.9657e-07	4.7437e-07	17.654	5.4747	7.1189	2.6841	4.6995e-07	2.1332	162.330	424.244	238.957	127.400	233.060	221.613	125.484	132.473	184.682	188.730	129.692	133.621	136.213	140.864	292.709	137.121	-8191	255	
32475.836	1	1	0	0	0.19469	0.23383	0.27576	0.038882	0.13167	0.10229	0.2373	0.14701	0.11749	0.20186	0.21081	0.17335	0.16989	0.090671	0.14983	0.22615	-2.4875	-3.0583	-2.6667	-3.0583	-2.9292	-2.6771	-3.1729	-2.7646	-2.7938	-3.3167	-2.7562	-3.1937	-3.1167	-2.8312	-3.125	-2.7521	200.574	303.499	468.444	142.511	415.701	414.449	205.396	301.562	401.070	301.522	321.977	322.191	452.116	396.757	330.988	453.759	1.837e-05	4.103e-05	1.6017e-05	62.476	7.8086e-07	7.6316e-07	51.749	17.37	4.3539e-07	3.1595e-07	14.469	4.4401	5.8382	2.1823	5.8358e-07	1.705	4.2631e-05	4.2815e-05	1.3681e-05	75.885	4.7373e-07	4.8255e-07	62.931	21.142	5.1168e-07	4.724e-07	17.689	5.4818	7.1089	2.6843	4.6952e-07	2.1273	190.681	409.933	222.649	127.685	247.979	177.723	125.568	132.093	318.178	260.707	129.012	133.563	136.068	141.133	164.668	137.098	-8191	255	
32475.932	1	1	0	0	0.17589	0.15791	0.028298	0.14518	0.064724	0.11404	0.010676	0.10797	0.089228	0.29516	0.21178	0.08715	0.063093	0.25706	0.43639	0.11826	-2.4021	-3.2188	-2.7062	-2.8937	-3.0958	-2.6083	-3.1125	-2.8979	-2.8458	-3.0229	-2.7021	-2.8937	-3.0417	-2.65	-3.0312	-2.8917	229.808	142.451	182.067	228.574	386.990	346.331	209.967	327.388	428.886	379.100	304.845	376.009	380.462	323.464	309.853	165.046	1.4953e-05	2.7909e-05	9.9151e-06	63.102	5.2844e-08	4.3553e-07	51.842	17.396	7.4016e-07	5.6813e-07	14.127	4.3732	5.777	2.1685	2.3786e-07	1.687	4.2878e-05	4.2649e-05	1.2686e-05	75.831	4.7055e-07	4.7728e-07	62.82	21.088	5.3846e-07	4.6607e-07	17.498	5.4527	7.0856	2.6675	4.7386e-07	2.1219	188.462	230.120	251.067	127.365	304.765	409.205	125.462	132.151	338.546	290.690	128.988	133.284	136.376	140.516	455.610	137.162	-8191	255	
32476.027	1	1	0	0	0.22338	0.14891	0.19175	0.10085	0.15132	0.25432	0.13246	0.055996	0.24084	0.10801	0.20404	0.081415	0.095243	0.23177	0.1136	0.060208	-2.1208	-3.0854	-2.6917	-2.7125	-3.0812	-2.5854	-2.9917	-2.925	-2.7146	-3.0438	-2.9229	-2.8854	-2.9729	-2.7146	-3.1063	-2.9083	348.354	445.098	342.072	416.169	291.533	308.349	247.626	279.692	428.928	346.655	422.123	322.271	417.058	318.880	377.395	333.962	2.572e-05	9.1646e-05	1.7808e-06	62.597	2.6608e-07	1.5769e-07	51.803	17.318	4.3586e-07	2.7473e-07	14.289	4.4181	5.7463	2.1552	4.6511e-07	1.6973	4.3714e-05	4.3315e-05	1.2714e-05	75.823	4.7478e-07	4.8015e-07	62.73	21.056	5.1623e-07	4.7432e-07	17.577	5.4515	7.0682	2.6656	4.7047e-07	2.1177	175.591	470.651	145.209	127.567	419.281	403.351	125.325	132.647	259.863	361.618	129.080	133.770	136.209	141.456	301.923	137.236	-8191	255	
32476.125	1	1	0	0	0.16078	0.16854	0.074971	0.13436	0.074439	0.20136	0.089753	0.12179	0.30696	0.087784	0.048482	0.30794	0.32368	0.10685	0.075206	0.12892	-2.2208	-3.1688	-2.8917	-2.7229	-3.0479	-2.8104	-2.9625	-2.8979	-2.5833	-3.0479	-2.9125	-2.8563	-3.1104	-2.8104	-2.9188	-3.1271	254.130	328.424	150.326	161.081	198.866	152.110	378.401	176.892	442.906	385.003	199.981	155.003	412.623	145.135	120.258	320.496	2.0923e-05	6.9792e-05	1.7625e-05	62.842	3.5807e-07	3.2204e-07	51.63	17.363	2.5968e-07	1.3166e-07	14.386	4.4226	5.7466	2.1572	5.1335e-07	1.6931	4.3483e-05	4.3705e-05	1.2185e-05	76.003	4.8086e-07	4.7915e-07	62.867	21.035	5.4594e-07	4.7705e-07	17.617	5.4414	7.0803	2.6542	4.7792e-07	2.1223	185.986	298.983	161.666	127.853	279.602	431.089	125.655	132.199	139.886	471.095	128.448	134.028	136.600	141.035	251.413	137.283	-8191	255	
32476.244	1	1	0	0	0.097468	0.023633	0.091414	0.043758	0.17455	0.13675	0.060182	0.16503	0.2838	0.11047	0.036646	0.033822	0.26712	0.2581	0.11449	0.34394	-2.4437	-3.0583	-2.9417	-2.7625	-3.0375	-2.6354	-2.6875	-2.9813	-2.7188	-3.0708	-2.8604	-2.7875	-2.9375	-2.8063	-2.9313	-3.1104	366.363	410.674	455.095	210.755	314.550	283.454	161.312	357.781	141.741	369.103	407.597	319.371	181.340	181.441	294.818	217.379	2.3584e-05	3.9571e-05	9.1184e-06	62.509	5.6814e-07	2.6328e-07	51.81	17.318	2.7129e-07	2.5306e-07	14.106	4.3849	5.7667	2.1466	2.6823e-07	1.6853	4.3223e-05	4.3827e-05	1.2297e-05	75.952	4.7635e-07	4.7848e-07	62.913	21.078	5.2552e-07	4.8204e-07	17.564	5.4446	7.0686	2.6487	5.2399e-07	2.1096	168.725	236.347	181.724	127.267	357.921	161.857	125.432	132.169	354.072	219.731	129.049	134.213	136.636	140.398	185.177	136.674	-8191	255	
32476.340	1	1	0	0	0.23333	0.12219	0.31316	0.10233	0.066065	0.30739	0.12821	0.10388	0.19288	0.074336	0.1356	0.16315	0.17014	0.066127	0.11115	0.19464	-2.4437	-3.0292	-2.85	-2.7562	-2.9729	-2.8833	-2.8646	-3.0146	-2.8333	-2.9979	-2.9979	-2.6083	-3.1042	-2.8604	-2.9146	-3.1729	398.673	288.206	295.609	323.224	157.720	137.629	287.338	194.862	205.793	372.885	216.242	457.656	213.180	189.491	128.233	163.503	2.4211e-05	2.9932e-05	1.2545e-05	62.545	2.2107e-07	3.4334e-07	51.977	17.432	1.8698e-07	3.2486e-07	14.245	4.3529	5.7814	2.1492	2.9759e-07	1.6894	4.3949e-05	4.4073e-05	1.2135e-05	75.702	4.7088e-07	4.8595e-07	62.952	21.062	5.4239e-07	4.8924e-07	17.599	5.4568	7.0657	2.6521	5.3005e-07	2.1154	178.819	408.130	471.914	127.280	210.695	171.368	125.708	132.179	173.917	315.738	129.268	133.995	136.532	140.690	172.107	136.676	-8191	255	
32476.436	1	1	0	0	0.21839	0.14768	0.13931	0.18442	0.05098	0.1462	0.072188	0.16891	0.12014	0.18039	0.14312	0.25566	0.23974	0.30364	0.10338	0.070138	-2.5083	-2.8083	-2.8667	-2.6792	-2.9396	-3.025	-2.9	-3.2271	-2.8333	-2.8625	-3.1292	-2.5792	-2.9625	-2.8354	-2.8021	-3.15	213.133	271.352	450.199	173.154	329.445	208.289	191.927	410.309	338.719	260.733	384.271	177.317	464.760	392.080	471.526	226.720	2.0501e-05	5.1767e-05	1.6395e-05	62.736	2.3082e-07	1.8687e-07	51.686	17.409	3.985e-07	5.5485e-07	14.059	4.4038	5.8049	2.1556	4.6476e-07	1.6926	4.4237e-05	4.4511e-05	1.2379e-05	76.042	4.82e-07	4.8657e-07	62.777	21.03	5.1472e-07	4.854e-07	17.502	5.4379	7.0693	2.6523	5.5242e-07	2.1126	183.273	220.061	224.797	127.646	290.652	246.983	125.368	132.675	440.749	234.848	128.911	133.782	136.720	140.493	202.788	137.001	-8191	255	
32476.531	1	1	0	0	0.24384	0.042535	0.13703	0.054192	0.32966	0.11292	0.22084	0.18167	0.20509	0.17239	0.054977	0.03666	0.25539	0.36776	0.15394	0.16958	-2.475	-2.7896	-3.0458	-2.7771	-2.9688	-2.9354	-2.6208	-3.0708	-2.7104	-3.0146	-3.1792	-2.6417	-3.0042	-2.8417	-2.7333	-3.15	151.981	443.115	314.475	403.231	127.432	131.108	445.481	152.515	135.398	466.580	342.303	117.003	202.688	451.317	174.827	242.292	2.0059e-05	5.0841e-05	2.1661e-05	62.94	5.2869e-07	1.3037e-06	52.317	17.364	2.1949e-07	1.0002e-06	14.174	4.4152	5.7264	2.16	5.3685e-07	1.6945	4.3093e-05	4.4392e-05	1.2274e-05	76.049	4.8671e-07	4.9079e-07	62.957	21.065	5.0481e-07	5.1989e-07	17.555	5.4624	7.0731	2.6483	5.2824e-07	2.1198	197.419	186.397	264.359	127.234	367.899	224.636	125.719	132.455	452.826	230.486	129.736	133.470	135.690	140.118	207.812	136.168	-8191	255	
32476.652	1	1	0	0	0.14653	0.15023	0.11183	0.2168	0.27043	0.096054	0.30282	0.2038	0.23164	0.10618	0.060283	0.185	0.27603	0.20513	0.18804	0.072435	-2.475	-2.7979	-3.1646	-2.5458	-3.0938	-2.8583	-2.8479	-3.0604	-2.7771	-2.7188	-3.1417	-2.6604	-2.9437	-2.9146	-2.6229	-3.2104	213.920	321.378	301.113	382.898	297.005	244.578	447.458	284.602	342.908	256.328	179.345	335.145	382.409	372.873	135.329	252.461	1.8155e-05	2.4807e-05	8.2584e-06	62.628	4.7081e-07	9.0181e-07	51.722	17.291	4.2703e-07	3.0665e-07	14.237	4.3698	5.7614	2.1401	4.6041e-07	1.6834	4.3917e-05	4.3705e-05	1.2106e-05	75.978	4.81e-07	4.8063e-07	62.927	21.013	4.7993e-07	5.1979e-07	17.522	5.4264	7.0524	2.6378	5.4126e-07	2.107	193.244	220.144	331.567	127.393	129.787	280.897	125.732	132.454	233.567	304.519	128.997	133.859	136.924	140.655	215.798	136.679	-8191	255	
32476.725	1	1	0	0	0.032344	0.092508	0.043887	0.13608	0.11308	0.15512	0.024955	0.033189	0.1055	0.20308	0.084376	0.12577	0.10746	0.08528	0.13393	0.15344	-2.3896	-2.7271	-3.0104	-2.8979	-2.9583	-3.0708	-2.65	-3.2875	-2.9667	-2.8375	-3.0708	-2.8896	-3.075	-3.0479	-2.8229	-2.9646	334.297	343.209	423.081	130.621	249.358	299.453	123.441	400.931	436.013	123.932	181.548	323.080	440.188	152.548	445.051	415.706	2.0743e-05	3.1532e-05	9.877e-06	62.389	6.3595e-07	7.6979e-07	51.812	17.078	4.5298e-07	5.2144e-08	14.103	4.3452	5.7605	2.1452	4.5009e-07	1.6862	4.3365e-05	4.4042e-05	1.2329e-05	75.658	4.8457e-07	4.7479e-07	62.518	20.943	4.8003e-07	5.409e-07	17.461	5.423	7.0509	2.6434	5.2905e-07	2.1119	173.113	267.804	278.555	127.253	283.124	184.295	125.557	131.993	221.918	296.953	128.874	133.750	136.528	141.114	159.869	137.173	-8191	255	
32476.846	1	1	0	0	0.1819	0.13445	0.12981	0.016499	0.10372	0.097256	0.055932	0.11958	0.20339	0.45673	0.19177	0.1167	0.1269	0.11411	0.14207	0.14626	-2.5854	-2.7229	-3.0625	-2.9167	-2.8729	-3.1188	-2.7354	-3.0104	-3.05	-2.6542	-3.1417	-3.0021	-2.7938	-3.1792	-2.7833	-2.9542	253.450	117.291	311.736	160.110	423.465	195.580	205.589	428.846	256.803	467.361	175.874	145.408	263.226	341.922	395.501	332.918	1.4967e-05	4.4759e-05	1.0217e-05	62.719	3.1317e-07	5.3118e-07	51.787	17.172	4.4769e-07	4.2791e-07	14.283	4.3936	5.7611	2.1614	6.9391e-07	1.6788	4.315e-05	4.448e-05	1.2097e-05	75.667	5.2629e-07	4.7694e-07	62.626	21.001	4.733e-07	5.2186e-07	17.556	5.4514	7.0493	2.6505	5.519e-07	2.1241	164.788	183.430	275.439	127.653	289.617	387.884	125.440	132.410	141.925	150.251	128.879	133.106	136.618	141.429	221.520	137.403	-8191	255	
32476.941	1	1	0	0	0.14692	0.054396	0.19505	0.18349	0.20517	0.2145	0.23711	0.10771	0.28539	0.1901	0.23045	0.056575	0.26287	0.071857	0.30486	0.11085	-2.6396	-2.7958	-3.1396	-2.7333	-2.8854	-3.2458	-2.7125	-3.0333	-3.1188	-2.7833	-3.0417	-2.9667	-2.6646	-3.0708	-2.8063	-3.0563	179.036	337.665	321.918	160.025	384.790	401.462	335.942	440.458	394.876	350.257	211.265	290.040	160.312	138.498	245.060	143.268	2.0508e-05	3.9036e-05	2.0961e-05	62.2	3.7647e-07	1.2276e-06	51.462	17.37	2.601e-07	5.4333e-07	14.299	4.4069	5.7687	2.1802	2.3162e-07	1.699	4.244e-05	4.3945e-05	1.2015e-05	75.623	5.2121e-07	4.7177e-07	62.876	21.101	4.7145e-07	5.5236e-07	17.658	5.4759	7.0927	2.6623	5.1345e-07	2.1244	173.945	468.084	187.974	127.284	210.281	288.781	125.913	132.263	313.133	153.319	129.082	133.411	136.531	140.297	328.956	136.450	-8191	255	
32477.037	1	1	0	0	0.13236	0.084312	0.1038	0.18994	0.20813	0.48702	0.18405	0.096792	0.14276	0.010446	0.1026	0.14014	0.03146	0.19567	0.21735	0.16154	-2.4271	-2.6083	-3.0625	-2.8625	-2.9125	-3.0792	-2.8937	-2.7375	-3.1271	-2.9292	-2.9271	-2.9813	-2.9146	-2.9917	-2.9354	-2.8625	173.255	395.852	462.888	410.786	342.398	337.487	420.882	212.626	166.301	119.800	165.323	256.911	305.519	309.333	460.718	227.576	3.1483e-05	2.4464e-05	1.6035e-05	63.127	7.405e-07	6.7942e-07	52.054	17.459	3.6235e-07	4.6419e-07	14.249	4.4448	5.85	2.1811	4.4081e-07	1.7166	4.2473e-05	4.3748e-05	1.1997e-05	75.899	5.5201e-07	4.801e-07	62.993	21.152	4.7813e-07	5.2066e-07	17.625	5.4896	7.1386	2.6742	4.7858e-07	2.1456	169.760	154.449	217.580	127.492	426.557	312.924	125.928	132.317	246.762	156.836	129.066	133.584	136.521	140.889	220.077	136.945	-8191	255	
32477.133	1	1	0	0	0.085997	0.11461	0.13295	0.13794	0.18303	0.14502	0.22313	0.20861	0.26925	0.23922	0.10504	0.021091	0.1049	0.095289	0.070533	0.07787	-2.6083	-2.6958	-3.0312	-2.8604	-2.7417	-3.0042	-2.8708	-2.7042	-3.0979	-2.7708	-3.0521	-3.025	-2.7729	-3.075	-2.8583	-2.6583	116.631	365.555	427.584	125.262	129.927	151.166	441.675	441.444	352.042	123.043	426.772	285.999	202.701	401.774	435.259	322.975	1.0072e-05	3.8966e-05	1.3432e-05	62.99	1.8825e-07	3.154e-07	52.16	17.472	2.1096e-07	3.1444e-07	14.216	4.416	5.8367	2.1905	2.1691e-07	1.7055	4.2919e-05	4.4125e-05	1.1977e-05	76.03	5.1389e-07	4.7062e-07	63.109	21.203	4.7174e-07	5.374e-07	17.712	5.4926	7.1341	2.6849	4.7028e-07	2.1507	184.633	119.500	285.183	127.208	185.405	191.756	125.470	132.085	288.410	218.749	128.778	133.519	136.341	140.852	233.174	136.840	-8191	255	
32477.229	1	1	0	0	0.25702	0.074892	0.23693	0.039352	0.38067	0.20055	0.14074	0.054606	0.29719	0.26351	0.13001	0.19043	0.098811	0.077327	0.13367	0.21556	-2.8312	-2.8083	-2.8833	-3.1312	-2.8542	-3	-2.9771	-2.9167	-3.3354	-2.8708	-2.9042	-2.9729	-2.8396	-3.0271	-2.8271	-2.85	303.958	335.353	438.911	415.823	294.178	436.866	266.191	163.973	125.174	416.189	474.003	448.190	273.292	240.196	246.627	222.339	2.3647e-05	6.1183e-05	1.1268e-05	62.66	1.9198e-07	2.0585e-07	52.13	17.494	5.7482e-07	4.5706e-07	14.411	4.4915	5.8632	2.2152	5.7841e-07	1.7329	4.1552e-05	4.3919e-05	1.1852e-05	76.016	5.3718e-07	4.6851e-07	63.193	21.263	4.6671e-07	5.0224e-07	17.804	5.5233	7.1823	2.7083	4.7729e-07	2.1816	192.777	162.047	245.129	127.571	211.820	403.783	125.458	132.597	289.553	179.576	129.184	133.687	136.187	140.739	184.568	137.200	-8191	255	
32477.326	1	1	0	0	0.25698	0.3263	0.12015	0.2345	0.10266	0.11282	0.27297	0.19261	0.15457	0.16632	0.18937	0.3199	0.15232	0.12084	0.038466	0.29677	-2.8104	-2.8708	-2.8896	-3.0854	-2.8146	-2.9771	-3.1271	-2.8229	-3.2354	-2.9313	-2.9104	-3.1813	-2.9062	-2.9562	-3.0979	-2.4729	452.804	236.321	115.137	186.293	202.038	361.499	116.532	407.459	130.705	285.415	255.673	328.993	433.614	362.030	388.900	391.802	1.5877e-05	3.514e-05	1.9324e-05	63.015	1.455e-07	4.9331e-07	52.227	17.539	3.0083e-07	2.2674e-07	14.296	4.4634	5.9211	2.2094	5.2633e-07	1.7159	4.1297e-05	4.345e-05	1.2093e-05	76.201	5.1175e-07	4.665e-07	63.193	21.248	4.7008e-07	4.8123e-07	17.87	5.5281	7.1981	2.705	4.709e-07	2.1603	177.003	190.051	309.447	127.243	140.373	305.329	125.594	132.219	211.641	404.457	129.274	133.937	136.113	140.714	199.240	137.402	-8191	255	
32477.422	1	1	0	0	0.26888	0.07927	0.19934	0.22719	0.034199	0.10551	0.38941	0.12172	0.27065	0.11375	0.075059	0.086618	0.23507	0.090025	0.049219	0.19033	-2.5917	-3.0229	-2.7875	-2.9771	-2.7104	-2.9854	-3.1354	-2.8958	-2.9104	-2.8875	-2.8042	-3.1437	-2.6729	-2.9042	-2.9458	-2.7021	118.700	244.012	464.472	243.364	263.414	293.588	177.479	211.335	366.837	411.772	270.518	346.845	134.414	432.046	354.505	222.419	1.6764e-05	5.0036e-05	8.6608e-06	63.391	5.9472e-08	4.2162e-07	52.273	17.623	3.6852e-07	6.3445e-07	14.343	4.4694	5.8953	2.1995	5.2283e-07	1.7221	4.184e-05	4.3012e-05	1.1951e-05	76.191	5.4359e-07	4.6894e-07	63.186	21.344	4.6704e-07	4.6933e-07	17.829	5.5259	7.1885	2.7039	4.7124e-07	2.1739	142.191	266.785	188.737	127.196	342.842	232.897	126.091	132.306	282.158	254.294	128.800	133.315	136.432	140.982	137.914	137.075	-8191	255	
32477.516	1	1	0	0	0.2354	0.35477	0.23064	0.23208	0.18947	0.22699	0.11344	0.17036	0.097464	0.21461	0.10667	0.081612	0.060642	0.21918	0.19486	0.14866	-2.6396	-2.7625	-2.8771	-3.1604	-2.8146	-2.8812	-3.1063	-2.825	-3.0333	-2.9354	-2.65	-3.0375	-2.8708	-2.9146	-3.0896	-2.7833	212.870	314.488	256.058	317.420	232.490	434.181	137.326	297.847	415.231	144.087	327.256	220.879	272.489	166.941	412.428	159.548	2.8295e-05	9.8006e-05	6.3114e-06	62.98	7.3116e-07	1.0896e-06	52.382	17.567	2.5361e-07	7.6089e-07	14.358	4.4804	5.8711	2.2168	1.9198e-07	1.7301	4.2371e-05	4.3074e-05	1.2027e-05	76.271	4.9925e-07	4.7852e-07	63.166	21.302	4.6548e-07	4.7302e-07	17.908	5.5346	7.1964	2.7165	4.7377e-07	2.1809	173.914	194.843	152.321	127.241	339.588	352.271	125.455	132.558	221.321	411.861	129.228	134.158	136.745	140.514	428.562	137.109	-8191	255	
32477.613	1	1	0	0	0.17368	0.19681	0.259	0.2959	0.10956	0.12607	0.35677	0.17785	0.062053	0.15106	0.19093	0.12483	0.15096	0.038021	0.25873	0.062392	-2.6792	-2.8021	-2.6917	-3.0812	-2.9979	-2.9542	-3.0104	-2.8604	-3.1	-3.0042	-2.6021	-3.0958	-2.8417	-2.7771	-3.0729	-2.7854	136.550	308.387	470.198	208.706	392.639	146.186	365.774	130.369	179.318	467.253	392.475	185.498	359.724	367.408	308.174	394.936	2.5146e-05	5.8019e-05	2.4432e-05	63.17	7.1878e-07	4.978e-07	52.025	17.553	2.8402e-07	1.0175e-06	14.617	4.5374	5.8616	2.2141	6.5398e-07	1.7538	4.1195e-05	4.3608e-05	1.2082e-05	76.374	4.6817e-07	5.2265e-07	63.392	21.301	4.7325e-07	4.784e-07	17.938	5.5686	7.2072	2.7175	4.7486e-07	2.1873	176.808	231.949	260.996	127.051	365.145	200.601	125.733	132.074	323.999	310.274	129.129	133.434	136.311	141.161	284.693	137.298	-8191	255	
32477.732	1	1	0	0	0.064258	0.06505	0.2615	0.18802	0.079028	0.19308	0.12732	0.20743	0.23255	0.29109	0.40914	0.12684	0.03535	0.33076	0.55666	0.17689	-2.4625	-2.975	-2.5271	-3.225	-2.8917	-2.9354	-2.9562	-2.6667	-2.9104	-3.1708	-2.9521	-3.0729	-2.8854	-2.65	-2.9021	-2.9479	154.662	302.943	193.790	224.688	316.377	473.176	378.440	233.041	223.756	135.807	313.658	146.646	386.174	413.494	415.983	359.998	2.2653e-05	3.1734e-05	1.2662e-05	62.615	8.5103e-07	5.8981e-07	52.105	17.418	4.6694e-07	9.3239e-07	14.581	4.4348	5.8065	2.2013	2.386e-07	1.7284	4.2035e-05	4.328e-05	1.2131e-05	76.188	4.7782e-07	5.0554e-07	63.153	21.19	4.6468e-07	4.664e-07	17.829	5.4963	7.1511	2.6939	4.6089e-07	2.1513	185.916	148.095	320.245	127.667	302.309	452.375	125.755	132.430	244.273	384.961	128.811	133.341	136.399	141.424	213.224	137.164	-8191	255	
32477.828	1	1	0	0	0.17199	0.18706	0.18217	0.37805	0.14976	0.055837	0.026121	0.29931	0.15008	0.15982	0.085943	0.22103	0.10635	0.20883	0.3044	0.19351	-2.2938	-3.0458	-2.6437	-2.8292	-3.0271	-2.9188	-2.9792	-2.7938	-2.85	-3.0812	-2.7542	-2.9667	-2.8417	-2.6604	-3.2479	-2.7583	242.835	422.433	427.332	196.026	391.267	472.926	128.057	462.724	420.914	333.097	218.866	128.226	158.012	254.807	457.486	309.209	1.3557e-05	7.4114e-05	3.479e-05	62.906	6.2697e-07	7.0847e-07	52.028	17.451	8.4645e-08	5.1293e-07	14.242	4.3925	5.8676	2.1985	8.6425e-08	1.7094	4.2773e-05	4.2727e-05	1.2026e-05	75.9	4.7535e-07	5.3961e-07	62.957	21.167	4.6856e-07	4.6808e-07	17.701	5.4816	7.128	2.6823	4.6322e-07	2.1371	169.390	244.088	204.219	127.452	278.299	276.713	125.415	132.363	190.045	228.054	129.062	133.629	136.296	140.962	297.358	137.344	-8191	255	
32477.926	1	1	0	0	0.21918	0.34367	0.13981	0.10748	0.10387	0.025431	0.077987	0.0704	0.16863	0.42507	0.044591	0.19641	0.062019	0.1988	0.04078	0.082392	-2.4625	-3.1312	-2.6396	-2.9813	-2.9062	-2.7458	-3.0333	-2.8125	-2.8208	-3.1271	-2.625	-2.9125	-2.95	-2.7333	-2.9146	-2.9396	269.094	365.149	268.977	226.654	201.993	176.549	133.609	193.863	378.644	224.552	289.250	349.229	341.057	261.356	421.685	216.881	1.9618e-05	1.4577e-05	9.5401e-06	62.85	7.8526e-07	1.0901e-06	52.174	17.417	3.1064e-07	3.2652e-07	14.385	4.4382	5.7803	2.1743	3.8057e-07	1.6866	4.6857e-05	4.2145e-05	1.2071e-05	75.811	4.7088e-07	5.1105e-07	62.958	21.13	4.7188e-07	4.7226e-07	17.754	5.4899	7.1005	2.6724	4.668e-07	2.1263	183.310	455.194	347.604	127.447	301.083	291.986	125.694	132.306	207.440	356.294	128.700	133.661	136.604	140.902	235.780	136.585	-8191	255	
32478.021	1	1	0	0	0.18749	0.034688	0.17409	0.24717	0.12142	0.26826	0.20911	0.17838	0.22472	0.082337	0.23248	0.17456	0.12176	0.12694	0.14654	0.087799	-2.4021	-2.9521	-2.6167	-2.8542	-2.9083	-2.5375	-2.9521	-2.8312	-2.6479	-3.1	-2.8125	-2.8104	-2.9104	-2.6292	-3.0896	-2.9667	299.801	141.519	264.101	388.490	203.837	360.269	163.025	219.699	160.919	231.176	288.350	232.241	187.512	188.473	152.170	196.974	1.9406e-05	5.6114e-05	2.6454e-05	62.9	6.4125e-07	6.4387e-07	52.096	17.343	2.0767e-07	1.1675e-07	14.4	4.4069	5.8301	2.1875	4.3933e-07	1.7008	4.6123e-05	4.2986e-05	1.2234e-05	75.682	4.5705e-07	5.479e-07	62.833	21.08	4.705e-07	4.6386e-07	17.64	5.461	7.0914	2.6728	4.5717e-07	2.1185	184.433	182.410	168.800	127.048	263.324	134.222	125.590	132.624	235.830	387.751	129.437	132.814	136.688	140.937	304.033	136.826	-8191	255	
32478.117	1	1	0	0	0.27035	0.09567	0.17819	0.18425	0.25501	0.14869	0.048305	0.23837	0.13974	0.23066	0.1766	0.13972	0.069015	0.076513	0.054691	0.029094	-2.3479	-2.9667	-2.5687	-2.8646	-3.1292	-2.8896	-2.9958	-2.9333	-2.7667	-3.1021	-2.8812	-2.9229	-3.0938	-2.6646	-3.0375	-3.0458	163.592	442.962	395.835	296.054	142.437	454.935	376.262	321.042	152.194	142.559	210.498	346.362	385.312	310.570	282.014	245.758	3.157e-05	5.6864e-05	8.8777e-06	62.311	1.3578e-07	4.6611e-07	51.842	17.321	6.9129e-07	1.4432e-07	14.093	4.4298	5.7517	2.1786	3.5927e-07	1.6836	4.7121e-05	4.2776e-05	1.1902e-05	75.505	4.5971e-07	5.0674e-07	62.625	21.02	4.7411e-07	4.6559e-07	17.473	5.4763	7.0761	2.6669	4.6556e-07	2.1246	192.757	179.858	190.143	127.346	324.933	357.926	125.631	132.280	189.017	345.198	129.274	134.328	135.763	141.004	216.939	136.981	-8191	255	
32478.215	1	1	0	0	0.18267	0.38203	0.1595	0.11753	0.23387	0.24354	0.16898	0.09573	0.12746	0.026443	0.28315	0.0090108	0.23195	0.058718	0.25068	0.18339	-2.2875	-3.2333	-2.7938	-2.7792	-3.1354	-2.8438	-2.9583	-2.825	-2.7188	-2.9792	-2.9542	-2.7188	-3.05	-2.6875	-2.9875	-3.0083	161.239	259.837	209.580	117.002	430.286	423.544	302.627	156.420	348.973	360.019	451.316	424.018	178.758	321.259	244.619	336.204	2.3367e-05	8.2671e-05	6.6845e-06	62.92	3.0963e-07	5.678e-07	52.084	17.368	4.0628e-07	6.1631e-07	14.277	4.4347	5.7799	2.1647	1.9409e-07	1.6911	4.4712e-05	4.225e-05	1.1648e-05	75.673	4.5572e-07	5.2548e-07	62.872	21.076	4.7036e-07	4.6304e-07	17.599	5.4719	7.0629	2.6675	4.6074e-07	2.118	170.193	201.548	302.207	127.370	273.573	378.137	125.615	132.456	356.618	469.715	129.702	133.266	135.864	140.984	205.275	137.096	-8191	255	
32478.334	1	1	0	0	0.041994	0.26997	0.20053	0.28226	0.29503	0.16274	0.17018	0.033151	0.085597	0.11516	0.026339	0.14125	0.32254	0.4499	0.14484	0.16525	-2.2062	-2.9396	-2.9083	-2.7021	-3.1833	-2.7979	-2.9271	-3.1104	-2.8542	-2.9667	-2.725	-2.5312	-3.1208	-2.8708	-2.7812	-2.8417	253.855	206.074	209.383	289.908	406.542	277.931	304.000	346.920	460.765	146.846	227.189	463.916	462.900	379.637	125.851	258.535	2.0156e-05	2.9567e-05	2.1263e-05	62.415	3.5467e-07	3.3194e-07	51.691	17.304	5.7897e-07	5.481e-07	14.238	4.4633	5.7534	2.1678	2.5029e-07	1.7005	4.7129e-05	4.2508e-05	1.1835e-05	75.71	4.5928e-07	4.8561e-07	62.933	21.05	4.7425e-07	4.6707e-07	17.534	5.5202	7.0611	2.662	4.6642e-07	2.1234	170.098	131.646	217.008	127.353	172.348	443.829	125.868	132.443	255.304	295.530	129.199	133.224	136.673	141.160	465.346	136.997	-8191	255	
32478.430	1	1	0	0	0.16406	0.20397	0.15134	0.047677	0.10786	0.10409	0.098882	0.18394	0.17332	0.11445	0.076604	0.1513	0.20563	0.16499	0.050395	0.25368	-2.4042	-3.1521	-2.9417	-2.75	-3.075	-2.6729	-2.6979	-3.1125	-2.8854	-3.0396	-2.8125	-2.7542	-3.1125	-2.8438	-2.7687	-3.0187	341.613	185.947	216.957	393.666	281.962	274.114	328.224	164.878	387.932	232.850	405.667	115.729	172.568	416.571	250.307	168.573	1.5525e-05	5.9188e-05	2.93e-06	62.877	3.2256e-07	4.7216e-07	51.937	17.254	7.1433e-08	4.881e-07	14.218	4.4265	5.76	2.1648	2.3823e-07	1.7041	4.5819e-05	4.2478e-05	1.1914e-05	75.58	4.61e-07	4.6818e-07	62.971	21.027	4.679e-07	4.7259e-07	17.535	5.4518	7.0502	2.6438	4.6847e-07	2.1094	170.927	437.628	325.117	127.272	247.223	270.178	125.323	132.590	403.631	325.919	129.314	134.089	136.690	140.992	308.212	136.589	-8191	255	
32478.525	1	1	0	0	0.080635	0.1484	0.10485	0.12495	0.05701	0.030534	0.30871	0.095094	0.081991	0.14091	0.13155	0.080933	0.050407	0.20513	0.29077	0.10774	-2.325	-3	-2.9437	-2.5938	-3.0167	-2.9604	-2.7583	-3.1	-2.8208	-2.8083	-2.9458	-2.7625	-3.0292	-2.7708	-2.6271	-2.9437	337.727	433.778	172.997	155.062	381.171	454.782	325.860	176.082	274.835	179.719	307.281	131.764	454.524	322.875	406.449	270.828	2.1347e-05	3.9514e-05	1.4518e-05	62.176	1.9976e-07	6.634e-07	51.663	17.256	6.0424e-07	4.5591e-07	14.029	4.394	5.7174	2.1623	4.1536e-07	1.6837	4.7129e-05	4.2767e-05	1.1906e-05	75.403	4.5591e-07	4.664e-07	62.753	20.991	4.6269e-07	4.6185e-07	17.463	5.4529	7.0473	2.6529	4.7181e-07	2.1003	216.596	227.878	359.531	127.489	410.511	255.831	125.841	132.192	442.779	284.466	128.665	133.714	136.348	141.296	227.221	136.966	-8191	255	
32478.621	1	1	0	0	0.11773	0.14183	0.16128	0.21262	0.25896	0.036368	0.18996	0.22417	0.25157	0.16037	0.099529	0.19005	0.19574	0.1937	0.25485	0.20068	-2.2146	-2.8292	-3.0021	-2.8354	-2.9854	-3	-2.7729	-3.1979	-2.7583	-2.8812	-3.0771	-2.5604	-2.9958	-2.9667	-2.7542	-3.0292	115.254	126.035	143.802	231.983	269.122	352.365	199.425	280.613	167.784	136.541	222.382	156.753	363.341	370.457	244.525	283.045	1.7699e-05	3.1599e-05	1.3441e-05	62.65	6.8197e-07	9.2314e-07	51.452	17.328	1.3965e-07	5.2309e-07	14.125	4.3644	5.7885	2.1364	4.4538e-07	1.6855	4.3292e-05	4.3551e-05	1.1587e-05	75.365	4.6499e-07	4.5922e-07	62.793	20.97	4.615e-07	4.7269e-07	17.466	5.4353	7.0331	2.634	4.6408e-07	2.1021	167.684	217.788	235.947	127.448	156.412	299.352	125.288	132.622	416.482	258.806	129.349	133.182	136.532	140.856	240.547	136.796	-8191	255	
#DATA ENDS
