BOXY.EXE: ISS Imagent and Oximeter Data Acquisition Program Version 0.80
Ascii Record File

#ACQ INFORMATION
2  Detector Channels 
16  External MUX Channels 
1  Auxiliary Channels 
5000  Waveform (CCF) Frequency (Hz)
1  Waveforms Skipped 
30  Waveforms Averaged 
1  Cycles Averaged 
16  Acquisitions per Waveform 
10.0806  Updata Rate (Hz) 

#FILE INFORMATION
TRUE -- External MUX Channel results are PARSED.
FALSE -- AC DC and Phase are NOT grouped.
TRUE -- Companion Program Settings File CREATED.
FALSE -- AC data not excluded
FALSE -- DC data not excluded
FALSE -- Phase data not excluded
FALSE -- Auxillary Chn. data not excluded
Tab delimiters

#CALIBRATION STATE
TRUE -- Waveform Calibration Values APPLIED.


#AUX CALIBRATION VALUES
Val Type	aux-1	

Term	1.0000e+00	
Factor	0.0000e+00	


#WF CALIBRATION VALUES
A = Detector Channel
Val Type	A-AC1	A-AC2	A-AC3	A-AC4	A-AC5	A-AC6	A-AC7	A-AC8	A-AC9	A-AC10	A-AC11	A-AC12	A-AC13	A-AC14	A-AC15	A-AC16	A-DC1	A-DC2	A-DC3	A-DC4	A-DC5	A-DC6	A-DC7	A-DC8	A-DC9	A-DC10	A-DC11	A-DC12	A-DC13	A-DC14	A-DC15	A-DC16	A-Ph1	A-Ph2	A-Ph3	A-Ph4	A-Ph5	A-Ph6	A-Ph7	A-Ph8	A-Ph9	A-Ph10	A-Ph11	A-Ph12	A-Ph13	A-Ph14	A-Ph15	A-Ph16	

Term	0.00000e+00	0.00000e+00	0.00000e+00	0.00000e+00	0.00000e+00	0.00000e+00	0.00000e+00	0.00000e+00	0.00000e+00	0.00000e+00	0.00000e+00	0.00000e+00	0.00000e+00	0.00000e+00	0.00000e+00	0.00000e+00	0.00000e+00	0.00000e+00	0.00000e+00	0.00000e+00	0.00000e+00	0.00000e+00	0.00000e+00	0.00000e+00	0.00000e+00	0.00000e+00	0.00000e+00	0.00000e+00	0.00000e+00	0.00000e+00	0.00000e+00	0.00000e+00	0.00000e+00	0.00000e+00	0.00000e+00	0.00000e+00	0.00000e+00	0.00000e+00	0.00000e+00	0.00000e+00	0.00000e+00	0.00000e+00	0.00000e+00	0.00000e+00	0.00000e+00	0.00000e+00	0.00000e+00	0.00000e+00	
Factor	1.00000e+00	1.00000e+00	1.00000e+00	1.00000e+00	1.00000e+00	1.00000e+00	1.00000e+00	1.00000e+00	1.00000e+00	1.00000e+00	1.00000e+00	1.00000e+00	1.00000e+00	1.00000e+00	1.00000e+00	1.00000e+00	1.00000e+00	1.00000e+00	1.00000e+00	1.00000e+00	1.00000e+00	1.00000e+00	1.00000e+00	1.00000e+00	1.00000e+00	1.00000e+00	1.00000e+00	1.00000e+00	1.00000e+00	1.00000e+00	1.00000e+00	1.00000e+00	X	X	X	X	X	X	X	X	X	X	X	X	X	X	X	X	

B = Detector Channel
Val Type	B-AC1	B-AC2	B-AC3	B-AC4	B-AC5	B-AC6	B-AC7	B-AC8	B-AC9	B-AC10	B-AC11	B-AC12	B-AC13	B-AC14	B-AC15	B-AC16	B-DC1	B-DC2	B-DC3	B-DC4	B-DC5	B-DC6	B-DC7	B-DC8	B-DC9	B-DC10	B-DC11	B-DC12	B-DC13	B-DC14	B-DC15	B-DC16	B-Ph1	B-Ph2	B-Ph3	B-Ph4	B-Ph5	B-Ph6	B-Ph7	B-Ph8	B-Ph9	B-Ph10	B-Ph11	B-Ph12	B-Ph13	B-Ph14	B-Ph15	B-Ph16	

Term	0.00000e+00	0.00000e+00	0.00000e+00	0.00000e+00	0.00000e+00	0.00000e+00	0.00000e+00	0.00000e+00	0.00000e+00	0.00000e+00	0.00000e+00	0.00000e+00	0.00000e+00	0.00000e+00	0.00000e+00	0.00000e+00	0.00000e+00	0.00000e+00	0.00000e+00	0.00000e+00	0.00000e+00	0.00000e+00	0.00000e+00	0.00000e+00	0.00000e+00	0.00000e+00	0.00000e+00	0.00000e+00	0.00000e+00	0.00000e+00	0.00000e+00	0.00000e+00	-1.83054e+02	-1.28695e+02	-1.24060e+02	-1.82730e+02	-8.03315e+01	-6.64456e+01	-1.55606e+02	-1.62015e+02	-9.22986e+01	-6.89241e+01	-1.72279e+02	-1.70080e+02	-1.79579e+02	-1.77215e+02	-7.89233e+01	-1.49329e+02	
Factor	2.99331e-05	1.55479e-04	4.19442e-05	1.61934e-01	1.57654e-06	1.69154e-06	1.52548e-01	4.60961e-02	1.71663e-06	1.67939e-06	8.77263e-02	2.69812e-02	2.54748e-02	8.56556e-03	1.66169e-06	1.23162e-02	1.73125e-05	3.46895e-05	9.63778e-06	8.07384e-02	3.25976e-07	3.93007e-07	7.18427e-02	2.31086e-02	3.21270e-07	3.94494e-07	4.28785e-02	1.32135e-02	1.29370e-02	4.33807e-03	3.46650e-07	6.07619e-03	X	X	X	X	X	X	X	X	X	X	X	X	X	X	X	X	



#DISTANCE SETTINGS
A = Detector Channel
A-1	A-2	A-3	A-4	A-5	A-6	A-7	A-8	A-9	A-10	A-11	A-12	A-13	A-14	A-15	A-16	

2.5000e+00	3.0000e+00	2.5000e+00	3.0000e+00	2.0000e+00	3.0000e+00	1.5000e+00	3.0000e+00	3.0000e+00	3.0000e+00	3.0000e+00	3.0000e+00	3.0000e+00	3.0000e+00	1.5000e+00	3.0000e+00	

B = Detector Channel
B-1	B-2	B-3	B-4	B-5	B-6	B-7	B-8	B-9	B-10	B-11	B-12	B-13	B-14	B-15	B-16	

1.0000e+01	1.0000e+01	1.0000e+01	1.4400e+00	1.0000e+01	1.0000e+01	1.5100e+00	1.9400e+00	1.0000e+01	1.0000e+01	1.9900e+00	2.4900e+00	2.4100e+00	2.9000e+00	1.0000e+01	2.9800e+00	




#DATA BEGINS
time	group	step	mark	flag	A-AC1	A-AC2	A-AC3	A-AC4	A-AC5	A-AC6	A-AC7	A-AC8	A-AC9	A-AC10	A-AC11	A-AC12	A-AC13	A-AC14	A-AC15	A-AC16	A-DC1	A-DC2	A-DC3	A-DC4	A-DC5	A-DC6	A-DC7	A-DC8	A-DC9	A-DC10	A-DC11	A-DC12	A-DC13	A-DC14	A-DC15	A-DC16	A-Ph1	A-Ph2	A-Ph3	A-Ph4	A-Ph5	A-Ph6	A-Ph7	A-Ph8	A-Ph9	A-Ph10	A-Ph11	A-Ph12	A-Ph13	A-Ph14	A-Ph15	A-Ph16	B-AC1	B-AC2	B-AC3	B-AC4	B-AC5	B-AC6	B-AC7	B-AC8	B-AC9	B-AC10	B-AC11	B-AC12	B-AC13	B-AC14	B-AC15	B-AC16	B-DC1	B-DC2	B-DC3	B-DC4	B-DC5	B-DC6	B-DC7	B-DC8	B-DC9	B-DC10	B-DC11	B-DC12	B-DC13	B-DC14	B-DC15	B-DC16	B-Ph1	B-Ph2	B-Ph3	B-Ph4	B-Ph5	B-Ph6	B-Ph7	B-Ph8	B-Ph9	B-Ph10	B-Ph11	B-Ph12	B-Ph13	B-Ph14	B-Ph15	B-Ph16	aux-1	digaux	

40362.668	1	1	0	256	0.18292	0.11951	0.10371	0.084644	0.26818	0.097981	0.31398	0.08097	0.18836	0.20831	0.29495	0.2351	0.047439	0.20618	0.18854	0.32443	-2.9625	-2.9938	-3.0021	-3.5083	-2.9542	-3.0229	-3.2667	-2.95	-3.0563	-2.9062	-2.8312	-3.2438	-3.0125	-3.1125	-3.0354	-2.7687	206.326	273.330	135.669	279.889	153.498	153.635	406.523	409.454	396.119	357.511	118.542	144.635	342.203	444.310	293.951	363.014	0.00075603	0.00027817	6.7843e-05	511.37	4.7882e-06	9.2286e-06	561.21	179.22	5.746e-06	2.5063e-06	201.82	79.981	68.544	33.553	4.5795e-06	40.326	0.001323	0.00093879	0.00026124	498.1	9.4764e-06	3.4182e-05	541.7	174.14	9.5906e-06	1.0104e-05	197.84	77.45	66.889	33.071	9.47e-06	39.655	115.703	155.823	148.725	114.848	230.145	218.212	112.596	119.143	204.520	250.630	116.189	120.218	123.219	128.439	234.178	124.090	-8191	255	
40362.789	1	1	0	0	0.11736	0.019101	0.15223	0.1508	0.19156	0.097797	0.13662	0.27566	0.13244	0.12853	0.090129	0.30309	0.37131	0.049532	0.17374	0.31614	-2.7479	-3.1688	-2.975	-3.3187	-2.95	-3.1042	-3.1562	-3.0229	-3.0563	-3.1042	-3.0542	-3.4	-2.9979	-3.2375	-3.1479	-2.8729	355.882	392.111	432.482	269.616	213.621	301.123	131.695	454.576	254.298	280.753	185.522	117.042	408.774	420.911	125.665	423.629	0.0006488	0.00037153	8.1538e-05	516	3.5775e-06	6.4903e-06	563.05	179.22	3.6266e-06	3.2316e-06	201.6	80.44	69.321	33.405	3.1287e-06	40.035	0.001824	0.0009424	0.00026136	499.64	9.1565e-06	2.6587e-05	542.75	174.73	9.1174e-06	9.9708e-06	198.59	77.935	67.514	33.01	9.5307e-06	39.471	110.010	170.164	194.689	114.461	219.142	224.175	112.578	119.157	244.132	253.066	116.338	120.178	123.648	128.556	254.567	124.189	-8191	255	
40362.883	1	1	0	0	0.16796	0.10832	0.17061	0.088842	0.018493	0.031724	0.12214	0.078363	0.078233	0.25617	0.11645	0.1579	0.063288	0.22589	0.19518	0.18081	-2.8958	-2.8604	-2.9417	-3.3354	-3.1083	-3.1396	-3.4437	-2.6875	-3.1896	-3.2208	-2.8604	-3.1646	-3.0604	-3.0042	-3.1667	-2.7687	130.775	393.724	268.412	323.761	242.049	187.801	459.671	153.456	373.332	152.223	392.818	439.849	120.324	113.945	370.336	401.655	0.0006143	0.00049297	7.0398e-05	514.07	5.0405e-06	1.0812e-05	557.96	179.71	3.024e-06	8.7009e-07	200.6	79.686	69.206	33.573	5.5418e-06	40.409	0.0014884	0.0008999	0.00025731	497.82	9.2014e-06	3.3747e-05	539.89	174.51	9.2245e-06	1.0324e-05	195.65	77.912	67.503	33.153	1.002e-05	39.649	109.377	169.855	227.954	114.672	220.379	241.217	112.895	119.115	235.769	244.740	115.998	120.313	123.338	128.636	226.531	124.121	-8191	255	
40362.957	1	1	0	0	0.18475	0.30717	0.027241	0.10354	0.057587	0.16952	0.12756	0.25939	0.13951	0.096998	0.35739	0.1717	0.3166	0.19351	0.12528	0.12332	-2.6104	-3.2	-2.7875	-3.3	-3.1771	-2.9437	-3.2687	-2.9917	-3.1312	-3.1583	-2.9938	-3.1667	-3.0604	-3.1354	-3.325	-2.9875	238.368	309.248	312.261	157.075	353.209	134.852	358.367	393.708	283.699	341.102	269.857	356.907	446.496	397.656	106.760	213.834	0.00070938	0.00055002	0.0001332	515.02	3.4512e-06	6.4483e-06	562.45	180.75	5.1987e-06	5.0177e-06	201.36	80.764	69.481	33.805	4.9147e-06	40.42	0.0018283	0.00090915	0.00026771	499.93	9.1158e-06	2.7158e-05	542.37	175.81	8.9226e-06	1.0309e-05	196.48	78.79	67.903	33.313	9.816e-06	39.765	110.431	201.180	207.420	114.710	188.109	222.395	112.831	118.603	221.000	261.119	116.022	120.237	123.511	128.616	240.461	124.052	-8191	255	
40363.078	1	1	0	0	0.045926	0.16107	0.17231	0.068593	0.2265	0.12505	0.11632	0.20001	0.09704	0.14195	0.14414	0.1257	0.2029	0.16453	0.059337	0.15377	-2.6375	-3.2438	-2.8833	-3.2562	-2.9708	-2.9958	-3.2208	-3.2292	-3.1021	-3.1479	-2.7958	-3.1896	-3.125	-2.8896	-3.2521	-2.9667	319.761	412.110	229.724	393.776	330.463	426.892	409.426	108.197	308.683	343.736	143.705	108.158	125.593	431.914	414.791	398.938	0.00061989	0.0003058	0.00015639	515.61	4.1093e-06	3.6088e-06	564.45	180.13	5.3465e-06	2.1137e-06	201.8	80.651	69.495	33.832	6.7385e-06	41.061	0.0014551	0.00088979	0.00027514	500.72	8.8455e-06	2.5472e-05	544.65	175.47	8.9059e-06	1.0457e-05	197.15	78.917	67.93	33.448	1.0172e-05	40.141	112.516	170.864	185.076	114.372	222.439	266.279	112.401	118.695	225.629	271.623	116.235	120.284	123.327	128.612	217.451	124.118	-8191	255	
40363.172	1	1	0	0	0.36788	0.11333	0.13144	0.26157	0.13949	0.19364	0.19699	0.14174	0.19567	0.064598	0.14875	0.12007	0.17986	0.11857	0.57019	0.1277	-2.6479	-3.1521	-2.825	-3.1125	-3.2125	-2.8229	-3.3	-2.9813	-3	-3.225	-2.9271	-3.1479	-3.1792	-2.8021	-3.2646	-3.3542	161.849	421.690	414.042	120.482	353.202	330.869	376.847	380.240	407.035	260.695	431.990	125.858	360.615	343.628	256.761	344.351	0.00065143	0.00025338	0.00012003	521.81	2.3623e-06	3.368e-06	566.03	181.91	3.9453e-06	2.3629e-06	203.91	81.211	70.357	34.313	3.3861e-06	41.446	0.0017922	0.00095122	0.00026219	504.43	8.8407e-06	1.0799e-05	548.38	176.84	9.1555e-06	1.0539e-05	198.15	79.606	68.651	33.811	1.0181e-05	40.406	109.084	185.960	196.158	114.674	242.916	261.084	112.661	119.309	230.390	230.236	115.979	120.069	123.295	128.375	229.491	124.034	-8191	255	
40363.270	1	1	0	0	0.084438	0.11742	0.14627	0.24952	0.15993	0.2258	0.07342	0.0094793	0.12024	0.10348	0.13319	0.025182	0.18499	0.12668	0.15619	0.15517	-2.6729	-3.3187	-3.1729	-3.2458	-3.075	-2.8646	-3.2208	-3.2354	-2.9021	-3.0979	-3.0875	-3.2062	-3.3042	-3.0104	-3.1667	-3.2708	143.354	282.621	422.391	408.727	402.316	110.209	214.659	417.835	144.265	362.779	246.238	295.621	335.935	146.220	119.580	403.204	0.00071712	0.00040301	8.8922e-05	520.57	3.3261e-06	4.3002e-06	561.91	181.51	4.2581e-06	4.2987e-06	202.65	80.698	69.96	34.211	4.1447e-06	40.924	0.0014934	0.00094081	0.0002645	504.06	8.9121e-06	1.0691e-05	547.41	176.66	9.5564e-06	1.0656e-05	197.96	79.191	68.467	33.786	9.912e-06	40.249	110.979	187.151	226.589	114.581	241.242	240.848	112.510	118.908	200.407	233.483	115.583	120.354	123.474	128.980	231.093	124.357	-8191	255	
40363.363	1	1	0	0	0.083278	0.072633	0.24537	0.16665	0.16728	0.075441	0.21097	0.24573	0.086004	0.1053	0.14591	0.35083	0.23086	0.084641	0.092575	0.24548	-2.5438	-3.0687	-2.8271	-2.9125	-3.3083	-3.0479	-3.1	-3.2333	-2.8917	-3.0854	-2.8979	-3.2333	-3.2917	-3.025	-3.1208	-3.0729	207.388	336.620	329.893	441.243	296.436	240.887	413.536	443.481	357.073	429.789	403.785	383.938	431.879	156.566	390.998	119.637	0.00063603	0.00099086	7.3128e-05	523.1	2.8191e-06	1.8231e-06	564.49	182.88	4.9462e-06	6.2155e-06	203.77	80.975	70.634	34.386	4.0323e-06	41.507	0.0013827	0.0014664	0.00024906	504.75	9.0363e-06	1.041e-05	548.63	177.22	8.9922e-06	1.0743e-05	198.43	79.621	68.665	33.849	9.8398e-06	40.642	117.795	141.582	212.666	114.656	253.677	222.752	112.686	119.143	233.663	229.901	116.339	120.212	123.510	128.635	268.708	124.100	-8191	255	
40363.484	1	1	0	0	0.16218	0.27382	0.2119	0.21281	0.050336	0.24494	0.2929	0.15429	0.38115	0.25414	0.26478	0.1169	0.045502	0.089788	0.13933	0.080933	-2.4	-3.275	-2.9313	-2.85	-3.2146	-3.0417	-3.1813	-3.0187	-2.7771	-3.0854	-3.2167	-2.8792	-3.2854	-2.9271	-3.1562	-3.1417	212.626	305.629	363.660	109.817	430.844	131.781	384.018	295.708	300.506	107.585	452.404	280.424	266.876	182.580	121.684	270.762	0.00076843	0.0006405	9.8072e-05	521.24	4.2203e-06	4.9972e-06	568.19	181.42	5.2935e-06	1.8327e-06	205.33	81.414	70.451	34.216	6.0573e-06	41.191	0.00076579	0.0021481	0.00026235	505.77	8.8387e-06	1.0347e-05	552.27	176.9	9.1575e-06	1.055e-05	199.24	79.688	68.767	33.766	9.6217e-06	40.417	120.933	169.474	177.462	114.472	233.010	235.510	112.828	118.642	221.558	210.797	115.942	120.375	123.511	128.859	233.707	123.870	-8191	255	
40363.578	1	1	0	0	0.1433	0.057869	0.051813	0.12332	0.21391	0.20098	0.35244	0.12346	0.31096	0.21886	0.25532	0.16142	0.13797	0.20772	0.13126	0.11839	-2.6104	-3.1875	-3.0646	-2.9562	-3.15	-3.0167	-3.2625	-3.2917	-2.9375	-3.2646	-3.0896	-3.1604	-3.35	-3.1854	-3.1833	-3.125	437.985	365.580	406.743	205.188	272.703	455.244	404.489	399.878	297.696	376.072	147.026	353.669	206.526	427.401	155.733	116.732	0.0007541	0.00070769	2.5126e-05	518.91	4.0663e-06	5.601e-06	563.77	181.38	4.3886e-06	2.9596e-06	203.09	80.835	69.899	34.195	4.9222e-06	41.345	0.00079443	0.0030206	0.00024552	503.19	9.2632e-06	1.0534e-05	546.91	176.35	9.4467e-06	1.0355e-05	197.42	78.911	68.528	33.753	9.53e-06	40.45	120.442	141.521	149.197	114.265	224.143	272.192	112.639	118.950	203.455	238.311	116.319	119.973	123.748	128.640	234.377	124.045	-8191	255	
40363.652	1	1	0	0	0.12817	0.15364	0.21376	0.21195	0.16234	0.21064	0.10978	0.0488	0.10957	0.24278	0.18804	0.063697	0.20449	0.21181	0.067482	0.1306	-2.6417	-3.125	-3.0292	-2.8458	-3.3417	-3.0854	-3.2875	-3.3	-3.0479	-3.3521	-3.2146	-2.9479	-3.3063	-3.1958	-3.0854	-3.4062	323.467	426.440	327.073	448.867	323.993	448.091	306.552	127.651	346.996	128.516	143.405	327.259	445.486	183.036	103.641	256.882	0.00071231	0.0008109	0.0001405	516.96	2.9215e-06	4.672e-06	565.16	181.13	7.9549e-06	3.6956e-06	202.37	80.731	70.095	34.317	3.1815e-06	41.083	0.00077127	0.0022642	0.00024878	502.52	9.0526e-06	1.0583e-05	548.38	175.96	9.1e-06	1.0169e-05	196.99	78.572	68.94	33.831	9.3949e-06	40.393	122.390	149.037	166.228	114.770	233.740	249.275	112.530	118.901	216.194	225.379	115.924	120.154	123.300	128.505	258.737	123.793	-8191	255	
40363.750	1	1	0	0	0.12588	0.21656	0.088353	0.10007	0.1054	0.10613	0.15882	0.32527	0.070969	0.30873	0.093041	0.094426	0.20696	0.090421	0.34287	0.21784	-2.6333	-3.1167	-3.2292	-3.0354	-3.3167	-3.2354	-3.0687	-3.3792	-2.9896	-3.0438	-3.2042	-2.8708	-3.2042	-3.2375	-2.9583	-3.3937	376.355	186.651	414.920	282.818	250.411	456.787	414.327	447.333	139.182	408.975	151.811	353.913	442.696	437.453	182.465	428.985	0.00075183	0.0010275	0.00011563	521.12	4.4553e-06	4.11e-06	563.62	181.39	4.039e-06	4.7608e-06	202.24	80.798	70.342	34.293	5.2508e-06	41.696	0.00077986	0.0029766	0.00025446	504.09	8.9942e-06	1.0149e-05	547.55	176.37	9.363e-06	1.0472e-05	197.52	78.885	69.464	33.881	9.8066e-06	40.701	121.437	122.917	189.164	114.854	230.821	265.585	112.718	118.791	212.266	240.720	116.191	120.152	123.308	128.797	240.007	124.025	-8191	255	
40363.867	1	1	0	0	0.10307	0.27657	0.13916	0.37179	0.11162	0.21856	0.18133	0.078025	0.11068	0.22715	0.18961	0.022572	0.1046	0.051033	0.066435	0.13081	-2.4417	-2.9958	-3.2104	-2.9396	-3.2708	-3.3146	-3.0667	-3.4479	-3.0563	-3.1583	-3.4104	-2.8229	-3.4229	-3.2125	-2.9562	-3.4021	460.640	263.810	320.287	125.440	430.928	147.184	232.068	110.309	121.709	243.993	421.339	371.584	438.356	278.502	346.602	452.027	0.00073739	0.00069125	2.537e-05	522.26	4.5443e-06	3.4045e-06	564.21	181.83	4.8922e-06	1.6839e-06	202.9	81.021	70.596	34.561	4.8722e-06	41.554	0.00080005	0.0023412	0.000249	505.69	9.3813e-06	1.0476e-05	548.5	177.12	8.9835e-06	1.057e-05	197.92	78.752	69.468	34.15	9.6101e-06	40.846	120.528	137.676	173.428	114.643	236.736	255.292	112.411	119.380	233.674	282.674	116.201	120.314	123.584	128.477	260.189	124.141	-8191	255	
40363.965	1	1	0	0	0.24007	0.070218	0.12036	0.12202	0.020764	0.18616	0.063445	0.24661	0.28398	0.16964	0.082458	0.088158	0.13274	0.17644	0.15652	0.14616	-2.6146	-3.1167	-3.1937	-2.9604	-3.1521	-3.1583	-3.0312	-3.1729	-2.9792	-3.1979	-3.2812	-3.0542	-3.2396	-3.3229	-2.9	-3.4313	325.917	274.750	121.093	391.461	285.465	425.276	179.698	399.084	110.240	107.471	404.923	142.671	378.634	368.819	172.426	261.546	0.00077969	0.00077195	9.722e-05	522.92	5.7079e-06	3.8436e-06	565.52	182.52	6.0466e-06	4.2006e-06	204.29	81.573	70.629	34.639	4.1464e-06	41.341	0.0007897	0.002954	0.00025867	506.05	9.1891e-06	1.0319e-05	546.27	177.36	8.8329e-06	1.0632e-05	198.05	78.77	69.568	34.16	9.8629e-06	40.68	118.451	126.270	194.858	114.473	230.882	241.610	112.487	119.008	229.470	284.394	116.338	120.290	123.616	128.754	265.847	123.891	-8191	255	
40364.062	1	1	0	0	0.14365	0.12726	0.28275	0.26147	0.11853	0.082879	0.099949	0.091302	0.26326	0.089529	0.24481	0.28	0.07647	0.17974	0.070887	0.16833	-2.7792	-2.7333	-3.1979	-2.8792	-3.225	-3.3042	-2.9979	-3.3875	-3.0625	-2.9875	-3.3917	-3.2729	-3.2896	-3.2604	-2.9396	-3.3937	378.300	140.573	304.016	277.248	175.410	153.766	380.541	158.913	102.144	184.351	411.790	134.271	455.996	384.630	423.466	387.490	0.00070562	0.00064659	0.00015972	523.6	4.3584e-06	6.1106e-06	566.2	180.48	6.2862e-06	3.7869e-06	202.38	81.858	70.597	34.693	4.9147e-06	41.775	0.00076922	0.002317	0.000261	506.7	9.1932e-06	1.0162e-05	546.98	177.72	8.774e-06	1.0033e-05	198.4	79.123	69.63	34.251	1.0039e-05	41.001	118.885	162.985	195.542	114.592	249.702	249.171	112.481	119.271	244.312	238.898	116.108	120.430	123.731	128.752	231.052	124.033	-8191	255	
40364.180	1	1	0	0	0.21897	0.057434	0.13906	0.13278	0.27996	0.03365	0.12093	0.14022	0.040529	0.11276	0.32209	0.068487	0.037667	0.20976	0.051551	0.26101	-2.5646	-3.0042	-3.2333	-3.0771	-3.4021	-3.3854	-2.9875	-3.3146	-3.1646	-3.0292	-3.4771	-2.9813	-3.2542	-3.4375	-2.9271	-3.4375	439.290	246.389	404.129	141.955	194.225	249.222	435.862	388.256	234.136	404.920	354.407	173.880	318.406	425.032	303.291	295.399	0.00074307	0.00024592	0.00026257	527.94	4.9111e-06	5.4361e-06	568.31	182.63	3.4258e-06	3.9162e-06	205.49	81.536	70.328	34.698	4.8326e-06	41.523	0.00077939	0.0018541	0.00046645	508.68	9.0343e-06	1.044e-05	548.43	178.52	8.529e-06	1.0759e-05	199.53	79.114	69.669	34.236	1.0186e-05	40.826	120.514	145.961	154.742	114.456	195.073	244.428	112.737	119.269	219.733	253.705	115.967	120.072	123.509	128.796	249.076	123.896	-8191	255	
40364.254	1	1	0	0	0.24188	0.21933	0.13066	0.31295	0.16455	0.075259	0.17316	0.44925	0.25194	0.17719	0.030008	0.26213	0.39024	0.1657	0.22516	0.18375	-2.8375	-2.9313	-3.1854	-3.1583	-3.275	-3.3312	-3.225	-3.3125	-3.2167	-3.1312	-3.2958	-3.2396	-3.1521	-3.4958	-3.0708	-3.1771	211.221	339.493	353.286	424.803	425.133	177.916	333.643	112.327	446.599	458.340	428.957	138.198	379.247	435.509	431.867	353.844	0.00075005	0.00036374	0.00026199	519.44	3.6525e-06	2.7475e-06	565.12	181.69	4.933e-06	2.9667e-06	203.62	81.329	70.725	34.63	3.974e-06	41.606	0.00078069	0.00093835	0.00064826	506.1	9.1239e-06	1.0589e-05	546.68	178.2	8.9708e-06	1.1094e-05	197.83	78.923	69.535	34.221	9.8326e-06	40.853	122.002	188.790	164.126	114.596	220.619	268.181	112.528	119.230	224.387	263.280	116.374	119.960	123.108	128.773	259.083	124.067	-8191	255	
40364.348	1	1	0	0	0.29205	0.086272	0.095291	0.023163	0.18645	0.076722	0.32027	0.16365	0.129	0.075329	0.11804	0.40095	0.11711	0.088311	0.19231	0.27691	-2.825	-3.075	-2.9833	-3.1583	-2.8354	-3.3812	-3.1583	-3.1646	-3.2604	-2.9813	-3.2854	-3.2562	-2.8458	-3.2958	-3.1604	-3.1458	178.768	342.846	229.540	217.505	391.766	137.555	453.763	126.189	247.884	345.596	445.932	138.184	135.327	442.494	114.368	403.208	0.00077168	0.00058694	0.00020214	526.15	3.3156e-06	2.4717e-06	567.7	181.73	5.0155e-06	3.687e-06	204.34	81.421	70.18	34.649	2.5325e-06	41.765	0.00076626	0.00098446	0.00082172	507.92	9.3793e-06	1.0291e-05	547.84	178.19	9.1053e-06	1.0609e-05	199.08	79.119	69.433	34.409	1.0074e-05	41.035	124.186	202.924	158.183	114.516	243.956	241.168	112.858	119.370	228.896	275.889	116.338	120.000	123.549	128.631	233.318	124.059	-8191	255	
40364.469	1	1	0	0	0.30191	0.28758	0.10023	0.084207	0.070482	0.21088	0.21706	0.13592	0.097638	0.1062	0.10845	0.15945	0.16044	0.12821	0.22114	0.24251	-2.9	-3.0979	-3.2687	-3.1271	-2.8479	-3.3917	-3.3063	-3.0271	-3.375	-3.0104	-3.25	-3.2729	-2.8375	-3.4437	-3.2167	-3.2167	401.506	279.209	460.918	123.684	235.642	425.705	129.960	324.560	415.035	292.234	365.113	218.410	322.986	390.038	322.247	400.782	0.00070925	0.00034053	0.00024216	525.9	3.2844e-06	1.5443e-06	568.01	183.21	3.9576e-06	2.4203e-06	203.95	82.33	70.975	34.632	4.9745e-06	41.913	0.00076283	0.00099075	0.00063943	507.64	8.9555e-06	1.0744e-05	549.22	179.23	9.278e-06	1.1082e-05	199.36	79.621	69.313	34.382	9.6065e-06	41.024	124.041	181.130	151.252	114.764	220.823	180.650	112.397	119.128	227.273	234.331	116.313	120.035	123.734	128.587	216.476	123.828	-8191	255	
40364.566	1	1	0	0	0.094184	0.078723	0.13658	0.17385	0.12955	0.43402	0.1368	0.33716	0.18122	0.025076	0.26244	0.23747	0.038153	0.26698	0.21589	0.17777	-2.8875	-2.8417	-3.1625	-3.2917	-2.9646	-3.3042	-3.2229	-3.0667	-3.3208	-3.05	-3.1063	-3.1625	-2.9354	-3.4417	-3.2667	-3.1354	327.350	445.467	373.466	415.820	370.424	445.788	117.085	407.571	289.507	309.605	403.299	313.766	414.057	396.123	448.760	413.306	0.00074489	0.00038159	0.00035946	519.93	4.2406e-06	4.2936e-06	564	182.18	4.3224e-06	3.3785e-06	203.2	81.201	70.56	34.584	3.7085e-06	40.978	0.00079042	0.00098619	0.00080218	504.74	9.4153e-06	1.0802e-05	545.61	177.82	8.8463e-06	1.062e-05	197.64	78.938	68.898	34.347	9.556e-06	40.545	122.623	209.791	168.557	114.714	229.980	250.236	112.506	119.066	232.358	277.913	116.106	120.304	123.716	128.654	223.837	124.415	-8191	255	
40364.660	1	1	0	0	0.11499	0.1685	0.15646	0.13501	0.14344	0.24121	0.15846	0.060358	0.2481	0.16083	0.25446	0.050643	0.23664	0.18229	0.11251	0.25557	-2.8479	-3.0417	-3.1333	-3.3396	-2.825	-3.2625	-3.0875	-3.1292	-3.2958	-3.0563	-3.35	-3.3937	-2.9458	-3.2604	-3.2687	-3.1667	297.004	334.069	427.861	456.148	122.387	256.936	352.954	308.492	451.709	184.284	398.622	206.939	326.865	403.159	249.025	292.517	0.00072275	0.00035178	0.00021591	519.82	3.1086e-06	4.262e-06	565.05	181.42	5.3031e-06	2.185e-06	204.06	81.519	70.997	34.799	5.0322e-06	41.63	0.00079645	0.00093315	0.00061961	504.76	9.2136e-06	1.0553e-05	544.62	177.35	1.8432e-05	1.0377e-05	198.61	78.78	69.159	34.417	9.7365e-06	40.885	122.129	193.722	162.993	114.732	224.626	263.477	112.437	119.147	248.572	238.185	115.828	120.279	123.483	128.631	241.334	124.135	-8191	255	
40364.781	1	1	0	0	0.096557	0.1649	0.226	0.019822	0.082883	0.11274	0.16578	0.18493	0.22611	0.235	0.11389	0.14644	0.10971	0.20661	0.032601	0.063573	-2.7604	-3.1188	-2.9938	-3.3937	-3.0875	-3.1688	-3.2167	-3.0292	-3.3604	-2.9938	-3.2875	-3.3937	-2.9771	-3.1958	-3.3333	-3.1896	316.097	133.431	455.707	418.404	307.123	332.747	379.273	435.187	156.984	155.820	164.351	125.430	142.896	148.467	233.267	170.253	0.00070186	0.00028308	0.00031847	523.34	3.3125e-06	3.9097e-06	568.39	182.05	8.543e-06	2.7301e-06	203.07	81.79	71.15	34.848	2.8505e-06	41.774	0.00078372	0.0009213	0.00083445	506.97	9.2727e-06	1.0676e-05	548.2	177.23	2.2072e-05	1.05e-05	198.81	79.345	69.316	34.62	9.6065e-06	41.072	124.236	213.117	183.395	114.527	246.212	283.575	112.134	118.866	272.988	230.605	116.490	120.260	123.250	128.774	248.794	124.124	-8191	255	
40364.852	1	1	0	0	0.10368	0.11963	0.30502	0.23217	0.16886	0.070467	0.019191	0.30395	0.23155	0.27115	0.1647	0.12824	0.13593	0.21437	0.29451	0.2446	-2.8833	-3.225	-3.0958	-3.4437	-2.9062	-3.2687	-3.2729	-3.2354	-3.3354	-3.0417	-2.9521	-3.4021	-2.9667	-3.0896	-3.2271	-3.0625	212.950	383.097	413.030	370.452	318.520	360.188	387.148	377.392	424.896	130.300	431.095	404.506	203.661	458.934	142.259	125.396	0.00073917	0.00026454	0.00012441	521.78	3.5271e-06	4.3797e-06	568.53	182.35	8.5619e-06	4.2946e-06	206.02	82.14	71.356	34.988	5.1812e-06	41.819	0.00079782	0.00091631	0.00060921	509.52	9.4132e-06	1.0379e-05	550.32	177.63	2.7645e-05	9.993e-06	200.21	79.514	69.574	34.739	9.5293e-06	41.236	120.729	224.933	214.011	114.415	224.759	289.527	112.723	118.869	314.784	229.008	116.201	119.937	123.238	128.564	212.470	124.180	-8191	255	
40364.949	1	1	0	0	0.25669	0.13341	0.12311	0.10375	0.25504	0.094944	0.30356	0.12512	0.1497	0.21561	0.028278	0.14625	0.20976	0.25861	0.1584	0.19349	-3.0229	-3.2062	-2.8729	-3.3854	-3.0771	-3.0396	-3.3146	-2.8896	-3.1979	-3.2979	-3.1188	-3.5354	-3.0167	-2.9917	-3.2167	-2.9771	385.973	322.556	190.409	125.747	368.434	208.632	398.497	449.256	132.156	269.209	214.665	442.874	437.250	424.715	118.715	308.387	0.00075743	0.0005267	0.00010554	526.17	3.1994e-06	3.3238e-06	569.73	183.68	8.0585e-06	3.1545e-06	205.16	81.942	71.444	35.008	3.761e-06	42.117	0.00079198	0.00090359	0.00044458	511.27	9.1165e-06	1.0376e-05	550.04	178.22	2.2077e-05	1.019e-05	199.3	79.383	69.63	34.779	9.73e-06	41.331	120.941	178.395	207.444	114.572	262.061	262.759	112.761	119.074	292.260	293.820	115.897	120.228	123.279	128.784	254.547	123.986	-8191	255	
40365.047	1	1	0	0	0.16091	0.095528	0.12258	0.080275	0.17545	0.14428	0.164	0.26813	0.13444	0.15462	0.25029	0.30966	0.27187	0.015977	0.26792	0.068474	-2.8917	-3.1667	-2.8708	-3.3875	-3.0146	-3.0646	-3.1896	-3.0563	-3.0083	-3.1792	-3.2	-3.2521	-3.2229	-2.9458	-3.4021	-3.0438	418.533	248.625	182.294	438.811	339.453	422.667	428.634	442.880	199.695	459.962	380.064	147.476	186.451	216.705	301.649	413.149	0.00074712	0.00054801	0.00011894	524.7	4.4756e-06	5.0396e-06	570.84	183.2	6.881e-06	2.8104e-06	205.56	82.49	72.032	35.243	4.0531e-06	42.853	0.00078783	0.00090417	0.00026996	512.4	9.0778e-06	1.0583e-05	551.91	178.73	2.7643e-05	9.998e-06	200.72	80.064	70.191	35.02	9.8709e-06	41.775	117.481	202.026	198.240	114.339	225.895	247.934	112.883	118.909	292.244	269.147	115.730	120.272	123.920	128.564	270.348	124.411	-8191	255	
40365.164	1	1	0	0	0.23896	0.14714	0.06002	0.18349	0.15027	0.09068	0.21627	0.38479	0.14258	0.097328	0.2826	0.13012	0.13503	0.12018	0.025348	0.14614	-2.7417	-3.3104	-2.7667	-3.1833	-3.0021	-2.9708	-3.5187	-3.15	-3.1896	-3.2396	-3.0896	-3.3542	-3.2229	-3.1104	-3.3125	-3.025	226.826	279.502	359.440	385.832	292.495	250.227	393.210	104.566	447.087	400.277	163.002	163.589	112.264	399.777	183.501	361.676	0.00072162	0.00046444	0.0001305	531.29	3.0764e-06	4.4581e-06	573.88	184.49	5.5229e-06	4.8923e-06	207.35	82.759	71.979	35.469	1.0658e-05	42.44	0.0007672	0.00099458	0.00027229	518.34	9.1993e-06	1.0763e-05	553.77	179.29	2.1359e-05	1.061e-05	201.64	80.433	70.253	35.09	2.1808e-05	41.723	120.599	183.020	199.613	114.595	273.768	249.646	112.706	118.933	270.816	262.165	116.260	120.058	123.309	128.788	198.406	123.849	-8191	255	
40365.262	1	1	0	0	0.14412	0.095925	0.13872	0.23126	0.1688	0.18076	0.14439	0.17769	0.098276	0.1144	0.18124	0.14977	0.20588	0.20506	0.13624	0.1592	-2.5458	-3.1375	-2.8083	-3.2938	-3.1479	-2.9021	-3.4125	-3.1375	-2.9792	-3.425	-3.0938	-3.2646	-3.1771	-3.0687	-3.3292	-3.1833	264.234	194.895	340.885	393.526	188.421	145.493	323.966	383.625	290.872	182.557	395.604	407.608	359.500	370.937	289.186	296.086	0.00073753	0.00036704	0.00011975	530.79	3.782e-06	3.0895e-06	574.03	183.75	7.2601e-06	2.4104e-06	204.99	82.085	71.606	35.397	6.0108e-06	42.479	0.00079147	0.00095982	0.00026795	515.57	9.1253e-06	1.1208e-05	553.7	178.73	2.7885e-05	1.0879e-05	200.41	79.975	70.161	35.085	2.3705e-05	41.814	120.329	183.359	178.428	114.475	204.178	258.572	112.341	119.044	330.947	289.651	116.297	119.852	123.179	128.740	171.016	124.107	-8191	255	
40365.359	1	1	0	0	0.099252	0.098572	0.15345	0.25457	0.087136	0.32963	0.12004	0.13435	0.16542	0.1548	0.23285	0.06448	0.094079	0.0473	0.17705	0.040031	-2.5979	-3.1562	-3.0062	-3.3688	-3.2333	-3.0187	-3.325	-3.1	-2.9292	-3.3417	-2.9646	-3.2583	-3.4854	-3.15	-3.2271	-3.1333	209.689	219.182	140.629	451.455	454.281	438.697	348.674	433.158	295.110	420.244	411.903	120.144	191.766	113.305	293.403	322.467	0.00077919	0.00040035	0.0001169	530.04	3.006e-06	3.6961e-06	572.47	184.83	2.8263e-06	4.205e-06	208.67	82.782	72.735	35.911	4.5048e-06	43.007	0.00079868	0.00095295	0.00026928	518.03	9.1918e-06	1.1021e-05	553.94	179.59	2.028e-05	1.0765e-05	202.03	80.374	70.759	35.349	3.0539e-05	42.211	123.028	181.958	191.700	114.735	222.494	267.692	112.529	118.973	335.919	232.228	116.397	120.333	123.193	128.645	154.380	124.111	-8191	255	
40365.453	1	1	0	0	0.096233	0.20541	0.10263	0.13969	0.18504	0.21746	0.1059	0.089392	0.057749	0.05175	0.21602	0.084588	0.10281	0.25247	0.090571	0.18097	-2.4958	-3.3542	-3.0083	-3.1354	-3.2562	-2.9396	-3.3167	-3.1417	-3.1188	-3.2917	-3.2458	-3.2021	-3.3937	-3.05	-3.2354	-3.3479	193.459	260.013	133.592	439.245	176.488	318.699	170.407	194.128	250.561	343.747	438.835	352.506	337.361	356.677	447.620	434.871	0.00076216	0.00054013	8.2706e-05	532.87	3.8353e-06	5.4696e-06	575.45	184.81	8.2388e-06	2.9432e-06	209.7	84.01	73.354	36.177	5.8401e-06	43.347	0.00081831	0.00097759	0.00027235	519.88	9.0703e-06	1.0945e-05	557.63	180.22	1.3778e-05	2.5067e-05	203.31	81.268	71.282	35.625	2.3401e-05	42.662	124.966	149.472	224.596	114.629	234.873	267.099	112.700	119.145	324.296	195.051	115.896	120.176	123.626	128.718	191.755	124.026	-8191	255	
40365.551	1	1	0	0	0.040059	0.11261	0.17628	0.23265	0.27163	0.25792	0.15375	0.35894	0.050013	0.1983	0.02624	0.21577	0.23218	0.19096	0.0093797	0.12682	-2.5271	-3.2979	-3.0729	-3.1417	-3.3125	-2.9854	-3.2562	-3.3063	-2.8812	-3.4146	-3.0563	-3.0854	-3.3792	-2.9354	-3.125	-3.3708	210.885	317.887	152.719	437.594	346.856	169.614	326.138	383.802	118.844	114.906	348.951	392.501	174.305	444.463	391.905	300.552	0.00077117	0.00030085	0.00010076	533.36	4.4602e-06	1.4229e-06	578.05	185.12	4.6998e-06	3.2492e-06	208.33	83.074	72.573	36.142	1.0654e-05	43.384	0.00081448	0.00095895	0.000256	522.16	9.3508e-06	1.1009e-05	557.16	180.57	9.3295e-06	2.6797e-05	202.83	80.783	70.972	35.632	2.9914e-05	42.596	120.159	201.434	213.263	114.723	247.212	237.734	112.409	119.019	210.678	400.378	116.426	120.053	123.773	128.695	189.355	124.235	-8191	255	
40365.645	1	1	0	0	0.29896	0.079861	0.12569	0.11138	0.13585	0.093786	0.038471	0.20575	0.15125	0.21103	0.34443	0.21477	0.076826	0.21144	0.017015	0.077957	-2.5271	-3.1917	-3.0146	-2.9146	-3.4104	-3.0479	-3.2083	-3.2646	-3.0896	-3.3208	-3.0187	-2.9792	-3.3833	-3.15	-3.2354	-3.4042	135.944	407.352	236.931	358.673	173.002	122.416	399.500	365.406	233.687	340.075	365.016	401.724	267.129	428.105	229.105	448.655	0.00078028	0.00032504	0.00012313	533.3	6.9577e-06	3.9975e-06	577.62	185.77	4.9463e-06	4.9913e-06	206.99	83.965	72.648	35.877	6.4256e-06	43.322	0.00081445	0.00098909	0.00026624	519.53	9.9307e-06	1.0572e-05	556.47	180.34	9.521e-06	3.3133e-05	201.9	80.948	70.993	35.629	2.3801e-05	42.446	124.577	196.470	205.758	114.330	237.916	216.670	112.505	118.880	236.325	423.985	116.073	120.392	123.190	128.633	177.434	124.269	-8191	255	
40365.742	1	1	0	0	0.10795	0.017739	0.19324	0.15723	0.17519	0.05763	0.15307	0.32087	0.19983	0.08307	0.22513	0.056025	0.14419	0.30644	0.26185	0.13426	-2.4042	-3.2896	-3.2583	-2.9396	-3.0312	-3.0271	-3.1479	-3.3104	-3.0521	-3.2687	-3.2062	-2.9562	-3.3729	-3.0833	-3.1188	-3.4021	256.381	260.394	160.454	115.270	431.152	292.175	128.503	395.620	346.618	161.654	144.369	112.384	232.885	411.034	238.693	282.367	0.00074782	0.0003842	7.8565e-05	536.88	9.7906e-06	4.1038e-06	575.42	185.78	4.4055e-06	5.3084e-06	207.3	82.889	73.243	36.359	1.0464e-05	43.749	0.00081748	0.00095042	0.00026841	518.27	2.1534e-05	1.0717e-05	556.78	180.6	9.7566e-06	2.6253e-05	202.39	80.838	71.204	35.704	3.0156e-05	42.746	120.352	192.108	185.467	114.634	235.548	262.073	112.480	119.095	220.523	371.758	115.889	120.237	123.331	128.360	210.299	123.913	-8191	255	
40365.859	1	1	0	0	0.14839	0.15232	0.15058	0.10705	0.22003	0.20838	0.12137	0.22755	0.14167	0.11288	0.15986	0.22025	0.3062	0.17931	0.080983	0.04274	-2.5604	-3.1437	-3.1	-3.0417	-3.3292	-3.1	-3.0854	-3.4458	-2.8375	-3.1521	-3.5417	-2.9021	-3.2667	-3.2938	-3.0167	-3.4042	425.251	281.871	441.569	309.394	166.186	317.576	122.346	409.832	177.971	320.509	150.064	399.321	362.525	172.389	442.088	108.042	0.00080298	0.00032311	7.3732e-05	533.88	7.7801e-06	3.4838e-06	581.86	186.08	6.711e-06	3.8328e-06	207.48	84.115	73.353	36.408	3.1224e-06	43.545	0.00083096	0.0010027	0.00026484	518.05	2.2399e-05	1.0807e-05	559.6	181.23	9.8295e-06	3.339e-05	203.18	81.362	71.696	35.88	2.0535e-05	42.896	121.627	194.015	171.719	114.450	261.709	243.295	112.392	119.011	261.892	415.042	116.120	120.285	123.519	128.730	174.004	124.116	-8191	255	
40365.957	1	1	0	0	0.23922	0.21166	0.094262	0.19007	0.059116	0.35912	0.46517	0.1056	0.27779	0.053498	0.087913	0.13114	0.37761	0.1851	0.15162	0.2724	-2.6292	-3.0917	-3.3354	-3.0354	-3.2708	-3.0958	-3.0917	-3.5292	-3.1021	-3.1979	-3.5354	-3.0458	-3.3292	-3.0812	-3.0354	-3.4604	357.201	170.699	209.194	413.391	315.911	308.350	450.029	153.815	328.321	204.071	136.036	317.240	386.466	110.468	103.485	336.966	0.00079377	0.0001532	0.0001016	537.69	1.3381e-05	4.3155e-06	578.46	186.97	4.2237e-06	2.6565e-06	207.77	84.086	73.331	36.346	3.2969e-06	43.546	0.00081542	0.00098049	0.00027829	520.24	2.8483e-05	1.0655e-05	557.42	181.56	9.5236e-06	2.5974e-05	202.74	81.087	71.583	35.822	1.3128e-05	42.989	120.885	268.955	213.515	114.530	267.239	272.278	112.642	118.965	214.761	443.745	115.644	120.050	123.119	128.670	206.587	124.143	-8191	255	
40366.055	1	1	0	0	0.10301	0.27704	0.15671	0.020083	0.1123	0.10355	0.17475	0.18687	0.19839	0.067621	0.052807	0.2413	0.17308	0.21231	0.24594	0.29946	-2.5854	-3.0563	-3.3021	-3.05	-3.2229	-3.0979	-3.2188	-3.3438	-3.0042	-3.2438	-3.3854	-2.9792	-3.1937	-3.1667	-3.0542	-3.3063	125.994	114.535	355.806	120.839	260.921	104.716	410.731	402.948	173.960	384.126	410.573	395.417	438.355	314.972	368.082	457.785	0.00075803	0.00047159	5.3433e-05	531.17	7.6387e-06	1.6787e-06	575.9	185.6	6.7638e-06	3.3213e-06	208.26	84.04	73.217	36.281	6.0344e-06	43.77	0.00079811	0.00095685	0.00027062	517.57	2.2511e-05	1.0772e-05	557.29	180.81	9.4554e-06	3.3827e-05	203.15	81.381	71.625	35.876	1.0459e-05	43.113	121.806	209.057	171.032	114.610	250.414	231.948	112.578	118.966	214.836	414.877	116.350	120.031	123.202	128.863	219.335	124.025	-8191	255	
40366.148	1	1	0	0	0.14807	0.16372	0.17665	0.036053	0.12107	0.14837	0.15566	0.026556	0.16447	0.13739	0.12513	0.25663	0.26896	0.26607	0.24586	0.086875	-2.7771	-3.0938	-3.2104	-2.9813	-3.2458	-3.175	-2.9	-3.1188	-3.0958	-3.1833	-3.4688	-3.0625	-3.2646	-3.2354	-3.0667	-3.325	144.122	339.232	126.457	430.688	411.658	203.058	111.649	401.161	359.507	112.931	398.568	395.206	255.499	131.372	306.406	385.849	0.00077662	0.00037442	9.8107e-05	534.82	1.1565e-05	3.7654e-06	579.79	185.93	3.8471e-06	3.4868e-06	208.17	84.183	73.476	36.505	5.34e-06	43.658	0.00080972	0.0010069	0.00028339	519.87	2.8016e-05	1.0784e-05	558.98	181.2	9.2097e-06	2.2249e-05	203.55	81.36	71.8	35.907	1.0486e-05	43.043	120.171	148.775	172.127	114.605	275.013	211.922	112.610	119.278	191.476	377.065	116.474	120.046	123.273	128.387	228.005	123.930	-8191	255	
40366.246	1	1	0	0	0.15703	0.11806	0.074071	0.24858	0.22114	0.096499	0.22889	0.29251	0.28669	0.078371	0.061938	0.21057	0.3556	0.057674	0.099398	0.12698	-2.8146	-2.8688	-3.2062	-3.1979	-3.1896	-3.3271	-3.1021	-3.3438	-3.3521	-3.025	-3.3187	-3.1146	-3.1063	-3.3646	-2.8333	-3.2438	219.092	131.644	187.984	398.284	308.622	114.654	362.488	379.470	162.410	236.978	121.057	429.141	397.983	117.795	150.467	377.602	0.00077801	0.00031553	9.5094e-05	530.51	6.3373e-06	4.0379e-06	578.3	185.84	7.2564e-06	5.3357e-06	207.87	83.26	73.175	36.276	2.0514e-06	43.55	0.00080092	0.0009893	0.00027134	518.47	2.1913e-05	1.0972e-05	556.91	181.02	9.4373e-06	1.336e-05	203.72	80.806	71.368	35.797	1.0259e-05	42.899	119.453	192.478	207.343	114.411	278.658	241.873	112.773	119.013	249.762	409.496	115.872	120.064	123.806	128.555	244.791	124.048	-8191	255	
40366.344	1	1	0	0	0.26668	0.16064	0.10107	0.20357	0.27567	0.14648	0.45553	0.13941	0.060021	0.23421	0.12007	0.042653	0.21849	0.083792	0.040472	0.082425	-2.7812	-2.8417	-3.2771	-3.1437	-2.9604	-3.3438	-2.8417	-3.2479	-3.0354	-3.0896	-3.1979	-3.2375	-2.9625	-3.5292	-2.8833	-3.3	403.728	394.072	331.072	440.592	340.956	460.491	412.707	440.512	443.323	342.499	162.755	159.845	133.883	325.102	311.479	214.347	0.0007792	0.00027051	0.00014033	533.79	9.1705e-06	1.4864e-06	576.74	187.06	5.3756e-06	4.6816e-06	208.05	83.217	73.688	36.371	4.6699e-06	43.959	0.00081582	0.00098974	0.00027889	518.53	2.7912e-05	1.1344e-05	557.18	181.4	9.3436e-06	1.1556e-05	204.52	80.936	71.87	35.939	1.0397e-05	43.322	121.746	193.131	237.315	114.684	277.078	324.873	112.450	118.836	232.491	265.613	116.570	120.188	123.430	128.880	232.355	123.781	-8191	255	
40366.465	1	1	0	0	0.23687	0.019581	0.34129	0.2864	0.13378	0.1246	0.099109	0.21729	0.11326	0.17677	0.12028	0.059299	0.026679	0.1315	0.24606	0.15631	-2.8917	-2.7604	-3.1208	-3.1875	-3.1521	-3.3979	-3.0563	-3.2438	-3.4167	-3.0583	-3.3958	-3.1	-3.1271	-3.5146	-3	-3.1542	143.128	399.541	378.058	415.970	170.120	236.683	437.560	123.952	267.753	157.688	360.898	108.549	383.754	208.706	320.857	147.388	0.00080778	0.00039616	5.9992e-05	533.39	4.7533e-06	6.3996e-06	579.78	188.09	5.3969e-06	3.4002e-06	209.2	83.826	74.182	36.594	6.3299e-06	43.651	0.00083771	0.0010225	0.00027383	520.1	1.8044e-05	1.3517e-05	560.22	182.24	9.6327e-06	1.1133e-05	206.36	81.327	72.307	36.076	1.0345e-05	43.209	122.639	187.415	199.101	114.557	313.686	257.474	112.387	118.994	206.675	265.213	116.131	120.026	123.512	129.056	241.083	124.177	-8191	255	
40366.559	1	1	0	0	0.23065	0.39122	0.031319	0.11157	0.039271	0.095903	0.16652	0.2499	0.086282	0.2632	0.15627	0.15282	0.12206	0.054085	0.17494	0.21972	-2.7271	-2.9729	-3.2188	-3.2083	-2.8979	-3.3646	-3.0021	-3.1542	-3.2354	-2.9667	-3.15	-3.2375	-2.975	-3.5312	-3.0917	-3.1875	302.209	446.215	293.297	386.083	291.953	228.993	176.249	385.665	360.840	376.256	441.561	406.183	102.045	237.125	109.274	133.541	0.00082744	0.00041798	7.965e-05	537.61	4.9982e-06	6.9256e-06	579.92	187.15	4.1735e-06	3.2954e-06	208.64	84.195	74.033	36.729	6.1639e-06	44.323	0.00082844	0.0010187	0.00026881	521.84	1.0574e-05	2.8683e-05	560.03	182.44	9.8148e-06	1.1363e-05	205.63	81.692	72.062	36.224	1.0454e-05	43.517	118.713	205.786	197.275	114.534	312.402	264.493	112.454	118.877	245.972	271.525	116.021	120.338	123.696	128.659	208.977	123.976	-8191	255	
40366.652	1	1	0	0	0.064693	0.21303	0.077795	0.07779	0.22635	0.10804	0.19436	0.12531	0.041341	0.095141	0.2344	0.034578	0.093444	0.14645	0.092172	0.32116	-2.975	-2.9938	-3.3583	-3.1333	-2.8958	-3.2958	-3.1063	-3.1437	-3.275	-2.9062	-3.2958	-3.2646	-3.1188	-3.2438	-3.0083	-2.9708	425.653	176.074	102.099	269.835	101.298	399.710	155.464	447.483	293.255	245.423	454.282	123.970	325.349	353.289	308.016	374.465	0.00077821	0.00050131	0.00012959	535.85	4.9875e-06	6.4079e-06	577.29	186.28	4.4746e-06	3.4485e-06	208.29	83.469	73.923	36.669	3.4217e-06	43.942	0.00080958	0.0010242	0.00026845	520.77	9.7705e-06	2.5627e-05	558.31	181.96	9.5879e-06	1.0591e-05	205.55	81.214	72.23	36.247	1.0214e-05	43.305	121.313	203.271	196.498	114.446	240.958	358.524	112.490	119.103	203.332	259.515	116.072	120.253	123.412	128.590	238.302	124.237	-8191	255	
40366.750	1	1	0	0	0.18712	0.15007	0.30016	0.19199	0.24111	0.18609	0.1479	0.068444	0.079619	0.23267	0.11948	0.21897	0.21064	0.18985	0.065982	0.2215	-2.8937	-2.9583	-3.0271	-3.2021	-2.8083	-3.3625	-3.2562	-3.0896	-3.3187	-3.1708	-3.1042	-3.3354	-2.8979	-3.2708	-3.1833	-3.025	440.077	154.689	238.163	358.604	175.459	364.496	355.347	349.123	214.142	160.258	292.127	404.262	160.175	239.882	429.434	351.406	0.0009009	0.00029881	0.00012905	539.71	4.3648e-06	5.8307e-06	580.1	187.67	4.1922e-06	2.6011e-06	209.07	84.102	73.806	36.732	4.8766e-06	43.961	0.00099002	0.00098041	0.00026723	522.33	9.4302e-06	3.3595e-05	560.68	182.57	9.5698e-06	1.1006e-05	205.67	81.683	72.355	36.378	1.0298e-05	43.277	120.264	175.846	191.617	114.485	217.828	328.522	112.582	119.085	224.578	234.157	116.033	120.415	123.469	128.629	212.299	124.209	-8191	255	
40366.824	1	1	0	0	0.17847	0.19579	0.070668	0.15218	0.13886	0.27979	0.064471	0.30069	0.060503	0.14289	0.1416	0.205	0.10626	0.23445	0.097248	0.10504	-2.8854	-2.9813	-3.0271	-3.3917	-2.9354	-3.075	-3.3375	-2.9688	-3.125	-3.0771	-3.1042	-3.3542	-3.1083	-3.2771	-3.2583	-3.15	232.893	180.720	203.413	290.013	336.311	313.418	287.243	378.343	363.086	388.749	324.467	453.053	165.294	422.271	429.935	364.524	0.00088675	0.00031384	9.5185e-05	538.15	4.9125e-06	3.994e-06	581.14	188.94	3.3229e-06	4.2595e-06	209.43	84.202	74.456	37.171	3.9663e-06	44.674	0.0016249	0.00097254	0.00027644	523.31	9.9789e-06	2.5662e-05	560.8	183.16	9.7157e-06	1.1298e-05	207.19	81.933	72.675	36.67	9.9943e-06	43.775	118.652	191.372	198.565	114.452	220.093	340.958	112.478	119.052	209.439	248.261	116.012	119.947	123.805	128.846	205.272	123.723	-8191	255	
40366.941	1	1	0	0	0.21042	0.027482	0.097231	0.18319	0.23882	0.14733	0.10238	0.1655	0.054157	0.056935	0.17059	0.087056	0.17653	0.10888	0.24944	0.12042	-2.8063	-3	-2.9938	-3.4792	-2.9708	-3.2521	-3.3833	-3.1417	-3.2625	-3	-3.0187	-3.0625	-3.0583	-3.2708	-3.3667	-2.9271	150.141	318.416	238.249	287.645	192.270	119.822	209.058	425.469	435.281	184.845	203.250	318.790	334.061	157.262	209.469	425.239	0.00092756	0.00038209	4.8876e-05	540.01	2.6778e-06	1.0735e-05	576.99	187.28	2.8653e-06	3.7912e-06	210.08	84.746	74.73	37.078	6.3255e-06	44.415	0.0014766	0.00095895	0.00027578	523.38	9.852e-06	3.2816e-05	561.63	182.85	9.438e-06	1.0635e-05	205.2	82.048	72.631	36.657	1.0389e-05	43.668	123.437	169.306	166.455	114.474	237.924	367.464	112.772	119.121	226.881	286.108	115.998	120.081	123.234	128.749	246.919	124.017	-8191	255	
40367.039	1	1	0	0	0.20771	0.17754	0.077856	0.046509	0.11534	0.016956	0.084236	0.14118	0.28198	0.11233	0.24276	0.10938	0.12564	0.15851	0.35806	0.15478	-2.8458	-3.0542	-3.1208	-3.2771	-3.025	-3.1312	-3.3438	-3.0229	-3.5312	-3.1896	-2.9583	-3.1188	-3.0104	-3.0187	-3.3146	-3.0021	409.355	438.798	361.048	450.154	330.942	157.056	325.090	138.251	424.153	460.080	107.913	164.549	180.996	411.290	199.103	117.564	0.00097175	0.00040466	6.8717e-05	541.72	3.1059e-06	5.5215e-06	581.69	188.66	4.9027e-06	4.3584e-06	209.26	84.345	74.415	37.333	3.9572e-06	44.663	0.0018243	0.00098995	0.00028341	523.57	9.4988e-06	2.53e-05	561.76	182.96	9.4935e-06	1.1014e-05	204.19	82.762	72.847	36.895	1.0534e-05	43.822	124.653	177.284	181.503	114.320	233.630	371.047	112.287	118.797	220.099	233.717	116.584	119.934	123.501	128.633	258.557	124.093	-8191	255	
40367.133	1	1	0	0	0.2431	0.29449	0.10937	0.13645	0.21528	0.1698	0.054982	0.1837	0.26217	0.037246	0.14884	0.11762	0.17784	0.22896	0.19181	0.27009	-2.7708	-3.0042	-2.85	-3.4854	-3.1	-3.1542	-3.4146	-2.9938	-3.2708	-3.1417	-3.1625	-3.225	-3.1354	-3.1521	-3.4313	-3.0438	344.904	185.358	417.811	349.748	171.287	325.614	231.784	280.566	233.616	271.839	416.732	409.644	432.085	368.503	377.673	442.207	0.00089395	0.00028063	7.4885e-05	540.93	6.414e-06	5.3721e-06	582.07	188.56	4.0476e-06	3.7658e-06	210.12	84.269	75.226	37.077	4.7384e-06	44.513	0.0014761	0.00094767	0.00026958	525.39	9.5341e-06	3.3543e-05	563.7	183.47	9.4728e-06	1.1091e-05	205.01	82.449	72.847	36.756	1.0353e-05	43.69	125.105	185.206	225.710	114.307	267.943	375.684	112.474	119.020	219.491	278.101	116.317	119.865	123.220	128.780	265.069	123.849	-8191	255	
40367.230	1	1	0	0	0.13293	0.081397	0.11278	0.14063	0.13615	0.1275	0.11587	0.1274	0.22447	0.10368	0.13659	0.043694	0.12702	0.1188	0.11476	0.16607	-2.8104	-3.3604	-3.1542	-3.3125	-3.0375	-3.1396	-3.4458	-3.0042	-3.2542	-3.2917	-3.1437	-3.35	-3.2188	-3.0771	-3.2604	-3.0062	161.501	286.100	301.069	297.440	419.659	455.956	356.399	205.060	247.227	116.027	459.375	391.576	368.132	411.423	400.704	101.698	0.00082778	0.00039741	0.00014536	539.29	2.3512e-06	3.8326e-06	579.07	188.46	6.5569e-06	4.4963e-06	209.08	83.771	74.348	36.954	5.8923e-06	44.033	0.0017569	0.00094348	0.00027749	522.03	9.346e-06	1.8939e-05	561.46	182.94	9.4099e-06	1.0844e-05	203.64	82.32	72.594	36.601	1.0306e-05	43.33	122.735	161.277	196.862	114.714	254.802	318.111	112.230	119.000	223.594	231.423	116.054	120.285	123.644	128.624	235.600	124.204	-8191	255	
40367.352	1	1	0	0	0.17162	0.13789	0.30162	0.054236	0.16115	0.23001	0.10616	0.14879	0.095369	0.012121	0.034579	0.25117	0.22064	0.1515	0.19961	0.075198	-2.6021	-3.175	-2.9521	-3.4271	-3.2021	-3.0646	-3.3688	-3.025	-3.0917	-3.4062	-3.0833	-3.3521	-3.2146	-3.0958	-3.2583	-3.2646	227.660	179.969	186.594	156.745	259.780	152.678	394.418	138.944	169.433	409.061	113.860	398.346	430.702	441.609	312.696	448.008	0.00083863	0.00040687	8.7731e-05	537.26	5.599e-06	1.9926e-06	576.46	187.1	2.9991e-06	2.961e-06	208.46	83.507	74.142	36.895	4.2788e-06	44.491	0.0014438	0.00096068	0.00028195	520.49	9.2856e-06	1.0759e-05	562.45	182.07	9.2706e-06	1.0775e-05	202.93	81.755	72.38	36.499	1.03e-05	43.445	130.605	167.440	168.228	114.589	222.905	229.797	112.378	118.780	247.989	237.940	116.156	119.909	123.672	128.645	242.261	123.947	-8191	255	
40367.422	1	1	0	0	0.095554	0.12087	0.17601	0.25667	0.086771	0.12591	0.02179	0.32578	0.027919	0.1578	0.131	0.21594	0.065135	0.10366	0.15027	0.29535	-2.6333	-3.2167	-2.8354	-2.9875	-3.0917	-2.9042	-3.3958	-3.0187	-3.0125	-3.5646	-3.0625	-3.1979	-3.0563	-3.0979	-3.2896	-3.1958	246.450	219.501	345.320	431.604	160.766	174.559	403.818	414.498	407.865	329.612	407.412	428.059	159.909	119.614	263.544	407.122	0.00089102	0.00028764	7.6614e-05	537.53	1.6026e-06	3.2065e-06	582.23	188.71	4.146e-06	2.4988e-06	208.86	83.794	74.148	37.071	5.6434e-06	44.358	0.0017806	0.00098135	0.00027205	521.37	9.2598e-06	1.1122e-05	563.98	182.43	9.6776e-06	1.0821e-05	204.12	82.655	72.681	36.653	1.036e-05	43.643	126.826	229.099	202.320	114.648	255.589	261.032	112.537	119.111	246.384	248.681	115.977	119.774	123.531	128.940	236.171	124.231	-8191	255	
40367.543	1	1	0	0	0.24561	0.10021	0.1071	0.29273	0.085628	0.12954	0.069096	0.17212	0.17569	0.14366	0.10654	0.12574	0.26691	0.014414	0.15137	0.21512	-2.6417	-3.2875	-2.8771	-3.1958	-3.25	-2.9437	-3.4917	-3.0792	-3.0938	-3.375	-2.9021	-3.2229	-3.2438	-2.9646	-3.2229	-3.2812	257.663	441.659	225.336	390.427	276.143	306.716	389.040	386.186	255.229	360.098	159.479	158.871	376.708	390.049	334.119	345.510	0.0007886	0.0010792	0.00011269	538.92	5.1364e-06	2.1657e-06	582.21	187.34	4.2449e-06	1.9994e-06	209.61	84.413	74.374	37.243	4.0117e-06	44.338	0.0011365	0.0014439	0.00026345	522.15	9.7148e-06	1.1228e-05	566.77	182.32	9.7666e-06	1.1467e-05	203.91	82.279	72.79	36.674	1.0048e-05	43.561	126.542	189.499	177.734	114.490	240.411	234.349	112.580	119.182	228.404	207.805	116.658	120.040	123.526	128.600	225.756	124.064	-8191	255	
40367.641	1	1	0	0	0.072936	0.11272	0.28386	0.17442	0.12575	0.1316	0.11387	0.13395	0.14263	0.22393	0.055692	0.11808	0.15505	0.060935	0.18294	0.11742	-2.6229	-3.0396	-2.925	-3.1479	-3.225	-2.7896	-3.1625	-3.0625	-3.0271	-3.5125	-3.1125	-3.0958	-3.3	-3.0104	-3.2604	-3.3729	364.291	153.183	244.127	152.868	415.640	266.656	434.730	453.239	183.163	309.008	410.334	144.314	102.574	203.715	131.439	202.017	0.00077932	0.00069763	0.00014054	539	3.4185e-06	4.7702e-06	583.88	187.88	4.4677e-06	2.1294e-06	209.43	84.123	74.849	37.328	6.0517e-06	44.57	0.00082516	0.0028079	0.00026014	522.54	9.543e-06	1.0963e-05	564.59	182.7	9.5973e-06	1.1341e-05	203.64	82.492	72.866	36.858	1.0301e-05	43.804	120.297	205.034	199.451	114.350	224.112	222.707	112.639	119.055	223.079	275.304	116.313	120.111	123.703	128.834	230.882	124.070	-8191	255	
40367.734	1	1	0	0	0.082002	0.023517	0.19779	0.09395	0.11059	0.053299	0.083525	0.49816	0.10787	0.079252	0.13337	0.22368	0.35605	0.2749	0.11193	0.12501	-2.5083	-3.1354	-2.8979	-2.9688	-3.3542	-2.9562	-3.1063	-3.3792	-2.9792	-3.425	-3.2292	-3.2333	-3.4875	-3.0271	-3.1813	-3.4042	276.932	453.904	367.610	220.850	287.276	115.614	459.490	336.878	442.077	254.063	409.621	348.643	390.172	143.664	158.971	392.407	0.00080514	0.00075167	0.00011485	538.39	3.7873e-06	4.5909e-06	581.94	189.17	4.7245e-06	4.2924e-06	209.17	84.619	75.417	37.665	4.842e-06	45.069	0.00082054	0.002325	0.00026536	523.04	9.6068e-06	1.1283e-05	567.07	183.55	9.5758e-06	1.1287e-05	204.51	82.383	73.525	37.165	1.0012e-05	44.092	121.973	228.148	204.554	114.714	259.665	252.859	112.699	119.020	215.632	232.358	116.207	120.024	122.986	128.632	233.921	123.896	-8191	255	
40367.832	1	1	0	0	0.2517	0.14072	0.15789	0.14115	0.21161	0.32165	0.18477	0.052533	0.16478	0.051402	0.26009	0.15881	0.16192	0.12225	0.022373	0.27114	-2.5854	-3.225	-3.0604	-3.0146	-3.2625	-3.1813	-3.1917	-3.3438	-3.0083	-3.3479	-3.2625	-2.8396	-3.2521	-3.0083	-3.1104	-3.3958	286.822	348.954	404.957	155.470	104.940	356.516	113.080	230.371	212.862	105.938	133.178	242.351	445.057	343.669	318.811	167.187	0.00077046	0.00062846	0.00011181	541.24	5.1947e-06	2.5789e-06	585.01	188.95	6.0068e-06	3.6257e-06	210.89	85.075	75.18	37.94	4.4993e-06	45.36	0.0008288	0.0028786	0.00025153	525.27	9.8601e-06	1.0588e-05	567.68	184	9.2874e-06	1.0621e-05	205.56	82.58	74.211	37.41	9.9416e-06	44.499	123.341	210.664	178.448	114.709	250.857	282.672	112.519	119.162	235.366	249.468	115.818	119.935	123.766	128.792	270.739	123.923	-8191	255	
40367.949	1	1	0	0	0.0156	0.13168	0.064338	0.080193	0.23586	0.09144	0.15513	0.12258	0.27036	0.25192	0.2739	0.20606	0.040729	0.10034	0.14572	0.17698	-2.5625	-3.2687	-2.9167	-3.2479	-3.3937	-3.15	-3.2479	-3.3937	-3.0167	-3.2438	-3.275	-3.1208	-3.1813	-3.2667	-2.9833	-3.425	247.464	270.217	179.107	273.614	381.571	380.502	421.425	362.366	197.137	111.157	117.521	456.139	151.619	418.313	400.369	385.978	0.0007787	0.00044315	0.00015118	541.95	4.0169e-06	5.039e-06	583.69	190.24	5.4288e-06	2.9927e-06	211.77	85.288	75.965	38.145	4.5729e-06	45.363	0.00080211	0.0022771	0.0002542	526.87	9.3514e-06	1.0948e-05	569.92	184.21	9.5986e-06	1.0506e-05	205.48	82.506	74.229	37.587	1.0066e-05	44.497	119.717	240.093	189.796	114.458	233.627	241.748	112.602	119.013	222.967	212.400	115.861	119.872	123.247	128.709	241.472	123.700	-8191	255	
40368.023	1	1	0	0	0.13673	0.097432	0.14037	0.1919	0.071911	0.28604	0.12935	0.35028	0.28289	0.042285	0.057946	0.10769	0.12459	0.16326	0.25599	0.090689	-2.5438	-3.1708	-2.9479	-2.9417	-3.3125	-3.2417	-3.2104	-3.4292	-3.0771	-3.2875	-3.3354	-2.8917	-3.3208	-3.2646	-3.2	-3.4229	416.232	425.728	390.988	337.595	344.024	365.901	393.339	397.731	376.891	402.689	423.647	324.927	173.972	210.021	386.982	379.197	0.00081351	0.0010302	0.00015034	543.3	6.616e-06	4.7746e-06	585.92	189.46	2.5027e-06	3.0785e-06	210.14	85.011	75.4	37.999	3.1153e-06	45.385	0.00081362	0.0028589	0.0002748	527.24	9.6917e-06	1.067e-05	565.87	184.62	9.1428e-06	1.0352e-05	205.25	82.58	74.401	37.584	1.0243e-05	44.505	121.579	224.639	201.533	114.413	219.172	260.311	112.506	119.163	225.104	259.691	116.056	119.989	123.442	128.808	251.311	123.889	-8191	255	
40368.117	1	1	0	0	0.12795	0.080539	0.27175	0.053465	0.089865	0.048091	0.20713	0.26913	0.092457	0.31895	0.014682	0.041911	0.18069	0.14605	0.069645	0.23579	-2.5958	-2.8375	-3.1917	-2.8354	-3.2021	-3.1396	-2.9396	-3.2479	-3.0312	-3.1292	-3.2146	-2.9104	-3.1937	-3.1729	-2.8604	-3.4021	105.253	273.881	105.664	171.500	421.264	324.787	240.867	384.469	395.879	160.998	378.899	102.981	367.663	390.026	191.268	149.128	0.0008178	0.00072201	9.8684e-05	542.99	3.7126e-06	1.4039e-06	590.46	189.53	6.0911e-06	3.4914e-06	211.68	85.07	75.581	38.259	3.852e-06	45.775	0.00082703	0.0022336	0.0002802	526.33	9.2937e-06	1.0524e-05	567.11	185.24	9.2713e-06	1.0426e-05	205.45	82.645	74.129	37.631	1.0141e-05	44.887	124.846	224.056	215.258	114.499	246.856	272.194	112.623	119.080	225.842	267.581	116.073	120.560	123.414	128.651	234.136	123.977	-8191	255	
40368.238	1	1	0	0	0.13045	0.42094	0.40366	0.12475	0.21105	0.12534	0.16351	0.23898	0.16077	0.11089	0.13578	0.21207	0.27103	0.059426	0.11519	0.22713	-2.5833	-2.9583	-3.175	-3.1896	-3.1667	-3.3604	-3.0792	-3.3583	-3.0896	-3.1	-3.3833	-2.9979	-3.3875	-3.3812	-3.1146	-3.3708	430.615	413.294	121.218	439.235	278.641	272.561	380.355	372.732	129.138	160.489	448.951	365.262	119.643	275.089	233.876	275.347	0.00084797	0.0004718	6.7269e-05	545.62	3.077e-06	5.4462e-06	588.19	188.36	4.2182e-06	4.2576e-06	211.98	85.671	76.096	38.472	4.3979e-06	46.119	0.00079789	0.0028344	0.00027002	528.29	9.1355e-06	1.0582e-05	567.59	184.91	8.8784e-06	1.0997e-05	205.69	83.024	74.805	37.974	1.0325e-05	45.121	123.600	216.168	159.979	114.848	199.860	212.175	112.686	119.418	236.516	254.695	116.275	120.430	123.815	128.791	237.428	123.745	-8191	255	
40368.336	1	1	0	0	0.17464	0.086467	0.29042	0.20717	0.092275	0.30401	0.052062	0.26715	0.071769	0.19892	0.020315	0.10154	0.12319	0.18384	0.24182	0.1068	-2.7313	-2.925	-3.35	-3.0625	-3.1979	-3.4042	-3.1146	-3.4062	-3.1896	-2.9854	-3.2208	-3.0125	-3.3479	-3.2854	-2.9833	-3.3542	393.648	151.348	284.455	135.669	285.969	190.025	453.227	415.922	289.630	238.251	229.230	309.614	452.913	422.486	186.933	446.775	0.00083797	0.00046546	0.00013526	543.09	4.4555e-06	2.5756e-06	586.31	189.26	5.3171e-06	2.1102e-06	210.81	85.174	75.626	38.154	3.687e-06	45.828	0.00080262	0.0013986	0.00043414	528.9	9.4907e-06	1.0658e-05	567.37	185.64	8.7231e-06	1.0905e-05	205.22	82.785	74.317	37.754	1.0111e-05	44.895	121.441	252.318	220.716	114.499	230.686	237.351	112.874	119.173	228.737	289.433	116.118	120.269	123.483	128.744	222.606	123.835	-8191	255	
40368.430	1	1	0	0	0.23349	0.2228	0.20489	0.080675	0.16093	0.16346	0.17939	0.14878	0.11689	0.0034883	0.22156	0.27815	0.15848	0.13825	0.13542	0.025514	-2.7792	-2.9354	-3.2396	-3.1792	-3.2021	-3.3729	-3.0646	-3.2438	-3.1417	-2.8312	-3.3021	-3.0271	-3.1312	-3.3167	-3.1458	-3.4708	291.850	373.948	337.111	398.586	405.178	213.177	447.780	322.080	218.039	460.002	451.136	145.023	418.605	303.894	269.324	441.674	0.00077624	0.00046883	0.0001918	546.52	2.5145e-06	3.6754e-06	585.86	189.08	4.9731e-06	4.5224e-06	210.9	84.986	75.443	38.112	4.3803e-06	45.722	0.0008108	0.00095035	0.0007795	527.61	9.0275e-06	1.0704e-05	567.03	184.46	9.0009e-06	1.0645e-05	205.06	82.545	74.524	37.742	9.7604e-06	44.821	121.035	180.028	267.834	114.446	232.612	219.514	112.703	119.097	219.292	253.082	116.074	120.179	123.300	128.590	249.329	124.281	-8191	255	
40368.527	1	1	0	0	0.12444	0.10133	0.13549	0.19296	0.048538	0.14085	0.2443	0.23401	0.1763	0.093087	0.17548	0.048863	0.27835	0.057977	0.058517	0.043986	-2.7292	-2.9333	-3.2854	-3.1833	-2.9271	-3.2313	-2.9667	-3.2167	-3.2646	-2.8958	-3.3312	-3.275	-2.9396	-3.4042	-2.9396	-3.3104	270.622	114.454	229.578	436.498	320.991	439.338	406.410	383.535	198.774	288.162	317.320	174.520	422.028	106.758	282.441	450.853	0.00081232	0.00031777	0.00016694	544.92	3.5059e-06	4.8106e-06	586.11	189.44	3.5187e-06	2.8411e-06	210.81	85.648	75.864	38.526	4.6264e-06	45.663	0.00079717	0.00095353	0.0006265	526.57	9.1022e-06	1.0555e-05	568.18	185.4	9.1823e-06	1.0954e-05	205.74	82.941	73.948	37.911	9.7178e-06	44.839	121.724	158.983	259.333	114.199	240.186	249.249	112.675	119.158	200.805	223.151	116.135	119.928	123.698	128.750	242.088	124.182	-8191	255	
40368.645	1	1	0	0	0.26796	0.10504	0.22024	0.30721	0.095213	0.18582	0.18117	0.18677	0.17777	0.18264	0.27144	0.19484	0.061977	0.27697	0.20247	0.099495	-2.8625	-2.9667	-3.3021	-2.9583	-3.1063	-3.2687	-3.1479	-3.125	-3.3417	-3.0854	-3.4167	-3.2167	-2.9542	-3.2625	-3.0646	-3.3604	109.560	349.749	194.681	365.547	176.887	292.671	393.211	145.171	395.896	357.295	276.710	316.586	125.192	413.190	416.331	175.412	0.00083702	0.00032014	0.00023727	539.69	4.7403e-06	4.5002e-06	586.39	189.5	5.4841e-06	2.789e-06	209.92	85.059	75.374	38.184	6.4825e-06	45.657	0.00082274	0.00095468	0.00078897	525.38	9.1321e-06	1.0684e-05	564.98	184.67	8.8764e-06	1.0594e-05	203.99	82.537	73.591	37.916	9.7921e-06	44.769	122.450	176.084	268.095	114.788	236.458	219.095	112.395	119.121	217.566	251.186	116.304	120.087	123.593	128.912	220.479	123.867	-8191	255	
40368.719	1	1	0	0	0.13616	0.13175	0.087208	0.055442	0.263	0.13233	0.19566	0.19158	0.20286	0.042799	0.10877	0.096938	0.14473	0.18054	0.23223	0.2897	-3.025	-3.0312	-3.3812	-3.325	-2.9917	-3.3625	-2.975	-3.1667	-3.1979	-3.0812	-3.0375	-3.3021	-2.9437	-3.3667	-3.1625	-3.0854	460.667	425.414	123.397	123.792	163.282	191.636	390.724	342.158	375.615	316.676	207.995	409.741	399.833	402.731	400.147	330.507	0.00081989	0.00052144	0.00014095	540.38	3.3128e-06	5.3566e-06	586.28	189.35	4.7851e-06	2.8309e-06	209.84	85.102	75.902	38.404	4.9168e-06	45.661	0.00080348	0.00097926	0.000618	525.16	9.2557e-06	1.0707e-05	566.03	185.39	9.4052e-06	1.0927e-05	205.53	82.588	73.891	38.008	9.2729e-06	44.882	123.232	202.972	255.514	114.223	250.788	262.575	112.715	119.002	257.365	226.921	115.733	120.076	123.476	128.764	275.527	123.632	-8191	255	
40368.812	1	1	0	0	0.30554	0.22252	0.37259	0.12396	0.064691	0.1296	0.12518	0.058998	0.067827	0.1726	0.16682	0.22122	0.22301	0.1168	0.10042	0.21561	-2.9375	-2.7708	-3.1042	-3.4396	-2.9667	-3.2729	-3.1958	-3.0708	-3.1375	-2.9583	-3.2354	-3.3167	-3.025	-3.3708	-3.3	-3	185.059	350.904	109.153	135.513	138.587	420.290	386.489	395.226	410.521	411.738	141.073	423.578	107.223	263.509	396.759	193.587	0.00081792	0.00039959	0.00012045	543.71	3.7934e-06	1.9686e-06	591.85	189.46	9.4128e-06	3.9863e-06	211.54	85.86	75.838	38.422	4.3252e-06	45.542	0.00080413	0.00094384	0.00078984	527.95	9.4132e-06	1.0344e-05	569.73	184.62	1.5956e-05	1.0314e-05	206.09	83.31	74.181	38.228	9.4787e-06	44.92	118.045	225.301	274.177	114.744	207.221	236.737	112.648	119.041	182.303	247.821	116.276	119.988	123.465	128.727	243.582	124.123	-8191	255	
40368.910	1	1	0	0	0.25437	0.27247	0.15602	0.25982	0.027809	0.09177	0.18058	0.31146	0.24736	0.21485	0.26306	0.26468	0.16638	0.19788	0.19104	0.12575	-2.9167	-3.0146	-3.1708	-3.1896	-2.9396	-3.3333	-3.3542	-3.0646	-3.1708	-3.0771	-3.1208	-3.2479	-3.1583	-3.2646	-3.1146	-3.0333	105.676	277.961	139.269	363.653	112.951	327.909	393.834	372.691	433.348	103.800	186.758	413.187	422.252	403.055	248.742	226.423	0.00078712	0.00036237	0.00015262	541.83	2.6091e-06	3.6231e-06	586.96	191.15	1.0731e-05	3.0326e-06	210.65	84.928	75.471	38.283	5.9242e-06	45.271	0.00081156	0.0009085	0.00060788	526.44	9.435e-06	1.0317e-05	568.23	184.88	2.7009e-05	1.027e-05	205.46	82.661	73.755	37.75	9.7791e-06	44.395	119.469	212.988	267.615	114.376	237.029	260.960	112.699	118.983	159.363	260.497	116.233	120.112	123.705	128.866	212.840	123.894	-8191	255	
40369.031	1	1	0	0	0.1472	0.12936	0.27431	0.1069	0.17281	0.065785	0.28381	0.17418	0.22585	0.037599	0.068201	0.39271	0.24118	0.11878	0.042011	0.11745	-2.8375	-2.8979	-2.9313	-3.1813	-3.2083	-3.1896	-3.275	-3.1333	-3.1917	-3.2313	-3.1562	-3.2062	-3.0875	-2.9729	-3.2	-3.0187	184.954	176.130	304.116	385.968	440.297	319.355	397.003	384.785	109.182	116.783	152.523	384.341	387.505	307.108	346.176	150.907	0.00079389	0.00050065	0.00021174	542.63	3.5125e-06	3.0233e-06	580.83	190.17	8.1397e-06	3.8999e-06	210.42	85.147	75.53	38.283	6.1814e-06	45.101	0.00080593	0.00091696	0.00068617	525.37	9.0078e-06	1.0377e-05	565.52	184.13	2.0567e-05	9.6265e-06	205.59	82.628	73.804	37.845	9.9575e-06	44.382	124.304	191.022	314.840	114.619	210.755	214.107	112.551	119.157	155.501	242.609	116.166	119.994	123.636	129.093	249.925	123.983	-8191	255	
40369.129	1	1	0	0	0.028969	0.25754	0.16297	0.1991	0.22215	0.071572	0.16988	0.15464	0.15698	0.23081	0.17244	0.15067	0.31287	0.021343	0.11395	0.16226	-2.8458	-3.15	-2.8625	-3.2812	-3.0583	-3.1937	-3.3229	-3.0667	-3.3583	-3.1833	-3.0312	-3.425	-3.2958	-3.1937	-3.2646	-3.0771	123.583	259.804	240.356	384.328	203.800	392.556	392.752	113.243	150.325	406.666	369.244	215.644	113.537	314.623	136.884	454.449	0.00082675	0.0003752	0.00014534	543.64	6.0133e-06	3.3615e-06	588.48	189.3	9.8949e-06	2.7352e-06	211.92	85.425	75.949	38.209	5.2466e-06	45.627	0.00080168	0.00092469	0.00033399	528.26	9.1796e-06	1.0419e-05	567.14	184.59	2.6273e-05	1.0317e-05	206.01	83.084	74.107	37.914	9.699e-06	44.705	120.451	189.377	275.756	114.299	230.466	219.250	112.559	119.114	172.808	225.846	116.084	119.971	123.301	128.650	230.543	124.140	-8191	255	
40369.223	1	1	0	0	0.19092	0.060635	0.10391	0.24726	0.1324	0.1171	0.28472	0.22097	0.25634	0.31866	0.11586	0.20266	0.12445	0.2567	0.091362	0.083868	-2.7313	-3.1333	-2.9688	-3.2771	-3.0062	-3.0146	-3.3688	-3.0271	-3.3271	-3.2208	-2.8833	-3.35	-3.0333	-3.1	-3.2583	-3.1396	178.908	355.000	279.853	348.044	366.502	244.629	424.253	449.176	160.282	279.141	455.936	413.706	283.409	432.904	414.402	320.059	0.0008426	0.00032855	0.0001213	541.59	4.7828e-06	3.0137e-06	590.87	190.26	7.706e-06	3.7933e-06	213.14	86.331	76.188	38.354	9.6784e-06	45.701	0.00079295	0.00091862	0.00026263	532.4	8.9284e-06	1.0654e-05	570.09	185.3	2.0318e-05	1.0139e-05	207.37	83.582	74.329	38.087	1.0683e-05	44.958	119.430	188.394	186.907	114.341	229.663	235.618	112.755	119.216	153.650	262.558	116.288	120.370	123.497	128.487	238.308	124.185	-8191	255	
40369.320	1	1	0	0	0.13577	0.14492	0.081483	0.14507	0.004072	0.16444	0.22075	0.15068	0.056527	0.12116	0.2224	0.251	0.2862	0.22107	0.15232	0.17269	-2.7708	-2.8896	-2.9083	-3.325	-3.4083	-3.0271	-3.3479	-3.0563	-3.1458	-3.2438	-3.0062	-3.3042	-3.1437	-3.0521	-3.5229	-3.1917	196.377	133.323	394.961	149.559	377.841	119.475	397.425	447.341	255.154	409.526	344.439	115.895	459.386	407.846	180.748	260.845	0.00081247	0.00037219	4.3835e-05	543	4.2373e-06	1.8042e-06	588.35	189.43	1.2713e-05	3.6976e-06	212.1	85.765	75.883	38.681	6.7232e-06	46.211	0.00081661	0.00090764	0.00025841	530.76	8.5868e-06	1.0169e-05	568.42	184.97	2.651e-05	1.0304e-05	206.21	83.546	74.504	38.157	1.8175e-05	45.209	118.426	178.566	239.686	114.467	246.280	198.805	112.491	119.078	165.301	260.218	116.229	120.192	123.735	128.482	247.913	123.903	-8191	255	
40369.414	1	1	0	0	0.32617	0.19146	0.1363	0.084186	0.40853	0.14271	0.021232	0.29108	0.26487	0.19264	0.066636	0.19384	0.35131	0.16919	0.073277	0.20971	-2.9062	-3.2458	-2.7521	-3.3042	-3.0667	-3.0958	-3.2438	-3.0396	-3.1271	-3.3146	-3.0042	-3.1396	-3.1583	-3.1854	-3.1292	-2.9521	201.025	371.060	390.138	374.063	166.275	155.085	433.397	442.888	329.504	322.533	412.461	149.312	429.327	353.387	239.159	200.141	0.00082888	0.00022042	9.9237e-05	543.02	3.2153e-06	3.1402e-06	591.45	190.07	7.8898e-06	3.2543e-06	212.01	86.393	76.176	38.599	1.4886e-05	46.149	0.00080471	0.00093423	0.00026201	532.69	8.5868e-06	1.065e-05	569.58	185.06	2.027e-05	1.0442e-05	206.52	83.724	74.465	38.099	2.8057e-05	45.272	122.458	167.132	180.235	114.527	255.903	211.165	112.509	119.193	201.401	246.764	116.304	120.405	123.408	128.908	271.468	123.802	-8191	255	
40369.512	1	1	0	0	0.10051	0.082138	0.27393	0.24642	0.18212	0.12681	0.082559	0.10129	0.1888	0.24602	0.13353	0.22271	0.17835	0.083057	0.14188	0.19503	-2.7125	-3.2667	-2.6958	-3.2667	-3.3229	-2.8729	-3.3771	-3.0271	-3.0687	-3.3063	-2.8792	-3.0438	-3.2104	-2.9396	-3.2208	-3.1125	352.374	253.158	107.028	113.712	244.553	116.419	181.206	281.023	220.287	169.039	384.127	429.360	126.477	411.481	378.985	439.778	0.0008472	0.00019829	8.893e-05	546.4	5.4769e-06	5.5845e-06	592.84	190.92	3.4787e-06	1.0647e-05	212.59	86.208	76.819	38.558	9.774e-06	46.136	0.00080626	0.00091494	0.0002608	531.61	8.6778e-06	1.0284e-05	571.59	185.22	2.2225e-05	1.2302e-05	207.22	83.806	74.68	38.184	2.218e-05	45.305	120.499	202.095	170.803	114.878	252.699	245.429	112.557	119.313	133.572	216.289	116.021	120.244	123.281	128.861	272.945	123.796	-8191	255	
40369.633	1	1	0	0	0.03832	0.10208	0.064731	0.16899	0.29842	0.17456	0.051362	0.41367	0.088775	0.17099	0.06891	0.28074	0.099216	0.066081	0.13298	0.1063	-2.7562	-2.9292	-3.0458	-3.1458	-3.3542	-3.0146	-3.4042	-3.0271	-3.0438	-3.3042	-3.0479	-3.3479	-3.2687	-2.9792	-3.1625	-3.2292	202.441	415.336	408.748	397.894	267.421	374.350	283.468	403.549	317.519	421.061	391.280	365.944	386.238	337.921	110.097	322.275	0.00083173	0.0004575	7.1382e-05	542.5	2.5013e-06	2.9373e-06	592.53	189.32	1.6675e-06	4.8544e-06	212.05	85.91	76.781	38.549	1.3752e-05	46.005	0.00081102	0.00094616	0.00025155	532.77	8.6092e-06	1.0271e-05	570.97	184.92	1.0556e-05	1.9749e-05	206.56	83.578	74.586	38.063	2.7869e-05	45.098	119.433	185.814	221.048	114.349	236.481	246.482	112.492	119.309	194.789	243.093	116.315	120.105	122.945	128.758	276.225	123.891	-8191	255	
40369.727	1	1	0	0	0.224	0.056084	0.13472	0.14748	0.16785	0.24226	0.31399	0.21568	0.11023	0.24005	0.095773	0.097374	0.13321	0.44218	0.13633	0.15603	-2.475	-3.2188	-2.8875	-3.1125	-3.2583	-3.0021	-3.3896	-3.1479	-2.7229	-3.3646	-3.0542	-3.0458	-3.2208	-3	-3.1813	-3.2396	371.024	265.243	226.170	449.325	161.469	128.647	356.889	438.523	355.583	343.686	213.973	416.371	155.840	441.273	189.400	342.260	0.00083097	0.00047227	0.00012705	540	2.3615e-06	4.1435e-06	593.4	189.19	4.769e-06	1.2631e-05	212.02	85.96	75.952	38.708	7.7276e-06	46.114	0.00080611	0.00092549	0.00025106	528.55	8.58e-06	1.0743e-05	570.18	184.37	8.863e-06	3.2076e-05	205.86	83.435	74.385	38.112	2.2069e-05	45.176	122.241	209.077	199.938	114.387	251.621	247.855	112.756	119.094	226.903	217.422	116.277	119.912	123.449	128.735	294.913	124.069	-8191	255	
40369.824	1	1	0	0	0.21836	0.13486	0.15405	0.18533	0.041992	0.21164	0.19228	0.076389	0.17961	0.27652	0.12583	0.14786	0.2438	0.19948	0.097887	0.26208	-2.3979	-3.2208	-3.0667	-3.0729	-3.4083	-2.9667	-3.2521	-3.2417	-2.7354	-3.2083	-2.9646	-2.9313	-3.3271	-3.1521	-3.175	-3.2583	348.382	346.262	156.777	388.729	123.690	130.479	287.586	296.027	433.203	144.391	110.036	321.743	351.965	322.378	407.173	432.402	0.00084822	0.00023182	0.00012448	542.5	3.4571e-06	3.5273e-06	589.31	191.1	7.1542e-06	1.0886e-05	213.44	86.285	76.659	38.945	1.1925e-05	46.414	0.00081535	0.00094081	0.00025233	530.9	1.1701e-05	9.8972e-06	570	185.11	9.0036e-06	2.4408e-05	207.16	83.828	74.808	38.323	2.8262e-05	45.501	121.309	219.580	203.561	114.420	188.508	271.385	112.509	118.854	231.565	222.756	116.134	120.014	122.934	128.682	290.907	123.780	-8191	255	
40369.941	1	1	0	0	0.20242	0.067279	0.12534	0.14932	0.11244	0.10664	0.094784	0.3414	0.076767	0.06584	0.093561	0.066184	0.19446	0.12695	0.099812	0.31356	-2.5396	-3.0583	-3.0708	-2.9646	-3.4542	-3.1312	-3.1458	-3.3396	-3.2333	-3.1167	-3.0542	-2.8979	-3.3125	-3.1083	-3.1396	-3.1542	156.776	243.601	113.670	339.834	153.227	410.012	181.679	368.282	246.953	146.373	433.622	443.857	136.833	108.982	394.404	395.733	0.00083846	0.00031655	8.7574e-05	544.82	2.6662e-06	3.1016e-06	591.78	190.4	7.0631e-06	9.9707e-06	213.53	86.192	76.656	38.796	8.4536e-06	46.181	0.00081711	0.00094001	0.00025195	529.43	1.7815e-05	9.6131e-06	572.67	184.94	9.2312e-06	3.1008e-05	207.15	83.952	74.705	38.234	2.2836e-05	45.257	119.939	169.329	214.229	114.428	245.105	245.532	112.635	118.991	223.432	208.625	115.986	120.064	123.052	128.806	277.128	123.953	-8191	255	
40370.016	1	1	0	0	0.15318	0.088409	0.20942	0.12089	0.036106	0.11771	0.40406	0.1806	0.1024	0.073882	0.11824	0.14816	0.28631	0.072049	0.19442	0.072761	-2.6104	-3.1937	-3.1688	-2.9208	-3.3458	-2.975	-3.1292	-3.3875	-3.1688	-3.1479	-3.2375	-2.9375	-3.3521	-3.125	-3.125	-3.4479	133.118	225.321	367.741	149.880	308.476	332.707	457.317	106.346	345.187	194.374	413.587	375.212	399.057	269.460	191.402	118.387	0.00076499	0.00016966	0.00014658	544.79	7.0182e-06	4.1385e-06	593.08	190.23	5.4916e-06	7.4025e-06	211.55	86.125	76.766	38.732	9.2653e-06	46.367	0.00081225	0.00091848	0.00025141	527.23	2.6436e-05	1.0163e-05	572.03	185.18	8.8824e-06	2.4325e-05	206.16	83.951	74.798	38.343	2.1778e-05	45.533	123.583	155.275	198.288	114.404	439.663	236.911	112.504	119.287	224.382	204.229	116.333	120.216	123.601	128.736	316.417	124.185	-8191	255	
40370.109	1	1	0	0	0.25477	0.11488	0.097613	0.14268	0.17985	0.098361	0.24877	0.19242	0.019299	0.26396	0.16145	0.23342	0.16097	0.50673	0.18518	0.2672	-2.65	-3.1333	-3.1625	-2.975	-3.2708	-3.0542	-2.8875	-3.375	-3.0021	-3.2708	-3.1562	-2.8354	-3.3375	-3.1042	-3.0896	-3.2146	142.963	212.359	349.960	415.149	305.079	230.312	411.522	118.613	201.940	292.443	369.765	423.275	356.776	103.010	357.792	374.320	0.00077848	0.0002905	0.00011412	545.12	3.0945e-06	3.69e-06	592.88	189.05	3.8769e-06	1.3339e-05	213.44	86.838	76.189	38.897	4.8836e-06	46.077	0.00078411	0.00094334	0.00023944	528.4	2.0636e-05	1.0203e-05	571.97	184.9	8.9126e-06	3.1931e-05	207.7	84.117	74.781	38.393	9.9655e-06	45.648	120.146	161.148	170.718	114.532	176.655	239.605	112.690	119.541	213.803	223.068	116.347	120.047	123.289	128.829	302.189	123.858	-8191	255	
40370.207	1	1	0	0	0.095071	0.19798	0.11101	0.22353	0.12093	0.063205	0.33744	0.10994	0.21507	0.098934	0.12743	0.075357	0.044343	0.16382	0.098461	0.062755	-2.5667	-3.1188	-3.0708	-2.9896	-3.0938	-3.0687	-3.0979	-3.3604	-2.9188	-3.1188	-3.3521	-3.0333	-3.1208	-3.2729	-2.85	-3.2562	422.684	197.186	120.120	373.057	149.633	208.010	391.908	112.015	202.702	286.631	413.461	364.530	300.428	416.591	211.019	221.189	0.00078515	0.00051722	0.0001003	541.82	6.9549e-06	2.6523e-06	588.54	189.77	5.3139e-06	9.8467e-06	214.39	86.68	76.928	39.015	4.7434e-06	46.825	0.00078812	0.00088914	0.00024902	527.93	2.6503e-05	9.9202e-06	572.62	184.61	8.9427e-06	2.4228e-05	207.64	84.439	74.946	38.48	9.6224e-06	46.216	119.934	169.025	210.556	114.409	447.242	256.396	112.749	119.144	222.635	237.649	116.236	119.913	123.713	128.327	236.726	123.879	-8191	255	
40370.324	1	1	0	0	0.21958	0.34934	0.26134	0.09748	0.1974	0.019085	0.04774	0.018922	0.037811	0.10786	0.089386	0.242	0.25274	0.36698	0.13632	0.1647	-2.7458	-3.0146	-3.2104	-3.0021	-3.1583	-3.2854	-3.1708	-3.4875	-3.0708	-3.1104	-3.2417	-3.0583	-3.2438	-3.3812	-2.9979	-3.2396	134.025	238.834	223.087	452.729	441.199	444.667	264.412	228.618	247.776	136.040	145.315	171.410	104.913	434.751	118.945	417.119	0.00081876	0.00044815	8.2619e-05	545.93	4.2749e-06	3.3276e-06	591.92	190.5	4.5617e-06	4.2241e-06	213.12	86.804	77.173	38.914	5.8147e-06	46.695	0.00080027	0.00095403	0.00024876	528.18	2.0253e-05	1.0187e-05	573.24	184.87	8.7071e-06	2.3746e-05	207.59	84.375	74.818	38.519	9.7683e-06	46.021	120.540	198.622	170.952	114.466	128.153	289.976	112.536	118.912	181.424	294.796	116.094	119.743	123.753	128.397	247.447	124.096	-8191	255	
40370.422	1	1	0	0	0.14965	0.16211	0.17002	0.139	0.16645	0.13164	0.10651	0.13712	0.16886	0.18859	0.20203	0.16112	0.11878	0.26783	0.064823	0.21036	-2.7	-3.0167	-3.3167	-3.0938	-3.1125	-3.1104	-3.0104	-3.2625	-2.9625	-3.0021	-3.2833	-3.2104	-3.275	-3.2042	-2.8917	-3.3271	101.343	189.063	204.015	426.643	407.394	209.899	117.944	371.122	293.946	102.552	340.561	405.621	154.272	407.863	332.565	367.004	0.00084482	0.00039525	9.1147e-05	545.14	7.6692e-06	3.3454e-06	593.26	189.78	5.0725e-06	4.2696e-06	213.37	87.291	76.702	38.972	5.0604e-06	46.433	0.00079071	0.00092361	0.00024406	527.35	2.5861e-05	1.0175e-05	573.14	184.81	8.7492e-06	1.0389e-05	208.15	84.398	74.909	38.554	9.5755e-06	46.177	120.199	173.061	199.362	114.445	143.579	257.469	112.589	119.155	206.730	264.703	116.081	120.228	123.158	128.613	240.509	124.229	-8191	255	
40370.520	1	1	0	0	0.048664	0.14499	0.16658	0.096353	0.094857	0.14347	0.25406	0.28658	0.08857	0.017587	0.13828	0.28451	0.066147	0.17881	0.16136	0.026213	-2.7062	-2.7854	-3.1375	-2.975	-2.9417	-3.1917	-2.9021	-3.1917	-3.2167	-2.9625	-3.225	-3.0687	-3.0583	-3.3479	-2.9708	-3.2792	349.087	272.678	272.031	407.657	426.191	328.475	322.056	460.114	274.481	293.884	446.515	389.866	402.538	441.128	328.519	107.779	0.00079213	0.00028432	0.00012213	540.05	3.4106e-06	3.0314e-06	595.62	190.84	5.0407e-06	2.2864e-06	215.09	87.079	77.102	38.996	4.9952e-06	46.798	0.00077556	0.00091515	0.00024689	525.64	2.0516e-05	1.0681e-05	575.02	185.47	8.5786e-06	1.0202e-05	211.11	84.818	75.141	38.608	1.0043e-05	46.193	121.999	188.041	201.213	114.522	157.867	234.402	112.399	119.115	201.607	203.718	116.582	120.345	123.258	128.943	266.593	124.174	-8191	255	
40370.590	1	1	0	0	0.27506	0.15693	0.20769	0.22959	0.049385	0.10618	0.17246	0.26654	0.17672	0.26327	0.15013	0.26136	0.24912	0.25482	0.047184	0.10317	-2.7896	-2.9104	-3.3375	-3.0667	-3.0083	-3.2562	-3.0438	-3.3125	-3.1813	-2.8104	-3.3146	-3.1167	-3.2354	-3.3083	-3.0479	-3.2917	340.008	263.619	188.796	448.594	150.152	184.530	389.599	409.407	108.081	437.657	196.031	319.916	137.417	433.354	273.802	157.588	0.00084332	0.00016446	0.00011229	543.16	5.8066e-07	8.0165e-06	594.47	190.98	4.3075e-06	2.3918e-06	213.11	87.227	76.143	39.303	5.4e-06	46.852	0.00080471	0.00093907	0.00024849	525.7	1.9121e-05	1.6212e-05	574.45	185.63	8.6127e-06	1.0143e-05	209.06	84.771	74.858	38.712	9.5119e-06	46.365	122.327	206.931	204.493	114.906	178.859	211.360	112.714	119.169	222.564	289.956	116.112	119.934	123.759	128.958	250.049	124.206	-8191	255	
40370.711	1	1	0	0	0.10209	0.13382	0.27165	0.24125	0.15921	0.17127	0.26759	0.23123	0.21381	0.15591	0.17329	0.19423	0.060875	0.24051	0.13728	0.13809	-2.9083	-2.8438	-3.2708	-3.2375	-3.0375	-3.2583	-3.0104	-2.9562	-3.2854	-3.0583	-3.2396	-3.2354	-2.7771	-3.3583	-2.9042	-3.2062	113.721	185.260	112.605	102.679	281.833	403.175	194.260	431.987	430.059	302.300	352.613	355.426	400.041	451.128	183.773	308.470	0.00088594	0.00028599	0.00010241	543.98	2.3536e-06	6.13e-06	592.93	190.28	7.9976e-06	3.5461e-06	214.4	87.148	76.877	39.356	4.8409e-06	46.914	0.00081347	0.00092513	0.00025516	526.52	8.6289e-06	2.2532e-05	575.49	185.61	9.0464e-06	1.0214e-05	210.71	84.858	75.156	38.761	9.535e-06	46.438	119.068	211.854	182.632	114.620	228.298	187.829	112.473	119.332	212.811	244.761	116.457	119.897	123.443	128.575	244.889	124.179	-8191	255	
40370.809	1	1	0	0	0.19269	0.079162	0.070566	0.07232	0.16259	0.22706	0.26853	0.070979	0.096312	0.052989	0.11344	0.061927	0.45115	0.1388	0.28099	0.31817	-2.8625	-2.9313	-3.0458	-3.1604	-3.0771	-3.3187	-2.9958	-3.0604	-3.2729	-3.0229	-3.3354	-3.1354	-2.8396	-3.4542	-2.9938	-3.0417	167.868	385.679	114.966	299.861	142.289	313.527	438.120	256.276	263.218	143.828	376.999	228.386	299.300	428.006	307.297	365.242	0.00082892	0.00064579	0.00011843	543.8	4.512e-06	5.9151e-06	597.78	191.74	5.3217e-06	2.476e-06	214.89	88.216	77.676	39.33	6.1401e-06	47.334	0.00081582	0.00093315	0.00024803	527.53	8.7076e-06	3.1492e-05	577.51	186.2	8.948e-06	1.0354e-05	210.86	85.511	75.602	38.901	9.4498e-06	46.703	123.013	189.382	188.480	114.232	226.926	182.739	112.835	119.192	224.401	248.743	115.736	120.062	123.558	128.397	236.222	123.956	-8191	255	
40370.902	1	1	0	0	0.12388	0.065775	0.14089	0.11015	0.10396	0.039824	0.11669	0.32184	0.24231	0.17321	0.23788	0.31568	0.05687	0.14372	0.07795	0.26624	-2.9021	-2.8729	-3.0958	-3.2146	-3.0417	-3.2833	-3.0062	-2.9896	-3.2958	-2.9604	-3.1688	-3.3771	-3.0271	-3.4125	-3.1562	-3.1396	305.002	163.389	429.191	434.569	158.844	177.647	333.585	348.130	181.008	215.583	446.359	423.847	322.348	169.917	195.763	419.032	0.0008204	0.00025168	5.9739e-05	543.11	3.4938e-06	9.2139e-06	599.56	192	5.0291e-06	1.9798e-06	215.89	88.777	77.447	39.523	5.0281e-06	47.414	0.0011127	0.0009041	0.00024717	529.09	9.2469e-06	2.4096e-05	578.28	186.03	8.9514e-06	1.0477e-05	212.62	85.765	75.565	39.012	9.4383e-06	46.578	121.172	169.695	176.074	114.502	242.091	156.345	112.543	119.051	241.220	206.529	116.352	120.355	123.367	128.650	230.548	123.967	-8191	255	
40371.023	1	1	0	0	0.21948	0.33829	0.11503	0.18426	0.037551	0.14936	0.11618	0.082625	0.3023	0.15711	0.090177	0.12797	0.1339	0.26791	0.19182	0.15648	-2.9896	-3.0792	-3.0229	-3.3458	-2.8937	-3.2542	-3.1667	-3.1167	-3.3688	-3.1208	-3.2625	-3.4125	-3.0229	-3.3292	-3.1875	-2.8792	341.033	196.116	228.613	166.025	380.175	281.875	357.990	226.136	107.371	460.417	127.475	362.939	186.680	442.302	313.298	245.534	0.00086853	0.00037154	0.00011404	547.42	4.4254e-06	8.6104e-06	600.47	191.89	3.9358e-06	4.7157e-06	216.33	88.096	77.642	39.514	6.1016e-06	47.235	0.0014112	0.00088415	0.00025289	530.54	8.9616e-06	3.1425e-05	578.97	186.84	8.9869e-06	9.9273e-06	211.66	85.555	75.599	39.081	9.7762e-06	46.632	118.991	155.232	177.274	114.347	232.969	192.462	112.448	119.036	237.182	258.144	115.952	120.014	123.181	128.487	234.133	124.157	-8191	255	
40371.117	1	1	0	0	0.26269	0.13819	0.14704	0.21424	0.11064	0.084575	0.26265	0.2909	0.21341	0.14235	0.31518	0.084215	0.26931	0.19882	0.26264	0.11127	-2.8896	-3.1479	-3.0917	-3.3458	-3.0583	-3.3229	-3.1437	-3.0708	-3.2542	-3.1208	-3.1021	-3.425	-2.9833	-3.4188	-3.0563	-3.1583	352.399	160.826	332.594	386.487	148.081	125.932	389.856	335.299	237.117	413.011	119.942	390.160	218.748	382.380	322.575	362.084	0.00072465	0.00055709	0.00010806	545.98	3.9312e-06	5.3941e-06	598.75	192.17	4.0352e-06	2.6616e-06	215.96	88.42	77.592	39.761	3.5044e-06	47.782	0.0017119	0.00085351	0.00025428	529.3	9.0547e-06	2.3961e-05	577.74	186.72	9.3811e-06	9.4605e-06	210.95	85.857	75.512	39.109	9.5964e-06	46.83	124.602	196.986	213.719	114.432	261.626	155.230	112.550	119.313	240.308	271.451	116.108	120.218	123.430	128.560	246.491	123.883	-8191	255	
40371.191	1	1	0	0	0.072789	0.098145	0.034368	0.1414	0.078882	0.2175	0.029669	0.35219	0.060558	0.083354	0.18226	0.21689	0.21436	0.26758	0.07527	0.30013	-2.7958	-2.9375	-3.0687	-3.3625	-3.075	-3.1562	-3.1458	-3.0542	-3.1958	-3.0375	-3.0833	-3.2604	-2.9313	-3.2521	-3.3312	-3.0917	261.653	156.196	348.514	353.235	175.426	451.594	428.326	419.039	181.906	226.435	341.521	133.767	102.997	369.888	460.718	404.477	0.00076804	0.0003325	8.6095e-05	547.18	2.421e-06	7.9822e-06	604.93	191.65	3.6056e-06	3.0952e-06	217.59	88.439	78.118	39.596	4.556e-06	47.939	0.0014106	0.0008986	0.0002493	530.17	8.8733e-06	3.0725e-05	582.36	186.64	8.9721e-06	1.0282e-05	211.64	86.477	75.845	39.172	9.5719e-06	47.066	123.479	185.311	155.748	114.602	281.058	182.923	112.709	119.088	259.038	243.927	116.025	119.881	123.451	128.851	240.108	124.012	-8191	255	
40371.312	1	1	0	0	0.064684	0.14267	0.091024	0.090596	0.087022	0.08912	0.11634	0.15249	0.17283	0.19101	0.50488	0.092966	0.18027	0.17086	0.10047	0.12288	-2.8521	-3.0708	-2.8812	-3.5208	-2.7146	-3.0729	-3.2521	-3.0979	-3.2313	-3.1479	-3.1354	-3.4479	-2.9625	-3.0979	-3.1292	-3.0896	381.775	186.839	319.272	378.551	350.571	126.538	301.897	303.361	263.592	399.469	122.678	116.071	424.921	150.753	136.735	330.628	0.00070516	0.00037727	0.00010721	542.81	4.0271e-06	7.8889e-06	601.59	192.2	7.5753e-06	5.406e-06	216.33	88.58	77.462	39.853	4.3701e-06	47.73	0.0017306	0.00090612	0.00026602	529.31	8.692e-06	2.4204e-05	581.73	186.66	8.7091e-06	9.9486e-06	210.06	86.67	75.751	39.363	9.366e-06	47.002	115.629	169.264	202.818	114.427	221.234	218.619	112.835	118.984	238.515	241.865	116.142	120.311	123.235	128.759	237.306	123.964	-8191	255	
40371.406	1	1	0	0	0.18839	0.22267	0.18864	0.18996	0.096095	0.1597	0.23528	0.21541	0.32805	0.075996	0.19119	0.22255	0.17147	0.11641	0.1736	0.19267	-2.8333	-3.2021	-2.9521	-3.3771	-3.0771	-3.1979	-3.3187	-2.9604	-3.1708	-3.1688	-2.925	-3.2438	-3.1771	-3.1021	-3.3021	-3.125	255.171	256.561	430.120	304.161	448.687	231.192	392.513	358.036	164.906	335.075	440.580	177.180	205.481	120.499	200.981	415.764	0.00070033	0.00040033	0.0001019	547.29	2.5017e-06	3.3849e-06	602.58	191.74	4.6638e-06	4.6278e-06	216.78	88.438	77.851	39.717	5.6166e-06	47.605	0.00142	0.00092679	0.00025647	529.92	8.5786e-06	1.9962e-05	582.24	186.44	8.6616e-06	1.0338e-05	210.43	86.383	75.848	39.385	9.6585e-06	47.041	118.950	175.383	203.365	114.758	274.828	200.937	112.471	119.171	237.510	255.398	115.678	120.190	123.426	128.883	236.036	124.158	-8191	255	
40371.504	1	1	0	0	0.055727	0.2635	0.080654	0.20346	0.11111	0.27793	0.12307	0.074243	0.044237	0.077751	0.15447	0.10542	0.29187	0.17974	0.13891	0.10981	-2.7333	-3.1104	-2.8937	-3.3542	-3.1479	-2.9938	-3.3604	-3.0958	-3.2792	-3.3187	-2.8542	-3.2083	-3.2417	-3.0854	-3.2313	-3.0708	196.622	309.330	190.355	451.837	381.011	222.843	302.200	287.568	213.216	340.742	433.832	197.871	421.877	105.074	193.873	390.100	0.0007247	0.00047367	5.6938e-05	546.01	5.6734e-06	5.8505e-06	601.56	192.48	4.3475e-06	3.2394e-06	217.47	89.422	77.923	40.071	2.4898e-06	48.315	0.0017552	0.00094616	0.00024629	528.62	8.7138e-06	1.0305e-05	584.39	187	9.0906e-06	9.9577e-06	210.97	87.114	76.054	39.593	9.86e-06	47.506	116.839	205.095	216.670	114.262	240.994	249.705	112.764	119.079	213.556	224.899	116.164	120.326	123.457	128.583	214.735	124.135	-8191	255	
40371.621	1	1	0	0	0.18276	0.20115	0.11266	0.06811	0.2354	0.15945	0.16818	0.05404	0.15458	0.12184	0.1378	0.14198	0.16317	0.22463	0.20745	0.18336	-2.7479	-3.175	-2.7979	-3.3396	-3.1979	-3.125	-3.4313	-3.1	-3.0708	-3.3771	-2.9979	-3.1542	-3.1937	-3.1104	-3.1833	-3.0604	427.317	165.255	262.577	342.291	460.403	407.215	373.153	453.612	132.270	303.940	336.568	208.218	417.358	146.988	132.410	105.143	0.00076499	0.00023781	0.00013953	547.34	3.1468e-06	1.7548e-06	609.56	192.67	5.209e-06	2.8646e-06	217.26	89.211	77.805	40.005	3.8213e-06	48.192	0.0014064	0.00093235	0.00024803	531.12	8.6214e-06	1.0036e-05	589.29	187.03	8.7753e-06	1.0187e-05	212.19	87.156	76.074	39.575	9.5906e-06	47.347	121.068	182.001	177.489	114.537	227.467	268.580	112.484	119.189	222.525	207.451	116.204	120.370	123.343	128.917	230.078	123.946	-8191	255	
40371.719	1	1	0	0	0.1803	0.11637	0.1195	0.28437	0.083296	0.28376	0.12961	0.10956	0.1106	0.21461	0.33968	0.25868	0.47813	0.15957	0.22316	0.4962	-2.5646	-3.2167	-3.0604	-3.1958	-3.2042	-3.1229	-3.3792	-3.1312	-3.1229	-3.2542	-2.8771	-3.3125	-3.3187	-3.1063	-3.4542	-3.3937	210.957	194.406	408.738	146.915	227.048	250.856	456.682	114.810	257.862	407.933	411.460	355.044	138.135	441.582	351.283	398.883	0.00070185	0.00054914	9.6205e-05	546.18	4.587e-06	3.4462e-06	603	191.63	4.8751e-06	1.4091e-06	217.35	88.774	77.312	39.851	7.4754e-06	48.214	0.0011715	0.0017241	0.00024456	529.88	8.8462e-06	9.9619e-06	585.37	186.24	9.0832e-06	1.0494e-05	210.91	86.935	75.807	39.506	9.4058e-06	47.32	125.521	149.093	194.994	114.214	227.706	241.785	112.760	119.129	257.138	240.069	116.032	120.439	123.497	128.566	242.471	124.160	-8191	255	
40371.816	1	1	0	0	0.33434	0.069547	0.22907	0.2288	0.20597	0.065315	0.31358	0.32986	0.17652	0.061496	0.17413	0.18065	0.20411	0.034584	0.33468	0.029662	-2.6646	-3.2396	-3.0521	-3.0396	-3.1688	-2.8896	-3	-3.1021	-2.9521	-3.3812	-3.0979	-3.2333	-3.3854	-3.1229	-3.1625	-3.3104	202.106	329.289	274.015	370.417	337.385	268.525	356.679	433.121	296.393	267.085	344.212	453.570	113.345	432.561	388.816	370.314	0.00086223	0.00015302	0.00015582	546.25	5.7584e-06	3.8564e-06	609.13	191.86	4.213e-06	2.3716e-06	217.29	89.2	77.983	40.059	4.647e-06	48.422	0.00082011	0.0020965	0.00023713	531.13	8.6065e-06	1.0223e-05	588.88	186.87	9.2352e-06	1.0386e-05	211.48	87.179	76.028	39.57	9.5618e-06	47.545	119.788	147.388	196.288	114.530	221.550	280.108	112.284	119.158	226.553	238.933	116.447	120.450	123.185	128.621	240.259	124.250	-8191	255	
40371.887	1	1	0	0	0.13286	0.093069	0.13529	0.22751	0.18153	0.20053	0.066542	0.24463	0.13482	0.18077	0.071756	0.13095	0.10697	0.1478	0.17003	0.44933	-2.5125	-3.2292	-3.0354	-3.2396	-3.1667	-2.9229	-3.2625	-3.3375	-2.9208	-3.4104	-2.9729	-3.1667	-3.4375	-3.1708	-3.1667	-3.2146	226.401	241.588	368.861	444.361	419.097	345.774	289.826	336.211	201.391	218.636	316.832	317.923	396.581	394.692	447.495	342.292	0.00089333	0.00053128	0.00014381	546.92	3.1889e-06	3.6365e-06	603.45	192.01	4.8686e-06	3.8713e-06	217.84	89.167	77.812	39.947	5.9807e-06	48.573	0.00082105	0.0027071	0.00024731	531.78	8.9121e-06	1.0325e-05	587.71	187.01	8.9554e-06	1.0542e-05	212.21	87.194	76.355	39.516	9.2426e-06	47.558	119.969	400.868	203.119	114.605	250.094	248.337	112.441	119.044	223.380	238.415	116.247	120.163	123.501	128.712	242.538	124.190	-8191	255	
40372.008	1	1	0	0	0.19647	0.22928	0.039598	0.29363	0.11513	0.16631	0.10038	0.31904	0.044582	0.07768	0.062499	0.11705	0.1327	0.05516	0.22416	0.32138	-2.4813	-3.1688	-2.8979	-3.0875	-3.1312	-2.8583	-2.9813	-3.2604	-2.9021	-3.3063	-2.9188	-2.9292	-3.3688	-3.1479	-3.175	-3.3375	241.362	404.640	327.296	391.094	344.501	106.289	307.139	395.104	299.689	305.524	255.092	392.917	382.480	273.481	306.329	410.645	0.00082313	0.00051297	0.00013429	547.69	2.7008e-06	5.0002e-06	604.23	191.51	4.0893e-06	5.7917e-06	217	88.817	77.359	39.885	4.0105e-06	48.466	0.00082959	0.0021757	0.00023972	530.12	8.6065e-06	1.0402e-05	587.08	186.69	9.0745e-06	1.005e-05	210.76	86.478	76.137	39.409	9.8766e-06	47.402	122.761	435.507	161.348	114.499	244.052	254.421	112.719	119.325	238.287	241.311	116.409	120.228	123.616	128.881	248.288	123.990	-8191	255	
40372.105	1	1	0	0	0.14365	0.12323	0.13057	0.13858	0.17799	0.12965	0.16527	0.22867	0.24903	0.23489	0.03066	0.11352	0.30255	0.20226	0.22889	0.25242	-2.5604	-3.4271	-3.0563	-2.8083	-3.3021	-3.0542	-3.0646	-3.15	-2.8688	-3.1521	-3.0771	-2.8042	-3.3688	-3.0792	-3.0958	-3.2062	253.900	358.008	433.899	455.759	401.521	159.969	428.669	125.511	158.094	273.580	356.233	440.417	101.410	396.362	442.969	430.954	0.00081286	0.00031418	7.481e-05	548.44	3.1226e-06	2.0822e-06	605.1	192.08	4.8053e-06	4.3855e-06	215.94	89.702	77.36	40.025	5.5984e-06	48.6	0.00078469	0.0026991	0.00023795	528.97	8.8924e-06	9.9635e-06	586.88	186.64	9.015e-06	1.0263e-05	211.11	86.688	76.504	39.424	9.5553e-06	47.569	124.244	437.637	168.754	114.183	241.178	250.217	112.634	119.383	229.794	259.049	116.137	120.318	123.819	128.511	234.831	123.984	-8191	255	
40372.199	1	1	0	0	0.19952	0.07242	0.16136	0.15009	0.12278	0.39072	0.20222	0.23204	0.086952	0.079064	0.20943	0.21934	0.13861	0.087615	0.16969	0.15879	-2.5458	-3.2896	-3.1333	-3.1229	-3.4667	-2.9958	-3.1063	-3.4292	-2.8937	-3.1562	-3.2812	-2.8583	-3.3021	-3.0542	-3.0125	-3.4417	128.516	247.303	222.946	376.779	215.578	337.500	201.714	273.961	205.770	380.403	440.931	226.967	157.029	114.247	422.217	379.021	0.00086784	0.00038682	0.00010328	544.1	3.6385e-06	3.8506e-06	606.67	192.33	4.5476e-06	3.0244e-06	217.73	89.942	78.327	40.373	4.4882e-06	48.905	0.00081935	0.0020942	0.00026215	529.06	8.8835e-06	9.7294e-06	587.26	187.68	8.5659e-06	1.0074e-05	212.09	87.265	76.87	39.846	9.6795e-06	48.042	122.796	115.451	203.157	114.514	215.899	265.833	112.513	119.031	219.646	223.198	116.262	120.207	123.643	128.606	243.078	124.001	-8191	255	
40372.297	1	1	0	0	0.16702	0.19634	0.16311	0.23815	0.070931	0.16166	0.14855	0.13252	0.063196	0.4331	0.28783	0.10533	0.26714	0.10097	0.28853	0.17411	-2.5563	-3.2062	-3.1167	-3	-3.3833	-3.0333	-3.1104	-3.4333	-3.1667	-3.2604	-3.0812	-3.0854	-3.3604	-3.3688	-2.9083	-3.3688	408.503	221.758	438.989	460.297	197.701	165.230	432.241	448.466	127.994	234.057	294.539	292.169	348.077	106.031	120.570	326.785	0.00085736	0.00060391	5.3014e-05	548.19	4.2737e-06	6.5794e-06	608.13	192.32	5.74e-06	5.9986e-07	217.3	90.03	78.134	40.308	4.8534e-06	48.98	0.00082956	0.0027344	0.00024867	533.3	8.9739e-06	9.9701e-06	589.28	188.18	8.5592e-06	1.024e-05	212.36	87.315	76.987	39.792	9.7474e-06	48.018	120.924	449.741	203.939	114.577	249.949	249.013	112.738	119.171	217.976	228.383	116.265	120.236	123.276	128.621	244.976	123.912	-8191	255	
40372.391	1	1	0	0	0.08318	0.1051	0.05731	0.19911	0.076233	0.16758	0.25476	0.049881	0.077089	0.14431	0.10809	0.15457	0.25905	0.22121	0.05061	0.17143	-2.8271	-3.0062	-3.1833	-3.0333	-3.025	-3.2333	-2.825	-3.2146	-2.7812	-3.075	-3.5083	-2.975	-3.2729	-3.225	-2.8771	-3.325	459.430	183.997	208.755	260.408	449.619	355.694	378.657	110.139	112.922	287.023	359.299	404.599	141.160	377.979	359.688	376.476	0.00086818	0.00011014	0.00011673	544.75	4.4826e-06	4.7328e-06	608.4	192.32	6.3534e-06	4.054e-06	218.25	90.075	78.289	40.494	4.0694e-06	49.099	0.00080171	0.0019867	0.00025444	530.43	8.747e-06	9.6852e-06	586.09	188.07	8.6495e-06	1.0241e-05	212.23	87.238	76.83	39.874	9.6e-06	48.155	119.812	280.137	183.214	114.520	241.427	256.031	112.498	119.330	222.253	249.490	116.204	120.263	123.515	128.552	228.031	124.212	-8191	255	
40372.488	1	1	0	0	0.12086	0.10625	0.10068	0.10756	0.032889	0.12411	0.14281	0.20711	0.17954	0.19976	0.050486	0.074076	0.34419	0.22837	0.229	0.13016	-2.5854	-2.9083	-3.0958	-2.9396	-3.1396	-3.2417	-2.9833	-3.3604	-3.0083	-2.8021	-3.2958	-2.9875	-3.2667	-3.1417	-2.8125	-3.3063	406.981	433.817	247.261	326.198	258.852	282.084	435.457	388.369	156.603	149.407	160.927	439.917	132.126	426.015	347.179	247.405	0.00085903	0.00025124	0.00026588	546.79	4.1742e-06	4.9276e-06	612.02	193.33	4.0598e-06	4.5929e-06	219.02	90.559	78.132	40.519	5.6143e-06	49.436	0.00081012	0.0013896	0.00053142	531.17	8.5093e-06	1.0066e-05	590.02	188.58	8.6007e-06	1.0417e-05	213.55	87.722	77.227	40.089	9.5155e-06	48.573	120.666	398.326	149.569	114.302	234.300	255.407	112.422	118.975	228.268	219.553	116.401	120.212	123.574	128.439	253.135	124.184	-8191	255	
#DATA ENDS
