BOXY.EXE: ISS Imagent and Oximeter Data Acquisition Program Version 0.80
Ascii Record File

#ACQ INFORMATION
2  Detector Channels 
16  External MUX Channels 
1  Auxiliary Channels 
5000  Waveform (CCF) Frequency (Hz)
1  Waveforms Skipped 
30  Waveforms Averaged 
1  Cycles Averaged 
16  Acquisitions per Waveform 
10.0806  Updata Rate (Hz) 

#FILE INFORMATION
TRUE -- External MUX Channel results are PARSED.
FALSE -- AC DC and Phase are NOT grouped.
TRUE -- Companion Program Settings File CREATED.
FALSE -- AC data not excluded
FALSE -- DC data not excluded
FALSE -- Phase data not excluded
FALSE -- Auxillary Chn. data not excluded
Tab delimiters

#CALIBRATION STATE
TRUE -- Waveform Calibration Values APPLIED.


#AUX CALIBRATION VALUES
Val Type	aux-1	

Term	1.0000e+00	
Factor	0.0000e+00	


#WF CALIBRATION VALUES
A = Detector Channel
Val Type	A-AC1	A-AC2	A-AC3	A-AC4	A-AC5	A-AC6	A-AC7	A-AC8	A-AC9	A-AC10	A-AC11	A-AC12	A-AC13	A-AC14	A-AC15	A-AC16	A-DC1	A-DC2	A-DC3	A-DC4	A-DC5	A-DC6	A-DC7	A-DC8	A-DC9	A-DC10	A-DC11	A-DC12	A-DC13	A-DC14	A-DC15	A-DC16	A-Ph1	A-Ph2	A-Ph3	A-Ph4	A-Ph5	A-Ph6	A-Ph7	A-Ph8	A-Ph9	A-Ph10	A-Ph11	A-Ph12	A-Ph13	A-Ph14	A-Ph15	A-Ph16	

Term	0.00000e+00	0.00000e+00	0.00000e+00	0.00000e+00	0.00000e+00	0.00000e+00	0.00000e+00	0.00000e+00	0.00000e+00	0.00000e+00	0.00000e+00	0.00000e+00	0.00000e+00	0.00000e+00	0.00000e+00	0.00000e+00	0.00000e+00	0.00000e+00	0.00000e+00	0.00000e+00	0.00000e+00	0.00000e+00	0.00000e+00	0.00000e+00	0.00000e+00	0.00000e+00	0.00000e+00	0.00000e+00	0.00000e+00	0.00000e+00	0.00000e+00	0.00000e+00	0.00000e+00	0.00000e+00	0.00000e+00	0.00000e+00	0.00000e+00	0.00000e+00	0.00000e+00	0.00000e+00	0.00000e+00	0.00000e+00	0.00000e+00	0.00000e+00	0.00000e+00	0.00000e+00	0.00000e+00	0.00000e+00	
Factor	1.00000e+00	1.00000e+00	1.00000e+00	1.00000e+00	1.00000e+00	1.00000e+00	1.00000e+00	1.00000e+00	1.00000e+00	1.00000e+00	1.00000e+00	1.00000e+00	1.00000e+00	1.00000e+00	1.00000e+00	1.00000e+00	1.00000e+00	1.00000e+00	1.00000e+00	1.00000e+00	1.00000e+00	1.00000e+00	1.00000e+00	1.00000e+00	1.00000e+00	1.00000e+00	1.00000e+00	1.00000e+00	1.00000e+00	1.00000e+00	1.00000e+00	1.00000e+00	X	X	X	X	X	X	X	X	X	X	X	X	X	X	X	X	

B = Detector Channel
Val Type	B-AC1	B-AC2	B-AC3	B-AC4	B-AC5	B-AC6	B-AC7	B-AC8	B-AC9	B-AC10	B-AC11	B-AC12	B-AC13	B-AC14	B-AC15	B-AC16	B-DC1	B-DC2	B-DC3	B-DC4	B-DC5	B-DC6	B-DC7	B-DC8	B-DC9	B-DC10	B-DC11	B-DC12	B-DC13	B-DC14	B-DC15	B-DC16	B-Ph1	B-Ph2	B-Ph3	B-Ph4	B-Ph5	B-Ph6	B-Ph7	B-Ph8	B-Ph9	B-Ph10	B-Ph11	B-Ph12	B-Ph13	B-Ph14	B-Ph15	B-Ph16	

Term	0.00000e+00	0.00000e+00	0.00000e+00	0.00000e+00	0.00000e+00	0.00000e+00	0.00000e+00	0.00000e+00	0.00000e+00	0.00000e+00	0.00000e+00	0.00000e+00	0.00000e+00	0.00000e+00	0.00000e+00	0.00000e+00	0.00000e+00	0.00000e+00	0.00000e+00	0.00000e+00	0.00000e+00	0.00000e+00	0.00000e+00	0.00000e+00	0.00000e+00	0.00000e+00	0.00000e+00	0.00000e+00	0.00000e+00	0.00000e+00	0.00000e+00	0.00000e+00	-1.03364e+02	-1.28589e+02	-1.22771e+02	-1.82799e+02	-5.29327e+01	-6.36955e+01	-1.54998e+02	-1.62015e+02	-5.44320e+01	-6.23480e+01	-1.71853e+02	-1.69414e+02	-1.80018e+02	-1.77411e+02	-5.74280e+01	-1.48938e+02	
Factor	1.60856e-05	1.42380e-04	4.19562e-05	1.84207e-01	1.34200e-06	1.50499e-06	1.63323e-01	4.88771e-02	1.25689e-06	1.78350e-06	9.25773e-02	2.71365e-02	2.66344e-02	8.67124e-03	1.27850e-06	1.23973e-02	7.02452e-06	9.64614e-06	2.71299e-06	9.29001e-02	1.02271e-07	1.07808e-07	7.77924e-02	2.48455e-02	1.01700e-07	1.07589e-07	4.55974e-02	1.35142e-02	1.37367e-02	4.44083e-03	1.04084e-07	6.15744e-03	X	X	X	X	X	X	X	X	X	X	X	X	X	X	X	X	



#DISTANCE SETTINGS
A = Detector Channel
A-1	A-2	A-3	A-4	A-5	A-6	A-7	A-8	A-9	A-10	A-11	A-12	A-13	A-14	A-15	A-16	

2.5000e+00	3.0000e+00	2.5000e+00	3.0000e+00	2.0000e+00	3.0000e+00	1.5000e+00	3.0000e+00	3.0000e+00	3.0000e+00	3.0000e+00	3.0000e+00	3.0000e+00	3.0000e+00	1.5000e+00	3.0000e+00	

B = Detector Channel
B-1	B-2	B-3	B-4	B-5	B-6	B-7	B-8	B-9	B-10	B-11	B-12	B-13	B-14	B-15	B-16	

1.0000e+01	1.0000e+01	1.0000e+01	1.4400e+00	1.0000e+01	1.0000e+01	1.5100e+00	1.9400e+00	1.0000e+01	1.0000e+01	1.9900e+00	2.4900e+00	2.4100e+00	2.9000e+00	1.0000e+01	2.9800e+00	




#DATA BEGINS
time	group	step	mark	flag	A-AC1	A-AC2	A-AC3	A-AC4	A-AC5	A-AC6	A-AC7	A-AC8	A-AC9	A-AC10	A-AC11	A-AC12	A-AC13	A-AC14	A-AC15	A-AC16	A-DC1	A-DC2	A-DC3	A-DC4	A-DC5	A-DC6	A-DC7	A-DC8	A-DC9	A-DC10	A-DC11	A-DC12	A-DC13	A-DC14	A-DC15	A-DC16	A-Ph1	A-Ph2	A-Ph3	A-Ph4	A-Ph5	A-Ph6	A-Ph7	A-Ph8	A-Ph9	A-Ph10	A-Ph11	A-Ph12	A-Ph13	A-Ph14	A-Ph15	A-Ph16	B-AC1	B-AC2	B-AC3	B-AC4	B-AC5	B-AC6	B-AC7	B-AC8	B-AC9	B-AC10	B-AC11	B-AC12	B-AC13	B-AC14	B-AC15	B-AC16	B-DC1	B-DC2	B-DC3	B-DC4	B-DC5	B-DC6	B-DC7	B-DC8	B-DC9	B-DC10	B-DC11	B-DC12	B-DC13	B-DC14	B-DC15	B-DC16	B-Ph1	B-Ph2	B-Ph3	B-Ph4	B-Ph5	B-Ph6	B-Ph7	B-Ph8	B-Ph9	B-Ph10	B-Ph11	B-Ph12	B-Ph13	B-Ph14	B-Ph15	B-Ph16	aux-1	digaux	

15237.818	1	1	0	256	0.11642	0.10465	0.098253	0.27231	0.16912	0.12934	0.14508	0.12861	0.26646	0.21637	0.20415	0.20348	0.027649	0.058174	0.29769	0.10534	-2.3458	-2.7188	-3.0479	-2.7375	-2.9979	-2.8875	-2.9625	-3.2625	-2.8708	-2.9792	-2.9958	-2.875	-3.0896	-2.9688	-2.8146	-2.975	218.312	79.953	258.159	243.518	-37.440	9.094	84.011	150.935	71.730	231.589	217.713	-0.234	27.202	81.589	1.537	12.905	5.0518e-05	0.00030116	0.00021855	1305.5	4.7808e-06	9.2973e-06	976.16	351.72	1.4064e-05	1.4413e-05	264.31	54	71.378	16.687	3.5209e-06	14.58	0.0029914	0.0040175	0.0011095	1300.4	4.2595e-05	4.4144e-05	977.12	352.27	4.2364e-05	4.3998e-05	272.8	58.927	75.448	18.07	4.282e-05	16.687	190.028	43.311	-92.018	-86.518	56.723	131.759	-87.267	-82.260	10.421	209.149	-84.558	-80.598	-78.424	-73.842	16.965	-75.796	-8191	255	
15237.936	1	1	0	0	0.31098	0.38191	0.21928	0.25599	0.19584	0.10198	0.36339	0.27266	0.20175	0.14023	0.26358	0.13692	0.060301	0.11228	0.19375	0.41371	-2.4792	-2.85	-3.0438	-2.9854	-3.0208	-3.0479	-2.7417	-3.1208	-2.85	-2.8896	-3.1667	-3.0458	-2.9104	-2.9938	-2.7271	-2.9542	177.697	-76.871	36.119	205.025	-99.030	-10.941	195.815	206.942	106.692	162.443	-12.459	200.932	57.700	181.770	140.658	180.791	0.00011365	0.00079685	8.7166e-05	1279.8	2.1822e-06	7.1065e-06	959.12	340.66	1.7457e-06	1.1791e-05	257.07	52.928	69.272	16.214	5.066e-06	14.779	0.0028595	0.0038337	0.0010629	1273.9	4.0029e-05	4.1519e-05	959.52	340.48	3.8596e-05	3.9791e-05	264.58	57.117	72.953	17.549	4.0867e-05	16.687	234.561	-30.000	51.192	-86.417	53.191	19.456	-87.389	-82.483	64.670	86.613	-84.571	-80.094	-78.570	-73.738	62.232	-75.656	-8191	255	
15238.033	1	1	0	0	0.058065	0.15818	0.15681	0.20007	0.20765	0.24337	0.29952	0.1052	0.16982	0.19734	0.15179	0.064228	0.10848	0.11023	0.45374	0.034909	-2.3854	-2.8479	-2.9958	-3.0229	-2.7625	-2.975	-2.7021	-3.0083	-2.875	-2.7708	-3.1042	-2.7958	-2.8917	-2.9896	-2.8	-2.9583	236.871	98.465	149.331	-51.520	71.028	-40.740	130.536	227.329	-73.862	94.221	40.860	165.512	77.355	40.471	106.628	11.394	9.128e-05	0.00012386	0.00024858	1284.5	6.7171e-06	4.8963e-06	965.72	342.13	3.7058e-06	2.684e-06	258.81	53.528	69.709	16.404	4.5961e-06	14.651	0.0028453	0.0038886	0.0011284	1278.8	4.2099e-05	4.3461e-05	966.59	343.61	4.0404e-05	4.2209e-05	266.94	57.678	73.389	17.669	4.1511e-05	16.748	203.042	-38.169	143.931	-86.599	128.813	241.771	-87.345	-82.108	-88.896	175.347	-84.667	-79.951	-78.231	-73.245	56.129	-75.835	-8191	255	
15238.129	1	1	0	0	0.20093	0.30052	0.20324	0.15829	0.15554	0.14769	0.16029	0.17661	0.095333	0.051688	0.24645	0.04071	0.32283	0.23624	0.081087	0.064102	-2.4167	-2.5896	-3.075	-2.9062	-2.8792	-3.0396	-2.9188	-3.1417	-3.1396	-2.8042	-3.2417	-2.8521	-2.6625	-3.1479	-2.8396	-2.9833	-38.931	32.108	38.243	129.830	30.342	70.255	163.118	184.014	53.885	-47.374	-87.076	-19.575	-31.994	206.736	-9.337	248.085	3.2797e-05	0.0010067	7.3319e-05	1269.1	4.9381e-06	2.2862e-06	966.79	338.77	1.5909e-06	4.7191e-06	254.78	52.86	68.829	16.262	4.1967e-06	14.663	0.0027972	0.0038071	0.0010905	1266.4	4.02e-05	4.1614e-05	963.11	338.93	3.8934e-05	4.119e-05	264.22	57.245	72.436	17.49	3.8921e-05	16.591	213.408	-0.163	191.664	-86.236	116.005	103.014	-87.226	-82.307	195.887	9.048	-84.494	-80.524	-78.251	-73.689	114.875	-75.209	-8191	255	
15238.225	1	1	0	0	0.27479	0.16709	0.24559	0.16971	0.096667	0.13524	0.25333	0.40326	0.32217	0.28265	0.048996	0.29686	0.43065	0.15199	0.12322	0.056602	-2.7021	-2.6063	-3.0458	-2.8792	-2.7625	-3.0583	-2.7479	-2.9667	-2.8125	-2.95	-3.1333	-2.9021	-2.7125	-3.1292	-2.6688	-3.0417	185.411	139.230	-5.296	246.820	136.334	36.554	195.378	205.259	88.797	-57.031	177.464	167.377	252.739	-39.721	28.224	169.004	0.0001196	0.0006406	5.681e-05	1269.6	4.0099e-06	3.7841e-06	959.21	341.21	1.1608e-05	3.8732e-06	255.66	53.609	70.683	16.533	2.4915e-06	14.678	0.0025491	0.003465	0.00098996	1259.6	3.6435e-05	3.8537e-05	955.01	340.72	3.7272e-05	4.0536e-05	265.86	57.73	74.269	17.923	4.2301e-05	16.707	243.188	86.844	10.216	-86.579	-92.130	3.239	-87.554	-82.635	-39.831	-42.485	-84.480	-80.417	-77.966	-73.451	163.588	-75.498	-8191	255	
15238.345	1	1	0	0	0.20398	0.12515	0.26777	0.18821	0.12819	0.1259	0.098006	0.21068	0.13465	0.18667	0.13717	0.10795	0.20765	0.11786	0.077512	0.16767	-2.6396	-2.7125	-2.9542	-3.1125	-2.6583	-3.1917	-2.9313	-2.9979	-3.1771	-2.6813	-2.85	-2.8958	-2.6521	-3.1	-2.8021	-2.7188	-60.831	-35.615	-94.617	169.998	22.147	248.249	169.292	201.408	144.890	253.402	210.208	-83.462	228.682	116.182	-4.566	143.863	6.9938e-05	0.00073871	0.00016747	1290.4	4.285e-06	7.5029e-06	965.34	347.17	7.7045e-07	2.551e-06	258.86	53.36	70.651	16.516	4.2322e-06	14.659	0.0028099	0.0038717	0.0010859	1279.6	3.9948e-05	4.1993e-05	965.73	346.48	3.8752e-05	4.1453e-05	267.58	57.691	73.914	17.707	3.8897e-05	16.392	-66.572	16.469	-62.022	-86.393	-29.143	16.898	-87.233	-82.430	188.439	15.796	-84.596	-80.207	-78.347	-73.796	124.874	-75.818	-8191	255	
15238.417	1	1	0	0	0.16484	0.14051	0.23364	0.053785	0.086003	0.048228	0.11424	0.13988	0.35125	0.15644	0.22792	0.22477	0.35273	0.21394	0.40282	0.063207	-2.7438	-2.5187	-2.8625	-3.0458	-2.7313	-2.9292	-2.8646	-3.0187	-2.9313	-2.8667	-2.9708	-3.0083	-2.7292	-2.9771	-2.9792	-2.7833	211.767	123.740	52.568	103.422	11.959	21.951	183.265	200.221	181.517	182.340	207.663	215.713	-64.982	-78.166	-64.029	-21.956	4.3765e-05	0.00079704	0.00013325	1278.9	7.9848e-06	1.4981e-06	961.4	340.21	1.6234e-06	1.1825e-05	258.95	53.709	69.069	16.313	4.2515e-06	14.742	0.0025163	0.0034316	0.00095151	1264.8	3.5127e-05	3.6753e-05	958.54	339.97	3.3879e-05	3.5434e-05	263.89	56.73	72.067	17.29	3.2779e-05	16.196	-78.343	14.221	86.422	-86.447	-48.296	15.880	-87.316	-82.425	-85.975	-17.277	-84.727	-79.833	-77.938	-73.995	17.595	-76.182	-8191	255	
15238.538	1	1	0	0	0.27975	0.15521	0.11235	0.17838	0.26116	0.23917	0.1852	0.19482	0.07928	0.065575	0.12269	0.30929	0.21529	0.086325	0.063718	0.017736	-2.4958	-2.7396	-2.9437	-3.1708	-2.6437	-3.0125	-3.0792	-3.0167	-3.0417	-2.8083	-3.0083	-3.025	-2.8667	-3.0062	-2.7271	-2.7188	146.641	179.839	-39.112	-80.479	197.855	-9.507	244.885	248.274	145.823	237.595	237.958	-90.299	44.656	211.342	28.825	-30.037	2.1735e-05	0.00037828	0.00031144	1276.1	6.0333e-06	2.0353e-06	969.82	343.88	1.1405e-06	2.821e-06	258.43	53.923	69.698	16.539	1.9322e-06	14.746	0.0021963	0.0030309	0.00084353	1263.1	3.2156e-05	3.4038e-05	964.08	342.08	3.1736e-05	3.3758e-05	265.31	57.21	72.628	17.348	3.1473e-05	16.139	223.158	67.030	-8.416	-86.499	194.830	189.348	-87.314	-82.466	192.299	23.458	-84.413	-79.771	-78.390	-73.394	49.714	-75.246	-8191	255	
15238.634	1	1	0	0	0.084451	0.21744	0.15393	0.16575	0.25649	0.25157	0.12721	0.29225	0.15405	0.34043	0.26244	0.17574	0.47141	0.29438	0.13609	0.38408	-2.5083	-2.8125	-2.6688	-3.125	-2.7167	-3	-3.125	-2.8583	-2.9229	-2.7625	-2.7146	-3.0521	-2.7562	-2.9375	-2.8833	-2.7646	-6.199	247.784	-38.168	235.255	193.828	-1.121	172.616	193.426	54.946	211.064	-21.087	187.457	201.782	215.274	-19.413	146.759	9.2696e-05	0.00041089	0.00032472	1279.7	9.9263e-06	7.138e-06	964.23	345.27	6.7626e-06	4.3987e-06	259.79	53.821	70.286	16.518	2.8283e-06	14.652	0.0021427	0.0029051	0.00080978	1264.5	3.1201e-05	3.2636e-05	960.3	342.99	3.1416e-05	3.3094e-05	265.29	56.973	73.36	17.477	3.2809e-05	16.156	247.840	217.673	20.297	-86.530	15.100	-3.624	-87.273	-82.655	-33.890	125.954	-84.395	-79.766	-78.472	-73.409	60.964	-75.542	-8191	255	
15238.728	1	1	0	0	0.2982	0.063465	0.15134	0.15809	0.12509	0.39529	0.19225	0.21005	0.3715	0.079172	0.21142	0.026554	0.17218	0.18327	0.1221	0.30258	-2.6188	-2.8104	-2.8729	-3.1917	-2.6625	-2.9167	-3.025	-2.8187	-2.8708	-2.8854	-2.7979	-3.0542	-2.8979	-3.0083	-3.0271	-2.7125	206.999	55.634	221.763	225.946	227.787	181.847	-10.047	166.185	71.415	221.923	-85.014	250.410	44.642	232.521	108.229	258.554	9.0427e-05	0.00037056	0.00025147	1283.1	5.9315e-06	4.1893e-06	962.18	342.95	5.8247e-06	8.7742e-06	258.46	53.263	68.943	16.214	5.1679e-06	14.774	0.0022781	0.0030591	0.00084121	1268.2	3.2248e-05	3.337e-05	958.18	340.02	3.0704e-05	3.2501e-05	262.88	56.23	71.474	17.048	3.1026e-05	16.153	-83.084	194.307	37.316	-86.819	-93.660	-31.987	-87.442	-82.441	203.821	172.356	-84.541	-79.607	-78.351	-73.458	177.175	-75.621	-8191	255	
15238.824	1	1	0	0	0.44183	0.19455	0.067722	0.22427	0.2661	0.18491	0.28676	0.2551	0.28172	0.28739	0.017543	0.25897	0.19022	0.19197	0.081633	0.11492	-2.5938	-2.8312	-2.7083	-3.1312	-2.7229	-2.8187	-3.0312	-2.7792	-2.9833	-2.8208	-2.8104	-3.1021	-2.9188	-2.9833	-3.0833	-2.6292	184.398	155.674	247.811	191.354	82.618	128.771	141.448	214.059	24.062	-39.233	-36.734	227.124	111.454	246.961	216.766	-16.918	6.2946e-05	0.00044713	9.8206e-05	1272.9	2.2176e-06	9.3008e-06	967.56	339	1.3355e-06	5.5434e-06	257.84	53.119	69.267	16.301	2.0636e-06	14.801	0.0021577	0.0028739	0.00080475	1256.2	3.1183e-05	3.2203e-05	958.71	337.09	3.1053e-05	3.2344e-05	262.78	56.327	71.728	17.196	3.108e-05	16.257	137.874	-66.504	-41.044	-86.345	-5.290	90.539	-87.518	-82.340	33.772	73.446	-84.406	-80.157	-78.196	-73.454	68.687	-75.425	-8191	255	
15238.945	1	1	0	0	0.10754	0.16676	0.31117	0.37397	0.20847	0.081539	0.36976	0.39479	0.15105	0.11535	0.24878	0.19917	0.21831	0.23611	0.026291	0.29115	-2.5875	-3.0021	-2.6396	-3.1354	-2.6958	-2.8146	-3.0729	-2.8312	-2.7375	-2.9125	-2.7667	-3.0292	-2.9	-2.7979	-3.0729	-2.7208	169.347	-29.017	248.756	259.173	-75.684	136.446	182.056	192.382	187.938	111.607	183.856	223.647	228.178	224.129	96.401	98.283	5.842e-05	0.00027119	0.00013635	1279.2	3.701e-06	3.6866e-06	976.7	343.29	2.9757e-06	7.8287e-06	261.3	53.859	69.48	16.284	2.1259e-06	14.816	0.0021412	0.0028522	0.00080991	1262.4	3.1147e-05	3.2024e-05	967.97	340.62	3.0528e-05	3.1013e-05	265.2	56.782	72.051	17.16	3.048e-05	16.215	218.240	236.845	-54.060	-86.475	-64.815	94.040	-87.463	-82.703	246.884	150.647	-84.216	-79.982	-78.173	-73.677	0.962	-75.577	-8191	255	
15239.017	1	1	0	0	0.16964	0.26044	0.19836	0.13876	0.073014	0.24418	0.25583	0.07605	0.14276	0.29691	0.14449	0.18516	0.11044	0.07102	0.18861	0.082371	-2.4979	-2.9146	-2.65	-3.0083	-2.8	-2.7833	-3.0729	-2.9208	-2.8333	-3.1292	-2.7792	-2.9813	-2.9271	-2.6917	-2.9125	-2.7708	60.025	61.385	-24.441	196.913	-1.797	-13.056	237.345	-12.679	23.514	194.924	196.284	225.490	166.052	20.293	34.506	199.734	4.3458e-05	0.00048788	0.00022659	1284.3	5.7363e-06	5.5629e-06	963.68	342.52	3.2337e-07	4.9917e-06	258.71	52.606	69.539	16.183	4.9713e-06	14.497	0.0021016	0.0028222	0.0008002	1266.1	3.1104e-05	3.2048e-05	960.22	341.11	3.0842e-05	3.2171e-05	263.45	56.104	72.056	17.203	3.1955e-05	16.038	247.822	250.836	69.281	-86.483	33.817	109.835	-87.148	-82.561	210.410	-31.866	-84.409	-80.214	-78.753	-73.628	64.531	-75.372	-8191	255	
15239.113	1	1	0	0	0.073111	0.087846	0.19056	0.25439	0.16389	0.10957	0.26511	0.28587	0.37323	0.15772	0.2458	0.094849	0.033945	0.20141	0.066753	0.048915	-2.3479	-2.8896	-2.7458	-3.2625	-2.9917	-2.8417	-3.1396	-2.9208	-2.9333	-3.025	-2.6292	-2.9188	-2.7604	-2.8146	-3	-2.775	-4.194	-99.372	166.516	-88.347	180.523	217.413	190.391	218.978	38.296	-13.457	23.767	190.437	84.905	-96.872	19.416	12.426	8.4249e-05	0.00063263	0.0001806	1279.5	1.7962e-06	4.3876e-06	963.42	343.52	5.6904e-06	9.6683e-06	257.59	53.209	70.326	16.37	6.8412e-06	14.627	0.0021565	0.0029319	0.00083037	1265.5	3.1371e-05	3.2941e-05	962.18	342.15	3.1852e-05	3.3556e-05	264.61	56.633	72.803	17.368	3.436e-05	16.25	-76.744	-13.868	-9.301	-86.437	-71.015	68.140	-87.382	-82.668	111.407	32.560	-84.785	-80.137	-78.382	-73.076	-28.300	-75.108	-8191	255	
15239.209	1	1	0	0	0.10909	0.20414	0.24062	0.40476	0.064697	0.093139	0.13321	0.10033	0.28701	0.24579	0.08798	0.18557	0.25924	0.17824	0.056963	0.25356	-2.4542	-3.0583	-2.675	-2.9292	-2.9646	-2.6937	-3.125	-2.8667	-2.8	-3.1437	-2.9	-2.925	-2.8958	-2.7771	-3.0854	-2.8771	-3.997	-55.031	-20.876	194.438	133.107	189.970	-80.069	145.498	221.335	53.516	-95.417	76.634	254.718	240.805	182.354	0.708	0.00011297	0.0002823	0.0002076	1287	7.3117e-06	3.6486e-06	975.76	344.48	2.9434e-06	3.8358e-06	258.02	53.382	69.597	16.436	3.7471e-06	14.638	0.002295	0.0031361	0.00089568	1274.2	3.3141e-05	3.5342e-05	968.54	342.84	3.2952e-05	3.5066e-05	265.56	56.963	72.401	17.379	3.4295e-05	16.308	200.481	-76.492	-20.359	-86.888	-5.641	11.295	-87.281	-82.600	-51.825	54.795	-84.549	-80.319	-77.769	-73.299	36.204	-75.606	-8191	255	
15239.305	1	1	0	0	0.28354	0.16842	0.076799	0.095875	0.18423	0.17938	0.15663	0.1269	0.10708	0.06274	0.34658	0.16894	0.19993	0.29835	0.12386	0.17798	-2.4271	-2.9354	-2.7729	-3.275	-2.8771	-2.75	-3.1625	-3.0062	-2.6604	-3.0375	-2.7896	-2.8375	-3.1875	-2.7229	-2.9854	-2.7583	114.931	-66.537	217.972	166.594	-94.221	25.717	-83.746	206.008	123.577	-10.300	-32.865	-21.345	-76.593	37.640	-87.937	203.730	2.6525e-05	0.00059976	0.00011095	1286	7.2332e-06	1.338e-05	971.77	344.97	2.8657e-06	4.4339e-06	260.41	53.574	69.589	16.301	1.8152e-06	14.593	0.0022951	0.0031557	0.00089917	1270.9	3.3288e-05	3.5322e-05	968.21	342.6	3.3033e-05	3.5059e-05	266.39	57.047	72.74	17.42	3.4955e-05	16.336	252.930	-58.449	-9.781	-86.524	59.767	88.502	-87.271	-82.346	147.042	144.317	-84.620	-80.128	-78.295	-73.472	2.796	-75.768	-8191	255	
15239.426	1	1	0	0	0.24212	0.12854	0.10761	0.22584	0.081642	0.14971	0.32769	0.16441	0.20092	0.079265	0.22347	0.24582	0.10955	0.10359	0.071896	0.35809	-2.2479	-3.0771	-2.6	-3.0667	-3.0583	-2.8187	-3.1063	-2.9188	-2.6854	-2.8854	-2.9313	-2.7313	-3.0292	-2.8104	-2.9021	-2.9396	123.122	92.132	98.666	-39.382	107.190	-88.110	243.331	171.288	-47.773	131.405	-97.999	107.444	-92.506	83.487	255.845	-2.490	0.0001102	0.00061706	0.00026643	1294.5	7.3063e-06	3.689e-06	971.25	347.27	3.1517e-06	6.8884e-06	260.14	53.602	70	16.443	5.381e-06	14.516	0.0023633	0.0032669	0.00092341	1280	3.5157e-05	3.7857e-05	967.24	346.4	3.5545e-05	3.7903e-05	266.93	57.121	73.693	17.616	3.7097e-05	16.274	239.718	-77.325	-15.336	-86.598	-50.436	98.127	-87.162	-82.414	86.398	7.572	-84.801	-79.774	-78.388	-74.153	117.661	-75.375	-8191	255	
15239.522	1	1	0	0	0.10928	0.079234	0.20903	0.15701	0.088668	0.19762	0.086633	0.39243	0.25356	0.1147	0.061472	0.068561	0.18386	0.070739	0.062736	0.084454	-2.2354	-2.925	-2.7333	-2.7083	-2.9146	-2.6729	-2.9562	-2.9104	-2.7896	-3.0583	-2.8583	-2.9062	-3.0854	-2.8125	-2.75	-2.9104	15.584	85.273	208.027	118.481	201.425	-75.478	193.440	188.206	209.405	172.706	236.431	246.880	-30.336	221.295	156.811	126.705	9.3466e-05	0.00019378	0.00025312	1300.9	5.359e-06	7.5254e-06	975.45	350.43	5.5222e-06	4.2343e-06	263.85	53.759	71.172	16.506	1.6497e-06	14.667	0.0025206	0.0034219	0.00096628	1291	3.6311e-05	3.9239e-05	973.77	351.29	3.7154e-05	3.9559e-05	271.58	57.815	74.779	17.8	3.8182e-05	16.478	197.549	-69.401	-48.006	-86.480	57.795	-16.001	-87.232	-82.352	-68.093	23.066	-84.876	-79.948	-78.527	-73.463	73.285	-75.691	-8191	255	
15239.618	1	1	0	0	0.22962	0.23656	0.1635	0.26801	0.083135	0.2262	0.22892	0.12414	0.071719	0.11779	0.16405	0.19355	0.11672	0.14914	0.040396	0.0077976	-2.2792	-2.7729	-2.8208	-2.7521	-2.9188	-2.9083	-3.1063	-2.8604	-2.6979	-3.0896	-2.9104	-2.9354	-3.1729	-2.85	-3.0479	-3.2375	180.198	-21.766	-36.886	195.856	3.073	171.029	234.995	-98.743	255.664	46.012	230.168	151.090	192.902	154.345	-9.106	118.869	7.2884e-05	0.00046069	0.00029024	1300.3	5.9053e-06	2.5784e-06	981.62	348.71	2.567e-06	4.5507e-06	262.81	53.883	70.803	16.43	4.7425e-06	14.392	0.002608	0.0035619	0.00098476	1290.5	3.659e-05	3.8564e-05	974.64	348.69	3.6048e-05	3.8121e-05	269.27	57.631	73.896	17.55	3.6013e-05	16.367	-70.744	80.823	44.374	-86.683	98.302	-83.680	-87.384	-82.558	208.546	69.966	-84.343	-80.157	-78.399	-73.593	49.874	-75.564	-8191	255	
15239.714	1	1	0	0	0.22399	0.3751	0.22857	0.10931	0.34985	0.078136	0.043993	0.10353	0.13419	0.13716	0.15061	0.14284	0.27562	0.27145	0.13796	0.078716	-2.2917	-2.7667	-2.8937	-2.7687	-3.0146	-2.7812	-3.0146	-3.1167	-2.8271	-2.7687	-3.0312	-2.6292	-3.1042	-2.7375	-2.7917	-2.9542	-8.752	40.399	129.679	-51.259	-69.532	116.052	253.256	210.961	72.224	140.236	-70.442	-61.230	189.374	133.686	-77.204	98.165	0.00013586	0.00072299	9.6896e-05	1297.6	3.1087e-06	3.7579e-06	983.18	350.45	2.2609e-06	3.3944e-06	262.93	53.921	71.106	16.486	5.5512e-06	14.652	0.0025255	0.0034107	0.00094872	1286.2	3.69e-05	3.8772e-05	978.38	348.81	3.6453e-05	3.8777e-05	270.7	57.72	74.318	17.643	3.6613e-05	16.312	235.228	42.751	-17.819	-86.427	41.808	217.104	-87.297	-82.490	-22.035	58.389	-84.702	-80.174	-77.837	-73.622	104.434	-75.639	-8191	255	
15239.809	1	1	0	0	0.16582	0.026948	0.31261	0.16218	0.11781	0.019396	0.19048	0.26704	0.049647	0.23358	0.20889	0.0049035	0.29413	0.20047	0.29873	0.1918	-2.2479	-2.8208	-2.8396	-2.8604	-2.9396	-2.8479	-2.5792	-3.0417	-2.7875	-2.8021	-2.9167	-2.6646	-2.95	-2.7938	-2.7687	-3.1042	-30.553	121.505	209.730	90.571	194.996	-56.536	258.653	232.635	223.963	202.981	212.838	-82.203	222.813	247.988	31.471	111.836	0.00010961	0.00056764	0.00020374	1294.9	9.2377e-07	9.5035e-06	968.21	349.85	2.8941e-06	1.0132e-05	259.89	53.576	70.491	16.331	5.4953e-06	14.354	0.0025085	0.0034131	0.00093848	1287.2	3.6418e-05	3.8141e-05	968.31	349.03	3.5703e-05	3.733e-05	267.51	57.003	73.583	17.467	3.5211e-05	16.136	206.101	-27.536	-31.696	-86.417	-90.882	95.292	-87.271	-82.235	-48.963	34.584	-84.157	-80.449	-78.285	-73.919	69.777	-75.858	-8191	255	
15239.905	1	1	0	0	0.064153	0.11931	0.10461	0.20084	0.15234	0.15311	0.12881	0.19666	0.082741	0.11512	0.25456	0.17693	0.12691	0.043003	0.1397	0.096912	-2.2812	-2.7333	-3.0167	-2.8625	-3.0021	-3.0292	-2.8979	-3.2104	-2.8333	-2.8208	-2.9688	-2.675	-2.95	-2.9104	-2.5708	-3	75.344	124.373	203.060	172.229	41.822	11.717	-46.155	246.540	62.700	140.434	196.051	227.536	253.089	161.498	102.836	80.041	7.7046e-05	0.0010058	1.5563e-05	1292.8	2.8211e-06	4.451e-06	973.43	349	4.1187e-06	2.965e-06	263.02	53.5	70.855	16.483	4.2181e-06	14.628	0.0024148	0.0032246	0.00090323	1282.5	3.4494e-05	3.5303e-05	970.42	347.84	3.4224e-05	3.6022e-05	268.75	57.154	73.826	17.469	3.4532e-05	16.256	162.700	-30.463	-49.294	-86.674	46.174	-24.228	-87.235	-82.259	72.773	146.846	-84.462	-80.023	-78.486	-73.675	49.560	-75.483	-8191	255	
15240.025	1	1	0	0	0.25024	0.14751	0.24684	0.14876	0.14826	0.1182	0.16505	0.1295	0.1641	0.28591	0.46353	0.060842	0.25388	0.1055	0.17059	0.089831	-2.4146	-2.7292	-2.9396	-2.9229	-2.8021	-2.9813	-2.5792	-3.0521	-2.7146	-2.7208	-3.0604	-2.7438	-2.7875	-2.8771	-2.575	-3.0187	-34.341	-73.072	79.953	229.315	-90.326	-27.669	230.854	170.845	80.718	-100.290	223.068	69.254	212.225	-15.120	56.300	-82.782	1.9198e-05	0.00075939	7.3123e-05	1302	1.9266e-06	8.167e-06	968.93	350.37	9.0486e-07	6.201e-06	264.28	53.579	71.204	16.46	7.2715e-06	14.663	0.0023961	0.0032266	0.00089351	1286.8	3.4305e-05	3.4972e-05	970.59	348.57	3.3165e-05	3.4375e-05	269.57	57.198	74.024	17.42	3.4259e-05	16.324	252.349	-82.270	38.025	-86.445	195.080	-1.850	-87.206	-82.397	31.376	79.260	-84.036	-80.216	-78.206	-73.296	143.874	-75.722	-8191	255	
15240.122	1	1	0	0	0.35062	0.13559	0.19036	0.49685	0.13294	0.16341	0.25034	0.037042	0.022842	0.095897	0.14082	0.28664	0.063506	0.10335	0.17869	0.10696	-2.5396	-2.8146	-2.9229	-2.8625	-2.9	-2.9167	-2.8688	-2.9917	-2.8438	-2.5229	-3	-2.5271	-2.8229	-2.9167	-2.7167	-3.0583	-38.701	120.029	31.752	239.445	206.124	-21.483	162.852	-31.189	-38.441	22.816	-85.219	119.079	-59.082	-32.346	74.167	-62.801	7.5658e-05	0.00051778	2.6632e-05	1298.3	3.2078e-06	2.7926e-06	983.62	351.32	9.9401e-06	4.7487e-06	264.64	53.594	70.865	16.435	6.4582e-06	14.52	0.0023806	0.0032118	0.0009091	1287.9	3.4687e-05	3.5871e-05	977.07	349.59	3.3938e-05	3.5431e-05	270.63	57.4	73.976	17.478	3.557e-05	16.253	-41.662	33.741	-86.445	-86.521	213.440	55.097	-87.364	-82.440	24.712	118.811	-84.614	-80.090	-78.344	-73.391	70.229	-75.558	-8191	255	
15240.218	1	1	0	0	0.025156	0.16232	0.22429	0.23863	0.03366	0.15746	0.17638	0.27217	0.043505	0.14019	0.30458	0.088282	0.049182	0.24783	0.17919	0.14688	-2.5375	-2.6354	-2.7854	-2.6542	-2.7396	-3.0667	-2.8479	-3.1042	-2.9688	-2.5021	-2.9646	-2.6833	-2.9104	-3.1458	-2.8688	-2.8812	117.716	-72.880	-0.148	216.195	142.274	146.163	144.215	257.288	-84.294	149.605	120.408	223.609	-50.017	200.667	3.163	-67.815	5.1514e-05	0.00053698	0.0001529	1294.9	7.0495e-06	3.5758e-06	964.21	349.51	6.8901e-07	6.8368e-06	259.7	52.856	70.291	16.287	2.9343e-06	14.443	0.002424	0.003293	0.00094987	1285.9	3.4979e-05	3.7087e-05	963.47	348.13	3.5031e-05	3.6776e-05	265.95	56.49	73.285	17.336	3.5838e-05	16.091	254.060	191.335	115.083	-86.565	31.845	153.829	-87.418	-82.486	191.516	137.501	-84.833	-80.151	-78.685	-73.150	41.983	-75.957	-8191	255	
15240.314	1	1	0	0	0.14826	0.17796	0.34993	0.27089	0.048953	0.15674	0.33245	0.21504	0.17923	0.28223	0.065965	0.23834	0.12823	0.12011	0.066196	0.28243	-2.4688	-2.6792	-2.8833	-2.9562	-2.8312	-2.9646	-2.7812	-2.9479	-2.9437	-2.55	-3.1208	-2.9313	-2.8354	-3.0458	-2.8229	-2.9667	-43.159	2.738	86.207	-95.815	115.682	-70.400	211.364	239.376	185.511	-63.834	3.297	114.998	235.868	69.143	88.785	94.455	4.3971e-05	0.0001858	0.0003001	1296.9	5.7096e-06	6.2592e-06	968.02	347.79	6.2515e-06	1.4714e-05	260.74	52.522	70.21	16.223	5.3149e-06	14.414	0.0023905	0.0032906	0.00092402	1279.9	3.4478e-05	3.6449e-05	963.9	345.79	3.4051e-05	3.6598e-05	266.43	56.224	73.046	17.385	3.6416e-05	16.149	-66.741	172.364	-42.756	-86.459	55.667	60.541	-87.337	-82.380	209.374	60.434	-84.228	-79.876	-77.867	-73.473	3.409	-75.578	-8191	255	
15240.410	1	1	0	0	0.37911	0.079245	0.46148	0.1671	0.17261	0.10072	0.13946	0.19617	0.13242	0.025302	0.064462	0.18648	0.20613	0.18278	0.073055	0.16116	-2.5458	-2.8187	-2.9833	-2.9271	-2.7438	-3.0083	-2.8646	-3.1063	-3.0583	-2.6979	-3.0208	-2.9583	-2.6813	-2.9958	-2.8083	-2.9437	163.133	243.196	106.541	184.771	254.633	116.207	140.231	194.125	165.805	-95.658	94.840	-16.704	137.987	127.702	239.883	180.604	4.4484e-05	0.00032373	0.0001165	1287.3	6.1784e-06	2.4895e-06	972.1	347.68	2.6649e-06	5.9919e-06	261.2	53.305	69.972	16.244	5.5555e-06	14.488	0.0024352	0.0033762	0.00094374	1278.2	3.4829e-05	3.6677e-05	966.17	345.95	3.4757e-05	3.7125e-05	267.77	56.72	73.189	17.414	3.6372e-05	16.246	-47.163	135.783	-1.571	-86.812	76.210	67.217	-87.297	-82.584	25.902	146.934	-84.276	-79.891	-78.382	-73.659	55.684	-75.949	-8191	255	
15240.506	1	1	0	0	0.24094	0.22078	0.37268	0.0536	0.17463	0.1248	0.15526	0.25307	0.18106	0.13517	0.17617	0.19796	0.17577	0.14311	0.25531	0.16852	-2.4979	-2.8083	-2.8875	-2.8729	-2.6146	-2.9854	-2.9938	-2.9417	-3.0292	-2.875	-3.0479	-2.9542	-2.5938	-2.9188	-2.9292	-2.7417	20.907	-29.353	-6.401	122.690	76.099	70.539	-62.528	214.168	-19.459	164.731	195.469	43.635	256.441	-92.487	172.471	121.629	2.7956e-05	0.0003346	0.00022812	1297.1	4.2297e-06	3.8707e-06	970.97	348.64	5.3567e-06	5.5855e-06	260.41	53.476	69.757	16.204	4.0055e-06	14.543	0.0024792	0.0033961	0.00096041	1282.9	3.5457e-05	3.7303e-05	969.26	346.83	3.4614e-05	3.7303e-05	267.28	56.571	73.107	17.398	3.5601e-05	16.079	-69.075	55.892	7.960	-86.641	130.887	98.693	-87.203	-82.301	15.976	17.446	-84.649	-80.418	-78.456	-73.609	86.516	-75.658	-8191	255	
15240.602	1	1	0	0	0.14944	0.14061	0.11896	0.19971	0.13595	0.13278	0.10791	0.33347	0.12315	0.18995	0.11491	0.04246	0.25656	0.066663	0.18983	0.2288	-2.625	-2.7	-2.7687	-3.2125	-2.7229	-3.0812	-3.1417	-2.8208	-3.0333	-2.8167	-2.9125	-2.8937	-2.7167	-3.0604	-2.8958	-2.5771	-24.280	-77.667	26.761	-37.195	171.189	43.464	146.161	202.295	-100.283	58.082	112.945	-59.093	-57.021	142.789	49.766	-29.980	8.9668e-05	0.00050338	0.00022978	1287.4	1.4071e-06	3.0534e-06	961.2	347.19	1.118e-06	7.1914e-06	259.88	52.345	70.486	16.293	3.6008e-06	14.327	0.0024485	0.003378	0.00093347	1279.3	3.5424e-05	3.7521e-05	961.18	345.34	3.4782e-05	3.6732e-05	265.59	55.801	73.224	17.3	3.5481e-05	16.008	246.350	105.571	4.091	-86.696	237.632	170.977	-87.247	-82.513	206.335	112.121	-84.409	-79.895	-78.469	-74.232	-0.234	-75.214	-8191	255	
15240.721	1	1	0	0	0.19651	0.057757	0.11757	0.016492	0.21257	0.05859	0.061893	0.14686	0.23072	0.43836	0.11529	0.14567	0.18271	0.30491	0.17408	0.16296	-2.65	-2.8958	-2.8542	-3.0958	-2.8042	-2.9229	-2.9458	-2.7104	-3.1083	-2.7333	-2.9062	-2.9458	-2.7479	-2.95	-2.8625	-2.625	239.089	177.198	-24.071	68.719	-60.479	102.706	122.660	199.747	179.445	117.701	-28.142	208.537	240.475	162.528	-39.342	-89.025	7.0954e-05	5.5202e-05	0.00017654	1295	3.72e-06	3.28e-06	969.05	350.54	4.6105e-06	4.6378e-06	261.25	53.074	70.518	16.437	4.0128e-06	14.326	0.00249	0.0034208	0.00096924	1284.8	3.7145e-05	3.9087e-05	967.82	349.15	3.6753e-05	3.9265e-05	268.24	56.696	74.136	17.522	3.671e-05	16.104	211.687	202.869	57.965	-86.372	64.029	235.816	-87.283	-82.351	-55.916	35.210	-84.722	-80.206	-78.257	-73.635	-87.111	-75.370	-8191	255	
15240.817	1	1	0	0	0.059889	0.18616	0.12692	0.21306	0.10068	0.20306	0.42053	0.11323	0.11324	0.22494	0.098103	0.20782	0.24426	0.26059	0.14335	0.3005	-2.6417	-2.6854	-2.7687	-2.8708	-2.6625	-2.8667	-2.9188	-2.9271	-2.9021	-2.9375	-2.7083	-2.9542	-2.8042	-2.925	-2.9542	-2.6958	158.407	12.767	146.700	197.611	-84.852	47.244	207.579	93.972	35.783	118.711	-57.607	130.711	243.833	118.230	107.060	-46.251	7.6358e-05	0.00018461	6.6565e-05	1284.3	3.7103e-06	1.4339e-06	963.29	347.33	4.2719e-06	3.6958e-07	261.18	52.61	69.405	16.113	1.6733e-06	14.495	0.0025068	0.0033644	0.0009108	1274.9	3.3991e-05	3.5587e-05	960.81	344.93	3.3172e-05	3.4729e-05	264.87	55.836	72.257	17.076	3.2541e-05	15.886	-94.837	-22.510	98.480	-86.641	234.854	-7.786	-87.529	-82.588	-26.000	135.308	-84.519	-79.467	-78.013	-73.616	103.750	-75.567	-8191	255	
15240.889	1	1	0	0	0.13395	0.037883	0.23745	0.36729	0.1058	0.096214	0.09405	0.019474	0.10181	0.14796	0.080833	0.15314	0.0751	0.065309	0.13925	0.24486	-2.6271	-2.7771	-2.675	-3.2625	-2.6813	-2.7708	-2.9875	-2.9458	-3.0021	-2.7542	-2.7479	-2.9854	-2.7687	-2.7583	-3.0187	-2.6896	-71.229	94.454	219.945	212.459	133.085	97.233	100.099	155.272	127.838	165.463	203.062	211.090	-56.742	-34.402	-97.730	230.222	4.7509e-05	0.00086459	0.00010595	1293.1	3.3128e-06	6.8106e-06	973.59	349.59	5.0611e-06	4.5525e-06	261.72	52.711	70.346	16.273	2.8595e-06	14.137	0.0022595	0.0030969	0.00085585	1277.4	3.3587e-05	3.5115e-05	968.52	347.47	3.3985e-05	3.5202e-05	268.29	56.42	73.469	17.38	3.4525e-05	15.91	253.892	36.236	-60.918	-86.653	89.252	97.973	-87.539	-82.257	120.418	-3.244	-84.347	-80.166	-78.440	-73.597	171.610	-75.205	-8191	255	
15240.987	1	1	0	0	0.12061	0.20487	0.3773	0.10414	0.12869	0.18168	0.21724	0.091018	0.16298	0.12656	0.13776	0.16849	0.18147	0.20764	0.18369	0.32445	-2.3854	-2.8333	-2.4583	-3.2	-2.6458	-2.8438	-3.2188	-2.9417	-2.8458	-2.8438	-2.4813	-2.9146	-2.7583	-2.6646	-2.9792	-2.7083	-54.156	62.184	255.316	252.588	99.557	31.287	-89.777	168.017	-95.661	130.879	236.582	156.666	75.003	92.145	70.813	11.119	7.6928e-05	0.00042819	3.017e-05	1289.2	2.1276e-06	4.8701e-06	960.26	344.79	4.6015e-06	6.1364e-06	256.5	52.123	69.154	16.079	1.3847e-06	14.272	0.0023837	0.0032092	0.00089221	1278.6	3.4366e-05	3.4958e-05	956.1	343.59	3.3672e-05	3.4191e-05	262.38	55.471	72.116	17.042	3.3347e-05	15.727	-75.369	37.862	226.066	-86.500	-18.788	56.117	-87.184	-82.465	82.141	-2.434	-84.397	-80.295	-78.373	-73.483	131.126	-76.059	-8191	255	
15241.106	1	1	0	0	0.26338	0.18736	0.18997	0.23411	0.36069	0.097181	0.22715	0.29919	0.14842	0.27818	0.13676	0.18425	0.19607	0.12537	0.11229	0.35681	-2.4979	-2.8417	-2.6771	-3.0604	-3.0396	-2.8583	-3.2417	-2.7313	-2.9	-2.8646	-2.8146	-3.1604	-2.7729	-2.7479	-3.1375	-2.8896	-55.387	-13.378	179.749	240.128	2.891	220.303	147.409	232.099	36.269	158.336	-74.320	210.286	-93.781	80.146	-9.165	231.792	6.146e-05	0.00061983	0.00015	1284.2	1.0717e-06	3.6717e-06	966.87	346.38	5.8314e-06	9.3511e-06	260.63	52.558	69.978	16.162	3.0157e-06	14.271	0.0023032	0.0030876	0.00087444	1273.8	3.2886e-05	3.4289e-05	961.88	344.67	3.3451e-05	3.4959e-05	265.43	56.026	72.765	17.166	3.3766e-05	15.847	233.664	-56.224	9.105	-86.529	83.977	30.188	-87.314	-82.760	256.996	-65.970	-84.755	-80.017	-78.381	-73.179	239.889	-75.235	-8191	255	
15241.202	1	1	0	0	0.13044	0.14264	0.089979	0.15994	0.10427	0.16951	0.1717	0.14876	0.13029	0.11943	0.078624	0.33205	0.35127	0.25161	0.19064	0.15109	-2.5896	-2.9375	-2.5521	-3.1417	-2.7938	-2.7667	-3.0167	-2.9021	-2.8312	-2.9	-2.7812	-3.0583	-2.9729	-2.6479	-2.8479	-2.8021	187.260	-76.105	49.988	-97.096	79.913	99.813	241.169	-59.665	140.097	94.782	77.557	-97.993	230.022	137.421	159.315	196.869	5.11e-05	0.00057072	0.00028564	1291.5	2.5906e-06	6.106e-06	968.06	346.84	7.9667e-06	3.1602e-06	260.14	52.567	70.125	16.132	6.0575e-06	14.396	0.0022987	0.0031119	0.00088781	1278.4	3.3043e-05	3.4856e-05	966.15	346.03	3.2566e-05	3.4316e-05	266.28	55.895	72.761	17.141	3.2698e-05	15.79	180.457	25.122	22.044	-86.461	19.428	1.324	-87.565	-82.044	86.322	173.221	-84.393	-80.742	-78.424	-73.641	110.742	-75.640	-8191	255	
15241.298	1	1	0	0	0.19043	0.11822	0.31222	0.23194	0.34403	0.12212	0.12904	0.35405	0.029833	0.22959	0.074774	0.15778	0.27951	0.058252	0.34668	0.24032	-2.3688	-3.1	-2.95	-3	-3.0854	-2.6854	-3.0854	-2.925	-2.7396	-2.9333	-2.5938	-3.0667	-2.8792	-2.6792	-2.9417	-2.8521	35.845	160.704	220.651	232.857	252.968	54.486	147.615	253.239	243.525	48.997	221.480	202.013	223.957	214.785	42.551	30.676	6.9481e-05	0.00027231	0.00013253	1289.1	3.0378e-06	9.4136e-06	977.55	350.65	1.024e-05	3.7883e-06	263.81	53.524	71.025	16.249	5.3216e-06	14.305	0.0022048	0.0029798	0.00084262	1276.4	3.1235e-05	3.2911e-05	971.61	346.98	3.1888e-05	3.3906e-05	268.63	56.632	73.575	17.392	3.3819e-05	15.89	-94.618	-35.619	-44.245	-86.667	-22.198	76.635	-87.289	-82.502	76.527	-35.703	-84.380	-80.278	-78.191	-73.408	-20.832	-75.426	-8191	255	
15241.419	1	1	0	0	0.16177	0.24876	0.3656	0.396	0.029544	0.22852	0.27409	0.36391	0.13927	0.21291	0.052347	0.25172	0.15932	0.14929	0.18623	0.15297	-2.3812	-2.9042	-2.5833	-2.8979	-2.975	-2.6333	-3.2167	-2.9708	-2.6958	-3.1063	-2.8979	-2.9188	-2.8583	-2.7604	-2.9625	-2.8333	-13.077	-22.206	173.321	242.737	91.238	239.735	231.875	189.327	-59.938	237.391	240.160	-94.179	248.452	2.469	-91.572	150.424	0.00011668	0.00055243	0.00021391	1299.2	4.0209e-06	4.804e-06	970.93	352.39	5.0526e-06	1.1322e-05	260.98	53.466	70.723	16.356	7.5007e-06	14.198	0.0022678	0.0031224	0.00088787	1287.2	3.2813e-05	3.4595e-05	968.06	350.57	3.3051e-05	3.463e-05	267.46	56.393	73.862	17.409	3.3834e-05	15.793	225.385	-46.573	39.770	-86.600	-7.655	68.033	-87.241	-82.540	10.649	120.665	-84.775	-80.496	-78.232	-73.564	136.543	-75.536	-8191	255	
15241.513	1	1	0	0	0.069372	0.3088	0.44822	0.02779	0.18965	0.21222	0.25145	0.21533	0.052865	0.059832	0.23659	0.11213	0.32352	0.11643	0.17359	0.26454	-2.1854	-3.0354	-2.6688	-2.8875	-2.9479	-2.6604	-3.1188	-2.8625	-2.5938	-3.2583	-2.9	-2.7958	-3.0833	-2.7167	-3.0187	-3.0458	154.550	182.319	-97.029	196.533	238.608	18.263	162.113	209.983	2.105	103.335	-92.519	-89.442	188.521	214.635	-56.925	-97.446	2.8591e-05	0.00019626	8.058e-05	1301.7	2.7172e-06	4.4215e-06	973.03	350.72	4.0427e-06	5.7722e-06	261.82	52.558	69.944	16.173	6.4776e-06	14.472	0.0022659	0.0030996	0.00087552	1285	3.1976e-05	3.3892e-05	967.87	347.97	3.1512e-05	3.3251e-05	266.3	55.83	72.699	17.162	3.2176e-05	15.782	237.509	78.584	173.274	-86.412	58.806	-13.683	-87.481	-82.655	39.365	91.625	-84.665	-80.407	-78.409	-73.555	183.795	-75.823	-8191	255	
15241.587	1	1	0	0	0.20121	0.26133	0.10219	0.38056	0.1746	0.12632	0.25647	0.17847	0.18927	0.087554	0.2313	0.29565	0.35267	0.25144	0.06216	0.20261	-2	-3.0229	-2.8042	-2.9417	-3.1083	-2.7542	-3.1917	-3.1646	-2.6792	-2.9167	-3.025	-2.675	-3.2375	-2.8	-2.9271	-3.0812	-88.296	204.115	166.949	-80.489	237.367	30.866	206.888	234.246	259.471	203.245	108.295	237.246	-88.324	19.000	50.491	10.353	0.00011096	0.00043225	0.00019143	1293.8	2.3674e-06	7.7935e-06	980.16	349.7	4.4219e-06	9.2092e-07	264.08	52.934	70.226	16.208	7.0969e-06	14.382	0.0021918	0.0029702	0.00083963	1280.5	3.1024e-05	3.3055e-05	972.73	347.1	3.1796e-05	3.3409e-05	267.54	56.101	73.064	17.259	3.284e-05	15.849	228.419	36.842	75.717	-86.521	19.815	118.667	-87.248	-82.311	-40.918	258.029	-84.605	-80.213	-78.270	-73.745	-23.750	-75.715	-8191	255	
15241.707	1	1	0	0	0.21099	0.11249	0.083584	0.26083	0.063113	0.26986	0.1607	0.13456	0.07394	0.13923	0.22557	0.17526	0.15099	0.19181	0.23801	0.16822	-2.4313	-3.0875	-2.7438	-2.9292	-2.9458	-2.9437	-2.9042	-3.0583	-2.7854	-2.9875	-2.9104	-2.9271	-3.0375	-2.6625	-2.7812	-3.0062	192.889	-37.905	99.903	252.553	-80.498	163.001	227.099	-10.543	64.819	50.651	162.553	13.724	236.563	111.464	140.538	169.114	2.4531e-05	0.00066655	0.00033701	1299.1	5.581e-06	5.111e-06	980.87	349.66	2.283e-06	1.0416e-05	261.09	52.319	69.736	16.203	6.8073e-06	14.02	0.0022493	0.0030536	0.00086893	1286.5	3.2361e-05	3.38e-05	973.12	347.09	3.1762e-05	3.2962e-05	266.62	55.771	72.63	17.112	3.1417e-05	15.544	126.118	-4.552	-31.913	-86.570	82.019	52.006	-87.447	-82.430	55.446	50.510	-84.763	-80.059	-78.449	-73.462	53.484	-75.455	-8191	255	
15241.802	1	1	0	0	0.11152	0.26551	0.12643	0.041855	0.03002	0.069353	0.10339	0.3134	0.18237	0.20437	0.24733	0.094315	0.086399	0.07927	0.17153	0.020655	-2.2604	-2.9792	-2.8917	-2.8771	-3.1437	-2.8125	-2.8542	-3.2292	-2.7562	-2.9354	-2.9813	-2.7083	-2.975	-2.6292	-2.6958	-3.1146	5.322	6.613	71.499	210.000	57.409	257.356	29.311	-65.382	61.509	-1.071	237.902	209.798	-69.490	29.104	87.482	-95.839	6.4941e-05	0.00035525	5.7578e-05	1292.2	5.9543e-06	2.0095e-06	972.54	347.8	2.8926e-06	8.5184e-06	259.39	52.626	70.043	16.153	4.5471e-06	14.078	0.0021758	0.002964	0.00081961	1279.9	3.2104e-05	3.3521e-05	967.09	346.42	3.2193e-05	3.3195e-05	265.07	55.569	72.788	17.08	3.2026e-05	15.562	-96.352	42.787	77.816	-86.460	78.888	8.306	-87.174	-82.303	15.264	104.941	-84.564	-80.376	-78.858	-73.358	70.815	-75.917	-8191	255	
15241.898	1	1	0	0	0.072576	0.13388	0.19007	0.16075	0.24687	0.19133	0.1506	0.15883	0.21165	0.059541	0.23653	0.037136	0.15225	0.24757	0.067931	0.093883	-2.2646	-2.7583	-2.925	-2.7083	-3.0458	-2.7521	-2.8187	-3.1813	-2.8146	-2.8979	-3.0229	-2.6917	-3.0062	-2.8	-2.6458	-2.9792	95.956	102.316	8.493	-82.797	44.411	-97.729	208.267	158.412	150.828	253.343	28.405	-56.827	-93.523	161.663	25.561	51.592	3.5307e-05	0.00033003	0.00010626	1305.6	4.1481e-06	3.6362e-06	975.59	350.47	7.1795e-06	6.2186e-06	263.59	52.644	70.178	16.176	4.7067e-06	14.222	0.0022337	0.0030663	0.00083392	1287.2	3.2586e-05	3.3513e-05	970.08	348.12	3.1931e-05	3.3072e-05	267.11	55.707	72.977	17.052	3.2259e-05	15.644	96.915	-10.356	25.883	-86.486	22.792	65.910	-87.173	-82.686	-43.270	13.994	-84.972	-80.279	-78.152	-73.814	100.813	-75.347	-8191	255	
15242.018	1	1	0	0	0.26317	0.020328	0.28618	0.17	0.037846	0.32889	0.19367	0.15006	0.1527	0.21676	0.10527	0.27463	0.40717	0.075085	0.12112	0.22992	-2.4313	-2.8688	-2.8667	-2.7833	-2.9875	-2.8854	-2.775	-3.0812	-2.875	-2.6667	-3.1063	-2.5604	-2.9833	-2.9479	-2.8312	-3.0354	-75.592	216.896	229.428	208.703	165.625	185.552	170.207	108.924	21.008	66.733	246.241	211.391	189.684	223.100	180.983	228.122	6.264e-05	0.00097019	0.00011172	1302.7	6.948e-06	5.6372e-07	985.47	351.55	4.6135e-06	3.9865e-06	263.92	53.043	71.088	16.129	3.0482e-06	14.221	0.0022172	0.002992	0.00083276	1290.6	3.1859e-05	3.3279e-05	977.15	349.17	3.2915e-05	3.3204e-05	268.69	56.367	73.591	17.171	3.3033e-05	15.75	178.699	-80.776	58.858	-86.571	160.374	168.844	-87.183	-82.392	-14.694	-34.522	-84.672	-80.315	-78.303	-73.517	-12.833	-75.651	-8191	255	
15242.115	1	1	0	0	0.03876	0.14432	0.17015	0.16253	0.23869	0.1355	0.11353	0.4568	0.20063	0.19565	0.029461	0.22513	0.11122	0.15821	0.12241	0.21255	-2.2542	-2.9375	-2.9479	-2.5479	-2.9021	-3.1	-2.7896	-3.1312	-2.8208	-2.725	-3.0354	-2.7917	-2.975	-2.9625	-2.4938	-3.0625	18.990	30.455	-77.991	138.194	26.514	173.381	-78.179	229.321	45.759	-0.066	216.847	137.394	-24.717	-51.966	-21.469	-86.107	4.0538e-05	0.00051137	0.00015833	1303.8	2.6468e-06	4.7684e-06	977.14	350.38	5.1311e-06	2.2061e-06	261.81	52.951	70.202	16.122	4.9866e-06	14.058	0.002241	0.0030156	0.00084328	1290.8	3.2051e-05	3.3104e-05	974.72	348.07	3.2348e-05	3.3718e-05	267.56	55.855	72.679	17.094	3.2348e-05	15.605	192.620	4.251	31.708	-86.470	146.170	-60.408	-87.402	-82.528	220.437	238.335	-85.055	-80.417	-78.521	-73.922	186.282	-75.337	-8191	255	
15242.186	1	1	0	0	0.14156	0.095538	0.17216	0.24778	0.18057	0.14062	0.3232	0.25459	0.24682	0.041799	0.10248	0.19365	0.12013	0.10722	0.15382	0.1135	-2.4938	-2.6	-3.0396	-2.9021	-2.9083	-3.0708	-2.9104	-3.0479	-2.8667	-2.85	-3.1937	-2.8063	-2.8083	-2.9167	-2.6708	-2.8958	37.263	169.754	250.880	224.273	-65.171	28.023	121.135	181.461	178.808	241.664	-66.983	153.512	-26.689	-62.020	117.989	120.022	5.9102e-05	0.0010131	0.00016214	1289.9	3.3724e-06	3.2729e-06	972.38	347.87	4.8374e-06	9.1548e-06	258.98	51.937	70.253	16.098	4.3819e-07	14.11	0.0021729	0.0029575	0.00082431	1278.6	3.1278e-05	3.2965e-05	967.52	345.99	3.1574e-05	3.2723e-05	264.62	55.304	72.773	17.017	3.2484e-05	15.693	-29.603	4.651	-39.035	-86.456	232.644	102.794	-87.318	-82.625	-47.737	-43.164	-84.695	-80.605	-78.549	-73.256	17.006	-75.558	-8191	255	
15242.282	1	1	0	0	0.049991	0.29123	0.16795	0.29847	0.31511	0.063625	0.23807	0.26382	0.34526	0.075751	0.12087	0.098776	0.3451	0.039547	0.071509	0.33967	-2.3812	-2.6646	-2.8271	-2.9625	-2.8063	-3.0542	-2.8708	-3.0563	-2.8875	-2.7708	-3.0521	-2.8604	-2.7167	-2.9625	-2.6604	-3.0354	189.676	176.012	159.775	220.643	-75.741	85.501	66.221	192.857	143.302	-53.096	167.591	-13.957	-99.876	140.045	-44.170	-57.846	7.307e-05	0.00077108	0.00010915	1306.2	3.8084e-06	7.1382e-06	981.2	350.91	3.8999e-06	5.3844e-06	262.51	52.86	70.914	16.318	4.2968e-06	14.22	0.0022092	0.0029868	0.00084746	1292.2	3.2291e-05	3.3494e-05	975.51	350.55	3.2483e-05	3.4277e-05	268.43	56.262	73.291	17.201	3.2708e-05	15.742	19.863	-56.936	-44.417	-86.636	201.912	86.078	-87.593	-82.465	-61.231	45.546	-84.314	-80.329	-78.846	-73.592	38.793	-75.747	-8191	255	
15242.403	1	1	0	0	0.096632	0.39988	0.34553	0.37779	0.17993	0.10619	0.35746	0.37695	0.24998	0.15336	0.15106	0.21394	0.13742	0.18508	0.14355	0.035883	-2.5479	-2.7521	-3.0187	-2.8875	-2.9083	-3.1271	-2.7521	-3.0854	-2.825	-2.8812	-2.9875	-2.9667	-2.8521	-3.05	-2.8312	-3.0896	213.090	228.601	125.924	256.378	-95.121	74.828	208.368	187.520	205.604	-76.859	-70.259	176.896	118.803	-81.928	47.841	194.243	7.1188e-05	0.00075623	0.00027382	1303.3	1.866e-06	4.1436e-06	983.18	351.17	1.3812e-06	4.2139e-06	262.98	52.85	70.262	16.246	5.3527e-06	14.257	0.0022112	0.0029906	0.0008597	1289.9	3.1663e-05	3.3473e-05	975.71	348.87	3.1429e-05	3.3817e-05	268.15	56.255	72.91	17.208	3.3142e-05	15.846	255.347	-20.410	-8.177	-86.529	20.933	82.209	-87.484	-82.399	85.698	-55.236	-84.554	-80.497	-78.444	-73.227	35.313	-75.582	-8191	255	
15242.499	1	1	0	0	0.044093	0.23777	0.12837	0.1355	0.10537	0.20579	0.26375	0.48622	0.14526	0.15726	0.212	0.27029	0.27676	0.086957	0.19189	0.26876	-2.6583	-2.6083	-2.9688	-2.9313	-2.7333	-3.2417	-2.8208	-2.8812	-2.8375	-2.6604	-2.9917	-2.9375	-2.6813	-2.9542	-2.7375	-2.8396	133.592	48.206	48.241	243.849	-66.009	235.470	134.229	246.618	-55.276	-53.595	147.719	38.038	-85.291	23.855	187.718	216.250	3.162e-05	0.00023955	0.00019475	1305.8	3.9631e-06	2.3769e-06	980.23	352.1	2.2947e-06	3.4249e-06	263.01	52.446	70.32	16.283	1.4278e-05	14.187	0.002219	0.0030698	0.00085698	1288.4	3.192e-05	3.3965e-05	974.87	349.18	3.2146e-05	3.4098e-05	267.96	55.708	72.991	17.103	3.2841e-05	15.635	165.924	213.397	49.916	-86.685	108.711	-81.988	-87.192	-82.508	156.280	86.997	-84.439	-80.232	-78.143	-73.745	-53.929	-75.566	-8191	255	
15242.594	1	1	0	0	0.26777	0.1749	0.11217	0.28344	0.21894	0.24902	0.10061	0.17828	0.18516	0.029777	0.24278	0.21743	0.17359	0.086378	0.097876	0.24122	-2.5625	-2.6917	-3.1	-2.8896	-2.775	-2.9667	-2.8146	-3.0271	-3.0146	-2.8542	-3.0438	-2.9271	-2.6771	-2.925	-2.9125	-2.8583	-9.389	89.394	-76.053	216.219	-4.906	58.618	112.451	252.830	203.469	154.209	251.578	155.219	-67.421	-68.538	-26.741	31.397	4.4593e-05	0.0008926	5.6847e-05	1300.4	1.0296e-06	1.9506e-06	970.83	349.77	4.1806e-06	6.6026e-06	261.33	52.735	70.916	16.172	3.9898e-06	14.128	0.0021779	0.0029708	0.00085257	1286.8	3.2082e-05	3.3482e-05	967.48	348.2	3.1991e-05	3.4332e-05	266.83	55.738	73.491	17.151	3.3272e-05	15.504	245.662	3.520	57.517	-86.511	23.059	64.181	-87.363	-82.583	-99.566	-18.531	-84.816	-80.203	-78.502	-73.168	-50.840	-75.325	-8191	255	
15242.690	1	1	0	0	0.03676	0.10736	0.055187	0.15538	0.18503	0.1676	0.094727	0.14343	0.1345	0.15388	0.052777	0.075604	0.29805	0.16673	0.32317	0.028061	-2.4667	-2.7333	-2.9167	-3	-2.7375	-3.0146	-2.8396	-2.9354	-3.0458	-2.9042	-2.9313	-2.975	-2.5854	-3.0021	-2.8187	-2.8625	86.545	131.400	107.470	-57.024	2.040	129.105	137.996	107.857	109.986	102.888	-64.363	249.092	223.335	228.539	144.262	180.525	8.5491e-05	0.0005753	0.00020118	1308.3	5.9037e-06	4.1558e-06	975.49	353.56	9.3502e-07	3.796e-06	261.48	52.975	70.99	16.217	2.5716e-06	13.989	0.0022689	0.003114	0.0008768	1296.3	3.3803e-05	3.555e-05	972.77	351.53	3.3595e-05	3.5984e-05	268.49	56.119	73.48	17.206	3.3914e-05	15.598	136.049	31.596	-51.071	-86.700	41.499	22.342	-87.398	-82.381	20.712	242.586	-84.730	-80.251	-78.493	-73.578	116.464	-75.701	-8191	255	
15242.788	1	1	0	0	0.16501	0.10787	0.17543	0.076587	0.25432	0.23765	0.14254	0.076888	0.17668	0.21473	0.053035	0.070305	0.063368	0.19255	0.088643	0.17005	-2.6125	-2.6583	-2.7208	-3.0563	-2.4958	-3.05	-2.8667	-2.7917	-2.9979	-2.6	-2.875	-3.0958	-2.6833	-2.8104	-2.9958	-2.7875	48.014	-39.856	117.265	-82.817	-55.256	-18.631	163.305	84.033	92.527	57.831	198.606	218.705	101.956	-11.350	24.036	106.942	6.8585e-05	0.00067791	0.00015849	1303.3	3.035e-06	5.15e-06	977.49	352.13	3.5421e-06	8.1587e-06	264.28	53.254	71.012	16.212	6.0053e-06	14.013	0.0023191	0.0032084	0.00088328	1292.1	3.3944e-05	3.5044e-05	973.77	350.24	3.3885e-05	3.5526e-05	269.21	56.424	73.797	17.226	3.3883e-05	15.619	155.679	12.237	139.301	-86.470	183.683	-69.181	-87.215	-82.437	-88.582	-89.308	-84.549	-80.478	-78.366	-73.629	-39.118	-75.949	-8191	255	
15242.882	1	1	0	0	0.13866	0.19065	0.20777	0.27212	0.068886	0.15236	0.45016	0.072831	0.23073	0.28296	0.24051	0.080058	0.048398	0.15005	0.14568	0.13049	-2.7146	-2.8083	-2.6042	-2.9875	-2.7396	-2.8688	-3.0312	-2.8042	-3.1333	-2.7833	-2.7833	-2.8958	-2.7583	-2.8729	-3.0417	-2.6312	213.840	231.501	196.817	-74.167	178.191	129.261	172.917	167.784	113.394	176.003	165.834	68.222	192.146	247.105	164.883	187.939	9.5364e-05	0.0010301	0.00016053	1311.7	3.3947e-06	1.9866e-06	977.25	353.73	5.3961e-06	1.1415e-06	260.59	52.364	70.967	16.146	2.6668e-06	13.881	0.0023279	0.0032151	0.00088211	1296.6	3.4537e-05	3.5952e-05	974.71	351.7	3.4498e-05	3.668e-05	268.07	55.872	73.791	17.185	3.4996e-05	15.564	223.187	-60.524	-0.107	-86.613	-9.027	219.906	-87.431	-82.448	6.414	119.407	-84.578	-80.313	-78.570	-73.609	10.171	-76.193	-8191	255	
15242.978	1	1	0	0	0.26516	0.17124	0.17914	0.20562	0.12896	0.27755	0.40648	0.17636	0.079299	0.33302	0.16585	0.22568	0.14734	0.039727	0.16067	0.17749	-2.6562	-2.8396	-2.7167	-3.3	-2.7292	-3.0375	-3.1312	-2.7208	-2.8292	-2.9708	-2.7313	-3.0229	-2.8187	-2.9146	-2.8688	-2.7083	97.488	18.054	139.761	-79.465	-100.043	21.052	221.835	206.502	34.992	33.928	258.079	111.893	137.772	172.296	117.891	111.074	5.5207e-05	0.00094229	0.00016971	1304	3.3604e-06	7.9549e-06	967.43	348.94	3.4975e-06	1.1121e-05	260.36	51.589	70.385	15.925	4.2177e-06	13.755	0.0023863	0.0032258	0.00089852	1287.3	3.4685e-05	3.6051e-05	960.97	348.16	3.4217e-05	3.6344e-05	265.32	55.275	73.167	17.047	3.4602e-05	15.415	-66.408	-10.745	28.351	-86.602	95.429	8.773	-87.254	-82.442	-75.619	65.408	-84.773	-80.112	-78.682	-73.685	241.161	-75.991	-8191	255	
15243.099	1	1	0	0	0.062333	0.10623	0.11859	0.2629	0.22642	0.10592	0.32624	0.22412	0.19691	0.14049	0.19932	0.17257	0.16726	0.11678	0.25349	0.31028	-2.4917	-2.85	-2.7333	-3.1354	-2.7938	-2.8	-2.9854	-2.7979	-2.8688	-2.8667	-2.5167	-2.8125	-2.8896	-2.6875	-2.8417	-2.5646	9.941	26.042	57.665	229.554	130.356	213.064	133.254	182.647	-73.878	199.932	56.034	-50.477	213.494	-67.253	-73.282	221.656	3.2423e-05	0.00043683	0.00021844	1301.8	4.2136e-06	3.059e-06	968.39	351.09	5.0022e-06	6.615e-06	261.85	52.021	70.383	16.174	7.402e-06	13.784	0.0024153	0.0032154	0.00090053	1290.4	3.5022e-05	3.6078e-05	967.77	350.93	3.4894e-05	3.6397e-05	267.93	55.839	73.57	17.134	3.5078e-05	15.51	-52.765	-27.760	-38.906	-86.491	138.174	28.130	-87.315	-82.415	19.960	-5.081	-84.679	-80.644	-78.239	-73.692	20.079	-75.419	-8191	255	
15243.193	1	1	0	0	0.14207	0.031768	0.16805	0.15201	0.21968	0.32319	0.11266	0.20474	0.15787	0.078104	0.055817	0.17282	0.19808	0.1646	0.1098	0.3063	-2.5438	-2.8292	-2.5125	-3.0271	-3.0521	-2.875	-3.2896	-2.9375	-2.9104	-2.8854	-2.8479	-3.0667	-2.8187	-2.6167	-3.0917	-2.7979	112.461	-34.925	-34.904	203.358	86.276	135.649	-96.920	-82.570	90.643	131.697	-23.531	97.788	193.390	218.553	108.991	-44.845	6.4509e-05	0.00063105	0.00016474	1310.4	1.5319e-06	8.5315e-06	976.92	350.99	4.7223e-06	4.4147e-06	263.42	52.154	70.231	16.099	7.8866e-06	14.06	0.0023954	0.0031677	0.00090753	1293.7	3.3686e-05	3.5154e-05	970.58	349.46	3.3881e-05	3.5122e-05	267.82	55.891	73.37	17.068	3.4914e-05	15.652	246.650	-3.311	-33.725	-86.691	30.106	76.191	-87.351	-82.514	-52.191	55.574	-84.430	-80.400	-78.564	-73.150	-25.201	-75.674	-8191	255	
15243.289	1	1	0	0	0.10092	0.20919	0.17709	0.27511	0.24131	0.20959	0.16508	0.27748	0.24662	0.15871	0.20329	0.082494	0.16707	0.13678	0.068321	0.11503	-2.4833	-3.0125	-2.4875	-2.9771	-2.7479	-2.7583	-3.2146	-2.7729	-2.8021	-3.0833	-2.6833	-3.0187	-2.8792	-2.6354	-3.1854	-2.7438	26.091	161.351	193.807	135.770	55.423	116.661	129.247	216.097	8.903	-68.599	-30.371	150.928	-72.442	-88.937	170.687	111.476	5.5917e-05	0.00052989	0.00030065	1303.8	4.064e-06	1.6776e-06	973.1	349.04	1.1347e-06	8.4118e-06	260.37	51.733	70.171	15.962	1.839e-06	13.95	0.0023917	0.0032331	0.00092414	1293.5	3.5162e-05	3.6557e-05	970.3	349.37	3.4768e-05	3.6157e-05	266.48	55.413	72.937	17.054	3.4858e-05	15.49	-73.190	16.381	7.870	-86.520	-66.204	47.541	-87.138	-82.567	-65.769	-73.449	-84.151	-80.147	-78.696	-73.734	-13.856	-75.475	-8191	255	
15243.385	1	1	0	0	0.18146	0.072812	0.093501	0.24358	0.19572	0.18469	0.22464	0.25074	0.31974	0.15433	0.21199	0.14969	0.14918	0.18943	0.12818	0.50352	-2.6875	-3.0979	-2.7875	-2.9333	-2.7833	-2.7812	-3.2333	-2.7188	-2.9062	-2.9979	-2.7542	-2.9271	-2.7687	-2.6875	-2.9083	-2.8333	-91.289	166.407	166.344	215.079	221.626	48.427	191.845	222.722	82.239	33.870	163.938	85.285	-77.619	-83.815	251.573	185.390	9.0078e-05	0.0004637	3.7882e-05	1298.8	2.7247e-06	5.224e-06	966.8	349.15	1.9927e-06	2.5659e-06	259.43	51.766	69.934	15.944	5.842e-06	13.829	0.0023649	0.0032076	0.00092953	1285	3.4158e-05	3.5962e-05	963	347.64	3.408e-05	3.5602e-05	265.45	55.315	72.81	16.986	3.4967e-05	15.484	-31.057	-47.504	67.693	-86.694	65.233	188.697	-87.404	-82.418	-59.775	76.728	-84.871	-80.251	-78.467	-73.746	28.087	-75.668	-8191	255	
15243.482	1	1	0	0	0.0826	0.091324	0.15992	0.10267	0.089392	0.087823	0.20211	0.16029	0.070979	0.21795	0.12248	0.13905	0.11791	0.27153	0.052905	0.11893	-2.4604	-2.9292	-2.8667	-3.1708	-2.9979	-2.7042	-3.0146	-2.9333	-2.725	-3.0375	-2.8312	-2.75	-3.0854	-2.7938	-2.975	-2.8604	185.110	113.773	206.747	-50.306	-96.841	96.264	234.533	251.779	138.920	242.092	72.167	54.955	151.322	226.607	161.536	87.460	5.9401e-05	0.0011439	0.00013438	1302.6	3.3108e-06	4.273e-06	978.24	352.75	3.5535e-06	6.054e-06	263.41	52.288	70.741	16.201	5.4796e-06	13.911	0.002368	0.0032323	0.00091889	1291.9	3.451e-05	3.7399e-05	973.27	352.13	3.5566e-05	3.7435e-05	269.84	56.331	74.206	17.35	3.6615e-05	15.655	221.719	-90.759	188.062	-86.347	91.171	180.011	-87.462	-82.497	124.537	-28.225	-84.361	-80.010	-78.237	-73.604	-34.181	-75.825	-8191	255	
15243.578	1	1	0	0	0.13772	0.04511	0.11272	0.15366	0.19277	0.28075	0.25415	0.23249	0.068726	0.09093	0.20128	0.11303	0.047164	0.31484	0.076377	0.067396	-2.4521	-3.05	-2.8042	-3.0625	-3.1104	-2.7354	-3.1083	-3.1	-2.6854	-3.0583	-2.9208	-2.8688	-2.9125	-2.7083	-3.0375	-3.0458	91.871	-31.339	-9.026	187.227	39.977	-82.247	249.476	-38.971	165.613	55.909	195.459	0.408	121.480	-81.079	188.950	5.229	7.5356e-06	0.00013167	0.0001634	1303	5.1146e-06	6.0713e-06	974.66	354.36	5.2229e-06	1.0366e-05	262.06	52.806	70.386	16.218	2.37e-06	14.088	0.0024721	0.0033443	0.0009298	1294.2	3.4601e-05	3.661e-05	972.16	351.99	3.4126e-05	3.5909e-05	269.74	56.374	73.631	17.287	3.6447e-05	15.795	100.223	13.382	244.971	-86.702	17.065	-38.526	-87.530	-82.600	186.687	-44.836	-84.706	-80.153	-78.241	-73.834	-60.510	-76.008	-8191	255	
15243.698	1	1	0	0	0.097111	0.063235	0.038541	0.23665	0.046157	0.122	0.30691	0.22632	0.16194	0.065158	0.079995	0.10596	0.11476	0.14856	0.057051	0.16396	-2.3271	-3.1562	-2.6583	-2.9354	-3.1229	-2.8271	-3.2792	-3.0875	-2.6083	-3.0479	-2.9521	-3.0125	-3.15	-2.9729	-2.9979	-3.0854	-80.304	-3.399	78.128	189.157	71.185	-74.768	130.960	169.038	142.082	-65.031	9.531	-97.304	-65.675	167.871	189.490	240.598	8.4669e-06	0.00031359	4.8472e-05	1313.7	1.2645e-06	4.5653e-06	974.29	351.5	5.599e-06	1.1349e-05	259.52	52.021	69.514	15.939	3.3118e-06	13.803	0.0024799	0.0033872	0.00095487	1297.9	3.5547e-05	3.7862e-05	971.93	350.58	3.4841e-05	3.6626e-05	266.9	55.587	73.068	17.068	3.5125e-05	15.435	-69.762	31.258	232.827	-86.515	51.327	-9.223	-87.413	-82.414	-23.453	-34.320	-84.326	-80.287	-78.589	-73.140	-94.337	-75.573	-8191	255	
15243.795	1	1	0	0	0.10087	0.08287	0.078532	0.19699	0.29275	0.16127	0.25218	0.24521	0.27089	0.15232	0.22119	0.24825	0.14447	0.31293	0.080356	0.23674	-2.3542	-3.1813	-2.875	-2.9646	-3.0333	-3.0417	-3.2604	-3.0854	-2.7708	-3.1312	-2.7854	-2.8604	-3.0563	-3.0521	-3.0625	-3.1479	13.142	70.186	-47.155	243.774	-32.943	144.858	198.418	170.311	-24.378	115.236	145.867	-8.764	-90.996	254.112	92.078	189.414	2.1657e-05	0.00070787	0.00015366	1304.2	2.7631e-06	9.8472e-06	963.99	349.89	5.4422e-06	2.6434e-06	259.69	51.647	70.035	15.861	2.612e-06	13.813	0.0024228	0.0032835	0.00091388	1287.8	3.4505e-05	3.6541e-05	960.36	347.34	3.3406e-05	3.5335e-05	264.42	55.227	72.866	16.92	3.3691e-05	15.373	101.665	-88.584	240.126	-86.652	244.943	-3.931	-87.163	-82.348	80.166	-39.847	-84.574	-80.500	-78.406	-74.101	-27.514	-75.735	-8191	255	
15243.891	1	1	0	0	0.26006	0.21925	0.19908	0.1246	0.065355	0.2084	0.24061	0.07372	0.091907	0.17498	0.15264	0.20197	0.10516	0.10512	0.19746	0.13119	-2.3917	-3.0708	-3.0833	-2.8479	-3.1937	-2.8187	-3.2313	-3.2604	-2.9708	-3.1125	-2.8375	-2.9813	-3.1833	-2.8833	-2.8979	-3.1167	73.171	157.914	206.878	5.678	211.917	-26.161	185.484	165.762	77.861	42.689	-35.588	30.473	198.913	238.906	81.752	29.739	2.3166e-05	0.00063518	0.00011307	1300.4	2.6842e-06	1.7875e-06	974.36	349.98	1.7129e-06	3.5784e-07	262.08	52.326	70.212	16.041	4.0003e-06	13.942	0.0023207	0.0031558	0.00086876	1287.5	3.3514e-05	3.4838e-05	969.82	348.63	3.3629e-05	3.4896e-05	267.17	55.765	73.351	17.084	3.4575e-05	15.61	236.606	41.660	-25.485	-86.443	149.368	6.962	-87.311	-82.438	-85.052	-35.662	-84.382	-79.565	-78.207	-74.138	-16.748	-75.291	-8191	255	
15243.987	1	1	0	0	0.2786	0.15222	0.24925	0.1826	0.11708	0.15867	0.11126	0.099158	0.24997	0.25049	0.10564	0.24917	0.19001	0.36338	0.13112	0.084792	-2.3354	-2.8812	-3.0708	-3.0625	-3.1063	-3.0042	-2.9479	-3.1688	-2.9104	-2.9604	-3.0625	-2.7479	-3.1604	-2.8271	-2.8104	-3.1479	187.935	100.667	252.170	-95.827	115.593	128.312	201.644	-34.526	21.180	156.353	170.461	-18.765	-96.422	104.239	218.127	76.950	0.00011263	5.4317e-05	0.00016904	1307.4	1.5521e-06	7.6327e-06	978.78	353	5.8669e-06	2.8922e-06	263.83	52.489	70.942	16.177	1.4367e-06	14.148	0.0024419	0.0032683	0.00092166	1297.9	3.5407e-05	3.685e-05	974.29	351.54	3.5115e-05	3.6328e-05	269.46	56.234	73.881	17.165	3.4352e-05	15.72	-87.729	209.111	-54.242	-86.610	-55.225	-1.611	-87.441	-82.517	225.641	16.929	-84.705	-80.135	-78.129	-73.715	81.237	-75.942	-8191	255	
15244.059	1	1	0	0	0.27081	0.16984	0.036632	0.072315	0.16322	0.20377	0.19517	0.11154	0.10252	0.21792	0.16583	0.25231	0.23384	0.031197	0.30326	0.28911	-2.3812	-2.8979	-3.0375	-3.0104	-3.025	-3.0354	-3.0479	-3.2167	-3.0062	-2.9708	-2.9667	-2.7812	-3.1312	-2.9396	-2.6958	-2.9375	198.881	123.809	-17.732	239.346	-97.223	67.686	192.003	149.806	226.962	70.280	-71.937	156.269	248.606	-92.292	5.717	218.686	2.0323e-05	0.00015732	0.00030136	1313.8	5.2951e-06	3.4571e-06	983.97	356.6	5.3945e-06	3.6936e-06	263.46	52.695	71.038	16.203	9.1805e-06	13.959	0.0024105	0.0032021	0.00089847	1300.7	3.4988e-05	3.6475e-05	978.46	355.1	3.531e-05	3.7647e-05	269.54	56.432	74.401	17.306	3.5581e-05	15.654	-95.175	-83.227	-2.324	-86.650	232.073	110.943	-87.731	-82.366	25.357	165.671	-84.809	-79.840	-78.683	-73.406	24.508	-75.775	-8191	255	
15244.177	1	1	0	0	0.16601	0.10667	0.28215	0.17352	0.15293	0.085769	0.20357	0.35391	0.18997	0.025839	0.12417	0.22746	0.12394	0.084794	0.017833	0.081243	-2.4104	-2.9771	-2.9479	-2.9708	-2.9708	-2.9833	-2.7854	-3.1833	-2.7292	-3.0062	-3.3	-2.85	-2.9	-2.9771	-2.8083	-3.1521	181.678	256.502	111.628	162.426	79.225	-62.917	215.726	254.617	105.915	-17.823	186.825	-18.250	187.194	39.576	256.398	-29.105	7.4605e-05	0.00015657	8.6605e-05	1308.9	5.148e-06	8.6443e-06	971.17	352.05	3.2226e-06	1.0133e-05	261.15	52.086	70.391	16.1	2.6876e-06	14.023	0.0024478	0.0032261	0.00091938	1291	3.466e-05	3.6413e-05	966.48	350.68	3.5271e-05	3.682e-05	267	55.987	73.618	17.192	3.619e-05	15.75	228.158	248.913	168.053	-86.451	147.280	67.986	-87.398	-82.531	163.048	-35.055	-84.545	-80.082	-78.480	-73.379	23.254	-75.946	-8191	255	
15244.274	1	1	0	0	0.095622	0.091867	0.078202	0.15092	0.14543	0.066448	0.1408	0.31113	0.36748	0.18524	0.30008	0.14757	0.14539	0.070151	0.17047	0.14622	-2.4667	-2.7875	-3.1417	-2.8729	-2.9979	-3.1188	-3.0521	-3.3417	-2.7938	-3	-3.3542	-2.8292	-2.9729	-3.1104	-2.5979	-3.1833	98.305	173.856	30.557	-87.789	-86.165	57.350	248.238	226.990	113.278	198.822	227.876	212.493	216.583	-62.036	137.648	226.008	7.4801e-05	0.00096367	0.00021695	1305.2	1.0404e-05	7.913e-06	979.76	352.7	7.3154e-06	6.8223e-06	260.73	52.391	70.694	16.304	6.8522e-06	14.158	0.0024542	0.0033053	0.00094922	1293.9	3.5543e-05	3.6512e-05	971.41	351.63	3.57e-05	3.6751e-05	268.83	56.222	73.938	17.336	3.68e-05	15.85	-27.066	-2.143	26.639	-86.410	77.204	47.482	-87.505	-82.402	-6.314	129.382	-84.709	-80.476	-78.211	-73.230	70.452	-76.245	-8191	255	
15244.370	1	1	0	0	0.087045	0.061792	0.13056	0.037778	0.08056	0.147	0.09841	0.089946	0.14085	0.073854	0.15206	0.14752	0.10029	0.28287	0.21484	0.23887	-2.6125	-2.9083	-3.1458	-2.9229	-2.8917	-3.0833	-3.0375	-3.15	-2.975	-2.9083	-3.0354	-2.8917	-2.9771	-3.2292	-2.7812	-3.0062	156.271	67.242	-25.528	130.181	216.946	-29.642	177.920	-2.194	228.082	71.159	-68.031	185.345	172.047	79.977	104.503	187.632	4.1343e-05	0.00033261	0.00010572	1312	5.4174e-06	4.5142e-06	979.7	354.21	3.8408e-06	5.723e-06	264.25	53.28	70.831	16.116	6.0505e-06	14.266	0.0024424	0.0033279	0.00093552	1298.8	3.5157e-05	3.6461e-05	976.21	352.71	3.4531e-05	3.6537e-05	270.22	56.858	74.19	17.254	3.6348e-05	15.925	201.354	80.526	32.721	-86.575	21.835	27.356	-87.297	-82.375	65.254	81.855	-84.061	-80.352	-78.808	-73.312	119.911	-75.643	-8191	255	
15244.466	1	1	0	0	0.35908	0.15445	0.25536	0.031613	0.17294	0.25243	0.079376	0.29515	0.27028	0.17803	0.10244	0.17347	0.035127	0.12123	0.20617	0.13398	-2.6229	-2.7354	-2.9271	-2.7938	-2.8937	-3.3229	-3.0375	-3.2146	-2.8812	-2.8208	-3.025	-2.8229	-2.8375	-3.2896	-2.6688	-2.9	112.534	53.717	102.877	136.830	183.368	154.194	-84.691	243.769	110.995	131.712	-11.332	176.542	212.729	221.850	1.590	109.683	8.8119e-05	0.00062798	0.00018456	1313	6.898e-07	3.1474e-06	984.47	355.25	4.0613e-06	7.9878e-06	264.07	53.276	72.245	16.25	5.748e-06	14.005	0.0024006	0.0033224	0.00093752	1301.4	3.4836e-05	3.6358e-05	977.23	354.25	3.4058e-05	3.5744e-05	269.99	56.392	74.516	17.334	3.5107e-05	15.618	259.815	-16.771	-17.351	-86.494	94.888	74.815	-87.460	-82.068	117.890	210.013	-84.803	-80.430	-78.688	-73.566	77.020	-75.749	-8191	255	
15244.587	1	1	0	0	0.26169	0.11912	0.2032	0.12395	0.32993	0.15841	0.17503	0.11385	0.13825	0.15154	0.34203	0.11793	0.099362	0.22507	0.17647	0.186	-2.4917	-2.5438	-3.0458	-2.8937	-2.8479	-3.3167	-2.85	-3.1354	-2.9813	-2.825	-3.1625	-2.7625	-2.7771	-3.1312	-2.8646	-2.9625	123.512	-71.216	51.654	171.332	-59.652	151.268	217.692	135.815	84.664	180.127	227.516	17.795	206.385	163.876	59.908	211.246	7.3821e-05	0.00044539	7.1814e-05	1321	1.6395e-06	3.8896e-06	977.08	357.59	3.1022e-06	5.7063e-06	264.79	53.487	71.116	16.234	3.9704e-06	14.025	0.0023688	0.0032067	0.00091189	1303.2	3.3556e-05	3.5115e-05	972.44	355.17	3.3354e-05	3.5048e-05	270.22	56.471	74.233	17.269	3.4344e-05	15.663	220.741	10.246	-44.372	-86.632	72.198	159.127	-87.402	-82.470	-5.751	47.047	-84.397	-80.167	-78.197	-73.574	148.587	-76.028	-8191	255	
15244.683	1	1	0	0	0.14046	0.2357	0.2885	0.19443	0.15654	0.2347	0.15013	0.09463	0.32206	0.067323	0.15715	0.19948	0.11461	0.20286	0.022484	0.14111	-2.6979	-3.0646	-2.9437	-2.8771	-2.7729	-3.0792	-2.9417	-3.0417	-3.0354	-2.6896	-3.1688	-3.0021	-2.7229	-3	-2.7375	-2.7917	-8.012	80.045	113.048	-84.070	247.976	35.482	42.811	-8.901	61.654	128.025	128.452	199.390	-56.931	187.770	4.474	-49.157	7.5126e-05	0.00040468	9.3669e-05	1313.5	4.3274e-06	8.1516e-06	979.88	356.76	2.8585e-06	7.8667e-06	266.64	53.27	71.863	16.273	5.3904e-06	14.103	0.0022977	0.0031757	0.00090348	1301.9	3.4008e-05	3.5837e-05	977.25	355.09	3.3938e-05	3.6121e-05	271.4	56.639	74.657	17.408	3.5433e-05	15.821	221.592	-11.992	-29.039	-86.603	177.949	74.825	-87.395	-82.681	142.784	9.085	-84.539	-80.181	-78.535	-73.502	35.180	-75.774	-8191	255	
15244.779	1	1	0	0	0.25238	0.080331	0.10848	0.11406	0.25234	0.18827	0.23495	0.094459	0.16607	0.14629	0.058484	0.057806	0.14597	0.26572	0.055852	0.096562	-2.5812	-2.7146	-2.8917	-3.0375	-2.6375	-3.0021	-3.0896	-3.0354	-3.1188	-2.6021	-3.0062	-3.0167	-2.6958	-3.0146	-2.875	-2.75	120.678	101.159	56.721	257.406	39.779	-58.116	128.046	144.991	34.703	8.336	246.698	-32.822	183.702	107.072	-87.431	-5.299	8.9031e-05	0.00038076	0.00011337	1317.5	5.8237e-06	9.7725e-06	980.33	356.64	7.6671e-06	2.8779e-06	266.27	53.691	71.732	16.291	5.9328e-06	14.24	0.0023702	0.003315	0.00091569	1305.1	3.4302e-05	3.5369e-05	978.92	354.46	3.2834e-05	3.522e-05	271.96	56.794	74.649	17.329	3.4131e-05	15.799	-93.284	37.329	-10.644	-86.563	2.109	199.598	-87.348	-82.606	2.460	130.145	-84.759	-80.667	-78.590	-73.214	11.799	-75.777	-8191	255	
15244.875	1	1	0	0	0.22324	0.33877	0.15112	0.257	0.22361	0.16525	0.34056	0.36182	0.19117	0.028257	0.19401	0.29288	0.15132	0.060267	0.35275	0.11067	-2.6646	-2.7833	-2.9667	-3.2188	-2.75	-2.9333	-2.8812	-2.7479	-3.1771	-2.8667	-3.0583	-3.1646	-2.7167	-3.0729	-2.95	-2.9167	117.001	-42.864	-9.414	219.985	36.673	16.548	226.414	225.332	177.826	25.126	79.986	131.522	188.387	6.109	19.387	129.929	4.9863e-05	0.0005533	0.00013634	1325	9.3424e-06	8.6461e-06	984.12	359.64	1.0942e-06	4.3326e-06	264.32	52.61	72.01	16.357	1.5947e-06	14.025	0.00234	0.0032452	0.00089311	1308.3	3.4591e-05	3.6109e-05	980.88	356.47	3.3824e-05	3.623e-05	270.72	56.373	74.757	17.353	3.441e-05	15.568	-76.698	67.090	-37.794	-86.690	26.867	95.984	-87.241	-82.401	-13.473	13.472	-84.515	-80.291	-78.788	-73.539	259.090	-75.779	-8191	255	
15244.971	1	1	0	0	0.37961	0.053733	0.17419	0.17277	0.11523	0.074962	0.29856	0.35629	0.098719	0.098302	0.41148	0.17325	0.21462	0.11452	0.15894	0.090254	-2.7438	-2.7188	-2.9313	-3.0938	-2.7625	-3.0729	-3.1229	-2.9625	-3.1167	-2.9292	-2.8521	-3.0729	-2.8563	-3.1063	-2.8125	-2.9021	-36.973	52.962	-58.276	-97.244	17.989	148.774	150.107	180.548	232.268	219.703	-80.865	143.510	217.044	101.736	209.702	213.250	6.6695e-05	0.00056006	7.4867e-05	1310.9	2.5051e-06	6.9998e-06	971.69	357.37	5.8502e-06	6.7479e-06	264.42	52.883	71.944	16.275	3.4218e-06	14.099	0.0023727	0.003265	0.00088533	1301.4	3.4459e-05	3.6005e-05	971.53	355.33	3.4258e-05	3.5588e-05	269.65	56.401	74.618	17.345	3.421e-05	15.686	176.839	-17.441	81.034	-86.671	-0.934	47.051	-87.172	-82.401	-71.311	119.037	-84.545	-80.222	-78.601	-73.587	19.066	-74.655	-8191	255	
15245.067	1	1	0	0	0.2821	0.34931	0.084532	0.28453	0.19994	0.14943	0.016522	0.13394	0.073941	0.10503	0.2945	0.29497	0.12597	0.17625	0.091254	0.19113	-2.7958	-2.7583	-2.8396	-3.3479	-2.8208	-2.9042	-3.1688	-2.9417	-3.2708	-2.8979	-2.9583	-3.1417	-2.7854	-3.0417	-3.0958	-2.5979	185.347	-79.439	153.898	233.058	-84.476	-77.464	246.243	115.503	-65.266	79.583	196.614	218.122	-75.062	79.994	222.228	-19.141	6.1893e-05	0.00065507	6.6476e-05	1315.1	3.4184e-06	3.3777e-07	984.21	357.96	2.4453e-06	1.1221e-06	264.55	53.319	71.982	16.256	5.2476e-06	14.06	0.0023516	0.0032033	0.00088898	1305.5	3.4457e-05	3.5711e-05	979.12	356.78	3.45e-05	3.6053e-05	271	56.831	74.745	17.34	3.4332e-05	15.744	-39.940	250.074	76.660	-86.548	-0.223	61.216	-87.311	-82.442	-23.171	-39.518	-84.562	-80.629	-78.794	-73.394	42.310	-75.882	-8191	255	
15245.186	1	1	0	0	0.10768	0.10435	0.16409	0.058347	0.039215	0.25795	0.10696	0.19125	0.15428	0.11366	0.20619	0.18756	0.22631	0.19816	0.13468	0.094233	-2.7396	-3.0479	-2.6333	-3.2042	-2.7792	-2.9771	-3.0938	-2.9813	-3.075	-2.9729	-2.7687	-3.15	-2.7812	-2.7583	-3.0625	-2.8646	31.316	218.941	-38.683	142.800	189.560	240.661	42.389	247.108	147.528	31.740	180.147	252.650	-78.456	-30.991	70.471	-36.825	7.1672e-05	0.00041	0.00017666	1311.5	7.435e-06	1.7685e-06	985.03	356.79	7.9907e-06	4.2331e-06	266.63	53.59	72.143	16.51	5.9899e-07	14.342	0.002349	0.0031499	0.00087779	1302.5	3.3776e-05	3.4677e-05	981.27	355.63	3.3796e-05	3.5094e-05	272.75	57.082	75.163	17.495	3.3812e-05	15.874	225.929	12.895	-99.549	-86.663	65.457	186.168	-87.091	-82.508	-8.703	69.478	-84.777	-80.363	-78.406	-73.370	183.915	-76.032	-8191	255	
15245.282	1	1	0	0	0.12011	0.14761	0.05382	0.17247	0.19253	0.19682	0.053939	0.42354	0.093596	0.12465	0.14161	0.088487	0.10048	0.37813	0.36257	0.17159	-2.5167	-2.8396	-2.8125	-3.1125	-2.9437	-3.0083	-3.2542	-2.9771	-2.9875	-2.8688	-2.7646	-3.0625	-2.8896	-2.8208	-3.0271	-2.9437	24.229	31.093	-30.826	-86.907	138.979	-20.371	191.463	208.711	-62.360	44.787	83.316	-37.612	236.528	244.391	159.961	182.110	4.2952e-05	0.00041428	0.00046476	1325.3	4.8728e-06	1.9807e-06	982.09	357.41	7.7609e-06	7.5824e-06	263.82	53.135	71.394	16.306	5.7547e-06	13.889	0.0023345	0.0031664	0.00090044	1309.8	3.3729e-05	3.4523e-05	978.03	356.12	3.3145e-05	3.4298e-05	269.06	56.336	74.121	17.261	3.3311e-05	15.563	165.144	-29.489	-69.358	-86.653	232.114	40.347	-87.519	-82.314	115.357	134.926	-84.603	-80.498	-78.432	-73.594	-10.390	-75.351	-8191	255	
15245.356	1	1	0	0	0.074935	0.098672	0.13669	0.15802	0.4318	0.11104	0.072296	0.24002	0.070086	0.014835	0.34126	0.071758	0.14892	0.12804	0.14006	0.028898	-2.5625	-2.9542	-2.6792	-3.2458	-2.95	-2.7083	-3.1229	-2.9104	-2.9958	-3.1583	-2.9083	-2.9917	-2.9396	-2.8958	-3.0771	-2.8229	-17.805	-44.695	48.464	159.385	92.714	197.131	173.470	187.618	116.790	1.796	16.478	225.534	232.272	194.228	111.230	31.599	6.672e-05	0.00056453	0.00018207	1315.5	4.8134e-06	5.8054e-06	974.36	355.67	8.0635e-06	7.054e-06	262.94	52.507	71.057	16.243	8.0635e-06	14.133	0.0022543	0.0030601	0.00086654	1297.9	3.2695e-05	3.4391e-05	971.49	353.08	3.329e-05	3.4507e-05	269.31	55.986	73.847	17.218	3.4025e-05	15.663	209.578	0.249	-4.005	-86.407	98.942	52.064	-87.488	-82.485	17.551	-57.250	-84.451	-80.296	-78.475	-73.559	37.110	-75.568	-8191	255	
15245.475	1	1	0	0	0.14694	0.17092	0.1572	0.22393	0.12378	0.1258	0.07824	0.13313	0.077904	0.22821	0.049579	0.29445	0.11439	0.22101	0.32943	0.21252	-2.4354	-3.1146	-2.6521	-3.225	-2.9333	-2.8375	-3.1771	-2.9437	-2.9729	-3.1	-2.9417	-3.1083	-2.9708	-2.8229	-3.0771	-3.0229	107.738	53.341	-38.693	155.275	201.494	91.325	136.896	202.868	136.381	94.974	-40.217	201.642	77.647	158.512	17.429	21.157	5.3695e-05	0.00099445	0.00010405	1313.8	1.1152e-06	6.1289e-06	974.48	354.87	1.9805e-06	6.9779e-06	265.75	52.858	71.015	16.222	2.0211e-06	14.062	0.0022913	0.003091	0.00088189	1299.9	3.3035e-05	3.4758e-05	973.17	352.9	3.2792e-05	3.4953e-05	269.86	56.171	73.699	17.261	3.3145e-05	15.668	253.304	-67.491	71.608	-86.634	-68.883	41.246	-87.202	-82.231	60.459	94.286	-84.498	-80.034	-78.670	-74.241	245.022	-75.849	-8191	255	
15245.571	1	1	0	0	0.098215	0.23375	0.060455	0.20622	0.23333	0.15213	0.21702	0.085449	0.12438	0.13443	0.23704	0.31054	0.20891	0.038404	0.11801	0.27868	-2.4313	-3.1188	-2.8312	-3.1521	-2.9479	-2.7583	-3.2	-3.0646	-2.8729	-3.2125	-2.7479	-3.0312	-3.0333	-2.8771	-3.1354	-2.925	64.512	30.798	195.162	209.639	78.384	58.978	162.685	-21.941	192.465	23.839	216.870	-82.633	207.206	232.077	154.627	169.667	7.561e-05	0.0010099	0.00014607	1316.9	2.068e-06	1.8806e-06	986.84	358.34	1.2972e-06	3.9645e-06	267.14	54.121	72.475	16.55	2.5748e-06	14.13	0.0022786	0.0031017	0.0008795	1303	3.3156e-05	3.5351e-05	982.16	356.2	3.3891e-05	3.6103e-05	273.38	57.517	75.234	17.61	3.5915e-05	15.933	205.176	-26.831	-30.521	-86.615	-74.374	137.989	-87.134	-82.505	-52.534	-72.168	-84.586	-80.186	-78.643	-73.814	-32.367	-76.088	-8191	255	
15245.667	1	1	0	0	0.30371	0.27566	0.11364	0.21182	0.091697	0.19597	0.20426	0.21019	0.21788	0.18174	0.21102	0.036119	0.2285	0.28361	0.23362	0.042977	-2.3479	-2.8333	-2.8021	-3.0104	-3.075	-2.8104	-3.1146	-3.0771	-2.9208	-3.1854	-2.9083	-3.1729	-3.1354	-2.8333	-3.2333	-3.1021	-78.862	-71.596	-55.800	-65.227	142.546	225.927	125.200	218.755	165.810	255.555	52.017	207.200	70.242	-86.684	28.204	90.423	4.1533e-06	0.00062834	0.00011766	1327.6	7.7379e-06	4.7092e-06	981.25	359.95	3.032e-06	9.474e-06	264.9	53.611	72.349	16.388	7.866e-06	14.058	0.0024386	0.0032924	0.00094236	1314.9	3.485e-05	3.7126e-05	982.74	359.26	3.5839e-05	3.812e-05	272.76	57.154	75.645	17.584	3.6472e-05	15.688	144.353	-14.261	-92.282	-86.524	238.260	-97.608	-87.373	-82.589	-0.172	67.085	-84.301	-80.317	-78.508	-73.826	110.189	-75.989	-8191	255	
15245.763	1	1	0	0	0.27797	0.12195	0.10845	0.092345	0.099258	0.11127	0.28745	0.13969	0.22064	0.14807	0.11537	0.279	0.11654	0.05695	0.14272	0.11614	-2.2458	-3.2146	-2.7354	-2.8521	-3.0708	-2.7875	-3.1458	-3.0875	-2.8937	-3.0812	-2.9313	-2.9688	-3.0958	-2.8104	-2.9479	-3.0083	111.216	-46.491	130.173	192.934	-40.352	207.668	188.312	230.556	-96.431	-33.125	124.133	74.844	-43.371	197.077	142.375	-37.183	8.1047e-05	0.00053916	9.4269e-05	1319.7	4.3896e-06	3.7705e-06	974.95	357.35	3.825e-07	4.6897e-06	263.64	52.969	71.631	16.371	4.5893e-06	14.15	0.00245	0.0033105	0.00092992	1303.9	3.4411e-05	3.7206e-05	973.3	355.82	3.6018e-05	3.8051e-05	270.8	56.557	75.108	17.59	3.8048e-05	15.924	156.816	147.219	101.557	-86.594	172.449	109.565	-87.160	-82.628	226.807	243.559	-84.645	-80.300	-78.763	-73.734	72.065	-76.055	-8191	255	
15245.882	1	1	0	0	0.25961	0.22782	0.27244	0.10351	0.037059	0.22673	0.12148	0.096541	0.18226	0.33951	0.15196	0.14435	0.10766	0.086326	0.15342	0.022559	-2.3875	-3.0687	-2.9292	-3.0896	-3.3146	-2.8167	-3.0917	-3.1396	-2.7479	-3.0521	-2.9813	-2.8271	-3.1229	-2.8417	-3.0312	-3.0687	72.766	-19.881	139.369	-18.454	79.006	69.486	258.801	41.448	12.355	-29.081	244.610	3.068	62.296	52.006	59.613	72.900	4.1835e-05	0.00076667	0.00013026	1318.2	3.2816e-06	3.642e-06	979.17	358.54	7.1437e-06	7.5344e-06	264.77	53.198	71.37	16.296	2.8735e-06	14.215	0.0026097	0.0035336	0.00099157	1307.7	3.727e-05	3.8934e-05	976.55	356.23	3.7717e-05	3.9698e-05	272.22	56.983	75.354	17.615	3.9622e-05	16.047	-32.262	41.552	-4.740	-86.542	-73.821	-57.460	-87.206	-82.454	57.754	161.286	-84.564	-80.481	-78.579	-73.206	95.116	-75.933	-8191	255	
15245.955	1	1	0	0	0.16366	0.16398	0.046208	0.1959	0.0089064	0.16636	0.03946	0.17269	0.13634	0.077501	0.22027	0.21476	0.13859	0.048646	0.20177	0.12946	-2.1708	-3.0792	-2.9729	-3.0417	-3.0458	-2.7938	-3.0917	-3.0896	-2.7896	-3	-2.9688	-2.8083	-3.3021	-2.6625	-2.8063	-2.9896	-26.347	-2.177	33.738	188.588	-19.351	71.167	165.360	161.455	176.292	152.047	215.838	199.540	216.029	-70.917	224.900	-91.239	1.3542e-05	0.00041704	6.3306e-05	1323.3	1.726e-06	9.7761e-06	977.7	357.94	5.8658e-06	4.6987e-06	264.37	53.228	71.724	16.355	3.1337e-06	13.912	0.0027809	0.0037956	0.0010577	1314.4	4.0662e-05	4.3105e-05	980.09	358.38	4.0597e-05	4.2253e-05	273.35	57.257	75.544	17.666	4.0549e-05	16.029	210.981	60.601	71.164	-86.515	134.980	74.858	-87.439	-82.525	23.150	55.125	-84.646	-80.395	-78.203	-73.393	24.361	-76.090	-8191	255	
15246.051	1	1	0	0	0.19819	0.10851	0.2054	0.082078	0.13165	0.19785	0.27503	0.30422	0.18748	0.11086	0.30237	0.24732	0.048258	0.092527	0.16866	0.11267	-2.1333	-2.9792	-2.9396	-2.9521	-3.1375	-2.8542	-2.85	-3.0792	-2.7	-3.1063	-3	-2.8521	-3.2438	-2.9354	-2.8833	-3.1146	100.829	-80.884	254.121	172.472	-10.451	-96.364	149.816	197.918	240.777	-39.107	184.989	169.756	199.074	-12.638	59.423	-72.988	2.2457e-05	0.00083878	0.00025565	1304.9	4.2826e-06	3.0175e-06	968	351.41	4.9389e-06	9.6102e-06	257.32	51.232	69.793	16.091	3.1972e-06	13.826	0.0027637	0.0037109	0.0010289	1299.3	3.8199e-05	3.9662e-05	962.92	349.4	3.6681e-05	3.7936e-05	264.64	55.193	73.057	17.176	3.6533e-05	15.58	184.571	10.777	-21.425	-86.367	67.220	133.239	-87.157	-82.615	178.164	44.443	-84.751	-80.286	-78.621	-73.136	3.182	-75.859	-8191	255	
15246.148	1	1	0	0	0.026641	0.21177	0.12336	0.22827	0.088882	0.22517	0.20733	0.060064	0.16224	0.29776	0.18779	0.046104	0.18075	0.14996	0.30801	0.15816	-2.3875	-2.9729	-3.1813	-2.8479	-3.05	-2.9875	-2.8438	-3.3125	-2.8771	-2.7729	-3.0792	-2.9042	-3.125	-2.9458	-2.8583	-3.175	221.823	-51.750	251.406	233.035	-21.598	176.046	179.791	175.941	93.336	-77.544	231.000	167.169	-19.182	36.260	173.997	159.595	1.4047e-05	0.00034497	0.00013636	1298.4	1.4575e-06	1.0294e-05	963.05	352.28	6.1265e-06	1.1556e-05	259.01	51.868	70.51	16.053	2.7159e-06	13.766	0.0025157	0.0033685	0.00095341	1289	3.6885e-05	3.844e-05	961.11	350.63	3.7559e-05	3.891e-05	266.64	55.758	73.726	17.237	3.7789e-05	15.702	-53.064	105.329	139.462	-86.591	236.050	15.159	-87.451	-82.576	36.001	-15.493	-84.737	-80.102	-78.578	-73.292	84.783	-75.574	-8191	255	
15246.267	1	1	0	0	0.1151	0.066736	0.40712	0.16479	0.16499	0.18435	0.20839	0.071071	0.16049	0.092962	0.36295	0.15216	0.17496	0.092274	0.046841	0.069135	-2.4	-2.9979	-3.0396	-2.8667	-3.1312	-2.8438	-2.975	-3.1292	-2.8229	-2.9917	-3.0083	-2.9313	-3.2313	-2.8688	-2.8229	-3.1646	-65.674	197.327	231.563	189.133	-33.725	136.950	180.817	208.300	176.125	-23.266	179.747	15.963	-37.706	-39.764	68.295	-33.195	7.4526e-05	0.00051653	0.00018321	1301.9	4.6028e-06	8.6089e-06	971.61	352.85	3.6525e-06	5.3543e-06	261.76	52.206	71.234	16.166	1.6723e-06	13.959	0.0026074	0.0035001	0.0009782	1296.5	3.715e-05	3.8314e-05	967.09	352.06	3.5653e-05	3.6565e-05	267.91	55.747	73.893	17.151	3.5023e-05	15.511	228.989	6.383	-47.276	-86.726	111.190	96.528	-87.370	-82.501	-8.112	-79.335	-84.655	-80.542	-78.370	-73.603	64.709	-75.799	-8191	255	
15246.363	1	1	0	0	0.029083	0.13572	0.0071115	0.1968	0.024227	0.15106	0.11856	0.29754	0.19395	0.12486	0.069122	0.14303	0.10691	0.075189	0.10705	0.10222	-2.2562	-2.9354	-3.0021	-2.975	-2.9396	-2.9792	-2.925	-3.1688	-2.875	-2.7708	-3.175	-2.7479	-3.175	-3.0104	-2.7812	-3.1146	79.454	-41.126	-26.354	172.371	132.972	206.118	-26.156	213.532	229.616	214.249	148.627	68.547	204.924	214.127	-39.157	-5.815	8.3958e-05	0.00032436	0.00019553	1316.6	2.2904e-06	4.3791e-06	980.72	356.84	5.8588e-06	1.6862e-06	263.61	52.964	71.188	16.253	4.2236e-06	14.083	0.0023793	0.0031824	0.00090582	1301.7	3.4051e-05	3.5709e-05	975.28	354.11	3.4044e-05	3.522e-05	270.12	56.406	74.328	17.26	3.5687e-05	15.724	256.582	-7.096	16.052	-86.782	-61.333	13.473	-87.335	-82.509	29.374	50.601	-84.660	-80.432	-78.649	-73.520	117.346	-75.940	-8191	255	
15246.459	1	1	0	0	0.16097	0.23244	0.22915	0.33901	0.29871	0.18197	0.24767	0.047238	0.086325	0.23196	0.10508	0.24019	0.24308	0.10583	0.30581	0.1096	-2.3667	-2.8375	-3.0896	-2.9979	-3.0083	-3.0458	-2.9646	-3.1646	-2.7792	-2.7521	-3.0208	-2.7687	-2.8792	-2.9979	-2.8104	-3.0667	-84.389	19.405	161.558	247.206	58.114	0.412	215.415	117.635	81.362	110.111	243.867	250.057	36.789	243.717	47.424	78.924	8.3778e-05	0.00051273	0.00014777	1322.2	4.8693e-06	1.2504e-05	973.67	355.3	4.2664e-06	1.3102e-05	260.33	52.324	71.027	16.176	4.058e-06	13.919	0.0024459	0.0033231	0.00095144	1307	3.6225e-05	3.8265e-05	970.28	354.96	3.5984e-05	3.8112e-05	268.52	55.86	74.224	17.367	3.6874e-05	15.596	255.438	-23.571	57.155	-86.667	116.548	155.685	-87.156	-82.530	-24.098	91.803	-84.817	-79.811	-78.374	-73.521	122.875	-75.840	-8191	255	
15246.579	1	1	0	0	0.073355	0.16037	0.14111	0.3169	0.36717	0.2229	0.098185	0.15953	0.092753	0.24963	0.17628	0.19493	0.27271	0.35152	0.31456	0.18161	-2.4917	-2.7125	-2.9542	-2.9313	-3.0208	-3.0542	-2.8667	-3.1458	-2.7896	-2.8542	-3.1479	-2.8417	-3.0729	-3	-2.7896	-3.1229	164.370	165.904	72.662	208.016	91.109	168.177	148.615	158.627	76.158	-38.970	190.310	221.273	-92.621	127.762	162.582	92.387	4.3297e-05	0.00050809	5.0593e-05	1307.5	1.8501e-06	5.2211e-06	968.25	355.63	3.4633e-06	6.1589e-06	263.59	52.639	71.579	16.413	1.9272e-06	13.914	0.0024648	0.0033625	0.00094733	1298.9	3.5357e-05	3.7067e-05	966.44	353.98	3.4879e-05	3.6672e-05	269.66	56.141	74.89	17.452	3.7029e-05	15.729	145.454	0.626	132.352	-86.667	223.714	38.219	-87.274	-82.536	46.584	58.124	-84.583	-80.243	-78.783	-74.046	223.173	-75.613	-8191	255	
15246.651	1	1	0	0	0.21347	0.075957	0.21842	0.040407	0.11636	0.30426	0.33576	0.097066	0.18971	0.18091	0.26258	0.25521	0.15854	0.055695	0.19625	0.1457	-2.4771	-2.7333	-2.8771	-3.0542	-2.9458	-3.15	-2.9521	-3.3312	-3.0375	-2.8292	-3.1375	-2.8146	-3.0125	-3.1604	-2.8333	-2.9542	242.216	-88.412	-79.747	63.414	-68.588	92.732	175.821	-36.993	-76.112	161.006	226.763	-88.935	-70.754	31.080	139.286	188.965	1.1746e-05	0.0011201	0.00015617	1323.2	8.0191e-07	3.9655e-06	981.48	361.56	1.8578e-06	7.9375e-06	267.04	53.529	73.222	16.518	2.9768e-06	14	0.0025027	0.0034081	0.00096373	1311.8	3.6224e-05	3.8242e-05	979.26	360.65	3.5801e-05	3.7931e-05	274.03	57.146	76.185	17.668	3.6443e-05	15.766	221.740	60.236	219.279	-86.273	82.808	116.536	-86.920	-82.419	162.383	22.440	-84.364	-80.329	-78.234	-73.593	-18.143	-75.239	-8191	255	
15246.747	1	1	0	0	0.050115	0.1183	0.1392	0.16683	0.15037	0.049302	0.18082	0.25349	0.22361	0.069019	0.11604	0.069701	0.32776	0.10244	0.34871	0.18661	-2.4667	-2.925	-2.8354	-2.8229	-2.8375	-3.0938	-2.9896	-2.9688	-3.0396	-2.5792	-3.2542	-3.0104	-2.7708	-2.9688	-2.7521	-3.0167	-65.476	174.943	257.547	234.813	257.069	-51.859	204.230	223.151	-90.540	155.743	236.030	239.068	195.621	151.070	23.332	157.380	1.4389e-05	0.00038662	0.00017215	1323.9	4.4188e-06	6.4053e-06	982.37	361.05	4.0546e-06	3.802e-06	265.3	53.11	71.997	16.448	4.6889e-06	14.077	0.0024336	0.0033065	0.00092972	1313.7	3.5516e-05	3.777e-05	980.68	359.86	3.5152e-05	3.7564e-05	272.8	56.93	75.254	17.46	3.5459e-05	15.749	133.029	15.545	-0.606	-86.572	202.253	59.928	-87.341	-82.495	-76.052	22.594	-84.676	-80.261	-78.356	-73.522	29.413	-75.590	-8191	255	
15246.868	1	1	0	0	0.2367	0.14879	0.281	0.13741	0.10323	0.075822	0.2137	0.17336	0.16224	0.15741	0.17776	0.18239	0.20246	0.42174	0.17483	0.14086	-2.7021	-2.7646	-2.8354	-2.9729	-2.8542	-3.0708	-2.9521	-3.0229	-2.9437	-2.7125	-3.0167	-3.0542	-2.7271	-3.1042	-2.8292	-2.775	123.151	255.454	-2.421	220.078	129.296	15.888	154.008	192.570	-0.118	182.870	-7.641	94.799	171.407	216.193	8.651	-99.843	3.905e-05	0.00025039	3.8722e-05	1316.5	4.373e-06	7.3459e-06	974.94	356.03	8.375e-07	6.1787e-06	261.35	51.931	71.266	16.377	6.1013e-06	14.126	0.0023853	0.0032429	0.00089334	1303.7	3.4218e-05	3.6067e-05	967.36	355.02	3.4757e-05	3.7033e-05	267.3	55.654	74.259	17.356	3.5634e-05	15.671	-71.334	-54.155	149.953	-86.715	83.707	48.580	-87.566	-82.476	22.133	49.032	-84.694	-80.303	-78.560	-74.225	59.093	-75.829	-8191	255	
15246.964	1	1	0	0	0.17185	0.11551	0.12834	0.24211	0.20591	0.13595	0.21561	0.24437	0.10628	0.13076	0.18047	0.40372	0.16242	0.079247	0.14563	0.13532	-2.5792	-2.6375	-3.0062	-3.1729	-2.6208	-3.0812	-2.9813	-2.9167	-3.3083	-2.8479	-2.8958	-3.0167	-2.7542	-2.9354	-2.7417	-2.7208	49.825	238.662	122.214	-22.730	64.242	5.583	146.682	245.771	-0.821	192.862	208.988	200.553	234.975	229.416	190.844	183.376	4.255e-05	0.00076273	0.00016593	1311.4	2.251e-06	1.9913e-06	964.76	354.58	4.813e-06	8.1432e-06	260.63	52.072	70.593	16.141	4.4346e-06	14.031	0.0024221	0.0033101	0.0009105	1296.4	3.4742e-05	3.6735e-05	964.13	353.05	3.517e-05	3.7046e-05	266.45	55.62	73.713	17.252	3.574e-05	15.76	133.394	-24.824	-61.294	-86.758	18.052	55.363	-87.176	-82.353	-27.593	27.377	-84.490	-79.942	-78.429	-73.185	-28.426	-75.568	-8191	255	
15247.060	1	1	0	0	0.12731	0.17285	0.15434	0.2113	0.050519	0.13892	0.13587	0.12072	0.17925	0.21756	0.4473	0.22041	0.16967	0.19749	0.089494	0.038811	-2.5563	-2.7	-2.8958	-3.1104	-2.7958	-3.0708	-2.9833	-2.9917	-3.1437	-2.7271	-3.0979	-3.0833	-2.6937	-3.0854	-2.9208	-2.7521	-83.836	73.693	121.736	203.301	162.910	132.323	257.695	151.670	170.779	256.712	-96.139	-92.787	-63.627	226.711	167.569	79.521	8.4157e-05	0.00071369	0.00015738	1306	1.0389e-05	1.9611e-06	962.91	351.24	5.3917e-06	6.6475e-06	257.74	51.248	69.387	15.934	7.7482e-06	13.943	0.0024392	0.0033429	0.00092758	1292.3	3.6203e-05	3.7638e-05	960.6	349.43	3.6215e-05	3.81e-05	265.09	55.192	72.614	16.992	3.5172e-05	15.654	230.346	5.922	-51.003	-86.301	71.776	44.637	-87.044	-82.509	143.405	41.810	-84.769	-80.406	-78.631	-73.691	114.243	-76.411	-8191	255	
15247.179	1	1	0	0	0.14424	0.3179	0.27051	0.33432	0.12673	0.27075	0.29813	0.27304	0.10021	0.061685	0.071758	0.28759	0.12284	0.27645	0.21216	0.15359	-2.5979	-2.7521	-2.7542	-3.1646	-2.5979	-2.9667	-3.0229	-2.8833	-3.0833	-2.7333	-2.9771	-3.1229	-2.8208	-3.0917	-3.1208	-2.7021	229.505	192.970	39.466	-73.330	259.140	176.651	188.062	-84.175	30.956	176.441	178.819	-96.816	94.033	233.425	-4.254	92.441	5.7107e-05	0.00018632	0.00014191	1292.9	8.2175e-06	7.4621e-06	957.79	348.96	2.2251e-06	1.2473e-05	258.46	52.085	69.619	15.99	3.1023e-07	14.009	0.0024005	0.0032434	0.00089772	1280.7	3.5002e-05	3.68e-05	956.63	346.36	3.458e-05	3.6241e-05	264.47	55.45	72.711	17.05	3.5099e-05	15.725	-88.289	-12.883	-92.150	-86.640	142.874	-26.652	-87.211	-82.489	207.047	82.529	-84.704	-80.379	-78.578	-73.701	-47.692	-76.052	-8191	255	
15247.251	1	1	0	0	0.13864	0.37132	0.055547	0.38944	0.19879	0.10403	0.19428	0.31553	0.14888	0.18173	0.093181	0.053128	0.16389	0.1866	0.25348	0.11694	-2.7313	-2.7375	-2.8312	-3.2021	-2.7646	-2.8104	-3.1854	-2.9875	-2.925	-2.7667	-2.8708	-2.9708	-2.625	-2.9188	-3.0062	-2.7375	206.127	73.328	218.526	-36.976	94.613	128.461	-97.082	212.470	-3.872	69.478	-2.825	66.264	126.258	153.676	221.531	-76.990	7.112e-05	0.00043549	0.00013472	1301.3	5.2258e-06	1.4398e-06	961.42	347.74	5.3919e-06	6.3546e-06	255	51.204	69.632	15.975	4.9597e-06	13.933	0.002403	0.0032295	0.00091029	1285.5	3.4518e-05	3.5638e-05	955.78	347.21	3.4418e-05	3.6126e-05	263.28	54.97	72.84	17.138	3.6101e-05	15.684	241.339	211.434	78.186	-86.377	117.726	43.016	-87.395	-82.627	12.519	68.262	-84.582	-80.171	-78.393	-73.505	138.122	-75.654	-8191	255	
15247.347	1	1	0	0	0.056846	0.13611	0.26709	0.30842	0.042325	0.26426	0.16577	0.029096	0.13405	0.10999	0.38008	0.19773	0.3144	0.085397	0.15881	0.16035	-2.6458	-2.7792	-2.6688	-3.2562	-2.6854	-2.9125	-3.0542	-2.8583	-3.1	-2.9542	-2.6792	-2.9917	-3.0312	-2.9208	-2.9562	-2.7458	16.459	133.334	50.351	138.565	174.796	-12.165	181.476	-0.339	13.511	253.527	203.142	192.581	-1.069	162.215	-30.632	-36.454	0.00013728	0.00028266	9.6076e-05	1302.5	5.7042e-06	7.4539e-06	961.49	349.85	8.4352e-06	4.1969e-06	258.65	51.164	69.149	16.072	3.7655e-06	14.176	0.0024732	0.0033394	0.00092889	1288.4	3.5803e-05	3.6989e-05	956.27	347.98	3.5014e-05	3.6035e-05	263.73	54.96	72.592	17.134	3.5036e-05	15.722	228.988	43.612	-3.016	-86.580	168.914	118.726	-87.435	-82.490	48.559	128.080	-84.747	-80.256	-78.550	-73.773	80.170	-75.853	-8191	255	
15247.443	1	1	0	0	0.089189	0.20842	0.25805	0.36807	0.23608	0.058355	0.13222	0.14487	0.080567	0.26211	0.12511	0.22924	0.17209	0.21843	0.17529	0.12203	-2.6229	-2.7208	-2.7104	-3.1271	-2.7521	-2.8667	-3.0917	-2.9104	-3.0187	-2.8812	-2.75	-2.9792	-2.8125	-2.7479	-3.0396	-2.7396	188.543	-19.548	-26.592	144.540	196.512	-56.591	128.598	242.485	-39.003	104.044	-41.857	182.592	235.827	-51.580	73.948	-1.206	7.7693e-05	0.00065881	0.00025807	1295.6	4.8585e-06	4.7837e-06	961.02	346.42	1.6183e-06	1.5192e-06	256.17	51.892	69.828	15.983	2.399e-06	14.307	0.0024036	0.0031887	0.00091531	1280.2	3.4492e-05	3.5501e-05	956.93	344.99	3.3538e-05	3.4552e-05	262.03	54.875	72.112	17.058	3.3937e-05	15.824	228.433	-30.681	35.966	-86.475	123.385	48.530	-87.244	-82.468	211.518	221.938	-84.565	-80.650	-78.438	-73.394	-71.570	-75.450	-8191	255	
15247.564	1	1	0	0	0.13443	0.27664	0.20335	0.22781	0.14372	0.16326	0.20308	0.16107	0.12948	0.31405	0.073195	0.20518	0.12731	0.1165	0.16527	0.072952	-2.5	-2.8958	-2.8958	-3.1667	-2.9208	-2.8604	-3.0833	-2.9729	-3.0187	-3.0354	-2.7083	-2.9938	-2.8896	-2.7729	-2.9979	-2.7625	-84.403	46.608	-34.628	-43.644	209.259	88.969	200.308	203.411	-69.202	-98.205	245.179	-56.648	115.655	203.176	170.061	15.614	5.7419e-05	0.00052347	0.00022431	1302.5	3.9773e-06	4.7154e-06	963.37	349.99	5.6917e-06	3.9904e-06	257.89	51.918	70.319	16.161	7.3671e-06	14.13	0.0023367	0.0031927	0.00091127	1286.4	3.4184e-05	3.627e-05	962.94	348.25	3.3929e-05	3.6234e-05	265.08	55.733	72.988	17.209	3.556e-05	15.887	218.493	-43.027	43.194	-86.571	-16.827	7.910	-87.417	-82.424	32.591	253.716	-84.299	-80.371	-77.805	-73.183	77.418	-75.881	-8191	255	
15247.660	1	1	0	0	0.12603	0.14827	0.11503	0.22659	0.23288	0.067616	0.37573	0.15471	0.20813	0.27476	0.12421	0.046558	0.13535	0.2582	0.18565	0.063524	-2.4979	-2.8958	-2.5042	-3.1667	-2.7979	-2.9062	-3.1146	-2.9479	-2.9813	-2.9813	-2.7792	-3.0208	-2.9729	-3	-2.9271	-2.8063	-97.735	-53.207	175.014	-75.140	195.462	-1.848	-56.618	196.639	207.731	110.615	58.778	152.082	120.342	-96.219	176.405	56.574	4.4631e-05	0.00030966	0.00010388	1299.5	2.9442e-06	8.7017e-06	956.74	347.41	6.1059e-06	1.3546e-06	255.17	50.873	69.101	15.915	3.7972e-06	14.095	0.0024166	0.0032893	0.00093202	1287.9	3.4557e-05	3.6574e-05	953.74	346.32	3.4048e-05	3.5831e-05	261.21	54.273	71.95	16.919	3.4084e-05	15.557	8.865	49.995	-23.546	-86.591	176.942	68.725	-87.314	-82.332	21.736	139.023	-84.999	-80.105	-78.456	-73.777	75.532	-75.771	-8191	255	
#DATA ENDS
