BOXY.EXE: ISS Imagent and Oximeter Data Acquisition Program Version 0.80
Ascii Record File

#ACQ INFORMATION
2  Detector Channels 
16  External MUX Channels 
1  Auxiliary Channels 
5000  Waveform (CCF) Frequency (Hz)
1  Waveforms Skipped 
30  Waveforms Averaged 
1  Cycles Averaged 
16  Acquisitions per Waveform 
10.0806  Updata Rate (Hz) 

#FILE INFORMATION
TRUE -- External MUX Channel results are PARSED.
FALSE -- AC DC and Phase are NOT grouped.
TRUE -- Companion Program Settings File CREATED.
FALSE -- AC data not excluded
FALSE -- DC data not excluded
FALSE -- Phase data not excluded
FALSE -- Auxillary Chn. data not excluded
Tab delimiters

#CALIBRATION STATE
TRUE -- Waveform Calibration Values APPLIED.


#AUX CALIBRATION VALUES
Val Type	aux-1	

Term	1.0000e+00	
Factor	0.0000e+00	


#WF CALIBRATION VALUES
A = Detector Channel
Val Type	A-AC1	A-AC2	A-AC3	A-AC4	A-AC5	A-AC6	A-AC7	A-AC8	A-AC9	A-AC10	A-AC11	A-AC12	A-AC13	A-AC14	A-AC15	A-AC16	A-DC1	A-DC2	A-DC3	A-DC4	A-DC5	A-DC6	A-DC7	A-DC8	A-DC9	A-DC10	A-DC11	A-DC12	A-DC13	A-DC14	A-DC15	A-DC16	A-Ph1	A-Ph2	A-Ph3	A-Ph4	A-Ph5	A-Ph6	A-Ph7	A-Ph8	A-Ph9	A-Ph10	A-Ph11	A-Ph12	A-Ph13	A-Ph14	A-Ph15	A-Ph16	

Term	0.00000e+00	0.00000e+00	0.00000e+00	0.00000e+00	0.00000e+00	0.00000e+00	0.00000e+00	0.00000e+00	0.00000e+00	0.00000e+00	0.00000e+00	0.00000e+00	0.00000e+00	0.00000e+00	0.00000e+00	0.00000e+00	0.00000e+00	0.00000e+00	0.00000e+00	0.00000e+00	0.00000e+00	0.00000e+00	0.00000e+00	0.00000e+00	0.00000e+00	0.00000e+00	0.00000e+00	0.00000e+00	0.00000e+00	0.00000e+00	0.00000e+00	0.00000e+00	0.00000e+00	0.00000e+00	0.00000e+00	0.00000e+00	0.00000e+00	0.00000e+00	0.00000e+00	0.00000e+00	0.00000e+00	0.00000e+00	0.00000e+00	0.00000e+00	0.00000e+00	0.00000e+00	0.00000e+00	0.00000e+00	
Factor	1.00000e+00	1.00000e+00	1.00000e+00	1.00000e+00	1.00000e+00	1.00000e+00	1.00000e+00	1.00000e+00	1.00000e+00	1.00000e+00	1.00000e+00	1.00000e+00	1.00000e+00	1.00000e+00	1.00000e+00	1.00000e+00	1.00000e+00	1.00000e+00	1.00000e+00	1.00000e+00	1.00000e+00	1.00000e+00	1.00000e+00	1.00000e+00	1.00000e+00	1.00000e+00	1.00000e+00	1.00000e+00	1.00000e+00	1.00000e+00	1.00000e+00	1.00000e+00	X	X	X	X	X	X	X	X	X	X	X	X	X	X	X	X	

B = Detector Channel
Val Type	B-AC1	B-AC2	B-AC3	B-AC4	B-AC5	B-AC6	B-AC7	B-AC8	B-AC9	B-AC10	B-AC11	B-AC12	B-AC13	B-AC14	B-AC15	B-AC16	B-DC1	B-DC2	B-DC3	B-DC4	B-DC5	B-DC6	B-DC7	B-DC8	B-DC9	B-DC10	B-DC11	B-DC12	B-DC13	B-DC14	B-DC15	B-DC16	B-Ph1	B-Ph2	B-Ph3	B-Ph4	B-Ph5	B-Ph6	B-Ph7	B-Ph8	B-Ph9	B-Ph10	B-Ph11	B-Ph12	B-Ph13	B-Ph14	B-Ph15	B-Ph16	

Term	0.00000e+00	0.00000e+00	0.00000e+00	0.00000e+00	0.00000e+00	0.00000e+00	0.00000e+00	0.00000e+00	0.00000e+00	0.00000e+00	0.00000e+00	0.00000e+00	0.00000e+00	0.00000e+00	0.00000e+00	0.00000e+00	0.00000e+00	0.00000e+00	0.00000e+00	0.00000e+00	0.00000e+00	0.00000e+00	0.00000e+00	0.00000e+00	0.00000e+00	0.00000e+00	0.00000e+00	0.00000e+00	0.00000e+00	0.00000e+00	0.00000e+00	0.00000e+00	3.11442e+01	-1.32585e+02	-1.25137e+02	-1.82803e+02	-6.99753e+01	-6.57492e+01	-1.55363e+02	-1.62015e+02	-5.19944e+01	-6.84061e+01	-1.72002e+02	-1.69539e+02	-1.79829e+02	-1.77289e+02	-5.95372e+01	-1.49288e+02	
Factor	4.46143e-05	1.55393e-04	3.79425e-05	1.69166e-01	1.65811e-06	1.54395e-06	1.50608e-01	4.38241e-02	2.52180e-06	1.64082e-06	8.20883e-02	2.44333e-02	2.46613e-02	7.74829e-03	1.75397e-06	1.09675e-02	1.31998e-05	1.98917e-05	5.63019e-06	8.76786e-02	2.03302e-07	2.24248e-07	7.35378e-02	2.28266e-02	1.97474e-07	2.25893e-07	4.16175e-02	1.24053e-02	1.29592e-02	4.07900e-03	2.08931e-07	5.61216e-03	X	X	X	X	X	X	X	X	X	X	X	X	X	X	X	X	



#DISTANCE SETTINGS
A = Detector Channel
A-1	A-2	A-3	A-4	A-5	A-6	A-7	A-8	A-9	A-10	A-11	A-12	A-13	A-14	A-15	A-16	

2.5000e+00	3.0000e+00	2.5000e+00	3.0000e+00	2.0000e+00	3.0000e+00	1.5000e+00	3.0000e+00	3.0000e+00	3.0000e+00	3.0000e+00	3.0000e+00	3.0000e+00	3.0000e+00	1.5000e+00	3.0000e+00	

B = Detector Channel
B-1	B-2	B-3	B-4	B-5	B-6	B-7	B-8	B-9	B-10	B-11	B-12	B-13	B-14	B-15	B-16	

1.0000e+01	1.0000e+01	1.0000e+01	1.4400e+00	1.0000e+01	1.0000e+01	1.5100e+00	1.9400e+00	1.0000e+01	1.0000e+01	1.9900e+00	2.4900e+00	2.4100e+00	2.9000e+00	1.0000e+01	2.9800e+00	




#DATA BEGINS
time	group	step	mark	flag	A-AC1	A-AC2	A-AC3	A-AC4	A-AC5	A-AC6	A-AC7	A-AC8	A-AC9	A-AC10	A-AC11	A-AC12	A-AC13	A-AC14	A-AC15	A-AC16	A-DC1	A-DC2	A-DC3	A-DC4	A-DC5	A-DC6	A-DC7	A-DC8	A-DC9	A-DC10	A-DC11	A-DC12	A-DC13	A-DC14	A-DC15	A-DC16	A-Ph1	A-Ph2	A-Ph3	A-Ph4	A-Ph5	A-Ph6	A-Ph7	A-Ph8	A-Ph9	A-Ph10	A-Ph11	A-Ph12	A-Ph13	A-Ph14	A-Ph15	A-Ph16	B-AC1	B-AC2	B-AC3	B-AC4	B-AC5	B-AC6	B-AC7	B-AC8	B-AC9	B-AC10	B-AC11	B-AC12	B-AC13	B-AC14	B-AC15	B-AC16	B-DC1	B-DC2	B-DC3	B-DC4	B-DC5	B-DC6	B-DC7	B-DC8	B-DC9	B-DC10	B-DC11	B-DC12	B-DC13	B-DC14	B-DC15	B-DC16	B-Ph1	B-Ph2	B-Ph3	B-Ph4	B-Ph5	B-Ph6	B-Ph7	B-Ph8	B-Ph9	B-Ph10	B-Ph11	B-Ph12	B-Ph13	B-Ph14	B-Ph15	B-Ph16	aux-1	digaux	

18387.473	1	1	0	256	0.14483	0.21235	0.10303	0.19694	0.18715	0.13074	0.27521	0.12214	0.18673	0.16176	0.18137	0.2741	0.30661	0.18616	0.13867	0.11309	-2.4562	-3.0354	-2.9917	-2.7396	-3.1917	-2.9146	-3.0604	-3.0625	-2.875	-3.075	-3.0875	-2.8667	-2.9667	-2.7646	-2.9688	-3.2583	436.680	233.764	421.166	384.607	194.860	227.668	440.465	477.282	298.859	496.765	503.269	439.925	183.594	186.094	281.542	190.273	0.001166	0.00062502	0.00010792	996.68	1.1647e-05	1.5639e-06	1282.8	289.73	6.496e-06	2.5555e-06	394.64	124.77	84.422	24.309	1.3965e-05	38.642	0.001137	0.0018066	0.00039759	801.54	1.4685e-05	1.5635e-05	1033.2	233.92	1.4719e-05	1.5484e-05	321.53	100.91	68.519	19.971	1.5062e-05	31.881	355.728	237.878	261.078	179.184	287.119	216.820	178.049	184.045	358.009	402.796	182.185	186.092	188.713	193.808	333.860	190.541	-8191	255	
18387.592	1	1	0	0	0.19365	0.039616	0.26984	0.11134	0.14483	0.064252	0.21252	0.16866	0.16222	0.039306	0.0933	0.099254	0.23784	0.074767	0.29479	0.1989	-2.3833	-2.9688	-2.9375	-2.8021	-3.2083	-2.8771	-3.1437	-3.2542	-2.8396	-3.1229	-3.3417	-2.9062	-2.9562	-3.2313	-2.9604	-3.1583	285.957	464.862	210.193	485.883	344.934	513.197	354.884	479.631	392.753	450.426	236.058	483.933	425.240	423.966	467.897	436.667	0.0011514	0.00020673	0.00011626	995.06	9.0174e-06	1.108e-05	1280.8	290.64	1.4164e-05	7.3815e-06	399.5	125.61	85.253	24.413	1.1056e-05	39.265	0.0011237	0.0019956	0.00040309	800.96	1.485e-05	1.6417e-05	1031.3	234.64	1.4732e-05	1.6113e-05	321.7	101.21	69.182	19.992	1.4966e-05	32.044	354.986	288.590	371.126	179.242	341.413	271.615	178.240	183.935	271.271	302.387	181.963	186.843	189.127	193.627	314.099	190.691	-8191	255	
18387.688	1	1	0	0	0.13267	0.20471	0.34616	0.07988	0.20084	0.19343	0.21541	0.1181	0.030516	0.040055	0.05842	0.44618	0.23096	0.15502	0.12955	0.041815	-2.3167	-2.7792	-3.0521	-2.8271	-3.0312	-3.1167	-2.9542	-3.1937	-2.8229	-2.9562	-3.1229	-2.8083	-3.1312	-3.0729	-2.6417	-3.1354	463.165	231.131	468.027	454.360	327.689	171.111	442.988	225.743	349.325	184.700	235.256	507.549	252.501	410.469	435.633	279.256	0.0011076	0.00041127	0.00014079	1002.4	1.2396e-05	4.7541e-06	1289	289.67	1.4223e-05	8.3638e-06	396.29	125.25	86.312	24.074	4.2027e-06	39.491	0.0011393	0.0018089	0.00038672	804.02	1.5218e-05	1.5639e-05	1039.7	234.18	1.4732e-05	1.5989e-05	321.2	101.27	69.582	19.9	1.417e-05	32.046	371.045	194.508	290.740	179.271	299.514	186.732	177.968	184.564	271.741	353.054	182.050	186.649	188.600	194.126	233.891	190.546	-8191	255	
18387.783	1	1	0	0	0.13229	0.40247	0.17408	0.12769	0.11584	0.096724	0.28416	0.194	0.17745	0.021224	0.29962	0.13927	0.064083	0.19613	0.16462	0.051431	-2.5938	-2.9625	-2.9833	-2.7854	-3.0104	-2.9896	-2.9062	-3.1083	-2.8688	-2.9333	-2.875	-2.8729	-2.9625	-3.0583	-2.7104	-3.1021	373.238	350.677	266.009	517.157	197.167	430.982	455.662	502.549	341.580	328.144	189.469	440.774	191.159	505.245	177.289	217.741	0.00096729	0.00062766	0.00018288	1001	4.8853e-06	3.4434e-06	1284.6	291.57	1.0906e-05	2.9296e-06	394.41	124.38	85.938	24.181	6.3436e-06	39.509	0.0011042	0.001927	0.00038152	803.59	1.4464e-05	1.57e-05	1031.8	235.35	1.4221e-05	1.5156e-05	321.46	100.76	69.511	19.965	1.3964e-05	31.949	365.120	243.569	317.135	179.398	227.023	326.841	178.258	184.716	286.179	368.103	181.996	186.804	188.731	194.058	348.779	190.364	-8191	255	
18387.904	1	1	0	0	0.037186	0.085136	0.18765	0.091311	0.2019	0.13344	0.56161	0.045716	0.16037	0.042679	0.33003	0.15364	0.070513	0.13592	0.27449	0.23462	-2.45	-3.0667	-2.9313	-2.7979	-3.0792	-3.1063	-2.9771	-2.9833	-3.1271	-2.9	-3.1417	-2.8875	-2.8937	-3.0667	-2.8271	-3.1083	486.027	183.240	306.153	477.420	426.614	341.347	466.004	418.746	268.633	455.006	470.023	478.566	485.624	470.634	269.234	473.268	0.0012168	0.0013387	0.00015715	1008.5	3.4577e-06	1.0451e-05	1282.8	294.23	1.4656e-05	9.412e-07	396.33	124.73	85.247	24.995	6.676e-06	38.74	0.0011014	0.0017893	0.00037628	805.59	1.3917e-05	1.4263e-05	1031.2	236.84	1.3771e-05	1.5112e-05	320.78	100.88	69.25	20.164	1.5311e-05	31.933	364.120	270.686	223.843	180.002	500.073	269.161	178.292	184.015	256.818	370.953	181.894	186.572	189.030	193.494	228.383	190.594	-8191	255	
18387.975	1	1	0	0	0.081026	0.16181	0.19241	0.18096	0.24027	0.23614	0.11235	0.059656	0.10725	0.18664	0.20604	0.27144	0.046574	0.12216	0.26119	0.10117	-2.4396	-2.7146	-3.1042	-3.1271	-3	-3.1312	-3.0042	-3.0708	-2.9771	-2.6917	-3.2687	-3.2646	-2.925	-3.0812	-2.7542	-2.9854	384.018	516.078	182.835	436.333	510.139	244.945	478.536	242.846	498.124	392.327	479.235	485.826	335.700	325.455	342.896	376.205	0.0010945	0.00024699	7.9564e-05	1012.5	7.7722e-06	2.9456e-06	1300.5	295.88	1.5646e-05	5.6744e-06	403.03	126.18	87.084	24.517	8.7406e-06	39.849	0.0011236	0.0018688	0.00037653	810.58	1.4393e-05	1.5455e-05	1043.8	238.68	1.4458e-05	1.5254e-05	325.37	102.51	70.591	20.253	1.4538e-05	32.509	357.380	362.312	272.095	179.895	306.963	353.276	178.109	184.985	290.120	268.874	182.093	186.614	189.223	193.832	317.524	190.767	-8191	255	
18388.072	1	1	0	0	0.026675	0.13921	0.11943	0.14772	0.1141	0.16581	0.27034	0.32695	0.29922	0.25807	0.17409	0.099993	0.19299	0.30429	0.27003	0.37787	-2.6146	-2.8375	-3.05	-2.9375	-2.9938	-3.2938	-3.1229	-3.2354	-3.0125	-2.7542	-3.2146	-3.1021	-2.925	-3.2375	-2.8396	-3.0854	318.033	300.412	443.994	400.938	440.089	224.028	465.826	483.480	414.795	289.000	460.410	406.424	504.275	520.067	217.384	477.996	0.0011472	0.0011479	0.00011852	1017.9	4.4827e-06	4.9611e-06	1315.8	298.59	1.1809e-05	1.4437e-06	404.7	128.03	87.705	24.915	1.0082e-05	39.8	0.0011253	0.0016321	0.00045128	820.87	1.579e-05	1.6348e-05	1055.9	241.07	1.5052e-05	1.5968e-05	328	103.33	70.996	20.416	1.5107e-05	32.592	368.462	301.295	481.005	180.039	226.917	360.073	178.414	184.331	232.976	176.022	182.004	186.417	188.800	194.607	326.640	190.415	-8191	255	
18388.191	1	1	0	0	0.18892	0.20374	0.26912	0.22226	0.090805	0.13997	0.59236	0.20526	0.16938	0.21265	0.13545	0.084636	0.10824	0.065408	0.14907	0.18646	-2.5354	-2.7292	-3.1188	-2.9313	-2.8833	-3.1375	-3.0208	-3.1042	-3.1771	-2.8833	-3.0438	-3.0417	-2.9083	-3.0604	-2.8771	-3.1063	182.099	191.710	418.022	499.915	220.587	365.938	465.150	454.450	438.664	250.431	473.645	450.271	472.500	434.865	357.301	484.555	0.00096967	0.0009774	0.00020501	1024.9	5.775e-06	3.7936e-06	1303.3	298.2	1.879e-05	7.2496e-06	405.49	127.17	87.31	24.699	4.9841e-06	39.339	0.0011997	0.0015256	0.00057926	824.55	1.5585e-05	1.6935e-05	1051	242.38	1.5293e-05	1.6558e-05	327.35	103.33	71.435	20.274	1.6363e-05	32.299	357.515	287.235	309.292	179.231	286.506	331.582	177.970	184.268	295.083	342.251	181.973	186.479	188.369	194.326	200.981	191.326	-8191	255	
18388.287	1	1	0	0	0.2795	0.21636	0.16968	0.12066	0.18752	0.23838	0.39427	0.1141	0.20313	0.01148	0.23886	0.092109	0.12061	0.38495	0.14632	0.19255	-2.5854	-3.1063	-3.0292	-3.2229	-2.7229	-3.2583	-3.0062	-3.15	-3.2375	-2.9437	-3.2375	-3.0438	-2.9083	-3.1312	-2.9708	-2.9583	341.356	268.874	265.857	337.228	501.737	343.675	476.715	190.228	436.280	463.231	502.013	180.861	171.068	491.070	256.121	209.112	0.00088237	0.00036064	0.00022795	1019.3	1.1903e-05	5.273e-06	1309.6	302.88	1.25e-05	1.0139e-05	406.47	127.97	88.568	25.164	1.0978e-05	40.005	0.0012141	0.0015968	0.00054151	825.43	1.5775e-05	1.7981e-05	1056.9	244.22	1.5706e-05	1.703e-05	329.78	103.61	71.692	20.51	1.6419e-05	32.638	362.376	291.091	259.655	179.550	303.943	274.267	178.201	184.321	315.765	264.212	182.224	186.639	188.780	194.086	314.796	190.751	-8191	255	
18388.383	1	1	0	0	0.41834	0.06213	0.076729	0.18841	0.18826	0.18079	0.37395	0.14374	0.16121	0.22698	0.12097	0.20615	0.33222	0.18976	0.014606	0.12403	-2.6437	-2.8792	-3.0812	-3.1625	-2.8875	-3.15	-2.9229	-3.1083	-3.1729	-2.9854	-3.0125	-3.1604	-2.8146	-3.0187	-3.0354	-3.0396	503.284	458.702	412.097	189.593	228.918	340.570	469.986	498.564	489.285	230.329	386.037	511.738	520.605	393.602	478.472	434.054	0.0012613	0.0006063	0.00014851	1038.2	8.5299e-06	1.1865e-05	1319.4	302.44	5.1592e-06	1.0336e-05	406.72	128.76	88.123	25.186	7.9873e-06	39.966	0.0012053	0.0016033	0.00058385	831.72	1.6119e-05	1.7536e-05	1058.7	243.88	1.519e-05	1.7451e-05	330.08	104.44	72.052	20.775	1.6302e-05	32.834	360.597	308.421	262.196	179.504	265.763	348.070	178.022	184.283	306.056	324.664	181.748	186.489	188.281	193.532	285.191	190.828	-8191	255	
18388.504	1	1	0	0	0.10578	0.29165	0.13389	0.21799	0.2035	0.035632	0.17188	0.1801	0.098536	0.10179	0.22021	0.25188	0.10699	0.099129	0.24769	0.15054	-2.7021	-2.7062	-2.8625	-2.9646	-2.7708	-3.1208	-3.0667	-3.2042	-3.225	-2.775	-2.9667	-3.2896	-2.9813	-2.925	-3.1437	-2.8563	377.946	287.873	273.284	235.527	366.040	372.701	175.177	494.368	454.304	251.139	456.255	522.509	383.016	194.943	490.383	452.055	0.0010152	0.00088943	0.00012974	1044.4	1.1255e-05	1.0143e-05	1323.8	304.77	9.1534e-06	9.8855e-06	409.14	131.75	90.309	25.163	8.5095e-06	40.152	0.0012053	0.0015848	0.00055373	838.89	1.541e-05	1.7437e-05	1066.7	246.46	1.5177e-05	1.7352e-05	333.36	105.91	72.73	20.83	1.5679e-05	33.055	359.313	240.328	438.571	179.452	307.557	303.261	178.264	184.296	208.087	314.492	181.906	186.420	189.281	194.180	319.758	190.719	-8191	255	
18388.574	1	1	0	0	0.15825	0.068767	0.16901	0.13568	0.18866	0.10436	0.38952	0.18766	0.1873	0.20089	0.15564	0.13038	0.19664	0.16081	0.14975	0.1293	-2.8792	-2.8104	-2.9292	-3.2042	-2.7521	-3.1833	-3.1375	-2.9333	-3.0396	-3.0729	-2.8792	-3.2333	-2.7438	-2.8208	-2.9604	-2.8021	267.876	516.492	255.938	444.310	506.038	468.044	462.027	441.451	491.747	213.198	498.546	475.000	431.466	176.826	261.830	260.400	0.0010945	0.00042625	0.00014745	1040	5.6335e-06	4.9188e-06	1332.1	305.12	1.2793e-05	6.7955e-06	415.19	132.04	90.43	25.656	5.4005e-06	40.693	0.0012414	0.0015032	0.00057297	837.17	1.5944e-05	1.72e-05	1071.2	246.77	1.8657e-05	1.8036e-05	336.79	106.59	73.389	21.167	1.6408e-05	33.436	357.780	234.900	224.421	179.173	377.408	323.910	177.941	184.554	316.904	517.894	182.025	186.478	189.084	193.778	329.580	190.479	-8191	255	
18388.672	1	1	0	0	0.32319	0.18379	0.14559	0.22372	0.22766	0.17238	0.14445	0.12866	0.10899	0.15269	0.15603	0.2084	0.26645	0.10556	0.19211	0.17949	-2.5417	-2.9437	-2.9542	-3.1792	-2.8083	-3.1125	-3.1833	-2.7896	-3.1333	-2.9437	-2.9	-3.2562	-2.9125	-3.2417	-3.0187	-2.7854	479.566	252.986	441.371	447.689	511.579	192.750	488.944	451.587	500.879	408.981	244.759	467.490	438.757	508.696	469.367	415.115	0.0010515	0.00027474	9.29e-05	1067.6	1.2747e-05	6.1519e-06	1340.2	309.79	1.7426e-05	8.8822e-06	417.84	133.58	91.49	25.354	1.1941e-05	40.805	0.0012389	0.0015321	0.00056452	854.92	1.6811e-05	1.7245e-05	1081.1	250.84	2.1806e-05	1.807e-05	337.29	107.04	73.652	21.07	1.6588e-05	33.377	358.818	228.260	178.603	179.590	308.722	324.062	178.167	184.523	351.683	369.125	182.203	186.690	188.756	194.559	323.394	191.209	-8191	255	
18388.768	1	1	0	0	0.10516	0.19035	0.11949	0.17668	0.18857	0.12768	0.2329	0.24114	0.22656	0.16112	0.099061	0.18386	0.14725	0.16287	0.13605	0.15146	-2.5646	-3.0646	-2.9271	-3.2104	-2.8146	-2.9021	-3.375	-2.9313	-3.0438	-2.9854	-2.9979	-3.3563	-3.0375	-2.9562	-2.9792	-2.675	229.949	296.129	485.521	428.997	305.863	316.142	417.498	509.945	323.471	358.662	407.854	521.584	355.698	487.436	478.100	243.100	0.0011664	0.00076699	0.00020651	1061.7	4.8108e-06	5.8446e-06	1332.2	304.07	1.9737e-05	6.8002e-06	411.33	128.14	88.408	24.651	4.6395e-06	39.451	0.0012486	0.0015951	0.00057234	850.28	1.5984e-05	1.7414e-05	1071	245.69	2.045e-05	1.663e-05	332.58	103.85	71.47	20.523	1.5014e-05	32.596	367.085	288.937	275.915	179.648	267.413	335.956	178.061	184.418	316.451	271.186	181.976	186.801	188.455	194.268	396.470	190.909	-8191	255	
18388.889	1	1	0	0	0.25158	0.08178	0.23983	0.33401	0.30982	0.057645	0.28516	0.34083	0.14619	0.21776	0.32209	0.20079	0.16794	0.14391	0.19412	0.22591	-2.6063	-2.9792	-2.825	-3.2708	-3.0333	-3.0396	-3.2667	-2.8729	-3.0062	-2.95	-2.8792	-3.0729	-2.8896	-2.9813	-3.0792	-2.7812	461.406	349.645	437.648	424.833	438.895	358.417	476.808	449.969	521.226	507.781	504.045	513.082	180.921	469.435	344.094	465.323	0.00079705	0.00041133	0.00017176	1023.6	6.8102e-06	7.958e-06	1317.7	298.92	1.7538e-05	7.1346e-06	400.12	126.05	87.225	24.453	3.804e-06	39.579	0.0011539	0.0015341	0.0004289	824.65	1.4127e-05	1.6086e-05	1052.3	239.91	1.9223e-05	1.5835e-05	324.68	101.61	70.373	20.212	1.4259e-05	32.185	358.250	271.191	270.521	179.334	472.781	298.957	177.956	184.795	322.583	294.810	181.952	186.401	189.075	194.614	254.305	191.040	-8191	255	
18388.984	1	1	0	0	0.16683	0.15686	0.1383	0.12692	0.19111	0.18483	0.30115	0.22323	0.26311	0.12714	0.20434	0.23818	0.27389	0.13919	0.059038	0.27964	-2.55	-2.9042	-2.5958	-3.0458	-2.9813	-2.9083	-3.2958	-2.9792	-3.0438	-3.0542	-2.8812	-3.1521	-2.9604	-2.9396	-3.0375	-3.0687	310.645	469.403	525.016	391.861	353.893	317.018	460.768	478.955	452.418	481.786	488.893	490.106	483.344	473.783	426.410	451.687	0.00099243	0.00014089	0.00020161	1013.7	1.4154e-06	6.9884e-06	1298.1	294.08	1.7543e-05	5.2589e-06	397.34	124.51	85.007	24.445	1.5551e-05	38.707	0.0010681	0.001357	0.0003698	820.78	1.3925e-05	1.6007e-05	1042.3	236.9	1.7785e-05	1.4959e-05	320.86	100.49	68.769	20.1	1.4276e-05	31.6	355.307	263.414	256.441	179.316	239.361	343.226	178.290	184.455	345.546	515.886	182.331	186.661	188.797	194.384	315.952	190.374	-8191	255	
18389.080	1	1	0	0	0.24331	0.098577	0.17748	0.19467	0.22609	0.22314	0.075698	0.346	0.1478	0.20631	0.075843	0.19271	0.16117	0.23542	0.18696	0.12462	-2.6021	-3.0146	-2.875	-3.1312	-2.875	-2.8479	-3.3542	-2.9708	-3.0875	-2.9396	-2.9021	-3.0479	-3.1292	-2.9125	-3.2292	-2.8312	221.397	183.127	213.947	490.156	505.989	425.262	375.511	468.722	264.010	345.163	393.905	339.691	354.151	525.969	313.729	306.684	0.0010538	0.00051222	0.00015465	999.84	9.7089e-06	3.5796e-06	1274.3	292.39	2.1593e-05	1.348e-05	394.9	123.39	84.677	24.257	8.7009e-06	38.401	0.0010618	0.0014242	0.00038967	806.44	1.4449e-05	1.6235e-05	1024.7	235.24	1.8714e-05	1.5348e-05	320.23	100.22	68.425	19.821	1.6443e-05	31.425	355.970	256.083	267.461	179.463	277.164	280.203	178.137	184.572	298.692	268.061	182.090	186.606	188.959	194.171	262.471	190.536	-8191	255	
18389.176	1	1	0	0	0.24303	0.16868	0.13379	0.3098	0.19897	0.16291	0.28686	0.23823	0.3446	0.15906	0.24019	0.2933	0.15658	0.072938	0.12063	0.20765	-2.5938	-3.1146	-3.0104	-3.2125	-3.0292	-2.7854	-3.0958	-2.9188	-2.8312	-2.9292	-2.8917	-2.9771	-3.1167	-2.9062	-3.1271	-2.9313	345.067	197.695	329.047	179.341	199.490	494.903	488.837	475.344	465.399	344.801	502.692	496.622	214.563	394.570	236.296	502.310	0.001007	0.0006045	0.0002005	988.8	1.0164e-05	5.3316e-06	1273.4	289.62	1.8735e-05	5.8342e-06	395.34	122.79	85.162	24.182	1.6335e-06	38.751	0.0011331	0.0014303	0.00037279	799.46	1.4204e-05	1.4925e-05	1020.6	232.78	1.8134e-05	1.5027e-05	319.38	99.553	68.841	19.814	2.0777e-05	31.64	363.954	278.588	221.642	179.537	273.490	310.701	178.157	184.080	317.508	325.539	182.046	186.557	188.830	194.353	376.472	190.746	-8191	255	
18389.273	1	1	0	0	0.12303	0.17901	0.15699	0.18356	0.16708	0.037604	0.3053	0.23041	0.028872	0.24341	0.20772	0.29601	0.10373	0.034513	0.16439	0.10601	-2.5187	-2.9833	-2.7604	-3.0542	-3.0625	-2.7458	-3.1813	-2.9417	-3.0104	-3.2083	-3.0458	-3.0146	-3.1396	-3.0021	-3.2354	-3.1458	386.913	515.012	450.125	482.157	333.048	415.977	462.214	438.758	226.053	378.318	166.720	215.307	327.445	332.331	484.438	303.182	0.0010084	0.0011467	9.4979e-05	1007.2	4.2137e-06	4.9291e-06	1291.7	297.29	2.3353e-05	6.5139e-06	349.99	135.45	106.45	30.481	6.5663e-06	48.861	0.0011343	0.001486	0.00038569	813.06	1.3814e-05	1.5821e-05	1041.4	238.57	1.865e-05	1.5585e-05	278.54	100.64	82.605	24.165	2.3392e-05	38.531	349.970	234.210	320.007	179.387	191.888	322.865	178.420	184.336	338.039	304.682	168.226	168.826	184.908	191.985	188.898	189.868	-8191	255	
18389.367	1	1	0	0	0.20008	0.19085	0.19369	0.039907	0.14376	0.1764	0.43388	0.46735	0.10702	0.10759	0.30886	0.12128	0.19522	0.10315	0.18134	0.09456	-2.3625	-3.2646	-2.925	-3.1021	-2.8542	-2.7729	-3.3375	-3.1375	-2.9208	-3.1063	-3.1021	-3.1208	-3.0604	-3.0104	-3.1312	-3.1292	452.525	446.170	475.533	412.112	518.775	243.391	462.243	170.306	463.422	471.513	468.956	523.985	251.786	176.960	423.707	170.185	0.0012721	0.0013923	0.00019784	1291.2	8.4211e-06	1.749e-05	1643.8	380.93	8.4725e-06	1.6258e-05	517.6	165.37	113.78	31.909	5.3248e-06	51.03	0.0014182	0.001837	0.00048464	1003.4	1.8153e-05	1.9308e-05	1284.4	297.2	1.9517e-05	2.4091e-05	406.51	128.27	88.936	25.344	2.6529e-05	40.224	366.747	254.674	206.107	178.209	331.438	295.083	176.823	183.135	338.514	256.264	181.516	185.303	187.098	192.519	255.617	188.733	-8191	255	
18389.465	1	1	0	0	0.055995	0.032135	0.03194	0.26523	0.11796	0.21796	0.43391	0.22802	0.082963	0.18661	0.01935	0.12187	0.10358	0.062411	0.3108	0.10913	-2.4833	-3.2708	-2.9271	-3.0563	-3.2729	-2.8021	-3.1979	-3.1083	-2.9375	-3.1937	-2.9729	-3.0583	-3.3104	-2.9437	-3.1083	-3.1229	229.771	357.339	482.088	195.200	388.336	202.257	448.221	502.192	461.450	492.883	189.752	516.005	510.093	332.789	249.830	518.052	0.0012727	0.00061058	0.00018237	1313.4	1.2396e-05	2.9695e-06	1672.1	387.47	1.7923e-05	1.2532e-05	522.88	166.41	114.4	31.874	9.2639e-06	50.093	0.0015198	0.0018955	0.00052354	1026.4	1.9313e-05	2.0533e-05	1299.3	303.86	1.9187e-05	2.9309e-05	408.62	129.53	89.592	25.455	2.5642e-05	39.637	372.058	201.097	296.580	178.458	303.199	344.018	176.757	183.255	310.288	374.537	180.814	185.434	187.344	192.788	205.615	189.806	-8191	255	
18389.584	1	1	0	0	0.13588	0.24062	0.17754	0.26865	0.15986	0.12279	0.074281	0.28565	0.12404	0.29407	0.26435	0.13769	0.26304	0.24118	0.042122	0.11436	-2.3646	-3.0604	-3.0833	-2.9833	-3.2062	-2.9167	-3.2687	-3.2833	-2.7833	-3.1688	-3.0438	-3.0729	-3.3333	-3.0104	-3.0708	-3.4771	454.108	517.848	498.507	497.471	505.892	171.601	380.497	456.387	271.445	493.039	454.013	440.564	387.780	511.740	180.772	208.849	0.0013043	0.00083304	0.00034166	1309.2	1.8891e-05	7.6279e-06	1664.7	385.17	7.126e-06	1.0083e-05	518.5	166.01	114.35	31.879	3.351e-06	50.182	0.001541	0.0019973	0.00054788	1020.1	1.9188e-05	2.1683e-05	1292.8	300.78	1.9134e-05	2.7789e-05	407.18	129.57	89.073	25.394	2.722e-05	39.758	363.514	271.863	331.716	178.582	258.500	498.982	177.453	182.965	316.020	373.117	180.810	184.718	187.793	192.527	255.846	189.262	-8191	255	
18389.680	1	1	0	0	0.22997	0.13473	0.12264	0.14384	0.13098	0.17785	0.24945	0.27838	0.15227	0.038845	0.18887	0.079236	0.22135	0.077846	0.18337	0.07189	-2.3958	-3.1063	-2.7875	-3.0146	-3.2	-2.8104	-3.1896	-3.1167	-3	-3.2354	-3.1167	-2.9792	-3.4042	-3.0312	-3.0104	-3.1771	230.196	313.373	482.027	418.184	457.419	511.546	484.893	455.335	511.850	255.753	411.623	472.659	505.904	188.013	199.320	247.099	0.0012502	0.0014081	0.00016378	1291.9	1.9131e-05	4.7026e-07	1656.9	385.3	8.699e-06	7.2134e-06	526.12	166.47	114.9	32.826	9.2911e-07	51.859	0.0015352	0.0019611	0.00053588	1007.4	2.3366e-05	2.0609e-05	1287.6	300.41	1.9603e-05	2.974e-05	412.97	130.39	90.568	26.097	2.6946e-05	40.899	363.523	291.922	313.926	178.378	244.912	405.521	176.847	183.276	368.804	323.404	181.618	185.391	188.110	192.785	351.963	189.293	-8191	255	
18389.775	1	1	0	0	0.19234	0.25463	0.046611	0.36892	0.15125	0.14488	0.42279	0.30734	0.12531	0.1994	0.33259	0.2245	0.058252	0.12825	0.27371	0.27888	-2.4854	-3.1125	-3.0854	-2.8625	-3.2562	-3.0125	-3.1	-3.3958	-2.9354	-3.1562	-3.1458	-3.0792	-3.3833	-3.1229	-2.8937	-3.425	506.171	386.981	476.159	476.882	426.434	362.073	483.590	165.197	219.035	340.238	467.011	510.158	363.377	523.220	258.780	192.124	0.0011786	0.0011066	0.0003538	1315.8	1.3706e-05	8.841e-06	1673	394.89	2.3605e-05	1.6174e-05	530.96	170.85	116.68	33.402	3.5849e-06	52.166	0.0015999	0.0021494	0.00059045	1023	2.7758e-05	2.3581e-05	1302.2	308.18	2.1738e-05	2.984e-05	417.26	133.23	91.742	26.367	2.7885e-05	41.276	349.666	245.043	264.123	178.507	281.622	443.602	177.297	183.104	292.135	366.112	180.699	184.940	187.933	192.729	465.076	189.279	-8191	255	
18389.871	1	1	0	0	0.26219	0.053613	0.17014	0.29834	0.11164	0.10283	0.11851	0.10821	0.18748	0.061019	0.051179	0.20894	0.22289	0.13344	0.10385	0.099162	-2.3937	-3.1	-3.0396	-2.9979	-3.2729	-2.9521	-2.9396	-3.1604	-2.9313	-3.025	-3.2313	-2.9313	-3.1875	-3.0438	-3.0646	-3.2583	177.838	429.302	385.058	175.513	433.573	185.757	493.996	455.801	240.438	516.481	356.739	487.324	522.607	523.382	261.468	411.560	0.0014957	0.00080631	0.00010209	1324.2	9.2326e-06	2.6176e-06	1660.9	390.95	1.9767e-05	1.5451e-05	528.53	168.61	116.19	32.458	3.2922e-06	51.066	0.0017342	0.0022207	0.00060518	1029.7	2.6967e-05	2.4369e-05	1294.2	305.58	2.172e-05	3.234e-05	413.71	131.66	90.837	25.818	2.3227e-05	40.395	363.572	255.276	233.616	178.791	248.895	243.046	176.774	183.165	308.405	316.190	180.752	184.934	187.594	192.790	305.934	189.537	-8191	255	
18389.969	1	1	0	0	0.12838	0.094028	0.3585	0.31398	0.091367	0.3621	0.28545	0.24701	0.030428	0.22391	0.20698	0.049011	0.21693	0.31276	0.16087	0.10421	-2.4	-3.1417	-3.0604	-3.0354	-2.9896	-3.0854	-2.8937	-3.3396	-2.9813	-2.9813	-3.2479	-3.0042	-3.2062	-3.0333	-2.8438	-3.2604	204.544	414.249	170.949	189.602	471.176	462.724	174.794	485.571	314.149	426.454	458.350	417.668	514.901	455.937	189.059	408.011	0.0012366	0.0017814	0.00016426	1297.1	1.0407e-05	5.5988e-06	1644.5	381.75	2.4036e-05	3.9215e-06	515.25	162.43	111.6	31.359	8.304e-06	49.005	0.0016008	0.0020798	0.00059848	1010.5	2.786e-05	2.2532e-05	1278.6	298.49	2.0872e-05	2.9233e-05	404.08	127.14	87.562	24.957	2.0798e-05	39.192	367.836	238.150	221.273	178.679	241.128	308.598	177.132	183.329	289.483	393.898	181.042	185.251	187.271	192.784	290.679	189.162	-8191	255	
18390.064	1	1	0	0	0.09567	0.25991	0.1958	0.36055	0.12227	0.23928	0.40198	0.070301	0.24805	0.10078	0.18044	0.16858	0.050744	0.011937	0.14142	0.1499	-2.6917	-2.9417	-3.1271	-2.9792	-3.2042	-3.1542	-3.2542	-3.5021	-3.1	-3.0687	-3.3	-2.9688	-3.0729	-3.075	-2.8083	-3.2792	409.930	375.399	456.436	451.058	194.276	471.897	463.603	519.841	510.413	232.783	493.369	470.114	217.885	401.868	413.161	447.054	0.0012433	0.0013221	4.3794e-05	1266.4	1.8121e-05	1.3598e-05	1612.3	372.07	2.1628e-05	9.633e-06	503.47	158.33	108.14	30.496	2.5826e-06	47.999	0.0015197	0.0019006	0.00053714	987.83	2.4417e-05	2.0881e-05	1254.6	290.07	1.865e-05	2.588e-05	393.11	123.52	84.524	24.239	1.7999e-05	38.239	351.636	259.318	323.025	178.448	270.924	268.695	177.127	182.653	328.339	314.218	181.172	185.286	187.988	192.293	259.736	189.337	-8191	255	
18390.186	1	1	0	0	0.39888	0.1016	0.099191	0.13842	0.18729	0.044454	0.2131	0.15795	0.18289	0.044052	0.31947	0.2812	0.29277	0.1425	0.066654	0.12502	-2.3479	-2.9021	-3.1792	-3.1729	-2.9667	-3.0729	-3.1063	-3.1167	-3.1708	-3.0354	-3.2229	-3.0167	-3.0229	-3.0146	-2.8021	-3.3438	486.160	191.064	210.626	338.771	328.573	375.042	464.367	500.161	516.566	499.015	455.895	501.952	457.726	482.064	186.696	523.064	0.0010373	0.00035123	0.00016895	1245.6	1.2967e-05	1.1169e-05	1595.7	367.3	9.0502e-06	1.0552e-05	495.95	155.05	106.68	30.761	8.9304e-06	47.924	0.0014292	0.0017031	0.00047114	968.92	2.4051e-05	1.9324e-05	1241	285.44	1.7065e-05	1.9637e-05	389.54	122.16	83.343	24.23	1.798e-05	38.167	367.612	268.125	290.395	177.796	314.183	349.973	176.916	182.634	269.258	362.463	180.579	185.044	187.614	193.386	312.113	189.208	-8191	255	
18390.281	1	1	0	0	0.12041	0.16213	0.12002	0.21527	0.32071	0.27637	0.19899	0.16997	0.05769	0.25168	0.27951	0.16834	0.20583	0.10213	0.058963	0.33238	-2.5479	-2.8229	-3.1875	-3.0187	-2.8354	-3.2229	-3.0792	-3.2833	-3.0271	-2.7083	-3.4437	-3.0396	-2.975	-3.3	-2.8042	-3.0438	218.869	489.261	278.855	514.562	282.306	225.664	475.347	468.452	463.818	441.338	416.181	287.973	170.489	448.231	505.411	425.829	0.0010234	0.001383	0.00021751	1248	1.3428e-05	1.7727e-06	1598.1	360.65	1.5093e-05	1.2202e-05	492.51	154.61	106.53	30.011	6.3712e-06	47.379	0.0013239	0.0016647	0.0004532	962.62	2.2163e-05	1.7676e-05	1236.6	282.68	1.6459e-05	1.7843e-05	386.9	120.94	83.095	23.847	1.6344e-05	37.648	362.487	264.459	228.726	178.337	321.185	209.974	176.852	183.181	320.503	313.190	181.142	185.353	187.998	192.264	329.118	189.706	-8191	255	
18390.377	1	1	0	0	0.097296	0.089061	0.2344	0.15015	0.22572	0.025514	0.24012	0.27073	0.096342	0.14722	0.17095	0.22101	0.039564	0.34962	0.096269	0.16878	-2.5104	-2.7042	-3.225	-3.125	-2.9708	-3.0458	-3.1562	-3.1104	-3.1437	-2.9729	-3.375	-2.8896	-2.9167	-3.225	-2.9542	-3.0708	265.804	480.923	352.322	184.343	217.128	523.104	493.848	462.984	402.076	275.488	443.260	451.906	267.932	435.252	303.082	197.545	0.0012235	0.00097552	0.00011934	1234.8	9.5766e-06	1.2756e-05	1571.7	362.23	6.8789e-06	6.5968e-06	491.58	153.31	105.9	29.595	9.0349e-06	47.107	0.0013487	0.0016504	0.00043711	959.42	1.9846e-05	1.9012e-05	1226.3	281.76	1.6134e-05	1.7872e-05	384.04	119.83	82.4	23.477	1.6514e-05	37.559	357.137	186.902	273.970	178.005	293.913	264.517	176.732	182.808	352.363	274.608	181.300	185.474	187.342	192.578	287.936	189.748	-8191	255	
18390.473	1	1	0	0	0.099828	0.1786	0.13976	0.039406	0.14168	0.21105	0.17302	0.096727	0.069392	0.038155	0.27335	0.16696	0.11744	0.055015	0.067064	0.24489	-2.8958	-2.8292	-3.1063	-3.2604	-2.7708	-3.0812	-3.1646	-3.0312	-3.1083	-2.8563	-3.3292	-3.1521	-2.8479	-3.3396	-2.9375	-3.1771	220.716	226.332	355.810	336.011	436.104	492.858	467.823	324.492	448.742	362.178	476.007	522.666	225.371	379.907	236.316	418.327	0.0012806	0.0015238	0.00017434	1229.3	1.1569e-05	7.891e-06	1577.2	362.16	2.232e-05	3.6056e-06	487.38	153.13	105.19	29.857	3.2432e-06	46.981	0.0012471	0.0015521	0.00043604	955.41	1.5415e-05	2.04e-05	1227.2	282.22	1.6037e-05	1.7329e-05	383.86	120.22	82.239	23.766	1.5112e-05	37.599	362.343	249.051	246.077	177.909	311.005	374.496	176.827	182.970	299.010	254.246	180.812	184.987	187.279	193.508	388.130	189.304	-8191	255	
18390.568	1	1	0	0	0.1529	0.13141	0.059693	0.2703	0.27328	0.093136	0.22468	0.12189	0.16019	0.13913	0.11661	0.53416	0.028221	0.071463	0.34511	0.20148	-2.8208	-2.9958	-3	-3.1583	-2.7021	-3.2333	-3.3146	-3.0687	-3.2667	-2.9875	-2.9938	-3.0875	-3.0292	-3.175	-2.8875	-2.9125	333.159	371.624	292.598	477.597	350.361	492.537	455.397	501.374	328.501	364.257	491.545	458.356	286.865	326.929	193.909	483.750	0.001042	0.00084089	0.0001278	1230.3	7.0548e-06	1.4776e-05	1582.9	365.31	4.8233e-06	7.4588e-06	492.3	153.72	105.01	29.941	4.2698e-06	47.344	0.0012088	0.0016125	0.00043568	957.08	1.5618e-05	2.4031e-05	1233.9	282.77	1.5945e-05	1.6701e-05	386.1	120.13	82.517	23.752	1.5674e-05	37.676	367.424	234.678	240.457	178.514	327.293	286.766	176.907	182.754	330.903	498.287	181.261	185.191	187.402	192.894	315.476	189.653	-8191	255	
18390.664	1	1	0	0	0.12615	0.38696	0.18453	0.18663	0.2144	0.22388	0.43122	0.34242	0.091612	0.11429	0.042754	0.12609	0.26482	0.19368	0.2344	0.14686	-2.8771	-2.6917	-3.0604	-3.2583	-2.7542	-3.1625	-3.0563	-2.8792	-3.1417	-2.7229	-3.175	-3.0667	-3.0083	-2.9188	-2.9833	-2.8583	461.878	180.905	211.887	515.670	424.520	250.021	440.643	494.360	506.776	462.582	415.700	513.134	477.544	489.753	445.436	168.893	0.0014531	0.00046228	0.00024672	1235	9.6625e-06	1.3969e-05	1589.1	364.19	1.2438e-05	2.8006e-06	491.58	154.35	104.79	29.787	5.001e-06	47.39	0.0013288	0.0015717	0.000424	958.57	1.5528e-05	2.241e-05	1233.1	282.51	1.5729e-05	1.6453e-05	386.59	120.55	82.584	23.798	1.6113e-05	37.684	353.906	240.226	297.023	178.206	309.212	299.483	176.868	182.729	326.036	224.053	181.232	185.433	188.018	192.931	351.288	189.374	-8191	255	
18390.760	1	1	0	0	0.18962	0.17631	0.22217	0.30451	0.057682	0.10357	0.15816	0.1541	0.095252	0.13584	0.17891	0.38021	0.27048	0.20764	0.22127	0.068635	-2.7229	-2.8229	-2.9313	-3.2375	-2.8208	-3.0667	-3.1688	-3.0208	-3.1125	-2.9313	-3.0687	-3.3	-2.8208	-3.0479	-3.1021	-3.0187	408.152	325.794	223.401	171.544	287.664	470.730	458.183	464.494	522.787	507.011	453.306	490.334	406.175	435.978	246.134	338.966	0.0010025	0.0010239	7.7003e-05	1241.6	1.0967e-05	9.1581e-06	1593.5	362.14	1.1178e-05	2.5592e-06	491.95	154.78	106.23	30.31	1.1448e-05	47.776	0.0014866	0.0015967	0.00041487	959.13	1.5637e-05	2.3799e-05	1230.3	282.63	1.6211e-05	1.8186e-05	385.7	120.93	82.805	24.033	1.6326e-05	37.777	365.160	308.919	230.557	178.601	327.952	344.607	177.125	183.264	285.021	240.381	180.941	185.041	187.585	192.890	309.889	190.108	-8191	255	
18390.855	1	1	0	0	0.19216	0.092465	0.069575	0.31356	0.12735	0.09483	0.33443	0.3582	0.076958	0.25862	0.13496	0.11058	0.1499	0.25387	0.17597	0.14142	-2.6375	-3.0417	-2.9896	-3.3438	-2.9292	-3.025	-3.3667	-3.075	-3.1958	-2.9375	-2.9521	-3.2438	-2.8333	-3.1271	-2.9479	-2.9333	346.607	451.839	214.205	500.931	182.758	401.255	461.488	173.645	503.993	495.503	485.834	396.235	321.501	452.737	248.218	397.879	0.0011286	1.1681e-05	0.00021191	1246.4	1.3421e-05	1.5653e-05	1590.9	363.05	2.3245e-05	4.4524e-06	494.97	155.34	105.92	30.096	1.0793e-05	47.977	0.0016912	0.001628	0.00041547	965.52	1.6705e-05	2.2773e-05	1236.2	284.22	1.5647e-05	1.7342e-05	387.9	121.53	83.2	24.039	1.6798e-05	37.856	358.304	292.763	190.668	178.273	286.496	332.525	177.252	183.004	271.269	353.143	181.301	185.377	187.583	192.741	348.587	189.433	-8191	255	
18390.953	1	1	0	0	0.093257	0.028195	0.19228	0.323	0.17951	0.15605	0.23194	0.49324	0.1588	0.29261	0.19522	0.13608	0.12325	0.17927	0.20869	0.04191	-2.8125	-2.9021	-2.725	-3.2625	-2.8396	-2.9396	-3.3187	-2.9104	-3.2021	-2.9896	-2.9729	-3.1667	-3.0479	-2.9417	-3.0625	-2.8583	351.263	326.179	424.428	483.868	380.686	172.559	477.472	437.116	175.680	373.199	177.640	486.156	522.669	172.006	253.422	467.645	0.0010266	0.00085044	0.00028295	1238.6	9.4672e-06	2.1374e-05	1597.6	367.44	2.1049e-05	4.2949e-06	495.76	157.3	107.42	30.685	1.4393e-05	47.775	0.0015944	0.0015401	0.00045674	966.82	1.6208e-05	2.3907e-05	1242.5	285.21	1.6533e-05	1.8057e-05	387.83	122.73	83.884	24.371	1.5854e-05	38.288	350.264	292.615	230.335	178.146	281.478	314.050	177.160	183.267	311.362	364.181	181.124	185.499	187.939	192.583	330.804	189.320	-8191	255	
18391.072	1	1	0	0	0.23532	0.097069	0.13974	0.34979	0.11071	0.22953	0.31331	0.14153	0.03855	0.13596	0.06763	0.23158	0.32193	0.34201	0.21713	0.081121	-2.7583	-2.8792	-2.8771	-3.2375	-2.7875	-2.9625	-3.4021	-3.0729	-3.0563	-2.875	-2.8625	-3.3333	-2.8792	-3.0375	-3.2833	-3.1167	325.293	336.021	191.275	477.068	371.462	181.008	473.992	513.398	288.280	298.820	325.516	473.321	475.887	486.466	195.258	439.355	0.0013894	0.00084352	0.0002096	1236.4	1.0045e-05	8.7342e-06	1584.7	362.5	1.9778e-05	6.2971e-06	491.6	156.23	106.16	30.507	1.3887e-05	47.479	0.0016446	0.0016004	0.00042632	961.46	1.6335e-05	2.316e-05	1235.2	283.18	1.6118e-05	1.667e-05	385.03	122.19	83.221	24.078	1.4664e-05	37.696	363.112	250.099	267.337	178.578	252.886	413.640	177.139	183.267	326.606	341.126	180.719	185.389	187.300	192.846	290.463	189.476	-8191	255	
18391.145	1	1	0	0	0.092965	0.095437	0.1902	0.073167	0.22992	0.10029	0.23948	0.31934	0.22661	0.12178	0.25327	0.21793	0.15452	0.43069	0.15354	0.14957	-2.5896	-2.9521	-2.7125	-3.1458	-2.9958	-2.8104	-3.4188	-3.0396	-2.9729	-2.9896	-2.8937	-3.1896	-2.8646	-2.6937	-3.1479	-2.6479	187.203	420.742	476.658	427.320	306.627	491.621	447.911	456.406	261.268	505.251	444.655	466.218	169.982	498.583	415.051	504.011	0.0014872	0.0015002	0.00023806	1236.1	7.2366e-06	1.5732e-05	1582.1	359.62	1.4062e-05	3.0713e-06	487.97	152.45	105.65	30.364	8.9499e-06	46.983	0.0015909	0.0015604	0.00042104	952.89	1.5848e-05	2.0212e-05	1226.2	281.1	1.4619e-05	1.6208e-05	381.45	120.1	82.175	23.884	1.516e-05	37.272	363.123	265.729	289.323	178.158	320.235	356.210	176.684	183.268	319.808	350.720	180.477	185.683	187.300	193.025	270.986	189.625	-8191	255	
18391.266	1	1	0	0	0.23918	0.013464	0.089968	0.35248	0.077523	0.10639	0.29026	0.3868	0.33838	0.10112	0.17327	0.16416	0.21503	0.10894	0.078159	0.25109	-2.7083	-3.2167	-2.7583	-3.2	-2.9375	-2.8729	-3.4833	-3.0938	-3.1562	-3.1479	-2.7792	-3.2833	-2.95	-2.9313	-3.0604	-2.9542	467.521	335.720	335.566	464.784	491.974	492.736	434.635	435.446	262.784	290.218	395.589	477.351	482.906	240.211	349.587	390.787	0.0012039	0.00055702	0.00017879	1215.8	1.1562e-05	2.8748e-06	1576.7	357.38	1.6063e-06	3.259e-06	484.63	153.34	105.59	29.849	9.151e-06	48.162	0.00157	0.0014603	0.00039564	946.04	1.4261e-05	1.5169e-05	1220.9	278.81	1.4914e-05	1.5478e-05	379.43	120.04	82.327	23.713	1.4505e-05	37.614	353.534	291.651	253.047	177.865	332.636	453.925	176.763	183.245	397.851	508.638	181.124	185.765	187.594	192.763	308.272	189.652	-8191	255	
18391.361	1	1	0	0	0.13597	0.22515	0.13146	0.17022	0.1718	0.19564	0.17113	0.22517	0.12558	0.22477	0.2216	0.030784	0.1641	0.26573	0.063592	0.086398	-2.5708	-3.0396	-2.7104	-3.3042	-2.9313	-2.85	-3.3917	-2.8458	-2.9958	-2.9625	-2.9125	-3.0583	-3.0458	-3.0521	-3.2396	-2.9646	269.188	512.026	225.292	473.138	264.308	478.211	443.700	430.998	406.773	473.517	184.185	347.844	439.606	462.855	479.797	212.307	0.001373	0.0012922	0.00017408	1228.3	7.1113e-06	3.0464e-06	1575.8	359.24	9.8302e-06	9.4219e-06	491.05	154.89	105.84	29.996	9.9005e-06	47.936	0.0014899	0.0014146	0.00038973	950.75	1.3946e-05	1.4882e-05	1225.9	279.33	1.2944e-05	1.47e-05	382.2	120.77	82.562	23.792	1.4035e-05	37.737	351.271	236.610	244.200	177.922	277.953	277.407	177.262	183.125	255.849	270.280	180.568	185.602	188.005	193.030	308.579	189.313	-8191	255	
18391.455	1	1	0	0	0.07926	0.066363	0.32503	0.1658	0.23222	0.10065	0.2624	0.25737	0.13567	0.30868	0.070919	0.12655	0.088043	0.23727	0.17452	0.47511	-2.4146	-2.9958	-2.8	-3.1583	-3.1125	-2.7354	-3.3063	-3.1479	-2.9583	-3.2146	-2.9729	-3.2521	-3.05	-2.8146	-3.1979	-2.9729	319.372	245.108	409.012	170.588	505.633	492.172	487.295	484.492	351.094	408.135	188.989	321.994	513.129	412.322	505.921	425.307	0.0013307	0.0009797	0.00025364	1225.7	3.923e-06	5.2282e-06	1580	359.33	4.9408e-06	1.1024e-05	486.84	153.04	106.63	30.206	6.4665e-06	47.36	0.0013373	0.0016073	0.00037512	950.72	1.3899e-05	1.4855e-05	1228	280.15	1.3914e-05	1.5069e-05	381.56	120.51	82.899	23.943	1.5181e-05	37.641	365.160	247.781	171.078	178.395	269.142	362.491	176.883	183.027	260.567	292.571	180.718	185.858	187.311	192.526	232.137	189.615	-8191	255	
18391.555	1	1	0	0	0.15784	0.162	0.19864	0.043893	0.095021	0.057843	0.23682	0.33823	0.16825	0.17207	0.17702	0.18424	0.15791	0.16846	0.20242	0.24599	-2.4542	-3.125	-2.9562	-3.2062	-3.1104	-2.8	-3.3729	-3.0854	-3.1271	-3.2146	-3.0417	-3.1875	-3.0833	-3.0542	-3.1771	-3.1292	271.536	421.699	495.965	369.027	358.371	260.134	483.131	503.292	245.807	222.679	502.543	495.202	214.585	440.956	179.444	368.634	0.0012469	0.0012879	0.00027778	1206.8	7.368e-06	5.5768e-07	1562.1	359.93	1.5558e-05	4.2496e-06	484.46	153.25	105.05	30.156	7.4837e-06	47.357	0.00113	0.0019217	0.00037287	941.09	1.4124e-05	1.452e-05	1217.5	278.91	1.4126e-05	1.4698e-05	377.87	119.98	82.207	23.779	1.3729e-05	37.321	358.327	238.747	264.909	178.588	309.100	392.214	176.862	183.198	304.680	325.210	181.377	185.207	187.756	192.755	262.332	189.690	-8191	255	
18391.674	1	1	0	0	0.20625	0.13579	0.12117	0.18803	0.19793	0.027252	0.18912	0.44182	0.079285	0.19808	0.27651	0.2472	0.17559	0.10104	0.2701	0.22813	-2.3292	-3.2271	-3.0667	-3.0667	-3.1188	-2.8625	-3.3396	-3.1813	-2.8604	-3.3458	-2.9021	-3.1125	-3.0563	-2.9437	-3.125	-3.2354	366.941	189.238	262.018	460.832	307.997	232.251	445.969	432.672	286.447	341.314	451.090	505.382	328.406	486.715	374.717	518.166	0.0012267	0.0014378	0.00010418	1213.4	1.4884e-05	5.9547e-06	1562.2	355.32	1.9463e-05	1.3127e-05	484.64	152.7	104.19	30.093	8.596e-06	47.459	0.0011029	0.001904	0.00035315	941.32	1.3036e-05	1.416e-05	1216.9	277.49	1.3315e-05	1.4754e-05	378.85	119.21	81.751	23.776	1.2805e-05	37.291	356.402	210.627	269.079	178.232	295.952	366.737	177.222	183.253	306.043	298.200	180.983	185.434	187.635	193.424	262.980	189.716	-8191	255	
18391.744	1	1	0	0	0.25178	0.25261	0.32926	0.21691	0.021419	0.14922	0.23226	0.28403	0.089866	0.12087	0.099436	0.26779	0.1011	0.10875	0.14781	0.19332	-2.5292	-3.2313	-2.925	-2.95	-3.1937	-2.725	-3.3083	-3.1771	-2.7479	-3.2687	-2.8396	-3.0896	-3.1417	-2.9542	-3.1646	-3.2521	169.204	293.877	274.364	516.370	420.229	278.227	506.729	458.101	310.670	204.209	224.223	455.018	503.217	513.935	455.837	178.367	0.0011851	0.001237	9.4986e-05	1200.2	6.6429e-06	1.0934e-05	1570	356.19	1.56e-05	9.8391e-06	484.62	153.54	104.95	30.142	8.8255e-06	47.717	0.0010474	0.0017861	0.00034187	938.9	1.205e-05	1.4052e-05	1219.6	277.66	1.2746e-05	1.4324e-05	379.42	119.54	81.987	23.729	1.2891e-05	37.629	357.491	226.114	260.553	178.183	312.028	312.509	177.216	183.006	286.485	312.102	181.026	185.525	187.754	193.439	299.676	189.517	-8191	255	
18391.865	1	1	0	0	0.097543	0.18357	0.21035	0.27758	0.11274	0.1427	0.18138	0.11204	0.19438	0.02135	0.12532	0.12473	0.1009	0.040988	0.22109	0.172	-2.3146	-3.025	-3.0479	-2.7542	-3.1792	-2.9083	-3.0458	-3.1208	-2.9562	-3.1542	-3.0042	-2.9625	-3.2542	-3.0042	-3.0229	-3.2	325.055	511.297	522.050	202.492	342.375	384.585	447.064	510.874	307.710	458.197	395.022	463.498	307.853	488.509	474.440	168.797	0.0012051	0.0015321	0.00026499	1212.7	9.5753e-06	1.0659e-05	1560.6	356.91	7.5142e-06	8.1583e-06	488.45	154.49	103.87	29.634	5.7774e-06	47.451	0.0010093	0.0018975	0.00034071	941.1	1.2686e-05	1.2759e-05	1223.5	277.49	1.1676e-05	1.3381e-05	380.21	119.97	81.843	23.479	1.2216e-05	37.561	355.392	244.442	232.961	178.315	286.782	275.494	176.912	183.310	266.939	321.056	181.099	185.462	187.796	192.733	373.866	189.888	-8191	255	
18391.961	1	1	0	0	0.10076	0.10535	0.26296	0.077722	0.25891	0.035165	0.46187	0.20002	0.067076	0.24463	0.31687	0.16417	0.20022	0.10526	0.31065	0.30912	-2.4083	-3.0396	-2.9646	-3.0604	-3.0438	-2.9417	-3.2354	-3.3042	-2.8187	-3.0417	-3.2875	-2.8792	-3.1375	-3.0479	-3.0625	-3.2687	264.936	336.712	505.616	405.044	353.105	444.818	467.920	205.729	170.267	259.756	488.002	468.898	458.838	300.726	460.696	519.060	0.0010698	0.00094721	0.00017214	1204.2	7.1703e-06	5.9756e-06	1560.7	355.49	8.182e-06	1.2465e-05	484.41	151.08	103.59	30.323	1.1836e-05	46.733	0.0009899	0.001631	0.00031487	935.01	1.2454e-05	1.263e-05	1212.9	276.24	1.2032e-05	1.2426e-05	377.33	118.39	81.167	23.719	1.1194e-05	37.123	341.299	297.119	239.954	178.744	316.320	264.300	176.843	183.305	263.791	325.032	181.582	185.693	187.220	192.804	324.080	190.338	-8191	255	
18392.057	1	1	0	0	0.10196	0.1911	0.14865	0.3428	0.056326	0.16052	0.073605	0.13575	0.0076155	0.077169	0.21035	0.13668	0.096754	0.31347	0.17609	0.05197	-2.5062	-3.2708	-2.9833	-2.8729	-3.1792	-3.0625	-3.125	-3.3292	-2.6937	-3.0646	-3.0375	-2.9667	-3.0125	-2.875	-2.8292	-3.2854	179.089	261.319	481.998	461.431	316.195	315.791	484.786	408.618	365.578	353.414	172.084	455.540	415.424	199.773	226.663	243.153	0.0012962	0.00047096	0.00021403	1192.7	8.8907e-06	5.8357e-06	1550.6	353.47	1.1575e-05	7.8931e-06	475.89	149.07	101.99	29.254	8.6733e-06	46.07	0.00096474	0.0017254	0.00030546	924.38	1.1782e-05	1.1525e-05	1201.8	274.29	1.0564e-05	1.2655e-05	373.21	116.55	79.96	23.104	1.0689e-05	36.452	352.271	180.240	258.091	178.022	205.808	312.916	177.176	182.875	242.334	285.619	181.045	185.538	187.491	192.706	337.454	189.733	-8191	255	
18392.154	1	1	0	0	0.20178	0.09415	0.013793	0.024839	0.35784	0.13984	0.24325	0.056308	0.096001	0.23618	0.17745	0.30157	0.020069	0.19638	0.19869	0.099281	-2.4729	-2.9604	-3.0625	-3.0542	-3.1188	-3.0812	-3.15	-3.2708	-2.9313	-2.9333	-3.2042	-2.8563	-3.0438	-2.9104	-2.9542	-3.4417	518.393	464.847	167.114	444.742	444.161	495.380	441.112	514.709	202.014	231.603	441.037	481.169	241.211	497.741	517.584	391.838	0.0010459	0.00079481	0.00015929	1183.6	7.536e-06	4.92e-06	1554.9	350.18	1.1864e-05	7.2799e-06	479.16	149.49	101.47	29.449	3.713e-06	46.89	0.00089377	0.0015997	0.00028543	919	1.1247e-05	1.1794e-05	1202.7	272.05	1.0497e-05	1.2025e-05	373.48	116.42	79.268	23.215	1.0787e-05	36.879	358.450	272.632	245.002	178.418	327.839	281.008	176.862	183.348	312.117	249.104	181.068	185.553	187.936	192.788	315.894	190.125	-8191	255	
18392.250	1	1	0	0	0.18049	0.11093	0.045592	0.066776	0.11725	0.031859	0.40398	0.074453	0.17876	0.32575	0.15355	0.10803	0.074888	0.37171	0.14742	0.092999	-2.3063	-2.9208	-3.0333	-2.8146	-3.1688	-3.1854	-3.1917	-3.1604	-2.9292	-3.0604	-3.2104	-2.9125	-2.9417	-3.0208	-2.825	-3.175	216.919	349.497	405.544	465.044	429.632	297.278	453.255	400.562	227.233	375.875	475.122	505.775	242.140	179.236	471.153	181.288	0.0010704	0.0011356	0.00022115	1174.6	4.2042e-06	9.7518e-06	1560	348.39	5.8633e-06	7.8314e-06	480.55	149.89	101.21	28.674	8.8264e-06	45.757	0.00089943	0.0012393	0.0003609	914.11	1.0055e-05	1.0834e-05	1206.8	270.62	1.0265e-05	1.1127e-05	373.34	116.32	79.195	22.898	1.0345e-05	36.346	356.382	277.043	234.064	178.442	300.387	300.786	177.103	183.136	325.709	278.487	181.266	185.549	187.582	192.539	308.244	189.300	-8191	255	
18392.369	1	1	0	0	0.1443	0.17858	0.10858	0.17702	0.26173	0.15738	0.25378	0.11942	0.35132	0.040594	0.1391	0.35055	0.092196	0.31673	0.26439	0.21841	-2.5021	-2.9396	-3.0938	-2.9437	-3.0938	-3.1167	-2.9813	-3.2229	-2.8688	-3.1208	-3.3458	-3.0875	-3.1104	-3.0771	-2.8396	-3.3417	227.881	202.043	346.442	417.552	221.119	410.021	371.796	239.436	335.120	199.286	245.607	483.628	471.380	432.013	165.962	478.539	0.001242	0.0012033	9.7656e-05	1176.3	1.0461e-05	8.7567e-06	1540.7	345.3	6.8291e-06	5.2759e-06	479.33	149.6	102.08	28.987	3.7511e-06	46.685	0.00087314	0.00092882	0.00040259	913.55	9.6628e-06	1.0686e-05	1198.7	269.05	9.2513e-06	1.0425e-05	373.45	116.11	79.537	23.008	9.3288e-06	36.668	360.077	258.295	252.990	178.589	287.561	322.569	177.041	183.493	233.995	300.566	180.967	185.919	187.783	193.186	241.124	189.733	-8191	255	
18392.439	1	1	0	0	0.14387	0.23201	0.13782	0.15391	0.19469	0.046542	0.18242	0.24101	0.071833	0.14516	0.34228	0.25981	0.25735	0.23255	0.067967	0.17365	-2.65	-2.9875	-3.2604	-3.1583	-2.9875	-3.0542	-2.8875	-3.2917	-2.9354	-2.9167	-3.2708	-3.1375	-2.9083	-3.3271	-2.8833	-3.0667	252.951	385.823	394.140	454.451	517.415	289.161	459.823	456.800	271.165	513.762	453.867	521.270	179.372	357.745	406.215	411.417	0.0012944	0.00074404	0.00031024	1184.6	9.1028e-06	4.0037e-06	1543.5	346.82	2.4147e-05	4.2803e-06	477.97	150.61	102.6	29.557	4.8855e-06	46.438	0.00085538	0.00095758	0.00044889	919.1	9.5938e-06	1.0277e-05	1195.6	271.57	9.4487e-06	1.1401e-05	373.94	117.25	79.645	23.177	1.0435e-05	36.735	352.474	269.388	227.268	178.011	301.380	345.396	176.948	183.201	307.892	365.756	180.866	185.658	187.508	193.387	318.238	189.580	-8191	255	
18392.535	1	1	0	0	0.36607	0.072123	0.38527	0.17083	0.24124	0.026798	0.26798	0.22321	0.27131	0.042872	0.31556	0.12156	0.05335	0.19158	0.13991	0.066591	-2.6375	-2.8229	-3.1312	-2.9229	-2.8667	-3.2438	-2.9021	-3.1437	-2.9479	-2.7667	-3.3312	-3.0125	-3.2687	-3.0396	-3.0917	-3.0833	206.835	435.176	426.720	441.667	386.611	521.649	483.007	433.589	243.634	340.021	496.783	472.445	329.607	516.682	408.428	462.562	0.0011337	0.00064589	0.00018212	1189.5	8.1537e-06	3.7649e-06	1543.9	348.6	1.1952e-05	3.5993e-06	478.8	150.79	102.19	29.526	7.4032e-06	46.419	0.00088939	0.0009788	0.00040463	920.5	1.0565e-05	1.1288e-05	1196.5	271.15	1.0395e-05	1.1717e-05	374.16	117.37	79.549	23.273	1.0768e-05	36.581	351.387	301.006	265.127	178.585	276.406	312.181	177.159	183.582	342.408	331.214	181.460	185.239	188.004	192.141	243.559	189.129	-8191	255	
18392.635	1	1	0	0	0.12661	0.19634	0.08673	0.23455	0.093794	0.26351	0.021823	0.2285	0.20045	0.17194	0.17458	0.21889	0.21698	0.066609	0.16031	0.084805	-2.5167	-2.8292	-3.1625	-3.1542	-3.0771	-3.3396	-2.9938	-3.1167	-3.0292	-2.8625	-3.2896	-2.9875	-2.7812	-3.125	-2.8917	-3.1958	215.711	297.172	352.097	525.232	515.317	469.521	404.572	501.400	479.496	482.255	458.049	390.387	271.624	495.307	460.924	446.475	0.0010612	0.00054455	0.00029042	1198.5	1.7515e-06	4.0064e-06	1557.4	350.04	1.5784e-05	8.1379e-06	485.31	151.17	103.53	29.452	6.0018e-06	46.691	0.00086118	0.0010703	0.00046495	926.51	1.1033e-05	1.1551e-05	1209.6	272.99	1.1494e-05	1.2385e-05	377.51	117.72	80.189	23.46	1.1771e-05	36.893	364.804	259.230	241.725	178.227	515.756	189.296	177.125	183.522	345.809	262.230	180.706	185.589	188.046	192.376	297.359	190.117	-8191	255	
18392.754	1	1	0	0	0.13107	0.16644	0.202	0.1696	0.18264	0.28318	0.22018	0.23666	0.047683	0.040144	0.44692	0.19224	0.12519	0.2963	0.067316	0.079007	-2.7188	-2.8729	-3.0917	-3.2104	-2.8917	-3.1333	-2.9021	-3.0687	-3.275	-2.6479	-3.0521	-3.0604	-2.9458	-3.3146	-2.9354	-2.9625	514.738	243.493	242.007	493.792	202.506	445.711	324.964	449.065	403.474	254.921	471.331	497.617	490.881	484.587	211.740	196.470	0.0012148	0.00010388	0.00030321	1191	6.6871e-06	7.4314e-06	1566.4	350.21	6.0839e-06	3.18e-06	482.03	150.5	103.35	29.664	8.7572e-06	46.747	0.00095371	0.0011018	0.00046251	926.98	1.1869e-05	1.325e-05	1210.6	272.67	1.5363e-05	1.3042e-05	376.6	117.49	80.514	23.493	1.2441e-05	37.037	361.126	341.472	234.491	178.296	270.153	356.656	177.181	183.171	227.464	326.973	180.767	185.592	187.689	192.674	315.089	189.558	-8191	255	
18392.850	1	1	0	0	0.23291	0.19472	0.070592	0.38679	0.11954	0.26039	0.15971	0.17483	0.20118	0.087304	0.11087	0.12374	0.018622	0.10164	0.11728	0.18884	-2.8833	-2.8979	-3.0563	-3.1688	-2.775	-3.2167	-3.0167	-3.1	-3.2104	-2.8854	-3.0833	-3.1437	-2.7896	-2.9854	-3	-2.9875	326.256	442.234	257.725	475.415	295.423	286.085	403.358	504.862	315.981	214.803	476.743	294.811	311.991	414.658	486.440	333.148	0.0012708	0.00033617	0.00032973	1190.3	1.0439e-05	9.7204e-06	1543.3	350.8	1.1392e-05	7.056e-06	479.99	152.21	103.48	29.322	3.1057e-06	46.529	0.0010303	0.0011946	0.00048653	923.14	1.2774e-05	1.3262e-05	1200.5	273.05	1.7157e-05	1.3712e-05	376.52	118.71	80.442	23.556	1.3658e-05	37.156	363.030	214.661	260.066	178.194	287.097	329.600	177.099	183.193	252.949	312.883	181.137	185.341	187.869	193.209	312.037	189.789	-8191	255	
18392.945	1	1	0	0	0.30098	0.28672	0.19832	0.17343	0.1376	0.029974	0.18047	0.18949	0.14741	0.04926	0.33851	0.17237	0.16627	0.11298	0.12742	0.015364	-2.8375	-2.7354	-2.9938	-3.2667	-2.6958	-3.0083	-3.125	-2.9938	-3.0812	-2.8583	-2.925	-3.1604	-2.9875	-3.1979	-2.9479	-2.8812	280.503	272.921	426.206	503.284	252.139	405.211	395.339	467.902	517.953	462.789	471.681	174.665	213.333	507.232	508.852	430.079	0.0012573	0.00060476	0.00029654	1193.5	1.5443e-05	2.1582e-06	1554.5	352.78	1.0945e-05	2.5586e-06	490.28	153.08	104.21	29.714	1.3192e-05	46.72	0.0010879	0.0012903	0.00050415	928.68	1.3795e-05	1.4106e-05	1208.9	275.05	1.9132e-05	1.4912e-05	380.7	119.77	81.439	23.725	1.4432e-05	37.238	368.764	230.987	282.257	178.195	314.113	425.771	177.242	183.568	316.871	401.143	181.337	185.073	187.850	193.097	322.767	189.516	-8191	255	
18393.043	1	1	0	0	0.27765	0.23274	0.17388	0.088865	0.21843	0.12522	0.29368	0.18722	0.11665	0.12479	0.35987	0.23427	0.30118	0.31506	0.18151	0.15812	-2.8125	-2.7687	-2.8438	-3.1312	-2.7708	-2.9479	-3.175	-3.0583	-3.1979	-2.8896	-3.0875	-3.2229	-2.8958	-3.0042	-3.1437	-2.8583	338.870	412.135	442.466	265.305	469.940	170.099	444.774	524.957	285.029	356.654	509.925	489.968	518.031	490.486	499.485	166.016	0.001082	0.00048382	0.00020428	1196.7	8.0874e-06	6.465e-06	1562.8	357.88	3.621e-06	2.3215e-06	487.21	154.1	105.09	30.162	6.1332e-06	47.439	0.0011259	0.0014615	0.00043531	934.73	1.4066e-05	1.6211e-05	1216.3	278.49	1.9714e-05	1.6842e-05	382.56	120.86	81.995	24.06	1.7013e-05	37.72	369.285	299.881	271.187	178.281	328.897	317.650	177.004	183.686	179.668	264.712	181.086	185.853	187.659	192.624	247.146	189.623	-8191	255	
18393.139	1	1	0	0	0.26002	0.10812	0.1884	0.37488	0.079511	0.03495	0.50123	0.22179	0.019657	0.30524	0.22524	0.14158	0.29723	0.080424	0.057726	0.076242	-2.65	-2.9083	-2.8083	-3.2938	-2.9417	-3.0771	-3.1583	-2.9771	-3.3521	-3.0417	-3.0187	-3.2438	-2.8688	-3.0521	-3.1333	-2.9833	203.579	239.690	304.509	466.376	203.321	518.772	474.309	504.972	316.044	315.693	487.057	463.249	204.061	508.432	396.995	473.616	0.0012027	0.0014756	0.000107	1203.8	8.9327e-06	9.42e-06	1583.8	361.95	2.3355e-06	1.502e-05	495.2	155.54	105.71	30.476	1.3121e-05	48.501	0.0012986	0.001638	0.00041463	943.44	1.5362e-05	1.7871e-05	1233.4	281.35	2.1646e-05	1.6902e-05	387.11	121.23	82.676	24.334	1.6534e-05	38.174	362.978	318.579	337.593	178.178	315.363	286.050	176.991	183.428	255.566	306.841	180.177	185.091	187.550	192.656	296.363	189.724	-8191	255	
18393.234	1	1	0	0	0.068111	0.22271	0.10733	0.097996	0.14028	0.19066	0.29631	0.062593	0.47842	0.15571	0.32027	0.21645	0.029356	0.36153	0.034701	0.33887	-2.6729	-3.0271	-2.7396	-3.2271	-2.7771	-2.9188	-3.4854	-3.0958	-3.075	-3.2438	-2.9688	-3.3771	-3.0729	-3.0604	-3.0604	-2.9188	505.152	494.715	242.765	503.097	223.866	380.114	457.292	230.654	438.031	423.791	167.550	494.687	402.827	490.714	331.982	483.315	0.0013826	0.001089	0.00025556	1205.2	1.1439e-05	5.7629e-06	1561.5	359.07	1.3944e-05	6.751e-06	488.32	153.15	104.69	30.804	9.6224e-06	47.912	0.001188	0.0014603	0.00038222	940.5	1.4348e-05	1.5117e-05	1212.7	278.5	1.961e-05	1.4955e-05	382.88	119.77	81.839	24.102	1.7275e-05	37.956	366.805	274.156	232.851	178.278	255.172	263.277	177.206	183.075	312.212	275.460	181.488	185.597	187.699	192.629	248.968	189.948	-8191	255	
18393.355	1	1	0	0	0.13613	0.11426	0.13604	0.13931	0.050332	0.053632	0.31863	0.5075	0.08996	0.20208	0.09267	0.24417	0.17669	0.093296	0.10484	0.24422	-2.6271	-3.0792	-2.7521	-3.1417	-3.0458	-2.8979	-3.2896	-3.1396	-3.1042	-3.0521	-2.9833	-3.3729	-2.9375	-2.9938	-3.2021	-3.0438	338.478	373.602	180.959	513.318	274.564	243.776	489.867	497.909	443.838	422.446	463.747	501.929	473.305	426.050	451.878	437.004	0.0011909	0.00090034	0.00011519	1201.4	3.9028e-06	2.9349e-06	1555.4	354.11	7.633e-06	8.9078e-06	481.89	151.79	104.31	29.897	7.1943e-06	47.414	0.0010617	0.0012443	0.00033715	933.03	1.2368e-05	1.2347e-05	1202.3	274.27	1.8099e-05	1.2544e-05	376.86	118.42	80.745	23.656	1.7272e-05	37.475	362.367	285.904	296.479	178.576	218.243	394.611	176.855	183.168	355.549	274.970	180.768	185.139	187.990	193.247	299.381	189.846	-8191	255	
18393.449	1	1	0	0	0.45021	0.12813	0.029804	0.057426	0.31508	0.10494	0.20808	0.18625	0.042132	0.18951	0.054378	0.079025	0.22033	0.31756	0.31115	0.016336	-2.7104	-3.0708	-2.8208	-3.3875	-2.8896	-3.0042	-3.3438	-3.1146	-3.0625	-2.9792	-2.9333	-3.3812	-3.0062	-2.9208	-3.2604	-3.1813	362.364	378.768	289.018	456.879	452.888	396.682	480.995	479.050	226.251	366.741	167.532	475.587	169.887	467.368	243.893	171.968	0.001185	0.00062395	0.00024957	1183.1	3.1744e-06	8.8235e-06	1530.5	348.2	1.3269e-05	5.3607e-06	479.43	151.67	101.94	29.705	8.3927e-06	46.977	0.00097043	0.0011391	0.00030834	915.16	1.2527e-05	1.2618e-05	1188.9	270.44	1.6036e-05	1.3221e-05	373.46	117.33	79.221	23.562	1.8611e-05	37.164	361.407	295.096	235.520	178.594	318.409	297.258	177.096	182.853	306.360	288.949	181.162	185.387	187.692	192.482	295.366	189.588	-8191	255	
18393.545	1	1	0	0	0.23521	0.11278	0.12363	0.22398	0.18419	0.11659	0.2826	0.3083	0.1532	0.16731	0.13887	0.21613	0.27447	0.16891	0.12357	0.22795	-2.5854	-3.1479	-2.8625	-3.1708	-3.0833	-2.8396	-3.2708	-3.025	-3.0104	-3.2833	-3.0917	-3.2021	-2.975	-2.8708	-3.0917	-3.0854	206.357	208.712	198.333	393.051	182.194	296.219	420.561	486.496	399.713	200.583	520.472	432.586	496.894	480.968	450.970	442.142	0.0013897	0.00059919	0.0002431	1163.5	6.3651e-06	4.977e-06	1511	346.24	8.0918e-06	1.034e-06	484.32	150.33	102.45	29.824	1.141e-05	46.727	0.001063	0.0012366	0.00032582	904.92	1.247e-05	1.4053e-05	1178.4	268.1	1.3356e-05	1.8211e-05	375.57	117.49	79.543	23.675	1.9053e-05	37.122	352.978	314.788	233.791	178.383	280.482	342.697	177.087	183.407	282.369	523.285	181.356	185.355	187.567	193.052	284.756	189.108	-8191	255	
18393.666	1	1	0	0	0.13383	0.22522	0.16879	0.25192	0.21301	0.10119	0.40194	0.19241	0.22236	0.18703	0.090214	0.06709	0.1726	0.32053	0.11018	0.18117	-2.5167	-3.1583	-2.8063	-3.2438	-3.0646	-2.975	-3.4167	-3.1	-2.9813	-3.1542	-3.0271	-3.2792	-3.1604	-2.9562	-3.1583	-3.0521	500.798	278.777	380.507	490.680	523.123	470.158	455.729	228.548	293.919	293.978	170.351	415.052	208.317	445.264	363.136	440.248	0.0011644	0.00078341	0.00018209	1155.9	4.5402e-06	7.6464e-06	1516.1	340.26	2.0767e-05	5.7184e-06	475.12	151.01	101.51	29.822	1.5927e-05	46.929	0.0010404	0.0012451	0.00033882	900.17	1.3379e-05	1.3976e-05	1174.4	267.39	1.2849e-05	1.9141e-05	371.92	117.48	79.289	23.617	2.0189e-05	36.956	362.557	314.330	275.644	178.165	349.143	290.011	176.777	183.315	295.050	424.592	181.299	185.764	187.234	192.829	275.753	189.593	-8191	255	
18393.736	1	1	0	0	0.21802	0.23586	0.31291	0.15228	0.14079	0.12453	0.16597	0.32747	0.16016	0.054193	0.16868	0.080922	0.055836	0.34267	0.21444	0.13709	-2.5083	-3.2438	-2.6	-3.3063	-3.1479	-2.8312	-3.3708	-3.1042	-2.8937	-3.3104	-2.9583	-3.1646	-3.2958	-2.9333	-3.1375	-3.2417	427.803	175.624	395.546	498.926	213.065	398.330	451.376	465.736	450.822	379.850	463.005	524.101	174.692	450.645	349.289	392.755	0.0011951	0.0010795	0.00022251	1146.9	1.5339e-05	8.1619e-06	1507.7	340.92	1.4666e-05	4.7677e-06	474.35	149.34	101.56	29.831	5.0419e-06	46.65	0.0010655	0.0013296	0.00033737	894.34	1.3598e-05	1.4784e-05	1172.7	266.77	1.3364e-05	2.1537e-05	371.68	116.66	79.06	23.63	1.9605e-05	37.082	361.624	254.086	265.979	178.560	282.128	295.252	177.018	183.411	344.996	520.526	181.031	185.563	188.355	192.687	322.461	189.154	-8191	255	
18393.834	1	1	0	0	0.085877	0.10722	0.12685	0.2997	0.12474	0.10478	0.097948	0.15125	0.2177	0.22727	0.031188	0.12528	0.20613	0.22119	0.14086	0.043688	-2.6229	-3.1979	-2.9583	-3.0958	-3.1354	-3.0479	-3.3083	-3.1583	-2.8271	-3.2292	-2.9208	-3.0812	-3.3333	-2.7167	-3.1333	-3.1229	204.308	231.483	275.782	470.952	167.409	472.664	449.489	397.007	488.909	287.291	524.323	501.385	492.041	468.675	281.404	203.992	0.0011613	0.00099677	3.22e-05	1156.2	2.181e-06	3.1867e-06	1513.8	341.92	1.9769e-05	1.5181e-06	476.05	149.68	101.82	29.803	1.3873e-05	46.986	0.0011193	0.0012902	0.00035138	897.43	1.8091e-05	1.4477e-05	1176.1	266.68	1.2449e-05	1.9694e-05	371.51	117.1	79.098	23.575	2.0597e-05	37.123	364.696	286.310	351.348	178.317	397.950	252.415	176.731	183.091	295.677	429.167	181.010	185.528	187.990	193.039	308.416	189.206	-8191	255	
18393.930	1	1	0	0	0.21277	0.23976	0.24972	0.32675	0.20436	0.10598	0.39379	0.24004	0.089032	0.04044	0.17139	0.33524	0.0035205	0.12952	0.17227	0.20597	-2.5146	-2.9562	-3.0375	-2.9771	-3.2292	-2.9396	-3.2417	-3.225	-2.9688	-3.2375	-3.2896	-2.9292	-3.2396	-2.9896	-3.0625	-3.2271	208.529	324.603	524.284	460.458	400.796	459.493	428.054	491.548	235.454	232.361	398.826	438.753	200.891	253.465	486.013	181.668	0.0012647	0.0010713	0.00028905	1146.3	8.3275e-06	9.0322e-06	1507.1	340.84	1.2905e-05	3.4264e-06	473.07	149.77	100.11	29.739	1.536e-06	47.375	0.0010223	0.0012866	0.00034131	892.61	1.7531e-05	1.2839e-05	1173.9	265.32	1.1723e-05	2.0522e-05	371.09	116.74	78.54	23.495	1.6574e-05	37.231	364.794	260.531	287.836	178.322	380.462	251.333	177.334	183.080	369.710	360.976	181.097	185.404	187.526	192.686	265.758	189.601	-8191	255	
18394.051	1	1	0	0	0.10865	0.11579	0.3626	0.32467	0.11809	0.19452	0.25038	0.13443	0.094616	0.088571	0.19452	0.2295	0.18227	0.12676	0.22849	0.11787	-2.3875	-3.2354	-3.0271	-2.8896	-3.0458	-3.0021	-3.3479	-3.3083	-2.9708	-3.1646	-3.1083	-3.0021	-3.3042	-2.9229	-3.0062	-3.3146	297.783	322.335	332.812	521.284	179.022	485.823	458.199	475.183	404.714	508.267	522.316	427.077	499.101	413.096	260.933	480.015	0.0012717	0.00093308	0.00020282	1145.5	6.8738e-06	6.6769e-06	1492.1	336.5	1.19e-05	2.7077e-06	474.03	145.68	99.244	29.645	1.0605e-05	46.153	0.0010273	0.0013068	0.00033823	887.05	1.9397e-05	1.3616e-05	1163.6	261.85	1.2642e-05	1.9831e-05	366.44	114.24	77.431	23.385	1.433e-05	36.671	352.389	274.322	244.454	178.350	409.376	299.526	177.014	183.133	285.544	404.913	181.044	185.851	188.471	192.786	322.448	188.968	-8191	255	
18394.146	1	1	0	0	0.10735	0.16588	0.12133	0.20303	0.16363	0.38517	0.27606	0.19885	0.17845	0.18411	0.13743	0.034273	0.031546	0.098997	0.21248	0.20202	-2.2854	-2.9917	-3.0083	-2.9021	-3.0146	-3.0083	-3.1458	-3.175	-2.9021	-3.3729	-3.225	-2.9062	-3.1708	-2.8167	-2.9083	-3.2375	462.128	486.502	491.708	446.197	342.610	401.945	419.976	507.883	269.181	290.096	493.096	166.335	499.337	468.333	220.082	469.598	0.0011312	0.00036967	0.00036662	1122	6.842e-06	5.7787e-06	1484.5	337.84	1.3098e-05	1.3192e-06	468.12	147.2	99.308	29.291	4.9531e-06	46.19	0.0011423	0.001336	0.00035953	873.58	1.8999e-05	1.4454e-05	1151.3	261.63	1.3146e-05	2.1547e-05	365.98	114.92	77.403	23.176	1.3452e-05	36.86	359.035	248.958	226.424	178.488	395.099	320.232	176.976	183.601	328.359	180.640	180.798	185.825	187.981	192.961	384.020	189.335	-8191	255	
18394.242	1	1	0	0	0.062452	0.24181	0.091804	0.2538	0.21517	0.17653	0.40533	0.20043	0.075965	0.223	0.45153	0.068525	0.15247	0.19636	0.15463	0.28939	-2.425	-3.2021	-3.0229	-3.0646	-3.1063	-3.2021	-3.2542	-3.3563	-2.8854	-3.0125	-3.2396	-3.1604	-3.2083	-3.1937	-2.8583	-3.4125	194.750	508.292	255.673	471.932	435.908	316.079	447.799	469.605	514.120	328.731	442.318	437.221	450.694	231.057	358.182	446.041	0.0013187	0.00053497	0.00017795	1137.2	1.4569e-05	2.7442e-06	1486.4	336.57	1.14e-05	1.0279e-05	467.79	146.6	100.17	29.653	6.8623e-06	46.35	0.0010456	0.001281	0.0003686	883.65	1.9353e-05	1.3382e-05	1157.4	262.61	1.323e-05	1.9058e-05	367.06	114.46	78.203	23.398	1.3435e-05	37.023	361.217	199.506	240.803	178.033	379.499	325.832	177.242	183.382	361.075	278.182	180.817	185.269	187.774	192.790	338.766	189.578	-8191	255	
18394.314	1	1	0	0	0.2843	0.23233	0.017731	0.36784	0.029354	0.19078	0.13187	0.33856	0.27825	0.080987	0.30828	0.092728	0.20862	0.26298	0.073772	0.33994	-2.3958	-3.0042	-3.1729	-2.8771	-3.1208	-3.0667	-3.0833	-3.3792	-3.0042	-3.1312	-3.1792	-3.0021	-3.1	-3.1083	-2.9083	-3.1312	370.335	396.764	313.701	468.082	371.279	515.127	480.298	453.976	491.631	357.332	181.275	352.790	168.006	356.790	379.279	494.133	0.00099234	0.00030952	8.2102e-05	1137.5	5.5183e-06	3.1209e-06	1495	335.09	9.7294e-06	2.1098e-06	466.51	148.81	100.33	29.648	9.7285e-06	46.937	0.0010739	0.0013591	0.00033229	883.1	1.7417e-05	1.4349e-05	1163.7	262.18	1.3469e-05	1.3747e-05	368.14	115.4	78.19	23.497	1.3102e-05	37.229	364.896	314.867	279.421	177.951	303.256	191.200	177.322	183.012	329.018	278.362	181.310	185.364	188.052	192.886	301.323	189.520	-8191	255	
18394.434	1	1	0	0	0.28928	0.24434	0.078746	0.21171	0.14206	0.22477	0.34538	0.15878	0.16738	0.17171	0.1897	0.25191	0.15339	0.23034	0.20885	0.16595	-2.6333	-2.9813	-3.1396	-2.9688	-3.0563	-3.0479	-3.0646	-3.1437	-2.8375	-2.9562	-3.1646	-2.8875	-3.2167	-3.3354	-2.875	-3.1729	174.905	489.396	183.817	439.181	506.512	377.235	417.146	464.726	220.462	483.683	427.773	456.084	411.193	357.705	317.795	496.009	0.0011747	0.00078474	8.0517e-05	1145.5	1.2344e-05	7.1269e-06	1491.4	341.03	1.3456e-05	4.1522e-06	472.22	147.97	100.75	29.48	5.6291e-06	46.307	0.0010251	0.0012413	0.00032267	888.77	1.8113e-05	1.3258e-05	1163	264.33	1.1808e-05	1.2717e-05	368.31	115.39	77.761	23.227	1.1516e-05	36.637	348.361	316.369	298.163	178.089	365.944	302.547	177.120	183.531	319.072	264.554	180.785	185.643	187.770	193.377	277.631	189.673	-8191	255	
18394.529	1	1	0	0	0.2301	0.092718	0.06486	0.095323	0.10706	0.17666	0.20158	0.30197	0.13883	0.13776	0.18558	0.059133	0.12724	0.20659	0.16389	0.03807	-2.5833	-3.0979	-3.1813	-3.0479	-2.95	-3.225	-2.9479	-3.2313	-3.0667	-2.8229	-3.25	-2.9667	-3.1437	-3.2542	-2.8875	-3.2313	469.801	333.633	424.087	375.382	367.152	331.940	470.773	482.483	419.028	346.177	183.291	295.268	477.559	521.754	414.045	199.108	0.00095397	0.00088314	0.00017988	1139.5	8.2621e-06	8.0917e-06	1488.5	338.87	1.2978e-05	8.1946e-06	465.93	145.79	98.411	29.233	1.1653e-05	46.336	0.00095737	0.0011073	0.00029893	883.32	1.3674e-05	1.2942e-05	1153.9	262.55	1.0614e-05	1.12e-05	366.29	114.05	76.77	23.149	1.0196e-05	36.573	364.631	240.952	283.830	177.836	452.566	325.047	177.163	183.175	348.978	331.905	181.374	185.788	187.587	192.800	307.725	189.436	-8191	255	
18394.627	1	1	0	0	0.112	0.070286	0.093396	0.40073	0.022315	0.12677	0.15222	0.11562	0.18949	0.19489	0.22663	0.21662	0.047362	0.1708	0.098045	0.098684	-2.7917	-2.9854	-3.2625	-2.9917	-2.95	-3.2167	-2.9667	-3.1125	-2.9396	-3.0229	-3.1521	-2.9875	-3.025	-3.2125	-2.9646	-3.2104	325.981	283.798	311.576	180.141	477.542	238.051	474.453	476.155	235.069	470.816	169.580	446.676	330.067	499.782	421.235	519.852	0.0013436	0.00090306	0.00014841	1132.2	8.376e-06	3.4142e-06	1487.8	335.51	2.6589e-05	3.5292e-06	472.58	146.79	99.445	29.102	9.1488e-06	46.173	0.00087529	0.00098344	0.00027837	880.31	9.7272e-06	1.644e-05	1153.9	261.77	9.4623e-06	1.0637e-05	368.23	114.44	77.632	22.98	9.8276e-06	36.552	358.386	226.267	255.092	178.297	322.922	518.586	177.337	183.452	334.267	311.926	180.844	185.652	187.774	192.492	299.798	189.764	-8191	255	
18394.746	1	1	0	0	0.20391	0.059983	0.076968	0.18097	0.12655	0.040949	0.24878	0.058494	0.083039	0.16233	0.14855	0.050647	0.05706	0.27668	0.17005	0.17308	-2.3625	-2.8625	-3.1979	-3.1479	-3.0917	-3.0917	-3.0646	-3.1104	-3.1333	-2.8458	-3.2979	-3.1562	-3.0583	-3.2562	-2.8854	-3.2979	207.532	258.347	351.752	441.941	461.680	391.875	447.169	432.136	463.821	440.103	442.906	446.047	195.473	486.861	238.690	474.379	0.0011681	0.0010942	0.00015726	1146.6	1.0267e-05	6.1964e-06	1509.4	337.62	1.3816e-05	5.8443e-06	475.51	147.85	100.44	29.431	6.9052e-06	46.216	0.00085392	0.00095219	0.00028523	888.33	1.0581e-05	1.691e-05	1166.4	263.23	1.0025e-05	1.0519e-05	371.67	115.26	78.166	23.159	1.0467e-05	36.673	369.279	276.949	254.335	178.291	326.010	346.890	176.897	183.345	271.737	269.927	180.964	185.435	187.900	192.614	293.337	189.796	-8191	255	
18394.842	1	1	0	0	0.24548	0.16795	0.1794	0.34224	0.14344	0.22955	0.41198	0.26641	0.16417	0.11858	0.12051	0.30687	0.094239	0.27517	0.35117	0.10126	-2.75	-2.9333	-3.0917	-2.9938	-2.9688	-3.3125	-3.0896	-3.0521	-3.1604	-2.9771	-3.3146	-3.1021	-3.0583	-3.1292	-2.7771	-3.1333	247.122	415.153	305.359	494.839	280.387	479.888	458.073	463.287	235.494	493.687	395.225	476.609	519.441	450.753	385.729	505.084	0.001166	0.00092342	0.00013647	1159.6	3.0245e-06	4.7174e-06	1499.8	337.37	1.0405e-05	2.0994e-06	466.79	147.87	98.904	29.166	1.8194e-06	46.163	0.00098306	0.00091514	0.00025121	891.92	1.0178e-05	1.803e-05	1163.1	263.04	9.8511e-06	1.0626e-05	366.66	115.12	77.323	23.127	9.8776e-06	36.635	355.686	255.338	247.789	178.495	254.632	368.925	176.976	183.240	320.966	298.673	180.587	185.187	187.826	192.949	292.847	189.329	-8191	255	
18394.914	1	1	0	0	0.13349	0.029929	0.21856	0.29196	0.014949	0.11307	0.14635	0.4644	0.11022	0.11861	0.18377	0.15719	0.059451	0.1075	0.22493	0.15114	-2.7042	-2.7917	-3.1292	-3.175	-2.8958	-3.2833	-3.2083	-3.1333	-3.0708	-2.8083	-3.3146	-3.175	-2.9437	-3.1625	-2.9458	-3.0292	185.244	353.482	313.352	504.759	468.973	400.335	470.871	458.155	339.310	511.682	440.480	187.978	192.347	303.314	485.801	369.890	0.0013423	0.0012328	0.0001137	1140	7.769e-06	6.7496e-06	1486.4	339.71	1.8341e-05	3.3741e-06	473.7	146.51	100.01	29.33	8.0328e-06	45.904	0.0012491	0.00089326	0.00025547	884.19	9.9504e-06	1.6143e-05	1152.3	263.42	9.2887e-06	1.0124e-05	368.85	114.7	78.005	23.184	9.9077e-06	36.358	358.394	261.871	220.836	178.647	302.912	377.350	177.067	183.063	295.580	292.669	181.057	185.751	187.908	193.112	311.352	190.071	-8191	255	
18395.035	1	1	0	0	0.29391	0.043015	0.088152	0.17293	0.25407	0.05436	0.28396	0.075914	0.073524	0.21515	0.1739	0.27855	0.1305	0.28059	0.065852	0.24813	-2.6417	-2.7417	-3.1271	-3.1688	-2.8792	-3.1354	-3.2042	-3.1333	-3.1437	-3.0896	-3.2125	-3.0833	-2.7917	-3.0896	-3.1042	-2.8604	472.722	248.152	388.107	455.103	223.587	432.256	475.585	259.659	385.863	300.797	511.668	463.221	338.473	178.821	345.155	458.563	0.0013303	0.00071023	0.00015714	1137.7	7.7663e-06	3.969e-06	1487.3	338.54	1.139e-05	8.7112e-06	468.79	147.3	99.79	29.427	5.6031e-06	46.538	0.0011792	0.00094303	0.00024909	881.95	9.9927e-06	1.8016e-05	1156.7	263.52	9.4245e-06	1.0749e-05	367.58	114.73	77.375	23.237	1.0006e-05	36.649	363.626	279.348	231.921	178.018	297.235	439.570	176.916	183.486	290.563	337.279	181.318	185.724	187.943	192.406	328.299	189.801	-8191	255	
18395.131	1	1	0	0	0.13859	0.13475	0.31573	0.32255	0.14104	0.059615	0.32104	0.24004	0.035192	0.40456	0.10282	0.26786	0.15391	0.16569	0.12751	0.039703	-2.8812	-2.9771	-3.0187	-3.1937	-2.7812	-3.1896	-3.2188	-2.9417	-3.3396	-2.7812	-2.975	-3.1333	-2.95	-3.2021	-2.9896	-2.9833	203.977	225.284	269.332	484.191	422.497	277.981	493.258	440.721	393.699	448.510	336.738	481.769	492.842	441.884	223.765	364.880	0.0011494	0.00041925	0.00010986	1139.9	6.6435e-06	4.4391e-06	1497.6	336.87	1.3032e-05	8.5714e-06	471.09	146.14	99.819	29.341	1.036e-05	46.192	0.001194	0.00093744	0.00026243	885.14	9.9817e-06	1.4978e-05	1163	262.08	9.5713e-06	1.0324e-05	368.08	115.11	77.301	23.127	9.2021e-06	36.539	361.549	336.626	253.744	177.877	245.891	333.548	177.221	183.287	276.250	284.208	181.044	185.775	187.594	192.842	324.135	189.819	-8191	255	
18395.227	1	1	0	0	0.073264	0.084367	0.2593	0.22149	0.23494	0.14553	0.22039	0.29742	0.22937	0.33485	0.11393	0.20481	0.32046	0.18122	0.12225	0.049178	-2.9062	-2.9167	-2.8688	-3.1708	-2.9396	-3.125	-3.2083	-2.9792	-3.1667	-2.95	-3.0375	-3.3354	-3.0833	-3.2208	-3.1833	-2.9667	274.253	220.875	384.662	187.975	292.290	454.674	492.839	466.525	377.068	338.715	477.861	439.227	494.779	522.918	442.139	297.507	0.0012684	0.00085741	0.00032169	1142.1	9.3112e-06	2.7732e-06	1495.8	338.04	9.4738e-06	8.0879e-06	466.09	147.83	98.454	29.355	6.392e-06	46.579	0.0011298	0.00090528	0.00024549	882.41	8.85e-06	1.6643e-05	1161.7	262.37	9.4022e-06	1.022e-05	365.39	115.17	76.911	23.2	9.3923e-06	36.709	368.871	256.793	248.940	178.236	296.870	173.815	177.335	183.177	294.925	266.669	181.483	185.811	187.937	192.929	279.532	189.887	-8191	255	
18395.348	1	1	0	0	0.29034	0.061414	0.21055	0.267	0.2493	0.047556	0.23615	0.45312	0.10074	0.11901	0.23461	0.30184	0.19028	0.13832	0.14151	0.14188	-2.7792	-2.825	-2.9021	-3.3937	-2.8417	-3	-3.3354	-3.075	-3.2021	-3.0917	-3.1125	-3.1562	-2.8937	-3.0438	-3.3729	-2.8583	354.880	186.850	479.851	182.452	355.837	255.720	451.959	477.357	186.576	289.386	494.814	500.363	240.843	442.238	291.020	523.946	0.00095417	0.00018064	6.7646e-05	1136.7	8.3228e-06	1.1684e-05	1486	336.36	1.656e-05	5.6303e-06	469.97	145.62	98.659	29.53	2.3336e-06	46.36	0.0012452	0.00094602	0.00024421	879.95	9.055e-06	1.2826e-05	1155.5	261.26	9.2838e-06	1.0041e-05	366.39	114.27	77.162	23.172	1.0103e-05	36.489	369.344	245.381	226.948	178.311	306.102	358.340	176.959	183.129	271.969	304.033	181.383	185.238	187.428	192.846	288.501	189.504	-8191	255	
18395.441	1	1	0	0	0.13657	0.15845	0.14481	0.01161	0.20064	0.18926	0.44054	0.35449	0.18748	0.35228	0.18382	0.41695	0.27625	0.10192	0.087582	0.21203	-2.8083	-3.0229	-2.875	-3.3812	-3.1688	-3.2417	-3.2167	-3.0625	-3.075	-3.1646	-2.9667	-3.3625	-2.8875	-3.0229	-3.1604	-3.0292	501.912	255.919	516.851	413.837	357.165	205.245	473.524	175.543	345.186	315.501	510.675	450.858	485.784	420.739	451.066	351.815	0.0011132	0.0010335	0.00033433	1131.8	7.6785e-06	1.1033e-05	1481.5	336.12	1.7311e-05	4.8585e-06	464.07	145.29	97.694	29.068	3.3284e-06	46.054	0.0011318	0.00098253	0.00023922	875.86	9.4095e-06	1.0663e-05	1149.9	260.81	9.6548e-06	1.0419e-05	362.84	113.52	76.224	23.043	9.8663e-06	36.359	368.410	283.085	242.293	178.469	337.528	344.598	177.137	183.032	293.722	364.442	181.339	185.119	187.476	193.002	391.364	189.600	-8191	255	
18395.537	1	1	0	0	0.018673	0.25602	0.23524	0.21911	0.14735	0.11669	0.42014	0.37145	0.085055	0.14177	0.068404	0.18445	0.12109	0.23507	0.10857	0.06238	-2.6979	-3.0833	-2.7812	-3.2562	-2.9229	-2.9958	-3.4292	-2.8563	-3.1854	-3.1521	-2.7562	-3.2271	-3.1333	-3.0292	-3.1479	-2.9354	357.679	325.700	214.807	472.843	460.191	297.131	512.048	184.942	435.470	383.930	220.787	462.728	379.959	402.858	399.155	285.832	0.00078585	0.00068136	0.00016023	1141.2	1.263e-05	4.8431e-06	1482.6	337.31	1.4773e-05	4.778e-06	468.18	144.27	98.707	29.388	7.1108e-06	46.59	0.0012686	0.00088547	0.00024932	878.44	9.5654e-06	1.0148e-05	1152.6	261.56	9.1155e-06	1.018e-05	364.47	114.04	76.707	23.205	9.1747e-06	36.754	364.688	278.963	241.258	178.045	322.943	388.412	176.892	182.697	321.713	348.431	180.256	185.590	187.572	192.995	321.271	189.906	-8191	255	
18395.609	1	1	0	0	0.18401	0.12228	0.03853	0.28065	0.029129	0.28887	0.20322	0.30847	0.11325	0.061242	0.23775	0.43881	0.046646	0.17333	0.1447	0.070864	-2.5896	-3.0458	-2.7979	-3.1979	-3.0187	-3.1	-3.1104	-2.9083	-3.0396	-3	-3.0167	-3.1896	-3.0646	-3.0687	-3.2687	-2.975	445.495	371.340	494.089	170.079	309.627	335.435	398.616	500.497	408.258	500.614	508.603	521.265	171.690	165.582	401.894	395.455	0.0010219	0.00079765	0.00027894	1135.6	2.5156e-06	7.0263e-06	1487	336.62	1.1688e-05	9.8482e-06	472.46	146	99.46	29.384	5.8625e-06	47.046	0.00091299	0.0010738	0.0002539	878.47	9.6073e-06	1.0014e-05	1156.5	261.41	9.4027e-06	9.8871e-06	367.1	114.47	76.837	23.299	9.1368e-06	37.036	355.721	290.473	289.045	178.830	295.151	298.571	177.255	183.145	307.553	397.466	180.967	185.785	187.447	193.160	330.196	189.642	-8191	255	
18395.730	1	1	0	0	0.1766	0.17102	0.078291	0.30932	0.047904	0.15625	0.28854	0.32904	0.084091	0.23089	0.23902	0.054154	0.14228	0.15758	0.10346	0.22646	-2.5833	-3.1312	-2.7271	-3.1521	-3.0354	-3.0396	-3.3396	-2.975	-2.9354	-3.0333	-3.0687	-3.3896	-2.9625	-3.0187	-3.3812	-2.9833	267.605	362.279	372.436	491.339	221.845	171.018	441.821	183.104	271.495	167.505	522.570	513.815	515.576	505.448	351.060	462.638	0.0013399	0.0010254	0.0002335	1130.6	4.2687e-06	8.2274e-06	1477.4	336.06	1.007e-05	1.1537e-05	466.82	146.61	98.651	29.359	4.8273e-06	46.533	0.0008246	0.0014533	0.00025298	875.92	9.5772e-06	9.8094e-06	1151.5	261.75	9.4784e-06	9.6828e-06	364.79	114.27	76.802	23.215	9.3988e-06	36.764	358.322	311.746	241.844	178.122	309.365	255.893	177.313	183.364	311.243	325.357	181.448	185.859	187.927	193.041	316.394	189.076	-8191	255	
18395.826	1	1	0	0	0.10594	0.17722	0.1254	0.23473	0.063357	0.17631	0.14207	0.28529	0.30292	0.17186	0.13434	0.073839	0.18711	0.13652	0.02181	0.3118	-2.4062	-3.1896	-2.8229	-3.2292	-3.0521	-2.7729	-3.4958	-3.2292	-2.8688	-3.3208	-2.9021	-3.1854	-3.1292	-2.8854	-3.2062	-3.0875	183.962	436.285	516.817	515.488	217.451	260.839	460.921	459.560	261.566	460.864	319.434	191.842	492.826	328.150	470.125	420.137	0.0011488	0.0011811	0.00029547	1134.2	7.1391e-06	2.8611e-06	1489.1	339.51	6.9527e-06	3.356e-06	470.96	146.18	99.801	29.311	7.0873e-06	46.381	0.00079919	0.0013854	0.00024853	880.9	9.2541e-06	9.9636e-06	1156.4	261.79	9.4306e-06	1.0462e-05	364.62	114	77.038	23.134	9.6065e-06	36.592	369.277	251.892	261.867	178.392	284.539	381.668	176.758	183.461	351.564	312.509	181.491	185.892	187.912	192.999	345.762	189.106	-8191	255	
18395.924	1	1	0	0	0.15137	0.38224	0.26887	0.18583	0.12835	0.057759	0.30864	0.19564	0.14738	0.055057	0.16659	0.19854	0.098743	0.065168	0.29308	0.045171	-2.4813	-3.0479	-2.7042	-3.1417	-2.9208	-2.9021	-3.2375	-3.0646	-2.8063	-3.0917	-3.0229	-3.0583	-3.0896	-2.8583	-3.2542	-3.1292	323.308	295.613	438.820	444.914	352.299	183.294	390.220	169.722	219.764	296.549	494.355	520.111	172.103	182.138	274.262	257.686	0.0011088	0.0012558	0.0001388	1125.2	5.0851e-06	1.7754e-06	1482.7	336.72	1.1698e-05	4.6653e-06	467.33	145.94	98.515	29.461	1.3877e-05	46.34	0.00082015	0.0015088	0.0002458	877.78	9.7577e-06	1.0481e-05	1156.4	261.62	1.0072e-05	1.0432e-05	365.18	113.27	77.235	23.272	9.4319e-06	36.668	366.917	289.506	314.583	178.540	309.858	385.818	176.961	183.262	316.242	291.113	181.138	186.023	187.642	192.912	328.806	189.389	-8191	255	
18396.020	1	1	0	0	0.27764	0.20524	0.18799	0.30941	0.011149	0.11338	0.36695	0.30285	0.10436	0.36208	0.13849	0.23822	0.064952	0.32067	0.19904	0.29944	-2.5958	-3.1354	-2.7458	-2.9458	-3.1958	-2.6937	-3.1375	-3.1354	-2.8542	-3.0646	-2.8937	-3.025	-3.1937	-2.9688	-3.2479	-3.0542	496.252	292.637	363.737	479.607	507.724	295.720	403.836	521.388	306.931	419.113	509.612	512.491	488.050	450.041	424.875	438.268	0.0011921	0.0010746	0.00022109	1137	7.8203e-06	7.9796e-06	1493.4	337.63	1.438e-05	7.6135e-06	469.35	146.08	98.598	29.47	5.6848e-06	46.858	0.00081132	0.001478	0.00027204	880.8	1.0007e-05	1.0177e-05	1161.4	261.23	9.819e-06	1.1375e-05	366.6	114.04	77.103	23.259	9.9055e-06	36.793	362.409	306.125	230.633	178.376	336.367	323.613	177.036	183.475	404.366	322.769	181.140	185.934	187.938	193.097	310.612	190.110	-8191	255	
18396.139	1	1	0	0	0.19918	0.16444	0.28126	0.18422	0.13196	0.26326	0.27823	0.17525	0.21896	0.25494	0.15941	0.076531	0.074151	0.090337	0.092801	0.23786	-2.3896	-3.0229	-2.8667	-2.9688	-3.3479	-2.9208	-3.2625	-3.0042	-2.7875	-3.1937	-2.9979	-3.0729	-3.2521	-2.8979	-3.0979	-3.1771	289.456	274.321	519.077	484.961	320.816	270.531	474.417	173.654	228.872	466.455	452.396	271.514	263.359	442.764	369.690	379.880	0.0012712	0.0011882	0.00026283	1148	6.9136e-06	3.0433e-06	1485.1	336.74	1.9812e-05	4.1627e-06	464.66	146.33	98.841	29.065	1.8947e-06	46.357	0.00091263	0.0015357	0.00028359	883.27	1.0069e-05	1.0955e-05	1155.7	261.36	1.0455e-05	1.1323e-05	364.37	113.8	77.266	23.194	1.0748e-05	36.638	359.193	263.614	279.679	178.581	246.712	372.246	177.342	183.265	298.389	355.285	181.481	185.553	188.009	193.205	355.005	189.592	-8191	255	
18396.211	1	1	0	0	0.17308	0.24358	0.26226	0.075912	0.1065	0.22469	0.30874	0.3745	0.22162	0.13547	0.2185	0.19357	0.18375	0.22172	0.11957	0.014839	-2.4479	-3.0854	-2.975	-2.8875	-3.2146	-3.0104	-3.1167	-3.0187	-2.9167	-3.0563	-3.1688	-2.9833	-3.2875	-3.0479	-3.0042	-3.2083	316.005	486.111	496.756	279.116	211.898	470.691	485.106	447.312	435.566	238.363	393.917	424.896	201.516	180.501	506.841	184.317	0.00097178	0.00059646	0.00021791	1140.5	9.823e-06	6.194e-06	1485.2	339.71	3.6176e-06	6.4028e-06	465.17	146.82	98.748	29.356	3.6947e-06	46.38	0.00092357	0.0016364	0.00030056	880.1	1.1673e-05	1.2355e-05	1152.7	263.12	1.1414e-05	1.3174e-05	364.27	114.37	77.04	23.261	1.2902e-05	36.614	363.954	303.102	286.160	178.382	292.862	324.057	177.392	183.528	261.193	313.387	181.145	186.169	187.733	192.807	324.276	189.405	-8191	255	
18396.307	1	1	0	0	0.29319	0.10595	0.13191	0.10094	0.18662	0.16298	0.28815	0.33116	0.17015	0.18965	0.12368	0.18046	0.18765	0.12774	0.1966	0.16119	-2.5146	-2.9729	-3.0042	-2.95	-3.2833	-3.0146	-3.1229	-3.2104	-2.7396	-3.1396	-3.1833	-2.9375	-3.1458	-2.9792	-3.1167	-3.1646	272.878	261.898	477.135	351.457	307.003	451.496	484.146	469.693	446.115	355.849	181.578	513.142	478.098	413.215	209.354	371.268	0.0010193	0.00035182	0.00013503	1139.6	1.1574e-05	6.2247e-06	1483.4	333.77	1.9492e-05	4.5412e-06	463.94	146.2	97.292	29.094	6.9756e-06	46.517	0.0010624	0.0018036	0.00034237	881.75	1.3178e-05	1.4195e-05	1151.8	261.38	1.3171e-05	1.4585e-05	364.82	114.26	76.726	23.162	1.4297e-05	36.765	363.895	361.203	239.962	178.343	316.212	325.537	176.864	183.329	321.709	296.592	181.287	185.473	187.853	192.933	291.726	190.143	-8191	255	
18396.428	1	1	0	0	0.14008	0.12588	0.10407	0.047709	0.14396	0.17781	0.2233	0.24875	0.24649	0.23294	0.28813	0.12607	0.10733	0.27117	0.14242	0.16947	-2.3187	-3.0292	-2.9583	-3.1125	-3.2062	-3.1042	-2.9167	-3.2479	-2.7667	-3.0875	-3.0125	-2.9896	-3.3937	-2.9854	-2.8354	-3.1188	438.611	441.031	410.303	177.534	297.144	463.064	492.268	516.561	201.784	253.709	429.557	462.069	434.796	219.608	298.654	455.543	0.0010901	0.0011003	0.00014606	1134	5.5059e-06	6.2819e-06	1490.2	335.58	1.5798e-05	1.2569e-05	467.37	145.97	98.625	29.234	6.4363e-06	46.545	0.0011684	0.0015144	0.00047887	880.61	1.4609e-05	1.5549e-05	1156.6	262.5	1.4936e-05	1.6206e-05	366.1	113.89	77.481	23.235	1.5994e-05	36.896	357.480	284.398	178.405	178.281	246.988	256.087	177.381	183.408	289.810	296.414	181.171	185.461	188.421	192.835	318.921	189.841	-8191	255	
18396.521	1	1	0	0	0.14624	0.26882	0.21535	0.1593	0.28274	0.086063	0.28424	0.076513	0.14394	0.38341	0.32848	0.17317	0.20893	0.087019	0.049987	0.13264	-2.5521	-2.8646	-3.05	-2.95	-3.1771	-2.9896	-3.0792	-3.3125	-2.8104	-3.0563	-3.0854	-2.9021	-3.0417	-3.0479	-2.7375	-3.1021	380.025	216.021	339.636	190.085	360.901	475.015	427.129	384.851	380.324	303.505	470.672	417.248	233.936	372.147	312.613	440.660	0.0011848	0.0008715	0.00024906	1127.4	6.9648e-06	5.9914e-06	1490.6	333.05	6.8105e-06	1.4473e-05	465.3	145.67	97.755	29.437	4.3155e-06	46.14	0.0012056	0.0014705	0.000582	877.58	1.6504e-05	1.728e-05	1157.9	260.11	1.5297e-05	1.8286e-05	365.67	113.84	76.826	23.332	1.6317e-05	36.647	369.091	283.109	300.987	178.045	397.603	306.764	177.227	183.696	328.243	282.408	180.971	185.628	187.680	192.899	270.491	189.673	-8191	255	
18396.617	1	1	0	0	0.1091	0.12301	0.19886	0.43796	0.18065	0.11388	0.4448	0.18176	0.15853	0.36066	0.13635	0.087457	0.16774	0.15494	0.20059	0.1526	-2.2708	-2.8896	-3.1208	-2.975	-3.0271	-2.8875	-3.0438	-3.1979	-3.0854	-2.9521	-3.1875	-2.9354	-3.15	-3.0812	-2.7188	-3.1625	489.156	431.981	443.056	482.652	294.250	230.049	494.557	507.472	344.334	234.300	470.555	169.424	490.754	466.643	250.217	507.077	0.0011479	0.0009395	4.5e-05	1130.2	1.0625e-05	4.9851e-06	1480.1	333.95	1.8486e-05	7.6322e-06	462.45	143.8	98.232	29.599	4.5697e-06	46.284	0.0013061	0.0015464	0.00057027	877.22	1.6063e-05	1.7243e-05	1152.2	261.01	1.6106e-05	1.8271e-05	364.66	112.83	76.89	23.38	1.7232e-05	36.637	368.121	242.895	270.161	178.183	290.899	331.568	176.920	182.599	317.773	385.355	180.864	185.635	187.938	192.558	363.606	189.736	-8191	255	
18396.715	1	1	0	0	0.21917	0.12715	0.27637	0.31776	0.22462	0.082767	0.20731	0.21852	0.10329	0.15815	0.23833	0.2383	0.2515	0.26413	0.10956	0.062824	-2.625	-2.9	-3.025	-2.8667	-3.0292	-3.275	-3.1	-3.4021	-2.9333	-2.8875	-3.3125	-3.0354	-3.1	-3.2188	-2.8604	-3.2729	426.675	479.018	247.461	523.109	335.009	202.060	480.190	165.254	515.471	332.820	172.062	478.269	225.898	389.308	307.179	496.582	0.0011155	0.00047978	0.00014419	1122.9	1.4351e-05	1.3229e-05	1477.5	336.43	8.4099e-06	1.2871e-05	465.93	144.99	97.908	29.462	8.4636e-06	46.531	0.0012799	0.0015637	0.00061123	872.38	1.6821e-05	1.7603e-05	1150.4	261.45	1.6194e-05	1.7924e-05	363.72	113.44	76.641	23.365	1.7221e-05	36.802	355.863	296.031	382.776	178.186	296.953	347.610	177.088	183.041	279.729	302.176	181.224	185.396	187.730	192.713	367.299	189.702	-8191	255	
18396.836	1	1	0	0	0.36278	0.27593	0.16125	0.33619	0.2475	0.066589	0.25646	0.24247	0.18664	0.16237	0.30443	0.1162	0.074643	0.087321	0.12621	0.38533	-2.5896	-3.0396	-3.1813	-3.0187	-2.9667	-3.0979	-3.0667	-3.2687	-2.9604	-2.7708	-3.2812	-2.9521	-2.9021	-3.2042	-2.7687	-3.3667	435.712	393.949	478.300	413.750	484.534	271.472	445.681	466.661	486.908	177.440	382.645	483.694	472.469	359.432	207.557	492.704	0.0012966	0.00036184	0.00019233	1121.4	1.2304e-05	2.8903e-06	1487.5	333.01	1.1805e-05	8.1499e-06	467.86	145.68	98.233	29.584	1.1049e-05	46.66	0.001293	0.0016386	0.00058122	875.05	1.7406e-05	1.8157e-05	1155.4	260.57	1.6918e-05	1.8613e-05	366.89	113.73	76.83	23.507	1.7336e-05	36.79	361.895	282.819	246.704	178.570	313.720	400.400	176.737	183.393	271.914	288.058	181.525	185.777	187.925	192.955	293.613	189.764	-8191	255	
18396.906	1	1	0	0	0.16957	0.0247	0.26216	0.19771	0.066333	0.099949	0.23186	0.26741	0.12558	0.2268	0.31939	0.162	0.17999	0.16181	0.19948	0.16501	-2.775	-2.9167	-2.9833	-3.1562	-3.0375	-3.2938	-3.0604	-3.3479	-3.175	-2.7021	-3.2271	-2.9646	-2.9958	-3.1271	-2.7917	-3.1417	298.397	235.347	420.511	463.522	225.601	371.059	441.272	505.353	498.880	514.314	190.468	472.494	370.418	413.467	362.077	402.182	0.00092365	0.00058404	0.00023085	1122	5.4894e-06	5.8111e-06	1489	333.18	2.0488e-05	5.6337e-06	466.41	144.49	97.107	29.415	4.1383e-06	46.572	0.0013027	0.0017336	0.00063367	876.65	1.7615e-05	1.886e-05	1157.6	260.56	2.0547e-05	1.9087e-05	364.82	113.52	76.26	23.386	1.7041e-05	36.667	346.051	273.286	290.458	178.370	402.897	314.859	176.886	183.464	339.465	451.815	181.097	185.709	187.568	192.672	296.688	189.685	-8191	255	
18397.027	1	1	0	0	0.053319	0.096513	0.19312	0.28327	0.26719	0.3161	0.30853	0.1015	0.19881	0.24606	0.085236	0.34457	0.33474	0.17749	0.091815	0.20059	-2.5625	-2.6729	-3.3229	-3.0187	-2.9625	-3.1375	-2.8937	-3.0604	-3.0604	-2.8812	-3.3104	-3.1396	-3.0312	-3.2271	-2.8542	-3.0229	215.764	183.300	286.250	494.233	372.645	311.301	464.603	469.460	384.126	169.121	216.228	403.982	482.701	502.120	522.936	368.514	0.0014602	0.0013452	0.00024881	1129.6	5.6597e-06	9.1862e-06	1483	331.06	2.103e-05	3.9489e-06	464.17	142.64	98.611	28.947	4.5242e-06	45.752	0.0013368	0.0017215	0.00060172	874.38	1.7111e-05	1.8794e-05	1149.8	259.69	2.2069e-05	1.8915e-05	363.21	112.25	76.743	23.159	1.7569e-05	36.53	364.532	309.431	339.342	178.875	217.934	307.532	177.126	183.481	321.692	393.154	180.924	185.236	188.137	192.799	266.008	189.634	-8191	255	
18397.123	1	1	0	0	0.079617	0.29298	0.042714	0.16257	0.083095	0.20953	0.40729	0.21241	0.061352	0.11454	0.20819	0.32758	0.18189	0.08107	0.1129	0.20553	-2.7396	-2.7542	-2.9479	-3.1229	-2.7958	-3.3042	-3.0354	-3.0833	-3.2125	-2.9688	-3.3417	-3.0229	-2.9167	-3.3	-2.8854	-2.9021	260.334	353.526	176.404	502.181	343.724	424.693	467.821	448.654	524.204	507.286	438.966	491.888	489.202	434.186	256.549	471.631	0.00099308	0.00069651	0.00015251	1113.2	1.1265e-05	6.6161e-06	1466.3	332.89	6.4244e-06	1.1459e-05	465.97	143.58	95.982	29.29	1.1703e-05	45.968	0.0013385	0.001707	0.00058396	871.88	1.7191e-05	1.829e-05	1147.7	259.77	2.1177e-05	1.8708e-05	364.37	112.23	75.619	23.231	1.7003e-05	36.327	374.327	279.554	318.672	178.139	196.464	238.882	176.906	183.350	320.021	289.389	181.379	185.822	188.221	193.391	397.338	189.865	-8191	255	
18397.221	1	1	0	0	0.2961	0.18324	0.25891	0.1729	0.073919	0.066633	0.21855	0.17468	0.18113	0.1579	0.12582	0.11515	0.024608	0.17644	0.1873	0.20564	-2.7146	-2.8458	-3.0604	-3.0917	-2.7083	-3.1771	-3.1854	-2.9667	-3.0896	-2.7542	-3.2	-3.0438	-2.9354	-3.2417	-2.9146	-3.1396	307.318	262.644	373.471	179.780	347.341	190.369	424.225	474.924	471.372	326.563	392.362	364.651	479.633	432.520	499.536	328.460	0.0011886	0.00079016	4.9862e-05	1123.4	2.9149e-06	4.6738e-06	1478.1	334.1	2.8398e-05	6.5584e-06	464.99	143.06	98.398	29.609	7.7452e-06	45.774	0.0012943	0.0016336	0.00048153	876.12	1.693e-05	1.8656e-05	1151.6	260.18	2.2106e-05	1.88e-05	363.33	112.51	76.643	23.383	1.7541e-05	36.546	358.808	244.081	237.816	178.392	316.364	315.749	176.900	182.992	316.946	482.110	181.270	185.913	188.164	193.057	308.416	189.661	-8191	255	
18397.314	1	1	0	0	0.052798	0.1463	0.11431	0.15471	0.20857	0.14231	0.2625	0.11675	0.031571	0.25464	0.16053	0.081089	0.24528	0.12834	0.078998	0.29989	-2.6021	-2.8917	-3.1937	-3.1229	-2.8354	-3.175	-3.1979	-3.0625	-3.2438	-2.9042	-3.1875	-3.2771	-2.9667	-3.175	-3.0875	-3.0146	337.291	486.535	226.732	346.996	508.526	204.905	458.644	425.937	276.645	479.831	213.252	218.577	176.054	207.025	421.353	174.444	0.0011125	0.00065917	0.00017963	1118.9	6.4548e-06	9.4894e-06	1490.5	334.13	2.3059e-05	6.1347e-06	467.91	144.86	97.283	29.413	5.506e-06	46.179	0.0013473	0.00165	0.00046336	880.56	1.6999e-05	1.8265e-05	1160.8	261.12	2.126e-05	1.8493e-05	365.54	113.59	76.613	23.429	1.738e-05	36.727	355.409	234.943	177.413	178.408	243.783	344.275	177.192	183.495	301.132	308.654	181.495	185.811	187.875	193.113	216.881	189.944	-8191	255	
#DATA ENDS
