BOXY.EXE: ISS Imagent and Oximeter Data Acquisition Program Version 0.80
Ascii Record File

#ACQ INFORMATION
2  Detector Channels 
16  External MUX Channels 
1  Auxiliary Channels 
5000  Waveform (CCF) Frequency (Hz)
1  Waveforms Skipped 
30  Waveforms Averaged 
1  Cycles Averaged 
16  Acquisitions per Waveform 
10.0806  Updata Rate (Hz) 

#FILE INFORMATION
TRUE -- External MUX Channel results are PARSED.
FALSE -- AC DC and Phase are NOT grouped.
TRUE -- Companion Program Settings File CREATED.
FALSE -- AC data not excluded
FALSE -- DC data not excluded
FALSE -- Phase data not excluded
FALSE -- Auxillary Chn. data not excluded
Tab delimiters

#CALIBRATION STATE
TRUE -- Waveform Calibration Values APPLIED.


#AUX CALIBRATION VALUES
Val Type	aux-1	

Term	1.0000e+00	
Factor	0.0000e+00	


#WF CALIBRATION VALUES
A = Detector Channel
Val Type	A-AC1	A-AC2	A-AC3	A-AC4	A-AC5	A-AC6	A-AC7	A-AC8	A-AC9	A-AC10	A-AC11	A-AC12	A-AC13	A-AC14	A-AC15	A-AC16	A-DC1	A-DC2	A-DC3	A-DC4	A-DC5	A-DC6	A-DC7	A-DC8	A-DC9	A-DC10	A-DC11	A-DC12	A-DC13	A-DC14	A-DC15	A-DC16	A-Ph1	A-Ph2	A-Ph3	A-Ph4	A-Ph5	A-Ph6	A-Ph7	A-Ph8	A-Ph9	A-Ph10	A-Ph11	A-Ph12	A-Ph13	A-Ph14	A-Ph15	A-Ph16	

Term	0.00000e+00	0.00000e+00	0.00000e+00	0.00000e+00	0.00000e+00	0.00000e+00	0.00000e+00	0.00000e+00	0.00000e+00	0.00000e+00	0.00000e+00	0.00000e+00	0.00000e+00	0.00000e+00	0.00000e+00	0.00000e+00	0.00000e+00	0.00000e+00	0.00000e+00	0.00000e+00	0.00000e+00	0.00000e+00	0.00000e+00	0.00000e+00	0.00000e+00	0.00000e+00	0.00000e+00	0.00000e+00	0.00000e+00	0.00000e+00	0.00000e+00	0.00000e+00	0.00000e+00	0.00000e+00	0.00000e+00	0.00000e+00	0.00000e+00	0.00000e+00	0.00000e+00	0.00000e+00	0.00000e+00	0.00000e+00	0.00000e+00	0.00000e+00	0.00000e+00	0.00000e+00	0.00000e+00	0.00000e+00	
Factor	1.00000e+00	1.00000e+00	1.00000e+00	1.00000e+00	1.00000e+00	1.00000e+00	1.00000e+00	1.00000e+00	1.00000e+00	1.00000e+00	1.00000e+00	1.00000e+00	1.00000e+00	1.00000e+00	1.00000e+00	1.00000e+00	1.00000e+00	1.00000e+00	1.00000e+00	1.00000e+00	1.00000e+00	1.00000e+00	1.00000e+00	1.00000e+00	1.00000e+00	1.00000e+00	1.00000e+00	1.00000e+00	1.00000e+00	1.00000e+00	1.00000e+00	1.00000e+00	X	X	X	X	X	X	X	X	X	X	X	X	X	X	X	X	

B = Detector Channel
Val Type	B-AC1	B-AC2	B-AC3	B-AC4	B-AC5	B-AC6	B-AC7	B-AC8	B-AC9	B-AC10	B-AC11	B-AC12	B-AC13	B-AC14	B-AC15	B-AC16	B-DC1	B-DC2	B-DC3	B-DC4	B-DC5	B-DC6	B-DC7	B-DC8	B-DC9	B-DC10	B-DC11	B-DC12	B-DC13	B-DC14	B-DC15	B-DC16	B-Ph1	B-Ph2	B-Ph3	B-Ph4	B-Ph5	B-Ph6	B-Ph7	B-Ph8	B-Ph9	B-Ph10	B-Ph11	B-Ph12	B-Ph13	B-Ph14	B-Ph15	B-Ph16	

Term	0.00000e+00	0.00000e+00	0.00000e+00	0.00000e+00	0.00000e+00	0.00000e+00	0.00000e+00	0.00000e+00	0.00000e+00	0.00000e+00	0.00000e+00	0.00000e+00	0.00000e+00	0.00000e+00	0.00000e+00	0.00000e+00	0.00000e+00	0.00000e+00	0.00000e+00	0.00000e+00	0.00000e+00	0.00000e+00	0.00000e+00	0.00000e+00	0.00000e+00	0.00000e+00	0.00000e+00	0.00000e+00	0.00000e+00	0.00000e+00	0.00000e+00	0.00000e+00	-1.03364e+02	-1.28589e+02	-1.22771e+02	-1.82799e+02	-5.29327e+01	-6.36955e+01	-1.54998e+02	-1.62015e+02	-5.44320e+01	-6.23480e+01	-1.71853e+02	-1.69414e+02	-1.80018e+02	-1.77411e+02	-5.74280e+01	-1.48938e+02	
Factor	1.60856e-05	1.42380e-04	4.19562e-05	1.84207e-01	1.34200e-06	1.50499e-06	1.63323e-01	4.88771e-02	1.25689e-06	1.78350e-06	9.25773e-02	2.71365e-02	2.66344e-02	8.67124e-03	1.27850e-06	1.23973e-02	7.02452e-06	9.64614e-06	2.71299e-06	9.29001e-02	1.02271e-07	1.07808e-07	7.77924e-02	2.48455e-02	1.01700e-07	1.07589e-07	4.55974e-02	1.35142e-02	1.37367e-02	4.44083e-03	1.04084e-07	6.15744e-03	X	X	X	X	X	X	X	X	X	X	X	X	X	X	X	X	



#DISTANCE SETTINGS
A = Detector Channel
A-1	A-2	A-3	A-4	A-5	A-6	A-7	A-8	A-9	A-10	A-11	A-12	A-13	A-14	A-15	A-16	

2.5000e+00	3.0000e+00	2.5000e+00	3.0000e+00	2.0000e+00	3.0000e+00	1.5000e+00	3.0000e+00	3.0000e+00	3.0000e+00	3.0000e+00	3.0000e+00	3.0000e+00	3.0000e+00	1.5000e+00	3.0000e+00	

B = Detector Channel
B-1	B-2	B-3	B-4	B-5	B-6	B-7	B-8	B-9	B-10	B-11	B-12	B-13	B-14	B-15	B-16	

1.0000e+01	1.0000e+01	1.0000e+01	1.4400e+00	1.0000e+01	1.0000e+01	1.5100e+00	1.9400e+00	1.0000e+01	1.0000e+01	1.9900e+00	2.4900e+00	2.4100e+00	2.9000e+00	1.0000e+01	2.9800e+00	




#DATA BEGINS
time	group	step	mark	flag	A-AC1	A-AC2	A-AC3	A-AC4	A-AC5	A-AC6	A-AC7	A-AC8	A-AC9	A-AC10	A-AC11	A-AC12	A-AC13	A-AC14	A-AC15	A-AC16	A-DC1	A-DC2	A-DC3	A-DC4	A-DC5	A-DC6	A-DC7	A-DC8	A-DC9	A-DC10	A-DC11	A-DC12	A-DC13	A-DC14	A-DC15	A-DC16	A-Ph1	A-Ph2	A-Ph3	A-Ph4	A-Ph5	A-Ph6	A-Ph7	A-Ph8	A-Ph9	A-Ph10	A-Ph11	A-Ph12	A-Ph13	A-Ph14	A-Ph15	A-Ph16	B-AC1	B-AC2	B-AC3	B-AC4	B-AC5	B-AC6	B-AC7	B-AC8	B-AC9	B-AC10	B-AC11	B-AC12	B-AC13	B-AC14	B-AC15	B-AC16	B-DC1	B-DC2	B-DC3	B-DC4	B-DC5	B-DC6	B-DC7	B-DC8	B-DC9	B-DC10	B-DC11	B-DC12	B-DC13	B-DC14	B-DC15	B-DC16	B-Ph1	B-Ph2	B-Ph3	B-Ph4	B-Ph5	B-Ph6	B-Ph7	B-Ph8	B-Ph9	B-Ph10	B-Ph11	B-Ph12	B-Ph13	B-Ph14	B-Ph15	B-Ph16	aux-1	digaux	

16280.161	1	1	0	768	0.096687	0.18249	0.16315	0.056034	0.1034	0.14423	0.044382	0.19865	0.025023	0.15203	0.01573	0.073807	0.17482	0.11503	0.038226	0.14705	-2.3708	-2.8667	-2.7188	-2.9854	-2.6792	-3.0854	-3.0417	-2.8708	-3.0125	-2.7729	-2.7083	-3.0125	-2.8583	-2.5396	-2.9292	-2.8667	277.462	265.888	266.201	143.132	27.217	18.781	141.716	65.941	-10.646	245.017	2.229	-13.506	-58.505	-33.945	178.056	-8.705	0.00013254	0.00061733	0.00026131	442.67	3.8967e-06	3.8945e-06	374.24	146.63	7.3398e-06	5.0306e-06	155	71.95	66.476	41.007	5.0294e-06	47.69	0.0013471	0.0017218	0.00053695	436.41	1.8224e-05	1.8987e-05	369.81	144.98	2.1002e-05	1.7817e-05	155.02	72.049	66.191	40.561	1.7222e-05	46.467	207.315	42.642	-18.734	-52.492	104.906	51.068	-53.210	-47.467	80.060	68.284	-49.602	-45.705	-43.480	-40.134	44.804	-43.647	-8191	255	
16280.257	1	1	0	0	0.2391	0.14599	0.17109	0.17116	0.12857	0.23111	0.15308	0.12257	0.042301	0.012979	0.16489	0.28578	0.10759	0.13466	0.099696	0.096397	-2.4437	-3.1	-2.6646	-3.1042	-2.9188	-2.65	-3.1312	-2.8312	-2.7375	-3.0625	-2.8417	-2.9125	-2.875	-2.9083	-2.9938	-2.8771	71.961	7.688	224.738	-19.564	149.852	170.209	234.778	198.334	244.188	67.970	284.147	101.946	212.892	241.408	16.261	143.718	0.00016441	0.00063131	0.00025122	440.93	3.2344e-06	2.4297e-06	378.31	146.83	4.1426e-06	2.7042e-06	157.68	72.517	65.714	41.189	2.2315e-06	47.753	0.001204	0.0015148	0.00043781	438.23	1.5866e-05	1.6787e-05	371.45	145.04	1.823e-05	1.5938e-05	155.63	71.86	65.55	40.629	1.5304e-05	46.546	182.918	69.759	15.257	-52.283	49.615	215.153	-53.393	-47.099	116.251	140.556	-49.696	-45.765	-43.586	-39.604	133.354	-43.515	-8191	255	
16280.354	1	1	0	0	0.14751	0.36029	0.15186	0.092475	0.16495	0.089925	0.10935	0.31638	0.094332	0.095415	0.22748	0.094606	0.026735	0.27124	0.33296	0.084434	-2.5021	-3.0854	-2.7542	-2.9708	-3.0438	-2.5687	-3.0708	-2.9562	-2.9021	-3.2562	-2.6562	-2.9688	-2.9708	-2.7396	-3.1188	-2.7438	256.742	246.282	166.105	107.621	244.725	289.620	172.129	107.934	151.302	-25.141	46.428	141.660	165.706	-4.591	55.804	249.421	0.0001283	0.0006556	2.7215e-05	444.88	5.9625e-06	5.8137e-06	374.9	145.29	9.5773e-06	3.4882e-06	154.35	71.908	65.715	40.988	2.8287e-06	47.534	0.0010826	0.0013551	0.00038664	436.96	1.4577e-05	1.554e-05	367.21	143.46	1.8551e-05	1.5627e-05	154.43	71.52	65.485	40.388	1.6042e-05	46.445	167.854	46.813	42.601	-52.258	86.664	85.259	-53.291	-47.298	152.562	271.627	-50.389	-45.693	-43.256	-39.811	145.564	-43.228	-8191	255	
16280.450	1	1	0	0	0.32437	0.17159	0.17942	0.17886	0.13824	0.2309	0.1185	0.2659	0.23937	0.26052	0.22632	0.16276	0.041639	0.16404	0.12296	0.24863	-2.4146	-3.0521	-2.7604	-2.8937	-2.9771	-2.6042	-3.0625	-3.0604	-2.9625	-3.1104	-2.6979	-2.8271	-2.9188	-2.7646	-3.2729	-2.8833	202.457	267.696	141.493	-0.583	65.718	287.849	-14.141	218.053	290.529	78.703	273.725	-3.129	253.081	253.504	-39.118	250.862	0.00015011	0.0005732	0.00010113	443.86	2.5481e-06	2.1455e-06	374.55	147.59	3.5631e-06	9.6394e-08	157.36	72.288	65.731	41.59	6.1302e-06	47.758	0.0011102	0.0014135	0.00039883	437.9	1.4921e-05	1.6092e-05	368.12	144.6	1.7689e-05	1.5914e-05	155.51	72.105	65.945	40.705	1.8742e-05	46.827	197.554	18.722	49.185	-52.701	151.037	29.406	-53.404	-47.240	145.875	279.116	-50.274	-45.988	-43.117	-39.622	279.882	-43.527	-8191	255	
16280.546	1	1	0	0	0.10994	0.081519	0.25953	0.18709	0.17656	0.14874	0.18687	0.38615	0.13296	0.24543	0.099335	0.051396	0.086184	0.073974	0.28529	0.20909	-2.3271	-3.0083	-2.6521	-2.775	-2.8521	-2.6083	-2.6771	-2.925	-2.7146	-3.1896	-2.8167	-2.8812	-2.9813	-2.9042	-3.0417	-3.0479	70.945	112.494	40.224	228.793	121.814	280.496	208.499	-31.274	197.259	94.884	-43.924	157.181	232.811	-48.847	-48.314	171.761	0.00013024	3.4189e-05	0.00010329	444.3	9.4233e-06	4.401e-06	378.79	148.97	3.9015e-06	7.138e-06	158.53	73.619	66.978	41.712	3.7794e-06	48.614	0.0011245	0.0014176	0.00039997	439.41	1.5081e-05	1.5751e-05	372.44	146.09	1.8513e-05	1.549e-05	157.05	72.911	66.66	41.107	1.7863e-05	47.409	188.153	133.741	-21.913	-52.516	225.837	114.711	-53.298	-47.370	167.913	75.882	-50.212	-45.497	-43.409	-40.039	79.899	-43.119	-8191	255	
16280.642	1	1	0	0	0.20192	0.21723	0.06275	0.10369	0.12557	0.28637	0.13846	0.056125	0.22216	0.11569	0.15842	0.073379	0.053596	0.2635	0.084248	0.044679	-2.1542	-2.9354	-2.825	-2.675	-3.0708	-2.6292	-3.0354	-2.8187	-2.7396	-3.0292	-2.8354	-2.7875	-3.1333	-2.8	-2.9125	-2.9208	204.637	160.662	256.726	159.050	290.033	-35.706	-52.490	185.291	121.882	210.631	229.544	293.729	274.139	274.425	177.866	214.132	0.00014532	0.00065558	8.8688e-05	451.44	5.0954e-06	2.6161e-06	379.34	148.97	5.0028e-06	3.6742e-06	156.34	72.714	66.319	41.997	5.0527e-06	48.27	0.0010734	0.001383	0.00039233	443.17	1.4553e-05	1.5397e-05	372.21	146.56	1.6065e-05	1.6333e-05	155.69	72.29	66.147	41.091	1.8213e-05	47.078	188.606	18.032	89.310	-52.926	156.181	245.720	-53.818	-47.728	157.128	130.927	-49.877	-45.810	-43.879	-39.713	292.417	-43.702	-8191	255	
16280.763	1	1	0	0	0.20829	0.10944	0.16921	0.068625	0.18716	0.15509	0.15458	0.092749	0.092987	0.38349	0.17982	0.022663	0.15404	0.15759	0.16074	0.30163	-2.1896	-2.8187	-2.8854	-2.6354	-3.1042	-2.7542	-2.8917	-3.0979	-2.5187	-3.0521	-2.8354	-2.9062	-3.1813	-2.7792	-3.025	-3.1708	-4.958	-19.140	0.985	-21.936	111.830	-2.012	268.807	260.837	109.321	281.670	287.684	49.624	242.867	209.585	62.982	190.533	9.0963e-05	0.00061102	0.00014924	444.68	5.0322e-06	2.8872e-06	376.36	146.59	5.1218e-06	5.8303e-06	153.66	71.565	65.694	41.118	1.8318e-06	47.659	0.0010467	0.0013632	0.00037508	438.38	1.4634e-05	1.514e-05	367.49	144.3	1.4537e-05	1.875e-05	152.43	71.133	65.522	40.514	1.7655e-05	46.607	182.721	34.730	105.954	-52.808	119.571	33.675	-53.535	-47.220	63.372	179.697	-50.234	-45.592	-43.037	-39.651	18.897	-43.299	-8191	255	
16280.859	1	1	0	0	0.040714	0.12891	0.16174	0.23857	0.047857	0.19304	0.10791	0.2046	0.12119	0.14665	0.11264	0.010317	0.24109	0.27319	0.06566	0.10621	-2.2333	-2.8625	-2.9042	-2.8	-3.1813	-2.7417	-2.8292	-3.0792	-2.7125	-2.875	-2.9292	-2.6437	-3.0354	-2.7792	-2.7125	-3.1312	161.005	248.882	226.548	191.159	-12.080	12.506	270.052	-26.950	202.297	201.438	220.111	47.400	117.479	-39.432	92.534	-54.002	0.00015013	0.00012781	6.4017e-05	440.9	7.2949e-06	1.4197e-06	373.63	146.74	3.4603e-06	4.997e-06	152.64	71.484	66.048	41.31	4.3667e-06	47.381	0.0011125	0.0014375	0.00040279	435.47	1.5399e-05	1.6476e-05	365.07	144.09	1.5911e-05	1.9555e-05	153.07	71.388	65.948	40.604	1.9918e-05	46.566	182.152	191.208	-15.867	-52.204	87.299	-5.743	-53.145	-47.585	120.480	84.449	-49.882	-45.820	-43.520	-39.750	-49.454	-43.580	-8191	255	
16280.953	1	1	0	0	0.1968	0.33087	0.20847	0.05615	0.18145	0.10535	0.10987	0.23036	0.21608	0.063592	0.12994	0.10187	0.056654	0.30846	0.13493	0.18478	-2.3083	-2.9604	-2.9042	-2.7333	-3.0187	-2.8792	-2.9583	-3.1604	-2.7396	-2.9333	-3.0521	-2.7917	-3.2083	-2.8729	-2.6146	-3.1917	224.921	9.170	149.957	234.119	261.463	187.793	38.406	202.096	94.721	278.048	47.533	270.636	217.673	283.044	170.463	137.740	0.0001224	0.00050453	0.00010189	446.17	3.5084e-06	3.4487e-07	373.96	147.3	5.0255e-06	9.2027e-06	153.02	72.479	66.223	41.397	3.4544e-06	48.112	0.001173	0.0015211	0.00041692	437.08	1.7215e-05	1.6889e-05	367.56	145.03	1.5982e-05	2.1275e-05	153.45	72.044	66.187	40.774	1.8953e-05	47.02	189.160	73.197	23.750	-52.809	120.327	137.760	-53.221	-47.280	124.837	148.016	-50.203	-45.768	-43.542	-39.902	-32.842	-43.467	-8191	255	
16281.051	1	1	0	0	0.30072	0.080321	0.060532	0.061181	0.30734	0.25551	0.18168	0.16003	0.036967	0.081418	0.16287	0.13867	0.28107	0.095773	0.21176	0.26191	-2.3396	-2.8292	-2.9292	-2.7562	-2.925	-2.8563	-2.6646	-3.0833	-2.7375	-3.0125	-2.9958	-2.7479	-3.0375	-3.0521	-2.8521	-3.0687	64.879	-11.741	-44.693	-5.124	-51.660	173.882	87.844	-52.245	270.047	121.078	-41.326	229.626	-34.113	117.998	145.559	285.628	8.9665e-05	0.00058601	8.3496e-05	443.14	8.9249e-07	3.8995e-06	375.96	147.31	1.3483e-06	2.7451e-06	155.49	71.999	65.447	41.72	5.6607e-06	47.909	0.0011987	0.0015151	0.000427	435.69	1.9213e-05	1.6925e-05	370.05	145.03	1.6263e-05	2.0074e-05	154.59	71.85	66.053	40.946	2.0336e-05	46.885	222.432	42.199	55.466	-52.903	86.679	67.423	-53.607	-47.381	-41.030	134.012	-49.972	-45.613	-43.487	-40.217	276.313	-43.355	-8191	255	
16281.145	1	1	0	0	0.16105	0.30672	0.16724	0.23708	0.18273	0.1236	0.095507	0.3505	0.11981	0.12904	0.27099	0.15063	0.17971	0.093433	0.12791	0.15975	-2.4479	-2.9146	-2.9688	-2.7188	-3.0646	-2.925	-2.6896	-2.8271	-2.7958	-2.7625	-3.1271	-2.65	-3.0167	-2.9104	-2.8958	-3.0396	170.377	139.840	124.263	-61.561	290.606	19.880	-38.851	267.221	224.802	-55.212	176.453	224.430	281.841	-29.491	291.762	-50.943	8.9525e-05	0.00032947	0.00010922	440.98	5.5934e-06	3.9871e-06	372.44	147.18	7.9532e-06	9.4752e-06	150.97	70.483	65.535	41.121	3.7243e-06	47.42	0.0012104	0.0015669	0.00044459	434.49	1.9548e-05	1.7354e-05	365.37	144.53	1.7006e-05	2.1922e-05	152.02	70.934	65.832	40.612	1.9008e-05	46.501	160.799	35.064	12.361	-52.589	97.435	-25.554	-53.476	-47.385	29.031	167.810	-50.207	-45.942	-43.544	-39.582	79.009	-43.378	-8191	255	
16281.242	1	1	0	0	0.087476	0.062202	0.13036	0.095833	0.14037	0.12607	0.064402	0.098207	0.2483	0.22999	0.10803	0.039532	0.16527	0.23409	0.047357	0.14391	-2.3937	-2.8958	-2.9667	-2.7167	-2.8021	-3.025	-2.7729	-3.1146	-2.8583	-2.7875	-3.0271	-2.8271	-2.9562	-3.1417	-2.8187	-2.8979	89.840	151.863	251.782	249.114	106.877	32.233	-37.431	250.761	208.210	22.409	16.624	65.726	86.755	-31.507	149.472	-20.363	9.9205e-05	0.00068881	8.8446e-05	439.4	4.6691e-06	3.6277e-06	368.85	145.99	2.1981e-06	3.6131e-06	149.94	71.178	65.405	41.169	4.6351e-06	47.283	0.0012322	0.0016073	0.00044556	432.6	2.0283e-05	1.7225e-05	363.7	143.92	1.6755e-05	2.0632e-05	150.62	71.014	65.509	40.647	1.7378e-05	46.787	215.741	-24.019	38.888	-52.490	101.704	102.366	-53.605	-47.452	144.678	177.579	-49.931	-45.477	-43.427	-40.131	122.885	-43.190	-8191	255	
16281.362	1	1	0	0	0.12544	0.18531	0.2819	0.20501	0.12777	0.14091	0.069218	0.32004	0.33613	0.15281	0.19067	0.096916	0.071895	0.14874	0.036049	0.29852	-2.4354	-2.5333	-2.9292	-2.7292	-2.7146	-3.1333	-2.7562	-3.0312	-2.8937	-2.6083	-3.0729	-2.6271	-2.7521	-3.0625	-2.6708	-3.0417	114.878	230.554	286.900	90.713	187.737	283.950	104.237	209.551	198.699	152.254	77.336	269.848	293.120	191.411	253.552	-61.895	9.6732e-05	9.4454e-05	0.00011902	440.75	5.808e-06	3.5935e-06	370.6	145.58	1.4066e-06	1.2779e-06	152.84	71.567	66.381	41.796	2.3675e-06	48.001	0.0012219	0.0015814	0.00044737	434.06	1.9586e-05	1.7554e-05	366.35	144.36	1.6107e-05	2.1006e-05	152.77	71.468	66.235	40.998	1.6957e-05	47.136	171.858	100.666	7.692	-52.503	81.422	66.281	-53.221	-47.565	-8.023	125.289	-50.097	-45.865	-43.415	-39.769	270.295	-43.232	-8191	255	
16281.458	1	1	0	0	0.078377	0.33509	0.25714	0.20264	0.10459	0.086003	0.29833	0.25925	0.1271	0.053091	0.071659	0.053153	0.13003	0.2882	0.11149	0.21139	-2.4625	-2.6958	-3.0083	-2.8917	-2.8438	-3.1521	-2.7229	-2.9688	-2.9583	-2.8063	-3.2292	-2.8083	-2.7229	-2.9583	-2.875	-3.0104	58.617	-45.338	-16.084	210.367	30.242	259.898	229.817	244.843	-38.885	137.654	196.422	252.339	27.353	-14.987	258.250	286.670	0.00012069	0.00083134	0.00016687	442.54	1.0186e-05	1.8197e-06	377.64	147.41	3.6827e-07	5.0232e-06	152.26	72.219	65.927	41.725	2.546e-06	48.064	0.0011909	0.0015527	0.00043815	435.89	1.9874e-05	1.7177e-05	370.4	145.51	1.6035e-05	1.8579e-05	153.26	71.728	66.264	40.983	1.6672e-05	47.101	191.849	9.605	-22.394	-52.691	84.729	45.991	-53.195	-47.448	59.698	151.695	-50.484	-45.848	-43.333	-39.758	71.532	-43.291	-8191	255	
16281.555	1	1	0	0	0.057292	0.13834	0.071354	0.15992	0.21793	0.059921	0.17275	0.22606	0.21009	0.17604	0.11423	0.17894	0.19574	0.048787	0.11741	0.096983	-2.5062	-2.5	-3.0417	-2.7542	-2.9	-3.2938	-2.6646	-2.8542	-3.0354	-2.7333	-3.0687	-2.8271	-2.6604	-3.0333	-2.8896	-2.9583	244.236	-15.508	165.021	124.665	251.480	9.233	-4.342	-9.730	290.209	-48.808	81.041	294.221	258.520	165.465	192.228	124.422	0.00015031	0.00027946	0.00011711	446.36	7.3113e-06	3.1188e-06	372	147.62	5.0486e-06	6.8488e-06	151.32	71.094	65.252	41.462	6.4848e-06	47.929	0.0011436	0.0014766	0.00042267	435.59	1.8381e-05	1.6585e-05	366.99	144.41	1.5205e-05	1.5886e-05	153.29	70.858	65.565	40.696	1.5296e-05	46.761	198.366	-44.677	35.976	-52.767	107.034	43.146	-53.343	-47.144	108.367	133.550	-50.396	-45.832	-43.462	-40.002	83.727	-43.394	-8191	255	
16281.651	1	1	0	0	0.28435	0.39764	0.25644	0.13405	0.16264	0.12018	0.068198	0.02995	0.11795	0.098337	0.22366	0.09388	0.12547	0.1919	0.19531	0.22572	-2.4729	-2.6479	-2.9667	-3.0229	-2.8229	-3.0542	-2.9896	-2.8292	-3.0146	-2.6542	-2.7958	-3.1271	-2.6562	-3.2562	-2.7896	-3.0042	128.183	151.231	73.943	164.213	276.902	53.303	10.450	229.762	30.293	127.702	121.891	48.597	277.486	-0.097	139.049	-42.410	9.2552e-05	4.8093e-05	0.00015429	439.37	6.7008e-06	4.8729e-06	373.29	147.01	1.1369e-06	2.9228e-06	152.15	72.005	65.338	41.293	3.6976e-06	47.669	0.0010966	0.0014161	0.00039807	431.63	1.8825e-05	1.5959e-05	367.21	144.01	1.5135e-05	1.6032e-05	152.84	71.218	65.429	40.584	1.5285e-05	46.833	205.743	19.187	45.586	-52.146	127.366	102.020	-53.554	-47.616	115.648	72.330	-50.378	-45.906	-43.226	-39.750	17.881	-43.704	-8191	255	
16281.722	1	1	0	0	0.13897	0.17575	0.11072	0.069774	0.20323	0.2928	0.15233	0.18295	0.13408	0.27225	0.10991	0.20963	0.034002	0.089967	0.21257	0.1266	-2.4938	-2.6833	-2.8667	-3.0542	-2.6646	-3.0521	-2.8	-2.7083	-2.9813	-2.8104	-2.9521	-2.8771	-2.8208	-3.1688	-3.0458	-2.8146	-33.996	240.740	231.290	6.485	228.915	94.487	112.802	209.850	114.311	153.871	-47.200	231.542	164.926	263.146	119.724	28.869	0.00016154	0.00083639	0.0001634	443.33	1.0083e-06	3.8182e-06	373.51	146.64	1.8629e-06	3.5496e-06	151.7	71.836	65.138	41.282	1.109e-06	47.666	0.0010783	0.0013849	0.00039372	432.94	1.6223e-05	1.6959e-05	367.19	143.81	1.4771e-05	1.6177e-05	153.25	71.208	65.345	40.631	1.5326e-05	46.817	179.703	23.905	-1.360	-52.646	142.116	72.390	-53.210	-46.840	89.140	178.158	-50.063	-45.563	-43.387	-39.660	175.658	-43.389	-8191	255	
16281.843	1	1	0	0	0.25246	0.1453	0.29508	0.094406	0.10194	0.22272	0.078577	0.24216	0.18237	0.048861	0.10567	0.046696	0.10762	0.087491	0.15691	0.30962	-2.6792	-2.6813	-2.7812	-3.0375	-2.8042	-2.875	-2.9833	-2.8729	-2.9917	-2.8937	-2.8937	-2.8896	-2.9521	-3.0083	-2.9083	-2.9188	246.071	91.202	-48.755	186.594	181.531	27.246	104.997	193.872	-19.979	-8.368	39.393	184.545	-60.390	270.614	-25.475	247.329	0.0001192	0.0002543	5.2848e-05	440.66	2.2162e-06	8.9123e-06	372.14	145.27	4.8753e-06	5.5179e-06	150.23	70.714	64.67	40.787	4.2337e-06	46.927	0.0011176	0.0014411	0.00041615	431.67	1.5514e-05	2.026e-05	365.1	142.81	1.5501e-05	1.635e-05	150.96	70.56	64.739	40.131	1.6108e-05	46.197	206.952	-58.522	194.221	-52.525	102.786	105.018	-53.603	-47.272	113.842	71.250	-50.114	-45.712	-43.443	-39.863	64.230	-43.136	-8191	255	
16281.939	1	1	0	0	0.27008	0.24126	0.18849	0.098407	0.39822	0.17469	0.11456	0.19053	0.18719	0.17683	0.1517	0.12355	0.023232	0.10958	0.052582	0.17968	-2.7083	-2.7667	-2.7708	-3.0875	-2.675	-3.1083	-2.9896	-2.7229	-2.9562	-2.7958	-2.7458	-3.075	-2.8667	-3.0938	-2.9167	-2.6667	156.549	8.992	273.389	-37.826	5.796	-15.443	245.322	-41.648	76.080	249.561	-21.573	155.556	-44.245	170.108	-36.246	219.497	0.00013912	0.00057271	1.5817e-05	432.54	5.1174e-06	4.526e-06	367.65	141.78	3.4508e-06	2.5398e-06	147.55	69.432	63.671	40.373	2.0427e-06	46.414	0.0011533	0.0014751	0.0004225	425.06	1.6188e-05	1.9555e-05	360.55	139.9	1.6056e-05	1.6574e-05	149.14	69.184	63.678	39.599	1.5523e-05	45.445	171.538	32.264	-12.302	-52.691	142.131	55.659	-53.771	-47.391	128.309	34.849	-49.503	-45.624	-43.479	-39.753	59.048	-43.357	-8191	255	
16282.034	1	1	0	0	0.22784	0.23433	0.20576	0.3026	0.14452	0.13066	0.1388	0.29154	0.12125	0.10061	0.10008	0.1039	0.050927	0.32272	0.1451	0.22203	-2.4562	-2.6792	-2.7042	-2.9458	-2.9	-2.9354	-2.9354	-2.6771	-3.1312	-2.7833	-2.5292	-3.0604	-2.8333	-2.7604	-2.9708	-2.6833	-23.626	0.023	184.146	200.385	-13.367	283.751	-28.656	-11.638	284.884	131.208	92.519	264.017	175.522	268.196	101.821	228.751	9.6832e-05	0.00037652	8.3465e-05	434.12	4.7367e-06	1.2163e-05	365.81	141.27	2.4773e-06	6.6023e-06	147.58	69.545	63.209	40.05	6.5221e-06	46.751	0.0012203	0.0014435	0.0004156	424.53	1.541e-05	1.9623e-05	360.28	138.81	1.5248e-05	1.5631e-05	148.2	69.093	63.28	39.466	1.5532e-05	45.696	218.113	21.547	77.795	-52.567	122.149	101.232	-53.589	-47.506	168.986	62.531	-50.144	-45.648	-43.592	-39.642	113.111	-43.127	-8191	255	
16282.131	1	1	0	0	0.14	0.25459	0.10758	0.26248	0.07549	0.057979	0.18257	0.09332	0.13528	0.25269	0.10275	0.34194	0.057549	0.22796	0.078219	0.25718	-2.3896	-2.7583	-2.6354	-2.9708	-2.7021	-2.975	-2.9604	-2.7875	-3	-2.7708	-2.7938	-2.9625	-2.75	-2.8479	-3.0771	-2.7562	175.818	261.562	-32.693	-46.676	257.951	13.335	28.079	47.561	-51.348	149.791	264.232	17.558	261.425	247.575	187.790	286.397	0.00011198	0.00076406	0.00014529	431.68	6.6011e-06	5.1105e-06	369.82	140.59	5.4316e-06	3.7453e-06	147.74	70.231	63.957	40.706	1.1524e-06	46.815	0.0013492	0.0013936	0.00039705	423.07	1.5197e-05	1.8966e-05	362.41	138.77	1.5401e-05	1.6211e-05	149.61	69.65	63.652	39.758	1.6056e-05	45.826	240.372	16.636	36.689	-52.354	94.895	137.435	-53.196	-47.278	79.149	-2.023	-49.965	-45.989	-43.265	-39.485	266.572	-43.404	-8191	255	
16282.250	1	1	0	0	0.18467	0.12526	0.2086	0.11827	0.14407	0.14904	0.1815	0.19264	0.033034	0.27478	0.11739	0.021949	0.26595	0.20673	0.15187	0.13029	-2.45	-2.8	-2.7375	-3.1208	-2.7646	-2.8167	-3.0938	-2.8833	-2.7333	-2.9688	-2.6729	-2.8792	-2.9146	-2.9437	-3.2375	-2.7521	204.338	168.880	65.230	254.671	221.574	186.363	158.717	-61.570	84.473	212.413	218.876	261.144	28.187	231.689	169.560	290.334	0.00010081	0.00017183	9.7769e-05	433.45	3.0264e-06	9.8132e-06	369.73	142.96	1.7407e-06	3.923e-06	149.58	70.356	64.657	40.508	3.1684e-06	46.555	0.0013939	0.00148	0.00042894	425.42	1.6217e-05	2.1201e-05	363.91	140.88	1.6826e-05	1.7759e-05	149.5	70.465	64.594	39.918	1.7511e-05	45.814	192.812	51.624	25.786	-52.557	139.049	153.953	-53.545	-47.332	139.067	165.914	-49.783	-45.804	-43.470	-39.924	41.488	-43.377	-8191	255	
16282.322	1	1	0	0	0.079606	0.035625	0.23533	0.10287	0.13466	0.18484	0.2402	0.26157	0.19724	0.070736	0.11841	0.11724	0.24571	0.28967	0.14077	0.10782	-2.3729	-2.875	-2.5292	-2.9875	-2.8375	-2.8937	-3.0479	-2.6292	-2.9146	-2.8042	-2.5333	-3.075	-2.9604	-2.6688	-3.0187	-2.9458	54.028	-59.684	37.112	1.184	201.767	24.379	206.212	198.843	-35.069	35.558	243.773	51.361	-53.832	-36.241	11.418	221.830	0.00011012	0.00053769	0.00018323	433.68	2.2871e-06	1.8275e-06	366.88	142.67	5.8338e-06	1.9686e-06	147.7	68.967	63.931	40.588	3.6347e-06	46.197	0.0014992	0.0016363	0.00046357	426.96	1.7699e-05	2.1618e-05	361.73	140.97	1.7739e-05	1.8094e-05	148.32	70.016	64.354	39.824	1.8468e-05	45.486	215.714	-44.304	58.665	-52.503	130.208	115.408	-53.471	-47.382	70.599	114.894	-49.627	-45.562	-43.739	-39.650	171.566	-43.117	-8191	255	
16282.443	1	1	0	0	0.11316	0.13479	0.18872	0.15014	0.24461	0.17007	0.15604	0.27243	0.094463	0.14094	0.11931	0.17927	0.13066	0.26534	0.15269	0.097353	-2.3104	-3.1875	-2.4667	-2.8187	-2.7375	-2.7917	-3.0083	-2.875	-2.6229	-3.1104	-2.7292	-2.9604	-2.7062	-2.7521	-3.075	-2.8292	13.976	91.413	127.202	247.986	142.399	290.600	-40.921	176.040	19.556	209.992	224.604	234.946	210.905	-45.228	244.541	165.013	2.791e-05	0.00038983	0.00012588	432.33	2.7255e-06	8.3609e-06	363.27	143.16	2.0101e-06	4.1354e-06	147.18	69.723	63.913	40.403	3.9597e-06	46.282	0.0014677	0.0016364	0.00046505	426.24	1.7578e-05	2.241e-05	360.32	140.6	1.7568e-05	1.8581e-05	147.64	70.062	64.113	39.839	1.831e-05	45.444	175.421	51.556	54.231	-52.540	2.922	55.872	-53.035	-47.555	-1.358	-20.024	-49.584	-46.064	-43.406	-39.473	-40.392	-43.328	-8191	255	
16282.539	1	1	0	0	0.21373	0.1876	0.095937	0.12082	0.22626	0.18004	0.13502	0.036206	0.1179	0.08245	0.17814	0.10121	0.1368	0.074702	0.11594	0.15679	-2.3542	-2.9938	-2.5625	-3.0521	-2.9688	-2.7604	-3.0563	-2.8792	-2.5479	-3.0271	-2.8167	-2.8729	-2.8146	-2.5792	-2.9813	-2.9938	-0.507	91.006	264.952	232.793	210.518	54.973	-52.590	50.460	154.022	180.319	225.846	101.690	-37.480	225.136	-10.695	185.489	5.1039e-05	0.0003947	5.8454e-05	430.25	6.8331e-07	8.4705e-06	364.89	142.95	2.1579e-06	1.9251e-06	148.46	69.605	64.205	40.161	2.3594e-06	46.038	0.0015518	0.0016963	0.00048222	426.84	1.8163e-05	2.0245e-05	363.36	141.15	1.8404e-05	1.9265e-05	148.91	70.34	64.607	39.741	1.9095e-05	45.323	177.556	68.067	116.383	-52.987	113.694	47.024	-53.093	-47.463	71.062	-0.655	-49.731	-45.688	-43.419	-39.329	38.651	-43.347	-8191	255	
16282.635	1	1	0	0	0.117	0.33763	0.17749	0.3446	0.095419	0.34887	0.070053	0.25748	0.11651	0.14926	0.037853	0.045438	0.26539	0.062168	0.23458	0.1949	-2.2625	-3.0187	-2.5896	-2.8521	-3.0875	-2.7333	-3.1271	-2.8312	-2.6896	-3.0438	-2.9062	-3.0417	-3.1583	-2.65	-3.0167	-3.0333	153.603	136.365	279.733	286.335	115.586	154.308	20.054	-24.333	-55.772	187.193	281.253	-31.018	11.899	252.664	293.208	256.426	0.00014136	0.0001989	0.00012369	433.58	5.2459e-06	1.6619e-06	364.43	143.44	3.5508e-06	8.7632e-06	147.09	69.024	64.32	40.117	4.504e-06	45.856	0.0015485	0.0017522	0.00050462	428.59	1.858e-05	1.9633e-05	364.31	141.54	1.8607e-05	1.9589e-05	147.91	70.129	64.583	39.598	1.8872e-05	45.141	230.539	65.764	88.428	-52.527	43.056	-6.894	-53.712	-47.279	118.911	93.868	-50.113	-45.706	-43.531	-39.796	199.450	-43.314	-8191	255	
16282.731	1	1	0	0	0.1491	0.077844	0.033805	0.11502	0.1133	0.17835	0.186	0.23551	0.12345	0.051132	0.083897	0.1075	0.011689	0.1769	0.064439	0.12137	-2.3792	-2.9	-2.9417	-2.9208	-3.1396	-2.8458	-3.1292	-2.9833	-2.9583	-3.0292	-2.775	-2.8542	-3.0646	-2.7167	-2.9271	-3.1	105.260	-47.338	205.920	-44.141	173.464	117.965	105.928	197.316	249.061	241.591	19.030	116.613	52.952	212.788	19.298	-38.110	0.00012969	0.0004548	0.0002112	432.77	6.5486e-06	3.4234e-06	362.16	142.27	2.8619e-06	6.051e-06	145.62	68.509	62.874	39.725	3.5979e-06	45.528	0.0015325	0.0017331	0.00048128	425.55	1.8348e-05	1.907e-05	359.2	139.8	1.7726e-05	1.9406e-05	146.3	69.11	63.308	39.07	1.8128e-05	44.566	225.295	-63.699	14.943	-52.903	127.539	-30.585	-53.348	-47.473	123.998	2.494	-49.819	-46.172	-43.319	-39.693	179.647	-43.203	-8191	255	
16282.852	1	1	0	0	0.089382	0.15011	0.03962	0.15424	0.11288	0.081559	0.069712	0.14538	0.057272	0.11273	0.19105	0.16372	0.1418	0.10293	0.14346	0.15266	-2.1854	-3	-2.6729	-2.7396	-2.9688	-2.8729	-2.8083	-3.1417	-2.8563	-3.0208	-3.0917	-2.8604	-3.0438	-2.8854	-2.7167	-3.0875	245.260	116.978	180.418	5.058	-37.219	127.573	58.675	251.839	291.785	275.503	91.370	-60.668	237.653	161.790	152.697	211.168	5.4756e-05	0.00049275	0.0001458	427.06	3.1971e-06	5.2509e-06	359.7	139.82	4.5614e-06	4.7444e-06	145.37	68.267	62.267	39.311	1.3398e-06	44.955	0.0013257	0.001812	0.00046706	422.06	1.7284e-05	1.8206e-05	357.21	138.28	1.7161e-05	1.8144e-05	144.63	68.471	62.663	38.602	1.7429e-05	44.122	263.462	85.882	40.516	-52.821	13.486	35.237	-53.293	-47.181	155.436	-5.903	-50.101	-45.441	-43.230	-39.902	-23.245	-43.543	-8191	255	
16282.946	1	1	0	0	0.11031	0.12815	0.15501	0.14178	0.19536	0.091734	0.32339	0.10717	0.11908	0.13096	0.17328	0.22949	0.081605	0.076633	0.084925	0.14449	-2.2438	-2.9667	-2.7542	-2.7458	-3.0646	-2.85	-2.7562	-3.0958	-2.8125	-3.0271	-3.0125	-2.7854	-3.0354	-2.9062	-2.7833	-3.0938	149.321	-37.112	271.412	73.999	169.209	220.768	29.589	193.647	214.765	56.553	218.733	36.544	-30.294	244.491	293.340	104.573	0.00012623	0.00069749	2.8767e-05	424.75	6.0949e-06	4.7141e-06	358.79	139.18	6.3073e-06	3.3511e-07	144.06	68.448	62.013	39.162	7.6828e-07	45.329	0.0012434	0.0019828	0.00044335	417.93	1.7358e-05	1.8223e-05	356.43	137.32	1.7021e-05	1.8287e-05	144.55	68.558	62.793	38.703	1.7491e-05	44.46	221.142	17.666	96.738	-52.154	105.220	74.985	-53.624	-47.378	107.273	-55.912	-49.974	-45.839	-43.528	-39.722	5.893	-43.439	-8191	255	
16283.020	1	1	0	0	0.33351	0.082735	0.084123	0.26376	0.29088	0.28825	0.12242	0.14938	0.10509	0.22498	0.31616	0.35587	0.235	0.2622	0.21319	0.048112	-2.5187	-2.8042	-2.9646	-2.6396	-3.1292	-2.825	-2.6208	-2.9292	-2.9583	-3.0521	-3.0458	-2.7333	-3.0646	-2.8875	-2.7479	-3.2521	-10.178	49.253	207.985	-29.298	187.500	90.992	77.559	151.428	46.327	132.604	205.061	249.440	221.207	-42.297	217.218	235.995	8.4951e-05	0.00073511	0.00021967	427.18	2.9054e-06	4.0952e-06	358.56	138.84	1.8864e-06	4.2756e-06	144.24	68.319	62.231	39.345	2.0921e-06	45.38	0.0012235	0.0018587	0.00044693	419.78	1.7323e-05	1.7637e-05	358.12	137.36	1.6923e-05	1.7611e-05	145.39	68.318	62.844	38.698	1.6983e-05	44.498	181.025	-9.816	-0.981	-52.548	8.409	145.211	-54.058	-47.629	-46.336	35.433	-49.195	-45.832	-43.629	-39.895	128.820	-43.360	-8191	255	
16283.138	1	1	0	0	0.20382	0.22857	0.21187	0.28748	0.17566	0.11168	0.16649	0.07506	0.1012	0.17154	0.11118	0.29758	0.25175	0.15551	0.12276	0.15988	-2.3312	-2.7229	-2.9354	-2.5854	-2.9896	-2.8917	-2.7854	-2.9104	-2.8479	-2.85	-3.1021	-2.6979	-2.9729	-3.0271	-2.6417	-3.0208	122.446	259.917	149.361	274.452	-61.750	51.862	267.315	-34.422	14.843	-60.294	176.798	237.741	-15.703	232.585	80.855	238.250	0.00012196	0.00049837	0.00021898	421.28	1.8445e-06	3.4225e-06	355.17	137.49	2.5152e-06	3.3513e-06	142.61	66.868	61.034	38.873	1.826e-06	44.704	0.0011987	0.0019144	0.00043797	416.77	1.6836e-05	1.7394e-05	353.52	135.85	1.6386e-05	1.7366e-05	142.69	67.177	61.969	38.276	1.703e-05	43.941	155.305	19.230	20.867	-52.437	116.389	3.250	-53.525	-47.552	32.477	83.008	-49.797	-45.141	-43.923	-39.738	167.228	-43.141	-8191	255	
16283.235	1	1	0	0	0.33611	0.12989	0.26451	0.071742	0.23025	0.23585	0.14577	0.23327	0.11833	0.17967	0.12957	0.26038	0.27436	0.084906	0.23407	0.096085	-2.2479	-2.7188	-2.9708	-2.8083	-2.9188	-2.8208	-2.7687	-3.0187	-2.8417	-2.8937	-3.1917	-2.9437	-3.0333	-2.9875	-2.6813	-3.0187	1.743	98.004	-14.569	-37.857	-3.161	61.725	-43.849	208.294	-26.678	-56.017	-43.674	251.056	255.270	-33.760	-48.627	43.399	7.4369e-05	0.00086896	0.00015868	418.93	5.0781e-06	2.0085e-06	355.32	136.22	3.0821e-06	8.2651e-06	141.99	67.082	61.646	38.913	1.2489e-06	45.046	0.0011831	0.0018295	0.00043042	413.45	1.6331e-05	1.6978e-05	354.74	134.84	1.6166e-05	1.7029e-05	142.31	67.122	61.964	38.347	1.6951e-05	44.185	200.725	27.917	-16.294	-52.793	102.008	63.933	-53.478	-47.312	75.486	84.580	-49.722	-45.925	-43.287	-39.960	105.994	-43.312	-8191	255	
16283.331	1	1	0	0	0.17639	0.118	0.20024	0.26511	0.23286	0.13745	0.14925	0.07437	0.05704	0.099561	0.19749	0.25921	0.22001	0.077371	0.095562	0.25566	-2.4333	-2.6208	-2.9625	-2.8146	-2.8104	-3.0917	-2.5438	-3.0896	-2.7062	-2.6312	-3.0354	-2.6042	-2.9	-3.1021	-2.8229	-3.2104	188.387	-24.498	75.880	162.933	60.110	225.569	199.378	-19.462	61.183	-12.469	-45.340	279.503	233.459	265.035	165.665	290.258	7.1779e-05	0.00080094	0.00015006	422.34	2.0948e-06	4.4145e-06	358.86	139.03	2.5817e-06	5.9563e-06	145	67.652	62.265	39.504	2.6483e-06	45.66	0.0011847	0.001881	0.00043844	416.28	1.6776e-05	1.6948e-05	354.63	137.42	1.6297e-05	1.746e-05	144.72	67.843	63.029	38.813	1.7178e-05	44.779	183.827	-3.835	20.316	-52.965	176.090	5.663	-53.072	-47.319	44.571	138.385	-50.094	-45.528	-43.514	-39.638	2.642	-43.177	-8191	255	
16283.427	1	1	0	0	0.047318	0.04771	0.057592	0.39992	0.20629	0.092652	0.12157	0.20692	0.093403	0.28595	0.034712	0.15628	0.079762	0.19924	0.23965	0.083313	-2.4854	-2.5479	-3.0646	-2.7833	-2.9667	-3.0104	-2.7958	-3.0687	-2.8187	-2.6042	-3.1229	-3.0979	-2.7562	-3.2104	-2.5896	-3.0729	140.878	231.504	64.139	224.135	218.009	100.951	138.519	134.333	205.260	219.612	162.455	194.970	227.375	219.787	60.852	239.631	0.0001391	0.00042043	0.00011002	424.62	8.5522e-07	7.393e-06	362.45	139.34	6.7733e-06	1.9136e-06	145.65	68.599	62.883	39.949	4.074e-06	46.087	0.0011919	0.0018228	0.00042903	418.86	1.6488e-05	1.7135e-05	358.37	138.6	1.6525e-05	1.7182e-05	145.83	68.613	63.524	39.093	1.7043e-05	45.173	192.535	10.372	-65.275	-52.673	106.179	168.333	-53.270	-47.946	79.504	293.882	-49.752	-45.731	-43.842	-39.860	148.356	-43.037	-8191	255	
16283.547	1	1	0	0	0.24794	0.10074	0.1122	0.19528	0.03496	0.16977	0.14586	0.14021	0.091617	0.13872	0.23988	0.31421	0.29569	0.14395	0.16003	0.25658	-2.2292	-2.6813	-3.1396	-2.8708	-2.8208	-2.9	-2.8146	-3.1271	-2.9708	-2.8208	-2.9354	-2.7125	-2.6083	-2.9833	-2.8167	-2.9292	-55.020	-44.225	223.514	-42.569	170.265	-5.902	251.643	183.798	148.726	-21.826	116.385	193.186	238.604	133.820	280.723	252.261	0.00014146	0.00090782	0.00015734	424.02	1.5117e-06	1.154e-06	362.35	139.76	1.4525e-06	3.3183e-07	145.18	68.321	62.916	39.665	4.193e-06	45.793	0.0012028	0.0018346	0.0004603	419.57	1.67e-05	1.7442e-05	357.34	138.72	1.6736e-05	1.7715e-05	145.39	68.177	63.531	39.054	1.725e-05	44.86	152.641	-7.818	46.928	-52.605	176.188	136.470	-53.586	-47.329	-40.904	169.610	-49.730	-45.624	-43.272	-39.786	113.240	-43.639	-8191	255	
16283.619	1	1	0	0	0.16533	0.072135	0.24214	0.20119	0.20433	0.1163	0.21439	0.12977	0.18397	0.33718	0.042959	0.12087	0.20174	0.10317	0.097719	0.26463	-2.6354	-2.5438	-2.9667	-2.9167	-2.775	-3.1208	-2.7792	-2.9396	-3.1375	-2.7812	-3.1937	-3.0771	-2.9042	-3.1437	-2.7604	-3.1063	133.009	192.897	204.583	-22.331	162.998	135.424	159.020	257.864	24.150	7.603	253.525	289.319	235.682	-13.599	-60.721	187.729	0.00010914	0.00041078	5.8717e-05	426.5	3.6141e-06	2.8205e-06	360.3	140.24	3.7535e-06	6.7032e-06	145.13	68.151	62.779	39.491	1.7266e-06	45.441	0.0012369	0.0016504	0.00051228	418.16	1.7449e-05	1.8035e-05	357.16	139.18	1.7153e-05	1.8289e-05	145.82	68.392	63.446	39.009	1.7905e-05	44.938	191.609	26.088	67.275	-52.567	67.270	128.411	-53.587	-47.585	69.500	193.685	-49.964	-45.459	-43.263	-39.726	61.152	-43.043	-8191	255	
16283.715	1	1	0	0	0.3638	0.29626	0.02203	0.081386	0.12841	0.25776	0.016223	0.12263	0.22673	0.42763	0.14134	0.04394	0.090048	0.26017	0.38075	0.050567	-2.6729	-2.5771	-3.0438	-2.9396	-2.8729	-3.1188	-2.9354	-2.8958	-3.1521	-2.7354	-3.0938	-3.1271	-2.7625	-3.15	-2.7812	-2.95	293.112	228.775	-13.090	159.801	222.579	37.780	224.606	28.005	87.836	102.969	16.314	28.296	74.923	-40.252	-47.622	110.880	6.9643e-05	0.00058534	0.00016065	425.58	1.4375e-06	4.8702e-06	362.37	139.68	4.1312e-06	1.0874e-06	147.03	69.874	63.503	39.885	2.5194e-06	45.736	0.0012458	0.0016391	0.00056277	421	1.733e-05	1.8481e-05	358.07	139.44	1.727e-05	1.8361e-05	147.11	69.116	63.924	39.292	1.7874e-05	45.078	170.048	23.378	89.789	-52.513	38.561	112.432	-53.569	-47.574	17.588	54.128	-49.837	-45.571	-43.308	-39.485	149.118	-43.176	-8191	255	
16283.811	1	1	0	0	0.088749	0.16264	0.14617	0.15185	0.16892	0.20979	0.18231	0.058149	0.32756	0.14008	0.26758	0.24867	0.13742	0.21757	0.22068	0.1615	-2.4583	-2.7917	-2.9437	-2.9792	-2.7812	-3.0208	-2.9396	-2.8667	-3.0083	-2.7438	-2.8063	-3.2062	-2.5812	-3.1021	-3.0312	-2.7021	255.200	99.512	108.331	213.781	234.043	-57.475	172.572	195.529	-23.572	214.026	259.012	251.258	-33.476	185.037	93.040	-44.920	0.00014231	0.00057195	0.00015784	427.59	6.32e-06	6.6823e-06	365.98	140	1.5922e-06	4.0298e-06	146.32	69.341	63.281	40.032	5.2239e-06	46.167	0.0012617	0.0016597	0.00054132	421.08	1.7331e-05	1.845e-05	359.42	139.72	1.7392e-05	1.8398e-05	147.39	69.268	63.683	39.458	1.777e-05	45.178	194.141	37.691	42.678	-53.181	69.602	70.973	-53.721	-47.471	72.286	145.463	-49.795	-45.413	-43.025	-39.819	149.284	-43.153	-8191	255	
16283.930	1	1	0	0	0.12814	0.075392	0.12593	0.16013	0.20684	0.19831	0.095517	0.26388	0.18425	0.21602	0.096859	0.13331	0.072717	0.053185	0.20376	0.32841	-2.6896	-2.8125	-2.6167	-3.0146	-2.6208	-2.8312	-3.0396	-2.7771	-3.0521	-2.8542	-2.9292	-3.05	-2.9271	-2.9792	-2.9875	-2.7479	280.053	49.106	30.736	245.171	74.126	121.107	-14.735	221.465	-44.611	184.753	267.819	-31.299	280.405	53.281	63.325	265.986	7.9216e-05	0.00072228	0.00015214	424.26	2.6983e-06	5.3471e-06	361.57	139.8	2.391e-06	9.7991e-07	145.95	68.179	62.388	39.432	4.4359e-06	45.36	0.0012663	0.0016228	0.00055533	419.69	1.7383e-05	1.793e-05	358.6	139.25	1.7232e-05	1.8058e-05	146.26	68.386	63.066	39.016	1.7411e-05	44.488	191.795	65.085	41.568	-52.778	150.111	116.275	-53.385	-47.200	124.084	284.600	-49.928	-45.342	-43.524	-39.874	147.739	-43.432	-8191	255	
16284.026	1	1	0	0	0.095831	0.16833	0.10601	0.23962	0.17374	0.073619	0.13134	0.13165	0.14212	0.052835	0.15341	0.048543	0.26574	0.18022	0.17326	0.2466	-2.7042	-2.7875	-2.975	-3.1167	-2.7208	-2.8354	-3.0167	-2.65	-2.9354	-2.95	-2.875	-3.1312	-2.7333	-3.1937	-3.0708	-2.8646	-2.224	-43.177	116.343	187.409	-33.180	28.959	208.430	232.111	245.436	270.283	-14.832	41.831	216.232	242.594	78.466	242.579	0.00011151	0.00045488	0.00016698	426.52	1.2701e-06	6.9023e-06	360.43	139.16	1.0857e-06	4.8291e-06	144.48	67.991	62.068	39.143	7.0668e-06	45.506	0.0012529	0.0016306	0.00052656	418.19	1.7216e-05	1.7754e-05	355.03	137.93	1.7651e-05	1.7767e-05	145.01	68.07	62.605	38.823	1.704e-05	44.492	202.401	96.183	8.438	-52.601	22.609	114.753	-53.414	-47.113	286.258	119.156	-50.214	-45.791	-42.918	-39.417	146.875	-43.507	-8191	255	
16284.123	1	1	0	0	0.22482	0.27805	0.13425	0.16037	0.23926	0.32167	0.21689	0.18591	0.083172	0.1193	0.17351	0.257	0.16286	0.17061	0.19347	0.14685	-2.6229	-2.7417	-2.675	-3.0729	-2.7458	-2.85	-3.0563	-2.7292	-3.0396	-2.7625	-2.8104	-3.0667	-2.9771	-2.9479	-2.9229	-2.8771	249.308	-54.334	199.340	39.328	-12.922	274.527	-37.911	279.440	-32.348	254.058	68.611	165.212	238.844	-44.582	257.519	211.323	0.00016671	0.000617	0.00031813	421.55	1.1374e-06	5.056e-06	362.17	139.57	6.0336e-06	5.7777e-06	144.16	68.223	62.351	39.374	6.1525e-06	45.191	0.0012481	0.0015836	0.00055567	417.35	1.7283e-05	1.7981e-05	356.27	137.6	1.9866e-05	1.7627e-05	145.18	68.298	62.762	38.897	1.6852e-05	44.531	186.507	36.047	81.238	-53.010	-13.953	86.210	-53.679	-47.067	171.684	10.726	-50.167	-45.696	-43.295	-39.597	149.246	-43.158	-8191	255	
16284.219	1	1	0	0	0.1681	0.30652	0.12341	0.2926	0.15656	0.14336	0.1109	0.17998	0.27326	0.202	0.1958	0.18883	0.12155	0.1535	0.23069	0.29736	-2.4458	-2.9479	-2.6	-3.0208	-2.9167	-2.7271	-3.0938	-2.8271	-3.0354	-3.0333	-2.5312	-2.9354	-2.8479	-2.8125	-3	-2.7438	174.200	81.955	90.166	-54.640	91.681	226.880	200.079	281.187	12.172	65.718	-64.279	121.894	-18.448	289.472	189.669	220.996	0.00010964	0.00084821	0.00022556	425.54	3.2081e-06	6.3279e-06	361.13	138.83	7.6476e-06	5.3461e-06	142.51	68.064	62.371	38.797	5.6774e-06	45.118	0.0012174	0.0015391	0.00051871	417.63	1.6874e-05	1.7743e-05	356.77	136.87	2.0562e-05	1.7629e-05	144.08	67.89	62.247	38.485	1.7685e-05	44.183	159.695	27.417	66.687	-52.570	45.811	70.576	-53.977	-47.058	-55.094	31.788	-49.837	-45.677	-43.336	-39.767	64.555	-43.167	-8191	255	
16284.315	1	1	0	0	0.2853	0.22328	0.17546	0.19135	0.18036	0.16794	0.047686	0.23128	0.1459	0.30679	0.20288	0.14392	0.09975	0.1147	0.29741	0.044398	-2.5042	-3.0021	-2.8229	-2.9688	-2.8396	-2.7458	-3.1375	-2.8667	-3.0187	-2.9521	-2.6896	-3.1188	-2.9208	-2.8312	-3.0625	-2.7104	-48.243	77.844	246.725	227.486	-16.244	-33.506	-2.319	215.384	-52.505	36.616	252.374	-26.360	-23.055	245.918	23.618	-37.119	0.00011645	0.00063434	0.00019881	418.89	1.0814e-05	4.3989e-06	354.97	134.41	3.1042e-06	2.9324e-06	140.77	65.965	59.931	37.943	4.0362e-06	43.904	0.0012776	0.001652	0.00052065	411.69	1.7714e-05	1.868e-05	349.89	133.18	2.0702e-05	1.8645e-05	141.56	66.094	60.244	37.599	1.8344e-05	43.19	210.656	26.433	29.619	-52.836	80.600	45.674	-53.031	-47.328	101.233	40.114	-49.814	-45.452	-43.337	-39.601	42.334	-43.187	-8191	255	
16284.411	1	1	0	0	0.18727	0.19467	0.024223	0.21124	0.19544	0.43806	0.11461	0.28433	0.04866	0.12295	0.18414	0.12801	0.14732	0.073953	0.12911	0.096474	-2.4792	-2.8125	-2.5208	-3.0146	-2.7667	-2.8354	-3.075	-2.8479	-3.0479	-3.0625	-2.95	-2.8979	-2.6875	-2.8396	-3.1083	-2.9875	-62.379	8.518	154.464	242.014	-17.396	238.297	58.013	221.002	-22.447	6.003	230.583	10.427	267.462	110.711	12.059	77.109	0.00016531	0.00045045	3.6966e-05	403.77	5.516e-06	6.092e-06	347.27	130.46	2.5107e-06	5.9638e-06	135.6	64.47	57.959	37.253	3.8464e-06	43.485	0.0013101	0.0017132	0.00050099	403.77	1.8929e-05	2.0306e-05	343.83	129.94	2.2643e-05	2.0557e-05	137.85	64.699	58.841	36.954	2.0679e-05	42.792	197.450	24.569	84.951	-52.260	152.936	10.639	-53.709	-46.881	196.512	62.139	-49.944	-45.660	-43.084	-39.448	148.473	-42.910	-8191	255	
16284.532	1	1	0	0	0.1529	0.17253	0.2494	0.14457	0.23834	0.091741	0.35729	0.1338	0.20524	0.40657	0.17699	0.11849	0.09502	0.1094	0.11471	0.049894	-2.1937	-2.8187	-2.6604	-2.8292	-2.9646	-2.6437	-2.9437	-2.8563	-2.8583	-3.0667	-2.6208	-2.8958	-2.9062	-2.7271	-2.8333	-2.8917	7.972	66.381	236.144	104.155	105.252	69.295	231.842	-48.213	142.995	-43.646	-3.862	279.612	11.515	277.519	88.232	232.049	0.00012141	0.00026715	0.00015614	401.22	9.719e-07	7.3907e-06	343.96	129.14	7.3538e-06	4.6702e-06	134.22	64.312	57.581	37.236	2.144e-06	43.532	0.0014401	0.0018956	0.00053639	402.34	2.0024e-05	2.1018e-05	342.11	127.93	2.267e-05	2.0941e-05	136.97	64.533	58.461	36.912	2.1983e-05	42.831	184.055	235.123	8.262	-52.362	190.574	75.020	-53.521	-47.259	-41.053	99.308	-49.618	-45.310	-43.076	-39.427	114.582	-42.797	-8191	255	
16284.628	1	1	0	0	0.17591	0.059434	0.12768	0.13452	0.067282	0.091528	0.034713	0.29252	0.20377	0.24416	0.080747	0.13357	0.11269	0.056582	0.23519	0.1682	-2.3917	-2.9417	-2.6833	-2.8833	-3.0271	-2.7625	-3.0187	-2.8292	-2.6958	-3.0792	-2.7542	-2.7667	-2.9271	-2.575	-2.9729	-2.9021	227.125	19.428	157.671	238.238	60.783	271.933	132.450	291.548	114.249	72.508	79.249	281.328	78.021	-22.836	83.035	-32.984	0.00010596	0.00014008	0.00013483	397.98	6.4307e-06	1.6672e-06	341.98	127.68	9.4854e-06	4.0975e-06	132.13	63.413	56.74	36.725	3.8498e-06	43.164	0.0015044	0.0020005	0.00056844	401.36	2.1323e-05	2.288e-05	341.89	127.2	2.5335e-05	2.3293e-05	135.91	64.042	58.071	36.53	2.5976e-05	42.738	179.137	-31.298	-36.996	-52.578	91.927	222.026	-53.345	-47.232	279.209	214.570	-50.423	-45.538	-42.740	-39.517	98.537	-43.211	-8191	255	
16284.724	1	1	0	0	0.15985	0.10084	0.32247	0.17447	0.39127	0.077797	0.096536	0.10875	0.27844	0.099902	0.1847	0.12259	0.18407	0.14903	0.11859	0.13021	-2.0521	-3.0021	-2.7	-2.85	-3.0312	-2.8354	-2.7729	-2.9375	-2.725	-3.0229	-2.7521	-2.7812	-2.9979	-2.5917	-2.8708	-3.0833	22.658	234.822	-61.390	263.575	-1.888	291.379	89.123	-64.738	214.631	62.167	49.691	166.648	240.766	163.755	187.948	191.900	0.00016751	0.00081666	0.00016689	397.47	6.4064e-06	9.7308e-06	339.47	124.97	1.6015e-06	5.4024e-06	128.84	61.486	55.703	35.815	1.0779e-05	41.733	0.001664	0.0022107	0.00063003	402.44	2.4101e-05	2.5935e-05	341.15	126.01	2.8038e-05	2.6833e-05	133.35	62.757	57.082	35.801	3.1913e-05	41.765	199.865	31.104	9.191	-52.654	57.262	21.575	-53.680	-47.424	270.391	144.543	-49.748	-45.318	-42.977	-39.056	79.916	-42.925	-8191	255	
16284.845	1	1	0	0	0.066204	0.12999	0.11753	0.21624	0.10728	0.085592	0.20075	0.11384	0.15269	0.16983	0.13688	0.25523	0.04587	0.15328	0.29437	0.07008	-2.2812	-3.0312	-2.8542	-2.8021	-3.1333	-2.8187	-3.0104	-3.0229	-2.5646	-3.0125	-2.8646	-2.7708	-3.15	-2.9042	-2.9688	-3.1021	1.695	3.270	234.184	276.868	131.817	64.765	281.473	211.421	280.577	-3.411	1.528	285.302	99.891	-22.173	-40.329	192.258	0.00011647	0.0011159	0.00026822	391.5	5.9224e-06	2.0298e-06	331.53	119.64	1.2341e-06	8.1833e-06	123	57.911	52.862	34.742	2.3669e-06	41.147	0.0021088	0.0028962	0.00084713	404.4	3.3317e-05	3.6601e-05	342.77	124.19	3.8574e-05	4.0377e-05	132.79	61.348	55.989	35.339	4.0618e-05	41.703	162.797	263.616	37.200	-52.280	146.369	59.646	-53.009	-46.971	197.422	-7.038	-49.280	-44.984	-42.585	-39.016	138.157	-42.889	-8191	255	
16284.916	1	1	0	0	0.059718	0.0708	0.22908	0.46468	0.17085	0.15879	0.077258	0.022416	0.1426	0.058725	0.21367	0.25314	0.11534	0.20098	0.15299	0.12811	-2.175	-2.8979	-2.7208	-2.6688	-3.0542	-2.6146	-2.8792	-3	-2.5208	-3.0771	-2.8958	-2.7875	-3.0875	-2.8854	-2.8708	-2.9313	135.662	-23.292	1.349	293.308	-2.450	289.662	218.441	288.193	147.168	105.918	272.319	95.927	52.166	-62.139	85.887	143.369	0.00015545	0.00099439	8.1136e-06	387.84	2.7737e-06	4.0085e-06	329.72	118.33	7.5262e-06	9.5535e-06	118.87	56.504	51.207	34.27	3.9001e-06	40.627	0.0026704	0.0035401	0.0010082	406.68	3.8103e-05	4.0857e-05	343.75	123.17	3.8868e-05	4.4261e-05	131.27	59.931	54.754	34.858	4.4565e-05	41.579	195.019	31.959	20.518	-52.120	198.714	280.707	-53.083	-46.999	88.571	154.472	-50.025	-44.702	-42.578	-39.030	89.674	-42.406	-8191	255	
16285.012	1	1	0	0	0.15889	0.25879	0.054258	0.12707	0.06866	0.20275	0.11732	0.1079	0.25445	0.20083	0.1928	0.38762	0.24993	0.1865	0.14852	0.35696	-2.2313	-3.0187	-2.8312	-2.6042	-3.0896	-2.8167	-2.8667	-3.1854	-2.7438	-3.0812	-3.0687	-2.9229	-2.8375	-2.8125	-2.8583	-3.0167	21.734	187.789	44.279	197.221	61.775	21.024	-21.234	220.527	283.464	251.174	-51.925	267.458	252.504	-60.494	252.499	253.748	3.4772e-05	0.00011727	7.6419e-05	387.38	3.5792e-06	6.269e-06	334.45	115.68	5.2191e-06	7.7024e-06	114.75	55.071	49.507	33.394	3.4451e-06	40.034	0.0028983	0.0039282	0.0011034	408.33	4.3423e-05	4.6547e-05	350.96	122.32	4.5286e-05	5.1615e-05	130.49	59.063	53.909	34.218	4.8639e-05	41.149	108.863	42.800	-63.915	-51.844	54.700	180.036	-53.124	-47.016	156.519	195.185	-49.125	-44.785	-42.339	-38.517	83.333	-42.389	-8191	255	
16285.107	1	1	0	0	0.34589	0.17151	0.055441	0.32324	0.12496	0.15539	0.16531	0.21092	0.082802	0.062778	0.14734	0.26014	0.19304	0.36183	0.066844	0.26447	-2.2771	-2.8229	-2.8875	-2.7021	-2.9146	-2.8583	-2.7458	-3.0396	-2.6375	-2.825	-2.8937	-2.6875	-3.0708	-3.0896	-2.5563	-3.1688	84.141	189.036	20.314	181.390	22.168	189.975	256.921	259.291	-4.060	163.914	58.763	268.661	37.444	269.234	243.340	-52.655	0.00012214	0.00065701	0.00016465	384.21	1.6108e-06	6.5663e-06	331.54	114.05	3.0984e-06	5.5182e-06	112.4	52.839	47.375	32.449	6.0963e-06	39.166	0.0031938	0.0042534	0.0011846	406.93	4.618e-05	4.6479e-05	347.48	119.84	4.4126e-05	4.8499e-05	127.38	57.172	51.801	33.305	4.7189e-05	40.091	162.226	-8.414	294.180	-52.540	-27.245	75.851	-53.483	-47.395	273.527	195.332	-49.473	-44.562	-42.502	-38.649	146.911	-42.421	-8191	255	
16285.227	1	1	0	0	0.19159	0.1265	0.30768	0.14424	0.11236	0.15768	0.21715	0.032604	0.18755	0.20344	0.061341	0.12062	0.21758	0.13212	0.12177	0.1717	-2.5042	-2.7854	-3.0146	-2.6937	-2.9229	-3.0042	-2.8208	-3.1104	-2.8937	-2.9542	-3.1771	-2.6458	-3.075	-2.9208	-2.625	-2.8771	0.567	99.972	230.826	112.144	-48.142	17.871	159.763	17.165	44.446	247.208	120.077	207.938	69.017	-48.591	195.264	136.877	9.6784e-05	0.00037446	0.00018111	374.03	6.4583e-06	1.0018e-05	320.98	111.91	5.9066e-06	1.1738e-05	112.07	52.591	47.418	32.495	3.6641e-06	38.575	0.0029549	0.0039873	0.0011168	395.03	4.5007e-05	4.4258e-05	338.22	117.46	4.2917e-05	5.0369e-05	126.16	56.986	52.016	33.222	4.9277e-05	39.902	218.843	4.143	73.751	-51.606	154.204	196.154	-52.908	-46.644	73.283	3.601	-50.250	-44.780	-42.512	-38.969	134.436	-42.768	-8191	255	
16285.324	1	1	0	0	0.25607	0.19879	0.1944	0.049001	0.24708	0.10465	0.152	0.093924	0.11994	0.21448	0.32443	0.050656	0.20653	0.32652	0.20078	0.2398	-2.4021	-2.7604	-2.8354	-2.7854	-3.0167	-3.0354	-2.7625	-3.125	-3.0354	-2.8792	-3.2313	-2.7021	-2.8896	-2.9021	-2.6813	-2.8729	-4.727	17.634	287.167	211.877	43.536	292.104	260.265	147.442	-44.161	-4.701	208.737	222.398	-39.546	229.658	133.808	238.793	0.00011616	0.00052248	9.0065e-05	376.45	8.5465e-06	4.4291e-07	323	114.14	2.225e-07	3.4382e-06	112.9	53.794	49.43	32.526	9.5244e-06	38.132	0.0032416	0.0043776	0.0012424	401.28	5.1743e-05	5.0885e-05	343.39	121.1	5.0222e-05	5.5916e-05	130.7	58.931	54.709	33.814	5.4841e-05	40.121	188.321	-43.889	222.393	-51.885	246.080	280.130	-53.030	-46.985	153.722	246.091	-49.274	-44.907	-42.342	-38.640	71.632	-42.847	-8191	255	
16285.420	1	1	0	0	0.15185	0.063407	0.029803	0.15064	0.24997	0.09095	0.12293	0.2523	0.16986	0.09867	0.16876	0.22811	0.090119	0.19993	0.066444	0.046496	-2.5396	-2.7917	-3.0208	-2.7521	-2.8667	-3.0167	-2.8083	-2.9083	-2.8833	-2.7542	-2.9146	-2.6333	-2.8333	-3	-2.7167	-2.9979	226.856	195.425	62.278	16.951	-26.412	290.408	205.524	194.470	137.740	168.209	-45.661	124.162	-13.503	-56.007	123.063	107.033	5.1246e-05	0.00050094	9.4582e-05	377.62	2.0946e-06	6.4024e-06	319.82	112.76	7.8251e-06	1.1178e-05	111.94	53.543	49.639	32.54	6.5998e-06	38.285	0.0036569	0.0049841	0.0014166	408.95	5.7591e-05	5.844e-05	347.85	121.82	5.6877e-05	6.4574e-05	133	59.742	55.824	34.042	6.1461e-05	40.561	163.472	-2.177	140.820	-52.286	28.187	79.071	-52.972	-46.692	116.760	37.580	-49.939	-45.100	-42.619	-38.739	169.042	-42.492	-8191	255	
16285.491	1	1	0	0	0.22188	0.14273	0.14968	0.1806	0.28214	0.21636	0.20075	0.091186	0.10599	0.098992	0.17394	0.21287	0.022727	0.24374	0.24553	0.096437	-2.4292	-2.7729	-2.6979	-2.7396	-2.6604	-2.9729	-2.6792	-2.8021	-2.8396	-2.5521	-3.0604	-2.6479	-2.8208	-3.0792	-2.6646	-2.9375	100.484	119.549	40.908	47.135	129.699	239.726	112.665	37.655	191.814	92.193	243.689	266.375	-62.278	291.095	197.961	-56.968	3.2292e-05	0.00044565	0.00036048	389.48	4.4946e-06	7.0566e-06	327.52	115.39	8.0912e-06	6.1306e-06	115.05	56.525	53.537	34.556	2.2533e-06	40.002	0.0042302	0.0057998	0.0016826	430	6.8074e-05	6.8767e-05	361.88	126.83	6.6881e-05	7.5446e-05	140.63	64.108	61.12	36.708	7.606e-05	43.171	257.309	-42.710	66.642	-52.540	154.416	58.520	-53.393	-46.767	-26.520	257.488	-49.796	-45.258	-43.575	-39.506	84.957	-43.298	-8191	255	
16285.612	1	1	0	0	0.086643	0.31248	0.31154	0.14993	0.19946	0.17248	0.033704	0.15377	0.1775	0.058117	0.18381	0.29598	0.214	0.19212	0.15874	0.26213	-2.4646	-2.7417	-3.0146	-2.6813	-2.5521	-3.2458	-2.75	-2.8792	-2.8187	-2.7313	-2.9479	-2.7979	-2.8125	-2.9854	-2.7375	-2.9562	234.891	139.319	119.392	154.960	119.534	222.784	44.959	246.406	-22.380	182.689	201.101	-64.479	178.076	95.642	129.506	210.684	0.0001306	0.00093734	0.00031471	417.25	1.9843e-06	1.2672e-05	338.25	123.4	7.2184e-06	1.3204e-05	120.22	61.832	58.99	38.311	4.6592e-06	42.852	0.0052815	0.0073982	0.0021069	469.56	8.4496e-05	8.7602e-05	387.14	139.11	8.6362e-05	9.5949e-05	157	72.256	70.28	41.367	0.00010283	47.426	146.052	-51.372	135.334	-52.398	163.363	1.114	-53.060	-47.346	245.454	104.398	-50.274	-45.996	-43.646	-40.078	231.532	-43.335	-8191	255	
16285.708	1	1	0	0	0.30615	0.096984	0.18599	0.12689	0.3544	0.07469	0.091982	0.30139	0.13056	0.30411	0.078839	0.084698	0.2237	0.21284	0.31925	0.1899	-2.3417	-2.5271	-2.8208	-2.9396	-2.7875	-3.05	-2.5812	-2.7479	-3.1792	-2.7583	-3.0563	-2.8292	-2.7812	-3.0604	-2.8417	-2.7167	-30.395	136.550	117.130	144.903	190.741	147.357	-10.892	74.693	195.193	141.920	228.522	172.578	-52.446	-48.001	47.218	-19.109	0.00013017	0.00049809	0.00017936	468.03	9.8722e-06	9.3887e-06	368.55	136.22	4.5454e-06	9.0157e-06	131.32	69.128	69.118	41.288	1.4497e-05	44.601	0.0072467	0.01015	0.0028886	546.37	0.0001173	0.00012154	441.3	159.16	0.0001195	0.0001295	181.87	83.471	84.099	45.644	0.00013303	50.992	159.982	20.021	-20.750	-53.282	251.694	203.389	-54.314	-47.620	159.699	162.820	-50.190	-46.634	-43.685	-40.705	51.605	-43.901	-8191	255	
16285.804	1	1	0	0	0.26352	0.15297	0.1223	0.11407	0.097504	0.24871	0.22172	0.095421	0.16878	0.18799	0.28704	0.13857	0.068462	0.35584	0.21703	0.12689	-2.5104	-2.7604	-3.0083	-2.8792	-2.6375	-3.1083	-3.0104	-2.925	-3.0771	-2.7708	-2.9417	-2.8292	-2.75	-3.1833	-2.7979	-2.8688	-10.834	136.686	107.728	132.750	-53.785	269.704	253.285	278.395	98.956	92.923	222.916	207.345	22.605	243.434	181.481	240.202	0.00018336	0.0004139	0.00034077	545.55	1.0499e-05	1.0333e-05	414.15	150.42	4.5739e-06	2.267e-05	144.99	79.827	82.796	45.581	5.3411e-06	47.63	0.0092268	0.012898	0.0036634	640.68	0.00014441	0.00015121	503.1	179.82	0.00014891	0.00016002	208.93	97.585	101.19	51.222	0.00016453	55.961	181.140	64.800	109.250	-53.063	133.271	284.239	-54.188	-47.739	179.288	47.906	-50.263	-46.782	-44.587	-41.345	32.979	-44.199	-8191	255	
16285.925	1	1	0	0	0.27186	0.17456	0.22494	0.17658	0.069714	0.12959	0.32397	0.14779	0.13772	0.14019	0.16112	0.17676	0.17153	0.048149	0.38526	0.2725	-2.6625	-2.7292	-2.7938	-2.9354	-2.7708	-3.1583	-3.0312	-2.8917	-3.0938	-2.8688	-2.9208	-3.075	-2.7104	-3.0771	-2.9708	-2.9875	27.340	160.457	267.935	-43.422	246.726	247.436	175.320	178.917	196.140	34.072	261.275	-50.350	238.407	204.172	209.500	259.053	0.00028476	0.00062546	0.00028461	678.47	4.3513e-06	9.9111e-06	511.79	209.78	2.7043e-06	1.6535e-05	181.28	87.91	96.622	55.532	3.1653e-06	53.01	0.011538	0.016144	0.0045993	810.42	0.00018667	0.00020021	632.11	247.48	0.00019158	0.0002066	261.19	111.36	121	62.888	0.00020818	63.591	241.909	242.919	264.747	-52.668	234.474	183.029	-53.577	-47.504	205.984	173.286	-50.433	-46.876	-44.933	-41.860	60.530	-44.796	-8191	255	
16286.019	1	1	0	0	0.076005	0.089678	0.15917	0.11445	0.15861	0.12238	0.15071	0.046216	0.25621	0.21529	0.20894	0.1517	0.12963	0.30632	0.098213	0.14684	-2.4333	-2.6542	-2.6875	-2.9167	-2.6729	-2.7	-3.0438	-2.8375	-2.9104	-2.7917	-2.75	-3.1354	-2.7208	-3.1104	-3.0417	-2.7833	86.121	287.939	146.069	51.255	22.953	7.705	-64.911	203.199	159.223	258.212	263.874	291.847	247.077	236.607	240.013	148.753	0.00011595	0.00055167	0.00045589	891.32	1.7881e-05	8.1961e-06	620.9	267.42	5.2205e-06	2.1929e-05	207.84	95.888	113.79	62.14	6.5019e-06	55.272	0.014502	0.019845	0.0055708	1038.9	0.00021128	0.00022536	749.24	306.45	0.00020631	0.00021722	291.3	119.85	137.24	69.034	0.00020205	65.23	270.366	24.095	12.069	-52.796	288.762	205.815	-53.763	-48.320	283.266	149.261	-51.430	-47.268	-45.092	-42.882	198.046	-45.476	-8191	255	
16286.116	1	1	0	0	0.16294	0.10305	0.15154	0.30388	0.087149	0.045801	0.14128	0.22667	0.053549	0.17739	0.28777	0.14812	0.29756	0.16034	0.098586	0.28109	-2.5542	-2.7438	-2.7062	-3.1417	-2.7042	-3.0354	-2.9375	-2.8083	-3.0104	-2.8812	-2.9083	-3.2958	-2.75	-3.0583	-2.9688	-2.7896	71.526	55.824	94.404	212.599	-58.999	133.039	-55.142	-11.597	206.467	122.390	191.276	204.464	271.472	292.372	66.084	240.498	0.00029467	0.0022813	8.4391e-05	960.52	4.2722e-06	6.513e-06	638.25	273.89	7.6795e-06	1.0055e-05	206.28	93.085	109.98	59.991	7.22e-06	52.367	0.013655	0.018606	0.0051915	1097.7	0.0001959	0.00020931	756.61	310.25	0.00019192	0.00020125	281.79	115.39	132.16	66.191	0.0001907	62.005	182.996	11.458	264.536	-52.722	266.667	90.872	-53.710	-47.941	152.228	112.803	-50.755	-47.531	-44.891	-41.979	140.678	-45.246	-8191	255	
16286.212	1	1	0	0	0.23747	0.20704	0.015659	0.35045	0.069368	0.16611	0.19062	0.19675	0.22551	0.17179	0.22591	0.32578	0.06347	0.18145	0.1923	0.18555	-2.6625	-2.6875	-2.7271	-3.0979	-2.9562	-2.9062	-2.9771	-2.8	-3.1896	-2.9062	-2.5875	-3.1604	-2.8646	-2.9354	-3.1	-2.5938	130.634	142.344	-44.097	253.853	236.141	-11.304	245.829	151.066	159.358	-20.935	120.355	239.343	89.264	224.506	19.680	263.803	0.0002821	0.0014622	0.00050504	926.88	1.6587e-05	1.9738e-06	610.55	261.3	1.0861e-05	1.1381e-05	198.01	88.646	103.68	55.382	6.5849e-06	48.846	0.013171	0.017614	0.0049257	1056.3	0.00018692	0.00019791	721.86	296.59	0.00018435	0.00019367	273.18	109.77	124.73	61.416	0.00018689	58.268	181.474	-4.112	-23.040	-52.490	2.181	158.507	-53.684	-47.938	185.974	80.656	-51.221	-47.405	-45.190	-41.994	13.654	-45.256	-8191	255	
16286.308	1	1	0	0	0.28934	0.24754	0.10706	0.11307	0.27045	0.27011	0.22449	0.24138	0.021379	0.25968	0.1954	0.38639	0.31425	0.1451	0.13898	0.15508	-2.4354	-2.9229	-2.8708	-3.0271	-2.7938	-2.9271	-3.3	-3.0375	-3.0187	-3.1542	-2.9958	-3.3146	-2.9	-2.9292	-3.1083	-3.0687	242.993	258.010	168.104	174.908	102.879	214.564	-17.321	243.376	209.553	291.313	276.592	-15.146	234.779	260.216	180.158	245.408	0.00027075	0.00098588	0.00025112	887.74	9.8532e-06	4.5401e-06	584.9	249.46	1.3838e-05	1.5821e-05	188.95	82.404	95.429	50.551	6.2161e-06	45.155	0.012931	0.017208	0.0048735	1014.6	0.00018346	0.00019738	696.52	284.49	0.00018158	0.00019235	263.89	103.95	117.33	56.68	0.00018376	54.363	178.553	1.428	70.707	-52.263	17.530	100.460	-53.644	-47.752	71.073	135.907	-51.010	-47.046	-44.790	-41.665	275.481	-44.673	-8191	255	
16286.404	1	1	0	0	0.21671	0.10809	0.092032	0.08437	0.24038	0.088815	0.18806	0.24449	0.10022	0.11771	0.077334	0.041084	0.20265	0.2917	0.17047	0.41955	-2.6167	-2.7771	-2.7104	-3.1188	-2.7583	-2.8	-3.0125	-3.0021	-2.8812	-3.0062	-2.8187	-3.0167	-2.8937	-2.8021	-2.9417	-3.0083	80.751	3.996	25.869	213.106	116.963	119.564	290.062	253.709	225.227	-15.394	-11.820	271.027	-46.892	236.882	-33.203	207.830	0.00022251	0.00070324	3.6033e-05	846.93	1.458e-05	7.6128e-06	567.07	238.21	1.2975e-05	2.0544e-05	182.72	76.477	89.282	46.484	1.4488e-05	42.287	0.01265	0.01674	0.0047541	969.18	0.00017532	0.00018627	670.72	271.12	0.00017057	0.00017937	249.99	97.565	109.29	52.193	0.00016988	50.566	122.833	-53.618	34.121	-52.489	84.888	280.453	-53.593	-48.044	93.682	226.334	-50.725	-46.648	-44.698	-41.026	59.714	-44.252	-8191	255	
16286.525	1	1	0	0	0.26779	0.10516	0.2661	0.35723	0.1016	0.018424	0.24913	0.32997	0.23724	0.1215	0.19464	0.15807	0.042995	0.17807	0.13192	0.049189	-2.2604	-3.1521	-2.5417	-3.0833	-2.9146	-2.9292	-3.1271	-2.9188	-2.9813	-3.1312	-2.7771	-2.9167	-2.9958	-2.8312	-3.1875	-3.0917	-20.903	29.481	190.427	241.682	-1.205	122.648	169.518	259.484	-12.662	109.067	163.554	266.463	46.412	266.241	193.026	260.304	0.00014375	0.00083901	0.00011388	826.35	1.1744e-05	4.6672e-06	539.92	231.53	2.3521e-06	9.8199e-06	177.88	74.704	86.654	45.616	1.1804e-05	41.442	0.011481	0.015316	0.0043552	930.23	0.00015885	0.00017233	639.44	260.72	0.00015632	0.00016474	240.64	93.838	104.78	50.74	0.00015813	49.158	113.541	-17.549	51.299	-52.597	-9.349	58.758	-53.556	-47.850	98.823	160.643	-50.992	-46.495	-44.156	-40.765	160.312	-43.724	-8191	255	
16286.621	1	1	0	0	0.25265	0.14256	0.29158	0.18266	0.23042	0.16349	0.061615	0.084674	0.20341	0.15684	0.25454	0.067684	0.36969	0.14136	0.13417	0.16318	-2.4792	-2.9833	-2.6729	-3.0146	-3.0104	-2.5771	-3.0812	-2.9813	-2.75	-3.0625	-2.9	-2.9833	-3.0938	-2.7896	-3.0896	-3.0542	46.796	-37.207	150.642	225.634	36.720	91.174	-56.704	160.888	105.479	82.847	286.881	-65.449	-27.703	274.330	238.409	156.685	0.00033708	0.00042024	0.00057615	812.05	4.1341e-06	9.7811e-06	540.68	230.74	1.679e-06	1.2166e-05	177.67	74.79	85.799	45.149	3.4908e-06	41.127	0.010755	0.014302	0.0040458	912.99	0.00015031	0.0001613	630.45	257.63	0.00014699	0.00015651	235.17	92.348	102.96	50.014	0.0001477	48.32	185.068	164.288	-0.826	-52.287	-17.178	57.961	-53.657	-48.062	62.528	121.107	-50.544	-45.954	-44.187	-40.314	108.135	-43.839	-8191	255	
16286.717	1	1	0	0	0.20156	0.10792	0.17559	0.11911	0.27825	0.25281	0.39074	0.26979	0.16416	0.33354	0.16961	0.18366	0.21849	0.13865	0.20696	0.31812	-2.55	-2.9979	-2.7083	-2.9396	-2.9792	-2.725	-3.0292	-3.0042	-2.8708	-2.9208	-2.7146	-2.8604	-3.05	-2.7438	-3.0542	-2.9062	-10.206	41.598	37.971	253.011	241.677	120.647	227.194	182.463	23.660	219.158	4.949	18.284	188.771	227.295	78.615	284.685	0.00029004	0.00046591	8.2729e-05	804.97	5.5967e-06	2.6442e-06	533.01	227.2	4.6952e-06	1.6512e-05	173.42	73.592	84.453	44.293	9.2291e-06	40.603	0.0099909	0.013476	0.0037881	892.75	0.00013912	0.0001497	615.15	251.59	0.00013732	0.00014726	228.31	89.28	100.37	49.007	0.0001416	47.501	180.112	-37.647	51.564	-52.341	72.264	136.747	-53.672	-47.900	-17.560	35.242	-50.402	-46.532	-44.110	-40.223	83.143	-43.459	-8191	255	
16286.789	1	1	0	0	0.32439	0.16135	0.097988	0.14918	0.20642	0.19928	0.23364	0.1758	0.10978	0.1195	0.20134	0.10584	0.098655	0.29351	0.12849	0.16263	-2.1063	-3.0625	-2.8021	-2.7771	-3.0667	-2.8646	-3.0542	-2.8917	-2.5896	-3.0083	-2.7854	-2.7271	-3.0396	-2.8979	-2.9188	-3.0604	4.639	101.568	129.287	-13.961	82.480	183.980	-15.102	140.864	276.265	186.327	207.221	99.833	-49.390	209.593	192.370	2.145	0.00026692	0.0022926	0.00027675	790.19	8.8281e-06	1.2675e-05	522.17	224.03	2.8602e-06	1.0596e-05	172.62	72.863	83.938	43.867	1.0378e-05	40.769	0.0098688	0.013144	0.0036794	878.05	0.00013766	0.00014617	606.87	248.41	0.00013636	0.00014608	225.12	88.638	99.649	48.524	0.00013814	47.107	185.607	120.565	-50.138	-52.546	172.549	165.208	-54.387	-48.161	68.071	-1.629	-50.456	-46.679	-43.955	-40.264	190.816	-43.926	-8191	255	
16286.907	1	1	0	0	0.14478	0.11827	0.19075	0.047808	0.057396	0.042311	0.18677	0.23405	0.037894	0.16133	0.28011	0.069785	0.25417	0.21065	0.25273	0.37029	-2.3604	-2.9021	-2.8021	-2.6583	-3.0229	-2.8125	-2.9417	-3.0667	-2.7417	-2.9729	-2.8854	-2.7833	-3.0729	-2.9	-2.9354	-3.0167	-0.322	-61.953	20.075	154.448	-21.124	-7.802	176.286	287.343	207.571	51.524	121.849	225.014	74.194	292.611	131.675	207.719	0.00010154	0.0012872	7.9651e-05	777.67	1.14e-05	1.9323e-05	507.44	220.2	7.585e-06	1.0448e-05	169.36	72.106	82.879	44.083	5.0196e-06	41.004	0.0094724	0.012687	0.0035158	857.15	0.000131	0.00013721	588.05	242.26	0.00012664	0.0001344	218.72	86.562	97.222	48.084	0.00012545	46.62	201.949	23.269	188.172	-52.424	57.124	-1.843	-53.499	-47.433	-28.677	-31.745	-50.080	-46.193	-43.886	-40.231	-35.430	-43.233	-8191	255	
16287.004	1	1	0	0	0.33136	0.13399	0.22047	0.045317	0.21543	0.15446	0.16643	0.096682	0.068948	0.24812	0.083521	0.059397	0.16482	0.37911	0.15229	0.20709	-2.3083	-2.9437	-2.9125	-2.8063	-3.0917	-2.775	-2.8396	-3.1604	-2.5646	-2.85	-3.0521	-2.9458	-3.2604	-2.9833	-2.8125	-2.9854	108.769	255.334	-4.484	226.458	45.183	175.182	40.805	144.002	207.184	208.141	-57.528	183.298	229.510	253.549	89.895	269.543	0.00011493	0.00081739	0.00053463	774.23	1.4858e-05	1.7376e-05	513.06	220.35	7.1397e-06	1.1785e-05	170.52	73.066	82.875	43.736	4.5542e-06	41.013	0.0086177	0.011906	0.003221	845.1	0.00012092	0.00012661	581.42	240.87	0.00011799	0.00012277	214.63	85.885	95.772	47.436	0.00011412	45.994	168.335	175.074	45.128	-52.283	37.004	104.331	-53.917	-47.518	263.045	72.522	-50.245	-46.013	-43.504	-39.890	-16.238	-43.378	-8191	255	
16287.100	1	1	0	0	0.15585	0.18128	0.1305	0.21789	0.17042	0.035405	0.19221	0.16688	0.23948	0.13614	0.14172	0.248	0.22996	0.10145	0.17423	0.10629	-2.3583	-2.8896	-2.8812	-2.6583	-3.1292	-3.0396	-3.0729	-3.2146	-2.6979	-2.9875	-2.9104	-2.7833	-2.8063	-2.8354	-2.6729	-3.1958	54.663	35.193	-53.639	248.882	151.454	239.983	281.401	155.449	68.138	-36.427	280.320	-40.478	-58.912	290.471	252.617	120.113	0.00015935	0.0014696	0.00024075	768.68	8.06e-06	8.3815e-06	511.56	222.8	5.2511e-06	6.842e-06	171.72	72.059	82.464	44.134	1.5088e-05	40.753	0.0077901	0.010799	0.0029041	831.62	0.00010946	0.0001151	573.27	238.72	0.00010775	0.00011256	210.67	83.785	94.347	47.213	0.00010672	45.448	223.445	70.135	41.181	-52.485	120.595	35.487	-53.434	-47.667	125.325	-49.416	-49.962	-46.504	-43.522	-40.233	54.050	-43.505	-8191	255	
16287.196	1	1	0	0	0.23335	0.081564	0.19749	0.14572	0.16889	0.14519	0.15155	0.088954	0.04604	0.16674	0.15367	0.23726	0.26483	0.069087	0.14407	0.1609	-2.3812	-2.8104	-2.9042	-2.7313	-2.9083	-2.9667	-2.7958	-3.1396	-2.7	-3.025	-2.9979	-2.6104	-3.1562	-3.1083	-2.75	-3.1208	294.137	257.949	281.311	280.539	134.224	-41.791	84.150	272.216	-13.255	-50.185	-23.095	253.507	206.562	289.946	236.649	148.697	8.6649e-05	0.00078575	0.00055582	772.5	4.0669e-06	4.8734e-06	512.96	222.45	5.7198e-06	1.4478e-05	171.4	71.915	83.926	44.646	8.4558e-06	40.744	0.0073547	0.010295	0.0027652	830.43	0.00010529	0.00010982	571.12	239.08	0.00010486	0.00010907	209.57	83.709	95.383	47.423	0.00010649	45.616	270.833	107.436	85.957	-52.553	17.973	49.429	-53.591	-47.649	-42.107	115.469	-50.388	-46.205	-43.998	-39.997	41.319	-43.286	-8191	255	
16287.292	1	1	0	0	0.075501	0.025484	0.1985	0.12804	0.3988	0.057947	0.084835	0.15547	0.2458	0.22682	0.14225	0.1526	0.18317	0.15688	0.13052	0.098338	-2.275	-2.8354	-3.0875	-2.8083	-2.9833	-2.9333	-2.9792	-3.1063	-2.6979	-2.9229	-2.9604	-2.7021	-3.0271	-3.0521	-2.7208	-3.0292	155.040	37.893	-40.223	262.230	84.199	75.203	186.005	230.307	169.201	135.352	253.646	169.662	222.841	252.035	86.447	165.628	0.00011567	0.00082237	0.00033246	778.12	7.2975e-06	6.1626e-06	512.88	224.58	5.1447e-06	9.5396e-06	173.01	72.58	83.795	44.601	1.1852e-05	41.441	0.0072379	0.010057	0.0027613	835.19	0.00010474	0.00010993	574.24	240.09	0.0001046	0.00010942	211.93	84.132	95.299	47.503	0.0001068	45.8	-50.239	105.552	114.045	-52.207	112.286	123.036	-53.449	-47.517	185.862	78.888	-50.280	-45.912	-43.464	-39.882	222.931	-43.153	-8191	255	
16287.388	1	1	0	0	0.12729	0.085477	0.059722	0.13306	0.15194	0.2308	0.12803	0.258	0.2962	0.17823	0.1105	0.14437	0.093035	0.089173	0.019975	0.044452	-2.5438	-2.7896	-2.95	-2.9875	-2.8917	-2.8792	-2.725	-2.9979	-2.8063	-2.75	-3.0729	-2.9125	-2.7958	-3.1396	-2.5021	-3.1583	56.723	84.521	-30.419	61.478	-65.135	287.818	247.353	217.455	272.143	241.454	-32.373	262.480	197.632	147.762	50.179	208.713	0.00021423	0.0014796	0.00023326	771.98	1.3841e-05	2.5482e-06	518.37	223.74	7.3511e-06	1.4082e-05	173.71	73.05	84.044	44.58	9.107e-06	41.566	0.0072052	0.010215	0.0027947	833.12	0.00010451	0.00010886	574.48	240.94	0.00010368	0.00011069	213.39	84.579	96.099	47.723	0.0001097	46.234	187.069	57.121	48.515	-52.368	140.048	-60.478	-53.785	-47.455	130.196	-2.761	-49.858	-45.745	-43.928	-40.002	263.537	-43.865	-8191	255	
16287.484	1	1	0	0	0.22205	0.31691	0.13956	0.18148	0.22434	0.20709	0.15685	0.2275	0.10336	0.16506	0.15704	0.11536	0.27193	0.10963	0.13596	0.22714	-2.4542	-2.8167	-2.9667	-2.7438	-3.0625	-2.9104	-2.8229	-3.0854	-2.9771	-2.975	-3.0208	-2.775	-2.8417	-3.1792	-2.6792	-3.0687	178.233	199.087	291.023	-39.315	178.474	205.292	166.648	266.336	290.063	-49.109	24.127	225.017	-0.477	254.999	58.138	245.537	2.6565e-05	0.00083032	0.00038536	776.63	1.1404e-05	9.2308e-06	522.33	223.7	5.4532e-06	1.2917e-05	176.05	73.198	84.351	44.846	4.7574e-06	41.682	0.0074542	0.010477	0.0028973	837.68	0.00010834	0.00011453	577.61	242.66	0.00010789	0.00011498	214.76	85.122	96.431	48.071	0.00011189	46.323	228.845	160.833	186.431	-52.579	203.981	31.689	-53.816	-47.757	-31.775	171.553	-50.251	-46.061	-43.920	-40.207	152.345	-43.702	-8191	255	
16287.605	1	1	0	0	0.035667	0.097324	0.094069	0.15179	0.25724	0.10607	0.21609	0.22781	0.25334	0.14853	0.039461	0.23504	0.14875	0.12383	0.22905	0.36007	-2.5875	-2.7479	-3.0521	-2.8125	-2.7875	-3.1396	-2.7313	-2.775	-2.7833	-2.6521	-3.075	-2.9292	-2.5792	-3.1292	-2.7062	-2.9562	206.651	275.671	245.521	227.966	-52.003	-1.515	-45.375	213.393	119.801	32.740	278.745	254.419	217.826	141.325	62.083	127.074	0.00011992	0.0014721	0.00046802	778.74	1.4424e-05	7.982e-06	516.64	223.84	7.3622e-06	6.7294e-06	171.57	72.961	83.948	45.033	6.8339e-06	41.161	0.0075202	0.010678	0.002912	836.5	0.00010841	0.00011385	574.21	241.64	0.00010762	0.00011424	213.37	84.869	96.668	48.175	0.00011122	46.119	200.757	162.984	-27.067	-52.571	281.371	66.943	-53.764	-47.500	100.187	212.085	-50.234	-46.312	-43.595	-40.161	-8.764	-43.641	-8191	255	
16287.701	1	1	0	0	0.092905	0.19032	0.048681	0.25841	0.19477	0.14515	0.17248	0.13839	0.10764	0.095509	0.085115	0.013198	0.094861	0.31008	0.14512	0.073394	-2.6063	-2.5917	-2.9104	-2.8917	-2.7417	-3	-2.55	-3.0229	-2.85	-2.4583	-2.975	-2.6958	-2.8792	-3.1521	-2.875	-2.8854	78.592	28.596	-59.281	197.612	220.552	166.515	146.459	-53.388	268.504	239.454	35.154	40.236	286.868	219.906	291.940	3.677	8.8454e-05	0.00087559	0.00014871	777.1	1.5862e-05	4.3428e-06	514.03	225.63	3.3673e-06	1.0097e-05	173.8	72.993	84.26	44.97	8.6283e-06	41.339	0.00753	0.010561	0.0029603	839.2	0.00010942	0.00011566	575.85	242.96	0.0001089	0.00011678	214.33	85.139	96.707	48.069	0.00011417	46.25	202.981	207.168	114.818	-52.737	216.194	22.774	-53.896	-47.592	95.198	110.835	-50.090	-46.317	-43.781	-40.068	98.342	-43.382	-8191	255	
16287.797	1	1	0	0	0.16563	0.031113	0.14357	0.2028	0.14231	0.10309	0.033213	0.14295	0.29938	0.26762	0.2151	0.21943	0.082334	0.38749	0.18565	0.075662	-2.8	-2.6792	-2.9229	-3.0271	-2.825	-3.125	-2.9667	-2.8708	-2.9958	-2.9333	-2.9708	-2.9771	-2.9729	-3.0875	-2.8146	-2.8979	153.572	261.983	226.386	255.446	147.436	51.936	-39.310	-34.998	-5.533	125.022	91.614	36.522	-58.000	-59.036	-57.129	234.364	7.7143e-05	0.0011672	0.00035327	774.14	8.3213e-06	1.0724e-05	515.34	224.03	5.8639e-06	6.4852e-06	174.07	73.294	84.387	44.782	1.411e-05	41.514	0.0076982	0.010487	0.0030678	837.29	0.00011234	0.00011811	576.47	241.7	0.00011038	0.00011839	215.75	85.445	97.099	48.277	0.00011543	46.498	115.621	-21.193	245.726	-52.448	-63.323	163.934	-53.726	-47.705	34.816	-51.666	-50.125	-46.490	-43.974	-39.996	208.841	-43.262	-8191	255	
16287.893	1	1	0	0	0.31718	0.18733	0.28159	0.072059	0.12695	0.10314	0.050286	0.091481	0.18502	0.20103	0.13109	0.14821	0.14234	0.16429	0.20326	0.24459	-2.4729	-2.6271	-2.8688	-2.9771	-2.7167	-3.1646	-2.9	-2.9313	-3.1271	-2.8667	-2.9583	-2.8021	-2.7021	-3.1458	-3.0104	-2.8021	32.002	40.578	174.453	292.724	151.632	157.438	287.348	175.270	201.534	249.932	280.597	-27.646	270.693	82.930	216.862	268.774	2.6539e-05	0.00076212	6.295e-06	780.2	8.5864e-06	6.2281e-06	519.97	223.32	4.931e-06	1.5231e-05	174.05	73.534	84.623	44.942	9.2745e-06	41.521	0.0077947	0.010717	0.0030977	840.03	0.00011317	0.00012075	578.66	242.31	0.00011231	0.00012033	216.17	85.841	97.415	48.581	0.00011492	46.681	-20.633	115.468	104.134	-52.525	122.360	64.581	-53.538	-47.698	241.499	1.403	-50.289	-46.264	-43.911	-39.731	201.834	-43.533	-8191	255	
16288.012	1	1	0	0	0.37164	0.080099	0.1278	0.028042	0.17869	0.39753	0.2707	0.018493	0.19067	0.22665	0.11031	0.23172	0.2921	0.1409	0.27116	0.22247	-2.7229	-2.7042	-2.7938	-3.1292	-2.7021	-3.1396	-2.9854	-2.85	-3.1354	-2.8	-3.0042	-3.0563	-2.7604	-2.925	-2.8979	-2.8104	262.364	210.399	-8.255	257.874	2.555	192.981	204.110	-26.119	155.167	5.805	271.263	-31.274	252.934	98.162	107.131	148.931	0.00018793	0.0019013	0.00015142	773.77	3.5755e-06	1.6547e-05	515.22	224.25	5.7506e-06	9.2901e-06	172.44	73.212	84.429	44.922	1.6217e-06	41.292	0.0078975	0.010855	0.0031431	840.66	0.00011427	0.00012218	576.62	243.16	0.00011469	0.00012164	215.69	86.042	97.098	48.569	0.00011606	46.614	235.652	66.424	-62.860	-52.355	117.181	106.956	-53.636	-47.449	200.949	176.802	-50.721	-46.269	-43.892	-40.063	271.524	-43.370	-8191	255	
16288.084	1	1	0	0	0.045863	0.14576	0.11308	0.23739	0.15733	0.14715	0.20433	0.094282	0.12484	0.06224	0.18167	0.19905	0.27334	0.085158	0.18317	0.16947	-2.6604	-2.6937	-2.9313	-3.0292	-2.7417	-3.0687	-2.925	-2.8208	-3.0604	-2.9667	-2.7979	-3.2062	-2.7542	-2.8833	-2.8312	-2.7542	11.161	-48.945	-61.666	251.046	146.696	41.075	196.875	187.186	238.909	142.468	138.380	237.659	214.632	22.756	90.246	210.835	9.6092e-05	0.00059241	0.00022541	771.95	1.7671e-05	9.463e-06	512.41	223	1.1678e-05	1.0272e-05	175.37	73.108	84.518	44.913	1.61e-05	41.61	0.007956	0.010863	0.0031075	838.42	0.00011601	0.00012132	576	242.75	0.00011516	0.00012116	216.51	86.217	97.395	48.603	0.00011741	46.945	173.240	52.966	15.258	-52.306	240.397	107.191	-53.380	-47.716	153.935	274.031	-50.411	-46.050	-43.624	-40.128	169.876	-44.049	-8191	255	
16288.205	1	1	0	0	0.29131	0.22557	0.12623	0.091003	0.34106	0.10446	0.21801	0.18032	0.22403	0.25663	0.051663	0.05487	0.10524	0.25875	0.067207	0.19918	-2.5125	-2.8021	-2.6979	-3.25	-2.6854	-2.9104	-3.0042	-2.8	-3.0646	-2.85	-2.7417	-3.1562	-2.8583	-3.0854	-2.9688	-2.6875	85.590	10.837	106.084	-11.080	208.259	201.593	-54.353	-41.374	163.608	144.308	154.518	213.530	191.347	-42.159	68.463	278.566	0.00012319	0.0017862	0.00010519	769.87	1.118e-05	1.0558e-05	516.98	223.7	5.1323e-06	9.1398e-06	173.52	73.758	84.912	45.305	1.1616e-05	41.505	0.0081356	0.010945	0.0032012	842.54	0.00011764	0.00012383	580.21	244.1	0.0001186	0.00012308	217.87	87.011	97.862	48.935	0.00011773	46.92	198.452	81.412	73.301	-52.588	16.220	92.967	-53.530	-47.864	250.379	50.856	-49.798	-45.999	-43.748	-39.989	242.873	-43.829	-8191	255	
16288.301	1	1	0	0	0.28541	0.18325	0.12798	0.24598	0.2545	0.02958	0.20017	0.20222	0.11239	0.18196	0.14931	0.1187	0.047579	0.16207	0.12194	0.060406	-2.5479	-3.0896	-2.7188	-3.1667	-2.7687	-2.8646	-3.0896	-2.8271	-2.8375	-2.8312	-2.8646	-3.1604	-2.7583	-2.95	-3.0354	-2.7875	88.550	14.335	189.318	292.462	175.097	83.183	277.135	-12.522	227.105	-11.050	53.498	63.653	88.455	255.932	20.295	123.775	0.00016372	0.00047941	0.00031222	771.57	1.2542e-05	9.1218e-06	514.33	222.67	7.751e-06	8.3198e-06	173.91	74.051	84.808	45.418	2.8517e-06	42.109	0.008096	0.010917	0.003133	837.76	0.00011616	0.00012111	579.58	241.8	0.00011983	0.00012108	217.45	86.819	97.623	48.925	0.00011903	47.25	203.459	24.149	174.100	-52.706	218.949	-28.616	-53.750	-47.259	135.029	34.035	-50.057	-46.008	-43.918	-39.871	49.321	-43.471	-8191	255	
16288.397	1	1	0	0	0.22604	0.11067	0.16901	0.16214	0.1359	0.35069	0.024748	0.1413	0.094075	0.21295	0.084857	0.16762	0.14352	0.11101	0.10351	0.13192	-2.3604	-2.7687	-2.7646	-3.0083	-2.9083	-2.7771	-3.1708	-2.7354	-2.9375	-2.9833	-2.7125	-3.0792	-2.8646	-2.7083	-2.9729	-2.7521	20.258	71.778	129.263	206.980	-57.213	227.556	281.807	-41.382	93.525	163.866	181.945	-36.192	243.098	83.665	127.228	148.623	0.00013093	0.00051396	0.00022911	770.98	1.012e-05	6.82e-06	511.01	223.41	1.2496e-05	1.8923e-05	173.3	73.835	84.245	45.126	1.8817e-06	41.832	0.0081357	0.011098	0.0032542	841.02	0.00011958	0.00012498	577.4	242.75	0.00012069	0.00012456	218.19	87.292	97.767	48.931	0.00012244	47.312	258.497	285.549	257.830	-52.578	77.344	286.770	-53.330	-47.774	37.590	100.587	-50.304	-46.405	-43.871	-40.020	62.446	-43.557	-8191	255	
16288.493	1	1	0	0	0.27047	0.13906	0.081642	0.31117	0.25952	0.16733	0.17501	0.1038	0.46122	0.15942	0.23035	0.14919	0.26153	0.020905	0.10276	0.070945	-2.4313	-2.9625	-2.6542	-3.0625	-2.8646	-2.8042	-3.1312	-2.8333	-2.9188	-3.125	-2.8625	-3.1792	-2.9292	-2.8521	-2.9625	-2.7104	24.357	183.105	174.466	-27.431	133.981	88.930	226.371	278.552	215.528	158.790	238.381	-59.654	-58.087	271.026	148.816	7.556	0.00019067	0.0011102	0.00027201	762.9	1.468e-05	1.9625e-05	511.16	220.24	4.9555e-06	6.662e-06	171.14	72.55	82.885	44.745	2.8237e-06	41.659	0.0083065	0.011309	0.0032422	836.56	0.00012049	0.00012689	578.14	240.55	0.00012469	0.00012619	217.47	86.805	96.696	48.548	0.00012471	47.22	189.114	64.569	226.374	-52.542	23.085	66.995	-53.773	-47.404	73.701	137.703	-50.409	-45.881	-43.714	-40.094	-38.860	-43.378	-8191	255	
16288.614	1	1	0	0	0.27844	0.040979	0.11221	0.043014	0.18075	0.18927	0.10785	0.057435	0.16303	0.30983	0.18533	0.17871	0.056243	0.25956	0.24962	0.095077	-2.275	-2.9854	-2.6208	-2.9938	-2.8354	-2.7042	-3.1292	-2.9271	-2.7833	-3.1083	-2.6437	-2.9521	-2.9021	-2.7604	-3.1479	-2.9479	55.754	-46.886	-5.144	257.370	137.621	61.521	59.729	-1.029	285.836	-18.231	235.238	278.183	30.940	269.113	253.910	171.670	0.00010021	0.00096057	0.00022976	752.41	9.4056e-06	7.4794e-06	509.91	221.98	1.536e-05	5.553e-06	174.59	74.703	84.474	45.727	7.1929e-06	42.428	0.0083875	0.011436	0.0032943	835.49	0.00012233	0.00013029	581.58	241.97	0.00012594	0.00013195	221.81	88.608	98.745	49.664	0.00012987	48.333	213.560	181.963	20.781	-52.378	140.928	198.379	-53.299	-47.750	52.159	-35.014	-50.502	-45.824	-43.571	-40.180	166.108	-43.432	-8191	255	
16288.685	1	1	0	0	0.11048	0.17675	0.068031	0.21389	0.24958	0.077194	0.22078	0.12982	0.10207	0.038273	0.17137	0.13961	0.11595	0.16716	0.09339	0.18776	-2.2438	-2.9958	-2.7021	-3.0125	-3.0667	-2.6688	-2.9771	-2.8375	-2.6604	-3.0938	-2.7708	-2.9188	-3.0208	-2.7188	-2.9146	-3.125	166.607	84.208	152.187	-18.063	280.463	181.293	187.538	246.635	104.521	-15.647	201.651	-25.276	-39.339	236.359	157.930	184.327	0.00014852	0.00083246	0.00027391	764.27	1.4487e-05	3.8031e-06	513.58	221.81	7.3733e-06	1.5916e-05	174	74.436	83.556	45.185	1.0408e-05	41.977	0.0087168	0.011953	0.0034063	846.1	0.00012663	0.00013465	586.29	243.05	0.00012885	0.00013335	221.82	88.105	98.086	49.079	0.00012888	47.69	192.045	109.511	246.381	-52.222	-8.081	70.997	-53.394	-47.947	33.959	148.392	-50.042	-45.864	-43.542	-40.175	267.510	-43.760	-8191	255	
16288.782	1	1	0	0	0.16106	0.11367	0.15067	0.17959	0.26233	0.13086	0.0091323	0.22478	0.10136	0.28285	0.11932	0.2554	0.2055	0.061761	0.098937	0.14909	-2.3896	-3.0479	-2.6083	-2.8729	-3.1042	-2.7542	-3.05	-2.8854	-2.6437	-3.0958	-2.8479	-2.8521	-2.9479	-2.7229	-2.8792	-2.9	48.461	33.191	190.721	215.178	178.023	80.694	188.919	194.418	164.553	134.176	75.501	188.600	3.197	277.567	252.904	179.872	8.7522e-05	0.00013485	0.00016637	757.36	3.816e-06	8.7276e-06	502.46	218.09	1.2969e-05	2.821e-06	170.73	72.068	82.366	44.15	1.2553e-05	41.322	0.0085293	0.011736	0.003305	835.1	0.000123	0.00013077	575.16	238.5	0.00012539	0.00013008	217.79	86.044	95.888	48.084	0.00013023	46.932	207.765	107.532	-42.521	-52.725	-29.965	103.515	-53.497	-47.935	168.057	-51.689	-50.138	-46.034	-43.806	-40.139	190.239	-43.423	-8191	255	
16288.878	1	1	0	0	0.23366	0.30437	0.13344	0.033808	0.20458	0.1505	0.083826	0.14128	0.22208	0.095829	0.13114	0.12204	0.22278	0.25487	0.1475	0.23792	-2.2208	-3.1208	-2.7646	-2.8979	-2.925	-2.8229	-2.9688	-2.7979	-2.6375	-3.1479	-2.8187	-2.8958	-3.1271	-2.9104	-3.0354	-2.9542	182.512	27.003	66.793	-38.495	286.094	148.096	277.565	209.568	282.419	185.887	180.435	160.024	-35.264	14.801	97.490	188.833	4.4372e-05	0.0013351	0.00031988	753.49	6.6174e-06	8.6761e-06	502.72	217.71	6.2814e-06	4.6391e-06	170.65	74.214	84.388	45.645	1.0213e-05	42.617	0.0084855	0.011699	0.0033145	826.85	0.00012521	0.00013357	576.99	239.3	0.00013113	0.00013573	221.3	88.779	99.5	49.875	0.00013632	48.913	26.673	28.155	-0.447	-52.916	105.075	-52.305	-53.780	-47.275	115.797	30.687	-49.899	-45.909	-43.920	-40.277	117.262	-43.604	-8191	255	
16288.974	1	1	0	0	0.13306	0.12056	0.055197	0.13375	0.10518	0.20947	0.14005	0.26114	0.11012	0.12095	0.34707	0.077439	0.091624	0.21109	0.049699	0.22609	-2.35	-3.0438	-2.8792	-2.7646	-2.9521	-2.7917	-2.9479	-3.0438	-2.7604	-2.9792	-2.9562	-2.8146	-3.1437	-2.8187	-2.975	-3.0229	114.431	188.114	74.027	19.718	163.793	238.997	68.955	293.609	55.221	191.490	232.516	-8.590	-8.569	248.857	260.623	285.812	6.9918e-05	0.00063363	0.00011242	759.04	1.2393e-05	6.7623e-06	510.62	220.01	8.3152e-06	9.7262e-06	174.15	75.446	84.751	45.686	7.1664e-06	42.659	0.0092132	0.012595	0.0035362	847.41	0.00013422	0.00014279	588.25	243	0.00013569	0.00014408	225.52	90.418	100.18	50.213	0.00014062	49.046	97.030	-63.557	243.962	-52.741	236.352	121.479	-53.357	-47.598	151.156	152.656	-49.876	-45.828	-43.378	-40.335	-31.294	-43.580	-8191	255	
16289.093	1	1	0	0	0.10643	0.19905	0.18689	0.20136	0.15453	0.14675	0.15692	0.022559	0.13517	0.24021	0.19881	0.23697	0.30153	0.097599	0.2863	0.30971	-2.2667	-2.9646	-2.8354	-2.5771	-3.0833	-3.0167	-2.7292	-3.2625	-2.7396	-3.1583	-2.9062	-2.8604	-3.1063	-3.0042	-2.7167	-3.025	10.067	-10.479	39.608	276.178	237.700	208.342	-52.807	141.724	162.879	2.778	30.939	215.827	279.257	154.149	45.020	224.899	0.00016132	0.0012284	0.00012423	747.35	6.3032e-06	1.0424e-05	502.89	216.33	6.6523e-06	2.1971e-05	170.79	72.14	81.622	44.004	1.1023e-05	40.972	0.009314	0.012714	0.0035087	835.51	0.00013297	0.00013976	577.76	238.51	0.00012985	0.00014043	218.94	86.627	96.072	48.036	0.00013181	47.144	239.000	77.436	103.847	-52.269	-59.482	169.324	-53.621	-47.834	-54.308	32.271	-50.351	-45.929	-43.940	-39.989	283.472	-43.580	-8191	255	
16289.189	1	1	0	0	0.42517	0.085913	0.11834	0.27789	0.18199	0.16179	0.18398	0.17245	0.25928	0.39097	0.09893	0.14409	0.19983	0.3226	0.12347	0.17956	-2.3104	-2.8896	-2.8458	-2.7646	-2.8729	-2.8187	-2.7396	-2.9042	-2.8771	-2.9625	-2.9354	-2.6813	-3.0521	-2.9542	-2.6792	-3.0729	-32.208	-3.544	228.432	287.263	274.711	137.197	270.049	258.289	-16.903	85.777	243.822	-58.980	250.479	232.782	82.356	44.938	0.00015622	0.0011748	0.00024907	734.73	8.2458e-06	1.1508e-05	493.95	213.44	4.7432e-06	1.9075e-05	168.86	72.069	81.274	44.32	2.0279e-06	41.193	0.0088682	0.012014	0.0033439	817.41	0.0001268	0.00013336	566.95	234.66	0.00012706	0.00013726	216.7	86.737	96.154	48.434	0.00013635	47.609	159.103	24.250	115.593	-52.658	269.548	110.813	-53.859	-47.505	36.203	113.316	-50.657	-46.469	-43.383	-40.187	227.668	-43.551	-8191	255	
16289.285	1	1	0	0	0.22832	0.27425	0.11796	0.10621	0.04292	0.1563	0.036232	0.3071	0.17722	0.11467	0.18757	0.21668	0.24793	0.20156	0.066493	0.13288	-2.2396	-2.7729	-2.8104	-2.7812	-3.1	-2.8479	-2.9104	-3.0417	-2.6833	-2.9604	-3.1813	-2.7604	-3.1437	-2.9042	-2.6875	-3.0729	2.604	158.593	109.828	94.268	271.516	-35.208	112.189	278.030	104.639	146.945	46.872	224.832	-49.125	252.636	-14.136	-52.710	7.5321e-05	0.0010935	0.00030267	737.73	9.6586e-06	3.4756e-06	493.94	212.09	1.2556e-05	8.7313e-06	167.32	72.55	82.398	44.353	4.9374e-06	41.524	0.0091543	0.012294	0.0034463	821.29	0.00013251	0.00013698	571.4	235.36	0.00013129	0.00014113	218.57	87.629	97.081	48.577	0.00013583	47.842	194.499	9.157	22.332	-52.518	-20.415	249.977	-53.673	-47.563	-55.894	85.280	-50.300	-46.253	-43.375	-40.388	267.941	-43.713	-8191	255	
16289.381	1	1	0	0	0.19165	0.22331	0.19135	0.13799	0.17178	0.32236	0.11784	0.091583	0.17237	0.11666	0.19633	0.16362	0.32517	0.20498	0.25787	0.19812	-2.35	-2.8792	-2.8354	-2.7521	-3.05	-2.8187	-2.8917	-3.2375	-2.8979	-2.8708	-3.1125	-2.6542	-2.9208	-3.0917	-2.7188	-3.0062	48.719	143.892	257.298	231.107	94.759	150.773	253.061	277.627	-17.089	80.365	-34.326	266.410	267.637	-33.819	1.297	18.300	0.00012759	0.0023169	0.00015092	732.88	1.3885e-05	1.1723e-05	496.2	211.87	9.9213e-06	1.2969e-05	167.37	71.879	80.184	43.797	7.1703e-06	41.18	0.0090768	0.01224	0.0034404	815.73	0.00013475	0.00013511	567.98	234.1	0.00012599	0.00013575	216.07	86.062	94.64	47.656	0.00013148	47.043	171.684	-46.796	-6.621	-52.020	-24.346	170.390	-53.437	-47.667	165.257	122.234	-50.234	-46.288	-43.213	-40.066	-5.613	-43.756	-8191	255	
16289.477	1	1	0	0	0.11188	0.255	0.26503	0.29035	0.1215	0.18308	0.18928	0.065564	0.10431	0.35904	0.14547	0.23653	0.22915	0.29301	0.05586	0.24168	-2.4333	-2.7729	-2.9	-2.8354	-2.9125	-2.9479	-2.8271	-3.0896	-2.9729	-2.6125	-3.2458	-2.85	-2.85	-3	-2.6813	-3.1813	142.962	-51.400	153.835	-22.040	277.237	167.511	277.693	226.287	237.525	28.411	45.695	113.995	281.537	113.781	197.253	176.456	7.5789e-05	0.00016164	0.00054976	725.29	4.4705e-06	6.4947e-06	488.47	209.36	7.4095e-06	1.2851e-05	166.17	70.621	79.516	42.951	1.2893e-05	40.735	0.0086515	0.011725	0.0033065	803.57	0.00012707	0.00012996	562.4	231.21	0.00012271	0.00013272	213.42	84.818	93.319	46.851	0.00012595	46.582	-36.486	99.323	138.250	-52.569	83.814	202.238	-53.311	-47.726	10.535	187.891	-50.128	-45.766	-43.727	-39.781	-11.047	-43.578	-8191	255	
16289.573	1	1	0	0	0.22796	0.20089	0.12394	0.082339	0.11536	0.05574	0.045013	0.20056	0.14629	0.10111	0.10845	0.36525	0.063112	0.27866	0.16619	0.45663	-2.325	-2.5438	-2.9333	-2.8917	-2.9562	-2.9583	-2.8021	-3.0521	-2.7354	-2.6958	-2.8625	-2.8792	-2.9667	-2.9792	-2.7604	-3.0417	-41.192	-44.401	-10.907	189.022	278.033	-34.920	132.512	189.875	248.380	131.935	252.479	200.680	284.343	272.120	273.135	-65.619	0.00014093	0.0027128	8.9172e-05	722.43	1.0979e-05	4.3055e-06	486.19	209.9	4.7917e-06	9.29e-06	164.62	70.363	78.968	43.162	1.2492e-05	40.571	0.0084183	0.011408	0.0032466	797.83	0.00012498	0.00012696	557.55	230.29	0.00011987	0.00013064	211.8	84.182	92.699	46.963	0.00012422	46.439	143.080	5.272	42.340	-52.446	107.641	-2.283	-53.565	-48.006	218.266	39.062	-49.572	-45.777	-43.676	-39.917	150.559	-43.212	-8191	255	
16289.694	1	1	0	0	0.25973	0.10198	0.14489	0.31786	0.12941	0.21298	0.30264	0.11882	0.17017	0.13309	0.11975	0.31146	0.14246	0.31661	0.078899	0.15466	-2.4375	-2.6208	-3.1083	-2.8083	-2.875	-3.0667	-2.7521	-3.1604	-2.9813	-2.7375	-3.2229	-2.9229	-2.8771	-3.1542	-2.9458	-2.9417	220.090	291.512	116.734	259.611	275.395	280.290	255.240	209.700	29.269	18.147	1.455	-33.511	259.749	-60.320	51.350	26.365	0.00011866	0.00083555	0.00021878	724.32	3.1626e-06	2.2122e-05	489.34	209.79	1.2806e-05	1.1032e-05	165.24	70.853	79.864	43.084	5.5962e-06	40.652	0.0083009	0.011547	0.0032438	800.52	0.00012359	0.00012786	558.22	230.28	0.00012048	0.00013257	212.25	84.439	93.465	46.972	0.00012585	46.655	203.465	80.581	-55.987	-52.371	191.590	156.471	-53.192	-47.479	11.797	60.906	-49.969	-46.594	-43.686	-40.038	133.531	-43.665	-8191	255	
16289.790	1	1	0	0	0.22849	0.3375	0.12191	0.12022	0.16047	0.11741	0.20354	0.14247	0.09099	0.16651	0.18522	0.11078	0.14148	0.10783	0.18027	0.17664	-2.6146	-2.7271	-2.9854	-2.8958	-2.8333	-3.0771	-2.8958	-3.1875	-2.9708	-2.7792	-3.1354	-2.8688	-2.8396	-3.2375	-2.8708	-2.9667	40.856	103.652	162.549	169.931	-18.434	68.360	87.284	287.385	120.436	40.969	216.111	-1.244	278.568	246.435	-50.491	290.385	0.00015984	0.00080478	0.00043234	729.84	1.8553e-05	3.0522e-06	492.19	210.93	9.6469e-06	1.0913e-05	167.35	71.154	80.464	43.571	6.44e-06	40.78	0.008453	0.011702	0.0032826	806.81	0.00012685	0.00013082	562.09	232.21	0.00012183	0.00013049	215.66	84.884	94.299	47.566	0.00012462	46.754	135.527	66.988	-46.768	-52.374	102.826	14.701	-53.861	-47.512	152.766	102.193	-50.032	-46.310	-43.562	-40.072	259.698	-43.497	-8191	255	
16289.886	1	1	0	0	0.034521	0.072264	0.42057	0.32113	0.069592	0.035767	0.25554	0.26139	0.22524	0.029041	0.15905	0.072349	0.19704	0.12543	0.090342	0.23914	-2.5042	-2.6604	-3.2333	-2.9562	-2.7313	-3.0583	-2.8021	-2.9396	-2.8271	-2.8312	-2.9979	-2.8875	-2.8042	-3.1521	-2.9646	-2.9875	162.553	264.467	-40.485	288.306	259.174	210.778	224.550	272.899	79.726	-31.507	288.565	-8.577	256.597	-22.918	173.722	165.156	0.00015692	0.00060345	0.00029898	745.53	7.5882e-06	1.7476e-05	497.65	215.96	1.2866e-05	1.1575e-05	168.63	72.119	83.248	44.767	1.4751e-05	41.89	0.0083769	0.011525	0.0032194	817.4	0.00012395	0.00012918	568.18	235.97	0.00012082	0.0001289	218.7	86.021	96.572	48.53	0.00012606	47.629	212.529	222.839	31.679	-52.468	23.242	251.085	-53.600	-47.167	75.156	85.727	-49.993	-45.933	-44.034	-40.172	128.035	-43.511	-8191	255	
16289.981	1	1	0	0	0.22444	0.083858	0.073131	0.1226	0.38747	0.10672	0.1228	0.1537	0.19832	0.11812	0.21952	0.052209	0.204	0.3517	0.15568	0.16942	-2.8292	-2.5958	-2.9708	-3.1521	-2.775	-3.1771	-3.025	-2.8104	-3.05	-2.8229	-2.9646	-2.8292	-2.7021	-3.2292	-2.8812	-2.9229	239.332	199.060	126.304	-58.347	141.614	171.224	99.690	-19.191	38.700	162.196	272.985	-35.974	126.806	273.266	72.705	87.857	4.2161e-05	0.00023387	0.00019072	755.3	2.4874e-06	1.8744e-05	500.91	216.5	5.9227e-06	9.4318e-06	167.5	72.763	83.46	45.128	9.9949e-06	41.985	0.0085841	0.011764	0.0033413	834.67	0.00013066	0.00013561	575.17	238.71	0.00013056	0.00013942	220.66	88.151	98.471	49.533	0.00013579	48.706	183.514	241.514	34.005	-52.815	104.828	199.442	-53.729	-47.841	18.517	191.680	-49.781	-46.295	-43.626	-40.155	114.637	-43.786	-8191	255	
#DATA ENDS
