BOXY.EXE: ISS Imagent and Oximeter Data Acquisition Program Version 0.80
Ascii Record File

#ACQ INFORMATION
2  Detector Channels 
16  External MUX Channels 
1  Auxiliary Channels 
5000  Waveform (CCF) Frequency (Hz)
1  Waveforms Skipped 
30  Waveforms Averaged 
1  Cycles Averaged 
16  Acquisitions per Waveform 
10.0806  Updata Rate (Hz) 

#FILE INFORMATION
TRUE -- External MUX Channel results are PARSED.
FALSE -- AC DC and Phase are NOT grouped.
TRUE -- Companion Program Settings File CREATED.
FALSE -- AC data not excluded
FALSE -- DC data not excluded
FALSE -- Phase data not excluded
FALSE -- Auxillary Chn. data not excluded
Tab delimiters

#CALIBRATION STATE
TRUE -- Waveform Calibration Values APPLIED.


#AUX CALIBRATION VALUES
Val Type	aux-1	

Term	1.0000e+00	
Factor	0.0000e+00	


#WF CALIBRATION VALUES
A = Detector Channel
Val Type	A-AC1	A-AC2	A-AC3	A-AC4	A-AC5	A-AC6	A-AC7	A-AC8	A-AC9	A-AC10	A-AC11	A-AC12	A-AC13	A-AC14	A-AC15	A-AC16	A-DC1	A-DC2	A-DC3	A-DC4	A-DC5	A-DC6	A-DC7	A-DC8	A-DC9	A-DC10	A-DC11	A-DC12	A-DC13	A-DC14	A-DC15	A-DC16	A-Ph1	A-Ph2	A-Ph3	A-Ph4	A-Ph5	A-Ph6	A-Ph7	A-Ph8	A-Ph9	A-Ph10	A-Ph11	A-Ph12	A-Ph13	A-Ph14	A-Ph15	A-Ph16	

Term	0.00000e+00	0.00000e+00	0.00000e+00	0.00000e+00	0.00000e+00	0.00000e+00	0.00000e+00	0.00000e+00	0.00000e+00	0.00000e+00	0.00000e+00	0.00000e+00	0.00000e+00	0.00000e+00	0.00000e+00	0.00000e+00	0.00000e+00	0.00000e+00	0.00000e+00	0.00000e+00	0.00000e+00	0.00000e+00	0.00000e+00	0.00000e+00	0.00000e+00	0.00000e+00	0.00000e+00	0.00000e+00	0.00000e+00	0.00000e+00	0.00000e+00	0.00000e+00	0.00000e+00	0.00000e+00	0.00000e+00	0.00000e+00	0.00000e+00	0.00000e+00	0.00000e+00	0.00000e+00	0.00000e+00	0.00000e+00	0.00000e+00	0.00000e+00	0.00000e+00	0.00000e+00	0.00000e+00	0.00000e+00	
Factor	1.00000e+00	1.00000e+00	1.00000e+00	1.00000e+00	1.00000e+00	1.00000e+00	1.00000e+00	1.00000e+00	1.00000e+00	1.00000e+00	1.00000e+00	1.00000e+00	1.00000e+00	1.00000e+00	1.00000e+00	1.00000e+00	1.00000e+00	1.00000e+00	1.00000e+00	1.00000e+00	1.00000e+00	1.00000e+00	1.00000e+00	1.00000e+00	1.00000e+00	1.00000e+00	1.00000e+00	1.00000e+00	1.00000e+00	1.00000e+00	1.00000e+00	1.00000e+00	X	X	X	X	X	X	X	X	X	X	X	X	X	X	X	X	

B = Detector Channel
Val Type	B-AC1	B-AC2	B-AC3	B-AC4	B-AC5	B-AC6	B-AC7	B-AC8	B-AC9	B-AC10	B-AC11	B-AC12	B-AC13	B-AC14	B-AC15	B-AC16	B-DC1	B-DC2	B-DC3	B-DC4	B-DC5	B-DC6	B-DC7	B-DC8	B-DC9	B-DC10	B-DC11	B-DC12	B-DC13	B-DC14	B-DC15	B-DC16	B-Ph1	B-Ph2	B-Ph3	B-Ph4	B-Ph5	B-Ph6	B-Ph7	B-Ph8	B-Ph9	B-Ph10	B-Ph11	B-Ph12	B-Ph13	B-Ph14	B-Ph15	B-Ph16	

Term	0.00000e+00	0.00000e+00	0.00000e+00	0.00000e+00	0.00000e+00	0.00000e+00	0.00000e+00	0.00000e+00	0.00000e+00	0.00000e+00	0.00000e+00	0.00000e+00	0.00000e+00	0.00000e+00	0.00000e+00	0.00000e+00	0.00000e+00	0.00000e+00	0.00000e+00	0.00000e+00	0.00000e+00	0.00000e+00	0.00000e+00	0.00000e+00	0.00000e+00	0.00000e+00	0.00000e+00	0.00000e+00	0.00000e+00	0.00000e+00	0.00000e+00	0.00000e+00	-1.56410e+02	-1.27925e+02	-1.23922e+02	-1.82673e+02	-7.57512e+01	-6.11924e+01	-1.55323e+02	-1.62015e+02	-8.33286e+01	-6.57451e+01	-1.72119e+02	-1.69838e+02	-1.79785e+02	-1.77170e+02	-7.38895e+01	-1.49034e+02	
Factor	2.27176e-05	1.55070e-04	4.33590e-05	1.76889e-01	1.36821e-06	1.78199e-06	1.63072e-01	4.85717e-02	1.34987e-06	1.70672e-06	9.20508e-02	2.79817e-02	2.79836e-02	8.82360e-03	1.44751e-06	1.26394e-02	1.41485e-05	2.59860e-05	7.31483e-06	8.80964e-02	2.56862e-07	2.96358e-07	7.67068e-02	2.43435e-02	2.54028e-07	2.93281e-07	4.48789e-02	1.37183e-02	1.41984e-02	4.46541e-03	2.69071e-07	6.22161e-03	X	X	X	X	X	X	X	X	X	X	X	X	X	X	X	X	



#DISTANCE SETTINGS
A = Detector Channel
A-1	A-2	A-3	A-4	A-5	A-6	A-7	A-8	A-9	A-10	A-11	A-12	A-13	A-14	A-15	A-16	

2.5000e+00	3.0000e+00	2.5000e+00	3.0000e+00	2.0000e+00	3.0000e+00	1.5000e+00	3.0000e+00	3.0000e+00	3.0000e+00	3.0000e+00	3.0000e+00	3.0000e+00	3.0000e+00	1.5000e+00	3.0000e+00	

B = Detector Channel
B-1	B-2	B-3	B-4	B-5	B-6	B-7	B-8	B-9	B-10	B-11	B-12	B-13	B-14	B-15	B-16	

1.0000e+01	1.0000e+01	1.0000e+01	1.4400e+00	1.0000e+01	1.0000e+01	1.5100e+00	1.9400e+00	1.0000e+01	1.0000e+01	1.9900e+00	2.4900e+00	2.4100e+00	2.9000e+00	1.0000e+01	2.9800e+00	




#DATA BEGINS
time	group	step	mark	flag	A-AC1	A-AC2	A-AC3	A-AC4	A-AC5	A-AC6	A-AC7	A-AC8	A-AC9	A-AC10	A-AC11	A-AC12	A-AC13	A-AC14	A-AC15	A-AC16	A-DC1	A-DC2	A-DC3	A-DC4	A-DC5	A-DC6	A-DC7	A-DC8	A-DC9	A-DC10	A-DC11	A-DC12	A-DC13	A-DC14	A-DC15	A-DC16	A-Ph1	A-Ph2	A-Ph3	A-Ph4	A-Ph5	A-Ph6	A-Ph7	A-Ph8	A-Ph9	A-Ph10	A-Ph11	A-Ph12	A-Ph13	A-Ph14	A-Ph15	A-Ph16	B-AC1	B-AC2	B-AC3	B-AC4	B-AC5	B-AC6	B-AC7	B-AC8	B-AC9	B-AC10	B-AC11	B-AC12	B-AC13	B-AC14	B-AC15	B-AC16	B-DC1	B-DC2	B-DC3	B-DC4	B-DC5	B-DC6	B-DC7	B-DC8	B-DC9	B-DC10	B-DC11	B-DC12	B-DC13	B-DC14	B-DC15	B-DC16	B-Ph1	B-Ph2	B-Ph3	B-Ph4	B-Ph5	B-Ph6	B-Ph7	B-Ph8	B-Ph9	B-Ph10	B-Ph11	B-Ph12	B-Ph13	B-Ph14	B-Ph15	B-Ph16	aux-1	digaux	

25758.150	1	1	0	768	0.27087	0.055171	0.18611	0.086795	0.082987	0.26869	0.091724	0.094564	0.16574	0.11098	0.12768	0.23127	0.080005	0.21052	0.14583	0.070056	-2.5167	-3.0396	-3.0354	-2.9708	-3.15	-2.8792	-2.8354	-3.2479	-2.9437	-3.0146	-3.1333	-2.925	-3.075	-3.0062	-2.8771	-3.1979	246.775	82.181	14.154	337.183	293.873	133.904	16.345	278.818	29.338	136.519	308.966	310.217	223.545	330.421	335.618	219.137	0.00019574	0.000327	9.573e-05	545.44	2.7255e-06	3.2212e-06	492.03	179.64	2.5898e-06	1.7429e-06	207.51	80.787	75.654	31.38	3.026e-06	32.834	0.00023699	0.00018477	5.4617e-05	530.32	3.3456e-06	2.0572e-06	479.35	177.8	2.1614e-06	3.4234e-06	202.63	80.021	75.02	31.295	3.7468e-06	32.259	102.510	84.883	77.154	-1.326	165.014	147.803	-2.850	4.558	133.553	109.074	1.408	5.138	8.227	12.622	119.507	8.746	-8191	255	
25758.248	1	1	0	0	0.20984	0.091347	0.11633	0.29504	0.18143	0.26736	0.11893	0.22681	0.16375	0.059806	0.034701	0.20202	0.14079	0.42562	0.10376	0.10773	-2.6646	-2.9271	-3.1792	-3.0438	-3.0854	-3.0458	-2.7938	-3.2188	-3.0521	-2.9437	-3.3229	-2.9583	-3.2396	-3.1479	-2.9854	-3.2979	210.083	245.249	287.020	288.589	47.287	151.618	304.321	331.545	190.008	79.715	162.897	314.816	206.328	290.218	132.221	271.499	0.00018533	0.00030718	9.2811e-05	543.27	2.9961e-06	2.4972e-06	491.79	181.53	2.0633e-06	2.8828e-06	206.81	81.287	75.819	31.616	2.5893e-06	32.919	0.00021806	0.00018212	5.1905e-05	529.17	3.2589e-06	1.9689e-06	478.61	178.36	2.074e-06	3.7534e-06	202.82	80.28	75.126	31.381	3.1784e-06	32.366	113.478	80.777	76.142	-1.431	143.815	144.382	-3.089	4.202	140.988	108.918	1.362	5.548	8.655	12.413	119.868	8.783	-8191	255	
25758.344	1	1	0	0	0.11338	0.050364	0.085889	0.15585	0.11733	0.10277	0.19861	0.37126	0.079918	0.18333	0.18054	0.30408	0.15453	0.33561	0.091966	0.19534	-2.7583	-2.8729	-3.1771	-2.9583	-3.1771	-3.2208	-2.8333	-2.95	-2.9396	-2.8979	-3.2938	-2.9083	-2.9667	-3.0542	-2.8104	-3.2042	265.608	43.833	154.797	277.962	82.129	31.754	126.474	304.131	19.837	268.570	218.853	336.913	248.875	306.047	126.558	127.954	0.00019362	0.00040418	9.9694e-05	542.67	2.753e-06	4.1359e-06	490.7	180.85	2.8633e-06	2.2669e-06	209.63	82.141	76.104	31.79	2.4815e-06	33.28	0.00021857	0.00020783	5.2514e-05	530.61	3.4634e-06	2.0801e-06	479.94	178.3	2.1275e-06	3.5603e-06	204.33	80.988	75.295	31.525	2.3348e-06	32.729	108.385	78.948	77.715	-1.728	176.123	151.444	-2.525	4.491	120.957	134.386	1.699	5.368	8.612	12.438	147.786	8.436	-8191	255	
25758.439	1	1	0	0	0.089457	0.25491	0.2131	0.32033	0.14198	0.11687	0.058427	0.19438	0.09862	0.15561	0.32137	0.31544	0.23604	0.13862	0.19319	0.031477	-2.6375	-2.8771	-3.2188	-3.1146	-3.0687	-3.1562	-2.8375	-3.2667	-3.0229	-2.7896	-3.1625	-2.9229	-2.8479	-3.35	-2.8312	-3.0875	135.278	61.124	100.147	-0.475	287.703	213.310	3.307	145.608	111.729	-3.743	235.521	327.495	248.780	290.085	332.335	269.239	0.00017867	0.00025784	8.6592e-05	545.46	1.8725e-06	3.3792e-06	495.68	181.25	2.5074e-06	3.2347e-06	210.59	82.792	76.637	32.018	3.4917e-06	33.46	0.00022266	0.00019333	5.5989e-05	530.45	3.2985e-06	2.035e-06	482.45	178.82	2.1344e-06	3.7051e-06	205.86	81.796	75.83	31.783	2.249e-06	32.995	111.795	87.610	83.586	-1.470	157.533	142.826	-2.939	4.150	136.937	131.682	1.453	5.367	8.654	12.285	135.742	8.427	-8191	255	
25758.535	1	1	0	0	0.2729	0.18436	0.17722	0.21383	0.19156	0.026878	0.055057	0.24655	0.026591	0.13423	0.21077	0.16381	0.092181	0.25477	0.1307	0.17658	-2.6729	-2.7792	-3.0479	-2.9021	-2.7854	-3.1813	-2.6125	-3.2646	-3.2062	-2.8479	-3.1146	-2.8937	-2.8937	-3.3312	-2.9229	-3.1646	31.319	342.064	49.569	338.777	117.151	106.176	136.531	18.825	307.261	18.255	189.822	21.246	342.330	329.935	51.271	5.916	0.00017772	0.00027179	8.5311e-05	542.43	3.7376e-06	3.2294e-06	497.27	182.37	3.6723e-06	2.3975e-06	209.25	82.704	76.788	32.075	1.687e-06	33.365	0.00023024	0.00019338	5.0899e-05	529.21	3.3767e-06	1.8843e-06	481.61	179.36	2.1444e-06	3.0501e-06	205.1	81.662	75.868	31.81	2.0741e-06	32.853	110.952	83.932	49.324	-1.534	179.132	144.096	-2.984	4.367	139.496	133.925	1.006	5.092	8.657	12.598	129.427	8.486	-8191	255	
25758.633	1	1	0	0	0.17242	0.20803	0.043221	0.28046	0.18801	0.22119	0.14916	0.15992	0.06388	0.26623	0.057995	0.066694	0.10474	0.19623	0.24519	0.22769	-2.7333	-2.8979	-3.2313	-3	-2.7917	-3.2188	-2.9958	-3.0812	-3.4208	-2.9042	-3.0917	-3.0479	-2.9104	-2.9875	-2.9313	-2.9562	7.494	267.004	271.165	235.484	272.323	322.351	191.829	32.947	93.816	78.692	333.837	108.237	14.831	291.855	226.078	81.603	0.000171	0.00033845	6.6533e-05	543.07	2.6091e-06	2.9843e-06	492.99	183.19	1.9029e-06	2.9465e-06	208.39	82.76	76.547	32.055	3.2977e-06	33.188	0.00022352	0.00018515	5.131e-05	530.85	3.3933e-06	1.9535e-06	480.09	179.45	2.1741e-06	2.1092e-06	204.63	81.492	75.761	31.776	2.0517e-06	32.825	108.053	80.352	80.239	-1.511	136.031	141.128	-3.004	4.373	133.756	141.848	1.398	5.381	8.582	12.508	148.813	8.728	-8191	255	
25758.754	1	1	0	0	0.045373	0.053524	0.13238	0.0932	0.36793	0.087535	0.066343	0.34621	0.12474	0.34652	0.14476	0.023439	0.15522	0.14783	0.21209	0.11712	-2.875	-2.7979	-3.0479	-3.0625	-2.875	-3.2771	-2.9	-3.1437	-3.2188	-2.925	-3.1104	-3.0333	-2.9708	-3.3375	-2.8042	-3.0521	94.073	295.244	245.101	137.025	9.241	154.061	293.181	281.796	-4.719	172.918	312.369	170.522	157.963	276.392	308.559	129.296	0.00017335	0.00038564	0.00010843	544.18	2.4796e-06	2.8013e-06	492.93	181.41	2.3791e-06	3.7921e-06	207.66	82.654	76.599	32.229	2.7526e-06	33.256	0.0002219	0.00019148	5.3261e-05	530.71	3.6399e-06	2.0585e-06	480.31	178.62	2.073e-06	2.1098e-06	203.92	81.51	75.673	31.847	2.1884e-06	32.996	111.252	79.619	84.593	-1.246	153.416	142.875	-2.968	4.297	148.120	152.953	1.235	5.132	8.624	12.658	132.957	8.407	-8191	255	
25758.848	1	1	0	0	0.15545	0.25104	0.13935	0.094376	0.14509	0.21445	0.18142	0.42948	0.13454	0.32409	0.1002	0.10033	0.17214	0.048086	0.26917	0.11328	-2.8208	-2.8208	-3.0958	-3.075	-2.7646	-3.3771	-2.9313	-2.9958	-3.1458	-2.8958	-3.1146	-3.125	-2.8271	-3.2458	-3.0938	-2.8563	344.182	208.749	121.928	325.861	308.454	216.492	5.487	314.219	315.794	276.988	331.710	337.448	12.732	73.379	75.707	186.858	0.00017901	0.00024674	9.3799e-05	541.69	3.1894e-06	2.7526e-06	494.16	182.39	2.1142e-06	3.8082e-06	209.07	83.294	77.335	32.464	2.3079e-06	33.839	0.00023071	0.0001937	5.1874e-05	531.04	2.8474e-06	2.445e-06	482.46	178.78	2.2434e-06	2.1006e-06	205.66	82.039	76.089	32.047	2.1599e-06	33.258	117.251	75.824	87.095	-1.582	116.914	165.239	-3.112	4.192	124.468	126.358	1.200	5.195	8.687	12.327	127.212	8.376	-8191	255	
25758.943	1	1	0	0	0.13072	0.090998	0.02845	0.17152	0.22936	0.24027	0.27318	0.079701	0.17924	0.13002	0.20906	0.086719	0.1811	0.060001	0.14837	0.13514	-2.8187	-2.9667	-3.075	-3.275	-2.9125	-3.1208	-3.1146	-3.0542	-3.1271	-2.9667	-3.1021	-3.3167	-3.0563	-3.1604	-2.9938	-2.9354	41.893	287.830	224.756	258.626	113.909	-1.111	273.415	327.829	208.438	224.008	285.011	339.200	283.367	321.718	25.850	342.623	0.00020269	0.00030958	0.00010122	542.6	2.48e-06	2.9051e-06	490.17	181.43	2.279e-06	3.3564e-06	209.16	82.946	76.735	32.248	2.1421e-06	33.764	0.00023236	0.00017827	5.2423e-05	529.88	2.1555e-06	3.6748e-06	479.43	178.65	2.1836e-06	1.9644e-06	204.75	81.864	76.023	31.929	2.1105e-06	33.262	109.060	79.571	81.824	-1.407	123.208	165.863	-2.557	4.523	114.925	128.496	1.104	5.070	8.259	12.656	131.227	8.320	-8191	255	
25759.039	1	1	0	0	0.053428	0.21063	0.035186	0.26421	0.16056	0.11366	0.092975	0.24114	0.06178	0.049553	0.12238	0.17987	0.17689	0.22774	0.17997	0.21297	-2.6813	-2.9437	-3.15	-2.8937	-2.8104	-3.0042	-2.9604	-3.0333	-3.225	-2.8312	-3.0146	-3.0896	-2.9375	-3.3	-3.0208	-3.0083	273.277	61.152	26.920	288.799	319.559	305.909	170.415	222.594	57.499	129.039	35.051	183.362	336.323	330.705	339.324	137.139	0.00019593	0.00023794	0.00010159	544.41	1.4952e-06	2.4316e-06	493.36	181.86	1.4206e-06	4.3345e-06	209.17	83.751	76.916	32.493	2.6588e-06	34.071	0.00022788	0.00018824	5.4922e-05	530.56	2.2079e-06	3.5081e-06	481.19	178.96	2.0629e-06	1.9552e-06	205.57	82.629	76.162	32.303	2.1845e-06	33.609	112.616	64.357	64.230	-1.231	143.389	171.722	-3.159	4.336	133.520	145.534	1.427	5.374	8.536	12.077	151.479	8.336	-8191	255	
25759.137	1	1	0	0	0.11141	0.15613	0.18257	0.1126	0.11776	0.16141	0.19668	0.23572	0.096195	0.29567	0.13676	0.091647	0.21179	0.046884	0.17493	0.39685	-2.7625	-2.9396	-2.8917	-3.2229	-2.9646	-3.1312	-3.2875	-2.7375	-3.125	-2.975	-2.9042	-3.2375	-3.0729	-2.9875	-3.0875	-2.8271	158.671	16.260	230.103	8.358	223.951	77.455	242.792	209.531	98.342	23.761	83.906	13.158	147.578	325.648	337.105	234.796	0.00020878	0.00024811	0.00011031	544.57	2.754e-06	3.9003e-06	494.27	182.7	2.7513e-06	3.0432e-06	211.26	83.799	77.328	32.568	2.7157e-06	34.326	0.00025733	0.00018634	5.7147e-05	530.83	2.1732e-06	3.5724e-06	482.16	179.63	2.2048e-06	2.0792e-06	206.18	82.644	76.467	32.397	2.1722e-06	33.871	109.504	51.060	91.567	-1.620	135.552	171.950	-3.114	4.284	128.672	133.878	1.306	5.337	8.420	12.495	145.370	8.549	-8191	255	
25759.232	1	1	0	0	0.26796	0.32447	0.063502	0.3195	0.18597	0.19668	0.16134	0.15982	0.12784	0.33102	0.15162	0.15649	0.37618	0.13047	0.34392	0.16599	-2.8312	-3.0687	-2.8729	-3.2521	-3.0687	-3	-3.2438	-2.975	-3.0979	-3.0042	-2.7375	-3.2292	-2.9979	-3.1	-3.0917	-2.9104	196.001	152.840	199.039	-5.562	259.771	145.217	54.050	15.037	224.724	276.391	250.766	163.986	299.306	246.193	233.259	245.106	0.00022696	0.00029156	8.0534e-05	548.28	2.4721e-06	1.9258e-06	497.13	183.84	2.734e-06	3.2003e-06	211.81	84.771	77.219	32.838	3.413e-06	34.275	0.00030844	0.00019176	5.4054e-05	534.4	2.0977e-06	3.2105e-06	485.5	180.17	2.0735e-06	2.0188e-06	206.71	83.422	76.5	32.597	2.3207e-06	33.855	106.271	64.479	77.264	-1.333	136.716	120.440	-2.881	4.222	125.548	152.590	1.113	5.394	8.809	12.745	121.557	8.673	-8191	255	
25759.328	1	1	0	0	0.065049	0.28769	0.081486	0.044636	0.065393	0.052937	0.25539	0.10203	0.17173	0.16028	0.19588	0.2244	0.33433	0.2165	0.18243	0.1381	-2.6375	-3.1312	-2.7667	-3.0792	-2.9771	-2.9375	-3.3771	-3.1	-3.1083	-3.0542	-3.0104	-3.1521	-2.9833	-2.9271	-2.975	-2.95	191.736	220.276	247.389	149.177	99.810	208.643	288.077	108.199	70.225	-8.063	-3.532	275.931	167.202	338.178	338.285	227.004	0.00020317	0.00039103	8.9462e-05	542.59	2.1416e-06	2.0542e-06	491.63	181.94	2.2346e-06	2.3276e-06	208.37	83.284	76.58	32.523	2.498e-06	34.19	0.00029379	0.00018672	5.5303e-05	530.16	1.9216e-06	3.6878e-06	478.25	178.64	2.2328e-06	1.9473e-06	204.31	82.21	75.912	32.29	2.2142e-06	33.62	104.888	54.137	56.586	-1.111	137.730	118.397	-2.801	4.385	144.573	148.268	1.447	5.669	8.746	12.345	146.858	8.969	-8191	255	
25759.449	1	1	0	0	0.23425	0.14034	0.088695	0.2241	0.29812	0.25619	0.09092	0.11301	0.26572	0.18027	0.14311	0.197	0.066789	0.23367	0.11263	0.10175	-2.4479	-3.075	-2.775	-3.1375	-2.9542	-2.8333	-3.4062	-3.0375	-3.1	-3.1229	-2.7479	-3.35	-2.9729	-2.8875	-3.0854	-2.9208	232.533	86.305	199.894	260.674	343.687	11.491	313.624	243.274	344.641	113.842	-10.337	346.052	107.871	267.121	126.641	229.647	0.00021311	0.00041653	7.7456e-05	541.4	3.5469e-06	2.2635e-06	492.75	182.2	1.9152e-06	3.637e-06	210.12	83.867	77.402	32.84	1.8525e-06	34.379	0.00031062	0.00019284	6.2313e-05	528.77	2.1239e-06	3.4748e-06	480.65	179.1	2.1031e-06	2.0004e-06	205.52	82.736	76.476	32.539	2.2624e-06	33.851	107.940	85.541	90.172	-1.264	147.691	162.930	-2.823	4.411	127.274	146.815	1.402	5.218	8.612	12.514	154.076	8.949	-8191	255	
25759.545	1	1	0	0	0.18113	0.2031	0.17758	0.14229	0.03092	0.092896	0.028662	0.20432	0.27693	0.42874	0.12581	0.096712	0.027025	0.2861	0.25562	0.25254	-2.3896	-2.95	-2.7229	-3.175	-3.0563	-2.7625	-3.1542	-2.8333	-2.8021	-3.1104	-2.9104	-3.0687	-3.0417	-2.9333	-3.1854	-2.9896	253.860	39.843	297.449	74.061	330.938	100.157	27.590	183.613	223.530	133.462	319.698	339.839	21.024	313.487	170.451	251.471	0.0001942	0.00030124	0.00010806	548.18	2.5243e-06	2.1639e-06	497.61	183.67	2.7301e-06	4.568e-06	211.99	84.456	78.091	32.994	2.2618e-06	34.6	0.00030098	0.00017524	5.5334e-05	533	2.0099e-06	3.6088e-06	484.94	180.2	2.1016e-06	2.0768e-06	207.14	83.457	77.022	32.668	2.1554e-06	34.02	114.062	81.005	86.848	-1.097	146.273	141.225	-2.771	4.347	147.664	140.991	1.358	5.373	8.396	12.438	119.406	8.411	-8191	255	
25759.639	1	1	0	0	0.059213	0.15713	0.15476	0.17032	0.064356	0.16109	0.16305	0.19292	0.069813	0.17951	0.053048	0.32367	0.068388	0.11809	0.082096	0.14823	-2.4667	-3.2604	-2.8229	-3.0938	-3.2188	-2.8833	-3.1625	-3.0854	-2.8854	-3.2146	-3.0229	-3.1	-3.2104	-2.9229	-3.1896	-2.9437	147.303	298.152	228.709	219.250	329.228	41.790	19.578	341.163	344.729	70.511	233.847	224.502	53.671	75.340	176.472	328.304	0.00020438	0.00039062	8.7918e-05	543.8	2.0798e-06	2.7285e-06	495.97	184.27	2.7862e-06	3.2634e-06	211.02	84.236	77.337	32.449	2.6736e-06	34.206	0.00031619	0.00018575	5.2316e-05	533.42	2.0078e-06	2.6166e-06	485.74	180.54	2.255e-06	1.9998e-06	206.48	82.99	76.734	32.257	2.2339e-06	33.514	109.689	75.294	73.373	-1.440	146.165	124.416	-3.190	3.955	132.269	133.947	1.411	5.390	8.625	12.639	149.264	8.342	-8191	255	
25759.734	1	1	0	0	0.23901	0.058381	0.12378	0.18727	0.28105	0.12543	0.04995	0.072186	0.34426	0.26529	0.12931	0.044432	0.25035	0.056677	0.31276	0.10371	-2.4146	-3.1104	-2.8771	-2.9167	-3.1479	-2.9542	-3.0604	-3.1542	-2.8729	-3.1521	-3.0292	-3.0583	-3.2938	-2.9104	-3.125	-3.125	-5.244	57.367	324.497	342.596	225.317	237.152	136.538	307.664	243.340	197.723	211.251	87.614	315.610	327.859	17.609	193.659	0.00020625	0.00029508	9.3093e-05	547.92	3.2581e-06	3.8614e-06	496.43	183.29	2.7431e-06	2.5811e-06	211.91	84.11	77.51	32.625	3.4943e-06	33.996	0.00029662	0.00018645	5.1097e-05	533.2	1.9976e-06	2.0998e-06	484.47	180.5	2.2212e-06	2.0652e-06	206.5	82.698	76.687	32.28	2.24e-06	33.381	108.244	76.310	77.934	-1.272	132.795	149.928	-2.856	4.295	136.761	132.248	1.371	5.169	8.301	12.689	142.608	8.238	-8191	255	
25759.830	1	1	0	0	0.095787	0.21416	0.15036	0.17197	0.19682	0.19674	0.24856	0.062945	0.060442	0.18756	0.23836	0.26434	0.32288	0.32282	0.29932	0.19935	-2.4375	-3.3333	-2.9292	-2.8021	-3.2229	-2.8208	-3.1333	-3.0812	-2.8354	-3.2458	-3.0375	-3.0104	-3.2583	-3.0021	-3.1604	-3.15	289.928	40.067	76.246	53.398	189.461	229.070	290.380	32.471	174.072	212.828	200.918	16.885	263.099	11.861	249.963	294.558	0.00020551	0.00027553	9.8742e-05	546.79	1.421e-06	3.159e-06	498.15	183.75	2.1676e-06	3.0353e-06	210.58	84.387	76.82	32.468	3.0414e-06	33.74	0.00030859	0.00017064	4.8659e-05	532.92	1.8077e-06	2.0072e-06	485.92	180.29	2.1307e-06	1.8318e-06	206.46	82.804	76.308	32.205	2.0836e-06	33.395	109.043	84.046	59.257	-1.408	142.194	126.903	-2.327	4.237	147.362	129.333	1.190	5.340	8.431	12.450	126.541	8.341	-8191	255	
25759.928	1	1	0	0	0.25887	0.1954	0.42438	0.14174	0.31721	0.021352	0.25171	0.1019	0.20765	0.12287	0.22141	0.04041	0.30626	0.30931	0.10811	0.10956	-2.4375	-3.0187	-3.0187	-2.9771	-3.1562	-2.8979	-3.0458	-3.1958	-2.8	-3.1417	-2.9833	-2.85	-3.1333	-2.9646	-3.0896	-3.2313	321.365	110.267	20.674	252.332	252.897	125.546	266.401	266.456	134.885	32.462	325.484	321.096	43.382	251.424	171.740	304.355	0.00018013	0.00032948	8.9217e-05	545.15	2.7352e-06	2.9314e-06	499.16	184.15	2.4924e-06	4.3075e-06	212.71	84.26	77.211	32.543	3.7652e-06	34.175	0.00023979	0.00026083	5.0731e-05	531.88	1.9409e-06	2.0214e-06	487.15	180.29	2.1793e-06	2.0133e-06	207.63	82.98	76.445	32.201	2.1957e-06	33.537	114.778	71.764	71.721	-1.449	113.641	145.725	-3.264	4.284	152.195	139.130	1.162	5.597	8.799	12.629	142.925	8.655	-8191	255	
25760.023	1	1	0	0	0.30305	0.098613	0.078931	0.26271	0.18757	0.011917	0.21539	0.16537	0.20001	0.11318	0.081194	0.14748	0.15035	0.18476	0.15845	0.13409	-2.4896	-3.2875	-2.8667	-2.9646	-3.1937	-2.7896	-2.975	-3.2562	-2.9125	-3.1521	-3.1042	-2.8312	-3.275	-2.9396	-2.8438	-3.2521	256.647	244.307	315.291	87.465	140.280	228.403	220.613	73.875	243.572	18.212	188.295	166.812	295.516	261.444	71.070	215.474	0.00018524	0.00034566	7.3935e-05	547.91	2.6824e-06	3.5558e-06	493.7	184.73	2.8705e-06	2.8909e-06	209.5	83.517	77.106	32.514	3.6626e-06	33.614	0.00022366	0.00031855	4.715e-05	532.57	1.9736e-06	1.9344e-06	483.99	180.48	2.21e-06	1.7768e-06	206.14	82.359	76.205	32.127	2.4839e-06	33.128	110.995	77.004	72.323	-1.381	124.750	152.900	-2.825	3.863	147.600	128.217	1.270	4.985	8.661	12.336	145.315	8.920	-8191	255	
25760.119	1	1	0	0	0.38311	0.148	0.11121	0.13598	0.31827	0.17799	0.1449	0.22454	0.13705	0.10706	0.19808	0.10303	0.33624	0.14983	0.13906	0.12405	-2.4583	-3.1333	-2.9542	-2.8146	-3.0667	-2.9813	-2.85	-3.2146	-2.75	-3.0771	-3.1542	-2.9479	-3.2479	-2.9688	-2.9458	-3.1042	37.510	214.898	241.107	37.889	138.290	16.907	32.988	305.889	-9.783	18.467	145.802	168.503	245.284	203.425	117.068	292.858	0.00018031	0.00026135	6.8186e-05	543.49	1.8497e-06	2.8798e-06	495.55	182.09	2.9841e-06	2.9726e-06	209.16	82.43	76.356	32.024	2.5811e-06	33.179	0.00022711	0.00031346	4.7165e-05	529.64	2.0062e-06	1.8726e-06	482.88	178.81	2.2587e-06	1.8568e-06	204.71	81.192	75.626	31.683	2.2994e-06	32.752	111.812	71.405	77.973	-1.116	130.603	133.904	-2.900	4.327	146.337	143.151	1.326	5.408	8.917	12.735	137.796	8.729	-8191	255	
25760.240	1	1	0	0	0.060602	0.24671	0.14354	0.38831	0.15821	0.052523	0.092158	0.14176	0.061335	0.11233	0.15767	0.10991	0.1712	0.12832	0.089791	0.17891	-2.5687	-2.9875	-3.2167	-3.0375	-3.1813	-3.0375	-2.6125	-3.1979	-2.8458	-3.0625	-3.2167	-2.8458	-3.0479	-3.1292	-2.8729	-3.1667	168.565	-5.888	101.850	296.834	-13.308	167.465	308.571	-10.964	174.876	318.572	82.076	38.321	345.093	1.196	229.340	272.962	0.00018297	0.00030917	7.8707e-05	541.37	1.499e-06	2.9563e-06	494.43	181.24	2.8359e-06	3.32e-06	208.33	82.146	75.913	31.752	2.6258e-06	33.093	0.00021895	0.00032055	5.0183e-05	528.21	2.0244e-06	2.0615e-06	483.25	178.35	2.1026e-06	2.0829e-06	204.59	81.115	75.376	31.609	2.2187e-06	32.76	112.353	84.133	49.890	-1.295	132.125	131.881	-2.838	4.482	126.126	140.101	1.127	5.439	8.464	12.637	149.857	8.613	-8191	255	
25760.312	1	1	0	0	0.12329	0.061445	0.19058	0.275	0.42083	0.31323	0.26189	0.17823	0.17782	0.11186	0.055642	0.081568	0.084082	0.035578	0.055242	0.070275	-2.2438	-2.9875	-3.0812	-2.85	-3.1312	-3.0125	-2.9042	-3.25	-3.0771	-2.7812	-3.2979	-2.9146	-3.0646	-3.3917	-2.9458	-3.3937	164.649	247.573	84.041	330.003	29.707	87.536	151.967	184.977	280.205	200.570	320.700	131.018	322.379	197.000	162.508	237.632	0.0001924	0.00030614	9.2886e-05	541.48	2.1981e-06	2.1525e-06	498.46	181.24	2.8484e-06	4.3113e-06	211.82	82.926	76.039	31.991	1.8426e-06	33.318	0.00021547	0.00031243	5.1524e-05	529.88	2.0651e-06	1.8979e-06	485.07	179	2.0439e-06	2.0792e-06	206.53	81.769	75.697	31.795	2.3078e-06	32.945	108.222	81.947	69.380	-1.534	131.527	162.218	-2.688	3.998	150.275	130.273	1.335	5.247	8.767	12.578	126.723	8.744	-8191	255	
25760.434	1	1	0	0	0.24651	0.14654	0.08691	0.24124	0.1406	0.09574	0.10236	0.12689	0.14209	0.10468	0.18923	0.011697	0.22391	0.1237	0.15373	0.28482	-2.5771	-2.8125	-3.2042	-3.0521	-3.2042	-3.2104	-2.925	-3.2729	-3.0042	-2.9583	-3.2229	-3.0458	-3	-3.1479	-2.8958	-3.125	326.978	212.750	312.231	51.600	328.938	62.699	63.038	7.352	337.576	24.244	309.863	228.857	284.703	333.595	329.396	332.545	0.00020197	0.00022399	6.5573e-05	538.57	1.8619e-06	2.3513e-06	494.05	181.05	2.0935e-06	2.4941e-06	210.15	82.623	76.443	31.864	2.4137e-06	33.152	0.00022576	0.00035103	4.776e-05	527.2	2.041e-06	1.9597e-06	480.85	178.33	2.0354e-06	1.9833e-06	204.66	81.352	75.485	31.72	2.1105e-06	32.789	113.544	66.805	46.521	-1.641	120.561	151.100	-3.077	4.498	132.566	144.517	0.883	5.106	8.553	12.406	121.524	8.641	-8191	255	
25760.529	1	1	0	0	0.13797	0.053914	0.26819	0.25708	0.15769	0.22385	0.29761	0.11297	0.23082	0.16002	0.20851	0.05697	0.096322	0.17025	0.29534	0.22374	-2.6521	-2.85	-3.2146	-2.8875	-3.1583	-3.1813	-3.0021	-3.1437	-3.0812	-2.9	-3.2396	-2.9792	-2.9542	-3.1375	-2.8458	-3.0812	79.254	0.142	257.243	0.821	185.624	195.930	285.087	281.998	256.027	327.402	299.739	328.324	217.666	282.525	67.709	337.570	0.00018809	0.00015325	7.9335e-05	537.18	2.0771e-06	2.8725e-06	490.98	179.74	2.1621e-06	2.9253e-06	208.23	82.031	75.788	31.811	2.0094e-06	33.19	0.00022417	0.00029527	5.3368e-05	525.25	2.0485e-06	1.9547e-06	478.61	177.45	1.964e-06	2.0273e-06	203.82	81.077	74.938	31.546	2.24e-06	32.663	110.826	53.443	83.013	-1.176	124.872	125.683	-2.626	4.400	165.364	141.571	1.041	5.552	8.741	12.259	133.812	8.651	-8191	255	
25760.625	1	1	0	0	0.048677	0.052222	0.22691	0.018553	0.11137	0.18121	0.073146	0.15534	0.20009	0.083108	0.15205	0.04849	0.2562	0.23783	0.02378	0.20533	-2.7	-2.7979	-3.1354	-2.9604	-2.9062	-3.2333	-2.9479	-3.2417	-3.0479	-2.9125	-3.2562	-2.8875	-2.9625	-3.35	-2.7958	-3.1104	94.527	305.768	142.534	322.849	48.127	76.163	120.909	24.692	321.826	308.590	-3.454	194.247	24.231	340.917	165.977	288.965	0.00018164	0.00031036	4.2925e-05	541.87	2.1291e-06	3.5685e-06	491.94	181.09	1.974e-06	3.0646e-06	209.33	82.622	75.861	31.993	2.4086e-06	33.475	0.00021916	0.00028904	5.2484e-05	526.23	2.0592e-06	1.8998e-06	480.35	177.71	1.9274e-06	2.0481e-06	204.81	81.577	75.228	31.686	2.1229e-06	32.952	112.539	84.511	90.062	-1.254	137.447	119.957	-3.031	4.247	139.426	142.124	1.173	5.494	8.518	12.247	147.422	8.876	-8191	255	
25760.721	1	1	0	0	0.23733	0.052781	0.10338	0.031829	0.19013	0.18828	0.21623	0.15639	0.16755	0.1933	0.32044	0.23076	0.36334	0.12992	0.39296	0.23174	-2.6542	-2.7313	-3.1917	-2.9542	-2.8271	-3.1625	-2.9479	-3.1479	-3.0083	-2.8729	-3.2562	-3.1146	-2.8812	-3.1437	-2.8542	-3.15	329.046	23.990	12.011	143.535	251.795	113.285	167.129	250.582	123.176	160.837	95.072	287.353	33.338	331.644	79.730	22.395	0.0001956	0.0003164	9.6858e-05	540.97	2.9346e-06	2.831e-06	496.81	182.26	2.2513e-06	2.7769e-06	209.37	82.751	76.566	32.009	2.6678e-06	33.101	0.00022325	0.00019749	7.3346e-05	528.45	2.2079e-06	1.9646e-06	484.06	179.07	2.0814e-06	1.9894e-06	205.5	81.918	75.918	31.801	2.1498e-06	32.824	113.645	67.599	106.338	-1.712	146.078	150.404	-2.874	4.156	152.375	126.833	1.092	5.410	8.687	12.433	152.891	8.865	-8191	255	
25760.840	1	1	0	0	0.2244	0.21253	0.1777	0.19211	0.1243	0.23964	0.14085	0.32656	0.27294	0.16865	0.2903	0.18556	0.19146	0.42587	0.14502	0.10429	-2.7875	-2.9271	-3.0333	-3.1292	-2.7854	-3.1333	-3.0458	-3.0187	-3.2396	-2.825	-2.9458	-3.0604	-2.9208	-2.9875	-2.8208	-2.9729	327.090	256.335	235.609	147.401	150.329	184.823	246.510	307.842	345.031	255.591	245.793	310.548	292.702	12.900	89.530	250.826	0.00019816	0.00037359	7.8172e-05	537.06	2.2726e-06	2.423e-06	486.25	180.1	1.8554e-06	2.8839e-06	208.45	82.382	76.2	31.781	2.4802e-06	33.125	0.00021742	0.00018455	8.8418e-05	525.35	2.0399e-06	2.0214e-06	477.8	177.37	2.1672e-06	2.1055e-06	203.45	81.062	75.492	31.615	2.0337e-06	32.667	115.190	82.345	72.752	-1.452	154.185	150.802	-2.754	4.160	124.720	129.756	1.661	5.339	8.452	12.536	155.527	8.491	-8191	255	
25760.936	1	1	0	0	0.39355	0.056865	0.09415	0.08689	0.075661	0.1402	0.29182	0.069752	0.13577	0.10933	0.067345	0.071547	0.13503	0.073277	0.10068	0.32351	-2.7313	-2.8729	-3.0042	-2.9333	-2.9188	-3.2438	-3.0583	-2.7812	-3.2979	-3.0062	-3.0354	-3.0875	-2.8688	-3.0771	-2.9313	-2.9875	225.728	265.632	217.538	104.987	84.858	297.191	44.881	256.634	105.222	258.637	6.981	74.951	153.679	75.808	193.639	293.618	0.00019546	0.00028278	6.8698e-05	539.24	2.636e-06	2.8442e-06	490.32	180.5	1.3011e-06	3.0876e-06	208.55	82.965	76.099	31.851	2.0145e-06	33.365	0.00022641	0.00016777	8.4075e-05	525.4	2.1175e-06	1.9955e-06	478.85	177.58	1.9423e-06	1.9399e-06	204.42	81.512	75.477	31.699	2.064e-06	32.819	114.768	84.511	49.552	-1.505	132.194	140.192	-3.249	4.456	150.985	121.450	1.162	5.529	8.494	12.617	141.188	8.454	-8191	255	
25761.008	1	1	0	0	0.17248	0.066559	0.099584	0.021763	0.14077	0.24524	0.19323	0.042922	0.14223	0.16736	0.15601	0.15133	0.235	0.067374	0.12811	0.14719	-2.8146	-2.7417	-2.8958	-3.1875	-2.7792	-3.0167	-3.2042	-2.95	-3.1271	-2.8729	-2.975	-2.9958	-2.8	-3.1208	-3.15	-2.9479	229.404	-6.111	159.097	109.007	307.631	265.447	327.518	338.322	318.708	286.724	322.109	290.007	53.013	221.827	338.964	295.105	0.00018853	0.00025053	0.00014263	541.59	2.6617e-06	3.2312e-06	497.18	182.17	2.7655e-06	2.8805e-06	210.4	82.902	76.546	32.336	3.0368e-06	33.805	0.00022066	0.00017199	9.2106e-05	529.08	2.0688e-06	1.872e-06	484.06	179	2.1645e-06	1.9008e-06	205.88	82.03	75.919	32.006	2.2092e-06	33.192	113.522	75.946	101.559	-1.320	129.201	167.015	-3.235	4.492	143.116	124.764	1.182	5.160	8.217	12.483	146.860	8.579	-8191	255	
25761.129	1	1	0	0	0.15208	0.23033	0.21723	0.27435	0.07033	0.11632	0.29448	0.16291	0.17137	0.022731	0.22548	0.23449	0.2112	0.31185	0.20815	0.35601	-2.5938	-2.9229	-2.9479	-3.2854	-2.7583	-3.2604	-3.275	-2.9229	-3.1562	-3.0833	-2.8958	-3.3417	-2.9396	-3.0917	-3.2208	-2.9083	2.011	326.819	285.343	300.818	156.685	206.785	296.203	224.983	135.559	213.724	192.648	263.461	301.898	325.146	303.964	299.615	0.00018349	0.00028258	8.3363e-05	545.86	2.4978e-06	4.1029e-06	492.51	181.16	3.6545e-06	3.1456e-06	208.18	83.047	76.277	32.032	2.9273e-06	33.362	0.00022163	0.00017497	8.3587e-05	530.13	2.0421e-06	1.8356e-06	481.2	178.16	2.1397e-06	1.899e-06	204.14	81.485	75.435	31.794	2.0567e-06	32.811	106.707	71.796	70.978	-1.239	127.889	151.037	-3.189	4.329	142.262	134.649	1.360	5.033	8.566	12.441	147.723	8.332	-8191	255	
25761.225	1	1	0	0	0.46557	0.097106	0.037444	0.13335	0.063951	0.054454	0.28654	0.15596	0.23603	0.18543	0.1966	0.26197	0.086601	0.26396	0.070009	0.069468	-2.6875	-3.0458	-2.9292	-3.1021	-3.0917	-2.9854	-3.1688	-3.1188	-3.2604	-2.9854	-2.8229	-3.3312	-2.9208	-3.1271	-3.2479	-2.9167	314.936	69.276	79.859	211.628	152.423	255.577	-3.875	327.555	54.741	218.867	108.286	230.209	-10.641	276.341	197.245	27.870	0.00020281	0.00023992	9.9647e-05	540.69	2.318e-06	3.3053e-06	489.45	180.07	2.5458e-06	2.417e-06	208.02	82.146	76.129	32.116	2.5941e-06	33.205	0.00022272	0.00016111	9.5748e-05	526.15	2.1212e-06	1.9152e-06	475.71	176.88	3.0081e-06	1.8807e-06	202.74	80.969	75.17	31.875	2.1862e-06	32.81	111.669	77.406	79.273	-1.315	129.049	136.506	-2.725	4.139	118.730	121.726	1.035	5.550	8.675	12.539	142.856	8.399	-8191	255	
25761.320	1	1	0	0	0.27014	0.047936	0.19533	0.063023	0.30716	0.12325	0.10458	0.18887	0.044704	0.051765	0.27283	0.16086	0.079466	0.14811	0.033971	0.14511	-2.8063	-2.9042	-2.9271	-3.1708	-2.9604	-3.0979	-3.3042	-2.975	-3.0708	-3.1458	-2.9479	-3.2479	-3.0896	-2.9396	-3.2562	-2.8771	205.659	43.539	7.307	242.216	132.119	18.509	74.926	331.750	86.214	190.832	301.755	280.958	140.115	209.047	6.949	0.865	0.00018812	0.00042155	9.4971e-05	538.34	1.8219e-06	2.4697e-06	487.7	178.94	2.7668e-06	3.1311e-06	206.66	82.627	75.581	32.112	2.3664e-06	33.606	0.00022417	0.00019111	8.7488e-05	523.35	2.0356e-06	2.0023e-06	476.01	175.94	3.5162e-06	1.8501e-06	202.25	80.987	74.887	31.919	2.1419e-06	33.063	111.433	69.730	83.879	-1.507	148.561	160.062	-2.754	4.254	91.000	108.261	1.552	5.612	8.567	12.535	153.803	8.659	-8191	255	
25761.418	1	1	0	0	0.27585	0.062305	0.14402	0.24177	0.083872	0.18583	0.24845	0.19951	0.087556	0.10038	0.027018	0.040805	0.10455	0.097232	0.25752	0.074716	-2.6562	-3.1458	-2.9375	-3.2479	-2.9562	-3.0729	-3.2979	-3.0583	-3.0542	-3.1688	-3.0396	-3.1104	-3.0479	-3.0542	-3.2583	-2.9396	108.604	271.883	172.609	292.158	147.268	85.471	325.930	4.172	100.335	289.288	216.883	-4.577	312.198	285.473	265.540	186.230	0.00018364	0.00038716	0.00011249	537.76	3.2768e-06	3.6049e-06	492.56	179.8	1.9054e-06	3.7427e-06	206.97	83.003	75.744	32.829	2.216e-06	34.304	0.0002298	0.00020453	8.3374e-05	525.84	2.0859e-06	2.0356e-06	478.06	176.83	3.1769e-06	1.9674e-06	203	81.743	75.15	32.491	2.2944e-06	33.688	110.042	90.517	63.590	-1.412	138.192	133.735	-2.914	4.436	122.668	123.306	1.079	5.266	8.842	12.549	151.404	8.647	-8191	255	
25761.535	1	1	0	0	0.28772	0.18739	0.054737	0.28128	0.12292	0.1342	0.20298	0.083254	0.05548	0.2522	0.17065	0.11173	0.27572	0.26789	0.12037	0.31348	-2.6042	-3.1458	-2.8521	-3.1917	-3.0042	-3.0062	-3.3271	-2.9583	-2.9271	-3.1604	-2.8833	-3.3542	-2.9167	-2.8208	-3.0854	-2.9917	176.385	273.062	186.999	273.402	147.500	40.133	65.657	237.094	143.559	256.615	287.109	244.254	253.525	282.925	54.099	257.982	0.00019727	0.00030944	7.6874e-05	539.27	1.8827e-06	2.6964e-06	485.33	179.27	1.1726e-06	2.7717e-06	204.95	82.225	76.556	32.758	2.5917e-06	33.85	0.00022549	0.0002087	5.4998e-05	524.8	2.0287e-06	2.2196e-06	474.19	176.38	3.5707e-06	2.0102e-06	201.44	81.043	75.325	32.412	2.1565e-06	33.321	110.950	93.015	62.402	-1.489	123.676	130.268	-2.734	4.372	81.818	126.846	1.572	5.560	8.615	12.450	158.001	8.693	-8191	255	
25761.609	1	1	0	0	0.042953	0.11249	0.19734	0.15138	0.20792	0.070309	0.30083	0.23463	0.077521	0.063345	0.11606	0.2321	0.16825	0.33131	0.16929	0.19461	-2.5875	-3.1479	-2.7667	-3.1188	-3.1167	-2.7687	-3.3104	-2.8688	-2.9083	-3.1958	-2.8729	-3.0062	-3.1667	-2.9333	-3.225	-2.95	110.022	180.356	303.310	303.172	8.094	-8.623	56.494	314.388	23.055	231.985	224.253	113.206	222.965	285.589	135.636	83.947	0.00017479	0.00027062	9.465e-05	536.32	2.4551e-06	3.6786e-06	485.98	178.33	2.5967e-06	2.9723e-06	205.93	81.847	75.725	32.692	2.8513e-06	33.901	0.00023722	0.00018889	5.9189e-05	523.1	2.0795e-06	2.2628e-06	472.23	175.7	3.4024e-06	2.0157e-06	201.45	80.987	74.913	32.336	2.4357e-06	33.512	113.335	73.704	71.961	-1.289	134.939	158.344	-2.976	4.609	139.107	112.846	1.193	5.171	8.457	12.350	174.449	8.831	-8191	255	
25761.705	1	1	0	0	0.077257	0.16456	0.062525	0.15902	0.14861	0.081115	0.20412	0.20534	0.272	0.01728	0.22302	0.082588	0.15676	0.12769	0.23076	0.21594	-2.5187	-3.1188	-2.7313	-2.9958	-3.1417	-2.6979	-3.025	-2.9979	-2.7354	-3.1562	-2.8604	-2.8854	-3.1646	-3.0125	-3.3375	-3.0979	160.950	337.680	198.954	54.758	268.616	309.121	41.367	269.182	210.920	171.811	216.205	147.893	225.226	330.866	335.804	258.952	0.00021071	0.00030513	8.633e-05	536.97	2.5446e-06	2.8608e-06	484.31	178.24	2.7416e-06	3.2654e-06	204.99	82.669	76.227	32.807	2.4397e-06	34.577	0.00023599	0.00018234	5.8244e-05	522.24	2.1534e-06	2.0276e-06	472.38	175.68	3.5829e-06	1.9357e-06	201.65	81.471	75.195	32.534	3.3174e-06	33.973	108.421	78.869	83.423	-1.535	142.824	149.554	-2.997	4.474	121.336	142.694	1.096	5.295	8.349	12.580	135.091	8.543	-8191	255	
25761.803	1	1	0	0	0.19529	0.066251	0.08678	0.24394	0.11501	0.24832	0.1104	0.13155	0.28007	0.051528	0.066799	0.1637	0.2281	0.17296	0.26292	0.26018	-2.4	-3.1	-2.8875	-3.0104	-3.0792	-2.8083	-3.1771	-3.1083	-2.9	-3.2646	-2.95	-2.9875	-3.2708	-2.8937	-3.1604	-3.1063	147.983	38.442	63.871	312.499	148.131	44.008	166.112	175.547	310.598	209.105	211.910	54.096	213.085	284.839	179.698	195.737	0.00020772	0.00023167	7.8164e-05	537.01	2.375e-06	3.7934e-06	489.41	179.44	2.8087e-06	3.0921e-06	207.42	83.009	76.741	33.226	2.8733e-06	34.643	0.00024109	0.00018564	5.2286e-05	523.38	2.0281e-06	2.2134e-06	476.4	176.6	3.378e-06	1.9723e-06	203.67	82.137	75.543	32.831	3.8354e-06	34.108	107.867	51.511	85.839	-1.350	123.754	145.175	-3.040	4.405	131.204	148.361	1.227	5.834	8.573	12.660	151.143	8.737	-8191	255	
25761.920	1	1	0	0	0.20353	0.28307	0.2057	0.030008	0.16881	0.18094	0.029475	0.27622	0.094003	0.086547	0.17752	0.049686	0.073057	0.22102	0.1844	0.11641	-2.2812	-2.9667	-3.0021	-2.8646	-3.1437	-2.7417	-3.1271	-3.0875	-2.8208	-3.2562	-3.0208	-2.7708	-3.1771	-2.9458	-3.0667	-3.1417	290.297	129.055	128.749	247.705	177.907	292.499	292.130	265.026	261.519	34.154	203.361	29.326	162.545	231.047	216.740	127.834	0.00020059	0.00033787	9.8139e-05	531.73	3.2327e-06	2.8305e-06	484.8	178.97	2.7201e-06	4.1035e-06	205.64	82.33	75.993	33.138	3.422e-06	34.473	0.00023775	0.00018618	5.4755e-05	521.12	2.1667e-06	2.1844e-06	471.4	175.57	3.1007e-06	2.3957e-06	201.32	81.254	75.038	32.685	3.5674e-06	33.897	110.346	65.445	92.518	-1.313	158.330	129.184	-2.845	4.189	108.986	153.380	1.260	5.497	8.705	12.653	146.728	8.630	-8191	255	
25762.018	1	1	0	0	0.31019	0.036124	0.2616	0.10975	0.083451	0.054842	0.16432	0.32982	0.077556	0.22832	0.11631	0.035576	0.24009	0.1315	0.10018	0.24424	-2.4125	-3.1292	-3.0062	-2.8375	-3.1833	-2.9333	-3.0292	-3.1188	-2.8771	-3.0542	-2.9792	-2.7938	-3.0812	-2.9708	-2.8937	-3.3208	243.718	164.847	72.170	321.280	325.381	55.386	328.645	263.164	300.728	61.132	96.606	115.951	-1.883	90.025	314.270	239.648	0.00019522	0.00029387	8.4601e-05	535.01	1.8425e-06	3.437e-06	486.26	178.18	1.7712e-06	4.2446e-06	206.77	82.996	76.664	33.016	2.7411e-06	34.811	0.0002509	0.00018802	5.2423e-05	522.37	2.1234e-06	2.1011e-06	473.09	175.8	2.2429e-06	3.2395e-06	202.47	81.628	75.736	32.788	3.693e-06	33.987	108.830	78.963	83.864	-1.619	133.164	150.914	-2.534	4.310	135.043	135.310	1.170	5.040	8.826	12.641	155.207	8.794	-8191	255	
25762.113	1	1	0	0	0.16967	0.023525	0.023104	0.091903	0.43705	0.32032	0.19851	0.27788	0.17229	0.14572	0.076959	0.10813	0.36451	0.08537	0.2846	0.13464	-2.3417	-3.0896	-2.8667	-2.7375	-3.0417	-3.0958	-2.7729	-3.1708	-2.7042	-3.1271	-3.1375	-2.7333	-3.225	-3.0312	-2.9146	-3.2458	333.416	133.516	21.012	-0.045	305.020	3.871	310.426	286.186	144.820	268.673	105.741	263.570	331.162	43.921	303.300	235.660	0.00019927	0.0002939	9.469e-05	537.46	1.6398e-06	2.5576e-06	490.47	181.94	1.9084e-06	4.6587e-06	208.88	84.082	76.604	33.393	2.5714e-06	34.823	0.00023192	0.000195	5.4282e-05	526.4	1.9784e-06	1.8677e-06	479.07	178.1	2.2635e-06	3.5481e-06	203.93	82.613	76.162	32.988	3.5422e-06	34.272	117.725	60.741	78.967	-1.492	160.810	121.839	-2.917	4.560	147.130	128.915	1.233	5.347	8.684	12.330	142.706	8.546	-8191	255	
25762.209	1	1	0	0	0.098902	0.080004	0.11141	0.10575	0.18813	0.24311	0.29968	0.25017	0.07981	0.094451	0.056569	0.089234	0.052798	0.20365	0.16328	0.15323	-2.4292	-2.9375	-3.1583	-3.0687	-3.1229	-2.9958	-2.7104	-3.3625	-3	-2.9958	-3.1854	-2.8625	-3.2313	-2.9938	-2.9354	-3.3688	284.393	122.556	244.599	285.843	132.595	59.362	264.596	228.137	-7.879	56.867	277.130	343.648	209.566	264.577	242.032	54.108	0.0001783	0.00042413	0.00010722	536.79	2.7369e-06	2.9622e-06	487.72	181.7	2.8777e-06	3.5315e-06	207.46	82.989	76.627	32.922	2.685e-06	34.234	0.00023492	0.00018667	5.2438e-05	524.63	2.3134e-06	1.9276e-06	477.38	177.6	2.155e-06	3.3202e-06	202.76	81.703	75.659	32.603	3.934e-06	33.663	111.185	80.012	65.347	-1.585	149.284	144.389	-2.987	4.286	126.655	141.884	1.266	5.548	8.661	12.837	168.730	8.470	-8191	255	
25762.305	1	1	0	0	0.28294	0.15297	0.18148	0.13392	0.11748	0.10827	0.31581	0.17473	0.26197	0.13058	0.13111	0.19019	0.12948	0.2107	0.2796	0.17295	-2.4542	-2.9521	-3.0375	-2.7812	-3.0667	-3.0979	-2.9146	-3.1833	-3.0938	-3.0375	-3.2958	-2.7521	-3.0167	-3.0083	-2.8583	-3.1646	162.674	7.478	147.394	0.624	306.345	316.793	312.218	14.467	47.654	-7.040	328.155	291.233	-12.244	9.846	72.342	231.969	0.00020759	0.00030889	8.7131e-05	533.29	1.8745e-06	3.3514e-06	485.18	179.63	1.8707e-06	3.757e-06	206.54	82.621	76.823	32.913	2.332e-06	34.299	0.00022694	0.00018867	5.3383e-05	521.93	3.0577e-06	2.0739e-06	473.14	176.47	1.9475e-06	3.6898e-06	202.21	81.489	75.791	32.755	3.5545e-06	33.93	117.480	72.310	58.200	-1.459	139.341	149.555	-2.880	4.243	122.856	127.561	0.954	5.410	8.512	12.714	162.264	8.374	-8191	255	
25762.400	1	1	0	0	0.15408	0.23288	0.036665	0.15611	0.10185	0.12973	0.19844	0.24105	0.13091	0.22383	0.14728	0.13683	0.34487	0.22768	0.18441	0.081166	-2.5542	-2.8833	-3.1771	-2.8729	-3.0125	-3.0042	-2.8125	-3.0542	-2.9938	-2.975	-3.1854	-2.9875	-2.9521	-3.0604	-2.6625	-3.2104	228.487	277.457	85.053	266.552	93.671	39.035	299.452	346.167	20.876	46.772	242.867	31.307	6.247	325.289	261.605	227.334	0.00016883	0.00019144	8.9436e-05	537.55	1.9504e-06	3.1665e-06	490.86	180.62	2.1089e-06	4.5016e-06	207.64	83.609	76.595	33.132	2.6529e-06	34.245	0.00022959	0.00017892	5.3398e-05	525.29	3.2745e-06	1.9381e-06	475.88	177.37	1.9661e-06	3.4118e-06	203.16	82.106	75.774	32.868	3.0865e-06	33.971	106.481	83.462	74.248	-1.330	97.236	118.560	-2.887	4.309	124.696	133.133	0.866	5.483	8.704	12.646	146.668	8.910	-8191	255	
25762.521	1	1	0	0	0.18098	0.41017	0.052791	0.046675	0.14381	0.13911	0.083741	0.33151	0.22921	0.25553	0.051142	0.17537	0.12333	0.10984	0.16258	0.22822	-2.4125	-2.9313	-3.0938	-3.0729	-3.0458	-3.1437	-2.8375	-3.1854	-2.9875	-2.8646	-3.1396	-2.9979	-2.9646	-3.2687	-2.8563	-3.1708	335.952	65.081	74.208	21.128	51.718	157.341	44.595	346.220	279.273	145.308	188.513	315.901	172.134	192.632	314.015	13.570	0.00017856	0.00039467	9.201e-05	536.58	3.2083e-06	3.7292e-06	490.49	179.72	3.0983e-06	3.2041e-06	208.67	83.35	76.262	33.046	3.4855e-06	34.579	0.00023186	0.00019971	5.5791e-05	524.15	3.3071e-06	1.9949e-06	477.93	176.96	2.1174e-06	3.6342e-06	204.39	82.164	75.678	32.846	2.3011e-06	34.197	110.061	77.106	64.140	-1.268	133.440	146.193	-3.064	4.728	148.379	153.927	0.928	5.518	8.688	12.631	150.191	8.788	-8191	255	
25762.617	1	1	0	0	0.25345	0.12001	0.16562	0.13385	0.16062	0.10223	0.30894	0.19582	0.12269	0.31703	0.20618	0.10352	0.13118	0.17249	0.28743	0.20808	-2.6813	-2.7313	-3.2979	-2.8875	-3.0604	-3.0792	-3.0146	-3.1083	-3.0958	-2.9542	-3.1271	-2.8333	-2.9083	-3.1021	-2.6896	-3.1063	101.377	242.242	243.914	289.002	290.169	-2.117	324.514	311.713	249.980	86.579	335.533	22.739	123.705	62.649	65.371	277.897	0.00020985	0.00029153	9.8441e-05	539.92	2.0672e-06	3.1077e-06	487.59	179.58	2.5413e-06	3.3289e-06	207.4	83.233	76.496	32.808	2.7018e-06	34.177	0.00022956	0.00019966	5.4297e-05	525.65	3.4125e-06	2.0159e-06	476.35	176.81	2.1375e-06	3.3507e-06	203.05	81.804	75.752	32.688	2.263e-06	33.785	112.416	86.410	79.808	-1.215	124.102	157.483	-3.022	4.189	147.895	120.223	1.192	5.230	8.547	12.318	115.450	8.523	-8191	255	
25762.713	1	1	0	0	0.2112	0.25248	0.095772	0.091669	0.13628	0.095683	0.0982	0.2558	0.049255	0.094448	0.085606	0.18841	0.067346	0.054011	0.31378	0.030064	-2.6042	-2.85	-3.1562	-3.0896	-2.8688	-3.1854	-2.9375	-3.0354	-2.9396	-2.8854	-3.1063	-2.9833	-2.9708	-3.1312	-2.8563	-3.1708	199.843	313.765	14.748	322.909	172.574	159.253	254.606	264.284	147.618	115.703	220.469	253.020	263.672	253.365	179.563	325.460	0.00018196	0.00034545	7.6153e-05	536.82	1.4229e-06	3.5111e-06	487.3	179.67	2.3442e-06	2.6317e-06	205.65	82	76.556	32.871	2.6193e-06	34.064	0.00022305	0.00018916	5.0686e-05	522.58	3.1878e-06	1.8973e-06	474.21	176.19	2.1905e-06	2.7098e-06	202.59	81.081	75.297	32.59	2.3247e-06	33.638	111.031	73.971	58.412	-1.466	130.131	129.482	-2.897	4.300	128.832	118.780	1.527	5.473	8.756	12.586	147.861	8.791	-8191	255	
25762.832	1	1	0	0	0.20774	0.26894	0.12544	0.088376	0.13348	0.089304	0.18827	0.07987	0.14058	0.19342	0.035617	0.17577	0.0621	0.050984	0.17011	0.24383	-2.5917	-2.8	-3.0854	-3.0083	-2.8	-3.1375	-2.9167	-3.1083	-3.0604	-3.0542	-3.0958	-2.9562	-2.8521	-3.1021	-3.0396	-2.9833	0.675	38.491	235.202	170.154	155.933	296.512	41.766	331.410	14.195	5.587	324.871	272.517	285.947	311.316	21.529	156.860	0.00019824	0.0003532	9.6391e-05	535.07	1.4124e-06	3.6863e-06	484.44	179.4	2.3295e-06	3.1076e-06	208.06	82.495	76.26	32.756	1.6185e-06	34.124	0.00022484	0.00018872	5.4343e-05	522.51	3.5575e-06	1.9652e-06	473.9	176.12	1.9835e-06	2.075e-06	202.62	81.267	75.181	32.54	2.1862e-06	33.773	111.414	83.572	69.824	-1.538	94.036	119.635	-3.379	4.224	131.909	149.216	1.485	5.350	8.895	12.795	156.718	8.628	-8191	255	
25762.904	1	1	0	0	0.19435	0.099392	0.10815	0.19261	0.12826	0.096584	0.080218	0.12364	0.092138	0.016095	0.024064	0.15565	0.12039	0.22798	0.072315	0.31011	-2.8021	-2.9042	-3.0729	-3.0167	-2.8146	-3.1688	-2.8583	-3.0229	-3.0958	-2.9354	-2.8104	-3.1083	-2.9458	-3.0375	-2.9146	-3	96.178	78.825	63.140	288.862	320.232	-2.236	343.172	147.365	76.138	127.750	-6.068	77.302	3.463	309.342	259.862	285.196	0.00019412	0.00031252	8.2331e-05	536.4	3.0286e-06	2.6301e-06	487.54	180.03	1.3616e-06	3.0863e-06	207.12	82.949	76.294	32.946	2.9804e-06	34.18	0.00022932	0.00019657	4.8781e-05	522.42	3.26e-06	1.9171e-06	476.12	176.55	2.0719e-06	2.1165e-06	203.53	81.748	75.485	32.688	2.2742e-06	33.815	112.881	84.202	87.789	-1.517	122.193	119.584	-2.970	4.418	150.684	118.335	1.129	5.366	8.492	12.662	137.196	8.630	-8191	255	
25763.002	1	1	0	0	0.11006	0.13251	0.12728	0.22917	0.075236	0.093684	0.077665	0.18639	0.12925	0.25588	0.2003	0.11491	0.033472	0.19732	0.089846	0.14146	-2.6729	-2.7854	-3.0271	-3.1771	-2.85	-3.0812	-3.2146	-2.9375	-3.2188	-2.9062	-3.1063	-3.2646	-2.9625	-3.1896	-2.9479	-3.0438	271.997	6.719	166.015	252.176	295.870	43.804	294.532	273.615	192.192	49.295	-10.618	191.897	114.543	278.259	80.853	-4.638	0.00019771	0.00032348	0.00010712	534.48	1.9335e-06	3.395e-06	490.51	179.36	2.7344e-06	2.6295e-06	207.78	81.794	75.936	32.618	3.595e-06	33.785	0.00022753	0.00019322	5.2758e-05	521.02	2.6013e-06	2.7432e-06	474.81	176.38	2.1264e-06	2.0224e-06	202.82	81.089	75.304	32.357	2.0988e-06	33.355	110.178	81.849	74.040	-1.237	142.671	163.606	-2.661	4.721	143.109	124.826	1.401	5.324	8.614	12.943	135.649	8.582	-8191	255	
25763.098	1	1	0	0	0.26564	0.043234	0.13877	0.2286	0.052149	0.24491	0.4095	0.079986	0.14047	0.10064	0.11297	0.050286	0.18223	0.1484	0.075555	0.066504	-2.8354	-2.8542	-2.9458	-3.1979	-2.9083	-3.0917	-3.1312	-2.7958	-3.2167	-2.7896	-3.0104	-3.2792	-2.9708	-3.1042	-3.1583	-2.9729	329.905	45.701	252.753	-2.856	144.054	110.227	5.486	243.818	274.273	131.873	13.500	265.226	315.164	286.715	85.036	116.972	0.00019348	0.00028689	0.00013044	534.18	2.6509e-06	5.5576e-06	486.66	179.02	1.9583e-06	2.9297e-06	207.39	81.838	76.211	32.715	2.9532e-06	33.65	0.00022623	0.00017757	5.1234e-05	519.46	1.9752e-06	3.2822e-06	474.92	176.1	2.1963e-06	1.8245e-06	202.64	81.083	75.298	32.33	2.1621e-06	33.302	107.300	86.795	80.281	-1.364	132.552	111.711	-2.855	4.506	121.639	125.134	1.376	5.767	8.639	12.567	155.958	8.531	-8191	255	
25763.219	1	1	0	0	0.13372	0.21158	0.060806	0.14949	0.091162	0.091685	0.19683	0.30565	0.27245	0.073222	0.11936	0.25739	0.21417	0.02003	0.18845	0.099997	-2.7896	-2.8708	-2.8417	-3.2667	-2.7938	-3.0312	-3.1063	-2.9396	-3.0292	-3.1292	-3.0771	-3.3063	-2.8187	-3.0708	-3.1833	-2.825	207.307	-6.564	259.598	104.341	295.599	279.314	293.662	334.639	30.624	167.869	40.744	148.156	-12.065	175.517	292.592	266.125	0.00020908	0.00031157	8.0006e-05	532.71	3.2157e-06	3.0699e-06	490.18	180.14	2.5158e-06	3.7743e-06	208.81	83.494	76.3	33.03	2.6502e-06	34.385	0.0002229	0.00017551	5.605e-05	520.81	2.14e-06	3.6174e-06	477.48	176.66	2.0677e-06	1.8293e-06	204.41	81.995	75.785	32.597	2.2075e-06	33.866	114.127	63.210	59.599	-1.505	153.814	142.278	-2.484	4.256	125.179	136.673	1.204	5.460	8.895	12.438	139.356	8.282	-8191	255	
25763.314	1	1	0	0	0.048132	0.22583	0.081304	0.085576	0.11211	0.093259	0.083034	0.30033	0.15836	0.20867	0.3359	0.046764	0.22732	0.19954	0.30679	0.20613	-2.8125	-2.9646	-2.8063	-3.1604	-2.8542	-3.1229	-3.1604	-3.0604	-3.2229	-3.1188	-2.7333	-3.2146	-2.875	-2.9708	-3.2042	-3.0521	56.662	106.663	94.815	228.059	0.544	38.634	98.100	299.269	217.869	-11.244	338.391	12.481	156.469	62.061	44.468	17.450	0.00019746	0.00018238	8.0809e-05	538.63	2.6918e-06	4.0072e-06	493.43	181.07	2.5789e-06	3.8492e-06	210.59	83.364	77.03	32.827	2.7628e-06	34.093	0.00025385	0.00016821	5.3261e-05	523.95	1.9784e-06	3.2612e-06	481.81	177.88	2.0793e-06	1.8825e-06	205.79	82.274	76.032	32.684	2.3443e-06	33.614	113.308	97.672	77.808	-1.427	127.118	135.666	-2.974	4.622	120.313	144.807	0.991	5.328	8.903	12.786	145.250	8.738	-8191	255	
25763.410	1	1	0	0	0.20931	0.035431	0.14318	0.022821	0.24655	0.10618	0.16421	0.037454	0.00649	0.081527	0.13093	0.013955	0.35167	0.16825	0.058626	0.31418	-2.6937	-3.1521	-2.6063	-3.2104	-2.9708	-3.0125	-3.1292	-2.825	-3.25	-3.0542	-2.9083	-3.3187	-2.9771	-2.9458	-3.0458	-2.8458	266.978	37.147	-8.981	47.525	315.015	52.606	283.436	252.106	181.477	180.285	51.187	-1.180	-8.133	241.713	279.722	147.221	0.0001876	0.00027375	0.00010264	537.58	1.5593e-06	3.0108e-06	490.92	181.1	2.3842e-06	3.1946e-06	208.54	83.048	76.634	32.829	1.9099e-06	33.947	0.00028226	0.00018228	5.3871e-05	522.54	1.8574e-06	3.5816e-06	478.04	177.92	1.9454e-06	1.8636e-06	204.97	81.834	75.883	32.503	2.1032e-06	33.392	116.711	88.604	80.303	-1.653	138.571	132.191	-2.834	4.379	134.616	127.613	1.296	5.512	8.678	12.474	141.156	8.471	-8191	255	
25763.482	1	1	0	0	0.071195	0.19855	0.04322	0.32381	0.12011	0.063113	0.2839	0.22127	0.16357	0.081706	0.1043	0.1612	0.15777	0.096255	0.19851	0.23058	-2.6146	-3.1	-2.7625	-3.0625	-2.9271	-2.9604	-3.3021	-2.9417	-2.9979	-3.1292	-2.8292	-3.2833	-2.9583	-3.1146	-3.1063	-2.925	299.534	309.301	201.668	331.760	117.267	0.772	-12.338	109.972	79.913	333.582	6.157	-10.153	292.222	342.817	28.522	5.591	0.00017725	0.00025874	9.1232e-05	535.7	2.0206e-06	3.6275e-06	489.39	180.14	2.0495e-06	2.7382e-06	209.4	82.784	76.583	32.812	2.8154e-06	33.715	0.00030066	0.00016821	5.4876e-05	524.18	1.9158e-06	3.4723e-06	477.92	177.44	2.1555e-06	1.9021e-06	204.22	81.647	75.77	32.479	2.1952e-06	33.347	113.499	77.645	80.174	-1.266	129.209	119.600	-2.885	4.329	157.369	133.449	1.150	5.665	8.973	12.429	123.766	8.541	-8191	255	
25763.602	1	1	0	0	0.12341	0.069601	0.16124	0.25033	0.080638	0.039699	0.15003	0.12754	0.0060314	0.2433	0.26138	0.18989	0.1833	0.3231	0.10834	0.28435	-2.4667	-2.925	-2.8833	-3.125	-3.1354	-2.925	-3.0812	-2.8333	-2.8875	-3.2854	-2.875	-3.0292	-2.9313	-2.9896	-3.1854	-2.9042	341.156	317.590	-13.008	258.127	230.416	37.341	296.384	84.801	76.952	162.107	142.181	277.332	-8.216	336.680	40.359	14.526	0.00020119	0.00027931	8.1583e-05	534.1	3.1013e-06	2.5456e-06	491.07	179.73	1.6217e-06	2.5739e-06	207.37	82.735	76.372	32.593	2.264e-06	33.857	0.00028391	0.00016247	5.4115e-05	523.39	1.9088e-06	3.8323e-06	479.4	176.82	2.0889e-06	1.9711e-06	203.43	81.723	75.779	32.4	2.1565e-06	33.35	117.094	80.703	90.343	-1.306	143.507	125.385	-3.032	4.187	121.477	125.522	0.874	5.516	8.627	12.493	139.439	8.504	-8191	255	
25763.697	1	1	0	0	0.18128	0.29973	0.10936	0.11684	0.22659	0.21487	0.27386	0.16045	0.036896	0.081792	0.24296	0.30032	0.25119	0.14392	0.11171	0.11379	-2.4354	-3.225	-2.7854	-3.0104	-3.0708	-2.7292	-3.2875	-2.9729	-2.9896	-3.0458	-2.8396	-3.075	-3.0104	-2.7812	-3.0958	-2.9875	9.601	223.007	253.908	69.862	153.987	11.769	299.328	237.392	306.161	196.007	82.570	228.339	265.010	340.363	283.411	266.664	0.00019202	0.00034079	0.00010017	536.42	2.7647e-06	3.7352e-06	493.82	181.64	2.6957e-06	3.1152e-06	208.41	83.082	76.808	32.753	2.2134e-06	33.719	0.00029789	0.00018531	5.5151e-05	523.76	2.0035e-06	3.2488e-06	481.2	177.93	2.1217e-06	1.9913e-06	204.16	81.847	75.882	32.459	2.3409e-06	33.277	113.707	60.590	87.151	-1.070	121.537	119.893	-2.546	4.339	145.148	133.164	1.532	5.357	8.663	12.316	125.796	8.384	-8191	255	
25763.795	1	1	0	0	0.36204	0.051369	0.04796	0.22214	0.09413	0.096334	0.17308	0.44448	0.087296	0.075939	0.16005	0.085421	0.071931	0.098308	0.19143	0.15829	-2.5396	-3.1188	-2.9208	-3.0458	-3.1542	-2.8021	-3.1146	-2.95	-2.8312	-3.1458	-2.8479	-2.9042	-3.0417	-2.9354	-3.0542	-3.1458	84.798	112.986	238.731	301.855	61.016	345.202	239.447	279.722	-3.494	146.904	305.906	-0.659	142.898	86.347	4.435	25.895	0.00019499	0.00035915	7.3448e-05	535.34	2.3087e-06	3.9756e-06	492.43	180.8	2.3173e-06	3.0948e-06	208.59	83.186	77.079	32.738	2.0163e-06	33.59	0.0003115	0.00018943	5.1585e-05	522.53	2.0576e-06	2.6913e-06	478.78	177.45	2.1439e-06	1.9968e-06	204.02	81.812	75.979	32.441	1.9581e-06	33.171	107.821	78.012	70.128	-1.496	144.551	138.308	-2.712	4.255	121.498	131.096	1.056	5.140	8.634	12.436	116.950	8.714	-8191	255	
25763.912	1	1	0	0	0.33885	0.20554	0.29889	0.25543	0.17248	0.22041	0.21863	0.24607	0.022249	0.077829	0.18761	0.11727	0.21049	0.18314	0.29189	0.14038	-2.4271	-3.2354	-2.8125	-3.0833	-3.0792	-2.9333	-3.0333	-2.9521	-2.8854	-3.1604	-2.9771	-2.9083	-3.0771	-2.9146	-3.1188	-3.1208	70.081	170.280	175.753	0.166	318.072	20.362	300.822	237.259	100.225	275.007	178.008	80.071	277.469	304.831	155.588	165.603	0.00018791	0.00029197	8.8336e-05	535.56	2.8587e-06	3.1903e-06	488.01	180.8	2.5646e-06	4.0038e-06	208.41	82.554	77.172	32.747	1.7344e-06	33.642	0.00030726	0.00018932	5.1295e-05	522.51	1.9917e-06	1.9763e-06	478.04	177.17	2.3064e-06	1.913e-06	203.81	81.669	76.011	32.5	2.0545e-06	33.297	113.961	68.306	68.648	-1.399	163.571	126.561	-3.048	4.565	145.457	131.386	0.961	5.186	8.539	12.602	145.743	8.814	-8191	255	
25764.010	1	1	0	0	0.074496	0.15162	0.13456	0.1502	0.14214	0.037543	0.17931	0.067336	0.13678	0.24095	0.30988	0.18051	0.18522	0.10691	0.13178	0.2449	-2.4667	-3.1813	-2.9229	-2.8854	-3.1542	-3.0479	-2.975	-3.0542	-2.8375	-3.2479	-2.975	-2.8333	-2.9792	-2.9167	-2.8896	-3.1188	197.355	108.181	63.204	225.310	131.490	1.489	268.674	75.280	178.348	307.678	300.307	309.378	203.804	60.052	53.784	227.066	0.00017749	0.00024296	8.199e-05	537.18	2.2639e-06	3.5724e-06	492.69	181.15	2.6321e-06	3.0822e-06	210	83.432	77.252	33.047	2.367e-06	34.293	0.00028362	0.0001792	5.0503e-05	523.52	2.0404e-06	2.1887e-06	481.31	177.92	2.2365e-06	1.8825e-06	205.16	82.269	76.559	32.857	2.073e-06	33.752	108.068	52.030	66.937	-1.497	133.103	152.096	-2.735	4.443	136.130	130.706	1.501	5.575	8.771	12.497	171.096	8.550	-8191	255	
25764.105	1	1	0	0	0.06739	0.20663	0.013454	0.082506	0.29058	0.084667	0.052451	0.083605	0.12449	0.13107	0.11137	0.16532	0.17015	0.13911	0.25172	0.078695	-2.225	-3.0771	-2.8729	-2.9333	-3.0729	-2.9417	-2.8958	-3.1625	-2.7687	-2.9896	-3.0938	-2.8646	-3.0854	-2.9396	-2.8542	-3.1437	340.782	61.075	197.942	285.939	209.762	308.894	240.808	343.229	330.164	222.595	53.204	318.620	266.885	1.594	261.663	43.118	0.00019074	0.00036556	8.3411e-05	544.68	2.1226e-06	3.0021e-06	490.44	181.31	2.0755e-06	3.3932e-06	207.6	83.217	77.094	32.748	2.1194e-06	33.978	0.00025447	0.00026868	4.8781e-05	527.72	2.0961e-06	1.9578e-06	479.3	178.32	2.3005e-06	1.7805e-06	204.06	81.911	76.242	32.613	2.1565e-06	33.44	109.211	85.581	88.645	-1.225	152.304	122.098	-2.803	4.835	129.052	125.069	0.991	5.610	8.697	12.578	133.841	8.539	-8191	255	
25764.201	1	1	0	0	0.19287	0.11373	0.081492	0.086754	0.33579	0.088049	0.098303	0.08324	0.16595	0.045721	0.2284	0.075657	0.11421	0.11341	0.37813	0.21262	-2.3583	-2.8458	-3.0896	-2.7146	-3.0604	-3.0458	-2.9938	-3.1271	-2.8583	-3.0083	-3.2083	-2.6188	-3.2854	-3.0354	-2.9083	-3.2104	72.626	150.304	258.006	316.148	12.400	233.689	60.593	54.057	14.366	258.082	309.806	253.570	17.536	54.212	-9.454	113.296	0.00020933	0.00037815	0.00010977	536.69	2.8674e-06	2.6969e-06	490.15	180.57	2.6069e-06	3.4161e-06	208.03	83.202	76.861	33.105	2.4302e-06	34.239	0.00023764	0.000301	5.3063e-05	523.37	2.0677e-06	1.8133e-06	477.29	177.54	2.3138e-06	1.9668e-06	203.47	81.84	76.248	32.897	2.2658e-06	33.718	116.568	55.014	77.640	-1.747	162.860	109.129	-2.973	4.091	139.535	129.201	1.119	5.152	8.703	12.556	141.607	8.715	-8191	255	
25764.299	1	1	0	0	0.34388	0.12183	0.28045	0.024989	0.062836	0.18564	0.24565	0.17333	0.23594	0.30008	0.2853	0.13172	0.21372	0.29738	0.14946	0.091369	-2.4417	-2.975	-2.9604	-2.9188	-3.0229	-2.9021	-2.8167	-3.0563	-2.95	-2.9375	-3.1896	-2.9542	-2.9688	-3.0521	-2.6979	-3.2542	148.901	95.457	121.347	327.393	193.018	95.947	264.498	263.122	204.954	286.231	259.746	81.335	270.704	233.207	79.539	187.627	0.00018807	0.00034495	8.9213e-05	536.71	2.7464e-06	4.979e-06	489.34	180.32	2.8796e-06	2.9814e-06	207.3	82.994	76.901	32.964	2.9718e-06	33.936	0.00022449	0.00030593	5.1859e-05	524.13	1.8837e-06	2.1097e-06	477.91	177.58	2.3042e-06	1.9607e-06	203.56	81.879	76.158	32.71	2.3852e-06	33.511	110.818	72.788	70.213	-0.992	132.410	145.320	-2.812	4.485	126.740	150.071	1.159	5.603	8.573	12.706	139.031	8.646	-8191	255	
25764.395	1	1	0	0	0.17267	0.061813	0.058327	0.24732	0.086289	0.090655	0.21705	0.14325	0.28308	0.07237	0.046458	0.12024	0.18386	0.21557	0.30803	0.21357	-2.3979	-3.0229	-3.0896	-2.9562	-2.9958	-2.9479	-2.7229	-3.0896	-2.9771	-3.0292	-3.175	-2.8	-2.9833	-3.0542	-2.7833	-3.2479	106.131	169.340	214.649	334.712	78.019	336.553	290.180	252.058	31.667	68.298	289.487	22.971	325.297	169.354	139.633	267.771	0.00020941	0.00034647	8.7074e-05	538.46	2.6144e-06	3.1431e-06	493.35	182.29	1.374e-06	3.194e-06	209.25	83.281	77.704	33.172	3.1752e-06	34.45	0.00023932	0.0003009	5.5928e-05	524.32	1.8885e-06	1.8967e-06	480.56	178.4	2.0777e-06	2.0334e-06	204.4	82.31	76.659	32.981	2.434e-06	33.824	113.646	64.025	90.088	-1.290	132.540	142.460	-3.104	4.334	132.348	136.952	1.481	5.410	8.442	12.462	134.217	8.696	-8191	255	
25764.516	1	1	0	0	0.12772	0.13672	0.18499	0.12309	0.1294	0.10714	0.093532	0.24476	0.38798	0.21613	0.11492	0.13577	0.10927	0.4069	0.015933	0.30647	-2.6625	-2.8271	-2.9229	-2.9354	-3.15	-3.0333	-2.8375	-3.1479	-3.0854	-2.8438	-3.225	-2.8354	-2.975	-3.0333	-2.8063	-3.0542	153.594	15.639	133.149	103.144	272.314	246.327	345.261	249.301	109.260	131.698	297.284	84.212	49.110	346.224	23.610	213.516	0.00021417	0.00030589	9.6058e-05	536.23	2.7579e-06	2.4529e-06	484.73	180.76	2.0989e-06	2.4226e-06	207.2	82.695	76.882	33.026	2.7771e-06	33.851	0.00022944	0.00034258	5.3642e-05	523.29	2.019e-06	2.0819e-06	474.32	177.51	2.0624e-06	2.1483e-06	202.18	81.508	76.245	32.717	2.5001e-06	33.313	110.089	70.923	81.919	-1.184	143.238	135.750	-2.900	4.327	141.942	138.497	0.956	5.037	8.888	12.846	159.540	8.470	-8191	255	
25764.611	1	1	0	0	0.30996	0.25393	0.064726	0.065773	0.13123	0.22157	0.15096	0.091432	0.10695	0.090509	0.25988	0.20459	0.31936	0.21122	0.071733	0.058778	-2.6188	-2.8521	-2.975	-2.8937	-2.8937	-2.9625	-2.8771	-3.1417	-2.9917	-2.8708	-3.0917	-2.9	-2.8417	-3.2292	-2.6875	-3.2896	105.985	12.217	194.738	286.674	48.752	72.560	13.258	344.250	295.370	138.755	341.834	3.743	245.853	233.123	297.031	168.867	0.00020561	0.00014808	8.6009e-05	531.46	2.6956e-06	3.2009e-06	485.09	179.96	2.1817e-06	3.947e-06	205.83	82.434	76.667	32.579	3.051e-06	33.39	0.00023018	0.00032418	5.5273e-05	520.39	2.0811e-06	2.0301e-06	472.78	176.64	2.1328e-06	2.1281e-06	201.47	80.919	75.814	32.405	2.3723e-06	32.947	114.009	40.141	73.699	-1.350	121.299	132.827	-2.959	4.578	149.168	137.499	0.942	5.143	8.563	12.509	141.266	8.847	-8191	255	
25764.705	1	1	0	0	0.047083	0.049996	0.15786	0.21092	0.17213	0.29059	0.13996	0.048346	0.21055	0.091804	0.059614	0.28275	0.064382	0.20077	0.1969	0.10416	-2.5646	-2.7729	-3.025	-2.7292	-2.9	-3.1521	-2.8771	-3.0687	-3.1	-2.7708	-3.2042	-2.9938	-2.9417	-3.0667	-2.7979	-3.1625	261.133	40.350	86.600	316.011	320.721	234.134	320.958	268.434	4.806	115.489	-2.980	8.713	284.338	300.158	192.776	336.059	0.00018385	0.00028053	6.8337e-05	531.91	1.1969e-06	2.7148e-06	483.24	179.47	1.7617e-06	3.6493e-06	204.74	81.585	76.662	32.481	1.5748e-06	33.499	0.00022142	0.00032986	5.2743e-05	519.93	2.0988e-06	2.0344e-06	472.58	176.11	2.1672e-06	2.1678e-06	200.69	80.425	75.657	32.278	2.2243e-06	32.97	112.045	43.912	80.931	-1.396	115.526	121.338	-2.920	4.377	148.330	138.744	0.948	5.412	8.793	12.714	117.909	8.810	-8191	255	
25764.779	1	1	0	0	0.045565	0.31574	0.2322	0.12216	0.17146	0.16332	0.20915	0.066247	0.14541	0.27172	0.10145	0.27852	0.25921	0.17064	0.43536	0.15651	-2.5792	-2.7167	-3.075	-3.1333	-2.8167	-3.1792	-2.8625	-2.9729	-3.0021	-2.7687	-3.2396	-2.8979	-2.8333	-3.0125	-2.9625	-3.075	217.785	305.688	234.508	109.926	24.371	88.521	213.988	252.130	284.749	308.705	345.877	217.668	262.873	256.085	164.172	120.953	0.00019445	0.00028736	9.767e-05	531.49	3.3442e-06	1.8502e-06	486.67	180.37	2.5427e-06	2.0785e-06	204.31	80.899	76.135	32.345	2.5755e-06	32.841	0.00022502	0.00029851	5.9204e-05	517.98	2.2818e-06	2.0714e-06	473.16	176.55	2.2683e-06	2.2448e-06	200.53	80.229	75.308	32.025	2.3241e-06	32.34	113.295	73.488	79.021	-1.180	120.756	163.339	-2.915	4.540	144.262	120.066	1.394	5.625	8.723	12.372	148.669	8.621	-8191	255	
25764.875	1	1	0	0	0.23931	0.065319	0.055178	0.14021	0.2414	0.21367	0.12606	0.10196	0.19114	0.32722	0.029106	0.21598	0.187	0.13224	0.262	0.34473	-2.6729	-2.7854	-3.1042	-2.8812	-2.8708	-3.1604	-2.8812	-2.9771	-3.1562	-2.9229	-3.0812	-3.1188	-2.7917	-3.2271	-2.8979	-2.9604	114.034	252.842	10.465	40.661	313.212	326.437	14.150	122.596	98.635	128.707	62.747	169.675	27.229	303.809	52.793	29.785	0.00020011	0.00031959	0.00012073	524.49	3.6275e-06	4.0574e-06	478.96	177.6	1.5823e-06	2.757e-06	201.53	80.06	75.562	31.689	2.4759e-06	32.295	0.00023941	0.0002244	8.6285e-05	513.85	2.3091e-06	2.0078e-06	465.65	174.07	2.3217e-06	2.1904e-06	197.77	78.789	74.511	31.524	2.2445e-06	31.894	113.766	49.140	83.001	-1.198	132.156	155.897	-3.069	4.567	122.406	153.982	1.145	5.372	8.517	12.497	135.224	8.716	-8191	255	
25764.994	1	1	0	0	0.14751	0.10091	0.085747	0.129	0.16585	0.21546	0.13785	0.1961	0.11107	0.1046	0.15156	0.23392	0.33727	0.25129	0.096882	0.16062	-2.7125	-2.9	-3.1542	-3.1458	-2.9146	-3.2125	-3.0542	-2.9313	-3.2854	-2.8187	-2.9938	-3.1896	-2.8708	-3.275	-3.075	-2.9729	322.986	83.038	75.891	289.963	182.734	203.485	336.144	0.089	59.103	-11.298	62.232	116.907	234.876	286.575	193.837	106.914	0.00016994	0.00035517	8.2912e-05	524.21	3.0689e-06	3.1516e-06	474.38	177.43	1.7388e-06	1.919e-06	202.95	80.438	75.22	31.891	1.9479e-06	32.545	0.00021957	0.00020713	8.4791e-05	513.05	2.179e-06	2.0967e-06	464.6	174.34	2.1783e-06	2.122e-06	198.21	78.989	74.374	31.622	2.2809e-06	32.004	110.684	58.996	65.788	-1.546	149.209	159.678	-2.792	4.640	120.521	99.638	1.252	5.497	8.799	12.565	125.287	8.313	-8191	255	
25765.090	1	1	0	0	0.077235	0.26809	0.14029	0.036294	0.15694	0.11756	0.18476	0.20598	0.14544	0.15731	0.26899	0.080602	0.19574	0.15359	0.16195	0.14225	-2.7167	-2.6958	-3.0021	-3.1667	-2.8167	-3.1771	-2.9729	-2.7812	-3.1667	-2.8146	-3.0875	-3.2687	-2.95	-2.9729	-2.8104	-2.7979	197.985	25.008	84.154	275.258	83.082	175.101	316.627	245.668	218.597	215.476	209.451	156.251	337.516	155.834	335.958	-0.772	0.00019905	0.00026389	0.00013626	527.82	1.7291e-06	1.8304e-06	480.29	176.82	2.604e-06	2.582e-06	203.06	80.369	74.83	31.828	3.3269e-06	32.596	0.00022116	0.00018834	9.2776e-05	514.51	2.2379e-06	2.0084e-06	468.65	174	2.2603e-06	2.0762e-06	198.34	79.31	74.201	31.654	2.3163e-06	32.08	108.420	92.284	51.663	-1.677	147.973	140.512	-2.951	4.787	123.103	148.395	1.151	5.505	8.690	12.688	143.810	8.738	-8191	255	
25765.186	1	1	0	0	0.33794	0.1811	0.21634	0.1267	0.14815	0.12826	0.27579	0.25062	0.22841	0.22315	0.24103	0.083882	0.13537	0.023944	0.18913	0.072192	-2.6437	-2.8292	-2.9792	-2.9625	-2.7625	-3.1104	-3.0375	-2.7687	-3.1875	-3.0312	-2.8896	-3.2146	-2.8688	-3.0417	-3.1104	-2.8688	39.939	14.052	330.254	244.841	321.689	17.599	264.873	228.429	46.921	48.378	303.057	294.460	2.050	59.500	7.391	320.875	0.00020069	0.00024746	9.2048e-05	524.21	2.3736e-06	2.4154e-06	476.49	175.33	2.2621e-06	2.669e-06	200.31	79.624	74.441	31.414	2.0329e-06	31.915	0.00022985	0.00019652	9.2959e-05	512.65	2.2149e-06	2.1628e-06	465.54	173.02	2.3148e-06	2.1202e-06	196.04	78.303	73.454	31.19	2.2092e-06	31.427	117.410	86.422	74.696	-1.070	144.386	145.519	-2.987	4.600	120.764	110.806	1.121	5.404	8.714	12.938	141.274	8.712	-8191	255	
25765.281	1	1	0	0	0.20497	0.079869	0.14489	0.39454	0.24716	0.36465	0.061821	0.15482	0.055319	0.22101	0.23928	0.16946	0.19684	0.21141	0.21052	0.21168	-2.6917	-2.8667	-2.775	-3.2583	-2.6833	-3.1063	-2.7792	-2.8396	-3.1208	-3.0604	-2.8375	-3.0062	-2.8021	-2.9229	-3.0917	-2.7979	88.073	-2.437	27.133	268.676	-1.255	287.319	49.776	9.030	61.128	250.513	268.686	27.061	335.619	162.015	109.780	294.055	0.00018395	0.00033751	9.232e-05	522.85	1.8615e-06	2.1896e-06	471.52	174.84	2.4918e-06	1.6543e-06	198.55	78.817	73.973	31.474	2.4726e-06	31.837	0.00022225	0.00018862	9.7714e-05	509.93	2.1341e-06	2.1548e-06	458.96	171.99	2.4381e-06	1.9442e-06	194.92	77.723	73.093	31.162	2.2714e-06	31.463	104.951	75.152	67.832	-1.720	137.662	143.181	-3.067	4.250	157.318	117.656	1.433	5.229	8.423	12.477	135.140	8.492	-8191	255	
25765.379	1	1	0	0	0.053959	0.0045714	0.14536	0.081518	0.19324	0.20154	0.23059	0.087289	0.029699	0.23933	0.14868	0.32988	0.094998	0.080256	0.2599	0.1323	-2.7229	-2.7458	-2.8833	-3.0083	-2.9979	-2.9396	-3.3438	-2.8542	-3.1312	-3.2146	-2.9417	-3.025	-2.9313	-3.0792	-3.0542	-2.7625	19.294	325.366	180.055	291.317	193.636	142.908	263.498	1.381	187.786	180.665	225.912	-10.964	247.599	93.636	120.927	300.039	0.0001731	0.0002392	5.986e-05	521.1	2.0363e-06	3.3167e-06	474.1	175.01	2.3865e-06	2.5648e-06	199.21	79.481	74.111	31.534	2.5553e-06	31.753	0.00022216	0.00019387	8.7443e-05	508.57	2.056e-06	2.1418e-06	459.71	171.91	3.2934e-06	2.1281e-06	195.29	78.111	73.366	31.33	2.235e-06	31.45	106.607	66.994	85.473	-1.473	139.355	148.099	-2.772	4.180	158.340	112.222	1.062	5.632	8.777	12.811	135.145	8.736	-8191	255	
25765.475	1	1	0	0	0.061468	0.15205	0.35987	0.11184	0.061073	0.10692	0.21255	0.17147	0.23326	0.023048	0.12503	0.15858	0.27848	0.069146	0.060405	0.19097	-2.7375	-3.0833	-3.0021	-3.1396	-2.9625	-2.9125	-3.1	-2.9125	-2.9458	-2.9583	-2.9542	-3.1604	-3.15	-2.7042	-3.2104	-3.0917	5.562	150.968	137.415	11.108	253.619	1.753	39.799	207.394	-6.321	70.207	80.984	282.660	36.350	14.296	268.716	293.960	0.00019668	0.00037161	0.00010603	520.79	1.0267e-06	2.5314e-06	476.37	175.49	2.4001e-06	2.8814e-06	202.13	80.028	75.294	31.685	2.8719e-06	32.527	0.00023162	0.00018564	9.779e-05	509.26	1.9821e-06	2.0609e-06	463.81	172.52	3.2378e-06	1.8849e-06	197.83	78.963	74.242	31.465	2.2809e-06	32.045	104.660	62.242	72.044	-1.050	139.030	144.566	-2.973	4.150	166.435	135.736	1.311	5.503	8.958	12.745	108.281	8.389	-8191	255	
25765.596	1	1	0	0	0.11043	0.051411	0.36742	0.23953	0.11303	0.2254	0.32209	0.078791	0.21374	0.12909	0.1217	0.08498	0.14397	0.16191	0.12596	0.073341	-2.6479	-3.1354	-2.8708	-3.1625	-3.0604	-2.8292	-3.325	-2.825	-3.0479	-3.2	-2.9667	-3.0479	-3.1167	-2.9688	-3.15	-2.9854	332.738	253.896	-1.191	193.437	301.790	308.451	295.870	30.426	46.088	135.613	109.086	257.624	204.119	297.194	237.803	260.672	0.00020157	0.00030967	5.7765e-05	526.6	2.2399e-06	3.3178e-06	480.29	177.49	1.957e-06	2.0048e-06	202.64	79.733	74.852	31.623	2.5361e-06	32.184	0.00023251	0.00017887	7.5449e-05	513.64	1.935e-06	2.0807e-06	467.53	173.86	3.4648e-06	2.0218e-06	197.66	78.74	74.116	31.431	2.2423e-06	31.616	108.855	75.689	80.272	-1.280	140.779	159.572	-2.891	4.293	142.555	115.250	1.280	5.564	8.634	12.490	138.983	8.406	-8191	255	
25765.691	1	1	0	0	0.24836	0.16614	0.14844	0.054538	0.05162	0.1266	0.034431	0.10267	0.12098	0.061217	0.097091	0.23858	0.28092	0.17365	0.25369	0.15229	-2.5062	-3.0979	-2.7812	-3.0125	-3.075	-2.7333	-3.1542	-2.9813	-2.7792	-3.0708	-2.8625	-3.0167	-2.9917	-2.8208	-3.2313	-3.0104	165.534	45.363	125.626	228.349	192.081	320.290	143.995	309.025	252.976	121.028	23.626	314.861	14.943	263.683	214.568	329.206	0.00018343	0.0003982	9.3618e-05	524.79	1.9088e-06	3.7508e-06	478.06	176.87	1.8049e-06	3.2011e-06	202.6	79.567	74.656	31.779	2.0356e-06	32.206	0.00021756	0.00018001	5.9311e-05	511.95	1.9596e-06	2.2215e-06	465.64	173.94	3.1997e-06	2.0023e-06	197.63	78.637	74.061	31.399	2.2294e-06	31.668	113.233	77.404	75.264	-1.308	125.132	159.958	-2.895	4.442	155.853	133.905	1.250	5.357	8.517	12.308	122.722	8.494	-8191	255	
25765.785	1	1	0	0	0.14815	0.17887	0.15042	0.42158	0.16656	0.27942	0.25137	0.21141	0.37182	0.15981	0.041851	0.11898	0.20431	0.028612	0.037662	0.15004	-2.4958	-3.1771	-2.8208	-3.0667	-3.1188	-2.7938	-3.2521	-3.1896	-2.9854	-3.2271	-2.9021	-3.1312	-3.1167	-2.9396	-3.0542	-3.1354	187.195	210.426	115.129	295.139	44.412	262.600	205.888	243.543	257.808	172.319	323.530	209.635	322.838	127.910	265.562	340.922	0.00019221	0.00029137	8.9201e-05	527.06	3.2659e-06	3.1528e-06	478.26	176.71	2.3216e-06	3.1556e-06	204.04	80.803	74.8	31.959	2.7314e-06	32.58	0.00023221	0.00019684	5.829e-05	513.83	1.9484e-06	2.261e-06	467.14	174.16	3.7882e-06	2.0291e-06	198.69	79.299	74.502	31.713	2.4654e-06	32.075	109.630	76.788	65.749	-1.251	126.515	151.855	-2.933	4.544	143.094	146.951	0.920	5.426	8.762	12.609	138.239	8.794	-8191	255	
25765.885	1	1	0	0	0.21473	0.17307	0.065507	0.19196	0.051364	0.19538	0.13601	0.17363	0.029468	0.066616	0.25398	0.35226	0.066031	0.20921	0.16788	0.2166	-2.5979	-3.1333	-2.9917	-3	-3.3042	-2.7313	-3.1125	-3.0667	-2.8729	-3.2313	-2.9458	-3.0792	-3.2438	-2.7417	-3.2188	-2.9292	89.079	98.379	190.588	113.667	161.735	45.075	73.893	25.945	208.221	281.553	217.805	23.846	-4.361	253.885	119.483	324.920	0.00020827	0.00029246	0.0001069	528.68	3.1529e-06	4.3298e-06	483.79	178.76	2.3158e-06	2.0221e-06	205.02	81.121	75.356	32.041	2.7875e-06	32.501	0.00023531	0.00018802	5.3535e-05	515.85	2.2459e-06	2.2116e-06	471.05	175.05	3.4537e-06	1.9234e-06	200.76	79.823	74.82	31.799	3.443e-06	32.055	111.496	82.607	63.168	-1.461	155.974	139.754	-2.856	4.150	153.099	114.284	0.920	5.171	8.252	12.716	164.281	8.420	-8191	255	
25766.004	1	1	0	0	0.17025	0.16321	0.13918	0.13828	0.20054	0.12393	0.076349	0.18943	0.081116	0.1694	0.073356	0.10156	0.23841	0.25598	0.23192	0.15395	-2.3729	-3.1917	-2.8417	-3.0271	-3.2875	-2.7958	-3.2542	-3.2771	-2.7646	-3.2354	-2.8729	-3.0667	-3.2938	-2.8563	-2.7792	-3.2708	305.453	251.870	195.163	14.563	183.534	202.349	166.276	114.643	128.140	306.694	172.533	280.787	52.591	335.905	71.042	319.413	0.00018398	0.0003043	9.061e-05	530.64	2.1077e-06	3.0568e-06	480.61	178.04	2.298e-06	1.7731e-06	203.99	79.841	75.454	31.943	1.2633e-06	32.126	0.00022378	0.00018786	5.1112e-05	516.38	1.9762e-06	2.148e-06	468.24	175.02	3.7527e-06	2.0591e-06	198.93	79.065	74.604	31.701	3.4391e-06	31.713	110.722	64.571	78.457	-1.244	131.711	127.061	-3.106	4.360	148.051	152.947	1.070	5.471	8.859	12.865	132.103	8.496	-8191	255	
25766.074	1	1	0	0	0.2583	0.15216	0.202	0.10961	0.20717	0.2113	0.13418	0.273	0.07031	0.2702	0.20386	0.17565	0.097841	0.16581	0.1041	0.1706	-2.5292	-2.9833	-2.9813	-2.7667	-3.0312	-2.8125	-3.1312	-3.0771	-2.8771	-3.1333	-3.1792	-2.9104	-2.9792	-2.8458	-2.9417	-3.0687	116.073	249.033	248.533	-8.136	36.117	304.246	256.813	184.623	66.389	136.875	30.850	293.091	325.573	112.352	94.671	17.727	0.00019146	0.0002598	9.447e-05	525.03	1.0322e-06	2.9134e-06	479.56	176.47	1.4718e-06	3.2386e-06	201.87	79.631	74.871	31.767	1.2103e-06	32.106	0.00022791	0.00018661	5.0762e-05	514.56	2.0683e-06	2.0356e-06	465.56	174.15	2.7901e-06	2.4801e-06	197.98	78.554	74.013	31.509	3.7547e-06	31.644	109.099	72.585	69.543	-1.230	136.952	137.520	-2.822	4.599	143.566	152.585	1.017	5.336	9.142	12.547	103.663	8.514	-8191	255	
25766.195	1	1	0	0	0.12612	0.17429	0.13431	0.14414	0.21491	0.19003	0.48495	0.30159	0.15929	0.11947	0.045057	0.071172	0.18083	0.098215	0.13196	0.11705	-2.3667	-2.9896	-2.9021	-2.8125	-3.1167	-2.8396	-2.8646	-3.1333	-2.7854	-2.9521	-3.075	-2.7667	-2.9479	-3.0375	-2.9021	-3.0625	70.345	142.475	208.430	264.016	309.396	175.708	30.381	297.976	287.930	88.392	19.285	308.335	228.079	34.950	8.653	16.831	0.00016078	0.00022608	8.3065e-05	522.34	3.1069e-06	2.9902e-06	475.53	176.89	2.3119e-06	2.5309e-06	201.49	79.653	74.53	31.875	2.4034e-06	32.363	0.00022694	0.0001675	5.4602e-05	510.82	2.1785e-06	2.0869e-06	463.86	173.35	2.0968e-06	3.5945e-06	197.27	78.619	73.881	31.57	3.3993e-06	31.909	118.267	81.818	66.258	-1.085	153.795	124.340	-2.976	4.632	132.844	159.906	1.010	5.489	8.760	12.788	122.086	8.735	-8191	255	
25766.291	1	1	0	0	0.29174	0.2846	0.16163	0.27662	0.30922	0.085881	0.16894	0.12183	0.035538	0.18414	0.36952	0.20007	0.14876	0.50789	0.17595	0.1061	-2.5208	-3.1375	-3.2042	-2.9792	-3.1667	-3.1562	-2.8312	-3.2562	-2.9396	-3.1437	-3.0354	-2.8854	-3.1417	-3.0687	-2.7938	-3.0542	244.889	339.013	307.283	323.220	268.148	138.642	240.833	295.902	200.628	246.306	251.840	313.555	77.304	291.097	267.499	67.235	0.00020905	0.00032486	7.5192e-05	527.55	1.5263e-06	2.7274e-06	480.58	178.8	1.1045e-06	3.301e-06	203.71	79.887	75.205	31.938	2.067e-06	32.295	0.00022455	0.0001878	5.1798e-05	514.89	2.0201e-06	1.8004e-06	469.26	175	2.1248e-06	3.2499e-06	198.59	79.16	74.536	31.727	3.661e-06	31.686	112.089	95.964	70.723	-1.159	131.315	154.055	-2.984	4.290	108.997	135.621	1.171	5.659	8.595	12.683	129.156	8.500	-8191	255	
25766.387	1	1	0	0	0.051831	0.07952	0.20391	0.16552	0.13983	0.2803	0.29413	0.058336	0.34013	0.1513	0.077037	0.17815	0.21967	0.094564	0.13074	0.048827	-2.3542	-2.9	-3.0979	-2.8604	-3.0396	-3.0458	-2.8917	-3.3125	-2.9667	-3.1125	-3.2271	-2.825	-3.1042	-3.1333	-2.7104	-3.2313	95.270	201.858	160.231	42.007	14.170	233.979	24.111	5.194	346.393	246.716	310.445	248.887	304.383	307.792	-3.885	254.821	0.00019111	0.0003037	8.215e-05	528.06	2.9413e-06	3.0417e-06	474.27	177.04	1.6148e-06	1.5394e-06	200.06	78.551	74.568	31.226	2.2798e-06	31.274	0.00022119	0.00016837	4.8766e-05	513	2.3786e-06	2.0041e-06	461.59	173.6	2.0534e-06	3.2475e-06	195.54	77.478	73.74	31.089	3.5108e-06	30.914	106.471	69.502	81.107	-1.277	145.649	143.168	-2.920	4.609	161.411	145.445	1.221	5.530	8.698	12.405	153.094	8.729	-8191	255	
25766.482	1	1	0	0	0.2511	0.054314	0.10196	0.096029	0.16932	0.44342	0.13117	0.32473	0.14495	0.1419	0.035437	0.12992	0.028839	0.27997	0.27894	0.31926	-2.4625	-2.9104	-3.1958	-2.8979	-3.1583	-3.0438	-2.8667	-3.2458	-3.1354	-2.6771	-3.1896	-2.9354	-2.9125	-3.1063	-2.7333	-3.25	265.655	24.148	3.132	46.401	86.331	273.703	19.805	89.149	266.427	209.471	328.042	163.416	186.759	13.444	196.432	197.179	0.00018555	0.00037516	7.7754e-05	525.03	2.3283e-06	2.768e-06	469.32	174.16	2.1606e-06	2.103e-06	196.98	77.831	73.649	31.202	1.9968e-06	31.229	0.00021945	0.00019181	5.1219e-05	510.27	3.404e-06	2.1437e-06	458.09	171.12	2.0851e-06	3.3733e-06	193.54	76.685	72.708	30.899	4.0383e-06	30.741	110.097	81.978	55.335	-1.475	116.291	131.225	-2.793	4.726	140.035	197.628	1.225	5.616	8.882	12.716	126.776	8.652	-8191	255	
25766.604	1	1	0	0	0.062486	0.19917	0.21205	0.127	0.15127	0.12723	0.10513	0.21922	0.18232	0.24612	0.24131	0.174	0.10802	0.20245	0.10876	0.13981	-2.4146	-2.9229	-3.2521	-2.8812	-2.9521	-3.1167	-2.9292	-3.2271	-2.8979	-2.8104	-3.1562	-2.9188	-3.2104	-3.1229	-2.8521	-3.1875	151.085	291.602	237.156	224.875	148.241	59.079	159.344	285.003	187.832	82.961	243.893	163.599	262.136	342.860	175.419	264.564	0.00019807	0.00029225	0.00011064	520.38	2.7918e-06	3.0564e-06	466.86	174.69	2.501e-06	1.282e-06	198.15	78.266	73.782	31.249	1.4372e-06	31.476	0.0002198	0.00018726	5.8641e-05	507.6	3.2263e-06	2.1017e-06	456.97	171.39	1.9719e-06	3.5169e-06	194.12	77.148	73.027	31.058	2.7356e-06	31.102	112.684	71.349	81.756	-1.451	132.295	139.155	-2.686	4.428	143.458	141.108	1.246	5.291	8.745	12.461	132.651	8.594	-8191	255	
25766.676	1	1	0	0	0.12173	0.092532	0.098015	0.20781	0.099854	0.30186	0.22429	0.11444	0.18514	0.23955	0.23574	0.21848	0.082461	0.17931	0.17814	0.15042	-2.5042	-2.925	-3.1375	-2.7667	-3.0062	-3.1479	-2.7292	-3.0646	-2.8187	-2.7313	-3.075	-2.9125	-3.0875	-3.1458	-2.8354	-3.1937	193.940	321.847	105.619	239.768	240.166	44.078	292.724	290.593	101.934	340.795	217.505	68.087	188.552	67.640	114.306	311.635	0.00018619	0.00029184	0.00010808	523.56	2.5742e-06	3.8445e-06	470.03	174.5	2.454e-06	3.1059e-06	197.82	78.315	74.24	31.551	2.2165e-06	31.508	0.00021995	0.00019056	5.6309e-05	510.92	3.3542e-06	2.0541e-06	458.77	171.91	2.0809e-06	3.5597e-06	194.3	77.143	73.281	31.276	2.3998e-06	31.132	115.507	88.006	72.206	-1.272	153.644	162.253	-2.727	4.863	133.438	108.527	0.867	5.712	8.873	12.846	148.650	8.752	-8191	255	
25766.771	1	1	0	0	0.1145	0.19722	0.10778	0.12698	0.13287	0.33337	0.06594	0.17636	0.1091	0.25992	0.12742	0.37647	0.22571	0.128	0.18392	0.25594	-2.6188	-2.8333	-2.9958	-2.8833	-2.7896	-3.2812	-3.0333	-3.0229	-3.0875	-2.8667	-3.1208	-2.8979	-2.7708	-3.25	-2.8917	-2.9521	127.214	191.478	255.284	53.182	237.626	272.056	297.049	227.437	202.629	99.480	32.082	305.982	41.494	310.799	95.866	105.041	0.00019036	0.00028399	0.00012364	520.99	1.6584e-06	2.5777e-06	465.2	174.25	2.2229e-06	1.2532e-06	197.76	77.754	73.508	31.063	3.0123e-06	31.348	0.00021388	0.00019024	5.3627e-05	507.33	3.0117e-06	2.122e-06	452.85	170.83	2.0867e-06	3.5664e-06	192.66	76.608	72.743	30.92	2.4222e-06	30.859	110.178	77.824	78.247	-1.356	139.352	131.391	-3.259	4.332	130.481	132.124	1.321	5.089	8.781	12.969	133.349	8.565	-8191	255	
25766.865	1	1	0	0	0.14014	0.24193	0.10443	0.22149	0.18283	0.15035	0.027453	0.22229	0.09161	0.095627	0.28863	0.096464	0.15211	0.014527	0.098051	0.1851	-2.5812	-2.7062	-3.1042	-2.8937	-2.9646	-3.0667	-3.0521	-3.05	-3.1979	-2.8354	-3.0938	-3.1437	-2.6604	-3.1958	-2.85	-2.9542	321.002	96.145	110.507	246.731	314.112	29.502	343.126	333.519	312.514	291.449	273.917	231.828	-5.960	271.789	94.181	79.092	0.00018626	0.00034155	7.7493e-05	516.07	3.2356e-06	2.2621e-06	464.82	173.71	1.9168e-06	2.855e-06	198.19	78.046	73.646	31.113	2.0164e-06	31.437	0.00021954	0.00019457	5.4054e-05	505.88	3.5244e-06	1.9035e-06	453.52	170.46	2.037e-06	2.6811e-06	193.44	76.706	72.919	30.98	2.1627e-06	30.985	119.799	58.155	77.270	-1.077	143.257	127.138	-2.968	4.450	114.729	154.579	1.111	5.230	8.475	12.538	147.549	8.709	-8191	255	
25766.965	1	1	0	0	0.1102	0.13967	0.089197	0.18887	0.24609	0.12851	0.075623	0.16572	0.18351	0.2501	0.1379	0.16349	0.23755	0.063778	0.10956	0.10201	-2.7417	-2.9271	-3.0833	-3.0667	-2.9146	-2.9938	-2.8708	-2.9917	-3.2146	-2.675	-3.0958	-2.9875	-2.8042	-2.9833	-2.9167	-2.8667	59.086	321.719	18.156	300.608	197.325	133.621	148.797	250.956	313.520	254.792	240.551	130.756	288.447	134.345	185.318	139.760	0.00016342	0.00032582	7.3488e-05	521.41	3.434e-06	2.7739e-06	469.42	175.09	1.9853e-06	3.2733e-06	200.12	78.913	73.911	31.505	2.7778e-06	31.617	0.00022885	0.00018829	5.1783e-05	509.44	3.1284e-06	1.9726e-06	458.96	172.14	2.0978e-06	2.0316e-06	195.3	77.647	73.354	31.276	2.2652e-06	31.349	107.239	70.471	76.242	-1.515	135.694	136.153	-2.898	4.302	127.946	164.205	1.206	5.228	8.993	12.634	131.729	8.885	-8191	255	
25767.082	1	1	0	0	0.23349	0.20714	0.03602	0.21019	0.11932	0.12845	0.069251	0.13616	0.018953	0.0952	0.17607	0.16706	0.13203	0.060528	0.25466	0.1623	-2.7479	-2.7833	-2.9625	-3.0167	-2.7812	-3.0042	-2.8125	-2.9167	-3.0938	-2.9688	-3.1083	-3.2708	-2.6917	-3.2458	-3.0458	-3.0021	38.692	67.627	315.979	286.197	326.853	235.620	329.218	255.064	84.794	218.697	8.294	307.390	195.903	222.701	12.995	146.249	0.0001884	0.00036217	5.5455e-05	521.21	3.3399e-06	3.8904e-06	469.03	174.53	2.0236e-06	2.5641e-06	198.44	78.051	73.497	31.446	3.3241e-06	31.497	0.00022962	0.00019176	4.9436e-05	508.58	3.3981e-06	2.2005e-06	456.96	171.35	2.2275e-06	2.045e-06	193.73	76.881	72.839	31.168	2.2686e-06	31.052	108.153	71.158	86.598	-1.158	132.978	114.788	-2.938	4.530	143.103	138.498	1.554	5.401	8.786	12.570	123.974	8.705	-8191	255	
25767.180	1	1	0	0	0.31613	0.14805	0.26407	0.16061	0.17716	0.086665	0.058162	0.23347	0.23929	0.23982	0.12488	0.19426	0.2812	0.1493	0.22025	0.16475	-2.675	-2.8167	-2.8583	-3.1229	-2.8396	-3.0667	-3.0563	-2.8604	-3.025	-2.9104	-2.8521	-3.0042	-2.6729	-3.025	-2.8625	-2.7812	120.791	200.606	158.863	143.093	248.693	35.280	176.650	328.145	328.372	124.601	28.241	189.734	217.253	109.539	149.422	259.526	0.00019101	0.00022595	9.0326e-05	519.32	2.9201e-06	3.1368e-06	467.5	173.71	1.4885e-06	3.0993e-06	196.72	77.746	73.768	31.316	2.4727e-06	31.373	0.00022941	0.00018401	5.3551e-05	507.08	2.4348e-06	2.7148e-06	454.32	170.53	2.2466e-06	1.9277e-06	192.91	76.647	73.037	31.092	2.2815e-06	31.023	109.708	82.192	76.105	-1.479	127.226	142.904	-2.809	4.263	130.270	125.180	1.528	5.577	8.762	12.410	127.014	8.298	-8191	255	
25767.275	1	1	0	0	0.11573	0.22177	0.17846	0.2279	0.072784	0.15138	0.16842	0.12374	0.10805	0.16212	0.2776	0.17266	0.11554	0.24065	0.23437	0.10594	-2.6208	-3.0187	-2.8563	-3.1771	-2.7583	-3.0229	-3.1	-2.8521	-3.0292	-2.8812	-2.9083	-3.1958	-2.7167	-3.0563	-3.125	-2.8354	66.936	106.418	221.689	117.878	327.317	112.856	217.147	325.684	169.831	318.366	318.137	274.102	46.346	280.746	211.553	56.679	0.00017961	0.00028283	9.3881e-05	519.89	3.0938e-06	3.613e-06	465.86	173.85	2.0714e-06	3.2528e-06	197.06	78.658	74.823	31.635	2.9476e-06	31.669	0.0002244	0.00019527	5.3779e-05	507.61	1.9746e-06	3.594e-06	455.56	171.25	2.1317e-06	1.9711e-06	193.38	77.254	73.538	31.371	2.3566e-06	31.3	109.727	79.619	64.672	-1.373	102.668	151.509	-2.922	4.689	136.043	140.616	1.216	5.522	8.583	12.985	139.157	8.581	-8191	255	
25767.371	1	1	0	0	0.1295	0.2806	0.13782	0.23852	0.055494	0.16635	0.21488	0.17348	0.17089	0.21257	0.069122	0.21558	0.046548	0.14064	0.10174	0.13124	-2.7125	-3.0458	-2.6458	-3.1167	-2.675	-2.8208	-2.9479	-2.6396	-3.0938	-2.8458	-2.8917	-3.1688	-2.7542	-2.7646	-3.0292	-2.8104	181.572	279.589	171.063	268.550	63.104	177.477	306.265	291.676	261.532	84.775	109.705	269.356	299.439	234.823	85.618	-8.383	0.00018042	0.00029065	8.4238e-05	522.73	2.2453e-06	2.7613e-06	474.14	176.27	2.4815e-06	2.2994e-06	198.42	78.708	74.722	31.463	2.622e-06	31.587	0.00022756	0.00017963	5.2697e-05	510.83	2.1523e-06	3.1235e-06	460.72	173.11	2.2116e-06	1.8794e-06	195.84	77.576	74.024	31.338	2.1907e-06	31.175	107.602	80.242	86.842	-1.366	112.268	158.391	-2.890	4.549	116.129	141.925	1.309	5.369	8.698	12.834	141.765	8.498	-8191	255	
25767.467	1	1	0	0	0.13691	0.032969	0.013912	0.30991	0.22713	0.28234	0.15657	0.30956	0.061608	0.31514	0.060622	0.27053	0.17542	0.30455	0.10616	0.26141	-2.7146	-2.9583	-2.7958	-3.1417	-2.8792	-2.7562	-3.1021	-2.5792	-2.9354	-2.9167	-2.6125	-3.0896	-3.0062	-2.9479	-3.3312	-2.975	222.273	138.818	313.490	277.574	20.474	108.598	284.736	239.511	-7.981	25.887	29.278	-1.269	244.229	-8.579	335.562	4.695	0.00018218	0.00036014	8.9201e-05	524.41	2.6939e-06	3.751e-06	470.24	176.02	2.954e-06	2.4908e-06	198.91	77.482	74.256	31.515	2.8439e-06	31.286	0.00024957	0.0001793	5.8991e-05	511.09	2.0051e-06	3.6193e-06	459.16	172.87	2.0587e-06	2.001e-06	193.99	76.644	73.528	31.227	2.189e-06	30.878	109.106	79.490	79.784	-1.324	137.083	169.123	-2.990	4.744	145.613	150.529	0.928	5.201	8.278	12.462	143.237	8.384	-8191	255	
25767.564	1	1	0	0	0.22998	0.067486	0.098648	0.065408	0.21414	0.11015	0.13889	0.01742	0.029651	0.05291	0.13491	0.21323	0.15085	0.11041	0.24418	0.0787	-2.7229	-2.9229	-2.7896	-3.1917	-2.9271	-2.7313	-3.1063	-2.7833	-2.9562	-3.1188	-2.7875	-3.1604	-2.8417	-2.8812	-3.2229	-2.8917	30.917	252.540	190.230	296.111	303.459	155.239	21.701	311.667	-0.834	76.037	346.166	-1.523	263.393	115.002	189.768	16.595	0.00021403	0.00035662	7.6814e-05	521.26	2.9423e-06	3.1918e-06	467.94	174.81	2.4012e-06	2.5364e-06	198.56	77.735	74.276	31.514	2.0783e-06	31.473	0.00029102	0.00019089	5.3551e-05	509.13	2.0137e-06	3.1402e-06	456.69	171.98	2.2116e-06	2.0768e-06	194.14	76.693	73.14	31.215	2.2809e-06	31.001	107.056	65.693	85.083	-1.454	130.463	158.133	-3.030	4.700	135.762	131.281	1.358	5.746	8.741	12.611	160.831	8.429	-8191	255	
25767.684	1	1	0	0	0.24443	0.099718	0.32907	0.23679	0.26011	0.12732	0.11703	0.061392	0.029581	0.14454	0.055002	0.043165	0.023293	0.20775	0.013788	0.10425	-2.5438	-3.2208	-2.7188	-3.075	-3.0146	-2.9875	-3.2333	-2.8563	-3.075	-3.1583	-2.9042	-3.15	-3.0396	-2.8208	-3.2708	-3.0271	85.127	182.190	47.821	313.886	22.191	104.165	315.099	289.767	276.458	193.797	36.413	284.580	33.865	3.596	-1.587	309.478	0.00015748	0.00024346	0.00010898	523.66	2.1758e-06	2.8834e-06	470.91	175.23	1.3927e-06	3.558e-06	199.55	78.638	73.925	31.65	2.2147e-06	31.945	0.00027911	0.00018439	5.7879e-05	509.74	2.0453e-06	3.61e-06	457.97	172.16	2.055e-06	2.0835e-06	195.2	77.596	73.636	31.492	2.096e-06	31.432	108.736	76.814	62.645	-1.328	171.190	161.834	-3.063	4.814	117.459	141.009	1.215	5.585	8.820	12.731	127.942	8.601	-8191	255	
25767.779	1	1	0	0	0.17909	0.13873	0.24708	0.28573	0.076399	0.019987	0.28034	0.17134	0.086812	0.1936	0.15664	0.23679	0.060776	0.11328	0.17316	0.22645	-2.4104	-2.9021	-2.8521	-3.1188	-2.8958	-2.8438	-3.0938	-2.8146	-2.7771	-3.0896	-2.6813	-2.775	-3.0271	-2.6771	-3.1625	-2.7687	36.522	271.352	233.280	230.592	100.960	303.253	95.378	174.764	79.471	92.576	304.639	36.904	101.944	285.424	83.099	290.381	0.00018344	0.00031467	7.49e-05	522.8	1.8651e-06	2.0325e-06	470.36	175.86	1.5408e-06	3.0361e-06	199.47	78.717	74.843	31.911	2.3845e-06	31.751	0.00029467	0.00019284	5.7498e-05	511.56	2.0319e-06	3.2853e-06	459.73	172.85	2.1381e-06	2.0695e-06	195.32	77.795	73.829	31.627	2.3207e-06	31.363	110.699	85.057	42.299	-1.248	130.169	114.753	-3.079	4.732	133.765	146.421	1.110	5.288	8.807	12.372	129.732	8.674	-8191	255	
25767.875	1	1	0	0	0.15154	0.38219	0.21196	0.12103	0.20527	0.070337	0.25776	0.36216	0.34481	0.070276	0.095003	0.28487	0.28509	0.25919	0.11762	0.14077	-2.3521	-3.0312	-2.8875	-2.9604	-3.0521	-3.0417	-3.0354	-2.8583	-2.9542	-3.3083	-2.9333	-3.1104	-3.1625	-2.9292	-3.0229	-3.1208	181.906	99.216	309.135	288.849	-2.350	183.994	310.918	265.024	333.125	135.227	266.620	322.589	231.738	269.717	138.015	0.090	0.0001922	0.00027711	5.6559e-05	521.72	3.3631e-06	1.2823e-06	466.82	175.22	2.027e-06	1.9495e-06	197.98	77.894	74.619	31.688	2.3373e-06	31.577	0.00027973	0.00018797	5.4465e-05	508.52	2.1443e-06	3.3976e-06	456.18	172.11	2.2519e-06	1.9473e-06	193.72	77.375	73.745	31.417	2.3135e-06	31.191	107.441	79.195	105.483	-0.940	123.818	161.388	-2.948	4.576	131.009	128.526	1.027	5.588	8.831	12.517	146.811	8.354	-8191	255	
25767.971	1	1	0	0	0.14563	0.14053	0.067278	0.066021	0.16264	0.098447	0.31217	0.30793	0.1709	0.21231	0.15664	0.21988	0.24744	0.1354	0.17927	0.23639	-2.3917	-3.0229	-2.8479	-2.9146	-3.0938	-2.6646	-3.225	-2.975	-2.8125	-3.0625	-2.8604	-2.7917	-3.1271	-2.7917	-3.0021	-2.8771	118.534	150.715	297.847	254.922	313.822	7.341	281.280	309.573	73.131	302.599	305.594	163.949	132.573	251.199	246.290	250.653	0.00018773	0.00027853	7.3235e-05	521.49	1.4407e-06	3.4493e-06	468.23	176.23	2.7145e-06	3.3748e-06	196.67	78.314	73.81	31.402	2.3611e-06	31.592	0.0003034	0.00020513	5.1021e-05	508.79	2.0833e-06	2.3431e-06	458.15	172.57	2.2995e-06	2.0719e-06	193.75	77.245	73.249	31.265	2.1055e-06	31.172	110.092	76.868	64.766	-1.097	148.446	132.543	-2.479	4.509	136.097	136.924	1.450	4.721	8.674	12.973	154.866	8.509	-8191	255	
#DATA ENDS
