BOXY.EXE: ISS Imagent and Oximeter Data Acquisition Program Version 0.80
Ascii Record File

#ACQ INFORMATION
2  Detector Channels 
16  External MUX Channels 
1  Auxiliary Channels 
5000  Waveform (CCF) Frequency (Hz)
1  Waveforms Skipped 
30  Waveforms Averaged 
1  Cycles Averaged 
16  Acquisitions per Waveform 
10.0806  Updata Rate (Hz) 

#FILE INFORMATION
TRUE -- External MUX Channel results are PARSED.
FALSE -- AC DC and Phase are NOT grouped.
TRUE -- Companion Program Settings File CREATED.
FALSE -- AC data not excluded
FALSE -- DC data not excluded
FALSE -- Phase data not excluded
FALSE -- Auxillary Chn. data not excluded
Tab delimiters

#CALIBRATION STATE
TRUE -- Waveform Calibration Values APPLIED.


#AUX CALIBRATION VALUES
Val Type	aux-1	

Term	1.0000e+00	
Factor	0.0000e+00	


#WF CALIBRATION VALUES
A = Detector Channel
Val Type	A-AC1	A-AC2	A-AC3	A-AC4	A-AC5	A-AC6	A-AC7	A-AC8	A-AC9	A-AC10	A-AC11	A-AC12	A-AC13	A-AC14	A-AC15	A-AC16	A-DC1	A-DC2	A-DC3	A-DC4	A-DC5	A-DC6	A-DC7	A-DC8	A-DC9	A-DC10	A-DC11	A-DC12	A-DC13	A-DC14	A-DC15	A-DC16	A-Ph1	A-Ph2	A-Ph3	A-Ph4	A-Ph5	A-Ph6	A-Ph7	A-Ph8	A-Ph9	A-Ph10	A-Ph11	A-Ph12	A-Ph13	A-Ph14	A-Ph15	A-Ph16	

Term	0.00000e+00	0.00000e+00	0.00000e+00	0.00000e+00	0.00000e+00	0.00000e+00	0.00000e+00	0.00000e+00	0.00000e+00	0.00000e+00	0.00000e+00	0.00000e+00	0.00000e+00	0.00000e+00	0.00000e+00	0.00000e+00	0.00000e+00	0.00000e+00	0.00000e+00	0.00000e+00	0.00000e+00	0.00000e+00	0.00000e+00	0.00000e+00	0.00000e+00	0.00000e+00	0.00000e+00	0.00000e+00	0.00000e+00	0.00000e+00	0.00000e+00	0.00000e+00	0.00000e+00	0.00000e+00	0.00000e+00	0.00000e+00	0.00000e+00	0.00000e+00	0.00000e+00	0.00000e+00	0.00000e+00	0.00000e+00	0.00000e+00	0.00000e+00	0.00000e+00	0.00000e+00	0.00000e+00	0.00000e+00	
Factor	1.00000e+00	1.00000e+00	1.00000e+00	1.00000e+00	1.00000e+00	1.00000e+00	1.00000e+00	1.00000e+00	1.00000e+00	1.00000e+00	1.00000e+00	1.00000e+00	1.00000e+00	1.00000e+00	1.00000e+00	1.00000e+00	1.00000e+00	1.00000e+00	1.00000e+00	1.00000e+00	1.00000e+00	1.00000e+00	1.00000e+00	1.00000e+00	1.00000e+00	1.00000e+00	1.00000e+00	1.00000e+00	1.00000e+00	1.00000e+00	1.00000e+00	1.00000e+00	X	X	X	X	X	X	X	X	X	X	X	X	X	X	X	X	

B = Detector Channel
Val Type	B-AC1	B-AC2	B-AC3	B-AC4	B-AC5	B-AC6	B-AC7	B-AC8	B-AC9	B-AC10	B-AC11	B-AC12	B-AC13	B-AC14	B-AC15	B-AC16	B-DC1	B-DC2	B-DC3	B-DC4	B-DC5	B-DC6	B-DC7	B-DC8	B-DC9	B-DC10	B-DC11	B-DC12	B-DC13	B-DC14	B-DC15	B-DC16	B-Ph1	B-Ph2	B-Ph3	B-Ph4	B-Ph5	B-Ph6	B-Ph7	B-Ph8	B-Ph9	B-Ph10	B-Ph11	B-Ph12	B-Ph13	B-Ph14	B-Ph15	B-Ph16	

Term	0.00000e+00	0.00000e+00	0.00000e+00	0.00000e+00	0.00000e+00	0.00000e+00	0.00000e+00	0.00000e+00	0.00000e+00	0.00000e+00	0.00000e+00	0.00000e+00	0.00000e+00	0.00000e+00	0.00000e+00	0.00000e+00	0.00000e+00	0.00000e+00	0.00000e+00	0.00000e+00	0.00000e+00	0.00000e+00	0.00000e+00	0.00000e+00	0.00000e+00	0.00000e+00	0.00000e+00	0.00000e+00	0.00000e+00	0.00000e+00	0.00000e+00	0.00000e+00	-1.27073e+02	-1.37189e+02	-1.14034e+02	-1.82642e+02	-6.77074e+01	-7.36674e+01	-1.55275e+02	-1.62015e+02	-8.16783e+01	-5.49491e+01	-1.72245e+02	-1.69834e+02	-1.79515e+02	-1.77360e+02	-7.51326e+01	-1.49195e+02	
Factor	1.75894e-05	1.35949e-04	4.03037e-05	1.76583e-01	1.21743e-06	1.73254e-06	1.64385e-01	4.98919e-02	1.01420e-06	1.41505e-06	9.45280e-02	2.88164e-02	2.76675e-02	9.24122e-03	1.14402e-06	1.32298e-02	1.94680e-06	2.10307e-06	5.83844e-07	8.62186e-02	2.28121e-08	2.29967e-08	7.60499e-02	2.45492e-02	2.27457e-08	2.30251e-08	4.47580e-02	1.37852e-02	1.36628e-02	4.53901e-03	2.28964e-08	6.30002e-03	X	X	X	X	X	X	X	X	X	X	X	X	X	X	X	X	



#DISTANCE SETTINGS
A = Detector Channel
A-1	A-2	A-3	A-4	A-5	A-6	A-7	A-8	A-9	A-10	A-11	A-12	A-13	A-14	A-15	A-16	

2.5000e+00	3.0000e+00	2.5000e+00	3.0000e+00	2.0000e+00	3.0000e+00	1.5000e+00	3.0000e+00	3.0000e+00	3.0000e+00	3.0000e+00	3.0000e+00	3.0000e+00	3.0000e+00	1.5000e+00	3.0000e+00	

B = Detector Channel
B-1	B-2	B-3	B-4	B-5	B-6	B-7	B-8	B-9	B-10	B-11	B-12	B-13	B-14	B-15	B-16	

1.0000e+01	1.0000e+01	1.0000e+01	1.4400e+00	1.0000e+01	1.0000e+01	1.5100e+00	1.9400e+00	1.0000e+01	1.0000e+01	1.9900e+00	2.4900e+00	2.4100e+00	2.9000e+00	1.0000e+01	2.9800e+00	




#DATA BEGINS
time	group	step	mark	flag	A-AC1	A-AC2	A-AC3	A-AC4	A-AC5	A-AC6	A-AC7	A-AC8	A-AC9	A-AC10	A-AC11	A-AC12	A-AC13	A-AC14	A-AC15	A-AC16	A-DC1	A-DC2	A-DC3	A-DC4	A-DC5	A-DC6	A-DC7	A-DC8	A-DC9	A-DC10	A-DC11	A-DC12	A-DC13	A-DC14	A-DC15	A-DC16	A-Ph1	A-Ph2	A-Ph3	A-Ph4	A-Ph5	A-Ph6	A-Ph7	A-Ph8	A-Ph9	A-Ph10	A-Ph11	A-Ph12	A-Ph13	A-Ph14	A-Ph15	A-Ph16	B-AC1	B-AC2	B-AC3	B-AC4	B-AC5	B-AC6	B-AC7	B-AC8	B-AC9	B-AC10	B-AC11	B-AC12	B-AC13	B-AC14	B-AC15	B-AC16	B-DC1	B-DC2	B-DC3	B-DC4	B-DC5	B-DC6	B-DC7	B-DC8	B-DC9	B-DC10	B-DC11	B-DC12	B-DC13	B-DC14	B-DC15	B-DC16	B-Ph1	B-Ph2	B-Ph3	B-Ph4	B-Ph5	B-Ph6	B-Ph7	B-Ph8	B-Ph9	B-Ph10	B-Ph11	B-Ph12	B-Ph13	B-Ph14	B-Ph15	B-Ph16	aux-1	digaux	

32059.779	1	1	0	768	0.14475	0.15756	0.069687	0.14063	0.16627	0.41148	0.10007	0.19599	0.14244	0.14133	0.18685	0.14211	0.16442	0.21096	0.1241	0.09255	-2.5833	-3.2229	-3.0062	-3.2417	-3.5	-3.025	-3.2938	-3.3583	-2.9021	-3.2938	-3.2313	-3.225	-3.5875	-3.0667	-3.0729	-3.3396	458.905	447.792	272.539	400.978	489.263	196.849	463.674	488.325	264.624	212.133	435.946	165.690	247.193	487.496	326.090	282.369	0.00055648	0.00056247	0.00010841	1374.3	1.3826e-06	9.1205e-06	1371.1	371.39	4.7653e-06	3.7374e-06	422.85	141.47	122.49	42.216	3.7767e-06	52.004	0.00055915	0.00056374	0.00015634	1391.5	6.1241e-06	6.1723e-06	1391.7	378.12	6.1121e-06	6.1563e-06	430.91	144.15	125.39	43.329	6.1689e-06	53.604	194.684	210.937	200.789	161.618	288.526	316.387	161.417	166.272	257.196	333.119	165.793	169.979	170.587	175.270	289.264	174.638	-8191	255	
32059.877	1	1	0	0	0.17329	0.14557	0.13095	0.22201	0.06359	0.32943	0.10239	0.15155	0.14771	0.1743	0.15559	0.19862	0.30725	0.015076	0.17442	0.48393	-2.3688	-3.2542	-3.1479	-3.2833	-3.3646	-2.9104	-3.2771	-3.2604	-3.0042	-3.4625	-3.1625	-3.0396	-3.55	-3.2021	-3.25	-3.1625	357.891	172.514	195.444	481.969	377.233	399.423	472.798	269.481	287.133	451.423	286.578	507.126	383.711	476.131	262.623	444.280	0.00049335	0.00018059	4.9722e-05	1379.7	3.9567e-06	7.8789e-06	1371	372.6	5.4926e-06	4.4083e-06	423.1	140.66	122.56	42.361	4.5894e-06	52.042	0.00055671	0.00056223	0.00015607	1396.3	6.0678e-06	6.0839e-06	1393.3	378.88	6.1462e-06	6.1652e-06	431.08	144.18	125.48	43.444	6.15e-06	53.66	191.688	245.824	214.622	161.682	280.020	317.780	161.229	166.260	267.650	318.331	165.959	169.716	170.400	175.220	308.652	174.528	-8191	255	
32059.973	1	1	0	0	0.24661	0.0292	0.29081	0.13577	0.19427	0.10896	0.21501	0.31847	0.08276	0.13904	0.086788	0.0044699	0.25842	0.18479	0.1824	0.21174	-2.5708	-3.35	-3.0542	-3.3833	-3.2958	-3.1083	-3.4271	-3.4292	-3.1312	-3.2812	-3.2229	-3.1479	-3.5062	-3.0563	-3.1583	-3.4125	316.417	366.118	416.026	355.969	283.925	473.265	426.445	346.461	238.112	224.246	460.266	348.656	448.197	505.837	393.559	392.719	0.00049822	0.00042182	0.00018622	1378.3	3.4155e-06	6.5861e-06	1373.9	372.12	4.5164e-06	4.1485e-06	421.9	141.57	123.16	42.338	6.5254e-06	52.304	0.0005632	0.00056493	0.00015598	1396.9	6.1308e-06	6.1435e-06	1396.7	379.01	6.126e-06	6.2164e-06	430.81	144.67	125.75	43.473	6.116e-06	53.701	191.835	263.641	298.533	161.868	336.751	253.401	161.539	165.905	282.809	342.091	165.571	169.827	170.307	175.278	303.907	174.434	-8191	255	
32060.066	1	1	0	0	0.08027	0.16814	0.096038	0.17019	0.27333	0.16564	0.30767	0.21444	0.25911	0.042644	0.023116	0.19316	0.30018	0.0919	0.12367	0.16931	-2.5062	-3.0625	-3.1354	-2.9875	-3.2354	-2.9958	-3.1604	-3.5938	-2.7229	-3.1375	-3.3375	-3.0687	-3.5	-3.2229	-3.1875	-3.4604	223.230	266.524	267.984	454.150	341.028	152.611	479.398	458.066	433.893	382.102	263.265	414.946	427.863	418.830	463.474	389.467	0.00048503	0.00035653	0.00017916	1379.4	3.8367e-06	6.1076e-06	1381.2	372.4	5.2662e-06	2.4984e-06	425.66	140.99	122.62	42.404	4.7803e-06	51.83	0.00056407	0.00055978	0.00015688	1401.9	6.1346e-06	6.1227e-06	1399.9	379.18	6.1215e-06	6.1165e-06	432.6	144.35	125.59	43.464	6.0981e-06	53.616	192.461	221.327	210.923	161.685	234.024	261.176	161.499	166.272	280.082	341.905	165.692	170.096	170.388	175.164	263.804	174.350	-8191	255	
32060.162	1	1	0	0	0.21425	0.25074	0.092636	0.32697	0.089636	0.16374	0.35332	0.047777	0.20453	0.15788	0.11908	0.10684	0.30485	0.1746	0.19841	0.17483	-2.7167	-3.1229	-3.1354	-3.1083	-3.3375	-3.0917	-3.2062	-3.4313	-3.0854	-3.1021	-3.3812	-3.0438	-3.4229	-3.2646	-3.2313	-3.425	481.477	220.784	383.168	177.281	188.515	405.302	459.450	406.807	251.524	340.780	418.519	466.927	423.792	395.143	374.408	391.857	0.00050693	0.0001758	0.00011576	1381.1	3.7643e-06	8.4321e-06	1377.3	371.55	5.2126e-06	4.5553e-06	423.58	140.94	122.47	42.182	5.394e-06	52.214	0.00056389	0.00055819	0.00015485	1399.7	6.1625e-06	6.1655e-06	1395.5	378.56	6.1668e-06	6.1466e-06	432	144.29	125.67	43.415	6.0679e-06	53.684	194.877	480.714	256.790	161.879	386.300	316.282	161.580	165.979	293.012	266.618	165.648	169.755	170.403	175.137	317.582	174.455	-8191	255	
32060.262	1	1	0	0	0.14549	0.32326	0.18899	0.2895	0.0018977	0.098691	0.30052	0.13944	0.19097	0.058502	0.068806	0.39221	0.12046	0.283	0.071015	0.12324	-2.6167	-3.0062	-3.325	-3.2188	-3.1417	-2.9979	-3.2021	-3.625	-3.1937	-3.2313	-3.3688	-3.1729	-3.1312	-3.4333	-2.9792	-3.5	456.091	168.846	361.443	473.765	180.000	290.692	473.036	473.775	369.220	464.530	466.270	435.281	346.667	159.487	239.955	383.570	0.00054003	0.00012254	6.802e-05	1380.9	4.9656e-06	7.2459e-06	1375.6	372.45	5.8131e-06	2.0281e-06	425.35	141.94	122.55	42.346	4.3843e-06	51.941	0.00056234	0.00055855	0.000156	1400.2	6.1565e-06	6.1275e-06	1395.8	379.32	6.1251e-06	6.099e-06	431.47	144.7	125.64	43.42	6.0515e-06	53.703	196.231	275.549	178.956	161.874	152.125	251.993	161.548	166.114	284.665	340.965	165.634	170.000	170.353	175.289	281.141	174.253	-8191	255	
32060.381	1	1	0	0	0.14758	0.095385	0.17823	0.10611	0.083213	0.29223	0.15813	0.22693	0.094896	0.11027	0.40214	0.13022	0.26007	0.10404	0.32711	0.392	-2.8542	-3.0625	-3.2917	-3.3021	-3.1562	-3.425	-3.2479	-3.3812	-2.9083	-2.9542	-3.4854	-3.1292	-3.1729	-3.4479	-2.975	-3.3854	164.931	315.255	346.439	496.486	295.641	180.322	418.089	448.014	411.979	284.522	399.240	467.150	431.214	468.383	496.738	420.150	0.00057611	0.00062006	0.00015121	1381.1	2.3797e-06	4.3856e-06	1374.8	372.4	1.862e-06	1.8766e-06	424.16	140.99	122.82	42.234	3.9245e-06	52.074	0.0005616	0.00055924	0.00015633	1400.7	6.1512e-06	6.1021e-06	1396.5	378.27	6.1457e-06	6.0901e-06	432.11	144.32	125.37	43.45	6.1068e-06	53.628	190.329	219.077	252.858	161.674	298.823	304.269	161.383	166.416	218.646	367.564	165.857	169.779	170.343	175.094	321.080	174.660	-8191	255	
32060.477	1	1	0	0	0.09574	0.23973	0.04303	0.2854	0.0869	0.30118	0.36639	0.3612	0.086436	0.094115	0.1612	0.24043	0.16979	0.29419	0.18439	0.19754	-2.6417	-3.0021	-3.2521	-3.2042	-3.1813	-3.4313	-3.1688	-3.3812	-2.9729	-2.9542	-3.2979	-3.3479	-3.2771	-3.4417	-2.9375	-3.2146	212.587	403.229	198.222	489.245	448.978	348.023	419.197	480.764	203.778	491.565	472.876	389.619	414.597	441.679	370.237	432.449	0.00059306	0.00021448	7.7574e-05	1381.1	4.2571e-06	7.9159e-06	1374.7	373.26	5.0331e-06	2.0205e-06	423.31	140.73	123.5	42.122	5.0078e-06	52.092	0.00056257	0.00055912	0.00015561	1400	6.1109e-06	6.1002e-06	1397.1	378.5	6.1225e-06	6.1504e-06	431.67	144.03	125.67	43.395	6.1693e-06	53.615	186.387	255.244	248.557	161.821	312.095	315.091	161.568	166.264	235.557	354.659	165.930	170.124	170.246	175.210	337.698	174.582	-8191	255	
32060.572	1	1	0	0	0.05998	0.1721	0.17731	0.25545	0.15632	0.19167	0.2161	0.19793	0.12836	0.28342	0.16138	0.11993	0.22429	0.098438	0.24802	0.12406	-2.9062	-2.8937	-3.3521	-3.4333	-3.0042	-3.2542	-3.2917	-3.5187	-3.175	-3.0583	-3.2083	-3.1854	-3.2292	-3.375	-3.1583	-3.3333	449.780	429.127	409.332	405.932	399.916	385.860	417.962	170.765	249.157	484.144	170.994	193.796	492.508	499.014	220.841	288.190	0.00057978	0.00073328	0.00017732	1377.4	4.5469e-06	6.3874e-06	1373.9	372.11	5.2486e-06	7.4491e-06	423.81	140.82	122.59	42.292	4.6075e-06	52.054	0.00056328	0.00056225	0.00015608	1397.3	6.1184e-06	6.1217e-06	1396.6	378.53	6.1603e-06	6.1281e-06	431.07	143.89	125.42	43.38	6.1005e-06	53.503	190.641	169.378	288.170	161.947	289.194	314.618	161.576	166.138	285.432	342.534	165.807	169.550	170.447	175.412	288.168	174.506	-8191	255	
32060.668	1	1	0	0	0.058611	0.025933	0.18749	0.23832	0.15805	0.19625	0.21669	0.10576	0.14592	0.060924	0.24693	0.14666	0.25012	0.15456	0.090288	0.16385	-2.7625	-2.9021	-3.2979	-3.3187	-2.9583	-3.2333	-3.2042	-3.1521	-3.4042	-3.1104	-3.3229	-3.3187	-3.0146	-3.5187	-3.2208	-3.1292	401.609	187.073	295.260	489.986	312.038	301.028	500.510	480.593	192.301	293.140	467.438	181.474	166.201	427.527	292.238	211.051	0.00052411	0.00053213	6.8787e-05	1382.5	1.9528e-06	5.0868e-06	1371.8	371.96	4.9381e-06	7.0811e-06	424.15	140.66	122.3	42.298	4.9901e-06	52.228	0.00056623	0.00056102	0.0001558	1398.3	6.1206e-06	6.1267e-06	1396.4	378.96	6.1126e-06	6.1006e-06	431.44	144.07	125.34	43.437	6.1511e-06	53.732	191.084	216.618	244.193	161.852	193.782	270.280	161.453	166.302	255.196	324.472	165.914	169.797	170.231	175.193	305.877	174.683	-8191	255	
32060.764	1	1	0	0	0.11056	0.24376	0.14235	0.23834	0.11833	0.16157	0.089059	0.1006	0.11101	0.24018	0.15006	0.12712	0.20137	0.28915	0.16663	0.52868	-2.9646	-2.875	-3.2604	-3.3271	-3.1167	-3.1771	-3.3646	-3.3438	-3.2167	-2.9354	-3.1771	-3.2271	-3.0333	-3.3312	-2.9729	-3.0708	355.125	502.239	334.067	498.217	305.330	482.596	453.076	380.941	299.768	388.842	227.365	263.358	443.182	503.378	293.301	450.890	0.00050179	0.00072258	8.093e-05	1379.2	4.9463e-06	1.1593e-05	1381.9	371.32	3.9723e-06	3.2033e-06	423.12	141.05	123.06	42.207	7.2618e-06	52.297	0.00055959	0.0005657	0.0001557	1397.8	6.1564e-06	6.1852e-06	1398.5	378.41	6.1345e-06	6.1613e-06	431.34	144.11	125.54	43.37	6.162e-06	53.659	195.101	201.440	257.992	161.780	291.889	275.077	161.426	166.189	242.270	331.551	165.786	169.927	170.212	175.276	258.950	174.227	-8191	255	
32060.859	1	1	0	0	0.18948	0.2038	0.26117	0.30068	0.12562	0.11159	0.18852	0.14834	0.20288	0.1983	0.074257	0.13178	0.19924	0.046261	0.1493	0.13679	-2.9167	-2.8792	-3.0292	-3.4167	-3.0521	-3.3417	-3.2833	-3.2521	-3.4625	-3.0146	-3.3667	-3.4437	-3.0771	-3.4354	-2.9188	-3.1458	334.877	216.756	452.839	489.858	313.908	239.970	431.589	494.113	181.972	283.330	310.449	468.330	162.348	407.084	335.022	183.401	0.00054159	0.0003837	9.0935e-05	1379.3	4.4387e-06	3.1997e-06	1375	371.45	7.5241e-06	4.7093e-06	423.35	140.55	123.09	42.179	4.3631e-06	52.049	0.00056311	0.00056577	0.00015603	1396.9	6.1132e-06	6.1184e-06	1395	378.5	6.0717e-06	6.1621e-06	431.64	143.96	125.38	43.342	6.1335e-06	53.604	193.233	243.377	241.678	161.713	263.290	311.429	161.504	166.229	252.596	327.323	165.863	169.930	170.318	175.146	295.688	174.266	-8191	255	
32060.980	1	1	0	0	0.20692	0.11759	0.19827	0.25911	0.16395	0.058386	0.21312	0.15861	0.19	0.19738	0.23726	0.15173	0.11251	0.19313	0.090185	0.1178	-2.9521	-2.7917	-3.1896	-3.5333	-2.9938	-3.2625	-3.3021	-3.0938	-3.325	-3.1875	-3.375	-3.5187	-3.2625	-3.4375	-2.975	-2.9813	368.171	500.468	176.285	444.861	428.111	296.092	471.937	477.500	393.881	326.936	175.188	478.542	451.747	460.420	357.123	377.101	0.0005299	0.00049586	0.00015315	1376.5	2.0716e-06	9.3657e-06	1368.8	371.09	3.5151e-06	5.7397e-06	423.89	140.73	123.28	42.188	5.311e-06	51.888	0.00056494	0.0005657	0.00015712	1394.1	6.1028e-06	6.1269e-06	1393.5	378.03	6.1187e-06	6.1549e-06	432.07	144.08	125.51	43.443	6.1521e-06	53.569	193.191	234.466	273.271	161.847	285.534	302.253	161.402	166.259	278.479	347.164	165.783	169.872	170.627	175.127	331.966	174.334	-8191	255	
32061.076	1	1	0	0	0.16419	0.098738	0.14992	0.32677	0.095856	0.044295	0.17101	0.28792	0.099579	0.21042	0.17049	0.31072	0.29472	0.1857	0.12307	0.18803	-2.7479	-2.9146	-3.0625	-3.5625	-2.8542	-3.1896	-3.3521	-3.075	-3.2479	-3.1083	-3.1146	-3.4938	-3.0104	-3.2396	-3.1354	-3.0625	210.262	434.493	359.559	436.730	371.948	307.825	402.241	446.607	164.779	265.532	389.949	434.591	503.586	386.443	277.152	436.877	0.0005483	0.00062374	0.00018343	1376.4	5.2346e-06	3.5805e-06	1372.7	372.27	7.3878e-06	8.5394e-07	423.05	141.06	122.55	42.136	4.7475e-06	52.087	0.00056452	0.0005636	0.00015656	1396.7	6.1946e-06	6.1307e-06	1393.5	378.69	6.1026e-06	6.1609e-06	431.13	144.21	125.34	43.428	6.1519e-06	53.647	187.649	221.930	230.934	161.731	268.706	264.094	161.608	166.129	269.559	171.799	165.677	170.065	170.443	175.278	329.495	174.202	-8191	255	
32061.172	1	1	0	0	0.32802	0.063325	0.14728	0.47697	0.13377	0.15597	0.2488	0.26379	0.12054	0.1434	0.063489	0.22784	0.11437	0.32085	0.17056	0.014775	-2.8292	-2.9875	-3.0542	-3.7167	-2.9271	-3.2583	-3.4917	-3.1167	-3.4146	-3.1417	-3.0125	-3.3021	-2.9375	-3.2458	-3.1292	-2.9604	163.229	331.336	245.280	495.528	430.139	454.399	440.697	194.193	412.080	326.155	201.093	468.393	416.006	468.267	271.422	441.923	0.00052183	0.00066026	0.00018446	1379.9	4.6215e-06	1.374e-05	1374.8	371.92	2.4749e-06	7.238e-06	423	141.22	122.7	42.212	3.331e-06	51.808	0.00056727	0.00056469	0.00015651	1396.7	6.1682e-06	6.1351e-06	1396.5	378.34	6.1118e-06	6.178e-06	431.24	144.23	125.48	43.352	6.1681e-06	53.534	190.452	231.256	245.301	161.875	297.768	259.378	161.297	166.082	235.996	315.815	165.797	169.787	170.438	175.330	225.929	174.631	-8191	255	
32061.268	1	1	0	0	0.25527	0.21351	0.13386	0.03705	0.046076	0.098148	0.16773	0.16438	0.11104	0.31733	0.14398	0.14963	0.33519	0.14087	0.13562	0.030757	-2.8063	-3.2458	-2.7396	-3.5563	-3.0708	-3.225	-3.45	-3.1813	-3.0771	-3.2521	-3.1271	-3.5208	-3.1833	-3.1729	-3.4917	-3.1729	261.221	376.119	441.168	241.787	325.276	377.253	478.293	450.932	452.341	414.987	432.926	366.349	441.525	488.075	308.623	192.646	0.00058007	0.0004976	0.00015774	1374.3	4.4773e-06	9.4966e-06	1370.8	371.42	5.3355e-06	2.8604e-06	424.68	140.88	121.86	42.303	6.7382e-06	52.011	0.00056205	0.00055731	0.00015443	1393.9	6.1446e-06	6.1218e-06	1391.8	378.35	6.1995e-06	6.1377e-06	431.77	144.22	125.42	43.395	6.1411e-06	53.541	191.089	251.375	247.296	161.730	302.899	278.538	161.560	166.126	265.729	313.792	165.757	170.070	170.485	175.342	264.267	174.337	-8191	255	
32061.363	1	1	0	0	0.11238	0.16094	0.19489	0.14063	0.14588	0.10012	0.26367	0.25208	0.11009	0.158	0.17002	0.20721	0.27484	0.17268	0.083953	0.14339	-2.8958	-3.0208	-3.1292	-3.4146	-3.2438	-3.3083	-3.5979	-3.2188	-3.2667	-3.25	-3.0875	-3.3937	-3.0875	-3.0333	-3.1708	-3.3458	248.667	318.583	315.189	398.093	320.466	235.189	494.706	486.601	421.701	179.539	384.297	490.416	481.936	488.061	468.997	462.243	0.00058463	0.00029315	0.00015403	1377.9	3.4574e-06	4.6921e-06	1370.9	371.61	4.1258e-06	3.2261e-06	424.39	140.94	122.49	42.35	6.7661e-06	51.994	0.00056179	0.00056194	0.00015669	1395.6	6.1923e-06	6.0972e-06	1392	378.64	6.1212e-06	6.131e-06	431.53	144.1	125.45	43.382	6.1203e-06	53.603	190.450	218.156	259.764	161.885	278.903	332.361	161.385	166.304	271.409	285.433	165.617	169.938	170.364	175.372	290.454	174.746	-8191	255	
32061.461	1	1	0	0	0.014787	0.13408	0.081154	0.2514	0.095592	0.17473	0.24137	0.15828	0.12165	0.16931	0.28233	0.14319	0.32701	0.15626	0.096515	0.50976	-2.7354	-3.2333	-2.8729	-3.4583	-3.2229	-3.0833	-3.5062	-3.3292	-3.2521	-3.2875	-2.9479	-3.4333	-3.2354	-2.9313	-3.3208	-3.0812	424.041	231.623	238.990	465.193	286.213	287.868	398.447	154.390	261.060	298.917	397.089	201.504	499.445	452.180	376.767	431.788	0.0005369	0.00073624	0.00014671	1377.2	5.9997e-06	5.9928e-06	1372.6	371.31	3.8159e-06	9.2419e-06	423.35	141.28	122.92	42.088	1.4889e-06	52.105	0.00056143	0.0005549	0.00015569	1396.5	6.1842e-06	6.1136e-06	1392.9	378.51	6.1592e-06	6.1351e-06	430.87	144.27	125.5	43.367	6.131e-06	53.534	198.529	264.829	248.563	161.874	268.119	301.821	161.389	166.292	241.763	289.576	165.781	169.788	170.194	175.082	224.560	174.441	-8191	255	
32061.557	1	1	0	0	0.084483	0.27823	0.11758	0.25647	0.21127	0.06684	0.49263	0.15695	0.021318	0.029233	0.30795	0.14207	0.066721	0.13337	0.20646	0.31037	-2.7167	-3.1771	-2.9062	-3.4396	-3.2104	-2.8688	-3.4521	-3.2021	-3.0292	-3.3333	-3.2104	-3.4146	-3.4479	-3.1188	-3.2229	-3.2167	226.906	199.404	380.653	420.315	398.946	387.529	471.905	156.592	393.274	186.320	383.361	448.688	198.701	360.543	353.956	421.539	0.00060012	0.0001766	0.00012648	1378	4.4012e-06	3.0057e-06	1372	371.7	4.6381e-06	4.2042e-06	423.49	141.21	123.15	42.215	5.5536e-06	52.192	0.00056332	0.00055721	0.00015669	1397.1	6.1351e-06	6.1242e-06	1393	378.24	6.1062e-06	6.0822e-06	431.16	144.06	125.5	43.349	6.1775e-06	53.556	193.471	353.336	289.596	161.862	305.613	216.407	161.476	166.350	282.363	234.772	165.469	170.048	170.488	175.343	238.719	174.377	-8191	255	
32061.652	1	1	0	0	0.14639	0.19905	0.13998	0.28615	0.17897	0.1235	0.12744	0.20051	0.071184	0.28315	0.26417	0.1965	0.086929	0.14038	0.061482	0.24969	-2.6375	-3.2396	-2.9521	-3.2021	-3.275	-3.0771	-3.55	-3.1979	-2.9313	-3.3312	-3.2313	-3.2812	-3.3875	-2.9979	-3.2854	-3.2188	261.189	195.517	288.192	483.520	167.603	380.571	475.753	498.054	170.807	302.958	499.324	422.961	435.523	183.767	293.875	462.986	0.00050965	0.00058658	0.00015587	1375.2	3.8502e-06	2.9803e-06	1372.6	371.45	4.0991e-06	4.8704e-06	422.18	140.62	122.36	42.159	3.6868e-06	51.806	0.0005595	0.00056139	0.00015492	1395.6	6.1118e-06	6.1119e-06	1392.8	377.7	6.0859e-06	6.1176e-06	430.61	143.99	125.28	43.369	6.144e-06	53.429	194.051	250.756	266.014	161.729	265.791	387.664	161.480	166.268	296.841	349.148	165.690	170.040	170.224	175.350	259.576	174.444	-8191	255	
32061.748	1	1	0	0	0.31843	0.084275	0.084799	0.24574	0.20974	0.076975	0.35687	0.45919	0.024872	0.037229	0.34923	0.074195	0.25853	0.071812	0.065215	0.2407	-2.5125	-3.1188	-3.1292	-3.1854	-3.2583	-2.9833	-3.3667	-3.425	-2.9813	-3.3042	-3.2271	-3.3354	-3.2583	-3.0458	-3.3167	-3.3417	191.091	392.104	310.259	457.787	505.602	159.215	424.297	470.003	182.921	277.269	404.811	260.654	255.929	148.383	281.032	477.461	0.00055977	0.00058677	0.00010371	1376.8	4.0396e-06	8.0585e-06	1376	371.84	5.8346e-06	5.1719e-06	423.34	141.19	122.52	42.277	5.5294e-06	52.125	0.00055966	0.00056103	0.00015488	1394.5	6.1106e-06	6.1521e-06	1395	378.3	6.0776e-06	6.1323e-06	430.78	143.92	125.22	43.368	6.1172e-06	53.604	192.321	239.735	272.838	161.833	296.107	323.344	161.403	166.228	271.166	300.023	165.762	169.789	170.355	175.277	274.471	174.320	-8191	255	
32061.869	1	1	0	0	0.30259	0.16439	0.15899	0.13514	0.18977	0.064078	0.23756	0.23201	0.15395	0.095099	0.23376	0.1838	0.094074	0.29453	0.044881	0.15972	-2.4792	-3.2417	-2.9938	-3.1167	-3.3167	-3.1583	-3.4688	-3.2667	-2.8979	-3.3417	-3.3792	-3.1875	-3.4604	-3.1667	-3.1542	-3.4188	488.539	419.116	312.836	436.369	394.114	490.691	417.119	453.559	372.035	491.123	416.148	429.246	183.899	473.024	280.920	464.878	0.00055227	0.00077302	6.3944e-05	1376.6	5.0771e-06	5.0566e-06	1373.7	371.22	4.5098e-06	8.2242e-06	422.84	141.03	122.73	42.315	1.9573e-06	51.989	0.00055742	0.00054873	0.00015578	1393.5	6.0831e-06	6.1035e-06	1393	378.02	6.0637e-06	6.0864e-06	430.62	143.99	125.39	43.386	6.0796e-06	53.53	197.092	210.033	313.759	161.715	299.712	240.617	161.519	166.337	294.503	326.314	165.821	169.961	170.462	175.343	161.664	174.433	-8191	255	
32061.941	1	1	0	0	0.22152	0.091644	0.024412	0.073906	0.14607	0.30173	0.11792	0.23659	0.088434	0.14639	0.20189	0.18151	0.14481	0.24173	0.090532	0.089546	-2.6562	-3.2833	-3.1167	-3.2583	-3.3	-3.0583	-3.425	-3.4896	-2.8292	-3.4458	-3.2313	-3.0542	-3.4292	-3.2188	-3.1958	-3.3146	337.298	307.322	500.284	328.420	250.786	338.486	451.794	466.417	355.048	177.347	150.779	402.400	446.526	193.980	506.666	213.080	0.00051534	0.00074604	0.00024519	1374.6	2.553e-06	4.3797e-06	1368.1	370.19	4.5862e-06	1.1192e-05	422.52	141.61	122.42	42.203	3.5281e-06	52.052	0.00055886	0.00055606	0.0001571	1392.6	6.1605e-06	6.1296e-06	1390	377.34	6.0853e-06	6.1286e-06	430.65	144.12	125.39	43.324	6.0854e-06	53.523	201.024	266.510	262.447	161.844	336.503	258.371	161.586	166.418	296.207	348.182	165.902	169.745	170.637	175.124	313.005	174.343	-8191	255	
32062.061	1	1	0	0	0.15051	0.1001	0.095833	0.50383	0.055823	0.21437	0.090953	0.26002	0.099404	0.19195	0.22098	0.028344	0.27357	0.41585	0.13845	0.16621	-2.3167	-3.1063	-3.1792	-3.1208	-3.2083	-3.1813	-3.3646	-3.6562	-3.0542	-3.4146	-3.3604	-2.9938	-3.325	-3.1521	-3.2042	-3.425	168.829	444.688	387.594	152.779	288.507	477.610	439.014	486.291	160.922	264.638	497.839	359.513	488.423	466.873	430.207	479.642	0.00057359	0.00015365	8.9311e-05	1377.9	7.7228e-06	8.0352e-06	1371.5	370.93	7.158e-06	3.1238e-06	422.54	140.71	122.62	42.125	7.6768e-06	52.048	0.00056078	0.00055641	0.0001554	1392.9	6.1517e-06	6.1198e-06	1392.8	377.73	6.0092e-06	6.0805e-06	430.83	144.04	125.38	43.31	6.1094e-06	53.512	183.632	305.281	268.374	161.590	281.258	315.987	161.419	166.240	261.263	365.280	165.876	169.897	170.353	175.305	269.669	174.401	-8191	255	
32062.156	1	1	0	0	0.31238	0.092379	0.12161	0.20699	0.21248	0.072979	0.37855	0.12698	0.20354	0.10238	0.13804	0.22292	0.26353	0.14327	0.12164	0.20408	-2.6417	-3.0396	-3.0896	-3.2208	-3.3396	-3.2646	-3.3854	-3.4292	-3.1271	-3.2521	-3.4188	-3.1396	-3.5333	-3.1854	-3.1063	-3.4542	369.129	348.864	441.730	391.970	232.345	195.742	433.954	460.932	415.023	260.245	428.895	304.131	191.963	459.829	361.996	270.024	0.00054653	0.00060054	0.00019639	1377.6	5.5253e-06	7.2741e-06	1370.3	371.05	4.2647e-06	4.8364e-06	422	140.9	123.01	42.192	4.1189e-06	51.886	0.0005637	0.00055809	0.00015422	1393.8	6.106e-06	6.1088e-06	1392.1	377.75	6.0972e-06	6.0753e-06	430.28	143.87	125.45	43.291	6.0836e-06	53.483	189.273	168.647	266.277	161.916	290.519	339.583	161.535	166.238	265.373	296.943	165.925	170.056	170.250	175.308	250.837	174.379	-8191	255	
32062.252	1	1	0	0	0.33992	0.10387	0.00354	0.18968	0.10308	0.23901	0.21686	0.26901	0.10419	0.0026249	0.25423	0.10368	0.27935	0.39799	0.21907	0.23904	-2.7083	-3.2188	-3.4375	-3.1688	-3.3187	-3.2229	-3.2062	-3.5271	-3.1854	-3.0938	-3.275	-3.0812	-3.2458	-3.3021	-3.0687	-3.3979	312.849	354.189	271.612	467.038	206.705	446.225	446.102	483.292	377.287	182.128	405.369	370.058	190.936	164.471	369.282	148.719	0.00054428	0.00064714	0.00027455	1373.4	6.1271e-06	6.6377e-06	1370.5	370.48	2.5891e-06	5.4013e-06	421.67	140.79	122.89	42.189	2.7516e-06	52.039	0.00055801	0.00055779	0.00015514	1393.6	6.1304e-06	6.114e-06	1390.7	377.69	6.1677e-06	6.1279e-06	430.46	143.9	125.41	43.309	6.1371e-06	53.551	195.795	260.021	245.001	161.869	308.682	248.688	161.511	166.269	293.799	346.397	165.728	169.914	170.352	175.416	285.468	174.476	-8191	255	
32062.348	1	1	0	0	0.085259	0.042361	0.15852	0.23614	0.098456	0.21142	0.27759	0.061673	0.14343	0.24344	0.27199	0.3452	0.20391	0.38344	0.24158	0.38548	-2.6312	-2.9917	-3.2938	-3.2042	-3.2458	-3.175	-3.0833	-3.3083	-2.9958	-3.0687	-3.5812	-3.1688	-3.2708	-3.0979	-2.6854	-3.2104	236.349	410.857	193.856	502.016	250.747	268.209	486.160	498.131	486.554	488.241	463.108	494.809	467.465	169.506	354.773	483.920	0.00051946	0.00033559	0.00010461	1378.8	2.7009e-06	3.8699e-06	1368.4	371.72	3.3398e-06	3.9866e-06	422.18	140.5	122.9	42.18	4.4476e-06	52.147	0.00056395	0.0005626	0.00015649	1393.4	6.1974e-06	6.1288e-06	1391.6	378.35	6.1392e-06	6.1715e-06	430.54	144.11	125.4	43.313	6.1251e-06	53.57	197.228	251.270	214.114	161.570	223.090	322.049	161.606	166.274	261.132	294.191	165.710	169.825	170.274	175.005	305.402	174.678	-8191	255	
32062.469	1	1	0	0	0.093997	0.21421	0.25813	0.25883	0.15664	0.19717	0.37762	0.10059	0.12825	0.14361	0.11775	0.22413	0.12039	0.21076	0.47651	0.12421	-2.6229	-2.95	-3.2896	-3.25	-3.1937	-3.3792	-3.2562	-3.4062	-3.2062	-3.1271	-3.4542	-3.1333	-3.0229	-3.4979	-2.8688	-3.3833	465.507	223.610	376.981	457.955	366.668	448.799	467.953	436.552	385.632	191.890	398.367	472.748	351.941	441.877	217.382	472.423	0.00060402	0.00033215	0.00021111	1375.6	5.3647e-06	5.4775e-06	1368.6	371.57	6.3249e-06	5.1526e-06	423.91	140.78	123.61	42.191	2.9956e-06	51.973	0.00055956	0.00056231	0.00015614	1394.4	6.16e-06	6.1075e-06	1392.5	377.79	6.1982e-06	6.0946e-06	431.34	144.05	125.59	43.344	6.1522e-06	53.492	196.764	218.422	243.808	161.590	273.336	235.343	161.454	166.289	291.063	357.528	165.612	169.825	170.349	175.199	273.726	174.111	-8191	255	
32062.564	1	1	0	0	0.27674	0.15877	0.030139	0.12701	0.19201	0.06316	0.31939	0.11506	0.33654	0.17345	0.13953	0.11179	0.31864	0.10955	0.010847	0.064696	-2.8625	-2.9083	-3.1708	-3.1729	-3.0708	-3.1875	-3.2708	-3.4021	-3.1542	-2.8833	-3.3958	-3.3354	-3.1229	-3.4062	-3.0438	-3.3	406.951	153.436	487.119	199.754	440.722	404.867	443.913	418.355	297.387	367.072	432.719	429.091	489.289	161.294	246.927	441.540	0.00057471	0.00023289	0.00019838	1374	6.5342e-06	3.9544e-06	1371.5	370.89	4.1813e-06	5.6897e-06	420.81	141.54	123.07	42.226	5.8988e-06	51.857	0.00056025	0.00055762	0.00015553	1394.8	6.1876e-06	6.1901e-06	1392.4	377.88	6.1552e-06	6.1444e-06	430.17	144.17	125.33	43.343	6.1998e-06	53.429	190.680	248.452	254.812	161.806	249.787	286.995	161.516	166.212	308.940	313.528	165.708	169.918	170.447	175.096	268.387	174.383	-8191	255	
32062.637	1	1	0	0	0.31021	0.26561	0.22744	0.17023	0.099595	0.10622	0.34384	0.28411	0.15281	0.1145	0.15571	0.037802	0.035084	0.19814	0.18949	0.26856	-2.7938	-2.9208	-3.2104	-3.2854	-2.9208	-3.4417	-3.1771	-3.2146	-3.2438	-2.9104	-3.3875	-3.3375	-3.0833	-3.5521	-2.9833	-3.125	315.315	303.459	189.455	347.548	220.329	336.796	409.007	475.333	432.954	313.229	428.910	279.708	428.473	450.683	333.833	446.961	0.0005448	0.00023629	0.00013983	1375.5	5.1102e-06	6.0681e-06	1370.1	371.61	7.7251e-06	2.9939e-06	422.6	141.73	123.29	42.165	3.3452e-06	52.211	0.00055878	0.00056519	0.00015719	1395.1	6.1457e-06	6.1305e-06	1392.9	377.88	6.1976e-06	6.136e-06	431.05	144.16	125.51	43.353	6.1815e-06	53.638	193.806	176.488	288.086	161.748	265.671	234.822	161.401	166.327	303.595	290.687	165.465	169.820	170.275	175.278	296.199	174.694	-8191	255	
32062.758	1	1	0	0	0.05127	0.23715	0.24073	0.28257	0.19005	0.055273	0.23466	0.25282	0.12436	0.13615	0.11254	0.068186	0.24286	0.16056	0.061801	0.34149	-2.9062	-2.875	-3.1146	-3.3792	-2.85	-3.3479	-3.1979	-3.2292	-3.4479	-3.1521	-3.4083	-3.3187	-2.9333	-3.3458	-3.0917	-3.1833	434.328	305.593	424.114	191.631	217.786	228.690	468.368	461.509	245.350	447.190	494.414	180.191	393.502	445.355	312.084	419.573	0.00054888	0.0007872	0.00015762	1374.3	1.1028e-06	7.2602e-07	1374.9	372.44	7.4731e-06	2.2095e-06	423.98	141.06	122.18	42.006	5.9654e-06	51.94	0.00056428	0.00056729	0.00015686	1393	6.1233e-06	6.1153e-06	1394	378.41	6.1657e-06	6.1035e-06	430.84	144.07	125.27	43.332	6.1122e-06	53.516	196.404	236.722	267.102	161.815	269.925	386.282	161.413	166.327	269.925	273.529	165.686	169.789	170.354	175.298	287.696	174.517	-8191	255	
32062.854	1	1	0	0	0.37953	0.22802	0.16632	0.19838	0.11716	0.12825	0.35043	0.2133	0.15462	0.13302	0.18021	0.25458	0.10689	0.16105	0.11592	0.064078	-2.9875	-2.9729	-3.1854	-3.3708	-3.0875	-3.4	-3.225	-3.2104	-3.3875	-3.0646	-3.2479	-3.3104	-3.0417	-3.2	-3.0479	-3.0646	426.326	390.847	222.072	225.219	395.468	440.338	436.065	475.464	327.359	282.992	329.884	443.632	228.482	476.319	388.036	160.568	0.00050618	0.00019221	0.00011456	1379.2	6.4991e-06	7.2398e-06	1370.7	372.32	5.0218e-06	4.5434e-06	421.71	141.07	122.32	42.018	2.1253e-06	52.057	0.00056374	0.00056291	0.00015682	1395.5	6.1042e-06	6.1451e-06	1391.7	378.38	6.1112e-06	6.1132e-06	430.16	144	125.34	43.329	6.1571e-06	53.599	185.282	487.216	252.219	161.896	288.025	276.346	161.493	166.268	250.807	311.603	165.832	169.901	170.400	175.208	281.163	174.403	-8191	255	
32062.949	1	1	0	0	0.14314	0.12262	0.089499	0.18381	0.10517	0.053562	0.18752	0.11217	0.094413	0.1668	0.43513	0.063637	0.26217	0.12968	0.19445	0.36723	-2.975	-2.975	-3.0083	-3.2417	-3.0333	-3.3396	-3.3333	-3.2208	-3.2833	-3.1979	-3.1208	-3.3521	-3.3104	-3.2521	-3.1188	-3.1146	230.331	270.172	376.916	164.766	492.727	188.196	456.083	445.144	476.380	185.675	415.939	418.769	434.204	165.775	217.622	469.900	0.00048786	0.00063183	0.00019546	1372.4	6.3096e-06	3.2817e-06	1366.5	371	7.1582e-06	6.6593e-06	421.68	140.37	122.7	42.063	3.8657e-06	51.86	0.00056392	0.00056216	0.00015557	1392	6.1028e-06	6.1828e-06	1390.2	378.14	6.1173e-06	6.1575e-06	429.98	143.77	125.32	43.329	6.1561e-06	53.517	190.715	194.956	214.970	161.826	301.595	224.052	161.467	166.359	225.690	317.373	165.837	169.937	170.508	175.152	273.833	174.531	-8191	255	
32063.068	1	1	0	0	0.22387	0.054804	0.2942	0.13938	0.13124	0.17341	0.25066	0.16665	0.25413	0.11007	0.22978	0.03747	0.26395	0.24749	0.15178	0.16167	-2.9729	-2.9458	-3.1625	-3.4458	-2.8688	-3.2562	-3.3667	-3.1667	-3.3354	-3.1333	-2.9708	-3.3354	-3.0083	-3.35	-3.3229	-3.0125	330.864	262.924	488.054	464.678	177.957	445.262	436.793	494.997	191.541	351.008	330.880	495.714	477.813	245.002	315.100	429.120	0.00062616	0.00032462	0.00013053	1371	1.9307e-06	7.4762e-06	1369.6	370.54	7.0417e-06	3.492e-06	423.8	140.77	123.1	42.327	2.815e-06	52.018	0.00056279	0.0005666	0.00015596	1391.2	6.1153e-06	6.1459e-06	1391.1	377.89	6.142e-06	6.1625e-06	430.91	143.94	125.44	43.394	6.1547e-06	53.493	197.290	258.990	233.158	161.756	364.272	280.420	161.478	166.343	252.997	316.895	165.880	169.632	170.363	175.364	231.216	174.669	-8191	255	
32063.164	1	1	0	0	0.034838	0.037769	0.054094	0.15942	0.23314	0.30492	0.26265	0.059341	0.31074	0.18859	0.17586	0.23459	0.10434	0.15862	0.24424	0.11034	-2.7687	-2.9854	-2.9458	-3.2875	-3.1125	-3.2083	-3.4458	-2.9437	-3.2854	-3.0229	-2.9813	-3.5458	-3.0312	-3.3917	-3.1396	-3.2208	184.142	446.849	208.065	468.398	348.472	148.337	391.318	210.116	165.488	367.171	326.326	383.047	151.398	210.942	456.236	259.781	0.00053067	0.00025965	0.00021788	1374.4	4.0752e-06	6.3005e-06	1370.1	371.38	3.0494e-06	5.7037e-06	424.84	140.73	122.42	42.288	5.3139e-06	52.121	0.00056176	0.00056485	0.00015691	1392.6	6.151e-06	6.1339e-06	1392	378.32	6.142e-06	6.1658e-06	431.47	143.92	125.37	43.344	6.1024e-06	53.631	198.011	154.991	257.099	161.821	332.368	285.870	161.416	166.293	273.766	276.375	165.641	169.937	170.371	175.261	262.815	174.471	-8191	255	
32063.236	1	1	0	0	0.1223	0.10523	0.24563	0.19622	0.28779	0.026333	0.24509	0.20977	0.16681	0.19316	0.21886	0.25119	0.071306	0.16883	0.31874	0.30084	-2.8646	-2.9604	-2.8792	-3.4875	-3.1188	-3.0125	-3.5062	-3.1479	-3.1542	-3.1688	-2.9521	-3.45	-3.0646	-3.2313	-3.2062	-3.0104	231.845	290.145	255.322	170.137	476.519	381.300	452.907	154.365	170.135	366.913	504.929	495.435	283.813	219.852	298.291	447.497	0.00052556	0.00043931	3.0453e-05	1373.9	6.0376e-06	5.1247e-06	1375.6	371.58	6.1572e-06	6.1031e-06	422.52	140.95	123.26	42.236	5.1874e-06	52.104	0.00056308	0.00056181	0.00015572	1395.2	6.1323e-06	6.1601e-06	1393.3	378.09	6.1891e-06	6.1699e-06	431.14	144.15	125.51	43.404	6.1578e-06	53.58	191.599	163.970	250.311	161.817	286.338	361.212	161.570	166.423	258.252	347.166	165.815	170.035	170.330	175.219	263.950	174.376	-8191	255	
32063.332	1	1	0	0	0.097466	0.18719	0.12998	0.1562	0.20932	0.13913	0.11733	0.12622	0.054102	0.14626	0.25466	0.082464	0.16361	0.38944	0.069844	0.24895	-2.8458	-3.0667	-2.6229	-3.2562	-2.9604	-2.8125	-3.5042	-3.1625	-3.1562	-3.2938	-2.9062	-3.3958	-2.9813	-3.0604	-3.2812	-2.9583	313.046	219.942	447.509	162.742	327.471	317.779	395.572	493.089	195.787	433.259	449.013	190.672	444.425	172.925	248.013	170.073	0.00060634	0.00062019	0.00014516	1372.6	3.446e-06	5.9648e-06	1372.4	371.44	5.2845e-06	3.4791e-06	423.62	140.68	123.06	42.108	5.1264e-06	51.954	0.00057051	0.00056987	0.00015499	1393.7	6.1791e-06	6.1584e-06	1392.9	378.2	6.152e-06	6.1463e-06	431.14	144.29	125.55	43.295	6.1519e-06	53.502	192.917	214.638	274.882	161.727	289.713	276.407	161.493	166.247	256.839	319.446	165.938	169.951	170.419	175.117	275.595	174.224	-8191	255	
32063.430	1	1	0	0	0.24079	0.16402	0.28908	0.25763	0.051504	0.20179	0.30871	0.30349	0.13561	0.098026	0.27258	0.32351	0.039385	0.26359	0.19883	0.13203	-2.6271	-3.2625	-2.9292	-3.3458	-3.0125	-3.0958	-3.3542	-3.275	-3.1083	-3.2062	-3.0896	-3.2896	-3.1729	-3.1063	-3.3417	-2.9708	277.220	285.863	266.308	431.442	434.227	377.295	405.816	443.459	367.772	384.833	464.055	432.895	449.138	156.682	162.431	320.083	0.00055465	0.00018703	0.00012207	1379.1	6.007e-06	5.6922e-06	1373	371.42	2.1523e-06	7.4494e-06	422.57	141.11	123.45	42.135	6.1193e-06	51.976	0.00056036	0.0005664	0.00015629	1396.4	6.2042e-06	6.1396e-06	1394.5	378.18	6.1604e-06	6.138e-06	431.29	144.23	125.57	43.391	6.219e-06	53.533	191.381	232.199	303.702	161.777	313.600	332.841	161.622	166.201	282.785	311.903	165.622	169.884	170.395	175.228	281.641	174.452	-8191	255	
32063.549	1	1	0	0	0.19979	0.12992	0.053582	0.16005	0.19941	0.12913	0.16313	0.09568	0.091928	0.16042	0.30928	0.25195	0.074578	0.097571	0.12778	0.25964	-2.8063	-3.1229	-2.8	-3.4208	-3.2167	-3.0896	-3.55	-3.1271	-3.0083	-3.3583	-2.9688	-3.2438	-3.1854	-3.0729	-3.3729	-3.0604	329.045	354.155	376.671	491.216	341.730	382.041	379.074	426.543	418.049	456.861	367.637	433.403	201.283	150.585	390.558	299.199	0.00054343	0.00036442	0.0001287	1379.3	5.0223e-06	5.6756e-06	1374.8	371.88	7.8952e-06	7.3086e-06	423.74	141.13	122.63	42.116	5.305e-06	52.027	0.00056459	0.00057142	0.00015543	1397.5	6.2391e-06	6.1182e-06	1396.5	378.73	6.0681e-06	6.1881e-06	431.51	144.19	125.47	43.365	6.1388e-06	53.58	191.497	167.226	248.246	161.750	272.424	297.816	161.562	166.291	259.580	274.713	165.630	169.705	170.139	175.202	295.916	174.567	-8191	255	
32063.645	1	1	0	0	0.10208	0.015399	0.055228	0.3144	0.054963	0.077647	0.10919	0.12527	0.15849	0.24971	0.26315	0.12539	0.12397	0.24896	0.028142	0.29308	-2.7521	-3.2313	-2.8729	-3.3458	-3.2292	-2.975	-3.6104	-3.2479	-2.9292	-3.5229	-3.1188	-3.3458	-3.2604	-2.9854	-3.3187	-3.1375	322.893	170.441	301.296	165.384	377.759	214.013	233.862	440.123	327.569	336.806	148.718	446.712	390.247	174.132	479.654	461.720	0.00060643	0.0003577	0.00020723	1381	7.1707e-06	1.0051e-05	1375.8	372.12	4.9312e-06	4.0396e-06	423.06	141.41	122.43	42.178	2.3356e-06	51.984	0.00056078	0.00056524	0.00015744	1398.5	6.1855e-06	6.1489e-06	1396.5	378.86	6.1555e-06	6.1581e-06	431.46	144.47	125.54	43.413	6.1583e-06	53.683	194.304	216.315	286.015	161.725	245.009	271.523	161.520	166.216	277.983	324.934	165.481	169.901	170.283	175.365	289.519	174.454	-8191	255	
32063.740	1	1	0	0	0.22016	0.076229	0.23127	0.12705	0.22795	0.047884	0.21781	0.17598	0.16108	0.072852	0.090422	0.13201	0.41952	0.07566	0.070963	0.13034	-2.5646	-3.3167	-3.0479	-3.4271	-3.2208	-3.0125	-3.45	-3.1854	-3.1354	-3.3312	-3.1583	-3.3646	-3.2958	-3.0708	-3.0812	-3.2604	227.568	446.342	225.673	455.230	463.028	242.800	368.602	163.688	386.247	367.471	439.998	434.592	502.239	314.890	353.708	198.763	0.00056666	0.00047661	0.00018372	1380.8	6.5722e-06	9.6919e-06	1373.4	372.14	2.1811e-06	1.6648e-07	423.23	141.26	122.59	42.228	4.1051e-06	52.19	0.00056698	0.00056809	0.00015522	1399.8	6.1351e-06	6.1872e-06	1396.7	378.76	6.1249e-06	6.1427e-06	431.7	144.31	125.25	43.389	6.153e-06	53.667	196.892	254.084	253.979	161.788	284.227	329.071	161.467	166.197	254.222	257.524	165.587	169.940	170.532	175.148	317.819	174.344	-8191	255	
32063.838	1	1	0	0	0.13763	0.2199	0.09159	0.2784	0.063271	0.12697	0.38728	0.050431	0.19535	0.037865	0.30419	0.15165	0.30037	0.22723	0.11933	0.15097	-2.3896	-3.3063	-2.9375	-3.3396	-3.1583	-3.0771	-3.4458	-3.2271	-2.9583	-3.4562	-3.1708	-3.225	-3.4896	-3.1771	-3.1917	-3.1875	373.063	417.181	311.186	183.409	445.636	429.242	446.198	310.504	374.592	325.806	439.123	456.822	159.204	450.363	365.776	404.971	0.00051598	0.00023043	0.00018847	1384.4	3.967e-06	8.1209e-06	1372.8	370.28	3.9538e-06	2.7348e-06	423.17	140.44	122.49	42.358	3.7654e-06	51.917	0.00056321	0.00056471	0.00015817	1397.8	6.142e-06	6.1196e-06	1395.6	378.13	6.122e-06	6.0896e-06	431.21	143.84	125.31	43.434	6.1322e-06	53.485	196.672	170.808	229.614	161.747	288.342	282.214	161.529	166.319	297.478	309.825	165.627	169.869	170.480	175.178	263.557	174.628	-8191	255	
32063.934	1	1	0	0	0.31356	0.074139	0.10623	0.28726	0.30755	0.13322	0.29532	0.15132	0.16439	0.21905	0.38278	0.078688	0.032087	0.28774	0.13402	0.29891	-2.5667	-3.2417	-3.1	-3.3396	-3.1729	-3.0417	-3.2958	-3.2458	-3.0563	-3.1396	-2.9583	-3.225	-3.325	-3.0875	-3.2521	-3.2687	157.873	503.097	191.851	470.795	281.179	394.836	506.549	323.205	342.615	288.197	430.361	167.176	352.617	402.928	457.808	465.917	0.00051477	0.00067064	6.8975e-05	1385.4	3.6115e-06	4.0886e-06	1373.2	370.96	3.8063e-06	4.0651e-06	423.59	140.78	122.57	42.281	6.0325e-06	51.971	0.00056487	0.00056554	0.00015817	1398.6	6.1319e-06	6.1385e-06	1394.3	377.78	6.0739e-06	6.1263e-06	431.61	143.94	125.42	43.381	6.1319e-06	53.59	199.893	219.839	250.958	161.826	276.818	307.018	161.717	166.238	294.639	286.849	165.941	169.956	170.357	175.120	270.437	174.503	-8191	255	
32064.029	1	1	0	0	0.23081	0.066857	0.31908	0.20134	0.10461	0.14436	0.10128	0.42795	0.16623	0.043358	0.28412	0.080543	0.12436	0.093382	0.099131	0.26356	-2.6271	-3.2958	-3.0354	-3.1021	-3.4042	-3.0125	-3.1021	-3.3688	-3.1188	-3.2583	-3.2438	-3.0667	-3.4188	-3.2583	-2.95	-3.3667	330.705	385.222	468.923	477.252	302.857	149.408	439.856	481.330	413.001	375.925	408.592	301.915	504.385	479.429	364.884	322.449	0.00053489	0.00059231	9.1625e-05	1381.2	2.1702e-06	1.6474e-06	1375.3	371.91	3.8103e-06	5.0035e-06	423.18	141.36	122.62	42.324	6.744e-06	51.87	0.00056467	0.00056691	0.00015655	1398.5	6.1715e-06	6.1351e-06	1397	378.78	6.1176e-06	6.1863e-06	431.41	144.04	125.3	43.44	6.1867e-06	53.491	191.900	225.131	250.624	161.940	282.259	273.549	161.636	166.104	249.566	283.201	165.564	169.936	170.375	175.242	296.428	174.472	-8191	255	
32064.148	1	1	0	0	0.11005	0.056348	0.16392	0.078835	0.051166	0.10783	0.14726	0.26433	0.07328	0.15924	0.14257	0.1535	0.16501	0.20527	0.21084	0.094914	-2.5125	-3.1021	-3.1771	-3.2313	-3.2271	-2.9667	-3.2208	-3.6312	-3.0229	-3.175	-3.4771	-3.0771	-3.3438	-3.1562	-2.9604	-3.3125	366.112	398.585	373.290	278.021	262.646	305.618	403.734	427.680	166.045	314.083	326.741	436.360	367.688	502.856	494.482	501.700	0.00053391	0.00046894	7.2696e-05	1377.7	5.2802e-06	4.6015e-06	1376	371.15	2.9642e-06	1.1641e-06	422.48	141.41	122.75	42.25	3.933e-06	51.981	0.00056387	0.00056378	0.00015701	1397.2	6.1634e-06	6.1848e-06	1397.4	377.99	6.1973e-06	6.2206e-06	431.18	144.26	125.44	43.379	6.1077e-06	53.475	195.731	209.223	215.406	161.837	283.464	296.106	161.311	166.136	225.520	207.303	165.623	169.696	170.407	175.068	355.503	174.858	-8191	255	
32064.244	1	1	0	0	0.15305	0.067029	0.10092	0.37038	0.13311	0.039272	0.12745	0.37022	0.30741	0.10368	0.089077	0.22862	0.076854	0.36749	0.14546	0.134	-2.6271	-3.1188	-3.2042	-3.1583	-3.2271	-2.95	-3.1854	-3.3792	-3.0021	-3.1292	-3.3271	-3.0583	-3.3063	-3.2646	-2.9021	-3.5187	181.906	396.823	329.708	465.430	334.684	400.420	473.718	502.154	453.647	230.134	351.354	484.796	497.515	489.033	233.504	370.722	0.00050366	0.0006151	6.9399e-05	1380.8	5.8815e-06	1.3324e-05	1375.3	372.61	3.4084e-06	1.1585e-06	424.67	141.34	122.9	42.163	5.022e-06	51.926	0.00056356	0.00056265	0.00015629	1399	6.1312e-06	6.2002e-06	1396.7	379.03	6.2042e-06	6.1978e-06	431.19	144.21	125.46	43.352	6.128e-06	53.516	191.789	267.569	269.950	161.768	323.134	288.232	161.327	166.398	270.390	414.508	165.689	169.653	170.393	175.092	300.305	174.309	-8191	255	
32064.342	1	1	0	0	0.031791	0.15303	0.14423	0.1092	0.25232	0.1107	0.1432	0.14769	0.15095	0.070099	0.35053	0.20893	0.14943	0.20972	0.28608	0.211	-2.6396	-2.9188	-3.2208	-3.0979	-3.2854	-3.1542	-3.1417	-3.3167	-3.0771	-2.9854	-3.2521	-3.1417	-3.2646	-3.1458	-2.7833	-3.3146	486.349	506.757	332.759	504.128	228.631	449.769	392.658	416.551	227.510	424.862	422.491	494.361	481.465	152.642	258.643	302.711	0.0005946	0.00028528	8.929e-05	1381	5.7331e-06	2.7858e-06	1376	372.53	5.2441e-06	3.6804e-06	422.69	140.75	122.75	42.102	7.0636e-06	52.065	0.00056456	0.00056137	0.0001569	1400	6.1846e-06	6.1706e-06	1398.6	379.15	6.1408e-06	6.1475e-06	430.96	144.14	125.36	43.34	6.125e-06	53.627	193.315	256.976	249.611	161.559	281.843	315.111	161.586	166.184	230.849	347.211	165.988	169.910	170.411	175.401	290.577	174.844	-8191	255	
32064.463	1	1	0	0	0.19482	0.094823	0.24141	0.21083	0.224	0.072346	0.43579	0.33178	0.10507	0.21253	0.10552	0.1835	0.11698	0.103	0.053739	0.10404	-2.5875	-2.9917	-3.1958	-3.2083	-3.0083	-3.2917	-3.4146	-3.3146	-3.1063	-3.05	-3.3521	-3.1917	-3.2229	-3.2292	-2.7646	-3.2604	273.790	168.851	464.938	181.429	226.663	470.926	412.292	499.695	413.730	402.763	429.161	429.335	207.722	505.443	348.600	486.257	0.00055063	0.00044625	5.3301e-05	1385.3	3.8797e-06	6.7966e-06	1377.6	371.67	3.2767e-06	2.7674e-06	422.29	140.62	122.75	42.349	3.5643e-06	52.178	0.0005647	0.00056206	0.00015629	1401.6	6.161e-06	6.1457e-06	1398.8	378.88	6.2091e-06	6.1227e-06	431.12	143.95	125.36	43.395	6.1495e-06	53.587	193.347	243.634	216.930	161.818	262.121	279.907	161.367	166.344	221.738	346.672	165.700	169.771	170.446	175.235	236.257	174.348	-8191	255	
32064.533	1	1	0	0	0.11367	0.096019	0.25033	0.054746	0.0087208	0.11313	0.17319	0.054625	0.060696	0.09083	0.059485	0.21753	0.20493	0.26594	0.17659	0.18072	-2.6292	-3	-3.3917	-3.2042	-3.0646	-3.2438	-3.1937	-3.3354	-3.0646	-3.1229	-3.3333	-3.0917	-3.0854	-3.2146	-2.7479	-3.25	483.214	482.827	240.338	502.381	433.404	184.887	503.557	384.543	493.251	259.698	404.256	477.695	493.017	458.936	492.504	448.697	0.0004903	0.00074151	0.00023568	1375.3	2.603e-06	5.9093e-06	1373	371.5	3.5219e-06	7.8232e-06	423.25	140.57	122.8	42.248	6.1427e-06	51.922	0.00056539	0.00056386	0.00015689	1398.6	6.1279e-06	6.1723e-06	1396.8	378.57	6.1729e-06	6.1814e-06	430.93	143.84	125.3	43.325	6.1395e-06	53.455	190.234	230.596	208.850	161.826	329.383	304.727	161.402	166.257	267.448	301.827	165.874	169.762	170.417	175.129	271.227	174.536	-8191	255	
32064.631	1	1	0	0	0.1959	0.2112	0.16779	0.13935	0.1723	0.060816	0.24764	0.19303	0.054707	0.25441	0.21331	0.11059	0.14246	0.2787	0.098197	0.011401	-2.5708	-2.7375	-3.1375	-3.0938	-2.8208	-3.4458	-3.075	-3.3292	-3.0708	-2.9229	-3.2188	-3.275	-3.1396	-3.4083	-2.9938	-3.1271	283.257	392.104	430.797	456.668	384.737	483.611	442.826	182.097	246.325	330.567	155.434	500.886	507.369	428.104	330.549	433.557	0.00053594	0.00057562	9.7936e-05	1378.6	4.4423e-06	3.4038e-06	1374.3	371.45	4.4381e-06	7.1354e-06	422.09	140.56	122.44	42.156	5.516e-06	52.175	0.00056472	0.0005586	0.00015634	1397.4	6.1402e-06	6.1668e-06	1396.1	378.5	6.1689e-06	6.1067e-06	429.83	143.75	125.29	43.331	6.2155e-06	53.624	195.341	222.721	269.663	161.754	259.125	279.499	161.351	166.342	283.810	314.626	165.663	169.961	170.647	175.067	284.914	174.556	-8191	255	
32064.727	1	1	0	0	0.17169	0.19305	0.073584	0.31968	0.037645	0.032814	0.29108	0.19685	0.13933	0.21467	0.15336	0.28013	0.2057	0.27866	0.19605	0.034352	-2.9	-2.7854	-3.2	-3.2792	-3.0021	-3.325	-3.4188	-3.2208	-3.4625	-2.8333	-3.225	-3.2292	-3.1542	-3.4938	-2.975	-3.0979	151.491	195.964	442.337	478.395	489.608	466.334	444.048	481.733	218.597	286.714	435.545	492.993	157.571	448.767	215.436	182.945	0.00049873	0.00081418	0.00020274	1385.3	5.2515e-06	4.8385e-06	1374.1	370.73	5.6394e-06	4.9025e-06	423.39	140.46	122.41	42.092	2.9719e-06	51.877	0.00056271	0.00056141	0.00015641	1399	6.1076e-06	6.1368e-06	1396.5	377.9	6.1658e-06	6.204e-06	431.07	143.98	125.35	43.33	6.1578e-06	53.527	195.122	225.145	234.999	161.810	294.295	302.759	161.527	166.267	287.465	309.746	165.695	169.849	170.416	175.193	365.749	174.527	-8191	255	
32064.846	1	1	0	0	0.3295	0.19659	0.094259	0.10971	0.14929	0.012762	0.22554	0.12174	0.21424	0.13815	0.10837	0.071327	0.21018	0.15389	0.18305	0.11062	-2.7583	-2.9125	-3.2042	-3.2979	-2.9271	-3.4062	-3.2021	-3.2792	-3.2938	-2.8417	-3.2812	-3.3229	-3.2354	-3.5062	-2.9583	-3.1167	463.614	235.388	160.726	486.558	315.090	322.513	417.052	489.059	448.150	353.353	414.051	196.342	194.696	503.365	378.234	359.632	0.00054395	0.00061515	0.00013826	1378.3	6.9527e-07	9.833e-06	1375.3	373.34	2.9535e-06	3.2012e-06	421.33	140.9	122.94	42.11	5.2868e-06	52.041	0.00056479	0.00056554	0.00015625	1397.4	6.1086e-06	6.1103e-06	1394.4	378.7	6.1033e-06	6.1343e-06	430.19	143.84	125.45	43.291	6.0982e-06	53.512	186.351	258.470	222.020	161.829	464.830	293.613	161.500	166.343	239.757	304.765	165.658	169.709	170.768	174.896	228.537	174.340	-8191	255	
32064.941	1	1	0	0	0.25901	0.18002	0.38021	0.15634	0.1738	0.12949	0.15275	0.31582	0.17071	0.38515	0.10148	0.37483	0.062242	0.12585	0.023649	0.32586	-3.0812	-2.975	-3.1104	-3.65	-2.9021	-3.2146	-3.2458	-3.1271	-3.2	-3.1458	-3.3542	-3.4396	-3.1417	-3.3625	-3.2458	-3.1021	343.311	187.611	228.461	471.487	445.333	401.514	476.049	441.808	256.759	187.800	200.037	492.994	350.072	295.546	306.060	433.895	0.00054569	0.00065952	0.00021338	1377.7	2.4044e-06	4.0531e-06	1371.1	371.5	2.8003e-06	2.5213e-06	422.47	140.31	122.45	42.259	4.7865e-06	51.824	0.00056337	0.00055597	0.00015673	1395.1	6.1285e-06	6.1292e-06	1391.6	378.03	6.1102e-06	6.1012e-06	430.14	143.73	125.16	43.365	6.1354e-06	53.447	188.217	250.333	257.723	161.897	354.635	370.703	161.353	166.460	276.309	300.095	165.953	169.868	170.368	175.253	306.205	174.358	-8191	255	
32065.039	1	1	0	0	0.091294	0.068453	0.12434	0.23981	0.096714	0.23103	0.1657	0.07875	0.44322	0.21767	0.07858	0.099542	0.26169	0.15974	0.15087	0.09551	-2.9292	-2.9104	-3.0062	-3.3958	-2.9667	-3.3	-3.4833	-3.1375	-3.2042	-3.0792	-3.3	-3.2854	-3.1042	-3.4437	-2.9667	-3.1833	219.263	396.188	250.152	165.299	288.991	454.281	462.824	160.292	436.608	454.163	469.436	177.538	461.516	472.902	260.344	373.770	0.00053831	0.00048011	0.00022649	1374.5	1.8029e-07	8.6335e-06	1370.3	370.83	3.7979e-06	3.5056e-06	422.57	140.75	122.55	42.216	2.8229e-06	52.055	0.00056394	0.0005636	0.0001563	1393.1	6.1302e-06	6.1077e-06	1391.9	377.52	6.1514e-06	6.162e-06	430.27	143.83	124.97	43.287	6.1541e-06	53.498	194.639	194.581	243.218	161.888	361.932	252.434	161.330	166.235	280.379	327.454	165.604	169.670	170.312	175.357	301.592	174.145	-8191	255	
32065.109	1	1	0	0	0.25593	0.11516	0.05865	0.19465	0.29217	0.099749	0.12153	0.26994	0.34317	0.057351	0.26008	0.3114	0.17327	0.18243	0.059371	0.033589	-2.8146	-2.9958	-3.1	-3.4417	-2.8521	-3.0917	-3.3958	-3.2396	-3.3771	-3.2979	-3.2771	-3.4875	-3.1417	-3.3042	-3.2292	-2.9375	201.647	314.272	149.843	434.382	375.583	445.532	406.012	466.416	177.363	432.154	498.658	437.686	387.574	461.864	340.241	393.614	0.00052416	0.00064793	0.00014515	1375.7	4.3299e-06	1.2039e-05	1372.6	371.74	4.6694e-06	4.7872e-06	423.11	139.97	122.51	42.276	4.4703e-06	51.998	0.00056662	0.000564	0.00015722	1396.2	6.12e-06	6.0851e-06	1393.2	377.94	6.1502e-06	6.204e-06	431.01	143.72	125.26	43.327	6.139e-06	53.463	189.537	202.311	303.710	161.794	261.852	292.245	161.423	166.093	262.482	277.268	165.655	170.099	170.521	175.032	261.225	174.312	-8191	255	
32065.229	1	1	0	0	0.13253	0.10974	0.077154	0.21977	0.13748	0.092643	0.25778	0.26156	0.082767	0.19585	0.066126	0.37068	0.20062	0.027133	0.24395	0.098248	-2.7958	-3.0896	-2.8958	-3.45	-3.05	-3.2646	-3.4021	-3.1625	-3.2	-2.95	-3.1354	-3.4062	-3.1542	-3.1396	-3.1188	-3.0167	154.817	197.111	251.785	469.574	436.074	248.163	439.991	416.856	201.713	190.518	422.467	463.711	484.877	349.183	479.172	382.783	0.00056832	0.00048897	0.0001198	1380.3	5.8713e-06	7.8654e-06	1377.5	370.9	9.2292e-06	3.6261e-06	421.99	140.45	122.94	42.267	4.2755e-06	51.853	0.00056228	0.00056371	0.00015705	1397.5	6.1643e-06	6.2284e-06	1398.3	378.86	6.1681e-06	6.2304e-06	430.83	143.97	125.58	43.387	6.1688e-06	53.494	190.861	152.563	293.693	161.694	321.250	248.177	161.441	166.176	257.463	333.275	165.839	169.871	170.491	175.143	246.782	174.304	-8191	255	
32065.324	1	1	0	0	0.096896	0.074217	0.34323	0.54706	0.22786	0.24497	0.2823	0.18274	0.12146	0.30665	0.30068	0.092093	0.21607	0.18923	0.068998	0.13888	-2.6896	-3.1646	-2.9396	-3.4417	-2.9208	-2.9938	-3.4146	-3.125	-3.1437	-3.35	-3.1083	-3.4958	-3.1917	-3.3125	-3.3563	-2.9583	371.320	300.225	283.923	484.983	164.202	244.785	501.782	452.700	462.866	217.466	471.654	174.051	428.733	214.052	177.364	479.263	0.00053166	0.00011631	0.00011603	1378.4	1.5506e-06	5.332e-06	1375.2	371.43	4.0951e-06	4.0753e-06	423.14	141.1	122.82	42.291	1.7339e-06	52.222	0.00056792	0.00056716	0.00015631	1400.8	6.1541e-06	6.1914e-06	1397.2	379	6.2393e-06	6.2077e-06	431.57	144.16	125.65	43.413	6.2242e-06	53.707	192.059	178.379	231.968	161.766	376.791	367.538	161.475	166.302	284.741	240.031	165.755	169.698	170.439	175.138	310.720	174.516	-8191	255	
32065.422	1	1	0	0	0.15784	0.22397	0.1605	0.25298	0.020386	0.20543	0.31	0.10325	0.1347	0.19011	0.080943	0.047121	0.21436	0.08496	0.13829	0.035077	-2.6937	-3.1146	-2.9417	-3.3229	-3.0396	-3.1167	-3.5167	-3.2062	-3.1625	-3.1875	-3.0708	-3.225	-3.2417	-3.0521	-3.4	-3.05	395.753	180.474	506.857	477.901	492.684	412.907	442.420	166.384	238.375	376.315	173.182	389.420	491.589	398.101	312.774	153.454	0.00054473	0.00048786	0.000211	1379.2	4.8573e-06	6.9865e-06	1381.5	373.25	7.4793e-06	4.5742e-06	423.8	140.61	122.45	42.288	3.3189e-06	52.044	0.00056811	0.0005704	0.00015823	1399.6	6.2129e-06	6.1892e-06	1399.6	379.54	6.2094e-06	6.211e-06	431.96	144.22	125.48	43.44	6.181e-06	53.656	190.611	223.966	251.490	161.565	260.411	276.342	161.391	165.950	263.653	330.587	165.616	169.688	170.334	174.987	254.675	174.297	-8191	255	
32065.543	1	1	0	0	0.26988	0.036471	0.26868	0.16223	0.17956	0.38265	0.11337	0.35274	0.10133	0.2504	0.21022	0.28664	0.15897	0.1759	0.13608	0.211	-2.8771	-3.1896	-2.8104	-3.2917	-3.1125	-3.0875	-3.4542	-3.1979	-3.1562	-3.3312	-3.0521	-3.3667	-3.2708	-2.95	-3.2625	-3.1917	391.663	464.713	259.541	482.570	432.046	343.844	426.370	490.253	177.910	498.997	429.387	473.425	177.558	160.212	232.184	443.626	0.00053633	5.4334e-05	2.4856e-05	1380.9	5.2257e-06	7.9505e-06	1378.8	372.25	6.7942e-06	5.3184e-06	422.65	141.74	122.79	42.257	1.495e-06	52.27	0.00057032	0.00057287	0.00015706	1401.1	6.2488e-06	6.2445e-06	1400.5	379.51	6.1698e-06	6.1559e-06	431.54	144.5	125.81	43.484	6.2468e-06	53.715	196.959	375.713	252.148	161.772	276.402	300.986	161.559	166.243	272.272	280.562	165.752	169.825	170.312	174.812	276.557	174.165	-8191	255	
32065.639	1	1	0	0	0.097269	0.19369	0.12676	0.26112	0.14488	0.13972	0.20324	0.31334	0.15227	0.10636	0.33912	0.059422	0.1169	0.17861	0.32219	0.47872	-2.6771	-3.3604	-3.0021	-3.2917	-3.1437	-2.9854	-3.4708	-3.2562	-3.0646	-3.3625	-3.1646	-3.3042	-3.2938	-3.1333	-3.2313	-3.1	443.463	507.773	388.561	505.152	290.628	197.270	464.637	154.742	157.173	277.970	353.927	291.408	254.855	149.239	227.176	442.102	0.00058053	0.00091982	9.2883e-05	1385	3.283e-06	3.2635e-06	1378.1	372.12	3.549e-06	2.7124e-06	424.74	141.55	123.18	42.324	5.7665e-06	52.352	0.00056796	0.00056806	0.00015628	1404.7	6.215e-06	6.1817e-06	1401.5	379.7	6.2185e-06	6.2273e-06	433.08	144.63	125.75	43.429	6.2528e-06	53.791	195.912	248.343	280.059	161.823	267.893	336.833	161.516	166.192	306.335	284.832	165.653	169.886	170.525	175.086	248.728	174.357	-8191	255	
32065.734	1	1	0	0	0.072463	0.03568	0.12671	0.15481	0.20425	0.13167	0.33663	0.22156	0.17274	0.13849	0.378	0.10121	0.36636	0.20793	0.098606	0.19015	-2.4	-3.1625	-2.7958	-3.2979	-3.2125	-2.8563	-3.5979	-3.2042	-3.1208	-3.2771	-3.2292	-3.2333	-3.1375	-3.1708	-3.1146	-3.0104	263.491	222.036	156.274	437.904	493.616	190.568	496.171	454.821	206.374	333.462	160.602	256.333	466.504	493.390	468.120	158.976	0.0004868	0.0002267	0.00022741	1387.9	1.912e-06	5.494e-06	1384.5	372.62	6.0589e-06	6.5956e-06	425.06	141.38	122.89	42.526	7.0327e-06	52.199	0.00056748	0.00057215	0.00015876	1406.3	6.1997e-06	6.1919e-06	1403.8	379.83	6.2361e-06	6.1852e-06	433.59	144.63	125.65	43.528	6.251e-06	53.727	189.413	248.073	245.769	161.703	349.544	302.798	161.608	166.158	219.378	304.196	165.764	169.631	170.384	174.979	261.109	174.212	-8191	255	
32065.830	1	1	0	0	0.15237	0.12911	0.13256	0.04789	0.14486	0.23625	0.25683	0.13509	0.1265	0.18415	0.19727	0.20802	0.15641	0.29469	0.18449	0.25715	-2.1771	-3	-3.1125	-3.2083	-3.0646	-2.8271	-3.3354	-3.1708	-2.9292	-3.2146	-3.0896	-3.0167	-3.4521	-3.075	-3.2667	-3.1875	398.211	218.039	480.776	492.080	464.363	377.411	429.656	475.867	163.882	156.118	455.359	419.368	457.839	412.697	341.098	424.225	0.00057999	0.00088822	0.0001577	1392.2	5.5393e-06	8.0989e-06	1381.3	373.81	6.1031e-06	3.8379e-06	425.62	140.32	123.33	42.38	2.4925e-06	52.147	0.00056473	0.00056783	0.00015872	1410	6.2394e-06	6.2187e-06	1405.3	380.18	6.1686e-06	6.1911e-06	433.04	144.24	125.84	43.426	6.1895e-06	53.712	186.365	214.092	264.787	161.824	261.848	300.500	161.450	166.023	260.374	316.686	165.832	170.015	170.456	175.309	258.092	174.494	-8191	255	
32065.928	1	1	0	0	0.16394	0.15439	0.30369	0.22404	0.2796	0.11809	0.085202	0.23532	0.076107	0.14412	0.25035	0.21969	0.14468	0.19382	0.077681	0.22342	-2.4833	-3.1917	-3.2146	-3.1375	-3.3583	-2.8229	-3.2313	-3.3	-2.9396	-3.3333	-3.1854	-3.1813	-3.3917	-2.9896	-3.2	-3.2729	161.660	341.981	366.756	479.895	279.593	477.037	372.788	417.431	434.768	157.131	399.430	184.291	326.729	415.648	222.137	445.698	0.00054363	0.00014759	0.00011637	1387.8	3.0645e-06	6.0825e-06	1382	373.65	5.6122e-06	6.9252e-06	424.53	141.09	123.11	42.42	3.7063e-06	52.274	0.00057012	0.00057119	0.00015712	1405.8	6.2526e-06	6.2136e-06	1401.9	380.45	6.1931e-06	6.2894e-06	432.84	144.37	125.93	43.598	6.2304e-06	53.852	195.600	244.670	231.834	161.747	302.100	272.407	161.411	165.860	267.169	294.011	165.476	169.728	170.369	175.129	215.542	174.409	-8191	255	
32066.023	1	1	0	0	0.20851	0.28262	0.11505	0.036407	0.19138	0.12861	0.26413	0.17077	0.039284	0.07673	0.18064	0.059366	0.22248	0.22919	0.039097	0.097046	-2.5667	-3.2208	-3.0354	-2.9792	-3.1542	-3.0729	-3.1875	-3.3125	-2.7479	-3.2958	-3.1437	-2.9396	-3.5271	-3.1125	-3.1542	-3.2812	273.278	172.176	170.952	176.310	506.700	213.135	407.913	455.489	468.402	446.114	443.014	472.154	346.715	262.709	348.945	416.448	0.00058977	0.00060065	0.00013628	1389	6.8755e-06	8.1781e-06	1382.4	375.24	6.9811e-06	5.8504e-06	428.1	141.84	123.68	42.478	2.3032e-06	52.172	0.00057379	0.00057592	0.00015928	1407.5	6.301e-06	6.2852e-06	1406.2	381.13	6.1775e-06	6.268e-06	434.73	144.95	126.32	43.609	6.2368e-06	53.796	192.227	188.363	241.889	161.776	254.004	302.023	161.570	166.137	263.834	278.856	165.612	169.764	170.507	175.245	254.371	174.406	-8191	255	
32066.143	1	1	0	0	0.13036	0.14478	0.060181	0.095398	0.13269	0.13018	0.50702	0.3524	0.17342	0.27895	0.14473	0.33265	0.14833	0.070932	0.067802	0.12702	-2.6292	-3.2104	-3.1417	-3.0208	-3.3042	-3.0667	-3.3125	-3.2979	-3.0167	-2.9854	-3.3625	-3.0333	-3.3688	-3.1979	-2.9375	-3.5396	487.600	434.840	450.957	250.493	387.461	221.359	457.793	445.279	289.723	297.139	373.064	497.737	476.985	489.288	253.915	448.057	0.00057477	6.5107e-05	0.00023741	1390.3	5.5708e-06	1.2267e-06	1388.1	373.96	5.008e-06	2.7698e-06	426.35	141.63	123.35	42.433	2.912e-06	52.105	0.00057478	0.00057419	0.00015777	1413.2	6.2221e-06	6.3051e-06	1409.5	381.11	6.2083e-06	6.3162e-06	433.83	144.8	126.03	43.511	6.2213e-06	53.677	184.812	209.393	287.567	161.664	276.130	383.177	161.316	166.197	266.380	339.391	165.657	169.671	170.550	175.133	308.596	174.518	-8191	255	
32066.238	1	1	0	0	0.13152	0.12752	0.096981	0.20581	0.12643	0.039072	0.038724	0.16619	0.21206	0.18904	0.20633	0.21082	0.24132	0.37963	0.018945	0.0096798	-2.5604	-3.1417	-3.2542	-3.1667	-3.1646	-2.9667	-3.2542	-3.3563	-2.8167	-3.0792	-3.2792	-3.0625	-3.2958	-3.275	-3.05	-3.2208	245.798	160.583	411.501	178.052	300.338	173.789	357.034	462.877	378.974	204.592	178.538	157.601	474.851	475.603	370.656	417.020	0.00057383	0.00056623	0.00014082	1393.5	5.5198e-06	8.2629e-06	1386.7	374.31	4.8718e-06	4.6061e-06	423.88	141.33	123.59	42.359	3.7051e-06	52.224	0.00057548	0.00057162	0.00015834	1412.7	6.2102e-06	6.2607e-06	1408.9	380.76	6.2342e-06	6.2217e-06	433.2	144.53	125.93	43.521	6.1576e-06	53.642	190.431	196.623	221.234	161.767	307.840	298.572	161.324	166.161	257.100	315.251	165.676	169.949	170.272	175.203	236.775	174.169	-8191	255	
32066.334	1	1	0	0	0.14286	0.21922	0.043645	0.1299	0.12016	0.19762	0.21219	0.12919	0.34945	0.32801	0.23034	0.10086	0.36908	0.21781	0.10842	0.30837	-2.475	-3.05	-3.1417	-2.9313	-3.2646	-3.1771	-3.2125	-3.4792	-3	-3.05	-3.3979	-3.3	-3.3292	-3.2667	-2.975	-3.3458	160.078	450.491	384.769	193.427	384.146	493.806	418.887	453.527	253.232	374.272	149.874	493.392	498.987	446.789	390.721	487.300	0.00053437	0.00060291	0.00014762	1390.5	8.7399e-06	2.1094e-06	1381.9	373.57	6.9469e-06	4.9793e-06	424.83	141.56	122.91	42.417	4.742e-06	52.08	0.00056682	0.00056804	0.00015763	1408.1	6.2566e-06	6.2322e-06	1404.6	380.53	6.1837e-06	6.226e-06	432.6	144.75	126.04	43.479	6.1907e-06	53.72	189.245	264.136	246.938	161.877	252.177	259.101	161.356	166.171	238.576	369.492	165.845	169.900	170.267	175.034	332.970	174.212	-8191	255	
32066.406	1	1	0	0	0.22028	0.13445	0.26102	0.16338	0.024858	0.14556	0.21473	0.085824	0.2941	0.10154	0.081577	0.13398	0.2328	0.13469	0.28917	0.26187	-2.5146	-2.9688	-3.175	-3.0167	-2.9	-3.1708	-3.15	-3.4875	-3.0583	-3.0542	-3.3042	-3.0542	-3.2521	-3.2917	-2.9854	-3.2542	336.824	467.752	498.281	485.309	254.251	190.411	492.761	411.697	229.962	269.459	486.520	403.748	480.805	154.687	239.142	333.152	0.00047136	0.0004705	0.00019903	1387.6	3.9129e-06	4.6488e-06	1382.6	374.23	5.8576e-06	6.4683e-06	424.66	141.5	123.29	42.097	5.1084e-06	51.977	0.00056838	0.00056816	0.00015721	1406.6	6.2601e-06	6.2413e-06	1404.6	380.66	6.2562e-06	6.2003e-06	432.94	144.66	125.99	43.436	6.2267e-06	53.78	188.003	241.279	245.101	161.740	291.240	317.586	161.523	166.099	250.210	310.428	165.723	169.799	170.407	175.230	251.449	174.239	-8191	255	
32066.502	1	1	0	0	0.061161	0.28067	0.25374	0.069302	0.15417	0.12539	0.095369	0.078048	0.19387	0.1551	0.35128	0.018628	0.18243	0.16374	0.2047	0.10249	-2.7229	-2.8021	-2.9521	-3.2958	-3.0646	-3.2167	-3.2708	-3.3229	-3.0042	-2.9562	-3.3396	-3.0458	-3.1917	-3.3271	-2.9542	-3.1958	157.062	417.541	406.904	422.268	504.407	215.625	414.320	469.838	344.812	328.251	431.185	171.342	421.505	490.980	453.565	448.651	0.00054838	0.00050713	0.00017512	1389.2	7.008e-06	7.8627e-06	1381.8	373.78	7.6431e-06	2.2241e-06	424.04	141.35	122.92	42.184	4.8967e-06	52.001	0.00057446	0.00057235	0.00015858	1407.2	6.2235e-06	6.2425e-06	1403.7	380.84	6.2442e-06	6.2122e-06	433.06	144.75	126.08	43.518	6.2138e-06	53.729	194.742	198.732	286.541	161.666	260.811	249.977	161.486	166.221	258.725	370.128	165.725	169.993	170.238	175.093	295.518	174.348	-8191	255	
32066.621	1	1	0	0	0.1809	0.19919	0.16852	0.16235	0.10077	0.0095603	0.24677	0.36765	0.050304	0.18097	0.1911	0.28776	0.21059	0.096365	0.35367	0.21368	-2.8521	-2.9396	-3.2708	-3.0812	-2.9354	-3.0875	-3.0958	-3.3875	-3.1208	-2.8083	-3.5125	-3.0104	-3.1333	-3.2646	-2.9083	-3.3	218.777	294.124	443.162	175.802	389.479	398.556	386.835	410.023	251.557	324.625	445.612	432.986	452.837	365.968	199.016	413.445	0.00056313	0.00043482	0.00014718	1393.6	4.2991e-06	4.0909e-06	1386.4	374.74	5.3813e-06	3.2309e-06	425.4	141.6	123.14	42.39	6.099e-06	52.126	0.00057046	0.00056857	0.00015885	1410.6	6.2529e-06	6.1903e-06	1408.1	381.21	6.2638e-06	6.2396e-06	433.46	144.8	126.18	43.567	6.2016e-06	53.692	196.329	213.836	284.350	161.718	332.564	267.016	161.457	166.171	298.675	341.283	165.676	169.975	170.392	175.037	259.985	174.338	-8191	255	
32066.719	1	1	0	0	0.06919	0.23046	0.21828	0.15936	0.097703	0.076401	0.24643	0.22628	0.2358	0.12372	0.14332	0.22205	0.11081	0.1577	0.04091	0.22241	-2.6917	-2.775	-3.0333	-3.2854	-3	-3.1646	-3.0583	-3.3896	-3.0958	-2.9646	-3.2458	-3.0625	-2.9813	-3.2062	-2.9771	-3.0917	336.584	399.826	261.441	448.362	295.916	457.513	454.111	431.149	341.946	429.394	445.238	433.206	203.710	488.477	417.003	247.355	0.00055443	0.00074182	0.00010805	1393	5.1274e-06	6.9938e-06	1388.5	374.98	3.7858e-06	5.3244e-06	425.55	141.92	123.65	42.604	4.2513e-06	52.14	0.00056985	0.00056847	0.00015942	1411.6	6.2357e-06	6.2332e-06	1408.8	381.22	6.224e-06	6.2247e-06	433.5	144.83	126.29	43.586	6.2181e-06	53.838	193.904	198.403	273.567	161.537	287.113	243.806	161.229	166.029	264.916	322.934	165.912	169.810	170.270	174.933	261.883	174.515	-8191	255	
32066.814	1	1	0	0	0.29508	0.16164	0.1591	0.15853	0.14685	0.25012	0.28522	0.22905	0.17997	0.0126	0.23566	0.11628	0.060509	0.12713	0.04511	0.071611	-2.6646	-3.0958	-3.0687	-3.5521	-2.9625	-3.2812	-3.2062	-3.3271	-3.3417	-2.8583	-3.4646	-3.3229	-2.9333	-3.45	-2.8458	-3.0896	310.806	322.302	469.519	450.421	207.458	458.798	504.268	454.330	384.164	186.190	501.555	263.965	348.926	466.355	297.194	448.610	0.00056117	0.0003642	0.00015271	1393	6.377e-06	6.1552e-06	1385.8	374.61	2.358e-06	3.7682e-06	424.53	141.39	123.81	42.305	4.2532e-06	52.262	0.00057266	0.00057237	0.00015941	1411.6	6.2214e-06	6.3054e-06	1409.5	381.64	6.223e-06	6.1992e-06	433.69	144.72	126.3	43.527	6.2808e-06	53.793	193.711	196.772	244.729	161.509	278.045	301.828	161.511	166.028	254.327	252.710	165.579	169.736	170.437	175.208	269.950	174.301	-8191	255	
32066.910	1	1	0	0	0.074062	0.079951	0.12746	0.25771	0.18344	0.12994	0.1811	0.21647	0.2818	0.23426	0.13271	0.075036	0.20831	0.17935	0.026632	0.13693	-2.9146	-2.8958	-3.1583	-3.2021	-3.0333	-3.2938	-3.3208	-3.1063	-3.3875	-3.0396	-3.1937	-3.2292	-3.1312	-3.2542	-3.0187	-3.0917	448.380	298.802	446.348	475.526	348.217	303.593	474.001	494.786	202.004	454.950	164.621	462.105	482.406	436.799	413.084	193.520	0.00049685	0.00014778	0.00015791	1394.5	5.2258e-06	3.224e-06	1386.2	374.76	5.9204e-06	2.4314e-06	425.5	140.99	123.53	42.42	8.5348e-06	52.179	0.0005702	0.00057545	0.00015886	1413.4	6.2277e-06	6.2542e-06	1410	381.99	6.2249e-06	6.2252e-06	434.46	144.6	126.37	43.619	6.2913e-06	53.799	189.930	171.140	243.099	161.730	288.496	208.419	161.561	166.349	253.121	370.234	165.638	169.781	170.445	175.204	297.428	174.353	-8191	255	
32067.008	1	1	0	0	0.1412	0.18843	0.11602	0.34135	0.20769	0.13708	0.11828	0.15187	0.30386	0.11612	0.049623	0.26028	0.033689	0.20757	0.10507	0.15414	-2.9188	-2.9896	-3.1083	-3.3396	-2.9479	-3.2917	-3.2438	-2.8875	-3.2167	-3.0875	-3.3875	-3.1729	-2.9188	-3.3583	-3.2396	-3.0958	283.409	149.630	506.472	438.846	361.990	452.951	388.066	439.011	494.839	322.524	197.814	503.313	310.197	338.849	336.621	223.598	0.00055854	0.0010071	0.00011422	1396.6	2.4835e-06	1.1882e-05	1387.2	374.23	5.3217e-06	6.1686e-06	424.91	141.32	123	42.406	3.7252e-06	52.281	0.00056611	0.00057046	0.00015934	1412	6.2112e-06	6.2357e-06	1408.6	381.2	6.1877e-06	6.2158e-06	433.63	144.78	125.98	43.536	6.2935e-06	53.788	194.078	220.737	246.780	161.556	242.441	302.460	161.316	166.017	264.122	292.566	165.581	169.765	170.275	175.146	321.823	174.241	-8191	255	
32067.104	1	1	0	0	0.38144	0.40169	0.11825	0.32122	0.11456	0.25154	0.20649	0.22876	0.020797	0.046843	0.41093	0.047917	0.12944	0.25592	0.054207	0.15152	-2.8083	-3.0563	-3.0833	-3.4062	-3.0312	-3.1271	-3.1958	-3.1146	-3.2396	-3.0354	-3.1667	-3.3104	-3.0146	-3.2979	-3.1542	-3.0375	422.173	505.978	352.865	194.767	388.584	224.278	398.720	452.647	291.113	356.828	460.119	257.191	415.238	405.888	232.194	297.711	0.00050533	0.00047524	0.00019067	1393.7	2.7088e-06	4.6613e-06	1385.8	374.47	4.8075e-06	2.4784e-06	427.12	141.74	123.39	42.452	4.7979e-06	52.26	0.00057232	0.00057078	0.00015756	1411.7	6.1702e-06	6.2319e-06	1411.3	381.58	6.1895e-06	6.2837e-06	434.46	144.92	126.27	43.688	6.1802e-06	53.823	191.601	213.104	263.395	161.835	279.004	281.511	161.498	166.110	309.436	262.260	165.584	169.949	170.588	174.930	224.231	174.362	-8191	255	
32067.223	1	1	0	0	0.18606	0.045551	0.13814	0.40705	0.14691	0.11298	0.10702	0.3392	0.12605	0.079378	0.21678	0.09305	0.055024	0.093878	0.080025	0.25092	-2.825	-3.0833	-3.0292	-3.4062	-2.9625	-3.0563	-3.2146	-3.0417	-3.1688	-3.2042	-3.0271	-3.3292	-2.8833	-3.2188	-3.1813	-3.125	313.456	492.786	466.271	417.857	202.492	161.025	471.444	421.997	371.233	306.335	471.182	508.249	159.434	185.271	436.543	427.947	0.00060523	0.00024815	0.00016298	1396	5.6051e-06	2.2949e-06	1388.2	375.27	5.8997e-06	4.774e-06	426.66	142.3	123.33	42.549	6.7495e-06	52.08	0.00057229	0.00057407	0.00015967	1413.2	6.2386e-06	6.2771e-06	1411.6	382.05	6.2185e-06	6.287e-06	434.35	145.23	126.54	43.727	6.2634e-06	53.848	192.646	368.854	270.818	161.555	331.546	154.784	161.424	166.345	266.184	305.977	165.507	169.731	170.384	175.285	250.019	174.438	-8191	255	
32067.318	1	1	0	0	0.23401	0.27012	0.27749	0.17983	0.14309	0.19871	0.27371	0.45205	0.11512	0.051362	0.22635	0.31064	0.14666	0.27178	0.187	0.089976	-2.8396	-3.0167	-2.8208	-3.3438	-2.9146	-3.1271	-3.4146	-3.25	-3.2938	-3.1708	-3.0187	-3.3542	-3.1375	-3.1562	-3.2146	-3.0792	399.792	271.640	366.681	445.102	192.804	474.346	443.648	446.957	382.889	275.139	449.209	482.170	310.204	473.719	485.201	254.841	0.00056759	0.00048823	0.00010818	1399.2	3.0216e-06	6.2749e-06	1390	375.53	7.1079e-06	2.1881e-06	428.51	141.86	124.3	42.688	5.4659e-06	52.308	0.00057278	0.00058054	0.00015805	1417.8	6.2404e-06	6.2782e-06	1413.8	382.76	6.2572e-06	6.2879e-06	436.05	145.34	126.93	43.82	6.2849e-06	53.995	189.030	240.184	253.964	161.650	274.731	260.872	161.315	166.204	283.972	356.116	165.839	169.833	170.218	174.834	264.153	174.262	-8191	255	
32067.414	1	1	0	0	0.11215	0.19679	0.18672	0.28116	0.16777	0.092439	0.18025	0.20478	0.209	0.27271	0.12142	0.16177	0.28488	0.2206	0.2235	0.17014	-2.8625	-3.1271	-3.0312	-3.3729	-3	-3.0604	-3.5417	-2.9875	-3.2042	-3.1917	-3.1833	-3.5333	-3.1958	-3.1	-3.2729	-3.1729	345.059	176.417	174.994	469.256	149.874	270.274	344.488	479.868	501.849	424.214	476.842	423.003	496.829	174.198	396.921	443.443	0.00057621	0.00054166	0.00029426	1403.9	4.6261e-06	6.4588e-06	1398.2	376.98	1.0739e-06	8.6063e-06	428.61	142.08	123.8	42.625	7.4189e-06	52.728	0.00057322	0.00057617	0.00015793	1419.6	6.309e-06	6.2627e-06	1417.2	383.49	6.2503e-06	6.2812e-06	436.67	145.57	126.85	43.853	6.2386e-06	54.113	189.573	268.131	268.482	161.703	277.727	300.020	161.584	166.158	307.110	296.280	165.438	169.742	170.286	175.127	258.424	174.416	-8191	255	
32067.512	1	1	0	0	0.086729	0.12539	0.11344	0.15121	0.14158	0.14381	0.26964	0.25002	0.22252	0.090161	0.11417	0.27726	0.04617	0.157	0.076508	0.25856	-2.8229	-3.0687	-2.9083	-3.3812	-3.0125	-3.0979	-3.4792	-3.0667	-3.1458	-3.2271	-3	-3.2354	-3.0979	-3.0021	-3.2021	-2.9646	402.626	473.753	294.909	499.281	287.470	179.835	446.192	450.327	368.699	348.769	464.250	467.111	183.652	473.757	251.066	218.423	0.00053705	0.00072656	0.00015814	1403.7	6.8642e-06	2.4305e-06	1395.6	376.95	1.4313e-06	7.4653e-06	428.06	142.16	124.42	42.711	1.4132e-06	52.562	0.00057177	0.00057406	0.00015786	1420.7	6.2477e-06	6.2415e-06	1417.9	384.06	6.3288e-06	6.2359e-06	436.41	145.71	127.05	43.858	6.2611e-06	54.075	191.639	211.196	192.400	161.506	258.919	255.700	161.430	165.971	271.226	333.926	165.702	169.471	170.257	174.901	189.704	174.335	-8191	255	
32067.631	1	1	0	0	0.088819	0.25374	0.21362	0.2626	0.16359	0.10185	0.25305	0.43522	0.24958	0.14405	0.23016	0.40725	0.27042	0.28387	0.1055	0.20644	-2.7333	-3.2083	-3.0396	-3.4375	-3.1458	-3.0458	-3.4062	-3.1417	-3.0104	-3.3354	-2.7771	-3.3042	-3.1437	-3.0563	-3.3083	-3.2	220.286	393.807	314.816	471.371	356.036	271.759	362.837	454.947	296.761	450.382	327.377	484.974	422.190	488.997	254.312	417.199	0.00053954	0.00062384	0.00018064	1408.3	8.0518e-06	4.262e-06	1397.2	376.73	7.0942e-06	8.0468e-06	428.19	142.37	124.2	42.701	2.6284e-06	52.398	0.00057694	0.00057681	0.00015942	1424.1	6.2851e-06	6.225e-06	1420.4	384.08	6.3139e-06	6.2988e-06	436.3	145.77	127.11	43.927	6.2554e-06	54.106	192.693	216.942	242.585	161.601	280.168	284.025	161.592	166.148	242.018	352.264	165.877	169.780	170.352	175.042	268.710	174.361	-8191	255	
32067.703	1	1	0	0	0.19501	0.10892	0.18467	0.25043	0.049934	0.10075	0.066434	0.23524	0.066928	0.12658	0.15901	0.14627	0.1827	0.17904	0.35652	0.20187	-2.5229	-3.3812	-3.0625	-3.4479	-3.2896	-2.9583	-3.3021	-3.2229	-2.9625	-3.2833	-3.0771	-3.2708	-3.1937	-2.9771	-3.1562	-2.9875	439.132	436.426	189.144	429.440	451.967	264.733	335.788	493.146	259.246	443.936	440.312	471.465	502.868	458.099	479.757	455.222	0.00055349	0.00038087	0.00016363	1404.9	3.5668e-06	4.0435e-06	1398.4	377.74	5.5848e-06	2.0481e-06	429.94	142.85	124.11	42.97	5.1289e-06	52.742	0.00057073	0.0005717	0.00015878	1424.8	6.2879e-06	6.242e-06	1420.3	384.09	6.2711e-06	6.2446e-06	437.53	145.84	127.19	43.932	6.2502e-06	54.151	188.038	274.374	218.138	161.748	279.179	327.219	161.631	166.199	247.646	250.973	165.735	169.742	170.323	175.248	265.146	174.197	-8191	255	
32067.824	1	1	0	0	0.13803	0.096013	0.1935	0.26657	0.29086	0.11744	0.11578	0.14926	0.16994	0.038013	0.064126	0.28477	0.19848	0.12605	0.2096	0.25081	-2.5938	-3.4188	-3.0021	-3.5583	-3.2562	-2.9646	-3.5396	-3.3812	-2.9208	-3.275	-3.0271	-3.1896	-3.3042	-2.8583	-3.1792	-2.9771	321.184	162.646	175.119	442.302	425.338	477.319	439.167	494.918	203.591	232.887	178.662	438.222	496.900	442.498	397.264	234.448	0.00057736	0.00033159	0.00017968	1406.6	5.6722e-06	4.2736e-06	1400.6	378.68	4.3242e-06	1.7797e-06	429.21	142.41	124.44	42.754	5.6972e-06	52.617	0.00057688	0.00056975	0.0001594	1423.8	6.2135e-06	6.2119e-06	1420.6	384.79	6.2075e-06	6.2354e-06	437.23	145.95	127.23	43.868	6.3149e-06	54.107	197.404	224.315	295.555	161.640	299.277	341.173	161.323	166.154	283.943	325.678	165.747	169.635	170.264	175.326	306.129	174.544	-8191	255	
32067.920	1	1	0	0	0.22982	0.21002	0.099236	0.42225	0.054975	0.0058295	0.27758	0.35569	0.21832	0.12265	0.2901	0.1419	0.18041	0.34036	0.075585	0.24816	-2.6458	-3.3083	-2.9521	-3.2979	-3.0729	-2.9104	-3.375	-3.4958	-2.9333	-3.2771	-3.1333	-3.0812	-3.3542	-2.9938	-3.15	-3.2292	148.542	254.483	310.946	471.876	427.720	216.681	458.892	491.832	412.963	456.562	469.492	377.882	196.534	485.220	435.093	321.096	0.00053542	0.00023809	0.00021372	1408.3	7.2459e-06	4.7022e-06	1395.8	376.91	2.1568e-06	5.2823e-06	427.49	143	125.22	42.688	4.6913e-06	52.566	0.00057149	0.00057146	0.00016023	1425.4	6.2693e-06	6.2531e-06	1420.8	384.68	6.227e-06	6.2941e-06	436.85	146.11	127.46	43.976	6.2738e-06	54.144	194.115	250.604	289.718	161.766	255.359	332.440	161.334	166.057	275.498	310.795	165.770	169.674	170.017	174.881	316.324	174.361	-8191	255	
32068.014	1	1	0	0	0.18994	0.08801	0.13776	0.28274	0.13002	0.21581	0.26171	0.36487	0.22275	0.063264	0.17443	0.15392	0.35047	0.22768	0.32313	0.21809	-2.525	-3.2833	-3.0167	-3.15	-3.3417	-2.875	-3.4708	-3.35	-3.0021	-3.3354	-3.1875	-3.15	-3.4375	-3.0979	-3.0438	-3.4	159.151	444.119	207.384	507.058	282.307	240.736	431.531	435.407	229.190	322.575	160.319	354.947	374.441	457.202	371.931	167.185	0.00055134	0.00044196	0.00018449	1414	4.298e-06	6.0077e-06	1398.7	378.95	5.4964e-06	7.4778e-06	427.97	142.65	124.59	42.784	4.9274e-06	52.491	0.00057498	0.000574	0.00016078	1428.5	6.2557e-06	6.2447e-06	1423.7	385.48	6.2931e-06	6.2618e-06	437.99	145.99	127.35	43.959	6.2016e-06	54.115	195.570	184.892	231.861	161.570	268.537	335.539	161.362	166.018	281.262	335.740	165.728	169.777	170.525	175.263	223.705	174.401	-8191	255	
32068.109	1	1	0	0	0.35696	0.35611	0.17854	0.43155	0.046578	0.098457	0.23922	0.20786	0.13722	0.20592	0.23074	0.46347	0.13599	0.10273	0.13241	0.14434	-2.4167	-3.1292	-3.0604	-3.1354	-3.4625	-3.0021	-3.3583	-3.4167	-2.8271	-3.1833	-3.2854	-3.0479	-3.3667	-3.0917	-3.0625	-3.3125	436.715	156.736	448.615	497.955	447.333	404.488	475.733	433.730	476.447	347.029	505.348	484.048	458.551	215.657	365.601	453.601	0.00060398	0.00027456	2.0911e-05	1407.3	8.3041e-06	1.1166e-05	1401.9	379.85	6.7999e-06	2.8374e-06	428.8	142.89	125.1	42.733	5.8958e-06	52.708	0.00056978	0.00057495	0.00015993	1427.6	6.2543e-06	6.275e-06	1424.1	385.51	6.2791e-06	6.3117e-06	438.2	146.05	127.54	43.999	6.2461e-06	54.257	192.715	229.670	211.437	161.717	296.915	245.133	161.559	166.024	277.097	298.171	165.729	169.917	170.337	175.026	252.714	174.305	-8191	255	
32068.230	1	1	0	0	0.11682	0.037605	0.20804	0.23177	0.045711	0.14706	0.14239	0.31451	0.054446	0.11913	0.050657	0.16185	0.05871	0.057011	0.10304	0.35282	-2.4938	-3.2292	-3.1979	-3.2042	-3.2271	-2.9479	-3.3083	-3.5229	-2.8292	-3.2042	-3.4	-3.1333	-3.4	-3.2417	-2.8333	-3.4458	271.347	400.456	224.847	466.243	181.915	486.402	411.595	418.097	233.885	440.366	466.685	497.550	425.682	389.103	244.246	427.359	0.00054729	0.00063318	0.00013933	1410	8.6653e-06	8.178e-06	1404.7	378.07	3.6476e-06	4.6901e-06	430.59	143.17	124.83	42.771	5.6711e-06	52.892	0.0005715	0.0005757	0.00016083	1428.8	6.2516e-06	6.339e-06	1425.9	386.33	6.3058e-06	6.2524e-06	438.49	146.26	127.43	44.047	6.2511e-06	54.264	198.577	265.072	213.404	161.647	292.799	237.855	161.382	166.235	273.386	302.209	165.826	169.723	170.185	175.226	246.216	174.243	-8191	255	
32068.303	1	1	0	0	0.20243	0.022026	0.23523	0.41479	0.10342	0.14305	0.13522	0.14044	0.18853	0.056468	0.31009	0.166	0.21766	0.081433	0.10834	0.1957	-2.4667	-3.1833	-3.2375	-2.9688	-3.1417	-3.1188	-3.2396	-3.3333	-3.1125	-3.1646	-3.2854	-3.0167	-3.2042	-3.0208	-3.0792	-3.3229	331.384	388.843	493.039	485.045	320.647	474.449	353.042	485.883	162.730	363.378	431.648	490.587	150.106	401.151	398.216	493.957	0.00054729	0.00076004	0.00019717	1408.7	4.2981e-06	9.2578e-06	1405.6	379.23	4.0883e-06	4.8693e-06	430.01	143.44	124.51	42.776	4.1784e-06	52.801	0.00057644	0.00057821	0.00015984	1429.9	6.3276e-06	6.2634e-06	1428.1	385.85	6.2687e-06	6.2688e-06	439.74	146.36	127.43	44.041	6.2219e-06	54.291	190.696	190.648	235.251	161.698	249.056	309.678	161.336	166.147	250.086	273.764	165.730	169.955	170.224	174.987	277.131	174.215	-8191	255	
32068.398	1	1	0	0	0.15889	0.1889	0.08364	0.11431	0.25249	0.28823	0.2448	0.084481	0.27543	0.26561	0.21333	0.13328	0.30637	0.21819	0.022517	0.23296	-2.6875	-2.9146	-3.2021	-3.1583	-3.1604	-3.1979	-3.1292	-3.3854	-2.9521	-3.1375	-3.3083	-3.0375	-3.1292	-3.0042	-2.9562	-3.3625	306.828	362.203	284.154	507.064	394.664	221.068	404.515	471.281	215.463	354.759	426.691	488.221	159.721	168.617	388.918	427.999	0.00055909	0.0004001	0.00031614	1413.3	6.3833e-06	4.8622e-06	1404.7	379.21	4.4354e-06	5.1835e-06	430.31	142.67	125.37	42.681	6.8814e-06	52.749	0.00057601	0.00058378	0.0001597	1429.7	6.264e-06	6.2918e-06	1427.3	386.07	6.3474e-06	6.2498e-06	438.76	146.3	127.53	43.968	6.2007e-06	54.27	195.084	244.214	265.419	161.719	255.779	290.467	161.479	166.056	258.673	305.725	165.816	169.651	170.132	174.933	265.359	174.191	-8191	255	
32068.494	1	1	0	0	0.19846	0.082292	0.2746	0.25089	0.083571	0.080687	0.42214	0.21641	0.16485	0.068138	0.049494	0.16803	0.23148	0.2568	0.010242	0.09764	-2.5917	-2.8812	-3.1458	-3.0917	-3.1479	-3.2375	-3.1521	-3.5833	-3.1771	-3.0521	-3.4271	-2.9458	-3.2104	-3.3833	-2.95	-3.15	220.558	367.292	318.320	164.552	148.803	394.664	482.053	302.209	399.770	226.295	184.860	421.859	458.210	375.277	232.950	160.067	0.00053953	0.00025533	0.0001589	1414.3	5.155e-06	5.6749e-06	1407.7	379.54	3.8375e-06	4.3129e-06	432.97	142.71	124.91	42.764	4.2957e-06	52.827	0.00057721	0.00056841	0.00015742	1431.8	6.3009e-06	6.2716e-06	1429.1	386.72	6.2689e-06	6.2944e-06	439.17	146.33	127.65	44.038	6.2091e-06	54.359	191.521	184.270	247.367	161.664	231.165	275.447	161.339	166.178	259.142	314.652	165.823	169.707	170.523	175.100	258.831	174.320	-8191	255	
32068.592	1	1	0	0	0.16708	0.27558	0.041394	0.078831	0.12442	0.18458	0.24355	0.19512	0.16731	0.1331	0.39479	0.34728	0.15654	0.11493	0.087314	0.30558	-2.6458	-3.0312	-3.3229	-3.1375	-2.9792	-3.15	-3.1229	-3.4708	-3.2062	-2.9021	-3.35	-3.2125	-3.1042	-3.5083	-2.9458	-3.2979	202.325	323.758	444.714	353.569	487.187	417.852	467.879	441.152	201.010	177.845	421.059	493.436	379.819	174.725	178.747	460.990	0.00057544	0.00051698	0.00012935	1415	5.0056e-06	6.5669e-06	1405.7	379.77	6.8041e-06	3.288e-06	429.77	143.23	124.84	42.78	2.074e-06	52.733	0.00057887	0.00057131	0.00015966	1431.4	6.267e-06	6.2291e-06	1428.3	386.34	6.2621e-06	6.2848e-06	439.51	146.27	127.7	43.972	6.3017e-06	54.368	187.220	238.289	248.636	161.776	312.974	353.673	161.477	166.185	299.737	236.051	165.645	169.903	170.137	174.892	330.560	174.437	-8191	255	
32068.713	1	1	0	0	0.104	0.31361	0.079737	0.098857	0.17472	0.28795	0.2262	0.32056	0.044253	0.15476	0.39699	0.13109	0.1644	0.1831	0.16623	0.17372	-2.6583	-2.8125	-3.1708	-3.2667	-3.1708	-3.2687	-3.3875	-3.2458	-3.2625	-2.9688	-3.2729	-3.2188	-3.0687	-3.3958	-2.9604	-3.1333	209.896	429.437	174.974	493.914	361.178	400.571	359.038	482.832	334.631	172.594	502.172	372.707	490.570	209.020	303.768	463.317	0.00054478	0.00042218	7.2234e-05	1413.4	3.6714e-06	4.0047e-06	1406.9	380.7	3.7889e-06	3.397e-06	431.65	142.62	125.73	42.708	7.713e-06	52.932	0.00057479	0.00056705	0.00015789	1433.1	6.2849e-06	6.2466e-06	1431.3	387.07	6.2396e-06	6.2787e-06	439.58	146.26	128.05	44.039	6.2943e-06	54.409	194.766	207.932	257.305	161.850	281.573	309.849	161.361	166.094	280.354	300.150	165.539	169.905	170.413	175.055	277.582	174.242	-8191	255	
32068.809	1	1	0	0	0.1587	0.066167	0.27995	0.069833	0.033305	0.26391	0.24691	0.27653	0.13789	0.19925	0.041424	0.072461	0.11269	0.12158	0.20156	0.12799	-2.6979	-2.9646	-3.1354	-3.2875	-2.9583	-3.3271	-3.4167	-3.3417	-3.1125	-2.9271	-3.3563	-3.2833	-2.9333	-3.3583	-2.8375	-3.2604	250.759	415.008	196.786	403.076	162.099	470.260	447.972	424.529	404.196	507.068	447.488	159.444	301.671	160.270	171.030	429.676	0.00057243	0.00045666	0.00010935	1415.3	9.0429e-06	7.8064e-06	1404.7	380.04	7.5602e-06	6.1225e-06	432.69	143.44	124.69	42.957	1.7507e-06	52.831	0.00057064	0.00057597	0.0001591	1433.4	6.2428e-06	6.218e-06	1430.1	386.7	6.2173e-06	6.2201e-06	439.49	146.57	127.62	44.073	6.2442e-06	54.37	194.751	197.170	286.550	161.592	297.278	241.609	161.549	166.158	238.405	318.587	165.598	169.760	170.137	175.110	180.324	174.729	-8191	255	
32068.904	1	1	0	0	0.1387	0.18568	0.042379	0.21997	0.17901	0.17971	0.2834	0.41632	0.14852	0.10694	0.15642	0.086919	0.024879	0.10952	0.29128	0.018503	-2.7875	-2.9583	-3.0875	-3.3667	-2.8375	-3.3312	-3.3625	-3.3667	-3.3417	-2.7958	-3.3063	-3.2188	-3.1562	-3.1792	-3.0917	-3.125	438.051	273.769	302.533	494.161	404.143	312.648	427.218	161.075	249.127	386.535	505.091	426.092	476.861	167.307	368.841	404.284	0.00052529	0.00032169	0.00013594	1417.6	9.6647e-07	5.5756e-06	1411	379.38	5.2224e-06	6.4746e-06	431.51	143.33	125.15	42.913	2.6336e-06	52.75	0.00057135	0.0005699	0.00015815	1433.8	6.1982e-06	6.2789e-06	1431.8	387.16	6.2356e-06	6.2462e-06	439.51	146.42	127.77	44.115	6.3317e-06	54.306	190.928	214.368	265.153	161.648	304.955	328.429	161.297	166.158	285.281	272.529	165.667	169.449	170.375	175.038	266.720	174.672	-8191	255	
32069.000	1	1	0	0	0.032691	0.074089	0.033035	0.14957	0.047515	0.1288	0.44946	0.20516	0.18034	0.14813	0.22255	0.20921	0.24324	0.077085	0.11349	0.18506	-2.7729	-2.775	-3.0667	-3.2667	-3.0083	-3.2542	-3.1917	-3.1125	-3.3333	-2.9854	-3.3167	-3.4604	-2.9354	-3.4979	-3.2083	-3.0375	297.024	246.482	203.763	487.841	475.851	414.326	436.574	181.695	217.296	299.468	194.454	423.162	431.983	354.863	155.339	483.808	0.0005944	0.00051733	0.00014022	1413.1	4.8082e-06	7.9678e-06	1406.4	378.83	4.1672e-06	5.9736e-06	431.19	143.63	124.69	42.908	2.4283e-06	52.698	0.00056927	0.0005759	0.00016018	1433.3	6.2406e-06	6.268e-06	1431.2	386.55	6.2157e-06	6.2523e-06	439.8	146.37	127.51	44.033	6.2402e-06	54.241	191.696	229.358	261.529	161.726	307.570	300.944	161.398	166.196	266.166	315.283	165.685	169.591	170.303	175.056	307.870	174.251	-8191	255	
32069.096	1	1	0	0	0.43383	0.15324	0.1266	0.10673	0.12242	0.090513	0.23686	0.24655	0.14276	0.26751	0.12159	0.13793	0.24152	0.42664	0.089415	0.034228	-2.9271	-2.8812	-3.1146	-3.3167	-2.9375	-3.3271	-3.3937	-3.0375	-3.3146	-3.0938	-3.2396	-3.45	-2.9625	-3.2625	-3.1417	-3.2208	318.271	497.240	407.255	484.801	242.800	221.548	412.256	150.391	411.067	477.732	298.876	187.035	170.827	419.822	321.601	433.711	0.00055867	0.00023917	5.5162e-05	1416.9	5.4729e-06	8.2607e-06	1411.6	378.47	5.0771e-06	4.8367e-06	432.53	143	125.49	42.986	4.5386e-06	52.748	0.00056774	0.00057378	0.00015936	1432.6	6.2308e-06	6.2642e-06	1429.4	386.34	6.2645e-06	6.2644e-06	440.01	146.21	127.59	44.01	6.2723e-06	54.332	193.612	179.883	202.884	161.629	261.511	315.475	161.528	166.189	290.292	281.774	165.630	169.738	170.515	175.051	277.758	174.242	-8191	255	
32069.191	1	1	0	0	0.20256	0.060434	0.11681	0.35591	0.22086	0.050898	0.12241	0.20381	0.29797	0.068628	0.10498	0.23196	0.24339	0.23625	0.010712	0.068324	-2.9396	-2.8854	-3.1292	-3.4313	-2.9	-3.3583	-3.1708	-3.1917	-3.3833	-3.0333	-3.0542	-3.3583	-3.1125	-3.2667	-3.475	-3.0312	422.009	391.189	468.401	448.042	306.118	250.813	496.729	506.671	350.384	195.016	470.489	450.151	448.139	424.825	229.421	211.512	0.00057537	0.00042967	0.00020302	1414.1	6.1502e-06	4.1753e-06	1405.3	380.08	3.6202e-06	6.2828e-06	432.35	143.05	125.24	42.905	5.2833e-07	52.709	0.00057363	0.00057283	0.00016096	1431.7	6.2194e-06	6.2806e-06	1429.7	386.59	6.2282e-06	6.3119e-06	439.47	146.06	127.55	44.04	6.2552e-06	54.167	193.326	192.992	246.265	161.656	276.120	315.872	161.370	166.123	248.054	268.648	165.663	169.821	170.301	174.960	464.361	174.298	-8191	255	
32069.311	1	1	0	0	0.10571	0.12593	0.11948	0.32075	0.18166	0.14638	0.013912	0.11056	0.1401	0.19846	0.016638	0.21551	0.25256	0.18772	0.14401	0.17466	-2.8583	-3.1375	-3.0687	-3.5083	-2.9792	-3.1417	-3.3125	-2.9083	-3.25	-3.1771	-3.1625	-3.2917	-3.2479	-3.1937	-3.0625	-3.0292	390.852	364.515	245.542	458.178	491.990	217.737	158.475	164.636	485.300	375.648	369.800	467.513	505.958	470.879	344.971	360.780	0.00057703	0.00042108	0.00012941	1415.5	2.6744e-06	6.8803e-06	1411.2	380.21	6.7547e-06	5.6769e-06	431.67	142.88	125.15	42.865	6.6065e-06	52.709	0.00057043	0.00057322	0.00015828	1434.8	6.2279e-06	6.2115e-06	1430.4	386.63	6.2379e-06	6.2691e-06	439.7	146.18	127.55	44	6.2565e-06	54.192	193.790	207.429	243.100	161.756	272.106	259.670	161.460	166.146	277.540	284.048	165.699	169.801	170.392	174.981	245.332	174.227	-8191	255	
32069.406	1	1	0	0	0.12706	0.16954	0.073811	0.14408	0.18772	0.12116	0.19956	0.052219	0.14323	0.18337	0.10019	0.22298	0.10482	0.27548	0.019789	0.16256	-2.7792	-2.9646	-2.8042	-3.4729	-2.9354	-3.3417	-3.3479	-3.0625	-3.2687	-3.2792	-3.2021	-3.3125	-3.2375	-3.1042	-3.3354	-2.9875	156.562	175.818	277.736	148.477	456.346	214.699	428.828	394.890	252.404	483.932	334.912	434.707	197.652	480.099	434.092	492.821	0.0005235	0.00043573	0.00020194	1413	4.4295e-06	2.5987e-06	1403.6	378.74	8.1182e-06	3.548e-06	430.99	142.02	123.78	42.821	4.5091e-06	52.613	0.00057135	0.00057433	0.00015854	1432.2	6.2581e-06	6.2317e-06	1428.4	385.73	6.1957e-06	6.2894e-06	438.67	145.84	127.24	43.993	6.2085e-06	54.175	187.468	241.103	228.026	161.611	326.829	365.664	161.417	166.109	266.680	289.872	165.634	169.736	170.231	175.071	273.882	174.236	-8191	255	
32069.504	1	1	0	0	0.17298	0.21422	0.25612	0.051176	0.18255	0.06946	0.21567	0.24927	0.17913	0.2151	0.0094245	0.1142	0.21325	0.074794	0.1889	0.14642	-2.7896	-3.1688	-2.9188	-3.3875	-3.0812	-3.1354	-3.5646	-3.0979	-3.2292	-3.2458	-3.0479	-3.3563	-3.2229	-3.1604	-3.2458	-2.9896	304.731	178.574	353.231	423.189	278.923	492.612	441.630	439.483	320.014	233.683	457.696	506.366	211.830	167.822	212.394	444.817	0.00054177	0.00047205	0.00011162	1408.7	4.8964e-06	5.1355e-06	1399.8	380.47	4.9129e-06	4.1401e-06	429.8	142.19	125	42.848	2.9086e-06	52.52	0.00056895	0.00057493	0.00015817	1429.9	6.2677e-06	6.2596e-06	1427.7	386.13	6.2383e-06	6.3041e-06	438.07	145.69	127.45	43.927	6.164e-06	54.176	197.124	270.670	258.135	161.813	326.076	268.778	161.448	166.093	234.141	328.567	165.727	169.912	170.056	175.130	275.971	174.175	-8191	255	
32069.600	1	1	0	0	0.10436	0.10167	0.19336	0.062276	0.03261	0.19316	0.23078	0.20108	0.14505	0.10774	0.18455	0.14472	0.15296	0.26218	0.27826	0.24147	-2.7625	-3.125	-2.9688	-3.4313	-3.1479	-3.0312	-3.4646	-3.1771	-3.0042	-3.3458	-3.0021	-3.3542	-3.0479	-3.0417	-3.2958	-3.2833	203.195	359.345	329.874	440.333	417.846	294.387	437.163	418.738	282.678	226.488	384.994	454.259	402.363	161.577	383.586	205.520	0.00060099	0.00080791	7.9911e-05	1410.2	6.1713e-06	8.3788e-06	1404.8	379.07	7.6614e-06	8.0756e-06	430.46	142.9	125.03	42.956	4.3457e-06	52.751	0.00057366	0.00057109	0.00015775	1429.8	6.2117e-06	6.2337e-06	1427.5	385.8	6.2438e-06	6.2782e-06	438.84	145.94	127.4	43.953	6.2802e-06	54.158	191.380	218.174	304.641	161.651	297.885	303.520	161.499	166.093	238.463	329.219	165.662	169.667	170.223	175.121	322.305	174.200	-8191	255	
#DATA ENDS
