BOXY.EXE: ISS Imagent and Oximeter Data Acquisition Program Version 0.80
Ascii Record File

#ACQ INFORMATION
2  Detector Channels 
16  External MUX Channels 
1  Auxiliary Channels 
5000  Waveform (CCF) Frequency (Hz)
1  Waveforms Skipped 
30  Waveforms Averaged 
1  Cycles Averaged 
16  Acquisitions per Waveform 
10.0806  Updata Rate (Hz) 

#FILE INFORMATION
TRUE -- External MUX Channel results are PARSED.
FALSE -- AC DC and Phase are NOT grouped.
TRUE -- Companion Program Settings File CREATED.
FALSE -- AC data not excluded
FALSE -- DC data not excluded
FALSE -- Phase data not excluded
FALSE -- Auxillary Chn. data not excluded
Tab delimiters

#CALIBRATION STATE
TRUE -- Waveform Calibration Values APPLIED.


#AUX CALIBRATION VALUES
Val Type	aux-1	

Term	1.0000e+00	
Factor	0.0000e+00	


#WF CALIBRATION VALUES
A = Detector Channel
Val Type	A-AC1	A-AC2	A-AC3	A-AC4	A-AC5	A-AC6	A-AC7	A-AC8	A-AC9	A-AC10	A-AC11	A-AC12	A-AC13	A-AC14	A-AC15	A-AC16	A-DC1	A-DC2	A-DC3	A-DC4	A-DC5	A-DC6	A-DC7	A-DC8	A-DC9	A-DC10	A-DC11	A-DC12	A-DC13	A-DC14	A-DC15	A-DC16	A-Ph1	A-Ph2	A-Ph3	A-Ph4	A-Ph5	A-Ph6	A-Ph7	A-Ph8	A-Ph9	A-Ph10	A-Ph11	A-Ph12	A-Ph13	A-Ph14	A-Ph15	A-Ph16	

Term	0.00000e+00	0.00000e+00	0.00000e+00	0.00000e+00	0.00000e+00	0.00000e+00	0.00000e+00	0.00000e+00	0.00000e+00	0.00000e+00	0.00000e+00	0.00000e+00	0.00000e+00	0.00000e+00	0.00000e+00	0.00000e+00	0.00000e+00	0.00000e+00	0.00000e+00	0.00000e+00	0.00000e+00	0.00000e+00	0.00000e+00	0.00000e+00	0.00000e+00	0.00000e+00	0.00000e+00	0.00000e+00	0.00000e+00	0.00000e+00	0.00000e+00	0.00000e+00	0.00000e+00	0.00000e+00	0.00000e+00	0.00000e+00	0.00000e+00	0.00000e+00	0.00000e+00	0.00000e+00	0.00000e+00	0.00000e+00	0.00000e+00	0.00000e+00	0.00000e+00	0.00000e+00	0.00000e+00	0.00000e+00	
Factor	1.00000e+00	1.00000e+00	1.00000e+00	1.00000e+00	1.00000e+00	1.00000e+00	1.00000e+00	1.00000e+00	1.00000e+00	1.00000e+00	1.00000e+00	1.00000e+00	1.00000e+00	1.00000e+00	1.00000e+00	1.00000e+00	1.00000e+00	1.00000e+00	1.00000e+00	1.00000e+00	1.00000e+00	1.00000e+00	1.00000e+00	1.00000e+00	1.00000e+00	1.00000e+00	1.00000e+00	1.00000e+00	1.00000e+00	1.00000e+00	1.00000e+00	1.00000e+00	X	X	X	X	X	X	X	X	X	X	X	X	X	X	X	X	

B = Detector Channel
Val Type	B-AC1	B-AC2	B-AC3	B-AC4	B-AC5	B-AC6	B-AC7	B-AC8	B-AC9	B-AC10	B-AC11	B-AC12	B-AC13	B-AC14	B-AC15	B-AC16	B-DC1	B-DC2	B-DC3	B-DC4	B-DC5	B-DC6	B-DC7	B-DC8	B-DC9	B-DC10	B-DC11	B-DC12	B-DC13	B-DC14	B-DC15	B-DC16	B-Ph1	B-Ph2	B-Ph3	B-Ph4	B-Ph5	B-Ph6	B-Ph7	B-Ph8	B-Ph9	B-Ph10	B-Ph11	B-Ph12	B-Ph13	B-Ph14	B-Ph15	B-Ph16	

Term	0.00000e+00	0.00000e+00	0.00000e+00	0.00000e+00	0.00000e+00	0.00000e+00	0.00000e+00	0.00000e+00	0.00000e+00	0.00000e+00	0.00000e+00	0.00000e+00	0.00000e+00	0.00000e+00	0.00000e+00	0.00000e+00	0.00000e+00	0.00000e+00	0.00000e+00	0.00000e+00	0.00000e+00	0.00000e+00	0.00000e+00	0.00000e+00	0.00000e+00	0.00000e+00	0.00000e+00	0.00000e+00	0.00000e+00	0.00000e+00	0.00000e+00	0.00000e+00	-1.56410e+02	-1.27925e+02	-1.23922e+02	-1.82673e+02	-7.57512e+01	-6.11924e+01	-1.55323e+02	-1.62015e+02	-8.33286e+01	-6.57451e+01	-1.72119e+02	-1.69838e+02	-1.79785e+02	-1.77170e+02	-7.38895e+01	-1.49034e+02	
Factor	2.27176e-05	1.55070e-04	4.33590e-05	1.76889e-01	1.36821e-06	1.78199e-06	1.63072e-01	4.85717e-02	1.34987e-06	1.70672e-06	9.20508e-02	2.79817e-02	2.79836e-02	8.82360e-03	1.44751e-06	1.26394e-02	1.41485e-05	2.59860e-05	7.31483e-06	8.80964e-02	2.56862e-07	2.96358e-07	7.67068e-02	2.43435e-02	2.54028e-07	2.93281e-07	4.48789e-02	1.37183e-02	1.41984e-02	4.46541e-03	2.69071e-07	6.22161e-03	X	X	X	X	X	X	X	X	X	X	X	X	X	X	X	X	



#DISTANCE SETTINGS
A = Detector Channel
A-1	A-2	A-3	A-4	A-5	A-6	A-7	A-8	A-9	A-10	A-11	A-12	A-13	A-14	A-15	A-16	

2.5000e+00	3.0000e+00	2.5000e+00	3.0000e+00	2.0000e+00	3.0000e+00	1.5000e+00	3.0000e+00	3.0000e+00	3.0000e+00	3.0000e+00	3.0000e+00	3.0000e+00	3.0000e+00	1.5000e+00	3.0000e+00	

B = Detector Channel
B-1	B-2	B-3	B-4	B-5	B-6	B-7	B-8	B-9	B-10	B-11	B-12	B-13	B-14	B-15	B-16	

1.0000e+01	1.0000e+01	1.0000e+01	1.4400e+00	1.0000e+01	1.0000e+01	1.5100e+00	1.9400e+00	1.0000e+01	1.0000e+01	1.9900e+00	2.4900e+00	2.4100e+00	2.9000e+00	1.0000e+01	2.9800e+00	




#DATA BEGINS
time	group	step	mark	flag	A-AC1	A-AC2	A-AC3	A-AC4	A-AC5	A-AC6	A-AC7	A-AC8	A-AC9	A-AC10	A-AC11	A-AC12	A-AC13	A-AC14	A-AC15	A-AC16	A-DC1	A-DC2	A-DC3	A-DC4	A-DC5	A-DC6	A-DC7	A-DC8	A-DC9	A-DC10	A-DC11	A-DC12	A-DC13	A-DC14	A-DC15	A-DC16	A-Ph1	A-Ph2	A-Ph3	A-Ph4	A-Ph5	A-Ph6	A-Ph7	A-Ph8	A-Ph9	A-Ph10	A-Ph11	A-Ph12	A-Ph13	A-Ph14	A-Ph15	A-Ph16	B-AC1	B-AC2	B-AC3	B-AC4	B-AC5	B-AC6	B-AC7	B-AC8	B-AC9	B-AC10	B-AC11	B-AC12	B-AC13	B-AC14	B-AC15	B-AC16	B-DC1	B-DC2	B-DC3	B-DC4	B-DC5	B-DC6	B-DC7	B-DC8	B-DC9	B-DC10	B-DC11	B-DC12	B-DC13	B-DC14	B-DC15	B-DC16	B-Ph1	B-Ph2	B-Ph3	B-Ph4	B-Ph5	B-Ph6	B-Ph7	B-Ph8	B-Ph9	B-Ph10	B-Ph11	B-Ph12	B-Ph13	B-Ph14	B-Ph15	B-Ph16	aux-1	digaux	

25727.941	1	1	0	256	0.24232	0.14902	0.21702	0.1007	0.1275	0.16996	0.24397	0.075656	0.22884	0.16833	0.076273	0.27225	0.18286	0.20802	0.15922	0.28897	-2.5333	-2.9792	-2.6688	-3.1063	-2.9354	-2.7667	-3.1458	-2.925	-3.0729	-3.275	-2.6688	-3.175	-2.8812	-2.9604	-3.1979	-2.9938	96.441	280.352	-56.069	211.891	78.625	232.164	238.434	260.389	-17.382	268.720	30.528	200.661	284.604	199.927	293.480	239.447	0.00018492	0.00034549	0.00011188	703.43	2.9647e-06	3.7743e-06	627.18	210.72	2.518e-06	3.5407e-06	218.99	85.998	75.324	38.429	2.0344e-06	45.756	0.00025927	0.0001845	8.1499e-05	684.92	2.262e-06	2.0788e-06	609.55	206.53	2.1984e-06	1.866e-06	213.52	84.744	74.479	37.98	2.0169e-06	45.226	134.825	32.069	21.762	-48.668	84.052	74.325	-49.888	-43.523	66.418	90.971	-46.134	-42.353	-39.091	-34.913	95.405	-38.500	-8191	255	
25728.037	1	1	0	0	0.14444	0.21342	0.40084	0.18287	0.06307	0.23435	0.26148	0.16113	0.10642	0.12988	0.14259	0.21884	0.09259	0.14447	0.083301	0.2644	-2.4646	-3.2354	-2.6667	-2.9646	-3.0125	-2.6833	-3.1979	-2.8583	-2.9062	-2.9	-2.7667	-3.0417	-3.1042	-2.825	-3.075	-2.9604	93.949	246.308	164.150	285.200	-0.509	30.335	196.079	179.903	110.246	141.799	201.186	-55.045	229.802	-40.534	67.933	253.184	0.00016758	0.00025994	0.00010738	702.45	2.2939e-06	4.0558e-06	625.01	208.07	1.9263e-06	3.3247e-06	215.07	83.683	73.03	36.805	2.2743e-06	44.35	0.00025193	0.00016436	7.612e-05	682.05	2.0683e-06	2.0307e-06	607.67	203.47	2.4355e-06	1.8306e-06	209.63	82.542	72.466	36.65	2.1784e-06	43.741	132.586	24.278	25.865	-48.492	68.882	89.004	-50.168	-43.658	66.865	85.676	-46.388	-42.115	-39.538	-34.777	91.427	-38.324	-8191	255	
25728.133	1	1	0	0	0.1449	0.18895	0.15051	0.22051	0.14609	0.25806	0.11536	0.21413	0.085584	0.11595	0.15093	0.14842	0.077068	0.11928	0.11579	0.037272	-2.3375	-2.9958	-2.8604	-3.1333	-2.9896	-2.8042	-3.2042	-3.0062	-2.8854	-3.1604	-2.7292	-3.0438	-3.0292	-2.8292	-3.1958	-2.9854	-21.524	295.142	-12.049	-59.278	122.145	23.335	243.993	245.392	292.189	47.921	202.132	117.505	-51.530	294.422	-45.456	167.509	0.00017454	0.00037769	8.6247e-05	697.14	2.5764e-06	3.3356e-06	624.34	206.85	1.7264e-06	3.5338e-06	211.99	83.363	72.383	36.602	2.3367e-06	44.05	0.00025441	0.00017346	7.4398e-05	678.54	1.9457e-06	1.8535e-06	606.31	201.68	2.7604e-06	1.8306e-06	207.87	82.079	71.562	36.331	2.1896e-06	43.495	131.015	16.144	23.915	-48.705	118.335	86.051	-50.304	-43.570	96.069	90.881	-46.396	-42.292	-39.090	-34.785	76.064	-38.604	-8191	255	
25728.254	1	1	0	0	0.11854	0.033831	0.37078	0.095374	0.11203	0.25989	0.1391	0.177	0.12842	0.19861	0.074225	0.20555	0.20316	0.12522	0.094963	0.1808	-2.4333	-2.9917	-2.9646	-2.9625	-3.125	-2.675	-3.1625	-2.9625	-2.8167	-3.1417	-2.95	-3.0958	-3.1125	-2.6292	-3.1646	-3.0167	9.497	-46.304	-13.563	202.960	199.775	-26.689	273.877	248.706	147.147	24.587	229.958	295.658	123.522	207.950	97.001	-36.390	0.0001509	0.00035528	8.4758e-05	689.85	2.3948e-06	3.3608e-06	613.98	202.94	2.1582e-06	3.1351e-06	209.54	81.81	71.698	36.638	2.6351e-06	44.714	0.00024238	0.00016696	7.3285e-05	672.21	1.9233e-06	2.014e-06	597.5	198.07	3.1193e-06	1.7927e-06	204.06	80.924	70.802	36.228	2.2226e-06	43.949	136.358	17.311	20.016	-48.711	93.867	85.586	-49.857	-44.100	58.032	109.392	-46.366	-42.104	-39.424	-34.995	88.326	-38.789	-8191	255	
25728.348	1	1	0	0	0.11923	0.10271	0.06811	0.15354	0.056079	0.21595	0.13564	0.15982	0.23438	0.088995	0.096389	0.0033557	0.14349	0.25117	0.101	0.019158	-2.4792	-3.2042	-3.0187	-3.0604	-3.1417	-2.7354	-2.925	-2.9896	-2.7208	-3.2854	-2.7458	-2.9938	-3.1208	-2.8667	-3.0229	-3.2229	154.678	224.039	115.693	265.373	167.120	91.792	223.022	245.207	143.980	260.986	178.418	23.703	290.602	262.037	-10.702	-52.606	0.00016454	0.00035646	0.00012424	690.34	2.2524e-06	3.2864e-06	612.12	202.64	2.0302e-06	2.745e-06	210.47	83.057	72.469	36.897	2.2597e-06	44.937	0.00024562	0.00017124	6.5315e-05	669.26	1.8885e-06	1.9306e-06	597.21	198.37	2.8419e-06	1.8996e-06	205.63	82.015	71.308	36.593	2.2159e-06	44.296	132.815	16.336	23.842	-48.628	66.733	96.856	-49.908	-43.839	80.808	103.016	-46.621	-42.057	-39.629	-35.059	107.302	-38.478	-8191	255	
25728.445	1	1	0	0	0.15685	0.19692	0.26865	0.10098	0.14164	0.028691	0.16503	0.13557	0.12231	0.1595	0.20327	0.3076	0.1827	0.14648	0.16246	0.094281	-2.3854	-3.2208	-3.0583	-2.9896	-3.1312	-2.6312	-3.0938	-3.1667	-2.8	-3.0229	-3.175	-2.8708	-3.2167	-2.8688	-2.9979	-3.1979	296.428	263.798	200.982	-42.378	41.677	73.647	193.587	108.750	19.026	-59.339	133.043	229.200	216.613	-61.225	-43.990	218.513	0.00017906	0.00030938	0.00012563	690.13	2.5735e-06	3.3814e-06	613.45	204.79	2.2658e-06	3.6006e-06	211.28	84.022	72.877	37.408	1.7201e-06	45.795	0.00024356	0.00016691	5.1951e-05	670.82	2.0089e-06	1.9399e-06	597.61	199.92	2.9547e-06	1.8568e-06	206.24	82.67	71.821	36.927	2.2854e-06	44.895	137.152	12.901	25.175	-48.826	111.230	106.755	-50.083	-43.993	74.235	82.003	-46.208	-42.217	-39.301	-35.136	100.982	-38.560	-8191	255	
25728.543	1	1	0	0	0.1611	0.16201	0.39737	0.14372	0.34261	0.22277	0.18516	0.21656	0.29853	0.011713	0.3116	0.23642	0.22512	0.17383	0.16294	0.11516	-2.1875	-2.9313	-2.8812	-2.8563	-3.2458	-2.9896	-3.0583	-3.0646	-2.7625	-3.2229	-2.85	-2.9125	-3.0417	-2.9	-2.85	-3.1625	57.352	-0.260	228.141	182.006	285.682	111.906	250.536	208.818	197.387	-42.573	214.188	-11.606	297.065	280.377	78.208	34.988	0.00015434	0.00041722	8.3979e-05	687.43	2.1838e-06	4.3149e-06	613.27	204.57	1.5775e-06	3.4154e-06	212.8	85.151	73.62	37.927	1.5577e-06	46.205	0.00025246	0.00018824	4.6556e-05	669.75	1.9291e-06	1.9881e-06	598.19	200.2	2.7551e-06	1.9882e-06	208.08	83.949	72.952	37.571	2.4682e-06	45.583	134.789	33.485	26.414	-48.959	89.787	94.393	-49.790	-43.974	90.939	83.814	-46.214	-42.065	-39.179	-35.404	102.178	-38.462	-8191	255	
25728.637	1	1	0	0	0.099993	0.09088	0.11617	0.10795	0.12423	0.093346	0.079169	0.22708	0.14988	0.27492	0.083965	0.42955	0.16597	0.31442	0.10725	0.14246	-2.4521	-3.0375	-2.8167	-2.6146	-3.075	-2.9062	-2.975	-3.175	-2.75	-2.9875	-2.9813	-2.8354	-3.225	-3.0354	-2.9125	-3.2417	-23.379	-16.821	109.513	200.086	-13.557	177.620	238.692	256.938	151.788	-46.965	20.314	198.945	282.178	-39.491	10.910	172.217	0.00016095	0.00041549	0.00012042	685.47	2.1897e-06	3.2313e-06	614.43	203.86	2.2463e-06	3.3986e-06	213.12	85.253	73.438	37.918	1.6542e-06	46.309	0.00025438	0.00018353	5.2667e-05	667.39	1.9559e-06	1.8331e-06	596.44	200.09	3.1388e-06	1.8006e-06	207.89	84.061	72.922	37.634	2.8807e-06	45.611	136.878	26.826	38.368	-48.727	85.822	89.400	-49.706	-43.903	99.413	98.781	-46.194	-42.429	-39.235	-34.979	61.196	-38.602	-8191	255	
25728.732	1	1	0	0	0.0016999	0.18461	0.10999	0.028485	0.22865	0.20538	0.28648	0.022297	0.040112	0.33032	0.13071	0.21123	0.15032	0.16468	0.19913	0.10713	-2.3271	-2.9021	-2.9583	-2.8271	-3.2875	-2.9958	-2.975	-3.2125	-2.9917	-3.0208	-3.0583	-2.9021	-3.0958	-3.1104	-2.6542	-3.1396	180.000	277.671	10.820	20.472	280.809	34.667	263.493	244.894	124.523	-47.737	284.881	203.987	207.783	-21.336	93.014	199.240	0.00018689	0.0004137	9.9889e-05	684.53	2.4502e-06	3.0235e-06	610.44	203.89	1.61e-06	2.477e-06	214.2	85.947	74.195	38.424	2.1229e-06	46.789	0.00025488	0.00017205	4.9848e-05	666.06	2.118e-06	1.8405e-06	593.87	199.35	3.0859e-06	1.8446e-06	208.49	84.682	73.29	37.969	3.207e-06	46.158	129.140	31.171	27.355	-48.719	80.844	76.685	-50.108	-43.837	94.489	77.205	-46.191	-42.239	-39.886	-34.829	59.414	-38.684	-8191	255	
25728.854	1	1	0	0	0.10296	0.1712	0.033255	0.14737	0.070198	0.11678	0.17468	0.2014	0.23463	0.22257	0.012857	0.20736	0.080585	0.22871	0.20504	0.11456	-2.6708	-2.9	-3.0458	-2.8937	-3.1437	-3.1208	-2.8604	-3.2479	-2.8854	-2.9896	-3.3312	-2.8708	-3.2208	-3.1125	-2.6958	-3.2854	276.158	143.152	60.487	220.044	5.890	201.561	175.547	4.852	296.725	76.907	153.090	55.747	103.875	-54.457	170.137	266.529	0.00017324	0.00039851	0.00010406	686.45	2.7599e-06	2.9058e-06	613.11	203.64	2.0249e-06	2.7924e-06	214.84	86.827	75.163	38.581	2.6571e-06	47.256	0.00025927	0.00018997	4.9969e-05	664.42	2.0704e-06	1.7917e-06	594.2	200.13	2.6403e-06	2.3756e-06	209.71	85.552	73.907	38.179	3.1823e-06	46.519	133.813	24.352	46.202	-48.723	73.669	90.141	-50.056	-43.555	59.745	90.075	-45.929	-42.218	-39.190	-35.095	89.777	-38.614	-8191	255	
25728.949	1	1	0	0	0.29847	0.27945	0.15395	0.15391	0.042058	0.11304	0.13215	0.0617	0.2306	0.11562	0.20771	0.12405	0.17934	0.32381	0.13258	0.15975	-2.5854	-2.9167	-3.1583	-2.6208	-2.9667	-3.025	-2.9354	-3.2729	-2.9042	-2.7812	-3.1667	-2.7938	-2.9062	-3.125	-2.7229	-3.1604	274.538	119.572	229.224	-4.144	-55.715	116.576	121.578	144.992	106.737	-9.851	254.185	105.646	7.968	233.157	252.432	-58.528	0.00018437	0.00026038	8.7452e-05	675.8	2.6289e-06	3.3466e-06	605.46	203.85	1.3723e-06	4.8728e-06	214.77	86.471	74.834	38.411	2.4898e-06	46.957	0.00025659	0.0001832	5.0579e-05	661.57	2.1068e-06	2.0134e-06	592.6	200.05	2.2434e-06	2.8387e-06	209.02	84.996	73.756	38.118	3.2104e-06	46.377	138.498	33.000	40.435	-48.915	58.995	82.054	-49.999	-43.450	89.772	108.405	-46.494	-41.989	-39.622	-34.997	66.887	-38.202	-8191	255	
25729.047	1	1	0	0	0.11446	0.14676	0.063833	0.12387	0.12442	0.11189	0.23737	0.10564	0.19093	0.14978	0.082462	0.085674	0.1289	0.1378	0.10474	0.096791	-2.5271	-2.7604	-3.1625	-2.9125	-2.8563	-3.0958	-2.9396	-3.0729	-2.9479	-2.7562	-3.1042	-2.875	-3.0208	-3.2062	-2.9396	-3.2479	166.049	67.947	238.112	56.106	293.426	-60.238	-23.230	242.295	226.404	-32.952	184.291	140.623	-55.006	-46.259	231.904	242.614	0.00017297	0.0003935	8.285e-05	678.22	1.8654e-06	2.0574e-06	604	204.11	1.2204e-06	1.1886e-06	214.33	86.996	75.056	39.019	1.728e-06	48.008	0.00025373	0.00018401	4.9939e-05	658	2.0014e-06	1.8553e-06	587.92	199.25	2.0936e-06	3.0196e-06	209.04	85.642	74.04	38.652	3.1336e-06	47.156	134.805	25.619	52.664	-48.783	77.779	117.780	-50.011	-43.659	86.619	79.128	-46.054	-41.899	-39.488	-35.047	66.004	-38.581	-8191	255	
25729.143	1	1	0	0	0.087785	0.16456	0.23374	0.10198	0.14861	0.16346	0.14297	0.1333	0.223	0.079804	0.11686	0.037875	0.21411	0.48753	0.13251	0.10034	-2.5625	-2.6125	-3.2208	-2.9437	-2.7979	-3.0792	-2.9792	-3.1104	-2.9042	-2.8354	-3.2854	-2.8333	-2.8083	-3.1833	-2.8292	-3.0917	120.543	29.979	161.892	168.728	-42.916	139.895	237.992	-24.828	-26.116	-22.175	192.337	78.347	238.460	284.568	209.533	38.436	0.00017181	0.00034168	0.00010734	676.72	2.2941e-06	3.3307e-06	604.48	205.16	1.6672e-06	3.6846e-06	217.27	87.956	75.558	39.21	2.4867e-06	48.36	0.00025954	0.00018114	5.5547e-05	657.74	2.4418e-06	1.8529e-06	587.73	200.65	2.0576e-06	2.9951e-06	211.21	86.707	74.597	38.918	3.5007e-06	47.45	130.197	23.123	34.021	-48.689	72.436	75.244	-49.742	-43.632	67.062	79.921	-46.201	-42.319	-39.070	-35.022	67.188	-38.463	-8191	255	
25729.238	1	1	0	0	0.10236	0.17228	0.27563	0.089482	0.069582	0.084182	0.2617	0.13305	0.099657	0.089234	0.11555	0.22846	0.064982	0.1563	0.15769	0.18414	-2.3917	-2.7896	-3.0875	-3.0271	-2.7771	-3.2667	-2.7375	-2.9688	-3.1562	-2.7354	-3.025	-3.1083	-2.9646	-3.2687	-2.8729	-2.9292	108.862	294.482	181.738	-1.149	127.179	-56.022	237.013	282.740	-57.499	46.037	287.155	236.815	10.778	-37.153	-35.404	-34.746	0.00017494	0.00033172	0.00012008	677.68	3.0392e-06	2.8298e-06	611.33	205.72	2.6967e-06	3.0847e-06	218.11	88.988	75.797	39.298	2.8398e-06	48.408	0.00026001	0.00017914	5.2164e-05	660	3.0315e-06	1.888e-06	593.44	201.72	2.1476e-06	3.1118e-06	212.34	87.326	74.936	38.992	3.4279e-06	47.576	137.096	10.952	31.560	-48.817	84.910	115.388	-49.918	-43.722	90.535	104.030	-45.982	-42.537	-39.639	-35.256	100.342	-38.600	-8191	255	
25729.334	1	1	0	0	0.41771	0.11171	0.12199	0.097817	0.14248	0.099945	0.12579	0.14299	0.083127	0.24801	0.083726	0.15756	0.14098	0.20802	0.16267	0.16969	-2.8458	-2.8458	-3.0896	-3.0104	-2.8979	-3.2458	-3.1437	-3.2021	-3.3396	-2.8292	-3.1396	-2.9417	-2.8312	-3.2792	-2.9167	-2.7687	66.354	64.453	68.074	274.329	-55.541	-17.427	18.479	163.501	134.381	-51.483	69.645	281.988	120.022	63.324	104.994	234.178	0.00018077	0.00033821	0.00011688	676.73	2.7381e-06	3.9874e-06	605.32	205.47	2.0189e-06	3.4824e-06	217.26	88.155	75.592	39.723	2.1746e-06	48.551	0.00025736	0.00019657	5.349e-05	659.71	3.2359e-06	1.8405e-06	590.33	201.23	2.0444e-06	2.9334e-06	212.27	87.023	75.09	39.344	2.7843e-06	47.867	139.692	17.209	26.161	-48.773	100.876	73.520	-49.926	-43.462	69.707	72.855	-46.087	-42.228	-39.660	-35.256	80.299	-38.643	-8191	255	
25729.430	1	1	0	0	0.15122	0.26644	0.36871	0.3251	0.03235	0.097652	0.32869	0.21508	0.19118	0.18298	0.23189	0.26624	0.21014	0.17092	0.14227	0.1195	-2.7104	-2.6854	-2.9146	-3.0792	-2.8396	-3.0729	-3.0979	-2.9792	-3.0021	-2.775	-3.0875	-2.9437	-2.8521	-3.2854	-2.9583	-3.1042	-13.408	252.491	222.875	216.679	275.292	239.855	206.859	165.168	92.492	54.396	218.505	230.816	-2.120	271.617	233.122	37.887	0.00017029	0.00032908	0.00011836	680.55	1.9332e-06	3.8893e-06	607.24	206.33	2.1014e-06	3.1958e-06	218.51	88.745	76.205	39.914	3.3876e-06	48.829	0.00025258	0.00019203	5.3398e-05	661.05	2.8918e-06	2.027e-06	592.58	202.41	2.0555e-06	3.3251e-06	213.45	87.321	75.348	39.441	2.2355e-06	48.228	141.008	25.869	35.617	-48.960	91.263	106.823	-49.903	-43.454	68.779	81.083	-46.100	-42.075	-39.800	-35.058	96.458	-38.815	-8191	255	
25729.549	1	1	0	0	0.07237	0.095692	0.12472	0.13965	0.077255	0.15009	0.18597	0.19969	0.22126	0.19754	0.14103	0.21804	0.16243	0.077422	0.18093	0.27762	-2.8521	-2.7667	-3.0083	-2.9729	-2.7833	-2.9542	-2.9375	-2.9062	-3.2604	-2.9979	-3.0375	-3.1562	-2.7333	-3.1208	-2.6854	-2.775	110.215	-13.421	264.346	224.543	-38.320	255.197	271.895	246.921	210.165	209.700	97.032	220.244	127.916	186.456	194.913	-8.260	0.00017439	0.00036298	9.2753e-05	683.27	3.3558e-06	3.6739e-06	614.49	209.26	2.6836e-06	3.3413e-06	220.81	89.531	76.962	40.467	2.2724e-06	49.492	0.00025429	0.00018499	5.2469e-05	664.74	3.0695e-06	2.0696e-06	597.27	204.94	2.1656e-06	3.0452e-06	215.45	88.389	76.076	39.965	2.2552e-06	48.818	135.146	18.813	45.437	-48.722	77.106	109.024	-50.046	-43.636	82.447	88.546	-46.259	-42.362	-39.434	-35.442	83.813	-38.795	-8191	255	
25729.645	1	1	0	0	0.12664	0.3369	0.18681	0.33476	0.14687	0.060612	0.042738	0.13732	0.3054	0.16979	0.17296	0.19138	0.1721	0.16737	0.18678	0.082846	-2.6229	-2.7562	-2.8667	-3.0083	-2.6542	-3.2062	-3.0375	-2.8875	-3.0292	-3.0271	-2.8771	-3.1021	-2.7833	-3.0812	-2.8479	-2.7875	283.232	68.423	16.689	153.989	101.454	229.326	59.554	-7.302	121.790	65.528	82.391	202.402	222.340	244.340	0.988	273.860	0.00017015	0.00031861	8.9353e-05	688.52	3.2756e-06	3.5519e-06	613.77	210.82	2.4634e-06	4.2003e-06	222.85	89.971	77.156	40.277	2.6891e-06	49.767	0.00027321	0.00018797	5.4191e-05	668.95	3.1369e-06	2.0251e-06	601.66	206.03	2.1698e-06	2.4135e-06	217.59	88.933	76.589	40.078	2.3174e-06	48.983	136.816	32.285	24.505	-48.717	96.197	82.102	-50.021	-43.912	67.662	90.050	-46.529	-42.377	-39.407	-35.281	71.585	-38.486	-8191	255	
25729.717	1	1	0	0	0.17009	0.10369	0.13263	0.059483	0.10923	0.31548	0.087624	0.082059	0.25669	0.027979	0.14174	0.27805	0.072203	0.29405	0.09074	0.30667	-2.7417	-2.9667	-2.875	-3.1562	-2.8896	-3.0354	-3.2896	-2.8042	-3.0563	-3.1063	-2.8792	-3.1979	-3.0062	-3.0312	-3.1667	-2.9042	194.883	198.062	21.781	128.313	66.426	141.097	137.780	177.380	277.870	189.605	49.896	259.907	146.903	234.594	73.285	236.724	0.00017213	0.00046406	0.00011434	689.39	2.2459e-06	2.7758e-06	618.04	211.04	1.7612e-06	4.3937e-06	222.98	90.427	77.809	40.62	2.8193e-06	49.649	0.00027316	0.00018217	5.4648e-05	669.82	3.0722e-06	2.1177e-06	600.29	206.43	2.2116e-06	1.9167e-06	217.25	88.994	76.696	40.225	2.1447e-06	49.075	130.337	33.656	37.487	-48.825	99.118	88.767	-49.806	-43.964	93.082	77.889	-46.110	-42.171	-39.716	-35.314	98.436	-38.925	-8191	255	
25729.812	1	1	0	0	0.2448	0.2178	0.21397	0.035404	0.13723	0.062923	0.18987	0.039379	0.094385	0.095111	0.16121	0.19173	0.085164	0.16622	0.10193	0.0818	-2.7271	-2.9688	-2.7229	-3.2458	-2.8438	-3.0062	-3.1437	-2.7854	-3.1813	-3.0396	-2.7625	-3.1729	-2.9396	-2.9833	-3.0438	-2.9104	47.358	-57.207	75.306	186.199	27.871	268.246	215.086	220.711	-17.159	188.063	8.645	-3.714	238.761	174.120	49.445	-39.094	0.00017965	0.00033739	9.9727e-05	689.89	2.4446e-06	4.2062e-06	617.32	212.07	2.4421e-06	3.5034e-06	224.13	90.293	78.169	41.037	2.0755e-06	49.903	0.00024904	0.0001695	5.2042e-05	670.07	2.9796e-06	2.1134e-06	602.15	207.45	2.1624e-06	1.9638e-06	218.34	89.265	77.129	40.457	2.0326e-06	49.185	137.093	32.359	31.601	-48.712	74.237	85.634	-49.959	-43.609	85.551	84.366	-46.197	-42.484	-39.732	-35.084	80.137	-38.769	-8191	255	
25729.934	1	1	0	0	0.10302	0.27673	0.49391	0.17677	0.26521	0.073298	0.086239	0.20218	0.12079	0.21596	0.15065	0.18806	0.11746	0.25252	0.090746	0.08791	-2.625	-2.9604	-2.9083	-3.2167	-2.9292	-2.9875	-3.2292	-2.9729	-3.2	-2.9021	-2.8042	-3.0021	-2.9479	-2.85	-3.0896	-2.85	243.798	-45.980	68.572	233.916	233.914	26.599	122.715	245.728	179.544	-47.633	175.434	291.545	66.688	64.780	110.411	-48.405	0.00019228	0.00035118	9.116e-05	692.71	3.2094e-06	4.2699e-06	619.62	212.23	1.4042e-06	3.2839e-06	226.15	91.697	78.78	40.87	2.0776e-06	50.455	0.00026629	0.00019717	5.1021e-05	671.45	2.506e-06	2.6012e-06	604.2	207.88	2.1825e-06	1.7902e-06	220.28	90.241	77.531	40.588	2.2708e-06	49.704	133.284	36.156	22.367	-48.965	82.289	90.722	-50.291	-43.880	59.980	88.304	-46.021	-42.318	-39.515	-35.137	102.181	-38.841	-8191	255	
25730.029	1	1	0	0	0.15003	0.1768	0.33621	0.17271	0.21442	0.098803	0.33454	0.14253	0.25872	0.12361	0.035631	0.28239	0.17146	0.25827	0.18513	0.29817	-2.7167	-3.0896	-2.7042	-3.1833	-2.8187	-2.9229	-3.2771	-3.0812	-2.8375	-3.0229	-2.925	-3.0812	-2.9667	-2.7729	-3.0083	-2.8708	38.727	225.768	-17.141	248.756	271.014	166.294	201.135	221.484	276.431	77.735	128.069	234.723	275.004	-40.809	256.844	-20.517	0.00018354	0.00040047	0.00013578	693.01	2.6917e-06	3.9557e-06	624.75	213.18	2.1022e-06	3.5537e-06	225.42	91.482	78.489	40.964	3.0503e-06	49.856	0.0002667	0.00017107	5.544e-05	675.43	2.2395e-06	3.0902e-06	607.63	208.95	2.1767e-06	1.855e-06	220.92	89.897	77.448	40.442	2.2198e-06	49.262	134.781	14.091	20.184	-48.914	75.643	107.286	-49.819	-44.018	91.409	52.632	-46.115	-42.258	-39.490	-35.187	88.712	-38.825	-8191	255	
25730.127	1	1	0	0	0.23806	0.050074	0.19202	0.2287	0.12587	0.14785	0.1713	0.099717	0.058264	0.15242	0.10594	0.28364	0.083968	0.071119	0.21329	0.064296	-2.5021	-3.0167	-2.9125	-3.075	-2.9917	-2.9729	-3.1437	-3.0521	-2.9396	-3.0187	-2.9167	-3.1292	-2.9708	-2.8937	-3.0625	-2.9583	-61.055	150.929	117.296	261.800	15.778	-19.726	-43.368	100.169	56.885	60.317	276.943	204.295	239.524	190.694	-59.170	264.229	0.00020498	0.00049087	0.00011748	691.82	3.0507e-06	3.4759e-06	621.08	211.23	2.8526e-06	3.358e-06	224.3	90.768	77.91	40.471	2.1295e-06	49.824	0.00027369	0.00017281	5.5059e-05	673.41	2.1443e-06	3.4069e-06	604.01	207.81	2.2545e-06	1.979e-06	219.24	89.41	76.956	40.148	2.1711e-06	49.089	133.587	32.851	22.432	-48.624	82.586	117.040	-49.962	-43.819	83.589	101.703	-46.047	-42.478	-39.504	-35.237	100.338	-38.843	-8191	255	
25730.246	1	1	0	0	0.22141	0.28336	0.23861	0.15331	0.16446	0.14386	0.10012	0.25691	0.14605	0.15002	0.24712	0.13607	0.20501	0.15908	0.21482	0.045821	-2.4854	-3.2021	-2.6458	-3.0563	-2.9042	-2.7354	-3.2708	-3.0708	-2.8333	-3.0583	-2.825	-3.1208	-2.9604	-2.7333	-3.0125	-2.8646	237.655	208.129	-27.069	166.797	-53.554	210.611	-25.608	254.695	282.908	8.790	79.449	16.115	253.175	5.775	248.928	-21.976	0.00017843	0.0003344	0.00011483	691.27	2.554e-06	3.3255e-06	621.99	212.73	2.0688e-06	3.2059e-06	224.76	90.596	77.628	40.56	3.124e-06	49.733	0.00030284	0.00016387	6.1521e-05	674.13	2.0843e-06	3.1161e-06	604.83	207.96	2.2873e-06	1.833e-06	219.38	89.134	76.893	40.115	2.2669e-06	49.07	135.274	14.211	46.338	-48.662	91.901	107.934	-49.965	-44.116	85.595	73.569	-46.529	-42.128	-39.483	-35.111	87.953	-38.834	-8191	255	
25730.318	1	1	0	0	0.32837	0.25878	0.2292	0.14062	0.058091	0.09493	0.13474	0.15203	0.063227	0.20154	0.15207	0.22153	0.21418	0.44857	0.10417	0.20987	-2.5104	-3.1104	-2.6833	-3.0271	-3.0125	-2.85	-2.9813	-2.9313	-2.7167	-3.2833	-2.9188	-2.9083	-3.0938	-2.8396	-3.1437	-3.1083	198.397	103.990	138.217	247.948	191.063	239.636	91.501	85.524	59.562	268.166	244.924	275.178	2.201	250.985	297.987	-53.635	0.00019445	0.00037678	8.726e-05	687.86	2.5118e-06	5.0381e-06	624.45	212.47	1.1437e-06	3.1935e-06	226.7	91.489	77.302	40.543	1.1622e-06	49.937	0.00031313	0.00018423	5.2834e-05	672.8	1.9859e-06	3.1612e-06	606.47	208.04	2.1132e-06	1.7866e-06	220.43	90.106	77.086	40.138	2.2204e-06	49.318	143.100	9.963	9.723	-48.724	87.348	91.568	-50.111	-43.816	102.944	75.683	-46.306	-42.318	-39.755	-35.325	98.104	-38.939	-8191	255	
25730.414	1	1	0	0	0.052094	0.17266	0.082203	0.10451	0.13515	0.12337	0.36935	0.19576	0.2821	0.26424	0.25596	0.014157	0.21858	0.28249	0.27705	0.40833	-2.3187	-3.0354	-2.8354	-2.8771	-3.0583	-2.8479	-3.1021	-3.0375	-2.7812	-3.1875	-2.8521	-3.0042	-3.0979	-2.8542	-3.0542	-2.9792	186.622	49.722	-53.085	281.362	37.162	113.797	273.264	258.265	267.901	80.636	249.872	74.775	224.795	265.161	150.442	-43.481	0.0001872	0.00037203	0.00013913	690.84	2.0636e-06	3.4821e-06	619.81	212.79	2.2386e-06	4.4171e-06	224.17	91.202	78.207	40.275	1.917e-06	49.664	0.00033506	0.00016799	5.6675e-05	673.87	1.9216e-06	3.0587e-06	605.49	208.35	2.3058e-06	1.9534e-06	219.09	89.483	77.015	40.055	2.231e-06	48.864	134.107	26.721	29.977	-48.791	70.379	128.792	-50.143	-43.845	65.093	104.118	-46.539	-41.928	-39.551	-35.363	85.337	-38.554	-8191	255	
25730.533	1	1	0	0	0.31409	0.23549	0.14907	0.07868	0.1827	0.093481	0.11183	0.23065	0.090283	0.078524	0.075661	0.1503	0.12653	0.17632	0.033626	0.19287	-2.3563	-3.1083	-2.9188	-3.1458	-3.2042	-2.8458	-2.9146	-3.1229	-2.9938	-3.1792	-2.9625	-2.8646	-3.2646	-2.7854	-3.0167	-3.1042	254.850	173.626	114.008	136.652	11.449	1.537	292.696	195.530	213.173	40.724	25.138	19.046	112.228	57.616	61.592	-4.126	0.00017092	0.0005342	8.2478e-05	694.98	1.9303e-06	4.2882e-06	621.13	211.98	2.5109e-06	3.5413e-06	222.46	89.668	76.932	40.291	2.2163e-06	49.573	0.00030994	0.0001884	4.8232e-05	673.64	2.0142e-06	3.1161e-06	605.02	206.92	2.2212e-06	1.8037e-06	217.26	88.559	76.244	39.795	2.2187e-06	48.755	138.660	33.632	35.604	-48.572	62.714	119.262	-50.191	-43.832	62.233	85.848	-46.095	-42.392	-39.592	-34.971	66.155	-38.568	-8191	255	
25730.631	1	1	0	0	0.2795	0.18515	0.39183	0.087105	0.27742	0.11108	0.18279	0.14148	0.020753	0.094611	0.16257	0.095001	0.10353	0.070743	0.077474	0.07014	-2.2938	-2.925	-2.7667	-2.7833	-3.0271	-2.8396	-3.0604	-3.0104	-2.8271	-2.9875	-3.1417	-2.7104	-3.0208	-2.9688	-3.1146	-3.2021	-44.578	156.846	129.772	6.261	90.035	173.637	157.584	285.387	-0.830	226.856	231.283	93.485	-46.345	141.755	110.598	147.291	0.00016067	0.00037394	0.00010614	696.42	2.5609e-06	4.7254e-06	628.31	213.33	2.0307e-06	3.2529e-06	225.4	90.117	77.948	40.363	1.8862e-06	49.725	0.00032651	0.00018991	5.3017e-05	677.15	2.1796e-06	2.7808e-06	609.66	208.56	2.2328e-06	1.935e-06	219.25	89.193	76.792	39.887	2.2568e-06	48.973	131.548	36.477	31.599	-49.021	58.499	92.676	-49.688	-43.857	52.035	104.884	-46.195	-41.900	-39.438	-35.124	89.666	-38.415	-8191	255	
25730.727	1	1	0	0	0.095458	0.13025	0.26056	0.26527	0.068906	0.21815	0.37202	0.16202	0.16824	0.098773	0.21675	0.15421	0.1061	0.36709	0.098036	0.1791	-2.3271	-3.2458	-3.1	-2.8292	-3.1583	-2.9146	-3.0479	-3.2208	-2.7979	-3.1792	-3.1896	-2.7687	-3.4021	-2.9958	-2.8	-3.2	206.545	41.947	89.470	-52.458	10.834	5.952	264.504	229.824	27.519	243.787	180.514	231.205	243.864	272.720	98.419	209.606	0.00017409	0.00028962	9.7748e-05	699.62	2.3446e-06	3.9073e-06	627.3	214.59	2.3991e-06	3.712e-06	226.61	90.853	77.85	40.129	3.0062e-06	49.603	0.00031206	0.00017649	5.0914e-05	681.89	2.0817e-06	2.3048e-06	613.58	209.89	2.2407e-06	1.9894e-06	221.04	89.692	77.071	39.797	2.3275e-06	48.796	136.004	6.649	24.835	-48.735	80.336	80.628	-49.653	-43.835	60.218	98.447	-46.195	-42.250	-39.689	-35.241	66.433	-38.607	-8191	255	
25730.846	1	1	0	0	0.2359	0.12592	0.2357	0.1038	0.06873	0.21936	0.14869	0.2779	0.14906	0.094616	0.1021	0.17014	0.054722	0.079817	0.14064	0.15007	-2.2812	-2.875	-3.0687	-2.8125	-3.1167	-2.9917	-3.0167	-3.3958	-2.7896	-3.0375	-3.0979	-2.9271	-3.4229	-3.1104	-2.8729	-3.2562	96.649	213.924	-19.310	9.153	127.467	214.967	-49.631	223.914	88.667	32.906	-22.925	284.994	172.684	288.674	159.587	196.148	0.00017776	0.00042564	0.00014678	703.07	2.1858e-06	4.172e-06	627.11	214.13	1.905e-06	4.2259e-06	225.62	90.46	77.911	40.256	2.4815e-06	49.405	0.00032742	0.00018526	5.3017e-05	681.85	2.0747e-06	1.9918e-06	610.89	209.37	2.1582e-06	2.0065e-06	219.39	89.115	76.877	39.896	2.1969e-06	48.635	134.677	29.438	24.783	-49.022	88.556	102.828	-50.265	-43.823	100.784	92.507	-46.435	-42.108	-39.858	-35.318	81.851	-38.666	-8191	255	
25730.943	1	1	0	0	0.12761	0.25452	0.2206	0.27598	0.14304	0.09569	0.20019	0.39873	0.26538	0.22895	0.28842	0.031922	0.017346	0.24454	0.10601	0.042999	-2.3083	-2.9521	-3.1458	-2.8396	-3.2042	-3.0187	-2.8812	-3.1708	-2.9688	-3.0417	-3.0604	-2.8854	-3.1021	-2.9646	-2.8063	-3.0875	236.004	84.361	69.107	284.539	-30.420	173.729	210.785	20.620	146.876	164.959	217.187	69.559	-22.051	295.820	2.927	280.591	0.00016315	0.00042885	0.00014394	703.24	3.2066e-06	2.7508e-06	630.21	214.07	1.474e-06	3.2958e-06	225.96	90.533	77.338	39.892	2.4663e-06	48.838	0.00030791	0.00019046	4.6845e-05	683.07	1.9853e-06	1.8238e-06	613.44	209.52	2.192e-06	1.8953e-06	219.45	88.935	76.398	39.525	2.2389e-06	48.159	138.713	31.625	22.939	-48.836	76.673	72.258	-50.007	-43.738	89.723	83.128	-46.535	-42.298	-39.361	-35.137	84.084	-38.627	-8191	255	
25731.014	1	1	0	0	0.13665	0.069561	0.11531	0.38804	0.10127	0.15388	0.083457	0.14821	0.17847	0.041327	0.30642	0.17983	0.11618	0.39898	0.14967	0.24705	-2.3167	-2.9458	-2.9854	-2.7062	-2.8958	-2.9125	-2.8521	-3.1437	-3.1042	-2.7708	-3.2146	-2.825	-3.0875	-2.9062	-2.7229	-3.175	72.866	217.161	43.884	256.660	72.111	144.011	100.020	2.047	254.383	111.383	189.092	98.331	70.971	-38.660	29.598	238.088	0.00018841	0.00029318	8.5665e-05	704.51	3.1764e-06	3.522e-06	628.96	212.7	2.5896e-06	4.107e-06	224.05	89.923	76.864	39.74	2.4327e-06	48.786	0.00027221	0.00024086	4.7836e-05	684.28	2.2181e-06	1.7602e-06	613.45	208.64	2.2249e-06	1.7774e-06	218.49	88.584	75.902	39.279	2.1851e-06	48.103	141.593	29.108	31.460	-49.084	86.946	111.625	-49.793	-43.642	67.134	98.612	-46.346	-42.382	-39.638	-35.110	106.164	-38.588	-8191	255	
25731.109	1	1	0	0	0.31371	0.072423	0.13562	0.10388	0.092662	0.089045	0.18277	0.027921	0.26969	0.26416	0.24706	0.12505	0.063425	0.1469	0.051491	0.065966	-2.5146	-2.7062	-3.1583	-2.9646	-2.825	-3.1708	-2.5729	-3.1688	-2.9604	-2.7062	-3.1813	-2.8625	-3.1479	-3.1688	-2.8854	-3.2812	56.994	152.659	104.025	283.990	10.455	292.760	234.657	182.243	31.253	288.275	-18.591	-20.891	277.618	270.374	74.089	187.623	0.00019611	0.00049442	0.00012838	704.9	2.428e-06	3.5975e-06	631.19	214.16	2.3302e-06	4.0459e-06	225.74	90.6	77.391	39.902	2.3137e-06	49.031	0.00027212	0.00025358	4.68e-05	684.5	2.0223e-06	1.8195e-06	614.85	209.1	2.2032e-06	1.9937e-06	220.3	89.199	76.385	39.499	2.2294e-06	48.467	135.183	34.764	28.188	-49.164	92.881	95.532	-50.026	-43.750	60.407	94.021	-46.251	-42.298	-39.564	-35.049	106.515	-38.837	-8191	255	
25731.229	1	1	0	0	0.23307	0.19532	0.20399	0.12352	0.080714	0.17062	0.26902	0.21479	0.12121	0.18844	0.041308	0.10779	0.1861	0.14484	0.22157	0.20025	-2.4083	-2.6292	-3.1312	-2.9375	-3.0812	-3.0687	-2.9667	-3.0354	-2.8792	-2.8812	-3.0333	-2.8854	-2.7812	-3.2292	-2.8646	-3.0896	159.255	157.010	244.669	259.839	43.545	278.376	251.111	230.912	151.369	185.055	271.847	30.572	180.436	244.700	286.679	234.148	0.00017991	0.00043018	0.00011502	702.21	2.2362e-06	4.5182e-06	628.01	214.08	1.623e-06	4.2622e-06	224.79	90.122	77.457	40.068	2.2201e-06	49.108	0.00025936	0.00028417	4.9299e-05	684.8	2.0388e-06	1.914e-06	613.41	209.41	2.1153e-06	2.034e-06	219.43	88.918	76.183	39.616	2.3891e-06	48.493	133.684	53.984	27.760	-48.608	79.671	96.101	-50.069	-43.809	102.125	74.369	-46.299	-42.106	-39.419	-35.306	91.685	-38.796	-8191	255	
25731.324	1	1	0	0	0.27078	0.14698	0.089566	0.2362	0.16903	0.043048	0.15732	0.23656	0.17417	0.1033	0.15571	0.30759	0.31911	0.16477	0.18581	0.17224	-2.5854	-2.6021	-2.9188	-3	-2.9375	-3.2854	-2.7854	-3.15	-2.9375	-2.7375	-3.0042	-3.0167	-2.8312	-3.1458	-2.9125	-2.9437	-40.878	198.502	259.738	238.625	-37.046	58.249	235.585	-21.205	221.758	157.015	226.761	-5.486	-24.043	62.795	220.264	211.813	0.00018654	0.0004949	0.0001046	704.17	2.1479e-06	3.7862e-06	630.86	213.18	1.9592e-06	3.7878e-06	225.97	89.994	76.588	40.016	2.249e-06	49.109	0.00026358	0.00027383	5.2072e-05	684.77	2.1673e-06	1.8856e-06	613.44	208.78	2.065e-06	1.9247e-06	219.35	88.653	76.066	39.514	2.3874e-06	48.274	134.931	30.456	45.676	-48.820	77.145	91.675	-50.154	-43.606	67.970	90.056	-46.258	-42.326	-39.262	-35.185	82.277	-38.803	-8191	255	
25731.422	1	1	0	0	0.20386	0.22076	0.12225	0.14439	0.1722	0.081067	0.13656	0.13614	0.1137	0.21406	0.12098	0.2241	0.021675	0.24535	0.017827	0.3266	-2.5771	-2.7417	-3.0042	-2.9562	-2.7875	-3.1042	-2.9125	-2.8771	-3.15	-2.8833	-2.9479	-3.0125	-2.7979	-3.1208	-2.7146	-3.2667	-35.268	216.432	65.815	192.287	24.547	225.118	209.024	244.232	132.667	225.916	131.362	214.134	-38.206	258.892	100.028	224.560	0.00018174	0.00037249	0.00011901	702.92	2.4918e-06	3.896e-06	627.87	213.73	2.0159e-06	3.4756e-06	226.11	90.277	77.043	40.008	2.921e-06	49.108	0.00025031	0.00027616	4.8171e-05	683.78	2.1448e-06	1.8535e-06	613.36	209.16	2.0846e-06	2.1183e-06	220.02	88.87	76.295	39.565	2.2439e-06	48.517	140.990	36.863	25.293	-48.911	83.477	80.036	-50.270	-43.786	73.566	84.625	-46.160	-41.960	-39.707	-35.144	90.843	-38.837	-8191	255	
25731.518	1	1	0	0	0.21386	0.15776	0.17283	0.071871	0.053993	0.1042	0.25678	0.16817	0.11859	0.30269	0.1484	0.094612	0.031354	0.10699	0.071257	0.18598	-2.6167	-2.7062	-3.1208	-3.2271	-2.7771	-3.0708	-2.7604	-2.9583	-3.3146	-2.7667	-2.9188	-3.1771	-2.8417	-3.225	-2.8917	-3.0917	131.463	8.380	-25.670	212.332	-9.004	114.832	296.860	-44.027	10.961	211.268	254.418	1.030	35.524	-28.235	21.142	246.566	0.00019971	0.00044563	0.00011533	710.93	2.5199e-06	3.5102e-06	629.81	213.14	2.6233e-06	4.7102e-06	224.28	89.793	77.198	40.152	1.8068e-06	49.231	0.00026414	0.00025542	5.4328e-05	686.34	2.1528e-06	2.0819e-06	613.61	209.06	2.0915e-06	2.1538e-06	219.28	88.829	76.469	39.636	2.1744e-06	48.336	133.282	32.176	29.081	-48.695	104.473	93.245	-49.855	-43.749	73.413	93.126	-46.335	-42.275	-39.653	-35.104	68.827	-38.626	-8191	255	
25731.613	1	1	0	0	0.10016	0.11851	0.16216	0.21736	0.12587	0.078201	0.1583	0.33051	0.021977	0.17641	0.04686	0.28003	0.28147	0.13067	0.14944	0.028274	-2.9021	-2.8187	-3.0875	-3.15	-2.6875	-3.1063	-3.0292	-2.8354	-3.0312	-2.8479	-3.025	-3.2396	-2.7417	-3.1958	-2.9125	-2.9083	34.331	263.602	-16.278	-35.984	-55.106	16.318	177.625	244.456	235.602	154.536	4.768	286.180	269.859	-45.898	295.726	223.776	0.00017573	0.00034508	0.00010062	705	3.4815e-06	3.9241e-06	629.79	213.26	2.3886e-06	4.4468e-06	223.75	90.358	77.023	40.263	2.365e-06	49.313	0.00025747	0.00029223	5.1036e-05	681.93	2.0073e-06	1.7541e-06	611.67	208.95	2.1518e-06	1.99e-06	218.83	88.702	76.394	39.764	2.203e-06	48.522	138.015	29.599	27.767	-48.923	81.516	114.560	-50.204	-43.758	94.810	85.044	-46.263	-41.909	-39.394	-35.287	73.519	-38.771	-8191	255	
25731.711	1	1	0	0	0.27695	0.1213	0.17252	0.053732	0.1089	0.1789	0.081428	0.23621	0.20323	0.16643	0.28204	0.14896	0.23935	0.19801	0.27484	0.18143	-2.6646	-2.8333	-2.8896	-3.0833	-2.6542	-3.2458	-3.1562	-2.9208	-2.9979	-2.9833	-3.0521	-2.9896	-2.8854	-3.1375	-2.8833	-2.8479	231.938	241.289	279.296	-36.144	2.424	-53.635	275.687	-8.350	23.180	286.595	281.905	81.267	-35.492	49.762	-23.767	184.252	0.00019654	0.00038924	0.00014711	706.61	2.0851e-06	3.5295e-06	628.76	214.54	2.0474e-06	3.5698e-06	225.37	90.296	77.006	39.874	2.2512e-06	49.065	0.00026464	0.00024281	5.9921e-05	684.14	2.2117e-06	2.0257e-06	611.86	209.8	2.0476e-06	2.1061e-06	219.51	88.737	76.308	39.469	2.1711e-06	48.16	132.129	30.052	37.214	-48.809	94.720	72.615	-49.841	-43.905	52.634	79.527	-46.079	-42.155	-39.689	-35.379	88.385	-38.483	-8191	255	
25731.807	1	1	0	0	0.054091	0.060633	0.048467	0.074659	0.072766	0.21664	0.24981	0.2436	0.24597	0.24473	0.19288	0.078318	0.086941	0.242	0.057411	0.15324	-2.7375	-2.8229	-2.8146	-3.1167	-2.725	-3.1562	-3.1292	-2.6917	-3.0833	-2.8896	-2.8208	-3.1667	-2.7125	-3.1146	-3.0062	-2.8354	296.682	297.829	198.209	-35.334	148.111	-44.831	199.188	225.129	247.494	44.284	4.512	170.179	-55.559	168.261	48.947	251.637	0.00017733	0.00039463	0.00010133	706.63	2.53e-06	3.3787e-06	629.36	212.88	3.1061e-06	3.5153e-06	225.63	89.477	76.777	39.732	2.2731e-06	48.808	0.00025765	0.0001943	7.1777e-05	684.49	2.2352e-06	1.9961e-06	612.63	208.92	2.2741e-06	1.9112e-06	218.69	88.391	75.868	39.155	2.2737e-06	48.016	132.349	40.050	13.940	-48.927	81.694	102.572	-49.834	-43.984	78.798	90.283	-46.115	-42.035	-39.474	-35.101	73.738	-38.571	-8191	255	
25731.928	1	1	0	0	0.21653	0.13266	0.16164	0.085316	0.18873	0.2746	0.18044	0.31809	0.10611	0.063193	0.23434	0.1057	0.073514	0.12012	0.1904	0.41029	-2.7062	-2.8792	-2.7167	-3.1125	-2.9354	-3.0083	-2.9271	-2.6708	-3.0604	-2.9062	-2.6896	-3.1896	-2.6833	-2.875	-3.0917	-2.8937	96.046	193.621	111.048	74.845	167.446	215.250	183.300	287.489	-37.443	218.556	192.263	-57.901	-52.252	283.139	212.182	162.874	0.00016913	0.00039407	0.00010683	709.86	2.1576e-06	4.5186e-06	627.51	212.95	1.3432e-06	3.6268e-06	221.89	89.393	76.852	39.579	3.279e-06	48.5	0.00025585	0.00019425	7.9488e-05	685.27	2.2261e-06	1.9399e-06	609.69	208.24	2.1645e-06	1.9308e-06	216.51	87.658	75.669	39.128	2.0029e-06	47.582	133.179	26.594	40.471	-48.809	87.064	104.266	-50.221	-43.700	86.278	90.155	-46.461	-42.128	-39.854	-35.284	94.148	-38.654	-8191	255	
25732.023	1	1	0	0	0.38698	0.12665	0.038365	0.23584	0.080893	0.1172	0.25989	0.25269	0.21452	0.078239	0.097401	0.24774	0.098571	0.053192	0.11177	0.11614	-2.7625	-2.8792	-2.8396	-3.1	-2.7271	-2.8604	-3.1333	-2.8896	-2.9792	-3.1146	-2.7542	-3.1583	-2.8125	-2.8083	-3.0396	-2.6937	-15.103	130.908	-1.619	250.593	18.599	263.942	233.092	241.574	9.210	-35.023	-56.005	255.371	100.642	-18.607	-49.018	186.437	0.00017887	0.0003978	0.000119	705.3	2.5934e-06	3.0509e-06	624.3	212.13	2.0511e-06	3.7196e-06	220.89	88.08	76.131	39.272	2.4353e-06	47.859	0.00025951	0.00018185	7.7735e-05	684.9	2.102e-06	2.0152e-06	607.28	208.17	2.2196e-06	1.987e-06	215.8	86.692	75.193	38.84	2.2512e-06	47.169	136.903	24.686	34.146	-48.668	70.711	110.916	-50.232	-43.714	69.217	84.236	-46.140	-41.931	-39.508	-34.805	92.955	-38.412	-8191	255	
25732.119	1	1	0	0	0.11707	0.19548	0.13568	0.19781	0.3616	0.034254	0.041275	0.29055	0.1703	0.043594	0.036314	0.31501	0.21339	0.18541	0.26757	0.14541	-2.6021	-2.8708	-2.8521	-3.2333	-2.65	-2.8812	-3.3229	-2.7896	-2.8604	-2.8979	-2.7812	-3.0333	-2.8479	-2.9604	-3.2333	-2.925	174.781	-45.847	172.500	156.212	-14.768	31.790	65.032	184.426	243.318	-17.342	10.352	234.761	243.738	213.753	-1.256	-55.293	0.00016414	0.00042806	0.00010021	702.45	1.8914e-06	3.6405e-06	623.68	210.86	2.1915e-06	3.3119e-06	218.27	87.078	75.311	38.934	2.3929e-06	47.622	0.00026414	0.00018049	7.6044e-05	681.64	2.2015e-06	1.93e-06	606.06	206.39	2.2556e-06	2.0065e-06	214.61	86.15	74.572	38.507	2.2983e-06	46.833	126.932	14.567	37.870	-48.971	106.011	78.326	-49.778	-43.618	73.874	86.996	-46.438	-42.028	-39.666	-35.180	96.400	-38.841	-8191	255	
25732.215	1	1	0	0	0.19532	0.10151	0.25947	0.084347	0.10609	0.14905	0.078914	0.078721	0.30057	0.24448	0.052152	0.058211	0.11038	0.31317	0.11154	0.16969	-2.5438	-2.975	-2.7438	-3.05	-2.8458	-2.8	-3.0312	-2.6562	-3.0333	-2.9979	-2.6813	-2.9417	-2.9333	-2.9521	-3.0292	-3.0375	264.091	137.872	169.227	-34.451	-18.237	119.860	205.956	-30.985	293.938	263.945	260.917	103.739	232.208	240.787	43.390	288.492	0.00016931	0.00044324	8.9213e-05	696.83	3.1608e-06	3.8616e-06	620.94	210.19	1.2054e-06	3.5358e-06	220.05	87.788	75.916	39.136	1.997e-06	47.612	0.00025603	0.00017118	7.7568e-05	681.27	2.0854e-06	2.0072e-06	606.57	206.7	2.4979e-06	1.7371e-06	215.36	86.647	75.044	38.698	2.1436e-06	47.017	143.192	20.893	41.580	-48.692	85.646	107.192	-50.012	-43.947	55.106	94.376	-46.772	-42.342	-39.333	-35.077	79.817	-38.374	-8191	255	
25732.311	1	1	0	0	0.046462	0.10665	0.12737	0.16089	0.082372	0.11482	0.042368	0.044727	0.076924	0.11591	0.17829	0.20348	0.11432	0.096213	0.097439	0.19954	-2.3438	-3.0979	-2.7021	-2.9354	-2.7167	-2.7917	-3.0417	-2.9771	-2.8667	-3.0729	-2.7833	-3.0333	-2.9146	-2.8792	-3.3104	-3.0583	59.766	50.742	275.392	134.646	74.592	-49.393	-22.358	257.831	39.288	248.300	165.789	230.199	204.048	51.389	26.426	269.680	0.00016915	0.00038659	0.00010299	698.22	1.7885e-06	3.2097e-06	617.16	210.06	1.7466e-06	4.2116e-06	218.29	87.284	75.519	38.827	2.9059e-06	47.154	0.00026378	0.00017925	7.6745e-05	679.33	2.1293e-06	1.9566e-06	601.82	205.81	2.9832e-06	1.8043e-06	213.29	85.801	74.502	38.391	2.3723e-06	46.432	138.739	22.601	39.906	-48.958	82.955	88.815	-49.840	-43.542	75.436	85.835	-46.342	-42.192	-39.564	-34.988	80.712	-38.589	-8191	255	
25732.406	1	1	0	0	0.21345	0.19812	0.10126	0.11314	0.17024	0.21447	0.22197	0.26605	0.15502	0.22482	0.12701	0.17337	0.18239	0.08588	0.10095	0.25903	-2.5917	-3.0042	-2.8333	-3.0625	-3.0187	-2.65	-3.1562	-2.9688	-2.7708	-3.0625	-2.7667	-2.9354	-3.0104	-2.7521	-3.2188	-3.1208	52.316	-57.180	193.658	217.315	136.414	168.439	-9.868	253.864	272.912	162.982	250.300	-16.674	-57.501	70.203	-5.904	231.979	0.00016605	0.00031901	9.7177e-05	695.12	2.8938e-06	2.8252e-06	617.91	209.28	3.4329e-07	3.1384e-06	216.16	86.812	74.529	38.605	2.6967e-06	47.348	0.00024952	0.00016442	8.249e-05	675.06	1.8697e-06	2.0078e-06	598.8	204.55	3.0256e-06	1.7737e-06	212.42	85.896	74.125	38.283	2.2451e-06	46.602	137.941	33.453	30.616	-48.598	76.845	89.079	-49.950	-43.648	-5.362	97.094	-46.247	-42.614	-39.487	-34.966	68.959	-38.676	-8191	255	
25732.525	1	1	0	0	0.21492	0.12464	0.11332	0.28461	0.23228	0.25618	0.097239	0.22775	0.076866	0.014976	0.14285	0.21442	0.21616	0.21448	0.12989	0.20063	-2.4125	-3	-2.7667	-3.0062	-3.1083	-2.7562	-3.1292	-2.9667	-2.6229	-3.0146	-2.9792	-2.9958	-3.0583	-2.7875	-3.1854	-2.8646	136.306	18.845	45.472	204.301	290.098	144.843	-7.678	218.530	254.029	129.266	257.941	290.887	208.423	249.205	15.978	29.379	0.00018424	0.00033315	9.7313e-05	694.51	2.9996e-06	2.5917e-06	615.74	209.2	1.2546e-06	3.5774e-06	220.44	88.056	75.58	39.012	2.7096e-06	47.986	0.0002527	0.0001792	5.9585e-05	672.97	1.9982e-06	2.0412e-06	599.79	204.55	3.1674e-06	1.8605e-06	214.84	86.806	74.738	38.67	2.2008e-06	47.228	133.932	12.678	9.206	-48.911	83.360	78.997	-50.106	-43.696	87.286	85.599	-46.040	-41.862	-39.252	-35.138	93.539	-38.962	-8191	255	
25732.623	1	1	0	0	0.10126	0.096983	0.084035	0.23526	0.15983	0.20099	0.11122	0.16435	0.10951	0.29828	0.21305	0.16773	0.33554	0.11039	0.12174	0.25768	-2.5146	-3.075	-2.8583	-2.7562	-3.2958	-2.8708	-3.1	-3.1104	-2.8292	-3.0646	-2.9917	-2.9854	-2.9271	-2.9958	-2.9708	-3.1167	147.207	264.896	112.799	280.378	273.891	271.008	-30.331	237.863	277.504	143.955	266.562	272.618	201.055	254.552	69.032	168.365	0.00019343	0.00029127	9.2665e-05	696.21	2.5724e-06	4.4803e-06	616.74	210.64	4.0733e-07	3.5628e-06	222.49	88.66	75.932	38.99	3.5285e-06	47.883	0.00026658	0.00017097	5.1707e-05	676.26	1.9821e-06	2.1264e-06	602.82	206.12	3.0388e-06	1.979e-06	215.75	87.271	75.147	38.76	2.2658e-06	47.198	134.332	24.445	31.925	-48.854	71.959	92.615	-49.870	-43.842	120.184	89.477	-46.402	-42.250	-39.383	-35.203	101.674	-38.731	-8191	255	
25732.719	1	1	0	0	0.1258	0.32937	0.11289	0.42273	0.14527	0.069287	0.2026	0.044779	0.26835	0.23511	0.15812	0.24343	0.080807	0.17935	0.16864	0.28849	-2.3	-3.2542	-3.0125	-2.6958	-3.1042	-2.7458	-3.0271	-2.9458	-2.8271	-3.0187	-3.1312	-2.9583	-3.1375	-2.8771	-2.8146	-2.9292	289.133	49.851	273.197	254.596	188.027	90.888	282.245	68.363	282.508	280.959	41.491	24.111	-38.584	248.685	149.478	260.491	0.00019036	0.00039387	0.00012497	693.56	2.6728e-06	3.8656e-06	619.64	210.59	1.6343e-06	2.6324e-06	219.06	87.896	75.378	39.044	3.112e-06	47.879	0.00025624	0.00017356	5.0213e-05	674.5	2.1298e-06	1.9844e-06	600.99	205.94	3.2087e-06	1.9583e-06	213.99	86.852	74.79	38.681	2.5601e-06	46.979	135.328	44.261	33.079	-48.771	79.761	106.555	-50.333	-43.626	61.035	78.640	-45.979	-42.310	-39.389	-35.214	94.518	-38.701	-8191	255	
25732.814	1	1	0	0	0.1559	0.16564	0.16749	0.2205	0.10518	0.076355	0.035268	0.094897	0.2568	0.264	0.077365	0.10446	0.14914	0.029869	0.26193	0.16357	-2.4562	-2.975	-3.0417	-2.9354	-3.1771	-2.9667	-3.0146	-3.1667	-2.5979	-3.0917	-3.1188	-2.8271	-3.1354	-3.0167	-2.7917	-3.2854	286.518	-16.187	200.665	96.512	96.932	215.865	80.507	266.784	198.153	214.252	265.581	10.695	294.682	216.625	69.740	263.095	0.00017616	0.00031718	7.4374e-05	692.64	2.8401e-06	4.2664e-06	616.25	208.74	3.2215e-06	3.2828e-06	217.36	87.24	74.912	38.542	2.9014e-06	47.09	0.00026022	0.00018477	4.712e-05	673.53	2.1683e-06	2.0035e-06	599.51	204.36	3.0891e-06	1.9002e-06	212.92	86.047	74.124	38.192	3.3673e-06	46.319	137.997	32.763	34.787	-48.715	95.146	98.198	-49.974	-43.836	63.611	78.101	-45.982	-42.156	-39.441	-35.161	105.012	-38.717	-8191	255	
25732.910	1	1	0	0	0.085102	0.34476	0.12348	0.11243	0.064036	0.12078	0.40157	0.15841	0.13144	0.22788	0.07405	0.13267	0.22252	0.23642	0.18258	0.02207	-2.3104	-2.9	-2.8958	-2.9479	-3.0812	-3.0354	-3.1021	-2.9854	-2.9854	-2.975	-3.05	-2.6896	-3.0208	-2.9833	-2.9042	-3.15	92.389	-21.048	-34.424	246.820	48.045	282.145	242.525	262.076	179.479	-0.680	109.507	178.432	7.356	251.188	212.403	-4.625	0.0001768	0.00051164	9.848e-05	692.65	2.3643e-06	3.3043e-06	612.93	206.56	1.5171e-06	3.221e-06	215.95	86.528	74.09	38.014	3.811e-06	46.554	0.00025803	0.0001871	5.1493e-05	671.27	2.0533e-06	2.0115e-06	597.78	202.11	3.1441e-06	1.7426e-06	211.04	85.152	73.26	37.642	3.2092e-06	45.882	137.983	16.796	29.776	-48.644	76.956	78.115	-50.042	-43.836	47.623	72.323	-46.149	-42.085	-39.496	-35.217	89.769	-38.586	-8191	255	
25733.008	1	1	0	0	0.091637	0.11792	0.11756	0.13182	0.29657	0.30155	0.136	0.2413	0.18612	0.099504	0.10628	0.20043	0.013648	0.2592	0.17157	0.13195	-2.3271	-2.9562	-3.1021	-3.0563	-3.1312	-2.9208	-3.1021	-3.0958	-2.7687	-2.8312	-3.0021	-2.85	-3.1021	-3.0458	-2.7938	-2.9375	74.826	108.223	-40.613	-27.145	126.196	171.166	-48.794	273.441	99.736	171.991	15.294	252.985	85.649	198.442	-18.776	155.331	0.00015569	0.0003843	8.7829e-05	689.07	1.2411e-06	4.947e-06	613.91	205.36	2.0953e-06	2.9663e-06	215.59	86.148	73.84	38.03	2.2809e-06	46.725	0.00026322	0.00018661	4.747e-05	671.92	2.1105e-06	1.901e-06	598.04	201.49	2.4805e-06	2.1807e-06	209.95	84.742	73.061	37.571	3.1941e-06	45.784	133.753	37.772	30.791	-48.776	60.460	103.496	-49.967	-43.851	52.829	90.800	-45.816	-42.329	-39.447	-34.884	96.492	-38.830	-8191	255	
25733.104	1	1	0	0	0.092188	0.16588	0.19544	0.20529	0.12163	0.21794	0.34176	0.14819	0.28841	0.34823	0.05464	0.10191	0.33038	0.21906	0.18451	0.14452	-2.4271	-2.9208	-3.1063	-2.8542	-3.15	-2.9083	-2.7979	-3.2917	-2.8833	-2.775	-3.1	-2.7104	-3.0687	-3.0583	-2.8604	-3.225	94.720	-51.759	90.715	273.108	210.588	34.463	196.339	212.157	21.595	-43.331	-42.187	43.088	277.268	291.772	94.953	273.371	0.00016184	0.00035679	9.527e-05	688.37	2.7324e-06	3.3078e-06	610.3	205.93	1.5115e-06	2.4934e-06	213.8	86.028	73.815	37.608	2.9958e-06	46.32	0.00025005	0.00018309	4.5916e-05	669.71	2.1464e-06	1.8738e-06	593.69	201.35	2.2725e-06	2.912e-06	209.1	84.506	72.816	37.375	3.1117e-06	45.53	135.099	28.993	42.990	-48.877	81.639	94.898	-50.088	-43.919	106.330	70.942	-46.135	-42.052	-39.482	-35.258	86.547	-38.740	-8191	255	
25733.199	1	1	0	0	0.072221	0.075005	0.14632	0.056757	0.24577	0.08255	0.047026	0.27167	0.15991	0.17979	0.14203	0.13183	0.265	0.14596	0.21439	0.071459	-2.5646	-2.6875	-2.9313	-2.6896	-3.175	-2.9125	-2.8208	-3.25	-2.9646	-2.7917	-3.1083	-3.0354	-2.9333	-3.1063	-2.8146	-3.0771	95.923	262.165	12.002	159.600	103.594	126.936	22.058	272.097	-45.696	33.297	234.896	3.392	291.054	-29.731	-0.713	204.356	0.00016981	0.0003079	9.0415e-05	687.21	2.5453e-06	3.9905e-06	608.66	205.83	2.0021e-06	1.9895e-06	214.89	85.637	73.623	37.66	2.6481e-06	46.553	0.00024981	0.00017541	4.6815e-05	669.08	2.0335e-06	1.872e-06	594.56	201.48	2.2e-06	2.7147e-06	209.77	84.422	72.796	37.447	3.1851e-06	45.771	137.797	12.642	34.682	-48.762	79.636	106.126	-50.085	-43.957	99.996	45.928	-45.899	-42.198	-39.709	-34.854	90.053	-38.536	-8191	255	
25733.297	1	1	0	0	0.077458	0.20218	0.075767	0.20775	0.099554	0.097519	0.047346	0.18666	0.30382	0.095923	0.17588	0.15667	0.18063	0.31724	0.38064	0.11757	-2.7188	-2.8958	-3.0167	-3.0292	-3.0042	-3.1396	-2.8958	-3.0687	-3.05	-2.8125	-3.2917	-2.9417	-3.0021	-3.1312	-2.6708	-3.0187	275.882	207.579	44.977	-17.398	42.894	206.062	283.001	259.056	82.244	226.392	227.596	246.220	-18.272	212.642	180.453	58.048	0.00018172	0.00036313	0.00012493	685.8	2.1665e-06	2.5943e-06	607.99	207.42	1.8546e-06	2.5379e-06	218.51	87.06	75.108	38.414	1.7547e-06	46.827	0.00024371	0.00017649	5.0792e-05	667.59	2.4466e-06	1.851e-06	594.56	202.37	2.1174e-06	2.9126e-06	212.24	85.894	73.887	38.025	3.1465e-06	46.341	132.403	16.509	23.346	-48.714	91.350	110.216	-49.810	-44.027	85.803	74.690	-46.307	-42.282	-39.457	-35.010	102.815	-38.689	-8191	255	
25733.414	1	1	0	0	0.14993	0.21425	0.09868	0.022799	0.11307	0.18986	0.10199	0.036631	0.035819	0.087651	0.13725	0.12681	0.20491	0.054826	0.14574	0.030097	-2.65	-2.7562	-2.875	-2.9688	-2.8875	-3.1167	-2.9896	-3.0917	-3.1771	-2.7062	-3.0958	-3.025	-2.8563	-2.9917	-2.9021	-2.9417	40.751	202.559	194.676	259.979	48.764	234.007	203.415	35.496	-60.819	219.196	149.856	259.274	199.780	-61.083	55.265	235.543	0.00018437	0.00034247	0.00013168	689.42	1.8413e-06	2.9122e-06	609.77	206.88	1.5587e-06	3.2471e-06	215.5	86.307	74.189	38.223	2.8141e-06	46.421	0.00024969	0.00016691	5.1859e-05	669.26	3.0663e-06	1.8331e-06	593.87	201.87	1.9782e-06	2.9084e-06	209.99	84.943	73.384	37.701	3.0461e-06	45.66	136.758	38.059	31.491	-48.793	80.039	85.942	-50.099	-43.718	58.936	89.977	-46.073	-41.927	-39.420	-35.018	95.941	-38.654	-8191	255	
25733.488	1	1	0	0	0.10547	0.076548	0.1331	0.11548	0.15164	0.18446	0.2352	0.31457	0.040896	0.26558	0.10425	0.24115	0.20334	0.13339	0.086454	0.33638	-2.5854	-2.7771	-3.15	-3.0958	-2.8812	-3.2417	-2.8563	-2.9521	-2.9792	-2.7146	-2.9854	-2.8604	-2.925	-3.1937	-3	-3.2	252.373	51.357	266.615	170.599	98.953	240.531	193.197	234.007	253.470	271.093	81.940	-7.488	265.964	183.166	238.386	258.670	0.00016145	0.0003134	8.5638e-05	685.39	2.3174e-06	2.4729e-06	612.04	205.39	1.4621e-06	3.7521e-06	215.17	86.006	74.356	38.145	3.5238e-06	46.568	0.00024191	0.00018542	4.843e-05	668.89	2.8779e-06	2.0146e-06	592.99	201.64	1.9999e-06	3.1027e-06	209.91	84.939	73.416	37.778	2.5444e-06	45.923	140.764	32.622	44.397	-48.460	81.104	88.194	-50.209	-43.759	77.692	111.928	-46.112	-42.131	-39.518	-35.161	95.326	-38.865	-8191	255	
25733.607	1	1	0	0	0.11497	0.22276	0.099808	0.19779	0.20262	0.20045	0.075078	0.19966	0.13498	0.35882	0.15635	0.13946	0.24056	0.11297	0.043359	0.23185	-2.6146	-2.8375	-3.0187	-3.1271	-2.8792	-3.1083	-2.8708	-3.0042	-3.0479	-2.8229	-3.0646	-3.0583	-2.7771	-3.1625	-2.9521	-2.8688	6.036	-16.617	45.523	190.858	36.175	-50.027	66.703	2.486	-28.407	258.675	-36.880	220.199	-46.623	-49.166	-38.246	200.161	0.00016526	0.00035075	9.2173e-05	692.89	1.683e-06	3.8182e-06	610.97	206.79	1.3841e-06	2.6837e-06	216.74	86.691	74.404	38.169	2.7499e-06	46.962	0.00024754	0.0001989	5.1463e-05	671.13	2.9357e-06	1.8572e-06	595.25	202.64	1.9719e-06	2.8778e-06	211.47	85.312	73.672	37.877	2.3235e-06	46.144	135.068	17.705	40.629	-48.763	92.629	93.884	-49.755	-43.730	84.856	76.031	-46.430	-42.425	-39.441	-35.019	88.141	-38.620	-8191	255	
25733.703	1	1	0	0	0.14554	0.15832	0.17507	0.083387	0.18797	0.10462	0.11731	0.15663	0.31128	0.24844	0.24014	0.069741	0.29177	0.17312	0.29615	0.084426	-2.675	-2.8542	-3.1937	-2.9104	-2.5833	-3.2354	-2.975	-2.9604	-3.1729	-2.8917	-2.9354	-3.125	-2.8354	-3.2042	-3.0583	-2.9583	19.845	155.778	269.819	230.337	100.907	103.184	223.013	279.218	225.493	-49.048	-22.652	218.510	247.855	124.619	287.261	251.963	0.00017024	0.00034051	9.5087e-05	689.47	1.9226e-06	4.1294e-06	611.81	207.75	2.7415e-06	3.7871e-06	217.96	87.184	74.815	38.338	2.2434e-06	46.995	0.00024872	0.00017968	5.2591e-05	670.21	2.9603e-06	1.8955e-06	596.68	202.89	2.0539e-06	2.7764e-06	211.79	85.63	73.764	37.901	2.0786e-06	46.272	132.999	28.566	8.923	-48.919	71.876	109.184	-50.197	-43.811	69.050	88.350	-46.288	-42.448	-39.482	-35.079	74.795	-38.563	-8191	255	
25733.799	1	1	0	0	0.047765	0.095165	0.3504	0.24682	0.13255	0.23797	0.18559	0.1499	0.15232	0.032147	0.34151	0.29333	0.17867	0.16885	0.2081	0.14045	-2.6937	-2.8312	-2.8937	-3.1333	-2.7604	-3.1979	-3.0854	-2.9979	-3.125	-2.8292	-2.9313	-3.1437	-2.9375	-3.1208	-2.8958	-2.9375	180.479	-24.011	173.303	267.294	26.570	150.262	194.706	265.514	181.107	33.801	-46.956	275.329	136.305	60.483	152.942	-48.526	0.00017249	0.00035655	0.00010648	687.3	9.6511e-07	3.2545e-06	609.97	207	2.5054e-06	4.1927e-06	216.4	86.65	74.299	38.452	1.6162e-06	46.848	0.00025603	0.00016869	4.6449e-05	667.53	3.1482e-06	1.8683e-06	592.17	202.67	2.064e-06	2.2186e-06	210.89	85.195	73.9	38.033	2.1257e-06	46.05	133.583	32.333	27.642	-48.711	141.221	111.442	-49.852	-44.012	67.816	72.839	-45.934	-42.277	-39.473	-35.395	58.791	-38.915	-8191	255	
25733.895	1	1	0	0	0.2847	0.11207	0.11099	0.39017	0.042546	0.1771	0.364	0.14568	0.14905	0.067561	0.092	0.073235	0.034801	0.14712	0.14354	0.23489	-2.7021	-2.7604	-2.8208	-3.1125	-2.8563	-3.1583	-3.2313	-2.8146	-3.1188	-2.8479	-2.9729	-3.1312	-2.7667	-2.9146	-3.1833	-2.7396	18.858	-28.897	141.940	-53.353	-12.277	237.441	246.270	7.161	-60.066	176.983	-22.338	148.966	78.838	-46.841	-7.028	298.083	0.00017694	0.00034903	0.00013002	688.71	2.0541e-06	4.3864e-06	612.45	206.99	1.9889e-06	3.0996e-06	214.31	85.788	73.924	38.018	2.3431e-06	46.272	0.00024285	0.00017914	5.1829e-05	669.01	2.841e-06	1.9245e-06	593.74	202.44	2.21e-06	1.8966e-06	209.68	84.6	73.206	37.617	2.0999e-06	45.609	138.037	17.718	18.434	-48.669	81.042	80.650	-50.129	-43.642	85.070	96.083	-46.105	-42.330	-39.617	-35.097	82.246	-38.410	-8191	255	
25734.016	1	1	0	0	0.10229	0.10959	0.23189	0.11685	0.28074	0.071252	0.38186	0.15234	0.16934	0.10476	0.14395	0.054318	0.090759	0.17473	0.2032	0.1457	-2.6479	-2.8854	-2.8063	-3.1312	-2.8187	-3.2396	-3	-2.8292	-2.9979	-2.9458	-2.7958	-3.1625	-2.8	-3.05	-3.1625	-2.8521	-7.763	20.164	132.510	204.588	32.781	28.885	195.444	-60.313	39.921	149.683	214.522	-46.721	129.338	272.629	58.942	272.944	0.00017606	0.0003242	0.00010224	685.8	3.101e-06	3.1572e-06	610.13	206.86	1.8878e-06	3.5509e-06	216.57	85.762	74.37	38.319	2.3036e-06	46.67	0.00025898	0.0001819	4.8826e-05	668.07	2.9716e-06	1.9986e-06	592.34	202.31	2.1645e-06	1.9106e-06	210.93	84.821	73.461	37.797	2.0724e-06	45.952	130.734	16.015	18.501	-48.603	99.517	94.404	-50.095	-43.771	56.577	80.315	-46.299	-42.304	-39.417	-34.828	78.285	-38.866	-8191	255	
25734.111	1	1	0	0	0.12163	0.12939	0.12346	0.2428	0.13955	0.32188	0.10675	0.083155	0.10275	0.038042	0.18437	0.18845	0.014412	0.24358	0.091025	0.31272	-2.5896	-3.0333	-2.6188	-3.3063	-2.825	-2.9625	-3.2292	-2.8792	-2.9854	-3.025	-2.8125	-3.1208	-2.7917	-2.9542	-3.0833	-2.9667	-51.567	29.083	135.551	-53.615	15.270	202.431	298.314	178.459	209.328	-23.310	-28.753	294.734	-58.042	73.395	172.800	-47.792	0.00018963	0.00041292	0.00010927	684.92	2.5657e-06	2.8132e-06	607.91	206.31	1.889e-06	3.6389e-06	214.81	86.979	74.846	38.321	1.6236e-06	46.563	0.00026204	0.00017524	5.0152e-05	667.54	2.2331e-06	2.6839e-06	592.43	202.11	2.164e-06	1.8012e-06	210.26	85.123	73.685	38.015	2.0842e-06	45.959	137.327	26.947	34.631	-48.641	59.589	129.617	-50.101	-43.613	85.221	95.097	-46.418	-42.066	-39.701	-35.262	99.791	-38.716	-8191	255	
25734.184	1	1	0	0	0.211	0.21429	0.20736	0.23704	0.067193	0.18753	0.20932	0.40051	0.30252	0.1632	0.2855	0.14744	0.15022	0.2745	0.21349	0.11267	-2.4146	-2.8688	-2.6833	-3.0812	-2.825	-2.7604	-3.1354	-2.9729	-2.9375	-3.0083	-2.7229	-3.1583	-2.9104	-2.8063	-3.1937	-3.0646	63.081	182.064	69.647	294.011	133.072	225.432	223.446	-56.009	-23.605	196.347	258.312	174.153	-51.022	290.595	79.312	272.217	0.00016603	0.00025184	0.00011644	684.08	3.0132e-06	3.2724e-06	603.37	205.39	1.6898e-06	3.8482e-06	215.55	86.242	74.527	38.069	2.805e-06	46.417	0.00025229	0.00017551	4.9787e-05	666.05	2.0656e-06	2.9556e-06	589.56	201.55	2.2524e-06	1.8061e-06	209.85	84.724	73.386	37.847	2.1055e-06	45.71	132.864	12.693	30.839	-48.930	92.096	95.871	-49.881	-43.648	67.249	87.871	-46.395	-42.159	-39.526	-35.019	63.879	-38.673	-8191	255	
25734.305	1	1	0	0	0.1212	0.19575	0.091388	0.04217	0.11197	0.10571	0.23959	0.14949	0.18387	0.13889	0.10437	0.046873	0.17568	0.17388	0.18262	0.38773	-2.6312	-3.0208	-2.6896	-3.0625	-2.9229	-3.0667	-3.3667	-2.9167	-3.0979	-3.0354	-2.8792	-3.1625	-3.2917	-2.8271	-3.1667	-2.9	16.880	11.376	242.563	201.135	108.437	99.701	230.461	227.739	-41.560	47.070	286.028	51.647	54.123	286.033	-24.846	-30.601	0.00016425	0.00041534	0.00015358	682.91	1.8379e-06	2.8463e-06	606.64	205.92	2.4313e-06	4.1204e-06	214.01	85.462	73.954	37.733	2.1243e-06	46.111	0.00024863	0.00018461	6.0835e-05	665.83	2.0035e-06	2.6993e-06	589.38	201.4	2.0751e-06	1.7542e-06	208.69	84.233	72.805	37.44	2.221e-06	45.352	143.668	17.092	33.556	-48.859	84.708	77.028	-50.373	-43.876	87.463	91.526	-46.113	-42.191	-39.732	-34.985	104.325	-38.817	-8191	255	
25734.398	1	1	0	0	0.061601	0.17511	0.2039	0.094627	0.22125	0.1935	0.226	0.086508	0.13112	0.33482	0.28986	0.21629	0.09365	0.053185	0.12435	0.15141	-2.6667	-3.2313	-2.8438	-3.1792	-2.9021	-2.8563	-3.3208	-2.8792	-2.9688	-3.0354	-2.8729	-3.0979	-2.8937	-2.9917	-3.2	-2.9437	191.751	89.379	234.385	218.834	152.578	78.481	284.934	270.216	205.700	94.152	191.017	272.026	270.372	-52.477	48.076	131.081	0.00018294	0.00040323	7.6193e-05	682.59	3.0254e-06	2.4929e-06	604.79	205.18	1.5624e-06	3.8585e-06	214.41	85.39	73.177	37.645	2.3489e-06	45.829	0.00027543	0.00017643	4.9695e-05	665.6	2.118e-06	2.8685e-06	588.85	200.1	2.0841e-06	1.7621e-06	208.39	83.936	72.479	37.21	2.1733e-06	45.228	132.436	27.478	50.155	-48.825	77.924	92.552	-50.257	-43.887	65.004	87.007	-46.124	-42.079	-39.560	-35.293	78.043	-38.847	-8191	255	
25734.494	1	1	0	0	0.14475	0.25109	0.11749	0.17527	0.15438	0.13295	0.1526	0.17245	0.29582	0.22389	0.19082	0.12817	0.19109	0.13891	0.042829	0.19134	-2.5104	-3.1063	-2.8375	-3.1271	-2.8563	-2.8375	-3.1729	-2.9	-2.9604	-3.1583	-2.9125	-3.1271	-3.0292	-2.925	-3.0812	-3.1104	246.367	248.803	250.792	278.263	-53.006	196.776	129.491	240.954	234.766	269.998	200.260	235.760	-55.149	261.891	72.458	-30.508	0.00018102	0.00034475	8.824e-05	685.78	2.2596e-06	2.9519e-06	603.23	203.55	1.8978e-06	3.8213e-06	211.64	84.203	72.894	37.4	2.2007e-06	45.813	0.00030254	0.00016523	5.5699e-05	664.77	1.8617e-06	2.9191e-06	586.83	199.03	2.1815e-06	2.0194e-06	205.91	82.887	72.118	37.004	2.1509e-06	44.787	126.960	11.346	35.412	-48.679	107.536	73.497	-49.735	-43.790	51.959	75.111	-46.250	-42.172	-39.248	-35.076	85.902	-38.680	-8191	255	
25734.592	1	1	0	0	0.2419	0.14537	0.055512	0.075755	0.13832	0.12027	0.086509	0.17731	0.13819	0.13634	0.1649	0.27069	0.1508	0.11429	0.18334	0.055248	-2.6	-2.9604	-2.9375	-3.1083	-3.1042	-3.0375	-3.175	-3.1333	-2.8146	-3.1021	-2.9625	-3.0583	-3.1146	-2.8958	-3.2562	-3.0563	14.384	24.467	-21.849	-32.175	58.218	166.718	190.377	25.527	267.884	216.603	-34.013	4.630	154.325	-54.097	67.092	-53.517	0.00018497	0.00045869	9.9419e-05	677.83	1.7208e-06	2.95e-06	600.7	202.52	1.6819e-06	4.077e-06	210.25	84.356	73.155	37.616	3.2964e-06	45.54	0.00029072	0.00019019	5.4709e-05	662.02	1.9527e-06	2.9648e-06	585.24	198.86	2.2423e-06	1.8416e-06	206.03	83.134	72.233	37.19	2.2552e-06	44.758	136.940	31.308	29.562	-48.684	97.539	84.402	-50.060	-43.669	81.657	81.371	-46.003	-42.130	-39.529	-35.206	101.927	-38.483	-8191	255	
25734.711	1	1	0	0	0.19577	0.12586	0.12437	0.19817	0.073303	0.1643	0.2693	0.048615	0.15446	0.1447	0.035899	0.13418	0.16556	0.15702	0.21419	0.22362	-2.4437	-3.1813	-3.0021	-3.1208	-3.0854	-2.7354	-3.0854	-3.0187	-2.9062	-3.1688	-3.0104	-3.1167	-3.2667	-2.8604	-3.1604	-3.1333	140.119	-45.397	-56.620	-57.246	134.554	-47.109	175.141	292.501	229.945	165.940	-56.701	90.335	200.237	203.366	278.257	189.344	0.00015702	0.00038258	0.00010017	680.8	2.4028e-06	2.3671e-06	602.59	202.22	6.1783e-07	3.122e-06	210.24	84.246	72.92	37.291	2.6953e-06	45.058	0.00029402	0.00018916	5.1448e-05	661.21	2.0581e-06	2.9432e-06	584.03	198.59	2.1984e-06	1.8856e-06	205.41	82.91	71.902	36.921	2.2557e-06	44.616	139.007	27.573	41.068	-48.658	64.520	111.718	-49.819	-43.876	4.876	89.219	-46.410	-42.137	-39.608	-35.141	104.809	-38.687	-8191	255	
25734.783	1	1	0	0	0.17356	0.17001	0.18833	0.13011	0.082649	0.2063	0.23185	0.20567	0.063991	0.060816	0.16642	0.10922	0.39755	0.047246	0.16926	0.17897	-2.4396	-2.8917	-2.9042	-2.9479	-3.1521	-3.0333	-2.9833	-2.9646	-2.95	-3.1771	-2.8667	-2.825	-3.225	-3.0479	-3.2167	-3.1771	80.515	-14.567	94.979	291.573	128.293	119.613	15.089	183.087	23.197	238.400	37.541	123.895	256.044	243.198	-39.838	18.384	0.00017386	0.00036015	8.9831e-05	679.11	1.7937e-06	3.4021e-06	601.74	202.68	1.939e-06	3.1982e-06	212.79	84.256	72.52	37.366	3.0448e-06	45.294	0.0002896	0.000193	4.8476e-05	661.47	1.8622e-06	2.5203e-06	584.88	198.69	2.2529e-06	1.9943e-06	206.61	83.075	71.857	36.892	2.3174e-06	44.71	134.999	25.719	37.936	-48.681	87.685	79.159	-50.019	-43.931	60.639	83.655	-46.338	-41.938	-39.452	-35.243	81.964	-38.358	-8191	255	
25734.881	1	1	0	0	0.281	0.14622	0.11651	0.29121	0.12459	0.30486	0.053664	0.23172	0.22313	0.13686	0.11167	0.26382	0.11141	0.088069	0.24532	0.15796	-2.4	-3.1354	-2.975	-3.0687	-3.1188	-2.8458	-3.1792	-3.175	-3.1146	-3.2042	-2.9583	-2.8333	-3.2375	-3.1417	-3.1708	-3.2625	44.127	215.177	66.883	272.008	86.937	-43.195	182.330	228.033	-53.287	62.727	-43.119	291.415	-16.313	283.749	6.232	-34.240	0.00017192	0.00034154	9.8172e-05	680.61	2.086e-06	3.6356e-06	598.06	202.7	1.6825e-06	3.8478e-06	211.12	84.299	72.306	37.387	2.2464e-06	45.423	0.00030649	0.00018515	5.2408e-05	660.91	1.9441e-06	2.0325e-06	581.52	198.87	2.0746e-06	1.8886e-06	205.35	82.881	71.814	36.953	2.2473e-06	44.72	134.048	32.731	19.437	-48.686	67.470	74.802	-49.950	-43.766	75.107	86.878	-46.364	-42.289	-39.235	-34.836	89.797	-38.728	-8191	255	
25734.977	1	1	0	0	0.30735	0.12187	0.27821	0.11926	0.095483	0.16408	0.21049	0.070837	0.18325	0.2441	0.23189	0.27	0.2616	0.16611	0.10188	0.030309	-2.4437	-3.0187	-3.0771	-2.9292	-3.2458	-2.9729	-3	-3.1708	-2.9458	-3.0167	-3.1479	-2.9271	-3.1063	-2.9771	-2.9458	-3.2521	246.861	212.292	85.391	167.081	251.927	20.269	171.290	203.935	58.602	4.005	105.708	214.422	-33.793	180.271	129.714	272.095	0.00015365	0.00039596	0.00010277	680.92	3.3965e-06	2.6745e-06	597.39	203.39	2.5357e-06	4.3672e-06	211.67	84.131	72.684	37.469	2.1555e-06	45.426	0.00029193	0.00018537	4.6541e-05	660.38	2.1116e-06	1.8763e-06	582.15	199.32	2.164e-06	1.8391e-06	205.91	82.911	72.003	37.017	2.0371e-06	44.662	131.795	21.886	29.437	-48.775	85.894	110.871	-50.094	-43.752	62.071	95.705	-46.295	-42.338	-39.552	-35.157	79.330	-38.744	-8191	255	
25735.096	1	1	0	0	0.16782	0.12057	0.088341	0.23659	0.23561	0.238	0.13068	0.17095	0.21379	0.15912	0.13205	0.27443	0.068635	0.36548	0.30439	0.27433	-2.6333	-3.0125	-2.9437	-2.8438	-3.1625	-3.0417	-3.0146	-3.1917	-2.9042	-3.0646	-3.0896	-3.0271	-3.0479	-2.9938	-2.7833	-2.9083	24.142	294.472	121.961	264.487	71.219	223.508	-59.525	266.875	64.787	10.729	91.488	244.846	159.821	256.051	-56.334	212.532	0.00016	0.00035906	0.00011538	679.03	2.3301e-06	2.6113e-06	599.06	203.79	1.3741e-06	2.5558e-06	211.72	84.677	73.824	37.774	2.5055e-06	45.998	0.00028727	0.00019024	5.3063e-05	659.89	1.9447e-06	2.0035e-06	583.02	198.8	2.1428e-06	1.7799e-06	206.99	83.479	72.792	37.348	2.0696e-06	45.194	133.522	39.771	21.281	-48.674	79.098	72.683	-49.790	-43.804	90.554	94.905	-46.157	-42.368	-39.448	-35.151	64.102	-38.813	-8191	255	
25735.191	1	1	0	0	0.086247	0.069142	0.083795	0.13406	0.11654	0.13177	0.22184	0.19778	0.19934	0.032666	0.26267	0.31427	0.10062	0.069834	0.26627	0.24026	-2.4854	-3.1292	-2.9375	-2.8875	-3.1125	-2.8979	-3.0229	-3.0958	-2.7125	-2.9417	-3.1688	-2.8771	-3.0812	-2.8833	-2.5646	-3.1562	176.171	-37.747	177.314	-45.661	-24.432	15.393	-1.012	-60.796	-25.052	191.192	282.494	265.733	49.635	201.394	16.130	209.596	0.00015987	0.00038664	0.00013707	682.59	2.5594e-06	2.4295e-06	606.35	205.2	2.2264e-06	2.6874e-06	214.95	86.162	74.44	38.14	1.9132e-06	46.281	0.00024442	0.00023696	5.0488e-05	662.16	2.1175e-06	1.7615e-06	588.31	201.05	2.0984e-06	1.8238e-06	208.74	84.634	73.414	37.734	2.1285e-06	45.474	137.084	49.957	37.719	-48.839	82.252	90.364	-49.990	-43.523	97.333	103.851	-46.104	-42.427	-39.258	-35.045	102.814	-38.859	-8191	255	
25735.287	1	1	0	0	0.16756	0.18523	0.043501	0.26361	0.15355	0.1778	0.078343	0.1545	0.20069	0.031301	0.10403	0.11585	0.18063	0.12623	0.17222	0.10657	-2.5458	-2.9688	-3.1437	-2.8354	-3.1937	-3.0812	-2.8854	-3.0875	-2.9417	-2.9417	-3.1646	-2.9458	-3.1146	-3.1521	-2.5708	-3.3063	142.857	234.742	94.827	-58.007	232.878	60.066	114.091	66.675	149.778	79.009	243.582	-51.541	225.826	113.999	-30.841	13.234	0.00017373	0.00025768	7.9384e-05	684.16	1.6632e-06	3.7096e-06	600.54	205.69	1.5959e-06	3.741e-06	213.41	85.158	73.937	37.897	1.7692e-06	45.777	0.00026187	0.00027502	4.8948e-05	663.57	1.9816e-06	1.909e-06	585.42	200.92	2.191e-06	1.9479e-06	207.26	83.78	72.972	37.442	2.3106e-06	45.132	135.840	12.506	47.321	-48.871	72.874	88.232	-49.993	-43.798	88.891	83.100	-46.408	-42.080	-39.626	-34.883	89.015	-38.624	-8191	255	
25735.383	1	1	0	0	0.17373	0.0696	0.12768	0.11265	0.072969	0.1811	0.12394	0.10182	0.15877	0.044557	0.08768	0.172	0.070607	0.065708	0.3028	0.13164	-2.6417	-2.9062	-3.1063	-2.9146	-2.8958	-3.075	-2.7812	-3.0333	-2.8833	-2.9417	-3.2375	-3.0521	-2.9167	-3.0229	-2.8854	-3.0583	93.153	176.938	-0.906	107.023	64.742	192.511	234.915	4.988	9.516	206.586	195.753	191.063	55.552	183.114	94.361	216.738	0.00017942	0.00027456	9.49e-05	683.43	1.9595e-06	3.3986e-06	599.26	204.53	1.5576e-06	3.1861e-06	212.62	84.763	73.564	37.805	2.2052e-06	45.941	0.00024775	0.0002492	4.7348e-05	662.75	1.9457e-06	2.0405e-06	584.11	200.5	2.0936e-06	2.0383e-06	207.42	83.695	72.831	37.425	2.2596e-06	45.249	135.596	16.381	25.631	-48.736	92.123	86.961	-49.962	-43.495	95.242	93.734	-46.700	-42.107	-39.625	-35.132	73.790	-38.696	-8191	255	
25735.479	1	1	0	0	0.20622	0.27558	0.18966	0.10702	0.12788	0.16384	0.16531	0.25377	0.15303	0.05652	0.12504	0.17828	0.14732	0.20706	0.05291	0.31453	-2.6	-2.7417	-3.1667	-2.8688	-3.0687	-3.2125	-3.0187	-3.1625	-3.0563	-2.9229	-3.1646	-2.9708	-2.9313	-3.3542	-2.7938	-3.0479	10.424	254.771	121.617	169.704	23.895	280.231	163.370	94.720	-17.767	65.793	209.292	193.814	274.068	-29.877	-9.589	206.362	0.00017563	0.00032796	0.00012274	684.44	2.4183e-06	3.7614e-06	606.04	205.13	1.4591e-06	3.4671e-06	212.2	85.553	73.416	37.825	2.6308e-06	45.901	0.00024789	0.00027459	4.9482e-05	663.74	1.9388e-06	1.8547e-06	588.81	200.9	1.9079e-06	2.064e-06	207.9	84.076	72.946	37.445	2.3695e-06	45.097	132.283	23.147	28.008	-48.621	87.304	88.354	-49.804	-43.769	87.254	93.610	-46.236	-41.905	-39.527	-35.148	79.934	-38.587	-8191	255	
25735.574	1	1	0	0	0.35746	0.15244	0.31854	0.16289	0.029002	0.12043	0.093316	0.17484	0.19834	0.17328	0.31947	0.15624	0.20678	0.27103	0.17225	0.1799	-2.7438	-2.775	-3.0708	-2.9958	-3.0646	-3.1917	-2.9667	-3.075	-3.0042	-2.8125	-3.0646	-3.0187	-2.8271	-3.4125	-2.9625	-3.1854	3.412	82.842	-55.693	281.757	104.983	223.396	61.859	253.723	96.913	296.686	-3.757	-47.904	218.187	-17.206	8.866	252.213	0.00017289	0.00014734	0.00011414	683.66	1.883e-06	3.7667e-06	603.25	204.75	1.4551e-06	3.3041e-06	210.2	83.574	72.757	37.247	1.7784e-06	44.798	0.00024229	0.00027702	5.2591e-05	666.98	2.0661e-06	2.0288e-06	587.4	199.87	1.9761e-06	2.0432e-06	205.04	82.171	71.758	36.747	2.2927e-06	44.008	133.923	26.967	41.115	-48.709	116.609	100.713	-50.021	-43.597	37.940	106.616	-46.063	-42.288	-39.019	-35.017	76.771	-38.564	-8191	255	
25735.695	1	1	0	0	0.17813	0.10128	0.11889	0.19664	0.1274	0.22829	0.12258	0.17084	0.37044	0.053113	0.14144	0.057743	0.2159	0.065582	0.15665	0.17817	-2.6	-2.8104	-3.0792	-3.0896	-2.8187	-3.0812	-2.9604	-3.0333	-3.1229	-2.7583	-3.1021	-3.2771	-2.8125	-2.9562	-2.9	-2.9729	43.447	-47.963	7.009	129.044	128.579	202.022	192.140	207.588	267.173	62.901	240.583	54.958	266.952	35.729	151.322	264.550	0.00016775	0.00032395	0.00010336	683.16	2.2856e-06	1.9693e-06	593.31	201.67	1.8309e-06	4.0768e-06	207.43	82.31	71.9	36.68	1.1967e-06	44.248	0.00023908	0.0002787	4.9025e-05	663.01	2.0929e-06	1.8115e-06	580.32	197.57	2.1338e-06	2.0041e-06	202.5	81.139	70.921	36.272	2.0836e-06	43.538	137.015	4.666	42.344	-48.527	84.134	93.430	-49.763	-43.559	75.543	102.831	-46.332	-42.467	-39.297	-35.095	45.961	-38.366	-8191	255	
25735.789	1	1	0	0	0.19219	0.16023	0.27895	0.041295	0.12972	0.078747	0.03776	0.23436	0.066327	0.22935	0.16864	0.1489	0.14258	0.030339	0.064191	0.31506	-2.7604	-2.775	-3.2562	-3.1625	-3.0146	-3.2021	-2.9813	-2.9688	-3.0458	-2.9188	-3.1021	-2.9437	-2.8771	-3.1583	-2.8312	-2.8396	30.931	147.630	260.937	13.963	233.751	287.363	82.747	-53.408	-9.957	-41.259	265.186	208.844	73.270	-57.342	68.306	183.893	0.0001666	0.00033323	0.00012235	680.63	1.4166e-06	3.1671e-06	597.34	200.75	2.6077e-06	3.432e-06	206.68	82.073	72.139	36.765	2.0704e-06	44.612	0.00025143	0.00025667	5.2865e-05	661.39	2.2165e-06	1.9109e-06	579.58	196.98	2.1905e-06	2.1171e-06	202.24	81.053	71.104	36.453	2.2322e-06	43.796	137.710	29.310	22.866	-48.598	108.519	110.448	-50.250	-43.337	77.933	81.535	-46.019	-42.079	-39.397	-35.210	57.101	-38.591	-8191	255	
25735.887	1	1	0	0	0.1371	0.11125	0.39164	0.25894	0.19133	0.063991	0.42621	0.2333	0.19034	0.11996	0.2909	0.067132	0.064277	0.25778	0.18841	0.064743	-2.6271	-2.8271	-2.8229	-3.1729	-3.0062	-3.1229	-3.0083	-2.8083	-3.0417	-2.9521	-3.0312	-3.1562	-2.8521	-3.15	-2.9417	-2.8937	276.053	-31.026	68.414	180.804	64.348	273.921	220.424	217.207	163.398	49.717	284.216	109.038	147.150	190.936	105.000	-9.049	0.00017734	0.00029249	0.00010053	675.06	1.0016e-06	4.5005e-06	591.89	201.38	2.1471e-06	2.2282e-06	207.97	82.768	72.056	37.146	2.6166e-06	44.77	0.00024521	0.000227	5.9509e-05	655.86	2.0153e-06	1.9344e-06	577.61	197.23	2.1137e-06	1.8361e-06	203.67	81.797	71.533	36.741	2.2501e-06	44.151	132.380	30.309	38.246	-48.869	115.513	91.700	-49.956	-43.695	81.841	107.822	-46.317	-42.359	-39.260	-34.972	69.232	-38.729	-8191	255	
25736.008	1	1	0	0	0.22157	0.13481	0.098429	0.29007	0.19447	0.08986	0.16515	0.25731	0.15334	0.12924	0.16594	0.22091	0.1364	0.27449	0.072599	0.34038	-2.75	-2.7042	-3.0229	-3.1188	-2.9167	-3.0687	-3.0458	-2.85	-3.2333	-2.9708	-3.0542	-3.1167	-2.8146	-3.1625	-3.1208	-2.9375	84.955	226.190	-60.481	215.941	116.963	233.935	171.157	240.219	2.696	-10.807	242.989	235.988	250.991	-40.101	144.905	240.114	0.00014568	0.00019887	9.0184e-05	679.44	2.3241e-06	3.8882e-06	592.49	201.67	7.0683e-07	3.6011e-06	207.62	82.685	72.01	36.92	2.1583e-06	44.187	0.00025279	0.00016961	7.1137e-05	658.54	1.9896e-06	1.9479e-06	577.1	197.71	1.9867e-06	1.9766e-06	202.2	81.294	71.193	36.53	2.1582e-06	43.486	127.802	49.531	46.855	-48.871	95.984	98.314	-49.910	-43.895	79.517	76.314	-46.432	-42.106	-39.284	-35.151	84.307	-38.736	-8191	255	
25736.078	1	1	0	0	0.073654	0.12878	0.12822	0.25985	0.095605	0.068928	0.12872	0.13963	0.15791	0.058129	0.25237	0.14536	0.067939	0.34996	0.014893	0.25468	-2.7833	-2.8667	-2.8021	-3.3	-2.7354	-3.0458	-3.1229	-2.7792	-3.1854	-2.85	-3.0021	-3.2021	-2.9229	-2.9896	-2.9813	-2.8646	-6.051	30.233	129.144	213.050	32.493	-32.662	282.613	290.043	202.521	260.267	-23.055	88.453	276.977	228.144	62.214	292.528	0.00017862	0.00034553	7.0516e-05	679.12	2.9928e-06	3.085e-06	590.14	201.13	2.0542e-06	3.1291e-06	205.85	81.274	71.195	36.22	2.6532e-06	43.281	0.00025367	0.00018937	7.4489e-05	660.41	2.1507e-06	1.8257e-06	576.62	196.86	2.0809e-06	1.9998e-06	200.42	80.001	70.206	35.862	1.9491e-06	42.58	138.028	29.859	9.356	-48.811	76.990	102.011	-50.165	-43.599	91.572	92.877	-46.224	-42.306	-39.397	-34.868	99.365	-38.678	-8191	255	
25736.176	1	1	0	0	0.095765	0.00080469	0.21857	0.05228	0.23259	0.17083	0.2787	0.25598	0.21072	0.21626	0.094283	0.093015	0.40657	0.22607	0.21163	0.17217	-2.7	-3.0604	-2.7375	-3.0354	-2.7083	-2.9229	-3.2313	-2.8604	-3.1896	-3.0792	-2.9313	-3.2188	-2.8229	-3.0125	-3.1229	-2.9875	230.547	180.000	86.630	-15.783	-40.245	52.408	249.287	2.836	28.371	222.423	-47.432	176.806	237.076	10.864	-50.266	-58.246	0.0001562	0.00023598	9.0667e-05	672.39	2.9648e-06	3.2809e-06	587.59	198.46	1.6448e-06	2.6677e-06	203.35	80.037	70.226	35.818	1.5337e-06	43.154	0.00024058	0.0001695	7.3834e-05	654.26	2.1127e-06	2.0782e-06	570.81	193.98	2.1301e-06	1.8556e-06	198.02	78.945	69.495	35.449	2.0169e-06	42.377	136.448	44.495	4.754	-48.846	87.153	62.731	-50.268	-43.631	52.639	83.123	-46.334	-42.177	-39.202	-34.669	90.961	-38.239	-8191	255	
25736.271	1	1	0	0	0.10561	0.28271	0.22311	0.20882	0.077474	0.10469	0.20094	0.077177	0.048834	0.18173	0.036486	0.17705	0.26588	0.17172	0.12436	0.0016615	-2.6333	-2.8979	-2.6937	-3.2083	-2.9917	-2.9708	-3.1188	-2.8875	-3.1354	-3.0875	-2.9062	-3.1583	-2.9229	-3.0104	-3.2562	-2.8917	119.204	237.403	67.814	257.285	223.512	-27.503	-56.313	207.198	40.711	166.681	-7.437	39.341	-36.772	207.896	-16.009	180.000	0.00016635	0.0003597	8.4534e-05	672.28	1.9185e-06	2.4587e-06	588.88	198.18	1.1918e-06	3.1953e-06	204.81	80.061	70.46	35.926	2.3116e-06	42.844	0.00024887	0.00018271	7.6928e-05	653.07	2.0902e-06	1.9837e-06	571.39	194.05	2.1031e-06	1.8556e-06	199.21	79.214	69.409	35.528	2.1688e-06	42.214	139.530	35.655	9.842	-48.664	78.377	104.214	-50.072	-43.623	85.813	91.062	-45.783	-41.834	-39.436	-34.685	104.530	-38.686	-8191	255	
25736.393	1	1	0	0	0.13143	0.055063	0.17864	0.11634	0.12845	0.24648	0.1605	0.30784	0.12001	0.038478	0.2312	0.2157	0.10694	0.1917	0.13993	0.39666	-2.6354	-3.0062	-2.6896	-3.0625	-2.8187	-2.8479	-3.2667	-2.9354	-3.0458	-3.1104	-2.7687	-3.0417	-3.1792	-3.0354	-3.1813	-2.8208	49.860	53.258	-16.863	26.667	-36.324	23.795	248.325	247.363	279.052	97.349	286.304	242.679	134.095	268.981	52.377	249.771	0.00013927	0.00030625	0.00010323	666.65	2.6214e-06	3.5174e-06	582.19	197.23	2.5236e-06	3.01e-06	201.31	79.029	69.748	35.405	2.1929e-06	42.125	0.00023357	0.00018412	7.452e-05	650.06	2.1287e-06	2.051e-06	566.46	192.92	2.6096e-06	1.8153e-06	195.76	77.919	68.741	35.06	2.2512e-06	41.453	135.447	37.415	20.598	-48.596	76.598	107.129	-50.218	-43.853	89.414	81.795	-46.323	-42.163	-39.480	-34.866	94.942	-38.659	-8191	255	
25736.488	1	1	0	0	0.19944	0.14472	0.25952	0.29043	0.27709	0.15463	0.17122	0.23914	0.027558	0.055952	0.099441	0.13676	0.068871	0.21271	0.35791	0.062612	-2.5396	-3.0938	-2.8208	-3.15	-3.0021	-2.7958	-3.1417	-3.0521	-3.0583	-3.25	-2.9229	-3.075	-2.9437	-2.7896	-3.2125	-2.9188	254.183	56.488	1.245	246.362	184.697	72.193	190.189	266.323	-6.738	-48.336	242.046	24.237	152.261	-34.739	27.184	259.274	0.00015978	0.00041189	9.5903e-05	664.28	3.2469e-06	4.2896e-06	580.12	194.72	2.5708e-06	2.8991e-06	199.93	78.388	69.378	35.503	3.6365e-06	42.529	0.00023731	0.0001688	7.8314e-05	646.27	2.1025e-06	2.0739e-06	564.02	190.84	2.9091e-06	1.7768e-06	194.71	77.781	68.889	35.237	2.2428e-06	41.782	133.719	39.179	24.807	-48.730	108.351	79.920	-49.891	-44.016	67.076	93.246	-46.314	-42.190	-39.385	-34.750	63.321	-38.260	-8191	255	
25736.584	1	1	0	0	0.21813	0.15896	0.20345	0.12409	0.01406	0.11918	0.11416	0.16834	0.25443	0.046268	0.14371	0.11977	0.083321	0.37216	0.18326	0.21314	-2.5604	-3.2229	-2.9396	-3.0521	-3.1542	-2.9042	-3.2188	-2.9042	-2.7979	-3.1083	-2.8896	-3.0896	-3.0312	-2.7542	-3.1688	-2.8563	-46.517	208.007	81.278	286.879	42.278	221.862	227.659	0.147	266.810	-52.652	-45.138	286.847	261.847	201.899	-55.763	153.653	0.00018663	0.00040559	8.285e-05	659.93	1.821e-06	4.7086e-06	577.14	196.13	2.534e-06	4.4325e-06	201.11	79.939	70.02	35.937	2.4599e-06	42.833	0.00024866	0.00018488	7.1807e-05	642.62	2.0003e-06	2.1869e-06	561.43	191.49	3.1616e-06	1.9772e-06	197.02	78.78	69.216	35.556	2.3247e-06	42.265	131.602	9.039	6.538	-48.896	82.173	95.743	-49.920	-43.800	99.090	79.585	-45.904	-42.373	-39.077	-34.805	67.787	-38.558	-8191	255	
25736.656	1	1	0	0	0.19606	0.22553	0.23876	0.18812	0.16239	0.26562	0.14331	0.045089	0.10699	0.072792	0.22143	0.14059	0.12279	0.49357	0.29471	0.10441	-2.4521	-3.0396	-2.7938	-3.1833	-3.2438	-2.7875	-2.9333	-3.1229	-2.9542	-3.1146	-2.8083	-3.0354	-3.1958	-2.9792	-3.05	-3.0708	-29.528	-12.250	85.700	-5.016	-8.703	17.992	164.565	218.621	242.077	23.565	280.794	171.195	162.868	220.317	221.330	128.888	0.00016615	0.00033432	8.7541e-05	660.22	2.2476e-06	2.6765e-06	577.76	195.81	2.8413e-06	3.6819e-06	203.34	80.182	70.29	36.087	2.2493e-06	42.799	0.00024857	0.00017302	6.2527e-05	642.5	2.0249e-06	2.0412e-06	562.25	191.57	2.7562e-06	1.9295e-06	197.26	79.034	69.556	35.584	2.1543e-06	42.184	142.075	31.221	21.385	-48.665	88.196	124.293	-49.868	-43.631	58.705	69.239	-46.211	-42.077	-39.183	-35.106	90.010	-38.797	-8191	255	
25736.775	1	1	0	0	0.081118	0.23317	0.14775	0.090412	0.10997	0.12843	0.11787	0.21827	0.018598	0.036208	0.23494	0.017522	0.29697	0.042942	0.15373	0.25528	-2.3146	-3.0021	-2.7229	-2.975	-3.1271	-2.8104	-3.0479	-3.0438	-2.8563	-3.0479	-3.0062	-2.9167	-3.1063	-2.85	-3.0833	-2.9458	273.844	158.669	275.947	29.756	160.912	254.661	-43.453	-43.651	141.535	63.884	-0.943	120.888	171.634	150.381	31.099	239.514	0.00016396	0.00033021	0.00011441	658.98	2.6344e-06	4.1902e-06	574.59	195.34	2.2861e-06	4.2871e-06	200.64	79.686	69.184	35.22	2.9147e-06	42.017	0.00024167	0.00017557	5.0183e-05	641.06	1.874e-06	2.106e-06	559.74	190.81	2.8658e-06	1.701e-06	195.65	78.42	68.605	34.863	2.1604e-06	41.367	132.973	21.803	26.708	-48.591	87.216	90.573	-49.739	-43.238	67.848	90.922	-46.212	-42.069	-39.579	-34.962	87.063	-38.575	-8191	255	
25736.871	1	1	0	0	0.19877	0.066667	0.13029	0.069572	0.32869	0.12529	0.12826	0.39921	0.11834	0.25967	0.10717	0.32979	0.28181	0.38984	0.22571	0.16306	-2.3646	-3.1354	-2.8333	-3.0208	-3.0875	-3.0938	-3.2625	-3.1937	-2.9646	-2.95	-2.9104	-2.8417	-3.1583	-2.9125	-3.0229	-3.1583	202.633	102.524	-6.860	212.516	263.854	12.372	271.590	283.935	-9.142	119.123	-19.034	-1.351	-52.864	229.133	192.175	261.553	0.00017533	0.00042173	8.1864e-05	652.5	2.3905e-06	3.675e-06	570.94	192.39	2.6567e-06	2.791e-06	199.22	78.959	68.955	35.081	3.0541e-06	41.828	0.00023758	0.00019479	5.0579e-05	635.23	1.9591e-06	1.9986e-06	555.65	187.86	2.9346e-06	1.8037e-06	194.51	77.824	67.951	34.567	2.5831e-06	41.185	134.368	33.433	29.417	-48.844	90.796	108.738	-49.843	-43.479	59.649	94.605	-46.138	-42.183	-39.214	-34.893	99.654	-38.638	-8191	255	
25736.969	1	1	0	0	0.21774	0.28849	0.083111	0.046482	0.24161	0.10133	0.08142	0.15736	0.37825	0.19121	0.15925	0.11382	0.14317	0.034359	0.12707	0.14324	-2.4771	-3.0729	-2.9688	-2.7375	-3.0333	-2.9562	-3	-3.3167	-2.8479	-3.0167	-2.9917	-2.7562	-3.0229	-3.0625	-2.9896	-3.1396	-14.994	145.999	-5.367	264.397	108.985	251.963	213.033	267.725	-46.206	237.653	291.141	195.609	292.093	78.132	198.978	-14.181	0.00015506	0.00026358	8.3367e-05	654.25	2.7511e-06	3.5582e-06	573.42	194.31	2.1428e-06	3.6259e-06	203.68	81.779	71.457	36.547	2.004e-06	44.188	0.00024562	0.00018472	5.2347e-05	637.57	1.9661e-06	2.0128e-06	558.89	190.24	3.1013e-06	1.8574e-06	198.44	80.534	70.705	36.126	2.8953e-06	43.489	136.473	20.198	38.185	-48.699	79.098	93.142	-50.223	-43.604	72.808	106.899	-46.230	-42.403	-39.030	-34.957	131.149	-38.867	-8191	255	
25737.088	1	1	0	0	0.27107	0.1909	0.11635	0.58306	0.034995	0.13002	0.2423	0.28856	0.10216	0.20272	0.024829	0.19153	0.05054	0.1444	0.13092	0.2697	-2.4375	-3.0854	-3.0146	-2.8479	-3.1688	-2.9271	-3.0354	-3.125	-2.8187	-2.9708	-3.1188	-2.9146	-3.0792	-3.0312	-2.7958	-3.0792	-8.690	-20.997	7.179	260.634	128.521	258.984	-41.665	200.464	16.670	-35.382	265.216	261.230	275.195	265.406	210.359	210.169	0.00017414	0.00038432	9.259e-05	652.87	2.145e-06	3.1641e-06	577.7	198.95	1.3861e-06	3.4394e-06	207	82.487	71.821	36.563	1.1839e-06	43.587	0.00025824	0.00016658	4.6937e-05	635.92	1.9666e-06	1.7442e-06	563.53	193.95	2.7763e-06	1.786e-06	202.05	81.301	71.296	36.321	3.1666e-06	42.854	139.788	19.614	26.754	-48.691	79.512	83.340	-50.312	-43.810	46.726	97.857	-46.031	-42.122	-39.597	-35.154	61.536	-38.627	-8191	255	
25737.184	1	1	0	0	0.19182	0.11088	0.14411	0.11577	0.27465	0.18579	0.22717	0.057224	0.1915	0.22363	0.08801	0.07829	0.18813	0.1	0.21733	0.18788	-2.3937	-2.9542	-2.9292	-2.8187	-3.1542	-2.9417	-2.9125	-3.2188	-2.6042	-3.0771	-3.1333	-2.8479	-2.925	-2.8646	-2.7292	-3.3688	186.865	125.853	159.909	266.037	235.339	113.624	215.736	209.968	72.809	184.218	-1.282	-45.722	-44.484	-21.474	123.702	244.652	0.00016577	0.00033852	0.00010837	656.58	1.9584e-06	4.5309e-06	579.24	195	2.5755e-06	1.7676e-06	200.49	79.79	69.307	35.097	1.6902e-06	41.58	0.00023817	0.00018569	4.9848e-05	641.75	1.9827e-06	2.1362e-06	563.78	191.45	2.4905e-06	2.2363e-06	196.32	78.385	68.765	34.695	3.0164e-06	40.929	138.956	10.268	21.652	-48.532	97.722	96.447	-50.132	-43.611	78.533	130.566	-45.919	-42.192	-39.337	-34.906	86.183	-38.868	-8191	255	
25737.279	1	1	0	0	0.13905	0.070396	0.084245	0.19614	0.19387	0.049694	0.10546	0.14383	0.16105	0.12167	0.12094	0.076135	0.15565	0.26995	0.13553	0.17921	-2.35	-2.9271	-3.0792	-2.7833	-3.0521	-3.1521	-2.9396	-3.1813	-2.8521	-3.0312	-3.1667	-2.7917	-3.0229	-3.0417	-2.7687	-3.0812	138.575	148.481	278.736	-57.626	205.179	202.634	228.082	217.913	244.506	184.562	100.274	-26.998	282.006	290.633	83.656	79.037	0.00015707	0.00032063	0.00011852	654.98	1.8987e-06	4.0562e-06	575.41	192.71	1.5768e-06	2.5384e-06	196.92	78.24	68.485	34.32	2.5295e-06	41.149	0.00024221	0.00016642	5.0655e-05	637.78	2.0105e-06	1.8337e-06	559.98	188.19	2.2878e-06	2.7733e-06	192.78	77.274	67.58	34.121	3.0915e-06	40.501	134.877	21.093	23.686	-48.687	86.012	80.638	-49.842	-43.381	105.956	66.643	-46.279	-42.070	-39.067	-34.966	119.045	-38.451	-8191	255	
25737.377	1	1	0	0	0.22492	0.17978	0.19805	0.078438	0.20585	0.12253	0.20422	0.17346	0.10655	0.33515	0.25272	0.089057	0.18231	0.18325	0.27134	0.16487	-2.5083	-2.7542	-3.0146	-2.7771	-3.0604	-3.1271	-2.7146	-3.0729	-2.9771	-2.875	-3.1188	-2.8021	-2.8875	-3.2625	-2.7417	-3.2667	274.155	235.255	224.403	-13.065	-35.098	15.748	128.396	120.757	-19.302	-24.831	177.553	265.810	11.411	-23.667	56.625	164.483	0.00015582	0.00036875	0.0001036	661.47	1.8692e-06	4.5067e-06	575.62	191.58	1.8056e-06	4.2346e-06	196.3	78.723	68.977	34.457	8.6496e-07	40.956	0.00024111	0.00017064	5.3459e-05	640.69	2.1073e-06	1.9276e-06	560.84	187.84	2.0809e-06	2.8558e-06	192.94	77.263	67.943	34.134	2.9676e-06	40.579	141.167	23.452	28.870	-48.676	89.317	83.298	-49.984	-43.579	107.916	98.217	-46.031	-42.230	-39.148	-35.056	81.347	-38.291	-8191	255	
25737.473	1	1	0	0	0.090582	0.10468	0.048097	0.13526	0.31	0.085457	0.24193	0.20186	0.0595	0.27645	0.053548	0.26091	0.21817	0.23589	0.10982	0.087834	-2.6688	-2.7958	-3.2	-2.9521	-3.0938	-3.1063	-2.8521	-3.1896	-2.8312	-2.8625	-3.1458	-2.8708	-3.0104	-3.1813	-2.7792	-3.0521	107.407	228.961	259.331	213.249	255.199	254.538	206.949	-58.306	77.198	184.220	-2.588	208.943	222.595	-59.697	265.267	241.158	0.00014888	0.00040079	8.7929e-05	652.9	1.8752e-06	2.3917e-06	569.16	191.98	2.6304e-06	2.5321e-06	197.1	78.828	68.695	34.968	2.4864e-06	41.742	0.00023675	0.00017351	5.1417e-05	635.36	2.4509e-06	1.8862e-06	556.02	187.62	2.0904e-06	2.6084e-06	192.31	77.487	67.935	34.54	3.1565e-06	41.031	125.443	27.076	20.760	-48.695	93.906	94.756	-49.566	-43.337	62.119	68.431	-46.280	-42.308	-39.483	-34.825	96.389	-38.773	-8191	255	
25737.568	1	1	0	0	0.1127	0.16013	0.031361	0.1093	0.12948	0.12615	0.15388	0.23414	0.16313	0.077278	0.32767	0.23393	0.085002	0.07336	0.079956	0.062118	-2.4271	-2.5667	-3.0229	-2.8833	-2.9958	-3.1083	-2.9458	-3.0375	-2.9688	-2.9167	-3.1542	-3.0125	-2.8792	-3.2271	-2.9146	-3.2646	168.431	-25.525	27.008	180.254	-39.165	182.958	10.263	297.042	33.764	160.426	267.448	-40.524	121.000	-53.117	135.990	195.600	0.00015712	0.00020203	0.00012036	651.32	2.9822e-06	4.2401e-06	569.56	192.88	4.3581e-07	3.6775e-06	199.33	78.989	69.331	35.189	1.9672e-06	41.728	0.00024294	0.0001884	5.1204e-05	633.74	2.7939e-06	1.8343e-06	554.54	188.78	1.9417e-06	3.0251e-06	194.59	77.992	68.496	34.803	2.8028e-06	41.238	131.107	9.125	32.922	-48.559	66.993	101.083	-49.832	-43.931	52.283	89.490	-46.298	-42.155	-39.359	-34.977	66.425	-38.953	-8191	255	
25737.689	1	1	0	0	0.17245	0.037287	0.35854	0.25028	0.17511	0.041476	0.14356	0.30964	0.089519	0.14346	0.14191	0.05233	0.38223	0.21985	0.18752	0.23771	-2.475	-2.85	-3.0583	-2.9562	-2.8396	-3.0583	-2.7917	-3.0125	-3.0812	-2.8417	-3.0354	-3.05	-2.9021	-3.3	-2.8563	-3.125	243.374	1.136	-48.857	-11.840	52.178	197.091	1.122	179.497	28.548	159.507	158.365	269.121	254.980	38.378	224.293	296.088	0.00013343	0.00032556	0.00011801	649.16	3.7337e-06	4.3873e-06	571.37	192.81	1.4261e-06	3.2541e-06	199.5	80.015	70.011	35.328	2.1224e-06	42.406	0.00023392	0.00019203	5.0503e-05	631.21	2.8282e-06	1.8819e-06	555.44	188.93	1.9311e-06	2.6994e-06	194.91	78.535	69.007	35.03	2.3151e-06	41.76	139.308	23.024	29.855	-48.871	80.273	78.276	-50.093	-43.469	72.803	101.336	-46.078	-42.300	-39.579	-34.929	103.295	-38.670	-8191	255	
25737.783	1	1	0	0	0.24061	0.087883	0.15462	0.063951	0.11386	0.096557	0.12276	0.17155	0.077913	0.077492	0.10911	0.13386	0.35686	0.13315	0.052782	0.031247	-2.7208	-2.8	-3.1	-2.9979	-2.8125	-3.1604	-2.9021	-3.0458	-2.8646	-2.8063	-3.1042	-3.0667	-2.8396	-3.2292	-2.775	-2.8896	-24.268	-6.556	185.081	160.346	36.318	230.474	260.431	181.923	239.582	-56.268	198.180	52.024	-32.393	227.896	-30.411	216.743	0.00014133	0.00030784	0.00010364	657.08	2.328e-06	3.1192e-06	577.14	195.81	2.0602e-06	2.6075e-06	203.15	80.717	70.459	36.112	2.6125e-06	42.775	0.00022779	0.00019186	5.0564e-05	638.01	2.8298e-06	2.0455e-06	560.54	191.73	2.0126e-06	3.1613e-06	197.8	79.484	69.841	35.601	2.1615e-06	42.118	137.149	22.223	31.424	-48.556	73.522	92.932	-49.917	-43.798	54.551	123.705	-46.626	-42.403	-39.241	-35.013	95.559	-38.690	-8191	255	
#DATA ENDS
