BOXY.EXE: ISS Imagent and Oximeter Data Acquisition Program Version 0.80
Ascii Record File

#ACQ INFORMATION
2  Detector Channels 
16  External MUX Channels 
1  Auxiliary Channels 
5000  Waveform (CCF) Frequency (Hz)
1  Waveforms Skipped 
30  Waveforms Averaged 
1  Cycles Averaged 
16  Acquisitions per Waveform 
10.0806  Updata Rate (Hz) 

#FILE INFORMATION
TRUE -- External MUX Channel results are PARSED.
FALSE -- AC DC and Phase are NOT grouped.
TRUE -- Companion Program Settings File CREATED.
FALSE -- AC data not excluded
FALSE -- DC data not excluded
FALSE -- Phase data not excluded
FALSE -- Auxillary Chn. data not excluded
Tab delimiters

#CALIBRATION STATE
TRUE -- Waveform Calibration Values APPLIED.


#AUX CALIBRATION VALUES
Val Type	aux-1	

Term	1.0000e+00	
Factor	0.0000e+00	


#WF CALIBRATION VALUES
A = Detector Channel
Val Type	A-AC1	A-AC2	A-AC3	A-AC4	A-AC5	A-AC6	A-AC7	A-AC8	A-AC9	A-AC10	A-AC11	A-AC12	A-AC13	A-AC14	A-AC15	A-AC16	A-DC1	A-DC2	A-DC3	A-DC4	A-DC5	A-DC6	A-DC7	A-DC8	A-DC9	A-DC10	A-DC11	A-DC12	A-DC13	A-DC14	A-DC15	A-DC16	A-Ph1	A-Ph2	A-Ph3	A-Ph4	A-Ph5	A-Ph6	A-Ph7	A-Ph8	A-Ph9	A-Ph10	A-Ph11	A-Ph12	A-Ph13	A-Ph14	A-Ph15	A-Ph16	

Term	0.00000e+00	0.00000e+00	0.00000e+00	0.00000e+00	0.00000e+00	0.00000e+00	0.00000e+00	0.00000e+00	0.00000e+00	0.00000e+00	0.00000e+00	0.00000e+00	0.00000e+00	0.00000e+00	0.00000e+00	0.00000e+00	0.00000e+00	0.00000e+00	0.00000e+00	0.00000e+00	0.00000e+00	0.00000e+00	0.00000e+00	0.00000e+00	0.00000e+00	0.00000e+00	0.00000e+00	0.00000e+00	0.00000e+00	0.00000e+00	0.00000e+00	0.00000e+00	0.00000e+00	0.00000e+00	0.00000e+00	0.00000e+00	0.00000e+00	0.00000e+00	0.00000e+00	0.00000e+00	0.00000e+00	0.00000e+00	0.00000e+00	0.00000e+00	0.00000e+00	0.00000e+00	0.00000e+00	0.00000e+00	
Factor	1.00000e+00	1.00000e+00	1.00000e+00	1.00000e+00	1.00000e+00	1.00000e+00	1.00000e+00	1.00000e+00	1.00000e+00	1.00000e+00	1.00000e+00	1.00000e+00	1.00000e+00	1.00000e+00	1.00000e+00	1.00000e+00	1.00000e+00	1.00000e+00	1.00000e+00	1.00000e+00	1.00000e+00	1.00000e+00	1.00000e+00	1.00000e+00	1.00000e+00	1.00000e+00	1.00000e+00	1.00000e+00	1.00000e+00	1.00000e+00	1.00000e+00	1.00000e+00	X	X	X	X	X	X	X	X	X	X	X	X	X	X	X	X	

B = Detector Channel
Val Type	B-AC1	B-AC2	B-AC3	B-AC4	B-AC5	B-AC6	B-AC7	B-AC8	B-AC9	B-AC10	B-AC11	B-AC12	B-AC13	B-AC14	B-AC15	B-AC16	B-DC1	B-DC2	B-DC3	B-DC4	B-DC5	B-DC6	B-DC7	B-DC8	B-DC9	B-DC10	B-DC11	B-DC12	B-DC13	B-DC14	B-DC15	B-DC16	B-Ph1	B-Ph2	B-Ph3	B-Ph4	B-Ph5	B-Ph6	B-Ph7	B-Ph8	B-Ph9	B-Ph10	B-Ph11	B-Ph12	B-Ph13	B-Ph14	B-Ph15	B-Ph16	

Term	0.00000e+00	0.00000e+00	0.00000e+00	0.00000e+00	0.00000e+00	0.00000e+00	0.00000e+00	0.00000e+00	0.00000e+00	0.00000e+00	0.00000e+00	0.00000e+00	0.00000e+00	0.00000e+00	0.00000e+00	0.00000e+00	0.00000e+00	0.00000e+00	0.00000e+00	0.00000e+00	0.00000e+00	0.00000e+00	0.00000e+00	0.00000e+00	0.00000e+00	0.00000e+00	0.00000e+00	0.00000e+00	0.00000e+00	0.00000e+00	0.00000e+00	0.00000e+00	-4.91106e+01	-1.29134e+02	-1.27521e+02	-1.82803e+02	-4.69321e+01	-6.59653e+01	-1.55300e+02	-1.62015e+02	-3.08113e+01	-5.60136e+01	-1.72433e+02	-1.69655e+02	-1.79183e+02	-1.77693e+02	-4.59966e+01	-1.49676e+02	
Factor	2.21910e-05	1.68420e-04	4.73740e-05	1.71963e-01	2.02722e-06	1.93536e-06	1.62812e-01	5.14453e-02	1.28848e-06	1.77628e-06	9.95207e-02	3.07250e-02	2.96854e-02	1.01395e-02	1.68739e-06	1.45673e-02	8.04080e-06	1.07497e-05	2.97371e-06	8.54535e-02	1.12668e-07	1.18595e-07	7.62481e-02	2.57182e-02	1.11776e-07	1.19426e-07	4.83138e-02	1.49934e-02	1.50207e-02	5.11324e-03	1.16012e-07	7.12113e-03	X	X	X	X	X	X	X	X	X	X	X	X	X	X	X	X	



#DISTANCE SETTINGS
A = Detector Channel
A-1	A-2	A-3	A-4	A-5	A-6	A-7	A-8	A-9	A-10	A-11	A-12	A-13	A-14	A-15	A-16	

2.5000e+00	3.0000e+00	2.5000e+00	3.0000e+00	2.0000e+00	3.0000e+00	1.5000e+00	3.0000e+00	3.0000e+00	3.0000e+00	3.0000e+00	3.0000e+00	3.0000e+00	3.0000e+00	1.5000e+00	3.0000e+00	

B = Detector Channel
B-1	B-2	B-3	B-4	B-5	B-6	B-7	B-8	B-9	B-10	B-11	B-12	B-13	B-14	B-15	B-16	

1.0000e+01	1.0000e+01	1.0000e+01	1.4400e+00	1.0000e+01	1.0000e+01	1.5100e+00	1.9400e+00	1.0000e+01	1.0000e+01	1.9900e+00	2.4900e+00	2.4100e+00	2.9000e+00	1.0000e+01	2.9800e+00	




#DATA BEGINS
time	group	step	mark	flag	A-AC1	A-AC2	A-AC3	A-AC4	A-AC5	A-AC6	A-AC7	A-AC8	A-AC9	A-AC10	A-AC11	A-AC12	A-AC13	A-AC14	A-AC15	A-AC16	A-DC1	A-DC2	A-DC3	A-DC4	A-DC5	A-DC6	A-DC7	A-DC8	A-DC9	A-DC10	A-DC11	A-DC12	A-DC13	A-DC14	A-DC15	A-DC16	A-Ph1	A-Ph2	A-Ph3	A-Ph4	A-Ph5	A-Ph6	A-Ph7	A-Ph8	A-Ph9	A-Ph10	A-Ph11	A-Ph12	A-Ph13	A-Ph14	A-Ph15	A-Ph16	B-AC1	B-AC2	B-AC3	B-AC4	B-AC5	B-AC6	B-AC7	B-AC8	B-AC9	B-AC10	B-AC11	B-AC12	B-AC13	B-AC14	B-AC15	B-AC16	B-DC1	B-DC2	B-DC3	B-DC4	B-DC5	B-DC6	B-DC7	B-DC8	B-DC9	B-DC10	B-DC11	B-DC12	B-DC13	B-DC14	B-DC15	B-DC16	B-Ph1	B-Ph2	B-Ph3	B-Ph4	B-Ph5	B-Ph6	B-Ph7	B-Ph8	B-Ph9	B-Ph10	B-Ph11	B-Ph12	B-Ph13	B-Ph14	B-Ph15	B-Ph16	aux-1	digaux	

41605.008	1	1	0	256	0.13546	0.3351	0.019308	0.17303	0.11818	0.25163	0.2255	0.25801	0.08201	0.096645	0.13869	0.15363	0.21363	0.24315	0.16037	0.26034	-2.4333	-3.1042	-2.7146	-3.0604	-2.9417	-2.7208	-2.9729	-2.6813	-2.8417	-3.0271	-2.7271	-3.0146	-2.8187	-2.9333	-2.9979	-2.8167	478.854	174.855	443.376	178.590	170.161	292.752	519.554	178.259	303.074	266.270	322.972	235.042	483.524	191.842	297.651	394.459	0.00050521	0.00052129	0.0001605	486.15	5.7426e-06	4.7045e-06	465.42	173.93	4.8253e-06	1.4303e-06	181.39	83.543	68.052	38.26	3.1192e-06	45.907	0.000845	0.00098763	0.00025187	479.41	1.0186e-05	1.0519e-05	459.7	173.3	9.9108e-06	1.0473e-05	183.15	82.976	68.757	38.168	9.8441e-06	45.894	276.143	324.535	283.526	179.022	370.361	281.113	177.731	184.447	303.168	385.317	181.425	185.465	188.360	192.413	353.151	188.190	-8191	255	
41605.129	1	1	0	0	0.16338	0.25171	0.16229	0.30455	0.063273	0.098159	0.18563	0.030505	0.209	0.33896	0.22743	0.057722	0.24253	0.23636	0.054786	0.33534	-2.1854	-2.9375	-2.7375	-2.9813	-3.0125	-2.8021	-3.1562	-2.8667	-2.8417	-3.0104	-2.9062	-2.9313	-3.0312	-2.6708	-2.9521	-2.9417	447.695	426.823	419.587	180.472	226.437	320.073	420.987	242.317	366.385	192.619	445.391	275.552	461.304	462.347	287.246	467.406	0.00051062	0.00021712	0.00013439	486.18	3.5058e-06	2.5731e-06	466.74	174.27	5.0977e-06	3.7121e-06	182.46	83.121	68.693	37.933	5.1988e-06	45.771	0.00085507	0.0009911	0.00025405	481.48	1.0362e-05	1.0667e-05	461.07	173.52	1.0344e-05	1.0557e-05	182.85	83.043	68.905	38.2	9.8743e-06	45.857	272.771	312.640	256.094	178.947	292.477	386.115	177.478	184.299	316.960	304.661	181.254	185.263	188.222	192.645	368.441	188.209	-8191	255	
41605.223	1	1	0	0	0.050272	0.048931	0.041073	0.045247	0.13907	0.066642	0.019661	0.15819	0.026822	0.16906	0.3716	0.24072	0.11542	0.12832	0.068926	0.097826	-2.2604	-2.9938	-2.625	-2.85	-3.0729	-2.8479	-2.8354	-2.8604	-2.675	-3.1021	-2.6896	-2.9667	-3.0917	-2.8583	-2.9479	-3.0292	237.825	439.625	325.473	350.225	443.839	240.344	373.931	494.388	515.201	396.953	439.942	457.757	383.266	517.082	413.839	205.013	0.00048761	0.00056623	5.9832e-05	482.41	5.8407e-06	4.7649e-06	461.98	172.95	3.6781e-06	3.3543e-06	181.85	82.799	68.608	38.113	6.3651e-06	45.673	0.00087558	0.00097556	0.00025093	479.93	1.0025e-05	1.016e-05	457.85	172.93	9.9637e-06	9.9004e-06	181.99	82.76	68.771	38.204	9.4032e-06	45.896	273.676	222.958	210.056	179.527	341.076	297.968	177.674	184.257	351.816	405.319	181.475	185.472	188.139	192.571	331.008	188.707	-8191	255	
41605.320	1	1	0	0	0.046864	0.2691	0.20982	0.054178	0.20011	0.24613	0.10114	0.17718	0.084572	0.2237	0.1574	0.20904	0.084695	0.13651	0.3472	0.18086	-2.2687	-2.9979	-2.85	-2.7812	-3.0187	-2.7292	-3.1	-2.9958	-2.8167	-3.1104	-2.6229	-2.8167	-3.0479	-2.6937	-2.8146	-2.9292	471.323	423.701	170.176	243.331	387.183	504.507	294.245	396.913	412.528	288.291	517.382	333.644	313.932	381.669	241.451	405.533	0.00050359	0.0005211	0.00012248	481.32	2.9226e-06	1.7258e-06	462.67	174.65	2.6056e-06	2.5408e-06	181.33	82.827	68.172	37.971	6.2542e-06	46.289	0.00083872	0.00089061	0.00024662	479.98	9.723e-06	9.7105e-06	458.94	174.01	9.853e-06	9.6521e-06	182.49	82.787	68.695	38.153	9.8158e-06	46.089	276.370	241.230	230.551	179.068	312.830	295.465	177.300	184.066	334.564	334.513	180.879	185.513	188.683	192.430	276.946	188.096	-8191	255	
41605.414	1	1	0	0	0.15447	0.074108	0.11972	0.19675	0.07343	0.30906	0.14242	0.16466	0.24687	0.11701	0.26252	0.38082	0.10839	0.1276	0.12377	0.15995	-2.2604	-2.9771	-2.6167	-2.8167	-2.9458	-2.8396	-3.0083	-2.9625	-2.7292	-3.0542	-3.0125	-2.9188	-3.1688	-2.6917	-2.8625	-3.0312	518.010	447.754	225.354	469.114	502.952	250.465	355.945	257.890	292.350	296.104	422.117	470.016	238.372	211.146	439.523	430.345	0.00051153	0.00025202	0.00013932	486.06	3.7221e-06	4.1138e-06	467.07	176.39	2.455e-06	2.9621e-06	182.12	83.457	68.479	38.065	1.2207e-06	46.168	0.00083569	0.00088056	0.00025944	481.03	9.681e-06	9.6235e-06	460.99	174.05	9.6262e-06	9.464e-06	182.57	83.234	68.612	38.184	1.0064e-05	46.066	275.083	267.069	265.225	178.984	269.548	365.396	177.859	184.409	322.183	361.841	181.831	185.539	188.689	192.658	425.365	188.490	-8191	255	
41605.512	1	1	0	0	0.067089	0.1249	0.12831	0.30134	0.25937	0.4297	0.15075	0.3264	0.075646	0.10085	0.1499	0.18595	0.26408	0.29047	0.14027	0.077312	-2.3812	-3.0104	-2.825	-2.625	-2.9562	-2.825	-3.025	-2.9917	-2.7313	-3.0875	-2.8125	-2.7188	-3	-2.8271	-2.7313	-3.0938	265.357	198.208	213.107	428.000	490.451	511.089	406.048	188.676	415.437	237.449	426.080	349.173	362.623	420.001	438.271	449.792	0.00052322	0.00037706	0.00017645	484.16	3.1157e-06	4.0662e-06	462.24	173.28	5.1213e-06	5.2017e-06	181.28	82.741	68.458	37.803	4.8107e-06	45.847	0.0008184	0.00088945	0.00026361	479.94	9.3327e-06	9.6312e-06	458.37	172.93	9.4702e-06	9.573e-06	181.84	82.773	68.495	38.037	1.0103e-05	45.779	273.758	186.403	260.863	179.044	287.200	227.112	177.644	184.272	320.723	336.899	181.511	185.361	188.268	192.592	336.240	188.456	-8191	255	
41605.605	1	1	0	0	0.40849	0.19042	0.052628	0.17848	0.1471	0.026275	0.075794	0.23596	0.23338	0.12807	0.099186	0.29886	0.067476	0.23474	0.13951	0.075912	-2.2729	-2.7208	-2.8688	-2.8104	-3.0792	-2.7021	-2.8604	-3.0687	-2.75	-2.9062	-2.9208	-2.6833	-2.9146	-3.025	-2.8167	-3.0208	349.040	394.716	312.738	231.779	246.556	457.675	431.538	481.808	429.486	281.767	430.982	480.408	507.023	505.906	304.460	198.174	0.00047798	0.00057276	9.3828e-06	483.72	4.4408e-06	4.6517e-06	464.02	173.63	6.2671e-06	4.5669e-06	181.73	82.537	68.012	37.957	2.0823e-06	45.929	0.00078379	0.00088481	0.00026098	479.14	9.2442e-06	9.6173e-06	457.86	172.79	9.1568e-06	9.8584e-06	181.42	82.456	68.286	38.031	1.02e-05	45.803	272.618	245.803	276.372	179.004	265.943	336.159	177.395	184.216	340.279	296.850	181.910	185.623	188.522	192.394	387.841	187.942	-8191	255	
41605.727	1	1	0	0	0.085223	0.10384	0.2066	0.27705	0.33093	0.1128	0.19182	0.18751	0.05713	0.042921	0.013382	0.10225	0.14398	0.33892	0.024036	0.29451	-2.2208	-2.8312	-2.8375	-2.6875	-2.9313	-2.8833	-2.6042	-3.0875	-2.7396	-2.9479	-3.0375	-2.8646	-3.1021	-2.7896	-2.8604	-3.0417	247.875	277.612	473.744	442.185	299.318	514.899	206.184	410.536	184.969	382.087	233.208	272.015	270.172	430.931	389.999	511.467	0.00054784	0.00031944	7.5163e-05	483.45	4.1629e-06	3.208e-06	461.68	173.26	4.2903e-06	4.8991e-06	180.54	83.067	67.898	37.941	6.794e-06	45.725	0.00077726	0.00090721	0.00026558	478.61	9.3146e-06	1.0014e-05	458.72	172.72	9.2241e-06	1.0179e-05	181.99	82.539	68.301	38.089	1.0276e-05	45.884	272.684	171.830	263.192	178.960	361.038	308.578	177.803	184.382	315.003	281.703	180.819	185.427	188.335	192.507	308.725	188.583	-8191	255	
41605.824	1	1	0	0	0.14835	0.27218	0.14003	0.22087	0.21677	0.41665	0.15763	0.10479	0.080633	0.054304	0.079366	0.20108	0.15113	0.26092	0.067166	0.21803	-2.3187	-2.8458	-2.9542	-2.7021	-2.8583	-2.8333	-2.7583	-3.0958	-2.6292	-2.7979	-2.9896	-2.7062	-3.0938	-3.0563	-2.6354	-2.9354	429.895	295.885	246.677	187.479	368.649	202.205	446.980	462.973	468.371	293.410	340.491	200.534	522.195	482.627	410.719	317.526	0.00053058	0.00011272	0.00017813	487.54	1.0025e-05	4.9467e-06	463.36	173.47	3.4956e-06	3.2465e-06	181.04	82.889	67.879	37.961	3.5817e-06	45.789	0.00079415	0.00096203	0.00027497	480.8	9.5346e-06	1.052e-05	458.91	173.01	9.7441e-06	1.0817e-05	181.99	82.244	68.327	38.112	1.1132e-05	45.743	276.429	224.238	277.906	178.986	322.527	306.652	177.577	184.442	317.471	330.739	181.534	185.434	188.743	192.410	325.883	188.486	-8191	255	
41605.922	1	1	0	0	0.30962	0.11683	0.16208	0.06662	0.17776	0.14374	0.11685	0.20832	0.1048	0.1119	0.21318	0.19009	0.16593	0.14137	0.1808	0.13774	-2.5458	-2.6208	-3.15	-2.825	-3.0187	-2.9313	-2.6063	-3	-3.0021	-2.7646	-3.0312	-2.8271	-2.9708	-2.9583	-2.7667	-3.05	286.197	172.203	379.317	250.278	475.446	431.274	189.484	436.043	425.576	220.030	480.627	516.054	234.659	475.776	329.255	336.924	0.00050937	0.0004902	0.00023764	481.11	1.2056e-06	4.5278e-06	458.73	171.95	3.8172e-06	7.0816e-06	179.77	82.136	67.548	37.967	3.7368e-06	45.415	0.00083432	0.0010164	0.00028225	478.14	1.0002e-05	1.0658e-05	455.71	171.71	1.0176e-05	1.1187e-05	179.89	81.914	68.265	38.001	1.0499e-05	45.638	273.774	285.036	258.703	178.866	482.367	305.396	177.558	184.046	305.894	325.193	181.948	185.714	188.053	192.651	310.177	188.352	-8191	255	
41605.992	1	1	0	0	0.30696	0.082386	0.074056	0.059034	0.099215	0.17449	0.15635	0.028069	0.17157	0.15168	0.115	0.092002	0.093638	0.27429	0.091311	0.095127	-2.1542	-2.7708	-2.7354	-2.825	-2.9271	-2.8187	-2.7979	-2.9104	-2.8104	-2.7812	-3.2125	-2.7208	-2.8937	-3.0458	-2.8521	-3.1458	243.331	297.014	357.814	243.720	391.213	341.675	458.809	357.934	489.531	287.847	331.733	216.953	492.230	376.697	493.485	334.330	0.00051552	0.00069346	5.5587e-05	480.99	1.5811e-06	2.2094e-06	457.36	171.58	2.3706e-06	1.3054e-06	179.8	82.275	67.561	37.655	8.0383e-06	45.657	0.00085477	0.00098333	0.00026849	478.13	1.0136e-05	1.1043e-05	455.59	171.51	1.0611e-05	1.114e-05	179.94	82.231	68.115	37.901	1.0625e-05	45.783	272.027	235.595	293.538	178.996	265.318	402.711	177.374	184.140	314.651	305.336	181.478	185.522	188.256	192.539	320.489	188.402	-8191	255	
41606.113	1	1	0	0	0.20766	0.027651	0.18072	0.13619	0.17038	0.1969	0.19238	0.28155	0.17331	0.13897	0.15453	0.05597	0.16942	0.24783	0.021741	0.18806	-2.6063	-2.7208	-3.1417	-2.8125	-2.8854	-3.0979	-2.7438	-3.0396	-2.8167	-2.6292	-3.0792	-2.8812	-3.0333	-2.9813	-2.8187	-3.0062	389.385	508.693	523.237	170.130	355.608	456.684	476.560	221.767	296.192	515.931	482.679	224.734	175.015	189.304	307.308	180.134	0.00052018	0.00069617	9.6969e-05	478.82	3.9679e-06	8.0344e-06	459.93	171.74	3.8112e-06	4.3729e-06	178.9	82.367	67.787	37.897	7.2511e-07	45.922	0.00089374	0.0010351	0.00026962	476.83	1.0952e-05	1.1148e-05	454.71	171.1	1.0886e-05	1.1264e-05	179.75	82.361	68.023	37.998	1.0322e-05	45.774	268.316	279.423	286.068	178.869	345.605	398.323	177.724	184.135	330.967	353.938	181.137	185.947	188.548	192.811	478.725	188.146	-8191	255	
41606.207	1	1	0	0	0.1025	0.15682	0.16957	0.24987	0.15179	0.077351	0.19935	0.1301	0.090878	0.18732	0.37596	0.16092	0.12449	0.3339	0.23759	0.25437	-2.4333	-2.6125	-2.9437	-2.8083	-2.7979	-2.9375	-2.6188	-2.9479	-2.7833	-2.875	-3.0104	-2.7188	-2.8292	-2.9479	-2.7229	-2.8396	176.205	404.082	223.502	219.566	441.186	506.694	378.386	225.293	409.086	355.515	472.343	494.567	181.548	490.364	503.250	470.796	0.00050973	0.00031041	0.00017773	475.79	3.4808e-06	5.675e-06	455.76	170.63	2.8403e-06	5.5501e-06	178.56	81.855	67.433	37.752	4.6237e-06	45.621	0.00089714	0.0010012	0.00026411	474.47	1.0631e-05	1.0963e-05	451.25	169.81	1.0797e-05	1.0785e-05	179.41	81.946	67.859	37.858	1.0154e-05	45.634	279.052	217.473	263.093	178.957	306.216	306.825	177.633	184.436	307.390	281.167	180.784	185.824	188.397	192.659	312.191	188.447	-8191	255	
41606.305	1	1	0	0	0.1515	0.046708	0.16839	0.086185	0.14804	0.11277	0.085794	0.29646	0.26869	0.36344	0.037474	0.2064	0.098048	0.28481	0.13469	0.19341	-2.5062	-2.7729	-2.9	-2.95	-2.6396	-3.1437	-2.7687	-2.7896	-2.875	-2.7854	-2.9562	-2.8083	-2.6333	-3.0979	-2.6979	-2.6917	512.600	338.024	353.056	173.290	499.458	258.946	444.828	435.760	370.252	201.155	205.806	347.997	374.194	402.116	411.867	429.321	0.0005311	0.00070006	9.9503e-05	474.44	9.8385e-06	3.3058e-06	455.03	170.27	4.8436e-06	8.0253e-06	178.26	82.401	67.54	37.525	1.2992e-06	45.523	0.00088921	0.00097132	0.00025592	472.91	1.059e-05	1.0401e-05	451.5	170.09	1.0573e-05	1.0369e-05	178.77	82.158	67.963	37.724	1.0238e-05	45.685	271.592	262.161	296.138	178.924	306.288	296.531	177.795	184.436	338.981	331.552	181.177	185.572	188.212	192.553	372.890	187.971	-8191	255	
41606.402	1	1	0	0	0.15085	0.19375	0.18925	0.2809	0.064479	0.052873	0.23394	0.15451	0.17074	0.18551	0.15871	0.027192	0.14091	0.058975	0.28858	0.19195	-2.7188	-2.725	-2.8708	-2.9979	-2.8312	-3.0229	-2.9667	-2.7979	-3.1167	-2.8354	-3.0896	-2.9583	-2.5396	-3.025	-2.7604	-2.7479	304.379	192.446	453.122	397.167	392.328	223.217	284.097	177.553	224.803	267.369	479.991	438.549	178.310	294.957	438.176	207.370	0.00049416	0.00027515	9.2057e-05	478.07	2.5647e-06	1.4468e-06	457.52	171.63	5.3481e-06	3.5713e-06	178.75	82.129	67.645	37.632	4.97e-06	45.619	0.00085524	0.00092864	0.00025643	474.9	1.0353e-05	1.002e-05	451.21	170.37	1.0358e-05	9.9664e-06	179.68	82.3	67.975	37.802	1.0324e-05	45.762	274.087	319.687	299.802	179.081	266.962	302.991	177.710	184.211	345.984	309.025	181.471	185.722	188.553	192.784	301.557	188.301	-8191	255	
41606.520	1	1	0	0	0.17698	0.17783	0.22023	0.080327	0.16889	0.17626	0.30602	0.29054	0.15777	0.21888	0.19316	0.11835	0.15773	0.096527	0.1606	0.072516	-2.4354	-2.7021	-2.7771	-3.0042	-2.5208	-3.0896	-2.8521	-2.7542	-3.0167	-2.7167	-2.975	-2.8563	-2.7833	-3.0417	-2.9146	-2.8063	380.019	421.203	386.833	337.523	308.064	253.952	411.859	385.813	260.667	251.745	264.760	459.293	469.319	433.174	167.537	351.591	0.00049961	0.00038975	0.00016152	477.18	3.2686e-06	2.9206e-06	454.18	170.2	5.2146e-06	5.4546e-06	178.68	82.915	67.279	37.505	2.4303e-06	45.871	0.00085109	0.00090326	0.00026335	473.73	9.9127e-06	9.8105e-06	450.89	169.37	1.0118e-05	9.987e-06	178.81	82.627	67.608	37.76	1.0793e-05	45.764	271.730	217.633	251.476	179.002	342.755	389.017	177.341	184.318	376.949	272.829	181.655	185.696	188.576	192.953	300.769	188.541	-8191	255	
41606.590	1	1	0	0	0.21397	0.042034	0.21799	0.26705	0.19435	0.15713	0.17254	0.13695	0.10893	0.26649	0.16779	0.035913	0.32117	0.099747	0.11213	0.16585	-2.5458	-2.7125	-2.875	-3.0833	-2.8104	-3.1042	-2.9625	-2.7083	-3.125	-2.5958	-2.9729	-3.0917	-2.5542	-3.025	-2.7625	-2.6667	229.731	425.661	418.393	487.596	180.432	172.331	393.462	181.740	306.983	391.163	420.939	356.770	520.921	278.697	394.125	340.837	0.00050399	0.00058847	0.00010455	474.6	3.5551e-06	5.3702e-06	449.61	169.19	3.5165e-06	6.2019e-06	176.79	81.993	67.163	37.599	3.2654e-06	45.491	0.00083211	0.00093245	0.00026666	471.31	9.9667e-06	1.0313e-05	447.48	168.95	9.5787e-06	1.0416e-05	178.3	82.171	67.569	37.73	1.0868e-05	45.653	270.944	274.041	228.390	179.222	335.168	226.285	177.231	184.361	312.334	309.326	181.680	185.892	188.366	192.790	300.118	188.310	-8191	255	
41606.688	1	1	0	0	0.090195	0.1278	0.068134	0.13439	0.20649	0.12559	0.21375	0.34845	0.19767	0.16127	0.25002	0.04634	0.11503	0.090568	0.19676	0.1696	-2.6354	-2.9	-2.725	-3.0438	-2.7208	-2.6729	-2.8333	-2.7292	-2.9917	-2.8875	-2.8229	-2.9562	-2.8542	-3.1604	-2.9292	-2.7708	335.551	345.802	259.303	227.425	306.750	376.469	491.659	478.687	239.554	394.547	271.574	520.841	202.759	181.062	432.526	421.987	0.00048498	0.00016871	0.00011785	474.49	8.6583e-07	5.136e-06	453.88	168.54	3.234e-06	6.1891e-06	177.37	82.343	67.217	37.422	5.336e-06	45.723	0.00082721	0.00094541	0.00027722	470.83	9.7181e-06	1.0209e-05	448.91	168.74	9.701e-06	1.0735e-05	178.15	82.384	67.563	37.674	1.0897e-05	45.672	272.402	253.426	301.356	179.116	422.005	300.439	177.513	184.476	337.295	328.989	181.166	185.450	188.129	192.646	322.630	188.463	-8191	255	
41606.809	1	1	0	0	0.2774	0.29378	0.06929	0.046539	0.30709	0.13235	0.17505	0.1671	0.26494	0.14046	0.16189	0.30144	0.16273	0.016427	0.14009	0.30669	-2.7646	-2.7229	-2.775	-3.0729	-2.9583	-2.8979	-2.9979	-2.675	-3.0625	-2.8792	-2.8063	-3.2146	-2.7771	-2.8979	-3.0312	-2.8729	389.138	222.297	457.826	197.455	199.699	241.736	246.907	194.776	361.964	421.613	220.684	436.175	486.660	304.141	488.825	418.018	0.00056079	0.00027107	8.2933e-05	473.69	4.8895e-06	3.5832e-06	452.16	169.45	2.543e-06	2.1989e-06	179.91	82.536	67.318	37.631	4.4888e-06	45.846	0.00080865	0.00096572	0.0002699	469.18	9.7331e-06	1.0634e-05	448.82	168.53	9.5757e-06	1.09e-05	179.4	82.402	67.594	37.826	1.0749e-05	45.752	277.112	236.595	212.217	178.901	310.971	326.125	177.750	184.146	307.689	332.042	181.490	185.457	188.245	192.665	339.230	188.278	-8191	255	
41606.902	1	1	0	0	0.32242	0.13596	0.27171	0.24301	0.19024	0.21607	0.13788	0.34748	0.27115	0.17817	0.23508	0.12824	0.23422	0.23752	0.096444	0.13966	-2.6375	-2.8292	-2.7667	-3.0292	-2.7604	-2.9437	-3.0417	-2.8458	-2.7687	-2.8979	-2.7729	-3.0563	-2.7083	-2.8833	-3	-2.8271	328.090	188.108	347.344	238.820	439.166	252.091	314.554	491.343	498.040	298.591	526.230	499.077	234.120	479.724	287.499	479.971	0.00052649	0.00070711	8.5205e-05	472.39	1.8682e-06	1.4157e-06	450.12	168.31	4.0797e-06	2.2932e-06	178.39	82.274	66.647	37.22	5.0831e-06	45.178	0.00082572	0.00098917	0.00026874	468.98	1.0031e-05	1.0724e-05	446.89	168.14	9.7911e-06	1.122e-05	178.35	81.965	67.414	37.653	1.0734e-05	45.319	276.689	247.565	301.634	178.840	389.796	323.940	177.925	184.737	346.861	470.799	181.161	185.691	188.579	192.797	311.451	188.386	-8191	255	
41607.000	1	1	0	0	0.24415	0.36124	0.15318	0.1234	0.16291	0.087614	0.1178	0.32546	0.16449	0.20729	0.031904	0.070673	0.10121	0.1233	0.26167	0.028813	-2.5229	-2.9125	-2.6937	-2.9229	-2.8354	-2.8417	-3.1271	-2.7562	-2.9208	-2.95	-2.7729	-3.2313	-2.8104	-2.7125	-3.0167	-2.6521	514.960	286.020	177.189	417.739	257.350	300.712	261.217	181.683	427.255	350.000	354.743	345.200	173.145	490.079	185.399	471.463	0.00050469	0.00052753	0.00019812	471.44	2.5434e-06	3.5537e-06	452.52	168.45	5.6338e-06	1.6217e-06	177.6	81.955	66.892	37.434	7.7617e-06	45.314	0.00083685	0.00099128	0.00026521	468.35	1.0238e-05	1.069e-05	447.8	167.65	9.8733e-06	1.1249e-05	178.23	81.913	67.463	37.619	1.0407e-05	45.418	270.922	258.628	287.909	178.737	289.887	312.638	177.610	184.518	327.113	305.872	181.237	185.514	188.194	193.073	351.731	188.105	-8191	255	
41607.121	1	1	0	0	0.025375	0.073659	0.20539	0.26776	0.099161	0.27484	0.051038	0.23999	0.05353	0.12612	0.077966	0.15444	0.15938	0.13004	0.28877	0.14461	-2.3708	-2.9729	-2.6396	-3	-2.9521	-2.7354	-3.1042	-2.6604	-2.7458	-3.0354	-2.65	-2.9375	-2.8083	-2.6958	-3.0812	-2.8521	463.268	377.120	411.607	496.338	328.974	444.735	204.352	424.092	479.908	272.282	317.450	423.604	174.846	256.663	243.058	497.871	0.00050723	0.00062587	4.7816e-05	472.23	4.3138e-06	5.8051e-06	452.28	168.54	4.3097e-06	1.1151e-06	176.84	81.845	66.778	37.428	2.8524e-06	45.72	0.00084346	0.00098861	0.00025692	469.02	1.0464e-05	1.0734e-05	448.17	168.39	1.0277e-05	1.0903e-05	177.95	81.946	67.388	37.703	9.9896e-06	45.715	272.224	278.616	286.058	178.917	252.771	339.425	177.733	184.470	331.645	304.552	181.253	185.360	188.305	192.675	384.875	188.170	-8191	255	
41607.219	1	1	0	0	0.07611	0.14345	0.30473	0.10704	0.083478	0.12327	0.12554	0.091452	0.12659	0.11733	0.11315	0.17523	0.055903	0.066467	0.090209	0.24881	-2.3542	-2.8812	-2.7438	-2.9104	-2.9104	-2.7958	-2.9771	-2.8667	-3.025	-3.0667	-2.5958	-2.8729	-2.9542	-2.8063	-3.0875	-2.8	517.691	395.730	428.595	346.871	456.805	363.857	219.813	241.807	367.259	387.374	514.330	509.700	270.750	487.877	281.336	418.602	0.00052795	0.0007068	0.00011715	470.57	4.7172e-06	1.1017e-06	451.21	169.42	1.5308e-06	7.2509e-06	176.2	82.539	66.751	37.5	2.9771e-06	45.485	0.00085117	0.00095468	0.00024887	467.57	1.0141e-05	1.0482e-05	447.58	168.29	1.0126e-05	1.0424e-05	177.31	82.162	67.343	37.705	9.4975e-06	45.603	275.247	265.519	288.524	178.906	295.651	351.107	177.693	184.229	311.246	281.176	181.376	185.639	188.451	192.664	336.408	188.202	-8191	255	
41607.289	1	1	0	0	0.16519	0.14183	0.07523	0.25219	0.11281	0.27727	0.16201	0.01826	0.24994	0.081967	0.035374	0.10973	0.10209	0.32108	0.20082	0.095929	-2.2708	-2.975	-2.7125	-2.9042	-3.1292	-2.6146	-2.9833	-2.6562	-2.8333	-2.975	-2.6396	-2.8146	-2.9375	-2.8521	-2.9188	-2.7208	505.033	180.232	344.184	437.501	428.477	491.706	236.102	454.790	514.417	469.385	448.767	524.479	474.062	470.107	344.510	187.127	0.00050464	0.00042486	0.00013414	469.61	4.5825e-06	5.4286e-06	448.4	168.43	4.0098e-06	4.8912e-06	177.24	82.298	67.042	37.616	2.7689e-06	45.495	0.00083949	0.00090085	0.00023668	466.31	1.018e-05	9.6796e-06	444.65	167.83	9.721e-06	9.8011e-06	177.36	82.159	67.388	37.731	9.2239e-06	45.625	274.101	260.546	252.772	178.790	332.021	307.093	177.573	184.337	354.337	291.803	181.469	185.798	188.190	192.434	321.209	188.534	-8191	255	
41607.410	1	1	0	0	0.26928	0.13002	0.2863	0.2605	0.19033	0.12206	0.11086	0.37864	0.23303	0.060502	0.18967	0.15566	0.2723	0.38108	0.050761	0.046777	-2.3479	-3.0563	-2.7896	-2.8271	-2.8854	-2.5708	-3.0354	-3.0958	-2.8229	-3.0583	-2.8354	-2.9313	-3.1083	-2.7875	-3.1229	-3.1396	315.733	317.446	270.499	424.082	332.763	212.340	175.206	379.159	520.467	367.048	510.042	502.674	390.060	166.894	387.128	491.269	0.00049752	0.00026865	0.00010806	472.78	5.0929e-06	4.5472e-06	450.65	169.46	5.4945e-06	6.3502e-06	176.43	82.286	67.197	37.612	3.4095e-06	45.748	0.00080916	0.00087769	0.00023514	467.67	9.8575e-06	9.2549e-06	445.84	168.33	9.7005e-06	9.563e-06	177.55	82.164	67.355	37.657	9.695e-06	45.658	271.612	225.401	219.124	178.977	332.703	379.813	177.495	184.284	322.078	322.867	181.398	185.581	188.514	192.751	340.614	188.041	-8191	255	
41607.504	1	1	0	0	0.18694	0.023139	0.21834	0.17157	0.07556	0.14035	0.083019	0.27282	0.16681	0.076596	0.27872	0.11152	0.038748	0.18957	0.19115	0.090954	-2.2375	-3.025	-2.7687	-2.6729	-3.1354	-2.5583	-3.0375	-2.9646	-2.9	-3.0458	-2.75	-2.9437	-2.95	-2.8771	-2.9833	-2.9292	485.607	186.263	463.499	242.864	519.837	173.795	201.737	463.087	352.906	232.767	400.872	446.127	407.838	476.513	301.093	306.665	0.00053032	0.00042825	0.00014532	470.9	3.7485e-06	2.001e-06	452.47	169.21	4.5752e-06	2.8069e-06	179.18	82.201	67.178	37.343	4.9612e-06	45.617	0.00081897	0.00085408	0.00024494	468.13	9.4048e-06	9.3413e-06	447.11	168.46	9.4721e-06	9.1617e-06	178.88	82.149	67.19	37.627	9.7054e-06	45.688	272.962	333.249	292.896	178.719	323.011	269.140	177.803	184.357	308.908	270.317	181.259	185.548	188.184	192.636	285.240	188.417	-8191	255	
41607.602	1	1	0	0	0.15697	0.096903	0.094896	0.18905	0.11569	0.13458	0.072787	0.088058	0.31485	0.11568	0.27083	0.026651	0.096858	0.2585	0.18741	0.2671	-2.3625	-2.9	-2.8417	-2.7979	-3.1417	-2.8646	-2.8937	-2.9938	-2.7229	-3.0687	-2.9292	-2.8042	-3.1104	-2.8604	-2.7	-3.1396	348.705	417.433	432.819	191.321	290.148	416.893	507.448	412.956	314.191	433.473	438.277	336.868	186.464	205.707	301.889	435.264	0.0005644	0.00034395	8.6818e-05	468.34	3.2483e-06	8.7024e-06	451.6	167.33	3.2846e-06	3.52e-06	174.56	82.125	66.814	37.301	2.7827e-06	45.306	0.00080202	0.00088161	0.00024978	465.78	9.4886e-06	9.5598e-06	443.66	166.56	9.3009e-06	9.619e-06	176.04	81.931	66.958	37.472	1.0355e-05	45.353	274.373	283.538	200.651	179.109	324.666	345.291	177.710	184.129	343.691	274.457	181.479	185.508	188.428	192.835	406.883	188.240	-8191	255	
41607.695	1	1	0	0	0.34616	0.04713	0.27936	0.1613	0.18478	0.14451	0.079124	0.18714	0.2943	0.083015	0.22563	0.20448	0.058701	0.068505	0.29787	0.096558	-2.3396	-3.0167	-2.8729	-2.6667	-3.0833	-2.7188	-2.9208	-3.1667	-2.8812	-3.0062	-3.0396	-2.8604	-3.0896	-2.7417	-2.9083	-3.1979	464.826	177.220	513.012	524.825	468.912	321.794	377.542	439.681	353.579	240.368	264.500	502.638	361.060	380.136	500.660	373.611	0.00048648	0.00020921	7.6774e-05	465.28	2.6518e-06	3.7806e-06	445.15	166.8	4.1103e-06	6.999e-06	175.24	82.005	66.243	37.217	3.5488e-06	45.365	0.00079768	0.00088786	0.0002613	462.67	9.0874e-06	9.9133e-06	440.94	165.68	9.0459e-06	9.7972e-06	175.93	81.809	66.896	37.459	1.0334e-05	45.349	276.052	281.847	302.147	178.852	325.595	334.437	177.347	184.274	384.332	304.489	181.580	185.745	188.366	192.931	365.224	188.466	-8191	255	
41607.816	1	1	0	0	0.22874	0.054081	0.23053	0.12958	0.23162	0.16241	0.25186	0.25789	0.070406	0.22824	0.088308	0.048732	0.30082	0.1979	0.14998	0.14542	-2.1646	-2.8417	-3	-2.75	-2.9437	-2.8292	-2.9479	-3.0917	-2.8167	-2.9229	-3.0187	-2.7687	-3.0292	-2.8479	-2.6625	-2.975	402.312	231.972	200.711	331.325	498.532	519.998	457.387	452.356	285.962	492.179	481.052	372.585	405.334	461.152	442.610	449.885	0.00051888	0.00047352	0.00012683	469.78	3.724e-06	4.6822e-06	448.35	166.48	2.1623e-06	4.4019e-06	176.36	82.14	66.601	37.245	2.9261e-06	45.637	0.00079433	0.00091151	0.000264	464.09	9.2451e-06	1.0275e-05	443.29	165.87	9.1556e-06	1.0348e-05	176.32	81.928	66.881	37.556	1.0247e-05	45.569	270.910	217.597	257.382	178.871	332.418	247.069	177.434	184.248	320.514	323.461	181.737	185.534	188.192	192.503	340.440	188.445	-8191	255	
41607.887	1	1	0	0	0.085655	0.25653	0.024677	0.10825	0.15743	0.20176	0.32197	0.35564	0.13242	0.032156	0.079461	0.22475	0.29827	0.22371	0.12989	0.26168	-2.4542	-2.8042	-2.9208	-2.8542	-2.9792	-2.9646	-2.7938	-3.0646	-2.8312	-2.8625	-3.1437	-2.6292	-2.9458	-2.9813	-2.6229	-3.2	201.481	322.536	404.569	205.012	348.429	480.636	506.930	426.460	363.057	351.003	517.941	499.758	409.172	327.587	516.326	434.658	0.00053016	0.00024431	0.00011546	469.16	2.9323e-06	3.3345e-06	448.06	167.56	3.4527e-06	3.4561e-06	177.1	81.885	66.924	37.296	1.8167e-06	45.26	0.00080519	0.00094447	0.00025765	464.98	9.2862e-06	1.0581e-05	443.49	166.58	9.371e-06	1.0393e-05	176.94	81.622	67.089	37.543	1.0099e-05	45.3	270.566	260.696	224.628	179.073	384.694	345.588	177.365	184.211	369.418	273.965	181.073	185.849	188.416	192.524	353.086	188.046	-8191	255	
41607.984	1	1	0	0	0.070863	0.20724	0.063248	0.45657	0.20241	0.049107	0.30013	0.24207	0.18026	0.08004	0.16532	0.1775	0.18318	0.096936	0.17947	0.04036	-2.1813	-2.6562	-2.8646	-2.6396	-2.825	-2.9292	-2.7083	-2.8917	-2.7042	-2.8187	-3	-2.9708	-2.9229	-2.9521	-2.5292	-3.0979	249.623	243.826	364.008	416.771	202.616	175.052	420.072	474.938	500.859	420.069	489.038	193.498	262.491	167.472	195.894	201.567	0.00052695	0.00012254	0.00011967	465.5	6.2678e-06	9.2218e-06	445.23	166.09	2.5372e-06	3.4584e-06	174.37	81.838	66.195	37.121	1.9512e-06	45.107	0.00081244	0.00095477	0.00025662	463.24	9.4447e-06	1.0662e-05	440.63	165.65	9.5471e-06	1.078e-05	175.5	81.528	66.82	37.406	1.0467e-05	45.233	272.190	202.536	343.150	178.637	344.485	280.741	177.587	184.025	343.223	381.287	181.524	185.384	188.426	192.661	351.310	188.377	-8191	255	
41608.082	1	1	0	0	0.23357	0.17987	0.19965	0.18587	0.14864	0.17819	0.36111	0.19536	0.0048948	0.24724	0.17259	0.21355	0.22814	0.15497	0.25031	0.044648	-2.3417	-2.6917	-3.2146	-2.675	-2.8708	-2.9125	-2.6625	-3.0021	-2.6229	-2.6417	-3.1875	-2.85	-2.9542	-2.9667	-2.5792	-2.9188	471.298	375.127	330.370	261.743	483.220	265.086	198.163	238.001	391.635	351.215	281.613	429.618	413.800	191.118	465.431	178.596	0.00053236	0.00027458	9.5401e-05	466.4	5.8141e-06	4.2857e-06	442.41	165.88	1.748e-06	4.2556e-06	174.72	81.789	66.319	37.319	2.6112e-06	45.376	0.00088248	0.00098118	0.0002657	461.8	1.0286e-05	1.09e-05	439.62	165.28	1.03e-05	1.0888e-05	175.69	81.871	66.938	37.429	1.024e-05	45.423	272.243	310.911	302.433	179.099	300.370	291.704	177.518	184.017	315.548	298.556	181.445	185.659	188.293	192.529	302.762	188.394	-8191	255	
41608.199	1	1	0	0	0.072649	0.16813	0.17301	0.030144	0.12342	0.071058	0.097011	0.22225	0.25372	0.13005	0.068656	0.074095	0.26718	0.32384	0.1264	0.22678	-2.4917	-2.6854	-3.0625	-2.7229	-2.8875	-2.85	-2.9333	-2.9208	-3.0167	-2.8042	-2.9896	-2.9146	-2.9417	-3.2875	-2.8333	-3.0771	403.820	389.403	230.380	328.496	214.187	195.602	422.860	434.495	374.249	403.981	428.139	427.331	457.319	460.459	175.991	453.938	0.00050696	0.00043499	0.00011093	465.26	2.6622e-06	3.375e-06	448.37	166.46	4.3465e-06	4.5986e-06	175.99	82.181	66.762	37.42	2.168e-06	45.35	0.00088397	0.00099694	0.00026014	462.99	1.0566e-05	1.1148e-05	442.44	166.23	1.0443e-05	1.0789e-05	176.72	81.835	67.065	37.502	9.7358e-06	45.432	274.992	237.351	261.326	178.776	319.003	438.348	177.508	184.493	307.044	322.310	181.048	185.868	188.199	192.515	307.859	188.325	-8191	255	
41608.297	1	1	0	0	0.14183	0.16193	0.0053141	0.16973	0.2048	0.17836	0.34712	0.023447	0.19873	0.17245	0.19928	0.3718	0.18137	0.27511	0.26255	0.11587	-2.6125	-2.6417	-3.0396	-2.925	-2.9083	-3.2521	-2.8979	-3.0375	-3.0771	-2.7354	-2.9688	-3.0375	-2.7188	-3.0708	-2.7625	-3.1271	196.325	362.232	431.620	234.089	424.079	442.740	350.175	270.522	497.243	332.146	487.619	444.055	460.247	172.970	200.508	180.753	0.00047972	0.00033057	4.8987e-05	464.06	3.8707e-06	7.6369e-06	443.28	166.32	5.4927e-06	4.5158e-06	175.43	82.318	66.248	37.347	3.9985e-06	45.487	0.00088094	0.00095336	0.00024592	462.37	1.0277e-05	1.064e-05	440.76	165.89	1.0187e-05	1.0257e-05	175.53	81.923	66.954	37.417	9.8197e-06	45.397	276.573	260.758	342.384	178.960	380.816	305.835	177.443	184.110	324.454	338.400	181.149	185.211	188.267	192.526	324.038	188.265	-8191	255	
41608.391	1	1	0	0	0.16206	0.15811	0.13365	0.070311	0.18061	0.19429	0.12339	0.1238	0.23598	0.065273	0.054634	0.098098	0.11186	0.12562	0.039059	0.12122	-2.6354	-2.8875	-2.9854	-2.8604	-3.0375	-3.1271	-2.7979	-2.8312	-2.8792	-2.8979	-3.1292	-3.0333	-2.9146	-3.1562	-2.8708	-2.9708	463.675	472.764	475.691	454.630	291.773	222.338	463.689	406.837	496.045	521.692	269.829	490.583	445.196	206.274	216.350	488.949	0.00049378	0.00081179	6.9404e-05	464.02	8.2896e-06	3.5647e-06	446.26	166.95	3.3983e-06	3.6828e-06	175.73	81.674	66.893	37.193	3.4184e-06	45.548	0.00087883	0.00092143	0.00024909	462.55	1.0004e-05	1.0167e-05	441.82	166.09	1.0064e-05	1.0026e-05	175.97	81.833	67.189	37.341	1.007e-05	45.482	266.233	245.067	228.909	178.827	337.508	302.463	177.780	183.949	348.996	393.352	181.469	185.696	188.246	192.531	354.287	188.136	-8191	255	
41608.488	1	1	0	0	0.08759	0.23359	0.063858	0.061943	0.26547	0.13499	0.074931	0.16465	0.15245	0.16352	0.1631	0.054908	0.14131	0.24278	0.090928	0.10184	-2.8271	-2.7354	-3.0187	-3.0042	-2.7125	-3.1813	-2.7708	-3.0438	-3.0021	-2.7958	-3.1104	-2.9604	-2.8521	-3.2313	-2.9	-2.8479	467.823	457.016	393.398	418.982	517.856	392.174	418.603	398.471	196.463	315.874	512.172	474.309	234.822	460.919	303.294	513.512	0.00052617	0.0003312	0.00019724	465.82	3.8563e-06	4.4741e-06	446.37	165.7	8.3105e-07	3.0318e-06	176.99	81.939	66.421	37.284	3.9905e-06	45.368	0.0008532	0.00089307	0.00024635	462.42	1.0124e-05	9.9262e-06	442.24	165.5	1.0205e-05	1.0071e-05	176.49	82.091	66.934	37.437	1.0661e-05	45.517	274.290	513.695	285.744	178.754	379.351	318.436	177.554	184.356	257.149	347.778	181.313	185.965	188.626	192.483	199.780	188.513	-8191	255	
41608.586	1	1	0	0	0.21368	0.080689	0.12119	0.094179	0.1136	0.28497	0.13193	0.21769	0.124	0.13731	0.26121	0.12504	0.095061	0.1221	0.086295	0.082912	-2.7812	-2.6896	-2.9646	-2.9562	-2.6792	-3.1	-2.9104	-2.9708	-3.1188	-2.8229	-2.8521	-2.8333	-2.8	-3.0167	-3.0708	-2.8729	526.233	496.722	342.603	270.854	355.819	196.373	428.988	415.783	410.274	501.817	344.431	296.847	479.658	235.232	298.191	480.367	0.00047432	0.00033713	8.5007e-05	465.05	3.289e-06	2.4118e-06	441.75	164.41	5.1365e-06	8.345e-07	173.71	81.678	66.05	37.076	2.9735e-06	45.3	0.00087053	0.0009462	0.00027201	461.75	1.0295e-05	1.0213e-05	439.49	164.53	1.0189e-05	1.0399e-05	174.82	81.824	66.552	37.281	1.0773e-05	45.269	277.048	257.349	490.161	178.873	239.678	226.978	177.595	184.259	303.944	303.836	181.548	185.532	188.204	192.531	330.115	188.446	-8191	255	
41608.680	1	1	0	0	0.07585	0.173	0.080784	0.29863	0.1887	0.19729	0.079891	0.25741	0.061067	0.11616	0.16668	0.031023	0.083699	0.22162	0.033141	0.36549	-2.7208	-2.9917	-3.0292	-3.1875	-2.7333	-2.9208	-3.0083	-2.7687	-3.1833	-2.8979	-2.9125	-3.1271	-2.8625	-3.1437	-2.7896	-2.8271	364.617	419.316	324.466	407.952	329.271	397.445	321.443	502.734	487.803	520.021	277.610	470.991	296.059	519.957	189.544	511.416	0.00053349	0.00024194	5.0756e-05	462.47	4.3973e-06	1.8282e-06	441.38	164.98	3.8034e-06	3.0189e-06	174.05	81.256	66.297	37.149	2.5366e-06	45.328	0.00083889	0.00093318	0.00027709	460.65	9.9073e-06	1.0348e-05	439.78	164.78	9.9299e-06	1.0378e-05	174.97	81.495	66.576	37.317	1.0849e-05	45.409	275.184	248.513	231.614	178.947	344.551	223.672	177.536	184.293	318.385	386.044	181.721	185.484	188.531	192.829	302.509	188.089	-8191	255	
41608.801	1	1	0	0	0.2791	0.34349	0.061783	0.065978	0.21684	0.14976	0.26335	0.1838	0.12881	0.097791	0.26044	0.23933	0.10944	0.10644	0.096389	0.19103	-2.6083	-2.7771	-2.9021	-3.1229	-2.8	-3.1167	-2.9417	-2.9792	-3.2396	-3.0125	-2.8875	-3.3583	-2.7771	-3.1063	-3.0563	-2.7479	299.176	333.222	233.107	272.705	382.502	228.044	388.472	307.482	242.430	348.139	279.941	466.225	222.647	473.516	312.899	359.629	0.00046247	0.00023947	0.00012994	465.22	5.0524e-06	2.7502e-06	445.56	165.87	3.4559e-06	4.4347e-06	175.03	82.094	66.191	37.234	2.545e-06	45.428	0.0008147	0.00096102	0.00027209	462.65	9.6362e-06	1.0507e-05	441.95	165.27	9.4798e-06	1.0618e-05	176.21	81.759	66.652	37.497	1.0778e-05	45.645	271.952	246.459	234.098	178.538	380.943	258.024	177.506	184.072	317.398	299.927	181.865	185.701	188.289	192.588	337.743	188.000	-8191	255	
41608.898	1	1	0	0	0.10158	0.19755	0.18259	0.25129	0.17708	0.26066	0.22272	0.11661	0.20194	0.064545	0.061273	0.20285	0.10514	0.30203	0.15227	0.2023	-2.6604	-2.8312	-2.8667	-3.0833	-2.7333	-2.9437	-3.15	-2.7979	-3.0479	-2.9188	-2.9604	-3.2812	-2.9729	-3.1188	-3.2167	-2.8583	180.188	316.540	491.174	388.349	342.912	247.308	504.410	255.639	366.261	450.409	521.775	446.940	473.025	171.307	442.435	357.464	0.00050771	0.00013527	5.2212e-05	470.44	2.8042e-06	3.6993e-06	450.33	166.16	4.5829e-06	4.3103e-06	177.93	82.426	66.122	37.368	3.8279e-06	45.48	0.00079554	0.00096868	0.00027434	464.66	9.6146e-06	1.0657e-05	444.01	166.05	9.4504e-06	1.0456e-05	177.53	81.958	66.8	37.524	1.0495e-05	45.622	275.865	205.947	321.924	178.466	409.643	281.476	177.554	184.245	312.561	355.364	181.228	185.453	188.722	192.893	299.208	188.419	-8191	255	
41608.992	1	1	0	0	0.037514	0.32377	0.17462	0.098121	0.16159	0.11938	0.092315	0.18814	0.20853	0.1928	0.28778	0.067574	0.12877	0.04106	0.25859	0.34676	-2.6979	-2.9646	-2.6854	-2.9167	-2.775	-2.8187	-3.0021	-2.8688	-2.9104	-2.8688	-2.7687	-3.2417	-2.8083	-3.05	-2.9833	-2.9375	330.092	444.440	330.791	341.678	248.654	477.630	299.091	457.222	256.511	313.675	424.191	521.804	227.479	422.256	259.153	464.205	0.00053203	0.00025664	0.00012372	472.81	4.4755e-06	4.489e-06	444.81	166.43	1.0792e-06	1.3033e-06	174.63	81.534	66.7	37.01	2.168e-06	45.27	0.00083236	0.0010003	0.00027077	465.42	9.616e-06	1.079e-05	441.63	165.33	9.8845e-06	1.1136e-05	175.45	81.31	66.659	37.322	1.0796e-05	45.26	271.211	292.666	266.290	178.924	286.994	333.758	177.312	183.929	375.341	182.494	181.293	185.441	188.669	192.749	274.537	188.399	-8191	255	
41609.090	1	1	0	0	0.1131	0.11743	0.092032	0.056471	0.21369	0.012303	0.11445	0.29459	0.13329	0.087212	0.19505	0.1061	0.10747	0.096792	0.15374	0.24149	-2.5854	-2.9271	-2.5854	-3.0938	-2.8229	-2.8	-3.175	-2.6688	-2.8729	-3.0521	-2.7083	-3.1271	-3.0021	-2.8771	-3.1354	-2.9771	420.284	210.387	224.414	221.233	183.787	238.104	472.377	187.018	480.085	479.146	413.346	277.597	246.362	209.658	368.656	169.789	0.00047568	0.00031829	0.00011116	466.89	5.3838e-06	3.8595e-06	445.43	165.7	4.5055e-06	4.8329e-06	175.68	81.417	65.815	37.195	6.6855e-06	45.152	0.00085566	0.0010207	0.00027027	463.03	1.0282e-05	1.116e-05	441.07	164.87	1.0486e-05	1.1352e-05	175.42	81.46	66.421	37.385	1.047e-05	45.324	264.110	218.175	322.002	179.010	336.047	339.288	177.593	184.360	334.905	339.347	181.248	185.545	188.439	192.835	342.056	187.903	-8191	255	
41609.184	1	1	0	0	0.14032	0.2944	0.12552	0.54247	0.20065	0.029041	0.1709	0.098587	0.15307	0.15425	0.24923	0.15216	0.1719	0.24952	0.35225	0.071969	-2.5958	-2.9188	-2.6146	-3.1688	-2.7979	-2.7958	-3.2104	-2.7708	-2.8625	-3	-2.8333	-2.9771	-2.9146	-2.7854	-3.0792	-2.8167	459.146	390.456	432.435	168.424	318.269	326.887	424.573	496.462	491.892	460.712	471.185	426.724	169.871	391.696	253.894	430.097	0.00046046	0.00032229	0.00011766	464.62	3.268e-06	1.2229e-06	444.15	166.25	3.4481e-06	6.3691e-06	174.63	81.406	66.037	37.228	3.7171e-06	45.655	0.0008844	0.0010403	0.00026771	462.35	1.0475e-05	1.1133e-05	441.34	165.56	1.0502e-05	1.086e-05	175.8	81.41	66.656	37.452	1.0147e-05	45.62	271.303	256.696	311.898	179.038	346.206	315.678	177.616	184.356	257.294	307.727	181.594	185.646	188.198	192.443	331.139	188.136	-8191	255	
41609.281	1	1	0	0	0.13998	0.30302	0.37387	0.09702	0.13782	0.35505	0.21008	0.013692	0.12796	0.084629	0.13173	0.12912	0.21863	0.14222	0.20317	0.19495	-2.6604	-3.0604	-2.6458	-2.8604	-3	-2.6125	-3.1958	-2.9292	-2.7875	-3.2188	-2.7021	-2.9813	-3.1125	-2.6979	-2.9896	-2.9604	370.923	236.703	267.120	469.280	229.992	247.545	388.968	431.787	252.650	348.285	494.350	239.177	515.635	181.205	487.234	438.447	0.00051254	0.00068827	0.00011809	466.08	7.7156e-06	7.4273e-06	444.55	166.6	4.4836e-06	2.4091e-06	174.83	80.97	66.096	37.284	2.1738e-06	45.145	0.00087928	0.0010133	0.00025864	462.72	1.0523e-05	1.089e-05	440.26	165.57	1.0626e-05	1.0772e-05	175.26	81.004	66.654	37.38	9.9543e-06	45.304	276.179	305.064	256.750	178.900	356.430	277.190	177.525	183.873	285.189	261.656	181.547	185.502	188.115	192.311	294.894	188.270	-8191	255	
41609.379	1	1	0	0	0.16856	0.11237	0.20975	0.30072	0.30898	0.055901	0.13553	0.14211	0.16621	0.21177	0.16155	0.20637	0.34274	0.27791	0.22915	0.23687	-2.4979	-3.0792	-2.6875	-3.1146	-3.1375	-2.7938	-3.0938	-2.8187	-2.8479	-3.1208	-2.8542	-3.0146	-3.0708	-2.7917	-3.2021	-2.9542	282.479	294.849	230.196	483.832	283.209	362.192	412.038	471.027	339.627	210.685	353.532	375.561	335.405	454.616	511.263	478.668	0.0005205	0.00022634	0.00012445	465.47	4.6414e-06	4.3287e-06	439.84	164.68	5.8217e-06	8.8791e-07	174.58	81.263	65.76	36.968	6.4857e-06	45.247	0.00089544	0.00099143	0.00025942	461.71	1.0406e-05	1.0468e-05	438.09	164.59	1.0418e-05	1.0251e-05	174.27	81.185	66.318	37.244	9.8291e-06	45.235	271.943	458.883	229.769	179.117	368.472	311.744	177.383	184.154	348.854	272.388	181.342	185.711	188.702	192.897	309.045	188.617	-8191	255	
41609.496	1	1	0	0	0.2257	0.18075	0.21903	0.055574	0.049128	0.15974	0.19703	0.095019	0.15275	0.12021	0.041785	0.21498	0.095611	0.13402	0.13961	0.15569	-2.2146	-2.8896	-2.7583	-2.9792	-3.0354	-2.8688	-3.15	-2.9083	-2.8167	-3.0812	-2.7708	-2.9125	-3.0021	-2.6688	-2.95	-2.9208	516.553	206.458	440.980	496.891	299.904	305.491	479.629	465.640	193.054	316.270	269.345	358.337	314.244	492.692	188.924	353.841	0.00050456	0.00053866	0.00014616	464.22	4.224e-06	1.1087e-06	443.81	166.34	3.2708e-06	4.0744e-06	174.42	80.885	65.72	37.125	4.5229e-06	45.22	0.00086424	0.00095036	0.0002604	461.81	1.0271e-05	1.0243e-05	439.04	164.99	1.0327e-05	1.0162e-05	174.73	81.157	66.417	37.26	1.0351e-05	45.356	274.454	270.105	263.169	179.293	284.778	385.528	177.459	184.167	316.957	282.575	181.488	185.421	188.337	192.672	324.367	188.389	-8191	255	
41609.594	1	1	0	0	0.078114	0.19198	0.15175	0.10858	0.095137	0.20009	0.057854	0.18824	0.19206	0.098245	0.052222	0.119	0.10685	0.036468	0.23052	0.076906	-2.4625	-2.9167	-2.7646	-2.9417	-3.0604	-2.7625	-2.9646	-2.8167	-2.8125	-3.0354	-2.8896	-2.7771	-3.05	-2.85	-3.0187	-3.0729	495.698	450.773	520.177	414.325	345.432	276.466	517.831	211.401	379.620	442.061	355.613	186.864	173.333	390.772	303.146	226.777	0.00049345	0.00068656	5.8344e-05	465.71	5.0788e-06	2.5527e-06	444.7	165.04	3.7681e-06	3.5083e-06	173.09	81.222	65.559	36.868	3.2367e-06	45.244	0.00086703	0.00092586	0.0002653	462.5	1.0372e-05	1.0078e-05	439.66	164.76	1.0183e-05	1.0116e-05	174.57	81.052	66.231	37.176	1.063e-05	45.15	275.250	251.528	270.260	179.094	355.729	259.293	177.532	184.006	325.092	274.443	181.428	185.246	188.804	192.357	362.431	188.418	-8191	255	
41609.688	1	1	0	0	0.18787	0.10655	0.24243	0.10537	0.27201	0.18172	0.15754	0.11617	0.14853	0.097835	0.22246	0.25682	0.024462	0.29013	0.13133	0.22945	-2.3083	-3.1	-2.8375	-2.8729	-3.1042	-2.8604	-2.9	-2.9292	-2.6208	-3.1937	-3.0167	-2.8	-3.0583	-2.9021	-3.0146	-3.3479	282.424	338.375	237.355	474.885	273.711	211.088	358.036	271.529	210.597	318.442	300.287	281.634	436.023	511.069	377.281	454.228	0.00052376	0.0004886	2.9992e-05	460.68	4.5376e-06	2.2376e-07	437.84	163.98	2.2642e-06	1.8154e-06	172.6	80.619	65.327	36.842	1.8951e-06	44.858	0.00083914	0.00095081	0.0002749	459.3	1.0336e-05	1.0592e-05	435.06	163.93	1.0281e-05	1.0597e-05	173.57	80.406	65.862	36.938	1.139e-05	44.824	269.694	286.706	271.479	178.922	369.695	460.477	177.403	184.164	331.173	357.954	181.614	185.338	188.330	192.455	432.440	188.409	-8191	255	
41609.762	1	1	0	0	0.075866	0.1092	0.10576	0.084918	0.093031	0.22172	0.28193	0.15656	0.42198	0.095501	0.13096	0.28815	0.22966	0.20544	0.092151	0.35915	-2.4083	-3.0604	-2.8375	-2.7917	-3.1083	-3.0312	-2.9042	-3.2562	-2.8083	-3.1833	-3.1271	-2.7354	-3.2938	-2.7708	-2.8583	-3.1917	318.174	303.580	387.040	505.755	428.815	484.003	367.052	514.664	308.198	289.249	244.011	474.949	226.173	460.934	242.901	401.780	0.00053996	0.00037147	9.3539e-05	460.82	7.6972e-06	4.3226e-06	437.83	163.43	4.5825e-06	4.0896e-06	171.67	80.784	65.719	36.52	3.2964e-06	44.597	0.00084934	0.00097515	0.00029037	459.35	1.0195e-05	1.0771e-05	435.22	163.11	1.0203e-05	1.0875e-05	173.15	80.53	65.731	36.714	1.1423e-05	44.634	274.804	253.949	308.099	178.769	347.318	371.431	177.593	184.477	330.480	322.555	180.972	185.531	188.060	192.597	232.918	188.010	-8191	255	
41609.883	1	1	0	0	0.22851	0.20002	0.23452	0.22325	0.33905	0.067171	0.065216	0.040606	0.17666	0.1118	0.23265	0.038099	0.18624	0.20873	0.27264	0.28027	-2.4208	-2.8521	-2.9313	-2.8375	-3.1667	-2.9354	-2.9437	-3.1167	-2.8312	-2.9292	-2.7875	-2.7208	-3.1562	-2.9396	-2.8354	-3.3	445.682	360.261	501.250	377.218	365.123	521.606	472.987	232.303	476.951	198.501	220.341	490.267	469.263	265.222	213.114	472.909	0.00050265	0.0004581	0.000123	461.15	4.5765e-06	1.4981e-06	442.84	163.71	5.8787e-06	7.1164e-06	173.23	80.309	65.041	36.652	1.7537e-06	44.623	0.00087022	0.0010321	0.00029995	460.27	1.0302e-05	1.1254e-05	437.52	163.68	1.0285e-05	1.1433e-05	174.38	80.536	65.621	36.696	1.1417e-05	44.708	277.187	301.954	271.199	179.112	379.836	368.366	177.644	184.174	324.291	340.325	181.489	185.594	188.065	192.711	319.710	188.346	-8191	255	
41609.977	1	1	0	0	0.32219	0.18025	0.31204	0.12438	0.12894	0.09165	0.24945	0.23122	0.15484	0.24818	0.23305	0.36012	0.22029	0.2906	0.24834	0.21583	-2.2521	-2.9271	-3.1604	-2.6792	-3.1083	-3.1208	-2.8542	-3.0521	-2.925	-3.1104	-3.0875	-2.7333	-2.975	-3.0021	-2.8125	-2.9854	426.902	294.992	438.439	329.370	225.319	417.057	451.750	421.743	359.096	208.655	383.994	389.200	462.776	429.695	370.834	389.240	0.0005004	0.00036058	0.00011907	462.25	4.4124e-06	6.5159e-06	437.49	163.95	1.0771e-06	4.5693e-06	171.4	80.358	65.125	36.573	4.0312e-06	44.345	0.00085991	0.001054	0.00029206	458.92	1.0274e-05	1.1554e-05	434.95	163.37	1.0558e-05	1.176e-05	173.23	80.26	65.545	36.639	1.1579e-05	44.423	276.008	256.141	336.000	179.178	334.066	301.296	177.570	184.034	307.235	286.123	181.223	185.713	188.123	192.624	285.854	188.179	-8191	255	
41610.074	1	1	0	0	0.13256	0.13514	0.20756	0.014988	0.13398	0.22335	0.055599	0.22221	0.24079	0.18075	0.13284	0.35757	0.13053	0.17631	0.20886	0.15159	-2.4583	-2.8958	-3.025	-2.6833	-2.925	-2.9562	-2.7958	-3.1167	-2.9396	-2.9313	-3.2438	-2.7938	-2.9729	-3.1479	-2.8833	-3	448.047	371.250	211.008	287.644	467.985	196.959	183.640	375.917	233.240	260.800	434.327	431.548	179.567	426.742	503.577	484.316	0.00051857	0.00083348	0.00018793	458.36	3.6951e-07	2.7461e-06	438.09	162.43	4.6539e-06	4.7084e-06	170.92	80.054	64.215	36.375	7.5767e-07	44.195	0.00089214	0.0010882	0.00029676	456.92	1.0671e-05	1.1673e-05	433.69	162.33	1.1238e-05	1.2131e-05	172.51	80.193	65.464	36.54	1.1802e-05	44.288	273.855	271.508	304.722	178.616	465.855	236.692	177.700	184.133	365.964	183.521	181.612	185.565	188.455	192.548	384.224	188.569	-8191	255	
41610.172	1	1	0	0	0.24773	0.26959	0.21806	0.13075	0.19853	0.13797	0.07337	0.24427	0.4076	0.27894	0.068961	0.13051	0.074426	0.1625	0.26368	0.40742	-2.425	-2.7188	-3.0646	-2.8208	-2.925	-3.1021	-2.8792	-3.1562	-2.9833	-2.7938	-3.0312	-2.9437	-2.9208	-3.3708	-2.7854	-3.1813	292.854	167.648	418.901	332.899	376.296	383.280	394.237	475.187	517.109	455.322	461.184	425.578	484.405	407.609	427.426	482.133	0.00051012	0.00061991	8.8568e-05	460.25	2.8562e-06	4.4504e-06	434.93	161.72	2.2626e-06	2.5022e-06	171.74	80.206	65.085	36.297	4.7403e-06	44.482	0.00092623	0.0011105	0.00029005	457.29	1.1081e-05	1.167e-05	433.35	161.51	1.1288e-05	1.2144e-05	172.6	80.338	65.582	36.528	1.0967e-05	44.448	271.877	278.382	237.608	178.793	305.338	255.414	177.288	184.253	317.868	332.277	181.520	185.656	188.506	192.923	349.810	188.225	-8191	255	
41610.289	1	1	0	0	0.064814	0.12005	0.1457	0.022495	0.064514	0.17637	0.14051	0.14384	0.26118	0.12505	0.12803	0.18225	0.11089	0.11686	0.058214	0.12436	-2.5917	-2.6458	-3.0854	-2.9021	-2.9062	-3.1479	-2.7687	-3.0417	-2.8937	-3.025	-3.175	-2.8771	-3.0646	-2.9833	-2.7771	-3.1979	335.824	262.685	506.244	281.022	472.641	445.531	261.237	193.475	317.136	376.748	212.114	476.751	502.106	509.879	433.139	495.679	0.00050992	0.00044822	7.9118e-05	461.16	8.3254e-06	4.6904e-06	439.34	162.41	3.5621e-06	1.8719e-06	170.62	80.43	64.759	36.309	6.1983e-06	44.058	0.00092886	0.0010604	0.00028032	456.95	1.1203e-05	1.1372e-05	434.62	162.22	1.1359e-05	1.1722e-05	172.2	80.293	65.43	36.489	1.0954e-05	44.265	270.773	259.957	286.319	178.850	328.209	265.581	177.485	184.038	384.191	497.563	181.340	185.416	188.435	192.326	295.324	188.339	-8191	255	
41610.387	1	1	0	0	0.14927	0.12699	0.095823	0.28434	0.12508	0.08474	0.31338	0.25079	0.1039	0.13562	0.11368	0.15894	0.27054	0.23995	0.11697	0.079895	-2.5771	-2.8292	-3.0417	-2.9333	-2.7917	-3.0896	-2.9354	-2.9354	-3.0042	-2.6562	-3.1021	-3.0417	-2.5771	-3.05	-2.7271	-3	190.839	421.329	493.473	168.798	388.667	426.077	524.549	479.795	233.661	396.052	346.045	200.483	426.441	497.650	395.168	290.011	0.00054082	0.00028191	0.00010662	457.4	5.9396e-06	3.948e-06	435.06	161.89	3.8359e-06	6.1807e-06	170.5	79.922	64.92	36.167	3.9974e-06	44.302	0.00095756	0.0010626	0.00026645	456.38	1.1103e-05	1.1344e-05	431.19	161.76	1.1647e-05	1.131e-05	171.88	80.097	65.508	36.421	1.0912e-05	44.245	277.629	246.084	299.169	178.672	379.427	322.454	177.681	184.303	339.865	349.264	181.229	184.984	188.723	192.196	288.761	188.457	-8191	255	
41610.480	1	1	0	0	0.005916	0.092409	0.070888	0.016787	0.18516	0.14035	0.085015	0.18477	0.17158	0.042063	0.2165	0.32877	0.25767	0.30291	0.066908	0.15404	-2.5062	-2.5125	-2.9292	-3.1104	-2.8187	-3.0229	-2.9	-2.8229	-3.0125	-2.9125	-3.0667	-3.0146	-2.7604	-3.1229	-2.6167	-3.1292	357.148	256.118	176.541	302.461	417.830	446.938	507.138	381.782	348.191	460.481	447.209	441.727	479.595	512.188	271.207	440.730	0.00052621	0.00035903	0.00014655	461.12	5.3588e-06	2.7234e-06	434.17	162.07	3.0593e-06	2.2873e-06	169.89	79.692	64.808	36.202	7.0906e-06	44.165	0.00093062	0.0010272	0.00027307	457.11	1.1301e-05	1.0973e-05	432.39	162.03	1.1483e-05	1.1278e-05	172.14	80.159	65.378	36.388	1.1277e-05	44.236	273.986	259.340	247.419	178.725	314.566	275.395	177.096	184.466	403.990	384.988	181.615	185.572	188.358	192.820	290.306	188.140	-8191	255	
41610.578	1	1	0	0	0.22371	0.12362	0.10935	0.13417	0.11845	0.12281	0.34128	0.14749	0.22695	0.14674	0.13573	0.10509	0.2069	0.21318	0.25811	0.02602	-2.4792	-2.8292	-2.8833	-3.0187	-2.6875	-3.1292	-2.8292	-2.9292	-2.925	-2.6854	-2.9667	-3.0229	-2.8396	-3.1479	-2.8271	-3.0375	375.647	211.590	526.183	219.602	355.103	262.227	468.462	306.919	306.657	461.987	220.231	175.252	264.990	433.290	462.790	222.805	0.00053323	0.00041077	0.00013623	453.99	6.6546e-06	1.7204e-06	436.32	162.65	2.7226e-06	2.9823e-06	171.18	80.549	64.819	36.085	6.3624e-06	44.273	0.00093947	0.0010263	0.00028502	455.61	1.1715e-05	1.107e-05	432.35	162.06	1.1384e-05	1.1022e-05	172.67	80.458	65.555	36.354	1.1674e-05	44.462	277.088	246.470	232.283	178.468	327.389	412.450	177.388	184.812	390.116	366.690	181.028	185.399	188.292	192.694	278.351	188.214	-8191	255	
41610.672	1	1	0	0	0.068094	0.21431	0.33374	0.1132	0.15331	0.15313	0.2419	0.26689	0.047026	0.24283	0.21164	0.14036	0.28599	0.12548	0.10812	0.25716	-2.8479	-2.65	-2.9271	-3.1104	-2.6312	-3.0167	-2.9042	-2.9771	-3.0458	-2.9208	-2.9813	-3.0729	-2.7	-2.9417	-2.9708	-2.9313	243.636	488.237	472.750	421.759	201.534	294.860	477.938	194.689	275.356	250.528	444.863	400.472	522.593	363.126	491.334	189.434	0.00047819	5.7445e-05	0.0001072	456.48	4.03e-06	2.032e-06	435.61	161.82	3.6505e-06	2.8543e-06	169.97	80.459	64.361	36.04	6.2644e-06	44.153	0.00092536	0.0010204	0.00029391	456.17	1.1115e-05	1.1127e-05	432.49	161.47	1.1129e-05	1.1346e-05	172.03	80.222	65.056	36.26	1.2146e-05	44.252	273.489	272.681	241.873	179.208	379.417	288.067	177.342	184.011	389.892	307.650	181.173	185.285	188.621	192.375	343.121	188.300	-8191	255	
41610.770	1	1	0	0	0.28969	0.23311	0.054929	0.36269	0.1036	0.06367	0.19458	0.10612	0.13469	0.18323	0.25984	0.097978	0.18135	0.28227	0.18591	0.24227	-2.6833	-3.0062	-2.9833	-3.0917	-2.7604	-3.0854	-3.0604	-2.8167	-3.0312	-2.6979	-3.0208	-3.0083	-2.8625	-3.1375	-2.9167	-2.8312	343.955	512.659	232.812	470.289	212.001	391.677	433.092	362.111	524.038	478.596	510.063	285.747	196.438	500.853	429.925	493.684	0.00054964	0.00014745	8.1546e-06	454.49	7.8224e-06	1.199e-06	434.5	161.56	2.1053e-06	5.3038e-06	172.28	80.246	65.054	36.256	4.768e-06	43.966	0.00090516	0.0010243	0.00030852	453.93	1.0944e-05	1.1206e-05	431.88	161.75	1.0744e-05	1.1362e-05	172.71	80.048	65.394	36.421	1.2321e-05	44.233	278.140	330.872	396.204	178.515	328.815	354.783	177.494	184.156	335.870	372.431	181.180	185.591	188.266	192.411	323.421	187.951	-8191	255	
41610.891	1	1	0	0	0.14234	0.038535	0.17442	0.047257	0.37715	0.16605	0.21676	0.037477	0.16117	0.24811	0.16498	0.19556	0.076903	0.080494	0.11268	0.17462	-2.7875	-2.7521	-2.9771	-3.1479	-2.7354	-3.0729	-3.1021	-2.7812	-3.1479	-2.8042	-2.8771	-3.0229	-2.8979	-2.9479	-3.0271	-2.9938	210.983	176.396	223.954	324.332	256.469	328.210	410.656	221.597	287.214	225.121	488.950	239.380	224.102	322.447	432.688	409.202	0.00055852	0.00020567	0.00011205	457.81	8.6776e-06	1.6688e-06	434.04	161.94	5.9418e-06	1.0267e-06	171.4	80.314	64.77	36.074	6.2747e-06	44.367	0.0009004	0.0010759	0.00030585	456.35	1.1032e-05	1.1524e-05	433.18	162.05	1.0603e-05	1.1959e-05	173.11	80.219	65.341	36.396	1.2284e-05	44.44	279.375	375.631	244.824	179.030	346.390	306.715	177.163	184.061	329.134	363.198	181.591	185.722	188.314	192.583	328.134	188.258	-8191	255	
41610.984	1	1	0	0	0.054863	0.48905	0.049264	0.16734	0.13432	0.26305	0.093084	0.15334	0.15358	0.075779	0.21506	0.096836	0.28432	0.15825	0.12229	0.17437	-2.7687	-2.7917	-2.9021	-3.0479	-2.9083	-3.1208	-2.9333	-2.6	-3.0833	-2.975	-2.8542	-3.0062	-2.9208	-2.8708	-3.1958	-2.7396	220.925	517.385	509.538	329.015	428.221	474.853	373.221	197.588	319.669	498.318	505.876	170.600	249.167	204.674	203.761	501.754	0.00050251	0.0005386	0.0001233	461.51	5.9963e-06	3.5195e-06	436.57	162.28	3.6923e-06	5.8678e-06	170.51	80.298	64.411	36.139	4.5992e-06	44.169	0.00088633	0.0010987	0.00030344	456.62	1.0825e-05	1.184e-05	433.92	161.95	1.1045e-05	1.2528e-05	172.71	80.159	65.322	36.417	1.2213e-05	44.153	275.253	256.119	231.613	179.093	328.799	306.897	177.746	184.165	303.899	325.365	181.419	185.543	188.577	192.197	341.500	188.377	-8191	255	
41611.059	1	1	0	0	0.067359	0.19016	0.21372	0.14209	0.10387	0.27532	0.18677	0.18218	0.13535	0.13032	0.28071	0.25075	0.20215	0.028976	0.21316	0.10687	-2.8146	-2.8187	-2.7188	-3.1042	-2.7771	-3.0646	-3.2167	-2.9354	-3.2125	-3.0375	-2.7438	-3.2896	-2.9083	-3.025	-3.1063	-2.7896	198.468	459.031	492.274	296.141	457.172	247.760	361.233	497.064	296.574	232.695	466.811	207.702	512.193	383.494	382.306	314.072	0.00051005	0.00043299	2.1541e-05	456.83	6.0238e-07	4.6266e-06	431.99	161.73	4.8095e-06	3.9292e-06	172.03	79.902	64.811	35.912	5.9328e-06	43.844	0.00090379	0.0011266	0.00030507	454.67	1.1094e-05	1.2388e-05	429.91	161.22	1.1196e-05	1.2558e-05	172.46	80.062	65.444	36.249	1.2543e-05	44.054	273.964	251.927	467.626	178.951	430.592	321.455	177.444	184.573	339.050	316.391	181.388	185.459	188.013	192.650	324.393	188.115	-8191	255	
41611.152	1	1	0	0	0.23128	0.087739	0.25974	0.15759	0.17568	0.098648	0.15754	0.095932	0.042015	0.11951	0.13952	0.24536	0.056454	0.11557	0.13571	0.13657	-2.5375	-2.8812	-2.7021	-3.2604	-2.7583	-2.8583	-3.2229	-2.8146	-2.9625	-2.9792	-2.8167	-3.0479	-2.8375	-2.9437	-3.0021	-2.8104	458.331	504.227	283.466	272.054	451.601	255.779	465.638	278.963	375.330	303.640	521.459	453.934	457.256	523.021	380.400	442.148	0.00050628	0.00027501	0.00010874	456.36	1.7952e-06	1.8493e-06	434.36	161.78	2.2303e-06	3.6387e-06	170.82	80.189	64.749	36.147	6.4691e-06	44.267	0.00094094	0.0011445	0.00030378	454.33	1.1602e-05	1.2544e-05	431.8	161.42	1.1247e-05	1.2583e-05	172.21	80.168	65.489	36.371	1.1484e-05	44.225	263.964	241.099	295.785	178.984	315.585	265.239	177.328	184.099	362.239	286.655	181.681	185.631	188.238	192.518	306.344	188.186	-8191	255	
41611.273	1	1	0	0	0.13845	0.10537	0.070294	0.24951	0.074047	0.23875	0.1708	0.17265	0.089562	0.14689	0.09565	0.27724	0.09232	0.26834	0.15185	0.119	-2.5354	-2.9979	-2.725	-3.0542	-2.8646	-2.7562	-3.1667	-2.8979	-3.025	-2.9313	-2.8896	-3.0542	-2.9188	-2.8187	-3.2125	-2.9021	335.060	284.907	436.087	241.773	379.474	448.059	235.872	515.393	508.317	447.332	245.267	504.874	204.360	467.801	177.081	516.069	0.00047392	0.00059774	0.00012837	455.93	3.2896e-06	1.4092e-06	438.4	161.66	1.4926e-06	2.5969e-06	171.74	80.129	64.653	36.285	3.8908e-06	44.212	0.00095786	0.0011168	0.00028992	455.33	1.2008e-05	1.2313e-05	433.02	161.45	1.1582e-05	1.2526e-05	172.55	80.437	65.431	36.42	1.1273e-05	44.338	268.820	240.186	273.356	178.698	371.134	398.733	177.702	184.004	315.646	223.400	181.500	185.627	188.235	192.651	301.677	188.109	-8191	255	
41611.367	1	1	0	0	0.2942	0.1768	0.11155	0.055975	0.12637	0.048702	0.059356	0.30073	0.17416	0.099829	0.055419	0.24538	0.13459	0.18291	0.19868	0.1043	-2.3583	-3.0062	-2.7479	-2.8979	-2.7604	-2.6979	-3.1396	-2.8917	-2.9146	-3.2917	-2.7292	-3.0354	-2.8958	-2.7958	-3.0375	-2.9313	308.816	329.514	438.361	496.979	502.888	224.821	489.008	408.667	400.968	201.406	408.509	294.060	352.278	496.324	378.763	197.354	0.00048352	0.00052585	0.00010439	458.71	6.9442e-06	1.7561e-06	432.83	161.42	1.9929e-06	8.3122e-06	169.86	79.681	64.578	36.031	4.7199e-06	43.481	0.00097361	0.0011106	0.00028418	454.39	1.1745e-05	1.2022e-05	429.09	161.14	1.1839e-05	1.2183e-05	171.41	80.048	65.274	36.244	1.1383e-05	43.829	273.181	254.747	284.119	178.884	344.206	329.543	177.488	184.019	363.384	339.635	180.960	185.605	188.517	192.660	298.180	188.184	-8191	255	
41611.465	1	1	0	0	0.12084	0.13952	0.089656	0.188	0.19181	0.27791	0.25831	0.11539	0.03464	0.25125	0.20167	0.08651	0.092221	0.21805	0.28508	0.15201	-2.2917	-3.0146	-2.8063	-2.9292	-3.0604	-2.7583	-3.2042	-2.8167	-2.8479	-3.1646	-3.0458	-3.0417	-2.9708	-2.7208	-3.0083	-2.8854	242.816	387.976	371.166	385.823	437.630	520.110	454.276	463.338	413.233	446.157	520.363	423.680	183.207	510.202	505.336	473.012	0.00047321	0.00033359	1.7962e-05	452.92	7.1534e-06	4.8038e-06	432.16	159.95	1.7376e-06	6.5096e-06	169.2	80.193	64.378	35.814	9.0345e-06	43.963	0.00096672	0.0010817	0.00028916	452.58	1.1793e-05	1.1737e-05	428.62	160.4	1.1552e-05	1.1831e-05	170.59	79.974	65.217	36.01	1.1451e-05	43.92	267.846	367.718	395.113	179.043	353.383	292.690	177.642	184.154	377.181	316.655	181.433	185.489	188.565	192.448	325.192	188.084	-8191	255	
41611.562	1	1	0	0	0.33897	0.26027	0.24132	0.46676	0.10574	0.2905	0.083935	0.14596	0.16289	0.15596	0.060554	0.1194	0.25804	0.076551	0.17993	0.04424	-2.3896	-3.0146	-2.8083	-2.9292	-2.8771	-2.7125	-3.0875	-2.9875	-2.8063	-3.0521	-2.7667	-2.9042	-3.1042	-2.6417	-2.9229	-3.125	242.714	231.913	177.039	486.913	308.940	270.173	327.148	195.775	522.372	407.201	212.818	507.258	474.077	241.224	510.082	406.714	0.00051655	0.00037202	0.00011463	454.88	2.9239e-06	4.5583e-06	431.59	160.43	4.2864e-06	4.6187e-06	170.51	79.547	64.523	35.937	2.4355e-06	43.917	0.00096483	0.0010604	0.00028686	453.39	1.1691e-05	1.1511e-05	429.3	160.26	1.1413e-05	1.1402e-05	172.01	80.049	65.177	36.18	1.1637e-05	44.112	276.289	264.409	274.453	178.690	410.287	355.513	177.109	184.158	326.332	352.355	181.173	185.256	188.801	192.481	249.695	188.187	-8191	255	
41611.656	1	1	0	0	0.2697	0.21809	0.18448	0.1285	0.11467	0.074887	0.0687	0.18313	0.17775	0.29107	0.12164	0.26666	0.14356	0.17167	0.05177	0.24241	-2.1396	-3.0229	-2.7208	-2.8063	-3.05	-2.6875	-2.9542	-2.9667	-2.7167	-3.1042	-2.8271	-2.8896	-3.3625	-2.6229	-3.0083	-2.9396	384.766	484.458	361.696	267.790	354.862	261.902	445.186	200.956	516.916	363.106	199.656	223.107	467.905	275.407	511.900	307.973	0.00051583	0.00030265	5.0043e-05	454.21	4.3885e-06	2.3626e-06	434.22	161.41	1.9591e-06	2.4315e-06	169.7	80.035	64.611	35.958	6.0431e-06	43.647	0.00093334	0.0010101	0.00029824	453.04	1.1448e-05	1.0994e-05	429.81	160.83	1.1004e-05	1.1039e-05	171.22	80.064	65.14	36.114	1.1696e-05	43.845	273.326	266.565	252.979	178.873	362.645	347.454	177.519	184.201	312.444	385.312	181.141	185.374	188.547	192.715	291.072	188.244	-8191	255	
41611.754	1	1	0	0	0.25176	0.10102	0.12225	0.24726	0.16889	0.031803	0.23	0.13174	0.19038	0.14057	0.20806	0.10433	0.19314	0.16205	0.11912	0.21919	-2.3271	-3.1125	-2.9979	-2.8104	-3.2	-2.7542	-2.95	-3.1896	-2.7354	-3.1333	-2.8458	-2.6792	-3.1	-2.7354	-2.8417	-3.0083	402.159	496.705	424.375	522.409	383.675	382.374	347.377	189.996	516.834	369.337	415.199	272.635	452.405	497.830	464.072	485.642	0.00046826	0.00043702	0.000102	453.76	4.6015e-06	1.6459e-06	430.75	158.96	8.0584e-06	3.4239e-06	169.11	79.997	64.494	35.882	3.5153e-06	43.479	0.00091543	0.0010062	0.000298	451.96	1.1047e-05	1.1233e-05	427.77	159.56	1.0856e-05	1.1341e-05	170.74	79.891	64.925	36.049	1.1946e-05	43.726	274.694	259.591	218.215	178.794	326.087	231.879	177.729	184.251	337.005	308.936	181.138	185.389	188.259	192.602	293.002	188.037	-8191	255	
41611.852	1	1	0	0	0.091963	0.27526	0.064402	0.14112	0.30015	0.17806	0.038019	0.18764	0.14328	0.18928	0.27298	0.17066	0.12839	0.13957	0.085265	0.17467	-2.3854	-3.0938	-2.7854	-2.9292	-3.1562	-3.0187	-2.9292	-3.0938	-2.7438	-3.1646	-3.0667	-2.6521	-3.0708	-2.8854	-2.8625	-3.1375	336.257	360.725	501.893	403.322	326.164	290.142	256.644	209.647	511.642	223.747	189.432	346.186	299.479	515.882	249.855	237.148	0.00047502	0.00052009	1.5418e-05	454.53	3.0602e-06	8.5823e-06	430.23	159.68	2.7433e-06	5.8895e-06	168.65	79.462	64.751	35.718	3.6069e-06	43.91	0.00089657	0.0010444	0.00030806	452.96	1.0625e-05	1.1721e-05	428.4	159.45	1.0793e-05	1.1665e-05	170.53	79.917	64.901	36.003	1.2086e-05	43.86	272.598	247.929	241.105	178.772	381.906	295.409	177.338	184.244	296.838	241.466	181.179	185.556	188.130	192.553	285.841	187.924	-8191	255	
41611.969	1	1	0	0	0.20349	0.16838	0.18893	0.10532	0.15251	0.015689	0.19118	0.19547	0.019898	0.0027525	0.21245	0.052157	0.061577	0.14033	0.20664	0.22958	-2.35	-3.0104	-2.8792	-2.7208	-3.0062	-2.9771	-2.9396	-3.0271	-2.8292	-3.1771	-3.0458	-2.7583	-3.0563	-2.8604	-2.7896	-3.0687	367.497	239.516	302.576	516.486	261.049	293.919	357.888	521.566	243.876	390.705	197.178	495.887	250.396	482.227	362.219	389.834	0.00046131	0.00037974	0.00018009	455.87	5.7546e-06	4.4427e-06	430.49	159.48	2.1665e-07	3.8274e-06	169.4	79.74	64.499	35.712	4.8146e-06	43.555	0.00089452	0.0010791	0.00030797	452.24	1.0848e-05	1.2161e-05	428.08	159.41	1.1071e-05	1.2139e-05	171.33	80.148	64.986	36.01	1.2439e-05	43.801	269.710	301.146	257.713	178.790	372.839	348.618	177.380	184.274	356.542	333.757	181.182	185.492	188.307	192.516	295.402	187.914	-8191	255	
41612.066	1	1	0	0	0.13631	0.089378	0.12912	0.054238	0.088244	0.18423	0.32658	0.095605	0.1696	0.27374	0.18743	0.35596	0.13677	0.13319	0.20884	0.15641	-2.2667	-2.8604	-2.9188	-2.6917	-3.1083	-2.9146	-2.7604	-2.9958	-2.8375	-3.0021	-2.9875	-2.6646	-3.0375	-2.9646	-2.7083	-3.025	282.149	246.510	204.406	200.616	524.771	190.239	446.611	489.915	214.185	399.624	323.226	425.885	278.992	182.707	302.619	447.230	0.00053682	0.0001689	0.00018217	456.22	3.3752e-06	6.7318e-06	429.12	159.64	2.8884e-06	2.4873e-06	168.82	80.011	64.258	35.591	4.6981e-06	43.164	0.00092727	0.0011153	0.00031107	451.3	1.1014e-05	1.2531e-05	426.64	159.54	1.1105e-05	1.2737e-05	170.13	79.727	64.805	35.978	1.2431e-05	43.59	273.381	453.985	259.548	178.908	297.798	304.691	177.620	184.231	348.336	276.422	181.616	185.284	188.415	192.470	346.723	188.026	-8191	255	
41612.164	1	1	0	0	0.087973	0.20837	0.10176	0.054003	0.097104	0.26628	0.092508	0.088778	0.28763	0.085106	0.16022	0.15583	0.21061	0.2222	0.29597	0.067759	-2.4646	-2.8333	-3.0021	-2.7354	-3.0083	-3.0042	-2.8354	-3.275	-2.9458	-2.9188	-3.2396	-2.7354	-3.0062	-3.0625	-2.8792	-3.0979	384.136	332.715	262.147	278.561	209.824	273.406	206.883	487.694	348.019	394.011	445.468	320.051	375.516	216.213	467.175	171.388	0.00050955	0.00036324	8.995e-05	451.46	4.9884e-06	6.123e-06	428.82	158.51	3.5578e-07	1.5962e-06	168.71	79.691	64.543	35.717	2.8897e-06	43.52	0.00096428	0.0011516	0.00031212	450.2	1.1729e-05	1.2726e-05	426.57	159.22	1.1585e-05	1.2615e-05	170.66	79.854	65.108	36.038	1.2142e-05	43.703	273.740	254.330	262.422	178.743	246.927	295.063	177.439	183.996	523.358	191.852	181.155	185.260	188.184	192.440	364.343	188.173	-8191	255	
41612.281	1	1	0	0	0.13455	0.15065	0.13712	0.030077	0.16106	0.11204	0.39193	0.21919	0.1696	0.23246	0.11423	0.22108	0.13684	0.15965	0.15427	0.31464	-2.5229	-2.8167	-2.9896	-2.8604	-2.8708	-3.0083	-2.8	-3.0687	-2.8354	-2.9813	-3.1583	-3.0604	-2.9146	-2.9896	-2.7396	-3.0021	513.347	184.878	332.197	221.267	344.205	507.255	414.105	486.903	201.091	472.449	495.175	449.499	224.084	481.228	274.728	366.455	0.00054139	0.00027293	7.4348e-05	453.5	4.0478e-06	2.2262e-06	427.93	159.54	1.9761e-06	4.0276e-06	170.09	79.552	64.19	35.764	1.4907e-06	43.667	0.00098173	0.0011668	0.00030907	450.8	1.1836e-05	1.2974e-05	427.81	159.34	1.1957e-05	1.2671e-05	171.68	79.768	65.007	36.089	1.182e-05	43.924	271.541	272.829	265.538	178.825	317.565	352.698	177.462	184.002	369.459	335.099	181.254	185.355	188.504	192.703	301.644	187.917	-8191	255	
41612.355	1	1	0	0	0.178	0.13764	0.12228	0.089576	0.080486	0.057444	0.33731	0.19179	0.30814	0.16141	0.16991	0.13757	0.17696	0.1204	0.1425	0.048103	-2.5104	-2.8104	-3.0042	-2.8042	-2.8708	-3.1688	-2.7833	-3.0625	-2.9646	-2.5979	-2.9938	-2.8917	-2.6771	-3.2771	-2.75	-3.2062	256.634	256.497	447.086	227.439	297.102	463.466	485.991	500.563	326.521	221.676	257.714	282.976	382.412	198.057	435.258	378.821	0.00050173	0.00022831	0.00012622	455	7.904e-06	4.1495e-06	431.32	160.11	4.6133e-06	3.1781e-06	169.37	78.91	63.917	35.867	5.7898e-06	43.531	0.0010225	0.0011585	0.00029819	452.07	1.2202e-05	1.2813e-05	429.21	159.95	1.2203e-05	1.2623e-05	171.17	79.601	65.035	36.15	1.187e-05	43.779	281.630	465.020	251.291	178.533	333.496	325.184	177.349	184.169	365.669	329.854	181.041	185.560	188.481	192.351	332.599	188.088	-8191	255	
41612.449	1	1	0	0	0.16748	0.15631	0.18709	0.14444	0.14239	0.21235	0.084688	0.1778	0.15043	0.20877	0.078276	0.13156	0.22127	0.17138	0.19685	0.048127	-2.6	-2.7292	-3.1271	-3.0354	-2.8833	-2.7687	-2.7958	-2.975	-2.9458	-2.7438	-3.0146	-2.8187	-2.7396	-3.1437	-2.6583	-3.0312	482.254	231.496	201.082	357.608	358.359	512.520	348.694	175.515	302.937	431.061	186.240	351.206	204.485	364.451	195.608	209.340	0.00051009	0.00041195	7.9504e-05	454.79	3.6578e-06	3.7867e-06	429.25	159.14	3.1356e-06	2.6309e-06	169.1	78.913	63.906	35.776	3.5153e-06	43.313	0.0010334	0.0011709	0.00030041	452.97	1.2454e-05	1.2892e-05	426.01	159.57	1.246e-05	1.2384e-05	170.01	79.489	64.752	35.962	1.1986e-05	43.545	273.954	242.032	239.437	178.929	335.127	305.112	177.131	184.164	317.400	329.627	181.017	185.596	188.260	192.346	356.327	188.139	-8191	255	
41612.570	1	1	0	0	0.16615	0.28151	0.13208	0.23181	0.14307	0.46533	0.27225	0.25016	0.087021	0.26192	0.17675	0.22485	0.16002	0.21071	0.011046	0.13923	-2.7667	-2.6458	-2.7833	-3.0125	-2.6375	-3.2292	-3.075	-3.0854	-3.0979	-2.7271	-3.1312	-2.9708	-2.7562	-3.1063	-2.8187	-2.7062	197.255	214.846	195.758	325.839	460.088	519.410	202.513	489.996	305.296	285.232	355.200	427.028	288.037	462.847	460.981	211.792	0.00050856	0.00081656	9.7142e-05	453.3	3.8925e-06	2.9199e-06	431.45	160.66	1.3316e-06	1.8038e-06	168.87	79.363	64.073	35.751	2.5101e-06	43.479	0.0010183	0.0011173	0.00029805	452.77	1.2224e-05	1.2211e-05	428.72	159.91	1.2158e-05	1.2092e-05	170.71	79.345	64.798	35.97	1.196e-05	43.711	280.600	238.753	255.337	178.528	325.854	359.818	177.363	184.173	286.712	338.948	181.703	185.550	188.393	192.734	278.053	188.592	-8191	255	
41612.664	1	1	0	0	0.048233	0.20584	0.035021	0.053439	0.17708	0.070934	0.14995	0.40193	0.10609	0.12266	0.20509	0.051076	0.10735	0.10073	0.17571	0.40123	-2.5354	-2.825	-2.85	-2.9521	-2.6813	-3.0812	-2.9396	-2.6667	-3.1562	-2.7292	-3.0083	-2.9083	-2.6833	-3.0479	-2.9271	-3.0312	424.517	297.698	407.175	225.767	380.055	312.999	423.939	203.475	511.396	470.448	433.438	354.503	380.913	309.532	322.873	468.225	0.00051174	0.00031097	0.00018954	455.48	6.9169e-06	6.3953e-06	433.46	160.45	1.3633e-06	3.6677e-06	170.22	79.2	64.055	35.731	7.2431e-06	43.548	0.001012	0.0011005	0.00030772	453.53	1.2153e-05	1.1721e-05	429.47	160.66	1.196e-05	1.1668e-05	171.6	79.449	64.721	35.996	1.2045e-05	43.661	271.975	458.427	222.140	178.768	333.737	354.513	177.541	184.143	408.395	383.353	181.040	185.593	188.553	192.402	296.234	188.373	-8191	255	
41612.762	1	1	0	0	0.18334	0.16741	0.24971	0.29366	0.27914	0.17078	0.21085	0.080101	0.18498	0.18589	0.1376	0.37416	0.2577	0.11358	0.072068	0.16738	-2.8229	-2.9062	-2.9437	-2.8729	-2.7875	-3.1792	-2.8625	-2.6271	-3.1792	-2.7292	-3.1583	-2.9646	-2.7083	-3	-2.8458	-2.9333	432.987	229.739	493.967	443.711	183.353	392.440	177.192	231.060	500.196	446.160	167.838	458.597	445.059	213.753	512.869	385.574	0.0004154	0.00018607	4.4199e-05	456.41	3.6557e-06	2.8141e-06	431.3	159.4	4.8024e-06	4.6882e-06	169.74	78.51	63.986	35.614	6.3214e-06	43.343	0.0009629	0.0010867	0.00030763	453.5	1.1674e-05	1.1789e-05	428.67	160.03	1.1505e-05	1.1652e-05	170.58	78.989	64.541	35.952	1.2483e-05	43.502	277.670	403.512	290.765	178.930	426.531	168.879	177.171	184.343	317.674	363.561	181.108	185.457	188.173	192.393	297.423	188.106	-8191	255	
41612.859	1	1	0	0	0.073429	0.046691	0.14089	0.18677	0.17066	0.15695	0.23999	0.24212	0.073379	0.17375	0.16255	0.053082	0.028338	0.26539	0.12096	0.26985	-2.6063	-2.7583	-2.7833	-3.0875	-2.6583	-2.9521	-2.9437	-2.7875	-3.0854	-2.7042	-2.9938	-3.1708	-2.7833	-3.1917	-2.8917	-2.8063	246.826	327.828	181.352	412.098	421.291	425.061	483.761	426.575	522.659	476.932	279.455	466.246	415.127	199.163	265.123	476.547	0.00052444	0.00068851	0.00012026	456.78	7.7079e-06	9.7546e-06	430.51	159.36	5.707e-06	5.1974e-07	169.57	79.102	63.661	35.697	2.3004e-06	43.383	0.00094833	0.0011123	0.00031834	453.65	1.1542e-05	1.2192e-05	428.23	160.19	1.1088e-05	1.2056e-05	170.63	79.06	64.507	35.947	1.2623e-05	43.532	274.549	225.698	294.635	178.689	344.437	332.519	177.288	184.120	333.151	197.691	180.941	184.919	188.172	192.713	307.912	187.920	-8191	255	
41612.953	1	1	0	0	0.15573	0.20349	0.27542	0.13731	0.066389	0.18991	0.029044	0.099178	0.24663	0.09089	0.1631	0.19121	0.1455	0.42072	0.19791	0.26401	-2.7854	-2.7354	-2.8417	-2.8208	-2.7729	-3.0521	-2.95	-2.8292	-3.1167	-2.95	-2.9479	-3.0083	-2.9792	-3.0854	-2.9396	-2.875	201.001	252.243	397.514	262.513	440.412	225.917	361.692	307.022	329.392	197.730	401.668	195.210	391.088	198.270	245.355	224.928	0.0005267	0.0005271	7.7957e-05	456.26	5.4541e-06	6.3755e-06	431.16	160.2	5.4211e-06	5.1467e-06	168.43	78.86	64.177	35.568	3.9069e-06	43.538	0.00092329	0.0011135	0.00032282	453.58	1.1272e-05	1.2189e-05	428.71	159.97	1.1254e-05	1.2362e-05	171.05	79.038	64.494	35.934	1.2709e-05	43.593	281.583	194.498	286.884	178.981	203.472	296.710	177.473	184.173	336.857	362.121	181.702	185.626	188.472	192.788	308.422	188.346	-8191	255	
41613.051	1	1	0	0	0.050899	0.14235	0.14382	0.22553	0.10496	0.073404	0.14468	0.14972	0.28364	0.099968	0.26147	0.2212	0.18147	0.18007	0.27377	0.24867	-2.6167	-2.8208	-2.8396	-3.0438	-2.8604	-2.9458	-3.0979	-2.7292	-2.9167	-3.0208	-2.8542	-3.1354	-2.7417	-2.8937	-2.9396	-2.725	297.413	433.389	209.698	484.627	374.072	199.808	462.261	513.623	443.415	422.990	314.740	405.506	525.745	206.529	492.252	470.175	0.00049325	0.00015122	0.00023528	453.35	4.3025e-06	2.8692e-06	433.18	160.75	4.3162e-06	2.5657e-06	167.45	78.667	63.577	35.527	3.1483e-06	43.366	0.00094603	0.0011687	0.0003174	453.05	1.123e-05	1.2606e-05	428.82	160.27	1.1187e-05	1.266e-05	170.66	79.01	64.374	35.918	1.2368e-05	43.412	276.132	342.269	282.021	178.604	276.304	350.932	177.721	184.253	366.349	245.391	181.376	185.558	188.177	192.380	379.238	187.945	-8191	255	
41613.148	1	1	0	0	0.21975	0.29392	0.015108	0.17085	0.30573	0.16309	0.33504	0.12782	0.19654	0.027343	0.23589	0.15796	0.080057	0.098651	0.23849	0.13187	-2.6583	-2.8521	-2.6521	-3.325	-2.7979	-2.9125	-3.1875	-2.6958	-3.0354	-2.8375	-2.6854	-3.1125	-2.8854	-2.8	-3.1437	-2.8563	319.972	202.836	479.781	167.181	178.400	425.953	173.017	476.120	344.039	245.158	180.891	200.129	266.586	206.984	290.126	525.992	0.00047613	0.00016499	0.0001408	451.8	2.3596e-06	2.4933e-06	425.88	160	8.0306e-06	4.3148e-06	169.6	78.779	63.408	35.516	8.5682e-06	43.349	0.00094511	0.001171	0.00031234	450.36	1.1463e-05	1.2897e-05	425.87	159.34	1.143e-05	1.2822e-05	169.99	78.83	64.316	35.782	1.2434e-05	43.28	273.009	252.024	276.190	179.083	339.969	339.920	177.568	184.182	318.544	355.422	181.686	185.603	188.255	192.516	331.316	188.199	-8191	255	
41613.242	1	1	0	0	0.089369	0.1918	0.010974	0.21228	0.070081	0.33836	0.12647	0.16724	0.13588	0.11354	0.053531	0.25089	0.080511	0.17167	0.21523	0.1399	-2.4792	-2.8646	-2.7313	-3.0708	-2.7562	-3.0646	-3.0708	-2.7833	-2.9875	-3.2292	-2.875	-3	-2.9625	-2.9396	-3.1396	-2.7521	184.669	451.672	505.733	318.115	487.476	391.217	414.202	486.697	203.894	434.367	354.071	276.430	522.429	270.780	375.805	404.678	0.0004639	0.00071369	0.00015418	453.7	7.7476e-06	3.0161e-06	427.85	159.06	4.8999e-06	3.5466e-06	168.45	79.334	63.559	35.508	5.6808e-06	42.956	0.00097577	0.001182	0.00031163	451.53	1.1769e-05	1.2838e-05	425.96	158.86	1.1938e-05	1.26e-05	169.9	79.059	64.528	35.8	1.207e-05	43.342	269.733	289.185	273.820	178.807	275.243	332.234	177.756	183.992	293.132	229.646	181.578	185.394	188.047	192.677	295.458	188.165	-8191	255	
41613.363	1	1	0	0	0.15991	0.099373	0.19146	0.23743	0.16352	0.18776	0.056169	0.07749	0.29153	0.14677	0.30609	0.16022	0.16485	0.054729	0.10741	0.075325	-2.5417	-3.0875	-2.675	-3.1333	-2.8	-2.6354	-3.1188	-2.7729	-2.9667	-3.1562	-2.7417	-2.9729	-2.9562	-2.8625	-3.0958	-2.9229	274.570	500.935	261.490	170.213	352.205	199.960	187.019	195.258	455.853	332.482	204.113	195.286	477.675	495.278	371.078	442.835	0.00049365	0.00052231	1.2951e-05	450.71	1.4498e-06	5.2279e-06	429.29	158.48	2.8354e-06	9.7463e-06	166.99	78.393	63.604	35.625	9.0959e-06	42.97	0.00099473	0.0011812	0.00030733	450.02	1.2231e-05	1.2768e-05	427.25	158.76	1.2299e-05	1.2919e-05	169.48	78.819	64.517	35.727	1.2167e-05	43.154	265.867	321.760	223.592	178.898	216.969	315.773	177.736	184.332	331.287	327.758	181.309	185.489	188.365	192.491	326.915	188.412	-8191	255	
41613.457	1	1	0	0	0.096672	0.18955	0.19718	0.032806	0.11381	0.14989	0.24158	0.12233	0.057524	0.13934	0.23194	0.060142	0.31006	0.28125	0.1472	0.14103	-2.3083	-2.9646	-2.7146	-3.1396	-2.9542	-2.8292	-3.2062	-2.8792	-2.8187	-2.9896	-2.8542	-3.1208	-3.0521	-2.7271	-3.0687	-2.9771	459.542	391.495	458.478	524.545	519.573	436.444	448.965	490.413	257.940	517.035	453.540	465.605	193.714	504.753	194.185	305.445	0.00050119	0.0001199	8.269e-05	448.81	1.2327e-06	5.6118e-06	423.07	158.04	7.282e-06	1.2291e-06	166.36	78.548	63.12	35.08	1.6295e-06	42.818	0.0010327	0.0012212	0.00030234	447.54	1.271e-05	1.2892e-05	421.31	157.53	1.2746e-05	1.2956e-05	167.81	78.518	63.968	35.527	1.1883e-05	42.916	273.676	286.592	507.858	178.758	427.994	313.873	177.826	184.105	319.776	276.586	181.633	185.144	188.627	192.796	378.807	188.062	-8191	255	
41613.555	1	1	0	0	0.24961	0.11173	0.27885	0.17222	0.17871	0.055465	0.24136	0.1543	0.17443	0.13636	0.20917	0.06028	0.21932	0.26907	0.31806	0.22747	-2.4083	-3.0396	-2.7833	-2.8667	-3.0563	-2.8146	-3.2583	-2.95	-2.7188	-3.1604	-2.7958	-2.9979	-2.9708	-2.6542	-3.0646	-2.9417	497.697	498.016	328.732	224.493	425.973	347.092	491.668	247.345	217.393	279.539	458.757	510.943	504.450	470.232	414.663	206.277	0.00048417	0.00035306	4.7532e-05	446.37	4.4241e-06	5.9469e-06	425.37	156.31	3.294e-06	6.8604e-06	166.58	78.643	63.466	35.283	2.5431e-06	42.804	0.0010343	0.0011835	0.00031008	448.49	1.3056e-05	1.298e-05	422.3	157.42	1.3013e-05	1.2908e-05	167.75	78.748	64.211	35.516	1.2409e-05	43.014	276.092	303.260	286.361	178.702	348.082	328.802	177.427	184.008	315.740	328.007	181.265	185.285	188.675	192.822	396.240	188.184	-8191	255	
41613.648	1	1	0	0	0.11995	0.20384	0.16323	0.20712	0.24406	0.12664	0.28091	0.1779	0.23535	0.034078	0.12905	0.064354	0.16492	0.11207	0.054648	0.034712	-2.2792	-3.0354	-2.7625	-2.8521	-3.0812	-2.7771	-3.2646	-2.9437	-2.75	-3.0583	-2.7875	-2.9813	-3.0896	-2.6458	-2.9313	-3.0417	445.690	351.522	201.759	456.110	211.399	171.849	233.599	272.060	387.517	195.647	288.931	457.864	285.092	210.657	343.235	323.990	0.00045707	0.00025836	7.3897e-05	450.16	5.4536e-06	2.023e-06	426.72	157.73	5.2157e-06	5.1655e-06	166.94	78.358	63.276	35.451	1.5998e-06	43.173	0.001043	0.0011371	0.00032837	449.49	1.2761e-05	1.2673e-05	422.98	157.75	1.2927e-05	1.2892e-05	169.01	79.011	64.194	35.647	1.2804e-05	43.253	275.232	227.858	229.594	178.961	296.399	349.278	177.416	184.236	324.410	281.880	180.996	185.321	188.285	192.723	334.058	187.838	-8191	255	
41613.746	1	1	0	0	0.24716	0.15538	0.21328	0.24228	0.049551	0.12482	0.084543	0.064369	0.39073	0.21372	0.22998	0.16705	0.23617	0.3266	0.2561	0.2726	-2.2479	-3.0833	-2.7646	-2.8208	-3.0104	-2.7333	-3.0708	-2.9771	-2.6479	-2.9646	-2.8917	-2.7854	-3.0354	-2.85	-3.0292	-3.0812	212.334	372.374	360.369	429.403	310.811	208.640	403.363	321.846	368.074	323.110	251.529	472.018	424.307	508.316	290.399	432.007	0.0004562	0.00030315	8.199e-05	450.88	5.5885e-06	1.1064e-06	425.92	156.32	1.606e-06	3.7561e-06	166.96	79.268	63.534	35.212	4.7624e-06	42.723	0.0010246	0.0011467	0.00033058	449.46	1.2665e-05	1.275e-05	422.72	157.36	1.2878e-05	1.3137e-05	168.73	78.959	64.222	35.456	1.3478e-05	42.936	276.224	316.286	245.200	178.700	386.560	357.210	177.675	184.159	299.760	250.041	181.065	185.769	187.946	192.777	377.781	187.894	-8191	255	
41613.844	1	1	0	0	0.21241	0.10654	0.056566	0.14732	0.13745	0.24531	0.07618	0.18235	0.13108	0.063262	0.1244	0.18918	0.13573	0.14342	0.13505	0.11113	-2.2104	-3.1146	-2.6875	-2.8312	-3.0333	-2.9646	-2.9083	-3.0854	-2.5917	-2.9917	-2.9396	-2.7875	-3.1562	-2.7521	-2.9146	-3.2083	263.703	178.633	292.738	186.249	212.570	218.109	327.120	408.406	240.700	441.310	354.397	504.999	312.994	212.022	202.813	344.659	0.00053991	0.00026441	5.5383e-05	449.68	4.0731e-06	1.176e-06	421.18	157.28	1.2382e-06	6.9644e-06	166.26	78.56	63.539	35.262	3.2874e-06	43.074	0.0010166	0.0011699	0.00034658	447.83	1.2625e-05	1.2694e-05	420.54	157.2	1.245e-05	1.2952e-05	168.45	78.92	64.095	35.588	1.3666e-05	43.062	277.153	243.971	192.120	178.809	258.510	368.358	177.562	184.339	348.681	360.322	180.839	185.507	188.067	192.448	306.122	187.986	-8191	255	
41613.965	1	1	0	0	0.22835	0.13834	0.13826	0.27432	0.067763	0.22589	0.14043	0.07515	0.10269	0.16436	0.39507	0.31726	0.082592	0.15206	0.081542	0.30618	-2.2521	-3.1229	-3.0958	-2.8021	-3.175	-2.9396	-2.8375	-3.0354	-2.8667	-2.9854	-2.9417	-2.6542	-3.0979	-2.8667	-2.8875	-3.2062	376.734	185.685	213.210	524.580	173.043	210.551	429.255	380.006	476.729	304.547	175.222	402.449	266.950	467.235	355.235	386.586	0.00048358	0.00043238	0.00017273	447.79	1.5039e-06	5.8196e-06	423.08	156.76	1.4889e-06	2.7606e-06	167.55	78.677	63.61	35.313	5.4789e-06	42.728	0.000996	0.001191	0.00035123	446.08	1.2064e-05	1.2883e-05	421.91	157.37	1.2054e-05	1.2863e-05	169.34	79.212	64.375	35.609	1.3283e-05	43.125	273.601	317.341	267.287	178.788	241.062	325.789	177.459	184.099	285.842	326.683	181.151	185.479	188.464	192.586	384.886	188.008	-8191	255	
41614.059	1	1	0	0	0.22036	0.12958	0.1728	0.26811	0.032461	0.13315	0.15812	0.15161	0.15824	0.058044	0.25085	0.014174	0.16686	0.042205	0.20714	0.1579	-2.3625	-2.8875	-2.8854	-2.7062	-3.2292	-2.7562	-2.75	-3.0354	-2.6521	-3.0542	-2.9188	-2.6333	-3.1146	-3.0104	-2.6021	-3.1292	439.398	499.667	253.659	478.412	363.859	325.677	482.763	264.061	172.372	454.591	226.779	334.491	402.570	188.373	481.965	458.460	0.00056436	0.00038693	3.4577e-05	449.44	2.4575e-06	5.9049e-06	424.62	157.21	3.4043e-06	1.6498e-06	168.07	79.332	63.933	35.346	7.6708e-06	42.745	0.00094935	0.001154	0.00034071	447.69	1.1794e-05	1.2896e-05	422.89	158.05	1.1853e-05	1.3013e-05	169.88	79.67	64.747	35.651	1.3243e-05	43.095	273.067	230.354	254.134	179.130	365.282	271.511	177.540	184.247	306.598	300.398	181.269	185.398	188.411	192.537	310.651	188.026	-8191	255	
41614.156	1	1	0	0	0.18658	0.12655	0.23041	0.10293	0.14237	0.19295	0.18622	0.076873	0.19908	0.15317	0.15099	0.11041	0.088481	0.0712	0.10933	0.057707	-2.5833	-2.9813	-2.9083	-2.7792	-2.9062	-2.8979	-2.7	-3.05	-3.0333	-2.8542	-3.1479	-2.6417	-3.1833	-2.9708	-2.6917	-3.1437	204.245	384.709	262.136	438.732	226.152	399.577	409.137	433.740	498.762	463.794	199.793	293.611	351.403	171.253	397.811	171.292	0.00047814	0.00048344	0.00017236	446.75	8.3946e-06	3.5397e-06	420.24	156.18	4.3332e-06	3.5328e-06	167.66	79.046	63.833	35.48	2.9545e-06	42.761	0.00096684	0.0011793	0.00033325	444.68	1.1679e-05	1.2997e-05	418.42	156.93	1.1586e-05	1.3291e-05	168.73	79.247	64.672	35.606	1.2713e-05	42.882	270.002	272.719	269.640	178.607	334.070	293.619	177.551	183.995	261.725	320.705	181.194	185.606	188.532	192.600	346.144	188.333	-8191	255	
41614.254	1	1	0	0	0.13368	0.16457	0.14487	0.11776	0.23056	0.16103	0.3613	0.32321	0.14062	0.052504	0.11974	0.10778	0.20497	0.41958	0.033767	0.18736	-2.2625	-2.8958	-2.9854	-2.7729	-3.1	-2.8646	-2.575	-3.1292	-2.7562	-2.8958	-3.1875	-2.8604	-3.0021	-3.1792	-2.8854	-3.0667	285.545	177.856	287.706	178.964	182.284	378.654	466.711	510.114	394.881	205.313	463.243	506.753	320.272	492.097	417.567	226.193	0.00044972	0.00038797	7.0111e-05	446.68	8.089e-06	3.0165e-06	419.11	156.6	2.6017e-06	1.4591e-06	167.79	79.655	64.056	35.453	3.39e-06	42.976	0.00096324	0.0011638	0.00032198	443.95	1.2e-05	1.3039e-05	419.62	157.42	1.2063e-05	1.2886e-05	169.11	79.539	64.779	35.788	1.2066e-05	43.051	270.887	269.332	303.202	178.834	346.253	301.016	177.809	184.595	329.571	334.678	181.458	185.495	188.738	192.663	328.572	188.012	-8191	255	
41614.348	1	1	0	0	0.23584	0.27016	0.043367	0.09705	0.10676	0.24206	0.26787	0.29099	0.098816	0.18922	0.16981	0.1829	0.22172	0.22232	0.017418	0.099098	-2.2833	-2.6604	-2.9375	-2.6375	-2.85	-2.9938	-2.8271	-2.9938	-2.8021	-2.775	-2.9625	-2.8417	-2.9646	-3.2042	-2.7438	-3.0167	184.546	237.249	240.057	302.761	322.103	469.459	433.956	179.212	488.394	226.669	507.623	435.201	259.090	507.749	493.529	418.646	0.00048446	0.00019617	0.00012771	448.07	2.8691e-06	1.1898e-06	424.17	158.49	4.8298e-06	9.1924e-06	169.07	79.715	63.98	35.556	3.5397e-06	43.007	0.00095806	0.0011683	0.00030875	446.47	1.1998e-05	1.2346e-05	422.16	158.46	1.2068e-05	1.257e-05	170.02	79.687	64.935	35.755	1.189e-05	43.134	275.448	257.847	294.249	178.661	358.281	338.924	177.304	184.352	291.656	293.738	181.655	185.613	188.835	192.692	320.344	188.038	-8191	255	
41614.441	1	1	0	0	0.13469	0.30419	0.075425	0.088743	0.16751	0.091524	0.044571	0.17352	0.17274	0.1287	0.049874	0.29257	0.1107	0.28531	0.090115	0.3007	-2.5521	-2.7396	-3.2042	-2.9542	-2.8937	-3.0479	-2.6875	-3.0854	-2.9437	-2.9458	-3.1979	-2.9021	-3.0146	-3.1083	-2.6979	-3.0458	214.020	492.921	207.202	333.814	198.941	427.283	220.684	195.941	411.548	432.540	446.479	391.598	451.318	202.059	526.127	436.247	0.00051508	0.00024336	6.8106e-05	446.35	6.3527e-06	3.0364e-06	422.93	156.98	3.7804e-06	2.3633e-06	167.9	79.013	63.686	35.352	5.637e-06	42.741	0.00097374	0.0011513	0.00029427	444.48	1.2256e-05	1.2405e-05	419.05	157.08	1.2462e-05	1.2959e-05	168.63	79.451	64.682	35.64	1.2091e-05	42.91	275.618	232.626	283.623	178.657	319.992	269.958	177.929	184.139	249.653	395.912	181.367	185.693	188.264	192.743	364.385	188.093	-8191	255	
41614.539	1	1	0	0	0.25822	0.13706	0.23866	0.10555	0.13969	0.042164	0.12807	0.17989	0.21818	0.22345	0.21707	0.13142	0.25012	0.044641	0.24871	0.24198	-2.5563	-2.8	-3.0292	-2.7917	-2.8396	-2.9396	-2.8208	-3.1562	-2.9938	-2.7229	-3.1458	-2.9104	-2.8917	-3.0938	-2.8563	-2.95	426.808	291.624	452.498	362.634	488.861	445.491	321.974	173.260	449.891	305.072	237.939	313.722	509.753	491.795	223.215	436.364	0.00046868	0.0008701	0.00011245	447.11	4.368e-06	1.6295e-06	418.08	157.67	2.3797e-06	4.939e-06	166.67	79.587	63.83	35.267	6.4523e-06	42.754	0.001037	0.0011727	0.00030451	444.12	1.2805e-05	1.2817e-05	416.66	157	1.2746e-05	1.2784e-05	168.83	79.48	64.776	35.542	1.2191e-05	42.88	274.766	227.766	166.894	179.026	316.865	327.070	177.331	184.535	317.160	301.320	181.367	185.687	188.397	192.738	317.997	188.315	-8191	255	
41614.660	1	1	0	0	0.036257	0.20844	0.24028	0.026602	0.17066	0.078639	0.22956	0.18552	0.12857	0.072286	0.11851	0.12286	0.080487	0.041119	0.081037	0.14326	-2.5812	-2.6562	-3.0021	-2.9021	-2.7687	-3.0479	-2.8792	-3.0292	-3.0792	-2.8417	-3.1729	-2.8708	-2.7938	-3.1854	-2.6792	-2.8125	223.765	384.131	366.864	251.618	363.673	398.130	441.872	236.077	402.890	524.772	507.026	363.431	321.033	241.936	409.166	386.610	0.0004553	0.00042313	0.00015477	441.65	4.1046e-06	3.6564e-06	423.22	156.69	3.7007e-06	5.6329e-06	167.82	78.856	64.042	35.255	4.9702e-06	42.926	0.0010112	0.0011337	0.00030317	443.07	1.2265e-05	1.236e-05	417.83	157.11	1.2725e-05	1.2222e-05	168.8	79.37	64.543	35.545	1.2428e-05	43.036	272.528	235.195	269.227	178.662	263.549	409.975	177.663	184.227	286.558	323.956	180.958	185.560	188.338	192.760	350.841	187.959	-8191	255	
41614.754	1	1	0	0	0.058868	0.081155	0.050783	0.27673	0.17629	0.16839	0.16057	0.1159	0.072475	0.17394	0.19681	0.17838	0.13203	0.22904	0.16816	0.19644	-2.7854	-2.7438	-3.0812	-2.9333	-2.6979	-3.0833	-2.8292	-2.9604	-3.1583	-2.6063	-3.1125	-2.8479	-2.65	-3.1708	-3.0687	-2.9	347.965	440.033	502.836	521.702	193.842	460.651	325.068	299.255	364.839	483.385	501.197	213.959	277.964	359.651	334.671	485.026	0.00045874	0.00077367	0.00011348	445.19	3.689e-06	3.7111e-06	419.02	155.82	5.9967e-06	7.4251e-06	167.17	78.768	63.374	35.151	1.9651e-06	42.477	0.001012	0.0011248	0.00031391	444.81	1.2555e-05	1.2351e-05	417.09	156.23	1.2681e-05	1.2578e-05	168.34	79.049	64.302	35.417	1.303e-05	42.615	274.663	262.232	222.344	179.060	394.524	292.708	177.538	184.437	280.399	346.385	181.487	185.237	188.350	192.581	199.543	188.045	-8191	255	
41614.828	1	1	0	0	0.23308	0.13182	0.093154	0.28791	0.16384	0.020457	0.066954	0.19383	0.21367	0.12174	0.16692	0.076668	0.079689	0.12826	0.15835	0.09016	-2.6979	-2.7354	-3.0667	-3.1167	-2.6688	-3.1958	-2.9313	-2.8875	-3.2896	-2.8479	-3.1021	-3.0042	-2.7313	-3.1604	-3.0021	-2.8792	224.992	260.984	290.899	259.178	520.603	256.406	423.198	497.550	367.557	494.076	510.722	397.719	385.293	184.821	398.820	371.272	0.00047502	0.00010725	0.0001151	443.27	2.4145e-06	5.7928e-06	416.26	155.17	2.6457e-06	8.0612e-07	165.35	77.952	62.352	34.903	4.9287e-06	42.142	0.0010008	0.0011225	0.00032321	441.35	1.2209e-05	1.2448e-05	414.55	155.45	1.2241e-05	1.2596e-05	166.35	78.082	63.349	35.119	1.3006e-05	42.307	277.686	463.754	218.468	178.686	319.681	309.490	177.158	184.338	312.144	430.517	181.104	185.229	188.646	192.633	309.384	188.066	-8191	255	
#DATA ENDS
