BOXY.EXE: ISS Imagent and Oximeter Data Acquisition Program Version 0.80
Ascii Record File

#ACQ INFORMATION
2  Detector Channels 
16  External MUX Channels 
1  Auxiliary Channels 
5000  Waveform (CCF) Frequency (Hz)
1  Waveforms Skipped 
30  Waveforms Averaged 
1  Cycles Averaged 
16  Acquisitions per Waveform 
10.0806  Updata Rate (Hz) 

#FILE INFORMATION
TRUE -- External MUX Channel results are PARSED.
FALSE -- AC DC and Phase are NOT grouped.
TRUE -- Companion Program Settings File CREATED.
FALSE -- AC data not excluded
FALSE -- DC data not excluded
FALSE -- Phase data not excluded
FALSE -- Auxillary Chn. data not excluded
Tab delimiters

#CALIBRATION STATE
TRUE -- Waveform Calibration Values APPLIED.


#AUX CALIBRATION VALUES
Val Type	aux-1	

Term	1.0000e+00	
Factor	0.0000e+00	


#WF CALIBRATION VALUES
A = Detector Channel
Val Type	A-AC1	A-AC2	A-AC3	A-AC4	A-AC5	A-AC6	A-AC7	A-AC8	A-AC9	A-AC10	A-AC11	A-AC12	A-AC13	A-AC14	A-AC15	A-AC16	A-DC1	A-DC2	A-DC3	A-DC4	A-DC5	A-DC6	A-DC7	A-DC8	A-DC9	A-DC10	A-DC11	A-DC12	A-DC13	A-DC14	A-DC15	A-DC16	A-Ph1	A-Ph2	A-Ph3	A-Ph4	A-Ph5	A-Ph6	A-Ph7	A-Ph8	A-Ph9	A-Ph10	A-Ph11	A-Ph12	A-Ph13	A-Ph14	A-Ph15	A-Ph16	

Term	0.00000e+00	0.00000e+00	0.00000e+00	0.00000e+00	0.00000e+00	0.00000e+00	0.00000e+00	0.00000e+00	0.00000e+00	0.00000e+00	0.00000e+00	0.00000e+00	0.00000e+00	0.00000e+00	0.00000e+00	0.00000e+00	0.00000e+00	0.00000e+00	0.00000e+00	0.00000e+00	0.00000e+00	0.00000e+00	0.00000e+00	0.00000e+00	0.00000e+00	0.00000e+00	0.00000e+00	0.00000e+00	0.00000e+00	0.00000e+00	0.00000e+00	0.00000e+00	0.00000e+00	0.00000e+00	0.00000e+00	0.00000e+00	0.00000e+00	0.00000e+00	0.00000e+00	0.00000e+00	0.00000e+00	0.00000e+00	0.00000e+00	0.00000e+00	0.00000e+00	0.00000e+00	0.00000e+00	0.00000e+00	
Factor	1.00000e+00	1.00000e+00	1.00000e+00	1.00000e+00	1.00000e+00	1.00000e+00	1.00000e+00	1.00000e+00	1.00000e+00	1.00000e+00	1.00000e+00	1.00000e+00	1.00000e+00	1.00000e+00	1.00000e+00	1.00000e+00	1.00000e+00	1.00000e+00	1.00000e+00	1.00000e+00	1.00000e+00	1.00000e+00	1.00000e+00	1.00000e+00	1.00000e+00	1.00000e+00	1.00000e+00	1.00000e+00	1.00000e+00	1.00000e+00	1.00000e+00	1.00000e+00	X	X	X	X	X	X	X	X	X	X	X	X	X	X	X	X	

B = Detector Channel
Val Type	B-AC1	B-AC2	B-AC3	B-AC4	B-AC5	B-AC6	B-AC7	B-AC8	B-AC9	B-AC10	B-AC11	B-AC12	B-AC13	B-AC14	B-AC15	B-AC16	B-DC1	B-DC2	B-DC3	B-DC4	B-DC5	B-DC6	B-DC7	B-DC8	B-DC9	B-DC10	B-DC11	B-DC12	B-DC13	B-DC14	B-DC15	B-DC16	B-Ph1	B-Ph2	B-Ph3	B-Ph4	B-Ph5	B-Ph6	B-Ph7	B-Ph8	B-Ph9	B-Ph10	B-Ph11	B-Ph12	B-Ph13	B-Ph14	B-Ph15	B-Ph16	

Term	0.00000e+00	0.00000e+00	0.00000e+00	0.00000e+00	0.00000e+00	0.00000e+00	0.00000e+00	0.00000e+00	0.00000e+00	0.00000e+00	0.00000e+00	0.00000e+00	0.00000e+00	0.00000e+00	0.00000e+00	0.00000e+00	0.00000e+00	0.00000e+00	0.00000e+00	0.00000e+00	0.00000e+00	0.00000e+00	0.00000e+00	0.00000e+00	0.00000e+00	0.00000e+00	0.00000e+00	0.00000e+00	0.00000e+00	0.00000e+00	0.00000e+00	0.00000e+00	5.86631e+01	-1.56400e+02	-1.26551e+02	-1.83880e+02	-1.09246e+02	-7.56946e+01	-1.56632e+02	-1.62015e+02	-4.97451e+01	-9.07007e+01	-1.74091e+02	-1.74047e+02	-1.85978e+02	-1.78374e+02	-8.62442e+01	-1.51155e+02	
Factor	5.26311e-05	1.61735e-04	4.04003e-05	1.79766e-01	1.77941e-06	1.50208e-06	1.73528e-01	5.90053e-02	1.98371e-06	1.52351e-06	1.02683e-01	2.97751e-02	5.44086e-02	8.92468e-03	1.82445e-06	1.29180e-02	1.91554e-06	2.01426e-06	5.61593e-07	8.71805e-02	2.19587e-08	2.21199e-08	7.97260e-02	2.86352e-02	2.18545e-08	2.20121e-08	4.81154e-02	1.39628e-02	2.54592e-02	4.34647e-03	2.18729e-08	6.10577e-03	X	X	X	X	X	X	X	X	X	X	X	X	X	X	X	X	



#DISTANCE SETTINGS
A = Detector Channel
A-1	A-2	A-3	A-4	A-5	A-6	A-7	A-8	A-9	A-10	A-11	A-12	A-13	A-14	A-15	A-16	

2.5000e+00	3.0000e+00	2.5000e+00	3.0000e+00	2.0000e+00	3.0000e+00	1.5000e+00	3.0000e+00	3.0000e+00	3.0000e+00	3.0000e+00	3.0000e+00	3.0000e+00	3.0000e+00	1.5000e+00	3.0000e+00	

B = Detector Channel
B-1	B-2	B-3	B-4	B-5	B-6	B-7	B-8	B-9	B-10	B-11	B-12	B-13	B-14	B-15	B-16	

1.0000e+01	1.0000e+01	1.0000e+01	1.4400e+00	1.0000e+01	1.0000e+01	1.5100e+00	1.9400e+00	1.0000e+01	1.0000e+01	1.9900e+00	2.4900e+00	2.4100e+00	2.9000e+00	1.0000e+01	2.9800e+00	




#DATA BEGINS
time	group	step	mark	flag	A-AC1	A-AC2	A-AC3	A-AC4	A-AC5	A-AC6	A-AC7	A-AC8	A-AC9	A-AC10	A-AC11	A-AC12	A-AC13	A-AC14	A-AC15	A-AC16	A-DC1	A-DC2	A-DC3	A-DC4	A-DC5	A-DC6	A-DC7	A-DC8	A-DC9	A-DC10	A-DC11	A-DC12	A-DC13	A-DC14	A-DC15	A-DC16	A-Ph1	A-Ph2	A-Ph3	A-Ph4	A-Ph5	A-Ph6	A-Ph7	A-Ph8	A-Ph9	A-Ph10	A-Ph11	A-Ph12	A-Ph13	A-Ph14	A-Ph15	A-Ph16	B-AC1	B-AC2	B-AC3	B-AC4	B-AC5	B-AC6	B-AC7	B-AC8	B-AC9	B-AC10	B-AC11	B-AC12	B-AC13	B-AC14	B-AC15	B-AC16	B-DC1	B-DC2	B-DC3	B-DC4	B-DC5	B-DC6	B-DC7	B-DC8	B-DC9	B-DC10	B-DC11	B-DC12	B-DC13	B-DC14	B-DC15	B-DC16	B-Ph1	B-Ph2	B-Ph3	B-Ph4	B-Ph5	B-Ph6	B-Ph7	B-Ph8	B-Ph9	B-Ph10	B-Ph11	B-Ph12	B-Ph13	B-Ph14	B-Ph15	B-Ph16	aux-1	digaux	

435.033	1	1	0	256	0.15361	0.15796	0.19406	0.072019	0.070413	0.058023	0.10112	0.12186	0.094814	0.21184	0.091065	0.2115	0.096437	0.15326	0.054476	0.072852	-3.4437	-3.6854	-3.7583	-3.9188	-3.3917	-3.6937	-4.0042	-3.6875	-3.9292	-3.6813	-3.7917	-4.1	-3.7479	-3.7792	-3.8688	-3.7104	107.662	198.136	118.360	114.568	193.878	-9.602	160.268	-50.879	63.669	197.876	-22.359	-12.771	-54.728	134.133	193.242	158.727	0.00029	0.00024102	5.2892e-05	1107.5	6.1597e-07	2.6148e-06	1168.4	237.52	3.9096e-06	2.1648e-06	295.04	83.971	65.491	18.935	4.1039e-06	26.879	6.605e-05	4.5594e-05	1.2719e-05	1069.1	6.0057e-07	5.171e-07	1135.1	231.27	5.7983e-07	4.988e-07	284.9	81.82	62.342	18.629	5.0103e-07	26.462	34.835	-25.028	-31.226	-104.749	-14.893	30.108	-104.706	-97.873	-1.745	-0.749	-98.021	-91.335	-91.382	-84.096	-4.007	-84.533	-8191	255	
435.127	1	1	0	0	0.24724	0.15642	0.073879	0.061774	0.18183	0.081591	0.15283	0.099012	0.17385	0.055962	0.29282	0.069888	0.12019	0.22274	0.18601	0.21356	-3.5563	-3.5687	-3.7604	-4.0125	-3.4771	-3.7438	-4.0104	-3.5812	-3.9188	-3.8438	-3.6188	-4.0417	-3.4292	-3.6625	-3.6292	-3.5396	-75.350	-83.566	97.201	230.478	121.308	213.875	160.348	198.542	124.726	203.956	198.306	-78.200	83.192	203.987	-7.412	-87.217	0.00045313	0.00026898	5.8236e-05	1100	2.2102e-06	2.877e-06	1170.4	237.63	8.6709e-07	1.6577e-06	296.33	83.54	64.581	18.92	4.4561e-06	26.806	6.3336e-05	4.8107e-05	1.2774e-05	1065.6	5.7545e-07	4.7682e-07	1132.2	231.05	5.5415e-07	4.7821e-07	285.2	81.82	62.005	18.657	4.8767e-07	26.462	26.619	-19.839	-38.055	-104.677	-57.602	25.042	-104.850	-97.623	147.833	5.518	-97.733	-91.486	-91.141	-84.147	-2.590	-84.640	-8191	255	
435.200	1	1	0	0	0.060626	0.13112	0.15922	0.21334	0.21578	0.17307	0.14434	0.084707	0.067568	0.17109	0.051204	0.17215	0.10603	0.15234	0.018952	0.29626	-3.4875	-3.7542	-3.7729	-3.9688	-3.5792	-3.6875	-3.9938	-3.5042	-3.9896	-3.9396	-3.725	-3.9917	-3.4458	-3.6562	-3.8812	-3.5021	229.677	-10.461	99.202	186.043	-40.983	179.566	59.467	-65.545	-6.806	73.133	144.461	64.569	153.247	-46.710	-64.120	206.248	0.00034535	0.00034214	7.8062e-05	1096	2.0572e-06	3.4329e-06	1159	237.77	3.2003e-06	2.8879e-06	295.35	83.697	65.424	19.103	2.9188e-06	26.85	6.0168e-05	4.3583e-05	1.1838e-05	1064.1	5.1511e-07	4.524e-07	1129.9	231.42	5.0543e-07	4.2538e-07	285.29	81.912	62.374	18.676	4.7209e-07	26.49	30.104	-69.052	-21.830	-104.709	-32.710	37.017	-104.847	-97.330	-3.066	24.501	-97.781	-91.360	-91.261	-83.729	19.572	-84.789	-8191	255	
435.297	1	1	0	0	0.21	0.15089	0.27954	0.19757	0.33992	0.049105	0.2483	0.061018	0.14025	0.18631	0.19353	0.14133	0.14723	0.11107	0.14407	0.10998	-3.4562	-3.7125	-3.5062	-4.0583	-3.6188	-3.7771	-4.1312	-3.6417	-4	-3.8396	-3.7062	-4.0875	-3.5625	-3.8458	-3.7938	-3.5729	236.422	220.590	89.495	243.372	-91.215	229.841	145.860	-27.882	171.468	44.886	80.444	169.475	-27.999	172.063	167.825	-72.844	0.00026931	0.00026875	6.3388e-05	1099.2	1.2335e-06	3.2042e-06	1158.7	236.94	3.1922e-06	1.9185e-06	296.21	83.639	64.945	19.06	2.2811e-06	26.809	5.4557e-05	3.8435e-05	1.2068e-05	1062.9	4.6557e-07	3.9885e-07	1129.3	231.13	4.8235e-07	4.1121e-07	285.68	81.862	62.036	18.693	5.2067e-07	26.438	20.185	-85.968	-3.490	-104.618	-101.894	11.437	-104.740	-97.346	12.419	10.639	-97.880	-91.583	-91.410	-83.921	-33.698	-84.711	-8191	255	
435.415	1	1	0	0	0.093221	0.15732	0.15142	0.10396	0.19062	0.15438	0.020459	0.2088	0.12091	0.12218	0.12907	0.06403	0.072715	0.061104	0.078329	0.052796	-3.3979	-3.7792	-3.6083	-3.8688	-3.7146	-3.6937	-4.1042	-3.5646	-3.8458	-3.8875	-3.6271	-3.9	-3.7562	-3.7562	-4.0396	-3.5333	53.233	75.899	79.666	214.865	144.769	123.441	89.789	184.647	-45.248	20.887	180.773	-90.810	1.738	-111.911	-20.533	26.637	0.00029888	0.00034901	3.1864e-05	1092	1.2934e-06	2.5169e-06	1156.9	236.58	4.5794e-06	1.3439e-06	293.91	83.901	64.255	18.858	1.3373e-06	26.675	5.4788e-05	4.0566e-05	1.2739e-05	1058.8	4.9713e-07	4.4493e-07	1127	230.65	4.9091e-07	4.6074e-07	284.76	81.637	61.802	18.557	5.2235e-07	26.309	18.480	-57.896	-29.923	-104.531	47.821	48.001	-104.699	-97.448	-7.129	72.345	-97.725	-91.013	-91.602	-83.696	73.796	-84.572	-8191	255	
435.512	1	1	0	0	0.15996	0.074416	0.16557	0.18576	0.072598	0.14479	0.11718	0.11015	0.23151	0.13754	0.14913	0.09541	0.097095	0.17099	0.12144	0.063326	-3.425	-3.7875	-3.5458	-3.8292	-3.7229	-3.7021	-4.2188	-3.6667	-3.5479	-3.9521	-3.7375	-3.9	-4.0083	-3.6042	-3.9688	-3.6396	7.586	93.575	-4.532	200.686	211.010	0.660	160.544	54.443	179.646	140.500	180.304	213.695	-17.683	-11.021	206.988	172.502	0.00031436	0.0003966	2.688e-05	1085.9	3.2593e-06	2.1023e-06	1155.4	236.03	3.3669e-06	1.0024e-06	293.76	82.858	64.563	18.855	1.8351e-06	26.671	5.5239e-05	4.3445e-05	1.3552e-05	1055.7	4.9119e-07	4.783e-07	1121.6	229.23	4.798e-07	4.8115e-07	283.35	81.299	61.541	18.53	5.6323e-07	26.225	15.642	-63.548	-22.770	-104.757	32.055	12.582	-104.683	-97.510	3.257	16.848	-97.859	-91.831	-91.251	-83.521	58.680	-84.189	-8191	255	
435.608	1	1	0	0	0.25472	0.20683	0.21246	0.30583	0.10168	0.16772	0.17746	0.16	0.069815	0.14005	0.1538	0.08993	0.071184	0.27097	0.053796	0.10459	-3.1667	-3.8021	-3.3937	-3.8812	-3.7812	-3.5458	-4.2063	-3.7354	-3.725	-4.1042	-3.6375	-4.0083	-3.7354	-3.6458	-3.9188	-3.6063	210.486	120.675	221.544	226.385	-43.697	237.253	193.126	113.736	192.184	161.853	12.447	221.106	224.357	-76.709	202.466	4.075	0.00035883	0.00036939	9.0809e-05	1084.7	2.1794e-06	1.6888e-06	1145.3	234.12	3.1373e-06	1.8735e-06	291.21	82.317	64.586	18.738	3.0965e-06	26.534	5.7722e-05	5.1548e-05	1.3545e-05	1052.6	5.4727e-07	5.9452e-07	1117.9	228.13	5.439e-07	5.702e-07	281.74	80.693	61.459	18.464	5.7808e-07	26.203	15.968	-53.378	-24.171	-104.466	-27.235	8.257	-104.553	-97.844	38.986	21.183	-98.123	-91.354	-91.132	-83.762	37.145	-84.512	-8191	255	
435.704	1	1	0	0	0.18223	0.14069	0.26329	0.16075	0.14829	0.092006	0.13828	0.47659	0.088142	0.14783	0.057114	0.29837	0.097672	0.35192	0.11896	0.098917	-3.1979	-3.775	-3.5583	-3.9562	-3.8729	-3.65	-4.0583	-3.8104	-3.6458	-3.8812	-3.5687	-3.65	-3.8563	-3.5417	-3.8937	-3.7438	49.670	-11.422	160.976	197.623	182.092	16.889	-55.890	188.219	-9.433	-46.656	219.600	-113.969	218.549	159.885	-48.517	-113.321	0.00032394	0.00037654	9.6385e-05	1086.7	2.1834e-06	4.3672e-06	1151	234.25	4.8859e-06	3.015e-06	292.28	82.707	64.257	18.68	8.0802e-07	26.308	6.0786e-05	5.5413e-05	1.3953e-05	1050.5	5.7335e-07	6.1581e-07	1117.4	228.3	6.0173e-07	6.2597e-07	281.56	80.648	61.334	18.403	5.6687e-07	26.067	23.941	-72.068	-5.791	-104.447	-103.139	65.801	-104.734	-97.501	14.279	30.428	-98.098	-91.459	-91.308	-83.778	101.330	-84.635	-8191	255	
435.800	1	1	0	0	0.25134	0.28565	0.1823	0.26341	0.10488	0.14951	0.22313	0.1858	0.17298	0.099543	0.25606	0.11396	0.073827	0.19486	0.21271	0.22453	-3.1292	-3.9667	-3.5583	-3.9167	-3.7646	-3.5354	-3.9125	-3.7812	-3.5292	-3.925	-3.6646	-3.7896	-3.8792	-3.7562	-3.9375	-4.0875	185.302	-65.725	-48.108	194.872	191.992	183.897	201.417	181.730	83.600	143.941	226.009	-8.893	114.110	-69.476	19.092	126.496	0.0003232	0.00031969	0.00014179	1080.6	1.8401e-06	2.5802e-06	1144.8	234.94	1.7718e-06	9.5047e-07	290.6	81.527	64.581	18.602	2.8157e-06	26.444	6.7084e-05	5.6987e-05	1.4397e-05	1048.7	6.0569e-07	6.2009e-07	1114.6	228.35	6.6023e-07	6.4697e-07	280.45	80.298	61.429	18.356	5.8966e-07	26.067	16.238	-49.630	-12.216	-104.637	-10.417	-5.134	-104.849	-97.368	25.869	5.037	-97.992	-91.692	-91.243	-83.916	29.802	-84.619	-8191	255	
435.896	1	1	0	0	0.28694	0.14156	0.10741	0.22411	0.13523	0.11148	0.033445	0.18606	0.12551	0.12783	0.090955	0.23211	0.04407	0.21167	0.14881	0.059303	-3.3333	-3.9875	-3.5479	-3.725	-3.9104	-3.5938	-3.8812	-3.8083	-3.5271	-3.925	-3.7562	-3.7625	-3.9417	-3.6042	-3.8375	-3.8771	85.836	216.638	-40.042	232.562	161.071	153.482	201.899	160.053	-14.773	63.252	75.518	-56.360	-64.994	196.478	27.933	236.757	0.00029503	0.00024539	5.8236e-05	1081.8	8.5257e-07	2.8321e-06	1141.6	233.88	4.3996e-06	2.9483e-06	289.41	81.928	63.628	18.412	2.7576e-06	26.261	7.2898e-05	5.6319e-05	1.4743e-05	1046.2	6.8054e-07	6.1719e-07	1109.6	227.26	6.8277e-07	6.068e-07	279.34	79.865	60.652	18.198	5.902e-07	25.898	24.977	-7.583	-34.356	-104.519	-29.640	19.915	-104.788	-97.831	22.173	20.812	-98.160	-91.512	-91.377	-84.059	42.145	-83.974	-8191	255	
436.017	1	1	0	0	0.057316	0.29037	0.038066	0.1075	0.066833	0.32012	0.28196	0.075136	0.058803	0.19995	0.17643	0.057007	0.25678	0.10613	0.065484	0.19958	-3.1146	-3.9938	-3.8083	-3.5146	-3.95	-3.4792	-3.7792	-4.0229	-3.5021	-3.9333	-3.8229	-3.7458	-4.0062	-3.6771	-3.6333	-4.0271	165.293	198.190	-114.146	-85.513	-47.630	20.160	168.183	124.672	46.180	20.149	-52.763	-55.835	-61.479	-56.910	81.488	-88.212	0.00035589	0.00062355	0.0001271	1072.5	2.4351e-06	2.3305e-06	1132.7	230.15	1.3551e-06	2.1441e-06	286.58	79.911	63.082	18.305	1.2972e-06	25.81	7.4383e-05	5.4742e-05	1.4041e-05	1040	7.2047e-07	6.1079e-07	1101	224.42	7.2734e-07	6.544e-07	277.59	79.021	60.316	18.05	6.2224e-07	25.701	31.022	-20.958	-18.783	-104.562	-62.129	-3.670	-104.979	-97.616	-79.916	2.864	-97.631	-91.449	-91.230	-84.001	-21.974	-84.476	-8191	255	
436.111	1	1	0	0	0.26318	0.12059	0.21974	0.29408	0.2162	0.12936	0.35697	0.017435	0.10114	0.11356	0.39896	0.18546	0.16054	0.098458	0.097184	0.058745	-3.0625	-3.8979	-3.675	-3.6208	-4.0563	-3.6125	-3.8458	-4.0375	-3.5458	-3.7521	-3.775	-3.5271	-4.0458	-3.5167	-3.6042	-3.9167	-24.448	1.775	96.412	233.445	-40.958	107.167	129.875	106.383	49.872	154.147	174.211	-86.033	-67.312	132.993	-42.556	213.548	0.00036767	0.00027713	8.7902e-05	1070.7	2.2027e-06	2.4664e-06	1122.5	228.15	1.9305e-06	3.3745e-06	283.92	80.209	62.403	18.001	4.0157e-06	25.726	7.7132e-05	5.8405e-05	1.4837e-05	1034.9	7.2523e-07	6.3779e-07	1096.1	222.6	7.2939e-07	6.5697e-07	275.73	78.502	59.888	17.819	6.673e-07	25.396	21.000	-32.969	-30.949	-104.440	-53.122	32.403	-104.711	-97.577	-19.577	40.256	-97.936	-91.365	-90.676	-83.872	7.352	-84.276	-8191	255	
436.207	1	1	0	0	0.053665	0.21177	0.25776	0.24936	0.20516	0.069538	0.14448	0.30486	0.1689	0.061706	0.15715	0.093417	0.12795	0.14356	0.12462	0.16991	-3.1542	-3.5896	-3.725	-3.8312	-3.9708	-3.9208	-3.7229	-4.0271	-3.5312	-3.8083	-3.8542	-3.5333	-3.9604	-3.85	-3.5521	-4.0146	-9.035	71.671	159.170	157.402	206.138	25.713	146.590	190.139	-71.033	81.634	149.464	221.104	-47.190	142.542	-108.708	168.307	0.00028617	0.00055375	6.0837e-05	1062.8	3.2646e-06	2.0997e-06	1122.9	226.34	2.8411e-06	2.0094e-06	281.89	79.196	62.833	18.07	2.1036e-06	25.72	7.8006e-05	5.9165e-05	1.6967e-05	1029.4	7.7436e-07	6.7959e-07	1090.9	221.1	7.6413e-07	6.5876e-07	273.84	77.776	59.737	17.817	7.4418e-07	25.332	30.987	-56.422	25.565	-104.596	-54.520	70.592	-104.729	-97.513	55.346	-25.229	-98.100	-91.225	-90.774	-83.906	18.339	-84.428	-8191	255	
436.304	1	1	0	0	0.15412	0.29304	0.27548	0.044013	0.0878	0.10479	0.027952	0.067234	0.1545	0.16629	0.082303	0.15957	0.054815	0.17562	0.05705	0.14384	-3.0812	-3.6375	-3.8833	-3.65	-3.9271	-4.0104	-3.6958	-3.9833	-3.675	-3.6792	-4.05	-3.6417	-3.825	-4.0646	-3.4646	-3.9396	-111.497	-15.535	37.010	157.163	69.735	44.329	35.369	-73.401	15.908	-75.802	88.537	-104.595	143.900	-111.214	79.740	73.759	0.00028289	0.00019697	9.5041e-05	1059.2	1.8987e-06	2.829e-06	1117.5	225.37	2.5687e-06	2.7637e-06	282.12	78.926	61.887	18.023	2.3721e-06	25.596	7.882e-05	6.4238e-05	1.8907e-05	1028	7.5876e-07	6.7309e-07	1088.1	220.17	7.7442e-07	6.7384e-07	273.86	77.636	59.34	17.75	8.0219e-07	25.219	32.933	-23.310	-53.056	-104.561	-46.890	21.638	-104.709	-97.600	-47.692	33.076	-97.909	-91.709	-91.052	-84.127	-5.250	-84.570	-8191	255	
436.424	1	1	0	0	0.024357	0.032564	0.10657	0.16649	0.14822	0.17745	0.29631	0.18498	0.10842	0.22094	0.081791	0.079059	0.23597	0.15505	0.028757	0.077498	-3.2354	-3.6583	-3.7833	-3.5479	-3.8979	-3.8812	-3.7667	-4.0458	-3.6583	-3.7792	-4.1562	-3.575	-3.6292	-3.9208	-3.4396	-3.8396	43.671	-87.293	-71.634	40.683	64.474	-105.065	144.431	185.510	206.003	-59.602	240.343	21.862	198.630	-84.340	1.087	-86.819	0.00038076	0.00033089	2.2656e-05	1065.1	2.7823e-06	2.3731e-06	1111.6	225.08	4.8655e-06	4.6993e-06	281.23	78.884	61.722	17.914	1.5891e-06	25.365	7.908e-05	6.4188e-05	2.06e-05	1028.9	7.8031e-07	7.2e-07	1085.7	219.57	7.8617e-07	7.4639e-07	272.77	77.658	59.122	17.686	8.9793e-07	25.145	17.987	-56.630	31.869	-104.852	-58.153	66.921	-104.826	-97.512	46.726	7.436	-97.859	-91.280	-91.401	-83.872	61.219	-84.240	-8191	255	
436.496	1	1	0	0	0.08938	0.069109	0.13481	0.18124	0.13158	0.24507	0.10906	0.061022	0.038162	0.080601	0.22961	0.16831	0.32971	0.070887	0.19888	0.20226	-3.3229	-3.5417	-3.9604	-3.7208	-3.7875	-4.1292	-3.7687	-3.9125	-3.6	-3.6813	-4.0542	-3.5792	-3.6646	-3.9	-3.5875	-3.9333	-3.623	-68.560	-27.379	209.369	22.912	-72.324	187.100	-40.980	233.235	172.836	-91.417	93.318	215.463	109.237	13.218	74.131	0.00039116	8.6162e-05	2.2196e-05	1053.7	1.6103e-06	2.3173e-06	1116.4	224.59	3.2363e-06	1.0424e-06	278.98	78.891	61.565	17.893	2.3145e-06	25.445	8.3729e-05	7.5984e-05	2.3657e-05	1025.6	8.2917e-07	8.0152e-07	1086	218.78	7.8622e-07	8.4215e-07	272.16	77.286	59.087	17.683	8.9938e-07	25.092	25.142	-15.572	-27.957	-104.651	-70.299	-2.683	-104.912	-97.330	-8.116	94.119	-97.824	-91.503	-91.306	-84.044	2.529	-84.423	-8191	255	
436.592	1	1	0	0	0.086132	0.12724	0.15417	0.059955	0.22383	0.14863	0.13559	0.083332	0.017039	0.13116	0.10939	0.35082	0.21011	0.1932	0.17409	0.27247	-3.4813	-3.4125	-3.9313	-3.8104	-3.6896	-3.8875	-3.6833	-4.025	-3.8708	-3.65	-4.0125	-3.5667	-3.6979	-4.0583	-3.5604	-3.7125	83.790	-20.465	65.046	225.226	-115.029	70.025	228.456	-72.723	59.009	137.878	-109.073	-105.605	15.175	-67.284	-76.670	-54.056	0.00037382	0.00048308	8.8316e-05	1061.6	7.6829e-08	2.8825e-06	1111.1	225.35	2.9373e-06	4.1879e-06	281.85	78.537	61.534	17.82	3.5989e-06	25.436	8.175e-05	7.9886e-05	2.3177e-05	1025	7.9001e-07	8.4438e-07	1082.1	218.78	7.5211e-07	8.4893e-07	271.8	77.024	58.937	17.654	8.3787e-07	25.048	19.796	-21.926	2.408	-104.720	197.459	26.067	-104.985	-97.874	-16.781	15.592	-97.603	-91.369	-90.785	-83.901	-3.566	-84.467	-8191	255	
436.688	1	1	0	0	0.33779	0.094788	0.10322	0.19714	0.13163	0.25494	0.27522	0.10118	0.083974	0.15779	0.072652	0.22259	0.17402	0.13664	0.1697	0.22965	-3.4271	-3.4604	-3.9292	-3.7375	-3.4146	-4.1667	-3.7812	-3.825	-3.8625	-3.6063	-4.075	-3.7083	-3.6958	-3.8479	-3.5438	-3.8458	57.724	-24.681	-37.173	37.291	151.879	-1.270	174.886	218.358	48.302	32.571	-57.371	-53.175	157.459	169.878	168.428	131.242	0.00034371	0.00031388	0.00012177	1053.1	7.5923e-07	2.581e-06	1108.9	223.08	2.7858e-06	4.3075e-06	279.28	78.841	61.126	17.993	2.821e-06	25.416	8.0696e-05	8.1368e-05	2.148e-05	1020.7	8.0035e-07	8.8341e-07	1080.4	218.14	8.2432e-07	8.9296e-07	270.78	77.174	59.006	17.707	7.8287e-07	25.052	34.354	-66.170	5.918	-104.569	-94.120	-14.531	-104.666	-97.805	19.694	-2.626	-98.098	-91.137	-90.789	-84.070	-1.110	-84.911	-8191	255	
436.809	1	1	0	0	0.30929	0.091367	0.1119	0.2506	0.23749	0.26464	0.28704	0.059817	0.18481	0.16269	0.18896	0.075775	0.30682	0.12572	0.14278	0.15154	-3.3333	-3.5271	-3.9208	-3.8646	-3.5229	-3.8521	-3.7708	-3.7	-3.7292	-3.5146	-3.7396	-3.6271	-3.4979	-3.8958	-3.4562	-3.6937	221.908	-62.362	33.879	226.409	156.803	-45.861	220.586	84.439	10.062	182.318	77.367	113.298	156.811	93.454	67.760	-109.287	0.00038571	0.00043973	7.7202e-05	1054.1	9.0252e-07	3.0474e-06	1111.6	224.07	2.9199e-06	3.7312e-06	279.16	78.828	61.916	17.921	5.9712e-07	25.369	8.5708e-05	8.2203e-05	2.0761e-05	1022.2	8.5895e-07	8.6042e-07	1079.5	217.67	8.6016e-07	8.6755e-07	270.44	77.327	59.125	17.725	7.4536e-07	25.064	22.834	-37.750	-13.972	-104.412	50.929	34.315	-104.663	-97.674	-21.800	-12.189	-98.181	-91.123	-91.617	-84.308	-30.499	-84.138	-8191	255	
436.905	1	1	0	0	0.25999	0.089447	0.054701	0.29328	0.1872	0.069527	0.011458	0.1037	0.038176	0.26666	0.080577	0.16605	0.11164	0.30015	0.062646	0.18343	-3.5708	-3.4125	-3.8042	-3.9688	-3.4979	-3.85	-3.6396	-3.7979	-3.8604	-3.725	-3.8688	-3.8812	-3.6229	-3.875	-3.6917	-3.6854	198.894	-44.674	179.343	133.118	28.828	65.061	243.129	-31.451	148.466	-72.057	238.177	216.238	-40.638	243.427	121.185	-13.823	0.00028058	0.00039859	7.1944e-05	1052.3	2.8248e-06	3.2599e-06	1101.1	221.94	3.2918e-06	2.3689e-06	277.51	78.056	60.656	17.686	2.6048e-06	25.247	8.5672e-05	7.1968e-05	1.8322e-05	1017.6	8.079e-07	7.471e-07	1073.1	216.87	7.894e-07	7.1108e-07	268.66	76.682	58.573	17.56	6.6822e-07	24.882	17.372	-58.362	-17.340	-104.961	6.856	78.364	-104.660	-97.609	-33.715	57.330	-97.962	-91.292	-91.267	-83.950	-47.229	-84.453	-8191	255	
437.001	1	1	0	0	0.165	0.14165	0.19411	0.25222	0.10931	0.059062	0.18511	0.088983	0.25089	0.13749	0.12365	0.18275	0.14025	0.05509	0.13496	0.079793	-3.6521	-3.6167	-3.6688	-4.1083	-3.6521	-3.8521	-3.95	-3.8646	-4.0333	-3.5854	-3.7958	-4.0125	-3.4958	-3.9458	-3.6771	-3.6937	-44.620	1.214	-112.575	204.468	230.046	-15.259	-115.434	-59.750	43.856	18.437	104.605	-16.432	6.792	-25.410	47.365	110.421	0.00027069	0.00032878	0.00010315	1043.6	2.9076e-06	2.4186e-06	1092.2	222.14	3.3991e-06	3.2926e-06	277.83	77.973	61.176	17.73	8.1236e-07	25.113	8.003e-05	6.5946e-05	1.6842e-05	1008.9	8.3557e-07	6.9346e-07	1062.6	216.37	8.0529e-07	6.9916e-07	268.54	76.73	58.676	17.549	6.7614e-07	24.917	31.197	-63.109	4.475	-104.397	-38.803	-55.051	-104.539	-97.451	-44.653	-2.265	-97.551	-91.050	-91.248	-83.716	44.284	-84.688	-8191	255	
437.097	1	1	0	0	0.071097	0.18526	0.20628	0.12814	0.24726	0.096546	0.040445	0.069115	0.14499	0.034646	0.069824	0.11595	0.13153	0.47261	0.12661	0.08231	-3.7708	-3.7792	-3.7271	-4.1542	-3.6104	-3.8167	-3.7604	-3.5375	-3.8854	-3.6396	-3.8542	-3.9729	-3.5167	-3.7687	-3.8208	-3.6229	-11.962	43.826	157.737	-59.642	-31.408	192.310	68.494	-70.807	28.659	-37.384	65.600	228.489	-21.714	161.736	98.585	175.763	0.00032539	0.00023518	7.2803e-05	1037.8	2.1627e-06	2.568e-06	1091.4	220.99	2.028e-06	1.5394e-06	276.82	78.449	61.297	17.814	3.0161e-06	25.227	8.4308e-05	6.775e-05	1.8049e-05	1008.6	8.5094e-07	7.3747e-07	1065.8	215.86	8.139e-07	7.0608e-07	268.78	76.867	58.628	17.599	6.895e-07	24.936	33.483	-33.649	-56.907	-104.500	12.587	-17.884	-104.766	-97.371	-107.066	-24.714	-97.461	-91.029	-91.527	-83.896	-26.021	-84.128	-8191	255	
437.192	1	1	0	0	0.18957	0.13304	0.24206	0.10542	0.087063	0.13931	0.095352	0.19165	0.22251	0.12868	0.14946	0.034894	0.18277	0.21721	0.12947	0.19605	-3.4604	-3.6688	-3.6958	-3.9979	-3.7083	-3.9208	-3.9229	-3.6833	-3.9604	-3.6542	-3.6979	-3.9833	-3.5979	-3.8292	-3.8896	-3.4208	140.983	-14.464	-91.234	192.526	203.939	-100.961	147.568	204.363	207.823	87.804	233.294	-56.491	-70.720	-84.162	-7.287	197.097	0.0003514	0.00036105	1.8998e-05	1038.5	4.1131e-06	5.4119e-07	1097.4	220.8	3.2e-06	2.8005e-06	278.91	78.289	61.137	17.823	2.9072e-06	25.323	7.9627e-05	6.3596e-05	1.6903e-05	1008.4	7.5917e-07	6.7503e-07	1065.2	216.19	7.411e-07	6.8013e-07	268.99	76.897	58.489	17.546	6.9442e-07	24.963	28.649	-72.618	-3.510	-104.462	-28.713	54.613	-104.628	-97.372	-20.610	77.702	-97.809	-91.496	-90.925	-83.783	-3.456	-84.422	-8191	255	
437.288	1	1	0	0	0.0912	0.17314	0.14518	0.17885	0.083443	0.043862	0.19083	0.19466	0.18955	0.11475	0.18578	0.36207	0.32217	0.13828	0.19868	0.15778	-3.6271	-3.775	-3.4104	-3.8958	-3.5083	-3.7208	-4.1188	-3.4646	-3.9646	-3.8771	-3.8104	-3.85	-3.6021	-3.7208	-3.9313	-3.7062	92.132	62.098	183.267	182.606	217.593	-49.178	210.518	24.417	158.241	50.006	-110.493	168.376	161.396	55.433	2.670	121.981	0.00031596	0.00033001	1.6841e-05	1037.6	3.681e-06	7.8334e-07	1090.9	220.47	2.1011e-06	3.0428e-06	277.31	78.335	61.707	17.714	1.6761e-06	25.135	7.6131e-05	5.8871e-05	1.7608e-05	1008.8	7.3484e-07	6.648e-07	1064.3	216.34	7.1482e-07	6.3294e-07	268.82	76.947	58.642	17.567	6.9993e-07	24.895	34.767	-85.411	-97.065	-104.475	-40.919	-15.843	-104.811	-97.503	6.580	-20.709	-98.060	-91.333	-91.249	-83.993	-29.936	-84.863	-8191	255	
437.384	1	1	0	0	0.2642	0.066994	0.15291	0.091905	0.11399	0.16791	0.18658	0.024123	0.18565	0.12281	0.33153	0.16911	0.07172	0.068907	0.11074	0.31449	-3.4167	-3.9437	-3.6188	-3.9688	-3.6271	-3.7667	-4.0333	-3.6188	-3.7292	-3.7583	-3.6458	-3.9313	-3.5917	-3.6833	-4.0563	-3.7313	-45.417	216.575	78.161	168.293	-68.755	-12.501	172.852	241.758	112.280	5.192	180.121	94.687	-96.334	240.215	216.044	-20.279	0.00031397	0.00032279	9.8857e-05	1041.9	2.6959e-06	1.9796e-06	1092.9	221.07	1.9066e-06	1.1825e-06	277.48	78.301	61.806	17.897	2.1547e-06	25.48	7.2439e-05	5.898e-05	1.9018e-05	1007.1	7.0894e-07	6.3235e-07	1066.1	215.92	7.1009e-07	6.3876e-07	268.82	76.977	58.688	17.651	7.707e-07	25.056	21.234	-38.388	0.607	-104.551	-31.017	60.036	-104.543	-97.535	20.360	-71.000	-97.736	-91.790	-91.145	-83.591	22.946	-84.505	-8191	255	
437.505	1	1	0	0	0.13255	0.068945	0.034156	0.1109	0.17862	0.11341	0.35579	0.13334	0.43462	0.10903	0.22298	0.2074	0.22072	0.30876	0.07965	0.22614	-3.3604	-3.8438	-3.5687	-3.9646	-3.7646	-3.4771	-4.1292	-3.5625	-3.8104	-4.0354	-3.5708	-3.9208	-3.5729	-3.6979	-3.9646	-3.5458	111.470	200.404	238.526	220.467	89.653	211.458	182.853	-52.581	84.523	-76.013	115.617	-100.695	169.546	-42.759	-18.064	203.230	0.00028161	4.5743e-05	8.2201e-05	1036.5	1.4677e-06	3.7331e-06	1094.2	222.28	3.683e-06	2.7088e-06	278.62	78.653	61.092	17.924	2.9203e-06	25.289	7.4028e-05	6.2811e-05	1.957e-05	1009.2	7.2422e-07	6.6258e-07	1067.3	216.82	6.7193e-07	6.4844e-07	269.61	77.091	58.754	17.67	7.4586e-07	25.056	23.235	-65.874	-2.943	-104.586	-7.906	31.771	-104.572	-97.424	13.969	2.414	-97.922	-91.072	-91.275	-83.723	-5.098	-84.524	-8191	255	
437.601	1	1	0	0	0.21498	0.20677	0.056015	0.21547	0.027457	0.059909	0.19243	0.25244	0.15323	0.28173	0.1659	0.22451	0.23484	0.16332	0.24067	0.19708	-3.3583	-3.8146	-3.4437	-4.0833	-3.7917	-3.5438	-3.9771	-3.4979	-3.6562	-4.0687	-3.6104	-4.0333	-3.7479	-3.6646	-3.9979	-3.5917	35.935	72.652	103.087	-113.983	-78.616	227.482	73.039	108.715	36.960	142.949	-75.710	230.385	-109.521	192.998	-2.800	82.107	0.00035565	0.0002848	8.8727e-05	1039.5	1.0726e-06	2.5324e-06	1093.9	222.78	1.1661e-06	3.5993e-06	276.46	78.404	61.247	17.904	2.4782e-06	25.462	6.9977e-05	6.3546e-05	1.904e-05	1008.5	7.084e-07	7.3162e-07	1066.6	216.58	6.8181e-07	7.2443e-07	268.31	76.892	58.525	17.711	7.3005e-07	25.137	24.911	-46.148	-12.037	-104.524	5.982	17.456	-104.712	-97.668	-64.069	-2.052	-97.952	-91.154	-91.455	-83.658	-18.439	-84.465	-8191	255	
437.697	1	1	0	0	0.23929	0.083123	0.035713	0.2488	0.1173	0.17262	0.20915	0.071021	0.22935	0.12417	0.062544	0.042633	0.14281	0.23828	0.082941	0.12425	-3.325	-3.8021	-3.4833	-3.925	-3.8208	-3.7708	-4.0167	-3.7625	-3.8125	-4.0042	-3.6604	-3.8354	-3.8479	-3.5667	-3.8021	-3.6729	-43.697	-34.771	106.532	234.912	7.649	53.297	192.684	-113.949	196.924	166.850	-40.510	-30.779	189.363	190.497	76.600	-64.589	0.00034625	0.00042248	0.00011369	1041.4	7.0781e-07	9.5417e-07	1093.2	221.84	3.6152e-06	2.7517e-06	279.35	78.864	62.081	17.873	2.9245e-06	25.312	7.0121e-05	6.9546e-05	1.8447e-05	1009.6	7.024e-07	7.4171e-07	1065.3	216.63	6.8209e-07	7.5235e-07	269.5	77.193	58.986	17.692	7.1793e-07	25.094	29.217	-23.583	-46.576	-104.512	-110.190	76.667	-104.615	-97.509	19.763	-34.230	-97.580	-91.365	-91.257	-83.916	4.278	-84.716	-8191	255	
437.793	1	1	0	0	0.088584	0.090468	0.09692	0.30544	0.18798	0.14332	0.023531	0.10184	0.0872	0.070447	0.20373	0.060873	0.15561	0.22769	0.062062	0.25886	-3.2646	-3.875	-3.4958	-3.8917	-3.7979	-3.6292	-3.9875	-3.7646	-3.4042	-4.0062	-3.7896	-3.8125	-4.0271	-3.4521	-3.8604	-3.8812	25.616	185.581	36.172	165.523	100.282	39.756	101.913	-10.770	-71.352	48.339	222.540	35.002	-93.163	-19.585	60.467	78.177	0.0003569	0.00047233	6.252e-05	1043.7	6.3854e-07	3.8836e-06	1097.6	222.4	2.591e-06	2.5398e-06	278.34	78.808	62.236	17.996	1.97e-06	25.448	7.5652e-05	7.0742e-05	1.8458e-05	1010.5	7.3731e-07	7.4539e-07	1066.7	216.91	7.6104e-07	7.375e-07	268.84	77.374	59.144	17.72	6.8581e-07	25.135	23.021	-66.211	-20.530	-104.490	62.413	40.849	-104.648	-97.605	27.678	40.439	-97.715	-91.148	-91.193	-83.983	17.277	-84.527	-8191	255	
437.889	1	1	0	0	0.14394	0.33013	0.13184	0.15323	0.043788	0.11051	0.27976	0.073422	0.20032	0.079654	0.15582	0.2146	0.24202	0.10495	0.33046	0.18396	-3.1063	-3.8583	-3.6208	-3.8375	-3.875	-3.475	-3.925	-3.8958	-3.5208	-3.8729	-3.625	-3.675	-3.9313	-3.6792	-3.775	-3.9833	241.276	115.460	-85.758	199.875	80.555	215.488	169.057	204.966	-36.537	243.225	227.579	193.528	207.620	85.248	44.241	-64.124	0.00040643	0.00032604	4.6874e-05	1045.3	1.078e-06	3.0526e-07	1098.3	222.11	3.5527e-06	2.9279e-06	277.9	78.756	61.458	17.935	2.6762e-06	25.514	7.8258e-05	6.7259e-05	1.7166e-05	1010.5	7.7715e-07	7.5033e-07	1067.7	216.51	7.7247e-07	7.0067e-07	268.87	77.314	58.982	17.697	6.4821e-07	25.129	24.786	-44.492	-6.385	-104.451	220.710	-30.616	-104.588	-97.668	10.962	24.326	-98.151	-91.481	-91.153	-83.743	68.435	-84.242	-8191	255	
437.985	1	1	0	0	0.18146	0.1378	0.14293	0.13018	0.075213	0.27761	0.20457	0.30667	0.13348	0.048893	0.16925	0.16495	0.26317	0.24808	0.078459	0.074521	-3.2479	-3.9229	-3.6292	-3.6875	-4.0188	-3.5458	-3.9708	-3.9021	-3.5062	-4.0312	-3.9542	-3.8146	-3.8271	-3.4396	-3.7188	-3.9458	-101.066	98.348	14.422	201.545	-46.522	172.001	165.048	190.927	-41.414	-22.875	-17.168	-23.634	64.318	-113.183	172.790	56.178	0.00033362	0.00052288	2.9583e-05	1041.2	1.4825e-06	2.5739e-06	1095.8	223.73	1.6199e-06	5.3399e-07	277.63	78.927	61.628	17.883	9.7479e-07	25.488	7.8824e-05	6.5161e-05	1.6831e-05	1010.3	7.8681e-07	7e-07	1068.8	217.06	7.7319e-07	6.8439e-07	269.13	77.271	58.9	17.711	6.442e-07	25.174	20.024	-47.692	-6.770	-104.606	-81.594	67.633	-104.621	-97.653	23.673	-29.266	-97.699	-91.614	-90.751	-83.766	47.576	-84.734	-8191	255	
438.106	1	1	0	0	0.07152	0.045415	0.075804	0.13472	0.19471	0.097067	0.075161	0.038265	0.13104	0.085065	0.10869	0.047163	0.13517	0.15887	0.12939	0.072807	-3.1646	-3.9188	-3.725	-3.6479	-3.9938	-3.7417	-3.8583	-3.9146	-3.4021	-4.0417	-3.9062	-3.725	-4.0146	-3.6667	-3.6354	-3.9938	70.112	-11.009	-103.675	179.240	153.924	56.792	-99.861	89.822	-45.819	95.093	177.853	123.988	124.667	176.350	46.120	135.237	0.00043441	0.00024586	9.5216e-05	1041.7	3.1554e-06	5.7806e-07	1094.5	222.84	3.2005e-06	7.4742e-07	276.36	78.898	62.036	17.829	2.9717e-06	25.544	7.9235e-05	6.3092e-05	1.6606e-05	1010.9	7.8708e-07	6.8019e-07	1066	216.8	7.7278e-07	6.455e-07	268.88	77.396	58.957	17.701	6.4625e-07	25.234	24.943	-99.039	10.798	-104.631	-17.871	-51.591	-104.682	-97.492	12.872	65.417	-98.034	-91.548	-90.998	-83.561	-3.616	-84.844	-8191	255	
438.200	1	1	0	0	0.061831	0.1211	0.020025	0.11118	0.10609	0.1995	0.2019	0.12581	0.17908	0.093732	0.077811	0.17772	0.40648	0.17293	0.085697	0.1052	-3.05	-3.7333	-3.8229	-3.7375	-3.85	-3.725	-3.7938	-4.0938	-3.6625	-3.7354	-3.9833	-3.5604	-3.825	-3.7042	-3.575	-4.0563	-61.521	-85.062	197.436	-92.824	89.662	0.206	230.194	163.227	86.254	11.574	159.918	-37.893	14.149	-63.486	-69.693	223.854	0.00037688	0.00042819	6.778e-05	1043.8	2.3872e-06	9.5071e-07	1096.7	222.28	2.2983e-06	1.7684e-06	279.82	78.626	61.193	18.099	2.5741e-06	25.575	7.8717e-05	6.1149e-05	1.6583e-05	1011.2	7.519e-07	6.6728e-07	1067.2	216.87	7.5462e-07	6.4775e-07	269.93	77.351	58.923	17.757	6.7437e-07	25.238	25.749	-63.766	-13.914	-104.793	-37.778	15.919	-104.677	-97.717	-52.352	4.880	-97.928	-91.034	-91.630	-83.511	-21.280	-84.200	-8191	255	
438.296	1	1	0	0	0.12295	0.085386	0.1549	0.23919	0.21094	0.039161	0.33126	0.10442	0.089649	0.2594	0.089555	0.092332	0.061523	0.15655	0.041094	0.1041	-3.2208	-3.7542	-3.8021	-3.7021	-4.075	-3.7396	-3.7729	-4.0833	-3.6417	-3.8667	-3.9229	-3.4833	-3.7667	-3.9104	-3.6604	-3.9729	69.483	152.370	38.013	224.578	210.207	103.342	159.436	164.639	93.813	-36.233	169.574	220.854	134.640	132.765	160.165	-107.007	0.00027016	0.00052019	5.911e-05	1039.8	3.1112e-06	2.6963e-06	1097	223.16	3.8537e-06	4.3242e-06	278.73	78.379	61.046	17.912	1.3369e-06	25.749	7.4522e-05	5.9446e-05	1.6957e-05	1010.5	7.2656e-07	6.3844e-07	1068.3	216.65	7.686e-07	6.7247e-07	269.94	77.175	58.789	17.704	7.275e-07	25.242	31.104	-66.085	-37.128	-104.414	-11.939	46.949	-104.546	-97.731	-32.467	-15.983	-97.692	-91.127	-91.893	-84.293	-20.059	-84.453	-8191	255	
438.368	1	1	0	0	0.076647	0.22268	0.22695	0.11396	0.2075	0.018507	0.23436	0.051002	0.18493	0.061932	0.059361	0.14772	0.097109	0.031273	0.085976	0.095946	-3.2562	-3.7542	-3.9396	-3.6271	-4.0208	-3.7875	-3.7625	-3.9146	-3.625	-3.5979	-3.9125	-3.4562	-3.8312	-3.6458	-3.7313	-4.0104	-4.697	-89.967	-35.865	187.280	204.852	77.107	187.797	111.201	152.664	19.589	211.655	34.178	52.763	197.506	189.143	181.642	0.00035947	0.00058129	9.2123e-05	1040.7	8.976e-07	2.2113e-06	1092.1	221.89	2.5099e-06	1.9634e-06	278.55	78.821	60.892	18.01	3.4867e-06	25.541	7.4215e-05	5.9181e-05	1.8566e-05	1010	7.1155e-07	6.4562e-07	1067.8	216.81	7.3436e-07	6.7284e-07	269.5	77.343	58.756	17.759	7.7717e-07	25.201	23.628	-53.808	-16.538	-104.232	7.495	34.045	-104.346	-97.408	-52.466	48.095	-97.842	-91.347	-91.467	-83.698	7.493	-84.267	-8191	255	
438.489	1	1	0	0	0.30933	0.29429	0.13004	0.014478	0.065577	0.16115	0.34293	0.13193	0.15138	0.052708	0.22084	0.12685	0.14933	0.15641	0.1676	0.096331	-3.4458	-3.5563	-3.9146	-3.625	-3.9479	-3.7792	-3.5792	-3.8458	-3.7271	-3.6625	-4.1458	-3.5687	-3.6646	-3.9625	-3.5354	-3.8792	86.478	-27.589	212.189	232.713	-90.805	85.230	115.616	165.063	-52.507	39.108	233.729	210.172	152.733	-10.958	-49.674	-101.804	0.00035757	0.00040345	0.00010884	1043.6	3.3676e-06	3.3943e-06	1098.5	222.76	3.1307e-06	2.3974e-06	277.49	78.967	61.125	17.91	2.7989e-06	25.447	7.6566e-05	6.3915e-05	2.0042e-05	1010.8	7.1018e-07	6.7936e-07	1067.7	216.69	7.064e-07	6.9191e-07	269.35	77.193	58.645	17.725	7.7453e-07	25.21	21.157	-73.530	-20.380	-104.361	-39.466	50.487	-104.689	-97.500	-3.907	-6.489	-97.757	-91.649	-91.206	-84.001	-38.879	-84.694	-8191	255	
438.585	1	1	0	0	0.088069	0.10641	0.35351	0.086411	0.12604	0.16002	0.18089	0.26505	0.18505	0.065982	0.26755	0.15055	0.045689	0.20872	0.29728	0.12332	-3.4208	-3.7438	-3.9958	-3.5917	-3.7896	-3.8688	-3.8208	-3.8688	-3.8708	-3.5875	-4.0729	-3.4396	-3.7583	-3.8708	-3.5563	-4.0771	0.012	-85.844	188.096	-5.502	174.929	-57.666	239.568	-103.132	27.325	231.148	110.613	201.333	-29.307	-112.349	36.749	-91.763	0.00026271	0.00042534	4.797e-05	1037.7	2.5408e-06	3.0356e-06	1087.3	222.49	3.3034e-06	2.3734e-06	277.63	78.387	61.44	17.939	2.0548e-06	25.46	7.1282e-05	6.5581e-05	1.8997e-05	1009.8	6.8941e-07	7.2627e-07	1064.9	216.79	6.9078e-07	7.4671e-07	270.11	77.176	58.786	17.758	7.6136e-07	25.155	34.370	-42.377	-61.461	-104.223	28.874	24.490	-104.578	-97.678	36.783	45.209	-97.726	-91.771	-90.752	-83.767	44.645	-84.898	-8191	255	
438.681	1	1	0	0	0.079917	0.21045	0.13251	0.27562	0.11648	0.10607	0.3462	0.10476	0.11924	0.050214	0.1721	0.26174	0.19174	0.071744	0.24666	0.20521	-3.2938	-3.4479	-3.9979	-3.6375	-3.6792	-3.875	-3.6375	-3.9646	-3.8771	-3.6083	-3.8	-3.6104	-3.8438	-3.8937	-3.5917	-3.7938	154.805	61.800	83.170	-89.964	51.046	-68.559	210.024	76.544	-16.280	141.885	-73.566	114.566	124.279	52.033	113.475	170.468	0.00029207	0.00017482	5.8312e-05	1036.8	3.3986e-06	7.2708e-07	1091.1	222.01	1.9288e-06	2.3876e-06	277.58	78.618	61.072	18.02	1.1988e-06	25.339	7.1418e-05	6.8497e-05	1.8907e-05	1005.9	6.7491e-07	7.2844e-07	1062.4	216.41	6.514e-07	6.9856e-07	268.68	76.906	58.475	17.727	6.4078e-07	25.055	25.057	-24.959	20.678	-104.485	-5.989	37.572	-104.333	-97.283	-36.632	39.500	-97.992	-90.962	-90.900	-84.004	-40.490	-84.273	-8191	255	
438.777	1	1	0	0	0.23182	0.14478	0.12329	0.24439	0.30804	0.15083	0.17895	0.14831	0.12874	0.16335	0.036528	0.036464	0.22383	0.097543	0.19976	0.20235	-3.475	-3.4896	-3.9167	-3.6021	-3.5271	-3.9313	-3.7583	-3.8229	-3.8937	-3.4854	-3.8333	-3.7646	-3.6562	-4.0167	-3.4271	-3.7583	-44.842	-67.233	-48.341	215.997	64.181	43.635	181.855	181.788	122.976	229.063	144.655	229.048	225.035	130.073	-47.119	114.866	0.00025972	0.00044631	9.7865e-05	1024.5	1.3182e-06	2.9727e-06	1081.7	220.43	3.901e-06	9.0615e-07	275.81	78.515	60.846	17.865	1.8442e-06	25.275	6.7814e-05	6.1657e-05	1.5537e-05	995.52	6.5053e-07	6.8461e-07	1052.6	215.16	6.5791e-07	7.053e-07	267.07	76.707	58.396	17.67	6.8708e-07	25.007	23.419	-24.392	-3.940	-104.574	-42.657	24.701	-104.626	-97.325	-20.393	-52.961	-97.660	-91.384	-91.175	-83.647	-70.477	-84.212	-8191	255	
438.898	1	1	0	0	0.15058	0.25231	0.15387	0.19473	0.14107	0.20938	0.30651	0.20235	0.063494	0.32094	0.13315	0.040944	0.078892	0.32888	0.074057	0.13763	-3.6917	-3.4542	-3.9188	-4.0042	-3.4396	-3.9375	-3.8875	-3.7833	-4.0229	-3.5333	-3.8708	-3.7458	-3.5104	-3.8896	-3.8479	-3.7375	211.737	105.625	213.413	239.894	-113.404	181.177	227.695	193.501	67.640	-106.678	-89.743	96.005	220.409	219.831	150.719	-25.453	0.00030334	0.00033637	4.5256e-05	1030.7	2.1196e-06	2.6874e-06	1083.3	221.51	2.8676e-06	2.568e-06	277.3	78.593	60.889	17.811	2.2457e-06	25.138	7.384e-05	6.6491e-05	1.6491e-05	1000.2	7.3767e-07	7.1189e-07	1056.5	215.34	7.4009e-07	7.2699e-07	268.23	76.795	58.454	17.649	6.5427e-07	25.019	8.784	-65.544	7.063	-104.517	-98.397	4.840	-104.656	-97.342	-12.444	87.074	-97.813	-91.522	-90.861	-84.516	-57.088	-84.043	-8191	255	
438.970	1	1	0	0	0.13375	0.12742	0.11571	0.10928	0.17543	0.097059	0.2918	0.12378	0.11675	0.22695	0.14602	0.093663	0.17457	0.076275	0.15251	0.21298	-3.4354	-3.5062	-3.7625	-3.9417	-3.4021	-3.9313	-3.9562	-3.7313	-4.0062	-3.5833	-3.7354	-4.0437	-3.5062	-4.0625	-3.5875	-3.6063	98.579	-24.315	68.574	-83.544	91.250	-102.091	177.805	158.289	-9.362	184.488	-12.910	148.299	136.718	32.609	-74.176	201.098	0.00033159	0.00033208	0.00010132	1031.5	1.4623e-06	2.5301e-06	1087.9	220.99	2.2788e-06	1.3033e-06	277.69	78.861	61.414	17.736	1.0278e-06	25.27	8.1578e-05	6.5572e-05	1.6905e-05	1000.1	7.7107e-07	6.9249e-07	1057.8	215.59	7.3609e-07	6.7238e-07	268.35	76.816	58.451	17.629	6.051e-07	24.996	14.212	-34.196	1.632	-104.697	6.697	28.254	-104.675	-97.512	-59.325	18.553	-98.071	-91.632	-91.189	-83.386	148.910	-84.649	-8191	255	
439.066	1	1	0	0	0.060162	0.18456	0.24879	0.18979	0.080743	0.18369	0.099365	0.14498	0.14285	0.12298	0.15104	0.16426	0.18222	0.059804	0.3448	0.15215	-3.5938	-3.5938	-3.5292	-4.0458	-3.5375	-3.975	-3.9562	-3.6646	-4.0167	-3.5729	-3.6437	-3.8542	-3.6792	-3.8708	-3.7646	-3.5687	140.584	-86.162	152.532	232.816	30.577	-25.978	115.403	173.787	3.403	-7.643	-111.422	187.735	175.424	225.739	126.137	-83.664	0.00032667	0.00036366	7.1618e-05	1035.5	8.0689e-07	3.7492e-06	1086.4	221.14	2.2813e-06	3.3764e-06	276.1	78.238	61.917	17.926	1.3121e-06	25.223	7.8465e-05	5.8292e-05	1.5445e-05	1002.1	7.5012e-07	6.6742e-07	1057.4	215.79	7.4988e-07	6.7036e-07	267.84	76.878	58.72	17.661	6.8635e-07	25.026	21.781	-20.057	-29.838	-104.442	69.565	12.145	-104.492	-97.638	47.513	-24.043	-97.958	-91.381	-90.887	-84.050	0.262	-84.667	-8191	255	
439.186	1	1	0	0	0.072405	0.071051	0.16058	0.20699	0.17279	0.2029	0.15495	0.26175	0.19857	0.20701	0.11108	0.26387	0.13956	0.28814	0.11707	0.18435	-3.5979	-3.8042	-3.6604	-4.0167	-3.4708	-3.7583	-3.8937	-3.5708	-3.8604	-3.6396	-3.6771	-3.9896	-3.5479	-3.8792	-3.8208	-3.6188	237.644	-7.191	149.528	241.658	121.325	-8.808	154.734	-106.220	165.749	-43.286	66.904	144.640	195.160	-40.240	50.464	-114.605	0.00029794	0.0002709	7.326e-05	1032.8	2.4306e-06	2.8236e-06	1090.7	222.52	3.911e-06	1.4594e-06	279.1	78.468	61.275	17.861	1.7123e-06	25.384	7.9543e-05	6.4007e-05	1.7247e-05	1003.7	7.8397e-07	6.7392e-07	1062.2	216.43	7.7269e-07	6.7531e-07	268.88	77.116	58.708	17.688	7.2035e-07	25.107	16.446	-108.686	-19.016	-104.529	22.195	8.337	-104.767	-97.688	-34.477	51.766	-97.923	-91.377	-91.049	-83.877	7.483	-84.530	-8191	255	
439.281	1	1	0	0	0.067037	0.041853	0.24003	0.14787	0.15004	0.16517	0.099737	0.18575	0.29655	0.24844	0.27995	0.13023	0.14329	0.060624	0.188	0.19089	-3.6396	-3.6813	-3.5833	-4.0979	-3.55	-3.8354	-3.9583	-3.6292	-3.9521	-3.7083	-3.6792	-3.8104	-3.5375	-3.75	-3.7146	-3.4375	-52.073	-105.865	26.323	124.415	200.785	124.662	133.463	-41.946	3.023	135.445	237.006	-90.365	161.925	2.541	-106.700	16.314	0.00030349	0.00033333	5.508e-05	1036.9	2.1867e-06	4.6305e-06	1091.5	221.86	4.3898e-06	1.4525e-06	277.99	78.583	61.015	17.837	1.7139e-06	25.308	8.226e-05	6.5237e-05	1.7896e-05	1007	7.9001e-07	6.871e-07	1062.8	216.31	7.4588e-07	6.7031e-07	268.73	77.253	58.712	17.732	7.0513e-07	25.151	18.793	-17.688	8.726	-104.623	29.995	21.841	-104.672	-97.594	-2.210	39.668	-98.060	-91.271	-91.364	-83.755	46.711	-84.680	-8191	255	
439.377	1	1	0	0	0.23248	0.14925	0.20804	0.15318	0.21506	0.19195	0.23284	0.33684	0.18674	0.14171	0.16625	0.067442	0.22069	0.26453	0.12081	0.27197	-3.375	-3.8333	-3.4771	-3.9854	-3.4979	-3.7833	-4.0083	-3.4938	-3.9542	-3.8104	-3.8292	-3.9792	-3.7479	-3.5854	-4.0229	-3.575	-112.328	164.484	193.003	185.124	9.916	41.713	123.523	175.532	-4.926	-88.025	223.784	-40.702	27.115	-47.300	-48.114	167.401	0.00027876	0.00058393	4.7228e-05	1040.7	1.7025e-06	2.5166e-06	1091.6	222.01	1.639e-06	3.3913e-06	278.26	78.152	61.525	17.855	1.9265e-06	25.545	7.461e-05	6.2001e-05	1.8621e-05	1006.8	7.3685e-07	6.8493e-07	1064.5	216.66	7.6714e-07	6.8591e-07	269.32	77.032	58.916	17.712	8.0939e-07	25.175	14.537	-13.641	10.793	-104.649	-51.406	-24.916	-104.825	-97.567	-7.238	24.759	-97.676	-91.248	-91.013	-83.899	0.361	-84.197	-8191	255	
439.497	1	1	0	0	0.16003	0.072295	0.085887	0.16495	0.10213	0.11291	0.075452	0.059053	0.18793	0.10391	0.024494	0.074391	0.2626	0.10397	0.20483	0.16875	-3.4354	-3.7792	-3.4625	-3.9271	-3.7625	-3.6625	-4.1521	-3.5771	-3.5938	-3.9229	-3.55	-4.0437	-3.6437	-3.6354	-3.8958	-3.55	-62.451	147.974	24.841	193.867	155.929	-78.529	176.116	240.472	40.490	33.667	-97.944	-30.948	91.021	52.403	-90.863	22.280	0.00028572	0.00017412	5.7928e-05	1039.7	3.5881e-06	2.686e-06	1089	222.04	1.8729e-06	1.8405e-06	277.42	78.295	61.221	17.845	1.0754e-06	25.385	7.5875e-05	6.5287e-05	2.0043e-05	1007.1	7.5849e-07	6.8406e-07	1063.7	216.28	7.3149e-07	7.0691e-07	269.04	77.18	58.722	17.66	8.3235e-07	25.167	33.595	-64.671	-64.327	-104.530	-61.409	-2.749	-104.680	-97.502	-15.170	51.160	-97.772	-91.417	-91.569	-83.943	135.171	-84.898	-8191	255	
439.594	1	1	0	0	0.1957	0.10218	0.26986	0.095137	0.29905	0.010556	0.22569	0.22664	0.17326	0.10971	0.121	0.046773	0.11407	0.38436	0.13128	0.14296	-3.3646	-3.825	-3.5	-4.0146	-3.6667	-3.3167	-4.1042	-3.6583	-3.5438	-3.9583	-3.6562	-3.7958	-3.8271	-3.775	-4.0083	-3.5312	32.555	88.424	91.524	173.942	121.375	228.138	157.521	199.268	221.301	155.928	-71.114	226.852	102.594	145.362	-5.869	-95.996	0.00033359	0.00019489	3.9742e-05	1037.1	2.1775e-06	3.2777e-06	1094.7	221.17	4.2652e-06	2.9973e-06	277.4	78.824	61.263	17.897	1.9251e-06	25.443	7.566e-05	6.7003e-05	2.1458e-05	1006.8	7.7116e-07	7.4475e-07	1063.3	216	7.4451e-07	7.7593e-07	269.38	77.19	58.792	17.696	8.2442e-07	25.094	19.056	-104.052	-47.443	-104.617	-11.770	-72.579	-104.544	-97.924	-8.987	-39.914	-97.989	-91.480	-91.602	-83.913	-10.891	-84.614	-8191	255	
439.665	1	1	0	0	0.032496	0.1564	0.14516	0.24553	0.057582	0.15372	0.15515	0.19877	0.23695	0.053386	0.059104	0.15636	0.077222	0.17894	0.092094	0.12481	-3.2854	-3.85	-3.3229	-3.8917	-3.8063	-3.6604	-4.1917	-3.7271	-3.7417	-4.0229	-3.6708	-3.9208	-3.8521	-3.6771	-3.9958	-3.7833	64.796	205.158	76.064	148.243	1.804	0.380	209.611	-94.727	-43.962	122.995	205.161	213.049	199.603	-101.397	86.042	-21.924	0.0003492	0.00031687	0.00012523	1040.3	5.4494e-06	9.312e-07	1089	221.89	2.0017e-06	3.4765e-07	279.92	78.841	61.271	17.847	3.6328e-06	25.387	7.659e-05	7.3344e-05	2.0352e-05	1009.5	7.4563e-07	8.0341e-07	1064.6	216.51	7.3577e-07	8.1651e-07	269.45	77.083	58.628	17.718	7.8624e-07	25.163	21.099	-44.264	-8.198	-104.626	-8.297	-1.982	-104.749	-97.709	83.856	-31.194	-97.806	-91.240	-90.941	-84.154	27.137	-84.570	-8191	255	
439.786	1	1	0	0	0.019464	0.072942	0.15023	0.17296	0.095326	0.094845	0.20304	0.21211	0.086309	0.17722	0.31754	0.19682	0.20259	0.33974	0.16254	0.27063	-3.5104	-3.9708	-3.6125	-3.8458	-3.6437	-3.6229	-4.1125	-3.8396	-3.8	-3.9646	-3.6604	-3.7	-3.8458	-3.5146	-3.9583	-3.6583	21.653	94.590	-13.564	-95.555	152.299	132.613	172.559	68.189	212.140	-16.715	212.611	114.190	-58.174	205.105	219.442	76.815	0.00043012	9.4488e-05	9.3348e-05	1041.9	3.0312e-06	1.5535e-06	1096.6	221.74	3.2601e-06	4.5991e-06	277.14	78.999	61.333	18.01	2.7492e-06	25.539	7.7667e-05	7.5023e-05	2.0038e-05	1007.9	7.9358e-07	8.4664e-07	1066.2	216.46	7.8949e-07	8.0257e-07	268.77	77.168	58.859	17.741	7.2682e-07	25.15	21.502	-50.696	-8.859	-104.450	-43.570	105.346	-104.597	-97.382	29.010	28.788	-97.978	-91.775	-90.925	-84.107	18.173	-83.952	-8191	255	
439.882	1	1	0	0	0.22315	0.11407	0.023159	0.29895	0.081207	0.16074	0.084963	0.10646	0.10125	0.013799	0.098558	0.08193	0.17982	0.123	0.1876	0.25283	-3.0271	-4.0167	-3.5542	-3.8042	-3.9458	-3.6396	-4.1167	-3.675	-3.6521	-3.8292	-3.7104	-3.6979	-4.0021	-3.6417	-3.7354	-3.8479	82.803	3.522	-92.132	39.170	-100.610	-63.787	109.785	137.807	93.899	44.934	-29.457	209.249	-1.713	-30.531	-49.044	199.655	0.00034969	0.0001808	7.9217e-05	1038.9	1.9659e-06	3.0582e-06	1090.4	222.38	1.7786e-06	3.1624e-06	278.71	78.378	61.59	17.93	2.7852e-06	25.467	8.0469e-05	7.3533e-05	1.8358e-05	1007.5	7.9586e-07	7.9203e-07	1064.5	216.6	8.0698e-07	7.7056e-07	269.06	77.19	58.896	17.726	7.1962e-07	25.15	28.782	-57.156	-18.530	-104.678	121.960	6.573	-104.609	-97.921	5.611	10.156	-98.030	-91.535	-91.281	-83.493	11.452	-84.040	-8191	255	
439.978	1	1	0	0	0.052871	0.21018	0.12285	0.30625	0.078483	0.16286	0.1628	0.14605	0.16366	0.11774	0.16899	0.15204	0.24003	0.10207	0.10258	0.24139	-3.0417	-3.9104	-3.6833	-3.8104	-3.9437	-3.5521	-3.9875	-3.9396	-3.5458	-4.0354	-3.7188	-3.7917	-3.875	-3.7229	-3.7417	-3.9583	3.924	25.358	-103.011	244.365	154.727	-24.609	167.062	81.159	103.264	233.595	17.260	199.609	0.268	151.605	2.446	237.377	0.00027299	0.00037564	7.7802e-05	1035.3	3.8795e-06	1.6329e-06	1094.8	222.95	3.1427e-06	1.5684e-06	277.54	78.457	61.248	18.015	5.4744e-07	25.413	8.3721e-05	7.159e-05	1.801e-05	1005.7	8.2752e-07	7.7996e-07	1064.3	216.69	8.3325e-07	7.446e-07	269.08	77.075	58.942	17.718	7.0499e-07	25.107	16.500	-10.761	-26.038	-104.653	26.122	101.174	-104.750	-97.524	15.338	79.416	-97.737	-91.209	-91.436	-84.015	163.754	-84.011	-8191	255	
440.074	1	1	0	0	0.022887	0.19011	0.24096	0.099663	0.10119	0.19585	0.024197	0.25097	0.27188	0.034172	0.088693	0.1288	0.20071	0.21203	0.21997	0.19644	-3.1292	-3.8542	-3.6792	-3.5542	-3.9562	-3.4729	-3.8688	-4.0292	-3.6458	-3.9021	-3.8208	-3.5333	-3.9313	-3.6396	-3.4979	-3.9604	-20.587	-103.213	126.115	55.216	104.403	205.021	-42.857	225.944	196.037	123.941	30.201	241.458	172.977	209.343	219.902	-83.578	0.00035916	0.00018935	7.979e-05	1040.4	1.8264e-06	1.1116e-06	1089.3	223.54	4.3547e-06	2.8952e-06	278.78	78.78	62.037	17.867	1.417e-06	25.388	8.8298e-05	6.7394e-05	1.8198e-05	1005.3	8.4719e-07	7.5042e-07	1062.4	217.01	9.0054e-07	7.4052e-07	269.4	77.273	59.111	17.68	6.951e-07	25.081	27.241	-92.576	-67.318	-104.389	70.096	-9.662	-104.487	-97.541	7.420	33.273	-97.443	-91.194	-91.260	-83.912	-27.306	-84.354	-8191	255	
440.193	1	1	0	0	0.15414	0.057834	0.15832	0.15769	0.15575	0.075379	0.054632	0.069856	0.095297	0.1305	0.10706	0.038802	0.079656	0.28199	0.13265	0.083227	-3.25	-3.8458	-3.7271	-3.6813	-3.9771	-3.7333	-3.6937	-3.9417	-3.5729	-3.7854	-3.6937	-3.5479	-3.85	-3.7417	-3.7938	-4.0333	200.898	-10.542	-28.524	231.319	-84.884	-40.171	97.192	118.682	-29.282	97.593	136.118	222.946	238.266	243.964	62.263	82.955	0.00036417	0.00020587	9.7612e-05	1037.6	2.5691e-06	2.5401e-06	1092.6	222.36	3.3775e-06	4.4287e-06	278.65	78.107	62.017	17.93	8.5044e-07	25.535	8.5712e-05	6.634e-05	1.7583e-05	1008.9	8.493e-07	7.4853e-07	1064.4	216.84	8.2068e-07	7.0517e-07	269.41	76.97	59.066	17.687	6.9401e-07	25.179	21.399	-30.495	-54.754	-104.746	-37.619	-43.597	-104.810	-97.550	-29.803	17.161	-97.767	-91.222	-90.763	-83.972	43.481	-84.295	-8191	255	
440.265	1	1	0	0	0.11549	0.12546	0.062773	0.21055	0.14393	0.10063	0.10564	0.46021	0.23158	0.04907	0.25309	0.075018	0.30911	0.046757	0.14599	0.085809	-3.1437	-3.8396	-3.9042	-3.5292	-3.9896	-3.8375	-3.7646	-3.9562	-3.5062	-3.8521	-4.0188	-3.4813	-3.8812	-3.5396	-3.8833	-4.1667	19.136	59.017	-64.386	95.625	-54.942	29.963	-31.905	209.746	233.500	-100.197	19.845	57.784	168.194	223.724	56.642	27.477	0.00038843	0.0002767	0.00010571	1041.7	1.3698e-06	2.799e-06	1101.5	221.86	4.463e-06	8.5263e-07	278.58	78.386	61.218	17.936	3.6553e-06	25.3	7.9914e-05	6.6605e-05	1.8344e-05	1010.8	8.0259e-07	6.8692e-07	1066	216.58	7.8408e-07	7.1163e-07	269.72	77.056	58.918	17.717	7.5949e-07	25.149	21.032	-39.184	-37.582	-104.473	-26.359	12.900	-104.645	-97.342	22.395	-42.535	-97.960	-91.286	-90.314	-84.155	14.699	-84.344	-8191	255	
440.361	1	1	0	0	0.17009	0.015534	0.14082	0.18935	0.13671	0.16682	0.041323	0.21618	0.040295	0.16525	0.1959	0.18769	0.16862	0.11427	0.061581	0.22702	-3.1417	-3.7854	-3.6813	-3.6771	-3.8729	-3.7458	-3.8937	-3.8021	-3.5667	-3.6979	-3.9021	-3.5146	-4.0104	-3.8625	-3.5208	-4.0375	219.950	178.973	244.345	149.566	-113.616	68.876	159.208	189.788	105.749	38.787	101.497	122.965	166.464	128.958	3.332	-77.777	0.00034898	0.00019403	3.2352e-05	1038.1	1.368e-06	2.8137e-06	1087.7	221.37	4.3212e-06	2.7284e-06	275.12	78.271	61.66	17.861	2.9738e-06	25.452	7.9674e-05	6.2845e-05	1.9382e-05	1009	7.8095e-07	6.7249e-07	1063.1	216.67	7.5535e-07	6.6472e-07	268.73	77.121	58.785	17.707	8.0155e-07	25.119	16.777	-28.425	-1.420	-104.606	-13.618	25.184	-104.511	-97.195	-24.011	-31.656	-98.083	-91.477	-91.027	-83.838	28.341	-84.636	-8191	255	
440.457	1	1	0	0	0.25401	0.15807	0.14812	0.1537	0.027914	0.29561	0.20567	0.31823	0.046169	0.24593	0.13955	0.20599	0.060388	0.28008	0.23871	0.077925	-3.3458	-3.7562	-3.8438	-3.6271	-3.8792	-3.7562	-3.7438	-3.9333	-3.7333	-3.7313	-3.8792	-3.5042	-3.7917	-3.8542	-3.4938	-3.9854	86.192	123.638	144.990	139.634	226.825	153.125	222.870	201.642	229.347	116.681	206.363	211.932	49.682	-74.782	60.669	-10.316	0.00042386	0.00027579	7.7133e-05	1040.3	2.6024e-06	2.1528e-06	1088.9	220.26	1.3403e-06	1.1832e-06	276	78.726	61.513	17.933	3.1716e-06	25.597	8.1746e-05	6.7595e-05	2.1046e-05	1008.7	8.0758e-07	7.2106e-07	1064.2	215.72	7.7747e-07	7.3883e-07	268.77	77.076	58.774	17.726	8.7501e-07	25.186	12.887	-91.307	6.494	-104.357	-13.180	67.232	-104.803	-97.602	-70.955	14.659	-97.636	-91.368	-91.043	-83.772	12.609	-84.652	-8191	255	
440.578	1	1	0	0	0.2012	0.15018	0.15773	0.26324	0.12602	0.079371	0.11628	0.25139	0.13148	0.036134	0.096708	0.19572	0.04115	0.20709	0.15722	0.05164	-3.2083	-3.6042	-3.8708	-3.4938	-3.7833	-3.8438	-3.7479	-3.8625	-3.7875	-3.7479	-3.9646	-3.7375	-3.6542	-3.9354	-3.4604	-3.8958	-47.245	111.873	60.522	137.847	172.587	130.430	202.195	174.810	96.681	-49.511	166.503	84.712	179.073	-70.986	-86.638	-35.249	0.00033354	0.0001782	7.0854e-05	1037.6	1.1919e-06	9.0969e-07	1095.4	222.97	2.3942e-06	3.4016e-06	277.95	78.416	61.338	17.973	1.9377e-06	25.522	8.2783e-05	7.2849e-05	2.3376e-05	1008.8	8.0561e-07	7.924e-07	1066.7	216.62	7.8339e-07	8.1766e-07	269.15	77.169	58.812	17.748	8.7346e-07	25.183	16.936	-59.605	31.654	-104.455	27.674	148.925	-104.556	-97.662	-8.969	59.276	-97.810	-91.264	-91.175	-83.438	56.152	-84.578	-8191	255	
440.674	1	1	0	0	0.41204	0.02122	0.11687	0.1685	0.10498	0.088526	0.32251	0.19177	0.1614	0.27556	0.15853	0.20312	0.23581	0.13906	0.053863	0.15746	-3.4021	-3.6437	-3.9542	-3.6625	-3.6604	-3.8229	-3.6729	-3.8854	-3.8396	-3.4667	-4.0625	-3.5646	-3.6875	-3.9479	-3.6979	-3.8	91.408	60.091	75.727	163.532	-76.676	222.471	176.911	160.922	117.279	135.349	208.904	211.600	181.072	-72.910	43.297	-8.818	0.00038904	0.00038883	6.5975e-05	1042.2	4.2072e-06	1.8998e-06	1094	222.86	4.1954e-06	3.118e-06	277.89	78.718	61.336	17.947	2.4994e-06	25.249	8.0828e-05	7.454e-05	2.2489e-05	1012	7.8662e-07	8.6848e-07	1068.4	216.97	8.1809e-07	9.1148e-07	269.82	77.401	58.931	17.753	9.1848e-07	25.048	31.242	-3.153	-50.214	-104.415	12.315	40.475	-104.463	-97.595	-33.864	12.628	-98.052	-91.206	-91.313	-83.956	-46.634	-84.532	-8191	255	
440.770	1	1	0	0	0.24277	0.28346	0.098291	0.27695	0.18082	0.18715	0.10064	0.1794	0.076407	0.11606	0.025331	0.06765	0.36978	0.11379	0.060149	0.065316	-3.4875	-3.4604	-3.9521	-3.7417	-3.6937	-3.9333	-3.5812	-3.8875	-3.8688	-3.6375	-3.9208	-3.7479	-3.8063	-3.8875	-3.6542	-3.7167	227.050	242.614	-27.382	187.964	-15.825	130.719	151.473	125.088	221.896	-0.892	121.717	145.361	241.493	-65.042	3.923	203.122	0.00040678	0.00037951	0.00010833	1048	8.6935e-07	2.9915e-06	1099.7	224.01	4.7396e-06	1.5261e-06	279.78	78.447	61.614	18.012	1.8096e-06	25.509	8.6766e-05	8.7935e-05	2.3159e-05	1015.9	8.5534e-07	9.5258e-07	1074	217.53	8.9221e-07	9.7834e-07	271.29	77.378	59.379	17.855	9.2609e-07	25.266	22.553	-25.514	-0.930	-104.494	192.460	52.370	-105.042	-97.312	49.684	0.102	-97.951	-91.609	-91.319	-83.797	58.820	-84.957	-8191	255	
440.866	1	1	0	0	0.21982	0.17974	0.074946	0.44735	0.24106	0.041665	0.14154	0.090494	0.14252	0.1328	0.015193	0.17623	0.079603	0.16011	0.26427	0.46051	-3.35	-3.4792	-3.6833	-3.6875	-3.4938	-4.0667	-3.5021	-3.7917	-3.6208	-3.6188	-3.8646	-3.8438	-3.6188	-3.8771	-3.6708	-3.7417	172.471	164.416	-105.975	89.769	-9.962	50.491	200.199	162.325	-90.040	-20.284	72.390	71.019	-66.575	-110.738	82.593	-81.372	0.00041153	0.00032754	3.4787e-05	1057.2	1.7477e-06	3.644e-06	1112.3	224.42	3.675e-06	1.3858e-06	280.48	78.932	61.593	18.118	2.4757e-06	25.422	9.4576e-05	9.1745e-05	2.2863e-05	1023.3	9.7551e-07	1.0079e-06	1080.8	218.56	9.758e-07	1.0253e-06	272.47	77.711	59.624	17.933	9.2636e-07	25.339	27.699	-37.840	-45.196	-104.763	-29.678	59.082	-104.770	-97.555	11.876	-54.654	-97.849	-91.536	-91.774	-83.671	-4.806	-84.274	-8191	255	
440.962	1	1	0	0	0.20933	0.0086235	0.18152	0.12128	0.18549	0.17203	0.31165	0.085694	0.070492	0.16685	0.13418	0.24207	0.059869	0.1577	0.36268	0.21228	-3.5708	-3.3917	-3.8542	-3.7188	-3.5938	-4.0021	-3.7646	-3.6396	-3.8375	-3.4667	-3.7604	-3.8208	-3.6312	-3.9354	-3.6979	-3.6021	174.945	40.423	97.664	-107.183	-73.461	91.304	181.044	86.214	-87.009	184.674	-12.310	239.348	104.213	240.450	91.130	91.074	0.00035844	0.00024125	6.134e-05	1057	3.3631e-06	1.4756e-06	1111.6	225.15	1.0263e-06	4.2675e-06	282.41	79.689	61.691	18.04	3.9843e-06	25.771	0.00010199	9.4708e-05	2.3117e-05	1027.2	9.9665e-07	9.8374e-07	1083	219.31	1.0483e-06	1.0036e-06	273.03	77.991	59.718	17.927	9.2677e-07	25.427	26.812	-35.320	28.764	-104.476	55.881	11.076	-104.518	-97.491	-99.713	10.198	-98.174	-91.665	-91.062	-83.875	25.015	-85.015	-8191	255	
441.059	1	1	0	0	0.13179	0.092352	0.15142	0.30711	0.081608	0.12624	0.2334	0.048971	0.17476	0.19104	0.262	0.32013	0.093152	0.30533	0.059487	0.071674	-3.4	-3.5208	-3.7792	-3.8625	-3.5938	-3.8875	-3.9479	-3.7146	-4.1375	-3.5167	-3.8146	-4.0396	-3.4479	-3.9583	-3.9167	-3.6125	127.049	75.835	154.751	216.685	-108.898	-75.976	114.956	219.969	63.756	116.865	132.600	230.994	-97.071	207.427	165.822	91.132	0.00032499	0.00041191	9.385e-05	1065.2	2.5596e-06	4.3101e-06	1116.3	225.66	2.4234e-06	4.9357e-06	283.19	79.949	62.65	18.188	4.0155e-06	25.798	0.00011146	9.0952e-05	2.4154e-05	1030.7	1.1231e-06	9.5586e-07	1086.4	219.95	1.0652e-06	9.7403e-07	274.39	78.474	60.145	18.031	8.8503e-07	25.487	22.839	-47.034	-52.440	-104.712	-30.475	64.051	-104.735	-97.485	-30.754	37.202	-97.631	-91.319	-90.997	-84.043	50.499	-84.338	-8191	255	
441.179	1	1	0	0	0.12377	0.08395	0.29027	0.01505	0.11959	0.094028	0.22358	0.10858	0.11224	0.18979	0.16916	0.20356	0.14827	0.13504	0.17007	0.27869	-3.6125	-3.5708	-3.7208	-3.9938	-3.6021	-3.9271	-3.9562	-3.6479	-3.9667	-3.7354	-3.7083	-3.8229	-3.4562	-4.0021	-3.8208	-3.5771	177.722	31.987	147.843	-0.035	-61.885	104.007	206.434	89.405	183.738	27.835	214.824	109.375	179.014	-93.453	157.826	187.875	0.00032011	0.00036066	7.0454e-05	1063.9	1.8421e-06	2.3478e-06	1117.9	225.87	3.9768e-06	2.3666e-06	283.45	79.509	62.289	18.01	3.8533e-06	25.517	0.00010625	8.3734e-05	2.2112e-05	1035	1.0586e-06	9.3143e-07	1089.1	220.36	1.0734e-06	9.4125e-07	274.01	78.536	60.233	17.96	9.0813e-07	25.497	23.012	-54.524	-49.352	-104.554	-12.445	30.162	-104.678	-97.660	11.759	-3.252	-98.177	-91.634	-91.294	-84.295	6.915	-84.312	-8191	255	
441.274	1	1	0	0	0.11981	0.15238	0.086801	0.023035	0.37889	0.096351	0.19859	0.096935	0.11689	0.085161	0.11117	0.16898	0.099712	0.10737	0.15959	0.16538	-3.5854	-3.7687	-3.5167	-3.9208	-3.6229	-3.7938	-3.8458	-3.6292	-4.0271	-3.9125	-3.6437	-4.0188	-3.6458	-3.8187	-3.7833	-3.4958	182.543	146.125	16.490	107.911	-110.337	209.256	171.657	219.967	116.114	148.483	-49.225	222.729	25.549	37.235	39.721	-41.732	0.00027447	0.00039241	4.945e-05	1066.6	1.4451e-06	8.5651e-07	1120.1	225.67	1.4112e-06	2.8037e-07	282.97	79.926	62.792	18.294	3.6824e-06	25.811	0.00010263	8.5358e-05	2.2631e-05	1035	1.0611e-06	9.1701e-07	1091.3	220.91	1.0269e-06	8.9401e-07	274.5	78.533	60.132	18.003	9.1009e-07	25.56	17.126	-88.515	-4.018	-104.518	43.941	1.537	-104.620	-97.792	20.536	92.865	-97.775	-91.389	-91.171	-83.742	35.928	-84.445	-8191	255	
441.370	1	1	0	0	0.21913	0.11731	0.19305	0.2778	0.30684	0.082235	0.33901	0.022571	0.20829	0.29215	0.19183	0.22747	0.092105	0.11748	0.23559	0.093514	-3.4771	-3.8333	-3.65	-4.0417	-3.4979	-3.8479	-4.0646	-3.5812	-3.8708	-4.0583	-3.6875	-4.0917	-3.6292	-3.625	-3.9	-3.7479	75.635	98.075	-86.150	206.322	189.360	123.639	140.604	171.499	183.912	217.305	-67.545	222.278	113.759	213.070	-28.068	113.773	0.00026502	0.00010921	5.1997e-05	1070.6	1.5982e-06	3.5919e-06	1121.1	226.75	2.0876e-06	2.6264e-06	283.2	79.355	62.33	18.085	5.8294e-06	25.675	9.8343e-05	8.1733e-05	2.3326e-05	1038	9.611e-07	8.7507e-07	1091.2	221.26	9.6278e-07	8.3701e-07	274.81	78.581	59.938	17.972	9.7439e-07	25.48	19.035	-93.888	-43.253	-104.619	-44.634	36.249	-104.640	-97.583	32.426	-12.160	-98.098	-91.851	-91.103	-83.803	9.626	-84.501	-8191	255	
441.466	1	1	0	0	0.18349	0.19253	0.24581	0.040994	0.12022	0.054125	0.1984	0.14202	0.099137	0.1969	0.17865	0.21591	0.11755	0.22293	0.10944	0.23124	-3.5312	-3.9021	-3.5167	-4.0396	-3.7042	-3.8208	-4.0042	-3.4542	-3.9521	-3.8125	-3.6083	-4.0104	-3.6208	-3.7229	-4.0125	-3.5938	54.453	201.362	-68.373	194.607	-81.831	-65.919	-5.748	161.345	171.007	167.751	230.412	150.116	-95.141	7.935	129.084	77.131	0.00032868	0.00047177	8.8962e-05	1068	3.0675e-06	1.8543e-06	1122.3	227.18	2.3936e-06	3.5871e-06	284.3	79.92	62.531	18.232	3.0865e-06	25.729	9.4476e-05	7.9404e-05	2.4456e-05	1036.7	9.3009e-07	8.5655e-07	1092.1	221.12	9.0377e-07	8.3728e-07	275.02	78.491	59.831	17.991	1.008e-06	25.57	25.454	-33.577	-21.385	-104.508	58.720	-13.357	-104.720	-97.834	15.423	1.591	-97.927	-91.364	-91.463	-84.127	63.314	-84.247	-8191	255	
441.562	1	1	0	0	0.062793	0.14186	0.3048	0.27126	0.12702	0.1831	0.045964	0.2613	0.038335	0.10634	0.1443	0.14888	0.29553	0.070047	0.17709	0.1877	-3.3771	-3.7833	-3.4833	-4.0062	-3.6042	-3.6375	-3.9292	-3.5771	-3.8854	-3.8479	-3.45	-3.9375	-3.6875	-3.6021	-4.0479	-3.5375	14.927	6.972	195.951	-85.319	148.268	136.192	144.624	200.837	-36.330	-107.360	200.985	231.089	144.836	-83.753	106.312	140.369	0.00035599	0.00028792	6.6445e-05	1068.3	2.5295e-06	1.5103e-06	1119.8	225.68	7.4999e-07	2.3362e-06	283.91	79.611	62.707	18.216	2.6046e-06	25.77	9.1866e-05	8.0377e-05	2.496e-05	1034.8	9.4125e-07	8.9364e-07	1092	220.83	9.2176e-07	9.0305e-07	275.14	78.329	59.96	17.965	9.691e-07	25.513	26.369	-45.125	-46.959	-104.526	-54.909	13.914	-104.536	-97.634	77.690	13.930	-97.786	-91.353	-91.374	-83.739	-32.183	-84.482	-8191	255	
441.658	1	1	0	0	0.25868	0.041513	0.076595	0.15587	0.012901	0.087171	0.20867	0.066575	0.11852	0.050471	0.30131	0.086379	0.13138	0.18125	0.067864	0.37449	-3.2313	-3.8021	-3.425	-4.0542	-3.8125	-3.4688	-4.0813	-3.4792	-3.7833	-3.7958	-3.6604	-4.0417	-3.65	-3.5792	-3.8812	-3.5896	62.687	-60.381	-98.718	214.234	-107.527	111.381	-109.791	198.735	43.799	51.812	161.100	109.472	-107.108	187.493	-101.384	179.532	0.00034315	0.00013449	5.6771e-05	1065.1	4.5762e-06	1.6085e-06	1115.1	225.26	2.8817e-06	5.1858e-06	283.23	79.6	61.828	18.175	2.0268e-06	25.957	8.9328e-05	8.2845e-05	2.544e-05	1033.2	8.8315e-07	9.1139e-07	1090.2	220.59	8.7418e-07	9.3019e-07	275.01	78.43	59.672	18.035	9.4933e-07	25.491	26.923	-101.146	-60.456	-104.514	-20.838	31.848	-104.917	-97.570	14.051	13.112	-98.149	-91.173	-91.274	-83.747	21.725	-84.593	-8191	255	
441.754	1	1	0	0	0.094228	0.12013	0.33631	0.23576	0.25113	0.0224	0.017107	0.12199	0.0477	0.15692	0.087133	0.14131	0.17058	0.038197	0.10239	0.14124	-3.475	-3.8438	-3.3604	-3.8125	-3.7708	-3.6437	-3.9375	-3.6167	-3.7667	-3.9313	-3.6792	-3.6646	-3.8479	-3.6979	-4.0292	-3.6667	230.068	237.892	5.639	154.107	33.140	190.816	-35.938	121.168	151.759	-43.695	49.401	113.503	17.079	226.086	83.789	184.270	0.00037115	0.0003153	7.2519e-05	1063.1	1.7927e-06	1.6913e-06	1117.3	225.54	1.1306e-06	8.2168e-07	283.35	80.295	62.517	18.246	3.3408e-06	25.56	8.6842e-05	8.7268e-05	2.4558e-05	1031.7	8.8237e-07	9.5544e-07	1088.4	220.72	8.7195e-07	9.6243e-07	274.84	78.511	59.829	18.004	9.0467e-07	25.41	28.308	-39.505	25.731	-104.761	-74.286	-11.333	-104.669	-97.485	-87.307	142.259	-97.818	-91.297	-91.231	-83.646	22.124	-84.183	-8191	255	
441.851	1	1	0	0	0.2131	0.25924	0.28678	0.093581	0.19815	0.090193	0.1314	0.099196	0.22741	0.35956	0.14961	0.32623	0.10963	0.14377	0.13957	0.20063	-3.2625	-4.0042	-3.5396	-3.8375	-3.7708	-3.5229	-4.0042	-3.7479	-3.6437	-3.9437	-3.7083	-3.7146	-3.775	-3.4521	-3.8208	-3.8854	214.658	-67.308	171.374	149.680	126.259	16.964	86.088	153.483	2.204	239.696	-101.051	-18.901	122.376	-103.473	-113.650	-85.245	0.00039785	6.4302e-05	5.795e-06	1066.4	1.7938e-06	2.6166e-06	1116.4	225.92	1.0758e-06	3.2362e-06	282.72	79.711	62.075	18.128	3.7128e-06	25.612	8.8681e-05	8.9567e-05	2.2632e-05	1031.1	8.826e-07	9.3632e-07	1085.6	220.4	8.8356e-07	9.2345e-07	274.1	78.161	59.801	17.957	8.5979e-07	25.37	20.954	23.780	-37.171	-104.468	21.706	41.465	-104.682	-97.656	-76.797	-3.655	-97.873	-91.462	-91.868	-84.088	-3.997	-83.983	-8191	255	
441.971	1	1	0	0	0.16672	0.085886	0.013659	0.10062	0.089126	0.16719	0.27668	0.15075	0.11562	0.067025	0.30251	0.082552	0.12532	0.148	0.14495	0.3265	-3.2083	-3.9062	-3.5854	-3.7271	-4.0479	-3.4021	-4.1354	-3.7125	-3.575	-4.0854	-3.6875	-3.7479	-3.9229	-3.5271	-3.925	-3.8063	89.601	-58.168	219.663	149.946	-1.308	-99.330	105.466	238.114	178.150	-49.267	2.828	188.804	-73.906	-11.705	179.126	190.569	0.00034954	0.00034836	6.5336e-05	1060.5	2.9653e-06	3.5336e-06	1113.3	225.17	3.0717e-06	3.459e-06	282.43	79.53	62.383	18.154	1.7828e-06	25.781	9.0581e-05	8.8787e-05	2.2162e-05	1028.6	9.3352e-07	9.2595e-07	1085.4	219.79	9.4575e-07	8.7016e-07	274.1	78.371	59.849	17.951	8.3254e-07	25.437	9.932	-28.343	-34.604	-104.414	-60.531	47.344	-104.549	-97.389	37.668	14.038	-97.995	-91.416	-91.378	-84.206	-40.216	-84.393	-8191	255	
442.066	1	1	0	0	0.13634	0.10492	0.064062	0.26461	0.12737	0.066555	0.3607	0.11019	0.085049	0.04367	0.1893	0.32402	0.26443	0.17262	0.19703	0.075363	-3.0896	-3.8875	-3.7646	-3.6958	-4.1417	-3.6646	-4.0125	-4.0312	-3.6896	-4.1333	-3.7021	-3.6708	-3.9396	-3.4917	-3.7375	-3.9458	96.222	47.439	-71.658	168.034	-102.610	218.702	178.978	131.020	41.865	117.679	138.441	126.035	180.406	-61.252	-41.637	102.252	0.00041582	0.0002157	3.8172e-05	1061.8	3.8845e-06	4.6444e-06	1114.6	226.34	3.2252e-06	3.898e-06	282.67	79.759	62.208	18.168	4.4651e-06	25.75	9.7289e-05	8.5144e-05	2.1096e-05	1029.3	9.9171e-07	8.8692e-07	1084.4	220.14	9.6483e-07	8.5911e-07	273.83	78.187	59.787	17.945	8.02e-07	25.424	18.597	-17.012	16.932	-104.567	16.853	6.660	-104.634	-97.736	39.716	6.833	-97.771	-91.837	-90.946	-83.957	25.516	-84.769	-8191	255	
442.139	1	1	0	0	0.014025	0.086177	0.25134	0.28054	0.276	0.16325	0.1149	0.076787	0.21263	0.11502	0.2913	0.26865	0.1206	0.16978	0.16628	0.10314	-3.2438	-3.9167	-3.8688	-3.6875	-3.9813	-3.5896	-4.0271	-4.0146	-3.4604	-3.9042	-3.7896	-3.8333	-4.1167	-3.6063	-3.7062	-3.9167	-111.601	-20.997	63.659	204.944	109.479	212.636	190.484	243.840	56.272	-78.232	208.283	-55.714	225.140	215.419	-56.270	-66.072	0.00036582	0.00011048	0.00011553	1061.4	3.3047e-06	3.301e-06	1121.2	226.42	1.3334e-06	2.4913e-06	281.51	79.989	62.431	17.927	3.7103e-06	25.639	9.6276e-05	7.6621e-05	2.0093e-05	1029.6	9.5113e-07	8.7254e-07	1086.9	220.53	9.799e-07	8.6274e-07	273.68	78.241	59.704	17.891	8.0734e-07	25.445	35.178	-50.374	-20.830	-104.436	-5.814	60.723	-104.523	-97.864	-11.966	3.128	-98.188	-91.425	-91.351	-84.129	5.142	-84.080	-8191	255	
442.260	1	1	0	0	0.093883	0.087505	0.12381	0.10554	0.19609	0.09003	0.41795	0.13036	0.085688	0.14858	0.22885	0.12085	0.28029	0.15757	0.23079	0.050619	-3.2625	-3.9979	-3.7604	-3.7521	-4.1312	-3.5	-3.6896	-3.9938	-3.6292	-3.9437	-3.9333	-3.6312	-3.8708	-3.6354	-3.6646	-3.9938	191.453	102.787	236.941	-111.961	-53.324	-15.167	173.872	62.619	136.512	163.491	92.939	27.387	-59.538	-29.434	81.715	163.623	0.00030958	0.00059155	9.4471e-05	1063.4	3.2288e-06	2.9051e-06	1114.5	225.27	2.4517e-06	2.1108e-06	283.03	79.221	62.488	18.074	2.0388e-06	25.734	9.5338e-05	7.8862e-05	2.0334e-05	1030.8	9.59e-07	8.3162e-07	1086	220.25	9.1957e-07	8.5783e-07	273.85	78.201	59.92	17.918	8.3349e-07	25.437	28.906	-52.503	-20.209	-104.608	-1.139	5.749	-104.695	-97.468	46.560	24.685	-97.517	-91.481	-91.246	-83.836	-14.947	-84.156	-8191	255	
442.354	1	1	0	0	0.15947	0.16111	0.10197	0.1491	0.12684	0.19591	0.28758	0.14134	0.095811	0.063702	0.077991	0.12423	0.034808	0.1396	0.075426	0.069981	-3.0979	-3.8229	-3.8625	-3.7271	-3.9104	-3.75	-4.0167	-4	-3.5187	-3.7542	-3.9417	-3.5667	-3.8083	-3.9208	-3.6979	-3.9667	125.974	102.965	53.158	223.286	101.447	31.976	141.149	141.867	20.900	175.588	126.973	166.614	163.186	117.567	51.635	182.459	0.00033882	0.00046789	7.82e-05	1061.3	4.2721e-06	2.6503e-06	1113.8	226.44	3.2765e-06	2.2898e-06	281.87	79.152	61.894	18.205	1.1803e-06	25.828	9.2904e-05	7.7129e-05	2.1682e-05	1030.3	9.3626e-07	8.3046e-07	1086.1	220.57	8.9367e-07	8.1234e-07	273.36	78.218	59.733	17.943	8.8471e-07	25.508	23.538	-68.937	-9.160	-104.562	-4.592	-2.105	-104.842	-97.701	191.092	96.334	-97.569	-91.505	-90.785	-84.103	179.190	-84.446	-8191	255	
442.450	1	1	0	0	0.29242	0.084004	0.10631	0.25654	0.17679	0.17169	0.21619	0.052837	0.17515	0.079038	0.15867	0.12317	0.20497	0.17227	0.20763	0.075206	-3.2062	-3.7021	-3.9833	-3.7042	-3.8	-4.0021	-3.6708	-3.8979	-3.6167	-3.6125	-4.0104	-3.5875	-3.7958	-3.7792	-3.5708	-3.8521	94.395	235.825	-92.285	237.705	-91.784	128.809	235.279	205.379	62.073	5.755	126.331	230.221	183.218	-77.603	-93.216	-112.740	0.00031546	0.00022577	2.066e-05	1062.9	3.7699e-06	1.0306e-06	1118.9	225.76	4.3229e-06	4.4546e-06	284.16	79.23	62.195	17.923	4.0916e-06	25.688	9.1998e-05	7.4435e-05	2.2845e-05	1030.1	8.9861e-07	8.1682e-07	1088.3	220.69	9.0054e-07	8.1926e-07	274.64	78.232	59.777	17.881	9.2691e-07	25.425	15.064	-41.393	36.275	-104.641	-26.361	49.307	-104.777	-97.210	-21.584	33.222	-97.632	-91.653	-91.578	-84.058	-26.064	-84.637	-8191	255	
442.546	1	1	0	0	0.086327	0.10054	0.11781	0.23424	0.2526	0.20623	0.06219	0.10567	0.14153	0.012298	0.25018	0.08643	0.22586	0.13644	0.22991	0.062328	-3.3021	-3.9083	-3.9896	-3.6042	-3.8604	-3.8604	-3.5771	-4.0583	-3.6625	-3.8396	-4.0125	-3.5708	-3.65	-3.85	-3.3875	-4.1896	132.501	-1.493	150.686	240.922	15.473	197.448	127.406	143.293	18.080	193.106	237.190	-71.780	-20.682	-99.756	-24.832	-86.022	0.00033316	0.00033369	8.9671e-05	1059.3	2.1594e-06	5.3532e-07	1110.2	226.79	1.6535e-06	1.2511e-06	282.84	79.183	61.989	18.095	1.8939e-06	25.778	8.9089e-05	7.757e-05	2.4392e-05	1030.2	8.8489e-07	8.1309e-07	1085.6	220.77	8.5984e-07	8.4806e-07	274.63	78.227	59.638	17.928	9.9353e-07	25.472	23.777	4.960	6.520	-104.505	-31.418	209.762	-104.713	-97.631	92.713	27.177	-97.575	-91.392	-90.842	-83.813	-18.791	-84.175	-8191	255	
442.667	1	1	0	0	0.061331	0.061694	0.12446	0.27249	0.028528	0.27897	0.16842	0.11832	0.1336	0.046652	0.21185	0.032623	0.25408	0.14176	0.16049	0.25909	-3.4958	-3.6583	-4.0625	-3.6854	-3.7729	-3.9583	-3.5625	-3.9021	-3.6896	-3.5354	-4.0271	-3.7812	-3.725	-3.9062	-3.4188	-3.7771	146.790	-111.574	-47.080	-34.541	167.243	38.953	212.398	94.600	183.683	101.595	217.338	-2.624	142.099	-18.122	-113.219	233.180	0.00029803	0.00030023	7.1674e-05	1059.3	4.6469e-06	4.9966e-06	1111	225.33	3.8547e-06	2.1948e-06	282.77	79.212	62.838	18.124	3.8946e-06	25.688	8.6997e-05	8.1149e-05	2.4645e-05	1029.5	8.6654e-07	8.636e-07	1084.5	220.6	8.5556e-07	9.0364e-07	274.43	78.007	59.775	17.976	9.4664e-07	25.412	33.252	-29.839	-25.791	-104.450	-55.015	19.713	-104.826	-97.373	-9.018	13.417	-98.131	-91.548	-91.459	-83.904	33.055	-84.350	-8191	255	
442.763	1	1	0	0	0.18914	0.17766	0.11644	0.13453	0.15987	0.10446	0.26617	0.077934	0.11061	0.11109	0.21316	0.23444	0.1703	0.040555	0.14594	0.13487	-3.3396	-3.4083	-4.1042	-3.6813	-3.8917	-3.8875	-3.7125	-3.9646	-3.9833	-3.7083	-3.9646	-3.6917	-3.8104	-4	-3.5687	-3.8229	135.628	221.061	153.528	220.303	57.450	-77.216	190.684	-74.870	5.516	-83.100	-81.014	212.982	176.024	0.593	-30.011	-33.592	0.0003199	0.00014066	5.8679e-05	1057.6	2.1773e-06	1.9913e-06	1114.7	224.61	3.1936e-06	1.9019e-06	283.1	79.612	62.104	18.111	2.6072e-06	25.818	8.7025e-05	8.5329e-05	2.3624e-05	1028.9	8.3662e-07	9.2452e-07	1086.7	220.12	8.4062e-07	9.4725e-07	274.28	78.13	59.636	17.97	9.1278e-07	25.49	31.829	-23.212	-48.111	-104.664	15.139	49.595	-104.874	-97.402	-57.228	26.456	-97.787	-91.269	-91.112	-83.609	16.740	-84.879	-8191	255	
442.859	1	1	0	0	0.044216	0.18031	0.23925	0.12131	0.060438	0.16354	0.25341	0.17768	0.20274	0.21532	0.12896	0.29652	0.11624	0.19475	0.1025	0.28838	-3.5687	-3.6667	-3.9583	-3.8083	-3.7062	-4.0917	-3.6833	-3.9125	-3.9479	-3.4958	-3.9417	-3.8563	-3.6229	-4.0292	-3.7062	-3.7167	97.682	104.192	58.655	-48.176	185.573	83.655	198.159	-58.025	-32.577	-91.577	169.621	139.706	183.223	-61.226	26.491	236.884	0.00047776	0.00034216	7.4549e-05	1059.1	2.3161e-06	2.5482e-07	1113.7	226.1	2.4621e-06	2.1278e-06	283.09	79.454	62.552	18.21	3.5143e-06	25.585	8.5964e-05	8.9949e-05	2.2034e-05	1030.2	8.6334e-07	9.3498e-07	1086.3	220.23	8.628e-07	9.3524e-07	273.99	78.178	59.796	18.004	8.5737e-07	25.415	9.996	-54.040	-2.396	-104.385	-60.696	44.809	-104.648	-97.591	32.497	-48.786	-97.510	-91.525	-91.382	-83.653	40.069	-84.712	-8191	255	
442.955	1	1	0	0	0.17223	0.14601	0.08836	0.13635	0.097652	0.10996	0.0464	0.19131	0.090156	0.29103	0.10073	0.13303	0.036475	0.14752	0.14151	0.13195	-3.4479	-3.4625	-3.7708	-3.9396	-3.7729	-4.0146	-3.5833	-3.6729	-4.0312	-3.5396	-3.9333	-3.7938	-3.5062	-3.9667	-3.7417	-3.6646	-43.475	-72.524	28.556	-21.208	204.426	110.320	-35.045	211.845	-96.567	157.609	210.192	211.600	241.605	102.096	142.898	209.241	0.00035989	0.00026298	6.1233e-05	1065.4	1.5623e-06	5.1751e-07	1111.8	225.52	1.6762e-06	2.9657e-06	282.8	79.772	62.457	18.184	3.3534e-06	25.701	9.0058e-05	8.6512e-05	2.0903e-05	1031.6	9.3214e-07	9.3143e-07	1086	220.38	9.1966e-07	9.1644e-07	274.28	78.146	59.674	18.008	8.1609e-07	25.424	23.190	-57.714	-10.113	-104.721	147.171	4.070	-104.686	-97.343	8.687	31.823	-97.851	-91.320	-91.382	-83.963	-24.317	-84.456	-8191	255	
443.052	1	1	0	0	0.25906	0.23392	0.18962	0.12157	0.22821	0.074953	0.30834	0.12636	0.12922	0.11597	0.10345	0.041211	0.13174	0.16745	0.20047	0.20565	-3.5979	-3.4646	-3.8208	-3.9667	-3.5646	-4.1417	-3.7979	-3.775	-3.9479	-3.6188	-3.6854	-3.9292	-3.6208	-4.0021	-3.7271	-3.8667	188.555	83.805	-19.014	214.822	-20.140	-112.955	230.333	241.858	154.369	113.014	241.614	46.309	161.595	-7.246	-60.363	231.007	0.000322	0.00021967	3.1199e-05	1059.9	2.9775e-06	3.1081e-06	1114.5	224.09	2.0407e-06	2.8042e-06	282.74	79.768	62.475	18.06	4.2635e-06	25.688	9.1104e-05	8.441e-05	2.1115e-05	1028.3	9.7089e-07	8.8567e-07	1085.7	220.12	9.6702e-07	8.9722e-07	273.96	78.021	59.801	17.953	7.8879e-07	25.427	25.149	-80.023	25.591	-104.419	43.939	45.437	-104.704	-97.405	-35.446	-2.197	-97.795	-91.343	-91.293	-83.709	19.375	-84.075	-8191	255	
443.148	1	1	0	0	0.087906	0.13986	0.083223	0.05457	0.11296	0.092843	0.1506	0.053598	0.11697	0.18782	0.28592	0.17962	0.12707	0.22006	0.14958	0.016098	-3.6354	-3.5458	-3.7458	-3.9625	-3.6292	-3.9521	-4	-3.6458	-4.0542	-3.6437	-3.8729	-4.0854	-3.6292	-3.8958	-3.8333	-3.4375	45.263	-39.352	-54.009	202.699	13.846	154.382	59.309	135.500	-19.052	188.823	147.397	-90.189	162.314	231.937	119.004	106.135	0.00040718	0.00050865	6.3654e-05	1061.7	1.9282e-06	1.7591e-06	1113.5	225.19	6.8572e-07	3.6109e-06	282.82	80.231	63.127	18.138	1.9782e-06	25.791	9.3802e-05	7.9261e-05	1.9643e-05	1028.9	9.4843e-07	8.3857e-07	1086.2	220.72	9.6692e-07	8.4279e-07	273.91	78.414	60.107	17.939	7.9043e-07	25.488	21.659	-54.126	42.000	-104.676	33.848	103.614	-104.714	-97.689	6.061	51.839	-97.711	-91.591	-90.889	-83.959	-2.633	-84.514	-8191	255	
443.267	1	1	0	0	0.20392	0.094982	0.16712	0.25653	0.22167	0.15887	0.12075	0.22667	0.12878	0.22535	0.13588	0.23217	0.2449	0.066196	0.34166	0.11751	-3.625	-3.6562	-3.6833	-4.1396	-3.5604	-3.7417	-3.9792	-3.4562	-4.0708	-3.7417	-3.8229	-3.9938	-3.5	-3.7917	-3.9083	-3.8354	9.112	78.128	150.536	229.398	-7.217	-61.854	128.714	-35.637	242.303	-83.381	147.049	-25.384	-43.013	229.968	133.689	195.731	0.00028164	0.00030637	9.6639e-05	1057.5	7.6595e-07	2.785e-06	1115.5	225.63	2.3124e-06	1.9962e-06	283.2	79.452	61.894	18.121	3.985e-06	25.682	9.4799e-05	7.5849e-05	2.0138e-05	1028.3	9.4139e-07	8.1682e-07	1083.7	220.42	8.9449e-07	7.9253e-07	273.84	78.259	59.652	17.945	8.0934e-07	25.417	36.006	-70.423	-49.373	-104.709	71.779	46.779	-104.668	-97.636	-62.476	-49.364	-98.023	-91.249	-91.435	-83.665	0.676	-84.468	-8191	255	
443.363	1	1	0	0	0.11864	0.15067	0.051146	0.12397	0.10225	0.1328	0.11565	0.062954	0.071473	0.16918	0.17045	0.06142	0.1176	0.28696	0.22453	0.1215	-3.5917	-3.6333	-3.5875	-4.1646	-3.6833	-3.9271	-3.825	-3.6396	-3.8896	-3.7667	-3.7979	-3.9771	-3.6646	-3.8	-3.9896	-3.6208	240.754	158.551	121.455	119.807	121.708	-14.495	130.270	207.078	207.577	-28.793	0.847	-54.420	206.571	-93.374	61.860	232.450	0.00033609	0.00025754	0.00012294	1060.9	1.8972e-06	9.8194e-07	1116.7	226.07	2.7303e-06	5.7699e-07	284.33	79.363	62.266	18.286	5.0321e-06	25.724	9.0705e-05	7.5316e-05	2.0148e-05	1029	9.3503e-07	7.959e-07	1085	220.39	9.005e-07	7.7927e-07	274.78	78.211	59.663	17.985	8.5477e-07	25.418	20.796	-25.876	-4.331	-104.460	53.325	10.190	-104.562	-97.663	54.211	-51.958	-97.810	-91.389	-91.230	-83.910	23.716	-84.307	-8191	255	
443.434	1	1	0	0	0.12059	0.097841	0.21963	0.17305	0.10005	0.09769	0.27378	0.030316	0.17393	0.11009	0.010951	0.0875	0.10727	0.01802	0.17424	0.016602	-3.6083	-3.7583	-3.6792	-4.1271	-3.5604	-3.7083	-4.2104	-3.7438	-3.8917	-3.8458	-3.8042	-4.1042	-3.5354	-3.9083	-3.8187	-3.7062	118.374	178.069	12.635	-110.019	-73.151	201.966	176.389	13.547	94.151	-75.066	-36.408	-84.336	25.317	186.361	232.933	-40.284	0.00036547	0.00034866	0.00012589	1059.4	1.1049e-06	3.212e-06	1115.2	225.85	5.129e-06	1.4753e-06	283.3	79.797	62.116	18.045	3.6073e-06	25.715	8.9464e-05	7.2324e-05	2.1357e-05	1028.3	8.8759e-07	8.0351e-07	1085.9	220.78	8.8825e-07	7.6542e-07	274.23	78.375	59.746	17.882	9.3734e-07	25.511	20.141	-36.918	-0.087	-104.594	-75.969	53.020	-104.681	-97.560	-4.820	9.320	-97.735	-91.071	-91.489	-83.791	71.365	-84.352	-8191	255	
443.531	1	1	0	0	0.36152	0.087135	0.097756	0.23713	0.080534	0.14272	0.20817	0.059141	0.10202	0.07482	0.28792	0.042374	0.053624	0.22356	0.12861	0.27524	-3.4813	-3.8042	-3.4708	-4.0229	-3.7229	-3.8458	-4.2167	-3.7542	-3.8208	-3.95	-3.6375	-4.0583	-3.875	-3.9167	-3.9271	-3.6792	108.037	27.666	132.649	8.573	-3.668	190.160	124.702	-16.814	-34.196	115.375	-111.867	116.112	-78.368	-74.668	41.914	194.773	0.00034126	0.00026482	7.5678e-05	1060.4	1.0263e-06	1.4868e-06	1114.9	226.15	1.2618e-06	4.9497e-07	282.19	79.888	61.67	18.18	3.3388e-06	25.714	9.029e-05	7.2639e-05	2.3574e-05	1029.3	8.6572e-07	7.7083e-07	1086.3	220.5	8.5569e-07	7.912e-07	273.89	78.242	59.496	17.932	9.3383e-07	25.431	37.947	-65.995	5.517	-104.646	166.451	-0.875	-104.873	-97.672	-33.808	124.825	-97.537	-91.307	-90.751	-83.867	-30.763	-84.590	-8191	255	
443.651	1	1	0	0	0.24037	0.066992	0.092292	0.12178	0.11656	0.040851	0.13721	0.16545	0.2448	0.059484	0.14228	0.11786	0.044081	0.16373	0.19792	0.16937	-3.4521	-4.0354	-3.5396	-4.0667	-3.5042	-3.7125	-4.0792	-3.7583	-3.7958	-4.0292	-3.4979	-4.0312	-3.65	-3.7062	-4.1833	-3.7125	195.126	-43.843	236.759	145.968	-36.946	114.818	217.153	180.917	-30.223	131.225	-68.824	186.745	181.850	116.375	5.915	148.127	0.0003278	0.00037621	5.38e-05	1066.4	4.9792e-06	8.4514e-07	1117.3	224.34	7.3839e-07	1.733e-06	282.97	79.672	61.689	18.208	1.1915e-06	25.68	8.7564e-05	7.6126e-05	2.4618e-05	1030.8	8.6979e-07	8.2645e-07	1087.5	219.81	8.506e-07	8.3683e-07	274.5	78.373	59.515	17.961	9.398e-07	25.4	15.101	-61.822	-52.207	-104.394	-5.146	5.931	-104.600	-97.579	179.945	-44.732	-98.034	-91.246	-90.670	-83.969	23.159	-84.084	-8191	255	
443.747	1	1	0	0	0.084624	0.12434	0.17375	0.20141	0.15566	0.097413	0.023108	0.086966	0.088692	0.15323	0.10376	0.21423	0.18056	0.1599	0.031291	0.28886	-3.1958	-3.9813	-3.4875	-3.9188	-3.7521	-3.6333	-4.0271	-3.5687	-3.7917	-3.9354	-3.6604	-3.8375	-3.8208	-3.55	-3.7458	-3.6646	-3.359	107.233	200.314	199.471	67.123	76.991	-102.146	-42.994	22.074	-95.525	-78.431	-94.590	114.793	165.575	-27.235	199.040	0.00036797	0.00010285	0.0001181	1062.4	3.4228e-07	1.7611e-06	1116.1	225.02	9.9199e-07	4.1768e-06	283.11	79.767	62.267	18.148	1.9721e-06	25.873	8.6115e-05	8.0956e-05	2.3915e-05	1029.2	8.4998e-07	8.965e-07	1085.7	220.23	8.0866e-07	9.0781e-07	273.82	78.215	59.649	18.011	9.4135e-07	25.464	26.570	-79.442	-50.523	-104.520	171.635	94.767	-104.832	-97.566	111.038	-21.744	-97.795	-91.207	-90.817	-83.963	6.557	-84.503	-8191	255	
443.843	1	1	0	0	0.16461	0.15866	0.080962	0.28093	0.043593	0.24364	0.11835	0.055346	0.22281	0.063041	0.11983	0.091405	0.16701	0.15496	0.18139	0.29577	-3.2812	-3.8396	-3.45	-3.8292	-3.8042	-3.5646	-4.025	-3.8729	-3.7229	-4.0437	-3.5771	-3.6146	-3.8271	-3.4979	-3.8375	-3.8542	127.470	-68.467	133.481	197.819	169.949	185.906	132.897	206.402	-41.179	41.521	237.618	-29.412	26.707	-60.266	162.271	-26.571	0.00035933	3.1361e-05	4.962e-05	1065.6	1.9291e-06	9.9357e-07	1118.8	226.73	2.0005e-06	2.4136e-06	282.95	79.714	62.184	18.219	4.6914e-06	25.923	8.6287e-05	8.7494e-05	2.3046e-05	1031.8	8.3745e-07	9.6765e-07	1088.9	220.56	8.618e-07	9.1841e-07	273.98	78.285	59.65	17.996	8.7236e-07	25.423	4.993	54.393	36.061	-104.692	-45.866	160.580	-104.726	-97.662	-59.341	-37.658	-97.797	-91.534	-90.633	-83.638	-7.410	-84.832	-8191	255	
443.940	1	1	0	0	0.10343	0.16634	0.10961	0.25449	0.035439	0.098399	0.293	0.092691	0.25103	0.2027	0.10303	0.10436	0.1278	0.12427	0.15022	0.13599	-3.1729	-3.8833	-3.4562	-3.6333	-3.8833	-3.5833	-4.0958	-3.7896	-3.4979	-3.9625	-3.7479	-3.7458	-3.8	-3.4896	-3.9354	-3.725	125.477	135.007	163.248	90.663	-82.491	241.049	188.278	-62.188	37.340	2.957	-48.280	197.824	-61.276	29.212	-103.802	80.133	0.00039734	0.00020458	0.0001083	1057.5	4.881e-07	2.6994e-06	1111.1	226.87	3.7184e-06	2.9972e-06	283.44	79.783	62.575	18.185	1.01e-06	25.783	8.9045e-05	8.7305e-05	2.153e-05	1029.7	8.7373e-07	9.3337e-07	1086.2	220.88	8.8065e-07	9.1639e-07	274.6	78.304	59.907	18.005	8.1909e-07	25.416	20.324	-52.872	-48.181	-104.328	30.833	16.028	-104.662	-97.612	-2.504	-9.423	-98.040	-91.485	-91.518	-83.771	-18.495	-84.268	-8191	255	
444.036	1	1	0	0	0.13819	0.21129	0.13733	0.12831	0.15508	0.048235	0.097317	0.24069	0.085673	0.039859	0.16063	0.096146	0.088613	0.18888	0.13691	0.041957	-3.2562	-4.0104	-3.6375	-3.7687	-3.8979	-3.4042	-4.0292	-3.9167	-3.6854	-4.0667	-3.7104	-3.6396	-3.9625	-3.6688	-3.6312	-3.9167	144.043	145.007	216.366	-46.531	241.424	239.214	131.626	181.081	215.355	72.660	202.002	90.714	236.365	129.070	110.939	219.499	0.0003558	0.00026792	2.0093e-05	1062.1	2.9835e-06	2.7262e-07	1114.5	225.97	3.5558e-06	2.7385e-06	282.55	79.673	62.165	18.183	1.3417e-06	25.541	9.1639e-05	8.2224e-05	2.0683e-05	1030.5	9.5927e-07	8.7567e-07	1085.6	220.42	9.5058e-07	9.1011e-07	274.21	78.357	59.974	17.991	8.3541e-07	25.432	19.708	-26.674	-12.707	-104.628	-49.317	-96.839	-104.839	-97.350	240.989	43.269	-97.833	-91.322	-90.822	-83.692	41.702	-84.538	-8191	255	
444.132	1	1	0	0	0.17924	0.061519	0.083647	0.18541	0.18787	0.11125	0.22329	0.078744	0.10958	0.17201	0.33219	0.18717	0.10734	0.1771	0.20353	0.08635	-3.3167	-3.8854	-3.6875	-3.9167	-3.7521	-3.7562	-3.8521	-3.9688	-3.575	-3.925	-3.7667	-3.6458	-3.9604	-3.7062	-3.7958	-3.8708	175.864	-35.419	-48.091	172.438	14.438	195.683	172.085	217.342	75.633	-58.601	227.876	-84.933	84.723	132.332	2.329	-62.020	0.00033478	0.00026038	8.1216e-05	1062.5	3.0974e-06	2.3478e-06	1114.2	227.81	1.6195e-06	2.4754e-06	279.64	79.81	62.084	18.201	2.3173e-06	25.702	9.8698e-05	8.3944e-05	2.086e-05	1029.7	9.6668e-07	8.8185e-07	1086.2	220.79	9.8017e-07	8.4531e-07	273.4	78.203	59.686	17.999	8.3468e-07	25.504	20.106	-60.999	-34.048	-104.643	-51.599	69.279	-104.741	-97.771	-73.801	-14.370	-97.824	-91.362	-90.695	-83.861	49.073	-84.744	-8191	255	
444.228	1	1	0	0	0.05712	0.1449	0.13822	0.06708	0.099467	0.20668	0.071446	0.19898	0.29017	0.074339	0.23945	0.13539	0.16428	0.13863	0.14181	0.16512	-3.2875	-3.7938	-3.825	-3.7	-4.1042	-3.6167	-3.7375	-3.9729	-3.6437	-4.0208	-3.7479	-3.6583	-4.0042	-3.7083	-3.6896	-3.8438	77.975	70.868	-105.107	156.604	2.776	-34.886	17.832	-105.971	-48.998	199.090	51.461	189.694	-112.367	170.952	162.403	167.786	0.00036744	0.0001599	6.3364e-05	1061.9	1.8932e-06	2.7147e-06	1117.3	226.5	4.2657e-06	2.6355e-06	281.97	79.571	62.489	18.178	2.9104e-06	25.646	9.7513e-05	8.143e-05	2.0324e-05	1030	1.0055e-06	8.6696e-07	1086.5	220.98	9.8441e-07	8.7108e-07	273.54	78.26	60.141	17.96	8.3723e-07	25.432	25.302	-22.613	-1.183	-104.580	-32.897	-34.766	-104.600	-97.694	24.328	-26.074	-97.785	-91.411	-91.096	-84.056	31.654	-84.409	-8191	255	
444.347	1	1	0	0	0.23936	0.042596	0.12617	0.16985	0.21372	0.13389	0.045571	0.10418	0.23466	0.028941	0.074356	0.23756	0.081053	0.10091	0.30997	0.19805	-3.35	-3.8958	-3.9354	-3.5458	-3.9917	-3.7583	-3.9458	-4.0312	-3.6875	-3.9229	-3.9188	-3.5479	-4.1208	-3.7062	-3.7396	-4.1333	165.974	-1.523	181.595	214.079	102.276	-74.023	-72.328	158.334	113.171	53.685	-3.950	181.828	45.920	8.621	62.982	-76.209	0.00035472	0.00023937	6.7043e-05	1062.5	2.7125e-06	3.5464e-06	1118.2	226.6	1.7476e-06	3.9922e-06	281.83	79.532	62.626	18.177	4.9679e-06	25.635	0.00010009	8.1833e-05	2.1355e-05	1032.6	9.7327e-07	8.5751e-07	1087.6	220.85	9.5358e-07	8.7764e-07	274.52	78.363	60.053	18.008	9.003e-07	25.492	34.351	-81.344	-11.549	-104.610	-45.596	-19.048	-104.710	-97.628	-38.795	5.502	-97.635	-91.403	-90.766	-83.449	63.557	-84.457	-8191	255	
444.443	1	1	0	0	0.19645	0.20096	0.16689	0.12239	0.071574	0.17387	0.066516	0.12909	0.064089	0.076628	0.13286	0.067272	0.052025	0.099914	0.19899	0.18425	-3.1375	-3.9125	-3.7854	-3.6792	-4.05	-3.9021	-3.8354	-4.0312	-3.4875	-3.7229	-3.9688	-3.5687	-3.7833	-3.7833	-3.5708	-4.0208	-105.462	-68.710	44.741	-107.658	-103.398	-63.306	133.772	192.591	101.579	84.067	201.862	243.175	113.151	-40.904	-19.387	-103.752	0.00032509	0.00040941	9.0695e-05	1061.8	1.7624e-06	3.5177e-06	1118.6	227.55	3.4767e-06	1.3471e-06	280.22	79.29	62.561	18.102	1.8377e-06	25.648	9.4855e-05	8.057e-05	2.299e-05	1031.8	9.4331e-07	8.6023e-07	1089	221.41	9.4502e-07	8.3274e-07	273.81	78.249	59.863	17.96	9.1884e-07	25.462	13.747	-42.313	15.034	-104.694	-6.866	22.484	-104.984	-97.627	26.875	18.946	-98.277	-91.435	-91.144	-83.526	-4.732	-84.588	-8191	255	
444.539	1	1	0	0	0.022022	0.13382	0.29447	0.22343	0.21883	0.10964	0.19955	0.02633	0.16142	0.18086	0.099131	0.22242	0.23597	0.047721	0.24439	0.18859	-3.2188	-3.7354	-3.8583	-3.6208	-3.9583	-3.8208	-3.5958	-4.0875	-3.5979	-3.8688	-3.9229	-3.5958	-3.8312	-3.8312	-3.5917	-3.9292	122.746	112.827	137.448	213.364	168.557	123.492	164.914	43.486	85.367	128.290	-90.041	207.483	-110.897	-55.967	204.526	-55.737	0.00034129	0.00022279	5.2081e-05	1061.9	8.8491e-07	2.2244e-06	1120.4	225.79	2.5496e-06	1.7799e-06	282.24	80.106	61.822	18.158	1.8992e-06	25.791	9.5641e-05	7.7343e-05	2.3583e-05	1032.4	9.3214e-07	8.3235e-07	1089.1	221.04	9.1921e-07	8.5347e-07	274.95	78.496	59.632	17.947	1.0154e-06	25.492	21.160	-75.510	-41.576	-104.720	114.198	13.164	-104.564	-97.368	-0.860	-47.218	-97.719	-91.113	-90.732	-83.818	82.185	-84.657	-8191	255	
444.660	1	1	0	0	0.2327	0.14849	0.052418	0.22999	0.1109	0.1898	0.016005	0.12922	0.10685	0.079172	0.078834	0.1061	0.13005	0.16359	0.15555	0.10373	-3.2729	-3.4854	-3.8937	-3.625	-3.7896	-3.7604	-3.8521	-3.8958	-3.6396	-3.5979	-3.8021	-3.7083	-3.7521	-3.7583	-3.5375	-4.0083	88.377	110.713	56.415	-77.843	7.146	175.025	-1.079	192.793	36.558	136.049	155.505	167.222	14.298	-87.615	143.924	46.945	0.00029867	0.00015138	5.5338e-05	1060.5	1.3242e-06	2.8092e-06	1118.7	226.47	7.8263e-06	3.4316e-06	284.89	79.717	62.217	18.175	2.0006e-06	25.687	9.1455e-05	8.1997e-05	2.5671e-05	1031.7	9.2601e-07	8.7724e-07	1090.9	221.37	9.1985e-07	8.6498e-07	275.61	78.294	59.753	17.966	1.0042e-06	25.437	15.778	-31.630	-20.511	-104.541	-40.107	22.907	-104.593	-97.630	-26.686	-17.740	-97.733	-91.461	-90.754	-83.562	-34.742	-84.911	-8191	255	
444.732	1	1	0	0	0.10993	0.09948	0.1262	0.016451	0.24682	0.11741	0.33136	0.042052	0.24855	0.12497	0.056886	0.18016	0.21237	0.097623	0.42424	0.0792	-3.3229	-3.6271	-4.0437	-3.8312	-3.7271	-3.8396	-3.7438	-4.0417	-3.6896	-3.6271	-3.9583	-3.6354	-3.65	-3.8917	-3.5875	-3.7917	15.259	90.360	-58.148	-72.641	32.099	-28.017	179.119	186.727	-71.773	191.964	39.382	196.473	231.732	213.481	58.176	164.505	0.00030691	0.00020185	0.00010013	1064.8	2.1464e-06	2.0697e-06	1117	226.25	1.4458e-06	3.0661e-07	282.5	79.691	62.851	18.24	8.2992e-07	25.682	8.9404e-05	8.4456e-05	2.492e-05	1033.3	8.8411e-07	9.2622e-07	1090.8	220.81	8.9244e-07	9.7477e-07	275.29	78.23	59.938	17.998	1.008e-06	25.386	15.497	-12.851	-14.279	-104.823	33.763	18.105	-104.731	-97.516	-72.952	27.519	-97.903	-91.140	-90.870	-83.608	-59.295	-84.495	-8191	255	
444.828	1	1	0	0	0.036345	0.063017	0.076458	0.19131	0.035758	0.11641	0.098622	0.18283	0.23537	0.099632	0.058138	0.21498	0.047398	0.14658	0.022119	0.27077	-3.4375	-3.4271	-3.9	-3.7417	-3.9021	-4.0125	-3.6	-3.8563	-3.9021	-3.6125	-4.0437	-3.7313	-3.7188	-3.8979	-3.5917	-3.6375	-55.975	132.544	154.515	138.719	60.410	122.264	73.788	186.258	70.300	241.301	206.035	25.582	50.766	216.457	140.032	108.159	0.00031457	0.00018448	0.00010819	1064.2	1.4407e-06	3.277e-06	1119.7	226.03	3.8083e-06	1.2326e-06	282.64	79.403	62.782	18.254	4.3453e-06	25.782	9.1427e-05	8.9521e-05	2.4346e-05	1033.8	9.0671e-07	9.871e-07	1089.8	221.03	8.7473e-07	1.0002e-06	274.59	78.43	59.936	17.97	9.2071e-07	25.478	21.052	-57.726	-37.819	-104.604	72.452	11.386	-104.559	-97.513	8.306	38.264	-97.711	-91.455	-90.881	-83.612	-32.898	-84.433	-8191	255	
#DATA ENDS
