BOXY.EXE: ISS Imagent and Oximeter Data Acquisition Program Version 0.80
Ascii Record File

#ACQ INFORMATION
2  Detector Channels 
16  External MUX Channels 
1  Auxiliary Channels 
5000  Waveform (CCF) Frequency (Hz)
1  Waveforms Skipped 
30  Waveforms Averaged 
1  Cycles Averaged 
16  Acquisitions per Waveform 
10.0806  Updata Rate (Hz) 

#FILE INFORMATION
TRUE -- External MUX Channel results are PARSED.
FALSE -- AC DC and Phase are NOT grouped.
TRUE -- Companion Program Settings File CREATED.
FALSE -- AC data not excluded
FALSE -- DC data not excluded
FALSE -- Phase data not excluded
FALSE -- Auxillary Chn. data not excluded
Tab delimiters

#CALIBRATION STATE
TRUE -- Waveform Calibration Values APPLIED.


#AUX CALIBRATION VALUES
Val Type	aux-1	

Term	1.0000e+00	
Factor	0.0000e+00	


#WF CALIBRATION VALUES
A = Detector Channel
Val Type	A-AC1	A-AC2	A-AC3	A-AC4	A-AC5	A-AC6	A-AC7	A-AC8	A-AC9	A-AC10	A-AC11	A-AC12	A-AC13	A-AC14	A-AC15	A-AC16	A-DC1	A-DC2	A-DC3	A-DC4	A-DC5	A-DC6	A-DC7	A-DC8	A-DC9	A-DC10	A-DC11	A-DC12	A-DC13	A-DC14	A-DC15	A-DC16	A-Ph1	A-Ph2	A-Ph3	A-Ph4	A-Ph5	A-Ph6	A-Ph7	A-Ph8	A-Ph9	A-Ph10	A-Ph11	A-Ph12	A-Ph13	A-Ph14	A-Ph15	A-Ph16	

Term	0.00000e+00	0.00000e+00	0.00000e+00	0.00000e+00	0.00000e+00	0.00000e+00	0.00000e+00	0.00000e+00	0.00000e+00	0.00000e+00	0.00000e+00	0.00000e+00	0.00000e+00	0.00000e+00	0.00000e+00	0.00000e+00	0.00000e+00	0.00000e+00	0.00000e+00	0.00000e+00	0.00000e+00	0.00000e+00	0.00000e+00	0.00000e+00	0.00000e+00	0.00000e+00	0.00000e+00	0.00000e+00	0.00000e+00	0.00000e+00	0.00000e+00	0.00000e+00	0.00000e+00	0.00000e+00	0.00000e+00	0.00000e+00	0.00000e+00	0.00000e+00	0.00000e+00	0.00000e+00	0.00000e+00	0.00000e+00	0.00000e+00	0.00000e+00	0.00000e+00	0.00000e+00	0.00000e+00	0.00000e+00	
Factor	1.00000e+00	1.00000e+00	1.00000e+00	1.00000e+00	1.00000e+00	1.00000e+00	1.00000e+00	1.00000e+00	1.00000e+00	1.00000e+00	1.00000e+00	1.00000e+00	1.00000e+00	1.00000e+00	1.00000e+00	1.00000e+00	1.00000e+00	1.00000e+00	1.00000e+00	1.00000e+00	1.00000e+00	1.00000e+00	1.00000e+00	1.00000e+00	1.00000e+00	1.00000e+00	1.00000e+00	1.00000e+00	1.00000e+00	1.00000e+00	1.00000e+00	1.00000e+00	X	X	X	X	X	X	X	X	X	X	X	X	X	X	X	X	

B = Detector Channel
Val Type	B-AC1	B-AC2	B-AC3	B-AC4	B-AC5	B-AC6	B-AC7	B-AC8	B-AC9	B-AC10	B-AC11	B-AC12	B-AC13	B-AC14	B-AC15	B-AC16	B-DC1	B-DC2	B-DC3	B-DC4	B-DC5	B-DC6	B-DC7	B-DC8	B-DC9	B-DC10	B-DC11	B-DC12	B-DC13	B-DC14	B-DC15	B-DC16	B-Ph1	B-Ph2	B-Ph3	B-Ph4	B-Ph5	B-Ph6	B-Ph7	B-Ph8	B-Ph9	B-Ph10	B-Ph11	B-Ph12	B-Ph13	B-Ph14	B-Ph15	B-Ph16	

Term	0.00000e+00	0.00000e+00	0.00000e+00	0.00000e+00	0.00000e+00	0.00000e+00	0.00000e+00	0.00000e+00	0.00000e+00	0.00000e+00	0.00000e+00	0.00000e+00	0.00000e+00	0.00000e+00	0.00000e+00	0.00000e+00	0.00000e+00	0.00000e+00	0.00000e+00	0.00000e+00	0.00000e+00	0.00000e+00	0.00000e+00	0.00000e+00	0.00000e+00	0.00000e+00	0.00000e+00	0.00000e+00	0.00000e+00	0.00000e+00	0.00000e+00	0.00000e+00	-1.11490e+02	-1.44461e+02	-1.55614e+02	-1.82560e+02	-8.83846e+01	-8.59903e+01	-1.57864e+02	-1.62015e+02	-7.44826e+01	-8.66925e+01	-1.76690e+02	-1.75636e+02	-1.82239e+02	-1.78593e+02	-6.85138e+01	-1.50992e+02	
Factor	1.67491e-05	8.88375e-05	3.15935e-05	1.84768e-01	9.19831e-07	9.64287e-07	1.72038e-01	5.65733e-02	8.59285e-07	9.98274e-07	1.29398e-01	3.60063e-02	2.58074e-02	9.26987e-03	9.50100e-07	1.30507e-02	5.55320e-07	5.66512e-07	1.57662e-07	9.03898e-02	6.20192e-09	6.21277e-09	8.01144e-02	2.77038e-02	6.20157e-09	6.20332e-09	5.74342e-02	1.63539e-02	1.24459e-02	4.43695e-03	6.19588e-09	5.97847e-03	X	X	X	X	X	X	X	X	X	X	X	X	X	X	X	X	



#DISTANCE SETTINGS
A = Detector Channel
A-1	A-2	A-3	A-4	A-5	A-6	A-7	A-8	A-9	A-10	A-11	A-12	A-13	A-14	A-15	A-16	

2.5000e+00	3.0000e+00	2.5000e+00	3.0000e+00	2.0000e+00	3.0000e+00	1.5000e+00	3.0000e+00	3.0000e+00	3.0000e+00	3.0000e+00	3.0000e+00	3.0000e+00	3.0000e+00	1.5000e+00	3.0000e+00	

B = Detector Channel
B-1	B-2	B-3	B-4	B-5	B-6	B-7	B-8	B-9	B-10	B-11	B-12	B-13	B-14	B-15	B-16	

1.0000e+01	1.0000e+01	1.0000e+01	1.4400e+00	1.0000e+01	1.0000e+01	1.5100e+00	1.9400e+00	1.0000e+01	1.0000e+01	1.9900e+00	2.4900e+00	2.4100e+00	2.9000e+00	1.0000e+01	2.9800e+00	




#DATA BEGINS
time	group	step	mark	flag	A-AC1	A-AC2	A-AC3	A-AC4	A-AC5	A-AC6	A-AC7	A-AC8	A-AC9	A-AC10	A-AC11	A-AC12	A-AC13	A-AC14	A-AC15	A-AC16	A-DC1	A-DC2	A-DC3	A-DC4	A-DC5	A-DC6	A-DC7	A-DC8	A-DC9	A-DC10	A-DC11	A-DC12	A-DC13	A-DC14	A-DC15	A-DC16	A-Ph1	A-Ph2	A-Ph3	A-Ph4	A-Ph5	A-Ph6	A-Ph7	A-Ph8	A-Ph9	A-Ph10	A-Ph11	A-Ph12	A-Ph13	A-Ph14	A-Ph15	A-Ph16	B-AC1	B-AC2	B-AC3	B-AC4	B-AC5	B-AC6	B-AC7	B-AC8	B-AC9	B-AC10	B-AC11	B-AC12	B-AC13	B-AC14	B-AC15	B-AC16	B-DC1	B-DC2	B-DC3	B-DC4	B-DC5	B-DC6	B-DC7	B-DC8	B-DC9	B-DC10	B-DC11	B-DC12	B-DC13	B-DC14	B-DC15	B-DC16	B-Ph1	B-Ph2	B-Ph3	B-Ph4	B-Ph5	B-Ph6	B-Ph7	B-Ph8	B-Ph9	B-Ph10	B-Ph11	B-Ph12	B-Ph13	B-Ph14	B-Ph15	B-Ph16	aux-1	digaux	

1087.758	1	1	0	768	0.36309	0.087273	0.069258	0.20513	0.26344	0.1407	0.3059	0.045337	0.15071	0.10621	0.32493	0.073479	0.15551	0.22559	0.077223	0.086574	-2.5042	-3.2521	-3.1729	-2.6583	-3.4729	-2.9938	-2.9333	-3.5708	-2.6604	-3.2667	-3.4583	-2.8625	-3.6021	-3.2062	-2.7521	-3.5604	296.139	82.751	113.873	295.822	91.526	288.230	262.441	-22.991	-18.324	74.381	153.020	16.769	319.608	237.033	210.697	214.865	0.00026183	0.00065882	0.00042247	1391	1.2766e-06	1.6956e-05	1374.8	375.67	8.5762e-06	6.968e-06	423.96	139.94	121.36	41.011	6.9335e-06	51.426	0.0027371	0.002781	0.00077221	1760.4	3.0074e-05	3.0036e-05	1706.9	488.37	2.9521e-05	2.9517e-05	650.76	205.23	172.01	59.002	2.9331e-05	75.511	138.514	258.768	324.204	-16.352	212.139	98.788	-15.959	-11.618	73.206	107.686	-11.944	-7.560	-7.149	-2.633	76.212	-3.071	-8191	255	
1087.854	1	1	0	0	0.16362	0.16428	0.010842	0.027678	0.13398	0.24551	0.14818	0.234	0.051011	0.15346	0.086386	0.067454	0.20829	0.043701	0.055	0.17707	-2.3292	-3.0833	-3.4167	-2.7979	-3.4604	-3.2979	-2.9083	-3.5958	-2.9625	-3.0312	-3.5604	-2.8063	-3.4354	-3.4042	-2.6792	-3.525	-21.498	262.440	277.578	318.857	-29.238	267.327	252.795	248.338	251.837	194.735	256.093	317.739	209.808	202.903	305.752	72.313	0.00018886	0.00082251	0.00030761	1385	5.8482e-06	8.8215e-06	1376.7	376.7	4.6289e-06	1.0485e-05	427.83	138.8	122.9	41.093	1.1222e-05	51.586	0.0026429	0.0026846	0.00074999	1744.3	2.9436e-05	2.9552e-05	1700	487.51	2.9323e-05	2.9457e-05	650.3	204.74	171.7	58.74	2.9088e-05	75.356	180.854	10.319	35.034	-16.059	114.516	132.095	-16.081	-11.371	265.877	224.325	-12.064	-7.294	-6.951	-2.966	-21.607	-3.380	-8191	255	
1087.950	1	1	0	0	0.29639	0.15535	0.29596	0.15584	0.063838	0.18115	0.19534	0.26404	0.29502	0.29381	0.16791	0.24674	0.2236	0.21463	0.13863	0.14505	-2.4396	-2.6833	-3.375	-2.7833	-3.0958	-3.2896	-2.8208	-3.6958	-3.1937	-2.7979	-3.5854	-2.7104	-3.2292	-3.3521	-2.5854	-3.4375	303.034	69.806	153.411	16.319	327.814	288.939	287.890	220.735	4.303	189.354	327.314	33.118	261.849	-16.892	92.875	165.850	0.00011112	0.0013682	0.00022031	1379.8	8.708e-06	4.8563e-06	1381.8	376.12	1.4342e-05	1.6145e-05	427.08	139.16	121.36	40.983	9.4445e-06	51.671	0.0026269	0.0026803	0.00075025	1745.3	2.9692e-05	2.9797e-05	1703.8	489.58	2.987e-05	3.0023e-05	657.04	206.85	173.01	59.394	3.0002e-05	76.051	222.995	282.617	-19.631	-16.106	195.817	329.859	-16.122	-11.568	119.476	211.822	-12.315	-7.285	-6.909	-2.380	-0.323	-3.325	-8191	255	
1088.047	1	1	0	0	0.26461	0.28678	0.18377	0.10251	0.14624	0.072618	0.1258	0.15244	0.078417	0.21983	0.20289	0.27354	0.11126	0.16602	0.182	0.24406	-2.7396	-2.8458	-3.5312	-2.9625	-3.2396	-3.3042	-2.7875	-3.4813	-2.9521	-2.8167	-3.6688	-2.8542	-3.2208	-3.6667	-2.775	-3.5438	100.473	62.091	253.599	78.831	73.167	31.533	293.328	-28.323	166.659	215.167	299.831	325.721	26.231	291.342	121.106	132.127	0.00025789	0.00092918	0.0001811	1391.5	1.5387e-05	4.3146e-06	1371.3	376.3	3.2704e-06	4.1997e-06	427.11	140.07	121.32	41.159	1.7961e-05	51.815	0.0026939	0.0027483	0.00076528	1753.7	3.0049e-05	3.0147e-05	1706.2	490.3	3.0058e-05	3.0195e-05	658.51	207.3	173.48	59.587	3.0019e-05	76.193	185.480	41.495	11.822	-15.965	235.075	322.627	-15.828	-11.103	297.988	29.162	-11.721	-7.080	-6.454	-2.343	170.025	-2.700	-8191	255	
1088.141	1	1	0	0	0.040952	0.21076	0.28122	0.11906	0.1413	0.14125	0.23879	0.11362	0.07004	0.067967	0.15437	0.1488	0.32409	0.076259	0.18788	0.075813	-2.7896	-2.8083	-3.5521	-3.0479	-2.9521	-3.3875	-2.9833	-3.4938	-3.1229	-2.6896	-3.6375	-2.9792	-3.0167	-3.4875	-2.7646	-3.4083	160.350	279.983	46.526	298.058	32.773	34.998	275.698	-4.536	304.524	10.972	171.938	-28.525	264.265	138.327	277.485	32.762	0.00035077	0.0014261	0.00018996	1385.9	8.8505e-06	1.7164e-05	1372.6	375.85	8.1407e-06	1.0299e-05	427.4	138.89	121.94	40.949	1.0889e-05	51.979	0.0026954	0.0027367	0.00076055	1750.5	2.9759e-05	2.9861e-05	1701	489.12	2.9779e-05	2.991e-05	656.49	206.2	173.05	59.274	2.9839e-05	75.96	136.785	105.780	49.409	-15.934	171.785	46.955	-15.461	-10.831	129.044	210.224	-11.555	-6.713	-6.275	-1.910	196.619	-2.704	-8191	255	
1088.237	1	1	0	0	0.056505	0.17373	0.11686	0.42298	0.1171	0.15377	0.13989	0.019811	0.27223	0.19278	0.14205	0.057132	0.27266	0.34705	0.15841	0.18018	-2.8688	-2.4562	-3.3979	-3.1333	-2.8958	-3.5729	-2.8083	-3.3917	-3.2729	-2.8438	-3.7167	-3.1354	-2.9521	-3.5583	-2.6292	-3.1979	254.746	82.702	248.692	305.165	327.870	283.845	254.701	19.399	219.453	-18.898	291.808	246.465	312.674	257.107	248.526	182.261	0.00037973	0.00048725	0.00028833	1388.3	8.7161e-06	4.8654e-06	1374.7	375.57	3.9408e-06	5.2838e-06	428.21	138.94	121.15	40.983	1.7645e-05	51.543	0.0026641	0.0027189	0.00075843	1750.1	2.9771e-05	2.991e-05	1702.5	489.38	2.9844e-05	2.9825e-05	656.16	206.1	172.36	59.058	2.9356e-05	75.431	148.540	313.683	216.683	-15.366	42.103	303.395	-15.498	-10.641	-8.425	111.670	-10.912	-6.743	-5.950	-1.381	81.211	-2.142	-8191	255	
1088.358	1	1	0	0	0.042159	0.10431	0.19452	0.17665	0.091629	0.11523	0.30431	0.2727	0.09945	0.28264	0.25331	0.21801	0.31151	0.28354	0.3272	0.21006	-3.0208	-2.5042	-3.2833	-3.35	-2.8	-3.5104	-3.1	-3.2917	-3.5312	-2.6979	-3.3312	-3.3396	-2.9229	-3.5417	-2.95	-3.1083	294.748	320.649	169.806	304.271	117.341	103.132	295.925	277.784	260.124	301.224	311.768	315.024	304.987	284.519	232.912	301.346	0.00016293	0.001718	0.00032556	1385	8.1288e-06	9.8871e-06	1370.2	374.73	3.5008e-06	1.0507e-05	429.71	139.56	121.35	41.22	1.3444e-05	51.414	0.0026142	0.0026594	0.00073763	1732.4	2.8834e-05	2.8896e-05	1686.4	483.99	2.8764e-05	2.8872e-05	646.94	203.99	171.3	58.914	2.9217e-05	75.416	186.743	69.568	122.083	-15.253	70.623	272.354	-15.332	-10.804	264.461	193.942	-11.445	-7.059	-6.484	-2.140	180.712	-2.239	-8191	255	
1088.454	1	1	0	0	0.20632	0.29165	0.26709	0.097947	0.28301	0.21586	0.47032	0.18637	0.18973	0.12904	0.16325	0.035642	0.088312	0.087262	0.04917	0.064412	-3.0958	-2.7083	-3.2438	-3.4271	-2.7521	-3.4896	-3.0333	-3.0938	-3.5229	-2.7521	-3.3812	-3.3104	-2.9604	-3.6958	-2.9333	-2.9104	169.327	129.837	-12.018	230.282	174.146	328.659	268.544	237.174	132.552	6.220	276.601	311.151	278.835	306.248	243.357	62.379	0.00030689	0.00010815	0.00022165	1381.8	9.7377e-06	1.8359e-05	1371.9	375.11	5.5534e-06	5.0263e-06	427.84	138.69	121.83	41.015	2.5629e-06	51.579	0.0026435	0.0026927	0.00075046	1742.6	2.9594e-05	2.9691e-05	1700.1	487.89	2.9759e-05	2.9894e-05	656.16	206.51	173.44	59.507	3.0171e-05	76.391	144.508	56.464	31.269	-15.810	271.722	331.279	-15.304	-10.590	276.761	141.976	-11.641	-6.902	-6.505	-2.091	57.102	-2.961	-8191	255	
1088.550	1	1	0	0	0.25664	0.16066	0.12878	0.0422	0.18218	0.10746	0.31831	0.15865	0.21921	0.14475	0.24692	0.12605	0.16399	0.25835	0.12837	0.35178	-3.0792	-2.6979	-3.3417	-3.6562	-2.6042	-3.5479	-3.1771	-3.1188	-3.5187	-2.8979	-3.375	-3.4958	-2.75	-3.4646	-2.9813	-2.6625	22.546	220.262	43.835	277.590	196.675	183.777	195.416	173.916	321.651	139.976	301.748	146.488	256.064	-11.224	-21.289	267.819	0.00027154	0.00045354	0.00045881	1390.2	1.4865e-05	1.2297e-05	1373.3	377.42	3.5323e-06	6.3696e-06	431.55	139.37	121.67	41.268	4.4998e-06	51.723	0.0027291	0.0027841	0.00077943	1763.6	3.066e-05	3.0837e-05	1715.1	494.02	3.0683e-05	3.0746e-05	663.4	208.27	174.51	59.757	3.0313e-05	76.431	96.939	211.191	18.903	-15.910	154.576	119.155	-15.911	-10.967	119.771	88.448	-11.634	-6.962	-6.635	-2.311	189.400	-2.927	-8191	255	
1088.646	1	1	0	0	0.14862	0.027251	0.072611	0.07701	0.1663	0.17929	0.22177	0.29183	0.059487	0.21726	0.3025	0.062223	0.2785	0.15655	0.058625	0.017458	-3.1583	-2.7687	-3.1958	-3.7875	-2.7583	-3.3812	-3.2625	-2.8875	-3.4083	-2.6083	-3.1188	-3.4188	-2.6937	-3.4583	-3.2646	-2.7	275.525	281.552	-28.999	260.851	189.058	66.002	312.884	272.219	219.059	9.989	278.137	321.343	22.050	321.617	181.045	108.939	7.6422e-05	0.00075944	0.00042409	1384.2	7.0708e-06	9.257e-06	1376.2	376.65	5.667e-06	2.2711e-06	425.99	139.8	121.46	41.06	3.3955e-06	51.639	0.002711	0.002759	0.00076941	1754.9	3.0247e-05	3.0398e-05	1709.1	491.73	3.0269e-05	3.0201e-05	659.04	207.2	173.11	59.556	2.9996e-05	76.148	139.845	202.101	268.628	-15.805	205.246	104.699	-15.858	-11.221	32.768	-17.388	-11.603	-7.289	-6.848	-2.338	-26.666	-2.810	-8191	255	
1088.742	1	1	0	0	0.039711	0.44519	0.19787	0.073632	0.19325	0.02805	0.25351	0.17193	0.24955	0.17567	0.10193	0.1679	0.20608	0.10802	0.10813	0.18744	-3.0583	-2.8438	-2.9771	-3.5979	-2.7521	-3.2208	-3.4813	-2.6792	-3.5812	-2.8479	-2.9042	-3.5646	-2.8146	-3.4458	-3.3708	-2.7021	188.562	145.478	0.017	250.517	-8.445	163.549	235.407	-21.118	6.397	239.943	6.635	238.439	257.954	253.055	14.328	309.456	0.00045399	0.0014409	0.00019318	1386	5.3916e-06	8.4395e-06	1371.2	375.36	5.6243e-06	1.1283e-05	429.39	140.24	120.84	41.162	3.097e-06	51.344	0.0026895	0.0027412	0.00076137	1753.7	2.9971e-05	3.0003e-05	1704.4	489.7	2.9802e-05	2.9735e-05	653.88	205.3	171.66	58.954	2.9122e-05	75.149	163.969	30.138	47.098	-15.955	196.845	59.815	-16.140	-11.315	184.978	217.265	-11.691	-7.442	-6.842	-2.192	166.019	-2.711	-8191	255	
1088.838	1	1	0	0	0.1731	0.15946	0.30627	0.28138	0.21167	0.12439	0.093727	0.032239	0.11451	0.22071	0.1848	0.14131	0.057414	0.22627	0.27894	0.19444	-3.1875	-2.9292	-2.7542	-3.5208	-2.7479	-3.1312	-3.4875	-2.7979	-3.4188	-3.1396	-2.8208	-3.5875	-3.0187	-3.1458	-3.4396	-2.7687	26.099	8.580	274.208	283.137	316.990	176.520	317.643	147.169	-2.037	32.858	6.764	306.171	186.458	296.838	-0.467	24.889	0.00037208	0.00034424	6.3873e-05	1382.1	5.4484e-06	8.4416e-06	1373.5	373.78	2.0693e-05	1.3404e-05	427.52	139.5	121.35	40.99	6.9997e-06	51.724	0.0026114	0.0026453	0.00073667	1734.9	2.8881e-05	2.8989e-05	1688.5	484.09	2.8762e-05	2.8656e-05	642.29	202.51	169.87	58.151	2.8239e-05	74.304	150.662	318.109	160.008	-16.008	147.489	215.512	-15.921	-11.196	110.532	315.758	-11.793	-7.516	-7.004	-2.448	281.127	-3.178	-8191	255	
1088.935	1	1	0	0	0.11345	0.14082	0.065008	0.12478	0.027677	0.14694	0.23026	0.26329	0.22253	0.12424	0.13705	0.062321	0.097602	0.19455	0.2211	0.34253	-2.8146	-3.1271	-2.8125	-3.7167	-3.0396	-2.8854	-3.6813	-2.7167	-3.3917	-3.2896	-2.8458	-3.4813	-3.1667	-3.0438	-3.6188	-2.7896	242.988	83.681	258.573	294.673	260.622	-12.682	221.653	243.171	92.356	200.953	139.709	301.184	163.378	222.119	72.270	324.535	0.00026681	0.00035501	0.00038572	1387.3	2.489e-06	6.9892e-06	1368.4	374.57	1.2829e-05	1.5574e-05	425.93	139.46	121.35	40.957	9.6526e-06	51.365	0.002535	0.0025748	0.00071795	1723.6	2.8117e-05	2.813e-05	1674.7	480.25	2.7925e-05	2.793e-05	636.4	200.91	168.65	57.765	2.7974e-05	74.086	214.484	230.404	327.974	-15.992	-16.669	8.488	-16.145	-11.729	159.990	143.614	-12.154	-7.485	-7.041	-2.611	122.163	-3.103	-8191	255	
1089.053	1	1	0	0	0.23299	0.23387	0.23484	0.1788	0.1491	0.16803	0.16364	0.13612	0.14407	0.096946	0.28763	0.26548	0.12051	0.090288	0.1537	0.19976	-2.9896	-3.2958	-2.7	-3.4417	-3.0146	-2.9042	-3.7021	-2.8917	-3.1	-3.3896	-2.7938	-3.5604	-3.2646	-2.8771	-3.4979	-2.8854	59.618	3.756	73.300	20.781	205.514	272.176	301.094	248.734	75.999	28.100	201.337	322.642	136.235	253.783	205.704	230.648	0.00024939	0.00058334	0.00011424	1382.2	1.0904e-05	5.4098e-06	1373.1	376.13	7.1534e-06	3.9423e-06	428.33	138.44	121.2	40.919	6.771e-06	51.318	0.0025232	0.0025743	0.00071914	1723.7	2.8162e-05	2.8225e-05	1677.3	481.61	2.799e-05	2.795e-05	637.39	200.86	168.52	57.803	2.7872e-05	73.961	114.408	35.910	268.260	-16.184	22.831	243.402	-15.851	-11.362	135.051	282.468	-11.970	-7.586	-6.775	-2.599	41.941	-2.991	-8191	255	
1089.150	1	1	0	0	0.1382	0.26856	0.18718	0.26038	0.1729	0.38154	0.36664	0.38429	0.077431	0.1352	0.17738	0.15636	0.070893	0.19683	0.2753	0.22197	-2.8688	-3.2771	-2.55	-3.65	-3.0958	-2.8187	-3.6458	-2.9146	-3.0542	-3.3125	-2.7771	-3.5708	-3.2938	-2.7833	-3.3771	-3.025	-26.559	30.964	51.573	260.771	15.093	175.226	293.685	240.430	288.157	107.222	142.262	241.140	-27.014	3.037	23.343	-15.336	0.00037948	0.0020173	0.00023333	1386.3	1.639e-05	1.1374e-05	1372.8	374.46	1.1992e-05	1.0495e-05	425.66	138.64	121.24	40.873	6.3299e-06	51.501	0.0025211	0.0025742	0.0007178	1723.5	2.8207e-05	2.8372e-05	1681.8	481.74	2.8167e-05	2.8292e-05	639.92	202.01	169.57	58.198	2.8492e-05	74.635	177.046	106.850	19.406	-16.209	214.776	123.927	-16.041	-11.347	84.009	117.181	-11.732	-7.930	-7.035	-2.726	43.107	-3.256	-8191	255	
1089.246	1	1	0	0	0.030594	0.064404	0.17245	0.2019	0.20019	0.077013	0.18572	0.084154	0.27751	0.20121	0.040148	0.20594	0.13487	0.15586	0.16768	0.19182	-2.675	-3.3896	-2.8875	-3.2625	-3.3063	-2.775	-3.7729	-3.1917	-2.825	-3.6	-2.9313	-3.3354	-3.5563	-2.8667	-3.3146	-3.0771	79.481	228.813	260.437	250.433	203.039	75.254	248.585	323.870	6.263	-21.866	251.574	271.685	50.614	259.250	32.532	126.738	0.00033553	0.00062264	0.00018787	1382.9	6.8107e-06	1.7803e-05	1373.2	375.12	6.8705e-06	8.7434e-06	428.69	139.64	121.73	41.123	1.0934e-05	51.403	0.002566	0.0026142	0.00072872	1729.1	2.8592e-05	2.8851e-05	1690.3	485.82	2.9124e-05	2.9212e-05	648.11	204.01	170.74	58.536	2.8701e-05	74.634	223.257	156.335	52.893	-16.109	323.891	152.417	-16.287	-11.702	75.978	279.449	-12.143	-7.697	-7.169	-2.870	249.072	-3.210	-8191	255	
1089.319	1	1	0	0	0.15757	0.27293	0.23757	0.17809	0.29507	0.068408	0.23907	0.18854	0.20764	0.04117	0.12247	0.1503	0.40406	0.34751	0.077023	0.10346	-2.35	-3.3542	-2.5917	-3.3917	-3.3896	-2.6271	-3.65	-3.3812	-2.6271	-3.4229	-2.8854	-3.1542	-3.3958	-2.7479	-3.2625	-3.1729	129.497	172.314	168.890	237.374	68.577	219.455	-1.385	246.362	237.098	212.798	129.077	-0.139	299.375	64.302	314.339	73.127	0.00020453	0.00085256	0.00030852	1385.8	7.2807e-06	1.2761e-05	1370.1	375.11	5.5802e-06	5.4548e-06	429	140.14	121.15	40.983	4.6192e-06	51.467	0.0025647	0.0026034	0.00072563	1728.8	2.867e-05	2.8932e-05	1689.8	485.69	2.9251e-05	2.9398e-05	651.32	206.14	172.61	59.229	2.9806e-05	75.774	116.077	127.284	33.190	-16.237	102.507	229.211	-16.522	-11.821	163.613	256.532	-12.268	-7.761	-7.350	-2.818	233.906	-3.403	-8191	255	
1089.438	1	1	0	0	0.12676	0.14042	0.15499	0.10819	0.27449	0.074038	0.21121	0.48931	0.1939	0.28123	0.12805	0.16763	0.19367	0.1021	0.096002	0.099906	-2.3146	-3.4771	-2.875	-3.1375	-3.3625	-2.7792	-3.5979	-3.3875	-2.7667	-3.6063	-2.8688	-3.0271	-3.4771	-2.8958	-3.4875	-3.3104	191.418	209.983	246.198	264.723	-26.700	286.683	265.778	249.715	-28.754	322.567	186.360	3.305	-21.511	220.334	75.644	294.460	9.2641e-05	0.0021024	0.00015143	1390.8	6.6512e-06	2.8677e-06	1375.7	374.82	1.0974e-05	4.9582e-06	428.6	139.11	122.1	41.088	8.845e-06	51.493	0.0026818	0.002735	0.00075715	1749	2.9732e-05	2.9778e-05	1702	488.75	2.9771e-05	2.9927e-05	657.14	206.88	173.26	59.404	3.0086e-05	76.228	166.326	261.170	294.078	-16.344	257.927	252.102	-16.369	-11.747	115.098	50.203	-12.510	-7.757	-7.496	-3.007	124.271	-3.324	-8191	255	
1089.534	1	1	0	0	0.10505	0.24792	0.17216	0.13066	0.14865	0.13054	0.099612	0.27607	0.27675	0.077347	0.10632	0.29589	0.048331	0.27557	0.059913	0.35447	-2.3042	-3.3104	-2.8312	-3.125	-3.5604	-2.7833	-3.4167	-3.4917	-2.8812	-3.4833	-2.9792	-3.0396	-3.7021	-2.8771	-3.1646	-3.425	215.499	41.169	-6.358	327.986	45.590	143.314	256.812	252.537	124.525	56.000	329.744	229.858	313.201	321.180	95.846	224.833	0.00030337	0.00039122	0.00018215	1386.8	8.0937e-06	2.4279e-05	1372	376.67	1.9431e-05	2.0742e-05	428.32	138.68	121.18	41.102	9.4065e-06	51.568	0.002705	0.0027473	0.00076421	1752.6	2.9954e-05	3.0067e-05	1704.1	489.75	2.9785e-05	2.9963e-05	655.88	206.52	173.08	59.439	3e-05	76.242	61.920	101.916	32.092	-16.313	223.090	113.774	-16.386	-11.830	217.583	77.955	-12.763	-7.806	-7.297	-3.185	222.596	-3.603	-8191	255	
1089.630	1	1	0	0	0.10197	0.23011	0.19866	0.28194	0.33604	0.11471	0.21151	0.17663	0.20615	0.16667	0.27871	0.064682	0.35672	0.091055	0.19907	0.15486	-2.3875	-3.3625	-3.0042	-2.8229	-3.6063	-2.6875	-3.3438	-3.6354	-2.6937	-3.3	-3.1646	-2.8563	-3.6708	-2.8937	-3.0521	-3.5479	92.851	151.251	50.474	323.806	261.252	106.183	240.252	302.260	10.641	39.160	230.498	24.883	324.132	296.837	154.249	71.014	0.00025062	0.00083236	0.00013808	1391.6	8.9503e-06	4.6312e-06	1376.4	375.9	1.3677e-05	1.1548e-05	426.07	138.79	121.22	41.083	2.783e-06	51.448	0.0027095	0.002762	0.00077072	1759	3.0283e-05	3.0483e-05	1715.3	492.75	3.0535e-05	3.0692e-05	662.9	208.62	174.55	59.895	3.0591e-05	76.693	58.993	266.292	87.049	-16.409	155.208	145.394	-16.555	-11.985	113.761	146.379	-12.686	-7.899	-7.153	-3.007	302.003	-3.738	-8191	255	
1089.751	1	1	0	0	0.068634	0.24036	0.071223	0.34004	0.12869	0.1107	0.091204	0.1367	0.12801	0.21981	0.20865	0.050998	0.13205	0.16944	0.26059	0.077856	-2.1813	-3.3417	-3.275	-2.9521	-3.3354	-2.8729	-3.3417	-3.6562	-2.6667	-3.2833	-3.1958	-2.775	-3.575	-3.0062	-2.8958	-3.4375	219.889	317.622	313.382	252.644	35.313	41.029	274.860	127.348	53.818	-11.975	13.270	-23.261	21.264	62.839	305.445	18.034	0.00032658	0.00061274	0.00034619	1383.1	5.3846e-06	9.0236e-06	1382.2	376.64	1.1641e-05	8.7997e-06	425.55	139.66	122.17	41.102	1.4871e-05	51.293	0.0027396	0.0027911	0.00077634	1760.5	3.0451e-05	3.0616e-05	1716.1	493.36	3.034e-05	3.0399e-05	659.9	207.76	174.05	59.616	3.0213e-05	76.274	169.496	135.884	300.715	-16.411	-12.435	283.042	-16.441	-11.937	167.388	169.798	-12.625	-8.397	-7.657	-2.810	189.393	-3.590	-8191	255	
1089.845	1	1	0	0	0.19821	0.19032	0.19386	0.3962	0.018393	0.19554	0.18661	0.26176	0.11059	0.019735	0.096415	0.24604	0.28992	0.062849	0.26015	0.34167	-2.2354	-3.2167	-3.3	-2.8042	-3.4562	-2.9583	-2.9938	-3.6188	-2.6979	-3.3083	-3.2771	-2.7833	-3.3812	-3.1562	-2.8958	-3.5375	87.013	169.017	270.965	286.587	89.878	31.653	234.437	310.480	-29.752	151.721	317.015	313.740	-17.922	153.173	276.074	205.922	0.0001412	0.0013154	0.00062337	1382.9	1.3074e-05	7.3786e-06	1377.6	376.82	8.2804e-06	9.1239e-06	426.32	139.39	121.53	41.145	1.1792e-05	51.761	0.0027077	0.0027561	0.00076542	1752.8	2.9829e-05	2.9744e-05	1701.1	488.06	2.936e-05	2.9282e-05	649.08	204.36	171.46	58.98	2.9314e-05	75.605	74.448	38.233	225.111	-16.433	156.602	324.063	-16.535	-12.004	175.681	85.669	-12.590	-8.000	-7.400	-2.989	269.351	-3.771	-8191	255	
1089.919	1	1	0	0	0.24237	0.040985	0.046036	0.49223	0.12725	0.34455	0.21946	0.078989	0.18183	0.15388	0.16523	0.071926	0.17452	0.11087	0.1339	0.0027444	-2.3667	-3.0312	-3.4688	-2.8375	-3.4708	-3.0687	-3.0167	-3.6104	-2.9333	-3.1292	-3.6833	-2.9875	-3.4229	-3.2562	-2.8833	-3.6396	94.082	307.323	197.528	286.968	162.303	194.354	296.943	141.922	107.698	307.850	271.468	268.769	278.065	262.562	143.060	264.307	1.4927e-05	0.0010706	0.00023679	1382	1.9589e-05	1.8258e-05	1372.8	374.82	1.5352e-05	7.9278e-06	428.37	139.92	121.44	40.922	8.1179e-06	51.52	0.0026556	0.0027102	0.00075844	1750.3	2.9941e-05	3.008e-05	1708.3	490.02	2.9909e-05	2.9996e-05	655.31	206.55	172.36	59.024	2.9507e-05	75.518	-10.719	37.118	-10.417	-16.549	45.439	-24.988	-16.399	-11.811	168.072	106.313	-12.407	-7.796	-7.352	-3.002	2.354	-3.833	-8191	255	
1090.039	1	1	0	0	0.22374	0.17581	0.26035	0.12106	0.28267	0.26375	0.19837	0.06548	0.13692	0.15415	0.17224	0.16033	0.083592	0.05596	0.069426	0.11599	-2.6396	-3.1479	-3.6521	-2.7708	-3.4167	-3.2417	-2.8521	-3.5333	-2.9333	-2.6667	-3.5667	-2.8375	-3.3563	-3.45	-2.5438	-3.3354	309.972	95.394	-6.043	36.377	228.578	61.615	294.046	64.315	265.375	304.273	317.407	49.220	135.586	-20.559	278.047	188.115	0.00016372	0.00057262	0.00034412	1385.7	9.7108e-06	8.8517e-06	1376.3	374.34	4.477e-06	1.4765e-05	428.18	138.29	121.82	41.001	8.2484e-06	51.531	0.0026478	0.0026981	0.0007538	1746.9	2.9656e-05	2.9767e-05	1702.1	488.76	2.9595e-05	2.9679e-05	654.06	205.58	172.62	59.175	2.9567e-05	75.622	201.139	107.459	261.286	-16.534	220.290	138.302	-16.408	-11.864	114.234	101.350	-12.281	-8.011	-7.499	-3.261	230.779	-4.075	-8191	255	
1090.134	1	1	0	0	0.097717	0.097214	0.11231	0.1224	0.082646	0.038044	0.1664	0.12305	0.22364	0.18	0.11045	0.17707	0.11481	0.16834	0.26456	0.18595	-2.6354	-2.9667	-3.4646	-3.1042	-3.0271	-3.5208	-2.95	-3.6042	-2.9813	-2.8438	-3.8063	-3.0062	-3.1042	-3.5583	-2.6312	-3.5042	294.396	113.717	30.293	260.330	166.520	130.141	305.728	325.545	93.403	186.813	27.878	46.130	117.326	177.123	-9.160	290.622	0.00024951	0.0009028	0.00014655	1387.8	6.1163e-06	1.1911e-05	1374.2	374.33	9.8268e-07	7.5695e-06	426.69	138.57	120.83	40.948	1.8904e-05	51.668	0.002668	0.0027159	0.00075468	1746.5	2.9619e-05	2.9587e-05	1699.2	488.03	2.9453e-05	2.9697e-05	654.37	205.95	172.92	59.329	2.9797e-05	76.107	189.877	176.898	29.057	-16.436	186.207	184.105	-16.381	-11.826	197.649	236.498	-12.596	-7.601	-7.304	-3.399	85.343	-3.491	-8191	255	
1090.230	1	1	0	0	0.23529	0.17456	0.095405	0.29553	0.17065	0.079532	0.40488	0.25179	0.21657	0.211	0.10862	0.29539	0.15813	0.14409	0.16643	0.049452	-2.7604	-2.7167	-3.3896	-2.9771	-2.9437	-3.3833	-2.9958	-3.4042	-3.1667	-2.7604	-3.3771	-3.0021	-3.1229	-3.5896	-2.8	-3.3625	261.972	251.010	246.544	286.192	24.738	79.193	254.096	263.746	-6.221	260.902	277.210	198.056	295.383	327.152	246.174	221.304	0.0004271	0.0012679	0.00012615	1384.3	1.1786e-05	8.6386e-06	1369.1	376.38	4.1542e-06	8.5322e-06	424.92	139.82	121.48	41.078	8.534e-06	51.645	0.0026694	0.0027221	0.00075438	1746.1	2.9541e-05	2.9676e-05	1698.8	487.77	2.9267e-05	2.9446e-05	651.35	205.25	172.1	59.098	2.9459e-05	75.522	168.955	9.137	231.482	-16.310	32.581	61.692	-16.218	-11.897	86.439	154.486	-11.976	-7.755	-7.613	-3.152	227.534	-3.645	-8191	255	
1090.351	1	1	0	0	0.12354	0.22103	0.23429	0.059528	0.044349	0.15094	0.27318	0.15879	0.023972	0.21507	0.13539	0.27165	0.11585	0.16154	0.069399	0.31502	-3.0083	-2.7646	-3.4521	-3.2562	-2.9062	-3.4042	-2.8229	-3.4354	-3.2792	-2.7479	-3.5229	-2.9896	-2.8958	-3.5354	-2.7313	-3.3	240.685	-24.813	-24.817	38.184	39.028	275.170	287.381	285.264	-19.223	229.076	313.350	159.486	57.303	313.445	11.741	276.794	0.00027803	0.00053888	0.0002751	1386	1.8215e-05	1.4805e-05	1373.3	375.15	1.4338e-05	2.4922e-05	428.29	139.99	121.52	41.162	1.1915e-05	51.749	0.0026545	0.002699	0.00075385	1745.5	2.9778e-05	2.9943e-05	1702.9	489.72	2.9784e-05	2.9915e-05	654.67	206.08	172.42	59.109	2.9431e-05	75.583	172.832	98.675	259.412	-16.605	130.362	118.845	-16.566	-11.721	232.389	143.830	-12.423	-7.550	-7.386	-2.790	122.645	-3.559	-8191	255	
1090.447	1	1	0	0	0.23849	0.28464	0.22013	0.14729	0.15797	0.37005	0.18802	0.29003	0.22378	0.12838	0.30383	0.19185	0.23921	0.108	0.2123	0.25968	-3.1562	-2.6604	-3.3375	-3.3625	-2.7396	-3.4396	-2.9979	-3	-3.3333	-2.5938	-3.3167	-3.2062	-2.6562	-3.5792	-2.6958	-2.9188	206.240	36.926	321.545	305.122	117.217	202.382	317.189	224.501	248.283	23.248	316.766	291.390	268.574	293.146	212.014	246.032	2.7986e-05	0.00016611	0.00056241	1384.7	1.3302e-05	2.0122e-06	1375.5	376.57	1.8687e-05	2.0033e-05	428.16	139.14	121.97	41.12	6.9416e-06	51.684	0.0026389	0.0026931	0.00075	1742.9	2.9527e-05	2.9779e-05	1702.4	491.16	3.0218e-05	3.0518e-05	663.45	208.91	175.04	60.291	3.1102e-05	77.21	176.021	221.229	119.308	-16.392	96.436	102.138	-16.201	-11.664	68.669	14.857	-11.983	-8.005	-7.182	-2.770	-14.204	-3.511	-8191	255	
1090.543	1	1	0	0	0.30968	0.17486	0.12362	0.087048	0.1679	0.073313	0.29806	0.32714	0.25079	0.25847	0.24651	0.14025	0.2488	0.22536	0.088935	0.139	-3.0958	-2.6	-3.3208	-3.4021	-2.6667	-3.4792	-3.0396	-3.0958	-3.5312	-2.6521	-3.2646	-3.1583	-2.725	-3.5604	-2.8396	-3.0896	274.627	263.429	13.076	105.371	107.259	98.883	252.472	264.290	287.611	7.842	6.319	262.323	262.577	325.344	218.426	306.343	0.00033739	0.0018876	0.00045235	1386	1.2152e-05	1.2903e-05	1378.3	376.41	5.0156e-06	4.4542e-06	425.99	139.74	121.71	41.2	6.5e-06	51.545	0.0028023	0.002844	0.00079227	1767.3	3.1004e-05	3.1091e-05	1721.4	494.87	3.1066e-05	3.1411e-05	670.66	210.66	176.08	60.275	3.0822e-05	76.862	134.490	99.806	83.663	-16.534	91.376	184.708	-16.393	-11.691	242.608	176.295	-12.272	-7.894	-7.308	-2.623	51.742	-3.477	-8191	255	
1090.615	1	1	0	0	0.069453	0.054071	0.19752	0.12803	0.05772	0.16532	0.27621	0.22969	0.10724	0.28727	0.065	0.15582	0.021344	0.061185	0.1646	0.086072	-3.3333	-2.6896	-3.1625	-3.4667	-2.7646	-3.4271	-3.2333	-3.1167	-3.6167	-2.75	-3.3083	-3.4021	-2.6292	-3.4646	-3.1625	-2.8229	99.221	136.235	240.404	309.736	128.756	214.921	-15.844	303.598	34.226	84.553	282.986	273.320	184.903	87.526	159.102	32.529	0.00033438	0.00096524	0.00048996	1386.1	5.5971e-06	1.5468e-05	1374.8	377.95	7.9072e-06	2.4165e-06	426.43	139.53	121.13	41.044	9.1222e-06	51.578	0.0027469	0.0027837	0.00077253	1754.9	3.0006e-05	3.0104e-05	1704.9	490.11	2.996e-05	2.9886e-05	654.59	205.54	172.27	59.104	2.9476e-05	75.601	110.706	63.511	115.034	-16.264	95.530	0.515	-16.430	-11.580	0.783	187.532	-12.211	-8.102	-7.242	-2.836	118.567	-3.479	-8191	255	
1090.735	1	1	0	0	0.058137	0.10519	0.025555	0.15742	0.2601	0.26537	0.24196	0.14639	0.15265	0.40857	0.061304	0.040939	0.26189	0.15932	0.085525	0.2164	-3.2604	-2.75	-3.0708	-3.6271	-2.5917	-3.5042	-3.3563	-2.8479	-3.4813	-2.8083	-2.9542	-3.5729	-2.6437	-3.6	-3.1583	-2.8792	135.291	37.231	315.932	288.420	171.939	327.824	243.366	303.720	57.577	160.107	263.897	292.821	308.355	273.247	296.285	-17.076	0.00016392	0.0011504	7.3974e-05	1389.5	1.4002e-05	1.0878e-05	1370.6	376.97	6.8003e-06	1.2098e-05	429.81	139.75	121.69	41.376	5.162e-06	51.558	0.0026404	0.0026877	0.0007468	1741.4	2.931e-05	2.9519e-05	1694.8	487.48	2.9377e-05	2.9491e-05	650.71	205.23	171.49	59.002	2.9374e-05	75.375	175.462	-4.429	124.717	-16.308	-29.118	324.470	-16.392	-11.654	21.232	169.224	-12.051	-7.600	-6.971	-2.348	172.350	-3.241	-8191	255	
1090.831	1	1	0	0	0.30618	0.11256	0.15121	0.14071	0.17339	0.067216	0.10376	0.18232	0.248	0.16015	0.088818	0.39165	0.12563	0.31018	0.15134	0.080684	-3.1	-2.9437	-2.9479	-3.7438	-2.7062	-3.4292	-3.3729	-2.9667	-3.3292	-2.9833	-3.1937	-3.5646	-2.9521	-3.2812	-3.2417	-2.8083	109.320	-14.654	96.436	263.669	196.406	174.556	0.494	327.330	307.037	-21.547	257.779	305.226	180.340	321.794	311.055	235.073	0.00024149	0.0011279	0.00024932	1385.9	6.3079e-06	1.0718e-05	1373.4	374.66	3.9415e-06	5.7314e-06	432.46	139.18	120.76	41.099	9.5374e-06	51.283	0.0026427	0.0026893	0.00075037	1743.1	2.9443e-05	2.9517e-05	1696.6	487.51	2.9277e-05	2.9329e-05	650.11	204.69	171.51	58.925	2.9233e-05	75.31	144.985	314.115	325.106	-16.253	122.356	99.264	-16.106	-11.521	11.995	78.703	-11.929	-7.683	-7.004	-2.550	162.871	-2.937	-8191	255	
1090.926	1	1	0	0	0.15496	0.2535	0.29145	0.20751	0.22161	0.27394	0.19952	0.30846	0.22988	0.28356	0.14354	0.21663	0.14607	0.19291	0.088255	0.088381	-3.0021	-3.0458	-2.9167	-3.6937	-2.8542	-3.2333	-3.4875	-2.8	-3.4875	-3.0167	-2.7521	-3.5812	-2.9021	-3.0271	-3.3104	-2.7708	-2.405	33.462	328.319	298.833	76.947	-17.699	-24.560	300.367	185.684	157.337	224.959	261.983	-13.376	85.790	213.683	191.731	0.00032463	0.0015336	8.0039e-05	1380.5	1.291e-05	2.2498e-05	1369.8	374.16	1.2703e-05	3.3046e-06	427.95	138.99	121.45	40.982	8.7825e-06	51.592	0.0026273	0.0026675	0.00074141	1735.2	2.902e-05	2.9134e-05	1689.4	485.1	2.9055e-05	2.9157e-05	648.84	204.65	171.55	59.007	2.9562e-05	75.784	175.745	64.361	164.285	-16.463	79.117	99.683	-16.148	-11.336	91.086	244.607	-12.110	-7.453	-7.162	-2.800	261.188	-3.353	-8191	255	
1091.022	1	1	0	0	0.10414	0.16976	0.10933	0.25361	0.19379	0.075045	0.11302	0.23392	0.061468	0.21767	0.03518	0.26409	0.27038	0.32243	0.11208	0.25733	-3.0271	-3.1667	-2.7833	-3.7062	-2.7229	-3.0917	-3.6188	-2.7604	-3.4333	-3.1604	-2.6604	-3.55	-2.9521	-3.0042	-3.4813	-2.8042	176.721	257.215	89.218	301.947	-3.241	290.046	273.218	227.618	-4.882	296.803	115.280	286.494	255.337	281.621	194.859	246.398	0.00038907	0.00098631	0.00017648	1386.4	3.8905e-06	1.085e-05	1369.3	374.69	8.8981e-06	1.1666e-05	427.32	138.99	121.04	41.251	1.6047e-05	51.335	0.002669	0.0027267	0.00076034	1749.5	2.9708e-05	2.9802e-05	1698.1	488.44	2.985e-05	2.9927e-05	656.9	207.03	173.34	59.686	3.0274e-05	76.249	179.749	27.372	264.927	-16.086	233.822	119.329	-16.115	-11.520	84.001	162.408	-12.058	-7.735	-7.411	-2.949	125.042	-3.244	-8191	255	
1091.143	1	1	0	0	0.20619	0.062017	0.48214	0.38167	0.33495	0.12777	0.11453	0.17542	0.093331	0.054353	0.12112	0.055258	0.063262	0.19858	0.10621	0.089326	-2.9521	-3.4771	-2.8	-3.6875	-2.9833	-2.9729	-3.6167	-2.9542	-3.1917	-3.3146	-3.0438	-3.6021	-3.2292	-2.9583	-3.4771	-2.8125	243.221	306.693	225.451	276.594	114.984	113.168	271.471	329.184	173.071	8.666	276.116	37.538	234.127	282.662	303.581	291.574	0.00016476	0.00025473	0.00031997	1386.7	5.681e-06	5.9095e-06	1371.5	373.97	6.9597e-06	1.4051e-05	429.9	139.27	120.92	41.075	1.7122e-05	51.687	0.00273	0.0027818	0.0007736	1757.6	3.0275e-05	3.0395e-05	1708.1	491.24	3.0293e-05	3.0349e-05	660	207.58	173.83	59.737	3.036e-05	76.456	207.940	29.735	-5.761	-16.410	28.895	144.704	-16.023	-11.648	68.138	-29.125	-11.932	-7.589	-7.341	-2.619	166.186	-3.510	-8191	255	
1091.214	1	1	0	0	0.23983	0.035881	0.16157	0.2669	0.15961	0.32764	0.098319	0.29857	0.042301	0.3597	0.17263	0.1912	0.091521	0.15465	0.16237	0.12271	-2.8583	-3.3375	-2.5417	-3.4146	-3.0021	-2.9875	-3.7021	-2.9646	-3.1688	-3.2792	-2.5792	-3.3125	-3.2188	-2.7396	-3.4938	-2.8	296.824	2.510	87.074	249.558	225.033	322.739	292.668	223.901	17.336	30.712	55.980	-21.209	266.372	41.847	269.635	2.004	0.00023665	0.00038314	0.00066689	1384.7	1.1008e-05	1.7784e-06	1373.4	377.03	1.0451e-05	9.485e-06	426.02	138.81	121.33	41.01	6.2097e-06	51.794	0.0027276	0.0027793	0.00077423	1757.9	3.0378e-05	3.0596e-05	1713.4	492.47	3.0583e-05	3.0725e-05	662.48	208.84	174.74	60.185	3.1073e-05	77.344	132.477	69.609	114.373	-16.147	164.527	296.617	-16.190	-11.640	77.372	224.766	-12.144	-7.432	-7.006	-2.534	124.413	-3.550	-8191	255	
1091.310	1	1	0	0	0.1397	0.12701	0.27889	0.087191	0.30251	0.23471	0.094751	0.18292	0.10562	0.20033	0.16134	0.074817	0.13792	0.062932	0.052324	0.22935	-2.5521	-3.4208	-2.6708	-3.4917	-3.15	-2.85	-3.6417	-2.9542	-3.0646	-3.4354	-2.7812	-3.3167	-3.4104	-2.6792	-3.4125	-3.1771	29.408	134.096	183.463	267.329	117.281	255.060	188.069	291.809	80.948	161.645	-21.161	25.127	270.283	12.684	67.289	299.959	0.00043256	0.0014399	0.00017009	1385.6	1.7582e-06	2.2643e-05	1372.3	375.82	5.8673e-06	1.3949e-05	427.23	139.32	121.94	41.111	8.9664e-06	51.557	0.0028227	0.0028847	0.00080788	1781.6	3.2141e-05	3.2411e-05	1739.2	501.8	3.2706e-05	3.2894e-05	684.12	215.11	179.29	61.554	3.2765e-05	78.748	146.990	5.380	163.616	-16.124	125.901	122.446	-16.382	-11.668	216.546	239.462	-11.865	-7.268	-7.182	-2.478	110.784	-3.541	-8191	255	
1091.431	1	1	0	0	0.037888	0.22425	0.16201	0.15819	0.1433	0.11368	0.18803	0.10803	0.067969	0.2022	0.44899	0.12321	0.20292	0.11856	0.21821	0.089441	-2.5292	-3.4875	-2.9542	-3.2208	-3.4583	-2.5083	-3.6208	-3.1354	-2.6958	-3.5979	-2.8563	-3.2062	-3.4125	-2.7875	-3.35	-3.2042	212.208	94.558	121.140	315.945	40.901	93.533	225.626	223.966	304.465	84.655	261.413	84.722	-0.879	320.584	115.533	210.538	0.00020877	0.00085863	0.00051345	1388.5	4.2662e-06	1.649e-06	1378.8	375.6	9.591e-06	1.1991e-05	427.94	140.11	121.61	41.094	1.1768e-05	51.79	0.0029208	0.0029623	0.00082102	1785.2	3.2063e-05	3.2302e-05	1734.7	500.63	3.2428e-05	3.2638e-05	683.48	215.15	179.48	61.706	3.3202e-05	79.442	157.721	235.150	78.082	-15.979	-22.158	50.100	-16.096	-11.533	66.344	70.526	-12.326	-7.401	-7.213	-2.253	278.519	-3.300	-8191	255	
1091.527	1	1	0	0	0.085323	0.14794	0.18104	0.28549	0.26757	0.24264	0.24265	0.25304	0.18822	0.064337	0.13994	0.17213	0.27525	0.43797	0.2316	0.069133	-2.3646	-3.5771	-2.7104	-3.2812	-3.475	-2.5812	-3.5229	-3.2729	-2.6188	-3.4625	-3.1667	-3.0208	-3.5896	-2.8979	-3.3979	-3.2729	201.440	166.509	96.672	270.343	126.977	122.758	308.130	312.437	322.462	250.893	267.854	297.818	296.237	296.966	26.383	114.868	0.00020186	0.00021092	0.00026727	1394.5	1.5581e-05	1.0676e-05	1377.4	376.08	5.4554e-06	7.9936e-06	429.15	139.26	122.16	41.264	8.9337e-06	51.8	0.0030021	0.0030652	0.0008536	1810.7	3.3861e-05	3.3905e-05	1762.6	509.11	3.393e-05	3.4113e-05	695.82	217.87	181.64	62.327	3.3728e-05	79.874	120.751	202.664	271.163	-16.101	152.285	297.673	-15.972	-11.574	300.808	281.457	-12.007	-7.569	-6.968	-2.444	136.876	-3.261	-8191	255	
1091.623	1	1	0	0	0.051485	0.33244	0.14134	0.14378	0.20488	0.025077	0.18108	0.35579	0.2293	0.23681	0.01603	0.082879	0.082237	0.14004	0.068459	0.13334	-2.3875	-3.4896	-2.9896	-3.1167	-3.3021	-2.6792	-3.5187	-3.25	-2.7625	-3.4188	-3.0125	-3.05	-3.3167	-2.7708	-3.2479	-3.4083	94.875	170.891	-7.506	299.598	74.898	-7.012	-22.773	269.256	143.785	73.828	323.963	12.754	272.237	91.280	62.906	222.572	0.00018324	0.00077908	0.00055834	1392.9	4.7837e-06	1.1779e-05	1375.3	376.95	1.0915e-05	1.7516e-05	429.53	139.71	121.9	41.293	1.2021e-05	51.659	0.0030288	0.0030874	0.00086065	1813.5	3.382e-05	3.4079e-05	1763.8	509.58	3.4023e-05	3.4179e-05	696.99	217.95	181.56	62.338	3.3672e-05	79.689	196.602	15.115	217.212	-16.263	321.317	146.198	-16.154	-11.681	238.550	103.289	-12.109	-7.466	-6.838	-2.652	179.623	-3.355	-8191	255	
1091.719	1	1	0	0	0.25348	0.20492	0.12503	0.24369	0.17396	0.086374	0.28666	0.21176	0.038196	0.14028	0.091579	0.34729	0.16895	0.16687	0.43264	0.060382	-2.3333	-3.5292	-3.05	-3.0208	-3.3604	-2.6292	-3.1312	-3.5146	-2.6083	-3.5812	-3.1354	-2.8583	-3.6292	-2.9125	-3.0042	-3.725	184.858	-25.017	306.897	301.386	251.287	67.489	296.130	299.944	-21.382	306.875	253.089	306.248	244.562	168.882	150.752	197.084	5.0969e-05	0.00088055	0.00033633	1389	1.1868e-05	1.1144e-05	1380.8	377.07	1.3418e-05	1.2088e-05	426.47	139.94	121.73	41.171	7.355e-06	51.434	0.0029911	0.0030391	0.00084169	1797.7	3.2803e-05	3.2836e-05	1746	503	3.2676e-05	3.2753e-05	683.45	214.72	179.09	61.57	3.2751e-05	78.719	166.691	-14.682	55.474	-16.183	83.244	124.593	-16.229	-11.433	269.896	91.377	-12.008	-7.349	-6.898	-2.507	0.941	-3.070	-8191	255	
1091.816	1	1	0	0	0.16817	0.13737	0.084089	0.18041	0.1428	0.13709	0.235	0.13169	0.1613	0.027767	0.13767	0.29502	0.25637	0.23072	0.10914	0.22095	-2.2542	-3.4104	-3.1042	-2.8208	-3.5083	-2.6979	-3.3021	-3.6917	-2.7583	-3.0521	-3.4417	-2.7021	-3.6875	-3.0167	-2.9771	-3.7917	-23.310	295.541	-16.942	301.154	2.525	141.401	237.839	256.410	251.203	188.205	231.684	274.730	296.075	28.615	248.279	291.462	0.00026979	0.0012307	0.00015343	1384.9	9.6177e-06	7.8555e-06	1375.4	375.33	2.9755e-06	1.2818e-05	427.38	139.28	121.44	41.284	2.036e-06	51.662	0.0029318	0.0029762	0.00082773	1790.1	3.2371e-05	3.2409e-05	1733.8	499.76	3.1864e-05	3.1834e-05	671.9	210.49	175.78	60.26	3.0803e-05	76.977	149.281	265.615	185.116	-15.950	212.867	173.176	-16.166	-11.388	318.911	128.746	-12.031	-7.361	-6.836	-2.524	184.387	-3.094	-8191	255	
1091.912	1	1	0	0	0.15342	0.031317	0.1899	0.4721	0.23736	0.044743	0.27694	0.1147	0.06511	0.34541	0.22118	0.13096	0.39386	0.2866	0.093884	0.26029	-2.2625	-3.2	-3.1562	-3.0354	-3.4896	-3.0604	-3.1167	-3.5563	-2.7	-3.2062	-3.55	-2.7521	-3.5708	-3.0042	-2.8354	-3.6896	-8.453	240.577	219.781	317.100	-14.605	271.444	245.011	322.609	143.147	34.109	14.547	329.646	277.053	323.655	324.819	292.835	0.00019744	0.0015813	0.00019427	1386.6	5.6408e-06	1.5089e-05	1371.5	374.87	1.6995e-06	1.3552e-05	429.11	140.41	121.64	41.086	2.9074e-06	51.376	0.0027583	0.0028086	0.00078017	1760	3.0642e-05	3.0681e-05	1713.8	493.04	3.067e-05	3.0822e-05	664.7	209.14	174.52	59.718	3.0249e-05	76.119	151.965	98.748	15.259	-15.837	169.358	114.836	-15.555	-11.257	25.107	110.561	-11.835	-7.409	-6.752	-2.627	13.526	-3.304	-8191	255	
1092.031	1	1	0	0	0.14311	0.039884	0.10535	0.20872	0.062873	0.098562	0.15276	0.069162	0.20639	0.35365	0.073465	0.1323	0.22878	0.27323	0.19882	0.066771	-2.2583	-3.1042	-3.1958	-2.8854	-3.4125	-3.1229	-2.975	-3.5438	-2.9062	-3.0938	-3.3583	-2.8583	-3.4625	-3.1875	-2.7417	-3.5771	-21.149	2.242	213.638	322.579	-18.355	245.426	277.881	135.638	34.492	74.362	269.655	273.427	271.698	94.533	-15.808	49.133	0.00025573	0.00044019	0.00048553	1381.6	9.915e-06	8.5415e-06	1366.8	375.51	8.1955e-06	1.3551e-06	427.27	139.52	121.35	41.26	1.0512e-05	51.279	0.002686	0.0027143	0.00075201	1739.3	2.9277e-05	2.9366e-05	1689.3	485.3	2.9083e-05	2.9176e-05	647.88	204.3	171.05	58.734	2.9242e-05	75.297	142.760	86.259	13.160	-15.738	265.378	18.254	-15.781	-11.278	290.497	145.370	-12.068	-6.905	-6.715	-2.320	209.148	-2.781	-8191	255	
1092.127	1	1	0	0	0.095725	0.063341	0.18996	0.21255	0.15878	0.043971	0.32874	0.14779	0.28188	0.21689	0.23195	0.34061	0.15763	0.2239	0.2746	0.060614	-2.4062	-2.9792	-3.3917	-2.7229	-3.2083	-3.0646	-2.8125	-3.6333	-2.8833	-2.8187	-3.5687	-2.6792	-3.3333	-3.3146	-2.7667	-3.4354	79.079	280.700	-15.210	299.552	-16.448	327.998	266.145	200.904	66.985	87.831	205.282	245.374	216.078	239.187	156.713	84.722	0.00018649	0.0003209	0.00040838	1372.7	3.9639e-06	1.6403e-05	1369.9	375.2	1.2969e-05	6.8928e-06	424.97	139.4	121.84	40.892	1.7915e-05	51.233	0.0026324	0.002688	0.00074968	1736.6	2.947e-05	2.9568e-05	1691.9	487.42	2.9322e-05	2.9353e-05	649.77	204.74	171.36	58.762	2.9126e-05	74.876	159.818	65.011	102.244	-15.896	284.213	61.678	-15.760	-11.074	61.277	313.220	-11.475	-7.383	-6.729	-2.330	127.225	-2.941	-8191	255	
1092.223	1	1	0	0	0.059955	0.17791	0.1799	0.30342	0.27759	0.03704	0.26972	0.15029	0.23555	0.10467	0.26603	0.12309	0.09205	0.11951	0.14913	0.23102	-2.5333	-2.8208	-3.625	-2.6708	-3.0396	-3.4771	-2.8521	-3.4917	-2.9125	-2.7042	-3.5104	-2.8688	-3.4	-3.4458	-2.4938	-3.3771	208.704	319.750	198.470	282.038	22.585	91.846	312.393	286.233	279.778	187.053	-9.588	267.460	325.411	76.210	16.875	316.594	0.00032077	0.00047707	0.00022012	1373.2	1.3025e-05	1.5382e-05	1365.1	374.53	1.5534e-05	4.3226e-06	426.44	138.81	120.93	40.966	2.3037e-06	51.401	0.002583	0.0026236	0.00072665	1720.6	2.8234e-05	2.8188e-05	1670.8	479.81	2.7758e-05	2.7889e-05	634.62	200.51	168.12	57.705	2.7746e-05	73.685	151.531	-20.304	124.744	-15.723	252.708	65.103	-15.860	-11.233	155.345	207.505	-11.447	-6.967	-6.596	-2.398	68.005	-3.180	-8191	255	
1092.319	1	1	0	0	0.33408	0.2448	0.066219	0.089818	0.11552	0.17137	0.19783	0.32296	0.035869	0.097501	0.02963	0.2436	0.23619	0.19594	0.17216	0.17126	-2.5333	-2.6583	-3.3292	-2.9188	-3.0354	-3.3417	-2.7958	-3.3479	-3	-2.8271	-3.8	-3.0375	-3.0854	-3.3937	-2.6958	-3.2375	55.089	189.166	248.890	229.569	116.254	245.938	220.800	249.393	125.907	143.073	243.512	265.572	85.455	300.991	265.782	248.993	0.00027087	0.00046397	0.00033171	1382.5	1.3148e-05	3.4762e-06	1362.9	374.83	5.017e-06	2.59e-06	424.7	138.63	121.38	40.967	4.4163e-06	51.587	0.0024812	0.0025194	0.00070171	1710.5	2.7646e-05	2.7822e-05	1668.2	479.49	2.7923e-05	2.8204e-05	639.23	202.11	169.98	58.43	2.8879e-05	75.085	188.804	215.705	14.749	-16.132	148.465	279.724	-16.174	-11.253	108.609	31.245	-11.726	-7.461	-6.380	-2.380	202.145	-3.291	-8191	255	
1092.440	1	1	0	0	0.11018	0.039347	0.27802	0.22735	0.10101	0.13019	0.29741	0.026455	0.075484	0.14709	0.083633	0.17462	0.079128	0.11185	0.21283	0.28224	-2.8812	-2.6146	-3.4604	-2.9646	-2.7708	-3.5083	-3.0042	-3.3792	-3.1771	-2.65	-3.5292	-3.0771	-2.8958	-3.3021	-2.7542	-3.2208	-20.732	191.255	142.716	229.309	-9.966	238.969	322.784	304.321	90.398	253.762	22.794	259.403	215.258	164.621	327.952	207.891	0.00019696	0.0010879	0.00024872	1379.5	2.3328e-06	1.3314e-05	1369.5	375.23	1.6931e-05	1.7613e-05	428.27	138.86	120.83	41.194	9.8698e-06	51.701	0.002622	0.0026748	0.00074672	1737.3	2.9356e-05	2.9567e-05	1691.4	486.78	2.9392e-05	2.9349e-05	650.4	204.8	171.32	58.947	2.9289e-05	75.179	145.089	181.751	-20.739	-16.323	184.293	238.613	-15.721	-10.989	119.107	150.002	-11.842	-7.420	-6.738	-2.425	219.341	-2.926	-8191	255	
1092.511	1	1	0	0	0.35705	0.15665	0.18717	0.12637	0.23539	0.18078	0.23053	0.31184	0.11082	0.14844	0.18951	0.2013	0.024748	0.222	0.12406	0.15268	-2.7167	-2.7083	-3.2771	-3.1208	-2.7771	-3.3042	-2.8583	-3.2146	-3.4771	-2.6292	-3.4062	-3.2	-2.8979	-3.5312	-2.7979	-3.1437	224.088	55.452	16.541	229.498	297.220	294.544	46.841	264.640	69.012	307.014	-28.729	292.279	69.342	321.758	-12.949	11.732	0.00027778	0.0012413	0.00012948	1381.5	1.1556e-05	1.2288e-05	1371	375.49	8.546e-06	1.0893e-05	426.68	138.86	120.96	41.069	1.4588e-05	51.083	0.0026087	0.0026426	0.00073274	1724.4	2.8336e-05	2.8224e-05	1673	479.86	2.7744e-05	2.7857e-05	636.95	201.16	168.84	58.142	2.8373e-05	74.573	177.372	231.134	88.324	-16.188	123.226	59.375	-16.058	-11.223	137.098	113.442	-11.686	-7.468	-6.857	-2.418	102.092	-3.082	-8191	255	
1092.608	1	1	0	0	0.11241	0.12852	0.17932	0.31797	0.13162	0.18437	0.17619	0.20194	0.28046	0.14686	0.32501	0.20842	0.21739	0.2441	0.17319	0.08881	-3.0021	-2.7104	-3.2938	-3.3979	-2.6688	-3.5458	-2.975	-2.9083	-3.3667	-2.5917	-3.475	-3.1958	-2.8208	-3.4646	-2.9625	-2.7479	147.346	62.402	191.389	273.338	303.350	243.812	329.620	231.347	166.300	315.783	289.282	-21.857	250.804	-13.405	255.092	206.290	0.00013909	0.00031092	0.00018214	1377.8	8.7332e-06	1.0893e-05	1364.7	375.83	6.1602e-06	4.3472e-06	428.75	139.62	121.24	40.964	5.1408e-06	51.468	0.0025821	0.0026339	0.00073622	1729.7	2.891e-05	2.9047e-05	1687.2	485.02	2.9001e-05	2.9187e-05	649.46	204.49	171.56	58.931	2.9279e-05	75.293	165.563	328.371	271.827	-16.071	111.998	102.378	-15.943	-11.157	291.173	309.530	-11.862	-7.416	-6.486	-2.492	300.110	-3.066	-8191	255	
1092.704	1	1	0	0	0.13266	0.1998	0.070438	0.1595	0.20004	0.089695	0.17261	0.099593	0.10266	0.088716	0.25159	0.08466	0.10998	0.1205	0.21115	0.29385	-3.0812	-2.5646	-3.2875	-3.3521	-2.7708	-3.4854	-3.1146	-2.9188	-3.3979	-2.8083	-3.25	-3.4104	-2.6208	-3.4875	-3.0521	-2.8563	140.146	154.184	3.222	233.256	164.868	104.159	191.989	165.524	201.089	178.693	269.804	23.133	-18.623	14.073	231.570	289.901	0.00024156	0.0011513	0.00032573	1387.1	9.0808e-06	9.735e-06	1376.5	376.84	3.4717e-06	4.7906e-06	425.45	139.52	121.51	40.94	4.3196e-06	51.506	0.0026438	0.0026926	0.00074869	1740.4	2.9409e-05	2.9569e-05	1697.5	487.96	2.9416e-05	2.9493e-05	650.66	204.65	171.15	58.546	2.859e-05	74.313	109.331	84.086	280.923	-15.890	-27.800	220.670	-15.816	-11.080	235.108	131.293	-11.702	-7.469	-6.731	-2.377	-25.886	-3.035	-8191	255	
1092.823	1	1	0	0	0.23948	0.19683	0.16754	0.17902	0.065043	0.071015	0.26253	0.15334	0.11485	0.20172	0.23605	0.1626	0.17438	0.31711	0.16294	0.18668	-3.0563	-2.7479	-3.0042	-3.5854	-2.575	-3.3583	-3.2938	-2.9396	-3.5542	-2.8208	-3.1479	-3.4354	-2.7062	-3.2771	-3.1	-2.8937	236.777	328.981	149.558	244.346	18.534	51.015	267.319	292.720	300.202	236.860	310.893	307.834	15.911	241.235	82.856	280.521	7.2259e-05	0.00080165	0.00084811	1379.1	1.7928e-06	1.1614e-05	1365.3	373.64	6.9589e-06	9.3063e-06	426.95	138.83	120.79	41.008	1.3166e-05	51.563	0.0025093	0.0025279	0.00069835	1702.2	2.7052e-05	2.7186e-05	1657	475.01	2.6967e-05	2.7017e-05	626.95	198.48	167.06	57.463	2.7524e-05	73.651	162.061	194.151	-25.230	-15.911	-9.880	230.800	-15.709	-11.305	110.168	302.406	-11.639	-7.412	-6.544	-2.054	92.777	-2.770	-8191	255	
1092.919	1	1	0	0	0.13359	0.28419	0.1699	0.26506	0.018504	0.26317	0.14716	0.27739	0.22113	0.18925	0.23916	0.11519	0.33461	0.10643	0.15916	0.22095	-3.0479	-2.8333	-2.8229	-3.6833	-2.675	-3.175	-3.45	-2.6542	-3.3688	-2.9417	-3.1146	-3.7333	-2.6063	-3.4313	-3.225	-2.7167	173.553	90.431	209.122	213.509	321.417	306.750	296.217	323.940	46.434	-6.540	246.878	289.273	-9.930	114.751	282.878	302.443	0.00026683	0.0021627	0.00037142	1374.6	5.9644e-06	1.8376e-05	1366.8	375.14	7.6564e-06	1.2645e-05	424.55	138.82	120.83	40.851	6.9771e-06	51.664	0.0024908	0.0025506	0.00071386	1713.9	2.8061e-05	2.8182e-05	1670.4	481.26	2.8046e-05	2.8107e-05	639.51	201.11	168.97	58.086	2.8236e-05	74.291	156.680	311.174	104.497	-15.876	123.930	153.078	-15.955	-10.953	210.570	167.250	-11.232	-7.449	-6.754	-1.914	171.117	-2.911	-8191	255	
1093.015	1	1	0	0	0.22785	0.18424	0.05789	0.34814	0.11347	0.034426	0.58195	0.29727	0.15394	0.38327	0.17842	0.091167	0.11277	0.21688	0.059936	0.27597	-3.0104	-2.9083	-2.7188	-3.5875	-2.7625	-3.2104	-3.4167	-2.9188	-3.5271	-3.0396	-2.725	-3.6229	-2.7083	-3.0938	-3.4062	-2.8792	102.741	26.236	301.975	317.620	275.585	71.880	277.953	257.740	-20.627	127.924	308.560	309.325	192.105	21.477	275.193	202.495	0.00032986	0.00076	8.6513e-05	1377.4	7.5059e-06	7.0986e-06	1363.6	373.87	4.135e-06	1.2301e-05	425.99	138.34	120.91	41.102	1.3678e-05	51.027	0.0025551	0.0025921	0.00072317	1720.7	2.8184e-05	2.8332e-05	1671.8	480.19	2.7963e-05	2.7945e-05	635.33	200.01	167.85	57.578	2.753e-05	73.464	152.555	322.484	74.735	-15.934	114.451	97.969	-15.922	-11.269	186.445	43.140	-11.768	-7.293	-6.716	-2.196	60.778	-2.668	-8191	255	
1093.113	1	1	0	0	0.16511	0.11984	0.16307	0.30653	0.32259	0.21395	0.30719	0.11049	0.13207	0.065414	0.16	0.35354	0.18924	0.18955	0.071955	0.051945	-2.8708	-2.9896	-2.7083	-3.6792	-2.9354	-3.3063	-3.5646	-2.7812	-3.3875	-3.1813	-2.7229	-3.4958	-2.9292	-2.9104	-3.4271	-2.8979	119.278	106.441	139.666	296.372	136.257	256.873	270.875	246.596	74.141	329.107	294.187	278.692	285.161	282.604	286.647	318.135	0.00030187	0.0013464	0.00046935	1374.5	4.0035e-06	6.4519e-06	1358.8	371.93	1.363e-05	9.1039e-06	426.37	138.85	121.1	41.163	3.8249e-06	51.49	0.0024596	0.002511	0.00069775	1703.4	2.7383e-05	2.7479e-05	1656.4	475.91	2.7412e-05	2.744e-05	631.51	199.56	167.5	57.583	2.7568e-05	73.602	136.526	240.911	60.319	-15.695	195.402	-4.854	-15.869	-10.937	191.183	240.781	-11.550	-7.563	-6.750	-1.994	95.024	-2.858	-8191	255	
1093.207	1	1	0	0	0.16074	0.28949	0.18384	0.3936	0.22789	0.11582	0.26915	0.3515	0.15624	0.18884	0.22689	0.068264	0.039539	0.15426	0.27064	0.18756	-2.8958	-3.2854	-2.6292	-3.5771	-2.9229	-2.6354	-3.8083	-2.8625	-3.2083	-3.2583	-2.7708	-3.5792	-2.9146	-2.6896	-3.5604	-2.7896	236.358	200.965	322.109	309.555	316.079	36.503	264.026	292.742	253.146	115.251	42.701	297.200	323.080	292.769	320.864	205.567	0.00017709	0.0010634	8.3333e-05	1369.4	1.6435e-05	1.2904e-06	1361.6	373.44	1.9999e-06	1.8229e-05	428.43	138.25	120.81	40.855	1.7955e-05	51.415	0.0025021	0.0025555	0.00071286	1712.8	2.8187e-05	2.8286e-05	1669.6	480.05	2.8113e-05	2.8219e-05	639.37	201.09	168.65	57.916	2.8011e-05	73.888	163.185	95.457	277.965	-15.641	93.124	312.834	-15.930	-11.085	156.471	167.304	-11.842	-7.293	-6.760	-2.202	161.007	-2.693	-8191	255	
1093.303	1	1	0	0	0.15827	0.2445	0.27694	0.22705	0.17163	0.069421	0.1322	0.37853	0.12834	0.29122	0.24873	0.12022	0.31531	0.25678	0.12478	0.13363	-2.7625	-3.3146	-2.6188	-3.5646	-3.0771	-2.7792	-3.7604	-2.9396	-3.1354	-3.4062	-2.725	-3.5771	-3.2375	-2.8396	-3.5021	-2.8958	-21.341	206.253	89.481	244.598	73.606	246.636	290.490	309.141	107.277	138.882	-25.707	38.990	293.335	312.384	-19.515	254.943	3.279e-05	0.00016808	0.00025874	1374.7	7.6648e-06	4.0608e-06	1357.3	373.28	1.5708e-05	1.3273e-05	424.36	138.93	120.91	40.672	9.6701e-06	51.305	0.0025167	0.0025614	0.00070932	1709	2.7777e-05	2.77e-05	1659.9	477.12	2.7504e-05	2.7504e-05	631.42	198.89	167.17	57.291	2.7281e-05	73.039	302.207	100.095	-25.057	-15.698	145.144	35.401	-15.860	-11.326	160.176	128.130	-11.549	-7.120	-6.801	-2.594	256.781	-2.924	-8191	255	
1093.399	1	1	0	0	0.078739	0.15436	0.11752	0.28001	0.15135	0.17799	0.092729	0.20596	0.19719	0.070975	0.19981	0.32461	0.13767	0.2255	0.06987	0.19336	-2.5792	-3.4146	-2.6292	-3.5	-3.3917	-2.7562	-3.5792	-2.8896	-2.7979	-3.55	-2.7667	-3.4229	-3.3917	-2.7896	-3.4437	-2.9333	256.572	5.264	273.472	276.622	83.565	217.075	266.820	276.288	302.421	0.478	220.969	314.955	292.472	-5.909	211.261	9.190	0.00026632	0.00054762	0.00013091	1373.3	3.3706e-06	7.2562e-06	1361.3	374.1	3.4872e-06	1.1948e-05	425.66	138.4	120.47	40.625	3.6425e-06	50.879	0.0024366	0.0024711	0.00068443	1690.7	2.6627e-05	2.6642e-05	1644.9	471.49	2.6238e-05	2.626e-05	619.8	195.8	164.83	56.647	2.65e-05	72.264	172.196	288.740	234.364	-15.995	-6.597	36.414	-16.039	-11.343	259.157	230.800	-11.846	-7.176	-7.241	-2.569	-22.615	-3.170	-8191	255	
1093.520	1	1	0	0	0.18937	0.11648	0.095843	0.31471	0.09177	0.15849	0.15543	0.11643	0.16262	0.26415	0.23129	0.25157	0.10196	0.18285	0.19238	0.15685	-2.5354	-3.6604	-2.5958	-3.2771	-3.2687	-2.6542	-3.5771	-3.2167	-2.8375	-3.4479	-2.8354	-3.2438	-3.5896	-2.6917	-3.3625	-3.3125	43.205	223.220	153.165	298.793	56.942	23.855	324.318	204.450	107.386	76.003	20.013	313.415	6.161	304.256	1.919	184.202	0.00010303	0.00073057	0.00042764	1368.3	1.5178e-05	1.3203e-06	1360.2	374.24	1.9757e-05	6.8231e-06	423.91	139.16	120.88	40.877	5.3897e-06	50.975	0.0023925	0.0024371	0.00067909	1686.7	2.6631e-05	2.6608e-05	1645.8	472.25	2.6674e-05	2.6768e-05	623.9	197.17	165.53	56.931	2.6753e-05	72.58	144.949	180.359	-29.002	-15.851	162.873	47.286	-16.123	-11.626	-12.297	174.167	-11.859	-7.375	-7.144	-2.462	0.512	-3.481	-8191	255	
1093.616	1	1	0	0	0.25085	0.16961	0.11348	0.28274	0.10026	0.13754	0.12967	0.19669	0.16038	0.096857	0.17741	0.079045	0.1597	0.21285	0.10443	0.15842	-2.3937	-3.525	-2.7792	-3.1854	-3.3271	-2.6854	-3.6104	-3.2104	-2.75	-3.6083	-2.8771	-3.0167	-3.3812	-2.6896	-3.4188	-3.2854	110.728	-22.053	127.007	238.182	27.776	51.635	253.019	-21.673	253.158	92.504	-15.967	-14.380	309.672	296.184	9.089	298.846	0.00020266	0.00090272	0.00034581	1373	1.2597e-05	1.1216e-05	1358.3	373.62	8.6927e-06	1.2537e-05	428.31	138.52	120.65	41.046	7.925e-06	51.387	0.0024163	0.002466	0.00068713	1694.9	2.6984e-05	2.704e-05	1652.9	474.15	2.6991e-05	2.7085e-05	628.38	197.74	166.24	57.125	2.7009e-05	72.807	170.025	133.523	20.169	-16.245	74.603	31.864	-16.005	-11.391	160.840	259.993	-11.853	-7.344	-6.986	-2.868	100.650	-3.300	-8191	255	
1093.712	1	1	0	0	0.13433	0.16579	0.24133	0.29688	0.17834	0.2079	0.18773	0.22613	0.25163	0.13312	0.063914	0.06901	0.24213	0.14642	0.07998	0.21932	-2.2479	-3.4667	-2.8187	-3.2583	-3.4708	-2.7875	-3.5187	-3.3	-2.7687	-3.4479	-3.0521	-2.8979	-3.6271	-2.8667	-3.1625	-3.2354	-14.480	194.439	310.333	318.100	21.648	241.565	266.755	209.669	155.797	71.034	70.534	278.048	212.843	282.142	245.589	264.456	0.00023327	0.00070076	0.00045727	1370	1.7554e-06	9.4554e-06	1359.1	374.03	3.8044e-06	1.0519e-05	425.9	138.78	120.27	40.989	2.7512e-06	51.106	0.0024231	0.0024632	0.00068329	1688.6	2.6771e-05	2.6892e-05	1651	473.49	2.6941e-05	2.6932e-05	624	196.8	164.97	56.416	2.5997e-05	71.547	158.554	158.408	261.164	-16.166	330.659	98.787	-16.186	-11.317	134.696	10.868	-12.087	-7.226	-6.764	-2.362	179.676	-3.295	-8191	255	
1093.809	1	1	0	0	0.082309	0.16625	0.13802	0.38723	0.1689	0.072481	0.28087	0.32964	0.30658	0.19827	0.14151	0.091953	0.24538	0.41878	0.052261	0.10017	-2.2687	-3.4125	-2.9396	-2.8646	-3.5104	-2.5104	-3.3	-3.5646	-2.7021	-3.4292	-3.1208	-2.7958	-3.6042	-2.8563	-3.0062	-3.4833	255.457	157.877	296.506	306.204	115.136	94.284	293.990	66.799	48.940	279.507	129.229	130.213	292.316	33.582	240.338	103.911	0.00016334	0.0013123	0.00038801	1374.9	9.3682e-06	1.1785e-05	1352	373.72	9.9084e-06	5.6063e-06	422.44	136.92	120.32	40.78	1.4648e-05	51.169	0.0022957	0.0023197	0.00064383	1664.1	2.5003e-05	2.4905e-05	1617.7	463.64	2.4916e-05	2.508e-05	608.12	192.9	162.51	55.851	2.5642e-05	71.421	151.766	171.547	10.998	-15.921	57.076	121.395	-16.332	-11.550	83.329	262.622	-11.946	-7.630	-7.014	-2.626	291.618	-3.155	-8191	255	
1093.905	1	1	0	0	0.30428	0.16625	0.11352	0.14052	0.032665	0.19125	0.13274	0.052762	0.2468	0.30498	0.08477	0.1623	0.24249	0.31505	0.25905	0.17494	-2.3396	-3.225	-3.0792	-2.9167	-3.4562	-2.7625	-3.2479	-3.5375	-2.6458	-3.3167	-3.3354	-2.7292	-3.6063	-2.9458	-2.8479	-3.5833	277.507	313.238	295.742	-3.738	257.813	266.136	290.533	35.781	80.548	30.809	16.555	182.414	281.899	14.785	63.653	130.631	8.9163e-05	0.00083767	0.00059024	1367.1	3.6957e-06	1.8064e-06	1357.9	370.99	1.003e-05	1.4778e-05	428.11	137.78	120.67	40.748	1.1685e-05	50.952	0.0023261	0.0023861	0.00066795	1679.7	2.662e-05	2.6851e-05	1646.9	473.47	2.7031e-05	2.7134e-05	628.59	198.11	166.84	57.253	2.7462e-05	73.236	74.950	8.313	289.928	-16.197	202.488	128.971	-15.896	-11.461	-24.687	27.850	-11.943	-7.491	-7.421	-2.409	287.939	-2.877	-8191	255	
1093.999	1	1	0	0	0.16852	0.12599	0.032067	0.010995	0.037682	0.12788	0.22176	0.096805	0.35247	0.22064	0.13889	0.2424	0.23556	0.039318	0.17888	0.162	-2.2229	-3.2604	-3.4021	-2.6688	-3.45	-2.9	-3.0479	-3.6667	-2.8021	-3.1729	-3.2729	-2.6979	-3.5292	-3.025	-2.8646	-3.5208	115.993	78.237	325.113	293.251	103.022	329.332	315.483	-7.504	168.792	237.106	320.236	-9.846	296.418	117.245	91.186	196.980	0.00026642	0.002235	0.00056144	1368.4	4.878e-06	1.2839e-05	1362.6	373.53	3.9704e-06	1.102e-05	424.9	138.59	120.64	40.804	6.7889e-06	51.228	0.0024758	0.0025277	0.00070475	1702.1	2.7623e-05	2.7712e-05	1657.5	476.84	2.7488e-05	2.7603e-05	629.94	198.46	166.51	57.058	2.6957e-05	72.682	142.627	149.545	2.211	-15.980	45.558	114.586	-15.861	-11.423	77.214	219.031	-12.082	-7.306	-6.958	-1.939	286.087	-2.894	-8191	255	
1094.120	1	1	0	0	0.093954	0.075622	0.14915	0.088859	0.054698	0.15681	0.040132	0.10262	0.29346	0.092151	0.21732	0.1591	0.013505	0.05336	0.31137	0.13533	-2.4542	-3.0687	-3.2313	-2.8854	-3.3958	-3.1396	-2.8583	-3.6146	-2.8563	-3.05	-3.4729	-2.9125	-3.4979	-3.1979	-2.675	-3.4896	324.844	-23.219	275.990	5.075	86.300	206.012	179.896	-26.885	225.550	303.619	259.186	93.430	276.318	5.995	276.698	92.217	0.00031681	0.0017831	0.00053513	1368.3	1.4931e-05	3.2833e-06	1362.4	372.87	6.1397e-07	1.4346e-05	427.11	138.2	120.24	40.743	1.1658e-05	51.076	0.0024143	0.0024556	0.00068406	1686.1	2.6948e-05	2.7148e-05	1650.7	474.6	2.7411e-05	2.7498e-05	632.57	199.12	167.21	57.495	2.7809e-05	73.653	190.192	50.580	96.532	-15.687	45.324	72.138	-15.615	-11.086	39.337	140.342	-11.584	-7.226	-6.494	-2.129	206.294	-2.755	-8191	255	
1094.216	1	1	0	0	0.24642	0.25873	0.1417	0.18513	0.22845	0.12444	0.1459	0.31048	0.18048	0.26635	0.23205	0.067117	0.27376	0.1507	0.093927	0.14951	-2.4229	-3.0021	-3.3958	-2.8042	-3.225	-3.2208	-2.9771	-3.4021	-2.7771	-2.9021	-3.5417	-2.8521	-3.2083	-3.4583	-2.9	-3.5375	240.516	159.889	144.552	275.694	292.603	240.651	256.715	270.896	-13.878	279.615	29.605	192.915	150.521	307.759	291.777	215.692	0.00020506	0.00014849	2.5711e-05	1369.8	7.3987e-06	6.9463e-06	1354.3	373.31	9.6039e-06	2.3324e-06	423.38	138.84	120.92	40.904	7.0604e-06	51.058	0.0025036	0.002559	0.00071448	1707.8	2.8149e-05	2.8341e-05	1666.4	480.91	2.8387e-05	2.8616e-05	642.4	202.13	169.39	58.246	2.8745e-05	74.537	176.394	48.604	179.344	-15.749	233.499	65.555	-15.849	-11.119	97.067	155.190	-11.072	-7.239	-6.381	-2.005	146.599	-2.390	-8191	255	
1094.312	1	1	0	0	0.10419	0.23444	0.3305	0.35639	0.10211	0.090483	0.12138	0.31559	0.042078	0.38893	0.31299	0.13811	0.18994	0.24133	0.045301	0.22451	-2.425	-2.7083	-3.4417	-2.7417	-3.1562	-3.4479	-2.9854	-3.4146	-3.1667	-2.7604	-3.5146	-2.7771	-2.9729	-3.4771	-2.6875	-3.6729	207.941	25.150	27.321	329.094	174.686	232.084	211.319	297.160	-13.126	235.201	321.331	111.141	260.881	295.717	145.466	-6.653	0.00029639	0.0010786	0.00037214	1370.2	1.6129e-05	1.7603e-05	1361.7	373.74	6.5836e-06	7.1044e-06	426.3	139	120.87	40.841	7.668e-06	51.144	0.0025839	0.0026287	0.00073125	1717.4	2.8559e-05	2.858e-05	1668.7	480.73	2.8408e-05	2.8483e-05	640.14	201.49	169.09	58.136	2.8558e-05	74.45	225.128	20.696	310.472	-15.524	75.571	43.243	-15.562	-10.986	319.029	149.073	-11.736	-7.254	-6.421	-2.038	272.528	-2.738	-8191	255	
1094.384	1	1	0	0	0.10512	0.22044	0.066326	0.25782	0.30679	0.098694	0.053635	0.04396	0.058864	0.063316	0.3975	0.16673	0.044626	0.083391	0.31512	0.14926	-2.6437	-2.9104	-3.4854	-2.9542	-3.1167	-3.3833	-2.8042	-3.4958	-3.1437	-2.7125	-3.4458	-2.7667	-3.1917	-3.5479	-2.7708	-3.4792	285.588	7.856	227.521	249.316	186.675	173.416	187.216	-20.792	136.212	239.154	272.247	242.722	262.128	291.529	183.646	328.472	0.00049833	0.0013196	0.00038939	1367.2	5.0028e-06	6.5885e-06	1355.6	375.58	5.3394e-06	1.3028e-05	426.66	138.02	120.84	40.895	6.2638e-06	51.206	0.0025757	0.0026355	0.00073425	1718.3	2.8719e-05	2.8792e-05	1670.7	482.21	2.8568e-05	2.864e-05	642.04	202.19	169.31	58.07	2.8399e-05	74.186	158.807	125.622	62.923	-15.348	128.293	217.925	-15.546	-11.154	172.422	188.387	-11.885	-7.066	-6.199	-2.258	150.332	-2.835	-8191	255	
1094.480	1	1	0	0	0.17142	0.1271	0.21527	0.27369	0.085464	0.039483	0.070544	0.22689	0.15249	0.17453	0.071775	0.25487	0.25042	0.23988	0.12672	0.12407	-2.7042	-2.6875	-3.4062	-3.1417	-3.0042	-3.4479	-2.8771	-3.4521	-3.2896	-2.6917	-3.5021	-2.9271	-3.1104	-3.6875	-2.5667	-3.2542	28.162	156.625	249.591	16.973	286.783	51.885	91.686	262.646	166.416	292.169	280.547	49.178	324.251	-5.142	259.376	311.453	0.00020317	0.00048315	0.00067195	1375	4.8838e-07	7.5832e-06	1358.2	373.31	1.6022e-05	1.1242e-05	429.12	138.26	120.71	40.791	8.2671e-06	50.999	0.0025325	0.0025759	0.00071686	1708.1	2.7944e-05	2.7952e-05	1659.2	477.54	2.7688e-05	2.7639e-05	632.32	198.75	166.74	57.128	2.6959e-05	72.521	126.256	317.684	-18.029	-15.889	65.334	53.909	-15.737	-11.122	215.523	152.335	-11.599	-7.497	-6.616	-2.251	123.695	-2.701	-8191	255	
1094.600	1	1	0	0	0.10549	0.043322	0.19115	0.20222	0.17188	0.21579	0.46429	0.034503	0.13178	0.12034	0.11604	0.32939	0.15126	0.29892	0.10114	0.23889	-2.8583	-2.5896	-3.4208	-2.8604	-2.9333	-3.4188	-2.9	-3.3979	-3.3479	-2.6333	-3.5312	-3.1021	-2.9437	-3.5146	-2.8104	-3.1208	317.141	-1.159	302.638	-19.512	204.674	-16.576	307.595	237.514	179.039	136.348	-16.363	251.721	31.403	292.959	57.427	172.703	0.00034501	0.0006412	0.00015484	1368.6	1.1313e-05	6.9297e-06	1360.7	372.46	9.1988e-06	1.2468e-05	423.19	137.9	120.33	40.643	1.1474e-05	50.993	0.0023834	0.0024164	0.00067019	1676.4	2.6241e-05	2.6202e-05	1636.3	469.61	2.6229e-05	2.6315e-05	620.34	195.81	164.61	56.575	2.6596e-05	72.529	158.253	13.727	40.083	-15.640	138.366	138.523	-15.789	-10.847	159.599	142.275	-11.401	-7.002	-6.399	-2.262	229.470	-2.728	-8191	255	
1094.697	1	1	0	0	0.12834	0.12856	0.30212	0.05495	0.21555	0.093766	0.13601	0.17712	0.20124	0.037448	0.061071	0.33801	0.14893	0.097473	0.052073	0.032256	-2.9042	-2.5729	-3.3354	-3.2271	-2.8187	-3.2438	-2.9938	-3.2521	-3.4479	-2.4646	-3.3604	-2.9625	-2.5958	-3.4813	-2.7104	-2.9813	158.101	-19.619	149.542	32.902	330.061	186.881	303.932	238.799	111.854	10.736	132.820	257.119	56.829	35.982	-7.357	13.261	0.00021121	0.00075215	0.00018068	1368	1.4869e-06	1.1281e-05	1354.1	373.33	8.7681e-06	1.1937e-05	423.47	138.71	120.97	40.83	8.468e-06	50.936	0.0024085	0.0024485	0.0006857	1690.6	2.7108e-05	2.7361e-05	1654.1	476.15	2.7654e-05	2.7842e-05	635.8	200.15	168.08	57.785	2.8037e-05	73.745	216.204	176.282	60.567	-15.687	230.683	60.580	-15.663	-10.973	120.843	66.733	-11.725	-7.411	-6.681	-2.562	41.266	-3.176	-8191	255	
1094.793	1	1	0	0	0.17358	0.17495	0.15767	0.076775	0.061803	0.071093	0.29015	0.42008	0.024687	0.29544	0.32444	0.2769	0.26963	0.20555	0.33728	0.10241	-2.8833	-2.8292	-3.3271	-3.2896	-2.6292	-3.3667	-3.0604	-3.0854	-3.4313	-2.8063	-3.3479	-3.5271	-2.7479	-3.5042	-3.0146	-2.8583	228.331	268.807	146.087	271.148	4.682	58.854	262.265	263.368	80.093	151.004	257.444	264.148	308.860	177.000	11.196	258.408	0.00018184	0.0014267	0.00021405	1364.2	2.2905e-06	3.5178e-06	1356.9	374.23	5.9721e-06	7.4091e-06	426.08	137.15	120.38	40.864	6.9292e-06	51.116	0.0025169	0.0025615	0.00071265	1703.7	2.7791e-05	2.8007e-05	1659.3	477.34	2.7768e-05	2.7721e-05	633.05	198.77	166.54	57.221	2.7158e-05	72.734	213.270	41.014	295.013	-15.928	132.284	111.715	-15.693	-11.001	218.999	111.278	-11.399	-7.438	-6.867	-2.212	-12.335	-2.888	-8191	255	
1094.912	1	1	0	0	0.073716	0.050675	0.1059	0.16324	0.16215	0.063942	0.22822	0.20915	0.035014	0.17717	0.25047	0.073383	0.21078	0.24935	0.049378	0.13583	-3.1708	-2.8917	-3.175	-3.4333	-2.6125	-3.3896	-3.3917	-2.8625	-3.6688	-2.7479	-3.1479	-3.4833	-3.0312	-3.3271	-3.0146	-2.6917	67.012	158.169	260.959	31.181	8.057	168.779	239.950	301.714	199.292	94.083	287.950	220.792	261.998	309.711	185.866	257.392	0.00032917	0.00052934	0.0002749	1365.8	1.2241e-05	8.2913e-06	1354	372.07	3.6267e-06	2.5025e-06	423.89	137.78	119.95	40.636	1.0513e-05	51.256	0.0024246	0.0024749	0.00068863	1688.7	2.706e-05	2.7151e-05	1647.2	473.81	2.7078e-05	2.698e-05	625.01	197.52	165.63	57.116	2.7303e-05	73.097	112.100	19.596	230.520	-15.519	119.998	-11.393	-15.781	-10.984	96.789	-8.526	-11.188	-7.119	-6.612	-1.969	189.906	-2.849	-8191	255	
1094.985	1	1	0	0	0.10399	0.18249	0.12662	0.41362	0.13212	0.1283	0.07775	0.18791	0.054081	0.10499	0.09066	0.076402	0.1033	0.19937	0.1345	0.059969	-3.1354	-2.7354	-3.0042	-3.4208	-2.5833	-3.4146	-3.3854	-2.8083	-3.4688	-2.9167	-3.0417	-3.4417	-2.8688	-3.475	-3.425	-2.7375	269.495	324.582	157.249	285.496	164.571	302.816	288.981	245.244	-4.852	143.913	170.476	277.737	285.769	133.167	55.743	320.605	0.00049039	0.0017871	0.00036963	1368.3	5.8821e-06	1.3412e-05	1350.1	372.87	8.4759e-06	3.3267e-06	426.35	137.95	119.94	40.952	9.7829e-06	50.97	0.0024756	0.0025275	0.00070496	1698.9	2.7698e-05	2.7828e-05	1655.5	477.05	2.7733e-05	2.8011e-05	636.18	199.82	168.03	57.861	2.8155e-05	73.99	190.567	49.834	32.321	-15.821	169.256	89.880	-15.602	-10.824	83.976	140.940	-11.987	-7.461	-6.988	-2.910	-8.810	-3.108	-8191	255	
1095.081	1	1	0	0	0.15821	0.049645	0.12466	0.16137	0.18212	0.32206	0.26721	0.31657	0.066578	0.17105	0.15461	0.26776	0.15752	0.28004	0.18528	0.1959	-3.0146	-3.0479	-2.8521	-3.6063	-2.7	-3.1875	-3.5417	-2.7604	-3.275	-2.9667	-2.8271	-3.5896	-2.7833	-3.1833	-3.2583	-2.8667	40.111	-19.910	238.097	313.361	233.186	225.578	292.958	261.984	150.649	-23.115	5.769	279.616	322.860	329.787	-4.384	173.104	0.00024343	0.00074549	0.00028346	1365	6.2825e-06	1.2291e-05	1353.8	371.6	1.06e-05	1.3699e-05	424.37	137.9	119.95	40.683	1.4179e-05	51.262	0.0025342	0.0025732	0.00071307	1701.6	2.7683e-05	2.7759e-05	1652.8	474.77	2.7244e-05	2.7177e-05	626.94	197.64	165.98	57.012	2.7065e-05	72.917	198.512	67.576	269.913	-15.988	73.333	329.893	-16.199	-11.187	103.946	107.918	-11.858	-7.467	-6.881	-2.628	119.755	-3.030	-8191	255	
1095.200	1	1	0	0	0.32614	0.043439	0.12594	0.20996	0.1846	0.038986	0.064989	0.15187	0.26409	0.14405	0.2218	0.3435	0.1659	0.087147	0.14553	0.11566	-2.9771	-3.1292	-2.7042	-3.7271	-2.8812	-3.075	-3.5521	-2.8646	-3.3958	-3.1125	-2.8187	-3.6125	-2.9688	-2.8354	-3.1417	-2.7542	287.957	43.082	218.664	287.105	318.086	154.196	69.439	199.944	185.487	240.217	255.763	57.206	155.951	310.588	294.564	38.114	0.00021298	0.0014554	0.00045094	1367.5	1.1316e-05	1.0945e-05	1355.9	372.35	6.0839e-06	1.7634e-05	427.02	137.19	120.17	40.75	1.2389e-05	51.157	0.0024326	0.0024798	0.00069074	1690.3	2.7071e-05	2.7195e-05	1648.9	473.64	2.7188e-05	2.7247e-05	629.37	197.86	166.07	57.084	2.7204e-05	72.979	248.420	223.431	222.140	-15.914	144.504	68.766	-16.065	-11.229	302.885	45.068	-12.228	-7.976	-7.085	-2.447	-12.392	-3.274	-8191	255	
1095.296	1	1	0	0	0.15116	0.059998	0.15076	0.11847	0.14134	0.4777	0.24603	0.26787	0.11991	0.15826	0.19699	0.11736	0.16086	0.22624	0.26057	0.21187	-2.9021	-3.1042	-2.6021	-3.6688	-2.8396	-3.0208	-3.7042	-2.8438	-3.1813	-3.1937	-2.6583	-3.5708	-3.1792	-3.0604	-3.4521	-2.85	237.725	184.163	42.699	149.295	149.165	5.391	278.285	297.987	179.559	25.170	255.430	302.220	267.830	259.254	172.713	217.788	0.00012777	0.001336	0.000312	1362.9	9.873e-06	8.4028e-06	1350.9	372.38	1.9474e-05	6.2135e-06	427.09	137.34	120.19	40.699	1.0059e-05	50.967	0.0024505	0.0025029	0.00069792	1694.3	2.7456e-05	2.7536e-05	1655.4	476.45	2.7761e-05	2.7937e-05	636.86	200.07	167.85	57.699	2.7982e-05	73.695	159.363	231.825	76.287	-16.362	-24.012	120.488	-16.183	-11.599	142.388	198.171	-11.957	-7.790	-7.198	-2.508	164.691	-3.336	-8191	255	
1095.392	1	1	0	0	0.15182	0.10937	0.0080034	0.15817	0.15694	0.15689	0.11909	0.45631	0.26645	0.1113	0.14894	0.29334	0.1234	0.18928	0.19517	0.13649	-2.8417	-3.2354	-2.6771	-3.5167	-3.0042	-2.65	-3.6271	-2.7792	-3.0458	-3.5667	-2.8396	-3.4188	-3.2417	-2.7625	-3.4625	-2.95	254.045	260.485	145.019	5.876	11.520	17.424	247.301	290.806	278.690	-19.944	27.387	-17.449	300.302	314.070	168.644	-24.466	0.00019837	0.001736	0.00026913	1363.7	5.0554e-06	1.3364e-05	1353.3	372.66	1.2016e-05	1.5909e-05	423.42	137.41	119.97	40.814	5.6831e-06	50.879	0.0025041	0.0025411	0.00070749	1697.7	2.7644e-05	2.7721e-05	1655.5	476.25	2.7609e-05	2.7694e-05	632.7	198.98	166.8	57.362	2.7392e-05	73.109	250.344	17.163	17.266	-16.106	78.724	74.272	-16.288	-11.790	158.371	129.603	-11.970	-7.486	-6.887	-2.938	207.089	-3.219	-8191	255	
1095.513	1	1	0	0	0.061228	0.19352	0.18198	0.30401	0.096472	0.18406	0.013904	0.12579	0.20532	0.027041	0.092712	0.085693	0.18903	0.0088499	0.099355	0.23186	-2.7479	-3.3271	-2.6375	-3.4583	-3.2271	-2.8563	-3.5521	-2.9292	-2.8375	-3.2771	-2.8083	-3.5208	-3.1479	-2.8958	-3.4062	-2.9813	-3.935	58.733	22.718	296.802	242.253	28.116	118.260	190.596	312.491	86.926	326.962	197.700	270.274	136.662	1.464	235.993	0.00021293	0.0003805	0.00035393	1363.2	4.7959e-06	7.1896e-06	1353.5	372.53	8.8614e-06	3.7225e-06	425.06	137.68	119.63	40.842	6.3557e-06	50.668	0.0024619	0.0025064	0.00069858	1691.6	2.7292e-05	2.7432e-05	1650.9	474.22	2.7191e-05	2.707e-05	626.64	197.06	165.29	56.696	2.6606e-05	72.103	176.830	44.563	137.407	-16.204	319.288	39.622	-16.245	-11.499	161.967	76.238	-11.929	-7.627	-7.039	-2.697	211.762	-3.196	-8191	255	
1095.609	1	1	0	0	0.32397	0.065166	0.15001	0.08132	0.050137	0.12257	0.10786	0.22527	0.14568	0.10773	0.13043	0.29474	0.16979	0.19104	0.17599	0.072232	-2.4375	-3.425	-2.5417	-3.5062	-3.2625	-2.8271	-3.5771	-2.9917	-2.9	-3.4688	-2.8417	-3.2875	-3.5604	-2.725	-3.5354	-3.025	9.639	183.108	99.974	313.670	-6.521	267.723	163.509	326.567	182.667	72.806	143.833	312.985	-22.367	300.512	111.665	76.814	9.6526e-05	0.0016211	7.6577e-05	1362.6	3.896e-06	6.9374e-06	1348.9	371.74	6.8615e-06	1.4092e-05	426.77	138.05	119.43	40.701	2.4828e-06	51.006	0.0023834	0.0024301	0.00067633	1680.9	2.6709e-05	2.6824e-05	1640.2	471.58	2.6834e-05	2.6874e-05	625.87	197.11	165.2	56.743	2.6952e-05	72.602	65.286	72.603	92.507	-16.278	198.570	4.688	-16.241	-11.676	2.577	167.451	-12.552	-7.667	-7.049	-2.745	15.874	-3.210	-8191	255	
1095.681	1	1	0	0	0.20893	0.11548	0.12766	0.2175	0.23443	0.18027	0.26494	0.2253	0.14433	0.21134	0.14363	0.11726	0.21979	0.16769	0.32358	0.20882	-2.4854	-3.3979	-2.7438	-3.1688	-3.2875	-2.7146	-3.5792	-3.2687	-2.8	-3.5333	-2.9042	-3.2062	-3.3479	-2.9354	-3.425	-3.2062	90.098	54.973	259.552	280.071	-26.628	188.067	232.980	294.088	116.894	33.445	296.952	224.669	-5.719	283.000	50.906	-14.333	8.2169e-05	0.0014873	0.00027891	1366.3	1.8105e-05	1.4372e-05	1357.8	373.08	3.4859e-06	2.1401e-06	425.68	137.97	120.14	40.696	7.9204e-06	51.003	0.0024305	0.0024852	0.00068955	1689.9	2.7207e-05	2.7283e-05	1648.5	473.99	2.7072e-05	2.7088e-05	627.73	197.18	165.9	56.897	2.6933e-05	72.613	93.867	-26.521	237.722	-16.201	232.484	-7.860	-16.366	-11.699	140.706	41.243	-12.340	-7.813	-7.126	-2.648	140.383	-3.569	-8191	255	
1095.777	1	1	0	0	0.17987	0.17632	0.25676	0.11647	0.26004	0.19418	0.14588	0.26267	0.11277	0.27177	0.26766	0.26724	0.46497	0.21623	0.10451	0.19157	-2.3208	-3.5833	-2.9083	-3.0646	-3.5208	-2.6542	-3.5417	-3.1833	-2.7687	-3.6333	-2.9292	-3.1	-3.525	-2.8729	-3.3354	-3.4333	297.684	105.331	106.563	308.201	110.281	211.666	277.458	267.339	77.380	126.427	311.293	316.710	300.735	-11.134	148.922	198.843	0.0001346	0.0013769	0.00032028	1360.8	1.5512e-05	5.274e-06	1346.8	371.52	1.2723e-05	9.1499e-06	430.24	137.67	119.46	40.689	4.5792e-06	50.757	0.0024193	0.0024696	0.00068602	1685.1	2.6852e-05	2.6944e-05	1640.9	472.07	2.684e-05	2.6816e-05	626.09	196.83	165.05	56.715	2.6839e-05	72.432	97.047	5.583	67.634	-16.167	232.837	99.337	-16.315	-11.811	15.312	182.595	-12.302	-7.695	-6.895	-2.906	209.969	-3.232	-8191	255	
1095.896	1	1	0	0	0.16286	0.16405	0.24455	0.31206	0.33133	0.36696	0.17605	0.14618	0.081189	0.055417	0.29367	0.14288	0.21008	0.20748	0.20697	0.14012	-2.2417	-3.4646	-2.8563	-3.1688	-3.4542	-2.8104	-3.3542	-3.3667	-2.5729	-3.3438	-3.0729	-2.8333	-3.4396	-2.9417	-3.1333	-3.4688	79.401	204.492	292.028	284.082	-5.358	-28.543	322.234	84.507	188.803	277.437	4.298	-21.213	-12.345	217.459	113.510	31.888	0.00012501	0.0010114	0.00022016	1362.7	4.8716e-06	1.5837e-05	1350.5	371.61	4.8149e-06	8.5694e-06	426.32	137.63	120.16	40.687	3.7242e-06	50.935	0.002409	0.0024502	0.00068233	1683	2.69e-05	2.6994e-05	1646.2	473.43	2.7246e-05	2.7359e-05	629.1	198.29	166.35	57.12	2.7252e-05	72.87	132.410	66.502	112.697	-16.291	112.993	-13.131	-16.145	-11.747	215.082	77.144	-12.600	-7.656	-7.426	-3.095	12.268	-3.295	-8191	255	
1095.992	1	1	0	0	0.098446	0.17831	0.19817	0.22082	0.21504	0.14314	0.17309	0.25549	0.30507	0.49432	0.25946	0.13959	0.13448	0.19437	0.053084	0.16974	-2.2229	-3.3354	-3.0833	-3.1042	-3.4625	-3.0104	-3.3167	-3.4938	-2.8292	-3.2417	-3.4354	-2.6854	-3.6021	-2.9458	-2.9313	-3.3333	311.083	-29.572	121.060	254.216	209.078	134.549	275.047	252.572	119.757	70.675	48.762	-23.962	-15.535	-6.614	214.336	329.078	0.00030677	0.00050945	0.00030013	1361.2	8.1691e-06	4.6955e-06	1357.4	372.03	7.3315e-06	8.9153e-06	425.04	137.39	119.49	40.588	1.2431e-05	50.881	0.0024302	0.0024734	0.00068552	1686.1	2.6826e-05	2.6902e-05	1644.7	472.37	2.6836e-05	2.688e-05	625.08	196.68	165.28	56.717	2.6661e-05	72.275	180.691	77.633	61.220	-16.410	78.709	27.515	-16.342	-11.610	178.120	83.275	-12.624	-7.649	-7.092	-2.984	130.989	-3.729	-8191	255	
1096.088	1	1	0	0	0.12228	0.10007	0.23984	0.35665	0.16745	0.19376	0.29127	0.16134	0.1266	0.15324	0.063397	0.2867	0.091329	0.091153	0.18757	0.18277	-2.2313	-3.5479	-3.1229	-2.775	-3.4042	-2.9083	-3.05	-3.6875	-2.6417	-3.2188	-3.4979	-2.8083	-3.5979	-3.2125	-2.7125	-3.5125	124.926	50.849	261.376	23.403	-21.775	172.023	274.679	271.092	270.422	9.680	32.137	298.964	36.882	170.623	128.210	278.873	0.00014715	0.00075303	0.00045461	1364.3	4.2578e-06	1.085e-05	1355.1	371.86	1.8403e-05	1.443e-05	426.87	138.28	120.15	40.576	9.1459e-07	50.68	0.0023958	0.0024408	0.00067635	1679.5	2.6585e-05	2.6622e-05	1639.9	470.18	2.642e-05	2.6494e-05	620.88	195.6	164.43	56.276	2.6348e-05	71.997	137.482	53.177	269.960	-16.320	87.966	300.360	-16.160	-11.694	210.828	177.206	-11.985	-7.584	-6.997	-2.897	193.371	-3.186	-8191	255	
1096.209	1	1	0	0	0.09262	0.0586	0.14176	0.031135	0.092819	0.28357	0.23754	0.3403	0.1216	0.18518	0.097652	0.1674	0.41993	0.18771	0.0095395	0.023252	-2.3604	-3.1521	-3.4083	-2.8417	-3.4083	-3.0417	-3.0875	-3.6854	-2.8042	-3.1188	-3.4542	-2.6229	-3.4854	-3.0438	-2.7938	-3.6542	223.604	209.381	298.715	-7.388	161.940	199.371	243.446	283.546	133.155	154.398	23.650	287.840	303.975	-1.227	138.794	88.927	0.00043973	0.00088444	0.00044343	1362.7	2.8872e-06	4.7478e-06	1351.5	370.89	9.1415e-06	6.7508e-06	426	137.44	119.76	40.49	8.7473e-06	50.852	0.0023643	0.0024061	0.00066991	1672.8	2.6231e-05	2.6247e-05	1630.4	468.28	2.5976e-05	2.6077e-05	616.33	194.19	163.21	55.991	2.5923e-05	71.412	173.693	179.935	18.782	-16.407	256.639	191.619	-16.245	-11.619	145.513	286.507	-12.385	-7.819	-6.868	-2.607	218.368	-3.620	-8191	255	
1096.281	1	1	0	0	0.13697	0.083499	0.17749	0.12602	0.25428	0.089866	0.32716	0.26907	0.12848	0.034869	0.19947	0.1987	0.17736	0.15893	0.28538	0.084238	-2.3354	-3.05	-3.4604	-2.7146	-3.3708	-3.0812	-2.9583	-3.4771	-2.8833	-2.9917	-3.6396	-2.7562	-3.2479	-3.2812	-2.6625	-3.3625	266.061	117.089	250.723	211.060	162.966	199.240	290.556	224.298	270.409	290.723	226.203	225.442	321.302	282.950	95.053	85.848	0.00024328	0.0012168	0.00048379	1364.3	1.0233e-05	9.6679e-06	1347	370.94	1.0784e-05	1.11e-05	425.44	137.88	120.04	40.616	1.1896e-05	50.875	0.0023251	0.0023673	0.00065831	1668.6	2.5902e-05	2.6005e-05	1627.8	467.43	2.5909e-05	2.6019e-05	616.71	194.33	163.14	56.02	2.5915e-05	71.426	200.284	-23.212	94.985	-16.163	32.048	183.868	-16.233	-11.947	105.619	111.691	-12.089	-7.599	-7.227	-2.466	5.061	-3.352	-8191	255	
1096.377	1	1	0	0	0.091237	0.21256	0.20528	0.354	0.3656	0.054661	0.15091	0.37914	0.15128	0.28337	0.15595	0.14525	0.01978	0.13578	0.2061	0.22984	-2.4146	-2.8708	-3.5708	-2.8583	-3.2771	-3.3667	-2.8812	-3.5458	-2.9958	-2.9854	-3.4958	-2.7542	-3.2042	-3.4042	-2.7646	-3.5354	35.201	2.248	-24.481	330.258	309.979	273.793	-23.288	285.630	-1.837	231.530	-28.762	238.755	-24.147	2.770	253.109	319.496	0.00017915	0.00063751	0.00022486	1361.4	7.6139e-06	4.8799e-06	1350.1	373.42	2.0344e-06	1.0351e-05	425.44	137.2	120.41	40.454	7.3375e-06	51.192	0.0023287	0.0023674	0.00065796	1666.3	2.5921e-05	2.5845e-05	1630.2	467.64	2.5785e-05	2.5876e-05	613.8	193.37	162.63	55.691	2.5445e-05	71.051	163.395	50.807	210.260	-16.287	64.074	20.886	-16.000	-11.567	243.232	36.921	-11.700	-7.372	-7.019	-2.513	137.605	-3.157	-8191	255	
1096.473	1	1	0	0	0.23217	0.16009	0.065938	0.174	0.16158	0.13442	0.12045	0.2408	0.17219	0.070609	0.26033	0.076216	0.21369	0.053765	0.24592	0.1388	-2.7479	-2.6979	-3.4833	-2.9833	-3.0458	-3.2417	-2.8479	-3.5812	-3.0812	-2.7792	-3.5521	-2.9396	-3.1458	-3.5042	-2.8187	-3.4729	28.926	155.394	25.743	278.509	326.538	154.998	-27.545	273.950	40.370	308.408	281.107	50.656	313.219	245.603	177.625	270.613	6.5206e-05	0.00036049	0.00036001	1353.3	1.0155e-06	4.3449e-06	1353.4	372.17	1.1866e-05	3.5117e-06	424.93	138.59	119.92	40.551	5.0885e-06	50.879	0.0022805	0.0023135	0.00064714	1657.8	2.5458e-05	2.5643e-05	1625.1	466.06	2.5703e-05	2.5837e-05	614.13	194.07	163.2	55.97	2.5823e-05	71.351	63.218	33.156	5.967	-16.033	263.991	166.903	-16.083	-11.588	136.396	198.054	-11.956	-7.631	-6.986	-2.328	232.589	-3.415	-8191	255	
1096.593	1	1	0	0	0.050331	0.13764	0.2983	0.050817	0.052387	0.055365	0.35281	0.12569	0.04514	0.044558	0.032658	0.022118	0.24458	0.24715	0.28619	0.15521	-2.7438	-2.4458	-3.3458	-2.85	-3.0563	-3.4833	-2.8646	-3.5271	-3.3708	-2.5625	-3.4896	-2.9708	-3.0125	-3.4708	-2.7375	-3.1625	26.373	12.926	101.667	43.799	263.054	-8.488	247.528	298.200	104.547	-1.753	253.869	-4.946	304.571	287.814	79.240	260.311	0.00012507	0.00081904	0.00025335	1364.1	6.6252e-06	7.7229e-06	1351.9	372.96	1.1351e-05	6.031e-06	424.83	137.91	120.06	40.611	6.5817e-06	50.779	0.0023121	0.0023579	0.00065614	1663.3	2.5715e-05	2.5815e-05	1625.9	467.3	2.5812e-05	2.5892e-05	615.36	194.01	163.08	56.044	2.5822e-05	71.484	280.020	23.167	307.393	-16.314	108.795	248.645	-16.428	-11.718	267.430	324.977	-11.986	-7.853	-7.298	-2.904	56.096	-3.486	-8191	255	
1096.690	1	1	0	0	0.10804	0.10632	0.14874	0.074523	0.070062	0.096812	0.38506	0.26964	0.25837	0.17297	0.02558	0.19207	0.2466	0.14694	0.068576	0.15322	-2.975	-2.5625	-3.3792	-3.0938	-2.7583	-3.5	-2.9479	-3.2333	-3.275	-2.5208	-3.4917	-3.1688	-3.025	-3.6958	-2.6437	-3.2521	56.040	123.725	25.466	-24.029	213.481	91.196	309.230	280.273	277.796	-6.870	216.909	25.801	325.108	-19.452	30.104	325.008	0.00023469	0.00041316	0.00025275	1353.1	1.0803e-05	9.6317e-07	1349.2	371.63	9.077e-06	4.3967e-06	423.53	137.84	120	40.808	1.2598e-05	50.888	0.0023249	0.0023619	0.00065558	1663.6	2.5752e-05	2.5729e-05	1624.4	466.41	2.5563e-05	2.5735e-05	612.85	193.3	162.83	55.925	2.5688e-05	71.328	184.835	25.778	-3.198	-16.352	323.222	104.985	-16.090	-11.391	143.894	264.895	-12.318	-7.623	-7.054	-2.818	146.685	-3.321	-8191	255	
1096.786	1	1	0	0	0.2383	0.086335	0.19687	0.082416	0.12068	0.053624	0.29946	0.16545	0.1569	0.088948	0.17209	0.3113	0.18561	0.10101	0.096864	0.23156	-3.1042	-2.5375	-3.2604	-3.3417	-2.7292	-3.5521	-3.0854	-3.0479	-3.3812	-2.7625	-3.4396	-3.1729	-2.8042	-3.4729	-2.75	-3.1063	95.856	110.787	130.728	283.837	100.824	285.040	282.932	248.195	31.325	97.901	309.394	215.932	194.295	274.438	316.475	325.003	0.00039838	0.00081013	0.00042718	1359	1.0364e-05	3.088e-06	1347	372.93	5.6927e-06	2.0192e-05	425.02	137.14	119.84	40.489	6.4059e-06	50.864	0.002321	0.0023633	0.00065901	1667.9	2.5984e-05	2.6124e-05	1630.5	469.62	2.6215e-05	2.6483e-05	621.36	195.42	163.88	56.321	2.6141e-05	71.769	156.757	302.460	-29.237	-16.300	177.481	220.119	-16.287	-11.497	310.769	55.782	-12.070	-7.936	-7.091	-2.553	23.317	-3.297	-8191	255	
1096.882	1	1	0	0	0.22441	0.14767	0.15225	0.35556	0.092972	0.22275	0.16615	0.12498	0.44991	0.14225	0.22265	0.086584	0.23352	0.1255	0.12221	0.14454	-2.975	-2.6896	-3.3063	-3.3979	-2.6667	-3.5604	-3.0042	-3.0875	-3.4417	-2.525	-3.3667	-3.4729	-2.7167	-3.5417	-3.0479	-2.9313	285.949	251.609	286.399	289.407	20.073	305.258	227.427	224.097	281.015	81.001	295.729	35.705	51.097	15.628	75.376	135.155	9.1972e-05	0.00068842	9.1296e-05	1363.6	2.7924e-06	1.028e-05	1346.6	372.32	2.9542e-06	9.86e-06	424.65	137.05	119.5	40.682	7.5306e-06	50.896	0.0023424	0.0023802	0.0006646	1670.7	2.6186e-05	2.6265e-05	1629.4	469.46	2.6256e-05	2.6425e-05	620.07	195.45	163.94	56.331	2.6264e-05	71.89	193.203	106.083	41.755	-16.499	221.643	203.476	-16.253	-11.465	158.788	60.717	-12.049	-7.567	-7.020	-2.741	106.184	-3.119	-8191	255	
1096.978	1	1	0	0	0.16669	0.35391	0.11005	0.14902	0.066027	0.10322	0.011612	0.1595	0.16225	0.11429	0.22878	0.10767	0.31548	0.17439	0.21649	0.052737	-3.0729	-2.7833	-3.1042	-3.6125	-2.6667	-3.5	-3.1708	-2.9458	-3.5146	-3.0208	-3.1333	-3.5	-2.5729	-3.3479	-3.0417	-2.7729	59.989	173.434	19.235	275.477	258.725	88.719	46.114	35.730	208.813	295.181	320.455	278.586	121.904	-18.647	215.597	321.951	0.00027873	0.0010246	0.00010005	1360.2	1.3547e-05	7.1324e-06	1349.4	371.49	5.9953e-06	1.3297e-05	424.29	136.97	119.98	40.623	1.2588e-05	50.846	0.0023677	0.0024033	0.00067213	1673.6	2.6436e-05	2.659e-05	1636.5	469.75	2.651e-05	2.6629e-05	622.84	196.11	164.81	56.682	2.6767e-05	72.324	153.752	294.348	119.342	-16.035	90.701	188.819	-16.516	-11.556	200.151	73.103	-11.974	-7.788	-7.409	-2.544	134.475	-3.336	-8191	255	
1097.072	1	1	0	0	0.29879	0.13516	0.14817	0.060904	0.12738	0.16575	0.19472	0.38816	0.22274	0.13596	0.21185	0.069339	0.16157	0.17242	0.11118	0.2403	-3.0792	-2.9	-2.9792	-3.5521	-2.675	-3.2604	-3.2667	-2.8208	-3.475	-2.7396	-2.9	-3.4104	-2.7938	-3.1521	-3.2625	-2.6854	-27.426	157.527	22.226	69.829	215.126	118.756	257.228	307.323	135.468	-3.460	158.314	320.913	-10.739	140.305	323.462	247.304	0.00013266	0.00080677	0.00039855	1358.9	1.2342e-05	1.2375e-05	1345.1	371.78	1.1487e-05	1.8546e-05	424.46	137.4	119.75	40.712	8.1929e-06	51.375	0.0024136	0.0024578	0.00068669	1682	2.6903e-05	2.6964e-05	1640.3	471.94	2.6824e-05	2.6971e-05	624.17	196.68	164.73	56.657	2.668e-05	72.301	158.117	86.090	8.778	-16.344	123.767	30.319	-16.074	-11.651	216.345	150.593	-12.615	-7.814	-7.110	-2.570	181.966	-3.395	-8191	255	
1097.193	1	1	0	0	0.41084	0.26984	0.16149	0.30894	0.088163	0.2233	0.14353	0.064451	0.26457	0.30406	0.086349	0.20293	0.12384	0.19819	0.28572	0.03916	-3.1604	-2.875	-2.725	-3.7812	-2.7771	-3.3542	-3.5854	-2.8229	-3.5271	-2.9021	-3.0563	-3.4437	-3.0854	-3.2375	-3.3604	-2.8792	236.606	58.060	197.558	-29.259	253.628	274.456	232.252	22.191	-28.675	135.247	329.893	243.815	76.744	-0.145	16.974	329.037	0.0001377	0.0017878	0.0001433	1365	1.0026e-05	1.7534e-05	1348.6	371.3	2.1761e-07	1.0921e-05	425.77	137.31	119.76	40.59	1.7754e-05	51.066	0.0023904	0.0024412	0.00068148	1682.2	2.6782e-05	2.698e-05	1640.9	472.5	2.7014e-05	2.712e-05	627.02	197.04	165.46	56.823	2.691e-05	72.523	118.307	-19.661	27.274	-16.302	136.245	212.436	-16.123	-11.612	-21.993	178.071	-11.874	-7.758	-6.875	-2.537	133.315	-3.582	-8191	255	
1097.289	1	1	0	0	0.079502	0.31644	0.12115	0.14329	0.31727	0.19897	0.18097	0.21681	0.081394	0.030707	0.3459	0.22432	0.074056	0.10953	0.076753	0.18417	-2.9521	-2.9313	-2.6104	-3.6646	-2.6354	-2.9396	-3.4604	-2.65	-3.3875	-3.1437	-2.7542	-3.5708	-2.8979	-3.1312	-3.3708	-2.8667	150.999	213.030	292.777	-5.403	26.437	-20.522	276.204	248.971	76.793	-19.419	-29.107	16.433	209.053	218.766	-0.242	218.483	0.00028692	0.00010816	0.00026907	1362.7	2.6883e-06	1.8197e-06	1355	372.22	8.7306e-06	8.1559e-06	425.46	137.32	119.56	40.493	1.1234e-05	50.899	0.0024147	0.0024604	0.00068506	1682.8	2.6958e-05	2.7087e-05	1644.1	473.18	2.7094e-05	2.7222e-05	627.9	197.5	165.71	56.987	2.7167e-05	72.636	167.299	318.989	263.216	-16.127	162.344	233.151	-16.252	-11.325	32.503	304.529	-12.222	-7.774	-7.049	-2.387	228.682	-3.554	-8191	255	
1097.385	1	1	0	0	0.19518	0.0044955	0.10161	0.25116	0.079451	0.039043	0.16466	0.22894	0.1706	0.18075	0.30094	0.17547	0.061241	0.16949	0.083082	0.06873	-2.9062	-3.275	-2.65	-3.4854	-2.9104	-2.9833	-3.775	-2.7354	-3.175	-3.2917	-2.8625	-3.5917	-2.8688	-2.875	-3.3125	-2.8042	87.429	292.708	137.323	-16.563	218.865	149.183	240.309	-25.224	291.927	-0.522	286.104	270.070	300.491	269.656	89.400	-8.560	0.00030064	0.00057278	0.00061711	1360.9	8.7615e-06	6.8796e-06	1351.2	371.37	1.0068e-05	4.6125e-06	427.06	137.18	119.8	40.417	8.1203e-06	51.193	0.0024374	0.0024869	0.00069064	1687.2	2.7154e-05	2.7261e-05	1645.1	473.86	2.7198e-05	2.7388e-05	629.68	198.11	165.92	57.034	2.7057e-05	72.704	198.622	29.818	-27.325	-16.225	123.042	110.537	-16.416	-11.698	249.218	62.662	-11.525	-7.699	-7.102	-2.705	55.168	-3.368	-8191	255	
1097.482	1	1	0	0	0.14866	0.044938	0.10309	0.21436	0.14231	0.069269	0.073703	0.25697	0.33559	0.073601	0.1391	0.13344	0.18347	0.29054	0.060866	0.23943	-2.9083	-3.3479	-2.5125	-3.4458	-2.9313	-2.7729	-3.6375	-2.9583	-3.3167	-3.2896	-2.7625	-3.5187	-3.0333	-2.8625	-3.5708	-2.9542	210.573	-0.343	224.025	273.086	10.492	227.505	311.857	280.594	-23.587	210.672	317.729	311.759	235.618	310.395	56.974	293.983	0.00032708	0.0011952	0.00059411	1356.3	1.0292e-05	8.6365e-06	1344.4	370.19	7.2557e-06	1.185e-05	424.92	137.59	120.34	40.849	1.038e-05	50.975	0.0024173	0.0024533	0.00067873	1677.7	2.6583e-05	2.6651e-05	1634.4	469.45	2.6598e-05	2.677e-05	624.3	197.06	165.4	56.792	2.6769e-05	72.33	145.023	325.814	15.764	-16.432	133.633	51.562	-16.016	-11.491	26.707	-12.054	-12.250	-7.659	-7.133	-2.632	109.495	-3.698	-8191	255	
1097.578	1	1	0	0	0.078466	0.094873	0.098878	0.4601	0.23774	0.13633	0.25838	0.21349	0.087557	0.21331	0.10417	0.15355	0.08453	0.2459	0.10174	0.29744	-2.8	-3.3812	-2.5	-3.6354	-3.1312	-2.6896	-3.7104	-2.9521	-2.8042	-3.2792	-2.7458	-3.4771	-3.1979	-2.8229	-3.4104	-3.0062	-29.393	260.715	127.609	279.697	135.477	187.831	250.991	270.921	322.611	103.655	322.216	196.031	22.444	271.692	22.750	10.750	0.0002935	0.00085909	8.8423e-05	1354.9	1.5759e-05	1.2243e-06	1344.1	370.01	2.4328e-06	8.8855e-06	422.83	137.07	119.51	40.568	5.0836e-06	50.486	0.0024	0.0024398	0.00067897	1674.8	2.6494e-05	2.6598e-05	1634.6	470.05	2.6555e-05	2.6609e-05	620.33	195.86	164.3	56.529	2.6656e-05	72.11	155.711	132.087	0.208	-16.109	45.919	311.003	-16.052	-11.563	21.611	191.176	-12.308	-7.626	-7.330	-2.394	330.286	-3.573	-8191	255	
#DATA ENDS
