BOXY.EXE: ISS Imagent and Oximeter Data Acquisition Program Version 0.80
Ascii Record File

#ACQ INFORMATION
2  Detector Channels 
16  External MUX Channels 
1  Auxiliary Channels 
5000  Waveform (CCF) Frequency (Hz)
1  Waveforms Skipped 
30  Waveforms Averaged 
1  Cycles Averaged 
16  Acquisitions per Waveform 
10.0806  Updata Rate (Hz) 

#FILE INFORMATION
TRUE -- External MUX Channel results are PARSED.
FALSE -- AC DC and Phase are NOT grouped.
TRUE -- Companion Program Settings File CREATED.
FALSE -- AC data not excluded
FALSE -- DC data not excluded
FALSE -- Phase data not excluded
FALSE -- Auxillary Chn. data not excluded
Tab delimiters

#CALIBRATION STATE
TRUE -- Waveform Calibration Values APPLIED.


#AUX CALIBRATION VALUES
Val Type	aux-1	

Term	1.0000e+00	
Factor	0.0000e+00	


#WF CALIBRATION VALUES
A = Detector Channel
Val Type	A-AC1	A-AC2	A-AC3	A-AC4	A-AC5	A-AC6	A-AC7	A-AC8	A-AC9	A-AC10	A-AC11	A-AC12	A-AC13	A-AC14	A-AC15	A-AC16	A-DC1	A-DC2	A-DC3	A-DC4	A-DC5	A-DC6	A-DC7	A-DC8	A-DC9	A-DC10	A-DC11	A-DC12	A-DC13	A-DC14	A-DC15	A-DC16	A-Ph1	A-Ph2	A-Ph3	A-Ph4	A-Ph5	A-Ph6	A-Ph7	A-Ph8	A-Ph9	A-Ph10	A-Ph11	A-Ph12	A-Ph13	A-Ph14	A-Ph15	A-Ph16	

Term	0.00000e+00	0.00000e+00	0.00000e+00	0.00000e+00	0.00000e+00	0.00000e+00	0.00000e+00	0.00000e+00	0.00000e+00	0.00000e+00	0.00000e+00	0.00000e+00	0.00000e+00	0.00000e+00	0.00000e+00	0.00000e+00	0.00000e+00	0.00000e+00	0.00000e+00	0.00000e+00	0.00000e+00	0.00000e+00	0.00000e+00	0.00000e+00	0.00000e+00	0.00000e+00	0.00000e+00	0.00000e+00	0.00000e+00	0.00000e+00	0.00000e+00	0.00000e+00	0.00000e+00	0.00000e+00	0.00000e+00	0.00000e+00	0.00000e+00	0.00000e+00	0.00000e+00	0.00000e+00	0.00000e+00	0.00000e+00	0.00000e+00	0.00000e+00	0.00000e+00	0.00000e+00	0.00000e+00	0.00000e+00	
Factor	1.00000e+00	1.00000e+00	1.00000e+00	1.00000e+00	1.00000e+00	1.00000e+00	1.00000e+00	1.00000e+00	1.00000e+00	1.00000e+00	1.00000e+00	1.00000e+00	1.00000e+00	1.00000e+00	1.00000e+00	1.00000e+00	1.00000e+00	1.00000e+00	1.00000e+00	1.00000e+00	1.00000e+00	1.00000e+00	1.00000e+00	1.00000e+00	1.00000e+00	1.00000e+00	1.00000e+00	1.00000e+00	1.00000e+00	1.00000e+00	1.00000e+00	1.00000e+00	X	X	X	X	X	X	X	X	X	X	X	X	X	X	X	X	

B = Detector Channel
Val Type	B-AC1	B-AC2	B-AC3	B-AC4	B-AC5	B-AC6	B-AC7	B-AC8	B-AC9	B-AC10	B-AC11	B-AC12	B-AC13	B-AC14	B-AC15	B-AC16	B-DC1	B-DC2	B-DC3	B-DC4	B-DC5	B-DC6	B-DC7	B-DC8	B-DC9	B-DC10	B-DC11	B-DC12	B-DC13	B-DC14	B-DC15	B-DC16	B-Ph1	B-Ph2	B-Ph3	B-Ph4	B-Ph5	B-Ph6	B-Ph7	B-Ph8	B-Ph9	B-Ph10	B-Ph11	B-Ph12	B-Ph13	B-Ph14	B-Ph15	B-Ph16	

Term	0.00000e+00	0.00000e+00	0.00000e+00	0.00000e+00	0.00000e+00	0.00000e+00	0.00000e+00	0.00000e+00	0.00000e+00	0.00000e+00	0.00000e+00	0.00000e+00	0.00000e+00	0.00000e+00	0.00000e+00	0.00000e+00	0.00000e+00	0.00000e+00	0.00000e+00	0.00000e+00	0.00000e+00	0.00000e+00	0.00000e+00	0.00000e+00	0.00000e+00	0.00000e+00	0.00000e+00	0.00000e+00	0.00000e+00	0.00000e+00	0.00000e+00	0.00000e+00	-1.11490e+02	-1.44461e+02	-1.55614e+02	-1.82560e+02	-8.83846e+01	-8.59903e+01	-1.57864e+02	-1.62015e+02	-7.44826e+01	-8.66925e+01	-1.76690e+02	-1.75636e+02	-1.82239e+02	-1.78593e+02	-6.85138e+01	-1.50992e+02	
Factor	1.67491e-05	8.88375e-05	3.15935e-05	1.84768e-01	9.19831e-07	9.64287e-07	1.72038e-01	5.65733e-02	8.59285e-07	9.98274e-07	1.29398e-01	3.60063e-02	2.58074e-02	9.26987e-03	9.50100e-07	1.30507e-02	5.55320e-07	5.66512e-07	1.57662e-07	9.03898e-02	6.20192e-09	6.21277e-09	8.01144e-02	2.77038e-02	6.20157e-09	6.20332e-09	5.74342e-02	1.63539e-02	1.24459e-02	4.43695e-03	6.19588e-09	5.97847e-03	X	X	X	X	X	X	X	X	X	X	X	X	X	X	X	X	



#DISTANCE SETTINGS
A = Detector Channel
A-1	A-2	A-3	A-4	A-5	A-6	A-7	A-8	A-9	A-10	A-11	A-12	A-13	A-14	A-15	A-16	

2.5000e+00	3.0000e+00	2.5000e+00	3.0000e+00	2.0000e+00	3.0000e+00	1.5000e+00	3.0000e+00	3.0000e+00	3.0000e+00	3.0000e+00	3.0000e+00	3.0000e+00	3.0000e+00	1.5000e+00	3.0000e+00	

B = Detector Channel
B-1	B-2	B-3	B-4	B-5	B-6	B-7	B-8	B-9	B-10	B-11	B-12	B-13	B-14	B-15	B-16	

1.0000e+01	1.0000e+01	1.0000e+01	1.4400e+00	1.0000e+01	1.0000e+01	1.5100e+00	1.9400e+00	1.0000e+01	1.0000e+01	1.9900e+00	2.4900e+00	2.4100e+00	2.9000e+00	1.0000e+01	2.9800e+00	




#DATA BEGINS
time	group	step	mark	flag	A-AC1	A-AC2	A-AC3	A-AC4	A-AC5	A-AC6	A-AC7	A-AC8	A-AC9	A-AC10	A-AC11	A-AC12	A-AC13	A-AC14	A-AC15	A-AC16	A-DC1	A-DC2	A-DC3	A-DC4	A-DC5	A-DC6	A-DC7	A-DC8	A-DC9	A-DC10	A-DC11	A-DC12	A-DC13	A-DC14	A-DC15	A-DC16	A-Ph1	A-Ph2	A-Ph3	A-Ph4	A-Ph5	A-Ph6	A-Ph7	A-Ph8	A-Ph9	A-Ph10	A-Ph11	A-Ph12	A-Ph13	A-Ph14	A-Ph15	A-Ph16	B-AC1	B-AC2	B-AC3	B-AC4	B-AC5	B-AC6	B-AC7	B-AC8	B-AC9	B-AC10	B-AC11	B-AC12	B-AC13	B-AC14	B-AC15	B-AC16	B-DC1	B-DC2	B-DC3	B-DC4	B-DC5	B-DC6	B-DC7	B-DC8	B-DC9	B-DC10	B-DC11	B-DC12	B-DC13	B-DC14	B-DC15	B-DC16	B-Ph1	B-Ph2	B-Ph3	B-Ph4	B-Ph5	B-Ph6	B-Ph7	B-Ph8	B-Ph9	B-Ph10	B-Ph11	B-Ph12	B-Ph13	B-Ph14	B-Ph15	B-Ph16	aux-1	digaux	

1108.093	1	1	0	256	0.20275	0.08987	0.20119	0.31699	0.10365	0.10701	0.17702	0.092705	0.23707	0.18732	0.069785	0.23222	0.085773	0.17698	0.1212	0.10672	-2.5646	-3.4604	-2.5104	-3.35	-3.0604	-2.55	-3.4583	-2.9333	-2.7313	-3.2021	-2.7271	-3.1479	-3.1333	-2.6083	-3.325	-3.0104	278.516	260.604	115.572	299.969	250.629	298.211	306.513	299.351	49.349	233.315	91.981	255.118	-4.833	25.024	194.812	326.540	0.00015183	0.00094348	0.00026886	1048.5	3.5645e-06	5.0794e-06	1123.4	225.9	9.0608e-06	3.75e-06	288.43	78.571	61.726	18.178	5.5982e-06	24.936	0.0005234	0.00053054	0.00014819	1044.5	5.835e-06	5.9122e-06	1115.7	233.91	5.8552e-06	5.8503e-06	301.43	85.927	68.007	20.638	5.9815e-06	28.317	131.760	101.578	146.516	-13.416	22.529	111.083	-13.356	-6.456	110.763	80.678	-6.381	0.186	0.469	7.502	244.188	7.394	-8191	255	
1108.189	1	1	0	0	0.16668	0.093286	0.29626	0.041331	0.19173	0.10435	0.29176	0.18999	0.20956	0.094908	0.10195	0.18723	0.098127	0.081606	0.082938	0.12643	-2.4333	-3.3688	-2.6542	-3.1229	-3.0625	-2.6708	-3.5292	-3.1479	-2.7062	-3.3	-2.7833	-3.0104	-3.2812	-2.5854	-3.2854	-3.0292	153.520	185.743	198.256	53.667	126.727	333.004	265.459	190.435	153.980	49.476	149.006	288.508	292.357	255.335	192.549	8.451	6.6422e-05	0.00048364	0.00015502	1049	3.626e-06	6.0282e-06	1121.5	225.87	7.0644e-06	1.3247e-05	284.39	78.45	62.051	17.942	2.6273e-06	25.264	0.00053979	0.00055207	0.00015347	1048.4	6.057e-06	6.0468e-06	1119.6	234.81	6.0495e-06	6.0397e-06	301.31	86.144	68.09	20.616	6.0394e-06	28.406	120.760	103.619	87.749	-13.378	195.029	160.946	-13.267	-6.102	118.688	52.117	-6.195	0.570	0.578	7.596	265.732	7.227	-8191	255	
1108.308	1	1	0	0	0.099514	0.22117	0.12453	0.12815	0.13218	0.081329	0.23628	0.05442	0.077083	0.095622	0.20949	0.25632	0.26401	0.13839	0.21667	0.21514	-2.4	-3.3833	-2.7562	-3.1146	-3.2667	-2.4854	-3.4729	-3.3125	-2.6458	-3.5792	-2.7792	-3.0375	-3.4771	-2.4292	-3.3	-3.0979	268.482	92.216	259.211	257.174	112.216	24.882	257.479	326.368	65.947	85.990	-2.805	292.235	89.084	312.140	297.182	230.367	0.00014933	0.00041045	9.2435e-05	1044	5.369e-06	2.8924e-06	1120.3	225.51	2.346e-06	4.8327e-06	284.53	78.425	61.732	17.985	1.1644e-05	25.161	0.0005461	0.00055131	0.00015331	1047	6.0183e-06	5.9949e-06	1117.2	234.66	5.9977e-06	5.9963e-06	301.64	86.046	68.068	20.675	6.0579e-06	28.425	155.343	55.415	180.191	-13.482	214.243	157.625	-13.375	-6.335	92.181	74.272	-7.036	0.386	0.492	7.645	64.821	7.584	-8191	255	
1108.381	1	1	0	0	0.13226	0.23441	0.39357	0.11617	0.14654	0.10986	0.33572	0.1432	0.064662	0.20042	0.34015	0.30106	0.04195	0.076766	0.051309	0.35901	-2.0458	-3.4646	-2.7792	-3.0146	-3.3563	-2.7021	-3.2062	-3.1604	-2.625	-3.3479	-2.8187	-2.8479	-3.4542	-2.7479	-3.0833	-3.2417	268.374	35.458	326.391	34.047	257.110	37.678	257.275	16.787	48.001	-15.011	69.791	229.640	20.023	323.076	88.155	324.906	0.00019269	0.00051553	0.00017286	1045.6	4.1647e-06	5.6267e-06	1122.4	224.48	3.5684e-06	6.3634e-06	284.19	78.391	61.788	18.155	2.7141e-06	25.123	0.00054667	0.00055587	0.0001558	1049.5	6.0662e-06	6.0989e-06	1120.3	234.53	6.1686e-06	6.134e-06	303.02	86.469	68.413	20.808	6.2456e-06	28.473	129.695	10.089	127.304	-13.572	24.974	-9.165	-13.336	-6.508	245.991	202.837	-6.615	0.405	0.800	7.683	186.621	7.244	-8191	255	
1108.478	1	1	0	0	0.18845	0.05056	0.070334	0.2172	0.11339	0.061758	0.18466	0.24524	0.1015	0.27348	0.16581	0.20334	0.25065	0.15998	0.26969	0.23325	-2.1708	-3.1646	-2.7333	-2.7542	-3.3604	-2.7917	-3.3208	-3.4271	-2.5667	-3.3646	-3.0208	-2.5687	-3.3333	-2.8396	-3.1063	-3.4437	-8.308	-12.305	102.237	264.385	287.441	314.661	238.580	327.264	186.588	321.546	184.840	162.384	273.811	6.866	-22.003	260.743	3.6546e-05	0.00052069	0.00011402	1046.6	5.5662e-06	4.2951e-06	1116.1	225.38	2.0316e-06	6.5807e-07	284.09	78.09	61.884	18.015	1.1241e-05	25.385	0.00056101	0.00057016	0.00015836	1049.4	6.2296e-06	6.2404e-06	1119.7	235.23	6.2207e-06	6.2189e-06	303.07	86.322	68.419	20.813	6.1979e-06	28.524	77.496	14.642	252.928	-13.547	89.626	101.043	-13.176	-6.247	176.357	96.309	-6.371	0.879	0.525	7.723	212.926	7.376	-8191	255	
1108.596	1	1	0	0	0.17651	0.17706	0.34287	0.13057	0.035494	0.075521	0.2532	0.33508	0.22873	0.30878	0.13372	0.08045	0.11802	0.065177	0.119	0.14725	-2.075	-3.2	-2.925	-2.6708	-3.5375	-2.7938	-3.0792	-3.4354	-2.6083	-3.2167	-3.1896	-2.6937	-3.4688	-2.8333	-2.7146	-3.3958	56.991	250.500	267.516	321.139	44.174	86.582	297.703	307.684	136.904	39.484	-9.318	181.386	309.141	60.824	39.581	46.402	0.0002167	9.0684e-05	0.00010668	1046.5	1.9747e-06	1.0186e-06	1120.4	225.37	1.0069e-06	1.0909e-06	284.3	78.329	61.699	18.011	5.051e-06	25.219	0.00056207	0.00056701	0.00015755	1051.3	6.1812e-06	6.1403e-06	1119.2	234.57	6.1519e-06	6.133e-06	302.09	86.059	68.248	20.727	6.1292e-06	28.524	154.076	53.581	179.418	-13.523	130.236	38.436	-13.299	-5.990	166.145	329.658	-7.000	0.276	0.321	7.967	209.028	7.050	-8191	255	
1108.693	1	1	0	0	0.24132	0.11555	0.065455	0.15581	0.091895	0.13371	0.14233	0.22002	0.12772	0.086108	0.10469	0.25767	0.13961	0.17128	0.27694	0.054539	-2.075	-3.1229	-3.1063	-2.6937	-3.1854	-2.9958	-2.9313	-3.5729	-2.6875	-3.0854	-3.3521	-2.4437	-3.3833	-2.9083	-2.6458	-3.3417	228.981	335.586	60.566	105.327	145.947	-23.051	235.798	296.495	158.627	15.539	295.429	95.901	291.795	309.253	196.990	145.877	9.2111e-05	0.00064028	0.00013787	1045.6	1.4993e-06	4.0128e-06	1117.6	225.09	7.0478e-06	8.9627e-06	283.3	78.316	61.572	17.958	2.8608e-06	25.171	0.00055475	0.0005623	0.00015734	1047.9	6.1137e-06	6.1437e-06	1117.5	234.72	6.1282e-06	6.1257e-06	302.37	86.353	68.182	20.78	6.1826e-06	28.519	141.936	325.391	330.700	-13.426	43.860	132.946	-13.411	-6.127	0.105	118.986	-6.320	0.245	0.787	8.127	314.943	6.976	-8191	255	
1108.789	1	1	0	0	0.2663	0.24456	0.077161	0.43548	0.16201	0.099817	0.24456	0.044798	0.12252	0.16793	0.21607	0.023886	0.13958	0.10032	0.4063	0.11643	-2.2042	-2.7938	-3.1188	-2.5875	-3.2625	-3.0208	-2.6396	-3.3417	-2.7042	-2.9354	-3.4562	-2.5167	-3.1583	-3.0625	-2.4917	-3.2542	67.137	314.131	198.941	334.575	192.554	306.246	307.345	289.651	334.430	4.272	215.886	213.277	305.742	115.094	194.247	324.506	7.9145e-05	0.00053663	0.00021172	1043.8	4.0441e-06	1.4668e-06	1118.2	224.33	1.062e-05	4.584e-06	284.35	77.607	61.621	17.849	1.2862e-06	25.066	0.00055628	0.00056651	0.00015732	1048.8	6.1747e-06	6.1901e-06	1119.8	234.46	6.1975e-06	6.1929e-06	302.47	86.115	68.178	20.732	6.167e-06	28.509	165.015	-22.502	56.637	-13.672	237.966	228.855	-13.039	-6.073	182.598	121.783	-6.680	0.155	0.825	7.674	65.589	7.682	-8191	255	
1108.885	1	1	0	0	0.14977	0.094181	0.27835	0.13439	0.02859	0.10035	0.017491	0.092699	0.14965	0.22426	0.046092	0.32019	0.11989	0.11415	0.33699	0.30206	-2.475	-2.8417	-3.1437	-2.6021	-3.0687	-3.2083	-2.6583	-3.475	-2.7188	-2.7375	-3.3896	-2.5646	-3.2854	-3.2604	-2.5479	-3.4292	66.052	297.335	15.179	221.044	119.802	297.887	194.124	248.818	33.357	104.725	-13.250	224.402	309.447	180.451	100.665	310.408	0.00015211	0.00024881	0.00011419	1043.5	7.8578e-06	3.9893e-07	1117.6	224.16	2.9326e-06	6.813e-06	284.6	78.403	61.557	18.055	2.8556e-06	25.161	0.00055635	0.00056716	0.00015591	1046.2	6.0854e-06	6.1524e-06	1116.8	234	6.1012e-06	6.1203e-06	301.73	85.919	68.061	20.65	6.0816e-06	28.455	196.475	96.504	329.870	-13.418	34.546	250.973	-13.032	-6.028	157.472	29.855	-6.431	0.337	0.823	7.825	236.140	7.294	-8191	255	
1108.981	1	1	0	0	0.14318	0.1962	0.18958	0.28385	0.087693	0.16701	0.11445	0.22249	0.19927	0.18084	0.035178	0.2221	0.024591	0.20474	0.23645	0.10661	-2.4938	-2.7583	-3.3167	-2.8521	-3.1583	-3.2333	-2.6229	-3.3583	-3.0271	-2.8625	-3.4521	-2.6333	-2.9208	-3.3208	-2.4979	-3.2729	277.562	269.373	313.914	320.663	29.472	307.257	269.612	-13.141	229.259	281.921	-11.131	38.956	25.838	211.206	-0.498	106.738	0.0001533	0.00032545	0.00019188	1039.2	8.9468e-06	5.3336e-06	1113.1	223.82	3.19e-06	8.1524e-06	283.06	77.671	61.779	17.896	3.4236e-06	24.872	0.00054805	0.00055683	0.00015435	1044.5	6.0321e-06	6.0424e-06	1112.8	233.75	6.0034e-06	6.0575e-06	299.51	85.745	68.032	20.651	6.0476e-06	28.396	174.529	189.557	303.344	-13.405	-9.508	87.969	-13.591	-5.989	157.427	175.656	-6.781	0.347	1.039	7.836	268.414	7.848	-8191	255	
1109.077	1	1	0	0	0.040287	0.14735	0.14418	0.21767	0.22905	0.10458	0.12734	0.11574	0.41808	0.32174	0.2549	0.080103	0.12223	0.19538	0.30519	0.076631	-2.5833	-2.6625	-3.2771	-2.5625	-2.8021	-3.2625	-2.6396	-3.325	-3.1625	-2.6979	-3.4708	-2.9	-2.8438	-3.4708	-2.5729	-3.0792	227.770	3.096	95.800	312.775	87.517	116.801	170.883	308.312	288.613	37.241	67.584	155.151	116.385	-6.129	334.005	37.351	0.00015487	0.00043361	6.5441e-05	1044.6	3.0954e-06	6.6701e-06	1115.7	223.61	3.7206e-06	2.2132e-06	283.41	77.967	61.444	17.977	3.1202e-06	25.009	0.00054692	0.00055599	0.00015489	1045.1	6.0869e-06	6.1172e-06	1114.8	233.22	6.1436e-06	6.1219e-06	301.09	85.999	67.875	20.672	6.0714e-06	28.308	128.531	64.933	183.750	-13.617	171.796	93.370	-13.232	-5.943	84.434	155.020	-6.656	0.304	1.033	7.441	93.198	6.940	-8191	255	
1109.198	1	1	0	0	0.1647	0.077316	0.18158	0.23237	0.24725	0.14068	0.44976	0.17685	0.029203	0.10922	0.033776	0.083458	0.10885	0.2339	0.16292	0.17571	-2.6833	-2.5271	-3.3646	-2.8417	-2.9333	-3.3563	-3.0229	-3.1167	-3.3479	-2.5563	-3.4875	-2.9125	-2.7062	-3.3688	-2.7646	-3.0667	50.922	227.711	164.515	296.134	105.632	138.458	272.247	325.295	312.725	260.906	51.373	207.354	176.690	197.383	-7.294	266.110	0.00010447	0.00035099	0.00011413	1040.2	6.8009e-06	3.998e-06	1114.5	222.33	6.9462e-06	4.5489e-06	282.77	78.104	61.148	17.957	4.3578e-06	25.106	0.00055052	0.00056112	0.00015465	1043.4	6.1737e-06	6.147e-06	1113.7	233.45	6.1356e-06	6.1324e-06	300.88	86.038	67.993	20.666	6.1644e-06	28.396	91.504	306.627	132.637	-13.640	150.859	81.407	-13.474	-6.486	-11.836	222.305	-6.284	-0.188	0.483	7.949	178.410	7.341	-8191	255	
1109.294	1	1	0	0	0.097131	0.022394	0.11362	0.3101	0.064303	0.072228	0.3215	0.44212	0.26813	0.26714	0.19324	0.075169	0.27945	0.07561	0.26132	0.19345	-3.0125	-2.5104	-3.3458	-3.0083	-2.6958	-3.5979	-2.8375	-3.1729	-3.3063	-2.5896	-3.2292	-3.0687	-2.5708	-3.2958	-2.8063	-2.85	285.692	11.295	171.019	274.189	81.062	89.580	264.083	275.691	139.217	96.113	104.983	281.281	268.749	189.683	177.203	264.932	3.4861e-05	0.00077002	0.0002301	1039.4	7.3944e-06	4.0987e-06	1116.1	222.3	2.7044e-06	5.7008e-06	283.81	77.862	61.011	17.877	5.319e-06	25.033	0.00055111	0.00056102	0.00015595	1044	6.1221e-06	6.1154e-06	1113.6	233.02	6.1406e-06	6.1317e-06	301.02	85.888	67.858	20.595	6.1431e-06	28.457	199.812	316.065	298.205	-13.706	153.210	75.390	-13.356	-6.257	108.697	258.866	-6.555	0.622	0.319	7.449	136.420	7.281	-8191	255	
1109.388	1	1	0	0	0.099319	0.13894	0.079733	0.31596	0.088081	0.2546	0.051846	0.39989	0.043486	0.21766	0.0757	0.14091	0.21987	0.2011	0.13522	0.14703	-3.0125	-2.4708	-3.1792	-3.3667	-2.7812	-3.5521	-3.025	-2.9917	-3.3063	-2.5646	-3.3479	-3.1063	-2.7438	-3.3875	-2.7625	-2.95	135.470	325.763	186.073	241.269	270.476	253.151	202.697	303.380	224.574	198.279	263.989	36.785	141.047	16.166	332.168	-5.495	7.041e-05	0.00068329	0.00019411	1043.8	3.162e-06	1.0077e-06	1116	224.15	7.8878e-06	8.2022e-06	283.78	77.824	61.897	18.008	2.947e-06	25.026	0.00055335	0.00056186	0.00015615	1044.8	6.1454e-06	6.1513e-06	1115.3	233.4	6.1196e-06	6.1249e-06	300.8	85.948	68.019	20.716	6.098e-06	28.384	83.171	326.494	327.262	-13.743	174.342	-12.137	-13.720	-5.891	123.824	86.881	-6.317	0.302	0.922	7.768	303.792	7.353	-8191	255	
1109.485	1	1	0	0	0.10588	0.20782	0.27665	0.28611	0.10976	0.066815	0.087903	0.26919	0.071867	0.14089	0.096614	0.053646	0.052656	0.26754	0.048334	0.21687	-3.1063	-2.5146	-3.1083	-3.2604	-2.525	-3.6188	-3.1667	-2.7771	-3.5771	-2.7125	-3.1917	-3.2667	-2.5687	-3.5833	-3.0187	-2.7292	31.903	172.984	163.078	304.628	50.775	233.788	271.313	247.254	156.957	230.802	51.474	51.260	38.500	-0.884	77.976	-8.677	5.2659e-05	0.00076121	0.00024172	1043.4	1.1645e-06	2.209e-06	1110.1	222.96	4.5369e-06	1.0458e-06	283.78	77.623	61.489	18.102	3.5263e-06	24.907	0.00054854	0.00055765	0.0001546	1045.4	6.1201e-06	6.0977e-06	1113.1	232.9	6.1058e-06	6.0983e-06	300.99	85.765	67.784	20.672	6.1093e-06	28.34	37.561	163.855	1.183	-13.539	180.982	-18.369	-13.448	-6.005	138.146	122.170	-6.707	0.049	0.725	7.613	170.376	7.399	-8191	255	
1109.605	1	1	0	0	0.12102	0.2158	0.19447	0.059044	0.11836	0.11562	0.27545	0.21564	0.1827	0.10256	0.04522	0.31461	0.037754	0.22058	0.21806	0.31398	-3.2208	-2.6063	-2.9271	-3.6562	-2.7458	-3.2021	-3.1854	-2.8292	-3.4562	-2.7917	-3.1417	-3.4604	-2.8771	-3.2167	-3.0583	-2.7542	76.549	59.228	142.312	207.109	193.599	281.328	268.122	305.112	54.058	-22.903	59.239	-22.771	225.172	83.591	320.435	141.245	0.00015894	0.00042143	0.0001483	1041.2	7.6157e-06	7.5025e-06	1116	223.1	2.2565e-06	1.3806e-06	283.23	77.89	61.429	17.969	6.06e-06	24.996	0.00055049	0.00055599	0.00015485	1044.4	6.0858e-06	6.0965e-06	1114.2	233.08	6.082e-06	6.0793e-06	300.01	85.553	67.844	20.635	6.0837e-06	28.296	175.939	96.393	112.511	-13.556	126.372	99.558	-13.455	-6.066	15.796	67.750	-6.176	0.819	1.076	7.424	215.756	7.163	-8191	255	
1109.677	1	1	0	0	0.15654	0.19773	0.32853	0.046503	0.14159	0.10326	0.12691	0.059111	0.36217	0.060004	0.16641	0.19713	0.099256	0.12752	0.057419	0.04814	-3.1604	-2.7729	-2.9813	-3.4938	-2.65	-3.275	-3.4021	-2.7333	-3.4646	-2.9042	-2.8271	-3.5104	-2.6458	-3.2021	-3.2208	-2.6125	2.542	91.424	-23.604	10.058	256.388	-19.111	320.871	287.489	214.575	111.199	-18.430	141.854	329.872	119.561	96.860	101.242	0.00014872	0.00029596	4.2819e-05	1040.8	5.1913e-06	4.937e-06	1112	223.73	1.0732e-05	1.3332e-06	284.55	78.499	61.681	17.999	4.9829e-06	24.963	0.00055251	0.00056152	0.00015521	1045.3	6.1378e-06	6.1554e-06	1114.3	233.67	6.1551e-06	6.1405e-06	302.15	86.028	68.048	20.7	6.1266e-06	28.41	155.263	228.608	332.193	-13.503	49.556	46.647	-13.393	-6.096	188.657	164.837	-6.288	0.305	0.245	8.129	88.859	6.920	-8191	255	
1109.773	1	1	0	0	0.25904	0.11541	0.10374	0.29339	0.10775	0.14196	0.16635	0.24001	0.17183	0.13314	0.13003	0.093829	0.19057	0.016372	0.095764	0.22287	-3.15	-2.8875	-2.8292	-3.6042	-2.7687	-3.1708	-3.4229	-2.7062	-3.3521	-3.0354	-2.7208	-3.5167	-2.7708	-3.0146	-3.3063	-2.625	243.957	251.660	292.380	258.675	185.286	220.251	244.898	256.402	231.019	241.311	326.945	328.652	252.960	136.176	252.521	-14.140	0.00010253	0.00027589	9.2155e-05	1043.1	8.3521e-06	4.7037e-06	1110	223.44	2.0784e-06	7.3047e-06	283.26	77.62	61.31	18.071	4.6612e-06	24.872	0.00055432	0.00056134	0.00015644	1045.3	6.1205e-06	6.0689e-06	1111.7	232.87	6.0834e-06	6.0533e-06	300.34	85.406	67.553	20.599	6.0244e-06	28.213	145.017	-23.468	83.127	-13.536	214.707	31.946	-13.326	-6.136	306.848	247.565	-6.834	0.243	0.813	7.843	141.339	7.384	-8191	255	
1109.869	1	1	0	0	0.089361	0.051724	0.17263	0.30011	0.044415	0.12396	0.12565	0.038924	0.15297	0.053292	0.05106	0.18332	0.28334	0.055154	0.086275	0.15035	-3.0083	-2.8729	-2.5687	-3.6562	-2.6729	-2.8854	-3.6063	-2.5438	-3.1771	-3.2104	-2.6167	-3.5438	-2.8417	-3.0521	-3.5	-2.8042	152.438	221.971	76.865	293.118	-16.470	292.146	16.061	125.081	43.949	156.075	77.573	257.781	284.854	310.860	112.788	210.618	0.00017044	0.00059817	6.0971e-05	1040	5.0867e-06	4.6163e-06	1116.1	222.98	3.9318e-06	3.0654e-06	282.95	77.551	61.625	17.933	5.1767e-06	25.044	0.00054286	0.00055048	0.00015312	1043	6.0515e-06	6.0287e-06	1114.8	232.83	6.0868e-06	6.0628e-06	300.37	85.529	67.888	20.605	6.0959e-06	28.287	136.533	267.907	71.338	-13.574	75.953	241.777	-13.564	-5.803	49.099	137.416	-6.606	0.176	1.098	7.766	186.203	7.354	-8191	255	
1109.990	1	1	0	0	0.087353	0.12659	0.12735	0.17525	0.057953	0.30108	0.19225	0.13863	0.037434	0.033362	0.22054	0.091802	0.18984	0.10288	0.086368	0.296	-2.9562	-3.2667	-2.5979	-3.3729	-2.7854	-2.9229	-3.3979	-2.6979	-3.2333	-3.3896	-2.6562	-3.3875	-2.9583	-2.8312	-3.3229	-2.4875	311.489	229.741	142.168	-23.139	-7.296	33.908	255.701	67.366	135.405	142.804	5.476	65.190	120.939	89.527	120.149	111.737	0.00021623	0.00041922	0.00021979	1040.5	6.3135e-06	2.6771e-06	1113.3	222.33	4.9762e-06	8.095e-06	283.46	77.593	61.724	17.977	5.1239e-06	24.984	0.00055189	0.00055691	0.00015527	1044.9	6.1046e-06	6.0925e-06	1112.3	232.68	6.0775e-06	6.0293e-06	299.73	85.582	67.732	20.609	6.0276e-06	28.216	112.443	-5.231	30.126	-13.420	165.121	51.439	-13.588	-6.119	157.546	56.536	-6.525	0.305	0.557	7.778	122.998	7.209	-8191	255	
1110.086	1	1	0	0	0.33828	0.15619	0.29755	0.19722	0.086545	0.12678	0.2474	0.33238	0.19892	0.13696	0.2454	0.19708	0.095886	0.21025	0.088053	0.20912	-2.65	-3.2	-2.6542	-3.3229	-3.1188	-2.7812	-3.4875	-2.9854	-3.1125	-3.1688	-2.6292	-3.3333	-3.1458	-2.8375	-3.5833	-2.9688	239.233	217.624	248.246	274.432	99.506	10.676	319.950	307.190	6.326	255.772	169.422	234.767	290.987	297.797	-16.941	237.649	0.00017449	0.00033391	6.0182e-05	1032.3	5.3349e-06	1.0748e-05	1118.9	223.69	1.977e-06	5.6638e-06	282.37	77.851	61.545	18.038	1.1707e-05	24.988	0.00054205	0.00054811	0.0001528	1039.7	5.9877e-06	6.0022e-06	1113	232.34	5.9911e-06	6.0216e-06	299.32	85.563	67.58	20.644	5.9869e-06	28.217	121.196	85.556	265.866	-13.484	177.613	181.454	-13.572	-6.310	246.520	74.169	-6.430	0.459	0.723	7.842	155.021	7.161	-8191	255	
1110.182	1	1	0	0	0.15546	0.11369	0.12126	0.03949	0.14466	0.10282	0.56433	0.063627	0.061357	0.15941	0.04712	0.17057	0.23115	0.24529	0.082536	0.2858	-2.4354	-3.4437	-2.6625	-3.3125	-2.9979	-2.5896	-3.4875	-2.7646	-2.7729	-3.3708	-2.5812	-3.1437	-3.3479	-2.6708	-3.3979	-2.7313	112.080	20.753	23.654	-8.112	56.215	160.010	236.324	96.325	28.249	-22.287	175.416	144.377	298.428	114.808	166.339	312.492	8.142e-05	0.00050082	0.00023958	1037.4	5.0152e-06	4.5153e-06	1112.9	224	3.0857e-06	3.6414e-06	282.66	77.511	61.385	17.891	4.8954e-06	25.065	0.00053804	0.00054705	0.00015221	1041.4	5.9263e-06	5.9815e-06	1111.9	232.1	5.8953e-06	5.8766e-06	299.32	84.958	67.227	20.46	5.85e-06	28.06	185.468	293.680	53.993	-13.489	139.637	64.094	-13.498	-6.035	334.037	166.162	-6.642	0.383	0.681	7.441	50.149	7.168	-8191	255	
1110.278	1	1	0	0	0.15175	0.26202	0.18461	0.3765	0.13282	0.049411	0.25858	0.11185	0.065954	0.1382	0.30391	0.069256	0.1143	0.14722	0.16058	0.22164	-2.5563	-3.3917	-2.6562	-3.1771	-3.4146	-2.6396	-3.4896	-3.0604	-2.6583	-3.6208	-2.7521	-3.0771	-3.5625	-2.575	-3.3479	-3.1312	161.012	68.934	183.454	310.461	335.036	255.133	286.903	243.230	36.679	29.325	307.559	238.233	36.396	88.530	10.779	292.270	4.642e-05	0.00036095	4.3442e-05	1044.7	4.7324e-06	8.4622e-06	1109.4	223.71	3.4457e-06	9.1589e-06	283.61	77.452	60.796	17.945	3.3372e-06	24.818	0.00053183	0.00053774	0.00014812	1041.8	5.8178e-06	5.842e-06	1109	231.2	5.7817e-06	5.7643e-06	297.61	84.674	67.044	20.409	5.804e-06	27.891	61.296	75.002	237.527	-13.615	235.906	282.847	-13.504	-6.269	163.815	-2.774	-6.430	0.222	0.605	7.344	42.773	7.832	-8191	255	
1110.374	1	1	0	0	0.16981	0.21885	0.13392	0.193	0.03167	0.16754	0.10706	0.3025	0.035636	0.14726	0.36338	0.26176	0.10757	0.094781	0.15232	0.19002	-2.3854	-3.45	-2.7542	-3.1792	-3.4396	-2.6437	-3.4479	-3.0646	-2.7	-3.5375	-2.6542	-2.9396	-3.3729	-2.6229	-3.3375	-3.3187	263.039	108.098	116.303	333.054	27.671	157.971	-6.618	281.095	107.540	229.627	68.220	273.026	251.605	236.155	46.955	83.662	0.00016613	0.00056672	0.00011105	1035.6	4.2627e-06	4.2024e-06	1115.2	222.54	4.3849e-06	8.862e-06	283.97	78.137	61.69	17.829	7.9177e-06	24.921	0.00051933	0.00052352	0.0001466	1037.9	5.7326e-06	5.7347e-06	1108.3	230.71	5.7285e-06	5.751e-06	297.17	84.799	67.178	20.291	5.7048e-06	27.923	165.906	6.107	27.533	-13.309	15.629	145.902	-13.246	-6.022	303.406	134.175	-6.912	0.333	0.965	7.815	109.767	7.297	-8191	255	
1110.471	1	1	0	0	0.37192	0.065229	0.28893	0.34752	0.36806	0.30815	0.16068	0.14461	0.092258	0.12866	0.25481	0.26943	0.055187	0.3462	0.10167	0.16438	-2.1167	-3.5083	-2.7604	-2.975	-3.4417	-2.7188	-3.1833	-3.2292	-2.6146	-3.3771	-2.8333	-2.6083	-3.5125	-2.7188	-3.0125	-3.4188	286.423	218.276	-1.267	311.098	114.487	49.463	319.553	280.586	6.285	322.970	288.150	265.468	329.934	274.631	268.755	50.143	7.5078e-05	0.0010635	0.00021803	1043	1.7569e-06	6.1147e-06	1111.6	222.97	6.6747e-06	5.6614e-06	281.36	77.707	61.096	17.942	2.9399e-06	24.988	0.00051545	0.00052418	0.00014544	1037	5.6859e-06	5.7809e-06	1105.9	230.97	5.7086e-06	5.6767e-06	296.29	84.598	66.902	20.348	5.6427e-06	27.882	156.982	68.692	-8.464	-13.467	43.178	80.137	-13.296	-6.169	226.195	32.775	-6.359	0.773	0.886	7.621	101.176	7.081	-8191	255	
1110.567	1	1	0	0	0.24132	0.10157	0.25027	0.063401	0.087789	0.29247	0.17615	0.25327	0.13662	0.10805	0.25252	0.11514	0.20858	0.032702	0.094587	0.13985	-2.1146	-3.4542	-2.9271	-2.9313	-3.2438	-2.7687	-3.1437	-3.4146	-2.5729	-3.3667	-3.0708	-2.6083	-3.3187	-2.6688	-2.8396	-3.2375	200.328	143.908	272.180	205.888	264.189	11.755	290.723	305.644	255.568	322.241	271.205	255.656	219.715	94.386	195.987	227.812	8.1265e-05	0.00044813	0.0003224	1039.4	5.7e-06	4.9939e-06	1115.3	223.47	5.722e-06	3.6004e-06	282.17	77.417	61.432	18.087	2.8956e-06	24.863	0.00050831	0.00051573	0.00014308	1034.2	5.6233e-06	5.6552e-06	1106	230.04	5.6127e-06	5.5985e-06	294.64	84.365	66.711	20.295	5.5824e-06	27.747	109.462	-4.466	57.578	-13.586	-10.836	275.977	-13.554	-6.211	335.201	187.218	-6.599	0.050	0.630	7.574	244.703	7.118	-8191	255	
1110.686	1	1	0	0	0.084873	0.2743	0.19867	0.10888	0.18688	0.062402	0.15023	0.19971	0.42755	0.19271	0.22674	0.14888	0.13828	0.18667	0.19878	0.10206	-2.2417	-2.9938	-2.9375	-2.8292	-3.4354	-2.7625	-2.9437	-3.5271	-2.5458	-3.2875	-3.1813	-2.5979	-3.4604	-2.8042	-2.8604	-3.5062	260.369	18.813	181.955	225.502	303.022	229.991	257.281	241.027	89.147	17.610	268.380	175.699	310.009	36.997	276.861	222.712	0.00011351	0.0004454	0.00019573	1038.2	5.2801e-06	5.3393e-06	1109.8	222.24	4.9711e-07	6.1491e-06	281.91	77.109	61.588	17.86	4.0172e-06	25.105	0.00050487	0.00050925	0.00014236	1032	5.5921e-06	5.6008e-06	1102.1	230.07	5.6712e-06	5.6409e-06	295.72	84.106	66.844	20.212	5.5247e-06	27.684	133.528	59.865	305.942	-13.481	248.509	199.860	-13.497	-6.129	181.137	94.204	-7.057	0.003	0.818	7.967	318.439	7.144	-8191	255	
1110.782	1	1	0	0	0.14992	0.18163	0.068856	0.27169	0.16232	0.077219	0.12848	0.19936	0.088547	0.22503	0.16167	0.15258	0.20726	0.39153	0.16238	0.20776	-2.0125	-3.175	-3.1875	-2.5875	-3.2812	-2.8646	-2.85	-3.2417	-2.6104	-3.1667	-3.3708	-2.7083	-3.2062	-2.9896	-2.4708	-3.3854	84.709	203.445	179.959	243.446	272.255	40.305	20.778	313.924	334.939	238.353	5.592	49.039	139.695	99.916	31.809	318.011	0.00015489	0.00060101	7.8281e-05	1036.8	2.6398e-06	1.7573e-06	1111	222.49	3.878e-06	6.7071e-06	281.58	77.514	61.284	17.731	4.4604e-06	24.986	0.00049642	0.00050748	0.00014098	1031.5	5.5511e-06	5.611e-06	1102.3	229.4	5.57e-06	5.5751e-06	294.72	84.137	66.574	20.162	5.5819e-06	27.725	70.795	298.877	128.419	-13.786	142.342	25.545	-13.522	-5.928	122.387	142.231	-6.647	0.054	0.842	7.847	77.137	7.576	-8191	255	
1110.878	1	1	0	0	0.34442	0.095423	0.14096	0.15485	0.12945	0.15308	0.23273	0.16008	0.0689	0.037519	0.30215	0.18116	0.1506	0.22305	0.26486	0.12673	-2.2521	-2.9292	-3.2792	-2.6	-3.4125	-3.0646	-2.8271	-3.45	-2.7562	-2.8229	-3.3583	-2.6479	-3.35	-3.1208	-2.6	-3.4979	147.961	85.859	145.981	133.952	53.137	-1.897	228.243	319.976	228.515	293.623	9.676	8.563	247.116	71.375	-15.857	186.163	0.00012484	0.0003961	0.0003076	1037	7.6702e-06	6.0071e-06	1114.2	222.68	5.6878e-06	3.3647e-06	282.5	77.747	61.643	18.064	5.8097e-06	24.658	0.00050152	0.0005072	0.0001407	1030.9	5.5334e-06	5.5497e-06	1103.1	229.97	5.575e-06	5.5674e-06	294.26	84.057	66.742	20.217	5.5427e-06	27.633	137.978	66.507	28.596	-13.613	8.392	15.554	-13.265	-5.971	136.642	-22.900	-6.916	0.232	0.704	7.826	-16.115	7.291	-8191	255	
1110.974	1	1	0	0	0.16925	0.1286	0.16317	0.20093	0.096657	0.23484	0.30558	0.24305	0.15302	0.10835	0.097125	0.15373	0.16591	0.27054	0.20939	0.2302	-2.4375	-2.9167	-3.4625	-2.7687	-3.1708	-3.1542	-2.8	-3.3458	-2.7979	-2.8688	-3.325	-2.8417	-3.1479	-3.2708	-2.6708	-3.4833	-9.684	294.409	259.018	263.802	267.748	106.724	285.800	309.129	161.322	218.060	45.957	241.121	311.371	25.203	-11.300	128.995	0.000108	0.00046412	0.00030841	1037.1	6.2209e-06	4.2668e-06	1107.5	223.47	5.6517e-07	2.3332e-06	284	78.056	61.084	17.826	3.8334e-06	24.899	0.00050206	0.00050956	0.0001416	1033.1	5.6153e-06	5.6037e-06	1101.8	230.38	5.5829e-06	5.6037e-06	295.72	84.216	66.647	20.293	5.6502e-06	27.827	172.423	92.614	36.893	-13.556	73.767	101.508	-13.368	-6.112	120.186	321.164	-6.167	0.289	0.636	7.731	174.668	7.047	-8191	255	
1111.070	1	1	0	0	0.27469	0.17887	0.14719	0.26854	0.15794	0.17798	0.047247	0.04448	0.14388	0.21813	0.124	0.06945	0.13298	0.12657	0.30488	0.1866	-2.4729	-2.8604	-3.3896	-2.7188	-3.0917	-3.1646	-2.7208	-3.45	-2.9979	-2.6792	-3.3812	-2.7104	-3.0354	-3.2333	-2.5854	-3.3438	150.863	272.841	213.055	52.254	323.040	247.135	69.792	98.746	334.841	70.233	269.306	190.630	199.751	244.475	131.572	145.991	0.00018266	0.0001998	6.0566e-05	1038.8	6.2398e-06	3.1098e-06	1104.4	223.33	5.9227e-06	3.9112e-06	283.06	77.763	61.147	17.782	5.391e-06	24.946	0.00050831	0.00051142	0.00014298	1033.1	5.6504e-06	5.6758e-06	1102	230.31	5.6751e-06	5.7054e-06	296.47	84.383	66.769	20.308	5.7043e-06	27.883	149.305	197.505	180.096	-14.022	93.350	322.214	-13.386	-5.794	169.422	263.031	-7.004	0.285	0.847	7.965	102.784	6.939	-8191	255	
1111.166	1	1	0	0	0.13732	0.26376	0.29424	0.23543	0.07884	0.1842	0.26161	0.16549	0.056014	0.20402	0.049964	0.24938	0.2025	0.12799	0.17242	0.054119	-2.4604	-2.5479	-3.5062	-2.8854	-3.0229	-3.2583	-2.8438	-3.3479	-2.9646	-2.5146	-3.3146	-2.6813	-2.9646	-3.4646	-2.5917	-3.1604	330.615	80.723	333.229	238.287	280.243	289.723	270.305	224.929	-0.152	207.935	310.551	70.872	217.400	22.023	-11.631	150.809	1.0385e-05	0.00089815	2.6846e-05	1040.1	6.538e-06	2.4565e-06	1107.1	224.28	5.2216e-06	3.261e-06	281.06	77.425	61.045	17.942	4.01e-06	24.893	0.00051567	0.00052266	0.000145	1035.2	5.7427e-06	5.7255e-06	1102.9	230.95	5.73e-06	5.6992e-06	296.51	84.388	66.953	20.325	5.7567e-06	27.859	1.268	76.983	193.945	-13.789	205.883	287.977	-13.498	-6.167	163.674	325.622	-6.563	-0.058	0.870	7.647	270.855	7.216	-8191	255	
1111.287	1	1	0	0	0.0627	0.27664	0.17785	0.2389	0.19385	0.15548	0.21851	0.39448	0.22093	0.29205	0.030783	0.1241	0.22051	0.27085	0.17459	0.21254	-2.8917	-2.5146	-3.2125	-2.8688	-2.7771	-3.4458	-2.7542	-3.1625	-3.075	-2.625	-3.4604	-2.8937	-2.7771	-3.3	-2.6833	-3.1958	315.042	188.181	47.477	326.242	110.220	180.689	285.036	256.308	203.888	168.902	42.096	16.888	295.179	313.268	303.096	145.596	0.00012439	0.00030567	0.00023461	1037.5	5.5589e-06	1.1698e-06	1106.2	222.66	6.2437e-06	3.7045e-06	280.71	77.583	61.293	17.971	4.9431e-06	24.918	0.00051599	0.00052244	0.00014564	1036.1	5.7275e-06	5.7298e-06	1104.1	230.69	5.7213e-06	5.7727e-06	296.2	84.636	67.078	20.418	5.8084e-06	27.929	50.736	68.371	269.472	-13.653	139.414	163.694	-13.197	-6.053	161.847	26.033	-6.509	-0.178	0.999	7.620	55.911	7.306	-8191	255	
1111.381	1	1	0	0	0.19095	0.20161	0.19542	0.32006	0.10561	0.049386	0.34635	0.18241	0.11641	0.080021	0.033325	0.01827	0.17935	0.26726	0.20912	0.089474	-2.9833	-2.6562	-3.1562	-3.0958	-2.725	-3.3812	-2.9042	-3.2188	-3.2354	-2.5833	-3.3479	-3.1854	-2.7958	-3.4792	-2.6396	-2.8896	275.423	61.765	200.124	-16.192	297.341	207.624	280.847	66.916	138.828	76.135	289.520	95.331	98.905	170.461	285.161	297.564	6.4579e-05	0.00064928	0.00017257	1036.7	2.9613e-06	3.3773e-06	1111.3	223.44	5.29e-06	8.2298e-06	282.59	77.975	61.482	17.928	3.8625e-06	24.826	0.00052317	0.00053482	0.00014803	1038	5.8399e-06	5.8414e-06	1105.7	231.23	5.8277e-06	5.8448e-06	297.44	84.848	67.12	20.42	5.8488e-06	27.951	139.293	32.662	189.355	-13.608	114.153	149.607	-13.324	-5.867	252.454	182.172	-5.998	0.780	1.230	7.932	23.660	7.110	-8191	255	
1111.477	1	1	0	0	0.097661	0.24728	0.051253	0.36863	0.22967	0.1681	0.21013	0.105	0.030521	0.24176	0.239	0.23199	0.12431	0.094609	0.24848	0.62904	-3.1229	-2.6083	-3.2729	-3.25	-2.5646	-3.3958	-2.7729	-3.0604	-3.3479	-2.5792	-3.1562	-3.225	-2.6375	-3.2167	-2.7875	-2.7458	163.616	279.707	24.716	294.702	303.442	235.533	281.243	263.848	193.577	28.273	263.538	-10.456	145.569	4.948	276.953	307.584	0.00012659	0.00034168	0.00033657	1037	4.7533e-06	1.8918e-06	1112.1	222.38	7.9023e-06	7.2567e-06	281.81	77.332	61.315	17.913	8.8824e-06	24.96	0.00052831	0.00053442	0.00014827	1037.1	5.8833e-06	5.859e-06	1106	231.11	5.8354e-06	5.7873e-06	297.7	84.712	67.158	20.366	5.7964e-06	27.954	106.323	225.315	291.526	-13.505	277.762	254.666	-13.189	-6.070	154.699	18.604	-6.312	-0.101	0.886	7.421	142.059	7.436	-8191	255	
1111.551	1	1	0	0	0.080609	0.10979	0.23739	0.13388	0.24119	0.14137	0.23038	0.2558	0.20921	0.20138	0.11547	0.1498	0.24594	0.13707	0.13315	0.25655	-3.0438	-2.5083	-2.9062	-3.2854	-2.6	-3.4667	-3.075	-2.9188	-3.4771	-2.7042	-3.1396	-3.3688	-2.6646	-3.4875	-3.0187	-2.7812	221.822	184.312	244.200	-9.591	271.895	46.985	282.869	283.455	3.317	170.581	314.946	332.719	46.345	75.277	165.402	301.635	0.00010063	0.00043351	0.00013366	1036.2	7.4267e-07	9.4008e-06	1107.6	222	4.0481e-06	4.3951e-06	283.49	77.578	61.233	17.947	4.4998e-06	25.118	0.0005229	0.00053276	0.00014817	1035.2	5.7803e-06	5.8348e-06	1105.2	230.47	5.7964e-06	5.7889e-06	296.94	84.484	67.036	20.33	5.7678e-06	27.949	133.307	80.540	35.629	-13.609	19.606	38.272	-13.565	-6.041	234.107	160.981	-6.252	0.391	0.234	7.482	275.661	7.035	-8191	255	
1111.670	1	1	0	0	0.17216	0.090999	0.24455	0.2518	0.10361	0.19267	0.19468	0.21442	0.25284	0.19568	0.07396	0.2435	0.060806	0.036836	0.15054	0.16843	-2.9854	-2.6729	-2.8479	-3.2042	-2.5708	-3.3146	-3.2958	-2.8042	-3.5208	-2.825	-2.8917	-3.4479	-2.6958	-3.3292	-3.0771	-2.8542	334.193	140.361	273.222	190.241	126.153	36.033	285.277	245.350	248.517	98.274	45.089	14.410	71.279	103.156	41.300	95.075	0.00010796	0.0004832	0.00011955	1037.7	5.6067e-06	7.2279e-06	1110.3	221.8	5.0005e-06	4.3941e-06	283.03	77.266	60.976	17.842	1.4355e-06	25.063	0.0005175	0.00052859	0.00014661	1036.4	5.7969e-06	5.8087e-06	1105.9	230.59	5.7951e-06	5.8183e-06	297	84.445	66.96	20.341	5.8054e-06	27.997	101.663	81.609	137.454	-13.499	189.709	71.206	-13.470	-6.389	135.802	117.777	-6.617	0.351	0.658	7.468	23.344	7.088	-8191	255	
1111.766	1	1	0	0	0.13228	0.22651	0.3015	0.199	0.12072	0.19648	0.26914	0.16398	0.12953	0.11965	0.14224	0.18951	0.10192	0.2873	0.14783	0.35533	-3.1625	-2.6896	-2.8521	-3.4958	-2.7167	-3.25	-3.3937	-2.6375	-3.4521	-2.8667	-2.8063	-3.4771	-2.7625	-3.0458	-3.2333	-2.6104	223.029	157.168	-17.227	256.144	128.728	247.874	238.516	300.743	243.792	150.114	193.221	273.400	257.276	-1.427	230.877	-1.461	0.00017295	0.00067715	0.00016402	1037.4	4.9601e-06	6.5159e-06	1113.4	221.07	4.2293e-06	3.6663e-06	280.07	76.905	60.75	17.967	8.5327e-06	24.585	0.00052186	0.0005305	0.00014876	1037	5.7997e-06	5.8588e-06	1105.2	230.41	5.8523e-06	5.7788e-06	296.37	84.521	66.844	20.342	5.7835e-06	27.89	182.611	64.696	42.864	-13.807	211.408	154.167	-13.412	-6.179	304.465	335.044	-6.248	0.398	0.815	8.032	72.032	7.540	-8191	255	
1111.862	1	1	0	0	0.11895	0.095543	0.097466	0.21269	0.21056	0.041387	0.04995	0.25117	0.043697	0.057261	0.089087	0.11389	0.35149	0.084539	0.35997	0.15099	-3.0312	-2.9146	-2.9854	-3.5104	-2.8	-2.9104	-3.3729	-2.5687	-3.2542	-3.0417	-2.725	-3.5042	-2.8125	-2.825	-3.2229	-2.6813	61.668	55.537	207.023	294.044	213.292	289.445	131.470	303.670	105.796	114.488	92.592	186.372	-14.274	101.188	60.407	37.607	3.6925e-05	0.00028569	0.00010837	1036.9	4.4299e-06	3.5937e-06	1111.5	222.39	1.6671e-06	5.6346e-06	282.13	77.566	61.253	17.946	3.8996e-06	24.906	0.00052005	0.00052552	0.00014798	1035.3	5.7879e-06	5.8053e-06	1105.5	230.47	5.7901e-06	5.7394e-06	296.75	84.572	66.839	20.322	5.7326e-06	27.822	75.657	23.377	125.506	-13.610	154.905	118.314	-13.266	-6.183	119.432	50.721	-6.320	0.442	0.785	7.897	94.283	7.071	-8191	255	
1111.958	1	1	0	0	0.13164	0.1157	0.10847	0.16647	0.31532	0.085241	0.14713	0.081132	0.12307	0.26654	0.16416	0.32062	0.11377	0.24843	0.31334	0.30251	-3.0167	-2.9771	-2.3937	-3.4938	-2.8021	-2.9062	-3.5708	-2.7875	-3.2021	-3.2083	-2.6042	-3.5375	-2.7438	-2.8708	-3.3063	-2.8187	129.509	13.342	335.529	-12.710	302.684	-12.270	292.919	-13.234	311.332	3.246	243.527	-9.670	148.234	109.027	154.771	235.945	4.2678e-05	0.00030551	0.00015493	1039.3	1.8381e-06	7.621e-06	1109.7	222.92	2.6412e-06	4.6142e-06	281.03	77.118	61.206	17.864	4.3764e-06	24.967	0.00051431	0.00052042	0.00014454	1035.2	5.6937e-06	5.6789e-06	1103.9	230.07	5.6767e-06	5.6715e-06	295.72	84.326	66.809	20.31	5.6863e-06	27.832	130.809	159.727	92.772	-13.587	102.852	102.157	-13.478	-6.216	171.411	236.740	-6.230	0.488	0.432	7.406	199.325	7.313	-8191	255	
1112.079	1	1	0	0	0.13171	0.088789	0.16318	0.24615	0.04901	0.11811	0.24253	0.17742	0.26996	0.14334	0.2734	0.1302	0.063013	0.21003	0.20295	0.13389	-2.8833	-3.1	-2.5438	-3.5104	-2.8417	-2.7542	-3.6083	-2.6104	-3.0667	-3.1583	-2.6833	-3.3417	-2.825	-2.5917	-3.325	-2.7417	102.868	104.784	9.317	276.023	144.513	141.806	228.164	238.145	274.555	97.631	330.466	248.648	5.071	322.012	290.052	264.323	2.6924e-05	0.00043512	5.8975e-05	1038.6	3.6485e-06	1.1129e-06	1109.5	221.93	6.9527e-07	4.2423e-06	283.49	76.851	61.221	17.783	1.0794e-05	24.905	0.00051815	0.00052191	0.00014681	1035.8	5.7563e-06	5.7899e-06	1104.8	230.18	5.7374e-06	5.7314e-06	295.95	84.443	66.819	20.271	5.7115e-06	27.807	308.110	18.417	170.177	-13.344	141.292	-10.044	-13.549	-6.075	157.354	76.718	-6.502	0.105	0.791	7.852	165.581	7.145	-8191	255	
1112.151	1	1	0	0	0.19849	0.13294	0.11851	0.19207	0.18939	0.11206	0.16605	0.28534	0.088344	0.11487	0.12649	0.17164	0.03546	0.050752	0.14615	0.20537	-2.7521	-3.3417	-2.45	-3.5062	-3.0646	-2.7125	-3.6146	-2.8625	-2.8917	-3.2792	-2.5792	-3.1875	-3.0687	-2.5417	-3.3438	-2.8812	256.021	-0.143	294.939	295.890	260.217	198.360	233.520	-16.984	183.698	302.353	199.006	2.261	3.121	313.951	186.780	251.104	0.00012291	0.00024427	0.00020331	1041.1	4.1206e-06	4.2211e-06	1102.2	221.76	6.4268e-06	6.1245e-06	280.78	76.94	60.965	17.923	5.3592e-06	24.848	0.00051574	0.00052462	0.00014591	1037	5.6926e-06	5.7261e-06	1102.4	230.21	5.7007e-06	5.6936e-06	295.13	84.383	66.758	20.228	5.7263e-06	27.817	161.660	98.949	3.244	-13.423	200.824	108.538	-13.401	-5.964	220.081	109.914	-6.508	0.491	0.651	8.185	308.558	7.848	-8191	255	
1112.247	1	1	0	0	0.13409	0.26707	0.23031	0.21151	0.22591	0.071032	0.28861	0.16077	0.29127	0.21497	0.20798	0.17381	0.10515	0.18088	0.17414	0.083049	-2.5333	-3.2333	-2.6125	-3.1833	-2.9833	-2.6521	-3.6583	-2.9271	-2.8667	-3.3021	-2.7313	-3.0458	-3.3375	-2.6604	-3.3854	-2.7979	312.901	22.347	189.987	-14.654	25.920	140.360	238.894	1.739	10.993	99.761	317.838	38.955	331.903	318.356	195.186	171.222	0.00015068	0.00048082	0.00013071	1035	1.7672e-06	4.2247e-06	1106.9	221.26	1.8806e-06	9.8896e-06	282.09	77.631	61.565	17.908	3.341e-06	24.975	0.00051276	0.0005204	0.00014598	1035.2	5.7526e-06	5.7812e-06	1103.8	229.89	5.7776e-06	5.7075e-06	295.67	84.524	66.908	20.318	5.7414e-06	27.879	84.064	73.483	95.853	-13.404	29.692	22.955	-13.189	-6.321	81.331	141.119	-6.527	0.249	0.770	7.856	222.996	7.027	-8191	255	
1112.367	1	1	0	0	0.11447	0.14329	0.16864	0.23543	0.14776	0.28637	0.38345	0.41608	0.050701	0.094255	0.019996	0.084151	0.064392	0.095661	0.22912	0.049784	-2.5167	-3.3958	-2.6917	-3.0583	-3.3417	-2.4437	-3.5646	-3.075	-2.6208	-3.5333	-2.6396	-3.0042	-3.2583	-2.4583	-3.3771	-3.0417	64.261	192.304	211.695	298.964	14.906	166.026	316.079	291.792	243.463	14.148	16.642	109.594	330.705	-3.907	192.907	248.092	0.00012202	0.00063094	8.6361e-05	1030.7	6.6208e-06	2.6537e-06	1108.5	221.33	5.8119e-06	4.5809e-06	282.85	77.407	61.342	17.872	1.9627e-06	24.941	0.00052037	0.000525	0.00014577	1033.6	5.7437e-06	5.7801e-06	1104.5	230.13	5.7624e-06	5.7379e-06	295.87	84.498	66.916	20.287	5.758e-06	27.996	95.752	51.776	9.891	-13.713	103.862	89.627	-13.347	-5.769	160.698	0.485	-6.545	0.664	0.399	7.856	-6.776	7.227	-8191	255	
1112.462	1	1	0	0	0.26026	0.11094	0.16766	0.20333	0.093467	0.25509	0.099643	0.059117	0.076517	0.1905	0.19735	0.078416	0.15137	0.26164	0.17348	0.25633	-2.2	-3.375	-2.6146	-3.0667	-3.3812	-2.5833	-3.4146	-3.1271	-2.6167	-3.5167	-2.8417	-3.0938	-3.4708	-2.4562	-3.3375	-3.2896	64.893	198.691	86.413	335.570	298.234	32.241	313.986	285.950	263.690	1.305	-3.749	79.299	290.829	293.996	317.713	304.844	0.00020534	0.00038417	4.2456e-05	1032.5	3.2153e-06	5.5283e-06	1114.5	222.28	8.1064e-06	3.9509e-06	282.68	77.396	61.23	17.881	6.0071e-06	24.729	0.00052225	0.00053005	0.00014801	1037.3	5.8347e-06	5.8381e-06	1108.3	230.35	5.8678e-06	5.8928e-06	296.81	84.734	66.989	20.393	5.8567e-06	27.929	204.712	43.385	66.821	-13.293	118.148	61.341	-13.184	-6.231	144.123	84.671	-6.387	0.606	0.674	7.929	291.913	7.256	-8191	255	
1112.560	1	1	0	0	0.06408	0.10008	0.12867	0.43595	0.04169	0.24738	0.027114	0.11019	0.13424	0.079954	0.28434	0.19761	0.17122	0.051685	0.2794	0.22704	-2.3625	-3.4313	-2.6813	-2.8396	-3.4792	-2.6458	-3.3646	-3.1458	-2.4958	-3.2771	-3.0396	-2.4792	-3.5354	-2.7	-3.1813	-3.3396	2.720	5.273	284.839	298.719	206.793	106.852	209.489	30.012	154.880	302.299	28.523	14.533	299.156	259.161	193.057	305.886	8.1309e-05	0.00014028	0.00016517	1034.9	3.5954e-06	2.2941e-06	1110.7	220.88	5.1543e-06	1.5934e-06	280.77	76.97	60.635	17.757	1.1405e-05	24.862	0.00051879	0.00053301	0.00014722	1035.4	5.7897e-06	5.8039e-06	1104.1	229.84	5.7877e-06	5.7624e-06	295.85	84.453	66.717	20.314	5.7559e-06	27.836	140.471	186.107	78.456	-13.593	191.767	56.775	-13.106	-6.171	188.881	114.334	-6.916	-0.157	0.801	7.639	140.647	7.251	-8191	255	
1112.678	1	1	0	0	0.26	0.12829	0.061859	0.31801	0.11063	0.23428	0.10177	0.10717	0.085966	0.13778	0.22077	0.32429	0.13293	0.14549	0.13314	0.088388	-2.2417	-3.3875	-2.8604	-2.7833	-3.3563	-2.5438	-3.1292	-3.3771	-2.6688	-3.3917	-3.1167	-2.6813	-3.3604	-2.8667	-2.9042	-3.6562	148.665	3.472	247.438	316.630	320.207	60.598	313.797	252.838	301.817	32.446	-10.964	285.533	36.116	299.135	101.514	279.080	0.00014913	0.0003203	0.00020318	1034.5	1.6653e-06	1.1222e-05	1111.6	222.53	2.0743e-06	1.8097e-06	283.15	77.325	61.025	17.994	7.0715e-06	24.939	0.00052087	0.00052838	0.00014669	1034.7	5.7657e-06	5.7342e-06	1105.1	230.14	5.7493e-06	5.7279e-06	295.8	84.121	66.542	20.283	5.6143e-06	27.79	115.838	243.601	34.082	-13.212	103.305	133.370	-13.256	-6.170	230.402	71.657	-6.038	0.659	0.831	7.772	77.306	7.109	-8191	255	
1112.775	1	1	0	0	0.26676	0.1063	0.090537	0.072752	0.11592	0.19387	0.18507	0.079618	0.21775	0.12203	0.20744	0.096766	0.3778	0.17467	0.12583	0.090998	-2.2271	-3.2833	-3.1979	-2.7958	-3.3563	-2.7646	-2.9604	-3.4708	-2.6292	-3.3417	-3.1437	-2.6021	-3.4437	-2.7771	-2.7521	-3.5396	25.659	66.357	200.341	286.517	281.249	55.411	252.747	114.728	162.318	111.834	129.855	149.277	274.309	234.126	53.864	88.649	0.00012892	0.00025252	0.00010426	1042	3.6591e-06	4.7419e-06	1114.7	221.59	3.6498e-06	1.2422e-06	282.19	77.123	61.163	17.798	3.624e-06	24.921	0.00050638	0.00051074	0.00014174	1034.4	5.5439e-06	5.58e-06	1103.4	229.49	5.5649e-06	5.548e-06	293.71	83.88	66.465	20.141	5.5735e-06	27.729	154.097	-3.997	1.362	-13.636	34.352	328.299	-13.165	-5.726	29.837	276.126	-6.640	0.351	1.056	7.538	77.630	6.750	-8191	255	
1112.846	1	1	0	0	0.045094	0.28987	0.094792	0.27019	0.16438	0.26603	0.1807	0.15394	0.27817	0.15552	0.37129	0.15841	0.11984	0.055419	0.17507	0.10993	-2.1625	-3.2	-3.1396	-2.7604	-3.5167	-2.9938	-2.8417	-3.5687	-2.5979	-3.0812	-3.2	-2.5062	-3.2042	-2.9646	-2.7833	-3.5333	144.473	-14.817	311.336	236.200	162.068	114.018	262.302	285.068	64.107	261.591	247.896	150.552	302.456	140.081	145.852	164.190	0.00015949	0.00088995	0.00028803	1038	5.861e-06	2.4897e-06	1108.2	222.33	5.243e-06	4.4224e-06	282.64	77.168	61.371	17.831	2.6835e-06	25.049	0.00049711	0.00050193	0.00013886	1031	5.4754e-06	5.4853e-06	1100.3	229.03	5.445e-06	5.4527e-06	293.98	83.709	66.294	20.071	5.4803e-06	27.621	209.867	116.786	56.062	-13.778	23.030	235.818	-13.367	-6.229	62.550	-4.302	-6.463	0.310	0.789	8.077	141.445	7.028	-8191	255	
1112.967	1	1	0	0	0.14029	0.33531	0.079457	0.14464	0.20637	0.20441	0.12042	0.41943	0.20456	0.21894	0.17202	0.1197	0.28503	0.124	0.094514	0.095349	-2.3396	-3.1375	-3.1813	-2.8021	-3.3333	-3.0917	-2.7125	-3.5146	-2.5521	-2.8438	-3.4229	-2.625	-3.3625	-3.1104	-2.5604	-3.4313	55.792	271.678	34.493	63.873	45.318	-16.666	236.567	275.725	265.902	313.631	313.746	137.695	-14.040	333.132	210.639	263.109	0.00024939	0.00014702	0.00013729	1037	4.2439e-06	1.6448e-06	1108.5	222.27	2.9533e-06	8.6506e-07	282.31	77.662	61.028	18.001	1.7103e-06	25.056	0.00049314	0.00049707	0.00013705	1029.6	5.4419e-06	5.4176e-06	1101.6	228.61	5.4056e-06	5.4093e-06	293.59	83.56	66.03	20.129	5.3888e-06	27.607	130.204	87.416	71.661	-13.780	52.211	235.853	-13.229	-6.121	109.000	315.374	-6.710	0.618	0.738	7.767	53.826	6.825	-8191	255	
1113.063	1	1	0	0	0.21285	0.24249	0.12613	0.14213	0.035353	0.32429	0.16439	0.0579	0.218	0.14085	0.19028	0.042908	0.1178	0.14584	0.22895	0.12349	-2.5542	-3	-3.3729	-2.8229	-3.2188	-3.1312	-2.85	-3.5167	-2.725	-2.8167	-3.4229	-2.7396	-3.1937	-3.1042	-2.5771	-3.4938	146.589	178.785	268.956	108.719	61.558	146.562	215.767	-13.730	24.047	238.935	74.160	168.749	308.299	252.524	306.265	301.653	0.00014421	0.00060741	5.94e-05	1034.3	5.2679e-06	1.0329e-06	1108.5	221.5	4.2767e-06	2.3168e-06	281.19	76.836	61.53	18.03	8.5136e-06	24.87	0.00048406	0.00049343	0.0001367	1029.3	5.3809e-06	5.3573e-06	1098.8	228.12	5.2755e-06	5.2734e-06	291.13	82.814	65.82	19.997	5.1903e-06	27.333	124.106	70.569	286.910	-13.813	98.537	-18.282	-13.155	-6.155	243.548	117.219	-6.428	0.526	0.608	7.622	125.631	7.442	-8191	255	
1113.159	1	1	0	0	0.18253	0.25569	0.23612	0.072247	0.077143	0.059837	0.15021	0.13151	0.3183	0.20465	0.15595	0.034147	0.2321	0.11906	0.084653	0.13721	-2.35	-2.7021	-3.3729	-2.8792	-3.0208	-3.3583	-2.7479	-3.3229	-2.8729	-2.7458	-3.4854	-2.6854	-2.9646	-3.3229	-2.7438	-3.3187	24.570	225.428	39.515	240.130	299.740	55.231	294.147	233.742	234.754	39.914	28.492	198.588	297.346	263.223	178.166	90.206	0.0001195	0.00048936	0.00016939	1037.7	1.9519e-06	5.8961e-06	1107.9	222.22	4.406e-06	6.5305e-06	282.22	77.052	61.236	17.83	2.558e-06	24.669	0.00046751	0.00047538	0.0001325	1026.8	5.2396e-06	5.2365e-06	1096.5	228.02	5.2542e-06	5.269e-06	291.9	83.346	65.899	20.024	5.374e-06	27.47	144.369	156.439	323.568	-13.875	18.771	109.316	-13.298	-6.245	188.341	30.481	-6.712	0.781	0.714	7.869	62.601	6.911	-8191	255	
1113.255	1	1	0	0	0.12904	0.042178	0.087263	0.13011	0.092051	0.28646	0.053191	0.14504	0.1735	0.15751	0.12514	0.25349	0.015324	0.15769	0.14053	0.10755	-2.7396	-2.725	-3.2708	-3.0563	-2.7354	-3.3583	-2.75	-3.1854	-2.9917	-2.6792	-3.4188	-2.8146	-2.7458	-3.5583	-2.5229	-3.2271	68.864	11.206	288.592	-1.167	101.326	25.347	239.547	5.336	-19.893	17.477	97.758	-21.457	125.912	95.733	308.179	206.176	0.0002286	0.00043174	0.00032235	1034	5.1993e-06	4.5433e-06	1108	221.28	4.6344e-06	4.3175e-06	281.9	77.386	60.837	17.909	6.0372e-06	24.719	0.00048689	0.00049412	0.0001386	1029.6	5.4636e-06	5.4765e-06	1099.1	229.07	5.501e-06	5.4853e-06	293.92	83.683	66.25	20.137	5.4814e-06	27.596	195.344	303.405	288.087	-13.710	113.405	5.239	-13.490	-6.132	23.621	128.125	-6.551	0.286	1.046	7.786	297.800	7.519	-8191	255	
1113.374	1	1	0	0	0.12322	0.085201	0.091688	0.13642	0.15388	0.061905	0.20303	0.17086	0.14462	0.31886	0.16232	0.22062	0.31171	0.14027	0.19921	0.08679	-2.9083	-2.45	-3.45	-2.8021	-2.6875	-3.3729	-2.6833	-3.2687	-3.1625	-2.6896	-3.2729	-2.9667	-2.6375	-3.3937	-2.775	-3.0729	210.481	140.222	83.224	289.265	283.649	133.789	235.314	287.083	55.086	156.558	293.694	298.128	225.054	29.870	198.442	233.054	0.00020584	0.00039426	0.00010296	1034.3	3.686e-06	3.1402e-06	1108.7	221.57	4.0523e-06	3.2746e-06	281.32	77.639	60.811	18.005	3.4088e-06	24.857	0.00049506	0.00050532	0.00014153	1029.9	5.4985e-06	5.4895e-06	1099.8	228.75	5.4638e-06	5.4391e-06	292.46	83.515	66.096	20.096	5.4106e-06	27.469	105.116	-1.880	136.723	-13.805	169.879	37.387	-13.310	-6.044	96.490	122.370	-5.982	0.347	0.655	8.223	137.748	7.306	-8191	255	
1113.448	1	1	0	0	0.19402	0.2348	0.071273	0.31515	0.27529	0.048471	0.25475	0.14463	0.213	0.10011	0.051818	0.35944	0.22701	0.2015	0.17652	0.32889	-2.8083	-2.4667	-3.3625	-3.0771	-2.6479	-3.3604	-2.6688	-3.1	-3.2833	-2.4938	-3.3937	-3.0458	-2.6625	-3.4917	-2.7729	-2.9188	84.080	92.916	216.658	-0.472	238.572	73.438	-16.695	203.430	69.510	324.771	291.273	254.239	-22.160	2.729	97.706	269.553	8.4716e-05	0.00028965	0.00018064	1038.3	6.6486e-06	6.698e-06	1107.6	221.29	4.8378e-06	5.804e-06	282.37	76.524	60.938	17.985	5.5999e-06	24.871	0.00049193	0.00049412	0.00013797	1029.9	5.4419e-06	5.4088e-06	1098.7	228.49	5.4063e-06	5.3906e-06	292.62	83.089	66.121	19.992	5.3403e-06	27.536	308.449	40.496	317.193	-13.643	157.206	17.244	-13.374	-5.848	101.793	38.248	-6.364	-0.207	0.818	7.711	48.351	7.855	-8191	255	
1113.544	1	1	0	0	0.16734	0.095533	0.12117	0.10189	0.20488	0.17382	0.1104	0.26949	0.12065	0.179	0.11195	0.13079	0.1691	0.12734	0.14057	0.13352	-2.8417	-2.5771	-3.2646	-3.1729	-2.6104	-3.4083	-2.9437	-2.7854	-3.2667	-2.5479	-3.2875	-3.0896	-2.6604	-3.4667	-2.8375	-2.7938	10.306	227.243	97.570	61.172	290.864	267.785	63.482	68.262	242.071	32.036	229.244	119.827	327.981	164.053	314.557	27.186	8.5524e-05	0.00057303	3.5332e-05	1033.2	2.6035e-06	3.1059e-07	1109.6	221.68	2.9983e-06	8.8238e-06	282.08	76.971	61.156	17.891	5.6661e-06	24.755	0.00048663	0.00049272	0.00013615	1028.1	5.3675e-06	5.3608e-06	1098.8	228.22	5.3455e-06	5.3803e-06	291.98	83.219	66.006	19.99	5.3409e-06	27.428	171.298	163.210	76.327	-13.615	232.868	209.430	-13.478	-6.234	115.986	129.464	-6.732	0.246	0.858	7.968	130.801	7.148	-8191	255	
1113.640	1	1	0	0	0.14724	0.067661	0.025771	0.24663	0.03656	0.15118	0.15501	0.14931	0.083989	0.13251	0.063184	0.30616	0.25676	0.13034	0.3367	0.15415	-2.9167	-2.6042	-3.2083	-3.3417	-2.5979	-3.2938	-2.975	-2.7146	-3.4229	-2.7313	-3.2208	-3.2104	-2.5917	-3.3896	-3.0312	-2.8042	-0.619	237.576	197.437	235.811	99.732	297.726	180.550	-9.929	-0.833	216.826	18.830	15.850	309.251	296.448	130.405	220.874	0.00011877	0.00049545	0.00028886	1036.3	2.5499e-06	1.6334e-06	1104.1	221.7	3.8121e-06	7.2531e-06	283.86	76.983	60.824	17.809	7.5284e-06	24.991	0.00048077	0.00048864	0.00013627	1026.9	5.3721e-06	5.3837e-06	1097	229.08	5.4199e-06	5.4328e-06	292.96	83.468	66.156	20.05	5.4186e-06	27.522	128.193	2.134	58.545	-13.854	127.014	159.116	-13.436	-6.031	38.600	-8.146	-6.492	0.268	1.001	7.661	49.384	6.767	-8191	255	
1113.759	1	1	0	0	0.11075	0.18712	0.095096	0.13426	0.26778	0.06257	0.2798	0.25262	0.083805	0.10685	0.12843	0.11658	0.26239	0.1826	0.12319	0.092918	-2.925	-2.7354	-2.9604	-3.2938	-2.5438	-3.1833	-3.1312	-2.8917	-3.4167	-2.8271	-2.9979	-3.4313	-2.5521	-3.0604	-3.1396	-2.7333	4.079	313.858	245.921	323.280	121.369	183.187	-12.474	285.300	299.034	196.992	262.600	87.924	-13.767	67.351	169.865	259.099	0.00011021	0.00023819	0.00035355	1032.6	5.1519e-06	4.1916e-06	1109.7	222.11	3.1408e-06	5.3278e-06	281.16	77.686	60.727	17.892	8.1075e-06	24.822	0.00048999	0.00049497	0.00013748	1028.5	5.4223e-06	5.4455e-06	1098.6	228.58	5.4328e-06	5.4633e-06	292.78	83.579	66.019	20.092	5.4596e-06	27.597	122.551	124.316	73.573	-13.763	125.711	185.325	-13.681	-6.087	29.231	331.639	-6.541	0.179	0.737	7.585	114.743	6.917	-8191	255	
1113.855	1	1	0	0	0.084181	0.23937	0.19271	0.17156	0.099285	0.066875	0.035411	0.3372	0.15151	0.11591	0.047958	0.18556	0.11917	0.13139	0.070616	0.082055	-2.9354	-2.7479	-2.7562	-3.4062	-2.575	-3.2125	-3.3271	-2.5146	-3.3146	-2.7479	-2.8375	-3.5271	-2.6417	-3.2417	-3.275	-2.5479	217.510	162.984	296.617	320.559	18.196	175.647	281.721	294.275	325.972	294.691	322.547	311.040	-17.916	294.151	289.199	280.965	0.00015018	0.00026073	7.8332e-05	1039.3	4.6495e-06	6.249e-06	1101.3	221.82	4.7562e-06	4.3242e-06	281.71	77.177	60.819	17.856	6.0654e-06	24.848	0.00049143	0.00049768	0.00013857	1030.5	5.4524e-06	5.5046e-06	1097.8	228.47	5.505e-06	5.5109e-06	294.11	83.618	66.143	20.153	5.5285e-06	27.639	153.346	294.823	327.017	-13.667	201.157	133.820	-13.527	-6.225	130.560	310.107	-6.779	-0.187	0.630	7.782	174.327	6.841	-8191	255	
1113.951	1	1	0	0	0.24509	0.095628	0.22089	0.32014	0.18851	0.14816	0.28765	0.21264	0.19784	0.067002	0.087641	0.10918	0.13991	0.28759	0.20643	0.24713	-3.0021	-2.85	-2.7792	-3.3979	-2.9688	-3.0125	-3.3312	-2.4854	-3.3937	-2.9396	-2.7062	-3.3958	-2.8438	-2.9646	-3.4896	-2.8	-4.699	-11.525	9.754	263.849	-3.338	142.259	307.029	196.551	279.948	308.691	221.773	26.828	139.051	245.201	251.923	311.593	0.00015356	0.00014529	0.00019403	1032.3	3.0887e-06	4.1937e-06	1110	222.97	9.0511e-06	7.8788e-06	280.95	76.982	60.885	17.901	3.053e-06	24.621	0.00050169	0.00050889	0.00014217	1030	5.5949e-06	5.6292e-06	1101.7	229.38	5.6243e-06	5.5833e-06	294.37	83.834	66.326	20.216	5.642e-06	27.662	187.286	164.867	107.311	-13.897	184.541	184.326	-13.224	-5.762	153.734	56.817	-6.847	0.198	1.060	7.955	307.940	6.775	-8191	255	
1114.047	1	1	0	0	0.3235	0.18565	0.082193	0.15363	0.070725	0.11622	0.15522	0.16373	0.2039	0.17338	0.096672	0.098403	0.12788	0.1979	0.14735	0.084235	-2.9688	-2.9542	-2.5417	-3.4583	-2.8604	-2.8688	-3.4271	-2.7188	-3.2521	-2.9813	-2.6813	-3.3979	-2.8021	-2.9292	-3.3125	-2.7604	217.818	107.587	-12.642	21.136	209.876	25.970	254.606	267.485	-8.408	-21.447	115.669	324.110	-2.350	261.476	39.847	310.700	2.6576e-05	0.00014903	0.00029929	1033.4	4.5638e-06	4.5328e-06	1111.8	221.03	6.0956e-06	1.0218e-05	281.51	77.824	60.038	17.812	3.0768e-06	24.787	0.00050965	0.0005173	0.00014525	1031.9	5.6807e-06	5.6696e-06	1103.2	229.54	5.653e-06	5.6571e-06	295.16	84.079	66.508	20.242	5.6575e-06	27.832	97.685	7.974	38.985	-13.522	83.823	156.373	-13.515	-6.285	267.451	97.591	-6.866	0.248	0.666	7.723	32.443	7.477	-8191	255	
1114.143	1	1	0	0	0.2061	0.070789	0.085214	0.11438	0.22195	0.13632	0.12071	0.33618	0.41947	0.12242	0.11606	0.068172	0.094829	0.052995	0.1299	0.066762	-2.5958	-3.0625	-2.4354	-3.3812	-2.8979	-2.6958	-3.575	-2.8125	-3.0146	-3.2625	-2.4854	-3.3792	-2.9958	-2.6188	-3.6375	-2.6875	311.079	16.190	303.031	268.875	250.807	235.581	240.990	300.043	76.913	101.976	110.866	-12.774	-5.314	10.380	12.287	145.027	0.00018224	0.0002965	8.0629e-05	1033.5	2.8071e-06	1.9218e-06	1109.3	221.96	4.7238e-06	1.353e-06	281.1	77.987	61.094	17.951	4.0582e-06	24.943	0.00050969	0.00051639	0.00014371	1032.5	5.6376e-06	5.669e-06	1102.6	229.55	5.6469e-06	5.6645e-06	295.35	84.424	66.634	20.274	5.6676e-06	27.844	171.654	252.187	177.268	-13.628	333.171	292.514	-13.336	-6.164	82.965	292.419	-6.676	0.392	0.509	7.973	103.031	7.532	-8191	255	
1114.240	1	1	0	0	0.041326	0.06641	0.15763	0.4114	0.21353	0.087337	0.090548	0.10191	0.040854	0.16793	0.23312	0.10281	0.12153	0.23636	0.052711	0.21678	-2.7062	-3.2833	-2.4417	-3.4813	-2.9958	-2.7	-3.425	-2.7812	-2.9583	-3.2188	-2.5833	-3.1167	-3.1896	-2.4	-3.3646	-2.6792	146.976	245.324	51.940	291.739	166.864	62.101	246.218	-2.740	328.452	2.236	98.921	119.632	276.027	7.711	47.109	305.941	0.0001662	0.00024883	7.5722e-05	1037.4	4.9095e-06	4.6049e-06	1107.7	221.6	1.7938e-06	2.4742e-06	282.62	77.084	60.772	17.846	6.7296e-07	24.647	0.00051719	0.00051917	0.00014557	1034.4	5.7105e-06	5.7123e-06	1104	229.91	5.7376e-06	5.7523e-06	296.13	84.43	66.754	20.332	5.7946e-06	27.864	152.708	65.242	61.610	-13.485	47.479	224.996	-13.227	-5.841	93.014	16.019	-6.529	0.529	0.685	7.526	270.432	7.510	-8191	255	
1114.360	1	1	0	0	0.19154	0.062157	0.26242	0.31389	0.2059	0.1304	0.22741	0.22275	0.13471	0.073326	0.1631	0.065173	0.10372	0.0086778	0.10001	0.030441	-2.4667	-3.3646	-2.5875	-3.1896	-3.0521	-2.6958	-3.5417	-2.8104	-2.7396	-3.3229	-2.7083	-3.1896	-3.1208	-2.6729	-3.5125	-2.9729	85.427	219.809	210.589	16.175	102.296	144.236	38.555	318.769	156.989	192.076	258.853	141.270	35.340	-18.649	83.063	189.570	0.00016521	0.00087396	0.0001117	1037.2	5.5781e-06	1.559e-06	1114.8	222.89	6.0676e-07	6.9627e-06	281.34	77.877	61.059	17.96	4.9738e-06	24.932	0.00052418	0.00053116	0.00014657	1036.9	5.7646e-06	5.7727e-06	1106.2	230.52	5.7746e-06	5.7677e-06	296.09	84.428	66.685	20.339	5.7692e-06	27.888	183.467	94.695	75.150	-13.622	324.765	169.987	-13.348	-6.129	335.871	290.323	-6.776	0.384	0.780	7.953	-7.068	7.266	-8191	255	
1114.455	1	1	0	0	0.21583	0.048118	0.079691	0.26859	0.061602	0.11213	0.19374	0.31171	0.20152	0.11382	0.31657	0.31105	0.2587	0.084727	0.18908	0.14275	-2.3083	-3.3646	-2.6292	-3.2	-3.3167	-2.6583	-3.4958	-3.1125	-2.6625	-3.3333	-2.7938	-2.8833	-3.2833	-2.5042	-3.3271	-3.1354	3.120	288.540	323.281	318.068	134.337	13.502	-15.623	327.684	188.863	318.348	95.605	309.064	289.037	189.530	282.009	269.585	0.00016913	0.00010606	0.00011543	1035.7	4.9627e-06	4.5447e-06	1113.7	222.84	5.573e-06	5.5922e-06	283.07	76.97	60.585	17.794	8.769e-06	24.779	0.00052339	0.0005268	0.00014739	1032.5	5.7768e-06	5.7977e-06	1105.3	230.63	5.8174e-06	5.8076e-06	296.68	84.354	66.786	20.36	5.8218e-06	27.849	91.893	135.082	62.478	-13.488	41.239	162.414	-13.335	-6.011	58.647	226.364	-6.633	0.272	1.015	7.782	176.547	7.052	-8191	255	
1114.551	1	1	0	0	0.077663	0.2765	0.082868	0.14108	0.2465	0.1137	0.16112	0.15901	0.20071	0.28732	0.21699	0.17987	0.070683	0.27878	0.095701	0.038043	-2.2062	-3.3583	-2.8354	-3.15	-3.1208	-2.5417	-3.2667	-3.1937	-2.4625	-3.4396	-2.85	-2.9417	-3.275	-2.5396	-3.2812	-3.1708	303.626	237.294	62.927	177.165	181.227	98.920	259.320	1.606	134.586	119.328	95.345	-17.809	328.000	-3.710	135.915	177.324	0.00011214	0.00065209	0.00012871	1037	2.1105e-06	7.0895e-06	1108.4	222.49	3.1831e-06	1.663e-06	280.11	77.234	60.572	17.994	3.9314e-06	24.712	0.00052319	0.00053635	0.00014812	1036.6	5.8512e-06	5.8523e-06	1106	230.68	5.8966e-06	5.8672e-06	296.67	84.851	66.923	20.397	5.8539e-06	27.948	142.255	-2.027	-17.815	-13.564	170.819	142.510	-13.279	-6.058	174.249	26.299	-6.523	0.607	0.370	7.950	332.955	7.054	-8191	255	
1114.647	1	1	0	0	0.27722	0.17129	0.18443	0.1245	0.26479	0.17906	0.43137	0.18704	0.059272	0.081682	0.040132	0.18822	0.32412	0.25829	0.086885	0.038968	-2.2208	-3.3958	-2.6896	-3.0417	-3.3979	-2.5771	-3.1437	-3.4354	-2.5604	-3.25	-2.9125	-2.8958	-3.3563	-2.5667	-2.9021	-3.2917	19.314	19.202	189.070	247.252	248.802	103.577	258.446	261.402	270.081	115.699	187.147	336.032	173.423	100.971	-1.764	31.296	0.0001705	0.000193	0.00013361	1034.8	7.5833e-06	4.5308e-06	1108.7	221.97	3.9626e-06	7.7934e-06	279.75	77.136	61.086	17.783	2.9882e-06	24.895	0.00052849	0.00053525	0.00014843	1035.3	5.8205e-06	5.8169e-06	1106.4	229.82	5.7728e-06	5.7529e-06	295.87	84.169	66.653	20.301	5.7723e-06	27.775	196.395	127.411	107.497	-13.488	179.773	-2.075	-13.190	-5.952	283.890	122.367	-6.047	0.527	1.167	8.322	196.550	7.284	-8191	255	
1114.743	1	1	0	0	0.17867	0.14821	0.29604	0.16934	0.19416	0.036149	0.17391	0.18375	0.13955	0.173	0.1699	0.14465	0.21126	0.21206	0.13082	0.089597	-2.0417	-3.4208	-3.2396	-2.8604	-3.5	-2.7646	-3.0208	-3.4021	-2.5125	-3.2812	-3.1688	-2.9021	-3.4958	-2.8	-2.9958	-3.2604	30.034	321.662	14.297	295.078	11.822	200.217	242.357	220.426	21.371	86.134	309.603	234.675	-14.999	17.038	322.377	238.054	9.1762e-05	0.00045185	0.0003073	1033.3	3.1827e-06	4.2478e-06	1109.3	222.9	2.3464e-06	4.8694e-06	282.34	77.425	60.57	17.819	3.137e-06	24.857	0.00051553	0.00051923	0.00014547	1033.5	5.6617e-06	5.6565e-06	1102.3	229.5	5.5824e-06	5.5877e-06	294.84	83.927	66.283	20.09	5.548e-06	27.662	220.003	296.691	24.455	-13.264	64.337	220.746	-13.313	-6.024	194.063	146.305	-6.372	0.093	1.072	7.531	242.459	7.500	-8191	255	
1114.839	1	1	0	0	0.091035	0.19039	0.084019	0.18963	0.089929	0.13904	0.21502	0.20929	0.043052	0.17196	0.30597	0.049636	0.2539	0.15036	0.20753	0.12059	-2.2771	-3.2271	-3.2104	-2.7562	-3.3438	-2.8563	-2.9792	-3.4229	-2.6167	-3.1208	-3.0812	-2.7354	-3.275	-2.8875	-2.7667	-3.5125	107.759	25.350	-19.604	8.881	218.244	42.602	290.898	288.878	78.981	163.947	307.220	307.819	331.637	229.128	274.123	129.369	0.00010685	0.00044149	6.367e-05	1034.7	5.972e-06	1.732e-06	1108.9	222.63	2.9984e-06	6.6199e-06	282.3	77.315	60.765	17.864	8.363e-06	24.466	0.00050343	0.00051201	0.00014132	1031.6	5.5075e-06	5.5205e-06	1100.1	229.29	5.498e-06	5.4959e-06	293.28	83.542	66.133	20.105	5.4604e-06	27.478	140.956	-15.390	141.178	-13.127	159.844	19.406	-12.910	-5.959	226.065	122.710	-6.698	0.856	1.121	7.924	16.939	7.739	-8191	255	
1114.935	1	1	0	0	0.16618	0.18731	0.13263	0.19086	0.11618	0.38576	0.1271	0.16302	0.20557	0.28281	0.020655	0.1596	0.099958	0.17653	0.37403	0.15336	-2.2583	-3.1958	-3.2375	-2.6479	-3.4437	-2.8438	-2.8312	-3.4958	-2.6354	-3.0229	-3.2521	-2.5333	-3.4792	-3.0083	-2.5167	-3.3583	287.657	253.021	143.941	-23.266	97.966	55.283	172.160	334.984	271.403	317.736	29.909	68.710	5.456	26.798	258.245	95.316	0.00011732	0.00043784	0.00024667	1034.4	6.4301e-06	7.9019e-06	1110	221.82	9.2982e-07	4.3076e-06	281.16	77.438	60.881	17.826	3.2558e-06	24.709	0.00049174	0.00049814	0.00013932	1029.1	5.463e-06	5.5134e-06	1100.4	229.12	5.4744e-06	5.4736e-06	292.64	83.42	66.186	20.05	5.4646e-06	27.566	198.494	82.105	39.187	-13.330	92.818	196.593	-13.176	-5.760	282.086	32.810	-6.156	0.277	1.013	7.467	116.593	7.564	-8191	255	
1115.032	1	1	0	0	0.12849	0.096599	0.19858	0.095332	0.13189	0.22369	0.18745	0.17453	0.11194	0.09459	0.1766	0.15177	0.16078	0.14985	0.095335	0.068863	-2.4083	-3.0271	-3.35	-2.5958	-3.1562	-3.0687	-2.6646	-3.4979	-2.6937	-2.9458	-3.4167	-2.4771	-3.275	-3.2562	-2.5479	-3.5125	116.478	66.001	322.990	335.262	50.819	245.931	317.092	-18.509	44.932	116.327	42.748	281.357	-13.988	8.915	206.332	294.347	0.00019314	0.00018895	0.00016849	1031	7.9822e-06	6.0657e-06	1105.5	222.42	8.6336e-06	7.1682e-06	281.47	78.066	61.011	17.719	2.1538e-06	24.91	0.00049144	0.00049735	0.00013817	1028	5.4693e-06	5.4273e-06	1099.3	229.18	5.4278e-06	5.4448e-06	293.28	83.643	65.95	20.025	5.4492e-06	27.564	169.518	31.679	46.557	-13.265	136.893	197.585	-12.900	-5.847	113.608	164.213	-6.564	0.705	0.670	7.502	277.083	7.786	-8191	255	
1115.152	1	1	0	0	0.25033	0.063312	0.2465	0.23439	0.3422	0.3025	0.10339	0.22747	0.053835	0.2165	0.25121	0.21634	0.10089	0.11533	0.11799	0.07593	-2.2167	-2.7708	-3.25	-2.5958	-3.1271	-3.0396	-2.8125	-3.375	-2.8958	-2.7479	-3.3542	-2.5187	-3.0708	-3.2396	-2.6042	-3.4479	230.609	310.078	105.557	277.037	227.092	219.138	168.592	35.614	36.634	325.671	14.710	169.258	-12.920	88.225	256.794	293.265	0.00015443	6.2675e-05	0.00017969	1035.7	3.2287e-06	7.9726e-07	1105.1	222.41	2.4078e-06	1.4966e-06	280.96	76.456	60.757	17.855	6.0691e-06	24.96	0.00049156	0.00049871	0.00013903	1029.3	5.4838e-06	5.4407e-06	1098.5	228.39	5.4656e-06	5.4621e-06	292.77	83.442	66.249	20.101	5.4829e-06	27.61	164.156	64.136	77.928	-13.354	94.352	128.972	-13.281	-5.949	267.420	135.493	-6.785	0.644	0.856	8.015	241.969	7.534	-8191	255	
1115.248	1	1	0	0	0.17517	0.10834	0.22839	0.14598	0.25432	0.24638	0.18543	0.27377	0.14582	0.30422	0.25494	0.31052	0.24038	0.1019	0.12865	0.19656	-2.6208	-2.6458	-3.2604	-2.7667	-2.8646	-3.2104	-2.7313	-3.4	-2.8958	-2.7521	-3.4938	-2.7875	-3.0312	-3.1813	-2.5375	-3.3688	275.704	17.638	156.885	322.208	118.351	108.850	4.507	-11.634	154.274	257.320	189.051	312.793	270.586	4.532	314.367	-2.895	0.00013519	0.00046039	0.00015894	1037.4	1.8748e-06	1.6847e-06	1109.8	222.14	3.7916e-06	2.6265e-06	282.3	77.289	60.569	17.842	9.1897e-06	25.014	0.00049457	0.00050115	0.00013891	1029.2	5.501e-06	5.5106e-06	1097.8	228.52	5.5064e-06	5.4878e-06	293.97	83.543	66.035	20.096	5.4409e-06	27.555	125.275	69.542	16.757	-13.188	132.286	84.226	-13.225	-5.756	91.470	-18.064	-6.515	0.459	0.987	7.893	137.957	7.455	-8191	255	
1115.320	1	1	0	0	0.21942	0.13819	0.15603	0.28428	0.13631	0.035755	0.27108	0.14069	0.10669	0.098941	0.19357	0.20915	0.060401	0.10281	0.077913	0.20086	-2.6688	-2.5833	-3.3396	-2.675	-2.9542	-3.3333	-2.6271	-3.2146	-3.0104	-2.6396	-3.225	-2.8875	-2.6521	-3.3312	-2.7458	-3.1688	174.033	39.658	300.346	218.661	333.668	301.458	273.040	-5.632	166.866	275.413	245.769	192.363	133.282	179.503	38.437	254.490	0.00021869	0.00024952	6.7903e-05	1036	4.4692e-06	5.4404e-06	1107.7	220.98	3.8082e-06	4.5903e-06	280.96	77.597	60.786	17.928	7.3971e-06	24.923	0.00049371	0.00049605	0.00013809	1028.6	5.469e-06	5.4367e-06	1098.6	228.6	5.4477e-06	5.4532e-06	292.93	83.21	65.944	20.031	5.4348e-06	27.493	155.138	35.595	245.984	-13.269	65.074	113.988	-13.073	-5.835	220.125	90.533	-6.327	0.395	1.025	8.302	175.781	7.481	-8191	255	
1115.441	1	1	0	0	0.12557	0.15854	0.036771	0.27763	0.094258	0.15929	0.1031	0.21583	0.066223	0.34412	0.066858	0.1755	0.15647	0.17658	0.25555	0.12637	-2.8854	-2.625	-3.5458	-2.9458	-2.7875	-3.3479	-2.9562	-3.1188	-3.3354	-2.6458	-3.3771	-2.9854	-2.6125	-3.4771	-2.7729	-2.9833	128.410	283.195	95.380	281.367	157.691	32.050	178.765	-15.425	89.478	280.067	218.005	226.531	-5.111	289.706	87.640	198.518	0.00015913	0.00038504	0.00024342	1036.6	1.434e-06	5.6817e-06	1104	221.69	2.1423e-06	5.4529e-06	281.97	77.728	61.09	17.912	4.7425e-06	24.798	0.00048559	0.00049375	0.00013693	1027.4	5.4337e-06	5.3955e-06	1098.1	228.52	5.4029e-06	5.4186e-06	292.81	83.356	65.942	20.034	5.3538e-06	27.48	130.527	300.103	74.650	-13.326	259.220	167.749	-13.263	-5.802	150.211	50.375	-6.153	0.521	1.219	7.971	44.954	7.715	-8191	255	
1115.535	1	1	0	0	0.25445	0.084443	0.2737	0.34795	0.26707	0.24962	0.35066	0.12677	0.093138	0.08887	0.18865	0.18066	0.14656	0.13938	0.048836	0.22861	-2.8833	-2.4958	-3.3125	-3	-2.7125	-3.4375	-2.9	-2.8521	-3.3646	-2.6521	-3.3646	-3.0438	-2.7917	-3.4458	-2.6146	-3.1208	112.472	239.652	42.084	319.594	142.941	186.962	229.750	240.335	151.205	156.365	265.629	38.122	226.542	248.452	220.234	305.686	0.00012066	0.00071934	0.00023535	1038.4	2.9888e-06	4.8934e-06	1109.9	221.21	5.4937e-06	2.9286e-06	279.83	77.701	61.269	17.926	2.8017e-06	24.729	0.00047991	0.00048725	0.00013565	1027.2	5.3179e-06	5.3362e-06	1096.9	227.58	5.3478e-06	5.3054e-06	291.78	83.102	65.766	19.968	5.2742e-06	27.4	96.642	217.966	77.027	-13.597	269.961	-15.077	-13.078	-5.744	152.990	49.012	-6.496	0.645	0.755	7.533	167.709	8.069	-8191	255	
1115.631	1	1	0	0	0.085823	0.25627	0.22168	0.13352	0.071624	0.2489	0.085927	0.10866	0.096339	0.019527	0.17913	0.12264	0.20175	0.071564	0.078075	0.26914	-2.95	-2.6833	-3.1396	-3.4479	-2.6604	-3.3396	-3.0208	-2.9229	-3.4396	-2.5854	-3.0396	-3.1312	-2.6125	-3.3812	-2.6	-2.7438	4.843	182.838	221.674	67.434	209.706	23.155	257.010	285.320	241.853	197.787	291.869	-16.585	242.672	270.307	285.216	11.241	0.00010288	0.00026523	0.00014107	1034.8	8.5575e-06	2.0092e-06	1107.4	221.18	7.8354e-06	3.3486e-06	281.18	77.274	60.971	17.767	3.5745e-06	25.017	0.00047495	0.00048325	0.00013385	1024.6	5.2396e-06	5.3117e-06	1095.6	227.66	5.2844e-06	5.3134e-06	291.48	82.961	65.783	19.943	5.2912e-06	27.437	115.787	308.048	102.896	-13.284	165.936	164.530	-12.992	-5.834	70.864	110.735	-6.062	0.874	1.250	8.399	34.671	7.763	-8191	255	
1115.729	1	1	0	0	0.15748	0.15442	0.29679	0.093491	0.11423	0.26135	0.052727	0.22566	0.16108	0.025521	0.30471	0.16738	0.14911	0.43321	0.13998	0.39267	-3.1021	-2.4167	-2.9938	-3.3521	-2.4833	-3.2313	-3.1646	-2.9042	-3.4667	-2.7271	-2.8542	-3.3521	-2.6271	-3.2708	-2.9	-2.7083	206.370	77.351	271.816	304.638	72.923	210.257	241.847	12.826	146.964	107.844	295.870	-0.372	251.380	-22.766	224.029	60.903	0.00013949	0.00019852	2.4149e-05	1032.1	4.066e-07	7.72e-06	1104.8	222.26	1.1049e-06	1.5569e-06	281.59	76.417	61.07	17.746	6.9784e-06	24.829	0.00047691	0.00048239	0.00013437	1024.3	5.2895e-06	5.3013e-06	1095.5	228.4	5.2439e-06	5.2752e-06	290.77	82.543	65.656	19.779	5.1681e-06	27.296	175.684	23.921	320.772	-13.390	19.298	73.432	-12.960	-5.948	23.344	254.341	-6.320	0.548	0.691	8.420	158.820	7.528	-8191	255	
1115.848	1	1	0	0	0.11005	0.15446	0.19778	0.23765	0.059278	0.12915	0.39331	0.22417	0.18069	0.28758	0.12212	0.096351	0.080337	0.079052	0.20845	0.15657	-2.9708	-2.7542	-2.8625	-3.3292	-2.5187	-3.2729	-3.075	-2.6771	-3.4042	-2.7542	-2.8229	-3.4042	-2.525	-3.2562	-3.0854	-2.5708	111.857	128.544	194.893	285.297	284.101	287.237	284.443	234.253	39.702	259.868	238.107	186.819	307.540	46.950	-17.698	202.695	9.2998e-05	0.0003997	0.00026572	1034.7	4.6004e-06	3.8673e-06	1105.9	222.26	3.9072e-06	3.9902e-06	281.11	76.965	61.227	17.796	5.5995e-06	24.902	0.00046387	0.00046881	0.00013053	1025.4	5.1475e-06	5.2003e-06	1095	227.26	5.1765e-06	5.1496e-06	290.33	82.465	65.436	19.821	5.1626e-06	27.289	177.705	107.045	29.717	-13.189	106.740	83.170	-13.019	-5.731	91.920	242.800	-5.839	0.401	1.331	8.654	101.109	8.009	-8191	255	
1115.944	1	1	0	0	0.097846	0.042021	0.20478	0.040196	0.046236	0.17012	0.13044	0.0785	0.12657	0.24354	0.21866	0.11082	0.16772	0.13111	0.058064	0.10084	-3.0812	-2.8312	-2.8833	-3.525	-2.6312	-3.1708	-3.3	-2.7625	-3.3021	-2.6958	-2.8104	-3.4562	-2.4667	-3.1437	-3.1896	-2.5812	293.644	75.979	291.159	229.449	204.625	305.894	5.069	299.547	101.512	295.446	317.680	154.905	47.876	214.378	82.846	9.370	8.5127e-05	0.00058556	9.0759e-05	1037.2	4.6816e-06	1.4248e-06	1102.3	221.92	4.8231e-06	4.3198e-06	280.72	77.151	60.934	17.772	5.1467e-06	24.748	0.00046182	0.00046807	0.00012974	1025	5.1133e-06	5.0987e-06	1091.4	227.1	5.093e-06	5.1167e-06	289.94	82.666	65.204	19.821	5.1118e-06	27.132	61.553	78.585	39.006	-13.204	22.299	2.193	-13.229	-5.706	84.412	51.396	-6.018	0.564	1.487	7.703	217.868	7.841	-8191	255	
1116.040	1	1	0	0	0.27577	0.049162	0.10914	0.25325	0.36423	0.11115	0.21636	0.24511	0.1451	0.10581	0.16845	0.24673	0.096536	0.20236	0.12688	0.2115	-2.9688	-2.9458	-2.5042	-3.5312	-2.5438	-3.0563	-3.4729	-2.5	-3.3667	-3.0333	-2.7021	-3.2792	-2.7062	-3.0625	-3.3438	-2.4562	182.482	58.041	181.023	302.589	45.914	43.601	292.605	77.597	265.826	143.128	274.933	36.900	311.476	100.484	312.690	233.837	0.00013557	0.00022184	0.00019534	1034.1	3.0452e-06	3.8826e-06	1105.9	221.91	2.2e-06	9.6753e-06	280.4	77.524	60.772	17.879	6.9797e-06	24.855	0.00045693	0.00046458	0.00012933	1022.9	5.1011e-06	5.0798e-06	1090.6	226.4	5.0362e-06	5.0623e-06	289.04	82.475	64.969	19.73	5.0442e-06	27.142	158.320	58.895	272.624	-13.059	42.898	313.360	-13.029	-5.543	188.052	134.403	-6.141	0.851	1.079	8.802	292.525	7.856	-8191	255	
1116.136	1	1	0	0	0.27446	0.22083	0.05935	0.16767	0.18577	0.30991	0.22122	0.11726	0.11973	0.21488	0.10141	0.017784	0.13976	0.18761	0.13909	0.20708	-2.9146	-2.8542	-2.6312	-3.4708	-2.8583	-2.8229	-3.5312	-2.7708	-3.1688	-2.9792	-2.7375	-3.2938	-2.6937	-2.8521	-3.4771	-2.6937	283.900	323.904	304.316	286.144	87.992	260.665	269.687	252.734	182.844	176.470	208.613	158.956	226.033	272.340	110.838	302.704	0.00011706	0.00012154	0.00010791	1034.3	3.3553e-06	7.3693e-06	1107.4	222.64	7.5437e-06	5.0478e-06	282.34	77.036	60.744	17.909	2.8287e-06	24.668	0.00045775	0.0004624	0.00012852	1022.7	5.0557e-06	5.0543e-06	1090.5	226.68	5.0639e-06	5.0524e-06	289.36	82.337	65.236	19.789	5.0647e-06	27.045	115.721	302.940	105.354	-13.117	140.469	164.341	-12.510	-5.605	75.717	68.151	-5.855	0.887	1.197	8.143	301.054	8.076	-8191	255	
1116.233	1	1	0	0	0.06802	0.14909	0.13296	0.11348	0.053089	0.24217	0.17233	0.067822	0.12884	0.18521	0.12104	0.082107	0.14716	0.1992	0.070862	0.13318	-2.7833	-3.1396	-2.6271	-3.425	-3	-2.7729	-3.6146	-2.4813	-3.0229	-3.2938	-2.6083	-3.4417	-2.9146	-2.5854	-3.3958	-2.7833	333.427	188.399	211.206	294.150	41.171	330.060	-15.294	235.573	267.850	-5.854	270.415	-23.004	188.892	152.229	265.897	301.160	5.1311e-05	0.00032739	0.00022572	1032.2	3.6094e-06	1.0151e-05	1104.9	221.39	6.3142e-06	3.3097e-06	280.03	77.538	60.715	17.973	1.1201e-05	24.793	0.00045879	0.00046459	0.00013072	1022.1	5.1295e-06	5.1471e-06	1092.1	226.9	5.1765e-06	5.1848e-06	289.9	82.647	65.294	19.886	5.1202e-06	27.163	158.826	94.119	64.906	-13.240	99.281	94.638	-12.829	-5.430	112.006	55.012	-6.206	0.866	1.321	8.692	131.776	7.746	-8191	255	
1116.329	1	1	0	0	0.19048	0.14209	0.36542	0.15239	0.12441	0.13571	0.2755	0.16413	0.028582	0.23016	0.15563	0.1596	0.018858	0.11562	0.33344	0.061951	-2.5187	-3.1854	-2.4833	-3.4729	-2.9271	-2.6417	-3.55	-2.8708	-3.0292	-3.4375	-2.5146	-3.525	-3.0854	-2.5917	-3.4208	-2.8458	230.300	128.606	53.291	310.968	321.079	156.474	319.954	319.909	-11.215	291.516	176.746	215.948	13.801	271.244	198.625	-13.669	0.00017441	0.00050687	0.00013355	1041.1	4.5168e-06	2.519e-06	1105	221.3	3.6631e-06	1.6757e-06	281.93	77.305	60.829	17.919	5.2481e-06	24.792	0.00046273	0.00046718	0.00012986	1024.8	5.0605e-06	5.1401e-06	1092.4	226.39	5.1206e-06	5.1326e-06	289.42	82.557	65.223	19.841	5.1276e-06	27.179	134.270	59.415	209.140	-13.000	312.407	86.405	-12.779	-5.578	72.285	252.017	-5.754	0.755	1.384	8.275	184.615	7.939	-8191	255	
1116.449	1	1	0	0	0.31198	0.058321	0.20599	0.19859	0.14307	0.096125	0.2585	0.091106	0.033517	0.10499	0.16141	0.0039692	0.17357	0.36894	0.087975	0.16822	-2.425	-3.4167	-2.3521	-3.1562	-3.0917	-2.5625	-3.5854	-2.8771	-2.9125	-3.4979	-2.5958	-3.0792	-3.2667	-2.6521	-3.2	-2.8542	176.155	221.579	141.394	312.315	290.172	325.531	239.327	165.912	223.574	115.952	274.583	268.772	85.180	121.904	327.567	315.947	0.00010445	0.000358	0.00033525	1030.1	2.1199e-06	2.4391e-06	1104	222.55	1.043e-06	1.8919e-06	279.62	76.855	60.863	17.755	2.6692e-06	24.874	0.00046587	0.00046649	0.0001298	1019.8	5.1667e-06	5.1164e-06	1091.7	227.24	5.1534e-06	5.1351e-06	288.99	82.292	65.299	19.766	5.1216e-06	27.193	182.747	118.324	18.082	-13.265	194.053	-17.875	-12.984	-5.586	72.212	98.104	-5.897	1.236	1.166	8.735	16.284	7.855	-8191	255	
1116.544	1	1	0	0	0.12896	0.14347	0.20905	0.21176	0.062733	0.20489	0.15945	0.14638	0.17385	0.17255	0.13203	0.25473	0.27766	0.1411	0.079735	0.066558	-2.1917	-3.3625	-2.6792	-3.3542	-3.2	-2.6562	-3.5187	-2.9479	-2.7313	-3.3187	-2.7479	-2.9437	-3.2625	-2.5396	-3.1333	-3.0792	-7.401	161.273	330.931	312.118	197.634	59.074	290.062	224.913	15.953	53.094	266.292	312.695	329.811	260.608	15.460	219.848	6.3514e-05	0.00010693	4.5713e-05	1029.6	7.1234e-06	2.9023e-06	1106	220.29	5.2634e-06	8.0105e-06	281.23	77.718	60.545	18.045	8.3837e-06	24.677	0.00046516	0.00046871	0.00013223	1022.2	5.121e-06	5.1476e-06	1091.6	226.6	5.1055e-06	5.1352e-06	289.9	82.536	65.235	19.778	5.1004e-06	27.147	125.759	102.269	101.114	-13.026	153.665	155.960	-12.546	-5.360	171.941	153.325	-6.079	0.799	1.154	9.016	-19.427	8.001	-8191	255	
1116.615	1	1	0	0	0.087156	0.20016	0.067909	0.14754	0.26345	0.38538	0.12583	0.036275	0.22853	0.14819	0.08524	0.22007	0.17058	0.070961	0.11869	0.10465	-2.2104	-3.3479	-2.7271	-3.1479	-3.2208	-2.6167	-3.5167	-3.1521	-2.5604	-3.2792	-2.9375	-2.65	-3.3812	-2.5146	-3.1312	-3.1229	126.315	-10.746	137.036	265.113	295.330	227.457	311.641	225.381	38.181	303.131	323.079	302.872	314.380	243.613	61.878	93.489	0.00015652	0.00053083	0.00012361	1038.5	1.6386e-06	3.6534e-06	1108.7	222.01	6.4694e-06	6.8317e-07	281.85	77.071	60.825	17.735	1.1496e-05	24.747	0.00046156	0.00046471	0.00013038	1023.5	5.065e-06	5.0942e-06	1091.4	226.49	5.0756e-06	5.0653e-06	288.94	82.427	65.304	19.761	5.0907e-06	27.175	199.295	108.430	156.025	-12.785	87.512	120.875	-12.742	-5.166	322.821	116.072	-5.554	1.013	1.488	8.345	164.627	7.581	-8191	255	
1116.712	1	1	0	0	0.061811	0.23551	0.046284	0.34598	0.14773	0.25233	0.32997	0.1381	0.11918	0.07613	0.30758	0.097584	0.14295	0.1631	0.11339	0.17012	-2.0792	-3.3667	-2.7125	-2.9125	-3.1854	-2.5021	-3.2417	-3.3	-2.3792	-3.2833	-2.6667	-2.825	-3.2833	-2.6333	-2.9646	-3.3083	200.119	334.186	188.298	284.379	55.759	329.101	296.087	299.760	3.326	158.686	291.756	287.675	-8.879	332.532	277.068	238.121	0.00020517	0.0005685	7.7579e-05	1030.1	1.3026e-06	1.0595e-06	1106.5	220.9	5.2268e-06	4.7383e-06	280.32	77.657	60.758	17.796	4.8539e-06	24.951	0.00046359	0.00046619	0.00013088	1019.9	5.1447e-06	5.0941e-06	1090.9	226.59	5.0409e-06	5.0122e-06	288.06	82.197	64.904	19.709	5.0079e-06	27.114	173.065	246.405	161.552	-12.729	194.952	69.953	-12.633	-5.323	267.424	210.650	-5.592	1.247	1.795	8.568	142.801	7.750	-8191	255	
1116.832	1	1	0	0	0.25416	0.30825	0.088033	0.30288	0.1237	0.13074	0.23014	0.0116	0.23152	0.15765	0.24242	0.076149	0.083082	0.26175	0.083603	0.14763	-1.9688	-3.2229	-2.8771	-2.6458	-3.2562	-2.6375	-3.2375	-3.2604	-2.45	-3.2354	-3.0542	-2.6167	-3.1667	-2.6167	-3.0417	-3.5708	268.623	-7.574	156.049	272.990	198.625	317.191	315.912	132.722	7.652	186.823	107.227	303.406	316.630	51.521	204.111	277.635	0.00018688	0.00026683	0.00028483	1033.6	2.7858e-06	1.178e-06	1101.2	221.44	4.9113e-06	4.8603e-06	281.59	76.772	60.416	17.905	7.478e-06	24.851	0.00045199	0.0004602	0.00012814	1019.6	5.0227e-06	5.0065e-06	1090.7	226.52	5.0278e-06	5.0027e-06	288.18	82.085	65.018	19.729	5.0829e-06	27.146	153.406	13.884	120.110	-12.659	282.498	276.518	-12.537	-5.817	97.395	203.734	-6.312	1.097	1.353	8.093	114.253	8.021	-8191	255	
1116.928	1	1	0	0	0.25051	0.20963	0.12247	0.26244	0.19799	0.037609	0.12452	0.1394	0.21793	0.30503	0.053989	0.046131	0.27279	0.21736	0.085907	0.16192	-2.1063	-3.1688	-3.0729	-2.8917	-3.3271	-2.7042	-2.8625	-3.5312	-2.5042	-3.1667	-3.2333	-2.7125	-3.3563	-3.0292	-2.9188	-3.6896	161.825	313.916	132.891	315.680	-12.414	25.218	309.397	289.570	237.830	232.874	111.498	289.411	268.955	21.179	301.608	298.378	0.00016507	0.00019292	0.00010671	1032.9	5.5263e-06	1.5712e-06	1103	220.94	8.2888e-06	1.0391e-05	279.58	77.191	60.592	17.856	5.2708e-06	24.897	0.00045933	0.0004603	0.00012917	1020.7	5.0656e-06	5.0623e-06	1090.1	226.26	5.0636e-06	5.0545e-06	288.58	82.445	65.304	19.795	5.1144e-06	27.302	178.136	174.545	221.233	-12.688	279.215	58.464	-12.620	-5.760	247.947	79.563	-6.251	0.736	0.964	8.001	252.497	8.105	-8191	255	
1117.024	1	1	0	0	0.20464	0.41503	0.2068	0.28944	0.13123	0.049788	0.46069	0.1033	0.074966	0.1196	0.10883	0.21557	0.19494	0.078344	0.11887	0.1184	-2.1646	-3.1167	-3.3688	-2.7917	-3.3563	-2.9646	-3	-3.3583	-2.6021	-3.0458	-3.3521	-2.6813	-3.3812	-3.2396	-2.6292	-3.5521	329.263	232.245	268.904	265.890	322.573	267.166	265.748	322.979	317.782	-4.681	140.096	294.276	155.479	267.348	34.360	333.977	4.7259e-05	0.00061205	6.7954e-05	1033.5	5.9167e-06	3.627e-06	1100.7	221.64	1.7842e-06	1.4055e-06	280.06	77.683	60.642	17.8	5.741e-06	24.784	0.0004637	0.00047052	0.00013082	1021.1	5.1123e-06	5.1722e-06	1091.6	226.99	5.1279e-06	5.152e-06	288.36	82.62	65.439	19.791	5.1329e-06	27.208	167.747	65.456	107.842	-12.633	125.523	26.514	-12.530	-5.530	122.437	91.846	-5.647	1.073	1.383	8.518	90.246	8.000	-8191	255	
1117.121	1	1	0	0	0.18042	0.098584	0.098765	0.21815	0.17814	0.19365	0.42551	0.39406	0.088682	0.036776	0.13113	0.18741	0.048354	0.2548	0.1141	0.19254	-2.2667	-2.9021	-3.4583	-2.8375	-3.3479	-3.1167	-2.7958	-3.4292	-2.7812	-3.0563	-3.3146	-2.5896	-3.2083	-3.1604	-2.6896	-3.3438	312.757	103.217	226.906	297.813	41.766	251.319	240.304	264.771	125.743	210.348	319.079	2.892	283.013	25.904	260.396	-18.231	0.00015292	0.00033	0.0001316	1034.3	3.1591e-06	3.9235e-06	1105.7	222.32	2.9868e-06	4.5903e-06	281.7	77.561	60.66	17.788	6.9476e-06	24.749	0.000462	0.00046798	0.00013033	1022.2	5.1569e-06	5.1243e-06	1090.3	227.11	5.1509e-06	5.1291e-06	290.04	82.631	65.375	19.776	5.1725e-06	27.284	190.592	137.851	98.622	-13.068	130.802	47.802	-12.114	-5.343	238.680	210.141	-5.853	0.875	1.574	8.328	113.628	8.091	-8191	255	
1117.217	1	1	0	0	0.032064	0.14089	0.14643	0.24395	0.10456	0.15016	0.080641	0.098051	0.0062377	0.21366	0.21088	0.16082	0.10614	0.071152	0.1242	0.093626	-2.5271	-2.8458	-3.6271	-2.8958	-3.1083	-3.125	-2.6688	-3.3125	-2.7646	-2.8021	-3.4188	-2.6396	-3.0479	-3.3812	-2.6396	-3.4229	263.662	2.049	163.763	252.447	92.300	249.274	331.714	134.340	173.557	85.503	-8.679	-4.047	219.079	312.952	61.723	160.791	7.7532e-05	0.00021207	8.0339e-05	1036.3	3.0632e-06	7.7108e-06	1104.5	220.66	3.3804e-06	2.3811e-06	280.5	76.701	60.655	17.724	7.7968e-06	24.612	0.00046759	0.00047322	0.00013195	1023.7	5.2119e-06	5.2341e-06	1091.8	227.24	5.1964e-06	5.2412e-06	290.22	82.477	65.659	19.883	5.3173e-06	27.289	114.068	16.172	289.255	-12.995	31.277	15.244	-12.508	-5.358	-7.992	-10.925	-5.696	1.431	1.575	8.921	149.792	8.035	-8191	255	
1117.313	1	1	0	0	0.070452	0.26836	0.17068	0.2395	0.12762	0.11414	0.20929	0.24997	0.026547	0.16262	0.091688	0.11129	0.20211	0.058014	0.2728	0.19558	-2.3917	-2.6917	-3.3937	-2.8438	-3.1208	-3.3625	-2.75	-3.4208	-3.0354	-2.5917	-3.6417	-2.6479	-3.0812	-3.3042	-2.5	-3.3667	283.966	320.591	211.693	289.150	158.223	3.371	327.143	335.282	266.652	45.007	281.173	242.850	186.472	109.416	261.780	201.013	0.00013808	0.00034956	0.00020738	1037.8	8.6135e-06	5.2207e-06	1101.7	221.52	1.5835e-06	1.9655e-06	281.78	77.139	61.004	17.916	4.7191e-06	24.763	0.00048019	0.00048418	0.00013472	1026.4	5.3552e-06	5.4287e-06	1093.5	228.4	5.476e-06	5.5094e-06	293.04	83.53	66.311	20.07	5.5717e-06	27.522	110.083	312.944	42.379	-12.493	172.939	41.198	-12.856	-5.186	172.390	170.144	-5.747	1.024	1.497	8.554	291.628	8.478	-8191	255	
1117.409	1	1	0	0	0.067846	0.24488	0.11145	0.045199	0.073065	0.075759	0.18558	0.24405	0.17152	0.058803	0.20036	0.13619	0.19904	0.091995	0.10731	0.2121	-2.7792	-2.75	-3.4188	-2.8271	-2.9125	-3.25	-2.7021	-3.3292	-3.2938	-2.5208	-3.2396	-2.8125	-2.6771	-3.4042	-2.6937	-3.3167	118.038	251.645	78.136	80.046	132.431	23.267	277.438	13.829	234.935	115.116	278.875	179.174	62.183	262.594	229.496	13.127	9.8322e-05	0.00056292	0.00010908	1031.4	2.072e-06	8.2275e-06	1104.2	222.19	8.1998e-06	3.8005e-06	279.55	77.251	60.695	17.891	5.1444e-06	24.505	0.00049933	0.00050595	0.00014106	1027.6	5.6002e-06	5.5758e-06	1097.9	229.12	5.5926e-06	5.6414e-06	293.53	83.722	66.274	20.181	5.6504e-06	27.603	150.106	320.949	207.294	-12.799	94.040	86.815	-12.353	-5.009	94.252	94.898	-5.773	0.939	1.361	8.311	194.821	8.334	-8191	255	
1117.530	1	1	0	0	0.37513	0.19565	0.18027	0.12741	0.09577	0.1028	0.1447	0.21111	0.20699	0.13707	0.22305	0.05904	0.12341	0.17734	0.097843	0.12622	-2.6083	-2.625	-3.3833	-3.0729	-2.8396	-3.5333	-2.8083	-3.2354	-3.3	-2.3833	-3.3854	-3.0438	-2.8646	-3.3083	-2.6708	-3.0208	154.382	22.817	228.120	192.491	-10.686	298.651	304.360	292.751	140.389	247.892	60.542	291.140	278.422	-2.073	233.921	79.198	0.00014137	6.8472e-05	0.00016881	1038	5.2709e-06	2.1357e-06	1101.5	221.62	7.6714e-06	6.2263e-06	281.77	76.468	60.745	17.885	2.0042e-06	24.925	0.00050921	0.00051888	0.00014257	1031	5.6497e-06	5.6577e-06	1098	229.33	5.6361e-06	5.6076e-06	295.61	83.712	66.298	20.215	5.6421e-06	27.771	172.516	195.184	11.737	-12.877	245.591	224.510	-12.477	-5.039	244.209	188.599	-5.813	1.383	1.598	9.143	117.561	8.091	-8191	255	
1117.624	1	1	0	0	0.21168	0.053337	0.11812	0.096506	0.15735	0.066966	0.22567	0.40368	0.16159	0.046694	0.062891	0.094005	0.08452	0.2393	0.17084	0.28956	-2.9458	-2.3958	-3.1917	-3.0729	-2.9188	-3.3708	-2.725	-2.9146	-3.4167	-2.5292	-3.3875	-2.9125	-2.7667	-3.3729	-2.8167	-2.9958	285.624	114.743	38.490	229.612	133.285	149.879	233.292	294.665	119.842	33.955	205.439	67.919	260.404	0.014	259.051	190.882	0.00013224	0.0010074	0.00021554	1032.2	6.7327e-06	4.9369e-06	1104.8	221.7	5.0626e-06	7.7607e-06	281.73	77.418	61.128	17.652	1.986e-06	24.748	0.00051077	0.00051558	0.00014397	1028.6	5.6232e-06	5.5856e-06	1097.8	229.11	5.6117e-06	5.5953e-06	293.78	83.774	66.254	20.076	5.5681e-06	27.538	181.554	217.732	225.901	-12.624	219.732	47.438	-12.406	-4.931	135.719	143.207	-5.523	1.036	1.985	9.257	168.789	8.459	-8191	255	
1117.720	1	1	0	0	0.15578	0.11493	0.12471	0.19107	0.11151	0.089608	0.13125	0.038523	0.25253	0.020087	0.073678	0.26399	0.098648	0.26861	0.24461	0.17705	-3.0083	-2.6167	-3.0229	-3.2479	-2.5938	-3.4604	-2.9562	-2.8875	-3.4542	-2.5708	-3.1542	-3.1813	-2.7021	-3.4125	-3.0458	-2.8937	191.931	215.624	228.763	230.303	200.140	311.617	286.598	222.427	107.419	190.015	249.381	174.604	233.797	-3.912	91.018	307.836	0.00012972	0.00023002	0.00028033	1035.5	3.0787e-06	4.3917e-06	1103.9	221.75	2.0741e-06	6.857e-06	280.85	76.23	60.781	17.855	2.6747e-06	24.789	0.00050698	0.00050821	0.00014142	1028.6	5.5721e-06	5.5899e-06	1096.7	228.63	5.5752e-06	5.5514e-06	293.62	83.506	66.157	20.144	5.6098e-06	27.65	139.936	84.467	314.977	-12.428	141.378	68.962	-12.213	-4.923	32.705	65.997	-5.237	1.290	2.038	8.998	104.372	7.919	-8191	255	
1117.841	1	1	0	0	0.27548	0.27879	0.042058	0.058041	0.26703	0.090618	0.18531	0.068782	0.14093	0.028699	0.23453	0.1878	0.33198	0.16341	0.17467	0.21644	-2.9583	-2.7146	-3.0312	-3.475	-2.4917	-3.2604	-3.2125	-2.7313	-3.4854	-2.6333	-3.0542	-3.2021	-2.5	-3.0292	-3.0938	-2.7833	-11.396	331.434	257.623	142.833	275.876	115.795	55.528	202.991	15.211	77.136	19.262	311.434	330.529	215.762	25.087	333.869	0.00011087	0.00028277	9.849e-05	1031.7	1.0169e-05	4.9101e-06	1101.2	222.85	7.1502e-06	4.336e-06	280.74	76.451	60.69	17.814	1.5161e-06	24.689	0.00050462	0.00051614	0.00014246	1029.4	5.6197e-06	5.6096e-06	1098.3	229.44	5.583e-06	5.5951e-06	293.99	83.563	66.229	20.144	5.5485e-06	27.582	174.499	78.047	227.396	-12.768	218.062	307.704	-12.952	-5.644	183.556	272.545	-6.068	1.110	1.253	8.356	242.909	8.150	-8191	255	
1117.913	1	1	0	0	0.036722	0.084427	0.10882	0.10185	0.11739	0.064519	0.22759	0.1205	0.16714	0.10774	0.15133	0.063439	0.11575	0.05629	0.0064197	0.38763	-2.7646	-2.6437	-2.95	-3.4479	-2.5062	-3.1458	-3.3125	-2.5812	-3.5708	-2.7729	-2.8896	-3.5021	-2.5625	-3.1813	-3.1063	-2.6458	75.350	154.906	209.896	242.075	291.761	233.177	293.876	291.843	283.383	51.378	7.592	256.560	31.554	-3.016	234.535	-3.660	0.00010673	0.00030481	0.00019099	1036.6	3.9291e-06	5.948e-06	1098.5	221.04	2.2344e-06	9.4352e-06	282.58	77.095	60.932	17.709	5.0412e-06	24.92	0.00050188	0.00050763	0.00014198	1030.4	5.585e-06	5.5718e-06	1094.8	228.81	5.5822e-06	5.6126e-06	294.18	83.443	66.196	20.118	5.6219e-06	27.659	46.505	209.768	64.039	-13.134	70.853	72.634	-12.971	-5.362	-3.769	51.214	-5.291	1.398	1.443	8.654	218.977	8.095	-8191	255	
#DATA ENDS
