BOXY.EXE: ISS Imagent and Oximeter Data Acquisition Program Version 0.80
Ascii Record File

#ACQ INFORMATION
2  Detector Channels 
16  External MUX Channels 
1  Auxiliary Channels 
5000  Waveform (CCF) Frequency (Hz)
1  Waveforms Skipped 
30  Waveforms Averaged 
1  Cycles Averaged 
16  Acquisitions per Waveform 
10.0806  Updata Rate (Hz) 

#FILE INFORMATION
TRUE -- External MUX Channel results are PARSED.
FALSE -- AC DC and Phase are NOT grouped.
TRUE -- Companion Program Settings File CREATED.
FALSE -- AC data not excluded
FALSE -- DC data not excluded
FALSE -- Phase data not excluded
FALSE -- Auxillary Chn. data not excluded
Tab delimiters

#CALIBRATION STATE
TRUE -- Waveform Calibration Values APPLIED.


#AUX CALIBRATION VALUES
Val Type	aux-1	

Term	1.0000e+00	
Factor	0.0000e+00	


#WF CALIBRATION VALUES
A = Detector Channel
Val Type	A-AC1	A-AC2	A-AC3	A-AC4	A-AC5	A-AC6	A-AC7	A-AC8	A-AC9	A-AC10	A-AC11	A-AC12	A-AC13	A-AC14	A-AC15	A-AC16	A-DC1	A-DC2	A-DC3	A-DC4	A-DC5	A-DC6	A-DC7	A-DC8	A-DC9	A-DC10	A-DC11	A-DC12	A-DC13	A-DC14	A-DC15	A-DC16	A-Ph1	A-Ph2	A-Ph3	A-Ph4	A-Ph5	A-Ph6	A-Ph7	A-Ph8	A-Ph9	A-Ph10	A-Ph11	A-Ph12	A-Ph13	A-Ph14	A-Ph15	A-Ph16	

Term	0.00000e+00	0.00000e+00	0.00000e+00	0.00000e+00	0.00000e+00	0.00000e+00	0.00000e+00	0.00000e+00	0.00000e+00	0.00000e+00	0.00000e+00	0.00000e+00	0.00000e+00	0.00000e+00	0.00000e+00	0.00000e+00	0.00000e+00	0.00000e+00	0.00000e+00	0.00000e+00	0.00000e+00	0.00000e+00	0.00000e+00	0.00000e+00	0.00000e+00	0.00000e+00	0.00000e+00	0.00000e+00	0.00000e+00	0.00000e+00	0.00000e+00	0.00000e+00	0.00000e+00	0.00000e+00	0.00000e+00	0.00000e+00	0.00000e+00	0.00000e+00	0.00000e+00	0.00000e+00	0.00000e+00	0.00000e+00	0.00000e+00	0.00000e+00	0.00000e+00	0.00000e+00	0.00000e+00	0.00000e+00	
Factor	1.00000e+00	1.00000e+00	1.00000e+00	1.00000e+00	1.00000e+00	1.00000e+00	1.00000e+00	1.00000e+00	1.00000e+00	1.00000e+00	1.00000e+00	1.00000e+00	1.00000e+00	1.00000e+00	1.00000e+00	1.00000e+00	1.00000e+00	1.00000e+00	1.00000e+00	1.00000e+00	1.00000e+00	1.00000e+00	1.00000e+00	1.00000e+00	1.00000e+00	1.00000e+00	1.00000e+00	1.00000e+00	1.00000e+00	1.00000e+00	1.00000e+00	1.00000e+00	X	X	X	X	X	X	X	X	X	X	X	X	X	X	X	X	

B = Detector Channel
Val Type	B-AC1	B-AC2	B-AC3	B-AC4	B-AC5	B-AC6	B-AC7	B-AC8	B-AC9	B-AC10	B-AC11	B-AC12	B-AC13	B-AC14	B-AC15	B-AC16	B-DC1	B-DC2	B-DC3	B-DC4	B-DC5	B-DC6	B-DC7	B-DC8	B-DC9	B-DC10	B-DC11	B-DC12	B-DC13	B-DC14	B-DC15	B-DC16	B-Ph1	B-Ph2	B-Ph3	B-Ph4	B-Ph5	B-Ph6	B-Ph7	B-Ph8	B-Ph9	B-Ph10	B-Ph11	B-Ph12	B-Ph13	B-Ph14	B-Ph15	B-Ph16	

Term	0.00000e+00	0.00000e+00	0.00000e+00	0.00000e+00	0.00000e+00	0.00000e+00	0.00000e+00	0.00000e+00	0.00000e+00	0.00000e+00	0.00000e+00	0.00000e+00	0.00000e+00	0.00000e+00	0.00000e+00	0.00000e+00	0.00000e+00	0.00000e+00	0.00000e+00	0.00000e+00	0.00000e+00	0.00000e+00	0.00000e+00	0.00000e+00	0.00000e+00	0.00000e+00	0.00000e+00	0.00000e+00	0.00000e+00	0.00000e+00	0.00000e+00	0.00000e+00	3.46174e+01	-1.41726e+02	-1.41638e+02	-1.82578e+02	-8.82637e+01	-9.64119e+01	-1.57601e+02	-1.62015e+02	-1.01309e+02	-8.94930e+01	-1.76501e+02	-1.75461e+02	-1.82075e+02	-1.78619e+02	-8.59017e+01	-1.51028e+02	
Factor	5.43218e-05	9.09066e-05	3.08890e-05	1.86882e-01	1.02004e-06	9.71065e-07	1.70451e-01	5.67373e-02	1.06568e-06	8.83568e-07	1.30693e-01	3.60511e-02	2.61244e-02	9.14670e-03	1.13988e-06	1.29127e-02	6.14975e-07	6.21407e-07	1.73172e-07	9.42003e-02	6.80050e-09	6.81149e-09	8.15599e-02	2.85863e-02	6.80842e-09	6.81023e-09	5.99588e-02	1.68107e-02	1.29183e-02	4.52870e-03	6.82171e-09	6.11913e-03	X	X	X	X	X	X	X	X	X	X	X	X	X	X	X	X	



#DISTANCE SETTINGS
A = Detector Channel
A-1	A-2	A-3	A-4	A-5	A-6	A-7	A-8	A-9	A-10	A-11	A-12	A-13	A-14	A-15	A-16	

2.5000e+00	3.0000e+00	2.5000e+00	3.0000e+00	2.0000e+00	3.0000e+00	1.5000e+00	3.0000e+00	3.0000e+00	3.0000e+00	3.0000e+00	3.0000e+00	3.0000e+00	3.0000e+00	1.5000e+00	3.0000e+00	

B = Detector Channel
B-1	B-2	B-3	B-4	B-5	B-6	B-7	B-8	B-9	B-10	B-11	B-12	B-13	B-14	B-15	B-16	

1.0000e+01	1.0000e+01	1.0000e+01	1.4400e+00	1.0000e+01	1.0000e+01	1.5100e+00	1.9400e+00	1.0000e+01	1.0000e+01	1.9900e+00	2.4900e+00	2.4100e+00	2.9000e+00	1.0000e+01	2.9800e+00	




#DATA BEGINS
time	group	step	mark	flag	A-AC1	A-AC2	A-AC3	A-AC4	A-AC5	A-AC6	A-AC7	A-AC8	A-AC9	A-AC10	A-AC11	A-AC12	A-AC13	A-AC14	A-AC15	A-AC16	A-DC1	A-DC2	A-DC3	A-DC4	A-DC5	A-DC6	A-DC7	A-DC8	A-DC9	A-DC10	A-DC11	A-DC12	A-DC13	A-DC14	A-DC15	A-DC16	A-Ph1	A-Ph2	A-Ph3	A-Ph4	A-Ph5	A-Ph6	A-Ph7	A-Ph8	A-Ph9	A-Ph10	A-Ph11	A-Ph12	A-Ph13	A-Ph14	A-Ph15	A-Ph16	B-AC1	B-AC2	B-AC3	B-AC4	B-AC5	B-AC6	B-AC7	B-AC8	B-AC9	B-AC10	B-AC11	B-AC12	B-AC13	B-AC14	B-AC15	B-AC16	B-DC1	B-DC2	B-DC3	B-DC4	B-DC5	B-DC6	B-DC7	B-DC8	B-DC9	B-DC10	B-DC11	B-DC12	B-DC13	B-DC14	B-DC15	B-DC16	B-Ph1	B-Ph2	B-Ph3	B-Ph4	B-Ph5	B-Ph6	B-Ph7	B-Ph8	B-Ph9	B-Ph10	B-Ph11	B-Ph12	B-Ph13	B-Ph14	B-Ph15	B-Ph16	aux-1	digaux	

2273.670	1	1	0	131328	0.13771	0.25592	0.1719	0.11351	0.21	0.19352	0.22686	0.032221	0.24973	0.07103	0.15567	0.066311	0.19389	0.20428	0.26656	0.076992	-2.2958	-3.2292	-2.4146	-2.9208	-2.9333	-2.4771	-3.2104	-2.6312	-2.5292	-3.1146	-2.4646	-2.8646	-3.0792	-2.3479	-3.1104	-2.825	305.274	412.467	365.306	284.277	276.304	231.386	376.774	145.573	288.524	319.017	343.171	370.587	126.264	109.773	119.651	410.881	0.0035373	0.0021318	0.0007244	352.69	2.0598e-05	2.1234e-05	470.9	168.81	4.0863e-05	2.4917e-05	270.29	85.147	63.28	2.0732	1.785e-05	6.218	0.013148	0.013452	0.0037928	2438.5	0.00015381	0.00015644	2374.8	858.71	0.00016642	0.00016879	1735	519.94	399.4	147.86	0.00016981	198.92	321.654	323.513	199.553	102.698	102.500	435.181	101.522	107.817	357.284	253.120	104.152	109.004	111.661	117.379	196.080	111.737	-8191	255	
2273.790	1	1	0	131072	0.13508	0.22001	0.24499	0.11338	0.21221	0.26403	0.049389	0.20105	0.1492	0.061001	0.20122	0.22323	0.15617	0.35398	0.24444	0.20111	-2.2521	-3.1208	-2.5292	-2.7313	-3.0458	-2.3563	-3.0333	-2.8563	-2.3688	-3.2562	-2.6604	-2.7125	-3.4333	-2.2417	-3.0396	-3.0333	129.598	391.306	108.050	200.821	380.664	208.213	238.344	256.163	349.889	425.444	243.866	165.561	212.894	94.490	139.667	391.461	0.0030063	0.0028943	0.00094969	349.94	4.4589e-06	5.6773e-05	450.11	148.23	3.3028e-05	2.528e-05	267.52	76.922	57.918	0.91827	4.5e-05	3.063	0.015265	0.015339	0.0042504	2637.6	0.00016565	0.00016621	2462	874.87	0.00016984	0.00017144	1759.5	524.38	402.32	148.16	0.00017262	199.75	323.886	177.282	344.818	101.430	109.373	113.729	101.211	107.561	193.629	405.978	104.370	108.206	111.510	117.682	441.852	113.925	-8191	255	
2273.862	1	1	0	131072	0.14097	0.1036	0.10257	0.1305	0.22397	0.10746	0.060451	0.25101	0.16463	0.068025	0.15905	0.12652	0.060253	0.43961	0.25955	0.070688	-1.9125	-3.0542	-2.4437	-2.6396	-3.1208	-2.3146	-3.0979	-3.0625	-2.175	-3.0146	-2.6437	-2.5146	-3.2042	-2.4667	-2.8771	-3.1708	117.445	269.504	204.619	183.207	154.181	415.074	168.325	430.752	203.022	382.183	322.174	131.115	274.206	440.294	133.547	294.598	0.0014751	0.0014383	0.00034694	353.22	1.4632e-05	3.5712e-05	352.14	118.34	1.3392e-05	1.3788e-05	267.26	80.872	61.834	1.7298	6.2417e-05	4.763	0.015663	0.01594	0.0044732	2788.4	0.00017717	0.00017715	2542.9	893.32	0.00017411	0.00017368	1761.7	522.58	400.27	147.95	0.0001707	199.3	378.400	308.212	306.654	102.528	260.922	305.217	103.016	107.828	275.724	429.763	103.262	108.202	112.108	117.637	197.460	111.977	-8191	255	
2273.958	1	1	0	131072	0.25199	0.22444	0.10898	0.19193	0.058193	0.052331	0.19296	0.068112	0.14109	0.049719	0.12664	0.13622	0.17578	0.3567	0.16937	0.11271	-1.8896	-2.9188	-2.7438	-2.4146	-3.0333	-2.5542	-2.8312	-3.0271	-2.3833	-2.9625	-2.9042	-2.4125	-3.1917	-2.5208	-2.5417	-3.1417	130.835	361.684	294.658	300.540	307.612	115.994	390.786	424.012	272.297	171.004	423.809	282.864	443.510	406.318	320.615	379.495	0.003158	0.0026717	0.0005333	349.4	1.5911e-05	3.2574e-05	417.17	136.25	3.7673e-05	2.3863e-05	270.38	82.712	62.702	2.4061	4.2654e-05	8.5894	0.015467	0.015677	0.004373	2715	0.00017126	0.00017151	2497.8	883.32	0.00017147	0.00017175	1748.8	521.04	399.82	147.77	0.00016846	198.27	325.610	265.897	258.177	103.647	130.987	191.993	102.366	107.699	192.988	362.662	104.353	108.346	111.611	116.606	326.579	110.167	-8191	255	
2274.054	1	1	0	131072	0.19905	0.16572	0.025776	0.081712	0.22387	0.11938	0.24636	0.12525	0.17501	0.11432	0.32554	0.29799	0.3271	0.2757	0.11388	0.25364	-1.9021	-2.8604	-2.8063	-2.3063	-3.2167	-2.5187	-2.6208	-2.9958	-2.2021	-2.8583	-2.9583	-2.4479	-3.2354	-2.8583	-2.475	-3.1396	109.504	427.716	447.071	110.751	165.543	178.561	375.806	326.768	141.179	390.593	276.886	109.337	391.488	400.460	159.285	354.865	0.0018205	0.0046735	0.0005628	353.98	4.1563e-05	2.3191e-05	469.06	167.29	3.5214e-05	3.0824e-05	266.73	113.41	85.244	10.66	5.9872e-05	20.191	0.015	0.015129	0.0042138	2625.3	0.00016441	0.00016412	2417.7	857.72	0.00016167	0.00016116	1645.4	498.12	381.93	145.42	0.00015635	194.83	358.174	446.480	162.789	102.137	445.147	263.854	101.331	107.461	178.944	241.347	103.783	108.001	110.863	115.245	109.491	110.394	-8191	255	
2274.175	1	1	0	131072	0.10323	0.25369	0.04682	0.18697	0.22421	0.20621	0.14027	0.049576	0.037805	0.23411	0.11017	0.21784	0.087582	0.2905	0.20184	0.34989	-1.9375	-2.8896	-2.6979	-2.4375	-3.1396	-2.6083	-2.4333	-2.9542	-2.4313	-2.8208	-2.8833	-2.3937	-3.0833	-2.7708	-2.4667	-3.2	149.359	376.826	184.553	111.730	382.957	281.092	424.975	217.070	317.379	177.096	185.883	130.398	244.292	96.011	349.234	378.345	0.0027307	0.0038974	0.00067058	350.94	3.8881e-05	1.9535e-05	474.34	183.03	1.5852e-05	1.7399e-05	265.39	117.32	89.101	19.209	4.8718e-06	31.438	0.014025	0.014158	0.0039347	2475.3	0.00015384	0.0001539	2297.4	814.48	0.0001508	0.00015019	1553.8	473.08	362.16	142.59	0.00014562	190.94	296.999	312.832	145.286	103.070	305.405	299.593	101.011	107.389	298.984	240.286	104.160	108.107	110.453	115.184	350.872	110.344	-8191	255	
2274.271	1	1	0	131072	0.073185	0.10643	0.067687	0.27527	0.091641	0.18138	0.13002	0.04294	0.30167	0.17401	0.098468	0.26342	0.075917	0.15984	0.14022	0.11258	-1.9146	-2.6875	-3.0479	-2.3271	-3.0896	-2.8208	-2.3771	-3.2438	-2.4292	-2.5125	-3.0583	-2.1417	-3.0938	-2.8875	-2.1958	-3.0396	243.100	406.815	283.583	104.859	215.611	129.259	420.845	377.158	101.100	361.255	207.154	439.312	92.566	372.144	358.288	304.804	0.003235	0.0027626	0.001065	350.04	3.4339e-05	1.0327e-05	474.28	184.98	1.6282e-05	2.8347e-05	270.38	120.1	90.515	28.209	2.4146e-05	45.786	0.013203	0.01345	0.0037426	2371.4	0.00014648	0.00014577	2197.7	780.34	0.00014197	0.0001411	1469.1	448.11	342.3	139.42	0.00013409	185.49	300.202	284.424	371.149	102.412	154.582	358.556	101.333	107.416	127.667	97.570	104.932	107.708	110.652	115.083	269.547	109.920	-8191	255	
2274.367	1	1	0	131072	0.1614	0.088556	0.068149	0.10625	0.20572	0.029634	0.26391	0.24586	0.16639	0.19411	0.21643	0.25686	0.25598	0.23598	0.037	0.074259	-1.9167	-2.4604	-2.9458	-2.2625	-3.0292	-2.7646	-2.2229	-2.9875	-2.4917	-2.3375	-3.0938	-2.425	-2.9313	-2.9771	-2.3292	-3.2854	310.208	116.371	279.489	106.796	265.367	387.466	105.640	346.484	278.592	119.715	155.068	409.866	449.820	448.238	306.761	372.507	0.00067401	0.0034695	0.001776	346.48	1.968e-05	1.8469e-05	473.08	185.81	6.0111e-06	2.1309e-05	267.35	120	90.051	35.386	5.0777e-05	57.916	0.012129	0.012383	0.0034764	2240.1	0.00013738	0.00013719	2089.3	746.05	0.00013384	0.00013274	1397.6	428.51	327.08	136.25	0.00012477	179.46	352.627	131.946	105.723	103.531	313.355	147.924	101.621	108.028	327.971	263.142	104.701	108.104	111.024	114.718	209.344	109.620	-8191	255	
2274.464	1	1	0	131072	0.044148	0.17682	0.1287	0.16963	0.16604	0.2501	0.18879	0.36621	0.26472	0.1231	0.034377	0.25789	0.24038	0.22086	0.13344	0.22414	-2.0438	-2.4688	-3.0667	-2.4479	-2.8417	-2.9917	-2.4833	-3.2104	-2.6042	-2.2771	-3.1063	-2.3083	-2.7125	-3.1208	-2.1958	-3.2417	314.734	249.535	94.157	412.025	238.388	93.992	387.339	304.522	193.614	336.402	185.552	407.837	319.679	413.546	388.985	375.205	0.0029105	0.0035694	0.00058738	348.41	1.9285e-05	1.7095e-05	468.84	184.59	3.6083e-05	2.7943e-05	269.17	118.12	90.534	41.843	4.3861e-05	64.638	0.011042	0.011139	0.0031006	2024	0.00012193	0.00012197	1913.6	687.36	0.00012109	0.00012055	1295	403.08	309.97	133.39	0.00011769	175.93	294.377	134.688	184.033	102.275	197.011	177.289	101.537	108.291	425.654	238.915	105.188	107.427	111.533	114.686	174.423	109.683	-8191	255	
2274.560	1	1	0	131072	0.38561	0.42396	0.21429	0.21584	0.17953	0.36143	0.11925	0.20985	0.18749	0.11804	0.12762	0.064272	0.13607	0.36334	0.048022	0.32064	-2.275	-2.3458	-3.0479	-2.4667	-2.4146	-2.8438	-2.1229	-2.9667	-2.6104	-2.2229	-3.1542	-2.4333	-2.4229	-3.2167	-2.3063	-2.9958	365.751	360.392	281.379	423.167	441.717	343.785	370.404	433.587	309.774	443.164	94.897	134.004	373.047	418.265	105.237	422.286	0.0031902	0.00074499	0.00083343	351.55	3.3988e-05	1.6288e-05	467.36	186.71	1.6447e-05	2.8741e-05	273.82	120.59	90.884	47.153	3.2611e-05	69.543	0.010455	0.010467	0.0028993	1903.9	0.00011321	0.00011318	1806.3	651.95	0.00011289	0.00011288	1233.3	386.22	296.57	130.72	0.00011056	172.56	338.178	266.019	262.258	102.984	248.071	439.450	101.399	107.773	200.884	339.750	103.958	108.026	111.217	114.092	237.888	109.567	-8191	255	
2274.656	1	1	0	131072	0.21686	0.12571	0.15423	0.16942	0.29255	0.045375	0.17147	0.12553	0.29166	0.18553	0.14408	0.10454	0.17035	0.06887	0.16131	0.37792	-2.3417	-2.1458	-2.9771	-2.5208	-2.4125	-3.1042	-2.5375	-2.7438	-2.8917	-2.2062	-3.1562	-2.5479	-2.5104	-3.2562	-2.3896	-2.8812	270.916	188.646	321.444	234.684	363.267	160.273	361.417	417.679	112.039	311.242	320.010	115.504	439.375	102.279	249.230	415.101	0.0017855	0.0018001	0.0013172	352.26	6.7905e-06	1.9337e-05	472.44	186.77	2.1191e-05	1.9134e-05	274.44	121.46	91.341	52.501	2.9796e-05	76.182	0.0099625	0.010107	0.0028239	1866.7	0.00010989	0.0001098	1768.1	634.78	0.00010769	0.0001071	1179	370.52	282.78	127.35	0.00010262	167.71	345.568	200.871	272.737	102.338	300.704	198.918	101.002	107.682	141.063	203.344	104.689	107.998	111.414	114.553	139.067	109.745	-8191	255	
2274.775	1	1	0	131072	0.073622	0.13406	0.30818	0.20515	0.12545	0.09	0.19444	0.15649	0.24109	0.16467	0.20792	0.078348	0.026243	0.3904	0.32624	0.23789	-2.4729	-2.1958	-2.7708	-2.6771	-2.225	-2.9458	-2.4896	-2.5854	-3.0667	-2.125	-2.9083	-2.7729	-2.375	-3.175	-2.3771	-2.6083	303.572	294.839	322.153	307.384	145.809	388.930	351.913	406.679	243.781	98.808	368.313	108.541	378.319	414.035	178.224	354.658	0.0030192	0.0033156	0.00014974	352.18	1.3851e-05	3.258e-05	478.09	188.53	1.5897e-05	2.1077e-06	268.63	122.43	91.871	54.813	4.018e-05	79.155	0.0092484	0.0093032	0.0025861	1736.9	0.00010107	0.00010151	1670.1	606.06	0.00010179	0.00010194	1140.6	361.35	276.42	125.79	9.939e-05	164.32	343.340	166.246	356.603	103.363	358.387	288.323	102.206	108.069	213.376	332.569	104.876	107.692	111.105	114.333	305.769	109.495	-8191	255	
2274.871	1	1	0	131072	0.14202	0.18186	0.045051	0.082138	0.2514	0.20408	0.079314	0.07016	0.087617	0.20172	0.13114	0.15123	0.13813	0.18784	0.09979	0.21164	-2.6229	-2.2812	-2.8542	-2.6125	-2.2375	-2.9375	-2.5271	-2.6333	-2.9479	-2.1771	-2.7771	-2.8375	-2.3229	-3.0687	-2.2979	-2.5542	214.361	288.915	103.362	144.862	353.892	322.386	379.296	407.579	170.251	384.687	443.128	273.369	441.111	327.201	448.373	368.967	0.0027872	0.0027446	0.00089945	358.24	3.079e-05	3.7951e-05	467.65	185.71	3.3539e-05	2.0294e-05	268.67	117.32	91.054	58.416	2.1394e-05	80.8	0.008924	0.0089628	0.0025036	1697	9.7946e-05	9.8428e-05	1623	588.88	9.8e-05	9.7935e-05	1097	345.87	265.65	123.24	9.5112e-05	161.57	339.984	168.619	436.317	103.078	294.927	179.739	101.831	108.434	220.845	129.384	104.771	108.256	110.925	114.106	210.382	109.420	-8191	255	
2274.967	1	1	0	131072	0.21842	0.089896	0.18722	0.077336	0.29279	0.12175	0.1952	0.088995	0.050615	0.16296	0.22019	0.19668	0.13742	0.12702	0.16509	0.071297	-2.6667	-2.2646	-2.8042	-2.9771	-2.2188	-2.9771	-2.55	-2.5917	-2.9938	-2.4667	-2.6542	-2.8625	-2.3021	-2.8854	-2.6521	-2.4271	404.248	231.663	411.553	422.902	103.373	182.972	381.838	363.275	384.657	411.975	326.398	343.044	296.689	415.301	215.062	408.727	0.0029089	0.0018329	0.0014415	354.14	1.9596e-05	9.101e-06	469.31	186.47	1.8397e-05	3.1133e-05	267.65	119.51	90.71	57.081	7.3734e-06	79.952	0.0087101	0.008858	0.0024873	1693.8	9.8306e-05	9.9107e-05	1634.6	590.14	9.8009e-05	9.7481e-05	1098	348.79	268.92	124.4	9.7153e-05	163.5	354.624	414.096	215.512	103.395	340.398	117.481	101.970	107.862	154.802	250.860	103.839	108.152	110.869	114.184	293.792	109.519	-8191	255	
2275.063	1	1	0	131072	0.20197	0.2019	0.08766	0.13175	0.16115	0.069818	0.046999	0.2092	0.043244	0.17811	0.036939	0.18557	0.27079	0.13284	0.11096	0.29304	-2.3792	-2.1083	-2.4896	-3	-2.2958	-2.8833	-2.8	-2.1333	-3.0542	-2.3917	-2.7438	-2.9625	-2.3812	-3.0687	-2.7375	-2.3396	114.399	304.390	386.139	134.752	363.196	222.264	402.205	228.171	387.326	98.070	246.461	436.215	378.266	436.861	197.266	142.965	0.0034335	0.003595	0.00027587	348.51	2.1775e-05	1.6539e-05	470.58	188.25	2.6665e-05	1.0302e-05	275.36	121.81	92.551	60.548	2.1318e-05	83.667	0.008827	0.0089507	0.0025074	1697.4	9.8039e-05	9.7786e-05	1614.4	580.07	9.4946e-05	9.3888e-05	1060.6	337.74	258.73	121.57	9.0121e-05	158.37	333.867	251.360	338.255	104.200	330.720	363.187	100.980	107.821	144.287	264.703	104.280	108.187	111.420	114.328	198.396	109.560	-8191	255	
2275.159	1	1	0	131072	0.068948	0.087009	0.28354	0.091496	0.20392	0.22253	0.095846	0.12523	0.29089	0.2569	0.14796	0.17617	0.15779	0.35366	0.10902	0.19924	-2.675	-2.1146	-2.5062	-3.1292	-2.3812	-2.8625	-2.7708	-2.3729	-2.8833	-2.7062	-2.4729	-3.0875	-2.2625	-2.7812	-2.8396	-2.2625	429.768	99.755	378.149	371.696	154.120	359.955	170.297	404.236	440.848	398.299	140.856	109.706	307.223	114.717	91.984	304.712	0.0020025	0.0018403	0.0012802	357.36	1.6497e-06	1.5561e-05	473.85	188.07	3.8038e-05	1.1718e-05	272.86	123.49	92.22	64.17	3.9978e-06	83.483	0.0081058	0.0081335	0.0022592	1566.1	8.8483e-05	8.853e-05	1507.6	544.89	8.7104e-05	8.6674e-05	1002.6	322.15	245.54	117.71	8.3102e-05	150.97	335.017	408.845	211.024	103.608	103.734	387.404	101.382	107.709	292.103	238.934	104.817	107.864	111.603	113.940	442.142	109.894	-8191	255	
2275.255	1	1	0	131072	0.14546	0.12219	0.24317	0.20741	0.23308	0.21318	0.14483	0.31185	0.14706	0.24887	0.079381	0.2178	0.11625	0.1942	0.12278	0.20126	-2.475	-2.3667	-2.1583	-3.2417	-2.3375	-2.7208	-3.0979	-2.3542	-2.85	-2.6104	-2.4188	-3.1937	-2.6021	-2.7646	-3.0604	-2.3563	324.044	417.134	209.159	160.765	396.573	154.954	206.160	336.869	128.180	376.033	374.066	196.974	135.095	435.566	400.085	399.082	0.0015084	0.0013016	0.00066863	355.77	2.0358e-05	2.8441e-05	466.81	185.14	1.7624e-05	1.0756e-05	270.83	120.49	90.4	64.669	4.5903e-05	82.187	0.0073839	0.0073908	0.0020477	1441.6	7.9632e-05	7.9389e-05	1400.2	510.47	8.0112e-05	8.0777e-05	956.38	311.12	239.86	116.23	8.3299e-05	150.5	339.732	192.223	416.654	103.182	136.993	401.554	101.238	107.938	232.818	321.489	105.080	108.092	111.745	113.980	121.055	109.876	-8191	255	
2275.352	1	1	0	131072	0.058797	0.1396	0.18237	0.096009	0.063152	0.069064	0.23804	0.069353	0.20089	0.18134	0.15294	0.11478	0.16716	0.24789	0.18263	0.1472	-2.5208	-2.5667	-2.2	-2.9021	-2.5167	-2.3667	-3.2167	-2.2729	-2.8917	-2.8708	-2.3771	-3.1312	-2.3625	-2.5792	-2.8646	-2.2438	135.030	167.261	128.503	358.637	410.360	350.908	449.751	231.631	128.407	208.808	112.693	256.171	99.092	439.037	185.228	403.916	0.0024632	0.00034041	0.0009516	352.62	3.3581e-05	5.6096e-05	471.51	184.74	3.3178e-06	3.044e-05	266.91	118.76	91.009	62.009	3.327e-05	75.5	0.0076025	0.0076857	0.0021529	1509.9	8.5128e-05	8.5491e-05	1475.1	534.3	8.5568e-05	8.6021e-05	1000.5	322.63	249.82	119.14	8.9662e-05	146.19	364.699	408.510	150.940	103.548	229.213	306.907	102.348	108.040	98.168	221.466	105.175	107.829	111.023	113.905	190.070	120.213	-8191	255	
2275.448	1	1	0	0	0.145	0.10027	0.16668	0.23962	0.056304	0.14987	0.25263	0.1268	0.061745	0.1539	0.13545	0.099854	0.14658	0.079147	0.14034	0.46077	-2.2542	-3.025	-2.2812	-3.0375	-2.4938	-2.4979	-3.2833	-2.2667	-2.725	-2.8021	-2.2438	-2.9979	-2.6771	-2.3646	-3.2333	-2.3542	266.247	421.258	352.834	147.905	355.764	184.668	431.448	380.582	192.903	343.190	364.696	337.117	349.985	228.896	265.395	375.675	0.00235	0.0013988	5.4123e-05	311.43	2.7692e-05	3.4337e-05	412.21	162.51	4.427e-05	1.8876e-05	233.52	104.19	79.768	57.752	2.6691e-05	72.271	0.0073301	0.0073457	0.0020484	1407.6	8.0228e-05	8.0126e-05	1353.8	488.84	7.8786e-05	7.8333e-05	896.25	286.42	220.12	105.48	7.5991e-05	135.43	354.301	259.069	438.962	104.640	348.348	275.713	103.342	109.025	246.503	183.552	105.684	110.103	112.706	115.579	114.266	110.857	-8191	255	
2275.567	1	1	0	0	0.010517	0.058154	0.20177	0.017956	0.075822	0.32101	0.020413	0.15964	0.10783	0.093021	0.19947	0.02862	0.25998	0.2079	0.23538	0.069344	-2.2354	-2.8958	-2.3604	-2.8979	-2.5125	-2.1771	-2.9396	-2.4229	-2.5021	-2.9979	-2.2167	-2.8104	-2.6917	-2.3792	-3.0438	-2.6333	117.699	454.379	347.143	381.360	346.773	353.242	437.430	403.075	390.222	233.783	204.960	405.731	310.972	438.014	360.496	203.310	0.0020506	0.0013364	0.00025512	307.06	4.4582e-05	2.2593e-05	411.5	159.42	5.836e-06	2.9077e-05	206.91	91.656	69.322	50.359	8.3067e-06	63.113	0.0068482	0.0069136	0.0019321	1345.4	7.5637e-05	7.6002e-05	1310.2	458.63	6.7577e-05	6.6209e-05	768.21	247.74	189.81	91.688	6.5495e-05	118.33	332.513	226.370	239.635	464.577	464.578	228.418	462.708	123.124	271.096	464.176	107.211	111.111	114.317	117.301	267.565	112.417	-8191	255	
2275.663	1	1	0	0	0.23425	0.15482	0.21012	0.14986	0.2111	0.18982	0.14792	0.3396	0.227	0.18816	0.24284	0.23587	0.023663	0.22653	0.49419	0.23149	-2.1146	-2.8354	-2.2417	-2.9292	-2.7333	-2.2646	-2.9917	-2.5917	-2.5083	-2.9938	-2.3958	-2.5167	-2.8937	-2.3729	-2.9208	-2.5521	424.027	203.529	347.730	450.951	446.589	115.188	293.315	413.002	415.359	132.807	155.553	159.728	290.762	230.771	376.560	428.256	0.0016331	0.001565	0.0007431	262.84	3.1711e-05	1.8351e-05	353.08	141.57	6.8616e-06	7.7514e-06	203.46	91.434	69.2	50.144	1.4561e-05	62.304	0.0059174	0.0059974	0.0016778	1171.9	6.5878e-05	6.6078e-05	1139.4	414.64	6.6181e-05	6.6364e-05	770.83	248.05	191.08	92.041	6.6095e-05	117.69	345.554	271.052	407.965	106.230	375.001	379.549	104.362	110.494	435.019	195.678	107.528	110.958	114.398	116.904	185.107	112.197	-8191	255	
2275.759	1	1	0	0	0.1115	0.076173	0.1422	0.18771	0.26115	0.069811	0.17728	0.19921	0.16621	0.20456	0.16748	0.17202	0.1592	0.25854	0.060624	0.29114	-2.0521	-3.0083	-2.2812	-2.6875	-2.8125	-2.0833	-2.875	-2.7125	-2.35	-2.8646	-2.4188	-2.7083	-2.9062	-2.1771	-2.7104	-2.8479	374.260	327.779	406.198	241.995	277.884	323.397	269.102	437.166	117.079	451.348	265.185	325.698	197.077	385.982	324.637	367.292	0.0019192	0.0010395	0.00077787	261.44	2.1959e-05	1.7053e-05	352.51	139.32	9.4956e-06	1.7529e-05	200.39	88.431	68.653	49.776	1.76e-05	61.691	0.005921	0.0059684	0.0016553	1155.6	6.4684e-05	6.4934e-05	1126	411.6	6.5897e-05	6.6217e-05	768.44	247.32	191.63	92.2	6.6887e-05	118.38	331.304	332.092	368.134	105.813	420.475	136.263	104.539	110.819	126.719	298.495	107.827	111.542	114.198	117.065	128.310	112.397	-8191	255	
2275.857	1	1	0	0	0.086218	0.023973	0.035737	0.1843	0.13526	0.18002	0.13095	0.10244	0.12874	0.3778	0.38171	0.12691	0.21202	0.21565	0.13532	0.18723	-1.8083	-3.1188	-2.3563	-2.4771	-2.8854	-2.2146	-2.9938	-2.7062	-2.0542	-2.9188	-2.3604	-2.5208	-2.9896	-2.1417	-2.8604	-2.8875	370.763	390.158	402.601	360.119	334.727	202.412	413.946	345.778	328.749	239.203	378.705	251.366	423.570	372.788	249.639	349.299	0.0023223	0.00074893	0.0012804	268.88	3.8718e-05	9.7538e-06	351.77	140.04	2.0348e-05	9.7944e-06	202.23	90.752	68.491	49.765	8.1525e-06	61.633	0.0060641	0.0061188	0.0016959	1177.8	6.5979e-05	6.5634e-05	1124.3	408.86	6.4692e-05	6.478e-05	752.27	243.07	187.28	90.612	6.474e-05	116.42	313.112	215.052	113.547	106.129	444.824	417.355	104.327	110.300	233.613	166.531	108.084	111.179	113.822	116.679	162.939	111.758	-8191	255	
2275.951	1	1	0	0	0.11251	0.12211	0.1687	0.22307	0.1417	0.27349	0.26071	0.20594	0.17039	0.16622	0.29303	0.20992	0.041543	0.36968	0.24765	0.2026	-1.6688	-3.0375	-2.4208	-2.3479	-3.0729	-2.1125	-2.7771	-2.8771	-2.1312	-2.9229	-2.7354	-2.3	-3.0125	-2.6	-2.8229	-2.8458	251.041	189.445	360.718	171.745	357.267	115.297	261.090	384.185	360.619	294.705	399.276	442.665	107.741	384.790	94.672	442.303	0.002379	0.00066754	0.0004165	263.36	7.7828e-06	6.2546e-06	353.38	140.44	1.959e-05	7.124e-06	205.4	90.835	69.049	50.29	2.4939e-05	62.88	0.0058412	0.0058964	0.0016374	1146.6	6.3994e-05	6.3963e-05	1112.6	404.56	6.3435e-05	6.3561e-05	743.79	240.86	185.19	89.92	6.242e-05	115.44	319.892	331.483	378.878	105.382	416.560	393.904	105.109	110.212	442.030	259.922	106.298	110.438	113.732	116.932	234.754	112.238	-8191	255	
2276.047	1	1	0	0	0.14115	0.13356	0.24159	0.15539	0.18481	0.23323	0.15976	0.1423	0.28826	0.31046	0.020841	0.018216	0.094044	0.055058	0.2381	0.12717	-1.9167	-3.0083	-2.4458	-2.4125	-3.0187	-2.35	-2.6875	-2.8125	-2.3854	-2.7792	-2.7604	-2.2604	-3.1979	-2.5958	-2.5396	-3.1083	99.934	413.256	245.812	133.677	429.601	144.754	123.939	131.777	368.564	335.729	303.626	152.565	251.108	126.069	410.898	207.047	0.0013465	0.00087399	0.00077284	263.54	1.2617e-05	1.789e-05	359.01	140.23	4.8582e-06	1.5761e-05	203.7	91.3	69.408	50.512	1.6092e-05	63.32	0.0056041	0.0056732	0.0015844	1123.8	6.2423e-05	6.2727e-05	1103.2	402.37	6.3345e-05	6.3701e-05	749.52	243.26	188.03	91.333	6.4508e-05	117.59	326.517	377.970	384.704	106.268	446.692	432.644	104.172	111.179	290.955	127.970	106.961	111.382	114.168	116.755	348.993	112.129	-8191	255	
2276.144	1	1	0	0	0.088363	0.048104	0.089906	0.22119	0.11953	0.29018	0.21849	0.14298	0.13799	0.14703	0.28318	0.28045	0.078702	0.42469	0.15324	0.34729	-1.8979	-2.6833	-2.6396	-2.3104	-2.9583	-2.4604	-2.6083	-2.9313	-2.375	-2.8354	-2.9188	-2.2917	-3.1375	-2.5958	-2.4208	-3.1583	131.329	130.138	230.726	448.888	236.153	123.318	165.426	384.125	111.923	280.378	320.495	320.004	157.351	421.643	253.221	402.855	0.0031513	0.00085757	0.0003286	263.17	1.5159e-05	5.8604e-06	352.94	139.52	3.1844e-05	7.1714e-06	200.64	90.66	70.093	50.547	1.9691e-05	62.502	0.005824	0.0058814	0.0016368	1150.9	6.4611e-05	6.4797e-05	1123.3	410.2	6.5082e-05	6.5511e-05	763.12	246.97	191.73	92.609	6.6316e-05	119.07	342.194	231.592	427.469	106.088	227.612	396.074	104.280	110.666	284.453	379.589	107.707	110.691	113.819	116.747	390.704	112.584	-8191	255	
2276.264	1	1	0	0	0.074861	0.1564	0.34228	0.16533	0.034475	0.17868	0.13283	0.2109	0.22786	0.17686	0.11638	0.15357	0.15907	0.21025	0.17766	0.051778	-1.8062	-2.6583	-2.7167	-2.1021	-3.0708	-2.5833	-2.4313	-3.0812	-2.2292	-2.6646	-2.9542	-2.4396	-3.0083	-2.75	-2.2562	-3.2687	243.794	349.268	224.082	285.507	319.536	430.079	393.097	448.975	444.542	445.904	380.878	428.244	428.567	201.566	102.787	108.311	0.0013906	0.0004268	0.00045281	262.46	1.9128e-05	1.3211e-05	352.28	140	1.1478e-05	3.7732e-06	201.06	90.274	69.635	50.761	3.9687e-05	62.747	0.0060462	0.0061168	0.0017063	1190.4	6.7512e-05	6.775e-05	1158.3	424.2	6.851e-05	6.8851e-05	792.8	254.02	196.6	94.417	6.895e-05	121.52	363.061	182.805	182.500	105.716	280.414	288.034	104.360	110.577	377.079	430.059	107.367	110.887	113.551	116.601	429.781	111.960	-8191	255	
2276.360	1	1	0	0	0.24168	0.16646	0.18535	0.20096	0.097527	0.092189	0.074812	0.20972	0.10895	0.092549	0.12083	0.15618	0.014842	0.16486	0.10209	0.24035	-2.1479	-2.4292	-2.9229	-2.125	-2.7875	-2.7062	-2.3812	-3.1271	-2.4021	-2.6542	-3.0625	-2.3375	-2.8854	-2.9083	-2.225	-3.1583	371.635	282.647	176.652	296.830	143.591	105.406	231.256	118.827	367.107	438.895	397.417	391.249	226.158	442.852	251.274	247.408	0.0013866	0.0014601	0.00022221	259.66	2.2576e-05	4.264e-06	349.93	141.3	7.767e-06	1.8736e-05	202.87	89.701	69.119	51.029	6.9788e-06	63.843	0.006271	0.006372	0.0017877	1236.3	7.1297e-05	7.1992e-05	1212.8	444.27	7.3167e-05	7.3693e-05	838.19	268.47	208.26	98.559	7.467e-05	127.35	242.091	362.166	277.447	106.819	280.894	327.524	104.219	110.918	116.306	279.328	106.848	110.719	113.879	116.623	221.615	111.912	-8191	255	
2276.456	1	1	0	0	0.12667	0.089736	0.13575	0.090482	0.20063	0.065462	0.094137	0.25313	0.21633	0.099635	0.1898	0.18327	0.073294	0.20932	0.24998	0.32024	-2.1479	-2.6937	-2.9604	-2.4188	-2.8521	-2.9917	-2.1312	-3.1417	-2.5312	-2.4208	-3.1542	-2.3958	-2.8917	-2.9833	-2.1437	-3.1813	343.404	410.933	274.027	425.492	340.426	339.312	201.126	124.199	381.876	426.766	96.916	430.268	431.194	424.421	252.626	403.959	0.0019784	0.001435	0.00074587	268.01	1.3586e-05	7.6208e-06	351.2	141.13	6.797e-06	3.1722e-05	207.09	91.144	69.821	50.845	2.7128e-05	63.749	0.0067495	0.0068061	0.001893	1288	7.4112e-05	7.4129e-05	1236.2	451.04	7.4511e-05	7.4905e-05	848.47	271.12	209.49	99.029	7.4865e-05	127.39	314.011	93.298	246.744	105.308	176.917	167.746	103.668	110.644	134.957	220.883	107.017	110.060	113.704	116.257	125.507	111.880	-8191	255	
2276.553	1	1	0	0	0.0893	0.24184	0.073199	0.3184	0.17947	0.22196	0.14056	0.1049	0.25495	0.18846	0.077472	0.084755	0.32873	0.087262	0.15694	0.20015	-2.0792	-2.3646	-3.0896	-2.4646	-2.7417	-2.9146	-2.2833	-2.9688	-2.7875	-2.2667	-3.1417	-2.3479	-2.6354	-3.0438	-2.2646	-2.9979	284.598	434.330	213.093	407.383	430.762	172.932	424.449	118.599	183.192	450.180	371.948	179.691	150.983	340.093	183.145	410.546	0.0015131	0.0004532	0.00011447	263.61	2.1685e-05	2.3336e-05	349.91	142.28	1.4563e-05	2.8941e-06	203.06	92.578	69.621	51.111	1.5855e-05	62.794	0.0067188	0.0067689	0.0018857	1281.2	7.3471e-05	7.3419e-05	1226.5	445.79	7.2549e-05	7.2273e-05	821.32	262.82	202.53	96.608	7.1649e-05	124.87	390.801	194.322	347.496	105.060	223.434	280.479	104.306	109.925	123.573	304.284	106.497	110.704	114.220	116.916	162.911	112.331	-8191	255	
2276.649	1	1	0	0	0.026552	0.084223	0.052046	0.36541	0.10753	0.13257	0.16222	0.17326	0.2292	0.20838	0.043983	0.10655	0.2592	0.084544	0.11802	0.15789	-2.1813	-2.0958	-3.1042	-2.4479	-2.5542	-3.1042	-2.3688	-3.0646	-2.825	-2.2812	-3.1688	-2.5438	-2.4062	-3.0396	-2.3	-2.9458	272.784	345.597	273.970	377.555	111.618	253.743	362.597	108.658	379.400	295.359	202.128	329.015	334.608	128.926	96.859	333.367	0.0024896	0.0021089	0.00065569	266.6	8.8117e-06	1.4563e-05	353.03	142.23	9.1215e-06	7.8983e-06	206.98	91.523	70.006	50.947	5.8343e-06	63.414	0.006556	0.0066892	0.0018787	1282.3	7.3959e-05	7.4057e-05	1228.8	448.13	7.3965e-05	7.4138e-05	840.49	268.98	208.14	98.655	7.4571e-05	126.91	314.882	184.134	151.999	105.841	112.291	402.393	104.628	110.868	429.013	203.938	106.759	110.608	114.302	116.558	251.443	112.684	-8191	255	
2276.743	1	1	0	0	0.035326	0.079421	0.091799	0.10683	0.15142	0.13429	0.13835	0.16515	0.24382	0.21522	0.023121	0.33082	0.077169	0.15252	0.12954	0.042267	-2.3812	-2.2771	-3.0187	-2.7292	-2.3958	-3.1354	-2.5042	-3.025	-3.1958	-2.4313	-3.2604	-3.0229	-2.5604	-3.2708	-2.6042	-2.975	221.909	376.459	425.087	421.130	369.293	242.887	208.933	339.757	140.854	256.811	150.095	429.693	242.408	418.974	294.196	112.329	0.0027625	0.00073403	0.00098261	262.46	1.4124e-05	1.7857e-05	354.59	142.36	1.0336e-05	3.1044e-05	203.73	92.446	70.48	51.318	2.59e-05	64.243	0.0067077	0.0067623	0.0018736	1270.9	7.2849e-05	7.2761e-05	1214.6	441.39	7.2056e-05	7.2325e-05	826.25	265.56	205.48	98.314	7.3821e-05	127.21	317.048	248.260	263.999	105.785	189.949	182.720	104.666	111.182	209.208	203.012	107.870	111.466	114.448	116.999	355.783	112.684	-8191	255	
2276.864	1	1	0	0	0.1562	0.039727	0.14435	0.054969	0.12616	0.19466	0.10047	0.12303	0.20624	0.10407	0.058961	0.10878	0.14414	0.16246	0.23581	0.1514	-2.7604	-2.4938	-3.15	-2.8958	-2.5229	-3.2667	-2.5521	-2.8563	-3.2	-2.6292	-3.2125	-3.0438	-2.7625	-3.4313	-2.7729	-2.8667	429.804	303.574	311.502	295.387	201.081	264.750	408.275	450.742	420.743	318.217	265.833	92.743	370.878	353.763	364.443	444.167	0.0027724	0.0032289	0.0003661	266.39	2.1859e-05	3.416e-06	352.71	143.46	1.4541e-05	3.6118e-05	203.81	93.299	70.602	51.406	1.8804e-05	64.941	0.0066898	0.0067462	0.0018812	1276.2	7.2986e-05	7.2675e-05	1212.1	440.35	7.1182e-05	7.1e-05	812.27	262.38	201.98	97.047	7.1755e-05	126.15	345.122	175.146	403.207	106.570	210.483	333.620	104.105	110.361	339.699	141.482	108.101	111.243	114.501	116.903	193.612	112.431	-8191	255	
2276.960	1	1	0	0	0.30166	0.25309	0.063755	0.26295	0.12439	0.074349	0.1871	0.099754	0.10151	0.12623	0.16244	0.31493	0.2522	0.15438	0.18719	0.14872	-2.9125	-2.4271	-2.9896	-3.0958	-2.6375	-3.3333	-2.7292	-2.8146	-3.3625	-2.7125	-2.9271	-3.2188	-2.6208	-3.35	-2.725	-2.8354	99.267	123.030	181.284	243.478	323.149	363.596	150.449	109.204	446.626	106.735	150.063	179.882	332.204	417.803	104.047	390.537	0.0030534	0.0018408	0.00045079	267.36	2.1616e-05	4.4126e-06	355.28	145.19	2.3998e-05	2.6795e-05	205.59	92.772	71.21	51.272	2.0226e-05	63.896	0.006558	0.0066456	0.0018576	1267.9	7.2725e-05	7.2915e-05	1218.2	444.78	7.2393e-05	7.2382e-05	824.73	265.97	204.62	97.674	7.2511e-05	125.69	328.082	114.326	101.750	104.803	257.143	299.030	104.574	110.548	216.784	191.290	107.277	110.839	113.708	116.525	142.555	112.139	-8191	255	
2277.032	1	1	0	0	0.14512	0.15159	0.11933	0.079323	0.1503	0.21965	0.21631	0.086977	0.20465	0.061776	0.21142	0.13037	0.16441	0.097421	0.11224	0.083293	-2.8187	-2.6188	-3.0708	-3.2125	-2.4354	-3.1021	-2.8583	-2.5229	-3.2208	-2.5771	-2.9479	-3.2125	-2.4938	-3.3708	-3.0083	-2.7354	106.075	401.979	261.692	421.587	282.785	446.868	357.853	415.130	405.569	423.634	305.339	318.292	450.567	417.884	318.183	289.691	0.0023295	0.0018393	0.00014398	261.96	2.2154e-05	1.8135e-05	344.62	142.14	2.4123e-05	1.0308e-05	204.98	91.276	70.932	51.273	1.5154e-05	63.652	0.0065525	0.0065943	0.0018365	1256.1	7.181e-05	7.1935e-05	1203.1	439.23	7.1864e-05	7.1802e-05	818.89	263.83	203.33	97.085	7.1873e-05	124.35	327.735	318.047	252.482	106.474	198.721	145.857	104.664	111.048	382.529	228.880	107.907	110.901	114.082	116.922	221.106	112.034	-8191	255	
2277.128	1	1	0	0	0.12023	0.26431	0.11712	0.092487	0.21028	0.11862	0.18167	0.20612	0.11299	0.09572	0.18624	0.18391	0.24318	0.14089	0.2154	0.36783	-3.15	-2.8708	-2.7375	-3.3667	-2.5354	-3.1437	-3.1167	-2.7021	-3.3792	-2.6833	-2.925	-3.3937	-2.675	-3.1354	-2.8729	-2.6479	432.254	223.165	161.404	328.370	130.943	426.415	399.893	386.871	350.043	343.272	219.088	318.124	195.307	193.056	199.977	400.506	0.00076343	0.00058349	0.00045353	265.69	8.022e-06	2.5619e-05	348.79	140.37	3.8195e-05	1.2769e-05	203.88	92.639	70.575	51.756	2.6069e-06	63.99	0.0064993	0.0065438	0.0018255	1250	7.1591e-05	7.1914e-05	1199.6	437.86	7.109e-05	7.1113e-05	809.74	260.25	200.3	96.424	7.0749e-05	124.11	317.624	127.549	328.209	105.871	350.568	153.303	103.595	110.602	141.278	368.863	108.204	110.746	113.909	116.540	442.077	112.301	-8191	255	
2277.248	1	1	0	0	0.079162	0.19048	0.095329	0.2448	0.18756	0.2243	0.085736	0.11105	0.17815	0.13481	0.21483	0.179	0.15002	0.28943	0.26046	0.096832	-2.9479	-2.6354	-2.6167	-3.1354	-2.6437	-3.1458	-3.2792	-2.4542	-3.1708	-2.9729	-2.6708	-3.3021	-2.5583	-3.2313	-3.2021	-2.5792	330.607	211.954	138.090	446.394	156.362	383.963	438.251	390.203	403.267	297.670	378.392	238.167	422.250	434.349	350.798	422.984	0.0009782	0.0021258	0.00017017	262.91	1.0357e-05	4.9625e-06	348.87	142.45	1.325e-05	1.1502e-05	206.82	94.517	70.97	51.943	2.3785e-05	65.012	0.0064117	0.0064623	0.0018048	1239.7	7.0549e-05	7.0457e-05	1186.3	433.37	7.0133e-05	6.9761e-05	800.78	258.41	197.94	95.309	6.7923e-05	122.1	363.113	339.925	195.443	106.755	123.428	286.989	104.509	110.694	370.635	385.363	107.424	111.148	113.743	116.483	197.149	112.150	-8191	255	
2277.345	1	1	0	0	0.02918	0.18796	0.16211	0.14616	0.10964	0.13792	0.14734	0.27854	0.12856	0.17822	0.11534	0.18192	0.26842	0.20724	0.095356	0.28996	-2.9271	-2.9458	-2.5646	-3.2479	-2.6729	-2.8271	-3.4604	-2.5708	-3.1146	-2.95	-2.6437	-3.3458	-2.7333	-3.0542	-3.3271	-2.5812	189.817	374.987	378.724	325.447	309.451	425.801	309.140	315.321	348.869	101.921	324.593	432.484	105.457	120.485	276.692	346.400	0.0019383	0.0012333	6.8193e-05	264.44	1.4183e-05	7.8615e-06	358.99	143.52	1.1596e-05	1.526e-05	206.96	95.358	71.832	52.02	1.5658e-05	65.549	0.0060772	0.0060879	0.0016934	1179.5	6.6152e-05	6.639e-05	1147.1	419.76	6.7172e-05	6.7492e-05	786.25	256.85	197.08	95.492	6.7782e-05	122.69	345.836	103.773	284.443	106.161	309.311	214.535	105.404	110.554	355.631	394.710	107.746	110.338	113.414	116.516	154.953	111.935	-8191	255	
2277.441	1	1	0	0	0.16206	0.17984	0.15096	0.15717	0.18069	0.12679	0.19816	0.036022	0.20179	0.17223	0.057043	0.060131	0.16773	0.089834	0.22906	0.41387	-2.8104	-3.0771	-2.425	-3.1708	-2.975	-2.6917	-3.3979	-2.5875	-3.0563	-2.9979	-2.6521	-3.2208	-2.7583	-2.7188	-3.3292	-2.6646	322.186	415.964	159.221	429.402	383.209	190.271	443.703	327.957	251.912	404.236	377.546	158.554	322.370	346.474	333.396	320.407	0.0012026	0.0015146	0.00029291	264.3	1.6683e-05	3.3687e-06	350.16	143.77	2.3482e-05	4.6618e-06	205.96	94.04	72.288	52.263	1.5261e-05	65.267	0.0061144	0.0061345	0.0017051	1183.6	6.6463e-05	6.6559e-05	1138.1	415.95	6.5763e-05	6.5552e-05	764.91	250.06	192.74	94.066	6.6162e-05	120.93	333.913	139.259	357.393	106.985	416.998	369.874	104.282	110.665	289.328	428.697	107.478	110.559	113.793	116.801	285.282	111.998	-8191	255	
2277.537	1	1	0	0	0.26955	0.34361	0.091458	0.10891	0.33163	0.20085	0.19745	0.077657	0.27509	0.17327	0.070063	0.1257	0.25754	0.2329	0.11944	0.13626	-2.5542	-3.1063	-2.5646	-3.1229	-2.6042	-2.5938	-3.5646	-2.575	-2.8917	-3.2479	-2.4167	-3.2833	-2.7479	-2.6396	-3.4	-2.7417	314.835	114.912	387.344	123.808	137.949	219.619	138.359	303.249	97.760	137.157	288.947	429.609	207.260	347.847	431.955	437.681	0.0022212	0.0002828	0.00048529	263.78	2.1423e-05	7.6526e-06	351.87	143.55	3.8202e-05	8.979e-06	205.63	94.398	71.847	52.458	2.6769e-05	65.521	0.0060157	0.0060817	0.0016948	1174.8	6.5673e-05	6.5465e-05	1120.5	410.2	6.4105e-05	6.3731e-05	747.06	244.19	187.77	92.354	6.3507e-05	119.07	336.340	364.005	223.691	105.339	225.752	137.128	103.801	110.823	334.352	242.411	108.452	110.084	113.949	116.799	154.766	111.697	-8191	255	
2277.656	1	1	0	0	0.27569	0.17927	0.074866	0.21335	0.22205	0.29261	0.058929	0.13478	0.2248	0.051003	0.1738	0.20308	0.34362	0.29481	0.18762	0.31759	-2.3854	-3.2667	-2.5042	-3.2167	-2.9604	-2.5521	-3.3542	-2.7271	-2.8083	-3.3604	-2.65	-3.2333	-3.0958	-2.6521	-3.3854	-2.8458	408.102	403.196	302.760	181.588	190.120	233.669	407.528	113.988	141.212	366.366	161.923	284.867	395.827	445.802	330.858	336.463	0.0020935	0.0014932	0.00025376	268.39	8.3098e-06	2.0914e-05	351.3	143.14	2.5758e-05	1.2545e-05	204.92	95.009	72.486	52.723	2.7363e-06	66.411	0.0057946	0.0058755	0.0016409	1153.9	6.4414e-05	6.4517e-05	1116.8	408.82	6.4031e-05	6.3882e-05	748.9	245.4	188.65	92.721	6.3266e-05	119.31	361.449	447.837	283.610	105.600	118.085	240.773	104.212	110.664	173.184	154.835	106.993	110.481	113.608	116.584	334.010	111.671	-8191	255	
2277.729	1	1	0	0	0.11871	0.27237	0.21774	0.18503	0.19898	0.062959	0.049798	0.090803	0.039689	0.10209	0.24458	0.076118	0.14719	0.24602	0.12003	0.28763	-2.3583	-3.3396	-2.5917	-3.0083	-3.0812	-2.6208	-3.2604	-3.0042	-2.6271	-3.3312	-2.6375	-2.9833	-3.2708	-2.6312	-3.1917	-2.9125	399.856	261.429	407.350	324.826	122.958	408.797	107.101	429.798	276.024	432.194	161.568	281.790	288.389	378.331	206.758	364.172	0.0021485	0.00041404	0.00053946	266	8.9777e-06	1.408e-05	349.01	144.89	2.9271e-05	1.699e-05	210.01	96.226	72.065	53.254	1.7922e-05	66.262	0.0057207	0.0057938	0.0016201	1143	6.3969e-05	6.3898e-05	1110.6	406.17	6.3158e-05	6.2987e-05	740.89	243.61	186.39	92.006	6.1633e-05	117.62	330.334	180.400	224.642	106.628	178.502	427.423	104.632	110.713	173.156	165.097	107.603	110.996	112.871	116.707	229.318	111.492	-8191	255	
2277.825	1	1	0	0	0.051515	0.1958	0.18588	0.16627	0.060123	0.23091	0.010829	0.28282	0.20375	0.24865	0.21379	0.23686	0.018685	0.21491	0.18363	0.20949	-2.3646	-3.3625	-2.6979	-2.9437	-3.2521	-2.5292	-3.2	-2.9479	-2.6688	-3.4479	-2.7042	-3.0792	-3.2646	-2.65	-2.9792	-3.1917	353.542	432.124	437.723	257.265	291.683	291.117	267.426	128.362	325.439	173.058	406.692	278.242	128.281	444.983	444.205	352.876	0.0012845	0.0015544	0.00010722	266.31	1.0709e-05	1.4545e-05	356.29	143.26	2.0896e-05	2.1229e-05	211.24	95.047	71.867	52.169	6.3626e-06	65.501	0.0055158	0.0055518	0.0015459	1101.6	6.0878e-05	6.1317e-05	1087	399.19	6.2216e-05	6.2499e-05	743.66	245.36	189.46	92.964	6.4857e-05	119.97	314.098	94.453	237.185	106.156	195.446	267.221	104.343	110.520	204.766	306.045	106.123	110.627	113.504	116.361	302.970	111.870	-8191	255	
2277.944	1	1	0	0	0.14499	0.12062	0.074966	0.046977	0.040093	0.15259	0.25934	0.29928	0.089771	0.11637	0.21731	0.22529	0.10158	0.060135	0.1161	0.13594	-2.1937	-3.2292	-2.6354	-2.8625	-3.2646	-2.4167	-3.1083	-3.1	-2.4708	-3.2792	-2.7667	-2.7521	-3.4521	-2.7521	-3.1813	-3.2125	293.686	427.155	234.296	265.518	210.335	280.565	294.739	98.435	324.478	416.231	95.747	292.222	439.460	275.070	307.063	383.105	0.0013146	0.0028397	0.00063254	264.87	1.8662e-05	2.2292e-05	345.83	143.21	1.8444e-05	7.1236e-06	202.31	93.501	70.121	51.517	1.8339e-06	63.545	0.0058927	0.0059875	0.0016764	1170.6	6.6163e-05	6.6469e-05	1141	421.44	6.7876e-05	6.8723e-05	796.21	260.07	201.54	97.044	7.1856e-05	125.34	310.945	121.298	218.265	106.189	110.666	184.335	103.948	110.179	228.365	165.565	107.532	111.097	114.022	116.500	256.835	111.778	-8191	255	
2278.040	1	1	0	0	0.133	0.049806	0.23676	0.054483	0.24745	0.16624	0.22956	0.16707	0.23074	0.065451	0.20433	0.12216	0.20824	0.19955	0.11367	0.25302	-2.3396	-3.2438	-2.7646	-2.6063	-3.4542	-2.6396	-3.0292	-3.2313	-2.4833	-3.3083	-3.025	-2.8646	-3.325	-2.8104	-3.0125	-3.4125	248.221	256.351	391.281	425.236	361.875	282.888	258.838	274.239	134.033	389.092	143.310	105.063	391.969	401.029	403.558	96.542	0.0026244	0.0014729	0.00019585	267.22	1.3214e-05	1.0579e-05	354.34	142.22	2.1605e-05	7.9282e-06	205.86	92.349	71.085	51.527	3.2032e-05	63.704	0.0065753	0.0066798	0.0018743	1283.8	7.4317e-05	7.4497e-05	1234.6	450.9	7.4487e-05	7.4706e-05	844.31	270.97	209.08	98.873	7.423e-05	126.59	354.424	256.674	112.186	106.368	231.441	368.300	104.013	110.672	179.279	424.122	107.400	110.659	113.778	116.664	238.417	111.896	-8191	255	
2278.136	1	1	0	0	0.12028	0.039703	0.070831	0.22427	0.15289	0.10293	0.30349	0.060531	0.15035	0.13534	0.097986	0.090154	0.056829	0.13463	0.29728	0.14682	-2.1083	-3.1708	-2.9771	-2.5396	-3.3812	-2.7208	-3.0521	-3.3021	-2.6479	-3.0625	-3.0625	-2.6125	-3.3354	-2.9833	-2.8333	-3.4313	436.182	426.737	300.852	134.874	344.373	166.596	266.237	194.267	242.735	372.078	344.622	343.037	372.281	422.245	375.435	203.672	0.0022529	0.0014118	0.00083409	263.14	5.0895e-06	9.7832e-06	347.48	141.51	1.3486e-05	1.235e-05	205.29	94.974	72.723	51.849	3.6844e-05	64.427	0.0066477	0.0067057	0.001875	1279.8	7.4199e-05	7.4501e-05	1237.5	453.26	7.5131e-05	7.5432e-05	851.91	273.97	210.89	99.681	7.4539e-05	127.56	327.835	138.267	159.032	105.245	235.187	265.335	104.245	110.416	110.770	318.267	107.158	110.797	113.874	116.670	286.340	112.182	-8191	255	
2278.257	1	1	0	0	0.014237	0.21043	0.095033	0.074546	0.19062	0.069062	0.29436	0.26454	0.15914	0.015403	0.17166	0.25738	0.10452	0.32851	0.17711	0.10583	-2.2125	-3.0292	-3.0354	-2.4062	-3.3042	-2.95	-2.65	-3.2875	-2.5854	-3.0833	-3.325	-2.4167	-3.3521	-2.8604	-2.7812	-3.2708	411.688	337.224	200.975	428.707	116.539	267.000	424.713	331.764	116.482	439.297	403.379	445.696	350.407	385.632	196.870	412.647	0.0026177	0.00056468	0.00060543	260.87	5.9069e-06	2.2865e-05	350.16	141.21	3.1772e-05	9.6411e-06	204.34	92.919	70.796	51.281	2.4912e-05	63.493	0.0066847	0.0067715	0.0018856	1275.8	7.321e-05	7.3279e-05	1218.4	443.31	7.213e-05	7.2164e-05	820.96	264.6	203.73	96.894	7.1503e-05	124.17	345.444	192.040	201.215	106.913	390.205	180.713	103.959	110.917	105.258	170.297	106.185	110.504	113.740	116.657	124.837	112.332	-8191	255	
2278.329	1	1	0	0	0.20016	0.03103	0.33058	0.25643	0.21443	0.14737	0.081638	0.23344	0.22136	0.12951	0.21045	0.05364	0.27256	0.31939	0.23668	0.1618	-2.2021	-3.0771	-3.1667	-2.6125	-3.3312	-2.7938	-2.6125	-3.4625	-2.5792	-2.9625	-3.3604	-2.5167	-3.2375	-3.0396	-2.6083	-3.3875	159.660	106.493	441.682	423.507	162.832	186.586	316.589	93.233	347.470	290.204	373.250	356.038	395.951	376.625	418.733	335.672	0.0018082	0.0022871	0.00033682	267.09	1.9736e-05	1.545e-05	347.4	139.41	1.7769e-05	1.4e-05	199.36	90.147	69.689	49.597	1.1799e-05	61.106	0.0064053	0.0064428	0.001782	1220	6.9233e-05	6.9126e-05	1168.3	426.29	6.8712e-05	6.8819e-05	791.52	256.99	200.51	96.061	7.4162e-05	125.98	341.404	235.172	274.314	106.123	219.756	164.441	103.404	110.876	237.501	211.019	107.165	110.299	114.329	116.991	174.919	112.053	-8191	255	
2278.425	1	1	0	0	0.1508	0.0274	0.0953	0.14745	0.082664	0.29048	0.12383	0.14337	0.086071	0.1668	0.053569	0.029799	0.16929	0.15508	0.1111	0.070804	-2.2604	-2.9	-3.4083	-2.6604	-3.0917	-3.1771	-2.6604	-3.5042	-2.7646	-2.8375	-3.3875	-2.6917	-3.2104	-3.2708	-2.7208	-3.5812	437.512	448.948	399.845	429.898	144.037	448.443	335.065	244.831	304.835	230.029	389.710	434.904	361.898	405.207	239.797	302.423	0.0001334	0.00137	0.00012899	260.59	2.3514e-05	1.2737e-06	342.65	137.95	4.2003e-05	1.1618e-05	197.07	89.483	67.179	48.282	5.1951e-05	59.378	0.0069523	0.0071068	0.0019968	1349.6	7.9654e-05	8.0225e-05	1304.2	476.3	8.2061e-05	8.3296e-05	929.72	300.17	239.61	111.7	0.00010406	156.39	127.233	192.297	158.434	106.237	110.782	359.216	104.710	111.172	150.886	274.464	108.103	111.065	113.676	116.883	109.846	112.137	-8191	255	
2278.546	1	1	0	131072	0.097148	0.2269	0.2191	0.060278	0.061786	0.12405	0.12092	0.10264	0.15076	0.064818	0.34078	0.18123	0.1112	0.21871	0.25742	0.1673	-2.4688	-2.6854	-3.4146	-2.7646	-3.0396	-3.35	-2.6792	-3.4938	-3.0354	-2.9271	-3.6937	-2.8604	-3.2771	-3.3875	-2.8438	-3.4479	431.034	256.636	440.992	318.806	159.601	213.463	438.417	372.911	317.633	134.062	392.319	371.541	185.731	396.701	429.784	298.778	0.00061959	0.0010146	0.00016197	259.49	5.055e-05	2.6414e-05	339.65	89.218	3.9546e-05	1.9799e-05	0	0	0	0	0	0	0.010646	0.011433	0.0033977	2224.4	0.00015123	0.00016111	2408.9	902.3	0.00020085	0.00021845	1964.7	550.84	423.29	148.39	0.00022353	200.51	335.373	224.085	146.503	105.402	130.209	357.877	103.982	111.037	289.397	399.846	363.499	364.539	357.925	361.381	94.098	388.972	-8191	255	
2278.640	1	1	0	131072	0.12782	0.042943	0.11498	0.22542	0.14964	0.18478	0.21999	0.25567	0.23316	0.093603	0.13869	0.20109	0.091283	0.052136	0.090984	0.10038	-2.8	-2.8479	-3.5396	-2.8937	-2.9979	-3.4479	-2.7438	-3.375	-3.3708	-2.9958	-3.7	-2.9146	-3.0729	-3.5042	-2.8812	-3.2438	152.657	207.111	344.013	126.512	302.300	225.243	135.136	240.883	75.134	11.640	124.837	69.698	103.726	32.595	347.155	237.446	0	0	0	0	0	0	0	0	0	0	0	0	0	0	0	0	0.020151	0.020362	0.0056743	3086.7	0.00022283	0.00022319	2672.5	936.69	0.00022309	0.00022315	1964.7	550.84	423.29	148.39	0.00022353	200.51	214.617	38.274	38.362	357.422	91.736	83.588	22.399	17.985	78.691	90.507	3.499	4.539	357.925	1.381	94.098	28.972	-8191	255	
2278.736	1	1	0	131072	0.11051	0.092166	0.21034	0.33787	0.15278	0.24006	0.17115	0.27372	0.18782	0.050174	0.096221	0.07307	0.17384	0.11183	0.15271	0.20668	-3.0104	-2.9625	-3.6167	-3.0083	-2.8604	-3.3792	-2.6312	-3.3854	-3.475	-2.7167	-3.5917	-3.0521	-2.8875	-3.6167	-2.9021	-3.1813	68.001	58.561	173.265	277.111	145.019	237.160	218.646	66.151	318.013	44.792	349.684	280.262	40.582	356.946	110.081	352.236	0	0	0	0	0	0	0	0	0	0	0	0	0	0	0	0	0.020151	0.020362	0.0056743	3086.7	0.00022283	0.00022319	2672.5	936.69	0.00022309	0.00022315	1964.7	550.84	423.29	148.39	0.00022353	200.51	214.617	38.274	38.362	357.422	91.736	83.588	22.399	17.985	78.691	90.507	3.499	4.539	357.925	1.381	94.098	28.972	-8191	255	
2278.832	1	1	0	131072	0.14532	0.086408	0.2051	0.12162	0.095196	0.032815	0.12036	0.25895	0.050345	0.15305	0.35765	0.2316	0.28375	0.16976	0.1066	0.1309	-3.1208	-2.8312	-3.5083	-3.0042	-2.7292	-3.5	-2.7875	-2.8417	-3.4625	-2.7417	-3.4271	-3.1146	-2.8812	-3.6208	-2.9188	-3.2313	53.017	189.098	314.911	80.328	254.320	331.305	25.153	226.386	80.521	249.823	30.152	141.711	125.234	80.547	183.387	359.740	0	0	0	0	0	0	0	0	0	0	0	0	0	0	0	0	0.020151	0.020362	0.0056743	3086.7	0.00022283	0.00022319	2672.5	936.69	0.00022309	0.00022315	1964.7	550.84	423.29	148.39	0.00022353	200.51	214.617	38.274	38.362	357.422	91.736	83.588	22.399	17.985	78.691	90.507	3.499	4.539	357.925	1.381	94.098	28.972	-8191	255	
2278.953	1	1	0	131072	0.1248	0.38605	0.25546	0.36431	0.32723	0.16631	0.10251	0.10018	0.054044	0.18368	0.1645	0.062008	0.13952	0.20483	0.2397	0.21796	-3.1042	-2.8479	-3.225	-3.3063	-2.7792	-3.5542	-2.9292	-3.1562	-3.5896	-2.825	-3.275	-3.3042	-2.8917	-3.5042	-2.9313	-2.9854	331.275	233.979	101.158	17.486	318.097	104.216	106.163	335.671	125.181	49.049	71.822	178.849	39.202	355.952	359.322	312.912	0	0	0	0	0	0	0	0	0	0	0	0	0	0	0	0	0.020151	0.020362	0.0056743	3086.7	0.00022283	0.00022319	2672.5	936.69	0.00022309	0.00022315	1964.7	550.84	423.29	148.39	0.00022353	200.51	214.617	38.274	38.362	357.422	91.736	83.588	22.399	17.985	78.691	90.507	3.499	4.539	357.925	1.381	94.098	28.972	-8191	255	
2279.025	1	1	0	131072	0.12567	0.15182	0.21579	0.044354	0.11471	0.032419	0.24967	0.052707	0.10708	0.061477	0.01439	0.1041	0.13484	0.3237	0.067923	0.19779	-3.1708	-2.7708	-3.4208	-3.2042	-2.6021	-3.5521	-2.9979	-1.8687	-2.8083	-1.8646	-2.2313	-2.4354	-1.6708	-2.4854	-1.9854	-1.7479	452.097	212.353	354.621	96.322	165.281	200.038	420.317	336.042	149.243	363.805	208.412	185.529	173.936	315.354	318.598	124.608	0	0	0	0	0	0	0	18.181	8.2219e-05	9.0459e-06	0.26124	0.018403	0.014047	0.0016299	1.7314e-07	0.0023473	0.020151	0.020362	0.0056743	3086.7	0.00022283	0.00022319	2672.5	524.57	2.562e-05	3.2137e-06	4.2027	-0.029349	-0.23344	-0.092338	-1.2562e-07	-0.09709	214.617	398.274	398.362	357.422	451.736	443.588	382.399	112.324	181.373	193.470	111.813	127.923	194.342	229.116	125.878	271.419	-8191	255	
2279.121	1	1	0	0	0.32877	0.14294	0.098906	0.019854	0.18883	0.10592	0.15929	0.24015	0.1077	0.23853	0.15616	0.15162	0.29123	0.1669	0.16727	0.20438	-2.0333	-1.7458	-2.1437	-2.5333	-1.5812	-2.5417	-2.1854	-1.7854	-2.5875	-1.9917	-2.0854	-2.5104	-1.7021	-2.3833	-2.2896	-1.5875	150.695	442.886	437.033	356.904	88.678	278.529	319.441	109.909	331.084	176.864	383.481	351.470	123.212	109.818	154.026	91.968	9.5782e-06	2.5389e-05	6.4676e-06	0.0085887	1.3716e-07	1.8147e-07	0.022334	0.0081861	5.487e-08	9.9036e-08	0.019984	0.0051418	0.0031988	0.00042606	1.5867e-07	0.0030078	-8.9927e-06	-8.0239e-06	-2.0788e-06	-1.0762	-6.7127e-08	-6.7136e-08	-0.74644	-0.22899	-5.712e-08	-5.1446e-08	-0.42683	-0.1196	-0.079717	-0.029163	-4.1257e-08	-0.033872	397.467	242.145	417.282	362.396	414.999	339.894	134.348	104.731	409.753	113.481	427.602	435.847	293.901	388.918	157.649	155.658	-8191	255	
2279.217	1	1	0	0	0.17576	0.15919	0.23655	0.050494	0.27322	0.078155	0.081212	0.19884	0.015676	0.1272	0.049488	0.22149	0.052574	0.11441	0.17288	0.28014	-2.1188	-2.0438	-1.9521	-2.4188	-1.6917	-2.1896	-2.325	-1.675	-2.4479	-1.9562	-1.8646	-2.425	-1.8563	-2.2771	-2.3771	-1.7146	-110.184	-12.489	137.597	231.822	62.278	-119.126	104.302	126.873	86.071	-70.518	184.269	196.314	-56.119	-71.013	61.189	21.967	5.5227e-06	1.1328e-05	1.8092e-06	0.016279	9.6114e-08	1.0354e-07	0.036164	0.0073114	8.6663e-08	1.1577e-07	0.030319	0.0031328	0.0047396	0.0018165	9.7822e-08	0.001648	-3.4387e-06	-3.3582e-06	-8.7452e-07	-0.51849	-3.0432e-08	-3.3461e-08	-0.39098	-0.11619	-3.2227e-08	-2.8348e-08	-0.23596	-0.075018	-0.045779	-0.017511	-2.7713e-08	-0.020206	-79.133	211.394	118.996	13.462	232.014	66.176	218.870	-102.538	41.825	-52.379	162.188	-16.672	-119.701	-16.091	-40.064	-98.294	-8191	255	
2279.337	1	1	0	0	0.14965	0.15255	0.091056	0.063525	0.2946	0.27176	0.088413	0.096412	0.074222	0.24528	0.14091	0.12923	0.1042	0.17183	0.083396	0.052522	-2.175	-2.2521	-1.8646	-2.5146	-1.8417	-2.2	-2.3375	-1.5646	-2.4646	-2.0563	-1.7104	-2.4062	-1.8021	-1.9688	-2.4208	-1.6458	231.788	108.260	272.036	187.089	61.374	176.686	77.758	35.463	194.089	114.621	150.421	60.909	56.656	282.384	261.820	50.468	4.8526e-06	2.7564e-06	1.9353e-06	0.023749	8.708e-08	8.6324e-08	0.029417	0.0046588	8.4378e-08	1.091e-07	0.0060053	0.0054912	0.006062	0.00090851	5.5804e-08	0.00096455	-2.1793e-06	-2.1257e-06	-5.4729e-07	-0.36424	-2.1082e-08	-2.3798e-08	-0.29786	-0.07891	-2.4269e-08	-2.2119e-08	-0.16888	-0.060659	-0.035149	-0.013737	-2.3208e-08	-0.01475	257.962	305.773	136.827	267.353	302.007	286.098	266.183	-18.232	2.710	51.721	106.572	103.109	241.832	183.732	191.063	235.305	-8191	255	
2279.434	1	1	0	0	0.14605	0.29966	0.15655	0.12509	0.085349	0.21032	0.231	0.04353	0.36106	0.27779	0.036229	0.20039	0.1254	0.026521	0.20259	0.14145	-1.9688	-2.0521	-1.7208	-2.5083	-2.0208	-2.0479	-2.525	-1.7229	-2.1917	-2.2854	-1.8104	-2.3417	-1.775	-1.8583	-2.4604	-1.5521	343.664	359.895	375.759	148.154	205.310	388.706	309.836	350.380	456.196	446.324	467.727	464.823	239.990	363.618	410.712	281.685	5.6171e-06	1.6695e-05	3.8166e-06	0.029857	3.3448e-07	2.1067e-07	0.031483	0.011831	2.6046e-07	1.781e-07	0.033713	0.0077826	0.0039556	0.0014025	1.6219e-07	0.0024892	-1.7078e-06	-1.8474e-06	-4.1814e-07	-0.31223	-1.6916e-08	-1.7511e-08	-0.26235	-0.070453	-2.0411e-08	-1.9707e-08	-0.13553	-0.050782	-0.030627	-0.010614	-2.0351e-08	-0.012582	219.653	308.784	286.989	443.152	238.896	129.873	250.292	139.948	261.750	259.449	212.345	260.312	170.249	348.478	199.465	284.803	-8191	255	
2279.530	1	1	0	0	0.12376	0.20812	0.15468	0.14725	0.27756	0.12575	0.30691	0.18749	0.062443	0.14908	0.19902	0.22161	0.21508	0.22101	0.17608	0.15324	-1.8563	-2.1688	-1.6021	-2.3667	-1.9062	-1.8604	-2.4854	-1.6583	-2.3479	-2.2396	-1.65	-2.55	-2.1292	-1.6812	-2.5	-1.8937	85.514	81.276	221.847	202.901	241.121	326.273	93.210	85.556	256.383	184.566	189.419	-20.835	83.855	309.413	204.195	137.421	6.4558e-06	1.5748e-05	7.8916e-06	0.055369	1.0023e-07	7.6878e-08	0.022836	0.0021687	2.4451e-07	1.7224e-07	0.021066	0.0036941	0.0039864	0.00070168	7.1067e-08	0.0050307	-1.4273e-06	-1.7374e-06	-3.431e-07	-0.27985	-1.6775e-08	-1.578e-08	-0.26099	-0.064081	-1.7376e-08	-1.8728e-08	-0.11405	-0.047981	-0.030708	-0.0099914	-2.0593e-08	-0.01271	36.373	304.732	81.764	125.350	29.529	134.789	119.946	-13.506	276.454	103.746	315.149	212.193	141.318	150.710	87.404	7.665	-8191	255	
2279.626	1	1	0	0	0.16072	0.079029	0.12017	0.1744	0.14968	0.34014	0.12267	0.13907	0.13805	0.10708	0.08065	0.16674	0.17205	0.081557	0.21495	0.10545	-1.7938	-2.3187	-1.6979	-2.6021	-2	-1.675	-2.2854	-1.8937	-2.0896	-2.4958	-1.925	-2.25	-2.1375	-1.7875	-2.5729	-1.9833	346.140	366.911	207.518	238.178	49.856	266.667	169.503	154.674	283.515	386.593	355.339	154.841	287.902	364.359	348.623	398.317	6.4261e-06	1.8099e-05	8.4039e-06	0.016067	1.7009e-07	8.8356e-08	0.034024	0.0029642	3.6478e-08	1.2641e-07	0.013801	0.0049466	0.0020338	0.0011887	2.3124e-08	0.00094414	-1.3068e-06	-1.7568e-06	-3.3732e-07	-0.27141	-1.7596e-08	-1.4105e-08	-0.23771	-0.061937	-1.5645e-08	-1.9565e-08	-0.12566	-0.043463	-0.032296	-0.009482	-1.9257e-08	-0.013245	283.924	125.875	406.293	95.356	231.663	89.577	186.718	66.652	349.451	315.319	166.140	326.987	102.463	213.512	310.920	289.266	-8191	255	
2279.720	1	1	0	0	0.24363	0.334	0.055294	0.1504	0.25301	0.34396	0.020582	0.27232	0.31094	0.20766	0.11719	0.10505	0.31886	0.10915	0.12159	0.15238	-1.6146	-2.225	-1.6958	-2.4333	-2.2958	-1.6667	-2.5542	-1.8667	-1.8062	-2.5396	-1.8625	-2.1229	-2.4083	-1.8417	-2.4042	-2.225	48.212	131.235	79.247	-4.201	59.466	-14.695	-45.622	46.999	96.078	98.716	-100.103	237.589	69.854	-55.778	53.270	149.729	5.9942e-06	1.6737e-05	8.5438e-06	0.043694	1.9652e-07	2.435e-07	0.016421	0.011993	2.595e-07	1.7477e-07	0.042337	0.0093452	0.0054794	0.0025159	3.7743e-07	0.0018809	-9.8012e-07	-1.7619e-06	-3.5861e-07	-0.24237	-1.7398e-08	-1.2772e-08	-0.22888	-0.060567	-1.3319e-08	-1.9267e-08	-0.1148	-0.041992	-0.032484	-0.0078969	-1.8788e-08	-0.012939	36.551	-85.528	64.849	108.248	235.414	-50.089	218.622	-93.268	242.637	242.989	44.667	-81.017	57.866	38.525	-74.309	30.824	-8191	255	
2279.818	1	1	0	0	0.26869	0.056213	0.17819	0.16668	0.1268	0.26321	0.066081	0.11059	0.31842	0.028445	0.28424	0.10794	0.31905	0.14878	0.085837	0.14293	-1.3292	-2.5083	-1.625	-1.9583	-2.3375	-1.675	-2.5938	-1.9875	-1.6521	-2.4333	-1.7729	-2.1937	-2.3354	-1.6583	-2.3167	-2.0062	206.491	217.426	387.661	321.138	95.816	292.415	201.686	215.963	362.088	170.641	303.341	318.600	366.402	144.381	201.963	172.528	9.649e-06	8.824e-06	7.1366e-06	0.033617	3.007e-08	2.2838e-07	0.036934	0.0078538	1.0755e-07	1.86e-07	0.041278	0.0079593	0.0058308	0.0010053	1.693e-07	0.00095832	-9.9037e-07	-1.7374e-06	-3.0521e-07	-0.21077	-1.761e-08	-1.1906e-08	-0.21528	-0.060984	-1.3177e-08	-1.8217e-08	-0.10992	-0.034707	-0.032807	-0.0080479	-1.8518e-08	-0.014699	114.288	372.846	414.369	303.504	322.157	272.937	336.153	91.860	274.903	239.371	411.051	279.153	368.905	165.611	236.650	360.253	-8191	255	
2279.937	1	1	0	0	0.12703	0.22039	0.056556	0.11716	0.28921	0.15198	0.08291	0.32295	0.19303	0.11116	0.25969	0.0546	0.19846	0.056844	0.2416	0.26743	-1.3604	-2.5729	-1.8083	-2.0062	-2.35	-1.8021	-2.4313	-2.1354	-1.7437	-2.3792	-1.8563	-1.7375	-2.5104	-1.6646	-2.1979	-2.2792	283.952	404.147	315.889	285.107	382.683	367.716	306.720	360.890	473.469	291.136	309.647	364.086	278.644	377.536	334.409	304.495	1.2772e-05	1.0057e-05	4.8615e-06	0.035076	1.4956e-07	1.661e-07	0.051679	0.0083378	1.4212e-07	1.212e-07	0.0026396	0.0073867	0.0048759	0.0025572	2.0732e-07	0.0022664	-7.3797e-07	-1.6144e-06	-3.2037e-07	-0.1935	-1.7497e-08	-1.219e-08	-0.18776	-0.066284	-1.183e-08	-1.8416e-08	-0.12529	-0.035092	-0.035095	-0.0080479	-1.6088e-08	-0.014788	259.317	381.156	270.457	470.053	445.895	356.307	210.730	178.149	428.979	192.842	277.625	479.328	465.655	424.501	337.446	279.882	-8191	255	
2280.033	1	1	0	0	0.12096	0.3349	0.15469	0.1988	0.14753	0.25089	0.11741	0.082699	0.16056	0.17056	0.10912	0.059809	0.23698	0.089385	0.078076	0.14701	-1.3375	-2.3187	-1.9583	-1.775	-2.4167	-1.8083	-2.1188	-2.3312	-1.7167	-2.6417	-2.0417	-1.9188	-2.65	-1.6854	-2.2562	-2.3979	199.105	233.304	289.505	48.865	19.109	174.675	8.146	-32.743	-3.077	198.400	313.339	298.699	190.877	63.466	-4.425	71.785	7.3749e-06	1.0398e-05	7.7459e-06	0.0080292	1.3801e-07	1.2174e-07	0.046746	0.014996	8.5654e-08	2.7122e-07	0.0212	0.0039216	0.005408	0.0008667	4.2677e-07	0.0027223	-7.5719e-07	-1.6014e-06	-3.734e-07	-0.19605	-1.9311e-08	-1.1977e-08	-0.17909	-0.070096	-1.2638e-08	-1.8913e-08	-0.12629	-0.030925	-0.037652	-0.0085102	-1.4738e-08	-0.016369	307.874	318.810	293.363	78.975	81.058	-35.801	184.671	-21.556	171.539	169.925	298.104	-26.190	257.054	114.889	76.325	259.871	-8191	255	
2280.129	1	1	0	0	0.10876	0.077806	0.1825	0.051539	0.19592	0.14674	0.032767	0.31985	0.10475	0.095032	0.28898	0.18377	0.18242	0.089061	0.28195	0.31759	-1.2292	-2.4333	-2.1604	-1.9813	-2.4479	-1.7979	-2.0771	-2.4188	-1.6938	-2.3542	-2.3021	-1.8479	-2.6562	-1.9104	-2.0938	-2.4479	10.366	71.332	-16.629	101.948	-18.779	107.605	5.098	-24.323	-35.140	-118.276	83.757	64.910	30.469	-28.366	27.831	84.423	8.1288e-06	1.22e-05	7.7301e-06	0.054887	1.7989e-07	1.4991e-07	0.055098	0.0097234	2.0303e-07	7.7993e-08	0.0016918	0.0063679	0.0012497	0.0026709	3.1697e-07	0.0017918	-7.7897e-07	-1.5393e-06	-3.7557e-07	-0.1882	-1.8007e-08	-1.2246e-08	-0.17433	-0.072776	-1.0964e-08	-1.7111e-08	-0.13553	-0.027107	-0.035929	-0.0087461	-1.4709e-08	-0.016139	-143.638	-87.943	-146.815	171.259	138.409	60.145	158.703	-141.410	-100.042	-61.998	4.492	-132.993	-22.168	-73.501	-151.429	44.322	-8191	255	
2280.226	1	1	0	0	0.14595	0.043319	0.055752	0.12081	0.025254	0.097414	0.21378	0.072071	0.035809	0.19032	0.070331	0.18816	0.055317	0.17176	0.12652	0.14088	-1.0771	-2.2604	-2.3438	-1.7313	-2.6063	-1.9188	-2.0229	-2.6188	-1.8083	-2.3667	-2.2167	-1.5729	-2.4875	-2.0083	-1.9062	-2.6583	-3.000	-83.430	-64.958	-80.556	154.159	235.179	124.071	140.857	234.367	-78.717	38.761	240.533	225.560	208.027	46.175	-26.034	1.0818e-05	1.4657e-05	2.6847e-06	0.022563	7.9107e-08	7.3618e-08	0.020594	0.014006	2.6271e-07	4.0935e-08	0.027813	0.012799	0.00086154	0.0017388	9.1937e-08	0.001656	-8.3022e-07	-1.4241e-06	-3.9144e-07	-0.16407	-1.7582e-08	-1.2346e-08	-0.17128	-0.074205	-1.244e-08	-1.5678e-08	-0.1424	-0.025776	-0.03496	-0.0094348	-1.3643e-08	-0.015808	199.440	-66.523	-26.735	54.760	248.090	137.319	116.954	-70.989	24.828	-42.307	211.258	90.531	58.617	256.577	214.159	187.787	-8191	255	
2280.322	1	1	0	0	0.23884	0.25618	0.20193	0.29675	0.079203	0.2185	0.042533	0.23213	0.1742	0.10864	0.052529	0.15675	0.30828	0.16578	0.14775	0.031861	-1.2667	-2.3125	-2.4813	-1.8021	-2.4667	-2	-2	-2.4396	-1.8792	-2.0667	-2.5792	-1.9542	-2.4667	-2.2479	-1.8583	-2.7354	436.851	196.311	265.131	490.233	451.217	335.415	338.690	350.285	156.526	174.295	272.607	371.675	327.453	192.472	406.009	272.242	1.426e-05	1.4618e-05	3.7158e-06	0.016649	3.885e-07	3.2878e-07	0.022198	0.0080755	2.3872e-07	2.6005e-07	0.011933	0.004018	0.003924	0.0009656	2.2317e-07	0.0011137	-8.0844e-07	-1.3205e-06	-4.3149e-07	-0.14738	-1.7837e-08	-1.3353e-08	-0.14477	-0.072538	-1.1971e-08	-1.5096e-08	-0.15514	-0.027563	-0.033615	-0.010624	-1.2833e-08	-0.016075	452.393	273.316	455.808	286.786	288.280	383.655	349.969	167.484	370.721	201.384	408.391	297.640	402.659	277.146	405.919	432.270	-8191	255	
2280.418	1	1	0	0	0.27349	0.27016	0.10115	0.15322	0.17587	0.29469	0.20887	0.092871	0.3064	0.15447	0.23716	0.1167	0.11664	0.094741	0.16204	0.25804	-1.5375	-2.1937	-2.6646	-1.7292	-2.3208	-2.2188	-1.7729	-2.6167	-1.7958	-2.0375	-2.6646	-1.9042	-2.4	-2.2562	-1.7146	-2.45	-91.100	79.178	205.436	7.286	126.181	147.114	-46.168	26.186	25.480	31.401	75.869	206.565	56.181	33.078	193.129	207.633	1.9145e-05	2.2901e-05	5.2309e-06	0.031077	2.2023e-07	2.4457e-07	0.020755	0.015429	1.7352e-07	1.5139e-07	0.022868	0.0023165	0.0033456	0.0012002	4.6429e-07	0.0020837	-9.0837e-07	-1.4254e-06	-4.369e-07	-0.17407	-1.6364e-08	-1.6348e-08	-0.14154	-0.078315	-1.3135e-08	-1.4131e-08	-0.15202	-0.029979	-0.031273	-0.0095669	-1.1725e-08	-0.015374	142.650	60.116	7.537	18.727	-19.694	152.030	11.831	-119.576	81.823	-73.622	-54.412	188.754	-90.015	-46.818	40.814	-128.815	-8191	255	
2280.514	1	1	0	0	0.15443	0.20482	0.40642	0.10717	0.10802	0.031548	0.058207	0.22406	0.15864	0.16615	0.15998	0.23554	0.11401	0.14964	0.025455	0.08185	-1.55	-1.8125	-2.6063	-1.825	-2.2604	-2.3896	-1.8	-2.4667	-2.0833	-2.0104	-2.6604	-1.7854	-2.3042	-2.4292	-1.7188	-2.5417	52.936	8.804	18.311	213.515	78.929	117.505	222.751	112.698	215.926	155.598	80.587	26.836	-8.381	144.854	57.786	-101.668	1.3868e-05	1.3069e-05	2.3381e-06	0.041332	2.1379e-07	1.9841e-07	0.038907	0.0075366	7.452e-08	1.0019e-07	0.016716	0.0066764	0.0034921	0.00093076	2.5213e-07	0.0035451	-8.6609e-07	-1.1172e-06	-4.7189e-07	-0.17623	-1.5287e-08	-1.6717e-08	-0.1254	-0.072835	-1.3205e-08	-1.2528e-08	-0.15414	-0.028018	-0.025837	-0.011039	-1.164e-08	-0.01503	114.496	179.847	-98.292	229.379	114.610	120.496	182.523	-110.537	104.046	-91.615	48.040	-95.063	53.246	108.153	-83.905	-8.356	-8191	255	
2280.635	1	1	0	0	0.33828	0.15403	0.17464	0.093755	0.14662	0.091695	0.18478	0.28637	0.23158	0.042807	0.31017	0.032847	0.25998	0.18154	0.2505	0.11764	-1.6625	-1.6812	-2.5	-1.65	-2.2542	-2.4708	-1.4771	-2.3021	-2.0917	-1.7667	-2.5563	-1.7812	-2.0146	-2.4729	-1.6458	-2.2667	80.141	211.894	152.796	265.922	28.256	48.313	104.865	11.201	-47.613	286.471	24.315	-58.670	-57.191	214.786	181.807	18.764	1.8542e-05	1.6969e-05	7.2255e-06	0.055883	1.4466e-07	2.099e-07	0.042206	0.0067848	8.1375e-08	1.0633e-07	0.011724	0.0016809	0.0058115	0.00037503	1.2826e-07	0.0027609	-1.1159e-06	-1.103e-06	-4.4483e-07	-0.16956	-1.3814e-08	-1.7752e-08	-0.12421	-0.072597	-1.5021e-08	-1.0811e-08	-0.16464	-0.027983	-0.022688	-0.01101	-1.154e-08	-0.01424	110.895	-45.717	-8.570	261.698	295.555	-41.041	219.770	-42.181	291.799	63.174	239.739	283.731	207.643	-16.892	131.232	101.447	-8191	255	
2280.729	1	1	0	0	0.28548	0.21839	0.039976	0.1484	0.1495	0.18792	0.33009	0.2147	0.19641	0.036719	0.17752	0.24768	0.086781	0.26338	0.090805	0.089372	-1.8542	-1.7521	-2.4917	-1.9438	-1.9312	-2.5292	-1.7708	-2.3563	-2.1021	-1.6562	-2.5417	-2.0354	-1.9438	-2.5333	-1.7583	-2.3083	315.061	122.052	381.553	153.490	121.300	191.916	276.664	168.860	152.742	140.877	294.846	352.757	112.082	352.712	346.809	47.269	6.3287e-06	3.1681e-05	2.4318e-06	0.070133	9.584e-08	1.4196e-07	0.022402	0.0026386	2.2779e-07	8.4495e-08	0.024201	0.0066042	0.0042472	0.0022765	2.0835e-07	0.0035315	-1.0865e-06	-9.4117e-07	-4.2607e-07	-0.16583	-1.2609e-08	-1.7383e-08	-0.14086	-0.067356	-1.478e-08	-1.1081e-08	-0.15739	-0.032956	-0.020373	-0.011784	-1.1583e-08	-0.013794	397.367	245.286	233.612	371.269	397.563	311.537	402.771	61.115	227.772	65.439	256.426	45.226	307.362	240.825	348.578	256.780	-8191	255	
2280.825	1	1	0	0	0.10855	0.23481	0.20082	0.21204	0.15835	0.05048	0.21277	0.11569	0.14185	0.17205	0.34001	0.22339	0.15355	0.072748	0.079523	0.12467	-1.9479	-1.7896	-2.5625	-1.9917	-1.7062	-2.4708	-1.8937	-2.3438	-2.4083	-1.8646	-2.4458	-2.1604	-1.8083	-2.7333	-1.8625	-2.0438	282.066	275.227	25.291	154.900	133.422	336.225	237.549	-15.486	185.181	277.782	50.171	311.085	155.801	100.390	308.219	114.395	6.6693e-06	1.9878e-05	3.8416e-06	0.023499	4.302e-07	9.253e-08	0.031426	0.0061309	1.3552e-07	3.4346e-08	0.019587	0.0027717	0.0040693	0.0012251	3.1702e-07	0.0028015	-1.2402e-06	-8.9068e-07	-4.1381e-07	-0.18055	-1.1575e-08	-1.71e-08	-0.1361	-0.05747	-1.5631e-08	-1.1308e-08	-0.15727	-0.034637	-0.020319	-0.012218	-1.0929e-08	-0.012366	222.359	247.072	334.750	223.474	325.915	272.008	248.517	-2.761	282.502	80.403	85.320	283.871	158.588	276.898	160.580	166.350	-8191	255	
2280.897	1	1	0	0	0.077641	0.23427	0.22701	0.18097	0.31438	0.30893	0.012035	0.28685	0.18777	0.18661	0.15592	0.18078	0.064049	0.21076	0.21009	0.11832	-2.175	-1.7333	-2.2979	-2.2458	-1.7396	-2.4875	-1.9771	-2.0854	-2.4917	-1.7104	-2.3104	-2.0667	-1.7854	-2.4375	-1.7396	-2.0667	23.742	285.189	62.294	113.176	3.925	-20.463	74.612	-16.081	-4.426	320.232	46.240	237.994	104.142	208.472	195.912	212.386	1.7284e-05	1.8355e-05	3.2065e-06	0.023984	8.1563e-08	2.018e-07	0.023905	0.0074836	1.6573e-07	5.277e-08	0.011543	0.0051565	0.0011676	0.0018413	8.5274e-08	0.0006533	-1.2735e-06	-9.2175e-07	-4.0804e-07	-0.19193	-1.149e-08	-1.8065e-08	-0.15106	-0.052527	-1.6028e-08	-1.1606e-08	-0.13741	-0.034007	-0.021261	-0.011029	-1.137e-08	-0.011435	239.472	59.464	255.918	-14.434	199.712	228.259	-20.481	-6.529	61.420	136.924	-22.395	326.813	312.365	137.780	291.845	280.320	-8191	255	
2281.017	1	1	0	0	0.26415	0.41825	0.10532	0.19727	0.127	0.027382	0.19466	0.28751	0.20212	0.18602	0.070209	0.083405	0.15559	0.26063	0.1667	0.043153	-2.1583	-1.5938	-2.3417	-2.3458	-1.6	-2.5	-1.8583	-1.7083	-2.5833	-1.7437	-2.2854	-2.3563	-1.5333	-2.4479	-1.9958	-1.825	335.553	314.200	89.929	298.419	150.537	153.451	321.725	279.387	116.611	80.739	267.690	104.677	260.636	33.642	134.847	273.422	1.3235e-05	1.9187e-05	8.5498e-06	0.041826	2.5621e-07	2.3647e-07	0.020285	0.0039346	1.0049e-07	1.3333e-07	0.043849	0.0068274	0.0042275	0.0011499	1.7051e-07	0.0022236	-1.2043e-06	-9.5024e-07	-3.9072e-07	-0.20469	-1.0527e-08	-1.6589e-08	-0.16346	-0.046929	-1.8369e-08	-1.0882e-08	-0.13178	-0.03933	-0.022042	-0.010529	-1.1867e-08	-0.010326	117.875	288.087	308.181	360.993	30.984	15.488	265.224	30.732	367.105	251.498	155.209	249.262	251.445	342.751	293.988	253.653	-8191	255	
2281.114	1	1	0	0	0.035813	0.17727	0.14199	0.15773	0.24039	0.2739	0.37036	0.45369	0.12806	0.20476	0.14657	0.18365	0.18008	0.25464	0.32912	0.0515	-2.2708	-1.8333	-2.1771	-2.3146	-1.7271	-2.5812	-2.0854	-1.8042	-2.6312	-1.725	-2.0604	-2.3354	-1.7958	-2.3187	-2.2125	-1.7604	474.084	341.844	324.140	365.629	410.260	427.113	412.659	391.710	173.149	417.170	322.093	404.914	355.351	259.819	126.715	260.847	7.1335e-06	1.5104e-05	7.6318e-06	0.026487	2.1186e-07	2.2066e-07	0.02368	0.0079745	6.0891e-08	1.037e-07	0.020161	0.0060136	0.00367	0.00053188	1.9771e-07	0.0013048	-1.2543e-06	-1.0991e-06	-3.734e-07	-0.2353	-9.8607e-09	-1.5737e-08	-0.17128	-0.049966	-1.6709e-08	-1.0811e-08	-0.12142	-0.041747	-0.018328	-0.010567	-1.4311e-08	-0.0096504	206.464	311.931	371.932	266.592	137.180	415.953	167.746	144.125	209.342	412.093	146.520	176.719	387.931	135.946	291.101	426.380	-8191	255	
2281.208	1	1	0	0	0.28304	0.19826	0.16357	0.047554	0.30578	0.28422	0.07051	0.16315	0.29586	0.065432	0.08382	0.21986	0.1871	0.09513	0.044718	0.2517	-2.1771	-1.8729	-2.0396	-2.6208	-1.7625	-2.2521	-2.4104	-1.85	-2.6125	-1.8813	-1.825	-2.4521	-1.8375	-2.2583	-2.3354	-1.6542	253.152	-3.716	29.647	55.758	88.993	166.150	15.881	129.337	191.241	57.181	36.864	111.252	152.506	236.988	22.775	128.667	6.8297e-06	1.5949e-05	3.761e-06	0.061084	1.205e-07	1.7465e-07	0.031484	0.017671	2.3866e-07	1.0121e-07	0.032112	0.010688	0.0011141	0.001407	4.3139e-08	0.0040992	-1.3043e-06	-1.0616e-06	-3.5897e-07	-0.23805	-9.719e-09	-1.5297e-08	-0.1762	-0.042224	-1.6014e-08	-1.179e-08	-0.11255	-0.040311	-0.020885	-0.0093027	-1.5946e-08	-0.0090767	296.254	11.400	240.194	138.914	217.789	215.656	-25.863	-9.964	-6.894	268.138	-22.686	213.967	-21.328	136.971	32.762	226.618	-8191	255	
2281.306	1	1	0	0	0.25838	0.20337	0.061072	0.13832	0.12541	0.28735	0.22529	0.036517	0.25611	0.24726	0.18159	0.25369	0.073123	0.056563	0.30733	0.27083	-2.1896	-2.1458	-2.0792	-2.5958	-1.775	-2.3563	-2.3312	-1.5812	-2.5646	-2.0958	-1.8333	-2.5208	-1.7396	-2.2104	-2.5042	-1.7833	-150.726	147.556	141.056	-66.771	-13.609	-40.879	-35.354	41.434	-26.179	-69.283	69.280	-86.616	29.111	-27.197	-85.785	-39.633	2.1081e-06	1.552e-05	2.963e-06	0.0078337	1.3543e-07	1.7532e-07	0.049887	0.0025454	1.5948e-07	1.0343e-07	0.014996	0.0071335	0.0027181	0.0022784	1.2633e-07	0.0005491	-1.2274e-06	-1.0719e-06	-3.0052e-07	-0.23432	-1.1107e-08	-1.4999e-08	-0.1915	-0.042582	-1.6567e-08	-1.2159e-08	-0.096809	-0.041712	-0.020427	-0.0080951	-1.6244e-08	-0.0094209	-43.487	-116.818	11.958	86.441	-129.876	159.491	-57.646	-157.718	-107.930	-171.942	-131.565	-67.135	-162.082	42.250	81.683	125.132	-8191	255	
2281.425	1	1	0	0	0.015601	0.1492	0.21457	0.098526	0.10854	0.26208	0.089319	0.085676	0.10839	0.21152	0.26652	0.24198	0.097554	0.029321	0.28394	0.23633	-2.2812	-2.0271	-1.775	-2.5	-1.8083	-2.3	-2.3875	-1.5583	-2.6479	-2.2125	-1.7354	-2.5458	-1.9604	-2.0812	-2.4833	-1.6375	-9.336	112.249	-75.868	-64.528	252.351	-41.592	128.991	184.801	17.526	66.002	151.588	27.356	79.260	250.973	230.541	-41.161	6.2579e-06	2.5211e-05	6.4829e-07	0.036132	2.6267e-07	1.0104e-07	0.021326	0.013481	1.4321e-07	2.8388e-07	0.011306	0.010402	0.0035535	0.00098574	1.599e-07	0.0014322	-1.3171e-06	-1.1522e-06	-2.5398e-07	-0.22235	-1.2864e-08	-1.3013e-08	-0.19693	-0.040974	-1.5205e-08	-1.538e-08	-0.094435	-0.042202	-0.024249	-0.0088215	-1.731e-08	-0.0092934	59.071	191.889	-69.323	-60.162	57.510	15.838	167.422	-76.036	203.279	-71.998	109.624	-67.052	-55.395	51.116	190.834	19.947	-8191	255	
2281.496	1	1	0	0	0.33383	0.23333	0.50216	0.19844	0.2626	0.16763	0.15195	0.11081	0.28665	0.30493	0.26664	0.10284	0.22252	0.2031	0.27504	0.12236	-2.0521	-2.2479	-1.6542	-2.1896	-1.7979	-1.9729	-2.4188	-1.5729	-2.3354	-2.3042	-1.5688	-2.4104	-1.9208	-1.9312	-2.5479	-1.8208	278.123	15.285	48.546	118.293	277.120	-51.179	61.220	211.832	66.460	280.020	34.805	223.047	55.196	265.693	223.135	182.831	1.1079e-05	1.9779e-05	3.4057e-06	0.012567	1.4687e-07	2.3613e-07	0.058733	0.0093633	1.4442e-07	1.0263e-07	0.019976	0.009395	0.0033454	0.0015741	1.0104e-07	0.0026854	-1.2235e-06	-1.3658e-06	-2.5326e-07	-0.23373	-1.2439e-08	-1.1409e-08	-0.20832	-0.046155	-1.4851e-08	-1.521e-08	-0.084817	-0.040136	-0.023468	-0.0072742	-1.5988e-08	-0.010708	188.384	114.493	193.172	220.356	195.149	133.571	239.460	-56.034	255.258	224.560	44.565	0.748	260.955	75.585	82.803	213.226	-8191	255	
2281.617	1	1	0	0	0.16129	0.072454	0.18076	0.21952	0.26813	0.087501	0.21362	0.2913	0.17726	0.086441	0.17186	0.11777	0.16969	0.21546	0.060432	0.066001	-1.9062	-2.4229	-1.6688	-2.45	-2.2562	-1.8354	-2.5208	-1.7062	-2.0521	-2.4021	-1.6479	-2.3875	-2.2687	-1.6958	-2.6	-1.9562	65.097	129.744	-44.322	-145.116	90.140	34.686	-40.890	-148.064	-135.814	-52.323	16.056	89.907	172.055	133.672	35.706	56.932	2.7976e-05	2.0761e-05	1.7887e-06	0.019127	2.2136e-07	2.6155e-07	0.015164	0.0089674	4.2343e-07	1.6291e-07	0.011619	0.005451	0.0072539	0.00081093	6.014e-08	0.0039545	-1.0288e-06	-1.4228e-06	-2.5976e-07	-0.22216	-1.3998e-08	-1.0969e-08	-0.18878	-0.051574	-1.356e-08	-1.6401e-08	-0.089064	-0.040066	-0.026806	-0.0071799	-1.7125e-08	-0.010224	-22.022	65.233	-147.319	134.628	2.502	41.648	0.766	-138.637	-44.896	-101.987	96.791	63.616	-112.864	100.296	-67.456	-113.972	-8191	255	
2281.713	1	1	0	0	0.17833	0.032486	0.10432	0.1959	0.19951	0.087864	0.19406	0.09303	0.18392	0.066555	0.086926	0.094783	0.19451	0.17817	0.20492	0.11792	-1.7083	-2.5521	-1.925	-2.4313	-2.325	-1.8062	-2.4604	-1.9813	-1.9083	-2.6604	-1.8312	-2.3104	-2.3146	-1.5125	-2.5438	-1.8708	-20.325	-49.265	168.207	252.594	128.971	-42.740	103.916	143.005	174.287	171.914	229.184	20.684	66.352	185.197	239.997	176.753	7.9601e-06	1.3602e-05	3.8507e-06	0.042391	6.2932e-08	2.3021e-07	0.019102	0.0050806	2.1578e-07	2.9232e-07	0.0067256	0.011341	0.0032586	0.0028746	1.7724e-07	0.0006162	-9.0453e-07	-1.5393e-06	-2.8429e-07	-0.20842	-1.4054e-08	-1.0615e-08	-0.19099	-0.049907	-1.1064e-08	-1.6884e-08	-0.073325	-0.035863	-0.028689	-0.0069251	-1.6557e-08	-0.011575	58.328	142.500	157.464	-26.901	257.337	78.026	182.285	-70.530	136.262	99.993	208.310	107.151	56.204	45.270	155.489	241.271	-8191	255	
2281.809	1	1	0	0	0.053828	0.12671	0.076313	0.11065	0.16878	0.13042	0.098757	0.10739	0.065941	0.026117	0.22496	0.098119	0.11935	0.19522	0.22939	0.11417	-1.6833	-2.6417	-1.6979	-2.2562	-2.1292	-1.7792	-2.6333	-2.0125	-1.875	-2.8292	-1.7229	-2.2792	-2.3021	-1.8479	-2.4854	-2.2313	324.374	352.475	243.551	362.090	335.001	217.829	489.525	428.442	179.962	290.303	370.766	231.170	176.642	315.029	297.907	471.648	1.0638e-05	1.2174e-05	5.86e-06	0.042982	1.3958e-07	9.0008e-08	0.034663	0.014683	1.6573e-07	2.5396e-07	0.034581	0.0062499	0.0040254	0.00099324	2.4223e-07	0.004322	-8.4687e-07	-1.5212e-06	-2.612e-07	-0.20155	-1.4805e-08	-1.0331e-08	-0.19031	-0.051455	-1.2298e-08	-1.8473e-08	-0.097683	-0.036984	-0.030304	-0.0060288	-1.6116e-08	-0.012264	205.524	282.112	208.914	350.774	155.267	479.620	182.146	158.410	297.890	190.690	273.612	391.417	144.201	376.077	397.143	352.507	-8191	255	
2281.906	1	1	0	0	0.27023	0.24901	0.17786	0.039717	0.32708	0.14504	0.12294	0.29777	0.27789	0.11743	0.40056	0.28167	0.14158	0.14828	0.0734	0.21658	-1.4479	-2.4646	-1.7854	-2.2521	-2.5104	-1.7167	-2.4583	-2.2375	-1.5354	-2.5458	-1.7875	-2.1937	-2.5083	-1.7062	-2.4396	-2.1167	54.587	83.462	220.857	212.481	50.467	67.807	334.323	120.219	358.705	346.552	148.668	356.679	63.203	116.979	48.755	108.019	9.584e-06	9.8336e-06	5.2911e-06	0.022602	1.9749e-07	1.8695e-07	0.034055	0.010337	1.1849e-07	2.6144e-07	0.0068284	0.010142	0.012138	0.0024508	3.3114e-07	0.0053224	-7.3925e-07	-1.5716e-06	-2.8393e-07	-0.18232	-1.5967e-08	-9.3942e-09	-0.18232	-0.060508	-9.4892e-09	-1.7281e-08	-0.1123	-0.030399	-0.029847	-0.0065006	-1.4638e-08	-0.013258	324.928	63.852	68.571	313.288	41.000	233.578	272.807	46.811	196.544	196.763	240.789	198.437	86.096	213.173	115.105	197.559	-8191	255	
2282.026	1	1	0	0	0.12302	0.18892	0.27931	0.2272	0.20159	0.16423	0.061161	0.37395	0.26086	0.022448	0.27423	0.2159	0.19459	0.26236	0.27336	0.23626	-1.3417	-2.5812	-1.9021	-2.1625	-2.4625	-1.8687	-2.2854	-2.2208	-1.9062	-2.6312	-2.1813	-2.0479	-2.5938	-1.6208	-2.3458	-2.4062	239.041	207.029	68.775	215.473	178.812	154.590	179.821	152.771	217.749	-38.870	210.030	283.476	117.988	-30.198	126.973	77.448	1.1309e-05	2.0684e-05	4.7005e-06	0.021323	1.8962e-07	1.6632e-07	0.049534	0.0027495	2.8614e-07	1.716e-07	0.024184	0.0031242	0.0012762	0.00082255	1.8903e-07	0.0020161	-6.47e-07	-1.4189e-06	-2.962e-07	-0.15209	-1.7072e-08	-1.026e-08	-0.18419	-0.055803	-1.0028e-08	-1.6345e-08	-0.1093	-0.032466	-0.030762	-0.0071138	-1.4596e-08	-0.013322	298.130	64.927	291.077	-31.724	41.577	264.025	178.646	-29.161	50.615	-27.829	106.295	310.323	205.271	46.331	60.219	227.350	-8191	255	
2282.121	1	1	0	0	0.063673	0.22353	0.11887	0.24544	0.35054	0.34332	0.16365	0.14303	0.27703	0.13827	0.12264	0.23272	0.19427	0.1085	0.1372	0.37786	-1.25	-2.6583	-1.8792	-1.7792	-2.6583	-1.7437	-2.1688	-2.2958	-1.8958	-2.5083	-2.0833	-1.7375	-2.4708	-1.9125	-2.2438	-2.3438	176.680	213.923	58.239	71.981	-43.833	-33.324	71.597	-23.322	146.040	53.035	140.511	70.240	-78.378	0.862	-34.026	160.289	1.6002e-05	3.6969e-05	1.7635e-06	0.049157	1.861e-07	1.1489e-07	0.050223	0.016764	3.6002e-07	1.0128e-07	0.027844	0.0098352	0.0049137	0.0012412	5.5075e-08	0.0014255	-6.5085e-07	-1.5393e-06	-3.4598e-07	-0.16151	-1.5216e-08	-1.2062e-08	-0.16618	-0.068428	-9.5743e-09	-1.6643e-08	-0.11904	-0.026512	-0.030654	-0.0072648	-1.2578e-08	-0.014635	163.171	65.329	153.348	45.953	18.666	45.885	-51.231	-74.644	98.693	259.956	-54.730	190.042	206.545	90.591	10.253	149.143	-8191	255	
2282.194	1	1	0	0	0.23513	0.37261	0.14265	0.067454	0.16943	0.14768	0.13256	0.078406	0.21715	0.19663	0.25752	0.15645	0.37129	0.080438	0.11612	0.21947	-1.4062	-2.3521	-2.2292	-1.7062	-2.5563	-2.8917	-3.0167	-3.2313	-2.4062	-2.8729	-2.8312	-2.4896	-3.1083	-2.75	-2.7625	-3.2562	70.705	120.464	293.411	11.602	6.983	241.574	92.762	317.999	102.659	60.032	51.309	166.915	41.575	194.906	217.305	333.876	9.2135e-06	1.1913e-05	6.1589e-06	0.0095675	2.356e-07	3.0515e-07	0.064946	4.2117	6.6483e-05	1.5672e-05	199.64	90.876	70.706	47.392	1.5494e-05	58.552	-6.3676e-07	-1.3813e-06	-3.5572e-07	-0.13718	7.295e-08	9.4262e-07	14.41	13.065	3.4542e-05	5.9337e-05	739.99	242.85	189.17	87.805	6.4106e-05	113.12	306.828	318.192	223.957	341.824	12.018	354.261	106.036	19.255	3.042	28.387	103.796	109.909	113.828	116.998	200.072	112.537	-8191	255	
2282.290	1	1	0	0	0.32686	0.081584	0.21162	0.20421	0.18068	0.036332	0.069943	0.3105	0.20354	0.32018	0.2802	0.2352	0.19344	0.13462	0.11246	0.21351	-1.9896	-2.8646	-2.8729	-2.2562	-3.1375	-2.7958	-2.5542	-3.1833	-2.3333	-2.8646	-3.0396	-2.4938	-3.3208	-3.0896	-2.575	-3.3563	241.662	108.501	429.198	137.044	348.822	96.629	417.804	297.996	130.258	429.228	103.530	366.726	109.899	371.156	126.432	417.336	0.001758	0.00088243	0.00051963	280.51	1.102e-05	6.9601e-06	367.4	145.92	1.5091e-05	5.0776e-06	204.8	91.633	72.481	46.95	8.925e-06	57.952	0.0058103	0.0058687	0.0016375	1168.1	6.4324e-05	6.4345e-05	1130.6	411.11	6.3792e-05	6.3609e-05	745.31	241.39	188.01	86.928	6.2812e-05	111.27	315.872	152.101	257.626	105.237	293.100	216.362	103.517	109.861	295.380	371.576	106.924	110.609	114.444	117.882	254.637	113.103	-8191	255	
2282.409	1	1	0	0	0.086589	0.1436	0.077966	0.27343	0.33156	0.16676	0.19809	0.15113	0.18098	0.10494	0.20399	0.24801	0.32684	0.17128	0.24073	0.19857	-2.1021	-2.8688	-3.0125	-2.3729	-3.1125	-2.7104	-2.5958	-3.2812	-2.5292	-2.7771	-3.1479	-2.5229	-3.0854	-2.9917	-2.4083	-3.3354	446.028	322.096	344.567	104.559	94.330	104.938	197.609	322.253	162.936	177.363	151.568	358.350	392.976	364.062	150.670	337.403	0.0024957	0.0032159	0.0005659	286.46	1.4806e-05	8.2543e-06	362.49	147.51	1.878e-05	1.433e-05	202.85	90.442	71.477	47.068	1.5465e-05	58.14	0.0056661	0.0057055	0.0015872	1141.6	6.2166e-05	6.2301e-05	1102.9	404.69	6.2529e-05	6.2758e-05	738.53	240.07	187.43	87.129	6.3094e-05	111.51	314.675	121.326	215.865	105.289	193.538	115.446	104.441	110.560	237.631	307.851	106.719	111.246	113.845	117.732	217.256	113.003	-8191	255	
2282.505	1	1	0	0	0.18239	0.15291	0.029666	0.30415	0.2934	0.18893	0.062462	0.18001	0.10413	0.23486	0.074774	0.065972	0.18689	0.21037	0.079412	0.20557	-2.2062	-2.7208	-3.2521	-2.3104	-3.0917	-3.0854	-2.3792	-3.1937	-2.6042	-2.8083	-3.225	-2.525	-2.9042	-3.0458	-2.5354	-3.2875	181.947	103.809	431.408	347.036	285.522	219.722	397.222	403.284	126.133	400.196	146.749	343.158	102.826	133.470	350.348	393.055	0.0019871	0.00066978	0.00040088	289.98	1.7685e-05	8.6116e-06	367.18	145.53	2.2119e-05	1.5924e-05	203.58	91.391	72.579	47	1.182e-05	58.063	0.005717	0.0057831	0.0016126	1153.3	6.3243e-05	6.3133e-05	1113.5	407.08	6.2999e-05	6.3122e-05	742.59	240.97	187.88	87.164	6.3099e-05	111.6	333.835	387.015	361.973	105.949	192.629	202.947	103.740	111.402	453.282	325.717	107.701	110.809	114.380	117.763	137.572	113.305	-8191	255	
2282.601	1	1	0	0	0.29038	0.19691	0.10836	0.20071	0.087203	0.10123	0.11185	0.16809	0.15921	0.074387	0.078141	0.030166	0.14151	0.25411	0.058171	0.26141	-2.2583	-2.6417	-3.1542	-2.5083	-2.9917	-2.9833	-2.525	-3.2521	-2.7833	-2.5729	-3.3	-2.5125	-3.0812	-3.2271	-2.3812	-3.2521	372.342	414.854	172.997	445.103	360.546	393.845	219.222	125.488	384.336	316.726	233.979	116.861	421.208	386.242	152.063	445.554	0.0019059	0.00056749	0.00019344	282.27	2.4982e-05	1.5356e-06	368.65	146.01	1.8857e-05	2.1802e-05	208.45	92.102	72.251	47.251	3.1165e-05	59.084	0.0057022	0.0057632	0.0016093	1156.4	6.3326e-05	6.3468e-05	1120.8	409.5	6.3346e-05	6.3453e-05	747.75	242.99	189.28	87.856	6.3803e-05	112.95	317.586	209.708	160.707	105.416	263.554	418.187	103.824	110.409	125.242	293.264	106.974	111.025	114.390	117.889	168.492	113.264	-8191	255	
2282.697	1	1	0	0	0.2253	0.30228	0.12017	0.28236	0.3251	0.05617	0.17925	0.099018	0.02792	0.20003	0.19948	0.059401	0.18679	0.027167	0.087427	0.16959	-2.4292	-2.4521	-3.2604	-2.4625	-2.6	-3.2021	-2.525	-3.1354	-2.7854	-2.4354	-3.2833	-2.7208	-2.7792	-3.2542	-2.4313	-3.2042	124.982	417.648	292.299	408.788	357.693	414.209	374.688	376.101	239.025	444.630	436.881	190.862	428.028	116.515	295.997	333.380	0.0032546	0.00050717	0.00075777	287.77	2.1869e-05	1.3535e-05	370.94	147.07	3.6087e-05	2.0189e-05	209.37	92.635	72.37	47.604	7.8908e-06	58.566	0.005777	0.0058337	0.0016315	1168.1	6.3971e-05	6.4063e-05	1130.1	410.75	6.3673e-05	6.36e-05	748.96	242.59	188.68	87.606	6.3244e-05	112.23	344.086	197.034	162.616	105.088	285.334	100.764	104.365	110.326	136.307	303.493	108.122	111.027	114.652	117.397	365.863	112.743	-8191	255	
2282.794	1	1	0	0	0.13228	0.091411	0.025162	0.22765	0.13443	0.10167	0.10263	0.18702	0.14774	0.14763	0.097773	0.28366	0.1221	0.18216	0.15452	0.10312	-2.5625	-2.4188	-3.2604	-2.6354	-2.6188	-3.2438	-2.5812	-3.05	-3.0479	-2.6125	-3.2521	-2.9604	-2.6771	-3.3812	-2.5458	-2.95	307.228	131.436	307.855	108.947	224.883	365.839	391.009	319.179	99.521	187.571	287.267	372.858	390.817	391.369	266.432	236.192	0.0014085	0.0018442	0.00035711	286.52	1.9992e-05	6.0301e-06	365.32	146.46	6.5834e-06	7.6899e-06	205.56	91.445	71.845	47.198	2.2292e-05	57.969	0.0057111	0.0057737	0.0016111	1159.1	6.3268e-05	6.3317e-05	1117	407.91	6.3094e-05	6.3044e-05	742.76	240.29	187.63	87.029	6.2936e-05	110.93	362.192	166.736	429.303	105.816	173.596	149.727	104.395	111.287	436.103	100.592	107.220	110.972	114.373	117.645	213.144	112.739	-8191	255	
2282.890	1	1	0	0	0.18343	0.23735	0.1401	0.048458	0.062709	0.26603	0.156	0.22596	0.085504	0.070241	0.15446	0.10436	0.26356	0.17874	0.065797	0.14069	-2.5979	-2.4146	-3.1375	-2.8	-2.5458	-3.3792	-2.4417	-2.8292	-3.2208	-2.5312	-3.0521	-3.0125	-2.5417	-3.3042	-2.3875	-2.9792	397.526	384.826	194.731	233.097	149.892	199.412	415.815	422.920	142.713	187.167	411.705	410.606	149.407	431.374	132.958	411.877	0.0016112	0.00084763	0.00075734	287.44	1.3e-05	4.1095e-06	362.91	145.64	9.056e-06	1.764e-05	204.2	91.182	71.319	47	1.848e-05	58.133	0.0056698	0.0057273	0.0015962	1147.1	6.2762e-05	6.2924e-05	1112.9	407.8	6.3384e-05	6.3841e-05	751.28	243.33	190.33	88.152	6.4464e-05	112.55	358.310	391.427	261.663	106.033	164.063	275.596	103.591	110.700	372.280	145.511	107.697	111.137	114.242	117.977	299.929	112.903	-8191	255	
2282.986	1	1	0	0	0.15297	0.057981	0.22632	0.26604	0.32469	0.053649	0.10172	0.2345	0.20852	0.055605	0.18981	0.13744	0.11547	0.221	0.2178	0.20424	-2.7417	-2.4854	-3.1688	-2.9354	-2.6104	-3.2979	-2.8042	-2.8688	-3.1167	-2.4917	-3.0521	-3.1479	-2.4208	-3.4	-2.75	-2.8229	133.994	189.518	374.670	416.263	336.032	194.048	280.229	414.934	427.313	317.474	116.287	367.153	424.906	137.606	212.111	328.670	0.0011736	0.0018732	0.00062251	285.48	2.5062e-05	3.1029e-06	369.06	146.63	1.7212e-05	3.042e-06	200.73	91.603	72.275	47.261	2.4234e-05	58.634	0.0058285	0.0058687	0.0016351	1166.3	6.4087e-05	6.4272e-05	1127.3	412.21	6.4391e-05	6.4415e-05	755.96	244.81	190.75	88.294	6.456e-05	113.09	339.118	175.257	408.420	105.525	370.347	287.121	103.468	110.660	144.054	280.108	107.074	111.019	114.748	117.837	253.715	113.036	-8191	255	
2283.107	1	1	0	0	0.04417	0.32405	0.027995	0.062209	0.12337	0.26934	0.094467	0.14456	0.042864	0.1245	0.3327	0.15582	0.19756	0.25952	0.15318	0.30522	-2.8688	-2.5708	-3.0146	-3.1417	-2.3729	-3.2229	-3.0187	-2.6604	-3.1771	-2.5292	-2.9333	-3.1792	-2.5229	-3.2188	-2.7208	-2.6417	439.179	302.577	214.823	331.913	400.444	107.179	191.701	450.021	412.052	343.972	259.444	394.089	431.232	396.437	95.607	119.742	0.0030414	0.0010672	0.00023592	289.02	2.2205e-05	1.5659e-05	368.45	146.39	7.7869e-06	6.2413e-06	207.91	92.497	72.952	47.225	2.0368e-05	59.124	0.0058221	0.0058929	0.0016388	1169.8	6.4206e-05	6.4281e-05	1133.3	412.16	6.4056e-05	6.4056e-05	752.96	244.16	190.03	88.161	6.398e-05	113.01	320.091	164.594	290.625	105.813	215.567	178.733	104.051	110.753	96.633	446.363	107.743	111.410	114.284	117.913	352.638	113.166	-8191	255	
2283.201	1	1	0	0	0.16623	0.20291	0.24968	0.096943	0.19571	0.059186	0.084958	0.11847	0.14788	0.13759	0.17558	0.15753	0.16428	0.13454	0.24323	0.40248	-2.9458	-2.3333	-2.8229	-3.1354	-2.3729	-3.0458	-2.925	-2.575	-3.3396	-2.7083	-2.9271	-3.2687	-2.6292	-3.3375	-3.1292	-2.7562	296.363	302.534	423.157	417.561	427.941	369.514	246.118	99.524	450.983	420.865	315.064	409.540	344.430	104.706	149.492	315.427	0.0026114	0.001319	0.00057264	289.67	2.3858e-05	1.8817e-05	373.3	147.02	1.7715e-05	3.3488e-05	205.1	92.487	72.388	47.277	1.6861e-06	58.167	0.0057954	0.0058546	0.0016318	1168.9	6.418e-05	6.4334e-05	1131.8	412.25	6.4008e-05	6.4196e-05	753.05	243.94	189.49	87.709	6.3418e-05	111.88	297.319	299.088	200.958	105.537	344.603	217.120	104.018	111.108	103.731	213.216	108.468	111.301	114.164	117.771	105.770	112.905	-8191	255	
2283.299	1	1	0	0	0.10781	0.16317	0.25404	0.25916	0.32351	0.22928	0.12259	0.25324	0.12425	0.21528	0.20859	0.054919	0.16871	0.092568	0.11193	0.057958	-2.9083	-2.6583	-2.6771	-3.2771	-2.5062	-3.0958	-3.0646	-2.4521	-3.1625	-2.7083	-2.7021	-3.4521	-2.4792	-3.0604	-3.1188	-2.4271	398.655	147.565	339.772	291.673	320.254	295.875	123.180	446.192	427.388	292.778	332.713	292.112	99.030	122.212	105.536	433.205	0.0010253	0.00052249	0.00088913	284.85	1.9015e-05	1.3657e-05	368.15	146.4	1.4476e-05	1.0573e-05	203.72	91.163	71.98	46.984	7.9014e-06	58.218	0.0057237	0.0057583	0.0016058	1152.6	6.2922e-05	6.3183e-05	1115.2	407.62	6.3237e-05	6.3356e-05	746.04	242.17	188.75	87.475	6.351e-05	111.98	325.213	373.238	342.873	105.546	180.752	333.435	104.102	110.101	210.880	365.418	107.227	110.667	114.324	117.445	362.095	112.816	-8191	255	
2283.393	1	1	0	0	0.10538	0.34703	0.10154	0.13341	0.036974	0.18697	0.34489	0.16504	0.071475	0.18131	0.17398	0.070225	0.082442	0.19141	0.20403	0.062516	-2.75	-2.8854	-2.6875	-3.1604	-2.5938	-2.6792	-3.2667	-2.3854	-3.3479	-2.8875	-2.6104	-3.3667	-2.6396	-2.7458	-3.1375	-2.5563	270.302	335.824	370.371	113.347	267.156	320.280	334.537	93.644	428.191	201.915	427.110	123.944	253.212	365.369	322.508	125.455	0.0018941	0.00019843	0.00062869	283.72	1.1504e-05	6.5748e-06	364.76	146.71	2.2934e-05	1.4377e-05	204.73	91.455	71.525	47.252	9.8448e-06	58.169	0.0057617	0.0058234	0.0016259	1165.4	6.3988e-05	6.4071e-05	1126.8	410.7	6.3811e-05	6.3537e-05	745.41	241.5	187.61	87.067	6.2802e-05	111.14	323.093	418.362	104.465	104.914	199.893	423.541	103.817	110.695	170.645	185.737	107.588	111.134	114.510	118.038	112.440	112.584	-8191	255	
2283.489	1	1	0	0	0.25295	0.13768	0.095272	0.057862	0.14887	0.054819	0.11697	0.025246	0.06938	0.11071	0.13904	0.20954	0.22161	0.25542	0.12058	0.23763	-2.8312	-2.8208	-2.4333	-3.175	-2.7083	-2.8333	-3.1604	-2.5062	-2.975	-3	-2.5938	-3.1042	-2.6604	-2.8271	-3.3187	-2.5604	141.481	169.851	229.233	327.707	155.282	413.828	361.967	390.433	388.322	204.561	352.475	147.248	377.414	316.571	110.907	423.719	0.0021609	0.001167	0.00033064	285.72	9.2266e-06	5.6861e-06	371.97	148.35	5.6155e-06	7.8148e-06	203	92.312	72.197	47.483	2.5731e-05	58.231	0.0056698	0.0057023	0.0015893	1148.4	6.2364e-05	6.2516e-05	1110.6	405.86	6.2739e-05	6.2888e-05	742.36	241.29	187.72	87.202	6.2913e-05	111.72	320.157	101.349	339.409	105.547	96.757	286.937	104.147	110.544	416.933	279.647	107.682	111.433	114.975	118.000	128.686	113.260	-8191	255	
#DATA ENDS
