BOXY.EXE: ISS Imagent and Oximeter Data Acquisition Program Version 0.80
Ascii Record File

#ACQ INFORMATION
2  Detector Channels 
16  External MUX Channels 
1  Auxiliary Channels 
5000  Waveform (CCF) Frequency (Hz)
1  Waveforms Skipped 
30  Waveforms Averaged 
1  Cycles Averaged 
16  Acquisitions per Waveform 
10.0806  Updata Rate (Hz) 

#FILE INFORMATION
TRUE -- External MUX Channel results are PARSED.
FALSE -- AC DC and Phase are NOT grouped.
TRUE -- Companion Program Settings File CREATED.
FALSE -- AC data not excluded
FALSE -- DC data not excluded
FALSE -- Phase data not excluded
FALSE -- Auxillary Chn. data not excluded
Tab delimiters

#CALIBRATION STATE
TRUE -- Waveform Calibration Values APPLIED.


#AUX CALIBRATION VALUES
Val Type	aux-1	

Term	1.0000e+00	
Factor	0.0000e+00	


#WF CALIBRATION VALUES
A = Detector Channel
Val Type	A-AC1	A-AC2	A-AC3	A-AC4	A-AC5	A-AC6	A-AC7	A-AC8	A-AC9	A-AC10	A-AC11	A-AC12	A-AC13	A-AC14	A-AC15	A-AC16	A-DC1	A-DC2	A-DC3	A-DC4	A-DC5	A-DC6	A-DC7	A-DC8	A-DC9	A-DC10	A-DC11	A-DC12	A-DC13	A-DC14	A-DC15	A-DC16	A-Ph1	A-Ph2	A-Ph3	A-Ph4	A-Ph5	A-Ph6	A-Ph7	A-Ph8	A-Ph9	A-Ph10	A-Ph11	A-Ph12	A-Ph13	A-Ph14	A-Ph15	A-Ph16	

Term	0.00000e+00	0.00000e+00	0.00000e+00	0.00000e+00	0.00000e+00	0.00000e+00	0.00000e+00	0.00000e+00	0.00000e+00	0.00000e+00	0.00000e+00	0.00000e+00	0.00000e+00	0.00000e+00	0.00000e+00	0.00000e+00	0.00000e+00	0.00000e+00	0.00000e+00	0.00000e+00	0.00000e+00	0.00000e+00	0.00000e+00	0.00000e+00	0.00000e+00	0.00000e+00	0.00000e+00	0.00000e+00	0.00000e+00	0.00000e+00	0.00000e+00	0.00000e+00	0.00000e+00	0.00000e+00	0.00000e+00	0.00000e+00	0.00000e+00	0.00000e+00	0.00000e+00	0.00000e+00	0.00000e+00	0.00000e+00	0.00000e+00	0.00000e+00	0.00000e+00	0.00000e+00	0.00000e+00	0.00000e+00	
Factor	1.00000e+00	1.00000e+00	1.00000e+00	1.00000e+00	1.00000e+00	1.00000e+00	1.00000e+00	1.00000e+00	1.00000e+00	1.00000e+00	1.00000e+00	1.00000e+00	1.00000e+00	1.00000e+00	1.00000e+00	1.00000e+00	1.00000e+00	1.00000e+00	1.00000e+00	1.00000e+00	1.00000e+00	1.00000e+00	1.00000e+00	1.00000e+00	1.00000e+00	1.00000e+00	1.00000e+00	1.00000e+00	1.00000e+00	1.00000e+00	1.00000e+00	1.00000e+00	X	X	X	X	X	X	X	X	X	X	X	X	X	X	X	X	

B = Detector Channel
Val Type	B-AC1	B-AC2	B-AC3	B-AC4	B-AC5	B-AC6	B-AC7	B-AC8	B-AC9	B-AC10	B-AC11	B-AC12	B-AC13	B-AC14	B-AC15	B-AC16	B-DC1	B-DC2	B-DC3	B-DC4	B-DC5	B-DC6	B-DC7	B-DC8	B-DC9	B-DC10	B-DC11	B-DC12	B-DC13	B-DC14	B-DC15	B-DC16	B-Ph1	B-Ph2	B-Ph3	B-Ph4	B-Ph5	B-Ph6	B-Ph7	B-Ph8	B-Ph9	B-Ph10	B-Ph11	B-Ph12	B-Ph13	B-Ph14	B-Ph15	B-Ph16	

Term	0.00000e+00	0.00000e+00	0.00000e+00	0.00000e+00	0.00000e+00	0.00000e+00	0.00000e+00	0.00000e+00	0.00000e+00	0.00000e+00	0.00000e+00	0.00000e+00	0.00000e+00	0.00000e+00	0.00000e+00	0.00000e+00	0.00000e+00	0.00000e+00	0.00000e+00	0.00000e+00	0.00000e+00	0.00000e+00	0.00000e+00	0.00000e+00	0.00000e+00	0.00000e+00	0.00000e+00	0.00000e+00	0.00000e+00	0.00000e+00	0.00000e+00	0.00000e+00	-6.59245e+01	-1.24734e+02	-1.31290e+02	-1.83070e+02	-4.71720e+01	-6.49150e+01	-1.56663e+02	-1.62015e+02	-3.94459e+01	-6.42214e+01	-1.71114e+02	-1.71480e+02	-1.80686e+02	-1.76770e+02	-5.03157e+01	-1.49850e+02	
Factor	1.94318e-05	1.90944e-04	4.49887e-05	1.63081e-01	1.59961e-06	1.69595e-06	1.94177e-01	5.42487e-02	1.28390e-06	1.65075e-06	1.08414e-01	3.13847e-02	2.95052e-02	9.61121e-03	1.53840e-06	1.41149e-02	5.54059e-06	6.76180e-06	1.88700e-06	8.26207e-02	7.18682e-08	7.45135e-08	9.21061e-02	2.75920e-02	7.18242e-08	7.41166e-08	5.30887e-02	1.54427e-02	1.51454e-02	4.92050e-03	7.23774e-08	6.95805e-03	X	X	X	X	X	X	X	X	X	X	X	X	X	X	X	X	



#DISTANCE SETTINGS
A = Detector Channel
A-1	A-2	A-3	A-4	A-5	A-6	A-7	A-8	A-9	A-10	A-11	A-12	A-13	A-14	A-15	A-16	

2.5000e+00	3.0000e+00	2.5000e+00	3.0000e+00	2.0000e+00	3.0000e+00	1.5000e+00	3.0000e+00	3.0000e+00	3.0000e+00	3.0000e+00	3.0000e+00	3.0000e+00	3.0000e+00	1.5000e+00	3.0000e+00	

B = Detector Channel
B-1	B-2	B-3	B-4	B-5	B-6	B-7	B-8	B-9	B-10	B-11	B-12	B-13	B-14	B-15	B-16	

1.0000e+01	1.0000e+01	1.0000e+01	1.4400e+00	1.0000e+01	1.0000e+01	1.5100e+00	1.9400e+00	1.0000e+01	1.0000e+01	1.9900e+00	2.4900e+00	2.4100e+00	2.9000e+00	1.0000e+01	2.9800e+00	




#DATA BEGINS
time	group	step	mark	flag	A-AC1	A-AC2	A-AC3	A-AC4	A-AC5	A-AC6	A-AC7	A-AC8	A-AC9	A-AC10	A-AC11	A-AC12	A-AC13	A-AC14	A-AC15	A-AC16	A-DC1	A-DC2	A-DC3	A-DC4	A-DC5	A-DC6	A-DC7	A-DC8	A-DC9	A-DC10	A-DC11	A-DC12	A-DC13	A-DC14	A-DC15	A-DC16	A-Ph1	A-Ph2	A-Ph3	A-Ph4	A-Ph5	A-Ph6	A-Ph7	A-Ph8	A-Ph9	A-Ph10	A-Ph11	A-Ph12	A-Ph13	A-Ph14	A-Ph15	A-Ph16	B-AC1	B-AC2	B-AC3	B-AC4	B-AC5	B-AC6	B-AC7	B-AC8	B-AC9	B-AC10	B-AC11	B-AC12	B-AC13	B-AC14	B-AC15	B-AC16	B-DC1	B-DC2	B-DC3	B-DC4	B-DC5	B-DC6	B-DC7	B-DC8	B-DC9	B-DC10	B-DC11	B-DC12	B-DC13	B-DC14	B-DC15	B-DC16	B-Ph1	B-Ph2	B-Ph3	B-Ph4	B-Ph5	B-Ph6	B-Ph7	B-Ph8	B-Ph9	B-Ph10	B-Ph11	B-Ph12	B-Ph13	B-Ph14	B-Ph15	B-Ph16	aux-1	digaux	

1481.909	1	1	0	256	0.21817	0.013671	0.26993	0.17561	0.069481	0.17947	0.18821	0.14661	0.074002	0.23179	0.44399	0.18225	0.25879	0.14838	0.23209	0.16868	-1.875	-2.1979	-2.1063	-2.4625	-2.3708	-1.9604	-2.6063	-2.2729	-2.1896	-2.4375	-2.0333	-2.3771	-2.3458	-1.9396	-2.3354	-2.2167	182.338	358.970	463.875	199.587	162.378	252.365	361.734	170.453	298.416	205.539	173.349	242.334	501.062	220.942	206.142	445.389	0.00032002	0.00065009	8.9386e-05	243.81	7.7918e-06	3.1563e-06	518.47	70.739	4.3756e-06	1.1441e-05	157.64	72.283	29.582	10.227	3.3184e-06	25.545	0.0031331	0.0038345	0.0010563	273.68	4.0401e-05	4.1395e-05	531.91	81.35	3.9739e-05	4.0921e-05	176.51	76.452	35.931	12.361	3.9896e-05	27.97	249.462	495.451	345.023	173.415	351.691	255.031	171.747	179.047	367.698	201.823	176.876	182.068	184.085	189.439	455.867	186.623	-8191	255	
1482.004	1	1	0	0	0.18246	0.21306	0.06835	0.24245	0.014872	0.29481	0.13394	0.15893	0.24207	0.18498	0.090672	0.031811	0.12615	0.07641	0.10679	0.059554	-1.6354	-2.5458	-1.9937	-2.3167	-2.5229	-2.1021	-2.5458	-2.1604	-2.0833	-2.5	-2.1292	-2.3708	-2.3312	-2.0792	-2.4542	-2.1437	214.689	347.210	344.311	185.011	277.085	220.573	257.866	487.317	226.005	258.679	378.556	284.908	349.137	468.334	276.121	462.266	0.0002484	0.00045749	0.00016929	245.35	6.887e-06	1.4385e-05	517.92	71.612	3.0675e-06	1.2447e-05	159.66	73.585	29.578	10.257	1.135e-05	25.769	0.0030768	0.0037541	0.0010425	275.05	4.0118e-05	4.0681e-05	534.16	81.806	3.9628e-05	4.0826e-05	178.11	76.917	36.023	12.371	3.9699e-05	27.997	226.006	264.178	475.670	173.337	185.170	348.642	172.066	178.848	383.886	387.799	176.573	181.838	184.193	189.617	473.401	186.368	-8191	255	
1482.102	1	1	0	0	0.18423	0.26453	0.23632	0.27031	0.23216	0.21821	0.037276	0.21921	0.2553	0.17882	0.13372	0.24231	0.29527	0.1006	0.22406	0.13927	-1.7667	-2.4	-2.0812	-2.1646	-2.4396	-2.0271	-2.5875	-2.1937	-2	-2.6208	-2.2521	-2.2646	-2.3042	-2.1479	-2.225	-2.2562	364.397	313.593	234.513	362.391	231.374	359.478	371.369	368.105	286.356	440.124	470.400	183.995	514.356	223.771	184.764	359.583	0.00024494	0.00078495	0.0002822	247.49	8.2862e-06	9.8464e-06	517.49	70.515	5.4384e-06	1.1137e-05	157.54	72.193	29.344	10.205	1.6212e-06	25.417	0.0030534	0.0037367	0.0010383	274.41	3.9532e-05	4.1272e-05	532.27	81.462	3.9998e-05	4.198e-05	177.59	76.553	35.967	12.395	4.0839e-05	27.976	234.121	465.698	306.256	172.746	258.432	270.916	171.595	179.200	323.013	265.896	177.430	182.276	183.256	189.235	488.356	186.486	-8191	255	
1482.196	1	1	0	0	0.27197	0.060886	0.28051	0.12058	0.13459	0.23447	0.21922	0.17526	0.25564	0.1751	0.070162	0.31675	0.15642	0.18309	0.24447	0.23024	-1.6292	-2.4729	-1.9833	-2.2458	-2.3667	-2.1375	-2.4333	-2.3	-2.1271	-2.4021	-2.1229	-2.2229	-2.4437	-2.0292	-2.3479	-2.5271	262.729	476.704	295.335	184.862	457.414	440.749	305.323	255.216	306.280	509.562	439.413	474.313	359.835	509.813	252.923	450.972	0.00044303	0.0007456	0.00035004	244.97	4.0915e-06	6.3769e-06	513.64	70.567	6.1328e-06	6.9273e-06	158.32	71.937	29.343	10.119	7.4369e-06	25.648	0.0031525	0.0037851	0.0010645	274.18	4.0103e-05	4.1998e-05	530.98	81.477	4.0204e-05	4.1081e-05	177.22	76.398	35.881	12.354	3.9716e-05	28.085	248.630	464.666	369.113	173.126	407.457	472.954	172.072	179.969	179.555	350.246	176.892	182.528	183.854	189.625	382.337	186.805	-8191	255	
1482.292	1	1	0	0	0.10655	0.14496	0.35582	0.21356	0.38504	0.10076	0.1588	0.28726	0.13702	0.065928	0.11191	0.13143	0.05137	0.061495	0.21723	0.16545	-1.4542	-2.3479	-2.2125	-2.0417	-2.3479	-2.1396	-2.3042	-2.2833	-2.1646	-2.4021	-2.1229	-2.1458	-2.4292	-2.0333	-2.0854	-2.2833	425.174	401.491	299.730	182.841	289.954	408.180	502.766	508.780	469.310	190.501	488.499	292.196	287.328	175.338	441.316	340.127	0.00022573	0.0011954	0.00029669	244	5.1548e-06	3.7429e-06	521.25	70.907	5.3201e-06	2.4098e-06	158.6	72.781	29.189	10.299	6.1915e-06	25.933	0.0030788	0.0036443	0.0010385	272.72	3.8466e-05	3.9691e-05	532.09	81.21	3.8278e-05	3.9369e-05	177.4	76.65	35.559	12.379	3.879e-05	28.114	274.630	219.006	179.261	172.853	220.510	372.782	171.807	179.366	385.595	400.944	177.054	182.348	183.726	189.969	393.939	187.170	-8191	255	
1482.413	1	1	0	0	0.033421	0.26733	0.18736	0.13332	0.14136	0.32337	0.28024	0.33618	0.20708	0.12785	0.098281	0.072348	0.15139	0.066397	0.12014	0.078321	-1.6688	-2.4333	-2.3	-2.0125	-2.5604	-2.1333	-2.4167	-2.3979	-2.1646	-2.35	-2.2708	-2.1833	-2.5042	-2.1813	-2.15	-2.5125	400.892	383.765	314.521	271.662	312.231	419.828	421.994	507.013	249.584	404.923	487.582	348.314	344.915	477.312	234.670	241.613	0.00030127	0.0014629	0.00010106	246.86	8.4175e-06	1.1138e-05	517.89	70.962	6.1161e-07	8.8023e-06	159.04	72.595	29.43	10.184	1.288e-05	25.564	0.003003	0.0036002	0.0010279	273.52	3.8853e-05	4.0182e-05	533.18	81.386	3.9437e-05	4.035e-05	178.27	76.736	35.725	12.363	3.9448e-05	28.052	272.784	175.054	438.274	172.974	397.022	231.215	172.086	179.176	405.659	195.692	177.163	182.238	183.314	189.628	382.814	186.640	-8191	255	
1482.509	1	1	0	0	0.12713	0.072692	0.14372	0.38886	0.10901	0.057938	0.12628	0.087051	0.19172	0.40249	0.0093694	0.24392	0.13584	0.25612	0.091819	0.069528	-1.6542	-2.4479	-2.0958	-2.0396	-2.4417	-2.1312	-2.3521	-2.3271	-2.0979	-2.3083	-2.5292	-2.1292	-2.4125	-2.1417	-1.8896	-2.325	384.527	426.641	454.731	478.857	236.233	514.560	425.765	414.310	211.815	173.686	260.952	484.425	179.071	424.489	267.622	214.402	0.00026037	0.00096392	8.8908e-05	243.32	8.7605e-06	9.535e-06	516.55	70.583	8.7561e-06	1.2005e-05	158.67	72.511	29.417	10.183	9.0748e-06	25.641	0.0030478	0.0036807	0.0010309	273.48	3.9126e-05	4.0556e-05	531.76	81.243	3.9075e-05	4.017e-05	177.14	76.496	35.686	12.354	3.8869e-05	27.96	257.075	273.650	228.176	173.172	309.721	497.236	172.161	179.749	252.948	184.816	176.580	182.479	184.279	189.395	351.866	186.757	-8191	255	
1482.603	1	1	0	0	0.20869	0.22615	0.10988	0.2782	0.037408	0.049578	0.0080048	0.14606	0.091754	0.13719	0.04798	0.084089	0.18954	0.29283	0.13491	0.20724	-1.6167	-2.3708	-2.5062	-2.2583	-2.5042	-2.1937	-2.1063	-2.3917	-1.9875	-2.2167	-2.2833	-1.8896	-2.3042	-2.2521	-1.9021	-2.4854	458.249	448.046	464.546	404.178	357.274	493.418	403.248	297.081	407.774	344.197	339.663	396.916	494.227	235.312	299.324	470.663	0.00022322	0.00093679	4.8116e-05	246.34	2.3922e-06	8.0604e-06	518.74	70.899	8.255e-06	9.0861e-06	161.81	72.164	29.451	10.071	7.4874e-06	25.551	0.0030585	0.0036798	0.0010215	273.85	3.9194e-05	4.1527e-05	532.19	81.494	3.9574e-05	4.0722e-05	178.05	76.518	35.876	12.419	3.9899e-05	28.053	245.359	193.885	486.745	172.923	317.509	206.191	171.952	178.601	420.151	500.562	176.653	182.533	184.151	189.959	386.440	186.662	-8191	255	
1482.700	1	1	0	0	0.11524	0.3324	0.10972	0.029033	0.13053	0.18447	0.11328	0.29454	0.21639	0.20133	0.30685	0.45693	0.16963	0.013582	0.32067	0.11817	-1.7979	-2.1979	-2.3125	-2.0458	-2.2854	-2.2833	-2.1771	-2.3833	-2.1083	-2.1583	-2.5708	-2.0792	-2.3271	-2.3417	-2.0833	-2.5125	372.313	310.527	247.078	337.572	331.321	401.825	436.733	463.351	256.268	309.305	252.018	193.714	468.939	502.139	475.414	342.729	0.00034805	0.00017234	9.3947e-05	245.77	2.0282e-06	1.8118e-05	518.29	71.266	3.3143e-06	1.3406e-05	157.85	72.678	29.474	10.08	5.7528e-06	25.581	0.0031165	0.0037134	0.0010437	274.43	3.979e-05	4.1429e-05	534.2	81.539	4.0034e-05	4.1136e-05	178.32	77.041	36.029	12.365	4.0742e-05	28.2	241.654	313.008	198.298	173.051	391.718	317.862	171.947	179.568	205.314	207.804	176.352	182.059	184.295	189.957	448.366	186.719	-8191	255	
1482.796	1	1	0	0	0.10814	0.27426	0.16342	0.12227	0.14048	0.25113	0.14467	0.24576	0.017202	0.142	0.03699	0.30914	0.18401	0.23303	0.10897	0.18923	-1.5958	-2.1604	-2.5396	-2.1229	-2.4188	-2.4396	-2.0604	-2.5	-2.1146	-2.2188	-2.3875	-2.0062	-2.2708	-2.4229	-2.0312	-2.3896	463.115	408.117	217.734	257.919	472.329	217.804	460.123	465.604	384.913	415.133	515.613	432.105	187.885	172.846	171.005	374.379	0.00032104	0.0010106	0.00026993	245.35	2.5943e-06	6.2702e-06	519.44	71.047	7.121e-07	5.1455e-06	159.6	72.951	28.871	10.057	7.0968e-06	25.426	0.0032111	0.0038792	0.0010838	276.04	4.1634e-05	4.3222e-05	536.37	82.469	4.1749e-05	4.2822e-05	178.68	77.158	35.987	12.384	4.1103e-05	28.129	259.884	207.470	491.716	173.114	178.555	388.306	171.840	179.268	293.717	216.723	177.574	182.604	183.367	189.631	446.657	187.010	-8191	255	
1482.892	1	1	0	0	0.17022	0.25193	0.20135	0.1715	0.074719	0.20585	0.12527	0.112	0.16531	0.30145	0.1133	0.07791	0.25305	0.1997	0.10873	0.10587	-1.8479	-2.0167	-2.3	-2.0667	-2.1646	-2.5687	-2.0812	-2.3937	-2.2604	-2.1542	-2.4792	-2.2521	-2.1375	-2.4229	-1.8729	-2.4854	448.566	373.870	300.360	411.214	242.258	435.235	445.327	500.387	242.476	315.677	335.956	173.870	499.196	516.263	393.949	460.125	0.00018591	0.00033134	0.00024136	244.83	2.2009e-06	7.9143e-06	517.78	70.763	4.8302e-06	1.2588e-05	157.15	71.501	29.369	10.089	5.1702e-06	25.583	0.0031925	0.0038251	0.0010659	275.67	4.1689e-05	4.2616e-05	534.67	82.414	4.2331e-05	4.3369e-05	178.43	76.793	36.229	12.553	4.2501e-05	28.245	230.495	295.396	219.165	173.124	297.374	395.336	172.128	178.792	173.452	378.079	177.148	181.815	184.279	190.484	432.340	186.144	-8191	255	
1482.988	1	1	0	0	0.14006	0.1759	0.18624	0.18811	0.22159	0.07698	0.25436	0.23924	0.19955	0.36373	0.21243	0.17833	0.067623	0.027052	0.091305	0.28988	-1.8687	-1.8854	-2.5354	-2.2146	-2.2625	-2.4375	-2.2354	-2.2979	-2.3792	-2.1729	-2.4667	-2.2083	-2.2	-2.3292	-2.1063	-2.2375	255.672	450.810	226.423	406.844	493.920	367.613	189.327	246.245	302.699	287.362	485.897	161.569	501.586	345.283	205.952	401.111	0.0003986	0.001141	0.00021874	244.39	6.086e-06	2.7311e-06	516.76	70.744	4.1947e-06	7.7209e-06	156.96	72.239	29.101	10.132	9.7841e-06	25.855	0.0033457	0.0040012	0.0011089	276.62	4.2504e-05	4.3745e-05	535.88	82.821	4.2361e-05	4.3563e-05	178.66	76.885	36.291	12.512	4.3104e-05	28.45	280.317	291.490	205.060	173.142	502.936	505.587	171.783	178.657	302.028	504.053	176.542	182.853	184.735	190.485	213.565	187.076	-8191	255	
1483.109	1	1	0	0	0.18176	0.044682	0.28924	0.13429	0.0071245	0.14612	0.1115	0.12599	0.19486	0.37771	0.11501	0.2831	0.25763	0.17679	0.21488	0.10873	-1.9417	-1.9521	-2.3729	-2.2167	-2.1958	-2.5979	-2.1604	-2.2687	-2.3917	-2.0646	-2.3563	-2.2812	-2.1396	-2.4417	-2.1583	-2.1771	168.089	420.889	326.305	367.947	394.096	208.107	460.398	206.318	280.811	455.791	209.709	410.948	268.607	303.398	200.806	354.619	0.00028189	0.00056519	3.9153e-05	242.24	8.5853e-06	7.6524e-06	514.11	69.96	3.8255e-06	1.6933e-05	157.46	71.543	28.791	10.146	3.8231e-06	25.824	0.0033945	0.0040125	0.0011286	276.11	4.3161e-05	4.4803e-05	534.56	82.546	4.2575e-05	4.3934e-05	179.03	76.795	35.979	12.486	4.2551e-05	28.402	252.339	227.814	256.025	172.552	485.701	474.906	172.024	179.219	390.058	238.853	176.654	182.677	184.577	189.977	271.691	186.794	-8191	255	
1483.205	1	1	0	0	0.19419	0.044486	0.12533	0.095125	0.12199	0.062315	0.092741	0.066866	0.077092	0.25555	0.1556	0.047342	0.11198	0.13842	0.068328	0.0086141	-1.9979	-2.0312	-2.3729	-2.1354	-2.0417	-2.3583	-2.2875	-2.2062	-2.3688	-2.0604	-2.3937	-2.1771	-2.1417	-2.4333	-2.0812	-2.0042	459.726	187.046	521.093	163.509	356.269	442.173	165.173	300.584	389.150	198.436	207.524	475.726	436.302	366.533	391.371	292.944	0.00033211	0.0011754	0.00025457	242.97	1.0256e-05	8.8767e-06	514.02	70.584	4.4716e-06	1.1823e-05	159.1	71.864	29.197	10.22	5.1772e-06	25.715	0.0033155	0.0039458	0.0011122	275.24	4.1828e-05	4.272e-05	532.95	81.812	4.1419e-05	4.2841e-05	178.17	76.532	35.844	12.451	4.1645e-05	28.253	268.165	270.588	282.612	173.449	378.874	379.672	172.156	179.668	397.461	261.078	177.237	182.730	184.095	189.652	228.865	187.409	-8191	255	
1483.301	1	1	0	0	0.16884	0.082527	0.11381	0.12925	0.093949	0.18761	0.1254	0.24925	0.23332	0.046465	0.4396	0.23311	0.26911	0.098484	0.081437	0.2835	-2.0271	-1.7604	-2.2062	-2.3521	-1.8333	-2.3854	-2.2604	-2.0729	-2.4	-2	-2.2771	-2.4521	-2.1229	-2.2125	-2.1562	-2.0667	503.476	201.659	221.589	344.519	393.430	197.468	404.331	433.723	259.892	212.210	476.122	322.006	460.292	498.729	364.297	413.715	0.00036193	0.0008941	0.00014888	241.11	9.6461e-06	8.2664e-06	520.01	70.477	4.6091e-06	5.5019e-06	158.7	72.544	29.162	10.279	4.1107e-06	25.755	0.0032032	0.0038215	0.0010767	272.49	4.1038e-05	4.2407e-05	534.5	81.844	4.1148e-05	4.2744e-05	178.67	76.99	35.955	12.559	4.2195e-05	28.408	250.251	507.055	457.743	173.070	399.949	422.538	171.681	179.036	331.037	491.408	176.768	182.250	184.446	190.171	431.305	187.421	-8191	255	
1483.373	1	1	0	0	0.069294	0.18945	0.15022	0.13557	0.14597	0.073744	0.19087	0.176	0.13149	0.23183	0.16876	0.17983	0.030287	0.049472	0.069937	0.16777	-2.075	-2.1271	-2.5479	-2.2542	-1.85	-2.4896	-2.2562	-1.8042	-2.3875	-2.1042	-2.2792	-2.4313	-2.0375	-2.3125	-2.3333	-2.1458	517.987	171.787	212.225	173.385	418.765	487.653	439.071	191.244	406.185	499.691	366.205	470.323	360.801	310.199	462.470	271.527	0.00027819	0.001537	0.00012351	244.98	5.4138e-06	5.1412e-06	517.56	70.976	7.2767e-06	8.7473e-06	160.07	72.685	29.377	10.214	1.9716e-06	25.873	0.0032075	0.0038555	0.0010736	274.73	4.0663e-05	4.1972e-05	533.73	82.327	4.0528e-05	4.2669e-05	179.26	77.064	36.124	12.592	4.2109e-05	28.424	242.962	277.609	392.499	173.273	265.990	270.935	171.603	179.153	426.265	236.442	176.458	181.916	183.675	189.820	362.411	186.580	-8191	255	
1483.491	1	1	0	0	0.19433	0.12713	0.22049	0.28109	0.29145	0.083502	0.15396	0.10192	0.14044	0.099242	0.30066	0.23024	0.036421	0.15526	0.16375	0.14346	-1.8375	-2.075	-2.0125	-2.3833	-1.9937	-2.3	-2.4146	-1.9396	-2.3563	-2.1792	-2.1229	-2.4771	-1.9271	-2.375	-2.2938	-2.0563	228.231	251.554	227.973	518.601	397.972	369.688	376.193	506.603	509.845	349.230	211.061	504.466	504.795	278.232	370.313	483.375	0.00030857	0.00095909	0.00016595	243.81	2.2251e-06	5.65e-06	517.34	71.141	1.094e-05	9.3804e-06	159.87	73.113	29.196	10.284	9.7594e-06	26.041	0.0032419	0.0039348	0.0010914	275.82	4.1619e-05	4.3607e-05	536.53	82.344	4.1539e-05	4.3454e-05	180	77.346	36.221	12.627	4.1989e-05	28.606	254.273	201.805	417.823	173.901	277.347	431.588	172.223	178.902	331.114	455.676	176.952	182.108	184.044	189.403	339.423	186.545	-8191	255	
1483.588	1	1	0	0	0.12784	0.077136	0.21157	0.14562	0.12386	0.097009	0.18142	0.20881	0.070561	0.20133	0.26033	0.13641	0.14751	0.11387	0.15325	0.14777	-1.9813	-2.0312	-2.0187	-2.475	-2.1021	-2.3771	-2.4042	-1.9854	-2.575	-2.1958	-2.2	-2.5646	-1.9625	-2.3021	-2.3667	-2.1042	428.279	458.332	189.448	164.743	242.931	227.120	325.353	293.030	293.011	166.900	431.695	168.600	317.558	282.359	473.324	169.122	0.00028397	0.00049892	0.00031304	244.32	7.9084e-06	1.0481e-05	514.57	70.896	3.7019e-06	9.2686e-06	159.56	72.078	28.769	10.118	4.4032e-06	25.603	0.0032396	0.0039341	0.0010971	275.55	4.2082e-05	4.3758e-05	535.84	82.091	4.2155e-05	4.415e-05	179.37	76.951	35.981	12.593	4.2721e-05	28.503	258.458	161.680	272.602	173.217	386.140	410.583	172.245	178.925	318.114	347.539	176.821	182.447	183.544	189.616	380.827	186.720	-8191	255	
1483.684	1	1	0	0	0.26066	0.10014	0.26619	0.21308	0.17074	0.054577	0.23109	0.20323	0.19248	0.078415	0.068074	0.17039	0.16451	0.20599	0.032364	0.24792	-1.9562	-2.075	-1.9021	-2.3333	-2.1437	-2.2958	-2.4708	-2.2188	-2.4417	-2.3896	-2.2083	-2.4313	-1.9854	-1.9104	-2.4458	-1.9729	506.110	187.042	493.389	369.776	279.838	360.449	438.983	288.542	353.846	192.468	495.364	507.961	318.900	167.035	348.574	422.608	0.00026481	0.00047621	0.00012941	245.16	1.735e-05	6.4173e-06	517	69.815	5.0235e-06	7.8326e-06	159.08	72.732	28.966	10.259	6.2846e-06	26.02	0.0033105	0.0040336	0.0011181	276.35	4.2321e-05	4.4434e-05	535.44	82.192	4.2394e-05	4.4062e-05	179.95	77.209	36.265	12.618	4.3071e-05	28.582	272.936	283.246	243.247	173.104	411.174	419.320	171.959	178.932	358.653	414.198	177.036	182.177	183.012	190.274	245.749	186.233	-8191	255	
1483.780	1	1	0	0	0.3019	0.092977	0.13758	0.17988	0.19059	0.30128	0.32569	0.2009	0.19015	0.07653	0.17103	0.10733	0.31755	0.11242	0.27526	0.23185	-1.8563	-2.2333	-1.9937	-2.3312	-2.2667	-2.0896	-2.3208	-2.0396	-2.1063	-2.5083	-2.0396	-2.3167	-2.35	-1.8667	-2.3187	-1.9417	478.323	353.229	163.437	287.586	480.265	225.742	410.927	421.666	420.817	287.323	399.932	359.239	356.024	175.244	218.804	430.620	0.00036224	0.0024252	0.00024489	245.81	5.517e-06	5.7516e-07	520.51	70.489	9.5759e-06	3.5162e-06	160.35	72.597	29.285	10.12	8.8702e-06	26.05	0.003314	0.0039915	0.0011111	275.58	4.261e-05	4.4492e-05	538.43	82.49	4.3154e-05	4.4797e-05	180.61	77.457	36.258	12.568	4.3037e-05	28.801	267.548	465.552	368.856	172.946	468.687	438.286	171.753	178.728	437.572	338.553	177.169	182.636	184.459	189.636	300.967	186.991	-8191	255	
1483.901	1	1	0	0	0.11455	0.033122	0.2919	0.16143	0.17242	0.20876	0.20925	0.10853	0.089169	0.18239	0.032109	0.23125	0.096614	0.11363	0.11009	0.30481	-1.6938	-2.4521	-1.8188	-2.4896	-2.1396	-1.9875	-2.3375	-2.1271	-2.2917	-2.3083	-1.9188	-2.4958	-2.0625	-2.0812	-2.4458	-2.1312	311.664	241.297	290.376	219.829	301.090	460.541	491.730	196.148	180.010	355.440	173.316	410.632	303.426	265.999	460.902	429.593	0.00022754	0.00019145	0.00026047	246.7	1.5509e-05	7.5416e-06	519.46	70.512	7.2589e-06	7.7874e-06	158.73	73.121	29.054	10.165	4.4625e-06	25.846	0.0033708	0.004014	0.0011123	276.4	4.292e-05	4.3916e-05	536.88	82.363	4.1982e-05	4.3147e-05	179.42	77.553	36.384	12.539	4.2434e-05	28.67	277.909	256.480	499.811	173.369	320.293	450.497	171.445	179.353	470.869	415.118	177.049	182.459	183.820	189.624	186.765	186.806	-8191	255	
1483.997	1	1	0	0	0.047924	0.1216	0.25843	0.2014	0.19724	0.11101	0.25501	0.13891	0.16006	0.26484	0.11157	0.10797	0.1545	0.21011	0.049161	0.23064	-1.675	-2.4437	-1.8687	-2.2687	-2.2792	-1.9896	-2.4667	-2.1458	-2.1583	-2.4167	-2.0938	-2.3625	-2.1479	-2.1437	-2.4521	-2.175	252.817	478.892	208.834	175.952	486.491	200.159	455.864	514.115	402.803	389.632	380.995	466.846	354.905	185.768	270.737	314.891	0.00013114	0.0015953	0.0003126	244.86	7.1777e-06	2.5866e-06	519.5	69.705	6.9069e-06	4.8112e-06	158.94	72.87	28.965	10.167	1.3093e-05	26.188	0.0033015	0.0039647	0.0011016	274.28	4.2727e-05	4.3394e-05	534.95	81.995	4.164e-05	4.2719e-05	178.97	77.097	36.002	12.506	4.1378e-05	28.734	229.494	386.385	279.813	173.629	272.542	233.620	171.848	179.464	419.330	311.052	177.022	181.788	183.907	189.563	259.848	186.821	-8191	255	
1484.093	1	1	0	0	0.049839	0.25773	0.13265	0.12153	0.088606	0.10921	0.33569	0.34976	0.30041	0.15845	0.12394	0.47648	0.064017	0.052512	0.19932	0.25819	-1.5729	-2.2833	-1.9937	-2.2229	-2.3937	-2.1125	-2.3646	-2.1688	-2.1375	-2.4021	-2.0542	-2.4104	-2.2979	-1.7625	-2.3563	-2.2104	248.592	317.110	518.728	223.460	380.002	326.994	438.908	504.009	329.932	229.005	511.266	474.171	199.870	440.133	424.359	386.733	0.00029203	0.00082515	4.9212e-05	244.87	9.3115e-06	1.1014e-05	519.95	70.646	1.2115e-05	1.3026e-05	161.33	73.548	28.977	10.272	1.0919e-05	26.268	0.0032178	0.0038251	0.0010632	273.78	4.0709e-05	4.2032e-05	535.61	81.939	4.0499e-05	4.2127e-05	180.28	77.896	36.044	12.538	4.1398e-05	28.766	265.421	268.829	290.231	173.109	193.611	284.019	171.670	179.203	450.439	272.283	177.202	182.493	183.860	189.492	272.370	187.061	-8191	255	
1484.189	1	1	0	0	0.047397	0.3594	0.20455	0.095653	0.14689	0.074809	0.032788	0.12703	0.084777	0.11184	0.19893	0.20391	0.15802	0.1923	0.28638	0.18536	-1.6146	-2.5312	-2.0646	-2.2062	-2.425	-2.0083	-2.3688	-2.2375	-2.0458	-2.5438	-2.2104	-2.3021	-2.2354	-2.0208	-2.2771	-2.3104	248.049	451.483	390.342	459.530	356.888	449.191	358.867	196.199	500.638	275.500	454.195	429.056	309.884	283.347	435.681	466.914	0.00024974	0.0003917	6.2894e-05	244.49	4.564e-06	9.7929e-07	518.51	70.747	2.2267e-06	1.6575e-06	160.92	73.151	29.242	10.246	9.4139e-06	26.053	0.0032374	0.0038552	0.0010984	275.23	4.1464e-05	4.2434e-05	536.77	82.432	4.1285e-05	4.2557e-05	181.87	77.902	36.29	12.598	4.2302e-05	28.918	245.238	276.822	434.843	173.343	230.594	314.624	171.656	179.244	324.908	173.132	176.820	182.668	184.449	190.296	219.796	186.365	-8191	255	
1484.285	1	1	0	0	0.23993	0.28365	0.28562	0.13949	0.22595	0.16029	0.15317	0.13142	0.059869	0.09046	0.12378	0.12482	0.12425	0.13283	0.30984	0.12937	-1.4646	-2.5271	-2.1396	-2.0896	-2.4042	-2.2	-2.5417	-2.4062	-2.0208	-2.5583	-2.1813	-2.3479	-2.4792	-1.9688	-2.2833	-2.4	449.963	201.086	481.898	495.904	448.862	336.840	485.258	268.360	498.955	242.445	169.428	161.646	370.805	457.717	335.212	277.754	0.00028134	0.00026058	0.00011176	243.86	1.2652e-05	8.753e-06	520.83	71.256	3.2041e-06	7.1196e-06	160	73.005	28.92	10.292	6.5799e-06	26.248	0.0032746	0.0039412	0.0011011	275.59	4.1682e-05	4.3527e-05	539.5	82.473	4.1952e-05	4.3327e-05	181.09	77.873	36.067	12.565	4.197e-05	28.774	261.476	498.357	244.627	173.128	197.501	277.296	172.224	179.288	340.940	387.064	177.315	182.238	184.526	190.075	359.130	187.388	-8191	255	
1484.381	1	1	0	0	0.16847	0.22549	0.22834	0.0719	0.18103	0.25781	0.17685	0.16889	0.12081	0.19338	0.062355	0.21183	0.11773	0.09569	0.18682	0.079039	-1.6583	-2.5167	-2.2354	-2.2042	-2.3063	-2.2042	-2.4375	-2.4167	-2.0479	-2.5958	-2.3	-2.1146	-2.4396	-2.1833	-2.1604	-2.4521	175.637	194.147	331.138	262.567	323.635	394.002	290.065	372.024	335.531	440.872	477.017	506.864	447.050	342.026	483.819	451.418	0.00040221	0.001328	0.00022332	246.18	3.4786e-06	5.0779e-06	519.78	71.958	3.4903e-06	4.5883e-06	160.3	72.8	29.104	10.285	1.2151e-05	26.251	0.003226	0.0038881	0.0010907	275.38	4.1065e-05	4.3018e-05	538.14	82.366	4.1423e-05	4.2632e-05	181.21	77.876	36.145	12.618	4.1621e-05	28.796	249.148	409.938	239.745	172.813	520.380	366.309	172.485	179.138	273.273	264.133	176.754	182.428	184.387	189.325	350.240	186.890	-8191	255	
1484.500	1	1	0	0	0.19282	0.1764	0.096264	0.067525	0.1178	0.13485	0.2194	0.063014	0.11076	0.11636	0.22445	0.050404	0.14305	0.074806	0.17743	0.026466	-1.5958	-2.5563	-2.3833	-2.2458	-2.5062	-2.0854	-2.3521	-2.4125	-1.9479	-2.4062	-2.3292	-1.8854	-2.3563	-1.925	-1.975	-2.325	467.007	396.012	431.651	260.223	253.946	244.418	421.991	457.546	251.681	165.752	383.344	182.402	484.084	426.058	328.413	216.885	0.00030124	0.0015215	0.00012058	243.72	4.0965e-06	4.5423e-06	528.27	71.232	3.1271e-06	1.8798e-06	161.34	73.696	29.573	10.077	6.4163e-06	26.433	0.0032044	0.0039068	0.0010995	275.99	4.1034e-05	4.2938e-05	542.57	82.7	4.1187e-05	4.2836e-05	182.35	78.315	36.286	12.529	4.137e-05	28.926	261.210	242.414	230.537	173.208	327.828	224.452	171.752	179.857	343.276	209.860	176.529	182.562	183.627	189.725	300.670	187.066	-8191	255	
1484.596	1	1	0	0	0.21641	0.14677	0.096999	0.28575	0.064744	0.08292	0.054194	0.32216	0.21416	0.16171	0.10546	0.17824	0.15854	0.097487	0.089315	0.046583	-1.6542	-2.3792	-2.2687	-2.1625	-2.4938	-2.1979	-2.1937	-2.3896	-2.0292	-2.3458	-2.5104	-1.9438	-2.4625	-2.2625	-2.0771	-2.6021	492.568	307.439	228.198	272.809	368.120	268.423	330.367	516.672	310.371	217.861	489.880	394.078	335.612	198.724	288.798	404.053	0.00038197	0.00061495	0.00014698	245	1.2236e-05	4.3223e-06	526.98	71.859	1.4086e-05	1.0634e-05	161.79	74.85	29.683	10.308	8.6473e-06	26.713	0.0032125	0.0038886	0.0010894	276.29	4.0902e-05	4.3224e-05	542.32	82.746	4.1176e-05	4.2201e-05	182.49	79	36.333	12.563	4.0842e-05	28.923	256.160	385.982	287.404	173.021	336.983	297.335	171.889	179.390	362.171	381.946	176.460	182.451	183.465	189.951	244.502	187.030	-8191	255	
1484.668	1	1	0	0	0.10223	0.097227	0.27112	0.31673	0.030635	0.16449	0.040568	0.18341	0.090168	0.13785	0.36683	0.076198	0.18473	0.027039	0.074865	0.22722	-1.6771	-2.2542	-2.375	-1.8438	-2.4354	-2.2292	-2.0146	-2.3646	-2.0625	-2.1792	-2.4792	-2	-2.3354	-2.4417	-2.2042	-2.3542	246.804	215.683	377.921	323.951	266.251	295.762	319.151	497.985	364.145	301.122	422.467	379.202	401.106	501.672	487.058	492.177	0.0001933	0.00013767	0.00015762	246.58	6.1163e-06	7.9544e-06	523.91	72.941	7.3841e-06	7.4433e-06	162.64	75.076	29.41	10.299	2.9049e-06	26.234	0.0031631	0.0037689	0.0010474	275	3.9591e-05	4.124e-05	540.97	82.305	4.002e-05	4.1147e-05	181.9	78.942	36.188	12.469	4.0906e-05	28.832	291.448	517.874	399.193	173.672	369.957	297.939	171.846	179.181	265.890	512.711	176.533	182.683	184.175	190.490	324.615	186.881	-8191	255	
1484.789	1	1	0	0	0.1458	0.12375	0.1322	0.28707	0.15367	0.19635	0.24051	0.104	0.16364	0.22566	0.10618	0.20234	0.11272	0.028106	0.0691	0.10998	-1.5458	-2.0833	-2.4021	-2.0312	-2.2292	-2.2521	-2.1708	-2.3771	-2.1937	-2.1188	-2.5125	-2.1813	-2.2646	-2.175	-2.1208	-2.5583	179.755	248.620	237.118	439.491	161.096	477.094	174.956	284.788	247.438	272.514	509.674	310.545	451.905	204.624	415.405	507.369	0.00035016	0.0011521	0.00031917	244.91	7.7142e-06	3.7212e-06	525.38	70.383	5.4729e-06	4.9585e-06	161.38	74.472	29.79	10.338	1.4711e-05	26.431	0.0031861	0.0038368	0.0010609	275.29	4.076e-05	4.2749e-05	541.37	82.313	4.0943e-05	4.2449e-05	181.87	78.577	36.283	12.569	4.1549e-05	28.98	255.429	313.134	220.121	173.351	302.475	314.067	171.970	179.008	390.684	431.107	177.110	182.763	184.448	189.907	341.286	187.627	-8191	255	
1484.885	1	1	0	0	0.24806	0.025837	0.053415	0.1421	0.1368	0.1413	0.2758	0.073997	0.16864	0.17075	0.1766	0.16642	0.072728	0.070446	0.037653	0.13031	-1.7625	-2.0312	-2.3833	-2.025	-2.4	-2.2979	-2.0521	-2.5687	-2.2812	-2.4146	-2.5563	-2.0208	-2.3333	-2.2292	-2.075	-2.4979	354.998	482.085	206.086	374.827	213.888	456.804	180.430	272.063	282.199	520.850	198.425	184.868	485.485	202.991	311.271	488.959	0.00040066	0.00088005	0.0002909	244.51	8.3004e-06	5.5037e-06	525.38	70.451	5.2432e-07	1.0419e-05	162.47	74.937	29.354	10.308	5.7098e-06	26.964	0.0032333	0.003869	0.0010763	275.16	4.1012e-05	4.251e-05	541.47	81.74	4.0786e-05	4.1922e-05	181.78	78.821	36.212	12.594	3.9936e-05	29.291	239.678	191.451	231.394	173.170	421.064	489.880	171.948	178.953	439.614	358.812	176.550	182.819	184.263	190.408	359.396	186.938	-8191	255	
1484.981	1	1	0	0	0.21318	0.25956	0.060165	0.17678	0.2712	0.1413	0.31283	0.12365	0.3095	0.051927	0.086817	0.15412	0.14742	0.18628	0.18654	0.19922	-1.8646	-2.0708	-2.5542	-2.0479	-2.2938	-2.3333	-1.8771	-2.3375	-2.3104	-1.9646	-2.3688	-2.2208	-2.1625	-2.3958	-1.9125	-2.3125	311.078	260.144	350.594	507.347	369.916	166.894	438.381	511.643	289.594	237.493	318.611	178.824	189.583	497.854	179.188	489.717	0.00032135	0.00023503	0.00029859	245.1	7.6918e-06	6.9884e-06	529.17	70.403	2.4058e-06	4.7038e-06	165.05	74.851	29.573	10.456	1.118e-05	26.666	0.0031303	0.0037147	0.0010246	275.07	3.9184e-05	4.0621e-05	541.88	81.785	3.9611e-05	4.0427e-05	182.94	79.272	36.408	12.621	4.0089e-05	29.189	257.639	381.916	478.748	173.639	349.974	259.315	172.030	178.989	487.026	416.447	176.934	182.342	184.220	189.962	227.642	187.002	-8191	255	
1485.077	1	1	0	0	0.19717	0.07888	0.16806	0.16629	0.21244	0.087329	0.43396	0.20025	0.1485	0.1829	0.10206	0.11266	0.1778	0.052389	0.18453	0.069918	-1.8667	-2.0167	-2.5146	-2.1104	-2.1271	-2.4771	-2.0479	-2.1875	-2.3667	-1.9937	-2.6458	-2.2604	-2.2438	-2.5083	-2.1792	-2.3937	336.288	474.311	409.835	171.896	281.741	257.063	390.699	448.991	390.163	311.343	219.172	429.942	419.259	471.604	266.537	225.869	0.00010262	0.00085924	6.0884e-05	245.1	2.7758e-06	2.1737e-06	522.8	72.575	6.6735e-06	9.0501e-07	164.73	75.718	30.188	10.428	8.6336e-06	26.896	0.0031424	0.0037184	0.0010358	273.77	3.9649e-05	4.0705e-05	540.15	82.28	3.9271e-05	4.0245e-05	183.2	79.457	36.631	12.593	4.0017e-05	29.339	246.129	349.083	227.586	172.815	334.025	240.201	172.061	178.971	509.557	362.530	177.326	182.751	184.693	190.535	413.774	186.889	-8191	255	
1485.198	1	1	0	0	0.10616	0.11525	0.17547	0.20851	0.36429	0.083603	0.13764	0.066524	0.087719	0.10171	0.20195	0.18858	0.26374	0.10901	0.27397	0.21755	-1.9521	-2.075	-2.3063	-2.1625	-2.1917	-2.5312	-2.0625	-2.2875	-2.3875	-2.025	-2.3958	-2.3	-2.1063	-2.3229	-1.9292	-2.3417	262.609	351.604	277.265	335.347	202.178	289.124	227.490	318.156	199.280	352.653	197.040	302.102	223.534	518.461	448.628	327.207	0.00033872	0.001681	0.00011521	246.75	1.9453e-06	1.6526e-06	528.93	71.667	7.8685e-06	1.0011e-05	167.11	76.778	30.654	10.467	3.8435e-06	27.155	0.0031366	0.0037474	0.0010357	276.1	3.9361e-05	4.0551e-05	543.09	82.232	3.9088e-05	3.9999e-05	185.3	80.655	36.757	12.577	3.9455e-05	29.353	253.474	245.254	315.922	173.191	474.561	338.188	172.144	179.399	232.588	509.791	177.455	182.170	184.171	190.120	247.577	186.896	-8191	255	
1485.292	1	1	0	0	0.33687	0.16806	0.20475	0.28042	0.07425	0.17473	0.08355	0.24687	0.24997	0.073818	0.20403	0.12802	0.24755	0.045355	0.085817	0.092313	-1.9125	-1.7833	-2.2417	-2.2667	-1.8417	-2.3271	-2.2125	-2.1021	-2.5104	-2.0396	-2.425	-2.2396	-2.1375	-2.4646	-2.1	-2.2042	517.255	435.532	348.519	509.835	510.414	161.356	201.701	470.329	294.817	375.915	470.311	519.064	226.973	475.330	496.712	246.350	0.00032695	0.001516	0.00027006	247.61	4.2717e-06	7.0436e-06	533.58	72.12	4.624e-06	4.0504e-06	166.97	76.71	30.532	10.544	2.9455e-06	26.913	0.003053	0.0036494	0.0010193	276.02	3.9335e-05	4.0032e-05	545.53	82.717	3.8413e-05	3.9709e-05	185.42	80.502	36.775	12.591	3.9853e-05	29.371	261.508	227.880	340.805	173.623	335.511	291.437	171.681	178.766	164.335	234.583	176.536	182.923	183.581	190.163	228.307	186.858	-8191	255	
1485.366	1	1	0	0	0.14082	0.11627	0.11516	0.064844	0.21944	0.13629	0.12146	0.246	0.082372	0.18854	0.24143	0.056164	0.14185	0.26375	0.13881	0.19548	-2.0854	-2.0187	-2.2562	-2.1979	-1.9854	-2.3958	-2.2708	-2.075	-2.3125	-2.1833	-2.2938	-2.4854	-1.95	-2.5563	-2.1875	-2.1688	365.181	342.910	223.507	288.373	508.150	384.381	476.677	176.582	426.899	423.424	197.249	444.982	508.119	510.910	458.999	459.779	0.00026664	0.00066189	2.9155e-05	248.75	1.5444e-05	6.8835e-06	528.51	72.293	7.5638e-06	5.7236e-06	168.2	76.088	30.459	10.351	5.0765e-06	26.608	0.0031073	0.0037329	0.0010317	275.96	3.9223e-05	4.0591e-05	544.52	82.554	3.9096e-05	4.0442e-05	185.55	80.289	36.792	12.533	4.0403e-05	29.177	241.743	204.124	425.420	173.294	162.518	384.645	171.947	178.754	379.325	412.475	176.999	182.572	183.667	190.068	399.174	186.819	-8191	255	
1485.462	1	1	0	0	0.1169	0.10641	0.27903	0.1978	0.24568	0.13451	0.093025	0.17752	0.054736	0.029286	0.13526	0.24409	0.11559	0.15035	0.16523	0.15096	-1.9729	-2.1271	-2.25	-2.2896	-2.1833	-2.4917	-2.2604	-2.1	-2.5229	-2.1312	-2.2896	-2.3458	-2.0521	-2.3521	-2.2292	-2.0979	340.978	170.376	255.129	383.115	318.012	517.298	333.994	162.480	485.289	292.747	194.124	353.277	368.703	436.889	346.677	329.184	0.00033346	0.0024485	2.9597e-05	245.91	9.3326e-06	1.4806e-05	527.98	70.892	5.1871e-06	9.0545e-06	166.23	75.728	29.773	10.317	8.4216e-06	26.572	0.003143	0.0038188	0.0010748	276.74	4.1254e-05	4.2723e-05	545.79	82.99	4.1175e-05	4.314e-05	185.55	79.992	36.896	12.648	4.1982e-05	29.233	260.148	236.491	438.788	172.651	237.096	372.232	171.987	179.074	339.091	213.282	177.235	182.803	184.801	190.142	221.264	186.837	-8191	255	
1485.581	1	1	0	0	0.17209	0.19222	0.1312	0.17831	0.34243	0.26984	0.23702	0.1685	0.28687	0.037913	0.16633	0.11135	0.049088	0.019785	0.13363	0.36172	-2.0396	-2.2042	-2.2625	-2.5	-2.0438	-2.4042	-2.225	-2.0979	-2.5771	-2.1604	-2.25	-2.5854	-1.8271	-2.3812	-2.4875	-2.0167	464.275	473.890	297.690	291.332	509.692	342.803	457.721	437.280	221.358	275.572	187.074	204.878	339.693	205.692	282.000	465.949	0.00015531	0.00035111	0.00015724	247.51	4.9028e-06	1.0669e-05	528.04	70.711	6.2472e-06	9.2539e-06	163.84	74.993	29.933	10.451	2.0825e-06	26.682	0.0032403	0.0039661	0.0011317	277.68	4.2694e-05	4.4673e-05	546.13	82.86	4.3365e-05	4.5361e-05	186	80.165	37.138	12.767	4.3308e-05	29.447	236.293	277.461	258.197	173.009	253.977	275.228	171.655	179.079	331.399	307.056	176.899	182.474	183.918	190.021	413.847	186.600	-8191	255	
1485.677	1	1	0	0	0.043775	0.25101	0.17319	0.21017	0.12793	0.3137	0.076648	0.20021	0.051621	0.055518	0.18112	0.2307	0.042445	0.12478	0.26103	0.3054	-2.1229	-2.0604	-2.0938	-2.5083	-1.9521	-2.3438	-2.4167	-1.9979	-2.4521	-2.1896	-2.1208	-2.6042	-2.1604	-2.3563	-2.2271	-2.1042	317.685	227.455	200.624	179.599	511.602	247.230	433.700	204.006	514.925	215.437	388.981	489.384	203.701	506.997	461.937	436.694	0.00026516	0.00057058	0.00027729	246.71	7.5843e-06	5.1132e-06	529.1	71.767	3.6237e-06	1.0755e-05	164.61	76.032	29.841	10.197	6.5726e-06	26.842	0.0033262	0.004	0.0010985	276.59	4.1242e-05	4.2816e-05	548.08	82.636	4.0242e-05	4.1901e-05	185.17	80.339	36.649	12.622	4.1098e-05	29.349	255.529	250.719	166.818	173.087	341.318	421.091	171.956	178.197	389.431	476.367	177.042	182.628	183.534	190.116	217.641	187.576	-8191	255	
1485.773	1	1	0	0	0.12887	0.072023	0.18648	0.081727	0.17622	0.17414	0.30043	0.12855	0.03921	0.072297	0.10687	0.23762	0.072953	0.13488	0.12966	0.13218	-1.9562	-2.25	-2.1625	-2.3542	-2.1646	-2.2833	-2.2917	-2	-2.3729	-2.4104	-2.0208	-2.4208	-2.0687	-2.2083	-2.5083	-2.0812	338.360	333.484	445.045	255.593	167.692	446.181	419.745	366.777	177.568	205.737	212.991	221.760	345.584	353.129	410.287	188.537	0.00025915	0.00096623	0.0002122	242.38	9.4699e-06	1.7941e-05	529.65	71.061	3.9096e-06	1.902e-05	164.93	75.307	29.7	10.327	4.4902e-06	26.971	0.0031867	0.0038657	0.0010702	275.04	4.0959e-05	4.2284e-05	543.39	82.09	4.0872e-05	4.1917e-05	184.72	79.898	36.461	12.608	4.1575e-05	29.333	272.374	438.180	388.334	173.862	314.644	428.336	172.506	179.415	206.552	517.602	177.205	182.678	183.766	190.269	258.886	186.891	-8191	255	
1485.893	1	1	0	0	0.25486	0.075224	0.21376	0.31957	0.037085	0.27369	0.19522	0.24847	0.070405	0.23673	0.15715	0.19714	0.071769	0.048286	0.075817	0.31916	-1.875	-2.225	-1.9479	-2.5312	-2.2562	-2.2062	-2.5042	-2.0896	-2.2729	-2.3875	-2.0687	-2.4417	-2.2021	-2.0604	-2.4125	-1.8729	289.942	352.938	169.282	447.400	398.151	356.078	174.058	402.656	514.556	231.159	177.119	380.137	221.520	283.406	320.076	483.625	0.00031579	0.00037399	0.00010538	245.4	8.0046e-06	7.7469e-06	529.89	71.021	7.1993e-07	3.7889e-06	166.28	75.422	30.004	10.4	9.8857e-06	26.852	0.0032528	0.003909	0.0011026	275.7	4.182e-05	4.3776e-05	545.54	82.235	4.1443e-05	4.2787e-05	185.7	80.096	36.758	12.636	4.0878e-05	29.491	275.667	300.763	331.988	173.161	434.026	205.463	172.022	179.271	349.616	355.985	177.199	182.458	184.612	189.760	518.791	186.805	-8191	255	
1485.965	1	1	0	0	0.17402	0.078984	0.15915	0.15738	0.26652	0.033178	0.21949	0.17242	0.26245	0.18474	0.043911	0.14124	0.075458	0.055509	0.065267	0.22081	-1.8917	-2.1667	-1.9833	-2.3563	-2.2	-2.175	-2.5979	-1.8542	-2.2458	-2.4458	-2.0375	-2.4833	-2.2333	-2.0187	-2.5604	-2.0667	445.054	367.386	382.655	251.910	180.169	427.244	369.117	412.608	240.352	448.381	328.724	230.427	504.432	165.876	227.400	169.371	0.00032651	0.00065593	0.00012647	245.58	1.8187e-05	4.2641e-06	527.93	71.764	6.792e-06	7.9255e-06	166.59	76.659	29.809	10.392	1.2802e-05	27.091	0.0032977	0.0038862	0.0010844	276.13	4.1132e-05	4.2577e-05	545.78	82.784	4.1849e-05	4.2132e-05	186.1	80.845	36.848	12.627	4.0945e-05	29.609	282.852	331.849	218.602	173.132	332.214	422.815	171.905	179.037	368.642	224.905	176.373	182.467	184.780	189.309	362.368	186.590	-8191	255	
1486.061	1	1	0	0	0.10801	0.15452	0.1707	0.33859	0.18935	0.17967	0.052127	0.12469	0.12953	0.094299	0.17975	0.034344	0.090301	0.15357	0.14774	0.24176	-1.7333	-2.2583	-1.975	-2.3937	-2.1958	-2.0208	-2.4813	-1.9688	-2.225	-2.4583	-2.1354	-2.4437	-2.3187	-2.1188	-2.6375	-1.8917	246.396	459.532	212.768	333.536	317.284	187.603	439.725	290.632	276.810	188.975	422.947	368.215	479.782	500.682	372.960	238.690	0.00035386	0.0011382	0.00034718	247.48	7.5779e-06	9.2382e-06	533.69	71.461	5.9976e-06	6.324e-06	165.3	76.45	30.181	10.397	8.8363e-06	26.876	0.0032446	0.003898	0.0010829	277.15	4.1815e-05	4.3612e-05	548.78	82.733	4.1909e-05	4.2818e-05	186.39	80.712	36.945	12.659	4.2275e-05	29.492	267.713	415.667	184.262	172.726	210.153	409.792	172.232	179.201	196.955	505.301	176.689	182.081	183.582	189.888	307.145	186.976	-8191	255	
1486.182	1	1	0	0	0.27587	0.21567	0.21804	0.20057	0.15468	0.094696	0.15736	0.34659	0.10716	0.15839	0.15712	0.12278	0.067498	0.13514	0.1634	0.22891	-1.6792	-2.525	-2.2	-2.3458	-2.2812	-1.875	-2.3583	-2.1875	-2.2146	-2.6104	-1.9937	-2.3812	-2.4021	-1.7687	-2.5396	-2.1292	339.743	426.795	302.379	399.685	192.135	497.230	451.004	479.590	504.395	480.475	322.867	403.515	212.291	371.865	371.393	467.665	0.00028922	0.00089847	0.00020543	248.43	3.6204e-06	4.5149e-06	526.81	71.387	3.4307e-06	7.1072e-06	167.8	76.353	30.294	10.326	1.814e-05	26.93	0.0032962	0.0039231	0.0010966	277.26	4.1713e-05	4.3549e-05	546.66	82.516	4.1951e-05	4.2651e-05	186.96	80.914	36.84	12.591	4.1821e-05	29.467	259.533	288.899	205.697	173.180	518.717	398.352	172.244	179.022	333.857	343.742	177.360	182.640	183.680	189.815	219.296	187.116	-8191	255	
1486.278	1	1	0	0	0.15363	0.14933	0.32098	0.20396	0.10662	0.35791	0.091356	0.33444	0.10557	0.17992	0.17587	0.34173	0.15558	0.15779	0.10814	0.063949	-1.6917	-2.3833	-2.0208	-2.2271	-2.5062	-2.0021	-2.4042	-2.3438	-1.9354	-2.2958	-2.1312	-2.1667	-2.4479	-2.0146	-2.4313	-2.4313	496.751	215.681	193.784	452.607	361.236	439.471	448.011	419.782	200.675	454.968	445.613	400.857	508.425	417.616	462.270	231.421	0.00034182	0.0010441	0.00016448	246.31	6.9838e-06	3.8602e-06	528.48	71.344	3.8798e-06	7.9625e-06	166.39	75.682	29.333	10.27	6.058e-06	26.743	0.0032692	0.0038809	0.0010971	277.26	4.2157e-05	4.3398e-05	547.71	82.925	4.2523e-05	4.4014e-05	187.04	80.694	36.761	12.644	4.3704e-05	29.526	268.063	226.942	163.565	172.989	415.881	482.134	171.817	179.160	357.040	180.110	177.257	182.814	184.371	189.985	296.118	187.119	-8191	255	
1486.374	1	1	0	0	0.1093	0.11012	0.15144	0.15242	0.12852	0.080964	0.18987	0.20964	0.20822	0.1828	0.24242	0.1814	0.065018	0.21026	0.21579	0.25363	-1.5792	-2.5104	-2.0438	-2.1813	-2.2854	-2.0729	-2.3604	-2.3792	-2.125	-2.3792	-2.2	-2.1688	-2.4125	-2	-2.2521	-2.2875	511.178	170.364	329.112	423.360	452.026	214.343	465.935	474.887	462.076	354.548	454.398	455.193	351.020	182.661	220.213	505.476	0.00026487	0.00099067	0.00028822	245.57	1.5136e-06	3.5432e-06	531.06	71.323	3.6937e-06	9.1513e-06	164.34	75.88	29.654	10.247	1.2184e-05	27.034	0.0033899	0.0040536	0.0011266	278.48	4.2535e-05	4.4545e-05	550.1	82.687	4.27e-05	4.4135e-05	187.11	80.677	36.859	12.735	4.4424e-05	29.725	235.506	211.226	379.395	172.862	242.689	327.511	171.967	179.471	220.480	417.414	176.809	182.310	184.232	190.251	283.865	186.974	-8191	255	
1486.493	1	1	0	0	0.12455	0.11715	0.26502	0.22761	0.18185	0.1339	0.095543	0.20524	0.069631	0.20137	0.2205	0.037875	0.12018	0.0616	0.031391	0.26081	-1.4958	-2.3833	-2.3187	-2.0438	-2.5646	-2.0542	-2.2583	-2.3833	-2.0396	-2.35	-2.1542	-2.2125	-2.4917	-2.0021	-2.2479	-2.4104	222.892	263.449	472.675	474.852	515.877	432.932	419.536	163.721	232.548	343.927	430.676	383.761	321.309	215.906	182.912	464.064	0.00032572	0.0010744	0.00014824	242.88	5.3583e-06	3.3251e-06	525.5	70.85	4.4521e-06	5.4984e-06	166.64	75.454	29.669	10.175	8.6105e-06	26.576	0.003489	0.0041419	0.0011761	278.36	4.4133e-05	4.5701e-05	547.73	82.549	4.3904e-05	4.4555e-05	186.77	80.292	36.555	12.589	4.3251e-05	29.435	247.246	379.404	481.399	172.458	425.852	485.369	172.500	179.670	213.546	176.670	177.467	182.471	184.326	191.253	486.677	186.839	-8191	255	
1486.565	1	1	0	0	0.13975	0.20567	0.039427	0.18983	0.089141	0.27021	0.10642	0.14552	0.17152	0.25181	0.28628	0.1711	0.117	0.10253	0.087303	0.17636	-1.2188	-2.45	-2.1688	-1.9458	-2.4771	-2.1146	-2.1708	-2.3854	-2.0729	-2.5187	-2.1458	-2.0583	-2.4729	-2.1917	-2.2	-2.4396	226.412	298.148	403.616	436.774	175.618	426.847	476.340	167.266	314.138	284.660	387.495	283.391	388.888	410.045	475.840	382.541	0.00044607	0.0012373	0.00013309	242.91	1.7353e-05	6.0396e-06	523.89	70.171	9.4424e-06	6.7184e-06	162.59	75.383	28.944	10.189	1.0532e-05	26.764	0.0033291	0.0040214	0.0011336	275.58	4.2791e-05	4.515e-05	544.19	82.099	4.4104e-05	4.5691e-05	185.77	80.02	36.559	12.734	4.5272e-05	29.577	243.402	285.899	185.624	173.088	374.864	391.245	172.374	179.428	386.451	288.282	177.476	182.891	184.190	190.025	394.912	186.655	-8191	255	
1486.661	1	1	0	0	0.12806	0.26204	0.050802	0.065607	0.098223	0.19487	0.08363	0.18631	0.33966	0.20768	0.090868	0.14272	0.055259	0.036418	0.32567	0.08037	-1.4833	-2.25	-2.2625	-1.9771	-2.4021	-2.1854	-2.0604	-2.3104	-1.9917	-2.3708	-2.2396	-1.9875	-2.4417	-2.2875	-2.1375	-2.4979	216.481	326.311	180.945	374.888	481.742	432.901	195.459	170.310	286.092	187.811	168.485	521.257	361.302	180.469	222.838	413.831	0.00032472	0.0018775	0.00033466	239.74	4.6905e-06	9.6053e-06	525.12	69.232	1.36e-06	1.1432e-05	164.78	75.293	29.47	10.013	7.5252e-06	27.039	0.0034837	0.0041802	0.0011728	275.06	4.3956e-05	4.6158e-05	547.07	81.975	4.45e-05	4.5871e-05	186.29	80.404	36.818	12.684	4.4665e-05	29.719	254.717	302.069	325.008	172.703	319.933	506.857	172.107	179.424	280.238	348.833	177.502	182.676	184.594	190.691	356.055	186.729	-8191	255	
1486.757	1	1	0	0	0.10323	0.15324	0.033806	0.092153	0.090826	0.1639	0.37053	0.16009	0.028698	0.090614	0.28517	0.25111	0.09176	0.19721	0.34463	0.037548	-1.4583	-2.2375	-2.375	-1.9688	-2.4896	-2.1562	-2.1562	-2.2938	-2.0271	-2.2625	-2.2542	-2.0167	-2.4688	-2.1229	-2.1396	-2.4271	204.969	195.032	276.193	420.785	281.303	359.540	492.677	248.482	229.818	441.983	403.324	480.163	232.896	341.400	261.367	455.168	0.00042738	0.00063073	0.00028671	239.78	7.1265e-06	1.5637e-05	524.24	69.892	5.2717e-06	6.177e-06	164.28	75.386	29.157	10.129	7.5162e-06	26.261	0.0034765	0.004095	0.0011485	274.53	4.3875e-05	4.5994e-05	546.48	82.424	4.4222e-05	4.567e-05	186.25	80.385	36.513	12.669	4.444e-05	29.422	250.148	171.399	439.240	173.109	499.275	371.121	172.555	179.432	358.347	252.971	177.113	182.416	183.924	189.784	195.669	186.844	-8191	255	
1486.878	1	1	0	0	0.19241	0.091396	0.23624	0.081823	0.26571	0.26838	0.086588	0.079636	0.17447	0.15476	0.11821	0.40922	0.12333	0.49325	0.18567	0.31011	-1.6583	-2.1521	-2.5062	-2.0771	-2.2479	-2.1958	-2.0917	-2.4875	-2.05	-2.0875	-2.1917	-2	-2.35	-2.3604	-2.0167	-2.4146	254.389	361.640	332.303	213.189	239.656	228.895	448.032	413.712	164.969	240.669	441.266	162.116	513.895	182.401	215.153	437.367	0.00017805	0.00035245	0.00032897	241.05	2.6522e-06	1.3776e-05	523.08	68.885	2.9404e-06	4.9668e-06	165.27	75.275	29.023	10.202	2.2121e-06	26.525	0.0035001	0.0042088	0.0011546	275.11	4.478e-05	4.6425e-05	544.47	81.803	4.4387e-05	4.5495e-05	186.35	80.13	36.62	12.639	4.3905e-05	29.365	257.126	297.130	319.237	173.123	209.661	220.816	171.828	178.678	316.035	440.426	177.083	182.787	183.840	190.233	488.686	187.669	-8191	255	
1486.974	1	1	0	0	0.11049	0.07417	0.046287	0.21587	0.25016	0.37704	0.23597	0.21923	0.24948	0.12908	0.22058	0.14239	0.22533	0.14353	0.2555	0.15967	-1.7	-2.2062	-2.4646	-1.9896	-2.3292	-2.375	-1.9625	-2.4042	-2.15	-2.1667	-2.3875	-2.1063	-2.2396	-2.2729	-2.1333	-2.4458	228.857	221.700	305.218	245.992	265.649	485.148	263.778	269.210	434.466	246.147	384.664	213.342	449.633	368.905	374.373	460.256	0.0001084	0.00088749	0.0002096	243	3.1305e-06	1.6232e-05	524.47	70.075	6.7996e-06	7.2722e-06	162.77	74.956	28.944	9.9839	2.8679e-06	26.576	0.0034147	0.0041471	0.0011499	275.37	4.4214e-05	4.602e-05	546.28	82.087	4.4392e-05	4.6115e-05	185.98	80.125	36.748	12.717	4.5562e-05	29.51	305.428	214.378	165.434	173.446	344.982	345.788	171.664	179.234	331.896	263.919	177.334	182.609	184.284	189.862	324.153	186.722	-8191	255	
1487.070	1	1	0	0	0.24644	0.21875	0.23178	0.20642	0.18562	0.061678	0.22324	0.18302	0.24341	0.31374	0.14388	0.1338	0.17175	0.18004	0.19411	0.14245	-1.6042	-2.1083	-2.3917	-1.9604	-2.2083	-2.3563	-2.0604	-2.3979	-2.2917	-2.0125	-2.4938	-2.1854	-2.1729	-2.4313	-1.9479	-2.4708	519.459	500.458	269.985	190.491	426.315	377.610	383.093	350.952	319.863	477.948	397.024	395.804	418.088	436.315	186.931	384.025	0.00024369	0.00030845	0.00053015	237.78	3.9393e-06	5.5836e-07	527.15	69.043	2.8147e-06	1.3495e-05	162.93	74.995	28.759	10.064	6.0574e-06	26.523	0.0035286	0.0042264	0.00118	275.58	4.5276e-05	4.7212e-05	547.12	82.697	4.6235e-05	4.7871e-05	186.52	80.296	36.76	12.774	4.7114e-05	29.708	235.486	303.906	268.763	173.146	488.444	168.069	171.891	178.567	215.972	341.145	176.848	182.442	183.509	190.758	403.347	187.255	-8191	255	
1487.166	1	1	0	0	0.071227	0.20954	0.17869	0.20723	0.014023	0.22803	0.1237	0.37903	0.32271	0.046972	0.10023	0.17142	0.051938	0.22053	0.24539	0.090096	-1.7375	-2.0229	-2.4604	-2.0125	-2.2229	-2.3021	-2.0687	-2.3688	-2.2542	-1.9771	-2.6292	-2.2875	-2.1896	-2.4604	-1.9479	-2.3354	303.066	391.156	512.812	175.424	226.407	299.092	429.186	394.884	283.142	168.578	383.186	237.573	485.443	204.338	237.465	171.613	0.00029176	0.00041869	0.00023551	238.77	4.8151e-06	4.0424e-06	522.01	69.144	3.5743e-06	1.0287e-05	164.07	74.69	29.058	10.069	7.7217e-06	26.699	0.0036711	0.0044111	0.0012297	276.85	4.6773e-05	4.7905e-05	547.41	82.767	4.6315e-05	4.7761e-05	187.12	80.031	36.876	12.66	4.6542e-05	29.509	261.352	212.605	249.692	173.962	308.812	215.331	172.657	179.223	439.985	345.053	177.274	182.419	183.785	189.676	471.837	186.863	-8191	255	
1487.262	1	1	0	0	0.17076	0.21506	0.066984	0.24401	0.012798	0.14487	0.047587	0.12632	0.19055	0.21969	0.062317	0.26646	0.12169	0.096472	0.20066	0.13576	-1.775	-1.9	-2.5521	-2.0938	-2.1646	-2.625	-2.0729	-2.1979	-2.2562	-1.8021	-2.3979	-2.2521	-2.1458	-2.4708	-1.9438	-2.2583	515.068	309.728	253.175	449.450	343.643	419.834	517.337	469.261	191.236	520.210	402.280	517.551	421.327	186.924	396.305	267.727	0.00030985	0.00016862	5.0418e-05	240.5	1.2186e-05	3.4733e-06	524.69	69.636	6.7204e-06	3.5586e-06	164.34	74.544	29.112	9.9503	8.9863e-06	26.695	0.003601	0.0043611	0.0011999	275.46	4.5314e-05	4.6312e-05	545.67	82.63	4.4394e-05	4.6128e-05	186.11	80.02	36.501	12.499	4.4798e-05	29.447	264.795	436.837	173.194	173.494	364.404	231.627	172.026	178.962	281.385	310.166	176.441	182.506	184.156	189.985	261.430	186.814	-8191	255	
1487.358	1	1	0	0	0.12603	0.19852	0.29748	0.25136	0.042078	0.14324	0.19737	0.27205	0.18063	0.054261	0.29388	0.12534	0.098451	0.062926	0.080937	0.08755	-1.9083	-1.8458	-2.4542	-2	-2.0417	-2.6437	-2.1833	-2.2021	-2.4521	-2.0563	-2.3729	-2.1854	-1.9896	-2.4604	-2.0958	-2.3479	399.682	273.044	309.666	357.667	214.385	422.254	493.950	454.876	211.684	366.860	357.804	243.147	252.425	413.733	417.205	509.961	0.00024528	0.001511	9.7409e-05	240.27	6.8228e-06	1.45e-05	522.98	69.526	1.4977e-06	2.391e-06	162.61	74.401	29.143	10.025	6.3332e-06	26.639	0.0034478	0.0041695	0.0011646	272.71	4.4298e-05	4.5323e-05	543.94	82.182	4.3882e-05	4.5264e-05	185.43	79.537	36.334	12.538	4.4453e-05	29.478	251.491	247.411	365.939	173.237	245.988	302.707	171.967	178.852	279.781	286.411	176.921	182.537	184.317	189.764	306.964	187.299	-8191	255	
1487.455	1	1	0	0	0.040199	0.28836	0.2043	0.11538	0.15642	0.17922	0.12809	0.17053	0.13134	0.1118	0.099546	0.13042	0.21401	0.2591	0.12288	0.26269	-1.9729	-1.9292	-2.2687	-2.3854	-2.0875	-2.525	-2.2521	-2.3104	-2.2729	-1.9062	-2.3083	-2.1937	-2.0479	-2.4688	-2.1979	-2.0917	493.259	353.790	307.248	484.776	305.609	312.712	453.664	316.652	399.243	348.583	454.857	355.356	469.695	404.595	499.167	170.886	0.00030158	0.00053217	0.0002414	239.87	1.5561e-06	6.2732e-06	526.51	68.833	2.2116e-06	8.9806e-06	163.78	74.33	29.175	10.122	1.3558e-05	26.42	0.0034135	0.0040942	0.0011499	273.51	4.3758e-05	4.555e-05	545.59	82.05	4.3563e-05	4.5097e-05	185.69	79.857	36.557	12.534	4.4449e-05	29.354	271.545	441.861	363.934	172.776	252.223	258.251	172.263	178.735	469.573	331.384	177.443	182.311	184.275	189.748	309.856	187.106	-8191	255	
1487.573	1	1	0	0	0.17941	0.058738	0.12069	0.27181	0.074603	0.088578	0.36367	0.32361	0.037056	0.1666	0.093722	0.097566	0.042131	0.07611	0.11378	0.092417	-1.7542	-2.1562	-2.2292	-2.2562	-2.0208	-2.5833	-2.2292	-2.0062	-2.4708	-2.3146	-2.2812	-2.3312	-1.975	-2.4354	-2.0833	-2.1771	265.906	331.535	164.945	377.133	489.007	216.561	483.207	515.205	516.712	444.443	436.442	358.663	241.244	174.577	490.115	325.771	0.00033505	0.00085083	0.00021381	239.3	3.5423e-06	7.2718e-06	522.24	69.185	5.447e-06	8.2852e-06	164.01	74.872	28.882	9.8976	3.1467e-06	26.47	0.0033971	0.0041435	0.0011639	273.49	4.4221e-05	4.5154e-05	543.96	81.484	4.3576e-05	4.5377e-05	185.71	79.596	36.34	12.521	4.4074e-05	29.286	238.905	337.453	228.476	173.243	444.911	315.429	172.174	179.905	274.911	325.968	177.335	182.833	184.424	190.443	366.013	186.926	-8191	255	
1487.670	1	1	0	0	0.099072	0.20544	0.32354	0.21755	0.17997	0.090067	0.12374	0.18065	0.16556	0.08262	0.061473	0.24926	0.23022	0.12582	0.08621	0.080736	-1.9833	-2.1188	-2.1167	-2.4333	-2.0125	-2.4229	-2.3583	-2.1021	-2.6021	-2.1937	-2.1	-2.6146	-2.1375	-2.3125	-2.2229	-2.0271	519.556	294.798	233.263	171.437	224.931	230.678	169.640	491.414	497.904	503.310	476.137	450.807	280.553	234.137	330.649	466.678	0.00017107	0.00018347	0.00010791	237.86	6.7422e-06	1.6566e-05	525.02	68.839	1.2853e-05	5.2339e-06	163.33	74.506	28.461	10.011	9.7143e-06	26.13	0.0033441	0.0040756	0.0011318	271.6	4.3129e-05	4.484e-05	542.94	81.422	4.2961e-05	4.4743e-05	185.59	79.513	36.199	12.476	4.4329e-05	29.222	259.465	196.528	282.289	173.606	331.903	466.982	172.249	179.257	293.596	263.026	177.236	182.204	183.576	189.694	369.361	186.956	-8191	255	
1487.766	1	1	0	0	0.098463	0.14665	0.10173	0.1334	0.19335	0.10026	0.14476	0.2777	0.15744	0.18921	0.072968	0.2536	0.20651	0.24869	0.21229	0.069989	-1.9021	-2.1271	-2.1167	-2.2229	-2.025	-2.2667	-2.5146	-1.8833	-2.4375	-2.2375	-1.9813	-2.5896	-2.1333	-2.3812	-2.5271	-2.2292	188.611	375.279	309.196	293.419	326.013	166.584	391.762	221.693	294.209	461.013	520.777	520.927	508.720	338.340	415.102	392.575	0.00027515	0.0012406	0.00010271	241.4	7.6723e-06	1.5396e-05	523.89	69.134	9.619e-06	1.0282e-05	162.9	74.463	28.957	9.8708	4.1046e-06	26.447	0.0034299	0.0041787	0.0011682	273.87	4.4389e-05	4.6357e-05	546.26	81.787	4.376e-05	4.5841e-05	186.51	79.875	36.473	12.43	4.3697e-05	29.207	259.565	220.400	394.325	173.996	390.586	185.785	171.728	179.196	235.090	520.490	176.078	182.872	183.291	189.909	366.504	186.935	-8191	255	
1487.862	1	1	0	0	0.21584	0.20078	0.10414	0.068295	0.1104	0.22789	0.21894	0.24534	0.27293	0.15702	0.25039	0.036734	0.31242	0.2772	0.2761	0.094536	-1.9479	-2.1417	-2.1813	-2.3333	-2.25	-2.3833	-2.3354	-1.9396	-2.4958	-2.2458	-1.9479	-2.6542	-2.1042	-2.2792	-2.5125	-1.8937	382.078	478.378	308.864	165.365	285.675	400.286	441.732	288.527	255.151	484.656	493.049	348.505	356.200	344.820	294.723	392.880	0.00029184	0.0016774	0.00019654	240.41	4.2979e-06	1.8471e-06	525.32	69.162	9.1878e-06	7.9239e-06	164.59	74.913	28.879	9.9207	3.55e-06	26.396	0.0034625	0.0041251	0.0011559	273.42	4.4353e-05	4.5817e-05	546.91	81.938	4.4243e-05	4.5621e-05	186.22	79.958	36.322	12.457	4.3484e-05	29.206	271.950	219.685	233.538	172.732	284.557	303.566	172.007	179.107	211.558	516.714	177.286	182.101	183.641	190.583	176.818	186.777	-8191	255	
1487.958	1	1	0	0	0.19933	0.12793	0.10509	0.19101	0.067325	0.24856	0.17651	0.027901	0.13316	0.091464	0.084177	0.067659	0.15252	0.23181	0.19363	0.16728	-2.0021	-2.2042	-2.1479	-2.55	-2.2313	-2.2438	-2.525	-2.1021	-2.3917	-2.4062	-2.0167	-2.4938	-2.1083	-2.2417	-2.3563	-2.2708	309.286	467.805	268.038	324.555	414.278	376.352	470.705	258.215	220.829	168.046	511.753	320.518	383.497	232.183	248.586	395.677	0.00032755	0.00027206	0.00021946	243.16	2.1878e-06	2.4925e-06	524.57	69.797	3.0586e-06	1.0885e-05	165.46	75.434	28.881	9.9651	3.6294e-06	26.623	0.0033913	0.0040354	0.0011274	273.66	4.3115e-05	4.453e-05	544.66	81.533	4.3206e-05	4.4338e-05	185.73	79.945	36.257	12.377	4.2938e-05	29.268	278.987	365.002	491.162	173.855	412.181	371.450	172.009	178.977	472.559	236.641	177.339	182.407	183.561	190.557	517.328	187.011	-8191	255	
1488.054	1	1	0	0	0.24208	0.22605	0.08979	0.2753	0.10428	0.089222	0.095247	0.15595	0.1225	0.20602	0.12246	0.0073951	0.11689	0.035343	0.10705	0.070722	-1.7083	-2.3125	-1.9792	-2.3479	-2.1729	-2.0312	-2.4167	-2.0083	-2.375	-2.2396	-1.9333	-2.3688	-2.0729	-1.9833	-2.6729	-2.0521	253.888	440.170	280.235	394.169	285.640	408.281	302.282	302.835	186.439	290.750	421.241	517.818	506.834	174.504	469.689	183.124	0.0002353	0.00075741	0.00022676	239.64	9.2028e-06	9.4056e-06	525.4	69.881	6.251e-06	3.5498e-06	164.54	75.752	28.865	9.9675	1.031e-05	26.54	0.0033786	0.0039903	0.0011207	271.15	4.1996e-05	4.3767e-05	543.87	81.161	4.1611e-05	4.2372e-05	184.88	79.876	35.983	12.291	4.1407e-05	29.117	282.864	502.196	390.535	173.428	308.124	518.063	171.689	179.152	404.360	196.557	177.437	182.040	184.061	190.446	261.365	186.704	-8191	255	
1488.150	1	1	0	0	0.26976	0.060543	0.19134	0.083378	0.22219	0.11206	0.2208	0.052487	0.33824	0.10819	0.048243	0.17768	0.1858	0.1049	0.0068238	0.15328	-1.875	-2.375	-1.9292	-2.3875	-2.3208	-2.0187	-2.4417	-2.1083	-2.2979	-2.35	-1.9958	-2.3625	-2.3	-1.8667	-2.5375	-2.0667	302.855	197.691	409.668	333.446	280.446	230.448	457.545	161.207	284.937	202.632	448.068	306.314	168.143	338.131	505.293	441.479	0.00031121	0.0011786	9.2611e-05	238.16	1.1215e-05	9.4884e-06	523.57	70.138	1.0808e-05	9.9276e-06	165.99	75.799	29.192	9.8879	1.9389e-06	26.949	0.0032193	0.0038169	0.0010828	270.87	4.1266e-05	4.2853e-05	543.26	81.203	4.174e-05	4.2123e-05	185.85	80.499	35.99	12.259	4.0606e-05	29.245	275.835	352.316	399.790	173.122	347.794	224.918	172.458	179.074	321.593	420.836	176.645	182.670	184.473	190.305	448.275	186.905	-8191	255	
1488.271	1	1	0	0	0.12444	0.3258	0.084467	0.43052	0.17337	0.14186	0.060862	0.12977	0.17251	0.38083	0.27435	0.13516	0.13149	0.04128	0.14471	0.11769	-1.8479	-2.3667	-2	-2.2833	-2.2958	-2.0438	-2.675	-2.1437	-2.2	-2.5271	-2.2062	-2.3312	-2.2125	-2.1292	-2.65	-2.1479	512.570	448.545	466.553	469.267	480.510	266.561	181.293	246.239	396.881	437.602	516.140	442.509	418.835	266.598	478.429	455.217	0.0003757	0.00049685	0.00020158	243.97	4.5483e-06	6.4468e-06	532.11	69.87	5.0847e-06	8.7171e-06	167.45	75.719	29.333	9.9858	6.5486e-06	26.665	0.0031674	0.0037508	0.0010494	272.5	4.0432e-05	4.1958e-05	545.45	81.241	4.0973e-05	4.1786e-05	186.66	80.309	36.024	12.259	4.0901e-05	29.23	259.759	208.305	170.136	173.430	423.288	278.670	172.151	178.419	400.505	271.160	176.974	182.578	184.261	189.977	306.474	187.075	-8191	255	
1488.365	1	1	0	0	0.21578	0.1828	0.034138	0.079586	0.06921	0.087054	0.20845	0.1633	0.18919	0.21318	0.24022	0.17934	0.28834	0.09958	0.10943	0.0897	-1.6292	-2.3333	-1.9792	-2.2062	-2.3917	-1.9937	-2.3333	-2.325	-2.1167	-2.5229	-2.05	-2.2417	-2.3521	-1.9917	-2.4708	-2.1458	415.672	468.277	198.877	356.678	442.925	418.875	439.603	454.829	442.409	369.597	425.072	505.349	514.584	494.910	172.790	467.104	0.00031682	0.00046393	0.00020185	243.3	3.3596e-06	1.5186e-05	529.69	70.556	6.275e-06	7.9474e-06	168.11	76.257	29.399	9.8474	1.6484e-06	26.7	0.003193	0.0037542	0.001049	272.03	4.0138e-05	4.0947e-05	544.4	80.813	4.0006e-05	4.0913e-05	186.08	80.355	35.935	12.156	4.0761e-05	29.037	244.273	198.801	427.363	172.565	303.413	228.267	172.098	178.837	344.224	359.164	176.909	182.406	183.443	189.677	425.824	186.925	-8191	255	
1488.462	1	1	0	0	0.25589	0.045696	0.18542	0.19274	0.25085	0.11473	0.14767	0.048487	0.33076	0.14464	0.14041	0.17976	0.22505	0.27496	0.22775	0.21387	-1.4312	-2.5708	-2.1688	-2.2188	-2.3208	-2.0604	-2.2687	-2.3187	-1.9854	-2.5104	-2.2521	-2.1917	-2.6	-2.1521	-2.4375	-2.3937	176.470	204.253	180.535	406.901	496.036	441.994	456.875	378.192	199.961	300.965	391.734	174.885	456.151	242.398	312.115	437.133	0.00033285	0.00046108	0.00022503	243.82	9.8337e-06	5.053e-06	529.81	70.443	9.18e-06	9.74e-06	166.6	76.946	29.532	9.8519	7.0901e-06	26.562	0.003205	0.0038053	0.0010678	271.25	4.0572e-05	4.2093e-05	543.85	81.428	4.0878e-05	4.1668e-05	186.12	80.828	36.048	12.172	4.1532e-05	29.12	273.114	244.005	307.331	173.168	326.373	457.690	171.960	179.457	161.682	444.579	176.623	182.271	183.815	189.267	290.663	187.026	-8191	255	
1488.535	1	1	0	0	0.38948	0.10301	0.072677	0.21984	0.11836	0.13913	0.10538	0.19998	0.11434	0.16582	0.059641	0.17313	0.13341	0.36279	0.13086	0.28399	-1.75	-2.5583	-2.0104	-2.2583	-2.6417	-2.1792	-2.3417	-2.4125	-2.1667	-2.5792	-2	-2.1854	-2.4562	-2.0062	-2.2771	-2.525	301.201	206.914	468.178	210.125	230.096	362.112	500.586	325.287	446.535	456.632	176.814	323.530	186.395	340.661	226.225	420.905	0.00016007	0.00085882	0.00013788	242.74	1.2001e-05	4.9262e-06	530.64	69.937	5.5619e-06	5.6301e-06	167.89	75.286	29.995	9.8832	7.1084e-06	27.02	0.0031869	0.0038176	0.0010801	272.13	4.0901e-05	4.2536e-05	545.95	81.315	4.1065e-05	4.2139e-05	187.15	80.759	36.568	12.222	4.1221e-05	29.255	284.953	455.273	363.551	173.137	363.893	298.559	171.871	179.045	457.066	161.678	177.458	182.556	184.157	190.882	297.669	186.848	-8191	255	
1488.654	1	1	0	0	0.06872	0.15321	0.31059	0.14584	0.04753	0.13299	0.098971	0.3975	0.083583	0.22312	0.34594	0.11907	0.040433	0.12114	0.060365	0.084047	-1.4375	-2.3312	-2.2625	-2.075	-2.4646	-2.3271	-2.4875	-2.375	-1.8729	-2.4	-2.3396	-2.0542	-2.2917	-2.1813	-2.0792	-2.3521	163.568	361.121	218.858	164.927	215.179	257.711	176.961	511.624	358.629	208.992	482.137	270.257	345.838	185.585	372.265	318.356	0.00029855	0.0015533	4.2663e-05	244.87	1.211e-05	6.5162e-06	531.68	70.547	1.2117e-05	6.0318e-06	167.75	76.366	29.518	10.015	1.8142e-06	26.288	0.0031499	0.0037714	0.0010514	272.53	4.0073e-05	4.1601e-05	544.36	80.858	4.032e-05	4.1751e-05	185.96	80.415	36.231	12.217	4.1255e-05	28.973	272.326	495.173	213.659	173.216	162.090	315.502	171.845	179.578	324.828	423.073	176.947	182.668	184.158	190.279	431.335	187.106	-8191	255	
1488.750	1	1	0	0	0.18695	0.14346	0.10337	0.074282	0.27633	0.12283	0.17252	0.16749	0.23163	0.063396	0.064203	0.14964	0.17225	0.11559	0.094987	0.10898	-1.4875	-2.4	-2.35	-2.0333	-2.4417	-2.2083	-2.4208	-2.4875	-2.0917	-2.2938	-2.3396	-1.8646	-2.3271	-1.9271	-2.2167	-2.3854	484.072	236.378	280.133	498.932	364.283	173.211	326.121	338.817	454.660	267.827	518.739	411.381	193.622	498.661	301.838	412.574	0.00035957	0.00080585	7.6117e-05	237.31	4.9874e-06	1.0561e-05	528.72	69.702	2.9778e-06	2.1323e-06	167.62	76.493	29.341	10.055	8.8994e-06	26.705	0.0031813	0.0038606	0.0010641	269.52	3.991e-05	4.1781e-05	542.65	80.514	3.9563e-05	4.1396e-05	185.71	80.309	36.114	12.181	4.0132e-05	28.953	255.175	245.011	312.089	172.867	214.434	261.825	171.862	179.635	366.808	474.651	177.610	182.363	183.255	190.038	219.855	186.828	-8191	255	
1488.846	1	1	0	0	0.13897	0.23745	0.11717	0.11301	0.1172	0.25475	0.40286	0.14198	0.39332	0.066747	0.35091	0.22543	0.094546	0.087756	0.17812	0.12769	-1.45	-2.4333	-2.1562	-1.8875	-2.3125	-2.1188	-2.1604	-2.5104	-2.1354	-2.3542	-2.3667	-2.0083	-2.4708	-2.1021	-1.9312	-2.7812	368.960	462.345	483.520	268.189	286.721	485.573	445.929	485.794	322.894	249.042	488.215	362.123	400.068	403.197	264.715	295.495	0.00018451	0.00097782	0.00033323	239.9	8.4387e-07	5.3603e-06	525.98	70.463	4.2163e-06	1.0656e-05	166.53	76.626	29.742	9.9404	4.5117e-06	26.415	0.0031298	0.0037721	0.0010527	269.66	4.0019e-05	4.2113e-05	542.61	80.972	4.0236e-05	4.2377e-05	186.28	80.579	36.49	12.289	4.2044e-05	29.058	268.016	361.130	410.810	173.253	257.905	214.089	172.130	179.103	510.613	486.734	177.467	182.666	184.547	190.169	375.960	186.913	-8191	255	
1488.942	1	1	0	0	0.24159	0.32322	0.11566	0.20386	0.079515	0.13988	0.11051	0.28918	0.22262	0.15922	0.14868	0.073975	0.11111	0.19437	0.22972	0.095506	-1.4937	-2.2021	-2.3958	-2.0354	-2.3646	-2.3125	-2.2083	-2.5583	-2.1479	-2.2354	-2.4938	-2.0687	-2.3375	-2.2687	-2.1229	-2.3604	181.194	207.507	341.557	371.439	290.150	517.565	276.641	497.799	447.526	494.166	497.654	459.641	419.638	356.682	438.064	404.161	0.0002114	0.0011205	6.9582e-05	237.71	8.3451e-06	1.2464e-05	522.98	69.188	6.166e-06	7.2745e-06	168.58	76.053	29.645	9.9654	4.0613e-06	26.077	0.0032995	0.0040287	0.0011158	271.29	4.3123e-05	4.4842e-05	541.24	81.532	4.3433e-05	4.5687e-05	188.81	80.568	36.961	12.475	4.3704e-05	28.995	250.081	252.021	435.166	173.523	254.475	207.686	172.059	179.828	356.696	283.301	177.295	182.353	183.296	189.452	498.377	186.857	-8191	255	
1489.063	1	1	0	0	0.3741	0.19774	0.20863	0.18009	0.15441	0.08517	0.017204	0.25131	0.16685	0.13765	0.11609	0.15642	0.053378	0.071882	0.23839	0.10481	-1.7812	-2.0604	-2.5062	-2.0646	-2.4542	-2.3125	-2.025	-2.4792	-2.1771	-2.2417	-2.6104	-2.2354	-2.3104	-2.2562	-2.1208	-2.3417	195.957	205.095	491.909	270.332	277.006	296.783	450.790	163.572	428.551	289.895	205.539	189.340	483.584	259.475	473.713	451.188	0.0002024	0.00072533	0.00026042	237.99	6.5625e-06	1.1771e-05	523.91	69.868	6.3381e-06	8.4837e-06	166.84	75.12	29.479	9.8053	4.4508e-06	26.029	0.0033176	0.0039997	0.0010982	270.16	4.1723e-05	4.2636e-05	541.86	81.269	4.1395e-05	4.2294e-05	186.12	79.674	36.227	12.19	4.2074e-05	28.674	262.642	191.690	344.378	173.126	442.555	386.598	171.724	179.547	256.598	261.899	177.513	182.417	183.801	189.553	291.526	186.504	-8191	255	
1489.135	1	1	0	0	0.11326	0.32149	0.28943	0.22688	0.055992	0.26136	0.029168	0.26131	0.11861	0.22516	0.21592	0.10795	0.063573	0.06476	0.25522	0.010267	-1.8104	-2.0646	-2.5354	-2.2167	-2.2958	-2.3854	-1.9583	-2.575	-2.3312	-2.0958	-2.4917	-2.1437	-2.1813	-2.1771	-2.1	-2.5271	329.338	461.478	223.875	208.133	336.030	477.563	403.540	437.488	252.051	473.029	291.186	461.873	191.556	240.288	173.593	396.118	0.00033063	0.00042783	0.00017032	239.29	2.6597e-06	1.7896e-06	519.85	69.078	9.2413e-07	3.9928e-06	165.65	75.313	28.785	9.6515	7.0675e-06	26.023	0.0033059	0.003988	0.0011033	270.59	4.3055e-05	4.4562e-05	540.87	81.39	4.2849e-05	4.3856e-05	186.48	79.548	36.028	12.194	4.248e-05	28.677	276.293	236.863	254.383	173.179	202.364	263.085	172.265	179.704	281.896	348.877	177.176	182.448	183.471	190.610	517.449	186.512	-8191	255	
1489.255	1	1	0	0	0.31825	0.24595	0.25374	0.17501	0.28923	0.046141	0.14327	0.10849	0.096047	0.16928	0.05111	0.13966	0.15815	0.16642	0.020627	0.31701	-1.8083	-2.1229	-2.4521	-2.2687	-2.2854	-2.5458	-2.2438	-2.3563	-2.4729	-1.9833	-2.4938	-2.0542	-2.2167	-2.5021	-1.9062	-2.4146	310.813	229.526	421.911	459.427	396.692	422.906	385.123	447.287	246.908	327.508	464.678	429.064	219.464	172.323	407.740	504.962	0.00017278	0.00037854	0.00028494	240.99	9.0151e-06	2.1716e-06	527.22	69.604	1.9262e-07	1.0136e-06	165.88	74.963	29.145	9.7956	1.2123e-05	26.044	0.0033418	0.0039855	0.0011169	271.94	4.3323e-05	4.3916e-05	543.4	81.217	4.2733e-05	4.4293e-05	186.53	79.405	36.243	12.223	4.2831e-05	28.823	294.832	377.382	229.185	173.127	378.434	263.007	172.418	179.081	234.739	323.483	177.578	182.688	183.442	189.144	354.829	186.672	-8191	255	
1489.351	1	1	0	0	0.097435	0.32535	0.11628	0.28222	0.17271	0.20774	0.10622	0.15235	0.17429	0.13613	0.076233	0.11903	0.069936	0.059948	0.035222	0.33804	-1.7854	-1.9875	-2.6417	-2.1562	-2.1604	-2.4875	-2.25	-2.3854	-2.2313	-2.0417	-2.4938	-2.0812	-2.0854	-2.4354	-2.1458	-2.3792	420.495	169.330	500.285	199.506	302.621	474.059	481.029	338.469	378.161	180.171	245.333	484.666	471.175	331.493	264.901	256.668	0.00037165	0.00015785	0.00018896	239.74	1.4588e-05	1.4082e-05	527.37	68.884	4.5887e-06	9.3868e-06	164.74	74.538	28.199	9.7848	1.3251e-05	25.611	0.0033496	0.0040228	0.0011401	271.43	4.355e-05	4.4795e-05	542.6	81.488	4.3973e-05	4.5275e-05	186.59	79.142	36.146	12.29	4.5386e-05	28.728	265.593	486.793	397.454	172.813	414.315	322.862	171.982	179.134	179.234	206.887	177.389	182.463	184.000	189.891	315.467	187.422	-8191	255	
1489.446	1	1	0	0	0.041462	0.15136	0.10092	0.20895	0.31998	0.24476	0.22428	0.2331	0.1589	0.29379	0.11254	0.19714	0.32189	0.032579	0.15275	0.17299	-1.8458	-1.9583	-2.2958	-2.4604	-2.2083	-2.5792	-2.3104	-2.3688	-2.5083	-1.9667	-2.3521	-2.5354	-2.05	-2.4667	-2.1229	-2.2292	513.813	322.568	495.892	398.430	226.683	384.610	445.758	433.273	247.969	230.970	171.199	212.198	416.657	209.923	359.167	420.131	0.00028038	0.0010717	0.00026399	235.54	5.2755e-06	1.3497e-05	520.14	68.41	6.1426e-06	1.0272e-05	162.39	73.485	29.067	9.7272	7.9211e-06	25.921	0.0034942	0.0041747	0.0011784	271.98	4.4525e-05	4.55e-05	539.9	80.832	4.3212e-05	4.4442e-05	184.87	78.503	35.946	12.183	4.3159e-05	28.516	266.818	464.883	489.602	173.230	449.488	292.328	172.133	179.645	472.357	450.134	176.811	182.202	182.867	190.319	336.308	187.180	-8191	255	
1489.544	1	1	0	0	0.19601	0.407	0.16403	0.1348	0.28269	0.046656	0.1176	0.16048	0.11406	0.12277	0.16107	0.28919	0.11554	0.10725	0.18518	0.13591	-2.1562	-1.7875	-2.3396	-2.2438	-2.0583	-2.4667	-2.1708	-2.2146	-2.5479	-2.0979	-2.375	-2.4062	-2.3521	-2.4646	-2.1667	-2.1708	232.967	378.629	247.622	457.089	403.342	489.488	218.480	483.759	204.494	214.691	452.252	181.285	515.701	383.736	418.257	196.996	0.00016827	0.00043428	0.00012443	236.23	7.1205e-06	5.6384e-07	518.77	68.204	5.3623e-06	3.0519e-06	163.95	74.087	28.585	9.919	2.6134e-06	25.826	0.0033025	0.0040169	0.0011388	269.9	4.2347e-05	4.4152e-05	538.82	80.578	4.252e-05	4.3281e-05	185.04	78.665	35.542	12.204	4.2483e-05	28.512	256.251	290.545	357.290	173.049	318.949	512.414	172.292	179.176	225.286	275.266	176.977	181.924	184.457	189.899	367.034	186.526	-8191	255	
1489.663	1	1	0	0	0.04852	0.11875	0.13979	0.13924	0.25795	0.11358	0.27565	0.089205	0.18872	0.098486	0.14501	0.13689	0.1536	0.044359	0.15881	0.24093	-2.0687	-2.0292	-2.2208	-2.4542	-1.9813	-2.4917	-2.2125	-2.0875	-2.3792	-2.0292	-2.4042	-2.3854	-2.0708	-2.4542	-2.1792	-2.2062	321.060	395.692	430.043	343.643	431.123	175.337	186.881	515.752	495.202	281.223	434.783	204.800	338.098	216.095	362.152	469.298	0.00024221	0.00088828	0.0001008	235.53	4.9555e-06	9.0569e-06	524.26	68.463	5.5687e-06	4.3084e-06	162.3	74.195	28.495	9.9084	6.7745e-06	26.028	0.0032739	0.0039783	0.0011272	269.52	4.2624e-05	4.4917e-05	541.58	80.731	4.3388e-05	4.5029e-05	185	78.839	36.011	12.309	4.4131e-05	28.689	246.902	294.607	367.258	173.113	298.281	339.518	172.221	178.734	437.045	208.997	177.120	182.782	184.303	190.081	242.730	187.111	-8191	255	
1489.734	1	1	0	0	0.17169	0.38011	0.31654	0.17576	0.024611	0.14904	0.31847	0.074725	0.24005	0.03039	0.163	0.14529	0.21334	0.18064	0.1798	0.18527	-2.2188	-2.1063	-2.2208	-2.3583	-2.0521	-2.3875	-2.4167	-1.9937	-2.6271	-2.0875	-2.4188	-2.5563	-1.7917	-2.5333	-2.2313	-2.1521	246.395	389.824	443.831	479.963	251.767	371.389	456.246	452.957	309.042	417.102	204.847	489.254	340.224	370.803	453.209	379.942	0.00032227	0.00071779	0.00027081	236.76	9.0387e-06	1.0894e-05	515.85	68.659	6.6139e-06	8.3091e-06	161.72	73.696	28.436	9.8033	5.6398e-06	25.661	0.0034303	0.0040828	0.0011622	270.43	4.2888e-05	4.5192e-05	538.33	80.671	4.3275e-05	4.5095e-05	184.8	78.312	36.008	12.329	4.509e-05	28.476	258.004	414.619	353.308	173.207	233.081	340.581	171.929	178.589	183.724	240.755	177.372	182.467	184.233	189.641	330.939	187.245	-8191	255	
1489.855	1	1	0	0	0.11673	0.27703	0.10065	0.10301	0.27249	0.25267	0.20679	0.10981	0.026379	0.056369	0.19792	0.088655	0.29042	0.099696	0.076053	0.11985	-1.9896	-2.2396	-2.0563	-2.4854	-2.0021	-2.4771	-2.2604	-1.9188	-2.6292	-2.3521	-2.1813	-2.6771	-2.1083	-2.3604	-2.4021	-2.0708	471.787	186.884	464.089	246.732	222.212	192.189	463.702	185.504	421.503	487.430	200.504	487.112	425.149	505.567	216.908	283.275	0.0002011	0.0013073	0.00016801	234.52	4.7239e-06	3.3275e-06	512.55	68.366	4.3608e-06	8.6738e-06	159.88	72.367	28.358	9.6245	1.2309e-05	25.344	0.0035443	0.0042832	0.0012062	271.35	4.5433e-05	4.7546e-05	536.83	80.907	4.5733e-05	4.7064e-05	184.08	77.979	36.078	12.37	4.6307e-05	28.399	253.238	294.788	181.987	173.004	395.167	378.426	172.068	179.311	216.489	286.823	177.186	182.239	184.218	189.896	398.769	186.755	-8191	255	
1489.951	1	1	0	0	0.25609	0.39742	0.22874	0.085997	0.12651	0.075684	0.17229	0.042462	0.15297	0.085565	0.10505	0.11809	0.034997	0.053717	0.20929	0.20752	-2.0479	-2.2562	-2.2792	-2.6042	-2.1104	-2.2729	-2.425	-1.9708	-2.6042	-2.2771	-2.1937	-2.5187	-2.1354	-2.2396	-2.5042	-2.2542	487.347	381.793	408.891	170.491	449.535	331.791	357.090	299.903	228.464	406.240	376.813	474.390	503.906	321.083	443.723	397.799	0.00022028	0.00088428	0.00015064	236.46	1.0001e-05	6.5543e-06	521.03	67.654	8.8016e-06	2.9092e-06	164.1	72.37	28.594	9.641	1.4319e-05	25.294	0.0035669	0.0043281	0.0012047	271.47	4.5479e-05	4.7595e-05	540.79	80.762	4.5816e-05	4.6827e-05	185.03	77.793	36.17	12.272	4.5444e-05	28.298	263.075	232.539	240.252	173.473	298.926	338.746	171.677	178.813	490.319	383.565	177.497	182.630	183.917	189.406	193.917	187.295	-8191	255	
1490.047	1	1	0	0	0.18571	0.11571	0.14615	0.19877	0.27521	0.059103	0.086917	0.24505	0.082506	0.092063	0.31739	0.13156	0.11584	0.22652	0.042346	0.13289	-2.0521	-2.3458	-2.1458	-2.5854	-2.0021	-2.2792	-2.4958	-1.9208	-2.3563	-2.3604	-2.1396	-2.425	-2.0833	-2.1208	-2.3896	-2.1583	446.651	422.184	403.729	169.975	305.385	232.852	511.194	233.846	375.691	436.101	393.646	205.874	250.851	453.621	410.713	282.069	0.00029414	0.00055552	0.00015886	235.99	2.736e-06	1.295e-05	514.22	67.379	1.3642e-05	4.3895e-06	161.47	72.933	28.153	9.6605	3.3895e-06	25.159	0.0035806	0.0042679	0.0011861	271.53	4.5502e-05	4.7523e-05	539.37	80.703	4.6298e-05	4.7664e-05	184.9	78.289	36.352	12.359	4.6913e-05	28.465	254.456	360.653	454.726	173.441	516.227	306.491	172.053	178.823	413.323	439.861	176.905	182.182	183.959	190.336	388.521	186.520	-8191	255	
1490.143	1	1	0	0	0.33165	0.18239	0.11997	0.19752	0.13454	0.041416	0.076491	0.12073	0.18717	0.041148	0.18393	0.10242	0.21626	0.044763	0.13681	0.23636	-1.8875	-2.1813	-2.0104	-2.5167	-2.1479	-2.1917	-2.4417	-2.0312	-2.5604	-2.3417	-2.2562	-2.4979	-2.2313	-1.9604	-2.4062	-2.0104	255.356	382.446	403.291	204.509	253.698	330.436	448.099	433.154	207.443	201.086	315.919	489.731	364.381	490.715	279.006	349.306	0.00022922	0.0013383	0.00038359	233.63	3.2074e-06	6.5401e-06	514.15	67.104	3.9358e-08	7.87e-06	160.96	71.825	27.883	9.6193	3.3027e-06	25.161	0.0036611	0.0043616	0.0012124	271.45	4.6319e-05	4.7849e-05	539.49	80.277	4.6638e-05	4.7515e-05	183.18	77.675	36.098	12.238	4.6692e-05	28.299	271.465	426.090	320.186	173.231	505.505	354.133	172.212	179.634	378.125	177.265	176.489	182.683	184.230	189.813	227.422	186.269	-8191	255	
1490.239	1	1	0	0	0.047485	0.22084	0.088136	0.066026	0.15418	0.12209	0.36265	0.21363	0.22831	0.25485	0.17777	0.36179	0.12375	0.19764	0.13047	0.21347	-1.7917	-2.2854	-2.0979	-2.3625	-2.2625	-2.2667	-2.5104	-2.1708	-2.1333	-2.5354	-2.0958	-2.3833	-2.2229	-2.0375	-2.4208	-2.1	516.667	183.112	238.680	414.218	455.132	407.453	460.129	480.678	516.520	353.615	365.223	419.278	211.304	273.289	479.678	476.119	0.00032059	0.00085033	6.48e-05	234.21	8.5234e-06	7.0337e-06	510.79	67.071	3.743e-06	7.0173e-06	158.66	71.279	27.961	9.7245	8.7585e-06	25.332	0.003632	0.004363	0.0012199	270	4.6371e-05	4.7639e-05	535.05	79.949	4.6152e-05	4.6994e-05	181.39	76.82	35.881	12.356	4.6625e-05	28.366	218.643	272.781	378.375	173.680	399.484	217.124	172.240	179.319	299.607	256.517	177.149	182.694	183.727	190.133	492.763	186.405	-8191	255	
1490.358	1	1	0	0	0.23981	0.1367	0.26404	0.1488	0.14479	0.17145	0.19107	0.20253	0.17011	0.29877	0.21751	0.032466	0.28344	0.095585	0.096035	0.15516	-1.8188	-2.1937	-1.8854	-2.2167	-2.3396	-1.8625	-2.5375	-2.175	-2.2104	-2.4917	-2.0979	-2.5438	-2.2146	-2.0187	-2.4667	-2.1417	495.634	163.033	379.856	409.548	299.320	251.172	241.896	252.893	401.586	203.812	400.465	356.645	340.415	216.951	479.255	241.719	0.00040672	0.00091063	0.00029727	233.92	6.2533e-06	1.2567e-05	509.1	65.989	1.4896e-05	5.449e-06	159.25	71.066	27.543	9.6982	1.1699e-05	25.515	0.0036918	0.0043468	0.0012205	270.26	4.71e-05	4.8349e-05	532.47	79.97	4.6506e-05	4.7398e-05	182.16	76.851	35.598	12.329	4.5925e-05	28.352	260.442	241.863	186.505	173.064	399.393	212.107	171.980	179.270	339.769	239.795	176.643	182.362	183.606	190.033	362.100	186.140	-8191	255	
1490.432	1	1	0	0	0.21842	0.16874	0.10705	0.11171	0.033614	0.11858	0.21825	0.29952	0.056026	0.15184	0.28156	0.22439	0.041411	0.17142	0.079094	0.10359	-1.5833	-2.4271	-2.0438	-2.3083	-2.2875	-1.9042	-2.4354	-2.1271	-2.1625	-2.625	-2.1437	-2.2708	-2.3729	-1.9062	-2.4896	-2.325	413.976	298.613	288.662	281.805	263.346	194.234	424.872	291.175	390.060	515.226	438.829	233.223	410.935	236.048	356.109	339.972	0.00016638	7.2722e-05	0.00022368	230.18	8.1236e-06	7.2754e-06	511	67.344	8.5565e-06	2.4446e-06	158.59	72.12	28.029	9.6766	2.2723e-06	25.225	0.0035979	0.0042557	0.0011829	268.35	4.4827e-05	4.6868e-05	535.34	80.451	4.5984e-05	4.7105e-05	182.32	77.391	35.908	12.302	4.6233e-05	28.299	252.464	360.591	375.073	173.412	381.301	287.364	171.446	179.321	291.016	253.583	176.133	182.699	184.419	189.984	512.653	186.737	-8191	255	
1490.528	1	1	0	0	0.2623	0.078251	0.28032	0.068623	0.22867	0.023093	0.17758	0.14579	0.41021	0.37481	0.23329	0.15453	0.12309	0.26332	0.24803	0.22271	-1.625	-2.4125	-2.0583	-2.2396	-2.5021	-2.0312	-2.3	-2.2083	-2.1729	-2.4854	-2.1875	-2.45	-2.5146	-2.0563	-2.4271	-2.1625	393.582	396.549	269.485	341.116	205.896	321.957	416.817	425.514	417.833	399.819	232.321	340.615	266.311	168.297	356.770	439.020	0.00026284	0.00052503	0.0001847	233.77	3.2147e-06	3.0165e-06	510.49	66.153	7.035e-06	6.9506e-06	158.05	71.312	27.618	9.5833	6.6332e-06	25.228	0.0035839	0.004306	0.0012085	268.93	4.5863e-05	4.7795e-05	533.75	80.077	4.5997e-05	4.76e-05	181.89	76.779	35.722	12.287	4.7532e-05	28.233	240.008	410.626	436.946	173.604	261.668	280.272	172.155	179.018	264.388	311.306	177.211	181.933	184.257	189.116	310.864	186.610	-8191	255	
1490.624	1	1	0	0	0.23341	0.31257	0.082072	0.1476	0.14982	0.26744	0.21175	0.09061	0.23228	0.252	0.18347	0.093445	0.12009	0.19369	0.076799	0.24907	-1.5271	-2.3896	-2.0896	-2.2146	-2.4521	-1.9604	-2.3667	-2.2958	-2.0396	-2.5375	-2.3312	-2.2	-2.5208	-2.1271	-2.2667	-2.4292	332.223	432.890	476.853	178.025	188.386	259.877	371.904	242.228	182.733	442.564	285.028	463.463	474.650	468.185	444.126	384.132	0.00017172	0.00054679	0.00028792	233.15	6.856e-06	1.4758e-05	508.53	66.277	6.654e-07	2.5346e-06	158.46	71.207	27.771	9.654	1.1409e-05	24.897	0.0036609	0.0044401	0.0012329	270.86	4.706e-05	4.8227e-05	533.87	80.146	4.5631e-05	4.6685e-05	181.71	76.446	35.762	12.276	4.5963e-05	28.026	270.695	495.776	264.627	173.614	455.925	230.776	172.164	179.291	180.447	301.423	176.716	181.875	184.823	190.185	349.451	186.810	-8191	255	
1490.743	1	1	0	0	0.16469	0.17342	0.18772	0.051842	0.39472	0.24724	0.24047	0.29651	0.13367	0.24497	0.13178	0.18995	0.050212	0.15723	0.15574	0.10356	-1.5812	-2.4646	-2.1167	-2.0146	-2.4292	-1.9937	-2.4	-2.3438	-2.0687	-2.4854	-2.1688	-2.0812	-2.4813	-2.2188	-2.2125	-2.4792	401.594	314.260	347.041	170.045	184.098	482.908	428.104	494.386	204.188	261.836	311.822	498.074	421.828	220.564	411.364	395.220	0.00018393	0.00049909	0.00017374	236.36	3.4324e-06	9.0789e-06	513.02	66.637	3.9828e-06	3.367e-06	157.63	70.546	28.118	9.4859	1.3575e-05	25.285	0.003541	0.00429	0.0011983	270.84	4.5657e-05	4.7557e-05	535.56	80.094	4.6331e-05	4.8681e-05	182.19	76.467	35.987	12.319	4.7516e-05	28.289	307.496	198.251	416.760	173.274	305.705	303.190	172.124	179.629	182.638	372.957	177.180	183.025	184.168	189.641	259.640	186.756	-8191	255	
1490.839	1	1	0	0	0.32328	0.055332	0.091093	0.17912	0.15007	0.23159	0.11379	0.13686	0.029829	0.22724	0.24041	0.08953	0.32307	0.11154	0.057603	0.14944	-1.4646	-2.4208	-2.3104	-2.1854	-2.7188	-2.1771	-2.2771	-2.5979	-2.0229	-2.2979	-2.3083	-2.1771	-2.5875	-2.175	-2.2521	-2.4792	514.007	213.829	436.805	469.760	418.265	226.799	329.245	197.340	220.863	444.483	403.901	435.518	472.925	170.292	282.780	481.163	0.00030811	0.00030306	0.00015741	234.49	2.5841e-06	1.1502e-05	509.68	66.297	3.9232e-07	5.6134e-06	155.31	70.839	27.982	9.6913	4.2397e-06	24.769	0.0036522	0.0044392	0.0012425	270.24	4.7154e-05	4.8918e-05	535.39	80.436	4.6564e-05	4.8621e-05	181.92	76.68	36.034	12.36	4.7229e-05	28.068	269.999	405.689	284.913	173.297	436.797	301.953	172.330	179.239	466.873	163.989	177.209	182.781	183.557	189.905	312.733	187.097	-8191	255	
1490.935	1	1	0	0	0.10737	0.033766	0.15093	0.11145	0.43374	0.089062	0.016479	0.14957	0.17444	0.25098	0.16411	0.20743	0.12008	0.39788	0.14027	0.051541	-1.6396	-2.3104	-2.3208	-1.9729	-2.425	-2.1542	-2.2042	-2.5208	-1.9354	-2.2938	-2.375	-1.8958	-2.3396	-2.1437	-2.1729	-2.4396	162.952	469.047	303.563	405.474	348.889	304.888	512.639	371.358	362.476	438.828	435.656	230.095	217.872	478.988	244.356	497.359	0.0003321	0.00012603	0.00013423	234.34	5.0303e-06	6.5427e-06	508.88	66.34	6.1914e-06	5.0497e-06	156.87	71.029	27.652	9.5068	5.6023e-06	24.85	0.0036444	0.0044167	0.0012299	269.79	4.6705e-05	4.8775e-05	533.23	80.158	4.5954e-05	4.8044e-05	181.08	76.458	35.8	12.292	4.6918e-05	27.959	253.220	360.611	356.585	173.740	265.018	176.859	172.332	179.355	195.972	516.310	176.594	182.461	183.720	189.721	272.700	186.678	-8191	255	
1491.031	1	1	0	0	0.19032	0.12493	0.20532	0.024583	0.028361	0.3146	0.11896	0.10143	0.16029	0.077472	0.099129	0.1081	0.24046	0.13253	0.33543	0.12795	-1.5688	-2.125	-2.1917	-1.9896	-2.3333	-2.2542	-2.1708	-2.5146	-2.0521	-2.2375	-2.4188	-2.1604	-2.5417	-2.1	-2.0625	-2.5125	317.535	358.720	233.042	310.956	185.625	373.472	452.379	498.227	233.515	381.890	237.940	205.678	356.962	268.293	497.979	331.006	0.00020836	0.00083016	0.00036437	231.91	4.9415e-06	4.595e-06	510.13	66.425	1.4712e-05	9.9678e-06	158.61	70.502	27.906	9.5627	1.5284e-05	24.938	0.0036284	0.00438	0.0012177	269.4	4.6825e-05	4.8098e-05	531.3	79.734	4.6138e-05	4.774e-05	180.46	76.125	35.939	12.312	4.5841e-05	28.005	245.099	349.906	356.562	173.689	245.061	270.798	172.405	178.736	341.166	490.482	176.772	182.882	183.866	189.598	355.989	186.526	-8191	255	
1491.128	1	1	0	0	0.11275	0.1421	0.043057	0.087579	0.094541	0.16065	0.21543	0.34576	0.21456	0.17036	0.2179	0.24623	0.24512	0.35858	0.27208	0.21279	-1.7458	-2.2812	-2.375	-2.0687	-2.2042	-2.4583	-2.2042	-2.5771	-2.1458	-2.1813	-2.4729	-2.1479	-2.4021	-2.2542	-2.1292	-2.4292	254.226	510.042	466.896	432.855	243.297	469.492	512.872	452.045	452.352	190.767	447.703	466.806	342.508	188.693	265.423	207.577	0.0001664	0.00093663	0.00028868	233.5	1.9083e-06	9.6977e-06	503.8	66.606	6.6798e-06	1.0033e-05	159.2	70.846	27.85	9.683	4.0354e-06	25.097	0.0035693	0.0042713	0.0011983	267.88	4.5623e-05	4.743e-05	531.05	80.004	4.4828e-05	4.649e-05	181.22	76.21	35.857	12.278	4.4603e-05	28.064	264.689	296.972	198.907	173.084	188.044	243.092	172.399	179.566	289.072	203.596	176.917	182.296	184.000	189.726	268.957	186.640	-8191	255	
1491.224	1	1	0	0	0.11493	0.39492	0.033791	0.123	0.30313	0.23048	0.20412	0.082678	0.2281	0.29206	0.16475	0.30252	0.16541	0.1491	0.11013	0.21605	-1.6625	-2.0292	-2.5021	-2.1063	-2.3146	-2.3292	-2.1458	-2.2438	-2.2062	-2.2062	-2.4542	-2.2083	-2.5833	-2.4521	-1.9708	-2.5083	226.203	402.195	241.125	284.437	375.570	479.190	450.072	438.682	334.600	338.261	335.698	496.449	508.491	266.521	505.652	330.951	0.0002169	0.0025619	0.0002294	233.55	1.0283e-05	1.079e-05	512.59	67.69	2.6658e-06	1.446e-05	158.82	70.417	28.313	9.6664	9.4737e-06	25.058	0.0034752	0.0041841	0.0011637	267.41	4.4342e-05	4.5547e-05	529.87	79.804	4.4122e-05	4.5725e-05	179.89	75.897	35.852	12.267	4.483e-05	28.003	230.918	280.513	519.837	173.190	350.169	174.352	171.793	179.645	361.802	268.833	177.026	182.138	183.702	189.440	453.998	186.584	-8191	255	
1491.344	1	1	0	0	0.065072	0.058711	0.065833	0.32287	0.15724	0.11551	0.13763	0.14257	0.13656	0.18725	0.31253	0.19398	0.059858	0.14837	0.23785	0.3979	-1.7437	-2.1042	-2.3125	-2.1813	-2.3292	-2.5083	-2.2229	-2.4104	-2.4021	-2.0062	-2.5479	-2.1771	-2.1854	-2.5458	-1.9146	-2.3396	333.016	308.330	181.597	487.185	270.776	345.214	206.817	505.156	517.896	293.849	429.854	476.572	445.919	410.811	273.954	437.836	0.00028331	0.00072453	6.2288e-05	230.97	6.0908e-06	5.528e-06	509.26	66.85	4.7487e-06	7.8548e-06	158.08	71.297	28.558	9.6408	1.1224e-05	24.845	0.0035498	0.0042462	0.0011931	268.3	4.5806e-05	4.6414e-05	528.89	79.74	4.3954e-05	4.5429e-05	179.91	76.226	35.893	12.192	4.3504e-05	27.924	261.449	276.119	284.038	173.133	361.277	356.323	172.087	179.276	363.240	369.385	176.932	182.525	184.483	189.702	181.870	186.807	-8191	255	
1491.439	1	1	0	0	0.057683	0.20048	0.10006	0.07195	0.036949	0.080995	0.35039	0.21499	0.11244	0.11721	0.10692	0.15165	0.070939	0.3074	0.21603	0.068851	-1.8438	-2.0438	-2.4583	-2.0958	-2.2542	-2.4521	-1.8896	-2.2354	-2.2771	-2.1042	-2.5125	-2.1875	-2.1479	-2.3896	-1.9583	-2.35	507.803	459.367	200.532	427.060	256.638	520.484	435.859	510.971	231.610	502.031	412.902	440.412	259.341	354.433	303.653	165.253	0.0003174	0.00075376	0.00020013	235.82	3.0993e-06	3.5841e-06	510.18	67.623	6.1698e-06	1.8989e-05	160.42	70.803	28.197	9.7014	1.1858e-05	25.233	0.0033709	0.003983	0.0011119	267.47	4.2612e-05	4.402e-05	528.15	79.526	4.2865e-05	4.3899e-05	180.82	76.39	35.787	12.251	4.4253e-05	27.981	249.067	187.106	214.603	173.124	162.435	191.404	172.030	179.671	216.832	302.056	177.130	182.006	184.405	189.534	185.887	186.844	-8191	255	
1491.535	1	1	0	0	0.2432	0.29211	0.21222	0.16726	0.088449	0.08007	0.021585	0.26267	0.070575	0.16155	0.14277	0.37045	0.12118	0.27988	0.1155	0.19033	-1.7083	-2.2208	-2.3729	-1.9458	-2.2458	-2.5792	-2.025	-2.3792	-2.3208	-2.1104	-2.2979	-2.0875	-2.0729	-2.4583	-2.0979	-2.2271	255.285	258.053	518.619	447.956	484.074	305.269	256.651	172.289	220.983	217.760	495.811	439.176	466.533	253.396	440.635	414.055	0.00010857	0.00080051	2.6118e-05	234.45	1.2038e-05	3.48e-06	509.56	67.597	1.0963e-05	7.9923e-06	160.29	72.028	28.799	9.9092	1.387e-06	24.838	0.0034909	0.0041935	0.0011819	269.56	4.5892e-05	4.7216e-05	531.62	81.072	4.5872e-05	4.6907e-05	183.58	77.248	36.421	12.306	4.4552e-05	27.962	245.948	271.048	223.256	172.961	180.057	233.369	172.038	179.468	207.112	409.935	176.781	182.702	183.571	189.771	496.943	186.990	-8191	255	
1491.656	1	1	0	0	0.12439	0.52531	0.0063377	0.19027	0.10624	0.21216	0.42009	0.11995	0.24686	0.32275	0.20673	0.28648	0.2316	0.21321	0.3175	0.18741	-1.8125	-1.9396	-2.3229	-2.3125	-2	-2.3521	-2.125	-2.3542	-2.3542	-2.0417	-2.3729	-2.3167	-2	-2.45	-2.1208	-2.0271	303.237	418.515	426.127	450.576	507.377	256.745	452.614	164.895	451.281	172.932	383.112	337.831	169.744	407.018	377.944	479.037	0.00027492	0.0019402	0.00013202	234.1	5.0227e-06	5.6291e-06	510.43	67.624	5.1402e-06	7.2519e-06	159.36	71.175	28.834	9.6641	2.6103e-06	24.716	0.0034387	0.004094	0.0011557	268.63	4.3855e-05	4.559e-05	530.7	80.381	4.4418e-05	4.5333e-05	182.41	76.612	36.032	12.197	4.4073e-05	27.692	268.652	320.173	291.685	173.634	282.110	263.414	171.803	179.253	412.809	238.187	177.292	182.748	183.896	190.165	334.584	187.068	-8191	255	
1491.727	1	1	0	0	0.37298	0.098097	0.097814	0.30813	0.097504	0.15902	0.14554	0.15151	0.075095	0.093951	0.054632	0.035335	0.20006	0.14831	0.082285	0.17791	-1.9146	-2.0917	-2.2979	-2.1979	-1.8	-2.3958	-2.2333	-2.2792	-2.2958	-2.1437	-2.4042	-2.4875	-1.9417	-2.4917	-2.1958	-2.1667	266.096	427.169	405.382	487.498	483.794	292.141	319.689	428.886	219.802	375.865	262.750	483.132	493.809	413.968	280.806	501.656	0.00027007	0.0008746	0.00020774	234.18	4.8346e-06	1.4213e-05	509.39	67.884	7.7738e-06	4.787e-06	159.97	72.317	28.979	9.749	1.091e-06	24.844	0.0034708	0.0041046	0.0011662	269.2	4.3735e-05	4.5628e-05	530.21	80.562	4.3309e-05	4.4018e-05	181.54	77.092	36.204	12.231	4.3401e-05	27.773	255.343	296.908	216.725	172.879	463.984	401.144	171.865	179.509	369.026	337.100	177.273	182.120	184.118	189.654	419.460	186.784	-8191	255	
#DATA ENDS
