BOXY.EXE: ISS Imagent and Oximeter Data Acquisition Program Version 0.80
Ascii Record File

#ACQ INFORMATION
2  Detector Channels 
16  External MUX Channels 
1  Auxiliary Channels 
5000  Waveform (CCF) Frequency (Hz)
1  Waveforms Skipped 
30  Waveforms Averaged 
1  Cycles Averaged 
16  Acquisitions per Waveform 
10.0806  Updata Rate (Hz) 

#FILE INFORMATION
TRUE -- External MUX Channel results are PARSED.
FALSE -- AC DC and Phase are NOT grouped.
TRUE -- Companion Program Settings File CREATED.
FALSE -- AC data not excluded
FALSE -- DC data not excluded
FALSE -- Phase data not excluded
FALSE -- Auxillary Chn. data not excluded
Tab delimiters

#CALIBRATION STATE
TRUE -- Waveform Calibration Values APPLIED.


#AUX CALIBRATION VALUES
Val Type	aux-1	

Term	1.0000e+00	
Factor	0.0000e+00	


#WF CALIBRATION VALUES
A = Detector Channel
Val Type	A-AC1	A-AC2	A-AC3	A-AC4	A-AC5	A-AC6	A-AC7	A-AC8	A-AC9	A-AC10	A-AC11	A-AC12	A-AC13	A-AC14	A-AC15	A-AC16	A-DC1	A-DC2	A-DC3	A-DC4	A-DC5	A-DC6	A-DC7	A-DC8	A-DC9	A-DC10	A-DC11	A-DC12	A-DC13	A-DC14	A-DC15	A-DC16	A-Ph1	A-Ph2	A-Ph3	A-Ph4	A-Ph5	A-Ph6	A-Ph7	A-Ph8	A-Ph9	A-Ph10	A-Ph11	A-Ph12	A-Ph13	A-Ph14	A-Ph15	A-Ph16	

Term	0.00000e+00	0.00000e+00	0.00000e+00	0.00000e+00	0.00000e+00	0.00000e+00	0.00000e+00	0.00000e+00	0.00000e+00	0.00000e+00	0.00000e+00	0.00000e+00	0.00000e+00	0.00000e+00	0.00000e+00	0.00000e+00	0.00000e+00	0.00000e+00	0.00000e+00	0.00000e+00	0.00000e+00	0.00000e+00	0.00000e+00	0.00000e+00	0.00000e+00	0.00000e+00	0.00000e+00	0.00000e+00	0.00000e+00	0.00000e+00	0.00000e+00	0.00000e+00	0.00000e+00	0.00000e+00	0.00000e+00	0.00000e+00	0.00000e+00	0.00000e+00	0.00000e+00	0.00000e+00	0.00000e+00	0.00000e+00	0.00000e+00	0.00000e+00	0.00000e+00	0.00000e+00	0.00000e+00	0.00000e+00	
Factor	1.00000e+00	1.00000e+00	1.00000e+00	1.00000e+00	1.00000e+00	1.00000e+00	1.00000e+00	1.00000e+00	1.00000e+00	1.00000e+00	1.00000e+00	1.00000e+00	1.00000e+00	1.00000e+00	1.00000e+00	1.00000e+00	1.00000e+00	1.00000e+00	1.00000e+00	1.00000e+00	1.00000e+00	1.00000e+00	1.00000e+00	1.00000e+00	1.00000e+00	1.00000e+00	1.00000e+00	1.00000e+00	1.00000e+00	1.00000e+00	1.00000e+00	1.00000e+00	X	X	X	X	X	X	X	X	X	X	X	X	X	X	X	X	

B = Detector Channel
Val Type	B-AC1	B-AC2	B-AC3	B-AC4	B-AC5	B-AC6	B-AC7	B-AC8	B-AC9	B-AC10	B-AC11	B-AC12	B-AC13	B-AC14	B-AC15	B-AC16	B-DC1	B-DC2	B-DC3	B-DC4	B-DC5	B-DC6	B-DC7	B-DC8	B-DC9	B-DC10	B-DC11	B-DC12	B-DC13	B-DC14	B-DC15	B-DC16	B-Ph1	B-Ph2	B-Ph3	B-Ph4	B-Ph5	B-Ph6	B-Ph7	B-Ph8	B-Ph9	B-Ph10	B-Ph11	B-Ph12	B-Ph13	B-Ph14	B-Ph15	B-Ph16	

Term	0.00000e+00	0.00000e+00	0.00000e+00	0.00000e+00	0.00000e+00	0.00000e+00	0.00000e+00	0.00000e+00	0.00000e+00	0.00000e+00	0.00000e+00	0.00000e+00	0.00000e+00	0.00000e+00	0.00000e+00	0.00000e+00	0.00000e+00	0.00000e+00	0.00000e+00	0.00000e+00	0.00000e+00	0.00000e+00	0.00000e+00	0.00000e+00	0.00000e+00	0.00000e+00	0.00000e+00	0.00000e+00	0.00000e+00	0.00000e+00	0.00000e+00	0.00000e+00	-6.59245e+01	-1.24734e+02	-1.31290e+02	-1.83070e+02	-4.71720e+01	-6.49150e+01	-1.56663e+02	-1.62015e+02	-3.94459e+01	-6.42214e+01	-1.71114e+02	-1.71480e+02	-1.80686e+02	-1.76770e+02	-5.03157e+01	-1.49850e+02	
Factor	1.94318e-05	1.90944e-04	4.49887e-05	1.63081e-01	1.59961e-06	1.69595e-06	1.94177e-01	5.42487e-02	1.28390e-06	1.65075e-06	1.08414e-01	3.13847e-02	2.95052e-02	9.61121e-03	1.53840e-06	1.41149e-02	5.54059e-06	6.76180e-06	1.88700e-06	8.26207e-02	7.18682e-08	7.45135e-08	9.21061e-02	2.75920e-02	7.18242e-08	7.41166e-08	5.30887e-02	1.54427e-02	1.51454e-02	4.92050e-03	7.23774e-08	6.95805e-03	X	X	X	X	X	X	X	X	X	X	X	X	X	X	X	X	



#DISTANCE SETTINGS
A = Detector Channel
A-1	A-2	A-3	A-4	A-5	A-6	A-7	A-8	A-9	A-10	A-11	A-12	A-13	A-14	A-15	A-16	

2.5000e+00	3.0000e+00	2.5000e+00	3.0000e+00	2.0000e+00	3.0000e+00	1.5000e+00	3.0000e+00	3.0000e+00	3.0000e+00	3.0000e+00	3.0000e+00	3.0000e+00	3.0000e+00	1.5000e+00	3.0000e+00	

B = Detector Channel
B-1	B-2	B-3	B-4	B-5	B-6	B-7	B-8	B-9	B-10	B-11	B-12	B-13	B-14	B-15	B-16	

1.0000e+01	1.0000e+01	1.0000e+01	1.4400e+00	1.0000e+01	1.0000e+01	1.5100e+00	1.9400e+00	1.0000e+01	1.0000e+01	1.9900e+00	2.4900e+00	2.4100e+00	2.9000e+00	1.0000e+01	2.9800e+00	




#DATA BEGINS
time	group	step	mark	flag	A-AC1	A-AC2	A-AC3	A-AC4	A-AC5	A-AC6	A-AC7	A-AC8	A-AC9	A-AC10	A-AC11	A-AC12	A-AC13	A-AC14	A-AC15	A-AC16	A-DC1	A-DC2	A-DC3	A-DC4	A-DC5	A-DC6	A-DC7	A-DC8	A-DC9	A-DC10	A-DC11	A-DC12	A-DC13	A-DC14	A-DC15	A-DC16	A-Ph1	A-Ph2	A-Ph3	A-Ph4	A-Ph5	A-Ph6	A-Ph7	A-Ph8	A-Ph9	A-Ph10	A-Ph11	A-Ph12	A-Ph13	A-Ph14	A-Ph15	A-Ph16	B-AC1	B-AC2	B-AC3	B-AC4	B-AC5	B-AC6	B-AC7	B-AC8	B-AC9	B-AC10	B-AC11	B-AC12	B-AC13	B-AC14	B-AC15	B-AC16	B-DC1	B-DC2	B-DC3	B-DC4	B-DC5	B-DC6	B-DC7	B-DC8	B-DC9	B-DC10	B-DC11	B-DC12	B-DC13	B-DC14	B-DC15	B-DC16	B-Ph1	B-Ph2	B-Ph3	B-Ph4	B-Ph5	B-Ph6	B-Ph7	B-Ph8	B-Ph9	B-Ph10	B-Ph11	B-Ph12	B-Ph13	B-Ph14	B-Ph15	B-Ph16	aux-1	digaux	

1117.246	1	1	0	256	0.22917	0.236	0.15486	0.16394	0.10854	0.22783	0.2753	0.35353	0.051913	0.16192	0.12454	0.19193	0.076041	0.095419	0.016017	0.19804	-1.7604	-2.6771	-2.5542	-2.4583	-2.6937	-2.4292	-2.75	-2.6896	-2.3917	-2.8021	-2.7771	-2.3937	-2.8146	-2.4083	-2.4625	-2.8708	25.004	256.938	250.492	119.834	-35.583	175.211	177.907	138.016	-66.373	-19.577	250.281	212.671	214.207	156.591	227.654	-67.129	0.00026093	0.0025151	0.00091041	589.15	3.9676e-05	1.5836e-05	906.47	199.26	1.5434e-05	7.4642e-06	359.22	167.63	85.014	42.585	3.4309e-06	92.995	0.015193	0.01852	0.0052179	796.99	0.00019592	0.00020423	1134.2	270.29	0.00019613	0.00020323	495.85	206.81	124.74	55.403	0.00019935	110.32	-86.657	-63.564	80.956	-74.531	20.749	111.105	-74.604	-69.617	-15.584	231.076	-70.034	-65.450	-65.236	-60.650	127.274	-61.867	-8191	255	
1117.343	1	1	0	0	0.38929	0.29528	0.25815	0.14921	0.15775	0.16635	0.11028	0.090289	0.15137	0.11504	0.25271	0.33449	0.20753	0.2295	0.019388	0.086618	-1.9958	-2.65	-2.6021	-2.3417	-2.8229	-2.6146	-2.6063	-2.8187	-2.2292	-2.7354	-2.6146	-2.1937	-2.7896	-2.5208	-2.4333	-2.9062	216.473	-58.449	-82.072	17.228	232.101	196.757	228.845	-24.440	114.535	-45.183	186.497	192.407	220.975	205.639	227.373	141.948	0.00041014	0.0010768	0.00049225	592.7	1.5824e-05	1.7493e-05	913.05	202.72	1.0063e-05	1.3745e-05	366.37	171.53	87.127	43.835	1.2564e-05	94.886	0.015335	0.018739	0.0052544	803.81	0.00019907	0.00020845	1148	275.18	0.00020363	0.00021183	507.88	212.28	128.89	57.149	0.00020838	112.85	266.531	122.140	-1.645	-74.549	179.860	222.901	-74.530	-69.236	92.852	26.099	-69.603	-65.382	-64.768	-60.666	-9.096	-61.811	-8191	255	
1117.439	1	1	0	0	0.13074	0.097137	0.092965	0.109	0.26668	0.017373	0.25178	0.11273	0.13417	0.18148	0.26837	0.15919	0.47822	0.25025	0.094497	0.17448	-1.7854	-2.6708	-2.6542	-2.3167	-2.7625	-2.5125	-2.5542	-2.8458	-2.3187	-2.6833	-2.675	-2.3917	-2.7562	-2.6167	-2.4917	-2.9	-40.453	140.427	-57.230	141.382	39.004	-43.173	234.675	249.815	200.859	-79.865	272.730	267.871	222.183	-78.959	45.981	-60.542	0.00036405	0.0046502	0.00022403	600.03	2.2239e-05	1.0071e-05	926.77	200.97	7.366e-06	1.0323e-05	362.49	168.5	85.247	43.104	1.9373e-05	93.522	0.01609	0.019686	0.005502	823.07	0.00021059	0.00022	1173.7	277.79	0.00021364	0.00022158	511.29	212	129.79	57.172	0.00021576	112.3	216.787	-31.382	70.585	-74.655	103.324	89.761	-74.814	-69.245	-82.952	85.593	-70.155	-65.348	-64.879	-60.686	74.430	-61.850	-8191	255	
1117.535	1	1	0	0	0.090736	0.19895	0.084988	0.14419	0.33501	0.084682	0.099286	0.033916	0.15806	0.11592	0.18302	0.25235	0.18766	0.014239	0.24605	0.092037	-1.8583	-2.2771	-2.6958	-2.4229	-2.8208	-2.5167	-2.4521	-2.9771	-2.2146	-2.5062	-2.6458	-2.5062	-2.7438	-2.6208	-2.3229	-2.8688	204.773	110.999	36.187	264.128	25.189	187.641	225.716	151.540	-42.427	80.677	-83.180	34.838	-7.109	107.641	194.650	246.025	0.00017898	0.0020786	0.0004126	610.84	7.6798e-06	5.5717e-06	929.74	202.8	1.5682e-05	1.6027e-05	364.44	167.74	85.536	42.921	2.7112e-05	93.644	0.016723	0.020395	0.0056731	837.72	0.000216	0.00022657	1183.4	280.1	0.00021805	0.00022539	514.18	212.29	130.28	57.246	0.0002191	112.97	247.520	242.064	222.578	-74.613	245.629	103.562	-74.378	-69.618	113.729	18.782	-70.366	-65.460	-64.823	-60.374	94.155	-61.953	-8191	255	
1117.656	1	1	0	0	0.18843	0.13029	0.03709	0.21688	0.10747	0.03399	0.22839	0.19464	0.14361	0.10878	0.23113	0.21499	0.19774	0.22545	0.17163	0.14869	-2.1063	-2.2167	-2.7083	-2.3375	-2.6833	-2.5	-2.4979	-2.8167	-2.5354	-2.5875	-2.9104	-2.3708	-2.5979	-2.6271	-2.1188	-2.9333	5.183	7.389	221.699	261.263	9.470	94.672	93.035	256.565	246.906	123.287	209.883	252.330	11.373	121.176	-0.454	-55.448	0.00031594	0.0033557	0.00071721	612	1.3684e-05	4.4794e-06	939.38	204.09	1.3184e-05	1.7677e-05	365.75	170.23	87.212	43.513	2.9922e-06	94.821	0.016963	0.020646	0.0057023	843.42	0.00022022	0.00022841	1191.1	283.42	0.00022271	0.00022996	521.01	216.1	133.16	58.38	0.0002266	114.83	197.316	221.522	3.719	-74.758	9.745	261.663	-74.533	-69.259	249.998	155.437	-69.990	-65.597	-64.623	-60.605	-49.164	-61.988	-8191	255	
1117.752	1	1	0	0	0.21901	0.090957	0.22124	0.11828	0.09974	0.13938	0.18609	0.069645	0.2522	0.26029	0.23188	0.18504	0.22795	0.22625	0.35496	0.14085	-1.9312	-2.4854	-2.6542	-2.4854	-2.6354	-2.75	-2.4104	-2.8563	-2.4562	-2.3646	-2.7917	-2.6083	-2.4854	-2.8333	-2.4792	-2.9229	79.740	238.915	54.737	5.330	48.634	126.174	155.989	75.937	142.380	63.411	-42.767	-73.366	258.024	27.794	75.200	200.190	0.00039057	0.0037333	0.00093011	618.31	1.4128e-05	1.0043e-05	953.2	204.36	8.2904e-06	9.8475e-06	366.82	169.76	86.109	43.221	1.7841e-05	94.359	0.017572	0.021197	0.0058866	859.14	0.00022621	0.00023215	1209.3	285.47	0.0002257	0.00023226	521.88	215.84	132.22	57.79	0.0002258	114.34	228.923	29.459	-86.180	-74.863	71.071	129.667	-74.580	-69.279	202.817	124.408	-69.854	-65.391	-64.511	-60.776	91.414	-61.678	-8191	255	
1117.848	1	1	0	0	0.035329	0.18448	0.22968	0.099376	0.029134	0.23411	0.10392	0.082001	0.22021	0.17783	0.20249	0.091531	0.049263	0.35321	0.079465	0.19383	-2.0958	-2.4646	-2.6479	-2.3479	-2.3896	-2.5875	-2.4896	-2.7708	-2.5312	-2.5875	-2.7875	-2.5125	-2.5146	-2.6854	-2.3667	-2.7188	244.320	132.458	-17.402	249.162	137.335	266.545	74.270	233.634	47.727	198.601	36.604	213.573	254.661	242.644	108.864	149.827	0.00049865	0.0042361	0.00041488	622.97	1.1548e-05	1.0147e-05	957.49	202.97	7.1511e-06	1.9762e-05	362.4	167.31	84.602	42.242	1.4973e-05	92.632	0.01747	0.021079	0.0058751	862.37	0.00022523	0.00023313	1213.6	284.4	0.00022343	0.00022803	516.6	211.94	129.29	56.316	0.00021673	111.55	266.949	1.321	-34.967	-74.702	229.590	143.057	-74.586	-69.367	246.711	93.874	-69.871	-65.370	-65.064	-60.373	72.639	-61.771	-8191	255	
1117.944	1	1	0	0	0.2591	0.26432	0.12111	0.0087631	0.37489	0.10849	0.1788	0.29661	0.032267	0.075591	0.032852	0.35733	0.15335	0.023583	0.27147	0.22097	-2.2188	-2.1479	-2.6063	-2.4292	-2.4729	-2.725	-2.4875	-2.6729	-2.5958	-2.2354	-2.8667	-2.5792	-2.4625	-2.7792	-2.2354	-2.6104	-61.500	188.953	68.141	-49.372	38.367	207.587	-5.433	244.428	112.736	-45.749	-66.582	-75.767	175.027	117.761	-48.839	-79.336	0.00043866	0.0007565	0.00033441	618.22	9.0944e-06	1.8624e-05	948.86	204.3	1.2441e-05	1.1477e-05	366.7	171.49	87.312	44.284	1.6118e-05	96.054	0.016498	0.019822	0.0055461	845.23	0.00021197	0.00021983	1193.5	280.9	0.00021648	0.00022384	518.1	215.36	132.5	58.434	0.00022342	115.61	237.301	164.995	45.933	-75.040	235.983	67.274	-74.203	-69.518	20.343	112.067	-70.005	-65.599	-64.623	-60.595	220.881	-61.850	-8191	255	
1118.040	1	1	0	0	0.23159	0.16374	0.14616	0.23139	0.14775	0.35232	0.073108	0.31041	0.21934	0.28913	0.12367	0.16426	0.049958	0.01781	0.2153	0.24681	-2.2417	-2.3125	-2.4792	-2.5521	-2.2729	-2.8292	-2.3896	-2.4917	-2.6312	-2.2062	-2.7708	-2.5104	-2.2667	-2.6667	-2.4833	-2.5167	91.326	240.356	65.754	-45.744	-51.614	-5.415	216.519	-49.962	259.155	-57.855	-62.552	261.801	130.796	47.488	85.545	-77.111	0.00042266	0.0018223	0.00048239	617.23	1.4637e-05	2.3595e-05	934.84	207.11	1.9207e-05	6.4626e-06	369.84	173.33	88.666	44.353	3.1475e-05	95.056	0.017223	0.020854	0.0058544	850.86	0.00022213	0.00022898	1192	287.34	0.00021819	0.00022506	521.04	216.99	131.78	58.004	0.00021011	113.24	239.725	76.383	66.900	-74.605	54.905	183.537	-74.904	-69.411	8.008	138.250	-69.558	-65.636	-64.621	-60.570	66.058	-61.795	-8191	255	
1118.136	1	1	0	0	0.14158	0.18199	0.12298	0.37825	0.15784	0.035649	0.11425	0.058742	0.26718	0.11064	0.33022	0.21792	0.15514	0.28567	0.1005	0.31735	-2.1833	-2.3979	-2.6771	-2.7042	-2.2979	-2.6583	-2.425	-2.4979	-2.7625	-2.2979	-2.7208	-2.5187	-2.2229	-2.55	-2.425	-2.4813	52.466	233.786	194.573	208.306	11.325	119.752	196.338	222.011	265.650	49.170	142.236	195.471	233.211	170.686	157.063	197.791	0.00022998	0.0014161	0.00011987	604.99	8.5646e-06	1.45e-05	919.96	203.65	4.2233e-06	1.2082e-05	366.86	170.81	86.895	43.732	6.292e-06	95.094	0.015721	0.019056	0.0053171	814.25	0.00019846	0.00020548	1148.9	273.28	0.00019547	0.00020189	501.28	210.22	126.64	56.394	0.00019543	112.31	240.590	-43.744	155.871	-74.512	1.289	23.525	-74.330	-69.685	89.610	83.701	-69.890	-65.685	-65.014	-60.874	-32.138	-61.791	-8191	255	
1118.231	1	1	0	0	0.10104	0.26729	0.089568	0.09743	0.082329	0.23655	0.038649	0.039711	0.34594	0.15538	0.15567	0.38835	0.15799	0.24746	0.064667	0.065846	-2.2458	-2.2583	-2.5812	-2.5917	-2.3458	-2.6604	-2.5167	-2.4188	-2.7438	-2.5062	-2.4083	-2.7438	-2.3063	-2.7271	-2.4917	-2.5333	144.900	-0.171	-31.721	187.672	143.652	22.920	187.698	247.016	132.035	176.344	203.331	16.179	210.394	-38.621	194.693	-0.814	0.0004091	0.0014247	0.00034458	593.99	1.1955e-05	3.0489e-06	912.88	205.71	9.8869e-06	2.8864e-06	368.82	171.37	87.005	43.937	1.0471e-05	94.714	0.014932	0.018178	0.0050892	798.28	0.00019223	0.00019926	1131.1	273.62	0.00018978	0.00019732	498.64	209.61	125.69	56.211	0.0001916	111.28	226.696	-6.636	24.599	-74.742	46.619	138.783	-74.533	-69.425	97.300	212.887	-69.723	-65.416	-64.935	-60.678	123.589	-62.060	-8191	255	
1118.351	1	1	0	0	0.22574	0.074126	0.066506	0.14284	0.10602	0.18082	0.23606	0.18983	0.032902	0.023625	0.19155	0.12505	0.11037	0.15319	0.14907	0.19782	-2.2958	-2.3146	-2.4083	-2.7062	-2.1458	-2.6896	-2.6271	-2.4125	-2.8417	-2.3604	-2.5375	-2.8042	-2.2896	-2.7042	-2.6688	-2.4458	-83.961	265.287	131.335	-67.112	13.382	112.892	27.242	207.015	88.424	34.555	253.464	25.930	216.867	167.594	-47.656	138.269	0.00030043	0.0028176	0.00064359	588.76	8.728e-06	2.184e-05	909.86	202.84	7.8167e-06	2.2183e-05	364.41	169.56	84.941	42.811	1.3063e-05	92.784	0.014625	0.017854	0.0050034	791.65	0.00019061	0.00019863	1128.4	271.68	0.00019067	0.00019758	496.7	207.07	124.31	55.156	0.0001915	109.28	-52.498	3.869	-86.453	-74.783	20.415	44.084	-74.494	-69.695	227.795	15.451	-70.117	-65.650	-64.710	-60.610	182.138	-61.981	-8191	255	
1118.448	1	1	0	0	0.24186	0.099128	0.16648	0.16765	0.098574	0.083982	0.3256	0.14934	0.21507	0.19996	0.34289	0.16653	0.066197	0.23744	0.10934	0.22403	-2.1813	-2.3042	-2.5292	-2.7958	-2.2167	-2.6021	-2.6271	-2.1708	-2.6937	-2.5	-2.425	-2.9333	-2.3458	-2.5875	-2.7083	-2.2729	-37.435	267.177	235.320	233.419	-68.791	-16.786	-74.342	175.259	-18.496	124.321	236.324	227.563	115.611	269.289	93.036	204.966	0.00032662	0.00045971	0.00041489	596.7	2.022e-05	3.9623e-05	917.19	198.48	9.3791e-06	1.096e-05	361.62	166.89	84.686	42.546	2.4135e-06	92.971	0.014666	0.017909	0.0049791	792.82	0.00018924	0.00019706	1132.9	266.98	0.00018984	0.00019786	493.75	205.72	124.22	55.161	0.00019423	109.74	-83.991	-80.945	146.723	-74.787	-3.810	-20.071	-74.654	-69.544	123.237	9.893	-69.699	-65.503	-64.589	-60.696	193.568	-61.757	-8191	255	
1118.544	1	1	0	0	0.16505	0.10643	0.24154	0.13365	0.17838	0.37515	0.057822	0.10783	0.15424	0.13979	0.078814	0.14319	0.25219	0.124	0.067356	0.19415	-2.2521	-2.3854	-2.3375	-2.8271	-2.3	-2.5771	-2.9104	-2.475	-2.5875	-2.4813	-2.3146	-2.7479	-2.5312	-2.5917	-2.5563	-2.5229	185.057	9.771	-16.611	210.409	-27.518	84.835	146.162	144.115	-14.777	100.715	-5.847	163.104	241.827	-34.110	-4.901	169.089	0.00022228	0.0015955	0.00016495	596.7	7.8476e-06	1.7747e-05	921.62	205.19	1.5397e-05	1.8356e-05	371.71	173.08	89.127	44.817	2.3525e-05	97.081	0.014913	0.018164	0.0050457	799.04	0.00019146	0.00019921	1136.7	273.28	0.00019101	0.00019983	504.06	212.05	129.09	57.666	0.00019804	114.43	-64.952	129.343	-14.325	-74.835	176.493	31.302	-74.576	-69.838	57.383	106.935	-69.898	-65.436	-65.222	-61.067	74.049	-62.034	-8191	255	
1118.615	1	1	0	0	0.10659	0.12573	0.25131	0.17926	0.12534	0.22013	0.28147	0.16685	0.18713	0.30503	0.15354	0.11032	0.43345	0.10373	0.026665	0.12065	-2.0833	-2.4271	-2.2979	-2.9667	-2.2958	-2.4583	-2.8729	-2.4813	-2.4813	-2.7417	-2.5875	-2.7792	-2.4688	-2.4958	-2.8667	-2.6729	-5.823	65.927	38.361	-74.259	-14.980	-12.679	150.211	45.778	85.978	145.700	-15.094	-82.345	-36.642	180.337	113.634	180.653	0.00051424	0.0013009	0.00095166	598.81	1.6424e-05	2.2164e-05	911.96	211.91	9.4965e-06	1.1937e-05	378.32	180.72	93.258	47.335	2.0784e-05	100.16	0.015487	0.01897	0.0053033	814.67	0.00020484	0.000213	1149.4	286.8	0.00020705	0.00021404	522.92	222.69	135.99	60.801	0.00020903	118.76	239.635	26.683	-44.437	-74.691	92.592	65.475	-74.469	-69.807	112.942	226.971	-69.726	-65.933	-64.908	-61.314	-72.778	-62.153	-8191	255	
1118.736	1	1	0	0	0.2876	0.045587	0.24565	0.10142	0.18279	0.083504	0.13898	0.14125	0.17092	0.21176	0.056126	0.32765	0.11365	0.25087	0.18138	0.12918	-2.2729	-2.8229	-2.4583	-2.6417	-2.5771	-2.3958	-2.8833	-2.35	-2.6437	-2.6063	-2.5938	-2.9354	-2.5979	-2.4896	-2.8937	-2.4833	-24.210	158.202	166.973	228.817	89.722	41.286	136.609	210.137	211.004	64.250	103.048	258.595	157.801	223.843	64.129	70.877	0.00045321	0.0015476	0.00069427	604.98	2.5612e-05	1.2377e-05	919.33	211.71	1.551e-05	3.1332e-06	379.2	179.22	91.723	46.659	1.4786e-05	99.285	0.016372	0.019909	0.0055114	826.46	0.00021251	0.00022012	1165.5	289.22	0.00021476	0.00022161	527.35	223.14	136.87	60.766	0.0002199	118.97	212.137	-46.484	152.927	-75.095	-74.926	71.109	-74.687	-69.527	127.984	166.160	-70.319	-65.682	-64.806	-61.080	8.330	-62.529	-8191	255	
1118.832	1	1	0	0	0.41513	0.087927	0.03745	0.21644	0.19294	0.18453	0.3787	0.21724	0.15703	0.13736	0.1122	0.089151	0.13997	0.1479	0.053228	0.28788	-2.1417	-2.7708	-2.1875	-2.7604	-2.5875	-2.2375	-3.0729	-2.5375	-2.5687	-2.7542	-2.3083	-2.7083	-2.6562	-2.2042	-2.7521	-2.5521	221.569	151.258	153.551	107.688	227.237	-10.121	223.538	35.986	202.579	205.499	245.158	24.584	96.607	233.491	-21.650	186.083	0.0002563	0.0015144	0.00061333	610.25	1.4291e-05	5.2049e-06	935.69	210.39	1.8448e-06	1.8812e-05	375.18	178.47	90.488	45.856	1.1978e-05	98.196	0.017114	0.020672	0.0057481	845.25	0.00022024	0.00022827	1187.3	290.16	0.00021999	0.00022486	526.5	222.63	135.64	59.999	0.00021899	118.16	245.104	48.858	191.541	-74.886	107.276	3.863	-75.059	-69.889	-47.617	12.861	-69.994	-65.699	-65.062	-60.898	248.188	-62.131	-8191	255	
1118.928	1	1	0	0	0.27982	0.041671	0.093102	0.38614	0.04304	0.10434	0.30871	0.32704	0.22354	0.19403	0.21631	0.24906	0.17436	0.30768	0.28482	0.093601	-1.8021	-2.6354	-2.3021	-2.5687	-2.4521	-2.2521	-2.6729	-2.5521	-2.5917	-2.8479	-2.3292	-2.675	-2.8146	-2.5687	-2.6792	-2.7313	154.946	174.003	169.938	-86.285	185.252	50.010	251.112	149.214	155.439	43.591	265.064	221.453	202.333	257.247	257.856	114.774	0.00019997	0.0029899	0.00014306	619.16	9.9736e-06	1.1961e-05	938.95	208.38	1.5049e-05	1.1535e-05	371.5	173.88	88.69	44.463	1.1693e-05	95.991	0.017061	0.020637	0.0058118	854.12	0.0002238	0.00023101	1201.8	289.75	0.00022534	0.00023228	529.22	220.44	135.57	59.52	0.00023066	116.72	248.779	54.160	-84.755	-74.789	263.024	78.253	-74.679	-70.080	-62.774	0.839	-70.111	-65.584	-64.979	-60.937	90.049	-62.028	-8191	255	
1119.024	1	1	0	0	0.22499	0.22806	0.13042	0.18844	0.14418	0.21143	0.15628	0.13642	0.18271	0.13367	0.052347	0.15786	0.18399	0.10889	0.31647	0.22059	-2.0542	-2.7125	-2.275	-2.5583	-2.5625	-2.3646	-2.8312	-2.5854	-2.4167	-2.8021	-2.2812	-2.6792	-2.7	-2.3979	-2.5771	-2.6125	169.453	258.643	107.714	200.476	-44.809	83.146	270.150	247.409	197.409	-10.691	-51.204	-54.910	250.544	9.534	26.993	228.519	0.00047307	0.00098204	0.00059604	622.22	7.9226e-06	2.8408e-05	940.96	204.93	5.4386e-06	1.4651e-05	366.04	168.49	86.396	43.189	8.1866e-06	93.624	0.017891	0.021696	0.0061177	875.7	0.00023488	0.00024415	1223.9	291.9	0.00023753	0.00024641	534.92	218.97	135.99	59.025	0.00024178	115.31	269.494	10.975	222.531	-74.558	139.270	55.043	-74.678	-69.689	270.688	233.182	-70.048	-65.394	-64.862	-60.713	14.631	-62.156	-8191	255	
1119.145	1	1	0	0	0.06087	0.16815	0.18599	0.17429	0.16857	0.19324	0.038618	0.18767	0.031321	0.098149	0.10978	0.17649	0.17237	0.17559	0.14722	0.38379	-2.1521	-2.8292	-2.4167	-2.5208	-2.8083	-2.3042	-2.6375	-2.6521	-2.3063	-2.775	-2.5	-2.525	-2.6562	-2.4771	-2.7167	-2.8021	-80.051	63.604	-62.347	260.296	90.264	233.651	-57.574	-31.462	200.781	53.932	-67.835	145.278	265.042	222.741	14.203	255.309	0.00029771	0.0021077	0.00054704	623.79	1.4945e-05	1.299e-05	948.49	201.21	8.3745e-06	7.0843e-06	365.81	168.27	85.179	42.883	1.4372e-05	93.886	0.018309	0.022165	0.0062031	874.79	0.00023151	0.00024139	1221.8	286.51	0.00023083	0.00023826	527	215.67	133.11	58.262	0.00023566	114.77	213.489	182.638	156.623	-75.079	103.338	141.020	-74.581	-69.724	211.569	102.140	-70.021	-65.742	-64.996	-61.051	7.301	-61.908	-8191	255	
1119.239	1	1	0	0	0.20041	0.17344	0.085924	0.14267	0.064462	0.09379	0.37664	0.10013	0.09586	0.079225	0.11193	0.18649	0.10423	0.36913	0.079224	0.22462	-1.8625	-2.7104	-2.5083	-2.6208	-2.8021	-2.4146	-2.7896	-2.6979	-2.4813	-2.9542	-2.6896	-2.6521	-2.8563	-2.3833	-2.6125	-2.8729	31.594	-77.363	24.451	182.506	146.832	195.798	174.667	9.971	92.242	-5.590	183.174	234.878	182.248	185.722	226.976	140.850	0.00065357	0.00086149	0.00045234	624.42	2.4135e-06	9.4371e-06	942.5	205.28	1.0797e-05	1.5279e-05	367.63	171.94	87.111	43.71	1.456e-05	94.653	0.017893	0.021829	0.0061378	871.72	0.00023166	0.0002422	1219	290.52	0.00023191	0.00024105	531.96	219.3	134.86	58.953	0.00023236	115.03	248.744	72.195	157.815	-74.924	111.361	-76.764	-74.525	-69.618	257.928	10.289	-70.578	-65.613	-64.478	-60.739	143.972	-62.004	-8191	255	
1119.336	1	1	0	0	0.18897	0.13723	0.13286	0.129	0.041929	0.17705	0.13325	0.12394	0.28507	0.29461	0.21258	0.088193	0.16343	0.10624	0.15726	0.12867	-1.8979	-2.5583	-2.4562	-2.3604	-2.6292	-2.375	-2.5583	-2.9	-2.4042	-2.7812	-2.7229	-2.5646	-2.6625	-2.6562	-2.5125	-2.8396	169.817	11.413	-75.727	185.716	-31.702	94.330	161.666	167.472	54.102	211.792	219.805	-0.742	156.045	-46.195	209.376	225.490	0.00036031	0.0023672	0.00041195	616.9	9.0555e-06	8.5507e-06	933.92	200.53	3.6486e-06	8.0886e-06	362.37	166.97	84.275	42.31	2.1057e-05	92.03	0.017401	0.02108	0.0058233	849.55	0.00021693	0.00022449	1184.5	278.21	0.00021265	0.00022092	508.25	209.83	128.02	56.43	0.00021712	111.36	260.885	131.543	132.038	-75.049	220.012	260.544	-74.603	-69.596	-32.545	114.066	-69.620	-65.309	-64.770	-60.894	51.494	-61.792	-8191	255	
1119.432	1	1	0	0	0.14524	0.17839	0.22805	0.18228	0.079372	0.10892	0.41587	0.22268	0.081354	0.34819	0.11513	0.10604	0.11688	0.1602	0.12817	0.25296	-1.8312	-2.6104	-2.5583	-2.4354	-2.5271	-2.5875	-2.5479	-2.7521	-2.4333	-2.6604	-2.7458	-2.4167	-2.5312	-2.575	-2.4292	-2.9646	235.507	213.566	255.615	197.643	67.361	-30.393	-76.421	200.995	265.866	48.925	271.856	161.563	204.724	-48.444	-7.951	213.362	0.00047558	0.0011162	0.00029943	612.86	7.3254e-06	7.6868e-06	927.57	200.49	1.1981e-05	9.4226e-06	358.71	165.48	84.793	42.223	4.4041e-06	91.401	0.016648	0.020381	0.0056952	840	0.00021482	0.00022475	1180.5	277.67	0.00021425	0.00022157	506.07	208.44	127.81	56.033	0.00021126	109.77	245.439	125.791	58.702	-74.819	198.559	68.025	-74.296	-69.461	94.307	4.678	-69.642	-65.373	-65.178	-60.535	171.949	-61.834	-8191	255	
1119.528	1	1	0	0	0.11829	0.26528	0.10379	0.18924	0.12504	0.14804	0.21701	0.14037	0.1646	0.23104	0.359	0.073219	0.31764	0.069223	0.1013	0.41721	-1.9688	-2.5271	-2.7521	-2.4042	-2.6542	-2.5687	-2.5479	-2.8458	-2.5667	-2.8146	-2.5979	-2.4188	-2.825	-2.5646	-2.2229	-2.9729	93.131	251.197	221.464	182.747	198.668	213.356	228.517	-78.622	216.459	151.703	222.943	-20.673	229.535	234.558	-71.494	174.662	0.00028499	0.0011756	0.00091985	605.86	9.9751e-06	7.4799e-06	925.76	198.65	1.0782e-05	1.7234e-05	355.6	163.91	83.179	42.121	8.6672e-06	91.651	0.016195	0.019669	0.005431	823.51	0.00020462	0.00021194	1159.6	270.86	0.00020101	0.0002074	494.21	204.33	124.13	54.629	0.00019687	108.65	239.458	40.568	-10.558	-74.563	187.945	191.591	-74.529	-69.544	-67.049	14.540	-70.136	-65.634	-64.668	-60.722	152.424	-61.749	-8191	255	
1119.624	1	1	0	0	0.22793	0.095577	0.23441	0.12895	0.098264	0.081105	0.16248	0.2861	0.095791	0.21738	0.21658	0.18909	0.10512	0.28036	0.14369	0.18589	-1.7958	-2.425	-2.5312	-2.3333	-2.675	-2.7292	-2.7229	-2.6792	-2.4125	-2.5354	-2.8125	-2.4875	-2.7188	-2.7375	-2.2812	-2.8708	188.045	190.750	149.159	-23.904	164.821	259.408	-42.597	192.864	42.842	19.666	-57.676	238.668	184.039	-70.456	-4.376	-87.551	0.00024874	0.001428	0.00035748	604.16	2.8071e-05	2.1075e-05	927.1	199.95	1.5248e-05	4.8922e-06	360.02	166.63	83.768	42.533	1.9764e-05	91.914	0.01519	0.018503	0.0051393	811.36	0.00019751	0.00020558	1153.4	271.23	0.00020108	0.00020806	498.55	207.37	125.93	55.572	0.00020087	109.7	-77.167	182.842	160.207	-74.744	271.864	25.799	-74.447	-69.666	69.151	157.060	-70.134	-65.510	-64.472	-60.223	80.887	-62.029	-8191	255	
1119.745	1	1	0	0	0.054658	0.017465	0.16136	0.22276	0.19054	0.1144	0.1896	0.063035	0.1728	0.096883	0.14588	0.10214	0.10388	0.17278	0.18489	0.18107	-1.9229	-2.3187	-2.7229	-2.4	-2.45	-2.7354	-2.4396	-2.8375	-2.6896	-2.3708	-2.9104	-2.4104	-2.5708	-2.7292	-2.3354	-2.8729	173.135	248.933	132.923	224.450	106.413	-53.677	215.848	17.332	36.264	225.711	29.239	210.143	147.781	139.889	157.683	231.529	0.00011213	0.00096251	0.00041454	605.69	1.3524e-05	3.2375e-05	922.8	200.63	5.9854e-06	2.1492e-06	359.94	166.06	84.337	42.507	1.884e-05	92.398	0.015479	0.01871	0.0051918	814.42	0.0001986	0.00020587	1149.2	270.94	0.00019814	0.00020393	495.48	206.3	125.22	55.275	0.00019775	109.8	185.855	-14.067	-83.873	-74.777	190.270	37.294	-74.807	-69.490	250.020	27.324	-70.139	-65.422	-64.759	-60.748	126.198	-61.918	-8191	255	
1119.841	1	1	0	0	0.18342	0.20002	0.16634	0.14212	0.20759	0.11247	0.21637	0.25182	0.27641	0.11297	0.14867	0.207	0.24343	0.24559	0.033166	0.22251	-2.0833	-2.5187	-2.6437	-2.4688	-2.7125	-2.7667	-2.2396	-2.7562	-2.5542	-2.4146	-2.7479	-2.6688	-2.7708	-2.5979	-2.3333	-2.7146	-79.500	191.856	-58.945	269.175	43.004	-27.988	166.708	-71.430	-25.940	95.587	269.461	-83.388	216.028	217.638	-34.951	140.507	0.00042067	0.0027854	0.00037413	602.55	1.7095e-05	1.4073e-05	925.63	202.48	1.7563e-05	2.7669e-05	363.88	169.69	86.979	43.718	5.4417e-06	94.853	0.015444	0.018727	0.0052219	815.55	0.00020131	0.00020738	1155.8	275.25	0.00020306	0.00020983	504.14	211.38	128.97	57.053	0.00020797	113.13	265.498	-47.485	149.560	-74.700	182.073	80.398	-74.571	-69.861	-77.786	57.513	-70.034	-65.588	-65.017	-60.626	26.405	-62.088	-8191	255	
1119.912	1	1	0	0	0.033157	0.095066	0.2391	0.20177	0.20835	0.25062	0.011613	0.1531	0.24094	0.23038	0.17393	0.22749	0.075835	0.17044	0.36242	0.13214	-1.9396	-2.5375	-2.7229	-2.3646	-2.3625	-2.6479	-2.5917	-2.5938	-2.7042	-2.3125	-2.8812	-2.5938	-2.5292	-2.8708	-2.4354	-2.6729	21.749	101.571	-37.102	-26.836	35.231	7.050	25.274	207.865	27.467	-84.327	254.968	268.818	74.163	-83.273	81.396	219.207	0.00034267	0.0013102	0.00046857	606.65	3.8685e-06	1.2194e-05	923.84	205.88	6.1786e-06	1.339e-05	367.92	173.65	89.614	44.772	1.9524e-05	96.322	0.016155	0.01956	0.0054677	830.62	0.00021079	0.00021715	1171.3	283.86	0.00021212	0.00021833	518.66	217.98	133.43	58.924	0.00021388	115.93	244.136	147.018	-17.683	-75.084	9.968	66.498	-74.468	-69.542	34.814	155.252	-70.474	-66.028	-65.071	-61.148	175.259	-62.216	-8191	255	
1120.009	1	1	0	0	0.10938	0.066384	0.03677	0.04923	0.1001	0.14873	0.12826	0.15933	0.12852	0.083066	0.21158	0.18214	0.26723	0.017703	0.13419	0.2327	-2.225	-2.1437	-2.7625	-2.5667	-2.5396	-2.7333	-2.4417	-2.7104	-2.6937	-2.2604	-2.7167	-2.7542	-2.4354	-2.7896	-2.5312	-2.6667	39.550	233.207	167.839	-82.603	213.218	84.872	160.291	171.594	-15.066	190.300	162.224	219.310	221.283	246.131	94.798	270.120	0.00040967	0.0014291	0.00044884	604.51	1.1956e-05	1.3035e-05	930.01	209.13	5.7593e-06	1.6512e-05	373.09	175.46	89.288	44.927	2.0698e-05	97.275	0.016477	0.019966	0.0055778	834.99	0.00021232	0.00022036	1177.9	286.21	0.00021201	0.00021909	522.67	218.98	133.61	59.161	0.00021866	116.65	269.263	93.055	-82.708	-75.129	261.296	-52.963	-74.463	-69.836	-49.170	208.477	-69.886	-65.710	-65.248	-61.067	43.397	-62.067	-8191	255	
1120.128	1	1	0	0	0.11382	0.072717	0.23176	0.20232	0.045304	0.18916	0.27105	0.20761	0.082508	0.37412	0.14012	0.23104	0.24893	0.068196	0.15228	0.19057	-2.2188	-2.3146	-2.7042	-2.5083	-2.3521	-2.8063	-2.6979	-2.3917	-2.8104	-2.3146	-2.5979	-2.5604	-2.5146	-2.9188	-2.3937	-2.6083	212.964	180.203	129.215	184.332	115.960	139.428	225.690	260.928	4.143	64.829	221.131	251.868	-72.326	-67.207	-16.289	173.268	0.00053206	0.0025347	0.0003008	611.77	1.8228e-05	1.1604e-05	926.68	208.54	9.5201e-07	1.1238e-05	371.94	174.52	89.152	44.495	3.7986e-06	96.026	0.016874	0.020512	0.0057427	844.15	0.00021721	0.00022453	1182.2	286.51	0.00021313	0.00021968	519.99	217.39	132.33	58.379	0.00021685	115.26	-84.515	15.692	174.130	-74.673	260.418	-16.609	-74.543	-69.526	-26.787	107.096	-70.057	-65.761	-64.898	-60.614	168.088	-61.885	-8191	255	
1120.224	1	1	0	0	0.099005	0.24517	0.12804	0.12903	0.16444	0.013033	0.11907	0.04613	0.17764	0.21176	0.26192	0.25616	0.04149	0.21147	0.29748	0.12888	-2.1917	-2.2604	-2.7104	-2.6646	-2.3458	-2.7146	-2.5687	-2.5812	-2.8125	-2.325	-2.6292	-2.8583	-2.1333	-2.9708	-2.3083	-2.5646	117.271	234.567	-85.574	14.756	46.996	-63.781	8.677	41.080	-21.487	247.913	216.090	-81.178	16.748	227.266	61.667	239.357	0.00026889	0.0016629	0.00060423	614.3	9.9989e-06	2.318e-05	930.74	210.15	1.7198e-05	2.7309e-05	374.73	174.93	90.309	45.142	2.3362e-05	97.226	0.016624	0.020337	0.0057402	841.78	0.00021724	0.00022525	1183.6	288.64	0.00021487	0.00022287	524.6	219.34	133.55	59.038	0.00021538	116.12	-72.593	97.187	48.067	-74.887	51.001	42.872	-74.963	-69.931	113.955	81.893	-70.159	-65.782	-64.894	-61.083	44.101	-62.251	-8191	255	
1120.320	1	1	0	0	0.0051146	0.04758	0.17406	0.17766	0.0407	0.072883	0.2451	0.085119	0.29024	0.11998	0.28396	0.22402	0.077341	0.14576	0.2617	0.12586	-2.175	-2.55	-2.4521	-2.7438	-2.2396	-2.6688	-2.7687	-2.3979	-2.7396	-2.4896	-2.5271	-2.9125	-2.5771	-2.825	-2.4146	-2.5792	40.963	-13.412	253.528	-47.515	-71.605	70.821	224.518	106.114	171.239	201.216	-7.176	197.796	8.987	-82.985	146.939	188.242	0.00048493	0.0032669	0.00055013	610.03	3.0912e-05	1.1865e-05	931.16	209.1	1.0164e-05	2.7933e-05	375.71	175.16	89.838	45.075	6.3679e-06	97.626	0.016385	0.020109	0.0055838	834.05	0.00021083	0.00021893	1178.2	285.73	0.00020893	0.00021704	521.02	217.83	132.66	58.819	0.00021163	116	266.305	124.312	44.099	-74.686	113.325	9.244	-74.441	-69.764	73.986	-35.375	-69.836	-65.863	-64.805	-61.059	39.279	-62.021	-8191	255	
1120.416	1	1	0	0	0.21007	0.11869	0.075356	0.42876	0.054707	0.32183	0.20758	0.24364	0.16565	0.17834	0.065056	0.30312	0.19517	0.090461	0.084783	0.080974	-2.3917	-2.3792	-2.5125	-2.8542	-2.3521	-2.7292	-2.6083	-2.45	-2.7771	-2.6542	-2.5083	-2.8354	-2.4729	-2.6583	-2.5021	-2.5625	-84.071	-86.392	-69.046	221.220	82.228	-24.711	160.715	235.093	53.779	197.005	242.543	245.639	-73.421	132.005	233.065	227.254	0.00053372	0.0019125	0.00040569	605.94	2.0254e-05	3.609e-05	933.91	209.67	1.8877e-05	1.8477e-05	375.1	177.6	90.011	45.261	1.9598e-05	96.957	0.016229	0.01983	0.0055583	830.13	0.00020983	0.00021881	1174.7	286.54	0.00020839	0.00021801	522.37	219.01	133.2	59.016	0.00021027	115.35	247.718	125.541	55.942	-74.730	67.159	23.839	-74.452	-69.646	76.645	-18.609	-70.177	-65.759	-64.560	-61.077	36.830	-62.000	-8191	255	
1120.512	1	1	0	0	0.075108	0.27354	0.062908	0.20402	0.21883	0.2046	0.52479	0.13902	0.09319	0.095099	0.10923	0.15257	0.085369	0.15451	0.14315	0.18316	-2.2354	-2.3646	-2.4708	-2.875	-2.4167	-2.7146	-2.7875	-2.325	-2.8146	-2.5083	-2.6229	-2.8125	-2.4396	-2.5833	-2.6063	-2.375	201.622	116.201	-3.370	72.492	260.273	215.552	219.564	91.076	31.733	107.805	78.510	255.509	156.795	204.109	246.159	262.051	0.00031462	0.0019601	0.00034806	601.39	1.6812e-05	1.3255e-05	914.67	204.14	5.6389e-06	9.1403e-06	363.83	168.11	85.193	42.555	1.226e-05	92.365	0.015952	0.019314	0.0053605	814.53	0.00019921	0.00020623	1140.4	273.75	0.0001911	0.00019826	493.77	205.7	123.43	54.528	0.00018745	108.51	-75.685	115.166	198.310	-74.381	24.454	149.774	-74.328	-69.678	176.132	65.001	-69.927	-65.820	-64.763	-60.837	33.068	-61.793	-8191	255	
1120.608	1	1	0	0	0.21084	0.25841	0.11162	0.14555	0.24148	0.2896	0.27038	0.14496	0.086785	0.27045	0.25813	0.29476	0.23302	0.21148	0.10098	0.21294	-2.4104	-2.4542	-2.2396	-2.8312	-2.35	-2.6979	-2.9292	-2.1958	-2.5458	-2.6375	-2.4625	-2.8729	-2.3438	-2.4313	-2.7167	-2.4354	42.331	-32.341	157.070	8.446	39.841	145.644	191.686	-49.031	35.586	45.807	265.454	-55.693	-86.379	247.387	-52.913	248.652	0.00029868	0.0013954	0.0010511	595.29	9.0408e-06	1.0213e-05	907.86	202.29	1.3068e-05	9.838e-06	366.26	168.35	85.218	42.591	9.9031e-06	92.768	0.014416	0.017567	0.0049088	791.42	0.00018769	0.00019485	1122.6	268.67	0.00018743	0.00019353	492.5	205.63	123.61	54.69	0.00018614	109.27	227.447	-16.700	-4.304	-74.829	160.705	133.207	-74.657	-69.463	0.923	228.617	-70.067	-65.681	-64.560	-60.690	-46.068	-61.989	-8191	255	
1120.704	1	1	0	0	0.065277	0.15578	0.23115	0.16857	0.17327	0.098309	0.266	0.23221	0.1719	0.22452	0.099206	0.15846	0.2981	0.12143	0.10319	0.20887	-2.0375	-2.4208	-2.2625	-2.7583	-2.4521	-2.3583	-2.8625	-2.2313	-2.5271	-2.8875	-2.4437	-2.7917	-2.3458	-2.3542	-2.6417	-2.6542	80.226	11.541	63.706	205.317	0.305	-64.371	214.720	129.031	113.202	138.264	-6.191	-73.506	235.280	165.946	28.572	222.689	6.4908e-05	0.002786	0.00018954	592.78	8.563e-06	1.3455e-05	914.91	203.05	3.632e-06	1.5533e-05	364.56	169.3	85.847	42.725	1.3761e-05	93.172	0.014407	0.017453	0.0048335	785.8	0.00018384	0.00019027	1113.8	267.5	0.00018114	0.00018636	487.19	204.94	122.6	54.444	0.00018062	109.08	195.850	21.393	26.704	-74.747	-11.932	-20.124	-74.303	-69.052	-30.675	152.680	-69.835	-65.486	-64.310	-60.709	30.735	-61.948	-8191	255	
1120.825	1	1	0	0	0.13577	0.054005	0.14431	0.085217	0.232	0.25167	0.28348	0.09739	0.10771	0.13437	0.26476	0.19101	0.35009	0.10802	0.058469	0.1532	-2.2417	-2.45	-2.3042	-2.6792	-2.4562	-2.3104	-2.9125	-2.4	-2.5542	-2.7812	-2.3625	-2.6875	-2.6708	-2.1937	-2.8021	-2.4229	-2.344	76.597	-59.450	178.088	170.055	-13.631	125.620	-72.804	253.109	13.325	239.193	-81.073	222.755	184.762	-64.625	270.706	0.00021315	0.001705	0.00021263	592.48	1.074e-05	6.1642e-06	911.94	204.81	6.2952e-06	1.0936e-05	364.83	167.53	85.516	42.934	1.3053e-05	92.761	0.014039	0.017	0.0047436	782.57	0.00018053	0.00018657	1112.5	267.47	0.0001809	0.00018621	487.9	204.94	122.75	54.594	0.000184	108.89	271.737	-11.626	46.636	-74.437	231.475	92.056	-74.280	-69.667	52.810	86.870	-70.124	-65.417	-64.740	-60.713	32.698	-62.026	-8191	255	
1120.921	1	1	0	0	0.24853	0.08826	0.099685	0.18637	0.32557	0.18803	0.15783	0.10704	0.26413	0.25602	0.2338	0.044202	0.10716	0.23441	0.23245	0.24388	-2.0687	-2.5854	-2.1917	-2.6125	-2.5333	-2.2917	-2.7896	-2.4396	-2.3833	-2.7479	-2.4083	-2.7667	-2.6542	-2.5792	-2.7083	-2.7292	217.536	-60.549	-84.110	245.540	-46.500	-36.854	45.252	-45.039	-7.209	267.515	249.557	192.820	-38.185	126.513	192.641	185.732	0.00025904	0.0015615	0.00029097	595.4	7.7482e-06	8.1266e-06	903.47	203.35	1.1201e-05	1.4285e-05	363.67	169.15	85.077	42.911	1.349e-05	92.795	0.014327	0.017294	0.0048465	790.14	0.00018555	0.00019169	1116.8	269.97	0.00018611	0.00019004	491.42	206.06	123.51	54.808	0.00018497	109.19	225.714	-70.985	-64.968	-75.153	32.301	-42.190	-74.382	-69.695	-81.037	123.316	-69.963	-65.900	-64.858	-60.802	190.239	-62.075	-8191	255	
1121.017	1	1	0	0	0.14506	0.034045	0.29046	0.18892	0.078707	0.18965	0.11588	0.31049	0.3176	0.28734	0.11494	0.086111	0.016917	0.12807	0.28644	0.069645	-1.8917	-2.75	-2.2188	-2.4917	-2.6875	-2.3521	-2.6688	-2.475	-2.4042	-2.7917	-2.3417	-2.5521	-2.725	-2.4042	-2.6979	-2.5563	223.590	11.832	57.675	270.801	7.055	102.451	66.440	229.917	178.986	91.069	84.238	-59.780	-4.033	192.559	-12.719	198.762	0.0004027	0.0013028	0.00022564	591.42	2.7797e-05	1.3768e-05	909.45	203.19	1.6923e-05	1.9879e-06	362.78	167.86	85.753	42.637	2.6345e-05	92.805	0.014298	0.017254	0.0048483	789.07	0.0001845	0.00019217	1122	270.25	0.00018682	0.00019125	493	206.3	124.29	54.926	0.00018972	109.42	-79.226	60.173	27.799	-74.851	117.591	-76.941	-74.430	-69.277	-2.966	243.450	-70.343	-66.007	-64.837	-60.617	247.289	-62.004	-8191	255	
1121.136	1	1	0	0	0.35698	0.1317	0.039948	0.15321	0.17488	0.38479	0.29508	0.30943	0.10461	0.1678	0.17845	0.27494	0.20639	0.15835	0.25201	0.15153	-1.7708	-2.7104	-2.3354	-2.425	-2.775	-2.3625	-2.7896	-2.6896	-2.3292	-2.7604	-2.4354	-2.6958	-2.5479	-2.3312	-2.7417	-2.6875	-38.103	48.951	170.083	-56.101	19.015	-12.142	173.671	198.085	115.012	7.195	-58.677	-78.515	70.961	228.938	14.436	223.184	0.00043286	0.0023079	0.00052992	595.15	1.4322e-05	9.7036e-06	908.91	200.99	7.9483e-06	1.9666e-05	362.82	166.3	83.71	42.132	1.6954e-05	91.792	0.014574	0.017635	0.004948	797.1	0.00018767	0.00019434	1129.6	269.36	0.00018715	0.00019191	491.07	204.47	122.78	54.456	0.00019123	108.95	255.913	200.217	213.001	-74.791	48.302	-57.091	-74.712	-69.783	8.463	8.687	-70.260	-65.684	-64.431	-60.665	233.494	-62.050	-8191	255	
1121.208	1	1	0	0	0.10985	0.064756	0.073484	0.01436	0.26713	0.17627	0.065825	0.14082	0.25267	0.21776	0.088999	0.11487	0.21565	0.05361	0.14857	0.040758	-1.8521	-2.7979	-2.5104	-2.6875	-2.7313	-2.2521	-2.7042	-2.7333	-2.1146	-2.8104	-2.3354	-2.5625	-2.8708	-2.225	-2.6146	-2.8583	127.405	244.041	235.828	-33.419	-20.843	220.629	64.028	223.805	217.923	21.828	97.791	-15.626	220.124	-52.605	-47.423	-16.144	0.00019398	0.0028799	0.00024601	603.03	1.1922e-05	1.4703e-05	918.89	201.71	3.7455e-06	1.6011e-05	367.46	169.16	86.831	43.21	1.058e-05	93.731	0.014747	0.018033	0.0050903	808.38	0.00019409	0.00020248	1148.9	274.28	0.00019631	0.00020274	502.7	209.88	127.15	56.319	0.00020018	111.61	258.552	-15.565	121.219	-74.874	179.521	223.619	-74.724	-69.801	137.944	87.962	-70.094	-65.614	-65.065	-60.841	-49.502	-62.130	-8191	255	
1121.304	1	1	0	0	0.11899	0.13297	0.028575	0.16781	0.39718	0.20448	0.14267	0.10152	0.19255	0.20874	0.26047	0.10191	0.20076	0.090928	0.060599	0.16651	-1.9104	-2.7271	-2.5083	-2.3958	-2.8021	-2.3958	-2.6583	-2.8021	-2.2417	-2.5458	-2.6771	-2.2729	-2.6708	-2.5458	-2.3917	-2.7229	-67.408	271.535	41.903	-81.143	186.961	53.004	179.703	270.877	43.734	-4.045	209.164	82.385	236.736	232.446	-43.985	189.335	0.0003086	0.0019563	0.00073384	609.64	2.9637e-05	8.7011e-06	923.72	205.99	1.4989e-05	1.8829e-05	366.76	172.17	87.529	44.178	1.1845e-05	95.101	0.015358	0.018808	0.0052896	819.37	0.00019989	0.00021031	1162.9	279.41	0.00020336	0.00021295	512.78	213.88	130.36	57.769	0.00021296	114.03	-73.037	-69.234	-37.943	-75.138	64.854	-58.561	-74.980	-69.718	76.849	-17.809	-70.292	-65.586	-65.033	-60.984	102.478	-62.088	-8191	255	
1121.425	1	1	0	0	0.061794	0.14172	0.1919	0.15871	0.027834	0.30107	0.10862	0.064259	0.18043	0.26211	0.11434	0.29857	0.25458	0.08767	0.2871	0.28718	-1.7896	-2.5875	-2.4292	-2.3896	-3.05	-2.5875	-2.5271	-2.9083	-2.1604	-2.5604	-2.6229	-2.2562	-2.8604	-2.5125	-2.3646	-2.8	143.483	98.004	53.459	244.255	270.923	208.074	181.148	207.607	232.925	196.975	-42.641	189.534	-72.640	-61.311	258.729	256.872	0.00012167	0.0021556	0.00028418	618.67	1.0002e-05	9.0979e-06	940.97	210.15	3.3895e-05	1.7447e-05	374.75	175.38	90.658	45.431	3.013e-05	97.484	0.016468	0.020235	0.0056799	849.72	0.00021691	0.00022956	1200.5	289.9	0.00022236	0.00023176	531.51	221.78	136.9	60.459	0.00022793	117.95	174.458	0.848	6.872	-74.574	152.451	165.696	-74.542	-69.425	225.198	36.768	-70.418	-65.680	-64.952	-61.161	188.815	-62.151	-8191	255	
1121.521	1	1	0	0	0.15105	0.19153	0.18862	0.0402	0.058877	0.0396	0.15037	0.12957	0.14325	0.35159	0.20601	0.11573	0.13307	0.042722	0.080182	0.15477	-1.9146	-2.5958	-2.4979	-2.4208	-2.6979	-2.4708	-2.4958	-2.9771	-2.275	-2.7042	-2.5458	-2.2896	-2.9458	-2.4562	-2.4771	-2.9792	206.216	-67.479	-26.478	15.064	64.060	168.968	39.290	180.522	90.550	-27.999	163.780	-87.217	227.709	165.862	227.571	-81.285	0.00044695	0.0011347	0.00051943	620.42	3.6011e-06	8.8434e-06	937.52	211.3	1.6112e-05	7.4305e-06	376.26	175.85	90.133	45.604	2.214e-05	97.42	0.017505	0.021299	0.0059473	861.89	0.00022638	0.00023578	1210	294.68	0.00022904	0.00023846	539.79	224.2	138.79	60.892	0.00023318	118.53	254.556	183.309	52.188	-74.816	168.208	55.275	-74.573	-70.107	-32.096	15.186	-70.046	-66.283	-64.887	-61.297	-43.409	-62.425	-8191	255	
1121.617	1	1	0	0	0.029304	0.13643	0.18141	0.18149	0.077406	0.12432	0.23231	0.16161	0.12771	0.077222	0.19315	0.37302	0.22128	0.1569	0.14457	0.34866	-1.8021	-2.5083	-2.6167	-2.4667	-2.7542	-2.6854	-2.4562	-2.9458	-2.35	-2.6021	-2.8229	-2.3625	-2.7542	-2.7792	-2.3042	-2.9458	113.956	15.414	77.887	218.739	2.861	52.536	132.765	131.070	80.280	83.583	-62.979	187.387	178.535	254.460	141.169	163.160	0.00033365	0.00045377	0.00036005	617.5	2.1345e-05	2.4395e-05	945.82	213.19	4.692e-06	9.6987e-06	379.82	176.47	91.093	45.596	2.1054e-05	97.938	0.017931	0.021902	0.0060813	871.01	0.00023127	0.00024048	1217	297.26	0.00023165	0.00023967	539.39	224.01	139.11	61.022	0.00023231	118.48	-86.690	237.163	-4.223	-74.972	29.274	-38.986	-74.446	-69.897	62.487	110.912	-70.310	-65.880	-65.080	-60.871	-79.593	-62.248	-8191	255	
1121.713	1	1	0	0	0.18714	0.24302	0.10603	0.11117	0.20358	0.16216	0.10741	0.092149	0.10865	0.25883	0.058602	0.39838	0.10628	0.10283	0.28301	0.11287	-1.9167	-2.3583	-2.475	-2.4875	-2.4979	-2.5292	-2.3896	-2.9333	-2.5229	-2.4833	-2.8563	-2.5312	-2.75	-2.7	-2.3229	-2.7771	-60.682	-56.529	18.988	143.307	264.034	-1.053	205.921	-17.497	-0.504	219.068	234.809	212.864	-68.440	231.804	116.141	247.926	0.0003577	0.0012693	0.000158	614.37	2.4422e-05	7.0791e-06	938.14	214.71	1.3689e-05	3.0918e-06	378.74	178.15	92.442	46.037	2.9979e-06	98.951	0.018001	0.021837	0.0060566	868.18	0.00023331	0.0002418	1214.4	300.22	0.00023289	0.0002403	542.55	226.32	140.59	61.594	0.00023189	119.63	257.752	-37.688	219.187	-74.777	43.721	25.237	-74.816	-69.904	164.307	145.077	-70.500	-65.751	-65.399	-61.335	-71.008	-62.288	-8191	255	
1121.809	1	1	0	0	0.17199	0.13341	0.27229	0.29053	0.1626	0.16115	0.25786	0.071035	0.1093	0.082684	0.21444	0.046219	0.05658	0.15217	0.35675	0.23554	-2.0875	-2.4146	-2.6146	-2.4875	-2.5646	-2.5667	-2.2854	-2.8125	-2.4771	-2.5792	-2.8104	-2.5042	-2.6	-2.875	-2.1437	-3.0354	65.555	262.148	72.631	224.596	-35.875	122.430	186.052	265.004	131.822	-17.746	124.252	255.249	12.399	-80.008	-84.933	253.433	0.00033969	0.0013004	0.00083813	625.75	1.7347e-05	1.9591e-05	949.6	214.81	9.9107e-06	7.1775e-06	378.63	177.99	91.967	46.374	1.3907e-05	99.078	0.017988	0.021821	0.0060523	872.7	0.0002335	0.00024155	1220.4	299.98	0.00023352	0.0002407	540.73	225.74	139.95	61.355	0.00023095	119.67	246.595	231.314	149.175	-75.398	53.811	65.063	-74.789	-69.904	81.306	190.752	-70.058	-65.992	-64.994	-61.046	54.732	-62.236	-8191	255	
1121.905	1	1	0	0	0.31207	0.28193	0.15058	0.098583	0.13279	0.02183	0.22857	0.14052	0.053787	0.26813	0.2354	0.14753	0.30697	0.23912	0.36306	0.32098	-2.1583	-2.3146	-2.7583	-2.3312	-2.5208	-2.8146	-2.2042	-2.7729	-2.5229	-2.3	-2.7354	-2.5938	-2.6	-2.8458	-2.4062	-2.5812	183.234	233.462	91.487	228.050	115.408	238.638	255.202	-69.188	103.192	-10.044	-71.995	172.729	206.364	152.928	20.349	205.348	0.00038041	0.0030653	0.00032481	629.08	3.1964e-05	7.87e-06	943.28	213.23	1.2086e-05	1.5235e-05	375.16	175.46	90.543	45.391	6.338e-06	96.55	0.017899	0.021652	0.006045	875.1	0.00023098	0.00023839	1214.1	297.28	0.00022663	0.00023193	533.98	222.08	136.2	59.652	0.00021653	115.95	217.509	23.486	70.786	-75.203	106.741	126.987	-74.630	-69.755	21.796	20.950	-70.040	-65.974	-65.003	-60.917	-69.091	-62.234	-8191	255	
1122.002	1	1	0	0	0.17791	0.11383	0.17582	0.3324	0.15371	0.37003	0.088199	0.29726	0.15152	0.176	0.085215	0.044593	0.25209	0.05025	0.068007	0.27508	-2.05	-2.3458	-2.6937	-2.4604	-2.4896	-2.7854	-2.3688	-2.65	-2.5896	-2.4125	-2.7729	-2.4813	-2.4938	-2.9042	-2.4813	-2.5604	18.758	3.090	-72.347	253.683	-54.171	88.956	-82.146	169.935	-61.565	234.253	11.960	175.469	-37.905	263.783	-14.198	189.359	0.00040148	0.0019496	0.00084985	610.03	4.4126e-06	1.5314e-05	928.54	205.49	1.9296e-05	8.6946e-06	366.73	172	87.855	44.174	5.4495e-06	94.984	0.01637	0.019627	0.0054839	836.01	0.0002061	0.0002106	1167.5	280.51	0.0002016	0.0002078	508.47	213.8	130.12	57.573	0.00020455	113.41	259.807	26.392	-12.619	-74.897	30.118	64.871	-74.515	-69.614	147.935	47.706	-70.420	-65.797	-64.605	-60.917	136.635	-62.312	-8191	255	
1122.098	1	1	0	0	0.21274	0.22454	0.15653	0.20842	0.14332	0.126	0.15465	0.20608	0.13156	0.12219	0.12255	0.012801	0.1374	0.25645	0.12418	0.17667	-2.2083	-2.4771	-2.7062	-2.4458	-2.3771	-2.7771	-2.3729	-2.575	-2.7146	-2.3521	-2.7687	-2.8146	-2.5729	-2.7854	-2.4354	-2.7229	-42.182	-85.405	-4.329	169.167	38.741	243.926	-7.604	-49.585	154.857	24.959	-17.965	23.245	129.149	-87.119	250.370	181.511	0.0002795	0.0016994	0.00034278	606.7	9.2383e-06	1.7876e-05	920.09	206.85	9.6228e-06	2.3413e-05	366.85	170.51	87.45	44.256	2.1978e-05	94.212	0.015798	0.019189	0.0053825	827.69	0.00020465	0.00021227	1164.4	281.67	0.00020496	0.0002113	510.6	212.6	129.67	57.242	0.00020379	112.43	248.272	5.170	-38.241	-74.862	182.554	176.428	-74.475	-69.630	119.631	193.970	-70.105	-65.518	-65.030	-60.703	-9.599	-62.009	-8191	255	
1122.217	1	1	0	0	0.037673	0.2549	0.10264	0.13987	0.082731	0.070588	0.078595	0.12359	0.13364	0.19099	0.14838	0.34594	0.046102	0.13834	0.11836	0.070764	-2.3417	-2.2146	-2.6125	-2.7208	-2.275	-2.7958	-2.6229	-2.4708	-2.6708	-2.2	-2.875	-2.6625	-2.3604	-2.8042	-2.4458	-2.5625	-0.548	133.587	164.213	112.938	96.825	255.602	185.509	-18.032	43.606	159.117	181.003	194.779	140.342	233.576	95.627	183.491	0.0003613	0.00085853	0.00036949	609.88	1.341e-05	2.4031e-05	926.67	205.3	1.1074e-05	1.9601e-05	367.32	171.32	87.293	43.632	2.3301e-05	95.043	0.015534	0.018936	0.0053172	822.75	0.00019983	0.00020797	1160	278	0.00019993	0.00020786	507.28	212.06	129.17	57.238	0.00020828	113.36	270.609	60.051	40.033	-74.858	26.715	178.658	-74.483	-69.656	14.255	204.289	-70.605	-65.421	-65.129	-60.811	-73.772	-61.807	-8191	255	
1122.313	1	1	0	0	0.1626	0.087162	0.21562	0.20947	0.20265	0.17424	0.1418	0.20769	0.212	0.17309	0.31185	0.1815	0.16295	0.079214	0.12488	0.12211	-2.1875	-2.3625	-2.5938	-2.9125	-2.4292	-2.8271	-2.5854	-2.4854	-2.7104	-2.4542	-2.7125	-2.9042	-2.3063	-2.7521	-2.7375	-2.5	45.321	64.108	-59.319	-72.398	265.719	52.543	158.676	-70.873	-63.337	183.989	197.228	6.503	-42.514	238.159	-2.231	239.230	0.00013187	0.0028299	0.00086207	612.74	5.3498e-06	1.0045e-05	928.35	206.94	1.2866e-05	7.7898e-06	369.22	171.19	87.898	43.91	1.4431e-05	94.849	0.016053	0.019725	0.0055381	835.66	0.0002086	0.00021837	1175.1	283.13	0.00020804	0.00021528	514.03	213.71	130.02	57.316	0.00020445	112.54	-67.164	-23.950	101.581	-74.720	97.805	152.408	-74.253	-69.398	143.434	85.633	-69.587	-66.037	-64.480	-60.785	225.553	-62.188	-8191	255	
1122.409	1	1	0	0	0.058203	0.095762	0.17721	0.17046	0.13748	0.10111	0.28712	0.034795	0.14905	0.23598	0.20422	0.28499	0.22908	0.07721	0.078311	0.38017	-2.2917	-2.3937	-2.6312	-2.8083	-2.3771	-2.55	-2.5125	-2.5312	-2.7479	-2.425	-2.55	-2.9458	-2.4188	-2.5583	-2.5917	-2.5458	83.382	-19.435	-75.798	148.523	31.165	138.752	135.435	260.867	159.111	-41.045	-35.974	241.162	248.961	58.629	209.260	173.302	0.00042064	0.00037695	0.00074272	606.37	1.135e-05	2.8911e-05	918.65	207.23	1.5827e-05	2.0989e-05	369.34	172.54	88.574	44.534	1.4709e-05	96.115	0.015473	0.018877	0.0052563	814.44	0.0001967	0.00020457	1145.4	277.45	0.00019635	0.00020356	505.97	212.27	129.08	57.387	0.00020159	113.54	259.858	31.424	5.289	-74.512	37.631	26.434	-74.647	-69.681	-80.877	92.728	-70.216	-65.611	-64.667	-61.078	264.111	-62.154	-8191	255	
1122.505	1	1	0	0	0.16783	0.055179	0.34468	0.15888	0.098334	0.1689	0.17376	0.30889	0.25041	0.08209	0.16989	0.10823	0.2114	0.10573	0.19565	0.29331	-2.3083	-2.2542	-2.3896	-2.8312	-2.2979	-2.5458	-2.7854	-2.4854	-2.8667	-2.5792	-2.5333	-2.8375	-2.3688	-2.675	-2.6896	-2.3063	178.226	92.263	106.452	-38.581	260.086	48.558	92.535	-28.879	-20.209	193.972	178.734	-84.606	89.207	38.910	203.290	253.415	0.00038975	0.0020227	2.0467e-05	605.56	1.9921e-05	3.8146e-05	918.6	211.08	1.2522e-05	2.4246e-05	376.23	175.97	90.979	45.816	1.1837e-05	97.938	0.015621	0.019216	0.0054012	821.54	0.00020598	0.00021577	1159.1	285.19	0.00020486	0.00021416	518.33	218.01	132.96	59.186	0.00020577	115.53	233.328	144.818	235.097	-74.741	104.516	13.914	-74.269	-69.534	65.396	143.523	-70.092	-65.945	-65.239	-60.875	-86.521	-62.289	-8191	255	
1122.601	1	1	0	0	0.18369	0.19357	0.21316	0.17318	0.24715	0.15308	0.11412	0.22209	0.15228	0.082341	0.075436	0.23127	0.11833	0.20386	0.18867	0.27158	-2.2313	-2.4875	-2.2729	-2.8396	-2.3354	-2.5521	-2.8354	-2.2229	-2.8854	-2.625	-2.2812	-2.9417	-2.4542	-2.6896	-2.8021	-2.7188	66.049	-82.016	-56.046	255.405	21.850	86.344	111.384	167.030	209.031	126.929	200.645	239.701	236.864	-70.316	133.825	190.845	0.00014923	0.0020254	0.00046977	601.88	3.3017e-05	1.2298e-05	927.79	212.93	9.9118e-06	7.2626e-06	380.54	179.53	93.377	46.631	3.5795e-06	99.269	0.015753	0.019169	0.0053035	820.24	0.00020201	0.00021178	1161	286.84	0.00020501	0.00021305	522.93	221.48	135.61	60.274	0.00020993	117.79	170.025	26.906	61.322	-74.686	100.468	81.289	-74.488	-69.756	121.846	93.169	-70.094	-65.901	-65.087	-61.035	256.102	-62.343	-8191	255	
1122.697	1	1	0	0	0.13169	0.1941	0.10481	0.14664	0.15038	0.060042	0.12366	0.24612	0.16801	0.036786	0.34424	0.19908	0.3004	0.13808	0.057269	0.23781	-2.3	-2.2771	-2.3438	-2.7	-2.4938	-2.5396	-2.9313	-2.3271	-2.7125	-2.5521	-2.2979	-2.8396	-2.5687	-2.4813	-2.6354	-2.3937	6.732	-19.387	24.814	267.934	252.845	-32.954	-63.416	148.345	-46.008	179.478	218.115	258.239	228.456	228.582	-42.421	232.324	0.00010316	0.001034	0.00068205	615.82	3.1176e-05	6.6582e-06	940.03	215.7	9.5913e-06	6.0066e-06	381.7	180.6	93.398	46.984	1.5985e-05	100.28	0.016307	0.019901	0.0055506	841.08	0.00021241	0.00022088	1183.2	291.71	0.00021227	0.00021844	527.2	222.66	136.48	60.555	0.00020994	118.21	-48.537	239.689	130.715	-74.893	187.740	95.310	-74.595	-69.730	34.310	104.570	-69.977	-66.044	-65.222	-61.136	203.327	-62.615	-8191	255	
1122.818	1	1	0	0	0.35841	0.16459	0.018686	0.080206	0.19261	0.21786	0.13754	0.19205	0.075044	0.25583	0.2825	0.21907	0.15357	0.19052	0.083469	0.16356	-2.1958	-2.5687	-2.3563	-2.9104	-2.3438	-2.5292	-2.9437	-2.4729	-2.5521	-2.7625	-2.3458	-3.0375	-2.5583	-2.5521	-2.925	-2.5583	59.068	-25.556	-81.395	78.739	-72.539	235.916	-72.645	240.066	140.114	14.397	-19.178	211.985	228.856	-63.276	-75.265	208.343	0.00054757	0.0022201	6.8892e-05	618.21	1.5023e-05	1.1655e-05	936.85	216.33	2.2916e-05	1.8506e-05	384.02	180.07	93.177	47.079	1.7643e-05	100.29	0.016289	0.019721	0.0054704	838.12	0.00020999	0.00021728	1175.7	290.89	0.00021138	0.00021629	527.09	222.67	136.5	60.662	0.00021253	118.78	199.179	-78.604	264.710	-74.995	61.814	167.004	-74.580	-69.766	-51.330	129.182	-69.802	-65.815	-64.991	-61.016	60.428	-62.293	-8191	255	
1122.914	1	1	0	0	0.1102	0.050882	0.24546	0.12808	0.16853	0.06948	0.21986	0.30204	0.35859	0.089196	0.15948	0.10126	0.052686	0.28237	0.20862	0.24665	-2.05	-2.7729	-2.1833	-2.8042	-2.4583	-2.3292	-2.9979	-2.3292	-2.5312	-2.7583	-2.4417	-2.9146	-2.4875	-2.2896	-2.8042	-2.5583	39.554	-9.023	83.465	221.606	76.110	-39.150	238.656	246.068	-15.090	145.980	126.023	216.026	199.021	221.623	230.337	166.593	0.00030131	0.0016352	0.00021115	620.45	1.1561e-05	1.7861e-05	944.42	219.67	2.2259e-05	9.5703e-06	386.93	183.87	95.783	47.917	1.3732e-05	102.08	0.016548	0.019961	0.005596	849.09	0.00021531	0.00022325	1191.3	296.39	0.00021712	0.00022345	535.53	227.05	139.73	61.873	0.00021665	120.86	241.827	-55.326	17.188	-74.784	137.264	49.065	-74.589	-69.661	84.812	117.096	-70.145	-65.907	-65.228	-60.906	70.390	-62.227	-8191	255	
1123.010	1	1	0	0	0.26635	0.17988	0.31298	0.13047	0.086179	0.054297	0.21821	0.13265	0.2205	0.064577	0.15204	0.067672	0.15625	0.09945	0.041884	0.24724	-1.9312	-2.6437	-2.4771	-2.6188	-2.6479	-2.3	-2.9771	-2.6604	-2.3354	-2.7667	-2.4396	-2.7125	-2.7313	-2.375	-2.7167	-2.7208	-26.061	-25.878	195.009	-70.204	189.553	49.034	-36.082	124.140	5.503	195.028	222.099	104.413	94.993	268.946	-58.467	211.281	0.00046014	0.0041646	0.00023933	628.56	1.6306e-05	1.7292e-05	947.33	221.16	5.1761e-06	1.9367e-05	394.11	187.1	96.603	48.703	1.9162e-05	103.26	0.016747	0.02016	0.00563	854.2	0.00021378	0.00022087	1196.2	297.96	0.0002139	0.00022042	538.8	229.45	140.42	62.669	0.00021612	122.45	263.035	92.882	270.559	-74.379	-41.567	96.483	-74.433	-69.714	20.911	43.694	-70.304	-65.904	-65.379	-61.303	140.410	-62.313	-8191	255	
1123.106	1	1	0	0	0.15896	0.1898	0.11257	0.31056	0.25227	0.045989	0.23844	0.21088	0.18696	0.17718	0.081665	0.2007	0.10253	0.3723	0.15511	0.16431	-1.7417	-2.7729	-2.2583	-2.7667	-2.7375	-2.3438	-2.8167	-2.575	-2.4188	-2.8896	-2.4396	-2.6917	-2.7729	-2.3	-2.6354	-2.5938	42.564	132.190	128.308	163.863	-33.434	61.696	184.898	172.359	133.041	-54.634	203.954	206.237	247.411	262.843	-40.506	208.394	0.00015604	0.00153	0.00050435	632.3	6.7919e-06	1.2722e-05	954.31	224.67	3.4741e-06	1.2209e-05	396.68	188.68	98.64	49.767	7.3258e-06	104.65	0.016779	0.02034	0.0057365	864.28	0.0002181	0.00022505	1206.9	302.79	0.00021711	0.00022312	545.9	231.91	142.55	63.605	0.00021809	123.44	221.928	39.154	-65.413	-75.047	47.607	133.386	-74.665	-69.339	45.474	-52.746	-69.955	-65.858	-65.102	-61.020	-9.831	-62.470	-8191	255	
1123.201	1	1	0	0	0.18022	0.070422	0.3433	0.10873	0.14061	0.10599	0.26224	0.12971	0.22794	0.20738	0.1217	0.21735	0.17468	0.045513	0.20834	0.034815	-1.8229	-2.7292	-2.5062	-2.4542	-2.8563	-2.4292	-2.75	-2.7271	-2.2542	-2.7	-2.4729	-2.6521	-2.6854	-2.3333	-2.6646	-2.7438	-69.218	-65.445	243.068	78.591	193.871	223.327	-49.683	209.311	76.183	21.472	188.755	258.516	143.778	-31.179	244.415	158.685	0.00053035	0.0012225	0.00029898	631.37	8.1868e-06	5.4244e-06	952.14	226.17	6.3939e-06	1.2552e-05	392.73	187.18	97.738	49.013	1.5228e-05	102.72	0.016573	0.019978	0.0055931	854.36	0.00021133	0.00021875	1190.3	301.06	0.00020792	0.00021526	535.91	228.21	139.18	62.297	0.00020882	120.61	246.679	31.053	44.285	-74.669	63.661	201.810	-74.438	-69.985	187.849	119.742	-70.591	-65.926	-65.091	-61.200	22.876	-62.116	-8191	255	
1123.297	1	1	0	0	0.19911	0.12987	0.21165	0.31566	0.22192	0.16516	0.18036	0.11419	0.043223	0.27165	0.20439	0.17592	0.1838	0.19501	0.098821	0.038361	-1.9354	-2.6417	-2.5229	-2.4938	-2.7229	-2.3354	-2.7313	-2.7146	-2.3625	-2.8542	-2.3896	-2.5333	-2.8167	-2.4938	-2.55	-2.7417	210.455	21.634	193.163	249.758	94.745	15.719	237.076	199.970	139.456	158.593	258.547	220.450	263.546	186.927	-28.965	119.349	0.00048738	0.0013649	0.00058669	621.93	2.5733e-05	1.8306e-05	941.04	221.96	4.7082e-06	1.0174e-05	388.21	183.61	95.472	47.665	5.331e-06	100.94	0.016016	0.019422	0.0054613	842.71	0.00020423	0.0002132	1176.3	293.93	0.0002019	0.00020799	525.31	222.84	135.4	60.455	0.00019906	117.65	265.923	-0.889	-85.350	-74.436	82.613	76.906	-74.380	-69.844	133.512	105.239	-70.115	-65.859	-65.019	-61.123	-64.540	-62.137	-8191	255	
1123.393	1	1	0	0	0.14372	0.10966	0.046501	0.2998	0.15959	0.15735	0.13877	0.2895	0.26445	0.14602	0.20366	0.048806	0.18831	0.42984	0.17754	0.10075	-1.8521	-2.6083	-2.5687	-2.3896	-2.8104	-2.3479	-2.8354	-2.5542	-2.05	-2.6875	-2.7333	-2.5708	-2.8563	-2.5167	-2.7271	-2.9479	226.592	-73.531	-62.676	266.656	-34.756	61.799	194.975	260.947	85.999	249.454	167.817	-54.580	79.403	242.082	265.606	-46.873	0.00024214	0.0021788	0.00020514	620.77	4.4927e-06	2.0942e-05	938.63	218.11	2.7855e-06	3.6019e-05	385.25	182.17	94.124	47.65	9.3045e-06	100.5	0.015065	0.018242	0.0050857	818.11	0.0001908	0.00019831	1149.8	285.3	0.00019154	0.00019893	514.87	219.7	133.35	59.907	0.00019559	117.02	-59.580	16.166	231.329	-74.757	11.186	170.360	-74.376	-69.341	-76.076	1.014	-70.321	-65.497	-65.227	-60.957	-85.401	-62.046	-8191	255	
1123.514	1	1	0	0	0.15642	0.21511	0.14323	0.21258	0.20677	0.039886	0.36813	0.21943	0.22642	0.12554	0.31249	0.078847	0.15011	0.098081	0.12158	0.20758	-1.9979	-2.6167	-2.5833	-2.4146	-2.8375	-2.5229	-2.6312	-2.8771	-2.4854	-2.4917	-2.6458	-2.3896	-2.7458	-2.4208	-2.325	-2.7708	222.110	199.363	150.816	-71.240	178.366	138.043	233.104	-69.000	168.165	257.458	-67.700	228.099	-69.001	150.138	136.540	261.594	0.00057503	0.0027186	0.000385	620.04	3.234e-05	2.2309e-05	938.45	217.35	1.8347e-06	6.7475e-06	380.02	179.75	93.016	46.246	2.611e-05	98.55	0.014949	0.018264	0.0050976	817.93	0.00019127	0.00019854	1152.9	283.94	0.00018984	0.00019716	510.29	216.84	131.24	58.543	0.0001903	114.29	242.299	98.829	-0.107	-74.493	191.582	43.755	-74.531	-69.602	101.318	91.963	-70.279	-65.845	-64.618	-60.763	140.526	-61.861	-8191	255	
1123.610	1	1	0	0	0.071111	0.1885	0.21672	0.19824	0.18313	0.0082017	0.3277	0.20977	0.2278	0.079905	0.15584	0.11364	0.21684	0.057759	0.11951	0.18869	-1.7354	-2.5521	-2.5771	-2.4125	-2.575	-2.5729	-2.4938	-2.7646	-2.3458	-2.7083	-2.8167	-2.6271	-2.6229	-2.6792	-2.4146	-2.8396	85.453	149.623	32.664	-67.999	-62.433	268.382	239.567	25.283	-14.977	137.188	227.948	266.783	117.415	-46.517	132.808	267.446	0.0003364	0.00061276	0.0010361	608.79	1.7402e-05	1.9123e-05	927.78	215.57	1.9889e-05	1.8944e-05	380	178.64	93.299	46.837	1.8943e-05	98.49	0.014508	0.017804	0.0049351	806.62	0.00018852	0.00019786	1141.4	282.69	0.00019265	0.00020097	512.07	217.26	132.43	59.245	0.0001957	115.45	239.016	-5.852	-45.708	-74.878	107.805	104.696	-74.102	-69.830	72.626	50.223	-69.908	-65.459	-64.908	-60.849	87.759	-61.965	-8191	255	
1123.682	1	1	0	0	0.17691	0.14593	0.058408	0.24368	0.14199	0.33755	0.29232	0.057863	0.21758	0.13943	0.29518	0.054398	0.06595	0.16221	0.065558	0.22687	-1.9104	-2.3917	-2.5646	-2.4125	-2.6521	-2.6229	-2.6146	-2.7812	-2.4458	-2.575	-2.8417	-2.4375	-2.7354	-2.7104	-2.3875	-2.8812	46.480	-62.004	108.743	67.293	102.302	127.973	147.789	-19.418	259.558	147.768	128.023	159.519	266.269	221.010	47.240	197.375	0.00042894	0.00098778	0.00043888	614.51	1.8116e-05	7.2147e-06	930.37	213.1	1.6085e-05	1.3244e-05	379.54	177.54	92.729	46.169	2.6619e-05	98.278	0.015102	0.018378	0.0050592	814.8	0.00019366	0.00020005	1146.8	281.78	0.000192	0.00019966	509.2	215.6	131.35	58.525	0.00019585	115.03	257.370	-40.274	44.423	-74.349	79.799	98.318	-73.914	-69.428	51.417	67.717	-69.940	-65.355	-64.875	-60.493	15.269	-61.821	-8191	255	
1123.778	1	1	0	0	0.2057	0.18513	0.21189	0.23292	0.13804	0.15941	0.31228	0.11281	0.1542	0.15953	0.094665	0.050868	0.07846	0.25981	0.215	0.27337	-2.0021	-2.275	-2.575	-2.3312	-2.6437	-2.6729	-2.4479	-2.8542	-2.4833	-2.3125	-2.7833	-2.3937	-2.6521	-2.7521	-2.2917	-2.7292	-47.974	84.171	107.803	-61.087	197.555	-14.561	97.673	13.595	67.764	220.832	90.692	201.280	234.543	-57.683	221.183	198.325	0.00044526	0.0025021	0.00027435	619.15	2.1912e-05	2.5421e-05	941.42	213.95	5.7119e-06	1.0964e-05	379.95	177.45	91.833	46.299	9.8149e-06	98.987	0.015207	0.018541	0.0051298	824.34	0.00019811	0.000206	1166	285.03	0.00020099	0.00020783	514.49	217.59	133.11	59.252	0.00020373	116.44	200.333	46.731	-84.759	-74.791	129.000	-23.712	-74.234	-69.576	220.705	-83.937	-69.899	-65.336	-64.813	-60.881	146.406	-62.063	-8191	255	
1123.898	1	1	0	0	0.15378	0.11189	0.052606	0.32989	0.22469	0.12102	0.034219	0.30262	0.25874	0.11529	0.27497	0.097627	0.031595	0.29189	0.14689	0.18463	-2.0563	-2.4396	-2.6208	-2.3792	-2.575	-2.7833	-2.3583	-2.6833	-2.5687	-2.4167	-2.7875	-2.5271	-2.6437	-2.7958	-2.2292	-2.7104	35.045	154.151	205.992	133.861	6.354	28.765	196.461	220.210	258.339	126.573	259.339	-59.728	76.779	226.625	138.873	-84.425	0.00060673	0.0022894	0.00041124	625.2	2.2178e-05	1.8046e-05	940.67	214.34	4.7607e-06	9.4994e-06	378.91	178.32	91.089	45.817	1.6855e-05	98.457	0.015871	0.019292	0.0053435	838.22	0.00020488	0.00021052	1173.6	286.55	0.00020051	0.00020592	514.27	217.34	132	58.72	0.0002005	115.37	254.041	-29.229	239.796	-74.560	93.519	94.285	-74.420	-69.450	27.492	19.942	-69.971	-65.956	-64.661	-60.688	184.870	-61.872	-8191	255	
1123.994	1	1	0	0	0.14185	0.29315	0.18089	0.36648	0.15616	0.23771	0.33677	0.045565	0.19221	0.15911	0.10572	0.23505	0.26151	0.12343	0.21493	0.13555	-2.1167	-2.3271	-2.5646	-2.3875	-2.4375	-2.6083	-2.4	-2.8271	-2.7521	-2.425	-2.9229	-2.5479	-2.6375	-2.9688	-2.3563	-2.8229	212.900	28.285	3.652	240.265	101.855	-26.903	210.568	32.085	53.965	255.718	143.426	-86.462	209.192	235.625	2.267	232.432	0.00035874	0.00094689	0.00024959	629.33	1.4012e-05	2.6608e-05	948.11	213.95	1.2911e-05	2.7712e-05	379.05	178.8	92.582	46.739	4.9209e-06	99.225	0.015565	0.018904	0.0053294	841.11	0.00020526	0.00021298	1183.4	288.2	0.00020895	0.00021638	523.99	221.1	136.05	60.245	0.00021396	118	261.860	226.673	-11.879	-74.807	259.407	131.274	-74.657	-69.291	98.314	26.679	-70.129	-66.003	-64.906	-61.186	154.471	-62.155	-8191	255	
1124.091	1	1	0	0	0.1466	0.20588	0.14495	0.26485	0.058994	0.13068	0.42102	0.2008	0.14079	0.15753	0.14781	0.39881	0.18222	0.37018	0.29808	0.2079	-2.1979	-2.4813	-2.8583	-2.6833	-2.3396	-2.7812	-2.5292	-2.6708	-2.725	-2.3625	-2.9604	-2.6396	-2.4729	-2.8083	-2.4021	-2.7521	213.782	155.495	18.700	71.738	44.529	213.044	184.995	203.569	78.574	156.065	-81.254	138.999	156.542	243.885	87.002	172.200	0.00028267	0.0006652	4.227e-05	627.3	5.8489e-06	1.1745e-05	954.66	216.5	1.7158e-06	7.6102e-06	384.78	182.3	94.446	47.506	1.6803e-05	100.58	0.016514	0.020055	0.0056332	856.56	0.00021566	0.00022357	1202.1	294.71	0.0002167	0.0002239	534.42	225.82	138.94	61.556	0.00022037	119.83	218.063	265.545	240.131	-74.691	7.217	56.296	-74.634	-69.546	157.466	76.467	-69.788	-65.362	-64.970	-61.079	136.765	-61.993	-8191	255	
1124.187	1	1	0	0	0.040403	0.19802	0.092762	0.24498	0.20034	0.07299	0.15389	0.11304	0.099261	0.19455	0.27555	0.14626	0.28415	0.1604	0.16171	0.33772	-2.3292	-2.4208	-2.5854	-2.5917	-2.3438	-2.7354	-2.4813	-2.6813	-2.6125	-2.3563	-2.6167	-2.6562	-2.4104	-2.9625	-2.3729	-2.6792	152.449	93.283	126.331	-5.684	157.999	40.726	0.335	179.657	201.086	234.275	-67.613	270.649	259.876	15.671	-63.841	162.205	0.00030356	0.0023783	0.00055528	635.13	3.2532e-06	1.3467e-05	956.97	218.11	1.4718e-05	1.1879e-05	387.85	182.04	94.435	47.367	2.6587e-06	101.33	0.016863	0.020509	0.0057749	865.34	0.00021959	0.00022692	1210.3	296.95	0.00021818	0.00022545	536.87	226.18	139.04	61.695	0.0002217	120.46	226.084	30.132	158.829	-74.684	71.760	28.907	-74.260	-69.690	187.910	149.109	-69.695	-65.704	-65.057	-61.175	190.186	-61.991	-8191	255	
1124.306	1	1	0	0	0.12679	0.24222	0.14285	0.12953	0.27908	0.14722	0.23467	0.092956	0.10727	0.12687	0.25457	0.11949	0.13212	0.31784	0.041634	0.48855	-2.375	-2.2167	-2.6292	-2.5292	-2.4292	-2.6521	-2.6562	-2.3979	-2.7729	-2.3292	-2.7208	-2.6813	-2.25	-2.7292	-2.4417	-2.4	51.219	71.809	-15.500	223.153	-66.850	65.517	-77.265	196.451	168.634	192.005	255.690	223.423	-73.159	250.852	150.127	241.205	0.00050268	0.0014692	0.00047022	638.9	2.5477e-05	2.4841e-05	964.26	217.51	1.648e-06	2.4762e-05	381.42	181.03	93.88	47.294	1.6164e-05	99.768	0.016883	0.020601	0.0057802	869.23	0.00021892	0.00022702	1215	297.33	0.00021829	0.00022728	535.1	225.08	138.28	61.323	0.0002196	118.64	258.259	-10.075	-44.366	-74.740	136.314	91.743	-74.732	-69.941	72.337	97.954	-70.099	-65.729	-65.254	-61.077	253.642	-62.213	-8191	255	
1124.379	1	1	0	0	0.23838	0.32758	0.15925	0.18123	0.17866	0.098358	0.38689	0.10052	0.15638	0.11423	0.24468	0.32406	0.20579	0.40661	0.12069	0.25719	-2.1979	-2.425	-2.4938	-2.7708	-2.2812	-2.5396	-2.5896	-2.4021	-2.7333	-2.5854	-2.6562	-2.8375	-2.1958	-2.7938	-2.6646	-2.6771	-87.425	-70.458	83.291	-43.205	3.999	-66.080	253.408	-22.491	108.551	81.729	195.079	189.084	-24.825	-87.300	99.223	142.646	0.00039589	0.0036997	0.00058564	632.66	8.952e-06	1.9759e-05	945.16	212.77	1.3434e-05	9.0161e-06	374.19	178.17	91.737	46.307	1.2508e-05	98.703	0.016538	0.020157	0.005603	850.74	0.00020835	0.00021606	1184.5	286.14	0.00020351	0.00021138	516.79	217.7	133.26	59.321	0.00020541	116.02	-78.174	84.592	156.262	-74.824	11.628	4.056	-74.635	-69.597	75.375	-6.716	-69.832	-65.650	-64.976	-61.137	174.191	-62.166	-8191	255	
1124.498	1	1	0	0	0.34129	0.07055	0.091164	0.087371	0.15471	0.080814	0.11075	0.15335	0.16961	0.18061	0.16431	0.23604	0.18282	0.085627	0.12863	0.22404	-2.3729	-2.525	-2.4729	-2.6979	-2.2229	-2.5583	-2.8125	-2.5	-2.9104	-2.4792	-2.6875	-2.7062	-2.3438	-2.6708	-2.4625	-2.4542	7.413	73.489	253.674	22.989	-79.618	48.826	190.055	150.521	88.969	50.634	-27.751	203.578	124.117	248.110	0.535	183.869	0.00028139	0.002729	0.00022498	622.86	1.3628e-05	1.2388e-05	944.13	214.23	1.7622e-05	2.1319e-05	379.19	178.13	92.91	46.552	2.4809e-05	99.132	0.015773	0.019179	0.0053888	836.74	0.00020321	0.00021199	1174.1	286.14	0.00020105	0.00020836	516.89	218.11	133.13	59.338	0.0002012	116.19	244.425	-49.298	269.958	-74.507	75.364	180.562	-74.394	-69.727	-62.836	95.280	-70.034	-65.811	-64.819	-61.028	101.786	-62.185	-8191	255	
1124.594	1	1	0	0	0.061973	0.27007	0.049225	0.16687	0.12704	0.20054	0.23654	0.084984	0.19102	0.074742	0.30125	0.20032	0.34983	0.33697	0.10589	0.16307	-2.2708	-2.4583	-2.2125	-2.6375	-2.4458	-2.7375	-2.8146	-2.4313	-2.7354	-2.5625	-2.6125	-3.0021	-2.5104	-2.6167	-2.7729	-2.6562	246.849	89.998	-41.380	-73.808	172.006	192.474	206.069	181.162	259.438	-9.450	204.335	204.949	186.876	261.330	63.742	143.206	0.00022465	0.0046574	0.00067622	622.32	2.77e-06	2.4079e-05	940.75	213.16	7.0131e-06	1.6518e-05	378.49	179.13	92.639	46.673	6.8624e-06	99.739	0.015512	0.018913	0.005294	829.99	0.00020093	0.00020991	1167.6	284.61	0.00020032	0.00020733	515.78	218.68	133.68	59.595	0.00019845	116.48	223.104	-0.325	-73.063	-74.464	269.270	55.655	-74.361	-69.718	76.417	-38.990	-70.110	-65.759	-64.970	-60.812	-8.409	-62.063	-8191	255	
1124.690	1	1	0	0	0.084444	0.053128	0.023139	0.20974	0.10365	0.071668	0.17321	0.15069	0.16525	0.12157	0.19707	0.3526	0.17057	0.45122	0.054524	0.06162	-2.2521	-2.6354	-2.4188	-2.8125	-2.45	-2.5521	-2.8167	-2.4021	-2.5625	-2.6896	-2.4833	-2.9708	-2.6813	-2.5521	-2.8625	-2.5521	204.514	204.501	-5.305	-79.308	215.980	142.707	-52.762	154.226	-39.215	-79.187	-48.033	263.922	194.096	268.074	252.900	39.061	0.00034858	0.0017756	0.00044557	623.5	1.6092e-05	1.6642e-05	934.78	214.3	2.4847e-05	2.6827e-05	380.54	181.16	94.189	47.589	6.9174e-06	100.47	0.015236	0.018518	0.0051578	824.56	0.00019794	0.00020635	1160	286.63	0.00020212	0.00020948	519.94	221.8	136.07	60.843	0.00020398	118.15	212.421	-21.174	-17.997	-74.606	8.800	88.138	-74.482	-69.465	70.387	34.519	-69.788	-65.883	-64.950	-60.995	186.797	-62.152	-8191	255	
1124.786	1	1	0	0	0.030028	0.14992	0.23035	0.15613	0.2689	0.13081	0.29102	0.085414	0.20241	0.17362	0.20722	0.1176	0.2582	0.33029	0.12104	0.31803	-2.1333	-2.675	-2.2438	-2.8063	-2.6875	-2.5042	-3.125	-2.4437	-2.5229	-2.8063	-2.2958	-2.9083	-2.6417	-2.5125	-2.7083	-2.5708	-61.575	121.656	37.608	-83.215	179.371	-21.255	223.672	104.172	30.037	-13.586	222.366	-48.044	211.949	204.110	214.490	195.280	0.00030821	0.00060777	0.00041966	617.33	3.4891e-06	1.3861e-05	934.62	219.45	5.7425e-06	2.0861e-05	384	183.22	96.066	48.605	1.2546e-05	101.46	0.015806	0.019051	0.005292	833.16	0.00020425	0.00021255	1170.7	291.16	0.00020727	0.00021279	527.29	224.72	138.51	61.923	0.0002095	119.83	-76.576	51.282	123.137	-74.544	161.538	-32.263	-74.376	-69.901	22.108	44.361	-70.059	-66.148	-65.014	-60.980	-23.268	-62.382	-8191	255	
1124.907	1	1	0	0	0.11812	0.14342	0.055439	0.11397	0.047944	0.13477	0.406	0.14842	0.17189	0.11817	0.36108	0.29475	0.23381	0.2451	0.11221	0.23511	-2.1271	-2.5604	-2.3167	-2.8875	-2.4042	-2.3896	-2.8563	-2.3229	-2.5292	-2.7208	-2.425	-2.8917	-2.7	-2.4104	-2.8438	-2.7604	206.069	64.718	261.155	201.949	240.743	-85.737	271.044	76.361	76.231	-44.647	203.962	251.034	144.428	-80.428	123.345	-81.408	0.00027319	0.0013328	0.00029243	623.41	9.1042e-06	2.8187e-05	938.85	219.26	2.5225e-06	2.3352e-05	390.61	185.97	97.141	49.391	1.2361e-05	103.17	0.016201	0.019484	0.0054148	841.31	0.00020603	0.00021272	1171.9	293.02	0.00020407	0.00020895	527.55	226.47	138.91	62.267	0.0002034	120.9	254.833	7.680	-13.074	-74.659	89.802	43.330	-74.372	-69.941	224.243	45.779	-70.296	-65.958	-64.889	-61.150	95.057	-62.290	-8191	255	
1124.979	1	1	0	0	0.33785	0.18084	0.21557	0.18149	0.18275	0.045555	0.19824	0.12514	0.19972	0.26951	0.034854	0.53247	0.056534	0.04921	0.23658	0.20398	-1.9125	-2.7917	-2.2917	-2.6937	-2.75	-2.4708	-2.8708	-2.5187	-2.3167	-2.7479	-2.2708	-2.8854	-2.7583	-2.3729	-2.7542	-2.5583	139.318	92.885	113.582	242.032	29.084	-29.037	-79.247	242.535	54.200	152.587	76.468	197.984	-80.902	-81.897	240.329	243.554	0.00054358	0.0024428	8.7148e-05	624.79	4.2678e-06	1.4116e-05	945.7	224.29	1.8907e-05	1.709e-05	395.56	187.47	98.912	49.877	8.3237e-06	104.93	0.015727	0.018973	0.0052928	835.93	0.00020297	0.00020895	1171.5	296.14	0.00020211	0.00020641	529.7	227.76	139.28	62.607	0.00019913	121.53	-87.065	-33.542	56.935	-74.856	-28.436	52.019	-74.559	-69.611	51.436	127.401	-70.181	-66.048	-65.344	-61.040	-32.908	-62.436	-8191	255	
1125.075	1	1	0	0	0.094957	0.25817	0.20777	0.043579	0.11596	0.084956	0.12907	0.25213	0.23644	0.013949	0.30999	0.16653	0.14652	0.1428	0.15974	0.18699	-2.1021	-2.7229	-2.5875	-2.7646	-2.6375	-2.2854	-2.7979	-2.6521	-2.3479	-2.775	-2.4708	-2.6937	-2.8937	-2.2917	-2.6792	-2.5708	83.427	92.769	112.788	49.187	72.561	134.029	161.232	-86.382	-28.448	-42.042	228.522	170.190	234.296	199.209	-58.510	185.462	0.00028015	0.00021495	0.00061341	622.77	2.0007e-05	2.3868e-05	937.47	223.93	1.0144e-05	9.1113e-06	393.15	185.95	97.79	49.154	2.0462e-05	102.68	0.015361	0.018524	0.0051673	830.36	0.00019561	0.00020122	1161.4	292.21	0.00019366	0.00019851	523.49	224.86	136.66	61.457	0.00019418	119.35	-70.088	-2.599	67.132	-74.736	214.475	118.220	-74.617	-69.285	115.288	135.208	-69.721	-65.886	-64.839	-61.199	112.082	-62.224	-8191	255	
1125.171	1	1	0	0	0.26958	0.21161	0.14065	0.25165	0.12906	0.072542	0.075456	0.065497	0.098827	0.10853	0.24086	0.15012	0.077124	0.19752	0.050763	0.1127	-1.9104	-2.5396	-2.4146	-2.6521	-2.7917	-2.3333	-2.8729	-2.6771	-2.5333	-2.7729	-2.6688	-2.8	-2.9604	-2.3438	-2.6583	-2.7229	139.590	26.526	208.183	207.925	-32.361	13.534	34.622	14.501	-53.527	17.517	215.435	201.159	148.577	226.067	80.091	-49.506	0.0005488	0.00094609	0.00037625	616.7	1.7252e-05	1.1884e-05	933.69	221.12	7.3594e-06	1.3201e-05	384.32	184.86	96.271	48.223	1.1661e-05	101.96	0.014918	0.017977	0.0050715	820.56	0.00019097	0.00019824	1149.4	288.57	0.00018882	0.00019361	513.87	221.06	133.88	60.149	0.00018818	117.83	260.093	231.464	35.936	-74.513	116.462	96.174	-74.553	-69.982	149.088	174.753	-70.019	-65.643	-65.268	-60.881	-14.193	-62.337	-8191	255	
1125.290	1	1	0	0	0.15768	0.18978	0.20716	0.29032	0.1674	0.040829	0.21759	0.23014	0.24868	0.088184	0.22133	0.39132	0.13725	0.27767	0.13727	0.19212	-1.8417	-2.5646	-2.5021	-2.4375	-2.8563	-2.2604	-2.6875	-2.8271	-2.3125	-2.775	-2.4958	-2.5417	-2.7062	-2.4896	-2.7542	-2.7958	23.220	106.237	43.550	246.619	49.437	101.861	100.649	193.437	89.843	137.096	213.101	-76.784	195.663	270.476	198.165	137.027	0.00034629	0.0018437	0.00015835	614.17	1.1108e-05	2.0061e-05	924.65	220.28	1.1491e-05	7.1434e-06	382.73	182.3	94.843	47.925	9.776e-06	101.03	0.014418	0.017515	0.0048951	807.94	0.00018432	0.00019173	1137.9	283.9	0.00018274	0.00018933	508.97	218.36	131.13	59.319	0.00018423	116.44	242.076	117.942	183.298	-74.282	217.925	27.275	-74.473	-69.844	217.743	166.042	-69.764	-65.924	-65.221	-60.994	204.162	-62.305	-8191	255	
1125.386	1	1	0	0	0.053298	0.09464	0.26537	0.35166	0.1828	0.13207	0.24921	0.22199	0.11499	0.22982	0.08158	0.23599	0.10697	0.20022	0.28324	0.025978	-1.8917	-2.625	-2.7292	-2.5083	-2.675	-2.4313	-2.6354	-2.7958	-2.2875	-2.8167	-2.625	-2.3312	-2.8	-2.6	-2.5563	-2.8438	119.088	174.427	68.900	222.464	101.878	35.143	210.373	-42.458	187.583	-65.526	-54.273	157.819	42.211	255.609	45.165	161.242	0.00028823	0.00072373	2.0247e-05	614.39	1.8936e-06	1.2202e-05	931.23	218.98	3.7929e-06	1.9863e-05	389.72	184.15	95.149	48.169	2.5915e-05	101.78	0.014137	0.017321	0.0048404	804.5	0.00018376	0.00019232	1141.6	284.59	0.00018526	0.00019301	513.62	220.58	133.08	59.972	0.00018778	117.27	246.318	11.329	-0.717	-74.681	17.231	5.847	-74.483	-69.794	-82.553	65.231	-70.098	-65.659	-65.223	-60.948	118.073	-62.464	-8191	255	
1125.482	1	1	0	0	0.28815	0.12599	0.065274	0.095314	0.17023	0.22088	0.26206	0.2886	0.14083	0.29165	0.046236	0.39202	0.20929	0.062585	0.28814	0.31073	-1.8104	-2.5771	-2.5375	-2.5375	-2.7354	-2.3708	-2.575	-2.8583	-2.3187	-2.6479	-2.65	-2.3354	-2.7458	-2.5312	-2.3583	-2.9271	18.981	67.767	199.565	166.263	264.806	257.339	204.753	238.443	204.594	-52.568	-52.161	197.591	132.156	168.742	4.294	249.268	0.00034117	0.0015683	0.00036754	609.56	1.7129e-05	1.6157e-05	927.09	219.06	1.4773e-05	4.4e-06	385.92	181.97	95.495	47.826	2.485e-05	100.78	0.014305	0.017482	0.0048827	803.2	0.00018441	0.00019202	1136.3	283.67	0.00018371	0.00019218	511.26	219.28	132.38	59.625	0.00018776	116.62	262.848	-21.641	122.170	-74.716	-13.709	141.793	-74.453	-69.549	28.284	93.690	-69.800	-65.722	-65.137	-60.864	174.310	-62.414	-8191	255	
1125.578	1	1	0	0	0.26199	0.24185	0.15372	0.23796	0.036403	0.14212	0.17584	0.25536	0.25828	0.19649	0.14909	0.17281	0.32154	0.31089	0.18523	0.088917	-1.8417	-2.5583	-2.4271	-2.275	-2.6875	-2.6	-2.5	-2.85	-2.3312	-2.4	-2.7062	-2.4083	-2.7729	-2.6354	-2.3438	-2.8125	-84.239	247.503	231.167	2.167	106.022	185.322	210.355	221.910	42.974	-82.758	238.223	233.056	-85.289	-74.529	267.012	128.568	0.00041994	0.0010444	0.00036012	614.94	1.9828e-05	1.4458e-05	929.97	218.44	5.4402e-06	2.8306e-05	386.92	184.97	96.665	48.869	9.6613e-06	102.93	0.014475	0.017765	0.0049584	807.95	0.00018795	0.00019644	1141.9	285.33	0.00018984	0.00019733	516.3	222.25	135.79	61.007	0.0001951	119.28	261.979	148.464	-72.402	-75.155	94.381	107.911	-74.560	-69.559	-75.363	21.189	-69.905	-65.928	-64.744	-61.111	96.351	-62.132	-8191	255	
1125.673	1	1	0	0	0.13115	0.3307	0.24212	0.2429	0.17107	0.15684	0.2392	0.17598	0.071047	0.25832	0.19787	0.18431	0.3002	0.03215	0.338	0.32372	-1.8833	-2.4979	-2.5687	-2.3167	-2.6458	-2.6188	-2.5417	-2.7833	-2.3708	-2.5563	-2.7146	-2.5354	-2.6958	-2.6937	-2.2542	-2.8563	-35.424	109.986	229.170	253.604	114.056	156.979	-20.978	194.121	153.216	6.255	164.066	171.034	267.198	95.802	-85.145	125.458	0.0003071	0.0028703	0.00055408	616.82	9.7041e-06	7.8459e-06	933.7	223.63	1.4867e-05	1.2782e-05	393.07	188.34	97.685	49.187	8.6887e-06	103.35	0.014931	0.018226	0.0050541	817.1	0.00019177	0.00019939	1150.5	290.55	0.00019128	0.00019869	522.49	225.25	136.75	61.368	0.00019227	119.76	197.761	-46.481	29.385	-74.440	-64.785	72.532	-74.576	-69.753	-39.622	88.160	-70.202	-65.894	-64.776	-61.088	162.166	-62.472	-8191	255	
1125.771	1	1	0	0	0.096069	0.19937	0.12236	0.31445	0.23256	0.10243	0.15069	0.12492	0.24812	0.16137	0.19876	0.15282	0.042559	0.35146	0.057216	0.25035	-2.0875	-2.5	-2.6813	-2.4292	-2.6542	-2.7896	-2.6458	-2.9458	-2.5438	-2.4271	-2.7062	-2.4667	-2.6583	-2.7979	-2.2896	-2.7229	226.745	27.181	132.084	237.136	243.871	257.394	194.076	235.297	37.049	2.642	225.407	190.858	175.783	161.516	-14.452	178.442	0.00030405	0.00084342	0.00081844	612.51	8.543e-06	1.1909e-05	935.29	224.42	1.2211e-05	1.2123e-06	395.46	188.75	98.865	49.378	1.3229e-05	104.33	0.014907	0.018122	0.0049961	814.82	0.00019135	0.00019796	1150.4	291.37	0.00019098	0.00019632	522.63	225.15	136.85	61.433	0.00019163	120.41	257.755	108.024	-7.738	-74.912	61.747	45.649	-74.613	-69.343	-5.276	180.955	-69.851	-65.724	-65.178	-61.215	64.505	-62.377	-8191	255	
1125.890	1	1	0	0	0.13842	0.10932	0.12422	0.1469	0.076181	0.28308	0.028464	0.058107	0.11554	0.17331	0.18578	0.19721	0.13321	0.055551	0.15968	0.28415	-2.1437	-2.4813	-2.6708	-2.4437	-2.6792	-2.5812	-2.4604	-2.8604	-2.5375	-2.4792	-2.8979	-2.5	-2.4042	-2.8833	-2.3937	-2.8271	218.036	133.824	-67.226	196.853	244.501	-60.321	97.943	258.642	-71.872	159.364	-33.810	262.250	161.120	246.666	30.265	231.101	0.00040359	0.0019096	0.00065724	619.22	1.4011e-05	1.6349e-05	939.35	227.03	1.1297e-05	6.2591e-06	396.55	188.58	99.618	49.723	9.3281e-06	104.6	0.014997	0.018203	0.0050602	821.13	0.00019605	0.00020168	1156.7	295.43	0.00019536	0.00020076	528.07	226.69	138.67	62.081	0.00019417	120.77	220.606	22.114	17.179	-74.894	57.826	245.196	-74.612	-69.838	14.289	43.607	-69.943	-66.012	-65.123	-61.205	238.160	-62.416	-8191	255	
1125.986	1	1	0	0	0.057275	0.044232	0.18526	0.29127	0.10004	0.1723	0.12249	0.017256	0.045519	0.24002	0.091663	0.088793	0.1179	0.1393	0.38718	0.33095	-2.1292	-2.5146	-2.5979	-2.5354	-2.4292	-2.6958	-2.2708	-2.7104	-2.7417	-2.3542	-2.9583	-2.4875	-2.725	-2.9062	-2.3812	-2.7438	162.695	-53.745	125.388	-80.844	5.353	268.446	-84.197	-69.646	-34.220	6.494	-0.925	215.801	266.757	242.045	235.861	151.559	0.0004358	0.0039473	0.00025094	617.7	6.2419e-06	1.2941e-05	932.03	225.56	1.9348e-05	1.4911e-05	394.18	186.45	97.59	49.012	6.2821e-06	102.57	0.015116	0.018188	0.0050635	822.12	0.00019556	0.00020102	1153.1	294.47	0.00019445	0.00019912	523.61	224.81	136.89	61.143	0.00018986	118.81	-86.891	-80.911	168.043	-74.685	-43.573	161.230	-74.494	-69.771	94.855	82.103	-69.880	-65.778	-65.033	-60.919	145.342	-62.433	-8191	255	
1126.082	1	1	0	0	0.17085	0.053015	0.051699	0.33879	0.20824	0.083228	0.21676	0.31806	0.086286	0.095477	0.22228	0.21982	0.26252	0.29348	0.21786	0.2327	-2.1042	-2.3312	-2.7396	-2.5667	-2.3208	-2.8146	-2.7062	-2.6917	-2.7562	-2.3146	-2.9021	-2.6667	-2.5458	-3.0563	-2.5271	-2.5792	139.615	118.064	56.273	230.185	-33.038	35.496	198.962	241.554	59.655	173.985	190.821	-2.929	189.789	-28.984	98.270	188.535	0.0003486	0.0028031	0.00063146	615.02	5.2322e-06	1.8289e-05	921.9	221.8	2.905e-06	1.8873e-05	390.36	184.61	96.369	48.413	1.2289e-05	101.87	0.014632	0.017582	0.0049282	808.14	0.00018623	0.00019148	1134.4	286.32	0.00018365	0.00018868	513.51	220.66	133.66	60.03	0.00018632	117.99	224.792	43.868	-45.759	-74.472	59.622	8.014	-74.353	-69.458	110.301	236.765	-69.750	-65.942	-65.061	-61.096	243.171	-62.120	-8191	255	
1126.178	1	1	0	0	0.25998	0.18282	0.078263	0.10094	0.067804	0.30523	0.14877	0.12037	0.11192	0.16991	0.14266	0.10102	0.23855	0.086697	0.13571	0.18961	-2.2292	-2.5062	-2.6021	-2.6083	-2.3083	-2.6771	-2.5312	-2.6479	-2.6875	-2.1688	-2.7333	-2.6	-2.2604	-2.8396	-2.5271	-2.8021	-28.047	209.105	137.791	-66.617	-2.463	208.229	15.316	190.651	0.694	196.810	221.697	98.324	33.422	15.388	-74.979	232.040	0.00029574	0.0019149	0.0004392	610.9	1.237e-05	7.1447e-06	930.83	221.75	1.7912e-05	6.1504e-06	387.36	184.11	97.172	48.131	2.495e-05	101.83	0.01428	0.01731	0.0048572	804.28	0.00018388	0.00018949	1135.4	286.51	0.00018092	0.00018645	512.09	220.15	132.78	59.595	0.00018252	117.23	243.913	-35.680	47.156	-75.052	42.952	20.980	-74.551	-69.463	82.569	199.008	-69.993	-65.675	-65.027	-60.976	114.926	-62.166	-8191	255	
1126.274	1	1	0	0	0.067395	0.067261	0.18849	0.14478	0.173	0.2713	0.25775	0.27356	0.029175	0.085543	0.2022	0.048634	0.1892	0.15484	0.30699	0.21439	-2.3625	-2.2167	-2.4813	-2.7667	-2.3792	-2.8021	-2.5708	-2.5792	-2.725	-2.4833	-2.7188	-2.8146	-2.5375	-2.9271	-2.5104	-2.6813	225.471	56.009	135.434	184.040	219.863	95.234	150.396	257.375	135.247	43.986	-69.129	197.505	111.581	261.049	237.019	189.095	0.00051341	0.0015328	0.00016145	610.27	1.3408e-05	2.555e-05	918.8	222	5.8249e-06	7.3171e-06	388.79	182.73	95.523	48.068	1.5444e-05	101.18	0.014021	0.01704	0.00479	799.68	0.0001811	0.00018873	1127.9	284.94	0.00018091	0.00018657	510.89	218.99	132.55	59.549	0.00018404	116.5	264.271	272.370	59.011	-74.470	258.767	62.798	-74.670	-69.301	46.818	102.364	-70.042	-65.612	-64.928	-60.852	99.295	-62.131	-8191	255	
1126.370	1	1	0	0	0.20596	0.04744	0.18321	0.1522	0.22848	0.17615	0.11461	0.20267	0.17774	0.095717	0.16874	0.26342	0.085524	0.24026	0.033792	0.24924	-2.1521	-2.3063	-2.6937	-2.8667	-2.4667	-2.7417	-2.5229	-2.5333	-2.6312	-2.3438	-2.4917	-2.8646	-2.2104	-2.8604	-2.6833	-2.4229	218.748	-30.226	118.381	-36.911	100.659	256.765	206.843	191.429	239.570	254.492	-42.579	247.099	99.841	184.176	267.542	184.701	0.00033202	0.0023662	0.00039052	607.56	7.4553e-06	7.6171e-06	919.05	220.26	2.468e-06	1.8447e-05	389	184.04	96.34	48.483	7.771e-06	102.61	0.013975	0.016991	0.0047472	792.05	0.00017931	0.00018612	1120.9	283.83	0.00017932	0.00018668	513	220.29	133.57	60.345	0.00018532	118.09	247.269	-26.598	16.166	-74.448	-26.895	119.495	-74.638	-69.338	215.932	154.089	-69.856	-65.683	-65.130	-60.876	-10.466	-62.185	-8191	255	
1126.466	1	1	0	0	0.21254	0.22239	0.20725	0.082563	0.17398	0.17533	0.34485	0.0424	0.091807	0.081035	0.24234	0.14764	0.17817	0.36691	0.14914	0.22366	-2.4583	-2.3688	-2.4208	-2.8458	-2.2292	-2.6562	-2.7438	-2.4833	-2.8042	-2.3563	-2.3708	-2.7417	-2.4021	-2.8479	-2.5896	-2.6	157.301	138.951	162.850	-29.679	-19.479	10.797	220.910	-12.434	107.063	-46.371	267.830	-52.542	-77.221	-85.730	114.050	211.122	0.00035704	0.0022992	0.00031109	608.39	1.8369e-05	4.0167e-06	920.58	221.01	1.3094e-05	1.0079e-05	389.53	186	97.466	48.955	1.3183e-05	103.25	0.014129	0.017233	0.004821	795.48	0.00018047	0.00018747	1125	284.45	0.00017874	0.00018583	514.29	221.47	133.85	60.66	0.00018495	118.96	251.828	209.981	-72.052	-74.903	60.160	30.361	-74.352	-69.174	51.854	-49.813	-70.058	-65.942	-64.567	-61.083	49.819	-62.175	-8191	255	
1126.587	1	1	0	0	0.020168	0.25766	0.10871	0.086453	0.17608	0.20979	0.18476	0.22833	0.3102	0.12487	0.15956	0.26641	0.30415	0.30002	0.14942	0.11594	-2.4688	-2.3917	-2.3375	-2.8375	-2.2021	-2.7271	-2.65	-2.5104	-2.7	-2.7	-2.4062	-2.8646	-2.4062	-2.5812	-2.6771	-2.4729	185.151	207.546	241.867	142.516	-23.899	254.430	-39.101	-66.366	-20.077	26.370	180.524	220.102	270.370	-82.707	215.675	-76.364	0.00050655	0.0029974	0.00051069	615.06	1.6915e-05	1.4009e-05	931.41	222.29	1.1857e-05	5.6438e-06	392.51	185.46	97.358	48.849	2.1239e-05	103.34	0.014341	0.017546	0.0049303	806.65	0.00018718	0.00019522	1138.6	287.85	0.00018665	0.00019323	518.62	222.83	135.11	60.823	0.00018752	119.01	241.594	165.333	125.815	-74.664	225.634	134.810	-74.328	-69.970	-13.096	78.135	-70.103	-65.676	-64.817	-60.963	159.877	-62.100	-8191	255	
1126.681	1	1	0	0	0.1268	0.26808	0.15356	0.2616	0.14302	0.13612	0.16602	0.19646	0.038781	0.35438	0.083572	0.21357	0.059329	0.27355	0.19715	0.28453	-2.2521	-2.4062	-2.2938	-2.8479	-2.3167	-2.5125	-2.8604	-2.5812	-2.4875	-2.4479	-2.5625	-2.7875	-2.3208	-2.5396	-2.8438	-2.5187	-64.636	73.837	140.645	245.984	65.069	99.749	144.314	149.571	210.738	53.268	262.442	218.498	215.003	134.864	86.593	195.659	0.0003944	0.0013515	0.00069645	614.63	1.6739e-05	2.345e-05	930.19	223.3	4.5506e-06	1.6631e-05	393.83	185.95	97.868	48.904	2.1498e-05	103.14	0.014641	0.017894	0.0049881	812.55	0.0001921	0.00020072	1146.6	291.07	0.00019328	0.00020029	522.9	224.17	137.04	61.337	0.00019608	119.82	234.615	2.938	20.309	-74.811	113.486	-57.693	-74.449	-69.921	218.345	26.883	-69.829	-65.991	-64.826	-60.909	94.728	-62.466	-8191	255	
1126.778	1	1	0	0	0.1438	0.37178	0.22528	0.15905	0.22426	0.24561	0.24548	0.25876	0.0469	0.10461	0.29095	0.16395	0.18996	0.20226	0.19477	0.33374	-2.1896	-2.4542	-2.2687	-2.7417	-2.4896	-2.5042	-2.7854	-2.5625	-2.4437	-2.5938	-2.2687	-2.825	-2.5583	-2.5187	-2.7021	-2.4813	179.169	227.202	-40.387	268.592	119.172	196.637	228.253	130.461	19.493	234.458	-85.196	246.151	168.692	221.698	-46.776	214.776	0.00051339	0.0030644	0.0003821	616.34	5.2685e-06	6.5435e-06	924.73	223.83	1.7365e-05	1.5491e-05	396.49	186.8	98.396	49.356	5.5839e-06	104.06	0.015305	0.018589	0.005173	822.29	0.00019874	0.00020677	1155.7	293.29	0.00019826	0.00020473	528.88	226.51	138.33	62.05	0.00019924	120.94	256.806	-0.183	219.843	-74.361	-78.803	212.700	-74.276	-69.723	29.498	24.749	-70.176	-65.919	-65.107	-61.143	-50.207	-62.205	-8191	255	
1126.851	1	1	0	0	0.22259	0.15142	0.13799	0.051003	0.091404	0.010356	0.022915	0.159	0.06955	0.13485	0.27459	0.28747	0.24816	0.11851	0.19595	0.27939	-2.1083	-2.4708	-2.2375	-2.7792	-2.5375	-2.3229	-2.925	-2.4708	-2.6458	-2.8438	-2.2604	-2.7792	-2.6479	-2.3708	-2.7667	-2.4792	127.404	84.347	84.363	-66.661	-4.646	269.579	89.838	-58.630	65.546	-16.563	250.056	207.543	-16.591	102.548	37.758	183.051	0.00034524	0.0015096	0.00010406	613.83	2.6636e-05	3.463e-06	928.49	225.9	8.5185e-06	9.7197e-06	399.78	189.43	99.26	50.446	2.3202e-05	105.32	0.015438	0.018684	0.0052235	824.51	0.00019958	0.00020654	1154.9	297.24	0.00020039	0.00020552	534.72	230.22	140.66	63.282	0.0002011	122.7	240.650	-12.483	-16.519	-74.275	108.771	159.608	-74.589	-69.541	112.084	22.469	-70.404	-66.126	-65.287	-61.282	-5.113	-62.252	-8191	255	
1126.970	1	1	0	0	0.23231	0.14684	0.1593	0.19482	0.02179	0.11999	0.2797	0.22408	0.16095	0.19483	0.41395	0.08504	0.11482	0.26093	0.2587	0.1964	-2.0292	-2.4792	-2.2438	-2.6896	-2.6104	-2.5375	-2.9813	-2.4292	-2.7062	-2.5187	-2.4188	-2.7417	-2.4875	-2.3458	-2.85	-2.4979	42.857	23.552	38.836	74.335	256.311	135.340	170.947	141.453	57.414	123.628	-80.410	-65.880	-36.633	229.879	228.959	-65.928	0.0003844	0.00056202	0.00051988	613.43	2.3923e-05	3.2736e-06	925.12	229.74	9.3474e-06	1.1251e-05	399.7	190.43	99.78	50.086	1.059e-05	104.52	0.015724	0.018795	0.0052601	825.51	0.00020074	0.00020834	1156	301.74	0.00020304	0.00020848	538.37	231.24	141.27	63.224	0.00020452	122.52	248.321	-30.317	9.449	-74.748	99.569	-70.391	-74.351	-69.669	-36.600	139.331	-69.871	-65.917	-65.448	-61.197	17.253	-62.332	-8191	255	
1127.066	1	1	0	0	0.21014	0.046974	0.077194	0.14491	0.17339	0.15635	0.1346	0.072095	0.21344	0.14214	0.20043	0.035825	0.23458	0.14146	0.25288	0.1297	-2.1896	-2.7938	-2.3479	-2.6625	-2.7062	-2.4271	-2.7917	-2.5396	-2.4292	-2.6583	-2.4729	-2.9208	-2.8187	-2.3312	-2.6083	-2.5896	190.774	256.401	-44.843	210.896	133.786	67.992	108.769	-41.985	268.731	184.342	102.784	179.732	-41.295	163.594	112.341	232.079	0.00041095	0.0014764	0.00039023	606.04	1.5302e-05	1.5822e-05	919.12	227.87	1.7655e-05	1.5437e-05	398.36	188.17	98.847	49.553	1.253e-05	102.86	0.015886	0.019258	0.0053881	826.76	0.00020652	0.00021369	1155.7	302.77	0.00020707	0.00021232	539.4	229.91	140.18	62.388	0.00020299	120.47	248.246	148.314	136.037	-74.265	-40.105	110.431	-74.288	-69.617	236.157	98.210	-69.675	-66.002	-65.251	-61.145	62.164	-62.515	-8191	255	
#DATA ENDS
