BOXY.EXE: ISS Imagent and Oximeter Data Acquisition Program Version 0.80
Ascii Record File

#ACQ INFORMATION
2  Detector Channels 
16  External MUX Channels 
1  Auxiliary Channels 
5000  Waveform (CCF) Frequency (Hz)
1  Waveforms Skipped 
30  Waveforms Averaged 
1  Cycles Averaged 
16  Acquisitions per Waveform 
10.0806  Updata Rate (Hz) 

#FILE INFORMATION
TRUE -- External MUX Channel results are PARSED.
FALSE -- AC DC and Phase are NOT grouped.
TRUE -- Companion Program Settings File CREATED.
FALSE -- AC data not excluded
FALSE -- DC data not excluded
FALSE -- Phase data not excluded
FALSE -- Auxillary Chn. data not excluded
Tab delimiters

#CALIBRATION STATE
TRUE -- Waveform Calibration Values APPLIED.


#AUX CALIBRATION VALUES
Val Type	aux-1	

Term	1.0000e+00	
Factor	0.0000e+00	


#WF CALIBRATION VALUES
A = Detector Channel
Val Type	A-AC1	A-AC2	A-AC3	A-AC4	A-AC5	A-AC6	A-AC7	A-AC8	A-AC9	A-AC10	A-AC11	A-AC12	A-AC13	A-AC14	A-AC15	A-AC16	A-DC1	A-DC2	A-DC3	A-DC4	A-DC5	A-DC6	A-DC7	A-DC8	A-DC9	A-DC10	A-DC11	A-DC12	A-DC13	A-DC14	A-DC15	A-DC16	A-Ph1	A-Ph2	A-Ph3	A-Ph4	A-Ph5	A-Ph6	A-Ph7	A-Ph8	A-Ph9	A-Ph10	A-Ph11	A-Ph12	A-Ph13	A-Ph14	A-Ph15	A-Ph16	

Term	0.00000e+00	0.00000e+00	0.00000e+00	0.00000e+00	0.00000e+00	0.00000e+00	0.00000e+00	0.00000e+00	0.00000e+00	0.00000e+00	0.00000e+00	0.00000e+00	0.00000e+00	0.00000e+00	0.00000e+00	0.00000e+00	0.00000e+00	0.00000e+00	0.00000e+00	0.00000e+00	0.00000e+00	0.00000e+00	0.00000e+00	0.00000e+00	0.00000e+00	0.00000e+00	0.00000e+00	0.00000e+00	0.00000e+00	0.00000e+00	0.00000e+00	0.00000e+00	0.00000e+00	0.00000e+00	0.00000e+00	0.00000e+00	0.00000e+00	0.00000e+00	0.00000e+00	0.00000e+00	0.00000e+00	0.00000e+00	0.00000e+00	0.00000e+00	0.00000e+00	0.00000e+00	0.00000e+00	0.00000e+00	
Factor	1.00000e+00	1.00000e+00	1.00000e+00	1.00000e+00	1.00000e+00	1.00000e+00	1.00000e+00	1.00000e+00	1.00000e+00	1.00000e+00	1.00000e+00	1.00000e+00	1.00000e+00	1.00000e+00	1.00000e+00	1.00000e+00	1.00000e+00	1.00000e+00	1.00000e+00	1.00000e+00	1.00000e+00	1.00000e+00	1.00000e+00	1.00000e+00	1.00000e+00	1.00000e+00	1.00000e+00	1.00000e+00	1.00000e+00	1.00000e+00	1.00000e+00	1.00000e+00	X	X	X	X	X	X	X	X	X	X	X	X	X	X	X	X	

B = Detector Channel
Val Type	B-AC1	B-AC2	B-AC3	B-AC4	B-AC5	B-AC6	B-AC7	B-AC8	B-AC9	B-AC10	B-AC11	B-AC12	B-AC13	B-AC14	B-AC15	B-AC16	B-DC1	B-DC2	B-DC3	B-DC4	B-DC5	B-DC6	B-DC7	B-DC8	B-DC9	B-DC10	B-DC11	B-DC12	B-DC13	B-DC14	B-DC15	B-DC16	B-Ph1	B-Ph2	B-Ph3	B-Ph4	B-Ph5	B-Ph6	B-Ph7	B-Ph8	B-Ph9	B-Ph10	B-Ph11	B-Ph12	B-Ph13	B-Ph14	B-Ph15	B-Ph16	

Term	0.00000e+00	0.00000e+00	0.00000e+00	0.00000e+00	0.00000e+00	0.00000e+00	0.00000e+00	0.00000e+00	0.00000e+00	0.00000e+00	0.00000e+00	0.00000e+00	0.00000e+00	0.00000e+00	0.00000e+00	0.00000e+00	0.00000e+00	0.00000e+00	0.00000e+00	0.00000e+00	0.00000e+00	0.00000e+00	0.00000e+00	0.00000e+00	0.00000e+00	0.00000e+00	0.00000e+00	0.00000e+00	0.00000e+00	0.00000e+00	0.00000e+00	0.00000e+00	-6.59245e+01	-1.24734e+02	-1.31290e+02	-1.83070e+02	-4.71720e+01	-6.49150e+01	-1.56663e+02	-1.62015e+02	-3.94459e+01	-6.42214e+01	-1.71114e+02	-1.71480e+02	-1.80686e+02	-1.76770e+02	-5.03157e+01	-1.49850e+02	
Factor	1.94318e-05	1.90944e-04	4.49887e-05	1.63081e-01	1.59961e-06	1.69595e-06	1.94177e-01	5.42487e-02	1.28390e-06	1.65075e-06	1.08414e-01	3.13847e-02	2.95052e-02	9.61121e-03	1.53840e-06	1.41149e-02	5.54059e-06	6.76180e-06	1.88700e-06	8.26207e-02	7.18682e-08	7.45135e-08	9.21061e-02	2.75920e-02	7.18242e-08	7.41166e-08	5.30887e-02	1.54427e-02	1.51454e-02	4.92050e-03	7.23774e-08	6.95805e-03	X	X	X	X	X	X	X	X	X	X	X	X	X	X	X	X	



#DISTANCE SETTINGS
A = Detector Channel
A-1	A-2	A-3	A-4	A-5	A-6	A-7	A-8	A-9	A-10	A-11	A-12	A-13	A-14	A-15	A-16	

2.5000e+00	3.0000e+00	2.5000e+00	3.0000e+00	2.0000e+00	3.0000e+00	1.5000e+00	3.0000e+00	3.0000e+00	3.0000e+00	3.0000e+00	3.0000e+00	3.0000e+00	3.0000e+00	1.5000e+00	3.0000e+00	

B = Detector Channel
B-1	B-2	B-3	B-4	B-5	B-6	B-7	B-8	B-9	B-10	B-11	B-12	B-13	B-14	B-15	B-16	

1.0000e+01	1.0000e+01	1.0000e+01	1.4400e+00	1.0000e+01	1.0000e+01	1.5100e+00	1.9400e+00	1.0000e+01	1.0000e+01	1.9900e+00	2.4900e+00	2.4100e+00	2.9000e+00	1.0000e+01	2.9800e+00	




#DATA BEGINS
time	group	step	mark	flag	A-AC1	A-AC2	A-AC3	A-AC4	A-AC5	A-AC6	A-AC7	A-AC8	A-AC9	A-AC10	A-AC11	A-AC12	A-AC13	A-AC14	A-AC15	A-AC16	A-DC1	A-DC2	A-DC3	A-DC4	A-DC5	A-DC6	A-DC7	A-DC8	A-DC9	A-DC10	A-DC11	A-DC12	A-DC13	A-DC14	A-DC15	A-DC16	A-Ph1	A-Ph2	A-Ph3	A-Ph4	A-Ph5	A-Ph6	A-Ph7	A-Ph8	A-Ph9	A-Ph10	A-Ph11	A-Ph12	A-Ph13	A-Ph14	A-Ph15	A-Ph16	B-AC1	B-AC2	B-AC3	B-AC4	B-AC5	B-AC6	B-AC7	B-AC8	B-AC9	B-AC10	B-AC11	B-AC12	B-AC13	B-AC14	B-AC15	B-AC16	B-DC1	B-DC2	B-DC3	B-DC4	B-DC5	B-DC6	B-DC7	B-DC8	B-DC9	B-DC10	B-DC11	B-DC12	B-DC13	B-DC14	B-DC15	B-DC16	B-Ph1	B-Ph2	B-Ph3	B-Ph4	B-Ph5	B-Ph6	B-Ph7	B-Ph8	B-Ph9	B-Ph10	B-Ph11	B-Ph12	B-Ph13	B-Ph14	B-Ph15	B-Ph16	aux-1	digaux	

1464.046	1	1	0	256	0.072488	0.20696	0.23227	0.1592	0.03729	0.15917	0.060592	0.054155	0.28539	0.18593	0.08272	0.20219	0.22488	0.096832	0.15399	0.23135	-1.9979	-2.0375	-2.5667	-2.3083	-2.1792	-2.5125	-2.3771	-2.2521	-2.3625	-1.9875	-2.5729	-2.2208	-2.0708	-2.5021	-2.1063	-2.1667	244.696	209.705	382.797	496.056	279.791	326.716	305.926	464.917	223.102	281.120	477.867	249.410	372.109	317.103	307.177	383.491	0.00032445	0.00077273	0.00046167	234.75	3.7894e-06	9.6281e-06	499.98	68.799	4.615e-06	5.5226e-06	154.45	72.959	28.686	10.205	1.0583e-05	25.929	0.004999	0.0059656	0.0016599	292.65	6.3167e-05	6.5826e-05	549.11	89.202	6.3393e-05	6.5403e-05	192.04	82.374	40.481	14.189	6.5405e-05	30.844	248.464	305.364	323.250	173.611	495.837	513.928	171.869	178.834	318.996	284.200	176.816	182.486	183.406	189.061	370.169	186.801	-8191	255	
1464.143	1	1	0	0	0.093154	0.17942	0.12221	0.26768	0.065674	0.14095	0.25276	0.27221	0.18958	0.31639	0.12972	0.080343	0.12312	0.138	0.079626	0.23949	-1.7437	-1.9625	-2.5	-2.3063	-2.1146	-2.475	-2.2208	-2.2667	-2.5646	-2.0083	-2.4417	-2.5208	-2.0896	-2.5021	-2.3438	-2.2979	513.087	164.065	384.073	215.268	442.881	283.173	448.110	437.150	371.844	403.848	507.637	388.585	514.542	367.184	358.017	260.894	0.00026349	0.00064142	0.0002097	234.16	9.8135e-06	1.3637e-05	502.95	69.279	8.8771e-06	1.7011e-05	155.05	73.157	29.124	10.376	9.3751e-06	26.121	0.0050538	0.0060546	0.001702	293.04	6.4745e-05	6.6608e-05	550.43	89.447	6.4218e-05	6.5976e-05	193.15	82.578	40.585	14.183	6.4305e-05	30.825	256.771	285.985	343.139	173.552	212.105	350.589	171.838	178.609	349.710	218.745	176.721	182.473	184.216	190.512	408.280	187.142	-8191	255	
1464.263	1	1	0	0	0.18449	0.12916	0.14789	0.048565	0.3302	0.11147	0.14896	0.17917	0.34461	0.29468	0.24494	0.093065	0.0067771	0.14388	0.1561	0.17479	-2.1125	-2.0458	-2.4062	-2.1979	-1.9604	-2.4854	-2.5021	-2.1417	-2.5229	-1.9771	-2.3563	-2.3271	-2.1896	-2.4167	-2.5021	-2.0417	488.532	315.560	173.671	441.151	474.887	226.919	282.770	411.083	330.950	260.918	233.852	368.640	240.024	166.939	467.854	283.867	0.00030321	0.0009764	0.00030281	236.58	1.1537e-05	1.8783e-05	501.06	69.517	2.7218e-06	6.103e-06	155.3	73.619	29.192	10.554	5.0295e-06	26.515	0.004883	0.0059153	0.0016546	294.3	6.3003e-05	6.5672e-05	550.37	89.052	6.2216e-05	6.3741e-05	192.73	82.895	40.296	14.174	6.1027e-05	30.95	247.128	265.614	474.317	172.923	470.849	163.158	171.850	178.811	319.329	245.123	176.626	182.498	183.795	190.551	497.933	187.027	-8191	255	
1464.335	1	1	0	0	0.061928	0.33457	0.059777	0.1562	0.19657	0.20874	0.11577	0.37485	0.081776	0.19668	0.37296	0.13523	0.055702	0.18051	0.1251	0.33709	-2.0333	-2.1292	-2.3104	-2.3167	-2.1604	-2.3542	-2.3438	-2.0396	-2.5729	-2.0542	-2.2188	-2.4729	-2.0583	-2.4542	-2.4896	-1.9937	378.931	393.854	428.311	289.901	263.216	211.710	282.180	267.276	462.069	172.861	474.936	240.051	266.485	191.468	492.723	490.991	0.00028097	0.00088537	0.00021767	240.1	1.3638e-05	4.8965e-06	507.28	68.449	5.6081e-06	1.3124e-05	156.47	73.867	29.476	10.443	4.3762e-06	26.392	0.0046605	0.0056743	0.0015993	290.57	5.9426e-05	6.1656e-05	547.53	87.644	5.8426e-05	6.0546e-05	190.3	82.297	39.739	13.907	5.8375e-05	30.513	266.810	186.120	207.665	173.145	297.406	397.860	172.051	178.391	328.664	351.941	177.001	182.013	183.298	189.344	313.000	186.456	-8191	255	
1464.431	1	1	0	0	0.095319	0.21928	0.018454	0.47793	0.19438	0.1022	0.084454	0.12707	0.2446	0.084853	0.057782	0.3479	0.23027	0.17227	0.22737	0.15755	-2.1333	-2.0208	-2.2458	-2.5958	-2.2792	-2.5687	-2.45	-2.1437	-2.4562	-2.1188	-2.2667	-2.4354	-2.2417	-2.4792	-2.4354	-1.9979	474.260	449.244	396.982	409.469	441.649	440.856	384.942	501.175	302.256	218.363	362.945	456.847	436.826	415.668	499.666	499.103	0.00013311	0.0010061	0.00047241	238.6	6.4883e-06	1.402e-05	503.6	68.707	5.4116e-06	7.3682e-06	156.43	74.118	29.547	10.55	8.8259e-06	26.29	0.0044727	0.0054231	0.001514	286.79	5.7249e-05	5.9848e-05	541.95	86.548	5.6354e-05	5.8922e-05	188.27	81.81	39.52	13.773	5.6505e-05	30.191	249.338	358.651	176.573	172.735	440.400	494.928	171.540	179.114	293.139	250.530	176.271	182.088	183.921	189.928	520.247	187.258	-8191	255	
1464.527	1	1	0	0	0.083429	0.058723	0.18703	0.11717	0.12238	0.18888	0.29982	0.091038	0.10439	0.11735	0.35585	0.35873	0.11362	0.069647	0.095941	0.16312	-2.0083	-2.0292	-2.2979	-2.5208	-2.0042	-2.35	-2.4604	-2.0979	-2.5229	-2.2417	-2.1042	-2.5438	-2.0104	-2.2104	-2.2292	-2.2146	515.202	310.695	463.068	453.391	195.232	250.947	419.898	267.815	225.279	435.075	389.335	264.896	405.308	498.841	284.905	302.380	0.00036695	0.00028002	0.0002351	237.32	1.4426e-05	1.309e-05	504.18	68.661	3.1164e-06	8.0343e-06	158.75	73.749	29.763	10.55	9.3971e-06	26.166	0.0043697	0.0052443	0.0014528	286.86	5.5757e-05	5.7706e-05	542.71	86.06	5.5449e-05	5.7519e-05	188.43	81.602	39.4	13.727	5.5293e-05	30.209	263.187	195.483	291.031	173.530	185.818	320.996	171.992	179.369	462.345	424.283	176.436	182.148	183.795	189.851	314.660	186.519	-8191	255	
1464.646	1	1	0	0	0.096845	0.2292	0.17911	0.10023	0.14438	0.21533	0.24779	0.025498	0.23192	0.11026	0.21409	0.18496	0.31289	0.20099	0.10509	0.084888	-1.8188	-2.1229	-2.1229	-2.4062	-2.1396	-2.4417	-2.5104	-2.0187	-2.4313	-2.4562	-2.1125	-2.2833	-2.1312	-2.2604	-2.4354	-2.0458	423.463	347.245	207.324	170.114	441.177	228.036	504.774	403.599	471.446	332.038	384.814	199.423	262.890	374.950	359.086	178.270	0.00020242	0.00083094	0.00019634	239.57	9.2422e-06	8.4134e-06	510.43	69.361	2.7617e-06	7.3718e-06	160.25	75.436	29.588	10.384	5.2685e-06	26.503	0.0042445	0.0050963	0.001403	285.48	5.4289e-05	5.6276e-05	543.2	85.58	5.3539e-05	5.5901e-05	187.67	82.034	39.033	13.546	5.4159e-05	30.041	274.662	431.259	315.282	173.008	286.375	172.924	171.942	178.708	397.037	273.972	176.525	182.456	183.255	189.286	304.654	186.768	-8191	255	
1464.742	1	1	0	0	0.10311	0.1452	0.27069	0.1562	0.20627	0.098533	0.086709	0.056416	0.27372	0.17296	0.17556	0.11351	0.12946	0.15932	0.14539	0.047401	-1.9417	-2.3771	-1.9479	-2.375	-2.1021	-2.2646	-2.4688	-2.0667	-2.3937	-2.5396	-2.1667	-2.6458	-2.2417	-2.1625	-2.5146	-2.0125	311.121	264.408	513.988	355.681	180.766	215.807	345.198	385.960	243.775	290.620	170.265	214.409	507.466	419.939	290.355	386.230	0.00036856	0.0004499	0.00012699	239.86	1.0229e-05	4.458e-06	503.46	68.583	3.3193e-06	2.2382e-06	157.98	73.779	28.704	10.202	7.8473e-06	25.804	0.0041545	0.0050704	0.0014012	284.74	5.4015e-05	5.5548e-05	541.71	85.806	5.4001e-05	5.6038e-05	186.96	81.288	38.777	13.489	5.5808e-05	29.89	274.349	360.423	261.764	173.298	372.809	468.657	172.014	179.004	336.319	403.658	177.351	182.447	184.280	189.739	382.827	186.704	-8191	255	
1464.838	1	1	0	0	0.24132	0.1452	0.35105	0.13306	0.15544	0.1943	0.1938	0.098305	0.15104	0.2191	0.26906	0.14953	0.067305	0.21371	0.16114	0.10037	-1.7396	-2.2438	-1.8917	-2.3875	-2.2646	-2.2292	-2.3042	-2.2062	-2.2396	-2.3875	-1.9333	-2.3812	-2.2917	-2.0771	-2.5854	-2.0458	428.864	371.934	238.324	486.030	241.257	260.100	210.210	396.149	333.510	280.851	197.209	206.377	421.164	172.401	372.488	275.208	0.00026237	0.0029768	0.00010883	238.16	1.9131e-06	9.4286e-06	503.6	69.015	1.0661e-05	3.1021e-06	156.08	73.452	28.915	10.224	1.3064e-05	26.22	0.0044108	0.0053282	0.0014673	287.7	5.6967e-05	5.8679e-05	543.73	86.247	5.7431e-05	5.8674e-05	187.88	81.475	39.183	13.534	5.5948e-05	30.074	262.790	208.715	187.562	172.545	284.027	169.180	171.794	179.014	308.389	169.492	177.029	182.197	183.972	188.933	351.538	186.289	-8191	255	
1464.934	1	1	0	0	0.16182	0.11965	0.14716	0.16349	0.058565	0.16684	0.17295	0.098885	0.11394	0.12831	0.15482	0.11561	0.2496	0.17072	0.079742	0.19616	-1.7479	-2.475	-2.0333	-2.4708	-2.1771	-2.0375	-2.6021	-2.1146	-2.3083	-2.6417	-2.2583	-2.425	-2.4688	-1.8792	-2.6396	-2.2583	269.861	425.831	316.717	443.471	214.549	261.044	421.168	517.676	391.421	256.060	505.401	407.974	343.294	476.670	334.630	457.919	0.00030379	0.0014627	0.00042079	239.48	1.1255e-05	1.9774e-06	510.59	69.633	8.6482e-06	1e-05	157.65	73.939	29.275	10.325	1.0612e-05	26.033	0.0043981	0.0053276	0.0014641	287.3	5.6287e-05	5.869e-05	544.57	86.662	5.7415e-05	5.7797e-05	188.24	82.015	39.304	13.579	5.5854e-05	30.146	214.123	379.820	270.111	172.672	223.516	331.173	171.433	178.846	379.535	238.898	176.819	182.206	184.501	189.727	332.902	186.980	-8191	255	
1465.029	1	1	0	0	0.27564	0.10583	0.1293	0.15596	0.13187	0.14298	0.14793	0.23214	0.10585	0.17663	0.25719	0.171	0.059627	0.25326	0.15811	0.3017	-1.7437	-2.4979	-2.0125	-2.4729	-2.4562	-2.0187	-2.525	-2.3229	-2.2104	-2.5146	-1.9312	-2.4354	-2.3646	-1.9937	-2.6125	-2.325	395.726	161.516	337.160	174.151	516.457	417.654	315.873	344.560	502.584	421.762	164.699	516.119	181.064	206.804	320.024	423.828	0.00018175	0.00022653	8.5367e-05	239.55	7.8477e-06	1.1857e-05	509.76	69.126	4.3891e-06	3.9652e-06	156.04	74.883	28.981	10.237	9.2537e-06	26.214	0.0043409	0.0052329	0.0014571	287.29	5.6129e-05	5.7604e-05	545.56	86.567	5.6143e-05	5.6902e-05	188.84	81.949	39.307	13.586	5.6446e-05	30.134	239.330	252.405	370.145	173.188	246.581	281.040	172.049	178.729	518.638	278.280	176.728	182.166	183.219	190.194	330.663	186.684	-8191	255	
1465.125	1	1	0	0	0.084095	0.18127	0.12765	0.23906	0.17904	0.085782	0.22019	0.074092	0.10291	0.26468	0.14725	0.43302	0.16201	0.28087	0.35323	0.35373	-1.7458	-2.3729	-2.2375	-2.3542	-2.5292	-1.9979	-2.6271	-2.3375	-2.2062	-2.6667	-2.05	-2.3	-2.5875	-2.0146	-2.4292	-2.4333	210.247	437.108	188.291	255.659	416.261	499.764	499.687	519.290	163.646	516.151	458.046	461.683	422.831	175.064	253.598	448.878	0.00038855	0.0009342	0.00011776	235.19	4.4148e-06	6.89e-06	503.79	69.073	7.2501e-06	1.09e-05	156.83	72.959	29.187	10.182	9.2009e-06	25.949	0.0043272	0.005237	0.0014611	285.34	5.55e-05	5.7061e-05	541.19	85.859	5.4741e-05	5.6581e-05	186.59	81.077	38.868	13.375	5.5214e-05	29.845	252.596	237.825	481.618	173.021	331.903	391.809	171.669	179.516	418.526	513.495	176.822	182.288	183.530	189.219	317.529	186.783	-8191	255	
1465.221	1	1	0	0	0.12453	0.16188	0.19295	0.23908	0.042756	0.16031	0.16022	0.10384	0.19379	0.20594	0.27598	0.27242	0.1724	0.26055	0.1088	0.088503	-1.6646	-2.4625	-1.9292	-2.3396	-2.6813	-2.2125	-2.3917	-2.2521	-2.0792	-2.6437	-2.2188	-2.3479	-2.4208	-2.1937	-2.4229	-2.2271	497.780	338.372	222.295	400.580	448.665	319.545	408.049	398.872	449.014	398.280	386.783	168.320	497.163	487.822	257.102	489.194	0.00035229	0.00074808	0.000288	235.74	1.3887e-05	1.2011e-05	508.62	69.511	6.7021e-06	3.5806e-06	157.33	73.322	29.263	10.141	5.7666e-06	25.567	0.0042458	0.0051534	0.0014355	283.61	5.4618e-05	5.663e-05	541.83	86.017	5.4392e-05	5.6547e-05	187.17	81.309	38.675	13.348	5.5013e-05	29.721	254.942	307.147	241.828	172.819	312.701	290.618	171.953	178.694	519.159	440.655	177.204	182.290	184.404	189.868	328.279	186.061	-8191	255	
1465.342	1	1	0	0	0.10649	0.074876	0.2663	0.083153	0.30093	0.18149	0.1219	0.30635	0.21194	0.060906	0.14942	0.21251	0.083633	0.053489	0.056196	0.069405	-1.5604	-2.35	-2.1875	-2.2833	-2.4625	-2.1833	-2.4479	-2.3625	-2.0979	-2.2375	-2.3354	-2.0708	-2.5438	-2.1312	-2.1896	-2.425	515.332	357.626	288.614	405.423	480.818	258.169	188.937	405.813	304.590	312.959	303.743	485.103	216.748	337.980	192.056	382.998	0.00017514	0.0017821	0.00022182	236.27	5.8156e-06	1.3719e-05	507.16	69.554	4.0762e-06	4.1669e-06	155.68	74.394	29.142	10.258	7.9483e-06	26.169	0.0042151	0.005188	0.0014298	284.81	5.4697e-05	5.6872e-05	542.25	85.722	5.4402e-05	5.6327e-05	187.1	81.234	38.726	13.386	5.439e-05	29.871	255.840	264.830	467.862	172.909	246.928	327.541	171.974	178.879	358.394	187.999	176.566	182.245	183.845	189.888	357.026	186.376	-8191	255	
1465.438	1	1	0	0	0.20718	0.13132	0.052865	0.092536	0.14914	0.27169	0.13312	0.18987	0.3235	0.17262	0.12175	0.15529	0.16736	0.099733	0.11495	0.10349	-1.2729	-2.3083	-2.4375	-2.175	-2.5229	-2.0917	-2.225	-2.4729	-2.2062	-2.5958	-2.3625	-2.2458	-2.6542	-2.0333	-2.3542	-2.3146	448.119	162.241	510.594	182.291	353.241	327.570	375.415	342.594	197.007	328.072	428.085	409.848	266.648	407.997	196.425	339.203	0.00026297	0.00070374	0.00026204	238.92	1.2865e-05	1.5312e-05	509.55	68.933	2.2355e-06	1.0873e-05	155.94	73.313	28.97	10.041	2.1208e-06	25.623	0.0041528	0.0050345	0.001408	284.69	5.3393e-05	5.5801e-05	543.6	85.384	5.3774e-05	5.6683e-05	186.9	81.185	38.969	13.349	5.6392e-05	29.707	275.940	293.448	281.393	173.558	468.313	361.505	171.424	179.442	313.275	213.119	176.327	181.987	184.646	189.471	408.411	186.929	-8191	255	
1465.534	1	1	0	0	0.091748	0.16441	0.12009	0.33203	0.088551	0.18988	0.15546	0.05462	0.08778	0.032744	0.17125	0.091414	0.12053	0.27648	0.17558	0.13681	-1.6375	-2.3833	-2.0438	-2.0333	-2.6354	-2.3021	-2.3312	-2.6229	-1.9646	-2.4	-2.2354	-2.2083	-2.3729	-2.1021	-2.2083	-2.6146	512.708	222.522	325.075	333.302	339.788	402.099	432.616	213.280	179.715	354.353	179.144	282.733	268.776	316.165	439.700	275.645	0.00028924	0.00031647	0.00013484	236.05	2.753e-06	4.8195e-06	503.53	68.698	1.3548e-05	1.8321e-05	157.63	73.127	28.807	9.9099	1.8248e-05	25.717	0.0043356	0.0052772	0.0014864	285.13	5.6791e-05	5.8682e-05	543.08	85.748	5.5778e-05	5.8368e-05	188.26	80.952	38.879	13.384	5.6716e-05	29.743	239.720	201.940	306.924	173.060	467.522	320.278	171.831	178.729	199.093	368.426	176.794	182.219	184.308	189.326	331.775	186.783	-8191	255	
1465.630	1	1	0	0	0.11793	0.10964	0.27314	0.17327	0.080188	0.20508	0.21712	0.16687	0.047454	0.23525	0.092266	0.18903	0.10266	0.23471	0.035186	0.13156	-1.5229	-2.1875	-2.2542	-2.1188	-2.4417	-2.1667	-2.0438	-2.4313	-2.0354	-2.2687	-2.4271	-2.0333	-2.3375	-2.2208	-2.1083	-2.3979	309.340	405.092	317.887	481.165	182.122	495.477	195.933	383.177	312.898	399.957	381.231	451.406	230.627	515.162	286.798	194.315	0.00036269	0.0018525	0.00022134	236.76	7.4869e-06	3.9773e-06	503.6	69.255	1.0035e-05	5.8632e-06	157.55	73.749	28.909	10.212	1.3246e-05	25.884	0.0043967	0.0053505	0.0014931	285.3	5.7137e-05	5.9039e-05	542.46	86.028	5.6852e-05	5.8942e-05	188.45	81.52	39.185	13.474	5.7371e-05	29.898	281.998	356.747	279.608	172.608	365.734	168.282	172.031	179.363	325.442	328.301	176.553	182.279	184.313	189.529	381.205	187.347	-8191	255	
1465.726	1	1	0	0	0.19267	0.12969	0.21992	0.08037	0.18566	0.11288	0.21007	0.23938	0.075206	0.21881	0.1727	0.099971	0.1243	0.15564	0.24623	0.162	-1.8479	-2.2417	-2.4771	-2.0062	-2.4458	-2.1958	-2.0833	-2.4542	-2.1188	-2.1688	-2.4646	-2.2771	-2.1854	-2.3583	-2.0271	-2.4521	233.211	304.661	289.461	441.783	358.004	427.697	429.094	504.783	236.312	364.671	495.162	470.098	317.000	303.475	260.084	226.706	0.000179	0.0010185	0.00017619	236.06	6.6802e-06	5.7597e-06	509.74	68.973	6.7003e-06	7.3303e-06	157.52	74.134	28.823	10.184	3.7653e-06	26.187	0.0044135	0.0053395	0.0014894	286.52	5.7071e-05	5.9561e-05	545.82	86.786	5.7483e-05	5.8839e-05	189.14	81.669	39.143	13.6	5.7159e-05	30.128	251.279	256.946	301.227	173.192	449.350	463.409	171.599	178.591	440.389	306.517	177.426	182.423	183.886	189.640	179.334	186.134	-8191	255	
1465.823	1	1	0	0	0.21224	0.012922	0.29638	0.14939	0.19746	0.2232	0.11083	0.24129	0.32541	0.055184	0.11561	0.13392	0.17621	0.16531	0.087498	0.023294	-1.6458	-1.9688	-2.5646	-1.9688	-2.3604	-2.325	-2.0625	-2.4979	-1.9792	-2.1979	-2.5021	-1.9958	-2.3229	-2.3	-1.9208	-2.4417	432.507	300.007	220.119	176.236	406.737	418.696	386.589	279.509	340.866	372.239	389.475	309.758	501.321	425.186	411.947	444.097	0.00032662	0.00074741	0.00025876	238.05	4.7316e-06	1.6555e-05	508.05	69.062	9.503e-06	1.4364e-05	156.73	73.737	28.838	10.036	7.839e-06	25.968	0.0044253	0.0053099	0.0014967	285.05	5.7031e-05	5.8989e-05	545.81	86.386	5.6495e-05	5.8623e-05	188.05	81.242	39.034	13.417	5.6639e-05	29.909	252.265	248.146	312.107	173.357	387.433	394.766	172.137	179.517	352.883	303.770	176.859	182.265	183.306	189.712	281.742	186.648	-8191	255	
1465.943	1	1	0	0	0.43459	0.10398	0.33972	0.24035	0.10371	0.3911	0.13681	0.17765	0.15127	0.25648	0.17035	0.18367	0.29792	0.13416	0.20968	0.15432	-1.6417	-2.0812	-2.5542	-1.9396	-2.1167	-2.3771	-2.1188	-2.5438	-2.1312	-1.925	-2.5062	-2.0875	-2.2521	-2.3583	-1.9813	-2.3083	167.606	204.872	190.442	412.834	430.036	519.113	466.720	289.584	255.014	275.462	450.318	350.259	175.321	217.886	421.237	270.162	0.00043146	0.00064112	0.00029503	235.61	5.1927e-06	9.8224e-06	505.1	69.001	3.8081e-06	2.7738e-06	156.35	73.364	29.02	10.07	5.4941e-06	25.734	0.0044431	0.0053473	0.0014908	284.91	5.6753e-05	5.9174e-05	543.04	86.072	5.7487e-05	5.8684e-05	188.01	81.343	39.023	13.422	5.7487e-05	29.837	268.972	510.888	239.835	172.851	208.049	202.411	171.776	178.262	207.421	259.072	176.631	182.426	183.597	189.555	294.478	186.334	-8191	255	
1466.038	1	1	0	0	0.17433	0.059516	0.27509	0.21572	0.059059	0.12616	0.061522	0.17768	0.091091	0.089959	0.14792	0.12019	0.081257	0.24264	0.12375	0.13538	-1.7021	-2.0271	-2.3146	-1.8875	-2.1354	-2.4229	-1.8896	-2.3979	-2.3333	-1.9667	-2.3458	-2.1979	-2.05	-2.3583	-2.0167	-2.2729	430.222	347.560	429.318	389.112	278.636	428.688	244.109	249.639	177.740	478.480	207.782	328.983	395.054	448.380	172.516	502.550	0.00017719	0.0011513	0.00017724	235.95	3.3464e-06	1.2893e-05	507.88	68.4	8.9469e-06	2.1414e-05	157.9	73.884	29.084	10.105	4.194e-06	25.511	0.0044607	0.0053421	0.0014864	286.03	5.6464e-05	5.8486e-05	545.27	86.148	5.7003e-05	5.8141e-05	188.35	81.478	39.132	13.476	5.7645e-05	29.933	267.809	506.440	181.581	173.286	447.316	244.819	171.428	178.663	289.948	353.419	177.222	182.306	184.621	190.481	200.784	187.366	-8191	255	
1466.134	1	1	0	0	0.15594	0.042394	0.23473	0.20603	0.074459	0.18385	0.015845	0.1758	0.017142	0.063368	0.10615	0.10558	0.052431	0.11473	0.10558	0.18149	-1.6125	-2.0917	-2.5979	-2.1688	-2.2958	-2.6417	-2.1396	-2.3729	-2.4083	-2.0375	-2.3	-2.3	-2.1583	-2.425	-2.0104	-2.3438	423.638	409.167	173.606	464.762	275.947	377.606	312.888	211.415	334.531	177.929	453.624	226.419	340.917	371.722	490.247	326.477	0.00031887	0.0016127	0.00017906	237.28	1.3997e-05	5.4715e-06	504.38	68.791	9.6954e-06	1.253e-05	157.91	73.379	28.818	9.9213	7.3348e-06	25.632	0.0045164	0.0053827	0.0015165	287.96	5.8495e-05	6.0619e-05	548.68	87.223	5.8888e-05	6.0029e-05	190.8	82.071	39.391	13.635	6.0972e-05	30.189	243.246	175.289	169.702	173.627	412.656	209.686	171.630	179.239	294.880	315.165	177.043	182.197	184.216	189.975	224.721	187.274	-8191	255	
1466.230	1	1	0	0	0.17478	0.16832	0.23977	0.22444	0.27613	0.22906	0.066284	0.35396	0.24568	0.11868	0.059761	0.21004	0.09852	0.048199	0.2142	0.064641	-1.8729	-1.8604	-2.2375	-2.1625	-2.1542	-2.3854	-2.1583	-2.1979	-2.5604	-1.9833	-2.3125	-2.1063	-2.0375	-2.35	-1.9688	-2.1167	345.961	320.188	250.700	484.558	216.003	302.850	440.306	512.138	334.171	289.464	212.679	485.149	400.367	504.266	295.634	430.279	0.0003573	0.0012901	0.00042834	237.4	8.1836e-06	8.6774e-06	505.22	70.079	4.4077e-06	1.2424e-05	155.83	72.534	28.696	9.9622	8.0071e-06	25.522	0.0047612	0.0057316	0.0016083	291.25	6.1412e-05	6.4332e-05	551.92	88.389	6.2731e-05	6.4897e-05	192.41	82.021	39.977	13.682	6.3348e-05	30.148	242.050	298.817	188.216	173.394	281.170	238.411	171.921	179.228	395.946	171.965	176.641	182.252	183.736	190.193	318.532	186.394	-8191	255	
1466.326	1	1	0	0	0.14769	0.11108	0.23238	0.20214	0.25268	0.31183	0.19804	0.10549	0.16128	0.15614	0.22206	0.20525	0.19159	0.1841	0.14311	0.15785	-1.975	-1.9375	-2.0958	-2.2188	-1.9917	-2.5062	-2.1813	-2.1271	-2.4688	-1.9417	-2.5396	-2.15	-1.9646	-2.4521	-2.2042	-2.0771	356.687	476.614	218.616	498.490	447.884	271.206	163.340	403.483	519.829	478.306	193.098	162.966	173.259	324.642	456.363	425.395	0.00039169	0.00050053	0.00025195	236.25	3.1272e-06	4.4362e-06	506.84	68.044	1.4973e-05	1.5091e-05	156.37	73.009	28.496	9.757	7.2643e-06	25.272	0.0048701	0.0058647	0.001647	293.47	6.265e-05	6.5681e-05	552.17	88.528	6.3071e-05	6.476e-05	192.44	82.314	40	13.691	6.3635e-05	30.223	272.513	427.250	421.999	173.380	320.626	517.637	171.706	178.744	337.085	416.055	177.087	181.944	184.215	190.006	393.734	186.629	-8191	255	
1466.422	1	1	0	0	0.13076	0.25924	0.12228	0.25289	0.2273	0.15439	0.087021	0.033732	0.15298	0.46824	0.077462	0.063303	0.20979	0.018407	0.10725	0.17037	-1.9125	-2.0187	-2.075	-2.225	-1.8646	-2.3292	-2.0667	-2.1937	-2.3	-2.0292	-2.325	-2.4458	-2.1	-2.4167	-2.1562	-2.1625	397.955	404.642	504.544	517.828	390.734	209.407	247.630	254.477	322.643	436.483	502.018	503.288	162.513	171.610	248.641	480.302	0.00013319	0.0014512	9.2801e-05	237.67	9.0703e-06	1.6646e-05	508.78	67.937	9.15e-06	7.2091e-06	159.18	73.502	28.267	10.063	1.0873e-05	25.555	0.0048962	0.005912	0.0016547	293.41	6.286e-05	6.5118e-05	555.59	88.416	6.2686e-05	6.4296e-05	192.64	82.466	39.791	13.745	6.2191e-05	30.372	290.257	429.629	518.758	172.751	256.908	306.645	171.846	178.941	378.544	302.657	177.045	182.242	183.959	189.647	347.622	186.870	-8191	255	
1466.518	1	1	0	0	0.1277	0.26757	0.33394	0.084783	0.31892	0.24618	0.03217	0.11426	0.27571	0.15764	0.19224	0.13263	0.033382	0.057401	0.21526	0.14526	-1.9271	-2.1021	-2.15	-2.2125	-2.0417	-2.3417	-2.2562	-2.0979	-2.3479	-2.1146	-2.2271	-2.4417	-1.9792	-2.3042	-2.3708	-2.0062	361.162	225.486	296.166	348.108	410.164	357.273	367.152	455.205	183.388	443.097	162.852	194.663	480.034	343.614	332.196	428.451	0.00031799	0.00060555	0.00025338	236.78	1.1868e-05	8.797e-07	508.22	69.253	6.493e-06	1.4371e-05	156.65	73.562	28.689	10.03	1.0534e-05	25.82	0.0047818	0.0057836	0.0016145	290.68	6.0418e-05	6.2773e-05	552.16	88.08	6.0387e-05	6.2212e-05	191.13	82.39	39.722	13.645	6.076e-05	30.234	255.249	342.457	279.561	172.886	435.045	311.544	172.097	178.208	513.262	371.040	176.586	182.535	184.169	189.792	406.630	186.654	-8191	255	
1466.614	1	1	0	0	0.12609	0.020152	0.21779	0.18848	0.1312	0.070843	0.30522	0.18131	0.24403	0.11486	0.16151	0.36711	0.1579	0.10835	0.28113	0.06504	-1.9062	-2.1437	-1.9312	-2.2979	-1.9729	-2.4313	-2.3875	-2.0396	-2.4396	-2.2354	-2.0458	-2.325	-2.1729	-2.1312	-2.4313	-2.05	368.306	322.719	334.702	444.952	342.494	209.026	291.590	442.773	299.716	414.639	185.457	508.506	323.085	411.287	362.015	161.443	0.00031811	0.001156	0.00052461	234.49	3.9686e-06	1.0243e-05	509.88	68.787	8.0899e-06	6.3805e-06	156.94	73.686	29.146	10.09	4.1393e-06	25.891	0.0046346	0.0055975	0.0015545	287.83	5.8898e-05	6.1573e-05	549.94	87.045	5.8069e-05	6.0539e-05	189.89	81.913	39.476	13.514	5.915e-05	29.992	258.934	274.115	227.693	172.801	373.667	298.238	171.885	178.850	358.074	273.783	176.571	182.186	184.650	189.539	260.642	186.233	-8191	255	
1466.735	1	1	0	0	0.2503	0.15549	0.094783	0.099665	0.20603	0.18879	0.042894	0.16077	0.25019	0.12129	0.21571	0.37858	0.16405	0.13377	0.16041	0.09052	-2.1312	-2.225	-1.9771	-2.425	-2.0458	-2.4	-2.5062	-2.0396	-2.35	-2.2396	-1.9854	-2.5	-2.0542	-2.2917	-2.4208	-1.9521	318.922	375.489	346.430	410.893	271.014	329.040	252.440	403.955	323.836	349.643	502.141	441.325	187.652	320.026	464.682	330.923	0.00020061	0.0011356	0.00014237	238.73	1.6698e-05	7.771e-06	510.08	68.604	7.1341e-06	9.9126e-06	157.23	74.135	29.26	10.084	2.7912e-06	26.042	0.00453	0.0054656	0.0015252	288.96	5.7947e-05	6.0247e-05	549.35	86.679	5.774e-05	6.005e-05	189.69	82.206	39.298	13.509	5.7703e-05	29.934	237.687	212.376	269.868	172.451	389.099	425.189	171.694	178.722	356.021	319.871	177.154	182.428	184.405	188.971	389.664	186.535	-8191	255	
1466.830	1	1	0	0	0.15548	0.21689	0.18382	0.32237	0.21454	0.30405	0.23327	0.18266	0.027571	0.21291	0.2815	0.28046	0.11813	0.20507	0.22699	0.31782	-1.9083	-2.2417	-2.1771	-2.4208	-2.1167	-2.0563	-2.5104	-1.9771	-2.3563	-2.2313	-2.1063	-2.5542	-2.2396	-2.1688	-2.3688	-2.25	193.905	411.981	357.827	519.335	401.286	334.651	203.691	480.313	261.583	194.963	433.692	515.189	233.854	456.452	449.484	458.832	0.00032368	0.00031517	0.00010165	240.6	7.9217e-06	1.6993e-05	511.34	69.284	9.1347e-06	4.4206e-06	159.14	74.642	29.16	10.238	4.5779e-06	26.012	0.0044484	0.0053665	0.0014921	288.21	5.7069e-05	5.8833e-05	547.86	86.956	5.6829e-05	5.9339e-05	190.57	82.253	39.49	13.594	5.8787e-05	30.245	249.402	516.043	307.642	173.022	314.800	271.103	171.824	178.620	175.346	355.471	176.899	181.735	183.574	190.154	222.837	186.637	-8191	255	
1466.903	1	1	0	0	0.17676	0.15047	0.17841	0.088868	0.27942	0.16918	0.11491	0.22437	0.34334	0.067711	0.0723	0.10313	0.020958	0.16084	0.17551	0.28533	-1.9729	-2.3167	-1.9979	-2.4354	-2.1771	-2.1104	-2.5979	-2.2062	-2.4667	-2.3187	-2.0646	-2.6417	-2.175	-2.1562	-2.6271	-2.1458	187.636	353.402	485.442	334.104	402.941	457.809	283.950	405.621	446.848	190.767	178.221	332.908	415.695	396.353	386.498	214.475	0.0001379	0.0014226	0.00035198	240.97	5.3972e-06	1.6419e-05	505.3	69.193	5.7284e-06	2.4048e-06	158.33	74.697	29.519	10.199	8.9003e-06	26.121	0.0046055	0.0055462	0.0015321	290	5.8441e-05	6.0994e-05	550.84	86.894	5.8e-05	5.9168e-05	190.32	82.526	39.436	13.563	5.7582e-05	30.258	227.039	305.096	493.205	172.478	245.906	512.968	172.065	179.624	299.922	264.005	176.973	181.756	183.119	189.914	265.491	186.451	-8191	255	
1467.024	1	1	0	0	0.16734	0.27836	0.067538	0.041807	0.26992	0.18571	0.13771	0.12864	0.14827	0.024158	0.19161	0.25597	0.21822	0.088276	0.14185	0.23533	-1.8729	-2.3854	-2.0083	-2.5563	-2.1458	-1.9792	-2.6188	-1.9937	-2.425	-2.3312	-2.1042	-2.3937	-2.2188	-2.1646	-2.5625	-2.2604	381.704	382.380	445.932	470.099	442.493	298.000	475.796	487.234	298.391	400.650	506.839	353.384	365.724	223.297	387.810	438.720	0.00024379	0.0010453	0.00022229	241.23	5.2455e-06	3.0824e-06	514.04	69.635	1.1959e-05	1.1258e-05	159.42	75.107	29.316	10.276	8.1628e-06	26.186	0.0044645	0.0053699	0.0014997	288.35	5.6975e-05	5.9098e-05	549.82	86.505	5.6284e-05	5.7557e-05	190.35	82.247	39.185	13.466	5.5477e-05	30.092	219.399	369.344	324.763	173.032	265.430	184.913	172.374	178.920	433.965	412.605	176.924	182.266	183.478	189.527	289.054	186.475	-8191	255	
1467.118	1	1	0	0	0.13704	0.083476	0.32937	0.067236	0.058987	0.026085	0.10998	0.058875	0.21079	0.15421	0.22164	0.090081	0.12846	0.29837	0.040969	0.20607	-1.825	-2.3854	-2.0792	-2.3979	-2.3479	-2.0625	-2.4417	-2.125	-2.3	-2.3	-1.9833	-2.4062	-2.4729	-1.9708	-2.5062	-2.1188	182.441	427.376	418.126	286.001	414.520	373.657	291.323	169.904	206.504	213.991	186.716	297.685	477.169	172.507	356.645	431.109	0.00030554	0.0013006	0.0002501	240.37	8.0471e-06	7.3631e-07	514.72	69.085	1.2869e-05	7.2065e-07	159.92	75.531	29.672	10.253	5.2632e-06	26.492	0.0042689	0.0050689	0.0014046	285.96	5.373e-05	5.5164e-05	547.23	85.605	5.2375e-05	5.4016e-05	188.62	82.313	38.697	13.278	5.2328e-05	29.941	271.866	409.759	210.954	173.157	285.489	264.763	171.651	179.193	400.112	455.852	176.370	182.073	183.802	189.439	353.573	186.436	-8191	255	
1467.214	1	1	0	0	0.013941	0.19102	0.13299	0.12876	0.27805	0.12121	0.2146	0.21889	0.085517	0.20465	0.20898	0.25774	0.18617	0.10919	0.047221	0.38	-1.725	-2.1667	-1.9042	-2.2479	-2.3125	-2.175	-2.4979	-2.1125	-1.9333	-2.5333	-2.0667	-2.1458	-2.1396	-2.0542	-2.3833	-2.0833	216.458	473.595	295.818	260.715	334.210	266.486	446.601	389.251	379.089	429.241	502.395	472.836	261.624	274.559	172.594	391.060	0.0002887	0.00056933	0.00049744	239.81	3.3857e-06	1.9357e-05	521.46	69.532	5.7929e-06	7.0753e-06	161.79	76.458	30.04	10.365	1.0285e-05	26.319	0.004025	0.0047696	0.0013324	282.22	5.0717e-05	5.1914e-05	545.68	84.416	4.9558e-05	5.1135e-05	186.57	82.326	38.236	13.162	4.892e-05	29.781	245.062	205.924	176.497	173.519	180.725	337.927	171.588	179.398	214.071	162.696	176.351	182.620	183.309	189.143	414.598	186.610	-8191	255	
1467.335	1	1	0	0	0.17659	0.11903	0.17983	0.03795	0.06774	0.15157	0.10281	0.29534	0.21503	0.1599	0.0415	0.087571	0.1355	0.11101	0.24749	0.18951	-1.5312	-2.4042	-1.9854	-2.2042	-2.4938	-1.8771	-2.2958	-2.3167	-2.0167	-2.4958	-2.3771	-2.3125	-2.3083	-2.0417	-2.375	-2.3396	232.190	174.271	384.589	297.689	306.954	183.673	428.002	516.559	165.672	371.988	221.146	240.779	418.080	325.662	202.859	417.237	0.00025995	0.00047391	0.00039197	244.13	7.5727e-06	5.1049e-06	516.86	70.322	2.8314e-06	1.4364e-06	159.83	76.269	29.983	10.169	7.6518e-06	25.999	0.0038358	0.0046217	0.0012886	282.92	4.8807e-05	5.0577e-05	542.77	84.027	4.8237e-05	5.0287e-05	185.53	81.916	38.13	13.007	4.9188e-05	29.391	285.463	489.850	321.647	173.141	437.568	358.414	171.578	178.913	371.549	243.110	176.855	182.184	183.608	189.041	447.204	186.887	-8191	255	
1467.431	1	1	0	0	0.29813	0.20186	0.17079	0.099186	0.27791	0.018168	0.12531	0.18794	0.25672	0.13806	0.15358	0.19275	0.13492	0.037728	0.068939	0.08347	-1.5458	-2.5021	-2.1437	-2.0979	-2.3875	-2.1125	-2.4625	-2.2125	-2.1229	-2.3667	-2.2021	-2.175	-2.1813	-2.0542	-2.4417	-2.45	491.805	315.591	176.275	241.867	215.268	385.798	438.122	258.768	185.065	260.003	480.844	509.177	314.112	400.587	245.722	486.223	0.00028349	0.00025973	8.0018e-05	240.83	8.5643e-06	5.0728e-06	511.84	69.846	1.1224e-05	1.0377e-05	159.35	74.205	29.574	10.024	9.4601e-06	26.037	0.003805	0.0045854	0.0012887	279.64	4.9393e-05	5.0686e-05	540.12	84.002	4.9486e-05	5.1146e-05	185.85	80.836	38.022	12.957	4.9879e-05	29.355	257.448	227.844	404.544	173.082	271.798	419.649	172.006	178.685	281.561	394.381	176.441	182.007	183.579	189.078	404.685	186.546	-8191	255	
1467.503	1	1	0	0	0.12774	0.090222	0.058113	0.14778	0.035614	0.048238	0.11047	0.15601	0.10328	0.10689	0.17939	0.25119	0.2883	0.051521	0.050971	0.21498	-1.5375	-2.2333	-2.175	-2.0438	-2.4771	-2.0563	-2.2438	-2.4792	-1.975	-2.4104	-2.2125	-2.0396	-2.3417	-2.1396	-2.1688	-2.4958	254.118	417.889	238.658	183.295	478.386	430.498	395.366	437.769	310.372	240.997	290.507	263.137	176.399	260.355	251.268	404.857	0.0003242	0.0010802	0.00016994	240.82	1.9653e-05	5.3442e-06	513.79	68.033	2.651e-06	1.3028e-05	161.66	75.518	29.321	10.295	9.7378e-06	25.903	0.003832	0.0046315	0.0012874	280.84	4.892e-05	5.0671e-05	541.36	83.667	4.8757e-05	5.0398e-05	187.17	81.254	38.108	13.065	4.9941e-05	29.375	261.889	345.743	166.995	172.988	312.651	438.714	171.946	178.555	389.204	484.891	176.358	182.311	184.131	189.468	436.111	186.603	-8191	255	
1467.623	1	1	0	0	0.097698	0.10181	0.091118	0.10951	0.12373	0.13139	0.12101	0.23972	0.09361	0.29509	0.18124	0.17192	0.063075	0.26158	0.071432	0.15126	-1.4792	-2.1917	-2.1437	-2.1292	-2.5729	-2.1437	-2.1854	-2.2083	-1.9937	-2.5208	-2.2625	-2.0854	-2.4813	-2.0521	-2.1271	-2.4729	299.511	335.554	397.979	209.285	213.530	518.294	468.108	394.440	390.892	453.987	497.106	425.650	272.306	223.210	362.704	454.615	0.00038004	0.000961	0.00027454	240.74	4.589e-06	7.0955e-06	515.95	68.972	9.4643e-06	2.8342e-06	158.77	75	29.771	10.113	9.9438e-06	26.463	0.0038919	0.0047089	0.0013373	282.89	5.0744e-05	5.2927e-05	545.82	84.588	5.0975e-05	5.2326e-05	186.33	81.523	38.406	13.085	5.0728e-05	29.541	253.775	347.358	257.821	172.893	310.358	481.349	172.307	178.572	421.520	493.587	176.651	181.791	184.133	189.384	237.430	186.617	-8191	255	
1467.719	1	1	0	0	0.1693	0.29374	0.32425	0.052339	0.13035	0.19928	0.12541	0.074728	0.15689	0.17529	0.27806	0.095665	0.18744	0.19449	0.052785	0.083452	-1.5125	-2.3604	-2.2062	-2.0187	-2.575	-2.1542	-2.1667	-2.4646	-2.0104	-2.1937	-2.3292	-1.8125	-2.1813	-2.0396	-2.0875	-2.4667	292.061	238.178	177.868	259.963	348.353	366.253	256.898	345.535	241.522	360.001	502.895	475.699	219.858	341.128	276.680	395.522	0.00019814	0.00080646	0.00019837	240.24	4.2927e-06	7.3634e-06	511.31	69.389	4.0447e-06	3.9443e-06	160.52	74.371	29.335	10.173	5.5907e-06	25.884	0.0039573	0.0047448	0.001341	282.54	5.0505e-05	5.3133e-05	545.22	84.561	5.1853e-05	5.2988e-05	186.9	81.314	38.189	13.152	5.1253e-05	29.436	234.571	221.198	294.572	173.329	318.913	269.955	171.578	178.301	184.598	313.114	176.893	182.050	183.792	190.008	520.238	186.595	-8191	255	
1467.815	1	1	0	0	0.021467	0.07747	0.14346	0.13914	0.082153	0.092796	0.1392	0.37175	0.17114	0.12675	0.16487	0.3258	0.13331	0.18401	0.17385	0.19077	-1.5229	-2.3563	-2.3667	-1.9583	-2.3896	-2.3312	-2.1771	-2.2188	-2.2062	-2.3229	-2.4979	-1.8563	-2.6937	-2.3729	-2.1188	-2.5542	401.519	420.149	273.236	204.463	387.598	306.097	479.583	449.336	169.783	414.738	261.429	485.505	412.402	234.064	291.512	247.213	0.00011289	0.0019131	0.00017276	241.72	3.1473e-06	2.2469e-07	519.31	69.764	1.7924e-05	5.3086e-06	159.45	74.57	29.486	10.153	1.0778e-05	25.849	0.0040093	0.004796	0.0013499	283.11	5.1201e-05	5.3085e-05	546.09	84.606	5.0843e-05	5.2251e-05	186.38	81.35	38.218	13.126	5.1881e-05	29.508	257.426	372.107	347.754	173.485	262.953	195.124	171.965	178.712	406.815	400.633	176.990	182.856	184.210	189.709	197.997	187.061	-8191	255	
1467.910	1	1	0	0	0.03834	0.099283	0.29233	0.19528	0.10986	0.14287	0.075238	0.25428	0.077782	0.12672	0.21422	0.13974	0.077421	0.4394	0.1101	0.19709	-1.8167	-2.2792	-2.4021	-2.0563	-2.3125	-2.2417	-2.1417	-2.4646	-2.2208	-2.1125	-2.4646	-2.0187	-2.2396	-2.3271	-2.025	-2.3667	295.414	195.168	378.303	275.833	515.605	429.340	416.500	448.434	432.657	371.492	420.982	195.455	251.034	312.172	378.509	371.026	0.00046176	0.00041838	0.00015698	238.25	1.1424e-05	6.8566e-06	513.9	69.405	5.5123e-06	7.5434e-06	160.78	75.107	29.448	10.11	5.1624e-06	26.005	0.0040541	0.0049094	0.0013746	283.09	5.1987e-05	5.3732e-05	544.87	84.273	5.1119e-05	5.2836e-05	186.91	81.261	38.132	13.035	5.0922e-05	29.417	261.239	200.800	348.628	172.318	520.594	206.708	171.771	178.882	507.405	262.883	177.243	182.184	184.038	189.099	354.886	186.936	-8191	255	
1468.031	1	1	0	0	0.22928	0.20712	0.37645	0.16739	0.12245	0.21968	0.16925	0.1514	0.041055	0.29876	0.11381	0.12237	0.13239	0.1867	0.13952	0.15699	-1.6812	-2.1208	-2.4	-1.9667	-2.1604	-2.3375	-2.1167	-2.3083	-1.9354	-2.1979	-2.6	-2.1208	-2.3333	-2.4479	-2.1292	-2.3438	236.506	474.524	389.080	239.462	297.522	473.615	186.542	372.560	404.464	367.531	208.453	506.779	273.983	395.991	394.031	356.954	0.00029705	0.001003	0.0003794	241.76	5.2161e-06	5.8443e-06	510.95	68.761	1.163e-05	1.2107e-05	157.18	75.281	29.178	9.999	1.013e-05	25.769	0.0039099	0.0047303	0.0013207	281.15	4.9766e-05	5.1339e-05	541.4	83.391	4.9718e-05	5.1188e-05	184.36	80.787	37.708	12.941	4.9298e-05	29.199	272.962	198.369	328.711	172.728	337.817	323.606	171.832	178.580	324.115	358.475	176.885	182.211	184.427	189.455	309.619	186.740	-8191	255	
1468.127	1	1	0	0	0.23199	0.19878	0.17672	0.028976	0.075016	0.19693	0.29833	0.069748	0.24125	0.078872	0.15287	0.08395	0.12338	0.32263	0.12994	0.10865	-1.7708	-2.0563	-2.5229	-2.0938	-2.3083	-2.5646	-1.9937	-2.2958	-2.1875	-2.1667	-2.4688	-2.0062	-2.2021	-2.2292	-2.1292	-2.4062	520.071	398.393	271.678	273.400	323.516	398.710	434.843	163.600	497.740	250.074	398.308	348.245	421.937	513.171	173.205	410.822	0.00034866	0.00043608	0.00021407	239.52	3.3098e-06	5.0921e-06	513.03	69.27	1.308e-05	1.0927e-05	156.56	74.767	29.649	9.9449	3.8805e-06	25.631	0.0038728	0.0046867	0.0012946	280.01	4.9579e-05	5.1732e-05	539.62	83.604	5.0027e-05	5.1005e-05	184.24	80.581	37.849	12.845	4.9401e-05	29.048	230.838	345.650	346.420	173.303	430.918	197.425	171.682	178.386	328.579	261.338	176.530	181.856	184.052	189.573	291.434	186.015	-8191	255	
1468.198	1	1	0	0	0.35594	0.18331	0.13128	0.33423	0.25293	0.22668	0.21697	0.091481	0.18101	0.19098	0.26749	0.18535	0.15264	0.19436	0.010543	0.11194	-1.6812	-2.05	-2.4042	-1.8646	-2.0021	-2.5167	-2.1937	-2.3417	-2.3646	-2.0583	-2.3917	-2.2958	-2.1125	-2.3021	-2.2042	-2.4792	400.653	208.255	319.035	453.241	501.366	431.362	429.873	426.928	394.424	176.884	414.433	441.293	282.584	259.983	392.903	408.110	0.00023051	0.0013152	0.00012988	238.07	1.095e-05	6.3533e-06	511.08	69.926	3.5552e-06	1.1807e-05	157.14	74.311	28.799	10.025	4.1779e-06	25.775	0.0039013	0.0046615	0.0012991	279.69	4.9283e-05	5.1291e-05	540.22	83.866	4.9443e-05	5.1084e-05	184.92	80.634	37.758	12.955	5.0948e-05	29.171	283.920	261.433	262.376	173.121	321.093	242.312	171.606	179.060	169.403	411.589	177.767	181.861	184.375	188.926	435.189	187.165	-8191	255	
1468.295	1	1	0	0	0.043177	0.13643	0.31211	0.17479	0.091663	0.26849	0.0016072	0.072931	0.2048	0.30439	0.17981	0.34336	0.17316	0.26052	0.13822	0.14424	-1.7729	-1.9292	-2.2604	-2.1875	-2.0771	-2.5604	-2.0958	-2.2333	-2.3333	-2.0604	-2.1188	-2.1604	-2.1083	-2.5792	-2.2188	-2.2271	470.577	316.135	253.976	354.045	292.730	430.155	180.000	163.712	315.392	519.112	432.297	480.213	492.701	346.934	303.115	163.651	0.00025747	0.00171	0.00031072	238.9	8.3753e-06	4.6168e-06	514.82	69.067	9.9058e-06	1.251e-05	158.62	74.136	28.754	9.991	8.8659e-06	25.584	0.0039853	0.0047668	0.001324	282.38	5.0375e-05	5.2244e-05	542.96	84.255	5.061e-05	5.1839e-05	185.46	80.578	37.746	12.946	5.0908e-05	29.2	270.586	361.800	482.410	172.747	341.351	520.332	171.925	178.789	318.944	476.090	177.445	182.100	184.621	189.277	409.414	186.486	-8191	255	
1468.415	1	1	0	0	0.20853	0.23762	0.19679	0.2147	0.1932	0.23976	0.1674	0.045115	0.1564	0.10677	0.049741	0.2217	0.083012	0.20144	0.09173	0.16864	-2.0396	-1.8333	-2.3792	-2.2542	-2.0375	-2.5083	-2.2583	-2.2938	-2.45	-2.1125	-2.4208	-2.3583	-2.0146	-2.4437	-2.0729	-2.2687	190.901	292.745	210.123	179.697	460.866	343.776	469.706	502.955	353.372	425.884	454.376	381.589	170.119	248.839	365.090	229.108	0.00024677	0.001163	9.3977e-05	239.62	9.0953e-07	9.724e-06	512.56	69.961	9.4281e-07	1.3606e-05	157.12	73.437	28.762	9.9423	5.4124e-06	25.648	0.0039573	0.0048395	0.0013481	282.51	5.1316e-05	5.3827e-05	544.42	84.447	5.2536e-05	5.4076e-05	185.96	80.277	37.907	13.006	5.3292e-05	29.23	271.691	519.485	473.326	172.792	492.686	370.582	171.775	178.978	303.435	438.068	176.659	181.849	183.711	188.895	205.854	186.477	-8191	255	
1468.511	1	1	0	0	0.15146	0.23764	0.21071	0.34503	0.17005	0.1579	0.32426	0.16685	0.086675	0.19273	0.51469	0.10186	0.051515	0.052731	0.24118	0.17734	-1.9729	-1.9417	-2.1312	-2.3688	-2.0896	-2.475	-2.3708	-2.3667	-2.3875	-2.1604	-2.2542	-2.4208	-2.0667	-2.5104	-2.125	-2.1083	355.898	380.442	224.893	411.680	327.460	433.513	485.218	256.447	371.804	327.481	495.248	506.698	446.154	190.762	456.454	471.854	0.00016839	0.00096681	0.00046268	238.21	2.5932e-06	1.9047e-05	509.91	68.952	8.9691e-06	5.7234e-06	156.94	73.417	28.643	9.9579	4.6839e-06	25.568	0.0041522	0.0049797	0.0013949	284.25	5.3198e-05	5.4915e-05	545.73	84.707	5.326e-05	5.5383e-05	186.95	80.575	38.256	13.122	5.4838e-05	29.359	256.137	210.186	376.498	172.806	446.297	278.834	171.911	178.766	325.323	248.942	177.023	182.026	183.973	189.613	355.411	186.975	-8191	255	
1468.607	1	1	0	0	0.11572	0.16225	0.28805	0.32501	0.17006	0.17195	0.17887	0.16514	0.1755	0.064651	0.080783	0.27632	0.22696	0.16815	0.18045	0.18761	-2.2417	-2.0396	-2.2417	-2.3479	-1.9417	-2.475	-2.5062	-1.9792	-2.6312	-2.2396	-2.1458	-2.4208	-2.0104	-2.4271	-2.0833	-2.0125	466.686	161.087	238.185	181.730	207.962	246.743	431.582	172.486	401.094	397.724	217.381	282.248	204.118	259.308	174.065	352.363	0.00012151	0.00031312	0.00021522	241.87	1.2112e-05	7.1708e-06	510.54	68.979	9.4315e-06	5.5818e-06	158.67	73.067	28.388	10.039	5.5795e-06	25.465	0.004241	0.0051635	0.0014473	286.72	5.5441e-05	5.7982e-05	548.65	86.05	5.5395e-05	5.8311e-05	188.56	80.594	38.456	13.199	5.586e-05	29.4	228.029	181.562	200.662	173.040	317.074	294.766	171.402	178.977	353.967	441.076	177.092	181.834	183.866	190.264	313.546	187.139	-8191	255	
1468.704	1	1	0	0	0.31432	0.050731	0.18751	0.054423	0.34203	0.4216	0.36764	0.29125	0.048462	0.19209	0.22096	0.29799	0.1977	0.037596	0.05277	0.096068	-2.075	-1.8271	-2.1333	-2.5292	-2.1146	-2.3917	-2.3833	-1.8583	-2.4625	-2.1771	-2.35	-2.2229	-1.9	-2.2125	-2.3833	-2.1437	306.433	515.253	279.170	455.592	362.315	432.945	444.907	234.013	505.909	449.426	423.365	172.343	471.303	375.591	329.430	365.541	0.00036184	6.1133e-05	6.3421e-05	238.77	6.7922e-06	9.6766e-06	510.88	69.144	5.8777e-06	1.1617e-05	158.58	72.803	28.879	10.025	4.4556e-06	25.476	0.0042505	0.0052063	0.0014401	285.3	5.463e-05	5.6834e-05	547.29	85.422	5.4409e-05	5.5589e-05	187.43	80.354	38.164	13.125	5.3746e-05	29.26	266.024	517.878	205.889	173.174	372.029	277.248	171.602	178.379	405.441	296.917	176.147	182.491	184.080	189.426	367.299	186.110	-8191	255	
1468.800	1	1	0	0	0.13234	0.34678	0.11366	0.33825	0.18317	0.11694	0.25062	0.19964	0.39406	0.17871	0.13644	0.14926	0.1657	0.13271	0.26246	0.17825	-1.9771	-2.15	-2.0563	-2.4583	-2.0542	-2.3438	-2.525	-1.9021	-2.35	-2.2354	-2.0146	-2.5771	-2.0125	-2.4771	-2.3646	-2.0708	435.219	389.811	277.267	447.822	460.953	325.350	494.211	249.934	365.196	169.457	405.437	444.742	283.604	404.428	214.799	466.469	0.00024994	0.0016098	8.7059e-05	237.75	2.9372e-06	1.2164e-05	506.76	68.72	6.5486e-06	3.8135e-06	155.83	72.362	28.464	9.9454	3.1129e-06	25.218	0.0041277	0.0050223	0.0013827	282.49	5.2564e-05	5.4784e-05	541.04	84.341	5.2006e-05	5.3749e-05	184.71	79.502	37.77	12.979	5.2452e-05	28.897	232.149	313.169	290.671	173.315	438.495	458.348	172.024	178.625	359.871	357.016	176.519	182.071	184.585	189.942	341.011	187.205	-8191	255	
1468.896	1	1	0	0	0.10412	0.21476	0.26648	0.19903	0.10973	0.099786	0.11533	0.34097	0.22625	0.096733	0.23615	0.11206	0.18373	0.079991	0.16958	0.13249	-1.8146	-2.2188	-1.9333	-2.5167	-2.0604	-2.1229	-2.3479	-1.8917	-2.4604	-2.1958	-2.0521	-2.1937	-2.0354	-2.1667	-2.3979	-2.1188	450.301	200.290	252.231	326.378	187.014	422.523	448.884	452.105	519.055	447.346	269.167	384.640	167.483	252.203	205.128	480.147	0.00035142	0.0018626	0.00010537	238.61	9.7386e-06	4.1201e-06	508.38	68.982	5.9363e-06	2.2965e-06	157.91	72.975	28.764	9.9274	1.0605e-05	25.191	0.0039925	0.0049081	0.0013566	281.17	5.1779e-05	5.3501e-05	540.19	84.063	5.1287e-05	5.3238e-05	184.44	79.411	37.758	12.868	5.1162e-05	28.861	256.186	219.023	409.364	172.810	378.728	309.427	171.534	178.644	393.462	434.675	176.574	182.029	183.401	190.111	341.249	187.168	-8191	255	
1469.015	1	1	0	0	0.23974	0.098484	0.13702	0.38247	0.17444	0.14915	0.11783	0.22509	0.1934	0.10263	0.18917	0.1556	0.21138	0.074562	0.17092	0.17733	-1.8146	-2.1375	-2.1354	-2.3312	-2.0875	-2.0938	-2.5083	-2.0125	-2.4208	-2.4104	-2.0021	-2.4375	-2.1646	-2.0687	-2.3042	-1.9146	482.267	477.370	180.738	408.873	273.010	384.257	444.053	191.813	451.021	261.164	482.726	396.226	507.280	436.688	521.100	165.093	0.00040173	0.0003496	7.0604e-05	237.68	7.2789e-06	9.967e-06	507.73	69.251	3.3501e-06	7.4255e-06	158.17	73.256	28.606	9.968	6.4666e-06	25.266	0.0040097	0.0048812	0.0013516	281	5.2208e-05	5.3426e-05	538.53	84.227	5.1773e-05	5.3123e-05	184.59	79.762	37.774	12.861	5.1577e-05	28.829	245.576	245.757	220.375	172.666	221.433	423.642	172.375	179.152	425.308	220.937	176.471	182.381	183.355	190.151	194.706	187.124	-8191	255	
1469.111	1	1	0	0	0.22317	0.0328	0.11402	0.2099	0.13083	0.089161	0.26672	0.076551	0.1901	0.10508	0.2622	0.065532	0.12554	0.074183	0.20611	0.19483	-1.7583	-2.1854	-1.975	-2.3542	-2.1208	-2.1521	-2.4521	-1.9708	-2.3271	-2.2854	-2.0042	-2.4125	-2.1146	-2.1979	-2.4667	-2.0708	282.955	421.392	270.121	272.537	428.877	223.623	502.423	362.898	519.163	297.233	376.000	185.744	167.360	184.677	297.199	442.742	0.00024343	0.0016334	0.00017215	237.78	7.9395e-06	1.7097e-05	508.91	69.162	5.1568e-06	1.4098e-05	157.34	72.46	28.647	9.7857	7.3084e-06	25.169	0.0039927	0.0048517	0.0013473	283.06	5.1949e-05	5.3542e-05	541.19	84.282	5.1918e-05	5.2863e-05	184.4	79.354	37.825	12.818	5.1956e-05	28.735	265.236	304.923	467.535	174.062	515.655	331.372	171.698	178.600	232.640	438.949	176.641	182.427	183.302	189.804	517.242	186.381	-8191	255	
1469.207	1	1	0	0	0.36989	0.16886	0.063294	0.062386	0.21648	0.19326	0.16435	0.30048	0.19074	0.071544	0.14838	0.1765	0.16104	0.25456	0.26647	0.1422	-1.7708	-2.2583	-2.0208	-2.3604	-2.1771	-1.9125	-2.575	-2.0625	-2.1104	-2.3438	-2.0479	-2.4313	-2.2062	-1.9229	-2.4	-2.1792	501.104	479.622	444.449	206.633	499.559	345.949	288.926	417.256	442.159	502.262	228.496	307.865	201.779	205.615	406.000	270.160	0.00028805	0.00056612	0.00026157	235.81	2.6887e-06	7.9723e-06	505.57	68.159	1.4118e-06	5.4813e-06	155.84	72.102	28.715	9.7952	1.5139e-05	25.037	0.0040474	0.0048641	0.0013538	280.46	5.2001e-05	5.3241e-05	539.29	84.019	5.2209e-05	5.3421e-05	183.81	79.218	37.72	12.827	5.1936e-05	28.764	229.478	176.344	512.262	173.089	353.745	287.308	171.642	178.426	451.563	454.343	176.555	182.374	184.548	190.649	352.916	186.538	-8191	255	
1469.303	1	1	0	0	0.075802	0.1418	0.048287	0.21444	0.13213	0.13866	0.15353	0.092389	0.31246	0.20155	0.1435	0.21743	0.17899	0.26229	0.18706	0.23062	-1.6208	-2.2896	-1.8083	-2.3896	-2.3292	-2.0833	-2.3792	-2.0979	-2.1333	-2.575	-1.9542	-2.3417	-2.4167	-1.9083	-2.4146	-2.3604	208.137	178.174	444.946	517.826	181.355	270.058	396.091	388.492	216.820	419.585	447.842	408.587	222.549	440.863	360.386	171.076	0.00029138	0.00078692	7.3687e-05	238.68	3.3376e-06	3.2667e-06	507.25	68.958	9.8354e-06	1.2803e-05	156	72.65	28.377	9.8502	8.6253e-06	24.981	0.0040852	0.0049105	0.0013777	282.62	5.2593e-05	5.4182e-05	540.17	84.374	5.2483e-05	5.3453e-05	184.78	79.564	37.726	12.921	5.2836e-05	28.72	252.914	163.068	174.915	172.923	458.758	299.097	171.518	178.659	423.940	279.777	176.688	182.204	183.133	189.748	425.718	186.681	-8191	255	
1469.424	1	1	0	0	0.19517	0.18737	0.28271	0.29728	0.079013	0.096442	0.18367	0.065594	0.2147	0.19709	0.20061	0.066919	0.16322	0.069096	0.24448	0.23312	-1.7604	-2.4104	-2.0458	-2.3	-2.5375	-1.9979	-2.4292	-2.0833	-1.9438	-2.5708	-2.0438	-2.1479	-2.1813	-1.7896	-2.4	-2.2125	191.280	331.031	314.057	428.077	259.729	266.333	361.715	459.223	331.553	182.374	381.612	231.089	199.931	165.825	174.815	351.639	0.00023454	0.00020947	0.00011048	239.28	7.2737e-06	4.6665e-06	507.45	68.716	9.4836e-06	5.6825e-06	157.29	72.927	28.625	9.9467	4.4413e-06	25.222	0.0041206	0.0048967	0.0013812	283.11	5.2652e-05	5.3649e-05	540.52	84.361	5.1667e-05	5.2938e-05	184.45	79.528	37.778	12.929	5.1292e-05	28.961	283.562	293.124	254.605	173.277	185.580	409.851	171.721	178.699	371.936	339.938	176.839	181.755	183.755	190.205	450.712	186.472	-8191	255	
1469.496	1	1	0	0	0.19417	0.19917	0.34735	0.28447	0.15799	0.15963	0.031566	0.14335	0.029982	0.15532	0.49498	0.18343	0.34062	0.12267	0.057147	0.15314	-1.5917	-2.35	-1.9083	-2.2229	-2.1688	-2.0521	-2.4125	-2.1708	-1.95	-2.4104	-2.1271	-2.1562	-2.5292	-1.6958	-2.0375	-2.2229	173.099	304.946	221.414	327.429	489.147	442.389	452.324	309.641	395.529	393.164	460.100	439.164	288.918	500.618	288.831	308.827	0.00016364	0.00078995	4.556e-05	239.72	1.1922e-05	7.401e-06	511.48	68.517	4.5931e-06	7.8355e-06	157.07	72.878	28.261	9.9851	1.0372e-05	25.047	0.0039268	0.0047347	0.0013144	280.61	4.9992e-05	5.1386e-05	538.22	83.233	4.9093e-05	5.024e-05	182.04	79.139	37.119	12.77	4.8865e-05	28.492	283.427	397.837	343.474	172.553	268.702	356.519	171.728	179.239	343.999	448.637	176.647	182.038	183.487	190.129	472.655	186.464	-8191	255	
1469.592	1	1	0	0	0.045371	0.12352	0.05888	0.34761	0.24341	0.22219	0.098115	0.31203	0.022451	0.31835	0.33992	0.16729	0.090032	0.099759	0.069291	0.16957	-1.4688	-2.2792	-2.0292	-2.1521	-2.2313	-1.9417	-2.1937	-2.5062	-1.8687	-2.4125	-2.1604	-2.1229	-2.4625	-1.8771	-2.1208	-2.2687	431.906	443.322	362.172	184.271	510.860	318.577	441.411	456.321	331.219	188.211	450.730	513.327	273.978	481.769	388.799	336.522	0.0002084	0.001083	0.00031265	239.02	1.2112e-05	2.5444e-06	507.33	68.875	1.745e-06	1.2212e-05	156.85	73.043	28.775	9.7633	9.1475e-06	25.349	0.0037603	0.0045435	0.0012701	278.48	4.7944e-05	4.9969e-05	535.08	82.552	4.8562e-05	4.9717e-05	182.65	78.793	37.072	12.624	4.8523e-05	28.445	262.929	391.230	436.674	172.868	214.415	418.231	171.911	178.434	381.206	396.804	176.940	182.503	183.071	190.005	287.128	186.641	-8191	255	
1469.688	1	1	0	0	0.18457	0.15743	0.15859	0.20103	0.44218	0.21224	0.40516	0.23183	0.099505	0.20683	0.2071	0.081464	0.11577	0.093856	0.17606	0.05054	-1.5479	-2.3187	-2.1188	-1.9396	-2.4521	-2.0604	-2.2812	-2.5312	-1.9146	-2.2792	-2.2687	-2.0062	-2.3875	-1.9521	-2.3563	-2.3937	392.340	328.881	430.305	236.502	174.258	190.165	162.738	396.487	447.891	276.674	161.075	384.258	431.315	285.380	368.353	497.305	0.00020647	0.0007338	0.00021088	239.64	1.4363e-05	1.0706e-05	508.4	68.761	8.1528e-06	1.354e-05	156.05	72.391	28.868	9.8004	8.9062e-06	25.444	0.0037761	0.0045108	0.0012742	277.4	4.764e-05	4.9604e-05	534.11	82.459	4.775e-05	4.9054e-05	181.04	78.644	36.887	12.599	4.7771e-05	28.452	242.321	478.471	288.277	173.266	206.960	190.126	171.769	178.571	367.204	256.661	176.434	181.707	183.894	190.011	275.337	186.115	-8191	255	
1469.807	1	1	0	0	0.24436	0.16955	0.34678	0.1385	0.088705	0.084552	0.15529	0.16436	0.22105	0.20331	0.05804	0.16512	0.030434	0.15999	0.20987	0.053146	-1.3937	-2.3333	-2.0771	-2.1208	-2.6667	-2.1104	-1.9604	-2.4271	-2.0104	-2.1875	-2.3438	-2.0125	-2.3167	-2.1625	-2.1104	-2.7167	490.890	440.474	254.464	220.408	393.522	512.160	444.893	188.348	489.479	325.221	448.538	437.337	247.785	370.288	216.115	197.412	0.00021565	0.0011121	0.00042656	240.05	9.1815e-06	1.3295e-05	508.91	69.652	1.1622e-05	3.5559e-06	156.91	72.483	28.927	9.8422	1.0939e-05	25.285	0.0036897	0.0044526	0.0012517	278.03	4.6515e-05	4.8931e-05	534.27	82.622	4.724e-05	4.867e-05	181.71	78.89	37.083	12.703	4.7098e-05	28.449	277.712	265.432	284.438	172.680	201.956	258.220	171.976	178.534	190.615	287.309	177.027	182.266	183.265	189.867	360.487	186.811	-8191	255	
1469.903	1	1	0	0	0.061945	0.2359	0.29421	0.081125	0.25682	0.16293	0.264	0.038926	0.15787	0.046123	0.19128	0.25099	0.14421	0.13036	0.215	0.18881	-1.475	-2.2583	-2.4333	-2.0646	-2.4062	-2.1	-2.2104	-2.3958	-2.15	-2.275	-2.2708	-1.9917	-2.3479	-2.3646	-2.1521	-2.5583	175.058	173.770	171.937	395.686	231.401	302.247	387.217	296.294	347.179	520.413	490.855	477.386	259.642	298.787	249.031	326.802	0.0003695	0.0011521	0.00017567	240.43	3.3709e-06	4.9653e-06	511.48	68.569	6.8902e-06	7.3354e-06	158.78	73.192	29.04	9.9557	8.544e-06	25.124	0.0036324	0.0043394	0.0012112	277.39	4.5753e-05	4.8124e-05	535.7	81.89	4.5839e-05	4.7726e-05	181.65	78.922	36.934	12.642	4.6576e-05	28.39	258.430	298.638	426.016	172.897	236.744	178.913	171.678	179.262	513.092	515.974	177.006	181.966	184.027	190.279	351.413	186.729	-8191	255	
1469.999	1	1	0	0	0.092948	0.059795	0.17686	0.13234	0.31562	0.29869	0.37606	0.12765	0.16815	0.063527	0.11514	0.26389	0.30644	0.32006	0.26079	0.21271	-1.7479	-2.1979	-2.5458	-1.9792	-2.4479	-2.2417	-2.1021	-2.5458	-2.1542	-2.2542	-2.7938	-1.9729	-2.3396	-2.3229	-2.0521	-2.5958	454.149	237.042	327.667	317.760	441.447	509.591	520.202	459.704	322.789	249.427	327.324	478.554	351.018	486.294	204.565	383.260	0.00026061	0.00079917	0.00026632	241.24	1.3438e-05	9.6503e-06	508.1	68.5	3.0818e-06	1.5202e-05	157.04	73.713	29.05	9.8612	7.2203e-06	25.153	0.0036487	0.0043831	0.0012229	277.45	4.643e-05	4.8995e-05	533.84	82.301	4.7139e-05	4.8813e-05	181.16	78.855	37.102	12.613	4.7559e-05	28.378	238.350	213.906	235.990	172.547	300.436	222.081	171.654	178.518	414.290	231.543	176.247	182.241	184.002	189.467	510.238	186.604	-8191	255	
1470.097	1	1	0	0	0.14056	0.086022	0.21653	0.24839	0.078765	0.1663	0.13473	0.11052	0.32593	0.11177	0.24248	0.37969	0.19017	0.22953	0.15185	0.13357	-1.6271	-2.2687	-2.4188	-2.0375	-2.3812	-2.4437	-2.1	-2.3229	-1.9792	-2.2375	-2.4583	-2.0146	-2.2146	-2.275	-2	-2.3771	438.489	401.057	381.357	465.290	307.990	501.398	161.578	350.772	354.602	405.307	442.273	499.727	252.072	352.105	224.718	485.946	0.00035674	0.0011491	0.00014233	240.73	1.6638e-05	1.8264e-05	510.96	68.458	3.953e-06	3.5376e-06	158.16	72.723	28.96	9.9533	9.364e-06	25.352	0.0037485	0.0044746	0.0012445	278.08	4.7173e-05	4.9238e-05	535.35	82.391	4.7728e-05	4.8528e-05	181.42	78.833	37.069	12.586	4.7122e-05	28.427	276.156	275.547	208.109	172.984	356.331	163.171	171.498	178.614	477.749	325.747	176.769	182.045	183.774	190.078	433.925	186.547	-8191	255	
1470.191	1	1	0	0	0.11548	0.19123	0.15974	0.31493	0.13777	0.037234	0.22083	0.1022	0.18576	0.16588	0.21683	0.30343	0.29576	0.27405	0.12743	0.11443	-1.7708	-1.9562	-2.3854	-2.0354	-2.2687	-2.2417	-1.9604	-2.2771	-2.2083	-2.0208	-2.4083	-2.0646	-2.1708	-2.2792	-1.7917	-2.3917	413.417	368.830	262.222	370.569	484.867	278.142	378.046	210.689	276.549	250.614	465.012	223.136	346.840	373.793	234.443	459.318	0.00026069	0.00088493	0.00011844	242.74	1.9393e-06	1.0054e-05	512.8	68.675	5.0254e-06	1.3696e-06	158.58	73.447	29.389	9.9249	2.334e-06	25.28	0.0036552	0.0043788	0.001212	278.98	4.6584e-05	4.7908e-05	536.38	82.302	4.6441e-05	4.8101e-05	182.08	79.222	37.158	12.593	4.6501e-05	28.443	275.254	335.467	199.933	172.915	263.607	237.835	172.041	178.849	365.079	342.591	176.779	182.026	184.716	189.431	287.839	186.738	-8191	255	
1470.287	1	1	0	0	0.065613	0.23385	0.11826	0.15982	0.12945	0.058227	0.14062	0.046958	0.27581	0.29458	0.184	0.060409	0.33948	0.21775	0.11986	0.17552	-1.7521	-1.8104	-2.3708	-2.0917	-2.025	-2.4542	-1.8667	-2.3063	-2.2875	-2.0354	-2.3479	-2.2292	-1.9562	-2.2854	-1.9562	-2.3	366.231	438.634	230.571	508.159	444.607	371.959	368.467	329.408	445.273	511.179	505.371	482.905	454.251	336.262	488.717	493.307	0.0004161	0.00078834	0.00010346	241.86	2.6705e-06	4.839e-06	509.13	69.27	5.6888e-06	6.5962e-06	156.29	74.05	29.15	9.9285	6.4881e-06	25.345	0.0036166	0.0043732	0.0012048	278.9	4.6272e-05	4.7218e-05	533.61	82.132	4.5802e-05	4.6558e-05	180.93	79.064	37.027	12.515	4.5982e-05	28.374	248.284	209.948	186.793	172.960	187.384	220.542	171.906	178.605	168.061	246.914	176.339	181.737	183.824	189.007	262.013	186.627	-8191	255	
1470.384	1	1	0	0	0.026815	0.242	0.17356	0.083733	0.10545	0.2345	0.2104	0.10314	0.18195	0.41224	0.21272	0.13043	0.044384	0.12937	0.32391	0.052644	-1.8771	-1.8667	-2.3458	-2.1375	-2.0812	-2.4604	-2.1667	-2.35	-2.3646	-1.9667	-2.3917	-2.0792	-2.0812	-2.4062	-1.9917	-2.2271	416.547	424.575	242.865	285.066	422.502	439.250	398.338	488.356	191.455	339.571	351.924	488.016	186.735	430.145	438.681	250.928	0.00016613	0.0020726	0.00029571	241.92	3.7708e-06	8.1804e-06	513.23	68.914	5.7892e-06	7.7659e-06	156.46	72.682	28.76	9.7127	8.7147e-06	24.891	0.0035543	0.0043212	0.0011924	278.72	4.6703e-05	4.7787e-05	534.93	82.673	4.7741e-05	4.9592e-05	182.09	78.707	37.348	12.578	4.9283e-05	28.445	297.735	281.678	299.135	173.226	507.473	383.329	171.869	178.927	297.827	275.443	176.746	182.284	183.717	189.358	366.892	186.145	-8191	255	
1470.504	1	1	0	0	0.18815	0.19544	0.067703	0.20564	0.28621	0.11131	0.2462	0.13055	0.11221	0.16477	0.16155	0.20373	0.13782	0.24046	0.18713	0.14678	-1.7667	-1.8417	-2.1333	-2.1083	-1.9021	-2.3354	-2.1146	-2.1958	-2.3104	-1.8167	-2.4708	-2.375	-2.0062	-2.2708	-2.0271	-2.2396	394.269	383.819	437.436	381.952	244.822	324.017	422.239	370.414	418.484	471.239	361.010	479.270	314.815	462.638	455.027	355.766	0.00019813	0.0011747	0.00014112	243.53	1.3369e-05	1.1953e-05	513.64	69.179	6.623e-06	1.7038e-05	158.79	72.303	28.887	9.7092	9.9474e-07	24.907	0.003877	0.0046305	0.0012878	282.48	4.9387e-05	5.0415e-05	539.81	83.939	4.9242e-05	5.1193e-05	184.39	79.161	37.684	12.631	4.991e-05	28.451	247.535	240.722	278.107	172.785	337.260	229.861	171.760	178.212	219.133	265.129	177.053	182.273	183.224	189.843	403.419	186.658	-8191	255	
1470.600	1	1	0	0	0.24785	0.19326	0.16502	0.051965	0.24149	0.24541	0.073481	0.1503	0.095633	0.22059	0.20652	0.14138	0.16158	0.28107	0.23534	0.10968	-2.0104	-1.9083	-2.3771	-2.3646	-1.8792	-2.4104	-2.2833	-2.1562	-2.3271	-1.8354	-2.2188	-2.3667	-2.0792	-2.2083	-2.1292	-2.1625	425.210	209.659	466.051	388.628	271.883	398.484	361.223	289.025	358.003	232.939	437.710	413.743	458.298	204.295	304.492	452.521	0.00029114	0.00052101	0.00058114	242.32	3.608e-06	5.1683e-06	513.24	69.482	1.3231e-05	3.5842e-06	156.07	72.128	29.111	9.7122	5.1744e-06	24.746	0.0038612	0.0046895	0.0013031	282.76	4.9656e-05	5.1719e-05	538.1	83.62	4.8976e-05	5.1661e-05	183.33	79.011	37.564	12.594	5.0167e-05	28.246	250.163	432.222	294.705	172.979	476.856	188.492	171.670	179.219	206.544	364.956	177.378	182.038	183.509	190.039	186.938	186.722	-8191	255	
1470.697	1	1	0	0	0.30231	0.23865	0.15393	0.12707	0.23113	0.17992	0.34099	0.19998	0.14466	0.19936	0.089988	0.20369	0.094982	0.12197	0.098621	0.16638	-1.9958	-1.9979	-2.2708	-2.3958	-1.9604	-2.3354	-2.3229	-2.0312	-2.5542	-2.2479	-2.1854	-2.325	-1.9438	-2.2708	-2.2188	-2.1188	465.015	390.972	380.243	465.196	478.303	229.177	496.348	460.582	246.336	184.682	182.381	435.977	338.595	324.106	408.241	396.018	0.00019443	0.001163	0.00043305	239.93	1.3754e-05	4.3011e-06	511.22	68.878	6.4888e-06	1.1022e-05	156.54	72	28.898	9.7141	9.7892e-06	24.766	0.0038196	0.0046822	0.0013065	281.2	4.9205e-05	5.1178e-05	538.53	83.578	4.9754e-05	5.1732e-05	182.85	78.494	37.528	12.64	5.1212e-05	28.248	196.334	305.634	192.455	173.339	458.521	227.650	171.507	179.336	167.207	470.597	177.091	182.053	183.918	188.864	285.609	186.512	-8191	255	
1470.793	1	1	0	0	0.2697	0.28722	0.22673	0.17793	0.48629	0.25556	0.21341	0.099424	0.1696	0.32235	0.17586	0.29524	0.25945	0.092561	0.11374	0.054382	-1.8146	-2.2667	-2.0896	-2.3417	-2.025	-2.4021	-2.1833	-1.9875	-2.4188	-1.9375	-2.1146	-2.3979	-1.7958	-2.2292	-2.4792	-2.0083	335.896	275.058	199.811	164.133	347.448	162.737	459.619	502.375	194.435	201.875	355.774	417.643	466.476	477.286	280.410	222.814	0.00024883	0.00052646	0.00029449	240.96	8.6924e-06	1.768e-05	507.41	68.102	1.3258e-05	5.9165e-06	155.44	71.223	28.608	9.5232	7.0881e-06	24.588	0.0039551	0.0048456	0.0013434	282.63	5.1718e-05	5.3089e-05	538.3	83.798	5.0989e-05	5.3438e-05	183.64	78.223	37.678	12.628	5.2247e-05	28.316	272.478	229.172	187.227	172.205	380.724	381.032	171.841	178.659	285.704	306.289	176.753	182.218	183.904	189.615	302.009	186.185	-8191	255	
1470.889	1	1	0	0	0.15599	0.047018	0.31284	0.16474	0.040466	0.11964	0.054441	0.11649	0.2359	0.15792	0.2043	0.094909	0.31462	0.0095545	0.043596	0.19067	-1.8813	-2.0542	-2.1437	-2.2313	-2.0021	-2.3438	-2.3854	-1.9208	-2.5604	-2.2604	-2.0958	-2.3625	-1.8146	-2.2979	-2.3979	-1.9958	482.795	194.406	244.295	359.391	281.920	196.313	419.707	196.379	368.651	508.227	341.957	412.606	365.800	278.585	209.684	500.153	0.0002157	0.00081563	0.00025797	238.23	6.9989e-06	8.3788e-06	508.53	68.27	2.1719e-06	1.0757e-05	154.43	72.407	28.747	9.6859	1.0079e-05	24.346	0.0040091	0.0048727	0.0013759	282.71	5.2152e-05	5.3875e-05	540.47	84.324	5.1664e-05	5.4166e-05	183.65	78.665	37.813	12.689	5.2488e-05	28.233	255.085	246.878	213.608	172.124	203.601	296.891	171.938	178.689	164.148	300.633	176.212	181.958	184.286	190.068	421.889	186.609	-8191	255	
1470.983	1	1	0	0	0.22843	0.15673	0.084209	0.20518	0.19485	0.21348	0.036653	0.10293	0.19351	0.22972	0.14157	0.061784	0.29027	0.21709	0.04991	0.13116	-1.9479	-2.2625	-1.9646	-2.525	-1.9479	-2.3229	-2.4396	-1.9021	-2.5792	-2.2188	-2.1146	-2.4208	-2.075	-2.1813	-2.2771	-1.7896	258.163	298.475	508.792	511.174	483.155	326.977	226.053	376.336	455.099	413.812	285.995	232.984	362.819	435.180	416.083	428.668	0.00022313	0.00074786	0.00011071	238.91	1.1419e-05	6.8882e-06	509.58	68.388	2.9239e-06	3.1774e-06	155.46	71.415	28.379	9.6509	3.8733e-06	24.563	0.0039904	0.0049317	0.0013607	283.06	5.1863e-05	5.357e-05	538.33	83.516	5.1719e-05	5.3194e-05	183.2	78.278	37.822	12.742	5.2217e-05	28.198	265.176	185.395	373.678	172.977	334.903	193.106	171.599	178.570	192.084	246.505	177.396	181.853	183.513	189.160	169.871	186.479	-8191	255	
1471.104	1	1	0	0	0.21995	0.36128	0.20003	0.05753	0.30371	0.14709	0.21394	0.25709	0.056614	0.057041	0.09242	0.13335	0.081816	0.32375	0.27184	0.077718	-1.7771	-2.0375	-2.0167	-2.2417	-2.0208	-2.175	-2.3229	-1.7313	-2.3167	-2.3333	-1.95	-2.5146	-1.975	-2.0896	-2.4333	-2.075	212.873	192.627	225.494	272.376	174.892	487.209	320.871	174.281	456.068	325.062	480.482	362.799	469.538	235.774	236.415	389.632	0.00032999	0.00070007	8.2755e-05	240.73	7.7649e-06	3.1205e-06	506.2	68.577	6.7209e-06	8.926e-06	154.45	70.626	28.244	9.5921	1.3249e-06	24.347	0.0040415	0.0048634	0.00137	282.82	5.2838e-05	5.4855e-05	538.87	84.259	5.3026e-05	5.498e-05	184.17	78.222	37.978	12.813	5.4566e-05	28.367	256.087	437.694	478.694	173.250	336.241	394.044	171.382	178.453	326.918	224.237	176.571	181.895	184.417	189.794	374.660	186.642	-8191	255	
1471.200	1	1	0	0	0.13346	0.28523	0.21894	0.23761	0.11292	0.21797	0.25491	0.10863	0.094329	0.27237	0.12271	0.40165	0.1361	0.091778	0.18883	0.33975	-1.925	-2.2708	-1.8062	-2.3292	-1.9958	-2.0771	-2.5354	-1.9979	-2.4271	-2.3604	-1.9104	-2.325	-2.2729	-2.0625	-2.3625	-2.0542	465.954	512.743	266.580	440.031	446.533	266.659	405.508	392.288	508.124	265.311	518.209	460.828	511.924	246.118	246.681	215.299	0.00030944	0.00072077	0.0002833	236.7	6.4241e-06	8.5202e-06	505.59	68.561	1.1481e-05	7.8447e-06	153.25	70.507	28.291	9.487	5.9486e-06	24.375	0.0042462	0.0051617	0.0014425	284.7	5.5216e-05	5.7506e-05	538.97	85.017	5.4855e-05	5.6354e-05	184.31	78.308	38.156	12.819	5.5307e-05	28.422	260.729	326.528	395.658	172.858	372.643	259.708	171.942	179.148	320.702	188.668	176.554	182.785	183.823	189.734	496.020	186.985	-8191	255	
1471.296	1	1	0	0	0.29354	0.23809	0.09761	0.30871	0.065466	0.048596	0.097793	0.28226	0.16848	0.1571	0.24444	0.15246	0.11119	0.2365	0.26326	0.078717	-1.6604	-2.375	-2.0292	-2.3438	-2.1146	-1.9583	-2.6271	-2.0563	-2.1979	-2.4104	-2.1167	-2.2229	-2.1937	-2.1208	-2.4979	-2.3063	193.470	302.839	349.860	396.877	353.902	283.832	439.445	233.063	388.581	265.113	433.759	455.395	286.582	517.821	391.323	185.241	0.00030692	0.00096702	0.0003238	237.74	8.1581e-06	4.2843e-06	506.33	67.685	1.6703e-06	1.1282e-05	154.7	70.732	28.242	9.6522	2.4381e-06	24.512	0.0043478	0.005215	0.0014622	284.68	5.5718e-05	5.7863e-05	541.34	85.092	5.6003e-05	5.6902e-05	184.72	78.529	38.073	12.89	5.5171e-05	28.529	250.995	288.620	507.972	173.525	252.654	332.589	171.624	178.767	505.855	497.301	176.748	182.389	183.368	189.571	199.583	187.146	-8191	255	
1471.368	1	1	0	0	0.30556	0.11958	0.25806	0.08418	0.16394	0.18009	0.23268	0.098641	0.15624	0.074943	0.088903	0.1178	0.28774	0.14062	0.042275	0.087177	-1.6437	-2.3792	-1.9688	-2.3708	-2.2542	-2.0396	-2.5312	-2.1437	-2.0312	-2.475	-2.2333	-2.4375	-2.1771	-1.925	-2.425	-2.1604	341.511	221.336	249.617	504.291	303.387	507.380	265.052	472.087	339.214	298.446	484.336	171.384	295.246	175.317	265.577	423.016	0.0002415	0.0011723	0.00045278	235.76	3.3947e-06	4.6203e-06	502.69	67.417	3.6486e-06	7.5354e-06	153.56	70.374	27.914	9.6346	5.3262e-06	24.435	0.0042961	0.0051166	0.0014494	284.57	5.5031e-05	5.706e-05	538.78	84.653	5.4618e-05	5.5333e-05	183.26	77.738	37.632	12.775	5.3438e-05	28.301	249.877	378.319	226.895	172.886	161.176	355.804	171.761	178.623	330.489	364.690	176.660	182.367	183.986	189.129	337.181	186.526	-8191	255	
1471.488	1	1	0	0	0.26501	0.20797	0.21342	0.15223	0.077848	0.24591	0.12814	0.20767	0.132	0.16078	0.12653	0.05662	0.16093	0.1345	0.16738	0.13174	-1.6333	-2.4313	-2.2042	-2.2896	-2.3833	-2.0125	-2.4854	-2.1333	-2.0542	-2.5854	-2.225	-2.2854	-2.1333	-1.9792	-2.3146	-2.2625	208.171	326.809	424.935	428.180	331.251	286.570	350.602	339.889	383.006	346.015	212.693	268.733	336.806	464.526	450.913	242.988	0.00024031	0.001362	0.00022094	234.59	2.4328e-06	1.547e-06	503.73	68.111	1.3582e-05	7.951e-06	154.21	70.997	27.795	9.7318	9.0813e-06	24.605	0.0041385	0.0049373	0.0013966	280.07	5.2569e-05	5.4662e-05	534	83.522	5.2098e-05	5.3307e-05	181.57	77.721	37.151	12.713	5.155e-05	28.139	243.245	340.089	429.732	173.233	353.061	231.840	171.694	178.944	287.515	500.160	176.341	182.456	183.949	188.940	324.072	186.100	-8191	255	
1471.585	1	1	0	0	0.091465	0.1079	0.17285	0.26651	0.29013	0.19495	0.026444	0.05732	0.13063	0.18773	0.16191	0.22891	0.17457	0.18931	0.11855	0.17407	-1.5854	-2.3958	-2.1583	-2.5042	-2.2521	-2.0917	-2.2708	-2.2812	-2.1	-2.4979	-2.1937	-2.25	-2.2646	-1.7854	-2.1896	-2.175	165.854	278.409	457.539	165.738	322.058	385.961	422.225	286.396	413.409	357.915	333.486	221.984	239.383	429.836	252.817	338.565	0.00029986	0.00069595	0.00014892	237.04	1.5414e-05	6.5608e-06	502.82	68.181	7.2606e-06	1.0657e-05	152.51	70.962	28.198	9.7354	6.6697e-06	24.745	0.0040267	0.0047716	0.0013515	278.87	5.0546e-05	5.3299e-05	532.25	83.517	5.0789e-05	5.2346e-05	181.28	77.492	37.078	12.644	5.1006e-05	28.247	264.872	208.678	496.149	173.161	306.622	286.039	171.855	179.113	219.874	239.559	177.157	182.573	183.496	190.078	442.790	186.756	-8191	255	
1471.681	1	1	0	0	0.26126	0.11509	0.046294	0.1477	0.093107	0.103	0.25063	0.2866	0.084156	0.18083	0.10626	0.20163	0.21517	0.12567	0.43027	0.22117	-1.4937	-2.4437	-2.2062	-2.2042	-2.5979	-1.9833	-2.2875	-2.2771	-2.0146	-2.3917	-2.0979	-2.1354	-2.4375	-1.9188	-2.1813	-2.2167	205.476	345.364	232.566	199.640	272.839	170.519	443.788	182.106	166.477	247.648	245.323	301.504	407.156	211.709	221.026	229.965	0.00029176	0.00099731	0.00029551	238.88	1.0222e-05	5.385e-06	503.29	69.083	4.9855e-06	7.856e-06	153.29	70.593	28.247	9.5433	1.9396e-06	24.358	0.0039143	0.0047348	0.0013316	279.29	5.0023e-05	5.2281e-05	533.13	83.197	5.012e-05	5.1643e-05	180.63	77.05	36.85	12.579	5.0659e-05	27.868	258.080	371.934	282.468	172.311	342.721	230.867	171.968	178.622	475.917	425.578	177.203	182.297	183.694	189.846	233.029	186.355	-8191	255	
1471.777	1	1	0	0	0.15746	0.056441	0.29299	0.086107	0.1182	0.17911	0.23352	0.31646	0.21339	0.20078	0.14208	0.20355	0.23137	0.32556	0.22135	0.32251	-1.5438	-2.2896	-2.2021	-2.1479	-2.5229	-1.9562	-2.2562	-2.4167	-1.9667	-2.4375	-2.1854	-1.9917	-2.4875	-2.1188	-2.1562	-2.3042	291.254	344.753	327.926	406.691	496.615	363.411	480.804	444.520	322.268	314.573	380.231	502.813	520.296	400.236	388.831	213.094	0.00029655	0.0015037	9.8305e-05	238.09	2.8719e-06	5.742e-06	502.27	67.626	6.868e-06	7.5282e-06	153.11	70.2	28.151	9.65	4.7677e-06	24.144	0.0038771	0.004683	0.0013151	278.69	4.9263e-05	5.1827e-05	531.39	82.648	4.8965e-05	5.1126e-05	179.75	76.916	36.904	12.519	5.0078e-05	27.69	266.083	162.156	322.317	173.539	254.913	323.837	172.164	178.883	454.073	384.807	176.327	182.326	183.455	190.102	312.700	186.423	-8191	255	
1471.896	1	1	0	0	0.24359	0.1797	0.043297	0.17589	0.038549	0.29491	0.27659	0.033666	0.21943	0.087029	0.28345	0.25669	0.11623	0.081621	0.12083	0.10449	-1.3604	-2.1312	-2.0625	-1.8833	-2.5	-1.9521	-2.2	-2.2792	-1.8729	-2.4146	-2.3812	-1.9292	-2.2771	-2.0125	-2.0167	-2.4375	165.801	411.005	418.463	475.659	350.927	408.929	412.000	485.480	466.502	434.532	355.197	195.051	261.774	233.549	283.203	400.039	0.00035907	0.0010722	0.00017151	237.12	1.394e-05	3.445e-06	500.68	67.949	1.0418e-05	3.0857e-06	151.88	70.956	28.193	9.6178	6.5672e-06	24.656	0.0038725	0.0046733	0.0013025	277.59	4.9426e-05	5.1961e-05	531.67	82.848	4.9989e-05	5.1821e-05	179.42	77.043	36.949	12.548	5.0437e-05	27.919	225.145	163.778	251.380	172.725	293.678	392.560	171.994	179.076	174.225	400.658	176.700	182.206	184.256	190.369	277.002	186.391	-8191	255	
1471.969	1	1	0	0	0.22127	0.14549	0.2092	0.25997	0.045417	0.17403	0.39868	0.22202	0.1365	0.22992	0.21542	0.20853	0.081106	0.29617	0.04336	0.1489	-1.5521	-2.2875	-2.3208	-1.9	-2.4104	-2.1604	-2.1729	-2.2896	-2.0687	-2.2375	-2.2958	-2.0583	-2.4833	-2.3271	-1.9896	-2.3917	324.667	346.635	212.537	487.260	498.512	477.145	395.024	173.875	224.714	259.734	371.549	367.084	303.723	220.082	497.457	387.378	0.00010642	0.0010107	0.0002267	236.53	9.3764e-06	5.6536e-06	501.14	68.719	5.7527e-06	7.8327e-06	153.92	70.161	28.238	9.7326	9.3238e-06	24.482	0.0039616	0.0047664	0.0013325	278.73	5.0933e-05	5.3316e-05	531.6	83.463	5.1272e-05	5.2324e-05	180.98	77.132	37.124	12.7	5.0995e-05	27.977	256.825	255.490	482.779	173.201	193.566	288.294	171.793	178.636	418.000	476.933	176.723	181.897	183.677	189.530	363.387	186.210	-8191	255	
1472.065	1	1	0	0	0.22764	0.22219	0.14466	0.10488	0.10882	0.064138	0.039766	0.13392	0.34786	0.15223	0.1617	0.095319	0.17655	0.14859	0.091747	0.14173	-1.625	-2.3208	-2.3917	-1.9917	-2.3563	-2.2875	-2.0167	-2.5563	-2.1021	-2.1792	-2.3688	-2.0229	-2.2188	-2.4292	-2.0396	-2.4354	303.828	401.424	372.493	400.206	267.987	503.097	384.879	413.449	392.786	487.253	176.777	373.592	346.662	317.547	348.119	199.168	0.00022806	0.0006503	0.00012349	237.11	4.8689e-06	5.3975e-06	503.28	67.903	2.9777e-06	3.9751e-06	152.19	70.031	28.295	9.7448	1.3028e-05	24.486	0.0039988	0.0048243	0.0013255	279.5	5.0735e-05	5.2942e-05	534.29	83.298	5.1566e-05	5.2469e-05	180.54	77.219	37.346	12.63	5.0599e-05	27.966	268.387	371.776	206.194	173.561	321.863	272.962	171.642	178.588	338.224	478.739	177.125	182.269	184.136	190.081	241.661	187.155	-8191	255	
1472.184	1	1	0	0	0.32367	0.082386	0.10165	0.098505	0.16514	0.16177	0.16466	0.21729	0.20063	0.1178	0.030369	0.17673	0.20133	0.079466	0.18852	0.29124	-1.6208	-2.0812	-2.4917	-2.1354	-2.2687	-2.1854	-1.9813	-2.3438	-2.0771	-2.0062	-2.4333	-2.0354	-2.25	-2.3167	-1.8792	-2.3604	444.046	480.538	210.810	231.703	182.952	457.260	447.613	265.938	411.946	265.578	316.967	510.845	433.992	435.758	284.711	450.006	0.00030539	0.0015628	0.00011898	237.81	4.7832e-06	9.3921e-06	504.21	68.138	2.0858e-06	1.5086e-05	153.23	70.323	28.687	9.7412	3.9916e-06	24.578	0.003909	0.0046934	0.001297	278.19	4.9689e-05	5.1055e-05	534.34	82.916	4.9681e-05	5.1385e-05	179.92	77.348	37.2	12.661	4.9938e-05	28.053	280.964	202.866	262.930	172.767	271.963	297.044	171.927	178.664	308.567	435.906	176.091	182.214	183.769	190.400	416.310	186.856	-8191	255	
1472.280	1	1	0	0	0.083283	0.43597	0.18534	0.18454	0.17485	0.29494	0.1719	0.17868	0.127	0.26934	0.11577	0.11726	0.042536	0.23901	0.078133	0.20463	-1.6667	-2.125	-2.3104	-1.8854	-2.2104	-2.1479	-2.1917	-2.3667	-2.0833	-2.1958	-2.45	-1.9229	-2.1958	-2.4437	-1.9042	-2.3979	220.669	344.695	237.899	168.878	296.817	257.111	421.988	220.797	506.241	294.249	175.652	481.699	373.379	204.752	433.044	391.040	0.00019005	0.0014242	0.00017589	237.04	6.5379e-06	4.3992e-06	508.02	68.842	1.8391e-06	8.6924e-06	155.16	71.156	29.077	10.064	3.7944e-06	24.985	0.0038689	0.0046625	0.0012823	277.51	4.933e-05	5.0551e-05	532.78	83.06	4.8663e-05	5.0441e-05	180.23	77.881	37.561	12.757	4.9329e-05	28.235	281.303	368.875	292.659	173.145	305.916	247.640	171.899	178.921	277.373	230.989	176.463	182.239	183.276	189.788	419.432	186.575	-8191	255	
1472.377	1	1	0	0	0.34417	0.25934	0.15482	0.25398	0.19238	0.23206	0.13075	0.31006	0.069216	0.24247	0.25239	0.14362	0.15999	0.052504	0.062669	0.13885	-1.7729	-2.0458	-2.3021	-2.1292	-2.0375	-2.3958	-1.9521	-2.0812	-2.2625	-2.0729	-2.3271	-2.0271	-2.2458	-2.3083	-1.85	-2.3229	483.481	258.483	178.321	512.919	509.552	328.447	505.340	436.573	342.327	469.459	174.955	173.254	188.183	490.912	508.232	172.420	0.00021399	0.00099646	0.00024279	241.77	3.7277e-06	4.7543e-06	501.8	69.053	1.0515e-05	8.0832e-06	155.75	72.112	29.037	9.9684	6.1755e-06	25.126	0.0037933	0.0046018	0.0012713	279.21	4.874e-05	5.0451e-05	533	82.861	4.7947e-05	4.9346e-05	180.4	78.228	37.231	12.641	4.6591e-05	28.253	219.821	210.951	237.902	173.348	444.228	337.159	171.990	178.820	316.305	363.582	176.830	182.115	184.656	190.058	395.256	186.699	-8191	255	
1472.497	1	1	0	0	0.20921	0.094866	0.12999	0.20837	0.11547	0.063953	0.10853	0.10581	0.15116	0.16394	0.33209	0.2826	0.1153	0.16927	0.16674	0.14736	-1.8833	-1.9521	-2.3396	-2.2188	-2.1333	-2.4083	-2.1813	-2.2729	-2.2979	-1.9667	-2.5771	-2.1854	-2.2062	-2.4479	-2.2062	-2.4667	501.060	276.169	401.920	477.522	470.857	182.455	476.318	453.754	400.601	179.316	427.012	504.174	401.523	433.385	313.944	480.223	0.00026568	0.00073382	1.2921e-05	239.44	8.1819e-06	5.6703e-06	512.78	68.637	1.4923e-06	7.6515e-06	158.24	72.743	29.215	9.9337	2.3517e-06	24.943	0.0035978	0.0042966	0.0011831	276.7	4.5331e-05	4.5888e-05	532.51	81.933	4.4665e-05	4.5677e-05	179.45	78.131	36.752	12.46	4.5446e-05	27.896	276.794	196.879	260.259	172.677	409.625	197.243	172.163	178.811	355.479	351.331	176.372	181.925	184.102	189.774	264.172	186.910	-8191	255	
1472.593	1	1	0	0	0.03154	0.10815	0.14134	0.19103	0.23744	0.11174	0.28964	0.24094	0.23201	0.069278	0.25683	0.11312	0.1741	0.14359	0.12339	0.12785	-1.8438	-1.9021	-2.3625	-2.3396	-2.3063	-2.5958	-1.975	-2.0875	-2.3875	-2.0083	-2.5854	-2.3729	-1.9625	-2.6333	-2.0146	-2.3646	161.654	458.264	168.126	369.193	423.689	174.757	427.024	299.857	278.982	253.166	172.124	169.820	412.868	466.365	455.226	395.293	0.00014543	0.0020434	0.00012883	238.45	2.6847e-06	1.7147e-07	507.18	68.863	8.5783e-06	3.3722e-06	154.59	72.26	29.444	9.891	7.1006e-06	24.794	0.003492	0.0042748	0.0011966	276.15	4.5929e-05	4.71e-05	530.53	82.174	4.5449e-05	4.6976e-05	178.74	77.791	37.018	12.5	4.5647e-05	27.951	234.217	208.263	245.608	172.201	380.885	489.357	171.605	179.219	203.199	440.032	176.813	182.488	184.018	190.204	209.904	186.944	-8191	255	
1472.665	1	1	0	0	0.27481	0.26188	0.22824	0.068155	0.18876	0.28765	0.086695	0.13656	0.21286	0.12046	0.024837	0.21352	0.27074	0.22396	0.033944	0.20869	-1.9438	-1.8458	-2.3875	-2.2729	-2.0292	-2.4604	-2.3563	-2.1479	-2.5	-1.8396	-2.2417	-2.2708	-2.0542	-2.2896	-2.0771	-2.2604	172.066	301.257	413.666	350.528	348.399	451.265	186.457	191.544	341.658	516.588	345.024	398.198	356.803	401.698	293.619	192.907	0.00013385	0.001375	0.00033047	241.05	1.5397e-05	7.8549e-06	512.04	69.112	9.2732e-06	7.0657e-06	156.21	73.258	29.761	9.8717	1.0781e-05	25.299	0.0035517	0.0042669	0.0011937	276.96	4.5278e-05	4.6268e-05	533.14	82.213	4.4918e-05	4.6651e-05	180.59	78.162	37.177	12.478	4.4695e-05	28.11	283.930	376.549	170.997	173.297	268.540	347.756	172.207	179.280	354.152	241.769	176.911	182.350	183.981	189.775	248.894	186.507	-8191	255	
1472.786	1	1	0	0	0.18499	0.12549	0.095856	0.08366	0.33856	0.21446	0.057414	0.23651	0.16891	0.12703	0.077859	0.24106	0.12318	0.096312	0.11646	0.22408	-2.1229	-1.9333	-2.1958	-2.3937	-2	-2.5396	-2.3854	-2.3042	-2.425	-2.3125	-2.4	-2.3854	-2.0604	-2.4292	-2.1813	-2.1167	479.152	400.399	294.942	471.923	282.390	295.009	315.276	413.204	284.552	325.891	256.687	480.228	283.970	444.749	323.291	191.911	0.00026808	0.0012552	8.1064e-05	247.78	1.1476e-06	6.2858e-06	513.75	69.96	5.0496e-06	6.1043e-06	160.72	74.407	30.159	10.25	4.997e-06	25.394	0.003422	0.0041219	0.0011423	278.51	4.3058e-05	4.4324e-05	534.65	82.216	4.2783e-05	4.3967e-05	181.01	79.021	37.106	12.56	4.3387e-05	28.102	256.747	356.469	428.021	173.232	519.075	218.375	171.449	179.010	271.374	501.432	176.990	182.136	184.122	189.510	302.373	186.885	-8191	255	
1472.880	1	1	0	0	0.10329	0.11166	0.21239	0.067972	0.32777	0.049735	0.41765	0.16332	0.19193	0.18695	0.23314	0.15837	0.24309	0.0677	0.11607	0.11104	-1.9312	-2.0917	-2.0167	-2.2938	-2.0083	-2.4917	-2.1646	-2.1562	-2.4583	-2.2146	-2.2854	-2.525	-1.75	-2.3833	-2.2833	-1.9604	306.439	403.065	328.260	373.522	213.500	431.202	454.673	495.926	324.384	370.982	318.522	483.908	221.696	486.631	467.364	494.541	0.00030487	0.00038644	6.9083e-05	242.9	4.9364e-06	7.4737e-06	515.9	70.198	4.1405e-06	1.2585e-05	157.48	72.978	29.951	9.9373	1.2335e-05	24.904	0.0033177	0.0040781	0.0011492	276.92	4.3407e-05	4.4583e-05	534.81	82.097	4.3267e-05	4.5187e-05	180.08	78.397	37.281	12.523	4.4322e-05	27.852	224.459	242.086	234.381	173.164	382.670	354.354	171.670	178.981	371.659	445.364	176.488	182.047	182.875	190.120	311.389	186.601	-8191	255	
1472.976	1	1	0	0	0.24244	0.11236	0.22993	0.18604	0.28578	0.13253	0.20922	0.21081	0.076325	0.18545	0.12771	0.12813	0.11132	0.16589	0.11886	0.45802	-2.0521	-1.9625	-2.2229	-2.5042	-1.8646	-2.2521	-2.3979	-1.8167	-2.4104	-2.2896	-2.2083	-2.4979	-2.0687	-2.2396	-2.4	-1.975	286.724	180.858	226.057	448.077	275.859	505.380	423.211	407.382	426.834	509.194	238.993	355.836	445.811	242.526	314.256	436.965	0.00026014	0.00036421	0.0002296	242.25	4.4478e-06	7.4949e-06	508.66	69.211	3.9881e-06	5.4498e-06	157.66	72.562	28.875	9.8139	7.9874e-06	24.569	0.0034775	0.0042238	0.0011927	277.18	4.6131e-05	4.8193e-05	534.01	83.062	4.7015e-05	4.9047e-05	181.98	78.394	37.592	12.562	4.845e-05	27.932	258.118	191.612	197.425	172.821	272.044	335.947	171.659	180.065	353.346	350.083	176.874	182.145	183.778	189.949	484.959	186.834	-8191	255	
1473.072	1	1	0	0	0.10293	0.203	0.36994	0.2683	0.092221	0.11084	0.068008	0.18225	0.1446	0.10795	0.13677	0.14576	0.11128	0.19287	0.18705	0.25801	-1.7313	-2.0979	-2.0021	-2.5938	-2.0417	-2.3104	-2.3667	-1.9083	-2.2562	-2.3438	-2.0354	-2.4458	-2.0563	-2.2438	-2.3771	-2.1354	268.386	212.072	332.876	193.304	162.025	491.989	369.461	427.908	252.973	511.211	437.206	167.112	439.247	188.203	292.019	320.088	0.00014473	0.000677	0.00026906	242.2	1.7973e-05	2.0181e-05	507.82	69.668	1.2356e-05	1.3003e-05	157.77	72.359	29.098	9.8004	3.5971e-06	24.86	0.003832	0.0046247	0.0013005	282.89	4.9887e-05	5.2859e-05	537.28	84.46	5.0884e-05	5.3102e-05	184.5	79.25	38.359	12.853	5.1829e-05	28.379	256.043	249.172	437.350	173.244	365.636	263.190	171.868	178.769	430.071	340.856	177.474	181.983	184.027	189.998	318.116	186.850	-8191	255	
1473.193	1	1	0	0	0.35714	0.25238	0.22774	0.17381	0.1161	0.027597	0.095033	0.1915	0.10317	0.18417	0.14169	0.059935	0.1135	0.20347	0.083857	0.16164	-1.8396	-2.2604	-2.2021	-2.3854	-2.0979	-2.3063	-2.3333	-2.1312	-2.2125	-2.1646	-1.9333	-2.45	-2.1479	-2.1917	-2.4562	-2.1437	292.600	351.600	458.847	197.120	305.328	442.982	401.368	432.956	187.725	268.578	260.458	407.366	451.975	191.869	245.106	232.264	0.00028659	0.001672	0.00014281	242.51	4.7762e-06	8.2697e-06	506.82	68.924	4.8274e-06	1.1079e-06	155.46	71.876	29.06	9.8281	9.9599e-06	24.663	0.0040905	0.0049463	0.0013797	287.69	5.3569e-05	5.5474e-05	541.72	85.283	5.3529e-05	5.5022e-05	185.81	79.2	38.647	12.954	5.3331e-05	28.404	250.493	328.687	358.949	172.858	340.733	427.723	171.734	179.092	317.400	374.127	176.755	182.387	183.742	190.172	180.257	186.761	-8191	255	
1473.265	1	1	0	0	0.090301	0.12427	0.19299	0.11342	0.16053	0.15294	0.093949	0.27312	0.13913	0.11363	0.0553	0.22522	0.19258	0.15647	0.15324	0.19519	-1.6604	-2.3417	-2.1958	-2.6021	-2.1437	-2.2667	-2.55	-2.0583	-2.3333	-2.4313	-2.0021	-2.3708	-2.1729	-2.0687	-2.3458	-1.9646	178.836	423.834	304.072	517.809	500.584	214.430	378.304	160.645	497.864	390.201	492.511	444.146	303.592	303.634	167.859	389.528	0.00019072	0.0013581	0.00020572	239.91	6.3958e-06	1.7304e-05	500.5	69.125	1.099e-05	5.6278e-06	154.6	70.996	28.541	9.6675	4.2904e-06	24.56	0.0042075	0.0050679	0.0014262	286.26	5.5156e-05	5.7932e-05	539.85	86.07	5.6612e-05	5.7785e-05	185.57	79.301	38.957	13.052	5.7142e-05	28.532	251.741	223.247	247.718	172.796	219.668	356.172	171.531	178.067	447.964	517.617	176.767	182.242	184.342	190.068	340.319	186.326	-8191	255	
1473.361	1	1	0	0	0.066837	0.18016	0.24853	0.29408	0.30111	0.31216	0.19241	0.2262	0.18533	0.20366	0.094552	0.11246	0.22595	0.071073	0.11669	0.15124	-1.8542	-2.3187	-1.9667	-2.3958	-1.9688	-2.0833	-2.4167	-2.1167	-2.1833	-2.3	-1.9146	-2.3812	-2.125	-2.0292	-2.3563	-1.9792	172.101	299.359	376.521	454.801	278.585	362.328	409.151	266.187	298.849	195.754	460.596	280.753	161.497	181.089	171.511	497.900	0.00019686	0.0010445	0.00015816	238.57	1.4517e-05	1.9186e-05	502.43	68.235	9.2213e-06	1.0697e-05	153.1	70.792	28.622	9.6416	5.732e-06	24.293	0.0044491	0.00531	0.0014687	287.79	5.658e-05	5.9025e-05	540.23	85.848	5.7014e-05	5.8192e-05	185.63	78.913	38.947	13.051	5.6797e-05	28.616	254.156	207.475	273.674	172.635	274.907	314.214	171.455	179.220	378.732	357.722	176.656	181.716	183.706	189.578	294.819	186.169	-8191	255	
1473.457	1	1	0	0	0.12707	0.054834	0.18545	0.13543	0.11371	0.23426	0.11732	0.13588	0.1925	0.13926	0.012766	0.075816	0.14974	0.14815	0.18946	0.2147	-1.8479	-2.2042	-1.9021	-2.4542	-2.2	-2.0438	-2.3563	-2.1604	-2.2042	-2.2438	-1.9167	-2.3167	-2.3438	-1.9646	-2.2875	-2.2104	331.291	502.541	185.616	377.988	484.478	449.886	325.533	324.251	451.057	197.115	381.840	492.219	393.245	187.119	342.776	329.344	0.00029411	0.0012138	0.00023825	239.08	1.2505e-05	7.8384e-06	502.23	68.535	1.1472e-05	4.4932e-06	153.22	71.6	28.51	9.8581	1.2326e-05	24.754	0.0044766	0.0053513	0.0014798	287.29	5.5983e-05	5.7701e-05	536.7	85.652	5.5032e-05	5.5827e-05	184.16	78.807	38.176	12.979	5.3436e-05	28.469	239.595	477.926	345.480	172.897	423.019	394.296	171.945	179.033	203.624	169.813	176.601	182.075	184.257	190.513	350.161	186.596	-8191	255	
1473.578	1	1	0	0	0.13488	0.15552	0.076404	0.098141	0.12893	0.22073	0.21489	0.13603	0.3198	0.14174	0.11632	0.073284	0.21674	0.20694	0.16725	0.075392	-1.7021	-2.2812	-2.1521	-2.0229	-2.2812	-2.1583	-2.3563	-2.2313	-2.0792	-2.4583	-2.0875	-2.3479	-2.3021	-1.9396	-2.4083	-2.0458	195.260	196.599	214.750	420.621	466.256	390.877	473.717	503.852	288.095	295.091	342.867	477.770	186.296	226.929	350.393	227.685	0.0002696	0.00054942	0.00014997	239.8	4.1223e-06	8.9672e-06	502.5	69.561	6.1791e-06	1.0972e-05	154.73	70.918	28.513	9.7401	1.4152e-05	24.22	0.0041949	0.005031	0.0014071	284.24	5.3997e-05	5.5754e-05	535.91	85.432	5.4679e-05	5.6047e-05	184.65	78.56	38.359	12.991	5.4907e-05	28.407	275.099	317.456	287.388	173.076	418.412	514.632	172.047	178.864	324.630	515.638	176.974	182.448	183.659	190.061	347.540	187.138	-8191	255	
1473.674	1	1	0	0	0.19568	0.16739	0.12643	0.082287	0.052443	0.17097	0.16115	0.1085	0.30539	0.1477	0.12755	0.090959	0.26937	0.24375	0.14177	0.23827	-1.6104	-2.5833	-1.8625	-2.3021	-2.3417	-2.2	-2.2521	-2.0708	-2.0646	-2.4	-2.0083	-2.0896	-2.2333	-1.9958	-2.2708	-2.3521	229.837	284.507	361.278	391.075	354.533	304.627	511.571	210.306	269.344	364.932	439.544	453.744	493.161	192.284	262.656	520.207	0.00024133	0.00076691	0.00013128	237.66	5.0435e-06	1.0297e-05	498.93	68.456	9.594e-06	1.1452e-05	154.59	70.938	28.771	9.6565	1.7861e-06	24.578	0.0042397	0.0050954	0.0014238	284.8	5.4159e-05	5.5398e-05	534.26	85.184	5.3996e-05	5.5543e-05	183.98	78.615	38.533	12.947	5.4696e-05	28.417	236.948	255.091	483.853	172.881	419.172	379.131	171.638	178.773	393.613	438.353	176.586	182.499	183.495	190.030	329.072	187.051	-8191	255	
1473.770	1	1	0	0	0.09909	0.12318	0.12263	0.089753	0.22637	0.30169	0.17756	0.16021	0.055285	0.080652	0.30469	0.20329	0.45034	0.18451	0.071027	0.34881	-1.5125	-2.2687	-1.9312	-2.1021	-2.3917	-2.0625	-2.3396	-2.1688	-2.1042	-2.3917	-1.9958	-2.1167	-2.5417	-1.9813	-2.2042	-2.3187	503.687	407.124	401.740	398.915	477.754	422.614	462.227	382.511	241.931	369.380	359.800	486.199	198.844	470.682	323.903	502.418	0.00022347	0.001362	0.00017373	239.46	8.1856e-06	4.341e-06	501.9	68.767	5.9761e-06	1.577e-05	154.63	71.349	28.976	9.8242	2.1962e-06	24.521	0.004257	0.0051845	0.0014663	287.91	5.4634e-05	5.707e-05	539.69	85.572	5.4223e-05	5.6163e-05	185.62	79.038	38.815	13.082	5.565e-05	28.547	256.676	388.348	183.158	173.712	302.214	515.271	171.681	179.806	350.562	341.485	177.202	182.059	183.699	189.986	354.852	186.192	-8191	255	
1473.866	1	1	0	0	0.12782	0.1632	0.063417	0.17651	0.16287	0.073172	0.17767	0.25281	0.23638	0.051216	0.14271	0.31051	0.34338	0.19822	0.16952	0.021086	-1.5104	-2.3979	-2.3583	-2.0729	-2.6458	-1.9604	-2.2979	-2.4083	-2.0187	-2.4	-2.2687	-2.1208	-2.4271	-1.8979	-2.4417	-2.4708	384.825	492.147	409.478	181.441	238.668	193.890	499.616	298.620	250.805	490.572	423.678	506.414	451.847	445.601	432.909	374.783	0.00021611	0.00045345	0.00019009	240.14	1.6845e-06	8.5782e-06	501.84	69.412	1.0796e-05	1.4773e-05	155.43	71.754	29.017	9.6489	1.1387e-05	24.799	0.0043527	0.0052647	0.0014783	288.15	5.6421e-05	5.8611e-05	540.96	86.485	5.5927e-05	5.8088e-05	187.27	79.393	38.95	13.121	5.7008e-05	28.781	249.187	242.849	307.493	172.965	397.346	463.985	172.050	178.881	519.838	316.415	176.792	182.275	183.491	189.730	184.637	186.534	-8191	255	
#DATA ENDS
