BOXY.EXE: ISS Imagent and Oximeter Data Acquisition Program Version 0.80
Ascii Record File

#ACQ INFORMATION
2  Detector Channels 
16  External MUX Channels 
1  Auxiliary Channels 
5000  Waveform (CCF) Frequency (Hz)
1  Waveforms Skipped 
30  Waveforms Averaged 
1  Cycles Averaged 
16  Acquisitions per Waveform 
10.0806  Updata Rate (Hz) 

#FILE INFORMATION
TRUE -- External MUX Channel results are PARSED.
FALSE -- AC DC and Phase are NOT grouped.
TRUE -- Companion Program Settings File CREATED.
FALSE -- AC data not excluded
FALSE -- DC data not excluded
FALSE -- Phase data not excluded
FALSE -- Auxillary Chn. data not excluded
Tab delimiters

#CALIBRATION STATE
TRUE -- Waveform Calibration Values APPLIED.


#AUX CALIBRATION VALUES
Val Type	aux-1	

Term	1.0000e+00	
Factor	0.0000e+00	


#WF CALIBRATION VALUES
A = Detector Channel
Val Type	A-AC1	A-AC2	A-AC3	A-AC4	A-AC5	A-AC6	A-AC7	A-AC8	A-AC9	A-AC10	A-AC11	A-AC12	A-AC13	A-AC14	A-AC15	A-AC16	A-DC1	A-DC2	A-DC3	A-DC4	A-DC5	A-DC6	A-DC7	A-DC8	A-DC9	A-DC10	A-DC11	A-DC12	A-DC13	A-DC14	A-DC15	A-DC16	A-Ph1	A-Ph2	A-Ph3	A-Ph4	A-Ph5	A-Ph6	A-Ph7	A-Ph8	A-Ph9	A-Ph10	A-Ph11	A-Ph12	A-Ph13	A-Ph14	A-Ph15	A-Ph16	

Term	0.00000e+00	0.00000e+00	0.00000e+00	0.00000e+00	0.00000e+00	0.00000e+00	0.00000e+00	0.00000e+00	0.00000e+00	0.00000e+00	0.00000e+00	0.00000e+00	0.00000e+00	0.00000e+00	0.00000e+00	0.00000e+00	0.00000e+00	0.00000e+00	0.00000e+00	0.00000e+00	0.00000e+00	0.00000e+00	0.00000e+00	0.00000e+00	0.00000e+00	0.00000e+00	0.00000e+00	0.00000e+00	0.00000e+00	0.00000e+00	0.00000e+00	0.00000e+00	0.00000e+00	0.00000e+00	0.00000e+00	0.00000e+00	0.00000e+00	0.00000e+00	0.00000e+00	0.00000e+00	0.00000e+00	0.00000e+00	0.00000e+00	0.00000e+00	0.00000e+00	0.00000e+00	0.00000e+00	0.00000e+00	
Factor	1.00000e+00	1.00000e+00	1.00000e+00	1.00000e+00	1.00000e+00	1.00000e+00	1.00000e+00	1.00000e+00	1.00000e+00	1.00000e+00	1.00000e+00	1.00000e+00	1.00000e+00	1.00000e+00	1.00000e+00	1.00000e+00	1.00000e+00	1.00000e+00	1.00000e+00	1.00000e+00	1.00000e+00	1.00000e+00	1.00000e+00	1.00000e+00	1.00000e+00	1.00000e+00	1.00000e+00	1.00000e+00	1.00000e+00	1.00000e+00	1.00000e+00	1.00000e+00	X	X	X	X	X	X	X	X	X	X	X	X	X	X	X	X	

B = Detector Channel
Val Type	B-AC1	B-AC2	B-AC3	B-AC4	B-AC5	B-AC6	B-AC7	B-AC8	B-AC9	B-AC10	B-AC11	B-AC12	B-AC13	B-AC14	B-AC15	B-AC16	B-DC1	B-DC2	B-DC3	B-DC4	B-DC5	B-DC6	B-DC7	B-DC8	B-DC9	B-DC10	B-DC11	B-DC12	B-DC13	B-DC14	B-DC15	B-DC16	B-Ph1	B-Ph2	B-Ph3	B-Ph4	B-Ph5	B-Ph6	B-Ph7	B-Ph8	B-Ph9	B-Ph10	B-Ph11	B-Ph12	B-Ph13	B-Ph14	B-Ph15	B-Ph16	

Term	0.00000e+00	0.00000e+00	0.00000e+00	0.00000e+00	0.00000e+00	0.00000e+00	0.00000e+00	0.00000e+00	0.00000e+00	0.00000e+00	0.00000e+00	0.00000e+00	0.00000e+00	0.00000e+00	0.00000e+00	0.00000e+00	0.00000e+00	0.00000e+00	0.00000e+00	0.00000e+00	0.00000e+00	0.00000e+00	0.00000e+00	0.00000e+00	0.00000e+00	0.00000e+00	0.00000e+00	0.00000e+00	0.00000e+00	0.00000e+00	0.00000e+00	0.00000e+00	-6.59245e+01	-1.24734e+02	-1.31290e+02	-1.83070e+02	-4.71720e+01	-6.49150e+01	-1.56663e+02	-1.62015e+02	-3.94459e+01	-6.42214e+01	-1.71114e+02	-1.71480e+02	-1.80686e+02	-1.76770e+02	-5.03157e+01	-1.49850e+02	
Factor	1.94318e-05	1.90944e-04	4.49887e-05	1.63081e-01	1.59961e-06	1.69595e-06	1.94177e-01	5.42487e-02	1.28390e-06	1.65075e-06	1.08414e-01	3.13847e-02	2.95052e-02	9.61121e-03	1.53840e-06	1.41149e-02	5.54059e-06	6.76180e-06	1.88700e-06	8.26207e-02	7.18682e-08	7.45135e-08	9.21061e-02	2.75920e-02	7.18242e-08	7.41166e-08	5.30887e-02	1.54427e-02	1.51454e-02	4.92050e-03	7.23774e-08	6.95805e-03	X	X	X	X	X	X	X	X	X	X	X	X	X	X	X	X	



#DISTANCE SETTINGS
A = Detector Channel
A-1	A-2	A-3	A-4	A-5	A-6	A-7	A-8	A-9	A-10	A-11	A-12	A-13	A-14	A-15	A-16	

2.5000e+00	3.0000e+00	2.5000e+00	3.0000e+00	2.0000e+00	3.0000e+00	1.5000e+00	3.0000e+00	3.0000e+00	3.0000e+00	3.0000e+00	3.0000e+00	3.0000e+00	3.0000e+00	1.5000e+00	3.0000e+00	

B = Detector Channel
B-1	B-2	B-3	B-4	B-5	B-6	B-7	B-8	B-9	B-10	B-11	B-12	B-13	B-14	B-15	B-16	

1.0000e+01	1.0000e+01	1.0000e+01	1.4400e+00	1.0000e+01	1.0000e+01	1.5100e+00	1.9400e+00	1.0000e+01	1.0000e+01	1.9900e+00	2.4900e+00	2.4100e+00	2.9000e+00	1.0000e+01	2.9800e+00	




#DATA BEGINS
time	group	step	mark	flag	A-AC1	A-AC2	A-AC3	A-AC4	A-AC5	A-AC6	A-AC7	A-AC8	A-AC9	A-AC10	A-AC11	A-AC12	A-AC13	A-AC14	A-AC15	A-AC16	A-DC1	A-DC2	A-DC3	A-DC4	A-DC5	A-DC6	A-DC7	A-DC8	A-DC9	A-DC10	A-DC11	A-DC12	A-DC13	A-DC14	A-DC15	A-DC16	A-Ph1	A-Ph2	A-Ph3	A-Ph4	A-Ph5	A-Ph6	A-Ph7	A-Ph8	A-Ph9	A-Ph10	A-Ph11	A-Ph12	A-Ph13	A-Ph14	A-Ph15	A-Ph16	B-AC1	B-AC2	B-AC3	B-AC4	B-AC5	B-AC6	B-AC7	B-AC8	B-AC9	B-AC10	B-AC11	B-AC12	B-AC13	B-AC14	B-AC15	B-AC16	B-DC1	B-DC2	B-DC3	B-DC4	B-DC5	B-DC6	B-DC7	B-DC8	B-DC9	B-DC10	B-DC11	B-DC12	B-DC13	B-DC14	B-DC15	B-DC16	B-Ph1	B-Ph2	B-Ph3	B-Ph4	B-Ph5	B-Ph6	B-Ph7	B-Ph8	B-Ph9	B-Ph10	B-Ph11	B-Ph12	B-Ph13	B-Ph14	B-Ph15	B-Ph16	aux-1	digaux	

1660.258	1	1	0	256	0.10368	0.23192	0.09431	0.31057	0.18199	0.17306	0.20254	0.18757	0.2084	0.033617	0.11339	0.14739	0.16779	0.17431	0.026856	0.09724	-1.8375	-2.05	-2.1375	-2.2188	-2	-2.2729	-2.1833	-1.9937	-2.3479	-2.3958	-2.3917	-2.4083	-1.9229	-2.2167	-2.4292	-1.9167	101.992	325.510	192.786	408.360	353.894	113.318	168.237	300.611	92.806	180.635	301.551	266.717	414.041	191.260	394.486	397.196	0.00014298	0.0001957	1.9739e-05	208.02	5.5682e-07	1.663e-06	457.67	33.325	3.8697e-07	9.6824e-07	110.64	41.224	11.765	3.8523	1.1109e-06	14.563	5.5291e-05	2.754e-05	8.6016e-06	193.25	3.1637e-07	3.4587e-07	423.95	31.228	3.3234e-07	2.7855e-07	102.53	38.729	10.981	3.7244	2.9147e-07	13.887	239.720	181.727	235.632	102.178	295.601	193.318	101.986	109.760	189.978	239.580	107.183	113.241	114.499	118.274	270.107	116.504	-8191	255	
1660.354	1	1	0	0	0.27499	0.10936	0.14754	0.057254	0.1484	0.23585	0.049993	0.06457	0.19164	0.16979	0.1136	0.21699	0.18642	0.12408	0.096148	0.12266	-1.9979	-2.1833	-1.8229	-2.3583	-2.1354	-2.2708	-2.5292	-2.0021	-2.2687	-2.2042	-2.1979	-2.5146	-2.3042	-2.0521	-2.4771	-2.0563	268.738	236.054	433.673	382.642	376.617	210.916	238.461	331.080	401.474	277.111	398.564	212.358	249.614	407.557	426.384	148.117	0.00012971	0.00018286	4.3329e-05	210.34	2.8261e-06	8.9122e-07	456.74	33.783	1.4524e-06	9.7674e-07	110.07	41.152	11.768	3.8818	6.0044e-07	14.774	5.2255e-05	2.9315e-05	9.5883e-06	193.51	3.83e-07	3.4509e-07	422.53	31.463	3.4386e-07	2.8905e-07	103.21	38.571	10.899	3.7213	3.0625e-07	13.962	233.756	177.003	176.206	102.076	269.630	290.612	101.830	109.673	265.170	259.083	107.217	113.168	115.119	119.407	231.776	115.622	-8191	255	
1660.450	1	1	0	0	0.029951	0.26114	0.085667	0.14468	0.17695	0.093726	0.13754	0.09996	0.17349	0.037269	0.052576	0.23499	0.074804	0.19553	0.16222	0.12264	-1.8625	-2.2687	-1.8271	-2.4688	-2.2542	-2.35	-2.4854	-2.0396	-2.3583	-2.5104	-2.0312	-2.325	-2.3396	-2.1854	-2.4083	-2.1688	124.551	262.811	140.056	429.118	424.234	431.382	380.167	231.705	111.683	300.526	273.972	373.796	434.200	246.177	435.921	437.912	0.00014781	0.00012475	4.3249e-05	208.46	7.8295e-07	2.058e-06	455.39	33.672	7.7073e-07	1.789e-06	110.57	41.718	12.049	3.8837	2.9914e-07	15.141	5.454e-05	2.9597e-05	8.2595e-06	192.97	3.279e-07	3.1311e-07	424.39	31.456	2.8071e-07	3.2071e-07	103.38	39.016	11.034	3.7284	2.9871e-07	14.167	242.835	197.930	158.164	102.155	277.648	240.430	101.805	110.510	288.701	260.114	107.490	113.068	115.434	118.932	344.500	116.468	-8191	255	
1660.570	1	1	0	0	0.261	0.10735	0.17337	0.13442	0.088896	0.090329	0.095939	0.11756	0.013993	0.050299	0.040201	0.097346	0.15452	0.19976	0.33678	0.081191	-1.6875	-2.3604	-2.0021	-2.2958	-2.2938	-2.0083	-2.5	-1.9229	-2.2771	-2.3854	-2.0479	-2.4604	-2.2208	-2.075	-2.5042	-2.05	450.066	284.334	425.006	239.717	377.776	246.815	404.701	216.205	210.176	325.975	299.167	423.488	396.812	273.638	430.940	342.526	0.00012277	0.0001367	1.0713e-05	209.85	4.5986e-07	1.303e-06	454.4	33.416	7.9055e-07	1.171e-06	111.66	42.213	12.104	3.9916	9.9741e-07	15.247	5.4563e-05	2.5822e-05	8.8571e-06	194.01	3.4587e-07	3.2056e-07	424.46	31.279	3.2216e-07	3.1546e-07	104.5	39.402	11.179	3.771	2.7775e-07	14.297	237.017	155.783	191.799	102.464	279.923	252.058	102.105	110.098	223.031	270.812	107.260	112.811	115.443	119.658	260.599	116.175	-8191	255	
1660.642	1	1	0	0	0.14389	0.10256	0.2378	0.19789	0.11257	0.079432	0.2369	0.18232	0.17318	0.15834	0.13671	0.43356	0.11614	0.21731	0.04978	0.076033	-1.775	-2.3979	-2.0979	-2.3729	-2.4521	-2.1042	-2.6146	-2.1688	-2.3167	-2.6021	-2.0354	-2.2396	-2.4708	-2.0167	-2.2229	-2.2021	212.323	402.319	272.237	381.196	175.227	238.809	129.406	366.656	328.774	431.154	334.708	402.274	188.734	194.382	272.822	432.200	0.0001135	0.00024775	4.2025e-05	208.38	2.1887e-06	1.1688e-06	457.36	34.094	8.3899e-07	2.4228e-06	112.66	41.748	11.783	4.0282	6.9755e-07	15.196	5.0985e-05	2.7428e-05	7.9844e-06	194.26	3.2326e-07	3.2724e-07	424.09	31.569	3.1917e-07	3.2766e-07	104.39	39.308	11.122	3.7766	3.2615e-07	14.256	232.304	194.509	144.994	102.545	274.194	231.033	102.361	109.303	275.137	238.515	107.091	112.978	115.011	117.919	286.237	116.213	-8191	255	
1660.737	1	1	0	0	0.37853	0.30357	0.11867	0.07867	0.073077	0.27062	0.31286	0.10661	0.30064	0.21833	0.14776	0.10158	0.085771	0.14278	0.14965	0.12205	-1.8042	-2.5292	-2.1042	-2.2562	-2.3771	-2.0354	-2.35	-2.0917	-2.0604	-2.625	-1.9667	-2.3	-2.3688	-1.875	-2.1521	-2.3521	338.107	239.998	175.940	326.204	327.807	437.397	318.009	248.201	287.554	277.000	157.291	122.356	375.656	211.992	440.646	159.134	0.00013897	6.704e-05	2.9173e-05	207	1.5985e-06	1.4702e-06	459.82	33.784	1.1287e-06	1.5409e-06	113.17	42.156	11.831	4.0181	1.1598e-06	15.121	5.5845e-05	2.754e-05	8.1259e-06	193.3	3.3029e-07	3.5472e-07	426.97	31.336	3.1109e-07	2.8998e-07	104.47	39.494	11.061	3.779	3.2133e-07	14.26	230.226	316.888	117.510	102.926	279.082	225.361	102.263	109.266	231.472	219.868	106.768	112.866	114.845	118.915	309.985	116.088	-8191	255	
1660.833	1	1	0	0	0.052765	0.19902	0.14186	0.24889	0.25341	0.17854	0.094343	0.27255	0.27514	0.10004	0.1143	0.10134	0.12719	0.072649	0.17664	0.03081	-1.4146	-2.3125	-2.125	-2.1292	-2.4542	-2.0854	-2.5229	-2.1125	-2.075	-2.4875	-2.1229	-2.1937	-2.3167	-2.125	-2.2271	-2.3917	396.596	326.464	396.873	162.892	445.746	428.679	185.608	226.907	361.741	332.141	141.739	423.308	291.918	343.288	261.806	373.661	0.00013948	9.9051e-05	3.3641e-05	208.47	1.1092e-06	1.4107e-06	463.27	34.189	1.2001e-06	1.1429e-06	111.93	42.235	11.999	3.9926	8.8383e-07	14.986	5.7853e-05	2.9555e-05	8.4954e-06	192.55	2.8747e-07	3.3003e-07	427.39	31.711	3.3039e-07	2.8736e-07	104.75	39.528	11.175	3.7797	3.3309e-07	14.239	234.759	170.006	176.181	102.816	232.062	276.195	102.328	109.980	308.098	208.908	107.022	113.598	115.098	118.836	246.470	116.490	-8191	255	
1660.953	1	1	0	0	0.38834	0.11125	0.30453	0.33513	0.088449	0.19479	0.22025	0.18996	0.33557	0.072268	0.25044	0.033405	0.16793	0.086319	0.073161	0.28628	-1.4979	-2.3458	-2.1167	-2.0479	-2.3979	-2.0979	-2.5458	-2.2854	-2.0167	-2.4896	-2.4	-2.0875	-2.5042	-2.0271	-2.3042	-2.3438	413.909	271.346	398.972	220.366	413.918	375.300	411.008	263.567	107.986	184.423	121.113	392.705	409.072	423.574	192.494	304.661	0.00016191	8.6719e-05	6.1922e-05	207.84	1.5831e-06	5.7063e-07	462.28	33.108	8.3883e-07	1.4776e-06	112.06	42.67	11.858	3.9593	1.0471e-06	14.976	5.8961e-05	3.0344e-05	8.4286e-06	192.52	2.999e-07	3.1668e-07	429.18	31.239	3.3802e-07	2.9291e-07	104.42	39.501	11.057	3.7521	2.8197e-07	14.208	235.095	192.853	172.800	101.939	280.688	279.999	102.245	109.475	269.055	237.536	106.871	113.704	115.231	119.468	279.691	116.405	-8191	255	
1661.049	1	1	0	0	0.17934	0.1801	0.1936	0.045881	0.19443	0.24436	0.18419	0.16352	0.075884	0.08372	0.040604	0.23199	0.22686	0.20818	0.09061	0.27821	-1.4562	-2.2792	-1.9688	-2.1083	-2.5583	-2.1312	-2.0979	-2.1979	-1.9042	-2.4104	-2.225	-1.9188	-2.3854	-2.025	-2.0854	-2.2458	432.793	225.364	382.552	313.882	424.672	263.502	236.057	407.485	245.957	218.184	449.388	428.473	149.203	119.657	427.595	165.249	0.00013657	0.00021387	2.6811e-05	209.12	8.3957e-07	1.325e-06	461.71	33.41	1.5267e-06	1.4686e-06	110.3	41.702	11.897	3.9227	1.4393e-06	14.755	5.7968e-05	2.9033e-05	8.1966e-06	193.6	3.5739e-07	3.097e-07	428.06	31.15	3.5433e-07	3.0218e-07	103.3	39.001	10.928	3.705	2.9268e-07	14.048	239.772	178.694	145.593	102.729	256.765	200.527	101.867	109.011	283.688	206.758	107.507	112.858	114.561	118.222	279.706	116.684	-8191	255	
1661.146	1	1	0	0	0.28353	0.17568	0.055093	0.23565	0.029098	0.15992	0.17325	0.15273	0.19412	0.15847	0.22116	0.10619	0.1023	0.12028	0.092473	0.086288	-1.3354	-2.175	-2.2917	-1.9792	-2.4167	-2.0125	-2.1	-2.3625	-2.1208	-2.4542	-2.3417	-2.0896	-2.3521	-1.95	-2.1604	-2.3563	393.555	403.109	286.896	317.162	348.324	143.351	212.681	436.862	236.282	434.639	149.437	337.641	213.007	405.416	201.377	193.255	0.00015968	7.3994e-05	3.2647e-05	208.09	1.6282e-06	1.5579e-06	457.81	33.236	8.7134e-07	8.0351e-07	112.95	41.322	11.697	3.9063	1.2373e-06	14.967	5.5683e-05	2.8104e-05	7.5047e-06	193.42	3.1143e-07	3.2972e-07	427	31.121	3.5463e-07	3.116e-07	103.76	39.03	10.88	3.7085	3.3143e-07	14.082	237.286	158.197	190.275	102.639	248.316	254.222	102.903	109.914	242.840	407.284	106.778	113.646	115.402	118.387	245.721	116.453	-8191	255	
1661.242	1	1	0	0	0.053149	0.22579	0.30652	0.029366	0.32919	0.028647	0.21922	0.10992	0.044507	0.31597	0.09752	0.036666	0.24883	0.09896	0.11904	0.25311	-1.5187	-2.3021	-2.3	-2.0104	-2.5542	-2.1146	-2.1646	-2.4938	-2.1063	-2.2146	-2.4562	-2.0312	-2.4083	-2.1333	-2.0979	-2.4437	138.379	136.990	227.081	109.091	298.201	443.449	209.984	427.974	97.430	183.604	354.944	102.882	383.649	263.840	321.472	266.872	0.00012149	0.00012295	3.0285e-05	206.07	1.2306e-06	1.1419e-06	461.63	32.842	1.3946e-06	1.1547e-06	110.61	42.027	11.842	3.8511	8.6707e-07	14.942	5.4344e-05	2.7723e-05	7.3907e-06	192.6	2.8538e-07	3.0488e-07	427.43	30.867	3.1947e-07	2.7485e-07	104.05	39.198	10.923	3.7028	3.2766e-07	14.156	233.641	172.736	179.262	102.386	248.129	247.063	102.243	110.072	277.113	188.489	107.015	113.306	114.278	118.238	246.983	116.783	-8191	255	
1661.338	1	1	0	0	0.2281	0.14463	0.315	0.046936	0.10396	0.07705	0.13139	0.1608	0.16938	0.077212	0.14277	0.1212	0.20025	0.13591	0.32271	0.16189	-1.4188	-2.2167	-2.2625	-1.9	-2.2854	-2.2875	-2.0021	-2.4354	-1.9583	-2.2042	-2.5187	-1.7917	-2.3604	-2.2292	-2.1312	-2.3375	110.037	106.815	268.041	175.666	267.072	115.986	378.558	301.849	159.593	321.641	350.267	141.057	156.795	92.071	267.911	296.170	0.00014379	0.00021138	4.9523e-05	207.81	1.3696e-06	1.4555e-06	462.06	33.593	9.6319e-07	1.5128e-06	112.05	41.831	11.833	3.989	8.8396e-07	15.04	5.3605e-05	2.8076e-05	7.2885e-06	193.21	3.02e-07	2.9821e-07	429.86	31.096	3.5718e-07	2.9786e-07	103.92	39.155	10.935	3.7307	3.4213e-07	14.141	233.918	199.930	193.613	102.269	303.495	270.547	101.872	110.012	255.307	230.730	107.371	112.640	114.755	118.463	251.626	117.104	-8191	255	
1661.434	1	1	0	0	0.18697	0.20693	0.057185	0.20679	0.18262	0.309	0.18936	0.072151	0.097599	0.39277	0.11916	0.11083	0.093145	0.062778	0.19446	0.061354	-1.5063	-2.0104	-2.2625	-2.0458	-2.1937	-2.4479	-2.0292	-2.3563	-2.1292	-2.2292	-2.4042	-2.0833	-2.2708	-2.2729	-1.9917	-2.425	336.298	401.713	322.480	182.519	176.773	434.632	386.712	270.772	228.490	170.231	125.965	272.315	100.704	245.945	223.175	439.636	0.00014617	0.00020514	3.54e-05	210.84	2.5483e-07	2.7316e-06	461.8	33.222	1.4706e-06	6.6426e-07	110.82	42.075	11.823	3.9316	9.6375e-07	15.077	5.3709e-05	2.9865e-05	8.3696e-06	193.88	3.1412e-07	3.0225e-07	428.27	30.971	3.1962e-07	3.1793e-07	104.02	39.201	10.969	3.7118	3.5812e-07	14.192	233.031	218.013	182.930	102.151	162.337	252.887	102.284	109.663	302.807	221.583	106.935	113.151	113.943	118.187	286.003	116.455	-8191	255	
1661.530	1	1	0	0	0.30171	0.21295	0.12152	0.099733	0.28299	0.15141	0.059635	0.16702	0.25998	0.17661	0.096249	0.25946	0.32864	0.17289	0.05176	0.24553	-1.5833	-2.0458	-2.5104	-1.9937	-2.3021	-2.3375	-1.9125	-2.4458	-2.1458	-2.0792	-2.4146	-2.0292	-2.2896	-2.2833	-1.9167	-2.2938	119.113	298.679	340.407	287.756	233.103	104.382	349.862	364.636	178.246	271.203	326.486	440.460	285.598	442.121	187.459	102.052	0.0001345	0.00010442	3.028e-05	209.6	1.8908e-06	1.0877e-06	463.65	33.217	2.449e-07	1.6598e-06	113.37	42.104	11.866	3.9533	4.6146e-07	15.169	5.476e-05	2.8174e-05	7.3947e-06	193.79	3.4272e-07	2.8315e-07	429.74	31.066	3.0331e-07	2.8705e-07	104.91	39.699	11.015	3.72	3.5601e-07	14.335	236.875	209.756	214.200	102.241	243.333	196.962	102.536	109.432	95.445	198.216	107.800	112.956	114.799	118.973	307.572	116.341	-8191	255	
1661.651	1	1	0	0	0.11027	0.22725	0.040611	0.18062	0.23712	0.17293	0.075849	0.10743	0.20336	0.13851	0.24203	0.14568	0.2689	0.07266	0.13511	0.17018	-1.8396	-1.8146	-2.5062	-2.0458	-2.2812	-2.4313	-1.9708	-2.3646	-2.1146	-1.9479	-2.4875	-2.0833	-2.0771	-2.2458	-2.1042	-2.3604	366.329	365.448	351.438	129.939	100.461	375.140	227.059	328.344	241.866	174.015	450.957	106.861	367.154	449.330	190.840	127.077	0.00014814	0.00013331	2.9567e-05	207.86	5.9306e-07	1.2603e-06	462.73	33.544	9.0269e-07	1.19e-06	112.96	42.279	11.812	3.9249	8.1742e-07	15.257	5.7507e-05	2.9005e-05	7.088e-06	193.42	3.556e-07	2.6033e-07	429.66	31.16	3.1902e-07	3.3507e-07	104.9	39.793	11.022	3.7311	3.45e-07	14.383	236.800	194.910	235.173	102.478	277.339	306.362	102.564	109.965	247.716	207.621	107.183	113.021	114.431	118.854	234.913	116.248	-8191	255	
1661.745	1	1	0	0	0.15594	0.087399	0.17297	0.018545	0.1633	0.1619	0.12155	0.16006	0.1932	0.075866	0.14975	0.23755	0.073784	0.13207	0.35776	0.33875	-1.8229	-1.9542	-2.2958	-2	-2.0167	-2.5479	-1.9542	-2.3	-2.3604	-2.0833	-2.2667	-1.9937	-1.9188	-2.3396	-2.1146	-2.1625	342.328	95.010	144.478	390.654	442.411	168.822	146.381	322.821	235.446	252.427	141.348	366.733	329.213	365.380	140.543	360.034	0.00014451	8.162e-05	3.7972e-05	208.28	1.0234e-06	9.7345e-07	467.59	33.399	3.1582e-07	7.5182e-07	112.89	42.381	11.717	3.8867	1.2543e-06	15.365	5.1262e-05	3.2471e-05	6.7421e-06	192.75	3.6308e-07	2.847e-07	430.94	31.252	2.9642e-07	3.3337e-07	105.65	39.792	10.97	3.6998	3.4093e-07	14.375	239.742	145.774	162.953	103.487	274.075	258.844	102.034	109.712	254.766	233.447	107.083	113.186	115.355	119.197	257.802	115.914	-8191	255	
1661.841	1	1	0	0	0.18234	0.30196	0.15355	0.28257	0.18307	0.23695	0.1695	0.32602	0.20575	0.024665	0.062285	0.13602	0.22509	0.062614	0.12773	0.37384	-2.0771	-2.0625	-2.2687	-2.2604	-2.2313	-2.5	-1.9771	-2.1104	-2.475	-2.0375	-2.2083	-2.0062	-2.0083	-2.4417	-2.1375	-2.1937	381.970	117.070	229.995	238.996	273.791	245.923	356.298	188.367	266.054	317.975	348.361	395.531	274.807	116.818	108.423	415.318	0.00013718	2.7361e-05	4.8688e-05	207.65	1.0423e-06	5.812e-07	462.68	33.668	1.148e-06	1.4061e-06	113.24	42.185	11.654	3.771	7.8934e-07	14.982	5.3778e-05	2.6188e-05	8.0119e-06	192.59	3.8255e-07	2.7896e-07	430.1	31.297	3.0376e-07	2.9755e-07	105.43	39.364	10.891	3.6483	3.2464e-07	14.209	237.004	235.352	146.398	102.397	245.232	335.246	102.255	109.360	250.762	231.960	107.090	112.760	114.062	118.419	268.908	116.246	-8191	255	
1661.938	1	1	0	0	0.18154	0.24493	0.15125	0.13593	0.11822	0.22542	0.093221	0.1889	0.13013	0.30552	0.12996	0.19389	0.21785	0.067999	0.26989	0.13868	-1.8687	-1.9792	-2.3292	-2.3354	-1.9813	-2.3937	-2.1396	-1.9292	-2.4313	-2.0167	-2.2729	-2.2417	-1.9021	-2.4417	-2.1271	-2.0062	427.314	174.250	413.748	441.857	310.650	174.109	108.404	406.878	189.480	350.127	103.722	332.433	224.616	397.264	416.188	99.759	0.00013297	0.00023164	1.4303e-05	207.07	1.3285e-06	8.5367e-07	467.19	33.166	3.0243e-07	1.1491e-06	113.69	42.04	11.393	3.8553	2.4193e-06	14.895	4.9865e-05	3.2386e-05	6.8011e-06	191.9	3.3329e-07	2.9122e-07	431.54	31.008	2.855e-07	3.1839e-07	105.47	39.284	10.702	3.6212	3.073e-07	14.103	243.502	171.625	219.570	102.408	230.125	318.990	102.001	109.453	153.228	235.916	107.161	112.694	114.560	119.207	257.834	116.910	-8191	255	
1662.034	1	1	0	0	0.22601	0.19437	0.064336	0.1506	0.093791	0.17212	0.24142	0.30389	0.20207	0.22351	0.14272	0.23727	0.16106	0.2959	0.24285	0.20483	-1.9333	-1.925	-2.2271	-2.5396	-1.9125	-2.4062	-2.2333	-1.9604	-2.4083	-2.1688	-2.2917	-2.2354	-1.9417	-2.4188	-2.1021	-2.0146	247.807	234.522	107.491	354.179	320.294	369.290	343.058	404.936	317.060	404.256	337.028	390.031	401.027	128.657	442.738	246.215	0.0001283	0.00023004	1.259e-05	206.75	1.4774e-06	1.1126e-06	467.98	33.58	1.5024e-06	1.0849e-06	113.67	42.243	11.745	3.8305	1.3799e-06	14.962	5.0015e-05	2.847e-05	7.7563e-06	191.94	3.4527e-07	2.7958e-07	432.42	31.006	3.2725e-07	3.2302e-07	105.4	39.407	10.773	3.6329	2.6327e-07	14.197	236.820	154.669	128.257	101.991	252.020	230.882	102.548	110.005	251.039	223.643	107.269	113.249	113.974	119.040	257.505	116.560	-8191	255	
1662.130	1	1	0	0	0.32934	0.23054	0.25072	0.10438	0.26165	0.19899	0.22209	0.22894	0.1195	0.24826	0.11139	0.15648	0.25537	0.10199	0.34459	0.084933	-1.9188	-1.9438	-2.2354	-2.3292	-1.9708	-2.4062	-2.2458	-2.0625	-2.4625	-1.9688	-2.2354	-2.4125	-1.9896	-2.2146	-2.3063	-1.8708	205.171	304.012	165.607	324.072	320.661	135.647	350.412	104.437	280.299	144.495	450.392	323.559	439.952	261.306	107.029	131.027	0.00014439	0.0002134	5.597e-05	208.66	1.006e-06	1.0946e-06	460.95	33.472	5.3958e-07	6.1352e-07	110.81	42.042	11.624	3.7014	1.0497e-06	14.934	5.4863e-05	3.0428e-05	7.5205e-06	192.88	3.4197e-07	2.7896e-07	429.34	31.145	2.9208e-07	2.767e-07	104.77	39.045	10.735	3.535	2.9102e-07	13.978	237.695	175.466	154.280	102.070	265.641	290.934	102.197	109.837	287.614	302.284	106.948	113.595	115.209	118.381	226.390	116.515	-8191	255	
1662.251	1	1	0	0	0.13744	0.19559	0.17645	0.080416	0.16747	0.091513	0.16663	0.23842	0.13165	0.13683	0.17066	0.13303	0.2519	0.12586	0.20201	0.1653	-1.8937	-2.1458	-2.1333	-2.5667	-1.9646	-2.2792	-2.375	-1.9562	-2.3708	-2.3	-2.0542	-2.4813	-2.1917	-2.2167	-2.2438	-1.8479	362.617	450.899	334.483	193.421	415.326	307.476	230.554	316.249	446.808	134.075	198.365	148.000	198.277	119.488	132.987	352.412	0.00012868	0.000156	5.9339e-05	206.78	1.2514e-06	9.6709e-07	462.42	33.307	8.2668e-07	1.5198e-06	111.89	41.304	11.239	3.7559	1.5932e-06	14.629	5.3167e-05	2.6596e-05	7.9293e-06	192.86	3.2041e-07	3.0318e-07	428.66	31.052	3.0091e-07	2.801e-07	104.17	38.851	10.588	3.5582	2.8664e-07	13.93	235.321	137.447	150.566	102.725	226.847	256.760	102.040	109.887	234.549	223.975	107.927	113.168	115.171	118.811	253.715	116.268	-8191	255	
1662.347	1	1	0	0	0.059972	0.12828	0.18172	0.098087	0.11702	0.14006	0.11301	0.17908	0.078887	0.20003	0.19307	0.085169	0.036756	0.094492	0.29289	0.29443	-1.8563	-2.1854	-1.8937	-2.4896	-1.9729	-2.2333	-2.3479	-1.8583	-2.4417	-2.1854	-2.0625	-2.3396	-2.0667	-2.1875	-2.1375	-1.8875	170.807	273.987	176.165	290.179	445.369	268.670	140.212	307.794	295.234	288.616	110.073	448.821	425.977	282.749	200.568	387.436	0.000157	3.4058e-05	2.0275e-05	207.91	1.2417e-06	1.8061e-06	462.98	33.421	7.9363e-07	6.2044e-07	112.55	41.591	11.468	3.8551	1.5555e-06	14.789	5.5291e-05	2.7033e-05	8.3382e-06	192.08	3.5185e-07	2.549e-07	428.17	31.07	3.1199e-07	3.0094e-07	104.57	38.924	10.639	3.5749	2.782e-07	13.998	231.500	436.948	134.507	102.263	254.404	267.886	102.510	109.607	201.487	176.634	107.713	113.529	114.408	118.518	248.015	116.368	-8191	255	
1662.443	1	1	0	0	0.08029	0.17063	0.12605	0.024286	0.085528	0.11625	0.1389	0.13684	0.20252	0.042471	0.062304	0.2147	0.14409	0.13943	0.053432	0.15542	-1.9729	-2.1083	-1.9604	-2.5187	-2.1958	-2.2062	-2.375	-1.9625	-2.2917	-2.0917	-1.975	-2.3146	-2.1104	-2.0812	-2.3458	-2.1188	227.277	396.623	372.625	341.785	167.943	155.076	386.132	270.349	292.666	348.261	168.644	102.981	366.797	341.323	392.797	238.999	0.00014308	0.0001486	2.8054e-05	209.84	1.444e-06	1.4372e-06	462.67	32.701	1.3657e-06	9.8698e-07	113.62	41.758	11.529	3.7347	7.6438e-07	14.975	5.2636e-05	2.8174e-05	8.0984e-06	192.77	3.1263e-07	3.0908e-07	428.04	30.946	2.8655e-07	2.6852e-07	105.7	39.17	10.759	3.5759	2.5905e-07	14.112	236.822	231.315	178.962	102.485	296.326	222.420	102.252	109.490	286.088	232.046	106.963	112.934	115.336	118.067	254.467	116.389	-8191	255	
1662.514	1	1	0	0	0.20422	0.25893	0.043179	0.24015	0.25801	0.06763	0.12563	0.19419	0.1282	0.023151	0.10124	0.091604	0.3459	0.21076	0.078342	0.089636	-1.8208	-2.4333	-1.9438	-2.4188	-2.1667	-2.1021	-2.4646	-2.0729	-2.3417	-2.3271	-2.0604	-2.4021	-2.1104	-2.1917	-2.4604	-2.1667	211.169	253.889	255.913	146.496	176.847	440.814	351.265	338.176	269.181	272.119	173.679	263.466	342.723	102.126	374.225	123.737	0.00014851	9.071e-05	5.3372e-05	206.72	1.1541e-06	1.2012e-06	460.83	33.322	1.0524e-06	1.2565e-06	113.63	42.216	11.593	3.766	2.1642e-06	14.815	5.4182e-05	2.7583e-05	7.8586e-06	192.21	3.1712e-07	2.7911e-07	429.03	31.005	3.069e-07	2.8705e-07	105.29	39.299	10.743	3.5409	2.9554e-07	13.942	235.804	189.599	200.648	102.317	260.196	251.199	102.266	109.100	195.749	304.568	107.215	112.963	115.568	118.091	263.066	116.094	-8191	255	
1662.611	1	1	0	0	0.09849	0.35805	0.2078	0.1551	0.2709	0.32529	0.093621	0.057686	0.25319	0.02592	0.091861	0.18099	0.030104	0.067202	0.026586	0.1759	-1.5667	-2.3208	-1.9458	-2.3479	-2.1125	-2.2062	-2.6208	-2.0187	-2.2458	-2.3	-2.0812	-2.35	-2.1771	-2.0958	-2.3729	-2.0062	274.271	351.719	239.594	155.527	164.891	121.176	321.502	160.561	442.055	165.745	255.676	271.155	170.916	439.899	295.707	407.929	0.00013316	0.00014309	4.6514e-05	207.19	1.3707e-06	1.0822e-06	459.45	32.903	9.2981e-07	1.4726e-06	112.53	42.068	11.584	3.7209	8.6823e-07	14.712	5.3651e-05	2.237e-05	8.8846e-06	192.18	3.0245e-07	3.2274e-07	427.9	30.827	3.0944e-07	2.9261e-07	105.17	39.26	10.737	3.5529	3.0595e-07	13.967	238.732	179.980	151.837	101.739	260.938	186.072	102.132	109.726	239.957	263.476	107.239	113.385	113.378	118.963	266.218	117.219	-8191	255	
1662.730	1	1	0	0	0.13023	0.13012	0.16406	0.1065	0.076398	0.24334	0.23883	0.082072	0.059333	0.2038	0.11776	0.080975	0.07075	0.12694	0.16064	0.24782	-1.8	-2.4333	-2.0458	-2.2146	-2.3854	-2.0271	-2.4354	-2.0542	-2.05	-2.6167	-1.825	-2.2625	-2.1375	-1.8958	-2.6688	-2.1729	445.662	162.236	342.927	390.113	447.800	445.090	281.116	350.377	241.207	113.857	424.081	348.821	346.419	304.017	128.130	172.067	0.00013099	4.9115e-05	4.7339e-05	206.67	2.3803e-06	2.3591e-06	461.87	33.459	8.8378e-07	1.9357e-06	113.26	42.319	11.628	3.8056	1.6477e-06	14.755	5.1885e-05	2.8456e-05	8.4758e-06	190.88	3.0948e-07	3.305e-07	428.1	31.19	3.1004e-07	2.6775e-07	105.77	39.511	10.785	3.5933	2.8755e-07	14.019	239.130	267.808	150.570	102.432	229.382	226.714	102.171	108.901	246.462	289.479	106.705	113.367	115.011	119.362	276.999	115.716	-8191	255	
1662.826	1	1	0	0	0.37875	0.16983	0.059454	0.17886	0.16052	0.1841	0.083167	0.26752	0.074466	0.18382	0.19896	0.14708	0.23528	0.28424	0.23333	0.20263	-1.6167	-2.5083	-1.85	-2.3167	-2.1292	-2.0521	-2.4958	-2.1167	-2.1562	-2.4042	-2.2	-2.3375	-2.2875	-1.975	-2.3875	-2.2292	243.278	301.852	323.195	288.003	447.243	441.095	388.038	389.254	417.112	294.692	318.857	422.016	121.538	321.880	173.360	257.155	0.00014284	8.9463e-05	3.1532e-05	207.57	1.822e-06	8.2774e-07	464.27	33.331	1.0921e-06	1.1097e-06	115.18	42.483	11.254	3.7789	1.1191e-06	14.884	5.2497e-05	2.6892e-05	8.5622e-06	191.15	3.1877e-07	3.1218e-07	427.8	31.279	3.5089e-07	2.9925e-07	106.37	39.577	10.721	3.5676	3.2359e-07	14.044	231.008	246.870	176.482	102.481	262.230	344.261	102.458	108.637	248.932	230.825	107.021	113.532	115.318	118.049	212.055	116.604	-8191	255	
1662.922	1	1	0	0	0.23604	0.24388	0.069656	0.25145	0.06312	0.08975	0.053903	0.029361	0.046931	0.060478	0.094715	0.066815	0.17652	0.084899	0.25612	0.13191	-1.775	-2.3917	-2.1021	-2.2125	-2.3167	-1.9271	-2.5604	-2.3167	-1.9021	-2.6042	-2.1771	-1.9917	-2.325	-1.9875	-2.2708	-2.3458	255.468	440.663	303.148	420.251	162.879	118.174	101.309	439.265	243.031	432.132	189.951	191.932	151.615	110.963	117.875	437.398	0.00011744	0.00011062	2.772e-05	204.43	1.7976e-06	6.1911e-07	461.84	33.47	7.3672e-07	1.0133e-06	112.72	41.653	11.273	3.6776	1.2024e-06	14.684	5.2532e-05	2.8371e-05	7.5716e-06	190.52	2.9017e-07	3.0768e-07	428.98	31.061	3.1528e-07	2.4922e-07	105.45	39.045	10.628	3.4846	2.5196e-07	13.883	232.188	194.692	152.870	102.026	239.013	151.479	102.132	109.798	240.242	211.949	107.413	112.699	115.365	119.561	278.869	115.704	-8191	255	
1663.042	1	1	0	0	0.26371	0.25939	0.34206	0.17544	0.075117	0.1643	0.091127	0.31796	0.035571	0.21259	0.17064	0.49037	0.11962	0.08139	0.0013241	0.13009	-1.5479	-2.3646	-2.25	-2.0458	-2.3708	-2.0146	-2.3771	-2.2979	-2.0667	-2.3729	-2.4396	-2.0833	-2.4271	-2.0083	-2.275	-2.3792	120.029	361.498	261.037	395.616	384.660	105.630	365.494	403.155	355.120	345.332	426.053	417.083	200.762	98.564	180.000	115.714	0.00014285	0.00020878	2.6505e-05	206.46	4.2281e-07	1.1798e-06	460.6	32.446	1.2664e-06	6.3455e-07	113.46	41.33	11.458	3.6774	8.7213e-07	14.81	5.5429e-05	2.5019e-05	8.6841e-06	191.47	2.9196e-07	2.9883e-07	428.38	30.436	3.3623e-07	2.4906e-07	105.21	38.805	10.464	3.4673	3.07e-07	13.914	235.043	176.935	187.419	102.640	412.463	206.638	102.085	109.212	251.083	330.777	107.447	112.816	114.296	118.008	232.627	115.685	-8191	255	
1663.114	1	1	0	0	0.10346	0.34345	0.16598	0.15646	0.19704	0.23262	0.26215	0.18052	0.090602	0.28217	0.039085	0.15947	0.14863	0.079921	0.22087	0.32501	-1.4854	-2.2625	-2.1833	-2.0187	-2.3271	-2.1646	-2.2917	-2.3542	-1.8771	-2.3625	-2.1437	-1.9708	-2.2792	-2.0312	-2.0833	-2.5667	172.805	265.531	356.844	298.565	102.075	446.315	94.130	111.767	380.283	296.975	363.447	437.213	406.071	133.197	224.464	223.984	0.00012161	0.0002049	8.2915e-06	207.29	1.0034e-06	1.2307e-06	460.62	33.202	1.0385e-06	5.5616e-07	112.9	41.781	11.24	3.6762	1.648e-06	14.837	5.3467e-05	2.4385e-05	6.5219e-06	192.09	3.3703e-07	2.8672e-07	428.02	30.7	3.3114e-07	2.7037e-07	104.97	38.982	10.451	3.4902	3.0142e-07	13.968	238.792	206.866	168.216	102.223	276.651	234.971	102.002	110.049	253.831	200.098	106.691	113.301	114.505	118.293	279.805	116.006	-8191	255	
1663.210	1	1	0	0	0.28384	0.15523	0.23784	0.24228	0.34777	0.34487	0.3428	0.13499	0.19603	0.12325	0.21741	0.30134	0.22368	0.090238	0.19153	0.028193	-1.3729	-2.1312	-2.1729	-2.2062	-2.3583	-2.1104	-2.1125	-2.3187	-1.9208	-2.3271	-2.4375	-2.0417	-2.2708	-2.0708	-2.0833	-2.3271	393.262	167.239	249.305	344.793	147.544	169.693	395.027	285.419	263.610	196.478	105.671	449.699	123.899	412.316	175.348	226.064	0.00014182	0.00019029	2.9823e-05	205.82	5.7159e-07	1.4846e-06	463.96	32.236	6.0907e-07	1.612e-06	112.19	41.723	11.268	3.7247	1.1038e-06	14.708	5.304e-05	2.5455e-05	7.7839e-06	191.03	2.9571e-07	2.9247e-07	428.84	30.386	3.2321e-07	3.1639e-07	104.95	39.03	10.51	3.5042	3.0353e-07	13.88	239.054	177.524	190.249	102.507	230.752	239.792	102.332	109.146	332.123	188.598	107.510	113.400	114.218	118.029	244.112	116.871	-8191	255	
1663.331	1	1	0	0	0.19443	0.18267	0.058842	0.17279	0.051658	0.15956	0.1825	0.23017	0.13962	0.068696	0.21244	0.074299	0.17367	0.28394	0.10416	0.078732	-1.3875	-2.1979	-2.2875	-1.9604	-2.3479	-2.1875	-1.9979	-2.4125	-2.1042	-2.075	-2.3083	-2.0292	-2.3563	-2.1708	-2.0667	-2.3563	217.544	439.820	246.629	157.146	265.579	267.193	317.779	420.114	177.143	169.792	372.529	341.291	120.638	363.857	96.355	119.701	0.00011871	7.6613e-05	5.1904e-05	209.46	1.6004e-06	9.7018e-07	459.54	32.067	1.6601e-06	5.1971e-07	112.19	41.095	11.075	3.6275	1.1481e-06	14.786	5.2174e-05	2.9794e-05	7.4536e-06	192.43	2.6801e-07	2.9045e-07	428.03	30.244	3.3563e-07	2.9106e-07	104.22	38.616	10.378	3.475	3.0429e-07	13.896	233.757	158.676	187.338	102.219	224.203	279.098	102.192	109.695	253.586	243.398	107.080	113.390	114.426	118.930	246.576	115.794	-8191	255	
1663.427	1	1	0	0	0.090263	0.17994	0.112	0.12017	0.22928	0.33906	0.19121	0.24432	0.38445	0.27365	0.10505	0.070709	0.31604	0.10079	0.088408	0.21995	-1.6938	-2.2708	-2.3625	-1.9979	-2.1625	-2.2917	-2.0417	-2.4313	-2.1	-2.1729	-2.2208	-1.8958	-2.1771	-2.2229	-1.9104	-2.3875	142.612	383.782	305.263	349.692	427.355	295.338	265.497	403.272	262.223	243.359	188.657	196.701	279.431	393.697	398.085	173.793	0.00013394	7.3651e-05	2.6295e-05	207.16	3.7794e-07	1.3712e-06	461.83	33.045	5.1371e-07	8.9406e-07	113.08	41.715	11.129	3.6196	1.9276e-06	14.592	5.3213e-05	2.8893e-05	6.7146e-06	191.86	3.02e-07	2.7818e-07	427.65	30.482	3.1618e-07	2.6883e-07	104.59	38.817	10.362	3.4471	2.9735e-07	13.776	236.492	205.043	169.807	102.403	291.946	267.813	102.077	109.108	277.053	248.949	107.669	113.166	115.400	118.096	264.304	116.060	-8191	255	
1663.523	1	1	0	0	0.18213	0.26113	0.1337	0.07482	0.078163	0.18729	0.022731	0.16772	0.09119	0.11574	0.24797	0.19269	0.04872	0.19719	0.12087	0.13574	-1.55	-1.9958	-2.3604	-2.0438	-2.1688	-2.3771	-1.8583	-2.3438	-2.1771	-2.1646	-2.3958	-2.0312	-2.3917	-2.175	-1.875	-2.3	110.823	91.205	415.448	364.056	246.339	171.480	243.447	110.490	294.413	298.379	415.659	442.220	345.010	438.572	272.417	286.410	0.00013803	0.0001329	4.8244e-06	206.4	1.7847e-06	1.3884e-06	461.92	32.111	1.2719e-06	1.6552e-06	112.54	41.313	11.265	3.6007	9.8335e-07	14.638	5.2058e-05	2.5751e-05	6.9229e-06	191.19	3.023e-07	2.8983e-07	429.2	30.009	3.0884e-07	3.0743e-07	104.22	38.713	10.429	3.4549	3.1273e-07	13.907	234.959	201.850	330.933	102.361	225.835	261.039	102.359	109.025	266.036	224.241	107.047	112.896	113.858	118.583	287.819	116.452	-8191	255	
1663.642	1	1	0	0	0.14356	0.23209	0.17472	0.17942	0.17301	0.0164	0.077092	0.072544	0.091943	0.31477	0.076168	0.27299	0.088822	0.26371	0.19153	0.22227	-1.5479	-1.8854	-2.3958	-1.9146	-2.2542	-2.2729	-2.1167	-2.3104	-2.2417	-1.9875	-2.3187	-2.1208	-2.1479	-2.3	-1.8937	-2.3021	268.180	411.156	180.226	277.743	213.654	211.438	346.899	345.663	419.656	136.805	323.918	188.324	309.044	360.401	424.241	436.605	0.00013417	0.00012922	3.9598e-05	205.05	7.4636e-07	1.011e-06	462.07	32.059	1.1643e-06	1.1403e-06	111.98	41.717	11.209	3.6952	1.8704e-06	14.56	5.2139e-05	2.8061e-05	7.2374e-06	190.89	3.3479e-07	2.7244e-07	428.78	30.211	3.2695e-07	3.0388e-07	104.42	38.82	10.398	3.4794	3.2374e-07	13.87	238.095	238.441	189.502	102.470	319.501	224.207	102.212	108.577	273.310	261.660	106.588	113.085	114.500	119.873	253.569	116.760	-8191	255	
1663.738	1	1	0	0	0.41413	0.13063	0.15125	0.15601	0.023806	0.15909	0.30297	0.32295	0.13374	0.082675	0.18162	0.19232	0.20557	0.21973	0.022043	0.12985	-1.7083	-2.1021	-2.3729	-1.95	-2.0187	-2.2562	-2.0646	-2.325	-2.3333	-1.9146	-2.4854	-2.0917	-2.1042	-2.4083	-1.9417	-2.2729	204.527	107.574	305.841	391.381	220.615	449.179	441.741	132.075	443.982	288.950	385.824	440.625	342.704	414.382	331.255	237.996	0.00013382	9.2205e-05	3.1845e-05	205.16	6.9096e-07	1.9073e-06	461.18	32.091	1.2151e-06	1.5857e-06	112.67	41.216	11.289	3.7052	6.8499e-07	14.642	5.1955e-05	2.7216e-05	8.063e-06	190.83	3.1487e-07	2.6716e-07	427.82	30.181	2.9104e-07	3.133e-07	104.98	38.872	10.54	3.5187	3.0323e-07	13.928	236.137	148.762	160.094	102.399	260.710	262.281	102.243	110.505	302.945	248.022	107.985	112.960	115.382	117.698	249.510	116.262	-8191	255	
1663.810	1	1	0	0	0.24871	0.26919	0.22414	0.12879	0.079003	0.054772	0.16075	0.32825	0.095126	0.10338	0.17798	0.14738	0.078745	0.11151	0.16861	0.28985	-1.7125	-1.9604	-2.2896	-2.2167	-2.0333	-2.4292	-2.0958	-2.25	-2.4062	-2.1375	-2.2625	-2.1688	-2.2417	-2.4437	-2.0833	-2.2208	141.389	252.653	341.633	196.962	333.697	258.619	382.643	207.106	391.986	145.687	373.498	333.853	287.963	163.319	251.534	418.683	0.00013895	0.00022007	2.8733e-05	206.16	4.8124e-07	7.1407e-07	460.91	32.728	1.3517e-06	6.491e-07	111.88	41.816	11.247	3.7079	1.9753e-06	15.047	5.0246e-05	2.7118e-05	7.092e-06	191.06	3.1996e-07	2.8082e-07	427.79	30.435	3.0645e-07	3.2256e-07	104.93	39.223	10.555	3.5135	3.3746e-07	14.054	238.269	160.162	226.649	102.624	247.977	168.142	102.428	109.575	247.686	234.393	107.044	113.005	114.457	118.916	284.539	116.203	-8191	255	
1663.931	1	1	0	0	0.27073	0.29302	0.17304	0.27693	0.18631	0.23333	0.38362	0.057662	0.20012	0.07808	0.29733	0.34044	0.2318	0.053738	0.11607	0.13218	-1.8021	-1.9729	-2.4167	-2.1688	-1.8708	-2.525	-2.0646	-2.175	-2.5333	-1.8667	-2.4833	-2.2542	-2.1625	-2.375	-2.1271	-2.1333	338.599	181.030	267.316	385.605	200.426	125.107	446.461	396.713	266.846	237.823	308.202	339.389	132.682	211.015	152.624	171.179	0.00013887	6.8546e-05	1.3342e-06	206.07	1.8449e-06	1.7492e-06	464.04	32.659	5.2448e-07	8.398e-07	113.29	41.982	11.617	3.8464	1.1215e-06	15.071	5.1932e-05	2.9456e-05	6.9662e-06	190.53	3.4362e-07	2.6856e-07	430.25	30.383	2.6769e-07	3.1036e-07	106.18	39.525	10.696	3.5667	3.1725e-07	14.221	239.159	149.811	254.390	102.162	259.497	279.352	102.339	109.394	287.204	255.736	107.308	113.084	113.139	118.068	236.730	116.278	-8191	255	
1664.027	1	1	0	0	0.18089	0.15967	0.035968	0.16466	0.050293	0.13019	0.03233	0.28235	0.33243	0.080506	0.059006	0.064593	0.17242	0.18179	0.12811	0.2689	-1.9125	-1.8875	-2.3833	-2.2438	-1.9271	-2.2792	-2.0771	-2.2438	-2.4646	-1.9896	-2.2917	-2.3937	-2.0271	-2.3479	-2.0833	-2.2729	150.017	287.441	399.618	372.236	256.611	265.589	351.857	340.120	324.798	272.360	175.788	157.544	368.265	166.838	287.697	240.535	0.00014913	0.00016236	3.2337e-05	204.39	7.4502e-07	2.2842e-07	464.93	33.143	1.1369e-06	7.3752e-07	113.65	42.081	11.398	3.7151	4.9958e-07	14.918	5.0812e-05	2.8583e-05	7.9254e-06	189.74	3.1562e-07	2.8237e-07	431.05	30.783	3.2066e-07	3.0017e-07	105.88	39.475	10.56	3.5341	3.1665e-07	14.093	237.693	164.296	195.345	102.583	288.643	227.747	102.470	109.639	224.956	255.948	107.620	113.078	114.493	119.574	307.838	116.379	-8191	255	
1664.123	1	1	0	0	0.066287	0.23099	0.1682	0.21691	0.10171	0.16056	0.020514	0.078034	0.19877	0.11697	0.2006	0.26848	0.098099	0.1391	0.10941	0.22298	-1.8813	-2.1042	-2.0938	-2.2458	-1.9271	-2.4479	-2.1625	-2.0771	-2.5833	-2.1167	-2.2604	-2.3771	-1.8896	-2.3021	-2.1125	-2.075	442.068	327.110	117.744	403.203	422.423	204.562	122.267	284.987	397.336	139.993	359.090	381.586	395.873	239.190	178.853	348.059	0.00014316	0.00012526	2.0962e-05	205.5	1.1892e-06	1.584e-06	461.89	32.332	6.3523e-07	9.8413e-07	113.41	42.266	11.113	3.7274	6.9682e-07	14.99	5.1216e-05	3.1062e-05	8.0158e-06	190.64	3.529e-07	2.726e-07	428.76	30.509	2.7817e-07	3.0727e-07	105.58	39.447	10.477	3.5371	2.9554e-07	14.033	236.321	203.802	138.978	101.922	228.712	201.504	101.998	109.279	275.461	241.801	107.533	113.135	114.691	118.249	213.907	116.535	-8191	255	
1664.219	1	1	0	0	0.28055	0.26354	0.095148	0.33067	0.23531	0.15864	0.23794	0.18087	0.087628	0.12561	0.2011	0.193	0.059452	0.18898	0.091804	0.14204	-1.9583	-1.8813	-2.1479	-2.4042	-1.925	-2.1208	-2.3292	-1.9479	-2.5146	-2.0646	-2.1042	-2.4208	-1.9625	-2.3604	-2.4583	-1.9354	347.421	356.557	287.915	172.178	427.074	352.655	425.379	314.603	201.208	184.041	189.450	336.574	391.596	236.754	104.621	194.864	0.00013896	0.00011872	3.4364e-05	205.99	1.7195e-07	6.2525e-07	463.32	32.5	9.3647e-07	2.1726e-06	113.05	41.553	11.3	3.6594	1.8608e-06	14.746	5.08e-05	2.7188e-05	6.9701e-06	190.89	3.3988e-07	2.861e-07	429.04	30.27	2.5991e-07	3.1052e-07	105.27	39.088	10.403	3.4826	2.6056e-07	13.989	241.312	164.585	209.992	102.628	245.223	268.180	101.893	109.440	249.892	283.473	107.021	113.218	114.036	118.500	279.368	116.570	-8191	255	
1664.340	1	1	0	0	0.12299	0.05527	0.27492	0.31243	0.10371	0.15685	0.16168	0.094966	0.10359	0.051822	0.32871	0.30431	0.20069	0.05391	0.12476	0.068037	-1.9125	-2.1063	-2.15	-2.4188	-1.8896	-2.2979	-2.2667	-2.2313	-2.3688	-2.0563	-2.0396	-2.4229	-1.8833	-2.0625	-2.3667	-1.8708	358.545	142.223	176.848	215.598	269.439	440.359	194.232	296.755	222.345	237.467	432.332	290.737	421.819	239.491	171.097	206.522	0.0001226	0.00012332	1.5841e-05	204.86	2.5755e-07	9.5486e-07	464.62	32.398	9.2155e-07	1.1213e-06	113.07	41.602	11.279	3.691	8.8902e-07	14.784	4.9484e-05	3.2119e-05	7.0959e-06	189.89	3.3778e-07	2.7523e-07	428.4	29.853	2.843e-07	2.7701e-07	105.03	39.168	10.405	3.5111	2.8378e-07	14.058	237.201	243.381	221.536	102.020	159.486	203.254	102.052	109.665	296.138	275.555	107.064	113.125	113.721	118.308	311.541	116.450	-8191	255	
1664.411	1	1	0	0	0.15381	0.17238	0.57209	0.32274	0.18794	0.10443	0.057775	0.13549	0.2332	0.078724	0.20624	0.28335	0.1004	0.1414	0.079803	0.11996	-1.9354	-2.0833	-2.0833	-2.3312	-2.0354	-2.2313	-2.3604	-1.8646	-2.3875	-2.2167	-2.1083	-2.4104	-1.8937	-2.1375	-2.2708	-2.0417	162.271	223.922	183.110	386.283	236.645	104.670	448.252	293.346	163.280	263.854	186.265	400.671	379.303	93.817	242.041	241.448	0.00013321	0.00027123	1.7402e-05	206.63	1.7375e-06	3.8323e-07	462.88	32.008	1.4402e-06	1.0184e-06	111.42	41.645	11.047	3.7261	7.1008e-07	14.578	5.0927e-05	2.7892e-05	8.4286e-06	190.71	3.4991e-07	2.9215e-07	430.12	29.794	2.9478e-07	2.696e-07	104.15	38.905	10.37	3.5067	2.7699e-07	13.85	231.718	215.495	202.264	102.508	252.171	189.264	102.242	108.955	257.692	221.431	107.420	112.520	115.394	118.419	169.012	116.008	-8191	255	
1664.507	1	1	0	0	0.20896	0.098273	0.24451	0.27688	0.053306	0.2356	0.10962	0.17855	0.26618	0.12902	0.056268	0.17497	0.18429	0.16807	0.18446	0.1421	-1.8229	-2.1354	-2.0062	-2.3458	-2.0479	-2.1229	-2.4021	-1.8854	-2.2375	-2.2042	-2.0292	-2.3521	-2.1458	-1.8375	-2.3646	-1.8979	141.777	128.197	146.315	412.940	169.521	218.567	380.409	209.590	285.012	395.923	330.777	376.612	316.097	228.382	337.892	397.029	0.00014663	7.3041e-05	4.2214e-05	204.14	2.1564e-06	9.4542e-07	464.35	31.928	1.2285e-06	1.1006e-07	111.44	41.244	11.334	3.6664	1.1958e-06	14.763	5.3709e-05	2.4018e-05	8.3696e-06	190.48	3.1682e-07	2.8998e-07	427.93	29.776	2.9253e-07	2.7747e-07	103.68	38.718	10.394	3.4612	3.064e-07	13.905	239.101	434.578	191.505	102.097	264.882	222.329	101.772	109.473	250.016	374.737	107.195	113.463	113.909	118.158	273.535	115.866	-8191	255	
1664.604	1	1	0	0	0.21821	0.084432	0.084446	0.31727	0.27694	0.20476	0.26598	0.20673	0.19957	0.13581	0.11193	0.18307	0.36889	0.04488	0.023908	0.11914	-1.8375	-2.2687	-1.775	-2.35	-2.0792	-2.0292	-2.4167	-1.9312	-2.125	-2.4958	-1.9979	-2.5042	-2.0354	-1.7792	-2.4396	-1.9479	254.798	290.820	140.967	302.878	101.296	138.689	311.127	308.677	350.812	97.136	332.648	93.708	406.359	179.647	251.682	349.050	0.00011635	0.00016456	4.7077e-05	204.3	1.9192e-06	2.0989e-07	459.61	32.147	1.0788e-06	1.4219e-06	110.89	41.232	11.118	3.6875	1.6262e-06	14.725	5.3594e-05	2.5934e-05	7.4418e-06	189.76	3.2011e-07	3.0457e-07	428.35	29.755	2.861e-07	2.7732e-07	103.86	38.769	10.352	3.4917	2.3312e-07	13.924	237.552	199.940	174.122	102.241	245.734	363.453	102.405	109.374	288.181	199.618	106.958	113.004	115.132	118.832	202.300	116.388	-8191	255	
1664.722	1	1	0	0	0.27919	0.20934	0.14782	0.20516	0.22538	0.17598	0.11379	0.18424	0.079757	0.43047	0.028808	0.17195	0.078027	0.089876	0.16923	0.22548	-1.6542	-2.3646	-1.975	-2.2021	-2.3125	-1.9708	-2.3854	-2.2167	-2.275	-2.5292	-1.9583	-2.4458	-2.1979	-1.8937	-2.2812	-2.0417	344.487	363.521	401.417	110.787	103.309	371.288	383.653	407.506	96.244	314.976	348.835	441.546	239.722	140.264	132.338	323.419	0.00013846	0.00021485	1.6097e-05	206.78	1.6268e-06	1.4591e-06	462.13	31.611	7.1529e-07	2.3457e-06	111.66	41.025	11.036	3.7223	6.4174e-07	14.938	5.2462e-05	2.7907e-05	8.0512e-06	191.38	2.6876e-07	3.0085e-07	427.73	29.793	3.2426e-07	2.7099e-07	103.97	38.727	10.322	3.5203	2.8604e-07	14.041	237.335	149.239	180.925	102.144	240.184	216.718	102.122	109.128	293.970	230.303	107.384	113.647	113.766	118.870	218.238	115.777	-8191	255	
1664.819	1	1	0	0	0.10355	0.19634	0.12411	0.28438	0.16678	0.12359	0.046671	0.094911	0.081934	0.10664	0.24418	0.17942	0.18945	0.040748	0.041807	0.13014	-1.5979	-2.35	-1.8937	-2.275	-2.2875	-1.9167	-2.4375	-2.1562	-2.2083	-2.4854	-2.1479	-2.1854	-2.225	-1.7979	-2.3688	-2.0833	109.890	442.022	163.362	372.827	261.510	307.261	449.980	130.827	390.158	198.836	115.575	158.911	418.390	404.459	296.333	211.943	0.0001377	0.00020119	4.8718e-05	204.38	7.2889e-07	7.1867e-07	461.13	32.08	9.9211e-07	1.8329e-06	112.34	41.796	11.197	3.7039	8.7226e-07	14.876	5.102e-05	2.8061e-05	7.6541e-06	189.91	2.7894e-07	2.9914e-07	428.02	29.844	3.0465e-07	2.6157e-07	103.93	38.908	10.356	3.4731	2.5423e-07	13.949	229.274	198.307	147.027	102.153	210.074	217.201	102.004	110.438	219.975	269.544	106.819	113.152	114.569	118.212	268.586	115.776	-8191	255	
1664.915	1	1	0	0	0.055939	0.14297	0.05962	0.17117	0.16584	0.19749	0.093341	0.1721	0.15407	0.037983	0.15858	0.096875	0.058944	0.25469	0.064327	0.12017	-1.6958	-2.3312	-2.1042	-2.1875	-2.2438	-2.0896	-2.2271	-2.0833	-1.9229	-2.5646	-1.9583	-2.2729	-2.2667	-1.9896	-2.3333	-2.1354	310.639	434.095	146.637	271.301	333.176	317.336	276.834	378.027	259.161	224.217	379.161	192.180	383.343	438.052	237.642	371.708	0.0001268	0.00013937	5.5232e-05	205.01	1.741e-06	1.1799e-06	461.56	31.953	1.7918e-06	1.2731e-06	111.33	41.881	11.204	3.6245	1.754e-06	14.795	5.3432e-05	2.5131e-05	7.1785e-06	189.79	3.1787e-07	2.9029e-07	426.44	29.902	3.25e-07	2.5447e-07	104.07	39.143	10.445	3.4954	2.9509e-07	13.955	236.427	201.888	163.122	101.898	262.420	204.059	102.182	109.163	261.885	221.559	107.475	113.170	114.570	117.567	241.549	116.895	-8191	255	
1665.011	1	1	0	0	0.048448	0.17983	0.090789	0.16424	0.19494	0.22766	0.37787	0.022389	0.077365	0.37772	0.15322	0.15829	0.36259	0.14936	0.19473	0.17162	-1.4333	-2.3479	-1.9583	-1.9104	-2.4854	-2.0271	-2.3292	-2.2708	-2.0396	-2.5208	-2.1479	-2.1729	-2.2833	-2.1646	-2.4188	-2.4708	214.936	430.125	417.809	298.462	269.227	291.416	128.564	160.009	294.763	206.382	258.011	224.177	95.252	165.676	149.931	297.846	0.00012595	0.00014533	1.1548e-05	204.35	1.7065e-06	1.1197e-06	463.06	32.329	1.295e-06	8.4399e-07	112.04	41.562	11.299	3.7569	1.2764e-06	14.958	5.297e-05	2.6568e-05	7.1706e-06	189.4	3.0409e-07	3.1203e-07	428.27	30.059	3.3817e-07	2.8272e-07	105.34	39.115	10.477	3.5498	3.1906e-07	14.063	237.960	178.861	268.927	102.350	279.694	198.494	102.457	109.448	239.421	193.319	107.363	113.571	115.031	118.558	277.253	116.465	-8191	255	
1665.107	1	1	0	0	0.12285	0.2221	0.060309	0.17391	0.21454	0.21533	0.17789	0.12	0.11286	0.11563	0.076914	0.23306	0.098724	0.44126	0.25158	0.10849	-1.4854	-2.4396	-2.0646	-1.9833	-2.2542	-2.1667	-2.2583	-2.2646	-1.9875	-2.4417	-2.1896	-2.0896	-2.3833	-1.8792	-2.2938	-2.2188	176.099	409.882	221.410	129.652	363.135	430.811	427.787	273.947	120.409	301.515	419.025	375.273	127.764	415.587	233.488	334.508	0.00014501	0.00012218	3.1746e-05	203.3	9.9535e-07	9.6399e-07	464.77	32.881	7.1645e-07	7.0458e-07	112.82	42.374	11.327	3.7116	9.5316e-07	14.823	5.4275e-05	2.7583e-05	7.6188e-06	189.62	3.1397e-07	2.8796e-07	428.85	30.216	3.1767e-07	2.7871e-07	105.46	39.585	10.546	3.5089	2.8001e-07	14.02	231.514	299.621	186.498	102.286	252.667	300.072	102.298	109.224	303.229	244.174	107.203	113.076	114.097	118.625	281.406	115.871	-8191	255	
1665.203	1	1	0	0	0.1913	0.20362	0.13595	0.39613	0.16196	0.14845	0.097525	0.23718	0.13429	0.15046	0.17474	0.25223	0.13712	0.19661	0.063589	0.13515	-1.4521	-2.2188	-2.0646	-1.9083	-2.375	-1.9854	-2.0312	-2.4896	-2.0479	-2.3896	-2.175	-1.8354	-2.3063	-1.9813	-2.1813	-2.4979	162.230	234.335	303.350	118.189	122.554	305.509	397.755	177.308	250.200	215.696	262.525	377.645	383.358	390.773	164.505	154.931	0.00012302	0.00016113	3.147e-05	202.82	1.545e-06	1.388e-06	462.75	32.562	8.3511e-07	1.5848e-06	113.09	42.12	11.173	3.7293	1.2374e-06	14.79	5.3536e-05	2.9794e-05	6.9583e-06	189.22	3.1323e-07	2.9386e-07	428.56	30.45	3.4102e-07	3.0851e-07	105.1	39.273	10.469	3.4966	2.886e-07	13.918	238.338	210.867	173.846	102.562	251.554	240.268	101.650	109.536	270.206	211.268	107.623	112.791	114.273	119.143	227.320	116.172	-8191	255	
1665.324	1	1	0	0	0.2484	0.089604	0.16732	0.18697	0.16162	0.15124	0.19236	0.069012	0.17394	0.34597	0.22934	0.062785	0.081121	0.038194	0.1649	0.087956	-1.3958	-2.1833	-2.1792	-1.8604	-2.3937	-2.15	-2.2917	-2.5729	-1.9229	-2.2375	-2.3438	-2.0104	-2.2542	-2.1417	-1.9771	-2.2479	262.441	318.751	103.250	164.015	112.496	339.860	126.146	179.884	389.813	297.811	401.841	96.175	359.883	115.583	348.471	425.338	0.00013994	0.00021331	3.1223e-05	204.07	1.0042e-06	3.6084e-07	458.98	32.259	6.3825e-07	5.4316e-07	113.23	41.444	11.337	3.7062	1.1658e-06	14.845	5.2243e-05	2.5512e-05	7.0291e-06	189.35	2.9346e-07	2.7648e-07	427.57	30.311	3.0899e-07	2.8581e-07	105.52	38.901	10.504	3.5008	3.0233e-07	13.911	236.065	205.164	222.054	102.284	286.398	250.878	102.289	109.389	253.908	209.496	107.160	113.150	114.793	119.174	277.153	116.553	-8191	255	
1665.420	1	1	0	0	0.20391	0.17637	0.37735	0.11545	0.098588	0.21561	0.10512	0.31626	0.36896	0.20563	0.2398	0.081803	0.086673	0.19397	0.17864	0.18717	-1.6229	-2.0396	-2.2333	-1.9417	-2.4417	-2.2271	-2.2687	-2.4437	-2.0812	-2.3833	-2.2854	-1.7812	-2.3396	-2.2313	-1.9562	-2.4625	123.354	135.185	218.628	277.218	255.601	301.007	200.184	148.712	444.351	243.890	377.394	96.887	393.014	244.773	381.750	127.250	0.00013511	0.00022341	2.1189e-05	205.58	8.2889e-07	1.2808e-06	465.04	32.273	1.2868e-06	1.2514e-06	112.76	41.387	11.166	3.6791	1.0645e-06	14.574	5.1989e-05	2.5202e-05	7.5126e-06	191.12	2.9436e-07	2.9355e-07	429.08	29.997	3.0166e-07	2.8257e-07	104.68	38.771	10.332	3.4646	2.9449e-07	13.811	238.905	144.240	112.274	102.111	275.047	238.436	102.212	109.435	269.678	251.092	107.506	113.444	114.259	118.207	216.582	116.697	-8191	255	
1665.516	1	1	0	0	0.098718	0.15552	0.069774	0.17686	0.15465	0.088583	0.090782	0.12392	0.22601	0.18911	0.073671	0.30368	0.10311	0.082313	0.336	0.10556	-1.6125	-2.1833	-2.4562	-1.9292	-2.4813	-2.1562	-2.0979	-2.3271	-2.1729	-2.0729	-2.3604	-1.8729	-2.4417	-2.2792	-2.0542	-2.2896	227.231	194.559	286.854	119.208	140.079	354.790	380.814	276.160	205.274	210.563	278.486	391.717	280.431	242.700	133.352	120.628	0.00013439	0.00023767	4.1714e-05	206.36	1.0647e-06	1.1496e-06	464.7	32.204	1.0253e-06	1.7214e-06	111.9	41.29	11.047	3.6994	1.2603e-06	14.558	5.3178e-05	2.8935e-05	6.0345e-06	190.26	2.9107e-07	2.8936e-07	428.5	29.996	3.3653e-07	2.8504e-07	104.59	38.602	10.223	3.4628	3.156e-07	13.721	236.470	205.522	202.340	102.102	290.941	223.036	102.549	109.486	267.195	286.688	106.938	112.530	114.876	118.895	254.538	115.848	-8191	255	
1665.611	1	1	0	0	0.32395	0.115	0.14544	0.19155	0.17164	0.14474	0.080189	0.11509	0.24814	0.32766	0.20346	0.11918	0.112	0.358	0.084834	0.035383	-1.6917	-2.1292	-2.3646	-2.0792	-2.2167	-2.3583	-1.8375	-2.225	-2.0875	-2.1063	-2.5167	-1.8896	-2.2583	-2.2354	-1.8438	-2.4917	113.411	329.142	107.512	344.517	274.341	217.213	229.199	197.236	144.636	317.037	96.858	197.773	170.757	274.059	224.106	330.056	0.00015343	7.7912e-05	2.579e-05	204.8	1.5604e-06	6.7616e-07	461.95	31.974	4.9506e-07	1.3469e-06	112.39	40.976	10.941	3.6386	7.1507e-07	14.439	5.267e-05	2.8667e-05	7.3868e-06	189.71	3.1098e-07	2.5598e-07	426.16	29.728	2.7323e-07	2.5848e-07	104.19	38.27	10.245	3.4242	3.0896e-07	13.628	240.020	191.959	206.898	102.062	235.835	236.425	102.291	108.805	218.381	298.729	107.094	113.490	114.447	118.915	246.022	116.395	-8191	255	
1665.707	1	1	0	0	0.15532	0.15706	0.25641	0.14013	0.20324	0.12091	0.069329	0.14962	0.084263	0.11771	0.19004	0.29851	0.12139	0.15129	0.11069	0.087834	-1.6979	-2.0146	-2.3563	-2.1271	-2.3417	-2.4458	-1.9188	-2.3292	-2.2292	-2.0354	-2.4625	-2.0687	-2.1708	-2.2667	-2.0938	-2.2396	123.402	297.141	239.848	413.209	222.938	373.626	382.321	249.730	383.320	229.193	334.856	235.271	275.131	417.455	451.129	272.335	0.00013611	0.00018983	1.8962e-05	202.64	1.8383e-06	1.3031e-06	456.25	31.756	3.903e-07	5.2654e-07	112.87	40.825	11.162	3.5754	1.7757e-06	14.515	5.1193e-05	2.5878e-05	6.6477e-06	189.19	3.0784e-07	3.0768e-07	424.75	29.558	2.8475e-07	2.7516e-07	104.25	38.266	10.291	3.3923	3.0595e-07	13.661	238.530	189.950	273.713	102.370	260.733	215.696	102.292	109.652	311.060	282.225	107.323	113.380	114.815	119.387	264.968	116.322	-8191	255	
1665.803	1	1	0	0	0.10568	0.095362	0.15541	0.15105	0.21637	0.12311	0.29853	0.14663	0.061412	0.13222	0.15965	0.36378	0.11662	0.042311	0.20664	0.050194	-1.7458	-1.9208	-2.2646	-2.2	-1.9729	-2.3896	-1.9479	-2.2792	-2.1292	-2.0375	-2.2479	-2.1292	-1.9937	-2.3958	-2.0958	-2.1917	403.070	372.543	391.947	274.500	208.354	292.533	185.649	239.152	206.767	128.156	332.713	300.353	154.132	150.729	316.646	254.146	0.00013204	0.0001377	4.7578e-05	203.45	1.1256e-06	1.9881e-06	460.29	31.881	5.9072e-07	1.0354e-06	110.7	41.032	10.784	3.552	5.8545e-07	14.681	5.1239e-05	2.7766e-05	6.9229e-06	189.17	3.0185e-07	2.7027e-07	426.53	29.585	2.6321e-07	2.8458e-07	103.65	38.379	10.105	3.4011	2.969e-07	13.734	232.296	204.018	184.271	102.113	272.717	261.464	102.157	110.278	313.194	297.659	107.680	112.719	114.339	118.485	330.252	116.198	-8191	255	
1665.899	1	1	0	0	0.26453	0.16403	0.12591	0.20143	0.021886	0.14346	0.064887	0.086051	0.24579	0.16126	0.1846	0.2414	0.1988	0.25602	0.14706	0.3704	-1.9188	-1.9542	-2.4437	-2.1708	-1.9583	-2.4938	-2.1729	-2.2396	-2.3646	-1.9813	-2.45	-2.1729	-2.025	-2.5917	-1.9125	-2.3625	330.665	98.664	284.271	303.011	432.216	305.588	391.971	245.956	388.909	141.313	392.836	366.635	414.317	345.783	271.964	361.446	0.00012423	7.9714e-05	5.7593e-05	204.4	8.9484e-07	1.2668e-06	458.94	32.047	8.7833e-07	1.0167e-06	111.52	40.834	11.169	3.5271	6.8035e-07	14.327	4.9323e-05	2.5695e-05	6.345e-06	189.13	2.7774e-07	2.5397e-07	425.35	29.735	3.0151e-07	2.8658e-07	103.88	38.319	10.198	3.3481	3.2344e-07	13.608	243.182	170.307	165.132	101.849	239.571	254.210	102.795	109.753	309.448	306.370	105.905	113.730	114.938	118.170	225.511	116.795	-8191	255	
1666.020	1	1	0	0	0.14255	0.20681	0.18405	0.22797	0.23635	0.16292	0.16743	0.2531	0.016148	0.076415	0.18901	0.12459	0.27151	0.057637	0.15585	0.24106	-1.9312	-1.9583	-2.2396	-2.0104	-2.0542	-2.6479	-2.1083	-2.2958	-2.5146	-2.0917	-2.3146	-2.2396	-2.1063	-2.3438	-2.225	-2.075	294.679	91.858	449.614	320.773	117.614	170.938	326.943	330.509	295.032	129.096	301.915	250.956	126.375	116.026	448.766	372.477	0.0001236	0.00015796	3.4296e-05	201.87	1.378e-06	2.2681e-06	459.53	31.363	1.0759e-06	9.6443e-07	111.79	40.729	10.829	3.56	1.1318e-07	14.55	4.9323e-05	2.9357e-05	6.9426e-06	188.03	3.2161e-07	2.7787e-07	425.02	29.306	2.5917e-07	3.116e-07	104.16	38.198	10.093	3.3591	2.886e-07	13.684	235.991	175.741	252.231	102.055	287.843	251.774	102.240	109.392	259.832	230.171	107.927	113.038	114.898	119.687	317.753	116.444	-8191	255	
1666.116	1	1	0	0	0.25374	0.16628	0.088804	0.11659	0.16333	0.10033	0.013015	0.20818	0.046052	0.20363	0.20123	0.053423	0.11533	0.098433	0.12903	0.11556	-1.7625	-1.8563	-2.2396	-2.2229	-2.0521	-2.4896	-2.1771	-2.0438	-2.4417	-2.0958	-2.4646	-2.3271	-1.9813	-2.3729	-1.9542	-1.9917	164.691	125.683	339.924	361.134	287.820	349.600	202.603	320.091	333.637	327.775	420.420	269.087	245.517	422.980	207.765	195.055	0.00012738	0.00010655	4.6108e-05	204.09	1.926e-06	1.0093e-06	460.1	31.632	8.4658e-07	1.3755e-06	110.79	40.626	11.024	3.5814	1.2189e-06	14.538	4.7418e-05	3.0245e-05	7.2296e-06	187.75	3.1502e-07	2.535e-07	425.75	29.305	2.9119e-07	2.9307e-07	103.66	38.32	10.154	3.3947	2.8152e-07	13.726	234.579	139.954	165.556	102.389	283.053	241.009	102.136	109.813	247.291	239.591	107.061	113.162	114.354	118.369	240.889	116.092	-8191	255	
1666.212	1	1	0	0	0.15757	0.04319	0.27804	0.39481	0.14175	0.086608	0.20618	0.17209	0.13356	0.16492	0.021418	0.081173	0.1498	0.21107	0.065113	0.15508	-1.8104	-1.9854	-2.3667	-2.2062	-1.8958	-2.5062	-2.2604	-2.1063	-2.5521	-2.1396	-2.2833	-2.3521	-1.9646	-2.2375	-2.2812	-1.9604	254.500	110.282	158.174	119.001	395.780	175.353	341.460	355.315	329.533	196.055	149.696	419.186	388.917	320.730	420.764	239.558	0.00011781	0.00017908	4.0285e-06	201.86	2.2463e-06	9.0003e-07	457.52	31.567	1.2536e-06	1.1951e-06	112.31	41.311	10.952	3.561	1.8463e-06	15.12	4.9681e-05	2.6512e-05	6.8128e-06	187.35	3.1038e-07	2.4294e-07	426.53	29.449	2.6545e-07	3.1855e-07	104.53	38.524	10.203	3.3984	2.6795e-07	13.984	236.084	188.763	192.575	101.718	255.368	259.469	102.366	109.363	256.262	215.294	106.914	112.381	114.725	118.411	254.721	115.741	-8191	255	
1666.284	1	1	0	0	0.10868	0.19273	0.23912	0.21283	0.34627	0.26763	0.14181	0.1549	0.048364	0.10538	0.21283	0.031562	0.10026	0.27409	0.084658	0.24819	-1.8271	-1.9271	-1.9771	-2.2917	-1.7938	-2.4042	-2.3833	-1.9604	-2.3375	-2.1188	-2.0354	-2.4208	-1.8563	-2.2896	-2.1667	-1.9333	155.514	96.175	378.235	181.252	378.871	242.050	387.253	346.185	220.761	213.220	232.147	204.997	240.293	309.694	168.885	144.287	0.00012683	7.9535e-05	1.4627e-05	200.29	1.931e-06	1.3196e-06	462.27	31.733	9.1929e-07	1.1341e-06	112.29	41.675	11.035	3.5945	9.5001e-07	14.555	4.9715e-05	2.6202e-05	7.6463e-06	187.32	3.3883e-07	2.535e-07	427.84	29.638	2.6829e-07	2.7114e-07	104.49	38.762	10.266	3.4266	2.4503e-07	13.853	235.091	178.746	176.575	102.508	277.035	235.956	101.877	109.595	283.698	284.263	107.808	113.201	115.619	119.414	341.950	116.630	-8191	255	
1666.404	1	1	0	0	0.17425	0.059749	0.31884	0.25192	0.11988	0.18219	0.30455	0.39851	0.1061	0.073605	0.078921	0.15882	0.2659	0.36371	0.23068	0.17424	-2.0604	-1.9312	-2.0708	-2.2875	-1.8312	-2.2083	-2.4042	-1.9417	-2.2313	-2.1854	-2.075	-2.3042	-1.9792	-2.1083	-2.2583	-1.9312	190.654	299.495	354.428	101.663	144.449	318.990	280.157	407.720	197.884	391.733	354.531	111.483	134.672	186.116	91.677	440.562	0.00014547	0.00024698	2.3526e-05	205.19	1.8378e-06	9.0255e-07	461.34	32.748	3.5173e-07	6.598e-07	111.74	41.653	11.12	3.6381	1.7768e-06	14.748	5.1458e-05	2.7385e-05	7.6266e-06	189.29	3.5635e-07	3.142e-07	427.16	29.895	2.9283e-07	2.9585e-07	104.8	38.905	10.386	3.469	3.1168e-07	13.944	238.292	143.020	184.278	102.401	256.285	255.681	102.419	108.764	215.655	203.064	106.919	112.622	114.481	118.825	275.012	116.883	-8191	255	
1666.500	1	1	0	0	0.25332	0.080848	0.04537	0.040859	0.23037	0.28483	0.29123	0.12604	0.20153	0.30618	0.066611	0.19561	0.060009	0.16495	0.33468	0.18103	-1.8292	-2.1021	-2.0083	-2.4979	-2.1312	-2.025	-2.3021	-1.9042	-2.3688	-2.125	-1.9292	-2.4979	-2.0687	-2.0583	-2.3792	-2.0479	366.939	216.297	398.369	151.918	449.766	108.026	294.669	199.709	148.973	387.689	119.759	157.372	327.851	191.892	173.388	214.363	0.000128	0.00019609	5.6953e-05	204.22	1.0334e-06	1.8491e-06	461.19	31.68	5.4169e-07	7.569e-07	111.95	42.12	11.157	3.7064	6.6693e-07	14.867	4.8249e-05	2.5061e-05	8.0355e-06	188.79	3.1308e-07	2.9619e-07	427.98	29.783	2.9672e-07	2.8473e-07	104.82	39.291	10.475	3.5077	2.6599e-07	14.029	240.818	146.295	170.420	102.228	223.884	259.417	101.985	108.690	237.939	233.116	107.424	112.675	113.595	118.549	257.004	116.875	-8191	255	
1666.596	1	1	0	0	0.051925	0.029762	0.04962	0.082868	0.25335	0.19198	0.080392	0.30753	0.15061	0.11374	0.04788	0.13735	0.23504	0.23279	0.19779	0.12966	-1.775	-2.2708	-1.875	-2.3292	-2.3271	-2.1083	-2.4333	-1.9229	-2.425	-2.3458	-2.15	-2.3146	-2.1896	-2.0792	-2.4	-2.1083	253.112	243.260	437.929	417.357	180.715	346.272	365.672	291.735	392.579	349.347	205.441	149.837	377.695	360.935	112.408	408.239	0.00012953	0.000223	3.3206e-05	202.9	1.4683e-06	1.4188e-06	460.62	32.131	1.3862e-06	6.2903e-07	114.14	42.263	11.268	3.7572	1.052e-06	14.91	5.0777e-05	2.5484e-05	7.2925e-06	188.08	3.2176e-07	2.951e-07	427.99	30.074	3.1199e-07	2.9816e-07	106.01	39.386	10.516	3.548	3.1439e-07	14.111	239.033	178.677	182.483	102.035	210.970	269.512	102.129	109.530	257.490	303.856	107.085	113.428	114.084	118.329	230.480	116.590	-8191	255	
1666.693	1	1	0	0	0.24072	0.26199	0.21716	0.25788	0.37242	0.3113	0.044597	0.19641	0.077766	0.21257	0.14982	0.20431	0.30049	0.25722	0.2962	0.13211	-1.8167	-2.1104	-2.0208	-2.3917	-2.2	-2.1417	-2.4583	-2.0938	-2.2479	-2.3937	-2.0458	-2.3292	-2.2812	-2.025	-2.5458	-2.1521	299.928	439.960	159.896	286.020	242.561	135.758	104.478	262.539	219.578	413.811	360.352	311.288	141.874	127.736	206.863	411.904	0.00013138	0.00010333	2.3191e-05	203.05	1.538e-06	1.4298e-06	467.73	32.007	4.3511e-07	1.2351e-06	114.48	41.975	11.285	3.7158	1.0019e-06	14.979	5.4078e-05	2.6582e-05	7.8153e-06	189.15	2.8852e-07	3.0442e-07	430.99	29.987	3.1468e-07	2.6419e-07	106.23	39.46	10.536	3.5452	2.7338e-07	14.123	234.670	192.563	236.748	102.720	242.765	208.897	102.382	109.384	142.717	279.442	107.393	113.292	114.829	117.930	267.713	116.253	-8191	255	
1666.812	1	1	0	0	0.47489	0.052996	0.1519	0.10856	0.15917	0.039307	0.24448	0.088889	0.09061	0.07014	0.1754	0.069248	0.14347	0.13485	0.30185	0.19601	-1.725	-2.4437	-2.0917	-2.3458	-2.1667	-2.1104	-2.6396	-2.3354	-2.0812	-2.5104	-2.1479	-2.4562	-2.3458	-2.1271	-2.4896	-2.1667	368.532	184.076	334.079	300.374	370.612	109.010	336.590	283.516	162.793	363.828	242.247	396.764	101.128	114.758	124.938	131.033	0.00014418	0.00018805	5.6405e-05	203.61	1.6164e-06	1.1523e-06	463.9	32.22	1.0619e-06	5.1685e-07	114.67	41.549	11.18	3.6823	1.3611e-06	14.861	5.6225e-05	2.7061e-05	9.435e-06	189.1	3.1098e-07	2.7399e-07	429.02	30.039	2.8221e-07	2.4196e-07	105.9	39.193	10.466	3.5222	2.8348e-07	14.025	238.275	202.079	159.767	101.966	280.806	252.240	102.316	109.347	254.351	262.101	107.076	113.418	115.191	119.161	249.601	116.517	-8191	255	
1666.908	1	1	0	0	0.068681	0.029824	0.1105	0.25529	0.075393	0.063609	0.20693	0.21402	0.13776	0.23735	0.1236	0.030009	0.1852	0.12149	0.13582	0.25128	-1.6979	-2.5646	-1.8896	-2.4229	-2.2646	-2.0458	-2.4979	-2.2354	-2.075	-2.4208	-2.0958	-2.2854	-2.4458	-1.8854	-2.2562	-2.0833	127.396	232.627	235.754	411.504	228.629	152.468	436.802	261.980	367.469	313.301	399.332	191.025	398.559	193.376	325.971	118.931	0.00015026	0.00019171	1.387e-05	205.01	1.1157e-06	7.1329e-07	464.6	32.012	5.9685e-07	1.0183e-06	112.63	41.34	11.596	3.7807	1.6213e-06	14.955	5.3894e-05	2.6146e-05	7.5087e-06	190.39	3.0289e-07	3.2025e-07	429.83	29.894	2.9837e-07	2.5709e-07	105.44	39.036	10.572	3.5449	2.586e-07	14.026	232.715	224.062	236.046	102.444	287.335	222.762	102.152	109.709	283.954	204.639	106.939	113.495	114.005	118.382	255.811	116.676	-8191	255	
1667.004	1	1	0	0	0.15324	0.25797	0.091678	0.25245	0.11487	0.12881	0.20348	0.12578	0.34703	0.30297	0.11248	0.20471	0.099311	0.20373	0.021806	0.14353	-1.8167	-2.2167	-1.9625	-2.1646	-2.3917	-2.0312	-2.3604	-2.2125	-2.05	-2.4979	-2.0396	-2.3292	-2.4188	-2.0104	-2.3854	-2.0271	395.800	129.843	361.783	396.561	276.170	407.364	281.090	403.106	154.836	131.446	336.297	317.744	99.276	389.325	390.441	280.843	0.00014803	0.00013443	1.3565e-05	205.19	1.0767e-06	1.5348e-06	469.35	32.173	7.3034e-07	1.6111e-06	113.46	41.599	11.255	3.7572	3.9001e-07	14.908	5.551e-05	2.592e-05	7.5008e-06	190.79	3.0215e-07	2.8191e-07	431.07	30.124	3.0884e-07	2.6605e-07	106	39.251	10.446	3.5507	2.7066e-07	14.106	244.206	184.623	181.893	102.041	240.357	220.292	101.611	109.928	230.874	214.292	106.492	113.006	113.718	118.308	285.085	116.401	-8191	255	
1667.100	1	1	0	0	0.1081	0.23515	0.17559	0.11825	0.16878	0.093524	0.36142	0.26157	0.40116	0.25726	0.25684	0.083274	0.055398	0.12193	0.176	0.24142	-1.5604	-2.3563	-2.2333	-2.1021	-2.475	-1.7021	-2.2708	-2.1312	-1.8875	-2.4292	-2.2125	-2.1833	-2.3854	-1.9396	-2.1104	-2.3312	227.268	155.068	342.218	203.696	150.220	241.905	391.213	100.825	140.041	135.565	325.466	385.376	217.407	228.723	404.342	99.580	0.00014401	0.00017183	9.7933e-06	206.16	8.896e-07	1.5702e-06	461.57	31.846	1.3538e-06	1.1447e-06	113.08	41.539	11.125	3.6306	1.3627e-06	14.716	5.4598e-05	2.8259e-05	7.0841e-06	190.31	3.0963e-07	2.9371e-07	429.66	29.901	3.3398e-07	2.7547e-07	105.53	38.937	10.369	3.4643	2.9102e-07	13.932	233.128	165.331	199.776	102.085	351.584	239.474	102.330	109.493	250.793	285.179	107.174	113.198	113.770	118.750	223.869	116.157	-8191	255	
1667.196	1	1	0	0	0.14171	0.036722	0.19122	0.13126	0.10683	0.19788	0.11139	0.31188	0.15234	0.28447	0.12314	0.19583	0.27472	0.12133	0.19972	0.46456	-1.5625	-2.3104	-2.0625	-2.0229	-2.4896	-1.9771	-2.2938	-2.3646	-2.0271	-2.4354	-2.1458	-1.9646	-2.4958	-2.1125	-2.1688	-2.3375	119.517	402.579	260.599	197.934	114.149	364.090	383.955	277.909	101.294	196.687	441.445	373.006	444.475	246.636	239.432	374.219	0.00014169	9.277e-05	2.8076e-05	204.68	1.6096e-06	1.1451e-06	462.49	32.331	1.5462e-06	1.3948e-06	112.84	41.415	11.233	3.6963	1.2435e-06	14.784	5.2924e-05	2.7442e-05	7.1588e-06	190.41	3.1442e-07	3.2087e-07	430.46	30.058	3.2096e-07	2.2683e-07	105.07	38.78	10.375	3.4691	2.6161e-07	13.925	230.828	157.913	227.757	102.503	235.391	248.422	101.801	109.363	251.891	248.140	107.319	112.954	113.924	119.440	330.465	116.635	-8191	255	
1667.292	1	1	0	0	0.17207	0.12256	0.12463	0.26876	0.23247	0.074863	0.15672	0.16477	0.024253	0.20194	0.013061	0.13726	0.042679	0.19516	0.17356	0.11032	-1.5187	-2.3104	-2.0354	-2.1042	-2.2646	-2.1229	-2.2375	-2.4021	-2.0167	-2.1875	-2.2271	-2.0333	-2.4875	-2.0396	-2.2646	-2.4167	351.994	393.706	231.668	352.530	200.399	143.174	450.430	402.040	364.060	390.637	152.845	422.589	437.077	410.058	424.381	438.384	0.00013744	0.00026659	3.4794e-05	205.38	1.9302e-06	1.1489e-06	466.75	31.816	1.5979e-06	2.0334e-07	112.15	41.331	10.99	3.6941	2.0595e-06	14.742	4.8307e-05	2.6568e-05	6.7932e-06	189.85	2.975e-07	2.667e-07	431.01	29.921	3.3204e-07	2.5771e-07	105.13	38.818	10.359	3.4646	3.0248e-07	13.886	240.899	191.699	149.506	102.565	235.813	186.742	102.589	109.523	295.772	247.711	107.077	113.111	113.408	118.952	291.480	116.369	-8191	255	
1667.413	1	1	0	0	0.30788	0.2439	0.10583	0.18036	0.23106	0.011013	0.080172	0.12359	0.1985	0.060762	0.21108	0.099264	0.16252	0.023754	0.10775	0.17332	-1.35	-2.2229	-2.2854	-2.0104	-2.4	-2.1521	-2.0667	-2.5625	-2.0958	-2.3583	-2.3729	-2.1042	-2.4708	-2.0125	-2.0292	-2.6	94.595	281.271	325.716	419.018	161.743	421.575	165.919	393.294	251.771	246.384	114.177	96.301	338.788	205.569	178.892	398.817	0.000165	0.0001342	3.2267e-05	207.09	1.6459e-06	9.8652e-07	467.58	32.34	1.1424e-06	2.8643e-07	114.79	41.633	11.161	3.658	6.5449e-07	14.896	5.6999e-05	2.3737e-05	6.6713e-06	190.37	2.7714e-07	2.9231e-07	432.07	30.075	3.0914e-07	2.7222e-07	106.11	39.193	10.41	3.4936	2.9268e-07	13.996	241.911	137.091	211.578	102.262	282.491	411.593	102.507	109.412	299.607	389.840	107.113	113.528	115.162	117.988	272.048	115.773	-8191	255	
1667.507	1	1	0	0	0.14714	0.34762	0.15623	0.17986	0.080229	0.17883	0.099872	0.26158	0.19055	0.072014	0.40073	0.15105	0.13784	0.022835	0.086271	0.14678	-1.5417	-2.2708	-2.3125	-1.7271	-2.3396	-2.1354	-1.9688	-2.5583	-2.0312	-2.3438	-2.3438	-1.8729	-2.2667	-2.3729	-2.0333	-2.4104	324.959	228.675	101.767	139.570	401.105	284.310	144.010	432.373	410.969	97.776	342.673	167.997	392.038	329.522	92.014	327.719	0.00013063	0.00017169	5.1052e-05	204.74	1.1722e-06	1.4485e-06	463.44	32.545	1.2725e-06	1.681e-06	113.67	41.812	11.301	3.675	7.4103e-07	14.751	5.0685e-05	2.5498e-05	7.5912e-06	190.5	3.02e-07	2.8206e-07	430.32	30.181	3.3593e-07	2.7346e-07	105.85	39.062	10.463	3.5	3.1333e-07	13.845	236.621	172.395	148.417	102.382	282.228	223.318	101.926	109.673	262.267	247.846	106.447	113.082	115.080	118.206	290.230	116.107	-8191	255	
1667.581	1	1	0	0	0.18611	0.10293	0.09491	0.14902	0.022669	0.25384	0.12407	0.15136	0.17021	0.19654	0.1525	0.17298	0.21642	0.17139	0.194	0.081776	-1.5417	-1.9771	-2.225	-1.8417	-2.4333	-2.2021	-1.7854	-2.4417	-1.8625	-2.0792	-2.3937	-2.025	-2.4417	-2.2583	-2.1	-2.3937	250.483	133.040	189.218	443.146	420.941	150.429	238.349	142.522	300.380	252.688	178.629	136.609	351.307	360.551	237.517	92.802	0.00012829	0.00020933	4.8659e-05	205.11	1.5514e-06	1.4583e-06	463.17	32.172	2.7082e-07	1.3204e-06	113.6	41.992	11.349	3.7281	8.8988e-07	14.935	5.2578e-05	2.6695e-05	7.0212e-06	190.14	3.246e-07	2.7213e-07	428.56	30.246	3.265e-07	3.1978e-07	105.88	39.34	10.553	3.5539	3.1786e-07	13.952	236.112	211.430	214.454	102.229	254.794	240.508	102.241	109.913	203.380	221.674	106.805	112.954	114.764	119.171	240.802	115.811	-8191	255	
1667.677	1	1	0	0	0.10904	0.22647	0.22516	0.050505	0.07724	0.11334	0.068646	0.14139	0.31832	0.058696	0.049887	0.13414	0.165	0.28315	0.12827	0.17725	-1.8542	-2.0729	-2.5208	-1.9688	-2.1937	-2.3979	-2.1063	-2.2854	-2.1604	-2.1146	-2.4625	-2	-2.2167	-2.35	-2.025	-2.4333	427.263	158.308	97.394	121.837	265.353	121.587	218.104	386.745	278.553	103.112	295.372	342.292	275.688	248.112	115.416	223.488	0.00014358	0.00017274	2.781e-05	204.71	7.5072e-07	1.0626e-06	465.97	32.528	6.4982e-07	7.8257e-07	114.84	42.13	11.433	3.7566	1.0733e-06	14.859	5.4563e-05	2.6399e-05	6.7814e-06	190.17	2.9496e-07	2.4077e-07	430.9	30.52	2.6126e-07	2.6512e-07	106.1	39.369	10.702	3.5552	3.1997e-07	14.129	234.221	181.579	175.633	102.187	280.040	219.795	102.536	109.343	248.123	259.961	107.510	113.198	114.119	118.788	254.250	116.159	-8191	255	
1667.796	1	1	0	0	0.25966	0.096896	0.21431	0.10498	0.18718	0.35965	0.14422	0.32016	0.21603	0.12139	0.17278	0.14222	0.08967	0.068855	0.37652	0.32541	-1.8563	-2.0896	-2.4729	-1.9292	-2.2062	-2.5062	-2.0833	-2.3937	-2.2104	-2.0563	-2.3917	-2.0146	-2.1063	-2.1167	-1.9729	-2.3021	409.942	396.281	283.164	414.511	162.451	194.363	341.598	448.438	167.679	293.018	384.798	108.948	205.941	120.154	327.407	103.078	0.00013227	0.00022462	3.6549e-05	205.39	1.5639e-06	4.365e-07	467.21	32.649	8.4553e-07	1.3822e-06	116.02	42.404	11.645	3.8409	5.9696e-07	14.874	5.207e-05	2.9696e-05	7.0251e-06	189.89	3.2505e-07	2.7772e-07	430.52	30.492	3.1034e-07	2.6481e-07	107.18	39.739	10.789	3.5872	3.4455e-07	14.055	238.024	193.460	173.797	102.463	238.817	247.408	102.095	109.754	267.162	211.973	107.132	113.828	116.101	119.068	228.571	116.521	-8191	255	
1667.892	1	1	0	0	0.08335	0.037852	0.14934	0.20635	0.13322	0.041784	0.093725	0.083048	0.096902	0.39391	0.18956	0.21078	0.050171	0.07923	0.23636	0.23905	-1.7479	-2.0583	-2.3812	-2.2896	-2.2146	-2.325	-1.9937	-2.2938	-2.2583	-1.9292	-2.4333	-2.2833	-2.0208	-2.3688	-2.1375	-2.4313	397.365	188.556	375.391	432.568	151.304	392.133	302.904	420.253	340.746	105.358	146.880	122.081	93.318	401.414	99.028	235.320	0.00012823	0.00014766	3.3969e-05	203.37	8.0684e-07	8.3562e-07	468.01	32.664	1.5454e-06	1.8005e-06	114.19	41.747	11.492	3.7076	9.2057e-07	14.724	4.9646e-05	3.1935e-05	6.4354e-06	190.27	3.1023e-07	2.3441e-07	430.42	30.555	2.8535e-07	3.0944e-07	105.96	39.12	10.736	3.5237	3.0037e-07	13.832	234.882	230.473	147.387	102.309	237.155	224.512	102.468	110.442	195.449	231.633	106.933	113.033	115.336	117.905	183.750	116.214	-8191	255	
1667.988	1	1	0	0	0.18417	0.11836	0.17083	0.16522	0.14445	0.01325	0.32102	0.11288	0.16262	0.31104	0.28544	0.04957	0.16105	0.20763	0.21866	0.20839	-1.9167	-1.975	-2.4625	-2.2812	-2.1854	-2.4625	-2.0563	-2.2917	-2.2625	-2.0125	-2.4	-2.275	-1.9042	-2.4917	-2.0083	-2.3667	404.949	188.191	146.299	225.249	390.467	130.786	203.340	97.082	132.907	196.409	210.350	429.659	364.037	403.213	448.783	116.756	0.00013578	2.1183e-05	6.5999e-06	204.94	1.5241e-06	6.6041e-07	467.97	32.845	5.3425e-07	1.0503e-06	113.57	41.544	11.331	3.7057	1.9236e-06	14.512	5.0823e-05	2.9836e-05	6.7303e-06	191.74	3.1173e-07	2.698e-07	430.02	30.538	3.0525e-07	2.6867e-07	105.69	38.788	10.559	3.5312	3.0429e-07	13.74	234.354	195.122	216.094	101.861	234.149	224.332	102.080	108.905	246.878	328.723	107.028	113.063	114.176	118.580	222.636	116.809	-8191	255	
1668.084	1	1	0	0	0.13187	0.086366	0.090775	0.26299	0.050283	0.17502	0.068739	0.051628	0.098445	0.12124	0.22947	0.17874	0.13749	0.087429	0.033145	0.091499	-1.9542	-1.9562	-2.3625	-2.075	-2.1479	-2.4042	-2.1208	-2.1458	-2.5708	-2.0146	-2.4917	-2.3063	-1.9271	-2.3187	-2.2979	-2.2625	373.361	207.836	357.294	372.437	216.800	373.828	279.555	396.447	320.521	377.046	428.685	109.989	173.054	199.081	144.797	391.898	0.00013491	0.00014488	4.9115e-05	206.12	1.8162e-06	8.7609e-07	463.06	32.443	1.3164e-06	7.0203e-07	115.54	41.247	11.487	3.6553	1.1465e-06	14.849	5.1643e-05	2.7695e-05	7.0998e-06	191.01	3.4227e-07	2.7849e-07	428.47	30.361	2.6755e-07	2.8566e-07	106.38	38.783	10.633	3.4843	2.7036e-07	13.855	241.274	184.483	179.811	102.527	276.792	313.890	101.926	109.251	310.047	251.206	106.941	113.492	115.730	118.958	301.812	116.787	-8191	255	
1668.180	1	1	0	0	0.29036	0.24337	0.10755	0.15431	0.11271	0.045876	0.11871	0.062426	0.1643	0.40743	0.24812	0.20063	0.044916	0.12627	0.13775	0.076763	-2.0979	-2.0062	-2.1875	-2.275	-2.0021	-2.575	-2.1667	-2.2417	-2.5938	-2.2271	-2.2896	-2.3438	-2.1562	-2.0604	-2.2021	-1.8604	321.867	296.743	393.446	329.964	226.353	361.349	403.612	249.413	320.278	392.840	99.635	234.258	135.244	258.095	319.378	440.450	0.00011869	0.00022297	2.8053e-05	207.96	1.2207e-06	1.3269e-06	463.5	32.357	5.0028e-07	8.7203e-07	114.22	41.629	11.512	3.7155	8.8566e-07	14.688	4.9173e-05	2.6244e-05	6.4944e-06	192.23	3.1802e-07	2.6049e-07	430.05	30.503	2.9687e-07	2.6836e-07	106.6	38.823	10.573	3.5255	2.6237e-07	13.797	241.607	176.271	142.390	103.129	276.846	192.465	102.390	109.840	319.729	208.047	106.954	112.982	113.244	119.366	310.307	116.126	-8191	255	
1668.276	1	1	0	0	0.241	0.27943	0.17024	0.10424	0.066174	0.087316	0.35879	0.24104	0.14435	0.18951	0.068299	0.080076	0.15183	0.11388	0.13928	0.30978	-1.9354	-1.9125	-2.0125	-2.2271	-2.0604	-2.4458	-2.1854	-2.025	-2.275	-2.2604	-2.0542	-2.4979	-1.8729	-2.3812	-2.3146	-1.9104	299.132	371.534	257.933	290.248	247.358	387.887	403.927	429.548	441.572	410.992	244.038	440.978	171.215	120.393	383.923	244.084	0.0001431	0.00020554	6.958e-06	207.63	1.7919e-06	1.0777e-06	464.24	33.379	9.5346e-07	1.358e-06	113.87	41.095	11.411	3.6977	1.0516e-06	14.621	5.2324e-05	3.0865e-05	7.32e-06	191.62	3.258e-07	2.3767e-07	428.98	30.447	2.8924e-07	2.4999e-07	105.66	38.422	10.532	3.4874	2.8634e-07	13.718	235.073	178.145	145.449	102.183	212.726	217.979	101.988	109.592	214.458	239.722	107.260	113.154	115.060	118.752	236.239	116.772	-8191	255	
1668.373	1	1	0	0	0.21123	0.21456	0.11644	0.10884	0.121	0.054573	0.059228	0.16448	0.15459	0.15577	0.076371	0.26342	0.36317	0.2277	0.23042	0.23542	-2.0312	-2.2333	-2.1688	-2.3312	-2.0708	-2.3187	-2.2667	-2.0229	-2.5917	-2.0667	-2.1417	-2.3771	-2.0396	-2.3021	-2.2604	-1.9229	282.499	192.091	187.725	420.292	141.361	209.533	264.043	171.974	100.241	309.371	319.369	188.867	317.552	329.836	436.481	303.210	0.00014153	0.00016833	6.3369e-06	205.54	7.3611e-07	1.434e-06	460.23	32.394	6.6001e-07	5.8101e-07	113.22	40.811	11.109	3.6591	1.1738e-06	14.474	5.0269e-05	2.6864e-05	6.4394e-06	190.1	3.3793e-07	2.6188e-07	426.93	30.246	2.9568e-07	2.7593e-07	105.44	38.408	10.361	3.4152	3.0142e-07	13.62	234.937	202.747	442.055	102.439	339.430	246.746	101.895	109.692	302.796	237.906	107.286	113.073	115.395	117.838	264.586	116.690	-8191	255	
1668.493	1	1	0	0	0.14388	0.045244	0.073501	0.11446	0.12169	0.213	0.27507	0.088813	0.18951	0.19792	0.2448	0.13649	0.35636	0.31469	0.16581	0.047152	-2.0146	-2.2896	-2.1021	-2.3854	-1.9708	-2.2479	-2.3896	-2.1312	-2.3521	-2.3312	-2.0792	-2.4813	-1.9792	-2.1958	-2.3292	-2.0938	294.857	415.078	274.283	115.954	284.418	379.688	112.986	260.212	365.217	158.552	136.063	342.453	239.763	173.199	278.788	415.731	0.00013108	6.4299e-05	6.5749e-05	205.92	1.0944e-06	9.0165e-07	462.32	32.091	1.4319e-06	3.1211e-06	112.42	40.758	11.267	3.6356	1.1687e-06	14.425	4.9277e-05	2.3906e-05	6.9858e-06	190.66	2.9032e-07	2.5164e-07	427.63	29.987	2.6291e-07	2.767e-07	105.81	38.328	10.469	3.4243	2.5784e-07	13.595	239.000	151.341	196.013	102.577	253.271	337.586	102.157	109.728	260.221	221.619	107.218	112.815	114.558	118.635	244.872	115.595	-8191	255	
1668.589	1	1	0	0	0.16735	0.26183	0.10966	0.32481	0.18547	0.083546	0.19476	0.074446	0.28997	0.1234	0.18578	0.1369	0.1431	0.071375	0.093151	0.17783	-1.9188	-2.15	-2.0812	-2.5854	-2.0771	-2.2042	-2.6312	-2.2062	-2.3729	-2.275	-2.1771	-2.2542	-2.0687	-2.1417	-2.4208	-1.9146	272.803	141.325	292.128	414.191	216.036	414.606	425.085	436.115	414.403	95.728	227.294	213.246	150.532	363.306	267.309	205.807	0.0001301	0.00010832	3.3358e-05	204.55	5.7138e-07	7.6843e-07	459.67	32.508	6.4096e-07	1.8245e-06	113.54	41.709	11.292	3.6212	1.6363e-06	14.469	5.2312e-05	2.5779e-05	6.2074e-06	189.83	3.0095e-07	3.2212e-07	427.68	30.446	2.3792e-07	2.6466e-07	105.9	38.635	10.535	3.4658	2.6915e-07	13.65	236.540	135.893	215.190	101.821	295.443	209.752	102.206	109.666	249.461	235.058	106.786	112.339	113.042	118.364	269.545	115.825	-8191	255	
1668.686	1	1	0	0	0.19136	0.19762	0.12662	0.16891	0.21302	0.16543	0.16937	0.45374	0.10271	0.17512	0.16142	0.35555	0.15818	0.2442	0.35887	0.38484	-1.7563	-2.3271	-2.0125	-2.4271	-2.2313	-2.2479	-2.2854	-2.0146	-2.3271	-2.2417	-1.9958	-2.3667	-2.1063	-2.125	-2.4688	-2.1833	228.001	93.030	192.656	353.964	150.530	97.297	151.448	222.259	305.673	380.190	240.151	287.548	342.815	318.750	132.871	218.631	0.00015306	9.939e-05	1.9317e-05	205.17	1.7438e-06	1.2495e-06	465.45	32.448	1.5112e-06	1.8634e-07	114.58	41.168	11.123	3.6559	7.8001e-07	14.33	5.4586e-05	2.4342e-05	7.8546e-06	189.81	3.3703e-07	2.7244e-07	428.25	30.323	3.0869e-07	2.7161e-07	106.43	38.478	10.421	3.4675	2.304e-07	13.559	236.885	156.332	178.584	102.326	292.215	281.582	102.373	109.439	305.769	289.758	106.154	113.234	113.615	119.697	221.088	116.326	-8191	255	
1668.804	1	1	0	0	0.095515	0.1001	0.13098	0.13125	0.078594	0.24597	0.036766	0.17115	0.11256	0.17179	0.040754	0.14648	0.14864	0.22122	0.054729	0.12615	-1.9271	-2.3271	-2.0958	-2.3833	-2.3083	-2.0625	-2.5625	-2.1896	-2.2125	-2.3354	-2.1417	-2.1625	-2.1688	-2.0812	-2.2604	-2.0479	184.046	120.158	137.760	159.000	421.891	376.512	406.340	258.317	211.739	354.420	184.572	356.897	188.652	329.925	307.344	139.914	0.00013277	0.00018212	4.1945e-05	204.9	1.1882e-06	8.2541e-07	463.79	33.043	7.4884e-07	2.2803e-06	114.68	41.157	11.397	3.6886	1.0617e-06	14.301	5.1008e-05	2.5258e-05	8.2753e-06	189.32	2.993e-07	2.726e-07	427.38	30.783	2.8939e-07	1.9502e-07	107.09	38.507	10.545	3.4624	2.5634e-07	13.5	235.654	203.946	206.283	101.926	285.736	263.640	102.622	109.578	265.772	216.794	108.012	111.940	115.515	118.579	281.496	116.459	-8191	255	
1668.876	1	1	0	0	0.12765	0.095415	0.054336	0.19956	0.087216	0.12135	0.14301	0.096045	0.17131	0.25352	0.068083	0.23328	0.15492	0.28711	0.080186	0.20718	-1.6375	-2.2438	-2.0958	-2.3979	-2.1458	-1.9854	-2.4771	-2.0375	-2.2417	-2.5979	-1.9417	-2.3458	-2.3229	-2.1833	-2.2938	-2.2062	378.797	219.990	128.113	377.262	365.890	318.917	274.931	159.932	258.625	104.875	388.160	434.515	113.104	427.473	238.479	310.593	0.00014111	0.00014447	2.5536e-05	203.42	9.0618e-07	1.7601e-06	464.46	32.769	4.9826e-07	5.7691e-07	114.94	41.083	11.531	3.6039	1.4461e-06	14.568	5.0004e-05	2.7259e-05	6.1878e-06	188.62	2.9361e-07	2.8998e-07	430.26	30.578	2.8041e-07	2.5045e-07	106.93	38.634	10.598	3.4462	2.7488e-07	13.621	241.334	168.690	173.004	102.878	293.444	234.222	102.388	110.102	312.843	250.460	107.332	113.303	114.861	118.916	262.729	115.863	-8191	255	
1668.972	1	1	0	0	0.13474	0.1614	0.15384	0.048008	0.19826	0.14035	0.17979	0.2365	0.30559	0.15948	0.26645	0.12783	0.094244	0.16291	0.13944	0.10619	-1.6792	-2.4875	-2.0354	-2.375	-2.4083	-2.1542	-2.4062	-2.1167	-2.2333	-2.4229	-1.9396	-2.1646	-2.2021	-1.8583	-2.4354	-2.0979	250.725	431.830	374.783	437.059	342.869	342.077	93.959	328.538	285.659	182.938	352.083	93.053	340.913	251.290	206.531	219.237	0.00013446	0.00010835	2.927e-05	205.32	1.8777e-06	8.5176e-07	461.57	32.778	1.0175e-06	1.2895e-06	116.74	40.824	11.362	3.6465	1.1479e-06	14.237	5.2913e-05	2.137e-05	7.1863e-06	189.63	3.1218e-07	3.0349e-07	428.55	30.732	3.1064e-07	2.6821e-07	107.75	38.409	10.563	3.449	2.5965e-07	13.453	235.760	194.177	208.383	102.553	284.438	228.790	102.292	109.877	273.793	196.235	107.018	113.243	114.057	119.036	281.884	116.079	-8191	255	
1669.093	1	1	0	0	0.10254	0.13199	0.15432	0.10596	0.10481	0.24	0.13079	0.2811	0.16375	0.22042	0.090884	0.21218	0.1319	0.15327	0.072321	0.18573	-1.5792	-2.3333	-2.0687	-2.2292	-2.4979	-2.0458	-2.4188	-2.2542	-2.0208	-2.5396	-2.1708	-2.2708	-2.3896	-2.0042	-2.4292	-2.3208	144.443	136.344	207.590	293.283	174.265	291.955	367.644	432.482	279.123	126.965	121.934	200.015	138.725	324.557	153.593	367.395	0.00012583	0.00018993	4.4591e-05	204	1.122e-06	1.1535e-06	458.34	32.956	7.1596e-07	1.5033e-06	114.89	40.772	11.447	3.5573	9.0755e-07	14.089	4.8919e-05	2.2229e-05	7.5283e-06	190.11	2.3776e-07	3.1839e-07	427.78	30.917	2.8281e-07	2.5416e-07	107.18	37.999	10.584	3.4128	2.5181e-07	13.233	234.092	191.562	209.729	102.283	199.820	196.752	102.447	109.477	266.279	209.961	107.294	112.826	114.777	118.579	252.880	116.105	-8191	255	
1669.189	1	1	0	0	0.22693	0.18987	0.15344	0.14052	0.23138	0.040947	0.26095	0.089001	0.14455	0.17018	0.22669	0.2789	0.095401	0.32327	0.17587	0.15904	-1.7604	-2.4729	-2.1729	-2.1396	-2.4437	-1.9021	-2.3063	-2.2271	-2.2687	-2.4813	-2.1708	-1.9958	-2.2271	-1.9792	-2.2229	-2.2646	162.892	275.280	269.285	353.617	403.988	395.252	111.701	251.302	156.035	110.584	406.624	388.866	244.340	377.485	276.172	371.972	0.00011989	0.00018797	3.9197e-05	203.44	1.3258e-06	1.1849e-06	461.94	33.191	4.6823e-07	8.8294e-07	115.48	39.872	11.276	3.5996	4.1764e-07	14.221	5.0154e-05	2.2708e-05	6.7185e-06	189.21	2.8029e-07	2.9138e-07	427.59	30.561	3.2889e-07	2.2729e-07	106.71	37.595	10.41	3.3767	2.4231e-07	13.298	230.408	203.651	216.380	102.390	234.500	264.597	102.234	109.988	271.285	209.987	107.410	113.324	113.872	119.111	313.319	115.903	-8191	255	
1669.285	1	1	0	0	0.33677	0.20783	0.15291	0.13936	0.16484	0.1111	0.038494	0.10462	0.076062	0.16465	0.093669	0.14191	0.34295	0.16339	0.12379	0.14493	-1.5187	-2.3208	-2.4229	-2.1229	-2.4313	-2.0938	-2.3271	-2.5312	-2.1312	-2.5375	-2.2188	-2.1437	-2.5667	-2.0604	-2.0958	-2.375	258.942	217.979	308.560	360.577	356.033	341.844	168.652	282.996	394.416	311.750	345.583	323.427	346.713	181.990	94.222	149.412	0.00012243	0.00011898	2.973e-05	205.29	1.8509e-06	4.3985e-07	459.04	32.269	1.3771e-06	1.4227e-06	114.94	40.352	11.102	3.5714	1.3553e-06	14.114	5.2035e-05	2.4004e-05	6.9662e-06	190.28	2.7295e-07	3.0069e-07	428.16	30.486	2.9747e-07	2.6018e-07	106.66	37.793	10.319	3.4166	2.7805e-07	13.302	238.871	150.099	129.108	102.270	239.484	150.565	102.287	108.877	290.796	249.249	107.086	113.497	114.626	118.251	264.762	116.282	-8191	255	
1669.381	1	1	0	0	0.09789	0.14454	0.22455	0.27086	0.15306	0.1567	0.039909	0.064217	0.12824	0.237	0.048269	0.15581	0.13524	0.33494	0.10343	0.15752	-1.4937	-2.5062	-2.3479	-2.175	-2.4729	-2.1042	-2.2771	-2.3292	-1.9917	-2.475	-2.2771	-2.0979	-2.5104	-2.1688	-2.2354	-2.4813	122.112	100.363	359.452	379.489	327.591	421.187	94.822	448.074	255.515	379.341	190.742	328.396	275.376	234.631	229.657	165.703	0.00013016	0.00022387	2.4911e-05	204.63	8.5364e-07	1.4049e-06	460.62	32.284	8.7191e-07	7.9699e-07	116.17	40.076	10.987	3.5398	1.0208e-06	13.83	4.9242e-05	2.499e-05	6.2467e-06	189.87	2.4795e-07	2.5335e-07	427	30.344	2.5228e-07	2.5508e-07	106.96	37.477	10.225	3.3525	2.8091e-07	13.164	235.219	143.504	174.899	102.092	228.565	213.063	102.436	109.515	306.760	268.175	106.983	113.467	114.698	117.882	227.481	116.223	-8191	255	
1669.478	1	1	0	0	0.23244	0.19873	0.13293	0.18789	0.21365	0.088322	0.040076	0.038942	0.04102	0.13093	0.14784	0.17683	0.17315	0.032778	0.13431	0.21645	-1.6479	-2.3667	-2.3333	-2.0521	-2.5	-2.25	-2.1333	-2.4667	-2.1521	-2.4375	-2.5417	-2.0042	-2.2542	-2.0354	-2.0187	-2.5604	116.289	412.215	170.219	394.154	305.053	391.439	423.510	171.408	149.668	391.277	234.369	433.837	184.945	97.139	430.279	367.230	0.00011337	0.00020269	7.4707e-06	200.43	1.6433e-07	8.1764e-07	463.27	32.536	1.0205e-06	1.515e-06	112.7	39.229	11.189	3.554	1.8883e-07	13.938	4.8757e-05	2.3004e-05	6.974e-06	188.28	2.3746e-07	2.8408e-07	426.73	30.29	3.0795e-07	2.3208e-07	105.62	36.975	10.246	3.3213	2.5543e-07	13.075	234.791	155.999	117.860	101.555	449.021	305.896	102.494	108.599	315.133	218.747	107.366	113.090	113.676	120.048	106.721	116.673	-8191	255	
1669.574	1	1	0	0	0.085288	0.22308	0.23292	0.17215	0.3259	0.13392	0.12293	0.14217	0.30824	0.16204	0.13289	0.3402	0.15155	0.24092	0.2104	0.22207	-1.3563	-2.2458	-2.3146	-1.9583	-2.3125	-2.1604	-2.1833	-2.2479	-1.9542	-2.3	-2.3312	-2.0438	-2.3042	-2.2583	-1.8625	-2.5375	408.143	296.527	197.357	158.861	225.519	275.092	239.839	223.590	108.938	178.577	302.736	338.517	131.296	103.045	331.688	160.320	0.0001203	0.00016816	3.1426e-05	202.41	8.0551e-07	1.8357e-06	456.02	32.449	9.0452e-07	8.5577e-07	114.52	39.407	11.027	3.4987	1.7613e-06	13.694	4.6275e-05	2.6723e-05	6.1956e-06	188.63	2.981e-07	2.771e-07	424.4	30.177	3.0795e-07	2.9322e-07	106.25	36.909	10.221	3.2873	3.1152e-07	13.019	232.931	214.262	161.884	102.650	283.533	255.155	102.525	109.928	193.031	252.959	107.364	112.865	114.612	119.677	250.092	116.230	-8191	255	
1669.670	1	1	0	0	0.27889	0.086936	0.083582	0.29419	0.087642	0.1798	0.20842	0.16223	0.099711	0.15587	0.20938	0.080488	0.032865	0.0052153	0.23423	0.21868	-1.4688	-2.2083	-2.5312	-2.0833	-2.4083	-2.1917	-2.1208	-2.3667	-2.0646	-2.0563	-2.3521	-2.2083	-2.2417	-2.2979	-1.7667	-2.2958	212.751	439.311	133.107	367.666	243.448	446.651	128.791	190.293	329.801	137.497	422.047	436.121	403.561	386.305	206.441	130.635	0.00011302	0.00012544	3.6578e-05	201.98	1.5963e-06	7.6957e-07	455.32	32.139	5.3528e-07	7.9362e-07	115.27	39.627	10.979	3.4877	1.0606e-06	13.94	5.0743e-05	2.5836e-05	6.7657e-06	187.98	2.728e-07	2.6514e-07	424.55	30.11	2.9119e-07	2.4829e-07	106.73	36.91	10.172	3.2888	2.6961e-07	13.045	232.389	148.181	206.520	102.402	242.042	232.887	102.250	109.770	254.104	384.128	106.944	113.277	114.722	119.462	253.091	116.697	-8191	255	
1669.766	1	1	0	0	0.17202	0.046359	0.023736	0.32469	0.01769	0.022836	0.093632	0.18184	0.21881	0.12654	0.078503	0.26689	0.054268	0.17642	0.055425	0.11806	-1.6229	-1.9083	-2.5208	-2.0771	-2.2375	-2.3979	-2.1063	-2.4292	-2.4125	-2.0229	-2.3396	-2.1854	-2.2188	-2.3854	-1.9229	-2.4792	183.014	442.050	431.046	414.277	129.129	441.446	314.438	277.392	373.078	439.899	239.000	139.605	392.416	144.794	363.543	322.500	0.00012725	0.00012523	2.4453e-05	201.59	7.0042e-07	1.6127e-06	462.17	32.129	7.8005e-07	1.3709e-06	114.73	39.897	11.076	3.4434	4.4828e-07	13.683	4.8238e-05	2.5075e-05	6.1524e-06	187.14	2.5678e-07	2.2509e-07	426.27	30.053	2.4435e-07	2.9075e-07	106.83	36.921	10.083	3.2566	3.1017e-07	12.91	241.368	243.417	151.257	102.412	286.195	225.085	101.922	109.814	309.168	271.857	108.200	112.915	115.147	118.380	289.552	116.251	-8191	255	
1669.885	1	1	0	0	0.13127	0.14013	0.083151	0.13961	0.21776	0.042817	0.11766	0.13979	0.074575	0.20923	0.24622	0.18293	0.18283	0.17713	0.064026	0.19082	-1.95	-2.2458	-2.3604	-1.8062	-2.3208	-2.425	-1.975	-2.4333	-2.2042	-2.1125	-2.6271	-2.0708	-2.1604	-2.3812	-2.1625	-2.1896	128.727	431.656	176.112	315.467	180.391	99.170	344.978	437.040	349.988	292.381	189.714	416.299	202.913	129.686	126.107	277.168	0.00012394	0.00010602	3.1108e-05	199.69	1.3062e-06	1.25e-06	458.13	32.17	1.458e-06	2.4995e-06	114.64	39.034	11.042	3.4983	5.4687e-07	13.531	4.7603e-05	2.4568e-05	6.3961e-06	186.21	2.5528e-07	2.4108e-07	425.02	30.162	2.3328e-07	2.5879e-07	106.43	36.607	10.212	3.2701	2.8574e-07	12.803	234.209	156.449	177.614	102.437	268.902	267.921	102.204	109.891	292.848	229.108	107.571	113.499	113.716	119.015	221.467	116.325	-8191	255	
1669.981	1	1	0	0	0.065272	0.38529	0.094666	0.16503	0.34632	0.23114	0.24714	0.069858	0.15732	0.18406	0.083377	0.032594	0.16592	0.036555	0.12469	0.14105	-1.8104	-1.9771	-2.3771	-2.3292	-2.3771	-2.4729	-2	-2.2479	-2.2042	-2.0771	-2.4396	-2.2812	-2.4021	-2.4271	-1.9979	-2.4646	311.188	190.717	101.117	344.587	150.700	286.814	284.226	424.066	241.173	403.846	297.501	324.212	113.884	272.899	154.837	155.162	0.00012698	0.00011192	3.6126e-05	201.13	7.5018e-07	8.8668e-07	455.8	32.54	7.5852e-07	8.6996e-07	114.09	39.088	10.756	3.4299	4.4387e-07	13.644	4.833e-05	2.6695e-05	6.3214e-06	185.91	2.9915e-07	1.8877e-07	422.75	30.433	2.5857e-07	3.0233e-07	106.44	36.627	10.096	3.2731	2.5151e-07	12.842	233.833	214.436	211.835	101.642	252.271	300.850	102.373	109.332	246.908	220.532	106.855	112.686	114.175	119.019	378.380	116.177	-8191	255	
1670.077	1	1	0	0	0.058497	0.086877	0.11736	0.13395	0.10801	0.097337	0.20777	0.3354	0.22745	0.19052	0.25919	0.023035	0.16529	0.264	0.13428	0.11182	-1.8375	-1.925	-2.4729	-2.15	-2.1479	-2.5083	-2.1042	-2.0854	-2.3729	-1.9625	-2.4562	-2.3208	-1.9604	-2.5479	-1.9583	-2.2438	375.413	437.155	298.160	103.887	373.299	270.710	439.505	155.345	142.487	280.436	177.575	236.966	207.845	191.110	203.592	337.693	0.00013575	0.0001261	2.6723e-05	199.26	4.8179e-07	7.3764e-07	457.83	32.945	5.087e-07	1.7299e-06	114.11	39.76	11.092	3.5297	1.1418e-06	13.852	4.945e-05	2.5117e-05	5.775e-06	185.9	2.9047e-07	2.1593e-07	423.78	30.543	2.3792e-07	2.9075e-07	107.23	37.091	10.248	3.2965	2.8167e-07	13.029	236.753	213.120	235.804	102.435	232.908	246.835	102.138	109.459	293.666	268.619	106.744	112.731	114.357	118.857	253.708	116.522	-8191	255	
#DATA ENDS
