BOXY.EXE: ISS Imagent and Oximeter Data Acquisition Program Version 0.80
Ascii Record File

#ACQ INFORMATION
2  Detector Channels 
16  External MUX Channels 
1  Auxiliary Channels 
5000  Waveform (CCF) Frequency (Hz)
1  Waveforms Skipped 
30  Waveforms Averaged 
1  Cycles Averaged 
16  Acquisitions per Waveform 
10.0806  Updata Rate (Hz) 

#FILE INFORMATION
TRUE -- External MUX Channel results are PARSED.
FALSE -- AC DC and Phase are NOT grouped.
TRUE -- Companion Program Settings File CREATED.
FALSE -- AC data not excluded
FALSE -- DC data not excluded
FALSE -- Phase data not excluded
FALSE -- Auxillary Chn. data not excluded
Tab delimiters

#CALIBRATION STATE
TRUE -- Waveform Calibration Values APPLIED.


#AUX CALIBRATION VALUES
Val Type	aux-1	

Term	1.0000e+00	
Factor	0.0000e+00	


#WF CALIBRATION VALUES
A = Detector Channel
Val Type	A-AC1	A-AC2	A-AC3	A-AC4	A-AC5	A-AC6	A-AC7	A-AC8	A-AC9	A-AC10	A-AC11	A-AC12	A-AC13	A-AC14	A-AC15	A-AC16	A-DC1	A-DC2	A-DC3	A-DC4	A-DC5	A-DC6	A-DC7	A-DC8	A-DC9	A-DC10	A-DC11	A-DC12	A-DC13	A-DC14	A-DC15	A-DC16	A-Ph1	A-Ph2	A-Ph3	A-Ph4	A-Ph5	A-Ph6	A-Ph7	A-Ph8	A-Ph9	A-Ph10	A-Ph11	A-Ph12	A-Ph13	A-Ph14	A-Ph15	A-Ph16	

Term	0.00000e+00	0.00000e+00	0.00000e+00	0.00000e+00	0.00000e+00	0.00000e+00	0.00000e+00	0.00000e+00	0.00000e+00	0.00000e+00	0.00000e+00	0.00000e+00	0.00000e+00	0.00000e+00	0.00000e+00	0.00000e+00	0.00000e+00	0.00000e+00	0.00000e+00	0.00000e+00	0.00000e+00	0.00000e+00	0.00000e+00	0.00000e+00	0.00000e+00	0.00000e+00	0.00000e+00	0.00000e+00	0.00000e+00	0.00000e+00	0.00000e+00	0.00000e+00	0.00000e+00	0.00000e+00	0.00000e+00	0.00000e+00	0.00000e+00	0.00000e+00	0.00000e+00	0.00000e+00	0.00000e+00	0.00000e+00	0.00000e+00	0.00000e+00	0.00000e+00	0.00000e+00	0.00000e+00	0.00000e+00	
Factor	1.00000e+00	1.00000e+00	1.00000e+00	1.00000e+00	1.00000e+00	1.00000e+00	1.00000e+00	1.00000e+00	1.00000e+00	1.00000e+00	1.00000e+00	1.00000e+00	1.00000e+00	1.00000e+00	1.00000e+00	1.00000e+00	1.00000e+00	1.00000e+00	1.00000e+00	1.00000e+00	1.00000e+00	1.00000e+00	1.00000e+00	1.00000e+00	1.00000e+00	1.00000e+00	1.00000e+00	1.00000e+00	1.00000e+00	1.00000e+00	1.00000e+00	1.00000e+00	X	X	X	X	X	X	X	X	X	X	X	X	X	X	X	X	

B = Detector Channel
Val Type	B-AC1	B-AC2	B-AC3	B-AC4	B-AC5	B-AC6	B-AC7	B-AC8	B-AC9	B-AC10	B-AC11	B-AC12	B-AC13	B-AC14	B-AC15	B-AC16	B-DC1	B-DC2	B-DC3	B-DC4	B-DC5	B-DC6	B-DC7	B-DC8	B-DC9	B-DC10	B-DC11	B-DC12	B-DC13	B-DC14	B-DC15	B-DC16	B-Ph1	B-Ph2	B-Ph3	B-Ph4	B-Ph5	B-Ph6	B-Ph7	B-Ph8	B-Ph9	B-Ph10	B-Ph11	B-Ph12	B-Ph13	B-Ph14	B-Ph15	B-Ph16	

Term	0.00000e+00	0.00000e+00	0.00000e+00	0.00000e+00	0.00000e+00	0.00000e+00	0.00000e+00	0.00000e+00	0.00000e+00	0.00000e+00	0.00000e+00	0.00000e+00	0.00000e+00	0.00000e+00	0.00000e+00	0.00000e+00	0.00000e+00	0.00000e+00	0.00000e+00	0.00000e+00	0.00000e+00	0.00000e+00	0.00000e+00	0.00000e+00	0.00000e+00	0.00000e+00	0.00000e+00	0.00000e+00	0.00000e+00	0.00000e+00	0.00000e+00	0.00000e+00	-6.59245e+01	-1.24734e+02	-1.31290e+02	-1.83070e+02	-4.71720e+01	-6.49150e+01	-1.56663e+02	-1.62015e+02	-3.94459e+01	-6.42214e+01	-1.71114e+02	-1.71480e+02	-1.80686e+02	-1.76770e+02	-5.03157e+01	-1.49850e+02	
Factor	1.94318e-05	1.90944e-04	4.49887e-05	1.63081e-01	1.59961e-06	1.69595e-06	1.94177e-01	5.42487e-02	1.28390e-06	1.65075e-06	1.08414e-01	3.13847e-02	2.95052e-02	9.61121e-03	1.53840e-06	1.41149e-02	5.54059e-06	6.76180e-06	1.88700e-06	8.26207e-02	7.18682e-08	7.45135e-08	9.21061e-02	2.75920e-02	7.18242e-08	7.41166e-08	5.30887e-02	1.54427e-02	1.51454e-02	4.92050e-03	7.23774e-08	6.95805e-03	X	X	X	X	X	X	X	X	X	X	X	X	X	X	X	X	



#DISTANCE SETTINGS
A = Detector Channel
A-1	A-2	A-3	A-4	A-5	A-6	A-7	A-8	A-9	A-10	A-11	A-12	A-13	A-14	A-15	A-16	

2.5000e+00	3.0000e+00	2.5000e+00	3.0000e+00	2.0000e+00	3.0000e+00	1.5000e+00	3.0000e+00	3.0000e+00	3.0000e+00	3.0000e+00	3.0000e+00	3.0000e+00	3.0000e+00	1.5000e+00	3.0000e+00	

B = Detector Channel
B-1	B-2	B-3	B-4	B-5	B-6	B-7	B-8	B-9	B-10	B-11	B-12	B-13	B-14	B-15	B-16	

1.0000e+01	1.0000e+01	1.0000e+01	1.4400e+00	1.0000e+01	1.0000e+01	1.5100e+00	1.9400e+00	1.0000e+01	1.0000e+01	1.9900e+00	2.4900e+00	2.4100e+00	2.9000e+00	1.0000e+01	2.9800e+00	




#DATA BEGINS
time	group	step	mark	flag	A-AC1	A-AC2	A-AC3	A-AC4	A-AC5	A-AC6	A-AC7	A-AC8	A-AC9	A-AC10	A-AC11	A-AC12	A-AC13	A-AC14	A-AC15	A-AC16	A-DC1	A-DC2	A-DC3	A-DC4	A-DC5	A-DC6	A-DC7	A-DC8	A-DC9	A-DC10	A-DC11	A-DC12	A-DC13	A-DC14	A-DC15	A-DC16	A-Ph1	A-Ph2	A-Ph3	A-Ph4	A-Ph5	A-Ph6	A-Ph7	A-Ph8	A-Ph9	A-Ph10	A-Ph11	A-Ph12	A-Ph13	A-Ph14	A-Ph15	A-Ph16	B-AC1	B-AC2	B-AC3	B-AC4	B-AC5	B-AC6	B-AC7	B-AC8	B-AC9	B-AC10	B-AC11	B-AC12	B-AC13	B-AC14	B-AC15	B-AC16	B-DC1	B-DC2	B-DC3	B-DC4	B-DC5	B-DC6	B-DC7	B-DC8	B-DC9	B-DC10	B-DC11	B-DC12	B-DC13	B-DC14	B-DC15	B-DC16	B-Ph1	B-Ph2	B-Ph3	B-Ph4	B-Ph5	B-Ph6	B-Ph7	B-Ph8	B-Ph9	B-Ph10	B-Ph11	B-Ph12	B-Ph13	B-Ph14	B-Ph15	B-Ph16	aux-1	digaux	

1091.053	1	1	0	768	0.13421	0.15148	0.15795	0.14903	0.097719	0.13112	0.074692	0.10507	0.14469	0.24397	0.11213	0.11635	0.11515	0.22686	0.14581	0.21547	-2.0375	-2.1229	-2.9062	-2.4562	-2.4729	-2.7958	-2.5	-2.9292	-2.8021	-2.3146	-2.7562	-2.6688	-2.6125	-2.8146	-2.4708	-2.8854	-50.163	211.094	217.550	-68.201	29.252	82.667	-66.775	212.434	262.427	124.804	250.755	-73.774	173.602	-63.979	223.848	210.146	0.00048653	0.0012571	0.0001791	615.5	1.656e-05	2.0755e-05	962.44	244.41	1.9703e-05	8.3586e-06	452.43	207.28	107.67	55.657	7.4171e-06	119.48	0.015818	0.019149	0.005323	830.87	0.00020117	0.00020665	1188.4	314.47	0.00019692	0.0002015	586.7	246.31	147.32	68.042	0.00019659	136.1	240.462	129.744	55.447	-74.771	145.871	-53.454	-74.858	-69.962	80.277	268.361	-71.091	-66.550	-65.889	-61.688	194.731	-62.956	-8191	255	
1091.150	1	1	0	0	0.089328	0.1652	0.045891	0.15548	0.10672	0.1971	0.076228	0.35298	0.10273	0.025128	0.1434	0.13885	0.18865	0.13007	0.080405	0.21208	-2.1354	-2.2687	-2.6375	-2.7438	-2.575	-2.8146	-2.4708	-2.5938	-2.7958	-2.3604	-2.8104	-2.7917	-2.4833	-2.9188	-2.4021	-2.8146	215.713	84.921	-36.218	249.203	124.815	224.528	106.907	198.968	-12.826	-68.933	106.199	-52.982	128.829	-56.432	49.029	-84.553	0.0005537	0.002969	0.00055967	610.28	1.2451e-05	1.2965e-05	957.28	240.99	1.6724e-05	1.7243e-05	456.19	208.13	108.65	55.721	1.3207e-05	119.56	0.015193	0.018384	0.0051565	816.34	0.00019703	0.0002031	1180.4	310.62	0.00019488	0.0002009	587.7	246.24	147.46	68.087	0.00019675	136.17	-85.762	35.841	-5.561	-75.056	14.452	161.985	-74.923	-69.941	82.794	110.615	-70.557	-66.226	-65.844	-61.818	-86.383	-63.012	-8191	255	
1091.246	1	1	0	0	0.2499	0.1731	0.245	0.22118	0.25607	0.25827	0.26151	0.40826	0.090758	0.046076	0.13848	0.20498	0.065656	0.21983	0.14808	0.22133	-2.2292	-2.3625	-2.7562	-2.6167	-2.4542	-2.8333	-2.5917	-2.6625	-2.7125	-2.3688	-2.8646	-2.5771	-2.5458	-2.975	-2.3438	-2.7354	261.580	142.905	152.419	-87.713	164.428	-10.858	148.309	183.049	166.354	-33.775	123.599	212.149	-8.410	218.176	185.973	264.803	0.00039799	0.0015664	8.6068e-05	612.33	1.9018e-05	2.5512e-05	956.69	239.99	1.029e-05	7.9231e-06	454.28	207.26	107.17	55.397	1.3668e-05	119.11	0.015148	0.018501	0.0052111	820.05	0.00019921	0.0002062	1185.1	310.69	0.00019929	0.00020582	588.21	246.19	147.51	67.992	0.00020004	135.85	221.151	-20.578	35.875	-74.498	102.023	185.074	-75.035	-70.016	-5.504	-18.727	-70.806	-66.474	-65.745	-61.987	137.210	-62.875	-8191	255	
1091.342	1	1	0	0	0.10815	0.14579	0.022243	0.17012	0.079596	0.040042	0.25838	0.15844	0.085466	0.19277	0.049871	0.22315	0.20798	0.44818	0.16212	0.11795	-2.4833	-2.2958	-2.7062	-2.825	-2.4146	-2.6208	-2.5167	-2.5604	-2.6729	-2.2292	-2.6792	-2.9062	-2.3937	-2.9104	-2.5187	-2.5479	-75.967	21.250	77.924	130.517	164.879	209.984	194.772	257.199	117.207	94.641	86.132	265.005	265.101	235.883	207.010	246.249	0.00050913	0.0024663	0.00042462	606.68	8.1234e-06	2.4769e-05	952.37	238.95	1.1448e-05	2.2463e-06	454.6	206.4	106.59	55.255	1.8935e-05	119.23	0.015392	0.01866	0.0052613	818.76	0.00019869	0.00020634	1183.2	310.08	0.00019873	0.0002059	587.35	245.56	147.41	67.983	0.00020217	136.09	231.405	19.484	2.096	-74.762	33.071	-22.440	-74.962	-70.132	75.323	156.918	-70.546	-66.318	-65.868	-62.171	97.112	-62.982	-8191	255	
1091.438	1	1	0	0	0.28318	0.14904	0.21443	0.26604	0.075593	0.1506	0.20812	0.2257	0.0446	0.11027	0.13297	0.30416	0.0716	0.098099	0.18059	0.27947	-2.4625	-2.2167	-2.5104	-2.5979	-2.2146	-2.7375	-2.725	-2.5021	-2.9083	-2.3875	-2.6333	-2.8292	-2.4292	-2.8521	-2.4792	-2.5229	91.637	-47.735	-69.117	237.596	72.114	-8.543	206.442	205.987	45.304	-44.230	265.023	-70.803	180.194	44.107	241.799	171.513	0.00045366	0.0026711	0.00047996	607.85	1.0022e-05	6.3414e-06	957.8	238.56	5.9221e-06	4.3258e-06	457.08	207.35	107.78	55.659	4e-06	119.63	0.015435	0.018848	0.005248	818.57	0.00019809	0.00020603	1184.9	309.74	0.00019756	0.00020603	589.65	246.45	147.87	68.339	0.00020058	136.61	253.972	112.735	259.693	-74.758	84.917	-68.802	-74.752	-70.034	37.515	94.856	-71.008	-66.492	-65.982	-61.988	166.624	-62.879	-8191	255	
1091.534	1	1	0	0	0.37762	0.096387	0.26466	0.14179	0.13595	0.088791	0.35818	0.29295	0.24274	0.032456	0.29208	0.28748	0.17783	0.28002	0.086514	0.3012	-2.3271	-2.4208	-2.4188	-2.8021	-2.3771	-2.7417	-2.6813	-2.4437	-2.7979	-2.3875	-2.45	-2.8625	-2.4813	-2.9125	-2.7667	-2.4896	15.389	195.080	3.145	205.134	221.394	-81.173	197.568	176.987	-43.233	189.927	238.169	260.464	-64.305	257.766	249.368	199.765	0.00054015	0.0033239	0.00065112	612.46	3.0227e-06	1.4646e-05	955.05	240.77	1.1293e-05	1.7807e-05	456.13	206.72	107.04	55.308	2.2768e-05	119.56	0.015461	0.018828	0.0052744	820.43	0.00019925	0.00020761	1185	310.21	0.00019842	0.00020645	589.73	246.18	147.45	68.093	0.00020108	136.48	243.399	81.545	52.909	-74.912	116.979	63.773	-74.808	-70.019	170.054	248.261	-70.398	-66.046	-66.021	-61.843	19.918	-62.902	-8191	255	
1091.653	1	1	0	0	0.038338	0.086844	0.068264	0.12496	0.071813	0.15225	0.25963	0.092907	0.18024	0.07556	0.050281	0.086474	0.16792	0.26238	0.32201	0.50818	-2.3021	-2.5208	-2.5646	-2.6813	-2.3521	-2.8104	-2.8583	-2.375	-2.6208	-2.6458	-2.4708	-2.9021	-2.3458	-2.7729	-2.7958	-2.6333	53.373	164.463	52.663	261.177	220.119	203.578	177.004	249.912	59.699	205.530	132.940	61.950	254.949	228.495	-36.974	194.211	0.0007172	0.0030174	0.00051761	612.9	2.0635e-05	1.4615e-05	962.56	239.4	2.4152e-06	8.5834e-06	454.37	208.66	108.28	55.791	1.0054e-05	121.14	0.015498	0.018986	0.005271	822.38	0.00020044	0.00020922	1190.7	310.04	0.00020106	0.00020888	591.44	247.96	148.75	68.81	0.00020279	137.97	263.605	47.203	8.924	-75.037	66.628	101.282	-74.732	-69.937	123.088	-27.343	-70.827	-66.216	-66.013	-61.868	75.559	-62.787	-8191	255	
1091.749	1	1	0	0	0.38247	0.16551	0.14737	0.070899	0.12602	0.12821	0.18229	0.21178	0.20979	0.058502	0.17695	0.21054	0.1592	0.26249	0.067541	0.32541	-2.2604	-2.4292	-2.3646	-2.9042	-2.4167	-2.4667	-2.9708	-2.45	-2.6937	-2.3771	-2.6292	-2.9917	-2.6396	-2.6375	-2.7083	-2.6646	-27.859	191.314	46.524	267.724	34.788	99.120	258.960	129.346	-68.062	44.066	228.885	241.949	-71.795	-56.986	162.102	244.678	0.00045231	0.0018766	0.00027845	616.21	8.6214e-06	3.7639e-05	958.66	242.51	1.575e-05	1.1334e-05	462.68	210.56	109.56	56.79	1.178e-05	122.13	0.015714	0.019019	0.005299	825.15	0.00020014	0.00020926	1190.2	313.82	0.00020091	0.00020813	597	250.9	150.9	69.74	0.00020363	139.39	260.090	76.726	3.993	-74.787	-57.163	-44.913	-74.950	-69.998	136.008	159.303	-70.825	-66.247	-65.906	-61.820	238.919	-62.971	-8191	255	
1091.845	1	1	0	0	0.12781	0.32386	0.22452	0.19865	0.25143	0.1658	0.094997	0.3121	0.19669	0.21749	0.091382	0.21009	0.1329	0.23061	0.14922	0.028529	-2.0938	-2.7271	-2.325	-2.8812	-2.6396	-2.5583	-2.8083	-2.4667	-2.6542	-2.7479	-2.5687	-2.9417	-2.5021	-2.6729	-2.9292	-2.5812	141.878	177.618	114.731	229.702	-10.519	69.414	153.850	177.739	185.905	137.528	81.640	-75.175	76.758	208.799	-10.840	-76.516	0.00043614	0.0033523	0.00065209	621.96	1.0084e-05	2.0816e-05	975.29	246.77	1.529e-05	3.1305e-05	468.54	215.3	112.27	58.269	2.4675e-05	125.12	0.015775	0.01925	0.0053363	833.12	0.00020487	0.00021364	1208.8	319.88	0.00020842	0.0002152	608.63	256.49	154.67	71.621	0.00021111	142.93	-75.489	-7.471	-87.316	-74.698	-41.666	-54.964	-74.934	-70.210	100.812	203.296	-71.073	-66.260	-65.814	-61.929	6.270	-63.142	-8191	255	
1091.942	1	1	0	0	0.18364	0.39391	0.22062	0.099892	0.2264	0.07404	0.045677	0.30026	0.16348	0.20855	0.1884	0.093934	0.078206	0.15703	0.14448	0.069366	-2.1562	-2.7083	-2.2729	-2.7604	-2.5729	-2.4292	-3.2292	-2.5458	-2.4917	-2.8542	-2.4917	-2.8979	-2.7521	-2.6958	-2.8896	-2.6458	-64.922	200.500	123.268	56.604	-16.001	-43.039	-72.015	237.570	120.561	216.835	248.272	-65.844	199.771	245.656	84.499	-59.897	0.00035921	0.0017643	0.00020213	621.55	1.3122e-05	2.6571e-05	979.49	250.71	1.8897e-05	1.0376e-05	473.6	216.34	113.1	58.869	2.6769e-05	126.19	0.01652	0.019958	0.0055548	848.96	0.00021416	0.00022158	1225.4	325.61	0.00021371	0.0002189	616.38	259.56	156.45	72.303	0.0002124	143.98	215.215	-77.072	-8.367	-75.097	138.381	106.426	-74.624	-69.931	176.340	104.638	-70.456	-66.193	-65.968	-61.880	104.505	-63.133	-8191	255	
1092.038	1	1	0	0	0.21866	0.021459	0.28897	0.045284	0.10881	0.27018	0.12282	0.12868	0.0127	0.25981	0.15361	0.25897	0.026251	0.15406	0.24314	0.099201	-2.1792	-2.7188	-2.3042	-2.8458	-2.6771	-2.5125	-2.8312	-2.6292	-2.6208	-2.7875	-2.2875	-2.8479	-2.6417	-2.5771	-2.8125	-2.7604	184.595	198.747	52.181	180.503	96.089	205.536	120.574	162.748	212.688	-49.424	270.885	-7.220	219.532	-36.419	97.895	260.880	0.00054345	0.0030945	0.00062497	626.93	1.0542e-05	1.9797e-05	984.59	251.74	7.6819e-06	1.1237e-05	473.47	217.67	113.87	58.748	1.5691e-05	125.82	0.016464	0.019768	0.0055182	848.7	0.00021037	0.00021765	1223.8	324.92	0.00021011	0.00021594	614.81	259.09	155.96	72.025	0.00021104	143.53	212.133	-36.476	4.273	-74.860	44.070	32.073	-74.781	-70.210	3.911	256.249	-70.878	-66.261	-66.071	-61.974	110.795	-63.341	-8191	255	
1092.134	1	1	0	0	0.20343	0.16854	0.30721	0.1004	0.18604	0.11087	0.27711	0.15276	0.06813	0.10789	0.25335	0.10334	0.48938	0.25447	0.077397	0.10957	-2.0979	-2.5708	-2.3125	-2.5917	-2.6708	-2.4021	-3.0021	-2.6917	-2.3958	-2.6125	-2.6937	-2.8542	-2.7417	-2.4583	-2.7646	-2.9	81.432	106.539	40.885	-50.367	193.067	151.091	-84.118	215.123	118.766	-60.980	130.856	5.047	166.175	-61.749	252.634	142.221	0.0004068	0.0022724	0.00078224	624.12	1.6549e-05	1.9847e-05	984.88	249.67	8.992e-06	1.6142e-05	471.32	215.29	112.27	58.474	3.8056e-06	124.72	0.016375	0.019635	0.0054806	845.35	0.00020855	0.00021665	1219.8	322.77	0.00021005	0.00021554	611.74	257.1	154.58	71.488	0.00020985	142.59	247.138	244.399	123.007	-74.877	215.210	37.719	-74.753	-69.782	-1.313	149.829	-70.534	-66.362	-65.778	-62.024	7.394	-63.134	-8191	255	
1092.230	1	1	0	0	0.13657	0.10973	0.03019	0.091689	0.15632	0.25924	0.18388	0.18312	0.1111	0.10208	0.27214	0.19924	0.10047	0.21836	0.06828	0.13731	-1.8813	-2.8917	-2.4021	-2.6063	-2.4646	-2.35	-2.9208	-2.6083	-2.4646	-2.8167	-2.4562	-2.7021	-2.6521	-2.5375	-2.6708	-2.5979	212.955	-10.239	-61.253	204.372	79.161	139.888	153.965	238.483	-24.142	178.308	-85.125	245.521	207.359	-61.677	56.512	263.266	0.00053557	0.0020714	0.00049857	620	6.3383e-06	2.963e-06	981.1	248.49	1.7052e-05	1.3027e-05	474.92	217.12	112.69	58.579	2.0254e-05	125.97	0.016128	0.019509	0.0054611	839.43	0.00020817	0.00021415	1217.4	322.19	0.00020555	0.00021207	613.2	257.91	153.71	71.469	0.00020316	142.79	247.672	229.280	12.156	-74.853	140.485	267.523	-74.867	-70.076	67.884	76.112	-70.449	-66.421	-65.972	-62.093	57.994	-63.004	-8191	255	
1092.351	1	1	0	0	0.058295	0.21008	0.2849	0.19599	0.14654	0.13702	0.14093	0.18159	0.37924	0.17582	0.038475	0.31108	0.34606	0.19124	0.21519	0.55764	-1.9937	-2.9021	-2.3187	-2.3354	-2.7208	-2.3229	-2.7979	-2.5354	-2.3354	-2.7	-2.5167	-2.5708	-2.8812	-2.5438	-2.6021	-2.9396	42.280	-57.359	214.679	171.857	118.993	71.920	127.554	218.981	104.858	-2.180	-51.368	216.069	209.228	195.571	225.000	214.703	0.00058083	0.0016137	0.00018667	609.62	2.6247e-05	2.6473e-05	975.22	249.11	5.466e-06	2.5803e-05	470.52	215.84	111.36	57.434	1.5771e-05	124.07	0.015396	0.018558	0.0051747	819.44	0.00019315	0.00019914	1193.1	314.33	0.00018802	0.0001924	594.76	251.58	147.97	69.116	0.00018357	139.34	255.256	49.673	-18.896	-74.622	154.482	93.499	-74.707	-70.134	225.003	19.941	-70.561	-66.572	-65.900	-61.919	249.352	-63.060	-8191	255	
1092.445	1	1	0	0	0.09477	0.22812	0.29819	0.14996	0.16544	0.11696	0.019607	0.24761	0.22301	0.21093	0.12494	0.15213	0.34661	0.17313	0.31556	0.058426	-1.8667	-2.6437	-2.4896	-2.6542	-2.7687	-2.3021	-2.8229	-2.8021	-2.5833	-2.9333	-2.7271	-2.5604	-2.9146	-2.4292	-2.6479	-2.8604	138.171	-72.716	192.622	249.935	-45.112	89.756	79.440	94.319	11.539	-43.002	157.475	218.195	246.469	235.050	243.347	-24.977	0.00047148	0.0011353	0.00030707	604.53	8.6759e-06	3.0768e-05	960.04	243.69	1.4099e-05	2.0295e-05	465.69	210.86	109.49	56.741	3.493e-05	122.36	0.013976	0.016963	0.0047791	795.31	0.00018064	0.00018764	1168.6	306.3	0.00017979	0.00018597	583.83	246.56	144.98	68.018	0.00017922	136.89	239.778	-38.028	-38.717	-75.129	149.278	8.458	-74.565	-70.169	193.598	-26.010	-70.894	-66.496	-66.114	-61.974	124.463	-62.992	-8191	255	
1092.541	1	1	0	0	0.056034	0.080803	0.086663	0.17596	0.1267	0.57153	0.18248	0.29389	0.19139	0.10654	0.25284	0.2617	0.11817	0.1821	0.091115	0.24913	-1.9104	-2.7354	-2.375	-2.6479	-2.8229	-2.4542	-2.6979	-2.8479	-2.2458	-2.7542	-2.6479	-2.6562	-2.7417	-2.5	-2.6042	-2.9417	-9.114	145.997	214.323	133.496	197.875	64.089	196.482	-55.535	234.249	156.397	212.658	-87.659	-24.999	248.786	140.407	90.816	0.0005347	0.00033502	0.00062116	599.61	8.2894e-06	2.2671e-06	952.21	238.72	9.6544e-06	1.9827e-05	455.83	207.63	107.38	55.622	1.1303e-05	120.45	0.013762	0.016792	0.0046802	785.56	0.00017803	0.00018523	1154.9	300.79	0.00017639	0.00018259	572.69	241.31	142.35	66.47	0.00017507	134.47	251.727	69.305	246.447	-74.597	84.759	182.841	-74.844	-70.270	256.126	81.415	-70.513	-66.537	-65.938	-62.001	-17.725	-62.776	-8191	255	
1092.615	1	1	0	0	0.16131	0.31627	0.11373	0.12153	0.10172	0.10828	0.20373	0.073991	0.051736	0.38345	0.4167	0.32306	0.16886	0.14262	0.20857	0.12265	-1.9771	-2.7771	-2.6833	-2.5458	-2.6604	-2.4354	-2.5708	-2.9458	-2.3646	-2.7667	-2.7729	-2.4729	-2.8458	-2.9271	-2.4333	-3.0833	-46.487	102.824	192.018	234.156	0.969	52.379	60.928	61.950	240.366	-25.105	254.692	-72.033	259.887	63.261	9.535	206.916	0.00039606	0.0025615	0.00022303	602.76	1.1123e-05	8.1811e-06	953.7	236.67	4.6014e-06	2.2522e-05	454.34	207.23	106.87	56.185	1.2686e-05	121.08	0.013364	0.016256	0.004535	776.95	0.0001725	0.00018015	1149.5	298.2	0.0001727	0.00018052	569.75	241.64	142.39	66.758	0.00017604	135.11	237.434	-1.671	-79.561	-74.757	164.222	126.067	-74.625	-70.099	269.952	169.577	-70.963	-66.445	-65.706	-61.958	63.842	-62.966	-8191	255	
1092.733	1	1	0	0	0.13594	0.17642	0.092908	0.1541	0.046936	0.089175	0.27097	0.42721	0.14458	0.18592	0.26013	0.15086	0.13475	0.15927	0.23748	0.26878	-1.9896	-2.4708	-2.6604	-2.4417	-2.8146	-2.5563	-2.3792	-2.8729	-2.3896	-2.7313	-2.8396	-2.4396	-2.9167	-2.5021	-2.3667	-3.0312	224.735	67.773	56.782	-41.310	158.661	174.235	165.744	198.323	207.066	-49.211	-7.683	240.650	-65.011	-88.048	231.692	230.267	0.00034283	0.0011291	0.00041487	597.8	1.0249e-05	1.6196e-05	952	238.68	5.443e-06	3.0155e-05	456.7	209.83	108.15	55.953	6.1147e-06	121.05	0.013578	0.016598	0.0045914	780.38	0.00017499	0.00018178	1150.1	299.74	0.00017427	0.00018017	571.31	242.87	142.76	66.78	0.0001721	134.88	239.480	-26.714	-22.120	-74.794	189.776	142.179	-74.840	-70.069	235.319	40.857	-70.564	-66.247	-65.588	-61.752	169.231	-63.031	-8191	255	
1092.830	1	1	0	0	0.21591	0.10835	0.1585	0.23848	0.078965	0.10142	0.12058	0.22623	0.0094466	0.055446	0.15987	0.19687	0.076149	0.17582	0.10429	0.31402	-2.0021	-2.4958	-2.6917	-2.2917	-2.6542	-2.4042	-2.6021	-2.9146	-2.4167	-2.4792	-2.6542	-2.3917	-2.8292	-2.7479	-2.4542	-2.9625	108.847	83.305	234.007	-85.751	12.276	-3.781	215.239	201.145	-24.123	-4.614	-40.249	-31.780	199.469	228.414	187.997	184.917	0.00031375	0.0020764	0.00026302	598.31	1.3969e-05	2.6136e-05	947.51	239	5.6824e-06	9.3596e-06	458.93	209.61	108.89	56.412	8.2879e-06	122.13	0.013288	0.016165	0.0044623	772.87	0.00017047	0.00017694	1140.5	297.95	0.00017076	0.00017763	569.44	243.13	143.25	67.44	0.00017523	136.82	202.585	-12.986	-74.166	-74.421	249.074	52.807	-74.678	-69.906	40.662	208.638	-70.605	-66.483	-65.749	-61.858	122.404	-63.121	-8191	255	
1092.926	1	1	0	0	0.10571	0.22357	0.26931	0.091345	0.21543	0.070849	0.069448	0.034241	0.14449	0.20921	0.11745	0.36338	0.19724	0.20806	0.26031	0.25549	-1.9854	-2.5042	-2.7458	-2.3354	-2.5917	-2.4354	-2.3958	-2.8396	-2.5125	-2.425	-2.7979	-2.4708	-2.7396	-2.7833	-2.4542	-2.6875	104.338	184.335	127.496	232.035	243.517	83.463	-71.565	237.414	98.098	38.381	169.491	241.036	214.041	-55.979	-51.697	199.107	0.0006746	0.00091392	0.00055725	606.36	2.2387e-05	1.3942e-05	964.9	245.94	4.7945e-06	2.7477e-05	468.69	215.26	110.85	58.298	8.0192e-06	125.86	0.013722	0.016693	0.0046579	790.72	0.00017999	0.00018633	1165.8	308.42	0.00018033	0.00018595	587.92	250.44	147.92	69.576	0.00018149	140.36	249.982	-7.543	223.507	-74.594	124.997	67.326	-74.687	-70.410	66.801	137.236	-70.854	-66.497	-65.865	-62.031	147.399	-63.064	-8191	255	
1093.046	1	1	0	0	0.27913	0.057457	0.070506	0.14412	0.2507	0.022714	0.30588	0.16691	0.11614	0.26044	0.08415	0.34327	0.1387	0.27912	0.1741	0.18376	-2.0646	-2.2729	-2.7417	-2.4104	-2.6312	-2.85	-2.3208	-2.675	-2.6125	-2.4229	-2.7771	-2.6063	-2.4792	-2.8604	-2.3	-2.8771	46.388	34.319	-11.230	238.921	247.962	100.285	253.773	262.550	-15.030	69.726	-65.467	226.332	196.664	-80.501	242.480	199.006	0.00041188	0.0024536	0.00029409	608.95	8.5142e-06	1.5077e-05	968.72	248.86	1.3724e-05	1.9184e-05	474.26	218.32	113.96	59.476	1.49e-05	126.44	0.014203	0.017251	0.0047956	801.87	0.0001848	0.00019048	1176.6	313.37	0.00018559	0.00019049	597.69	254.53	150.99	70.86	0.0001858	142.04	261.119	58.211	-53.197	-75.005	228.004	19.558	-74.809	-69.983	78.772	198.228	-70.624	-66.567	-65.636	-62.190	87.680	-63.138	-8191	255	
1093.143	1	1	0	0	0.11844	0.085051	0.11811	0.12469	0.17305	0.18234	0.15184	0.20454	0.15601	0.28497	0.28208	0.30813	0.1709	0.17383	0.22531	0.31344	-2.0729	-2.3458	-2.6729	-2.6	-2.4188	-2.7333	-2.3688	-2.5521	-2.6562	-2.3187	-2.8583	-2.5708	-2.5792	-2.7042	-2.3354	-2.7771	-23.276	52.056	150.238	253.658	234.935	74.709	263.086	112.614	136.619	54.736	248.542	240.632	246.870	198.562	-11.046	177.901	0.00060095	0.0019473	0.00032361	613.52	2.0741e-05	2.7898e-05	974.94	251.25	4.3021e-06	1.572e-05	477.43	218.81	113.48	59.276	1.5647e-05	127.18	0.014394	0.017399	0.0048396	808.65	0.00018629	0.00019252	1185.1	316.35	0.00018595	0.00019161	600.05	255.55	151.32	70.865	0.00018685	142.18	271.108	28.942	43.315	-74.691	71.641	142.651	-74.914	-70.249	225.380	-26.255	-71.148	-66.596	-66.334	-62.175	176.793	-63.080	-8191	255	
1093.214	1	1	0	0	0.13763	0.28334	0.079083	0.25216	0.084251	0.15143	0.19182	0.090626	0.26518	0.28948	0.10045	0.19429	0.1087	0.16954	0.23841	0.35901	-2.1792	-2.45	-2.8167	-2.4313	-2.3354	-2.7979	-2.2646	-2.5104	-2.5729	-2.3104	-2.7208	-2.6354	-2.4333	-2.9292	-2.3458	-2.6437	64.578	92.738	191.024	225.846	41.752	258.704	189.473	259.499	40.584	83.630	206.660	260.830	251.043	172.873	92.575	197.052	0.00045155	0.0039256	0.00076364	612.57	1.2612e-05	8.5962e-06	970.22	249.85	1.0909e-05	9.0865e-06	473.43	216.38	113.9	58.843	1.0126e-05	125.88	0.01449	0.017492	0.004886	808.62	0.00018551	0.00019279	1181.4	316.69	0.00018622	0.00019255	599.66	254.41	151.38	70.657	0.00019027	142	264.787	77.006	35.573	-74.888	205.201	35.505	-74.464	-69.907	78.613	24.728	-70.514	-66.507	-66.285	-62.105	111.249	-63.353	-8191	255	
1093.335	1	1	0	0	0.19833	0.02097	0.20845	0.12775	0.031822	0.14803	0.15643	0.086286	0.19973	0.08074	0.11891	0.12016	0.26813	0.17784	0.083282	0.36467	-2.1854	-2.1958	-2.5854	-2.575	-2.5521	-2.6729	-2.4604	-2.725	-2.6771	-2.2438	-2.7479	-2.75	-2.4271	-2.9375	-2.6104	-2.6646	-34.896	95.585	230.082	224.227	102.520	267.224	76.986	203.961	51.652	15.304	137.330	265.847	36.447	-47.070	173.500	189.426	0.00017399	0.00084358	0.00090036	614.51	1.4582e-05	1.0189e-05	971.19	248.66	1.3967e-05	6.2264e-06	474.07	216.84	113.49	58.276	1.4521e-05	125.69	0.014686	0.017683	0.0049666	811.12	0.00018781	0.00019471	1184.9	315.86	0.00018816	0.00019299	598.58	254	150.28	70.172	0.0001899	141.5	217.361	-50.133	-66.680	-74.687	69.657	-10.587	-74.842	-70.361	108.363	75.312	-70.617	-66.524	-66.033	-62.110	230.928	-63.191	-8191	255	
1093.431	1	1	0	0	0.15151	0.065602	0.056283	0.32981	0.065571	0.17111	0.38943	0.26562	0.090263	0.053417	0.12499	0.33187	0.12671	0.15884	0.048255	0.23311	-2.2	-2.4229	-2.675	-2.6979	-2.4313	-2.8333	-2.5979	-2.6208	-2.8042	-2.5146	-2.6688	-2.7375	-2.2313	-2.6667	-2.4604	-2.6333	52.199	163.666	243.382	218.828	191.524	-70.743	60.174	193.137	-57.892	-41.492	270.363	213.894	189.822	-3.115	92.665	222.205	0.00055273	0.0011948	0.00012569	612.16	1.7541e-05	2.6678e-05	977.92	252.14	4.5187e-06	1.9407e-05	476.45	219.48	114	58.922	2.504e-05	127.17	0.014685	0.017798	0.0050131	815.6	0.00018917	0.00019531	1189.8	318.28	0.00018752	0.00019309	601.92	255.45	151.45	70.743	0.00018895	142.11	234.925	198.466	158.068	-74.563	60.814	-10.554	-74.697	-70.191	74.275	90.680	-70.622	-66.437	-66.168	-62.008	117.856	-63.029	-8191	255	
1093.527	1	1	0	0	0.17482	0.055869	0.16085	0.19445	0.042254	0.23575	0.091088	0.17644	0.13803	0.23352	0.25694	0.25832	0.14209	0.22741	0.28599	0.24388	-2.4	-2.1521	-2.4083	-2.7354	-2.2104	-2.6146	-2.875	-2.5083	-2.7229	-2.4667	-2.7188	-2.7208	-2.3125	-2.8688	-2.5583	-2.3875	154.158	-36.708	-1.228	223.993	-56.094	93.698	191.279	68.446	-10.848	-80.500	180.760	270.211	0.079	243.871	9.883	194.775	0.00041261	0.002641	0.00057046	614.71	1.3557e-05	1.6239e-05	977.4	250.41	2.526e-05	6.8901e-06	469.05	213.32	110.56	56.614	9.6982e-06	122.04	0.014391	0.017384	0.0048817	807.5	0.00018192	0.00018803	1174	312.6	0.00017702	0.00018239	587.25	247.56	145.31	67.574	0.0001735	136.04	239.952	-28.903	-11.138	-74.538	21.012	34.684	-74.836	-69.702	161.409	-79.741	-70.619	-66.357	-65.672	-61.911	-5.823	-63.086	-8191	255	
1093.646	1	1	0	0	0.072631	0.31172	0.12894	0.53289	0.13547	0.17605	0.26218	0.30732	0.16695	0.12967	0.1416	0.12729	0.17149	0.16478	0.050735	0.39579	-2.3125	-2.2229	-2.5771	-2.7333	-2.2375	-2.6708	-2.7438	-2.4333	-2.7625	-2.4542	-2.4604	-2.9021	-2.3896	-2.7271	-2.55	-2.5625	0.898	222.001	-29.195	271.898	91.415	251.462	246.607	172.755	175.072	-74.913	174.686	-73.586	211.587	266.508	-29.064	179.317	0.00045172	0.0009343	0.00013349	605.87	9.1122e-06	1.0785e-05	958.2	243.09	8.1812e-06	1.0758e-05	464.64	209.75	108.69	56.185	1.2048e-05	120.26	0.01329	0.016172	0.0045209	783.11	0.00017122	0.00018017	1152.7	304.33	0.00017312	0.00018126	579.13	243.69	144.21	67.222	0.00017807	134.99	229.721	22.869	202.747	-75.051	148.972	120.859	-74.860	-70.006	113.882	39.558	-70.619	-66.214	-65.650	-61.995	87.917	-62.964	-8191	255	
1093.742	1	1	0	0	0.1754	0.17134	0.14318	0.17026	0.071841	0.049398	0.40849	0.23573	0.16665	0.14177	0.17716	0.1621	0.10971	0.32627	0.2862	0.19704	-2.1937	-2.3896	-2.5583	-2.5958	-2.1646	-2.65	-2.7208	-2.3167	-2.8375	-2.5083	-2.5104	-3.1271	-2.4583	-2.6146	-2.6937	-2.5438	-58.985	29.996	101.977	-84.563	41.276	43.016	205.368	218.377	241.685	38.392	143.038	241.033	197.591	251.644	80.797	216.483	0.00045904	0.0026255	0.00068268	609.11	9.6686e-06	7.4147e-06	958.01	242.27	2.6615e-06	1.3186e-05	461.12	206.84	107.01	55.441	2.2035e-06	119.56	0.013672	0.016732	0.0046636	790.89	0.00017684	0.00018357	1156	303.1	0.00017612	0.00018256	574.7	241.4	142.67	66.321	0.00017412	133.48	-82.927	35.275	44.434	-75.109	152.213	260.991	-74.585	-69.841	-45.323	33.739	-70.866	-66.020	-65.781	-61.967	70.835	-62.843	-8191	255	
1093.838	1	1	0	0	0.19944	0.11	0.15496	0.45473	0.032357	0.043313	0.32328	0.1775	0.22927	0.15965	0.18297	0.042665	0.24087	0.29343	0.43646	0.30328	-2.2771	-2.4188	-2.3417	-2.8417	-2.2625	-2.4229	-2.8146	-2.4417	-2.6312	-2.2917	-2.4542	-2.9021	-2.6	-2.6292	-2.6396	-2.4542	160.521	-33.728	26.150	207.537	34.838	-28.327	191.879	-74.895	239.474	-17.031	-75.780	200.128	179.238	253.681	28.531	232.383	0.00046686	0.0021025	0.00085286	605.11	1.9555e-05	9.192e-06	950.31	239.99	8.2126e-06	3.1709e-05	453.53	206.89	107.93	55.478	7.453e-06	119.12	0.013453	0.016365	0.0045364	784.25	0.00017268	0.00018035	1147	300.83	0.00017499	0.00018148	571.35	241.12	143.32	66.467	0.00017939	134.01	238.437	66.929	69.477	-74.605	-4.966	20.479	-74.703	-69.718	265.796	67.029	-70.735	-66.379	-65.726	-61.609	214.312	-62.828	-8191	255	
1093.910	1	1	0	0	0.23966	0.18376	0.15189	0.064208	0.1924	0.029879	0.45412	0.10569	0.069536	0.32936	0.14217	0.27995	0.12373	0.26242	0.17262	0.18265	-2.1042	-2.6	-2.3312	-3.0042	-2.4729	-2.4896	-2.85	-2.4062	-2.6167	-2.5458	-2.625	-2.8646	-2.4792	-2.6312	-2.8229	-2.4625	101.847	48.484	138.880	245.252	89.604	235.271	234.279	115.896	44.036	200.612	-80.844	227.279	-46.621	-74.572	137.793	212.432	0.00041753	0.0003833	0.00033106	602.9	1.6211e-05	1.0553e-05	953.03	239.92	1.7254e-05	1.387e-05	454.55	205.91	107.44	54.753	7.6074e-06	117.86	0.014035	0.017042	0.0047198	790.83	0.00018234	0.00018815	1156	303.69	0.00018092	0.00018665	574.66	241.36	143.58	66.208	0.00018122	132.8	247.740	226.445	-44.689	-75.124	90.274	90.994	-74.648	-70.199	127.133	86.717	-70.758	-66.285	-66.032	-61.898	185.350	-62.994	-8191	255	
1094.031	1	1	0	0	0.21724	0.12093	0.037374	0.050603	0.18371	0.1184	0.12153	0.17654	0.14823	0.27484	0.18321	0.3727	0.14427	0.3048	0.13034	0.22054	-2.1437	-2.4667	-2.0625	-2.7208	-2.6479	-2.6271	-2.8542	-2.4125	-2.7021	-2.7687	-2.2667	-3.0875	-2.5979	-2.4688	-2.775	-2.725	-23.844	-67.753	148.986	88.159	13.280	-81.779	210.895	239.952	63.961	177.354	-51.508	222.341	199.842	-86.292	48.622	266.865	0.00021046	0.0026592	0.00040599	603.29	3.7396e-06	1.3577e-05	944.89	239.03	7.9541e-06	1.9559e-05	454.12	204.98	106.62	53.96	5.0351e-06	116.01	0.014103	0.017153	0.0047755	793.91	0.00018401	0.00019078	1155.8	305	0.00018751	0.00019354	579.47	242.41	145.19	66.267	0.00019323	132.61	238.909	39.865	146.952	-74.723	-11.533	118.252	-74.460	-69.911	268.868	182.429	-70.910	-66.255	-65.637	-61.825	29.907	-62.978	-8191	255	
1094.127	1	1	0	0	0.22347	0.23826	0.31732	0.15206	0.058687	0.14912	0.15594	0.20047	0.14912	0.21029	0.18432	0.29343	0.082375	0.47057	0.11786	0.098594	-2.3042	-2.7979	-2.3458	-2.9271	-2.6271	-2.5312	-2.8104	-2.5833	-2.6271	-2.6813	-2.3937	-2.8	-2.3812	-2.4333	-2.7979	-2.6708	162.135	-19.575	3.183	231.829	91.656	155.253	230.035	236.868	231.432	-33.452	-46.046	201.908	195.198	264.826	204.610	-79.815	0.0004639	0.0019106	0.00019526	608.35	2.4138e-05	7.741e-06	956.59	240.78	1.3807e-05	1.0456e-05	455.08	206.88	108.04	54.744	2.269e-05	117.68	0.015131	0.018289	0.0051366	816.94	0.00019859	0.00020581	1184.5	312.41	0.00020231	0.00020837	593.52	247.4	148.79	67.664	0.00020373	135.01	-78.480	15.058	242.278	-75.232	120.884	61.483	-74.710	-70.010	125.172	30.330	-70.710	-66.275	-65.314	-61.622	144.432	-62.972	-8191	255	
1094.223	1	1	0	0	0.069744	0.14576	0.12487	0.10917	0.12575	0.13599	0.16803	0.12435	0.15132	0.33004	0.19328	0.21314	0.43317	0.1979	0.18617	0.094133	-1.9458	-2.6417	-2.3604	-2.8	-2.6958	-2.3896	-2.9021	-2.5625	-2.4375	-2.65	-2.4208	-2.8521	-2.6333	-2.2521	-2.8083	-2.5729	-32.591	263.697	235.811	-36.068	16.052	79.156	71.920	189.352	29.565	-53.369	245.599	271.450	213.679	245.252	197.551	243.414	0.00061163	0.0021697	0.00054196	619.97	9.4517e-06	1.3996e-05	970.14	244.87	1.0505e-05	1.9162e-05	461.65	208.5	109.21	55.161	1.3621e-05	118.25	0.015761	0.019035	0.0053123	832.42	0.00020364	0.00021187	1202.7	317.93	0.00020667	0.00021327	603.69	250.69	151.31	68.525	0.00021159	136.54	245.350	200.682	-0.604	-75.063	91.567	149.055	-74.707	-70.086	115.166	62.159	-70.836	-66.068	-65.864	-61.894	96.450	-62.936	-8191	255	
1094.319	1	1	0	0	0.36581	0.19165	0.19248	0.053609	0.064526	0.15939	0.33282	0.13513	0.20926	0.26973	0.053416	0.065214	0.12983	0.10753	0.15995	0.42773	-1.9875	-2.6729	-2.3125	-2.3354	-2.6	-2.3292	-2.7083	-2.5979	-2.4271	-2.8854	-2.5146	-2.675	-2.4896	-2.4	-2.6312	-2.9417	155.880	126.695	268.262	198.503	230.356	-67.094	249.420	92.299	138.208	59.666	33.830	22.686	127.138	145.578	-17.727	211.272	0.0005412	0.0012449	0.00042926	621.62	1.843e-05	2.6402e-05	970.78	246.14	2.6997e-05	1.1705e-05	465.99	208.77	109.91	55.38	1.6302e-05	118.86	0.016475	0.019982	0.0056341	850.94	0.00021514	0.00022292	1221.3	323.79	0.00021564	0.00022312	611.99	252.69	153.45	69.271	0.00021907	137.41	237.640	18.724	108.376	-75.157	27.854	108.283	-74.457	-70.230	49.845	86.678	-70.541	-66.414	-65.894	-61.846	-50.360	-63.067	-8191	255	
1094.438	1	1	0	0	0.18627	0.091292	0.16421	0.14764	0.11852	0.14522	0.2431	0.19445	0.38302	0.075111	0.067136	0.20272	0.28018	0.33395	0.13159	0.18702	-2.1208	-2.6292	-2.3854	-2.7729	-2.8812	-2.2292	-2.7292	-2.6646	-2.2833	-2.8125	-2.5833	-2.4979	-2.7792	-2.5021	-2.7479	-2.7875	185.275	35.088	92.044	241.333	-5.206	141.985	169.775	230.125	1.173	53.922	-16.139	227.168	82.676	233.272	73.459	-77.318	0.00053723	0.0018417	0.00072405	626.59	2.2031e-05	1.4724e-05	980.69	247.16	3.402e-06	1.6626e-05	466.98	212.14	110.33	56.131	1.9715e-05	119.35	0.016838	0.020468	0.0057484	855.77	0.00021674	0.00022591	1229.5	325.77	0.00021761	0.00022407	616.79	254.78	154.33	69.872	0.00021883	138.62	-67.305	-64.356	-29.220	-74.690	92.833	174.414	-74.623	-70.477	130.455	84.965	-70.475	-66.498	-65.732	-61.892	173.588	-62.799	-8191	255	
1094.511	1	1	0	0	0.31207	0.18302	0.17003	0.13239	0.16377	0.16502	0.35017	0.1602	0.14022	0.17481	0.35954	0.29706	0.037387	0.34403	0.045367	0.052295	-1.8917	-2.6479	-2.5083	-2.4688	-2.7792	-2.3542	-2.9437	-2.7896	-2.4062	-2.7979	-2.6	-2.6188	-2.8104	-2.5563	-2.5146	-2.8896	30.695	-63.199	94.532	181.347	139.636	130.274	205.411	239.398	203.812	86.825	-50.422	192.803	35.605	-68.393	9.455	255.452	0.00058734	0.0018839	0.00051083	632.63	1.0727e-05	3.3102e-05	984.59	249.48	1.1799e-05	2.4793e-05	470.68	212.59	110.98	55.899	7.0942e-06	119.96	0.016685	0.020343	0.0056722	857.64	0.00021394	0.00022147	1228.4	326.53	0.00021412	0.00022259	616.27	255.48	154.51	69.914	0.00021802	138.75	267.701	23.565	22.168	-74.514	-77.470	120.789	-75.032	-69.751	88.335	-2.487	-70.728	-66.482	-65.934	-62.028	241.536	-62.977	-8191	255	
1094.607	1	1	0	0	0.16629	0.22711	0.03414	0.17201	0.31352	0.023974	0.074773	0.36181	0.079088	0.35656	0.036554	0.22999	0.15408	0.33787	0.16544	0.26875	-1.7917	-2.6542	-2.525	-2.4458	-2.85	-2.3958	-2.7188	-2.8271	-2.3271	-2.775	-2.8104	-2.4146	-2.8833	-2.4188	-2.5604	-3.1208	259.508	219.945	156.566	220.250	88.062	34.349	102.743	252.499	236.581	219.705	81.569	248.594	-22.779	179.473	263.928	182.014	0.00049177	0.0028906	0.00044328	632.42	1.7174e-05	2.9614e-05	983.83	249.59	1.597e-05	1.8184e-05	468.86	211.71	111.02	55.973	1.46e-05	119.55	0.016653	0.020373	0.0056826	858.59	0.00021522	0.00022272	1230.6	325.76	0.00021281	0.00022067	614.94	254.06	154.04	69.721	0.00021525	138.08	-86.895	213.282	-62.219	-74.892	-7.502	-35.946	-74.642	-70.071	94.545	255.967	-70.601	-66.403	-65.782	-61.889	121.028	-63.064	-8191	255	
1094.726	1	1	0	0	0.25842	0.072834	0.28181	0.073255	0.16558	0.081945	0.16795	0.065555	0.06772	0.14793	0.24823	0.27737	0.086151	0.12882	0.040881	0.14858	-2.0187	-2.7854	-2.5229	-2.4562	-2.6562	-2.4104	-2.6229	-2.7938	-2.375	-2.6292	-2.5938	-2.3917	-2.9	-2.5792	-2.4375	-2.9375	-12.956	-17.686	26.950	189.684	236.388	-71.622	230.041	261.006	223.279	133.551	174.614	243.835	25.626	122.077	75.595	220.280	0.00081155	0.001187	0.00076427	628.71	1.7504e-05	5.5141e-06	976.95	247.45	7.5167e-06	1.4847e-05	462.32	206.52	107.66	54.532	8.4267e-06	117.29	0.016549	0.020279	0.0056439	853.1	0.00021283	0.00022126	1217.2	321.81	0.00020732	0.00021391	601.27	247.3	148.79	67.383	0.00020078	133.93	244.219	-12.211	24.259	-74.801	98.596	241.792	-74.695	-69.978	-68.168	126.875	-70.459	-66.371	-65.063	-61.856	81.357	-62.626	-8191	255	
1094.823	1	1	0	0	0.29217	0.35381	0.13674	0.22724	0.34901	0.119	0.049785	0.28109	0.11475	0.038887	0.16374	0.10204	0.20563	0.41893	0.14291	0.15569	-1.9021	-2.5583	-2.4979	-2.2979	-2.7708	-2.425	-2.3604	-2.9833	-2.3208	-2.6	-2.7104	-2.3896	-2.5854	-2.4875	-2.3688	-2.7854	52.662	92.569	56.143	-43.211	90.798	130.057	119.610	208.935	240.275	132.031	-62.152	202.996	207.078	215.294	260.686	135.483	0.00030434	0.00047248	0.00058974	618.08	7.1278e-06	1.1145e-05	969.41	244.02	6.3325e-06	1.9763e-05	460.09	207.62	108.84	54.954	7.3184e-06	118.61	0.015265	0.018533	0.0051301	825.21	0.00019464	0.00020153	1188.3	312.14	0.000193	0.00019941	590.26	245	147.09	67.29	0.00019141	134.7	243.307	22.357	-18.644	-74.970	180.831	196.251	-74.469	-70.337	-72.414	13.120	-70.882	-66.357	-65.880	-61.855	83.842	-62.924	-8191	255	
1094.919	1	1	0	0	0.099293	0.045144	0.0075793	0.042068	0.22242	0.17614	0.070566	0.13995	0.15268	0.24742	0.10716	0.14551	0.086606	0.083788	0.11723	0.10017	-1.8854	-2.5896	-2.7896	-2.3958	-2.6833	-2.6292	-2.6312	-2.7771	-2.4271	-2.5667	-2.825	-2.4771	-2.7646	-2.7625	-2.2438	-2.7938	18.532	219.876	-7.560	-56.340	207.728	-15.169	165.639	139.269	137.064	-58.407	245.272	-46.379	-37.158	263.819	207.525	122.734	0.00040919	0.0032013	0.00046881	628.92	1.2519e-05	1.7184e-05	980.79	247.4	1.7333e-05	2.2391e-06	469.17	210.78	110.17	55.661	3.0154e-05	119.76	0.014712	0.017895	0.0049435	821.78	0.00018692	0.0001943	1187.3	312.42	0.00018509	0.00019058	589.89	246.46	147.35	67.645	0.00018614	135.71	257.644	-46.668	114.187	-74.866	191.433	39.650	-74.654	-70.054	108.689	-62.875	-70.689	-66.280	-65.701	-61.902	84.302	-63.077	-8191	255	
1095.015	1	1	0	0	0.088424	0.15092	0.090143	0.18701	0.063272	0.21236	0.06173	0.24994	0.21943	0.22771	0.37104	0.10431	0.17982	0.3276	0.095199	0.17837	-2.1333	-2.5771	-2.6625	-2.45	-2.3688	-2.5563	-2.4208	-2.8333	-2.5	-2.5792	-2.9313	-2.6292	-2.5417	-2.5729	-2.3604	-2.7812	-11.075	108.681	54.632	252.607	238.143	128.975	159.340	-67.402	239.324	-17.536	103.840	-18.641	200.378	244.036	157.051	239.256	0.00038289	0.0020288	0.00071722	630.37	1.3276e-05	3.8901e-06	972.24	247.72	7.2757e-06	1.9096e-05	464.37	209.96	109.26	55.3	2.0704e-05	118.85	0.014483	0.017637	0.0048946	823.93	0.00018744	0.00019502	1185.5	314.14	0.00018816	0.00019407	591.43	246.14	147.57	67.324	0.00018868	134.5	239.869	109.526	11.534	-75.253	249.111	-64.489	-74.536	-69.877	148.952	73.651	-70.604	-66.753	-65.747	-61.762	112.577	-62.886	-8191	255	
1095.111	1	1	0	0	0.24499	0.25105	0.24798	0.21109	0.074097	0.17427	0.23087	0.19265	0.099521	0.18503	0.11825	0.30058	0.086911	0.012909	0.15356	0.15846	-1.9854	-2.3958	-2.7083	-2.45	-2.7021	-2.7062	-2.2833	-2.4625	-2.6125	-2.4083	-2.9	-2.7021	-2.6604	-2.6813	-2.325	-3.0625	253.211	-27.674	105.977	266.951	165.012	185.238	200.414	261.437	69.380	45.015	189.727	93.507	210.347	96.264	69.883	197.906	0.00025333	0.0037129	0.00057739	622.11	9.827e-06	1.2113e-05	968.73	246.75	7.3686e-06	1.4441e-05	463.14	208.07	109.65	55.374	1.0719e-05	118.29	0.014678	0.017746	0.0049599	824.87	0.00019074	0.00019803	1184.7	314.2	0.00019066	0.00019555	590.06	245.24	147.52	67.226	0.00018759	134.18	235.321	21.285	2.600	-74.978	222.505	252.081	-74.860	-70.077	-63.521	131.263	-70.802	-66.333	-65.615	-62.102	228.111	-63.100	-8191	255	
1095.207	1	1	0	0	0.26395	0.10782	0.13034	0.27936	0.14715	0.22618	0.21905	0.091974	0.063965	0.16498	0.078583	0.2984	0.082714	0.16406	0.18398	0.11745	-2.2313	-2.3875	-2.8542	-2.4604	-2.425	-2.6917	-2.45	-2.6646	-2.6271	-2.2917	-2.9979	-2.6813	-2.475	-2.7854	-2.3021	-2.6708	-87.379	53.012	145.306	-78.399	165.887	132.902	233.749	-48.776	242.235	134.454	268.276	226.567	238.153	-80.031	258.084	-85.485	0.00058889	0.0011512	0.00025972	631.73	1.4075e-05	2.3442e-05	974.12	251.19	2.0498e-05	1.7746e-05	465.53	209.21	109.83	55.658	1.8067e-05	119.1	0.014584	0.017603	0.0049241	827.18	0.00018897	0.00019678	1188.7	317.38	0.00019117	0.00019683	593.42	247.09	148.54	67.858	0.00019132	135.41	243.871	156.314	-15.725	-74.967	101.744	-16.866	-74.758	-70.034	36.362	103.611	-70.702	-66.315	-65.478	-62.032	-58.556	-63.003	-8191	255	
1095.328	1	1	0	0	0.12294	0.032097	0.17915	0.2899	0.1512	0.12222	0.20759	0.07686	0.15721	0.22237	0.1766	0.11066	0.20179	0.43044	0.23263	0.2098	-2.1354	-2.3271	-2.7167	-2.5812	-2.5521	-2.7917	-2.5021	-2.6937	-2.7062	-2.4854	-2.6917	-2.5417	-2.4313	-2.9188	-2.4229	-2.7771	260.193	-54.671	-17.995	211.253	240.435	191.981	254.193	-47.769	208.895	243.937	256.257	213.170	248.333	218.299	-8.410	187.974	0.00035849	0.0013102	0.00054585	637.06	6.5924e-06	4.5993e-06	983.29	253.36	1.3707e-06	3.3842e-06	472.46	213.99	112.11	56.96	1.1586e-05	121.14	0.014762	0.017832	0.0050026	836.26	0.00019062	0.00019795	1199.4	321.3	0.00019156	0.0001964	602.13	251.5	151.03	69.145	0.00019314	137.44	268.565	-7.175	106.245	-74.743	255.099	-80.312	-74.460	-70.015	48.877	231.857	-70.750	-66.296	-65.989	-62.032	105.308	-62.991	-8191	255	
1095.424	1	1	0	0	0.11455	0.044225	0.083391	0.12319	0.23286	0.067067	0.11639	0.0069201	0.233	0.14109	0.13127	0.15427	0.16858	0.33914	0.18934	0.16673	-2.1271	-2.2875	-2.6792	-2.6646	-2.2792	-2.8125	-2.5	-2.6125	-2.6542	-2.3521	-2.8187	-2.575	-2.3146	-2.9771	-2.4021	-2.85	7.207	62.763	210.788	9.136	258.036	133.466	235.790	-27.063	-17.826	47.282	194.059	111.894	206.509	193.544	-36.210	256.031	0.00040663	0.00094341	0.00032708	636.11	1.0074e-05	1.4754e-05	992.39	256.3	9.8167e-06	1.7671e-05	475.98	215.44	113.56	57.643	2.9415e-05	122.43	0.015005	0.018044	0.0051223	842.68	0.00019417	0.00020212	1213.9	325.3	0.00019543	0.00020148	608.58	254.6	153.07	70.065	0.00019651	138.68	264.794	-55.040	199.287	-75.018	108.374	99.794	-74.634	-70.274	100.681	122.790	-71.014	-66.508	-65.935	-61.997	127.122	-62.950	-8191	255	
1095.518	1	1	0	0	0.11616	0.18102	0.11099	0.18123	0.22782	0.094899	0.16553	0.1621	0.20501	0.16682	0.27483	0.29403	0.40875	0.1451	0.2468	0.31744	-2.3104	-2.15	-2.6729	-2.5875	-2.3	-2.7354	-2.4813	-2.6229	-2.7271	-2.3104	-2.6667	-2.6688	-2.2979	-2.8312	-2.5312	-2.5479	40.097	71.133	17.139	159.770	-68.898	59.429	131.687	151.038	-20.317	-65.148	-70.976	264.380	-78.821	-15.699	4.045	182.139	0.0008643	0.0011273	0.00012247	643.5	1.5344e-05	8.9463e-06	986.37	257.01	5.3663e-07	1.4987e-05	479.81	215.54	114.41	57.911	1.455e-05	123.09	0.015116	0.018226	0.0051254	847.06	0.00019397	0.00020142	1209.4	325.72	0.00019409	0.00020098	610.92	254.9	154.05	70.494	0.00020058	139.71	208.635	133.398	-74.831	-74.524	120.316	218.210	-74.446	-70.098	205.563	85.906	-70.565	-66.528	-65.967	-62.100	121.164	-63.309	-8191	255	
1095.614	1	1	0	0	0.062893	0.15307	0.19972	0.31138	0.19715	0.095434	0.13082	0.32143	0.085974	0.26536	0.26895	0.16266	0.056976	0.20413	0.11746	0.21443	-2.3083	-2.325	-2.3646	-2.7062	-2.1542	-2.6479	-2.5833	-2.5979	-2.5625	-2.4292	-2.5854	-2.8187	-2.2896	-2.9333	-2.5917	-2.4896	186.241	-45.466	176.375	172.899	177.614	141.189	136.766	183.539	226.862	-10.984	232.610	208.616	-55.834	269.983	-78.717	229.447	0.00049791	0.0022622	0.00041101	645.71	1.3944e-05	1.6752e-05	995.32	260.41	9.8067e-06	5.0211e-06	483.14	218.74	115.35	58.566	1.7434e-05	124.14	0.015363	0.018735	0.0053014	855.78	0.00020025	0.00020941	1224.9	330.92	0.00020124	0.00020778	618.42	258.25	155.76	71.41	0.00020136	140.61	228.050	244.076	-55.650	-74.889	255.821	25.010	-74.643	-70.080	98.189	95.028	-70.845	-66.443	-66.040	-62.190	269.634	-63.121	-8191	255	
1095.735	1	1	0	0	0.15749	0.0084142	0.19918	0.34243	0.16494	0.20548	0.11238	0.19309	0.11402	0.27109	0.12302	0.23601	0.17764	0.12001	0.081969	0.30791	-2.1937	-2.3208	-2.5938	-2.6458	-2.4104	-2.85	-2.575	-2.4188	-2.6437	-2.4458	-2.6771	-2.9667	-2.3375	-2.7938	-2.5875	-2.4396	90.757	-41.948	263.396	197.744	36.922	77.030	-78.227	153.227	238.150	-38.358	269.232	215.712	163.555	185.777	245.978	247.466	0.00041742	0.0019243	0.00066178	644.64	5.2411e-06	1.8575e-05	993.4	260.06	9.9474e-06	2.3794e-05	481.33	217.81	115.84	58.209	6.7662e-06	122.52	0.015371	0.018672	0.0051902	853.22	0.00019612	0.00020515	1217.5	328.91	0.00019599	0.00020355	615.38	257.12	155.01	70.889	0.00019956	139.58	215.377	69.687	128.341	-74.693	49.725	38.288	-74.750	-70.209	-23.799	-33.146	-70.992	-66.545	-65.658	-61.885	101.522	-63.273	-8191	255	
1095.807	1	1	0	0	0.17402	0.16323	0.054521	0.34152	0.096673	0.15671	0.16526	0.11598	0.15389	0.33618	0.095574	0.057557	0.27823	0.13501	0.20445	0.40928	-2.2729	-2.4521	-2.5687	-2.7854	-2.4562	-2.6708	-2.7979	-2.2625	-2.6271	-2.5271	-2.4771	-2.8167	-2.3771	-2.7625	-2.7104	-2.35	4.801	91.338	170.565	-72.051	52.357	201.017	253.155	267.104	-69.182	-3.025	-53.043	213.114	185.301	128.937	-75.619	212.496	0.00039772	0.0022417	0.00028625	639.44	1.2961e-06	1.2354e-05	986.78	257.76	9.8869e-06	1.5197e-05	479.17	216.47	113.72	57.672	1.0617e-05	121.97	0.015327	0.018686	0.0052221	846.97	0.00019774	0.00020518	1212.1	326.88	0.00019552	0.00020212	608.2	254	152.93	69.874	0.00019276	137.79	264.907	21.284	-61.564	-74.919	255.301	131.636	-74.790	-70.030	199.523	26.349	-70.906	-66.309	-65.833	-61.951	-25.251	-63.138	-8191	255	
1095.903	1	1	0	0	0.12584	0.28883	0.057547	0.040738	0.16236	0.11485	0.014792	0.25535	0.26051	0.30861	0.19091	0.095289	0.23085	0.16072	0.11054	0.38373	-2.2167	-2.2938	-2.1896	-2.925	-2.325	-2.5833	-2.7667	-2.3271	-2.7604	-2.4646	-2.675	-3.0687	-2.4021	-2.4917	-2.6021	-2.6271	96.663	36.591	-9.276	256.761	70.537	255.578	17.708	194.171	255.879	-5.437	-13.720	188.211	255.216	248.206	-0.134	191.971	0.00051261	0.001864	0.00063482	641.76	1.2224e-05	1.1847e-05	981.12	254.75	4.0367e-06	1.6701e-05	473.31	210.65	111.26	56.228	1.3038e-05	119.2	0.014856	0.017924	0.004953	835.03	0.00018763	0.00019413	1191.8	319.65	0.00018567	0.00019123	595.33	247.33	148.59	67.954	0.00018623	134.68	257.403	-10.878	49.659	-74.814	253.525	211.703	-74.886	-70.192	204.990	229.961	-70.883	-66.418	-65.831	-61.820	139.747	-62.988	-8191	255	
1095.999	1	1	0	0	0.22206	0.27811	0.087196	0.031722	0.084359	0.14026	0.11377	0.21681	0.12639	0.13079	0.18713	0.13816	0.33273	0.2853	0.24481	0.30285	-2.1646	-2.5417	-2.3604	-2.8167	-2.35	-2.4062	-2.8292	-2.2458	-2.6146	-2.5812	-2.2812	-2.8	-2.5312	-2.4813	-2.7417	-2.5646	262.066	16.335	42.524	134.515	-67.995	-15.841	187.414	266.388	-17.315	266.060	159.730	194.422	252.908	243.342	-67.350	218.382	0.00050382	0.0020524	0.00015352	633.38	1.8165e-05	1.6196e-05	978.79	254.25	1.2242e-05	1.6307e-05	469.9	210.76	111.2	56.094	1.0341e-05	119.2	0.014381	0.017536	0.004869	827.8	0.00018718	0.00019407	1188.7	318.88	0.00018806	0.00019447	595.46	248.02	149.5	68.088	0.00018987	135.38	255.267	-34.415	-10.634	-74.647	115.357	22.947	-74.832	-69.764	185.180	261.393	-70.787	-66.288	-65.498	-61.722	-39.725	-63.022	-8191	255	
1096.120	1	1	0	0	0.36656	0.23486	0.10374	0.26975	0.13472	0.060154	0.24331	0.16589	0.10009	0.13978	0.22601	0.34112	0.23134	0.10967	0.062104	0.21919	-2.2625	-2.5687	-2.3354	-2.6562	-2.4688	-2.4729	-2.775	-2.3458	-2.4833	-2.6	-2.1667	-3.0354	-2.6375	-2.6208	-2.775	-2.5458	228.118	271.585	57.327	149.121	252.965	24.291	214.669	237.821	77.009	266.111	244.315	238.737	169.774	-13.519	141.514	175.572	0.00039967	0.00016334	0.00040368	632.31	1.1402e-05	1.3358e-05	971.36	252.2	4.1239e-06	1.8019e-05	467.38	208.97	110.45	55.837	1.9961e-05	118.56	0.014731	0.017872	0.0049519	830.61	0.00018934	0.00019527	1187.5	317.9	0.00018696	0.00019317	591.62	246.36	148.68	67.716	0.00018768	134.08	242.099	-75.218	118.255	-75.130	199.273	230.615	-74.554	-70.101	27.737	203.994	-70.552	-66.056	-65.634	-61.789	82.690	-62.999	-8191	255	
1096.216	1	1	0	0	0.06086	0.11899	0.26744	0.15463	0.16786	0.17196	0.25634	0.17493	0.17187	0.20189	0.13787	0.30285	0.26221	0.14756	0.18485	0.12773	-1.9813	-2.6208	-2.3521	-2.8833	-2.5958	-2.1792	-2.8833	-2.3729	-2.6104	-2.7167	-2.325	-2.8479	-2.6021	-2.4667	-2.7833	-2.7062	146.187	234.571	64.498	103.834	171.495	5.904	207.236	-78.303	191.346	-15.146	154.736	251.647	132.392	-57.754	187.541	244.410	0.00045227	0.0021227	0.00010023	632	9.2428e-06	1.6742e-05	969.95	251.37	1.2791e-05	2.701e-05	467.09	208.21	111.45	56.051	1.0325e-05	118.19	0.014503	0.017501	0.0048739	827.35	0.00018676	0.00019238	1180.6	317.48	0.0001854	0.00019188	590.48	245.93	148.94	67.919	0.00018723	134.24	265.042	57.807	268.722	-75.057	171.331	102.238	-74.778	-70.379	-72.111	26.643	-70.507	-66.418	-65.779	-61.671	-2.678	-63.032	-8191	255	
1096.312	1	1	0	0	0.028737	0.16153	0.11876	0.19223	0.16175	0.17888	0.073863	0.16244	0.2147	0.33528	0.10874	0.20679	0.038895	0.26373	0.18703	0.092058	-1.9792	-2.5958	-2.2979	-2.4688	-2.6375	-2.3042	-2.7542	-2.5333	-2.3646	-2.7521	-2.2833	-2.7729	-2.7479	-2.2646	-2.7854	-2.6146	67.160	96.016	185.669	240.633	30.276	265.131	136.694	194.501	220.964	-20.120	176.783	186.622	208.116	201.081	118.807	-55.965	0.00034772	0.00093138	0.00048072	636.99	2.232e-05	1.7864e-05	971.82	254.5	1.4867e-05	2.8054e-06	471.42	211.09	112.26	56.5	8.2699e-07	118.67	0.014418	0.01741	0.0048592	829.5	0.00018559	0.00019072	1182.9	318.67	0.00018325	0.00018998	592.82	247.25	149.08	68.198	0.00018563	134.53	263.503	150.786	-37.242	-74.855	119.012	24.621	-74.529	-70.160	-88.046	75.365	-70.759	-66.550	-66.051	-61.929	1.587	-63.030	-8191	255	
1096.408	1	1	0	0	0.056691	0.29359	0.17196	0.206	0.30674	0.17627	0.060825	0.26507	0.22461	0.20162	0.095142	0.24106	0.30471	0.25967	0.33649	0.22108	-2	-2.7812	-2.1896	-2.625	-2.5021	-2.475	-2.8125	-2.5833	-2.4167	-2.8521	-2.3354	-2.6458	-2.7521	-2.3563	-2.6708	-2.65	92.492	-69.903	-63.947	240.013	173.884	113.630	266.408	197.293	90.921	115.046	-80.247	264.673	248.919	190.744	41.241	-85.799	0.00046904	0.001933	0.00022769	633.97	7.6013e-06	6.321e-06	978.23	253.1	1.2518e-05	1.572e-05	467.16	210.25	111.48	56.474	1.2225e-05	118.96	0.014277	0.017287	0.0048305	827.13	0.00018481	0.00019044	1187.8	319.52	0.00018473	0.00019168	592.62	247.3	149.55	68.249	0.00019062	135.08	243.231	73.648	269.789	-74.940	-9.861	-9.377	-74.288	-70.495	111.373	49.027	-70.685	-66.129	-65.939	-61.569	-9.803	-62.968	-8191	255	
1096.504	1	1	0	0	0.033464	0.10671	0.076831	0.2076	0.021112	0.090347	0.048085	0.19929	0.27643	0.078231	0.3215	0.24151	0.33983	0.18279	0.073717	0.10221	-1.9167	-2.9083	-2.4125	-2.6042	-2.8187	-2.2458	-3.0062	-2.6688	-2.3646	-2.8208	-2.5563	-2.6646	-2.7104	-2.575	-2.6729	-2.9375	-51.820	234.442	-1.534	233.856	235.828	33.140	103.227	-60.498	156.101	75.920	153.095	263.211	130.235	-48.728	83.151	-24.984	0.00052319	0.001226	0.00069625	639.55	1.1103e-05	1.5612e-05	984.35	254.28	2.2969e-05	1.509e-05	469.15	211.27	113.02	57.015	1.5275e-05	119.68	0.014702	0.017886	0.005044	838.67	0.00019268	0.00019989	1203.5	323.46	0.00019483	0.000202	600.38	250.37	152.18	69.383	0.00019836	136.4	257.893	83.931	13.392	-74.813	94.158	45.043	-74.818	-69.947	68.699	266.337	-70.730	-66.438	-65.699	-61.954	229.264	-63.086	-8191	255	
1096.600	1	1	0	0	0.063791	0.24498	0.14616	0.083461	0.084772	0.096521	0.14678	0.03896	0.089366	0.11056	0.24734	0.3427	0.32467	0.34733	0.20445	0.26319	-1.8167	-2.7062	-2.3083	-2.4521	-3.0083	-2.1937	-2.6937	-2.6375	-2.1458	-2.7313	-2.6583	-2.5187	-2.75	-2.4396	-2.6271	-2.8333	54.726	165.290	6.310	212.861	215.306	68.491	191.773	30.338	3.325	156.974	269.694	194.597	208.649	191.812	160.162	226.317	0.00039697	0.0029239	0.00062662	638.8	4.8099e-06	1.7791e-05	980.32	255.9	1.1813e-05	2.9844e-05	465.1	211.9	112.19	57.199	1.928e-05	119.74	0.015198	0.018525	0.0052128	846.72	0.00019769	0.00020603	1208.4	325.79	0.00019918	0.00020696	603.5	251.88	153.46	69.991	0.00020555	137.25	230.196	17.537	29.404	-74.846	29.958	-43.755	-74.539	-69.991	41.717	-38.283	-70.514	-66.325	-65.553	-62.131	-72.338	-62.995	-8191	255	
1096.697	1	1	0	0	0.20921	0.12406	0.071767	0.13211	0.18292	0.084393	0.12309	0.17647	0.17312	0.076994	0.33521	0.27077	0.16442	0.06798	0.18837	0.29721	-1.8687	-2.5938	-2.4042	-2.4625	-2.8063	-2.4646	-2.6833	-2.7646	-2.1271	-2.4979	-2.5771	-2.5021	-2.8854	-2.6	-2.6375	-2.7562	-76.625	2.950	155.635	215.535	123.204	193.304	-42.673	244.264	23.520	94.895	241.882	241.809	109.169	90.493	39.958	217.700	0.00034281	0.0020695	0.00022472	643.97	1.4394e-05	7.3142e-06	987.91	255.46	1.1783e-05	1.2421e-05	470.18	213.24	113.96	57.372	1.275e-05	120.86	0.015818	0.019366	0.0054307	858.95	0.00020528	0.00021388	1221.4	328.28	0.00020461	0.00021269	607.84	253.91	155.32	70.756	0.00020987	138.58	209.381	43.425	149.565	-74.914	12.088	143.675	-74.421	-69.706	182.892	86.680	-70.670	-66.538	-66.026	-61.866	136.175	-63.067	-8191	255	
1096.815	1	1	0	0	0.11084	0.19327	0.096169	0.040637	0.1879	0.34011	0.42122	0.2576	0.11203	0.15151	0.058028	0.11542	0.15944	0.15236	0.039312	0.15828	-1.8375	-2.5062	-2.6521	-2.4604	-2.7917	-2.325	-2.6312	-2.6646	-2.2	-2.6083	-2.6479	-2.4229	-2.7271	-2.5979	-2.5083	-2.8271	103.904	-32.725	109.666	-9.108	121.027	4.194	227.118	248.229	91.087	29.807	159.034	182.615	166.745	241.169	192.662	159.970	0.00043166	0.0008315	0.0001308	647.83	2.41e-05	5.8679e-06	989.67	258.69	2.2128e-05	2.9328e-06	473.82	215.1	115.24	58.336	2.127e-05	121.59	0.016095	0.019644	0.0054873	866.03	0.00020846	0.0002176	1230	331.21	0.00020731	0.00021531	613.86	255.76	156.71	71.549	0.00020925	139.12	242.380	84.600	3.452	-74.572	83.613	-55.923	-74.700	-69.967	92.774	22.091	-70.875	-66.441	-65.643	-62.065	-37.954	-62.958	-8191	255	
1096.912	1	1	0	0	0.19452	0.082069	0.12115	0.23983	0.075089	0.30775	0.15873	0.42927	0.21637	0.28037	0.1538	0.18393	0.40656	0.20966	0.16524	0.090021	-1.8396	-2.5104	-2.4875	-2.1833	-2.6562	-2.4771	-2.5938	-2.6562	-2.1333	-2.5542	-2.7333	-2.3583	-2.7938	-2.6104	-2.2854	-2.8479	-62.779	58.553	-25.499	180.449	154.203	136.831	236.616	155.637	116.798	248.266	-82.971	256.435	142.870	-64.010	226.568	226.037	0.00029403	0.0027619	0.0006457	647.05	1.7659e-05	8.6753e-06	987.13	258.65	1.3272e-05	5.2347e-06	471.5	213.79	114.41	57.666	1.7574e-05	119.95	0.016146	0.019658	0.0054897	864.77	0.00020783	0.00021652	1226	331.82	0.00020847	0.00021708	611.69	254.75	156.61	71.092	0.00021061	137.97	-81.168	112.319	13.422	-75.068	-34.870	155.608	-74.724	-70.160	134.059	-50.951	-70.870	-66.363	-65.841	-61.702	130.426	-63.280	-8191	255	
1097.008	1	1	0	0	0.20502	0.25518	0.14757	0.22484	0.16324	0.11295	0.27473	0.22319	0.098887	0.098521	0.16696	0.12831	0.085291	0.23587	0.050425	0.24569	-1.8833	-2.3125	-2.4437	-2.3688	-2.5375	-2.4229	-2.4813	-2.775	-2.3979	-2.5729	-2.7271	-2.5271	-2.625	-2.5687	-2.3417	-2.9021	165.298	-30.585	-36.497	228.926	127.394	33.721	206.903	236.924	-20.890	53.944	124.497	-56.009	268.435	198.608	251.345	226.945	0.00023349	0.0024093	0.00036561	646.43	1.6975e-05	1.8047e-05	983.83	256.95	4.5896e-06	1.9695e-05	467.92	210	113.09	56.827	1.9483e-05	118.14	0.016288	0.019692	0.0054951	865.64	0.0002096	0.00021821	1222.3	329.36	0.00020808	0.00021348	605.81	251.36	154.13	69.962	0.00020589	135.88	215.513	-16.492	59.665	-74.925	85.160	-12.157	-74.616	-70.010	134.723	255.650	-70.897	-66.388	-65.696	-61.968	-59.623	-63.128	-8191	255	
1097.104	1	1	0	0	0.1895	0.060516	0.13236	0.048694	0.1049	0.03747	0.21611	0.17998	0.14831	0.13329	0.13258	0.28511	0.048216	0.2268	0.27168	0.30385	-2.0167	-2.3167	-2.6396	-2.3771	-2.6792	-2.7313	-2.5062	-2.8521	-2.4313	-2.5604	-2.7854	-2.6104	-2.6562	-2.7646	-2.1958	-2.9292	91.596	115.031	38.551	4.872	-86.033	77.720	191.169	216.681	66.503	123.096	4.532	173.383	19.240	199.055	50.894	228.906	0.00036119	0.0032489	0.00036788	639.23	1.787e-05	9.5233e-06	975.88	250.77	2.3857e-05	1.5558e-05	459.95	206.32	110.58	55.865	7.6697e-06	117.43	0.015979	0.019202	0.0053391	851.01	0.00020233	0.00020901	1204.8	320.99	0.00019974	0.00020518	591.97	246.12	150.81	68.544	0.0002004	134.4	256.273	4.285	115.342	-74.700	41.970	45.040	-75.119	-70.031	260.583	11.076	-70.462	-66.385	-65.382	-61.501	198.585	-62.844	-8191	255	
1097.200	1	1	0	0	0.063266	0.19681	0.022911	0.17601	0.14418	0.11014	0.13973	0.084428	0.32301	0.14761	0.18652	0.16165	0.1907	0.12256	0.1704	0.23568	-1.9562	-2.4458	-2.8646	-2.625	-2.4562	-2.5917	-2.375	-2.8083	-2.4042	-2.5062	-2.9271	-2.6583	-2.7333	-2.9562	-2.1729	-2.8208	-75.707	-12.318	232.005	265.926	174.617	84.275	259.186	258.215	55.906	208.994	175.257	-78.594	257.363	252.250	-6.436	186.660	0.00053483	0.001788	0.00052239	638.32	2.229e-05	1.5976e-05	975.14	248.47	1.4439e-05	2.2612e-05	454.19	204.52	109.04	54.82	5.1132e-06	115.91	0.015626	0.018625	0.0051996	845.9	0.00019742	0.0002038	1195.4	317.63	0.00019478	0.00019927	585.55	243.2	148.25	67.368	0.00019559	132.14	263.996	113.835	239.639	-74.919	9.338	158.387	-74.872	-70.171	-30.073	49.658	-70.778	-66.230	-65.822	-61.704	182.695	-63.068	-8191	255	
1097.296	1	1	0	0	0.19864	0.22168	0.23063	0.2016	0.16426	0.12067	0.2838	0.10475	0.12081	0.12494	0.072401	0.22157	0.1588	0.19143	0.087999	0.31031	-2.0375	-2.1396	-2.9104	-2.5583	-2.6125	-2.6146	-2.4354	-2.7021	-2.5083	-2.4125	-2.9	-2.6146	-2.6333	-2.8312	-2.4292	-2.9854	135.561	-35.974	-77.318	-33.241	107.531	-63.699	222.269	193.144	238.673	11.918	146.309	269.434	42.772	-69.766	6.442	206.554	0.00037551	0.0016697	0.0002578	637.54	2.2302e-05	1.0314e-05	972.71	248.28	3.9071e-06	9.7689e-06	453.62	204.92	109.45	54.981	1.6088e-05	115.81	0.015249	0.018336	0.0051318	842.42	0.00019498	0.00020266	1194.2	317.45	0.00019654	0.00020045	585.82	243.89	149.02	67.607	0.00019654	132.37	217.689	-81.603	192.043	-74.822	167.324	63.414	-74.887	-70.052	-84.059	134.477	-71.055	-66.292	-65.802	-61.637	195.078	-62.703	-8191	255	
1097.392	1	1	0	0	0.17088	0.11152	0.10083	0.18562	0.23059	0.21937	0.26675	0.10981	0.0597	0.11719	0.031789	0.25549	0.10815	0.30482	0.18027	0.32539	-2.2083	-2.3187	-2.7083	-2.7292	-2.4542	-2.5729	-2.4396	-2.7188	-2.575	-2.3458	-2.9292	-2.6417	-2.2562	-2.7292	-2.3812	-2.8125	56.267	257.705	6.257	221.173	-47.491	177.368	239.121	109.148	249.103	161.748	20.221	241.197	-79.653	251.277	112.628	211.721	0.00052802	0.0012729	0.00012493	636.07	4.2024e-06	9.089e-06	968.32	247.49	4.5001e-06	1.1115e-05	451.5	204.72	109.69	55.203	7.9686e-06	115.95	0.015232	0.018461	0.0051398	842.8	0.00019612	0.00020329	1192.9	317.51	0.00019617	0.00020221	585.45	243.82	149.04	67.509	0.00019936	132.41	265.485	78.325	15.781	-74.913	160.757	-45.390	-74.758	-69.923	93.364	256.724	-70.574	-66.428	-65.991	-61.873	116.249	-63.002	-8191	255	
1097.511	1	1	0	0	0.083992	0.16254	0.16225	0.022473	0.073287	0.1987	0.11646	0.074153	0.1967	0.14581	0.12977	0.25608	0.14576	0.14992	0.0342	0.10052	-2.3021	-2.3333	-2.5938	-2.4979	-2.6083	-2.8271	-2.4333	-2.6146	-2.6896	-2.1854	-2.8646	-2.8792	-2.3146	-2.9396	-2.4021	-2.8396	-85.822	-64.968	85.284	147.238	74.395	-61.498	251.660	199.449	190.847	160.256	248.940	160.122	250.632	220.933	172.122	189.649	0.00031522	0.0013166	0.00017029	634.72	1.2488e-05	7.3185e-06	974.82	248.26	1.0753e-05	5.9303e-06	454.71	204.78	109.35	55.37	1.568e-05	115.91	0.015412	0.018608	0.0052532	845.08	0.00020029	0.00020778	1202.3	320.2	0.00019989	0.00020693	592.06	245.74	150.11	68.128	0.00020115	133.3	262.350	65.130	30.132	-74.795	212.843	179.702	-74.629	-69.981	42.192	42.777	-70.533	-66.427	-65.864	-61.744	7.521	-63.016	-8191	255	
1097.607	1	1	0	0	0.10166	0.32064	0.24089	0.039624	0.11857	0.093253	0.093142	0.14366	0.35008	0.20626	0.028979	0.18247	0.1532	0.30718	0.084777	0.1504	-2.2792	-2.2646	-2.5938	-2.6688	-2.3771	-2.8	-2.6104	-2.5396	-2.8521	-2.4042	-2.7313	-2.6792	-2.4896	-2.7479	-2.4104	-2.6729	37.170	247.275	240.130	240.657	60.671	265.848	125.848	88.060	145.008	155.468	-15.272	247.609	-78.643	226.817	231.768	195.553	0.00042578	0.0056172	0.00030032	635.33	1.4172e-05	2.4176e-05	976.6	251.75	1.2408e-05	2.1573e-05	459.55	207.16	111.95	56.913	1.4232e-05	118.16	0.015477	0.018686	0.0052489	845.86	0.00019873	0.00020656	1201.1	321.91	0.00019975	0.00020698	595.14	248.03	152.4	69.474	0.00020399	135.08	235.317	-20.045	-3.545	-74.784	48.980	125.190	-74.778	-70.090	46.525	108.531	-70.613	-66.470	-65.438	-61.765	98.446	-63.169	-8191	255	
1097.681	1	1	0	0	0.21413	0.21656	0.40166	0.063701	0.17218	0.18246	0.088209	0.11401	0.29641	0.23742	0.16676	0.30183	0.1866	0.16133	0.26017	0.21665	-2.3521	-2.475	-2.6583	-2.7979	-2.2458	-2.725	-2.7208	-2.4188	-2.8229	-2.5646	-2.7646	-2.8542	-2.3229	-2.9833	-2.3875	-2.5792	98.103	37.583	166.040	-75.034	18.992	6.230	-53.650	-38.508	97.517	-3.667	257.643	179.855	177.429	-64.526	54.998	249.459	0.00062124	0.0019434	0.00020892	640.61	1.4274e-05	1.3203e-05	978.23	254.9	2.2886e-06	1.8687e-05	464.2	210.71	113.53	57.381	2.4065e-05	119.94	0.015673	0.019024	0.0053135	853.25	0.00019976	0.00020738	1207.7	324.88	0.00019715	0.00020501	597.55	250	153.71	70.275	0.00020277	136.86	228.747	75.371	-63.592	-74.849	21.448	9.505	-74.924	-69.892	109.268	-32.906	-70.732	-66.334	-65.885	-61.922	120.408	-63.116	-8191	255	
1097.777	1	1	0	0	0.050189	0.06543	0.38171	0.31407	0.17133	0.1545	0.010957	0.44079	0.084547	0.17586	0.06603	0.11996	0.1401	0.29617	0.21964	0.14161	-2.1917	-2.3417	-2.6917	-2.6083	-2.2875	-2.8042	-2.5938	-2.1688	-2.8333	-2.525	-2.5812	-3.1021	-2.3208	-2.7125	-2.5354	-2.5187	-70.472	66.433	30.096	197.917	-24.252	-80.025	198.445	186.082	-45.081	150.976	97.729	-66.407	184.205	257.108	132.711	222.391	0.00051111	0.0021374	0.00078484	643.74	1.2249e-05	1.3279e-05	985.08	260.39	4.1453e-06	2.9022e-05	467.46	213.47	115.28	58.629	5.4001e-06	121.32	0.015599	0.01912	0.0053418	860.31	0.00020325	0.00021177	1220.9	331.55	0.00020457	0.00021246	607.48	254.51	156.74	71.702	0.00020617	138.4	212.857	46.057	58.454	-74.937	95.513	113.788	-74.875	-70.169	261.318	84.605	-70.645	-66.346	-65.501	-62.154	81.954	-63.271	-8191	255	
1097.896	1	1	0	0	0.11936	0.18619	0.10978	0.17714	0.10985	0.084601	0.12624	0.1294	0.23213	0.23049	0.13585	0.47339	0.26242	0.046936	0.17975	0.091131	-2.3771	-2.4313	-2.3646	-2.6625	-2.2938	-2.5792	-2.8354	-2.4146	-2.8333	-2.5771	-2.5375	-3.0417	-2.4854	-2.6625	-2.5646	-2.3438	191.944	5.928	85.209	239.246	-81.364	88.049	157.972	147.629	219.425	77.017	28.249	204.708	176.822	81.009	167.783	-75.304	0.00038007	0.0026683	0.00032294	649.1	3.1547e-05	6.0051e-06	987.99	259.57	7.8967e-06	7.7968e-06	468.34	213.09	113.97	58.055	1.4344e-05	120	0.015875	0.019368	0.0053888	864.12	0.00020574	0.00021478	1224	331.21	0.00020379	0.00021186	606.72	253.55	156	71.15	0.00020681	137.63	236.950	43.136	235.281	-74.597	151.768	77.017	-74.636	-70.154	23.584	67.105	-70.666	-66.274	-65.789	-61.791	97.040	-63.166	-8191	255	
1097.992	1	1	0	0	0.088767	0.072745	0.19907	0.17336	0.15829	0.23188	0.26032	0.26015	0.17936	0.044601	0.18143	0.0097276	0.14414	0.19179	0.11463	0.084585	-2.2104	-2.4708	-2.6021	-2.9875	-2.4833	-2.6729	-2.8271	-2.3604	-2.7583	-2.6146	-2.6042	-2.9292	-2.5292	-2.5271	-2.7458	-2.3937	190.857	146.762	-1.729	219.003	106.707	-33.553	140.291	151.246	195.724	31.300	-82.703	77.045	18.084	266.859	269.113	30.163	0.00044401	0.0013703	0.00046608	649.15	2.4039e-05	1.37e-05	980.87	257.4	4.3218e-06	2.8166e-05	466.47	211.94	113.92	57.682	6.873e-06	119.45	0.015895	0.019429	0.0053982	863.7	0.00020571	0.00021289	1215.7	330.23	0.00020258	0.00021085	603.15	251.73	155.28	70.669	0.00020441	136.6	229.358	76.289	1.090	-74.874	158.563	-30.179	-74.565	-69.885	175.750	127.055	-70.988	-66.185	-65.739	-61.986	117.359	-63.104	-8191	255	
1098.088	1	1	0	0	0.30761	0.17927	0.073483	0.12569	0.10547	0.10039	0.1953	0.29086	0.16504	0.17476	0.14568	0.14885	0.20196	0.33645	0.1242	0.12344	-2.1771	-2.6896	-2.4167	-3.0312	-2.4104	-2.5187	-2.7833	-2.2604	-2.5521	-2.4375	-2.4979	-3.0667	-2.7354	-2.55	-2.7604	-2.6646	242.909	-46.445	-72.335	227.978	-80.749	3.875	266.711	248.764	207.521	1.744	-25.930	251.990	23.767	252.790	199.253	199.407	0.00025188	0.0025923	0.00030688	647.56	4.0012e-06	1.3514e-05	983.09	258.17	2.1239e-05	1.3972e-05	466.34	211.48	114.39	58.289	1.4197e-05	119.25	0.015658	0.019131	0.0052991	859.28	0.00020266	0.00020905	1214.1	330.53	0.00020136	0.00020914	601.49	251.54	155.39	70.639	0.00020026	136.23	261.547	-12.431	54.403	-74.847	-70.499	117.626	-74.913	-70.061	160.088	71.000	-70.588	-66.545	-66.015	-62.104	24.817	-63.407	-8191	255	
1098.209	1	1	0	0	0.096187	0.17394	0.28348	0.29218	0.19239	0.077452	0.10455	0.12274	0.096061	0.062147	0.33312	0.22739	0.15836	0.22593	0.18007	0.15012	-2.1208	-2.6708	-2.2354	-2.9083	-2.3854	-2.3646	-2.9125	-2.5375	-2.4875	-2.6229	-2.4042	-2.7229	-2.6104	-2.4333	-2.6854	-2.4958	-67.543	0.953	270.348	139.815	162.563	222.617	-73.146	223.446	156.999	-27.824	209.201	229.396	248.039	-10.742	222.724	140.480	0.00022547	0.0036809	0.00032836	644.46	1.2616e-05	9.7373e-06	973.83	254.93	9.3074e-06	9.4839e-06	458.63	206.4	110.32	55.69	2.4687e-06	116.82	0.015385	0.018639	0.0051803	848.48	0.0001966	0.00020168	1193.5	322.29	0.0001925	0.00019758	585.35	243.98	149.37	68.067	0.00019088	132.87	265.351	-48.725	-6.317	-74.784	130.832	193.512	-74.870	-69.852	-69.630	94.955	-70.654	-66.261	-65.396	-61.651	-31.703	-62.973	-8191	255	
1098.280	1	1	0	0	0.28891	0.23524	0.088772	0.069057	0.020169	0.19588	0.21262	0.16347	0.14068	0.14059	0.32868	0.096049	0.14118	0.16217	0.13965	0.46966	-2.0292	-2.6688	-2.0896	-2.8417	-2.3688	-2.4	-2.8792	-2.4271	-2.3479	-2.5396	-2.4021	-2.6979	-2.7313	-2.4375	-2.6354	-2.5833	78.910	217.591	-69.646	76.404	190.405	79.405	-57.099	172.509	22.681	166.832	256.674	262.641	227.521	232.790	57.281	192.523	0.00046342	0.0028463	0.00054902	639.27	9.2089e-06	6.3849e-06	969.25	253.17	1.4891e-05	1.0091e-05	457.24	205.84	110.37	56.116	1.3243e-05	116.53	0.014841	0.018006	0.0050098	837.71	0.00019176	0.0001977	1184.7	320.37	0.00019008	0.00019629	583.97	243.62	149.09	67.918	0.00018857	132.42	235.478	92.181	24.808	-74.562	94.932	101.987	-74.560	-70.083	-19.739	128.854	-71.144	-66.323	-65.656	-61.790	203.582	-63.097	-8191	255	
1098.377	1	1	0	0	0.14573	0.057434	0.16609	0.17391	0.048435	0.05656	0.088005	0.2188	0.094644	0.17687	0.18076	0.28174	0.39366	0.10817	0.35745	0.31595	-1.9104	-2.6833	-2.4313	-2.875	-2.6063	-2.4479	-2.9646	-2.5062	-2.4542	-2.6917	-2.3646	-2.6708	-2.7292	-2.4313	-2.7396	-2.5729	-4.304	79.008	-4.189	-84.680	-58.035	267.183	88.950	249.271	175.133	185.673	253.186	253.262	249.611	-61.719	122.002	193.042	0.00040215	0.0015029	0.00057439	635.54	1.4663e-05	2.0241e-05	962.44	251.72	9.4985e-06	1.6743e-05	457.5	205.86	111.05	56.14	1.0086e-05	116.78	0.01465	0.017692	0.004943	830.74	0.00018837	0.00019298	1177.6	318.1	0.0001855	0.0001922	581.55	242.36	148.57	67.867	0.00018716	132.4	240.685	190.753	-23.452	-74.947	96.715	29.524	-74.420	-69.838	-77.728	111.730	-70.674	-66.365	-65.555	-61.704	19.796	-63.141	-8191	255	
1098.497	1	1	0	0	0.14908	0.15225	0.44351	0.21691	0.21233	0.12449	0.1129	0.096773	0.34535	0.2252	0.080161	0.15944	0.098165	0.27344	0.055576	0.13844	-2.0771	-2.8833	-2.3479	-2.7542	-2.7271	-2.0583	-2.9354	-2.6	-2.325	-2.8396	-2.5938	-2.7875	-2.6542	-2.3917	-2.7062	-2.8	85.731	123.104	176.923	202.338	76.100	148.141	203.573	54.424	117.790	178.193	58.838	149.666	-48.664	-64.605	112.448	209.477	0.00023977	0.0016271	0.00054952	635.15	2.3774e-05	2.9912e-05	966.97	253.8	2.5869e-06	1.2037e-05	458.11	207.35	111.42	56.382	8.8418e-06	116.86	0.014464	0.017623	0.0049511	831.04	0.00018697	0.00019322	1179.8	318.9	0.00018683	0.00019203	583.73	243.5	148.89	68.055	0.00018748	132.78	-82.201	254.829	-82.548	-74.834	235.121	126.270	-74.887	-69.987	116.617	-36.423	-70.616	-66.299	-65.736	-61.893	49.326	-62.717	-8191	255	
1098.592	1	1	0	0	0.33073	0.31042	0.11922	0.059649	0.11904	0.097603	0.14902	0.4283	0.046973	0.25078	0.20617	0.27178	0.18287	0.10507	0.1106	0.22051	-1.9062	-2.9042	-2.3104	-2.6167	-2.7521	-2.2792	-2.6688	-2.75	-2.1396	-2.7833	-2.6688	-2.6854	-2.7875	-2.4146	-2.7208	-2.9188	238.994	139.250	21.526	79.595	16.797	244.772	197.950	246.252	162.055	141.222	229.790	-51.149	-87.315	-54.704	-43.628	221.106	0.00061047	0.00048931	0.00068875	638.49	2.1864e-05	2.7578e-05	971.42	252.89	1.8829e-05	3.0556e-05	455.35	206.63	111.6	56.157	7.1635e-06	116.93	0.014383	0.017418	0.0048997	831.79	0.00018459	0.00019215	1180.2	318.02	0.00018604	0.00019218	584.29	243.93	149.26	68.196	0.00018951	132.79	247.477	156.203	28.347	-74.838	81.515	18.558	-74.636	-69.856	245.362	65.054	-70.741	-66.444	-65.508	-61.832	187.555	-62.896	-8191	255	
1098.688	1	1	0	0	0.20248	0.19089	0.094709	0.25445	0.15274	0.21189	0.28386	0.20162	0.16749	0.15088	0.21211	0.21067	0.22721	0.31412	0.23791	0.44362	-2.0958	-2.6104	-2.425	-2.4958	-2.7958	-2.3458	-2.6521	-2.6458	-2.4208	-2.8292	-2.4458	-2.5979	-2.8958	-2.5479	-2.4771	-2.6708	-23.591	100.885	108.460	-61.230	122.785	107.900	214.704	-62.126	0.275	166.703	260.767	196.705	270.448	-31.355	99.455	194.531	0.00032997	0.0014841	0.00015069	632.44	1.2668e-05	2.0334e-05	966.8	254.07	1.1883e-05	2.7185e-05	457.3	208.12	113.15	57.068	2.1436e-06	118	0.014629	0.01773	0.0049567	832.63	0.00018719	0.00019461	1183	320.27	0.00018531	0.00019282	586.91	245.49	150.99	69.055	0.00018999	134	-79.995	126.837	21.500	-74.977	170.683	108.688	-74.892	-69.763	58.306	165.809	-70.668	-66.391	-65.795	-62.151	-82.796	-63.094	-8191	255	
1098.808	1	1	0	0	0.11093	0.28709	0.24513	0.17636	0.2545	0.034844	0.17255	0.31068	0.1518	0.22022	0.19993	0.1412	0.28163	0.21095	0.062766	0.29865	-1.7083	-2.6417	-2.3771	-2.4396	-2.7729	-2.4188	-2.7625	-2.7167	-2.2625	-2.7417	-2.5771	-2.5417	-2.8375	-2.5875	-2.3271	-2.95	51.471	16.341	92.898	253.788	-24.093	125.693	155.107	211.424	125.746	58.815	270.635	223.349	232.928	191.496	203.699	213.561	0.00043623	0.0012699	0.00030893	644.11	1.4997e-05	2.2832e-05	977.37	256.95	4.0537e-06	1.1745e-05	464.29	211.39	114.76	57.814	8.9566e-06	119.03	0.014638	0.017784	0.0050266	841.63	0.00019046	0.00019948	1195.9	324.67	0.00019083	0.00019704	594.6	249.02	152.79	70.064	0.00019307	135.41	236.367	-14.064	-87.684	-74.854	76.319	66.099	-74.606	-70.389	-39.031	61.670	-71.008	-66.639	-65.379	-61.892	136.417	-63.214	-8191	255	
1098.905	1	1	0	0	0.10185	0.14835	0.19993	0.34435	0.13394	0.2478	0.13889	0.14107	0.19651	0.058631	0.29357	0.36049	0.14478	0.15758	0.11415	0.19289	-1.7479	-2.75	-2.5083	-2.5333	-2.7292	-2.5521	-2.6771	-2.6562	-2.475	-2.6625	-2.7646	-2.4333	-2.8229	-2.6417	-2.625	-2.9375	-84.703	162.947	-82.928	209.811	240.811	236.182	237.739	148.848	17.629	55.815	263.026	-79.997	268.517	245.668	111.011	260.471	0.0003554	0.0015573	0.00029625	644.22	2.7265e-05	1.2414e-05	984.06	261.38	2.2688e-06	1.712e-05	471.2	213.42	116.03	58.918	3.2358e-05	120.6	0.014923	0.018143	0.0051041	848.78	0.00019367	0.00020354	1203.3	329.94	0.00019526	0.00020193	602.31	252.31	155.54	71.274	0.00019824	137.37	263.977	-31.674	14.458	-74.918	50.542	31.268	-74.614	-69.910	192.587	82.503	-70.833	-66.301	-65.646	-61.696	94.389	-63.063	-8191	255	
1098.976	1	1	0	0	0.13182	0.13465	0.17261	0.08628	0.11769	0.018174	0.16275	0.42407	0.12782	0.16988	0.3249	0.30695	0.39403	0.071698	0.24222	0.22463	-1.9875	-2.5604	-2.5125	-2.4208	-2.6562	-2.5729	-2.4813	-2.7562	-2.3917	-2.6	-2.7375	-2.3896	-2.7521	-2.5042	-2.4375	-2.9479	-61.579	223.248	-60.180	-22.314	-3.199	54.436	180.766	250.123	-24.213	102.219	244.422	213.862	228.329	216.091	57.572	259.802	0.0002999	0.0011157	0.00049629	649.73	1.6029e-05	3.0406e-05	985.41	262.06	1.7453e-05	3.4217e-06	473.52	215.69	115.65	59.151	1.3511e-05	121.12	0.01528	0.018591	0.005209	857.05	0.00019761	0.0002069	1212.6	331.96	0.00019915	0.00020529	606.27	254.61	156.72	71.868	0.00020299	138.09	243.775	-15.535	-40.183	-74.806	111.761	47.455	-74.720	-69.788	104.090	-20.805	-71.018	-66.127	-65.784	-61.846	-87.416	-63.207	-8191	255	
1099.097	1	1	0	0	0.18011	0.13908	0.038362	0.13421	0.10055	0.039851	0.19794	0.17957	0.21348	0.40911	0.065127	0.083201	0.060688	0.25885	0.07091	0.31876	-1.9271	-2.5708	-2.6917	-2.1958	-2.7729	-2.5083	-2.6813	-2.9396	-2.4479	-2.6667	-2.7708	-2.4521	-2.625	-2.5979	-2.4146	-2.9771	-75.142	-35.138	70.929	270.005	27.634	171.927	175.221	216.518	22.559	222.570	121.397	214.860	234.852	227.054	155.897	212.373	0.00032564	0.0028373	0.00042827	649.69	2.0826e-05	6.3059e-06	981.82	262.62	1.2629e-05	1.4772e-05	470.01	212.8	115.18	58.567	9.4711e-06	119.82	0.015799	0.019147	0.0053693	864.93	0.00020397	0.00021268	1217.2	334.05	0.00020399	0.00021099	608.29	253.6	156.67	71.406	0.00020339	136.89	260.536	9.467	152.539	-74.909	193.541	231.673	-74.793	-70.034	123.127	24.376	-70.785	-66.561	-65.688	-62.010	89.410	-62.963	-8191	255	
1099.193	1	1	0	0	0.12148	0.094492	0.10383	0.26607	0.047313	0.18842	0.15251	0.12593	0.23047	0.17341	0.050131	0.26559	0.2302	0.24542	0.11707	0.20434	-1.9312	-2.4854	-2.5958	-2.4437	-2.5396	-2.6083	-2.3875	-2.925	-2.4625	-2.5292	-2.9458	-2.6542	-2.7021	-2.8458	-2.4938	-2.9792	207.787	172.913	-63.007	257.039	168.445	120.804	98.577	-69.599	126.990	244.423	-70.245	254.184	-87.461	123.410	102.986	220.635	0.00050511	0.0017306	0.00017889	650.75	2.6216e-05	8.8407e-06	975.59	262.14	1.7217e-05	2.3716e-05	472.51	214.38	116.31	58.489	1.8805e-05	120.92	0.015677	0.01893	0.0052627	858.71	0.00020108	0.00020905	1210.4	332.79	0.00020258	0.00020844	607.43	254.95	157.58	71.838	0.00020546	138.34	251.368	36.897	212.499	-74.729	-18.258	183.776	-74.511	-70.199	111.927	41.450	-70.683	-66.431	-65.549	-61.909	139.152	-63.037	-8191	255	
1099.289	1	1	0	0	0.22328	0.17164	0.20905	0.15497	0.10968	0.06468	0.39532	0.11743	0.20704	0.13729	0.24485	0.14436	0.11882	0.33441	0.23913	0.14449	-1.925	-2.3167	-2.7021	-2.5312	-2.5958	-2.6521	-2.3542	-2.7604	-2.4562	-2.4437	-2.8479	-2.5417	-2.5021	-2.8542	-2.3667	-2.8521	-71.648	115.166	247.937	162.987	109.160	68.952	163.724	227.890	271.708	-8.213	-56.979	-56.233	41.252	256.897	192.562	194.356	0.00035087	0.0012211	0.00038737	649.49	2.4157e-06	2.2537e-05	985.38	261.82	1.027e-05	2.584e-05	469.2	212.88	114.92	57.619	9.5988e-06	119	0.016025	0.019371	0.0054193	867.18	0.0002071	0.00021477	1220.4	334.27	0.00020624	0.00021126	607.87	253.65	155.98	70.701	0.00020422	136.27	255.323	-3.937	-20.600	-74.436	232.499	22.888	-74.838	-70.152	146.519	122.971	-70.895	-66.510	-65.772	-61.901	101.745	-62.959	-8191	255	
1099.385	1	1	0	0	0.17288	0.089166	0.23403	0.056191	0.27706	0.060824	0.14083	0.12052	0.19367	0.32878	0.28635	0.23471	0.35098	0.22633	0.12311	0.285	-1.9708	-2.2854	-2.7229	-2.4729	-2.4188	-2.7792	-2.3896	-2.7021	-2.525	-2.4938	-2.9125	-2.5958	-2.575	-2.7833	-2.425	-2.7208	253.562	119.638	237.081	265.502	-26.086	30.061	221.385	259.169	145.790	174.543	202.020	223.734	244.042	210.848	67.426	249.238	0.00043584	0.0010824	0.00069965	638.16	1.2323e-05	5.631e-06	967.34	253.43	1.2046e-05	8.0815e-06	457.05	207.22	111.53	56.364	1.0528e-05	117.27	0.015829	0.01915	0.0053496	852.27	0.00020486	0.00021131	1202.9	326.59	0.00020684	0.00021284	598.53	248.64	154.1	69.622	0.0002099	134.8	254.602	-0.227	66.146	-74.811	177.676	88.219	-74.831	-69.849	76.682	-30.574	-71.064	-66.207	-65.983	-61.942	190.403	-63.176	-8191	255	
1099.481	1	1	0	0	0.056326	0.26894	0.294	0.29477	0.14785	0.11266	0.078309	0.093215	0.107	0.11902	0.32945	0.22761	0.29557	0.3793	0.22751	0.2019	-2.1021	-2.5125	-2.7625	-2.5792	-2.4313	-2.7125	-2.4396	-2.6958	-2.7104	-2.2979	-2.7396	-2.6333	-2.6021	-2.8042	-2.2313	-3.0187	186.434	-10.972	-45.062	233.526	269.910	9.484	-69.613	-86.161	-5.940	-36.821	246.044	124.707	-72.748	-84.767	217.753	161.434	0.0005605	0.0020939	0.00037735	632.08	1.5193e-05	1.9415e-05	966.12	251.91	4.3891e-06	4.9608e-06	454.39	205.38	110.36	55.681	1.2372e-05	115.44	0.016203	0.019542	0.0054385	852.4	0.00020611	0.00021274	1198.6	324.71	0.00020481	0.00021062	590.93	245.53	151.73	68.467	0.00020349	132.6	239.913	85.726	7.202	-74.776	119.584	176.323	-74.854	-70.240	-22.305	66.016	-70.563	-66.163	-65.590	-62.022	-33.170	-63.187	-8191	255	
1099.578	1	1	0	0	0.29087	0.19727	0.22987	0.093297	0.27775	0.083372	0.14201	0.17795	0.12067	0.20145	0.098509	0.21967	0.19735	0.24155	0.26783	0.26857	-2.0604	-2.2854	-2.8479	-2.6042	-2.4167	-2.6979	-2.5354	-2.5729	-2.7396	-2.3271	-2.8875	-2.7729	-2.425	-3.0479	-2.2729	-2.7542	35.343	-57.443	-50.137	217.533	-14.291	101.313	131.578	-66.579	-65.352	-86.787	-61.904	271.347	223.125	236.896	-12.203	202.625	0.00044689	0.0023782	0.00024965	631.06	8.1212e-06	1.1687e-05	961.63	252.34	1.9203e-05	2.7564e-05	454.72	205.8	111.58	55.812	4.9156e-06	116.08	0.015611	0.018925	0.0052839	845.13	0.00020083	0.00020811	1194.8	322.79	0.00020151	0.00020917	591.82	245.73	152.17	68.983	0.00020515	133.64	229.698	24.280	184.451	-74.707	106.510	85.119	-74.781	-70.016	151.513	67.887	-70.406	-66.244	-65.713	-61.766	-61.609	-62.989	-8191	255	
1099.672	1	1	0	0	0.058822	0.24545	0.11551	0.066112	0.31838	0.23599	0.14858	0.17739	0.2451	0.14469	0.064919	0.23724	0.20997	0.27183	0.11085	0.30196	-2.2875	-2.1833	-2.7021	-2.6458	-2.3396	-2.7146	-2.6479	-2.6333	-2.8208	-2.3646	-2.8812	-2.6104	-2.3708	-2.7104	-2.5292	-2.5292	-7.288	14.729	203.295	-34.588	18.739	17.889	165.539	84.646	146.835	54.190	181.569	227.618	6.474	250.865	76.817	165.405	0.00032356	0.0011556	0.00028927	634.33	2.0466e-05	1.82e-06	962.31	251.26	2.3087e-05	1.019e-05	455.6	206.07	110.71	55.917	1.4121e-05	116.09	0.01573	0.019124	0.0053527	848.82	0.00020411	0.00021121	1201	325.01	0.00020464	0.00021271	595.92	247.16	152.85	69.338	0.00021047	134.03	248.486	58.797	251.281	-74.944	-54.379	47.382	-74.711	-69.891	53.140	58.222	-70.521	-66.501	-65.638	-61.659	-30.536	-63.035	-8191	255	
1099.770	1	1	0	0	0.20436	0.093557	0.1188	0.12997	0.17949	0.23872	0.26699	0.11333	0.076611	0.095105	0.1994	0.4056	0.29916	0.28447	0.21776	0.046486	-2.4771	-2.3083	-2.5354	-2.7458	-2.3792	-2.6333	-2.6125	-2.3646	-2.7229	-2.3604	-2.625	-2.7896	-2.5083	-2.6042	-2.6708	-2.5521	212.644	91.481	191.575	-71.929	92.970	239.428	194.487	-35.388	106.757	-17.152	204.677	173.380	236.916	270.103	86.504	119.867	0.00057465	0.00049442	0.00042715	637.72	2.4525e-05	7.7187e-06	960.8	249.71	3.9273e-06	2.2507e-05	454.35	204.56	110.15	55.65	7.5831e-06	114.55	0.016062	0.01964	0.0054521	855.08	0.00020666	0.00021418	1204.9	323.84	0.00020496	0.00021335	592.88	245.53	151.96	68.742	0.00020724	132.43	254.461	-19.517	30.630	-74.890	55.864	142.466	-74.845	-70.289	183.506	68.935	-70.666	-66.146	-65.732	-61.762	147.815	-62.925	-8191	255	
1099.889	1	1	0	0	0.11664	0.37604	0.19184	0.1371	0.23581	0.18671	0.16364	0.094113	0.10856	0.17439	0.40307	0.084042	0.21631	0.20134	0.076485	0.32312	-2.4917	-2.2354	-2.5458	-2.7083	-2.2438	-2.6833	-2.8688	-2.4542	-2.6833	-2.4104	-2.675	-2.8417	-2.2812	-2.9021	-2.4688	-2.5125	40.949	0.189	211.805	-63.218	29.251	149.167	-52.420	210.949	157.924	179.696	202.844	250.614	-53.736	227.334	243.659	212.076	0.00029572	0.0020399	0.00025384	633.45	3.7811e-06	4.9435e-06	966.31	252.32	7.8809e-06	1.6525e-05	453.12	204.25	110.67	55.655	3.7652e-06	115.28	0.015734	0.019211	0.0053593	847.91	0.00020279	0.00021073	1200.1	323.81	0.00020318	0.00021181	594.87	245.9	152.32	68.935	0.00020824	133	236.286	116.929	-6.945	-74.704	64.252	213.171	-74.604	-69.993	177.260	84.274	-70.703	-66.304	-65.548	-62.006	-9.178	-62.930	-8191	255	
1099.985	1	1	0	0	0.16211	0.22783	0.062866	0.16368	0.15483	0.20564	0.13988	0.086946	0.27948	0.065286	0.068736	0.2206	0.07294	0.12665	0.20337	0.25815	-2.2521	-2.4167	-2.5375	-2.7396	-2.3792	-2.5583	-2.7646	-2.4271	-2.6937	-2.3833	-2.4313	-2.8021	-2.2333	-2.6396	-2.6354	-2.3375	42.880	133.523	-61.247	210.203	208.558	-12.251	163.276	269.592	107.239	63.611	-80.650	214.552	115.320	-19.224	151.764	179.444	0.00044647	0.001517	0.00036223	636.19	2.6613e-05	1.0121e-05	967.86	253.56	1.3244e-05	1.4145e-05	456.64	206.66	112.44	56.511	1.6967e-05	116.75	0.015938	0.01952	0.005419	852.6	0.00020604	0.00021458	1207.8	326.41	0.00020557	0.00021549	599.55	248.64	154.61	70.005	0.00021313	135.27	263.774	46.183	101.418	-74.897	175.528	199.590	-74.981	-70.033	233.021	-14.161	-70.661	-66.318	-65.839	-61.685	140.724	-63.155	-8191	255	
1100.081	1	1	0	0	0.10868	0.093584	0.083181	0.14611	0.030339	0.18701	0.11779	0.24134	0.46368	0.12224	0.050508	0.32117	0.11764	0.10289	0.050518	0.14252	-2.2271	-2.5833	-2.3979	-2.8021	-2.5312	-2.4562	-2.8354	-2.3417	-2.675	-2.5167	-2.5521	-2.8083	-2.5354	-2.5979	-2.6813	-2.6271	-7.894	-68.860	246.667	229.400	-19.079	190.583	121.331	233.088	184.142	-10.431	-69.864	202.948	200.582	-73.349	-79.709	180.972	0.00040508	0.0024376	6.822e-05	638.35	1.0848e-05	4.0704e-06	981.47	257.26	1.3199e-06	2.566e-05	462.33	209.03	113.04	57.369	1.1752e-05	118.04	0.016471	0.020246	0.0056368	868.9	0.00021589	0.00022381	1230.2	333.04	0.00021524	0.00022515	610.22	253.57	158.38	71.479	0.00022067	137.25	-86.048	-12.119	51.113	-74.484	159.119	136.222	-74.748	-69.858	-1.539	80.070	-70.838	-66.453	-65.678	-61.725	158.271	-62.897	-8191	255	
1100.177	1	1	0	0	0.20776	0.071794	0.17162	0.10005	0.35099	0.21307	0.22984	0.26384	0.33901	0.14511	0.082106	0.19457	0.25771	0.41399	0.21503	0.18704	-2.2687	-2.5312	-2.2854	-2.6188	-2.3875	-2.4146	-2.8187	-2.25	-2.65	-2.5771	-2.4146	-2.7896	-2.25	-2.6896	-2.7146	-2.5521	36.334	135.935	130.738	134.123	178.922	52.771	169.523	182.253	108.652	210.356	102.557	209.535	61.973	-15.119	59.652	-74.814	0.00034772	0.0011526	0.00039713	646.86	1.0542e-05	1.2564e-05	985.69	257	1.0172e-05	1.2048e-05	463.14	209.08	114.23	56.878	1.6191e-05	117.9	0.017088	0.020818	0.0057932	881.63	0.00022167	0.0002288	1238.1	335.26	0.00021862	0.0002257	610.73	253.28	158.34	71.071	0.00021696	136.4	246.478	172.365	-38.845	-75.055	-20.633	31.281	-74.534	-70.160	222.144	-26.748	-70.504	-66.097	-65.496	-61.789	92.140	-63.090	-8191	255	
1100.273	1	1	0	0	0.27678	0.023687	0.09556	0.037235	0.20097	0.098247	0.22817	0.42023	0.12502	0.13516	0.34551	0.1114	0.11052	0.28044	0.26291	0.29619	-2.0604	-2.5625	-2.0187	-2.925	-2.6604	-2.3604	-2.8729	-2.2292	-2.6458	-2.5583	-2.2687	-2.7875	-2.6167	-2.5625	-2.95	-2.6813	-31.756	225.934	140.872	190.845	263.392	251.085	139.646	216.501	18.458	-68.341	195.037	109.848	-15.643	233.540	256.061	240.553	0.00027298	0.0011669	0.00048893	647.71	1.0451e-05	1.6299e-05	983.68	259.4	9.1144e-06	1.0486e-05	464.83	213.32	115.37	58.171	2.4261e-05	119.78	0.016748	0.020426	0.0056554	877.32	0.00021753	0.00022407	1235.8	337.06	0.00021847	0.00022688	616.42	257.47	161.02	72.506	0.0002229	139.17	252.030	267.810	-50.294	-74.681	-64.634	-18.939	-74.728	-69.937	43.656	-7.799	-70.764	-66.345	-65.820	-61.923	71.850	-62.996	-8191	255	
1100.370	1	1	0	0	0.16355	0.14536	0.17606	0.2058	0.18179	0.21131	0.11938	0.092776	0.074103	0.25495	0.13453	0.2249	0.12697	0.40675	0.112	0.3772	-2.0187	-2.6854	-2.3333	-2.8063	-2.5187	-2.4646	-2.9813	-2.5229	-2.5646	-2.6583	-2.5062	-2.9021	-2.6042	-2.6208	-2.8354	-2.7167	-48.303	0.980	171.709	230.580	77.974	-76.100	88.597	208.767	216.328	120.521	33.693	212.819	203.278	260.789	136.875	242.439	0.00045071	0.0018331	0.00067521	651.79	1.4448e-05	5.7449e-06	991.49	262.73	1.6547e-05	1.6108e-05	472.58	214.57	116.89	58.563	1.2112e-05	119.9	0.017326	0.020924	0.0058355	888.66	0.00022292	0.00023076	1247.5	342.06	0.00022116	0.00022741	622.38	258.63	161.51	72.696	0.00021986	139.09	214.673	-46.843	-48.869	-74.709	199.662	174.026	-74.628	-70.038	18.974	30.446	-70.441	-66.209	-65.826	-61.883	143.774	-63.030	-8191	255	
1100.490	1	1	0	0	0.16427	0.053788	0.16967	0.088076	0.034602	0.069227	0.13726	0.26399	0.12081	0.30102	0.17943	0.26108	0.23954	0.46492	0.12791	0.081659	-2.0333	-2.6562	-2.2687	-2.7938	-2.6813	-2.3208	-2.8521	-2.55	-2.325	-2.8771	-2.5021	-2.7562	-2.7354	-2.4396	-2.7833	-2.5396	12.905	-68.604	215.087	33.916	266.326	48.909	167.136	109.870	99.654	248.371	244.624	209.229	-85.298	263.213	176.479	190.700	0.00070873	0.0031296	0.00026037	654.1	2.4993e-05	1.7145e-05	989.06	262.08	2.3321e-06	2.6621e-06	471.94	214.56	115.68	58.47	1.4797e-05	119.92	0.017044	0.020537	0.0057615	887.52	0.00022116	0.00022837	1247	341.92	0.0002221	0.00022864	622.53	258.82	160.93	72.555	0.00022141	139.04	231.043	135.583	234.468	-74.609	78.275	68.068	-74.759	-70.451	10.441	199.053	-70.973	-66.373	-65.817	-61.937	94.571	-63.232	-8191	255	
1100.586	1	1	0	0	0.0073826	0.035658	0.14619	0.14097	0.19665	0.13011	0.24142	0.14608	0.093155	0.064635	0.087019	0.13885	0.42489	0.192	0.45026	0.40955	-2.0396	-2.7604	-2.3229	-2.6792	-2.4667	-2.4188	-2.9479	-2.5583	-2.5042	-2.8333	-2.3646	-2.8271	-2.625	-2.5792	-2.6458	-2.7396	156.839	106.039	93.224	-38.900	208.746	-2.052	204.251	216.816	102.764	-85.633	69.164	156.243	262.746	-78.522	266.469	210.310	0.00019996	0.0018138	4.4671e-05	647.64	1.5361e-05	2.2276e-05	987.34	257.41	1.3258e-05	1.1389e-05	467.44	209.42	113.99	57.429	8.0318e-06	118.37	0.016998	0.020551	0.005759	882.58	0.00021822	0.00022662	1238.5	337.5	0.00021792	0.00022417	613.97	254.39	158.23	71.4	0.00021904	136.74	258.209	-25.985	200.652	-74.665	-19.524	-65.491	-74.728	-69.859	187.417	75.495	-70.742	-66.362	-65.575	-61.657	199.532	-63.027	-8191	255	
1100.681	1	1	0	0	0.13829	0.1704	0.20144	0.16003	0.15912	0.10707	0.3434	0.12487	0.23363	0.19369	0.26176	0.21069	0.099277	0.29039	0.23668	0.19043	-1.7583	-2.9375	-2.3625	-2.4104	-2.6708	-2.2938	-2.7812	-2.7646	-2.4	-2.8187	-2.6479	-2.7604	-2.7375	-2.4646	-2.7625	-2.9104	162.790	8.523	201.667	16.840	177.563	174.056	-75.066	225.539	-55.731	-65.706	244.077	257.605	-48.471	229.148	10.861	253.178	0.00038288	0.0030494	0.00052542	640.9	8.9209e-06	2.444e-05	967.23	254.93	2.7035e-05	9.5123e-06	455.31	205.19	110.64	56.124	9.9822e-06	115.56	0.016774	0.020247	0.0056783	870.47	0.00021403	0.00022214	1221	331.06	0.0002122	0.00021894	601.19	248.36	154.04	69.674	0.00021433	134.03	246.277	-2.268	-14.897	-74.872	-42.207	172.286	-74.710	-70.260	101.275	68.911	-71.352	-66.462	-65.641	-61.744	57.577	-63.188	-8191	255	
1100.777	1	1	0	0	0.035496	0.12543	0.33902	0.37007	0.11383	0.24841	0.21582	0.26101	0.22244	0.1904	0.21408	0.19583	0.14657	0.37211	0.14881	0.20736	-1.9208	-2.6896	-2.4375	-2.5729	-2.5938	-2.3292	-2.8	-2.7938	-2.4292	-2.9313	-2.5854	-2.4917	-2.7854	-2.5125	-2.6292	-2.6792	-37.137	-72.413	131.549	158.781	25.890	130.612	-84.816	254.706	-50.474	248.803	166.511	266.738	-51.366	-79.552	37.166	171.157	0.00028429	0.0002441	0.00056953	637.06	1.0722e-05	1.7253e-05	967.54	253.18	8.1705e-06	1.0878e-05	452.1	205.45	110.78	55.689	2.1836e-05	115.76	0.016515	0.020067	0.0056608	866.51	0.0002149	0.00022457	1222.1	329.47	0.00021626	0.00022391	603.47	248.87	154.52	69.806	0.00021887	134.22	208.022	-28.808	65.553	-74.704	25.305	69.847	-74.839	-70.173	4.055	75.711	-70.584	-66.318	-65.617	-61.642	146.096	-63.232	-8191	255	
1100.873	1	1	0	0	0.14901	0.12803	0.21202	0.14392	0.16275	0.1482	0.054292	0.17428	0.20815	0.060386	0.14251	0.40968	0.17635	0.19595	0.19017	0.16518	-1.9708	-2.6021	-2.6479	-2.4583	-2.7562	-2.3792	-2.7604	-2.6604	-2.4667	-2.7458	-2.7521	-2.4417	-2.7042	-2.5125	-2.6479	-2.9021	59.926	259.508	263.749	-38.883	222.887	-54.236	-52.841	59.754	263.773	73.135	-61.020	-77.343	-60.140	-72.760	154.794	219.403	0.00064003	0.0032338	0.0001679	636.83	1.0668e-05	7.6918e-06	968.82	250.63	1.7773e-05	1.5996e-05	452.05	203.07	109.69	54.815	5.9542e-06	114.62	0.016724	0.020272	0.0057029	865.63	0.00021427	0.00022402	1216.4	326.48	0.00021335	0.00022019	596.72	245.78	152.58	68.989	0.00021642	133.07	270.042	5.371	-35.561	-74.739	22.437	106.416	-74.772	-70.107	54.809	115.499	-70.893	-66.384	-65.807	-61.561	43.647	-62.860	-8191	255	
#DATA ENDS
