BOXY.EXE: ISS Imagent and Oximeter Data Acquisition Program Version 0.80
Ascii Record File

#ACQ INFORMATION
2  Detector Channels 
16  External MUX Channels 
1  Auxiliary Channels 
5000  Waveform (CCF) Frequency (Hz)
1  Waveforms Skipped 
30  Waveforms Averaged 
1  Cycles Averaged 
16  Acquisitions per Waveform 
10.0806  Updata Rate (Hz) 

#FILE INFORMATION
TRUE -- External MUX Channel results are PARSED.
FALSE -- AC DC and Phase are NOT grouped.
TRUE -- Companion Program Settings File CREATED.
FALSE -- AC data not excluded
FALSE -- DC data not excluded
FALSE -- Phase data not excluded
FALSE -- Auxillary Chn. data not excluded
Tab delimiters

#CALIBRATION STATE
TRUE -- Waveform Calibration Values APPLIED.


#AUX CALIBRATION VALUES
Val Type	aux-1	

Term	1.0000e+00	
Factor	0.0000e+00	


#WF CALIBRATION VALUES
A = Detector Channel
Val Type	A-AC1	A-AC2	A-AC3	A-AC4	A-AC5	A-AC6	A-AC7	A-AC8	A-AC9	A-AC10	A-AC11	A-AC12	A-AC13	A-AC14	A-AC15	A-AC16	A-DC1	A-DC2	A-DC3	A-DC4	A-DC5	A-DC6	A-DC7	A-DC8	A-DC9	A-DC10	A-DC11	A-DC12	A-DC13	A-DC14	A-DC15	A-DC16	A-Ph1	A-Ph2	A-Ph3	A-Ph4	A-Ph5	A-Ph6	A-Ph7	A-Ph8	A-Ph9	A-Ph10	A-Ph11	A-Ph12	A-Ph13	A-Ph14	A-Ph15	A-Ph16	

Term	0.00000e+00	0.00000e+00	0.00000e+00	0.00000e+00	0.00000e+00	0.00000e+00	0.00000e+00	0.00000e+00	0.00000e+00	0.00000e+00	0.00000e+00	0.00000e+00	0.00000e+00	0.00000e+00	0.00000e+00	0.00000e+00	0.00000e+00	0.00000e+00	0.00000e+00	0.00000e+00	0.00000e+00	0.00000e+00	0.00000e+00	0.00000e+00	0.00000e+00	0.00000e+00	0.00000e+00	0.00000e+00	0.00000e+00	0.00000e+00	0.00000e+00	0.00000e+00	0.00000e+00	0.00000e+00	0.00000e+00	0.00000e+00	0.00000e+00	0.00000e+00	0.00000e+00	0.00000e+00	0.00000e+00	0.00000e+00	0.00000e+00	0.00000e+00	0.00000e+00	0.00000e+00	0.00000e+00	0.00000e+00	
Factor	1.00000e+00	1.00000e+00	1.00000e+00	1.00000e+00	1.00000e+00	1.00000e+00	1.00000e+00	1.00000e+00	1.00000e+00	1.00000e+00	1.00000e+00	1.00000e+00	1.00000e+00	1.00000e+00	1.00000e+00	1.00000e+00	1.00000e+00	1.00000e+00	1.00000e+00	1.00000e+00	1.00000e+00	1.00000e+00	1.00000e+00	1.00000e+00	1.00000e+00	1.00000e+00	1.00000e+00	1.00000e+00	1.00000e+00	1.00000e+00	1.00000e+00	1.00000e+00	X	X	X	X	X	X	X	X	X	X	X	X	X	X	X	X	

B = Detector Channel
Val Type	B-AC1	B-AC2	B-AC3	B-AC4	B-AC5	B-AC6	B-AC7	B-AC8	B-AC9	B-AC10	B-AC11	B-AC12	B-AC13	B-AC14	B-AC15	B-AC16	B-DC1	B-DC2	B-DC3	B-DC4	B-DC5	B-DC6	B-DC7	B-DC8	B-DC9	B-DC10	B-DC11	B-DC12	B-DC13	B-DC14	B-DC15	B-DC16	B-Ph1	B-Ph2	B-Ph3	B-Ph4	B-Ph5	B-Ph6	B-Ph7	B-Ph8	B-Ph9	B-Ph10	B-Ph11	B-Ph12	B-Ph13	B-Ph14	B-Ph15	B-Ph16	

Term	0.00000e+00	0.00000e+00	0.00000e+00	0.00000e+00	0.00000e+00	0.00000e+00	0.00000e+00	0.00000e+00	0.00000e+00	0.00000e+00	0.00000e+00	0.00000e+00	0.00000e+00	0.00000e+00	0.00000e+00	0.00000e+00	0.00000e+00	0.00000e+00	0.00000e+00	0.00000e+00	0.00000e+00	0.00000e+00	0.00000e+00	0.00000e+00	0.00000e+00	0.00000e+00	0.00000e+00	0.00000e+00	0.00000e+00	0.00000e+00	0.00000e+00	0.00000e+00	-6.59245e+01	-1.24734e+02	-1.31290e+02	-1.83070e+02	-4.71720e+01	-6.49150e+01	-1.56663e+02	-1.62015e+02	-3.94459e+01	-6.42214e+01	-1.71114e+02	-1.71480e+02	-1.80686e+02	-1.76770e+02	-5.03157e+01	-1.49850e+02	
Factor	1.94318e-05	1.90944e-04	4.49887e-05	1.63081e-01	1.59961e-06	1.69595e-06	1.94177e-01	5.42487e-02	1.28390e-06	1.65075e-06	1.08414e-01	3.13847e-02	2.95052e-02	9.61121e-03	1.53840e-06	1.41149e-02	5.54059e-06	6.76180e-06	1.88700e-06	8.26207e-02	7.18682e-08	7.45135e-08	9.21061e-02	2.75920e-02	7.18242e-08	7.41166e-08	5.30887e-02	1.54427e-02	1.51454e-02	4.92050e-03	7.23774e-08	6.95805e-03	X	X	X	X	X	X	X	X	X	X	X	X	X	X	X	X	



#DISTANCE SETTINGS
A = Detector Channel
A-1	A-2	A-3	A-4	A-5	A-6	A-7	A-8	A-9	A-10	A-11	A-12	A-13	A-14	A-15	A-16	

2.5000e+00	3.0000e+00	2.5000e+00	3.0000e+00	2.0000e+00	3.0000e+00	1.5000e+00	3.0000e+00	3.0000e+00	3.0000e+00	3.0000e+00	3.0000e+00	3.0000e+00	3.0000e+00	1.5000e+00	3.0000e+00	

B = Detector Channel
B-1	B-2	B-3	B-4	B-5	B-6	B-7	B-8	B-9	B-10	B-11	B-12	B-13	B-14	B-15	B-16	

1.0000e+01	1.0000e+01	1.0000e+01	1.4400e+00	1.0000e+01	1.0000e+01	1.5100e+00	1.9400e+00	1.0000e+01	1.0000e+01	1.9900e+00	2.4900e+00	2.4100e+00	2.9000e+00	1.0000e+01	2.9800e+00	




#DATA BEGINS
time	group	step	mark	flag	A-AC1	A-AC2	A-AC3	A-AC4	A-AC5	A-AC6	A-AC7	A-AC8	A-AC9	A-AC10	A-AC11	A-AC12	A-AC13	A-AC14	A-AC15	A-AC16	A-DC1	A-DC2	A-DC3	A-DC4	A-DC5	A-DC6	A-DC7	A-DC8	A-DC9	A-DC10	A-DC11	A-DC12	A-DC13	A-DC14	A-DC15	A-DC16	A-Ph1	A-Ph2	A-Ph3	A-Ph4	A-Ph5	A-Ph6	A-Ph7	A-Ph8	A-Ph9	A-Ph10	A-Ph11	A-Ph12	A-Ph13	A-Ph14	A-Ph15	A-Ph16	B-AC1	B-AC2	B-AC3	B-AC4	B-AC5	B-AC6	B-AC7	B-AC8	B-AC9	B-AC10	B-AC11	B-AC12	B-AC13	B-AC14	B-AC15	B-AC16	B-DC1	B-DC2	B-DC3	B-DC4	B-DC5	B-DC6	B-DC7	B-DC8	B-DC9	B-DC10	B-DC11	B-DC12	B-DC13	B-DC14	B-DC15	B-DC16	B-Ph1	B-Ph2	B-Ph3	B-Ph4	B-Ph5	B-Ph6	B-Ph7	B-Ph8	B-Ph9	B-Ph10	B-Ph11	B-Ph12	B-Ph13	B-Ph14	B-Ph15	B-Ph16	aux-1	digaux	

765.625	1	1	0	256	0.050777	0.32832	0.016232	0.49747	0.30324	0.15181	0.11686	0.26905	0.034464	0.096313	0.077945	0.040525	0.041012	0.13872	0.13225	0.17956	-2.0167	-2.3208	-2.7625	-2.5292	-2.5896	-2.6292	-2.4958	-2.6688	-2.6021	-2.2917	-2.6437	-2.5021	-2.3521	-2.8104	-2.3833	-2.9437	324.529	432.290	380.690	495.864	297.291	464.926	154.775	454.329	325.363	215.115	185.368	401.544	339.651	348.602	200.108	348.530	0.00035078	0.00020347	8.0698e-05	1203.3	4.4505e-06	1.8776e-06	1298.1	253.31	5.8518e-06	3.7002e-06	314.55	86.561	69.014	19.81	3.984e-06	27.069	0.0006392	0.0007052	0.00019763	1190.6	7.4779e-06	7.5296e-06	1285.5	253.36	7.3225e-06	7.5153e-06	317.6	88.04	69.981	20.48	7.3246e-06	28.138	269.465	312.517	271.161	164.359	312.639	257.185	164.353	171.613	286.007	314.253	171.529	178.121	178.505	185.234	331.233	185.012	-8191	255	
765.746	1	1	0	0	0.048117	0.04873	0.1479	0.40177	0.22026	0.12062	0.16148	0.088534	0.15594	0.14911	0.1889	0.056142	0.15465	0.36211	0.078557	0.22488	-2.1833	-2.1375	-2.7271	-2.7083	-2.3833	-2.6688	-2.5938	-2.6063	-2.7229	-2.4229	-2.7021	-2.8187	-2.5125	-2.7958	-2.4875	-2.6562	311.235	360.453	443.570	490.605	456.290	299.469	419.059	271.429	285.682	214.575	224.548	216.912	482.592	488.904	363.928	431.537	0.00030644	0.00039401	0.00016859	1198.6	1.6974e-06	3.0231e-06	1293.7	254.1	1.7352e-06	3.2848e-06	313.37	86.37	68.706	19.881	2.9047e-06	27.303	0.00060122	0.00066116	0.00018478	1187.8	7.1208e-06	7.1177e-06	1281.9	253.41	6.9957e-06	7.0974e-06	316.19	87.495	69.746	20.439	7.0909e-06	28.049	257.264	263.727	235.505	164.304	320.993	358.171	164.322	171.932	488.364	279.278	171.295	178.054	178.583	185.079	260.490	185.006	-8191	255	
765.842	1	1	0	0	0.035851	0.11007	0.17	0.27415	0.21951	0.19198	0.12173	0.036705	0.1619	0.11854	0.16925	0.08134	0.16482	0.14657	0.11408	0.073564	-2.2625	-2.2708	-2.7125	-2.7417	-2.45	-2.8521	-2.7188	-2.5687	-2.6312	-2.5417	-2.675	-2.6375	-2.4708	-2.7188	-2.4271	-2.4229	369.753	444.547	363.495	468.245	169.920	363.804	180.315	505.714	351.836	454.368	413.630	459.044	229.596	201.582	272.570	175.100	0.00026515	0.00041428	3.3896e-05	1197.8	4.1887e-06	3.0371e-06	1294.7	252.99	2.6597e-06	1.8073e-06	316.39	86.126	68.829	19.792	4.9619e-06	27.049	0.00059269	0.00067226	0.0001871	1186	7.3912e-06	7.4063e-06	1284.6	253.1	7.2201e-06	7.4385e-06	317.07	87.348	69.639	20.324	7.0313e-06	27.957	258.774	239.262	214.215	164.099	291.717	282.612	164.226	171.625	314.735	356.183	171.597	178.192	178.485	185.413	304.872	185.154	-8191	255	
765.938	1	1	0	0	0.16853	0.1616	0.099216	0.11129	0.18437	0.22244	0.068449	0.22084	0.11641	0.26067	0.039435	0.17681	0.11165	0.10465	0.10996	0.12198	-2.1979	-2.4125	-2.5146	-2.7167	-2.3292	-2.7188	-2.65	-2.3917	-2.8812	-2.4771	-2.7062	-2.6417	-2.4292	-2.6604	-2.4729	-2.325	424.700	331.381	274.021	475.760	215.114	421.134	413.502	459.386	284.147	375.834	235.964	392.378	451.392	305.580	157.114	268.904	0.00029116	0.00051654	8.7011e-05	1193.9	2.9948e-06	2.0231e-06	1285.5	251.39	3.7478e-06	3.5357e-06	313.64	85.831	67.86	19.578	2.5609e-06	26.875	0.000594	0.00062816	0.0001735	1181.3	6.628e-06	6.703e-06	1275	251.45	6.439e-06	6.5706e-06	314.23	86.526	68.871	20.09	6.2777e-06	27.691	255.581	216.107	196.398	164.342	223.440	383.945	164.274	171.949	318.177	342.540	171.464	178.222	178.217	185.668	301.277	184.876	-8191	255	
766.057	1	1	0	0	0.35422	0.32262	0.22313	0.057009	0.073797	0.1408	0.21758	0.19316	0.16922	0.24836	0.081483	0.18513	0.028643	0.21746	0.1174	0.2999	-2.3104	-2.3333	-2.6583	-2.8729	-2.5083	-2.7771	-2.7438	-2.6083	-2.8375	-2.4958	-2.6521	-2.5938	-2.4125	-2.9042	-2.6729	-2.4667	255.397	303.048	285.376	203.191	355.977	366.537	384.309	419.037	459.148	242.186	388.447	223.718	510.885	170.937	424.171	344.724	0.0002871	0.00064036	0.00012066	1191.8	3.8037e-06	2.612e-06	1287.8	252.28	1.0762e-06	3.4654e-06	310.86	85.438	67.975	19.511	4.0696e-06	27.026	0.00052411	0.00059318	0.00016554	1177.1	6.522e-06	6.5513e-06	1271.7	250.72	6.4735e-06	6.5136e-06	313.42	86.473	68.853	20.068	6.3446e-06	27.694	260.446	235.806	274.869	164.187	312.467	303.586	164.244	171.874	274.646	343.086	171.463	178.297	178.544	185.413	277.131	185.365	-8191	255	
766.153	1	1	0	0	0.032774	0.17389	0.16468	0.17233	0.21719	0.3381	0.12991	0.025006	0.23757	0.18496	0.24288	0.085753	0.062554	0.18909	0.05647	0.036893	-2.3333	-2.5271	-2.525	-2.8646	-2.4708	-2.7104	-2.7979	-2.4604	-2.5938	-2.4062	-2.5458	-2.8688	-2.575	-2.6937	-2.725	-2.4396	451.909	433.709	295.400	418.039	267.649	436.684	410.651	241.934	442.797	502.881	162.902	276.674	178.183	403.000	172.381	235.432	0.00026949	0.0004567	0.00011256	1188.1	4.2354e-06	1.9517e-06	1283.7	250.33	4.5938e-06	3.6056e-06	312.24	85.174	67.91	19.516	2.7797e-06	26.821	0.00054178	0.00059414	0.00016342	1174.7	6.3355e-06	6.3846e-06	1269.9	249.75	6.2569e-06	6.4094e-06	312.53	86.387	68.533	20.042	6.2869e-06	27.565	262.226	288.224	226.161	164.344	305.917	228.470	164.436	171.542	292.924	319.694	171.516	178.046	178.468	185.389	235.908	185.430	-8191	255	
766.225	1	1	0	0	0.15488	0.25135	0.17764	0.18434	0.23478	0.1435	0.19443	0.28843	0.33546	0.14594	0.0047774	0.2939	0.16672	0.039541	0.0039111	0.30043	-2.275	-2.3583	-2.3542	-2.9437	-2.3542	-2.7167	-2.8542	-2.3667	-2.7208	-2.6937	-2.4479	-2.8	-2.3604	-2.6917	-2.6271	-2.3958	395.255	401.130	413.396	395.105	440.831	378.463	493.073	397.986	307.163	279.235	331.980	168.950	229.815	441.393	468.809	443.375	0.0003315	0.00029385	7.7332e-05	1189	4.7036e-06	3.5378e-06	1285	250.91	2.0724e-06	2.8964e-06	309.19	84.455	67.326	19.494	3.6711e-06	26.658	0.00053312	0.00057861	0.0001581	1171.9	6.2545e-06	6.2394e-06	1269.5	249.45	6.0459e-06	6.1185e-06	311.6	85.996	68.272	19.985	5.9606e-06	27.432	261.616	340.469	252.379	164.311	274.986	389.857	164.599	171.979	385.734	272.513	171.644	178.113	178.323	185.303	336.275	185.251	-8191	255	
766.345	1	1	0	0	0.21712	0.28478	0.11615	0.058563	0.06296	0.040591	0.29924	0.18382	0.24859	0.17844	0.19902	0.49182	0.084431	0.11443	0.021909	0.38231	-2.2167	-2.525	-2.2	-2.9313	-2.4479	-2.4813	-2.7854	-2.4729	-2.6937	-2.7146	-2.4521	-2.6667	-2.3812	-2.5958	-2.7521	-2.4792	166.953	331.428	343.690	177.194	374.922	161.746	421.616	499.428	354.027	177.085	391.237	162.262	154.221	479.743	462.481	358.192	0.00028929	0.00038697	0.00010838	1182.1	4.1623e-06	6.1242e-06	1282.2	247.86	4.6028e-06	3.5177e-06	311.76	84.909	67.24	19.282	6.3276e-07	26.93	0.0004957	0.00053658	0.00015016	1170.6	5.7656e-06	5.8757e-06	1266.3	248.11	5.8429e-06	5.7655e-06	311.16	85.759	68.223	19.837	5.8309e-06	27.473	259.850	238.744	259.277	164.382	309.079	304.179	164.447	171.875	324.451	316.512	171.377	178.098	178.445	185.617	317.329	184.926	-8191	255	
766.441	1	1	0	0	0.093515	0.098166	0.085345	0.23568	0.051578	0.23678	0.18818	0.16986	0.20859	0.33552	0.14095	0.10908	0.41365	0.2112	0.13448	0.099892	-2.1604	-2.475	-2.3604	-2.8354	-2.4271	-2.4479	-3.0292	-2.3812	-2.65	-2.7646	-2.4229	-2.8604	-2.4479	-2.3792	-2.6646	-2.2812	249.653	376.913	344.727	470.674	422.492	176.811	362.447	499.799	316.351	393.465	339.046	334.039	492.181	512.551	257.144	286.184	0.00028034	5.3203e-05	7.698e-05	1182.7	3.352e-06	1.1341e-06	1280	248.57	3.2486e-06	2.8573e-07	309.15	85.671	67.36	19.422	1.0243e-06	26.726	0.00050798	0.00054304	0.00015306	1170.3	6.0471e-06	6.0438e-06	1265.9	248.59	6.1012e-06	6.1264e-06	311.05	86.024	68.238	19.921	6.1748e-06	27.51	255.919	275.811	180.353	164.185	277.605	171.970	164.343	172.038	317.105	230.247	171.032	178.387	178.704	185.761	227.375	184.941	-8191	255	
766.538	1	1	0	0	0.13132	0.050239	0.07728	0.38592	0.38173	0.12038	0.060881	0.035642	0.15542	0.20083	0.3269	0.15319	0.030091	0.20984	0.1891	0.093326	-2.2062	-2.6813	-2.2708	-2.9375	-2.4792	-2.4417	-2.9708	-2.4667	-2.5104	-2.825	-2.4333	-2.9354	-2.7771	-2.5292	-2.6292	-2.3625	253.405	393.631	171.801	421.543	175.028	408.890	175.433	365.090	492.613	407.939	419.067	382.107	418.317	455.675	495.859	436.777	0.00031694	0.00024272	7.1297e-05	1181	4.0161e-06	5.0164e-06	1281.7	249.09	2.4688e-06	8.9981e-07	310.93	84.767	67.427	19.308	3.8231e-06	26.723	0.0005341	0.00057017	0.00015739	1171.6	6.2214e-06	6.3287e-06	1266.9	248.64	6.1779e-06	6.164e-06	311.58	85.861	68.288	19.866	5.9719e-06	27.448	261.541	493.984	230.247	164.544	370.405	313.903	164.325	171.577	296.293	322.989	171.780	178.003	178.653	185.480	268.733	184.622	-8191	255	
766.634	1	1	0	0	0.25657	0.16689	0.23854	0.11536	0.19006	0.31109	0.24842	0.37409	0.19903	0.12786	0.20635	0.099923	0.086069	0.077213	0.15448	0.21198	-2.0646	-2.5854	-2.3292	-2.825	-2.7021	-2.3187	-3.0438	-2.5229	-2.4646	-2.9062	-2.4375	-2.5646	-2.6271	-2.0938	-2.7625	-2.5104	234.489	370.359	415.974	474.522	400.926	362.874	472.453	406.198	170.763	248.872	417.602	351.568	355.464	183.022	335.928	251.435	0.00023374	0.00069651	6.9727e-05	1185.8	4.7239e-06	2.9542e-06	1280.6	249.21	3.2371e-06	9.3111e-07	311.58	85.177	67.087	19.444	2.2461e-06	26.826	0.0005116	0.00055148	0.00015311	1172.4	6.1028e-06	6.1391e-06	1268.2	248.86	6.0926e-06	6.1531e-06	311.65	85.999	68.167	19.889	5.9812e-06	27.534	258.191	244.548	227.703	164.418	375.718	386.714	164.427	171.795	269.031	348.803	170.997	177.789	178.388	185.829	355.555	185.442	-8191	255	
766.730	1	1	0	0	0.10966	0.23013	0.078482	0.15052	0.062512	0.10229	0.15844	0.097358	0.25733	0.25192	0.14346	0.21329	0.074471	0.13069	0.092759	0.25492	-1.9562	-2.75	-2.1104	-2.7521	-2.5771	-2.1292	-2.7792	-2.6813	-2.3896	-2.775	-2.5	-2.6667	-2.7667	-2.45	-2.6625	-2.575	172.363	292.967	474.646	411.148	234.509	276.693	480.414	511.221	177.264	437.554	206.653	180.362	197.424	407.133	173.711	413.682	0.0002886	0.00033687	0.00014217	1187.1	1.7733e-06	2.7154e-06	1282.2	249.32	4.2558e-06	3.0377e-06	310.75	85.018	67.34	19.445	2.7718e-06	26.799	0.00051538	0.00055288	0.00015269	1173.4	6.0422e-06	6.2011e-06	1269.5	248.94	6.0846e-06	6.2017e-06	312.16	86.04	68.229	19.947	6.107e-06	27.522	254.105	211.988	226.069	164.416	375.338	303.517	164.343	171.927	304.811	336.189	171.891	178.320	178.451	185.427	263.222	184.780	-8191	255	
766.849	1	1	0	0	0.28614	0.039821	0.29655	0.15461	0.0693	0.25015	0.425	0.1569	0.14422	0.09632	0.09553	0.078245	0.10612	0.18408	0.10131	0.13261	-1.6604	-2.7729	-2.3937	-2.8583	-2.7625	-2.4667	-2.7083	-2.5271	-2.3271	-2.7062	-2.4375	-2.4896	-2.7375	-2.3187	-2.7271	-2.7354	180.984	338.886	173.033	405.224	162.064	399.044	467.100	435.052	225.033	468.504	266.195	440.042	281.354	323.118	373.264	504.452	0.00025974	0.00031188	0.00015189	1185.2	3.5108e-06	2.5463e-06	1287.6	250.01	3.9628e-06	2.3738e-06	311.35	85.419	67.605	19.43	4.1814e-06	26.819	0.00052691	0.00057768	0.00016424	1174.2	6.3136e-06	6.5747e-06	1270.8	248.79	6.4277e-06	6.5405e-06	312.04	86.261	68.403	20.041	6.3641e-06	27.537	257.558	209.245	248.512	164.356	344.724	369.071	164.575	171.767	316.394	279.319	171.468	178.112	178.615	185.432	285.094	184.837	-8191	255	
766.922	1	1	0	0	0.27373	0.12697	0.15381	0.16017	0.10087	0.070707	0.014137	0.12324	0.17071	0.15108	0.066133	0.23845	0.30244	0.17362	0.14989	0.19215	-1.7896	-2.575	-2.375	-2.6167	-2.6063	-2.3417	-2.7729	-2.7938	-2.3937	-2.8521	-2.5583	-2.4396	-2.6479	-2.3542	-2.4833	-2.7292	476.648	503.598	435.199	450.444	211.340	188.746	401.161	373.856	480.875	167.779	163.037	413.613	185.110	453.004	474.538	410.841	0.00028751	0.00043746	0.00011707	1183.2	4.3356e-06	9.2442e-06	1288	250.09	3.5707e-06	1.4376e-06	313.07	85.067	67.431	19.486	2.7714e-06	26.723	0.00055165	0.00059028	0.00016783	1174.7	6.4094e-06	6.4867e-06	1273.1	249.22	6.4576e-06	6.3691e-06	312.45	86.009	68.445	20.018	6.3829e-06	27.571	257.842	199.208	325.336	164.319	309.541	305.152	164.215	171.718	280.664	345.072	171.679	177.854	178.455	185.868	306.372	184.954	-8191	255	
767.018	1	1	0	0	0.11082	0.22755	0.17725	0.31472	0.22562	0.21031	0.10536	0.1965	0.13241	0.23497	0.10004	0.30778	0.30653	0.090376	0.14041	0.16994	-1.8417	-2.8979	-2.5875	-2.4208	-2.8667	-2.4292	-2.6083	-2.6292	-2.3771	-2.6667	-2.6979	-2.3521	-2.8646	-2.4938	-2.5375	-2.7042	331.210	348.110	473.194	451.613	177.001	267.048	459.053	441.830	414.172	351.749	459.009	219.483	183.614	176.877	236.026	496.092	0.00028112	0.00054172	0.00010044	1188.1	1.1311e-06	2.3348e-06	1281.7	248.88	3.2798e-06	1.0742e-06	312.5	85.361	67.712	19.46	1.8812e-06	26.892	0.00054548	0.00059012	0.0001684	1173.5	6.3743e-06	6.5898e-06	1272.9	249.17	6.3416e-06	6.3407e-06	312.63	86.359	68.454	20.019	6.1767e-06	27.613	264.212	273.127	236.397	164.400	298.947	363.142	164.504	171.939	320.563	500.545	171.542	178.316	178.560	185.513	336.067	185.337	-8191	255	
767.137	1	1	0	0	0.21079	0.15005	0.11198	0.29387	0.24986	0.18239	0.25391	0.46671	0.15088	0.31137	0.32807	0.15677	0.23406	0.21545	0.10396	0.15214	-1.7563	-2.4833	-2.575	-2.5583	-2.6958	-2.3792	-2.5146	-2.675	-2.3208	-2.7687	-2.8063	-2.4771	-2.5708	-2.4833	-2.4437	-2.6979	461.353	313.831	195.073	462.095	170.361	282.222	443.539	164.400	229.842	509.840	448.269	430.947	171.245	468.344	481.006	494.739	0.00023426	0.00055925	0.00015071	1186.6	2.7358e-06	1.9421e-06	1289.9	251.26	1.6672e-06	4.5755e-06	310.49	85.422	67.582	19.376	4.5071e-06	26.928	0.00051768	0.00057163	0.00015735	1175.6	6.1052e-06	6.2621e-06	1273.5	249.84	6.1227e-06	6.2527e-06	312.36	86.295	68.429	19.906	6.1313e-06	27.571	255.141	199.421	229.814	164.398	331.821	308.668	164.386	171.802	312.527	324.967	171.379	177.970	178.522	185.634	285.319	185.041	-8191	255	
767.233	1	1	0	0	0.14162	0.053527	0.1126	0.089362	0.15604	0.048467	0.090444	0.15965	0.21162	0.12262	0.17578	0.38875	0.017514	0.065206	0.10758	0.19865	-1.9354	-2.6708	-2.5354	-2.4229	-2.6479	-2.6042	-2.6979	-2.8479	-2.3521	-2.6458	-2.6188	-2.2938	-2.6562	-2.5187	-2.3604	-2.9542	436.737	400.938	201.311	404.885	363.647	256.052	445.182	339.409	362.426	243.678	158.074	178.476	487.444	275.792	222.547	511.689	0.00025738	0.00035123	0.00010596	1191.5	2.6918e-06	6.2567e-06	1282.3	249.4	8.791e-07	1.9869e-06	310.82	84.814	67.219	19.453	2.4879e-06	26.854	0.00051291	0.00056368	0.0001587	1177.2	5.7965e-06	5.8156e-06	1269.5	248.91	5.6306e-06	5.6136e-06	310.57	85.706	67.942	19.857	5.4496e-06	27.385	263.720	264.829	281.167	164.622	324.122	297.262	164.425	171.916	300.322	302.731	171.545	178.160	179.007	185.173	285.307	185.124	-8191	255	
767.330	1	1	0	0	0.13387	0.077423	0.13909	0.14308	0.20191	0.077526	0.18606	0.13235	0.074558	0.1913	0.14512	0.18451	0.10378	0.23857	0.18897	0.059026	-1.8521	-2.5125	-2.6312	-2.4062	-2.8021	-2.65	-2.5042	-2.9167	-2.3833	-2.6729	-2.8438	-2.4667	-2.6646	-2.5667	-2.3396	-2.8521	307.238	163.188	420.786	472.599	371.580	291.154	337.320	397.742	379.753	487.389	219.742	396.177	263.882	494.166	221.355	397.387	0.00028843	0.00058557	0.00011631	1180.9	4.7484e-06	2.4333e-06	1284.5	248.73	2.306e-06	3.531e-06	308.66	84.576	66.972	19.245	2.7052e-06	26.518	0.00046628	0.00050084	0.00013701	1168	5.4401e-06	5.4143e-06	1266.2	247.72	5.4779e-06	5.4097e-06	310.3	85.318	67.81	19.734	5.3984e-06	27.255	250.340	298.814	230.982	164.311	307.386	305.967	164.299	171.462	270.720	307.743	171.519	178.550	178.682	185.487	318.259	184.973	-8191	255	
767.426	1	1	0	0	0.19459	0.062949	0.19349	0.3297	0.033346	0.22451	0.052482	0.17905	0.12133	0.18796	0.13251	0.19905	0.025311	0.1271	0.23043	0.25322	-2.0104	-2.4729	-2.7646	-2.4313	-2.6625	-2.5875	-2.475	-2.8167	-2.5708	-2.3646	-2.8187	-2.3292	-2.7146	-2.7562	-2.3125	-2.8708	314.756	242.377	317.307	459.771	447.885	409.921	492.927	363.927	361.021	254.257	491.013	329.625	457.187	166.176	455.345	171.757	0.00028021	0.00054916	7.101e-05	1179.9	4.8674e-06	3.5286e-06	1274.7	248.49	5.1704e-06	9.176e-07	307.77	83.743	66.868	19.164	2.1747e-06	26.513	0.00047874	0.0005043	0.0001372	1165.8	5.3831e-06	5.3957e-06	1260.4	247.09	5.3763e-06	5.2862e-06	308.81	84.888	67.375	19.614	5.0709e-06	27.182	265.193	222.851	238.306	164.556	298.910	343.793	164.374	171.744	305.723	350.862	171.750	178.212	178.492	185.880	498.641	185.352	-8191	255	
767.522	1	1	0	0	0.25595	0.068974	0.045906	0.23644	0.10401	0.082632	0.34763	0.11272	0.029388	0.10136	0.12437	0.15407	0.15274	0.1052	0.068844	0.1699	-2.1562	-2.5375	-2.8312	-2.5271	-2.7812	-2.7292	-2.3937	-2.7979	-2.3937	-2.3896	-2.9271	-2.5167	-2.5854	-2.7188	-2.3583	-2.6854	345.819	451.589	430.638	501.841	467.850	438.347	421.548	513.718	222.727	340.154	460.777	468.610	253.359	289.291	468.627	182.910	0.00031193	0.00035873	0.00014215	1177.3	3.1142e-06	5.9002e-06	1274.2	245.39	2.5314e-06	5.5868e-06	306.09	84.259	66.311	19.133	1.8618e-06	26.546	0.00044229	0.00046397	0.00012821	1162.5	5.1899e-06	5.1279e-06	1258.8	245.69	5.1769e-06	5.2661e-06	308.16	85.001	67.344	19.608	5.1561e-06	27.155	247.819	222.221	261.303	164.244	283.654	307.596	164.344	172.064	382.160	291.045	171.590	178.181	178.869	186.066	316.631	185.020	-8191	255	
767.618	1	1	0	0	0.15118	0.11223	0.10856	0.31888	0.13213	0.20428	0.067657	0.43588	0.16159	0.15218	0.11843	0.062763	0.25729	0.15193	0.26323	0.12515	-2.0708	-2.4083	-2.7771	-2.5375	-2.4542	-2.8104	-2.3583	-2.5875	-2.5958	-2.3104	-2.7646	-2.4958	-2.4229	-2.7979	-2.2458	-2.5167	382.205	327.746	160.668	486.573	415.049	399.572	380.143	458.616	166.031	220.672	445.892	492.719	222.329	451.286	244.374	450.448	0.00025986	0.00048692	0.00010798	1177.2	4.4722e-06	5.2068e-06	1272.8	245.29	2.9429e-06	3.9492e-06	305.58	84.168	66.024	19.172	3.3632e-06	26.518	0.00044208	0.00047064	0.00012715	1161.1	5.2028e-06	5.0258e-06	1256.6	245.38	5.101e-06	5.0405e-06	307.41	84.823	67.183	19.572	5.0997e-06	27.086	257.646	279.733	513.898	164.340	284.530	328.928	164.415	171.916	313.970	314.620	171.516	178.131	179.152	185.834	341.915	185.148	-8191	255	
767.739	1	1	0	0	0.22032	0.08877	0.16585	0.090275	0.22315	0.21841	0.15353	0.31484	0.25988	0.15753	0.067771	0.184	0.161	0.15913	0.19161	0.24466	-2.3312	-2.3292	-2.6479	-2.5687	-2.4562	-2.7917	-2.6021	-2.9437	-2.5187	-2.3917	-2.8042	-2.5938	-2.325	-2.8479	-2.4229	-2.7458	423.153	260.265	475.670	465.182	287.578	491.024	486.291	496.137	319.155	275.304	300.337	447.326	257.441	259.488	365.623	391.442	0.0002777	0.00039882	4.5404e-05	1167.7	3.7038e-06	5.1987e-06	1268.9	245.65	1.2188e-06	2.4728e-06	306.95	83.654	66.681	19.162	4.3781e-06	26.215	0.00042561	0.00044994	0.00012278	1157.8	4.924e-06	4.9441e-06	1250.8	244.61	4.939e-06	4.9133e-06	306.8	84.587	66.983	19.579	4.8479e-06	26.935	256.825	200.371	253.213	164.383	294.918	292.960	164.472	172.015	267.737	324.117	171.174	178.228	178.776	185.233	295.282	185.281	-8191	255	
767.833	1	1	0	0	0.1114	0.31003	0.1961	0.033814	0.27013	0.18457	0.11214	0.19109	0.058815	0.099458	0.21367	0.24169	0.26543	0.20139	0.25372	0.17437	-2.3187	-2.3375	-2.5833	-2.775	-2.4604	-2.7417	-2.5	-2.6437	-2.6146	-2.2458	-2.7229	-2.6813	-2.325	-2.7646	-2.2917	-2.5146	463.465	301.661	507.904	439.675	204.819	446.282	391.227	442.920	179.937	187.944	493.023	294.059	461.998	178.442	455.938	508.928	0.00026157	0.00021575	0.00014117	1165.5	3.4786e-06	3.3022e-06	1265.1	245.99	2.2526e-06	3.5871e-06	307.75	83.46	66.071	19.059	1.5171e-06	26.461	0.00041169	0.00044321	0.00012145	1152.8	4.7544e-06	4.8524e-06	1247.9	245.07	4.8875e-06	4.9996e-06	307.01	84.599	66.879	19.525	4.9128e-06	27.063	253.892	327.472	222.489	164.319	301.113	306.280	164.477	171.959	370.643	271.847	171.517	178.521	178.872	185.771	350.611	185.332	-8191	255	
767.929	1	1	0	0	0.10088	0.18561	0.27332	0.096536	0.054267	0.11086	0.054699	0.1197	0.28025	0.15762	0.15149	0.18046	0.22799	0.15103	0.28642	0.24257	-2.2375	-2.3958	-2.6917	-2.5979	-2.4062	-2.6646	-2.6167	-2.6625	-2.7562	-2.3937	-2.7333	-2.7583	-2.2313	-2.7333	-2.5125	-2.4562	263.266	326.748	208.561	385.890	393.794	470.161	458.188	469.680	167.371	402.406	504.438	476.698	485.910	345.237	392.159	444.409	0.00025528	0.00030078	5.598e-05	1167	1.5617e-06	3.9113e-06	1273.1	245.33	6.0532e-06	4.5704e-06	305.75	83.549	66.279	19.222	5.3171e-06	26.479	0.00041437	0.00044356	0.00012457	1155.3	4.9047e-06	4.8957e-06	1251.6	244.61	4.6814e-06	4.6537e-06	305.43	84.323	67	19.527	4.7823e-06	27.004	254.059	297.072	271.857	164.427	320.416	298.988	164.325	171.682	334.666	330.668	171.890	177.938	178.670	185.264	293.167	184.670	-8191	255	
768.025	1	1	0	0	0.17618	0.30955	0.14422	0.28067	0.17228	0.24263	0.298	0.24828	0.23673	0.13011	0.025838	0.1262	0.23601	0.10858	0.014655	0.11856	-2.2979	-2.2604	-2.5771	-2.8812	-2.3125	-2.8542	-2.8542	-2.5042	-2.7708	-2.2729	-2.8146	-2.7667	-2.4104	-2.8896	-2.5958	-2.5104	328.360	474.602	404.204	500.155	478.430	379.955	445.316	230.931	248.085	275.155	325.611	355.657	190.910	383.943	357.693	365.916	0.00028448	0.00054259	7.0605e-05	1169	3.5541e-06	1.4133e-06	1268	246.04	4.0803e-06	1.7499e-06	306.47	84.253	66.61	19.145	3.5797e-06	26.36	0.00041533	0.00044539	0.00012385	1154.2	4.8897e-06	4.9295e-06	1249.5	244.83	4.8577e-06	4.8261e-06	305.72	84.605	67.011	19.541	4.7882e-06	27.069	258.386	249.765	227.130	164.285	292.560	445.580	164.394	172.097	321.800	332.200	171.557	178.185	178.886	185.596	248.142	185.272	-8191	255	
768.146	1	1	0	0	0.10358	0.17144	0.011712	0.21138	0.21844	0.12608	0.07012	0.074267	0.22202	0.42387	0.33493	0.32648	0.17055	0.26888	0.21305	0.20035	-2.3875	-2.3792	-2.5542	-2.925	-2.2292	-2.7104	-2.5375	-2.4917	-2.7625	-2.3875	-2.5687	-2.8375	-2.2792	-2.7271	-2.6583	-2.5625	443.972	283.098	236.235	433.238	419.945	295.981	428.184	370.738	417.952	436.303	450.967	478.043	189.145	452.092	297.778	353.617	0.00025217	0.00059843	0.00010023	1167.3	4.5365e-06	2.4462e-06	1263.6	246.52	3.6684e-06	2.6438e-06	306.8	83.88	66.331	19.12	4.9068e-07	26.526	0.00041785	0.00045514	0.00012713	1154.2	4.9272e-06	4.8736e-06	1248.8	244.94	4.9065e-06	4.9152e-06	307.13	84.584	67.03	19.548	4.9461e-06	27.058	255.226	251.517	296.527	164.555	354.569	374.188	164.368	171.873	320.933	234.050	171.545	177.845	178.570	185.568	448.736	184.864	-8191	255	
768.218	1	1	0	0	0.27192	0.29794	0.0070405	0.15095	0.20172	0.31866	0.34871	0.13236	0.17459	0.087771	0.3132	0.27316	0.22052	0.16186	0.13298	0.084666	-2.3104	-2.5312	-2.4042	-2.8896	-2.6208	-2.7167	-2.7333	-2.4437	-2.7562	-2.5229	-2.5187	-2.7917	-2.3833	-2.5187	-2.7562	-2.6042	503.118	154.673	512.672	382.474	428.383	176.297	436.346	460.083	290.375	512.923	154.239	512.458	324.351	168.751	477.424	476.613	0.00027325	0.00028688	0.00013998	1167.9	3.0126e-06	8.8049e-07	1268	244.95	4.8042e-06	2.0064e-06	307.46	84.102	66.563	19.181	2.5849e-06	26.607	0.00043083	0.00045901	0.00012918	1154.8	4.9757e-06	5.028e-06	1251	244.76	5.0495e-06	5.0266e-06	306.7	84.662	67.142	19.613	4.9179e-06	27.1	253.952	211.818	247.515	164.296	296.079	315.078	164.665	171.763	338.329	312.564	171.599	178.355	178.720	185.394	347.981	185.191	-8191	255	
768.314	1	1	0	0	0.11125	0.15666	0.13912	0.22618	0.15708	0.24725	0.17927	0.19819	0.066489	0.16213	0.20491	0.1045	0.39392	0.33901	0.16784	0.12853	-2.275	-2.375	-2.2958	-2.8563	-2.2854	-2.6667	-2.8854	-2.2938	-2.7042	-2.5854	-2.3979	-2.8375	-2.5417	-2.5604	-2.9729	-2.2271	212.915	328.180	309.038	273.497	341.349	201.025	470.340	352.601	476.570	328.918	420.528	225.007	505.480	233.635	474.232	343.498	0.0002773	0.00056079	0.00017448	1168.6	1.9735e-06	2.4448e-06	1265.5	245.7	2.9661e-06	2.2944e-06	305.81	83.987	66.434	19.181	7.0345e-07	26.612	0.00043525	0.00045329	0.00013008	1154	5.1901e-06	5.1524e-06	1250.7	244.86	5.2682e-06	5.2732e-06	307.05	84.775	67.268	19.714	5.5605e-06	27.28	268.980	230.334	247.263	164.318	329.867	300.696	164.537	171.880	362.548	346.497	171.694	178.124	178.758	185.794	424.349	185.321	-8191	255	
768.410	1	1	0	0	0.025985	0.18245	0.29499	0.18926	0.20182	0.15943	0.21535	0.29607	0.15078	0.23339	0.11762	0.19356	0.11511	0.12984	0.095967	0.26736	-2.2354	-2.7188	-2.4625	-3.0229	-2.5229	-2.5021	-2.7583	-2.2687	-2.7583	-2.6604	-2.3688	-2.9458	-2.4146	-2.3396	-2.8333	-2.4917	178.476	302.585	321.832	327.821	339.497	340.456	440.518	480.743	192.511	262.052	194.474	385.027	162.676	443.466	472.770	511.728	0.00025793	0.00063797	5.201e-05	1173.1	4.5646e-06	5.3349e-06	1269.5	247.61	5.0777e-06	2.0307e-06	309.29	84.595	66.938	19.463	3.6474e-06	26.642	0.00047332	0.00052829	0.00014855	1160.3	5.9161e-06	5.8845e-06	1255.6	246.6	5.8016e-06	5.854e-06	309.54	85.514	67.784	19.882	5.7133e-06	27.347	260.982	224.417	267.609	164.329	324.085	314.876	164.397	171.888	323.497	272.248	171.276	178.035	178.935	185.607	340.688	184.861	-8191	255	
768.531	1	1	0	0	0.27982	0.2124	0.14011	0.12188	0.28446	0.14402	0.097095	0.13596	0.16912	0.098573	0.13308	0.065306	0.22267	0.20505	0.09801	0.18166	-2.0271	-2.6937	-2.3396	-2.6562	-2.5604	-2.5521	-3.0083	-2.5687	-2.4562	-2.775	-2.2729	-2.75	-2.5563	-2.4479	-2.9021	-2.3146	386.345	368.299	388.935	382.896	186.434	483.674	399.669	208.201	374.502	337.757	214.363	279.241	407.806	441.737	286.788	272.066	0.00029262	0.0004965	0.00011153	1178.7	2.2852e-06	3.3542e-06	1272.1	248.92	2.7828e-06	3.6646e-06	308.91	84.958	67.16	19.331	6.343e-06	26.494	0.00048227	0.00052404	0.00014377	1165.1	5.6195e-06	5.6641e-06	1258.7	247.31	5.4272e-06	5.383e-06	308.8	85.385	67.793	19.811	5.1652e-06	27.269	254.234	284.343	235.063	164.444	313.977	311.538	164.479	171.579	318.543	312.517	171.548	178.263	178.788	185.290	288.136	185.082	-8191	255	
768.627	1	1	0	0	0.072261	0.10267	0.25139	0.16684	0.17944	0.052935	0.096929	0.26868	0.11607	0.066963	0.15124	0.1735	0.18588	0.097601	0.053696	0.33541	-1.8813	-2.8979	-2.4375	-2.6917	-2.5417	-2.4062	-2.8854	-2.4667	-2.5417	-2.95	-2.3292	-2.7188	-2.5542	-2.45	-2.8875	-2.3979	509.165	488.478	476.217	487.050	480.279	481.515	446.918	494.189	174.217	165.209	197.001	248.836	360.790	500.172	300.770	453.322	0.00030622	0.00074111	9.3667e-05	1174.5	6.8163e-06	1.9946e-06	1275.3	246.68	2.2772e-06	3.4306e-06	309	83.884	66.338	19.205	2.6542e-06	26.561	0.00045352	0.00046707	0.00013426	1162.4	5.2244e-06	5.0964e-06	1259.4	246.55	5.0421e-06	5.0053e-06	308.83	85.014	67.372	19.718	4.9416e-06	27.198	252.764	236.860	224.554	164.390	305.209	228.791	164.362	171.878	281.514	316.135	171.383	178.671	178.732	185.660	280.478	185.040	-8191	255	
768.723	1	1	0	0	0.24203	0.088908	0.11351	0.30746	0.1699	0.11104	0.097754	0.28796	0.16726	0.063087	0.3261	0.1066	0.14659	0.18691	0.084406	0.1571	-1.9729	-2.7042	-2.25	-2.7042	-2.7333	-2.3625	-2.9729	-2.4188	-2.4729	-2.9167	-2.5125	-2.65	-2.6125	-2.1646	-2.6896	-2.5875	251.352	409.970	214.850	451.772	273.584	508.788	412.363	437.689	435.752	344.858	471.678	203.416	479.133	386.616	325.356	357.499	0.00030148	0.00031611	8.8622e-05	1171.4	4.3625e-06	4.0394e-06	1271.5	247.66	3.709e-06	4.7778e-06	307.77	84.158	66.916	19.193	1.493e-06	26.627	0.00042836	0.00044521	0.00012739	1159	5.1038e-06	4.944e-06	1256.2	246.34	4.9846e-06	4.962e-06	308.39	85.041	67.626	19.662	4.7471e-06	27.202	261.894	227.309	276.599	164.469	299.234	290.278	164.489	171.483	317.855	333.453	171.466	178.363	178.611	185.630	314.533	185.067	-8191	255	
768.819	1	1	0	0	0.37799	0.20012	0.21242	0.25413	0.12721	0.21453	0.15651	0.067623	0.33051	0.16735	0.19089	0.16081	0.093635	0.092891	0.21508	0.089006	-2.0146	-2.6417	-2.3479	-2.5125	-2.5312	-2.1167	-2.8	-2.5979	-2.3146	-2.8	-2.3979	-2.6646	-2.7792	-2.2667	-2.6604	-2.5187	364.374	451.590	392.947	429.184	389.636	445.121	239.828	373.843	425.878	360.401	230.044	381.426	470.086	280.742	200.641	464.082	0.00026432	0.00018035	0.00014503	1169	4.0648e-06	6.8722e-06	1270.1	247.43	4.5384e-06	1.3667e-06	308.18	84.47	66.611	19.301	3.986e-06	26.495	0.00042105	0.00042795	0.00012447	1157.8	4.6878e-06	4.8224e-06	1253	245.53	4.7404e-06	4.8526e-06	307.52	84.956	67.165	19.671	4.7905e-06	27.105	252.667	258.086	201.648	164.545	312.853	283.324	164.520	171.892	321.792	381.434	171.655	178.068	178.532	185.863	321.100	184.637	-8191	255	
768.915	1	1	0	0	0.19829	0.11341	0.36624	0.091546	0.1739	0.11565	0.13406	0.044671	0.13534	0.41651	0.2178	0.20337	0.072449	0.15041	0.35643	0.10761	-1.7979	-2.6583	-2.2958	-2.5646	-2.7042	-2.3812	-2.7771	-2.4896	-2.3083	-2.7271	-2.5604	-2.4562	-2.9	-2.3521	-2.7438	-2.7729	228.331	501.068	381.706	422.353	512.374	234.690	193.010	334.391	428.173	303.774	423.582	187.388	403.527	425.516	418.713	209.273	0.00027155	0.00039491	6.6449e-05	1166.9	5.5528e-06	3.9897e-06	1272.7	245.54	2.9553e-06	4.2132e-06	308.32	83.896	66.727	19.28	2.5155e-06	26.584	0.00042184	0.00045081	0.00012466	1156.6	4.9643e-06	4.8636e-06	1253.8	245.17	4.849e-06	4.7889e-06	307.49	84.711	67.093	19.642	4.7725e-06	27.046	265.710	236.163	201.642	164.468	295.709	285.265	164.663	172.012	294.821	287.212	171.628	178.090	178.731	185.767	308.971	184.998	-8191	255	
769.010	1	1	0	0	0.22113	0.12537	0.068319	0.2276	0.15296	0.17032	0.30284	0.23558	0.43845	0.054875	0.11724	0.35481	0.24965	0.11343	0.10604	0.047411	-1.9271	-2.6729	-2.5417	-2.5312	-2.8271	-2.4688	-2.7146	-2.6208	-2.3563	-2.85	-2.5146	-2.5	-2.8604	-2.3417	-2.6208	-2.6354	399.881	417.055	326.236	392.660	230.911	171.353	510.996	395.557	410.685	159.049	343.983	166.021	468.776	391.095	424.951	215.570	0.00031673	0.00068066	0.00012079	1168.4	4.7583e-06	6.964e-06	1269.4	245.28	2.5813e-06	3.9336e-06	307.36	83.715	66.426	19.193	3.8548e-06	26.416	0.00040969	0.00043209	0.00011798	1155.6	4.6389e-06	4.8145e-06	1250.4	244.75	4.5487e-06	4.64e-06	306.91	84.468	67.001	19.595	4.5136e-06	27.042	255.945	271.821	220.578	164.550	324.839	290.394	164.704	171.614	321.977	276.598	171.608	178.439	178.597	185.713	338.122	185.457	-8191	255	
769.107	1	1	0	0	0.24008	0.14847	0.26506	0.27122	0.1951	0.12934	0.085718	0.18696	0.20886	0.1046	0.065075	0.34545	0.1062	0.048412	0.088416	0.18023	-2.0687	-2.5958	-2.4667	-2.5062	-2.8646	-2.3083	-2.6625	-2.9583	-2.3354	-2.6354	-2.6208	-2.3667	-2.5979	-2.4271	-2.4813	-2.7604	337.573	316.271	327.407	498.122	329.842	323.486	378.988	445.255	386.109	460.145	448.330	435.171	378.139	303.090	491.817	372.500	0.00027871	0.0003599	0.00010882	1165.8	5.6307e-06	1.2e-06	1262.4	246.25	3.9695e-06	2.4264e-06	304.63	84.181	66.316	19.145	2.1141e-06	26.374	0.00040077	0.00041509	0.00011796	1151.6	4.5296e-06	4.5857e-06	1247.3	244.66	4.4049e-06	4.5725e-06	304.98	84.507	66.788	19.516	4.6216e-06	27.001	260.439	270.792	204.481	164.469	310.951	256.459	164.387	171.938	325.352	340.056	171.808	178.122	178.957	185.860	379.534	185.317	-8191	255	
769.226	1	1	0	0	0.29761	0.18805	0.12279	0.13485	0.0606	0.26048	0.27612	0.27728	0.28107	0.33138	0.24411	0.17679	0.023198	0.043875	0.14042	0.1959	-1.9396	-2.6667	-2.5604	-2.4854	-2.8333	-2.4979	-2.4625	-2.7562	-2.4375	-2.5604	-2.7292	-2.2083	-2.7438	-2.3812	-2.3187	-2.7188	291.025	185.532	476.554	504.332	170.479	228.572	476.045	437.398	442.157	307.299	451.727	455.990	222.182	477.773	170.859	379.525	0.00026913	0.00030469	0.00011532	1169.5	4.3511e-06	4.3851e-06	1259.2	245.02	3.1821e-06	3.5808e-06	307.52	84.033	66.264	19.103	4.0717e-06	26.439	0.00040689	0.00044566	0.00012179	1152.1	4.8444e-06	4.8805e-06	1247.1	244.54	4.9021e-06	5.0069e-06	306.29	84.553	66.98	19.576	4.877e-06	27.048	253.410	203.233	232.883	164.401	282.914	298.361	164.264	171.811	353.104	348.149	171.248	178.052	178.855	185.410	348.900	185.033	-8191	255	
769.323	1	1	0	0	0.21328	0.27495	0.048529	0.13785	0.153	0.1794	0.052137	0.10592	0.20384	0.04516	0.063767	0.19049	0.20581	0.038331	0.12685	0.22205	-1.7583	-2.55	-2.5958	-2.3729	-2.6333	-2.575	-2.6146	-2.6729	-2.0979	-2.6208	-2.6854	-2.2188	-2.6896	-2.5354	-2.4479	-2.9188	320.252	236.546	256.747	475.654	210.394	453.593	365.862	474.644	456.526	458.302	421.304	439.946	478.215	428.734	462.247	375.051	0.00028254	0.00038702	6.3037e-05	1169.5	4.2372e-06	5.4771e-06	1262.3	246.88	2.2277e-06	5.1471e-06	306.14	83.783	66.596	19.124	3.6396e-06	26.469	0.00042186	0.0004438	0.00012528	1153.9	4.8755e-06	4.841e-06	1248.3	245.03	4.9147e-06	4.8582e-06	306.34	84.466	67.027	19.529	4.8185e-06	27.056	257.604	306.529	244.971	164.362	334.915	286.412	164.321	171.933	340.770	293.988	171.857	178.701	178.921	185.984	330.962	185.355	-8191	255	
769.419	1	1	0	0	0.075488	0.14189	0.16954	0.42231	0.16845	0.1023	0.043604	0.2024	0.081811	0.18969	0.079543	0.22277	0.066142	0.02792	0.31219	0.09064	-1.8479	-2.3479	-2.5021	-2.3104	-2.7438	-2.6188	-2.4479	-2.7771	-2.2979	-2.3146	-2.5812	-2.0333	-2.5312	-2.5438	-2.3979	-2.6688	440.271	458.807	356.509	446.146	291.026	356.178	247.985	334.747	384.747	388.281	470.986	423.940	225.001	415.031	435.583	169.326	0.00027523	0.00029469	0.00010815	1166.1	3.8017e-06	5.0463e-06	1262.1	246.12	5.6102e-06	1.6934e-06	303.39	83.513	66.705	18.987	1.4259e-06	26.278	0.0004263	0.00044569	0.00012098	1153.5	4.9941e-06	4.849e-06	1246.4	244.39	4.8216e-06	4.9315e-06	305.43	84.097	67.015	19.48	4.8347e-06	26.982	262.804	236.302	200.677	164.447	326.555	322.292	164.521	171.912	304.525	286.716	171.464	178.302	178.871	185.521	301.742	184.922	-8191	255	
769.515	1	1	0	0	0.18637	0.024939	0.10209	0.30988	0.10248	0.065987	0.13827	0.053028	0.056019	0.14832	0.3514	0.23585	0.04654	0.12097	0.38858	0.15252	-1.8	-2.3167	-2.7562	-2.4813	-2.7	-2.6583	-2.3521	-2.675	-2.35	-2.275	-2.7875	-2.2562	-2.4729	-2.6562	-2.1937	-2.7292	305.543	331.380	307.557	491.078	346.959	413.662	453.235	292.475	337.351	190.461	496.872	432.175	419.500	381.605	339.803	307.586	0.00028227	0.00053879	0.00011516	1165.5	4.4612e-06	1.184e-06	1265.6	245.28	2.3662e-06	3.7584e-06	307.02	83.854	66.56	19.109	4.8327e-06	26.557	0.00041956	0.00044694	0.00012315	1151.8	4.973e-06	4.9669e-06	1247.4	244.46	4.9524e-06	4.8701e-06	306.45	84.488	66.841	19.54	4.7986e-06	27.052	254.836	249.245	252.621	164.622	316.513	496.890	164.528	171.971	316.720	302.133	171.423	178.164	179.199	185.679	277.239	185.445	-8191	255	
769.611	1	1	0	0	0.38609	0.18739	0.16062	0.16875	0.19319	0.28777	0.20176	0.10118	0.34771	0.15229	0.10498	0.19564	0.19475	0.37295	0.23542	0.11702	-2.1396	-2.3854	-2.6292	-2.6042	-2.6042	-2.825	-2.4542	-2.5771	-2.4917	-2.3292	-2.8229	-2.3396	-2.4292	-2.5521	-2.2438	-2.6083	220.255	357.532	257.640	251.611	267.681	320.504	456.195	387.663	194.991	174.947	168.156	172.702	456.269	474.931	226.809	479.838	0.00026115	0.00011724	0.00014645	1161.2	4.2139e-06	1.3948e-06	1259.2	244.38	3.4126e-06	2.8451e-06	305.73	83.824	66.331	19.106	2.9121e-06	26.353	0.0004185	0.0004327	0.00012092	1150.5	4.843e-06	4.7838e-06	1244.9	244.02	4.7916e-06	4.7328e-06	306.01	84.511	66.976	19.566	4.7888e-06	26.963	259.570	228.431	242.266	164.339	300.967	350.063	164.613	171.895	348.503	303.641	171.686	178.112	179.086	185.700	384.455	185.049	-8191	255	
769.707	1	1	0	0	0.089534	0.31353	0.10192	0.096248	0.14662	0.091062	0.45315	0.33612	0.076932	0.031789	0.08539	0.027378	0.27441	0.031888	0.12082	0.033669	-2.2417	-2.4146	-2.6833	-2.4562	-2.3438	-2.6771	-2.4583	-2.5854	-2.4354	-2.2729	-2.8229	-2.3771	-2.3042	-2.8792	-2.3063	-2.5542	325.607	308.449	313.040	255.495	478.956	190.944	437.562	430.009	445.812	280.950	513.747	421.414	188.284	252.738	207.191	344.904	0.00025388	0.00084816	0.00017903	1163.2	3.4046e-06	3.333e-06	1263.5	245.75	3.5512e-06	3.1448e-06	306.43	84.182	66.486	19.128	4.2076e-06	26.383	0.0004149	0.00044865	0.00012318	1151.6	4.8415e-06	4.8761e-06	1246.6	244.64	4.9026e-06	4.8319e-06	306.49	84.444	67.067	19.532	4.8742e-06	27.016	248.134	230.315	229.809	164.438	302.943	281.418	164.392	171.848	286.243	347.622	171.738	178.169	178.875	185.939	279.591	184.822	-8191	255	
769.828	1	1	0	0	0.092544	0.093149	0.037465	0.4259	0.19365	0.23036	0.064653	0.092391	0.082612	0.19821	0.12206	0.12287	0.15104	0.10735	0.27452	0.17817	-2.0438	-2.3438	-2.7	-2.5708	-2.3917	-2.7875	-2.4896	-2.4375	-2.6437	-2.3146	-2.6208	-2.5771	-2.2396	-2.8833	-2.2938	-2.4958	321.161	338.187	251.737	474.118	501.678	162.422	379.337	305.948	329.042	439.660	224.595	184.070	497.308	283.384	411.244	204.751	0.0002355	0.00050985	6.747e-05	1166	5.2784e-06	3.8407e-06	1262.6	246.34	3.3831e-06	4.2318e-06	305.53	83.547	66.817	19.191	2.6047e-06	26.434	0.00041582	0.00044209	0.000123	1152.8	4.7439e-06	4.8067e-06	1244.9	244.26	4.7135e-06	4.6159e-06	304.88	84.388	67.016	19.493	4.4453e-06	26.931	256.895	238.724	222.702	164.348	310.768	303.378	164.308	171.731	314.972	349.569	171.936	178.319	178.723	185.576	318.858	185.298	-8191	255	
769.922	1	1	0	0	0.11636	0.044003	0.29096	0.098008	0.27202	0.15081	0.1313	0.17449	0.22707	0.24331	0.12906	0.1049	0.088819	0.11842	0.089231	0.12104	-2.1875	-2.2646	-2.6333	-2.6417	-2.2896	-2.7396	-2.5333	-2.5062	-2.6708	-2.4208	-2.7188	-2.4813	-2.3438	-2.6875	-2.6333	-2.5646	341.214	282.732	477.917	508.353	275.274	432.123	471.214	204.846	374.971	161.866	383.390	482.021	453.127	431.579	246.039	444.576	0.00030299	0.00046918	0.00013375	1167	2.1488e-06	3.0496e-06	1257	245.8	2.4189e-06	3.39e-06	304.2	84.104	66.297	19.198	3.2034e-06	26.275	0.00040319	0.0004172	0.00011779	1151	4.6078e-06	4.4826e-06	1243.9	244.21	4.4206e-06	4.5593e-06	304.91	84.5	66.812	19.496	4.3894e-06	26.907	251.812	232.292	262.407	164.357	371.517	309.835	164.416	171.743	321.327	284.379	171.430	178.074	178.794	185.590	326.780	185.010	-8191	255	
770.018	1	1	0	0	0.17282	0.03	0.13107	0.29318	0.20615	0.11425	0.19227	0.20844	0.2293	0.06317	0.21167	0.18102	0.15816	0.076983	0.048752	0.14421	-2.2354	-2.4542	-2.6813	-2.7396	-2.4125	-2.8187	-2.425	-2.6125	-2.625	-2.4188	-2.7667	-2.6521	-2.0375	-2.575	-2.4021	-2.4833	273.102	186.106	362.982	437.369	491.287	253.076	509.276	503.766	362.316	397.426	486.674	435.274	157.949	489.591	330.753	492.954	0.0002664	0.00034222	9.092e-05	1162.6	7.0137e-06	1.12e-06	1260.3	244.88	3.0259e-06	1.4508e-06	304.5	83.373	66.499	19.142	2.7968e-06	26.337	0.00039194	0.00040696	0.00011584	1147.9	4.4665e-06	4.3254e-06	1243.7	243.69	4.6092e-06	4.4915e-06	305.09	84.157	67.088	19.534	4.5972e-06	26.965	258.516	274.189	241.745	164.279	317.086	285.633	164.590	172.092	324.939	272.277	171.784	178.178	178.547	185.769	325.153	185.422	-8191	255	
770.092	1	1	0	0	0.045814	0.23302	0.15599	0.34564	0.22099	0.14786	0.11254	0.023219	0.047036	0.15322	0.079595	0.32273	0.040265	0.1401	0.068925	0.17418	-2.275	-2.2188	-2.5875	-2.9771	-2.2833	-2.55	-2.6271	-2.3771	-2.8625	-2.4917	-2.5854	-2.8063	-2.2896	-2.5375	-2.4458	-2.3583	223.396	340.460	383.982	475.093	483.909	469.100	409.911	184.275	459.190	269.060	163.903	449.456	220.231	280.255	196.789	172.871	0.00024507	0.00037171	3.3185e-05	1164	2.0065e-06	4.4e-06	1265.1	244.6	3.8978e-06	3.4942e-06	305.68	83.542	66.009	19.057	5.5933e-06	26.446	0.00039839	0.00042646	0.00012047	1149.1	4.7575e-06	4.6852e-06	1245	243.96	4.5387e-06	4.6412e-06	305.06	84.214	66.703	19.445	4.3754e-06	26.931	262.992	265.564	251.850	164.476	279.270	301.414	164.230	171.908	291.421	250.275	171.742	178.326	178.965	185.616	332.408	185.057	-8191	255	
770.211	1	1	0	0	0.24735	0.043048	0.16652	0.062724	0.20575	0.021532	0.30654	0.012499	0.10838	0.12727	0.17993	0.1321	0.14996	0.18438	0.09467	0.25907	-2.3333	-2.4104	-2.4375	-2.8312	-2.3542	-2.5521	-2.8104	-2.3958	-2.7104	-2.425	-2.6521	-2.7479	-2.3271	-2.6146	-2.5479	-2.2208	464.819	401.030	265.320	403.065	452.446	202.925	487.174	363.865	348.151	268.636	447.814	499.936	442.906	250.030	263.672	464.872	0.0002681	0.00063905	9.0846e-05	1162.1	4.9545e-06	1.1871e-06	1254.8	243.38	2.748e-06	2.1901e-06	306	83.695	66.374	19.181	5.4291e-06	26.416	0.00038367	0.00040286	0.00011423	1146.8	4.3077e-06	4.4863e-06	1240.8	242.93	4.4037e-06	4.4345e-06	305.68	84.234	66.705	19.49	4.4667e-06	26.873	262.259	233.578	267.421	164.325	331.963	307.550	164.626	171.652	335.032	258.129	171.505	178.247	178.859	185.475	302.919	185.276	-8191	255	
770.307	1	1	0	0	0.14541	0.21321	0.24018	0.3782	0.041208	0.19192	0.26476	0.22825	0.091037	0.2247	0.29172	0.16207	0.30008	0.050774	0.14138	0.079087	-2.2417	-2.5375	-2.4292	-2.9938	-2.3167	-2.4771	-2.9625	-2.2479	-2.6333	-2.4979	-2.5792	-2.8333	-2.3104	-2.8167	-2.6292	-2.4688	295.662	376.065	424.367	206.402	492.028	422.098	336.155	398.526	379.350	509.856	155.243	159.187	484.920	227.781	218.127	168.839	0.00029336	0.00029267	0.00010779	1159.5	3.541e-06	5.4891e-06	1254.5	243.66	3.5167e-06	3.2249e-06	303.6	83.467	66.174	19.044	1.7178e-06	26.155	0.0003778	0.00040526	0.00011345	1146.4	4.437e-06	4.4115e-06	1239.8	242.87	4.4188e-06	4.3812e-06	304.39	83.957	66.54	19.416	4.3336e-06	26.88	263.240	259.206	228.166	164.510	298.613	381.463	164.183	171.835	298.027	322.686	171.686	178.364	178.499	185.981	286.148	185.182	-8191	255	
770.403	1	1	0	0	0.39592	0.14787	0.21725	0.22832	0.22538	0.15364	0.30116	0.13753	0.15447	0.16466	0.20245	0.065211	0.25493	0.48251	0.15499	0.19416	-2.1917	-2.4729	-2.3646	-3.1146	-2.5021	-2.4625	-2.9813	-2.3083	-2.7292	-2.6771	-2.4708	-2.6396	-2.4979	-2.5479	-2.8708	-2.325	266.785	165.933	326.698	493.317	362.045	409.301	465.101	264.875	311.626	410.476	266.697	164.128	512.760	460.092	187.888	414.863	0.00025258	0.00011962	8.6356e-05	1159.3	3.92e-06	3.7393e-06	1254.5	244.47	2.7492e-06	1.7738e-06	305.95	83.121	65.765	18.989	1.5564e-06	26.382	0.0003795	0.00040488	0.0001127	1146.2	4.4491e-06	4.3559e-06	1238	243.09	4.4034e-06	4.4081e-06	304.82	83.827	66.383	19.434	4.2997e-06	26.895	262.443	177.170	262.229	164.385	285.426	371.370	164.501	171.988	329.336	305.811	171.813	178.381	178.761	185.884	320.563	185.502	-8191	255	
770.499	1	1	0	0	0.19134	0.14107	0.37163	0.13427	0.11494	0.10526	0.31264	0.17848	0.27061	0.090433	0.19666	0.071311	0.13388	0.13076	0.058701	0.092674	-2.1167	-2.5375	-2.425	-2.9125	-2.4792	-2.5083	-2.9458	-2.5479	-2.5354	-2.7313	-2.4437	-2.9396	-2.3688	-2.2625	-2.8042	-2.4042	264.460	487.231	251.124	461.327	255.650	477.711	460.872	482.857	420.747	184.989	466.895	166.271	291.804	412.744	479.282	435.717	0.00024273	0.00055907	5.9164e-05	1159.7	4.8369e-06	3.6961e-06	1254.8	244.49	3.8276e-06	3.5361e-06	306.78	83.474	66.093	19.021	3.3562e-06	26.313	0.00038381	0.00040212	0.0001127	1144.5	4.5969e-06	4.3938e-06	1238.5	242.81	4.4084e-06	4.4742e-06	305.7	83.99	66.53	19.427	4.4293e-06	26.877	260.959	208.858	209.368	164.257	293.155	272.342	164.340	171.875	299.877	321.622	171.398	178.761	179.105	185.331	333.814	185.276	-8191	255	
770.620	1	1	0	0	0.099618	0.017927	0.29365	0.11488	0.22808	0.055227	0.17659	0.086412	0.0060867	0.14763	0.19108	0.25977	0.05957	0.26213	0.29276	0.12511	-2.1708	-2.6312	-2.2188	-2.6917	-2.5021	-2.2667	-2.7979	-2.3417	-2.7083	-2.5896	-2.3604	-2.7083	-2.5042	-2.4375	-2.7938	-2.4375	486.283	157.061	269.281	290.090	277.879	297.259	401.261	469.161	410.293	466.350	477.283	221.056	223.701	456.328	474.346	396.673	0.00029435	0.00022859	4.8457e-05	1161.4	3.1842e-06	2.1896e-06	1257	243.38	2.4062e-06	5.2491e-06	305.02	83.773	66.153	19.141	2.2383e-06	26.421	0.00038412	0.00040968	0.00011379	1145.9	4.4805e-06	4.4266e-06	1239.7	242.82	4.3588e-06	4.3733e-06	303.93	83.977	66.396	19.423	4.1774e-06	26.813	252.971	307.329	298.268	164.444	282.185	344.628	164.326	171.857	374.213	288.308	171.709	178.430	178.871	185.313	305.368	185.143	-8191	255	
770.691	1	1	0	0	0.074192	0.13412	0.20705	0.27094	0.11996	0.083678	0.11692	0.40338	0.10959	0.15396	0.070467	0.17184	0.035729	0.15895	0.20693	0.16641	-1.8104	-2.4542	-2.0896	-2.75	-2.5062	-2.3021	-2.8563	-2.4729	-2.5396	-2.8146	-2.4854	-2.6875	-2.65	-2.1271	-2.7938	-2.4125	373.237	436.885	280.708	468.077	421.986	307.783	485.956	416.038	200.130	392.963	492.516	442.002	319.131	186.777	397.876	173.564	0.00026987	0.00041175	0.00020588	1160.6	4.1975e-06	4.3258e-06	1257	242.4	2.7742e-06	4.3532e-06	302.26	83.151	65.828	18.972	5.5568e-06	26.19	0.00037535	0.00038611	0.00010783	1142.1	4.1481e-06	4.0464e-06	1236.9	241.77	4.2581e-06	4.2478e-06	302.59	83.583	66.3	19.304	4.0085e-06	26.624	252.493	212.444	218.701	164.329	303.389	331.889	164.323	172.013	401.807	354.245	171.528	178.438	178.863	185.913	321.374	185.536	-8191	255	
770.787	1	1	0	0	0.12874	0.1256	0.28963	0.14221	0.11	0.202	0.26821	0.29821	0.16823	0.28713	0.16003	0.2301	0.1932	0.12312	0.18172	0.1384	-1.8896	-2.5896	-2.3104	-2.7313	-2.7188	-2.3312	-2.7583	-2.5833	-2.3542	-2.7208	-2.3958	-2.5979	-2.6229	-2.3646	-2.6542	-2.5083	494.690	299.336	483.488	411.608	467.125	381.583	168.790	439.025	308.059	317.715	308.645	352.634	304.156	462.800	327.705	433.709	0.00024906	0.0006402	6.8196e-05	1155.2	5.4299e-06	5.8162e-06	1252.8	242.85	2.6275e-06	2.4197e-06	302.1	82.784	65.211	18.972	2.0035e-06	25.962	0.00034917	0.00036917	0.00010312	1138.7	4.0143e-06	4.1339e-06	1232.3	241.2	4.1157e-06	3.9489e-06	301.43	83.414	65.827	19.264	3.9773e-06	26.564	258.068	239.399	167.382	164.612	314.939	297.273	164.432	171.706	287.538	342.387	171.447	178.179	178.940	185.676	319.350	185.213	-8191	255	
770.908	1	1	0	0	0.23771	0.051393	0.17658	0.090986	0.12981	0.10516	0.27819	0.1188	0.17442	0.078979	0.095302	0.20809	0.31766	0.22706	0.064768	0.27211	-2.0021	-2.8312	-2.2604	-2.45	-2.7604	-2.4521	-2.8521	-2.725	-2.2521	-2.7521	-2.5687	-2.6917	-2.8271	-2.225	-2.5458	-2.475	191.980	488.422	425.471	314.431	488.328	199.924	492.434	415.596	335.477	382.848	393.700	469.674	428.573	232.277	239.683	456.033	0.00031339	0.00061584	6.4897e-05	1157.4	4.3997e-06	3.1572e-06	1247.4	241.76	3.6039e-06	2.8125e-06	303.22	83.309	65.563	18.871	2.3851e-06	26.25	0.00036383	0.00036246	0.00010217	1139.2	4.082e-06	4.0158e-06	1230.4	240.89	4.0889e-06	3.9271e-06	301.77	83.377	65.961	19.234	4.0628e-06	26.682	254.909	229.985	242.092	164.423	301.579	300.285	164.724	171.892	307.824	336.900	171.752	178.429	178.968	185.993	333.843	185.133	-8191	255	
771.003	1	1	0	0	0.10808	0.17314	0.042725	0.16941	0.26387	0.095986	0.088206	0.19966	0.12881	0.39486	0.44433	0.16365	0.20103	0.12936	0.11337	0.22751	-1.9208	-2.7729	-2.3896	-2.5792	-2.7	-2.3854	-2.6792	-2.6167	-2.2542	-2.7021	-2.6417	-2.45	-2.8229	-2.2562	-2.4708	-2.7167	243.150	507.109	443.383	430.682	351.506	474.373	429.465	443.531	309.109	210.019	448.719	174.001	179.943	429.198	504.104	179.920	0.00026616	0.00024001	3.0088e-05	1151.6	3.3419e-06	3.253e-06	1249.9	240.66	3.9132e-06	1.4442e-07	299.67	82.522	65.015	18.859	4.3212e-06	25.979	0.00035581	0.00037097	0.00010003	1136.3	4.0953e-06	3.9821e-06	1229.1	239.49	4.0153e-06	3.9203e-06	300.33	83.013	65.627	19.183	3.9532e-06	26.477	261.102	293.918	230.228	164.524	360.233	273.045	164.431	172.028	367.379	435.047	172.032	178.115	178.868	185.902	326.227	185.115	-8191	255	
771.100	1	1	0	0	0.08491	0.21671	0.091782	0.63523	0.069923	0.16655	0.15036	0.033521	0.18049	0.11491	0.30347	0.22732	0.21836	0.19476	0.19041	0.13146	-1.725	-2.5667	-2.4104	-2.4979	-2.7167	-2.3646	-2.5083	-2.8979	-2.2875	-2.8	-2.6479	-2.2125	-2.7771	-2.4583	-2.5854	-2.6813	332.083	258.551	183.594	487.161	194.452	190.679	438.364	510.773	417.356	270.655	473.319	445.744	470.560	417.827	189.428	163.147	0.00028267	0.00025431	0.00016746	1146	3.1121e-06	1.7402e-06	1244.1	242.42	3.9666e-06	2.8958e-06	301.74	82.531	65.683	18.748	2.4801e-06	26.001	0.00035602	0.00036577	0.00010181	1133.5	4.0261e-06	4.0737e-06	1227.8	239.83	4.1701e-06	4.2183e-06	301.05	83	65.769	19.132	4.067e-06	26.5	258.780	246.258	223.043	164.370	303.398	277.182	164.410	172.304	294.707	339.452	171.666	178.201	178.675	185.770	373.506	185.085	-8191	255	
771.219	1	1	0	0	0.25788	0.16988	0.048582	0.20108	0.087247	0.22679	0.19801	0.16687	0.13363	0.1221	0.15697	0.16381	0.15524	0.21452	0.057204	0.12081	-1.7354	-2.7687	-2.4896	-2.4854	-2.6667	-2.4854	-2.7208	-2.7	-2.0375	-2.6063	-2.5542	-2.3333	-2.8646	-2.4729	-2.4521	-2.6167	326.055	322.505	374.388	500.102	225.313	475.393	476.087	367.347	282.084	349.859	499.899	418.299	197.156	512.620	266.825	176.818	0.00025224	0.00039537	0.00017362	1149.7	4.5034e-06	2.9004e-07	1242.2	241.16	3.427e-06	2.4094e-06	300.27	82.811	65.151	18.802	2.6611e-06	26.204	0.00036248	0.00037693	0.00010417	1133.5	4.1971e-06	4.1892e-06	1225.9	239.66	4.1625e-06	4.2319e-06	300.18	83.166	65.696	19.15	4.2654e-06	26.594	262.129	303.786	267.576	164.449	327.999	255.299	164.371	171.964	286.948	339.391	171.709	178.361	178.860	185.532	325.639	185.525	-8191	255	
771.315	1	1	0	0	0.078443	0.28189	0.18452	0.36518	0.31814	0.25132	0.16372	0.19336	0.10313	0.16205	0.15014	0.12771	0.12081	0.17433	0.097925	0.062588	-1.8708	-2.7521	-2.6333	-2.4979	-2.7687	-2.4708	-2.5229	-2.75	-2.3563	-2.55	-2.7396	-2.4167	-2.8333	-2.4875	-2.3625	-2.8792	335.825	327.906	420.168	473.822	297.208	389.720	487.067	407.805	345.257	374.493	434.484	455.815	442.233	359.246	163.448	504.504	0.00025332	0.00047598	1.8619e-05	1147.6	4.2687e-06	2.2068e-06	1248.2	240.48	2.2577e-06	1.1154e-06	301.35	82.854	65.553	18.973	2.8649e-06	25.826	0.00037595	0.00038273	0.00010989	1132.8	4.2925e-06	4.2437e-06	1227.8	239.88	4.0533e-06	3.9172e-06	299.95	83.072	65.894	19.184	3.7948e-06	26.492	256.958	265.783	289.263	164.400	319.811	252.045	164.625	172.124	359.355	351.242	171.627	178.138	178.729	185.999	367.352	185.475	-8191	255	
771.387	1	1	0	0	0.21606	0.13626	0.11475	0.21112	0.22823	0.12322	0.19738	0.15071	0.2541	0.12266	0.30377	0.067253	0.24228	0.19929	0.046254	0.26922	-2.1688	-2.575	-2.5521	-2.375	-2.8	-2.7938	-2.4604	-2.8083	-2.3896	-2.5312	-2.7313	-2.2354	-2.7229	-2.5979	-2.2479	-2.6979	177.050	329.417	187.597	409.525	464.694	461.927	403.815	161.150	246.184	255.707	168.422	219.590	404.801	164.237	475.364	203.602	0.00028533	0.00041227	6.9756e-05	1143.9	2.1424e-06	1.8513e-06	1242.8	240.38	2.7849e-06	3.7144e-06	301.54	82.657	65.355	18.809	4.3625e-06	26.03	0.00034394	0.00034858	9.8136e-05	1132.2	3.9409e-06	3.9292e-06	1227.4	239.92	3.9538e-06	4.1e-06	300.52	83.11	65.721	19.189	4.1818e-06	26.56	255.598	246.964	276.522	164.425	366.230	262.463	164.358	172.067	323.564	345.683	171.701	178.427	178.583	185.609	348.180	185.398	-8191	255	
771.508	1	1	0	0	0.18439	0.057069	0.26235	0.24562	0.012307	0.29574	0.22915	0.25744	0.092654	0.087383	0.068584	0.30522	0.15809	0.15364	0.20528	0.37912	-1.8687	-2.4875	-2.6333	-2.4854	-2.7146	-2.6333	-2.4771	-2.9188	-2.4938	-2.35	-2.7854	-2.4542	-2.575	-2.6458	-2.2896	-2.8854	156.152	371.386	362.852	169.458	275.993	161.004	401.667	490.821	293.859	407.561	178.531	172.394	456.789	246.272	388.855	228.717	0.00027872	0.00050176	9.5282e-05	1150.2	4.424e-06	5.7018e-06	1241.3	241.37	1.9552e-06	4.5268e-06	300.14	83.045	65.5	18.879	4.0276e-06	26.102	0.00037554	0.00039924	0.0001077	1135.1	4.4088e-06	4.3548e-06	1227.8	239.96	4.2997e-06	4.2677e-06	300.55	83.341	65.837	19.27	4.1005e-06	26.527	258.440	246.852	272.426	164.646	264.964	278.776	164.491	171.746	243.725	347.264	171.511	178.174	178.842	186.195	357.744	185.179	-8191	255	
771.604	1	1	0	0	0.18399	0.16491	0.084048	0.10229	0.20937	0.15163	0.44151	0.27064	0.20939	0.12639	0.027831	0.2382	0.27209	0.19874	0.1154	0.14281	-1.9833	-2.1896	-2.8292	-2.4292	-2.6229	-2.5167	-2.3271	-2.7562	-2.5125	-2.275	-2.8333	-2.2562	-2.5375	-2.85	-2.3312	-2.7646	306.535	488.339	383.844	468.842	207.198	245.274	445.790	258.658	229.584	313.970	310.828	159.180	451.672	378.154	202.184	184.064	0.00025778	0.000357	6.8943e-05	1147.9	3.9134e-06	4.0534e-06	1248.3	241.31	5.8316e-07	1.9639e-06	300.32	82.616	65.121	18.751	2.3538e-06	25.931	0.00036621	0.00037656	0.00010191	1135.8	4.1722e-06	4.0535e-06	1230.4	240.07	4.0874e-06	4.0849e-06	300.56	83.145	65.767	19.171	4.0476e-06	26.584	256.276	244.590	229.189	164.380	339.913	320.806	164.431	171.882	195.671	284.879	171.614	178.358	178.949	185.581	334.173	185.297	-8191	255	
771.700	1	1	0	0	0.11793	0.36759	0.1833	0.11995	0.1118	0.17245	0.19729	0.35027	0.1429	0.098314	0.060147	0.10427	0.39508	0.48421	0.16211	0.17593	-2.1417	-2.3021	-2.8688	-2.4271	-2.4729	-2.7917	-2.4313	-2.6771	-2.5292	-2.2438	-2.7604	-2.4125	-2.3521	-2.6354	-2.2854	-2.5542	172.794	428.052	479.932	417.423	440.577	389.356	454.598	460.222	503.268	177.105	484.023	299.842	170.995	466.916	387.338	312.934	0.00028999	0.00039537	7.9372e-05	1146.2	1.5644e-06	2.5629e-06	1245.1	241.32	3.1546e-06	2.4101e-06	302.42	82.672	65.494	18.783	1.3071e-06	26.183	0.00035949	0.00037846	0.00010417	1134	4.2134e-06	4.0497e-06	1230.8	240.1	4.1155e-06	4.183e-06	300.69	83.181	65.776	19.176	4.1308e-06	26.57	254.762	269.030	219.885	164.385	293.948	291.219	164.451	171.929	300.865	312.134	171.665	177.895	178.791	185.751	343.847	185.391	-8191	255	
771.796	1	1	0	0	0.1459	0.02407	0.13492	0.34759	0.12714	0.086855	0.32478	0.17827	0.1927	0.090569	0.18359	0.064032	0.12307	0.099538	0.11892	0.095423	-2.1604	-2.3333	-2.7042	-2.5958	-2.3125	-2.8875	-2.5625	-2.5563	-2.7896	-2.3875	-2.7021	-2.6125	-2.375	-2.7333	-2.3833	-2.525	335.324	244.631	511.124	482.712	460.718	205.953	397.427	167.423	300.483	439.553	349.045	487.393	374.909	421.530	245.398	384.705	0.00025598	0.00032561	4.8512e-05	1148.2	2.9716e-06	2.0283e-06	1245.5	241.58	2.6949e-06	2.5482e-06	300.88	83.084	65.15	18.844	2.8637e-06	26.292	0.00037465	0.00039533	0.00010831	1134.6	4.2267e-06	4.151e-06	1229.6	240.36	4.1199e-06	4.2913e-06	300.92	83.208	65.786	19.237	4.2106e-06	26.65	257.869	249.134	229.089	164.309	271.643	372.860	164.361	171.819	289.151	370.549	171.446	178.400	178.802	185.371	346.854	185.359	-8191	255	
771.892	1	1	0	0	0.1188	0.047932	0.27377	0.19659	0.2828	0.12241	0.21997	0.1943	0.08159	0.26525	0.23097	0.32589	0.17671	0.11051	0.25171	0.048257	-2.2292	-2.1667	-2.625	-2.7188	-2.2708	-2.8375	-2.6958	-2.6521	-2.8063	-2.2854	-2.9083	-2.6042	-2.3063	-2.8292	-2.6125	-2.5687	371.721	315.211	423.622	472.408	494.621	227.966	432.905	488.774	388.704	289.828	370.371	506.589	449.488	359.799	467.102	426.781	0.00026881	2.7769e-05	8.4136e-05	1150.6	3.1869e-06	5.9629e-06	1243.8	241.69	3.7991e-06	3.8461e-06	300.99	83.065	65.065	18.756	3.1182e-06	25.955	0.00036607	0.00039016	0.00010652	1136.8	4.1432e-06	4.0517e-06	1227.1	240.01	4.1713e-06	4.176e-06	300.87	83.036	65.738	19.208	4.0565e-06	26.509	258.206	227.151	200.177	164.616	335.720	313.317	164.534	171.656	308.343	290.424	171.912	178.342	178.905	185.785	305.474	185.479	-8191	255	
771.988	1	1	0	0	0.16606	0.029891	0.15858	0.24247	0.12592	0.03604	0.20764	0.33049	0.19348	0.10504	0.09754	0.34362	0.1624	0.030067	0.18838	0.13271	-2.2708	-2.4958	-2.6312	-2.7125	-2.3667	-2.7333	-2.5354	-2.5542	-2.5625	-2.5292	-2.6083	-2.6042	-2.2792	-2.8708	-2.5833	-2.6583	436.735	455.420	314.533	463.365	320.763	166.926	431.428	453.193	357.572	380.974	446.078	400.566	305.934	176.121	439.146	199.894	0.00025554	0.00025054	7.779e-05	1153.4	3.189e-06	1.4374e-06	1242.1	240.62	5.0542e-06	2.0849e-06	300.7	83.168	65.61	18.812	3.6482e-06	26.148	0.00036319	0.00037517	0.00010697	1135	4.3164e-06	4.1076e-06	1229.8	239.63	4.1478e-06	4.2179e-06	300.83	83.245	65.792	19.209	4.116e-06	26.597	253.155	257.811	177.957	164.464	277.241	289.879	164.366	172.004	294.868	314.116	171.569	178.395	178.472	185.437	307.497	184.775	-8191	255	
772.083	1	1	0	0	0.092734	0.067446	0.058991	0.25045	0.1132	0.27557	0.04902	0.2414	0.12631	0.15239	0.091414	0.23837	0.047532	0.21356	0.069219	0.1942	-2.2604	-2.3604	-2.6417	-2.8042	-2.1917	-2.7812	-2.5896	-2.7167	-2.9542	-2.4896	-2.6875	-2.5042	-2.4021	-2.7646	-2.7146	-2.3875	375.657	169.561	508.490	413.618	162.932	385.333	447.382	189.971	179.776	416.260	189.551	472.312	451.295	484.544	186.804	286.212	0.00024385	0.00021734	0.00011036	1149.7	3.2555e-06	2.6089e-06	1242	241.63	4.0794e-06	2.6596e-06	300.32	82.498	65.319	18.933	2.5752e-06	26.03	0.00035768	0.00037711	0.00010376	1135.8	4.1865e-06	4.1665e-06	1227.3	240.52	4.1214e-06	4.1623e-06	301.05	83.135	65.715	19.248	4.0215e-06	26.527	259.163	277.574	265.916	164.390	364.934	241.763	164.389	171.966	338.802	279.040	171.811	178.401	178.934	185.667	321.013	185.222	-8191	255	
772.181	1	1	0	0	0.12343	0.27063	0.13918	0.38695	0.036164	0.11626	0.19671	0.20589	0.16322	0.083785	0.23583	0.34148	0.090821	0.1274	0.25833	0.17505	-2.45	-2.3292	-2.5604	-2.7313	-2.475	-2.5563	-2.6542	-2.3937	-2.6792	-2.5875	-2.5917	-2.4854	-2.4	-2.6958	-2.575	-2.2938	264.057	511.028	228.118	462.119	347.498	340.703	434.503	444.116	508.384	353.776	506.316	442.422	457.866	397.602	196.520	221.334	0.00027222	0.00033519	6.6804e-05	1147.9	1.8259e-06	3.3265e-06	1248.4	241.47	4.8436e-06	2.3652e-06	301.82	82.803	65.382	18.853	2.6118e-06	26.044	0.00035713	0.00037904	0.00010403	1135.6	4.197e-06	4.1905e-06	1229.7	240.49	4.1969e-06	4.1791e-06	300.98	83.076	65.883	19.204	4.1178e-06	26.582	252.283	262.676	261.496	164.642	300.562	272.722	164.298	171.884	332.654	260.143	171.663	178.335	179.343	185.632	294.289	185.222	-8191	255	
772.300	1	1	0	0	0.14091	0.14995	0.15226	0.21105	0.12038	0.093243	0.077483	0.29874	0.25198	0.11016	0.22878	0.073813	0.13016	0.19391	0.35422	0.17907	-2.2229	-2.4562	-2.5187	-2.8604	-2.4021	-2.6833	-2.7375	-2.4604	-2.7625	-2.6625	-2.7062	-2.9938	-2.4188	-2.5646	-2.7125	-2.3688	263.008	201.625	498.769	376.786	393.828	322.413	211.815	437.432	296.689	399.007	235.928	455.254	393.009	484.095	232.101	219.905	0.00026868	0.00032579	3.6897e-05	1147.2	2.2626e-06	2.8023e-06	1246.9	240.85	3.9927e-06	1.1263e-06	301.55	82.599	65.63	18.985	3.7297e-06	25.978	0.00037139	0.00038184	0.00010749	1135	4.3091e-06	4.2218e-06	1228.3	240.21	4.1308e-06	4.2168e-06	301.11	83.072	66.008	19.304	4.1416e-06	26.651	251.968	244.401	296.907	164.428	325.439	303.007	164.475	172.067	280.703	311.391	171.580	178.320	179.033	185.856	311.086	185.329	-8191	255	
772.396	1	1	0	0	0.16034	0.37369	0.33948	0.28106	0.14153	0.1295	0.24523	0.027697	0.083486	0.15373	0.2897	0.17131	0.07902	0.03683	0.1794	0.0079035	-2.2146	-2.5812	-2.3646	-2.8667	-2.3896	-2.7917	-2.9	-2.2729	-2.5729	-2.7396	-2.4604	-2.7146	-2.6333	-2.6583	-2.7479	-2.3271	269.011	410.391	428.484	437.883	431.995	187.730	386.039	369.532	482.732	167.391	373.728	393.637	194.711	439.399	367.113	304.283	0.00028945	0.00029342	3.4853e-05	1153.5	3.4371e-06	3.5525e-06	1244.9	242.87	2.3563e-06	2.0112e-06	302.05	82.741	65.373	18.85	2.34e-06	26.141	0.0003717	0.00038461	0.00010812	1137.6	4.2589e-06	4.2875e-06	1229.5	240.49	4.171e-06	4.2441e-06	301.53	83.08	65.849	19.202	4.2185e-06	26.678	264.135	296.157	247.700	164.245	303.918	290.254	164.235	171.875	280.380	233.320	171.774	178.555	178.434	185.779	283.212	184.971	-8191	255	
772.492	1	1	0	0	0.17761	0.094275	0.1941	0.15569	0.26024	0.314	0.14327	0.19919	0.1217	0.22503	0.066923	0.2057	0.28009	0.23643	0.01826	0.21905	-2.1854	-2.6375	-2.25	-2.8979	-2.5187	-2.5875	-2.9104	-2.5021	-2.6667	-2.675	-2.4437	-2.6604	-2.475	-2.5521	-2.5979	-2.3438	226.140	354.386	343.572	201.843	196.677	267.784	448.404	399.880	322.108	412.716	435.994	316.076	275.031	197.301	333.701	494.733	0.00029575	0.00032163	4.121e-05	1149.8	4.2872e-06	2.5112e-06	1248.4	240.98	4.5703e-06	4.465e-06	301.04	82.754	65.239	18.751	1.9195e-06	26.21	0.00037352	0.00039082	0.00010986	1136.1	4.3184e-06	4.2775e-06	1230.3	240.28	4.2233e-06	4.2615e-06	301.17	83.194	65.809	19.209	4.2915e-06	26.679	256.364	291.581	301.507	164.504	288.072	334.216	164.229	171.838	305.368	305.223	171.691	178.256	179.122	185.431	480.674	185.315	-8191	255	
772.588	1	1	0	0	0.066285	0.1952	0.11878	0.29731	0.099855	0.028009	0.11014	0.17489	0.19415	0.13222	0.25311	0.20347	0.083554	0.13469	0.14102	0.19414	-2.3167	-2.5917	-2.4396	-2.8167	-2.4688	-2.4167	-2.8604	-2.3792	-2.6667	-2.6667	-2.4104	-2.7958	-2.4875	-2.4583	-2.7792	-2.4021	438.462	346.701	419.518	177.308	154.134	196.712	342.087	372.313	427.414	243.512	449.819	335.980	214.161	314.846	482.504	505.290	0.00027609	0.00042331	9.9503e-05	1154.7	3.1884e-06	2.3593e-06	1245.4	242.1	4.3524e-06	3.6761e-06	301.69	82.858	65.399	18.888	2.3516e-06	26.048	0.00038034	0.00038817	0.00011069	1136.9	4.322e-06	4.3503e-06	1230.4	240.3	4.3534e-06	4.3097e-06	301.45	83.385	65.825	19.261	4.1008e-06	26.611	251.895	284.350	207.449	164.469	274.615	243.101	164.660	171.921	293.225	294.328	171.702	178.435	178.615	186.107	367.445	185.129	-8191	255	
772.684	1	1	0	0	0.19046	0.11296	0.1747	0.26935	0.19404	0.23028	0.23132	0.29475	0.13503	0.040914	0.29493	0.092717	0.21266	0.035962	0.23126	0.051045	-2.2188	-2.7479	-2.1437	-2.6646	-2.6792	-2.425	-2.9625	-2.5646	-2.5708	-2.7562	-2.5	-2.65	-2.7	-2.4021	-2.7542	-2.6208	468.215	243.776	486.828	484.357	247.468	298.261	460.214	492.270	351.589	357.584	487.851	509.679	453.825	353.888	398.920	351.624	0.00026078	0.00030865	9.501e-05	1152.6	5.0567e-06	4.2225e-06	1246.8	240.98	2.8171e-06	2.1519e-06	301.76	82.478	65.328	18.894	2.5666e-06	26.126	0.00037549	0.00037629	0.00010979	1135.8	4.2904e-06	4.2704e-06	1229.7	240.22	4.2414e-06	4.0962e-06	301.68	83.083	65.869	19.238	4.0334e-06	26.576	260.325	276.665	226.656	164.687	327.529	333.689	164.217	172.280	312.149	232.646	171.711	178.294	178.668	185.628	296.399	185.152	-8191	255	
772.780	1	1	0	0	0.11511	0.14525	0.04382	0.36072	0.11689	0.20403	0.26462	0.10562	0.28234	0.039933	0.053713	0.005856	0.20853	0.31086	0.21905	0.29332	-2.1479	-2.65	-2.3375	-2.8646	-2.7458	-2.5208	-2.9125	-2.5375	-2.4938	-2.65	-2.3375	-2.7875	-2.8021	-2.5667	-2.8417	-2.6583	271.004	371.890	510.737	480.867	263.876	302.144	487.859	474.787	216.006	168.551	202.405	392.057	418.763	476.573	254.647	418.405	0.00024607	0.00016689	1.9577e-05	1149	3.4102e-06	3.4797e-06	1246.1	240.65	2.3072e-06	4.6267e-06	302.17	82.958	65.738	18.981	2.7514e-06	26.064	0.00036895	0.00037662	0.00010693	1135.5	4.2606e-06	4.1423e-06	1229.2	239.96	4.208e-06	4.1666e-06	301.6	83.481	66.066	19.285	4.1343e-06	26.651	250.242	272.163	167.206	164.290	359.199	284.163	164.542	172.064	321.430	349.052	171.652	178.802	178.784	185.742	286.631	184.978	-8191	255	
772.901	1	1	0	0	0.30664	0.040227	0.072045	0.21305	0.13971	0.23257	0.17822	0.13381	0.25311	0.22631	0.10074	0.22072	0.038802	0.04667	0.25987	0.15442	-2.075	-2.8312	-2.4083	-2.7771	-2.6458	-2.4229	-2.9125	-2.5854	-2.4917	-2.7354	-2.3646	-2.6229	-2.8187	-2.2313	-2.5792	-2.5	189.804	347.307	513.058	155.924	418.765	442.441	414.812	443.693	253.617	414.935	243.396	482.725	353.133	239.743	302.340	425.840	0.00027078	0.0004882	8.7612e-05	1148	5.9707e-06	9.0202e-07	1249	241.03	3.787e-06	3.4504e-06	302.97	83.15	65.367	18.964	2.8833e-06	26.132	0.00037002	0.00038359	0.0001099	1135.8	4.2071e-06	4.2914e-06	1231.4	240.28	4.2315e-06	4.1496e-06	301.89	83.494	65.854	19.242	4.1629e-06	26.636	260.213	219.406	222.158	164.525	297.510	265.958	164.666	171.997	309.097	330.059	171.389	178.655	179.022	185.466	337.438	184.738	-8191	255	
772.995	1	1	0	0	0.19751	0.19489	0.21289	0.1506	0.40518	0.379	0.19541	0.088801	0.17774	0.21442	0.22249	0.2433	0.22688	0.16112	0.13503	0.18663	-1.8854	-2.6042	-2.3792	-2.6104	-2.6437	-2.5333	-2.7417	-2.5417	-2.3042	-2.6562	-2.5042	-2.5604	-2.7333	-2.4125	-2.7208	-2.7271	187.667	324.513	315.727	467.945	491.185	195.712	367.324	457.546	212.608	348.183	251.355	374.687	389.888	179.914	165.961	169.966	0.00028671	0.00025906	7.2699e-05	1149.4	5.3974e-06	3.2922e-06	1249.9	240.75	2.3173e-06	2.2334e-06	303.08	82.851	65.265	18.946	2.2142e-06	25.948	0.00037322	0.00038338	0.00010584	1135.7	4.1676e-06	4.2308e-06	1231.1	240.23	4.1697e-06	4.0739e-06	301.82	83.415	65.827	19.262	4.1147e-06	26.578	262.766	255.095	249.537	164.452	301.521	312.910	164.418	171.574	333.888	315.838	171.411	178.412	178.854	185.456	359.015	185.433	-8191	255	
773.092	1	1	0	0	0.28436	0.042683	0.29517	0.32342	0.41317	0.1744	0.25771	0.073716	0.035793	0.21463	0.1409	0.16171	0.22713	0.054699	0.054715	0.034877	-1.9979	-2.5771	-2.4104	-2.5229	-2.6125	-2.3542	-2.775	-2.7708	-2.3708	-2.7292	-2.7521	-2.4896	-2.8333	-2.0854	-2.5687	-2.7896	381.390	175.053	449.420	486.072	430.274	342.335	380.447	455.658	330.519	319.122	365.573	402.547	500.289	286.712	390.723	286.775	0.00026659	0.00065155	0.00012079	1148.6	2.307e-06	4.2189e-06	1244.5	240.48	4.1838e-06	3.9901e-06	302.81	82.24	65.293	18.827	4.4323e-06	25.833	0.00036793	0.00036926	0.00010421	1135.9	4.1993e-06	4.0781e-06	1229.7	239.69	4.0652e-06	4.0542e-06	301.68	83.086	65.802	19.251	4.0887e-06	26.556	259.842	241.031	217.529	164.299	359.468	326.991	164.339	171.847	346.054	257.212	171.729	178.355	178.783	186.101	321.212	185.108	-8191	255	
773.188	1	1	0	0	0.24167	0.1013	0.11531	0.20465	0.088955	0.16837	0.22866	0.097808	0.23604	0.087751	0.13656	0.10197	0.0076795	0.26411	0.1305	0.14693	-1.7625	-2.6458	-2.4813	-2.3958	-2.8479	-2.3438	-2.6188	-2.7562	-2.2958	-2.5208	-2.4479	-2.2021	-2.7896	-2.2875	-2.5146	-2.5875	346.835	417.443	341.990	445.178	414.813	376.624	484.679	304.141	174.463	377.441	438.659	309.963	470.552	391.955	512.900	165.308	0.00028047	0.00021933	6.8976e-05	1153	1.7552e-06	4.6782e-06	1245.6	240.27	1.4997e-06	3.7355e-06	301.57	82.326	65.795	18.772	3.8711e-06	26.188	0.00036229	0.00037966	0.00010635	1135.5	4.0815e-06	4.1094e-06	1229.2	240.16	4.1631e-06	4.1467e-06	301.66	83.141	65.98	19.168	4.0733e-06	26.626	258.328	223.744	209.870	164.472	283.593	327.344	164.576	171.785	278.781	336.196	171.336	178.344	178.753	185.695	355.971	185.347	-8191	255	
773.284	1	1	0	0	0.17031	0.28033	0.40151	0.34049	0.24835	0.14478	0.023591	0.19198	0.26127	0.19509	0.12846	0.29549	0.068343	0.082197	0.27958	0.096838	-1.6479	-2.6833	-2.4396	-2.3875	-2.7125	-2.4354	-2.6	-2.8208	-2.3458	-2.5875	-2.5542	-2.4813	-2.8271	-2.5438	-2.4625	-2.7313	414.848	303.934	299.795	470.203	158.805	286.531	219.235	481.333	462.289	250.951	488.639	480.323	166.971	496.055	319.120	222.036	0.00027693	0.00024326	5.143e-05	1147.8	4.267e-06	5.1547e-07	1246.6	242.12	3.2952e-06	2.3979e-06	301.23	82.719	65.328	18.807	1.7314e-06	26.07	0.000369	0.00037083	0.00010184	1135.2	4.1227e-06	4.0602e-06	1229.5	240.46	4.0627e-06	4.0353e-06	301.19	83.163	65.736	19.216	4.0097e-06	26.636	258.307	253.173	217.693	164.380	289.451	293.591	164.523	171.666	300.302	225.642	171.623	178.497	178.598	185.781	328.277	185.408	-8191	255	
773.380	1	1	0	0	0.060211	0.064399	0.18037	0.17865	0.12499	0.22191	0.088028	0.18073	0.2686	0.24203	0.21019	0.031076	0.19763	0.25634	0.092368	0.10859	-1.8229	-2.5333	-2.4208	-2.5938	-2.7438	-2.625	-2.6	-2.8521	-2.2542	-2.6	-2.7104	-2.1937	-2.7667	-2.5083	-2.3417	-2.8208	401.923	171.777	404.724	290.198	360.383	470.706	509.697	427.745	364.751	390.396	165.521	316.073	300.824	450.834	360.801	311.074	0.00025482	0.00019508	6.4515e-05	1151.7	2.3134e-06	5.2492e-07	1241.5	242.26	4.9706e-06	2.6816e-06	302.59	82.964	64.971	18.679	1.993e-06	25.978	0.00035985	0.00036755	0.00010206	1135.1	4.1366e-06	4.0365e-06	1227.5	239.81	4.0844e-06	4.1261e-06	301.24	83.311	65.752	19.151	4.0008e-06	26.491	256.550	242.982	274.838	164.342	290.626	358.593	164.578	172.142	317.518	296.375	171.417	178.230	178.779	185.520	267.839	185.377	-8191	255	
773.476	1	1	0	0	0.23251	0.10061	0.25145	0.31583	0.038184	0.058335	0.05688	0.07683	0.21191	0.33069	0.14534	0.43385	0.089848	0.12672	0.057642	0.12547	-1.8771	-2.6042	-2.6063	-2.3458	-2.7292	-2.6813	-2.3646	-2.6979	-2.4729	-2.4958	-2.7396	-2.3917	-2.6479	-2.6292	-2.1	-2.8771	503.309	459.824	437.313	495.965	170.197	283.322	437.310	196.284	348.965	288.692	512.178	426.628	164.621	178.836	244.757	164.615	0.00028123	0.00034218	5.7822e-05	1150.7	3.9718e-06	2.912e-06	1241.1	240.98	3.7126e-06	2.5251e-06	302.93	82.587	65.659	18.873	4.4377e-06	26.13	0.00036154	0.00036712	0.00010255	1135.3	4.032e-06	3.9118e-06	1227.9	240	4.0184e-06	3.9856e-06	301.31	83.186	66.021	19.194	3.883e-06	26.629	251.785	202.366	280.379	164.378	315.233	364.677	164.472	172.192	303.104	329.836	171.764	178.269	178.539	185.668	317.352	185.326	-8191	255	
773.597	1	1	0	0	0.16074	0.33612	0.094047	0.038601	0.079514	0.099465	0.12326	0.23651	0.049113	0.11342	0.23966	0.15023	0.085357	0.18158	0.15462	0.08822	-1.9271	-2.3438	-2.7292	-2.4271	-2.5729	-2.4771	-2.475	-2.8333	-2.3521	-2.5	-2.9604	-2.4062	-2.6542	-2.5458	-2.35	-2.825	192.757	162.546	462.191	192.551	300.640	239.154	309.290	491.556	477.881	186.207	225.173	372.785	467.706	408.957	265.646	277.028	0.00030742	0.00021426	8.3364e-05	1147	2.2745e-06	2.2309e-06	1249.6	241.72	3.1111e-06	3.2422e-06	300.91	83.096	65.425	18.782	2.5177e-06	26.09	0.00034789	0.00035516	9.9598e-05	1134.5	3.8924e-06	3.9758e-06	1231.5	240.27	3.8996e-06	3.8676e-06	300.79	83.315	65.971	19.189	3.8992e-06	26.64	260.201	267.506	225.185	164.418	318.242	266.776	164.600	172.075	311.603	325.232	171.828	178.206	178.708	185.631	369.198	185.215	-8191	255	
773.693	1	1	0	0	0.28852	0.16547	0.10497	0.11931	0.25585	0.41841	0.082314	0.34643	0.23425	0.21645	0.14366	0.12768	0.061496	0.21965	0.08072	0.27253	-2.1646	-2.2542	-2.8625	-2.6458	-2.4813	-2.5854	-2.4417	-2.6437	-2.5125	-2.4583	-2.7479	-2.275	-2.4229	-2.7313	-2.2938	-2.6375	260.638	223.453	276.019	433.926	385.186	458.177	156.599	466.411	415.639	442.320	341.837	432.773	484.967	499.584	491.166	299.666	0.00026736	0.00040575	8.7402e-05	1145.8	4.4591e-06	4.1121e-06	1247.9	241.68	2.3101e-06	2.4495e-06	301.69	82.75	65.256	18.741	9.3473e-07	26.089	0.00034943	0.0003614	0.00010098	1133.2	4.0215e-06	3.9068e-06	1230.2	239.97	3.9247e-06	3.8324e-06	301.31	83.213	65.797	19.14	3.9143e-06	26.651	262.098	286.824	279.262	164.368	336.142	312.718	164.423	172.197	354.647	314.944	172.124	178.031	178.916	186.007	402.581	185.076	-8191	255	
773.789	1	1	0	0	0.20302	0.061827	0.032918	0.1365	0.237	0.23099	0.20582	0.10072	0.32275	0.14195	0.14463	0.175	0.21044	0.082758	0.20117	0.08539	-2.0542	-2.2604	-2.7479	-2.4708	-2.4313	-2.7417	-2.4375	-2.7188	-2.5583	-2.2875	-2.8688	-2.5458	-2.4458	-2.4396	-2.1	-2.6229	291.814	353.878	366.184	491.491	381.298	300.071	502.391	163.041	281.248	295.236	410.618	183.789	477.656	163.719	371.336	427.355	0.00026234	0.00042894	0.00010244	1146	3.5867e-06	2.3121e-06	1243.6	240.88	3.4496e-06	4.3536e-06	301.49	83.068	65.626	18.809	2.7394e-06	26.036	0.00034873	0.0003565	0.00010141	1133.4	4.0659e-06	3.9553e-06	1228	240.09	3.9134e-06	3.9306e-06	300.22	83.301	65.869	19.228	3.9037e-06	26.601	266.934	272.828	283.237	164.567	299.861	316.742	164.317	171.839	332.407	302.624	171.532	178.485	179.093	186.010	358.790	184.769	-8191	255	
773.861	1	1	0	0	0.21735	0.31282	0.28304	0.14775	0.093682	0.20573	0.28189	0.121	0.17003	0.034669	0.17164	0.15665	0.062065	0.37295	0.14889	0.20784	-2.2479	-2.3063	-2.8396	-2.4042	-2.2625	-2.7375	-2.3458	-2.6417	-2.6167	-2.2021	-2.8937	-2.6354	-2.3333	-2.7458	-2.5396	-2.6104	170.457	315.223	505.287	452.891	240.472	447.083	463.014	487.862	489.698	205.762	473.268	225.189	355.806	404.909	369.520	465.728	0.00028016	0.00011339	7.4279e-05	1146.6	2.7896e-06	3.3929e-06	1251.7	241.33	2.3496e-06	5.0186e-06	299.88	82.882	65.423	18.806	3.9688e-06	26.071	0.00034763	0.00035391	9.9913e-05	1133.8	4.0028e-06	3.9096e-06	1229.6	240.05	4.0944e-06	4.0238e-06	300.35	83.26	65.759	19.181	3.8491e-06	26.627	262.729	368.542	289.298	164.352	321.657	350.669	164.520	172.101	339.751	296.861	171.588	178.603	178.894	185.912	324.809	185.295	-8191	255	
773.981	1	1	0	0	0.10654	0.076224	0.013871	0.14443	0.047791	0.21418	0.3817	0.15625	0.079312	0.071133	0.34995	0.18226	0.18368	0.14112	0.15469	0.039109	-2.1813	-2.2687	-2.7271	-2.8417	-2.5187	-2.7833	-2.5854	-2.7375	-2.5938	-2.4167	-2.6188	-2.7042	-2.5208	-2.7542	-2.4437	-2.5792	355.707	396.208	275.302	435.009	165.984	296.985	485.711	200.616	196.422	267.787	410.986	231.988	387.726	449.522	499.392	445.859	0.00024896	0.00067892	7.8281e-05	1150.8	4.5068e-06	3.0054e-06	1241.7	241.18	2.9505e-06	2.2788e-06	301.63	82.454	65.268	18.76	9.6173e-07	26.038	0.00034561	0.00036333	9.8568e-05	1134.5	3.9685e-06	3.8604e-06	1227.3	240.17	3.8448e-06	3.8845e-06	301.25	83.051	65.776	19.161	3.8585e-06	26.644	248.152	216.733	254.675	164.347	300.527	256.627	164.613	171.840	371.947	339.873	171.742	178.424	178.923	185.596	335.965	185.274	-8191	255	
774.076	1	1	0	0	0.24265	0.31227	0.051338	0.18405	0.15837	0.27152	0.16982	0.11476	0.25928	0.12236	0.086785	0.023766	0.075061	0.161	0.27583	0.2551	-2.3021	-2.3042	-2.6021	-2.8854	-2.4375	-2.8479	-2.8229	-2.5792	-2.7812	-2.3458	-2.5458	-2.6208	-2.2646	-2.7396	-2.4208	-2.3667	476.091	504.536	501.117	172.956	255.509	411.988	439.525	414.438	173.613	221.315	318.997	210.368	200.176	196.929	501.118	395.510	0.0002519	0.00025509	0.00014423	1149.7	2.3351e-06	2.2394e-06	1244.7	241.1	4.6881e-06	4.7691e-06	301.11	82.537	64.87	18.806	3.3719e-06	26.108	0.00034115	0.00034471	9.7235e-05	1134.9	3.9313e-06	3.7839e-06	1226.8	239.96	3.8764e-06	3.9175e-06	301.16	83.079	65.655	19.196	3.8951e-06	26.57	257.293	195.554	274.590	164.301	354.882	300.392	164.379	171.918	319.483	337.062	171.388	177.885	178.536	185.754	307.855	185.406	-8191	255	
774.172	1	1	0	0	0.34736	0.28832	0.21622	0.45396	0.19561	0.11148	0.2015	0.092121	0.2304	0.050813	0.20648	0.25122	0.020787	0.13574	0.083133	0.27875	-2.2125	-2.4271	-2.5417	-2.8542	-2.3396	-2.6354	-2.7562	-2.5958	-2.6979	-2.4021	-2.6021	-2.6542	-2.1937	-2.5833	-2.5833	-2.2521	263.812	360.720	157.896	459.506	399.023	171.404	463.725	454.292	499.827	308.041	473.443	389.663	194.237	381.466	339.164	456.166	0.00027187	0.00013885	2.6546e-05	1145.9	2.9726e-06	8.2452e-07	1242.8	241.19	2.9197e-06	4.0899e-06	301.12	82.48	65.605	18.791	2.7408e-06	26.183	0.00034207	0.0003645	0.00010055	1134.2	3.9818e-06	3.8975e-06	1227.3	239.86	4.0269e-06	3.9248e-06	301.13	83.179	65.772	19.195	4.2084e-06	26.606	262.972	275.128	296.636	164.375	354.988	308.505	164.516	172.242	342.288	312.705	171.640	178.076	179.058	185.779	334.835	185.534	-8191	255	
774.268	1	1	0	0	0.033808	0.12582	0.13879	0.53168	0.16291	0.13056	0.17763	0.33614	0.051266	0.24174	0.14652	0.11509	0.19408	0.38149	0.11912	0.1917	-2.2083	-2.35	-2.4688	-2.85	-2.4167	-2.4292	-2.7854	-2.3792	-2.6479	-2.5812	-2.5729	-2.6667	-2.3729	-2.4792	-2.5667	-2.4125	286.153	309.677	258.316	498.068	368.010	477.870	428.954	481.988	284.777	190.791	458.842	457.800	180.967	253.346	455.965	472.440	0.00024664	0.00038057	0.00012674	1143.7	6.3668e-06	1.244e-06	1243.4	241.15	2.897e-06	2.8356e-06	300.87	82.454	65.442	18.803	5.051e-06	25.953	0.00035267	0.00037727	0.00010512	1132.7	4.1222e-06	4.0939e-06	1228.3	239.79	4.053e-06	3.9371e-06	300.54	83.034	65.871	19.201	3.9881e-06	26.603	259.167	275.755	222.604	164.590	310.834	326.660	164.381	171.839	309.442	334.896	171.711	178.100	178.789	185.761	306.644	185.268	-8191	255	
774.389	1	1	0	0	0.16013	0.22178	0.10616	0.30219	0.24956	0.25138	0.23353	0.26281	0.09603	0.14597	0.22325	0.060686	0.16279	0.23479	0.36099	0.16124	-2.35	-2.425	-2.3438	-2.8292	-2.2062	-2.7854	-2.7292	-2.3646	-2.8292	-2.4646	-2.4625	-2.7833	-2.3125	-2.6146	-2.7188	-2.4229	171.399	333.194	360.319	464.846	233.364	231.076	458.032	462.436	165.849	354.469	389.848	364.895	225.597	186.476	235.630	461.600	0.00029175	0.00055187	0.00012321	1150.7	5.2821e-06	2.2786e-06	1245.8	241.43	3.2735e-06	1.5971e-06	302.9	82.553	65.453	18.854	1.0133e-06	25.937	0.00035543	0.00036738	0.00010342	1135.5	4.1414e-06	4.0116e-06	1228.8	240.46	4.0889e-06	4.0546e-06	301.15	83.238	65.82	19.213	4.0243e-06	26.562	255.058	251.225	216.739	164.557	305.984	325.366	164.421	172.130	319.831	254.054	171.918	178.510	178.725	185.948	374.072	185.128	-8191	255	
774.485	1	1	0	0	0.11589	0.1945	0.091005	0.39963	0.28578	0.069144	0.11316	0.27476	0.12698	0.23453	0.14237	0.063681	0.080689	0.11206	0.21375	0.075314	-1.9729	-2.4104	-2.1771	-2.9562	-2.1937	-2.6125	-2.8146	-2.4375	-2.6854	-2.7125	-2.4646	-2.8833	-2.5687	-2.7125	-2.5771	-2.3396	486.286	331.872	256.412	486.326	229.840	380.678	394.894	398.381	364.102	404.605	500.566	317.355	439.378	434.623	511.589	155.983	0.00030413	0.00051509	0.00013334	1151.1	3.725e-06	3.073e-06	1242.3	240.7	2.9543e-06	1.6287e-06	301.17	83.187	65.45	18.854	3.5835e-06	26.205	0.00035444	0.00037436	0.00010152	1136.4	4.1772e-06	4.047e-06	1229.4	240.26	4.0017e-06	3.9492e-06	300.48	83.22	65.841	19.218	3.9305e-06	26.737	256.828	204.769	268.660	164.386	356.526	308.823	164.290	171.927	328.652	270.009	171.530	178.350	178.705	185.510	306.850	185.098	-8191	255	
774.581	1	1	0	0	0.37679	0.061475	0.055422	0.24241	0.11875	0.12465	0.036912	0.048508	0.36003	0.26229	0.18896	0.27538	0.12988	0.32887	0.04594	0.11139	-2.1521	-2.7062	-2.1708	-2.8521	-2.5854	-2.4875	-3.0292	-2.4333	-2.5208	-2.6229	-2.3729	-2.7125	-2.4333	-2.475	-2.6188	-2.5458	487.757	160.908	192.356	455.140	404.785	461.660	361.498	314.222	209.553	187.057	427.866	431.845	481.766	450.107	256.703	484.665	0.00025011	0.00041913	9.571e-05	1149.8	4.073e-06	3.1144e-06	1242.8	240.51	2.9313e-06	2.1795e-06	301.13	82.659	65.686	18.993	1.6952e-06	25.944	0.00034991	0.0003575	0.00010028	1135.6	3.9908e-06	3.9506e-06	1229.7	240.2	3.9877e-06	4.0065e-06	301.61	83.362	66.016	19.304	4.0014e-06	26.609	254.335	295.096	250.206	164.627	316.741	319.203	164.598	172.093	300.848	273.860	172.006	178.041	179.040	185.935	312.575	184.742	-8191	255	
774.677	1	1	0	0	0.21698	0.217	0.17016	0.26432	0.022184	0.078281	0.20071	0.14384	0.059403	0.16245	0.35231	0.24587	0.098365	0.13299	0.14429	0.1658	-2.1833	-2.7417	-2.4521	-2.8354	-2.525	-2.3812	-2.8729	-2.3917	-2.5083	-2.6667	-2.3312	-2.6083	-2.5896	-2.3625	-2.7896	-2.4833	432.007	189.719	201.724	475.703	203.041	154.417	360.195	376.742	454.751	368.447	497.818	324.606	436.105	252.464	445.501	333.052	0.00026345	0.00052399	0.00013611	1147.4	3.3929e-06	5.8627e-06	1248.5	241.19	5.4148e-06	1.8309e-06	300.6	83.176	65.542	18.863	4.2226e-06	26.176	0.00035361	0.00036749	0.00010465	1136	4.1944e-06	4.0607e-06	1230.6	240.23	4.0857e-06	4.0153e-06	301.26	83.564	66.118	19.214	3.9616e-06	26.627	255.407	253.614	232.777	164.582	314.435	284.056	164.584	171.958	321.786	339.095	171.962	178.408	179.185	185.815	292.646	185.361	-8191	255	
774.773	1	1	0	0	0.024388	0.20124	0.11756	0.16962	0.15703	0.27743	0.39116	0.31218	0.11581	0.35393	0.095467	0.10851	0.17237	0.095031	0.24221	0.16337	-2.0125	-2.6333	-2.4938	-2.7771	-2.4875	-2.3396	-2.8417	-2.5354	-2.4917	-2.9562	-2.2438	-2.6125	-2.5812	-2.4104	-2.5604	-2.4708	448.943	304.898	344.841	448.203	328.686	184.493	415.400	399.619	367.934	280.165	427.941	452.049	331.047	212.811	276.262	367.684	0.00028119	0.00056565	4.0175e-05	1152.7	2.2683e-06	1.8279e-06	1247.5	240.38	3.9793e-06	3.1526e-06	302.12	83.087	65.141	18.874	4.7199e-06	26.159	0.00036002	0.00036814	0.00010548	1137.1	4.0847e-06	4.0057e-06	1230.3	240.05	3.9451e-06	3.8221e-06	301.18	83.463	65.858	19.19	3.8951e-06	26.628	261.494	280.659	308.434	164.251	293.472	308.526	164.488	171.866	309.305	301.856	171.369	177.964	178.798	186.150	304.376	185.167	-8191	255	
774.869	1	1	0	0	0.19301	0.22338	0.023899	0.43006	0.11698	0.041037	0.21945	0.12065	0.16723	0.087859	0.12076	0.098775	0.24483	0.27184	0.12663	0.036902	-1.9729	-2.6875	-2.3521	-2.7313	-2.8042	-2.3	-2.8854	-2.6542	-2.5042	-2.7167	-2.5104	-2.6125	-2.85	-2.3208	-2.6792	-2.5042	398.256	207.097	455.082	175.327	382.652	355.280	426.010	452.386	244.838	423.187	156.045	162.564	219.837	176.918	397.560	460.974	0.00031376	7.4802e-05	6.7919e-05	1153.2	2.1445e-06	3.2604e-06	1245.8	241.65	2.6045e-06	2.4186e-06	302.52	82.791	65.264	18.861	2.4169e-06	26.225	0.00035223	0.00036212	0.00010176	1137.4	3.934e-06	4.119e-06	1231	240.8	3.958e-06	3.9107e-06	301.43	83.209	65.757	19.244	3.9771e-06	26.683	262.534	321.369	272.651	164.288	302.819	302.970	164.445	171.779	345.313	340.313	171.846	178.195	178.539	185.960	348.571	185.305	-8191	255	
774.988	1	1	0	0	0.010079	0.20601	0.072259	0.077509	0.1579	0.067287	0.14027	0.22165	0.20886	0.077663	0.29327	0.14357	0.05027	0.18778	0.18268	0.16006	-1.7583	-2.8	-2.3396	-2.6	-2.5833	-2.375	-2.7958	-2.6625	-2.3458	-2.875	-2.6125	-2.5687	-2.675	-2.3021	-2.7562	-2.6604	264.225	459.068	277.333	180.755	433.812	501.366	463.163	498.529	402.799	479.786	436.509	445.346	227.476	159.145	214.375	436.699	0.00027213	0.00040701	4.5301e-05	1151.6	5.606e-06	4.2597e-06	1238.7	241.75	2.4542e-06	1.3629e-06	303.36	82.804	66.036	18.774	1.2836e-06	26.094	0.00036075	0.00037952	0.00010467	1136.1	4.0363e-06	4.085e-06	1226.5	240.32	4.0102e-06	4.0923e-06	301.45	83.323	65.867	19.202	3.9431e-06	26.596	257.030	271.261	274.172	164.524	298.932	287.290	164.666	171.725	310.668	307.965	171.719	178.617	178.960	185.797	313.466	184.996	-8191	255	
775.085	1	1	0	0	0.29137	0.11485	0.23947	0.35483	0.22297	0.2086	0.13176	0.34457	0.10615	0.11715	0.25367	0.21016	0.072929	0.11568	0.14888	0.076058	-1.9333	-2.6396	-2.4125	-2.4708	-2.6937	-2.225	-2.9083	-2.6729	-2.1104	-2.8021	-2.4792	-2.2938	-2.8354	-2.2833	-2.5646	-2.6854	189.864	406.150	467.854	496.808	340.419	484.994	474.894	447.007	326.735	418.605	442.508	226.671	423.840	203.631	476.878	427.686	0.00026364	0.00045117	7.0177e-05	1153.1	5.2671e-06	1.2761e-06	1245.7	241.3	1.4868e-06	4.3085e-06	303.11	82.744	65.639	18.799	1.2216e-06	26.168	0.00035609	0.00035853	9.9358e-05	1136.8	4.1049e-06	4.0361e-06	1229.1	240.08	3.9967e-06	3.972e-06	301.34	83.314	65.959	19.176	3.9539e-06	26.648	261.021	241.938	227.151	164.621	298.674	169.723	164.603	171.826	362.137	318.652	171.605	178.461	178.849	185.803	263.961	184.803	-8191	255	
775.156	1	1	0	0	0.16686	0.33512	0.18066	0.28741	0.2507	0.26269	0.11177	0.14843	0.1314	0.07249	0.12136	0.2566	0.1755	0.13673	0.19493	0.31338	-1.8292	-2.6688	-2.4354	-2.5833	-2.7479	-2.3417	-2.5625	-2.8021	-2.1312	-2.6958	-2.7125	-2.4062	-2.6458	-2.3792	-2.4375	-2.5625	267.188	259.809	371.401	470.647	432.316	433.546	423.750	445.020	410.438	496.705	513.177	500.891	178.904	481.873	392.450	422.495	0.00028768	0.00042844	8.3379e-05	1150.8	9.4182e-07	2.8185e-06	1245.5	242.19	9.5848e-07	1.9569e-06	302.12	82.846	65.402	18.829	1.7948e-06	26.262	0.00034944	0.00036432	0.00010231	1137.3	3.9846e-06	3.9028e-06	1231.9	240.69	4.0649e-06	3.9793e-06	301.67	83.479	66.004	19.251	3.9658e-06	26.64	262.798	240.017	222.977	164.429	169.184	272.836	164.309	172.144	305.320	356.141	171.586	178.367	178.463	185.587	285.016	184.616	-8191	255	
775.252	1	1	0	0	0.22084	0.16976	0.079552	0.33337	0.10068	0.25669	0.18323	0.2034	0.34648	0.23624	0.098944	0.22922	0.14768	0.14631	0.056131	0.17627	-1.8833	-2.8854	-2.6104	-2.4	-2.6979	-2.5938	-2.6667	-2.9396	-2.3958	-2.6125	-2.5729	-2.2771	-2.8312	-2.5229	-2.3542	-2.6708	451.724	264.011	353.528	467.127	380.436	251.765	426.743	463.238	227.677	167.696	372.640	425.334	331.181	473.755	389.566	245.071	0.00025826	0.00041529	0.00011873	1148.9	3.9527e-06	3.7456e-06	1246.4	241.08	2.9643e-06	1.4999e-06	300.69	83.101	65.639	18.87	3.9555e-06	26.117	0.00035056	0.00036398	0.00010033	1137.7	3.9887e-06	3.9036e-06	1230.6	240.5	4.0231e-06	4.0205e-06	301.09	83.521	66.061	19.263	3.9759e-06	26.598	252.985	213.566	229.165	164.494	270.437	268.427	164.521	171.760	329.568	321.525	171.853	178.282	178.607	185.840	280.248	185.390	-8191	255	
775.373	1	1	0	0	0.26657	0.44154	0.14387	0.1896	0.092322	0.080258	0.3725	0.20392	0.19769	0.11189	0.16295	0.1732	0.14227	0.15963	0.15477	0.11158	-1.7646	-2.4917	-2.6375	-2.4354	-2.6771	-2.5438	-2.5563	-2.7708	-2.4458	-2.4729	-2.5187	-2.2458	-2.5625	-2.5125	-2.4417	-2.7479	174.614	472.190	379.025	207.688	202.625	373.862	415.567	379.882	304.170	440.647	276.080	251.640	413.649	185.512	405.283	271.984	0.00026004	0.00027677	9.7433e-05	1157.5	2.7558e-06	4.2787e-06	1248.2	242.12	4.9212e-06	4.0286e-06	302.11	82.639	65.479	18.951	5.568e-06	26.181	0.00035401	0.0003695	0.00010196	1140.5	3.9864e-06	4.0795e-06	1231	240.84	3.9888e-06	4.0245e-06	301.4	83.202	65.833	19.28	3.9413e-06	26.605	256.692	194.767	230.167	164.376	343.625	343.172	164.527	171.861	315.010	332.599	171.439	178.479	178.957	185.863	325.420	185.411	-8191	255	
775.469	1	1	0	0	0.032451	0.01209	0.25954	0.31401	0.062407	0.086296	0.32894	0.14268	0.35864	0.062105	0.17388	0.06358	0.22816	0.26161	0.1739	0.13307	-1.875	-2.3917	-2.575	-2.3667	-2.6458	-2.5812	-2.5146	-2.6896	-2.4875	-2.3937	-2.8292	-2.2083	-2.6146	-2.55	-2.2271	-2.9938	166.212	278.139	297.176	472.902	260.843	168.968	447.157	301.236	179.183	389.285	260.271	387.449	439.967	472.247	310.907	190.624	0.00028531	0.00043349	4.7142e-05	1153.4	3.4578e-06	1.6278e-06	1247.9	241.28	3.8892e-06	4.5198e-06	301.3	82.799	65.894	18.843	4.2473e-06	26.145	0.00035758	0.0003629	0.00010586	1137.8	4.0649e-06	3.9567e-06	1230.7	240.28	3.9027e-06	3.9756e-06	301.16	83.331	66.216	19.232	3.9257e-06	26.619	253.829	290.653	295.654	164.496	302.762	332.854	164.904	171.927	296.918	329.028	171.606	178.502	178.754	185.916	300.584	185.205	-8191	255	
#DATA ENDS
