BOXY.EXE: ISS Imagent and Oximeter Data Acquisition Program Version 0.80
Ascii Record File

#ACQ INFORMATION
2  Detector Channels 
16  External MUX Channels 
1  Auxiliary Channels 
5000  Waveform (CCF) Frequency (Hz)
1  Waveforms Skipped 
30  Waveforms Averaged 
1  Cycles Averaged 
16  Acquisitions per Waveform 
10.0806  Updata Rate (Hz) 

#FILE INFORMATION
TRUE -- External MUX Channel results are PARSED.
FALSE -- AC DC and Phase are NOT grouped.
TRUE -- Companion Program Settings File CREATED.
FALSE -- AC data not excluded
FALSE -- DC data not excluded
FALSE -- Phase data not excluded
FALSE -- Auxillary Chn. data not excluded
Tab delimiters

#CALIBRATION STATE
TRUE -- Waveform Calibration Values APPLIED.


#AUX CALIBRATION VALUES
Val Type	aux-1	

Term	1.0000e+00	
Factor	0.0000e+00	


#WF CALIBRATION VALUES
A = Detector Channel
Val Type	A-AC1	A-AC2	A-AC3	A-AC4	A-AC5	A-AC6	A-AC7	A-AC8	A-AC9	A-AC10	A-AC11	A-AC12	A-AC13	A-AC14	A-AC15	A-AC16	A-DC1	A-DC2	A-DC3	A-DC4	A-DC5	A-DC6	A-DC7	A-DC8	A-DC9	A-DC10	A-DC11	A-DC12	A-DC13	A-DC14	A-DC15	A-DC16	A-Ph1	A-Ph2	A-Ph3	A-Ph4	A-Ph5	A-Ph6	A-Ph7	A-Ph8	A-Ph9	A-Ph10	A-Ph11	A-Ph12	A-Ph13	A-Ph14	A-Ph15	A-Ph16	

Term	0.00000e+00	0.00000e+00	0.00000e+00	0.00000e+00	0.00000e+00	0.00000e+00	0.00000e+00	0.00000e+00	0.00000e+00	0.00000e+00	0.00000e+00	0.00000e+00	0.00000e+00	0.00000e+00	0.00000e+00	0.00000e+00	0.00000e+00	0.00000e+00	0.00000e+00	0.00000e+00	0.00000e+00	0.00000e+00	0.00000e+00	0.00000e+00	0.00000e+00	0.00000e+00	0.00000e+00	0.00000e+00	0.00000e+00	0.00000e+00	0.00000e+00	0.00000e+00	0.00000e+00	0.00000e+00	0.00000e+00	0.00000e+00	0.00000e+00	0.00000e+00	0.00000e+00	0.00000e+00	0.00000e+00	0.00000e+00	0.00000e+00	0.00000e+00	0.00000e+00	0.00000e+00	0.00000e+00	0.00000e+00	
Factor	1.00000e+00	1.00000e+00	1.00000e+00	1.00000e+00	1.00000e+00	1.00000e+00	1.00000e+00	1.00000e+00	1.00000e+00	1.00000e+00	1.00000e+00	1.00000e+00	1.00000e+00	1.00000e+00	1.00000e+00	1.00000e+00	1.00000e+00	1.00000e+00	1.00000e+00	1.00000e+00	1.00000e+00	1.00000e+00	1.00000e+00	1.00000e+00	1.00000e+00	1.00000e+00	1.00000e+00	1.00000e+00	1.00000e+00	1.00000e+00	1.00000e+00	1.00000e+00	X	X	X	X	X	X	X	X	X	X	X	X	X	X	X	X	

B = Detector Channel
Val Type	B-AC1	B-AC2	B-AC3	B-AC4	B-AC5	B-AC6	B-AC7	B-AC8	B-AC9	B-AC10	B-AC11	B-AC12	B-AC13	B-AC14	B-AC15	B-AC16	B-DC1	B-DC2	B-DC3	B-DC4	B-DC5	B-DC6	B-DC7	B-DC8	B-DC9	B-DC10	B-DC11	B-DC12	B-DC13	B-DC14	B-DC15	B-DC16	B-Ph1	B-Ph2	B-Ph3	B-Ph4	B-Ph5	B-Ph6	B-Ph7	B-Ph8	B-Ph9	B-Ph10	B-Ph11	B-Ph12	B-Ph13	B-Ph14	B-Ph15	B-Ph16	

Term	0.00000e+00	0.00000e+00	0.00000e+00	0.00000e+00	0.00000e+00	0.00000e+00	0.00000e+00	0.00000e+00	0.00000e+00	0.00000e+00	0.00000e+00	0.00000e+00	0.00000e+00	0.00000e+00	0.00000e+00	0.00000e+00	0.00000e+00	0.00000e+00	0.00000e+00	0.00000e+00	0.00000e+00	0.00000e+00	0.00000e+00	0.00000e+00	0.00000e+00	0.00000e+00	0.00000e+00	0.00000e+00	0.00000e+00	0.00000e+00	0.00000e+00	0.00000e+00	-6.59245e+01	-1.24734e+02	-1.31290e+02	-1.83070e+02	-4.71720e+01	-6.49150e+01	-1.56663e+02	-1.62015e+02	-3.94459e+01	-6.42214e+01	-1.71114e+02	-1.71480e+02	-1.80686e+02	-1.76770e+02	-5.03157e+01	-1.49850e+02	
Factor	1.94318e-05	1.90944e-04	4.49887e-05	1.63081e-01	1.59961e-06	1.69595e-06	1.94177e-01	5.42487e-02	1.28390e-06	1.65075e-06	1.08414e-01	3.13847e-02	2.95052e-02	9.61121e-03	1.53840e-06	1.41149e-02	5.54059e-06	6.76180e-06	1.88700e-06	8.26207e-02	7.18682e-08	7.45135e-08	9.21061e-02	2.75920e-02	7.18242e-08	7.41166e-08	5.30887e-02	1.54427e-02	1.51454e-02	4.92050e-03	7.23774e-08	6.95805e-03	X	X	X	X	X	X	X	X	X	X	X	X	X	X	X	X	



#DISTANCE SETTINGS
A = Detector Channel
A-1	A-2	A-3	A-4	A-5	A-6	A-7	A-8	A-9	A-10	A-11	A-12	A-13	A-14	A-15	A-16	

2.5000e+00	3.0000e+00	2.5000e+00	3.0000e+00	2.0000e+00	3.0000e+00	1.5000e+00	3.0000e+00	3.0000e+00	3.0000e+00	3.0000e+00	3.0000e+00	3.0000e+00	3.0000e+00	1.5000e+00	3.0000e+00	

B = Detector Channel
B-1	B-2	B-3	B-4	B-5	B-6	B-7	B-8	B-9	B-10	B-11	B-12	B-13	B-14	B-15	B-16	

1.0000e+01	1.0000e+01	1.0000e+01	1.4400e+00	1.0000e+01	1.0000e+01	1.5100e+00	1.9400e+00	1.0000e+01	1.0000e+01	1.9900e+00	2.4900e+00	2.4100e+00	2.9000e+00	1.0000e+01	2.9800e+00	




#DATA BEGINS
time	group	step	mark	flag	A-AC1	A-AC2	A-AC3	A-AC4	A-AC5	A-AC6	A-AC7	A-AC8	A-AC9	A-AC10	A-AC11	A-AC12	A-AC13	A-AC14	A-AC15	A-AC16	A-DC1	A-DC2	A-DC3	A-DC4	A-DC5	A-DC6	A-DC7	A-DC8	A-DC9	A-DC10	A-DC11	A-DC12	A-DC13	A-DC14	A-DC15	A-DC16	A-Ph1	A-Ph2	A-Ph3	A-Ph4	A-Ph5	A-Ph6	A-Ph7	A-Ph8	A-Ph9	A-Ph10	A-Ph11	A-Ph12	A-Ph13	A-Ph14	A-Ph15	A-Ph16	B-AC1	B-AC2	B-AC3	B-AC4	B-AC5	B-AC6	B-AC7	B-AC8	B-AC9	B-AC10	B-AC11	B-AC12	B-AC13	B-AC14	B-AC15	B-AC16	B-DC1	B-DC2	B-DC3	B-DC4	B-DC5	B-DC6	B-DC7	B-DC8	B-DC9	B-DC10	B-DC11	B-DC12	B-DC13	B-DC14	B-DC15	B-DC16	B-Ph1	B-Ph2	B-Ph3	B-Ph4	B-Ph5	B-Ph6	B-Ph7	B-Ph8	B-Ph9	B-Ph10	B-Ph11	B-Ph12	B-Ph13	B-Ph14	B-Ph15	B-Ph16	aux-1	digaux	

719.590	1	1	0	256	0.17517	0.11024	0.064061	0.29117	0.046358	0.10597	0.2811	0.13139	0.23166	0.1076	0.048042	0.29645	0.18684	0.27928	0.25998	0.09922	-2.4146	-2.4688	-2.45	-3.0438	-2.4667	-2.5229	-2.7333	-2.5604	-2.8896	-2.6479	-2.6875	-2.7354	-2.325	-2.7479	-2.775	-2.6479	23.360	125.273	99.398	318.356	-2.129	304.768	284.035	11.782	125.211	140.275	131.110	61.672	218.733	4.090	220.796	197.036	0.00016809	0.00024005	0.00020932	1211.9	4.9225e-06	6.0921e-06	1313.2	255.9	3.6907e-06	4.1642e-06	319.57	86.864	68.424	20.37	3.4308e-06	27.89	0.00059998	0.00070249	0.00019368	1195.5	7.5188e-06	7.7201e-06	1293.2	255.49	7.403e-06	7.5897e-06	319.85	88.068	69.727	20.876	7.6996e-06	28.628	213.181	111.612	89.103	3.082	206.312	165.119	3.518	11.108	229.455	135.878	10.067	17.240	18.276	24.219	117.026	23.984	-8191	255	
719.711	1	1	0	0	0.16355	0.18927	0.080227	0.31864	0.20447	0.22658	0.22552	0.084456	0.22378	0.31402	0.17157	0.31338	0.019092	0.12776	0.049163	0.055903	-2.2458	-2.5521	-2.5146	-2.95	-2.575	-2.6688	-2.8479	-2.4375	-2.7375	-2.5625	-2.5646	-2.8417	-2.4646	-2.6729	-2.7562	-2.4625	346.066	334.015	291.328	314.207	28.511	43.647	334.123	304.990	105.533	234.917	255.376	312.387	273.404	245.675	165.480	321.259	0.00018458	0.00069871	0.00012617	1221.2	5.9991e-06	3.1316e-06	1317.3	258.71	2.435e-06	3.7021e-06	322.07	87.248	69.248	20.532	3.2251e-06	28.058	0.00062247	0.00072271	0.00020205	1203.8	7.9419e-06	7.9658e-06	1303.7	258.67	7.8773e-06	8.1914e-06	322.21	89.023	70.345	21.141	8.0098e-06	28.885	215.143	85.899	112.069	3.405	183.153	141.148	3.603	10.763	166.815	114.730	10.451	16.844	17.860	23.780	63.260	23.924	-8191	255	
719.807	1	1	0	0	0.20536	0.21331	0.12674	0.29067	0.11839	0.10672	0.25845	0.31363	0.15183	0.026498	0.1207	0.19579	0.068566	0.14752	0.14261	0.1629	-2.3729	-2.525	-2.6417	-2.8979	-2.4688	-2.7354	-2.9313	-2.4375	-2.8167	-2.7604	-2.6562	-2.7646	-2.5125	-2.7104	-2.8792	-2.5563	136.149	235.419	323.588	245.110	231.707	191.960	272.444	288.231	179.283	5.867	316.830	313.503	48.725	207.476	152.087	320.652	0.00017912	0.00013478	7.7009e-05	1225.2	6.045e-06	7.9152e-07	1324.2	258.41	9.861e-07	2.4235e-06	323.57	87.461	69.061	20.481	3.7857e-06	28.158	0.00065907	0.00076542	0.00021113	1208.5	8.3015e-06	8.3803e-06	1306.5	258.84	8.0584e-06	8.316e-06	322.66	89.107	70.382	21.041	7.93e-06	28.818	197.053	141.922	65.521	3.086	237.000	15.748	3.761	10.781	185.864	217.915	10.424	17.205	17.908	23.669	134.634	23.966	-8191	255	
719.903	1	1	0	0	0.15727	0.14196	0.23883	0.18175	0.19122	0.14099	0.23048	0.048178	0.16079	0.098384	0.23126	0.15733	0.14265	0.098261	0.1369	0.11721	-2.325	-2.7229	-2.4313	-2.9417	-2.3646	-2.4562	-3.1229	-2.3667	-2.8063	-2.6063	-2.4458	-2.8542	-2.4375	-2.5687	-2.975	-2.4333	183.552	138.043	289.892	268.844	149.170	344.381	11.661	305.653	238.247	217.782	342.914	-5.614	263.050	193.962	338.371	291.209	0.00016563	0.0004061	0.00012666	1223.1	2.4472e-06	2.9352e-06	1324.4	257.67	2.7048e-06	1.2062e-06	322.5	87.392	68.366	20.268	5.6438e-06	27.971	0.00063943	0.00072601	0.00020485	1206.4	7.9971e-06	8.0493e-06	1304.8	258.03	7.7836e-06	7.8218e-06	321.36	88.553	69.798	20.906	7.4662e-06	28.649	187.688	88.087	79.299	3.339	205.868	121.608	3.594	10.680	192.510	104.111	10.336	17.581	17.831	24.104	158.330	23.704	-8191	255	
719.997	1	1	0	0	0.068299	0.034571	0.11573	0.12887	0.081828	0.03635	0.083002	0.31688	0.21311	0.13229	0.46063	0.057799	0.1546	0.29017	0.016321	0.30363	-2.3042	-2.75	-2.3271	-2.9062	-2.6958	-2.5604	-2.9979	-2.6917	-2.7417	-2.8187	-2.3333	-2.7188	-2.7021	-2.4	-2.7792	-2.6312	149.276	197.755	116.554	263.405	264.160	17.480	64.343	261.037	158.186	146.209	298.310	341.511	-3.203	14.373	173.704	327.683	0.00018167	0.00055163	4.255e-05	1222.6	4.9323e-06	4.6022e-06	1319.1	257.79	1.844e-06	1.6697e-06	316.77	86.817	67.996	20.253	4.398e-06	27.941	0.00062885	0.00072055	0.00019779	1204	7.5285e-06	7.7064e-06	1300.1	256.86	7.4844e-06	7.5023e-06	318.78	88.027	69.326	20.758	7.3276e-06	28.486	187.140	147.635	310.410	3.250	220.707	132.359	3.632	10.526	331.339	255.958	10.553	17.663	17.783	23.779	240.225	23.837	-8191	255	
720.118	1	1	0	0	0.24201	0.11028	0.18651	0.29588	0.32267	0.2708	0.097824	0.10932	0.10609	0.11328	0.090641	0.06836	0.14253	0.28213	0.042142	0.1006	-2.0583	-2.8583	-2.2708	-2.8937	-2.7125	-2.3771	-3.0729	-2.6083	-2.4396	-2.8208	-2.3104	-2.8229	-2.5979	-2.3688	-3.0417	-2.5917	27.438	30.150	226.296	1.820	157.867	225.789	230.676	336.565	305.877	79.132	117.678	122.579	293.074	23.855	144.661	317.461	9.8867e-05	0.00067058	8.2565e-05	1214.9	6.3523e-06	5.1928e-06	1314.7	254.86	3.2515e-06	2.6751e-06	319.57	86.132	67.87	20.045	2.2447e-06	27.81	0.00060459	0.00068024	0.00019023	1197.9	7.4879e-06	7.4183e-06	1295.1	255.14	7.51e-06	7.34e-06	318.72	87.749	69.226	20.689	7.4054e-06	28.397	204.766	74.061	118.429	3.138	200.065	153.388	3.556	10.762	173.389	116.700	10.450	17.693	17.585	24.179	177.672	23.771	-8191	255	
720.190	1	1	0	0	0.11771	0.28455	0.093144	0.24858	0.1398	0.25285	0.27746	0.053849	0.13506	0.074948	0.2916	0.30684	0.1566	0.062407	0.076487	0.15439	-2.1688	-2.8333	-2.2625	-2.9479	-2.6167	-2.3708	-3.0229	-2.7083	-2.65	-2.9646	-2.5271	-2.6937	-2.7542	-2.4104	-2.8312	-2.5604	35.090	99.067	325.591	346.314	36.314	215.074	233.203	269.828	19.217	71.347	283.811	177.433	24.844	50.151	132.755	66.540	0.00014398	0.00036371	0.00012364	1211.1	4.2625e-06	3.8959e-06	1313.9	255.62	1.0394e-06	1.9228e-06	317.44	86.203	67.2	19.962	3.2742e-06	27.57	0.00060643	0.00069586	0.00019322	1195.9	7.4969e-06	7.6305e-06	1293.4	255.18	7.3147e-06	7.4178e-06	318.43	87.422	68.871	20.567	7.3724e-06	28.34	193.315	57.588	177.703	3.038	208.122	209.085	3.620	10.801	347.161	229.832	10.371	17.464	18.063	24.029	119.284	23.957	-8191	255	
720.286	1	1	0	0	0.20624	0.15935	0.20688	0.16474	0.17138	0.313	0.12206	0.37185	0.30815	0.10721	0.28543	0.051692	0.14751	0.27454	0.18508	0.084506	-2.0208	-2.825	-2.4042	-2.6979	-2.7333	-2.4979	-3.1104	-2.6312	-2.5062	-2.9146	-2.725	-2.8937	-2.6646	-2.2792	-2.6271	-2.7188	351.881	191.693	177.164	312.974	182.704	73.486	215.101	275.118	167.130	276.725	343.675	-0.635	289.748	85.489	146.392	49.712	0.00017356	0.00086585	0.00016913	1209.2	1.8334e-06	1.76e-06	1312	254.95	1.2585e-06	2.9345e-06	316.63	85.571	67.457	20.111	3.2556e-06	27.743	0.00061999	0.00070309	0.00020137	1191.4	7.836e-06	7.9995e-06	1292.2	254.51	8.0941e-06	8.1014e-06	318.04	87.306	69.014	20.645	7.9214e-06	28.375	192.660	79.992	51.353	3.326	215.645	251.085	3.624	10.809	184.176	126.422	10.905	17.369	17.727	23.973	177.334	24.352	-8191	255	
720.382	1	1	0	0	0.14774	0.19219	0.16308	0.062342	0.078635	0.30383	0.21801	0.18963	0.32036	0.11002	0.15945	0.023306	0.043873	0.17139	0.088976	0.15644	-2.0792	-2.9729	-2.3604	-2.6292	-2.7375	-2.4	-2.6833	-2.75	-2.3854	-2.7375	-2.4125	-2.5938	-2.6521	-2.3417	-2.7292	-2.6729	190.619	335.263	219.288	235.803	217.537	46.925	123.780	238.260	53.488	65.855	78.089	64.794	159.585	84.760	262.023	132.025	0.00015601	0.0002534	6.6015e-05	1206.3	4.958e-06	2.3797e-06	1306.8	255	1.9003e-06	3.2111e-06	316.78	85.857	67.092	19.932	5.851e-06	27.528	0.00064957	0.00074249	0.00020241	1190.5	7.7755e-06	7.9313e-06	1287.2	254.13	7.8049e-06	7.9603e-06	317.18	87.119	68.765	20.54	7.8083e-06	28.238	214.566	141.523	92.760	3.489	168.274	93.602	3.862	11.037	204.660	167.846	10.479	17.239	17.896	24.444	127.137	23.789	-8191	255	
720.478	1	1	0	0	0.18936	0.40306	0.1204	0.13622	0.12122	0.054054	0.13165	0.18424	0.034778	0.17284	0.11619	0.27199	0.11016	0.057711	0.16667	0.23072	-1.7979	-2.8771	-2.2812	-2.4229	-2.9042	-2.4813	-2.6458	-2.7938	-2.4417	-2.7	-2.7604	-2.5771	-2.8479	-2.4813	-2.5917	-2.7771	174.172	112.383	328.215	283.371	3.240	293.416	337.783	0.963	125.370	255.236	76.632	233.248	87.182	179.890	166.259	138.632	0.00012618	0.00058417	0.00011095	1210.6	1.852e-06	2.1331e-06	1308.4	255.26	1.9466e-06	3.9319e-06	316.48	85.794	67.458	20.035	2.5733e-06	27.747	0.00065521	0.00074571	0.0002089	1192.7	8.2105e-06	8.2851e-06	1287.9	254.25	8.1133e-06	8.4243e-06	316.86	87.303	68.877	20.627	8.1063e-06	28.366	184.377	118.479	107.476	3.483	134.145	152.286	3.528	10.904	274.176	153.528	10.373	17.410	18.505	24.351	199.630	24.050	-8191	255	
720.599	1	1	0	0	0.15244	0.14849	0.060576	0.27071	0.1982	0.17642	0.10725	0.23258	0.27888	0.21392	0.05541	0.052861	0.12836	0.10842	0.13113	0.086295	-1.9688	-2.7146	-2.6604	-2.4979	-2.7271	-2.5563	-2.8792	-2.8979	-2.5146	-2.875	-2.8458	-2.5271	-2.9229	-2.4604	-2.5833	-2.8146	3.707	285.467	280.655	327.106	346.824	233.119	212.158	259.715	176.076	325.765	277.253	318.367	302.539	200.266	66.870	343.083	0.00012007	0.00021492	9.3713e-05	1207.5	2.2023e-06	5.2687e-06	1310.5	254.12	2.8436e-06	2.6019e-06	315.06	86.013	67.115	19.883	5.3586e-06	27.445	0.0006501	0.00073961	0.00020749	1189.4	7.8121e-06	7.9754e-06	1289.4	253.59	7.7272e-06	7.7308e-06	316	87.151	68.296	20.495	7.4829e-06	28.152	207.059	128.520	36.050	3.397	141.696	161.611	3.886	10.953	239.071	180.110	10.762	17.464	18.029	24.417	188.312	24.529	-8191	255	
720.695	1	1	0	0	0.18791	0.13613	0.29337	0.14898	0.13035	0.16508	0.1367	0.32666	0.12947	0.1904	0.059373	0.22828	0.33713	0.12844	0.081294	0.1945	-1.8979	-2.85	-2.5375	-2.4208	-2.8854	-2.4813	-2.6417	-2.9646	-2.3021	-2.7354	-2.6979	-2.6042	-2.7771	-2.6292	-2.5438	-2.875	128.823	9.933	349.595	335.291	-4.106	154.227	347.340	302.787	165.070	235.197	63.450	139.961	8.223	223.093	320.242	283.889	0.00018125	0.00015302	0.00011493	1206.1	2.4389e-06	3.0927e-06	1298.9	253.45	5.2153e-06	2.5492e-06	316.31	85.134	67.373	20.143	3.5085e-06	27.663	0.00059097	0.00067446	0.00018939	1187	7.3858e-06	7.4603e-06	1281.8	252.84	7.3888e-06	7.5719e-06	315.57	86.657	68.492	20.569	7.6678e-06	28.164	192.916	150.393	75.026	3.383	213.974	146.321	3.608	10.869	235.393	87.359	10.542	17.790	18.190	24.368	198.055	23.843	-8191	255	
720.791	1	1	0	0	0.090258	0.033218	0.10571	0.34418	0.15717	0.14158	0.38948	0.14254	0.038963	0.26607	0.192	0.12416	0.089098	0.1101	0.13724	0.23261	-2.0479	-2.7396	-2.4979	-2.5979	-2.8187	-2.6625	-2.5312	-2.9188	-2.2271	-2.575	-2.7188	-2.4229	-2.8438	-2.5958	-2.4646	-2.7896	216.881	159.678	335.047	320.055	101.461	144.909	202.914	264.791	86.770	197.085	256.826	91.140	217.988	2.554	127.360	283.588	0.00017239	0.00044968	0.00013019	1208.9	2.5695e-06	5.8157e-06	1307.9	252.59	2.4986e-06	2.7557e-06	315.17	85.473	67.099	19.833	7.0928e-07	27.474	0.00062279	0.00073329	0.0002031	1189.7	7.9601e-06	8.009e-06	1287	253.4	7.9077e-06	8.157e-06	316.33	87.089	68.605	20.551	8.0214e-06	28.277	213.351	97.685	71.627	3.367	305.120	120.467	3.875	10.834	151.020	88.893	10.625	17.733	18.031	24.062	52.445	23.433	-8191	255	
720.887	1	1	0	0	0.060904	0.15991	0.08817	0.1882	0.099713	0.23187	0.20041	0.043276	0.23216	0.10174	0.20763	0.22676	0.20428	0.29515	0.18539	0.155	-1.9604	-2.6146	-2.7188	-2.4604	-2.6271	-2.5958	-2.75	-2.8917	-2.5333	-2.5125	-2.7812	-2.4021	-2.6417	-2.6875	-2.5083	-2.7458	30.010	197.242	72.914	202.811	75.432	111.470	319.493	123.207	34.995	56.254	285.446	86.719	235.327	273.915	247.794	187.363	0.00015019	0.00062371	9.9379e-05	1201.2	2.8641e-06	6.7663e-06	1306.7	253.31	4.3843e-06	5.2058e-06	314.13	86	67.218	19.958	2.2391e-06	27.515	0.0006523	0.00074654	0.00020471	1188.3	7.9582e-06	8.1504e-06	1285.2	253.2	7.9684e-06	8.0625e-06	315.32	87.122	68.623	20.607	8.0058e-06	28.259	218.247	131.420	33.934	3.347	186.577	140.816	3.862	10.733	225.505	145.600	10.576	17.709	17.760	24.180	161.440	23.969	-8191	255	
720.983	1	1	0	0	0.20854	0.11452	0.14323	0.17034	0.18616	0.12548	0.12053	0.19236	0.078832	0.091063	0.2062	0.028111	0.22867	0.078907	0.10266	0.18544	-2.0292	-2.5854	-2.7104	-2.5667	-2.5938	-2.6792	-2.5875	-2.9625	-2.5458	-2.4167	-2.7583	-2.5687	-2.6042	-2.5979	-2.5167	-2.7271	165.448	159.332	247.997	26.808	75.067	138.767	33.146	238.433	67.830	328.534	290.642	225.102	86.083	224.663	340.345	247.356	0.0001273	0.00055496	7.667e-05	1207.2	2.7986e-06	3.4388e-06	1306.4	254.15	5.8705e-06	4.2118e-06	316.58	85.77	67.953	20.025	5.9827e-06	27.58	0.00066048	0.00074336	0.00020697	1189.5	8.33e-06	8.309e-06	1286.6	253.74	8.3379e-06	8.3661e-06	316.31	87.415	69.054	20.641	8.2234e-06	28.283	197.690	73.151	26.848	3.267	187.385	131.665	3.852	10.661	177.973	195.438	10.691	17.542	17.960	24.335	226.719	23.753	-8191	255	
721.080	1	1	0	0	0.13154	0.27624	0.34975	0.13642	0.19188	0.15297	0.16547	0.32383	0.30617	0.096906	0.15	0.2068	0.1526	0.04054	0.18487	0.3351	-2.1354	-2.4313	-2.6813	-2.5625	-2.4854	-2.7604	-2.6125	-2.7104	-2.5312	-2.5271	-3.0312	-2.5021	-2.6958	-2.675	-2.4583	-2.7583	165.253	244.865	39.041	352.058	232.501	273.140	295.087	339.597	216.397	295.667	339.713	237.819	286.681	223.248	46.377	252.878	0.00014361	0.00036779	0.00013856	1205.1	2.4302e-06	4.125e-06	1302.5	252.65	2.4907e-06	2.3843e-06	316.45	85.469	67.389	19.825	3.7855e-06	27.469	0.00066534	0.00076022	0.0002078	1188.6	8.0623e-06	8.1049e-06	1285.3	253.06	7.9301e-06	8.0827e-06	315.87	86.955	68.562	20.482	7.7527e-06	28.19	223.297	72.750	104.018	3.281	214.712	192.501	3.536	10.880	191.521	186.537	10.649	17.699	17.976	24.126	191.580	23.697	-8191	255	
721.198	1	1	0	0	0.035841	0.062267	0.21148	0.42122	0.18967	0.1769	0.2967	0.23972	0.31436	0.30197	0.16904	0.021016	0.21249	0.13124	0.2831	0.086388	-2.2188	-2.225	-2.8042	-2.5438	-2.4583	-2.6937	-2.3229	-2.8708	-2.825	-2.3979	-2.8229	-2.5042	-2.4667	-2.8937	-2.4479	-2.6896	261.977	4.269	102.574	9.053	327.031	155.233	268.988	90.168	282.970	11.873	173.558	180.633	47.831	301.777	332.349	167.528	0.00015292	0.00020292	0.00015892	1201.1	6.6676e-06	3.6531e-06	1301.5	252.12	3.4738e-06	2.5855e-06	314.26	85.564	67.055	20.114	5.1989e-06	27.471	0.00063432	0.0007275	0.00020119	1183.9	7.8863e-06	7.9697e-06	1281.9	252.51	7.7066e-06	7.9627e-06	315.09	86.927	68.408	20.534	7.5674e-06	28.172	190.316	13.014	104.970	3.363	172.590	149.028	3.608	10.843	187.349	154.939	10.713	17.690	18.210	24.194	191.964	23.677	-8191	255	
721.295	1	1	0	0	0.12293	0.055678	0.037059	0.17533	0.30035	0.1496	0.14814	0.24823	0.10522	0.30404	0.15024	0.15742	0.084902	0.14384	0.29739	0.25007	-2.3708	-2.1958	-2.7687	-2.8937	-2.5312	-2.7896	-2.5604	-2.8271	-2.7833	-2.3104	-2.8812	-2.5583	-2.5396	-2.6083	-2.4313	-2.55	168.517	28.271	159.384	343.253	304.927	331.344	183.823	311.933	282.350	53.810	298.510	291.289	226.064	269.880	139.063	317.431	0.00011995	0.0003419	8.1465e-05	1198.8	2.0885e-06	7.7393e-06	1304.3	252.54	2.9421e-06	3.2101e-06	314.24	85.14	67.022	19.836	1.6877e-06	27.383	0.00060966	0.00070096	0.0001986	1183.7	7.7016e-06	7.637e-06	1280.4	251.91	7.5704e-06	7.6839e-06	314.3	86.692	68.311	20.404	7.519e-06	28.097	202.770	11.352	163.337	3.251	192.528	152.745	3.768	11.233	136.405	181.389	10.384	17.923	18.383	24.120	261.412	23.902	-8191	255	
721.391	1	1	0	0	0.14695	0.061165	0.24747	0.25591	0.32975	0.27109	0.083618	0.12084	0.24188	0.3117	0.098565	0.14038	0.025924	0.41621	0.085914	0.18903	-2.3333	-2.5417	-3.0167	-2.6354	-2.3708	-2.9396	-2.7083	-2.4562	-2.8208	-2.4625	-2.7375	-2.8271	-2.4896	-2.9437	-2.5042	-2.5125	217.435	16.946	167.127	343.467	188.414	164.604	279.484	279.846	343.778	66.946	176.337	66.169	179.997	-0.187	168.590	303.762	0.00019656	0.00047515	0.00021476	1196.3	4.5761e-06	4.9126e-06	1297.8	252.05	4.8797e-06	4.3888e-06	313.56	84.825	66.893	19.743	2.6354e-06	27.662	0.00061289	0.00071159	0.00019642	1181.4	7.8223e-06	7.879e-06	1278.8	251.85	7.712e-06	8.0327e-06	313.92	86.585	68.246	20.383	7.8561e-06	28.203	212.056	152.352	84.037	3.328	189.304	164.098	3.651	10.798	214.259	135.168	10.249	17.539	17.625	24.566	143.410	23.571	-8191	255	
721.487	1	1	0	0	0.010961	0.095089	0.10492	0.067497	0.075925	0.079092	0.3055	0.37234	0.16134	0.036014	0.25422	0.090442	0.35476	0.32536	0.12423	0.37415	-2.1937	-2.2708	-2.5187	-2.8708	-2.3292	-2.9104	-2.6562	-2.7313	-2.9958	-2.4333	-2.6396	-2.9521	-2.5771	-2.7229	-2.5604	-2.4458	51.235	96.692	257.856	323.344	233.714	107.423	273.651	267.060	205.692	339.663	353.146	77.327	31.337	65.502	62.472	53.922	0.00016195	0.00043364	7.6805e-05	1195.9	5.2812e-06	7.1163e-06	1294.2	252.93	3.0638e-06	6.9536e-06	315.19	85.203	66.948	19.778	2.2779e-06	27.43	0.00061667	0.00071186	0.00020036	1179.2	7.7239e-06	7.7694e-06	1275	251.63	7.5938e-06	7.8394e-06	313.84	86.421	68.104	20.401	7.7929e-06	28.041	200.090	95.927	115.290	3.609	142.785	126.883	3.623	11.178	187.568	155.020	10.683	16.970	18.417	24.430	201.028	24.319	-8191	255	
721.583	1	1	0	0	0.18056	0.29397	0.14504	0.18277	0.22017	0.14926	0.21195	0.062823	0.24925	0.11752	0.086909	0.38325	0.20957	0.14782	0.049141	0.085044	-2.4375	-2.4896	-2.6021	-2.8875	-2.6667	-2.8229	-2.6396	-2.5521	-2.875	-2.4708	-2.6167	-2.9104	-2.3563	-2.6354	-2.8271	-2.3146	212.403	107.966	49.898	48.096	83.912	5.981	215.952	233.613	72.763	237.632	252.627	4.594	-2.964	22.614	273.462	130.556	0.00015245	0.00011708	0.00014119	1201.3	7.7023e-06	4.9857e-06	1294.2	251.78	8.0527e-07	3.2201e-06	314.79	84.88	67.061	20.008	8.8863e-06	27.655	0.00062453	0.00072451	0.00019859	1180.4	7.9817e-06	8.1297e-06	1276.4	251.81	7.9464e-06	8.2604e-06	314.75	86.644	68.344	20.528	8.2102e-06	28.289	197.775	178.359	27.515	3.392	195.256	169.776	3.976	10.747	179.834	147.282	10.620	17.426	17.691	24.010	153.661	24.095	-8191	255	
721.679	1	1	0	0	0.075938	0.06795	0.17815	0.19381	0.30706	0.23657	0.16571	0.23032	0.14071	0.14569	0.10844	0.064859	0.31703	0.34582	0.2526	0.1276	-2.3312	-2.4208	-2.5312	-3	-2.3333	-2.7188	-2.8167	-2.3667	-2.7917	-2.5687	-2.5	-2.9854	-2.4042	-2.875	-2.7375	-2.4042	39.439	252.621	165.247	296.599	233.575	226.916	43.276	295.896	213.779	174.486	295.519	67.123	333.079	60.369	300.752	2.151	0.00012793	0.0003524	3.8764e-05	1199.8	4.4811e-06	5.7855e-06	1296.8	251.92	2.0447e-06	2.926e-06	314.51	85.533	66.896	19.874	1.1966e-06	27.606	0.00066283	0.00077937	0.00021307	1182.1	8.2058e-06	8.3399e-06	1279	251.48	8.0603e-06	8.3339e-06	314.45	86.818	68.329	20.502	8.2343e-06	28.213	200.483	76.132	80.958	3.050	152.325	162.122	3.828	10.781	158.985	121.630	10.610	17.775	17.713	24.153	184.627	24.055	-8191	255	
721.800	1	1	0	0	0.13598	0.19409	0.2879	0.51641	0.066263	0.11045	0.34415	0.24516	0.12445	0.16303	0.2821	0.21444	0.078934	0.20946	0.18003	0.018528	-2.3479	-2.5542	-2.3875	-2.8917	-2.4104	-2.7125	-2.8292	-2.4854	-2.6104	-2.7083	-2.4	-2.8187	-2.5896	-2.5375	-2.5563	-2.4542	240.936	255.227	102.346	336.220	191.660	243.442	298.342	244.920	63.913	189.879	250.759	323.976	51.137	15.360	212.119	168.662	0.00011958	0.00015261	6.3581e-05	1199.5	4.3031e-06	2.6289e-06	1294.5	252.29	4.4656e-06	4.0938e-06	314.69	85.21	66.965	19.719	2.3948e-06	27.585	0.00065242	0.00075814	0.00021221	1182.2	8.1951e-06	8.3939e-06	1277	251.79	8.1903e-06	8.3358e-06	314.31	86.639	68.514	20.452	8.2127e-06	28.223	195.032	329.591	111.192	3.349	221.577	171.680	3.914	10.631	243.982	164.892	10.696	17.561	17.951	24.230	196.770	24.024	-8191	255	
721.894	1	1	0	0	0.11111	0.10004	0.25573	0.21634	0.11927	0.11188	0.060304	0.13825	0.10706	0.12674	0.24401	0.21303	0.077926	0.1018	0.23356	0.18923	-2.1521	-2.5625	-2.3438	-3.0542	-2.625	-2.575	-2.7396	-2.3979	-2.8333	-2.6958	-2.4208	-2.8271	-2.4125	-2.525	-2.85	-2.2708	61.866	36.524	47.363	344.654	339.401	12.558	102.847	43.165	203.111	114.466	257.844	331.486	12.500	177.268	175.216	218.259	0.00014987	0.00026825	8.6212e-05	1196.9	3.4986e-06	3.8806e-06	1294	251.97	3.623e-06	4.1084e-06	312.76	84.914	67.17	19.72	5.731e-06	27.57	0.00066458	0.00077175	0.00021434	1181.8	8.1528e-06	8.4958e-06	1278.2	252.02	7.8781e-06	8.2137e-06	314.6	86.608	68.371	20.45	7.6409e-06	28.157	178.514	105.259	38.323	3.224	274.553	130.269	3.752	11.063	199.284	178.302	10.680	18.012	17.507	24.280	161.979	23.725	-8191	255	
721.990	1	1	0	0	0.14734	0.15248	0.11897	0.40656	0.059231	0.069305	0.16399	0.27652	0.1265	0.2657	0.0409	0.25881	0.18789	0.19059	0.2021	0.21026	-2.0187	-2.6875	-2.2313	-2.9396	-2.6625	-2.5521	-3.0542	-2.5771	-2.5667	-2.7	-2.4604	-2.7792	-2.5542	-2.3792	-2.8	-2.4229	285.349	156.116	262.283	293.717	113.950	331.931	336.402	254.622	253.073	45.142	313.149	195.082	322.842	232.119	95.526	120.605	0.00014409	0.00067509	6.1382e-05	1199.6	4.734e-06	3.5322e-06	1297	251.49	3.1805e-06	2.0267e-06	313.63	85.437	67.034	19.841	5.3661e-06	27.217	0.00064629	0.00073118	0.00020729	1182.6	8.2057e-06	8.1193e-06	1280.8	251.74	8.0521e-06	8.2689e-06	314.63	86.845	68.521	20.502	8.1464e-06	28.137	181.620	110.263	62.274	3.304	201.482	111.752	3.838	10.924	157.968	248.268	10.480	17.735	17.826	24.312	158.371	24.381	-8191	255	
722.064	1	1	0	0	0.25609	0.19127	0.35135	0.080131	0.02118	0.064885	0.27002	0.10172	0.33035	0.22364	0.17232	0.068502	0.16938	0.15584	0.11975	0.20907	-2.2	-2.6646	-2.3917	-2.8167	-2.5333	-2.2438	-2.9896	-2.7458	-2.6354	-2.7917	-2.2687	-2.7854	-2.6958	-2.3729	-2.6667	-2.5229	230.726	107.588	306.901	18.347	178.669	39.707	271.515	117.753	164.892	301.996	63.800	296.604	151.882	127.703	181.182	140.324	0.00013504	0.00037691	0.00018024	1199.3	2.322e-06	3.0132e-06	1295.5	252.28	5.2294e-06	3.7827e-06	313.41	84.726	66.918	19.852	8.3174e-07	27.528	0.00066376	0.00074318	0.00021288	1182.1	8.16e-06	8.3455e-06	1278.1	251.82	8.076e-06	8.1592e-06	314.23	86.434	68.233	20.444	8.0663e-06	28.125	208.436	79.038	74.448	3.457	149.076	194.847	4.036	11.071	168.347	167.779	10.646	17.588	17.721	24.477	335.982	24.048	-8191	255	
722.160	1	1	0	0	0.25352	0.11459	0.46168	0.20846	0.10815	0.10452	0.15917	0.26466	0.251	0.24913	0.14322	0.17821	0.20846	0.01417	0.10103	0.056924	-2.0292	-2.7167	-2.3333	-2.7792	-2.7021	-2.4875	-2.9667	-2.5396	-2.3604	-2.7854	-2.4104	-2.5312	-2.7917	-2.3083	-2.9167	-2.6792	330.837	214.654	60.970	48.272	18.776	36.297	-5.000	38.267	215.387	11.037	6.880	234.962	9.918	23.806	229.485	184.832	0.00011924	0.0007777	7.0168e-05	1197.4	4.4112e-06	8.884e-06	1294	250.69	2.7603e-06	6.4655e-06	314.42	85.245	67.022	19.813	5.0841e-06	27.315	0.00065354	0.00075071	0.0002091	1178.8	8.1738e-06	8.1786e-06	1276.3	250.91	8.1877e-06	8.1902e-06	314.68	86.773	68.298	20.458	8.1115e-06	28.139	216.115	154.207	13.869	3.533	229.486	120.275	3.679	10.845	135.258	164.477	10.403	17.551	17.872	24.365	125.570	23.926	-8191	255	
722.279	1	1	0	0	0.049068	0.064993	0.10334	0.2056	0.25821	0.1183	0.25044	0.056165	0.14371	0.16669	0.19952	0.034235	0.11997	0.10389	0.054549	0.056658	-2.1958	-2.9104	-2.1333	-2.8083	-2.8021	-2.3625	-2.9208	-2.4854	-2.3479	-2.8563	-2.5792	-2.5792	-2.7646	-2.3812	-2.6813	-2.5896	344.108	183.908	310.291	339.402	344.704	199.468	278.102	119.329	79.527	306.193	134.963	15.247	24.836	25.462	152.234	53.565	0.00013864	0.0001442	0.00015788	1191.9	1.432e-06	5.6044e-06	1302	250.83	2.7094e-06	6.8404e-06	313.05	85.412	66.947	19.92	3.0178e-06	27.457	0.00066741	0.00076059	0.00021459	1178.2	8.3598e-06	8.5026e-06	1277.7	250.72	8.3838e-06	8.3864e-06	313.34	86.696	68.2	20.479	8.215e-06	28.179	204.349	27.687	48.714	3.513	128.695	132.809	3.841	11.015	241.500	167.896	10.433	17.747	17.969	24.356	159.172	24.008	-8191	255	
722.375	1	1	0	0	0.16212	0.34403	0.36623	0.011021	0.16136	0.20569	0.17316	0.086123	0.11122	0.23703	0.091342	0.032942	0.14069	0.19865	0.15655	0.11058	-1.7875	-2.8542	-2.4583	-2.5875	-2.6896	-2.4104	-2.9583	-2.8271	-2.3104	-2.9521	-2.5708	-2.575	-2.8021	-2.3646	-2.6458	-2.7479	230.643	290.279	218.374	210.890	20.897	261.615	268.656	262.885	300.692	3.848	79.431	120.646	243.929	143.900	116.446	325.046	0.00019974	0.00049385	0.00014374	1193.8	1.0882e-06	4.6045e-06	1295	251.17	2.1639e-06	3.3957e-06	313.24	85.042	66.517	19.877	5.6684e-06	27.312	0.00067235	0.0007809	0.00021496	1178.9	8.4197e-06	8.5788e-06	1276.7	251.41	8.2165e-06	8.4115e-06	313.86	86.685	68.231	20.465	8.0993e-06	28.085	219.040	23.360	69.026	3.423	69.889	157.551	3.698	10.597	198.260	120.500	10.712	17.668	18.355	24.056	165.571	23.962	-8191	255	
722.471	1	1	0	0	0.050286	0.20382	0.16734	0.38378	0.13728	0.23592	0.18544	0.12205	0.095323	0.1569	0.070894	0.23999	0.27822	0.15274	0.063886	0.071071	-1.9625	-2.7021	-2.4688	-2.7229	-2.9208	-2.1937	-2.6333	-2.8542	-2.2958	-2.9479	-2.6937	-2.5792	-2.825	-2.5708	-2.8312	-2.8	251.956	229.423	339.518	291.804	116.472	123.040	263.205	162.591	243.957	187.134	89.708	244.144	-2.652	0.280	5.947	306.789	0.00012498	0.0004809	6.6833e-05	1191.4	4.7093e-06	5.5601e-06	1296.1	251.06	3.1539e-06	5.0997e-06	311.53	85.134	66.427	19.786	1.5926e-06	27.387	0.00064863	0.00074247	0.00020613	1177	8.0748e-06	8.0166e-06	1276	251.16	7.8022e-06	7.9346e-06	313.23	86.409	68.033	20.338	7.8863e-06	28.025	192.418	75.411	79.840	3.522	168.925	130.568	3.633	10.943	191.503	170.675	10.871	17.347	18.320	24.359	217.398	24.112	-8191	255	
722.592	1	1	0	0	0.091601	0.32079	0.21621	0.20836	0.25047	0.036558	0.21591	0.13077	0.36086	0.14491	0.33589	0.10485	0.17115	0.12449	0.11914	0.23147	-1.7771	-2.8521	-2.4083	-2.5896	-2.9771	-2.4604	-2.6813	-2.6813	-2.2917	-2.7292	-2.6042	-2.575	-2.9062	-2.4146	-2.5083	-2.7854	323.655	240.690	265.097	32.278	317.647	204.753	297.963	332.471	93.323	308.981	235.883	100.302	-2.098	244.343	254.647	248.551	0.00014943	0.00091886	0.00011397	1196	4.5983e-06	3.5872e-06	1293.7	250.86	2.2194e-06	9.996e-07	313.45	85.106	67.036	19.728	1.9031e-06	27.536	0.00063748	0.00071795	0.00020281	1177.3	7.9155e-06	8.1681e-06	1274.4	250.67	8.1612e-06	8.3603e-06	313.92	86.753	68.385	20.399	8.2862e-06	28.126	209.406	115.663	112.216	3.294	139.483	74.577	3.868	10.948	144.574	143.090	10.640	17.584	17.811	24.418	243.603	23.689	-8191	255	
722.663	1	1	0	0	0.24334	0.053601	0.17237	0.27313	0.097574	0.2181	0.23028	0.33374	0.19004	0.1339	0.14885	0.4123	0.12053	0.10379	0.22826	0.088745	-1.9167	-2.7125	-2.6792	-2.5042	-2.7354	-2.6063	-2.7188	-2.8812	-2.4396	-2.6979	-2.9625	-2.4062	-2.7729	-2.4813	-2.6292	-2.8	86.523	0.885	51.899	285.490	238.507	318.000	253.346	314.311	63.830	257.720	265.583	69.496	201.299	317.673	32.014	345.660	0.00015005	0.0004354	0.00019567	1193	2.2599e-06	2.8017e-06	1290	250.49	3.6634e-06	3.6959e-06	311.17	85.159	67.158	19.684	5.9761e-06	27.327	0.00065792	0.00076406	0.00021738	1178.1	8.0741e-06	8.4133e-06	1275.6	251.17	8.1086e-06	8.2757e-06	312.76	86.521	68.189	20.385	8.0702e-06	28.018	195.603	55.906	59.076	3.322	177.165	205.703	3.752	10.810	222.838	142.932	10.606	17.347	17.851	24.208	192.607	23.799	-8191	255	
722.760	1	1	0	0	0.14083	0.055082	0.18482	0.24238	0.11255	0.21347	0.22823	0.097795	0.18236	0.062963	0.094331	0.15534	0.20509	0.10386	0.039465	0.086061	-1.9125	-2.5792	-2.7104	-2.5729	-3.0646	-2.4458	-2.675	-2.8458	-2.5167	-2.55	-2.7188	-2.5125	-2.7354	-2.6167	-2.4042	-2.9333	344.184	302.037	285.737	238.775	335.804	27.494	130.184	306.062	93.643	-4.635	63.004	61.343	18.774	225.129	146.981	289.073	0.00012918	0.00025594	7.3611e-05	1193.6	9.8228e-07	1.7862e-06	1293.8	252.12	3.1518e-06	1.5189e-06	311.79	84.537	66.86	19.62	9.3389e-06	27.358	0.00062992	0.00072918	0.0002016	1178.2	7.4428e-06	7.8144e-06	1277.5	250.79	7.3318e-06	7.3715e-06	312.33	86.019	68.014	20.236	7.0931e-06	27.999	215.919	121.409	21.452	3.422	247.331	169.672	3.594	10.929	224.574	263.660	10.174	17.605	17.909	24.268	176.364	24.393	-8191	255	
722.880	1	1	0	0	0.13414	0.14677	0.13393	0.072949	0.053179	0.28676	0.1804	0.13895	0.15504	0.20003	0.064998	0.25658	0.16172	0.089181	0.12745	0.22265	-1.9542	-2.4292	-2.8625	-2.7479	-2.8	-2.6271	-2.6042	-3.0187	-2.3896	-2.5021	-3.0458	-2.3292	-2.7146	-2.7979	-2.4833	-2.8063	11.459	78.591	33.648	1.485	270.957	-2.528	253.191	249.169	30.818	96.643	275.706	326.927	242.523	95.102	322.763	324.859	0.00017774	0.00028074	7.4322e-05	1195.3	1.587e-06	7.0245e-06	1293.7	251.32	1.9133e-07	3.8759e-06	312.99	84.697	66.833	19.746	3.059e-06	27.164	0.00057511	0.00067517	0.00018829	1178.9	7.5057e-06	7.5956e-06	1275.5	250.59	7.5608e-06	7.5251e-06	313.38	86.23	68.009	20.298	7.3875e-06	27.936	202.732	25.805	58.581	3.298	247.803	141.426	4.050	10.961	153.339	183.368	10.892	17.559	17.882	24.231	168.764	24.092	-8191	255	
722.975	1	1	0	0	0.15058	0.24399	0.057125	0.18136	0.33466	0.051593	0.20325	0.080951	0.091521	0.16994	0.063617	0.23657	0.069827	0.17328	0.13395	0.062977	-2.1063	-2.5354	-2.6104	-2.5021	-2.5792	-2.7292	-2.5687	-2.8917	-2.4583	-2.4958	-3.0208	-2.5458	-2.5958	-2.7146	-2.4083	-2.8896	334.919	174.893	93.364	310.539	28.220	178.137	37.080	198.860	144.981	281.221	307.225	77.601	140.510	352.289	27.865	256.917	0.00013423	0.00033168	8.6539e-05	1195.4	1.5492e-06	4.6354e-06	1289.5	252.11	3.6873e-06	3.957e-06	310.89	85.667	66.228	19.825	3.1345e-06	27.413	0.00060832	0.00069997	0.00019474	1175.6	7.5677e-06	7.7936e-06	1272.4	250.64	7.5828e-06	7.89e-06	312.26	86.262	67.901	20.329	7.6067e-06	28.098	193.064	71.886	124.854	3.403	228.643	161.428	3.651	11.026	190.967	178.037	10.744	17.747	17.550	23.780	185.936	23.629	-8191	255	
723.071	1	1	0	0	0.20651	0.2388	0.23699	0.045943	0.19629	0.11038	0.084297	0.21753	0.036023	0.24786	0.10057	0.083149	0.36022	0.27313	0.10025	0.20976	-2.0167	-2.4646	-2.8208	-2.6229	-2.5875	-2.7583	-2.7729	-2.8	-2.5896	-2.6125	-2.9188	-2.4729	-2.7167	-2.7833	-2.5125	-2.75	149.073	0.281	301.225	45.087	189.078	195.676	263.735	309.525	64.326	123.633	305.180	328.067	298.575	39.649	197.733	153.248	0.00016387	0.00033781	0.00011465	1192.9	5.4129e-06	4.2402e-06	1291.2	250.23	4.5122e-06	1.7795e-06	312.24	84.302	66.297	19.568	1.4246e-06	26.977	0.00061204	0.00070362	0.00018605	1176.3	7.3726e-06	7.3596e-06	1271.6	249.84	7.1187e-06	7.0009e-06	311.51	85.708	67.536	20.119	7.0551e-06	27.822	197.945	87.842	68.482	3.206	184.367	139.900	3.717	10.801	185.363	160.773	10.697	17.833	18.302	23.949	291.195	24.389	-8191	255	
723.191	1	1	0	0	0.15006	0.063546	0.26942	0.28474	0.25381	0.2668	0.42276	0.14071	0.12328	0.046662	0.11112	0.13296	0.065256	0.16961	0.27228	0.19863	-2.1104	-2.4938	-2.7917	-2.7062	-2.4542	-2.75	-2.6771	-2.8667	-2.6354	-2.4792	-2.8438	-2.7104	-2.5021	-2.9875	-2.4354	-2.7104	56.994	310.660	115.034	-6.514	299.955	82.476	294.288	268.440	246.075	67.128	244.904	26.248	145.045	240.957	345.932	226.812	0.00012492	0.00013685	5.0019e-05	1188.6	5.7735e-06	2.8153e-06	1295.5	249.81	3.1992e-06	2.7739e-06	312.39	84.728	66.336	19.819	6.8219e-06	27.253	0.00057417	0.00064691	0.00018243	1173.7	7.2639e-06	7.3152e-06	1273.1	249.85	7.2762e-06	7.63e-06	312.2	86.052	67.902	20.333	7.9779e-06	27.985	217.574	241.941	202.402	3.333	205.302	160.189	3.620	11.017	209.688	76.929	10.518	17.781	17.856	24.443	147.964	24.201	-8191	255	
723.288	1	1	0	0	0.22089	0.20669	0.10121	0.24314	0.078529	0.14705	0.29619	0.17038	0.10643	0.043551	0.29358	0.11848	0.04523	0.023859	0.15633	0.052443	-2.1813	-2.1333	-2.8958	-2.7125	-2.4417	-2.8479	-2.6125	-2.7792	-2.6417	-2.4271	-2.6646	-2.4938	-2.6229	-2.7	-2.5083	-2.7729	299.189	234.264	290.466	316.980	103.010	110.988	290.985	12.413	229.221	36.155	327.818	314.306	87.269	302.183	117.155	189.452	0.00013013	0.00091461	6.8715e-05	1197.4	5.3731e-06	5.3466e-06	1292.6	250.91	2.155e-06	1.6033e-06	313.13	84.255	66.524	19.815	1.3101e-06	27.403	0.00065133	0.00076204	0.00021132	1179.4	8.322e-06	8.5038e-06	1273.9	250.51	8.1556e-06	8.3366e-06	313.35	86.176	67.919	20.305	7.7551e-06	27.949	205.430	63.465	343.005	3.454	184.092	156.398	3.866	11.001	209.042	112.382	10.190	17.442	18.125	24.360	230.048	24.076	-8191	255	
723.359	1	1	0	0	0.25535	0.38781	0.15403	0.27694	0.35761	0.080201	0.29019	0.19018	0.061039	0.061746	0.13153	0.29316	0.19995	0.08839	0.24784	0.20861	-2.4688	-2.2875	-2.7417	-2.7771	-2.3854	-2.7167	-2.575	-2.4167	-2.7542	-2.475	-2.7604	-2.6292	-2.3438	-3.0333	-2.5187	-2.7938	338.202	75.749	25.252	326.471	158.019	41.090	238.874	259.915	208.625	219.088	109.570	21.348	301.712	320.618	236.469	84.913	0.00013572	0.0003801	0.00023006	1189.5	3.3061e-06	3.9831e-06	1286.6	249.88	3.9533e-06	1.4182e-06	311.84	84.27	66.328	19.78	6.5279e-06	27.171	0.00060856	0.00068346	0.00018874	1172.9	7.2918e-06	7.0434e-06	1266.1	248.67	6.8291e-06	7.0497e-06	310.44	85.512	67.526	20.208	7.2068e-06	27.758	192.946	139.402	73.334	3.554	194.818	141.807	3.783	10.926	200.772	94.496	10.906	17.764	18.113	24.574	208.167	24.333	-8191	255	
723.455	1	1	0	0	0.25351	0.12226	0.071184	0.16914	0.054166	0.2593	0.44317	0.17529	0.13483	0.16809	0.10958	0.11154	0.16738	0.14087	0.22264	0.14487	-2.5854	-2.1958	-2.6667	-2.9833	-2.2708	-2.85	-2.5187	-2.4146	-2.875	-2.4688	-2.7375	-2.575	-2.2667	-2.6583	-2.6771	-2.5167	264.875	210.043	208.328	301.734	336.407	79.688	228.468	318.787	276.028	192.139	24.191	72.745	325.869	309.684	211.166	19.233	0.00010863	0.00018571	0.00022821	1191.2	4.1793e-06	1.6322e-06	1293.3	249.5	1.5963e-06	6.8736e-06	311.8	85.173	66.276	19.793	4.1607e-06	27.419	0.00058037	0.00066185	0.00018647	1173.8	7.3394e-06	7.1968e-06	1272.1	248.86	7.2483e-06	7.4266e-06	311.96	86.127	67.651	20.281	7.5435e-06	28.01	209.616	141.809	54.168	3.286	212.724	34.395	3.712	11.058	151.433	149.119	10.728	17.354	17.847	24.420	172.032	24.071	-8191	255	
723.576	1	1	0	0	0.18164	0.17102	0.18006	0.3093	0.28032	0.16531	0.14966	0.15759	0.12558	0.072455	0.080695	0.14746	0.1865	0.26033	0.026769	0.14736	-2.1833	-2.4146	-2.7562	-2.7438	-2.1792	-2.7625	-2.7062	-2.2833	-2.9542	-2.475	-2.5854	-2.7375	-2.5438	-2.8521	-2.5938	-2.6458	100.372	297.184	192.233	220.771	191.619	218.736	289.756	274.111	227.364	239.859	310.106	59.685	270.061	122.518	0.976	56.241	0.00010946	0.0003559	7.7595e-05	1199.8	4.0288e-06	3.2248e-06	1295.4	251.14	1.8007e-06	2.307e-06	313.7	84.449	66.543	19.851	4.3239e-06	27.246	0.00061213	0.00070444	0.00019573	1179.3	7.5533e-06	7.7511e-06	1275.7	250.68	7.5538e-06	7.5071e-06	313.18	85.995	67.85	20.317	7.1902e-06	27.902	203.017	346.561	104.868	3.333	189.372	161.543	3.887	10.898	207.518	110.262	10.909	17.863	18.235	24.231	134.412	24.114	-8191	255	
723.672	1	1	0	0	0.20887	0.17395	0.11722	0.34067	0.20119	0.19229	0.12706	0.33323	0.27092	0.015443	0.14142	0.18206	0.19284	0.20844	0.11647	0.040249	-2.1271	-2.4167	-2.5604	-2.9667	-2.4146	-2.9167	-2.9188	-2.4479	-2.8	-2.4292	-2.8396	-2.8042	-2.3771	-2.6875	-2.6792	-2.5187	29.605	-0.588	78.187	266.314	10.893	207.024	12.720	328.902	3.344	267.771	310.577	-5.312	32.121	309.357	340.411	262.129	0.00015385	0.0001265	0.00017423	1192.8	1.614e-06	6.7024e-06	1291	249.15	2.9958e-06	4.8287e-06	311.25	84.601	66.273	19.619	2.0575e-06	27.094	0.00058624	0.00066349	0.00018236	1175.7	7.14e-06	7.2152e-06	1272.8	249.65	7.2333e-06	7.2778e-06	311.38	85.844	67.507	20.204	7.3602e-06	27.852	199.634	127.967	118.568	3.295	73.329	169.181	3.726	10.928	224.862	153.326	10.872	17.821	18.196	24.433	147.813	24.219	-8191	255	
723.768	1	1	0	0	0.048389	0.069156	0.27291	0.11812	0.19938	0.20654	0.26571	0.16556	0.26135	0.24803	0.037867	0.16953	0.1861	0.1499	0.0732	0.19212	-2.2208	-2.525	-2.5438	-3.0896	-2.475	-2.6292	-2.7479	-2.4917	-2.9542	-2.6437	-2.5833	-2.9979	-2.3563	-2.5167	-2.7521	-2.3	105.455	211.976	100.660	315.913	171.797	193.180	299.749	6.741	0.550	175.179	295.964	6.005	65.106	253.919	47.333	308.869	0.00014224	0.00030648	6.5984e-05	1192.3	4.3406e-06	6.1864e-06	1294.8	250.22	2.7201e-06	2.5656e-06	310.75	84.688	66.271	19.72	4.1817e-06	27.267	0.0005929	0.00069259	0.00019411	1175.2	7.5998e-06	7.5485e-06	1272.7	249.73	7.4708e-06	7.4861e-06	311.2	85.841	67.458	20.221	7.4098e-06	27.788	190.851	5.210	158.245	3.520	112.699	95.946	3.645	10.634	242.793	198.668	10.754	17.659	18.193	23.880	222.789	23.528	-8191	255	
723.864	1	1	0	0	0.26538	0.13993	0.20655	0.30776	0.23231	0.22174	0.2381	0.18147	0.12444	0.046987	0.22464	0.27277	0.15969	0.048918	0.29576	0.2022	-2.3333	-2.7521	-2.3125	-3.0875	-2.5062	-2.5375	-2.8563	-2.4562	-2.6271	-2.5625	-2.3563	-2.7875	-2.5187	-2.4646	-2.8396	-2.4188	253.581	310.976	104.767	293.506	160.154	208.540	319.748	-4.788	270.904	18.872	314.593	209.317	261.187	110.900	322.081	297.672	7.9547e-05	0.00035917	0.00014815	1194.5	5.2117e-06	6.1095e-06	1295.4	249.53	4.2148e-06	1.1647e-06	312.61	84.312	66.148	19.658	4.1523e-06	27.139	0.00059784	0.00068097	0.00018815	1175	7.4083e-06	7.6168e-06	1269.6	248.85	7.2735e-06	7.4381e-06	311.22	85.6	67.393	20.2	7.287e-06	27.753	171.048	29.451	79.190	3.392	164.492	163.794	3.705	10.925	188.282	345.595	10.397	17.593	18.215	24.757	253.934	23.837	-8191	255	
723.961	1	1	0	0	0.1091	0.33964	0.34951	0.28592	0.22905	0.036911	0.26082	0.14926	0.27841	0.0318	0.08886	0.17462	0.22489	0.022953	0.1674	0.26041	-2.2896	-2.575	-2.5458	-2.95	-2.5771	-2.5375	-2.9125	-2.3646	-2.7125	-2.8083	-2.3771	-2.875	-2.6188	-2.6167	-2.9042	-2.5479	95.216	317.361	20.751	339.812	256.048	164.325	293.809	166.796	199.381	93.699	83.252	30.910	239.173	187.544	98.837	330.991	0.00012038	0.00013617	0.00014667	1192.1	4.5745e-06	2.4021e-06	1290.5	248.85	6.9452e-06	3.5086e-06	310.25	84.076	66.055	19.452	3.9886e-06	27.029	0.00058407	0.00066777	0.00018848	1172.2	7.3566e-06	7.3123e-06	1265.7	248.41	7.2966e-06	7.2639e-06	309.96	85.5	67.153	20.003	6.9761e-06	27.642	182.178	319.338	93.343	3.413	197.246	176.479	3.662	10.938	186.329	121.891	10.694	17.556	18.189	24.289	165.633	24.038	-8191	255	
724.057	1	1	0	0	0.2467	0.19748	0.32662	0.13208	0.15517	0.097398	0.18009	0.2734	0.089944	0.015656	0.14768	0.04731	0.12262	0.079656	0.10944	0.082997	-2.0771	-2.6333	-2.3542	-2.85	-2.6896	-2.5917	-3.025	-2.5229	-2.7708	-2.8354	-2.4938	-2.7208	-2.7104	-2.5542	-3.0146	-2.4833	340.849	61.653	147.036	329.927	314.752	320.179	352.123	257.347	23.295	135.523	351.570	310.394	228.335	160.055	346.006	30.212	0.00013079	0.0004057	7.8247e-05	1187.3	6.1394e-06	2.539e-06	1279.7	248.16	9.7891e-07	5.3625e-06	310.09	84.09	65.93	19.601	3.1791e-06	27.058	0.00058204	0.00065351	0.00017814	1167.4	6.952e-06	7.0862e-06	1263.6	247.47	7.0097e-06	6.9151e-06	308.72	85.196	67.16	20.075	7.0054e-06	27.715	210.013	91.468	325.087	3.376	256.997	163.344	3.752	10.887	240.773	166.183	10.443	17.482	18.222	24.154	112.332	24.045	-8191	255	
724.153	1	1	0	0	0.24903	0.36825	0.18622	0.34706	0.066647	0.2034	0.29516	0.19356	0.27156	0.47232	0.2177	0.11041	0.16344	0.17292	0.088674	0.022508	-2.1646	-2.675	-2.4417	-2.8833	-2.6688	-2.3729	-3.1833	-2.5958	-2.6396	-2.8854	-2.2938	-2.7958	-2.6208	-2.325	-2.9167	-2.6229	43.170	5.786	202.599	325.666	90.961	146.622	315.886	256.383	338.499	142.176	315.199	280.539	8.131	177.684	295.819	315.041	0.00017759	0.00029527	9.3757e-05	1190.4	1.6163e-06	5.0271e-06	1285	249	2.087e-06	5.2024e-06	308.76	84.146	65.997	19.543	3.8907e-06	27.252	0.00058469	0.0006638	0.00018383	1171.3	7.2085e-06	7.1367e-06	1264.9	247.97	7.1122e-06	7.2608e-06	309.47	85.29	67.169	20.112	7.0924e-06	27.734	207.844	157.865	96.644	3.453	100.411	172.500	3.788	10.870	164.249	170.102	10.903	17.819	17.679	24.352	155.441	24.081	-8191	255	
724.272	1	1	0	0	0.034744	0.16389	0.23395	0.12927	0.19445	0.25785	0.34033	0.33632	0.1106	0.075651	0.15612	0.1286	0.13605	0.10976	0.17023	0.34149	-2.3479	-2.6729	-2.4875	-3.0187	-2.7562	-2.425	-3.0104	-2.6979	-2.5563	-2.8104	-2.425	-2.7146	-2.9042	-2.5646	-2.8167	-2.4042	187.372	57.515	260.794	345.704	297.980	51.944	342.815	338.092	248.632	59.160	53.869	23.499	296.069	283.830	275.712	61.719	0.00014598	0.00025259	2.5272e-05	1186.4	3.5312e-06	2.0622e-06	1279.8	248.43	3.082e-06	2.058e-06	310.22	83.707	66.241	19.527	3.8947e-06	27.001	0.00058345	0.00065657	0.00018076	1168.3	7.0218e-06	7.1687e-06	1262.7	247.83	7.082e-06	6.9909e-06	309.39	85.058	67.161	20.037	6.8446e-06	27.637	204.408	122.818	284.947	3.215	161.125	125.646	3.838	10.986	256.004	10.797	10.602	17.713	18.267	24.553	210.891	24.006	-8191	255	
724.368	1	1	0	0	0.095812	0.11634	0.14983	0.17455	0.15622	0.28233	0.24454	0.28564	0.092222	0.053752	0.08804	0.28125	0.069532	0.14958	0.10343	0.1473	-2.05	-2.8021	-2.4333	-2.8187	-2.7833	-2.4188	-2.8875	-2.725	-2.4208	-2.7958	-2.5625	-2.5417	-2.7104	-2.3125	-2.8917	-2.6688	345.403	199.079	100.158	316.595	157.768	140.592	243.133	262.646	107.009	-2.100	204.771	60.600	8.953	221.766	180.710	118.971	0.00016086	0.0006583	0.00011952	1186	3.7448e-06	1.5939e-06	1282.5	248.49	1.5061e-06	7.0652e-06	307.47	84.015	65.421	19.491	3.5893e-06	27.037	0.000562	0.00063024	0.00017932	1167.7	6.8365e-06	7.0167e-06	1262.3	247.33	6.8574e-06	6.87e-06	308.58	85.069	66.694	19.98	6.7842e-06	27.562	200.103	102.808	45.448	3.534	154.224	227.401	3.939	11.132	127.440	179.128	10.559	17.458	18.166	24.443	135.727	23.957	-8191	255	
724.464	1	1	0	0	0.11969	0.11044	0.17004	0.28015	0.30305	0.094206	0.28593	0.20338	0.18084	0.18355	0.073341	0.24784	0.16297	0.21688	0.11052	0.19858	-1.9708	-2.7313	-2.4958	-2.6167	-2.85	-2.2896	-2.8625	-2.9021	-2.6562	-2.8	-2.6292	-2.3583	-2.8917	-2.45	-2.7208	-2.925	192.720	327.828	102.716	311.947	4.504	19.175	16.726	31.572	158.683	54.933	233.437	225.521	192.223	316.478	126.174	320.084	0.00017626	0.0004085	0.00016206	1178.1	4.6903e-06	3.8198e-06	1285	248.56	1.5322e-06	1.3123e-06	308.48	83.626	65.385	19.421	3.7235e-06	26.843	0.00055703	0.00063141	0.00017689	1165.1	6.7349e-06	6.7911e-06	1261.3	247.06	6.7735e-06	6.796e-06	308.15	85.033	66.555	19.994	6.7698e-06	27.546	204.935	110.375	58.511	3.426	181.345	176.798	3.685	10.829	310.575	149.644	10.765	17.708	18.465	24.418	122.852	24.459	-8191	255	
724.560	1	1	0	0	0.26245	0.076701	0.0887	0.12852	0.03179	0.10395	0.20575	0.20908	0.12405	0.075415	0.19984	0.22503	0.15249	0.16156	0.45069	0.073196	-1.9896	-2.9042	-2.4167	-2.6042	-2.8854	-2.5896	-2.7583	-2.7375	-2.3375	-2.7812	-2.6604	-2.625	-2.9417	-2.4917	-2.6083	-2.7667	152.732	86.755	13.305	315.437	344.115	239.954	37.110	247.800	113.934	64.954	206.699	255.889	256.110	292.520	216.869	56.095	0.00013904	0.0004463	5.1209e-05	1183.8	3.96e-06	3.8911e-06	1283.7	247.19	1.0243e-06	6.0161e-06	308.69	83.576	65.794	19.566	1.5625e-06	26.886	0.00055197	0.00061356	0.00017255	1164.3	6.7688e-06	6.727e-06	1263.4	246.9	6.5798e-06	6.841e-06	308.42	85.055	66.823	20.007	6.5447e-06	27.563	210.714	89.320	226.635	3.429	169.263	144.659	4.044	11.158	330.299	154.192	10.704	17.642	18.280	24.446	144.637	23.909	-8191	255	
724.655	1	1	0	0	0.090365	0.046984	0.15548	0.04879	0.083897	0.16333	0.20521	0.33105	0.18533	0.054676	0.19365	0.07497	0.12398	0.13763	0.20092	0.13032	-2.1063	-2.7917	-2.5812	-2.5479	-2.8458	-2.5062	-2.6771	-2.7562	-2.4104	-2.6604	-2.6292	-2.4583	-2.8125	-2.5	-2.6146	-2.6417	-6.473	11.415	272.583	-4.452	209.676	137.601	293.270	43.803	227.994	55.090	64.061	22.111	40.434	80.999	248.114	22.461	0.00014833	6.7364e-05	0.00011845	1176.5	2.0045e-06	3.8252e-06	1276.5	247.62	1.5186e-06	3.3569e-06	307.63	83.278	65.522	19.549	8.4637e-07	26.78	0.00053225	0.00060418	0.00016464	1162.3	6.2724e-06	6.3749e-06	1256	246.46	6.1124e-06	6.1463e-06	307.44	84.485	66.362	19.894	6.2032e-06	27.417	201.235	103.119	70.239	3.248	204.316	131.165	3.808	11.027	239.953	117.888	10.414	17.981	18.513	24.680	188.038	24.131	-8191	255	
724.751	1	1	0	0	0.061652	0.14187	0.048101	0.26939	0.10793	0.31183	0.10827	0.12602	0.17247	0.20832	0.12514	0.157	0.17638	0.28718	0.15958	0.11466	-2.0438	-2.6417	-2.6292	-2.7333	-2.7875	-2.6417	-2.9271	-2.9333	-2.5	-2.7729	-2.6354	-2.3771	-2.9646	-2.7438	-2.4833	-2.8417	295.479	41.840	149.749	254.082	318.452	183.312	326.550	144.073	221.781	141.813	21.930	139.930	309.877	331.753	30.135	85.805	0.00015776	0.00028121	0.00016742	1183.6	4.341e-06	1.663e-06	1281.7	246.95	8.1884e-07	4.9916e-07	308.58	83.865	65.799	19.424	6.1347e-07	26.83	0.00051878	0.0005836	0.0001601	1165.7	6.4533e-06	6.6801e-06	1260.8	246.29	6.6023e-06	6.7662e-06	308.17	85.065	66.966	19.917	6.8712e-06	27.481	205.394	104.171	35.638	3.504	215.362	30.061	3.815	11.119	291.923	69.807	10.583	17.501	17.975	24.646	40.173	24.315	-8191	255	
724.871	1	1	0	0	0.093557	0.20525	0.28549	0.10625	0.3072	0.11337	0.22345	0.042337	0.23565	0.24883	0.20985	0.29736	0.34161	0.13796	0.10837	0.22207	-2.0604	-2.7333	-2.8396	-2.4375	-2.6854	-2.8167	-2.4271	-2.9417	-2.5292	-2.4833	-3.0083	-2.55	-2.8187	-2.6833	-2.425	-2.8333	36.985	223.786	95.144	247.704	143.463	232.052	282.700	9.791	28.623	122.306	325.241	344.297	260.075	-3.944	182.860	264.686	0.0001472	0.00063713	0.00012122	1178.8	2.4176e-06	3.2261e-06	1280.3	249.06	2.854e-06	6.8934e-06	309.39	83.802	66.115	19.611	5.6874e-06	27.185	0.00057573	0.00064317	0.00018256	1165.4	7.3647e-06	7.6168e-06	1262.3	247.85	7.8284e-06	7.9544e-06	309.99	85.486	67.487	20.224	8.093e-06	27.866	214.897	20.887	92.288	3.473	192.451	10.931	3.636	10.699	217.070	190.954	10.905	17.359	18.150	24.712	104.222	24.123	-8191	255	
724.968	1	1	0	0	0.10508	0.10596	0.37193	0.11051	0.21569	0.24092	0.11165	0.25107	0.058614	0.11857	0.26362	0.17102	0.22131	0.13964	0.079781	0.13471	-2.025	-2.575	-2.6625	-2.5812	-2.6229	-2.8083	-2.5375	-3.0271	-2.4375	-2.4396	-2.8792	-2.4896	-2.7833	-2.525	-2.3125	-2.7479	-3.963	195.582	73.091	3.067	247.657	61.528	298.404	287.036	196.540	13.779	322.199	300.653	153.644	86.414	108.680	79.646	0.00015836	0.00052072	0.00012794	1187	2.8721e-06	3.7532e-06	1283.3	248.48	2.5482e-06	5.3489e-06	310.14	83.953	65.98	19.547	5.9903e-06	26.938	0.00064481	0.00074601	0.00020266	1172.5	7.8245e-06	7.816e-06	1267.6	248.09	7.4655e-06	7.5292e-06	309.51	85.537	67.219	20.134	7.0978e-06	27.647	209.361	63.066	159.857	3.465	234.034	233.354	3.794	10.796	301.266	150.937	10.459	17.626	17.999	24.415	156.835	23.826	-8191	255	
725.064	1	1	0	0	0.32754	0.17134	0.33056	0.23405	0.085102	0.21425	0.12814	0.32126	0.10066	0.25517	0.21652	0.22857	0.17207	0.36249	0.1927	0.02301	-2.125	-2.1104	-2.8167	-2.4479	-2.6813	-2.7083	-2.4729	-2.7104	-2.6083	-2.4958	-2.8208	-2.5146	-2.6188	-2.9125	-2.3542	-2.7125	105.449	326.990	213.280	339.219	255.505	54.461	281.603	314.340	25.418	320.516	-3.587	215.652	161.587	5.201	290.814	175.783	0.00013664	0.00042193	0.0001206	1187.2	2.8206e-06	1.9388e-06	1282.8	247.91	4.1443e-06	4.4518e-06	309.63	83.358	65.818	19.561	2.3455e-06	26.79	0.00056285	0.00064379	0.00017468	1169.4	6.8931e-06	6.7183e-06	1263.6	247.41	6.5224e-06	6.6168e-06	308.85	84.723	66.636	20.003	6.4337e-06	27.495	201.922	78.434	96.239	3.287	225.302	207.589	3.694	11.248	164.831	143.316	10.716	17.631	18.133	24.656	135.044	24.088	-8191	255	
725.160	1	1	0	0	0.19159	0.1297	0.10863	0.10898	0.15043	0.32109	0.19532	0.13066	0.2152	0.11032	0.13957	0.036862	0.12741	0.36459	0.26058	0.20999	-2.25	-2.5687	-2.7729	-2.5521	-2.675	-2.7104	-2.7833	-2.7687	-2.6021	-2.3167	-2.9062	-2.5854	-2.5583	-2.9292	-2.2792	-2.6958	316.227	244.491	143.618	303.701	264.013	255.502	139.207	60.936	305.048	324.631	10.979	163.334	336.636	311.706	48.514	159.619	0.00013673	0.00016635	0.00013944	1182.3	1.8851e-06	4.2496e-07	1277.6	246.57	2.228e-06	5.7254e-07	308.69	84.04	65.983	19.499	2.2156e-06	27.133	0.00052168	0.000598	0.00016648	1163.2	6.5451e-06	6.5513e-06	1257.8	246.08	6.5965e-06	6.5992e-06	307.77	84.968	66.717	19.998	6.699e-06	27.557	202.487	333.121	29.175	3.309	167.393	321.741	3.907	11.034	141.326	145.988	10.663	17.564	18.050	24.382	189.427	23.850	-8191	255	
725.256	1	1	0	0	0.22448	0.121	0.054733	0.12261	0.15121	0.059045	0.21089	0.16815	0.086568	0.14947	0.066498	0.17682	0.077473	0.22832	0.38848	0.21609	-2.0979	-2.3479	-2.8688	-2.6583	-2.6375	-2.8896	-2.6917	-2.7938	-2.8917	-2.5583	-2.9167	-2.5479	-2.4583	-2.8312	-2.375	-2.6104	169.380	77.409	299.019	276.907	157.323	313.020	293.940	13.603	209.675	170.246	264.416	8.020	347.240	1.870	340.104	303.619	0.00015194	0.00054045	8.9515e-05	1177.4	1.9851e-06	1.0194e-06	1277.4	246.61	5.072e-06	3.4878e-06	307.34	83.443	65.286	19.52	1.4223e-06	26.821	0.00054311	0.00060834	0.0001678	1162.9	6.6134e-06	6.2742e-06	1259.8	246.48	6.3118e-06	6.227e-06	307.17	84.499	66.395	19.896	6.0048e-06	27.398	204.273	77.141	62.968	3.452	163.364	64.124	3.828	11.019	181.814	168.932	10.834	17.742	17.971	24.594	140.872	24.040	-8191	255	
725.352	1	1	0	0	0.20599	0.25939	0.079521	0.41875	0.13157	0.30164	0.19437	0.14731	0.27477	0.16975	0.42088	0.26259	0.16156	0.11812	0.15488	0.19216	-2.2646	-2.2104	-2.9208	-2.6063	-2.4583	-2.7875	-2.6542	-2.8896	-2.7833	-2.4188	-2.8354	-2.8042	-2.35	-2.6667	-2.3146	-2.575	100.531	168.057	223.965	303.361	-2.182	2.168	319.498	159.834	-4.903	38.214	351.472	253.527	8.804	222.183	339.945	106.406	0.00013555	0.0003969	1.5402e-05	1184.5	4.2813e-06	5.3713e-06	1279.7	246.16	4.4994e-06	2.7448e-06	307.09	83.084	66.012	19.311	4.2854e-06	26.886	0.00048869	0.00055368	0.00015702	1164.5	5.9902e-06	5.9719e-06	1257.2	245.2	5.9981e-06	6.0536e-06	307.2	84.477	66.558	19.831	5.8063e-06	27.401	206.171	107.752	5.030	3.433	250.471	153.707	3.882	10.741	212.343	197.800	10.771	17.486	17.969	24.448	128.846	23.975	-8191	255	
725.448	1	1	0	0	0.039765	0.21341	0.2233	0.41201	0.090901	0.097586	0.12868	0.21965	0.10679	0.1469	0.22306	0.27003	0.13051	0.07492	0.23698	0.26602	-2.2833	-2.2104	-2.7687	-2.925	-2.6125	-2.8083	-2.6	-2.6208	-2.975	-2.4188	-2.6417	-2.7729	-2.4646	-2.8125	-2.5042	-2.5979	274.104	209.882	183.450	349.295	315.384	302.665	2.965	325.821	280.419	119.829	11.483	280.627	5.637	66.094	313.819	18.494	0.00015201	0.00042456	4.4599e-05	1177.6	3.782e-06	2.121e-06	1276	247	1.2762e-06	4.6211e-06	306.44	83.603	65.459	19.33	1.8824e-06	26.854	0.00048434	0.00054413	0.00015014	1159.4	5.9633e-06	5.9825e-06	1254.1	245.44	6.1318e-06	6.0839e-06	306.41	84.548	66.27	19.826	6.1381e-06	27.418	212.593	73.275	93.798	3.385	166.323	210.578	3.790	11.177	291.483	130.977	10.454	17.691	18.317	24.214	342.542	24.083	-8191	255	
725.544	1	1	0	0	0.13045	0.20182	0.14112	0.39812	0.16319	0.2575	0.16137	0.21783	0.16643	0.017807	0.21782	0.15644	0.26159	0.090494	0.077799	0.21467	-2.4188	-2.1542	-2.8083	-2.6583	-2.3208	-2.8438	-2.5229	-2.6	-2.7958	-2.4792	-2.7833	-2.8083	-2.5312	-2.8688	-2.6771	-2.4271	345.623	200.374	92.720	340.364	188.625	55.773	9.003	342.344	120.683	195.711	277.607	14.067	258.066	16.748	153.728	310.610	0.0001758	0.00042988	0.00010179	1173.7	3.033e-06	2.792e-06	1274.4	245.76	4.6936e-06	3.3326e-06	307.41	83.642	65.391	19.261	1.1851e-06	26.991	0.00050237	0.00056019	0.00016004	1159.4	6.1136e-06	6.2209e-06	1253.1	244.98	6.3368e-06	6.379e-06	307.36	84.47	66.456	19.866	6.3567e-06	27.467	193.770	135.802	98.578	3.394	154.007	182.395	3.764	11.189	178.159	118.812	10.885	17.956	18.233	24.675	141.034	24.544	-8191	255	
725.663	1	1	0	0	0.32281	0.19719	0.027304	0.18222	0.084292	0.082505	0.12789	0.21266	0.14213	0.39438	0.13133	0.3195	0.13478	0.32756	0.10366	0.31053	-2.225	-2.3458	-2.5229	-2.7833	-2.4062	-2.8375	-2.7854	-2.4437	-2.8792	-2.4437	-2.5375	-2.7	-2.4104	-2.8104	-2.7062	-2.4667	98.460	322.296	100.430	249.925	29.578	23.855	232.897	249.826	93.015	203.340	95.155	30.544	65.111	315.957	291.981	43.742	0.00015819	0.00066343	0.00014566	1175.8	4.5143e-06	3.355e-06	1275	246.01	3.1267e-06	1.3773e-06	306.89	83.358	65.612	19.427	5.3184e-06	26.722	0.00052634	0.00059632	0.00016592	1158.7	6.3602e-06	6.3624e-06	1253.7	245.47	6.1853e-06	6.2596e-06	307.06	84.516	66.538	19.874	6.2263e-06	27.395	197.413	80.945	107.915	3.459	169.680	147.192	3.647	11.172	181.950	54.922	10.355	17.520	18.338	24.353	201.659	24.057	-8191	255	
725.759	1	1	0	0	0.20498	0.073327	0.10072	0.1578	0.15909	0.18422	0.13109	0.11378	0.20732	0.21348	0.23397	0.24945	0.086957	0.093558	0.22022	0.2801	-2.3604	-2.5396	-2.5708	-2.95	-2.4396	-2.8063	-2.8438	-2.5271	-2.8333	-2.5979	-2.4333	-2.9667	-2.4125	-2.425	-2.6833	-2.3354	116.372	233.308	300.536	299.220	195.789	137.232	251.984	120.769	86.732	328.292	307.188	306.874	46.874	113.518	172.127	299.989	0.00017172	0.00022765	6.6811e-05	1179.8	3.2002e-06	2.2318e-06	1275	247.24	2.5585e-06	3.464e-06	308.39	83.487	65.995	19.347	3.43e-06	27.149	0.00051283	0.00057157	0.00016029	1162.3	6.4244e-06	6.4108e-06	1257.5	246.04	6.2813e-06	6.3155e-06	307.07	84.656	66.628	19.933	6.4755e-06	27.557	197.827	37.971	118.276	3.319	160.701	78.519	3.559	11.039	185.333	124.581	10.519	17.605	18.219	24.529	91.086	23.903	-8191	255	
725.831	1	1	0	0	0.17116	0.26264	0.096439	0.23041	0.32929	0.13135	0.29331	0.11111	0.088994	0.033003	0.093458	0.15737	0.36005	0.26366	0.16386	0.091781	-2.2042	-2.4833	-2.4333	-2.9875	-2.2354	-2.7208	-2.875	-2.4062	-2.9146	-2.725	-2.5083	-2.8875	-2.3417	-2.5792	-2.8604	-2.1729	204.571	130.539	85.819	284.466	214.642	283.747	255.695	211.266	-0.902	240.517	182.047	133.949	34.396	288.542	346.410	334.176	0.00012736	0.00051177	0.00012614	1183	6.3209e-06	2.0588e-06	1280.9	247.53	1.2193e-06	4.4897e-06	308.68	84.019	66.376	19.528	2.7781e-06	27.171	0.00054745	0.00061565	0.00017421	1166.4	7.0479e-06	7.2842e-06	1261.5	247.33	7.2281e-06	7.2404e-06	308.93	85.307	67.282	20.128	7.2852e-06	27.731	187.590	84.815	110.456	3.349	167.145	160.613	3.761	10.690	213.983	110.028	10.346	17.123	18.051	24.115	150.881	24.095	-8191	255	
725.952	1	1	0	0	0.17028	0.17324	0.0096608	0.11043	0.29691	0.20924	0.29815	0.11808	0.062946	0.36301	0.18124	0.082624	0.2893	0.26157	0.10583	0.1432	-2.2271	-2.3542	-2.3896	-2.8458	-2.4813	-2.5167	-2.8896	-2.5	-2.6458	-2.6854	-2.6063	-2.6042	-2.475	-2.3333	-2.8333	-2.3167	337.644	10.976	130.921	246.237	296.315	13.061	5.041	263.749	278.863	169.276	308.095	137.396	299.375	113.936	103.201	184.945	0.00013334	0.00023602	6.4906e-05	1182.6	3.6168e-06	1.1202e-06	1280.6	248.29	2.4e-06	4.7617e-06	309.08	83.578	65.993	19.481	3.0203e-06	26.793	0.00060321	0.00068167	0.00018998	1167.1	7.3948e-06	7.3959e-06	1262.8	247.95	7.1785e-06	7.1967e-06	308.58	84.921	67.05	20.027	6.6782e-06	27.55	213.151	51.279	9.471	3.472	217.091	48.166	3.702	10.766	183.029	98.206	10.659	17.408	18.146	24.334	203.767	24.361	-8191	255	
726.048	1	1	0	0	0.05376	0.13375	0.17179	0.31209	0.27973	0.23864	0.066544	0.10266	0.088239	0.14514	0.10652	0.098623	0.13352	0.054481	0.10892	0.17001	-2.2354	-2.5854	-2.2104	-2.7854	-2.5563	-2.4562	-2.9875	-2.375	-2.7083	-2.6271	-2.2146	-2.7438	-2.6	-2.4	-2.7354	-2.3625	291.798	65.018	208.541	305.620	53.351	264.571	308.274	327.993	326.458	154.871	49.586	240.327	336.923	271.493	32.238	144.707	0.00014006	0.00093066	4.1054e-05	1185	1.6441e-06	2.0339e-06	1278.4	247.88	4.7875e-07	4.7726e-06	308.52	83.845	65.905	19.519	3.0737e-06	27.053	0.00054207	0.00062511	0.0001758	1166.3	6.7486e-06	6.8483e-06	1259.9	247.2	6.8641e-06	6.8357e-06	308.94	85.146	66.831	20.069	6.7058e-06	27.632	206.976	85.846	50.358	3.489	219.833	136.373	3.572	10.991	329.140	131.071	10.867	17.706	17.953	24.670	143.900	24.440	-8191	255	
726.144	1	1	0	0	0.18827	0.22583	0.32235	0.091042	0.25493	0.20194	0.14534	0.23436	0.087009	0.31698	0.11606	0.15736	0.24708	0.15227	0.045533	0.089603	-2.1771	-2.7521	-2.2188	-2.9979	-2.5479	-2.3458	-3.0771	-2.6646	-2.325	-2.6729	-2.4062	-2.7021	-2.7396	-2.4458	-2.7667	-2.4458	1.698	336.465	235.668	247.247	237.152	124.146	-0.109	-0.700	186.050	228.444	23.379	346.483	81.923	207.684	214.080	199.448	0.0001376	0.00045469	2.3962e-05	1188.1	3.8928e-06	1.3725e-06	1279.6	248.12	4.0292e-06	7.1644e-07	309.42	83.756	65.785	19.591	4.3427e-06	27.132	0.00056922	0.00063637	0.00017949	1169.3	7.1145e-06	7.3208e-06	1264	247.57	7.4142e-06	7.4117e-06	309.07	85.368	67.171	20.117	7.4145e-06	27.729	225.650	55.107	145.583	3.453	117.938	68.337	3.928	10.939	186.123	265.510	10.780	17.554	17.838	24.899	162.095	24.071	-8191	255	
726.265	1	1	0	0	0.08474	0.35284	0.19279	0.21913	0.26814	0.27736	0.33857	0.15029	0.19536	0.25332	0.14024	0.20158	0.20877	0.21179	0.19134	0.069104	-1.9021	-2.8479	-2.2313	-2.7521	-2.6042	-2.6125	-2.65	-2.7229	-2.3083	-2.7958	-2.3438	-2.8125	-2.5729	-2.4062	-2.6729	-2.6542	198.891	127.045	168.994	352.423	109.297	233.086	214.757	27.993	236.151	208.664	336.464	105.667	12.795	19.949	46.621	185.663	8.8349e-05	0.00042358	0.00021437	1181.5	4.518e-06	8.3269e-06	1279.2	248.71	3.3329e-06	3.1666e-06	309.45	83.97	65.182	19.632	1.5518e-06	27.163	0.00059949	0.00066757	0.0001914	1166.9	7.278e-06	7.1491e-06	1261.4	247.05	7.2034e-06	7.044e-06	308.2	85.026	66.713	20.024	6.8825e-06	27.538	208.591	96.620	45.124	3.378	162.939	109.897	3.782	10.959	197.524	193.095	10.942	17.633	18.305	24.606	273.309	24.362	-8191	255	
726.361	1	1	0	0	0.10892	0.13042	0.13117	0.2314	0.14032	0.14003	0.41066	0.25566	0.16341	0.25243	0.15429	0.28633	0.32809	0.26324	0.27019	0.24361	-1.8229	-2.7604	-2.1312	-2.7208	-2.8542	-2.4271	-3.0167	-2.6104	-2.5167	-2.8229	-2.6	-2.4125	-2.6771	-2.1875	-2.8042	-2.5583	138.955	152.422	65.796	279.933	231.723	208.963	313.806	311.349	62.900	328.636	253.852	13.761	13.054	3.258	181.360	22.094	0.00016527	0.00031517	0.00016723	1183.9	4.0137e-06	6.1943e-06	1277.4	248.27	2.7485e-06	4.5955e-06	309.78	83.708	65.589	19.521	2.8916e-06	27.037	0.00056403	0.000632	0.00018283	1165.3	7.0268e-06	7.0718e-06	1258.7	246.79	7.0639e-06	7.1819e-06	308.76	85.079	66.817	20.087	7.1735e-06	27.618	201.880	149.119	83.055	3.377	170.015	157.551	3.820	10.733	145.722	184.571	10.771	17.516	18.406	24.517	78.314	24.240	-8191	255	
726.455	1	1	0	0	0.11747	0.08079	0.34553	0.36932	0.034534	0.28745	0.22611	0.15039	0.16325	0.11406	0.15296	0.038592	0.23161	0.097895	0.027156	0.20681	-2.0833	-2.7438	-2.4583	-2.6417	-2.9021	-2.1833	-2.8875	-2.7625	-2.4896	-2.9688	-2.65	-2.4437	-2.7167	-2.1979	-2.7375	-2.8167	259.514	335.511	26.845	315.487	341.573	199.457	274.508	74.659	314.912	131.937	349.146	44.544	110.174	246.140	100.380	277.225	0.00012653	0.00038251	7.278e-05	1184.4	4.0576e-06	3.9359e-06	1283.3	246.39	3.1647e-06	6.4734e-06	307.4	84.059	65.697	19.572	4.6608e-06	26.896	0.00058965	0.00067097	0.00019029	1167.8	7.3127e-06	7.3313e-06	1261.9	246.87	7.1529e-06	7.1782e-06	308.04	84.949	66.811	20.066	7.1218e-06	27.585	202.580	119.570	62.926	3.547	152.499	156.844	3.747	10.685	156.972	175.077	10.346	17.829	17.926	24.530	78.621	23.978	-8191	255	
726.551	1	1	0	0	0.18574	0.21421	0.31347	0.10636	0.12879	0.038885	0.10595	0.13059	0.20248	0.12527	0.41417	0.20563	0.094198	0.18404	0.17928	0.32225	-1.9354	-2.8063	-2.5083	-2.7146	-2.5792	-2.3521	-2.7188	-2.8146	-2.4688	-2.825	-2.6021	-2.4458	-2.8104	-2.3896	-2.6979	-2.7521	52.139	300.918	123.671	32.376	333.928	70.325	212.532	202.019	0.594	232.561	16.491	25.671	187.849	248.093	281.865	343.747	0.00019399	0.00045904	5.4977e-05	1180.7	2.5481e-06	6.1404e-06	1275.7	247.11	3.0403e-06	1.893e-06	308.14	83.381	65.475	19.536	5.3992e-06	26.845	0.00056626	0.00064653	0.00018092	1164.6	7.051e-06	7.1227e-06	1258.2	246.46	7.0802e-06	7.2227e-06	308.43	84.889	66.849	20.072	7.3421e-06	27.64	211.214	105.658	113.870	3.549	190.863	174.047	3.891	11.078	185.446	183.754	10.600	17.298	17.875	24.516	127.764	24.300	-8191	255	
726.648	1	1	0	0	0.194	0.25928	0.068013	0.29638	0.1269	0.068709	0.30031	0.17263	0.09578	0.15182	0.1095	0.067874	0.16254	0.24631	0.33206	0.073389	-1.9229	-2.5875	-2.5042	-2.4625	-2.7375	-2.55	-2.6542	-2.9313	-2.3292	-2.7333	-2.6562	-2.4729	-2.8167	-2.5354	-2.4604	-2.7958	3.007	198.757	208.856	282.198	7.220	229.097	314.715	319.824	193.401	276.410	321.705	162.821	0.534	308.740	-2.638	245.941	8.6837e-05	0.00057921	7.9134e-05	1184.1	5.3867e-06	6.641e-06	1280.4	247.58	1.32e-06	3.707e-06	307.66	83.488	66.115	19.618	7.4625e-07	27.023	0.00059476	0.00067032	0.00018778	1165.9	7.2281e-06	7.3244e-06	1263	246.74	6.9874e-06	7.1614e-06	308.63	84.758	66.985	20.105	6.8846e-06	27.528	188.872	85.221	106.454	3.466	163.626	149.108	3.971	11.158	301.570	223.597	10.611	17.469	18.243	24.604	326.475	24.172	-8191	255	
726.744	1	1	0	0	0.1455	0.24752	0.02776	0.10214	0.10032	0.17808	0.14234	0.11488	0.072785	0.086953	0.12817	0.26343	0.2629	0.36252	0.072273	0.0087038	-1.9312	-2.5563	-2.4917	-2.6104	-2.6958	-2.4938	-2.7188	-2.8812	-2.4771	-2.5229	-2.8521	-2.1396	-2.8167	-2.3458	-2.3646	-2.7708	107.504	14.678	123.090	255.803	33.232	222.233	132.947	277.265	302.758	103.272	222.072	309.410	211.964	24.869	56.934	-1.762	0.00014919	0.00048224	6.1634e-05	1181.6	2.7628e-06	4.749e-06	1279.3	247.71	1.8136e-06	2.3279e-06	308.74	83.659	65.977	19.461	5.6184e-06	27.039	0.00056905	0.0006376	0.00017909	1165.1	6.8724e-06	6.9563e-06	1259.9	247.22	6.7974e-06	6.9948e-06	308.44	84.734	66.815	20.006	6.8024e-06	27.586	204.491	37.853	87.906	3.483	160.153	169.896	3.711	11.050	114.880	145.176	10.569	17.830	17.859	24.301	157.430	24.154	-8191	255	
726.840	1	1	0	0	0.16139	0.1314	0.20846	0.18921	0.17246	0.10308	0.42204	0.0415	0.027564	0.038588	0.032989	0.13292	0.1618	0.26272	0.021994	0.11183	-1.8979	-2.7646	-2.6375	-2.4146	-2.7958	-2.6146	-2.6542	-2.7625	-2.625	-2.4042	-2.8229	-2.4146	-2.6729	-2.6063	-2.3729	-2.9313	242.527	8.312	321.439	323.798	273.457	98.702	276.985	161.031	306.927	38.154	320.575	284.662	180.880	137.941	17.887	188.896	9.2565e-05	0.00056267	6.3099e-05	1183.6	6.3554e-06	5.4924e-06	1282.8	246.77	4.8077e-06	4.74e-06	307.69	83.883	65.856	19.635	4.6159e-06	26.837	0.0005681	0.00064754	0.00017997	1165.5	7.1096e-06	7.1589e-06	1260.9	246.95	7.233e-06	7.4648e-06	308.59	85.051	67.023	20.08	7.2876e-06	27.613	200.921	135.190	35.832	3.460	229.765	138.266	3.621	11.086	212.459	190.493	10.722	17.589	18.275	24.778	120.547	23.853	-8191	255	
726.960	1	1	0	0	0.086529	0.20454	0.23252	0.16641	0.20826	0.28277	0.077933	0.19483	0.34638	0.19155	0.094475	0.084235	0.26243	0.18553	0.28009	0.069737	-2.0521	-2.5687	-2.7646	-2.5417	-2.4604	-2.8021	-2.5854	-2.9021	-2.35	-2.5125	-2.6896	-2.1312	-2.5167	-2.8208	-2.3292	-2.6813	312.727	284.640	240.546	-5.348	97.923	172.002	1.738	206.510	33.711	7.354	161.753	38.618	262.235	138.531	4.774	244.965	0.00014388	0.0002498	0.00013616	1187.7	1.0264e-06	4.8955e-06	1280.6	247.91	1.9744e-06	5.4727e-06	308.98	83.707	66.013	19.453	5.0556e-06	27.032	0.00060726	0.00068	0.00019215	1168.1	7.471e-06	7.5911e-06	1261.9	247.41	7.2849e-06	7.5826e-06	309.18	85.269	67.251	20.059	7.444e-06	27.668	193.085	142.558	83.294	3.497	55.795	162.300	3.890	10.995	297.056	89.526	10.432	17.655	17.872	24.265	168.806	23.875	-8191	255	
727.057	1	1	0	0	0.22654	0.17656	0.13013	0.19522	0.14139	0.14257	0.060908	0.22272	0.18905	0.094119	0.22832	0.29822	0.26616	0.086465	0.10782	0.11501	-2.0604	-2.3354	-2.7354	-2.4458	-2.6479	-2.6771	-2.475	-2.8125	-2.4792	-2.5062	-2.8312	-2.4333	-2.4583	-2.65	-2.3125	-2.7354	99.888	332.748	66.470	263.350	243.144	163.262	226.580	312.363	9.273	214.807	315.235	-5.047	268.411	4.991	-0.553	81.459	0.0001395	0.00041262	0.00016721	1183.6	3.6729e-06	2.701e-06	1282.2	248.25	6.3289e-06	6.4223e-06	310.03	84.34	65.962	19.605	3.7222e-06	27.185	0.00061749	0.0007071	0.0001988	1167	7.6742e-06	7.9049e-06	1263	248.21	7.8339e-06	8.0813e-06	310.49	85.68	67.506	20.208	8.3451e-06	27.911	204.292	120.505	124.498	3.631	199.662	132.480	3.913	10.919	210.971	167.982	10.640	18.000	17.875	24.265	124.292	23.981	-8191	255	
727.128	1	1	0	0	0.089532	0.23507	0.061592	0.11741	0.23203	0.0194	0.20351	0.27727	0.054375	0.23402	0.24671	0.11081	0.20521	0.2454	0.18109	0.13689	-2.0167	-2.3167	-2.5729	-2.4542	-2.3979	-2.5854	-2.3812	-2.5417	-2.6063	-2.3354	-2.7667	-2.2687	-2.5542	-2.85	-2.3458	-2.8146	301.035	255.017	133.036	290.585	132.291	-4.719	283.215	39.944	81.032	334.146	241.463	340.889	323.832	68.566	122.615	166.094	0.0001139	0.00032998	0.00015753	1187.2	5.8556e-06	3.6829e-06	1281.9	248.32	5.4815e-06	5.2015e-06	310.81	84.044	66.233	19.603	3.3356e-06	26.941	0.00068442	0.00078952	0.00022327	1172.8	8.7236e-06	8.603e-06	1267.4	249.23	8.7172e-06	8.72e-06	311.2	85.698	67.76	20.261	8.4578e-06	27.794	195.791	50.930	135.066	3.395	135.115	197.508	3.543	11.057	180.824	46.814	10.793	17.752	17.949	24.248	149.463	24.101	-8191	255	
727.224	1	1	0	0	0.22073	0.11584	0.19453	0.27227	0.23577	0.17635	0.19898	0.10976	0.1191	0.30902	0.23397	0.3234	0.11636	0.25308	0.088772	0.16958	-2.0583	-2.3563	-2.7021	-2.5792	-2.675	-2.6896	-2.4	-2.7771	-2.5417	-2.2833	-2.8187	-2.5312	-2.3438	-2.75	-2.4667	-2.4667	244.610	328.779	344.114	311.620	280.015	58.693	311.765	244.540	228.879	163.245	278.793	258.491	346.552	348.369	71.354	352.609	0.00013274	0.00041022	0.00013217	1189.6	1.2936e-06	4.6102e-06	1286.3	249.73	7.3629e-06	2.1872e-06	308.37	84.281	66.228	19.598	1.5922e-06	26.909	0.00068043	0.0007951	0.00021533	1172.4	8.4382e-06	8.5267e-06	1267.4	249.04	8.4652e-06	8.4999e-06	310.34	85.709	67.506	20.168	8.5256e-06	27.793	181.538	58.613	33.971	3.496	110.756	172.857	3.585	10.783	217.367	133.864	10.808	17.350	18.437	24.659	146.898	24.389	-8191	255	
727.345	1	1	0	0	0.19656	0.18592	0.32646	0.22116	0.15635	0.091693	0.27577	0.094907	0.10191	0.049092	0.054205	0.10899	0.14171	0.061679	0.19253	0.087976	-2.0583	-2.1917	-2.5375	-2.7812	-2.5021	-2.75	-2.5104	-2.3896	-2.6396	-2.1333	-2.8479	-2.5542	-2.3563	-2.7062	-2.4313	-2.7333	216.459	306.541	136.748	-6.018	116.106	307.007	339.022	314.460	263.551	113.334	-2.050	329.021	15.080	216.850	150.076	72.070	0.00011559	0.00046624	3.4881e-05	1187.4	2.6459e-06	1.6505e-06	1282.5	248.69	1.3901e-06	3.8747e-06	309.37	84.245	66.71	19.376	6.6451e-06	27.012	0.00068815	0.00078762	0.00022293	1170.1	8.6495e-06	8.8759e-06	1266.1	248.95	8.7829e-06	8.9087e-06	310.7	85.795	67.703	20.194	9.0164e-06	27.896	211.273	138.496	190.999	3.453	120.719	326.765	3.816	10.694	150.778	177.171	10.634	17.712	18.202	24.482	202.192	23.621	-8191	255	
727.439	1	1	0	0	0.28147	0.17916	0.11173	0.20545	0.16515	0.23764	0.10049	0.048936	0.14327	0.24893	0.16044	0.19959	0.14993	0.22465	0.35286	0.058412	-2.1625	-2.4188	-2.9188	-2.8792	-2.4854	-2.6937	-2.7167	-2.5042	-2.5833	-2.3438	-2.6208	-2.6813	-2.3417	-2.8937	-2.4833	-2.5125	95.494	197.567	-6.939	312.465	299.594	175.846	278.588	352.573	293.716	169.796	-1.286	350.849	341.990	94.245	86.970	92.983	0.00012325	0.00065236	4.4951e-05	1186.7	5.1044e-06	4.8302e-06	1286.2	249.66	2.0216e-06	4.1734e-06	310.22	84.753	66.66	19.794	5.7228e-06	27.065	0.0007282	0.00084228	0.00023844	1173.1	9.1261e-06	9.2462e-06	1268.3	250.01	9.0772e-06	9.1372e-06	311.86	86.108	68.004	20.35	9.0451e-06	27.996	213.622	96.783	175.193	3.227	222.850	96.618	3.557	10.716	222.892	115.390	10.415	17.450	18.037	24.413	154.359	24.092	-8191	255	
727.536	1	1	0	0	0.11762	0.11688	0.047883	0.26425	0.14874	0.14707	0.15547	0.089114	0.17385	0.26526	0.3048	0.16339	0.11116	0.25773	0.25953	0.13925	-2.3042	-2.3	-2.4938	-2.6292	-2.3667	-2.8896	-2.7479	-2.5917	-2.7729	-2.3312	-2.7333	-2.7854	-2.2979	-2.8312	-2.4417	-2.5792	115.981	240.841	145.824	332.344	177.600	306.124	272.374	117.836	94.093	258.828	294.417	78.015	3.155	319.565	252.486	58.994	0.00015382	0.00074924	0.00015703	1189.5	5.7083e-06	1.6519e-06	1293.8	249.44	9.3163e-07	5.1589e-06	308.76	83.971	66.219	19.682	4.1776e-06	27.117	0.00071052	0.00083083	0.00023198	1177.3	8.8037e-06	8.9297e-06	1272.4	249.92	8.3982e-06	8.4731e-06	311.45	85.534	67.724	20.281	8.0699e-06	27.82	210.929	80.887	115.578	3.214	149.251	148.173	3.739	10.792	269.668	150.705	10.480	17.560	18.534	24.462	204.356	24.130	-8191	255	
727.634	1	1	0	0	0.17967	0.094342	0.08937	0.14455	0.10815	0.19639	0.1743	0.17222	0.17297	0.10115	0.19388	0.14246	0.055687	0.3151	0.2101	0.11639	-2.3729	-2.4562	-2.4458	-2.7458	-2.3146	-2.625	-2.8229	-2.575	-2.8625	-2.5521	-2.45	-2.7938	-2.2396	-2.5708	-2.4583	-2.4708	-6.415	95.877	119.267	-1.484	29.991	153.920	209.492	148.289	185.667	9.646	238.886	313.486	278.275	138.451	270.708	148.681	0.00016455	0.00065241	0.00010619	1195.7	2.5539e-06	2.7056e-06	1292.3	250.57	4.1988e-06	3.2129e-06	310.47	84.703	66.67	19.63	3.3958e-06	27.198	0.0006529	0.00074619	0.00020832	1178	8.1654e-06	8.335e-06	1273.2	250.22	8.2583e-06	8.5339e-06	311.92	86.003	67.745	20.304	8.5687e-06	27.917	203.546	62.067	82.804	3.556	192.512	121.288	3.592	11.105	272.464	159.860	10.473	17.474	18.212	24.356	192.438	23.926	-8191	255	
727.752	1	1	0	0	0.033593	0.154	0.19335	0.39035	0.018457	0.24546	0.059194	0.23548	0.037907	0.17633	0.09055	0.049044	0.22528	0.051316	0.090717	0.11289	-2.3625	-2.375	-2.5687	-2.9292	-2.5062	-2.7708	-2.9771	-2.3042	-2.7542	-2.7354	-2.4104	-2.6875	-2.2354	-2.6271	-2.6271	-2.4625	317.507	293.736	253.763	345.090	227.781	167.138	350.081	313.442	101.929	252.443	293.259	208.441	16.213	142.585	17.484	236.167	0.0001482	0.00028212	0.00020861	1191.6	3.0142e-06	4.056e-06	1289.3	248.61	1.8909e-06	6.3785e-06	311.98	85.181	66.473	19.568	3.5158e-06	27.194	0.00070071	0.00080101	0.00022314	1177.5	8.6451e-06	8.9629e-06	1272.8	249.61	8.7269e-06	8.8557e-06	312.38	86.234	67.86	20.288	8.5473e-06	27.928	198.713	16.599	28.308	3.302	40.565	140.855	3.654	10.793	190.112	187.005	10.632	17.569	17.964	24.472	197.984	23.887	-8191	255	
727.824	1	1	0	0	0.20719	0.23641	0.04338	0.28441	0.072711	0.16332	0.35035	0.12651	0.18986	0.09254	0.23102	0.30787	0.16647	0.10859	0.10721	0.051383	-2.3333	-2.4229	-2.425	-2.8896	-2.4021	-2.6979	-2.6917	-2.475	-2.6604	-2.6688	-2.5438	-2.7833	-2.6437	-2.6521	-2.6937	-2.4708	98.791	46.550	177.520	244.241	33.296	162.528	313.241	315.222	309.025	181.949	54.256	300.901	192.588	286.504	57.594	57.794	0.00015787	0.00057096	4.9401e-05	1192.1	3.7331e-06	3.1195e-06	1299.2	250.14	4.4214e-06	2.729e-06	312.67	84.037	66.624	19.724	2.0118e-06	26.98	0.00068499	0.00078978	0.00021997	1177.3	8.5296e-06	8.4001e-06	1277.4	250.16	8.3493e-06	8.5833e-06	313.11	85.853	67.858	20.396	8.6964e-06	27.92	177.047	119.133	32.315	3.406	207.820	61.365	3.720	10.788	136.365	223.102	10.629	17.310	18.143	24.176	243.239	24.189	-8191	255	
727.945	1	1	0	0	0.037171	0.18852	0.13673	0.17916	0.17294	0.043896	0.22861	0.12618	0.18716	0.02686	0.039203	0.099446	0.19288	0.10152	0.14823	0.2424	-2.2167	-2.7	-2.3104	-3.0729	-2.4333	-2.5167	-3.0167	-2.6042	-2.7542	-2.5479	-2.5354	-2.7938	-2.5854	-2.5125	-2.8417	-2.3063	160.794	-0.395	214.308	292.141	63.255	326.067	316.587	203.468	329.040	352.862	286.352	346.471	84.010	17.745	99.626	183.176	0.00015523	0.0007979	3.1058e-05	1196.3	4.5167e-06	9.1747e-07	1296.1	250.32	1.5546e-06	4.786e-06	310.56	84.657	66.378	19.797	7.475e-06	27.144	0.00071618	0.0008164	0.00022607	1181.8	9.0925e-06	9.2709e-06	1277.9	250.95	9.0856e-06	9.148e-06	313.05	86.14	68.046	20.402	8.9119e-06	27.965	200.909	95.641	52.908	3.359	185.378	331.377	3.613	11.111	293.588	133.220	10.605	17.770	17.901	24.340	144.372	24.176	-8191	255	
728.041	1	1	0	0	0.23858	0.12903	0.066861	0.14588	0.14238	0.22186	0.069864	0.23221	0.2346	0.23898	0.16198	0.11452	0.24583	0.15113	0.089794	0.017413	-2.2188	-2.6688	-2.375	-2.7771	-2.4	-2.6354	-2.9083	-2.4729	-2.5354	-2.7896	-2.4292	-2.8688	-2.4875	-2.5187	-2.5812	-2.4021	20.481	166.119	347.901	308.637	254.281	124.988	298.880	270.290	318.272	326.865	318.204	47.207	330.505	85.035	297.167	162.752	0.00014405	0.00030546	0.00022476	1199.8	2.8184e-06	1.3155e-06	1289.4	249.54	1.8368e-06	4.4553e-06	311.35	84.592	66.249	19.807	2.8116e-06	27.227	0.00072099	0.00082818	0.00022728	1181.3	8.8904e-06	8.9081e-06	1274.7	250.1	8.6782e-06	8.6414e-06	312.53	86.001	67.923	20.317	8.0719e-06	27.911	189.574	227.290	99.285	3.562	213.683	198.624	3.668	11.070	195.139	183.202	10.569	17.676	18.514	24.367	150.881	23.747	-8191	255	
728.137	1	1	0	0	0.15365	0.06233	0.093979	0.29416	0.077161	0.16528	0.21598	0.18378	0.23815	0.11217	0.08517	0.31367	0.27454	0.18553	0.066105	0.067965	-2.1771	-2.5687	-2.5521	-2.8833	-2.5042	-2.3417	-3.0354	-2.3563	-2.6688	-2.6917	-2.4292	-2.7646	-2.6354	-2.2812	-2.8292	-2.5854	54.323	288.896	218.385	271.365	130.102	137.206	343.502	0.012	342.868	18.539	145.707	54.928	14.759	264.372	291.279	150.384	0.00010775	0.00032286	8.2462e-05	1190.4	2.8585e-06	3.8075e-06	1290.8	249.05	1.577e-06	3.0472e-06	310.55	84.322	66.076	19.487	4.6882e-06	27.045	0.00067414	0.00074042	0.00020736	1175.6	7.8128e-06	7.8945e-06	1272.6	249.39	7.549e-06	7.6124e-06	311.5	85.398	67.147	20.091	7.053e-06	27.651	206.872	201.198	137.140	3.447	244.480	143.235	3.684	10.901	212.508	173.975	10.524	17.815	17.982	24.321	145.156	24.361	-8191	255	
728.233	1	1	0	0	0.20882	0.15059	0.23151	0.10827	0.14814	0.26182	0.16137	0.099276	0.071601	0.078882	0.18472	0.21582	0.050975	0.24339	0.15414	0.31613	-1.9458	-2.6417	-2.4979	-2.85	-2.6521	-2.3833	-2.8812	-2.6729	-2.4833	-2.8792	-2.3812	-2.6583	-2.6042	-2.6021	-2.7604	-2.6042	212.106	13.586	13.333	280.120	155.810	46.571	338.259	306.372	291.924	264.178	258.784	307.585	277.878	327.306	291.897	152.206	0.00013217	0.0010361	7.9912e-05	1188.3	3.2108e-06	2.081e-06	1286	248.75	9.6972e-07	3.1581e-06	312.15	84.741	67.014	19.597	2.3042e-06	26.962	0.00060074	0.00070809	0.00019988	1174	8.5083e-06	8.9393e-06	1267.6	249.28	9.9512e-06	1.0387e-05	313.77	86.628	68.66	20.476	1.0415e-05	28.032	191.819	36.304	48.872	3.323	229.410	94.888	3.826	11.002	79.397	208.239	10.562	17.507	17.969	23.836	117.365	23.758	-8191	255	
728.354	1	1	0	0	0.11307	0.16477	0.087704	0.20879	0.10811	0.16831	0.26154	0.045207	0.09604	0.13294	0.24514	0.16251	0.11668	0.30535	0.095956	0.1337	-2.0896	-2.7458	-2.4396	-2.7083	-2.6437	-2.4104	-2.9417	-2.5542	-2.5604	-2.6917	-2.3729	-2.6417	-2.5292	-2.2812	-2.7833	-2.5479	67.174	226.569	248.343	306.243	174.079	77.311	25.192	85.232	213.482	58.238	195.957	352.277	121.721	335.550	40.660	69.136	0.00010566	0.00070657	0.00014819	1191	2.3315e-06	3.0087e-06	1290.2	248.77	2.5065e-06	2.5723e-06	309.54	84.069	66.45	19.583	6.7676e-06	27.031	0.00080011	0.00089115	0.00024082	1176.4	8.5502e-06	8.4663e-06	1269.5	248.78	7.7332e-06	7.7152e-06	311.06	85.547	67.334	20.127	7.3952e-06	27.749	205.600	177.913	76.231	3.595	245.481	112.080	3.862	11.026	197.967	78.146	10.481	17.988	18.000	24.535	201.975	24.245	-8191	255	
728.425	1	1	0	0	0.022008	0.12954	0.013637	0.35669	0.37598	0.15195	0.089755	0.11895	0.040147	0.21456	0.022881	0.21335	0.34669	0.068834	0.096712	0.17901	-2.0479	-2.9375	-2.4437	-2.6625	-2.7521	-2.4542	-2.8792	-2.8854	-2.4667	-2.6667	-2.7333	-2.5646	-2.6729	-2.5104	-2.625	-2.7896	320.923	222.430	248.639	14.003	32.080	306.900	324.975	181.532	235.070	188.347	-6.502	37.669	297.874	-3.359	66.988	340.269	9.5252e-05	0.00020877	0.00011797	1198.3	9.6009e-07	1.5711e-06	1291.8	251.1	2.2473e-06	1.4303e-06	311.53	84.58	67.006	19.767	3.7942e-06	27.413	0.0006173	0.00068498	0.00019536	1180.3	7.7164e-06	7.775e-06	1276.2	250.16	8.0169e-06	8.1812e-06	312.98	86.002	68.173	20.38	8.5935e-06	28.07	208.805	104.431	-6.428	3.483	171.828	224.902	3.815	11.031	56.979	190.892	10.488	17.512	17.888	24.037	252.253	24.036	-8191	255	
728.520	1	1	0	0	0.22917	0.13489	0.19705	0.19289	0.26262	0.29141	0.090937	0.097242	0.068605	0.15008	0.26186	0.2117	0.15457	0.28204	0.23842	0.22379	-1.9979	-2.8958	-2.3187	-2.5667	-2.7958	-2.1583	-2.8521	-2.7667	-2.3917	-2.7792	-2.4667	-2.7	-2.6833	-2.3312	-2.5563	-2.6667	205.232	234.552	168.494	287.774	129.507	280.862	233.132	127.719	250.577	228.543	336.574	262.763	181.648	116.770	289.615	276.884	0.00013039	0.00071617	0.00014388	1194.8	3.0294e-06	6.5019e-06	1293.3	249.73	1.3433e-06	4.8105e-06	312.03	84.259	66.639	19.647	1.8541e-06	26.949	0.0007061	0.00080994	0.00023045	1180.8	8.9677e-06	8.9784e-06	1277.7	250.42	8.6767e-06	8.6503e-06	312.72	85.92	67.88	20.247	8.153e-06	27.865	223.090	80.746	48.416	3.406	160.847	142.055	3.782	10.874	146.508	181.954	10.769	17.563	18.309	24.540	212.102	24.041	-8191	255	
728.616	1	1	0	0	0.22946	0.25641	0.20151	0.15787	0.1732	0.10532	0.22826	0.14125	0.12468	0.3026	0.10234	0.052841	0.035685	0.14656	0.015792	0.042629	-1.8104	-2.8104	-2.625	-2.6042	-2.5458	-2.4104	-2.6979	-2.7438	-2.2875	-2.8688	-2.7771	-2.4	-2.8729	-2.5208	-2.5563	-2.9083	131.515	53.402	225.849	221.281	78.322	202.025	294.643	323.778	350.610	129.840	300.111	115.784	108.500	210.118	182.924	170.749	0.00016143	0.00034077	0.00013324	1193.4	1.1926e-06	3.0679e-06	1296.8	249.97	1.4234e-06	8.0943e-06	312.91	84.783	66.633	19.738	3.5368e-06	27.209	0.00064509	0.00075979	0.0002107	1179.3	8.2596e-06	8.5127e-06	1275.9	250.57	8.457e-06	8.8299e-06	313.79	86.225	68.167	20.433	9.1173e-06	28.048	202.060	99.785	59.712	3.382	146.827	103.151	3.691	10.998	183.620	162.998	10.484	17.383	17.983	24.203	142.875	23.975	-8191	255	
728.737	1	1	0	0	0.12585	0.094527	0.11564	0.1425	0.093387	0.14097	0.29874	0.057125	0.29556	0.14008	0.18325	0.12342	0.20428	0.28437	0.2047	0.053578	-1.9333	-2.6771	-2.5563	-2.4562	-2.8042	-2.3563	-2.8271	-2.9604	-2.2375	-2.6854	-2.65	-2.4479	-2.725	-2.5083	-2.5396	-2.55	19.534	186.981	307.101	334.997	60.531	21.197	251.362	271.171	323.571	341.113	100.926	18.319	268.532	129.957	167.129	85.237	0.00012241	0.0003985	0.00018601	1197.6	6.9849e-06	3.1172e-07	1292.5	251.44	1.6311e-06	6.6274e-06	313.99	84.076	66.935	19.628	2.5669e-06	27.217	0.00075329	0.00087133	0.00023974	1182.9	9.3324e-06	9.5093e-06	1279.9	251.77	9.0724e-06	9.219e-06	314.38	86.106	68.2	20.324	8.6366e-06	27.984	210.212	180.577	55.732	3.380	215.800	130.874	3.924	10.884	242.820	200.247	10.710	17.565	17.877	24.410	247.965	23.807	-8191	255	
728.833	1	1	0	0	0.054978	0.099128	0.12829	0.41027	0.13959	0.0094869	0.26864	0.03699	0.2625	0.19548	0.18048	0.28292	0.18306	0.1012	0.198	0.14108	-1.8687	-2.5312	-2.5875	-2.4292	-2.6937	-2.5479	-2.625	-2.7938	-2.3896	-2.8021	-2.5625	-2.3063	-2.7812	-2.5438	-2.3854	-2.7083	107.204	322.988	71.595	296.848	78.637	339.950	315.202	281.694	154.910	84.211	316.251	311.996	229.057	271.174	254.542	198.684	0.0001688	0.00040066	0.00015332	1195.7	2.0421e-06	1.8178e-06	1296.3	251.38	3.0887e-06	2.7493e-06	312.16	85.11	66.111	19.657	7.7775e-07	27.286	0.00070286	0.00081422	0.000225	1180.9	8.5631e-06	8.6609e-06	1276.5	250.73	8.3964e-06	8.631e-06	313.44	86.152	67.854	20.288	8.5045e-06	27.878	200.121	60.980	106.865	3.265	190.527	22.216	3.759	10.797	265.771	162.381	10.449	17.363	18.249	24.386	41.000	23.873	-8191	255	
728.929	1	1	0	0	0.057457	0.05131	0.099699	0.23103	0.05825	0.20276	0.09392	0.14205	0.085378	0.30422	0.18302	0.10808	0.14418	0.16621	0.20631	0.067013	-1.9021	-2.6458	-2.8167	-2.4917	-2.6125	-2.575	-2.625	-2.8312	-2.5042	-2.5875	-2.8417	-2.4188	-2.7042	-2.625	-2.3771	-2.8521	168.744	210.174	301.838	308.745	283.148	135.590	283.587	245.260	98.247	45.364	34.940	137.263	80.181	153.933	338.668	329.604	0.00016997	0.00043809	6.3012e-05	1193.7	1.8185e-06	7.8334e-06	1298.7	250.15	4.8506e-06	3.0809e-06	312.72	84.304	66.444	19.696	3.9686e-06	27.215	0.00068896	0.00080332	0.00022074	1177.7	8.6296e-06	8.7331e-06	1276.4	250.05	8.5772e-06	8.7011e-06	312.75	85.988	67.831	20.241	8.6132e-06	27.895	207.391	174.086	172.050	3.467	228.093	132.283	3.629	10.837	180.646	115.332	10.881	17.844	18.260	24.469	165.627	24.019	-8191	255	
729.025	1	1	0	0	0.10956	0.063539	0.25204	0.15305	0.038849	0.074799	0.12399	0.28429	0.24762	0.35586	0.098396	0.14707	0.13205	0.19122	0.15358	0.15747	-1.9354	-2.4729	-2.5646	-2.5458	-2.5917	-2.7583	-2.6875	-2.8625	-2.55	-2.4792	-2.9896	-2.3479	-2.5229	-2.6979	-2.3458	-2.8563	180.755	72.588	230.487	287.605	79.062	33.687	189.210	306.354	201.067	10.769	180.818	0.911	270.750	277.950	-1.420	203.561	0.00015148	0.00086095	0.0001843	1194.6	1.5607e-06	3.8318e-06	1290.1	249.86	2.2165e-06	1.5844e-06	311.66	83.857	65.879	19.629	4.8332e-06	27.101	0.00066738	0.00077363	0.00021934	1176.6	8.2997e-06	8.5284e-06	1271	249.4	7.9753e-06	8.0852e-06	311.33	85.519	67.218	20.155	7.8172e-06	27.76	205.519	106.242	67.567	3.298	115.375	123.111	3.819	11.110	79.829	152.071	10.461	17.781	18.342	24.652	177.858	24.220	-8191	255	
729.121	1	1	0	0	0.38538	0.11518	0.066622	0.11438	0.068653	0.14916	0.066753	0.23901	0.11341	0.18868	0.055621	0.21793	0.21851	0.01083	0.27751	0.073251	-2.0479	-2.3667	-2.7958	-2.6146	-2.3979	-2.8833	-2.3833	-2.8792	-2.5604	-2.3812	-3.1729	-2.4521	-2.55	-2.8521	-2.4	-2.8375	117.215	332.983	218.675	257.242	65.497	211.817	244.863	252.087	305.455	216.018	196.427	201.936	182.312	123.059	134.710	335.404	0.00015688	0.0010885	9.2527e-05	1189.8	1.8317e-06	3.5495e-06	1287.4	249.35	4.8447e-06	4.2701e-06	308.54	83.733	65.912	19.496	3.7826e-06	27.088	0.00063178	0.00071058	0.0002012	1172.4	7.8011e-06	7.7941e-06	1269.4	249	7.5486e-06	7.6436e-06	310.24	85.162	67.176	20.047	7.4889e-06	27.587	206.767	64.099	27.260	3.440	310.384	165.456	3.772	11.069	220.913	211.925	10.738	17.980	18.379	24.454	180.850	24.071	-8191	255	
729.217	1	1	0	0	0.2157	0.22606	0.15327	0.10028	0.14995	0.17899	0.19834	0.22061	0.27794	0.18892	0.092368	0.054864	0.13797	0.13327	0.15226	0.084816	-2.0979	-2.4021	-2.8521	-2.6625	-2.3896	-2.7292	-2.5917	-2.6604	-2.6021	-2.4021	-2.8604	-2.4417	-2.7646	-2.7375	-2.5542	-2.7792	221.716	136.741	14.515	315.979	276.596	144.549	318.982	72.746	8.285	52.992	134.835	275.893	228.893	23.068	67.382	74.684	0.00018563	0.00061432	8.3662e-05	1185.5	4e-06	3.0811e-06	1283.9	248.35	2.7816e-06	3.4744e-06	306.69	84.189	66.332	19.543	2.9495e-06	26.905	0.00061197	0.00069442	0.00019163	1171.4	7.4508e-06	7.6842e-06	1266.9	248.42	7.5605e-06	7.6701e-06	309.5	85.35	67.223	20.046	7.5959e-06	27.58	204.365	72.827	74.970	3.462	176.784	169.015	3.725	11.434	165.812	200.459	10.523	17.789	18.131	24.038	212.134	24.500	-8191	255	
729.314	1	1	0	0	0.21461	0.20737	0.1729	0.19447	0.26582	0.12436	0.40265	0.11677	0.19666	0.10215	0.12727	0.051523	0.12903	0.074006	0.22471	0.48756	-2.1583	-2.3167	-2.5854	-2.6875	-2.4292	-2.775	-2.6125	-2.6917	-2.6437	-2.2479	-2.7313	-2.625	-2.5729	-2.7354	-2.5812	-2.6	2.319	278.422	232.757	310.050	166.889	129.082	260.322	221.307	82.590	257.324	312.088	233.219	208.841	213.463	237.961	313.343	0.00011712	0.00075713	7.0192e-05	1189.5	2.6811e-06	3.6829e-06	1282.2	248.93	4.4243e-06	4.7092e-06	310.24	84.496	66.032	19.477	2.3087e-06	26.95	0.00061129	0.00070396	0.00019901	1173.1	7.8485e-06	7.8669e-06	1266.5	248.17	7.6313e-06	7.8753e-06	310.26	85.501	67.132	20.041	7.7503e-06	27.67	182.536	61.170	50.325	3.586	146.364	163.244	3.716	10.991	207.720	225.256	10.458	17.675	18.555	24.306	262.379	24.080	-8191	255	
729.434	1	1	0	0	0.13303	0.029323	0.14506	0.079243	0.1753	0.27566	0.27861	0.38425	0.090646	0.19028	0.02694	0.10955	0.17323	0.22351	0.012808	0.2411	-2.1437	-2.5354	-2.7583	-2.8583	-2.4125	-2.8458	-2.6646	-2.7479	-2.6646	-2.2625	-2.6396	-2.5542	-2.4604	-2.6583	-2.4313	-2.4521	259.366	77.303	267.319	43.891	125.531	302.370	300.079	297.404	190.241	274.879	36.168	347.647	308.652	274.151	4.398	205.493	0.00014945	0.00065826	0.00016882	1187.3	3.4409e-06	1.1945e-06	1288.9	249.59	2.9346e-06	2.2038e-07	309.34	84.017	65.639	19.5	2.3712e-06	27	0.00062919	0.00071769	0.00020235	1171.1	7.8859e-06	7.9042e-06	1269.1	248.68	7.8158e-06	7.9661e-06	310.74	85.338	67.2	20.149	7.8976e-06	27.725	198.742	71.834	69.785	3.334	162.868	115.766	3.692	10.825	225.037	73.209	10.834	17.590	17.853	24.513	91.034	24.117	-8191	255	
#DATA ENDS
