BOXY.EXE: ISS Imagent and Oximeter Data Acquisition Program Version 0.80
Ascii Record File

#ACQ INFORMATION
2  Detector Channels 
16  External MUX Channels 
1  Auxiliary Channels 
5000  Waveform (CCF) Frequency (Hz)
1  Waveforms Skipped 
30  Waveforms Averaged 
1  Cycles Averaged 
16  Acquisitions per Waveform 
10.0806  Updata Rate (Hz) 

#FILE INFORMATION
TRUE -- External MUX Channel results are PARSED.
FALSE -- AC DC and Phase are NOT grouped.
TRUE -- Companion Program Settings File CREATED.
FALSE -- AC data not excluded
FALSE -- DC data not excluded
FALSE -- Phase data not excluded
FALSE -- Auxillary Chn. data not excluded
Tab delimiters

#CALIBRATION STATE
TRUE -- Waveform Calibration Values APPLIED.


#AUX CALIBRATION VALUES
Val Type	aux-1	

Term	1.0000e+00	
Factor	0.0000e+00	


#WF CALIBRATION VALUES
A = Detector Channel
Val Type	A-AC1	A-AC2	A-AC3	A-AC4	A-AC5	A-AC6	A-AC7	A-AC8	A-AC9	A-AC10	A-AC11	A-AC12	A-AC13	A-AC14	A-AC15	A-AC16	A-DC1	A-DC2	A-DC3	A-DC4	A-DC5	A-DC6	A-DC7	A-DC8	A-DC9	A-DC10	A-DC11	A-DC12	A-DC13	A-DC14	A-DC15	A-DC16	A-Ph1	A-Ph2	A-Ph3	A-Ph4	A-Ph5	A-Ph6	A-Ph7	A-Ph8	A-Ph9	A-Ph10	A-Ph11	A-Ph12	A-Ph13	A-Ph14	A-Ph15	A-Ph16	

Term	0.00000e+00	0.00000e+00	0.00000e+00	0.00000e+00	0.00000e+00	0.00000e+00	0.00000e+00	0.00000e+00	0.00000e+00	0.00000e+00	0.00000e+00	0.00000e+00	0.00000e+00	0.00000e+00	0.00000e+00	0.00000e+00	0.00000e+00	0.00000e+00	0.00000e+00	0.00000e+00	0.00000e+00	0.00000e+00	0.00000e+00	0.00000e+00	0.00000e+00	0.00000e+00	0.00000e+00	0.00000e+00	0.00000e+00	0.00000e+00	0.00000e+00	0.00000e+00	0.00000e+00	0.00000e+00	0.00000e+00	0.00000e+00	0.00000e+00	0.00000e+00	0.00000e+00	0.00000e+00	0.00000e+00	0.00000e+00	0.00000e+00	0.00000e+00	0.00000e+00	0.00000e+00	0.00000e+00	0.00000e+00	
Factor	1.00000e+00	1.00000e+00	1.00000e+00	1.00000e+00	1.00000e+00	1.00000e+00	1.00000e+00	1.00000e+00	1.00000e+00	1.00000e+00	1.00000e+00	1.00000e+00	1.00000e+00	1.00000e+00	1.00000e+00	1.00000e+00	1.00000e+00	1.00000e+00	1.00000e+00	1.00000e+00	1.00000e+00	1.00000e+00	1.00000e+00	1.00000e+00	1.00000e+00	1.00000e+00	1.00000e+00	1.00000e+00	1.00000e+00	1.00000e+00	1.00000e+00	1.00000e+00	X	X	X	X	X	X	X	X	X	X	X	X	X	X	X	X	

B = Detector Channel
Val Type	B-AC1	B-AC2	B-AC3	B-AC4	B-AC5	B-AC6	B-AC7	B-AC8	B-AC9	B-AC10	B-AC11	B-AC12	B-AC13	B-AC14	B-AC15	B-AC16	B-DC1	B-DC2	B-DC3	B-DC4	B-DC5	B-DC6	B-DC7	B-DC8	B-DC9	B-DC10	B-DC11	B-DC12	B-DC13	B-DC14	B-DC15	B-DC16	B-Ph1	B-Ph2	B-Ph3	B-Ph4	B-Ph5	B-Ph6	B-Ph7	B-Ph8	B-Ph9	B-Ph10	B-Ph11	B-Ph12	B-Ph13	B-Ph14	B-Ph15	B-Ph16	

Term	0.00000e+00	0.00000e+00	0.00000e+00	0.00000e+00	0.00000e+00	0.00000e+00	0.00000e+00	0.00000e+00	0.00000e+00	0.00000e+00	0.00000e+00	0.00000e+00	0.00000e+00	0.00000e+00	0.00000e+00	0.00000e+00	0.00000e+00	0.00000e+00	0.00000e+00	0.00000e+00	0.00000e+00	0.00000e+00	0.00000e+00	0.00000e+00	0.00000e+00	0.00000e+00	0.00000e+00	0.00000e+00	0.00000e+00	0.00000e+00	0.00000e+00	0.00000e+00	-6.59245e+01	-1.24734e+02	-1.31290e+02	-1.83070e+02	-4.71720e+01	-6.49150e+01	-1.56663e+02	-1.62015e+02	-3.94459e+01	-6.42214e+01	-1.71114e+02	-1.71480e+02	-1.80686e+02	-1.76770e+02	-5.03157e+01	-1.49850e+02	
Factor	1.94318e-05	1.90944e-04	4.49887e-05	1.63081e-01	1.59961e-06	1.69595e-06	1.94177e-01	5.42487e-02	1.28390e-06	1.65075e-06	1.08414e-01	3.13847e-02	2.95052e-02	9.61121e-03	1.53840e-06	1.41149e-02	5.54059e-06	6.76180e-06	1.88700e-06	8.26207e-02	7.18682e-08	7.45135e-08	9.21061e-02	2.75920e-02	7.18242e-08	7.41166e-08	5.30887e-02	1.54427e-02	1.51454e-02	4.92050e-03	7.23774e-08	6.95805e-03	X	X	X	X	X	X	X	X	X	X	X	X	X	X	X	X	



#DISTANCE SETTINGS
A = Detector Channel
A-1	A-2	A-3	A-4	A-5	A-6	A-7	A-8	A-9	A-10	A-11	A-12	A-13	A-14	A-15	A-16	

2.5000e+00	3.0000e+00	2.5000e+00	3.0000e+00	2.0000e+00	3.0000e+00	1.5000e+00	3.0000e+00	3.0000e+00	3.0000e+00	3.0000e+00	3.0000e+00	3.0000e+00	3.0000e+00	1.5000e+00	3.0000e+00	

B = Detector Channel
B-1	B-2	B-3	B-4	B-5	B-6	B-7	B-8	B-9	B-10	B-11	B-12	B-13	B-14	B-15	B-16	

1.0000e+01	1.0000e+01	1.0000e+01	1.4400e+00	1.0000e+01	1.0000e+01	1.5100e+00	1.9400e+00	1.0000e+01	1.0000e+01	1.9900e+00	2.4900e+00	2.4100e+00	2.9000e+00	1.0000e+01	2.9800e+00	




#DATA BEGINS
time	group	step	mark	flag	A-AC1	A-AC2	A-AC3	A-AC4	A-AC5	A-AC6	A-AC7	A-AC8	A-AC9	A-AC10	A-AC11	A-AC12	A-AC13	A-AC14	A-AC15	A-AC16	A-DC1	A-DC2	A-DC3	A-DC4	A-DC5	A-DC6	A-DC7	A-DC8	A-DC9	A-DC10	A-DC11	A-DC12	A-DC13	A-DC14	A-DC15	A-DC16	A-Ph1	A-Ph2	A-Ph3	A-Ph4	A-Ph5	A-Ph6	A-Ph7	A-Ph8	A-Ph9	A-Ph10	A-Ph11	A-Ph12	A-Ph13	A-Ph14	A-Ph15	A-Ph16	B-AC1	B-AC2	B-AC3	B-AC4	B-AC5	B-AC6	B-AC7	B-AC8	B-AC9	B-AC10	B-AC11	B-AC12	B-AC13	B-AC14	B-AC15	B-AC16	B-DC1	B-DC2	B-DC3	B-DC4	B-DC5	B-DC6	B-DC7	B-DC8	B-DC9	B-DC10	B-DC11	B-DC12	B-DC13	B-DC14	B-DC15	B-DC16	B-Ph1	B-Ph2	B-Ph3	B-Ph4	B-Ph5	B-Ph6	B-Ph7	B-Ph8	B-Ph9	B-Ph10	B-Ph11	B-Ph12	B-Ph13	B-Ph14	B-Ph15	B-Ph16	aux-1	digaux	

1676.343	1	1	0	256	0.0047649	0.044653	0.27325	0.15281	0.078386	0.19451	0.19559	0.21354	0.25537	0.28318	0.32217	0.074701	0.084075	0.073563	0.17365	0.12831	-2.0104	-1.9104	-2.3833	-2.2062	-2.1021	-2.4917	-2.2313	-2.2229	-2.4021	-2.0438	-2.2438	-2.1271	-1.9667	-2.3854	-2.1188	-2.1854	375.955	319.319	367.476	397.118	312.817	183.610	412.495	246.581	332.369	200.941	449.308	426.962	323.712	176.340	116.294	326.718	0.00012257	0.0001225	2.8114e-05	203.95	1.8825e-06	2.0264e-06	449.69	32.821	3.4738e-07	1.3433e-06	113.68	39.049	11.524	3.6325	1.2391e-06	13.31	4.7603e-05	2.9597e-05	6.4944e-06	189.3	3.3359e-07	2.7042e-07	416.35	30.726	2.9598e-07	3.3847e-07	106.5	36.324	10.745	3.4587	3.1454e-07	12.572	239.124	220.218	174.922	102.527	240.700	193.204	102.147	109.499	407.973	229.900	107.762	112.897	114.473	118.944	274.221	115.968	-8191	255	
1676.439	1	1	0	0	0.13421	0.096386	0.16839	0.21182	0.32495	0.14696	0.19026	0.12355	0.11814	0.2543	0.16091	0.07038	0.092103	0.10742	0.1361	0.19421	-2.0854	-1.8563	-2.3292	-2.2021	-2.0104	-2.3771	-2.0187	-2.0917	-2.4271	-2.0042	-2.2542	-2.375	-1.9417	-2.5021	-2.3333	-2.2896	146.476	156.427	147.532	271.395	137.520	411.792	382.370	241.047	391.904	236.339	193.885	226.978	221.239	158.209	398.747	145.326	0.00010785	0.00019506	6.8902e-05	204.41	1.3987e-06	2.2544e-06	453.04	33.082	8.2842e-07	1.1975e-06	115.82	39.112	11.553	3.6059	8.0798e-07	13.355	4.803e-05	2.9498e-05	7.5323e-06	189.37	3.526e-07	2.6592e-07	415.52	30.888	2.8894e-07	3.1129e-07	107.21	36.369	10.768	3.4405	3.0263e-07	12.596	244.613	174.162	195.797	102.156	252.955	238.850	101.789	109.718	295.808	266.154	107.336	112.238	113.977	118.184	256.721	116.352	-8191	255	
1676.510	1	1	0	0	0.098338	0.094724	0.26093	0.074474	0.069654	0.032922	0.13017	0.14774	0.14815	0.28043	0.14485	0.098853	0.077879	0.11121	0.088128	0.28652	-2.175	-2.0333	-2.2583	-2.3854	-2.0042	-2.2604	-2.1792	-2	-2.4604	-1.9771	-2.3458	-2.3417	-2.0104	-2.4417	-2.0854	-2.2417	122.998	236.046	364.945	212.693	339.816	251.607	315.157	168.573	155.915	446.218	423.808	413.804	306.670	379.750	263.468	373.419	0.00011397	0.00016375	2.2977e-05	203.3	9.4145e-07	1.7314e-06	451.03	33.478	1.2426e-06	1.2772e-06	115.47	38.596	11.562	3.5827	1.3651e-06	13.436	4.9912e-05	2.8301e-05	7.1116e-06	189.17	3.6698e-07	2.8113e-07	417.15	31.184	2.7413e-07	3.2148e-07	107.1	36.157	10.752	3.4222	3.269e-07	12.664	239.365	179.334	179.725	102.384	261.707	189.130	102.398	110.401	321.003	213.093	106.999	113.065	113.249	118.001	291.384	116.211	-8191	255	
1676.607	1	1	0	0	0.1086	0.16418	0.064064	0.24782	0.2309	0.040228	0.16476	0.1384	0.10645	0.10656	0.063023	0.066501	0.10403	0.091614	0.31227	0.16592	-1.8687	-2.0167	-2.2062	-2.4313	-2.0167	-2.2438	-2.2188	-2.0083	-2.4083	-2.0792	-2.2271	-2.1417	-1.9188	-2.2	-2.3021	-1.9937	117.998	284.386	347.521	241.165	381.573	203.220	362.026	360.842	315.408	437.365	207.501	267.593	446.804	283.657	252.275	97.098	0.00011834	0.00015719	2.4936e-05	205.91	8.2248e-07	9.4998e-07	447.9	33.262	1.4012e-06	7.1621e-07	115.24	38.411	11.264	3.6881	9.1935e-07	13.296	4.6656e-05	2.9963e-05	7.721e-06	189.5	3.2565e-07	3.0209e-07	416.43	31.088	3.0525e-07	3.0341e-07	107.18	35.988	10.532	3.4324	2.3839e-07	12.48	237.538	142.374	197.034	102.166	244.603	279.514	102.420	109.804	261.667	273.831	107.069	112.671	114.155	118.618	239.137	116.470	-8191	255	
1676.727	1	1	0	0	0.048812	0.088155	0.2194	0.23353	0.10919	0.17645	0.28512	0.1543	0.1238	0.10832	0.19912	0.25103	0.26695	0.22769	0.30395	0.26009	-1.8167	-2.125	-2.2146	-2.3792	-2.2375	-2.2542	-2.275	-1.8813	-2.2583	-1.9292	-2.2146	-2.2917	-2.0854	-2.2229	-2.4458	-1.9562	195.271	387.715	131.506	115.535	104.256	288.261	406.125	160.357	380.674	269.450	175.611	126.211	426.244	222.322	234.514	113.357	0.00013373	0.00014191	2.18e-05	203.31	1.9362e-06	4.906e-07	449.6	32.732	1.4231e-06	1.0379e-06	114.15	38.354	11.502	3.5652	2.1492e-06	12.991	4.9773e-05	2.8949e-05	7.3121e-06	189.09	3.3314e-07	2.8362e-07	414.65	30.795	3.0301e-07	2.7531e-07	106.58	35.657	10.642	3.3786	2.7262e-07	12.23	232.189	165.853	136.808	101.789	305.904	280.168	102.067	109.636	288.242	223.865	107.323	112.729	113.798	118.806	230.356	116.557	-8191	255	
1676.823	1	1	0	0	0.21219	0.22077	0.20208	0.15298	0.14289	0.080001	0.16827	0.0040056	0.1922	0.20459	0.040634	0.16536	0.10626	0.24155	0.25223	0.19084	-1.8896	-2.1458	-1.9958	-2.425	-1.9125	-2.2	-2.5062	-1.9917	-2.3896	-2.1	-2.0875	-2.4771	-2.1813	-2.1458	-2.475	-1.9937	291.429	292.151	92.638	139.203	274.088	364.980	420.190	256.834	381.690	409.402	115.689	259.948	281.025	360.869	210.916	437.268	0.00011353	0.00015192	3.7627e-05	203.16	1.5054e-06	1.5391e-06	442.43	32.483	7.9703e-07	1.3591e-06	113.09	38.172	11.356	3.5952	1.5161e-06	13.096	4.818e-05	2.8822e-05	8.2438e-06	188.68	3.5605e-07	2.6654e-07	411.04	30.674	2.7772e-07	2.5709e-07	106.2	35.537	10.561	3.3968	2.7986e-07	12.34	235.916	177.104	173.990	101.668	293.882	219.899	101.893	109.442	293.635	236.519	107.017	112.467	113.577	118.892	296.788	115.410	-8191	255	
1676.920	1	1	0	0	0.12021	0.14221	0.26595	0.033565	0.098657	0.079764	0.20578	0.13752	0.12596	0.18224	0.1821	0.1782	0.089205	0.15926	0.08311	0.23621	-1.8896	-2.15	-2.1646	-2.3708	-2.0812	-2.1437	-2.475	-1.9479	-2.3271	-2.2729	-1.9042	-2.4625	-2.1396	-2.125	-2.3542	-2.0062	116.804	347.631	249.466	444.796	391.273	195.912	347.083	111.651	323.537	318.102	333.556	108.372	151.698	146.995	220.240	156.902	0.00013036	0.00021194	5.2095e-05	203	1.7701e-06	1.2e-06	443.61	32.717	4.6418e-07	8.8374e-07	114.87	37.847	11.493	3.5911	1.3155e-06	13.215	4.7395e-05	2.4385e-05	6.8522e-06	188.3	3.1817e-07	2.7228e-07	411.17	30.753	2.8999e-07	2.5339e-07	106.48	35.511	10.55	3.4046	2.3689e-07	12.375	235.757	195.517	204.871	102.139	229.492	173.948	102.037	110.340	262.180	218.235	107.208	113.005	113.581	119.702	282.347	116.415	-8191	255	
1677.040	1	1	0	0	0.1126	0.46984	0.33501	0.16173	0.17924	0.31217	0.063553	0.144	0.3341	0.1499	0.32402	0.1186	0.11042	0.060476	0.12533	0.11427	-1.6688	-2.4292	-1.8708	-2.3771	-2.3021	-2.025	-2.5333	-2.0458	-2.3563	-2.5104	-1.8	-2.3708	-2.0646	-2.0708	-2.3708	-2.1333	224.243	199.490	330.626	150.839	407.328	310.421	101.690	382.081	269.343	303.712	309.064	371.857	361.751	190.799	247.076	212.045	0.00012461	7.8791e-06	1.8456e-05	200.81	8.8194e-07	3.9461e-07	449.45	32.782	9.9476e-07	6.5333e-07	114.3	37.979	11.518	3.5115	1.4214e-06	12.993	4.9681e-05	2.6906e-05	6.864e-06	187.15	2.6681e-07	2.9728e-07	412.62	30.653	3.0914e-07	2.5508e-07	106.71	35.643	10.604	3.3382	2.6795e-07	12.283	234.469	93.770	129.657	102.085	256.671	173.003	102.207	109.152	264.337	216.104	106.817	112.723	113.594	118.529	260.317	117.015	-8191	255	
1677.112	1	1	0	0	0.18362	0.16721	0.10618	0.28067	0.15785	0.14397	0.090223	0.21461	0.17422	0.25465	0.027259	0.095356	0.19204	0.16704	0.16271	0.18445	-1.7708	-2.2917	-2.0729	-2.3208	-2.225	-1.9479	-2.5208	-2.0979	-2.3	-2.5396	-2.0729	-2.3021	-2.1375	-2.0563	-2.3729	-2.1854	184.104	189.231	215.516	354.488	304.937	435.478	315.466	328.579	378.623	137.422	392.909	338.368	240.788	160.492	256.312	174.843	0.00011328	0.00012914	2.0172e-05	201.08	3.9537e-07	1.4772e-06	443.16	32.595	3.882e-07	7.3536e-07	115.62	38.048	11.301	3.5759	1.0752e-06	12.994	4.773e-05	2.4652e-05	7.8192e-06	186.9	3.1682e-07	3.0085e-07	409.74	30.683	2.8535e-07	2.5385e-07	106.37	35.479	10.436	3.3616	2.6282e-07	12.304	237.855	223.954	161.367	102.105	308.333	262.227	102.524	109.653	245.538	224.203	107.032	112.290	114.511	118.922	295.231	116.186	-8191	255	
1677.208	1	1	0	0	0.19894	0.10026	0.15788	0.1224	0.39015	0.068132	0.22503	0.027853	0.25551	0.19763	0.26423	0.0464	0.0063915	0.057879	0.050893	0.21265	-1.6896	-2.3	-1.7146	-2.3292	-2.2229	-1.9167	-2.4833	-2.025	-2.0083	-2.4188	-2.0625	-2.3729	-2.2333	-1.9333	-2.5125	-2.0833	426.975	95.088	450.046	116.471	397.243	423.917	317.724	102.595	149.700	116.979	157.637	293.159	209.065	279.272	411.433	96.827	0.00010576	0.00019668	1.368e-05	200.21	1.9431e-06	1.1885e-06	443.09	33.182	9.9788e-07	1.0733e-06	115.39	37.74	11.309	3.5689	1.4656e-06	12.83	4.5029e-05	2.7188e-05	7.1352e-06	187.1	2.9181e-07	3.2677e-07	409.62	30.756	3.3293e-07	2.6574e-07	106.79	35.458	10.538	3.3691	2.4955e-07	12.265	230.941	139.563	204.314	102.339	270.835	286.904	102.097	109.448	277.180	199.101	106.816	112.473	114.850	118.707	279.931	115.443	-8191	255	
1677.327	1	1	0	0	0.22696	0.25574	0.26591	0.074734	0.31823	0.083727	0.038948	0.18328	0.1105	0.27089	0.056454	0.093747	0.11147	0.36584	0.20857	0.32685	-1.4729	-2.3021	-1.9396	-2.1604	-2.3667	-1.9708	-2.2604	-2.2062	-1.9958	-2.4229	-2.0833	-2.1229	-2.3146	-1.9646	-2.2208	-2.0854	289.949	263.544	414.554	390.971	148.381	384.869	177.308	155.362	111.275	401.609	142.508	104.214	149.928	231.323	217.991	125.479	0.00011727	8.8434e-05	2.3725e-05	203.2	2.7427e-07	1.0136e-06	442.94	33.201	1.1974e-06	1.0623e-06	115.24	38.045	11.226	3.5581	1.2409e-06	13.074	4.9646e-05	2.137e-05	7.0527e-06	187.84	3.3284e-07	2.7042e-07	409.84	30.701	3.2485e-07	2.6435e-07	106.64	35.599	10.429	3.3602	2.7353e-07	12.331	235.580	280.450	192.374	102.188	308.694	242.806	102.089	109.746	258.447	246.080	106.965	112.609	114.085	118.932	216.598	116.426	-8191	255	
1677.423	1	1	0	0	0.18799	0.085918	0.084919	0.22453	0.18534	0.28807	0.26426	0.18025	0.088948	0.11521	0.22638	0.15576	0.15207	0.26579	0.19116	0.058623	-1.5	-2.1792	-1.9458	-2.3417	-2.3833	-2.0771	-2.3063	-2.2687	-1.9583	-2.3104	-2.2	-2.2396	-2.2646	-2.0583	-2.2438	-2.3312	162.151	445.763	327.019	187.374	127.213	278.366	277.015	105.222	153.265	271.016	421.131	442.665	110.823	254.474	169.071	208.749	0.00012798	5.417e-05	3.2934e-05	201.61	7.935e-07	5.3381e-07	441.01	32.973	1.44e-06	1.5991e-06	114.9	38.171	11.216	3.6559	1.6064e-06	13.091	5.1458e-05	2.2117e-05	7.2885e-06	186.93	2.6876e-07	2.6282e-07	409.94	30.707	3.5209e-07	2.6944e-07	106.68	35.665	10.473	3.3884	2.6011e-07	12.355	236.544	421.132	215.928	102.132	220.525	244.466	102.265	109.614	222.857	261.458	106.860	112.229	114.186	118.438	251.489	116.176	-8191	255	
1677.519	1	1	0	0	0.32184	0.28015	0.27633	0.16983	0.10597	0.31411	0.16409	0.14695	0.052235	0.11052	0.087992	0.19303	0.31093	0.15746	0.013627	0.10474	-1.5063	-2.3833	-2.1437	-2.0812	-2.4292	-1.9292	-2.3792	-2.3667	-1.9833	-2.3667	-2.2396	-2.0938	-2.5021	-1.9771	-2.2854	-2.4146	442.549	236.673	286.946	274.894	427.882	232.650	196.138	124.754	337.397	127.649	439.485	341.871	126.665	403.064	348.975	215.161	0.00011768	0.000125	6.7193e-06	202.31	1.7468e-06	1.5497e-06	441.14	32.548	4.0929e-07	7.1319e-07	114.6	37.944	11.3	3.6179	6.523e-07	13.25	4.8653e-05	2.1469e-05	7.1038e-06	187.79	2.9855e-07	3.0845e-07	409.15	30.681	2.9418e-07	2.4783e-07	105.79	35.572	10.616	3.4119	2.6327e-07	12.344	235.973	130.880	145.100	102.490	243.391	239.427	102.062	109.683	226.478	252.427	106.366	112.770	112.509	118.833	250.973	116.333	-8191	255	
1677.640	1	1	0	0	0.13588	0.12669	0.073077	0.17301	0.099229	0.49286	0.25283	0.17742	0.31969	0.33513	0.31879	0.28166	0.089556	0.099613	0.022726	0.20313	-1.3563	-2.3333	-2.0708	-1.9833	-2.3583	-1.9312	-2.1188	-2.3729	-2.0208	-2.3312	-2.2104	-1.9875	-2.2667	-1.8875	-2.1521	-2.3812	317.681	419.801	241.351	176.934	107.365	264.780	418.211	318.524	199.119	425.513	448.514	370.837	373.185	408.944	308.828	199.651	0.00010796	0.00010063	2.585e-05	202.12	2.143e-06	1.0203e-06	443.4	33.055	7.289e-07	5.3085e-07	113.95	38.068	11.644	3.584	1.6694e-07	13.142	4.893e-05	2.3497e-05	7.2217e-06	187.77	3.0993e-07	2.9091e-07	409.11	30.759	3.0226e-07	2.5354e-07	106.53	35.849	10.813	3.4275	3.1243e-07	12.395	239.635	413.057	162.924	102.456	283.269	296.698	102.005	109.183	263.818	325.840	106.493	112.794	113.601	119.061	201.161	116.402	-8191	255	
1677.711	1	1	0	0	0.272	0.22726	0.17667	0.1602	0.33438	0.3146	0.1582	0.1309	0.064699	0.13158	0.060281	0.2102	0.23489	0.28829	0.23291	0.05426	-1.475	-2.1792	-2.1583	-1.7604	-2.2604	-2.1167	-2.1521	-2.4125	-1.9667	-2.2083	-2.1125	-2.1354	-2.3563	-2.1229	-2.1458	-2.4771	146.267	125.074	238.172	352.107	199.140	444.561	254.460	326.147	115.409	441.000	114.839	447.969	291.159	148.837	109.754	422.966	0.00011992	0.00011585	4.5652e-05	201.58	1.1585e-06	1.0943e-06	441.68	33.488	4.4386e-07	9.0621e-07	115.28	38.425	11.368	3.7023	1.3161e-06	13.261	4.8861e-05	2.3075e-05	6.6202e-06	187.6	2.8672e-07	3.1156e-07	408.44	31	2.8056e-07	2.2358e-07	106.88	36.101	10.723	3.4571	2.8529e-07	12.554	239.618	171.471	216.372	102.074	234.500	250.486	101.719	108.793	174.836	247.213	106.816	113.225	113.354	118.968	236.089	115.608	-8191	255	
1677.808	1	1	0	0	0.27354	0.063388	0.11302	0.25293	0.15398	0.18609	0.24651	0.05152	0.33172	0.16059	0.093251	0.21383	0.16956	0.17641	0.06362	0.079819	-1.7375	-2.3063	-2.3292	-2.1312	-2.4646	-2.0208	-1.9479	-2.6167	-2.0333	-2.3708	-2.3542	-1.9083	-2.2271	-2.1917	-1.9562	-2.5896	131.596	165.231	367.913	408.706	407.246	328.533	421.969	195.696	248.452	404.997	387.661	174.552	342.157	394.107	223.453	305.343	0.00011935	0.00022709	1.1504e-05	202.55	1.1712e-06	1.455e-06	443.31	33.143	7.1204e-07	1.1926e-06	115.15	38.792	11.896	3.6857	1.3091e-06	13.141	5.0604e-05	2.6089e-05	6.4158e-06	188.09	2.5723e-07	2.5909e-07	409.64	30.964	3.0421e-07	2.7454e-07	107.32	36.21	10.848	3.4877	2.8604e-07	12.48	230.949	216.450	262.546	101.986	190.349	176.872	102.266	109.470	305.813	236.654	107.012	112.542	113.804	117.934	266.396	115.603	-8191	255	
1677.904	1	1	0	0	0.12559	0.2224	0.29382	0.053333	0.17904	0.13475	0.053036	0.18796	0.050723	0.30403	0.19426	0.46522	0.1487	0.09937	0.27675	0.23511	-1.6521	-2.0875	-2.3771	-1.9792	-2.2604	-2.1562	-1.9354	-2.5271	-2.2042	-2.1521	-2.3896	-2.0563	-2.3896	-2.2	-1.9646	-2.4208	135.630	257.627	209.801	285.823	127.440	308.649	95.731	392.288	436.031	405.954	184.879	177.811	195.801	292.217	428.283	351.625	0.00011614	0.00027611	3.9677e-05	203.34	1.8597e-06	2.4186e-06	438.84	33.308	4.7356e-07	6.0491e-07	114.61	38.73	11.755	3.7298	1.2213e-06	13.415	4.6553e-05	2.8653e-05	6.6202e-06	188.41	2.478e-07	2.83e-07	407.94	31.081	3.1917e-07	2.7377e-07	106.65	36.068	10.859	3.4812	3.2238e-07	12.466	235.034	186.682	158.974	101.960	265.567	218.058	102.087	109.612	291.806	96.369	106.931	113.433	113.927	118.356	283.027	115.768	-8191	255	
1678.023	1	1	0	0	0.18073	0.060779	0.03502	0.028857	0.15377	0.11365	0.1212	0.023449	0.33762	0.21508	0.16926	0.039663	0.069232	0.15014	0.15279	0.2703	-1.6604	-2.1271	-2.4833	-1.9583	-2.2479	-2.4146	-1.9625	-2.2521	-2.2583	-2.125	-2.4188	-1.9417	-2.1167	-2.4062	-1.9521	-2.3125	376.282	206.631	444.614	324.117	329.258	422.962	372.133	183.359	346.776	95.572	361.898	404.757	201.767	424.161	234.060	130.302	0.00011554	0.00015296	3.3118e-05	204.09	1.1431e-06	8.1677e-07	441.23	33.293	9.8524e-07	8.5406e-07	114.56	38.881	11.637	3.6526	2.1718e-06	13.297	4.9034e-05	2.6005e-05	6.2074e-06	188.71	2.8059e-07	2.6421e-07	408.85	31.142	2.7368e-07	2.8072e-07	106.67	36.183	10.877	3.486	2.7111e-07	12.528	238.828	219.299	125.830	101.996	244.825	303.859	102.611	109.501	357.756	252.325	106.830	112.714	113.752	118.866	273.452	116.366	-8191	255	
1678.119	1	1	0	0	0.087491	0.14448	0.080176	0.056845	0.11401	0.11645	0.15446	0.10587	0.27167	0.06593	0.12093	0.11175	0.075676	0.17904	0.069769	0.12479	-1.7146	-2.0729	-2.4458	-2.0563	-2.2958	-2.4729	-2.0125	-2.2917	-2.2708	-1.9813	-2.5021	-2.0979	-2.1188	-2.3375	-2.0187	-2.2292	209.362	333.151	208.010	299.262	197.342	255.830	369.562	208.936	101.789	141.486	272.471	448.703	326.650	242.428	334.930	157.996	0.00013656	0.00018573	2.8179e-05	201.79	4.7274e-07	1.9463e-06	441.97	33.701	1.2256e-06	1.1855e-06	113.93	38.677	11.511	3.6711	1.0874e-06	13.283	5.0154e-05	2.7146e-05	6.0502e-06	188.03	3.1382e-07	2.5241e-07	409.68	31.22	2.6904e-07	2.9291e-07	106.59	36.051	10.727	3.4437	2.5558e-07	12.509	243.299	208.757	156.553	102.097	232.496	224.915	102.345	109.808	297.761	209.849	106.650	112.463	113.237	119.247	198.014	115.732	-8191	255	
1678.215	1	1	0	0	0.25068	0.23235	0.018846	0.12226	0.15758	0.067894	0.26485	0.19203	0.022958	0.055491	0.052263	0.15703	0.064806	0.020162	0.24099	0.15213	-1.7125	-1.9271	-2.2979	-2.2021	-2.1396	-2.4604	-2.1458	-2.2542	-2.2271	-2	-2.4979	-2.1417	-1.8979	-2.3417	-1.9521	-2.3542	423.187	332.857	247.200	124.445	275.039	168.790	411.047	268.596	200.807	401.314	210.457	412.349	316.663	186.283	163.885	105.873	0.00012698	0.00020918	3.8916e-05	203.44	1.1533e-06	9.4329e-07	442.04	33.608	8.3026e-07	6.629e-07	114.63	38.037	11.24	3.5335	1.2893e-06	12.984	5.0477e-05	2.7301e-05	6.7382e-06	189.03	3.0724e-07	2.563e-07	409.99	31.127	2.3627e-07	2.8751e-07	106.42	35.566	10.535	3.3574	2.9614e-07	12.298	229.759	174.940	210.573	101.976	300.786	260.843	102.301	109.481	241.648	283.491	106.928	112.936	114.296	118.549	291.393	116.068	-8191	255	
1678.311	1	1	0	0	0.28263	0.19632	0.090902	0.06431	0.25171	0.24094	0.12298	0.21373	0.078358	0.071631	0.29805	0.2939	0.18948	0.18339	0.11926	0.0066935	-1.85	-2.0354	-2.3292	-2.1021	-2.0479	-2.3542	-1.875	-2.2812	-2.2812	-1.9833	-2.3958	-2.3021	-2.1063	-2.35	-2.0667	-2.3083	99.097	411.319	319.517	444.802	428.789	114.122	114.844	352.195	357.923	175.746	448.662	165.103	252.393	194.166	142.695	115.600	0.00013322	0.0002065	1.818e-05	202.48	1.4829e-06	1.7751e-06	445.39	33.058	1.1534e-06	8.2918e-07	112.44	37.69	11.445	3.538	1.5296e-06	13.022	4.3932e-05	2.8202e-05	6.5298e-06	187.79	3.0529e-07	2.5009e-07	410.02	30.644	2.7503e-07	2.7145e-07	105.33	35.334	10.548	3.3379	2.7639e-07	12.27	235.544	187.640	159.751	102.119	211.860	233.279	102.183	109.960	262.801	258.230	106.743	112.316	114.300	118.594	253.952	116.547	-8191	255	
1678.407	1	1	0	0	0.1592	0.24659	0.13749	0.20126	0.068463	0.12342	0.37439	0.3387	0.25938	0.16821	0.096507	0.20975	0.17459	0.11051	0.087508	0.012779	-1.9	-1.9083	-2.3688	-2.15	-1.9708	-2.6271	-2.1146	-2.0896	-2.3646	-2.0979	-2.2104	-2.175	-2.0792	-2.2729	-1.9854	-2.1	289.389	195.720	339.196	231.576	300.677	372.076	281.859	127.103	241.372	193.639	240.242	371.049	442.839	153.461	110.074	301.285	0.00013441	0.00012245	2.3888e-05	203.33	1.5152e-06	1.6856e-06	444.5	32.82	1.3313e-06	1.7188e-06	113.1	38.183	11.56	3.5141	2.7279e-07	13.135	4.5525e-05	2.7583e-05	6.3136e-06	187.31	3.1098e-07	2.3596e-07	409.52	30.626	2.84e-07	3.0758e-07	105.27	35.389	10.618	3.3488	2.7066e-07	12.308	235.152	227.277	241.802	102.442	295.832	220.290	102.091	108.993	264.016	193.206	106.726	112.115	114.515	117.992	249.910	115.874	-8191	255	
1678.503	1	1	0	0	0.30787	0.075439	0.062378	0.1561	0.12461	0.15331	0.14937	0.054823	0.11986	0.28526	0.38093	0.19118	0.073725	0.026185	0.13943	0.046471	-1.9604	-1.8854	-2.3292	-2.3229	-1.8792	-2.5812	-2.0396	-1.9125	-2.4646	-1.9979	-2.2521	-2.3021	-1.7208	-2.2604	-2.0083	-2.0042	243.013	416.140	343.642	398.369	328.636	274.944	172.892	340.794	135.712	347.721	333.498	193.309	182.536	239.199	163.598	418.349	0.00013166	0.00015247	3.5642e-05	202.09	1.4359e-06	5.2273e-07	442.56	32.875	1.2103e-06	1.8884e-06	112.96	38.125	11.394	3.4869	1.1528e-06	13.033	4.6068e-05	2.8231e-05	6.5652e-06	187.65	3.0469e-07	2.6794e-07	408.25	30.498	2.6021e-07	2.6033e-07	106.05	35.451	10.541	3.3522	2.8559e-07	12.269	236.621	194.081	157.817	102.194	274.003	228.963	102.290	108.883	249.845	241.221	106.622	112.939	114.669	118.507	197.437	115.905	-8191	255	
1678.600	1	1	0	0	0.22487	0.077937	0.096173	0.21182	0.14637	0.18144	0.0068269	0.1764	0.1314	0.24454	0.29811	0.1354	0.058314	0.14755	0.18198	0.061138	-1.9625	-2.0396	-2.175	-2.3125	-1.9271	-2.3021	-2.1771	-2.1583	-2.7917	-2.0146	-2.1875	-2.3646	-1.9292	-2.1437	-2.425	-2.1063	442.180	451.212	428.445	121.971	209.852	300.717	315.055	223.168	360.637	375.001	346.648	129.870	126.379	229.677	369.523	171.453	0.00012416	0.00015528	4.1454e-05	202.8	1.0338e-06	1.4421e-06	442.93	33.208	9.8769e-07	1.0758e-06	113.99	37.918	11.437	3.4776	9.7296e-07	12.981	4.7903e-05	2.485e-05	6.691e-06	187.23	2.9451e-07	2.3844e-07	409.91	30.679	2.4031e-07	2.2914e-07	105.48	35.553	10.574	3.322	2.9237e-07	12.237	236.592	178.897	201.895	102.228	279.038	238.087	102.375	109.518	265.006	288.858	107.543	112.416	114.537	118.858	220.055	116.443	-8191	255	
1678.720	1	1	0	0	0.23467	0.27559	0.065778	0.050729	0.17878	0.37348	0.075056	0.28165	0.12147	0.23038	0.26715	0.054765	0.26405	0.20065	0.21897	0.065423	-1.9625	-2.0958	-2.2375	-2.4167	-1.7354	-2.3396	-2.3208	-2.0667	-2.6646	-2.3271	-2.1271	-2.3396	-2.1125	-2.3208	-2.325	-1.9667	310.564	330.256	196.215	425.733	183.852	140.930	348.556	304.928	220.647	199.510	306.637	236.699	266.511	298.546	352.552	276.550	0.00011404	0.00011392	4.3297e-05	202.58	8.755e-07	1.3382e-06	439.48	33.192	9.3222e-07	1.4899e-06	114.19	37.711	11.596	3.5957	9.1567e-07	13.171	4.2847e-05	2.4342e-05	6.8797e-06	187.75	2.981e-07	2.6002e-07	407.83	30.708	2.6291e-07	2.923e-07	105.77	35.594	10.666	3.3857	2.5513e-07	12.388	234.088	264.297	156.090	102.210	284.016	219.108	102.418	109.831	196.218	244.732	106.495	112.988	113.822	118.066	278.003	116.800	-8191	255	
1678.816	1	1	0	0	0.10026	0.34735	0.13114	0.42523	0.19041	0.14123	0.25219	0.079681	0.10046	0.10614	0.37911	0.11595	0.13758	0.17186	0.051942	0.18229	-1.9021	-2.1771	-2.0417	-2.2354	-2.0979	-2.4479	-2.2042	-2.1854	-2.4542	-2.1312	-1.9792	-2.6167	-1.7979	-2.2604	-2.3812	-2.0292	259.593	223.075	321.279	391.151	198.539	98.854	138.434	118.708	212.694	274.754	227.169	426.507	342.290	106.783	238.546	341.893	0.00011814	6.4419e-05	5.2087e-05	204.09	1.0753e-06	1.027e-06	435.15	33.123	1.7319e-07	6.9383e-07	113.42	38.388	11.42	3.5702	5.1338e-07	13.034	4.3701e-05	2.4469e-05	7.0684e-06	188.01	2.999e-07	2.6452e-07	406.32	30.813	2.5453e-07	2.7469e-07	105.39	35.793	10.645	3.3828	2.3794e-07	12.326	237.092	167.977	186.075	102.103	301.314	231.517	102.290	109.315	401.958	173.129	107.056	112.735	114.760	119.076	258.693	116.030	-8191	255	
1678.912	1	1	0	0	0.084955	0.11701	0.31602	0.11914	0.15864	0.25725	0.11627	0.09626	0.16711	0.12874	0.22273	0.061249	0.15515	0.1665	0.19861	0.22729	-1.8979	-2.3271	-2.0312	-2.4521	-2.2208	-2.3125	-2.4042	-1.7583	-2.3083	-2.2208	-1.85	-2.5583	-2.1292	-2.2188	-2.5729	-1.875	161.436	272.939	417.035	296.593	189.375	218.063	385.048	295.033	240.835	122.046	367.301	422.298	272.152	410.198	166.460	361.774	0.00012365	0.00013701	2.7937e-05	202.8	1.6068e-06	8.0633e-07	443.61	33.54	1.1886e-06	1.9057e-06	113.02	37.926	11.477	3.5479	2.0955e-06	13.038	4.6299e-05	2.4695e-05	7.1352e-06	187.96	3.2715e-07	2.7461e-07	409.21	31.038	2.7054e-07	2.7732e-07	105.82	35.647	10.681	3.398	2.2301e-07	12.35	238.080	163.988	165.234	102.538	224.115	266.554	102.044	109.944	266.786	207.495	107.180	112.589	114.532	119.404	278.226	116.320	-8191	255	
1679.009	1	1	0	0	0.084095	0.14429	0.098771	0.071492	0.13446	0.068152	0.16612	0.091243	0.15954	0.071496	0.33779	0.16891	0.19419	0.31671	0.287	0.12626	-1.8292	-2.2188	-1.8208	-2.2333	-2.2687	-2.1813	-2.4958	-1.9854	-2.2625	-2.2208	-2.0958	-2.3771	-1.9708	-2.0479	-2.3833	-2.2271	265.412	306.971	171.045	157.761	137.939	359.416	261.228	378.577	352.457	238.491	352.709	123.892	200.052	207.031	286.611	348.458	0.00011619	0.00022355	2.6494e-05	204.57	1.5628e-06	6.5521e-07	443.62	32.876	1.3382e-06	1.4579e-06	115.15	37.657	11.721	3.5911	2.1419e-06	12.929	4.6772e-05	2.4258e-05	7.6305e-06	189.03	2.993e-07	2.58e-07	409.22	30.977	2.9029e-07	2.6805e-07	106.16	35.589	10.793	3.3977	2.0839e-07	12.223	238.552	218.266	102.411	102.269	246.727	258.582	102.108	109.183	250.056	227.097	106.652	112.903	113.587	117.134	247.483	116.143	-8191	255	
1679.103	1	1	0	0	0.2702	0.34834	0.26168	0.095111	0.25772	0.22482	0.12005	0.22802	0.22678	0.33169	0.31624	0.20311	0.13051	0.10649	0.14553	0.18366	-1.9083	-2.2375	-1.9	-2.2021	-2.2062	-2.0375	-2.4938	-2.0896	-2.2562	-2.3083	-2.0229	-2.5167	-2.1562	-2.0812	-2.3771	-2.1646	364.810	265.861	151.970	348.305	280.611	320.663	225.492	315.744	436.541	156.340	372.951	103.583	443.280	108.602	352.370	241.942	0.00013029	0.0001187	3.137e-05	203.48	1.5723e-06	9.7871e-07	440.8	33.745	9.9819e-07	7.5636e-07	114.14	38.041	11.622	3.5535	9.6889e-07	13.089	4.773e-05	2.1286e-05	7.7839e-06	189.57	3.1772e-07	2.8284e-07	409.24	31.287	2.9882e-07	2.3069e-07	106.33	35.677	10.807	3.4067	2.4895e-07	12.265	235.916	231.533	177.608	102.485	253.745	187.373	102.477	110.117	269.770	209.990	107.091	112.636	114.240	118.896	216.077	116.045	-8191	255	
1679.199	1	1	0	0	0.14842	0.21506	0.049841	0.22246	0.13604	0.35411	0.13249	0.24058	0.19587	0.26312	0.12315	0.21774	0.17864	0.10468	0.16596	0.18028	-1.8104	-2.35	-1.9542	-2.4313	-2.2792	-2.0125	-2.5354	-2.0146	-2.2417	-2.5542	-2.1063	-2.2125	-2.2521	-1.9708	-2.5812	-2.1521	167.185	310.432	135.070	253.786	177.381	402.203	357.127	426.086	391.636	190.499	185.262	126.074	118.721	121.220	259.537	276.955	0.00012257	0.00016196	1.6619e-05	205.23	8.9617e-07	1.0483e-06	442.01	33.644	3.5254e-07	1.2474e-06	114.12	38.303	11.594	3.6563	1.1738e-06	12.995	4.6264e-05	2.1779e-05	6.176e-06	190	3.0963e-07	2.6902e-07	408.77	31.318	2.6231e-07	2.0259e-07	105.85	35.707	10.765	3.4331	2.5302e-07	12.319	238.481	183.579	197.103	101.376	141.964	259.069	102.259	110.047	384.488	225.753	107.362	112.535	113.893	119.759	269.869	115.616	-8191	255	
1679.320	1	1	0	0	0.098811	0.18775	0.089886	0.025262	0.24387	0.29927	0.23317	0.16627	0.12362	0.19136	0.24205	0.14034	0.047761	0.13038	0.26056	0.17307	-1.6	-2.6042	-2.0458	-2.1562	-2.4396	-2.1333	-2.3563	-1.9521	-2.1396	-2.5667	-1.9688	-2.1792	-2.1167	-1.8208	-2.2542	-2.2771	129.764	160.100	300.122	178.773	100.655	316.041	355.900	295.488	356.848	312.765	227.372	368.241	424.227	254.584	159.401	242.572	0.00012354	6.563e-05	3.4055e-05	204.48	1.3638e-06	1.5799e-06	443.66	33.256	1.7672e-06	1.4507e-06	116.01	38.537	11.755	3.7272	8.8542e-07	13.289	4.7857e-05	2.2427e-05	7.3043e-06	189.12	2.5663e-07	2.6499e-07	410.95	31.346	3.253e-07	2.6389e-07	106.81	35.884	10.809	3.4772	2.5498e-07	12.393	237.905	175.484	209.892	102.643	270.858	250.946	102.068	109.421	264.107	247.702	106.872	112.901	113.167	119.552	256.117	115.599	-8191	255	
1679.416	1	1	0	0	0.1113	0.18119	0.11827	0.10994	0.30155	0.28522	0.14313	0.2651	0.048984	0.2164	0.10319	0.17513	0.083225	0.1391	0.29522	0.064406	-1.6125	-2.4813	-1.9417	-2.0625	-2.4521	-2.0146	-2.1688	-2.2208	-2.1229	-2.3417	-2.1813	-2.1479	-2.3458	-1.8104	-2.3125	-2.3583	200.632	147.120	218.479	391.098	164.463	96.430	380.662	226.848	333.311	196.024	401.265	405.946	236.921	335.854	124.405	174.416	0.00011693	9.1696e-05	1.2144e-05	203.48	2.4353e-07	1.3607e-06	441.94	33.561	7.1292e-07	9.0455e-07	114.62	38.23	11.657	3.5923	1.174e-06	12.985	4.8388e-05	2.3779e-05	6.7932e-06	189.5	2.9406e-07	2.6173e-07	409.77	31.337	2.7922e-07	2.5277e-07	106.05	35.531	10.762	3.38	2.3251e-07	12.288	229.127	219.834	415.790	102.434	197.674	201.243	102.358	109.618	323.788	240.325	106.509	112.911	114.235	118.665	252.532	116.061	-8191	255	
1679.512	1	1	0	0	0.10741	0.09319	0.10355	0.066322	0.1462	0.047699	0.022129	0.23299	0.12329	0.20678	0.12085	0.39924	0.063424	0.025981	0.042689	0.091293	-1.7	-2.3229	-2.0646	-2.2062	-2.3812	-2.0125	-2.3771	-2.2313	-1.9396	-2.3458	-2.2125	-2.1229	-2.2792	-2.1021	-2.25	-2.3125	148.142	153.664	97.492	227.176	429.926	357.233	337.541	349.921	154.342	444.175	227.190	386.736	415.220	268.882	299.487	385.379	0.00011663	6.3136e-05	3.6151e-05	203.87	3.195e-07	1.6161e-06	441.09	33.728	7.6726e-07	4.6363e-07	114.57	37.76	11.483	3.5701	1.3107e-06	13.035	5.0004e-05	2.4836e-05	7.4694e-06	189.09	2.7415e-07	2.9883e-07	408.51	31.326	2.8879e-07	2.3146e-07	105.93	35.3	10.697	3.3951	2.9871e-07	12.257	235.099	189.037	207.232	102.282	263.835	213.476	102.353	109.762	220.154	200.938	106.751	112.751	113.841	118.376	282.166	116.069	-8191	255	
1679.608	1	1	0	0	0.14441	0.19887	0.11847	0.15318	0.024815	0.2646	0.25262	0.012052	0.039423	0.17983	0.031182	0.19512	0.14819	0.13044	0.13901	0.12262	-1.4396	-2.2917	-2.0104	-2.0104	-2.4542	-2.0438	-2.2313	-2.375	-1.8792	-2.2938	-2.1458	-2.15	-2.3854	-2.0271	-2.325	-2.3333	251.867	438.784	98.239	383.673	251.351	149.419	279.520	352.954	118.331	337.529	435.676	213.576	300.386	336.852	306.122	374.865	0.00013432	0.00012256	3.9981e-05	202.98	8.4896e-07	9.8107e-07	443.1	33.432	9.3067e-07	9.9738e-07	115.45	38.037	11.421	3.5929	1.2004e-06	12.913	4.9034e-05	2.5103e-05	7.3947e-06	188.2	2.5064e-07	2.653e-07	409.43	31.073	3.069e-07	2.1447e-07	106.09	35.439	10.586	3.3746	2.6478e-07	12.201	232.500	209.253	164.333	102.148	269.033	205.778	102.837	109.683	293.108	283.134	106.932	112.803	113.927	118.671	331.547	116.467	-8191	255	
1679.680	1	1	0	0	0.25593	0.25558	0.040583	0.17675	0.073028	0.13975	0.18247	0.10275	0.17141	0.087323	0.096718	0.036973	0.22912	0.094642	0.1715	0.089538	-1.3521	-2.2917	-2.2521	-1.9875	-2.2875	-2.0604	-2.2229	-2.3646	-1.9562	-2.2667	-2.1604	-2.0438	-2.4021	-2.0417	-2.1021	-2.3854	284.954	294.583	235.107	422.467	329.969	170.420	404.348	277.880	448.736	293.416	266.053	182.267	415.735	266.264	354.606	220.302	0.00012996	0.00019837	5.9268e-05	203.96	1.1762e-06	5.9137e-07	442.92	33.035	5.898e-07	2.1826e-06	114.11	37.949	11.301	3.5234	1.0314e-06	12.942	4.9785e-05	2.6315e-05	7.8271e-06	188.46	2.201e-07	2.521e-07	409.57	30.998	2.861e-07	2.4798e-07	105.85	35.276	10.546	3.3329	2.9418e-07	12.212	243.089	150.663	172.296	102.399	234.104	364.663	102.453	109.807	204.449	269.744	107.166	112.765	114.001	119.141	224.817	116.550	-8191	255	
1679.801	1	1	0	0	0.22187	0.098616	0.10148	0.29802	0.1631	0.09155	0.073705	0.078802	0.33117	0.21386	0.18274	0.13323	0.22931	0.23112	0.12974	0.22733	-1.5875	-2.2687	-2.2896	-2.1729	-2.3979	-2.2854	-2.3146	-2.2833	-1.9417	-2.35	-2.3667	-2.0375	-2.2438	-2.1729	-2.1083	-2.4833	374.722	440.662	326.218	126.788	378.237	141.038	414.155	326.492	113.571	128.615	310.145	304.356	241.298	232.373	297.910	145.746	0.00010871	0.00014103	5.6429e-05	204.25	1.6911e-06	2.5824e-07	440.56	32.971	1.8008e-06	1.0264e-06	113.43	37.838	11.222	3.4379	6.773e-07	12.802	4.6252e-05	2.4638e-05	6.7539e-06	187.7	2.5992e-07	2.8144e-07	407.91	30.599	2.9014e-07	2.6404e-07	105.39	35.167	10.344	3.283	2.6644e-07	12.006	240.173	190.179	156.518	102.316	257.619	238.085	102.092	109.546	265.251	275.292	107.246	112.986	113.330	119.300	198.207	116.002	-8191	255	
1679.897	1	1	0	0	0.27265	0.16959	0.18115	0.1961	0.22387	0.15311	0.24413	0.092246	0.053362	0.26094	0.15279	0.085207	0.165	0.089774	0.3303	0.28388	-1.4188	-2.3771	-2.3063	-1.9833	-2.4042	-2.2562	-2.2417	-2.55	-2.0062	-2.2792	-2.2271	-1.9813	-2.4958	-2.4125	-2.0875	-2.4854	135.694	156.487	166.037	281.686	223.508	154.133	380.017	251.427	431.137	359.317	334.064	448.428	444.070	134.810	158.028	430.297	0.00013071	0.00017651	4.5141e-05	199.55	7.8139e-07	3.781e-07	439.78	32.639	2.7486e-07	1.5211e-06	114.6	37.446	11.049	3.4887	1.3554e-06	12.866	4.848e-05	2.5695e-05	6.1445e-06	186.29	2.4076e-07	2.6204e-07	406.14	30.531	2.5483e-07	2.3254e-07	105.31	35.001	10.353	3.275	3.1228e-07	12.094	242.263	199.538	182.036	102.649	322.036	261.668	102.136	109.882	250.825	254.389	107.439	112.875	113.209	117.791	252.628	115.762	-8191	255	
1679.993	1	1	0	0	0.18911	0.17099	0.29228	0.23376	0.20122	0.28643	0.31448	0.32539	0.095726	0.23578	0.085599	0.14176	0.13676	0.093365	0.11311	0.18736	-1.8583	-2.2417	-2.2896	-1.9708	-2.3604	-2.4604	-2.1875	-2.2333	-2.0896	-2.3312	-2.3354	-2.0375	-2.2479	-2.2313	-1.85	-2.3479	355.189	386.821	383.865	411.138	420.642	428.858	344.758	299.890	386.972	193.678	129.788	142.296	231.646	232.794	435.119	268.925	0.00011681	0.00010563	1.9103e-05	203.18	1.5632e-06	1.4065e-06	436.39	32.87	9.1519e-07	2.3866e-06	113.01	37.467	11.18	3.51	1.6847e-06	12.832	4.4082e-05	2.1145e-05	5.5234e-06	187.01	2.6247e-07	2.1174e-07	406.78	30.576	3.0615e-07	2.7284e-07	105.4	35.099	10.392	3.293	3.0791e-07	12.101	238.100	163.837	211.159	101.923	234.680	186.936	102.431	109.366	340.779	258.663	106.657	112.920	114.577	119.410	202.750	115.680	-8191	255	
1680.089	1	1	0	0	0.25183	0.067461	0.13285	0.12748	0.05865	0.2064	0.23438	0.058001	0.17187	0.12235	0.11059	0.075442	0.26758	0.084253	0.15339	0.15984	-1.6562	-2.1104	-2.2562	-1.9604	-2.4333	-2.3771	-2.0312	-2.4104	-2.2083	-2.1833	-2.475	-2.0792	-2.2667	-2.3896	-1.7979	-2.4771	371.237	136.550	182.332	96.530	187.889	185.242	318.172	259.732	291.788	325.042	323.441	291.777	286.281	395.270	357.006	380.099	0.00013776	0.00020162	6.1939e-05	203.02	2.0136e-06	1.0106e-06	439.81	32.955	1.4046e-06	1.4307e-06	113.31	37.334	11.34	3.5583	7.3589e-07	12.867	4.8169e-05	2.2131e-05	6.3018e-06	187.27	3.0439e-07	2.1764e-07	408.22	30.794	2.4196e-07	2.5586e-07	105.56	35.171	10.48	3.3076	2.9192e-07	12.12	234.588	153.688	187.428	101.700	271.778	200.423	102.191	109.530	295.636	209.474	106.303	112.729	114.155	117.628	247.570	116.400	-8191	255	
1680.208	1	1	0	0	0.0955	0.069583	0.14619	0.064698	0.15225	0.1003	0.2038	0.24071	0.13726	0.20896	0.23937	0.13962	0.15472	0.15113	0.050863	0.14978	-1.7875	-1.8854	-2.4167	-2.1729	-2.0229	-2.3833	-1.95	-2.3292	-2.2792	-1.8771	-2.2604	-1.8979	-2.3417	-2.3083	-2.0104	-2.4354	290.783	376.634	428.949	215.003	196.694	145.235	391.891	155.890	181.591	394.676	132.109	106.326	400.675	194.146	429.063	380.053	0.00012643	0.00012206	1.6909e-05	202.62	1.061e-06	1.686e-06	437.3	32.729	1.2105e-06	3.2282e-07	112.86	37.72	11.334	3.5078	1.0853e-06	12.767	4.6991e-05	2.3272e-05	5.4173e-06	187.65	2.7879e-07	2.2571e-07	407.37	30.546	2.8834e-07	2.7006e-07	105.04	35.036	10.471	3.2996	2.9479e-07	12.068	237.062	193.212	213.678	101.975	216.217	222.081	102.103	108.740	250.506	272.859	106.555	113.045	113.817	118.295	227.501	116.126	-8191	255	
1680.281	1	1	0	0	0.15869	0.30718	0.27877	0.24167	0.12237	0.26189	0.2763	0.12385	0.074844	0.1153	0.16766	0.078902	0.095968	0.045688	0.048838	0.31061	-1.7375	-1.9771	-2.2812	-2.1188	-2.125	-2.2896	-2.0208	-2.2812	-2.2354	-2.0563	-2.5125	-2.1792	-2.1667	-2.3333	-1.9312	-2.3063	357.184	343.903	162.834	147.688	449.190	356.994	451.040	352.221	285.401	444.978	408.121	372.909	436.694	393.784	149.572	364.053	0.00011974	7.718e-05	2.3903e-05	201.86	1.8998e-06	9.9948e-07	439.29	32.592	1.155e-06	1.6777e-06	111.78	37.841	11.548	3.5657	7.9692e-07	12.964	4.3551e-05	2.4441e-05	6.5219e-06	188.21	3.0379e-07	2.4294e-07	407.42	30.555	2.5138e-07	2.5493e-07	104.61	35.335	10.655	3.3706	2.8272e-07	12.25	235.701	146.682	152.243	102.367	226.562	247.791	102.312	109.335	302.103	241.299	107.255	112.915	113.680	117.889	167.909	115.703	-8191	255	
1680.400	1	1	0	0	0.038386	0.22928	0.26358	0.18233	0.16963	0.38444	0.23116	0.038764	0.1166	0.22068	0.22781	0.33059	0.1497	0.16699	0.017815	0.21108	-1.9146	-1.9562	-2.2771	-2.2583	-2.0875	-2.5208	-2.1417	-2.1729	-2.2417	-1.8604	-2.3917	-1.9396	-2.0646	-2.2958	-2	-2.325	418.075	378.269	149.060	284.468	197.351	243.136	94.247	385.266	318.812	334.837	385.516	428.717	230.144	96.070	272.514	190.290	0.00011049	4.6321e-05	3.3966e-05	200.78	1.4795e-06	1.7014e-06	440.54	33.338	6.4788e-07	1.2264e-06	114.03	38.023	11.248	3.6261	1.1924e-06	13.066	4.5721e-05	2.647e-05	6.2232e-06	187.42	2.749e-07	2.2789e-07	407.43	30.844	2.6231e-07	2.9909e-07	105.67	35.429	10.596	3.4101	2.7368e-07	12.319	233.749	237.052	180.387	102.561	238.651	196.478	102.047	109.945	238.904	226.809	107.546	112.658	114.234	118.519	253.384	116.095	-8191	255	
1680.496	1	1	0	0	0.18537	0.26639	0.19326	0.10505	0.22727	0.27282	0.13935	0.20947	0.058162	0.11108	0.17235	0.19179	0.22703	0.07228	0.27936	0.30546	-1.7625	-1.8021	-2.4729	-2.1396	-1.9229	-2.4729	-2.225	-2.1354	-2.3563	-1.8771	-2.25	-2.1292	-1.8563	-2.375	-2.0938	-2.2625	133.724	394.747	263.721	308.099	337.726	146.499	317.032	194.354	135.747	215.519	382.340	267.429	269.514	349.230	138.474	200.120	0.00012587	0.00010047	4.3372e-05	202.23	1.4268e-06	2.4579e-06	437.66	32.607	1.4346e-06	7.8896e-07	113.64	38.244	11.426	3.5654	8.6496e-07	13.045	4.5364e-05	2.4342e-05	7.316e-06	188.5	2.8822e-07	2.5738e-07	407.37	30.769	2.7129e-07	2.6157e-07	105.68	35.601	10.634	3.3854	2.9946e-07	12.257	239.756	230.253	185.444	102.258	263.015	232.217	101.914	109.533	249.494	217.452	106.802	112.200	114.147	118.954	265.392	115.880	-8191	255	
1680.592	1	1	0	0	0.074045	0.11122	0.088134	0.074823	0.04946	0.26525	0.1478	0.22383	0.18991	0.27609	0.067641	0.078826	0.21176	0.26437	0.30563	0.13815	-1.9833	-1.9562	-2.2208	-2.1833	-2.0938	-2.4729	-2.0812	-2.15	-2.3396	-2.0729	-2.1375	-2.4792	-1.875	-2.2146	-2.0729	-2.0062	161.823	352.423	220.530	302.378	120.751	296.057	327.352	360.486	336.667	240.075	337.714	370.798	392.184	319.830	376.654	165.221	0.00011943	0.00011012	6.2156e-05	205.06	1.059e-06	8.8218e-07	440.97	33.189	1.7407e-06	2.0054e-06	113.16	38.054	11.448	3.5776	9.9716e-07	13.08	4.2628e-05	2.6047e-05	6.7224e-06	188.93	3.0888e-07	2.2509e-07	408.91	30.965	2.4705e-07	2.4906e-07	105.73	35.637	10.669	3.3832	2.5468e-07	12.307	246.305	346.546	179.918	102.154	283.289	252.924	102.231	109.766	293.075	235.967	107.045	112.615	114.866	118.075	247.653	115.688	-8191	255	
1680.689	1	1	0	0	0.48424	0.19538	0.043101	0.16639	0.28596	0.12481	0.24816	0.036618	0.098834	0.088623	0.075112	0.064148	0.26174	0.23412	0.12103	0.078547	-1.9104	-1.8687	-2.4396	-2.2021	-1.9813	-2.4625	-2.3354	-2.1396	-2.5979	-2.0438	-2.1875	-2.2375	-2.0312	-2.4354	-2.2396	-2.1104	304.448	104.146	183.155	327.876	253.731	192.384	293.743	97.725	267.328	403.216	261.944	328.937	130.133	422.834	182.539	380.859	0.00012084	0.00010785	3.8797e-05	205.28	1.5756e-06	1.1166e-06	443.86	33.315	9.1393e-07	1.9259e-06	114.62	38.504	11.588	3.6506	1.3201e-06	13.392	4.4729e-05	2.5343e-05	6.4237e-06	188.79	3.2101e-07	2.6592e-07	408.24	30.899	2.6919e-07	3.1994e-07	106.2	35.694	10.752	3.4209	2.4216e-07	12.425	238.082	185.680	201.643	102.307	215.203	233.063	102.425	109.372	256.466	240.487	106.962	112.065	113.823	119.203	286.767	115.891	-8191	255	
1680.809	1	1	0	0	0.30457	0.2354	0.17573	0.11102	0.29556	0.33322	0.1577	0.13968	0.21418	0.16401	0.17366	0.081833	0.056267	0.14528	0.058709	0.090302	-2.0062	-2.0396	-2.0771	-2.3542	-1.8708	-2.4125	-2.2562	-1.9979	-2.4604	-2.0521	-2.2146	-2.3521	-1.9083	-2.2021	-2.3521	-1.8979	414.804	178.527	132.539	390.299	237.200	318.601	363.513	215.860	374.769	400.903	354.122	311.101	131.635	251.534	173.435	402.637	0.00011624	0.00013058	5.4284e-05	202.45	2.1759e-06	1.064e-06	438.52	32.896	8.2843e-07	1.572e-06	115.04	37.861	11.177	3.5536	1.0744e-06	12.958	4.3875e-05	2.6625e-05	6.1917e-06	188.06	3.3389e-07	2.5335e-07	408.34	30.71	2.7458e-07	2.2945e-07	106.08	35.541	10.487	3.3666	2.3221e-07	12.272	233.187	199.973	211.384	102.392	255.061	278.393	102.380	109.629	263.057	279.676	107.057	112.838	114.485	118.415	179.379	115.956	-8191	255	
1680.881	1	1	0	0	0.16313	0.064405	0.22863	0.19484	0.16554	0.10673	0.049601	0.17388	0.093778	0.049942	0.17646	0.043192	0.11602	0.16872	0.069551	0.22392	-2.0083	-2.1354	-1.9167	-2.4021	-2.0312	-2.3375	-2.4208	-2.0687	-2.4208	-2.2229	-1.9958	-2.525	-2.05	-2.1708	-2.1688	-1.9667	317.114	379.847	137.662	283.154	135.806	91.326	366.076	360.022	288.863	400.499	293.233	223.502	394.546	287.685	246.185	112.145	0.00012058	1.3276e-05	3.4729e-05	201.59	8.47e-07	1.2649e-06	441.6	32.695	3.5503e-07	1.6572e-06	115.48	37.276	11.217	3.4177	1.2433e-06	12.721	4.3401e-05	2.3004e-05	6.1445e-06	188.16	2.7145e-07	2.4853e-07	408.64	30.63	2.6246e-07	2.4489e-07	105.95	35.144	10.464	3.3167	2.4412e-07	12.099	240.482	448.960	175.701	101.728	210.423	236.084	102.173	109.258	137.663	193.511	107.293	112.898	114.315	118.246	296.895	115.056	-8191	255	
1680.977	1	1	0	0	0.3188	0.20918	0.20803	0.15404	0.43473	0.32433	0.35905	0.12091	0.042348	0.42985	0.025306	0.17268	0.14316	0.045457	0.15614	0.2132	-1.8271	-2.0438	-2.125	-2.4042	-2.0542	-2.3146	-2.3146	-1.9917	-2.3583	-2.1271	-1.975	-2.3688	-2.2687	-2.1229	-2.4042	-2.0958	107.982	104.481	287.359	360.967	408.615	400.293	445.723	135.777	266.487	361.104	96.567	230.896	110.098	122.714	134.251	409.086	0.0001294	0.00023058	4.6991e-05	200.46	1.0045e-06	1.1672e-06	444.04	33.084	1.0515e-07	5.614e-07	112.74	37.841	11.189	3.4688	5.1722e-07	12.878	4.4244e-05	2.2694e-05	6.9426e-06	186.2	2.8133e-07	2.4372e-07	408.23	30.645	2.3672e-07	2.1972e-07	105.27	35.152	10.439	3.3192	2.4111e-07	12.13	235.025	203.275	226.384	101.785	236.335	254.662	102.257	109.329	121.897	267.798	106.910	113.351	114.200	118.440	169.072	116.410	-8191	255	
1681.098	1	1	0	0	0.29256	0.087022	0.089791	0.073599	0.11616	0.20225	0.10168	0.27682	0.28294	0.056439	0.19553	0.14899	0.087183	0.16007	0.16791	0.13264	-1.8771	-2.2625	-2.0979	-2.5583	-2.2729	-2.1042	-2.3104	-1.8375	-2.25	-2.3458	-2.025	-2.4188	-2.1021	-1.7812	-2.3667	-1.8667	414.811	389.506	322.122	272.761	427.189	372.230	432.050	150.136	343.185	312.843	448.433	113.018	198.041	358.673	216.007	176.002	0.00011966	0.00014787	1.4283e-05	203.02	1.2913e-06	9.6807e-07	440.76	33.18	5.786e-07	9.8472e-07	114.09	37.461	11.244	3.495	9.4004e-07	12.966	4.5791e-05	2.3089e-05	7.2099e-06	187.61	2.8253e-07	2.3798e-07	408.09	30.772	2.6216e-07	2.7361e-07	105.65	35.079	10.357	3.3103	2.1939e-07	12.19	233.836	208.812	182.961	102.081	225.224	270.207	102.400	109.306	235.488	269.955	106.393	113.101	115.182	118.271	236.587	115.514	-8191	255	
1681.192	1	1	0	0	0.32833	0.34069	0.21147	0.10064	0.11053	0.038723	0.071481	0.30966	0.24735	0.081681	0.13646	0.10689	0.2535	0.11438	0.15782	0.13421	-1.7833	-2.325	-2.0354	-2.3729	-2.075	-2.1083	-2.3854	-1.9292	-2.3812	-2.2979	-1.9375	-2.3625	-2.0812	-1.9958	-2.3333	-2.1292	403.972	396.597	137.944	305.437	343.778	275.155	356.581	156.366	450.550	124.706	432.783	96.236	179.321	237.930	111.792	141.725	0.00011584	0.00012563	4.2619e-05	202.83	1.1376e-06	3.3835e-07	442.48	32.733	1.5486e-06	5.7912e-07	113.4	37.675	11.215	3.4651	9.1498e-07	12.945	4.2259e-05	2.2286e-05	6.9269e-06	186.9	2.8433e-07	2.4946e-07	409.15	30.252	3.1214e-07	1.9903e-07	105.62	35.307	10.473	3.2972	2.2286e-07	12.176	235.657	232.171	186.208	102.282	254.319	245.255	102.292	109.342	282.589	254.279	107.173	113.380	114.730	117.680	299.927	116.141	-8191	255	
1681.288	1	1	0	0	0.047617	0.12174	0.25178	0.0466	0.22223	0.23906	0.18757	0.17981	0.11455	0.22754	0.053856	0.12051	0.073881	0.2252	0.25697	0.19938	-1.6167	-2.3312	-1.9625	-2.3063	-2.1896	-2.0396	-2.4813	-1.9917	-2.1	-2.4083	-2.025	-2.3417	-2.2188	-2.0771	-2.4292	-2.175	138.645	145.396	276.612	145.205	374.159	271.722	381.918	440.515	379.937	94.944	253.936	306.188	346.361	290.508	349.357	222.182	0.00012796	0.000199	4.5451e-05	203.12	8.4472e-07	1.6508e-06	445.08	32.785	1.3728e-06	7.5584e-07	112.49	37.686	11.137	3.4299	1.272e-06	12.707	4.8411e-05	1.9342e-05	6.5455e-06	187.58	2.6576e-07	2.8734e-07	409.85	30.652	2.6874e-07	2.2559e-07	104.9	35.102	10.378	3.2628	2.497e-07	12.105	240.590	164.178	171.930	102.237	279.239	222.105	102.557	109.128	252.837	268.029	106.148	112.974	114.010	119.495	224.927	115.813	-8191	255	
1681.384	1	1	0	0	0.039298	0.058564	0.055266	0.19298	0.34751	0.33867	0.16299	0.12789	0.12096	0.24611	0.17036	0.23603	0.07716	0.17249	0.18891	0.16081	-1.5625	-2.2938	-1.8729	-2.2687	-2.1021	-1.9292	-2.3896	-2.1729	-1.9646	-2.3229	-2.0687	-2.3063	-2.3771	-1.8062	-2.3583	-2.0521	226.630	101.825	144.112	388.462	257.301	288.446	231.606	251.512	169.620	409.790	141.341	396.919	183.041	266.534	175.488	128.489	0.00012735	6.3433e-05	3.1042e-05	204.81	3.3596e-07	1.4789e-06	442.6	32.709	1.0461e-06	1.36e-06	113.21	37.593	11.264	3.4994	1.6754e-06	13.089	4.7915e-05	1.7877e-05	6.5298e-06	187.83	2.6187e-07	2.7648e-07	408.55	30.444	2.849e-07	2.347e-07	104.67	35.26	10.496	3.3414	2.2558e-07	12.251	237.926	226.509	185.117	102.462	415.054	187.225	102.607	109.815	268.060	223.870	106.332	112.675	113.668	118.233	281.231	115.980	-8191	255	
1681.505	1	1	0	0	0.13785	0.084186	0.18221	0.16972	0.064307	0.13704	0.19084	0.14259	0.16406	0.2318	0.15506	0.14139	0.073798	0.18561	0.2688	0.088372	-1.625	-2.3312	-1.8771	-2.1854	-2.3125	-2.1688	-2.3479	-2.0583	-1.9479	-2.5438	-1.9917	-2.25	-2.4021	-1.8667	-2.2687	-2.1875	336.657	394.992	176.120	412.918	224.120	247.148	362.270	172.264	338.569	367.911	400.681	126.105	312.697	426.868	450.099	422.605	0.00011272	9.1748e-05	1.2111e-05	202.44	6.2993e-07	1.5776e-06	438.16	32.813	2.753e-07	1.7372e-06	114.28	38.083	11.348	3.5649	1.4106e-06	13.134	4.5606e-05	1.9933e-05	5.7435e-06	187.92	2.3103e-07	2.4574e-07	407.89	30.509	2.5079e-07	2.3764e-07	105.38	35.571	10.582	3.377	2.8333e-07	12.369	234.559	204.367	448.381	102.134	245.691	279.198	101.773	110.351	219.925	220.066	106.465	112.979	114.430	118.821	322.101	115.569	-8191	255	
1681.577	1	1	0	0	0.13665	0.2677	0.18558	0.2595	0.20356	0.12955	0.24387	0.19366	0.26387	0.15016	0.17181	0.104	0.12949	0.1341	0.072514	0.087149	-1.4958	-2.4792	-2.1688	-2.2979	-2.3292	-2.0542	-2.2958	-2.0354	-2.1583	-2.5979	-2.1292	-2.075	-2.3417	-2.0417	-2.3646	-2.4	105.793	169.883	394.093	385.994	122.931	396.952	284.260	188.382	149.720	104.982	125.063	385.507	210.382	245.757	131.035	224.750	0.00013005	0.00010181	3.6738e-05	203.83	1.0444e-06	9.4815e-07	440.5	33.045	1.5791e-06	1.2186e-06	113.62	37.85	11.553	3.5925	1.5148e-06	13.191	5.1158e-05	2.1469e-05	7.0133e-06	188.06	2.7699e-07	3.1032e-07	409.51	30.676	3.0271e-07	2.5231e-07	105.53	35.687	10.706	3.4295	2.8378e-07	12.378	230.331	120.003	172.415	102.026	269.816	219.156	102.155	109.367	264.537	236.559	106.942	113.255	114.053	118.629	261.877	115.489	-8191	255	
1681.673	1	1	0	0	0.10687	0.25369	0.17689	0.18613	0.12658	0.21788	0.14982	0.31276	0.19615	0.24623	0.061041	0.21928	0.1027	0.13977	0.16426	0.16162	-1.4667	-2.4083	-1.9229	-2.1188	-2.4208	-2.1667	-2.3271	-2.3083	-2.0375	-2.3167	-2.1333	-1.9667	-2.4854	-2.0021	-2.2979	-2.3271	325.498	177.532	301.187	403.487	182.651	110.701	434.515	451.838	361.817	415.613	363.959	406.088	124.076	146.593	266.809	185.410	0.0001108	0.00025838	3.5612e-05	204.67	1.3256e-06	6.7103e-07	440.53	33.063	1.0428e-06	1.2901e-06	112.99	37.476	11.268	3.5949	1.0292e-06	12.869	4.6045e-05	2.5413e-05	6.5337e-06	189.51	2.8717e-07	2.7042e-07	409.61	30.813	2.7981e-07	2.4458e-07	105.05	35.061	10.505	3.4034	2.684e-07	12.158	235.578	210.952	212.341	102.112	252.061	210.875	102.213	110.341	259.650	218.370	107.039	112.786	114.800	118.227	268.247	115.819	-8191	255	
1681.769	1	1	0	0	0.098017	0.13206	0.12567	0.089456	0.084559	0.18497	0.04127	0.26245	0.10109	0.16184	0.15429	0.071069	0.16363	0.18509	0.27348	0.19084	-1.5521	-2.4292	-2.1396	-1.9479	-2.6063	-2.0896	-2.2625	-2.3167	-2.1292	-2.5167	-2.25	-1.9917	-2.4188	-2.0542	-2.1917	-2.425	350.847	135.209	423.265	382.574	231.983	289.647	186.056	256.569	177.395	220.296	333.685	376.867	290.579	243.390	247.200	339.426	0.00012546	0.00011788	3.4409e-05	204.69	1.7535e-06	7.9915e-07	442.13	32.965	1.3087e-06	1.1338e-06	111.97	37.72	11.353	3.4915	3.8482e-07	12.837	4.7591e-05	2.2215e-05	6.7106e-06	189.8	2.6337e-07	2.3177e-07	409.42	30.864	2.8819e-07	2.2451e-07	104.86	35.274	10.553	3.3495	2.7322e-07	12.112	229.965	185.724	160.318	102.105	247.720	242.598	102.367	110.073	282.137	261.092	107.083	112.853	114.645	117.771	215.201	116.002	-8191	255	
1681.890	1	1	0	0	0.031292	0.24673	0.086389	0.11321	0.026756	0.30069	0.099273	0.13888	0.24242	0.056365	0.1796	0.33266	0.1757	0.060042	0.065053	0.16986	-1.6229	-2.2271	-2.1562	-1.8417	-2.3542	-2.1125	-2.2292	-2.2583	-2.0729	-2.15	-2.2021	-2.1188	-2.4688	-2.0917	-1.8979	-2.5729	146.264	347.880	226.316	347.199	419.627	179.700	185.256	319.770	293.775	436.464	320.678	121.605	178.030	345.768	257.882	147.965	0.00014227	0.00017665	3.8583e-05	204.03	1.3174e-06	1.1811e-06	441.7	33.674	1.1194e-06	1.1501e-06	113.21	37.593	11.486	3.6338	1.601e-06	12.915	5.2947e-05	2.1863e-05	6.5141e-06	190.48	2.4899e-07	2.2758e-07	408.6	31.08	2.8445e-07	2.4026e-07	105.37	35.194	10.615	3.4067	2.6599e-07	12.136	236.499	214.858	210.301	102.725	250.656	228.828	102.121	109.288	297.845	240.898	107.075	112.497	114.005	119.371	225.614	116.439	-8191	255	
1681.986	1	1	0	0	0.37834	0.15223	0.15327	0.090117	0.10419	0.21398	0.2661	0.10052	0.33861	0.26368	0.17265	0.25755	0.2017	0.26032	0.11906	0.10566	-1.5125	-2.0354	-2.2896	-1.7521	-2.3333	-2.25	-2.1875	-2.2729	-2.1396	-2.3021	-2.2792	-2.1208	-2.325	-2.2667	-1.9104	-2.4688	180.324	247.306	177.005	239.030	309.205	111.576	347.743	129.387	271.494	383.519	431.610	103.504	314.436	297.605	425.743	307.104	0.00010271	4.9414e-05	3.6561e-05	204.93	1.3426e-06	9.0295e-07	442.76	33.019	1.0009e-06	9.32e-07	113.94	37.655	11.451	3.6075	8.5414e-07	12.972	4.1358e-05	2.3751e-05	6.4512e-06	190.11	2.8882e-07	2.4915e-07	411.9	30.866	2.7727e-07	2.6203e-07	105.4	35.306	10.662	3.3974	3.1469e-07	12.164	238.774	285.079	163.205	101.416	238.931	246.123	102.269	110.017	240.590	227.272	107.386	112.979	113.379	118.875	261.553	115.332	-8191	255	
1682.082	1	1	0	0	0.12533	0.036856	0.28619	0.18829	0.30016	0.078248	0.37431	0.20474	0.18065	0.24156	0.076924	0.28505	0.10524	0.061612	0.25568	0.25799	-1.4708	-1.9875	-2.1667	-1.9146	-2.2167	-2.2458	-1.9958	-2.2917	-2.0521	-2.2646	-2.3729	-1.8333	-2.4167	-2.1688	-1.8896	-2.4021	369.534	129.304	141.315	380.517	135.667	425.339	368.273	398.938	423.093	422.550	335.375	371.730	224.150	250.510	352.763	187.367	0.00012577	0.00018734	4.5863e-05	205.26	1.0177e-06	1.9173e-06	443.41	33.652	5.2714e-07	1.1169e-06	112.33	37.185	11.612	3.5752	8.6683e-07	12.774	4.9127e-05	2.5469e-05	6.3725e-06	190.71	2.7594e-07	2.1329e-07	409.26	31.168	2.9478e-07	2.4937e-07	104.5	34.824	10.709	3.3977	2.9207e-07	12.088	242.309	196.626	169.844	101.980	277.685	210.846	102.094	109.108	258.320	208.749	107.340	113.053	114.069	119.191	267.842	116.088	-8191	255	
1682.178	1	1	0	0	0.10301	0.15948	0.094196	0.1844	0.12476	0.11964	0.17484	0.14592	0.074219	0.11579	0.055962	0.22035	0.16522	0.18551	0.19332	0.23383	-1.5125	-2.0292	-2.3771	-2.05	-2.1854	-2.2375	-2.0417	-2.3792	-1.8875	-2.3	-2.4458	-2.2021	-2.1896	-2.1833	-2.1083	-2.4104	266.457	158.823	115.823	401.328	386.804	340.371	440.823	204.820	328.412	241.094	217.637	99.786	118.836	123.352	256.000	355.605	9.6552e-05	0.00012416	3.8138e-05	207.34	1.9404e-06	8.2545e-07	443.45	33.533	1.1964e-06	1.7432e-06	111.89	37.552	11.772	3.5666	1.191e-06	13.046	4.2917e-05	2.3342e-05	6.235e-06	191.67	3.0349e-07	2.6111e-07	409.9	31.255	3.0795e-07	2.7485e-07	105.15	35.244	10.858	3.3985	2.6026e-07	12.186	231.799	203.223	138.152	102.783	272.843	238.232	101.900	109.235	285.950	194.471	107.410	112.827	114.202	118.952	300.569	116.201	-8191	255	
1682.272	1	1	0	0	0.040772	0.13528	0.091844	0.20515	0.016518	0.10194	0.23743	0.17068	0.081484	0.15193	0.052898	0.22691	0.23289	0.10671	0.07223	0.069199	-1.7812	-1.9104	-2.3812	-2.0854	-2.0812	-2.3063	-2.1625	-2.3771	-2.1958	-2	-2.725	-1.9958	-2.1667	-2.2812	-1.975	-2.3292	146.885	439.549	428.467	244.021	139.019	159.001	225.618	202.961	341.443	310.055	162.717	96.429	134.551	109.138	331.182	260.624	0.00011576	7.8262e-05	1.1393e-05	206.34	1.5868e-06	7.0027e-07	440.72	33.774	7.7098e-07	1.5703e-06	113.02	37.88	11.663	3.6095	1.361e-06	12.908	4.7603e-05	2.9118e-05	6.0187e-06	191.73	2.9002e-07	2.4015e-07	409.78	31.397	2.7188e-07	2.6836e-07	105.19	35.529	10.796	3.4374	2.9735e-07	12.286	230.388	152.808	105.654	102.192	298.524	275.484	102.504	109.426	286.008	298.097	106.952	112.450	113.420	117.973	307.254	116.423	-8191	255	
1682.370	1	1	0	0	0.068282	0.10841	0.069668	0.21687	0.098221	0.096063	0.2053	0.29629	0.20904	0.26897	0.11239	0.12099	0.19582	0.16853	0.16669	0.10464	-1.7396	-1.8521	-2.4646	-2.2333	-2.0812	-2.4083	-1.9625	-2.2167	-2.3167	-1.95	-2.4833	-2.2042	-1.9562	-2.4083	-2.2479	-2.3604	278.049	380.728	234.013	356.280	211.856	119.873	391.354	222.133	430.360	317.992	394.801	372.133	279.858	246.068	289.197	164.185	0.00010089	0.00014897	1.9481e-05	205.65	1.1273e-06	9.8592e-07	443.32	33.844	9.9806e-07	1.1636e-06	113.93	37.729	11.479	3.6096	1.3224e-06	12.673	4.0573e-05	2.7399e-05	6.2114e-06	191.84	2.9885e-07	2.2028e-07	410.7	31.336	2.7293e-07	2.5802e-07	105.44	35.272	10.652	3.3953	2.6312e-07	12.017	240.574	192.561	278.320	102.422	176.654	229.832	101.915	109.888	295.198	303.839	107.087	112.781	115.444	119.057	270.424	116.440	-8191	255	
1682.489	1	1	0	0	0.168	0.14704	0.18503	0.18471	0.11547	0.12526	0.29193	0.2452	0.16442	0.082253	0.16061	0.14292	0.065828	0.070634	0.041497	0.082691	-1.8146	-1.8604	-2.2812	-2.0521	-2.0417	-2.5521	-2.0083	-2.1188	-2.4583	-2.15	-2.5167	-2.1771	-2.1188	-2.5521	-2.0271	-2.3271	92.055	366.949	229.936	135.036	382.604	111.308	172.529	111.931	326.061	181.980	441.002	132.843	217.706	156.066	113.644	133.919	0.00012996	0.00017138	5.8219e-05	205.54	1.7987e-06	1.6523e-06	445.66	33.558	4.3958e-07	4.838e-07	114.55	37.123	11.271	3.6106	1.2609e-06	12.816	4.429e-05	2.7794e-05	6.5652e-06	190.87	3.246e-07	2.3022e-07	409.92	31.193	2.4315e-07	2.5385e-07	105	34.826	10.523	3.378	2.6674e-07	12.036	236.204	190.021	181.295	102.273	230.317	227.026	102.412	109.748	168.227	231.609	107.196	112.383	113.988	119.522	308.385	115.283	-8191	255	
1682.585	1	1	0	0	0.068257	0.12449	0.14007	0.039551	0.13564	0.23521	0.24589	0.26107	0.16064	0.15438	0.13522	0.20186	0.28981	0.18146	0.25755	0.11625	-1.875	-2.0583	-2.3063	-2.2	-1.9271	-2.5292	-2.1229	-2.0875	-2.375	-2.0563	-2.3083	-2.3896	-2.0021	-2.5687	-2.2729	-2.1688	248.966	113.118	294.304	96.562	370.826	153.760	361.599	302.754	418.910	362.531	305.932	425.585	375.646	432.972	92.665	240.321	0.00011718	0.0001093	4.7113e-05	204.35	1.5911e-06	1.1866e-06	440.43	33.264	5.7208e-07	1.2612e-06	112.39	37.33	11.417	3.5732	1.049e-06	12.924	4.7418e-05	2.5751e-05	6.2782e-06	190.16	3.0259e-07	2.2571e-07	408.16	31.034	2.5318e-07	3.1175e-07	104.77	34.866	10.562	3.3677	2.4352e-07	12.065	235.427	232.692	170.751	102.070	234.573	281.653	102.226	109.746	278.310	270.542	107.350	112.835	114.375	119.487	248.437	116.390	-8191	255	
1682.682	1	1	0	0	0.088255	0.29843	0.19429	0.02945	0.27165	0.04019	0.10412	0.055529	0.14601	0.042578	0.18202	0.20514	0.097471	0.23825	0.11694	0.25233	-2.1375	-2.0375	-2.35	-2.3729	-1.8813	-2.2417	-2.1146	-2.0708	-2.5062	-2.1417	-2.3354	-2.4	-2.1208	-2.3229	-2.2917	-2.05	207.115	126.587	385.831	389.263	394.401	250.043	211.025	374.403	203.255	108.568	361.797	133.731	290.123	292.276	329.724	392.435	0.00010339	0.00014827	3.9704e-05	206.33	6.0825e-07	5.7744e-07	437.33	33.47	1.1636e-06	1.2891e-06	113.5	37.243	11.582	3.5169	4.82e-07	12.734	4.2397e-05	2.492e-05	6.2467e-06	190.88	2.9691e-07	2.0709e-07	407.91	31.113	2.4914e-07	2.4844e-07	104.87	35.086	10.618	3.3582	2.4322e-07	12.051	232.515	187.403	172.980	102.634	279.735	303.295	102.289	109.545	246.188	253.598	106.986	112.736	113.463	119.038	283.407	115.696	-8191	255	
1682.802	1	1	0	0	0.09408	0.19594	0.44569	0.11825	0.016543	0.16288	0.034825	0.10206	0.24964	0.21278	0.25518	0.10194	0.10574	0.16721	0.053524	0.20065	-1.9646	-1.9438	-2.2125	-2.5042	-1.9188	-2.375	-2.2604	-2.1312	-2.3708	-2.2083	-2.2208	-2.3875	-2.0187	-2.2958	-2.4521	-2.1229	409.321	144.619	364.893	191.167	101.761	256.399	180.707	107.339	173.947	194.847	236.788	190.920	173.647	101.456	341.046	207.901	0.00011432	0.00013683	5.478e-05	203.76	7.406e-07	6.269e-07	445.22	33.229	8.1943e-07	3.4173e-07	112.33	37.535	11.474	3.5715	3.1425e-07	12.88	4.227e-05	2.4314e-05	6.5259e-06	190.46	2.9945e-07	2.313e-07	410.57	31.036	2.2834e-07	2.7099e-07	104.86	35.209	10.689	3.3922	2.6946e-07	12.08	233.926	188.999	219.632	102.419	266.009	250.383	102.262	110.045	214.593	211.908	106.764	113.203	114.617	120.000	271.655	116.027	-8191	255	
1682.874	1	1	0	0	0.054804	0.069189	0.28465	0.09646	0.14865	0.22903	0.22588	0.14883	0.11961	0.18568	0.43989	0.27633	0.13797	0.084854	0.071626	0.13342	-1.8021	-2.0333	-2.1417	-2.3729	-1.8813	-2.5187	-2.2875	-1.9438	-2.4062	-2.1	-2.0125	-2.3271	-1.9062	-2.2979	-2.2042	-1.9208	109.696	96.808	267.810	262.048	365.689	100.937	354.456	362.861	101.356	159.647	201.639	164.031	346.935	233.431	266.141	430.122	0.00015031	8.3228e-05	2.9737e-05	204.38	5.3342e-07	7.8086e-07	438.82	33.951	8.9013e-07	2.4846e-06	113.16	37.514	11.439	3.4974	9.928e-07	12.68	4.945e-05	2.3723e-05	6.0227e-06	190.06	2.7579e-07	2.4605e-07	407.81	31.262	2.5378e-07	2.8319e-07	104.57	35.088	10.65	3.376	2.2166e-07	12.018	232.203	159.635	107.343	102.702	294.143	251.255	102.063	108.807	232.084	209.867	106.988	112.885	114.254	118.128	281.312	115.509	-8191	255	
1682.970	1	1	0	0	0.085227	0.28956	0.083653	0.11632	0.21218	0.052256	0.36921	0.17603	0.33897	0.17869	0.098818	0.012858	0.20197	0.20738	0.038575	0.15533	-1.75	-2.2021	-1.9583	-2.3729	-2.0583	-2.3812	-2.3771	-1.8708	-2.4313	-2.2271	-1.8646	-2.4188	-1.9708	-2.2042	-2.25	-2.0187	243.776	327.313	115.934	216.459	413.137	247.478	319.780	235.243	407.517	145.799	378.848	214.337	438.677	345.839	159.937	340.826	0.00011448	4.8858e-05	1.5392e-05	205.37	1.5996e-06	1.0551e-06	440.43	33.238	7.1748e-07	7.5099e-07	111.93	37.844	11.415	3.6058	1.4066e-06	12.853	4.5398e-05	2.2666e-05	6.5062e-06	189.59	3.1397e-07	2.726e-07	409.09	31.097	2.2804e-07	2.2467e-07	104.81	35.19	10.63	3.4215	2.6388e-07	12.061	239.622	369.028	143.508	102.796	246.341	295.488	101.948	108.579	299.564	226.109	107.110	112.996	114.664	118.535	233.531	116.370	-8191	255	
1683.066	1	1	0	0	0.085518	0.23437	0.12145	0.085892	0.11909	0.027027	0.10999	0.29618	0.18184	0.16852	0.18509	0.15476	0.098419	0.2173	0.19851	0.17729	-2.1583	-2.2458	-2.0021	-2.4	-1.9875	-2.3208	-2.425	-2.1437	-2.3625	-2.4375	-1.7938	-2.6042	-2.0479	-2.0292	-2.3937	-1.9604	291.728	163.513	406.983	112.575	426.872	247.007	152.345	99.137	304.401	140.536	388.714	408.055	359.341	198.597	101.277	360.834	0.00011233	3.3655e-05	4.9366e-05	204.31	3.6224e-07	1.2014e-06	443.25	33.288	1.21e-06	1.3566e-06	112.89	37.765	11.768	3.5864	2.9177e-07	12.866	4.2374e-05	2.2018e-05	7.5912e-06	189.47	3.3673e-07	2.594e-07	409.77	31.242	2.9418e-07	2.486e-07	105.06	35.447	10.875	3.4414	2.6538e-07	12.204	237.867	95.522	175.388	102.282	235.470	250.118	101.998	109.494	288.788	258.130	107.580	112.607	114.148	119.391	238.052	115.413	-8191	255	
1683.185	1	1	0	0	0.33762	0.25204	0.10087	0.15022	0.2788	0.071182	0.021556	0.14727	0.13796	0.071217	0.092083	0.077476	0.25883	0.10198	0.14059	0.19158	-1.9042	-2.1729	-1.9188	-2.3958	-2.1813	-2.0521	-2.5667	-1.9708	-2.1688	-2.3187	-2.0125	-2.3479	-2.0979	-2.0042	-2.3604	-1.9083	448.329	109.130	372.156	393.836	318.958	447.031	279.737	361.327	200.032	187.681	250.856	366.568	114.113	369.707	188.508	415.170	0.00010652	0.00022364	3.3505e-05	205.5	1.2889e-06	2.2341e-06	442.6	33.912	1.1378e-06	4.6471e-07	113.74	38.012	11.315	3.5715	9.7227e-07	12.915	4.3424e-05	2.1708e-05	6.5848e-06	190.47	2.8433e-07	2.4077e-07	410.75	31.422	2.8475e-07	2.4366e-07	105.51	35.287	10.673	3.4126	2.7368e-07	12.137	234.573	180.055	181.545	102.215	279.505	261.653	102.045	109.527	258.097	285.259	107.179	113.178	113.381	119.499	300.682	116.166	-8191	255	
1683.281	1	1	0	0	0.063646	0.089247	0.35157	0.14462	0.13771	0.10357	0.16269	0.16263	0.25871	0.19098	0.18228	0.2248	0.24407	0.24699	0.061627	0.32014	-1.8125	-2.3208	-1.8625	-2.4479	-2.2104	-2.1646	-2.4292	-2.0667	-2.1292	-2.4021	-1.9188	-2.2708	-2.1417	-1.9979	-2.35	-1.9688	289.177	235.798	102.387	393.958	251.296	245.929	389.642	249.728	195.166	96.105	302.622	312.949	124.966	256.609	389.225	178.439	0.000128	0.0001583	2.9348e-05	207.83	1.3101e-06	1.1276e-06	444.64	33.586	1.2988e-06	5.6863e-07	114.22	37.615	11.601	3.6242	4.9936e-07	12.901	4.6887e-05	2.3849e-05	7.5362e-06	191.29	2.9331e-07	2.6514e-07	412.56	31.369	2.5408e-07	2.3795e-07	105.2	35.107	10.647	3.4187	2.108e-07	12.09	238.093	181.082	154.901	102.369	240.082	257.813	102.470	109.253	218.291	152.351	106.662	112.704	114.567	118.922	189.050	115.827	-8191	255	
1683.377	1	1	0	0	0.21677	0.22081	0.12771	0.19301	0.11942	0.14264	0.14238	0.13149	0.13078	0.22493	0.091482	0.30297	0.31616	0.18661	0.18596	0.080747	-1.7792	-2.3708	-1.8375	-2.2771	-2.0417	-2.0958	-2.3833	-1.9958	-2.0708	-2.3125	-1.9792	-2.2875	-2.0604	-1.8042	-2.4333	-1.9937	98.869	220.835	333.909	246.807	400.199	199.890	187.215	329.290	237.999	331.725	396.412	356.357	183.998	381.417	256.716	213.553	0.00011642	0.00013963	3.9859e-05	208.2	9.3994e-07	1.7844e-06	449.62	33.484	1.2508e-06	1.746e-06	113.7	37.601	11.573	3.5493	7.6686e-07	12.798	4.833e-05	2.3187e-05	7.3239e-06	192.44	2.7834e-07	2.5304e-07	413.14	31.297	2.5857e-07	2.3316e-07	105.18	35.123	10.685	3.3948	2.5121e-07	12.066	234.585	191.142	273.884	102.160	261.115	232.662	102.291	109.135	239.378	298.827	106.711	112.757	114.414	119.844	262.855	116.129	-8191	255	
1683.451	1	1	0	0	0.1473	0.05358	0.18144	0.12353	0.10817	0.30862	0.2583	0.10235	0.13296	0.069145	0.14244	0.17871	0.21104	0.18705	0.25374	0.17544	-1.5625	-2.1167	-1.9	-2.3021	-2.5042	-1.9854	-2.3833	-2.1021	-2.3104	-2.4562	-1.8896	-2.1917	-2.2979	-2.0208	-2.3479	-2.2396	161.580	96.936	125.760	401.397	242.569	200.737	93.372	337.454	259.634	330.809	316.396	160.807	422.303	348.605	93.413	369.833	0.00010164	0.00016909	3.2948e-05	207.68	9.4706e-07	8.4563e-07	445.43	33.122	4.7413e-07	1.0476e-06	111.11	37.747	11.296	3.6245	1.0826e-06	12.676	4.6379e-05	2.1328e-05	7.3318e-06	191.39	2.7864e-07	2.3705e-07	414.19	31.323	2.849e-07	2.0274e-07	103.96	35.217	10.65	3.4028	2.5784e-07	12.043	234.319	197.500	172.642	102.389	284.418	172.970	102.287	109.258	157.861	267.849	107.149	112.865	115.129	118.824	284.040	115.390	-8191	255	
1683.570	1	1	0	0	0.23936	0.1628	0.064583	0.12666	0.22054	0.054922	0.037017	0.090491	0.19273	0.16116	0.29634	0.047597	0.17416	0.21603	0.02336	0.25621	-1.5562	-2.2542	-2.0667	-2.2188	-2.3125	-1.8708	-2.2313	-2.1479	-2.0375	-2.4458	-2.1042	-2.0792	-2.1937	-1.925	-2.2833	-2.1792	431.268	253.013	216.569	96.400	331.245	395.737	425.192	134.655	405.060	450.268	439.777	445.844	131.412	363.184	365.450	299.022	0.00010826	0.00014895	4.4772e-05	207.54	1.5672e-06	1.4435e-06	444.92	33.419	7.8826e-07	1.7634e-06	112.22	37.013	11.546	3.5281	1.2861e-06	12.722	4.5063e-05	2.1412e-05	7.092e-06	192.85	2.9167e-07	2.8486e-07	413.63	31.236	2.7563e-07	2.6497e-07	104.38	34.895	10.683	3.3631	2.4804e-07	11.98	234.234	223.001	215.033	102.336	265.603	247.769	102.308	110.289	198.605	226.019	106.605	112.934	115.036	119.825	271.639	116.460	-8191	255	
1683.666	1	1	0	0	0.10158	0.068879	0.29967	0.23062	0.098176	0.085576	0.32288	0.3171	0.11117	0.18509	0.18943	0.10533	0.15609	0.20163	0.21936	0.20097	-1.6688	-2.3937	-2.0792	-2.0958	-2.2938	-1.9646	-2.3854	-2.0917	-1.9479	-2.3104	-1.9646	-2.0312	-2.2354	-2.0438	-2.0792	-2.1896	274.023	293.187	170.212	357.623	324.080	148.675	239.497	230.402	170.722	140.918	447.327	385.089	113.020	141.227	419.411	417.330	0.00012563	0.0001269	4.2671e-05	207.67	8.6486e-07	1.2787e-06	447.16	33.29	8.251e-07	4.0457e-07	111.65	37.931	11.628	3.6362	1.3883e-06	13.047	4.7384e-05	2.3751e-05	7.2571e-06	192.25	2.8343e-07	2.6142e-07	412.7	31.317	2.6904e-07	2.4798e-07	104.06	35.127	10.825	3.4361	2.7338e-07	12.154	243.504	235.747	138.955	102.216	278.181	253.941	102.271	110.146	243.012	115.321	107.171	112.185	114.566	118.701	322.282	115.969	-8191	255	
1683.762	1	1	0	0	0.185	0.16383	0.12513	0.13564	0.15849	0.12274	0.20399	0.1758	0.22486	0.24918	0.11482	0.14553	0.064971	0.22335	0.17019	0.19398	-1.4667	-2.45	-2.3042	-1.9458	-2.5375	-1.9146	-2.2104	-2.175	-1.7646	-2.3146	-2.3	-1.9542	-2.3896	-1.8021	-2.2083	-2.3646	199.514	362.635	216.948	263.188	132.469	392.221	381.607	449.551	147.212	294.563	155.552	95.923	338.616	113.955	296.950	392.891	0.00013672	0.00027442	3.2271e-05	207.22	4.7407e-07	8.8911e-07	445	33.694	1.7683e-06	1.536e-06	112.82	37.601	11.73	3.7309	1.2384e-06	13.271	5.0223e-05	2.6357e-05	6.5141e-06	192.27	2.4675e-07	2.7896e-07	412.37	31.272	3.2216e-07	2.5447e-07	105	35.368	10.887	3.4843	2.5211e-07	12.342	237.357	195.885	250.506	102.193	205.715	259.597	101.812	109.556	271.280	239.450	107.094	112.898	114.668	118.638	248.278	116.459	-8191	255	
1683.883	1	1	0	0	0.15631	0.058448	0.15356	0.057351	0.075063	0.09187	0.11762	0.30101	0.24362	0.11129	0.10853	0.24225	0.20495	0.24064	0.30558	0.14749	-1.2792	-2.1896	-2.0125	-2.1063	-2.4854	-2.1083	-2.2083	-2.4333	-1.8813	-2.2354	-2.2354	-1.8208	-2.55	-2.1104	-2.2938	-2.4396	198.173	419.036	241.676	370.324	231.311	321.514	117.562	319.690	298.632	373.859	422.609	399.560	323.606	393.236	294.640	147.445	0.00011159	0.00016618	7.0167e-05	207.69	8.1501e-07	1.1604e-06	451.15	33.434	6.8224e-07	6.5084e-07	112.85	38.308	11.979	3.6878	1.4429e-06	13.027	5.0038e-05	2.647e-05	7.2138e-06	192.51	2.7385e-07	2.4822e-07	415.63	31.458	2.8026e-07	2.5308e-07	105.3	35.713	10.978	3.4969	2.678e-07	12.344	240.948	174.662	195.128	102.371	273.221	213.443	102.145	109.023	256.771	270.132	106.690	112.962	113.861	118.768	280.559	115.513	-8191	255	
1683.979	1	1	0	0	0.048946	0.18926	0.13352	0.37329	0.19265	0.13053	0.070404	0.18763	0.092613	0.20128	0.029992	0.10065	0.10711	0.073465	0.25041	0.14374	-1.5	-2.0396	-2.2062	-2.1312	-2.4146	-2.0979	-2.0062	-2.5167	-1.8104	-2.2771	-2.3312	-1.9813	-2.4188	-1.9729	-2.1	-2.3208	100.475	420.645	282.476	328.787	275.212	390.670	175.141	381.028	402.065	153.657	331.476	356.890	121.727	428.321	441.768	267.790	0.00012483	5.6175e-05	2.6624e-05	208.11	1.6801e-06	7.2211e-07	446.78	33.713	2.5817e-07	1.672e-06	113.39	38.105	11.91	3.6463	2.4367e-06	13.254	4.7638e-05	2.2948e-05	7.0251e-06	192.73	2.9631e-07	2.5428e-07	414.23	31.38	2.8565e-07	2.2961e-07	105.55	35.591	10.954	3.4917	2.7594e-07	12.379	237.314	162.292	183.078	102.643	278.942	234.626	102.257	109.370	216.210	237.027	106.968	112.797	114.258	119.513	241.991	115.789	-8191	255	
1684.050	1	1	0	0	0.078378	0.49255	0.20956	0.1046	0.31158	0.13464	0.034654	0.13249	0.11123	0.2268	0.084945	0.31632	0.05047	0.11992	0.25157	0.20479	-1.475	-2.1	-2.2125	-1.8583	-2.3042	-2.3438	-2.15	-2.2958	-1.8583	-2.2271	-2.3458	-2.1833	-2.5042	-2.1521	-2.1083	-2.3896	355.370	250.245	310.930	287.266	410.399	227.609	356.750	345.253	124.344	224.541	121.393	318.537	113.970	179.007	385.286	208.532	0.0001161	0.00010422	3.5677e-05	208.28	1.0858e-06	7.0148e-07	446.41	34.108	4.5166e-07	1.0532e-06	113.39	38.617	11.524	3.6315	1.6847e-06	13.114	4.8492e-05	2.4934e-05	6.3725e-06	191.95	2.6007e-07	2.5148e-07	414.46	31.415	2.9627e-07	2.7253e-07	105.07	35.89	10.841	3.4524	2.7488e-07	12.322	230.623	200.971	173.831	102.456	228.141	225.867	102.242	109.833	327.410	435.318	106.257	112.615	113.756	119.282	236.565	116.136	-8191	255	
1684.171	1	1	0	0	0.078129	0.23811	0.22917	0.088295	0.049393	0.063167	0.12249	0.27824	0.18116	0.031896	0.05887	0.14256	0.15634	0.065196	0.17567	0.039192	-1.7062	-2.1708	-2.5229	-1.7167	-2.2354	-2.3104	-2.1	-2.4146	-2.0083	-2.0438	-2.4083	-1.8417	-2.1167	-2.1604	-1.9562	-2.3396	234.106	360.458	337.447	425.230	354.045	280.882	270.979	270.703	330.074	434.141	196.849	110.174	285.180	192.063	145.423	384.247	0.00011368	0.00025646	3.5951e-05	207.5	1.3588e-06	1.2413e-06	447.82	33.385	5.2598e-07	1.3734e-06	112.67	37.822	11.646	3.6564	1.1381e-06	13.042	4.3551e-05	2.3751e-05	5.5745e-06	192.18	2.6172e-07	2.5071e-07	416.21	31.36	2.8116e-07	2.8195e-07	105.06	35.348	10.811	3.4148	2.785e-07	12.275	241.152	186.514	207.970	102.697	253.148	263.824	102.280	109.800	310.875	238.193	107.165	113.035	115.268	119.035	308.727	116.257	-8191	255	
1684.265	1	1	0	0	0.25254	0.21594	0.17053	0.33498	0.13368	0.27849	0.061451	0.19403	0.24262	0.20121	0.14023	0.1622	0.23675	0.37734	0.14971	0.027813	-1.7333	-1.9604	-2.2521	-1.9458	-2.2146	-2.375	-1.9813	-2.3	-2.1312	-2.2396	-2.6021	-1.8458	-2.2812	-2.2604	-2.0771	-2.3812	238.247	225.296	336.114	105.381	184.224	132.452	437.205	442.244	183.655	353.801	98.258	360.919	98.870	98.053	109.030	263.029	0.00011379	0.00019004	2.7746e-05	207.16	6.0326e-07	4.765e-07	451.86	33.429	6.7761e-07	1.3514e-06	112.48	37.616	11.56	3.5601	9.3201e-07	12.907	4.3009e-05	2.4765e-05	5.7278e-06	193.22	2.3702e-07	2.3208e-07	417.08	31.248	2.7682e-07	2.6419e-07	104.39	35.022	10.674	3.3708	2.9539e-07	12.069	241.565	182.429	155.697	102.377	277.287	173.642	101.852	109.813	218.083	174.559	107.079	112.936	113.363	119.266	253.460	116.194	-8191	255	
1684.362	1	1	0	0	0.1317	0.016812	0.18641	0.31144	0.17956	0.23429	0.14939	0.12547	0.034197	0.073687	0.17784	0.092304	0.063535	0.097082	0.23479	0.11319	-1.8417	-2.0312	-2.3312	-1.9562	-2.1417	-2.2396	-1.7917	-2.2854	-2.2667	-2.1063	-2.3937	-1.975	-2.0167	-2.2854	-1.9417	-2.2583	245.309	126.895	390.235	365.787	399.191	219.990	274.500	296.844	299.871	437.755	436.401	430.797	134.293	413.180	220.451	416.962	0.00012515	0.0001631	2.2069e-05	207.75	7.8773e-07	8.0145e-07	451.57	33.514	4.291e-07	1.1788e-06	111.29	37.401	11.378	3.5239	8.5914e-07	12.827	4.6022e-05	2.5145e-05	5.0949e-06	191.78	2.7909e-07	2.2509e-07	416.25	31.185	2.5917e-07	2.7176e-07	103.96	34.929	10.609	3.3814	3.1831e-07	12.07	244.007	188.985	144.188	102.328	259.104	272.686	102.270	109.222	289.569	271.530	106.738	112.304	114.833	119.182	269.550	115.885	-8191	255	
1684.482	1	1	0	0	0.088665	0.07651	0.25117	0.27158	0.15838	0.02733	0.15126	0.1786	0.12446	0.23942	0.30191	0.21875	0.073151	0.073251	0.27137	0.073015	-1.65	-1.9	-2.3833	-2.0438	-2.325	-2.4542	-2.15	-2.1708	-2.3583	-1.8542	-2.4583	-2.1937	-2.2167	-2.3583	-2.0625	-2.1708	117.389	335.854	289.682	98.864	396.683	351.969	429.900	116.462	308.090	271.325	425.102	371.673	327.475	96.350	410.603	281.255	0.00012234	0.00010818	3.679e-05	209.13	1.0581e-06	9.7858e-07	447.68	33.368	4.3755e-07	5.6625e-07	110.82	37.207	11.491	3.6249	1.4393e-06	12.974	4.5237e-05	2.5681e-05	5.0241e-06	192.27	3.0799e-07	2.2866e-07	415.98	31.09	2.7413e-07	2.4937e-07	103.52	34.919	10.65	3.402	2.5739e-07	12.157	240.193	244.020	172.848	101.568	223.530	228.228	101.852	109.741	238.762	202.827	106.863	113.593	114.856	119.600	238.620	116.187	-8191	255	
1684.578	1	1	0	0	0.22194	0.23908	0.21307	0.23063	0.29541	0.19465	0.23232	0.14644	0.066971	0.091646	0.19422	0.068647	0.10003	0.26759	0.22299	0.091188	-1.7979	-2.0458	-2.3438	-2.1875	-2.2062	-2.5333	-1.8542	-2.0875	-2.4375	-2.1146	-2.3125	-2.3708	-2.0458	-2.4562	-1.8604	-2.1521	273.015	343.497	92.604	251.609	215.348	386.873	177.376	213.558	339.784	387.113	94.356	208.285	310.686	418.049	450.171	411.428	0.00010033	0.00023732	4.0939e-05	207.76	1.217e-06	1.4618e-06	449.2	33.54	8.8942e-07	1.2266e-06	111.86	37.701	11.745	3.679	1.2456e-06	12.933	4.3009e-05	2.2046e-05	5.889e-06	192.5	2.6621e-07	2.5754e-07	416.48	31.116	2.469e-07	2.3748e-07	104.34	35.119	10.84	3.4097	2.3885e-07	12.214	243.604	209.330	183.369	102.633	289.228	204.652	102.256	109.600	248.052	194.876	106.882	113.017	114.630	118.652	253.035	115.845	-8191	255	
1684.674	1	1	0	0	0.18875	0.011213	0.13366	0.2095	0.12872	0.018385	0.1807	0.076663	0.10958	0.2985	0.19712	0.13451	0.034315	0.093765	0.092785	0.24757	-1.8937	-1.8208	-2.2479	-2.2208	-1.8979	-2.3667	-2.2313	-1.7708	-2.2333	-1.8521	-2.0875	-2.25	-2.0833	-2.2687	-2.1688	-2.175	322.750	370.926	313.049	132.679	353.339	443.415	447.743	138.680	156.139	96.345	143.242	275.633	127.607	375.955	294.214	148.187	0.00010897	0.00011444	1.3998e-05	207.58	1.4203e-06	1.7946e-06	449.39	33.877	3.2176e-07	1.9325e-06	112.87	37.506	11.568	3.6042	1.522e-06	12.993	4.2224e-05	2.361e-05	6.4983e-06	193.06	3.0334e-07	2.3208e-07	417.07	31.385	2.4301e-07	2.5678e-07	104.03	35.058	10.732	3.4077	2.9237e-07	12.186	232.285	211.464	148.046	102.452	277.292	234.603	102.376	110.014	264.901	253.811	107.783	112.729	114.060	119.073	229.908	116.475	-8191	255	
1684.746	1	1	0	0	0.09158	0.13533	0.1391	0.14762	0.14536	0.22252	0.24763	0.057535	0.20429	0.096587	0.24531	0.13968	0.32173	0.12439	0.34204	0.25749	-1.8687	-1.9583	-2.1979	-2.3625	-2.2021	-2.2687	-2.1875	-2.0479	-2.4146	-2.1271	-2.1188	-2.1562	-1.9583	-2.2438	-2.0375	-1.9146	388.078	170.724	341.877	441.114	264.250	434.692	445.691	166.664	148.355	406.694	246.654	403.786	411.677	129.075	286.100	434.077	0.00011456	0.00013697	2.2944e-05	207.03	1.2736e-06	5.899e-07	449.02	33.013	7.5811e-07	3.9347e-07	111.49	37.469	11.581	3.6883	7.5853e-07	12.86	4.5768e-05	2.7146e-05	6.7224e-06	192.51	3.0484e-07	2.5893e-07	417.02	30.998	2.3403e-07	2.4953e-07	103.73	35.235	10.757	3.4258	2.3553e-07	12.2	235.497	166.292	112.585	102.132	262.798	245.403	102.483	108.972	247.707	175.195	106.601	112.600	114.891	119.192	316.292	116.246	-8191	255	
1684.867	1	1	0	0	0.073219	0.18618	0.037426	0.20953	0.28621	0.043666	0.077413	0.060731	0.099548	0.098708	0.13329	0.13527	0.15015	0.19642	0.095877	0.05515	-1.9125	-2.0312	-2.2083	-2.2896	-1.8646	-2.3646	-2.1708	-1.9062	-2.3979	-2.1188	-2.1917	-2.2083	-1.8583	-2.1896	-2.0583	-1.8208	408.506	397.522	393.951	324.665	253.174	414.571	448.041	281.995	381.743	384.479	281.531	152.817	373.886	150.041	101.384	168.114	0.00012271	0.00013141	3.9835e-05	209.49	1.4586e-06	9.5732e-07	453.45	33.464	1.4202e-06	4.6846e-07	113.44	37.904	11.549	3.6689	1.9135e-06	13.178	4.7661e-05	2.523e-05	6.9898e-06	192.73	2.9286e-07	2.5272e-07	419.28	31.213	2.659e-07	2.7701e-07	104.82	35.492	10.864	3.4512	2.6373e-07	12.375	238.053	223.076	154.374	102.061	254.691	280.311	102.362	109.287	273.661	235.099	107.087	113.008	114.172	119.178	217.588	115.786	-8191	255	
1684.963	1	1	0	0	0.21057	0.11456	0.11989	0.18686	0.065277	0.20188	0.12641	0.15676	0.090572	0.11245	0.21315	0.11321	0.12422	0.076556	0.27927	0.35015	-2.0187	-1.9125	-2.1417	-2.3104	-1.8708	-2.1125	-2.2708	-1.8833	-2.2938	-2.0292	-2.0854	-2.3479	-1.9312	-2.4646	-2.2562	-1.9458	410.831	240.849	339.832	303.955	221.794	110.446	276.385	168.325	167.538	442.712	156.067	373.061	216.251	183.365	312.082	312.883	0.00012368	4.6201e-05	4.4902e-05	208.95	9.9418e-07	1.5658e-06	450.56	33.921	7.1594e-07	1.562e-07	112.81	38.443	11.945	3.718	1.4261e-06	13.273	4.4209e-05	2.5906e-05	6.6713e-06	193.48	2.8657e-07	2.6825e-07	418.85	31.475	2.864e-07	2.5617e-07	104.94	35.936	11.083	3.5294	2.7383e-07	12.516	231.573	184.333	180.529	102.213	260.685	270.581	102.050	109.683	255.828	326.983	106.916	112.284	114.498	119.775	279.198	116.075	-8191	255	
1685.059	1	1	0	0	0.16551	0.19937	0.29085	0.20949	0.12343	0.20742	0.153	0.16766	0.14581	0.24284	0.2096	0.27402	0.036501	0.19734	0.35553	0.13628	-1.8833	-2.1042	-1.8771	-2.3875	-1.9854	-2.2896	-2.3271	-1.95	-2.1937	-2.1708	-2.1417	-2.225	-1.8729	-2.1375	-2.2292	-1.8292	297.056	132.554	364.230	334.846	239.221	217.942	405.648	317.987	224.485	111.090	397.497	444.190	341.694	348.028	171.166	232.257	0.00011711	0.00019156	4.0113e-05	209.12	2.323e-07	8.997e-07	453.12	34.112	1.4338e-06	1.0117e-06	112.81	38.298	11.804	3.6287	9.7015e-07	13.23	4.5756e-05	2.3385e-05	7.5519e-06	193.82	3.0739e-07	2.6111e-07	419.41	31.602	2.6769e-07	2.4567e-07	105.23	35.939	10.997	3.4671	2.8529e-07	12.37	235.709	143.296	146.439	102.214	298.439	250.289	102.091	109.678	270.653	226.783	106.851	112.755	113.913	118.750	261.217	116.078	-8191	255	
1685.155	1	1	0	0	0.22158	0.35751	0.12561	0.108	0.16775	0.21708	0.094402	0.076221	0.32704	0.20242	0.19781	0.17094	0.065844	0.3803	0.020432	0.12642	-1.6313	-2.1771	-1.8188	-2.5125	-1.9937	-1.9979	-2.3229	-2.0042	-2.2438	-2.1542	-1.9875	-2.4271	-1.9312	-2.0687	-2.3771	-1.9979	412.378	336.360	358.073	153.294	431.454	358.707	431.773	240.905	259.641	340.765	167.354	223.093	400.302	330.925	187.192	441.830	0.0001246	9.5776e-05	3.4367e-05	209.07	9.0411e-07	8.5557e-07	452.85	33.599	6.2938e-07	1.1642e-06	114.61	37.689	11.791	3.5816	8.15e-07	13.05	4.5721e-05	2.2652e-05	7.2374e-06	193.98	2.8598e-07	2.8921e-07	419.12	31.244	2.4719e-07	2.2667e-07	105.53	35.541	10.904	3.4383	2.4533e-07	12.306	240.452	206.472	172.730	102.169	256.935	249.533	102.325	111.339	296.338	256.200	107.414	112.818	114.615	118.654	244.452	116.513	-8191	255	
1685.251	1	1	0	0	0.18741	0.227	0.19255	0.1344	0.1122	0.041484	0.1892	0.22624	0.23097	0.29222	0.33041	0.12891	0.094709	0.22704	0.14329	0.13288	-1.7708	-2.1917	-2.0062	-2.3583	-1.9937	-1.9167	-2.2396	-1.9625	-2.1375	-2.2042	-1.7875	-2.4021	-2.1708	-1.9813	-2.3563	-1.8396	179.474	222.438	425.380	94.676	314.524	432.473	406.241	438.185	282.011	117.540	173.323	177.255	257.090	408.264	103.134	433.715	0.00011138	0.00010687	2.0857e-05	209.27	1.2808e-06	6.9586e-07	455.38	33.623	1.0041e-06	5.6328e-07	112.32	38.444	11.424	3.6218	8.5487e-07	13.228	4.5063e-05	2.4047e-05	7.0369e-06	193.73	2.9077e-07	2.8331e-07	421.05	31.429	2.9298e-07	2.0104e-07	104.69	35.671	10.865	3.4733	2.4638e-07	12.424	237.939	178.324	159.627	102.367	282.691	269.889	102.564	109.782	247.474	307.038	107.175	112.848	114.516	119.564	257.649	116.648	-8191	255	
1685.346	1	1	0	0	0.2671	0.096634	0.20025	0.3416	0.14386	0.12734	0.23418	0.14026	0.073605	0.16654	0.047304	0.19786	0.18977	0.05203	0.13063	0.16831	-1.6854	-2.3083	-1.8417	-2.3458	-2.3104	-1.9667	-2.4333	-2.0042	-1.9875	-2.3792	-1.9146	-2.1625	-2.1833	-1.9604	-2.3479	-1.9729	394.200	351.346	139.945	376.530	249.802	179.838	367.625	260.015	262.076	374.247	190.182	329.903	155.191	254.019	254.261	144.194	0.00010797	8.1163e-05	3.8368e-05	211.84	1.3124e-06	1.097e-06	456.92	33.647	6.1959e-08	2.627e-07	112.73	38.205	11.853	3.6685	1.1928e-06	13.333	4.496e-05	2.161e-05	7.7446e-06	195.17	2.5438e-07	2.504e-07	422.52	31.502	2.6365e-07	2.3779e-07	104.91	35.696	10.963	3.4766	2.3824e-07	12.451	240.347	216.781	193.495	102.520	329.847	233.307	102.067	109.955	159.205	285.867	107.278	112.962	113.854	118.950	262.981	116.201	-8191	255	
1685.444	1	1	0	0	0.19792	0.1619	0.19914	0.27021	0.037878	0.088753	0.22715	0.13191	0.25353	0.044458	0.22736	0.055446	0.052785	0.16044	0.07728	0.16887	-1.6646	-2.3333	-1.7563	-2.2729	-2.3146	-1.8167	-2.3833	-2.0042	-1.9417	-2.4229	-1.7917	-2.1646	-2.1854	-1.85	-2.3646	-2.0833	165.108	140.048	145.731	348.865	205.850	314.975	350.085	182.285	401.960	409.524	375.129	393.409	400.335	398.049	170.557	212.680	0.00011829	0.00010704	9.0542e-06	211.05	1.6368e-06	1.083e-06	450.6	33.485	4.7269e-07	1.9853e-06	112.63	37.938	11.544	3.6838	1.4747e-06	12.897	4.6506e-05	1.851e-05	6.5573e-06	195.44	2.5932e-07	2.6608e-07	419.77	31.477	2.7996e-07	1.9332e-07	104.61	35.52	10.813	3.4715	2.6388e-07	12.278	245.715	262.264	199.886	102.610	252.423	197.410	102.034	109.938	210.913	221.041	107.077	112.953	114.830	119.304	242.915	115.396	-8191	255	
1685.563	1	1	0	0	0.1084	0.046707	0.15951	0.085976	0.10387	0.11716	0.23501	0.22368	0.22929	0.26601	0.25089	0.10927	0.11691	0.14236	0.059974	0.19823	-1.4708	-2.2542	-1.9771	-2.2292	-2.2625	-1.8396	-2.2979	-2.1667	-2.0854	-2.4479	-1.925	-2.2333	-2.4854	-1.9062	-2.3979	-1.9917	335.017	252.957	363.346	121.782	429.160	198.347	279.672	167.110	206.772	127.507	157.998	436.521	242.217	265.122	370.733	131.467	0.000103	0.00020499	3.4694e-05	212.52	1.1838e-06	1.0664e-06	453.41	33.859	1.4774e-06	2.1611e-07	112.19	37.924	11.696	3.6647	1.2025e-06	13.255	4.3655e-05	2.1765e-05	7.0841e-06	194.91	2.4166e-07	2.5552e-07	420.48	31.662	2.849e-07	2.7022e-07	104.3	35.791	10.915	3.4639	2.6071e-07	12.452	233.538	171.090	175.841	102.134	273.951	129.916	102.416	109.822	248.316	289.266	107.109	112.731	114.672	118.994	267.437	115.945	-8191	255	
1685.659	1	1	0	0	0.12927	0.26226	0.18117	0.21124	0.16777	0.13205	0.40185	0.13828	0.1171	0.4061	0.20294	0.011461	0.12994	0.16931	0.36394	0.13623	-1.4167	-2.2667	-2.1312	-2.1417	-2.3708	-1.9042	-2.3958	-2.1646	-2.0292	-2.2562	-2.0479	-2.0521	-2.25	-1.6313	-2.3083	-2.2167	218.441	304.620	445.617	378.115	140.050	350.902	400.078	298.768	261.400	113.847	132.732	165.102	359.065	217.691	287.521	415.623	0.00013206	7.8358e-05	1.8924e-05	209.77	1.2188e-06	1.9069e-06	450.61	33.728	1.141e-06	8.8203e-07	114.37	38.507	11.783	3.7428	4.4216e-07	13.341	4.8388e-05	2.1441e-05	6.0816e-06	195.05	2.8014e-07	2.8191e-07	420.81	31.449	3.4027e-07	2.5076e-07	105.46	36.124	11.078	3.5261	2.7911e-07	12.533	235.126	172.626	151.126	102.230	229.081	261.790	101.984	109.758	249.241	223.307	106.984	113.345	114.463	119.025	250.668	116.552	-8191	255	
1685.755	1	1	0	0	0.24245	0.17183	0.064159	0.12158	0.16371	0.16864	0.19012	0.17719	0.21978	0.2139	0.184	0.12996	0.11849	0.054756	0.067084	0.25024	-1.3896	-2.1375	-2.1292	-1.9312	-2.45	-1.8917	-2.2875	-2.325	-1.8021	-2.5312	-1.9688	-2.0583	-2.1083	-1.8687	-2.2354	-2.2	333.001	160.033	220.153	316.427	124.823	158.062	339.448	350.136	252.260	232.398	430.046	340.892	247.171	99.754	194.901	362.182	0.00013824	9.491e-05	3.0708e-05	210.03	1.5321e-06	8.8828e-07	454.69	33.843	1.0398e-06	1.6764e-06	113.43	38.31	11.971	3.7131	1.0257e-06	13.246	4.9692e-05	2.4483e-05	7.5912e-06	195.09	2.6816e-07	2.8284e-07	421.32	31.754	2.8116e-07	2.5107e-07	105.73	36.174	11.159	3.5455	2.7503e-07	12.571	241.216	219.916	144.849	102.215	300.854	264.092	102.425	109.566	265.077	255.319	107.542	113.199	114.976	119.554	285.818	115.877	-8191	255	
1685.851	1	1	0	0	0.16496	0.16774	0.15404	0.18531	0.11696	0.13221	0.38437	0.14162	0.053742	0.19652	0.39293	0.27038	0.083086	0.12341	0.1205	0.055588	-1.4375	-2.3021	-2.1333	-2.1688	-2.3292	-1.8979	-2.1437	-2.2375	-1.7313	-2.3146	-2.2542	-1.9792	-2.2896	-1.9854	-2.0083	-2.3125	137.170	257.809	144.251	121.157	354.701	175.650	119.868	402.346	287.138	433.829	429.139	350.509	304.960	353.782	411.288	353.080	0.00012228	0.00012861	2.9872e-05	211.05	2.7328e-06	1.4647e-06	455.75	34.15	1.1198e-06	2.2457e-07	114.68	38.48	12.024	3.7435	1.065e-06	13.419	4.7545e-05	2.3554e-05	6.6831e-06	195.48	2.5947e-07	2.9619e-07	420.76	31.905	2.8715e-07	2.3578e-07	106.15	36.195	11.194	3.5457	3.0595e-07	12.604	239.002	113.617	157.576	102.182	275.199	232.290	102.169	108.395	301.256	272.260	107.010	112.939	114.398	119.922	269.731	116.063	-8191	255	
1685.972	1	1	0	0	0.033616	0.2216	0.16211	0.049457	0.050114	0.18903	0.075936	0.25792	0.11581	0.1271	0.091452	0.18525	0.036743	0.28982	0.080862	0.24067	-1.3125	-2.2542	-2.2438	-1.8146	-2.1625	-2.1417	-2.0646	-2.4292	-2.0604	-2.4396	-2.3104	-1.875	-2.2083	-2.1063	-2.0021	-2.4333	137.908	222.725	441.298	390.493	184.026	155.348	204.153	270.840	130.326	313.611	339.508	334.202	111.154	396.370	234.011	166.843	0.00011712	0.00018925	5.9507e-05	211.04	1.3575e-06	9.7743e-07	454.22	34.158	6.5938e-07	1.3224e-06	113.86	38.734	12.031	3.7552	1.4717e-06	13.498	4.8803e-05	2.3173e-05	6.235e-06	194.68	2.725e-07	2.5272e-07	421.24	31.889	3.045e-07	2.7825e-07	105.88	36.541	11.231	3.5574	2.9313e-07	12.713	239.374	199.994	182.020	102.123	300.138	207.926	102.648	110.171	247.986	235.698	106.408	112.893	114.343	118.978	278.407	116.095	-8191	255	
1686.043	1	1	0	0	0.17421	0.088897	0.099257	0.097769	0.15289	0.2543	0.29554	0.35829	0.034548	0.10204	0.17702	0.037457	0.14169	0.17013	0.23273	0.16131	-1.4458	-2.225	-2.25	-2.0917	-2.2333	-2.075	-2.0146	-2.4979	-1.95	-2.1937	-2.3	-2.0187	-2.4313	-1.9854	-1.9083	-2.4792	389.863	276.333	340.532	297.480	237.759	317.215	273.420	273.275	415.590	354.540	377.764	432.732	243.627	96.267	146.087	93.679	0.00011302	8.0515e-05	3.8686e-05	210.7	5.6131e-07	1.5863e-06	455.64	34.235	1.1915e-06	1.5961e-06	115.17	38.974	12.198	3.7449	1.7078e-06	13.581	5.0535e-05	2.4103e-05	6.4354e-06	195.47	3.0799e-07	2.6639e-07	421.63	32.016	3.0046e-07	2.7006e-07	106.59	36.554	11.259	3.5669	2.9826e-07	12.77	235.310	189.618	284.931	102.566	282.959	250.818	102.554	108.789	243.746	253.577	107.079	112.692	114.371	119.699	287.268	116.804	-8191	255	
1686.139	1	1	0	0	0.13895	0.092874	0.062145	0.18969	0.33106	0.16855	0.038291	0.078656	0.24426	0.32181	0.16002	0.22819	0.25812	0.057506	0.33772	0.1174	-1.4125	-2.025	-2.1354	-1.8	-2.2354	-2.1875	-2.0521	-2.3312	-2.0729	-2.0312	-2.3042	-1.9042	-2.2438	-2.1292	-1.9292	-2.1813	395.252	426.217	284.342	358.718	231.017	246.762	94.565	418.408	98.987	234.741	187.525	425.519	230.575	94.833	176.618	246.906	0.00012149	0.00016027	1.5943e-05	210.85	7.9745e-07	9.4288e-07	460.61	34.507	6.6318e-07	1.69e-07	115.51	38.932	12.131	3.6881	1.8532e-06	13.616	4.9392e-05	2.7174e-05	6.8286e-06	194.87	2.7774e-07	2.4822e-07	424.53	31.904	3.1124e-07	2.5277e-07	106.27	36.342	11.187	3.5278	2.4578e-07	12.67	236.548	209.899	171.078	102.407	225.325	225.929	102.150	110.277	328.830	388.777	107.670	112.963	114.080	119.529	257.232	116.364	-8191	255	
#DATA ENDS
