BOXY.EXE: ISS Imagent and Oximeter Data Acquisition Program Version 0.80
Ascii Record File

#ACQ INFORMATION
2  Detector Channels 
16  External MUX Channels 
1  Auxiliary Channels 
5000  Waveform (CCF) Frequency (Hz)
1  Waveforms Skipped 
30  Waveforms Averaged 
1  Cycles Averaged 
16  Acquisitions per Waveform 
10.0806  Updata Rate (Hz) 

#FILE INFORMATION
TRUE -- External MUX Channel results are PARSED.
FALSE -- AC DC and Phase are NOT grouped.
TRUE -- Companion Program Settings File CREATED.
FALSE -- AC data not excluded
FALSE -- DC data not excluded
FALSE -- Phase data not excluded
FALSE -- Auxillary Chn. data not excluded
Tab delimiters

#CALIBRATION STATE
TRUE -- Waveform Calibration Values APPLIED.


#AUX CALIBRATION VALUES
Val Type	aux-1	

Term	1.0000e+00	
Factor	0.0000e+00	


#WF CALIBRATION VALUES
A = Detector Channel
Val Type	A-AC1	A-AC2	A-AC3	A-AC4	A-AC5	A-AC6	A-AC7	A-AC8	A-AC9	A-AC10	A-AC11	A-AC12	A-AC13	A-AC14	A-AC15	A-AC16	A-DC1	A-DC2	A-DC3	A-DC4	A-DC5	A-DC6	A-DC7	A-DC8	A-DC9	A-DC10	A-DC11	A-DC12	A-DC13	A-DC14	A-DC15	A-DC16	A-Ph1	A-Ph2	A-Ph3	A-Ph4	A-Ph5	A-Ph6	A-Ph7	A-Ph8	A-Ph9	A-Ph10	A-Ph11	A-Ph12	A-Ph13	A-Ph14	A-Ph15	A-Ph16	

Term	0.00000e+00	0.00000e+00	0.00000e+00	0.00000e+00	0.00000e+00	0.00000e+00	0.00000e+00	0.00000e+00	0.00000e+00	0.00000e+00	0.00000e+00	0.00000e+00	0.00000e+00	0.00000e+00	0.00000e+00	0.00000e+00	0.00000e+00	0.00000e+00	0.00000e+00	0.00000e+00	0.00000e+00	0.00000e+00	0.00000e+00	0.00000e+00	0.00000e+00	0.00000e+00	0.00000e+00	0.00000e+00	0.00000e+00	0.00000e+00	0.00000e+00	0.00000e+00	0.00000e+00	0.00000e+00	0.00000e+00	0.00000e+00	0.00000e+00	0.00000e+00	0.00000e+00	0.00000e+00	0.00000e+00	0.00000e+00	0.00000e+00	0.00000e+00	0.00000e+00	0.00000e+00	0.00000e+00	0.00000e+00	
Factor	1.00000e+00	1.00000e+00	1.00000e+00	1.00000e+00	1.00000e+00	1.00000e+00	1.00000e+00	1.00000e+00	1.00000e+00	1.00000e+00	1.00000e+00	1.00000e+00	1.00000e+00	1.00000e+00	1.00000e+00	1.00000e+00	1.00000e+00	1.00000e+00	1.00000e+00	1.00000e+00	1.00000e+00	1.00000e+00	1.00000e+00	1.00000e+00	1.00000e+00	1.00000e+00	1.00000e+00	1.00000e+00	1.00000e+00	1.00000e+00	1.00000e+00	1.00000e+00	X	X	X	X	X	X	X	X	X	X	X	X	X	X	X	X	

B = Detector Channel
Val Type	B-AC1	B-AC2	B-AC3	B-AC4	B-AC5	B-AC6	B-AC7	B-AC8	B-AC9	B-AC10	B-AC11	B-AC12	B-AC13	B-AC14	B-AC15	B-AC16	B-DC1	B-DC2	B-DC3	B-DC4	B-DC5	B-DC6	B-DC7	B-DC8	B-DC9	B-DC10	B-DC11	B-DC12	B-DC13	B-DC14	B-DC15	B-DC16	B-Ph1	B-Ph2	B-Ph3	B-Ph4	B-Ph5	B-Ph6	B-Ph7	B-Ph8	B-Ph9	B-Ph10	B-Ph11	B-Ph12	B-Ph13	B-Ph14	B-Ph15	B-Ph16	

Term	0.00000e+00	0.00000e+00	0.00000e+00	0.00000e+00	0.00000e+00	0.00000e+00	0.00000e+00	0.00000e+00	0.00000e+00	0.00000e+00	0.00000e+00	0.00000e+00	0.00000e+00	0.00000e+00	0.00000e+00	0.00000e+00	0.00000e+00	0.00000e+00	0.00000e+00	0.00000e+00	0.00000e+00	0.00000e+00	0.00000e+00	0.00000e+00	0.00000e+00	0.00000e+00	0.00000e+00	0.00000e+00	0.00000e+00	0.00000e+00	0.00000e+00	0.00000e+00	-6.59245e+01	-1.24734e+02	-1.31290e+02	-1.83070e+02	-4.71720e+01	-6.49150e+01	-1.56663e+02	-1.62015e+02	-3.94459e+01	-6.42214e+01	-1.71114e+02	-1.71480e+02	-1.80686e+02	-1.76770e+02	-5.03157e+01	-1.49850e+02	
Factor	1.94318e-05	1.90944e-04	4.49887e-05	1.63081e-01	1.59961e-06	1.69595e-06	1.94177e-01	5.42487e-02	1.28390e-06	1.65075e-06	1.08414e-01	3.13847e-02	2.95052e-02	9.61121e-03	1.53840e-06	1.41149e-02	5.54059e-06	6.76180e-06	1.88700e-06	8.26207e-02	7.18682e-08	7.45135e-08	9.21061e-02	2.75920e-02	7.18242e-08	7.41166e-08	5.30887e-02	1.54427e-02	1.51454e-02	4.92050e-03	7.23774e-08	6.95805e-03	X	X	X	X	X	X	X	X	X	X	X	X	X	X	X	X	



#DISTANCE SETTINGS
A = Detector Channel
A-1	A-2	A-3	A-4	A-5	A-6	A-7	A-8	A-9	A-10	A-11	A-12	A-13	A-14	A-15	A-16	

2.5000e+00	3.0000e+00	2.5000e+00	3.0000e+00	2.0000e+00	3.0000e+00	1.5000e+00	3.0000e+00	3.0000e+00	3.0000e+00	3.0000e+00	3.0000e+00	3.0000e+00	3.0000e+00	1.5000e+00	3.0000e+00	

B = Detector Channel
B-1	B-2	B-3	B-4	B-5	B-6	B-7	B-8	B-9	B-10	B-11	B-12	B-13	B-14	B-15	B-16	

1.0000e+01	1.0000e+01	1.0000e+01	1.4400e+00	1.0000e+01	1.0000e+01	1.5100e+00	1.9400e+00	1.0000e+01	1.0000e+01	1.9900e+00	2.4900e+00	2.4100e+00	2.9000e+00	1.0000e+01	2.9800e+00	




#DATA BEGINS
time	group	step	mark	flag	A-AC1	A-AC2	A-AC3	A-AC4	A-AC5	A-AC6	A-AC7	A-AC8	A-AC9	A-AC10	A-AC11	A-AC12	A-AC13	A-AC14	A-AC15	A-AC16	A-DC1	A-DC2	A-DC3	A-DC4	A-DC5	A-DC6	A-DC7	A-DC8	A-DC9	A-DC10	A-DC11	A-DC12	A-DC13	A-DC14	A-DC15	A-DC16	A-Ph1	A-Ph2	A-Ph3	A-Ph4	A-Ph5	A-Ph6	A-Ph7	A-Ph8	A-Ph9	A-Ph10	A-Ph11	A-Ph12	A-Ph13	A-Ph14	A-Ph15	A-Ph16	B-AC1	B-AC2	B-AC3	B-AC4	B-AC5	B-AC6	B-AC7	B-AC8	B-AC9	B-AC10	B-AC11	B-AC12	B-AC13	B-AC14	B-AC15	B-AC16	B-DC1	B-DC2	B-DC3	B-DC4	B-DC5	B-DC6	B-DC7	B-DC8	B-DC9	B-DC10	B-DC11	B-DC12	B-DC13	B-DC14	B-DC15	B-DC16	B-Ph1	B-Ph2	B-Ph3	B-Ph4	B-Ph5	B-Ph6	B-Ph7	B-Ph8	B-Ph9	B-Ph10	B-Ph11	B-Ph12	B-Ph13	B-Ph14	B-Ph15	B-Ph16	aux-1	digaux	

1643.788	1	1	0	512	0.035667	0.18685	0.44625	0.1159	0.040242	0.23669	0.24429	0.15476	0.070332	0.096913	0.17383	0.33074	0.13913	0.3023	0.10256	0.060198	-1.9479	-2.1875	-2.275	-2.4062	-1.9937	-2.4021	-2.4604	-2.0542	-2.4208	-2.2792	-2.2438	-2.6979	-2.0417	-2.1458	-2.4521	-2.0062	190.080	363.524	329.824	180.475	335.866	248.784	346.956	355.584	408.026	283.108	293.225	167.708	120.721	91.659	364.391	233.538	0.0003655	0.00024478	4.9679e-05	205.69	2.7503e-06	7e-07	549.55	91.761	3.2308e-06	2.0114e-06	266.61	89.199	30.085	11.791	2.6623e-06	44.104	0.00015	8.8904e-05	2.389e-05	192.5	9.9313e-07	1.0126e-06	510.14	86.097	9.9102e-07	9.6521e-07	248.39	82.906	27.866	11.077	9.2417e-07	41.452	233.175	175.734	159.951	101.067	256.850	333.874	101.632	105.846	261.680	234.458	104.278	108.541	108.765	114.513	246.371	112.215	-8191	255	
1643.884	1	1	0	0	0.054476	0.25583	0.20154	0.12759	0.11844	0.066899	0.19868	0.19081	0.21337	0.092861	0.18334	0.21169	0.033582	0.15978	0.17703	0.2407	-1.9125	-2.1312	-2.0292	-2.3771	-2.0938	-2.1229	-2.2812	-2.1083	-2.425	-2.2979	-2.2313	-2.4396	-2.05	-2.1979	-2.325	-1.9875	211.801	441.824	192.376	374.756	435.904	320.311	445.096	319.764	283.321	389.820	447.507	148.168	224.437	276.954	150.045	430.663	0.00039161	0.0003982	0.00011277	205.04	2.3922e-06	2.8668e-06	546.44	92.616	1.873e-06	1.6291e-06	267.94	89.048	30.311	11.787	2.2146e-06	43.847	0.00015344	9.1594e-05	2.5262e-05	192.27	9.9507e-07	9.6138e-07	506.73	86.198	9.5107e-07	9.1086e-07	248.16	82.757	28.005	11.157	9.593e-07	41.362	238.919	215.532	175.017	101.879	268.200	237.419	101.117	105.721	254.420	252.742	104.437	108.396	109.354	114.338	232.718	112.172	-8191	255	
1643.980	1	1	0	0	0.1605	0.10293	0.26165	0.0029649	0.20897	0.2904	0.16546	0.022147	0.38832	0.046725	0.049818	0.48033	0.086682	0.079428	0.20843	0.30477	-1.8438	-2.2062	-1.9667	-2.4875	-2.1708	-2.1875	-2.475	-1.8104	-2.5125	-2.1437	-1.9521	-2.5125	-2.2438	-2.0604	-2.4542	-2.0458	167.201	143.843	214.569	118.075	145.918	389.273	150.305	285.213	137.631	157.432	296.906	334.594	212.289	317.831	198.661	395.314	0.00038109	0.00044044	7.9713e-05	208.63	2.8481e-06	3.4367e-06	548.84	92.493	2.7427e-06	1.9986e-06	268.18	88.834	29.875	11.81	3.384e-06	43.846	0.00015461	8.4917e-05	2.6288e-05	192.89	9.1213e-07	9.9507e-07	507.31	86.396	9.5751e-07	9.8482e-07	249.32	82.729	27.885	11.15	9.8418e-07	41.426	236.200	188.878	170.065	101.353	250.860	231.953	101.322	105.839	269.719	246.629	104.592	108.682	108.759	114.485	259.776	111.939	-8191	255	
1644.076	1	1	0	0	0.32091	0.14419	0.11311	0.13151	0.011824	0.19111	0.15165	0.076157	0.10895	0.34478	0.052451	0.1449	0.16049	0.13913	0.16146	0.19333	-1.7	-2.2458	-1.9062	-2.3979	-2.2021	-2.1021	-2.5042	-2.0187	-2.25	-2.4208	-2.0875	-2.5125	-2.1708	-1.9896	-2.4062	-2.1583	397.903	215.647	276.883	412.840	166.136	338.349	206.603	260.650	191.778	441.114	364.191	287.127	250.522	348.794	206.753	372.345	0.00040249	0.00024775	0.00011742	207.62	2.6927e-06	3.8969e-06	546.57	92.162	2.8732e-06	1.8188e-06	268.05	88.324	29.823	11.441	3.1298e-06	43.608	0.00015949	9.0157e-05	2.3733e-05	192.56	9.4926e-07	9.5051e-07	504.14	86.4	9.4239e-07	9.5224e-07	248.53	82.355	27.826	11.018	9.4091e-07	40.845	236.805	214.739	177.549	100.862	253.588	236.207	101.282	105.282	268.207	240.209	104.400	108.553	108.806	114.436	265.035	112.107	-8191	255	
1644.171	1	1	0	0	0.11501	0.12782	0.069259	0.23384	0.2436	0.054625	0.23174	0.28885	0.22322	0.16553	0.14667	0.28724	0.082835	0.17706	0.36366	0.26224	-1.7521	-2.3854	-1.9813	-2.2	-2.2562	-2.0375	-2.5708	-2.0438	-2.15	-2.5042	-2.0417	-2.2812	-2.3187	-1.9958	-2.1792	-2.3146	225.011	161.422	250.816	339.435	237.783	131.340	309.292	262.864	137.400	276.718	413.930	111.698	135.623	267.295	168.318	147.668	0.00039974	0.00036658	9.7094e-05	206.06	2.2817e-06	3.0006e-06	546.53	92.572	1.3421e-06	2.9807e-06	267.44	87.062	30.01	11.622	1.7418e-06	42.869	0.00015404	8.9664e-05	2.4008e-05	191.18	9.5285e-07	9.2754e-07	506.45	85.81	9.7905e-07	8.8214e-07	248	81.311	27.727	10.958	8.8285e-07	40.417	235.516	190.912	181.105	101.194	231.341	229.209	101.255	105.751	240.583	246.567	104.167	108.309	108.495	114.650	241.643	112.086	-8191	255	
1644.267	1	1	0	0	0.30147	0.17556	0.29489	0.1451	0.25462	0.033965	0.029904	0.097982	0.0571	0.21441	0.055269	0.13552	0.26265	0.20564	0.15215	0.20202	-1.5146	-2.3375	-1.9438	-2.2708	-2.3479	-1.9875	-2.4833	-2.2458	-2.175	-2.6917	-2.1958	-2.3625	-2.3812	-1.8813	-2.2542	-2.2417	432.064	442.972	116.292	216.883	198.066	318.253	155.900	104.576	228.686	355.252	201.263	345.456	269.813	125.405	245.292	438.816	0.00036483	0.00019305	6.391e-05	204.97	2.5368e-06	2.4514e-06	543.32	93.362	7.1242e-07	5.4459e-06	267.89	87.123	29.7	11.531	6.1694e-07	43.562	0.00015121	8.3917e-05	2.3544e-05	189.59	9.53e-07	9.9429e-07	505.61	86.934	9.7187e-07	8.7705e-07	248.71	81.174	27.8	10.947	8.916e-07	40.641	235.489	156.769	185.910	101.668	255.997	240.725	101.120	105.885	177.244	234.226	104.391	108.173	109.453	115.229	200.065	111.790	-8191	255	
1644.365	1	1	0	0	0.12312	0.14196	0.27933	0.073863	0.3267	0.19527	0.39723	0.022178	0.093843	0.079693	0.042518	0.14195	0.29425	0.079124	0.37022	0.29451	-1.6208	-2.4104	-2.1521	-2.2917	-2.5375	-2.2	-2.4792	-2.2062	-2.0417	-2.4021	-2.1604	-2.2958	-2.4583	-2.0708	-2.3187	-2.2167	204.729	260.430	253.049	402.046	446.640	107.794	419.546	386.042	151.612	398.736	106.056	132.548	401.887	409.604	205.273	95.505	0.00039442	0.00029346	9.372e-05	204.41	1.7756e-06	3.0829e-06	547.06	94.076	1.9726e-06	1.5327e-06	270.32	88.242	30	11.66	3.0767e-06	43.584	0.00015499	8.4889e-05	2.4327e-05	189.46	9.2006e-07	9.6743e-07	507.01	87.966	9.6888e-07	8.6747e-07	250.82	81.923	27.987	11.087	8.919e-07	40.969	237.644	158.358	175.537	101.139	298.269	246.716	101.120	105.822	255.246	212.075	104.477	108.537	108.298	114.473	262.633	112.143	-8191	255	
1644.484	1	1	0	0	0.18986	0.34566	0.25506	0.27726	0.23656	0.14686	0.16164	0.099562	0.28696	0.29712	0.10457	0.17621	0.12839	0.1533	0.062993	0.21129	-1.6375	-2.2313	-1.9292	-2.2208	-2.3563	-1.9896	-2.3833	-2.2354	-2.0438	-2.4354	-2.3333	-2.1271	-2.5042	-2.0667	-2.2667	-2.4542	249.637	195.384	340.258	155.266	167.260	164.247	441.894	117.418	337.690	275.243	311.965	286.278	314.726	228.683	102.379	239.667	0.00037681	0.00026357	8.4333e-05	202.87	2.2342e-06	2.9439e-06	547.65	93.858	3.7698e-06	2.1493e-06	266.09	85.546	29.611	11.182	2.467e-06	41.942	0.00015297	8.1776e-05	2.3088e-05	188.85	9.0823e-07	9.1946e-07	506.95	87.536	9.8264e-07	8.3227e-07	247.16	79.962	27.292	10.685	8.6159e-07	39.473	236.077	195.072	191.364	101.481	246.948	239.914	101.078	105.863	263.989	247.535	103.735	108.853	109.057	114.410	241.777	112.264	-8191	255	
1644.580	1	1	0	0	0.14863	0.053784	0.20177	0.2289	0.38788	0.22235	0.13353	0.17352	0.2454	0.021234	0.077621	0.23066	0.22843	0.076862	0.11303	0.1898	-1.4021	-2.4771	-2.1729	-2.0104	-2.3604	-2.0062	-2.2812	-2.4958	-1.9396	-2.3333	-1.9292	-2.0167	-2.4396	-2.0917	-2.2313	-2.3083	181.106	436.164	218.743	258.891	150.865	320.245	106.634	147.510	374.542	123.278	304.815	313.185	329.701	175.516	429.967	351.561	0.00038501	0.00025629	6.3623e-05	200.96	2.0142e-06	2.9415e-06	543.55	93.45	2.016e-06	2.0476e-06	267.06	84.745	29.582	11.317	2.5197e-06	41.86	0.00015076	8.0649e-05	2.1225e-05	186.5	8.2858e-07	8.6917e-07	501.65	87.138	8.5994e-07	9.0499e-07	246.58	79.067	27.222	10.666	9.2734e-07	39.339	235.656	192.717	170.663	101.064	277.622	287.793	101.502	106.122	259.888	265.255	104.221	108.819	108.852	115.326	239.648	112.146	-8191	255	
1644.676	1	1	0	0	0.29421	0.30033	0.1829	0.22374	0.24106	0.21622	0.34189	0.045598	0.18687	0.25086	0.085982	0.2412	0.18511	0.15145	0.13862	0.10059	-1.3521	-2.2208	-2.1521	-1.9937	-2.6771	-2.0771	-2.2542	-2.4896	-1.9542	-2.4104	-2.275	-2.15	-2.3458	-2.0042	-2.275	-2.6437	191.006	301.350	269.730	310.250	288.801	169.937	434.078	435.960	328.113	374.225	171.614	443.812	186.757	328.620	380.382	404.701	0.00035341	0.00031825	4.5038e-05	201.87	1.8902e-06	1.2879e-06	548.22	94.331	1.1957e-06	3.7309e-06	266.2	84.651	29.616	11.47	1.1825e-06	42.081	0.00014661	8.0381e-05	2.1417e-05	187.01	8.199e-07	8.968e-07	506.68	88.238	9.2399e-07	8.3582e-07	247.65	79.564	27.571	10.796	8.4772e-07	39.528	238.801	168.342	171.316	101.123	237.843	204.406	101.150	105.906	251.562	229.197	104.337	108.521	109.213	114.060	279.682	112.610	-8191	255	
1644.772	1	1	0	0	0.10663	0.39849	0.1591	0.1735	0.27635	0.34558	0.47389	0.14692	0.11825	0.10319	0.1569	0.15949	0.088319	0.12365	0.067632	0.23542	-1.6104	-2.2479	-2.2229	-1.9521	-2.3375	-2.1875	-2.1562	-2.5042	-2.0917	-2.35	-2.3104	-2.1	-2.2438	-2.2458	-2.3167	-2.4354	139.009	309.522	150.825	436.437	157.486	421.041	411.398	276.140	417.758	148.333	316.091	389.900	229.106	237.401	232.244	379.867	0.00037497	0.00048881	6.9817e-05	198.76	2.786e-06	3.2497e-06	549.39	94.314	2.6302e-06	2.5928e-06	266.02	85.424	29.42	11.45	1.7721e-06	42.039	0.00014618	7.8888e-05	2.2577e-05	186.2	8.4041e-07	9.3747e-07	508.7	87.76	9.4793e-07	8.7952e-07	246.74	79.55	27.342	10.795	9.4558e-07	39.447	238.954	163.171	163.894	101.165	269.651	191.709	101.069	105.897	258.958	215.282	104.095	108.359	108.906	114.985	247.081	112.076	-8191	255	
1644.868	1	1	0	0	0.11576	0.13493	0.17149	0.14127	0.2657	0.12328	0.27495	0.15752	0.019172	0.24057	0.12681	0.14487	0.11542	0.16737	0.29035	0.14526	-1.4729	-2.2188	-2.3354	-2.0167	-2.3917	-2.2354	-2.1208	-2.3583	-2.0729	-2.1792	-2.2604	-2.0104	-2.2604	-2.3042	-2.2042	-2.2896	325.490	256.044	108.195	141.987	397.407	186.818	318.788	280.795	155.317	236.425	376.470	132.054	363.944	426.554	439.445	358.607	0.00039033	0.00031659	5.0711e-05	199.71	3.5768e-06	2.0339e-06	548.89	92.781	2.4233e-06	2.5235e-06	260.35	83.638	28.545	11.108	2.3523e-06	40.941	0.0001464	7.5704e-05	2.0777e-05	185.99	8.2783e-07	9.1853e-07	504.65	86.228	9.1621e-07	8.6006e-07	242.67	77.941	26.707	10.53	8.7079e-07	38.557	234.069	153.540	176.723	101.642	251.057	186.866	101.287	106.241	253.641	245.378	104.242	108.665	108.521	115.047	292.734	112.388	-8191	255	
1644.964	1	1	0	0	0.1361	0.068686	0.18445	0.062592	0.15893	0.10343	0.17562	0.20349	0.21524	0.23499	0.23242	0.17084	0.054923	0.086013	0.16444	0.11192	-1.5917	-2.1417	-2.6042	-2.0604	-2.2438	-2.1333	-2.0292	-2.5646	-2.2229	-2.2646	-2.4854	-2.1979	-2.3854	-2.3312	-2.175	-2.375	116.880	425.568	158.502	420.956	209.605	206.331	239.937	397.351	310.751	283.851	286.783	145.955	222.019	134.293	256.147	303.473	0.00033269	0.00029954	8.188e-05	199.21	1.1279e-06	1.8047e-06	534.99	92.056	2.7804e-06	2.2167e-06	259.59	83.414	28.774	11.038	1.824e-06	40.972	0.00014087	7.6549e-05	2.0155e-05	184.73	8.172e-07	8.2912e-07	500.15	85.758	8.5082e-07	7.7529e-07	242.38	77.679	26.752	10.461	8.2209e-07	38.462	233.423	152.763	170.247	101.707	276.023	251.874	101.237	105.843	251.414	233.888	104.595	108.674	109.275	114.094	241.742	112.056	-8191	255	
1645.061	1	1	0	0	0.18999	0.24972	0.07862	0.21049	0.28404	0.17465	0.30123	0.28548	0.24461	0.25219	0.18942	0.13666	0.06963	0.17661	0.16883	0.21843	-1.6208	-2.0354	-2.5521	-2.0333	-2.3271	-2.425	-2.0875	-2.4375	-2.1417	-2.0146	-2.6042	-2.1417	-2.3125	-2.2354	-1.9979	-2.3896	295.174	352.509	312.059	158.601	101.486	402.480	404.344	406.568	417.515	87.764	286.299	402.837	393.301	324.309	367.678	249.915	0.00035854	0.0004325	7.3501e-05	199.47	2.8395e-06	4.2396e-06	543.74	92.79	2.7912e-06	2.6398e-06	258.64	82.38	29.076	11.026	1.7055e-06	40.81	0.00013898	7.6873e-05	1.9519e-05	185.02	8.431e-07	8.4324e-07	502.77	86.183	8.4049e-07	9.1735e-07	241.7	77.043	26.931	10.456	8.6265e-07	38.409	237.990	187.282	209.641	101.283	247.937	259.564	101.436	105.431	260.525	243.106	104.728	108.713	108.599	114.312	205.326	112.130	-8191	255	
1645.179	1	1	0	0	0.27235	0.12293	0.14031	0.27949	0.061943	0.1606	0.038157	0.13121	0.19677	0.16426	0.36262	0.091708	0.16928	0.25019	0.33513	0.23632	-1.85	-2.0479	-2.3646	-2.0417	-2.0896	-2.2792	-1.9562	-2.4188	-2.3333	-2.0333	-2.4458	-2.0917	-2.1542	-2.2771	-2.1437	-2.2479	276.665	258.143	228.523	378.216	292.729	403.338	94.890	373.683	395.141	161.045	425.019	411.042	136.379	227.679	358.628	353.481	0.0003639	0.0003615	6.1263e-05	196.31	3.9537e-06	2.4684e-06	545.24	92.362	2.5376e-06	1.8688e-06	262.29	82.519	28.982	11.039	2.9221e-06	40.591	0.00013795	7.7944e-05	2.0034e-05	184.17	8.4715e-07	7.6407e-07	503.81	86.626	8.2747e-07	8.5311e-07	242.37	77.059	26.761	10.459	8.5028e-07	38.233	232.142	193.931	149.436	101.534	234.535	288.887	101.131	106.213	241.412	232.266	104.464	108.512	109.143	114.273	259.370	112.349	-8191	255	
1645.276	1	1	0	0	0.42718	0.23886	0.25037	0.15238	0.3285	0.12748	0.18391	0.18229	0.14485	0.39379	0.09192	0.15501	0.23693	0.1314	0.28111	0.17144	-1.7021	-1.9167	-2.3833	-2.1292	-2.0563	-2.475	-1.9917	-2.1833	-2.4479	-2.0896	-2.5771	-2.0771	-2.2083	-2.5583	-1.9417	-2.3625	124.022	285.050	115.909	267.858	95.372	328.313	399.760	173.171	227.124	304.941	89.771	108.332	109.745	192.442	405.534	282.255	0.00033581	0.00025549	0.00011393	198.64	2.3807e-06	1.587e-06	543.5	92.843	2.3219e-06	3.4531e-06	258.57	82.289	28.839	11.105	2.7259e-06	40.544	0.00014343	7.7169e-05	2.0706e-05	184.34	7.9085e-07	7.7975e-07	502.7	86.364	8.363e-07	8.3165e-07	239.58	76.411	26.686	10.454	8.1832e-07	38.008	231.092	178.598	160.637	101.441	245.778	267.089	100.691	105.567	242.034	254.301	104.186	108.584	109.301	114.785	255.509	112.074	-8191	255	
1645.347	1	1	0	0	0.20662	0.089238	0.081949	0.24079	0.18592	0.12106	0.17286	0.13921	0.040922	0.13094	0.071926	0.13276	0.18497	0.22574	0.26912	0.18123	-1.9229	-1.8896	-2.2562	-2.2458	-2.2021	-2.475	-1.9229	-2.3333	-2.4833	-1.9875	-2.3937	-2.375	-2.0125	-2.2521	-2.1083	-2.3125	439.599	175.935	261.730	286.939	297.802	389.788	439.379	149.300	275.752	263.190	187.493	434.233	162.915	398.176	304.441	439.378	0.00036568	0.0002657	7.2467e-05	199.15	1.3304e-06	2.9646e-06	542.78	93.408	1.9639e-06	1.7469e-06	261.06	82.558	29.221	11.236	2.6972e-06	40.634	0.00014165	7.5267e-05	2.0529e-05	184.77	8.446e-07	8.0537e-07	501.18	86.592	7.9889e-07	8.1142e-07	241.73	76.816	27.022	10.509	8.5752e-07	38.181	235.903	154.374	142.579	101.343	244.728	232.214	101.015	105.977	265.212	231.708	104.280	109.137	109.091	114.432	274.947	112.443	-8191	255	
1645.445	1	1	0	0	0.20128	0.048509	0.15702	0.20536	0.19059	0.14165	0.23293	0.076603	0.088473	0.055601	0.22573	0.096522	0.17596	0.064086	0.22727	0.17896	-1.9312	-1.9438	-2.3271	-2.2042	-1.8708	-2.4021	-2.125	-2.0812	-2.3812	-1.9646	-2.2333	-2.2938	-2.1271	-2.3208	-2.1729	-2.3104	201.803	321.458	320.998	368.715	265.519	208.843	379.504	440.330	211.740	221.968	113.460	343.017	145.588	432.696	234.669	336.055	0.00034535	0.00043387	8.6213e-05	201.28	2.8564e-06	1.4023e-06	537.76	93.651	3.1968e-06	3.1164e-06	260.07	82.908	29.485	11.281	3.3423e-06	41.053	0.00013474	7.5591e-05	1.9892e-05	186.46	8.0777e-07	7.5181e-07	498.15	87.188	8.6877e-07	8.1482e-07	241.75	77.434	27.27	10.587	8.3053e-07	38.572	235.450	218.563	150.977	101.723	241.951	191.872	101.308	106.020	243.694	240.166	104.256	108.409	108.892	114.220	240.890	112.506	-8191	255	
1645.564	1	1	0	0	0.22455	0.071191	0.088274	0.20712	0.20811	0.12763	0.040002	0.061031	0.18417	0.19007	0.12098	0.28689	0.28797	0.26199	0.22303	0.12377	-1.6938	-1.95	-2.1854	-2.4375	-2.0104	-2.4396	-2.2771	-1.9417	-2.4625	-2.1813	-2.4854	-2.4479	-1.9625	-2.3292	-2.2229	-2.2042	350.078	321.182	446.898	334.789	363.493	363.826	297.327	413.651	189.732	393.148	223.212	378.445	441.120	275.242	402.351	376.768	0.00036933	0.00025655	5.3612e-05	200.74	2.7842e-06	1.5416e-06	539.97	93.83	1.1189e-06	2.3646e-06	262.27	82.936	29.052	11.243	2.667e-06	40.89	0.00013821	8.0705e-05	2.2388e-05	186.44	8.3517e-07	8.6777e-07	497.94	87.74	8.7655e-07	8.965e-07	242.8	77.383	27.388	10.644	8.2812e-07	38.376	231.415	188.770	189.737	101.412	282.522	204.131	101.254	106.086	266.658	201.096	104.459	108.635	108.901	113.728	209.558	112.443	-8191	255	
1645.660	1	1	0	0	0.2361	0.10397	0.095744	0.021844	0.074261	0.15974	0.24117	0.20691	0.083958	0.078704	0.22527	0.14934	0.2191	0.14023	0.19656	0.078791	-1.8792	-1.8542	-2.2938	-2.3	-2	-2.4604	-2.2458	-1.9917	-2.5687	-2.0396	-2.2354	-2.4313	-1.8333	-2.3563	-2.1021	-2.0458	349.870	388.204	383.173	212.123	113.131	362.316	96.923	443.726	447.886	374.150	125.492	411.469	362.106	323.348	127.448	262.212	0.00036601	0.00029244	0.00010031	201.09	1.7675e-06	3.4724e-06	536.92	94.833	2.0988e-06	3.6506e-06	259.65	82.738	29.46	11.21	2.5928e-06	40.943	0.00013733	7.9226e-05	2.1877e-05	186.49	8.0358e-07	7.5755e-07	497.08	88.089	8.1984e-07	8.4338e-07	241.86	77.225	27.376	10.62	8.821e-07	38.38	232.802	165.049	167.810	101.389	219.704	249.284	101.189	105.880	249.100	236.533	104.228	108.968	109.371	114.381	228.919	112.177	-8191	255	
1645.756	1	1	0	0	0.047414	0.24931	0.083949	0.17394	0.15205	0.13601	0.11982	0.29441	0.18765	0.083311	0.22336	0.13878	0.13287	0.011621	0.19226	0.18202	-1.8958	-2.025	-2.0396	-2.2292	-2.0229	-2.3854	-2.4458	-1.9396	-2.3292	-2.1646	-2.225	-2.3729	-2.0625	-2.3063	-2.2979	-2.0375	297.886	227.073	364.413	320.674	202.143	224.050	233.018	260.478	388.707	140.955	362.845	436.416	138.513	400.895	292.723	416.465	0.00034142	0.00031481	0.00011584	200.34	3.1957e-06	3.1673e-06	535.88	94.743	1.7735e-06	2.3756e-06	261.9	82.956	29.57	11.28	1.739e-06	41.032	0.00013869	7.4929e-05	2.2664e-05	185.92	9.1078e-07	8.1313e-07	497.51	88.251	8.4199e-07	8.8075e-07	243.64	77.552	27.581	10.684	8.0248e-07	38.635	234.296	178.833	171.744	100.885	242.098	225.024	101.219	106.047	257.890	258.709	104.355	108.370	109.215	114.755	243.546	112.376	-8191	255	
1645.877	1	1	0	0	0.15553	0.068567	0.05895	0.1394	0.043704	0.26404	0.31603	0.18909	0.14087	0.089	0.17805	0.16304	0.16663	0.029687	0.079046	0.16909	-1.7812	-2.0854	-1.9479	-2.4104	-2.0146	-2.2417	-2.5062	-1.8396	-2.475	-2.2479	-2.2687	-2.5667	-1.9146	-2.2292	-2.3458	-2.0479	136.418	87.710	235.961	423.882	336.510	256.452	369.953	152.792	257.527	364.904	345.769	223.245	139.271	268.049	337.868	337.073	0.00037419	0.0003504	6.0049e-05	201.02	1.9306e-06	1.9783e-06	543.19	95.517	2.0263e-06	1.3854e-06	264.52	83.68	29.767	11.391	5.843e-07	41.414	0.00014011	7.5197e-05	2.2593e-05	186.16	8.6631e-07	8.1437e-07	499.37	88.895	8.5201e-07	8.176e-07	245.26	78.026	27.703	10.815	8.3671e-07	38.887	234.751	143.527	179.209	101.529	273.585	247.488	100.875	105.684	279.168	305.223	104.370	108.248	109.142	114.798	270.923	112.343	-8191	255	
1645.949	1	1	0	0	0.016233	0.15052	0.30035	0.08859	0.21394	0.07858	0.19426	0.36274	0.15087	0.3062	0.16526	0.20428	0.22208	0.21387	0.17577	0.15878	-1.9854	-2.2	-1.8563	-2.3187	-2.1688	-2.025	-2.2854	-2.0833	-2.3875	-2.2667	-2.0229	-2.4854	-2.075	-2.2125	-2.4542	-2.075	234.396	213.343	342.473	114.450	443.477	307.194	224.589	348.747	213.356	247.310	275.004	388.097	298.010	134.433	189.484	427.326	0.00037589	0.00032822	3.6558e-05	200.12	3.0246e-06	2.8958e-06	538.72	95.226	3.787e-06	3.2931e-06	261.25	82.823	29.477	11.241	2.766e-06	40.361	0.00014533	7.2182e-05	2.1771e-05	186.33	8.3307e-07	8.3859e-07	498.97	88.195	8.5186e-07	8.3289e-07	243.29	77.341	27.246	10.627	8.4365e-07	38.087	232.388	184.232	129.909	101.121	283.653	202.598	101.212	105.805	262.066	233.217	104.317	108.814	110.082	114.548	241.905	112.372	-8191	255	
1646.045	1	1	0	0	0.12489	0.23903	0.22667	0.22224	0.13058	0.16543	0.22865	0.28775	0.1854	0.14123	0.27688	0.058248	0.081659	0.21267	0.14084	0.22297	-1.9167	-2.3646	-1.8062	-2.2917	-2.2042	-2.1042	-2.4896	-1.925	-2.1833	-2.3688	-1.9604	-2.2521	-2.2125	-2.0917	-2.4208	-1.9979	253.649	246.619	103.713	258.976	223.906	328.148	407.028	200.976	250.105	248.686	125.216	196.861	314.724	93.611	334.400	250.497	0.00036485	0.00017028	3.8661e-05	200.35	3.3849e-06	2.744e-06	537.17	94.085	2.8144e-06	2.6504e-06	261.39	82.826	29.606	11.438	1.9295e-06	41.264	0.00013734	7.4281e-05	2.1716e-05	186.21	8.5763e-07	8.9556e-07	496.99	87.529	8.6743e-07	7.7529e-07	242.58	77.618	27.489	10.744	8.0836e-07	38.706	237.000	155.450	207.437	101.081	237.272	276.058	101.347	105.966	248.792	191.711	104.265	108.447	108.487	114.547	234.422	112.088	-8191	255	
1646.165	1	1	0	0	0.41574	0.15262	0.17426	0.080584	0.042745	0.094949	0.092949	0.13546	0.31224	0.13727	0.15638	0.11938	0.083485	0.048059	0.12535	0.32734	-1.7875	-2.2646	-1.9854	-2.3937	-2.0896	-2.0604	-2.5812	-2.1979	-2.1396	-2.3167	-2.0125	-2.2417	-2.225	-1.9292	-2.15	-2.2021	211.076	258.163	201.947	269.378	372.379	207.129	397.710	305.517	187.962	368.171	205.912	409.657	297.551	104.747	195.544	423.802	0.00034589	0.00031688	7.1446e-05	202.37	2.5918e-06	7.928e-07	537.44	94.397	1.9958e-06	1.9277e-06	261.87	84.425	29.959	11.533	2.1467e-06	41.526	0.00013809	7.7296e-05	2.2294e-05	187.41	7.8636e-07	8.3672e-07	497.4	88.021	8.6488e-07	8.3597e-07	243.08	78.513	27.827	10.821	8.3551e-07	38.94	237.337	187.960	193.348	101.157	260.361	241.229	101.572	105.679	264.578	203.818	104.360	108.418	109.318	114.397	248.405	111.778	-8191	255	
1646.260	1	1	0	0	0.10568	0.10993	0.2463	0.098041	0.14132	0.31721	0.23856	0.3026	0.16098	0.14733	0.14276	0.11941	0.035447	0.16694	0.12607	0.03633	-1.7042	-2.2562	-2.0604	-2.2354	-2.175	-2.1625	-2.3792	-2.1917	-2.0271	-2.2333	-2.25	-2.4458	-2.2979	-2.0583	-2.325	-2.2917	321.727	156.080	307.551	114.351	179.835	161.751	286.960	354.255	363.405	348.890	431.010	195.930	193.811	372.206	223.019	414.620	0.00037056	0.00032839	6.6343e-05	203.48	2.0378e-06	2.3063e-06	539.44	94.526	2.0705e-06	1.8762e-06	262.65	85.058	30.233	11.43	2.6976e-06	41.592	0.00014165	7.8226e-05	2.2471e-05	189.65	8.3741e-07	8.9758e-07	499.31	87.906	9.1755e-07	8.1127e-07	242.93	78.901	28.109	10.848	8.83e-07	39.021	234.425	119.072	181.279	101.152	247.066	238.181	101.010	105.378	278.452	245.674	104.379	108.871	108.906	113.585	216.284	112.128	-8191	255	
1646.356	1	1	0	0	0.16012	0.15761	0.22162	0.21054	0.19335	0.12129	0.17838	0.12704	0.17581	0.096535	0.053914	0.18902	0.21528	0.12942	0.25095	0.14832	-1.5229	-2.3479	-2.1104	-2.3417	-2.4625	-1.8937	-2.5792	-2.1958	-1.9937	-2.4688	-2.1604	-2.1875	-2.2313	-1.9146	-2.3104	-2.3042	185.559	374.260	147.963	366.579	122.105	422.793	327.570	217.946	214.699	358.833	335.900	404.883	122.877	445.325	338.113	140.468	0.00038808	0.0004914	2.6063e-05	206.51	2.2766e-06	1.3836e-06	535.78	93.917	1.9102e-06	2.7955e-06	259.05	83.757	29.734	11.324	2.2868e-06	41.257	0.00014693	7.6704e-05	2.2471e-05	190.55	8.9685e-07	8.1328e-07	494.46	87.462	8.7177e-07	8.4941e-07	240.29	77.913	27.564	10.738	8.2435e-07	38.555	232.935	148.851	163.670	101.247	250.572	225.751	101.156	105.653	236.497	257.324	103.910	108.709	108.974	114.009	227.545	112.210	-8191	255	
1646.477	1	1	0	0	0.16757	0.13998	0.10128	0.15454	0.10047	0.16578	0.038892	0.28556	0.16274	0.077238	0.32384	0.1287	0.12211	0.28746	0.17295	0.16629	-1.3875	-2.2542	-2.1542	-2.1958	-2.3604	-2.0417	-2.3937	-2.1188	-1.9937	-2.3667	-2.2354	-2.1312	-2.4521	-2.1292	-2.4521	-2.3583	138.772	424.111	331.413	106.526	421.515	247.545	421.286	427.232	354.913	183.711	441.081	445.478	204.822	211.419	156.666	166.284	0.0003757	0.00034375	0.00010724	206.95	2.6171e-06	1.465e-06	535.11	93.432	3.1621e-06	3.2825e-06	258.39	84.03	29.456	11.356	2.8152e-06	41.031	0.00013879	7.4521e-05	2.2027e-05	191.49	8.5029e-07	8.8252e-07	493.79	87.075	8.9646e-07	7.9197e-07	239.97	78.004	27.596	10.786	9.0562e-07	38.525	233.566	161.561	175.595	101.115	286.523	219.837	100.986	105.730	259.315	248.516	104.278	108.601	109.087	114.117	250.946	112.072	-8191	255	
1646.573	1	1	0	0	0.13993	0.068155	0.19867	0.31095	0.19327	0.048634	0.29509	0.16485	0.25489	0.26077	0.061101	0.17198	0.16418	0.14478	0.12486	0.14591	-1.4333	-2.1083	-2.1875	-2.1625	-2.4333	-2.1833	-2.3521	-2.2896	-1.95	-2.4313	-2.1729	-2.0563	-2.4333	-2.0229	-2.2146	-2.4062	290.984	118.807	419.511	336.114	216.193	157.637	392.690	309.522	330.407	95.219	188.782	437.211	303.618	152.355	345.633	134.898	0.00037201	0.00031068	0.00011922	204.08	2.1449e-06	1.5602e-06	531.12	94.92	2.1311e-06	1.679e-06	258.81	84.299	30.173	11.493	3.2549e-06	41.559	0.00014324	7.4352e-05	2.1229e-05	190.45	8.1031e-07	8.524e-07	493.36	88.036	8.8314e-07	8.423e-07	240.96	78.535	28.068	10.87	9.3729e-07	38.972	237.090	165.858	170.952	101.228	256.218	238.278	101.034	105.512	218.918	300.209	104.284	108.569	108.995	114.781	258.334	111.763	-8191	255	
1646.644	1	1	0	0	0.10961	0.093561	0.21236	0.12982	0.069984	0.11442	0.13521	0.15647	0.06644	0.054863	0.32136	0.29475	0.022253	0.16405	0.31934	0.026363	-1.3917	-2.2583	-2.0521	-1.8813	-2.3937	-1.8604	-2.3646	-2.6063	-1.9	-2.4313	-2.1792	-2.0542	-2.5938	-2.1854	-2.1604	-2.3063	352.917	346.673	216.269	178.689	97.818	265.595	179.142	141.198	155.961	422.402	144.227	379.948	209.766	226.577	196.761	92.951	0.00038784	0.00028961	6.6126e-05	208.24	2.2548e-06	2.433e-06	537.64	94.516	2.494e-06	1.8727e-06	259.84	85.169	30.308	11.86	2.7111e-06	41.291	0.00014446	7.8169e-05	2.115e-05	192.28	8.6796e-07	8.6249e-07	497.01	88.294	9.4284e-07	7.7807e-07	241.95	79.223	28.273	11.089	8.8029e-07	39.036	234.297	167.019	177.510	101.053	268.030	210.293	100.756	106.084	295.186	243.430	104.406	108.955	109.033	114.353	238.483	111.871	-8191	255	
1646.765	1	1	0	0	0.15622	0.050371	0.21108	0.23104	0.11672	0.11743	0.19107	0.22225	0.1717	0.21125	0.013053	0.25224	0.14554	0.11903	0.1188	0.022117	-1.5604	-2.4	-2.0729	-2.2125	-2.5208	-2.0438	-2.2938	-2.3354	-1.925	-2.3063	-2.2	-2.075	-2.4292	-2.3521	-2.2875	-2.5479	288.545	241.334	249.583	241.141	325.042	161.622	281.328	338.478	360.972	111.728	198.380	278.221	333.043	350.947	379.768	332.149	0.00035419	0.0001842	8.5802e-05	207.32	2.5748e-06	3.3277e-06	532.61	94.5	1.3265e-06	1.5133e-06	261.67	83.753	30.311	11.766	1.8553e-06	41.431	0.00014132	7.7704e-05	2.2129e-05	193.55	8.2738e-07	8.7057e-07	493.79	88.326	8.7805e-07	8.1683e-07	241.15	78.687	28.195	11.02	8.6597e-07	38.827	234.740	207.046	210.180	101.390	269.749	193.875	101.106	105.695	260.651	207.958	104.514	108.336	109.065	113.848	296.998	111.762	-8191	255	
1646.861	1	1	0	0	0.17274	0.24271	0.047074	0.062178	0.19222	0.21043	0.11865	0.17432	0.16546	0.35746	0.12096	0.13508	0.28815	0.27158	0.1923	0.11731	-1.5083	-2.2167	-2.3021	-2.0708	-2.5771	-2.1042	-2.1292	-2.4646	-1.9271	-2.1521	-2.3708	-2.2375	-2.225	-2.2417	-2.15	-2.4062	335.585	246.647	209.761	448.197	345.752	323.757	291.017	387.776	177.700	283.941	391.455	390.099	240.634	443.615	207.691	206.390	0.00037505	0.00024776	3.0671e-05	209.47	1.1503e-06	2.7025e-06	529.87	95.427	2.0575e-06	3.1022e-06	262.66	83.723	31.13	11.602	2.6396e-06	41.328	0.0001475	7.8409e-05	2.3143e-05	194.26	8.3936e-07	9.3142e-07	491.92	88.993	9.2085e-07	8.5852e-07	241.94	78.603	28.599	11.058	8.9673e-07	39.015	234.001	172.135	163.993	101.343	299.516	239.184	100.998	106.230	251.822	257.555	104.060	108.321	109.091	114.533	230.543	111.793	-8191	255	
1646.957	1	1	0	0	0.14235	0.13168	0.27049	0.32707	0.178	0.13763	0.60802	0.039158	0.13204	0.18156	0.13789	0.037322	0.069859	0.074954	0.15692	0.20005	-1.6167	-2.0438	-2.2542	-1.9125	-2.3125	-2.3104	-1.9021	-2.3458	-2.2292	-2.1833	-2.6708	-1.9479	-2.3042	-2.0833	-1.9625	-2.4729	257.285	307.802	441.731	114.412	119.228	269.540	365.574	399.608	196.315	277.386	100.064	383.784	326.399	271.169	134.300	434.808	0.00039247	0.00036505	7.2831e-05	206.72	2.5431e-06	1.4633e-06	530.33	96.595	2.314e-06	1.9819e-06	262.23	85.1	30.315	11.714	2.3927e-06	41.246	0.00015119	8.2438e-05	2.1634e-05	193.33	8.5059e-07	8.5877e-07	492.2	89.724	9.1516e-07	8.5095e-07	243.44	79.463	28.606	11.131	8.7501e-07	39.062	235.215	193.972	179.296	100.724	267.969	270.066	101.036	105.537	253.760	265.423	104.144	108.747	108.911	114.023	256.282	112.079	-8191	255	
1647.054	1	1	0	0	0.15894	0.02666	0.12343	0.16023	0.074597	0.15326	0.00185	0.17293	0.18335	0.25353	0.37034	0.15061	0.16719	0.087283	0.30339	0.2466	-1.6354	-2.0396	-2.2625	-1.8896	-2.3167	-2.2875	-2.0563	-2.5604	-2.1021	-2.0375	-2.5042	-2.0146	-2.2	-2.3875	-1.7333	-2.5917	131.186	337.086	442.715	330.123	411.611	313.951	180.000	360.998	256.107	148.140	357.058	247.472	354.772	180.324	335.779	354.635	0.00036417	0.0001739	9.0553e-05	208.61	1.865e-06	3.8782e-06	533.68	96.887	2.221e-06	2.2604e-06	261.78	84.708	30.352	11.768	1.9552e-06	41.072	0.00015001	8.3438e-05	2.1476e-05	194.03	8.4146e-07	9.0177e-07	493.66	90.043	9.1501e-07	8.6238e-07	243.21	78.88	28.475	11.095	8.735e-07	38.672	232.153	155.815	186.310	100.717	269.119	264.273	100.914	105.869	273.888	245.210	104.306	108.531	109.110	114.164	298.487	111.989	-8191	255	
1647.148	1	1	0	0	0.30598	0.2442	0.27758	0.094157	0.089156	0.04603	0.19569	0.18517	0.1601	0.22423	0.090367	0.10236	0.20355	0.074056	0.32772	0.2574	-1.6729	-1.9083	-2.3021	-2.0208	-2.2354	-2.4729	-2.1042	-2.2729	-2.1104	-1.9917	-2.4104	-2.0083	-2.3021	-2.4208	-1.8292	-2.325	234.262	276.394	380.187	321.670	432.432	329.540	329.298	412.686	223.504	325.658	196.338	212.696	390.739	253.343	400.726	375.945	0.00037008	0.00041009	7.2033e-05	204.88	3.2644e-06	3.6297e-06	531.11	95.678	2.154e-06	2.5662e-06	261.07	83.871	30.393	11.575	2.6613e-06	41.115	0.00014124	8.872e-05	2.117e-05	192.19	8.5373e-07	8.5815e-07	490.87	89.163	8.4408e-07	8.9511e-07	242.1	78.001	28.203	11.045	8.8315e-07	38.527	237.229	184.276	185.836	101.573	225.096	239.792	101.303	105.744	271.502	219.291	104.200	108.384	109.077	114.304	234.078	111.705	-8191	255	
1647.244	1	1	0	0	0.0571	0.28379	0.25107	0.1694	0.45243	0.044938	0.30235	0.35768	0.038842	0.26558	0.24223	0.03516	0.096501	0.08418	0.059157	0.12921	-1.7271	-2.2083	-2.4396	-2.075	-2.3167	-2.3333	-2.0958	-2.3667	-2.0896	-2.0729	-2.4083	-2.0687	-2.2396	-2.4708	-2.1688	-2.4062	202.479	233.172	107.428	128.781	184.078	400.029	361.369	400.840	262.422	400.344	415.478	266.986	363.824	229.996	101.669	241.376	0.0003752	0.00018139	4.856e-05	206.52	1.2573e-06	1.6411e-06	531.9	95.474	2.2532e-06	4.72e-07	261.31	83.287	29.944	11.567	3.2327e-06	40.936	0.00014289	8.3874e-05	1.9896e-05	193.16	8.8323e-07	8.1064e-07	491.77	89.098	9.0528e-07	8.4725e-07	241.6	77.779	28.012	10.896	9.1603e-07	38.35	235.096	170.474	130.295	100.995	280.192	213.378	101.413	105.697	287.438	97.277	104.281	108.467	109.150	114.843	249.869	112.056	-8191	255	
1647.340	1	1	0	0	0.12911	0.1092	0.13189	0.22676	0.15503	0.10398	0.30299	0.14496	0.49822	0.13401	0.10823	0.061592	0.16577	0.20819	0.10617	0.14735	-1.9583	-1.7958	-2.5146	-2.1104	-2.1229	-2.4188	-2.1875	-2.3083	-2.3729	-1.8875	-2.4958	-2.1896	-2.1437	-2.3646	-2.0104	-2.2854	203.367	209.524	183.052	309.447	169.046	325.623	324.922	422.799	401.407	160.100	423.442	436.834	136.308	213.540	311.580	166.058	0.0003629	0.00035505	9.0026e-05	207.94	1.1003e-06	2.5419e-06	533.02	95.129	3.0402e-06	3.5308e-06	259.99	83.309	30.158	11.628	2.3342e-06	41.057	0.00014044	8.1015e-05	2.1618e-05	193.1	8.4415e-07	8.2601e-07	492.08	88.56	8.9436e-07	8.6794e-07	240.67	77.933	28.116	10.95	8.9085e-07	38.47	231.830	153.234	185.832	101.278	289.947	257.822	101.012	106.120	273.746	240.836	104.574	108.657	109.516	113.941	296.855	112.129	-8191	255	
1647.436	1	1	0	0	0.29694	0.090908	0.081046	0.10281	0.33012	0.14095	0.15914	0.11612	0.087788	0.18983	0.056865	0.21503	0.18924	0.061376	0.082553	0.21543	-1.9083	-1.8771	-2.4625	-2.2604	-2.0167	-2.3438	-2.0479	-2.1833	-2.5646	-1.975	-2.2646	-2.1917	-1.9875	-2.5958	-2.0979	-2.0646	435.625	254.429	370.913	248.946	446.470	98.313	429.005	423.467	246.991	261.205	320.016	441.643	373.207	124.574	234.021	116.232	0.00038521	0.00029284	6.4981e-05	208.33	2.329e-06	2.3152e-06	528.34	95.43	2.3376e-06	2.3346e-06	259.78	82.899	30.049	11.516	1.5951e-06	41.099	0.00014412	8.4649e-05	2.0678e-05	194.06	8.8847e-07	7.7106e-07	492.75	89.048	9.3327e-07	8.6423e-07	240.47	77.543	28.001	10.939	8.5435e-07	38.329	233.983	143.383	193.879	101.383	256.604	210.630	101.193	106.134	265.680	197.287	104.542	108.379	109.387	114.033	317.170	111.732	-8191	255	
1647.557	1	1	0	0	0.14553	0.21415	0.086384	0.032497	0.14681	0.23603	0.11678	0.10617	0.14714	0.11137	0.050492	0.15658	0.096492	0.19441	0.13139	0.24793	-1.8875	-1.9333	-2.3542	-2.2146	-2.0375	-2.4062	-2.2167	-2.2083	-2.6792	-1.8292	-2.3479	-2.3146	-2.1146	-2.2812	-2	-2.1458	342.282	372.812	195.092	425.522	420.242	190.687	119.041	280.119	316.561	263.655	187.472	382.548	167.549	262.734	377.519	433.005	0.00036347	0.0003325	3.6214e-05	207.95	2.1402e-06	1.7026e-06	532.08	94.057	1.6861e-06	2.9956e-06	255.76	82.486	30.159	11.41	3.221e-06	40.423	0.00014283	8.2649e-05	2.0851e-05	193.41	8.7215e-07	7.8534e-07	492.41	87.89	8.0802e-07	7.9536e-07	238.16	77.164	27.914	10.844	8.7803e-07	38.016	235.327	192.826	149.320	100.797	253.913	260.117	100.907	105.887	257.885	220.228	103.854	108.544	109.352	114.845	229.916	111.930	-8191	255	
1647.653	1	1	0	0	0.21725	0.28324	0.23877	0.20251	0.33601	0.16715	0.29034	0.20667	0.20002	0.11205	0.081577	0.079043	0.33718	0.11	0.23204	0.12577	-1.8125	-1.8958	-2.3521	-2.2375	-1.9312	-2.3604	-2.5146	-2.1	-2.4104	-2.1083	-2.1667	-2.4458	-2.0396	-2.3458	-2.1333	-2.0812	238.656	298.482	302.076	180.592	414.136	331.009	366.268	361.091	255.950	123.728	301.350	173.190	259.023	362.669	277.998	346.250	0.00034665	0.00037172	8.4122e-05	203.83	2.6174e-06	3.6848e-06	532.62	95.254	2.5629e-06	2.366e-06	255.65	82.997	30.204	11.506	1.292e-06	40.931	0.00014124	7.8183e-05	2.0867e-05	190.14	8.4939e-07	8.8236e-07	492.95	88.614	8.3959e-07	9.297e-07	238.47	77.585	28.111	10.915	8.1802e-07	38.429	232.275	173.386	168.271	101.249	277.121	259.142	101.265	105.962	260.806	235.917	104.114	108.631	109.370	114.805	258.493	112.476	-8191	255	
1647.749	1	1	0	0	0.090506	0.16467	0.17841	0.11126	0.14409	0.12434	0.047817	0.084899	0.11523	0.070296	0.14526	0.12358	0.1907	0.1901	0.043138	0.37501	-2.0958	-2.2396	-2.1437	-2.3312	-1.9667	-2.4604	-2.3438	-2.0271	-2.4625	-2.0292	-2.225	-2.3854	-2.0958	-2.3542	-2.1375	-2.0833	220.882	157.879	330.685	222.143	427.691	262.223	339.449	406.711	260.090	412.175	367.223	120.108	421.282	316.659	373.326	355.954	0.00038124	0.00045522	5.7349e-05	207.51	2.0315e-06	2.6701e-06	535.6	94.612	1.6903e-06	2.2899e-06	257.42	83.898	30.224	11.63	1.9016e-06	40.796	0.00014487	8.248e-05	2.2094e-05	192.17	9.1153e-07	8.7864e-07	496.45	88.544	8.3795e-07	8.5898e-07	240.16	78.038	28.098	10.977	8.9281e-07	38.58	237.359	177.823	182.979	101.228	251.779	243.083	101.606	106.320	253.916	252.339	104.092	108.418	109.214	114.425	256.864	112.210	-8191	255	
1647.845	1	1	0	0	0.20752	0.10842	0.072159	0.0753	0.14764	0.15168	0.18174	0.16874	0.14423	0.49856	0.2853	0.16451	0.1031	0.15753	0.049876	0.18133	-2.0583	-1.9062	-2.1854	-2.3417	-1.9	-2.4313	-2.2833	-1.9333	-2.3688	-2.2542	-2.1833	-2.3917	-1.9042	-2.2396	-2.2854	-2.0938	288.524	438.204	193.137	368.219	416.972	396.997	154.314	402.812	338.708	184.213	266.191	400.112	433.522	396.750	349.014	248.078	0.00036687	0.00017392	2.6395e-05	206.51	2.8618e-06	2.2365e-06	534.89	95.68	1.8786e-06	2.6499e-06	258.27	82.367	29.945	11.654	1.3986e-06	40.192	0.0001434	8.0381e-05	2.2082e-05	192.12	8.7245e-07	8.9168e-07	496.51	88.83	8.2777e-07	8.2764e-07	238.29	76.921	27.827	10.905	8.3626e-07	37.897	235.661	188.878	196.623	101.177	288.775	247.495	101.225	105.694	295.140	195.510	104.149	108.775	108.945	114.276	237.953	111.595	-8191	255	
1647.942	1	1	0	0	0.10324	0.099735	0.15167	0.091771	0.1027	0.097975	0.16948	0.15847	0.09974	0.25003	0.56234	0.10569	0.10833	0.16108	0.11022	0.22733	-1.7875	-2.1104	-2.0646	-2.3604	-1.9562	-2.1458	-2.3688	-1.9521	-2.4688	-2.2854	-2.2062	-2.5521	-2.05	-2.3021	-2.6312	-2.0479	279.669	317.644	413.772	354.574	113.274	109.497	446.007	105.160	186.879	142.169	397.022	426.347	124.924	342.897	296.200	406.775	0.00035358	0.00035738	5.8727e-05	203.93	2.723e-06	2.5457e-06	536.82	94.155	2.4732e-06	2.1733e-06	256.52	81.023	29.638	11.406	3.5746e-06	40.096	0.0001426	7.8789e-05	2.0525e-05	189.72	8.6766e-07	8.1158e-07	495.71	88.223	8.4603e-07	8.5033e-07	238.01	76.04	27.737	10.824	8.4244e-07	37.681	236.645	155.444	153.616	100.952	263.295	242.786	101.240	105.899	251.713	262.246	104.065	108.506	109.112	114.420	240.293	112.088	-8191	255	
1648.038	1	1	0	0	0.11381	0.26098	0.12016	0.078976	0.27415	0.097291	0.35845	0.11118	0.033248	0.14375	0.299	0.12478	0.17598	0.093159	0.049776	0.15057	-1.9521	-2.1458	-1.9979	-2.5438	-1.8937	-2.0229	-2.4792	-1.8542	-2.5021	-2.1375	-2.025	-2.3542	-2.0187	-2.2354	-2.4542	-1.9896	380.719	201.486	284.802	315.914	172.798	292.952	413.115	412.542	284.827	157.610	380.799	404.875	224.412	437.837	139.773	153.787	0.00035047	0.00040341	8.9349e-05	204.87	1.0009e-06	4.0672e-06	534.56	95.106	1.8288e-06	3.1763e-06	256.98	82.193	29.954	11.409	1.8191e-06	40.882	0.00013907	8.3959e-05	2.1028e-05	191.47	8.6961e-07	8.389e-07	493.35	88.932	8.5276e-07	8.2702e-07	239.88	76.731	27.948	10.862	8.6129e-07	38.145	235.579	171.197	182.496	100.801	299.939	230.994	101.464	106.314	270.161	246.912	104.273	108.775	108.848	114.831	237.415	111.803	-8191	255	
1648.157	1	1	0	0	0.33022	0.20121	0.17167	0.24011	0.19241	0.32022	0.12431	0.15435	0.30749	0.20213	0.11968	0.20119	0.17183	0.16062	0.14142	0.32207	-1.8083	-2.2562	-1.9979	-2.3875	-2.1917	-2.1479	-2.4479	-2.0812	-2.3521	-2.2979	-1.8062	-2.3708	-1.9021	-2.075	-2.4625	-2.1042	239.936	201.336	168.578	196.092	106.674	227.421	395.088	203.099	201.658	160.101	110.414	269.071	426.819	129.904	370.850	435.736	0.00037499	0.00032078	8.6971e-05	205.45	2.5592e-06	2.5667e-06	534.6	96.167	2.3362e-06	2.3438e-06	259.08	81.49	30.063	11.53	2.6131e-06	40.607	0.0001487	8.5847e-05	2.3002e-05	192.87	8.5748e-07	8.9618e-07	496.14	89.785	8.9167e-07	8.4678e-07	241.14	76.632	27.983	10.901	8.1379e-07	38.141	235.296	173.931	175.523	101.428	243.179	237.774	101.360	105.508	266.268	226.392	104.107	108.735	108.988	114.965	257.163	111.990	-8191	255	
1648.253	1	1	0	0	0.20121	0.16993	0.28557	0.12825	0.11432	0.2957	0.21765	0.33819	0.25708	0.063794	0.14763	0.20618	0.089794	0.35695	0.095562	0.04349	-1.85	-2.3542	-1.9229	-2.2812	-2.2521	-2.0854	-2.5125	-2.0854	-2.325	-2.5875	-2.1208	-2.2667	-2.2812	-2.0396	-2.3	-1.9521	106.849	153.023	192.124	105.392	202.745	311.899	380.788	159.033	137.030	325.292	130.019	409.862	113.354	409.589	393.398	122.563	0.00037571	0.00026704	8.9013e-05	204.67	1.0172e-06	5.0323e-06	531.08	95.558	1.7847e-06	2.6198e-06	256.13	81.24	29.475	11.503	3.3897e-06	39.994	0.0001444	7.2661e-05	2.2872e-05	189.99	8.2559e-07	8.7243e-07	494.63	89.329	8.797e-07	7.8471e-07	238.03	75.687	27.548	10.804	8.7939e-07	37.515	231.760	187.976	154.054	100.795	293.314	229.778	100.970	105.652	286.362	229.623	104.328	108.645	109.297	114.224	237.997	112.091	-8191	255	
1648.349	1	1	0	0	0.14028	0.04288	0.059473	0.23472	0.26263	0.087509	0.19797	0.22757	0.043012	0.071254	0.13489	0.072754	0.13971	0.26058	0.15121	0.26744	-1.4875	-2.3563	-1.9937	-2.2208	-2.1813	-1.9813	-2.3688	-2.1208	-2.1979	-2.3292	-2.1729	-2.2958	-2.1083	-1.9792	-2.125	-2.3521	402.648	442.677	329.338	432.954	381.660	375.982	389.130	440.207	179.817	368.358	331.973	267.593	221.528	394.012	133.647	380.806	0.00036365	0.00035931	7.0971e-05	203.1	1.8001e-06	3.2417e-06	529.04	94.392	2.0392e-06	1.7446e-06	254.98	79.622	29.583	11.285	2.7243e-06	39.677	0.0001455	7.4154e-05	2.1873e-05	188.61	8.8982e-07	8.389e-07	493.04	88.256	8.9391e-07	7.4672e-07	235.79	74.598	27.308	10.699	8.7139e-07	37.295	235.681	188.044	170.410	101.860	238.233	268.357	101.078	105.715	261.220	211.347	104.239	108.852	109.074	114.836	247.541	111.964	-8191	255	
1648.445	1	1	0	0	0.28617	0.11066	0.15559	0.12795	0.053725	0.13842	0.2911	0.24184	0.10143	0.13439	0.18735	0.33626	0.16291	0.23621	0.18174	0.067082	-1.5063	-2.3729	-1.95	-2.1229	-2.2812	-2.0979	-2.1896	-2.1896	-2.1271	-2.4	-1.9271	-2.2562	-2.1917	-2.0396	-2.55	-2.3208	238.572	366.358	331.605	430.389	270.020	187.624	323.912	118.796	138.407	131.435	390.501	381.200	116.198	294.580	445.990	410.731	0.00037018	0.00023772	8.7376e-05	209.03	2.9159e-06	2.2021e-06	528.02	93.278	2.2666e-06	2.2867e-06	251.99	80.176	29.286	11.455	2.418e-06	39.796	0.00014302	7.1168e-05	2.1374e-05	193.96	7.9295e-07	8.5597e-07	489.5	87.368	8.5022e-07	8.2146e-07	235.26	75.076	27.373	10.746	8.628e-07	37.466	234.513	187.446	161.322	101.160	239.729	220.915	101.821	106.082	258.539	217.157	104.243	108.512	109.398	114.993	252.003	112.299	-8191	255	
1648.541	1	1	0	0	0.11324	0.35127	0.26602	0.10877	0.07084	0.10494	0.065151	0.26385	0.15179	0.18908	0.20652	0.23396	0.19513	0.22006	0.15319	0.13435	-1.5562	-2.2417	-2.0229	-2.3479	-2.4208	-2.0458	-2.3375	-2.2292	-1.8542	-2.4646	-2.2396	-2.2667	-2.4167	-1.7771	-2.1146	-2.4125	308.479	206.193	347.076	302.388	152.674	404.031	278.750	337.553	244.904	162.865	324.642	387.654	227.260	244.951	375.613	327.146	0.00035851	0.00037207	4.1897e-05	208.62	2.1638e-06	2.2632e-06	530.46	93.291	2.0925e-06	3.3051e-06	252.71	80.735	29.577	11.452	1.3539e-06	40.277	0.00014119	7.6394e-05	2.0588e-05	193.26	7.883e-07	7.7354e-07	490.83	87.487	8.5157e-07	7.7544e-07	236.13	75.294	27.514	10.796	8.0746e-07	37.811	232.516	186.479	200.019	101.223	259.151	271.185	100.963	106.242	261.628	234.627	104.349	108.314	109.322	115.238	230.712	112.028	-8191	255	
1648.637	1	1	0	0	0.16119	0.23426	0.14757	0.20145	0.26384	0.1051	0.058843	0.33149	0.17544	0.062264	0.14453	0.066532	0.21096	0.2012	0.24958	0.060122	-1.5146	-2.3563	-2.0333	-2.0229	-2.3563	-1.9375	-2.4792	-2.25	-2.0521	-2.3438	-2.0521	-2.2125	-2.1875	-2.1271	-2.0625	-2.4479	111.906	355.668	251.754	130.853	167.502	119.940	119.992	112.329	190.460	220.580	277.123	193.647	123.765	345.411	94.733	294.813	0.0003302	0.00033411	5.4395e-05	209.89	2.4283e-06	1.9833e-06	535.83	95.39	1.8995e-06	2.0813e-06	254.99	80.593	29.911	11.463	1.6383e-06	40.144	0.00014082	6.9576e-05	2.1134e-05	194.47	7.8516e-07	8.1592e-07	495.42	88.755	8.7057e-07	7.7869e-07	236.52	75.376	27.609	10.843	8.0022e-07	37.629	236.261	207.246	144.535	101.017	219.834	260.876	101.225	105.765	268.981	212.368	104.106	108.861	108.923	114.005	264.658	111.963	-8191	255	
1648.734	1	1	0	0	0.11659	0.29346	0.29808	0.060761	0.080307	0.041512	0.19234	0.23418	0.013961	0.029714	0.071622	0.22385	0.029808	0.21799	0.26738	0.20898	-1.4167	-2.3625	-2.0146	-2.0812	-2.425	-2.0396	-2.0979	-2.3812	-1.9917	-2.4542	-2.2521	-2.125	-2.3979	-2.1	-1.9083	-2.4979	319.276	441.615	237.786	168.272	253.091	360.762	391.689	286.512	170.837	350.536	212.072	405.177	368.117	386.968	314.157	327.864	0.00034291	0.00040843	6.6525e-05	204.87	3.5731e-06	2.7508e-06	536.16	95.213	1.8523e-06	2.4113e-06	255.87	80.168	30.157	11.418	2.983e-06	40.281	0.00013998	7.8451e-05	2.1535e-05	191.59	8.2439e-07	8.5411e-07	495.54	89.035	8.5561e-07	7.7745e-07	237.33	75.012	27.766	10.785	9.0442e-07	37.702	234.803	144.792	179.594	102.056	249.490	236.525	101.138	106.192	267.252	257.842	104.387	108.420	109.222	114.319	255.836	111.574	-8191	255	
1648.830	1	1	0	0	0.16261	0.16917	0.12215	0.15126	0.21131	0.019039	0.19281	0.2074	0.065679	0.25149	0.22358	0.14717	0.16328	0.078534	0.023885	0.17739	-1.4271	-2.2646	-2.2646	-2.0812	-2.4396	-2.2042	-2.0875	-2.3896	-1.9937	-2.2521	-2.2687	-2.05	-2.2604	-2.1417	-2.1875	-2.3792	185.503	236.470	251.190	264.831	330.730	287.877	279.411	245.482	391.359	340.305	272.818	285.380	111.671	129.435	222.071	433.762	0.0003514	0.00015091	7.4833e-05	205.49	2.1077e-06	2.2558e-06	536.78	95.458	1.1683e-06	1.6395e-06	254.44	80.678	29.703	11.35	2.8955e-06	40.248	0.00013913	7.3366e-05	2.0144e-05	190.99	8.1091e-07	8.0226e-07	497.21	88.92	8.0772e-07	8.0463e-07	237.95	75.17	27.567	10.751	8.628e-07	37.622	232.925	162.996	169.623	101.556	282.825	270.510	100.783	105.785	246.105	195.912	104.268	108.410	109.438	114.786	235.769	112.121	-8191	255	
1648.950	1	1	0	0	0.060077	0.099073	0.13296	0.13568	0.1322	0.22298	0.17416	0.23958	0.022578	0.19015	0.098581	0.1728	0.14247	0.12399	0.22822	0.21881	-1.5417	-2.2625	-2.2104	-1.8271	-2.3708	-2.1604	-2.0667	-2.3396	-1.9188	-2.1583	-2.4688	-1.9146	-2.3667	-2.0917	-1.8208	-2.5292	360.005	401.649	229.090	345.479	94.433	96.400	352.073	402.836	366.494	340.968	297.282	252.073	379.054	277.752	207.306	380.304	0.00033477	0.00038	3.4963e-05	203.4	2.9943e-06	3.0403e-06	540.27	94.761	2.2514e-06	3.552e-06	257.87	80.31	29.529	11.381	1.4128e-06	39.794	0.00013841	7.6873e-05	2.0863e-05	189.44	7.5656e-07	8.1313e-07	500.93	89.307	8.2299e-07	7.9305e-07	238.86	74.932	27.338	10.691	8.3701e-07	37.461	231.662	157.156	173.711	102.058	265.004	269.247	101.506	105.987	260.392	244.089	104.266	108.458	109.324	115.021	270.176	112.458	-8191	255	
1649.045	1	1	0	0	0.099688	0.22278	0.043656	0.10283	0.17788	0.19336	0.14184	0.17437	0.16603	0.11719	0.022262	0.20674	0.32606	0.15124	0.18579	0.072674	-1.5146	-2.1146	-2.2792	-1.8729	-2.1708	-2.3667	-1.9937	-2.4458	-2.05	-2.2833	-2.2958	-2.0083	-2.3479	-2.4542	-1.9562	-2.6063	352.699	133.687	262.411	309.593	201.461	106.125	351.645	314.792	286.361	197.966	104.096	111.326	322.733	378.989	387.234	109.832	0.00035486	0.00023472	6.3705e-05	202.15	9.4996e-07	2.2819e-06	540.76	95.251	1.9664e-06	2.7988e-06	257	79.211	29.008	10.933	3.1695e-06	39.091	0.00013848	6.8745e-05	1.9774e-05	188.52	7.9609e-07	7.8705e-07	499.08	88.999	8.3151e-07	8.352e-07	237.29	73.768	26.78	10.382	8.4048e-07	36.664	237.334	197.150	227.542	101.792	291.813	237.822	100.927	105.831	244.531	253.901	104.310	108.655	109.362	114.824	258.508	112.046	-8191	255	
1649.118	1	1	0	0	0.25572	0.116	0.1586	0.26902	0.021947	0.1626	0.18753	0.049117	0.25132	0.11404	0.087345	0.2028	0.11157	0.041631	0.22287	0.15043	-1.3479	-2.0854	-2.2833	-2.0479	-2.2167	-2.175	-2.1125	-2.3375	-2.1437	-2.1562	-2.4688	-2.1896	-2.1937	-2.3875	-1.9792	-2.5479	161.874	255.374	171.575	438.782	269.953	421.388	338.776	361.412	148.044	126.484	159.769	105.763	109.586	378.874	198.032	148.300	0.00035102	0.00027835	7.93e-05	198.5	1.349e-06	2.3964e-06	529.4	93.797	1.967e-06	3.7853e-06	255.68	77.671	27.796	10.709	1.5653e-06	38.278	0.00013391	7.1802e-05	2.1009e-05	186.16	7.66e-07	8.5597e-07	491.18	88.264	8.4319e-07	8.6083e-07	237.67	72.628	26.115	10.184	8.9899e-07	36.121	233.526	148.681	183.606	101.531	221.788	242.048	101.421	105.885	260.559	241.314	104.338	108.715	109.314	115.000	231.802	112.557	-8191	255	
1649.239	1	1	0	0	0.16176	0.16051	0.13731	0.21051	0.2361	0.24468	0.017781	0.27272	0.2762	0.08936	0.25967	0.11792	0.36525	0.15173	0.074012	0.097601	-1.6583	-1.9417	-2.2833	-2.1708	-2.2	-2.1958	-1.9917	-2.3875	-2.3083	-2.0917	-2.6042	-2.1521	-2.0438	-2.3667	-1.9292	-2.3854	417.778	423.942	334.887	219.499	294.374	269.878	218.824	447.482	432.774	269.439	395.481	230.436	118.765	319.958	307.185	381.870	0.00034505	0.00050229	2.3244e-05	202.51	1.3127e-06	2.8063e-06	528.84	93.52	2.97e-06	2.1661e-06	255.91	76.325	27.585	10.256	2.3046e-06	36.948	0.0001366	7.8972e-05	2.1303e-05	188.03	8.8652e-07	8.4231e-07	492.79	87.599	9.2474e-07	8.1636e-07	237.03	71.458	25.616	9.6708	9.5463e-07	34.87	233.487	190.207	153.719	101.417	268.568	236.035	101.431	106.233	284.212	213.710	104.547	109.061	109.577	115.218	212.804	112.025	-8191	255	
1649.333	1	1	0	0	0.051383	0.050688	0.084507	0.11625	0.23511	0.24023	0.1356	0.08807	0.33239	0.1397	0.26588	0.085098	0.16054	0.1854	0.17368	0.068627	-1.9188	-1.8708	-2.375	-1.9833	-1.9583	-2.3896	-1.9104	-2.5167	-2.3396	-1.8687	-2.3521	-2.0438	-2.0625	-2.2854	-1.975	-2.0667	143.085	159.020	200.270	169.208	361.948	335.700	139.263	187.380	328.495	414.754	373.250	346.842	439.032	168.054	320.835	200.379	0.0003475	0.00022955	7.83e-05	198.69	2.0625e-06	1.3306e-06	540.92	93.633	1.958e-06	3.3038e-06	251.17	74.777	27.258	9.4214	3.1632e-06	35.08	0.00014224	7.8592e-05	2.1968e-05	184.86	8.7155e-07	8.9618e-07	498.58	87.709	9.2429e-07	8.8847e-07	231.45	70.193	25.262	8.965	8.8074e-07	32.967	238.614	178.198	143.147	101.676	266.871	237.891	101.566	106.201	267.420	263.409	104.759	109.401	110.406	115.731	259.548	113.057	-8191	255	
1649.429	1	1	0	0	0.18367	0.20402	0.10706	0.21797	0.2158	0.23675	0.16426	0.069482	0.28669	0.24338	0.21204	0.25679	0.11427	0.066317	0.22422	0.037623	-1.7563	-1.8396	-2.2917	-2.1583	-2.0333	-2.3917	-2.1	-2.3583	-2.4375	-2.1396	-2.5271	-2.1042	-2.0417	-2.3792	-2.1625	-2.2062	300.744	290.522	238.259	90.276	250.328	348.851	252.265	394.581	234.319	382.666	91.854	401.844	117.458	261.717	194.072	192.794	0.00031668	0.00020026	0.00010562	178.41	2.5741e-06	2.8049e-06	553.06	91.613	2.1984e-06	2.7431e-06	238.2	72.953	26.807	8.5845	1.8478e-06	31.806	0.00013902	8.0451e-05	2.1406e-05	165.98	8.6736e-07	8.3641e-07	512.75	85.717	8.7147e-07	8.823e-07	221.6	68.092	24.95	8.2007	8.4139e-07	30.007	235.354	142.514	169.013	101.976	266.083	230.895	100.723	106.871	249.924	224.557	105.658	109.599	110.563	115.733	288.264	113.665	-8191	255	
1649.525	1	1	0	0	0.099565	0.31095	0.2611	0.15576	0.10369	0.34766	0.25689	0.012422	0.072174	0.13532	0.21269	0.06465	0.22155	0.30564	0.32189	0.037433	-1.6958	-1.8479	-2.4813	-2.1917	-1.9417	-2.4229	-1.9625	-2.1542	-2.2646	-1.9562	-2.3438	-2.3021	-2.0958	-2.4417	-1.9083	-2.2229	149.551	445.184	246.388	303.842	292.495	159.515	441.916	126.173	447.672	90.067	328.912	140.929	406.477	420.996	182.982	230.409	0.00027537	0.0002457	5.1573e-05	166.04	2.1477e-06	2.2198e-06	560.49	83.433	1.1647e-06	1.3485e-06	213.29	67.075	25.332	7.8356	3.3469e-06	29.114	0.0001218	7.8634e-05	2.0521e-05	154.35	8.9925e-07	7.9497e-07	517.63	78.158	8.4019e-07	8.5481e-07	198.09	62.648	23.592	7.4173	8.8135e-07	27.491	237.021	185.498	196.527	102.411	237.460	244.177	101.258	106.586	268.274	212.001	105.400	110.717	111.028	115.971	239.813	113.881	-8191	255	
1649.646	1	1	0	0	0.098459	0.085221	0.14025	0.14167	0.23644	0.31911	0.36455	0.2	0.10433	0.1972	0.2481	0.18349	0.14178	0.23526	0.21077	0.058107	-1.95	-1.9562	-2.4125	-2.0875	-1.8937	-2.4062	-2.0479	-2.0271	-2.2583	-2.0687	-2.4208	-2.3167	-1.9813	-2.4208	-2.1833	-2.0333	296.327	148.034	111.283	192.143	236.690	364.709	406.754	389.796	292.572	341.532	312.165	254.158	392.731	391.526	348.687	392.551	0.00026811	0.00021649	5.1092e-05	159.1	1.6705e-06	2.2078e-06	529.39	74.669	1.3176e-06	2.6599e-06	190.39	64.96	24.359	7.2697	1.176e-06	26.695	0.00012188	8.1592e-05	2.4228e-05	149.54	9.3788e-07	8.153e-07	491.44	69.738	8.6234e-07	8.4385e-07	177.17	60.914	22.726	6.8201	8.7607e-07	25.117	235.367	157.431	120.553	101.743	278.359	205.624	102.199	107.412	285.754	289.372	106.071	111.102	112.441	116.690	211.116	114.564	-8191	255	
1649.742	1	1	0	0	0.093367	0.13658	0.057233	0.17493	0.27727	0.085783	0.13181	0.10656	0.14209	0.16837	0.28436	0.36887	0.07018	0.074983	0.15458	0.14408	-1.9167	-1.8958	-2.1521	-2.3688	-2	-2.3354	-2.2271	-1.8979	-2.4792	-1.9042	-2.175	-2.3021	-1.9625	-2.3979	-2.3083	-2.1813	281.876	383.374	183.729	415.655	380.667	448.672	294.107	151.628	219.742	325.102	228.753	408.468	105.756	383.144	140.335	394.360	0.00026081	0.00034828	7.0167e-05	165.7	2.7048e-06	1.9714e-06	541.47	58.91	4.6265e-07	2.0364e-06	154.1	56.161	19.682	5.9446	2.1491e-06	23.163	0.00012038	8.4184e-05	2.2286e-05	156.02	9.4881e-07	8.9758e-07	502.89	55.912	8.5531e-07	8.7118e-07	143.88	52.476	18.513	5.647	8.8255e-07	21.891	235.873	184.539	178.770	101.750	237.855	232.071	101.556	108.396	322.405	238.817	107.008	112.487	112.647	116.487	271.093	114.354	-8191	255	
1649.838	1	1	0	0	0.045446	0.097445	0.13189	0.29104	0.065955	0.27315	0.09353	0.16439	0.22497	0.17419	0.12578	0.11515	0.42651	0.24252	0.21099	0.36681	-1.9688	-1.9521	-2.1854	-2.1833	-1.8792	-2.5229	-2.3917	-2.1875	-2.5396	-2.2229	-2.2125	-2.1917	-1.9792	-2.1813	-2.2833	-1.9958	445.497	127.686	112.004	256.039	364.686	223.970	301.618	145.936	226.322	278.845	279.160	183.945	98.912	409.748	317.324	313.517	0.0002049	4.2016e-05	5.6701e-05	197.81	1.43e-07	2.0984e-06	498.12	55.217	2.0408e-06	2.9327e-06	141.26	50.725	17.296	5.4376	1.9862e-06	21.153	0.00010853	8.1719e-05	2.2844e-05	184.38	8.973e-07	8.3657e-07	463.3	51.629	8.2747e-07	9.158e-07	131.17	47.501	16.269	5.1578	7.7655e-07	20.098	233.939	310.627	166.257	102.159	199.154	237.709	102.578	108.496	267.755	216.640	106.116	111.928	114.072	116.907	260.726	114.216	-8191	255	
1649.935	1	1	0	0	0.32007	0.20639	0.20994	0.012905	0.13232	0.067406	0.1726	0.11158	0.082537	0.030228	0.15716	0.10283	0.3504	0.048496	0.1156	0.1797	-1.9271	-1.9542	-2.0687	-2.3208	-1.9708	-2.0812	-2.3312	-1.8146	-2.375	-2.3417	-2.1188	-2.475	-1.8542	-2.15	-2.0979	-2.0312	236.908	274.748	353.219	448.907	337.395	436.200	399.258	304.091	91.153	229.974	271.976	117.675	347.846	403.563	214.899	444.603	0.00020013	0.00014218	6.3815e-05	199.96	1.9606e-06	2.5678e-06	484.96	53.451	1.5689e-06	3.3836e-07	137.4	48.392	16.895	5.1345	1.5161e-06	20.715	0.00010578	8.1635e-05	2.0847e-05	187.35	8.97e-07	8.3005e-07	448.93	50.214	8.179e-07	8.1621e-07	127.23	45.788	15.937	4.9322	7.9012e-07	19.685	229.649	219.445	180.035	101.549	281.195	237.873	102.578	108.928	274.537	287.929	106.658	112.904	113.530	116.873	281.359	114.602	-8191	255	
1650.031	1	1	0	0	0.23628	0.039472	0.099316	0.12462	0.042893	0.1888	0.19041	0.20882	0.060951	0.1926	0.14744	0.29042	0.38342	0.14668	0.1082	0.25894	-1.7479	-2.1146	-1.9562	-2.2479	-2.0604	-2.1479	-2.4479	-2.0625	-2.425	-2.2438	-1.8375	-2.4562	-1.9979	-2.0292	-2.3312	-1.7938	263.248	101.793	159.694	329.851	195.451	310.193	106.731	306.515	297.226	312.269	247.869	378.255	374.822	449.572	114.459	170.921	0.00017507	0.00028681	5.2191e-05	202.24	9.7156e-07	8.9492e-07	481.88	53.24	1.227e-06	4.8279e-07	132.33	47.961	16.904	5.1009	9.2245e-07	20.581	9.8853e-05	7.9296e-05	2.0383e-05	189.27	7.8935e-07	7.8301e-07	446.01	49.958	7.7854e-07	7.3453e-07	125.63	45.51	15.961	4.8735	7.6253e-07	19.613	236.629	189.274	196.707	101.697	350.519	236.870	102.925	108.310	255.793	265.206	106.206	113.486	113.815	117.097	286.834	114.400	-8191	255	
1650.127	1	1	0	0	0.10379	0.17141	0.090941	0.2655	0.059406	0.082824	0.11259	0.12902	0.025612	0.14797	0.32732	0.070893	0.30718	0.17915	0.32072	0.35907	-1.8271	-2.1833	-2.0062	-2.375	-2.1979	-2.1917	-2.3146	-2.1063	-2.3271	-2.4333	-2.15	-2.4417	-2.1667	-2.1333	-2.5583	-2.05	284.781	317.596	291.573	98.959	223.348	263.635	164.171	369.807	117.485	228.031	338.801	311.999	120.875	349.048	224.002	447.142	0.00018542	0.00016256	6.566e-05	204.43	1.6994e-06	1.2685e-06	479.36	52.932	1.3234e-06	2.4238e-06	134.27	48.349	17.367	5.079	1.1389e-06	20.614	0.00010475	7.1069e-05	2.15e-05	190.07	7.9774e-07	7.5491e-07	445.28	50.034	7.4622e-07	7.8857e-07	125.44	45.631	16.141	4.9289	6.9528e-07	19.619	232.148	140.189	178.867	101.058	273.352	224.282	102.776	108.472	204.771	248.467	105.995	112.382	113.588	116.757	334.939	113.777	-8191	255	
1650.246	1	1	0	0	0.048252	0.30144	0.21677	0.13923	0.081862	0.10406	0.23716	0.14422	0.069707	0.038757	0.30404	0.0916	0.18107	0.22851	0.029303	0.2449	-1.8604	-2.3875	-1.8646	-2.3333	-2.1125	-2.125	-2.4667	-1.9667	-2.2062	-2.3812	-2.0062	-2.3167	-2.1271	-2.0458	-2.4958	-2.1271	345.510	335.642	291.088	426.722	342.848	290.712	298.188	429.783	355.218	304.458	209.812	370.751	367.963	222.439	351.467	404.368	0.00017311	3.2766e-05	6.6164e-05	203.28	1.7821e-06	1.2589e-06	478.22	53.312	7.1982e-07	1.147e-06	136.3	49.257	17.464	5.2379	1.8336e-06	20.753	9.4467e-05	6.8266e-05	1.8005e-05	190.2	6.7736e-07	7.4762e-07	445.27	50.008	7.166e-07	6.9284e-07	126.45	46.208	16.37	5.0173	6.5984e-07	19.667	233.015	265.608	149.698	100.920	309.978	216.712	102.429	108.643	235.298	243.593	106.234	112.065	114.253	116.909	273.864	113.888	-8191	255	
1650.342	1	1	0	0	0.20076	0.21665	0.19503	0.15758	0.090845	0.19501	0.18323	0.31736	0.052993	0.11365	0.18074	0.17713	0.097907	0.094356	0.23024	0.12296	-1.5604	-2.3271	-1.9271	-2.3521	-2.0938	-1.9479	-2.4417	-1.9646	-2.2313	-2.4146	-1.9792	-2.4146	-2.0833	-1.8854	-2.3458	-2.1375	378.277	247.888	111.388	162.500	384.298	179.002	382.057	401.644	270.998	293.632	316.206	395.564	209.917	370.351	338.650	107.650	0.00018796	0.00038451	3.311e-05	205.36	1.77e-06	1.9093e-06	487.25	53.664	3.3202e-07	2.2784e-06	134.52	50.095	18.106	5.4253	2.3199e-06	21.407	9.5702e-05	6.087e-05	1.7569e-05	191.7	6.7302e-07	7.0788e-07	449.81	50.297	6.5091e-07	6.3292e-07	126.6	46.677	16.738	5.1337	6.2802e-07	20.104	234.232	208.606	202.304	101.297	216.998	214.019	102.255	107.547	251.030	218.735	106.413	112.945	112.804	116.577	257.619	113.950	-8191	255	
1650.414	1	1	0	0	0.25754	0.15372	0.13667	0.1392	0.067073	0.3007	0.24372	0.092289	0.16592	0.25514	0.30961	0.12039	0.2066	0.037128	0.18396	0.22098	-1.6167	-2.2979	-1.9479	-2.2958	-2.4188	-2.1104	-2.3125	-2.0958	-1.9917	-2.4979	-1.8229	-2.1396	-2.3312	-1.9	-2.3667	-2.1354	177.194	224.760	368.260	448.823	148.725	357.029	120.189	392.447	259.215	397.814	385.807	420.157	427.991	394.612	260.953	440.187	0.00020397	6.8138e-05	3.4432e-05	209.39	2.2586e-06	1.317e-06	485.35	54.329	1.2805e-06	2.1442e-06	136.75	50.372	17.993	5.4865	6.8485e-07	21.382	9.2355e-05	5.7842e-05	1.7997e-05	193.73	6.278e-07	7.2402e-07	451.67	50.878	6.8936e-07	5.9834e-07	127.58	47.503	16.948	5.2247	6.1928e-07	20.188	243.725	248.198	204.184	101.693	241.908	269.759	102.842	108.133	233.291	238.346	106.297	112.285	113.312	115.556	270.775	113.736	-8191	255	
1650.510	1	1	0	0	0.1209	0.079408	0.079375	0.15594	0.032442	0.087769	0.16779	0.20252	0.088312	0.37042	0.068132	0.024084	0.30476	0.23432	0.20665	0.10068	-1.5083	-2.3521	-2.1562	-2.2687	-2.2458	-1.8792	-2.5687	-2.0896	-1.9646	-2.5396	-1.8667	-2.3125	-2.3896	-1.8271	-2.3729	-2.3312	184.251	362.786	262.989	270.418	294.608	293.279	344.765	393.572	422.810	271.645	337.186	447.336	277.858	193.825	327.210	332.063	0.00019576	0.00011244	6.4215e-05	210.55	2.4106e-06	9.4813e-07	487.66	53.902	1.8642e-06	2.4266e-06	137.2	50.94	17.934	5.5172	1.1971e-06	21.458	8.9019e-05	5.9208e-05	1.7632e-05	194.95	6.3993e-07	6.2809e-07	453.14	50.716	6.726e-07	6.5253e-07	127.77	47.268	16.914	5.1956	6.3255e-07	20.155	239.085	238.422	175.017	101.714	289.026	437.509	102.285	108.108	229.873	240.807	106.175	112.349	113.699	116.957	306.379	114.242	-8191	255	
1650.606	1	1	0	0	0.22634	0.068171	0.25775	0.10912	0.27758	0.21633	0.070299	0.13541	0.18026	0.34223	0.053633	0.17031	0.12474	0.26175	0.11445	0.038125	-1.6042	-2.3833	-2.0167	-2.25	-2.3438	-2.0521	-2.1688	-2.1542	-2.0125	-2.5375	-2.1583	-1.9833	-2.1458	-1.8729	-2.1958	-2.2958	191.104	216.152	151.099	340.639	215.266	358.128	330.226	427.693	437.857	228.930	144.400	161.159	277.694	444.583	293.170	193.840	0.00019137	0.00027141	3.0827e-05	205.29	6.9125e-07	1.1307e-06	486.83	54.463	1.7601e-06	1.9192e-06	137.97	50.602	18.026	5.5489	1.9976e-06	21.419	8.9896e-05	5.6433e-05	1.5159e-05	193.19	6.2301e-07	6.0076e-07	451.95	51.037	6.5689e-07	6.1949e-07	127.12	47.346	16.909	5.2476	5.9455e-07	20.296	243.668	178.373	184.702	101.544	247.789	270.077	102.367	107.620	274.761	208.287	106.687	112.182	113.102	116.346	246.255	113.712	-8191	255	
1650.726	1	1	0	0	0.30042	0.36772	0.14336	0.11173	0.14528	0.17787	0.19124	0.062068	0.12306	0.16373	0.19802	0.1472	0.31027	0.13479	0.18837	0.14363	-1.5604	-2.1	-2.1521	-2.0938	-2.4188	-2.0812	-2.2146	-2.3333	-1.6875	-2.4917	-2.0646	-1.9917	-2.5271	-1.9625	-2.3625	-2.3083	235.976	95.068	385.359	260.466	100.961	421.924	443.835	418.389	190.770	398.861	104.517	253.615	377.173	429.993	151.925	296.480	0.00018339	0.00028278	2.0126e-05	207.83	1.9901e-06	1.9523e-06	486.5	54.862	2.0675e-06	2.0074e-06	136.09	51.286	18.245	5.6532	1.2704e-06	21.772	8.5568e-05	5.2812e-05	1.5202e-05	194.2	6.0474e-07	6.3538e-07	453.92	51.414	6.3549e-07	5.8799e-07	128.19	48.162	17.218	5.3678	6.2938e-07	20.633	236.368	159.689	152.633	100.936	201.699	202.860	102.341	108.160	308.865	255.964	106.246	112.662	113.559	116.111	264.093	113.823	-8191	255	
1650.823	1	1	0	0	0.26288	0.057591	0.038519	0.23404	0.11301	0.27823	0.13416	0.2186	0.064285	0.25489	0.19984	0.52676	0.25781	0.23296	0.21163	0.22084	-1.4333	-2.1396	-2.25	-2.0604	-2.4854	-2.1562	-2.0271	-2.2729	-1.8583	-2.2375	-2.3542	-1.8917	-2.3542	-1.9917	-2.0208	-2.2729	175.494	448.471	387.747	445.065	428.656	423.524	317.512	437.976	167.549	360.455	246.123	114.255	426.086	96.324	251.389	174.601	0.00018193	0.00029178	8.1966e-05	209.99	8.7258e-07	3.2076e-06	491.68	54.567	5.1835e-07	7.7455e-07	137.51	51.465	18.373	5.6556	2.4597e-06	22.042	9.1893e-05	5.4869e-05	1.6016e-05	195.15	5.8707e-07	5.7981e-07	457.96	51.493	6.5959e-07	5.8861e-07	129.06	48.579	17.314	5.3975	6.1928e-07	20.702	242.480	166.594	149.257	101.945	178.142	272.974	102.480	108.483	185.611	258.441	106.109	112.259	113.779	116.667	282.655	113.916	-8191	255	
1650.919	1	1	0	0	0.1257	0.1457	0.20563	0.029471	0.30448	0.25175	0.044725	0.066797	0.33617	0.11305	0.054835	0.16828	0.11508	0.24364	0.049931	0.10217	-1.2458	-1.9958	-2.0583	-1.9646	-2.425	-2.3479	-2.2542	-2.3583	-1.9354	-2.1229	-2.3708	-1.9125	-2.3354	-2.1896	-2.1167	-2.5583	136.416	267.570	366.588	329.689	310.378	321.982	258.564	157.373	122.576	199.864	334.346	436.862	397.099	435.963	142.816	226.109	0.00021491	0.00014754	8.4817e-05	209.01	9.0419e-07	8.7877e-07	488.6	54.892	1.1535e-06	2.5754e-06	138.58	51.214	18.805	5.6731	2.293e-06	21.85	9.127e-05	5.7926e-05	1.5544e-05	194.94	5.9276e-07	5.9207e-07	455.35	51.585	6.4911e-07	6.005e-07	129.26	48.316	17.388	5.3675	6.71e-07	20.562	235.050	208.864	157.678	101.999	249.375	276.625	102.193	108.625	259.359	242.587	106.402	112.630	113.515	116.807	233.012	114.521	-8191	255	
1651.039	1	1	0	0	0.47245	0.21966	0.13449	0.13263	0.30563	0.17863	0.26389	0.10301	0.27881	0.11613	0.083682	0.20769	0.037032	0.39894	0.095198	0.10134	-1.2979	-2.2771	-2.3292	-1.8417	-2.4583	-2.2625	-2.0708	-2.4979	-2.0938	-2.2375	-2.5521	-1.9417	-2.3875	-2.0396	-1.9854	-2.5875	334.590	272.724	139.744	196.428	226.815	367.142	365.556	90.902	401.292	432.500	431.265	318.441	123.878	173.537	433.083	91.108	0.00023864	0.00014498	2.6246e-05	209.86	2.0164e-06	1.041e-06	490.12	55.569	1.1997e-06	1.8787e-06	138.72	51.538	18.373	5.6306	9.4917e-07	22.004	9.8126e-05	5.9405e-05	1.5312e-05	195.28	6.3184e-07	6.1256e-07	454.85	51.663	6.129e-07	6.2752e-07	129.38	48.684	17.325	5.3641	6.4039e-07	20.676	237.388	138.608	133.605	101.560	271.337	282.281	102.681	108.186	285.117	201.620	105.762	112.732	113.053	115.718	263.985	114.076	-8191	255	
1651.111	1	1	0	0	0.18617	0.17697	0.068571	0.14251	0.21241	0.083994	0.29527	0.15111	0.21572	0.12793	0.28384	0.29941	0.088167	0.19956	0.10236	0.24419	-1.4188	-2.1271	-2.2479	-1.8833	-2.3417	-2.3396	-2.1792	-2.3229	-2.0729	-2.2396	-2.4729	-1.9167	-2.25	-2.1021	-2.0979	-2.4125	213.738	286.108	135.830	141.539	197.939	237.789	93.710	310.292	389.460	257.964	444.801	97.607	313.813	407.054	197.216	385.984	0.00020347	0.00017739	4.5601e-05	209.42	9.8225e-07	1.2585e-06	489.86	55.055	2.0752e-06	1.781e-06	139.23	51.782	18.55	5.5815	1.2507e-06	22.099	8.9735e-05	5.5376e-05	1.6303e-05	193.83	6.4651e-07	5.7701e-07	456.29	51.61	6.1739e-07	6.1903e-07	130.98	48.668	17.36	5.3704	6.4959e-07	20.81	231.753	139.766	185.874	101.219	284.857	269.588	102.506	108.380	256.945	234.603	106.126	111.954	113.367	116.192	227.284	114.480	-8191	255	
1651.207	1	1	0	0	0.12809	0.14329	0.14488	0.1547	0.078552	0.11901	0.043513	0.10782	0.14889	0.19839	0.18452	0.2909	0.19102	0.17858	0.1326	0.12426	-1.4396	-1.9667	-2.3833	-1.9875	-2.3354	-2.4583	-2.2062	-2.3833	-2.1896	-2.2458	-2.3729	-2.1083	-2.4271	-2.2875	-1.9542	-2.3042	106.631	94.613	293.350	196.442	352.467	404.124	322.143	260.309	442.832	284.580	341.412	157.430	154.136	293.144	245.401	361.151	0.00018628	0.00017456	3.2849e-05	208.04	1.1374e-06	1.6017e-06	489.52	55.525	6.551e-07	1.7707e-06	139.56	51.945	18.516	5.5893	1.6343e-06	21.685	8.6283e-05	5.8828e-05	1.44e-05	193.96	6.3469e-07	5.9595e-07	456.66	51.79	6.1425e-07	6.6365e-07	130.89	48.774	17.345	5.3168	6.3149e-07	20.646	238.302	170.826	226.015	101.749	303.593	204.274	102.524	108.528	251.054	265.013	106.147	112.471	113.117	116.491	285.628	114.295	-8191	255	
1651.326	1	1	0	0	0.10267	0.21293	0.24652	0.070299	0.054005	0.23909	0.19408	0.089685	0.15452	0.2277	0.33728	0.24853	0.032352	0.1315	0.33204	0.081545	-1.6437	-1.9813	-2.3375	-1.9854	-2.2	-2.3646	-2.1021	-2.2562	-2.1688	-1.9917	-2.4833	-2.0729	-2.0271	-2.3146	-2.1146	-2.5375	294.521	226.795	323.144	348.224	116.090	293.301	442.200	259.766	187.342	363.695	297.851	411.588	398.065	203.043	432.092	332.042	0.00020092	0.0001951	5.0768e-05	206.89	8.3257e-07	3.0525e-06	480.62	54.138	1.5651e-06	2.158e-06	138.22	50.744	18.215	5.5416	2.0473e-06	21.615	9.1489e-05	5.7419e-05	1.4609e-05	193.5	6.3948e-07	6.388e-07	451.48	50.988	6.2547e-07	5.8691e-07	129.54	47.798	17.077	5.2393	6.3767e-07	20.395	237.063	174.295	147.564	101.435	250.084	253.434	102.203	107.842	262.458	258.098	105.773	112.686	113.606	116.185	229.650	113.674	-8191	255	
1651.422	1	1	0	0	0.024496	0.14565	0.038177	0.10981	0.18812	0.086706	0.24843	0.16366	0.21171	0.093511	0.10272	0.20475	0.047446	0.073536	0.099995	0.11727	-1.7771	-1.8771	-2.2646	-2.1542	-2.1646	-2.3479	-2.0812	-2.2917	-2.0646	-2.05	-2.3667	-2.075	-1.9542	-2.3125	-2.0521	-2.2562	304.580	323.780	108.461	325.055	197.320	190.412	216.165	128.125	356.477	359.071	229.969	132.617	331.360	388.954	390.893	98.842	0.00020958	0.00017757	8.2526e-05	206.67	1.254e-06	2.5676e-06	486.88	53.35	5.8437e-07	2.0259e-06	135.65	49.706	17.789	5.4111	1.1391e-06	21.572	8.7807e-05	5.6715e-05	1.5375e-05	193.35	5.989e-07	5.4907e-07	453.12	50.315	5.9105e-07	5.9417e-07	128.13	47.485	16.844	5.2222	6.5245e-07	20.357	240.082	162.512	221.457	101.229	239.071	224.164	102.375	108.064	228.903	256.459	106.371	112.171	113.275	116.329	211.137	113.446	-8191	255	
1651.518	1	1	0	0	0.12437	0.15027	0.077053	0.21602	0.088267	0.32851	0.091496	0.053767	0.40501	0.039041	0.25222	0.22022	0.1871	0.29677	0.25636	0.22027	-1.8188	-1.7354	-2.225	-2.2812	-2.0687	-2.3187	-2.1083	-2.2021	-2.2458	-1.9896	-2.4313	-2.2583	-1.9042	-2.3667	-2.1583	-2.15	110.207	129.551	324.409	135.304	288.994	250.252	363.629	302.303	170.415	428.967	246.170	95.340	200.102	411.626	153.788	343.593	0.00019561	0.00019029	6.3194e-05	204.6	1.7423e-06	1.4773e-06	489.66	53.491	1.4397e-06	2.0241e-06	134.51	51.319	18.036	5.5054	8.5453e-07	21.626	8.9192e-05	5.8391e-05	1.5352e-05	193.32	6.7332e-07	5.8897e-07	456.61	50.292	5.8193e-07	5.6483e-07	128.02	48.072	16.956	5.2652	5.9832e-07	20.5	234.853	163.959	212.838	101.399	269.195	232.422	102.428	108.211	285.775	277.466	106.015	112.121	113.578	115.026	257.938	113.957	-8191	255	
1651.639	1	1	0	0	0.31748	0.2554	0.18242	0.24582	0.10147	0.2018	0.16188	0.15602	0.13563	0.18074	0.36512	0.12344	0.30209	0.060585	0.27425	0.11979	-1.7083	-1.8854	-2.3312	-2.2146	-1.8979	-2.5021	-2.1104	-1.9521	-2.4271	-1.9521	-2.2208	-2.2562	-1.9708	-2.4229	-1.9688	-2.1458	411.768	390.044	395.309	91.916	389.329	116.363	106.380	393.123	169.532	320.834	254.735	305.560	383.140	321.773	311.224	312.219	0.00018891	0.00013969	6.8463e-05	206.28	1.5491e-06	3.2104e-06	487.33	53.159	8.1651e-07	2.1079e-06	136.41	50.754	17.74	5.512	1.9889e-06	21.553	9.0069e-05	5.732e-05	1.4978e-05	193.24	6.3289e-07	6.2917e-07	455.78	50.33	5.9001e-07	6.2706e-07	127.95	47.816	16.748	5.2695	6.3255e-07	20.35	233.506	195.963	237.678	101.176	261.364	265.188	102.586	108.306	237.666	232.227	106.313	112.568	113.060	116.637	253.855	113.425	-8191	255	
1651.711	1	1	0	0	0.19042	0.16984	0.17922	0.28286	0.10817	0.11389	0.15027	0.18582	0.22956	0.24261	0.02643	0.12668	0.23897	0.052212	0.16838	0.12394	-1.7875	-1.9625	-2.1896	-2.1521	-1.8979	-2.2667	-2.0458	-1.9625	-2.3063	-1.725	-2.2979	-2.3854	-1.9792	-2.2021	-2.1604	-2.2167	189.350	314.089	238.090	190.217	193.232	180.218	430.110	112.280	128.857	168.375	403.520	203.989	353.824	225.668	241.654	432.690	0.00021127	0.00015949	3.7398e-05	207.76	1.3344e-06	1.1625e-06	491.58	52.949	2.3238e-06	1.4181e-06	138.53	50.547	18.211	5.5695	2.4784e-06	21.661	8.6225e-05	5.7968e-05	1.4046e-05	193.29	6.1342e-07	5.5916e-07	455.15	49.801	6.0332e-07	5.9494e-07	128.01	47.568	16.916	5.3073	6.0872e-07	20.398	236.887	177.131	185.438	100.681	221.296	296.026	102.445	108.119	253.149	265.077	106.439	112.525	112.825	116.568	243.795	113.835	-8191	255	
1651.807	1	1	0	0	0.12573	0.18717	0.051521	0.086117	0.085887	0.48268	0.28117	0.15301	0.14477	0.23079	0.26691	0.17846	0.13413	0.23099	0.15779	0.12593	-1.9604	-1.925	-2.0854	-2.2458	-2.0687	-2.3396	-2.1896	-1.9937	-2.35	-1.9875	-2.1937	-2.3187	-1.9333	-2.2875	-2.2146	-2.1708	99.956	438.755	292.257	371.689	278.368	262.561	291.530	136.412	184.812	249.838	364.546	340.467	445.568	311.573	171.497	386.982	0.00017704	0.00029889	3.9522e-05	207.06	1.255e-06	1.3465e-07	488.76	53.777	1.0455e-06	1.7362e-06	137.83	50.694	18.036	5.6388	1.1032e-06	21.892	8.364e-05	5.9645e-05	1.5261e-05	191.95	6.2016e-07	5.9549e-07	455.51	50.043	5.7684e-07	6.0714e-07	128.14	47.77	16.869	5.3273	5.944e-07	20.409	228.562	152.703	181.667	101.319	270.449	383.703	102.388	108.119	269.472	253.269	105.559	112.623	113.494	116.051	282.351	114.229	-8191	255	
1651.927	1	1	0	0	0.11816	0.13135	0.033502	0.088538	0.20349	0.096338	0.17654	0.063662	0.21916	0.2012	0.081006	0.20338	0.26336	0.097261	0.28403	0.095812	-1.9813	-2.0854	-2.1729	-2.2396	-1.8875	-2.3292	-2.0854	-1.6854	-2.4542	-2.1479	-2.0479	-2.3292	-1.9521	-2.1854	-2.2542	-1.9583	353.761	285.982	446.274	310.053	448.995	278.519	299.236	259.364	160.484	369.150	153.930	207.011	323.976	411.077	385.624	200.542	0.00019756	0.00024287	4.731e-05	207.76	7.2527e-07	1.1616e-06	494.23	53.831	1.3694e-06	1.2521e-06	138.81	50.632	18.231	5.5856	1.1629e-06	21.778	8.6526e-05	5.7391e-05	1.438e-05	192.15	6.1971e-07	5.8772e-07	456.4	50.163	5.7774e-07	5.9247e-07	128.72	47.808	16.977	5.2936	5.9832e-07	20.421	236.326	160.249	130.719	100.951	254.551	194.373	102.569	107.816	326.446	211.711	106.318	112.514	112.842	116.139	251.089	114.300	-8191	255	
1652.024	1	1	0	0	0.20219	0.10783	0.21645	0.26045	0.073077	0.15293	0.329	0.06426	0.12903	0.27119	0.096983	0.20737	0.1103	0.27437	0.16089	0.14039	-1.7917	-1.9646	-2.0542	-2.4	-2.0604	-2.2208	-2.4896	-1.9479	-2.5938	-2.0833	-2.1562	-2.4104	-2.0521	-2.3375	-2.3312	-1.9292	102.996	123.711	192.645	272.961	430.629	396.911	358.853	228.350	285.738	193.787	327.871	294.044	408.796	414.605	401.644	143.787	0.00019684	7.5156e-05	3.1635e-05	207.57	3.2068e-06	1.5333e-06	491.58	53.908	1.5008e-06	7.0775e-07	137.54	50.9	17.693	5.6058	6.669e-07	21.508	8.1839e-05	5.1474e-05	1.5501e-05	192.76	6.3289e-07	5.4115e-07	455.47	50.162	5.523e-07	5.761e-07	128.02	47.559	16.869	5.3096	5.6017e-07	20.151	238.083	217.489	155.736	101.432	283.707	249.301	102.564	107.847	270.847	333.203	106.604	112.767	113.271	117.078	323.067	113.503	-8191	255	
1652.118	1	1	0	0	0.073723	0.22637	0.15941	0.067704	0.15007	0.29703	0.15452	0.094976	0.10496	0.067837	0.046535	0.20111	0.070923	0.19306	0.071514	0.11849	-1.8792	-2.1708	-2.1625	-2.5333	-1.9875	-2.0187	-2.2417	-1.8854	-2.4437	-2.2562	-2.0125	-2.3875	-2.1896	-2.1958	-2.4542	-2.0312	438.999	271.316	326.776	346.530	99.617	349.529	346.389	160.429	409.622	342.934	323.542	325.972	155.242	336.548	386.338	115.759	0.00019247	0.0002001	2.4239e-05	207.17	1.4331e-06	1.9996e-06	488.15	54.374	1.4923e-06	7.074e-07	137.79	50.608	18.076	5.546	5.247e-07	21.71	8.5856e-05	5.6038e-05	1.4884e-05	192.36	6.3618e-07	5.8198e-07	453.24	50.427	5.9943e-07	5.6205e-07	128.54	47.486	17.038	5.3224	5.5308e-07	20.392	237.160	138.724	161.611	101.601	313.410	256.820	102.678	108.016	281.965	262.665	106.329	112.370	113.565	115.586	281.735	113.794	-8191	255	
1652.214	1	1	0	0	0.1197	0.28117	0.13736	0.16984	0.11495	0.04128	0.21112	0.22559	0.10616	0.15358	0.34878	0.12311	0.16882	0.33737	0.29198	0.33026	-1.8188	-2.2146	-2.0771	-2.4979	-2.1271	-2.3396	-2.5583	-2.0604	-2.3208	-2.325	-1.875	-2.25	-2.1104	-2.0896	-2.3	-1.9958	125.940	372.086	266.915	439.896	361.727	118.409	373.376	212.338	338.088	270.943	106.035	260.804	330.466	283.814	182.782	448.050	0.00018612	6.4695e-05	4.4758e-05	205.6	8.8962e-07	3.1831e-07	490.76	53.071	7.7989e-07	1.499e-06	141.09	51.162	18.551	5.6687	1.1784e-06	21.826	8.409e-05	5.0192e-05	1.5811e-05	191.79	6.0519e-07	5.8058e-07	454.65	50.27	6.3968e-07	5.832e-07	130.61	48.227	17.371	5.4098	5.6801e-07	20.593	232.213	442.127	184.547	101.481	245.720	122.362	102.575	108.746	245.420	249.388	106.364	112.484	113.805	116.518	233.481	113.959	-8191	255	
1652.288	1	1	0	0	0.038562	0.21631	0.26149	0.19197	0.14599	0.071853	0.22293	0.32594	0.16257	0.081867	0.1493	0.072691	0.12799	0.12308	0.099932	0.21007	-1.8146	-2.1667	-1.9729	-2.3521	-2.2042	-1.9312	-2.4583	-2.225	-2.1396	-2.3104	-2.0104	-2.3208	-2.1958	-1.8333	-2.5875	-2.0917	439.992	333.861	373.524	296.089	259.654	232.627	393.860	421.592	316.191	271.188	384.880	331.893	232.271	112.601	363.519	208.269	0.00019172	0.00018137	2.2616e-05	206.85	7.0892e-08	1.295e-06	492.16	55.308	6.3931e-07	1.9063e-06	141.73	52.585	18.964	5.8493	1.7521e-06	22.032	8.1412e-05	5.5954e-05	1.5536e-05	192.59	6.019e-07	6.5184e-07	456.38	51.215	6.114e-07	5.7518e-07	132.06	49.037	17.581	5.5111	5.3408e-07	20.787	233.835	222.185	173.428	100.967	150.436	260.334	102.864	107.940	303.187	245.418	106.357	112.480	114.417	115.897	268.821	113.630	-8191	255	
1652.406	1	1	0	0	0.10263	0.085114	0.21457	0.14742	0.09369	0.1682	0.19717	0.18961	0.16857	0.065817	0.12165	0.17385	0.12856	0.1958	0.23648	0.17798	-1.5333	-2.4292	-1.7792	-2.4083	-2.2812	-1.9521	-2.3583	-1.9896	-1.9896	-2.4813	-2.1188	-2.4354	-2.2979	-1.9083	-2.3688	-2.1604	218.330	156.724	192.109	259.657	225.942	110.925	405.963	161.337	359.634	277.781	141.030	97.344	411.071	253.541	211.018	297.582	0.00020376	0.00014973	7.4802e-05	208.36	2.0403e-06	1.1977e-06	493.6	55.322	1.3005e-06	5.875e-07	142.32	52.099	18.97	5.7553	1.5537e-06	22.099	8.7564e-05	5.4728e-05	1.4726e-05	193.47	6.0504e-07	5.8089e-07	455.13	51.407	6.3864e-07	5.4321e-07	132.22	48.85	17.814	5.5018	5.6198e-07	20.787	233.738	214.244	143.626	101.852	296.793	227.342	102.647	108.683	293.387	319.554	106.155	112.496	113.456	116.483	232.948	114.291	-8191	255	
1652.503	1	1	0	0	0.51503	0.25956	0.13726	0.062569	0.11194	0.11655	0.010765	0.13548	0.34506	0.2871	0.14728	0.21073	0.29524	0.070439	0.036879	0.22595	-1.5333	-2.2	-1.8208	-2.2083	-2.3271	-2.0604	-2.5438	-2.1458	-2.025	-2.4396	-1.8583	-2.1917	-2.3021	-1.6771	-2.3208	-2.1	368.500	299.894	154.724	141.647	242.060	236.689	342.089	386.679	412.759	94.515	397.616	436.721	393.266	346.089	280.085	278.153	0.00020875	0.00032065	4.3542e-05	206.19	1.9934e-06	1.6337e-06	492.17	54.781	1.3769e-06	1.5003e-06	142.77	52.526	19.075	5.9181	9.4386e-07	22.295	8.5775e-05	4.8713e-05	1.519e-05	193.14	5.9336e-07	5.4286e-07	455.8	51.408	5.6562e-07	5.1897e-07	132.69	49.691	17.929	5.6093	5.3092e-07	20.966	229.065	161.715	216.257	101.854	257.026	285.435	102.656	108.091	270.347	163.177	106.804	112.742	114.282	115.795	276.190	113.924	-8191	255	
1652.599	1	1	0	0	0.1837	0.15659	0.18344	0.25354	0.36824	0.12486	0.058182	0.25086	0.072542	0.063149	0.39358	0.12714	0.24898	0.082321	0.06252	0.25587	-1.7083	-2.4229	-1.9	-2.1646	-2.4042	-1.8771	-2.5062	-2.1688	-2.0812	-2.3021	-1.9438	-2.2562	-2.2708	-1.7687	-2.4375	-2.4229	316.289	331.141	247.373	351.465	122.367	177.212	256.152	273.142	196.361	408.895	349.869	433.820	116.600	204.442	388.088	336.613	0.00021058	0.00031759	3.4015e-05	210.28	1.3898e-06	1.2411e-06	495.92	55.04	1.586e-06	1.7565e-06	144.12	52.849	19.36	6.0293	6.9409e-07	22.324	8.903e-05	5.1671e-05	1.4113e-05	195.26	5.3108e-07	5.4628e-07	457.95	51.413	5.4272e-07	5.1774e-07	133.5	49.73	18	5.6639	5.1011e-07	21.077	241.074	171.922	146.679	101.793	232.640	291.787	102.351	107.954	276.561	261.602	106.090	112.133	113.463	117.050	335.074	114.340	-8191	255	
1652.719	1	1	0	0	0.26716	0.056742	0.29605	0.20558	0.10564	0.075614	0.12732	0.10697	0.19582	0.045037	0.18263	0.4329	0.19373	0.1874	0.19758	0.16344	-1.7083	-2.3875	-2.0354	-2.2083	-2.4042	-2.0479	-2.1396	-2.2104	-1.9104	-2.4042	-1.975	-2.0938	-2.3896	-2.0646	-2.2062	-2.1312	229.512	338.476	186.058	378.909	346.678	146.216	151.356	446.061	161.347	116.567	387.072	382.254	326.894	308.468	112.642	190.292	0.00021151	0.00027007	6.3583e-05	209.96	1.4573e-06	1.4533e-06	497.45	55.14	8.506e-07	1.3851e-06	139.59	51.634	18.35	5.625	1.6212e-06	21.709	8.8476e-05	4.5698e-05	1.3999e-05	194.68	4.9649e-07	5.4426e-07	459.18	51.279	5.324e-07	4.5721e-07	131.18	48.13	17.1	5.4071	4.8644e-07	20.53	237.159	184.279	149.972	101.630	244.973	290.054	102.463	107.672	264.100	208.245	106.583	112.491	113.401	116.430	259.258	114.589	-8191	255	
1652.816	1	1	0	0	0.17431	0.31479	0.16061	0.1381	0.091204	0.15611	0.122	0.064895	0.088294	0.13465	0.15242	0.35997	0.22468	0.099774	0.21173	0.4014	-1.4146	-2.2833	-2.2458	-2.2125	-2.2104	-2.0104	-2.2083	-2.2375	-1.9646	-2.4	-2.1083	-2.0667	-2.2792	-2.0604	-2.2625	-2.2146	216.003	147.625	448.123	415.456	350.896	282.021	341.751	320.262	94.668	161.173	313.257	371.796	331.234	160.413	134.080	91.924	0.00020668	0.00023566	4.3633e-05	212.15	1.2331e-06	1.5287e-06	493.44	53.599	4.0138e-07	1.2592e-06	134.82	49.348	17.794	5.3684	1.0362e-06	20.758	8.499e-05	4.019e-05	1.1857e-05	195.83	4.9005e-07	4.4724e-07	457.72	50.108	4.6596e-07	4.1969e-07	126.15	46.396	16.52	5.0947	4.1391e-07	19.569	235.596	193.089	185.977	101.074	271.243	220.574	102.642	108.410	217.186	225.021	106.387	112.834	113.637	116.248	237.509	114.241	-8191	255	
1652.912	1	1	0	0	0.19821	0.082745	0.090295	0.21624	0.22329	0.35195	0.078977	0.21968	0.23384	0.22594	0.14822	0.1478	0.1762	0.33255	0.20879	0.12941	-1.3312	-2.2646	-1.9979	-2.0312	-2.2562	-1.975	-2.1896	-2.3688	-1.9188	-2.2208	-2.1354	-1.925	-2.1604	-2.0625	-2.1875	-2.2313	117.624	425.471	239.101	105.454	106.580	244.714	373.660	372.936	443.952	438.772	387.254	367.803	233.128	209.723	156.944	130.002	0.00020226	0.00012844	6.9025e-05	208.69	6.9865e-07	2.2903e-06	479.66	53.288	4.0478e-07	5.4139e-07	136.02	47.965	16.906	4.9454	2.0389e-06	19.57	7.7961e-05	3.8444e-05	1.017e-05	193.04	4.1534e-07	4.7953e-07	443.71	50.108	5.318e-07	4.867e-07	126.76	45.151	15.636	4.6971	6.0299e-07	18.38	234.545	207.064	209.361	101.499	252.270	242.430	102.489	109.015	261.903	256.958	106.720	113.371	113.968	117.617	199.643	115.090	-8191	255	
1653.008	1	1	0	0	0.3712	0.34362	0.088793	0.22025	0.20644	0.20062	0.097679	0.18665	0.13475	0.17036	0.26252	0.4334	0.18389	0.38846	0.087908	0.16367	-1.475	-2.1729	-2.2167	-1.9937	-2.4292	-2.2167	-2.1896	-2.3604	-1.9771	-2.2979	-2.3729	-1.9396	-2.3187	-1.9979	-2.0687	-2.525	333.509	327.888	444.881	316.648	272.543	394.840	369.837	229.944	410.201	337.068	414.996	120.089	239.190	272.544	418.973	339.821	0.00019004	0.00012312	3.9119e-05	204.57	3.1746e-06	4.1596e-07	473.67	49.808	1.7774e-06	1.2121e-06	126.46	45.503	14.764	4.1984	1.2671e-06	17.492	8.9469e-05	6.2011e-05	1.6818e-05	190.66	7.347e-07	6.7869e-07	442.9	47.02	7.6568e-07	7.2171e-07	118.13	42.728	13.81	3.952	7.0523e-07	16.474	238.203	122.992	172.483	101.852	241.902	247.842	102.851	109.026	265.164	210.407	107.582	113.767	114.796	118.621	287.766	115.552	-8191	255	
1653.104	1	1	0	0	0.23994	0.30352	0.036447	0.38741	0.22582	0.085052	0.17667	0.20481	0.078174	0.24088	0.17969	0.30444	0.074021	0.13662	0.32237	0.19964	-1.5271	-2.1375	-2.3542	-1.8062	-2.2646	-2.1292	-2.1271	-2.5521	-1.975	-2.3104	-2.4521	-1.8125	-2.3583	-2.1708	-2.0375	-2.3688	432.456	225.482	204.523	385.505	254.243	100.336	420.505	227.474	441.778	425.594	415.796	424.562	173.543	338.494	366.870	394.466	0.00017363	0.00021442	4.3327e-05	204.75	1.2557e-06	5.9172e-07	467.04	42.536	1.4726e-06	7.723e-07	116.03	44.018	14.687	4.0867	2.1568e-06	17.454	9.1027e-05	5.9701e-05	1.5945e-05	191.06	6.3873e-07	5.8167e-07	434.03	39.824	6.5195e-07	5.9942e-07	109.49	41.616	13.567	3.9131	6.1264e-07	16.483	232.490	179.655	173.629	103.181	193.756	168.329	101.473	109.446	298.963	255.701	107.264	114.091	115.602	118.587	266.109	115.605	-8191	255	
1653.198	1	1	0	0	0.27337	0.10129	0.10453	0.15582	0.11511	0.16969	0.19746	0.17219	0.14779	0.15989	0.17143	0.15376	0.1783	0.16129	0.026235	0.072728	-1.6875	-2.1375	-2.4	-2.0229	-2.4	-2.3792	-2.05	-2.4792	-2.0563	-2.0708	-2.4188	-2.0792	-2.3625	-2.4458	-2.0479	-2.3187	446.145	445.211	135.784	138.890	282.730	124.028	247.862	223.701	157.647	246.217	325.954	287.600	144.332	246.888	251.433	218.042	0.0001589	0.00016686	4.6778e-05	202.71	1.4891e-06	5.8857e-07	456.11	42.571	6.4719e-07	6.5063e-07	114.13	44.839	14.659	4.276	9.1323e-07	18.071	8.2289e-05	5.2348e-05	1.4569e-05	189.05	5.9905e-07	6.1008e-07	424.12	39.775	6.735e-07	6.2582e-07	107.09	42.171	13.877	4.0772	5.5188e-07	17.016	233.462	215.108	179.907	103.116	286.106	206.414	101.836	109.492	222.638	295.614	107.494	113.549	115.073	118.932	305.816	115.187	-8191	255	
1653.319	1	1	0	0	0.24241	0.0098663	0.25534	0.32425	0.22943	0.32024	0.028918	0.050616	0.31587	0.061426	0.2271	0.12702	0.22615	0.078606	0.20829	0.12208	-1.6083	-2.0812	-2.45	-2.0729	-2.4625	-2.2458	-2.2208	-2.3354	-2.0083	-1.8583	-2.3542	-1.8792	-2.2125	-2.3792	-1.8979	-2.4896	415.665	218.353	239.716	401.916	107.602	216.320	288.082	314.332	408.503	268.702	407.143	277.534	423.111	213.257	313.992	178.465	0.000186	0.00014052	4.2311e-05	203.64	3.7111e-07	9.9134e-07	455.2	42.911	1.3278e-06	1.6233e-06	114.35	46.544	15.365	4.5116	7.9657e-07	18.673	8.0281e-05	5.508e-05	1.5737e-05	189.76	6.2346e-07	5.4798e-07	423.01	40.485	5.5499e-07	5.9108e-07	107.43	43.687	14.37	4.3717	5.665e-07	17.662	238.666	215.204	167.886	102.994	388.249	284.768	102.133	108.252	284.087	213.967	107.624	113.514	114.653	118.009	293.362	114.330	-8191	255	
1653.415	1	1	0	0	0.25034	0.24849	0.11901	0.1926	0.20215	0.25548	0.11968	0.09646	0.18958	0.03771	0.063445	0.17026	0.26432	0.045684	0.15056	0.11577	-1.8021	-2.0375	-2.3458	-1.9292	-2.2458	-2.5792	-2.1312	-2.4979	-2.2458	-1.9771	-2.4	-2.1354	-2.2417	-2.5438	-2.0104	-2.2708	118.117	330.535	412.897	203.090	393.275	194.003	386.775	96.015	446.352	341.718	446.788	221.014	268.195	128.872	360.997	351.499	0.00017533	9.6925e-05	4.8197e-05	204.5	1.0737e-06	1.1341e-06	456.1	44.527	1.3989e-06	2.2626e-06	114.82	47.281	15.817	4.6542	1.0582e-06	19.246	7.9658e-05	5.0967e-05	1.3995e-05	191.35	5.6806e-07	5.3246e-07	424.44	41.388	5.4407e-07	5.6437e-07	107.52	44.479	14.63	4.4816	5.5218e-07	18.071	233.181	132.708	221.443	102.584	261.071	205.900	102.203	108.453	284.519	213.204	107.122	113.166	115.598	117.712	247.449	114.706	-8191	255	
1653.511	1	1	0	0	0.27672	0.10922	0.10442	0.20896	0.17676	0.12191	0.15048	0.091681	0.20872	0.13335	0.14768	0.0046575	0.25114	0.38984	0.16282	0.059462	-1.8896	-2.0187	-2.3646	-2.0458	-2.1312	-2.3646	-2	-2.275	-2.3521	-2.0479	-2.4792	-2.1188	-2.1271	-2.475	-1.9542	-2.3646	391.607	279.763	176.617	347.828	147.342	446.973	379.024	309.204	127.533	242.916	186.482	362.315	252.850	428.877	418.455	262.992	0.00020234	0.00011148	3.0712e-05	206.39	1.4827e-06	2.173e-06	460.43	44.965	6.2328e-07	2.3117e-06	115.02	47.758	15.988	4.7711	1.5949e-06	19.277	8.5152e-05	5.5686e-05	1.3457e-05	192.27	5.5488e-07	5.4798e-07	427.37	41.914	5.3344e-07	5.4784e-07	107.37	44.903	14.892	4.5362	5.4419e-07	18.184	235.044	117.413	198.499	102.866	230.771	263.978	102.300	108.857	264.205	228.248	107.163	113.417	114.676	117.012	293.630	114.344	-8191	255	
1653.583	1	1	0	0	0.053575	0.16022	0.036639	0.18666	0.069947	0.31528	0.30857	0.15973	0.22344	0.18907	0.21389	0.050565	0.21439	0.14868	0.15637	0.36457	-1.8833	-2.1521	-2.3542	-2.2229	-2.0104	-2.4354	-2.0833	-2.2875	-2.4042	-2.1625	-2.3146	-2.2646	-2.1333	-2.5125	-1.9833	-2.2083	247.413	423.958	265.962	160.326	229.990	445.736	250.908	309.568	216.820	290.407	384.383	257.379	194.584	165.715	154.550	291.725	0.0001926	0.00011688	6.4768e-05	207.1	1.1773e-06	1.5925e-06	462.88	44.378	1.229e-06	1.3802e-06	114.8	47.648	15.933	4.8124	1.5119e-06	19.523	7.8399e-05	5.1066e-05	1.3103e-05	193.13	5.6012e-07	4.9365e-07	427.9	41.536	5.5634e-07	5.3364e-07	106.94	44.733	14.803	4.574	5.3454e-07	18.28	233.800	160.843	198.548	102.390	237.585	264.913	102.156	107.993	263.010	226.277	107.583	113.034	115.086	117.769	242.770	114.277	-8191	255	
#DATA ENDS
