BOXY.EXE: ISS Imagent and Oximeter Data Acquisition Program Version 0.80
Ascii Record File

#ACQ INFORMATION
2  Detector Channels 
16  External MUX Channels 
1  Auxiliary Channels 
5000  Waveform (CCF) Frequency (Hz)
1  Waveforms Skipped 
30  Waveforms Averaged 
1  Cycles Averaged 
16  Acquisitions per Waveform 
10.0806  Updata Rate (Hz) 

#FILE INFORMATION
TRUE -- External MUX Channel results are PARSED.
FALSE -- AC DC and Phase are NOT grouped.
TRUE -- Companion Program Settings File CREATED.
FALSE -- AC data not excluded
FALSE -- DC data not excluded
FALSE -- Phase data not excluded
FALSE -- Auxillary Chn. data not excluded
Tab delimiters

#CALIBRATION STATE
TRUE -- Waveform Calibration Values APPLIED.


#AUX CALIBRATION VALUES
Val Type	aux-1	

Term	1.0000e+00	
Factor	0.0000e+00	


#WF CALIBRATION VALUES
A = Detector Channel
Val Type	A-AC1	A-AC2	A-AC3	A-AC4	A-AC5	A-AC6	A-AC7	A-AC8	A-AC9	A-AC10	A-AC11	A-AC12	A-AC13	A-AC14	A-AC15	A-AC16	A-DC1	A-DC2	A-DC3	A-DC4	A-DC5	A-DC6	A-DC7	A-DC8	A-DC9	A-DC10	A-DC11	A-DC12	A-DC13	A-DC14	A-DC15	A-DC16	A-Ph1	A-Ph2	A-Ph3	A-Ph4	A-Ph5	A-Ph6	A-Ph7	A-Ph8	A-Ph9	A-Ph10	A-Ph11	A-Ph12	A-Ph13	A-Ph14	A-Ph15	A-Ph16	

Term	0.00000e+00	0.00000e+00	0.00000e+00	0.00000e+00	0.00000e+00	0.00000e+00	0.00000e+00	0.00000e+00	0.00000e+00	0.00000e+00	0.00000e+00	0.00000e+00	0.00000e+00	0.00000e+00	0.00000e+00	0.00000e+00	0.00000e+00	0.00000e+00	0.00000e+00	0.00000e+00	0.00000e+00	0.00000e+00	0.00000e+00	0.00000e+00	0.00000e+00	0.00000e+00	0.00000e+00	0.00000e+00	0.00000e+00	0.00000e+00	0.00000e+00	0.00000e+00	0.00000e+00	0.00000e+00	0.00000e+00	0.00000e+00	0.00000e+00	0.00000e+00	0.00000e+00	0.00000e+00	0.00000e+00	0.00000e+00	0.00000e+00	0.00000e+00	0.00000e+00	0.00000e+00	0.00000e+00	0.00000e+00	
Factor	1.00000e+00	1.00000e+00	1.00000e+00	1.00000e+00	1.00000e+00	1.00000e+00	1.00000e+00	1.00000e+00	1.00000e+00	1.00000e+00	1.00000e+00	1.00000e+00	1.00000e+00	1.00000e+00	1.00000e+00	1.00000e+00	1.00000e+00	1.00000e+00	1.00000e+00	1.00000e+00	1.00000e+00	1.00000e+00	1.00000e+00	1.00000e+00	1.00000e+00	1.00000e+00	1.00000e+00	1.00000e+00	1.00000e+00	1.00000e+00	1.00000e+00	1.00000e+00	X	X	X	X	X	X	X	X	X	X	X	X	X	X	X	X	

B = Detector Channel
Val Type	B-AC1	B-AC2	B-AC3	B-AC4	B-AC5	B-AC6	B-AC7	B-AC8	B-AC9	B-AC10	B-AC11	B-AC12	B-AC13	B-AC14	B-AC15	B-AC16	B-DC1	B-DC2	B-DC3	B-DC4	B-DC5	B-DC6	B-DC7	B-DC8	B-DC9	B-DC10	B-DC11	B-DC12	B-DC13	B-DC14	B-DC15	B-DC16	B-Ph1	B-Ph2	B-Ph3	B-Ph4	B-Ph5	B-Ph6	B-Ph7	B-Ph8	B-Ph9	B-Ph10	B-Ph11	B-Ph12	B-Ph13	B-Ph14	B-Ph15	B-Ph16	

Term	0.00000e+00	0.00000e+00	0.00000e+00	0.00000e+00	0.00000e+00	0.00000e+00	0.00000e+00	0.00000e+00	0.00000e+00	0.00000e+00	0.00000e+00	0.00000e+00	0.00000e+00	0.00000e+00	0.00000e+00	0.00000e+00	0.00000e+00	0.00000e+00	0.00000e+00	0.00000e+00	0.00000e+00	0.00000e+00	0.00000e+00	0.00000e+00	0.00000e+00	0.00000e+00	0.00000e+00	0.00000e+00	0.00000e+00	0.00000e+00	0.00000e+00	0.00000e+00	-6.59245e+01	-1.24734e+02	-1.31290e+02	-1.83070e+02	-4.71720e+01	-6.49150e+01	-1.56663e+02	-1.62015e+02	-3.94459e+01	-6.42214e+01	-1.71114e+02	-1.71480e+02	-1.80686e+02	-1.76770e+02	-5.03157e+01	-1.49850e+02	
Factor	1.94318e-05	1.90944e-04	4.49887e-05	1.63081e-01	1.59961e-06	1.69595e-06	1.94177e-01	5.42487e-02	1.28390e-06	1.65075e-06	1.08414e-01	3.13847e-02	2.95052e-02	9.61121e-03	1.53840e-06	1.41149e-02	5.54059e-06	6.76180e-06	1.88700e-06	8.26207e-02	7.18682e-08	7.45135e-08	9.21061e-02	2.75920e-02	7.18242e-08	7.41166e-08	5.30887e-02	1.54427e-02	1.51454e-02	4.92050e-03	7.23774e-08	6.95805e-03	X	X	X	X	X	X	X	X	X	X	X	X	X	X	X	X	



#DISTANCE SETTINGS
A = Detector Channel
A-1	A-2	A-3	A-4	A-5	A-6	A-7	A-8	A-9	A-10	A-11	A-12	A-13	A-14	A-15	A-16	

2.5000e+00	3.0000e+00	2.5000e+00	3.0000e+00	2.0000e+00	3.0000e+00	1.5000e+00	3.0000e+00	3.0000e+00	3.0000e+00	3.0000e+00	3.0000e+00	3.0000e+00	3.0000e+00	1.5000e+00	3.0000e+00	

B = Detector Channel
B-1	B-2	B-3	B-4	B-5	B-6	B-7	B-8	B-9	B-10	B-11	B-12	B-13	B-14	B-15	B-16	

1.0000e+01	1.0000e+01	1.0000e+01	1.4400e+00	1.0000e+01	1.0000e+01	1.5100e+00	1.9400e+00	1.0000e+01	1.0000e+01	1.9900e+00	2.4900e+00	2.4100e+00	2.9000e+00	1.0000e+01	2.9800e+00	




#DATA BEGINS
time	group	step	mark	flag	A-AC1	A-AC2	A-AC3	A-AC4	A-AC5	A-AC6	A-AC7	A-AC8	A-AC9	A-AC10	A-AC11	A-AC12	A-AC13	A-AC14	A-AC15	A-AC16	A-DC1	A-DC2	A-DC3	A-DC4	A-DC5	A-DC6	A-DC7	A-DC8	A-DC9	A-DC10	A-DC11	A-DC12	A-DC13	A-DC14	A-DC15	A-DC16	A-Ph1	A-Ph2	A-Ph3	A-Ph4	A-Ph5	A-Ph6	A-Ph7	A-Ph8	A-Ph9	A-Ph10	A-Ph11	A-Ph12	A-Ph13	A-Ph14	A-Ph15	A-Ph16	B-AC1	B-AC2	B-AC3	B-AC4	B-AC5	B-AC6	B-AC7	B-AC8	B-AC9	B-AC10	B-AC11	B-AC12	B-AC13	B-AC14	B-AC15	B-AC16	B-DC1	B-DC2	B-DC3	B-DC4	B-DC5	B-DC6	B-DC7	B-DC8	B-DC9	B-DC10	B-DC11	B-DC12	B-DC13	B-DC14	B-DC15	B-DC16	B-Ph1	B-Ph2	B-Ph3	B-Ph4	B-Ph5	B-Ph6	B-Ph7	B-Ph8	B-Ph9	B-Ph10	B-Ph11	B-Ph12	B-Ph13	B-Ph14	B-Ph15	B-Ph16	aux-1	digaux	

680.312	1	1	0	256	0.20305	0.33283	0.042849	0.40895	0.097658	0.25072	0.40221	0.292	0.31762	0.12928	0.065205	0.10132	0.26498	0.15182	0.26556	0.10986	-1.9333	-2.7479	-2.4208	-2.7583	-2.6083	-2.3937	-2.8146	-2.8125	-2.4	-2.9854	-2.5479	-2.4938	-2.8688	-2.4417	-2.6521	-2.7292	197.020	179.403	120.214	335.749	63.649	144.695	288.193	4.855	66.808	165.723	49.785	319.429	307.098	318.734	63.760	59.994	0.00020279	0.00035685	0.00015557	1136.3	1.9615e-06	5.4753e-06	1235.5	232.81	2.1017e-06	2.0437e-06	294.59	81.51	63.894	18.795	2.7455e-06	26.007	0.00047242	0.00052024	0.00014699	1116.9	5.7355e-06	5.6747e-06	1213.4	231.49	5.6954e-06	5.5885e-06	293.29	81.914	64.548	19.169	5.7302e-06	26.571	198.760	11.705	78.608	3.025	211.832	120.897	3.260	10.398	201.388	128.136	10.388	17.020	17.459	23.849	162.174	23.737	-8191	255	
680.408	1	1	0	0	0.22837	0.20971	0.094081	0.18167	0.18426	0.10933	0.28666	0.27318	0.29354	0.31957	0.063038	0.17836	0.37658	0.19722	0.18745	0.05983	-1.8729	-2.7438	-2.2854	-2.7375	-2.75	-2.3854	-2.9	-2.6188	-2.3917	-2.6958	-2.7062	-2.6312	-2.7833	-2.3167	-2.6813	-2.7438	330.987	125.650	197.029	0.288	4.884	285.671	330.807	144.859	237.628	230.469	135.507	343.890	65.604	17.156	100.980	157.527	0.00014726	0.00077748	7.0356e-05	1135.6	4.0767e-06	2.486e-06	1237.4	231.58	1.324e-06	5.4692e-07	295.56	80.638	64.126	18.807	3.6823e-06	26.145	0.00045748	0.0005217	0.00014635	1118.6	5.6484e-06	5.8928e-06	1216.1	231.62	5.7628e-06	5.7099e-06	293.57	81.949	64.545	19.148	5.5482e-06	26.582	197.299	93.154	97.887	3.052	218.451	186.345	3.299	10.694	229.020	225.637	9.938	17.231	17.496	24.604	172.639	23.806	-8191	255	
680.504	1	1	0	0	0.070369	0.063951	0.17044	0.10335	0.213	0.041382	0.29041	0.099528	0.016314	0.079069	0.31586	0.23696	0.18706	0.035938	0.32547	0.19654	-1.9417	-2.7458	-2.6937	-2.5375	-2.7042	-2.4167	-2.7562	-2.9625	-2.3917	-2.8604	-2.8271	-2.3792	-2.8021	-2.4083	-2.5875	-2.8708	231.328	213.610	126.842	239.468	30.922	216.598	345.045	213.491	169.236	22.937	28.591	310.810	336.887	198.117	83.980	89.414	0.00014026	0.00011179	7.7866e-05	1138.1	1.7615e-06	5.7887e-06	1234	232.01	4.3913e-06	3.4064e-06	294.07	81.15	63.719	18.867	3.0855e-06	26.231	0.00046752	0.00051829	0.00014315	1117.9	5.5535e-06	5.5913e-06	1212.7	230.94	5.5516e-06	5.6159e-06	293.63	81.823	64.423	19.129	5.5081e-06	26.627	186.571	113.881	66.385	2.870	122.235	118.751	3.241	10.596	192.011	159.166	10.434	17.603	17.971	24.333	81.067	23.942	-8191	255	
680.600	1	1	0	0	0.10994	0.094787	0.047351	0.27082	0.11625	0.064355	0.19771	0.37718	0.097331	0.29183	0.2174	0.22749	0.033764	0.15401	0.036912	0.13629	-1.7563	-2.6646	-2.5208	-2.6312	-2.6792	-2.5833	-2.8604	-2.725	-2.4021	-2.7125	-2.6	-2.3708	-2.9396	-2.3667	-2.4229	-2.85	189.867	171.062	58.605	292.218	8.340	178.028	10.647	334.997	312.301	24.109	2.115	254.604	192.305	22.071	8.858	127.370	0.00016319	0.00031294	9.0162e-05	1138.3	3.6908e-06	4.2153e-06	1230.8	232.67	1.737e-06	3.9917e-06	295.74	81.213	63.97	18.7	2.9325e-06	26.081	0.00044189	0.00049053	0.00014144	1117.1	5.5017e-06	5.4016e-06	1211	231.52	5.3439e-06	5.3098e-06	294.17	81.802	64.574	19.13	5.4732e-06	26.575	192.229	16.770	66.061	2.946	183.100	152.780	3.370	10.659	153.317	132.860	9.801	17.134	17.516	23.612	156.749	23.636	-8191	255	
680.719	1	1	0	0	0.098667	0.22133	0.098769	0.20099	0.088509	0.19278	0.1612	0.040137	0.10545	0.16711	0.18427	0.054908	0.085159	0.15061	0.092418	0.070368	-1.9917	-2.6167	-2.675	-2.3729	-2.9125	-2.4729	-2.8208	-2.8354	-2.3771	-2.6104	-2.7333	-2.3396	-2.825	-2.7146	-2.4875	-2.7604	102.192	152.711	36.597	78.674	47.033	135.112	304.090	274.697	55.369	76.490	291.144	84.259	291.117	311.803	225.514	186.490	0.00011857	0.00037437	0.0001172	1134.6	3.4222e-06	4.1269e-06	1232.2	232.38	2.8863e-06	5.6787e-06	293.24	80.408	64.115	18.709	5.3019e-06	26.224	0.00044156	0.0005044	0.00013654	1115.2	5.3024e-06	5.3484e-06	1211.7	230.94	5.3276e-06	5.3829e-06	292.92	81.616	64.608	19.123	5.4937e-06	26.599	204.855	79.133	81.145	3.051	226.158	151.813	3.197	10.601	210.894	193.244	9.969	17.115	17.786	23.826	140.819	23.503	-8191	255	
680.793	1	1	0	0	0.16988	0.24919	0.073649	0.18825	0.06526	0.16685	0.2426	0.14093	0.17381	0.29987	0.30597	0.20593	0.13435	0.041936	0.26394	0.026497	-1.9083	-2.6354	-2.6729	-2.2708	-2.9292	-2.6104	-2.7646	-2.8458	-2.4437	-2.5812	-2.9104	-2.5167	-2.6604	-2.6667	-2.2667	-2.8937	16.540	82.803	70.695	313.309	133.386	165.805	312.207	222.509	322.596	113.671	101.508	262.704	259.658	320.403	136.755	171.721	0.00017785	0.00040681	4.6548e-05	1132.8	3.5301e-06	4.6719e-06	1234.5	232.16	3.0817e-06	2.9249e-06	293.32	81.171	63.749	18.714	3.2483e-06	26.076	0.00044394	0.00049284	0.0001393	1116.9	5.4641e-06	5.4902e-06	1212.9	231.15	5.3831e-06	5.5084e-06	293.95	81.881	64.617	19.138	5.3796e-06	26.663	215.949	74.379	99.869	2.980	136.673	104.234	3.358	10.627	207.509	171.551	9.762	17.397	18.045	24.102	178.774	23.914	-8191	255	
680.889	1	1	0	0	0.047347	0.10863	0.20514	0.069988	0.10996	0.073308	0.14632	0.15602	0.08663	0.11499	0.066025	0.12402	0.046279	0.33328	0.22478	0.064806	-2.0563	-2.5062	-2.85	-2.6458	-2.7479	-2.4292	-2.6562	-2.9104	-2.4458	-2.5271	-2.9083	-2.1188	-2.6813	-2.8396	-2.4667	-2.7333	232.657	158.802	327.882	-3.318	32.667	80.715	256.633	342.574	301.286	162.706	284.663	331.586	168.265	347.615	274.066	105.720	0.00012523	0.00037898	0.00011739	1131.9	2.3631e-06	5.1641e-06	1229.8	232.29	2.7875e-06	3.4216e-06	294.14	80.86	64.166	18.681	1.2899e-06	26.041	0.00045638	0.00051333	0.00014418	1115.6	5.5759e-06	5.6237e-06	1211.6	231.75	5.57e-06	5.6285e-06	293.43	81.712	64.651	19.094	5.5376e-06	26.604	209.463	138.376	105.996	2.824	205.992	133.028	3.218	10.350	212.964	152.144	9.721	17.388	17.991	23.983	142.846	23.883	-8191	255	
680.985	1	1	0	0	0.2739	0.20628	0.24766	0.15818	0.036701	0.078696	0.23089	0.38669	0.15317	0.15587	0.05078	0.20145	0.17673	0.078806	0.068046	0.12059	-2.125	-2.5375	-2.6437	-2.5687	-2.6188	-2.6854	-2.4104	-2.9313	-2.6	-2.2188	-2.9167	-2.2313	-2.6167	-2.7562	-2.2708	-3.0312	350.581	237.176	148.257	227.131	201.159	267.698	311.263	301.597	21.434	29.746	303.866	46.974	56.475	10.450	289.354	40.101	9.6848e-05	0.00052489	5.6358e-05	1135.4	2.2344e-06	1.2574e-06	1231.5	232.23	3.2344e-06	3.6027e-06	293.7	80.553	63.787	18.852	1.7215e-06	26.144	0.00045284	0.00051192	0.00014176	1116.6	5.5436e-06	5.5587e-06	1212	231.64	5.5266e-06	5.703e-06	293.2	81.76	64.674	19.162	5.6178e-06	26.628	201.105	45.143	40.181	2.959	121.431	137.646	3.284	10.449	151.873	176.512	10.143	17.837	17.922	24.016	347.447	23.349	-8191	255	
681.104	1	1	0	0	0.16317	0.095971	0.19904	0.13549	0.16477	0.26144	0.098581	0.30566	0.012466	0.17285	0.18536	0.22498	0.15804	0.035277	0.1263	0.095518	-2.0583	-2.475	-2.8104	-2.5604	-2.425	-2.7083	-2.3958	-2.7	-2.5771	-2.2313	-3.0604	-2.4938	-2.5938	-2.6396	-2.375	-2.7458	193.848	28.655	347.515	250.023	133.973	167.551	182.536	285.264	115.272	159.035	232.968	335.728	93.986	269.010	-3.918	252.045	0.00010111	0.00020562	5.9731e-05	1132.4	1.5193e-06	2.5282e-06	1232.9	233.53	3.1521e-06	2.8483e-06	295.17	80.656	63.553	18.726	1.9798e-06	26.168	0.00046168	0.00054059	0.00014816	1116.6	5.8414e-06	5.9258e-06	1212.7	232.15	5.9394e-06	5.8858e-06	294.44	81.965	64.585	19.196	5.9206e-06	26.682	213.677	71.270	99.339	3.020	262.311	282.936	3.301	10.583	193.867	156.438	10.148	17.507	17.615	24.244	149.593	23.777	-8191	255	
681.200	1	1	0	0	0.16256	0.11878	0.18954	0.2706	0.30257	0.19871	0.091774	0.087861	0.19918	0.28484	0.31869	0.281	0.33504	0.18897	0.21667	0.11392	-2.3604	-2.3187	-2.7833	-2.7542	-2.4729	-2.8458	-2.5354	-2.9292	-2.8917	-2.4375	-2.6583	-2.3208	-2.3625	-2.8854	-2.45	-2.6813	226.686	289.483	14.034	7.530	153.620	-0.988	328.206	-2.888	331.612	192.227	340.352	310.942	310.944	123.598	2.566	187.925	0.00014038	0.0005494	0.00019811	1135.2	2.7908e-06	1.8832e-06	1237.5	233.33	3.0958e-06	4.1756e-06	294.47	81.249	64.106	18.717	2.5987e-06	26.082	0.00049218	0.00054463	0.00015741	1118.2	6.0471e-06	5.9454e-06	1213.6	232.61	5.8646e-06	5.9113e-06	294.22	81.988	64.794	19.187	5.7814e-06	26.598	207.155	82.204	70.828	2.983	161.004	118.697	3.370	10.488	180.790	168.987	10.517	17.055	17.751	23.947	214.113	23.844	-8191	255	
681.296	1	1	0	0	0.18845	0.18903	0.30514	0.14318	0.19236	0.22754	0.35215	0.18338	0.17903	0.18508	0.12958	0.081172	0.075663	0.066175	0.16444	0.14819	-2.1875	-2.2375	-2.5833	-2.5938	-2.3583	-2.9354	-2.5458	-2.6792	-2.6437	-2.25	-2.725	-2.7188	-2.5563	-2.9062	-2.4542	-2.5354	247.030	59.980	234.260	0.435	263.759	63.431	293.972	327.006	132.561	162.972	285.192	33.233	284.063	11.376	133.305	296.593	0.00012501	0.00026357	0.00010427	1133.5	3.0105e-06	5.0849e-06	1233.8	232.86	2.7195e-06	3.41e-06	296.07	80.713	64.126	18.814	4.4313e-06	26.142	0.00047647	0.00052763	0.00015008	1116.4	5.8105e-06	5.8999e-06	1212.9	232.52	5.7679e-06	5.7292e-06	294.62	81.883	64.839	19.164	5.7489e-06	26.6	209.367	66.205	44.882	3.119	270.689	175.766	3.128	10.726	149.386	142.630	10.396	17.243	17.953	24.068	188.743	23.645	-8191	255	
681.392	1	1	0	0	0.074817	0.095573	0.15143	0.11388	0.30332	0.035448	0.051371	0.1264	0.17629	0.016601	0.11133	0.20104	0.063034	0.12576	0.083931	0.11123	-2.2292	-2.2375	-2.7208	-2.7396	-2.3604	-2.6562	-2.8896	-2.6188	-2.8771	-2.1667	-2.8708	-2.6479	-2.3187	-2.7083	-2.5146	-2.5104	163.003	29.742	81.092	308.788	223.073	248.351	-6.614	73.085	44.544	176.219	279.089	43.558	301.761	349.170	176.058	312.105	0.0001575	0.0005912	6.5217e-05	1138	1.7472e-06	5.0267e-06	1235.5	233.13	1.4314e-06	5.9827e-06	294	80.45	63.947	18.687	3.7868e-06	26.187	0.00047141	0.00052729	0.00014787	1117.5	5.7854e-06	5.7619e-06	1212.9	232.42	5.6244e-06	5.8713e-06	293.97	81.825	64.684	19.17	5.654e-06	26.594	210.897	86.120	157.739	2.983	223.377	149.708	3.079	10.633	236.068	147.313	10.422	17.526	17.848	23.766	215.696	23.510	-8191	255	
681.488	1	1	0	0	0.24748	0.073508	0.27408	0.28143	0.19955	0.13313	0.26316	0.094229	0.31581	0.15876	0.16999	0.11756	0.14767	0.039646	0.2262	0.12202	-2.2458	-2.2042	-2.4167	-2.7375	-2.3354	-2.5125	-2.7562	-2.2396	-2.8083	-2.3646	-2.5854	-2.7562	-2.3229	-2.9271	-2.55	-2.3729	67.407	88.279	86.691	296.864	127.782	335.210	288.736	92.096	224.051	80.358	9.124	152.899	-6.703	88.733	128.382	282.850	0.00011419	0.00053513	0.00014621	1135.7	6.5442e-06	4.2724e-06	1235.1	233.52	3.8377e-06	3.215e-06	294.39	80.849	63.683	18.778	3.236e-06	26.105	0.00047065	0.00053251	0.00014535	1118.4	5.8017e-06	5.8673e-06	1213.4	232.36	5.6337e-06	5.785e-06	294.46	81.827	64.515	19.15	5.8868e-06	26.577	205.495	91.154	62.113	2.924	198.903	132.828	3.136	10.548	214.893	98.125	10.086	17.503	17.687	23.854	176.921	23.733	-8191	255	
681.585	1	1	0	0	0.27604	0.12701	0.09357	0.3762	0.090258	0.053968	0.11714	0.26973	0.09231	0.061169	0.2814	0.26397	0.13152	0.25462	0.18489	0.15824	-2.2354	-2.4604	-2.5771	-2.825	-2.4417	-2.5896	-2.7354	-2.3583	-2.6188	-2.4125	-2.5812	-2.9938	-2.5521	-2.6958	-2.6896	-2.1896	64.717	4.437	114.266	303.979	47.067	334.207	14.571	280.949	117.215	93.475	223.612	297.432	59.385	24.138	279.409	166.462	0.00013192	0.00030298	8.5098e-05	1130.8	4.6112e-06	3.988e-06	1236	233.71	1.1726e-06	3.2572e-06	295	80.926	63.631	18.77	3.855e-06	26.043	0.00047183	0.00054204	0.00015119	1115.1	5.8773e-06	5.9921e-06	1214.4	232.81	5.7542e-06	6.0297e-06	294.75	81.864	64.77	19.144	5.983e-06	26.66	196.608	52.851	82.182	2.732	184.294	186.589	3.210	10.651	116.322	86.149	10.590	17.138	18.000	24.252	125.195	23.983	-8191	255	
681.705	1	1	0	0	0.135	0.11945	0.2183	0.28399	0.27792	0.08406	0.10351	0.16581	0.075701	0.21194	0.1497	0.30131	0.32712	0.15182	0.097286	0.17828	-2.2771	-2.3063	-2.4104	-2.9417	-2.4333	-2.7146	-2.7521	-2.5125	-2.8333	-2.4104	-2.5479	-2.8937	-2.4792	-2.625	-2.5708	-2.3146	7.998	108.776	296.592	343.886	321.356	58.892	11.267	207.494	104.963	0.396	22.602	238.725	24.990	69.003	201.490	319.103	0.00016825	0.00038078	9.6273e-06	1133.9	4.3227e-06	2.2907e-06	1237.1	232.32	2.1503e-06	2.4213e-06	294.55	80.75	63.897	18.608	3.5941e-06	26.072	0.00048973	0.00055726	0.00015251	1118.2	6.03e-06	6.0128e-06	1215.9	232.4	5.7886e-06	5.9401e-06	294.34	82.03	64.704	19.142	5.8472e-06	26.614	201.758	48.803	92.977	3.146	242.352	46.783	3.239	10.585	255.484	161.176	10.044	17.345	17.796	24.303	197.679	23.549	-8191	255	
681.800	1	1	0	0	0.20454	0.16835	0.1382	0.15974	0.15676	0.20451	0.088341	0.12129	0.14649	0.071461	0.080473	0.24734	0.1074	0.2791	0.10321	0.15792	-2.1917	-2.4813	-2.3375	-2.9188	-2.3958	-2.5854	-2.7729	-2.5812	-2.8	-2.6937	-2.4521	-2.9146	-2.5292	-2.5542	-2.5583	-2.4562	281.882	9.336	237.920	236.695	101.327	195.146	283.766	275.542	160.121	79.546	250.139	310.026	328.045	302.010	200.097	28.314	0.00014809	0.00081895	0.00013574	1143.7	3.3238e-06	1.292e-06	1240.5	232.64	2.2608e-06	1.9504e-07	295.43	80.251	63.815	18.74	3.5722e-06	26.251	0.0004784	0.00054094	0.00015006	1120.8	5.9469e-06	5.9712e-06	1216.9	232.77	5.8573e-06	6.1301e-06	294.61	81.788	64.661	19.268	5.9779e-06	26.622	203.154	70.283	27.964	2.854	211.881	167.099	3.417	10.608	122.516	192.056	9.911	17.430	17.532	24.228	220.432	23.169	-8191	255	
681.896	1	1	0	0	0.10463	0.15456	0.14441	0.2266	0.16165	0.33552	0.11827	0.045671	0.17306	0.19648	0.3346	0.12946	0.14383	0.20455	0.24949	0.15311	-2.1583	-2.6021	-2.2896	-2.8625	-2.4062	-2.5375	-2.9854	-2.4354	-2.6688	-2.5729	-2.4521	-2.8354	-2.4083	-2.3542	-2.7271	-2.5479	347.189	23.147	105.888	251.007	107.196	171.120	227.600	278.039	150.586	86.352	310.011	102.645	0.236	197.496	124.505	49.028	0.00018119	0.00020976	8.5901e-05	1132.9	1.9877e-06	1.4665e-06	1242.7	233.25	2.1059e-06	2.3606e-06	296.11	80.911	64.453	18.859	6.0267e-06	26.176	0.00050238	0.00055155	0.00015599	1120.1	6.1555e-06	6.1635e-06	1217.5	232.87	6.0389e-06	6.0374e-06	295.2	82.132	65.024	19.257	6.2193e-06	26.648	198.550	177.829	100.255	2.899	189.433	89.512	3.416	10.462	160.373	138.960	10.173	17.340	17.796	24.301	190.959	23.784	-8191	255	
681.992	1	1	0	0	0.1109	0.068736	0.3107	0.088085	0.10161	0.044817	0.15232	0.1045	0.27673	0.090399	0.1439	0.13073	0.082333	0.074349	0.33907	0.18129	-2.1854	-2.6688	-2.4083	-2.7146	-2.4813	-2.2792	-2.8646	-2.6688	-2.4125	-2.6937	-2.3333	-2.7104	-2.5104	-2.3854	-2.9521	-2.3812	90.536	169.818	177.157	40.651	34.199	252.772	110.864	148.086	-3.924	85.904	105.860	285.257	74.138	12.030	32.916	311.300	0.00014274	0.00025568	8.0399e-05	1137.8	2.5836e-06	3.8266e-06	1239.5	233.85	1.2188e-06	2.3357e-06	295.36	81.222	64.106	18.868	2.7807e-06	26.142	0.00049995	0.0005625	0.00015874	1123.5	6.2214e-06	6.2492e-06	1219	233.55	6.0765e-06	6.1623e-06	295.48	82.253	65.122	19.332	6.2303e-06	26.842	205.947	187.976	3.176	3.064	153.042	215.790	3.262	10.668	163.807	102.018	10.278	17.477	17.373	24.184	155.057	23.747	-8191	255	
682.088	1	1	0	0	0.09867	0.22174	0.091149	0.050865	0.048306	0.39702	0.2651	0.06384	0.27874	0.24665	0.2641	0.14385	0.22701	0.17902	0.10783	0.097929	-2.2521	-2.7917	-2.3479	-2.8333	-2.6521	-2.275	-3.1937	-2.4604	-2.6125	-2.8688	-2.3708	-2.5812	-2.7104	-2.5333	-2.9021	-2.6979	135.598	4.745	211.667	292.836	345.774	224.838	326.564	17.143	316.519	19.296	250.668	263.856	338.199	15.843	276.278	172.641	0.00015153	0.00036174	0.0001161	1141.5	2.5068e-06	5.821e-06	1242.1	235.31	4.486e-06	2.4138e-06	297.19	80.961	64.065	18.816	2.9681e-06	26.332	0.00050434	0.00058537	0.00016052	1123.7	6.2967e-06	6.2978e-06	1221.2	234.1	6.2182e-06	6.3116e-06	296.8	82.323	65.024	19.362	6.2463e-06	26.847	211.411	136.449	33.937	2.819	205.687	201.659	3.259	10.536	197.084	256.889	10.055	17.243	17.657	23.562	280.366	23.867	-8191	255	
682.184	1	1	0	0	0.11092	0.13556	0.1779	0.1159	0.17982	0.12526	0.28542	0.14455	0.13219	0.12616	0.028426	0.042224	0.15997	0.026116	0.081047	0.087077	-2.1437	-2.8042	-2.6167	-2.7458	-2.7792	-2.4542	-2.8937	-2.7896	-2.5187	-2.8542	-2.3208	-2.7958	-2.7375	-2.3792	-2.8438	-2.2792	18.224	289.074	95.025	47.695	284.283	220.034	328.762	347.336	344.248	224.483	343.106	-5.576	100.243	312.961	94.665	-1.716	0.0001515	0.00026071	4.4199e-05	1144.4	4.9612e-06	8.1839e-06	1246	235.42	3.0676e-06	3.69e-06	295.64	81.5	64.37	18.861	4.5206e-06	26.232	0.00051809	0.00058213	0.00016199	1125.2	6.381e-06	6.5817e-06	1223.3	234.67	6.6609e-06	6.59e-06	296.36	82.757	65.387	19.353	6.4018e-06	26.881	222.010	86.223	334.632	2.981	191.757	139.866	3.212	10.590	208.868	170.746	10.405	17.224	17.712	23.919	189.572	23.527	-8191	255	
682.280	1	1	0	0	0.12508	0.14462	0.18686	0.31715	0.064591	0.15736	0.22879	0.21938	0.20409	0.096243	0.096641	0.18186	0.43822	0.059382	0.18077	0.014793	-2.2896	-2.7458	-2.1562	-2.8354	-2.8646	-2.3667	-2.9188	-2.5229	-2.5521	-2.9854	-2.5583	-2.7417	-2.7208	-2.3125	-2.7229	-2.7625	82.833	138.747	116.734	351.573	-1.499	48.814	280.213	299.215	316.610	303.278	351.036	320.760	255.092	331.995	63.107	179.535	0.0001546	0.00010698	0.0001449	1149	1.8082e-06	3.4731e-06	1244.2	235.29	3.0914e-06	5.9721e-06	298.66	81.39	64.99	19.015	3.9943e-06	26.349	0.00052536	0.00060329	0.00016668	1127.6	6.6143e-06	6.7888e-06	1226.2	235.42	6.6119e-06	6.6896e-06	296.91	82.787	65.475	19.448	6.6969e-06	26.903	204.420	162.985	78.296	2.961	201.520	179.389	3.304	10.554	129.808	108.247	10.158	17.058	17.377	24.112	194.564	23.771	-8191	255	
682.376	1	1	0	0	0.20847	0.075331	0.19481	0.27921	0.25963	0.031148	0.089493	0.19433	0.19245	0.15395	0.24891	0.095923	0.087126	0.13509	0.21437	0.21703	-1.9688	-2.8875	-2.5354	-2.8438	-2.825	-2.4146	-2.8354	-2.7042	-2.4604	-3.0375	-2.4688	-2.5583	-2.9062	-2.4792	-2.6667	-2.8125	346.808	31.620	229.756	303.445	246.642	333.902	270.369	313.981	318.349	127.650	318.889	207.045	277.722	74.603	39.283	218.119	0.00014498	0.00054716	0.00017551	1144	5.9545e-06	3.6255e-06	1243.4	235.68	3.7966e-06	2.4489e-06	297.88	81.898	64.305	18.968	2.5075e-06	26.289	0.000552	0.00062562	0.00017707	1128.3	6.8663e-06	6.7907e-06	1224.1	235.77	6.8137e-06	6.7664e-06	297.85	82.832	65.486	19.482	6.87e-06	26.935	212.490	104.678	31.247	2.919	201.779	197.148	3.290	10.623	238.084	126.460	10.277	17.584	17.549	23.935	186.424	23.575	-8191	255	
682.497	1	1	0	0	0.072254	0.12888	0.22595	0.15822	0.36659	0.18524	0.23574	0.22376	0.16427	0.040706	0.12785	0.16657	0.21127	0.045379	0.11474	0.10618	-2.1437	-2.6896	-2.6146	-2.6333	-2.8542	-2.2542	-2.7333	-2.9354	-2.3542	-2.9729	-2.7833	-2.6958	-2.7229	-2.4313	-2.6396	-2.7938	274.707	8.299	236.250	3.500	230.932	57.890	12.556	266.124	281.841	298.015	315.158	191.508	172.019	32.007	161.401	312.677	0.00018098	0.00047448	8.9699e-05	1147.4	2.5711e-06	8.1397e-06	1249.4	237.51	3.0342e-06	1.5446e-06	297.05	81.817	64.638	18.819	4.3823e-06	26.361	0.00056841	0.00063824	0.00017933	1129.5	6.9218e-06	7.1559e-06	1227.5	236.59	6.9566e-06	7.1867e-06	297.53	83.123	65.728	19.469	6.8866e-06	26.992	212.725	101.902	125.664	2.802	118.584	162.673	3.249	10.589	244.290	226.136	10.281	17.404	17.768	23.906	198.424	23.629	-8191	255	
682.593	1	1	0	0	0.10411	0.06967	0.28031	0.30881	0.18902	0.20421	0.072737	0.14223	0.19165	0.15765	0.18901	0.13348	0.13105	0.048536	0.055891	0.18768	-1.8792	-2.575	-2.5187	-2.4479	-2.7917	-2.4958	-2.7083	-2.9625	-2.5896	-2.8271	-2.7458	-2.5812	-2.8583	-2.5708	-2.4313	-2.8542	284.749	217.208	131.837	352.157	91.898	65.860	-2.656	295.936	156.561	290.842	3.754	150.289	306.436	275.752	194.931	17.391	0.00012895	0.00015477	0.000153	1147.6	2.4541e-06	4.7038e-06	1245.3	237.21	2.9502e-06	4.077e-06	297.67	81.607	64.286	18.936	5.895e-06	26.352	0.00055352	0.00062044	0.00017614	1130.9	6.505e-06	6.7543e-06	1228.1	235.89	6.5194e-06	6.5643e-06	298.14	82.773	65.431	19.452	6.7317e-06	26.965	209.947	105.172	93.553	2.900	230.822	106.253	3.401	10.566	169.282	158.139	10.150	17.477	17.733	24.203	188.241	23.677	-8191	255	
682.665	1	1	0	0	0.21972	0.31776	0.2416	0.1399	0.14005	0.045181	0.17789	0.35986	0.018486	0.33091	0.37557	0.14664	0.12928	0.14726	0.18062	0.10663	-1.8646	-2.5146	-2.8208	-2.7125	-2.8021	-2.5458	-2.7167	-2.9583	-2.375	-2.675	-2.8458	-2.5375	-2.9104	-2.8438	-2.4146	-2.7979	311.231	244.459	308.022	273.715	-2.266	275.077	213.967	313.843	218.639	173.054	302.532	232.948	237.780	320.086	219.180	279.144	0.00014043	0.00030951	0.00014563	1150	3.7978e-06	3.9818e-06	1246.9	236.63	3.8346e-06	2.7014e-06	299.11	81.608	64.947	19.038	4.6217e-06	26.442	0.00054779	0.00062433	0.00017454	1130.3	6.957e-06	6.9105e-06	1228.8	236.47	6.7232e-06	6.8252e-06	298.87	83.083	65.88	19.526	6.7174e-06	27.06	193.938	53.570	97.590	2.857	227.971	189.559	3.430	10.397	210.802	52.727	9.907	17.249	17.559	24.178	159.922	23.509	-8191	255	
682.786	1	1	0	0	0.062896	0.20063	0.19932	0.29595	0.053637	0.23559	0.32553	0.074268	0.063036	0.17381	0.11058	0.12895	0.3928	0.1957	0.19224	0.29735	-2.2062	-2.675	-2.5917	-2.4917	-2.825	-2.7479	-2.5563	-2.9208	-2.3187	-2.7125	-2.7771	-2.4083	-2.7687	-2.6417	-2.6271	-2.7313	294.425	16.359	119.018	330.202	47.917	249.514	290.337	238.718	133.227	292.842	33.188	282.785	126.589	152.384	153.388	321.310	0.00011206	0.00030598	0.00020241	1151.1	5.6173e-06	2.9413e-06	1254.6	238.97	1.1111e-06	1.113e-06	299.42	81.7	65.065	19.031	1.1115e-06	26.537	0.00055416	0.00063506	0.00017728	1134	7.1187e-06	7.2519e-06	1232.8	238.08	7.2592e-06	7.3148e-06	299.76	83.301	66.087	19.599	6.9001e-06	27.177	210.019	94.760	55.012	2.844	218.655	31.653	3.379	10.569	139.441	24.897	9.769	17.113	17.506	23.893	182.083	23.876	-8191	255	
682.882	1	1	0	0	0.10642	0.17672	0.097301	0.28364	0.14902	0.23435	0.073781	0.24643	0.16725	0.21601	0.28592	0.18662	0.21979	0.11585	0.43777	0.28147	-2.0854	-2.7021	-2.6729	-2.6042	-2.7479	-2.4188	-2.4771	-2.9813	-2.5833	-2.6188	-2.6813	-2.5021	-2.6458	-2.9979	-2.4521	-2.9437	137.144	144.657	13.883	324.082	252.328	134.983	292.189	328.006	66.106	62.056	317.791	331.606	290.475	76.325	266.793	188.089	0.00016065	0.00035919	4.7006e-05	1150	2.4056e-06	1.5863e-06	1253	238.37	3.1411e-06	3.0227e-07	298.22	82.389	64.971	18.91	3.2402e-06	26.602	0.0005486	0.00062182	0.0001712	1135.5	6.533e-06	6.6e-06	1231.2	237.68	6.4637e-06	6.4072e-06	299.29	83.382	65.836	19.43	6.4618e-06	27.117	195.052	82.886	68.317	2.922	174.809	156.301	3.274	10.598	198.616	23.553	10.094	17.263	17.792	23.980	167.515	23.438	-8191	255	
682.976	1	1	0	0	0.08888	0.11056	0.17503	0.079598	0.38934	0.19357	0.11784	0.15881	0.077496	0.16201	0.12646	0.31145	0.17909	0.036627	0.072786	0.19361	-2.25	-2.3312	-2.9042	-2.6208	-2.6625	-2.7729	-2.5479	-2.9708	-2.5667	-2.5167	-3.0354	-2.3937	-2.7104	-2.8792	-2.6479	-2.7729	60.429	229.320	22.454	48.769	124.022	220.468	66.676	298.924	337.570	155.614	296.427	105.668	222.075	311.955	249.193	297.978	0.00016139	0.00062335	9.5967e-05	1152.4	1.5262e-06	4.3048e-07	1254	238.23	4.7973e-06	1.3536e-06	299.32	82.111	64.647	19.002	1.8619e-06	26.622	0.00052737	0.00061142	0.00016653	1134.9	6.7349e-06	6.73e-06	1231.1	237.71	6.7708e-06	7.0124e-06	298.89	83.342	65.766	19.511	6.9332e-06	27.099	205.225	109.852	20.865	2.925	234.595	75.027	3.132	10.497	205.596	109.791	9.966	17.257	17.654	24.512	174.483	23.461	-8191	255	
683.074	1	1	0	0	0.066542	0.11998	0.21809	0.15226	0.053281	0.043762	0.26534	0.22989	0.063717	0.17203	0.096632	0.10987	0.21379	0.073573	0.26697	0.13445	-2.0875	-2.5646	-2.85	-2.6125	-2.7396	-2.7875	-2.5104	-2.8083	-2.8521	-2.5062	-2.7958	-2.75	-2.7188	-2.9271	-2.45	-2.6396	37.568	311.401	54.376	259.153	298.466	299.232	271.591	37.612	176.088	287.056	62.049	302.446	276.888	233.437	104.784	267.810	0.00014163	0.00018812	8.6173e-05	1148.6	5.2927e-06	5.1533e-06	1253.2	238.44	3.0076e-06	3.0255e-06	298.13	81.918	65.156	19.013	4.3949e-06	26.399	0.00056835	0.00065691	0.00018116	1134.5	7.1551e-06	7.1244e-06	1232.7	237.95	7.0796e-06	7.2945e-06	300.03	83.301	65.987	19.563	7.1743e-06	27.135	206.760	202.823	35.726	2.990	241.543	136.686	3.323	10.562	248.168	210.219	10.168	17.628	17.734	23.941	147.006	23.342	-8191	255	
683.193	1	1	0	0	0.21891	0.32106	0.18513	0.22518	0.14159	0.021587	0.063039	0.14234	0.20164	0.095549	0.10137	0.076169	0.15419	0.16188	0.097713	0.14017	-2.3396	-2.4208	-2.7812	-2.7021	-2.6333	-2.6646	-2.5417	-2.7583	-2.8146	-2.325	-2.9208	-2.6188	-2.4875	-2.8396	-2.3042	-2.6708	342.526	319.349	127.968	54.482	71.350	252.790	13.838	326.566	205.643	95.632	81.572	125.750	159.674	197.735	258.455	165.666	9.9029e-05	0.00028903	9.9187e-05	1153.2	3.2685e-06	4.2175e-06	1249.6	238.03	2.2544e-06	2.7498e-06	299.13	82.103	64.793	19.076	2.1166e-06	26.336	0.00057062	0.00066795	0.00018182	1135.9	6.9738e-06	6.9703e-06	1232.4	237.98	6.65e-06	6.6827e-06	299.65	83.255	65.799	19.521	6.5808e-06	27.07	194.251	77.772	72.199	3.062	161.023	187.832	3.198	10.605	242.511	139.141	9.803	17.504	17.510	23.442	129.441	23.287	-8191	255	
683.289	1	1	0	0	0.12913	0.087061	0.34607	0.079409	0.16602	0.081281	0.37269	0.037935	0.1893	0.12129	0.068828	0.12615	0.13767	0.13186	0.13862	0.2423	-2.1562	-2.5	-2.9104	-2.7396	-2.4792	-2.8312	-2.5667	-2.7229	-2.6479	-2.4583	-2.8458	-2.8958	-2.5208	-3.0083	-2.4521	-2.6354	74.522	55.771	184.432	203.224	182.859	234.736	306.096	29.819	94.864	146.542	136.828	172.617	52.923	300.064	126.934	50.723	0.00015473	0.00023282	0.00011747	1152.6	3.4848e-06	5.4557e-06	1262.7	237.08	4.0507e-07	3.7956e-07	302.28	81.984	65.156	18.828	1.5047e-06	26.525	0.00054832	0.00063984	0.00017592	1136.4	6.9344e-06	7.0665e-06	1237.4	237.36	7.0404e-06	6.9867e-06	300.89	83.203	66.011	19.473	6.7542e-06	27.073	203.519	86.140	113.359	2.949	196.667	160.300	3.174	10.475	59.278	130.812	10.115	17.107	17.743	24.098	189.127	23.707	-8191	255	
683.385	1	1	0	0	0.08058	0.053732	0.26547	0.19735	0.10869	0.23261	0.14208	0.34888	0.096074	0.23635	0.19148	0.27023	0.21858	0.20492	0.10714	0.16398	-2.4521	-2.225	-2.9333	-2.5417	-2.4208	-2.8521	-2.6604	-2.7438	-2.7479	-2.3333	-2.6396	-2.7146	-2.3833	-2.8688	-2.5583	-2.5917	13.660	339.462	351.897	35.674	-6.138	42.205	262.269	313.628	260.701	247.409	24.230	191.337	312.441	294.631	346.865	344.108	0.00011022	0.00066926	8.9105e-05	1156.7	1.719e-06	3.7926e-06	1252.6	237.5	2.7025e-06	2.048e-06	301.94	82.218	65.013	19.211	2.0847e-06	26.576	0.00055499	0.00062668	0.00017353	1138.9	6.774e-06	6.8121e-06	1235.3	238.08	6.9056e-06	6.9574e-06	300.6	83.263	66.05	19.657	6.9864e-06	27.154	200.039	91.013	96.397	2.773	267.442	151.405	3.266	10.451	271.616	54.465	10.192	17.141	17.584	23.918	217.216	23.499	-8191	255	
683.481	1	1	0	0	0.20248	0.24288	0.19317	0.17262	0.27934	0.16833	0.28559	0.040366	0.14	0.26846	0.089942	0.4446	0.23658	0.031058	0.34065	0.13802	-2.4146	-2.3708	-2.7521	-2.8479	-2.2396	-2.9208	-2.6958	-2.6063	-2.8333	-2.475	-2.6146	-2.8708	-2.4708	-2.8396	-2.6437	-2.5333	175.704	61.660	248.425	287.141	135.777	74.130	295.383	128.685	198.023	18.910	244.988	346.813	84.367	103.940	79.896	57.403	0.00014317	0.00059569	0.00010551	1154.6	1.222e-06	1.8253e-06	1248.2	239.71	2.8621e-06	5.777e-06	301.06	82.133	64.989	19.064	3.2396e-06	26.743	0.00058149	0.00066061	0.00018127	1136.3	7.0582e-06	7.1656e-06	1234.6	238.72	7.0078e-06	7.1728e-06	300.55	83.521	66.141	19.641	7.0176e-06	27.213	187.659	61.073	283.442	2.817	238.442	187.120	3.350	10.429	238.417	120.105	10.197	17.191	17.974	24.270	267.032	23.418	-8191	255	
683.577	1	1	0	0	0.42738	0.093656	0.24172	0.26398	0.12245	0.17037	0.31752	0.16605	0.22311	0.12018	0.21404	0.19616	0.15754	0.16393	0.12509	0.040167	-2.1479	-2.3125	-2.5333	-2.8563	-2.4062	-2.7458	-2.8146	-2.5021	-2.9146	-2.4479	-2.5187	-2.7896	-2.4062	-2.8083	-2.7854	-2.4	195.663	228.843	2.948	315.649	150.712	218.561	330.554	297.768	310.033	68.141	144.240	161.123	333.574	124.350	122.830	300.339	0.00016572	0.00050712	8.9497e-05	1158.4	8.2995e-07	3.4659e-06	1255.6	239.06	3.3401e-06	2.8963e-06	302.04	82.605	65.32	18.969	2.4565e-06	26.433	0.00056796	0.0006518	0.00018337	1137.6	7.0022e-06	7.3071e-06	1236.6	238.78	7.0988e-06	7.3692e-06	301.18	83.752	66.214	19.622	7.1732e-06	27.1	214.130	134.846	31.999	2.803	87.365	162.384	3.093	10.576	153.110	126.315	10.174	17.511	17.847	23.717	103.320	23.540	-8191	255	
683.674	1	1	0	0	0.15667	0.18032	0.25901	0.33698	0.25174	0.10436	0.10209	0.16282	0.13677	0.16597	0.21135	0.18327	0.18872	0.13062	0.11963	0.19141	-2.4167	-2.4917	-2.6583	-3.0833	-2.3771	-2.8229	-2.7562	-2.5229	-2.7875	-2.4208	-2.5208	-2.8271	-2.6188	-2.7729	-2.6875	-2.5083	44.457	198.851	176.606	-3.675	272.276	321.686	195.683	-4.743	17.906	164.733	329.438	309.124	47.053	184.635	-0.091	187.360	0.00013583	0.00048382	5.867e-05	1150.8	5.4429e-06	3.1585e-06	1255.2	239.01	3.2034e-06	3.2243e-06	300.72	82.365	64.915	19.13	4.9481e-06	26.382	0.00058108	0.00066402	0.00018503	1136.7	7.1774e-06	7.2483e-06	1235.9	238.45	6.9987e-06	7.2381e-06	301.51	83.619	66.252	19.659	6.9969e-06	27.223	192.110	82.905	79.536	2.924	184.704	155.769	3.194	10.568	164.400	162.530	10.397	17.077	17.515	23.835	170.575	23.521	-8191	255	
683.794	1	1	0	0	0.27832	0.13539	0.10772	0.21838	0.17642	0.13869	0.19459	0.24306	0.14842	0.14892	0.085284	0.11044	0.26866	0.12509	0.058577	0.37812	-2.4229	-2.5438	-2.4521	-2.8396	-2.425	-2.6542	-2.9375	-2.475	-2.7896	-2.5438	-2.5458	-2.9833	-2.6833	-2.6625	-2.9021	-2.4583	97.391	150.339	18.215	316.733	208.815	37.747	233.620	267.919	148.513	193.667	351.969	342.596	351.352	59.686	32.273	4.478	0.00015218	0.00024962	0.00010662	1155.2	5.1905e-06	1.4772e-06	1258.1	239.24	7.3823e-06	2.875e-06	299.93	82.46	65.265	19.03	3.1904e-06	26.511	0.00057539	0.00063738	0.00017901	1138	6.9705e-06	7.092e-06	1237.5	238.79	7.0259e-06	6.9004e-06	300.53	83.485	66.103	19.565	6.7276e-06	27.15	180.335	35.967	128.858	2.864	165.847	205.707	3.073	10.581	162.743	146.399	10.105	17.251	17.767	24.099	198.093	23.852	-8191	255	
683.889	1	1	0	0	0.28426	0.14163	0.2617	0.14469	0.10653	0.11492	0.05485	0.038551	0.15209	0.17465	0.059372	0.15735	0.044205	0.29435	0.14757	0.23939	-2.5542	-2.6312	-2.5208	-3.1229	-2.5979	-2.6604	-3.0438	-2.2938	-2.7333	-2.6708	-2.4813	-2.9125	-2.6292	-2.5958	-2.9479	-2.35	43.253	350.290	75.136	-3.293	17.509	304.487	146.875	265.885	276.605	82.397	332.104	292.621	11.189	250.850	68.286	286.876	0.00011373	0.00065135	8.9488e-05	1155.9	4.0957e-06	5.2668e-06	1255.9	238.9	9.3895e-07	2.6737e-06	300.06	81.504	65.177	19.141	6.4956e-06	26.552	0.00055468	0.00061524	0.00016742	1137.2	6.6526e-06	6.6851e-06	1236.1	238.37	6.5248e-06	6.5169e-06	300.5	83.115	65.769	19.525	6.4211e-06	27.062	203.134	79.925	27.005	3.013	207.300	188.380	3.274	10.574	206.041	162.332	10.089	17.808	17.503	24.249	175.332	23.509	-8191	255	
683.962	1	1	0	0	0.046043	0.16792	0.13404	0.22356	0.083846	0.28578	0.19314	0.22425	0.15174	0.24551	0.083009	0.098657	0.48193	0.14241	0.33359	0.055717	-2.3146	-2.7271	-2.5208	-2.7292	-2.65	-2.5312	-2.9542	-2.5208	-2.7354	-2.6146	-2.6833	-2.7896	-2.4875	-2.4667	-2.6854	-2.6771	284.132	52.283	302.259	294.891	305.210	302.867	327.489	306.245	251.385	39.230	337.006	280.232	296.616	148.374	326.221	104.861	0.00013445	0.00052485	6.0867e-05	1157.3	5.4702e-06	1.7442e-06	1256.1	238.53	1.3996e-06	1.7033e-06	301.42	81.915	65.615	19.131	2.0213e-06	26.588	0.00052112	0.00059056	0.0001631	1136.3	6.6884e-06	6.7056e-06	1233.5	238.44	6.7394e-06	6.7244e-06	300.63	83.468	66.185	19.607	6.9971e-06	27.137	199.325	108.747	37.959	2.889	177.815	73.790	3.034	10.696	227.222	227.145	10.459	17.243	17.752	24.102	158.770	23.979	-8191	255	
684.056	1	1	0	0	0.13827	0.010855	0.12732	0.46598	0.17845	0.28231	0.17574	0.072482	0.23334	0.16786	0.32298	0.10739	0.095327	0.1476	0.11032	0.032669	-2.0542	-2.5583	-2.2458	-2.9646	-2.6229	-2.3896	-2.9458	-2.5979	-2.6188	-2.7938	-2.3146	-2.9375	-2.7396	-2.3583	-2.675	-2.4771	52.003	321.610	262.877	302.671	136.153	71.252	331.561	16.017	51.669	84.174	-3.460	213.042	167.725	338.615	177.538	263.865	0.00015757	0.00025641	7.9066e-05	1151.9	2.8864e-06	3.8271e-06	1255.2	239.22	2.4774e-06	2.1023e-06	299.16	82.518	65.234	19.109	5.2148e-06	26.571	0.00056804	0.00064293	0.00018361	1134.9	7.1823e-06	7.2117e-06	1236	238.91	7.0976e-06	7.2943e-06	300.99	83.66	66.193	19.633	7.1409e-06	27.176	203.713	330.273	123.165	2.905	179.474	132.009	3.318	10.487	172.249	148.359	10.194	17.510	17.411	24.124	147.178	23.358	-8191	255	
684.177	1	1	0	0	0.29228	0.15291	0.052223	0.15306	0.22677	0.304	0.15776	0.30475	0.15206	0.21776	0.17065	0.17714	0.22831	0.16941	0.11992	0.22399	-1.9438	-2.8521	-2.2917	-2.7687	-2.5938	-2.5958	-2.9625	-2.5333	-2.3104	-2.8729	-2.4104	-2.6583	-2.7938	-2.4271	-2.6896	-2.6854	72.318	66.471	234.599	282.137	82.178	99.177	293.302	280.122	335.673	274.556	161.788	20.028	135.242	147.346	235.842	17.780	0.00016598	0.00041738	0.00011587	1156.2	8.3699e-06	3.8879e-06	1252.2	239.71	8.3313e-07	2.8057e-06	301.09	81.593	65.337	19.164	3.3962e-07	26.322	0.00057503	0.00065789	0.00017979	1138.2	7.01e-06	7.1971e-06	1235.6	239.19	6.9859e-06	7.0795e-06	301.85	83.552	66.448	19.65	7.0851e-06	27.165	210.986	109.066	110.585	2.689	217.957	158.864	3.513	10.536	212.847	159.200	10.212	17.152	17.533	23.771	345.739	23.329	-8191	255	
684.273	1	1	0	0	0.090467	0.10966	0.15399	0.57216	0.23618	0.3154	0.33447	0.17024	0.046768	0.32511	0.32798	0.12354	0.18395	0.12227	0.27771	0.24783	-1.9292	-2.6437	-2.525	-2.6625	-2.675	-2.5146	-2.85	-2.5958	-2.4896	-2.8208	-2.6271	-2.6604	-2.6375	-2.3333	-2.8187	-2.4104	7.121	59.564	234.085	309.359	108.788	316.442	285.282	40.926	81.407	281.676	270.472	264.387	310.464	210.910	276.426	16.269	0.00015157	0.00032235	0.00010857	1156.1	6.5153e-06	6.5644e-06	1254.5	240.4	3.3062e-06	8.1317e-07	302.04	82.318	65.596	19.112	4.8756e-06	26.77	0.00057013	0.00065477	0.00018457	1140.9	7.3035e-06	7.3065e-06	1238.5	240.12	7.155e-06	7.3612e-06	302.26	83.785	66.459	19.682	7.1067e-06	27.273	193.454	127.283	60.147	2.863	227.972	195.255	3.236	10.617	224.413	118.185	10.044	17.210	17.774	24.099	202.148	23.413	-8191	255	
684.369	1	1	0	0	0.066917	0.040057	0.17942	0.20207	0.18858	0.022368	0.38294	0.16222	0.11879	0.12045	0.090716	0.18933	0.093358	0.025751	0.090029	0.17901	-2.0354	-2.7854	-2.4375	-2.7125	-2.6396	-2.2396	-2.7917	-2.625	-2.5	-2.8438	-2.7542	-2.3292	-2.6437	-2.4396	-2.6854	-2.7583	75.937	43.069	1.109	225.970	347.491	57.908	285.109	117.103	89.354	344.830	265.334	268.045	16.399	84.993	286.624	107.088	0.00015395	0.00029218	9.0862e-05	1158.7	4.5579e-06	3.4148e-06	1254.5	239.69	4.811e-06	4.7382e-06	301.76	82.26	65.642	19.226	1.8232e-06	26.619	0.00058791	0.00066881	0.00018976	1141.3	7.3656e-06	7.4079e-06	1237	239.71	7.4717e-06	7.4767e-06	302.87	83.9	66.442	19.738	7.2377e-06	27.295	215.790	141.989	52.580	3.049	153.111	175.963	3.249	10.881	177.859	166.303	9.749	17.129	17.582	23.818	149.533	23.616	-8191	255	
684.466	1	1	0	0	0.29403	0.051445	0.18925	0.1058	0.076659	0.081492	0.28125	0.33176	0.015568	0.098438	0.094841	0.11197	0.14785	0.17098	0.15731	0.1858	-1.8229	-2.7313	-2.3812	-2.3979	-2.6562	-2.6646	-2.7292	-2.8146	-2.3125	-2.5687	-2.6083	-2.5042	-2.8271	-2.5646	-2.5812	-2.8083	21.337	157.490	280.750	96.235	62.009	330.947	302.990	308.769	249.565	90.783	62.734	296.436	281.547	322.212	253.868	11.068	0.00017097	4.0645e-05	0.00012952	1161.4	2.5695e-06	6.0701e-06	1254.7	241.34	1.6651e-06	4.9345e-06	302.42	82.313	65.496	19.142	3.7752e-06	26.657	0.00059563	0.00070072	0.00018999	1141	7.2198e-06	7.4099e-06	1238.3	239.71	7.1835e-06	7.2992e-06	302.1	83.829	66.426	19.684	7.0996e-06	27.254	214.515	34.276	108.115	2.923	122.815	156.786	3.388	10.898	168.288	173.828	10.338	17.185	17.416	23.265	183.430	23.691	-8191	255	
684.562	1	1	0	0	0.12839	0.18122	0.18832	0.095086	0.17931	0.19816	0.064722	0.17775	0.238	0.22074	0.15703	0.13684	0.10393	0.13975	0.046831	0.26069	-1.7875	-2.7917	-2.6583	-2.5812	-3.1021	-2.425	-2.8479	-2.7062	-2.2958	-2.7104	-2.7188	-2.6	-2.9604	-2.4958	-2.6271	-2.7604	324.202	315.509	257.716	80.697	253.701	307.830	333.458	193.833	236.720	59.065	53.820	341.727	246.961	332.075	284.118	245.195	0.00013323	0.00049819	0.00011677	1157	2.3682e-06	6.4624e-06	1257.5	240.37	3.4246e-06	4.3776e-06	301.31	82.634	65.237	19.19	5.0496e-06	26.657	0.00058697	0.00066973	0.00018894	1141.8	7.2662e-06	7.7607e-06	1239	239.98	7.3208e-06	7.4879e-06	302.26	83.769	66.479	19.698	7.3632e-06	27.2	183.765	85.738	79.620	2.848	191.584	150.725	3.289	10.436	218.955	142.853	10.136	17.590	17.844	23.655	119.822	23.295	-8191	255	
684.658	1	1	0	0	0.22681	0.049244	0.12294	0.28846	0.1988	0.12112	0.2574	0.11886	0.17601	0.18945	0.19836	0.31199	0.21112	0.15863	0.036683	0.17224	-1.7542	-2.7188	-2.5792	-2.4833	-2.9042	-2.3625	-2.5	-2.7854	-2.1792	-2.6417	-2.7208	-2.4229	-2.6583	-2.5146	-2.525	-2.9875	27.578	69.631	234.872	253.754	112.057	178.761	248.828	4.674	301.012	131.225	216.232	10.659	176.853	326.569	-1.320	234.552	0.00014794	0.00052766	0.00014994	1158.4	4.2629e-06	7.9492e-06	1259.2	239.96	4.9344e-06	4.0464e-06	300.33	82.641	64.933	18.983	2.6238e-06	26.598	0.00061011	0.00069014	0.00019512	1139.6	7.548e-06	7.8213e-06	1236	239.35	7.5783e-06	7.6964e-06	302.47	83.942	66.329	19.682	7.3967e-06	27.229	184.976	74.714	67.408	3.139	156.327	174.574	3.352	10.539	160.863	113.641	10.326	17.104	17.628	24.324	173.134	23.759	-8191	255	
684.754	1	1	0	0	0.057605	0.22015	0.12407	0.071922	0.092273	0.10931	0.22272	0.15523	0.12945	0.15087	0.408	0.12718	0.31347	0.26388	0.17992	0.18147	-1.975	-2.5583	-2.7125	-2.3396	-2.7771	-2.4313	-2.5875	-2.9083	-2.4583	-2.6688	-2.8833	-2.5875	-2.7146	-2.3812	-2.3958	-2.85	233.316	98.997	331.287	278.798	280.210	304.988	236.675	224.397	120.128	308.362	341.089	344.769	29.536	241.964	267.680	288.353	0.00012269	0.00058376	9.2657e-05	1153.5	3.7789e-06	3.7061e-06	1254.4	239.69	5.3589e-06	4.6635e-06	302.92	82.066	65.364	19.181	4.5471e-06	26.385	0.00060048	0.00068308	0.00019347	1138.1	7.5228e-06	7.6137e-06	1235.6	239.45	7.4506e-06	7.3281e-06	302.12	83.463	66.241	19.641	7.1378e-06	27.115	220.612	85.354	30.933	2.876	199.629	80.800	3.094	10.337	182.375	61.581	9.636	17.329	17.810	24.395	212.058	23.897	-8191	255	
684.875	1	1	0	0	0.32017	0.24724	0.22685	0.11986	0.094148	0.30191	0.24366	0.17333	0.16886	0.15849	0.19494	0.042753	0.11085	0.15871	0.20025	0.17182	-1.8917	-2.5062	-2.7208	-2.4625	-2.5875	-2.5958	-2.5417	-2.8833	-2.3021	-2.4354	-2.7729	-2.4	-2.7167	-2.675	-2.3187	-2.9042	317.813	219.968	5.535	41.467	154.272	208.629	325.955	191.333	174.379	227.556	285.514	277.654	152.297	20.488	273.537	323.174	0.00012605	0.00028223	0.00018257	1151.8	5.1886e-06	4.6341e-06	1253.8	240.12	1.9529e-06	2.0572e-06	300.61	81.969	65.056	19.152	2.8074e-06	26.464	0.00060223	0.00067277	0.00018453	1135.8	7.4231e-06	7.3408e-06	1234.2	239.63	7.3033e-06	7.2183e-06	301.79	83.532	66.158	19.629	7.1673e-06	27.147	193.516	45.780	46.362	2.952	215.572	147.386	3.039	10.364	119.789	150.360	10.180	17.214	17.820	24.052	161.257	23.603	-8191	255	
684.969	1	1	0	0	0.22657	0.173	0.31152	0.053985	0.0336	0.31909	0.23033	0.2991	0.1037	0.053115	0.19167	0.14057	0.33541	0.077985	0.046914	0.13112	-2.2125	-2.5646	-2.9479	-2.5062	-2.6854	-2.7917	-2.65	-2.9	-2.525	-2.4833	-3.0125	-2.4604	-2.6583	-2.6667	-2.2708	-2.9417	87.733	268.842	136.479	24.055	311.318	260.703	314.613	325.525	36.797	269.104	224.989	72.269	312.630	149.983	63.186	271.549	0.00017103	0.00032461	9.9244e-05	1152.9	2.2642e-06	4.464e-06	1256.2	240.18	3.7268e-06	3.1036e-06	301.45	82.017	64.702	19.188	6.3616e-07	26.534	0.0005864	0.00067395	0.0001862	1136	7.4945e-06	7.5831e-06	1234.9	240.08	7.6044e-06	7.5392e-06	301.63	83.488	66.195	19.659	7.5055e-06	27.173	199.927	77.115	317.977	2.941	285.346	192.166	3.088	10.477	161.461	198.895	10.168	17.340	17.711	23.972	74.874	23.361	-8191	255	
685.067	1	1	0	0	0.092574	0.21012	0.059983	0.13966	0.080402	0.092347	0.24158	0.22248	0.070323	0.13288	0.10782	0.21711	0.13813	0.20358	0.24217	0.053372	-1.9542	-2.4979	-2.8708	-2.5646	-2.8396	-2.6771	-2.4125	-2.8187	-2.7479	-2.4104	-2.7354	-2.4646	-2.7167	-2.8333	-2.475	-2.725	200.318	77.694	49.738	336.111	286.249	134.672	302.885	282.387	105.983	300.683	108.619	152.104	260.784	348.564	136.779	301.517	0.00012712	0.00025593	3.5628e-05	1153.6	5.4691e-06	6.3932e-06	1255.4	239.71	3.3077e-06	4.1218e-06	301.1	81.961	64.956	19.062	1.6984e-06	26.361	0.00061324	0.00069232	0.00019574	1136.8	7.7218e-06	7.8116e-06	1233.1	239.44	7.5614e-06	7.5353e-06	301.06	83.486	66.235	19.539	7.7058e-06	27.104	220.840	90.905	51.151	2.877	235.361	152.642	3.295	10.564	172.047	115.732	10.340	17.307	17.681	24.063	98.182	23.527	-8191	255	
685.186	1	1	0	0	0.12472	0.24929	0.18417	0.17644	0.15044	0.17533	0.13391	0.2964	0.27953	0.28467	0.020703	0.17545	0.13179	0.050974	0.075565	0.15045	-2.5354	-2.2375	-2.8312	-2.6	-2.6125	-2.8833	-2.5083	-2.8104	-2.8187	-2.2	-2.9875	-2.4813	-2.4583	-2.8875	-2.2542	-2.6958	36.149	19.997	191.075	326.080	207.023	61.588	269.180	280.074	190.723	262.576	277.928	105.324	7.957	47.010	172.241	5.189	0.0001456	0.00080556	0.00017341	1152.4	2.0268e-06	1.0552e-06	1251.2	241.51	2.0513e-06	6.1106e-06	301.86	82.11	65.686	19.046	5.8049e-07	26.397	0.00063496	0.00072874	0.00020424	1137.6	7.8712e-06	8.0532e-06	1234.2	239.66	7.9643e-06	8.1147e-06	302.93	83.624	66.376	19.634	8.191e-06	27.183	206.713	138.106	78.379	2.925	219.209	165.410	3.225	10.583	231.924	106.636	10.252	17.390	17.268	23.802	202.416	23.476	-8191	255	
685.257	1	1	0	0	0.069543	0.3268	0.22278	0.012874	0.081737	0.098423	0.15931	0.037572	0.064382	0.23732	0.14998	0.034453	0.34858	0.027013	0.14534	0.15844	-2.1979	-2.3854	-2.8312	-2.5812	-2.7	-2.7313	-2.5187	-2.725	-2.7625	-2.4479	-2.6875	-2.6896	-2.6271	-2.9896	-2.6354	-2.5312	102.592	249.454	227.995	95.623	130.510	157.231	294.600	237.603	316.245	279.302	291.367	270.077	334.049	50.331	131.791	13.406	0.00017421	0.00065396	0.00010914	1157.6	1.7355e-06	2.4162e-06	1254	238.6	9.7417e-07	2.3881e-06	302.63	81.965	64.867	18.96	2.8651e-06	26.39	0.00065793	0.00076176	0.00021505	1139.4	8.3262e-06	8.6311e-06	1236.2	239.43	8.3397e-06	8.6375e-06	302.63	83.729	66.264	19.611	8.1915e-06	27.139	209.949	165.996	129.227	2.853	122.770	247.000	3.223	10.210	16.549	72.371	10.311	17.411	17.760	24.063	177.220	24.038	-8191	255	
685.354	1	1	0	0	0.23506	0.072902	0.14199	0.13026	0.16061	0.1269	0.093685	0.28201	0.17559	0.089507	0.18623	0.078185	0.20724	0.03804	0.19467	0.13438	-2.2542	-2.2604	-2.625	-2.9062	-2.2271	-2.9021	-2.8125	-2.3854	-2.8917	-2.5292	-2.9021	-2.8458	-2.6104	-2.7104	-2.5938	-2.5271	56.743	54.244	251.553	302.010	165.578	262.275	266.616	334.468	174.847	145.041	6.867	333.194	281.816	346.415	31.519	158.965	0.00015848	0.00075876	5.4122e-05	1153	1.6436e-06	4.8317e-06	1246.6	238.87	1.2029e-06	3.2078e-06	301.24	82.232	64.896	18.962	3.7874e-06	26.627	0.00066362	0.0007587	0.00020708	1136.6	8.2259e-06	8.474e-06	1232.7	239.35	8.2649e-06	8.3346e-06	302.24	83.709	66.426	19.63	8.3706e-06	27.169	198.989	79.651	143.901	2.866	116.867	169.197	3.397	10.525	324.200	239.085	10.106	17.532	17.414	23.991	161.875	23.797	-8191	255	
685.474	1	1	0	0	0.2611	0.26459	0.16994	0.11915	0.30614	0.046351	0.11727	0.15605	0.17207	0.17717	0.21678	0.09624	0.14796	0.14671	0.12635	0.14947	-2.4208	-2.3563	-2.7083	-2.8312	-2.2708	-2.9708	-2.6167	-2.6875	-2.8125	-2.5563	-2.5729	-2.7125	-2.2833	-2.8896	-2.3833	-2.5583	236.334	0.918	252.564	348.656	336.474	80.154	311.800	75.478	145.826	211.109	32.033	284.016	229.256	303.582	45.408	83.217	0.00012373	0.00066653	0.00013939	1153.1	3.4404e-06	1.7709e-06	1250.8	239.69	5.3373e-06	2.6319e-06	303.55	82.183	64.981	18.971	4.5382e-06	26.536	0.00066487	0.00078179	0.00021231	1137.1	8.3059e-06	8.2943e-06	1234.2	239.58	8.2837e-06	8.457e-06	302.45	83.574	66.34	19.612	8.5343e-06	27.176	211.207	156.350	122.792	2.972	209.790	153.542	3.498	10.688	227.865	136.814	10.062	17.408	17.628	23.968	133.886	23.347	-8191	255	
685.570	1	1	0	0	0.081792	0.21474	0.18096	0.2667	0.30038	0.094871	0.34942	0.21678	0.068819	0.074265	0.25976	0.14647	0.30306	0.2115	0.085209	0.11493	-2.2875	-2.3396	-2.6708	-2.8917	-2.2542	-2.9813	-2.6604	-2.5167	-2.8208	-2.5667	-2.8021	-2.8063	-2.5292	-2.5958	-2.6292	-2.2854	179.570	87.298	124.357	2.516	201.038	173.112	272.179	248.563	336.356	211.404	344.825	311.154	50.139	338.394	302.322	26.822	0.00014244	0.00033283	0.00013851	1149.9	2.4591e-06	2.0895e-06	1249.8	239.52	1.5844e-06	4.7816e-06	301.91	82.188	65.022	19.028	3.1215e-06	26.228	0.000692	0.00080823	0.00022039	1136.6	8.8161e-06	8.8753e-06	1234.4	239.78	8.7961e-06	9.2215e-06	302.83	83.723	66.522	19.705	9.183e-06	27.17	209.411	297.673	129.678	2.788	110.006	22.271	3.406	10.565	166.519	135.573	10.015	17.219	17.929	24.447	180.978	23.756	-8191	255	
685.667	1	1	0	0	0.088458	0.16638	0.10946	0.11874	0.10421	0.12954	0.15978	0.20036	0.11066	0.21016	0.31312	0.30268	0.13402	0.20603	0.16406	0.066804	-2.5583	-2.5646	-2.4458	-2.9896	-2.2188	-2.7521	-2.5271	-2.8021	-2.6833	-2.6792	-2.5146	-2.8146	-2.3708	-2.6312	-2.6604	-2.3167	305.698	206.127	142.849	252.131	178.118	53.548	341.674	-3.384	60.181	141.158	61.100	-3.078	243.967	346.272	137.152	67.299	0.00012536	0.00035759	7.8352e-05	1153	6.1498e-06	4.6554e-06	1258.1	240.56	1.421e-06	2.4424e-06	301.02	81.809	64.947	19.095	6.1487e-06	26.426	0.00073751	0.00085961	0.00023781	1138.4	9.3099e-06	9.4331e-06	1236.6	240.48	9.3169e-06	9.5746e-06	303.15	83.783	66.401	19.733	9.3059e-06	27.308	202.371	59.771	31.605	3.046	142.770	126.428	3.216	10.322	148.922	69.961	9.857	17.499	17.405	23.630	132.211	23.620	-8191	255	
685.763	1	1	0	0	0.16	0.19512	0.12147	0.33164	0.37014	0.21203	0.34032	0.19859	0.18034	0.12827	0.20597	0.12712	0.094453	0.27843	0.21362	0.18133	-2.3104	-2.4333	-2.4125	-2.9938	-2.425	-2.7167	-2.7	-2.5229	-2.7604	-2.5521	-2.6375	-2.825	-2.4292	-2.5896	-2.6833	-2.3292	235.440	0.107	181.400	280.506	229.894	172.703	298.561	297.237	20.293	302.282	114.185	242.101	83.514	290.207	227.683	108.732	0.00015616	0.00027093	0.0001075	1156.7	6.8401e-06	5.0506e-06	1253.2	239.7	1.7555e-06	3.4569e-06	302.36	81.917	64.817	18.96	2.4302e-06	26.488	0.00074811	0.00085919	0.00023737	1138.9	9.2578e-06	9.2128e-06	1236.5	240.4	8.9976e-06	9.2985e-06	303.69	83.825	66.38	19.66	8.9768e-06	27.286	191.410	242.406	83.471	2.813	212.855	197.905	3.395	10.470	111.054	347.287	9.990	17.275	17.350	23.904	309.106	23.657	-8191	255	
685.859	1	1	0	0	0.12752	0.082303	0.27758	0.029345	0.11771	0.16566	0.068303	0.21015	0.19328	0.14168	0.14336	0.19732	0.26687	0.21611	0.056302	0.19114	-2.3667	-2.4062	-2.4542	-3.0062	-2.5896	-2.6917	-2.925	-2.5646	-2.5187	-2.7562	-2.25	-2.8271	-2.4729	-2.4083	-2.9271	-2.3354	324.742	99.354	31.426	352.216	143.617	87.220	22.544	268.447	327.759	317.632	256.349	299.606	351.253	316.715	60.829	288.012	0.00016621	0.00070523	3.8404e-05	1151.3	3.5259e-06	2.4752e-06	1251	240.68	2.4126e-06	3.3013e-06	300.59	82.176	64.966	18.982	1.5586e-06	26.639	0.00073466	0.0008408	0.0002341	1137.3	9.1142e-06	9.1104e-06	1234.9	240.32	9.0174e-06	9.2181e-06	303.12	84.014	66.513	19.681	9.2319e-06	27.296	191.139	92.949	56.286	2.933	183.463	224.129	3.464	10.559	160.989	227.715	10.459	17.203	17.874	24.133	119.407	23.104	-8191	255	
685.953	1	1	0	0	0.22668	0.064899	0.22278	0.30642	0.15537	0.17165	0.21272	0.37118	0.038582	0.097867	0.24047	0.14941	0.12796	0.31448	0.091476	0.1057	-2.3604	-2.5479	-2.4792	-2.9167	-2.6083	-2.4354	-3.0938	-2.4167	-2.5958	-2.6729	-2.3729	-2.9854	-2.6	-2.5646	-2.875	-2.5396	343.107	332.871	70.520	347.733	304.627	159.616	262.882	246.046	340.465	4.162	28.337	328.742	259.069	31.577	264.844	71.369	0.00016612	0.00055631	0.00010353	1149.6	4.3445e-06	4.3601e-06	1252.1	239.52	1.7e-06	8.0853e-06	301.24	82.117	64.97	19.102	5.1394e-06	26.524	0.00073848	0.00086183	0.00023578	1137.4	9.0422e-06	9.2893e-06	1235.7	240.37	8.9475e-06	9.1721e-06	303.33	83.832	66.591	19.706	9.03e-06	27.243	208.717	41.137	33.129	3.067	125.887	163.760	3.147	10.628	95.688	192.704	10.277	17.066	17.857	24.061	238.920	23.510	-8191	255	
686.049	1	1	0	0	0.2768	0.13418	0.21242	0.19708	0.13697	0.32028	0.1682	0.096461	0.13908	0.1944	0.099127	0.085781	0.22309	0.13757	0.16897	0.24905	-2.1625	-2.7875	-2.3438	-2.8667	-2.5208	-2.5292	-2.8458	-2.6063	-2.5312	-2.7667	-2.5187	-2.9146	-2.6292	-2.4938	-2.7896	-2.575	134.678	189.310	214.337	321.656	198.123	198.151	265.170	4.220	68.191	6.607	215.934	226.594	244.423	345.807	145.406	336.924	0.00016394	0.00023591	3.9263e-05	1153.2	6.7361e-06	5.2106e-07	1255.5	241.08	8.6426e-07	3.0892e-06	300.35	82.18	65.045	19.049	3.4612e-06	26.536	0.00073337	0.00084556	0.00023193	1139.1	9.1963e-06	9.258e-06	1237.1	240.46	9.0838e-06	9.5186e-06	303.14	83.96	66.467	19.745	9.2458e-06	27.356	197.312	10.470	59.175	2.877	163.986	254.808	3.365	10.690	223.625	177.481	10.286	17.362	17.957	23.883	201.771	23.521	-8191	255	
686.147	1	1	0	0	0.019669	0.14267	0.11671	0.20298	0.15109	0.023431	0.34592	0.31943	0.11918	0.085395	0.23824	0.15806	0.037532	0.015759	0.057638	0.32776	-2.0833	-2.6604	-2.3146	-2.7271	-2.6021	-2.4938	-2.9167	-2.65	-2.6125	-2.8875	-2.5042	-2.8917	-2.6	-2.5438	-2.9938	-2.4354	92.111	118.349	198.988	50.942	246.214	334.696	254.775	-2.636	126.742	195.075	286.326	60.160	348.513	222.276	73.024	306.410	0.00015761	0.00019969	0.00015419	1151.3	6.4664e-06	5.4165e-06	1251.3	239.48	8.0854e-07	3.7091e-06	300.4	82.617	64.887	19.062	3.9311e-06	26.485	0.00074716	0.00086981	0.00024149	1138.5	9.1765e-06	9.4041e-06	1236.3	240.47	9.461e-06	9.4925e-06	303.57	84.064	66.64	19.761	9.3638e-06	27.266	194.759	315.563	112.716	3.032	213.641	198.960	3.401	10.335	183.938	88.206	10.043	17.384	17.765	24.076	131.146	23.563	-8191	255	
686.266	1	1	0	0	0.3349	0.11459	0.1603	0.065004	0.18439	0.20233	0.29375	0.050305	0.25303	0.21454	0.052091	0.23311	0.11002	0.13357	0.12667	0.081339	-2.0708	-2.7938	-2.3896	-2.8042	-2.7792	-2.4458	-3.0458	-2.5667	-2.4208	-2.9521	-2.5729	-2.6021	-2.9396	-2.3771	-2.7667	-2.5354	307.427	64.601	-4.247	59.917	87.507	267.862	330.591	323.843	308.771	203.322	314.015	33.127	3.895	237.374	162.712	337.783	0.00011277	0.00049454	0.00011528	1149.5	7.3497e-06	3.5774e-06	1254.7	241.12	3.0127e-06	3.2411e-06	300.37	82.108	65.199	19.069	6.617e-07	26.615	0.00075619	0.0008632	0.00024257	1136.6	9.3123e-06	9.3848e-06	1235.5	240.79	9.2514e-06	9.288e-06	303.45	83.832	66.792	19.728	9.2124e-06	27.273	198.068	63.499	85.070	2.998	192.917	6.907	3.388	10.327	61.721	137.802	9.918	16.932	17.712	23.863	185.406	23.603	-8191	255	
686.362	1	1	0	0	0.12141	0.18223	0.11333	0.10222	0.052661	0.078664	0.28535	0.17962	0.014948	0.32042	0.072145	0.26189	0.075793	0.084895	0.20373	0.12611	-2.2479	-2.8104	-2.4917	-2.8333	-2.8646	-2.3979	-2.9396	-2.6771	-2.5438	-2.8312	-2.4104	-2.5542	-2.5979	-2.5417	-2.8312	-2.7146	79.672	226.893	68.103	39.345	222.917	181.081	212.837	143.549	90.178	238.465	276.391	337.393	-7.279	292.251	109.691	299.264	0.00013185	0.00068316	7.3027e-05	1156.1	7.2172e-06	6.6372e-06	1256.6	239.57	2.1628e-06	6.9786e-06	301.48	82.361	65.297	19.007	5.429e-06	26.442	0.00076082	0.00087443	0.00025018	1138.5	9.5887e-06	9.7863e-06	1238.4	240.38	9.6847e-06	9.7409e-06	303.58	84.234	66.907	19.748	9.7916e-06	27.348	184.827	111.763	71.029	3.050	181.997	87.233	3.347	10.596	185.067	66.790	9.956	17.005	17.327	23.599	169.192	23.597	-8191	255	
686.458	1	1	0	0	0.24292	0.083764	0.054251	0.43235	0.17979	0.21798	0.083553	0.1304	0.1319	0.079233	0.37894	0.13831	0.26257	0.31131	0.10191	0.093392	-1.9854	-2.6375	-2.5979	-2.6625	-2.8979	-2.5146	-2.8125	-2.825	-2.25	-2.8604	-2.8042	-2.4542	-2.7333	-2.4125	-2.6437	-2.8312	218.764	56.187	81.742	322.390	87.310	301.378	93.599	342.145	102.704	121.152	323.268	336.946	8.150	23.429	106.884	63.784	0.00012595	0.00054689	0.0001514	1152.7	3.7152e-06	5.0508e-06	1252.2	241.03	7.383e-07	6.5482e-06	302.42	82.059	65.68	19.211	9.6266e-07	26.518	0.00080179	0.00093724	0.00026064	1139.3	1.0284e-05	1.0306e-05	1238.5	241.14	1.0325e-05	1.0549e-05	304.83	84.321	67.209	19.932	1.0233e-05	27.448	174.658	66.870	87.501	3.175	248.625	168.307	3.261	10.621	180.615	229.411	9.889	17.414	17.662	23.980	78.551	23.802	-8191	255	
686.555	1	1	0	0	0.013866	0.13737	0.20586	0.2639	0.19818	0.055664	0.11665	0.19716	0.14305	0.11188	0.17986	0.16646	0.25003	0.17475	0.27598	0.030107	-1.9813	-2.7146	-2.5125	-2.6813	-2.8792	-2.4417	-2.8667	-2.7167	-2.325	-2.725	-2.8542	-2.3833	-2.9083	-2.4854	-2.5792	-2.9917	171.267	286.090	26.634	15.845	180.811	100.250	311.184	220.112	16.704	56.883	205.695	221.086	306.034	-4.118	54.068	52.746	0.0001384	0.00042296	5.9315e-05	1155.9	1.7332e-06	1.6225e-06	1250.8	240.26	2.7309e-06	2.9541e-06	302.24	82.269	64.682	19.065	5.6876e-06	26.457	0.00081496	0.0009436	0.00026794	1142.9	1.0237e-05	1.047e-05	1238.4	241.53	1.0007e-05	1.0191e-05	304.81	84.305	66.726	19.852	1.0048e-05	27.372	185.478	78.288	14.096	2.802	174.752	95.537	3.396	10.497	170.692	276.846	10.081	17.542	17.524	23.811	162.320	23.646	-8191	255	
686.651	1	1	0	0	0.15884	0.2984	0.058934	0.25507	0.20896	0.1405	0.27784	0.16234	0.035311	0.37664	0.10681	0.033179	0.19288	0.13509	0.11279	0.074728	-1.8062	-2.7646	-2.6292	-2.5646	-2.8438	-2.6542	-2.5583	-2.9229	-2.4125	-2.5438	-2.7125	-2.4688	-2.8479	-2.625	-2.5396	-2.8958	137.058	321.079	292.810	317.214	223.652	196.110	76.450	43.318	238.551	11.967	39.214	278.872	251.179	189.066	22.936	336.519	0.00017357	0.00079859	0.00016558	1156	5.1986e-06	1.0459e-06	1252.9	239.47	1.115e-06	1.3633e-06	302.48	82.733	64.841	19.174	3.6301e-06	26.377	0.00078839	0.00093642	0.00025871	1143.5	1.0143e-05	1.0483e-05	1236.9	241.06	1.0301e-05	1.0411e-05	304.35	84.423	66.942	19.868	1.0169e-05	27.44	207.976	108.204	67.401	3.178	207.692	153.418	3.397	10.513	145.207	170.322	9.910	17.340	17.834	23.957	82.256	23.964	-8191	255	
686.747	1	1	0	0	0.16214	0.12758	0.1673	0.28816	0.21608	0.020013	0.17881	0.2442	0.12665	0.1047	0.096744	0.10616	0.21913	0.26797	0.050101	0.1258	-1.7875	-2.4771	-2.55	-2.4542	-2.6667	-2.6625	-2.6125	-2.7792	-2.4729	-2.8458	-2.6479	-2.4938	-2.7667	-2.6104	-2.3917	-2.8438	187.908	144.571	107.977	301.695	94.902	56.195	270.687	304.770	338.989	76.759	2.518	247.182	213.569	270.634	48.390	270.832	9.9413e-05	6.1833e-05	0.00012731	1151.8	5.5697e-06	2.7023e-06	1252	239.85	5.2452e-06	7.4292e-06	301.34	81.983	65.123	19.284	5.6023e-06	26.446	0.00080453	0.00094682	0.00026423	1141.6	1.0206e-05	1.026e-05	1238.5	241.16	1.0002e-05	1.02e-05	304.09	84.211	66.694	19.911	9.8094e-06	27.333	207.281	312.195	87.775	2.975	263.602	153.408	3.244	10.801	162.862	91.965	10.205	17.559	17.609	23.813	158.597	23.391	-8191	255	
686.868	1	1	0	0	0.16776	0.11003	0.17542	0.084404	0.14197	0.089972	0.17114	0.27034	0.2938	0.040073	0.045692	0.161	0.18474	0.16735	0.21134	0.30124	-2.0979	-2.7354	-2.8417	-2.7	-2.7708	-2.5833	-2.45	-2.8833	-2.5125	-2.5979	-2.9229	-2.4208	-2.7583	-2.7021	-2.2354	-2.9458	10.881	125.182	305.152	120.611	294.120	95.173	308.021	106.776	190.767	250.163	87.257	276.643	315.379	162.489	205.385	286.503	0.00014708	0.00056404	0.00016035	1155.2	3.8172e-06	4.4821e-06	1256.8	241.08	3.6028e-06	6.6677e-07	302.6	82.745	65.165	19.107	2.787e-06	26.504	0.00078454	0.00090479	0.00025398	1140.4	9.8651e-06	9.9839e-06	1239.8	241.71	9.8817e-06	9.963e-06	304.72	84.4	67.014	19.831	9.6649e-06	27.394	196.862	50.387	122.866	2.840	233.118	141.162	3.609	10.635	168.837	173.161	10.277	17.219	17.779	23.760	257.608	23.557	-8191	255	
686.962	1	1	0	0	0.30415	0.2192	0.040233	0.19965	0.11681	0.3326	0.094737	0.0083562	0.14913	0.25065	0.27194	0.13847	0.23217	0.16049	0.10341	0.14988	-2.0917	-2.6167	-2.8208	-2.5875	-2.7833	-2.6437	-2.6521	-2.9	-2.5812	-2.3458	-2.8417	-2.6562	-2.7062	-2.7896	-2.3854	-2.8021	-0.109	118.066	166.015	264.910	27.140	207.829	285.522	282.190	242.950	201.986	212.397	337.063	284.313	287.843	132.848	188.010	0.00010083	0.00064067	0.00014875	1159.1	1.1428e-06	1.6635e-06	1252.2	240.58	4.834e-06	4.913e-06	303.19	82.669	65.099	19.278	3.6086e-06	26.546	0.00079222	0.00090363	0.00025381	1142.8	9.9555e-06	1.0012e-05	1237.8	241.54	1.0032e-05	1.0184e-05	304.65	84.332	66.934	19.887	9.9617e-06	27.44	214.874	100.147	120.244	3.006	196.265	324.744	3.392	10.645	171.735	117.086	10.207	17.400	17.604	23.632	194.774	23.567	-8191	255	
687.058	1	1	0	0	0.27142	0.0080906	0.084068	0.24012	0.21898	0.12978	0.4008	0.22053	0.062343	0.20855	0.27119	0.077042	0.12228	0.092457	0.16892	0.12158	-2.0896	-2.45	-2.9083	-2.6271	-2.7708	-2.8521	-2.4458	-2.8646	-2.6104	-2.5417	-2.9083	-2.5292	-2.6104	-2.7396	-2.3229	-2.5771	121.659	244.470	261.845	-2.978	124.489	330.524	234.631	325.781	38.365	339.632	322.131	66.036	50.877	130.633	337.644	264.051	0.00013686	0.0002583	8.8419e-05	1153.1	8.3449e-06	5.4082e-06	1255.3	241.71	2.1716e-06	3.5804e-07	302.32	82.231	65.324	19.137	7.7351e-06	26.578	0.00080361	0.00094071	0.00026116	1139	1.0128e-05	1.0442e-05	1237.9	242.01	9.9412e-06	1.0168e-05	304.64	84.391	67.108	19.919	9.8557e-06	27.439	203.667	8.547	11.390	2.927	171.497	160.227	3.309	10.381	234.975	283.900	10.170	17.571	17.634	24.380	216.711	23.298	-8191	255	
687.154	1	1	0	0	0.052935	0.15897	0.11227	0.31052	0.089578	0.14373	0.11374	0.19882	0.042119	0.23373	0.14122	0.12395	0.12347	0.19675	0.17151	0.074608	-2.1792	-2.2313	-2.7875	-2.6104	-2.6521	-2.7938	-2.6229	-2.9042	-2.5	-2.5979	-2.8271	-2.525	-2.7854	-2.95	-2.4562	-2.7292	197.029	-1.269	260.795	320.490	166.361	323.794	272.943	309.355	340.583	331.672	38.407	47.979	325.062	-2.868	339.002	115.101	0.00014151	0.00048095	6.8412e-06	1155	4.5209e-06	2.8532e-06	1249.3	240.04	2.3956e-06	4.5905e-06	302.94	82.552	65.171	19.168	6.2714e-06	26.728	0.0007929	0.00091297	0.00025802	1140.8	9.8271e-06	9.8389e-06	1237.2	240.95	9.6286e-06	9.8788e-06	304.38	84.28	66.899	19.832	9.772e-06	27.469	204.938	91.122	82.920	2.990	197.434	223.926	3.351	10.451	238.756	190.542	10.429	17.703	17.653	23.606	228.691	23.563	-8191	255	
687.250	1	1	0	0	0.20121	0.18436	0.16811	0.29919	0.25067	0.10495	0.11679	0.10336	0.0036718	0.23711	0.1595	0.19012	0.095863	0.18436	0.27451	0.056957	-2.3125	-2.5312	-2.6083	-2.8167	-2.5583	-2.8708	-2.5708	-2.6354	-2.9333	-2.3667	-2.9729	-2.7521	-2.4854	-3.1771	-2.4938	-2.7979	78.496	182.837	296.799	315.019	141.452	272.621	343.631	258.621	88.474	137.054	250.012	351.674	72.689	338.496	138.370	240.667	0.00017607	0.00049508	0.00020269	1155.8	2.9795e-06	5.823e-06	1251.7	240.21	2.4212e-06	5.4219e-06	304.67	82.566	65.618	19.175	2.7202e-06	26.739	0.00075498	0.00089106	0.00025091	1140.9	9.6845e-06	9.9159e-06	1237.6	241.24	9.6509e-06	9.9441e-06	304.96	84.413	67.125	19.937	9.6402e-06	27.492	202.592	101.044	124.813	2.958	92.963	155.483	3.346	10.517	213.369	155.045	10.477	17.731	17.810	23.481	117.766	23.264	-8191	255	
687.347	1	1	0	0	0.17033	0.14739	0.071449	0.1863	0.41126	0.35383	0.2523	0.13566	0.13089	0.30558	0.080816	0.26821	0.085285	0.20254	0.067613	0.033744	-2.4979	-2.2958	-2.7146	-2.7604	-2.425	-2.9813	-2.5604	-2.7958	-2.8542	-2.4813	-2.9271	-2.6	-2.6083	-2.8979	-2.6479	-2.5	57.517	274.552	156.728	281.541	15.796	118.127	240.789	40.372	240.470	31.526	162.772	338.282	41.755	227.702	16.024	246.303	0.00013537	0.00080112	0.00012531	1156.6	5.2294e-06	2.7618e-06	1255.8	241.52	4.009e-06	4.8344e-06	302.92	82.732	65.557	19.208	3.1707e-06	26.595	0.00077118	0.00090688	0.00025301	1141.8	9.5261e-06	9.6113e-06	1239	241.69	9.1048e-06	9.2647e-06	304.69	84.396	66.97	19.875	8.7274e-06	27.363	217.457	59.149	67.411	3.115	204.477	107.673	3.336	10.618	183.283	145.632	10.091	17.423	17.423	23.528	131.326	23.368	-8191	255	
687.443	1	1	0	0	0.20245	0.13508	0.28331	0.053087	0.2188	0.24206	0.11212	0.1917	0.15614	0.16256	0.38053	0.020447	0.08782	0.043821	0.013036	0.094141	-2.3979	-2.4313	-2.7271	-2.7896	-2.675	-2.8271	-2.5687	-2.7313	-2.8208	-2.4833	-2.7917	-2.9229	-2.5083	-2.6312	-2.5458	-2.6354	277.230	81.059	233.832	346.234	139.736	19.260	49.555	-4.274	164.048	244.373	290.069	69.869	296.048	267.443	194.410	346.311	0.00014236	0.00050826	0.00019121	1147.9	3.5692e-06	6.156e-06	1256.7	241.83	3.0251e-06	4.5085e-06	302.82	82.85	65.052	19.223	3.6909e-06	26.697	0.00070344	0.00079355	0.00022197	1138.2	8.4637e-06	8.6107e-06	1236.8	240.69	8.3868e-06	8.5676e-06	303.86	84.012	66.591	19.816	8.4804e-06	27.296	214.801	72.145	90.191	3.028	195.805	161.991	3.309	10.671	247.373	111.544	10.319	17.158	17.783	24.143	177.400	23.297	-8191	255	
687.563	1	1	0	0	0.10999	0.083869	0.14947	0.24153	0.16232	0.21912	0.19812	0.32499	0.13993	0.3175	0.23604	0.06602	0.12895	0.16088	0.15501	0.29829	-2.3333	-2.2854	-2.6896	-3.025	-2.4021	-2.8792	-2.8083	-2.4458	-2.5062	-2.4625	-2.5292	-2.8187	-2.3937	-2.8625	-2.7958	-2.5417	231.085	227.823	165.912	331.417	174.014	243.349	303.232	300.671	137.011	242.149	24.081	316.069	225.167	327.582	153.385	275.963	0.00012609	0.00038505	0.00015587	1157.1	7.8553e-06	4.2519e-06	1250.2	241.49	3.6001e-06	2.711e-06	302.77	82.881	65.355	19.318	4.1567e-06	26.664	0.00068573	0.00080601	0.00022227	1139.2	8.6974e-06	8.8927e-06	1237	240.97	8.8049e-06	9.1131e-06	304.33	84.291	66.906	19.831	9.0582e-06	27.426	203.254	134.357	129.443	2.998	152.055	59.105	3.166	10.619	250.379	127.190	10.219	17.382	17.682	23.822	135.601	23.245	-8191	255	
687.659	1	1	0	0	0.22439	0.14754	0.1435	0.06676	0.2324	0.15541	0.21184	0.15204	0.1591	0.37076	0.10684	0.11715	0.23608	0.12516	0.19138	0.085692	-2.3208	-2.5292	-2.3542	-2.9271	-2.5104	-2.8958	-2.9083	-2.3812	-2.8	-2.4521	-2.6958	-3.0417	-2.4271	-2.7792	-2.7708	-2.4542	208.104	15.393	12.124	294.270	18.401	83.171	342.202	284.975	235.439	233.668	18.914	79.248	302.123	148.294	190.331	287.185	0.00011756	0.00048823	7.2012e-05	1155.1	4.2965e-06	6.2892e-06	1251.2	240.3	4.3961e-06	3.1369e-06	301.5	82.437	64.955	19.091	3.995e-06	26.593	0.00072912	0.0008523	0.00023656	1140.3	9.1097e-06	9.2033e-06	1236.8	240.95	8.9062e-06	9.1531e-06	304.69	84.123	66.774	19.803	8.7967e-06	27.347	184.089	83.417	173.373	3.003	249.444	134.127	3.357	10.639	148.204	173.177	10.304	17.356	17.410	23.559	216.167	23.738	-8191	255	
687.731	1	1	0	0	0.19429	0.24966	0.061553	0.35821	0.056796	0.26556	0.15162	0.21255	0.19106	0.20492	0.077194	0.24589	0.147	0.088062	0.067819	0.055072	-2.3333	-2.6354	-2.4667	-2.9417	-2.5083	-2.675	-2.8542	-2.4292	-2.8312	-2.5458	-2.5333	-3.1208	-2.5146	-2.5604	-2.9583	-2.6292	344.639	85.887	3.187	294.935	197.562	180.184	278.713	278.969	254.117	233.159	64.863	-4.960	209.154	296.097	198.022	212.488	0.00014229	0.00042858	6.2205e-05	1153.4	5.0524e-06	6.0791e-06	1250.8	239.82	3.1647e-06	8.8879e-06	303.45	82.446	65.035	19.111	7.3141e-06	26.397	0.00071377	0.00081814	0.00022717	1138.4	8.8464e-06	9.1114e-06	1235.9	240.89	8.8442e-06	9.2303e-06	304.32	84.255	66.69	19.853	9.2295e-06	27.353	206.378	49.149	145.032	2.961	196.513	111.196	3.295	10.702	88.294	157.888	10.120	17.156	17.654	23.970	187.487	23.307	-8191	255	
687.827	1	1	0	0	0.16407	0.30565	0.086546	0.054997	0.03221	0.16372	0.24759	0.26556	0.039611	0.10383	0.17524	0.051317	0.13389	0.026081	0.34188	0.1611	-2.3312	-2.5417	-2.3229	-2.975	-2.3896	-2.5104	-2.9813	-2.2708	-2.7042	-2.725	-2.3292	-2.9604	-2.5021	-2.6125	-2.7354	-2.3792	7.071	90.426	242.683	323.675	220.469	48.961	327.559	245.720	331.424	224.079	20.493	124.651	343.494	275.336	173.231	257.657	0.00015038	0.00052797	0.00010005	1155.3	6.6834e-07	4.2889e-06	1254.4	240.64	2.3272e-06	3.1752e-06	302.16	82.447	65.522	18.978	5.8284e-06	26.458	0.00073332	0.00084273	0.00023288	1140	8.9817e-06	9.0841e-06	1236.6	241.24	8.5237e-06	8.5932e-06	303.54	83.976	66.748	19.715	8.4086e-06	27.316	212.315	56.093	177.076	3.000	253.964	110.377	3.272	10.640	350.338	175.817	10.019	17.269	18.039	23.550	197.447	23.905	-8191	255	
687.948	1	1	0	0	0.1537	0.17852	0.24332	0.18565	0.27807	0.23308	0.088506	0.21959	0.204	0.24094	0.10019	0.16446	0.17725	0.20162	0.29119	0.2577	-2.1792	-2.7167	-2.2958	-3.0458	-2.4708	-2.3542	-3.1312	-2.5896	-2.4917	-2.7562	-2.4146	-3.025	-2.6104	-2.5667	-2.8021	-2.6146	74.366	293.171	164.700	325.670	164.749	42.857	179.004	267.090	156.735	114.318	25.183	263.070	178.119	339.865	127.141	272.603	0.00010177	0.00029206	0.00014688	1151.1	2.1919e-06	2.1503e-06	1250	239.99	9.8126e-07	3.291e-06	302.46	82.083	65.511	19.184	1.4618e-06	26.573	0.00066982	0.00077976	0.0002191	1137.2	8.424e-06	8.4891e-06	1235.7	240.35	8.3735e-06	8.6662e-06	303.66	83.962	66.646	19.794	8.6541e-06	27.349	209.090	158.186	100.753	2.906	67.029	59.991	3.238	10.590	345.783	104.278	10.143	17.291	17.953	24.609	127.845	23.720	-8191	255	
688.042	1	1	0	0	0.20813	0.14133	0.16537	0.17971	0.12303	0.2398	0.020405	0.20538	0.11918	0.11269	0.033206	0.097151	0.11497	0.30592	0.031653	0.37165	-2.15	-2.6813	-2.275	-2.9208	-2.4771	-2.2604	-3.0417	-2.5146	-2.4417	-2.7188	-2.475	-2.7646	-2.6979	-2.4437	-2.9167	-2.5458	350.140	128.705	87.279	280.949	302.307	10.732	33.248	-6.077	61.739	305.505	255.341	51.112	94.154	91.111	47.978	299.209	0.00014681	0.000887	0.00019402	1154	2.136e-06	3.5887e-06	1255.1	239.99	2.037e-06	6.7887e-06	299.82	82.219	65.414	19.132	5.006e-06	26.581	0.00068493	0.00080494	0.00022245	1136.4	8.8064e-06	8.7634e-06	1236.4	240.61	8.7774e-06	9.0326e-06	302.87	84.06	66.705	19.796	8.6924e-06	27.279	203.135	104.612	58.963	3.021	139.504	113.877	3.130	10.602	90.096	173.049	10.021	17.312	17.277	24.071	182.146	23.799	-8191	255	
688.138	1	1	0	0	0.12355	0.057602	0.10446	0.22562	0.17152	0.21003	0.13413	0.23129	0.15705	0.23809	0.1575	0.15659	0.24596	0.066741	0.20071	0.25518	-2.2125	-3.0333	-2.4167	-3.0021	-2.5708	-2.5479	-2.8812	-2.6354	-2.5979	-2.7271	-2.6188	-2.6979	-2.6583	-2.4917	-2.8438	-2.4021	335.293	238.931	154.111	290.123	329.338	95.133	270.030	261.176	90.161	203.795	334.806	298.863	303.660	302.799	204.885	264.220	0.00011513	0.00031131	0.00018381	1150.4	5.1948e-06	7.1548e-06	1252.3	240.01	3.4001e-06	4.7245e-06	302.23	82.715	65.535	19.208	3.2067e-06	26.608	0.00071261	0.00082322	0.00022355	1136.1	8.7691e-06	8.7546e-06	1234.6	240.48	8.5065e-06	8.7393e-06	303.34	84.084	66.59	19.792	8.4594e-06	27.314	194.147	183.280	91.737	3.066	245.382	170.794	3.368	10.756	192.605	116.977	10.335	17.183	18.327	23.825	162.746	23.675	-8191	255	
688.235	1	1	0	0	0.18705	0.12211	0.10083	0.28257	0.29148	0.25647	0.10505	0.16959	0.072892	0.1481	0.070493	0.15023	0.14779	0.14088	0.2365	0.073062	-2.0062	-2.8083	-2.6083	-2.8063	-2.7292	-2.4792	-2.9708	-2.8312	-2.2812	-2.9708	-2.4938	-2.7062	-2.9104	-2.5333	-2.8625	-2.7792	155.153	217.015	276.655	297.275	50.163	194.866	220.334	58.185	291.719	109.997	239.053	262.769	41.378	30.658	192.031	9.530	0.00015355	0.00023332	0.00013662	1156.1	4.1763e-06	6.2505e-07	1257.4	240.28	1.9689e-06	5.8776e-06	304.33	82.566	64.896	19.154	1.8543e-06	26.45	0.00070162	0.00079468	0.0002227	1137.9	8.7862e-06	9.0428e-06	1235.7	240.72	8.911e-06	9.0785e-06	304.46	84.151	66.777	19.792	9.0074e-06	27.371	202.047	162.486	89.176	3.006	224.802	324.678	3.327	10.529	157.678	79.568	10.396	17.565	17.665	23.865	164.233	23.742	-8191	255	
688.355	1	1	0	0	0.27376	0.19843	0.13265	0.15941	0.34522	0.21338	0.16482	0.061927	0.27209	0.23424	0.11165	0.19965	0.14904	0.20558	0.22542	0.31543	-2.1104	-2.7375	-2.4729	-2.5875	-2.775	-2.3125	-2.9688	-2.5917	-2.3104	-2.8208	-2.4917	-2.5667	-2.8479	-2.3667	-2.8917	-2.6792	289.912	21.898	140.549	239.045	83.977	181.027	295.193	268.781	161.105	194.278	-3.438	114.544	31.023	131.742	47.188	25.227	0.00012959	0.00015385	4.5072e-05	1152	7.0377e-06	1.1852e-06	1252	240.22	3.5701e-06	4.3664e-06	300.94	82.198	65.515	19.313	3.3274e-06	26.493	0.000736	0.00086492	0.00023941	1137.7	9.3044e-06	9.4593e-06	1236.2	240.58	9.3069e-06	9.5502e-06	303.64	84.19	66.836	19.866	9.4169e-06	27.383	189.243	18.619	31.677	2.822	166.374	225.238	3.325	10.818	225.554	134.398	9.898	17.416	17.702	23.601	175.755	23.774	-8191	255	
688.427	1	1	0	0	0.1979	0.2019	0.13994	0.20832	0.23423	0.1638	0.14475	0.29305	0.1021	0.30007	0.12813	0.095497	0.12557	0.13376	0.12445	0.16151	-1.8937	-2.8292	-2.4958	-2.6125	-2.8854	-2.4125	-2.8521	-2.775	-2.6833	-2.7313	-2.4938	-2.5771	-2.8292	-2.3729	-2.7062	-2.6958	296.382	219.355	339.535	-2.732	131.379	83.354	265.545	205.858	102.296	307.308	325.522	2.618	14.314	145.896	26.274	232.373	0.00012282	0.00061706	6.562e-05	1156	6.0844e-06	4.0857e-06	1251.9	240.6	5.5417e-06	3.4348e-06	303.32	82.499	65.286	19.145	3.4664e-06	26.595	0.0007657	0.00087319	0.00024091	1139.7	9.227e-06	9.4794e-06	1235.3	240.78	9.3032e-06	9.5949e-06	304.92	84.111	66.79	19.791	9.522e-06	27.402	194.838	22.963	43.182	3.062	160.504	169.631	3.250	10.787	178.625	144.502	10.243	17.488	17.993	23.905	175.993	23.821	-8191	255	
688.548	1	1	0	0	0.12652	0.10109	0.070851	0.35193	0.10515	0.14783	0.29788	0.24369	0.21634	0.037265	0.24838	0.25928	0.082948	0.11112	0.23214	0.12109	-1.8729	-2.8271	-2.4917	-2.7938	-2.6958	-2.4813	-2.9458	-2.875	-2.3937	-2.75	-2.4375	-2.5458	-2.9583	-2.5458	-2.7	-3.0062	349.079	202.495	304.432	312.401	203.425	139.256	302.066	36.636	209.614	274.269	272.779	248.083	149.894	299.585	49.884	127.706	0.00016501	0.00033857	0.0001269	1153.5	2.9129e-06	3.1429e-06	1252.2	239.95	1.6086e-06	3.4694e-06	302.06	82.455	65.286	19.127	6.7566e-06	26.731	0.00078346	0.00090238	0.00025005	1137.3	9.5634e-06	9.5373e-06	1234.3	240.87	9.4625e-06	9.6863e-06	304.05	84.133	66.803	19.835	9.3996e-06	27.44	198.204	44.512	97.976	2.936	125.159	217.804	3.129	10.623	42.069	178.747	10.039	17.316	17.280	23.771	163.993	23.815	-8191	255	
688.644	1	1	0	0	0.10999	0.086206	0.082095	0.25452	0.02868	0.042285	0.16056	0.24558	0.42392	0.22884	0.10743	0.15285	0.51086	0.11601	0.057133	0.19136	-1.8292	-2.7375	-2.6396	-2.4271	-2.7875	-2.525	-2.6917	-2.6729	-2.4833	-2.6875	-2.6146	-2.3125	-2.8854	-2.6854	-2.5438	-2.9292	250.838	221.647	7.933	349.995	117.021	299.396	162.880	308.737	304.673	230.476	326.389	-2.027	248.650	193.136	118.246	312.466	0.00018183	0.00040906	0.00015941	1152.2	4.6881e-06	5.6593e-06	1249.6	240.38	3.7214e-06	5.4892e-06	304.05	82.426	65.087	19.143	3.6712e-06	26.542	0.00075464	0.00088594	0.00024732	1136.9	9.3604e-06	9.7928e-06	1234.3	240.67	9.5492e-06	9.551e-06	304.36	84.217	66.788	19.826	9.4842e-06	27.342	213.166	115.893	80.496	3.146	248.456	131.577	3.171	10.349	220.412	218.534	10.254	17.168	17.738	23.543	204.488	23.547	-8191	255	
688.740	1	1	0	0	0.11307	0.17676	0.096662	0.33593	0.1013	0.073073	0.13027	0.24408	0.055583	0.096456	0.14884	0.23627	0.24115	0.10303	0.057159	0.11948	-1.8208	-2.5958	-2.7542	-2.5438	-2.8875	-2.7042	-2.6417	-2.9917	-2.4271	-2.5833	-2.9104	-2.45	-2.9104	-2.7292	-2.5208	-2.7521	272.781	107.559	245.009	277.353	211.250	336.010	275.272	264.889	96.456	201.252	331.696	290.342	312.691	56.473	9.216	268.540	0.00012367	0.00030145	0.00014073	1147.4	3.6643e-06	4.1769e-06	1250.2	240.49	3.665e-06	5.9263e-06	302.5	82.319	65.01	19.088	3.545e-06	26.439	0.00074982	0.0008872	0.00025011	1136.7	9.5082e-06	9.9839e-06	1235.8	241.13	9.5348e-06	9.551e-06	303.59	84.181	66.809	19.792	9.5142e-06	27.346	195.137	60.448	44.587	2.844	145.824	191.717	3.546	10.808	207.311	221.191	10.438	17.359	17.676	23.523	131.781	23.697	-8191	255	
688.836	1	1	0	0	0.16879	0.096007	0.17726	0.18221	0.11737	0.16075	0.38994	0.31954	0.13113	0.13942	0.01773	0.35161	0.07766	0.17079	0.1385	0.27	-1.9813	-2.8208	-2.7792	-2.4271	-2.7708	-2.6875	-2.5958	-3.0083	-2.4708	-2.85	-2.9646	-2.4813	-2.7125	-2.7313	-2.4042	-2.9396	290.297	325.511	9.589	304.243	42.012	182.331	299.656	218.283	224.404	206.668	179.237	341.248	289.249	122.805	266.811	235.276	0.0001341	0.00049954	0.00010428	1153.9	2.5858e-06	2.3479e-06	1254.6	239.92	3.9001e-06	3.3503e-06	302.08	82.814	64.909	19.087	8.4018e-07	26.452	0.00075669	0.00088856	0.00024655	1138.4	9.4081e-06	9.6481e-06	1235.1	241.12	9.4055e-06	9.4934e-06	303.91	84.153	66.747	19.786	9.1254e-06	27.332	218.580	110.136	86.745	3.063	222.680	171.321	3.364	10.484	209.446	120.994	10.102	17.290	17.494	23.852	236.162	23.519	-8191	255	
688.955	1	1	0	0	0.29825	0.050356	0.20718	0.34501	0.13906	0.19583	0.264	0.1388	0.22836	0.31425	0.28838	0.13857	0.10784	0.46845	0.19006	0.21999	-2.0917	-2.5354	-2.8229	-2.425	-2.7687	-2.8354	-2.5646	-2.875	-2.775	-2.575	-2.9188	-2.5958	-2.875	-2.6771	-2.4104	-3.0104	203.589	155.030	86.543	5.975	339.295	338.430	303.395	332.643	205.597	279.562	323.141	228.424	207.480	73.719	78.932	235.236	0.00016594	0.00074805	1.7868e-05	1152.1	4.9138e-06	2.8667e-06	1252.9	239.51	3.6981e-06	3.8529e-06	302.69	82.329	65.642	19.355	3.9275e-06	26.473	0.00073938	0.00085687	0.00023945	1138	8.9268e-06	9.4592e-06	1236.9	240.46	9.0874e-06	9.349e-06	304.42	84.166	66.941	19.863	9.1645e-06	27.295	202.123	72.869	109.189	2.893	210.611	197.348	3.506	10.837	228.330	178.084	10.381	17.366	17.633	23.738	128.243	23.705	-8191	255	
689.027	1	1	0	0	0.11685	0.065772	0.141	0.21214	0.13066	0.19511	0.21589	0.27613	0.42196	0.14784	0.15472	0.2684	0.11715	0.044746	0.33281	0.13018	-2.0167	-2.4562	-2.8979	-2.5854	-2.5667	-2.7229	-2.6208	-2.7062	-2.6146	-2.5229	-2.9104	-2.5875	-2.4979	-2.7396	-2.3521	-2.8125	130.094	75.123	81.939	352.488	144.971	196.564	285.676	342.445	324.311	151.922	336.505	26.301	115.223	319.790	191.100	228.793	0.00012663	0.0005381	0.00010292	1147.3	4.1264e-06	5.983e-07	1256.5	240.22	2.2482e-06	2.6435e-07	301.26	82.599	65.414	19.121	1.3284e-06	26.733	0.00073541	0.00086538	0.00024185	1137.3	9.3616e-06	9.4826e-06	1237.2	241.04	9.2723e-06	9.4091e-06	303.64	84.093	66.842	19.743	8.9709e-06	27.329	211.589	92.508	45.128	3.071	129.026	222.430	3.351	10.547	271.213	94.792	10.336	16.991	17.773	23.806	255.002	23.715	-8191	255	
689.123	1	1	0	0	0.29423	0.1261	0.24918	0.17403	0.13153	0.20582	0.30664	0.20454	0.15137	0.084496	0.079373	0.18708	0.22313	0.10596	0.10178	0.14281	-2.0875	-2.5583	-2.8042	-2.5938	-2.5792	-2.8312	-2.6625	-2.7833	-2.7083	-2.4542	-3.0354	-2.6125	-2.5958	-2.9625	-2.6021	-2.8229	232.176	-5.395	313.390	12.526	282.045	294.291	223.929	283.095	312.526	140.422	204.076	50.031	-5.193	54.991	178.929	174.876	0.00013614	6.8289e-05	8.5856e-05	1147.3	5.8888e-06	1.9621e-06	1250.6	240.41	1.3462e-06	6.6171e-06	301.93	82.611	65.217	19.189	3.5974e-06	26.427	0.00073842	0.00083803	0.00022767	1136.7	8.8858e-06	9.1864e-06	1236	240.49	8.8926e-06	8.8889e-06	303.49	84.061	66.659	19.775	8.8878e-06	27.242	204.738	184.745	74.935	3.066	231.446	153.161	3.314	10.712	17.483	169.172	10.279	17.382	17.747	24.114	170.846	23.748	-8191	255	
689.219	1	1	0	0	0.16344	0.083473	0.060147	0.14093	0.24212	0.17751	0.18924	0.27391	0.051615	0.14685	0.23107	0.31801	0.063458	0.21665	0.18252	0.1384	-2.2375	-2.3958	-2.8438	-2.5667	-2.5979	-2.9333	-2.6875	-2.6604	-2.8521	-2.2875	-3.0208	-2.7604	-2.4458	-2.8521	-2.3667	-2.6896	329.104	84.490	253.747	61.232	265.026	259.287	284.476	319.885	218.322	206.328	311.360	309.805	167.445	19.889	309.075	81.556	0.00016379	0.00034509	0.00011409	1152.7	2.6352e-06	1.8148e-06	1251.9	240.06	4.0096e-06	4.9556e-06	300.74	82.023	65.391	19.175	4.1111e-06	26.529	0.00071177	0.0008128	0.00022506	1137.8	8.7398e-06	8.7813e-06	1235.5	240.71	8.6663e-06	8.7546e-06	303.32	83.813	66.72	19.728	8.6123e-06	27.287	205.574	44.193	158.013	2.777	236.300	116.606	3.331	10.594	161.094	162.335	10.244	17.158	17.838	23.958	182.310	23.365	-8191	255	
689.339	1	1	0	0	0.40596	0.18943	0.26241	0.25244	0.093904	0.11765	0.10826	0.17137	0.14936	0.057192	0.2806	0.098208	0.1442	0.3005	0.20632	0.21562	-2.45	-2.2562	-2.6854	-2.8271	-2.4	-2.6854	-2.6646	-2.8479	-2.7917	-2.5771	-2.7604	-2.6708	-2.4729	-2.8771	-2.5979	-2.5958	279.382	310.230	307.671	259.406	95.791	145.980	334.982	115.838	154.293	121.377	261.281	10.812	269.143	84.663	116.620	7.449	0.00015247	0.00034431	0.0001338	1154.4	1.8114e-06	6.8304e-06	1250.7	240.79	1.321e-06	2.692e-06	301.07	81.759	64.898	19.256	4.1065e-06	26.531	0.00067588	0.00079198	0.00022172	1139.5	8.6875e-06	8.8447e-06	1235	240.81	8.6526e-06	8.7391e-06	302.91	83.626	66.642	19.782	8.6479e-06	27.277	210.452	14.312	86.125	2.981	130.047	129.758	3.489	10.459	-3.623	135.776	10.019	17.553	17.889	23.778	139.718	23.665	-8191	255	
689.436	1	1	0	0	0.051877	0.18063	0.10616	0.19682	0.30311	0.089299	0.13634	0.10737	0.069072	0.17234	0.14163	0.23632	0.13744	0.1443	0.32663	0.012994	-2.5062	-2.4771	-2.4917	-2.8563	-2.2417	-2.7417	-2.7396	-2.6562	-2.8271	-2.5229	-2.7646	-2.8333	-2.4083	-2.7708	-2.6604	-2.7917	100.236	74.955	132.727	40.390	186.032	350.433	302.981	194.968	15.272	241.364	287.969	55.330	4.786	315.975	290.727	47.995	0.0001467	0.00038828	0.00016975	1153.3	4.8047e-06	1.3858e-06	1251.9	241.4	1.7292e-06	6.1705e-06	302.27	82.264	64.838	19.129	1.812e-07	26.343	0.0006929	0.00080229	0.00022465	1136.6	8.5132e-06	8.7171e-06	1233.9	240.36	8.328e-06	8.53e-06	303.07	83.552	66.31	19.709	8.1645e-06	27.188	194.825	93.379	78.509	2.924	254.033	313.596	3.287	10.702	164.593	189.808	9.997	17.232	17.962	23.961	55.591	23.519	-8191	255	
689.532	1	1	0	0	0.10004	0.19552	0.24555	0.069174	0.37262	0.19863	0.16323	0.15439	0.25175	0.18819	0.20113	0.2602	0.11778	0.050324	0.056482	0.29819	-2.2646	-2.4646	-2.7188	-2.8625	-2.4771	-2.9062	-2.8042	-2.5312	-2.9021	-2.4958	-2.575	-2.9167	-2.4896	-2.7417	-2.725	-2.6229	11.238	114.694	-1.677	128.510	99.125	182.104	293.310	0.653	209.660	135.104	320.784	331.495	224.796	210.258	187.248	244.753	0.00012612	0.00039551	6.8419e-05	1154.5	4.3353e-06	1.8043e-06	1249.5	240.22	1.9581e-06	6.4777e-06	302.71	82.387	65.076	19.175	3.5769e-06	26.422	0.00066006	0.00077051	0.00021335	1138.2	8.4032e-06	8.3998e-06	1233.7	239.92	8.2726e-06	8.4405e-06	302.9	84.026	66.527	19.687	8.0603e-06	27.161	188.417	90.302	88.797	3.049	150.795	79.117	3.250	10.701	205.265	91.857	10.369	17.288	17.838	24.068	189.821	23.224	-8191	255	
689.628	1	1	0	0	0.13025	0.03567	0.23201	0.19087	0.19405	0.14964	0.29392	0.14633	0.1007	0.13599	0.11153	0.11149	0.098318	0.18649	0.13415	0.24758	-2.525	-2.5271	-2.6146	-2.8854	-2.45	-2.7167	-2.8604	-2.5417	-2.7854	-2.5312	-2.6354	-2.95	-2.2833	-2.7896	-2.6167	-2.4167	283.882	250.184	138.554	276.806	334.144	112.903	266.168	75.684	25.779	339.186	169.200	4.952	69.480	350.552	349.879	256.533	0.00012313	0.00076849	5.2483e-05	1151.2	4.3517e-06	2.4245e-06	1255.4	240.62	2.8526e-06	4.3983e-06	300.61	81.906	65.245	18.938	6.3083e-06	26.492	0.00066139	0.00075574	0.00021178	1135.8	8.2669e-06	8.3101e-06	1235.1	239.94	8.1652e-06	8.5157e-06	302.55	83.716	66.58	19.648	8.3757e-06	27.283	211.408	62.492	28.079	2.943	235.716	201.804	3.187	10.609	182.994	116.243	10.287	17.189	17.711	24.206	169.908	23.884	-8191	255	
689.722	1	1	0	0	0.11643	0.079782	0.099727	0.18388	0.22119	0.071337	0.058137	0.079939	0.16493	0.092925	0.10093	0.052039	0.20163	0.09254	0.059992	0.31107	-2.1542	-2.6667	-2.4479	-3.0271	-2.3187	-2.7667	-2.9271	-2.5833	-2.7396	-2.525	-2.4625	-2.9062	-2.3729	-2.4417	-2.5792	-2.5229	-5.167	179.072	75.126	329.779	292.355	201.625	44.061	90.957	158.165	331.962	5.045	282.136	306.041	92.813	204.286	262.892	0.00011352	6.0826e-05	4.5386e-05	1155.5	4.6446e-06	7.4455e-06	1250.3	240.17	4.8702e-06	2.7536e-06	301.64	82.432	64.991	19.113	3.2444e-06	26.586	0.00066426	0.00076422	0.00020988	1137.1	8.3075e-06	8.3551e-06	1234.2	240.2	8.2047e-06	8.405e-06	302.82	83.755	66.425	19.699	8.1762e-06	27.239	212.857	231.294	43.369	3.081	142.180	171.423	3.353	10.714	210.258	105.802	10.693	17.376	17.570	24.025	96.984	23.545	-8191	255	
689.818	1	1	0	0	0.21022	0.074299	0.11575	0.095153	0.23201	0.2129	0.24759	0.19542	0.15343	0.06675	0.12921	0.39752	0.17607	0.20583	0.077593	0.035817	-2.0375	-2.8125	-2.3063	-2.8833	-2.4562	-2.675	-2.7458	-2.7042	-2.8229	-2.7104	-2.4896	-3.1521	-2.6833	-2.7646	-2.6937	-2.4333	188.960	49.133	37.354	296.333	48.186	278.869	264.015	276.998	149.694	282.800	260.906	307.798	320.673	207.286	58.949	69.143	0.00015781	0.00055978	0.00013971	1156.1	1.2168e-06	4.3008e-06	1252	240.07	5.5074e-06	4.8948e-06	302.76	82.075	64.962	19.13	5.7282e-06	26.551	0.00067892	0.00077886	0.0002138	1136.4	8.3032e-06	8.427e-06	1232.4	240.4	8.2785e-06	8.3753e-06	303.23	83.673	66.506	19.677	8.0625e-06	27.238	209.851	82.858	39.591	2.762	239.009	140.477	3.181	10.601	196.620	128.951	10.117	17.378	17.862	23.608	154.387	23.473	-8191	255	
689.939	1	1	0	0	0.086465	0.13621	0.14409	0.16565	0.13126	0.24481	0.22849	0.24929	0.13641	0.17144	0.082589	0.1535	0.17104	0.30281	0.35657	0.24805	-2.3667	-2.6646	-2.4562	-3.0271	-2.6229	-2.3563	-2.7958	-2.4562	-2.6167	-2.6896	-2.4458	-2.7396	-2.5938	-2.5354	-2.7812	-2.5271	101.579	174.202	162.331	329.263	332.646	178.840	306.289	323.488	219.146	209.195	298.656	7.127	212.716	303.913	7.774	282.291	0.0001749	0.00037147	0.00013319	1149.2	6.393e-06	3.5654e-06	1255.5	239.63	3.6289e-06	1.7005e-06	302.68	82.289	64.937	19.155	2.1943e-06	26.412	0.00065588	0.00076525	0.00021062	1135.4	8.1961e-06	8.1999e-06	1232.9	239.79	8.1788e-06	8.2623e-06	303.31	83.815	66.346	19.741	8.0173e-06	27.157	193.917	57.826	22.285	2.896	185.017	132.881	3.015	10.570	153.409	33.183	10.231	17.692	17.669	23.557	68.587	23.776	-8191	255	
690.035	1	1	0	0	0.10612	0.17318	0.10201	0.28535	0.10707	0.076434	0.11729	0.37756	0.097218	0.058721	0.11262	0.15428	0.12729	0.29175	0.017298	0.2711	-2.1896	-2.7	-2.2188	-2.9396	-2.7042	-2.4333	-2.9833	-2.6	-2.5729	-2.7521	-2.4188	-2.6958	-2.6833	-2.425	-3.025	-2.6396	26.329	174.771	81.144	325.149	330.130	321.380	340.892	234.530	206.284	121.885	215.229	334.011	294.844	59.787	94.366	283.397	0.00013876	0.00053793	0.00012376	1150.5	1.6819e-06	6.1502e-06	1253.4	239.36	3.0173e-06	4.1775e-06	300.04	82.073	64.845	18.937	6.0697e-06	26.55	0.00066074	0.00074935	0.00021235	1134.9	8.1367e-06	8.2229e-06	1234.9	239.5	7.9758e-06	8.0418e-06	302.47	83.824	66.382	19.614	7.8854e-06	27.201	196.100	99.001	71.011	3.032	172.376	100.694	3.672	10.624	236.908	154.151	10.147	17.370	17.415	24.366	129.189	23.011	-8191	255	
690.131	1	1	0	0	0.065411	0.047258	0.17992	0.40596	0.11361	0.093138	0.2008	0.057618	0.21969	0.091101	0.32685	0.24506	0.23642	0.23728	0.071264	0.19751	-2.1333	-2.7917	-2.3563	-2.9083	-2.5458	-2.4688	-3.1896	-2.7208	-2.5771	-2.8021	-2.4313	-2.8438	-3.0417	-2.3646	-2.8917	-2.4875	351.779	88.670	155.313	294.149	74.089	74.617	237.068	318.770	233.828	250.250	13.464	251.053	21.936	162.351	67.243	40.072	0.00014945	0.00022178	6.2684e-05	1147.5	7.4211e-06	1.7908e-06	1250.1	239.44	2.0344e-06	7.0816e-07	302.37	82.096	65.162	19.177	1.7456e-06	26.455	0.00065004	0.00074414	0.00020804	1134.3	7.9729e-06	8.1659e-06	1230.6	239.75	7.8709e-06	7.9589e-06	302.56	83.46	66.49	19.641	7.5702e-06	27.165	199.375	61.002	100.675	3.049	209.819	241.246	3.203	10.607	78.022	117.062	10.038	17.388	17.635	24.118	303.530	23.318	-8191	255	
#DATA ENDS
