BOXY.EXE: ISS Imagent and Oximeter Data Acquisition Program Version 0.80
Ascii Record File

#ACQ INFORMATION
2  Detector Channels 
16  External MUX Channels 
1  Auxiliary Channels 
5000  Waveform (CCF) Frequency (Hz)
1  Waveforms Skipped 
30  Waveforms Averaged 
1  Cycles Averaged 
16  Acquisitions per Waveform 
10.0806  Updata Rate (Hz) 

#FILE INFORMATION
TRUE -- External MUX Channel results are PARSED.
FALSE -- AC DC and Phase are NOT grouped.
TRUE -- Companion Program Settings File CREATED.
FALSE -- AC data not excluded
FALSE -- DC data not excluded
FALSE -- Phase data not excluded
FALSE -- Auxillary Chn. data not excluded
Tab delimiters

#CALIBRATION STATE
TRUE -- Waveform Calibration Values APPLIED.


#AUX CALIBRATION VALUES
Val Type	aux-1	

Term	1.0000e+00	
Factor	0.0000e+00	


#WF CALIBRATION VALUES
A = Detector Channel
Val Type	A-AC1	A-AC2	A-AC3	A-AC4	A-AC5	A-AC6	A-AC7	A-AC8	A-AC9	A-AC10	A-AC11	A-AC12	A-AC13	A-AC14	A-AC15	A-AC16	A-DC1	A-DC2	A-DC3	A-DC4	A-DC5	A-DC6	A-DC7	A-DC8	A-DC9	A-DC10	A-DC11	A-DC12	A-DC13	A-DC14	A-DC15	A-DC16	A-Ph1	A-Ph2	A-Ph3	A-Ph4	A-Ph5	A-Ph6	A-Ph7	A-Ph8	A-Ph9	A-Ph10	A-Ph11	A-Ph12	A-Ph13	A-Ph14	A-Ph15	A-Ph16	

Term	0.00000e+00	0.00000e+00	0.00000e+00	0.00000e+00	0.00000e+00	0.00000e+00	0.00000e+00	0.00000e+00	0.00000e+00	0.00000e+00	0.00000e+00	0.00000e+00	0.00000e+00	0.00000e+00	0.00000e+00	0.00000e+00	0.00000e+00	0.00000e+00	0.00000e+00	0.00000e+00	0.00000e+00	0.00000e+00	0.00000e+00	0.00000e+00	0.00000e+00	0.00000e+00	0.00000e+00	0.00000e+00	0.00000e+00	0.00000e+00	0.00000e+00	0.00000e+00	0.00000e+00	0.00000e+00	0.00000e+00	0.00000e+00	0.00000e+00	0.00000e+00	0.00000e+00	0.00000e+00	0.00000e+00	0.00000e+00	0.00000e+00	0.00000e+00	0.00000e+00	0.00000e+00	0.00000e+00	0.00000e+00	
Factor	1.00000e+00	1.00000e+00	1.00000e+00	1.00000e+00	1.00000e+00	1.00000e+00	1.00000e+00	1.00000e+00	1.00000e+00	1.00000e+00	1.00000e+00	1.00000e+00	1.00000e+00	1.00000e+00	1.00000e+00	1.00000e+00	1.00000e+00	1.00000e+00	1.00000e+00	1.00000e+00	1.00000e+00	1.00000e+00	1.00000e+00	1.00000e+00	1.00000e+00	1.00000e+00	1.00000e+00	1.00000e+00	1.00000e+00	1.00000e+00	1.00000e+00	1.00000e+00	X	X	X	X	X	X	X	X	X	X	X	X	X	X	X	X	

B = Detector Channel
Val Type	B-AC1	B-AC2	B-AC3	B-AC4	B-AC5	B-AC6	B-AC7	B-AC8	B-AC9	B-AC10	B-AC11	B-AC12	B-AC13	B-AC14	B-AC15	B-AC16	B-DC1	B-DC2	B-DC3	B-DC4	B-DC5	B-DC6	B-DC7	B-DC8	B-DC9	B-DC10	B-DC11	B-DC12	B-DC13	B-DC14	B-DC15	B-DC16	B-Ph1	B-Ph2	B-Ph3	B-Ph4	B-Ph5	B-Ph6	B-Ph7	B-Ph8	B-Ph9	B-Ph10	B-Ph11	B-Ph12	B-Ph13	B-Ph14	B-Ph15	B-Ph16	

Term	0.00000e+00	0.00000e+00	0.00000e+00	0.00000e+00	0.00000e+00	0.00000e+00	0.00000e+00	0.00000e+00	0.00000e+00	0.00000e+00	0.00000e+00	0.00000e+00	0.00000e+00	0.00000e+00	0.00000e+00	0.00000e+00	0.00000e+00	0.00000e+00	0.00000e+00	0.00000e+00	0.00000e+00	0.00000e+00	0.00000e+00	0.00000e+00	0.00000e+00	0.00000e+00	0.00000e+00	0.00000e+00	0.00000e+00	0.00000e+00	0.00000e+00	0.00000e+00	-5.49489e+01	-1.30018e+02	-1.15029e+02	-1.82000e+02	-4.48403e+01	-6.38213e+01	-1.54057e+02	-1.62015e+02	-3.85132e+01	-6.38819e+01	-1.69547e+02	-1.75151e+02	-1.81293e+02	-1.75935e+02	-4.59049e+01	-1.48675e+02	
Factor	1.87765e-05	1.88899e-04	5.74682e-05	1.52957e-01	1.97764e-06	2.23793e-06	1.65064e-01	6.35851e-02	1.55218e-06	1.92868e-06	8.55358e-02	2.11266e-01	3.09704e-02	8.91294e-03	1.86578e-06	1.29532e-02	1.43335e-05	2.95678e-05	8.19797e-06	7.80900e-02	2.80065e-07	3.30729e-07	7.91658e-02	3.25726e-02	2.84905e-07	3.29813e-07	4.25583e-02	1.04478e-01	1.60749e-02	4.61447e-03	3.00568e-07	6.47548e-03	X	X	X	X	X	X	X	X	X	X	X	X	X	X	X	X	



#DISTANCE SETTINGS
A = Detector Channel
A-1	A-2	A-3	A-4	A-5	A-6	A-7	A-8	A-9	A-10	A-11	A-12	A-13	A-14	A-15	A-16	

2.5000e+00	3.0000e+00	2.5000e+00	3.0000e+00	2.0000e+00	3.0000e+00	1.5000e+00	3.0000e+00	3.0000e+00	3.0000e+00	3.0000e+00	3.0000e+00	3.0000e+00	3.0000e+00	1.5000e+00	3.0000e+00	

B = Detector Channel
B-1	B-2	B-3	B-4	B-5	B-6	B-7	B-8	B-9	B-10	B-11	B-12	B-13	B-14	B-15	B-16	

1.0000e+01	1.0000e+01	1.0000e+01	1.4400e+00	1.0000e+01	1.0000e+01	1.5100e+00	1.9400e+00	1.0000e+01	1.0000e+01	1.9900e+00	2.4900e+00	2.4100e+00	2.9000e+00	1.0000e+01	2.9800e+00	




#DATA BEGINS
time	group	step	mark	flag	A-AC1	A-AC2	A-AC3	A-AC4	A-AC5	A-AC6	A-AC7	A-AC8	A-AC9	A-AC10	A-AC11	A-AC12	A-AC13	A-AC14	A-AC15	A-AC16	A-DC1	A-DC2	A-DC3	A-DC4	A-DC5	A-DC6	A-DC7	A-DC8	A-DC9	A-DC10	A-DC11	A-DC12	A-DC13	A-DC14	A-DC15	A-DC16	A-Ph1	A-Ph2	A-Ph3	A-Ph4	A-Ph5	A-Ph6	A-Ph7	A-Ph8	A-Ph9	A-Ph10	A-Ph11	A-Ph12	A-Ph13	A-Ph14	A-Ph15	A-Ph16	B-AC1	B-AC2	B-AC3	B-AC4	B-AC5	B-AC6	B-AC7	B-AC8	B-AC9	B-AC10	B-AC11	B-AC12	B-AC13	B-AC14	B-AC15	B-AC16	B-DC1	B-DC2	B-DC3	B-DC4	B-DC5	B-DC6	B-DC7	B-DC8	B-DC9	B-DC10	B-DC11	B-DC12	B-DC13	B-DC14	B-DC15	B-DC16	B-Ph1	B-Ph2	B-Ph3	B-Ph4	B-Ph5	B-Ph6	B-Ph7	B-Ph8	B-Ph9	B-Ph10	B-Ph11	B-Ph12	B-Ph13	B-Ph14	B-Ph15	B-Ph16	aux-1	digaux	

796.019	1	1	0	256	0.21296	0.13484	0.25611	0.2674	0.024926	0.16732	0.13695	0.27593	0.26724	0.18493	0.21513	0.09249	0.086866	0.087319	0.2192	0.21332	-2.6167	-2.7687	-2.8021	-3.1542	-2.8875	-2.8708	-3.225	-2.6396	-3.2188	-3	-2.8833	-3.1063	-2.8354	-3.0667	-2.9354	-2.7917	427.529	282.512	412.432	464.018	362.862	221.380	430.124	159.793	309.940	508.615	457.929	365.221	465.845	335.801	480.956	507.522	0.00029741	0.00039924	0.00010233	1248.8	4.4479e-06	4.2741e-06	1312.6	264.23	3.4528e-06	3.1976e-06	322.25	93.497	71.099	20.827	3.9608e-06	28.745	0.00026036	0.00021344	5.4841e-05	1233.7	2.7423e-06	2.0822e-06	1295.6	261.6	2.4383e-06	1.9775e-06	321.55	90.846	71.267	20.942	2.1115e-06	29.129	270.162	247.151	250.658	169.408	298.050	314.107	169.479	176.556	313.048	304.769	176.416	182.517	183.174	189.615	299.566	189.352	-8191	255	
796.115	1	1	0	0	0.10441	0.10964	0.23438	0.31073	0.15792	0.027828	0.2059	0.15107	0.16056	0.13351	0.35406	0.10334	0.15051	0.13829	0.23322	0.075983	-2.7604	-2.9708	-2.8542	-3.2542	-2.8187	-3.0208	-3.3375	-2.7083	-3.0583	-3.1437	-2.8708	-3.2104	-2.825	-3.0833	-3.1229	-2.7062	357.081	329.081	214.386	514.919	164.844	170.711	395.281	445.709	308.730	413.484	478.816	418.137	485.225	499.787	438.414	388.615	0.00029971	0.00033765	0.00012658	1240.5	3.8512e-06	3.3046e-06	1306.5	263.84	2.9231e-06	2.8165e-06	323.37	92.409	71.403	20.612	2.9544e-06	29.081	0.0002532	0.00019213	5.6224e-05	1226.3	2.6857e-06	2.0099e-06	1288.9	261.68	2.2424e-06	2.2565e-06	321.2	91	71.503	20.921	2.4346e-06	29.334	265.941	255.989	253.061	169.624	315.910	295.022	169.518	176.722	314.006	307.242	176.141	183.288	183.195	189.939	342.744	189.220	-8191	255	
796.211	1	1	0	0	0.12101	0.17797	0.14381	0.081077	0.13166	0.029733	0.1364	0.20151	0.17342	0.16167	0.2696	0.067506	0.39317	0.079513	0.022592	0.061609	-2.6688	-2.7604	-2.8396	-3.225	-2.9208	-2.7896	-3.3729	-2.7583	-3.0563	-2.9646	-2.7521	-3.0917	-2.8625	-2.8354	-3.225	-2.9562	311.294	410.270	289.292	201.217	262.093	181.023	424.768	492.688	183.484	215.880	455.559	163.244	483.441	478.018	179.609	235.668	0.00030021	0.00026423	8.5947e-05	1243.9	6.4711e-06	3.1108e-06	1309.6	264.23	4.4434e-06	3.5863e-06	323.3	93.738	71.831	20.878	4.1359e-06	29.081	0.00027126	0.00019453	6.1587e-05	1228.5	2.8053e-06	2.3385e-06	1291	262.08	2.4686e-06	2.2922e-06	322.07	91.578	71.932	21.045	2.4358e-06	29.294	266.164	238.075	252.576	169.622	321.080	323.895	169.472	177.001	310.828	304.440	176.282	182.296	183.258	189.634	342.063	189.229	-8191	255	
796.308	1	1	0	0	0.25464	0.11997	0.036898	0.37944	0.20053	0.16232	0.15833	0.32767	0.1312	0.11903	0.16031	0.18994	0.066634	0.17032	0.086962	0.29981	-2.5354	-2.8354	-2.6437	-3.2292	-2.7771	-2.9292	-3.4896	-2.7208	-3.0271	-3.2229	-2.9313	-3.1708	-2.9479	-2.8375	-3.15	-2.7292	426.616	462.758	391.961	479.099	412.259	377.490	444.382	496.888	439.548	227.473	383.125	399.557	469.884	329.273	218.723	474.570	0.00031392	0.0003861	0.00010844	1254.8	5.0013e-06	3.9641e-06	1320.6	265.65	2.8802e-06	3.5108e-06	324.99	93.144	71.673	20.606	2.7985e-06	28.775	0.00027861	0.00024012	6.514e-05	1238.6	3.0463e-06	2.6651e-06	1300.4	263.2	2.8449e-06	2.721e-06	323.18	91.614	71.874	20.952	2.7383e-06	29.313	269.463	243.627	249.595	169.451	317.928	307.426	169.787	176.537	324.708	315.206	176.082	182.649	182.970	190.004	307.065	189.083	-8191	255	
796.426	1	1	0	0	0.11204	0.19693	0.08849	0.08557	0.038973	0.18467	0.2405	0.096048	0.034962	0.21358	0.10416	0.032952	0.16334	0.22963	0.10074	0.20205	-2.575	-2.9896	-2.6979	-3.3042	-2.875	-2.7896	-3.3542	-2.8292	-2.8937	-3.0875	-2.8167	-3.1833	-3.0312	-2.6292	-3.2188	-2.8396	304.781	439.174	382.210	272.038	493.950	389.672	439.387	359.230	284.350	189.693	491.530	389.665	218.759	496.510	490.885	463.240	0.00031945	0.00036273	0.00015478	1254.3	4.7235e-06	2.7381e-06	1316.9	265.38	3.4139e-06	3.2041e-06	322.66	92.544	71.681	20.647	3.4189e-06	29.004	0.00029808	0.00026377	7.2859e-05	1239.8	3.1472e-06	2.9366e-06	1299.1	263.22	3.0479e-06	2.8178e-06	322.85	91.302	71.868	21.012	2.8441e-06	29.418	267.470	240.787	266.616	169.742	309.845	305.646	169.379	176.291	321.624	306.974	176.340	183.138	183.322	189.449	325.720	189.391	-8191	255	
796.523	1	1	0	0	0.15702	0.13356	0.098623	0.23921	0.16719	0.11372	0.29111	0.10136	0.10407	0.080928	0.13269	0.12967	0.22429	0.24167	0.1594	0.12341	-2.1833	-3.1354	-2.7792	-3.3125	-3.1333	-2.8917	-3.3563	-2.8187	-2.8604	-3.1667	-2.8583	-3.1104	-3.1104	-2.6458	-3.3625	-3.0896	463.033	502.230	397.073	469.176	196.282	502.410	425.329	473.266	290.556	216.254	195.319	487.249	433.204	425.033	397.052	373.676	0.00032321	0.00032026	0.00011285	1253.6	4.3314e-06	4.2951e-06	1317.4	265.32	2.9517e-06	2.5204e-06	322.13	94.034	71.535	20.867	3.3077e-06	29.115	0.00029724	0.00025478	7.4123e-05	1241	3.2657e-06	2.9435e-06	1303.1	263.42	3.0687e-06	2.6742e-06	322.99	91.605	71.997	21.126	2.8861e-06	29.411	267.179	251.253	272.416	169.457	312.474	324.734	169.513	176.310	315.710	296.988	176.087	182.040	183.085	189.686	322.668	189.087	-8191	255	
796.619	1	1	0	0	0.31716	0.17613	0.080608	0.30364	0.082103	0.10695	0.18245	0.1606	0.2033	0.075748	0.15141	0.086096	0.030498	0.11805	0.19812	0.22763	-2.5208	-3.0438	-2.7771	-3.2458	-3.2042	-2.9208	-3.2958	-3.3354	-2.6854	-3.2708	-2.9313	-2.9813	-3.3187	-2.6896	-3.3708	-3.0146	367.975	161.514	166.947	477.515	460.906	225.191	468.107	311.411	218.729	366.863	459.870	399.949	496.553	383.935	314.827	447.286	0.00033462	0.00044494	6.1226e-05	1261.6	4.2659e-06	3.796e-06	1315.3	265.01	3.9618e-06	2.7553e-06	322.74	92.418	71.558	20.746	3.8182e-06	28.72	0.00029381	0.00024905	7.1903e-05	1245.1	2.9302e-06	2.672e-06	1301.5	262.89	3.0526e-06	2.5354e-06	322.15	91.461	71.546	20.962	2.8936e-06	29.187	267.107	244.892	297.188	169.524	296.629	305.777	169.546	176.724	311.667	310.505	176.332	182.844	183.135	189.609	325.320	189.079	-8191	255	
796.715	1	1	0	0	0.26696	0.20568	0.15106	0.1665	0.25432	0.15315	0.11812	0.27866	0.12909	0.11954	0.4382	0.21114	0.15205	0.022395	0.18473	0.021904	-2.2958	-2.9854	-2.7833	-2.9354	-3.1604	-2.7812	-3.2875	-3.2	-2.7208	-3.2021	-3.1813	-2.9542	-3.2313	-2.7833	-3.2292	-3.0167	197.189	268.587	431.461	394.772	235.615	290.942	433.027	418.462	164.330	397.334	488.248	477.754	203.878	239.552	336.088	288.171	0.00031296	0.00031121	7.3266e-05	1263.1	4.682e-06	4.264e-06	1321.9	263.92	4.025e-06	4.7792e-06	322.72	94.229	71.353	20.749	2.7387e-06	29.026	0.00029617	0.00022712	7.1698e-05	1242.3	2.9016e-06	2.8388e-06	1301	262.44	2.9541e-06	2.4743e-06	321.91	91.342	71.518	20.994	2.3851e-06	29.285	269.873	272.684	219.530	169.573	301.757	301.190	169.656	176.455	318.495	338.941	176.339	182.536	183.027	189.979	326.372	189.614	-8191	255	
796.811	1	1	0	0	0.13013	0.18928	0.083606	0.14247	0.096149	0.070568	0.19963	0.14069	0.1095	0.18211	0.13615	0.12957	0.15785	0.085974	0.20632	0.094718	-2.2708	-3.2104	-2.8667	-3.0083	-3.2458	-2.7562	-3.2062	-3.2625	-2.5771	-3.1	-3.0521	-2.8521	-3.1479	-2.8104	-2.9771	-3.2917	212.082	260.503	350.721	461.114	489.294	193.591	445.763	169.283	505.883	394.773	456.640	275.944	501.323	473.691	185.817	483.666	0.00032095	0.00036897	9.2472e-05	1254.6	4.3245e-06	3.2319e-06	1309.4	262.49	3.6579e-06	2.1989e-06	320.72	93.403	70.884	20.656	2.9268e-06	28.658	0.00028028	0.00019244	5.9008e-05	1238.6	2.5568e-06	2.1242e-06	1292.2	260.22	2.3089e-06	1.8923e-06	319.6	90.657	71.086	20.868	2.2123e-06	29.089	269.343	249.152	242.858	169.612	311.320	295.656	169.776	176.634	312.240	291.299	176.538	182.220	183.223	190.068	324.030	189.427	-8191	255	
796.907	1	1	0	0	0.049834	0.016475	0.15423	0.22342	0.043693	0.019609	0.14937	0.27779	0.0069616	0.15745	0.086726	0.090095	0.15321	0.064024	0.075462	0.20333	-2.3833	-3.2562	-2.9375	-2.8604	-3.2188	-2.8708	-3.2021	-3.1167	-2.7583	-2.9938	-3.0312	-2.7354	-3.2792	-2.8146	-2.8042	-3.0875	504.228	395.797	361.063	162.772	391.009	368.271	387.759	184.981	361.852	248.050	468.556	322.375	265.802	181.713	202.682	438.699	0.0003122	0.00040166	0.00010477	1241.1	4.4353e-06	2.9777e-06	1302.4	261.03	3.3795e-06	1.1398e-06	320.1	91.963	70.696	20.581	2.6544e-06	28.66	0.00026807	0.0001925	5.4158e-05	1225.7	2.6256e-06	2.169e-06	1285.7	259.62	2.373e-06	2.0208e-06	318.79	90.353	71.064	20.857	2.4171e-06	29.085	267.491	261.670	236.211	169.326	300.554	321.717	169.460	176.635	314.737	306.481	176.618	182.217	183.128	189.833	341.303	189.513	-8191	255	
797.028	1	1	0	0	0.1943	0.043344	0.082379	0.17307	0.045759	0.11798	0.18817	0.4353	0.17847	0.050958	0.37739	0.27686	0.25858	0.15429	0.17039	0.17494	-2.2833	-3.275	-2.9875	-3.0292	-3.1312	-2.7792	-3.0771	-3.2042	-2.8333	-3.3583	-3.0708	-2.9292	-3.3042	-3	-2.7458	-3.2083	222.504	277.228	475.208	451.921	509.211	338.210	449.778	470.557	466.609	454.909	458.369	173.399	473.148	502.499	234.605	494.011	0.00032349	0.00022438	8.1866e-05	1236.6	5.3982e-06	3.703e-06	1305.2	261.04	2.8453e-06	2.895e-06	318.98	90.879	70.21	20.356	3.0647e-06	28.33	0.00027568	0.0002055	5.9657e-05	1223.5	2.7015e-06	2.28e-06	1281.8	258.83	2.5707e-06	2.3169e-06	317.49	89.678	70.688	20.689	2.4139e-06	28.806	265.791	255.059	264.577	169.502	306.902	308.927	169.620	176.786	311.112	316.182	176.688	182.969	183.105	190.211	321.995	189.429	-8191	255	
797.122	1	1	0	0	0.22049	0.29816	0.24056	0.13145	0.063291	0.05302	0.19464	0.075515	0.21165	0.18583	0.079147	0.16696	0.20818	0.1172	0.10685	0.067753	-2.4396	-3.0479	-3.2208	-2.9458	-3.3542	-3.1646	-3.0958	-3.0938	-2.8417	-3.1333	-3.2313	-2.7375	-3.2021	-3.0167	-2.9167	-3.2958	319.757	357.565	395.582	465.720	167.448	260.929	470.057	350.249	362.010	221.891	424.057	268.699	170.588	198.652	213.569	449.520	0.00030741	0.0004039	0.00011084	1215.5	3.681e-06	3.1242e-06	1275.4	255.36	3.7064e-06	2.3066e-06	314.32	90.135	69.353	20.082	4.4825e-06	27.96	0.00025824	0.00021893	5.2416e-05	1204.6	2.7096e-06	1.9575e-06	1257.1	253.63	2.3119e-06	1.9967e-06	311.04	87.957	69.37	20.262	2.0576e-06	28.315	266.545	245.052	264.558	169.545	313.138	315.325	169.709	176.703	332.701	319.434	176.396	182.154	183.291	189.957	325.042	189.486	-8191	255	
797.218	1	1	0	0	0.16611	0.085252	0.086886	0.11096	0.19324	0.24287	0.1243	0.26245	0.2699	0.16163	0.091174	0.20964	0.043668	0.11062	0.052685	0.25216	-2.5	-3.1021	-3.2062	-2.9542	-3.1354	-2.9375	-2.8354	-3.2729	-2.7333	-2.8854	-3.2417	-2.65	-3.1333	-3.1688	-2.7938	-3.3583	356.038	420.387	241.738	419.962	343.941	334.835	453.891	468.275	353.449	339.765	434.231	393.113	374.794	232.234	352.955	176.320	0.0003017	0.00027156	8.0583e-05	1191.9	3.6117e-06	4.7674e-06	1259.2	253.32	4.4451e-06	1.8039e-06	311.07	88.834	68.801	19.943	3.764e-06	27.594	0.000242	0.00016355	4.0529e-05	1182.3	2.394e-06	1.5276e-06	1243.7	250.85	2.17e-06	1.6161e-06	308.96	87.204	68.657	20.134	1.6857e-06	28.113	267.659	263.945	258.644	169.603	305.102	293.199	169.852	176.550	319.883	335.387	176.396	183.015	183.435	190.326	309.160	190.004	-8191	255	
797.292	1	1	0	0	0.15485	0.2945	0.068321	0.35557	0.35265	0.14298	0.25605	0.15825	0.11459	0.1752	0.18554	0.23953	0.12143	0.21242	0.41688	0.2147	-2.5	-2.7792	-3.1604	-2.8771	-3.1292	-3.1542	-3.0187	-3.2354	-2.8875	-2.8792	-3.2854	-2.7146	-3.0896	-3.1771	-2.7417	-3.1604	489.609	409.661	360.600	513.443	240.084	280.558	175.732	349.056	246.334	382.290	514.031	216.034	335.016	249.782	478.449	467.661	0.00030714	0.00035346	8.6588e-05	1186.1	4.0675e-06	3.4914e-06	1249	247.94	3.3113e-06	3.0686e-06	306.18	90.37	67.621	19.726	2.6077e-06	27.777	0.00024173	0.00015609	3.9487e-05	1172.4	2.251e-06	1.624e-06	1229.4	246.85	2.0483e-06	1.7123e-06	305.58	87.036	67.795	19.895	1.6682e-06	28.029	268.187	245.636	246.918	169.918	326.566	313.956	169.722	176.766	325.559	313.475	176.822	183.604	183.152	190.214	319.149	189.318	-8191	255	
797.411	1	1	0	0	0.38719	0.10572	0.12576	0.22776	0.14712	0.21766	0.23988	0.065769	0.32614	0.18491	0.11689	0.07434	0.10083	0.18947	0.13877	0.22086	-2.6583	-2.8396	-3.0563	-2.9604	-2.9917	-3.1375	-2.9542	-3.0875	-3.0208	-2.8771	-3.3104	-2.7146	-3.075	-3.1229	-2.9188	-3.3	312.703	189.728	408.088	481.704	506.647	358.231	364.966	183.337	508.195	507.136	414.602	434.081	166.631	261.602	409.365	472.479	0.00031536	0.00026762	7.2051e-05	1180.3	4.1846e-06	2.071e-06	1233.4	245.37	3.1208e-06	3.3242e-06	303.28	86.847	66.674	19.391	1.923e-06	27.55	0.00025051	0.00017223	3.9282e-05	1164	2.2469e-06	1.6771e-06	1218.6	243.87	1.9825e-06	1.6065e-06	301.43	85.521	67.052	19.591	1.9869e-06	27.696	269.597	255.891	260.574	169.730	325.111	302.243	169.649	177.122	330.205	321.745	176.600	183.620	183.284	190.276	306.340	189.959	-8191	255	
797.507	1	1	0	0	0.10376	0.063594	0.1238	0.095204	0.2378	0.033361	0.20077	0.051892	0.20011	0.19737	0.21306	0.11722	0.30845	0.19964	0.18975	0.13535	-2.6625	-2.8208	-3.2208	-3.0125	-2.9875	-3.2292	-2.8104	-3.1	-3.0146	-2.8042	-3.2333	-2.8563	-3.0229	-3.2625	-2.6979	-3.2479	254.871	292.778	472.948	496.801	308.300	185.993	466.294	364.764	447.440	295.141	258.706	288.138	158.922	192.637	264.742	307.940	0.00029285	0.00025358	6.7415e-05	1159.8	2.7295e-06	2.2436e-06	1216.7	242.73	2.4239e-06	2.6999e-06	300.2	86.141	66.587	19.333	1.9444e-06	27.142	0.00022453	0.00016392	3.6703e-05	1146.6	2.1442e-06	1.6419e-06	1203.3	241.12	1.8335e-06	1.5968e-06	298.91	85.024	66.582	19.533	1.8147e-06	27.505	267.405	249.190	268.907	169.802	303.646	315.210	169.665	176.822	319.047	318.716	176.610	182.923	183.586	190.428	314.558	190.026	-8191	255	
797.603	1	1	0	0	0.042592	0.17179	0.18763	0.097462	0.13164	0.12903	0.044579	0.018434	0.074488	0.02852	0.25969	0.12579	0.16841	0.28451	0.38668	0.11116	-2.6958	-2.6167	-3.2458	-3.0646	-2.8167	-3.1875	-3.0521	-3.1312	-3.0646	-2.8042	-3.2	-2.9104	-2.8104	-3.3771	-2.7042	-3.0625	162.873	218.336	256.176	176.062	512.774	184.802	436.435	294.427	448.515	263.380	434.683	406.734	231.114	201.330	190.051	336.493	0.00028351	0.00031123	9.0432e-05	1153.8	3.8732e-06	3.4464e-06	1213.8	243.25	1.8395e-06	2.9407e-06	299.81	86.252	66.296	19.237	2.7547e-06	27.369	0.00023199	0.000167	4.0853e-05	1140.4	2.1793e-06	1.5027e-06	1198.8	240.37	1.8964e-06	1.6319e-06	298.26	84.659	66.381	19.458	1.7464e-06	27.447	268.276	251.382	256.853	169.600	320.120	327.686	169.875	177.031	325.515	285.181	176.470	182.774	183.406	190.462	356.190	190.113	-8191	255	
797.699	1	1	0	0	0.29222	0.24871	0.1714	0.081199	0.087265	0.24744	0.38206	0.10813	0.13134	0.2099	0.30586	0.059839	0.092965	0.083639	0.14342	0.11048	-2.6937	-2.7708	-2.9833	-3.2354	-2.9708	-3.3208	-2.9333	-3.0563	-3.1583	-2.7708	-3.3146	-2.9896	-2.8688	-3.1792	-2.5708	-2.9792	256.396	253.241	476.683	216.804	230.491	263.997	468.029	448.376	356.059	415.163	362.447	366.418	200.087	458.324	413.353	423.299	0.00031097	0.00018024	0.00011822	1156.3	3.4008e-06	3.4484e-06	1219.4	242.6	3.1198e-06	2.9122e-06	298.5	86.003	66.107	19.287	2.0118e-06	27.229	0.00024292	0.00016004	3.8974e-05	1140.3	2.2773e-06	1.788e-06	1202.5	240.45	1.9712e-06	1.7947e-06	298.17	84.394	66.487	19.528	1.9268e-06	27.445	268.085	263.554	249.334	169.831	313.424	300.739	169.819	177.060	307.633	331.266	176.441	182.954	183.173	190.580	321.944	190.098	-8191	255	
797.820	1	1	0	0	0.031295	0.23005	0.28572	0.063042	0.11022	0.19954	0.24376	0.1432	0.24337	0.14541	0.16956	0.27117	0.10638	0.17211	0.13432	0.20468	-2.5563	-2.6292	-3.1292	-3.1771	-2.6188	-3.2521	-2.9792	-2.9792	-3.2833	-2.7938	-2.9271	-3.1229	-2.7687	-3.0812	-2.8937	-2.8125	478.049	215.408	443.123	501.089	251.562	248.404	458.630	170.472	252.538	337.151	297.309	402.651	471.639	205.567	261.064	387.943	0.00030064	0.00023832	5.0956e-05	1163.4	4.7547e-06	2.5451e-06	1220.2	243.12	3.2774e-06	5.1054e-06	300.39	86.871	65.762	19.238	2.7768e-06	26.915	0.00024104	0.00015351	4.6114e-05	1145.5	2.3736e-06	1.6206e-06	1203.3	240.69	2.0044e-06	1.9019e-06	299	84.951	66.23	19.467	1.7621e-06	27.375	269.224	265.842	240.096	169.806	311.687	327.809	169.884	176.940	323.827	320.616	176.428	182.648	183.433	190.664	304.311	189.859	-8191	255	
797.891	1	1	0	0	0.1193	0.30293	0.12862	0.18396	0.25768	0.23518	0.25557	0.22473	0.2049	0.30794	0.12059	0.34576	0.15938	0.23299	0.024821	0.029421	-2.8604	-2.8083	-3.1625	-3.2313	-2.9062	-3.0938	-3.1292	-2.825	-3.2208	-2.8708	-2.8937	-3.225	-2.6083	-3.1708	-2.9354	-2.8125	501.058	361.506	443.782	455.892	464.918	421.036	486.301	344.322	175.863	256.594	441.335	324.824	518.662	434.087	439.167	347.994	0.0003026	0.00028914	8.3039e-05	1158.4	3.6768e-06	3.0513e-06	1215.7	242.79	4.0951e-06	1.7416e-06	299.76	87.594	66.269	19.121	3.1611e-06	26.96	0.00023226	0.00016293	4.3927e-05	1143.3	2.3712e-06	1.6695e-06	1203	240.11	1.9124e-06	1.6704e-06	298.1	84.4	66.287	19.409	1.7283e-06	27.359	270.676	250.071	267.296	169.634	317.026	326.208	169.787	177.089	315.199	313.879	176.791	183.752	183.393	190.165	321.818	190.156	-8191	255	
797.988	1	1	0	0	0.17933	0.018785	0.30895	0.18497	0.26422	0.25402	0.19126	0.11544	0.11268	0.22042	0.16452	0.10107	0.14895	0.18411	0.090353	0.13607	-2.7938	-2.9104	-2.9917	-3.225	-2.8563	-3.1042	-3.1708	-2.8812	-3.25	-2.9188	-3.0083	-3.1896	-2.7438	-3.1063	-2.9125	-2.7771	284.939	322.926	357.679	426.081	234.763	261.446	435.004	209.445	338.368	495.095	481.269	399.071	373.869	240.973	459.001	249.530	0.00028673	0.00039601	8.5923e-05	1156.1	4.8552e-06	2.9884e-06	1216	240.12	4.1761e-06	2.9352e-06	299.13	86.643	66.335	19.236	2.8008e-06	26.945	0.00022895	0.00015628	4.8436e-05	1140.7	2.3543e-06	1.6853e-06	1200.2	239.26	1.9528e-06	1.7782e-06	297.62	84.248	66.137	19.384	1.8159e-06	27.351	269.399	227.682	235.154	169.783	305.534	322.255	169.881	176.952	313.258	291.430	176.381	182.057	183.761	190.618	322.870	189.851	-8191	255	
798.108	1	1	0	0	0.20677	0.081545	0.21951	0.17941	0.021254	0.1813	0.15384	0.067344	0.23714	0.17022	0.076499	0.21749	0.26868	0.04952	0.092807	0.18541	-2.7667	-2.7792	-3.0042	-3.3125	-2.6979	-3.0438	-3.2125	-2.8667	-3.1562	-2.9771	-2.8104	-3.1021	-2.8438	-2.9521	-3.0958	-2.7875	417.101	379.291	190.378	438.879	299.531	495.398	505.187	455.851	308.291	295.952	356.998	429.276	430.321	237.950	412.375	461.412	0.00030035	0.00043927	0.00012319	1150.7	3.8601e-06	3.0781e-06	1212.7	242.2	2.5439e-06	3.1164e-06	300.04	86.057	66.091	19.144	2.5654e-06	27.047	0.00024143	0.00017907	4.3586e-05	1138.7	2.2615e-06	1.8218e-06	1198.8	239.74	1.9041e-06	1.6717e-06	297.29	84.267	66.055	19.426	1.8191e-06	27.331	266.951	245.921	243.796	169.786	287.102	328.931	169.847	177.058	310.938	320.133	176.496	182.448	183.484	190.898	330.025	190.258	-8191	255	
798.204	1	1	0	0	0.24665	0.11944	0.039516	0.27738	0.060539	0.083896	0.049528	0.052589	0.24418	0.076482	0.32554	0.1127	0.25119	0.074019	0.083673	0.35011	-2.8042	-2.8833	-2.7625	-3.3896	-2.8146	-3.1437	-3.3042	-2.7583	-3.2271	-2.8625	-2.8625	-3.2417	-2.8625	-3.1479	-3.2042	-2.7354	310.931	508.204	425.733	483.127	358.352	244.880	460.445	229.075	227.152	457.964	462.665	511.915	238.530	397.712	377.506	478.387	0.00027941	0.00025964	6.8241e-05	1152.4	3.1321e-06	3.055e-06	1211.2	240.54	3.0253e-06	3.0131e-06	297.49	86.073	66.102	19.165	1.8427e-06	26.909	0.0002354	0.00017371	4.2749e-05	1138	2.0987e-06	1.7487e-06	1196	239.13	1.897e-06	1.6085e-06	296.55	84.144	66.009	19.361	1.7195e-06	27.295	270.926	243.618	270.140	169.779	303.600	332.010	169.567	176.989	315.962	331.220	176.928	183.591	183.197	190.209	307.760	190.087	-8191	255	
798.300	1	1	0	0	0.21004	0.054128	0.1048	0.12923	0.012655	0.10214	0.26239	0.16353	0.022644	0.14303	0.18751	0.036399	0.16014	0.21929	0.11573	0.025495	-2.7354	-2.8854	-2.9062	-3.3625	-2.9104	-2.7875	-3.3333	-2.8937	-3.1396	-3.0521	-2.9958	-3.2458	-2.8729	-2.925	-3.2854	-2.8208	344.113	186.906	450.380	431.854	484.987	449.285	459.790	497.638	408.898	194.250	343.369	332.195	468.757	406.528	279.020	202.802	0.0002998	0.00039384	9.3362e-05	1148.8	4.8095e-06	2.6112e-06	1209	241.58	3.1159e-06	2.2659e-06	297.29	87.68	66.396	19.258	3.0663e-06	27.079	0.00023823	0.00015357	4.5174e-05	1136.1	2.3415e-06	1.8183e-06	1195.6	239.39	1.9937e-06	1.513e-06	296.62	84.859	66.168	19.452	1.7245e-06	27.383	269.232	245.906	282.733	169.547	303.259	306.087	169.821	177.161	335.556	322.394	176.701	183.178	183.286	190.454	321.525	189.977	-8191	255	
798.419	1	1	0	0	0.20598	0.13431	0.40791	0.24204	0.24569	0.10603	0.34374	0.06722	0.10581	0.11882	0.061517	0.12473	0.2516	0.15065	0.32568	0.1031	-2.6396	-3.0687	-2.8604	-3.3792	-3.0083	-2.9417	-3.2958	-2.7	-2.9292	-2.9979	-2.8583	-3.1875	-3.1167	-2.9229	-3.2375	-2.85	407.433	400.009	189.832	182.429	215.068	508.845	407.368	448.088	492.516	173.119	335.095	201.527	187.358	162.780	273.131	409.441	0.00030413	0.00022024	9.5575e-05	1153.1	3.158e-06	4.5945e-06	1215.3	240.02	2.7827e-06	2.7439e-06	296.76	86.683	66.084	19.258	3.321e-06	26.871	0.00023704	0.0001625	4.8727e-05	1138.2	2.2668e-06	1.7887e-06	1197.4	239.31	2.0555e-06	1.5783e-06	296.43	84.4	66.057	19.418	1.7157e-06	27.337	270.345	272.669	262.283	169.729	315.516	306.211	169.669	176.980	311.601	313.544	176.668	182.358	183.374	190.376	331.539	189.959	-8191	255	
798.515	1	1	0	0	0.079516	0.1303	0.17224	0.061051	0.14205	0.11327	0.15113	0.18629	0.14103	0.16307	0.076354	0.17632	0.20434	0.14054	0.27249	0.32496	-2.6542	-3.025	-2.5875	-3.2396	-3.0354	-2.7458	-3.3563	-2.8604	-2.9292	-3.2125	-2.9354	-3.2458	-3.1312	-2.8	-3.075	-2.8812	354.727	488.936	505.902	256.634	463.452	245.416	470.072	335.795	370.998	270.216	185.319	345.009	229.229	467.059	292.658	386.434	0.00030057	0.00030925	5.9339e-05	1152.3	3.6599e-06	4.173e-06	1214.5	240.76	3.4385e-06	4.0956e-06	297.54	86.143	66.259	19.166	4.0099e-06	27.032	0.00023534	0.00014821	4.1724e-05	1138.8	2.2464e-06	1.8528e-06	1198.6	239.37	1.9391e-06	1.7535e-06	297.2	84.4	66.258	19.433	1.9249e-06	27.373	270.036	238.016	250.085	169.631	310.378	327.417	169.951	177.153	313.652	306.573	176.674	183.644	184.001	190.419	321.042	189.895	-8191	255	
798.587	1	1	0	0	0.17753	0.13663	0.14497	0.13539	0.089944	0.21526	0.070217	0.16129	0.14277	0.031692	0.4506	0.16077	0.12322	0.29589	0.10059	0.05623	-2.6188	-3.1583	-3.0396	-3.225	-3.0438	-2.7938	-3.4188	-3.0521	-2.8479	-3.3354	-2.8958	-3.0583	-3.1375	-2.5958	-3.1437	-2.9771	294.459	242.418	323.967	451.421	284.802	272.923	462.556	428.761	179.924	325.601	167.406	211.597	293.853	187.839	245.088	506.865	0.00029516	0.00018992	9.0316e-05	1153.8	3.8944e-06	2.9799e-06	1213.9	242.54	4.0908e-06	3.1193e-06	298.27	86.674	66.193	19.117	2.9907e-06	27.02	0.00024349	0.00016102	4.7412e-05	1142.4	2.3158e-06	1.8838e-06	1200.3	240.12	2.1297e-06	1.7494e-06	297.43	84.652	66.279	19.438	1.804e-06	27.436	271.454	235.481	256.247	169.779	308.806	320.981	169.787	176.933	322.521	312.877	176.535	182.562	183.272	190.700	329.263	189.851	-8191	255	
798.708	1	1	0	0	0.27642	0.086258	0.36913	0.18096	0.055214	0.22662	0.28393	0.10599	0.32019	0.24117	0.27127	0.039446	0.19319	0.078433	0.15327	0.1621	-2.4542	-3.1979	-2.725	-3.1937	-3.2812	-2.7333	-3.2458	-3.2188	-2.7792	-3.1729	-3.0396	-2.9688	-3.0917	-2.6042	-3.1958	-3.0271	491.524	468.321	337.420	459.648	376.788	470.638	440.185	494.921	269.626	372.242	451.852	439.987	177.279	391.183	241.897	480.892	0.00030037	0.00030393	6.3866e-05	1160.1	4.4673e-06	2.8095e-06	1217.8	241.9	3.9584e-06	2.9427e-06	300	86.472	66.124	19.149	2.7443e-06	27.117	0.00024761	0.00017032	4.7087e-05	1146.8	2.4016e-06	2.0037e-06	1205.6	240.18	2.3018e-06	1.7171e-06	298.56	84.485	66.154	19.46	1.9274e-06	27.395	267.913	239.754	255.033	169.796	303.529	295.490	169.986	176.897	313.899	316.458	176.801	183.800	183.273	190.701	326.394	190.024	-8191	255	
798.804	1	1	0	0	0.057278	0.073032	0.27761	0.28975	0.12958	0.13259	0.18109	0.12597	0.10818	0.17101	0.22892	0.22863	0.082752	0.18411	0.30026	0.29041	-2.4562	-3.1542	-2.7896	-3.2875	-3.0875	-2.8	-3.275	-3.0938	-2.7292	-3.2354	-2.8208	-2.7875	-3.0667	-2.7271	-3.0271	-3.05	205.854	393.448	473.948	159.843	401.588	464.194	469.450	455.183	192.759	328.785	490.311	398.640	392.242	202.919	210.956	188.858	0.00030975	0.00032421	0.00010139	1162	3.2296e-06	1.9388e-06	1223.5	242.46	3.5404e-06	2.4037e-06	300.28	86.168	66.284	19.201	3.4226e-06	27.222	0.00025645	0.00016385	5.0093e-05	1147.1	2.1973e-06	1.8941e-06	1205.6	240.67	2.2626e-06	1.8504e-06	297.98	84.706	66.249	19.506	1.8616e-06	27.469	267.750	262.835	263.969	169.765	316.076	308.141	169.831	176.688	315.648	302.360	176.505	182.840	183.183	190.387	329.280	189.856	-8191	255	
798.900	1	1	0	0	0.20975	0.18225	0.26215	0.22913	0.096451	0.33118	0.031803	0.039596	0.11285	0.32244	0.28476	0.13371	0.18974	0.18659	0.052966	0.086729	-2.2438	-3.1104	-2.9146	-3.0104	-3.1188	-2.7292	-3.2438	-3.1771	-2.5687	-3.2	-3.1854	-2.7958	-3.3312	-2.7125	-2.8937	-3.0667	403.064	349.210	507.655	171.785	172.642	327.980	474.596	450.659	353.144	484.817	450.957	346.545	345.275	431.631	224.746	383.367	0.00029531	0.00027349	0.00010964	1157	4.9124e-06	2.708e-06	1220.1	241.49	3.1202e-06	3.5595e-06	298.9	86.118	66.325	19.311	3.8224e-06	26.973	0.00025152	0.00016312	4.9e-05	1146.8	2.1728e-06	1.7591e-06	1206.2	240.32	2.1712e-06	1.8435e-06	297.78	84.258	66.386	19.442	1.8197e-06	27.412	265.919	246.810	246.402	169.972	294.794	275.875	169.877	177.022	321.505	325.952	176.521	183.917	183.202	190.370	308.166	190.428	-8191	255	
798.996	1	1	0	0	0.034355	0.12285	0.19083	0.30575	0.24639	0.10568	0.31427	0.26369	0.060878	0.27067	0.25886	0.12019	0.20462	0.055175	0.093872	0.060143	-2.2104	-3.0687	-2.9833	-2.9167	-3.1479	-2.8333	-3.25	-3.3542	-2.6937	-3.1292	-3.0854	-2.9188	-3.3333	-2.9042	-2.9875	-3.2979	501.352	343.925	423.219	360.037	377.645	465.995	446.744	265.703	395.034	179.969	168.541	360.821	513.484	334.449	217.032	451.535	0.00028815	0.00035549	9.4024e-05	1158	3.7285e-06	3.3082e-06	1225.3	244.06	3.1653e-06	3.1363e-06	297.71	86.883	66.177	19.2	3.9004e-06	27.104	0.00024477	0.00016059	5.0315e-05	1144.7	2.3327e-06	1.9127e-06	1206.5	241.04	2.4074e-06	1.8208e-06	298.09	84.94	66.306	19.465	1.8216e-06	27.388	268.551	246.707	273.424	169.721	306.476	325.318	169.814	176.911	327.392	304.544	176.504	182.764	183.410	190.320	317.865	189.686	-8191	255	
799.117	1	1	0	0	0.16413	0.13569	0.25685	0.20458	0.030531	0.064496	0.23339	0.25917	0.14681	0.22633	0.18369	0.05142	0.20636	0.09688	0.072865	0.30614	-2.3708	-2.9979	-3.0854	-2.775	-3.1937	-3.0042	-3.3021	-3.3187	-2.7146	-2.9062	-3.1375	-2.7729	-3.2188	-2.9625	-3.0083	-3.1667	274.039	421.523	164.992	484.672	255.897	408.654	431.407	388.247	202.519	342.232	451.122	442.423	431.411	162.045	246.818	380.233	0.00029812	0.00026916	0.00012487	1161.7	4.8766e-06	3.9641e-06	1215.9	243.15	3.375e-06	3.3783e-06	298.17	86.016	66.534	19.344	3.3038e-06	26.988	0.00024839	0.00016589	4.9905e-05	1147.9	2.3228e-06	1.8783e-06	1203.8	241.05	2.1089e-06	1.6587e-06	297.82	84.493	66.378	19.506	2.0357e-06	27.426	267.881	216.071	267.597	169.623	322.779	332.383	169.943	176.643	330.116	304.864	176.415	183.020	183.429	190.045	325.417	189.693	-8191	255	
799.189	1	1	0	0	0.2712	0.2801	0.048627	0.31009	0.17163	0.33662	0.24722	0.23828	0.29757	0.18386	0.11161	0.15272	0.11912	0.40255	0.28606	0.21282	-2.4833	-3.0729	-2.9958	-2.9042	-3.2417	-3.1125	-2.8875	-3.1479	-2.9458	-3.0396	-3.1604	-2.675	-3.2375	-3.0854	-2.8292	-3.2896	403.628	451.827	254.096	176.034	440.995	342.445	463.939	289.723	397.002	504.244	439.302	473.251	463.001	443.406	247.804	475.143	0.00029181	0.0002656	7.6983e-05	1160	3.4984e-06	3.1782e-06	1222.3	243.91	3.856e-06	2.234e-06	300.16	86.883	66.248	19.259	2.3527e-06	27.088	0.00023298	0.0001633	4.3039e-05	1146.6	2.2411e-06	1.9706e-06	1205.7	241.08	2.1611e-06	1.8105e-06	298.74	84.556	66.366	19.46	1.9988e-06	27.414	269.621	222.792	259.558	169.694	298.664	295.724	169.762	176.938	315.754	311.701	176.915	182.936	183.288	190.544	328.091	189.654	-8191	255	
799.285	1	1	0	0	0.083909	0.069563	0.39712	0.08026	0.13042	0.18545	0.3622	0.35642	0.31293	0.16399	0.26724	0.12603	0.18446	0.27485	0.072552	0.12696	-2.4792	-3.1937	-2.9938	-2.75	-3.1667	-2.925	-2.9708	-3.2958	-2.8417	-2.9625	-3.2292	-2.7708	-3.1542	-2.9167	-2.8479	-3.3208	431.367	498.129	495.555	402.064	334.392	177.785	442.389	406.115	474.210	482.961	498.112	362.495	508.247	164.802	390.837	501.218	0.00029891	0.00031509	0.00010933	1161.7	5.1604e-06	1.6823e-06	1219.9	242.59	2.5264e-06	2.8785e-06	299.43	85.332	66.876	19.336	2.1955e-06	27.126	0.00024522	0.00017008	4.4611e-05	1149	2.2108e-06	1.5889e-06	1206.2	240.99	2.0828e-06	1.8731e-06	297.82	84.548	66.626	19.541	1.8892e-06	27.449	270.141	241.821	249.877	169.716	311.003	344.999	169.862	176.858	329.067	313.621	176.640	182.748	183.481	190.578	308.944	190.048	-8191	255	
799.381	1	1	0	0	0.19201	0.070915	0.25574	0.33631	0.1607	0.26366	0.064586	0.067526	0.060106	0.26507	0.23686	0.12549	0.11129	0.25632	0.059447	0.078917	-2.3021	-2.8688	-3.2083	-2.8646	-3.225	-3.1937	-2.8146	-3.2646	-2.7833	-2.7417	-3.1958	-2.8146	-3.1708	-3.0479	-2.95	-3.0896	485.583	513.241	352.998	508.900	283.685	171.920	317.055	393.066	466.378	353.922	462.077	199.104	380.288	407.460	403.228	430.073	0.00030335	0.00032992	0.00012605	1166.8	3.5285e-06	2.7449e-06	1221.3	241.61	2.8491e-06	3.1959e-06	300.76	85.755	66.516	19.296	3.4854e-06	27.065	0.00024773	0.00016176	4.5396e-05	1150.3	2.1676e-06	1.5351e-06	1208.5	240.59	2.1576e-06	1.6463e-06	298.94	84.87	66.556	19.545	1.9863e-06	27.476	269.155	240.486	264.899	169.789	305.725	308.681	169.950	176.963	323.004	331.056	176.473	183.412	183.554	190.233	333.859	189.852	-8191	255	
799.500	1	1	0	0	0.10836	0.24029	0.012435	0.28317	0.16282	0.098353	0.13184	0.16239	0.07545	0.16233	0.32288	0.20562	0.33675	0.15391	0.083364	0.17943	-2.4875	-2.7771	-3.3042	-3.0208	-2.9604	-3.0896	-2.7896	-3.0708	-2.9479	-2.8187	-3.2812	-2.7146	-2.9854	-3.3104	-2.7417	-3.1688	440.328	208.608	302.997	464.421	232.185	250.136	351.384	512.783	379.713	225.902	454.868	172.927	477.935	393.979	308.325	435.370	0.00028213	0.00026077	0.00010534	1162.8	4.9205e-06	3.2962e-06	1219.2	241.62	2.5715e-06	2.9216e-06	300.54	85.545	66.827	19.315	4.1201e-06	27.04	0.00023943	0.00017642	4.0238e-05	1146.8	2.2207e-06	1.7329e-06	1205.3	240.42	1.9207e-06	1.7892e-06	298.65	84.635	66.432	19.497	1.9274e-06	27.503	268.825	240.782	265.102	169.712	315.266	288.204	169.773	176.843	300.783	329.745	176.775	183.154	183.244	190.229	301.742	189.856	-8191	255	
799.596	1	1	0	0	0.16376	0.16017	0.15515	0.21735	0.19582	0.19522	0.25443	0.2436	0.26299	0.13586	0.16223	0.33771	0.13221	0.12858	0.11139	0.055347	-2.4292	-2.6979	-3.175	-2.9833	-2.775	-3.2208	-2.9021	-3.0271	-3.1437	-2.8917	-3.3563	-2.925	-2.9875	-3.3583	-2.8083	-2.9875	278.137	159.045	267.677	160.253	203.829	257.553	445.364	421.225	245.731	368.100	505.590	391.473	184.719	213.084	406.756	232.319	0.00028824	0.00036783	8.2686e-05	1160.1	3.5572e-06	4.3217e-06	1219.2	243.49	3.0165e-06	2.3125e-06	298.87	85.561	66.089	19.408	3.3755e-06	27.169	0.00023779	0.00017155	4.1058e-05	1144.8	2.2732e-06	1.7914e-06	1205.1	241.13	1.8964e-06	1.7824e-06	297.75	84.516	66.403	19.566	1.7546e-06	27.455	266.970	250.929	250.105	169.777	306.930	310.999	169.680	176.820	320.322	314.455	176.513	183.859	183.481	190.102	306.442	189.995	-8191	255	
799.692	1	1	0	0	0.098507	0.033151	0.23858	0.2879	0.15192	0.17647	0.40099	0.37508	0.13643	0.12379	0.21011	0.059889	0.010472	0.20342	0.16517	0.035366	-2.7479	-2.5375	-3.1104	-3.2542	-2.9	-3.1688	-2.8438	-3	-2.9938	-2.8146	-3.1063	-2.95	-2.8875	-3.2292	-2.7667	-2.9917	214.494	465.156	323.352	500.934	264.621	421.135	406.760	495.908	370.898	391.362	170.004	395.424	389.210	175.908	375.621	338.028	0.00029015	0.00018544	7.0727e-05	1158.8	3.7908e-06	4.1942e-06	1219.8	241.89	3.4387e-06	3.9651e-06	298.81	87.267	66.224	19.25	2.8487e-06	27.197	0.00023367	0.0001665	4.0734e-05	1144.5	2.2043e-06	1.6171e-06	1205.3	240.24	1.8946e-06	1.7618e-06	298.39	85.185	66.366	19.485	1.7846e-06	27.493	270.141	261.808	255.517	169.744	309.693	295.922	169.829	177.077	317.574	320.038	176.409	183.150	183.469	190.392	326.652	189.692	-8191	255	
799.788	1	1	0	0	0.16322	0.18169	0.14795	0.33709	0.15341	0.10205	0.13607	0.3056	0.0674	0.07007	0.34307	0.19616	0.21354	0.1581	0.12113	0.32012	-2.5479	-2.775	-3.1542	-3.0625	-2.925	-3.1688	-2.8104	-2.9354	-3.0833	-2.9	-3.225	-2.9979	-2.7792	-3.3021	-2.8104	-2.8438	329.054	452.473	251.912	467.765	509.839	493.456	360.671	167.592	250.067	498.909	427.429	284.825	484.866	388.096	403.529	370.255	0.00030263	0.00034708	0.00013146	1159.1	4.4548e-06	4.9565e-06	1215	242.22	2.2716e-06	3.4364e-06	298.42	86.881	66.048	19.2	2.8865e-06	27.124	0.00023107	0.00015227	3.6361e-05	1145.8	2.3806e-06	1.6171e-06	1203.1	240.7	1.7201e-06	1.8387e-06	297.74	84.88	66.214	19.492	1.8078e-06	27.497	268.399	267.549	272.744	169.769	313.208	298.072	169.888	176.928	305.596	306.979	176.891	182.735	183.433	190.395	308.376	189.495	-8191	255	
799.884	1	1	0	0	0.13548	0.12627	0.086937	0.18741	0.33202	0.14608	0.17428	0.12485	0.093555	0.20416	0.10155	0.19308	0.099857	0.17327	0.030321	0.15758	-2.7146	-2.6896	-2.9688	-3.1125	-2.75	-3.2375	-3.0563	-2.9833	-3.1979	-2.6146	-3.1354	-3.0771	-2.7021	-3.0521	-3.0896	-2.8312	221.942	506.992	295.538	511.232	267.676	252.722	428.166	208.701	351.738	297.689	323.785	238.314	518.164	167.511	467.329	211.027	0.00029424	0.00032926	0.00013657	1160.6	2.6823e-06	4.3663e-06	1220.1	242.53	3.7325e-06	2.8668e-06	299.88	88.022	65.928	19.308	2.4177e-06	27.132	0.0002337	0.00016262	4.21e-05	1145.8	2.2259e-06	1.6123e-06	1203.2	240.52	1.8192e-06	1.5948e-06	298.39	84.567	66.309	19.525	1.7683e-06	27.444	269.931	245.115	247.204	169.720	302.780	304.723	169.835	176.954	325.131	318.942	176.837	182.796	183.609	190.550	340.168	190.306	-8191	255	
799.980	1	1	0	0	0.15897	0.11025	0.097149	0.10885	0.12659	0.15451	0.11133	0.11258	0.098091	0.37224	0.15127	0.25281	0.063365	0.35467	0.2216	0.17941	-2.6604	-2.725	-3.0521	-3.2458	-2.6708	-3.1292	-2.9896	-2.9667	-3.2625	-2.9125	-2.8667	-3.1229	-2.5875	-3.0187	-2.9313	-2.7021	467.583	345.279	216.751	200.408	435.869	379.415	432.834	495.237	442.327	470.744	370.632	366.898	480.538	174.196	423.710	369.269	0.00027917	0.00013861	8.3881e-05	1162.3	4.6509e-06	2.8917e-06	1221	241.4	4.0553e-06	4.2319e-06	299.47	87.968	66.863	19.364	3.6766e-06	26.823	0.00023695	0.00016318	4.0802e-05	1147.3	2.3572e-06	1.6688e-06	1205.9	240.6	1.9641e-06	1.7322e-06	298.19	85.224	66.586	19.521	1.8673e-06	27.391	270.368	216.981	252.507	169.617	320.432	324.173	169.955	176.755	317.487	310.097	176.545	183.347	183.180	190.204	337.395	190.322	-8191	255	
800.101	1	1	0	0	0.16953	0.11683	0.15657	0.13198	0.15523	0.035829	0.37597	0.13388	0.13663	0.026806	0.13793	0.29356	0.10262	0.11713	0.19437	0.10184	-2.8208	-2.8563	-2.9292	-3.1604	-2.7479	-3.1917	-3.2125	-2.8292	-3.1	-3.0354	-2.8688	-3.0979	-2.8063	-3.0771	-3.0021	-2.7125	384.574	458.080	480.730	177.736	318.369	265.474	466.947	368.435	392.032	457.006	416.091	488.919	464.592	414.243	419.651	413.719	0.00031279	0.00035021	0.00011082	1159.7	3.4084e-06	2.9797e-06	1218.8	241.92	3.9573e-06	2.7703e-06	299.63	85.441	66.39	19.395	3.6812e-06	27.137	0.00023853	0.0001625	4.7668e-05	1145.4	2.2983e-06	1.7033e-06	1202.9	240.38	2.0543e-06	1.792e-06	298.05	84.812	66.388	19.531	1.8447e-06	27.518	270.163	259.313	272.297	169.692	322.062	312.950	169.766	176.707	317.197	302.584	176.903	183.667	183.401	190.441	315.532	190.065	-8191	255	
800.197	1	1	0	0	0.22871	0.29769	0.26176	0.053043	0.1493	0.20579	0.074727	0.091217	0.11074	0.43293	0.14636	0.14268	0.14198	0.07701	0.10399	0.20477	-2.7562	-2.7021	-2.7021	-3.2854	-2.9167	-3.0708	-3.2083	-2.6312	-3.1083	-2.9771	-3.0042	-3.2396	-2.6583	-3.0417	-2.9625	-2.6979	401.360	227.371	502.735	239.405	181.572	173.783	464.556	414.204	327.438	274.772	321.403	397.693	223.817	212.982	174.832	387.504	0.0002888	0.00015265	6.56e-05	1155.5	3.2231e-06	3.7197e-06	1219.9	242.23	3.6669e-06	3.2985e-06	301.64	85.626	66.342	19.395	3.6201e-06	27.177	0.00023447	0.00015523	4.9102e-05	1145.1	2.356e-06	1.6323e-06	1204.9	240.65	2.065e-06	1.8044e-06	298.87	84.329	66.31	19.512	1.8022e-06	27.448	268.742	272.661	289.862	169.821	304.510	327.121	169.865	176.855	314.510	326.421	176.877	182.836	183.504	190.447	315.871	189.825	-8191	255	
800.292	1	1	0	0	0.23585	0.020732	0.16971	0.43397	0.11142	0.20117	0.18142	0.11442	0.12201	0.16278	0.2522	0.1163	0.30777	0.18521	0.22507	0.33265	-2.6562	-2.9	-2.7375	-3.4062	-2.7896	-2.8896	-3.25	-2.8271	-3.0625	-3.1625	-2.8708	-3.3271	-2.9458	-3.0667	-3.2208	-2.8521	314.663	301.085	271.370	462.252	451.848	493.409	424.789	429.221	221.010	457.598	210.308	196.519	499.325	435.166	355.336	337.761	0.00030377	0.00024515	9.3886e-05	1158.8	4.7532e-06	3.1097e-06	1221.3	242.57	2.7579e-06	2.8724e-06	300	86.261	66.247	19.238	3.3265e-06	27.298	0.00024364	0.00016928	4.8351e-05	1144.3	2.3356e-06	1.666e-06	1205.3	240.85	1.929e-06	1.6285e-06	298.35	84.886	66.306	19.47	1.7946e-06	27.467	268.129	245.468	266.039	169.737	323.613	317.787	169.735	176.968	312.322	310.028	176.757	182.683	183.380	190.403	327.303	189.818	-8191	255	
800.390	1	1	0	0	0.27285	0.10346	0.039092	0.30037	0.15165	0.030604	0.34294	0.13228	0.1107	0.10601	0.17044	0.11713	0.24567	0.14137	0.23903	0.20523	-2.7146	-2.8604	-2.8063	-3.3937	-2.9667	-2.7917	-3.3458	-2.6729	-3.1188	-3.1333	-2.925	-3.3167	-2.9167	-2.8479	-3.4062	-2.7958	197.351	415.567	333.577	458.518	452.963	410.053	402.585	425.028	508.091	188.229	487.232	173.095	501.527	371.301	423.832	434.163	0.00029769	0.00025005	9.7727e-05	1153.4	4.6592e-06	3.708e-06	1216.6	242.11	3.3292e-06	2.1575e-06	298.89	86.53	66.085	19.325	4.1322e-06	27.031	0.00023967	0.00016299	5.0161e-05	1143.9	2.2364e-06	1.963e-06	1204.1	240.84	2.0353e-06	1.7123e-06	297.41	84.491	66.188	19.503	1.9074e-06	27.365	270.426	259.712	263.760	169.541	302.513	300.005	169.709	177.255	305.706	292.859	176.757	182.705	183.511	190.391	315.559	189.834	-8191	255	
800.484	1	1	0	0	0.21392	0.069111	0.27078	0.020818	0.28895	0.087841	0.19231	0.18553	0.29058	0.1726	0.12226	0.23858	0.069095	0.19294	0.17214	0.080175	-2.625	-2.9604	-2.6729	-3.35	-2.7938	-2.7854	-3.3042	-2.9479	-2.9646	-3.2417	-2.8396	-3.0687	-2.9729	-2.8604	-3.4062	-2.9229	389.091	200.924	223.888	280.665	350.484	410.356	441.134	196.263	504.951	285.063	399.530	195.024	506.483	449.971	426.091	200.096	0.0003109	0.00023899	7.4395e-05	1162	3.0621e-06	2.9022e-06	1219.5	241.37	2.3031e-06	3.442e-06	298.82	85.997	66.852	19.307	3.0885e-06	27.138	0.00024376	0.00016312	4.6541e-05	1145.9	2.1769e-06	1.7653e-06	1203.5	239.92	1.9742e-06	1.724e-06	298.16	84.602	66.45	19.475	1.784e-06	27.404	267.030	242.973	252.821	169.546	315.449	320.672	170.096	176.929	310.566	310.076	176.466	183.970	183.346	190.107	326.240	190.222	-8191	255	
800.580	1	1	0	0	0.069889	0.25981	0.25501	0.30555	0.13319	0.06658	0.28311	0.287	0.12255	0.096005	0.12523	0.12411	0.12883	0.065904	0.11146	0.14357	-2.6188	-3.1625	-2.6437	-3.3	-2.9958	-2.9375	-3.3021	-2.9083	-2.8604	-3.2917	-2.8146	-2.9729	-2.9729	-2.7771	-3.2667	-2.9479	336.537	469.616	462.406	222.081	363.156	458.390	458.586	349.333	223.366	288.625	421.846	498.295	513.159	454.225	453.053	455.557	0.00027608	0.00018061	9.8929e-05	1160.2	3.278e-06	2.7384e-06	1220.6	241.85	3.8617e-06	3.2845e-06	298.55	86.575	66.784	19.33	3.1195e-06	27.227	0.0002423	0.00015474	5.1186e-05	1146.1	2.359e-06	1.8052e-06	1204.9	240.52	2.0662e-06	1.7569e-06	298.08	84.429	66.348	19.503	1.66e-06	27.437	265.808	241.229	267.469	169.722	313.583	349.027	169.920	176.882	317.291	309.552	176.692	183.016	183.435	190.511	295.684	190.030	-8191	255	
800.676	1	1	0	0	0.32858	0.19727	0.1459	0.20169	0.14145	0.19645	0.24973	0.2643	0.11579	0.20022	0.15339	0.058413	0.20754	0.047162	0.25203	0.23208	-2.3917	-3.0583	-2.7396	-3.2229	-3.05	-2.7708	-3.2792	-3.0354	-2.9729	-3.2708	-2.8292	-2.9688	-3.0958	-2.8333	-3.0479	-2.9292	174.418	392.584	327.320	455.777	185.074	430.726	435.422	485.597	340.022	371.211	434.922	512.859	477.026	470.773	313.928	491.037	0.00029739	0.00041774	0.00010199	1157.9	4.579e-06	2.2651e-06	1213.9	242.08	3.2092e-06	3.3198e-06	299.28	87.478	66.13	19.433	2.8376e-06	27.154	0.00023925	0.00014642	4.8556e-05	1145	2.1466e-06	1.7825e-06	1204.5	240.48	2.0282e-06	1.6662e-06	298.06	84.828	66.288	19.532	1.6224e-06	27.43	268.018	249.518	245.768	169.898	301.704	336.974	169.769	177.102	326.085	336.395	176.708	183.300	183.032	190.144	318.188	189.402	-8191	255	
800.797	1	1	0	0	0.24231	0.18898	0.17137	0.37133	0.041437	0.13975	0.10783	0.12818	0.13244	0.09856	0.20712	0.47132	0.14619	0.062118	0.12416	0.14141	-2.4125	-3.2229	-2.7188	-3.1292	-3.1688	-2.7354	-3.2604	-2.9062	-2.8167	-3.2333	-2.9313	-2.9292	-3.2229	-2.7667	-3.2313	-3.0062	310.003	376.839	301.792	508.861	364.807	437.251	427.497	351.277	484.475	330.418	509.139	511.572	189.838	172.820	230.172	445.874	0.00028876	0.00023969	5.3968e-05	1161.1	4.4532e-06	3.6125e-06	1217.5	242.49	3.1231e-06	2.5716e-06	299.63	85.81	66.212	19.305	3.5268e-06	27.112	0.00024259	0.00015375	4.6797e-05	1145.4	2.1075e-06	1.89e-06	1203.8	240.71	2.0596e-06	1.7082e-06	298.47	84.656	66.401	19.521	1.9468e-06	27.453	268.179	271.576	272.217	169.768	300.990	302.712	170.085	177.133	313.970	312.490	176.626	183.393	183.872	190.033	331.618	190.067	-8191	255	
800.893	1	1	0	0	0.011851	0.26129	0.094754	0.3757	0.10823	0.056466	0.091345	0.18186	0.23886	0.12429	0.17132	0.26752	0.14832	0.19614	0.20469	0.20621	-2.5479	-3.3083	-2.7958	-3.0062	-3.1104	-2.6729	-3.4292	-2.9375	-2.9667	-3	-2.9917	-2.9292	-3.2208	-2.925	-3.0438	-3.0687	425.851	305.036	386.840	511.357	262.353	340.331	224.515	493.765	387.494	442.315	424.833	357.985	443.427	411.470	226.536	488.171	0.00028226	0.00037274	8.8018e-05	1160.1	3.121e-06	3.5778e-06	1220.5	243.18	3.2825e-06	2.9983e-06	299.06	85.876	66.52	19.319	3.5695e-06	26.92	0.00024343	0.00014784	4.6079e-05	1145.8	2.2038e-06	1.7591e-06	1204	240.4	2.1635e-06	1.6257e-06	297.79	84.478	66.425	19.482	1.7696e-06	27.363	268.110	248.573	253.889	169.674	326.307	297.371	169.677	176.951	318.212	295.464	176.549	182.711	183.428	190.197	333.406	190.552	-8191	255	
800.989	1	1	0	0	0.24577	0.031531	0.21418	0.050553	0.054492	0.21403	0.084813	0.055125	0.24993	0.08829	0.12049	0.13401	0.20345	0.0088122	0.21038	0.2623	-2.4271	-3.2771	-2.6854	-3.0708	-3.2021	-2.7021	-3.2521	-3.2604	-2.7896	-3.0146	-3.0833	-2.7458	-3.2438	-2.9083	-3.0271	-3.2021	218.313	294.819	281.187	461.302	160.236	475.718	370.043	375.033	443.672	161.419	207.170	165.233	335.165	254.864	321.671	260.737	0.00027513	0.00032028	8.5073e-05	1161.4	4.6959e-06	2.2246e-06	1219.5	241.71	3.3606e-06	3.438e-06	299.52	86.953	66.159	19.24	3.3359e-06	27.05	0.00023734	0.00016047	4.7958e-05	1144.9	2.2347e-06	1.8493e-06	1204.9	240.51	2.2151e-06	1.6175e-06	298.33	84.954	66.249	19.464	1.923e-06	27.463	269.000	246.339	261.760	169.604	306.290	324.855	169.633	176.951	312.472	294.258	176.562	183.645	183.094	190.411	318.265	189.761	-8191	255	
801.061	1	1	0	0	0.24474	0.32492	0.046613	0.082179	0.32319	0.19295	0.22958	0.16417	0.29434	0.017372	0.1744	0.20171	0.18129	0.35285	0.12374	0.25582	-2.55	-3.2146	-3.1208	-2.9708	-3.3396	-2.8812	-3.1792	-3.4062	-2.7875	-3.1354	-3.0479	-2.8354	-3.2708	-2.9125	-3.1562	-3.1417	353.270	366.499	452.560	257.281	260.141	380.095	414.248	396.676	461.002	444.259	486.737	284.128	303.437	337.908	321.079	340.145	0.00030988	0.00031583	0.00012425	1157.8	3.8003e-06	2.7693e-06	1218.4	242.11	2.6727e-06	2.6276e-06	299.58	86.091	66.245	19.279	3.1776e-06	27.136	0.00024651	0.00016915	4.8231e-05	1143.1	2.1314e-06	1.7859e-06	1202.5	240.59	2.0757e-06	1.7411e-06	297.97	84.53	66.303	19.471	1.8898e-06	27.417	267.985	255.519	247.374	169.770	305.135	322.190	169.688	176.927	309.393	341.821	176.612	183.308	182.742	190.424	313.001	190.130	-8191	255	
801.181	1	1	0	0	0.17312	0.092093	0.41246	0.087096	0.36044	0.050948	0.26968	0.20039	0.16063	0.14017	0.15789	0.16145	0.088134	0.1908	0.25031	0.24311	-2.3708	-3.1854	-2.9917	-2.8833	-3.1542	-2.9292	-3.1479	-3.2729	-2.85	-3.2375	-3.3375	-2.8937	-3.2583	-2.9292	-2.8729	-3.2396	434.750	271.393	488.871	487.744	183.058	489.793	492.922	236.155	396.442	188.437	473.566	233.980	504.690	403.853	250.161	414.647	0.00029322	0.00028045	7.1728e-05	1156.5	5.2165e-06	3.0088e-06	1215.3	241.72	2.7142e-06	3.8423e-06	299.79	87.361	66.095	19.249	2.7627e-06	27.019	0.00024639	0.00015997	4.2202e-05	1142.9	2.1886e-06	1.8135e-06	1201.2	239.88	2.0543e-06	1.6807e-06	298.06	84.636	66.368	19.476	1.8222e-06	27.367	267.905	253.772	265.811	169.605	304.773	310.624	169.751	177.108	318.371	325.851	176.733	182.901	183.239	190.125	320.789	190.192	-8191	255	
801.276	1	1	0	0	0.27782	0.18894	0.10276	0.17273	0.25445	0.070677	0.20324	0.18933	0.16644	0.11063	0.23403	0.064688	0.12907	0.064349	0.091513	0.11424	-2.4792	-3.1375	-3.3312	-2.8292	-3.3625	-2.9062	-3.0479	-3.3438	-2.8208	-3.0792	-3.3542	-2.6625	-3.2333	-3.1646	-2.7958	-3.2625	269.662	515.485	313.897	447.733	303.538	408.293	451.768	505.337	327.380	202.360	459.343	250.364	443.157	395.642	306.172	272.666	0.00027812	0.00029048	9.0329e-05	1155.1	3.7136e-06	2.1826e-06	1214.2	242.32	4.6045e-06	3.7324e-06	298.51	86.143	66.035	19.123	2.9579e-06	26.973	0.00023704	0.00016121	4.3005e-05	1140.2	2.2586e-06	1.7928e-06	1198.5	239.51	2.1938e-06	1.8916e-06	297.23	84.13	66.025	19.385	2.0558e-06	27.322	267.753	247.410	255.552	169.750	308.284	326.411	169.922	176.840	312.180	317.248	176.552	182.622	183.227	190.228	309.354	189.872	-8191	255	
801.372	1	1	0	0	0.031806	0.099431	0.30561	0.28003	0.25944	0.17774	0.063038	0.18643	0.15328	0.11988	0.1051	0.10671	0.26119	0.15367	0.15591	0.13981	-2.5271	-2.9646	-3.1896	-2.8187	-3.0062	-2.8542	-2.925	-3.4167	-2.8604	-2.9521	-3.3979	-2.8708	-3.1375	-3.0583	-2.9354	-3.3063	496.293	349.909	392.397	476.682	510.106	202.938	497.446	412.631	346.443	334.082	164.834	265.335	510.152	181.119	503.239	216.167	0.00029813	0.00026015	9.49e-05	1152.1	4.0283e-06	1.817e-06	1217.1	242.94	2.9216e-06	3.512e-06	298.99	86.114	66.098	19.225	3.5698e-06	27.073	0.00024833	0.00017636	4.2254e-05	1140.6	2.2545e-06	2.147e-06	1204.1	241.21	2.4045e-06	1.9995e-06	298.68	84.714	66.532	19.499	2.1121e-06	27.4	271.047	269.644	274.818	169.789	300.252	302.754	169.928	176.686	316.957	319.528	176.641	182.986	183.677	189.911	316.782	190.045	-8191	255	
801.470	1	1	0	0	0.19639	0.10224	0.16394	0.076062	0.18605	0.13294	0.39592	0.16085	0.10124	0.073538	0.23313	0.17442	0.14541	0.17684	0.048738	0.078792	-2.525	-2.8688	-3.3042	-3.0479	-2.8854	-2.9125	-2.8979	-3.3479	-2.975	-2.9458	-3.2292	-2.9104	-3.1396	-3.275	-2.8875	-3.1833	466.067	433.385	409.460	292.569	494.015	241.991	468.095	333.572	472.431	310.300	393.390	341.015	191.232	508.665	308.366	210.333	0.00030151	0.00023165	6.4406e-05	1159.6	4.1301e-06	3.9228e-06	1223.9	241.95	3.3883e-06	3.7249e-06	300.56	88.653	66.405	19.26	2.7889e-06	27.071	0.00025012	0.00016829	4.5874e-05	1148.8	2.3922e-06	1.8094e-06	1207.4	241.4	2.1421e-06	2.106e-06	299.46	85.081	66.563	19.523	2.0626e-06	27.434	269.664	253.891	281.114	169.834	319.157	315.171	169.815	177.001	319.633	312.877	176.801	183.047	183.376	190.189	354.454	189.833	-8191	255	
801.589	1	1	0	0	0.079686	0.25313	0.13079	0.20193	0.1543	0.049433	0.17886	0.079465	0.089641	0.15755	0.30192	0.1305	0.071762	0.030726	0.46889	0.087459	-2.5708	-2.8542	-3.0625	-2.9292	-2.9583	-3.0604	-2.9313	-3.3125	-2.8833	-2.8438	-3.3042	-2.9604	-3.0604	-3.2208	-2.6875	-3.15	302.748	330.043	495.757	426.194	306.987	454.905	410.862	483.133	275.813	207.701	180.994	324.534	387.313	337.184	348.662	390.366	0.00029562	0.00030573	4.7282e-05	1162.8	4.1453e-06	2.2358e-06	1231.6	243.52	4.2936e-06	2.5946e-06	301.04	87.251	66.075	19.225	3.4136e-06	26.883	0.00024403	0.00018665	4.8932e-05	1149.3	2.3485e-06	1.8369e-06	1211.8	241.57	2.2353e-06	1.8628e-06	299.85	85.017	66.323	19.515	2.0564e-06	27.43	268.585	237.605	253.587	169.726	311.888	292.042	169.911	177.023	319.754	311.488	176.774	183.306	183.414	190.600	338.742	190.030	-8191	255	
801.685	1	1	0	0	0.22276	0.080096	0.069039	0.26884	0.26885	0.22985	0.3471	0.03811	0.10544	0.06444	0.11428	0.19491	0.27267	0.11618	0.24726	0.17496	-2.5958	-2.6167	-3.15	-3.1146	-3.0833	-3.2313	-2.8563	-3.1604	-2.9604	-2.6312	-3.1146	-3.0125	-2.9542	-3.2729	-2.9833	-3.1604	391.571	486.113	346.950	409.512	173.503	215.151	455.166	438.741	227.513	444.710	219.775	321.783	180.536	460.876	413.168	492.809	0.00029387	0.00034879	5.9831e-05	1159.7	4.3989e-06	3.6213e-06	1226.9	243.3	3.3167e-06	2.1895e-06	301.25	88.022	66.023	19.226	3.0632e-06	27.015	0.00023991	0.00018153	4.5465e-05	1148.5	2.4167e-06	1.6874e-06	1207.3	241.09	2.2062e-06	1.8586e-06	299.15	85.015	66.154	19.462	1.923e-06	27.404	266.064	253.534	264.275	169.538	310.092	324.475	169.832	176.945	306.388	323.074	176.758	183.030	183.280	190.671	342.625	189.848	-8191	255	
801.781	1	1	0	0	0.06034	0.3459	0.20492	0.26546	0.1555	0.099298	0.49451	0.27529	0.20596	0.03693	0.22999	0.20737	0.081262	0.055818	0.128	0.076284	-2.7104	-2.9521	-3.1979	-3.1083	-2.8333	-3.3146	-2.9896	-3.0333	-3.2646	-2.85	-3.35	-3.0542	-2.9104	-3.175	-2.8396	-3.0667	502.733	408.558	427.457	511.395	397.975	268.681	478.264	481.939	502.428	275.252	432.115	374.647	445.815	419.734	222.169	161.450	0.0003033	0.00033018	9.8223e-05	1157.2	3.2166e-06	2.9436e-06	1219.5	243.14	3.054e-06	3.1901e-06	299.35	86.271	66.068	19.314	4.021e-06	26.962	0.0002443	0.00018615	4.6455e-05	1145	2.3578e-06	1.7942e-06	1205.4	240.9	2.0507e-06	1.9919e-06	298.8	84.468	66.28	19.506	2.0902e-06	27.342	269.966	245.108	270.841	169.804	303.444	313.374	169.775	176.807	308.079	308.544	176.707	182.436	183.525	190.360	318.466	189.952	-8191	255	
801.877	1	1	0	0	0.23555	0.073484	0.28271	0.38638	0.11452	0.25924	0.23721	0.23058	0.33306	0.26988	0.14226	0.16159	0.14494	0.1143	0.080881	0.051221	-2.6646	-2.6813	-3.1646	-3.2125	-2.85	-3.3417	-2.9958	-3.0646	-3.1042	-2.8375	-3.1979	-3.0646	-2.8708	-3.2917	-2.9729	-2.9792	293.601	498.692	187.052	492.402	331.737	484.458	465.814	393.825	379.614	168.675	207.424	500.228	374.278	227.547	191.383	502.778	0.0002977	0.00024895	8.4996e-05	1159.1	4.3969e-06	3.674e-06	1220.8	243.99	4.5554e-06	1.7093e-06	299.51	86.567	66.374	19.172	2.5505e-06	27.069	0.00024976	0.00016921	4.3244e-05	1145.3	2.4757e-06	1.7122e-06	1203	241.32	2.1629e-06	1.8703e-06	298.11	84.241	66.351	19.419	2.0332e-06	27.392	270.113	215.600	247.603	169.665	310.216	312.216	169.895	176.800	314.381	305.045	176.616	182.774	183.293	190.257	337.153	189.811	-8191	255	
801.973	1	1	0	0	0.244	0.13102	0.15475	0.17	0.17974	0.20009	0.16667	0.23465	0.21485	0.028848	0.19037	0.20624	0.052459	0.093715	0.26511	0.25101	-2.7646	-2.6063	-2.9896	-3.2562	-2.8479	-3.1958	-3.2042	-2.7604	-3.2104	-2.7833	-3.1188	-3.0312	-2.5604	-3.1083	-3.0396	-2.9646	380.288	385.236	489.023	446.491	428.717	181.027	417.308	426.180	285.952	442.701	184.306	427.315	494.589	370.078	214.857	452.585	0.00030054	0.00033635	0.00012545	1165.5	5.0837e-06	3.8584e-06	1219	243.44	3.7631e-06	2.5627e-06	299.54	85.107	66.009	19.266	2.7802e-06	27.166	0.0002486	0.00019854	5.0981e-05	1148.2	2.4412e-06	1.8066e-06	1204.5	240.78	2.1255e-06	1.8435e-06	297.71	83.86	66.14	19.416	2.2042e-06	27.408	268.746	241.185	244.141	169.627	325.823	333.859	169.819	176.713	330.828	328.443	176.798	182.692	183.695	190.455	347.145	189.872	-8191	255	
802.070	1	1	0	0	0.0053884	0.12409	0.22359	0.28029	0.38889	0.15813	0.10571	0.19598	0.19864	0.23026	0.22482	0.17485	0.13373	0.15301	0.13979	0.1402	-2.8979	-2.7625	-2.9437	-3.1833	-2.6979	-3.2771	-3.0896	-2.7542	-3.15	-2.925	-3.1417	-3.1083	-2.8146	-3.075	-2.7917	-2.7313	310.096	401.568	331.560	509.085	488.794	207.070	398.403	436.329	426.387	295.691	429.361	241.364	190.737	479.754	440.746	211.586	0.00030092	0.00029619	8.8624e-05	1163.9	3.5633e-06	1.8082e-06	1224.6	242.7	3.2843e-06	3.5629e-06	298.42	86.378	66.353	19.241	2.8458e-06	27.024	0.00024609	0.00019398	5.0281e-05	1147.7	2.5118e-06	1.8762e-06	1206	240.62	1.9991e-06	1.9005e-06	298.07	84.602	66.209	19.421	2.1265e-06	27.403	269.854	249.654	264.524	169.822	308.544	331.216	169.997	177.190	325.022	320.534	176.540	183.717	183.540	190.487	335.431	189.909	-8191	255	
802.190	1	1	0	0	0.2614	0.14098	0.22593	0.19458	0.09196	0.19944	0.32412	0.19131	0.11752	0.075063	0.21588	0.079316	0.16016	0.32755	0.16394	0.18647	-2.8167	-2.8042	-3.0708	-3.2729	-2.8917	-3.1583	-3.0604	-2.7417	-3.15	-2.9313	-3	-3.0938	-2.7958	-3.0542	-3.1937	-2.8187	161.408	433.062	335.700	486.798	434.603	160.940	479.331	353.364	192.184	433.641	245.083	159.854	237.556	448.560	445.789	343.316	0.00030592	0.00039281	8.9235e-05	1159.6	4.7048e-06	2.2567e-06	1218.6	241.61	4.6677e-06	3.0379e-06	297.44	86.358	66.129	19.143	3.3952e-06	27.104	0.0002477	0.00018905	5.0776e-05	1145	2.4115e-06	1.861e-06	1204.2	240.16	2.1314e-06	1.7356e-06	297.36	84.438	66.224	19.409	1.9424e-06	27.374	266.802	268.941	257.317	169.775	297.056	293.681	169.627	176.985	321.730	314.104	176.628	182.715	183.001	190.643	314.210	189.784	-8191	255	
802.285	1	1	0	0	0.16254	0.082903	0.18554	0.31489	0.25984	0.37267	0.24299	0.35678	0.067905	0.072347	0.15008	0.15538	0.066289	0.07056	0.18317	0.216	-2.8937	-2.8729	-2.8937	-3.4104	-2.8021	-2.9542	-3.1479	-2.6167	-3.1333	-3.0062	-2.9021	-3.1958	-2.9354	-3.0563	-3.1333	-2.7562	342.461	401.139	203.865	474.135	171.888	236.089	441.128	385.564	158.829	211.131	265.758	244.577	431.978	187.348	173.794	462.811	0.00030453	0.0003189	4.93e-05	1162.3	4.3486e-06	4.0335e-06	1218.6	241.85	2.6667e-06	1.7172e-06	299.2	84.868	66.276	19.36	3.1296e-06	26.973	0.00024672	0.00019422	5.0315e-05	1146.1	2.4086e-06	1.9506e-06	1201.9	240.57	2.1878e-06	1.9088e-06	297.94	83.778	66.293	19.467	1.8992e-06	27.315	268.833	259.612	270.547	169.779	305.734	292.186	169.832	176.645	312.219	293.328	176.627	183.117	183.251	190.464	332.345	189.976	-8191	255	
802.358	1	1	0	0	0.2198	0.3138	0.30601	0.31059	0.21583	0.16928	0.23849	0.10236	0.13187	0.14921	0.21571	0.34134	0.20517	0.05811	0.13688	0.35856	-2.6917	-2.725	-2.8	-3.1458	-2.8896	-2.9938	-3.2625	-2.7917	-3.2167	-2.9083	-2.825	-3.2021	-3.0042	-3.075	-3.0667	-2.8729	287.680	356.377	395.303	414.794	332.537	335.999	189.572	374.769	223.903	254.065	476.480	249.510	423.525	219.782	413.760	437.164	0.00030238	0.00030234	7.443e-05	1154.3	4.2564e-06	3.8303e-06	1217.3	242.08	3.9398e-06	2.7461e-06	297.32	85.225	66.21	19.287	1.9482e-06	27.027	0.00024418	0.00018092	5.3372e-05	1144.7	2.3642e-06	1.9306e-06	1202.1	240.4	2.0869e-06	1.9349e-06	297.65	84.092	66.282	19.421	1.732e-06	27.365	268.435	258.965	255.816	169.789	306.319	309.849	170.033	176.702	321.789	309.740	176.559	183.888	183.304	190.264	319.437	189.920	-8191	255	
802.477	1	1	0	0	0.12062	0.27911	0.13944	0.18265	0.33642	0.14668	0.2076	0.14228	0.1924	0.081822	0.24119	0.18143	0.16384	0.10022	0.23014	0.024572	-2.5979	-3.1042	-2.7458	-3.3125	-2.8812	-2.9167	-3.2812	-2.8542	-3.1167	-3.0292	-2.9979	-3.2458	-2.9917	-2.7833	-3.1521	-2.9667	160.839	427.623	175.838	455.922	261.750	357.494	410.661	171.797	252.783	396.061	351.017	208.624	407.613	490.103	287.235	255.745	0.00030997	0.00039346	6.8085e-05	1160.5	4.5216e-06	2.3896e-06	1219.9	241.48	3.5824e-06	2.7643e-06	298.69	85.365	66.156	19.175	4.0695e-06	27.077	0.00024878	0.00018079	4.7155e-05	1145.5	2.4389e-06	1.932e-06	1205.7	240.44	2.2531e-06	1.8634e-06	297.37	84.505	66.192	19.458	1.9737e-06	27.335	267.344	267.563	259.445	169.669	315.139	325.802	169.595	176.752	307.730	323.195	176.644	182.311	183.364	190.596	351.770	189.708	-8191	255	
802.573	1	1	0	0	0.2202	0.090603	0.35728	0.22575	0.19588	0.091262	0.14764	0.038875	0.30156	0.087425	0.15656	0.28843	0.17975	0.20162	0.13192	0.19586	-2.6542	-3	-2.8083	-3.2375	-3.1312	-2.7229	-3.5187	-2.9021	-3.0187	-3.25	-2.8063	-3.1188	-2.8688	-2.5875	-3.15	-3.0083	401.299	368.352	221.802	461.331	294.352	381.944	368.915	169.079	258.883	388.942	412.379	452.690	309.153	182.564	405.884	397.961	0.00030217	0.00033394	7.4428e-05	1162.5	4.0464e-06	2.5213e-06	1216	242.52	3.6327e-06	2.8846e-06	300.31	86.373	66.238	19.171	3.1242e-06	26.963	0.00025385	0.00018147	5.0247e-05	1147.4	2.6151e-06	1.8314e-06	1204.9	240.7	2.2169e-06	1.9878e-06	298.58	84.576	66.364	19.464	2.01e-06	27.334	264.611	253.906	244.928	169.794	314.784	300.279	169.715	176.970	307.197	311.860	176.735	182.948	183.289	190.546	307.626	189.653	-8191	255	
802.669	1	1	0	0	0.1837	0.19674	0.12353	0.19397	0.14963	0.23924	0.061384	0.13309	0.12366	0.10022	0.13171	0.042128	0.20345	0.17046	0.012815	0.20561	-2.5625	-3.1458	-2.5396	-3.2625	-2.9333	-2.8563	-3.3417	-2.8729	-2.9458	-3.3896	-3.0021	-3.1188	-3.2479	-2.8438	-3.2896	-2.9375	206.098	436.649	217.893	416.418	500.790	490.567	299.979	397.092	441.105	195.473	498.873	496.747	214.501	496.784	516.058	410.075	0.00031235	0.00027005	0.00011856	1167.6	3.7903e-06	2.9453e-06	1218.9	243.44	4.0354e-06	3.199e-06	299.63	86.638	65.933	19.196	4.4681e-06	27.147	0.00025803	0.00017359	5.011e-05	1150.3	2.3158e-06	1.9616e-06	1206.6	241.19	2.176e-06	1.9109e-06	298.5	84.78	66.185	19.46	1.9499e-06	27.372	268.519	268.358	262.962	169.648	297.131	308.593	169.793	176.883	305.352	304.669	176.806	182.762	183.158	190.225	324.210	190.029	-8191	255	
802.765	1	1	0	0	0.27358	0.15876	0.10409	0.029888	0.13181	0.30431	0.14583	0.071387	0.26836	0.07414	0.11171	0.19435	0.13174	0.16309	0.33347	0.16673	-2.4562	-3.2979	-2.8708	-3.2833	-3.1375	-2.7417	-3.4437	-3.0062	-2.7979	-3.2167	-2.7896	-3.1146	-3.2167	-2.7917	-3.2396	-2.9333	252.348	273.639	265.474	394.322	294.385	447.868	245.951	440.362	347.450	159.308	466.427	290.706	414.198	495.675	360.525	409.299	0.00029765	0.00030271	6.5943e-05	1160	5.1473e-06	4.4263e-06	1223.9	242.65	3.1141e-06	2.9411e-06	300.4	87.488	65.934	19.367	1.9655e-06	26.859	0.00025349	0.00017568	4.6541e-05	1147.9	2.3333e-06	1.9458e-06	1207.2	241.14	2.3879e-06	1.803e-06	298.35	84.582	66.359	19.515	1.9061e-06	27.333	268.324	244.815	258.828	169.692	318.343	309.177	169.764	177.042	303.978	325.065	176.716	182.004	183.405	189.967	314.753	189.964	-8191	255	
802.861	1	1	0	0	0.25604	0.0787	0.21754	0.11977	0.072331	0.068604	0.036829	0.19759	0.14345	0.23049	0.11485	0.24581	0.12146	0.11611	0.052443	0.1167	-2.3833	-3.2458	-2.9458	-3.0875	-3.1604	-2.7292	-3.2729	-3.1583	-2.9125	-3.3312	-3.0417	-2.9562	-3.1521	-2.8937	-3.1021	-3.0333	307.830	165.918	475.108	515.422	427.645	242.197	161.827	345.572	251.825	199.215	229.708	269.735	490.509	318.453	265.983	430.305	0.00029481	0.0002781	7.5744e-05	1159.6	3.7712e-06	3.276e-06	1224.5	243.32	3.0928e-06	2.8539e-06	299.57	86.522	66.208	19.301	2.6032e-06	27.041	0.00025744	0.0001596	4.8573e-05	1148.3	2.3438e-06	2.0857e-06	1208	241.23	2.2585e-06	1.9177e-06	298.11	84.675	66.349	19.47	1.9944e-06	27.369	266.760	258.295	263.847	169.785	313.216	301.995	169.691	177.013	306.286	302.461	176.441	182.917	183.621	190.533	330.456	189.329	-8191	255	
802.958	1	1	0	0	0.14678	0.10398	0.2991	0.1309	0.14929	0.090233	0.27377	0.12572	0.16924	0.21131	0.19859	0.23994	0.16821	0.26054	0.18404	0.079608	-2.4604	-3.3271	-2.8458	-3.1063	-3.2458	-2.9729	-3.3	-3.1458	-2.7458	-3.2292	-2.9562	-2.9688	-3.2438	-2.6833	-2.9229	-3.0458	363.884	404.446	159.974	477.795	399.678	347.074	463.921	457.743	480.615	202.196	397.036	252.395	254.890	262.662	163.326	285.755	0.0003032	0.00032416	0.00013721	1161.2	3.7591e-06	3.8501e-06	1219.8	242.4	2.6361e-06	3.1169e-06	300.48	86.792	66.374	19.379	2.8286e-06	26.913	0.00025985	0.00017316	5.1698e-05	1150.2	2.2808e-06	2.0629e-06	1208.6	241.43	2.3166e-06	1.7356e-06	298.85	84.401	66.45	19.514	1.9124e-06	27.41	266.770	257.955	263.197	169.784	311.161	335.342	169.844	176.940	321.949	291.533	176.361	183.286	183.573	190.607	330.780	189.711	-8191	255	
803.054	1	1	0	0	0.31246	0.1924	0.14953	0.26828	0.22195	0.10732	0.24425	0.14787	0.11396	0.2948	0.1652	0.12437	0.20254	0.094893	0.095989	0.077829	-2.2708	-3.1542	-2.725	-2.9854	-3.0062	-2.8917	-3.1688	-3.0833	-2.7354	-3.2438	-3.2208	-3.0979	-3.2208	-2.9125	-3.0521	-3.2833	235.750	253.221	495.221	438.512	233.978	321.610	490.378	410.354	202.797	461.250	357.116	396.258	223.743	345.629	403.058	370.968	0.00029954	0.00036618	0.00010766	1161.5	4.0018e-06	3.3822e-06	1223.2	241.93	3.1794e-06	2.8155e-06	299.05	87.128	66.335	19.356	3.9974e-06	26.948	0.00024967	0.00018006	5.3014e-05	1149.2	2.4582e-06	1.9044e-06	1209.5	240.68	2.3048e-06	1.9157e-06	298.09	84.879	66.58	19.557	2.0789e-06	27.405	267.772	248.930	230.505	169.912	305.527	316.447	169.810	176.861	318.554	309.353	176.974	183.965	182.899	190.230	328.395	190.256	-8191	255	
803.150	1	1	0	0	0.10951	0.13272	0.12348	0.16808	0.26333	0.15029	0.17696	0.012203	0.15994	0.2491	0.15905	0.062422	0.037095	0.18611	0.14932	0.17588	-2.4437	-3.0521	-3.0625	-2.9146	-3.1771	-2.9542	-3.0812	-3.2875	-2.8396	-3.2229	-3.1	-2.7812	-3.2687	-3.0042	-2.9667	-3.1396	234.151	504.322	360.705	347.095	370.568	358.804	441.711	468.248	325.291	215.547	432.495	254.399	452.437	458.269	428.429	429.917	0.00028671	0.0003133	9.6766e-05	1165.5	4.6811e-06	3.5566e-06	1224.1	242.71	2.8744e-06	1.8583e-06	298.62	86.008	66.389	19.379	2.8665e-06	27.134	0.00024492	0.00018049	5.4499e-05	1151.2	2.5363e-06	2.0877e-06	1209.2	241.48	2.3428e-06	1.8717e-06	299.03	84.545	66.487	19.564	2.129e-06	27.47	268.816	255.241	233.612	169.730	323.401	309.896	169.964	177.181	304.197	313.169	176.471	183.091	183.258	190.607	339.713	189.956	-8191	255	
803.271	1	1	0	0	0.15575	0.17765	0.080214	0.19814	0.19756	0.18336	0.38433	0.17103	0.053761	0.078915	0.14518	0.35518	0.084778	0.014485	0.20313	0.060767	-2.4479	-3.0604	-3.0146	-2.9562	-3.2521	-2.9958	-3.0521	-3.2521	-2.8729	-3.1813	-3.3292	-2.7812	-3.1729	-3.0542	-2.9854	-3.2229	246.311	486.412	196.072	220.003	310.297	374.988	483.322	493.751	505.876	508.354	243.664	184.896	454.688	191.843	444.692	244.122	0.00030027	0.00035959	0.00011081	1163.2	4.3925e-06	3.102e-06	1227.5	243.06	3.2566e-06	2.7282e-06	299.57	86.397	66.33	19.281	2.0708e-06	27.045	0.00025687	0.00019835	5.023e-05	1152.8	2.4156e-06	2.0099e-06	1212.4	241.78	2.205e-06	1.8655e-06	299.15	85.039	66.554	19.519	2.1754e-06	27.391	269.490	261.653	246.561	169.769	305.637	330.029	169.705	176.920	317.661	316.552	176.520	182.841	183.434	190.300	318.030	189.847	-8191	255	
803.365	1	1	0	0	0.32431	0.24265	0.063284	0.25988	0.11205	0.20604	0.19838	0.19732	0.20472	0.18505	0.26592	0.10689	0.074239	0.2359	0.12951	0.11915	-2.3875	-3.1292	-3.1	-2.9229	-3.15	-2.9792	-2.9271	-3.3917	-2.8042	-2.9646	-3.4646	-2.7521	-3.0771	-3.1792	-2.8625	-3.3542	500.488	264.622	491.346	279.573	246.440	485.472	317.817	425.243	335.580	314.292	506.194	410.713	506.213	489.306	277.900	175.449	0.00032672	0.00036601	7.9813e-05	1167.9	3.687e-06	2.4284e-06	1225.8	242.98	3.4546e-06	2.9016e-06	300.94	87.643	66.31	19.425	3.3182e-06	27.067	0.00026944	0.00018917	5.2125e-05	1153.9	2.5929e-06	1.9472e-06	1211.1	241.35	2.3606e-06	1.9322e-06	299.27	85.014	66.667	19.576	2.0827e-06	27.477	267.426	226.053	264.636	169.691	306.378	340.859	169.825	176.477	324.225	300.139	176.708	183.104	183.123	190.503	325.273	189.871	-8191	255	
803.461	1	1	0	0	0.08873	0.18427	0.10512	0.10288	0.066593	0.37486	0.19522	0.050009	0.13365	0.081808	0.066735	0.27975	0.073876	0.078646	0.16462	0.081312	-2.5792	-2.9521	-3.2979	-2.8937	-3.0896	-2.9771	-2.95	-3.3375	-2.7854	-2.7667	-3.3021	-2.6813	-3.0167	-3.0604	-2.7396	-3.3187	230.623	263.880	516.311	171.069	229.528	371.471	397.707	337.613	225.077	378.969	468.723	336.611	309.649	408.684	224.181	361.754	0.00028318	0.00035462	9.3364e-05	1166.1	2.7478e-06	2.6665e-06	1229.3	243.55	3.2865e-06	2.8459e-06	298.89	87.336	66.191	19.362	2.1052e-06	27.134	0.00024916	0.00019619	4.9376e-05	1153	2.4348e-06	1.8231e-06	1212	241.61	2.3576e-06	1.9438e-06	299.31	84.945	66.395	19.54	2.104e-06	27.472	270.365	235.358	248.515	169.679	319.212	303.773	169.667	176.956	314.533	307.831	176.774	183.561	183.278	190.524	313.290	189.827	-8191	255	
803.582	1	1	0	0	0.21804	0.23989	0.06821	0.34561	0.017866	0.04561	0.37209	0.064757	0.1621	0.075964	0.12883	0.11591	0.22098	0.19417	0.24978	0.061477	-2.5875	-2.8583	-3.2417	-3.0563	-3.2729	-3.0396	-3.0229	-3.2625	-3.0896	-3.0854	-3.2583	-2.8896	-3.0604	-3.2021	-2.7417	-3.2771	212.496	413.386	319.418	477.414	277.798	184.434	434.397	479.808	452.263	311.940	467.467	236.053	493.846	271.006	175.320	327.215	0.00027765	0.00047319	7.6162e-05	1164.9	4.9566e-06	1.6902e-06	1226.7	244.33	4.11e-06	2.0818e-06	299.31	85.907	66.242	19.36	2.0821e-06	27.181	0.00024639	0.00019706	4.4798e-05	1151.5	2.3088e-06	1.8411e-06	1210.2	241.85	2.2923e-06	1.8291e-06	298.88	84.635	66.411	19.566	2.2004e-06	27.423	268.593	257.367	262.251	169.692	314.610	308.225	169.872	176.885	313.350	312.236	176.690	183.297	183.618	190.351	321.961	189.981	-8191	255	
803.653	1	1	0	0	0.072583	0.35223	0.17349	0.18596	0.13761	0.13508	0.50497	0.30243	0.13484	0.14883	0.14694	0.056294	0.24536	0.087836	0.088477	0.13166	-2.5104	-2.8458	-3.1792	-3.1958	-3.1021	-3.1688	-2.9437	-3.175	-3.1042	-2.8375	-3.2125	-2.8896	-2.9938	-3.3063	-3.0542	-3.2042	197.286	211.850	253.607	407.042	183.788	449.107	478.175	444.719	218.835	312.245	512.163	320.413	512.443	284.411	307.954	429.589	0.00027809	0.00039209	0.00012599	1164.8	4.3882e-06	3.4053e-06	1227.3	244.07	3.7809e-06	2.4384e-06	301.73	85.946	66.313	19.425	2.9698e-06	27.077	0.00024922	0.00019422	4.9222e-05	1152.4	2.4733e-06	1.8459e-06	1209.1	242.26	2.2246e-06	1.9775e-06	299.56	84.431	66.478	19.557	2.1415e-06	27.453	266.146	244.343	253.307	169.570	323.262	305.649	169.954	176.966	313.969	300.380	176.699	181.862	182.922	190.580	311.920	189.935	-8191	255	
803.750	1	1	0	0	0.18925	0.17788	0.2193	0.19858	0.046719	0.11956	0.3179	0.25904	0.18209	0.10809	0.12877	0.17572	0.18429	0.13199	0.032023	0.39291	-2.5583	-2.8125	-3.2167	-2.8896	-2.8479	-3.1813	-3.0854	-3.1708	-3.225	-2.925	-3.2625	-3.0229	-2.8604	-3.3729	-2.7729	-3.0771	297.335	322.296	441.690	184.141	192.310	304.139	419.837	322.925	467.155	282.376	470.568	196.850	360.609	262.252	392.324	438.863	0.00028563	0.00026776	7.7446e-05	1166.9	4.0959e-06	3.4077e-06	1225.6	244.06	2.9631e-06	2.3453e-06	301.69	86.718	66.266	19.27	2.9129e-06	27.14	0.00024952	0.00018172	4.6353e-05	1153.5	2.4255e-06	1.85e-06	1210.6	242.04	2.1932e-06	1.9267e-06	299.65	84.957	66.454	19.52	2.1992e-06	27.491	268.613	248.456	255.305	169.706	315.358	325.397	169.701	176.650	330.261	309.947	176.537	182.253	183.365	190.392	308.487	189.930	-8191	255	
803.870	1	1	0	0	0.29178	0.043441	0.055839	0.1334	0.064755	0.15248	0.083272	0.21278	0.10593	0.19231	0.26901	0.07571	0.041165	0.045963	0.12297	0.14759	-2.4875	-2.6958	-3.2438	-2.8104	-2.7375	-3.2708	-2.9104	-3.0542	-3.225	-2.8833	-3.275	-2.9979	-2.9188	-3.1833	-2.9313	-3.0438	311.133	177.896	283.855	505.769	403.169	312.996	187.605	506.993	456.616	502.839	364.366	432.917	345.753	183.665	320.225	489.411	0.00030353	0.0002409	9.9058e-05	1167.2	3.2439e-06	2.3454e-06	1222.5	243.47	3.5047e-06	2.3086e-06	299.9	88.164	66.362	19.419	2.5401e-06	27.287	0.00024603	0.00019539	4.8744e-05	1153.7	2.4692e-06	1.7763e-06	1210.3	241.63	2.2573e-06	2.1067e-06	299.01	85.127	66.485	19.594	2.1021e-06	27.493	269.322	256.052	270.275	169.700	304.805	303.583	169.914	176.952	319.537	327.985	176.601	182.707	183.771	190.315	307.589	189.662	-8191	255	
803.966	1	1	0	0	0.12349	0.22905	0.11978	0.13174	0.084568	0.24121	0.18567	0.1588	0.1835	0.17609	0.045749	0.28129	0.06506	0.16093	0.18345	0.050511	-2.6667	-2.6354	-3.1	-3.2208	-2.8271	-3.2958	-3.125	-3.0687	-3.2646	-2.7833	-3.2	-3.1479	-2.9	-3.175	-2.9229	-2.8312	355.968	513.434	439.546	234.652	181.459	281.833	396.102	165.226	475.288	293.418	485.919	211.730	354.780	505.175	263.261	269.474	0.00029738	0.00030903	0.00010772	1168.8	4.2329e-06	2.8264e-06	1224.8	244.03	4.9946e-06	3.1921e-06	301.31	85.776	66.711	19.332	3.2732e-06	27.17	0.00024821	0.0001832	5.0691e-05	1154.2	2.6116e-06	1.8307e-06	1210.9	242.07	2.2098e-06	2.1046e-06	299.71	84.68	66.611	19.555	2.1691e-06	27.509	269.958	258.036	237.751	169.761	320.213	299.248	169.788	176.932	324.076	298.955	176.727	183.832	183.324	190.027	316.276	190.139	-8191	255	
804.062	1	1	0	0	0.081921	0.1896	0.09906	0.17268	0.15793	0.15781	0.22011	0.18414	0.097975	0.078921	0.18353	0.19826	0.1734	0.12115	0.25296	0.21776	-2.9208	-2.7812	-2.9354	-3.2313	-2.6	-3.2396	-3.3563	-2.9208	-3.1125	-2.7896	-3.2125	-3.175	-2.6771	-3.2208	-3.1021	-2.8187	178.415	505.182	438.259	484.252	502.761	413.079	195.901	426.918	254.695	509.137	473.852	217.003	494.457	396.730	387.220	408.343	0.00028496	0.00029968	0.00011692	1167.9	4.0631e-06	2.2353e-06	1225.4	244.31	4.0751e-06	7.6556e-07	300.04	86.206	66.773	19.291	3.13e-06	27.107	0.00024675	0.000214	4.8778e-05	1153.4	2.5375e-06	1.9093e-06	1214.4	241.93	2.265e-06	1.937e-06	299.94	84.829	66.776	19.559	2.0075e-06	27.545	266.729	248.554	278.097	169.667	315.415	290.930	169.711	176.881	321.656	276.291	176.512	182.387	182.979	190.375	316.063	189.691	-8191	255	
804.159	1	1	0	0	0.36405	0.16622	0.21976	0.33579	0.074477	0.076866	0.21446	0.04138	0.31235	0.1621	0.13346	0.18655	0.10619	0.15962	0.23037	0.25571	-2.7896	-2.8396	-2.925	-3.2062	-2.85	-2.9458	-3.1083	-2.9271	-3.3396	-2.9875	-3.0438	-3.2542	-2.8375	-3.2125	-3.0854	-2.8458	198.293	349.241	244.310	450.605	224.990	323.744	449.012	472.283	322.173	272.326	230.436	450.682	178.827	509.545	476.040	165.433	0.00028638	0.0002019	6.6963e-05	1172.8	2.8284e-06	3.4813e-06	1236.9	243.51	3.2328e-06	3.7551e-06	299.54	87.973	66.558	19.256	2.4915e-06	27.159	0.00023552	0.00019564	5.1271e-05	1157.3	2.5433e-06	2.0044e-06	1216.4	242.22	2.0513e-06	1.9493e-06	299.31	85.12	66.699	19.514	1.9681e-06	27.441	269.261	257.434	263.498	169.691	300.085	285.995	169.908	176.772	306.749	321.527	176.802	183.606	183.361	190.356	297.086	190.164	-8191	255	
804.255	1	1	0	0	0.27888	0.19292	0.25444	0.11653	0.08117	0.093979	0.217	0.1239	0.059212	0.16597	0.12301	0.16911	0.045744	0.13143	0.18773	0.29914	-2.9646	-2.8125	-2.9167	-3.3354	-2.7812	-2.9333	-3.2646	-2.9104	-3.2708	-2.9396	-3.0312	-3.0479	-2.8854	-2.9938	-3.0292	-2.8563	222.257	431.904	401.180	446.532	244.085	334.330	476.610	395.141	176.564	407.139	344.392	480.809	478.496	195.125	352.988	422.526	0.000285	0.00019375	0.00010556	1168.7	3.1677e-06	2.256e-06	1226.2	242.57	2.943e-06	3.4191e-06	300.88	86.352	66.146	19.333	3.5691e-06	27.18	0.00024191	0.00018985	5.3116e-05	1155.5	2.5894e-06	1.9375e-06	1210.5	242.01	2.1297e-06	1.8992e-06	299.79	84.652	66.35	19.567	1.9074e-06	27.49	268.123	259.374	261.989	169.743	300.556	285.014	169.828	176.949	316.934	292.762	176.791	184.247	183.680	190.655	319.667	190.193	-8191	255	
804.349	1	1	0	0	0.23113	0.04358	0.26931	0.13618	0.091613	0.093565	0.22263	0.22844	0.1122	0.12807	0.32095	0.06617	0.12492	0.12084	0.26807	0.15436	-2.725	-2.8625	-2.8667	-3.3667	-2.7583	-3.0479	-3.2313	-2.9979	-3.2458	-3.0354	-2.9	-3.4917	-2.9313	-3.0687	-3.2229	-2.8229	218.625	225.662	292.862	444.345	333.292	502.946	508.706	457.168	447.901	161.754	412.641	501.610	341.285	188.287	496.761	438.455	0.0002875	0.00029347	0.00010065	1170.7	3.4055e-06	1.7883e-06	1225.6	242.6	2.8888e-06	3.1032e-06	300.3	85.958	66.335	19.361	3.7332e-06	27.292	0.00025125	0.00018437	5.3714e-05	1155.3	2.4249e-06	2.0478e-06	1213.3	241.92	2.0555e-06	2.0002e-06	299.39	84.548	66.564	19.543	2.1265e-06	27.506	269.080	224.854	255.414	169.677	303.492	315.642	169.745	176.775	330.174	312.487	176.472	183.189	183.417	190.318	336.370	190.072	-8191	255	
804.445	1	1	0	0	0.18651	0.2049	0.37405	0.14803	0.25963	0.062738	0.19548	0.15308	0.14116	0.26007	0.1815	0.098121	0.16513	0.18817	0.078274	0.047742	-2.8146	-3.0271	-2.7333	-3.4479	-2.725	-3.1188	-3.35	-2.9208	-2.9688	-2.9958	-2.7979	-3.3458	-2.8146	-2.9125	-3.3521	-2.7104	453.587	365.743	331.220	505.222	186.011	226.246	439.206	192.897	514.316	401.364	398.718	326.449	421.109	244.443	420.002	282.229	0.00029357	0.00028502	7.3803e-05	1175	3.681e-06	2.9024e-06	1231.3	243.84	3.7925e-06	4.0977e-06	300.14	86.748	66.761	19.236	2.5542e-06	27.211	0.00024698	0.0001747	5.0759e-05	1157.1	2.4792e-06	2.0912e-06	1215.7	242.69	2.243e-06	1.8167e-06	299.46	84.649	66.83	19.558	2.0182e-06	27.496	268.660	253.320	261.397	169.683	317.293	327.806	169.624	177.009	321.329	311.777	176.754	182.826	183.566	190.116	313.538	190.134	-8191	255	
804.543	1	1	0	0	0.2854	0.17924	0.075187	0.25987	0.14864	0.087743	0.16877	0.20295	0.25017	0.12802	0.32689	0.0962	0.213	0.17989	0.2266	0.11733	-2.7479	-3.0604	-2.7687	-3.3729	-2.9938	-2.8083	-3.2	-2.9958	-3.1021	-3.1396	-2.8896	-3.2667	-3.0125	-2.9104	-3.1792	-2.9979	504.561	325.053	346.420	482.776	288.595	396.221	417.087	483.892	294.079	277.058	481.159	271.508	378.293	178.745	371.975	274.341	0.00029982	0.00030662	8.383e-05	1167.7	3.0556e-06	3.1369e-06	1233.1	243.88	2.9199e-06	2.7806e-06	300.71	86.704	65.961	19.309	2.5932e-06	26.933	0.00024848	0.00019435	5.1955e-05	1156.7	2.464e-06	1.912e-06	1214.1	242.19	2.3196e-06	1.9012e-06	299.41	84.953	66.423	19.548	1.9837e-06	27.487	268.699	261.444	250.312	169.672	301.887	317.262	169.699	176.981	320.668	331.091	176.793	182.864	183.441	190.824	309.184	189.784	-8191	255	
804.662	1	1	0	0	0.10787	0.24557	0.17208	0.15692	0.064505	0.1513	0.18291	0.068959	0.2033	0.11228	0.10809	0.07247	0.16406	0.2596	0.17656	0.2367	-2.5625	-3.0625	-2.6458	-3.1458	-2.9875	-2.9333	-3.4333	-2.7771	-2.975	-3.2354	-2.8646	-3.15	-3.0583	-2.7833	-3.3083	-3.0458	465.070	482.662	180.687	444.460	417.869	467.854	461.961	436.560	444.771	437.092	246.284	445.602	510.139	476.953	239.117	361.889	0.0003085	0.00024039	8.5577e-05	1168.6	4.708e-06	4.3365e-06	1227	243.02	4.1203e-06	2.2858e-06	299.15	87.466	66.784	19.342	2.8713e-06	27.001	0.00025114	0.00018572	5.0503e-05	1154.5	2.2919e-06	2.0622e-06	1211.1	242.04	2.1659e-06	1.7295e-06	299.22	84.37	66.717	19.485	1.9011e-06	27.513	269.395	247.714	259.669	169.712	315.705	316.243	169.492	176.944	315.841	298.239	176.488	182.968	183.425	190.152	299.863	189.645	-8191	255	
804.758	1	1	0	0	0.19615	0.11356	0.22577	0.2461	0.073153	0.14226	0.25957	0.20983	0.21244	0.11277	0.22518	0.19021	0.1618	0.15018	0.29532	0.051446	-2.4354	-3.1521	-2.7792	-3.3729	-3	-2.8833	-3.3917	-3.0604	-2.9292	-3.2083	-2.8229	-3.1167	-3.0417	-2.7167	-3.3479	-3.1292	357.650	464.664	444.154	472.021	348.789	366.636	389.253	235.217	428.383	430.577	176.578	278.115	470.628	494.276	249.859	192.973	0.00029037	0.00031856	7.864e-05	1168.5	4.2059e-06	3.9787e-06	1229.6	243.72	3.4962e-06	2.7011e-06	299.32	86.036	66.607	19.371	2.7741e-06	27.125	0.00024292	0.00018221	5.3338e-05	1153.8	2.4862e-06	2.118e-06	1212	242.2	2.1777e-06	1.939e-06	299.27	84.981	66.594	19.542	1.8103e-06	27.46	269.779	239.596	255.635	169.895	318.820	292.147	169.804	177.153	320.156	287.075	176.710	183.649	183.216	190.234	299.425	189.720	-8191	255	
804.854	1	1	0	0	0.16888	0.21052	0.1344	0.1783	0.17448	0.021171	0.075391	0.09517	0.091876	0.26156	0.031113	0.13139	0.12141	0.17825	0.19633	0.21933	-2.3979	-3.1708	-2.6708	-3.2021	-3.0563	-2.875	-3.4188	-3.2396	-3.0292	-3.3604	-2.8229	-3.1188	-3.1271	-2.6792	-3.1979	-2.9271	294.564	302.302	164.210	180.605	488.387	431.877	383.895	487.399	202.693	399.753	446.838	319.101	394.063	490.224	437.736	459.399	0.00027635	0.00024852	8.4181e-05	1171.7	5.0031e-06	2.5662e-06	1229.1	242.79	3.3228e-06	2.9949e-06	299.71	86.917	66.133	19.341	2.928e-06	27.096	0.00024591	0.00016928	5.0042e-05	1154.3	2.4202e-06	2.0932e-06	1214.3	241.97	2.3024e-06	1.8786e-06	299.41	84.472	66.411	19.539	2.0044e-06	27.466	268.918	243.931	263.181	169.804	303.040	314.151	169.832	177.097	318.093	318.587	176.624	183.641	183.292	189.902	335.290	189.812	-8191	255	
804.951	1	1	0	0	0.36102	0.16961	0.13272	0.30841	0.022336	0.15452	0.33314	0.12808	0.037829	0.10097	0.19943	0.20765	0.17667	0.14008	0.045093	0.25869	-2.3729	-3.2062	-2.9792	-3.025	-3.0917	-2.8063	-3.2375	-2.9688	-2.775	-3.2313	-3.0021	-3.0812	-3.2708	-2.8	-3.125	-3.3208	350.618	206.837	263.975	447.107	328.167	214.031	479.152	482.802	473.375	373.708	474.688	493.360	507.750	393.442	389.864	396.247	0.00029407	0.0001761	6.1731e-05	1170.3	3.7805e-06	2.2628e-06	1221.3	243.99	3.9049e-06	2.7536e-06	300.47	88.449	66.718	19.323	2.7169e-06	27.141	0.0002463	0.00016539	5.2194e-05	1154.9	2.3905e-06	1.9858e-06	1210.9	241.92	2.3445e-06	1.906e-06	299.64	85.055	66.58	19.539	2.057e-06	27.52	266.313	274.157	252.894	169.950	312.546	264.098	169.728	177.087	316.971	314.069	176.829	183.235	183.486	190.485	312.650	189.965	-8191	255	
805.047	1	1	0	0	0.096914	0.29221	0.23211	0.28146	0.10311	0.2415	0.28783	0.34784	0.13969	0.16609	0.2401	0.13137	0.073745	0.027853	0.16604	0.27346	-2.3667	-3.1104	-2.8167	-2.9542	-3.2667	-2.7583	-3.2042	-3.1125	-2.8396	-3.2687	-3.0104	-2.8542	-3.2833	-2.8812	-3.1	-3.325	447.873	375.584	413.935	498.769	479.132	405.143	462.320	171.391	489.474	449.580	359.376	192.250	349.312	411.018	439.366	427.630	0.00027996	0.00017601	0.00012133	1165.5	3.173e-06	3.5485e-06	1229.6	242.75	3.1099e-06	4.1406e-06	300.18	87.306	66.584	19.376	2.6317e-06	27.245	0.0002537	0.00016897	4.9393e-05	1152.2	2.1139e-06	1.9713e-06	1212.5	241.59	2.3582e-06	1.8683e-06	299.27	85.18	66.542	19.582	2.0407e-06	27.503	269.141	257.080	261.808	169.810	301.786	300.464	169.639	177.306	321.595	315.192	176.561	183.811	183.414	190.074	310.627	189.974	-8191	255	
805.143	1	1	0	0	0.19299	0.29348	0.05374	0.38399	0.064953	0.14826	0.19844	0.23062	0.34097	0.1	0.16849	0.13528	0.32123	0.2114	0.25308	0.094147	-2.2833	-3.1542	-2.9167	-2.9625	-3.1458	-2.9208	-3.0396	-3.3042	-2.6854	-3.1104	-3.1375	-2.9104	-3.1104	-2.7979	-3.0479	-3.2562	167.265	495.638	320.373	468.487	401.316	159.451	504.496	416.317	398.434	342.794	487.664	481.682	459.211	170.230	308.064	419.821	0.00031366	0.00017709	7.0167e-05	1167.3	4.7884e-06	2.4177e-06	1229.2	244.57	3.2383e-06	3.1814e-06	300.39	86.865	66.704	19.271	3.0914e-06	27.041	0.00025612	0.00016589	4.9854e-05	1152.9	2.3298e-06	2.0333e-06	1213.3	242.22	2.2169e-06	1.9631e-06	299.38	85.422	66.549	19.554	2.2148e-06	27.461	271.130	238.347	257.412	169.813	297.535	309.507	169.816	176.914	318.011	314.108	176.613	183.026	183.501	190.624	304.653	189.958	-8191	255	
805.263	1	1	0	0	0.28424	0.19729	0.17157	0.14518	0.092739	0.12202	0.060404	0.1695	0.092864	0.061465	0.29419	0.26655	0.15556	0.1359	0.28294	0.13937	-2.35	-3.2646	-3.0938	-2.8375	-3.3729	-3.1375	-3.2667	-3.3458	-2.8646	-3.1292	-3.4125	-2.85	-3.2229	-3.0354	-2.8833	-3.3167	443.553	422.689	287.520	334.920	327.196	396.030	319.930	501.614	227.621	309.198	462.294	385.710	187.180	481.472	349.458	219.685	0.0002829	0.00041593	0.00011316	1168.4	3.4009e-06	2.3377e-06	1228.9	244	3.9242e-06	3.104e-06	299.86	86.563	66.777	19.254	3.7598e-06	27.221	0.00024274	0.00017932	4.9751e-05	1152.8	2.2154e-06	1.9237e-06	1212.4	242.37	2.281e-06	2.2482e-06	299.31	84.928	66.779	19.53	2.0326e-06	27.518	268.277	239.632	255.152	169.754	320.588	341.052	169.988	177.036	314.818	318.953	176.476	183.875	183.173	190.488	323.762	189.955	-8191	255	
805.360	1	1	0	0	0.086621	0.3006	0.23765	0.039586	0.22312	0.0625	0.39741	0.037652	0.22979	0.041617	0.14324	0.051841	0.13211	0.27619	0.21587	0.059912	-2.4313	-3.1083	-3.0604	-2.9604	-3.2313	-3.0167	-3.1333	-3.2521	-2.6667	-3.1417	-3.3271	-2.8771	-3.4021	-2.925	-2.9542	-3.1604	220.722	207.426	416.715	163.389	190.520	163.755	470.397	246.584	370.099	262.492	209.996	465.289	200.858	439.087	237.746	222.826	0.00029473	0.00038136	0.00013171	1165.6	3.5428e-06	3.1332e-06	1228.1	244.07	3.8616e-06	2.1563e-06	303.53	87.37	66.632	19.339	3.4822e-06	27.18	0.00025075	0.00017451	4.4081e-05	1153.9	2.3928e-06	1.9396e-06	1211.7	242.31	2.173e-06	1.827e-06	300.09	85.063	66.745	19.548	2.0063e-06	27.466	267.879	221.117	258.563	169.802	309.613	319.295	169.834	176.891	314.429	293.960	176.667	182.702	183.496	190.128	308.518	189.710	-8191	255	
805.454	1	1	0	0	0.086786	0.33105	0.12863	0.23977	0.15796	0.14756	0.10971	0.11452	0.14616	0.28922	0.13042	0.19191	0.2139	0.11792	0.037897	0.10248	-2.5271	-3.2979	-3.1375	-3.0375	-3.4875	-3.1292	-3.0583	-3.45	-2.9771	-3.0271	-3.3563	-2.7146	-3.2479	-3.3021	-2.9333	-3.425	356.607	432.189	270.649	172.595	422.694	315.168	494.440	377.715	315.426	262.439	211.772	443.455	490.969	475.117	366.685	473.724	0.00029329	0.00017617	0.00011694	1169	4.8635e-06	3.1848e-06	1228.6	244.6	2.4193e-06	2.8926e-06	300.33	86.057	66.381	19.311	2.735e-06	27.178	0.00025293	0.00017236	4.6745e-05	1155.1	2.3275e-06	1.799e-06	1212.5	242.22	2.2745e-06	1.8504e-06	299.56	84.544	66.692	19.547	2.0783e-06	27.486	267.658	235.400	277.191	169.699	303.649	305.396	169.854	177.150	322.513	320.569	176.443	183.632	183.329	190.456	317.934	190.080	-8191	255	
805.550	1	1	0	0	0.077578	0.13617	0.22788	0.14445	0.25885	0.11587	0.17496	0.10079	0.01702	0.11284	0.036422	0.095126	0.20883	0.21788	0.097577	0.32162	-2.4458	-2.9688	-3.3646	-3.1292	-3.3625	-3.1333	-2.875	-3.3083	-2.9729	-3.0125	-3.4583	-2.9417	-3.2125	-3.2687	-2.9646	-2.9854	253.673	347.165	195.228	179.833	215.925	449.416	477.894	461.719	420.664	318.848	387.458	503.737	491.870	501.259	216.537	451.103	0.00030376	0.00023764	0.000116	1165.6	3.9961e-06	3.132e-06	1226.6	244.92	4.5877e-06	3.612e-06	300.69	86.589	66.811	19.308	3.8425e-06	27.044	0.00025173	0.00017728	4.6387e-05	1153.8	2.6209e-06	1.9024e-06	1213.4	242.24	2.2537e-06	2.0153e-06	300.1	84.973	66.718	19.536	2.1835e-06	27.507	270.479	237.967	268.882	169.592	325.148	306.916	169.908	176.877	308.930	309.847	176.332	183.161	183.414	190.191	329.172	189.580	-8191	255	
805.646	1	1	0	0	0.12173	0.089495	0.19231	0.21856	0.15637	0.12263	0.084606	0.12985	0.21574	0.2435	0.32693	0.059985	0.27277	0.27219	0.20689	0.077809	-2.6583	-2.9333	-3.3021	-2.9208	-2.9167	-3.2271	-3.0771	-3.2229	-2.9229	-2.9604	-3.3604	-2.8521	-2.9375	-3.0792	-2.9125	-3.3771	393.164	271.750	287.594	159.866	475.231	178.715	424.768	377.243	209.357	165.987	437.700	287.562	500.135	493.586	292.541	364.179	0.00029584	0.00015477	0.0001173	1166.3	3.7342e-06	3.916e-06	1225.6	243.85	3.5802e-06	2.3981e-06	300.53	86.578	66.164	19.274	3.5665e-06	27.013	0.00024913	0.00018431	4.8334e-05	1153.4	2.373e-06	2.0009e-06	1210.8	242.17	2.2169e-06	1.9741e-06	299.51	85.466	66.573	19.584	2.2298e-06	27.475	267.266	254.596	257.793	169.772	314.388	309.790	170.037	177.351	317.226	345.191	176.529	183.349	183.477	190.436	316.856	189.916	-8191	255	
805.742	1	1	0	0	0.20694	0.16437	0.11513	0.30521	0.18358	0.12049	0.32151	0.097674	0.1125	0.067953	0.053897	0.13432	0.12059	0.1243	0.14219	0.12044	-2.7062	-2.8375	-3.2812	-2.9458	-3.1604	-3.2854	-3.0042	-3.2188	-3.1208	-2.9979	-3.2979	-2.8625	-3.0875	-3.3042	-2.6667	-3.1958	295.750	433.828	199.205	431.544	371.897	359.579	498.138	346.846	421.762	318.901	208.224	232.585	441.595	197.015	169.154	514.904	0.00028572	0.0004048	6.4803e-05	1172.1	3.4398e-06	4.0615e-06	1224.4	244.61	3.3342e-06	3.1445e-06	300.09	87.027	66.883	19.458	3.7748e-06	27.118	0.000256	0.00018597	4.6284e-05	1155	2.5422e-06	2.0905e-06	1211.3	242.2	2.1291e-06	2.1026e-06	299.66	84.983	66.767	19.633	2.2674e-06	27.567	267.692	248.045	257.063	169.653	316.379	309.320	169.882	176.715	324.604	330.945	176.545	182.897	183.669	190.590	317.137	189.903	-8191	255	
805.839	1	1	0	0	0.067179	0.32253	0.071467	0.25433	0.01083	0.14519	0.17518	0.17107	0.16211	0.12508	0.10018	0.1649	0.40478	0.19008	0.15158	0.1877	-2.7	-2.7333	-3.1188	-3.1688	-2.9938	-3.2292	-3.075	-3.2542	-3.1562	-2.8875	-3.3688	-2.9813	-2.8896	-3.1813	-3.0229	-3.1437	334.614	198.072	453.231	183.340	407.901	268.774	487.329	441.090	506.780	371.063	471.303	443.443	171.045	197.109	176.462	278.787	0.00030283	0.00028499	7.5289e-05	1175.1	2.4815e-06	2.9317e-06	1228.8	244.82	3.6284e-06	2.0983e-06	301.79	86.944	66.9	19.497	3.3058e-06	27.253	0.00024875	0.00020081	4.8453e-05	1158.3	2.5801e-06	2.0264e-06	1215.6	243.46	2.5178e-06	2.1287e-06	301.18	85.468	66.837	19.664	2.2004e-06	27.629	267.603	266.268	254.545	169.826	302.813	338.435	169.868	176.954	318.834	309.969	176.729	182.486	183.485	190.381	319.688	189.669	-8191	255	
#DATA ENDS
