BOXY.EXE: ISS Imagent and Oximeter Data Acquisition Program Version 0.80
Ascii Record File

#ACQ INFORMATION
2  Detector Channels 
16  External MUX Channels 
1  Auxiliary Channels 
5000  Waveform (CCF) Frequency (Hz)
1  Waveforms Skipped 
30  Waveforms Averaged 
1  Cycles Averaged 
16  Acquisitions per Waveform 
10.0806  Updata Rate (Hz) 

#FILE INFORMATION
TRUE -- External MUX Channel results are PARSED.
FALSE -- AC DC and Phase are NOT grouped.
TRUE -- Companion Program Settings File CREATED.
FALSE -- AC data not excluded
FALSE -- DC data not excluded
FALSE -- Phase data not excluded
FALSE -- Auxillary Chn. data not excluded
Tab delimiters

#CALIBRATION STATE
TRUE -- Waveform Calibration Values APPLIED.


#AUX CALIBRATION VALUES
Val Type	aux-1	

Term	1.0000e+00	
Factor	0.0000e+00	


#WF CALIBRATION VALUES
A = Detector Channel
Val Type	A-AC1	A-AC2	A-AC3	A-AC4	A-AC5	A-AC6	A-AC7	A-AC8	A-AC9	A-AC10	A-AC11	A-AC12	A-AC13	A-AC14	A-AC15	A-AC16	A-DC1	A-DC2	A-DC3	A-DC4	A-DC5	A-DC6	A-DC7	A-DC8	A-DC9	A-DC10	A-DC11	A-DC12	A-DC13	A-DC14	A-DC15	A-DC16	A-Ph1	A-Ph2	A-Ph3	A-Ph4	A-Ph5	A-Ph6	A-Ph7	A-Ph8	A-Ph9	A-Ph10	A-Ph11	A-Ph12	A-Ph13	A-Ph14	A-Ph15	A-Ph16	

Term	0.00000e+00	0.00000e+00	0.00000e+00	0.00000e+00	0.00000e+00	0.00000e+00	0.00000e+00	0.00000e+00	0.00000e+00	0.00000e+00	0.00000e+00	0.00000e+00	0.00000e+00	0.00000e+00	0.00000e+00	0.00000e+00	0.00000e+00	0.00000e+00	0.00000e+00	0.00000e+00	0.00000e+00	0.00000e+00	0.00000e+00	0.00000e+00	0.00000e+00	0.00000e+00	0.00000e+00	0.00000e+00	0.00000e+00	0.00000e+00	0.00000e+00	0.00000e+00	0.00000e+00	0.00000e+00	0.00000e+00	0.00000e+00	0.00000e+00	0.00000e+00	0.00000e+00	0.00000e+00	0.00000e+00	0.00000e+00	0.00000e+00	0.00000e+00	0.00000e+00	0.00000e+00	0.00000e+00	0.00000e+00	
Factor	1.00000e+00	1.00000e+00	1.00000e+00	1.00000e+00	1.00000e+00	1.00000e+00	1.00000e+00	1.00000e+00	1.00000e+00	1.00000e+00	1.00000e+00	1.00000e+00	1.00000e+00	1.00000e+00	1.00000e+00	1.00000e+00	1.00000e+00	1.00000e+00	1.00000e+00	1.00000e+00	1.00000e+00	1.00000e+00	1.00000e+00	1.00000e+00	1.00000e+00	1.00000e+00	1.00000e+00	1.00000e+00	1.00000e+00	1.00000e+00	1.00000e+00	1.00000e+00	X	X	X	X	X	X	X	X	X	X	X	X	X	X	X	X	

B = Detector Channel
Val Type	B-AC1	B-AC2	B-AC3	B-AC4	B-AC5	B-AC6	B-AC7	B-AC8	B-AC9	B-AC10	B-AC11	B-AC12	B-AC13	B-AC14	B-AC15	B-AC16	B-DC1	B-DC2	B-DC3	B-DC4	B-DC5	B-DC6	B-DC7	B-DC8	B-DC9	B-DC10	B-DC11	B-DC12	B-DC13	B-DC14	B-DC15	B-DC16	B-Ph1	B-Ph2	B-Ph3	B-Ph4	B-Ph5	B-Ph6	B-Ph7	B-Ph8	B-Ph9	B-Ph10	B-Ph11	B-Ph12	B-Ph13	B-Ph14	B-Ph15	B-Ph16	

Term	0.00000e+00	0.00000e+00	0.00000e+00	0.00000e+00	0.00000e+00	0.00000e+00	0.00000e+00	0.00000e+00	0.00000e+00	0.00000e+00	0.00000e+00	0.00000e+00	0.00000e+00	0.00000e+00	0.00000e+00	0.00000e+00	0.00000e+00	0.00000e+00	0.00000e+00	0.00000e+00	0.00000e+00	0.00000e+00	0.00000e+00	0.00000e+00	0.00000e+00	0.00000e+00	0.00000e+00	0.00000e+00	0.00000e+00	0.00000e+00	0.00000e+00	0.00000e+00	-5.49489e+01	-1.30018e+02	-1.15029e+02	-1.82000e+02	-4.48403e+01	-6.38213e+01	-1.54057e+02	-1.62015e+02	-3.85132e+01	-6.38819e+01	-1.69547e+02	-1.75151e+02	-1.81293e+02	-1.75935e+02	-4.59049e+01	-1.48675e+02	
Factor	1.87765e-05	1.88899e-04	5.74682e-05	1.52957e-01	1.97764e-06	2.23793e-06	1.65064e-01	6.35851e-02	1.55218e-06	1.92868e-06	8.55358e-02	2.11266e-01	3.09704e-02	8.91294e-03	1.86578e-06	1.29532e-02	1.43335e-05	2.95678e-05	8.19797e-06	7.80900e-02	2.80065e-07	3.30729e-07	7.91658e-02	3.25726e-02	2.84905e-07	3.29813e-07	4.25583e-02	1.04478e-01	1.60749e-02	4.61447e-03	3.00568e-07	6.47548e-03	X	X	X	X	X	X	X	X	X	X	X	X	X	X	X	X	



#DISTANCE SETTINGS
A = Detector Channel
A-1	A-2	A-3	A-4	A-5	A-6	A-7	A-8	A-9	A-10	A-11	A-12	A-13	A-14	A-15	A-16	

2.5000e+00	3.0000e+00	2.5000e+00	3.0000e+00	2.0000e+00	3.0000e+00	1.5000e+00	3.0000e+00	3.0000e+00	3.0000e+00	3.0000e+00	3.0000e+00	3.0000e+00	3.0000e+00	1.5000e+00	3.0000e+00	

B = Detector Channel
B-1	B-2	B-3	B-4	B-5	B-6	B-7	B-8	B-9	B-10	B-11	B-12	B-13	B-14	B-15	B-16	

1.0000e+01	1.0000e+01	1.0000e+01	1.4400e+00	1.0000e+01	1.0000e+01	1.5100e+00	1.9400e+00	1.0000e+01	1.0000e+01	1.9900e+00	2.4900e+00	2.4100e+00	2.9000e+00	1.0000e+01	2.9800e+00	




#DATA BEGINS
time	group	step	mark	flag	A-AC1	A-AC2	A-AC3	A-AC4	A-AC5	A-AC6	A-AC7	A-AC8	A-AC9	A-AC10	A-AC11	A-AC12	A-AC13	A-AC14	A-AC15	A-AC16	A-DC1	A-DC2	A-DC3	A-DC4	A-DC5	A-DC6	A-DC7	A-DC8	A-DC9	A-DC10	A-DC11	A-DC12	A-DC13	A-DC14	A-DC15	A-DC16	A-Ph1	A-Ph2	A-Ph3	A-Ph4	A-Ph5	A-Ph6	A-Ph7	A-Ph8	A-Ph9	A-Ph10	A-Ph11	A-Ph12	A-Ph13	A-Ph14	A-Ph15	A-Ph16	B-AC1	B-AC2	B-AC3	B-AC4	B-AC5	B-AC6	B-AC7	B-AC8	B-AC9	B-AC10	B-AC11	B-AC12	B-AC13	B-AC14	B-AC15	B-AC16	B-DC1	B-DC2	B-DC3	B-DC4	B-DC5	B-DC6	B-DC7	B-DC8	B-DC9	B-DC10	B-DC11	B-DC12	B-DC13	B-DC14	B-DC15	B-DC16	B-Ph1	B-Ph2	B-Ph3	B-Ph4	B-Ph5	B-Ph6	B-Ph7	B-Ph8	B-Ph9	B-Ph10	B-Ph11	B-Ph12	B-Ph13	B-Ph14	B-Ph15	B-Ph16	aux-1	digaux	

773.499	1	1	0	768	0.13113	0.1328	0.19112	0.20989	0.27486	0.024729	0.13893	0.47839	0.14919	0.16637	0.35104	0.27447	0.12531	0.20111	0.088152	0.16086	-2.9437	-3.1125	-3.0875	-3.8	-3.0854	-3.2708	-3.5792	-3.1396	-3.4417	-3.2771	-3.2354	-3.5125	-3.3167	-3.2646	-3.3875	-3.1583	410.375	167.511	165.666	513.153	184.946	499.853	459.562	467.779	194.287	441.118	495.563	281.631	250.472	490.373	283.978	416.284	0.00059866	0.00041542	0.00015907	1377.9	7.6549e-06	5.8179e-06	1378.9	372.64	5.6262e-06	6.8926e-06	425.6	147.07	124.78	42.815	5.6313e-06	52.944	0.00057866	0.00052206	0.00014613	1398	5.924e-06	5.7244e-06	1399.4	379.97	5.691e-06	5.8109e-06	433.95	147.13	127.73	44.046	5.5749e-06	54.539	263.391	236.715	262.927	167.580	321.472	289.705	167.606	172.075	317.129	314.558	172.048	176.108	176.278	181.035	278.954	180.266	-8191	255	
773.595	1	1	0	0	0.08515	0.13411	0.20404	0.34364	0.17135	0.13992	0.19475	0.30421	0.15312	0.020673	0.33368	0.10342	0.12803	0.22012	0.21199	0.16719	-2.9313	-3.3646	-2.9625	-3.7333	-3.2604	-3.0708	-3.6937	-3.2354	-3.4396	-3.4333	-3.2042	-3.5875	-3.2979	-3.025	-3.4437	-3.2271	357.314	339.262	482.123	448.216	387.232	217.902	421.831	475.798	255.929	188.322	414.321	158.693	161.042	459.621	339.274	159.073	0.00061727	0.0004674	0.00017087	1392.9	6.4006e-06	4.9233e-06	1400	378.17	4.5074e-06	4.5333e-06	429.16	147.66	125.76	42.963	4.3129e-06	52.97	0.00057922	0.0005454	0.00014736	1416.2	5.6976e-06	5.5769e-06	1419.7	385.35	5.564e-06	5.4852e-06	437.77	148.4	129.05	44.306	5.5962e-06	54.648	262.684	260.092	241.635	167.763	305.189	305.149	167.542	172.402	318.145	316.807	171.851	176.269	176.722	181.280	308.045	180.069	-8191	255	
773.689	1	1	0	0	0.039838	0.12322	0.40279	0.42287	0.39152	0.060692	0.33361	0.17384	0.21398	0.2369	0.086451	0.13528	0.25073	0.30089	0.16524	0.10768	-3.0312	-3.4375	-2.9896	-3.5292	-3.3354	-3.1396	-3.8688	-3.1854	-3.1437	-3.5625	-3.3604	-3.4667	-3.4125	-3.2854	-3.4583	-3.2208	233.036	341.540	170.141	160.459	484.056	223.717	397.702	181.900	478.263	254.042	187.355	463.792	425.988	481.108	415.542	370.337	0.00060939	0.00056448	0.00012508	1385.6	5.3568e-06	5.0925e-06	1396	374.68	4.9079e-06	3.8498e-06	428.04	147.1	124.8	42.683	6.1638e-06	53.085	0.00057176	0.00049742	0.00014213	1412.6	5.8043e-06	5.6017e-06	1413.1	382.8	5.6055e-06	5.591e-06	436.06	147.71	128.04	44.038	5.5686e-06	54.447	266.370	235.241	262.480	167.775	309.756	301.779	167.603	172.057	309.889	309.526	171.700	176.591	176.409	181.280	315.229	180.285	-8191	255	
773.786	1	1	0	0	0.20324	0.30216	0.056248	0.20457	0.1401	0.099229	0.32271	0.18987	0.20089	0.10402	0.20556	0.15249	0.19817	0.11173	0.21714	0.12456	-2.9771	-3.45	-3.1146	-3.3646	-3.3375	-3.0312	-3.8125	-3.1896	-3.1542	-3.4854	-3.0771	-3.4208	-3.4146	-3	-3.6458	-3.4458	423.350	333.922	364.292	499.321	450.150	411.714	432.346	179.006	429.047	395.317	510.472	172.852	444.971	472.056	321.729	461.448	0.00058387	0.00043209	0.0002138	1393.4	6.6176e-06	5.8339e-06	1399.9	375.46	4.685e-06	4.4412e-06	429.49	147.96	126.53	43.179	4.0414e-06	53.312	0.00055856	0.00048269	0.00014468	1416.7	5.4677e-06	5.661e-06	1419.4	384.17	5.4268e-06	5.3492e-06	438.63	148.45	129.27	44.519	5.5304e-06	54.888	267.197	245.510	246.987	167.691	313.917	321.957	167.545	172.296	313.026	304.835	171.588	176.438	176.844	181.193	315.810	180.165	-8191	255	
773.882	1	1	0	0	0.13843	0.22284	0.11799	0.36062	0.27652	0.11852	0.30227	0.12819	0.10951	0.086525	0.069374	0.13189	0.12258	0.27326	0.15201	0.3596	-2.625	-3.5292	-3.0417	-3.5458	-3.4771	-2.9479	-3.7208	-3.2458	-3.0812	-3.3063	-3.2562	-3.3312	-3.5	-3.3458	-3.4208	-3.2958	449.458	251.498	240.584	169.221	260.230	469.871	435.881	372.682	252.705	476.845	158.616	182.689	373.774	417.721	222.502	386.735	0.00060942	0.00044419	0.00017089	1393.9	4.1188e-06	6.9712e-06	1398	376.23	6.4916e-06	5.4823e-06	427.15	148.8	125	42.408	4.734e-06	52.681	0.00057671	0.0004761	0.00013974	1419.1	5.4899e-06	5.4329e-06	1420.1	384.32	5.5016e-06	5.4797e-06	436.52	148.08	128.26	43.919	5.5448e-06	54.236	265.564	237.968	255.584	167.574	297.488	285.013	167.586	172.324	308.560	305.913	171.876	176.598	176.648	181.227	321.149	180.469	-8191	255	
773.978	1	1	0	0	0.031315	0.073085	0.029572	0.35155	0.25838	0.31806	0.22362	0.025367	0.23161	0.16995	0.16819	0.078276	0.049099	0.1991	0.19841	0.070323	-2.6896	-3.5687	-2.9562	-3.5958	-3.4333	-3.175	-3.6167	-3.3521	-3.1771	-3.5125	-3.4021	-3.2292	-3.5333	-3.3167	-3.3438	-3.5271	414.006	249.117	303.872	421.176	335.846	262.285	489.119	392.676	194.242	430.657	452.619	498.727	449.266	484.768	388.247	469.957	0.00059226	0.00043298	0.0001425	1393.1	5.5114e-06	5.8273e-06	1395.8	374.23	5.0683e-06	3.4379e-06	428.09	147.02	124.97	42.777	5.8006e-06	52.847	0.00057083	0.0005106	0.00014264	1416.6	5.6655e-06	5.5673e-06	1415.3	381.85	5.6571e-06	5.2337e-06	436.03	147.32	127.94	43.983	5.5242e-06	54.4	264.812	231.883	242.918	167.603	314.031	327.870	167.462	172.191	322.755	284.135	171.604	176.478	176.487	180.968	301.854	180.195	-8191	255	
774.099	1	1	0	0	0.24644	0.29721	0.12915	0.12496	0.19298	0.19476	0.24592	0.075138	0.2333	0.23151	0.27759	0.16771	0.071085	0.19635	0.2126	0.40691	-2.5271	-3.5854	-3.1875	-3.3667	-3.4417	-3.125	-3.4917	-3.5833	-3.0042	-3.6063	-3.3771	-3.2812	-3.4333	-2.9771	-3.6063	-3.3458	451.208	358.782	172.411	452.509	287.365	257.629	421.904	437.694	393.724	498.462	494.619	313.848	200.336	243.640	321.096	460.815	0.00057424	0.00079861	0.00014916	1399.2	5.7254e-06	5.7881e-06	1404.6	377.26	5.1283e-06	4.3401e-06	428.73	148.17	126.32	43.156	6.2156e-06	53.372	0.00056143	0.00051824	0.00014618	1421.2	5.7997e-06	5.7361e-06	1424.1	384.65	5.7705e-06	5.4763e-06	438.39	148.46	129.27	44.416	5.6087e-06	54.893	265.639	231.082	257.024	167.837	304.415	313.124	167.385	172.145	317.539	308.266	171.687	176.955	176.341	181.142	317.360	180.286	-8191	255	
774.195	1	1	0	0	0.11543	0.17275	0.086324	0.11504	0.16513	0.18631	0.24019	0.12233	0.16568	0.09283	0.14552	0.24722	0.14036	0.13143	0.08181	0.18771	-2.5104	-3.6708	-3.2021	-3.2125	-3.5167	-3.0187	-3.6188	-3.7562	-3.0292	-3.5042	-3.4625	-3.1771	-3.6417	-3.2667	-3.4771	-3.6333	367.294	197.216	216.759	433.492	258.266	355.045	452.938	198.807	426.720	375.834	432.039	488.012	474.761	213.821	370.291	429.852	0.00060907	0.00043583	0.0001628	1405.4	6.3066e-06	6.3874e-06	1402.8	376.91	5.3528e-06	4.9011e-06	428.59	147.78	126.58	42.955	7.0414e-06	53.062	0.00059227	0.00050216	0.00013913	1427.9	5.6491e-06	5.5549e-06	1425	384.98	5.5568e-06	5.4612e-06	437.98	148.51	129.25	44.27	5.6657e-06	54.612	266.083	222.253	244.025	167.523	311.593	325.110	167.418	172.022	305.166	307.210	171.666	176.268	176.656	181.149	314.551	180.261	-8191	255	
774.291	1	1	0	0	0.13697	0.29362	0.040679	0.27842	0.045063	0.11366	0.26597	0.23312	0.079445	0.10729	0.080435	0.10779	0.14314	0.25089	0.259	0.35985	-2.65	-3.3458	-3.4313	-3.4271	-3.6479	-3.2604	-3.6063	-3.7	-3.2812	-3.2917	-3.5438	-3.1083	-3.5	-3.2	-3.3375	-3.5417	495.914	456.307	172.741	443.412	334.093	274.027	496.729	402.509	366.589	348.047	400.966	234.269	477.926	490.068	370.673	461.285	0.00059781	0.00041474	0.00012304	1400.9	6.0914e-06	4.5694e-06	1403.4	377.96	4.8171e-06	5.2786e-06	430.43	147.67	126.98	43.246	6.7697e-06	53.648	0.00056674	0.00050906	0.00013547	1425.3	5.4414e-06	5.4805e-06	1426.8	385.94	5.4512e-06	5.2262e-06	439.32	149.14	130	44.566	5.4184e-06	55.071	267.015	240.988	256.252	167.586	308.187	310.779	167.580	172.226	311.280	318.290	171.882	176.703	176.512	180.924	306.504	180.306	-8191	255	
774.387	1	1	0	0	0.20022	0.13712	0.19036	0.19842	0.18551	0.31245	0.2774	0.22701	0.19434	0.058276	0.020949	0.077511	0.20498	0.19484	0.015159	0.24172	-2.5792	-3.3208	-3.4896	-3.3146	-3.4396	-3.1833	-3.4729	-3.6312	-3.1604	-3.4625	-3.4104	-2.9542	-3.5604	-3.0875	-3.2354	-3.6229	368.250	471.919	308.290	487.763	488.051	443.565	458.808	511.417	430.895	313.725	264.973	333.852	505.157	161.135	406.707	351.519	0.00059269	0.00045642	0.0001756	1410.8	5.7227e-06	3.9915e-06	1413.6	379.23	5.8479e-06	5.262e-06	430.88	148.9	126.17	43.193	5.2312e-06	53.325	0.00056304	0.00050875	0.00013042	1433	5.4117e-06	5.6782e-06	1432	386.59	5.6637e-06	5.2963e-06	438.86	148.73	129.24	44.433	5.734e-06	54.597	265.783	255.411	251.831	167.828	308.630	293.391	167.600	172.454	318.057	325.005	171.832	176.685	176.642	180.884	308.121	180.388	-8191	255	
774.483	1	1	0	0	0.097254	0.17697	0.24264	0.13088	0.1338	0.30115	0.20523	0.16961	0.2146	0.1754	0.08086	0.20123	0.22738	0.36086	0.079152	0.31172	-2.5292	-3.3354	-3.2375	-3.2021	-3.425	-3.2812	-3.1354	-3.5708	-3	-3.1625	-3.5438	-3.0687	-3.4729	-3.2542	-3.1146	-3.6542	276.853	202.763	448.737	347.014	327.113	407.909	503.707	453.724	301.851	434.531	337.141	177.495	174.621	498.627	305.632	438.879	0.00059913	0.00054021	0.00014487	1401.8	7.5716e-06	4.9824e-06	1401.2	376.63	5.5116e-06	5.3423e-06	424.83	147.14	125.11	42.815	7.1726e-06	52.898	0.00057782	0.00051066	0.0001351	1423.9	5.6211e-06	5.4198e-06	1423.8	383.03	5.6168e-06	5.501e-06	435.14	147.36	128.06	44.025	5.784e-06	54.309	266.921	238.174	234.928	167.602	323.096	306.846	167.460	172.414	317.721	311.953	171.868	176.794	176.694	181.297	308.586	180.300	-8191	255	
774.579	1	1	0	0	0.19372	0.19501	0.097822	0.16297	0.28547	0.10238	0.085281	0.12555	0.018366	0.2259	0.33851	0.12557	0.093418	0.038152	0.10065	0.23479	-2.55	-3.2771	-3.3187	-3.3229	-3.2979	-3.2333	-3.3271	-3.7292	-3.2292	-3.4042	-3.6271	-3.0958	-3.5625	-3.5625	-3.2021	-3.5708	350.260	193.673	444.646	438.271	337.203	382.046	509.586	467.669	442.844	266.802	451.257	174.325	298.215	506.122	223.824	355.472	0.00058111	0.0003637	0.00017272	1407.3	6.6447e-06	5.1198e-06	1401.5	375.57	6.9855e-06	6.2156e-06	425.59	146.31	124.23	42.427	5.1794e-06	52.476	0.00056608	0.00051873	0.00013948	1423.9	5.7262e-06	5.4494e-06	1422	382.66	5.9729e-06	5.6439e-06	434.22	146.48	127.45	43.762	5.7828e-06	54.093	266.468	226.990	253.726	167.620	305.646	302.570	167.674	172.263	305.447	315.224	171.589	176.981	176.702	181.052	316.675	180.376	-8191	255	
774.675	1	1	0	0	0.20852	0.093838	0.27055	0.23737	0.15743	0.15782	0.25603	0.3071	0.062601	0.18591	0.036998	0.25663	0.064564	0.062481	0.17767	0.22355	-2.7708	-3.2542	-3.4313	-3.3042	-3.4292	-3.4229	-3.3104	-3.6833	-3.325	-3.1604	-3.7354	-3.0729	-3.3875	-3.5708	-3.0875	-3.5146	484.011	389.017	431.370	478.909	221.958	341.006	455.271	476.495	303.222	457.156	164.591	421.216	341.552	467.201	364.281	385.907	0.00060041	0.00056061	0.0001612	1393.1	5.669e-06	4.8448e-06	1390.7	372.52	5.8696e-06	4.4637e-06	423.47	145.77	123.28	42.179	5.0748e-06	52.327	0.00058057	0.0005305	0.00013742	1417.6	5.9514e-06	5.8194e-06	1413.7	380.01	5.6536e-06	5.9456e-06	432.01	145.99	126.29	43.548	5.9782e-06	53.782	263.954	232.894	258.635	167.632	308.426	301.058	167.577	172.351	313.937	302.441	171.699	176.778	176.747	181.159	305.093	180.536	-8191	255	
774.794	1	1	0	0	0.27205	0.11612	0.14636	0.16949	0.067298	0.18112	0.21	0.17621	0.045204	0.054192	0.098288	0.38501	0.34179	0.3638	0.12447	0.19876	-3.0354	-3.2292	-3.3854	-3.3187	-3.3438	-3.5271	-3.3688	-3.4208	-3.4396	-3.1167	-3.6458	-3.3333	-3.1021	-3.6583	-2.95	-3.55	253.039	405.428	392.669	494.154	197.666	338.916	409.298	214.280	317.545	382.906	435.852	288.146	475.548	158.540	505.933	305.379	0.00058139	0.00047156	0.00011461	1388.1	7.608e-06	3.8295e-06	1382.6	370.2	6.3526e-06	3.2164e-06	423.06	145.7	123.39	42.047	4.6786e-06	52.108	0.00058803	0.00055076	0.00014437	1411.3	6.1153e-06	5.8739e-06	1406	377.31	5.8999e-06	5.7683e-06	429.73	144.79	126.06	43.313	5.7552e-06	53.555	265.631	225.442	257.347	167.568	313.669	284.468	167.535	172.469	316.163	285.248	171.797	176.417	176.621	181.368	319.424	180.423	-8191	255	
774.890	1	1	0	0	0.22624	0.077784	0.2243	0.21236	0.11238	0.056911	0.32352	0.12637	0.15904	0.1286	0.22473	0.045729	0.11573	0.13468	0.17107	0.16608	-2.9542	-2.9375	-3.5042	-3.2604	-3.1562	-3.3438	-3.1229	-3.5354	-3.3292	-3.0583	-3.6792	-3.3937	-3.2292	-3.6	-3.1208	-3.5375	269.899	244.114	408.160	457.975	339.846	179.811	414.888	452.863	390.480	258.204	187.008	378.026	487.187	328.272	415.782	443.430	0.00056972	0.00052138	0.0001336	1381.8	7.4896e-06	5.1059e-06	1380.7	369.05	5.4141e-06	3.4307e-06	420.98	144.97	122.65	42.024	4.1862e-06	52.055	0.00056307	0.00052046	0.00014471	1404.5	5.893e-06	5.4522e-06	1399.4	376.64	5.7794e-06	5.9174e-06	428.96	144.54	125.74	43.307	5.8842e-06	53.577	265.575	238.869	266.404	167.488	305.313	320.896	167.461	172.348	316.902	311.288	171.842	176.899	176.721	181.252	319.750	180.365	-8191	255	
774.987	1	1	0	0	0.31285	0.17788	0.050508	0.050545	0.26856	0.15215	0.087107	0.29602	0.11345	0.20714	0.31552	0.32966	0.14669	0.064652	0.17874	0.17639	-3.0104	-2.925	-3.4271	-3.2792	-3.0083	-3.4833	-3.3271	-3.3833	-3.4604	-2.9833	-3.5792	-3.2125	-3.0729	-3.5292	-3.0542	-3.4125	492.980	196.340	297.268	282.351	461.191	456.338	454.976	157.146	266.818	235.716	511.292	262.662	462.630	390.444	413.544	350.179	0.00058466	0.00061604	0.00013294	1386.3	6.2787e-06	3.9895e-06	1378.6	369.88	5.6392e-06	4.2695e-06	419.84	144.68	122.75	42.09	4.3166e-06	52.15	0.0005654	0.00054035	0.0001396	1404.7	5.8399e-06	5.5321e-06	1398.1	376.63	5.5384e-06	5.9043e-06	428.36	144.73	125.57	43.225	5.9932e-06	53.53	264.396	238.812	268.385	167.612	307.020	293.133	167.511	172.298	314.998	296.979	171.514	176.424	176.863	181.049	325.026	180.398	-8191	255	
775.083	1	1	0	0	0.19944	0.18749	0.17059	0.14951	0.09899	0.18037	0.23984	0.38499	0.20093	0.071706	0.19064	0.13496	0.29006	0.12633	0.18982	0.13739	-3.1375	-3.0312	-3.2938	-3.5917	-3.1229	-3.5042	-3.3667	-3.2125	-3.4062	-3.0354	-3.6021	-3.3625	-3.0396	-3.3563	-3.3479	-3.2271	462.705	243.269	185.748	438.049	299.638	273.711	391.907	451.766	387.655	272.833	171.017	405.679	192.398	411.016	386.192	477.246	0.00057264	0.00061936	0.00010798	1380.8	6.7528e-06	4.7317e-06	1382.5	368.85	5.4018e-06	5.8971e-06	419.91	143.52	122.12	42.064	5.9809e-06	51.88	0.00056444	0.00054744	0.00014143	1403.5	6.0202e-06	5.5852e-06	1399.5	375.91	5.7765e-06	5.8136e-06	428.7	144.08	125.43	43.256	5.8767e-06	53.389	264.579	240.675	255.479	167.551	313.174	306.733	167.305	172.315	323.321	308.408	171.653	176.524	176.791	181.352	304.019	180.438	-8191	255	
775.179	1	1	0	0	0.26637	0.30059	0.26466	0.43892	0.12411	0.086369	0.24936	0.18503	0.19286	0.12168	0.32609	0.13599	0.24844	0.1422	0.10785	0.10535	-3.0875	-3.0104	-3.2938	-3.5208	-3.2	-3.6646	-3.5167	-3.375	-3.6604	-3.2188	-3.4	-3.4938	-3.1104	-3.5146	-3.4083	-3.2896	348.768	382.475	204.194	451.227	308.984	171.601	457.751	475.601	345.150	364.445	478.717	423.496	435.673	182.333	482.443	267.510	0.00056806	0.00044297	0.00013608	1374.3	7.4545e-06	6.123e-06	1379.5	368.85	5.5893e-06	2.1361e-06	418.62	142.84	122.66	41.861	7.4346e-06	51.876	0.00056053	0.00055778	0.0001477	1401.9	5.9782e-06	5.8553e-06	1398	376.33	5.7135e-06	5.982e-06	428.05	144.27	125.53	43.121	5.883e-06	53.311	263.797	243.271	260.406	167.710	309.257	310.701	167.477	172.492	317.067	325.487	171.890	176.672	176.786	181.308	310.275	180.355	-8191	255	
775.275	1	1	0	0	0.092986	0.086261	0.32244	0.22538	0.1439	0.036328	0.19986	0.0587	0.16599	0.29134	0.22313	0.34033	0.22319	0.12773	0.32088	0.28153	-3.0917	-3.1104	-3.2062	-3.6021	-2.9958	-3.4688	-3.4104	-3.3167	-3.5604	-3.1813	-3.4458	-3.3917	-3.2687	-3.6729	-3.1813	-3.0417	503.521	220.976	235.269	495.988	420.316	273.084	458.290	427.129	296.624	391.920	474.362	277.417	460.060	475.627	351.636	427.131	0.00060495	0.00050945	0.00018252	1378.8	6.2104e-06	5.1558e-06	1376.6	369.91	4.7934e-06	5.5717e-06	420.82	143.95	122.52	42.075	5.1888e-06	52.073	0.00057949	0.00054904	0.00014871	1401.1	5.8236e-06	5.7926e-06	1397	376.74	5.6619e-06	5.9195e-06	428.6	143.58	125.49	43.229	5.6306e-06	53.413	265.445	236.407	255.049	167.664	326.990	294.962	167.560	172.671	329.595	307.649	171.670	176.690	176.572	181.315	299.310	180.647	-8191	255	
775.371	1	1	0	0	0.22707	0.33772	0.035822	0.15865	0.098384	0.071173	0.39532	0.28009	0.1281	0.18746	0.10502	0.2278	0.14001	0.24353	0.14446	0.32417	-3.0333	-3.1312	-3.15	-3.6542	-3.175	-3.3833	-3.6437	-3.1167	-3.5792	-3.3292	-3.2854	-3.5563	-2.9792	-3.5167	-3.4958	-3.1104	163.631	505.062	340.867	413.357	249.984	239.754	448.691	493.929	191.150	184.298	399.606	404.129	420.401	187.618	454.701	170.544	0.00056552	0.0004232	0.00012005	1377.7	5.3759e-06	5.2278e-06	1377.9	367.8	4.5035e-06	3.0205e-06	418.77	143.65	123.26	42.221	5.601e-06	51.942	0.00056546	0.00054787	0.0001476	1402.9	5.8802e-06	5.8401e-06	1398.3	375.71	5.7236e-06	5.7807e-06	428.12	143.88	125.65	43.235	5.7715e-06	53.398	264.188	250.162	256.247	167.579	297.621	331.661	167.615	172.227	311.222	270.342	171.818	176.930	176.432	181.148	319.908	180.144	-8191	255	
775.467	1	1	0	0	0.10929	0.17613	0.1528	0.27125	0.16329	0.16081	0.0891	0.34873	0.17927	0.26453	0.24606	0.028633	0.15885	0.17117	0.13441	0.14561	-2.9813	-3.1125	-3.1208	-3.5687	-3.1063	-3.3937	-3.6542	-3.1083	-3.4417	-3.2896	-3.1167	-3.6688	-3.3625	-3.3896	-3.5458	-3.1937	352.119	288.716	310.412	455.119	432.059	213.428	426.921	408.456	278.797	244.285	509.639	346.798	175.498	255.435	439.601	394.042	0.00056554	0.00046874	0.00010705	1375	6.5704e-06	5.945e-06	1379.1	367.64	5.6922e-06	3.3083e-06	419.18	143.67	122.49	41.943	6.4152e-06	51.636	0.00056713	0.00051676	0.00014162	1398.3	6.1305e-06	5.889e-06	1396.1	375.58	5.8156e-06	5.8301e-06	428.38	144.01	125.45	43.223	5.7051e-06	53.386	266.484	237.467	242.515	167.600	327.592	301.818	167.480	172.436	312.142	293.868	171.868	176.183	176.677	181.260	317.318	180.290	-8191	255	
775.588	1	1	0	0	0.1102	0.27128	0.1531	0.46093	0.21	0.062536	0.20397	0.12951	0.15042	0.11469	0.29697	0.20003	0.097633	0.10024	0.12217	0.077365	-2.9625	-3.2229	-3.2687	-3.6583	-2.9958	-3.3521	-3.5958	-2.9667	-3.5583	-3.425	-3.1792	-3.6146	-3.0438	-3.4708	-3.3104	-3.2375	263.098	364.831	351.806	505.020	401.762	170.489	472.180	414.380	212.703	163.366	403.561	484.185	158.850	411.028	310.121	192.003	0.0006065	0.00046873	0.00014865	1375.7	5.6072e-06	5.6341e-06	1376.9	369.13	4.9704e-06	5.2694e-06	419.95	145.1	122.79	42.071	5.4527e-06	52.182	0.00057119	0.00053284	0.00014847	1400.3	5.5319e-06	5.7085e-06	1397.5	376.57	5.8103e-06	5.6831e-06	428.28	143.99	125.64	43.278	5.7784e-06	53.445	265.004	229.164	246.577	167.663	308.431	299.495	167.404	172.423	316.584	300.295	171.922	176.457	176.737	181.086	318.394	180.276	-8191	255	
775.660	1	1	0	0	0.42388	0.061765	0.095196	0.39311	0.047701	0.1824	0.093406	0.17541	0.10926	0.17276	0.11546	0.24241	0.16369	0.27047	0.07488	0.15457	-2.8563	-3.4542	-2.9104	-3.5625	-3.325	-3.3417	-3.7292	-3.125	-3.3937	-3.5146	-3.1854	-3.3979	-3.3458	-3.25	-3.6125	-3.1208	352.462	311.013	341.805	474.986	250.555	231.147	475.933	407.514	171.943	277.842	176.078	238.899	313.111	499.433	154.629	188.277	0.00059126	0.00048491	0.00012974	1379.2	6.677e-06	4.5953e-06	1378.1	369.31	5.9561e-06	5.3034e-06	420.26	144.08	122.05	42.194	6.23e-06	51.986	0.00057576	0.00052347	0.00014801	1403.1	5.8551e-06	5.6389e-06	1397.5	376.17	5.5871e-06	5.6116e-06	428.28	144.34	125.61	43.27	5.6713e-06	53.433	265.477	254.615	251.231	167.817	308.334	293.898	167.531	172.349	311.201	305.070	171.804	176.814	176.750	181.230	337.101	180.253	-8191	255	
775.780	1	1	0	0	0.058671	0.040338	0.1427	0.18797	0.058556	0.11389	0.42682	0.29307	0.24266	0.19351	0.53242	0.11907	0.10544	0.24119	0.044787	0.23294	-2.8604	-3.2687	-3.1146	-3.6333	-3.1333	-3.2562	-3.7229	-3.1583	-3.2625	-3.6958	-3.1729	-3.2521	-3.4167	-3.0667	-3.5208	-3.4021	376.449	260.721	223.335	495.284	268.682	462.731	440.708	424.914	285.680	332.624	510.528	202.511	411.842	168.469	465.821	487.177	0.00056168	0.0005113	0.00013078	1382.6	6.1689e-06	5.9797e-06	1377.1	368.63	5.091e-06	5.8201e-06	418.88	143.55	122.36	42.067	5.3693e-06	51.721	0.00056086	0.00051873	0.00014148	1403.9	5.7355e-06	5.7912e-06	1399.3	376.28	5.6257e-06	5.7168e-06	428.05	144	125.78	43.261	5.6118e-06	53.363	264.707	249.156	271.579	167.679	308.293	327.008	167.573	172.403	310.207	296.377	171.800	176.427	176.674	181.147	327.984	180.359	-8191	255	
775.875	1	1	0	0	0.10287	0.096692	0.26298	0.25516	0.12935	0.087865	0.16206	0.2213	0.28132	0.32637	0.19506	0.047595	0.11594	0.16873	0.046745	0.18801	-3.0854	-3.3354	-3.1104	-3.5208	-3.2896	-3.0208	-3.6104	-3.1042	-3.3833	-3.5396	-3.1479	-3.5833	-3.3	-3.1	-3.4375	-3.3042	218.010	254.452	156.638	474.201	305.815	319.799	367.965	512.635	322.053	426.752	507.827	293.687	190.520	463.197	156.752	425.893	0.00059724	0.00055559	0.00016894	1376.8	7.4786e-06	5.8853e-06	1375.4	367.94	4.3725e-06	4.5256e-06	419.08	144.21	122.17	41.715	4.3399e-06	51.64	0.00057047	0.00051516	0.00014541	1400.3	5.7886e-06	5.7313e-06	1396.3	375.47	5.5764e-06	5.479e-06	427.14	143.72	125.43	43.113	5.6839e-06	53.303	265.823	247.721	248.341	167.609	291.857	309.537	167.600	172.364	314.996	324.884	171.853	176.819	176.542	181.341	295.240	180.248	-8191	255	
775.971	1	1	0	0	0.14326	0.029674	0.08613	0.25323	0.27826	0.17704	0.11935	0.19255	0.22204	0.063461	0.31744	0.16767	0.23898	0.06191	0.19804	0.397	-2.9167	-3.4688	-2.9271	-3.4104	-3.2812	-2.9708	-3.5167	-3.2271	-3.0625	-3.4229	-3.1396	-3.1583	-3.3792	-3.0938	-3.3417	-3.1292	422.208	265.628	397.429	463.216	432.352	274.053	371.412	450.406	196.729	502.042	154.507	408.125	463.265	283.355	385.571	464.677	0.00056301	0.00044255	0.00012846	1375.9	6.0857e-06	4.7849e-06	1377.4	369.11	5.106e-06	5.5158e-06	419.14	143.81	122.47	41.778	6.6867e-06	51.803	0.00056405	0.00051066	0.00014606	1397.5	5.9683e-06	6.0138e-06	1394.5	375.13	5.7581e-06	5.6e-06	427.4	144.56	125.05	43.075	5.9212e-06	53.271	266.521	235.414	238.021	167.714	299.508	302.438	167.407	172.340	316.715	310.065	171.855	177.419	176.776	181.148	311.997	180.117	-8191	255	
776.067	1	1	0	0	0.0057376	0.086737	0.14618	0.21842	0.23324	0.049561	0.21469	0.10636	0.081835	0.12925	0.15385	0.15129	0.27319	0.1528	0.25816	0.20013	-2.6813	-3.5167	-3.1083	-3.6396	-3.5312	-3.1354	-3.5125	-3.4	-2.9437	-3.5917	-3.3812	-3.2812	-3.5354	-3.0896	-3.5208	-3.3937	233.929	461.549	423.937	475.876	332.833	398.119	442.353	446.475	417.430	212.583	192.788	326.608	457.208	507.962	237.572	178.577	0.00059395	0.00042091	0.00015478	1373	6.2623e-06	6.1627e-06	1376.7	368.03	4.416e-06	3.8092e-06	418.93	143.82	122.52	41.923	5.9478e-06	51.855	0.00057379	0.00051892	0.00014729	1397.5	5.7588e-06	5.7871e-06	1395.2	375.21	5.9118e-06	5.5203e-06	428.03	143.85	125.41	43.216	5.8986e-06	53.354	266.923	223.277	243.125	167.791	311.026	303.066	167.685	172.141	305.337	295.611	171.940	176.541	176.582	181.283	325.221	180.197	-8191	255	
776.188	1	1	0	0	0.074327	0.11371	0.06047	0.35336	0.23465	0.13963	0.2758	0.23095	0.2844	0.16776	0.24546	0.059626	0.26316	0.12553	0.29686	0.42794	-2.7062	-3.4104	-2.9792	-3.4979	-3.3771	-3.1104	-3.3667	-3.5125	-3.0187	-3.6625	-3.2333	-3.1875	-3.6583	-3.1333	-3.5062	-3.5417	334.931	184.681	394.819	506.404	402.129	320.189	447.803	439.409	168.104	264.034	465.877	228.353	199.172	171.253	427.605	420.666	0.00057975	0.00042626	0.00011951	1378.7	7.2633e-06	4.246e-06	1374.2	368.1	5.1359e-06	5.5699e-06	421.74	144.24	122.39	42.001	4.4129e-06	51.949	0.0005697	0.0005284	0.00014604	1399.5	5.8668e-06	6.064e-06	1395.9	375.69	6.021e-06	5.7291e-06	428.7	144.21	125.64	43.168	5.6225e-06	53.448	265.982	251.169	277.898	167.483	302.485	320.503	167.559	172.444	317.295	302.368	171.765	177.350	176.759	181.209	309.483	180.369	-8191	255	
776.284	1	1	0	0	0.15556	0.072541	0.086049	0.16595	0.15669	0.03664	0.17137	0.042196	0.13671	0.086095	0.074897	0.31857	0.22265	0.13736	0.095914	0.18913	-2.5875	-3.3229	-3.1042	-3.2604	-3.4979	-3.0458	-3.5333	-3.3458	-3.2417	-3.4625	-3.4229	-3.1021	-3.65	-3.1604	-3.275	-3.4042	227.137	179.059	289.643	479.624	488.157	202.999	464.645	417.273	174.663	373.815	254.851	423.280	321.552	467.162	189.432	353.554	0.00058662	0.00044556	0.00015758	1374.2	5.5517e-06	5.9157e-06	1377.4	371.75	4.8673e-06	3.6316e-06	420.57	143.83	122.79	42.111	4.9589e-06	52.084	0.00057313	0.00051984	0.00014037	1398.6	5.7075e-06	6.1874e-06	1396.9	376.79	5.8524e-06	5.6852e-06	428.3	144.34	125.8	43.291	5.7527e-06	53.492	266.871	254.891	256.221	167.722	300.228	302.012	167.451	172.347	323.192	312.911	171.892	176.982	176.669	181.483	309.392	180.061	-8191	255	
776.380	1	1	0	0	0.11256	0.23439	0.16398	0.104	0.11765	0.10298	0.42653	0.14266	0.13291	0.23006	0.14994	0.11408	0.15656	0.3526	0.16448	0.10052	-2.5771	-3.3958	-3.3	-3.2458	-3.4542	-3.2	-3.4771	-3.475	-3.0875	-3.3771	-3.5104	-3.1063	-3.6688	-3.2958	-3.1937	-3.5333	282.906	208.834	220.211	463.238	192.580	358.925	417.178	506.356	280.830	446.546	440.907	476.041	436.832	479.794	509.831	326.920	0.00057373	0.00036444	0.00011775	1378.8	5.8705e-06	6.3822e-06	1379.2	368.93	5.7638e-06	4.4141e-06	420.4	145.37	122.74	42.098	5.8161e-06	52.061	0.0005705	0.0005085	0.00014061	1400.3	5.7845e-06	5.9765e-06	1397.9	376.33	5.8121e-06	5.6831e-06	428.71	144.86	125.82	43.249	5.9299e-06	53.5	265.109	234.254	255.461	167.574	296.495	301.267	167.446	172.309	307.704	322.313	171.486	176.341	176.500	181.140	321.068	180.186	-8191	255	
776.476	1	1	0	0	0.088694	0.17157	0.12701	0.2338	0.33989	0.15457	0.11919	0.15535	0.06163	0.19656	0.17073	0.12526	0.10401	0.20286	0.26531	0.19637	-2.4875	-3.2979	-3.35	-3.15	-3.7021	-3.2208	-3.4021	-3.5729	-2.95	-3.4708	-3.375	-2.8688	-3.4688	-3.2687	-2.975	-3.7062	237.759	245.009	266.236	474.462	367.104	258.596	265.019	217.154	248.057	427.877	464.598	167.720	490.296	511.301	489.397	391.971	0.00059137	0.00053086	0.00018462	1377.4	5.4433e-06	3.8103e-06	1378.3	369.59	4.638e-06	3.5464e-06	420.72	144.11	122.82	42.117	4.9007e-06	52.077	0.00057866	0.00051627	0.00014169	1401.3	5.6725e-06	5.8525e-06	1400.7	376.79	5.783e-06	5.5601e-06	429.29	144.44	125.88	43.324	5.8273e-06	53.639	265.398	238.473	275.215	167.487	305.941	300.951	167.574	172.354	320.925	320.304	171.703	176.278	176.611	181.330	310.925	180.082	-8191	255	
776.572	1	1	0	0	0.18012	0.24333	0.088641	0.13632	0.17667	0.091471	0.30201	0.1141	0.1704	0.21822	0.046502	0.31789	0.21166	0.2901	0.23497	0.15399	-2.8667	-3.2333	-3.2979	-3.0729	-3.4042	-3.2042	-3.5062	-3.7792	-3.1146	-3.225	-3.5917	-2.9813	-3.6	-3.5375	-2.9938	-3.5979	509.335	236.666	404.702	198.607	260.302	178.053	454.866	260.476	264.840	440.773	368.458	209.523	497.359	480.945	283.598	165.357	0.0005621	0.00061658	0.00013642	1381.4	6.1605e-06	3.0519e-06	1384.1	370.81	6.4542e-06	1.0087e-06	422.07	142.64	123.07	42.093	5.3609e-06	52.117	0.00056438	0.00051836	0.00014492	1405.3	5.8347e-06	5.7002e-06	1403	377.65	5.9343e-06	5.591e-06	429.75	144.51	126.06	43.367	5.7646e-06	53.609	265.780	241.577	264.490	167.590	308.220	299.867	167.504	172.292	327.776	316.769	171.902	176.209	176.800	181.087	309.949	180.370	-8191	255	
776.667	1	1	0	0	0.20655	0.082328	0.30663	0.2209	0.25335	0.056324	0.27974	0.28262	0.091052	0.2265	0.29967	0.3841	0.16073	0.058089	0.15728	0.21379	-2.8063	-3.2562	-3.3688	-3.3583	-3.3333	-3.3104	-3.3229	-3.6625	-3.1813	-3.0583	-3.2958	-3.0458	-3.4104	-3.4562	-3.0583	-3.4917	438.315	320.671	445.895	200.099	315.229	371.238	406.021	412.191	296.943	158.744	491.540	386.629	222.984	200.809	310.218	190.375	0.00059191	0.00069142	0.00019971	1383.7	6.6371e-06	5.8625e-06	1378.2	369.1	5.5154e-06	4.4401e-06	419.36	144.9	122.13	42.231	3.9325e-06	52.079	0.00057465	0.00052039	0.00014393	1403.8	5.6322e-06	5.7216e-06	1400.9	377.28	5.8334e-06	5.7394e-06	429.36	144.81	125.9	43.389	5.8918e-06	53.523	264.688	234.671	257.692	167.708	302.651	293.775	167.472	172.385	314.947	302.194	171.999	176.588	176.910	181.179	311.819	180.274	-8191	255	
776.787	1	1	0	0	0.1632	0.097759	0.1221	0.21283	0.14841	0.035038	0.31543	0.23055	0.035294	0.15313	0.2678	0.16334	0.098994	0.23803	0.098707	0.15279	-2.8	-3.2708	-3.5187	-3.3063	-3.3104	-3.4333	-3.0312	-3.6125	-3.2292	-3.2792	-3.3979	-2.9271	-3.2729	-3.4562	-3.1312	-3.6562	475.407	244.965	354.501	445.094	202.735	263.826	509.965	162.968	306.896	373.023	430.404	486.325	438.787	489.842	497.487	513.005	0.00058294	0.00058104	0.00010321	1381.4	5.412e-06	5.311e-06	1381.8	369.78	4.8695e-06	6.314e-06	420.56	145.94	122.78	41.911	4.5376e-06	52.032	0.0005599	0.00054029	0.00014136	1403.4	5.7162e-06	5.6658e-06	1401.4	377.23	5.6542e-06	5.7394e-06	429.06	144.88	126.06	43.346	5.8949e-06	53.635	264.348	245.143	253.376	167.615	302.803	301.636	167.517	172.351	313.266	310.064	171.714	176.746	176.430	181.069	294.487	180.320	-8191	255	
776.883	1	1	0	0	0.29604	0.05556	0.3486	0.3777	0.039016	0.1208	0.14359	0.3095	0.16762	0.10398	0.17956	0.17631	0.4037	0.044776	0.075596	0.16683	-2.6688	-3.0062	-3.4583	-3.3063	-3.2854	-3.3958	-3.2542	-3.4917	-3.3854	-3.175	-3.7396	-3.1271	-3.3583	-3.5604	-3.2562	-3.5542	512.664	368.397	182.165	455.151	173.063	384.655	455.244	479.924	342.304	172.488	474.443	492.518	163.697	329.868	254.033	501.606	0.0006004	0.00042731	0.00010716	1382	6.6933e-06	6.1668e-06	1383.6	370.48	5.6026e-06	3.3879e-06	420.98	143.85	123.08	41.988	6.7856e-06	51.985	0.0005774	0.00051867	0.00014205	1404.2	5.7221e-06	5.7402e-06	1401.6	378.01	5.558e-06	5.7532e-06	430.13	144.73	126.26	43.354	5.8986e-06	53.57	265.738	248.428	251.160	167.716	313.421	302.248	167.689	172.411	317.468	310.634	171.632	176.233	176.855	181.341	311.887	180.246	-8191	255	
776.955	1	1	0	0	0.060132	0.25965	0.1882	0.28313	0.050245	0.051078	0.40537	0.14017	0.23143	0.18422	0.28989	0.074445	0.14206	0.1717	0.10628	0.12309	-2.9188	-3.0062	-3.5167	-3.4	-3.1458	-3.5625	-3.1958	-3.5729	-3.3417	-2.9875	-3.6813	-3.0917	-3.1813	-3.5458	-3.0396	-3.3083	185.875	302.348	343.377	476.656	396.522	234.503	419.900	384.525	465.975	345.267	422.343	423.371	444.772	490.469	505.330	425.593	0.00058174	0.0004612	0.00015196	1379	6.4531e-06	5.1575e-06	1380.1	369.25	6.2298e-06	3.2745e-06	421.39	145.3	123.06	42.172	7.9349e-06	52.144	0.0005545	0.00053475	0.00014054	1404.6	5.8108e-06	5.6079e-06	1403.2	377.46	5.6298e-06	5.8027e-06	429.59	145.34	126.36	43.411	5.7227e-06	53.668	264.414	243.318	249.110	167.507	294.762	300.293	167.489	172.407	319.322	290.892	171.600	176.444	176.681	181.247	301.181	180.404	-8191	255	
777.051	1	1	0	0	0.21678	0.24514	0.46003	0.087988	0.14764	0.11949	0.17922	0.19784	0.14994	0.08183	0.20549	0.16526	0.00368	0.21223	0.18762	0.20728	-3.0438	-2.9854	-3.3688	-3.45	-3.1521	-3.675	-3.3083	-3.3708	-3.3812	-3.1437	-3.5458	-3.2479	-3.2104	-3.5083	-3.2104	-3.2729	430.304	270.765	411.910	232.636	202.795	186.962	439.303	164.886	308.194	182.027	442.210	425.404	311.902	165.472	222.432	449.394	0.0005837	0.00042408	0.00014258	1381.1	5.0448e-06	4.9455e-06	1382.2	371.07	6.2753e-06	5.0709e-06	421.08	145.87	123.22	42.159	5.0277e-06	52.288	0.0005637	0.00053438	0.00014194	1405.3	5.7483e-06	5.5721e-06	1402.7	377.73	5.6833e-06	5.7456e-06	429.85	145.4	126.27	43.464	5.7527e-06	53.703	266.354	231.417	259.339	167.567	306.795	319.812	167.395	172.318	307.241	295.044	172.057	176.832	176.621	181.031	303.928	180.363	-8191	255	
777.147	1	1	0	0	0.13894	0.19329	0.047873	0.22281	0.15128	0.10809	0.24637	0.1304	0.25795	0.047547	0.07487	0.042964	0.16548	0.13575	0.046665	0.04683	-2.8854	-3.0375	-3.3771	-3.3167	-3.0396	-3.5521	-3.3333	-3.3667	-3.3583	-3.0833	-3.6083	-3.2812	-3.1417	-3.425	-3.1208	-3.35	494.448	480.245	363.739	483.159	364.198	383.688	425.757	364.750	425.152	356.611	176.457	219.526	510.414	398.475	407.641	217.262	0.00060021	0.00060101	0.00011539	1382.4	7.3895e-06	7.5992e-06	1381.6	369.67	5.1471e-06	4.4702e-06	421.86	144.48	123.57	42.226	4.3668e-06	52.364	0.00057128	0.00051768	0.00013995	1405.7	5.9666e-06	5.2875e-06	1402.7	377.74	5.5129e-06	5.9854e-06	430.51	145.28	126.26	43.413	5.7659e-06	53.749	264.034	240.909	271.560	167.672	306.892	314.286	167.661	172.191	319.690	321.197	171.750	177.116	176.893	181.383	312.905	180.214	-8191	255	
777.268	1	1	0	0	0.2001	0.13554	0.099206	0.4257	0.28724	0.10115	0.11762	0.17164	0.14178	0.060241	0.15837	0.10147	0.24869	0.20459	0.12257	0.17665	-2.9604	-2.9896	-3.2875	-3.5917	-3.0812	-3.1833	-3.5875	-3.3396	-3.5104	-2.9292	-3.3646	-3.4896	-3.0333	-3.4938	-3.2042	-3.2417	298.408	234.710	237.187	473.559	415.623	294.642	485.894	423.697	477.339	427.812	162.027	321.593	490.995	476.342	330.976	490.367	0.0005839	0.00043515	0.00013586	1383.3	7.0366e-06	8.1337e-06	1384.5	371.44	5.5468e-06	6.2282e-06	420.03	144.28	123	41.935	4.7813e-06	52.1	0.00055799	0.0005406	0.0001434	1404.6	5.823e-06	5.6761e-06	1403.5	378.18	5.7379e-06	5.6494e-06	429.56	145.39	126.1	43.369	5.7615e-06	53.623	266.260	248.524	258.234	167.578	320.847	295.196	167.429	172.371	326.374	278.756	171.784	176.790	176.662	181.375	319.997	180.403	-8191	255	
777.364	1	1	0	0	0.16767	0.06937	0.18263	0.15266	0.27348	0.04364	0.22434	0.023508	0.1094	0.2515	0.17265	0.2854	0.10041	0.040268	0.14896	0.14504	-3.0396	-3.0771	-3.3292	-3.6833	-2.9896	-3.4083	-3.5146	-3.225	-3.4917	-3.2125	-3.3125	-3.2687	-2.9417	-3.4688	-3.1854	-3.2146	424.970	201.783	273.217	496.988	478.806	213.658	450.443	305.040	320.358	282.619	454.620	311.507	372.034	490.214	236.826	456.134	0.00057674	0.00068836	0.00014074	1379.1	5.0326e-06	5.668e-06	1384.2	369.89	5.1777e-06	4.5736e-06	421.67	144.09	123.71	42.101	4.6663e-06	52.281	0.00057149	0.00053191	0.00014833	1404.6	5.8901e-06	5.4591e-06	1403.3	377.83	5.7224e-06	5.8178e-06	430.19	145.22	126.52	43.467	5.8085e-06	53.701	265.720	251.607	217.110	167.700	306.134	306.965	167.416	172.382	316.708	310.062	171.841	176.776	176.447	181.200	308.442	180.458	-8191	255	
777.460	1	1	0	0	0.015557	0.32827	0.1289	0.29198	0.12288	0.11201	0.31599	0.27452	0.22843	0.071123	0.12566	0.31242	0.25363	0.26423	0.02801	0.22872	-3.0917	-2.9917	-3.1458	-3.6	-3.1354	-3.4	-3.5438	-3.1708	-3.3187	-3.1583	-3.2583	-3.4375	-3.1312	-3.4354	-3.3812	-3.1042	156.676	417.073	451.373	456.096	387.896	433.624	472.675	201.524	197.623	258.818	393.677	468.727	388.307	193.049	379.976	431.369	0.00057902	0.00041181	0.00016107	1385.4	6.6384e-06	5.2582e-06	1382.4	370.87	6.4536e-06	3.3317e-06	421.17	143.63	123.02	42.008	4.834e-06	52.284	0.00055671	0.00052822	0.0001455	1406.1	5.7151e-06	5.5948e-06	1402.1	377.9	5.4969e-06	5.6116e-06	429.77	144.88	126.16	43.34	5.717e-06	53.624	266.092	246.270	258.775	167.736	313.279	305.674	167.657	172.283	318.765	316.615	171.789	176.939	176.600	181.252	325.355	180.328	-8191	255	
777.556	1	1	0	0	0.21025	0.04763	0.20497	0.19691	0.11528	0.22275	0.2604	0.19845	0.15146	0.25531	0.21414	0.14315	0.087462	0.25607	0.33217	0.081513	-3.0167	-3.2292	-3.2583	-3.5896	-3.0687	-3.4146	-3.4417	-3.1542	-3.4458	-3.0479	-3.2042	-3.5312	-3.1917	-3.3438	-3.4458	-2.95	360.218	365.082	396.529	464.166	458.876	502.126	436.374	495.074	507.915	380.926	509.188	156.422	310.067	199.105	363.856	347.768	0.0005586	0.0001889	0.0001976	1381.9	4.579e-06	6.4748e-06	1380.1	370.94	6.7571e-06	6.1614e-06	421.51	144.36	122.93	42.016	5.2041e-06	52.223	0.00055181	0.0005215	0.00014543	1403.9	5.7116e-06	5.5046e-06	1401.6	377.84	5.5895e-06	5.6955e-06	429.88	144.98	126.21	43.41	5.6356e-06	53.625	265.677	229.292	266.461	167.758	298.073	313.313	167.688	172.366	319.163	313.037	171.709	176.802	176.771	181.108	313.755	180.326	-8191	255	
777.653	1	1	0	0	0.36538	0.21028	0.10452	0.30081	0.25826	0.12559	0.12651	0.21245	0.13537	0.094688	0.15924	0.074843	0.26542	0.24751	0.22647	0.10001	-2.9646	-3.2	-3.0812	-3.7396	-3.0854	-3.2604	-3.7188	-2.975	-3.2354	-3.3146	-3.3271	-3.4625	-3.3083	-3.4354	-3.3875	-3.1479	312.084	415.660	245.826	504.713	375.948	262.043	168.096	167.606	411.848	373.701	494.398	298.558	449.814	471.598	315.520	492.631	0.00055026	0.00032444	0.00019756	1381.5	6.0294e-06	5.0682e-06	1379.8	370.56	6.6684e-06	4.3346e-06	419.81	145.02	123.31	42.047	6.0741e-06	52.025	0.00056038	0.00053271	0.00014811	1404.6	5.7991e-06	5.754e-06	1401.2	377.7	5.5752e-06	5.6508e-06	429.33	144.67	126.15	43.36	5.5549e-06	53.552	265.228	261.177	251.582	167.611	316.208	282.583	167.696	172.257	312.552	268.166	171.823	176.249	176.609	181.135	311.941	180.514	-8191	255	
777.749	1	1	0	0	0.15929	0.065893	0.074533	0.33664	0.051052	0.1697	0.22512	0.12113	0.054154	0.23155	0.35365	0.19412	0.091184	0.088239	0.10751	0.24517	-2.9271	-3.2438	-3.0958	-3.8208	-3.1771	-3.1708	-3.7271	-3.1083	-3.4583	-3.4396	-3.0167	-3.5146	-3.2458	-3.2479	-3.4583	-3.1208	254.240	279.584	486.129	509.567	258.667	233.103	475.261	432.151	491.176	220.544	420.356	334.069	284.844	175.601	377.375	484.272	0.00057805	0.00041848	0.00014886	1380.9	7.0249e-06	6.0881e-06	1380.5	369.41	6.8889e-06	4.7083e-06	421.56	144.22	123.31	42.229	5.6182e-06	52.287	0.00056352	0.00051319	0.00014679	1402.1	5.5937e-06	5.6878e-06	1399.8	377.29	5.7379e-06	5.5773e-06	429.89	145.03	126.22	43.359	5.9506e-06	53.667	265.468	233.132	259.327	167.687	306.358	308.273	167.548	172.366	317.242	320.906	171.937	176.916	176.641	181.160	325.189	180.506	-8191	255	
777.868	1	1	0	0	0.089059	0.14979	0.093099	0.20017	0.31049	0.21949	0.21393	0.12748	0.14276	0.092857	0.41818	0.33971	0.11992	0.053255	0.085113	0.30746	-2.875	-3.3396	-2.8979	-3.6146	-3.2938	-3.1396	-3.6792	-3.2083	-3.2687	-3.5062	-3.0104	-3.4125	-3.3063	-3.0438	-3.5375	-3.2313	341.423	486.758	382.101	392.244	376.377	349.449	469.321	505.273	260.376	478.697	479.198	492.534	498.243	163.756	185.318	493.827	0.00057591	0.00049085	0.00014993	1377.7	6.0557e-06	6.0588e-06	1378.9	370.05	4.5575e-06	3.3909e-06	421.77	144.95	123.38	42.105	3.9262e-06	52.078	0.00056017	0.00050487	0.00014854	1402.4	5.942e-06	5.9635e-06	1401	377.42	5.7242e-06	5.5553e-06	430.03	145.28	126.12	43.385	5.543e-06	53.624	265.171	248.060	248.927	167.559	306.840	301.277	167.595	172.226	313.422	318.222	171.575	176.357	176.475	181.350	300.658	180.379	-8191	255	
777.964	1	1	0	0	0.20566	0.10672	0.28041	0.17804	0.071136	0.2697	0.37012	0.10261	0.11765	0.10951	0.22368	0.052886	0.039528	0.10542	0.19593	0.10344	-2.8563	-3.2792	-2.7542	-3.6625	-3.3417	-3.1271	-3.7812	-3.2208	-3.375	-3.475	-3.325	-3.4542	-3.2354	-3.075	-3.4146	-3.1917	269.738	422.211	365.629	468.380	210.727	505.080	437.365	450.282	237.234	263.382	446.755	432.220	351.110	475.827	398.479	465.267	0.00056824	0.0003776	0.00014098	1385	6.4499e-06	5.1505e-06	1384.8	371.7	5.3626e-06	3.7154e-06	421.12	143.92	123.29	42.332	4.6348e-06	52.107	0.00056644	0.00052009	0.0001443	1403	5.8889e-06	5.8718e-06	1401.5	378.09	5.7397e-06	5.723e-06	429.99	144.77	126.31	43.435	5.5962e-06	53.645	265.568	240.941	267.618	167.559	305.829	305.031	167.617	172.291	322.115	292.411	171.710	177.318	176.559	181.200	312.431	180.519	-8191	255	
778.060	1	1	0	0	0.091611	0.13709	0.034176	0.27029	0.10697	0.18413	0.40389	0.13305	0.22506	0.16116	0.16591	0.11354	0.39922	0.085367	0.1511	0.32013	-2.8083	-3.5312	-2.9958	-3.6146	-3.4167	-3.1021	-3.6417	-3.5021	-3.0042	-3.5667	-3.1437	-3.15	-3.4708	-3.1562	-3.1937	-3.1813	303.931	345.756	484.217	495.470	412.655	230.102	404.865	469.480	331.677	203.583	421.537	351.276	486.806	227.435	239.982	379.599	0.00057493	0.00054988	0.00012071	1380	6.3267e-06	5.4853e-06	1380.2	370.36	5.6972e-06	4.6398e-06	420.71	145.33	123.27	42.088	6.626e-06	52.082	0.0005645	0.00051319	0.00014932	1401.3	5.6894e-06	5.7271e-06	1398.1	377.3	5.7218e-06	5.5993e-06	429.26	145.4	126.21	43.357	5.6081e-06	53.548	265.659	238.309	274.171	167.680	310.707	310.145	167.438	172.271	303.397	310.996	171.911	176.705	176.665	181.186	316.018	180.214	-8191	255	
778.181	1	1	0	0	0.12189	0.15927	0.24866	0.1057	0.17545	0.077253	0.15809	0.062543	0.03057	0.11157	0.11956	0.095204	0.11142	0.32749	0.054782	0.31189	-2.8729	-3.4375	-3.0021	-3.5812	-3.5875	-3.1562	-3.5563	-3.5042	-2.9938	-3.5896	-3.2083	-3.3583	-3.4521	-3.0375	-3.4333	-3.3479	297.513	334.581	352.861	464.363	444.619	181.614	488.662	208.011	293.172	340.054	472.319	361.459	243.322	430.867	328.521	421.261	0.00058755	0.0003766	0.00010729	1381.8	7.5485e-06	4.3778e-06	1381.5	369.54	6.5769e-06	4.5873e-06	422.88	143.84	122.93	42.147	6.0341e-06	52.041	0.00057331	0.00051503	0.0001456	1403.8	5.7192e-06	5.7478e-06	1402.1	377.47	5.91e-06	5.4034e-06	430.32	144.59	126.4	43.381	5.7747e-06	53.653	263.445	240.331	251.174	167.674	321.899	299.958	167.490	172.294	316.339	338.895	171.804	176.512	177.026	181.210	332.392	180.432	-8191	255	
778.252	1	1	0	0	0.16244	0.13784	0.071282	0.12611	0.17629	0.13139	0.085077	0.17123	0.19163	0.069628	0.21506	0.080373	0.32318	0.30329	0.1734	0.24432	-2.8167	-3.5729	-2.9958	-3.4333	-3.4521	-2.9062	-3.6458	-3.5875	-2.8917	-3.4854	-3.2875	-3.1042	-3.4188	-3.2812	-3.25	-3.4333	504.845	341.029	475.358	453.579	365.451	307.839	504.011	494.571	472.764	191.606	303.123	511.404	436.988	492.364	178.952	479.117	0.0005803	0.00058753	0.00014471	1383.7	6.4806e-06	5.6728e-06	1382	370.68	5.6136e-06	4.0496e-06	420.63	143.26	123.3	42.144	5.3275e-06	52.065	0.00056504	0.00053056	0.0001478	1405.8	5.6818e-06	5.5914e-06	1403.3	377.71	5.8797e-06	5.4859e-06	430.3	145.33	126.16	43.389	5.7302e-06	53.556	263.518	232.002	272.937	167.808	301.867	296.599	167.555	172.380	308.460	296.885	171.871	177.469	176.542	181.330	316.555	180.366	-8191	255	
778.348	1	1	0	0	0.1017	0.070582	0.17702	0.1876	0.053933	0.13322	0.23976	0.24804	0.040907	0.056663	0.2812	0.13084	0.30221	0.3209	0.17944	0.073267	-2.6042	-3.5	-3.2042	-3.3125	-3.4042	-3.0729	-3.4542	-3.5729	-2.8458	-3.175	-3.525	-3.1042	-3.5708	-3.1479	-3.2729	-3.5521	179.537	212.189	318.700	449.519	282.267	341.276	488.149	469.966	287.296	404.848	490.515	361.962	188.954	459.593	474.072	347.148	0.00059317	0.00050177	0.00013414	1377	6.0988e-06	8.6566e-06	1381.6	370.68	6.1481e-06	3.7383e-06	420.65	144.15	123.25	42.002	5.7237e-06	51.887	0.00057009	0.00051442	0.00014406	1402.9	5.7711e-06	5.8711e-06	1401.5	377.08	6.0091e-06	5.611e-06	429.7	145.05	126.19	43.298	5.7534e-06	53.525	264.074	249.037	256.808	167.571	311.600	312.123	167.460	172.556	301.345	299.830	171.925	176.627	176.696	181.252	331.907	180.585	-8191	255	
778.445	1	1	0	0	0.1551	0.10613	0.15154	0.23771	0.076892	0.16112	0.20806	0.19084	0.20226	0.16835	0.2258	0.21141	0.12896	0.17752	0.15303	0.092224	-2.5083	-3.3354	-3.175	-3.2771	-3.4354	-3.0104	-3.1875	-3.5271	-3.0083	-3.3479	-3.2604	-3.0646	-3.5604	-3.2	-3.2479	-3.5729	471.840	284.015	431.676	433.811	276.157	424.631	494.277	154.959	308.327	505.712	483.972	415.948	506.502	448.102	301.855	477.973	0.00056337	0.00055519	0.00013941	1380.5	4.8732e-06	5.2112e-06	1379.5	369.91	5.0719e-06	3.9154e-06	419.97	144.12	122.41	42.076	5.8954e-06	51.993	0.00057698	0.0005393	0.0001469	1403.1	5.7227e-06	5.5425e-06	1400	377.17	5.7889e-06	5.4179e-06	428.84	144.93	126	43.305	5.8636e-06	53.578	265.381	258.702	243.649	167.651	324.738	321.623	167.415	172.330	326.182	295.408	171.784	176.577	176.573	181.074	325.077	180.395	-8191	255	
778.565	1	1	0	0	0.09813	0.080858	0.28682	0.22461	0.066983	0.30243	0.050487	0.23139	0.043846	0.23435	0.18365	0.12949	0.24484	0.12697	0.11036	0.16196	-2.4958	-3.325	-3.1896	-3.1917	-3.5354	-3.1979	-3.35	-3.5271	-3.0167	-3.2521	-3.4458	-3.0021	-3.6167	-3.2438	-3.1562	-3.4437	500.157	420.254	494.480	499.777	337.224	212.853	465.414	179.898	286.994	406.912	302.426	439.210	170.499	380.052	372.869	452.250	0.00060883	0.00042961	0.00013787	1380.5	6.3651e-06	6.5559e-06	1378	370.84	3.8485e-06	5.3214e-06	418.45	144.42	123.19	42.121	5.3588e-06	52.056	0.0005717	0.00050986	0.00013868	1403.3	5.6031e-06	5.6245e-06	1399.3	377.28	5.7444e-06	5.6048e-06	428.59	144.64	125.94	43.324	5.9168e-06	53.528	263.430	235.654	261.727	167.728	308.385	299.685	167.539	172.205	314.534	303.536	171.972	176.527	176.711	181.200	311.956	180.471	-8191	255	
778.660	1	1	0	0	0.16494	0.1476	0.1272	0.16607	0.20246	0.15701	0.2166	0.23971	0.096166	0.11184	0.10576	0.27798	0.24515	0.07335	0.063678	0.31196	-2.4729	-3.2792	-3.2833	-3.15	-3.35	-3.1458	-3.4375	-3.6312	-3.1813	-3.2021	-3.6167	-2.9625	-3.5125	-3.3667	-3.1104	-3.6104	281.253	256.573	375.345	468.408	240.111	234.908	166.746	180.899	258.195	280.024	376.784	491.656	488.927	447.140	399.032	421.506	0.00058746	0.00054922	0.00015515	1379.1	6.6904e-06	4.2547e-06	1384.7	371.22	5.5357e-06	4.2069e-06	420.1	143.12	122.64	42.019	4.5194e-06	52.198	0.00058448	0.00053228	0.00014037	1402	5.6993e-06	5.466e-06	1402.3	377.07	5.666e-06	5.8638e-06	429.42	144.72	126	43.263	5.9318e-06	53.597	267.214	240.849	239.444	167.673	304.669	304.151	167.656	172.290	318.465	322.438	171.802	176.830	176.673	180.983	299.957	180.407	-8191	255	
778.756	1	1	0	0	0.10566	0.26423	0.22218	0.29806	0.27701	0.1023	0.18569	0.26277	0.093405	0.1545	0.2046	0.17965	0.20793	0.18875	0.20205	0.077811	-2.725	-3.0396	-3.3229	-3.3104	-3.325	-3.425	-3.1813	-3.6104	-3.2646	-3.3354	-3.4688	-2.9562	-3.4354	-3.3208	-3.0833	-3.6479	497.386	204.978	410.684	441.441	175.018	174.248	411.987	457.850	189.609	349.999	470.528	354.591	431.775	434.260	356.637	285.286	0.00057699	0.00050251	0.00010399	1385	7.9377e-06	4.0099e-06	1377	370.92	7.0268e-06	4.5496e-06	420.71	144.04	123.08	42.091	4.9152e-06	51.88	0.00056513	0.00053573	0.00013648	1403.3	5.8679e-06	5.4488e-06	1398.3	377.2	5.6429e-06	5.703e-06	429.57	144.98	126.04	43.288	5.6895e-06	53.401	265.544	237.159	282.117	167.554	293.943	300.788	167.597	172.273	316.966	321.579	171.861	176.509	176.457	181.222	315.536	180.335	-8191	255	
778.829	1	1	0	0	0.15839	0.10598	0.10735	0.3156	0.026902	0.11438	0.22367	0.18835	0.22877	0.13501	0.49315	0.20735	0.19773	0.081902	0.15537	0.13892	-2.5917	-3.1292	-3.4833	-3.225	-3.3125	-3.3646	-3.2979	-3.4417	-3.3417	-3.2438	-3.5417	-2.9083	-3.5042	-3.425	-3.0458	-3.5458	279.499	455.295	353.467	481.042	454.177	413.236	407.801	404.108	360.102	231.222	402.247	187.470	468.604	282.800	370.718	179.354	0.00057812	0.00046405	0.0001088	1377.1	7.2678e-06	4.7165e-06	1380.8	370.09	6.2487e-06	5.0772e-06	419.5	143.89	123.19	42.08	4.3811e-06	51.994	0.00056352	0.00051214	0.00013738	1401.3	5.711e-06	5.5652e-06	1399.8	376.94	5.5414e-06	5.6962e-06	429.08	145.03	126.01	43.283	5.7296e-06	53.504	267.085	263.025	257.545	167.432	311.423	288.108	167.649	172.309	315.670	303.769	171.837	176.809	176.657	181.209	308.370	180.309	-8191	255	
778.948	1	1	0	0	0.072842	0.22954	0.25448	0.23204	0.11826	0.02005	0.14025	0.29664	0.026091	0.17463	0.38358	0.29758	0.24737	0.32924	0.24795	0.20905	-2.8625	-3.0021	-3.4021	-3.2625	-3.1583	-3.3688	-3.2938	-3.6063	-3.3187	-3.0104	-3.4625	-3.1417	-3.2354	-3.3896	-2.9604	-3.3063	198.579	509.108	274.484	190.635	252.116	182.303	358.906	445.354	394.586	335.670	422.010	248.336	413.415	465.234	325.809	420.742	0.00058519	0.00051489	9.5624e-05	1378.6	7.4345e-06	6.2097e-06	1380.7	370.3	4.3338e-06	5.1141e-06	419.87	143.02	123.18	42.083	5.555e-06	51.82	0.00057032	0.00051651	0.00014382	1400.4	5.9339e-06	5.6334e-06	1399.6	377.08	5.929e-06	5.5931e-06	428.9	144.44	125.87	43.298	5.6463e-06	53.419	264.866	247.186	240.918	167.646	300.519	291.126	167.542	172.408	311.768	303.171	171.648	176.905	176.720	181.064	313.245	180.391	-8191	255	
779.044	1	1	0	0	0.057282	0.047421	0.17605	0.32903	0.11531	0.13889	0.19887	0.1748	0.15557	0.39266	0.12641	0.3193	0.30708	0.30595	0.19706	0.10705	-2.9167	-2.9458	-3.5	-3.5083	-3.2458	-3.5729	-3.2208	-3.3271	-3.4417	-2.9854	-3.6021	-3.0729	-3.2958	-3.5083	-3.0146	-3.3854	280.148	309.338	431.955	420.806	216.731	448.750	158.924	431.945	221.571	450.373	370.309	363.978	468.625	160.712	368.240	426.362	0.00059254	0.00057122	0.00016132	1375.1	5.5955e-06	3.7224e-06	1380.2	370.49	5.6563e-06	5.132e-06	420.33	143.68	122.97	41.953	3.9448e-06	51.923	0.00058475	0.00052643	0.00014087	1399.9	5.7407e-06	5.7037e-06	1398	376.64	5.6655e-06	5.7401e-06	429.33	144.58	125.95	43.273	5.8398e-06	53.452	266.126	224.494	265.907	167.665	296.886	289.163	167.429	172.400	326.935	316.591	171.852	176.042	176.428	181.407	329.867	180.495	-8191	255	
779.140	1	1	0	0	0.20927	0.069514	0.11927	0.10462	0.20141	0.15647	0.27541	0.08748	0.032399	0.24004	0.14374	0.12452	0.20132	0.24766	0.19367	0.153	-2.9292	-2.9958	-3.3083	-3.3958	-3.0208	-3.4938	-3.2604	-3.2208	-3.4062	-2.85	-3.5271	-3.4979	-3.15	-3.3708	-3.0042	-3.2625	353.346	373.501	401.670	329.795	460.863	369.436	465.578	421.077	384.492	198.795	487.825	427.777	454.799	409.515	426.478	215.643	0.00053792	0.00040306	9.7621e-05	1376.7	5.9263e-06	6.4384e-06	1376.2	369.82	4.8685e-06	6.4698e-06	419.11	143.09	122.57	41.852	5.0337e-06	51.987	0.00055366	0.00051916	0.00014	1400.9	5.8528e-06	5.5397e-06	1396.4	376.32	5.6607e-06	5.6989e-06	428.43	144.41	125.62	43.112	5.7014e-06	53.444	264.023	265.665	250.802	167.583	309.908	312.479	167.379	172.142	312.841	303.975	171.899	176.805	176.872	181.264	309.216	180.380	-8191	255	
779.261	1	1	0	0	0.10557	0.31887	0.28963	0.30649	0.15362	0.10127	0.18981	0.16073	0.15142	0.12385	0.11234	0.051201	0.17065	0.28929	0.090103	0.1378	-3.1833	-3.0604	-3.1646	-3.3688	-3.2146	-3.4729	-3.2812	-3.4354	-3.4625	-3.0521	-3.4917	-3.2521	-3.0521	-3.5479	-3.1083	-3.2667	421.582	375.298	433.504	453.954	504.471	372.309	459.018	474.586	176.779	495.720	435.693	455.131	433.978	205.952	512.849	467.597	0.00057046	0.00054039	9.0962e-05	1377.9	4.9177e-06	4.7197e-06	1375.6	369.93	5.5647e-06	4.2948e-06	420.88	143.29	123.22	41.968	4.9597e-06	51.878	0.0005622	0.00053425	0.00014077	1399.2	5.7699e-06	5.63e-06	1396.9	376.89	5.8334e-06	5.7291e-06	428.09	143.77	125.83	43.215	5.7352e-06	53.448	264.291	233.230	261.915	167.736	299.349	301.426	167.662	172.354	316.236	314.284	171.908	176.835	176.701	181.326	315.967	180.389	-8191	255	
779.357	1	1	0	0	0.42718	0.1337	0.063438	0.28355	0.11977	0.10297	0.18616	0.30002	0.31229	0.090534	0.04948	0.046432	0.064469	0.24184	0.17534	0.10446	-3.1458	-3.1708	-3.3354	-3.4167	-2.9833	-3.45	-3.4958	-3.1437	-3.5062	-3.0687	-3.5875	-3.2521	-2.7979	-3.4313	-3.3396	-3.0833	318.630	480.553	413.836	461.763	451.817	287.500	467.446	396.796	284.301	236.178	275.425	203.435	381.027	443.443	496.495	155.413	0.00058851	0.00054551	0.00015091	1376.5	6.8418e-06	4.6479e-06	1384.1	369.2	6.0339e-06	3.721e-06	420.54	144.53	122.75	42.139	7.3751e-06	51.812	0.0005614	0.00053604	0.00014114	1399.5	5.8429e-06	5.6369e-06	1399	376.52	5.837e-06	5.7284e-06	429.58	144.8	125.85	43.231	5.8222e-06	53.408	266.858	219.941	272.865	167.711	309.416	291.731	167.368	172.294	296.861	279.432	171.834	176.745	176.871	181.369	322.197	180.538	-8191	255	
779.453	1	1	0	0	0.23885	0.10376	0.21521	0.20449	0.12192	0.21143	0.23029	0.17125	0.27896	0.13945	0.12183	0.050309	0.26797	0.12422	0.1175	0.17062	-3.025	-2.9021	-3.1479	-3.5438	-2.8958	-3.4646	-3.5521	-3.0292	-3.475	-3.1437	-3.3042	-3.3833	-3.1458	-3.4375	-3.4	-3.1208	368.647	319.816	410.080	466.712	331.208	312.222	460.333	509.724	415.229	484.007	241.378	225.804	504.015	348.275	204.525	447.484	0.00058131	0.00063059	0.0001452	1378.7	7.1708e-06	4.9692e-06	1379.5	370.48	5.6072e-06	3.8105e-06	420.96	143.58	123.72	42	6.0993e-06	52.124	0.00056286	0.00051762	0.00014227	1401.5	5.9823e-06	5.4756e-06	1399.1	376.96	5.6358e-06	5.6309e-06	429.76	144.26	126.03	43.274	5.801e-06	53.535	265.910	237.554	231.671	167.741	315.154	298.555	167.445	172.547	315.065	313.589	171.735	176.887	176.604	181.414	314.201	180.479	-8191	255	
779.549	1	1	0	0	0.26333	0.091761	0.16395	0.18314	0.13772	0.28361	0.20803	0.29686	0.13484	0.12931	0.13098	0.14666	0.33618	0.12766	0.14503	0.031208	-3.1375	-3.0812	-3.3896	-3.475	-3.1917	-3.3458	-3.4833	-3.2313	-3.6167	-3.1813	-3.3125	-3.5375	-3.0729	-3.4521	-3.3688	-3.1729	427.008	207.209	194.230	160.773	367.846	160.030	458.677	513.670	444.802	208.699	484.220	218.808	451.670	215.902	242.424	469.530	0.00058275	0.0005461	0.00018619	1381.8	7.7096e-06	5.6202e-06	1382.4	371.07	4.472e-06	5.5286e-06	420.06	144.41	122.85	42.011	5.431e-06	52.189	0.00056626	0.00051861	0.00014259	1402.7	5.6561e-06	5.6031e-06	1399.8	377.63	5.4524e-06	5.6982e-06	429.3	145.14	126.18	43.287	5.5962e-06	53.573	265.035	245.974	272.348	167.533	314.319	307.839	167.497	172.533	323.778	316.626	171.842	176.298	176.538	181.244	314.672	180.514	-8191	255	
779.646	1	1	0	0	0.086805	0.30264	0.10481	0.22201	0.059576	0.23684	0.19103	0.11008	0.057358	0.19392	0.16095	0.10722	0.11147	0.16754	0.081067	0.17918	-3.025	-3.1646	-3.1542	-3.6042	-3.1333	-3.2938	-3.4458	-3.0854	-3.4729	-3.0167	-3.2062	-3.4146	-3.0667	-3.4104	-3.4354	-3.1	360.803	333.540	374.686	471.476	193.646	455.065	444.031	161.814	274.498	247.038	486.814	173.218	455.542	389.256	174.053	209.055	0.00059888	0.00054246	0.00015655	1378.4	5.054e-06	6.2903e-06	1382	368.52	5.7398e-06	5.3115e-06	420.62	144.17	123.11	42.048	4.8385e-06	52.213	0.00055659	0.0005239	0.00014396	1400.9	5.7793e-06	5.7368e-06	1400.1	376.85	5.5301e-06	5.7415e-06	430.09	144.39	126.26	43.312	5.7396e-06	53.574	265.959	235.028	244.439	167.494	304.433	293.612	167.589	172.334	320.581	291.862	171.775	177.089	176.655	181.469	316.404	180.034	-8191	255	
779.742	1	1	0	0	0.026732	0.095788	0.10328	0.17896	0.14263	0.082781	0.31919	0.12623	0.12035	0.10892	0.12419	0.18692	0.22796	0.070345	0.080252	0.071594	-2.8229	-3.1104	-3.0292	-3.6833	-3.1042	-3.1458	-3.6292	-3.2042	-3.35	-3.3146	-3.1271	-3.7167	-3.2042	-3.2542	-3.4042	-3.0938	279.684	300.901	273.111	448.994	166.918	302.361	374.876	443.611	217.678	391.421	498.446	308.358	386.464	192.335	397.072	484.290	0.00057042	0.00046962	0.00013188	1383.5	5.3972e-06	5.0779e-06	1380.7	369.88	5.3746e-06	5.6265e-06	420.69	144.22	123.5	42.164	3.1397e-06	51.843	0.00054494	0.00052132	0.00014172	1403.9	5.6865e-06	5.7175e-06	1400.5	377.3	5.5764e-06	5.7635e-06	429.38	144.26	126.38	43.404	5.5398e-06	53.54	264.280	213.839	276.172	167.679	323.880	305.477	167.551	172.436	314.994	300.293	171.923	176.250	176.480	181.223	312.531	180.672	-8191	255	
779.861	1	1	0	0	0.30258	0.26444	0.14182	0.10021	0.14588	0.21513	0.18404	0.031853	0.19773	0.13513	0.22591	0.27054	0.087587	0.17609	0.20228	0.12323	-2.95	-3.1854	-3.1937	-3.6458	-3.0646	-3.1958	-3.6521	-3.1604	-3.4583	-3.3958	-3.0687	-3.4917	-3.4583	-3.2313	-3.4583	-3.2375	419.388	388.548	156.516	310.510	387.686	237.228	395.124	415.506	269.458	436.671	479.585	449.056	182.197	381.025	221.441	307.757	0.00058956	0.00048493	0.00014485	1381.1	6.2134e-06	5.4494e-06	1382.6	368.93	4.94e-06	4.8444e-06	420.27	144.78	123.45	42.175	4.5151e-06	52.013	0.00055937	0.00052569	0.00014741	1403.5	5.6392e-06	5.7306e-06	1400.9	377.41	5.6085e-06	5.6783e-06	429.24	145.32	126.33	43.359	5.5956e-06	53.534	264.922	229.014	255.115	167.673	300.175	296.543	167.586	172.346	320.389	324.552	171.803	176.282	176.879	181.294	312.258	180.458	-8191	255	
779.957	1	1	0	0	0.13562	0.061318	0.11739	0.089222	0.012082	0.26958	0.21033	0.21123	0.2227	0.1318	0.34217	0.28189	0.29126	0.27799	0.13342	0.2311	-2.8646	-3.2792	-3.0042	-3.6146	-3.2104	-3.2375	-3.8708	-3.2229	-3.3833	-3.4167	-3.1917	-3.3583	-3.4104	-3.2292	-3.2396	-3.2583	373.208	398.817	488.622	474.633	489.380	292.328	369.870	458.415	194.263	465.480	482.341	272.017	169.556	472.072	331.765	395.470	0.00058121	0.00048276	0.00012508	1382.8	6.7025e-06	4.3336e-06	1381.1	369.36	4.8131e-06	4.289e-06	419.97	143.42	123.04	42.018	5.535e-06	51.945	0.00056937	0.00053893	0.00014372	1404.8	5.8061e-06	5.8711e-06	1400.6	377.22	5.7046e-06	5.3258e-06	429.21	144.93	126.06	43.343	5.6463e-06	53.548	265.331	233.163	251.619	167.693	309.755	306.430	167.385	172.295	308.129	291.991	171.941	176.978	176.579	181.296	325.894	180.501	-8191	255	
780.053	1	1	0	0	0.079336	0.18958	0.10116	0.1653	0.105	0.27842	0.13192	0.19009	0.11937	0.14742	0.033436	0.053911	0.23077	0.054793	0.028419	0.12564	-2.7458	-3.3688	-3.0438	-3.4417	-3.2417	-3.0979	-3.7667	-3.1688	-3.1458	-3.45	-3.1708	-3.2479	-3.4417	-3.0917	-3.3354	-3.2542	436.540	198.910	315.821	472.097	195.738	277.073	451.909	494.627	328.440	176.839	220.701	248.628	418.610	413.969	393.437	488.037	0.00057652	0.00056	0.00015698	1386.6	4.8116e-06	5.3584e-06	1376.5	369.52	4.9605e-06	4.844e-06	420.29	143.77	122.81	42.122	5.3849e-06	51.865	0.00056349	0.00052206	0.00014594	1405.3	5.7279e-06	5.6231e-06	1401.3	377.36	5.6085e-06	5.5209e-06	429.11	144.94	126.01	43.355	5.6137e-06	53.494	264.872	242.944	244.960	167.645	304.074	319.573	167.500	172.206	334.884	311.948	171.885	176.314	176.443	181.200	288.826	180.351	-8191	255	
780.125	1	1	0	0	0.078762	0.12498	0.14871	0.27281	0.12234	0.051824	0.32559	0.16446	0.34273	0.13954	0.061808	0.11013	0.10952	0.085597	0.24187	0.23619	-2.775	-3.4813	-3.1125	-3.4792	-3.3958	-3.2708	-3.4437	-3.2979	-3.0625	-3.4167	-3.1146	-3.1625	-3.5104	-3.0146	-3.4521	-3.3083	507.212	421.225	473.867	460.855	299.756	250.431	468.719	415.305	389.385	441.742	171.635	461.590	190.426	168.377	463.716	424.358	0.00058669	0.00036478	0.00011253	1384.6	7.7536e-06	4.041e-06	1379	368.94	4.0895e-06	3.5842e-06	421.52	144.11	123.4	41.955	6.2832e-06	52.189	0.00056107	0.00050863	0.00014094	1405.9	5.8078e-06	5.8236e-06	1401.2	377.29	5.5681e-06	5.5656e-06	429.87	144.88	126.19	43.315	5.7659e-06	53.628	266.061	234.669	260.139	167.661	305.098	340.029	167.772	172.290	320.236	293.771	171.749	176.400	176.405	181.047	321.462	180.464	-8191	255	
780.245	1	1	0	0	0.16331	0.18452	0.18876	0.18738	0.083759	0.10136	0.3494	0.2641	0.2202	0.15892	0.15612	0.048362	0.14871	0.20976	0.19687	0.38306	-2.5625	-3.6063	-3.0833	-3.2375	-3.3375	-3.1	-3.7438	-3.3979	-3.125	-3.4542	-3.2313	-3.3333	-3.5812	-3.0854	-3.2979	-3.3	344.898	412.268	345.497	175.413	177.234	213.188	445.605	497.277	280.260	288.158	468.422	471.251	171.537	498.194	193.832	461.404	0.00059067	0.00040024	0.00014202	1380.1	6.1292e-06	4.361e-06	1381.8	370.65	4.7266e-06	2.545e-06	421.35	145.08	123.4	42.087	6.117e-06	52.117	0.00057734	0.00050955	0.00014862	1404.7	5.8819e-06	5.7264e-06	1402.3	377.65	5.8512e-06	5.5855e-06	429.85	144.9	126.08	43.304	5.7421e-06	53.549	264.552	225.074	235.058	167.510	302.170	301.912	167.508	172.247	308.699	315.423	171.809	176.897	176.798	181.405	320.493	180.381	-8191	255	
780.341	1	1	0	0	0.14192	0.047493	0.099163	0.20095	0.40323	0.1345	0.35636	0.18911	0.15743	0.052148	0.1791	0.14591	0.14566	0.22118	0.11616	0.15882	-2.6542	-3.3312	-3.0958	-3.4354	-3.5229	-2.9208	-3.5479	-3.5667	-3.1042	-3.3854	-3.3104	-3.1437	-3.5729	-3.0104	-3.2708	-3.5104	388.289	222.652	455.144	459.112	203.731	387.078	451.088	314.296	481.010	393.461	463.984	424.606	185.123	511.235	166.774	475.310	0.00056858	0.00051083	0.00013425	1378.3	5.8651e-06	6.1104e-06	1377.6	370.6	6.3128e-06	4.2466e-06	420.12	143.99	122.96	41.895	6.2454e-06	52.025	0.00056961	0.00052594	0.00013877	1404.8	5.6982e-06	5.8463e-06	1401.7	377.28	5.7664e-06	5.5388e-06	429.59	145.04	126.1	43.302	5.8811e-06	53.523	265.664	251.540	235.593	167.767	305.610	299.639	167.650	172.221	302.298	297.912	171.704	176.614	176.579	181.168	319.913	180.532	-8191	255	
780.437	1	1	0	0	0.18205	0.08686	0.18408	0.17405	0.12651	0.29147	0.12845	0.23928	0.22382	0.17929	0.041426	0.26374	0.20733	0.16403	0.14583	0.21166	-2.5771	-3.3771	-3.25	-3.3375	-3.5021	-3.1229	-3.4208	-3.375	-3.1	-3.4229	-3.4625	-3.1021	-3.4771	-3.2021	-3.3479	-3.5396	483.113	173.767	190.629	457.559	494.353	340.220	503.550	475.539	395.389	396.033	251.024	280.560	440.825	231.427	500.744	441.806	0.00058926	0.00052962	0.00013012	1381.9	5.7749e-06	4.6287e-06	1383.6	370.58	4.3117e-06	4.3359e-06	420.47	144.1	122.94	42.001	5.9186e-06	52.027	0.00057743	0.00051171	0.0001394	1404.4	5.6281e-06	5.641e-06	1400.2	377.23	5.688e-06	5.5154e-06	428.81	144.84	126.09	43.26	5.8035e-06	53.495	266.484	231.488	261.925	167.679	317.290	299.903	167.333	172.283	303.341	325.402	171.887	177.305	176.611	181.229	317.579	180.507	-8191	255	
780.534	1	1	0	0	0.22473	0.14975	0.24027	0.035171	0.18978	0.13009	0.46459	0.16618	0.096531	0.079462	0.22517	0.17378	0.36047	0.08871	0.18214	0.031451	-2.6458	-3.2188	-3.1688	-3.2188	-3.3396	-3.1458	-3.5854	-3.6833	-3.1042	-3.2917	-3.4688	-3.0979	-3.4771	-3.3063	-3.2938	-3.5938	332.483	349.974	462.957	482.113	339.254	382.862	445.280	404.875	317.782	504.343	409.938	444.763	507.283	497.994	461.906	340.201	0.00057894	0.00048037	0.00015828	1380.4	5.7358e-06	5.3922e-06	1380.5	369.87	7.1232e-06	3.9624e-06	420.38	142.87	123.14	42.083	4.4499e-06	52.007	0.00056399	0.00050007	0.00014679	1403.6	5.5715e-06	5.6617e-06	1400.8	377.52	5.7242e-06	5.5306e-06	428.96	144.1	125.96	43.291	5.7991e-06	53.471	265.989	234.096	256.330	167.668	319.566	300.353	167.709	172.287	320.208	302.666	172.028	176.669	176.806	181.204	304.789	180.534	-8191	255	
780.630	1	1	0	0	0.10014	0.072346	0.30966	0.19256	0.1918	0.20706	0.21535	0.21563	0.35727	0.076712	0.24109	0.10863	0.081438	0.11411	0.14868	0.073531	-2.6312	-3.4083	-3.1813	-3.1521	-3.4771	-3.1354	-3.3646	-3.4167	-3.1125	-3.3771	-3.5458	-3.0375	-3.5125	-3.2687	-3.1396	-3.5333	430.046	298.962	332.109	468.059	208.470	430.160	448.988	364.435	392.320	325.036	201.653	214.057	415.599	434.449	164.724	449.751	0.00057324	0.00061994	0.00013334	1381.9	6.2575e-06	3.8137e-06	1382.6	370.08	5.833e-06	5.3769e-06	419.69	144.64	123.19	42.149	4.8846e-06	51.934	0.00057021	0.00050678	0.00014295	1403.3	5.4945e-06	5.4612e-06	1400.1	377.22	5.6488e-06	5.5113e-06	428.85	145.02	126.09	43.319	5.6619e-06	53.437	264.029	228.886	265.173	167.650	300.685	299.366	167.484	172.309	315.554	291.579	172.048	176.635	176.821	181.314	323.025	180.474	-8191	255	
780.726	1	1	0	0	0.084895	0.12048	0.1529	0.22128	0.025422	0.24839	0.15569	0.1472	0.090696	0.23967	0.079729	0.081119	0.15045	0.25416	0.33017	0.21259	-2.5792	-3.0792	-3.3875	-3.1646	-3.5396	-3.3125	-3.2812	-3.6021	-3.1271	-3.3042	-3.5479	-2.9854	-3.3708	-3.2333	-2.9646	-3.6479	162.692	500.044	167.995	491.319	502.251	228.770	503.158	493.940	316.135	467.468	417.169	495.487	483.492	496.143	392.396	467.993	0.00056123	0.00053552	0.00017511	1382	5.55e-06	6.3627e-06	1385.6	370.9	5.6251e-06	4.8534e-06	422.13	144.29	122.99	42.135	3.689e-06	52.091	0.00056062	0.00052366	0.00014545	1404.9	5.9304e-06	5.6493e-06	1403.3	378.03	5.7592e-06	5.6206e-06	429.81	144.58	126.2	43.306	5.8197e-06	53.49	266.449	243.410	247.129	167.555	304.353	319.750	167.529	172.354	305.609	306.145	171.713	176.308	176.722	181.258	314.911	180.578	-8191	255	
780.822	1	1	0	0	0.19383	0.12601	0.24664	0.15762	0.11148	0.065289	0.24287	0.18825	0.10533	0.16644	0.10368	0.18893	0.19906	0.20796	0.24877	0.081576	-2.7417	-3.275	-3.3688	-3.0521	-3.4104	-3.4062	-3.3646	-3.4896	-3.2896	-3.2854	-3.55	-3.0833	-3.6542	-3.3729	-3.0875	-3.3521	394.770	311.532	403.654	185.569	266.498	229.946	482.587	378.385	409.337	154.637	464.649	474.267	509.525	473.673	288.772	329.912	0.00058107	0.00054884	0.0001013	1376.9	6.0582e-06	4.9948e-06	1381.7	370	5.4442e-06	5.7055e-06	419.62	144.13	123.04	42.001	6.1777e-06	51.895	0.00056973	0.00053629	0.00013829	1403.4	5.851e-06	5.4929e-06	1401.6	377.12	5.9094e-06	5.7023e-06	428.51	144.81	125.89	43.245	5.6864e-06	53.423	264.236	254.259	228.337	167.612	309.201	303.711	167.645	172.318	316.294	300.129	171.701	176.427	176.553	181.064	302.434	180.297	-8191	255	
780.941	1	1	0	0	0.089611	0.037668	0.17446	0.41837	0.2503	0.15846	0.14079	0.12925	0.101	0.1035	0.2629	0.1783	0.11744	0.22791	0.090045	0.13332	-2.7833	-3.1833	-3.2083	-3.2583	-3.3833	-3.3125	-3.1688	-3.5167	-3.1104	-3.2083	-3.6646	-2.9813	-3.3354	-3.3292	-2.7687	-3.5021	416.596	256.387	485.007	467.207	311.308	275.372	485.661	417.276	464.475	341.731	433.023	414.080	465.684	430.972	392.316	178.473	0.00060517	0.0006486	0.00010804	1380.9	6.7517e-06	4.8144e-06	1378.4	370.39	7.0558e-06	3.3532e-06	420.76	145.99	123.2	42.136	4.6818e-06	51.837	0.00058967	0.00052495	0.00014145	1404	5.6754e-06	5.5948e-06	1401.2	377.5	5.7848e-06	5.6446e-06	429.25	145.45	125.98	43.302	5.9055e-06	53.475	265.593	241.265	232.027	167.430	306.287	306.203	167.435	172.411	313.323	308.531	171.719	177.020	176.776	181.187	305.217	180.042	-8191	255	
781.037	1	1	0	0	0.058713	0.033864	0.23248	0.27827	0.051753	0.24186	0.31302	0.13555	0.18817	0.078776	0.19089	0.26899	0.10455	0.13182	0.18228	0.061635	-2.7604	-3.0458	-3.3583	-3.1188	-3.1521	-3.4958	-3.1708	-3.3875	-3.3729	-3.0812	-3.5833	-3.0187	-3.2021	-3.375	-3.0479	-3.4354	388.687	211.564	419.006	411.068	303.380	214.322	493.186	411.352	475.273	197.923	383.245	193.011	321.440	187.700	379.410	394.345	0.00058104	0.00045489	0.00018101	1380.1	6.7891e-06	7.4259e-06	1383.1	371.32	4.8885e-06	4.1567e-06	420.27	146.2	122.69	42.135	6.3901e-06	52.025	0.00057236	0.00050863	0.0001422	1403	5.6509e-06	5.5356e-06	1401	377.67	5.704e-06	5.591e-06	430.06	145.06	126.1	43.344	5.7446e-06	53.483	266.154	232.414	272.588	167.554	291.951	310.235	167.383	172.188	302.326	273.724	171.737	176.909	176.697	181.232	310.764	180.373	-8191	255	
781.133	1	1	0	0	0.018799	0.019006	0.041896	0.31195	0.099028	0.24439	0.24501	0.18996	0.074075	0.2243	0.30564	0.14715	0.044251	0.14203	0.1385	0.087404	-2.6792	-3.0042	-3.4437	-3.2167	-3.1688	-3.4229	-3.2625	-3.4792	-3.3583	-3.1562	-3.5896	-3.1625	-3.1625	-3.5208	-3.2	-3.3729	193.789	302.409	306.573	473.827	340.136	245.228	447.778	319.003	379.172	339.000	503.659	490.817	483.807	485.345	438.690	195.965	0.00057766	0.00052787	0.00015517	1382.3	6.2802e-06	5.4402e-06	1383.1	370.22	4.7299e-06	3.678e-06	420.3	144.98	123.44	42.142	5.0882e-06	52.142	0.00056223	0.00052477	0.0001437	1404.5	5.8347e-06	5.5907e-06	1402.9	377.9	5.5236e-06	5.5271e-06	429.95	145.29	126.21	43.39	5.7427e-06	53.636	264.574	238.803	264.480	167.526	319.596	302.301	167.558	172.421	327.002	293.337	171.654	176.383	176.665	181.314	316.682	180.455	-8191	255	
781.229	1	1	0	0	0.23107	0.065212	0.16377	0.24252	0.12146	0.21958	0.080645	0.079409	0.21202	0.122	0.13242	0.17844	0.22475	0.29524	0.1161	0.35302	-2.8937	-2.9354	-3.3979	-3.3833	-3.0833	-3.5125	-3.4021	-3.4354	-3.3771	-3.0521	-3.5542	-3.225	-3.1729	-3.6063	-3.1042	-3.4292	308.519	357.389	384.604	463.686	462.486	429.968	379.681	489.242	237.044	474.131	470.401	424.840	459.993	463.995	389.936	451.703	0.0005949	0.00052469	0.00018464	1386.3	8.171e-06	6.4164e-06	1380.5	370.38	6.5312e-06	3.7883e-06	420.51	144.26	123.15	41.985	5.628e-06	52.25	0.00057689	0.00052292	0.00014165	1405.1	5.9455e-06	5.4956e-06	1402.5	378.3	5.631e-06	5.8528e-06	430.08	144.9	126.07	43.266	5.7014e-06	53.506	266.939	241.855	248.798	167.619	302.131	309.326	167.470	172.262	311.411	317.538	171.832	176.875	176.525	181.245	300.177	180.112	-8191	255	
781.350	1	1	0	0	0.19509	0.21742	0.1339	0.39567	0.23651	0.1318	0.21711	0.20645	0.14519	0.22779	0.33964	0.17874	0.13279	0.0038882	0.26361	0.20951	-3.0687	-2.9688	-3.4042	-3.5958	-3.1771	-3.4854	-3.4979	-3.2125	-3.4375	-3.0208	-3.3625	-3.2125	-3.0854	-3.5812	-3.2333	-3.4188	313.848	489.875	271.441	463.350	266.851	431.915	463.194	445.750	243.126	487.826	474.475	195.441	199.297	488.138	166.299	449.054	0.00057032	0.00040164	0.00013864	1378.9	5.9531e-06	5.6662e-06	1380.6	370.95	5.4761e-06	5.507e-06	421.45	144.58	123.26	42.115	5.7279e-06	51.889	0.00055889	0.0005252	0.00013655	1404.3	5.7717e-06	5.4543e-06	1400.6	377.88	5.4868e-06	5.5484e-06	429.72	144.7	126.17	43.322	5.7283e-06	53.502	264.484	244.779	257.481	167.668	323.689	304.210	167.611	172.198	311.241	311.581	171.743	176.173	176.761	181.076	323.994	180.835	-8191	255	
781.422	1	1	0	0	0.02958	0.12734	0.18845	0.35178	0.042532	0.071005	0.25085	0.18159	0.14725	0.18836	0.20965	0.11781	0.37336	0.17581	0.055729	0.25367	-3.0625	-3.0292	-3.3125	-3.375	-3.1042	-3.4854	-3.4271	-3.3729	-3.4542	-3.2292	-3.1917	-3.325	-3.1104	-3.4417	-3.3063	-3.1521	161.411	306.514	377.585	476.578	322.853	412.356	430.561	477.984	383.791	438.374	158.807	209.174	458.109	500.667	377.436	508.602	0.00059139	0.00052332	0.00018569	1378.7	6.2471e-06	3.8197e-06	1380.5	370.09	6.6288e-06	5.5078e-06	420.72	143.65	123.23	42.07	4.4036e-06	52.111	0.00055838	0.00052046	0.0001479	1403.8	5.718e-06	5.4639e-06	1400.6	377.16	5.5355e-06	5.6343e-06	429.77	144.25	126.1	43.335	5.5774e-06	53.518	266.117	211.902	251.211	167.610	307.448	311.237	167.467	172.237	296.797	303.190	171.837	176.920	176.455	181.235	322.820	180.660	-8191	255	
781.542	1	1	0	0	0.10889	0.13196	0.040536	0.19453	0.041728	0.068595	0.20634	0.21223	0.1211	0.17326	0.14214	0.19262	0.11927	0.065509	0.12459	0.19498	-3.1729	-2.9854	-3.3812	-3.5917	-2.9646	-3.4771	-3.3646	-3.1437	-3.3542	-3.1375	-3.3875	-3.2938	-2.9792	-3.5167	-3.275	-3.0833	489.297	245.097	454.427	491.758	331.307	279.093	465.410	439.231	421.134	214.167	456.510	266.868	219.579	238.577	308.885	369.655	0.00057085	0.00058705	0.00011644	1382.1	6.6873e-06	5.9318e-06	1377.3	371.62	6.3939e-06	5.9341e-06	421.33	144.03	122.88	42.165	5.9838e-06	52.066	0.00056459	0.00052908	0.00013846	1404.6	5.9595e-06	5.4439e-06	1402.2	377.86	5.6993e-06	5.8329e-06	429.18	144.97	126.15	43.333	5.6663e-06	53.535	266.172	234.522	259.047	167.652	316.648	313.338	167.453	172.224	312.801	302.690	171.913	176.674	176.899	181.220	317.529	180.466	-8191	255	
781.638	1	1	0	0	0.18995	0.26966	0.34042	0.32886	0.028421	0.15195	0.40506	0.22412	0.06419	0.11968	0.084945	0.11006	0.056617	0.11757	0.12831	0.13932	-3.1667	-3.1833	-3.0521	-3.6458	-3.0146	-3.3667	-3.4583	-3.0146	-3.5062	-3.2396	-3.3292	-3.3771	-3.0729	-3.3958	-3.2271	-3.2042	467.500	179.173	288.435	473.674	245.570	320.023	466.932	471.405	372.826	226.109	470.113	345.608	195.286	486.699	378.067	208.816	0.0005763	0.00060361	0.00012121	1380.5	8.4929e-06	4.7814e-06	1378.2	370.6	5.7102e-06	4.9413e-06	420.16	145.6	122.95	42.069	5.6545e-06	51.888	0.00056208	0.00052637	0.0001427	1402.9	6.0844e-06	5.5459e-06	1401.2	377.77	5.5372e-06	5.8013e-06	429.21	145.36	126.1	43.341	5.6118e-06	53.498	264.152	230.610	254.193	167.625	311.480	293.551	167.618	172.295	332.060	293.050	171.707	176.511	176.937	181.116	300.826	180.360	-8191	255	
781.733	1	1	0	0	0.1492	0.092481	0.291	0.24278	0.16995	0.22037	0.23992	0.15038	0.088491	0.16249	0.30815	0.10126	0.22709	0.12495	0.048491	0.11118	-2.9792	-3.05	-3.1021	-3.6833	-3.1167	-3.2729	-3.6229	-3.1271	-3.5271	-3.2313	-3.3604	-3.3646	-3.0646	-3.3375	-3.4229	-3.1854	372.074	159.062	263.362	459.563	456.314	247.789	464.487	358.270	490.805	215.802	489.726	177.924	463.139	407.609	230.107	446.802	0.00055589	0.00041394	0.00016209	1382.2	5.6914e-06	6.488e-06	1380.3	370.97	5.6987e-06	4.5333e-06	422.28	143.83	123.08	42.062	5.6486e-06	51.77	0.00055787	0.00050499	0.00014739	1403.8	5.6731e-06	5.6878e-06	1400.7	377.68	5.7919e-06	5.5038e-06	429.65	144.62	126.11	43.299	5.6162e-06	53.461	266.248	225.510	263.972	167.580	317.786	310.168	167.654	172.182	316.579	310.523	171.834	176.326	176.824	181.418	303.864	180.256	-8191	255	
781.829	1	1	0	0	0.10647	0.43107	0.070881	0.17018	0.15189	0.084994	0.078471	0.27648	0.19271	0.21531	0.26477	0.12027	0.18766	0.18165	0.22224	0.24812	-3.0208	-3.1063	-2.9854	-3.6146	-3.1708	-3.2042	-3.775	-3.2083	-3.3604	-3.3875	-3.1688	-3.4396	-3.3063	-3.2438	-3.4271	-3.225	450.069	498.822	269.278	475.683	293.862	506.794	415.881	451.744	402.595	495.793	456.708	423.126	195.285	237.429	408.493	439.901	0.00058412	0.00054954	0.00014591	1380.9	6.2852e-06	5.1541e-06	1380.7	369.36	5.3018e-06	3.9206e-06	422.09	145.22	122.54	42.018	5.1337e-06	51.857	0.00056169	0.00049939	0.00014654	1404	5.8744e-06	5.7051e-06	1400.6	377.24	5.5978e-06	5.6941e-06	430.2	145.64	125.84	43.215	5.6231e-06	53.552	265.332	248.688	259.353	167.608	309.511	289.676	167.495	172.383	314.618	308.952	171.755	176.077	176.817	181.385	317.749	180.559	-8191	255	
781.950	1	1	0	0	0.25303	0.015918	0.19244	0.17755	0.23142	0.13917	0.16129	0.12517	0.12815	0.2276	0.47005	0.094559	0.23264	0.15707	0.15886	0.22281	-2.9042	-3.2146	-3.2292	-3.5042	-3.3771	-3.2188	-3.6125	-3.2792	-3.2229	-3.3667	-3.0438	-3.4938	-3.2167	-3.1125	-3.5896	-3.1771	312.190	220.943	274.197	415.369	292.979	296.645	451.350	490.610	381.717	180.886	500.380	246.298	455.680	405.785	355.631	248.051	0.00055855	0.00055532	0.00014496	1381.1	6.3438e-06	4.4757e-06	1381.7	370.21	5.1759e-06	3.2746e-06	419.82	143.51	122.9	42.031	4.6999e-06	51.743	0.00054805	0.00049914	0.00014657	1402.7	5.823e-06	5.7175e-06	1400.4	377.05	5.7046e-06	5.6955e-06	429.24	144.04	125.88	43.262	5.486e-06	53.347	266.372	242.842	274.597	167.642	313.790	305.162	167.541	172.580	306.972	311.640	171.732	176.850	176.703	181.091	316.748	180.232	-8191	255	
782.021	1	1	0	0	0.21442	0.11439	0.18733	0.21306	0.21441	0.11691	0.12322	0.1802	0.1705	0.23637	0.14745	0.38659	0.29074	0.066743	0.17529	0.17133	-2.9354	-3.3375	-2.9625	-3.6646	-3.1188	-3.1979	-3.6771	-3.325	-3.2375	-3.3708	-3.3375	-3.4792	-3.3937	-3.1729	-3.5812	-3.1771	404.758	262.140	433.516	477.091	431.747	250.555	469.869	160.457	169.125	412.095	237.224	233.737	442.948	201.976	167.614	479.349	0.00057213	0.00028882	0.00018147	1378.2	4.9535e-06	4.7771e-06	1382.7	369.95	5.9075e-06	5.9618e-06	419.82	145.17	123.4	41.979	5.5263e-06	51.778	0.00056602	0.00050752	0.00014087	1401.4	5.7326e-06	5.7016e-06	1400	377.16	5.6399e-06	5.4405e-06	429.35	144.53	126.11	43.29	5.8554e-06	53.367	264.766	234.764	249.766	167.667	322.201	292.126	167.554	172.233	317.302	309.398	171.591	176.520	176.586	181.179	308.451	180.273	-8191	255	
782.117	1	1	0	0	0.15942	0.33612	0.055993	0.20224	0.066237	0.17622	0.36822	0.10203	0.063258	0.16461	0.20932	0.083576	0.23142	0.26518	0.0722	0.22884	-2.9875	-3.3792	-3.1688	-3.7896	-3.3854	-3.1437	-3.5667	-3.2958	-3.15	-3.6833	-3.3167	-3.3833	-3.5792	-3.125	-3.5583	-3.2729	381.884	211.316	249.729	471.813	175.620	237.677	473.913	501.369	491.387	201.071	368.848	230.547	335.658	439.331	473.445	314.943	0.00056219	0.00042336	0.00010175	1381.1	5.7117e-06	4.4959e-06	1379.1	370.16	5.1606e-06	4.4803e-06	420	144.95	122.83	41.982	6.8765e-06	52.127	0.00056241	0.00050321	0.00014066	1402.5	5.816e-06	5.6651e-06	1400	377.24	5.6138e-06	5.4618e-06	428.99	145.04	125.85	43.185	5.6269e-06	53.481	265.475	239.683	263.405	167.586	312.426	328.603	167.415	172.426	298.670	303.506	171.987	176.938	176.296	181.275	320.018	180.278	-8191	255	
782.214	1	1	0	0	0.096261	0.13258	0.10119	0.30504	0.055106	0.33361	0.12137	0.073764	0.021627	0.22202	0.18459	0.18939	0.14793	0.17552	0.20839	0.196	-2.7687	-3.5187	-3.0792	-3.4313	-3.4521	-3.2479	-3.6521	-3.4313	-3.0729	-3.6167	-3.0187	-3.3937	-3.4167	-3.2458	-3.4313	-3.6583	303.836	176.369	207.064	438.759	226.319	386.461	425.796	190.698	208.671	396.357	449.027	367.176	499.809	390.799	445.515	463.038	0.00056934	0.00045545	0.00016715	1376	4.7911e-06	7.5815e-06	1381.3	369.9	5.5507e-06	3.4452e-06	419.42	143.66	123.32	41.934	7.7783e-06	51.942	0.00056737	0.00051232	0.00014247	1402.3	5.4047e-06	5.6506e-06	1401.4	377.56	5.7462e-06	5.3072e-06	428.9	144.82	125.99	43.186	5.6745e-06	53.442	264.257	234.889	266.681	167.635	299.998	326.945	167.569	172.406	317.418	303.390	171.806	176.913	176.690	180.965	311.977	180.552	-8191	255	
782.310	1	1	0	0	0.13002	0.094269	0.22814	0.14697	0.16915	0.15476	0.37421	0.20461	0.12505	0.12021	0.15633	0.16807	0.098974	0.16964	0.17808	0.068616	-2.6875	-3.3604	-3.1437	-3.5938	-3.4604	-3.0812	-3.5417	-3.4188	-3.0812	-3.7208	-3.4146	-3.3083	-3.7479	-3.2833	-3.5729	-3.5583	212.726	449.946	251.864	156.835	204.926	229.870	431.532	468.039	337.176	204.444	274.464	409.712	194.239	499.268	368.245	434.512	0.00058099	0.00042728	0.00019074	1379	6.6278e-06	6.9186e-06	1380.4	369.69	5.654e-06	4.4442e-06	420.14	145.37	123.2	42.16	4.4913e-06	51.978	0.00057797	0.00053068	0.00014712	1401.7	5.6153e-06	5.7643e-06	1401.7	377.43	5.6963e-06	5.4962e-06	429.17	144.83	126.03	43.263	5.6081e-06	53.491	264.805	246.619	246.772	167.587	318.869	311.044	167.445	172.427	320.833	299.940	171.834	176.536	176.593	181.063	293.911	180.559	-8191	255	
782.430	1	1	0	0	0.31029	0.24409	0.10732	0.54433	0.32429	0.11555	0.04957	0.26676	0.057009	0.031051	0.11101	0.081924	0.25641	0.14135	0.21845	0.21557	-2.725	-3.4229	-3.125	-3.3312	-3.5	-3.1625	-3.4542	-3.6458	-3.0312	-3.5146	-3.2667	-3.2083	-3.5208	-3.2167	-3.3563	-3.55	241.122	162.027	322.386	441.947	463.067	435.396	428.617	465.979	422.829	197.170	464.938	253.396	444.848	419.973	492.906	347.974	0.00058305	0.00056632	0.0001296	1378	6.2868e-06	5.4857e-06	1377.6	370.14	4.005e-06	5.5268e-06	421.03	143.92	122.66	42.175	6.2437e-06	52.005	0.00057316	0.00049803	0.0001393	1403.4	5.6386e-06	5.7609e-06	1402.1	377.25	5.6939e-06	5.387e-06	429.52	144.73	126.03	43.307	5.707e-06	53.516	267.364	254.437	266.095	167.721	311.226	303.508	167.532	172.189	308.821	320.551	171.657	176.364	176.541	181.136	327.601	180.352	-8191	255	
782.527	1	1	0	0	0.13164	0.22434	0.13274	0.12346	0.23576	0.081416	0.0050191	0.3007	0.03275	0.19516	0.11519	0.31789	0.11157	0.07913	0.20996	0.05608	-2.5333	-3.575	-3.2188	-3.2917	-3.6688	-3.0375	-3.45	-3.5083	-3.2542	-3.5438	-3.4646	-3.0083	-3.6312	-2.9125	-2.9062	-3.3688	194.534	307.242	158.316	494.598	315.551	352.679	155.051	444.522	324.584	461.838	177.961	189.466	478.425	306.886	424.789	321.161	0.00059473	0.00053314	0.00012881	1382.8	7.3691e-06	7.2591e-06	1380.9	369.67	6.0305e-06	5.0325e-06	421.87	146.09	123.56	41.719	5.3099e-06	52.042	0.00057701	0.0005114	0.00014282	1405.4	5.5844e-06	5.7891e-06	1401.2	377.01	5.9159e-06	5.2557e-06	429.48	145.12	126.19	43.232	5.841e-06	53.46	266.872	230.990	260.536	167.747	314.498	296.539	167.520	172.381	316.719	298.883	171.696	176.345	176.760	181.209	319.094	180.396	-8191	255	
782.623	1	1	0	0	0.19249	0.084087	0.14793	0.34242	0.14963	0.084639	0.22782	0.27056	0.051103	0.20225	0.057131	0.17768	0.32328	0.26118	0.084445	0.13915	-2.6271	-3.2188	-3.2146	-3.2521	-3.3354	-3.0271	-3.1792	-3.3542	-2.8688	-3.3271	-3.0938	-2.7479	-3.4562	-2.9437	-3.075	-3.2917	487.836	266.883	309.877	502.024	509.656	377.997	479.145	395.235	194.202	241.064	176.685	325.601	167.215	505.260	184.727	446.841	0.0005739	0.0003786	0.00014532	1382.7	5.2527e-06	5.7295e-06	1376.6	369.18	4.9672e-06	5.1072e-06	420.7	142.49	122.56	41.896	4.2977e-06	52.013	0.00056934	0.00051935	0.00014097	1404.1	5.5791e-06	5.9056e-06	1400.7	376.66	5.7622e-06	5.6618e-06	429.52	144.42	125.9	43.186	5.5918e-06	53.433	264.092	239.270	241.868	167.585	314.172	297.415	167.589	172.089	317.293	297.616	171.887	176.543	176.534	181.035	321.960	180.318	-8191	255	
782.719	1	1	0	0	0.094595	0.097656	0.053009	0.10923	0.26049	0.26362	0.2211	0.13237	0.1983	0.27619	0.18796	0.21658	0.29704	0.20301	0.11588	0.17039	-2.3646	-3.1833	-3.1771	-3.1021	-3.2687	-2.9708	-3.2146	-3.5083	-2.9104	-3.1	-3.3063	-2.8292	-3.2	-3.0896	-2.9	-3.4813	197.774	422.873	222.764	421.936	226.878	395.710	438.003	230.296	436.132	280.632	465.428	192.893	193.314	484.639	415.356	471.166	0.00059948	0.00069858	0.0001309	1383.1	5.7214e-06	6.8383e-06	1380.1	370.02	5.0748e-06	3.8492e-06	419.67	143.93	123.16	41.961	5.2645e-06	52.091	0.00057677	0.00054744	0.00014613	1403.5	6.0126e-06	5.6699e-06	1401.3	376.83	5.9082e-06	5.725e-06	429.45	144.76	125.88	43.169	5.9112e-06	53.388	263.368	239.031	241.372	167.586	309.192	294.625	167.570	172.465	309.799	301.351	171.973	176.943	176.519	181.088	309.505	180.323	-8191	255	
782.813	1	1	0	0	0.078367	0.055626	0.15385	0.17795	0.059173	0.061125	0.074789	0.21107	0.22571	0.079835	0.13125	0.19673	0.08921	0.34027	0.16191	0.09002	-2.4917	-3.0312	-3.1063	-3.0021	-3.1833	-2.9979	-3.1417	-3.3625	-2.85	-3.0042	-3.4167	-2.8563	-3.2208	-3.0625	-2.9771	-3.3104	495.981	203.387	306.903	474.893	237.698	234.659	306.412	505.534	234.062	159.822	487.012	352.148	514.318	461.348	366.417	450.116	0.00057801	0.00044732	0.00012999	1380	6.4874e-06	4.7855e-06	1376	369.34	5.7088e-06	4.4204e-06	418.91	142.28	122.99	41.964	6.2145e-06	51.75	0.00057776	0.00052058	0.00014486	1402.3	5.6947e-06	5.5762e-06	1400.9	377.14	5.7224e-06	5.7071e-06	428.9	144.05	125.99	43.198	5.8993e-06	53.36	267.037	245.757	242.696	167.649	318.698	308.457	167.408	172.402	315.150	305.800	171.956	176.399	176.740	180.944	301.529	180.363	-8191	255	
782.911	1	1	0	0	0.18227	0.10306	0.24842	0.22484	0.21579	0.11155	0.19575	0.15671	0.18441	0.14629	0.097282	0.064132	0.15762	0.38341	0.15815	0.19335	-2.475	-3.0042	-3.4813	-2.9396	-3.0396	-3.0854	-3.1042	-3.4042	-3.0354	-2.9062	-3.3729	-2.8083	-3.2146	-3.2896	-2.7583	-3.3438	211.271	395.428	363.382	494.703	460.760	290.720	488.441	488.373	379.383	295.103	282.138	325.533	414.762	437.081	466.118	402.765	0.00057027	0.00046166	0.00019858	1382.7	5.1953e-06	6.328e-06	1378.4	370.82	6.0821e-06	3.9878e-06	418.13	144.5	122.55	41.924	6.286e-06	51.84	0.00055963	0.0005305	0.00013826	1404.9	5.5791e-06	5.661e-06	1400.3	377.12	5.5746e-06	5.4866e-06	428.44	144.43	125.85	43.141	5.5474e-06	53.335	266.349	244.246	258.338	167.635	308.134	302.878	167.527	172.117	319.439	308.408	171.817	176.921	176.705	181.470	302.385	180.456	-8191	255	
783.030	1	1	0	0	0.26157	0.11212	0.055425	0.26434	0.057689	0.23978	0.091511	0.062429	0.1797	0.083305	0.34884	0.046846	0.3123	0.31115	0.11403	0.20194	-2.5792	-2.9354	-3.2125	-2.9062	-3.0667	-3.2229	-2.7208	-3.1833	-3.1208	-2.8208	-3.4417	-2.9146	-3.05	-3.2708	-2.7771	-3.1729	201.564	492.979	314.595	459.498	167.826	398.185	312.568	242.079	411.619	318.630	468.474	214.632	368.212	177.958	332.859	405.491	0.00057158	0.0005257	0.00015968	1380.2	6.7021e-06	5.1913e-06	1378.4	371.31	5.9394e-06	4.4689e-06	420.58	143.57	122.81	41.941	5.8003e-06	51.943	0.00054996	0.00049662	0.00012493	1403.4	5.1654e-06	5.2241e-06	1400.3	377.32	4.9668e-06	4.785e-06	428.56	143.91	125.89	43.172	4.6719e-06	53.35	266.561	248.419	274.939	167.532	308.704	327.108	167.478	172.145	316.064	307.599	171.847	176.090	176.628	181.284	318.996	180.562	-8191	255	
783.126	1	1	0	0	0.051523	0.21931	0.13896	0.099828	0.09276	0.18089	0.21275	0.2125	0.22337	0.15293	0.33121	0.19557	0.19315	0.15955	0.19059	0.080852	-2.7146	-2.8167	-3.1729	-3.3458	-3.0812	-3.2042	-2.9271	-3.1771	-3.2292	-2.8833	-3.5146	-3.0708	-2.9188	-3.4479	-2.8271	-3.2521	244.038	198.311	444.344	512.658	334.115	404.033	442.882	469.548	283.122	234.105	512.824	189.676	264.819	398.644	345.833	168.469	0.00060441	0.00052918	0.00014138	1375.4	5.6301e-06	4.7873e-06	1380.6	369.65	5.8799e-06	5.7181e-06	420.14	143.68	122.33	41.936	4.277e-06	51.781	0.00051436	0.00042535	0.00011009	1401.5	4.6427e-06	3.957e-06	1396.9	376.64	4.3798e-06	4.1983e-06	428.85	143.49	125.52	43.136	4.156e-06	53.281	264.983	235.437	256.014	167.739	315.512	294.232	167.415	172.535	304.900	301.021	171.841	177.132	176.701	181.314	333.818	180.447	-8191	255	
783.222	1	1	0	0	0.0084064	0.048593	0.11709	0.305	0.39936	0.20292	0.15092	0.15348	0.089557	0.13812	0.018043	0.29618	0.35064	0.29877	0.077963	0.080087	-2.5854	-2.7208	-3.2438	-3.1312	-3.0271	-3.2104	-2.9729	-3.2875	-3.1417	-2.9792	-3.2896	-2.9208	-2.9979	-3.2188	-2.8604	-3.1479	330.452	217.731	166.566	463.129	430.408	182.656	455.919	174.740	240.761	286.079	326.411	418.488	450.662	473.516	427.215	499.175	0.00056779	0.00055344	0.0001578	1373.2	6.4343e-06	4.6858e-06	1379	368.51	4.4119e-06	5.6451e-06	420.71	144.61	122	41.812	5.0454e-06	51.593	0.00046685	0.00033861	9.1134e-05	1398.1	3.8136e-06	3.2832e-06	1396.7	375.55	3.6331e-06	3.617e-06	428.32	144.03	125.26	43.067	3.9224e-06	53.17	265.875	252.452	250.820	167.642	309.664	314.748	167.579	172.133	313.642	295.974	171.849	176.734	176.739	181.100	325.549	180.424	-8191	255	
783.318	1	1	0	0	0.059657	0.053858	0.33531	0.50926	0.17803	0.097019	0.2843	0.15982	0.094292	0.21617	0.095452	0.25545	0.056037	0.15948	0.1194	0.082874	-2.6271	-2.6479	-3.2146	-3.0521	-3.0458	-3.3604	-2.8917	-3.1188	-3.0458	-2.9188	-3.3187	-2.8958	-3.0417	-3.3604	-2.9521	-3.0646	252.924	332.932	383.755	450.349	371.641	222.205	384.072	429.577	270.860	363.751	214.122	508.887	206.865	501.392	177.204	321.373	0.00058197	0.0005783	0.00019535	1378	6.4344e-06	5.9449e-06	1372.2	369.8	5.8709e-06	4.3609e-06	420.83	143.69	122.44	41.756	5.6022e-06	51.832	0.00047327	0.00038592	0.00010229	1400	4.5534e-06	3.977e-06	1395.3	376.57	4.6534e-06	4.7459e-06	428.65	143.9	125.73	43.167	5.1942e-06	53.289	264.849	240.543	256.387	167.585	310.860	316.313	167.581	172.427	306.648	298.086	171.659	176.115	176.691	181.145	318.482	180.410	-8191	255	
#DATA ENDS
