BOXY.EXE: ISS Imagent and Oximeter Data Acquisition Program Version 0.80
Ascii Record File

#ACQ INFORMATION
2  Detector Channels 
16  External MUX Channels 
1  Auxiliary Channels 
5000  Waveform (CCF) Frequency (Hz)
1  Waveforms Skipped 
30  Waveforms Averaged 
1  Cycles Averaged 
16  Acquisitions per Waveform 
10.0806  Updata Rate (Hz) 

#FILE INFORMATION
TRUE -- External MUX Channel results are PARSED.
FALSE -- AC DC and Phase are NOT grouped.
TRUE -- Companion Program Settings File CREATED.
FALSE -- AC data not excluded
FALSE -- DC data not excluded
FALSE -- Phase data not excluded
FALSE -- Auxillary Chn. data not excluded
Tab delimiters

#CALIBRATION STATE
TRUE -- Waveform Calibration Values APPLIED.


#AUX CALIBRATION VALUES
Val Type	aux-1	

Term	1.0000e+00	
Factor	0.0000e+00	


#WF CALIBRATION VALUES
A = Detector Channel
Val Type	A-AC1	A-AC2	A-AC3	A-AC4	A-AC5	A-AC6	A-AC7	A-AC8	A-AC9	A-AC10	A-AC11	A-AC12	A-AC13	A-AC14	A-AC15	A-AC16	A-DC1	A-DC2	A-DC3	A-DC4	A-DC5	A-DC6	A-DC7	A-DC8	A-DC9	A-DC10	A-DC11	A-DC12	A-DC13	A-DC14	A-DC15	A-DC16	A-Ph1	A-Ph2	A-Ph3	A-Ph4	A-Ph5	A-Ph6	A-Ph7	A-Ph8	A-Ph9	A-Ph10	A-Ph11	A-Ph12	A-Ph13	A-Ph14	A-Ph15	A-Ph16	

Term	0.00000e+00	0.00000e+00	0.00000e+00	0.00000e+00	0.00000e+00	0.00000e+00	0.00000e+00	0.00000e+00	0.00000e+00	0.00000e+00	0.00000e+00	0.00000e+00	0.00000e+00	0.00000e+00	0.00000e+00	0.00000e+00	0.00000e+00	0.00000e+00	0.00000e+00	0.00000e+00	0.00000e+00	0.00000e+00	0.00000e+00	0.00000e+00	0.00000e+00	0.00000e+00	0.00000e+00	0.00000e+00	0.00000e+00	0.00000e+00	0.00000e+00	0.00000e+00	0.00000e+00	0.00000e+00	0.00000e+00	0.00000e+00	0.00000e+00	0.00000e+00	0.00000e+00	0.00000e+00	0.00000e+00	0.00000e+00	0.00000e+00	0.00000e+00	0.00000e+00	0.00000e+00	0.00000e+00	0.00000e+00	
Factor	1.00000e+00	1.00000e+00	1.00000e+00	1.00000e+00	1.00000e+00	1.00000e+00	1.00000e+00	1.00000e+00	1.00000e+00	1.00000e+00	1.00000e+00	1.00000e+00	1.00000e+00	1.00000e+00	1.00000e+00	1.00000e+00	1.00000e+00	1.00000e+00	1.00000e+00	1.00000e+00	1.00000e+00	1.00000e+00	1.00000e+00	1.00000e+00	1.00000e+00	1.00000e+00	1.00000e+00	1.00000e+00	1.00000e+00	1.00000e+00	1.00000e+00	1.00000e+00	X	X	X	X	X	X	X	X	X	X	X	X	X	X	X	X	

B = Detector Channel
Val Type	B-AC1	B-AC2	B-AC3	B-AC4	B-AC5	B-AC6	B-AC7	B-AC8	B-AC9	B-AC10	B-AC11	B-AC12	B-AC13	B-AC14	B-AC15	B-AC16	B-DC1	B-DC2	B-DC3	B-DC4	B-DC5	B-DC6	B-DC7	B-DC8	B-DC9	B-DC10	B-DC11	B-DC12	B-DC13	B-DC14	B-DC15	B-DC16	B-Ph1	B-Ph2	B-Ph3	B-Ph4	B-Ph5	B-Ph6	B-Ph7	B-Ph8	B-Ph9	B-Ph10	B-Ph11	B-Ph12	B-Ph13	B-Ph14	B-Ph15	B-Ph16	

Term	0.00000e+00	0.00000e+00	0.00000e+00	0.00000e+00	0.00000e+00	0.00000e+00	0.00000e+00	0.00000e+00	0.00000e+00	0.00000e+00	0.00000e+00	0.00000e+00	0.00000e+00	0.00000e+00	0.00000e+00	0.00000e+00	0.00000e+00	0.00000e+00	0.00000e+00	0.00000e+00	0.00000e+00	0.00000e+00	0.00000e+00	0.00000e+00	0.00000e+00	0.00000e+00	0.00000e+00	0.00000e+00	0.00000e+00	0.00000e+00	0.00000e+00	0.00000e+00	-5.49489e+01	-1.30018e+02	-1.15029e+02	-1.82000e+02	-4.48403e+01	-6.38213e+01	-1.54057e+02	-1.62015e+02	-3.85132e+01	-6.38819e+01	-1.69547e+02	-1.75151e+02	-1.81293e+02	-1.75935e+02	-4.59049e+01	-1.48675e+02	
Factor	1.87765e-05	1.88899e-04	5.74682e-05	1.52957e-01	1.97764e-06	2.23793e-06	1.65064e-01	6.35851e-02	1.55218e-06	1.92868e-06	8.55358e-02	2.11266e-01	3.09704e-02	8.91294e-03	1.86578e-06	1.29532e-02	1.43335e-05	2.95678e-05	8.19797e-06	7.80900e-02	2.80065e-07	3.30729e-07	7.91658e-02	3.25726e-02	2.84905e-07	3.29813e-07	4.25583e-02	1.04478e-01	1.60749e-02	4.61447e-03	3.00568e-07	6.47548e-03	X	X	X	X	X	X	X	X	X	X	X	X	X	X	X	X	



#DISTANCE SETTINGS
A = Detector Channel
A-1	A-2	A-3	A-4	A-5	A-6	A-7	A-8	A-9	A-10	A-11	A-12	A-13	A-14	A-15	A-16	

2.5000e+00	3.0000e+00	2.5000e+00	3.0000e+00	2.0000e+00	3.0000e+00	1.5000e+00	3.0000e+00	3.0000e+00	3.0000e+00	3.0000e+00	3.0000e+00	3.0000e+00	3.0000e+00	1.5000e+00	3.0000e+00	

B = Detector Channel
B-1	B-2	B-3	B-4	B-5	B-6	B-7	B-8	B-9	B-10	B-11	B-12	B-13	B-14	B-15	B-16	

1.0000e+01	1.0000e+01	1.0000e+01	1.4400e+00	1.0000e+01	1.0000e+01	1.5100e+00	1.9400e+00	1.0000e+01	1.0000e+01	1.9900e+00	2.4900e+00	2.4100e+00	2.9000e+00	1.0000e+01	2.9800e+00	




#DATA BEGINS
time	group	step	mark	flag	A-AC1	A-AC2	A-AC3	A-AC4	A-AC5	A-AC6	A-AC7	A-AC8	A-AC9	A-AC10	A-AC11	A-AC12	A-AC13	A-AC14	A-AC15	A-AC16	A-DC1	A-DC2	A-DC3	A-DC4	A-DC5	A-DC6	A-DC7	A-DC8	A-DC9	A-DC10	A-DC11	A-DC12	A-DC13	A-DC14	A-DC15	A-DC16	A-Ph1	A-Ph2	A-Ph3	A-Ph4	A-Ph5	A-Ph6	A-Ph7	A-Ph8	A-Ph9	A-Ph10	A-Ph11	A-Ph12	A-Ph13	A-Ph14	A-Ph15	A-Ph16	B-AC1	B-AC2	B-AC3	B-AC4	B-AC5	B-AC6	B-AC7	B-AC8	B-AC9	B-AC10	B-AC11	B-AC12	B-AC13	B-AC14	B-AC15	B-AC16	B-DC1	B-DC2	B-DC3	B-DC4	B-DC5	B-DC6	B-DC7	B-DC8	B-DC9	B-DC10	B-DC11	B-DC12	B-DC13	B-DC14	B-DC15	B-DC16	B-Ph1	B-Ph2	B-Ph3	B-Ph4	B-Ph5	B-Ph6	B-Ph7	B-Ph8	B-Ph9	B-Ph10	B-Ph11	B-Ph12	B-Ph13	B-Ph14	B-Ph15	B-Ph16	aux-1	digaux	

1504.720	1	1	0	512	0.095517	0.13949	0.17498	0.23875	0.073023	0.22003	0.11696	0.27234	0.15398	0.1369	0.11964	0.2968	0.11387	0.10481	0.18977	0.30653	-2.5708	-3.1667	-2.6188	-3.2479	-3.1083	-2.9062	-3.4375	-2.9667	-2.95	-3.1354	-2.9333	-3.2562	-3.1792	-2.9792	-3.2979	-3.2354	-62.175	206.269	190.975	177.411	15.575	51.939	137.146	209.601	74.162	137.127	-55.480	-92.198	99.817	-89.246	137.387	212.306	0.00052125	0.00036137	0.00021096	737.33	7.1688e-06	3.6158e-06	797.85	272.75	5.1021e-06	3.9428e-06	366.29	160.3	125.93	61.297	5.018e-06	92.473	0.0025838	0.0046113	0.0012601	733.55	4.4074e-05	5.1831e-05	798.17	274.94	4.5051e-05	5.2453e-05	369.18	178.92	127.67	61.732	4.7892e-05	92.952	-89.933	0.649	-100.957	-104.591	38.422	-52.830	-104.638	-99.447	9.301	28.764	-101.003	-96.264	-96.125	-93.431	-27.883	-94.902	-8191	255	
1504.791	1	1	0	0	0.20367	0.051677	0.11596	0.14123	0.1295	0.11895	0.075057	0.19883	0.14965	0.23635	0.21942	0.20277	0.1785	0.087177	0.15567	0.29269	-2.6521	-3.1125	-2.7542	-3.2896	-3.0708	-2.8563	-3.3167	-2.9625	-2.9542	-3.3104	-2.9854	-2.9875	-3.3146	-2.7333	-3.3354	-3.3208	122.383	-109.088	166.067	195.382	91.268	56.959	58.060	108.671	158.969	-69.714	168.113	2.461	147.936	99.125	-29.933	168.268	0.00053189	0.00079211	0.00021465	734	7.011e-06	6.9128e-06	800.33	271.19	5.8456e-06	4.0519e-06	368.14	161.28	126.25	61.418	7.5429e-06	92.524	0.0026647	0.0046401	0.0012899	732.05	4.3492e-05	5.2358e-05	797.26	273.68	4.4002e-05	5.0856e-05	369.73	179.42	127.61	61.858	4.755e-05	93.04	-92.806	-48.945	-0.625	-104.303	76.737	27.912	-104.830	-99.698	-4.164	31.083	-101.123	-96.210	-96.070	-93.204	64.195	-94.824	-8191	255	
1504.888	1	1	0	0	0.072595	0.19276	0.24919	0.22101	0.019642	0.20576	0.048791	0.37379	0.20661	0.17533	0.14628	0.15137	0.197	0.40561	0.25772	0.090968	-2.5312	-3.2146	-2.8417	-2.9979	-3.1792	-2.7271	-3.1688	-3.0687	-2.6479	-3.3667	-3.2	-3.1937	-3.1312	-2.7833	-3.1354	-3.1604	153.648	40.960	188.210	179.019	142.421	-10.422	16.762	211.454	197.948	232.926	-27.890	213.824	45.928	198.395	-111.533	24.887	0.00053616	0.0005063	0.00020327	733.53	4.1346e-06	6.7633e-06	802.06	272.96	2.9247e-06	4.8171e-06	369.02	160.24	127.41	61.572	8.9068e-06	92.935	0.0026008	0.0045769	0.0012868	732	4.3629e-05	5.093e-05	799.08	275.27	4.4801e-05	5.0437e-05	371.71	179.69	128.25	61.987	4.6351e-05	93.465	-87.748	-53.074	-2.661	-104.594	102.875	-5.414	-104.686	-99.622	-8.176	36.379	-100.942	-96.070	-96.546	-93.385	42.289	-95.013	-8191	255	
1505.008	1	1	0	0	0.091286	0.22346	0.066623	0.12991	0.1796	0.17579	0.20023	0.23315	0.04905	0.34976	0.055592	0.10914	0.18422	0.22995	0.32702	0.05301	-2.4313	-3.2125	-2.8667	-3.1063	-3.2833	-2.9354	-3.2687	-3.3917	-2.8604	-3.4688	-3.0521	-3.025	-3.3479	-3.0083	-3.1667	-3.2417	-70.635	83.216	214.367	-55.614	205.834	-53.338	237.708	-70.063	-25.248	-52.694	216.230	-111.610	-70.809	194.668	183.264	221.961	0.00053976	0.00091392	0.00021274	731.66	6.2127e-06	6.7398e-06	802.43	273.55	8.1544e-06	8.3819e-06	372.23	163.13	127.16	61.489	3.1126e-06	93.652	0.0026036	0.0045173	0.0012581	732.65	4.3208e-05	5.0841e-05	801.05	276.03	4.4391e-05	4.9664e-05	373.56	179.91	128.58	62.151	4.6125e-05	94.074	-89.812	-29.957	-19.445	-104.418	11.614	36.933	-104.638	-99.644	28.180	7.832	-100.884	-96.497	-96.484	-93.378	33.595	-94.819	-8191	255	
1505.104	1	1	0	0	0.20677	0.095183	0.11109	0.23678	0.24265	0.11839	0.080454	0.15071	0.21039	0.091073	0.14407	0.075151	0.094014	0.037732	0.086085	0.25749	-2.3312	-3.2292	-3.0604	-2.9813	-3.1354	-2.9458	-3.3396	-3.3979	-2.8563	-3.2271	-3.1	-2.8812	-3.4958	-3.0771	-3.0104	-3.3688	29.925	235.216	209.412	-106.974	-74.009	10.581	-7.066	-111.895	66.740	112.896	207.379	229.981	18.297	231.846	-53.047	178.183	0.00051302	0.00091143	0.00018156	733.78	4.9149e-06	1.377e-05	799.58	272.89	3.0326e-06	2.9276e-06	368.82	163.05	126.21	61.23	7.1059e-06	92.536	0.0025977	0.0045721	0.0012608	731.29	4.2845e-05	5.0247e-05	800.01	274.88	4.4756e-05	5.0068e-05	371.61	180.29	127.66	61.673	4.7065e-05	93.012	-83.399	-24.548	18.896	-104.561	41.161	1.989	-104.549	-99.766	18.711	82.316	-101.155	-96.026	-96.142	-93.386	94.591	-94.798	-8191	255	
1505.200	1	1	0	0	0.063161	0.06897	0.084235	0.20537	0.27922	0.20401	0.17315	0.10505	0.05451	0.029171	0.14101	0.17249	0.38636	0.26727	0.24055	0.034946	-2.4542	-3.2167	-3.0146	-2.7979	-3.3521	-2.7833	-3.1562	-3.275	-2.8354	-3.2438	-3.2542	-2.9458	-3.2854	-3.1292	-2.9188	-3.3208	143.431	106.722	-72.377	73.187	149.799	72.448	209.384	208.116	-60.310	160.573	202.158	20.097	214.004	230.894	149.972	139.871	0.00050062	0.00080544	0.00019799	730.11	4.2947e-06	6.4234e-06	801.19	271.34	3.0175e-06	9.6539e-06	367.38	160.51	125.43	60.656	1.2653e-05	92.158	0.0025775	0.0045604	0.0012738	730.26	4.3885e-05	5.1031e-05	799.36	273.54	4.4905e-05	5.1161e-05	370.25	179.55	127.02	61.12	4.6729e-05	92.813	-82.623	-55.280	-17.440	-104.758	17.479	16.772	-105.028	-99.587	15.398	7.535	-101.071	-96.076	-96.486	-93.470	0.717	-94.981	-8191	255	
1505.321	1	1	0	0	0.064147	0.32971	0.088486	0.26454	0.15011	0.14553	0.21253	0.084434	0.16159	0.13925	0.11851	0.0904	0.26118	0.42615	0.17118	0.22884	-2.6667	-3.1604	-3.2021	-2.9729	-3.1292	-2.9146	-3.0042	-3.3438	-2.9042	-3.1688	-3.1771	-2.9458	-3.2062	-3.1958	-2.8958	-3.3979	-7.789	52.546	13.111	-110.096	78.454	86.506	218.415	-94.462	17.925	48.799	-16.488	154.212	238.794	186.360	-18.487	170.505	0.00050032	0.00048605	0.00017795	730.84	3.4222e-06	4.4884e-06	799.89	270.77	3.8854e-06	7.344e-06	369.1	164	125.72	61.153	3.6196e-06	92.841	0.0026172	0.0045271	0.0012725	727.87	4.3456e-05	5.053e-05	798.66	273.75	4.374e-05	5.0411e-05	370.94	179.75	127.3	61.485	4.6856e-05	93.124	-87.016	-87.292	-48.949	-104.503	145.385	4.496	-105.084	-99.433	51.217	-34.356	-101.005	-96.058	-96.314	-93.454	70.788	-95.009	-8191	255	
1505.393	1	1	0	0	0.2484	0.14963	0.1235	0.24928	0.094347	0.18895	0.03911	0.24652	0.19327	0.11575	0.22638	0.10867	0.12208	0.24678	0.1813	0.086105	-2.5104	-3.1896	-3.2521	-2.8021	-3.5375	-3.2729	-3.0271	-3.5583	-3.025	-3.1583	-3.4521	-2.7875	-3.2104	-3.2479	-2.8479	-3.3458	-4.107	164.590	150.901	171.712	172.513	100.634	193.830	-113.184	129.049	105.088	179.784	224.309	-31.235	214.539	-64.772	182.078	0.00059706	0.00096423	0.000199	729.2	1.014e-05	1.0247e-05	802.42	271.29	4.824e-06	3.9427e-06	370.67	163.18	125.97	61.055	7.407e-06	93.038	0.0025506	0.0045748	0.0012576	728.59	4.322e-05	5.0243e-05	800.5	274.15	4.4341e-05	4.9763e-05	372.3	180.23	127.48	61.493	4.6418e-05	93.61	-90.250	-38.857	6.460	-104.547	41.978	41.093	-104.767	-99.553	78.795	28.516	-100.996	-95.592	-96.433	-93.381	116.227	-94.922	-8191	255	
1505.489	1	1	0	0	0.065055	0.1617	0.067757	0.13875	0.2616	0.028324	0.22738	0.11446	0.25007	0.10195	0.18166	0.09602	0.07356	0.10883	0.36273	0.11316	-2.4958	-2.9917	-3.3292	-2.8688	-3.2229	-3.0667	-2.9521	-3.3896	-2.9958	-3.1312	-3.4375	-2.6667	-3.375	-3.3646	-2.8833	-3.5583	-60.760	174.718	174.056	193.385	48.470	151.837	116.175	187.117	-49.895	97.029	197.594	131.215	241.651	210.418	77.541	-115.773	0.00058509	0.00050709	0.00010965	734.47	3.8787e-06	5.6015e-06	800.84	273.15	7.6188e-06	4.6151e-06	370.58	161.47	126.68	61.451	7.2311e-06	93.643	0.0025315	0.0044026	0.0012577	730.44	4.2364e-05	4.961e-05	801.95	273.86	4.2302e-05	4.8406e-05	372.26	179.38	127.78	61.757	4.4641e-05	94.031	-88.652	-39.077	-13.605	-104.818	110.514	72.080	-104.742	-99.418	68.394	14.854	-101.090	-96.297	-96.579	-93.610	41.664	-94.821	-8191	255	
1505.608	1	1	0	0	0.10372	0.35182	0.14975	0.16958	0.20416	0.25436	0.10012	0.060524	0.18348	0.25896	0.14679	0.084938	0.13908	0.29866	0.081022	0.28912	-2.6813	-2.8646	-3.3375	-2.9146	-3.05	-3.225	-2.9604	-3.1729	-3.0667	-2.9125	-3.3125	-3.0667	-3.1104	-3.4104	-2.9771	-3.3812	12.970	60.607	24.767	219.861	16.631	-18.540	143.869	146.977	-100.744	116.221	241.489	87.520	205.087	-103.678	-83.827	235.142	0.0005747	0.00080765	0.00021537	731.42	2.3752e-06	1.3585e-05	804.81	271.52	2.4982e-06	1.1842e-05	371.04	162.43	125.63	60.798	5.1844e-06	93.12	0.0024831	0.0043386	0.0011993	730.29	4.1164e-05	4.8135e-05	801.6	273.63	4.161e-05	4.8159e-05	371.94	178.36	126.97	61.217	4.3642e-05	93.426	-88.465	-50.455	-23.259	-104.569	49.916	59.161	-104.852	-99.593	216.254	36.971	-100.823	-96.144	-96.287	-93.421	70.109	-94.799	-8191	255	
1505.704	1	1	0	0	0.07402	0.2459	0.13512	0.092706	0.039963	0.13667	0.22536	0.076317	0.41771	0.14557	0.35885	0.16998	0.082187	0.10188	0.084904	0.2645	-2.6646	-3.0208	-3.3	-2.9875	-3.1312	-3.1792	-2.9646	-3.4792	-3.0667	-3.0938	-3.4104	-2.9146	-3.1437	-3.3563	-2.9625	-3.2958	-2.853	48.992	25.060	-73.856	-92.858	185.373	75.545	-11.484	90.669	-80.597	233.195	191.033	215.442	170.717	156.451	235.859	0.00054339	0.00051718	0.00018077	730.99	8.0787e-06	1.0394e-05	806.41	271.2	6.5618e-06	6.5635e-06	368.34	161.93	124.95	60.808	7.2152e-06	92.937	0.0024048	0.00419	0.0011505	726.91	3.9293e-05	4.6109e-05	801.98	272.59	4.0788e-05	4.5714e-05	370.41	178.57	126.29	61.135	4.2415e-05	93.585	-90.326	-24.175	-10.440	-104.815	34.390	25.789	-104.653	-99.478	24.286	67.132	-100.860	-96.114	-96.522	-93.366	26.474	-94.758	-8191	255	
1505.800	1	1	0	0	0.1985	0.2549	0.22721	0.044146	0.15294	0.27145	0.13188	0.058534	0.20836	0.26482	0.080608	0.3177	0.29766	0.089215	0.15041	0.37558	-2.6125	-2.9354	-3.4271	-2.8521	-3.0271	-3.2479	-3.1521	-3.3229	-3.1896	-2.8521	-3.4313	-3.0146	-3.1063	-3.3	-2.7854	-3.4021	157.240	48.078	-38.112	-60.513	-88.401	150.646	171.912	199.472	-20.819	104.517	136.116	19.835	176.055	159.918	6.950	155.766	0.0005162	0.00051115	8.2711e-05	730.31	7.5289e-06	5.9708e-06	804.19	269.26	4.6455e-06	5.8099e-06	366.7	163.95	125.04	60.912	4.4255e-06	93.106	0.0023618	0.0040918	0.0011286	728.04	3.9538e-05	4.6556e-05	801.54	271.07	4.0248e-05	4.6432e-05	369.75	178.08	126.07	61.265	4.2744e-05	93.836	-84.612	-68.756	-36.668	-104.531	90.415	-23.653	-104.669	-99.386	36.298	-1.134	-101.219	-96.431	-96.505	-93.397	37.833	-94.658	-8191	255	
1505.896	1	1	0	0	0.19682	0.1112	0.14855	0.20801	0.070924	0.13112	0.23411	0.20144	0.084321	0.21087	0.14855	0.24513	0.20973	0.22451	0.14937	0.091738	-2.8312	-2.8917	-3.3187	-3.0187	-3.0646	-3.4667	-2.9938	-3.1937	-3.2812	-2.8417	-3.3812	-3.1104	-3.0563	-3.4146	-3.0104	-3.2208	221.922	-99.195	82.048	139.761	167.892	-111.305	173.028	234.343	101.206	148.238	149.528	139.340	172.165	172.972	-13.372	168.096	0.00057003	0.00061544	0.00018296	728.87	6.4621e-06	1.6386e-06	805.19	269.01	5.3564e-06	8.235e-06	366.96	162.86	124.6	60.862	6.9207e-06	93.343	0.002392	0.0041982	0.0011468	726.04	4.0315e-05	4.6797e-05	799.92	270.99	4.1042e-05	4.7235e-05	369.04	178.07	125.96	61.31	4.3539e-05	93.851	-88.123	-20.054	-19.288	-104.247	44.129	36.165	-104.777	-99.620	22.708	-1.139	-100.884	-95.769	-96.152	-93.339	34.071	-94.628	-8191	255	
1505.970	1	1	0	0	0.083083	0.13471	0.052422	0.16761	0.15644	0.05265	0.22708	0.055901	0.04448	0.13349	0.11318	0.053133	0.2752	0.042473	0.066707	0.094796	-2.7625	-2.9604	-3.2708	-3.3396	-2.9625	-3.2958	-3.0417	-3.1083	-3.2562	-2.8917	-3.2896	-3.1688	-3.0125	-3.3771	-2.9333	-3.2104	-106.993	12.196	50.109	36.282	67.058	-65.036	225.555	-9.243	-66.154	-11.500	-71.246	159.935	-66.560	-62.684	103.946	-56.709	0.00050746	0.0004891	0.00022016	725.81	7.4765e-06	4.266e-06	803.72	269.77	6.0952e-06	9.4855e-06	368.19	160.27	123.84	61.026	4.0724e-06	93.342	0.0024538	0.0042963	0.0011768	725.08	4.0962e-05	4.8261e-05	800.51	270.71	4.2043e-05	4.9317e-05	369.41	178.5	125.65	61.329	4.578e-05	93.856	-85.346	-42.326	-33.219	-104.465	62.532	-15.673	-104.489	-99.428	47.305	31.110	-100.689	-96.270	-96.329	-93.435	94.191	-94.802	-8191	255	
1506.089	1	1	0	0	0.11515	0.13284	0.099086	0.026458	0.02069	0.065015	0.20144	0.14399	0.14899	0.34268	0.29492	0.12158	0.034783	0.032487	0.060923	0.23243	-2.9208	-2.8625	-3.075	-3.2479	-2.6875	-3.3708	-3.1396	-2.9271	-3.4229	-2.8688	-3.25	-3.2167	-3.0771	-3.2396	-3.0187	-3.0604	61.424	-100.364	137.262	119.579	26.068	101.768	238.859	106.231	-100.083	-65.779	190.637	-41.285	103.470	175.307	37.307	196.396	0.00054937	0.00060711	4.2322e-05	725.62	6.5032e-06	6.9924e-06	800.49	267.79	6.7334e-06	8.4167e-06	364.37	162.76	123.29	60.045	7.608e-06	92.015	0.0025401	0.0043863	0.0012191	723.83	4.1722e-05	4.8734e-05	797.96	269.91	4.2281e-05	4.8898e-05	366.65	177.96	124.82	60.625	4.6918e-05	92.74	-91.874	-52.542	-53.311	-104.406	41.062	45.416	-104.580	-99.865	27.318	66.011	-100.808	-96.512	-96.459	-93.418	-4.203	-94.866	-8191	255	
1506.185	1	1	0	0	0.19583	0.14937	0.10114	0.035846	0.10157	0.30674	0.20678	0.39318	0.19875	0.05783	0.048741	0.26476	0.20853	0.3271	0.13612	0.25433	-2.8417	-2.8729	-3.0958	-3.2771	-2.9271	-3.2583	-3.0708	-2.9604	-3.2062	-2.9333	-3.1458	-3.2542	-2.8792	-3.2375	-3.2396	-3.075	-26.069	-56.662	200.831	46.472	-109.757	222.299	233.540	112.139	128.262	167.759	229.203	93.503	140.023	235.258	55.238	-104.391	0.00053415	0.00074223	0.00016527	724.31	6.6911e-06	3.6928e-06	800.18	267.18	6.201e-06	4.5022e-06	363.84	159.26	123.22	60.218	8.8204e-06	92.488	0.0025743	0.0046085	0.001267	721.35	4.3792e-05	5.0079e-05	796.74	268.74	4.4499e-05	5.1219e-05	367.2	178.07	124.8	60.642	4.7729e-05	92.915	-91.745	-27.410	12.233	-104.593	52.069	27.775	-105.103	-99.452	18.685	1.123	-101.092	-96.043	-96.469	-93.157	6.805	-94.851	-8191	255	
1506.281	1	1	0	0	0.29189	0.16555	0.17217	0.055291	0.14153	0.11987	0.31698	0.13508	0.23249	0.044011	0.090131	0.26874	0.12545	0.048999	0.21495	0.34424	-2.8042	-2.9229	-3.1083	-3.2917	-2.875	-3.2542	-3.3625	-2.9708	-3.3563	-3.0396	-3.1312	-3.3063	-2.9021	-3.3646	-3.1667	-2.9854	237.254	2.144	192.546	0.547	171.120	-22.717	68.251	31.755	18.002	-101.675	161.883	179.590	131.304	-104.791	206.554	177.004	0.00051612	0.0011089	0.00024738	717.57	3.7635e-06	5.5168e-06	798.04	265.95	9.1388e-06	3.662e-06	364.4	159.72	123.33	59.982	2.0053e-06	92.075	0.0026034	0.0046114	0.0012905	719.89	4.3931e-05	5.1566e-05	796.61	268.87	4.5655e-05	5.2352e-05	367.02	178.03	124.6	60.609	4.8379e-05	92.911	-85.501	-64.758	30.196	-104.521	-2.412	67.478	-104.732	-99.344	99.537	18.694	-100.970	-96.287	-96.526	-93.199	-27.439	-94.460	-8191	255	
1506.401	1	1	0	0	0.23987	0.24407	0.1194	0.2099	0.14567	0.13489	0.11792	0.233	0.3083	0.063842	0.13398	0.19316	0.13965	0.022068	0.22074	0.27807	-2.6813	-2.8229	-3	-3.3354	-2.9854	-3.0208	-3.0812	-2.8979	-3.2979	-3.0542	-3.0479	-3.3375	-2.7958	-3.1312	-3.2292	-2.9104	15.982	168.724	-85.993	-33.755	-53.506	164.816	196.767	172.028	31.114	-22.068	214.356	165.668	-53.607	214.691	111.888	114.468	0.0004977	0.00073684	0.00025981	719.65	1.1569e-05	5.4439e-06	795.19	266.85	2.3744e-06	5.0193e-06	365.32	160.21	123.2	60.192	7.2514e-06	92.648	0.002654	0.0047466	0.0013131	721.42	4.4951e-05	5.2772e-05	795.19	268.61	4.5587e-05	5.2613e-05	367.5	178.69	124.87	60.741	4.9234e-05	93.272	-88.981	10.078	-24.855	-104.561	52.603	180.145	-104.893	-99.559	13.470	83.865	-100.702	-95.828	-96.511	-93.530	16.757	-94.603	-8191	255	
1506.496	1	1	0	0	0.18971	0.040912	0.22221	0.15603	0.19023	0.14807	0.30066	0.07749	0.16637	0.10614	0.20447	0.23692	0.28335	0.34147	0.097696	0.27275	-2.9854	-3.0646	-2.7833	-3.3854	-2.9	-3.275	-3.2833	-2.9917	-3.2958	-3.0396	-3.0458	-3.225	-3.0083	-3.0146	-3.3563	-2.9958	160.110	129.002	168.235	-37.017	89.756	129.652	89.725	226.696	-6.459	-94.310	130.506	-82.910	193.221	202.551	-13.243	145.261	0.00054967	0.00068637	0.00017494	718.45	2.662e-06	7.0244e-06	799.58	268.4	6.1008e-06	6.3308e-06	366.83	160.74	123.3	60.314	2.6775e-06	92.035	0.0026506	0.0047968	0.0013204	721.24	4.6078e-05	5.3925e-05	797.68	269.92	4.7406e-05	5.3943e-05	368.01	178.73	124.92	60.786	5.014e-05	92.901	-88.279	-35.526	3.605	-104.560	71.093	45.050	-104.715	-99.406	65.372	55.092	-100.801	-97.329	-96.212	-93.312	-35.535	-94.844	-8191	255	
1506.592	1	1	0	0	0.081196	0.2569	0.024561	0.35108	0.077864	0.10699	0.19439	0.06198	0.17259	0.041681	0.28555	0.076867	0.37002	0.026936	0.16079	0.19863	-2.7125	-3.05	-2.7	-3.3417	-3.0292	-3.1021	-3.1312	-2.8812	-3.1771	-3.3021	-2.9458	-3.3271	-2.9479	-3.1792	-3.2021	-3.0375	-5.061	-30.496	-49.791	217.490	141.317	55.800	126.495	163.081	73.951	95.489	29.524	-62.846	113.809	-96.462	158.929	150.404	0.00053248	0.00038041	0.00020175	722.74	4.8855e-06	5.8924e-06	792.73	265.04	2.9057e-06	1.0239e-05	364.07	159.72	123.2	59.686	7.5201e-06	91.627	0.002735	0.0048848	0.0013596	720.52	4.6357e-05	5.5424e-05	794.75	268.39	4.7859e-05	5.3803e-05	366.4	179.33	124.68	60.304	5.0529e-05	92.336	-82.387	-32.591	-2.071	-104.553	56.184	26.883	-104.644	-99.615	221.332	26.129	-100.877	-96.096	-96.366	-93.329	35.770	-94.986	-8191	255	
1506.690	1	1	0	0	0.11725	0.23093	0.19804	0.32657	0.092708	0.28067	0.14702	0.061071	0.13326	0.096858	0.35699	0.24224	0.23892	0.28959	0.19137	0.11131	-2.725	-3.1875	-2.6104	-3.3708	-3.1937	-3.0646	-3.3333	-2.8125	-3.0521	-3.1729	-2.7333	-3.1458	-3.2938	-2.8792	-3.2792	-3.0833	55.357	-77.411	143.990	116.805	-106.705	-10.291	119.266	-32.034	62.972	195.073	197.656	-37.304	-34.201	209.606	59.974	38.893	0.00057451	0.00088494	0.00022808	719.08	3.219e-06	9.3206e-06	795.3	266.17	3.3059e-06	5.7718e-06	366.09	159.61	123.07	59.641	6.3396e-06	91.844	0.0027445	0.0048996	0.001339	719.55	4.6561e-05	5.5064e-05	794.42	268.65	4.7874e-05	5.5174e-05	368.26	179.17	124.8	60.364	5.0002e-05	92.515	-90.068	-40.861	-23.152	-104.706	14.803	6.698	-104.549	-99.570	103.681	20.336	-100.942	-96.499	-96.371	-93.502	54.811	-94.637	-8191	255	
1506.784	1	1	0	0	0.22489	0.071509	0.15677	0.2926	0.079635	0.08508	0.18644	0.13596	0.17117	0.36773	0.053771	0.17858	0.045353	0.23446	0.18542	0.1002	-2.6792	-3.0812	-2.7083	-3.2146	-3.1688	-3.0146	-3.3958	-2.8812	-3.0042	-3.2313	-2.9854	-2.975	-3.1979	-2.8688	-3.3271	-3.2875	-32.542	-15.126	110.746	142.183	57.927	-6.131	178.686	-7.047	166.132	219.996	235.967	144.432	33.682	217.838	15.433	153.995	0.00050656	0.00039824	0.00031779	718.7	5.3987e-06	5.4009e-06	795.72	266.88	2.7632e-06	7.6948e-06	364.18	158.86	124.25	60.124	3.6656e-06	92.279	0.0027135	0.004852	0.0013533	719.93	4.6802e-05	5.4982e-05	795.63	268.85	4.731e-05	5.4495e-05	367.43	179.14	125.25	60.581	4.9562e-05	92.947	-87.056	-18.407	5.650	-104.534	47.212	16.856	-105.139	-99.474	57.372	21.055	-100.877	-95.995	-96.550	-93.286	68.941	-94.741	-8191	255	
1506.880	1	1	0	0	0.18325	0.016703	0.10451	0.14002	0.23507	0.2374	0.26959	0.013903	0.095693	0.19874	0.22702	0.16671	0.10475	0.3231	0.10797	0.2808	-2.4083	-3.1208	-2.7896	-3.1125	-3.1542	-2.6312	-3.3479	-3.1146	-2.95	-3.2938	-2.8125	-3.1542	-3.3396	-2.875	-3.2812	-3.2333	42.563	139.011	175.478	173.677	229.889	-47.786	174.677	77.068	203.337	53.896	129.615	-46.235	157.162	115.456	14.694	161.109	0.00053453	0.00060101	0.00026152	722.86	3.3571e-06	2.9358e-06	797.74	265.28	5.1104e-06	4.0554e-06	366.71	160.84	123.37	60.307	6.8252e-06	93.033	0.0027466	0.004863	0.0013508	721.97	4.6873e-05	5.4499e-05	796.23	268.59	4.7354e-05	5.414e-05	367.78	179.32	125.03	60.798	4.9014e-05	93.597	-88.378	-61.801	-42.380	-104.621	69.030	37.155	-104.500	-99.328	-17.594	12.949	-101.132	-96.138	-96.366	-93.328	27.925	-94.695	-8191	255	
1507.001	1	1	0	0	0.31646	0.19798	0.1704	0.13608	0.20602	0.083485	0.3032	0.021476	0.1516	0.02441	0.35611	0.11608	0.08482	0.21878	0.14645	0.24925	-2.3542	-3.1354	-2.7708	-3.0979	-3.1208	-2.8083	-3.2958	-3.0479	-2.6979	-3.2917	-3.0833	-3.0708	-3.2542	-3.0187	-3.1646	-3.1625	30.155	152.628	122.634	211.163	-14.235	214.262	195.770	-40.660	135.761	123.276	195.730	129.929	184.080	218.261	75.462	198.709	0.00056741	0.00026384	0.00018235	722.2	7.0931e-06	5.6132e-06	797.96	268.84	5.1606e-06	2.253e-06	365.31	160.13	123.33	60.343	6.3333e-06	92.411	0.0026806	0.0047553	0.0013028	722.34	4.5016e-05	5.2326e-05	797.56	269.72	4.5912e-05	5.2236e-05	367.69	178.75	124.77	60.807	4.858e-05	93.263	-83.767	-8.179	1.381	-104.555	66.522	3.646	-104.666	-99.704	-21.403	5.052	-101.061	-95.791	-96.259	-93.254	-20.305	-94.720	-8191	255	
1507.097	1	1	0	0	0.10905	0.10686	0.18682	0.13883	0.13809	0.16714	0.19416	0.068081	0.085714	0.1325	0.19337	0.16259	0.18423	0.061936	0.1001	0.18823	-2.4562	-3.4042	-3.0271	-3.0771	-3.3417	-2.8438	-3.2438	-3.1	-2.8958	-3.2375	-3.0167	-3.0083	-3.375	-2.9771	-3.2062	-3.4938	-30.100	189.237	40.426	-72.894	-92.597	138.567	-94.061	183.224	70.609	139.653	-84.931	-102.576	192.760	172.549	-101.608	158.004	0.00050525	0.00031569	0.00017045	724.42	5.3204e-06	7.331e-06	793.9	265.16	3.7294e-06	5.729e-06	364.9	161.5	123.23	60.038	3.5593e-06	92.283	0.0026854	0.0047294	0.0013286	721.91	4.5015e-05	5.2555e-05	794.18	267.9	4.5932e-05	5.0646e-05	367.13	178.59	124.48	60.417	4.7027e-05	92.845	-90.191	-28.084	12.376	-104.302	70.412	-30.288	-104.505	-99.297	141.470	72.281	-100.845	-96.914	-96.241	-93.146	-100.713	-94.609	-8191	255	
1507.193	1	1	0	0	0.18117	0.21108	0.074225	0.14637	0.13466	0.16555	0.16775	0.17197	0.25897	0.092751	0.10217	0.019931	0.17001	0.37558	0.17698	0.255	-2.4667	-3.2979	-3.0354	-2.9667	-3.3917	-3.0125	-3.0667	-3.0646	-2.9104	-3.2604	-3.2271	-2.9792	-3.3438	-3	-3.1188	-3.2854	80.106	40.568	85.188	71.474	99.984	117.301	224.942	154.408	78.723	151.680	106.083	123.883	32.905	222.222	78.668	116.915	0.00050289	0.00011004	6.0446e-05	724.45	9.5591e-06	1.1002e-05	793.39	266.52	5.4773e-06	4.8962e-06	365.93	161.26	122.94	60.123	7.154e-06	93.011	0.0025667	0.0045776	0.0012906	721.48	4.3698e-05	5.1019e-05	795.83	268.3	4.6112e-05	5.1901e-05	368.1	179.21	124.88	60.721	4.6981e-05	93.508	-89.020	-73.403	79.909	-104.619	60.345	41.702	-104.759	-99.320	44.042	44.646	-100.794	-95.922	-96.566	-93.454	53.089	-94.637	-8191	255	
1507.265	1	1	0	0	0.31511	0.14719	0.10809	0.033801	0.064959	0.18129	0.14033	0.08811	0.44472	0.065291	0.25517	0.1753	0.19843	0.19407	0.21514	0.1735	-2.3104	-3.1813	-2.9875	-2.6292	-3.2375	-2.8583	-3.1521	-3.3521	-2.7604	-3.1479	-3.1333	-2.7542	-3.4896	-2.9542	-3.1562	-3.375	155.652	101.468	88.462	195.295	120.760	199.690	176.775	206.316	31.309	20.731	-67.006	-57.084	-36.036	-109.930	-52.353	178.384	0.00051114	0.0003115	0.00016739	721.74	8.0283e-06	8.7538e-07	804.12	268.21	3.0618e-06	2.5487e-06	367.83	161.94	123.85	60.729	1.0387e-05	93.569	0.0025359	0.0045319	0.0012574	721.58	4.2986e-05	5.0721e-05	799.59	270.19	4.391e-05	4.9972e-05	369.84	179.42	125.26	61.201	4.5894e-05	94.258	-91.732	-48.452	2.704	-104.694	77.615	39.788	-104.690	-99.762	64.509	4.930	-100.825	-95.594	-96.575	-93.462	62.066	-94.709	-8191	255	
1507.386	1	1	0	0	0.026368	0.029888	0.35435	0.093754	0.13951	0.25123	0.074802	0.16969	0.081221	0.11932	0.13571	0.2384	0.20105	0.17983	0.19657	0.29424	-2.3812	-3.1604	-3.0521	-2.9	-3.2083	-2.8729	-2.875	-3.2062	-2.6937	-3.1708	-3.2146	-2.7708	-3.2604	-3.2812	-3.0875	-3.4667	188.693	186.381	7.465	209.966	-108.956	106.504	-83.364	155.771	-24.222	51.687	88.867	211.589	151.366	137.394	61.851	190.723	0.00059904	0.0010483	0.00041515	727.67	6.0224e-06	7.8538e-06	804.47	268.5	2.7087e-06	6.3154e-06	369.94	164.18	123.82	61.069	9.7558e-06	94.314	0.0025853	0.0045847	0.0012494	724.13	4.2415e-05	4.9713e-05	800.35	270.05	4.3078e-05	4.9397e-05	371.39	180.59	125.71	61.551	4.5899e-05	95.028	-88.309	-29.875	-28.778	-104.613	28.341	38.061	-104.619	-99.379	-22.853	28.991	-100.927	-96.375	-96.149	-93.488	6.376	-94.604	-8191	255	
1507.482	1	1	0	0	0.21112	0.30963	0.072529	0.22723	0.17146	0.1466	0.23056	0.31876	0.11277	0.15888	0.07175	0.14163	0.16134	0.24072	0.19224	0.072495	-2.3979	-3.0312	-3.1042	-2.9625	-3.2687	-2.9792	-2.95	-3.4271	-2.8875	-3.0583	-3.3208	-2.975	-3.1542	-3.1229	-2.8729	-3.3917	102.540	86.700	224.799	221.118	126.816	-93.343	86.725	190.384	85.441	85.397	-75.160	139.440	133.873	-103.810	74.448	212.456	0.00053453	0.00065514	0.0002215	724.82	6.3558e-06	9.9173e-06	802.44	269.32	5.5287e-06	5.5711e-06	368.69	162.4	124.48	60.786	6.3292e-06	93.434	0.0025414	0.0044448	0.0012365	723.57	4.2329e-05	4.9675e-05	800.88	270.51	4.3456e-05	5.0101e-05	370.77	180.16	125.81	61.276	4.6737e-05	93.97	-96.563	-27.600	12.945	-104.458	71.746	72.165	-104.828	-99.475	14.226	44.886	-100.835	-96.220	-96.194	-93.387	-16.289	-94.743	-8191	255	
1507.578	1	1	0	0	0.061852	0.099841	0.13098	0.09454	0.28933	0.034787	0.14368	0.16873	0.20535	0.22445	0.32538	0.092744	0.18499	0.25211	0.15688	0.17452	-2.3667	-3.0771	-3.0771	-2.6479	-3.325	-3.0271	-2.85	-3.1063	-2.9583	-2.9583	-3.4708	-2.8646	-3.0938	-3.1521	-2.7521	-3.2854	146.479	117.331	-27.493	234.828	-116.003	227.663	174.598	-53.200	124.949	2.729	-110.070	127.527	156.586	155.456	149.772	189.098	0.00047671	0.0009869	0.00026243	724.04	3.1819e-06	1.0498e-05	803.53	268.58	6.8541e-06	4.2712e-06	369.35	161.88	124.21	60.364	5.7571e-06	93.059	0.0025731	0.0046075	0.0012725	722.73	4.2929e-05	5.0065e-05	799.58	269.62	4.4293e-05	5.0546e-05	368.96	179.68	125.46	60.847	4.7138e-05	93.499	-84.574	-48.176	-22.625	-104.658	39.677	19.277	-104.738	-99.541	78.479	71.487	-100.853	-95.733	-96.153	-93.480	-6.569	-94.647	-8191	255	
1507.672	1	1	0	0	0.12281	0.08849	0.17153	0.16921	0.12602	0.21303	0.20918	0.19371	0.17499	0.087039	0.18857	0.13226	0.27948	0.26621	0.13358	0.19432	-2.5104	-3.0271	-3.0854	-2.9062	-3.1646	-3.0229	-2.9542	-3.2583	-3.1813	-2.9625	-3.4479	-2.8563	-3.1958	-3.4146	-2.8688	-3.4417	46.128	-98.856	235.997	203.581	221.594	-43.843	216.218	240.745	125.525	-82.257	-97.774	127.509	189.164	235.546	-78.245	238.854	0.00052521	0.00071844	0.00018058	724	8.4504e-06	1.1497e-05	800.76	268.11	1.2641e-06	1.5097e-06	366.74	162.71	124.64	60.532	6.6862e-06	93.56	0.0026011	0.0046542	0.0012582	722.36	4.4251e-05	5.2175e-05	798.31	269.89	4.5603e-05	5.2859e-05	369.96	180.19	125.92	61.091	4.8631e-05	93.98	-88.408	-74.778	-68.845	-104.734	79.253	38.668	-104.537	-99.451	109.231	62.937	-100.915	-96.436	-96.347	-93.350	34.299	-94.706	-8191	255	
1507.793	1	1	0	0	0.10563	0.12092	0.28407	0.25758	0.23097	0.12194	0.10505	0.20193	0.094696	0.081941	0.23269	0.35774	0.068442	0.24666	0.084403	0.12544	-2.3958	-2.7812	-3.3208	-3.0104	-3.1625	-3.3	-2.9875	-3.3396	-3.0833	-2.9271	-3.3187	-3.0333	-3.2313	-3.2542	-2.8375	-3.35	81.397	-13.330	0.821	110.397	-18.825	42.354	-113.557	186.025	207.442	-14.344	-55.987	20.319	163.329	207.541	119.648	-62.310	0.00053934	0.00074852	0.00019879	726.55	1.5933e-06	1.0928e-05	800.67	268.88	5.6864e-06	5.6327e-06	369.2	160.65	124.83	60.819	4.9073e-06	93.694	0.0026249	0.0047065	0.001302	724.14	4.4974e-05	5.2766e-05	798.18	270.92	4.5246e-05	5.1898e-05	371.23	180.12	126.21	61.33	4.7418e-05	94.294	-86.259	-39.318	-14.040	-104.704	-57.005	59.012	-104.485	-99.518	62.739	29.925	-100.757	-96.357	-96.081	-93.309	5.025	-94.528	-8191	255	
1507.889	1	1	0	0	0.24286	0.084563	0.15811	0.079159	0.20134	0.097891	0.1127	0.15196	0.048171	0.15814	0.24025	0.1782	0.1563	0.19406	0.13104	0.23428	-2.4583	-2.7021	-3.2896	-3.0187	-3.0521	-3.3042	-2.8458	-3.1917	-3.0708	-2.8104	-3.2896	-2.9313	-3.0667	-3.5104	-2.8375	-3.1229	179.915	14.039	164.792	-110.369	216.611	212.260	206.088	217.008	124.953	36.812	61.833	225.158	-64.083	205.539	68.393	203.283	0.00048523	0.00054903	0.00029656	724.8	7.6552e-06	5.5685e-06	804.27	269.78	7.1641e-06	7.3176e-06	370.16	163.81	125.01	61.08	5.1193e-06	93.853	0.0025714	0.0045553	0.0012726	722.86	4.3644e-05	5.162e-05	801.06	272.12	4.4672e-05	5.1944e-05	372.79	180.76	126.16	61.589	4.8282e-05	94.551	-92.741	38.875	-14.448	-104.689	22.804	60.119	-104.689	-99.417	17.788	35.597	-101.005	-97.232	-96.431	-93.394	62.829	-94.776	-8191	255	
1507.961	1	1	0	0	0.18274	0.24107	0.16801	0.1045	0.05815	0.22871	0.078969	0.09768	0.0698	0.22333	0.15338	0.24564	0.26505	0.23849	0.26332	0.24293	-2.7292	-2.8542	-3.1875	-3.0771	-2.8708	-3.4938	-3.0292	-2.9833	-3.2271	-2.8354	-3.2125	-2.9521	-3.075	-3.2417	-2.8708	-3.2125	-13.387	-17.509	143.668	98.210	51.772	220.264	124.421	-71.975	6.336	-96.556	126.642	-85.997	218.491	215.340	143.657	-18.583	0.00051989	0.00049533	0.00016836	724.57	8.6429e-06	6.4364e-06	799.83	270.52	9.5135e-07	6.3392e-06	369.39	162.92	125.81	60.752	6.4543e-06	93.654	0.0026249	0.0046077	0.0012923	723.33	4.4192e-05	5.1062e-05	799.58	272.16	4.4106e-05	5.1228e-05	371.5	180.48	126.42	61.213	4.7108e-05	94.108	-89.252	-18.470	-18.641	-104.498	27.732	26.357	-104.626	-99.539	40.126	56.866	-100.878	-96.008	-96.492	-93.419	10.610	-94.910	-8191	255	
1508.081	1	1	0	0	0.10456	0.22732	0.34609	0.11209	0.19881	0.2819	0.10874	0.063027	0.13671	0.1172	0.1594	0.017525	0.15404	0.056224	0.26142	0.15984	-3.0646	-2.6937	-3.1813	-3.2604	-2.8937	-3.2479	-3.0812	-3.2271	-3.3625	-2.6188	-3.3292	-3.1083	-2.9688	-3.3417	-3.0333	-3.0271	39.728	175.696	-63.937	-103.423	46.519	118.565	220.966	158.441	11.287	97.616	-56.222	-43.457	-87.428	19.621	-111.277	-88.585	0.00051914	0.0012275	0.00030244	723.91	5.2405e-06	4.2194e-06	799.23	269.94	5.4005e-06	1.0744e-05	371.78	163.04	124.31	60.503	7.6134e-06	93.424	0.0025964	0.0046198	0.0012684	722.01	4.3435e-05	5.1304e-05	797.85	271.16	4.3943e-05	5.0224e-05	371.33	179.68	125.96	61.207	4.7142e-05	93.927	-90.679	-48.703	-0.519	-104.535	50.740	16.454	-104.662	-99.272	-0.995	16.563	-100.916	-96.157	-96.517	-93.488	66.723	-94.589	-8191	255	
1508.178	1	1	0	0	0.071382	0.13816	0.16242	0.14172	0.058971	0.20542	0.073406	0.22834	0.061216	0.10061	0.10897	0.10349	0.10909	0.29595	0.036311	0.2027	-2.6688	-2.8563	-3.2646	-3.0854	-2.6542	-3.2375	-3.1458	-2.925	-3.0687	-2.8312	-3.1562	-3.0792	-2.7083	-3.4542	-2.875	-3.125	23.485	104.611	15.780	213.848	-44.618	157.445	149.941	239.679	155.254	-76.658	105.260	56.904	-23.416	194.220	167.047	234.233	0.00049347	0.00069281	0.00027482	723.15	5.1507e-06	6.9102e-06	802.16	268.82	7.2186e-06	5.5786e-06	369.44	163.7	124.56	60.729	4.3664e-06	93.511	0.0025839	0.0045279	0.0012659	722.33	4.4007e-05	5.0582e-05	799.25	271.44	4.4189e-05	5.0944e-05	372.05	180.37	126.04	61.31	4.7824e-05	94.305	-90.248	-75.300	32.152	-104.387	103.837	1.595	-104.450	-99.571	14.710	35.006	-100.997	-96.169	-96.451	-93.349	46.318	-94.972	-8191	255	
1508.274	1	1	0	0	0.055735	0.068315	0.061619	0.19197	0.17355	0.18891	0.24948	0.35155	0.14719	0.26852	0.2059	0.090315	0.057726	0.28029	0.23643	0.33092	-2.7229	-2.8771	-3.0438	-3.3479	-2.7438	-3.2792	-3.2125	-2.9437	-3.2583	-2.8708	-3.275	-3.1667	-2.8979	-3.2583	-3.0792	-2.8042	191.556	155.955	49.769	134.215	-47.293	138.585	143.285	-114.264	157.323	181.074	238.344	101.566	-9.414	238.453	-99.527	192.734	0.00052483	0.00078965	0.00023247	723.75	7.8258e-06	4.5228e-06	800.36	270.72	5.0469e-06	1.5217e-06	369.32	163.6	125.12	61.169	1.0444e-06	94.126	0.0026217	0.0045462	0.0012804	723.58	4.4567e-05	5.1869e-05	799.83	272.03	4.4694e-05	5.2528e-05	372.03	181.14	126.44	61.686	4.8396e-05	94.849	-93.330	-35.489	4.210	-104.417	73.899	44.601	-104.275	-99.429	42.215	101.575	-100.666	-96.404	-96.419	-93.316	70.054	-94.617	-8191	255	
1508.370	1	1	0	0	0.16297	0.21646	0.19341	0.14061	0.19161	0.30168	0.073945	0.21466	0.031931	0.1968	0.23005	0.1155	0.14408	0.30627	0.16229	0.33183	-2.9271	-2.7938	-3.1437	-3.3396	-2.8167	-3.1437	-3.1583	-3.025	-3.2562	-3.0854	-3.0396	-3.4313	-2.9083	-3.1458	-3.2354	-3.0854	184.844	-52.308	60.209	242.267	105.587	-3.518	-30.166	180.581	170.009	190.407	-92.627	138.863	-57.621	187.718	197.731	200.281	0.00052232	0.0012933	0.00013162	724.32	5.7295e-06	8.3236e-06	801.39	269.08	5.9759e-06	7.6927e-06	370.7	163.34	124.84	60.812	5.3569e-06	93.71	0.0026568	0.0046551	0.001309	724.39	4.4971e-05	5.256e-05	799.69	271.53	4.5554e-05	5.1316e-05	372.52	181.1	126.39	61.386	4.7617e-05	94.25	-91.765	-53.934	1.952	-104.373	60.694	87.573	-104.840	-99.598	23.329	57.402	-100.822	-96.308	-96.252	-93.249	-40.888	-94.567	-8191	255	
1508.491	1	1	0	0	0.2312	0.060882	0.036469	0.14789	0.14541	0.18145	0.22517	0.029208	0.21818	0.22405	0.098033	0.19852	0.17231	0.15658	0.11161	0.32973	-2.8812	-3.0938	-2.8521	-3.4479	-2.8229	-3.1125	-3.3208	-2.6833	-3.2354	-3.1396	-2.9813	-3.1896	-3.0021	-3.2146	-3.2833	-2.9313	240.183	21.769	55.419	187.381	69.762	89.064	151.133	182.812	51.756	-72.641	173.824	100.426	219.807	167.816	237.990	142.938	0.00050203	0.0007461	9.0942e-05	727.03	1.7071e-06	8.4389e-06	798.42	270.41	4.0095e-06	4.1091e-06	369.47	161.53	124.78	60.951	5.3577e-06	93.076	0.0026249	0.0046674	0.0012958	725.44	4.4903e-05	5.1302e-05	800.16	272.37	4.5858e-05	5.1856e-05	371.15	180.84	126.45	61.299	4.8388e-05	93.897	-85.139	11.448	-46.548	-104.585	64.488	32.507	-104.804	-99.565	54.963	26.683	-100.858	-95.940	-96.538	-93.549	19.802	-94.654	-8191	255	
1508.562	1	1	0	0	0.14524	0.25937	0.1433	0.16421	0.23138	0.13108	0.039597	0.12216	0.028255	0.17394	0.20747	0.052552	0.098834	0.28717	0.33884	0.26036	-2.7292	-2.8333	-2.9271	-3.2562	-2.9437	-3.0687	-3.2708	-2.9667	-3.3208	-3.1354	-2.9125	-3.3458	-2.8604	-3.2042	-3.2333	-2.9125	219.546	228.220	92.858	140.279	31.144	203.655	113.453	135.325	66.411	39.641	224.257	150.854	-105.850	214.607	-50.006	228.802	0.00055153	0.00056883	0.00041936	725.97	6.0729e-06	9.5604e-06	801.35	270.34	2.9477e-06	4.2326e-06	368.93	160.73	125.33	60.884	8.2621e-06	93.573	0.0026613	0.0046182	0.0013157	724.68	4.4957e-05	5.2518e-05	799.69	272.55	4.5871e-05	5.2453e-05	371.44	180.07	126.86	61.387	4.8705e-05	94.224	-88.222	6.707	-36.567	-104.335	30.006	29.892	-104.915	-99.393	51.603	108.617	-101.115	-95.988	-96.427	-93.091	17.232	-94.750	-8191	255	
1508.681	1	1	0	0	0.063989	0.17303	0.3114	0.085904	0.30076	0.14739	0.27852	0.14696	0.0059574	0.084025	0.34803	0.12182	0.355	0.17286	0.077734	0.20463	-2.8021	-2.9479	-2.8458	-3.2438	-3.0375	-3.0417	-3.5333	-2.8187	-2.9792	-3.1958	-3.0354	-3.3417	-3.0271	-3.0583	-3.3604	-3.0042	117.209	146.359	-89.260	-83.535	69.073	176.844	204.364	194.680	181.065	173.474	163.626	161.626	-115.332	192.796	-72.224	176.668	0.0005007	0.0001733	0.00012917	729.05	6.6179e-06	7.4372e-06	802.73	270.03	6.9263e-06	6.1097e-06	370.87	161.34	125.15	60.99	2.0155e-06	93.601	0.0026779	0.0047535	0.0013143	725.58	4.5232e-05	5.3277e-05	801.01	272.57	4.6516e-05	5.2886e-05	372.99	181.03	126.94	61.575	4.9186e-05	94.459	-87.594	48.341	-23.361	-104.530	28.876	58.822	-104.753	-99.377	39.363	63.762	-100.746	-96.180	-96.418	-93.457	234.079	-94.644	-8191	255	
1508.777	1	1	0	0	0.12799	0.21564	0.066431	0.15039	0.14901	0.077453	0.25119	0.18277	0.13134	0.16575	0.22192	0.060868	0.22366	0.094343	0.24919	0.19056	-2.7313	-2.9979	-2.7146	-3.2417	-2.9229	-2.9562	-3.3021	-2.8958	-3.1625	-3.3375	-2.7854	-3.3125	-3.1	-2.9479	-3.3396	-3.1104	7.048	83.084	14.621	199.297	111.044	-76.666	126.681	170.374	97.452	55.516	207.677	131.467	212.513	134.592	178.176	105.179	0.00053641	0.0011093	0.00019836	722.18	8.0233e-06	5.366e-06	804.2	270.04	8.4548e-06	6.8631e-06	370.51	162.82	125.4	60.743	7.9809e-06	93.552	0.002721	0.0047874	0.0013616	725.55	4.5809e-05	5.394e-05	800.34	272.77	4.6885e-05	5.4269e-05	373.76	181.73	126.96	61.436	5.0369e-05	93.997	-83.607	-61.329	-47.189	-104.606	45.235	63.111	-104.797	-99.424	22.794	47.724	-100.903	-96.310	-96.188	-93.444	-18.575	-95.004	-8191	255	
1508.873	1	1	0	0	0.17083	0.17369	0.20849	0.12567	0.033706	0.10216	0.12604	0.074904	0.18411	0.46324	0.17111	0.30408	0.053386	0.21276	0.075165	0.22943	-2.5583	-3.2583	-2.7521	-3.225	-3.075	-2.8229	-3.3708	-2.8604	-3.1854	-3.2687	-2.9083	-3.1042	-3.2438	-2.8521	-3.0687	-3.2208	-4.111	129.261	116.954	212.345	201.235	28.587	89.965	4.441	-50.090	75.794	196.209	228.967	47.910	234.154	240.223	227.648	0.00051282	0.0006612	0.00016691	729.5	3.4392e-06	2.3969e-06	800.04	269.7	2.1104e-06	9.0862e-06	368.59	162.36	125.02	60.769	2.3426e-06	92.95	0.0027302	0.0048733	0.0013422	726.39	4.6346e-05	5.4187e-05	799.35	272.24	4.6902e-05	5.4004e-05	371.08	181.43	126.45	61.238	4.9222e-05	93.753	-85.769	-1.718	-30.882	-104.579	80.005	62.813	-104.632	-99.432	129.390	1.884	-100.784	-95.911	-96.350	-93.572	-25.757	-94.625	-8191	255	
1508.970	1	1	0	0	0.26558	0.009511	0.188	0.12506	0.11923	0.19537	0.060224	0.043454	0.10472	0.1025	0.13205	0.22296	0.23587	0.19662	0.26084	0.21343	-2.4979	-3.2167	-2.8563	-2.9833	-3.0833	-2.8208	-3.3208	-2.9854	-2.7958	-3.2812	-2.9708	-3.1229	-3.3208	-2.9271	-3.2479	-3.2438	111.774	-82.985	187.535	212.728	144.676	-2.012	188.321	122.023	192.536	172.550	208.462	222.096	-87.309	-36.777	60.374	199.224	0.00053122	0.00049705	0.00024986	725.37	8.1215e-06	8.5874e-06	800.94	270.49	5.881e-06	9.5176e-06	370.79	163.76	125.04	60.924	5.1395e-06	93.331	0.0027163	0.0048366	0.0013472	727.13	4.6604e-05	5.4263e-05	801.06	272.74	4.7728e-05	5.3795e-05	372.26	181.48	126.65	61.466	4.8629e-05	93.901	-89.325	-87.195	20.079	-104.478	131.325	51.261	-104.768	-99.292	39.979	47.760	-100.860	-95.585	-96.474	-93.265	34.678	-94.646	-8191	255	
1509.090	1	1	0	0	0.019122	0.090563	0.18297	0.083441	0.15163	0.25958	0.23153	0.10952	0.23504	0.20714	0.19937	0.30837	0.19898	0.1092	0.28233	0.29456	-2.5667	-3.2542	-2.9688	-3.0687	-3.2313	-2.8792	-3.3896	-3.0021	-2.8708	-3.4583	-3.1417	-2.9688	-3.2313	-2.7771	-3.1479	-3.3146	212.353	44.464	-96.210	44.738	57.331	123.059	108.775	19.627	164.134	105.518	233.502	72.665	209.609	18.727	-27.666	240.981	0.00049999	0.0010797	0.00013471	725.69	6.6701e-06	9.9551e-06	800.59	270.33	1.5604e-06	1.2216e-05	370.81	163.57	125.54	60.893	8.3715e-06	93.603	0.0026814	0.0048488	0.0013372	725.55	4.5709e-05	5.3229e-05	798.94	272.31	4.6088e-05	5.2284e-05	372.56	180.37	126.9	61.469	4.9706e-05	94.359	-86.635	-50.373	-9.913	-104.620	52.779	9.755	-104.652	-99.305	65.600	10.274	-100.857	-96.206	-96.503	-93.288	18.173	-94.800	-8191	255	
1509.162	1	1	0	0	0.11264	0.20858	0.14167	0.17297	0.24027	0.19875	0.18217	0.079563	0.13392	0.2048	0.20133	0.045214	0.055182	0.33269	0.38902	0.10723	-2.4604	-3.2917	-2.9333	-3.0708	-3.1688	-2.7958	-3.3187	-3.325	-2.8854	-3.1021	-2.9271	-2.9646	-3.3625	-3.05	-3.1396	-3.3979	135.516	64.770	168.178	-110.212	204.690	-26.702	106.954	-5.958	12.295	126.487	219.846	117.122	139.964	178.949	69.251	147.446	0.000549	0.00035438	0.00017892	731.7	4.5266e-06	9.0104e-06	800.24	270.2	1.6541e-06	5.3828e-06	369.68	162.6	125.02	60.601	1.6967e-06	93.349	0.0027435	0.0048659	0.0013559	726.08	4.7015e-05	5.438e-05	800.69	272.86	4.8146e-05	5.5518e-05	371.7	180.31	126.55	61.334	5.0599e-05	94.104	-85.265	-41.653	-51.810	-104.416	74.841	22.675	-104.789	-99.513	118.560	13.944	-100.738	-96.236	-96.333	-93.569	31.898	-94.735	-8191	255	
1509.258	1	1	0	0	0.1986	0.14666	0.24211	0.43275	0.12052	0.17484	0.3156	0.15137	0.14465	0.11583	0.090141	0.12134	0.16955	0.15732	0.029916	0.18158	-2.4771	-3.1229	-3.0354	-2.725	-3.3396	-2.9188	-3.2771	-3.2729	-2.8208	-3.1729	-3.2938	-3.0167	-3.25	-2.9688	-3.1708	-3.3937	7.345	-52.537	148.379	182.305	191.086	139.732	157.113	199.619	214.984	80.779	227.789	-90.632	155.893	-101.748	218.683	135.207	0.0005496	0.00063499	0.00026734	722.52	5.2562e-06	1.4659e-05	795.06	268	2.0934e-06	3.0272e-06	365.64	161.28	123.91	60.258	7.1964e-06	92.847	0.0027591	0.0049349	0.0013773	724.09	4.8115e-05	5.571e-05	796.5	270.87	4.8972e-05	5.6456e-05	368.79	180.46	125.69	60.972	5.181e-05	93.391	-95.134	-5.744	-51.382	-104.752	31.890	60.041	-104.533	-99.263	-8.257	39.354	-100.951	-95.676	-96.234	-93.492	35.849	-94.648	-8191	255	
1509.354	1	1	0	0	0.22393	0.053122	0.089511	0.14563	0.15858	0.18861	0.27757	0.14253	0.30506	0.08105	0.22424	0.23529	0.15285	0.18392	0.10261	0.31767	-2.4125	-3.1875	-2.9833	-2.8875	-3.2583	-2.875	-3.0917	-3.3333	-2.8292	-3.0375	-3.2146	-2.7812	-3.5	-2.9875	-2.9396	-3.2812	-91.666	-44.158	217.614	197.214	89.654	209.260	229.694	109.548	162.043	17.001	125.805	-0.705	-112.559	231.144	60.097	141.762	0.00049333	0.00010702	0.00018536	724.72	6.3306e-06	1.2816e-06	796.3	269.01	2.2358e-06	2.6691e-06	364.25	161.11	123.85	60.394	5.133e-06	92.709	0.002828	0.0051477	0.0014019	723.6	4.8261e-05	5.6743e-05	796.22	270.32	5.04e-05	5.741e-05	367.26	180.63	125.49	61.01	5.3024e-05	93.354	-88.752	14.977	8.351	-104.751	17.228	-56.975	-104.736	-99.498	8.544	78.640	-100.897	-96.066	-96.315	-93.022	23.134	-94.695	-8191	255	
1509.475	1	1	0	0	0.064936	0.23054	0.07024	0.18173	0.21975	0.064561	0.16708	0.075928	0.068679	0.17656	0.13596	0.20915	0.17613	0.25837	0.10166	0.22721	-2.4146	-3.2167	-2.9583	-2.925	-3.4521	-2.9729	-2.9813	-3.3729	-2.8667	-3.0417	-3.3854	-2.6583	-3.1542	-3.2438	-2.6583	-3.2604	110.733	-63.132	166.248	-89.854	49.299	138.078	-109.612	154.963	141.817	150.336	128.193	-71.483	163.107	191.212	-4.037	209.962	0.00051662	0.0009032	9.8906e-05	719.21	7.8549e-06	4.1907e-06	792.35	266.03	4.5162e-06	4.4781e-06	363.23	159.95	122.99	60.289	1.6554e-06	92.943	0.0028763	0.0052114	0.0014496	721.95	5.0167e-05	5.8868e-05	794.06	269.62	5.1542e-05	5.8654e-05	367.2	180.71	125.13	60.937	5.4686e-05	93.584	-91.824	-16.505	237.450	-104.362	34.303	35.372	-104.473	-99.405	-14.027	45.056	-100.728	-96.010	-96.296	-93.204	-109.821	-94.671	-8191	255	
1509.569	1	1	0	0	0.44776	0.16892	0.22766	0.081764	0.33125	0.14293	0.16775	0.21844	0.095303	0.12959	0.23293	0.3729	0.066531	0.089283	0.20364	0.49441	-2.4979	-2.9313	-3.1688	-3.0083	-3.2062	-3.0646	-3.15	-3.325	-2.9604	-3.1188	-3.3396	-2.6	-3.2875	-3.1542	-2.9208	-3.3292	73.070	-50.075	-7.023	60.077	236.511	134.095	201.231	194.286	-86.400	178.296	103.790	214.799	195.900	207.030	-25.942	180.548	0.00053454	0.00068396	0.00013718	723.95	9.9484e-06	5.2014e-06	795.08	267.27	3.567e-06	1.079e-05	364.69	159.21	123.46	60.254	2.6389e-06	92.87	0.002947	0.0053503	0.0015045	722.65	5.2439e-05	6.1419e-05	795.81	269.74	5.3535e-05	6.0757e-05	368.37	181.11	125.28	61.05	5.5471e-05	93.572	-86.046	-45.578	-35.916	-104.501	50.175	10.011	-104.735	-99.391	24.541	45.071	-100.808	-96.112	-95.983	-93.329	26.886	-94.748	-8191	255	
1509.665	1	1	0	0	0.064589	0.21553	0.17152	0.028077	0.24558	0.10292	0.15573	0.28775	0.22849	0.19422	0.14767	0.15558	0.14125	0.12751	0.19103	0.14965	-2.4479	-2.9542	-3.1521	-2.8417	-3.1	-3.1063	-2.8917	-3.2542	-2.95	-3.0812	-3.3479	-2.7438	-3.2313	-3.1625	-2.85	-3.4104	-88.825	39.149	-52.019	226.033	-12.931	-18.969	124.971	196.352	220.230	198.199	-79.807	-22.408	222.848	171.330	40.471	170.644	0.00059381	0.00082225	0.00024851	721.42	3.9563e-06	9.009e-06	793.21	266.17	2.8316e-06	5.4393e-06	363.95	159.92	123.5	59.616	1.972e-06	91.462	0.002961	0.0053777	0.0014948	721.9	5.1289e-05	6.0372e-05	793.67	269.44	5.2006e-05	6.1338e-05	366.36	180.24	125.08	60.465	5.7552e-05	92.354	-87.143	-40.093	-12.908	-104.566	88.147	64.259	-104.643	-99.259	185.447	81.124	-100.834	-95.821	-95.990	-93.034	-108.628	-94.755	-8191	255	
1509.763	1	1	0	0	0.10365	0.16467	0.17276	0.085587	0.10662	0.15249	0.22849	0.13026	0.01522	0.24278	0.27859	0.11141	0.23593	0.53581	0.18174	0.093383	-2.5083	-2.9313	-3.2396	-2.9521	-2.9771	-3.2479	-2.8646	-3.3104	-2.9813	-2.9917	-3.4667	-2.9333	-3.1375	-3.3083	-2.8438	-3.3417	-105.110	190.913	41.405	140.476	10.458	117.999	95.410	-109.202	142.392	-66.290	188.780	133.331	75.874	213.821	54.922	126.259	0.00054056	0.00091601	8.0886e-05	719.08	3.1776e-06	8.1751e-06	791.99	266.39	6.3129e-06	8.1338e-06	363.57	159.24	123.49	59.883	5.4963e-06	91.82	0.0030736	0.0056556	0.001579	721.94	5.3484e-05	6.2351e-05	792.18	268.96	5.3779e-05	6.1414e-05	366.64	180.05	125.17	60.486	5.5613e-05	92.508	-86.098	7.774	42.102	-104.574	-77.715	22.492	-104.470	-99.473	-21.058	43.003	-100.820	-95.786	-96.468	-93.373	30.106	-94.789	-8191	255	
1509.858	1	1	0	0	0.15705	0.18904	0.10491	0.21204	0.28829	0.097439	0.26844	0.035096	0.21799	0.083712	0.13481	0.16027	0.26556	0.21561	0.065244	0.13766	-2.6771	-2.925	-3.1958	-3.1521	-2.8396	-3.1521	-2.8667	-3.25	-3.1354	-2.9813	-3.4021	-3.0271	-3.0438	-3.5	-2.9875	-3.2604	64.637	103.106	83.592	228.130	-38.290	-52.929	153.911	112.354	225.642	-81.132	190.605	44.917	-82.298	185.088	231.191	190.801	0.00048161	0.00070333	0.00022406	720.4	8.7727e-06	4.5332e-06	796.23	268.06	5.2166e-06	1.0602e-05	363.85	160.49	123.74	60.057	3.7879e-06	92.208	0.002989	0.0054752	0.001503	722.39	5.1865e-05	6.0227e-05	794.15	270.1	5.2318e-05	6.0566e-05	367.42	180.53	125.58	60.798	5.5269e-05	92.992	-86.976	-42.334	-46.376	-104.453	81.199	100.410	-104.755	-99.529	60.159	-28.402	-100.862	-96.198	-96.169	-93.371	53.361	-94.542	-8191	255	
1509.954	1	1	0	0	0.21279	0.036199	0.14375	0.20789	0.12796	0.15175	0.37972	0.046953	0.32357	0.056297	0.10853	0.094004	0.15784	0.043291	0.049109	0.31807	-2.6958	-2.6771	-3.3146	-2.8792	-3.025	-3.3375	-2.9729	-3.2229	-3.2354	-2.7917	-3.1937	-3.1167	-2.8354	-3.3979	-2.8146	-3.3125	-14.487	-99.688	-51.844	-112.796	123.899	-110.008	108.989	65.258	41.158	61.310	84.623	172.077	219.103	-26.248	118.777	197.944	0.0004959	0.00036396	0.00032708	724.61	6.3533e-06	4.2162e-06	795.43	267.84	4.3478e-06	4.2387e-06	365.35	160.73	124.38	60.491	2.6487e-06	92.65	0.0029618	0.0053264	0.0014742	724.33	5.0484e-05	5.9529e-05	795.57	270.24	5.0602e-05	5.9196e-05	368.49	180.67	125.84	61.125	5.4014e-05	93.39	-85.242	-30.787	-29.503	-104.360	-34.933	-25.247	-104.490	-99.283	61.540	136.819	-100.686	-96.542	-95.858	-93.094	-63.655	-94.732	-8191	255	
1510.050	1	1	0	0	0.054837	0.25451	0.25502	0.32125	0.21044	0.095083	0.058975	0.13118	0.21191	0.064462	0.10228	0.093129	0.13639	0.08242	0.052972	0.34736	-2.6958	-2.7708	-3.1875	-3.1375	-2.7938	-3.2979	-3.1333	-3.1708	-3.2083	-2.7854	-3.3521	-3.0375	-2.9354	-3.3812	-2.8229	-3.1646	-43.394	-21.326	-58.571	172.565	32.842	119.247	180.116	180.931	-109.586	-115.170	42.132	-79.090	23.993	123.711	51.436	185.210	0.00053013	0.0012127	0.00031014	726.2	9.2554e-06	2.8798e-06	796.23	267.25	5.4921e-06	6.0002e-06	363.13	160.34	123.89	59.95	4.6819e-06	92.002	0.002936	0.0052461	0.0014738	725.29	4.9812e-05	5.8319e-05	795.6	270.32	5.1138e-05	5.8376e-05	367.27	179.14	125.53	60.662	5.4324e-05	92.628	-87.482	-13.949	17.810	-104.603	101.078	33.577	-104.564	-99.367	81.693	58.107	-100.651	-95.831	-96.374	-93.193	83.511	-94.566	-8191	255	
1510.171	1	1	0	0	0.11634	0.23621	0.17299	0.061529	0.22052	0.0818	0.2264	0.36649	0.2922	0.095419	0.092802	0.36273	0.37815	0.070616	0.15268	0.11882	-2.7229	-2.7854	-3.0083	-3.2438	-2.75	-3.3583	-3.0292	-3.1208	-3.2271	-2.8583	-3.2021	-3.1396	-3.0167	-3.4437	-2.9313	-3.1688	164.879	33.278	-39.874	171.218	41.445	208.100	132.750	186.876	239.079	198.291	190.724	19.801	205.520	-71.709	207.267	119.768	0.00049466	0.00039083	0.00014857	721.73	8.7359e-06	6.6318e-06	791.77	266.75	5.6883e-06	1.0421e-05	365.55	158.11	124.44	60.323	7.0739e-06	91.888	0.0028769	0.0052696	0.0014541	723.19	5.0601e-05	5.8407e-05	792.01	270.08	5.1377e-05	5.8606e-05	367.34	179.61	125.69	60.766	5.4025e-05	92.759	-89.099	-29.828	9.542	-104.360	34.379	48.383	-104.884	-99.410	91.747	31.378	-100.857	-96.033	-96.286	-93.165	-2.067	-94.573	-8191	255	
1510.267	1	1	0	0	0.089539	0.17345	0.20422	0.16298	0.1794	0.10573	0.39988	0.041533	0.21618	0.15505	0.36529	0.36207	0.15124	0.26859	0.34489	0.25511	-2.8854	-2.7687	-3.0563	-3.3187	-2.8396	-3.2604	-3.2375	-2.9646	-3.2604	-2.9604	-3.1271	-3.1625	-2.8854	-3.2625	-2.8937	-2.9437	34.253	52.538	21.396	146.648	33.592	176.465	157.050	-113.520	-15.516	156.548	161.519	240.338	148.697	193.148	-69.861	176.584	0.00056327	0.00054684	0.00019828	725.45	1.0228e-05	1.4158e-05	795.4	269	6.946e-06	4.813e-06	366.11	161.37	124.34	60.757	3.6639e-06	93.026	0.0029022	0.0052918	0.0014396	724.86	4.9755e-05	5.7941e-05	795	271.4	5.0066e-05	5.6966e-05	368.5	180.69	126.22	61.174	5.2064e-05	93.617	-85.350	-30.813	35.495	-104.281	55.728	33.156	-104.796	-99.213	24.748	-9.747	-100.730	-96.543	-96.424	-93.267	-55.645	-94.584	-8191	255	
1510.363	1	1	0	0	0.27451	0.16066	0.03103	0.13018	0.14631	0.22658	0.11569	0.13918	0.11277	0.071823	0.16869	0.0016976	0.11404	0.11225	0.26083	0.11249	-2.8812	-2.8146	-2.9938	-3.1521	-2.7271	-3.1542	-3.2583	-2.8688	-3.3937	-2.9417	-3.0896	-3.3542	-2.6021	-3.2771	-3.0458	-2.9583	-108.637	236.976	68.594	124.660	76.256	-6.590	81.870	-77.416	186.189	-50.102	152.418	180.000	127.152	155.696	174.171	219.530	0.00051738	0.00099806	0.00021527	728	7.6605e-07	1.248e-05	797.58	269.16	3.9033e-06	6.3359e-06	366.05	160.17	124.92	60.862	1.1392e-05	93.393	0.0028065	0.0050995	0.0014008	726.34	4.8439e-05	5.6653e-05	797.12	272.03	4.8389e-05	5.6041e-05	369.29	180.14	126.4	61.437	5.0944e-05	94.113	-84.473	-35.277	32.913	-104.256	45.832	36.816	-104.799	-99.325	83.541	33.155	-100.634	-96.529	-96.282	-93.477	39.003	-94.778	-8191	255	
1510.459	1	1	0	0	0.11953	0.10594	0.096991	0.12551	0.19142	0.18436	0.25052	0.32452	0.18937	0.14606	0.131	0.16101	0.17967	0.072326	0.077444	0.058654	-2.9396	-3.0771	-2.7271	-3.3521	-2.8917	-3.0354	-3.3604	-2.8833	-3.1146	-3.0396	-2.975	-3.2479	-2.8521	-3.3708	-3.2625	-3.0229	39.483	-28.011	15.049	-79.586	-63.331	240.066	152.618	147.954	32.462	119.866	170.859	212.560	152.804	-73.296	-43.331	-65.963	0.00059632	0.00055235	0.00012168	728.61	4.0276e-06	9.2294e-06	798.75	268.69	3.8243e-06	5.5778e-06	367.55	162.66	124.45	60.532	7.2407e-06	92.66	0.0027913	0.0049462	0.0013556	727.2	4.7556e-05	5.5488e-05	797.29	271.73	4.8943e-05	5.5745e-05	369.48	180.48	126.11	61.061	5.2612e-05	93.368	-86.945	-61.225	-13.357	-104.591	83.878	14.218	-104.544	-99.529	-23.849	-49.113	-100.892	-96.278	-96.527	-93.298	51.975	-94.900	-8191	255	
1510.555	1	1	0	0	0.13495	0.28303	0.12103	0.16415	0.16515	0.42788	0.24734	0.28205	0.15258	0.18918	0.18724	0.12202	0.094413	0.15196	0.079068	0.12527	-2.7896	-3.0625	-2.8771	-3.3438	-3	-2.9125	-3.2979	-2.95	-3.2667	-3.0083	-3.0229	-3.4458	-2.9437	-3.0938	-3.1958	-2.7562	197.892	51.763	-53.735	217.685	2.865	15.073	192.375	212.891	-39.585	-23.763	174.588	221.471	119.339	-101.306	-14.304	138.097	0.00048545	0.0010522	0.00023235	727.51	6.0839e-06	2.7877e-06	802	268.15	7.3566e-06	8.3085e-06	365.51	160.81	124.23	60.515	2.4772e-06	92.827	0.0027669	0.0049185	0.001376	726.67	4.6665e-05	5.4579e-05	797.68	271.34	4.7471e-05	5.4567e-05	368.27	179.07	125.99	60.999	4.9838e-05	93.409	-87.964	-45.082	-63.750	-104.292	-1.581	45.139	-104.402	-99.302	39.290	15.322	-100.777	-95.986	-96.190	-93.179	19.351	-94.646	-8191	255	
1510.651	1	1	0	0	0.27812	0.19878	0.076918	0.18343	0.18803	0.17721	0.19126	0.071823	0.1178	0.20612	0.15873	0.03227	0.12452	0.095959	0.16139	0.22041	-2.8312	-3.1125	-2.775	-3.4167	-3.0458	-2.9771	-3.4458	-2.9979	-3.05	-3.1542	-2.8208	-3.3208	-2.9583	-2.9917	-3.3979	-2.9437	-92.588	166.799	197.738	187.738	37.435	86.369	200.614	233.881	55.011	-2.723	215.708	-5.544	-77.721	18.065	72.539	208.228	0.00053555	0.0008938	0.00012161	729.49	2.4502e-06	8.5819e-06	795.65	269.58	7.5266e-06	3.8573e-06	367.71	162.03	124.82	60.64	8.6876e-06	93.253	0.0027051	0.0047918	0.0013431	727.57	4.6463e-05	5.3644e-05	797.78	272.31	4.7122e-05	5.3413e-05	369.58	180.15	126.5	61.26	4.8753e-05	93.834	-90.383	-12.810	-74.936	-104.469	-51.863	44.808	-104.815	-99.301	27.166	24.258	-100.875	-96.277	-96.041	-93.271	52.502	-94.776	-8191	255	
1510.770	1	1	0	0	0.1073	0.13055	0.26248	0.1314	0.26367	0.099361	0.060719	0.064611	0.26788	0.086672	0.061231	0.16754	0.035394	0.24949	0.2493	0.25459	-2.7146	-3.0958	-2.9229	-3.2667	-3.0604	-2.9854	-3.3542	-2.8271	-3.1583	-3.1417	-2.8979	-3.1979	-3.1521	-3.0333	-3.2875	-3.0062	192.753	-5.389	-44.282	150.686	-51.181	66.925	152.828	222.030	-85.144	142.350	-87.881	109.180	-32.152	179.610	102.537	208.845	0.00053616	0.0001581	0.00022592	732.18	3.7443e-06	2.6709e-06	798.15	269.85	5.1523e-06	7.4932e-06	371.25	158.74	125.41	61.112	3.558e-06	93.726	0.002672	0.0048122	0.0013265	729.07	4.5524e-05	5.3299e-05	801.17	272.57	4.6532e-05	5.3114e-05	371.83	180.26	126.8	61.557	4.844e-05	94.452	-95.424	70.443	-31.288	-104.370	33.065	39.592	-104.687	-99.564	86.478	16.061	-100.839	-95.870	-96.281	-93.301	61.817	-94.736	-8191	255	
1510.866	1	1	0	0	0.18848	0.035989	0.055043	0.025384	0.11943	0.028193	0.12903	0.12727	0.12027	0.072167	0.44835	0.024947	0.13946	0.11159	0.2522	0.022766	-2.5229	-3.1146	-2.7292	-3.2896	-3.0896	-2.8958	-3.275	-2.8688	-3.0583	-3.2083	-2.8312	-2.9729	-2.9167	-2.9979	-3.1063	-2.9938	-112.970	61.234	137.241	17.599	116.986	2.939	238.967	-21.338	-84.478	51.020	205.463	134.960	6.480	-87.589	-55.449	222.879	0.00060177	0.00070124	0.00017145	730.01	8.8486e-06	7.6961e-06	804.61	270.87	6.9688e-06	1.0584e-05	369.83	160.54	125.26	61.122	5.247e-06	93.212	0.0027091	0.0048095	0.0013301	729.53	4.5791e-05	5.3768e-05	801.4	273.03	4.717e-05	5.44e-05	371.9	180.11	127.21	61.607	4.9909e-05	94.127	-82.769	-8.993	-30.803	-104.618	23.463	31.485	-104.531	-99.488	71.936	31.967	-100.769	-96.450	-96.303	-93.323	45.355	-94.612	-8191	255	
1510.962	1	1	0	0	0.1845	0.27669	0.20867	0.13558	0.18694	0.15481	0.29848	0.12798	0.07467	0.13617	0.081941	0.10324	0.21063	0.13131	0.093705	0.1267	-2.6458	-3.2521	-2.7625	-3.2	-3.1354	-2.8	-3.3167	-3.0125	-3.0396	-3.2313	-2.8646	-3.2146	-2.9979	-3.0542	-3.2083	-3.1167	-88.995	-57.798	-2.750	62.189	-52.805	129.597	140.097	154.560	87.442	81.281	216.979	53.651	129.061	175.144	218.181	158.562	0.00059174	0.00076962	0.00011118	733.76	5.7009e-06	8.4219e-06	802.43	270.77	4.8849e-06	5.529e-06	368.7	162.03	125.34	60.859	4.7235e-06	93.182	0.0027504	0.0049339	0.0013433	730.68	4.6715e-05	5.469e-05	801.88	273.24	4.7552e-05	5.3301e-05	370.85	180.12	127.01	61.398	4.9408e-05	93.774	-84.276	-21.291	-55.485	-104.404	48.103	16.914	-104.522	-99.791	28.939	17.430	-100.884	-95.725	-96.303	-93.278	30.042	-94.683	-8191	255	
1511.059	1	1	0	0	0.19217	0.17306	0.15645	0.03286	0.10443	0.093732	0.17149	0.21706	0.067636	0.28871	0.16427	0.38868	0.2063	0.092603	0.35586	0.14658	-2.6021	-3.2375	-3.0146	-3.1271	-3.2979	-2.7438	-3.1917	-3.1354	-2.9333	-3.3021	-3.0375	-3.0729	-3.3125	-2.9625	-3.1729	-3.0375	86.893	34.900	182.597	182.910	94.702	101.726	228.058	181.448	-61.206	11.809	-66.114	117.117	211.883	230.583	222.078	-62.044	0.00056534	0.00095578	0.000242	734.74	4.8535e-06	1.2133e-05	800.69	271.27	4.4108e-06	4.8168e-06	369	163.55	125.47	60.745	3.0024e-06	93.417	0.0027458	0.0049676	0.0013732	731.31	4.7898e-05	5.5777e-05	800.3	273.25	4.8484e-05	5.5916e-05	371.55	181.38	127.02	61.375	5.1591e-05	93.777	-88.013	-51.654	-51.699	-104.490	44.503	17.838	-104.649	-99.298	0.973	16.253	-100.813	-96.294	-96.390	-93.408	88.173	-94.806	-8191	255	
1511.155	1	1	0	0	0.13915	0.11603	0.13626	0.056787	0.16954	0.23574	0.1319	0.088464	0.19598	0.12437	0.081274	0.13152	0.22192	0.059895	0.071985	0.15845	-2.3667	-3.1458	-2.6542	-3.1958	-3.2375	-2.7938	-3.4021	-3.1271	-2.8167	-3.325	-3.1333	-3.0396	-3.3396	-2.9688	-3.1312	-3.2583	56.082	-36.445	2.990	33.721	-69.210	197.318	-111.532	100.577	112.373	156.347	68.817	152.037	-66.091	-106.194	58.307	-114.413	0.00050671	0.00083826	0.00024703	729.86	6.0548e-06	5.1832e-06	801.88	271.69	4.1601e-06	7.6338e-06	367.63	162.74	125.57	60.772	2.6687e-06	93.668	0.002819	0.0049517	0.0013664	730.31	4.7198e-05	5.5806e-05	801.16	273.55	4.8262e-05	5.6101e-05	371.52	181.29	127.21	61.361	5.0519e-05	94.097	-84.386	-28.816	-4.055	-104.390	27.768	29.534	-104.529	-99.533	21.017	19.665	-100.822	-95.417	-96.153	-93.383	55.862	-94.634	-8191	255	
1511.251	1	1	0	0	0.089419	0.11948	0.30185	0.19769	0.11442	0.099386	0.014823	0.16527	0.25592	0.14088	0.10516	0.13761	0.038143	0.34791	0.17676	0.1167	-2.3792	-3.2083	-2.7979	-2.8875	-3.0542	-2.9542	-3.1625	-3.2479	-2.875	-3.2875	-2.9771	-2.85	-3.3417	-2.9146	-3.0542	-3.3063	95.895	5.014	212.415	204.126	-3.722	78.154	22.822	55.769	-7.017	102.486	202.510	-53.480	31.189	190.056	-67.964	193.012	0.00058141	0.00057491	0.00017927	731.88	2.3528e-06	1.1052e-05	803.08	273.13	4.7183e-06	5.9335e-06	369.24	162.96	125.4	61.181	6.6351e-06	93.772	0.0027837	0.0049615	0.0013712	729.75	4.7672e-05	5.504e-05	802.39	274.79	4.8107e-05	5.4208e-05	372.25	181.55	127.3	61.622	4.9739e-05	94.235	-87.663	-37.421	-39.316	-104.634	-56.552	55.738	-104.572	-99.277	8.847	-0.901	-101.213	-95.373	-96.157	-93.380	18.309	-94.705	-8191	255	
1511.347	1	1	0	0	0.16129	0.0099639	0.0086648	0.37116	0.088259	0.1078	0.16253	0.094716	0.14526	0.074534	0.19577	0.068795	0.14201	0.053534	0.22085	0.086687	-2.4396	-3.1083	-2.9083	-2.7458	-3.0896	-2.875	-3.1604	-3.1271	-2.7896	-3.025	-3.025	-2.8771	-3.3	-2.8917	-3.2896	-3.3	109.718	-100.945	200.574	-100.921	51.253	79.806	163.124	170.223	-46.128	-77.701	-76.148	171.610	217.696	171.135	220.612	141.883	0.00052714	0.001007	0.00018636	733.27	5.39e-06	5.0447e-06	799.58	272	2.4102e-06	3.7133e-06	367.23	162.31	125.26	60.641	6.4263e-06	92.667	0.0027748	0.0049509	0.0013563	731.29	4.686e-05	5.4864e-05	800.57	274.06	4.757e-05	5.4486e-05	370.43	179.66	126.83	61.203	5.0596e-05	93.325	-90.637	-35.198	26.425	-104.440	129.530	92.591	-104.736	-99.506	-2.263	28.286	-100.977	-96.132	-96.510	-93.335	23.972	-94.963	-8191	255	
1511.443	1	1	0	0	0.025157	0.13062	0.20131	0.075931	0.1083	0.073587	0.052923	0.21395	0.1317	0.075113	0.13498	0.079523	0.085264	0.028416	0.16541	0.19431	-2.2771	-2.9792	-2.9979	-2.7604	-3.1229	-2.9458	-2.9313	-3.3104	-2.6729	-2.9917	-3.3042	-2.7458	-3.2458	-3.0583	-2.7833	-3.375	83.069	-30.277	98.704	-14.225	75.520	126.751	103.382	-28.285	1.349	28.285	217.924	-89.304	161.983	51.842	36.222	143.885	0.00046855	0.00023443	0.00033885	733.38	7.3495e-06	6.3249e-06	799.68	270.83	3.8891e-06	8.1792e-06	366.63	159.84	125.48	60.95	8.2067e-06	92.816	0.00271	0.004877	0.0013497	732.25	4.6491e-05	5.4756e-05	800.97	273.99	4.8851e-05	5.5646e-05	370.51	180.53	127.04	61.387	5.1513e-05	93.583	-82.316	-19.920	11.133	-104.630	59.146	52.921	-104.704	-99.180	49.580	43.702	-101.033	-96.013	-96.202	-93.200	43.837	-94.548	-8191	255	
1511.562	1	1	0	0	0.1956	0.095603	0.24435	0.18324	0.085096	0.086442	0.20631	0.27489	0.090879	0.10145	0.24381	0.15553	0.14611	0.10619	0.14929	0.29195	-2.25	-3.0292	-3.2375	-2.8604	-3.3271	-3.1271	-3.0667	-3.2792	-2.6042	-3.0271	-3.2708	-2.6875	-3.1458	-3.1083	-2.9208	-3.5563	40.938	-48.491	4.392	-114.598	4.228	185.005	161.793	-90.213	234.927	111.028	173.383	232.763	-98.102	217.224	-72.382	181.896	0.00046295	0.00094785	0.00018793	733.7	1.1517e-06	7.4526e-06	802.79	269.1	6.3601e-06	4.4575e-06	369.09	162.29	125.62	60.732	8.3966e-06	92.991	0.0028162	0.0050391	0.0013873	732.67	4.7701e-05	5.6474e-05	801.81	272.97	4.8259e-05	5.6509e-05	370.69	181.03	126.93	61.351	5.2232e-05	93.749	-89.035	-16.846	-60.360	-104.351	169.552	72.228	-104.498	-99.599	41.357	96.896	-100.725	-95.876	-96.398	-93.503	16.061	-94.794	-8191	255	
1511.658	1	1	0	0	0.19369	0.1932	0.20489	0.20815	0.32151	0.17947	0.05693	0.23225	0.043115	0.29208	0.11765	0.16688	0.15588	0.12693	0.13276	0.14251	-2.4875	-3.0979	-2.9917	-2.8583	-3.2687	-3.1	-2.9292	-3.425	-2.9708	-3.0833	-3.3521	-2.8042	-3.0896	-3.3271	-2.9375	-3.4313	179.638	-112.714	155.916	156.759	-50.149	-22.252	87.140	218.620	161.056	207.321	149.303	99.833	20.883	211.084	-97.977	185.172	0.00051004	0.00023723	0.00020472	731.34	4.012e-06	3.2865e-06	802.2	270.5	6.5169e-06	4.4153e-06	366.43	162.38	124.58	60.898	6.2043e-06	93.314	0.0028128	0.0051383	0.0014158	732.17	4.848e-05	5.7423e-05	803.07	272.77	5.0075e-05	5.6731e-05	369.71	181.64	126.69	61.458	5.37e-05	94.076	-90.020	-41.240	15.107	-104.329	103.572	-21.621	-104.634	-99.357	-2.084	101.209	-101.205	-96.260	-96.197	-93.331	71.700	-94.745	-8191	255	
1511.732	1	1	0	0	0.27013	0.25343	0.16129	0.36693	0.021607	0.18806	0.26337	0.27801	0.011836	0.13157	0.071066	0.20375	0.10127	0.24048	0.21178	0.18856	-2.4729	-2.9958	-3.1354	-3.0396	-3.0083	-3.0667	-2.7521	-3.2938	-3.1604	-2.8729	-3.2938	-2.7167	-3.1979	-3.3229	-2.6417	-3.3375	66.733	-54.866	-101.798	-84.015	199.767	238.191	191.577	207.224	12.901	-4.424	18.406	46.688	119.483	112.066	123.307	92.986	0.00050295	0.00030407	0.00032479	732.51	6.6389e-06	9.9495e-06	800.97	269.37	2.8908e-06	1.0716e-05	366.61	162.94	124.9	60.343	6.5095e-06	92.62	0.0028781	0.0051888	0.001444	732.1	4.9664e-05	5.7924e-05	802.2	272.15	5.0411e-05	5.8213e-05	370.1	181.25	126.45	61.115	5.4423e-05	93.366	-85.745	-66.284	-50.312	-104.597	-0.000	80.355	-104.515	-99.423	23.641	12.723	-100.735	-96.044	-96.342	-93.095	88.373	-94.826	-8191	255	
1511.851	1	1	0	0	0.19598	0.20635	0.12857	0.074894	0.23709	0.076793	0.11565	0.2347	0.3076	0.20312	0.16806	0.16394	0.26091	0.23672	0.11515	0.45471	-2.5708	-2.8104	-3.3167	-2.8625	-2.9917	-3.2938	-2.85	-3.2396	-3.1063	-3.0854	-3.4146	-2.8625	-2.9979	-3.3271	-2.875	-3.3271	238.041	-0.906	29.893	-69.197	162.227	145.618	233.497	103.916	-85.233	29.471	33.157	168.789	181.151	196.775	187.157	181.586	0.00048742	0.0010916	0.00016472	732.49	7.3786e-06	4.3898e-06	800.11	268.71	1.8361e-06	7.419e-06	366.39	158.89	123.85	60.516	7.7137e-06	92.216	0.0029007	0.0052644	0.0014674	732.2	5.025e-05	5.9258e-05	801.78	272.05	5.1452e-05	5.9818e-05	368.37	180.65	125.92	60.965	5.5284e-05	92.963	-89.740	-35.427	27.713	-104.636	55.826	218.656	-104.694	-99.210	-0.335	29.660	-100.757	-96.046	-96.287	-93.283	53.757	-94.601	-8191	255	
1511.947	1	1	0	0	0.19781	0.10852	0.23455	0.19734	0.20055	0.030993	0.19769	0.19808	0.16223	0.034825	0.12979	0.17238	0.21865	0.21086	0.13075	0.068908	-2.7375	-2.7542	-3.0854	-2.8771	-2.9583	-3.2021	-2.9229	-3.1729	-2.9354	-2.7188	-3.3479	-2.9979	-3.0396	-3.3646	-3.0125	-3.2562	-93.991	183.266	95.711	156.473	82.634	204.412	113.062	206.255	13.635	62.437	-66.388	146.733	13.319	209.503	213.472	-100.476	0.00049358	0.0011979	0.00012436	728.47	8.9355e-06	7.4629e-06	801.35	269.91	6.8795e-06	2.0135e-06	365.8	160.71	124.14	60.45	8.708e-06	92.518	0.0029485	0.005356	0.0014919	731.35	5.1704e-05	6.0915e-05	801.09	272.51	5.3488e-05	6.1797e-05	368.86	181.25	126.21	61.117	5.6744e-05	93.23	-87.078	-53.676	-23.491	-104.625	11.413	33.301	-104.669	-99.415	-5.521	69.855	-101.253	-96.046	-96.404	-93.593	77.622	-94.771	-8191	255	
1512.043	1	1	0	0	0.24147	0.34007	0.064133	0.14107	0.11935	0.1769	0.20784	0.20014	0.20819	0.1426	0.10705	0.1969	0.23732	0.13597	0.29291	0.036237	-2.6562	-2.8042	-3.0167	-2.9813	-2.7687	-3.25	-3.0125	-3.1292	-3.2271	-2.8604	-3.1604	-3.0417	-2.85	-3.2583	-2.9583	-3.2313	-74.245	-15.836	-95.300	99.530	179.600	158.655	232.601	225.652	79.932	106.441	-75.174	99.412	182.842	183.875	-7.789	168.594	0.00055636	0.00098603	0.00029356	733.74	6.8536e-06	8.9632e-06	799.09	269.35	4.6874e-06	6.8389e-06	365.19	158.81	124.3	60.626	3.2151e-06	92.512	0.0031058	0.0055506	0.0015365	734.49	5.3396e-05	6.2322e-05	801.4	272.34	5.5987e-05	6.3003e-05	369.04	181.4	126.17	61.271	5.9425e-05	93.509	-88.270	-55.637	-48.024	-104.511	-1.657	67.936	-104.689	-99.370	25.988	22.248	-101.123	-96.183	-96.286	-93.246	6.092	-94.820	-8191	255	
1512.163	1	1	0	0	0.053214	0.2182	0.14022	0.17461	0.14666	0.22987	0.12597	0.1047	0.17681	0.207	0.14347	0.070589	0.083369	0.35697	0.1086	0.17906	-2.8667	-2.8354	-2.9542	-3.0958	-2.825	-3.4646	-2.9083	-3.2958	-3.1437	-2.8083	-3.4542	-3.0938	-2.9458	-3.3208	-3.0646	-3.2333	78.482	83.641	169.797	240.846	-11.818	151.729	208.598	173.480	117.342	-60.560	188.237	44.059	5.501	206.147	136.966	137.859	0.00053957	0.00058133	0.00023834	729.07	5.8844e-06	1.1734e-05	804.37	268.31	5.8619e-06	3.5847e-06	364.2	160.04	123.93	60.426	4.0781e-06	92.311	0.0032001	0.0057735	0.0015938	733.37	5.5599e-05	6.5106e-05	804.01	272.29	5.7328e-05	6.6047e-05	369.05	182.41	126.15	61.239	6.2982e-05	93.435	-90.871	-19.250	-21.010	-104.521	15.323	21.359	-104.799	-99.651	-8.925	66.420	-100.939	-96.113	-96.325	-93.388	83.374	-94.552	-8191	255	
1512.260	1	1	0	0	0.23911	0.15997	0.098035	0.11991	0.076722	0.11306	0.32784	0.18824	0.13605	0.40963	0.03218	0.13578	0.29409	0.14265	0.29833	0.17899	-2.6667	-2.8521	-3.05	-2.9062	-2.7562	-3.1167	-3.0333	-2.9292	-3.3208	-2.7812	-3.1188	-3.2458	-2.8667	-3.3833	-2.9854	-3.0229	-14.395	84.233	-20.702	191.834	-62.053	175.677	172.196	-106.929	43.181	86.136	-76.034	-72.409	218.681	-100.349	178.758	-27.158	0.00053951	0.00073027	0.00031122	735.46	3.5984e-06	6.7006e-06	802.15	268.61	2.1808e-06	9.4209e-06	362.6	159.6	122.77	60.012	9.1329e-06	91.112	0.0033757	0.0062367	0.0017374	737.19	6.1549e-05	7.2066e-05	804.9	272.19	6.4957e-05	7.4675e-05	367.6	183.99	125.62	60.819	6.976e-05	92.501	-84.792	-24.822	-48.483	-104.457	117.327	86.101	-104.806	-99.209	47.233	80.712	-100.609	-95.990	-96.327	-93.323	81.125	-94.873	-8191	255	
1512.331	1	1	0	0	0.13842	0.22214	0.27228	0.10197	0.23546	0.035794	0.24059	0.17414	0.12053	0.19932	0.1076	0.10771	0.13978	0.26715	0.19472	0.17566	-2.8917	-2.825	-3.1854	-3.1896	-2.8333	-3.2958	-3.1854	-2.9271	-3.2146	-2.9625	-3.2396	-3.0146	-2.9375	-3.3375	-3.0604	-3.1292	-108.938	-46.551	215.682	-15.340	61.053	28.375	177.097	-96.821	149.910	69.089	105.433	-55.525	32.070	-72.923	183.793	120.845	0.00054418	0.00081037	8.5628e-05	733.36	7.6678e-06	4.3042e-06	798.62	265.26	3.9152e-06	3.9901e-06	358.95	158.33	122.35	59.7	6.7119e-06	91.259	0.0037194	0.0069767	0.001929	737.54	6.7672e-05	7.9192e-05	805.65	270.5	7.0199e-05	8.1012e-05	364.77	185.34	124.99	60.647	7.7493e-05	92.487	-86.675	-55.341	121.443	-104.454	24.613	35.004	-104.620	-99.148	102.247	102.552	-100.993	-96.454	-96.336	-93.446	31.280	-94.727	-8191	255	
1512.452	1	1	0	0	0.13538	0.091241	0.15659	0.21978	0.064218	0.15977	0.18065	0.22433	0.094563	0.21556	0.14384	0.14081	0.25745	0.35817	0.048939	0.21572	-2.9167	-2.8958	-2.8937	-3.2167	-2.9375	-3.2	-3.1583	-2.6625	-3.25	-3.0687	-3.1146	-3.4104	-2.8271	-3.3625	-3.2354	-3.0167	113.793	182.265	73.904	-113.159	178.059	223.091	234.618	-89.720	241.143	150.387	-109.192	216.240	204.941	199.933	9.912	179.455	0.00052128	0.0011957	0.00038894	730.12	3.5759e-06	6.5455e-06	800.35	262.23	7.6606e-06	7.8781e-06	354.82	156.46	119	59.599	8.6493e-06	91.378	0.0041186	0.0077829	0.0021963	740.37	7.7526e-05	9.1686e-05	810.18	268.84	8.3923e-05	9.776e-05	362.79	188.48	123.13	60.749	9.3686e-05	92.761	-86.221	15.771	-9.406	-104.382	18.755	24.445	-104.802	-99.430	88.269	27.533	-100.943	-96.161	-96.126	-93.192	27.462	-94.823	-8191	255	
1512.546	1	1	0	0	0.03003	0.014133	0.21855	0.093511	0.32124	0.14463	0.10095	0.22077	0.47329	0.10039	0.25026	0.30742	0.10599	0.2749	0.24984	0.11464	-2.8208	-2.8958	-2.9625	-3.4229	-2.9958	-3.0479	-3.3083	-2.7146	-3.3167	-2.9896	-3.0479	-3.3042	-2.9875	-3.2125	-3.3979	-2.9354	-7.861	-103.529	205.528	141.012	2.854	82.172	-112.721	212.893	225.879	-52.112	-91.673	216.983	-105.238	181.231	43.633	208.868	0.00056997	0.00057544	0.00010691	735.24	3.5493e-06	1.2473e-05	804.86	262.96	3.2147e-06	4.4641e-06	358.28	156.88	121.72	60.447	6.8388e-06	92.147	0.0049044	0.0093505	0.0026645	747.43	9.3356e-05	0.00011107	815.51	271.76	9.9189e-05	0.00011496	367.59	195.19	126.38	61.986	0.00010878	94.253	-88.693	-83.748	-6.925	-104.386	-110.759	38.076	-104.680	-99.428	133.165	76.689	-100.711	-96.111	-96.180	-93.006	35.687	-94.581	-8191	255	
1512.642	1	1	0	0	0.13443	0.17628	0.14745	0.18777	0.067115	0.071752	0.091292	0.21618	0.16	0.10629	0.047043	0.024941	0.11506	0.16323	0.22373	0.09676	-2.7625	-3.1396	-2.9125	-3.3896	-2.9417	-3.0521	-3.1979	-2.6792	-3.4104	-3.1625	-2.9083	-3.4229	-2.9854	-3.3125	-3.2458	-3.025	33.654	223.456	-113.055	-64.506	22.708	21.031	64.359	-26.181	-50.130	66.431	82.809	10.987	21.497	189.960	175.393	138.787	0.00050604	0.00035638	0.00034401	732.5	8.9078e-06	8.2345e-06	802.74	261.86	7.48e-06	9.4396e-06	352.12	154.59	120.25	60.191	6.6216e-06	91.319	0.0055341	0.01079	0.0030151	749.81	0.00010258	0.00012087	816.17	271.52	0.00010691	0.00012481	364.83	196.07	125.31	61.688	0.00011815	93.518	-84.578	19.436	-20.293	-104.496	76.707	31.872	-104.744	-99.299	226.148	13.303	-100.779	-95.735	-96.057	-93.277	120.996	-94.762	-8191	255	
1512.739	1	1	0	0	0.26951	0.214	0.11616	0.15991	0.24125	0.038401	0.15434	0.20135	0.14023	0.070546	0.16484	0.18409	0.14844	0.15246	0.42184	0.078749	-2.5792	-2.9542	-2.8312	-3.3625	-3.0125	-3.2292	-3.4458	-2.9146	-3.2854	-3.0771	-2.8729	-3.3375	-2.9958	-3.1625	-3.3563	-3.1292	43.561	139.014	32.765	218.556	205.851	-31.250	198.621	177.790	230.893	21.357	129.790	42.873	153.026	83.586	159.496	125.357	0.00052461	0.00073056	0.00030793	738.32	4.3753e-06	5.0329e-06	802.43	262.82	7.2172e-06	1.5998e-05	353.06	153.98	120.22	60.173	1.2237e-05	90.839	0.0060573	0.011952	0.0032916	754.89	0.0001136	0.00013508	820.03	272.68	0.00011755	0.00013699	366.4	199.63	126.02	61.931	0.00012946	93.569	-81.683	224.332	-11.633	-104.340	59.500	195.285	-104.503	-99.397	-51.051	50.689	-100.882	-95.547	-95.788	-93.367	68.717	-94.670	-8191	255	
1512.859	1	1	0	0	0.087238	0.10649	0.094521	0.085268	0.049405	0.18408	0.31972	0.14666	0.16954	0.097749	0.16252	0.12396	0.13989	0.15448	0.13609	0.14296	-2.6188	-3.2417	-2.7167	-3.1833	-2.9458	-3.0563	-3.2917	-2.9104	-3.0667	-3.4375	-2.8146	-3.2521	-3.275	-3.0521	-3.4	-3.1479	118.500	53.342	219.137	-42.841	123.997	-61.610	-17.324	80.644	40.630	-68.744	149.909	158.240	224.446	-43.159	199.231	76.448	0.0005988	0.00090801	0.00019548	737.93	6.1722e-06	7.6871e-06	799.43	264.4	4.7943e-06	1.1247e-05	355.22	156.06	120.14	59.923	6.525e-06	91.179	0.0065075	0.012772	0.0035815	757.16	0.00012229	0.00014431	822.19	274.62	0.00012508	0.00014462	368.98	203.12	126.58	61.997	0.00013547	93.878	-87.485	-26.849	-18.262	-104.307	237.256	31.302	-104.722	-99.252	0.696	97.524	-100.707	-95.856	-95.976	-93.266	91.511	-94.693	-8191	255	
1512.955	1	1	0	0	0.041934	0.1694	0.26579	0.18211	0.18182	0.098014	0.35119	0.14282	0.22004	0.1647	0.16102	0.08671	0.13349	0.19134	0.16007	0.17843	-2.6813	-3.2687	-2.8812	-3.2208	-3.175	-2.8854	-3.3208	-2.9771	-3.1333	-3.4479	-2.8458	-3.3542	-3.1917	-2.9375	-3.325	-3.0208	154.499	68.088	-64.767	159.090	90.827	145.439	163.323	108.234	198.336	75.666	190.036	-38.363	231.250	-101.423	-22.052	215.881	0.00054328	0.0011226	0.00022106	736.11	2.4007e-06	9.733e-06	801.92	262.8	9.5854e-06	4.6986e-06	355.17	155.04	120.39	60.376	7.9757e-06	91.644	0.0068194	0.013426	0.0036778	758.44	0.00012706	0.00015094	823.75	274.81	0.00013126	0.0001527	369.28	204.73	127.06	62.375	0.00013934	94.24	-93.902	-33.551	16.809	-104.647	135.671	78.755	-104.920	-99.285	-17.364	67.289	-100.851	-95.709	-96.288	-93.235	39.120	-94.535	-8191	255	
1513.027	1	1	0	0	0.14368	0.086846	0.10093	0.28105	0.15454	0.1289	0.17597	0.13174	0.14027	0.21216	0.12053	0.1504	0.31219	0.25739	0.10922	0.41094	-2.5563	-3.1646	-2.8979	-3.3792	-3.1	-2.8792	-3.4125	-3.1188	-2.9771	-3.3438	-2.8708	-3.0104	-3.3021	-2.8167	-3.2313	-3.1292	-4.704	-97.418	118.652	225.567	208.271	26.242	-100.074	173.344	131.462	220.865	125.804	139.951	240.099	-110.692	128.255	-73.436	0.000501	0.00057993	0.00018152	737.22	1.6268e-05	1.2165e-05	799.46	261.96	5.0515e-06	1.138e-05	352.97	156.99	119.87	59.841	7.4097e-06	91.28	0.0071082	0.013911	0.0038736	760.57	0.00013243	0.00015703	824.67	274.6	0.00013482	0.00015485	368.86	205.8	126.7	61.944	0.00014066	93.58	-82.596	-48.256	-42.766	-104.685	54.493	30.129	-104.781	-99.380	100.402	58.206	-100.972	-95.509	-96.182	-93.275	49.837	-94.643	-8191	255	
1513.123	1	1	0	0	0.05496	0.12495	0.07637	0.21606	0.054686	0.027941	0.16	0.18984	0.077776	0.14208	0.19786	0.066437	0.081373	0.20958	0.18501	0.22787	-2.4646	-3.2479	-2.8417	-3.1083	-3.15	-2.8646	-3.225	-3.1042	-2.8854	-3.1688	-3.1042	-2.925	-3.2292	-2.7771	-3.125	-3.2396	119.362	121.755	32.246	-80.662	-102.831	-34.906	182.231	133.081	77.853	238.965	-39.476	-104.756	207.890	222.175	205.143	159.675	0.00053523	0.00097671	0.00023474	734.63	7.5339e-06	1.7516e-06	798.76	259.92	4.5508e-06	5.387e-06	349.48	152.55	117.96	59.331	1.9624e-06	89.987	0.0071318	0.013857	0.0038364	757.54	0.00012967	0.00015392	819.17	272.73	0.0001333	0.00015344	364.73	202.88	124.83	61.315	0.000139	92.61	-84.783	-40.341	9.930	-104.485	64.944	28.894	-104.963	-99.298	155.357	26.882	-100.849	-96.464	-95.887	-93.113	173.840	-94.593	-8191	255	
1513.244	1	1	0	0	0.21628	0.15965	0.10929	0.12516	0.23967	0.057043	0.20864	0.20444	0.033767	0.3747	0.28977	0.22611	0.15882	0.13381	0.30057	0.22713	-2.4396	-3.3208	-3.0292	-3.0417	-3.0542	-2.6646	-3.2979	-3.2125	-2.775	-3.2333	-3.0125	-3.075	-3.1771	-3.1521	-3.2	-3.0375	163.143	159.437	-59.362	-49.071	221.958	109.235	132.225	182.405	-43.712	-5.300	106.441	147.013	147.468	178.743	121.011	152.843	0.00050907	0.00087309	0.0003349	733.64	2.72e-06	6.875e-06	797.21	258.18	6.7134e-06	7.797e-06	349.97	152.97	118.62	59.648	6.5897e-06	90.457	0.0069722	0.013562	0.0037538	756.47	0.00012947	0.00014992	819.32	272.09	0.00012993	0.00014974	364.3	202.13	125.05	61.49	0.00013429	92.943	-83.787	232.368	-35.381	-104.316	124.818	-13.194	-104.751	-99.274	32.067	36.032	-100.452	-95.182	-95.721	-93.090	127.607	-94.644	-8191	255	
1513.340	1	1	0	0	0.24972	0.20447	0.10185	0.2969	0.18948	0.15456	0.30554	0.19548	0.021167	0.13012	0.36459	0.010677	0.2141	0.10509	0.1724	0.12232	-2.375	-3.3187	-3.0729	-3.0458	-3.1833	-2.9792	-2.9813	-3.3708	-2.9	-3.1792	-2.9313	-2.9167	-3.4833	-3.0604	-3.0687	-3.2958	143.144	232.457	21.400	-106.622	118.127	10.406	150.205	182.857	172.836	27.685	229.014	217.026	168.727	156.787	19.179	174.069	0.00054805	0.00037757	0.00052772	731.33	6.6346e-07	8.8816e-06	792.85	257.59	3.6883e-06	1.0097e-05	345.64	153.51	117.93	59.333	7.4729e-06	89.957	0.0066573	0.012865	0.003541	754.44	0.00011995	0.00013952	814.08	268.61	0.00011821	0.00013441	359.8	196.19	123.15	61.04	0.0001206	92.453	-90.038	194.865	-12.780	-104.772	201.900	-32.110	-104.639	-99.251	-74.553	10.952	-100.861	-96.670	-95.793	-93.040	28.593	-94.720	-8191	255	
1513.436	1	1	0	0	0.27717	0.064058	0.14331	0.21621	0.10298	0.081983	0.045102	0.34608	0.076398	0.12165	0.34525	0.053502	0.0040654	0.057213	0.10888	0.26453	-2.35	-3.3063	-2.9917	-2.8333	-3.3729	-2.875	-3.1	-3.2521	-2.9125	-3.3375	-3.1667	-3.0583	-3.2979	-3.075	-3.0979	-3.4896	110.100	151.644	-72.809	162.978	236.566	112.626	-47.591	153.239	-90.450	213.064	-114.251	-102.859	0.659	-71.418	98.448	162.126	0.00055076	0.00016262	0.00026009	734.88	1.0182e-05	1.0968e-05	795.69	256.19	2.6859e-06	7.7458e-06	343.42	151.79	115.2	58.408	8.1687e-06	88.88	0.0061745	0.011974	0.0033187	752.91	0.00011244	0.00013276	813.29	266.63	0.00011509	0.00013081	354.95	193.36	120.86	60.347	0.00011505	90.907	-84.233	13.992	-38.130	-104.545	50.922	14.190	-104.451	-99.403	42.069	-17.009	-100.813	-96.344	-95.841	-93.035	-70.712	-94.610	-8191	255	
1513.532	1	1	0	0	0.30544	0.15369	0.1631	0.034049	0.24204	0.042271	0.12505	0.44403	0.23591	0.22072	0.28771	0.069348	0.28632	0.13045	0.13424	0.089189	-2.4021	-3.0729	-3.2438	-3.0333	-3.2354	-3.1646	-3.1083	-3.3417	-2.7833	-3.0687	-3.2917	-2.7125	-3.2896	-3.0771	-2.8979	-3.3729	220.613	151.180	197.852	15.407	134.671	60.077	190.829	205.615	194.020	134.999	179.893	52.323	196.216	179.311	-114.114	91.966	0.00049217	0.00013829	0.00037957	736.28	2.9151e-06	1.4334e-05	789.62	242.87	3.7087e-06	1.1165e-05	322.73	139.47	105.36	55.615	4.3246e-06	85.177	0.005637	0.010786	0.0029256	749.1	9.9712e-05	0.00011657	805.68	251.96	9.8722e-05	0.00011525	333.59	177.58	109.84	56.945	0.00010155	86.541	-91.270	210.933	83.512	-104.516	36.673	-15.560	-104.576	-99.347	111.866	28.653	-100.046	-95.601	-95.489	-92.661	-46.479	-94.146	-8191	255	
1513.628	1	1	0	0	0.16147	0.1024	0.061102	0.14842	0.14091	0.08661	0.057662	0.0095946	0.14081	0.26005	0.24198	0.061985	0.11235	0.28924	0.2878	0.15726	-2.3979	-3.025	-3.025	-2.8563	-3.2458	-3.1896	-3.025	-3.3	-3	-3.1312	-3.375	-2.8812	-3.3021	-3.1917	-2.8042	-3.4938	242.270	31.478	-21.868	204.052	-86.450	204.778	134.676	-4.959	-110.247	-106.647	192.579	-17.207	130.880	174.007	63.350	164.253	0.00046366	0.00063521	0.00012851	742.2	5.2931e-06	2.0958e-06	796.41	233.13	2.1691e-06	4.2507e-06	314.7	133.57	101.26	54.37	5.7604e-06	84.202	0.0051101	0.0097106	0.0027244	752.07	9.0294e-05	0.00010459	808.59	242.11	8.7021e-05	9.6765e-05	323	166.3	105.23	55.477	7.8702e-05	85.196	-88.749	-86.760	26.653	-104.502	-49.089	170.100	-104.595	-98.901	-61.564	85.640	-100.633	-95.258	-95.406	-92.321	30.652	-94.178	-8191	255	
1513.725	1	1	0	0	0.26192	0.20945	0.20456	0.014054	0.2845	0.20068	0.24737	0.18125	0.22992	0.13279	0.26353	0.16068	0.081876	0.22316	0.29915	0.024936	-2.5583	-2.9333	-3.2208	-2.8042	-3.1708	-3.2458	-3.0208	-3.3187	-2.8521	-3.0125	-3.2875	-2.6562	-3.25	-3.1958	-2.9625	-3.3479	-46.218	220.461	63.130	223.285	15.232	225.651	160.886	216.894	224.568	-19.329	-17.081	111.765	220.774	-102.401	65.537	117.039	0.00050711	0.00065504	0.00036649	735.44	5.3063e-06	2.9666e-06	783.57	229.19	6.7956e-06	4.7138e-06	307.68	131.59	97.247	50.895	4.3792e-06	79.32	0.0037683	0.0070359	0.0019212	737.99	6.3857e-05	7.4557e-05	787.48	233.69	6.5198e-05	7.6088e-05	312.98	157.12	100.48	51.934	7.4322e-05	80.328	-80.898	3.149	26.844	-104.670	-84.682	9.187	-104.683	-98.677	19.725	20.680	-100.245	-94.868	-95.082	-92.397	46.593	-94.263	-8191	255	
1513.843	1	1	0	0	0.10776	0.31308	0.3637	0.2136	0.13484	0.12454	0.32115	0.19212	0.095238	0.24105	0.022654	0.052399	0.19506	0.23613	0.22856	0.12645	-2.625	-2.9417	-3.3063	-3.0542	-3.0792	-3.15	-2.9104	-3.3167	-3.1458	-2.875	-3.425	-2.9708	-3.1604	-3.0312	-2.8375	-3.3708	97.351	36.083	205.301	202.442	155.695	-104.544	139.459	149.041	36.522	-29.768	236.815	169.324	-114.871	150.592	-112.202	143.846	0.00046597	0.00074688	0.00016988	716.8	1.1631e-05	9.3343e-06	773.44	221.2	3.0028e-06	1.2364e-05	299.77	128.12	93.803	48.621	6.5036e-06	75.949	0.0039082	0.0075629	0.0021148	722.82	7.2238e-05	8.4013e-05	777.32	227.11	7.2351e-05	8.1813e-05	306.08	153.22	96.789	49.354	6.742e-05	76.95	-88.207	-60.683	-33.823	-104.768	55.461	-20.319	-104.611	-99.017	12.854	-36.678	-100.229	-95.122	-95.208	-92.319	-4.215	-94.166	-8191	255	
1513.940	1	1	0	0	0.083084	0.19995	0.063285	0.17741	0.24037	0.158	0.14208	0.19295	0.16626	0.18077	0.099503	0.23014	0.3275	0.18225	0.032032	0.16454	-2.7104	-2.8438	-3.3667	-3.0646	-3.1875	-3.2104	-2.8208	-3.4042	-3.1542	-2.8708	-3.45	-3.0083	-3.0896	-3.3438	-2.7375	-3.3417	23.979	-32.967	175.831	228.351	85.620	-68.214	35.638	235.537	-108.457	200.299	222.715	230.521	240.903	121.259	-98.997	142.225	0.00041053	0.00051833	0.00011228	707.02	7.4988e-06	5.9565e-06	763.31	218.02	4.0642e-06	2.2112e-06	297.12	127.74	93.393	48.499	1.0151e-06	76.196	0.0033923	0.0063175	0.0017242	713.63	5.9263e-05	6.8157e-05	767.5	222.22	5.9626e-05	7.0515e-05	302.32	150.01	96.365	49.252	6.5835e-05	77.154	-91.417	-69.926	-48.201	-104.587	61.314	-0.141	-104.634	-99.208	-8.520	-19.157	-100.318	-95.447	-95.143	-92.338	167.093	-94.002	-8191	255	
1514.036	1	1	0	0	0.011828	0.15015	0.18487	0.29628	0.10523	0.21329	0.25618	0.12646	0.10285	0.19358	0.037613	0.076072	0.31135	0.31221	0.039442	0.049901	-2.6125	-2.7125	-3.2	-3.1375	-2.9979	-3.2979	-2.9792	-3.0521	-3.1458	-2.6792	-3.3604	-2.8833	-3.05	-3.3625	-2.7729	-3.2562	25.399	100.786	-37.365	-52.085	-48.047	184.724	-98.322	22.469	-1.965	237.518	158.857	172.650	-47.213	181.472	67.828	40.190	0.00042753	0.00065137	0.00040091	709.28	6.9759e-06	6.9489e-06	770.21	217.19	3.2869e-06	7.5228e-06	295.98	122.82	91.629	47.6	3.8649e-07	75.164	0.0033984	0.0064843	0.0017487	712.54	5.7064e-05	6.6036e-05	768.26	220.32	5.4251e-05	6.2802e-05	298.78	145.08	93.962	48.166	5.6323e-05	76.098	-87.591	-27.464	-25.576	-104.609	22.002	49.240	-104.919	-99.344	-41.117	44.042	-100.344	-94.315	-95.288	-92.394	134.948	-93.991	-8191	255	
1514.132	1	1	0	0	0.2236	0.15703	0.24154	0.10026	0.020531	0.07133	0.28744	0.06497	0.09343	0.021911	0.038773	0.32968	0.26381	0.13755	0.33211	0.16055	-2.8563	-2.7792	-3.2667	-3.2354	-3.0083	-3.1917	-3.0375	-3.1312	-3.2167	-2.9667	-3.2604	-3.1312	-3.1063	-3.4938	-2.8875	-3.1125	43.693	178.396	-93.322	230.645	-45.883	-4.697	129.982	141.497	236.416	-40.346	-10.621	181.410	237.588	195.045	135.775	162.563	0.00038581	0.00037258	0.0001327	713.88	1.4912e-06	8.4714e-06	767.16	217.31	6.7599e-06	4.9351e-06	294.48	125.21	92.548	47.99	1.5408e-06	75.708	0.0030033	0.0055457	0.0015174	714.4	5.2349e-05	6.0184e-05	768.36	220.89	5.051e-05	5.8763e-05	298.5	144.65	94.432	48.532	5.1468e-05	76.16	-90.477	-78.060	-13.106	-104.928	87.657	73.864	-104.842	-99.033	60.987	-1.119	-100.177	-94.788	-95.186	-92.229	-21.563	-94.007	-8191	255	
1514.253	1	1	0	0	0.10477	0.20792	0.13653	0.052231	0.22729	0.028476	0.06494	0.11204	0.11531	0.13729	0.09935	0.22174	0.13256	0.091718	0.1306	0.34572	-2.9542	-2.8312	-3.2188	-3.1792	-2.9083	-3.3292	-3.0979	-3.1958	-3.2521	-2.7625	-3.2854	-2.9688	-2.8375	-3.0917	-3.075	-3.2708	144.158	72.480	180.659	-91.596	-11.853	-41.182	219.919	208.673	176.962	129.796	114.009	238.513	235.502	147.557	2.942	225.224	0.00039584	0.00075828	0.00013681	710.49	6.4117e-06	7.043e-06	765.47	217.46	3.1445e-06	7.1316e-06	295.33	123.72	91.967	47.869	6.3608e-06	74.856	0.0026632	0.0049228	0.0013349	711.76	4.6136e-05	5.2039e-05	765.52	220.33	4.5398e-05	5.1338e-05	297.87	141.6	93.967	48.273	4.7043e-05	75.599	-83.344	9.795	-14.034	-104.645	28.149	11.573	-105.025	-99.285	-26.195	22.972	-100.302	-94.790	-95.290	-92.148	-17.580	-93.940	-8191	255	
1514.324	1	1	0	0	0.18135	0.11028	0.16528	0.12421	0.28195	0.25676	0.12752	0.1165	0.10571	0.14945	0.17602	0.18296	0.33175	0.33749	0.027025	0.19353	-3.0833	-2.8979	-3.0125	-3.2	-2.8979	-3.2333	-3.1292	-2.9542	-3.4042	-2.8396	-3.2979	-3.1417	-2.7521	-3.1875	-2.9625	-2.9625	231.802	220.416	74.708	8.134	40.124	66.090	174.848	-14.277	-71.822	188.654	179.878	27.758	-115.955	189.086	-83.795	132.980	0.00043338	0.00055289	0.00021673	713.85	7.1754e-06	8.95e-06	767.83	217.93	3.7628e-06	6.5598e-06	293.61	125.34	92.443	47.734	5.1146e-06	74.835	0.0025358	0.0046632	0.0012988	711.83	4.5415e-05	5.2613e-05	765.3	220.57	4.6175e-05	5.2095e-05	296.85	142.37	94.034	48.367	4.7092e-05	75.668	-94.509	-104.711	-80.112	-104.800	30.574	49.334	-104.904	-99.293	43.871	13.920	-100.478	-94.778	-95.327	-92.483	-25.334	-93.953	-8191	255	
1514.420	1	1	0	0	0.13983	0.094323	0.066788	0.090585	0.2131	0.074702	0.12476	0.15863	0.2028	0.060618	0.171	0.22239	0.034168	0.018005	0.097964	0.11895	-2.9042	-2.8792	-3.1688	-3.2958	-2.725	-3.2146	-3.1896	-2.9958	-3.2687	-2.8187	-3.0396	-3.3104	-2.9167	-3.2875	-2.9979	-2.9479	-22.994	220.205	-65.808	116.807	167.921	65.320	101.102	219.693	169.611	47.720	-55.151	208.100	200.182	120.925	-11.791	153.148	0.00044632	0.00019672	0.00015951	712.65	7.8567e-06	3.384e-06	765.87	215.47	1.4915e-06	3.6837e-06	291.64	123.39	90.483	47.412	2.0034e-06	74.961	0.0025441	0.0045625	0.0012488	710.85	4.2646e-05	4.9516e-05	764.1	218.44	4.2445e-05	4.8263e-05	295.12	139.52	92.815	47.892	4.4617e-05	75.436	-84.813	62.576	-83.952	-104.694	12.363	49.962	-105.059	-99.225	59.054	60.587	-100.205	-94.997	-94.890	-92.409	224.739	-94.140	-8191	255	
1514.517	1	1	0	0	0.093593	0.010152	0.25317	0.27208	0.064384	0.094138	0.083778	0.24174	0.23478	0.10862	0.21053	0.035207	0.11917	0.21456	0.10474	0.21675	-3.0062	-2.8958	-2.8083	-3.2958	-2.9333	-2.8854	-3.1125	-3.0229	-3.1792	-2.9771	-2.9854	-3.1063	-2.8146	-3.1208	-3.2542	-2.9792	66.690	-80.454	58.755	159.128	28.999	200.977	1.753	-72.674	117.030	167.792	-58.827	222.863	-26.978	159.555	204.678	112.316	0.00044329	0.00029007	0.00017486	711.53	2.3654e-06	2.8046e-06	768.2	217.27	5.3446e-06	5.0157e-06	292.48	123.63	90.299	47.143	6.2625e-06	74.562	0.0023935	0.0042966	0.001198	711.14	3.9798e-05	4.6049e-05	764.58	218.51	3.9649e-05	4.4493e-05	294.1	138	91.773	47.661	4.0402e-05	74.821	-87.354	-9.090	-83.357	-104.911	67.520	31.443	-105.158	-98.983	47.255	55.389	-100.409	-95.132	-95.112	-91.829	78.411	-93.892	-8191	255	
#DATA ENDS
