BOXY.EXE: ISS Imagent and Oximeter Data Acquisition Program Version 0.80
Ascii Record File

#ACQ INFORMATION
2  Detector Channels 
16  External MUX Channels 
1  Auxiliary Channels 
5000  Waveform (CCF) Frequency (Hz)
1  Waveforms Skipped 
30  Waveforms Averaged 
1  Cycles Averaged 
16  Acquisitions per Waveform 
10.0806  Updata Rate (Hz) 

#FILE INFORMATION
TRUE -- External MUX Channel results are PARSED.
FALSE -- AC DC and Phase are NOT grouped.
TRUE -- Companion Program Settings File CREATED.
FALSE -- AC data not excluded
FALSE -- DC data not excluded
FALSE -- Phase data not excluded
FALSE -- Auxillary Chn. data not excluded
Tab delimiters

#CALIBRATION STATE
TRUE -- Waveform Calibration Values APPLIED.


#AUX CALIBRATION VALUES
Val Type	aux-1	

Term	1.0000e+00	
Factor	0.0000e+00	


#WF CALIBRATION VALUES
A = Detector Channel
Val Type	A-AC1	A-AC2	A-AC3	A-AC4	A-AC5	A-AC6	A-AC7	A-AC8	A-AC9	A-AC10	A-AC11	A-AC12	A-AC13	A-AC14	A-AC15	A-AC16	A-DC1	A-DC2	A-DC3	A-DC4	A-DC5	A-DC6	A-DC7	A-DC8	A-DC9	A-DC10	A-DC11	A-DC12	A-DC13	A-DC14	A-DC15	A-DC16	A-Ph1	A-Ph2	A-Ph3	A-Ph4	A-Ph5	A-Ph6	A-Ph7	A-Ph8	A-Ph9	A-Ph10	A-Ph11	A-Ph12	A-Ph13	A-Ph14	A-Ph15	A-Ph16	

Term	0.00000e+00	0.00000e+00	0.00000e+00	0.00000e+00	0.00000e+00	0.00000e+00	0.00000e+00	0.00000e+00	0.00000e+00	0.00000e+00	0.00000e+00	0.00000e+00	0.00000e+00	0.00000e+00	0.00000e+00	0.00000e+00	0.00000e+00	0.00000e+00	0.00000e+00	0.00000e+00	0.00000e+00	0.00000e+00	0.00000e+00	0.00000e+00	0.00000e+00	0.00000e+00	0.00000e+00	0.00000e+00	0.00000e+00	0.00000e+00	0.00000e+00	0.00000e+00	0.00000e+00	0.00000e+00	0.00000e+00	0.00000e+00	0.00000e+00	0.00000e+00	0.00000e+00	0.00000e+00	0.00000e+00	0.00000e+00	0.00000e+00	0.00000e+00	0.00000e+00	0.00000e+00	0.00000e+00	0.00000e+00	
Factor	1.00000e+00	1.00000e+00	1.00000e+00	1.00000e+00	1.00000e+00	1.00000e+00	1.00000e+00	1.00000e+00	1.00000e+00	1.00000e+00	1.00000e+00	1.00000e+00	1.00000e+00	1.00000e+00	1.00000e+00	1.00000e+00	1.00000e+00	1.00000e+00	1.00000e+00	1.00000e+00	1.00000e+00	1.00000e+00	1.00000e+00	1.00000e+00	1.00000e+00	1.00000e+00	1.00000e+00	1.00000e+00	1.00000e+00	1.00000e+00	1.00000e+00	1.00000e+00	X	X	X	X	X	X	X	X	X	X	X	X	X	X	X	X	

B = Detector Channel
Val Type	B-AC1	B-AC2	B-AC3	B-AC4	B-AC5	B-AC6	B-AC7	B-AC8	B-AC9	B-AC10	B-AC11	B-AC12	B-AC13	B-AC14	B-AC15	B-AC16	B-DC1	B-DC2	B-DC3	B-DC4	B-DC5	B-DC6	B-DC7	B-DC8	B-DC9	B-DC10	B-DC11	B-DC12	B-DC13	B-DC14	B-DC15	B-DC16	B-Ph1	B-Ph2	B-Ph3	B-Ph4	B-Ph5	B-Ph6	B-Ph7	B-Ph8	B-Ph9	B-Ph10	B-Ph11	B-Ph12	B-Ph13	B-Ph14	B-Ph15	B-Ph16	

Term	0.00000e+00	0.00000e+00	0.00000e+00	0.00000e+00	0.00000e+00	0.00000e+00	0.00000e+00	0.00000e+00	0.00000e+00	0.00000e+00	0.00000e+00	0.00000e+00	0.00000e+00	0.00000e+00	0.00000e+00	0.00000e+00	0.00000e+00	0.00000e+00	0.00000e+00	0.00000e+00	0.00000e+00	0.00000e+00	0.00000e+00	0.00000e+00	0.00000e+00	0.00000e+00	0.00000e+00	0.00000e+00	0.00000e+00	0.00000e+00	0.00000e+00	0.00000e+00	-5.49489e+01	-1.30018e+02	-1.15029e+02	-1.82000e+02	-4.48403e+01	-6.38213e+01	-1.54057e+02	-1.62015e+02	-3.85132e+01	-6.38819e+01	-1.69547e+02	-1.75151e+02	-1.81293e+02	-1.75935e+02	-4.59049e+01	-1.48675e+02	
Factor	1.87765e-05	1.88899e-04	5.74682e-05	1.52957e-01	1.97764e-06	2.23793e-06	1.65064e-01	6.35851e-02	1.55218e-06	1.92868e-06	8.55358e-02	2.11266e-01	3.09704e-02	8.91294e-03	1.86578e-06	1.29532e-02	1.43335e-05	2.95678e-05	8.19797e-06	7.80900e-02	2.80065e-07	3.30729e-07	7.91658e-02	3.25726e-02	2.84905e-07	3.29813e-07	4.25583e-02	1.04478e-01	1.60749e-02	4.61447e-03	3.00568e-07	6.47548e-03	X	X	X	X	X	X	X	X	X	X	X	X	X	X	X	X	



#DISTANCE SETTINGS
A = Detector Channel
A-1	A-2	A-3	A-4	A-5	A-6	A-7	A-8	A-9	A-10	A-11	A-12	A-13	A-14	A-15	A-16	

2.5000e+00	3.0000e+00	2.5000e+00	3.0000e+00	2.0000e+00	3.0000e+00	1.5000e+00	3.0000e+00	3.0000e+00	3.0000e+00	3.0000e+00	3.0000e+00	3.0000e+00	3.0000e+00	1.5000e+00	3.0000e+00	

B = Detector Channel
B-1	B-2	B-3	B-4	B-5	B-6	B-7	B-8	B-9	B-10	B-11	B-12	B-13	B-14	B-15	B-16	

1.0000e+01	1.0000e+01	1.0000e+01	1.4400e+00	1.0000e+01	1.0000e+01	1.5100e+00	1.9400e+00	1.0000e+01	1.0000e+01	1.9900e+00	2.4900e+00	2.4100e+00	2.9000e+00	1.0000e+01	2.9800e+00	




#DATA BEGINS
time	group	step	mark	flag	A-AC1	A-AC2	A-AC3	A-AC4	A-AC5	A-AC6	A-AC7	A-AC8	A-AC9	A-AC10	A-AC11	A-AC12	A-AC13	A-AC14	A-AC15	A-AC16	A-DC1	A-DC2	A-DC3	A-DC4	A-DC5	A-DC6	A-DC7	A-DC8	A-DC9	A-DC10	A-DC11	A-DC12	A-DC13	A-DC14	A-DC15	A-DC16	A-Ph1	A-Ph2	A-Ph3	A-Ph4	A-Ph5	A-Ph6	A-Ph7	A-Ph8	A-Ph9	A-Ph10	A-Ph11	A-Ph12	A-Ph13	A-Ph14	A-Ph15	A-Ph16	B-AC1	B-AC2	B-AC3	B-AC4	B-AC5	B-AC6	B-AC7	B-AC8	B-AC9	B-AC10	B-AC11	B-AC12	B-AC13	B-AC14	B-AC15	B-AC16	B-DC1	B-DC2	B-DC3	B-DC4	B-DC5	B-DC6	B-DC7	B-DC8	B-DC9	B-DC10	B-DC11	B-DC12	B-DC13	B-DC14	B-DC15	B-DC16	B-Ph1	B-Ph2	B-Ph3	B-Ph4	B-Ph5	B-Ph6	B-Ph7	B-Ph8	B-Ph9	B-Ph10	B-Ph11	B-Ph12	B-Ph13	B-Ph14	B-Ph15	B-Ph16	aux-1	digaux	

817.459	1	1	0	256	0.094107	0.060741	0.15828	0.32129	0.029427	0.093966	0.37696	0.42874	0.18847	0.18733	0.042002	0.27003	0.19787	0.175	0.093123	0.074695	-2.2417	-3.0917	-2.7188	-2.9813	-3.1063	-2.8187	-3.2125	-3.2146	-2.9042	-3.3083	-3.2208	-2.9625	-3.2792	-2.8937	-2.925	-3.3563	275.050	337.323	273.573	424.453	344.013	338.824	454.637	486.389	407.665	425.459	259.637	245.910	492.725	174.274	409.712	243.296	0.0005636	0.00038439	0.00016136	1332.9	4.7015e-06	5.1325e-06	1330.8	360.47	5.0417e-06	2.8923e-06	411.82	138.61	118.82	40.471	6.4977e-06	50.488	0.00051881	0.00041869	0.00012329	1354.2	4.9449e-06	4.9203e-06	1350.4	367.69	5.0256e-06	4.717e-06	420	138.87	122	41.694	4.9775e-06	51.868	265.351	244.965	260.833	167.998	303.948	302.662	167.834	172.501	299.975	285.273	172.068	176.658	177.001	181.691	315.507	180.740	-8191	255	
817.555	1	1	0	0	0.35485	0.085371	0.065948	0.2935	0.034788	0.22976	0.15805	0.21807	0.15298	0.065625	0.31714	0.11893	0.10758	0.22697	0.18955	0.21995	-2.5646	-3.2438	-2.975	-3.025	-3.2854	-2.8042	-3.1271	-3.3146	-2.7687	-3.2208	-3.2062	-2.8417	-3.2146	-2.8646	-3.1396	-3.3917	384.624	467.130	330.366	488.656	405.248	320.921	417.743	484.612	286.463	238.056	439.804	486.914	498.660	480.707	222.133	476.811	0.00058213	0.00046011	0.00012038	1332.9	6.1494e-06	4.4743e-06	1333.5	361.21	5.4493e-06	4.4171e-06	411.48	139.23	118.94	40.496	3.8542e-06	50.414	0.00053389	0.00043218	0.00012177	1356.4	4.8912e-06	4.9189e-06	1350.9	368.02	5.2244e-06	5.018e-06	420.09	139.22	121.86	41.64	5.1767e-06	51.813	264.774	224.232	249.382	167.886	301.107	307.362	167.808	172.581	319.081	316.298	172.195	176.598	176.925	181.624	305.949	180.854	-8191	255	
817.651	1	1	0	0	0.44941	0.11641	0.11453	0.44875	0.025311	0.22093	0.37678	0.36571	0.12788	0.13952	0.27936	0.022401	0.11429	0.13241	0.27177	0.26877	-2.3	-3.2438	-3.1208	-3.0208	-3.3979	-2.9458	-3.2875	-3.3604	-2.8604	-3.1688	-3.1979	-2.8542	-3.3667	-2.9146	-3.05	-3.3458	353.461	226.415	412.335	493.458	376.044	292.243	449.788	406.747	243.292	164.587	469.690	253.960	412.317	509.682	486.346	432.657	0.00059829	0.00049179	0.00013092	1339.8	7.2135e-06	4.7898e-06	1336.8	361.53	3.7894e-06	4.9377e-06	410.97	139.57	119.36	40.694	6.0755e-06	50.355	0.00054458	0.0004636	0.00012744	1361.5	5.1847e-06	5.1291e-06	1356.6	368.59	5.2328e-06	5.2811e-06	420.71	139.05	122.16	41.736	5.1397e-06	51.792	265.855	237.136	235.930	167.783	299.007	300.606	167.707	172.406	314.063	299.071	171.858	176.535	176.958	181.406	312.228	180.675	-8191	255	
817.747	1	1	0	0	0.091008	0.12275	0.15694	0.49281	0.18932	0.13676	0.10555	0.11865	0.13485	0.063008	0.086132	0.22012	0.1961	0.14272	0.16092	0.05905	-2.4375	-3.0375	-2.9792	-2.8708	-3.15	-2.8396	-3.0021	-3.2354	-3.0729	-3.2562	-3.2333	-2.9125	-3.3375	-2.9437	-2.8396	-3.3583	403.619	505.475	292.264	513.415	300.121	351.604	489.721	364.353	276.570	393.237	473.241	251.718	448.713	411.598	339.721	394.451	0.00060151	0.00047615	0.00012867	1343.1	5.3532e-06	6.4721e-06	1340.2	361.86	5.3787e-06	5.2222e-06	412.18	138.99	119.54	40.371	5.5462e-06	50.35	0.00055005	0.00045448	0.00012695	1365.3	5.2687e-06	4.932e-06	1361.7	369.33	5.3461e-06	5.2007e-06	420.96	139.58	122.47	41.632	5.2205e-06	51.778	265.440	237.170	263.120	167.989	306.080	312.302	167.714	172.546	314.850	307.747	172.128	177.457	176.926	181.689	312.336	180.587	-8191	255	
817.843	1	1	0	0	0.31525	0.15765	0.1749	0.22968	0.13736	0.24467	0.46808	0.10716	0.18428	0.13337	0.13185	0.12197	0.08153	0.26524	0.060761	0.046174	-2.4104	-3.1396	-3.0583	-2.9042	-3.2271	-2.9146	-2.9354	-3.3438	-2.9771	-3.0438	-3.3312	-2.6729	-3.1958	-3.0604	-2.9062	-3.4062	270.800	508.269	363.333	477.629	454.104	190.644	424.652	512.084	433.129	209.119	497.366	295.755	400.240	492.458	493.667	339.271	0.00055341	0.00051195	0.00018546	1339	4.862e-06	5.4212e-06	1336.4	360.62	5.8366e-06	3.1491e-06	413.84	139.18	119	40.397	5.7719e-06	50.11	0.00053419	0.00046489	0.00013115	1362.4	5.3516e-06	5.3488e-06	1357.4	368.36	5.2559e-06	5.2475e-06	421.49	139.09	121.96	41.597	5.1911e-06	51.622	265.612	249.989	269.769	167.975	297.519	302.060	167.868	172.658	316.958	314.281	171.766	177.101	176.888	181.651	326.186	180.659	-8191	255	
817.962	1	1	0	0	0.12636	0.21113	0.11406	0.23183	0.24398	0.070766	0.056349	0.065114	0.088563	0.11104	0.083398	0.26215	0.10658	0.15186	0.11755	0.093142	-2.3354	-2.7687	-3.0333	-2.8083	-3.0146	-2.9854	-3.0854	-3.35	-3.075	-3.1312	-3.3208	-2.9417	-3.0875	-3.1417	-2.8	-3.1937	171.379	313.652	296.146	476.856	199.119	351.985	312.198	469.993	457.632	180.157	456.995	352.247	452.885	163.238	158.003	183.718	0.00056168	0.00060418	0.00016744	1339.4	4.7607e-06	3.9711e-06	1341.1	361.27	4.1719e-06	4.4225e-06	413.86	139.51	118.96	40.49	4.6339e-06	50.544	0.0005424	0.00050715	0.00013038	1362.3	5.3043e-06	5.2283e-06	1357.5	368.41	5.507e-06	5.3402e-06	421.01	139.67	121.93	41.696	5.6525e-06	51.772	264.905	246.126	271.776	167.859	309.593	296.984	167.988	172.353	319.728	306.143	171.855	176.820	176.792	181.731	326.149	180.693	-8191	255	
818.058	1	1	0	0	0.10288	0.26485	0.07993	0.49617	0.23189	0.25755	0.30321	0.11309	0.23156	0.19376	0.39897	0.05649	0.081791	0.16372	0.18942	0.24769	-2.4313	-2.675	-3.3229	-3.125	-3.1167	-3.15	-2.8812	-3.3729	-2.9125	-2.9792	-3.3333	-2.8604	-2.9521	-3.2729	-2.6792	-3.1375	498.618	269.714	478.619	466.829	415.728	326.932	411.684	393.045	218.608	447.285	377.571	169.620	421.784	186.687	395.243	487.652	0.00056123	0.00034608	0.00016499	1343.6	6.5002e-06	3.7127e-06	1341.7	360.72	6.3411e-06	5.22e-06	413.58	138.59	119.15	40.43	4.6377e-06	50.439	0.00054969	0.00048553	0.00013153	1365.8	5.5068e-06	5.2352e-06	1361.4	368.79	5.4666e-06	5.2234e-06	421.52	139.53	122.11	41.723	5.697e-06	51.827	265.420	228.508	257.282	168.050	305.205	310.178	167.809	172.655	318.701	300.795	172.098	177.125	177.047	181.521	300.103	180.627	-8191	255	
818.155	1	1	0	0	0.087041	0.064282	0.10007	0.15577	0.0072759	0.16887	0.30285	0.21512	0.25276	0.20098	0.18786	0.13813	0.12542	0.20039	0.21473	0.12769	-2.6875	-2.7083	-3.0792	-2.8396	-3.0542	-3.2188	-3.0042	-3.05	-2.8833	-2.7396	-3.3417	-2.8292	-2.9688	-3.3271	-2.8104	-3.1063	482.191	451.626	251.388	508.649	283.877	242.305	456.913	512.380	417.177	390.630	458.509	170.010	356.935	158.379	353.968	278.654	0.00055497	0.00057699	0.00018015	1345.1	6.608e-06	7.3875e-06	1344.6	361.52	5.0631e-06	5.7381e-06	413.71	139.97	119.3	40.676	5.591e-06	50.322	0.00054393	0.00050623	0.00013265	1367.5	5.5109e-06	5.415e-06	1362.5	369.59	5.4654e-06	5.6563e-06	421.75	139.54	122.29	41.769	5.6475e-06	51.766	264.783	241.712	263.536	167.903	312.859	299.618	167.706	172.449	307.854	306.557	171.865	176.336	176.906	181.526	322.499	180.528	-8191	255	
818.226	1	1	0	0	0.22503	0.097287	0.23386	0.18944	0.22153	0.30322	0.30125	0.20706	0.08059	0.09484	0.075106	0.096008	0.065014	0.1833	0.25265	0.16436	-2.5438	-2.6708	-3.3208	-3.1521	-2.8375	-3.25	-2.9208	-3.075	-3.0187	-2.7438	-3.2521	-2.8354	-2.9167	-3.2729	-2.6833	-3.0729	464.769	218.524	477.668	468.093	509.125	270.814	442.369	497.376	344.815	373.469	174.721	295.132	417.302	203.378	291.652	409.824	0.00051869	0.0004514	0.0001482	1348.7	5.7659e-06	4.7823e-06	1348.8	363.15	4.8813e-06	3.419e-06	414.51	140.36	119.39	40.6	4.846e-06	50.429	0.00051813	0.00050764	0.00013593	1370.9	5.5943e-06	5.1938e-06	1367.7	370.12	5.25e-06	5.3945e-06	422.88	140.03	122.43	41.77	5.2725e-06	51.771	264.841	256.087	267.652	167.877	304.160	299.053	167.685	172.600	324.550	286.553	172.085	176.861	177.204	181.686	314.402	180.601	-8191	255	
818.347	1	1	0	0	0.26314	0.061229	0.31604	0.43147	0.07498	0.23323	0.012556	0.23277	0.2612	0.34949	0.11128	0.1816	0.11133	0.31543	0.36582	0.12089	-2.5021	-2.7875	-3.2208	-3.0354	-2.9604	-2.9646	-3.0521	-3.125	-3.1312	-2.8021	-3.3688	-3.0729	-2.8271	-3.2354	-2.9229	-2.9458	450.039	163.448	353.067	505.298	296.497	354.139	207.097	472.219	300.718	502.431	448.710	160.610	480.988	252.678	237.594	458.614	0.00055631	0.0005526	0.00012613	1351.1	5.4029e-06	4.8933e-06	1344.2	363.07	5.5784e-06	4.6137e-06	414.06	138.19	119.27	40.469	4.8693e-06	50.411	0.00051825	0.00047321	0.00012548	1371.2	5.2267e-06	4.9003e-06	1364.5	369.68	5.3722e-06	5.3423e-06	422.01	139.31	121.94	41.649	5.2574e-06	51.789	267.451	241.929	250.508	167.941	308.845	318.164	167.756	172.540	316.486	306.673	172.126	176.748	176.778	181.579	301.904	180.621	-8191	255	
818.443	1	1	0	0	0.091034	0.10232	0.10647	0.39339	0.20021	0.15491	0.044944	0.18756	0.041025	0.13891	0.16622	0.085981	0.087598	0.1956	0.11683	0.11107	-2.9125	-2.6979	-3.0458	-3.3417	-2.7417	-3.2854	-2.9354	-2.9604	-3.1667	-2.7812	-3.1562	-2.8688	-2.7021	-3.3479	-2.9292	-3.1083	345.984	399.231	348.558	481.137	295.576	301.509	476.932	450.416	503.896	493.935	160.713	358.200	218.759	200.611	415.698	171.261	0.000589	0.00058107	0.00014368	1344.3	6.6134e-06	4.2688e-06	1351	363.31	4.7005e-06	4.3794e-06	413.68	139.69	119.12	40.381	6.0464e-06	50.443	0.00053724	0.00047426	0.00013028	1369.5	5.1783e-06	5.2545e-06	1366.6	369.9	5.1746e-06	5.321e-06	421.75	139.99	122.06	41.647	5.3307e-06	51.791	263.348	240.438	246.100	167.813	314.703	305.089	167.767	172.810	289.683	306.574	172.127	176.535	176.994	181.494	306.687	180.525	-8191	255	
818.539	1	1	0	0	0.21612	0.04555	0.17772	0.15179	0.32448	0.18124	0.2063	0.095449	0.25239	0.34168	0.053735	0.22469	0.26937	0.23066	0.23931	0.071904	-2.7271	-2.7833	-3.0604	-3.3354	-2.7167	-3.2958	-3.075	-2.8958	-3.1146	-2.7562	-3.1479	-3.0146	-2.9813	-3.3208	-3.0375	-3.0938	162.024	374.408	229.257	436.479	287.688	326.409	472.255	210.944	420.605	371.836	326.404	215.919	175.410	160.579	383.604	173.963	0.00056928	0.00063254	0.00017703	1354.9	5.2488e-06	6.4089e-06	1354.6	364.49	6.3107e-06	4.7319e-06	415.16	139.68	119.78	40.852	5.0701e-06	50.431	0.00054676	0.00052113	0.00013272	1377.5	5.5319e-06	5.4494e-06	1376	371.43	5.4001e-06	5.7456e-06	424.49	140.46	123.18	42.046	5.7496e-06	52.08	265.273	250.811	240.493	167.888	300.823	305.573	167.775	172.448	299.444	305.293	172.012	176.923	176.789	181.364	319.407	180.707	-8191	255	
818.635	1	1	0	0	0.20364	0.023201	0.10083	0.23897	0.1843	0.26444	0.25942	0.34005	0.16853	0.08217	0.2972	0.18902	0.14152	0.11368	0.20191	0.17782	-2.9083	-2.7979	-2.9042	-3.2667	-2.7583	-3.1979	-3.1271	-3.1042	-3.1229	-2.8771	-2.9875	-3.0833	-2.8396	-3.0771	-3.0979	-2.8042	222.065	320.216	329.892	411.480	207.433	369.729	481.712	484.421	316.400	497.985	433.729	167.219	230.414	389.319	220.823	364.810	0.00057134	0.00051435	0.00011686	1369.5	5.8202e-06	5.6281e-06	1373.9	368.34	3.8929e-06	3.0331e-06	420.33	143.12	121.72	41.265	5.5293e-06	51.297	0.00055459	0.00053432	0.00014818	1394	6.0272e-06	5.6982e-06	1395.2	376.54	5.5533e-06	5.8576e-06	429.88	142.39	124.52	42.561	5.6557e-06	52.78	266.996	216.515	251.268	167.876	319.724	305.340	167.699	172.497	320.087	300.292	172.054	176.429	176.902	181.539	326.037	180.570	-8191	255	
818.754	1	1	0	0	0.069368	0.12104	0.11183	0.39601	0.28757	0.15479	0.18047	0.21951	0.094778	0.13996	0.31229	0.23804	0.1933	0.27684	0.24826	0.18326	-2.8021	-2.7958	-2.9625	-3.3583	-2.9188	-3.1958	-3.3	-2.8917	-3.3396	-3.1083	-3.0563	-3.2167	-2.9021	-3.2667	-3.0833	-2.8021	463.383	455.499	234.131	458.064	504.812	487.539	454.468	482.925	167.655	222.101	498.990	329.353	443.135	160.425	509.423	397.631	0.00059477	0.00060467	0.00012308	1383.5	7.7742e-06	3.9142e-06	1379.3	371.2	4.9156e-06	3.4448e-06	423.61	144.15	122.55	41.588	4.3769e-06	51.378	0.00055922	0.00051713	0.00014444	1405	5.8341e-06	5.6982e-06	1401.4	378.69	5.4672e-06	5.6426e-06	431.47	143.25	125.27	42.761	5.6657e-06	52.849	268.616	236.150	267.767	167.788	309.884	290.340	167.632	172.576	318.282	311.765	171.966	176.328	176.669	181.523	312.541	180.463	-8191	255	
818.828	1	1	0	0	0.211	0.22365	0.10657	0.1278	0.33524	0.14911	0.17212	0.41052	0.094945	0.18616	0.055725	0.12325	0.14591	0.19961	0.12127	0.4648	-2.7146	-2.8688	-2.9562	-3.4354	-2.6896	-3.1437	-3.4604	-3.0062	-3.2333	-3.0125	-2.9604	-3.3542	-2.9	-3.0521	-3.2313	-2.95	478.991	430.671	203.150	431.545	384.910	484.189	464.096	482.382	235.485	385.248	385.354	451.191	493.414	166.832	340.443	461.765	0.0005784	0.00046596	0.00017502	1384	6.0936e-06	4.7789e-06	1387.1	372.44	7.4639e-06	4.8499e-06	423.54	143.1	122.53	41.684	5.3516e-06	51.549	0.00057089	0.00053087	0.00014777	1408.6	5.928e-06	5.9662e-06	1405.3	379.44	6.2293e-06	6.285e-06	431.5	143.45	125.48	42.889	6.2599e-06	53.139	265.537	253.346	262.945	167.809	299.856	288.440	167.718	172.579	314.075	304.498	171.974	177.089	176.810	181.216	315.721	180.525	-8191	255	
818.947	1	1	0	0	0.17545	0.15572	0.04457	0.17499	0.11209	0.18827	0.21019	0.24836	0.16728	0.31069	0.22054	0.23011	0.10385	0.13087	0.20615	0.1312	-2.4542	-2.8833	-2.9437	-3.3396	-2.875	-3.1125	-3.4625	-2.8479	-3.15	-2.9458	-2.7958	-3.2292	-2.9625	-3.0271	-3.3	-2.8792	492.822	313.420	432.278	189.967	295.979	188.893	388.157	471.549	383.841	419.706	299.097	198.992	443.342	203.134	329.310	483.494	0.00057185	0.00046432	0.00013154	1390.1	7.4696e-06	3.5177e-06	1392	374.87	5.1465e-06	3.6123e-06	424.44	143.59	122.89	42.117	6.0918e-06	51.755	0.00059168	0.0006038	0.00016683	1412.2	6.6113e-06	6.5705e-06	1413.7	381.42	6.5724e-06	6.6451e-06	432.96	144.39	126.19	43.214	6.8085e-06	53.305	266.336	230.855	269.187	167.745	301.775	296.454	167.651	172.440	323.653	291.223	171.969	176.968	176.906	181.389	313.400	180.296	-8191	255	
819.043	1	1	0	0	0.18867	0.025049	0.14339	0.23732	0.14683	0.21974	0.22968	0.09366	0.076466	0.13175	0.21456	0.12524	0.17214	0.11839	0.21992	0.097099	-2.6937	-2.9562	-2.7313	-3.4646	-2.9333	-2.9917	-3.3479	-2.8729	-3.2104	-3.2146	-2.8958	-3.1146	-2.9396	-3.0458	-3.2479	-2.9542	483.873	509.954	379.151	482.488	211.151	236.342	415.574	368.124	191.594	239.009	457.171	416.379	444.758	190.343	194.154	183.199	0.00056798	0.00063464	0.00010672	1394.8	6.1631e-06	5.2126e-06	1393.5	374.04	5.6454e-06	4.7163e-06	426.24	144.57	123.99	41.928	6.2976e-06	51.916	0.0006247	0.00063903	0.00018005	1419	6.7799e-06	7.2685e-06	1415.6	382.12	7.1844e-06	7.0766e-06	434.86	144.69	126.72	43.227	7.0896e-06	53.476	264.253	251.421	251.986	167.817	319.051	323.466	167.629	172.421	321.774	310.536	171.766	177.128	176.732	181.525	305.155	180.515	-8191	255	
819.139	1	1	0	0	0.16714	0.16522	0.10474	0.083194	0.14661	0.27516	0.1858	0.13396	0.34896	0.17932	0.058195	0.14491	0.33868	0.40764	0.16461	0.087184	-2.6375	-3.1083	-2.7458	-3.35	-3.0812	-2.8521	-3.4	-3.0375	-2.9083	-3.2188	-2.9771	-3.325	-3.0521	-2.8312	-3.325	-3	452.286	198.416	380.651	420.690	339.268	453.018	456.922	468.512	400.565	392.593	513.651	396.105	466.674	443.156	227.952	188.285	0.00057713	0.00050175	0.00014888	1397.7	7.1361e-06	5.5254e-06	1399.7	374.47	5.5121e-06	4.9493e-06	423.59	144.66	123.6	41.926	4.8727e-06	51.973	0.00062763	0.00063996	0.00017873	1422.7	7.008e-06	7.2333e-06	1417.7	382.62	6.9647e-06	7.1817e-06	434.34	145.4	126.72	43.226	6.8454e-06	53.458	266.309	242.285	276.995	167.848	299.803	302.311	167.463	172.448	297.260	298.307	171.883	176.844	176.577	181.285	319.832	180.544	-8191	255	
819.235	1	1	0	0	0.038562	0.13572	0.041124	0.12738	0.21155	0.2258	0.20492	0.23092	0.083475	0.14306	0.17116	0.095516	0.10994	0.10791	0.12529	0.16513	-2.4188	-3.2604	-2.8125	-3.1583	-3.0583	-2.7167	-3.4229	-2.9646	-2.9	-3.2917	-2.8979	-3.0104	-3.0625	-2.9688	-3.1979	-2.9875	369.386	405.343	207.553	184.063	505.040	378.737	439.226	474.399	291.304	254.555	502.848	274.488	460.718	482.526	256.229	167.211	0.00059685	0.00063711	0.00011009	1396.2	4.5402e-06	6.0772e-06	1400.7	376.08	7.3434e-06	5.525e-06	424.91	144.42	123.6	42.13	6.3861e-06	51.871	0.00064202	0.00067285	0.0001844	1421	7.0775e-06	7.3753e-06	1419.5	382.93	7.1054e-06	7.2772e-06	434.66	145.06	126.67	43.266	6.7609e-06	53.374	266.223	231.349	244.707	167.762	342.774	297.155	167.688	172.520	311.404	289.641	172.010	177.058	176.815	181.178	322.561	180.421	-8191	255	
819.356	1	1	0	0	0.02138	0.091978	0.10599	0.24257	0.066387	0.20772	0.25181	0.11271	0.22828	0.24238	0.23581	0.30216	0.14754	0.28298	0.16249	0.11995	-2.3542	-3.0417	-2.9062	-3.2208	-3.1146	-2.7833	-3.3604	-3.0229	-2.9167	-3.2854	-2.9104	-2.9167	-3.1437	-2.9813	-3.1583	-3.1375	212.143	438.561	349.525	489.123	472.719	296.433	178.939	293.453	183.857	432.537	422.411	470.546	506.177	473.364	326.972	440.125	0.00060055	0.0004293	9.5679e-05	1395.1	5.3952e-06	8.1027e-06	1400.8	376.23	5.6989e-06	4.9555e-06	426.15	144.34	123.38	41.904	4.757e-06	51.909	0.00062488	0.00064181	0.00018932	1421.9	6.9205e-06	7.2967e-06	1420	382.98	7.3108e-06	7.2751e-06	435.36	145.04	126.68	43.189	7.0452e-06	53.462	264.411	256.148	284.948	167.780	312.318	314.772	167.575	172.320	321.147	315.466	172.056	176.851	176.692	181.043	328.235	180.515	-8191	255	
819.452	1	1	0	0	0.1352	0.14804	0.088173	0.092576	0.18563	0.062851	0.23171	0.10197	0.12767	0.1423	0.29906	0.1094	0.0986	0.080528	0.16906	0.048199	-2.3833	-3.1667	-2.7687	-3.2104	-3.3229	-2.8042	-3.4146	-3.1604	-2.6875	-3.2167	-3.0208	-2.875	-3.2542	-2.7396	-3.0563	-3.0646	357.074	212.410	351.374	162.115	176.877	354.061	445.414	184.224	362.257	385.741	176.402	253.467	461.103	205.178	405.558	311.821	0.00057747	0.00056528	0.00011473	1398.4	6.4433e-06	5.6715e-06	1402.4	374.87	5.712e-06	4.5838e-06	425.34	143.44	124.05	42.092	4.3428e-06	51.947	0.00062921	0.00065628	0.00018058	1421.8	6.9841e-06	7.2712e-06	1420	382.51	7.2312e-06	7.1858e-06	433.84	144.51	126.64	43.271	7.2074e-06	53.409	265.970	234.084	250.398	167.951	305.530	301.945	167.618	172.499	309.681	303.211	171.947	176.058	176.771	181.267	325.780	180.591	-8191	255	
819.523	1	1	0	0	0.11965	0.11961	0.1018	0.21607	0.11177	0.031705	0.25426	0.015499	0.22208	0.25628	0.1817	0.16951	0.064986	0.17858	0.17469	0.24011	-2.2812	-3.1688	-2.9417	-3.1083	-3.3042	-2.7812	-3.4083	-3.0667	-2.8208	-3.2083	-3.0396	-3.1042	-3.4062	-2.8771	-3.0104	-3.1042	269.333	321.056	475.649	452.005	472.997	398.633	453.342	495.170	169.119	223.061	389.741	461.547	300.702	351.355	259.183	401.337	0.00058447	0.000512	0.00013899	1403.3	4.9013e-06	6.3761e-06	1394.5	375.21	5.4903e-06	4.822e-06	424.62	143.17	123.09	42.066	5.9597e-06	51.801	0.00062933	0.0006463	0.00018449	1423.4	7.1002e-06	7.3243e-06	1417.8	382.35	7.2859e-06	7.2428e-06	433.87	144.24	126.52	43.232	7.1391e-06	53.269	266.198	246.249	248.001	167.719	298.673	329.357	167.709	172.443	315.970	281.552	171.722	176.942	176.723	181.497	332.455	180.510	-8191	255	
819.644	1	1	0	0	0.25406	0.2045	0.15842	0.39235	0.20735	0.1638	0.44442	0.074625	0.098831	0.16165	0.35182	0.2227	0.23981	0.2232	0.20379	0.16266	-2.4042	-3.1625	-3.1125	-2.9417	-3.1833	-2.8417	-3.3521	-3.375	-2.7458	-3.125	-3.1979	-2.6625	-3.2458	-2.9542	-3.0896	-3.2646	159.415	451.661	408.242	447.197	269.009	345.913	423.814	166.052	160.591	287.188	224.245	216.066	495.828	450.307	323.535	459.725	0.00057508	0.00045415	0.00012436	1400	7.1656e-06	3.5496e-06	1394.9	374.84	5.8812e-06	5.8809e-06	424.66	143.22	123.97	41.861	5.0371e-06	51.805	0.0006416	0.00066534	0.00018423	1422.3	7.1475e-06	7.4021e-06	1417.9	381.95	7.1713e-06	7.4105e-06	433.82	144.63	126.7	43.168	7.1911e-06	53.327	267.005	248.486	266.398	167.873	302.670	272.222	167.661	172.420	309.534	314.290	172.069	176.501	176.727	181.160	321.605	180.308	-8191	255	
819.740	1	1	0	0	0.31686	0.036823	0.14586	0.46108	0.18833	0.03955	0.21758	0.22285	0.14669	0.16521	0.21248	0.064313	0.25502	0.11665	0.099999	0.10913	-2.4854	-3.1458	-3.0563	-3.0979	-3.1292	-2.9479	-3.25	-3.3521	-2.9042	-3.1896	-3.3	-2.7146	-3.2771	-3.0896	-3.0458	-3.0917	262.853	489.819	171.295	469.663	435.103	492.688	481.225	514.132	468.991	381.373	456.724	260.639	179.410	450.377	397.482	450.001	0.00057658	0.00056911	0.0001337	1395.9	5.6039e-06	3.5116e-06	1394.3	375.59	5.0999e-06	4.4814e-06	425.46	142.23	123.45	41.77	6.2989e-06	51.97	0.00063874	0.00067137	0.00018369	1422.7	6.969e-06	7.1444e-06	1416.2	382	7.5179e-06	7.0436e-06	434.35	144.37	126.64	43.21	7.2762e-06	53.332	266.210	238.158	262.098	167.862	294.950	270.892	167.673	172.418	307.983	308.852	171.877	176.617	176.682	181.493	329.075	180.474	-8191	255	
819.835	1	1	0	0	0.25339	0.099207	0.20784	0.18467	0.19218	0.38949	0.28004	0.12444	0.09339	0.051608	0.2266	0.12123	0.32389	0.27704	0.12668	0.17038	-2.4104	-3.0938	-3.1625	-3.0417	-3.1562	-3.1521	-3.1292	-3.3146	-2.7583	-3.05	-3.2854	-2.7833	-3.3458	-3.0229	-2.8604	-3.4417	265.120	489.107	200.891	477.614	509.569	372.425	417.388	433.928	312.067	191.496	489.479	321.507	514.046	490.505	235.414	310.918	0.0005626	0.000565	9.6532e-05	1395.8	5.58e-06	5.9281e-06	1400.6	375.45	5.7348e-06	5.4688e-06	425.29	144.77	123.93	42.176	5.8689e-06	51.835	0.00062387	0.00064211	0.00017964	1422.4	6.9054e-06	7.1038e-06	1419	382.41	7.1428e-06	7.438e-06	433.99	144.71	126.74	43.245	7.5468e-06	53.271	264.365	250.289	279.694	167.720	307.968	292.287	167.792	172.387	328.324	301.708	171.831	176.961	176.825	181.452	306.085	180.552	-8191	255	
819.931	1	1	0	0	0.13545	0.07935	0.31571	0.36385	0.044916	0.23528	0.010807	0.19743	0.21183	0.20607	0.17334	0.073997	0.060422	0.15016	0.10808	0.15415	-2.4562	-2.9917	-2.975	-2.9229	-3.1229	-2.9375	-2.9521	-3.3021	-2.9125	-2.9208	-3.35	-2.9271	-3.1437	-3.0792	-2.8688	-3.4042	286.989	508.715	459.566	156.022	476.638	166.710	196.330	418.820	325.871	460.978	424.326	511.453	283.813	423.925	340.338	157.878	0.0005847	0.00064519	0.00017511	1397.4	5.3886e-06	4.3561e-06	1397.6	373.82	5.255e-06	5.5581e-06	425.16	144.31	123.29	42.126	5.2392e-06	51.745	0.00065137	0.0006848	0.00019229	1423.7	7.2432e-06	7.4621e-06	1416.1	381.79	7.3891e-06	7.5623e-06	434	145.01	126.61	43.283	7.5424e-06	53.309	266.478	243.454	257.621	167.780	313.943	283.449	167.644	172.265	300.311	321.181	171.884	176.971	177.011	181.200	319.594	180.658	-8191	255	
820.029	1	1	0	0	0.15901	0.19435	0.47445	0.22891	0.13285	0.16348	0.11374	0.41264	0.11247	0.30537	0.30644	0.28954	0.19371	0.29133	0.1872	0.10087	-2.5542	-2.9792	-3.0729	-3.1688	-2.9875	-2.9479	-3.1354	-3.2938	-2.8021	-3.0833	-3.3771	-2.7729	-3.1854	-3.2687	-2.8187	-3.4667	306.182	241.636	361.137	479.015	413.231	509.134	469.174	505.797	463.109	397.183	459.407	405.883	444.858	494.638	228.468	345.500	0.00058527	0.00037917	0.00017469	1398.4	6.9709e-06	5.4857e-06	1398.6	375.19	4.698e-06	5.4345e-06	425.16	144.05	123.71	41.98	5.9322e-06	51.364	0.00065268	0.00068135	0.00018616	1424.1	7.1755e-06	7.307e-06	1418.4	382.69	6.3326e-06	6.2287e-06	433.86	144.64	126.52	43.219	5.8222e-06	53.229	265.114	243.254	273.342	167.660	301.366	309.014	167.485	172.437	300.768	300.053	171.856	177.024	176.612	181.462	305.880	180.370	-8191	255	
820.123	1	1	0	0	0.10739	0.10409	0.072395	0.32307	0.31189	0.28187	0.16683	0.29762	0.10571	0.30833	0.14971	0.082765	0.2124	0.19272	0.21869	0.071304	-2.4271	-2.7875	-3.1917	-3.0229	-2.8875	-3.0938	-2.7854	-3.2854	-3.0417	-2.8625	-3.4062	-2.6917	-3.1063	-3.2208	-2.9396	-3.3125	410.762	278.581	416.580	448.207	500.093	475.362	160.495	500.408	474.351	394.371	387.746	358.208	490.222	174.551	343.914	484.451	0.00058064	0.00051188	0.00013939	1397.6	5.9775e-06	3.5638e-06	1398.3	374.47	6.5026e-06	4.9219e-06	424.29	143.94	123.82	41.991	4.9019e-06	51.7	0.00056361	0.00051152	0.00014001	1422.3	5.6305e-06	5.5466e-06	1417.5	381.93	5.4441e-06	5.4412e-06	433.7	143.9	126.58	43.161	6.1184e-06	53.248	266.783	247.858	271.778	167.731	301.812	296.832	167.630	172.343	300.714	317.436	171.887	176.703	176.898	181.415	319.171	180.597	-8191	255	
820.219	1	1	0	0	0.18065	0.09475	0.18443	0.19733	0.24311	0.099602	0.3785	0.22817	0.14372	0.20191	0.21549	0.10569	0.087254	0.18959	0.062599	0.13317	-2.6417	-2.8187	-3.2938	-3.1333	-3.1333	-3.2062	-3.0708	-3.3312	-3.1208	-3.0146	-3.5146	-2.8792	-2.9	-3.3	-2.6312	-3.1604	255.800	404.090	292.096	487.760	318.152	367.383	405.563	420.181	482.798	271.633	429.828	374.938	473.648	157.497	377.580	500.008	0.00058059	0.00048661	0.00014311	1400.9	4.7903e-06	4.1298e-06	1402.7	373.1	4.919e-06	6.3799e-06	425.66	143.72	123.79	42.148	4.5042e-06	52.013	0.00058463	0.00059622	0.00016073	1423.5	6.7887e-06	7.0066e-06	1419.6	381.46	6.611e-06	7.157e-06	434.16	144.39	126.89	43.316	7.156e-06	53.395	266.665	229.937	251.005	167.708	309.719	300.302	167.633	172.406	313.353	327.025	172.022	176.636	176.723	181.610	324.624	180.250	-8191	255	
820.315	1	1	0	0	0.078985	0.22064	0.023507	0.21383	0.13419	0.24745	0.24845	0.10595	0.11804	0.062723	0.12118	0.16429	0.20058	0.30702	0.33011	0.15757	-2.6688	-2.8042	-3.1562	-3.2333	-2.8312	-3.3021	-2.9437	-3.2229	-3.0292	-2.8	-3.4667	-2.9167	-2.9292	-3.1979	-2.8729	-3.15	425.478	380.904	301.173	467.320	315.087	242.744	442.371	174.507	461.783	217.085	392.656	163.302	471.810	180.547	275.805	427.138	0.0005671	0.00035932	0.0001471	1402.2	6.4987e-06	6.0742e-06	1399	374.72	5.1495e-06	5.2378e-06	424.99	143.9	123.29	42.054	5.8079e-06	51.65	0.00062969	0.00069306	0.00018562	1425.5	7.2438e-06	7.2333e-06	1418.6	382.59	7.1351e-06	7.5472e-06	434.8	145.4	126.68	43.294	7.2618e-06	53.329	264.838	242.255	244.045	167.802	298.710	306.691	167.403	172.626	311.074	285.611	171.895	176.574	176.877	181.285	303.209	180.735	-8191	255	
820.436	1	1	0	0	0.37901	0.14066	0.047585	0.39757	0.13361	0.15395	0.23506	0.18937	0.15799	0.13478	0.15926	0.24345	0.11007	0.31456	0.23111	0.25097	-2.9	-2.6646	-3.3083	-3.2167	-2.8021	-3.3229	-3.1063	-3.2896	-3.0583	-2.825	-3.3542	-2.9875	-2.8646	-3.3646	-2.8812	-3.1792	387.526	486.055	358.874	416.670	271.917	308.503	471.376	434.535	429.317	498.480	181.980	505.012	246.945	503.553	323.548	415.011	0.0005509	0.00046136	0.00018616	1399.8	6.8389e-06	4.4334e-06	1400.2	374.79	4.8838e-06	3.4774e-06	424.72	144.35	123.93	41.972	7.1331e-06	51.843	0.00063426	0.00068185	0.00018597	1424.4	6.9812e-06	6.9935e-06	1419	382.43	7.0704e-06	7.6221e-06	434.39	144.94	126.8	43.22	7.4046e-06	53.38	265.669	238.229	256.698	167.583	311.764	323.848	167.664	172.512	327.823	310.470	171.983	176.258	176.940	181.214	302.874	180.686	-8191	255	
820.532	1	1	0	0	0.11078	0.20789	0.21881	0.1752	0.090635	0.23085	0.36161	0.20639	0.1215	0.10946	0.27442	0.045163	0.072201	0.18608	0.11322	0.33463	-2.7875	-2.7521	-2.9437	-3.175	-2.7417	-3.3271	-3.0625	-3.225	-3.1771	-2.575	-3.2896	-3.1667	-2.7208	-3.3937	-2.7333	-3	197.059	330.599	240.004	491.854	375.972	235.700	410.619	393.723	329.288	491.443	454.503	383.259	457.719	440.329	257.633	166.817	0.0005439	0.00065948	0.00012455	1399.7	5.9631e-06	3.3262e-06	1397.6	376.03	5.6748e-06	4.8744e-06	426.96	144.9	123.63	41.958	3.8306e-06	52.027	0.00062554	0.00067667	0.00018433	1424.9	7.1936e-06	7.2712e-06	1422.3	382.86	6.9861e-06	7.4442e-06	435.05	144.95	126.8	43.279	7.1748e-06	53.434	266.263	222.590	256.772	167.751	314.989	304.483	167.734	172.409	324.463	319.885	171.892	176.298	176.538	181.115	309.238	180.498	-8191	255	
820.628	1	1	0	0	0.12149	0.11973	0.096306	0.074593	0.32321	0.2732	0.32445	0.14609	0.22295	0.14624	0.33542	0.052906	0.19695	0.097705	0.082661	0.25914	-2.8229	-2.6667	-2.9729	-3.3312	-2.7583	-3.0687	-3.0354	-3.0625	-3.2062	-2.9583	-3.1229	-3.1667	-2.85	-3.0854	-2.9938	-3.15	293.921	197.894	468.643	168.771	176.125	232.539	468.986	499.138	241.980	295.268	434.783	209.324	498.786	389.220	350.524	496.178	0.00059887	0.00057369	0.00016001	1399.4	6.8099e-06	3.3324e-06	1404.2	376.34	5.451e-06	5.681e-06	424.95	144.33	123.8	41.891	3.87e-06	51.934	0.0006379	0.00066601	0.00018032	1424.9	7.1329e-06	7.1196e-06	1422.7	382.94	6.8496e-06	7.0882e-06	434.04	145.05	126.76	43.223	6.97e-06	53.344	264.529	243.472	252.927	167.859	303.783	302.245	167.723	172.340	312.604	309.872	171.815	177.370	176.917	181.613	323.793	180.653	-8191	255	
820.749	1	1	0	0	0.25057	0.18284	0.1507	0.029745	0.10367	0.26147	0.090084	0.093674	0.157	0.091343	0.15934	0.10521	0.14596	0.073297	0.15838	0.43255	-2.6375	-2.8875	-2.8479	-3.2438	-2.7771	-3.1833	-3.2896	-2.9542	-3.4062	-2.9688	-3.0521	-3.1333	-2.8083	-3.0708	-3.1063	-2.7667	394.589	347.450	362.085	502.308	264.761	262.638	426.325	406.258	249.272	432.236	400.595	232.523	311.171	158.111	483.934	420.971	0.00059261	0.00063192	0.00013444	1399.6	5.7599e-06	5.2618e-06	1403.6	374.9	6.3156e-06	4.7016e-06	424.33	144.13	123.09	41.887	6.2959e-06	51.963	0.00062046	0.00067205	0.00017347	1423.7	6.8721e-06	6.7083e-06	1421.1	381.95	6.8092e-06	7.0772e-06	434.17	144.74	126.36	43.169	6.9782e-06	53.367	263.530	226.669	261.386	167.922	314.670	300.246	167.769	172.644	319.024	327.605	171.891	176.999	176.697	181.445	312.280	180.540	-8191	255	
820.821	1	1	0	0	0.13977	0.15491	0.096773	0.31554	0.30742	0.12796	0.29502	0.1784	0.3046	0.25588	0.064056	0.19189	0.19676	0.23431	0.22265	0.1004	-2.9062	-2.9125	-2.7396	-3.3896	-2.8104	-3.0875	-3.0833	-2.7771	-3.2542	-2.8833	-3.0167	-3.1229	-2.8708	-3.1771	-3.1667	-2.6937	336.264	160.238	469.018	495.605	376.570	351.052	462.490	441.095	193.994	392.190	410.074	175.367	177.573	267.793	197.562	430.959	0.00056737	0.00050698	0.00020276	1401.8	6.1721e-06	4.6646e-06	1399.5	375.43	5.1624e-06	5.2862e-06	427.36	142.81	123	41.93	4.4179e-06	51.993	0.00063483	0.00069201	0.00018423	1424.2	7.333e-06	7.3663e-06	1419.1	382.25	7.2847e-06	7.6792e-06	435.83	144.34	126.64	43.253	7.5136e-06	53.387	266.289	232.415	262.376	167.780	310.904	288.078	167.598	172.439	312.319	311.866	171.788	176.858	176.470	181.235	311.988	180.449	-8191	255	
820.917	1	1	0	0	0.12749	0.054202	0.18692	0.038811	0.24751	0.052025	0.14733	0.082858	0.2244	0.2548	0.18395	0.29166	0.16311	0.36654	0.061597	0.28067	-2.8792	-2.9042	-2.8979	-3.5312	-2.8083	-3.2167	-3.3	-2.9167	-3.1521	-2.8812	-3.0396	-3.1625	-2.8396	-3.0854	-3.0604	-2.9083	255.939	234.653	164.521	389.142	453.167	259.467	314.489	410.867	423.644	504.984	464.342	388.350	159.773	502.042	284.780	491.849	0.00056713	0.00065179	0.00015926	1404.5	6.2129e-06	6.4287e-06	1398.1	375.94	4.6107e-06	4.2657e-06	426.35	143.76	123.79	41.927	5.8462e-06	51.917	0.0006353	0.00067643	0.00018756	1427.6	7.4235e-06	7.3925e-06	1423	383.46	7.0306e-06	7.3184e-06	435.22	144.86	126.92	43.264	6.7584e-06	53.407	266.692	265.896	270.401	167.838	315.968	326.711	167.651	172.404	302.523	316.733	171.913	176.640	176.810	181.438	306.239	180.358	-8191	255	
821.036	1	1	0	0	0.05913	0.095678	0.26616	0.27359	0.11947	0.26027	0.13373	0.043595	0.021627	0.059656	0.31852	0.14338	0.24394	0.052869	0.16462	0.25919	-2.8146	-2.9229	-2.7646	-3.4229	-2.9188	-3.0833	-3.4125	-2.9083	-3.1604	-3.0438	-2.8417	-3.2812	-3	-2.9813	-3.2771	-2.9688	448.102	394.990	188.206	463.776	179.106	416.671	424.503	318.824	450.018	199.791	477.667	226.520	260.827	337.647	494.818	220.235	0.00057047	0.00051699	0.00020135	1401	7.6766e-06	4.929e-06	1397	375.15	5.6976e-06	4.7372e-06	426.31	143.63	123.45	41.988	4.5423e-06	51.559	0.00063438	0.00067556	0.0001934	1426.3	7.277e-06	7.4035e-06	1419.9	382.28	7.0728e-06	7.5005e-06	435.23	144.73	126.56	43.26	7.305e-06	53.296	265.709	231.461	275.935	167.752	301.418	298.849	167.775	172.405	322.591	322.462	171.896	176.484	176.514	181.355	308.502	180.748	-8191	255	
821.132	1	1	0	0	0.098337	0.1081	0.13881	0.44468	0.30614	0.25191	0.25428	0.20714	0.16988	0.032151	0.15778	0.22887	0.2115	0.11512	0.038737	0.12907	-2.7083	-2.9562	-2.7812	-3.4896	-2.7229	-2.9646	-3.4042	-2.9333	-3.1896	-3.2875	-2.8042	-3.1396	-3.1188	-2.9583	-3.1729	-2.9021	200.732	293.071	296.165	488.463	276.741	222.165	396.534	501.879	235.555	191.845	476.313	203.001	421.749	483.959	317.641	484.033	0.00057828	0.00036974	0.00017955	1407.7	6.7483e-06	3.9697e-06	1400.3	374.41	5.9097e-06	3.8238e-06	425.37	142.73	123.61	41.915	5.1085e-06	51.93	0.00064817	0.00067581	0.00019216	1428.1	7.399e-06	7.4965e-06	1421	382.34	7.3684e-06	7.6153e-06	434.97	144.16	126.81	43.238	7.5799e-06	53.379	265.520	237.628	266.060	167.706	300.403	324.732	167.756	172.347	313.098	296.240	171.857	176.652	176.743	181.355	319.121	180.297	-8191	255	
821.228	1	1	0	0	0.17772	0.029264	0.092044	0.17574	0.15412	0.30443	0.29919	0.2384	0.074661	0.17244	0.29121	0.11547	0.1192	0.17806	0.094862	0.18231	-2.6792	-3.1292	-2.7687	-3.2396	-3.0458	-2.8104	-3.4771	-2.9167	-3.0812	-3.1333	-2.8771	-3.1188	-3.25	-2.925	-3.4083	-2.8833	186.057	484.493	295.289	449.462	231.819	209.141	468.965	443.938	342.272	289.034	437.529	487.996	450.398	446.351	440.427	395.930	0.00057953	0.00039026	0.0001139	1401.9	7.6093e-06	5.8143e-06	1401.5	373.86	6.0499e-06	5.0911e-06	425.39	143.98	123.48	41.877	4.702e-06	51.65	0.00064116	0.00069546	0.0001959	1425.6	7.5763e-06	7.7501e-06	1420.2	382.22	7.3755e-06	7.6104e-06	433.83	144.6	126.53	43.187	7.4904e-06	53.255	265.579	253.212	266.092	167.649	293.064	307.108	167.839	172.525	318.759	296.742	171.891	176.305	176.691	181.240	323.985	180.480	-8191	255	
821.349	1	1	0	0	0.16392	0.056262	0.096224	0.20006	0.18344	0.11488	0.17696	0.12657	0.045523	0.03493	0.21317	0.080751	0.12762	0.19192	0.10809	0.11263	-2.5542	-3.1542	-2.85	-3.3479	-3.0625	-2.7958	-3.3854	-2.85	-3.0687	-3.2792	-3.0417	-3.2792	-3.2229	-2.9146	-3.2604	-2.9896	439.641	286.294	511.871	170.180	373.295	372.353	452.625	420.487	308.609	433.398	470.396	156.798	480.637	327.993	457.474	361.817	0.00056994	0.00044521	0.00015205	1402.4	5.4085e-06	5.2237e-06	1398.8	373.35	6.0726e-06	5.426e-06	424.43	144.35	123.47	42.043	6.2246e-06	51.684	0.00065107	0.00067864	0.00019158	1425.8	7.2303e-06	7.799e-06	1419.3	381.69	7.4147e-06	7.4442e-06	433.96	144.98	126.62	43.224	7.759e-06	53.194	265.306	248.898	265.146	167.805	293.747	310.909	167.636	172.570	313.726	315.500	171.819	177.370	176.734	181.009	303.418	180.663	-8191	255	
821.420	1	1	0	0	0.15398	0.057832	0.09912	0.26851	0.21814	0.13164	0.093776	0.21824	0.10382	0.17379	0.16894	0.1176	0.041389	0.12968	0.20936	0.14961	-2.5958	-3.0938	-2.7833	-3.3792	-2.9396	-2.8583	-3.4292	-3.25	-3.0458	-3.2521	-2.875	-3.2	-3.1458	-3.025	-3.1708	-3.1688	409.774	467.018	341.645	504.531	263.300	464.698	436.484	419.372	481.224	173.514	469.159	446.993	408.168	387.759	509.059	411.632	0.00057642	0.00042754	0.0001372	1403.5	7.0979e-06	6.539e-06	1396.2	374.55	6.5691e-06	5.4492e-06	424.58	142.57	122.96	41.997	7.5519e-06	51.701	0.00064895	0.00068955	0.00019649	1425.9	7.5052e-06	7.9526e-06	1418.7	381.97	7.3523e-06	7.6819e-06	434.3	144.56	126.47	43.17	7.6695e-06	53.244	265.773	250.802	232.233	167.796	317.688	309.803	167.606	172.479	320.227	301.796	171.866	176.620	176.564	181.353	314.148	180.419	-8191	255	
821.516	1	1	0	0	0.19732	0.14985	0.15882	0.22083	0.18914	0.060415	0.21987	0.043498	0.24278	0.1584	0.31471	0.091372	0.16438	0.15743	0.038168	0.23744	-2.5021	-3.1813	-2.7562	-3.2333	-3.2354	-2.7313	-3.3042	-3.2083	-2.9417	-3.25	-2.8896	-2.9938	-3.1271	-3.0583	-3.2979	-3.15	355.276	492.818	165.412	448.089	460.264	207.487	493.722	341.986	456.968	234.052	478.581	364.481	471.634	503.173	453.417	164.388	0.00059625	0.00065088	0.00017746	1401.7	5.2747e-06	6.385e-06	1402.5	373.95	5.1e-06	5.001e-06	424.91	144.2	123.69	41.823	6.5845e-06	51.906	0.00066104	0.00071031	0.00019598	1424.6	7.4427e-06	7.6102e-06	1423.2	381.86	7.4918e-06	7.7492e-06	433.71	144.8	126.44	43.166	7.635e-06	53.38	264.175	259.878	266.674	167.516	324.608	323.443	167.773	172.541	317.887	291.347	171.905	176.985	176.914	181.262	314.285	180.417	-8191	255	
821.612	1	1	0	0	0.049831	0.17172	0.17504	0.22282	0.060319	0.17039	0.15293	0.25621	0.17137	0.060354	0.27293	0.040801	0.1593	0.14825	0.15172	0.3315	-2.275	-3.2646	-3.075	-3.35	-3.3146	-2.9792	-3.2354	-3.2729	-2.7833	-3.4021	-3.0979	-2.8208	-3.3875	-2.7604	-3.1333	-3.2	201.044	369.763	188.376	512.049	373.039	267.263	467.313	467.947	389.835	455.342	429.866	485.948	244.594	233.085	273.180	487.271	0.00056591	0.00044948	0.00017161	1402.8	7.3485e-06	5.2201e-06	1402.6	375.81	5.4047e-06	3.5178e-06	426.63	142.47	123.41	41.866	7.3154e-06	51.716	0.00065343	0.00066669	0.00019344	1426.4	7.4124e-06	7.6826e-06	1421.9	382.3	7.5998e-06	7.7273e-06	435.01	144.36	126.62	43.18	7.466e-06	53.245	266.064	231.537	245.165	167.851	314.358	288.301	167.661	172.266	303.721	320.442	171.742	177.643	176.791	181.282	307.292	180.556	-8191	255	
821.709	1	1	0	0	0.254	0.016451	0.30906	0.24581	0.067262	0.14688	0.22355	0.27763	0.45729	0.12701	0.24216	0.20399	0.20514	0.17149	0.13125	0.019654	-2.3583	-3.2667	-2.8333	-3.2042	-3.2292	-2.8375	-3.3208	-3.1562	-2.8708	-3.1875	-3.0375	-2.8375	-3.3875	-2.9021	-3.0208	-3.2875	431.779	233.130	219.105	438.957	329.538	316.773	494.855	450.536	223.509	496.509	444.824	254.502	213.650	413.119	513.411	167.682	0.00055501	0.00056254	0.00012232	1406.3	4.2339e-06	4.4653e-06	1399.4	375.74	5.5846e-06	7.0309e-06	425.77	143.81	123.34	41.861	4.9569e-06	51.786	0.00064629	0.00067476	0.00019899	1428.2	7.1574e-06	7.6812e-06	1421.6	382.02	7.4147e-06	7.5074e-06	434.43	144.46	126.61	43.166	7.3958e-06	53.252	263.810	255.349	229.492	167.742	321.775	298.606	167.515	172.386	327.012	316.952	172.001	176.504	176.864	181.358	299.804	180.204	-8191	255	
821.828	1	1	0	0	0.26732	0.098857	0.19878	0.24828	0.29327	0.097086	0.31051	0.25363	0.065542	0.27807	0.27138	0.11839	0.15994	0.12698	0.13082	0.16864	-2.2729	-3.2792	-2.7438	-3.1208	-3.1833	-2.9229	-3.075	-3.3667	-2.9229	-3.2458	-3.2083	-2.8292	-3.3667	-2.9458	-3.0771	-3.4646	232.838	485.397	262.221	178.734	385.738	298.039	414.192	187.722	485.160	415.014	498.699	303.939	359.506	157.733	229.505	357.859	0.00056777	0.00037361	0.0001838	1405.3	6.6126e-06	4.8514e-06	1397.9	374.58	5.3292e-06	5.6931e-06	424.8	142.99	123.5	41.825	6.1381e-06	51.438	0.00065922	0.00067421	0.00019549	1426.5	7.2233e-06	7.305e-06	1421.2	382.41	7.458e-06	7.4524e-06	434.09	144.69	126.5	43.156	7.682e-06	53.165	265.558	251.066	239.032	167.822	302.482	309.276	167.638	172.589	315.150	296.133	171.759	176.649	176.925	181.365	304.945	180.516	-8191	255	
821.924	1	1	0	0	0.16256	0.061004	0.11421	0.24147	0.12465	0.15296	0.1336	0.47043	0.13237	0.14353	0.20775	0.20214	0.11096	0.17326	0.23677	0.341	-2.1813	-3.1542	-2.9979	-2.9875	-3.1854	-3.0062	-3.0125	-3.2646	-2.9813	-3.2313	-3.2458	-2.8771	-3.45	-3.2021	-3.0833	-3.3063	259.588	215.693	229.630	446.928	397.780	503.331	157.171	457.549	469.600	480.457	180.437	431.651	177.297	343.028	286.530	427.810	0.00058827	0.00038258	0.00016529	1399.7	7.3659e-06	6.4446e-06	1399.3	375.39	5.9765e-06	3.7104e-06	426.21	144.01	123.62	41.95	5.2056e-06	51.703	0.00065131	0.00068382	0.00019448	1424	7.4281e-06	7.5413e-06	1419.5	382.33	7.3025e-06	7.4084e-06	434.66	144.49	126.58	43.117	7.6582e-06	53.195	265.986	255.500	259.250	167.990	331.227	319.785	167.564	172.396	322.331	318.253	171.930	176.417	176.873	181.134	298.210	180.484	-8191	255	
821.997	1	1	0	0	0.060974	0.1587	0.1767	0.23963	0.1146	0.085145	0.16249	0.1603	0.1008	0.09925	0.047114	0.19045	0.21734	0.28527	0.058869	0.24153	-2.4458	-3.025	-3.1417	-2.9583	-3.225	-3.0896	-3.0646	-3.5417	-2.8583	-3.1458	-3.4333	-2.7792	-3.3208	-3.1354	-2.7083	-3.2958	442.079	312.058	273.157	478.226	253.827	280.731	452.353	494.197	406.454	301.814	252.054	388.861	471.021	224.537	453.120	403.915	0.00057357	0.00045054	0.00013032	1404.3	5.2795e-06	5.816e-06	1401.5	374.3	7.032e-06	4.2394e-06	425.29	141.95	123.47	41.872	5.5155e-06	51.561	0.00065343	0.00068055	0.00018674	1426.3	7.1522e-06	7.2891e-06	1421.9	381.93	7.2698e-06	7.7183e-06	433.86	143.87	126.58	43.155	7.4729e-06	53.171	266.737	237.415	247.499	167.874	310.604	299.281	167.785	172.396	310.252	345.186	172.059	176.288	176.677	181.287	326.604	180.743	-8191	255	
822.116	1	1	0	0	0.14413	0.29234	0.20615	0.21666	0.15469	0.15537	0.085534	0.18397	0.12726	0.089807	0.31525	0.39759	0.19531	0.16755	0.17186	0.25427	-2.3604	-3.0417	-3.1542	-2.9146	-3.1625	-3.0729	-3.1625	-3.2875	-2.8146	-3.0521	-3.1958	-2.7146	-3.0146	-3.2354	-2.9	-3.2917	375.869	374.497	350.692	447.645	476.223	407.820	437.392	198.161	366.700	176.985	400.600	499.761	489.754	186.838	208.789	489.414	0.00057128	0.00049733	0.00011848	1406.4	6.9649e-06	4.5398e-06	1398.4	373.97	5.6218e-06	5.522e-06	425.56	143.37	123.01	41.893	4.5809e-06	51.591	0.00065346	0.00069312	0.00017673	1427.3	7.2502e-06	7.4628e-06	1420.4	381.95	7.5607e-06	7.3377e-06	434.07	144.38	126.25	43.064	7.5236e-06	53.23	264.203	218.941	246.177	167.751	313.995	321.333	167.585	172.421	317.773	295.523	171.971	176.797	176.617	181.258	307.654	180.510	-8191	255	
822.212	1	1	0	0	0.19751	0.11914	0.12403	0.33341	0.081529	0.29372	0.20024	0.30861	0.08113	0.1036	0.14893	0.11343	0.16363	0.084435	0.063737	0.079641	-2.6813	-2.8479	-3.3312	-3.1542	-3.2854	-3.1896	-3.0396	-3.4375	-2.8875	-2.9542	-3.4688	-2.8792	-3.3979	-3.4167	-2.7896	-3.2562	305.525	325.228	313.155	487.469	503.200	202.588	446.734	402.237	295.121	225.362	443.575	233.412	410.118	204.848	433.008	404.938	0.00056411	0.00048797	0.00013951	1399.1	6.9694e-06	8.0835e-06	1396.1	372.88	5.526e-06	4.0929e-06	423.48	142.67	123.18	41.806	5.6257e-06	51.662	0.0006442	0.00068677	0.00018908	1424.3	7.3511e-06	7.7025e-06	1419.2	381.75	7.3957e-06	8.009e-06	433.5	144.49	126.42	43.06	7.6463e-06	53.133	264.301	230.834	253.773	167.792	314.004	307.790	167.843	172.207	316.299	310.299	171.883	176.716	176.803	181.452	327.633	180.513	-8191	255	
822.308	1	1	0	0	0.30986	0.17522	0.15463	0.16876	0.2456	0.21452	0.3514	0.05323	0.15418	0.077485	0.28096	0.2575	0.12029	0.19567	0.16176	0.34324	-2.6542	-2.7	-3.0812	-3.1021	-3.0479	-3.1708	-3.0042	-3.3688	-2.9375	-2.9729	-3.2333	-2.8125	-2.9896	-3.4333	-2.7521	-3.4583	244.000	182.310	492.411	478.869	305.508	302.737	467.006	460.199	417.781	424.339	473.735	319.544	338.000	193.578	271.752	453.790	0.00056189	0.00055031	0.00014811	1398.9	6.8524e-06	5.8153e-06	1401.2	374.05	5.9386e-06	2.2855e-06	425.25	142.12	123.04	41.724	4.7157e-06	51.611	0.00065298	0.00071148	0.00019682	1424.2	7.5308e-06	7.8114e-06	1418.9	381.12	7.9518e-06	7.9973e-06	433.56	144.36	125.95	43.045	7.7283e-06	53.144	266.121	257.120	247.484	167.619	302.649	308.153	167.710	172.397	301.878	300.380	171.964	176.589	176.846	181.416	295.981	180.811	-8191	255	
822.429	1	1	0	0	0.26921	0.10203	0.2746	0.39991	0.11273	0.076143	0.2171	0.20971	0.1024	0.15495	0.028422	0.14411	0.02062	0.33438	0.26056	0.15667	-2.7917	-2.6708	-3.2667	-3.1646	-3.0187	-3.2958	-3.1125	-3.4521	-3.1542	-3.0854	-3.2604	-2.8771	-3.0083	-3.4271	-2.8708	-3.1417	219.421	214.814	228.758	451.097	465.929	497.958	458.436	457.586	313.407	379.932	276.380	174.901	222.518	466.950	367.784	417.965	0.00056202	0.00048277	0.00014342	1398.1	5.1193e-06	2.5505e-06	1396.9	374.08	6.0774e-06	3.615e-06	422.96	144.37	122.74	41.798	5.5371e-06	51.435	0.00065988	0.00071289	0.00019636	1423.5	7.6446e-06	7.8355e-06	1418.2	381.51	7.6277e-06	7.8021e-06	432.53	144.9	126.06	43.057	7.6125e-06	53.137	264.587	241.459	237.388	167.689	305.556	288.566	167.717	172.469	316.179	318.580	172.207	176.914	176.616	181.250	313.440	180.610	-8191	255	
822.525	1	1	0	0	0.2231	0.3964	0.10271	0.41005	0.3115	0.1268	0.32261	0.32448	0.095905	0.062931	0.12063	0.024027	0.13992	0.053475	0.18685	0.064908	-2.6521	-2.7771	-3.1646	-3.2708	-2.9646	-3.1792	-2.9021	-3.0667	-3.3021	-2.8375	-3.4	-3.0104	-2.7875	-3.1813	-2.8583	-3.1104	332.997	436.514	494.130	498.593	415.926	424.129	428.438	165.734	354.283	474.098	266.684	221.561	163.814	154.673	198.679	426.114	0.00057463	0.00033353	0.00016153	1398.6	6.7674e-06	5.9444e-06	1395.8	374.9	5.556e-06	4.5674e-06	423.49	143.29	122.82	41.808	5.3858e-06	51.488	0.0006565	0.00074511	0.0001973	1423.2	7.9515e-06	7.8362e-06	1418.1	381.39	7.6758e-06	8.1045e-06	433.2	144.42	126.16	43.039	7.8141e-06	53.091	265.550	232.584	239.197	167.759	323.713	285.788	167.688	172.442	293.856	313.633	171.888	177.060	176.659	181.166	312.388	180.404	-8191	255	
822.621	1	1	0	0	0.19111	0.10984	0.068441	0.070659	0.16107	0.042149	0.29198	0.037667	0.082899	0.23396	0.11688	0.1621	0.27021	0.42598	0.13588	0.1552	-2.8271	-2.7438	-3.0771	-3.2167	-2.8146	-3.325	-3.0625	-3.2167	-3.1479	-2.8563	-3.3042	-2.9979	-2.8688	-3.2188	-2.8812	-2.9208	364.938	215.626	209.469	476.000	207.849	239.726	415.621	212.394	254.389	315.790	449.198	335.803	422.537	463.601	259.367	452.038	0.00058762	0.00045338	0.00011744	1394.8	6.391e-06	7.2725e-06	1398.4	373.3	6.3339e-06	4.5179e-06	423.99	142.39	123.29	41.725	4.6744e-06	51.714	0.00066	0.00071265	0.00020146	1422.1	7.7596e-06	7.7611e-06	1418.8	381.5	7.6853e-06	7.7781e-06	433.44	144.06	126.41	43.026	7.8173e-06	53.186	264.929	254.526	266.385	167.668	296.676	309.710	167.606	172.382	316.427	326.580	172.072	176.397	176.874	181.181	322.596	180.568	-8191	255	
822.717	1	1	0	0	0.056809	0.28494	0.33719	0.14726	0.29237	0.31956	0.25726	0.09339	0.15526	0.18532	0.23813	0.14048	0.16826	0.10152	0.048719	0.13079	-2.8521	-2.7896	-3.0062	-3.2313	-2.7396	-3.4167	-3.1146	-3.0875	-3.3667	-2.8688	-3.1875	-3.0625	-2.8125	-3.1229	-3.05	-2.8646	394.435	406.571	275.097	436.478	453.161	489.099	451.808	234.610	209.043	308.446	432.287	317.076	306.646	443.418	333.756	371.687	0.00056926	0.00061865	0.00010011	1398.9	6.7035e-06	6.7789e-06	1398.6	373.44	3.6627e-06	5.2822e-06	424.11	143.09	123.54	41.719	4.2095e-06	51.666	0.00065367	0.00072127	0.00019188	1422.7	7.9474e-06	7.6826e-06	1418	381.34	7.3019e-06	7.8578e-06	433.08	144.29	126.21	43.022	7.9895e-06	53.182	264.912	234.625	256.660	167.701	305.002	310.376	167.739	172.602	321.922	294.179	171.911	176.823	176.726	181.490	294.520	180.310	-8191	255	
822.812	1	1	0	0	0.098904	0.066102	0.094739	0.16519	0.11933	0.16937	0.048482	0.19255	0.15201	0.050344	0.29945	0.28214	0.064794	0.28866	0.19502	0.063542	-2.8312	-2.8688	-3.0312	-3.3542	-2.7167	-3.3271	-3.2854	-2.8979	-3.225	-2.8708	-3.1146	-3.0875	-2.7396	-3.2938	-2.95	-3.0875	358.269	445.639	255.001	420.216	154.899	263.866	444.122	444.584	383.417	166.595	459.924	300.177	213.400	460.117	336.706	219.879	0.00056718	0.00052291	0.00019638	1399.4	5.8914e-06	6.2452e-06	1396.3	372.36	5.5454e-06	3.9504e-06	424.13	144.27	123.59	41.672	3.656e-06	51.243	0.00066687	0.00071339	0.00020449	1422.9	7.735e-06	7.7921e-06	1418.2	380.85	7.8859e-06	7.9636e-06	432.97	144.75	126.23	43.037	8.079e-06	53.119	264.145	272.090	254.129	167.694	301.031	318.883	167.672	172.495	310.392	297.215	171.836	176.840	176.650	181.189	314.902	180.716	-8191	255	
822.908	1	1	0	0	0.10885	0.14341	0.05313	0.33222	0.087162	0.0596	0.26552	0.18515	0.16157	0.090987	0.16955	0.098133	0.2377	0.29419	0.091975	0.21122	-2.9771	-3.1146	-3.0625	-3.4854	-2.8542	-3.3	-3.2229	-2.9208	-3.3146	-2.9958	-3.0125	-3.2208	-2.8875	-3.1937	-3.0458	-2.7979	392.471	491.300	204.092	495.117	438.422	318.598	461.009	497.525	317.286	485.591	215.033	315.326	479.106	431.561	331.616	509.045	0.0005953	0.00052409	0.00012404	1398.2	7.0783e-06	5.5446e-06	1397.3	373.33	5.3417e-06	5.0693e-06	424.69	143.74	123.5	41.968	5.4985e-06	51.785	0.00065883	0.00074369	0.00020148	1423.8	8.0174e-06	7.8679e-06	1420	381.7	7.5844e-06	8.0365e-06	433.58	145.08	126.59	43.191	7.9118e-06	53.281	266.571	221.842	246.753	167.651	295.598	306.172	167.729	172.399	313.835	305.037	171.690	177.399	176.609	181.450	308.012	180.694	-8191	255	
823.004	1	1	0	0	0.16947	0.032441	0.1065	0.39572	0.07024	0.051596	0.34297	0.10862	0.132	0.19511	0.23959	0.12817	0.17917	0.15727	0.32421	0.034158	-2.7313	-2.8354	-2.9458	-3.375	-2.8958	-3.0625	-3.3458	-2.9375	-3.1958	-3.0687	-3.0604	-3.3021	-2.8375	-3.0312	-3.2521	-2.9021	386.941	459.925	169.960	156.400	313.379	331.904	430.049	374.288	441.516	191.786	489.566	294.883	470.957	431.327	330.006	458.616	0.00057024	0.00038142	0.00016882	1402.3	5.1357e-06	6.9515e-06	1398.6	375.17	6.779e-06	4.4756e-06	425.08	142.8	123.06	41.909	6.4749e-06	51.94	0.00066549	0.00073981	0.00020442	1425.9	7.6609e-06	7.9561e-06	1421.7	381.58	7.7666e-06	7.9561e-06	434.05	144.53	126.49	43.184	7.8022e-06	53.24	264.755	215.315	247.882	167.836	316.597	298.409	167.702	172.451	314.028	336.510	171.955	177.247	177.075	181.232	320.015	180.628	-8191	255	
823.125	1	1	0	0	0.17778	0.072343	0.18964	0.058493	0.11138	0.08958	0.38993	0.10924	0.24996	0.080509	0.30029	0.11764	0.065361	0.28373	0.10638	0.15626	-2.6167	-2.8854	-2.8146	-3.1854	-2.7062	-3.1667	-3.4	-2.9104	-3.3021	-3.1188	-2.9458	-3.3542	-2.8917	-3.0375	-3.35	-2.8708	493.166	205.581	395.082	243.476	270.507	190.109	505.427	344.621	455.560	444.131	456.629	177.992	485.734	192.818	468.651	168.726	0.00057061	0.00034051	0.00016922	1403	6.5697e-06	8.0544e-06	1399.2	373.33	5.2984e-06	4.0498e-06	425.54	143.82	123.34	41.919	5.2229e-06	51.825	0.00065752	0.00071819	0.00020396	1425.8	7.6755e-06	7.8031e-06	1419.1	381.37	7.661e-06	8.0213e-06	433.7	144.59	126.3	43.143	8.0659e-06	53.237	266.426	223.305	252.487	167.773	309.673	305.030	167.695	172.308	314.962	302.286	171.875	176.542	176.955	181.307	292.821	180.545	-8191	255	
823.221	1	1	0	0	0.19123	0.10207	0.17392	0.33394	0.1516	0.1852	0.097789	0.21251	0.085334	0.090165	0.099505	0.076478	0.30658	0.28129	0.10867	0.19378	-2.7313	-2.9354	-2.8083	-3.3917	-2.9792	-3.0667	-3.4354	-2.8625	-3.2042	-3.2542	-2.7083	-3.2729	-3.0375	-2.9917	-3.3458	-2.9521	446.680	278.254	204.071	461.181	496.064	357.164	162.538	410.614	167.179	487.544	475.233	487.270	458.205	194.359	237.327	447.126	0.00058792	0.00048867	0.00015545	1400.6	6.2454e-06	6.227e-06	1399.1	374.3	5.5727e-06	3.7207e-06	424.35	143.3	123.84	41.88	3.929e-06	51.759	0.00069592	0.00077954	0.00020965	1424.4	8.2199e-06	8.6768e-06	1421.3	381.86	8.197e-06	8.5332e-06	433.92	145.22	126.68	43.222	8.295e-06	53.316	264.843	250.113	274.738	167.709	318.107	306.045	167.596	172.580	310.235	319.180	171.897	176.563	176.686	181.182	316.790	180.531	-8191	255	
823.293	1	1	0	0	0.2583	0.10818	0.2541	0.35854	0.30403	0.048128	0.063142	0.445	0.023257	0.21026	0.075736	0.072982	0.33938	0.17938	0.238	0.17978	-2.625	-3.2354	-2.5896	-3.4958	-2.9208	-2.7812	-3.2604	-2.8812	-2.9729	-3.2188	-2.9521	-3.1	-3.1417	-2.9667	-3.3792	-3.0708	338.477	283.051	225.555	473.952	349.393	159.143	444.224	457.357	210.742	363.208	465.732	491.313	459.473	234.698	310.660	214.943	0.00057727	0.0004482	0.00015012	1400.9	7.285e-06	5.7356e-06	1400.3	374.9	5.1116e-06	4.1608e-06	424.96	144.76	123.89	41.815	6.2866e-06	51.673	0.00069252	0.0007793	0.00022876	1426.9	8.273e-06	8.723e-06	1423.2	382.84	8.267e-06	9.0259e-06	434.24	145.09	126.86	43.226	8.3263e-06	53.377	266.894	258.425	238.687	167.862	316.454	323.822	167.716	172.441	309.062	327.154	171.791	176.807	176.677	181.475	316.590	180.746	-8191	255	
823.389	1	1	0	0	0.25819	0.12062	0.29698	0.3684	0.20658	0.11661	0.32168	0.18199	0.17436	0.10981	0.25706	0.1139	0.30206	0.095158	0.26131	0.26001	-2.7646	-3.2292	-2.8187	-3.4479	-3.0875	-2.8854	-3.6167	-3.0333	-3.1083	-3.1542	-3.1125	-3.2667	-3.2833	-2.8646	-3.225	-3.0729	481.059	287.999	267.833	502.161	493.755	390.524	416.859	439.200	241.129	210.357	472.924	336.686	184.267	226.304	308.323	481.346	0.00057253	0.00051725	9.3873e-05	1403.4	6.7656e-06	5.598e-06	1403.2	376.81	5.1128e-06	4.3853e-06	425.78	142.09	123.51	41.784	4.5283e-06	51.649	0.00069625	0.00076919	0.00021344	1429.1	8.2882e-06	8.4735e-06	1424.5	383.66	8.1228e-06	8.2632e-06	435.22	144.84	127.03	43.226	8.0615e-06	53.333	265.222	254.980	256.386	167.912	296.395	306.300	167.704	172.657	331.846	295.617	171.944	176.738	176.767	181.632	331.803	180.779	-8191	255	
823.509	1	1	0	0	0.15201	0.14744	0.36205	0.20509	0.40339	0.16876	0.10329	0.087578	0.16413	0.29364	0.11198	0.060155	0.17074	0.092358	0.14649	0.2299	-2.4333	-3.3208	-2.7188	-3.4917	-3.0021	-2.8438	-3.4875	-3.1146	-2.8958	-3.2396	-2.8	-3.15	-3.1021	-2.6125	-3.1354	-2.9521	198.321	372.652	370.631	492.246	512.156	345.634	458.062	342.061	224.356	374.333	428.328	391.649	214.284	181.152	508.440	458.607	0.00059591	0.00046191	0.00016884	1403.3	5.4932e-06	4.2661e-06	1403.5	375.43	4.7579e-06	4.0528e-06	425.54	143.96	123.6	42.072	6.6704e-06	51.731	0.00067902	0.00076069	0.00021053	1429	7.9247e-06	8.0967e-06	1424.4	382.37	7.9126e-06	8.156e-06	434.89	145.45	126.98	43.303	7.8818e-06	53.354	266.366	249.803	238.681	167.739	328.637	325.945	167.749	172.200	324.212	309.904	171.942	177.267	176.733	181.384	305.469	180.481	-8191	255	
823.605	1	1	0	0	0.034214	0.12711	0.053703	0.247	0.035591	0.27491	0.2435	0.18878	0.10642	0.12334	0.25545	0.16782	0.29497	0.061317	0.29343	0.11459	-2.4938	-3.2229	-2.8563	-3.1854	-3.2396	-2.9125	-3.2979	-3.2562	-3.0229	-3.2271	-3.0375	-3.1688	-3.3	-2.9271	-3.3125	-3.1937	476.359	393.410	361.385	162.479	159.966	286.014	460.870	370.680	439.900	433.620	166.751	500.549	170.580	489.696	326.921	220.363	0.00058133	0.00059328	0.00016973	1405.6	6.0488e-06	3.0846e-06	1405.2	374.9	4.586e-06	4.3324e-06	425.47	142.62	123.54	41.898	6.8438e-06	51.895	0.00066714	0.0007177	0.00020264	1428.3	7.4579e-06	7.8266e-06	1424.8	383.01	7.772e-06	7.5328e-06	434.81	144.75	126.92	43.262	7.6244e-06	53.364	265.908	250.923	260.196	167.811	301.950	327.527	167.721	172.444	312.562	299.241	172.013	177.146	176.711	181.291	317.438	180.398	-8191	255	
823.702	1	1	0	0	0.12892	0.146	0.24267	0.24568	0.046764	0.097177	0.38373	0.10946	0.20649	0.12945	0.3498	0.14467	0.15588	0.21562	0.21964	0.19992	-2.4646	-3.2792	-2.9354	-3.1271	-3.275	-2.8979	-3.3354	-3.175	-2.8417	-3.1292	-3.2208	-3.1021	-3.2875	-2.7188	-3.175	-3.2479	346.404	266.482	181.023	475.093	503.650	188.600	471.269	507.593	429.216	498.368	404.115	184.218	408.346	401.592	365.105	465.738	0.0005709	0.00034299	7.9671e-05	1407.2	7.3161e-06	6.1959e-06	1400.1	375.03	5.5048e-06	5.2291e-06	425.4	143.47	122.89	41.93	5.4862e-06	51.858	0.00066555	0.0006864	0.00019412	1429.2	7.6195e-06	7.9961e-06	1423.6	382.5	7.7096e-06	7.7973e-06	435.28	145.16	126.56	43.246	7.6344e-06	53.319	264.123	226.636	249.887	167.678	312.753	295.814	167.597	172.343	310.191	299.776	171.994	176.340	176.533	181.043	302.034	180.377	-8191	255	
823.798	1	1	0	0	0.11931	0.060907	0.18214	0.30661	0.21484	0.1354	0.12947	0.10993	0.15112	0.1111	0.24805	0.085092	0.12521	0.13252	0.0072506	0.18946	-2.3146	-3.2792	-2.9521	-3.1958	-3.3917	-2.9646	-3.3417	-3.2333	-2.775	-3.1104	-3.0917	-2.7562	-3.2938	-2.8937	-3.1792	-3.2146	392.497	449.276	239.508	495.714	351.310	460.958	432.166	230.779	459.983	415.791	455.652	385.006	371.813	439.339	180.673	473.326	0.00057138	0.00056615	0.00012004	1407.1	7.0996e-06	5.7925e-06	1401.5	375.09	5.8047e-06	4.2792e-06	424.73	143.91	123.41	42.114	6.0574e-06	51.811	0.00066642	0.0007124	0.00018963	1430.1	7.3214e-06	7.6509e-06	1424.6	383.08	7.5346e-06	7.6963e-06	434.95	145	126.93	43.308	7.6432e-06	53.358	264.974	228.736	262.324	167.889	301.088	312.665	167.659	172.606	324.633	289.505	171.968	177.193	176.787	181.236	326.604	180.433	-8191	255	
823.917	1	1	0	0	0.21347	0.071308	0.096398	0.067282	0.062878	0.18294	0.24645	0.055619	0.090252	0.19329	0.31888	0.020725	0.23138	0.14499	0.27882	0.31361	-2.2583	-2.9646	-2.8479	-3.1125	-3.2562	-3.0208	-3.2708	-3.2708	-2.7208	-3.3771	-3.1479	-2.7812	-3.3625	-2.9188	-3.0479	-3.1583	491.207	400.912	482.818	457.937	414.328	274.891	419.603	479.178	366.310	434.456	460.498	292.837	411.478	458.552	410.042	471.400	0.00057627	0.00053266	0.00020802	1408	4.8374e-06	5.5841e-06	1412.7	376.78	4.4124e-06	4.7658e-06	425.04	144.04	123.96	41.881	5.3344e-06	51.72	0.00065176	0.00070513	0.00019236	1431	7.4328e-06	7.9037e-06	1427	383.38	7.7031e-06	8.0729e-06	435.05	145.43	126.88	43.209	7.9506e-06	53.303	267.914	246.182	242.258	167.760	296.554	286.906	167.745	172.379	321.775	305.226	171.897	177.329	176.645	181.152	324.028	180.347	-8191	255	
823.990	1	1	0	0	0.18144	0.40668	0.088366	0.24528	0.1132	0.18158	0.2397	0.035451	0.074632	0.28991	0.27937	0.09735	0.15068	0.24748	0.069322	0.244	-2.3021	-3.0208	-3.0083	-3.1312	-3.1271	-3.0375	-2.9542	-3.2146	-2.7896	-3.2562	-3.3542	-2.7542	-3.3583	-3.1333	-3.1	-3.2438	467.778	319.151	181.921	467.068	292.539	327.595	451.874	398.112	303.394	344.763	497.292	179.033	432.706	495.738	320.630	477.867	0.00055874	0.00046854	0.00018324	1410.7	6.1422e-06	5.36e-06	1405	375.97	6.3028e-06	4.5488e-06	426.32	144.32	123.3	41.871	3.6025e-06	51.644	0.00067015	0.00072663	0.00019853	1430.9	7.5781e-06	7.9926e-06	1425.8	383.19	7.7536e-06	7.9121e-06	435.64	144.92	126.8	43.289	7.5774e-06	53.293	264.486	223.041	274.337	167.785	319.499	313.728	167.677	172.368	304.107	309.541	171.755	177.316	176.771	181.314	302.538	180.491	-8191	255	
824.109	1	1	0	0	0.11295	0.24975	0.18711	0.25824	0.28643	0.08453	0.27541	0.40002	0.055462	0.012961	0.043923	0.088776	0.11798	0.18363	0.36076	0.14241	-2.4208	-3.0083	-3.1813	-2.9562	-3.3729	-2.8271	-3.0687	-3.2229	-2.8792	-3.2438	-3.4354	-2.8187	-3.2708	-3.1312	-2.8667	-3.3604	491.974	195.605	457.878	497.273	406.735	233.674	468.761	450.663	513.812	509.917	399.807	469.381	170.908	464.011	217.661	409.731	0.00061267	0.00059711	0.00017055	1402.6	6.6891e-06	4.964e-06	1404.8	376.16	5.0021e-06	3.4557e-06	427.26	144.45	123.78	41.902	6.0157e-06	51.816	0.00067666	0.00072244	0.00019586	1429.9	7.5431e-06	7.6826e-06	1428.4	383.13	7.5482e-06	7.675e-06	435.31	145.32	127.06	43.3	7.3958e-06	53.28	264.375	241.141	258.604	167.718	317.822	318.651	167.841	172.312	299.025	310.414	171.884	176.641	176.740	181.333	311.676	180.683	-8191	255	
824.205	1	1	0	0	0.06456	0.19421	0.12191	0.36313	0.079253	0.22417	0.12266	0.3775	0.041111	0.074234	0.28504	0.25881	0.30779	0.0767	0.041856	0.24296	-2.4917	-2.8688	-3.0896	-3.0354	-3.1437	-2.9458	-3.1083	-3.4708	-2.9646	-2.7771	-3.3583	-2.7	-3.0062	-3.1417	-2.9271	-3.3646	356.570	236.013	460.880	462.904	255.372	193.773	453.839	500.981	415.724	204.680	498.831	343.995	462.591	503.889	285.272	416.191	0.00059565	0.0005879	0.00016227	1406.7	6.9559e-06	5.3137e-06	1405.7	374.04	6.5828e-06	3.9197e-06	424.03	144.62	123.65	41.983	4.9754e-06	51.829	0.00064868	0.00067846	0.0001879	1430.7	7.1889e-06	7.6467e-06	1427.1	382.7	7.3606e-06	6.9666e-06	434.61	145.23	126.84	43.287	7.6977e-06	53.301	264.553	262.133	245.964	167.791	305.373	317.704	167.619	172.466	323.839	315.955	171.905	177.257	177.048	181.201	300.528	180.748	-8191	255	
824.301	1	1	0	0	0.053543	0.16962	0.1258	0.29366	0.14301	0.17836	0.23791	0.11283	0.093494	0.1175	0.21233	0.13306	0.053743	0.06378	0.069271	0.34206	-2.3312	-2.9583	-3.2083	-2.9958	-3.3	-2.9854	-3.1042	-3.1979	-3.0646	-2.9437	-3.4854	-2.775	-3.1604	-3.3438	-2.7979	-3.3104	329.487	512.484	486.931	484.223	219.879	484.293	496.254	312.928	490.694	229.553	396.333	173.880	416.657	422.373	376.246	364.320	0.00057363	0.00040618	0.00024116	1408.1	6.1142e-06	5.7285e-06	1406.6	375.35	6.7076e-06	4.2838e-06	427.27	145.94	124.16	42.105	6.1137e-06	51.986	0.00063748	0.00067495	0.0001789	1430.4	7.2455e-06	7.1203e-06	1427.5	383.07	7.0633e-06	7.1253e-06	435.24	145.37	127.21	43.319	7.3376e-06	53.442	265.931	223.777	256.843	167.757	299.322	315.738	167.686	172.446	303.691	306.095	171.755	176.216	176.885	181.233	298.880	180.551	-8191	255	
824.397	1	1	0	0	0.25454	0.19573	0.27499	0.18653	0.17729	0.33379	0.19196	0.15471	0.30099	0.20898	0.16988	0.25546	0.33803	0.27668	0.15375	0.1869	-2.5625	-2.8521	-3.2917	-2.9833	-3.1625	-3.1604	-2.8667	-3.3042	-3.0167	-2.8104	-3.3792	-2.7875	-3.0833	-3.2896	-2.7333	-3.3937	393.129	296.643	231.584	487.602	249.072	332.005	469.319	440.995	499.083	377.982	421.959	478.719	452.736	485.705	403.227	216.214	0.00058876	0.00035187	9.8512e-05	1411	5.5906e-06	7.0633e-06	1404.5	375.35	5.631e-06	5.6557e-06	426.6	144.22	124.06	42.216	5.4352e-06	51.942	0.0006299	0.00065579	0.00018119	1432.3	7.1066e-06	6.9825e-06	1427.4	382.93	6.9066e-06	7.1295e-06	435.06	144.57	127.06	43.354	6.8936e-06	53.414	265.514	242.901	261.495	167.773	304.327	304.666	167.887	172.308	323.982	313.496	171.992	176.340	176.945	181.137	315.728	180.537	-8191	255	
824.518	1	1	0	0	0.19595	0.15671	0.19798	0.24352	0.11261	0.10526	0.29333	0.27299	0.10734	0.069048	0.051795	0.012144	0.39525	0.14632	0.18173	0.19667	-2.4875	-2.8396	-3.2417	-3.1271	-2.9521	-3.2	-3.0583	-3.2042	-3.0062	-2.7542	-3.3396	-2.8958	-2.9708	-3.3146	-2.7792	-3.2146	329.448	212.122	502.487	475.933	449.802	421.229	443.825	480.313	191.706	290.982	271.098	512.821	489.490	231.258	409.868	435.376	0.00058281	0.00038574	0.00015686	1407.9	6.7685e-06	6.0513e-06	1411.1	375.83	5.6677e-06	3.866e-06	427.14	145.09	124.15	42.306	5.8457e-06	51.838	0.00062599	0.00064242	0.00017902	1431.3	6.8674e-06	6.7985e-06	1426.3	383.64	6.7784e-06	6.9453e-06	435.62	145.49	127.12	43.367	6.8836e-06	53.331	266.054	251.623	232.820	167.848	309.023	323.418	167.857	172.644	315.623	299.343	171.861	176.817	176.807	181.252	307.487	180.534	-8191	255	
824.590	1	1	0	0	0.068326	0.16911	0.1285	0.32052	0.089507	0.15412	0.11644	0.1837	0.15158	0.24102	0.152	0.10999	0.30614	0.25528	0.097492	0.064656	-2.6708	-2.7917	-3.1146	-3.15	-2.9396	-3.2583	-3.0417	-3.0312	-3.0854	-2.6021	-3.4229	-3.0687	-2.9833	-3.3667	-2.8625	-3.175	463.481	274.701	204.289	508.128	259.741	366.004	378.363	454.244	259.782	287.139	218.075	173.181	481.308	467.199	173.777	266.765	0.000589	0.00050258	0.00015363	1407.9	4.8943e-06	5.7662e-06	1405.3	376.17	4.1636e-06	6.3236e-06	426.6	144.78	123.74	42.148	4.3447e-06	51.69	0.00061894	0.00063417	0.00016835	1432.4	6.7496e-06	6.9529e-06	1428.7	383.43	6.6775e-06	7.104e-06	435.51	145.06	127.03	43.314	7.2086e-06	53.325	266.304	246.668	262.054	167.813	306.367	300.071	167.560	172.353	325.541	309.025	172.020	176.629	176.742	181.437	331.524	180.768	-8191	255	
824.686	1	1	0	0	0.10814	0.042607	0.22224	0.3756	0.14284	0.13655	0.2125	0.1803	0.15598	0.23003	0.3416	0.085062	0.15742	0.16204	0.066813	0.19973	-2.8167	-2.8375	-3.15	-3.2562	-2.8875	-3.3563	-3.1083	-3.1833	-3.2313	-2.8063	-3.2292	-3.0979	-2.85	-3.1521	-2.825	-2.8042	313.319	475.871	281.009	456.501	311.409	353.780	411.494	481.426	430.740	199.206	493.456	471.452	482.213	395.391	385.098	366.392	0.00060638	0.00063048	0.00019136	1410.8	6.9413e-06	6.0952e-06	1406.9	374.98	5.3865e-06	5.0218e-06	425.45	143.44	123.72	42.106	5.1802e-06	51.834	0.00062201	0.00067236	0.00017012	1430.6	6.9316e-06	6.9109e-06	1426.7	383.3	7.0128e-06	7.0127e-06	434.69	144.49	127.06	43.269	6.8943e-06	53.394	265.325	249.903	265.404	167.760	295.346	308.172	167.803	172.216	327.692	302.706	172.002	176.486	176.926	181.341	305.454	180.512	-8191	255	
824.805	1	1	0	0	0.063023	0.064216	0.19001	0.40138	0.14611	0.096368	0.3724	0.12623	0.19215	0.27778	0.15947	0.21426	0.21575	0.1756	0.02729	0.34811	-2.825	-2.6146	-3.0479	-3.4083	-2.9771	-3.2792	-3.075	-3.1542	-3.1854	-2.7562	-3.1063	-3.2125	-2.8625	-3.3271	-3.0312	-3.075	376.505	262.365	419.361	485.210	178.069	412.748	409.274	212.420	405.330	475.924	483.918	294.353	373.845	414.205	464.132	439.343	0.00058499	0.00054027	0.00011697	1411.3	5.6129e-06	6.7392e-06	1406	374.47	5.5837e-06	3.7668e-06	426.14	142.47	124.4	41.958	5.9354e-06	51.835	0.00063008	0.00063084	0.00017457	1432.5	6.9882e-06	6.7799e-06	1427.7	382.8	6.7689e-06	6.7591e-06	434.97	144.37	127.16	43.239	6.8573e-06	53.333	266.552	260.013	259.041	167.765	326.131	311.235	167.620	172.315	318.636	315.965	171.796	177.083	176.803	181.350	317.557	180.278	-8191	255	
824.901	1	1	0	0	0.1551	0.19393	0.15888	0.2557	0.22768	0.061957	0.26968	0.24762	0.18565	0.20152	0.07904	0.25872	0.37708	0.10756	0.082305	0.13185	-2.7896	-2.8417	-3.0083	-3.2333	-2.8479	-3.1375	-3.1979	-2.9542	-3.375	-2.9354	-3.1917	-3.075	-2.8854	-3.2667	-3.1458	-2.9771	238.583	313.123	226.380	499.794	331.657	169.916	425.111	465.480	454.115	444.694	361.277	226.736	473.073	496.410	308.005	476.463	0.00059504	0.00042174	0.00016722	1409.1	5.9316e-06	5.7505e-06	1405.7	376.64	4.5971e-06	5.7268e-06	426.13	143.84	124.14	41.942	3.5786e-06	51.735	0.0006204	0.00064969	0.00017036	1431	6.9019e-06	6.8736e-06	1426.9	383.6	6.7048e-06	6.9213e-06	435.13	144.9	126.99	43.239	6.8016e-06	53.311	266.376	258.729	242.904	167.802	303.034	281.713	167.610	172.431	331.039	295.203	171.754	176.792	176.672	181.313	313.174	180.464	-8191	255	
824.997	1	1	0	0	0.071139	0.15504	0.153	0.28233	0.046789	0.26259	0.1721	0.14161	0.0699	0.18051	0.2057	0.34892	0.1569	0.12994	0.15415	0.17637	-2.8792	-3.0271	-3.125	-3.4042	-2.8708	-3.2125	-3.2708	-2.9208	-3.275	-3.0396	-3.0604	-3.2396	-2.7542	-3.0875	-3.1042	-2.7396	420.538	466.665	198.538	466.738	493.669	511.272	484.360	483.444	219.414	212.057	398.147	377.647	322.007	307.633	214.980	405.636	0.00057333	0.00049502	0.00014916	1411.5	5.1822e-06	4.8442e-06	1408.9	375.05	5.79e-06	5.2903e-06	426.5	142.27	123.69	41.927	5.99e-06	51.686	0.00060535	0.00064723	0.00017357	1432.7	7.0337e-06	6.8475e-06	1426.8	382.74	6.7807e-06	6.8086e-06	435.42	144.76	126.81	43.246	6.8529e-06	53.274	264.647	236.778	259.141	167.662	324.363	317.001	167.565	172.323	318.002	307.889	171.650	176.931	176.604	181.490	301.914	180.548	-8191	255	
825.093	1	1	0	0	0.24023	0.1666	0.038053	0.22986	0.11003	0.048819	0.40287	0.12639	0.18928	0.020424	0.26197	0.26159	0.19595	0.062965	0.26334	0.13597	-2.7667	-3.0729	-2.7854	-3.425	-2.8271	-3.2146	-3.3271	-2.7313	-3.1875	-2.8292	-3.0229	-3.1229	-2.825	-3.1937	-3.1437	-2.8708	365.909	479.074	305.913	505.831	172.578	351.755	485.018	484.926	243.734	159.756	208.934	369.842	498.296	220.517	420.860	217.177	0.00056837	0.00046892	0.00016713	1405.4	5.9901e-06	4.9621e-06	1408.3	376.75	5.5873e-06	3.8382e-06	424.94	144.91	123.39	41.918	5.7396e-06	51.82	0.00061849	0.00064292	0.00017897	1430.5	6.8931e-06	6.8785e-06	1426.6	383.36	6.8033e-06	6.8876e-06	434.99	144.84	126.74	43.234	6.7809e-06	53.268	265.867	248.884	251.705	167.910	322.198	299.191	167.641	172.450	323.311	305.832	172.027	176.816	176.841	181.492	317.897	180.509	-8191	255	
825.189	1	1	0	0	0.11508	0.087401	0.11362	0.21718	0.081869	0.12588	0.18535	0.29409	0.019487	0.11664	0.22104	0.15776	0.23539	0.28891	0.34753	0.17617	-2.5917	-3.0229	-2.8042	-3.3333	-2.7792	-2.9604	-3.3625	-2.65	-3.3125	-2.9896	-2.8354	-3.1604	-2.8604	-3.0604	-3.225	-2.8854	466.553	383.222	488.074	157.779	406.470	305.125	441.078	420.269	430.166	381.348	432.128	213.174	413.554	474.856	430.840	447.724	0.00059981	0.00038066	0.00012332	1413	7.3272e-06	6.2468e-06	1408.6	375.96	5.8878e-06	4.6058e-06	425.52	143.66	123.6	41.812	5.1218e-06	51.591	0.00062252	0.00063035	0.00017807	1432.4	7.2251e-06	7.0714e-06	1426.7	382.83	6.703e-06	6.9281e-06	434.91	145.04	126.73	43.174	7.0195e-06	53.287	264.732	240.955	254.328	167.847	300.270	292.656	167.683	172.461	307.668	317.045	171.686	176.941	176.680	181.276	311.713	180.380	-8191	255	
825.285	1	1	0	0	0.096717	0.16965	0.024766	0.20417	0.22028	0.097972	0.29744	0.16377	0.10367	0.14714	0.26332	0.1442	0.14476	0.26815	0.19845	0.31189	-2.6708	-3.0062	-2.7417	-3.5271	-2.975	-2.9167	-3.4521	-2.8833	-3.1333	-3.1937	-2.8042	-3.0729	-2.8875	-3.2083	-3.1854	-2.8875	489.206	357.457	362.269	452.976	457.898	392.025	463.482	423.501	282.331	471.275	495.205	191.671	513.353	420.919	272.788	157.809	0.00059311	0.00057687	0.00014076	1403.8	4.9425e-06	6.7561e-06	1408.8	376.35	5.0983e-06	3.5975e-06	426.86	144.92	123.31	41.983	5.1884e-06	51.962	0.0006356	0.00067076	0.00017549	1430.9	6.7986e-06	6.8123e-06	1427.9	383.31	6.9725e-06	6.6677e-06	435.19	144.03	126.7	43.209	6.667e-06	53.371	264.035	251.360	254.163	167.816	310.660	304.702	167.606	172.435	305.968	315.582	171.993	176.699	176.747	181.220	293.718	180.613	-8191	255	
825.382	1	1	0	0	0.22354	0.070934	0.098589	0.23378	0.070189	0.09527	0.20799	0.26635	0.077865	0.14734	0.38489	0.21428	0.26045	0.13897	0.1024	0.18709	-2.7521	-3.0583	-2.8312	-3.3125	-3.0125	-2.8854	-3.4792	-2.8125	-3.0833	-3.0896	-2.9708	-3.1688	-2.9938	-2.7854	-3.3979	-2.8187	261.584	450.941	407.354	451.174	158.468	402.397	165.923	416.965	307.109	349.544	429.327	469.290	156.698	267.956	433.734	452.484	0.00058211	0.00031237	0.000176	1411.1	8.0135e-06	5.2878e-06	1406.9	375.72	4.8337e-06	3.5545e-06	426.23	143.25	123.57	42.018	3.9082e-06	51.698	0.00062482	0.0006147	0.00018083	1433.3	6.8324e-06	7.0239e-06	1427.3	382.66	6.5142e-06	6.8897e-06	435.12	144.82	126.76	43.255	6.6989e-06	53.262	267.342	214.196	256.172	167.729	304.770	315.148	167.728	172.472	309.387	296.743	171.678	176.423	177.011	181.129	293.119	180.616	-8191	255	
825.478	1	1	0	0	0.17545	0.29605	0.1503	0.016855	0.31975	0.13659	0.099016	0.18001	0.14069	0.31268	0.19336	0.11607	0.28001	0.044205	0.14837	0.20358	-2.4875	-3.2146	-2.7583	-3.2479	-2.8604	-2.6896	-3.5271	-2.8937	-2.9062	-3.2917	-3.0229	-3.1562	-3.1292	-2.7208	-3.2083	-2.9437	320.280	271.167	154.652	212.072	390.911	169.967	484.359	294.654	446.131	500.097	407.263	469.900	500.077	483.246	237.536	482.913	0.00054068	0.0006154	0.00015379	1407.4	5.9022e-06	5.6888e-06	1407.7	375.5	6.1195e-06	5.0069e-06	426.49	144.61	123.61	41.901	5.5282e-06	51.772	0.00061112	0.00062585	0.00017704	1432.4	6.8919e-06	6.8447e-06	1426.7	382.69	6.6258e-06	6.6801e-06	434.39	144.92	126.76	43.152	6.5392e-06	53.279	263.128	253.144	265.477	167.646	304.880	294.770	167.632	172.389	311.139	309.676	171.880	176.471	176.790	181.346	323.213	180.433	-8191	255	
825.597	1	1	0	0	0.1435	0.21042	0.072604	0.35511	0.30417	0.21641	0.079073	0.32481	0.033558	0.13648	0.15011	0.25367	0.15791	0.10711	0.079182	0.19321	-2.4646	-3.3292	-2.7333	-3.4271	-3.1542	-2.9104	-3.2625	-3.0604	-2.8125	-3.2458	-2.8896	-3.1604	-3.2604	-3.0396	-3.2667	-3.2375	257.529	360.455	277.236	448.210	185.452	389.753	380.329	441.327	388.274	196.679	174.173	384.127	227.651	230.806	388.846	477.195	0.00059937	0.0006898	0.00012082	1405.3	6.6547e-06	4.4795e-06	1406.5	375.38	4.996e-06	4.6396e-06	424.99	144.16	123.79	41.959	5.6438e-06	51.729	0.00060885	0.00062117	0.00016633	1431.6	6.6574e-06	6.873e-06	1426.7	382.43	6.6478e-06	6.7584e-06	434.29	144.45	126.75	43.178	6.9187e-06	53.272	265.064	228.835	275.249	167.798	299.021	350.048	167.552	172.496	305.380	300.565	171.857	177.365	176.675	181.464	325.236	180.414	-8191	255	
825.693	1	1	0	0	0.088592	0.18121	0.033747	0.52757	0.031215	0.147	0.25471	0.045653	0.20458	0.15229	0.31169	0.086077	0.30572	0.24476	0.15402	0.20958	-2.325	-3.0438	-2.7771	-3.275	-3.1479	-2.7979	-3.5104	-3.0229	-2.9229	-3.2396	-3.1833	-3.0771	-3.1354	-2.925	-3.2021	-3.1771	468.378	355.648	273.058	514.279	165.105	509.990	472.970	326.190	368.000	353.252	442.990	279.498	188.853	484.228	348.500	286.410	0.00056983	0.0005892	0.00012844	1412.4	5.9254e-06	4.5376e-06	1403.4	374.68	6.4722e-06	4.963e-06	426.86	144.33	124.03	42.064	6.2901e-06	51.791	0.00061446	0.00061329	0.00017052	1433.9	6.6405e-06	6.7262e-06	1426.4	382.34	6.697e-06	6.6657e-06	435.1	144.39	126.93	43.216	6.8216e-06	53.243	265.615	230.107	246.803	167.788	298.043	293.362	167.758	172.325	315.677	298.533	172.163	176.188	176.857	181.316	299.155	180.584	-8191	255	
825.789	1	1	0	0	0.1787	0.29901	0.14946	0.098217	0.097151	0.18121	0.20062	0.2542	0.1031	0.22022	0.087237	0.16331	0.15557	0.15553	0.12473	0.036404	-2.325	-3.3479	-2.6979	-3.1312	-3.2583	-2.8104	-3.3604	-2.9896	-2.8604	-3.35	-2.9625	-3.0062	-3.3417	-2.9354	-3.2083	-3.1646	387.939	276.770	237.185	506.785	443.935	251.378	452.239	255.920	427.702	219.590	461.534	413.132	157.994	163.156	389.155	466.792	0.00056211	0.00059618	0.00013494	1408.3	7.0999e-06	6.3241e-06	1409.8	375.28	6.2521e-06	5.3595e-06	426.17	143.48	123.67	42.126	4.0575e-06	51.809	0.00060935	0.00061273	0.00016891	1431	6.6463e-06	6.598e-06	1427.9	382.56	6.8217e-06	6.856e-06	434.84	144.28	126.86	43.275	6.7872e-06	53.275	265.651	240.130	251.929	167.835	298.354	294.536	167.649	172.453	321.991	296.215	172.056	176.526	176.484	181.469	302.987	180.273	-8191	255	
825.885	1	1	0	0	0.12647	0.23599	0.032076	0.32696	0.1302	0.13179	0.11364	0.33684	0.16505	0.12848	0.32296	0.12136	0.032578	0.14524	0.32438	0.21311	-2.3625	-3.1167	-2.8104	-3.1562	-3.1437	-2.9	-3.3646	-3.1021	-2.7854	-3.1583	-3.2771	-2.9896	-3.3021	-2.7854	-3.0208	-3.3042	414.183	164.734	192.512	447.040	465.208	446.010	450.431	442.881	488.816	364.211	156.080	458.436	166.176	487.224	342.281	235.289	0.00058377	0.00047688	0.00011688	1408	5.9931e-06	5.2038e-06	1403.5	375.68	5.2034e-06	2.9564e-06	423.9	144.36	124.09	41.972	4.1045e-06	51.752	0.00059589	0.00061248	0.00017142	1433.2	6.6895e-06	6.5753e-06	1426	382.27	6.792e-06	6.7303e-06	434.17	144.72	126.95	43.199	6.7039e-06	53.358	265.310	237.502	254.220	167.736	307.676	311.268	167.599	172.433	328.744	276.096	171.827	176.776	176.895	181.448	324.598	180.514	-8191	255	
825.981	1	1	0	0	0.28867	0.21853	0.14325	0.23693	0.18807	0.21004	0.24813	0.19753	0.2405	0.35733	0.0098885	0.19661	0.23492	0.34265	0.10238	0.08828	-2.3104	-3.1146	-2.9396	-2.9813	-3.2667	-2.8771	-3.1354	-3.1792	-2.7667	-2.95	-3.1375	-2.8458	-3.3937	-2.9292	-3.0146	-3.2375	256.443	285.760	405.316	155.060	175.090	353.985	467.192	426.039	411.454	297.073	273.481	184.403	267.121	475.364	329.354	438.287	0.00056184	0.00048886	0.00013254	1408.5	6.3833e-06	3.8426e-06	1405.9	375.49	4.6044e-06	4.6384e-06	425.2	142.07	124.04	41.99	6.1596e-06	51.843	0.00061446	0.00062641	0.00016683	1432.9	6.6305e-06	6.9102e-06	1427.3	382.62	6.6062e-06	6.7392e-06	434.03	143.8	127.15	43.211	6.7565e-06	53.193	265.855	239.504	249.529	167.740	302.498	301.571	167.670	172.259	308.006	309.657	171.760	176.627	176.549	181.070	294.658	180.635	-8191	255	
826.102	1	1	0	0	0.27448	0.33687	0.036271	0.084568	0.090542	0.068356	0.36293	0.25231	0.27755	0.26421	0.4742	0.048868	0.29613	0.19595	0.1346	0.11888	-2.3521	-3.0104	-2.9354	-3.0062	-3.4042	-2.9062	-3.0771	-3.25	-2.7479	-3.2125	-3.1458	-2.7313	-3.2083	-2.8812	-2.9167	-3.3063	388.408	452.819	350.194	479.757	343.603	181.139	442.087	397.443	281.597	281.851	460.277	414.771	170.461	453.573	268.738	172.151	0.00054835	0.00037951	0.00014118	1409.9	7.0797e-06	5.3002e-06	1406.8	374.79	6.1961e-06	3.9917e-06	424.1	144.59	123.7	41.93	6.178e-06	51.612	0.00060078	0.00060312	0.00016703	1431.9	6.7286e-06	6.6924e-06	1427	382.46	6.9084e-06	6.3681e-06	434.43	145.01	126.94	43.185	6.5906e-06	53.245	266.331	253.284	241.775	167.817	290.233	307.254	167.680	172.290	306.059	306.749	172.129	176.904	176.832	181.262	319.637	180.810	-8191	255	
826.198	1	1	0	0	0.13645	0.22375	0.16035	0.25276	0.20423	0.16698	0.053813	0.20227	0.17699	0.19821	0.15159	0.092525	0.15568	0.15383	0.2605	0.22266	-2.3229	-3.0458	-3.1813	-2.7792	-3.1979	-2.9208	-3.0438	-3.3312	-2.9125	-2.9208	-3.2	-2.8063	-3.1292	-3.0542	-2.7125	-3.3	298.349	227.294	373.147	433.417	453.872	163.593	376.545	329.338	320.424	394.626	472.212	466.985	509.020	471.086	361.362	433.024	0.00058439	0.00029878	0.00017629	1409.8	6.0643e-06	4.2553e-06	1407.4	375.45	5.7356e-06	6.2367e-06	426.76	143.1	123.57	41.952	7.4954e-06	51.529	0.00061992	0.00060694	0.00016502	1433.5	6.4905e-06	6.6077e-06	1427.8	382.48	6.6638e-06	6.8058e-06	435.02	144.51	126.81	43.202	7.0013e-06	53.283	263.884	243.125	241.411	167.766	307.582	312.646	167.515	172.534	315.994	296.925	171.855	176.260	176.707	181.180	303.074	180.686	-8191	255	
826.292	1	1	0	0	0.096671	0.07098	0.091576	0.35442	0.083899	0.15723	0.24773	0.14407	0.33044	0.24504	0.15863	0.12169	0.2169	0.20141	0.089216	0.077723	-2.2479	-2.9188	-3.0708	-2.7646	-2.9562	-2.9646	-2.9667	-3.3271	-2.8021	-3.1417	-3.1604	-2.7188	-3.0125	-3.2313	-2.9042	-3.3896	427.394	172.657	422.636	449.363	504.584	419.833	460.081	376.949	345.105	176.197	384.680	213.920	478.320	467.131	508.432	253.419	0.00057999	0.00060684	0.00020001	1407.8	5.8317e-06	5.5869e-06	1407.6	374.97	5.5531e-06	5.1225e-06	426.2	143.56	123.98	41.93	6.4475e-06	51.734	0.00061135	0.00060552	0.00016801	1433.2	6.5856e-06	6.4699e-06	1427.1	382.51	6.7896e-06	6.5915e-06	434.96	144.87	126.76	43.161	6.759e-06	53.238	264.872	239.852	256.579	167.724	309.370	293.538	167.754	172.270	320.031	295.722	171.796	176.631	176.810	181.248	313.179	180.427	-8191	255	
826.389	1	1	0	0	0.37543	0.22266	0.084828	0.17954	0.10986	0.26145	0.1928	0.22838	0.14923	0.22811	0.08907	0.1886	0.13179	0.075327	0.096177	0.21073	-2.5646	-2.8354	-3.2062	-2.95	-3.0312	-3.1271	-2.9833	-3.275	-2.9896	-2.7667	-3.4833	-2.8333	-2.9229	-3.2125	-2.6583	-3.3104	363.562	330.710	315.134	487.309	380.990	334.653	432.477	465.024	212.692	261.274	465.296	459.103	167.728	425.951	281.896	399.526	0.0005909	0.00073029	0.00014033	1410.8	5.6054e-06	5.5527e-06	1410.2	374.27	6.8377e-06	4.6177e-06	425.46	144.51	123.55	41.987	4.0943e-06	51.873	0.00061536	0.00060694	0.00016973	1433.6	6.4345e-06	6.5202e-06	1428.8	382.13	6.5522e-06	6.6526e-06	434.76	144.94	126.7	43.165	6.62e-06	53.282	265.309	239.838	270.662	167.764	309.386	301.723	167.717	172.539	322.077	297.524	171.886	177.289	176.882	181.480	317.411	180.641	-8191	255	
826.485	1	1	0	0	0.16987	0.070971	0.11072	0.065916	0.22105	0.14161	0.17127	0.081233	0.10105	0.20119	0.26324	0.12393	0.169	0.23592	0.079369	0.084061	-2.475	-2.7896	-3.2458	-2.875	-2.9875	-3.1688	-2.8812	-3.3438	-3.0312	-2.8063	-3.4396	-2.7771	-2.9646	-3.2562	-2.7083	-3.2417	309.534	349.475	204.667	174.750	481.801	176.881	402.384	480.780	235.534	163.853	470.417	174.035	231.884	490.048	480.803	175.060	0.00059695	0.00068386	0.00019702	1408	5.7342e-06	4.0343e-06	1408.6	376.54	5.4445e-06	5.2489e-06	425.36	143.9	123.53	41.839	5.893e-06	51.803	0.00060723	0.00061347	0.00017053	1431.7	6.585e-06	6.5794e-06	1427.8	382.75	6.9161e-06	6.6279e-06	434.51	144.47	126.71	43.121	6.9431e-06	53.305	265.763	234.719	268.094	167.756	307.671	320.465	167.670	172.534	323.169	329.138	171.942	176.694	176.913	181.353	322.872	180.511	-8191	255	
826.581	1	1	0	0	0.21096	0.17565	0.21139	0.21734	0.097078	0.16661	0.19398	0.14186	0.098353	0.081116	0.19518	0.27221	0.085085	0.10505	0.18878	0.1939	-2.6	-2.725	-3.1146	-3	-3.0396	-3.2354	-2.9	-3.2	-2.9604	-2.8042	-3.2771	-2.6667	-2.9646	-3.2646	-2.7771	-3.125	241.420	471.730	428.425	500.594	285.228	246.982	466.832	485.348	399.250	435.706	484.842	509.510	464.839	478.014	456.037	379.757	0.00060474	0.00034519	0.00018756	1409.2	4.7595e-06	6.7308e-06	1410.3	376.18	4.637e-06	5.0747e-06	425.38	142.43	123.22	42.067	4.5025e-06	51.963	0.00061903	0.00061563	0.00017426	1432	6.6737e-06	7.1486e-06	1428.9	383.09	6.7754e-06	6.9453e-06	434.54	144.73	126.94	43.273	7.0276e-06	53.384	265.396	223.834	272.999	167.820	294.579	305.290	167.835	172.516	310.471	327.536	171.794	176.778	176.809	181.351	312.299	180.529	-8191	255	
826.677	1	1	0	0	0.1031	0.091932	0.083349	0.28611	0.31629	0.14579	0.29605	0.21897	0.19936	0.24025	0.3321	0.093096	0.1198	0.11321	0.074203	0.12481	-2.5729	-2.575	-3.1167	-2.9375	-2.6917	-3.3333	-3.0333	-3.225	-3.0146	-2.7438	-3.2417	-2.8958	-2.7479	-3.3667	-2.6771	-3.0771	315.164	172.383	353.075	157.220	409.965	305.539	463.951	422.722	488.279	189.013	398.274	367.958	361.429	452.984	180.743	226.970	0.00058656	0.000417	0.0001238	1411.1	8.3913e-06	4.7964e-06	1404.6	375.39	5.1659e-06	3.0733e-06	426.8	145.19	124.23	42.036	5.7938e-06	51.952	0.00062309	0.00064969	0.00017769	1433.3	7.1288e-06	6.9825e-06	1430.2	383.09	6.8193e-06	7.17e-06	435.15	145	127.42	43.278	7.0596e-06	53.411	264.579	240.753	260.276	167.775	303.286	302.977	167.709	172.519	307.753	310.884	171.939	176.459	176.893	181.395	311.033	180.480	-8191	255	
826.773	1	1	0	0	0.10371	0.070605	0.10993	0.27223	0.06819	0.1777	0.17292	0.044631	0.161	0.17428	0.24656	0.080879	0.20929	0.054437	0.30016	0.15053	-2.7625	-2.6562	-3.0979	-3.2583	-2.8271	-3.1792	-3.0792	-3.0708	-3.1562	-2.8542	-3.0146	-2.825	-2.7021	-3.3771	-2.8125	-3.0312	374.598	494.009	233.299	510.853	476.170	401.727	473.625	188.447	307.153	291.560	438.288	510.080	304.480	365.576	210.301	274.343	0.00057079	0.00039961	0.000161	1413	5.633e-06	5.343e-06	1411.2	378.17	6.3982e-06	4.417e-06	427.71	144.37	124.44	42.109	6.1505e-06	52.021	0.00061792	0.00065542	0.00018645	1436.5	7.2426e-06	7.2306e-06	1431.8	384.54	6.9006e-06	7.4641e-06	436.09	145.46	127.47	43.383	7.1335e-06	53.483	266.212	244.210	275.790	167.683	303.785	300.975	167.714	172.346	310.527	315.060	171.970	176.287	176.768	181.305	296.716	180.345	-8191	255	
826.894	1	1	0	0	0.19235	0.055546	0.055447	0.3907	0.094397	0.1596	0.20103	0.19279	0.17913	0.28595	0.35931	0.19889	0.21626	0.14211	0.10716	0.10324	-2.7188	-2.7104	-2.9979	-3.2104	-2.8354	-3.2042	-3.2271	-3.0187	-3.2625	-2.7604	-3.0833	-3.0375	-2.7792	-3.0896	-2.8438	-3.0187	512.599	238.801	345.132	458.157	284.164	179.748	435.133	220.118	432.568	342.698	481.680	434.801	437.951	395.555	487.295	430.263	0.00056033	0.00047838	0.00017109	1415.2	7.3313e-06	5.4032e-06	1413.8	377.53	6.2537e-06	4.7874e-06	429.78	146.02	124.5	42.329	3.4506e-06	52.217	0.00062676	0.00066213	0.00017831	1436.2	6.9596e-06	7.0934e-06	1433.5	385.14	6.6804e-06	6.8704e-06	437.09	146.04	127.8	43.61	6.8435e-06	53.744	265.159	248.934	258.427	167.784	302.436	292.415	167.667	172.327	331.588	292.073	171.838	176.957	176.934	181.210	339.547	180.576	-8191	255	
826.990	1	1	0	0	0.050687	0.10454	0.14846	0.25191	0.040361	0.19039	0.23521	0.11199	0.29314	0.154	0.2611	0.037828	0.28512	0.20143	0.036352	0.13358	-2.8042	-2.8438	-2.9729	-3.3604	-2.8187	-3.3063	-3.2229	-2.9479	-3.2729	-2.9229	-3.0729	-3.0417	-2.6979	-3.2333	-2.9437	-2.9437	202.716	485.225	465.007	415.290	199.789	270.797	473.695	486.931	218.460	424.305	377.999	356.348	488.267	511.738	375.739	423.958	0.00059089	0.00039898	0.00014396	1413.5	7.0107e-06	6.9053e-06	1416.4	378.58	6.5457e-06	4.8885e-06	427.6	145.51	125.11	42.499	4.9096e-06	52.225	0.00062279	0.00064008	0.00016292	1437.8	6.8686e-06	6.8082e-06	1435.9	385.62	6.4727e-06	6.8168e-06	437.68	146.58	128.36	43.784	6.9519e-06	53.84	266.975	239.146	256.653	167.763	311.300	312.385	167.791	172.266	321.843	306.514	171.736	176.963	176.868	181.332	304.914	180.346	-8191	255	
827.086	1	1	0	0	0.16304	0.095735	0.11651	0.42885	0.097218	0.088623	0.057127	0.2853	0.15839	0.19828	0.11525	0.27198	0.13933	0.16088	0.20725	0.22493	-2.7708	-2.8583	-3.0521	-3.3604	-2.7542	-3.1083	-3.1542	-2.9625	-3.1937	-2.9292	-3.0333	-3.0583	-3.0812	-3.2062	-2.9875	-2.8896	341.406	488.101	452.843	471.616	403.284	178.168	352.511	399.159	310.486	172.667	306.261	235.771	230.122	396.980	413.047	475.212	0.00058875	0.00033516	0.00019878	1418	5.1285e-06	5.8533e-06	1418.3	380.39	5.9917e-06	4.8912e-06	428.31	145.48	126.05	43.087	5.1537e-06	52.949	0.00062912	0.00067501	0.00018234	1441.8	7.1119e-06	7.3945e-06	1439.1	386.72	7.1772e-06	7.6743e-06	438.97	147.26	129.5	44.148	8.032e-06	54.315	264.459	246.397	257.918	167.690	316.920	316.360	167.671	172.369	308.547	317.047	171.823	176.532	176.679	181.303	313.448	180.465	-8191	255	
827.182	1	1	0	0	0.054653	0.18026	0.20332	0.091263	0.062629	0.17567	0.37706	0.20898	0.22325	0.32661	0.1681	0.32416	0.051563	0.13199	0.10586	0.079665	-2.6771	-2.8729	-2.7479	-3.2208	-2.8979	-3.1562	-3.3208	-2.9604	-3.0917	-2.95	-2.9208	-3.1125	-2.8187	-3.1083	-3.0521	-2.8396	260.709	401.321	250.435	493.590	162.796	464.569	481.711	384.083	176.193	287.247	422.745	209.273	509.515	404.001	171.769	422.295	0.0006054	0.00046637	0.00016837	1420.4	5.153e-06	5.3254e-06	1425.4	381.31	4.4857e-06	2.7386e-06	432.35	146.85	126.55	43.073	5.3959e-06	53.007	0.00066579	0.00071332	0.00020124	1446.5	8.018e-06	8.2744e-06	1446.3	389.31	7.6123e-06	7.875e-06	442.14	148.33	130.08	44.358	7.61e-06	54.57	266.032	236.979	261.854	167.711	311.982	316.939	167.610	172.405	304.358	322.377	171.770	176.447	176.590	181.219	329.252	180.452	-8191	255	
827.278	1	1	0	0	0.046445	0.15712	0.17246	0.19413	0.13923	0.17746	0.13744	0.20104	0.0047297	0.29813	0.11888	0.25668	0.17695	0.097547	0.27666	0.13536	-2.7042	-3.0687	-2.7354	-3.2979	-2.8833	-3.1	-3.3979	-2.8604	-3.2562	-3.0708	-2.9417	-3.3542	-3.0479	-3.0604	-3.05	-2.7562	178.931	408.667	471.107	447.132	326.637	432.125	434.857	405.120	187.849	476.936	410.882	191.840	289.306	235.531	316.064	212.973	0.00058184	0.00050251	0.00018109	1429.7	6.121e-06	6.0641e-06	1430.5	381.23	6.0261e-06	4.6904e-06	432.4	147.78	127.43	43.044	5.1345e-06	53.276	0.00066346	0.00071493	0.00020558	1451.7	7.8249e-06	7.6846e-06	1449.5	390.34	7.4894e-06	7.6936e-06	442.18	148.45	130.5	44.483	7.2531e-06	54.661	264.140	221.165	256.378	167.568	324.590	299.958	167.556	172.173	318.553	303.896	171.851	176.601	176.648	181.238	297.358	180.436	-8191	255	
#DATA ENDS
