BOXY.EXE: ISS Imagent and Oximeter Data Acquisition Program Version 0.80
Ascii Record File

#ACQ INFORMATION
2  Detector Channels 
16  External MUX Channels 
1  Auxiliary Channels 
5000  Waveform (CCF) Frequency (Hz)
1  Waveforms Skipped 
30  Waveforms Averaged 
1  Cycles Averaged 
16  Acquisitions per Waveform 
10.0806  Updata Rate (Hz) 

#FILE INFORMATION
TRUE -- External MUX Channel results are PARSED.
FALSE -- AC DC and Phase are NOT grouped.
TRUE -- Companion Program Settings File CREATED.
FALSE -- AC data not excluded
FALSE -- DC data not excluded
FALSE -- Phase data not excluded
FALSE -- Auxillary Chn. data not excluded
Tab delimiters

#CALIBRATION STATE
TRUE -- Waveform Calibration Values APPLIED.


#AUX CALIBRATION VALUES
Val Type	aux-1	

Term	1.0000e+00	
Factor	0.0000e+00	


#WF CALIBRATION VALUES
A = Detector Channel
Val Type	A-AC1	A-AC2	A-AC3	A-AC4	A-AC5	A-AC6	A-AC7	A-AC8	A-AC9	A-AC10	A-AC11	A-AC12	A-AC13	A-AC14	A-AC15	A-AC16	A-DC1	A-DC2	A-DC3	A-DC4	A-DC5	A-DC6	A-DC7	A-DC8	A-DC9	A-DC10	A-DC11	A-DC12	A-DC13	A-DC14	A-DC15	A-DC16	A-Ph1	A-Ph2	A-Ph3	A-Ph4	A-Ph5	A-Ph6	A-Ph7	A-Ph8	A-Ph9	A-Ph10	A-Ph11	A-Ph12	A-Ph13	A-Ph14	A-Ph15	A-Ph16	

Term	0.00000e+00	0.00000e+00	0.00000e+00	0.00000e+00	0.00000e+00	0.00000e+00	0.00000e+00	0.00000e+00	0.00000e+00	0.00000e+00	0.00000e+00	0.00000e+00	0.00000e+00	0.00000e+00	0.00000e+00	0.00000e+00	0.00000e+00	0.00000e+00	0.00000e+00	0.00000e+00	0.00000e+00	0.00000e+00	0.00000e+00	0.00000e+00	0.00000e+00	0.00000e+00	0.00000e+00	0.00000e+00	0.00000e+00	0.00000e+00	0.00000e+00	0.00000e+00	0.00000e+00	0.00000e+00	0.00000e+00	0.00000e+00	0.00000e+00	0.00000e+00	0.00000e+00	0.00000e+00	0.00000e+00	0.00000e+00	0.00000e+00	0.00000e+00	0.00000e+00	0.00000e+00	0.00000e+00	0.00000e+00	
Factor	1.00000e+00	1.00000e+00	1.00000e+00	1.00000e+00	1.00000e+00	1.00000e+00	1.00000e+00	1.00000e+00	1.00000e+00	1.00000e+00	1.00000e+00	1.00000e+00	1.00000e+00	1.00000e+00	1.00000e+00	1.00000e+00	1.00000e+00	1.00000e+00	1.00000e+00	1.00000e+00	1.00000e+00	1.00000e+00	1.00000e+00	1.00000e+00	1.00000e+00	1.00000e+00	1.00000e+00	1.00000e+00	1.00000e+00	1.00000e+00	1.00000e+00	1.00000e+00	X	X	X	X	X	X	X	X	X	X	X	X	X	X	X	X	

B = Detector Channel
Val Type	B-AC1	B-AC2	B-AC3	B-AC4	B-AC5	B-AC6	B-AC7	B-AC8	B-AC9	B-AC10	B-AC11	B-AC12	B-AC13	B-AC14	B-AC15	B-AC16	B-DC1	B-DC2	B-DC3	B-DC4	B-DC5	B-DC6	B-DC7	B-DC8	B-DC9	B-DC10	B-DC11	B-DC12	B-DC13	B-DC14	B-DC15	B-DC16	B-Ph1	B-Ph2	B-Ph3	B-Ph4	B-Ph5	B-Ph6	B-Ph7	B-Ph8	B-Ph9	B-Ph10	B-Ph11	B-Ph12	B-Ph13	B-Ph14	B-Ph15	B-Ph16	

Term	0.00000e+00	0.00000e+00	0.00000e+00	0.00000e+00	0.00000e+00	0.00000e+00	0.00000e+00	0.00000e+00	0.00000e+00	0.00000e+00	0.00000e+00	0.00000e+00	0.00000e+00	0.00000e+00	0.00000e+00	0.00000e+00	0.00000e+00	0.00000e+00	0.00000e+00	0.00000e+00	0.00000e+00	0.00000e+00	0.00000e+00	0.00000e+00	0.00000e+00	0.00000e+00	0.00000e+00	0.00000e+00	0.00000e+00	0.00000e+00	0.00000e+00	0.00000e+00	-5.49489e+01	-1.30018e+02	-1.15029e+02	-1.82000e+02	-4.48403e+01	-6.38213e+01	-1.54057e+02	-1.62015e+02	-3.85132e+01	-6.38819e+01	-1.69547e+02	-1.75151e+02	-1.81293e+02	-1.75935e+02	-4.59049e+01	-1.48675e+02	
Factor	1.87765e-05	1.88899e-04	5.74682e-05	1.52957e-01	1.97764e-06	2.23793e-06	1.65064e-01	6.35851e-02	1.55218e-06	1.92868e-06	8.55358e-02	2.11266e-01	3.09704e-02	8.91294e-03	1.86578e-06	1.29532e-02	1.43335e-05	2.95678e-05	8.19797e-06	7.80900e-02	2.80065e-07	3.30729e-07	7.91658e-02	3.25726e-02	2.84905e-07	3.29813e-07	4.25583e-02	1.04478e-01	1.60749e-02	4.61447e-03	3.00568e-07	6.47548e-03	X	X	X	X	X	X	X	X	X	X	X	X	X	X	X	X	



#DISTANCE SETTINGS
A = Detector Channel
A-1	A-2	A-3	A-4	A-5	A-6	A-7	A-8	A-9	A-10	A-11	A-12	A-13	A-14	A-15	A-16	

2.5000e+00	3.0000e+00	2.5000e+00	3.0000e+00	2.0000e+00	3.0000e+00	1.5000e+00	3.0000e+00	3.0000e+00	3.0000e+00	3.0000e+00	3.0000e+00	3.0000e+00	3.0000e+00	1.5000e+00	3.0000e+00	

B = Detector Channel
B-1	B-2	B-3	B-4	B-5	B-6	B-7	B-8	B-9	B-10	B-11	B-12	B-13	B-14	B-15	B-16	

1.0000e+01	1.0000e+01	1.0000e+01	1.4400e+00	1.0000e+01	1.0000e+01	1.5100e+00	1.9400e+00	1.0000e+01	1.0000e+01	1.9900e+00	2.4900e+00	2.4100e+00	2.9000e+00	1.0000e+01	2.9800e+00	




#DATA BEGINS
time	group	step	mark	flag	A-AC1	A-AC2	A-AC3	A-AC4	A-AC5	A-AC6	A-AC7	A-AC8	A-AC9	A-AC10	A-AC11	A-AC12	A-AC13	A-AC14	A-AC15	A-AC16	A-DC1	A-DC2	A-DC3	A-DC4	A-DC5	A-DC6	A-DC7	A-DC8	A-DC9	A-DC10	A-DC11	A-DC12	A-DC13	A-DC14	A-DC15	A-DC16	A-Ph1	A-Ph2	A-Ph3	A-Ph4	A-Ph5	A-Ph6	A-Ph7	A-Ph8	A-Ph9	A-Ph10	A-Ph11	A-Ph12	A-Ph13	A-Ph14	A-Ph15	A-Ph16	B-AC1	B-AC2	B-AC3	B-AC4	B-AC5	B-AC6	B-AC7	B-AC8	B-AC9	B-AC10	B-AC11	B-AC12	B-AC13	B-AC14	B-AC15	B-AC16	B-DC1	B-DC2	B-DC3	B-DC4	B-DC5	B-DC6	B-DC7	B-DC8	B-DC9	B-DC10	B-DC11	B-DC12	B-DC13	B-DC14	B-DC15	B-DC16	B-Ph1	B-Ph2	B-Ph3	B-Ph4	B-Ph5	B-Ph6	B-Ph7	B-Ph8	B-Ph9	B-Ph10	B-Ph11	B-Ph12	B-Ph13	B-Ph14	B-Ph15	B-Ph16	aux-1	digaux	

844.884	1	1	0	768	0.30104	0.30102	0.10559	0.061124	0.28747	0.15085	0.21745	0.22267	0.1454	0.016345	0.16765	0.3253	0.19184	0.37116	0.22172	0.19172	-2.8667	-3.0208	-3.0438	-3.2896	-3.1	-3.0104	-3.6063	-3.0542	-3.2542	-2.9938	-3.0896	-3.3396	-3.1646	-3.0375	-3.475	-2.8125	207.543	199.018	-123.792	92.575	8.042	13.412	178.214	-56.673	48.594	108.806	209.164	-88.785	214.227	-127.372	-119.740	194.726	0.00018434	0.00027527	8.7841e-05	1228.4	2.4648e-06	4.0785e-06	1281.8	257.91	1.8719e-06	3.7e-06	318.41	85.488	70.097	20.445	2.5193e-06	28.714	0.00022348	0.00018307	6.0135e-05	1205	2.8631e-06	2.4839e-06	1261.5	255.76	2.8959e-06	2.6131e-06	315.06	88.347	70.381	20.598	3.0545e-06	28.957	-84.158	-59.483	-52.489	-130.588	15.775	20.850	-130.498	-123.618	-13.289	-8.837	-123.620	-117.375	-117.532	-110.377	23.218	-110.997	-8191	255	
844.980	1	1	0	0	0.24478	0.031186	0.16104	0.26315	0.10633	0.14271	0.36462	0.087719	0.082808	0.071743	0.21099	0.18263	0.29792	0.15893	0.24206	0.05881	-2.7687	-3.1625	-2.825	-3.4271	-3.1729	-3.0021	-3.5917	-2.9625	-3.3083	-3.3104	-3.0812	-3.2208	-3.1708	-3.1063	-3.275	-2.8021	-72.352	183.202	-6.749	112.433	29.649	-138.603	172.885	159.034	183.651	-132.818	149.347	213.538	168.116	172.150	-116.923	188.619	0.00019901	0.00022776	0.00011991	1229.5	1.4264e-07	3.7163e-06	1282.9	258.69	2.8045e-06	1.9903e-06	316.56	85.716	69.809	20.429	2.9789e-06	28.547	0.00026147	0.00026907	8.613e-05	1209.1	3.2517e-06	3.0413e-06	1264.3	256.66	2.9957e-06	2.767e-06	314.97	88.306	70.343	20.595	2.6444e-06	28.751	-79.712	-65.787	-46.755	-130.699	-124.182	3.435	-130.497	-123.831	5.578	6.180	-124.076	-117.811	-117.254	-110.741	29.192	-110.716	-8191	255	
845.077	1	1	0	0	0.3071	0.29187	0.37437	0.088208	0.19749	0.11041	0.27029	0.17554	0.11353	0.10861	0.13906	0.21576	0.29386	0.23934	0.27434	0.35578	-2.6833	-3.1771	-2.6083	-3.3146	-3.1708	-2.8271	-3.4604	-3.0875	-3.1417	-3.25	-3.0792	-3.0687	-3.0917	-3.0062	-3.3729	-3.0375	-99.920	16.969	-104.028	200.220	89.324	-72.653	130.095	166.461	211.653	165.752	137.656	109.725	122.612	175.895	-5.572	97.397	0.00019052	0.00039452	8.9164e-05	1229.5	8.9574e-07	3.5852e-06	1287.5	257.97	2.4842e-06	4.2284e-06	318.98	87.723	70.706	20.913	8.4068e-07	28.669	0.00025962	0.0002586	7.0673e-05	1205.2	3.0515e-06	2.8463e-06	1265.6	256.23	3.0063e-06	2.8378e-06	317.03	89.411	70.929	20.92	2.7101e-06	29.054	-82.101	-73.920	-47.808	-130.803	-60.004	31.025	-130.553	-124.026	-17.613	-9.524	-123.809	-117.865	-117.434	-111.055	-19.353	-110.805	-8191	255	
845.173	1	1	0	0	0.10403	0.13221	0.23466	0.23268	0.35175	0.12822	0.18898	0.44184	0.13781	0.097735	0.15869	0.15737	0.08504	0.3842	0.15581	0.18385	-2.5563	-3.3729	-2.7333	-3.2313	-3.2562	-2.9229	-3.5083	-3.1354	-2.9938	-3.2667	-3.1	-3.2896	-3.1562	-2.9479	-3.2229	-3.0417	10.953	-30.811	32.517	149.070	-92.072	-78.247	211.538	170.518	37.890	-80.199	138.025	100.043	135.055	217.095	67.835	19.665	0.00020039	0.00021229	9.8851e-05	1238.3	2.2652e-06	3.2832e-06	1289.1	258.56	3.796e-06	3.5737e-06	319.25	87.196	71.107	20.654	3.2033e-06	28.679	0.00025182	0.00022995	6.7428e-05	1213.9	3.0288e-06	2.836e-06	1269.9	256.86	2.9476e-06	2.7141e-06	316.75	88.703	70.931	20.833	2.871e-06	28.923	-82.814	-25.010	-42.016	-130.833	12.671	12.091	-130.719	-123.528	10.515	5.151	-123.982	-118.087	-117.172	-110.608	30.940	-110.697	-8191	255	
845.269	1	1	0	0	0.057847	0.18456	0.11794	0.25723	0.28775	0.22162	0.053851	0.28336	0.16334	0.16851	0.13478	0.17744	0.25903	0.14672	0.071725	0.20931	-2.5542	-3.2833	-2.925	-3.2604	-3.2854	-3.0208	-3.3396	-3.0771	-2.8146	-3.3688	-3.0958	-3.0979	-3.1958	-2.8625	-3.2292	-3.0812	-63.288	11.902	38.554	172.352	-53.081	-100.488	-21.231	-53.665	148.579	168.723	-140.171	94.556	-137.387	-98.303	-104.092	197.155	0.00018417	0.00037284	4.6643e-05	1231.5	2.8638e-06	3.7608e-06	1297.6	259.36	2.1038e-06	2.532e-06	320.03	86.997	71.15	20.88	2.6576e-06	28.976	0.00025669	0.00025071	6.9375e-05	1215.5	2.9494e-06	2.9021e-06	1273.8	257.46	2.95e-06	2.6303e-06	316.84	88.99	71.044	20.965	2.6782e-06	29.167	-83.201	-58.101	-10.572	-130.677	24.787	26.093	-130.580	-123.794	-17.455	8.257	-124.244	-117.910	-117.054	-110.550	20.300	-110.803	-8191	255	
845.365	1	1	0	0	0.19429	0.22547	0.15718	0.296	0.14299	0.11529	0.17896	0.19412	0.42852	0.16897	0.14451	0.30355	0.19366	0.14843	0.16616	0.1664	-2.5542	-3.2167	-2.9354	-3.4458	-3.4208	-2.9646	-3.5625	-3.1625	-2.8542	-3.2708	-3.0396	-3.0125	-3.4708	-2.7604	-3.2792	-3.2083	-3.182	-115.185	-4.658	163.750	131.672	0.945	104.573	179.204	25.842	122.743	118.879	146.633	66.293	-31.580	-102.476	-6.547	0.00021832	0.00036544	5.2558e-05	1235.1	2.7456e-06	2.9198e-06	1292.8	258.44	2.8056e-06	2.1895e-06	319.14	86.874	70.859	20.615	3.4791e-06	28.631	0.0002589	0.00024166	6.5977e-05	1215.1	2.9238e-06	2.5631e-06	1271.6	257.28	2.8271e-06	2.4386e-06	316.54	88.5	70.763	20.725	2.6575e-06	28.882	-78.337	-75.627	-43.582	-130.843	19.186	17.670	-130.493	-123.797	11.711	24.671	-123.854	-116.729	-117.185	-110.264	28.174	-110.564	-8191	255	
845.486	1	1	0	0	0.12544	0.33094	0.20438	0.19033	0.079301	0.20129	0.20197	0.32178	0.15656	0.15922	0.19939	0.11672	0.13829	0.087298	0.20068	0.16069	-2.3854	-3.1813	-2.9417	-3.3729	-3.4167	-2.9583	-3.3646	-3.2479	-2.8208	-3.3208	-3.0708	-3.0333	-3.3375	-2.7646	-3.05	-3.3417	153.485	-66.108	167.106	144.320	92.631	8.357	194.592	214.554	105.109	200.837	195.688	-107.537	-112.982	62.106	-47.354	-130.917	0.0001979	0.00025442	0.00012098	1228.4	2.4445e-06	3.6445e-06	1281.3	257.85	3.5765e-06	3.7916e-06	316.01	86.245	70.436	20.301	3.491e-06	28.536	0.00024701	0.00022157	6.3124e-05	1206.2	2.7627e-06	2.5094e-06	1261.8	255.55	2.7814e-06	2.286e-06	314.06	87.546	70.134	20.529	2.1466e-06	28.669	-86.130	-67.386	-43.174	-130.845	-19.314	-8.529	-130.725	-123.866	13.806	25.577	-123.846	-117.271	-117.405	-110.836	3.628	-110.612	-8191	255	
845.580	1	1	0	0	0.16453	0.18839	0.10414	0.21823	0.24727	0.058368	0.179	0.088512	0.18155	0.21439	0.13495	0.19736	0.24657	0.23249	0.14255	0.11412	-2.4104	-3.0958	-3.0229	-3.0875	-3.2521	-2.9792	-3.2333	-3.4021	-2.8646	-3.3312	-3.2271	-3.1417	-3.0333	-2.9	-3.0062	-3.1833	62.251	127.631	-123.922	179.857	201.269	140.310	-116.433	140.589	-11.145	-87.000	147.460	-60.902	115.286	-139.601	-0.860	99.866	0.00021018	0.00021339	9.0892e-05	1211.9	3.0597e-06	4.4808e-06	1269.3	254.53	1.9878e-06	3.0488e-06	313.61	84.337	69.577	20.263	3.1097e-06	28.306	0.00023465	0.00018548	4.888e-05	1191.2	2.3076e-06	1.992e-06	1247.4	251.97	2.1409e-06	1.8188e-06	311.45	87.026	69.531	20.443	1.8222e-06	28.56	-80.959	-67.055	-36.724	-130.740	6.589	14.702	-130.699	-123.645	-5.556	8.309	-123.956	-117.223	-117.427	-110.440	16.603	-110.530	-8191	255	
845.678	1	1	0	0	0.08276	0.30314	0.095384	0.29398	0.12301	0.1549	0.25856	0.13297	0.11543	0.060775	0.25062	0.1043	0.19942	0.092164	0.067663	0.22209	-2.3042	-3.1063	-3.1646	-3.225	-3.3542	-2.9396	-3.3354	-3.3917	-2.8229	-3.1708	-3.2771	-2.6833	-3.3521	-3.0958	-2.9562	-3.4646	-60.821	-118.068	193.948	166.719	-64.086	161.244	102.112	-113.863	-111.898	-96.119	183.526	17.854	184.415	-61.046	-36.461	179.122	0.00021437	0.00028043	0.00011286	1212.2	2.6587e-06	2.8953e-06	1269.4	253.65	2.18e-06	4.0234e-06	313.83	86.252	69.81	20.35	3.4871e-06	28.461	0.00022026	0.00016669	4.7531e-05	1189.4	2.286e-06	1.6647e-06	1248.1	251.79	2.3445e-06	1.7899e-06	310.75	87.36	69.456	20.406	1.9913e-06	28.499	-80.452	-61.317	-43.717	-130.529	11.797	27.379	-130.598	-123.713	-1.285	18.511	-123.663	-118.061	-117.219	-110.541	22.791	-110.468	-8191	255	
845.774	1	1	0	0	0.13668	0.092882	0.016444	0.36819	0.16992	0.13523	0.25067	0.13617	0.14142	0.12241	0.19063	0.038521	0.14369	0.25982	0.043445	0.26733	-2.475	-3.0979	-3.3792	-2.8854	-3.3354	-3.0375	-3.0792	-3.4688	-2.8937	-3.0812	-3.425	-2.9313	-3.2521	-3.0687	-2.9437	-3.4583	205.167	20.091	-42.146	207.000	145.897	104.566	145.467	-117.593	119.535	140.295	140.524	17.542	139.620	215.823	-71.480	154.155	0.00019512	0.00034873	9.6983e-05	1202.4	3.2385e-06	3.0305e-06	1256.4	251.29	2.4204e-06	2.8709e-06	311.13	84.268	69.144	20.016	1.7126e-06	28.097	0.0002113	0.00016207	4.5225e-05	1181.5	2.2236e-06	1.6971e-06	1237.3	250.12	2.0762e-06	1.7411e-06	309.03	86.397	68.931	20.133	1.9437e-06	28.275	-83.918	-58.771	-48.214	-130.571	10.688	21.897	-130.302	-123.613	16.624	-2.543	-123.965	-117.679	-117.093	-110.488	6.106	-110.481	-8191	255	
845.869	1	1	0	0	0.17758	0.3545	0.30673	0.30559	0.10591	0.036738	0.19404	0.23337	0.20839	0.23964	0.068718	0.11245	0.096181	0.11027	0.25006	0.13107	-2.6479	-3.2229	-3.3604	-2.9062	-3.0687	-3.1937	-3.0833	-3.4896	-2.9938	-3.2792	-3.3125	-2.8917	-3.2125	-3.1208	-2.7396	-3.2062	6.469	172.067	-91.133	209.649	-32.298	4.272	62.685	150.463	213.037	217.781	-28.492	33.257	2.926	-134.567	51.422	-122.311	0.0001999	0.00023006	0.00011941	1197.2	2.3449e-06	4.2021e-06	1254.9	251.64	1.7098e-06	3.0508e-06	310.36	85.63	68.774	19.993	2.8169e-06	28.028	0.00020999	0.00017938	4.5157e-05	1178.2	2.1168e-06	1.8838e-06	1237	249.73	2.0412e-06	1.8147e-06	307.84	86.509	68.702	20.084	1.8416e-06	28.236	-82.926	-48.886	-34.417	-130.652	-11.077	24.190	-130.372	-123.444	-22.671	5.446	-123.749	-118.017	-117.174	-110.362	15.979	-110.369	-8191	255	
845.965	1	1	0	0	0.30084	0.12115	0.23478	0.10216	0.27807	0.095694	0.17152	0.2822	0.090103	0.20405	0.24782	0.11728	0.11772	0.10704	0.051805	0.11674	-2.5812	-3.1542	-3.2542	-3.1833	-3.2375	-3.1396	-3.1188	-3.3229	-3.0312	-2.9583	-3.2896	-2.9583	-3.0521	-3.3542	-2.7979	-3.175	-31.977	-87.912	44.313	195.872	83.351	83.444	130.633	185.980	112.937	-36.395	163.096	6.839	-95.041	214.847	-11.138	-102.666	0.00020152	0.00023135	5.0475e-05	1195.7	2.6184e-06	3.8034e-06	1254	250.08	1.9189e-06	2.2403e-06	308.86	84.5	68.887	20	4.5334e-06	27.851	0.00021447	0.00015184	4.1314e-05	1174	2.3065e-06	1.8259e-06	1231.4	248.2	2.0104e-06	1.7343e-06	306.67	85.914	68.468	20.071	2.0564e-06	28.173	-80.799	-75.693	-27.535	-130.535	10.713	16.535	-130.458	-124.046	7.382	-4.044	-123.909	-117.190	-117.332	-110.309	4.809	-110.746	-8191	255	
846.085	1	1	0	0	0.18865	0.18043	0.12223	0.15315	0.043314	0.13943	0.24267	0.035338	0.13734	0.13295	0.18886	0.15293	0.175	0.15684	0.026946	0.12425	-2.7042	-2.7896	-3.3583	-3.0563	-3.3896	-3.1813	-3.1833	-3.2729	-3.1771	-2.9896	-3.3688	-2.9792	-3.1521	-3.425	-3.0729	-3.2333	39.577	-77.639	66.662	147.977	-124.542	-4.928	165.106	-25.805	-104.858	-5.440	125.056	-60.265	-92.394	77.681	73.078	143.143	0.00019379	0.00021287	6.8866e-05	1191.4	1.5611e-06	3.5138e-06	1252.7	251.47	2.4033e-06	2.845e-06	309.07	83.755	68.713	19.959	3.3825e-06	27.788	0.00020616	0.00017895	4.1793e-05	1172.8	2.4039e-06	1.7432e-06	1230.8	248.46	2.1249e-06	1.9019e-06	307.39	86.215	68.541	20.061	1.8998e-06	28.057	-87.924	-55.346	-32.620	-130.578	-2.304	25.286	-130.628	-123.527	-16.700	17.276	-123.720	-117.098	-116.958	-110.505	25.118	-110.363	-8191	255	
846.182	1	1	0	0	0.10494	0.3351	0.21088	0.30667	0.082676	0.082323	0.10213	0.13162	0.1192	0.073525	0.15117	0.32991	0.17092	0.025408	0.14045	0.21708	-2.8917	-3.0271	-3.2854	-2.975	-3.2396	-3.2375	-3.0792	-3.3854	-3.175	-2.8771	-3.5062	-3.0583	-3.0167	-3.2292	-2.9604	-3.3125	-69.777	-80.586	46.675	217.856	91.537	-28.960	163.369	86.617	165.096	-96.512	10.379	-53.748	-84.615	125.818	115.071	2.523	0.00017424	0.00023296	6.5982e-05	1183.7	2.9319e-06	3.2854e-06	1244.2	248.32	2.8877e-06	3.1873e-06	304.76	82.912	68.628	19.62	1.4466e-06	27.607	0.0001975	0.00016724	3.9384e-05	1166.5	2.2954e-06	1.52e-06	1220.6	246.04	2.0567e-06	1.9095e-06	303.32	84.875	68.002	19.801	1.7646e-06	27.82	-77.824	-45.083	-42.608	-130.619	7.515	27.259	-130.491	-123.696	4.691	10.520	-123.784	-117.239	-117.402	-110.211	0.749	-110.341	-8191	255	
846.278	1	1	0	0	0.042751	0.37367	0.16527	0.056142	0.19125	0.18041	0.17694	0.1724	0.14033	0.078221	0.14095	0.20565	0.077741	0.19386	0.064885	0.22254	-2.85	-2.8542	-3.2687	-3.1	-2.9792	-3.2354	-3.1354	-3.2875	-3.4062	-2.7333	-3.4146	-2.9083	-2.9458	-3.3021	-2.8812	-3.2167	-76.886	-97.473	189.624	181.378	160.683	103.873	112.738	172.759	16.195	95.620	-126.371	208.033	-128.093	-21.941	-64.710	13.254	0.00019918	0.00027611	4.2309e-05	1177.2	1.8487e-06	2.6698e-06	1239	247.1	2.8503e-06	3.3983e-06	305.21	82.73	67.395	19.689	2.1364e-06	27.513	0.00020345	0.00016761	4.0477e-05	1158.4	2.4045e-06	1.6674e-06	1215.7	244.35	1.9801e-06	1.9074e-06	302.88	84.82	67.478	19.742	1.97e-06	27.794	-78.412	-56.292	-26.582	-130.732	0.512	4.681	-130.328	-123.607	-27.449	15.878	-123.854	-117.735	-117.118	-109.985	30.218	-110.777	-8191	255	
846.374	1	1	0	0	0.11268	0.11428	0.20328	0.26746	0.24802	0.26855	0.28523	0.062423	0.0638	0.13691	0.21788	0.22735	0.063428	0.058927	0.060318	0.12394	-2.7875	-2.8354	-3.1458	-3.3125	-3.0333	-3.3688	-3.0938	-3.175	-3.4938	-2.8354	-3.325	-2.9417	-2.8917	-3.3875	-2.9729	-3.0792	166.274	209.015	162.344	170.962	-134.198	-34.061	120.524	-95.168	-124.396	107.940	141.456	58.855	-138.431	157.197	-50.131	-116.020	0.00018115	0.00043404	8.9498e-05	1176.5	2.3718e-06	4.82e-06	1234.5	246.64	1.5947e-06	3.0989e-06	305.18	83.767	67.945	19.722	3.7239e-06	27.45	0.00020312	0.00019798	4.2407e-05	1158	2.4926e-06	1.8445e-06	1214.3	244.34	1.9943e-06	1.9816e-06	302.75	85.109	67.592	19.769	1.8892e-06	27.79	-83.339	-58.114	-21.404	-130.357	-13.510	12.083	-130.378	-123.617	-10.040	9.688	-124.025	-117.817	-117.029	-110.172	18.677	-110.437	-8191	255	
846.445	1	1	0	0	0.21627	0.16901	0.067578	0.046123	0.10527	0.17198	0.40088	0.38939	0.14704	0.105	0.20734	0.20641	0.14674	0.021983	0.15357	0.10365	-2.9229	-2.8063	-3.1021	-3.1729	-3.0417	-3.3542	-3.2062	-3.0062	-3.3146	-2.95	-3.2271	-3.1167	-2.9396	-3.2375	-2.9896	-3.0146	208.000	172.293	-91.806	-84.997	87.162	140.478	175.443	208.084	-54.055	105.801	55.411	186.058	109.264	140.873	206.044	124.751	0.00018375	0.00024649	9.1468e-05	1178.8	2.8063e-06	3.3176e-06	1230.5	245.34	2.6355e-06	1.8123e-06	304.48	83.78	68.18	19.64	1.7993e-06	27.401	0.00019712	0.00016589	4.0802e-05	1155.3	2.3158e-06	1.5496e-06	1210.1	243.52	1.9635e-06	1.7528e-06	302.47	84.899	67.698	19.738	1.7727e-06	27.762	-82.496	-41.210	-32.774	-130.557	-4.483	36.859	-130.287	-123.575	9.145	22.709	-123.706	-117.629	-117.291	-110.167	6.489	-109.958	-8191	255	
846.566	1	1	0	0	0.1292	0.06859	0.1245	0.20138	0.31609	0.11798	0.11862	0.16355	0.42155	0.38688	0.11974	0.12898	0.11116	0.14171	0.10681	0.086516	-2.8958	-2.9792	-3.1208	-3.2938	-2.8146	-3.2479	-3.2083	-2.9188	-3.4979	-2.9708	-3.3146	-3.3438	-2.7979	-3.2729	-3.0458	-2.9354	62.817	149.090	-46.305	166.516	120.472	122.167	147.346	153.331	126.147	-5.041	75.643	-56.052	131.447	-55.257	-27.966	22.604	0.00019023	0.00022493	0.00011212	1175.1	2.4581e-06	2.1578e-06	1228.9	245.47	2.2991e-06	2.0798e-06	305.78	83.658	67.355	19.682	2.4284e-06	27.628	0.00020028	0.00015055	4.5447e-05	1155.2	2.3665e-06	1.6729e-06	1209.5	243.61	1.9035e-06	1.7027e-06	302.98	84.851	67.489	19.778	1.9631e-06	27.783	-84.188	-49.837	-31.481	-130.490	13.993	25.936	-130.421	-123.783	-12.769	-5.039	-123.708	-117.793	-116.971	-109.978	16.491	-110.805	-8191	255	
846.662	1	1	0	0	0.095898	0.075448	0.20573	0.22033	0.042406	0.14834	0.16056	0.16122	0.048826	0.032063	0.13788	0.088181	0.053012	0.14777	0.18176	0.10122	-2.9729	-2.9875	-2.9396	-3.2583	-2.9	-3.2667	-3.3167	-2.8979	-3.3708	-2.9333	-3.1583	-3.225	-2.9625	-3.0917	-3.0708	-3.0438	57.469	153.273	-25.745	143.836	-101.650	179.839	142.404	170.661	-42.787	-96.442	189.542	91.493	-113.661	-25.224	115.247	116.885	0.0001794	0.00031163	4.5148e-05	1174	3.5335e-06	2.9202e-06	1223.6	246.52	2.5157e-06	3.4077e-06	304.89	83.118	67.618	19.719	2.3749e-06	27.606	0.00020348	0.00016509	4.1178e-05	1154.6	2.2989e-06	1.6392e-06	1209.4	243.73	1.8335e-06	1.7432e-06	302.31	84.595	67.29	19.795	1.6913e-06	27.802	-84.112	-45.676	-14.914	-130.406	2.787	-2.412	-130.422	-123.629	7.246	1.752	-124.034	-117.608	-117.071	-110.538	2.318	-110.296	-8191	255	
846.758	1	1	0	0	0.19693	0.2177	0.054092	0.24467	0.14413	0.18115	0.21625	0.15629	0.10098	0.10225	0.21388	0.10147	0.14478	0.15758	0.051421	0.17743	-2.9167	-2.9146	-2.9896	-3.4188	-2.9875	-3.2479	-3.3771	-2.9667	-3.3146	-3.0938	-3.1771	-3.5542	-3.0125	-3.1813	-3.2	-3.0167	144.330	-115.928	81.405	121.514	-86.289	175.665	80.082	155.576	80.076	-38.000	159.588	-70.348	-41.860	44.277	87.071	174.841	0.0001985	0.0002585	7.6045e-05	1174.8	2.497e-06	3.1374e-06	1228.7	245.44	3.4575e-06	3.8091e-06	304.32	83.18	67.92	19.799	2.4077e-06	27.5	0.00019171	0.00015523	4.4115e-05	1155.9	2.2277e-06	1.6516e-06	1211.5	243.58	2.024e-06	1.7494e-06	302.08	84.815	67.539	19.87	1.6531e-06	27.852	-84.841	-47.141	-42.044	-130.600	4.206	10.668	-130.323	-123.529	11.144	19.931	-123.557	-117.345	-116.884	-110.478	21.362	-110.198	-8191	255	
846.877	1	1	0	0	0.057068	0.075517	0.082038	0.10321	0.13352	0.30847	0.06489	0.34441	0.1887	0.10699	0.24697	0.049566	0.065057	0.078947	0.051072	0.21028	-2.8604	-3.0187	-2.8167	-3.3708	-3.0792	-3.0042	-3.4583	-2.7729	-3.1125	-3.1896	-2.9354	-3.2417	-3.1125	-3.2687	-3.3625	-2.7062	-90.547	-46.585	-24.662	83.696	65.266	30.497	196.265	194.556	97.533	-44.198	138.920	145.071	45.858	216.295	-113.989	121.153	0.00018144	0.00040708	8.6099e-05	1179.6	2.8031e-06	2.7061e-06	1233.1	246.38	3.1431e-06	3.6291e-06	304.79	82.562	67.949	19.786	3.7053e-06	27.482	0.00019129	0.00014562	4.1502e-05	1157.9	2.1991e-06	1.6564e-06	1212.6	243.9	1.8738e-06	1.6759e-06	302.74	84.699	67.478	19.865	1.6857e-06	27.827	-79.394	-50.241	-41.151	-130.709	-1.048	10.852	-130.505	-123.568	-6.569	11.318	-123.845	-118.457	-116.695	-110.262	10.328	-110.581	-8191	255	
846.973	1	1	0	0	0.037728	0.034905	0.11191	0.25452	0.15058	0.31142	0.15578	0.20269	0.22871	0.10941	0.22069	0.050128	0.21594	0.10736	0.24357	0.026445	-2.7771	-3.1604	-2.9354	-3.4708	-2.9354	-3.0354	-3.4625	-2.9667	-3.2812	-3.2292	-3.1375	-3.3479	-3.0417	-3.0687	-3.3438	-2.9625	-34.206	49.201	210.203	217.062	68.152	147.933	185.555	107.074	-84.327	93.365	190.450	-55.606	125.326	78.233	141.437	78.846	0.00019293	0.00028498	8.3485e-05	1177.8	2.2472e-06	2.4771e-06	1226.4	245.76	3.1667e-06	2.2208e-06	303.29	82.488	67.34	19.725	2.8187e-06	27.667	0.00019786	0.00014833	4.2254e-05	1155.7	2.2119e-06	1.5696e-06	1209.9	243.31	1.9552e-06	1.4532e-06	301.32	84.898	67.247	19.842	1.6243e-06	27.847	-86.191	-52.047	-44.112	-130.500	17.714	-10.422	-130.357	-123.571	-6.787	23.483	-123.666	-117.278	-116.720	-110.207	19.795	-110.761	-8191	255	
847.045	1	1	0	0	0.090708	0.27791	0.29203	0.12271	0.24323	0.087813	0.10618	0.10301	0.056824	0.040012	0.27855	0.20199	0.32799	0.1258	0.026257	0.13529	-2.7208	-3.0333	-2.7979	-3.5583	-3.1333	-2.9688	-3.4604	-2.9854	-3.0812	-3.1854	-2.9104	-3.3583	-3.0187	-3.0125	-3.4771	-3.0854	-113.283	3.785	32.841	167.211	53.509	41.467	217.877	141.879	-60.601	-130.087	85.035	207.536	165.054	-124.296	85.258	-140.820	0.00017879	0.00022798	0.00010209	1171.2	3.9804e-06	3.6296e-06	1229.8	244.86	1.8285e-06	3.2778e-06	302.5	83.17	67.966	19.558	3.4998e-06	27.663	0.00020366	0.00014476	3.9863e-05	1153	2.146e-06	1.6116e-06	1208.8	243.03	1.8934e-06	1.4952e-06	301.43	84.86	67.47	19.756	1.4459e-06	27.763	-82.635	-68.512	-52.765	-130.501	3.737	11.702	-130.641	-123.479	-27.894	6.707	-124.040	-116.268	-116.840	-110.196	32.403	-110.569	-8191	255	
847.166	1	1	0	0	0.13419	0.49678	0.15769	0.18841	0.22084	0.26327	0.23794	0.10858	0.11632	0.26309	0.074487	0.083451	0.13209	0.24251	0.14112	0.08749	-2.7021	-3.2583	-2.8458	-3.4354	-2.9771	-2.8583	-3.4458	-3.0292	-3.2458	-3.3458	-2.8583	-3.3312	-3.2354	-3	-3.3333	-3.1104	135.699	-92.665	14.977	145.601	-0.012	6.437	84.159	65.910	17.160	40.959	112.862	78.513	104.512	144.138	134.669	-136.319	0.00020408	0.00020705	8.4086e-05	1170	3.2753e-06	2.3318e-06	1223.4	246.34	2.0307e-06	3.0894e-06	302.49	81.726	67.577	19.57	2.3073e-06	27.505	0.00019362	0.00013041	4.0922e-05	1149.7	2.0842e-06	1.378e-06	1205.9	243.19	1.8026e-06	1.5116e-06	301.06	84.424	67.409	19.684	1.4815e-06	27.699	-82.192	-48.164	-43.412	-130.398	13.965	19.599	-130.491	-123.461	-13.254	33.257	-123.717	-118.042	-117.205	-109.961	30.433	-110.271	-8191	255	
847.262	1	1	0	0	0.30376	0.14669	0.19257	0.16028	0.24194	0.018418	0.26581	0.078962	0.11067	0.23697	0.3259	0.1992	0.15746	0.2056	0.21113	0.19375	-2.4271	-3.0521	-2.9479	-3.3917	-3.225	-3.0354	-3.3417	-3.0271	-3.1583	-3.4125	-2.8438	-3.0687	-3.1646	-2.8208	-3.3896	-2.9146	-82.420	97.406	90.307	123.287	62.643	90.619	121.478	-39.618	-30.684	143.847	-120.182	-29.624	130.879	-109.901	119.114	-27.550	0.00018561	0.00027053	7.9866e-05	1168.5	2.8586e-06	3.4027e-06	1227.3	244.69	2.6831e-06	2.6624e-06	302.31	82.847	67.592	19.507	2.5335e-06	27.637	0.00019786	0.00014371	3.8428e-05	1149.4	2.0153e-06	1.7356e-06	1204.7	242.86	2.0003e-06	1.5048e-06	300.98	84.698	67.226	19.676	1.5417e-06	27.709	-83.299	-50.049	-39.315	-130.537	11.302	11.505	-130.388	-123.423	-26.462	15.870	-123.813	-117.436	-116.833	-109.692	0.158	-110.391	-8191	255	
847.358	1	1	0	0	0.16312	0.18811	0.13489	0.18756	0.19306	0.11853	0.22443	0.47849	0.038365	0.29981	0.11294	0.098778	0.20879	0.048697	0.21436	0.089645	-2.4042	-3.325	-2.9208	-3.05	-3.1854	-2.8729	-3.3625	-3.175	-3.0167	-3.2854	-3.1	-3.1521	-3.225	-2.9813	-3.2562	-3.2771	196.283	13.150	-3.381	192.022	129.563	14.784	153.038	169.193	36.634	169.934	-6.055	66.253	212.050	-28.153	-123.482	116.939	0.00018372	0.00030627	8.0739e-05	1170.1	1.2963e-06	2.8973e-06	1224.7	244.74	2.6034e-06	3.4838e-06	303.99	83.587	67.354	19.493	1.6167e-06	27.083	0.00020374	0.00014593	3.7335e-05	1148.5	1.9173e-06	1.6612e-06	1204.2	242.63	1.9409e-06	1.6559e-06	301.3	84.713	67.102	19.703	1.4484e-06	27.561	-83.801	-40.835	-30.168	-130.638	-14.466	24.926	-130.516	-123.270	-6.736	0.050	-123.851	-117.715	-116.912	-110.065	-19.235	-110.339	-8191	255	
847.479	1	1	0	0	0.34071	0.17317	0.066782	0.27936	0.043803	0.063047	0.2029	0.14468	0.1205	0.18259	0.31864	0.1891	0.046211	0.17649	0.10532	0.17411	-2.4458	-3.0333	-2.9417	-3.1792	-3.2583	-2.9979	-3.4917	-3.2167	-3	-3.1854	-3.0104	-2.975	-3.4083	-3.0479	-3.2271	-3.3	13.051	-19.877	-87.168	185.252	-138.872	24.335	163.108	129.806	-0.543	-31.294	157.555	-38.564	2.059	89.421	54.013	95.128	0.00019623	0.00023808	0.00010969	1170.5	2.5851e-06	3.8619e-06	1220.5	245.33	2.5457e-06	3.3976e-06	304.13	83.752	67.533	19.705	2.8131e-06	27.203	0.00019267	0.00013059	4.1639e-05	1148.3	1.9237e-06	1.6178e-06	1205.3	242.79	1.9017e-06	1.3783e-06	301.28	84.436	67.251	19.743	1.5849e-06	27.607	-84.109	-50.704	-47.123	-130.575	-13.752	-0.408	-130.317	-123.341	-11.476	7.007	-123.831	-118.008	-117.237	-110.008	6.793	-110.484	-8191	255	
847.575	1	1	0	0	0.26728	0.094464	0.31851	0.035051	0.27246	0.28264	0.055278	0.16508	0.17887	0.18967	0.19983	0.15078	0.22905	0.044208	0.12425	0.29931	-2.3833	-3.0979	-2.9813	-3.175	-3.175	-2.9479	-3.4771	-3.1562	-2.9396	-3.2958	-3.1396	-2.9521	-3.4542	-2.9062	-3.2	-3.2708	-74.038	96.265	13.272	126.317	-0.107	-140.020	213.147	158.590	127.541	-31.038	189.650	52.068	43.087	-138.171	-57.376	135.152	0.00020889	0.00034807	7.3218e-05	1166.1	2.7113e-06	3.2692e-06	1219.1	245.27	2.0665e-06	3.1382e-06	304.23	81.857	67.692	19.516	1.8517e-06	27.355	0.00019308	0.00013176	3.877e-05	1147.6	2.003e-06	1.4683e-06	1203.2	242.78	2.0121e-06	1.3254e-06	301.21	84.252	67.145	19.667	1.6412e-06	27.629	-86.320	-44.628	-71.091	-130.523	4.750	17.526	-130.281	-123.361	8.201	-4.011	-123.792	-116.572	-116.996	-109.625	26.470	-110.175	-8191	255	
847.669	1	1	0	0	0.18917	0.26826	0.19338	0.23056	0.11095	0.22548	0.10058	0.060261	0.08482	0.090213	0.14912	0.075658	0.13872	0.19715	0.10643	0.14371	-2.4375	-3.1208	-3.1229	-3.1771	-3.2708	-2.8083	-3.1583	-3.3	-2.8458	-3.2771	-3.2021	-2.9813	-3.3625	-3.0792	-2.9417	-3.2729	24.731	85.368	33.095	-104.529	214.814	-44.230	124.758	214.718	65.698	27.491	156.495	-112.794	116.687	194.821	99.422	89.576	0.00018535	0.0004366	9.9333e-05	1165.2	3.1127e-06	3.5575e-06	1214.7	244.55	2.2292e-06	2.4668e-06	301.58	81.196	67.342	19.436	2.5312e-06	27.418	0.00020506	0.00014408	4.3603e-05	1143.7	1.7983e-06	1.5262e-06	1198.2	241.92	2.0899e-06	1.3797e-06	299.95	83.621	66.838	19.604	1.5686e-06	27.575	-82.964	-45.103	-58.510	-130.389	12.436	11.598	-130.375	-123.600	-6.437	-26.549	-124.008	-118.381	-117.245	-109.796	-12.772	-110.475	-8191	255	
847.743	1	1	0	0	0.39901	0.14189	0.26037	0.054501	0.097884	0.06924	0.10465	0.1099	0.18011	0.12124	0.14704	0.082498	0.11433	0.069879	0.18847	0.20073	-2.3563	-3.0021	-3.0458	-2.9625	-3.4229	-3.0604	-3.2792	-3.4021	-2.8896	-3.0792	-3.2333	-2.8458	-3.2875	-3.1167	-2.9854	-3.3958	-0.246	72.353	-51.585	-38.590	65.367	112.038	-130.884	199.297	-4.325	46.186	95.358	-74.362	99.583	-112.027	-84.637	69.755	0.00019001	0.00029911	7.872e-05	1157.7	2.4308e-06	3.3265e-06	1216.9	243.6	2.2065e-06	3.2254e-06	303.11	82.628	67.028	19.54	3.1518e-06	27.075	0.00020025	0.00013071	3.7369e-05	1138.6	1.9663e-06	1.5723e-06	1196.7	241.48	1.9819e-06	1.3756e-06	300.14	83.712	66.802	19.572	1.6062e-06	27.454	-84.436	-56.129	-30.756	-130.516	-7.034	14.166	-130.364	-123.507	4.455	17.367	-123.584	-117.453	-117.273	-110.226	2.675	-110.475	-8191	255	
847.862	1	1	0	0	0.11476	0.26897	0.065575	0.032868	0.17338	0.04197	0.37734	0.22024	0.1064	0.1791	0.20422	0.11949	0.18203	0.096666	0.077729	0.18811	-2.5375	-3.1396	-3.0271	-3.0583	-3.2792	-3.1188	-3.1292	-3.4896	-2.9104	-3.2208	-3.3271	-2.775	-3.3042	-3.0271	-2.8063	-3.2313	-23.353	41.574	-28.683	-121.306	-32.562	11.809	146.503	215.666	21.263	-20.511	176.739	57.597	43.888	206.941	189.057	7.945	0.00018588	0.00017247	5.2506e-05	1157.5	3.8789e-06	2.6168e-06	1212.9	242.91	2.4455e-06	2.3477e-06	302.73	82.686	66.993	19.373	1.5237e-06	27.2	0.00018777	0.00013768	3.8701e-05	1137.6	1.8963e-06	1.4242e-06	1192.9	241.07	1.8151e-06	1.5838e-06	299.5	83.801	66.822	19.513	1.67e-06	27.439	-83.181	-70.268	-25.585	-130.417	8.018	8.384	-130.351	-123.364	-3.752	25.905	-123.690	-116.944	-117.180	-109.948	43.188	-110.486	-8191	255	
847.958	1	1	0	0	0.15378	0.36755	0.22546	0.12555	0.13026	0.10273	0.32966	0.21626	0.17461	0.12255	0.083561	0.14405	0.028439	0.23413	0.11351	0.19427	-2.4771	-3.0604	-3.3812	-2.9562	-3.2062	-3.1396	-3.0187	-3.275	-2.9688	-3.1771	-3.5187	-2.7042	-3.3187	-3.1	-2.8875	-3.2833	-58.638	212.239	16.850	-88.868	58.992	-120.705	199.936	157.578	-14.945	198.627	170.968	182.384	-125.734	205.291	-31.566	76.413	0.00020783	0.00030037	0.00011764	1156.9	2.2401e-06	3.6388e-06	1210.5	243.8	2.0376e-06	2.3067e-06	302.41	81.514	66.985	19.565	3.5022e-06	27.226	0.0002036	0.000137	3.8752e-05	1137.5	1.9027e-06	1.4022e-06	1194.3	241.27	1.8899e-06	1.5542e-06	299.29	84.07	66.75	19.626	1.6826e-06	27.443	-83.784	-41.594	-34.770	-130.468	-6.330	37.274	-130.207	-123.569	-1.315	-2.009	-123.855	-116.557	-117.171	-110.338	11.264	-110.128	-8191	255	
848.054	1	1	0	0	0.072045	0.28829	0.11961	0.15949	0.19672	0.05289	0.34527	0.31408	0.17519	0.11918	0.042711	0.15974	0.16702	0.13146	0.12907	0.34511	-2.6417	-3.0458	-3.3625	-3.1229	-3.3083	-3.2417	-2.9958	-3.2417	-3.0417	-3.0896	-3.3042	-2.8438	-3.3812	-3.3979	-3.05	-3.4583	142.832	-2.359	76.189	216.397	19.312	87.218	62.669	178.741	112.339	48.789	-17.982	-61.382	-103.825	-3.820	138.594	-47.810	0.00017907	0.0003417	7.4589e-05	1156.2	3.2108e-06	4.4293e-06	1213.5	243.94	2.8363e-06	1.9753e-06	302.71	82.947	67.089	19.437	1.835e-06	27.177	0.00019673	0.00014297	3.4004e-05	1136.5	1.9459e-06	1.2933e-06	1194.9	241.18	1.824e-06	1.5075e-06	299.67	84.593	66.919	19.594	1.5392e-06	27.481	-88.047	-41.423	-18.706	-130.646	-0.914	13.422	-130.407	-123.696	-5.724	9.107	-123.525	-117.027	-116.578	-110.172	10.435	-109.891	-8191	255	
848.150	1	1	0	0	0.12413	0.20715	0.11025	0.24668	0.27404	0.06327	0.11959	0.17487	0.26262	0.27001	0.050835	0.43747	0.17535	0.205	0.43051	0.093424	-2.5729	-3.0125	-3.2229	-3.075	-3.0125	-3.1813	-3.1479	-3.1792	-3.1042	-2.7896	-3.4104	-2.7938	-3.0771	-3.4542	-2.8146	-3.2958	22.196	-63.282	-77.541	204.555	206.175	-88.159	173.387	-54.426	133.979	-4.600	96.581	-43.889	129.495	-117.538	-82.442	-73.351	0.00018118	0.00031411	9.0165e-05	1156.6	2.2235e-06	3.5275e-06	1212.6	243.64	2.3205e-06	2.245e-06	301.76	81.989	67.293	19.48	2.4632e-06	27.325	0.00018869	0.00014125	3.2587e-05	1136.2	1.9622e-06	1.4249e-06	1193.3	241.13	1.6608e-06	1.5096e-06	299.49	84.301	66.876	19.623	1.742e-06	27.6	-80.212	-44.796	-24.977	-130.647	-22.635	-0.569	-130.375	-123.643	6.203	5.867	-123.781	-117.102	-117.109	-110.157	37.295	-110.306	-8191	255	
848.271	1	1	0	0	0.024624	0.099346	0.076678	0.17619	0.19075	0.11235	0.097409	0.12803	0.21859	0.17437	0.14322	0.063976	0.2107	0.12272	0.16962	0.070642	-2.6208	-2.8333	-3.2521	-3.1833	-3.0042	-3.1708	-2.9208	-3.3833	-3.0625	-3.0208	-3.3792	-2.9479	-2.9521	-3.3167	-2.9958	-3.2417	-129.094	156.354	117.518	142.329	-22.013	-136.946	67.043	145.071	98.210	201.591	13.109	90.854	182.181	-51.542	39.554	20.202	0.00018598	0.00018404	0.00010575	1156.9	2.837e-06	2.1578e-06	1212.8	244.46	2.8757e-06	2.8584e-06	301.46	83.895	66.886	19.614	3.4e-06	27.403	0.00018541	0.00014057	3.5883e-05	1137.5	1.9453e-06	1.3098e-06	1194.6	242.08	1.7183e-06	1.5213e-06	299.6	84.519	66.992	19.671	1.65e-06	27.574	-83.417	-25.119	-44.258	-130.513	18.125	-21.936	-130.283	-123.302	11.726	5.822	-123.771	-116.551	-116.885	-110.096	15.176	-110.108	-8191	255	
848.342	1	1	0	0	0.28563	0.11978	0.12509	0.10609	0.079339	0.12477	0.11401	0.25402	0.22827	0.046345	0.13088	0.1536	0.20784	0.053818	0.32436	0.12094	-2.7875	-2.7438	-3.2729	-3.0812	-3.2042	-3.3479	-2.9625	-2.9313	-3.1667	-2.8917	-3.2729	-2.9729	-3.2188	-3.3438	-2.9521	-3.1417	-27.762	140.398	145.006	14.306	-104.310	-27.163	162.811	160.632	-48.029	14.766	-138.605	205.691	25.660	97.376	-21.213	33.291	0.00019112	0.00027379	0.00010478	1159	2.5997e-06	4.0802e-06	1211.2	243.25	2.4338e-06	2.9434e-06	301.71	82.762	66.764	19.413	2.1633e-06	27.484	0.00018299	0.00012092	3.6993e-05	1137.3	1.8403e-06	1.2809e-06	1193.1	241.51	1.7071e-06	1.3316e-06	299.41	84.022	66.816	19.619	1.4941e-06	27.626	-82.382	-66.882	-32.908	-130.429	2.563	5.158	-130.542	-123.750	4.257	-0.527	-123.765	-118.505	-117.169	-110.122	3.748	-110.815	-8191	255	
848.438	1	1	0	0	0.051241	0.38344	0.22889	0.14045	0.053162	0.17339	0.24549	0.017373	0.039469	0.26548	0.15349	0.090268	0.11567	0.092412	0.23159	0.13686	-2.9271	-2.7979	-3.2021	-3.3042	-3.0521	-3.3104	-3.1083	-3.1458	-3.4583	-3.0792	-3.5375	-3.1813	-2.9854	-3.3104	-3.0042	-3.1312	109.464	3.563	194.084	63.506	-112.992	-121.580	161.111	-118.298	208.189	-55.834	-132.530	14.654	60.445	158.422	72.360	145.038	0.00019901	0.00029867	0.00010763	1153.6	2.0907e-06	3.7741e-06	1209.5	244.08	3.0323e-06	2.6811e-06	303.17	83.377	66.66	19.5	1.7902e-06	27.322	0.00018589	0.000137	3.6327e-05	1137.5	1.9809e-06	1.2836e-06	1192.1	241.36	1.7801e-06	1.3756e-06	299.68	84.409	66.686	19.552	1.5974e-06	27.567	-84.062	-44.498	-41.249	-130.309	10.279	22.195	-130.315	-123.593	8.693	12.019	-123.696	-117.293	-116.923	-110.078	-8.380	-110.552	-8191	255	
848.559	1	1	0	0	0.12785	0.1498	0.2884	0.30086	0.13987	0.27518	0.16322	0.25809	0.051771	0.10771	0.1974	0.12534	0.28274	0.062095	0.41759	0.2397	-2.5271	-2.6792	-3.325	-3.3375	-2.9521	-3.1375	-3.0208	-2.9625	-3.3083	-2.8479	-3.2979	-3.0479	-2.925	-3.3208	-2.9958	-3.1083	92.606	-10.319	-3.361	162.096	94.607	-17.987	141.484	-137.280	63.643	-23.688	29.608	173.103	-86.944	-115.263	-15.709	203.417	0.00018612	0.0002863	8.7305e-05	1157	2.6984e-06	2.8533e-06	1207.2	242.74	2.2914e-06	2.9254e-06	301.38	81.662	66.937	19.396	2.3785e-06	27.315	0.00018186	0.00015295	3.4961e-05	1136.2	1.8724e-06	1.2292e-06	1190.5	240.47	1.7818e-06	1.5494e-06	298.75	83.709	66.666	19.578	1.6613e-06	27.553	-88.176	-49.188	-1.432	-130.625	-20.570	-3.909	-130.469	-123.413	6.851	-4.244	-123.624	-116.401	-117.021	-110.422	11.593	-110.179	-8191	255	
848.653	1	1	0	0	0.1664	0.21131	0.27694	0.25407	0.2089	0.22816	0.24789	0.01436	0.040191	0.1893	0.14245	0.21437	0.18072	0.1306	0.21397	0.16358	-2.8479	-2.9021	-3.2146	-3.2958	-2.825	-3.2604	-3.0938	-3.0125	-3.5062	-2.9125	-3.1854	-3.1708	-2.8583	-3.1354	-3.0604	-3.0125	188.151	10.338	-80.192	-108.797	-81.083	47.860	64.982	-99.086	-95.223	-112.272	-25.018	37.018	-13.588	164.861	128.120	-34.443	0.00019039	0.00030372	6.9831e-05	1149.7	1.8861e-06	3.9452e-06	1205.9	242.26	2.237e-06	1.9308e-06	300.22	81.742	66.43	19.315	2.8847e-06	27.234	0.00018789	0.00014168	3.3492e-05	1130.4	2.055e-06	1.3711e-06	1186.2	239.95	1.5118e-06	1.4622e-06	297.65	83.433	66.199	19.474	1.4628e-06	27.392	-84.829	-50.707	-44.256	-130.498	-10.422	-10.728	-130.648	-123.572	-14.759	22.620	-123.899	-116.920	-116.819	-110.057	47.295	-110.162	-8191	255	
848.750	1	1	0	0	0.23111	0.16165	0.1481	0.069207	0.094401	0.060169	0.31661	0.32155	0.15633	0.16353	0.21986	0.19935	0.072878	0.14175	0.22966	0.29828	-2.9229	-3.0417	-3.05	-3.3667	-2.8771	-3.3854	-3.1708	-3.075	-3.2729	-3.0396	-3.3875	-3.3729	-3.0229	-3.35	-3.1292	-3.1271	-71.805	136.897	68.907	100.583	-131.864	191.826	116.264	210.003	-74.818	-130.641	76.317	115.534	-67.967	176.031	62.986	59.306	0.0001907	0.00040257	9.8187e-05	1149.4	1.1104e-06	3.214e-06	1203.8	240.8	3.3963e-06	1.0718e-06	299.54	81.885	66.294	19.273	3.2994e-06	27.038	0.00018651	0.00014753	3.6208e-05	1126.9	2.0812e-06	1.4028e-06	1182.8	238.62	1.7706e-06	1.2773e-06	296.77	83.498	66.157	19.386	1.6362e-06	27.21	-81.988	-48.226	-53.152	-130.523	10.759	11.049	-130.272	-123.122	2.088	8.606	-123.722	-117.096	-116.993	-110.172	18.627	-110.034	-8191	255	
848.847	1	1	0	0	0.10371	0.099499	0.14906	0.26746	0.21042	0.17638	0.14339	0.14159	0.096003	0.23639	0.17633	0.10247	0.16546	0.21969	0.23952	0.1211	-2.9437	-2.9792	-3.0563	-3.4229	-2.7333	-3.2417	-3.4354	-2.8396	-3.2854	-3.2792	-2.9625	-3.2313	-2.9167	-3.2667	-3.2229	-2.8812	134.530	217.038	-71.877	184.095	64.029	122.930	150.520	160.814	80.990	210.557	144.858	60.132	205.575	123.402	-129.806	138.665	0.00018961	0.0002954	7.7542e-05	1149	1.9411e-06	3.5912e-06	1205.8	241.1	2.8707e-06	2.3535e-06	298.34	80.976	66.447	19.195	1.8945e-06	27.072	0.00018066	0.00014408	3.3936e-05	1128	1.9167e-06	1.2437e-06	1181.9	238.45	1.6982e-06	1.2684e-06	296.47	82.856	66.112	19.322	1.33e-06	27.299	-84.226	-56.626	-50.333	-130.424	-21.375	14.020	-130.365	-123.459	15.163	-2.884	-123.654	-116.719	-117.113	-109.701	15.314	-110.530	-8191	255	
848.942	1	1	0	0	0.18266	0.11736	0.14049	0.14291	0.12363	0.1705	0.12477	0.39207	0.14015	0.22368	0.13233	0.11804	0.24177	0.1213	0.015319	0.084186	-2.8729	-3.0229	-2.8563	-3.5979	-2.925	-3.2167	-3.5167	-2.8875	-3.2292	-3.2271	-3.0375	-3.3854	-2.8208	-3.1292	-3.3479	-2.8875	-100.043	109.985	63.848	72.935	115.694	-59.529	162.127	170.148	166.294	72.820	134.289	28.383	191.110	-51.581	126.551	-39.936	0.00017354	0.00031173	9.6165e-05	1139.8	1.2811e-06	3.4649e-06	1195.1	239.75	2.693e-06	1.7059e-06	296.64	81.45	65.762	19.236	2.3409e-06	27.116	0.00017759	0.00012554	3.4739e-05	1120.2	1.8286e-06	1.1755e-06	1177.1	237.5	1.5094e-06	9.7707e-07	294.92	82.709	65.739	19.318	1.2868e-06	27.223	-81.799	-62.121	-46.287	-130.476	-36.678	3.932	-130.067	-123.386	13.827	22.225	-123.685	-116.705	-117.091	-109.643	9.305	-110.571	-8191	255	
849.038	1	1	0	0	0.34076	0.052556	0.1326	0.1571	0.29709	0.072874	0.21408	0.11702	0.16914	0.14032	0.072401	0.10933	0.16354	0.057342	0.29549	0.33424	-2.8729	-3.0458	-2.8646	-3.4604	-2.9958	-3.0146	-3.4875	-2.9479	-3.2083	-3.3458	-3.0229	-3.5417	-2.9437	-3.2271	-3.3063	-3.0583	-92.887	-91.200	14.846	192.316	178.803	104.758	45.715	3.841	-101.362	106.206	159.788	11.913	79.755	129.887	2.146	25.192	0.00018003	0.00029397	9.1895e-05	1129	2.4242e-06	2.5999e-06	1179.3	238.87	3.4372e-06	2.5652e-06	296.13	80.707	65.54	19.017	2.43e-06	26.948	0.00018039	0.00012129	3.2536e-05	1110.7	1.7662e-06	1.1128e-06	1163	236.18	1.5207e-06	1.0362e-06	293.3	82.441	65.433	19.168	1.2524e-06	27.126	-85.372	-49.756	-22.278	-130.492	5.261	10.211	-130.224	-123.430	1.116	17.113	-123.792	-117.204	-116.925	-109.651	27.017	-110.102	-8191	255	
849.159	1	1	0	0	0.12487	0.25112	0.16854	0.45389	0.18199	0.09202	0.2202	0.14448	0.038017	0.073064	0.19215	0.12359	0.23693	0.1297	0.11862	0.16338	-2.6937	-3.1271	-2.7458	-3.5083	-3.2021	-3.1	-3.4521	-3.0208	-3.3688	-3.2396	-3.05	-3.2625	-3.1521	-3.1333	-3.2687	-3.0187	-30.844	171.543	39.928	187.891	108.811	-80.058	187.374	143.061	-4.823	20.976	148.277	56.175	157.585	42.542	181.477	-45.704	0.00018908	0.00042659	9.7405e-05	1115.5	2.9691e-06	3.1713e-06	1175.1	236.29	2.0316e-06	2.3307e-06	294.93	80.508	65.038	18.898	2.3733e-06	26.712	0.00018129	0.00012203	3.0128e-05	1097.8	1.7306e-06	1.1837e-06	1154.1	234.23	1.5426e-06	1.1337e-06	291.64	82.039	65.109	19.075	1.2342e-06	26.911	-82.082	-48.209	-58.802	-130.368	-0.467	13.633	-130.148	-123.536	-4.134	38.712	-123.589	-116.240	-116.533	-110.066	41.263	-110.366	-8191	255	
849.255	1	1	0	0	0.19976	0.1807	0.28045	0.19423	0.11204	0.052506	0.35267	0.13965	0.063921	0.13301	0.2403	0.17475	0.17258	0.204	0.076141	0.26919	-2.8896	-3.3021	-2.8063	-3.3854	-3.0625	-2.8271	-3.475	-2.9896	-3.2188	-3.3146	-2.9375	-3.2292	-3.1521	-2.9729	-3.3875	-3.0667	46.208	107.938	180.417	-104.912	27.301	67.064	116.318	-96.045	159.262	170.536	171.927	152.386	111.779	4.057	-11.014	143.392	0.00018791	0.00032714	0.00011821	1117.2	1.5391e-06	3.6505e-06	1171.3	236.52	2.7688e-06	2.7229e-06	293.61	79.577	65.415	18.877	2.0435e-06	26.45	0.00018323	0.00010983	3.438e-05	1097	1.8035e-06	1.3691e-06	1152.6	233.73	1.6602e-06	1.1873e-06	290.54	81.834	64.981	19.047	1.5579e-06	26.8	-82.035	-48.680	-38.668	-130.488	-14.835	35.965	-130.111	-123.393	7.969	17.108	-123.490	-117.219	-116.823	-109.877	25.027	-110.383	-8191	255	
849.351	1	1	0	0	0.12565	0.049794	0.22344	0.13233	0.31818	0.38479	0.074956	0.13477	0.30613	0.1042	0.15636	0.062459	0.11033	0.22281	0.18052	0.18609	-2.6688	-3.1167	-2.8292	-3.3833	-3.1167	-3.0187	-3.4875	-3.0187	-2.8917	-3.3812	-3.025	-3.2062	-3.2208	-2.8729	-3.4354	-3.1167	204.064	-34.793	174.197	58.213	166.509	-136.856	171.334	177.629	-19.810	121.807	120.495	180.146	112.183	131.750	130.540	156.456	0.00016527	0.00029032	8.5159e-05	1114.1	8.2517e-07	3.3259e-06	1168	235.14	1.3916e-06	2.5455e-06	292.88	80.837	65.248	18.884	2.0309e-06	26.637	0.00018705	0.00011156	3.6191e-05	1095.7	1.7382e-06	1.3987e-06	1150.7	233.07	1.8145e-06	1.032e-06	289.76	81.72	64.962	18.955	1.4145e-06	26.891	-82.765	-61.215	-44.883	-130.412	-1.022	15.319	-130.162	-123.685	-8.300	18.019	-123.743	-116.658	-116.884	-110.174	31.696	-110.180	-8191	255	
849.447	1	1	0	0	0.092141	0.26639	0.14257	0.2544	0.15412	0.14221	0.18498	0.10872	0.14164	0.18958	0.090061	0.079659	0.17325	0.22183	0.15921	0.25216	-2.4604	-3.3187	-2.8729	-3.1458	-3.2167	-2.8854	-3.3521	-3.125	-2.9104	-3.3875	-2.8208	-3.1958	-3.2938	-2.9542	-3.3438	-3.1896	162.331	108.462	82.362	186.204	-134.415	209.859	130.792	-128.765	34.605	61.007	200.235	45.481	39.697	218.680	38.962	-114.213	0.00017563	0.00029202	5.4442e-05	1115.9	1.9342e-06	3.7276e-06	1174.8	236.32	2.3354e-06	2.6714e-06	292.07	79.414	65.33	19.039	2.2266e-06	26.783	0.00017929	0.00012326	3.7147e-05	1096	1.7983e-06	1.4848e-06	1154.1	233.51	1.7088e-06	1.2004e-06	290.03	81.81	65.042	19.049	1.387e-06	26.946	-85.003	-46.845	-40.188	-130.341	5.420	-0.469	-130.169	-123.326	-4.324	6.372	-123.634	-117.527	-116.691	-109.817	33.325	-110.136	-8191	255	
849.568	1	1	0	0	0.052439	0.099912	0.058871	0.15176	0.098619	0.14835	0.20771	0.0092606	0.21353	0.17989	0.035608	0.062267	0.19851	0.17267	0.16039	0.16574	-2.4271	-3.3896	-2.8708	-3.3021	-3.3708	-2.9417	-3.3563	-3.3312	-2.9271	-3.3167	-3.2313	-3.1375	-3.3125	-2.9688	-3.3771	-3.3708	-140.332	112.260	161.376	209.776	-52.029	182.069	177.724	-70.988	-66.534	-92.473	78.409	-74.968	150.383	-123.029	-101.831	-83.321	0.00017445	0.0003046	7.5572e-05	1120.7	1.7461e-06	3.0748e-06	1170	234.93	2.8476e-06	3.0047e-06	293.19	79.664	65.165	18.948	1.9343e-06	26.503	0.00019347	0.00011815	3.6344e-05	1100	1.6028e-06	1.356e-06	1152.4	233.25	1.6881e-06	1.2334e-06	290.08	82.195	64.879	19.057	1.3688e-06	26.885	-86.047	-55.619	-43.360	-130.173	-9.128	4.525	-130.137	-123.204	0.563	-4.928	-123.648	-116.681	-117.151	-109.836	19.141	-110.329	-8191	255	
849.638	1	1	0	0	0.3934	0.098992	0.094803	0.25861	0.26437	0.15323	0.1819	0.030355	0.10382	0.065876	0.15878	0.19026	0.19921	0.17331	0.079192	0.29458	-2.3708	-3.4146	-3.0167	-3.3042	-3.2146	-2.8625	-3.3208	-3.1729	-2.9042	-3.2479	-3.1042	-2.8625	-3.4813	-3.0917	-3.2542	-3.3083	118.532	-134.722	-48.916	169.796	-3.223	140.302	162.551	112.570	168.930	10.490	168.124	-76.100	110.207	-83.955	5.293	-100.156	0.00018481	0.00026935	9.1721e-05	1117.6	2.3725e-06	3.1281e-06	1175.7	234.58	2.0655e-06	2.0483e-06	291.36	79.946	64.866	18.929	3.5728e-06	26.743	0.00018236	0.00010244	3.2211e-05	1097.6	1.6868e-06	1.3367e-06	1153.7	232.89	1.6685e-06	1.3021e-06	290.18	81.557	64.902	19.035	1.5348e-06	26.882	-84.309	-44.022	-35.598	-130.448	11.585	12.949	-130.304	-123.358	0.962	-7.194	-123.344	-117.739	-116.897	-110.170	43.227	-110.472	-8191	255	
849.736	1	1	0	0	0.14157	0.19696	0.23665	0.050833	0.12338	0.052097	0.060196	0.15034	0.2341	0.17151	0.15503	0.23785	0.1717	0.078935	0.06456	0.13656	-2.5167	-3.2938	-2.8792	-3.0104	-3.4188	-2.9667	-3.2354	-3.3625	-2.7521	-3.2833	-3.2729	-2.9917	-3.2729	-3.2167	-2.9917	-3.2896	-55.727	144.641	80.456	-99.359	89.751	64.387	26.589	205.803	65.043	-46.094	103.236	125.744	-112.981	179.181	180.738	40.127	0.00019637	0.00026003	7.4483e-05	1116.5	2.1345e-06	3.4727e-06	1174.8	235.03	2.1525e-06	2.1599e-06	292.31	79.483	65.58	19.017	2.3476e-06	26.674	0.00018735	0.00011599	3.4141e-05	1099.2	1.8268e-06	1.4042e-06	1155.5	233.32	1.7355e-06	1.1825e-06	290.12	82.005	65.019	19.092	1.3563e-06	26.895	-84.514	-40.375	-39.374	-130.311	-6.399	10.855	-130.341	-123.230	-21.003	18.813	-123.685	-117.561	-116.558	-110.052	17.205	-110.340	-8191	255	
849.830	1	1	0	0	0.08904	0.13642	0.16122	0.21346	0.13474	0.1693	0.17441	0.30441	0.18942	0.10403	0.31141	0.19994	0.13772	0.1184	0.023508	0.088414	-2.525	-3.1208	-3.175	-3.0042	-3.3917	-3.1021	-3.2604	-3.35	-2.8521	-3.2687	-3.4437	-2.8479	-3.3438	-3.0646	-3.0479	-3.2104	-36.422	83.331	-64.720	194.985	-37.987	9.516	201.637	194.892	105.510	-58.562	167.175	25.769	177.703	-70.182	-10.534	-16.569	0.00017293	0.00027401	7.3458e-05	1118.8	2.1307e-06	3.2713e-06	1171.8	235.71	3.4098e-06	2.5355e-06	291.38	79.87	65.249	19.016	2.379e-06	26.69	0.00018825	0.0001187	3.5337e-05	1101.8	1.8939e-06	1.3367e-06	1155.1	233.22	1.7094e-06	1.1543e-06	289.9	81.924	65.058	19.105	1.5204e-06	26.901	-84.974	-35.608	-51.987	-130.412	-14.346	19.907	-130.352	-123.313	-26.742	3.875	-123.583	-117.953	-116.956	-109.954	14.072	-110.411	-8191	255	
849.951	1	1	0	0	0.09012	0.095216	0.15471	0.15418	0.068671	0.43877	0.061503	0.10612	0.14558	0.19127	0.28419	0.083389	0.17518	0.21536	0.14596	0.12107	-2.45	-3.1125	-3.2188	-2.9833	-3.2062	-3.2354	-3.1896	-3.3083	-3.0542	-3.1437	-3.3063	-3.0667	-3.1708	-3.1188	-2.8625	-3.3354	-39.773	174.969	54.615	-116.096	138.357	127.324	80.459	-36.560	-68.422	85.589	171.388	19.829	-39.938	-29.861	156.998	23.688	0.00018665	0.00032624	8.9546e-05	1118.9	2.5912e-06	2.5749e-06	1172.5	235.84	1.7492e-06	3.4506e-06	292.52	80.412	65.188	18.93	1.7805e-06	26.548	0.00018254	0.00012536	3.2382e-05	1098.9	1.8648e-06	1.3519e-06	1153.8	233.45	1.6881e-06	1.2643e-06	290.24	81.541	64.936	19.075	1.5279e-06	26.86	-82.564	-44.474	-34.570	-130.441	7.129	7.369	-130.246	-123.520	-10.086	6.862	-123.519	-117.693	-116.993	-109.904	3.820	-110.096	-8191	255	
850.047	1	1	0	0	0.027762	0.070756	0.077312	0.080827	0.16442	0.33489	0.13987	0.23653	0.030806	0.13764	0.10719	0.17024	0.21912	0.14137	0.20378	0.083481	-2.6083	-3.0479	-3.1396	-3.05	-3.1	-3.2146	-3.1667	-3.2604	-2.9042	-3.1188	-3.2396	-2.9688	-3.2021	-3.175	-2.9813	-3.3354	-29.912	216.603	205.860	107.741	-135.627	-136.577	174.645	190.180	145.614	40.105	45.925	12.733	206.014	162.432	111.930	105.876	0.00017584	0.00031977	9.0409e-05	1120.8	2.2967e-06	3.4729e-06	1171	236.04	1.5449e-06	3.2562e-06	292.38	79.825	64.941	18.962	2.569e-06	26.779	0.00018744	0.00013139	3.298e-05	1098.7	1.7533e-06	1.2292e-06	1153.4	233.17	1.6026e-06	1.2801e-06	290.42	81.229	65.047	19.078	1.5072e-06	26.911	-85.544	-55.347	-50.484	-130.526	-33.332	7.781	-130.082	-123.374	-12.684	19.062	-123.530	-117.301	-116.622	-110.109	30.076	-110.335	-8191	255	
850.143	1	1	0	0	0.23833	0.18255	0.25764	0.15085	0.22426	0.05109	0.26946	0.20657	0.02687	0.17399	0.23901	0.17752	0.14208	0.050827	0.16288	0.032918	-2.5417	-3.0708	-3.15	-2.975	-3.1562	-3.2542	-3.05	-3.3854	-2.9562	-3.1333	-3.3	-2.8104	-3.075	-3.2208	-2.7875	-3.4208	-72.269	172.655	132.600	-138.431	194.086	53.838	140.281	99.006	-55.528	67.086	211.455	12.840	199.181	142.070	75.285	81.663	0.00017829	0.00024425	8.6426e-05	1120.8	3.1476e-06	3.4839e-06	1175	234.35	3.2299e-06	2.1882e-06	291.73	80.07	65.458	19.133	2.7157e-06	26.677	0.00018613	0.00012874	3.0503e-05	1098.3	1.7679e-06	1.285e-06	1154.3	233.29	1.7023e-06	1.2457e-06	290.09	81.933	65.047	19.113	1.4966e-06	26.979	-85.991	-44.542	-24.610	-130.413	3.104	1.673	-130.279	-123.594	-4.584	29.981	-123.500	-117.896	-116.908	-110.073	27.821	-110.269	-8191	255	
850.239	1	1	0	0	0.20737	0.033699	0.048389	0.14186	0.029286	0.15732	0.16171	0.26198	0.18877	0.074407	0.22074	0.087268	0.15691	0.086023	0.20349	0.29661	-2.6667	-3.0687	-3.2771	-3.0604	-3.1771	-3.2479	-3.125	-3.4188	-2.9896	-3.0354	-3.6	-2.8917	-3.2812	-3.3667	-2.8667	-3.2562	169.608	93.441	170.460	-109.184	111.999	207.291	-50.625	95.248	199.215	188.042	-103.054	216.756	72.504	157.538	97.056	162.548	0.00018491	0.00025604	0.00010085	1118.6	2.8052e-06	3.2441e-06	1167.6	235.01	2.1464e-06	3.4327e-06	293.69	79.725	65.091	18.923	2.5742e-06	26.717	0.00018278	0.00012523	3.298e-05	1097.9	1.8823e-06	1.3215e-06	1152.9	233.41	1.6424e-06	1.287e-06	290.48	81.406	64.819	19.071	1.5435e-06	26.937	-84.114	-53.844	-39.490	-130.299	14.750	9.749	-130.124	-123.308	14.958	12.184	-123.625	-118.159	-116.971	-110.039	31.875	-110.307	-8191	255	
850.335	1	1	0	0	0.13866	0.23825	0.14102	0.076508	0.20419	0.21282	0.046173	0.053071	0.1471	0.20452	0.20506	0.23484	0.11225	0.04011	0.1144	0.18654	-2.8458	-2.9917	-3.2625	-3.0458	-3.0708	-3.4729	-2.9833	-3.2792	-3.1813	-2.9396	-3.3958	-3.0271	-3.0125	-3.4188	-2.7438	-3.2208	-110.316	-21.862	11.018	-52.730	156.789	203.586	188.541	5.601	209.798	6.868	114.731	29.724	82.593	81.817	-19.633	172.512	0.0001887	0.00018193	0.00011954	1118.7	2.6174e-06	3.4534e-06	1174	235.39	2.4651e-06	3.3962e-06	293.58	79.135	65.413	18.949	2.9082e-06	26.786	0.0001766	0.00012	2.7754e-05	1099.4	1.8589e-06	1.1638e-06	1155.6	233.35	1.5699e-06	1.3289e-06	290.71	81.466	65.015	19.118	1.5085e-06	26.903	-81.944	-44.161	-41.510	-130.470	8.398	23.729	-130.270	-123.320	-3.678	22.368	-123.574	-117.049	-116.837	-110.198	20.574	-110.136	-8191	255	
850.431	1	1	0	0	0.078627	0.16791	0.10773	0.38435	0.086589	0.20583	0.13518	0.051592	0.24207	0.14823	0.26006	0.19154	0.26564	0.17553	0.044227	0.066826	-2.7687	-2.8708	-3.3125	-3.1396	-2.9896	-3.4292	-2.9167	-3.2208	-3.0667	-2.8187	-3.5104	-2.9062	-2.9708	-3.3167	-2.8896	-3.3104	-51.105	-48.614	-127.307	178.685	-62.811	-16.141	-47.834	191.813	-33.590	40.671	180.687	126.430	74.217	-138.630	168.993	180.417	0.00018318	0.000306	7.5332e-05	1118.9	2.1515e-06	3.0448e-06	1171.6	235.26	2.013e-06	2.3263e-06	294.04	79.551	65.336	19.037	2.9846e-06	26.897	0.00018631	0.00011106	2.9086e-05	1097.4	1.9015e-06	1.17e-06	1153.8	233.75	1.5058e-06	1.4237e-06	291.02	81.808	65.353	19.157	1.5104e-06	27.104	-82.816	-49.601	-25.703	-130.570	2.698	-0.719	-130.186	-123.087	-4.854	13.220	-123.756	-117.912	-116.440	-109.989	26.868	-110.207	-8191	255	
850.527	1	1	0	0	0.22131	0.1008	0.18532	0.38068	0.12542	0.12643	0.24176	0.11363	0.07592	0.35628	0.2928	0.12173	0.17817	0.090777	0.18619	0.17558	-2.725	-2.8833	-3.3375	-3.2313	-3.1396	-3.3979	-3.1771	-3.3187	-3.2667	-3.0563	-3.3604	-3.1542	-3.0896	-3.4208	-2.9229	-3.175	-30.067	-69.586	-71.164	174.954	-138.044	-137.681	184.346	88.965	-99.350	18.788	-121.075	-20.881	70.737	142.182	65.336	154.696	0.00019466	0.00032669	7.7313e-05	1120	2.908e-06	2.8426e-06	1173.5	236.3	2.8795e-06	2.7283e-06	294.51	80.805	65.998	19.168	3.6111e-06	26.977	0.00018422	0.00012794	3.1152e-05	1099	1.985e-06	1.088e-06	1153.6	233.98	1.3931e-06	1.3653e-06	291.42	82.197	65.476	19.265	1.3075e-06	27.154	-84.817	-44.975	-48.613	-130.359	2.904	24.202	-130.267	-123.262	10.513	-2.119	-123.547	-117.843	-116.725	-109.898	35.117	-110.415	-8191	255	
850.648	1	1	0	0	0.11599	0.12387	0.079	0.083559	0.04642	0.15625	0.11646	0.068221	0.22076	0.07023	0.1504	0.2128	0.078538	0.1376	0.083722	0.11317	-2.8021	-3.0146	-3.1542	-3.4167	-2.9167	-3.3646	-3.1292	-3.1292	-3.4354	-2.8833	-3.4146	-3.0896	-2.8396	-3.3479	-3.1604	-2.9896	197.643	-40.452	-73.939	152.192	164.763	-21.459	152.466	191.540	-32.642	-108.467	191.237	-25.408	-109.863	78.780	160.183	-108.960	0.00017539	0.00031388	9.5531e-05	1122.3	1.8348e-06	3.0513e-06	1177.6	237.66	2.5616e-06	2.9005e-06	295.91	79.927	65.993	19.269	2.5487e-06	27.18	0.0001729	0.00012893	2.9342e-05	1101.5	1.786e-06	9.2535e-07	1159	236.07	1.3729e-06	1.3948e-06	293.64	82.08	65.778	19.413	1.2962e-06	27.325	-82.100	-63.054	-51.051	-130.412	-10.286	1.075	-130.198	-123.442	-5.677	-6.418	-123.647	-116.835	-116.999	-109.595	17.221	-110.282	-8191	255	
850.743	1	1	0	0	0.3028	0.2232	0.097549	0.27551	0.077708	0.098692	0.23836	0.18833	0.21269	0.20575	0.02442	0.29392	0.098356	0.091164	0.27006	0.13793	-3.0062	-2.8125	-2.9958	-3.3042	-2.9125	-3.3104	-3.2458	-2.9208	-3.2938	-2.9938	-3.2104	-3.2562	-2.7625	-3.3146	-3.0896	-3.0792	-88.100	-131.660	146.998	147.549	-68.574	-28.163	141.299	188.884	163.263	92.628	-37.482	45.810	87.887	136.144	-94.324	-35.151	0.00018893	0.00040099	8.2788e-05	1130.2	2.3593e-06	4.1292e-06	1182.2	238.61	2.3369e-06	3.8807e-06	297.68	81.081	65.906	19.339	1.5821e-06	26.862	0.00016991	0.0001256	3.1204e-05	1104.1	1.7107e-06	9.7358e-07	1161.8	236.37	1.3058e-06	1.2299e-06	294.53	82.778	65.971	19.476	1.2016e-06	27.246	-87.208	-50.223	-37.674	-130.552	-17.868	-9.956	-130.409	-123.559	-0.468	1.079	-123.693	-117.684	-116.945	-109.935	17.792	-110.039	-8191	255	
850.839	1	1	0	0	0.034348	0.038643	0.072786	0.18906	0.087646	0.1065	0.21091	0.23496	0.10244	0.026785	0.10983	0.12607	0.095316	0.1757	0.084128	0.084044	-2.8729	-2.975	-3.0896	-3.4625	-2.7479	-3.2896	-3.2188	-2.8521	-3.3854	-2.95	-3.3271	-3.3375	-2.6875	-3.2333	-3.1937	-3.05	43.758	35.203	-78.783	92.259	-84.139	127.653	156.188	184.114	212.969	-17.272	181.081	98.774	1.945	-43.549	58.143	-125.814	0.0001867	0.00030007	0.00011536	1119.4	3.4096e-06	2.4147e-06	1178.7	238.26	2.1011e-06	3.5749e-06	297.22	82.293	66.557	19.223	3.2945e-06	27.265	0.00017451	0.00011119	3.0486e-05	1102.6	1.7942e-06	1.0969e-06	1159.8	236.81	1.5023e-06	1.2883e-06	294.9	83.389	66.103	19.421	1.1835e-06	27.38	-85.597	-72.494	-34.803	-130.441	15.934	8.280	-130.369	-123.065	16.312	7.543	-123.354	-116.283	-116.868	-109.991	8.045	-110.532	-8191	255	
850.935	1	1	0	0	0.081018	0.060029	0.10289	0.1605	0.14541	0.15118	0.32972	0.14798	0.11933	0.090627	0.17881	0.2399	0.20714	0.22848	0.18705	0.16465	-2.9208	-3.2146	-2.9417	-3.4771	-2.8229	-3.2958	-3.3312	-2.9042	-3.3729	-3.2042	-3.0042	-3.3333	-2.9521	-3.1188	-3.4167	-2.9604	1.396	-57.641	-135.356	103.496	-56.181	-101.105	180.217	52.145	14.291	148.541	137.037	-4.409	14.559	-76.723	117.279	-109.541	0.00018046	0.00037385	7.8632e-05	1124	3.2107e-06	4.213e-06	1187	238.74	2.2148e-06	2.8806e-06	297.21	82.419	66.252	19.243	2.1198e-06	27.091	0.00017788	0.0001147	2.9803e-05	1103.1	1.604e-06	1.0363e-06	1162.7	237.6	1.4744e-06	1.1083e-06	295.1	83.403	65.885	19.448	1.2643e-06	27.394	-83.293	-64.362	-51.908	-130.392	-9.185	21.997	-130.154	-123.249	6.427	-19.459	-123.604	-117.766	-116.651	-110.021	27.195	-110.431	-8191	255	
851.031	1	1	0	0	0.16339	0.12687	0.1221	0.13871	0.10311	0.057018	0.10764	0.2371	0.023199	0.11181	0.040437	0.22676	0.16034	0.046135	0.19528	0.13521	-2.7875	-3.1125	-2.875	-3.2771	-2.9021	-3.1813	-3.3063	-3.0354	-3.3	-3.0708	-2.9896	-3.3896	-2.9333	-3.0854	-3.2125	-2.7292	118.550	-9.994	163.557	199.259	168.402	-128.371	-108.585	150.648	-119.165	47.751	-127.236	-43.295	-136.998	17.814	-63.446	167.508	0.00018528	0.0003235	9.6121e-05	1122.4	3.1466e-06	2.2719e-06	1180.4	239.78	2.6311e-06	3.8359e-06	297.27	80.71	66.431	19.321	2.835e-06	27.307	0.00017547	0.00010903	3.257e-05	1104.3	1.7475e-06	1.068e-06	1161.1	237.65	1.5254e-06	1.2148e-06	295.57	83.496	66.063	19.451	1.1973e-06	27.393	-80.279	-54.113	-40.284	-130.306	-9.589	13.299	-130.281	-123.380	3.639	11.534	-123.662	-117.881	-116.891	-110.041	25.686	-110.628	-8191	255	
851.127	1	1	0	0	0.19607	0.23297	0.19258	0.2457	0.18925	0.019083	0.20697	0.12131	0.19088	0.31573	0.113	0.058207	0.16214	0.3779	0.24345	0.16969	-2.9292	-3.1	-2.8958	-3.3979	-2.9833	-3.1063	-3.3646	-2.825	-3.3333	-3.2083	-3.0438	-3.3625	-2.9708	-3.1688	-3.4021	-3.1354	24.155	-20.528	44.241	189.688	167.038	-16.607	112.064	-63.261	-8.976	-20.958	-6.472	64.769	180.516	194.689	-77.879	209.863	0.00018687	0.00025048	8.8582e-05	1120.4	2.8881e-06	4.2676e-06	1178.7	239.75	3.1388e-06	2.5983e-06	297.67	80.46	66.341	19.293	3.0329e-06	26.98	0.00016899	9.6157e-05	3.0589e-05	1102.4	1.737e-06	1.3043e-06	1161	237.45	1.4002e-06	1.0355e-06	294.65	82.899	65.915	19.42	1.124e-06	27.263	-83.997	-45.887	-44.598	-130.390	9.489	32.500	-130.263	-123.569	4.590	11.387	-123.544	-117.713	-116.809	-109.999	16.657	-110.248	-8191	255	
851.248	1	1	0	0	0.2121	0.15348	0.040054	0.17625	0.19892	0.15293	0.17362	0.082155	0.094174	0.1461	0.030606	0.049435	0.081831	0.056206	0.16973	0.24071	-2.8563	-3.2562	-2.8896	-3.4646	-2.9917	-3.1375	-3.4354	-2.9083	-3.275	-3.2583	-2.9437	-3.4354	-3.0812	-2.9938	-3.3458	-2.9604	50.966	-103.384	178.854	179.428	-106.034	-115.897	127.617	142.090	40.383	150.975	69.374	78.940	214.873	54.043	45.128	47.428	0.00018527	0.00028909	0.00010448	1125.6	2.4619e-06	4.0278e-06	1180.1	240.02	2.6411e-06	1.741e-06	297.41	81.942	65.904	19.263	3.1982e-06	26.985	0.00018571	0.00010478	3.1699e-05	1103.5	1.7527e-06	9.9012e-07	1160.2	237.52	1.4423e-06	9.9631e-07	294.49	83.18	65.703	19.374	1.335e-06	27.225	-81.635	-48.189	-46.318	-130.328	33.470	10.187	-130.317	-123.239	-24.380	35.609	-123.772	-117.703	-116.841	-109.704	36.281	-110.336	-8191	255	
851.344	1	1	0	0	0.21723	0.20712	0.24678	0.033999	0.030749	0.32297	0.26064	0.13944	0.1981	0.049424	0.17233	0.11395	0.2356	0.10509	0.069319	0.16477	-2.6729	-3.3854	-2.8833	-3.5	-3.1	-2.9042	-3.2917	-3.1292	-3.1021	-3.4021	-2.8042	-3.2771	-3.2375	-2.8563	-3.3396	-3.1271	7.136	-49.934	187.828	33.543	75.697	-0.370	134.077	86.686	-67.058	-22.429	10.232	-83.721	-59.554	170.652	33.634	73.127	0.00019136	0.00036215	9.0362e-05	1119.3	2.0309e-06	2.7805e-06	1179.2	239.77	2.7657e-06	3.4542e-06	296.49	80.823	65.581	19.17	2.5671e-06	26.979	0.00017311	0.00011236	3.4568e-05	1098.8	1.7323e-06	1.07e-06	1157.9	237.44	1.5658e-06	1.1317e-06	294.38	82.36	65.479	19.289	1.1634e-06	27.195	-83.088	-44.872	-33.835	-130.465	-4.643	14.902	-130.226	-123.515	8.186	-3.255	-123.483	-118.054	-117.167	-110.187	7.095	-110.086	-8191	255	
851.440	1	1	0	0	0.14124	0.19695	0.24817	0.11901	0.29509	0.25154	0.29765	0.22776	0.098652	0.24149	0.20639	0.20897	0.095565	0.38558	0.12199	0.078479	-2.7313	-3.2146	-2.7375	-3.4271	-3.1021	-3.0229	-3.2687	-3.0125	-2.9375	-3.1375	-2.9708	-3.1521	-3.2104	-2.9125	-3.3375	-2.9458	127.447	50.633	141.223	170.618	45.195	148.763	162.115	137.742	-28.609	9.994	-45.917	12.687	139.682	196.145	76.896	209.529	0.00018827	0.00027896	7.4737e-05	1119.4	1.9162e-06	3.567e-06	1176.8	238.74	2.3314e-06	3.1185e-06	296.06	80.744	65.458	19.108	3.5524e-06	26.759	0.00017481	9.6835e-05	3.2536e-05	1100.3	1.6571e-06	1.2526e-06	1157.8	236.55	1.4714e-06	1.0973e-06	293.9	82.504	65.258	19.207	1.3582e-06	26.991	-84.669	-62.884	-13.868	-130.433	-13.763	14.785	-130.085	-123.238	3.868	2.363	-123.734	-117.694	-116.794	-109.974	-2.414	-110.510	-8191	255	
851.512	1	1	0	0	0.32489	0.253	0.13567	0.19051	0.19422	0.0096204	0.19854	0.13998	0.017308	0.18484	0.16274	0.20337	0.1098	0.061586	0.17356	0.080499	-2.5021	-3.1479	-2.8812	-3.1479	-3.1146	-2.9542	-3.4458	-3.0875	-2.9083	-3.3354	-3.1479	-3.1542	-3.2479	-2.7521	-3.3229	-3.2604	38.419	3.684	-119.958	179.890	-95.010	171.441	199.331	-106.690	72.757	51.487	-123.092	-10.006	164.939	-47.018	-89.679	198.292	0.00018475	0.00032743	8.9569e-05	1115	2.8076e-06	3.3837e-06	1175.3	238.18	3.88e-06	2.7977e-06	296.52	80.582	65.411	19.068	2.0949e-06	26.861	0.00017971	0.000107	3.4209e-05	1098.3	1.7358e-06	1.2175e-06	1156.7	235.61	1.7213e-06	1.0478e-06	293.62	81.627	65.245	19.155	1.2035e-06	26.979	-83.160	-49.093	-25.252	-130.265	16.594	-0.078	-130.274	-123.555	6.987	-1.374	-123.498	-117.887	-116.796	-110.142	19.106	-109.912	-8191	255	
851.632	1	1	0	0	0.097185	0.14233	0.12689	0.14229	0.21752	0.14326	0.15673	0.12444	0.12279	0.088433	0.25828	0.17776	0.17306	0.45141	0.058929	0.21897	-2.3917	-3.4208	-2.8958	-3.3208	-3.3292	-2.8896	-3.4333	-3.3271	-3.0292	-3.5354	-3.1479	-2.9708	-3.3292	-2.9625	-3.1146	-3.2042	-124.317	11.662	105.181	204.930	13.340	136.706	171.983	41.956	33.615	98.932	166.711	0.972	86.999	-136.807	27.276	109.268	0.00018999	0.00024535	7.6978e-05	1121.2	1.642e-06	3.2513e-06	1172.8	235.48	1.6804e-06	2.8274e-06	294.57	79.784	64.963	18.806	2.1891e-06	26.393	0.00018162	0.00011956	3.438e-05	1098.5	1.8047e-06	1.3994e-06	1154.2	234.12	1.7433e-06	1.1688e-06	291.44	81.633	64.814	18.965	1.4509e-06	26.782	-83.645	-54.213	-29.502	-130.473	-29.165	17.604	-130.549	-123.342	-15.681	-4.602	-123.438	-117.571	-116.551	-109.835	9.559	-110.099	-8191	255	
851.727	1	1	0	0	0.19282	0.1896	0.11168	0.059947	0.33146	0.19081	0.195	0.07184	0.11455	0.061047	0.1349	0.24344	0.062253	0.15487	0.16293	0.10362	-2.3563	-3.3083	-2.8375	-3.1292	-3.3396	-2.9229	-3.5625	-3.2938	-2.7542	-3.375	-2.9813	-2.8875	-3.2708	-2.8208	-3.1542	-3.2687	186.551	-83.922	192.450	-73.375	125.301	-133.460	131.280	-9.717	129.394	11.197	-51.096	3.336	139.360	-79.766	-107.432	166.173	0.00018749	0.00033934	0.00010139	1120.9	2.8856e-06	2.6678e-06	1175.3	236.09	2.1655e-06	2.8318e-06	294.67	79.582	65.009	18.983	2.5839e-06	26.636	0.00019016	0.0001309	3.7096e-05	1102.1	1.9657e-06	1.4456e-06	1155.4	234.07	1.919e-06	1.4532e-06	291.62	81.527	65.068	19.079	1.4866e-06	26.85	-80.599	-43.543	-45.734	-130.341	10.373	22.814	-130.376	-123.216	-7.009	4.100	-123.618	-116.637	-116.971	-110.120	8.087	-110.327	-8191	255	
851.823	1	1	0	0	0.090426	0.021486	0.25173	0.31187	0.045215	0.12505	0.36346	0.18623	0.23877	0.06951	0.15855	0.20291	0.030534	0.27114	0.11223	0.11888	-2.375	-3.2083	-3.0083	-3.1875	-3.3937	-2.9542	-3.3271	-3.0812	-2.9042	-3.3958	-3.0438	-2.8729	-3.3396	-3.0312	-3.2438	-3.2313	68.533	1.419	75.317	164.935	-108.135	-105.069	152.980	191.469	59.140	-0.030	103.547	114.588	-23.362	-132.603	127.171	190.888	0.00019025	0.0002714	9.5475e-05	1124.8	2.113e-06	3.0406e-06	1179.7	235.61	2.8206e-06	3.5412e-06	293.67	79.055	65.021	18.974	1.6975e-06	26.594	0.00019422	0.00012431	3.6686e-05	1106.1	2.0001e-06	1.5145e-06	1162.2	234.47	1.9112e-06	1.4072e-06	291.67	81.58	65.117	19.041	1.6487e-06	26.836	-83.553	-52.262	-31.463	-130.329	-23.707	11.412	-130.324	-123.277	6.501	3.413	-123.532	-116.828	-116.536	-110.056	12.060	-110.250	-8191	255	
851.919	1	1	0	0	0.062171	0.32143	0.21289	0.10418	0.12024	0.1346	0.18273	0.14485	0.073658	0.25569	0.22469	0.19479	0.12701	0.095517	0.11376	0.15179	-2.4667	-3.2188	-2.8688	-2.8979	-3.3833	-2.9667	-3.1458	-3.3375	-2.9375	-3.3812	-3.2458	-2.8917	-3.2229	-2.8917	-3.1896	-3.2938	138.231	46.469	19.718	-129.005	10.886	-118.054	176.547	98.188	197.815	22.798	141.168	213.488	-16.650	-91.203	200.588	167.305	0.00019036	0.00028528	5.4004e-05	1125	2.4293e-06	2.4855e-06	1177	238.1	2.3088e-06	3.5247e-06	295.52	81.135	65.224	19.062	2.5418e-06	26.928	0.00019682	0.00013164	3.6327e-05	1108.3	2.0626e-06	1.5089e-06	1161.2	235.24	1.9243e-06	1.41e-06	292.55	82.238	65.018	19.106	1.6813e-06	27.003	-81.569	-37.431	-48.619	-130.504	18.030	59.986	-130.242	-123.543	13.776	11.558	-123.494	-116.572	-116.529	-110.107	-2.161	-110.458	-8191	255	
852.040	1	1	0	0	0.1887	0.12609	0.33398	0.15255	0.33421	0.082908	0.098888	0.060598	0.22045	0.054422	0.070857	0.10642	0.20513	0.21307	0.18366	0.098922	-2.5083	-3.0479	-3.1958	-2.9146	-3.2812	-3.05	-3.2583	-3.3729	-2.9313	-3.2938	-3.3708	-2.7854	-3.1042	-3.0896	-2.7062	-3.2708	117.026	93.750	-49.238	60.137	108.761	17.215	170.444	58.335	108.951	30.141	76.374	99.850	-116.694	-21.148	-61.577	80.280	0.00018595	0.00031519	8.1601e-05	1129.9	3.0702e-06	2.4362e-06	1179.4	236.56	2.0148e-06	1.94e-06	293.6	80.502	65.627	19.013	3.1508e-06	26.718	0.00018663	0.00013644	3.7847e-05	1110.2	1.8764e-06	1.5682e-06	1163	234.71	1.7551e-06	1.3845e-06	291.88	81.833	65.251	19.103	1.675e-06	26.919	-84.624	-67.413	-24.498	-130.478	0.081	50.001	-130.300	-123.308	-23.857	-4.077	-123.727	-116.919	-116.957	-110.016	31.510	-110.340	-8191	255	
852.111	1	1	0	0	0.12355	0.20359	0.073802	0.17426	0.20576	0.19716	0.051491	0.1473	0.17958	0.06501	0.17477	0.13889	0.24828	0.20433	0.23178	0.04908	-2.3333	-3.0021	-3.1979	-3.0375	-3.1604	-3.0917	-3.0542	-3.4188	-2.8833	-3.0292	-3.2667	-2.7562	-3.2292	-3.0417	-2.9729	-3.2771	-17.453	148.837	206.634	207.048	13.153	160.537	177.102	155.016	-125.808	15.123	186.465	89.817	214.345	-138.855	-58.937	150.326	0.00018547	0.00028566	0.00010462	1128.4	2.8363e-06	1.3995e-06	1187.5	238.16	1.4636e-06	3.1862e-06	295.71	79.631	65.27	19.03	2.8755e-06	26.749	0.00018532	0.00013885	3.5849e-05	1108.6	1.814e-06	1.387e-06	1166	235.14	1.8056e-06	1.3728e-06	292.53	81.819	65.071	19.127	1.6231e-06	26.943	-83.149	-58.507	-27.952	-130.485	18.099	4.086	-130.423	-123.292	18.811	16.735	-123.406	-117.718	-116.833	-109.779	29.103	-110.361	-8191	255	
852.208	1	1	0	0	0.093035	0.031424	0.26933	0.091043	0.080219	0.41904	0.14119	0.10872	0.041391	0.26134	0.26333	0.074904	0.20029	0.16464	0.059599	0.2023	-2.4458	-2.9333	-3.2208	-2.8812	-3.325	-3.275	-3.0042	-3.4083	-3.1604	-3.0354	-3.2646	-2.9375	-3.0625	-3.1542	-2.9104	-3.225	51.019	209.733	70.718	-107.065	-106.868	208.954	-131.628	-102.091	86.030	75.060	129.758	-64.341	-80.855	190.982	-89.553	99.310	0.00018986	0.00031838	7.6471e-05	1129.1	2.0809e-06	2.4603e-06	1187.6	237.93	3.3296e-06	2.9415e-06	295.95	80.535	64.842	18.946	2.6731e-06	26.731	0.00019368	0.00013687	3.5285e-05	1109.9	1.8957e-06	1.4049e-06	1166.4	235.42	1.935e-06	1.388e-06	292.97	81.902	65.179	19.085	1.7402e-06	26.978	-82.489	-55.986	-36.145	-130.306	-12.559	8.392	-130.348	-123.174	-4.223	8.322	-123.759	-116.912	-116.957	-109.937	-2.772	-110.329	-8191	255	
852.328	1	1	0	0	0.23134	0.24434	0.10229	0.045287	0.156	0.28368	0.43401	0.15776	0.077868	0.15893	0.28458	0.16495	0.094527	0.056564	0.16223	0.195	-2.5667	-2.975	-3.3021	-3.0187	-3.1312	-3.0938	-2.8854	-3.1375	-2.9375	-2.7812	-3.3042	-2.7854	-3.075	-3.175	-2.7479	-3.3104	118.821	64.709	-136.974	-58.969	35.334	98.132	102.990	-123.916	-70.520	185.428	99.223	76.193	-111.389	71.584	168.556	114.706	0.00017225	0.0003617	8.4391e-05	1134.6	2.8366e-06	2.8555e-06	1186.8	237.14	2.2217e-06	3.4677e-06	295.54	80.185	65.783	18.995	2.9363e-06	26.768	0.00018631	0.00013761	3.7164e-05	1112.8	2.1886e-06	1.553e-06	1168	235.03	1.8169e-06	1.6346e-06	292.64	82.106	65.524	19.135	1.702e-06	26.951	-81.323	-71.626	-46.725	-130.683	9.261	38.388	-130.524	-123.362	-14.387	7.825	-123.456	-117.161	-116.678	-109.903	23.933	-110.033	-8191	255	
852.424	1	1	0	0	0.12302	0.17238	0.079109	0.13101	0.12917	0.18973	0.19081	0.10098	0.31272	0.20312	0.11929	0.19867	0.187	0.20381	0.12813	0.18154	-2.5521	-2.9542	-3.1312	-2.9958	-3.1458	-3.1833	-2.8292	-3.2083	-3.0729	-2.75	-3.3875	-2.9104	-3.0854	-3.2313	-2.7833	-3.1729	-124.598	-50.841	-116.095	193.922	-120.056	52.246	74.542	-135.556	186.038	102.159	-107.042	217.931	214.038	-110.732	138.354	69.181	0.00018821	0.00021674	7.7865e-05	1131.9	3.4979e-06	3.7362e-06	1184.7	237.43	2.0875e-06	2.2887e-06	296.05	81.421	65.368	19.03	1.8625e-06	26.76	0.0001941	0.00015554	3.5149e-05	1112.7	1.9721e-06	1.4249e-06	1168.4	235.48	1.8578e-06	1.5536e-06	292.81	82.058	65.242	19.167	1.6957e-06	26.958	-83.950	-33.116	-33.186	-130.164	23.881	2.259	-130.427	-123.482	2.215	8.597	-123.370	-117.327	-116.671	-110.208	32.833	-110.056	-8191	255	
852.520	1	1	0	0	0.12992	0.12603	0.011177	0.069472	0.18076	0.2038	0.23596	0.15874	0.2016	0.019416	0.083419	0.14861	0.023732	0.15894	0.31468	0.11607	-2.725	-2.9125	-3.3271	-3.1646	-3.0771	-3.3271	-3.0062	-3.1667	-3.1562	-2.8063	-3.3333	-2.9688	-3.0312	-3.4417	-2.9562	-3.2458	-109.050	200.876	-54.258	-75.323	91.484	-79.536	183.198	71.698	74.561	146.397	-132.696	169.107	-36.192	213.189	80.178	180.395	0.00019792	0.00030949	0.0001171	1131.3	1.6908e-06	1.0791e-06	1187.3	237.64	2.3188e-06	2.5662e-06	294.32	78.453	65.565	19.012	3.198e-06	26.662	0.00019374	0.0001455	3.9316e-05	1112.7	2.0264e-06	1.3532e-06	1168.3	235.28	1.653e-06	1.5838e-06	292.49	81.537	65.25	19.117	1.6162e-06	26.951	-85.606	-58.153	-9.330	-130.461	14.162	-2.228	-130.177	-123.632	-10.671	15.553	-123.659	-116.883	-117.009	-110.007	38.163	-109.962	-8191	255	
852.641	1	1	0	0	0.0495	0.1954	0.087315	0.20595	0.15517	0.057846	0.13555	0.14514	0.30057	0.12982	0.11507	0.097293	0.23866	0.32624	0.35557	0.13908	-2.6417	-2.8708	-3.3396	-3.1792	-3.0687	-3.2979	-3.0167	-3.175	-3.2729	-2.7292	-3.2583	-3.1312	-2.7833	-3.1604	-2.8438	-3.0583	55.340	0.713	-38.334	159.476	64.207	138.783	159.866	199.207	-134.520	33.237	10.797	-83.456	181.610	-69.713	-69.149	14.022	0.00019008	0.00024368	8.9526e-05	1132.2	1.4717e-06	2.5712e-06	1184.6	238.48	1.9915e-06	2.6582e-06	295.67	80.429	65.049	18.957	2.5815e-06	26.711	0.00019264	0.00015677	3.4278e-05	1113.3	1.9575e-06	1.3808e-06	1167.6	235.76	1.6507e-06	1.5879e-06	293.07	82.077	65.12	19.131	1.6769e-06	27.007	-80.744	-39.265	-49.226	-130.352	-10.990	38.104	-130.261	-123.291	-1.736	22.809	-123.581	-116.987	-117.098	-110.022	16.425	-109.994	-8191	255	
852.735	1	1	0	0	0.2626	0.13485	0.2386	0.2537	0.14878	0.046325	0.055534	0.27402	0.10299	0.16474	0.24794	0.10779	0.20624	0.17412	0.27392	0.093777	-2.9208	-2.7292	-3.0354	-3.2438	-2.8646	-3.4479	-3	-2.825	-3.3063	-3.0375	-3.2875	-3.175	-2.8125	-3.4146	-3.0958	-2.9833	195.788	82.915	-12.403	130.713	71.905	-22.574	124.145	-132.383	143.153	20.741	174.401	161.124	-21.430	-137.372	-123.394	14.940	0.00017903	0.00036109	7.444e-05	1132.6	2.9328e-06	2.1417e-06	1189.1	236.38	2.6781e-06	3.1006e-06	294.91	80.984	65.479	19.224	1.9816e-06	26.795	0.00018377	0.00015301	3.6618e-05	1112.7	2.0421e-06	1.2575e-06	1169.2	235.64	1.6346e-06	1.4161e-06	292.67	82.727	65.476	19.177	1.6368e-06	27.054	-81.888	-36.015	-53.201	-130.604	-22.409	4.527	-130.462	-123.387	-8.413	12.760	-123.605	-118.043	-116.935	-110.107	18.065	-110.308	-8191	255	
852.807	1	1	0	0	0.1317	0.20261	0.338	0.24041	0.18071	0.083087	0.11766	0.10809	0.07186	0.23783	0.063141	0.10044	0.18561	0.10961	0.19103	0.21787	-2.8187	-2.9021	-3.1063	-3.1625	-2.8458	-3.2458	-3.0563	-2.9833	-3.2042	-3.0708	-2.9917	-3.1604	-2.8292	-3.2313	-3.1	-3.0187	189.681	209.694	-112.640	203.230	90.255	-107.411	154.043	-134.957	218.592	175.108	71.454	64.850	63.241	56.485	-44.082	-97.570	0.00017821	0.00025006	8.319e-05	1133.1	2.6826e-06	5.6601e-06	1190.1	236.6	2.5751e-06	3.5681e-06	294.76	81.07	65.873	19.136	2.3709e-06	26.808	0.00018959	0.0001519	3.4876e-05	1113.3	2.1186e-06	1.3422e-06	1168.7	235.49	1.6418e-06	1.5632e-06	292.6	82.333	65.474	19.21	1.4897e-06	27.034	-86.111	-45.916	-42.348	-130.680	19.131	11.328	-130.251	-123.423	13.212	13.261	-123.599	-116.657	-116.825	-109.599	9.621	-109.940	-8191	255	
852.903	1	1	0	0	0.17664	0.08868	0.18364	0.28089	0.11818	0.11741	0.27474	0.13422	0.082287	0.16119	0.11875	0.24336	0.08643	0.27672	0.13558	0.45338	-2.7667	-2.6083	-3.0354	-3.3208	-2.7333	-3.1417	-3.1667	-2.9958	-3.4125	-2.925	-3.2125	-3.1646	-3.0083	-3.1917	-3.1604	-2.9104	3.985	1.109	15.869	181.659	-121.270	-117.866	132.971	-113.013	145.685	55.805	118.412	-134.144	89.684	-10.598	71.747	162.272	0.00018353	0.00017012	6.5447e-05	1136.7	3.1607e-06	2.2211e-06	1183.8	236.49	2.9979e-06	1.8653e-06	294.31	79.661	65.42	19.032	1.4117e-06	26.829	0.00017968	0.00013484	3.4449e-05	1115	2.0853e-06	1.1576e-06	1169.3	235.14	1.6554e-06	1.1949e-06	292.18	81.856	65.378	19.185	1.4509e-06	27.073	-84.019	-56.183	-33.032	-130.413	0.366	19.583	-130.326	-123.516	15.871	20.291	-123.630	-117.858	-116.953	-110.115	45.164	-110.329	-8191	255	
853.024	1	1	0	0	0.19925	0.14722	0.086706	0.13744	0.061841	0.17837	0.26932	0.37517	0.18585	0.1964	0.090387	0.071888	0.26381	0.020458	0.08863	0.072099	-2.8771	-2.8146	-2.8896	-3.4271	-2.8458	-3.0479	-3.3167	-3	-3.4938	-2.9292	-2.9896	-3.3292	-2.9604	-3.1188	-3.2229	-2.9583	-99.029	-56.023	-113.000	210.869	116.899	166.515	152.508	-78.203	175.374	8.507	-89.822	107.229	-74.377	-82.430	-51.351	63.441	0.00019485	0.00033897	8.3742e-05	1133.5	2.4094e-06	1.8228e-06	1183.6	237.08	1.8761e-06	2.4792e-06	295.61	80.754	65.618	19.211	1.982e-06	26.927	0.00018323	0.00013281	3.4807e-05	1113.1	1.975e-06	1.2154e-06	1169	235.53	1.5498e-06	1.4086e-06	293.77	82.46	65.548	19.241	1.4603e-06	27.085	-80.434	-65.871	-29.307	-130.530	2.294	24.081	-130.310	-123.154	-16.782	5.295	-123.575	-117.140	-117.124	-109.930	13.507	-110.384	-8191	255	
853.120	1	1	0	0	0.1611	0.089869	0.12894	0.12452	0.24481	0.30248	0.47948	0.29358	0.077646	0.11128	0.11851	0.084003	0.079182	0.11539	0.26446	0.10612	-2.7958	-3.0521	-3.0458	-3.2792	-2.9396	-3.2125	-3.2542	-2.7896	-3.475	-3.1979	-3.1	-3.2375	-2.9292	-2.975	-3.2458	-2.8271	-41.652	32.717	-36.843	-126.088	58.754	67.076	127.437	193.993	214.665	-95.305	-62.703	-56.448	-109.630	45.794	-56.906	62.838	0.00019414	0.00039062	8.7553e-05	1130.8	3.7609e-06	2.3382e-06	1187.1	237.41	2.7284e-06	3.4512e-06	294.13	80.806	65.789	19.31	2.4511e-06	26.954	0.00019258	0.00012819	3.5695e-05	1115	2.0439e-06	1.3739e-06	1168.2	235.37	1.7878e-06	1.366e-06	292.79	82.996	65.747	19.352	1.4014e-06	27.245	-83.378	-35.475	-45.582	-130.418	3.913	17.290	-130.205	-123.551	-15.352	8.416	-123.910	-117.305	-116.575	-109.755	-8.123	-110.267	-8191	255	
853.216	1	1	0	0	0.023848	0.22835	0.16561	0.22465	0.18132	0.14494	0.11816	0.15717	0.081893	0.040607	0.24462	0.10394	0.067501	0.10706	0.18864	0.06857	-2.7188	-3.0229	-2.9521	-3.5062	-2.9188	-3.0146	-3.3604	-3.0812	-3.3229	-3.1437	-3.0687	-3.3833	-2.9188	-2.9708	-3.1562	-2.8229	196.859	164.076	216.573	143.898	167.408	-20.807	57.697	205.922	-108.169	157.006	206.104	125.464	135.349	130.527	44.815	-57.692	0.00020218	0.00031227	0.00010394	1138.3	2.5245e-06	3.1059e-06	1192.2	238.04	2.5354e-06	2.1281e-06	296.58	80.229	66.041	19.299	2.6918e-06	27.083	0.00019064	0.00013367	3.4039e-05	1118.7	1.8998e-06	1.3498e-06	1171.5	236.1	1.6768e-06	1.2478e-06	294.16	82.296	65.719	19.369	1.3814e-06	27.267	-84.370	-41.123	-36.144	-130.361	0.985	-11.260	-130.311	-123.346	19.250	21.361	-123.287	-116.989	-116.572	-109.992	26.484	-110.370	-8191	255	
853.312	1	1	0	0	0.12152	0.17699	0.16754	0.22823	0.24727	0.26131	0.097074	0.14744	0.055235	0.14825	0.21333	0.25626	0.17452	0.11904	0.18886	0.13834	-2.7854	-3.1167	-2.8438	-3.5167	-2.9479	-3.1229	-3.5021	-2.9479	-3.2083	-3.2375	-2.9104	-3.1708	-2.9979	-2.9021	-3.4208	-2.9396	-13.524	-75.208	-47.921	218.594	53.347	-18.154	198.645	196.399	104.431	108.774	198.739	-134.240	193.162	187.709	153.988	-66.314	0.00018414	0.00023251	0.00010985	1137.8	1.9349e-06	2.9547e-06	1182.3	238.54	2.538e-06	2.31e-06	295.87	81.322	65.914	19.145	2.6989e-06	27.239	0.00018069	0.00012382	3.4363e-05	1112.9	1.8957e-06	1.2299e-06	1168	235.93	1.586e-06	1.2306e-06	294.04	82.298	65.741	19.373	1.3713e-06	27.369	-83.883	-31.786	-44.934	-130.485	17.852	2.518	-130.390	-123.259	11.452	13.081	-123.416	-116.985	-116.685	-109.988	30.071	-110.160	-8191	255	
853.409	1	1	0	0	0.10789	0.13471	0.031064	0.23717	0.11362	0.24106	0.16063	0.2518	0.12669	0.042654	0.099774	0.11229	0.13604	0.10152	0.15396	0.18553	-2.6167	-3.1417	-2.8021	-3.2458	-3.0917	-2.8854	-3.4729	-2.9208	-3.0542	-3.0875	-2.7979	-3.3208	-3.1979	-3.0229	-3.1708	-3.0062	26.374	-41.089	43.451	194.444	-99.390	101.109	194.247	173.437	51.225	179.054	90.659	140.767	-73.446	77.260	91.667	198.273	0.00017445	0.00024685	9.6726e-05	1129.6	2.9469e-06	3.6867e-06	1181.7	239.58	1.4978e-06	1.6922e-06	297.18	81.053	66.038	19.405	1.4439e-06	27.125	0.00018093	0.00010743	3.3133e-05	1109.3	1.8373e-06	1.3153e-06	1166.3	236.73	1.6691e-06	1.019e-06	294.03	82.873	65.806	19.405	1.1447e-06	27.272	-84.093	-37.064	-26.998	-130.647	25.896	18.751	-130.243	-123.383	-9.175	-1.750	-123.540	-117.275	-117.186	-109.763	17.659	-110.301	-8191	255	
853.505	1	1	0	0	0.044031	0.070736	0.052059	0.11707	0.045647	0.10786	0.2163	0.31559	0.13237	0.18396	0.095417	0.17549	0.18787	0.07646	0.17673	0.15283	-2.6229	-3.1333	-2.8688	-3.3729	-3.1417	-2.725	-3.3292	-2.9896	-2.9771	-3.3146	-3.0271	-3.2271	-3.1167	-3.0125	-3.3208	-3.0687	-137.240	143.840	83.914	112.361	44.661	-55.255	124.659	211.127	29.491	-12.966	-122.964	133.578	82.006	-53.878	94.035	-109.716	0.00018405	0.00025406	0.00011148	1126.9	2.2189e-06	3.113e-06	1185.4	238.24	2.5556e-06	3.3023e-06	295.51	80.897	65.772	19.33	2.0281e-06	26.979	0.00017388	8.9443e-05	3.2655e-05	1107.5	1.7347e-06	1.325e-06	1165.6	236.02	1.6815e-06	1.2395e-06	294.32	82.395	65.742	19.428	1.2029e-06	27.229	-88.181	-44.273	-22.750	-130.315	8.653	-1.837	-130.291	-123.285	-17.943	-0.397	-123.559	-117.419	-116.880	-110.227	8.865	-110.150	-8191	255	
853.601	1	1	0	0	0.19754	0.16675	0.068585	0.15693	0.20146	0.12601	0.043694	0.19416	0.21038	0.26328	0.11758	0.074084	0.29672	0.2077	0.1068	0.15998	-2.6688	-3.1625	-2.8854	-3.2604	-3.1854	-2.9771	-3.2292	-2.9896	-2.9354	-3.1583	-2.9813	-3.0729	-3.2188	-2.8625	-3.2812	-3.1208	-57.928	35.270	-25.472	-138.273	94.589	-28.169	37.645	196.833	130.583	-28.314	-84.331	18.169	145.670	4.863	51.884	149.407	0.00018145	0.00030444	8.5809e-05	1123.7	3.6349e-06	4.2135e-06	1184.4	238.38	3.0783e-06	2.8951e-06	295.46	81.792	65.662	19.203	2.0414e-06	27.054	0.00018472	0.00010392	3.2143e-05	1106.3	1.716e-06	1.367e-06	1164.9	236.34	1.726e-06	1.0121e-06	294.05	83.211	65.763	19.402	1.3551e-06	27.295	-82.825	-45.894	-46.259	-130.329	-7.927	17.315	-130.281	-123.448	-1.837	3.884	-123.603	-118.248	-117.227	-110.140	35.376	-110.115	-8191	255	
853.721	1	1	0	0	0.2711	0.13283	0.038776	0.16593	0.18035	0.13052	0.049978	0.12321	0.18076	0.16637	0.040141	0.41981	0.27827	0.053242	0.216	0.25765	-2.4688	-3.2958	-2.6896	-3.15	-3.4	-2.9146	-3.3792	-3.1063	-2.8688	-3.3667	-2.9958	-3.0687	-3.2854	-2.95	-3.2313	-3.3333	-52.249	45.627	-52.161	166.239	142.250	73.092	141.794	195.392	-64.467	-131.251	43.443	7.513	171.909	155.349	-73.754	-88.189	0.00018198	0.00029328	6.8708e-05	1124.1	1.5727e-06	2.6252e-06	1182	237.78	2.0702e-06	2.2565e-06	295.18	81.339	65.938	19.267	2.9052e-06	26.853	0.00018329	0.00010361	3.6208e-05	1107.5	1.6477e-06	1.2685e-06	1164.2	236.65	1.6542e-06	1.0128e-06	294.15	82.633	65.778	19.392	1.2649e-06	27.222	-82.345	-51.906	-41.054	-130.394	-9.639	9.727	-130.173	-123.497	-29.921	27.296	-123.898	-117.104	-116.833	-110.176	33.665	-110.379	-8191	255	
853.816	1	1	0	0	0.32529	0.12334	0.044387	0.21047	0.19588	0.058257	0.24258	0.23312	0.1469	0.057633	0.18454	0.1049	0.24346	0.15274	0.16812	0.070142	-2.4625	-3.2062	-2.7708	-3.0792	-3.3333	-2.8187	-3.4208	-3.2229	-2.9125	-3.2625	-3.1813	-2.9667	-3.3688	-3.1021	-3.2958	-3.2875	173.110	76.060	-115.970	208.173	-2.287	120.432	150.366	169.142	8.552	-6.393	-92.815	77.202	63.940	165.539	-65.099	119.899	0.00017774	0.00029802	7.0114e-05	1124.2	3.0149e-06	3.5575e-06	1181	239.91	2.4331e-06	2.5584e-06	297.76	81.188	65.967	19.262	3.3776e-06	26.994	0.00017738	0.00010484	3.1084e-05	1105.9	1.6816e-06	1.1176e-06	1164.5	237	1.7759e-06	1.1008e-06	295.4	83.233	65.829	19.402	1.5429e-06	27.24	-86.030	-76.572	-37.310	-130.255	0.712	0.352	-130.221	-123.432	13.164	2.164	-123.547	-116.621	-117.044	-110.046	17.064	-110.158	-8191	255	
853.912	1	1	0	0	0.23202	0.14975	0.23747	0.21704	0.13787	0.32156	0.17553	0.20445	0.078603	0.0080961	0.22796	0.054826	0.14386	0.18089	0.086535	0.36148	-2.4167	-3.2083	-3.0458	-3.0958	-3.2875	-2.9271	-3.3625	-3.35	-2.8458	-3.3708	-3.0458	-2.9188	-3.5458	-2.8958	-3.0354	-3.1271	161.356	-63.305	189.014	172.444	67.046	-48.923	133.248	111.609	97.239	150.340	117.740	68.298	79.185	-121.819	199.583	62.583	0.00018484	0.00020858	8.2769e-05	1127.9	2.0849e-06	4.3533e-06	1183	238.26	2.3917e-06	2.6372e-06	297.09	80.968	65.758	19.323	2.897e-06	27.077	0.00017708	0.00012609	2.9735e-05	1107.8	1.7434e-06	1.2823e-06	1164.6	236.86	1.6026e-06	1.1358e-06	294.49	82.68	65.746	19.403	1.2342e-06	27.28	-80.247	-44.396	-33.484	-130.365	24.932	16.361	-130.154	-122.997	6.789	9.221	-123.766	-117.563	-117.057	-109.963	5.685	-110.168	-8191	255	
854.008	1	1	0	0	0.10723	0.19153	0.13262	0.20296	0.18056	0.2458	0.19026	0.13952	0.10905	0.20358	0.22365	0.16702	0.057216	0.13511	0.04018	0.21587	-2.5604	-3.2833	-3.0271	-3.0875	-3.2812	-3.1312	-3.0917	-3.2042	-2.6979	-3.2042	-3.2979	-2.85	-3.2604	-3.0521	-3.2417	-3.3792	67.470	-26.166	-18.579	-111.454	-91.062	-137.849	209.166	198.118	-87.607	216.847	174.248	166.354	138.867	-133.756	114.440	-106.478	0.00019251	0.00022997	0.00010278	1126.1	1.6934e-06	3.8515e-06	1183.1	238.82	2.2006e-06	2.5793e-06	297.71	80.179	66.126	19.32	2.6619e-06	26.981	0.00018732	0.0001009	3.1613e-05	1107.5	1.6851e-06	1.243e-06	1165.6	236.99	1.7468e-06	1.3041e-06	295.05	82.922	65.91	19.407	1.4527e-06	27.289	-83.509	-85.772	-33.476	-130.287	-9.598	18.639	-130.429	-123.505	11.267	25.700	-123.607	-117.175	-117.015	-110.127	30.928	-110.061	-8191	255	
854.104	1	1	0	0	0.18607	0.15052	0.13913	0.19608	0.031903	0.18339	0.28972	0.14823	0.21143	0.12349	0.046405	0.16888	0.10219	0.38718	0.093159	0.25366	-2.3375	-3.2438	-3.0812	-3.1167	-3.4167	-3.0646	-3.1625	-3.4188	-2.6542	-3.1146	-3.25	-2.8958	-3.3438	-3.0958	-2.9458	-3.25	98.880	59.519	211.080	-110.273	188.066	43.358	114.017	-64.040	186.869	-32.353	113.701	187.882	207.973	185.686	215.133	-59.144	0.00017748	0.00034921	8.1489e-05	1127.4	1.9402e-06	2.1788e-06	1182.5	238.65	2.3558e-06	2.79e-06	297.81	80.726	66.289	19.291	1.0798e-06	27.061	0.00018084	0.00012899	2.9256e-05	1105.7	1.7382e-06	1.1017e-06	1165	236.56	1.653e-06	1.2416e-06	294.63	82.595	65.903	19.412	1.2724e-06	27.269	-85.463	-51.199	-26.059	-130.279	-1.474	0.780	-130.324	-123.198	-18.233	5.975	-123.880	-117.183	-116.724	-110.106	20.671	-110.378	-8191	255	
854.200	1	1	0	0	0.24964	0.2902	0.16347	0.20981	0.20206	0.20774	0.32242	0.13804	0.093675	0.10596	0.092838	0.22624	0.10223	0.11552	0.20351	0.081473	-2.4021	-3.0687	-3.0167	-2.9125	-3.1521	-3.1333	-2.8208	-3.1333	-2.8521	-3.2125	-3.3312	-2.7083	-3.1729	-3.0854	-2.8646	-3.4042	170.011	-117.848	-76.064	201.613	34.271	48.346	84.377	-107.579	-1.240	146.238	144.679	147.577	-124.081	10.429	149.950	-124.595	0.00018514	0.00025067	6.9266e-05	1131.8	1.9671e-06	4.8998e-06	1185.2	239.31	2.7664e-06	2.7621e-06	297.86	82.387	65.929	19.3	2.1729e-06	26.901	0.00018162	0.0001208	2.7275e-05	1109.1	1.8076e-06	1.3202e-06	1165.5	236.84	1.6257e-06	1.0705e-06	294.57	83.342	65.841	19.488	1.4214e-06	27.247	-84.233	-42.153	-60.847	-130.406	-24.622	11.073	-130.055	-123.172	-7.208	13.190	-123.599	-117.224	-117.146	-110.026	22.094	-110.187	-8191	255	
854.321	1	1	0	0	0.3109	0.31406	0.014414	0.2079	0.15377	0.068567	0.17139	0.31538	0.031874	0.042386	0.18603	0.20653	0.1202	0.16538	0.31173	0.06144	-2.3812	-3.0042	-3.25	-2.875	-3.0792	-3.0938	-3.1542	-3.3771	-2.7917	-3	-3.4125	-2.9771	-3.1562	-3.2479	-2.8667	-3.3187	-94.457	71.675	110.154	180.316	127.992	56.555	91.543	131.711	-34.438	-49.649	167.925	41.968	54.970	-112.408	-84.830	110.573	0.00018403	0.00035761	8.796e-05	1131.8	1.5352e-06	3.6345e-06	1185.5	240.02	2.0688e-06	2.6025e-06	297.73	81.65	65.782	19.234	1.8939e-06	27.155	0.00017923	0.00011451	2.9444e-05	1109.3	1.7335e-06	1.1672e-06	1163.8	237.21	1.5842e-06	1.2327e-06	295.08	83.1	65.763	19.354	1.4402e-06	27.314	-81.370	-68.390	-51.216	-130.311	-0.063	23.391	-130.455	-123.342	-6.176	-6.093	-123.689	-117.810	-116.643	-110.154	20.972	-110.355	-8191	255	
854.417	1	1	0	0	0.13177	0.10553	0.10711	0.28684	0.17888	0.16999	0.091641	0.18078	0.02282	0.25819	0.22182	0.11485	0.18344	0.12613	0.052048	0.14728	-2.6771	-2.8917	-3.3417	-2.9021	-3.1354	-3.0687	-2.9313	-3.3438	-2.975	-2.8438	-3.3875	-2.9979	-3.0792	-3.3333	-2.7188	-3.4313	84.380	9.006	38.448	148.343	212.057	58.481	156.609	47.745	197.710	-6.209	137.583	-4.314	154.831	-115.336	-66.433	155.022	0.00019258	0.00035916	9.7333e-05	1123.9	2.9114e-06	2.7341e-06	1183.6	239.5	3.0044e-06	2.2498e-06	299.3	81.191	66.11	19.212	2.3182e-06	27.104	0.00018063	0.00011365	2.8864e-05	1105.4	1.8694e-06	1.048e-06	1163.7	237.23	1.6002e-06	1.1434e-06	295.21	82.824	65.839	19.36	1.4171e-06	27.269	-78.110	-68.213	-35.467	-130.378	14.536	53.674	-130.280	-123.127	0.545	0.888	-123.683	-117.611	-117.022	-110.324	4.680	-110.021	-8191	255	
854.513	1	1	0	0	0.26902	0.21621	0.1039	0.18123	0.18921	0.066799	0.36914	0.11897	0.24067	0.20123	0.036371	0.074658	0.20428	0.14349	0.17748	0.25458	-2.5062	-2.9396	-3.3854	-3.0458	-3.1104	-3.3563	-3.0229	-3.2854	-3.1854	-2.8646	-3.4562	-2.8979	-3.2062	-3.1167	-2.8333	-3.3125	-135.744	210.660	-4.443	186.874	-85.666	185.746	124.904	-76.335	-97.856	-50.955	205.812	205.958	197.551	114.719	-124.669	193.577	0.00020307	0.00025929	9.8158e-05	1128.3	2.7396e-06	2.3278e-06	1181.8	240.05	2.1272e-06	3.0718e-06	297.8	80.688	66.089	19.276	2.6466e-06	27.165	0.00018663	0.00011501	2.7719e-05	1106.5	1.8082e-06	1.1624e-06	1163.7	237.17	1.5652e-06	1.2746e-06	294.76	82.786	65.99	19.483	1.4239e-06	27.395	-83.226	-59.385	-32.861	-130.557	13.567	21.756	-130.273	-123.663	12.035	11.114	-123.640	-117.216	-117.035	-110.259	4.902	-110.226	-8191	255	
854.610	1	1	0	0	0.13175	0.20453	0.12339	0.18807	0.16794	0.34577	0.09198	0.028987	0.078148	0.13318	0.077497	0.17017	0.26521	0.15495	0.30418	0.30967	-2.7354	-2.9125	-3.3354	-3.0729	-3.0396	-3.2938	-3.1208	-3.3083	-2.9646	-2.9562	-3.4062	-2.9667	-2.9583	-3.2938	-2.9125	-3.1375	42.096	198.963	59.566	207.001	85.819	-82.835	151.237	-58.730	74.762	16.002	-111.598	-25.806	137.001	169.592	-34.965	77.239	0.00019565	0.00033131	9.4136e-05	1125.4	2.5375e-06	4.2574e-06	1178.2	240.09	2.1361e-06	2.6524e-06	295.59	81.799	66.291	19.294	2.366e-06	27.065	0.00017896	0.00012246	2.5636e-05	1106.2	1.7574e-06	9.977e-07	1160.8	237.18	1.5462e-06	1.2038e-06	294.45	83.03	65.922	19.444	1.3294e-06	27.366	-84.021	-52.216	-49.053	-130.310	3.840	9.688	-130.203	-123.367	-26.148	25.525	-123.637	-117.162	-116.896	-110.180	16.193	-110.514	-8191	255	
854.704	1	1	0	0	0.12825	0.079714	0.11232	0.14112	0.11964	0.078419	0.20967	0.13818	0.0018967	0.31463	0.11173	0.16018	0.0020397	0.14476	0.31175	0.11423	-2.7417	-2.8354	-3.1896	-3.0896	-2.7458	-3.2479	-2.9938	-2.9021	-3.2062	-3.1417	-3.475	-3.0979	-2.9271	-3.3583	-2.8771	-3.0604	80.579	150.734	167.049	140.394	-43.718	-83.068	149.445	6.176	180.000	-13.609	104.929	206.343	180.000	169.023	38.209	147.033	0.00018192	0.0003462	9.7249e-05	1121.7	3.1236e-06	3.1667e-06	1181.2	239.74	2.3951e-06	2.4756e-06	296.76	81.556	66.34	19.354	2.35e-06	27.27	0.00017678	0.00010952	2.3757e-05	1102.6	1.7627e-06	1.0824e-06	1161.1	237.45	1.5231e-06	1.2086e-06	294.33	82.922	66.023	19.443	1.253e-06	27.407	-80.014	-47.308	-48.787	-130.361	9.067	7.396	-130.286	-123.204	5.150	18.833	-123.443	-117.244	-116.722	-110.194	8.427	-110.137	-8191	255	
#DATA ENDS
