BOXY.EXE: ISS Imagent and Oximeter Data Acquisition Program Version 0.80
Ascii Record File

#ACQ INFORMATION
2  Detector Channels 
16  External MUX Channels 
1  Auxiliary Channels 
5000  Waveform (CCF) Frequency (Hz)
1  Waveforms Skipped 
30  Waveforms Averaged 
1  Cycles Averaged 
16  Acquisitions per Waveform 
10.0806  Updata Rate (Hz) 

#FILE INFORMATION
TRUE -- External MUX Channel results are PARSED.
FALSE -- AC DC and Phase are NOT grouped.
TRUE -- Companion Program Settings File CREATED.
FALSE -- AC data not excluded
FALSE -- DC data not excluded
FALSE -- Phase data not excluded
FALSE -- Auxillary Chn. data not excluded
Tab delimiters

#CALIBRATION STATE
TRUE -- Waveform Calibration Values APPLIED.


#AUX CALIBRATION VALUES
Val Type	aux-1	

Term	1.0000e+00	
Factor	0.0000e+00	


#WF CALIBRATION VALUES
A = Detector Channel
Val Type	A-AC1	A-AC2	A-AC3	A-AC4	A-AC5	A-AC6	A-AC7	A-AC8	A-AC9	A-AC10	A-AC11	A-AC12	A-AC13	A-AC14	A-AC15	A-AC16	A-DC1	A-DC2	A-DC3	A-DC4	A-DC5	A-DC6	A-DC7	A-DC8	A-DC9	A-DC10	A-DC11	A-DC12	A-DC13	A-DC14	A-DC15	A-DC16	A-Ph1	A-Ph2	A-Ph3	A-Ph4	A-Ph5	A-Ph6	A-Ph7	A-Ph8	A-Ph9	A-Ph10	A-Ph11	A-Ph12	A-Ph13	A-Ph14	A-Ph15	A-Ph16	

Term	0.00000e+00	0.00000e+00	0.00000e+00	0.00000e+00	0.00000e+00	0.00000e+00	0.00000e+00	0.00000e+00	0.00000e+00	0.00000e+00	0.00000e+00	0.00000e+00	0.00000e+00	0.00000e+00	0.00000e+00	0.00000e+00	0.00000e+00	0.00000e+00	0.00000e+00	0.00000e+00	0.00000e+00	0.00000e+00	0.00000e+00	0.00000e+00	0.00000e+00	0.00000e+00	0.00000e+00	0.00000e+00	0.00000e+00	0.00000e+00	0.00000e+00	0.00000e+00	0.00000e+00	0.00000e+00	0.00000e+00	0.00000e+00	0.00000e+00	0.00000e+00	0.00000e+00	0.00000e+00	0.00000e+00	0.00000e+00	0.00000e+00	0.00000e+00	0.00000e+00	0.00000e+00	0.00000e+00	0.00000e+00	
Factor	1.00000e+00	1.00000e+00	1.00000e+00	1.00000e+00	1.00000e+00	1.00000e+00	1.00000e+00	1.00000e+00	1.00000e+00	1.00000e+00	1.00000e+00	1.00000e+00	1.00000e+00	1.00000e+00	1.00000e+00	1.00000e+00	1.00000e+00	1.00000e+00	1.00000e+00	1.00000e+00	1.00000e+00	1.00000e+00	1.00000e+00	1.00000e+00	1.00000e+00	1.00000e+00	1.00000e+00	1.00000e+00	1.00000e+00	1.00000e+00	1.00000e+00	1.00000e+00	X	X	X	X	X	X	X	X	X	X	X	X	X	X	X	X	

B = Detector Channel
Val Type	B-AC1	B-AC2	B-AC3	B-AC4	B-AC5	B-AC6	B-AC7	B-AC8	B-AC9	B-AC10	B-AC11	B-AC12	B-AC13	B-AC14	B-AC15	B-AC16	B-DC1	B-DC2	B-DC3	B-DC4	B-DC5	B-DC6	B-DC7	B-DC8	B-DC9	B-DC10	B-DC11	B-DC12	B-DC13	B-DC14	B-DC15	B-DC16	B-Ph1	B-Ph2	B-Ph3	B-Ph4	B-Ph5	B-Ph6	B-Ph7	B-Ph8	B-Ph9	B-Ph10	B-Ph11	B-Ph12	B-Ph13	B-Ph14	B-Ph15	B-Ph16	

Term	0.00000e+00	0.00000e+00	0.00000e+00	0.00000e+00	0.00000e+00	0.00000e+00	0.00000e+00	0.00000e+00	0.00000e+00	0.00000e+00	0.00000e+00	0.00000e+00	0.00000e+00	0.00000e+00	0.00000e+00	0.00000e+00	0.00000e+00	0.00000e+00	0.00000e+00	0.00000e+00	0.00000e+00	0.00000e+00	0.00000e+00	0.00000e+00	0.00000e+00	0.00000e+00	0.00000e+00	0.00000e+00	0.00000e+00	0.00000e+00	0.00000e+00	0.00000e+00	-5.49489e+01	-1.30018e+02	-1.15029e+02	-1.82000e+02	-4.48403e+01	-6.38213e+01	-1.54057e+02	-1.62015e+02	-3.85132e+01	-6.38819e+01	-1.69547e+02	-1.75151e+02	-1.81293e+02	-1.75935e+02	-4.59049e+01	-1.48675e+02	
Factor	1.87765e-05	1.88899e-04	5.74682e-05	1.52957e-01	1.97764e-06	2.23793e-06	1.65064e-01	6.35851e-02	1.55218e-06	1.92868e-06	8.55358e-02	2.11266e-01	3.09704e-02	8.91294e-03	1.86578e-06	1.29532e-02	1.43335e-05	2.95678e-05	8.19797e-06	7.80900e-02	2.80065e-07	3.30729e-07	7.91658e-02	3.25726e-02	2.84905e-07	3.29813e-07	4.25583e-02	1.04478e-01	1.60749e-02	4.61447e-03	3.00568e-07	6.47548e-03	X	X	X	X	X	X	X	X	X	X	X	X	X	X	X	X	



#DISTANCE SETTINGS
A = Detector Channel
A-1	A-2	A-3	A-4	A-5	A-6	A-7	A-8	A-9	A-10	A-11	A-12	A-13	A-14	A-15	A-16	

2.5000e+00	3.0000e+00	2.5000e+00	3.0000e+00	2.0000e+00	3.0000e+00	1.5000e+00	3.0000e+00	3.0000e+00	3.0000e+00	3.0000e+00	3.0000e+00	3.0000e+00	3.0000e+00	1.5000e+00	3.0000e+00	

B = Detector Channel
B-1	B-2	B-3	B-4	B-5	B-6	B-7	B-8	B-9	B-10	B-11	B-12	B-13	B-14	B-15	B-16	

1.0000e+01	1.0000e+01	1.0000e+01	1.4400e+00	1.0000e+01	1.0000e+01	1.5100e+00	1.9400e+00	1.0000e+01	1.0000e+01	1.9900e+00	2.4900e+00	2.4100e+00	2.9000e+00	1.0000e+01	2.9800e+00	




#DATA BEGINS
time	group	step	mark	flag	A-AC1	A-AC2	A-AC3	A-AC4	A-AC5	A-AC6	A-AC7	A-AC8	A-AC9	A-AC10	A-AC11	A-AC12	A-AC13	A-AC14	A-AC15	A-AC16	A-DC1	A-DC2	A-DC3	A-DC4	A-DC5	A-DC6	A-DC7	A-DC8	A-DC9	A-DC10	A-DC11	A-DC12	A-DC13	A-DC14	A-DC15	A-DC16	A-Ph1	A-Ph2	A-Ph3	A-Ph4	A-Ph5	A-Ph6	A-Ph7	A-Ph8	A-Ph9	A-Ph10	A-Ph11	A-Ph12	A-Ph13	A-Ph14	A-Ph15	A-Ph16	B-AC1	B-AC2	B-AC3	B-AC4	B-AC5	B-AC6	B-AC7	B-AC8	B-AC9	B-AC10	B-AC11	B-AC12	B-AC13	B-AC14	B-AC15	B-AC16	B-DC1	B-DC2	B-DC3	B-DC4	B-DC5	B-DC6	B-DC7	B-DC8	B-DC9	B-DC10	B-DC11	B-DC12	B-DC13	B-DC14	B-DC15	B-DC16	B-Ph1	B-Ph2	B-Ph3	B-Ph4	B-Ph5	B-Ph6	B-Ph7	B-Ph8	B-Ph9	B-Ph10	B-Ph11	B-Ph12	B-Ph13	B-Ph14	B-Ph15	B-Ph16	aux-1	digaux	

867.910	1	1	0	256	0.13313	0.083702	0.08799	0.07213	0.26783	0.096137	0.24411	0.083751	0.12719	0.2326	0.26074	0.083282	0.26668	0.1253	0.16256	0.11479	-2.6937	-3.1146	-2.825	-3.5417	-2.9396	-3.0479	-3.3812	-2.7062	-3.1521	-3.0187	-3.0229	-3.3583	-3.0333	-3.0146	-3.1312	-2.8812	-129.018	-124.330	32.730	-61.831	-2.472	176.310	145.075	98.823	10.418	70.109	107.648	104.240	139.439	158.875	206.120	164.613	0.00038776	0.0003436	0.00011429	1346.1	2.0713e-06	3.7152e-06	1338.1	362.88	4.9557e-06	3.4961e-06	413.23	134.31	120.17	40.942	3.5389e-06	50.881	0.00044335	0.00044444	0.00012188	1363.4	4.8183e-06	4.5799e-06	1354.5	368.87	4.7585e-06	4.5088e-06	420.7	138.39	122.51	41.841	4.6262e-06	51.944	-86.620	-31.548	-52.356	-132.404	23.959	-2.216	-132.355	-127.843	-9.196	2.830	-128.469	-123.991	-123.533	-118.873	14.304	-119.680	-8191	255	
868.006	1	1	0	0	0.20081	0.13092	0.15781	0.13662	0.15747	0.11271	0.13328	0.29006	0.15002	0.061389	0.021411	0.073884	0.12029	0.1709	0.07915	0.24181	-2.7146	-3.0312	-2.7625	-3.3625	-3.0583	-2.9583	-3.6125	-2.9896	-3.1375	-3.0917	-2.95	-3.1979	-2.9917	-3.1437	-3.2854	-2.7979	78.528	-118.945	-71.491	146.410	153.377	-107.825	101.228	188.185	73.133	98.571	134.173	-88.126	186.923	197.649	-26.610	-118.641	0.00039746	0.00056467	0.00016599	1350.7	3.446e-06	5.808e-06	1339.1	363.1	3.3842e-06	4.0678e-06	413.73	133.98	120.76	40.949	3.4836e-06	50.577	0.00045136	0.00042202	0.00011684	1365.9	4.7821e-06	4.7487e-06	1356	369.13	4.8677e-06	4.6614e-06	421.02	138.66	122.6	41.881	4.6212e-06	51.826	-84.627	-62.936	-67.227	-132.620	-7.455	6.625	-132.496	-127.773	-14.794	8.241	-128.359	-124.397	-123.396	-118.816	13.550	-119.684	-8191	255	
868.102	1	1	0	0	0.043351	0.16745	0.33028	0.29147	0.15241	0.12573	0.14936	0.28156	0.12187	0.1799	0.22176	0.15976	0.063994	0.19493	0.22236	0.037524	-2.6792	-3.1646	-2.7958	-3.3208	-2.9104	-2.9125	-3.475	-2.9333	-3.0146	-3.2146	-2.8667	-3.3042	-3.3208	-3.0521	-3.2021	-3.0938	40.492	13.084	35.254	152.613	-98.755	84.250	45.627	162.133	-116.127	46.839	143.330	-142.721	39.536	-133.358	24.582	-40.335	0.00040341	0.00046206	0.00012689	1350.6	4.9058e-06	2.2599e-06	1341.8	363.38	4.1279e-06	4.4952e-06	413.76	134.54	120.67	40.814	4.7862e-06	50.735	0.00045189	0.00043834	0.00012372	1365.6	4.9426e-06	4.6901e-06	1359.1	369.33	4.8553e-06	4.7143e-06	421.29	138.68	122.92	41.857	4.6363e-06	51.97	-85.630	-60.366	-40.851	-132.493	-3.684	23.151	-132.651	-128.105	-5.935	13.943	-128.245	-123.599	-123.634	-118.806	29.147	-120.087	-8191	255	
868.196	1	1	0	0	0.1238	0.11785	0.30562	0.27307	0.20276	0.047936	0.19005	0.35894	0.21873	0.1294	0.036115	0.02626	0.2124	0.23889	0.089254	0.079909	-2.7104	-3.1167	-2.5542	-3.3417	-3.2854	-2.6979	-3.4625	-3.0625	-2.8396	-3.1979	-2.9917	-3.1125	-3.35	-2.9604	-3.3312	-3.0792	86.087	-77.089	-130.700	169.097	95.336	6.290	65.653	131.043	61.861	133.065	73.027	147.396	183.986	104.289	138.492	93.151	0.00038843	0.00044731	0.00012267	1349.6	4.7281e-06	4.3749e-06	1340.2	363.31	5.1536e-06	5.2423e-06	413.99	131.1	120.44	40.881	3.2878e-06	50.638	0.00045001	0.00042183	0.00011923	1365.8	4.6812e-06	4.4076e-06	1356.7	369.71	4.6095e-06	4.5184e-06	421.56	138.35	122.93	41.882	4.6175e-06	51.868	-82.828	-60.589	-42.356	-132.698	0.486	-7.051	-132.565	-127.851	-15.166	17.667	-128.296	-123.480	-123.595	-118.828	1.489	-119.437	-8191	255	
868.293	1	1	0	0	0.11234	0.23807	0.06726	0.36526	0.05336	0.12925	0.16767	0.21048	0.24077	0.047427	0.19483	0.072966	0.10408	0.036844	0.10713	0.14602	-2.4167	-3.3979	-2.9125	-3.3229	-3.1271	-2.7417	-3.3312	-3.1917	-2.8438	-3.5604	-3.0417	-3.3208	-3.2313	-2.9021	-3.2458	-3.2	-134.866	207.132	-134.937	151.389	-15.658	-94.367	191.431	119.694	17.967	-45.414	148.915	48.156	189.852	-75.170	-31.042	-72.082	0.00038934	0.0005437	0.00011694	1347.5	4.3526e-06	5.2485e-06	1340.4	362.13	4.4413e-06	2.4435e-06	414.73	133.47	120.62	40.691	2.9976e-06	50.469	0.00044093	0.00041185	0.00011561	1362.4	4.7874e-06	4.6378e-06	1354.1	369.22	4.9395e-06	4.3453e-06	421.06	138.34	122.7	41.742	4.5273e-06	51.866	-86.552	-47.862	-58.062	-132.472	2.258	15.790	-132.384	-127.885	-5.599	-14.515	-128.401	-123.587	-123.428	-119.054	2.162	-119.766	-8191	255	
868.413	1	1	0	0	0.14969	0.061141	0.15429	0.29564	0.20637	0.28141	0.30991	0.1827	0.20403	0.23603	0.20844	0.40692	0.24247	0.304	0.29629	0.17075	-2.5521	-3.1979	-2.9104	-3.1792	-3.2042	-2.7021	-3.5667	-3.1792	-2.9979	-3.3542	-2.9896	-2.8896	-3.2229	-2.8417	-3.2521	-3.1688	141.724	-44.352	-61.171	153.139	160.184	41.248	185.455	-118.031	-47.618	92.235	198.761	84.148	196.822	-76.143	21.050	96.500	0.00038413	0.00057599	0.00016442	1344.9	3.8216e-06	6.0034e-06	1337.9	363.98	4.3366e-06	5.8596e-06	415.16	133.71	120.44	40.818	3.6492e-06	50.753	0.00044953	0.0004036	0.00011802	1361	4.6818e-06	4.4979e-06	1354.6	369.69	4.7668e-06	4.6785e-06	421.76	138.56	122.59	41.811	4.8322e-06	51.817	-85.774	-69.055	-47.366	-132.638	-8.802	-7.953	-132.297	-127.821	-7.482	8.919	-128.265	-123.970	-123.603	-118.764	21.136	-119.589	-8191	255	
868.509	1	1	0	0	0.056427	0.18079	0.2228	0.14716	0.14984	0.1762	0.27779	0.31537	0.24315	0.2878	0.17923	0.19067	0.15546	0.43647	0.15807	0.17756	-2.5187	-3.2896	-2.9375	-3.1083	-3.3229	-2.8917	-3.4792	-3.2188	-2.7896	-3.3479	-3.1208	-2.8708	-3.175	-2.8771	-3.0271	-3.2458	179.508	109.651	206.775	139.120	91.385	169.626	105.667	210.015	-8.419	-34.669	161.383	164.907	165.569	212.673	210.589	150.718	0.00039123	0.00040713	0.00012346	1348.3	4.5558e-06	5.5783e-06	1334.2	362.56	4.7004e-06	4.4013e-06	413.52	132.99	120.38	40.835	4.057e-06	50.515	0.00044619	0.00040194	0.00011919	1362.8	4.6176e-06	4.7377e-06	1352.7	369.2	4.8428e-06	4.7266e-06	421.37	138.34	122.52	41.806	4.9099e-06	51.809	-85.042	-62.079	-46.990	-132.360	-11.236	2.537	-132.425	-127.970	-11.551	-3.042	-128.154	-124.094	-123.603	-118.732	-7.439	-119.690	-8191	255	
868.605	1	1	0	0	0.13438	0.1025	0.26676	0.33278	0.063074	0.13749	0.20335	0.099618	0.18845	0.021999	0.40629	0.087737	0.16771	0.28114	0.191	0.21047	-2.4146	-3.1875	-3.0938	-3.0833	-3.2646	-2.8438	-3.3125	-3.3292	-2.8083	-3.0625	-3.0896	-2.9417	-3.4542	-2.7875	-3.1667	-3.1458	58.580	-95.347	42.291	140.234	-100.105	68.034	180.459	141.813	-42.342	139.053	127.237	161.922	-141.539	169.408	173.231	186.763	0.00038531	0.00046419	0.00014211	1345.8	4.7046e-06	7.2557e-06	1341.3	362.78	2.8185e-06	2.7641e-06	416.63	134.07	120.32	40.817	2.8614e-06	50.684	0.00045587	0.00042916	0.00011542	1362.6	4.5802e-06	4.6495e-06	1355.8	369.3	4.6612e-06	4.3096e-06	421.84	138.88	122.69	41.796	4.625e-06	51.836	-82.979	-65.118	-54.726	-132.366	17.015	-2.708	-132.326	-128.009	-18.343	18.248	-128.347	-124.079	-123.564	-118.883	-4.782	-119.529	-8191	255	
868.677	1	1	0	0	0.25086	0.066754	0.17245	0.35243	0.17034	0.099518	0.10364	0.12342	0.099407	0.10773	0.079964	0.41249	0.20334	0.31539	0.083109	0.085523	-2.3833	-3.1312	-3.0438	-2.9229	-3.3021	-2.9833	-3.2313	-3.2979	-2.8979	-3.2042	-3.1167	-2.7771	-3.5979	-3.2125	-2.875	-3.3833	66.188	106.712	-143.175	200.781	-120.011	67.012	121.029	-143.138	-76.186	204.675	165.319	53.020	-143.109	148.742	123.946	-137.508	0.00037886	0.000377	0.00016732	1349.9	4.1363e-06	5.5053e-06	1337.8	363.38	4.1861e-06	4.5727e-06	412.62	131.79	119.89	40.827	3.8731e-06	50.649	0.00044383	0.00040194	0.0001117	1363.9	4.6532e-06	4.5014e-06	1353.5	368.78	4.9033e-06	4.616e-06	419.69	137.52	122.22	41.73	4.9068e-06	51.749	-87.086	-54.455	-42.030	-132.521	-7.454	-5.038	-132.508	-127.938	1.374	-2.069	-128.248	-123.989	-123.392	-118.866	-11.253	-119.840	-8191	255	
868.798	1	1	0	0	0.13637	0.16774	0.090536	0.18607	0.056663	0.16411	0.33809	0.17024	0.24821	0.29632	0.16464	0.1374	0.14602	0.27496	0.20224	0.35763	-2.3187	-3.0854	-3.0563	-3.1042	-3.0854	-2.9771	-3.1396	-3.2792	-2.9021	-3.1229	-3.1792	-2.8812	-3.2938	-2.8875	-2.8125	-3.3812	40.387	-118.240	-47.058	-123.137	182.905	-77.965	198.141	198.390	186.041	23.534	65.253	88.108	152.611	168.578	-70.211	135.083	0.00039215	0.00040471	0.00012592	1347.4	4.5988e-06	5.5308e-06	1341	362.24	3.3636e-06	4.4264e-06	414.58	132.36	119.96	40.742	4.8269e-06	50.544	0.00045646	0.00042818	0.00011537	1362.3	4.9122e-06	4.7232e-06	1354.4	368.67	4.9609e-06	4.7342e-06	419.96	137.98	122.46	41.664	4.8698e-06	51.709	-85.631	-70.952	-44.828	-132.401	8.528	-4.401	-132.512	-127.860	6.259	-1.763	-128.385	-123.371	-123.250	-118.793	6.791	-119.559	-8191	255	
868.894	1	1	0	0	0.068745	0.18375	0.085198	0.10358	0.029944	0.11951	0.1486	0.067169	0.077666	0.35587	0.20637	0.17	0.23778	0.176	0.22781	0.096518	-2.3271	-2.9917	-3.0083	-2.9458	-3.2542	-3.0229	-3.0333	-3.4958	-2.875	-3.1146	-3.2479	-2.7125	-3.2687	-3.1396	-2.825	-3.4771	-83.488	78.443	-65.368	157.202	204.727	-82.117	143.099	124.625	-123.391	156.070	193.068	179.869	193.819	56.012	-10.273	39.793	0.00037994	0.00048493	0.00014395	1347.8	3.8957e-06	5.176e-06	1341.9	363.18	3.3596e-06	5.2212e-06	415.57	133.89	120.43	40.68	5.0197e-06	50.342	0.00044407	0.0004368	0.0001154	1363	4.5796e-06	4.6006e-06	1356.5	369.48	4.581e-06	4.4271e-06	421.45	138.42	122.49	41.785	4.61e-06	51.763	-83.997	-36.709	-38.961	-132.498	12.981	6.521	-132.568	-127.789	-6.095	7.542	-128.142	-123.519	-123.285	-118.892	-1.142	-119.548	-8191	255	
868.990	1	1	0	0	0.16321	0.12305	0.10959	0.28536	0.20888	0.081996	0.21359	0.29914	0.12973	0.02962	0.1359	0.20287	0.032696	0.097596	0.17152	0.050975	-2.5229	-2.8583	-3.1896	-3.0271	-3.25	-3.1521	-3.0833	-3.35	-2.8583	-3.0083	-3.375	-2.6792	-3.0521	-3.0396	-2.7167	-3.35	5.633	155.564	-73.948	140.839	129.969	74.138	142.714	125.833	192.392	-128.444	-108.204	-105.337	-60.812	-142.444	82.987	150.805	0.00038944	0.00040929	0.00012335	1348.7	3.5755e-06	4.8529e-06	1342.5	362.88	3.7639e-06	5.003e-06	415.67	133.76	119.98	40.907	3.1119e-06	50.601	0.0004409	0.00040853	0.00010273	1362.9	4.46e-06	4.2085e-06	1354.4	368.99	4.5246e-06	4.2711e-06	421.03	138.08	122.4	41.843	4.4177e-06	51.85	-86.856	-44.626	-64.818	-132.327	-6.121	3.047	-132.459	-127.953	0.506	11.171	-128.319	-123.950	-123.380	-119.029	3.456	-119.684	-8191	255	
869.086	1	1	0	0	0.24462	0.11563	0.31019	0.38439	0.14192	0.11239	0.34247	0.076806	0.11481	0.046721	0.15307	0.25737	0.26098	0.23082	0.17949	0.28004	-2.4583	-2.9979	-3.1937	-3.0958	-3.3167	-3.2188	-2.9979	-3.4604	-2.9229	-2.8833	-3.3417	-2.9021	-3.0625	-3.1521	-2.8125	-3.3583	102.678	-46.517	-3.584	121.496	-6.398	-101.223	117.979	189.549	-66.088	179.260	-99.512	169.778	167.457	196.382	-119.926	75.862	0.00038816	0.00038311	0.00012589	1349.4	5.5895e-06	4.8658e-06	1340	364	4.537e-06	4.6433e-06	414.32	133.17	120.04	40.801	3.9877e-06	50.369	0.00043356	0.00039239	0.00010601	1361.9	4.5896e-06	4.3119e-06	1353.9	368.69	4.4653e-06	4.3687e-06	420.31	137.81	122.3	41.736	4.8348e-06	51.677	-85.253	-51.267	-35.695	-132.472	4.822	4.745	-132.313	-128.033	4.040	10.075	-128.297	-124.051	-123.338	-118.882	-9.865	-119.672	-8191	255	
869.205	1	1	0	0	0.047425	0.18536	0.242	0.33197	0.12935	0.13523	0.28748	0.33818	0.16203	0.052265	0.13697	0.026631	0.097315	0.17047	0.052943	0.27128	-2.5042	-3.0167	-3.3417	-2.9938	-2.8229	-3.075	-2.9396	-3.1562	-3.0042	-2.8875	-3.2313	-2.9062	-3.1896	-3.275	-2.8271	-3.1354	-53.648	-101.402	87.542	151.392	206.805	-46.345	189.159	146.228	159.775	173.024	-108.411	113.891	132.293	183.658	0.260	134.412	0.00036776	0.00046558	0.00017242	1350	3.8959e-06	5.6965e-06	1338.6	363.77	4.7413e-06	4.7036e-06	412.2	132.45	119.57	40.636	4.3404e-06	50.446	0.00044783	0.00043927	0.00010927	1363.7	4.9513e-06	4.3043e-06	1354.4	369.14	4.5632e-06	4.6085e-06	419.91	137.92	122.04	41.614	4.8692e-06	51.771	-86.554	-39.064	-37.944	-132.424	16.516	12.953	-132.393	-127.835	0.851	24.966	-128.433	-123.311	-123.357	-118.782	-2.995	-119.607	-8191	255	
869.279	1	1	0	0	0.20673	0.23698	0.31133	0.073698	0.1423	0.16126	0.20842	0.13606	0.18438	0.14881	0.079648	0.23386	0.30031	0.21151	0.11062	0.26645	-2.6937	-2.7875	-3.1583	-3.1667	-3.1021	-3.2625	-3.0125	-3.2021	-3.0896	-2.9208	-3.4583	-2.975	-3.0771	-3.3063	-2.7792	-3.0708	170.898	180.919	-73.442	164.182	-24.154	43.751	97.368	-141.320	-142.961	51.411	-66.325	-145.500	190.086	202.435	-12.376	97.349	0.00039252	0.00039076	0.00017211	1347.2	2.7759e-06	4.2856e-06	1338.7	363.16	4.2971e-06	5.1935e-06	413.67	132.56	119.77	40.601	3.095e-06	50.345	0.00043953	0.00042652	0.00011308	1361.8	4.8335e-06	4.5923e-06	1354.5	368.93	4.7864e-06	4.7459e-06	420.37	138.02	122	41.598	4.8391e-06	51.61	-82.978	-64.347	-45.967	-132.477	-2.136	17.860	-132.382	-127.741	5.227	1.845	-128.413	-123.399	-123.495	-118.742	0.919	-119.561	-8191	255	
869.375	1	1	0	0	0.1229	0.24699	0.079828	0.15038	0.16818	0.22362	0.047266	0.13952	0.15571	0.20282	0.24537	0.14074	0.18534	0.31061	0.23658	0.31832	-2.6021	-2.6792	-3.2083	-3.2167	-2.8958	-3.4062	-3.1646	-3.2417	-3.2646	-2.8646	-3.4021	-3.1083	-2.8396	-3.3354	-2.9813	-3.2104	30.295	-92.916	-23.962	198.088	117.085	-127.173	155.527	172.969	-15.429	99.115	200.497	-64.168	28.354	-99.626	13.045	104.275	0.00038321	0.00046233	0.00012947	1350.6	3.4355e-06	5.9326e-06	1340.6	363.15	4.4644e-06	4.1512e-06	413.89	133.68	119.89	40.589	4.4281e-06	50.595	0.00045115	0.00043052	0.00011071	1366.1	4.7699e-06	4.697e-06	1357.9	369.01	4.898e-06	5.0193e-06	420.58	138.09	122.23	41.622	4.8805e-06	51.684	-80.729	-68.775	-50.035	-132.345	11.450	8.583	-132.211	-127.768	0.686	9.421	-128.284	-124.248	-123.508	-118.710	-3.771	-119.581	-8191	255	
869.494	1	1	0	0	0.33808	0.34222	0.056178	0.18432	0.097757	0.043344	0.15689	0.16871	0.08385	0.12379	0.013349	0.066164	0.19132	0.14625	0.070997	0.28899	-2.7396	-2.75	-3.0667	-3.1729	-2.8354	-3.2938	-3.1875	-3.1583	-3.2938	-2.9792	-3.3458	-2.9979	-3.0583	-3.3708	-2.9417	-3.0833	128.619	162.352	-38.059	-144.584	53.410	-132.358	158.679	92.526	-59.656	-100.914	-47.776	191.870	-20.950	12.576	145.288	-118.162	0.00037817	0.00045386	0.0001394	1351.9	4.8895e-06	4.8107e-06	1337.3	362	4.4253e-06	5.4041e-06	416.12	132.92	119.62	40.649	4.3858e-06	50.336	0.0004441	0.00044259	0.00011889	1364.7	5.0196e-06	4.6888e-06	1356	368.69	4.6113e-06	4.8462e-06	420.8	137.74	122.04	41.618	4.8986e-06	51.606	-86.736	-50.834	-47.023	-132.483	-1.102	2.236	-132.522	-127.768	-17.258	6.363	-128.205	-123.612	-123.307	-118.824	18.596	-119.599	-8191	255	
869.590	1	1	0	0	0.17497	0.13179	0.60074	0.14285	0.076864	0.048752	0.23983	0.19064	0.099063	0.17911	0.036307	0.18398	0.15975	0.20522	0.20043	0.10027	-2.7854	-2.6042	-3.1833	-3.4188	-2.9083	-3.1125	-3.0771	-3.1792	-3.1625	-2.7812	-3.1542	-3.0812	-2.6083	-3.35	-2.8625	-3.0625	-33.072	206.968	-31.133	-119.527	115.629	144.312	154.960	141.905	-133.717	-108.715	2.537	-52.937	157.109	163.105	15.588	-5.496	0.00038646	0.00039545	0.00016228	1348.5	4.7728e-06	4.652e-06	1337.7	362.13	3.352e-06	4.168e-06	414.08	131.53	119.6	40.548	3.5464e-06	50.181	0.00044311	0.00044992	0.00011797	1362.4	4.9624e-06	4.8293e-06	1353.5	368.76	4.9146e-06	4.8428e-06	420.02	137.6	121.79	41.509	4.9713e-06	51.489	-84.210	-61.067	-49.396	-132.363	7.677	-10.009	-132.601	-127.644	-9.889	11.943	-128.300	-124.000	-123.211	-118.912	-6.040	-119.685	-8191	255	
869.686	1	1	0	0	0.26502	0.21321	0.056205	0.065699	0.17787	0.23821	0.11474	0.27292	0.12943	0.10247	0.037198	0.13254	0.18248	0.21091	0.073814	0.15658	-2.6979	-2.7833	-2.9396	-3.4625	-2.8292	-3.2646	-3.1542	-3.0667	-3.1625	-2.85	-3.1562	-3.2083	-2.9458	-3.1688	-3.1208	-2.9979	175.862	120.135	33.606	192.464	-68.121	175.309	196.055	164.980	7.763	56.839	-60.168	104.342	208.314	-118.401	-116.595	-142.794	0.00037876	0.00050171	0.00015464	1346	4.6236e-06	4.49e-06	1337.3	362.27	4.8837e-06	3.3452e-06	411.72	131.65	119.13	40.448	4.5922e-06	50.216	0.00045572	0.00044339	0.0001194	1360.7	5.0575e-06	4.6536e-06	1352.1	368.01	4.8452e-06	4.8345e-06	419.25	137.08	121.49	41.451	4.7746e-06	51.473	-83.276	-60.056	-59.643	-132.497	5.446	17.424	-132.470	-127.646	6.692	10.220	-128.241	-123.350	-123.592	-118.727	-9.067	-119.651	-8191	255	
869.806	1	1	0	0	0.32972	0.077999	0.17375	0.28608	0.20086	0.0048565	0.27334	0.1471	0.15478	0.25811	0.35092	0.13309	0.24301	0.22622	0.14304	0.16123	-2.9583	-2.7292	-2.9521	-3.375	-2.9688	-3.0854	-3.2521	-3.0104	-3.1854	-2.9292	-3.0646	-3.2917	-2.9437	-3.0229	-3.3063	-2.8688	130.580	-59.770	-108.054	99.331	-96.119	190.566	194.473	155.019	-32.898	-10.079	180.830	134.222	210.151	80.817	123.694	209.446	0.00040103	0.00056135	0.00015937	1345.2	4.2005e-06	6.3489e-06	1329.4	361.63	3.6434e-06	4.6186e-06	409.44	132.91	118.87	40.501	2.9132e-06	50.108	0.00044765	0.00043853	0.0001229	1358.5	4.9875e-06	4.6901e-06	1345.2	367.57	4.6285e-06	4.5102e-06	418	137.79	121.5	41.403	4.7527e-06	51.357	-86.014	-58.884	-46.693	-132.497	8.136	7.456	-132.461	-127.821	1.089	9.601	-128.218	-124.503	-123.434	-118.809	2.988	-119.354	-8191	255	
869.903	1	1	0	0	0.026493	0.11446	0.29792	0.26924	0.081847	0.18725	0.11981	0.070829	0.29507	0.10095	0.26417	0.011363	0.21885	0.20081	0.23738	0.13287	-2.8125	-2.825	-2.8792	-3.3396	-2.9479	-3.2188	-3.25	-3.0167	-3.0458	-3.1083	-3.0354	-3.1771	-2.8729	-3.35	-3.2375	-2.7792	-110.951	64.845	207.069	206.303	-11.671	-100.377	124.401	86.029	-16.857	-128.276	-14.434	206.103	184.315	-125.525	37.898	103.366	0.00038791	0.00043713	0.00016924	1338.3	5.3483e-06	5.5541e-06	1329.1	362.59	3.523e-06	3.1522e-06	412.96	131.83	119	40.469	4.1028e-06	50.473	0.00044867	0.0004336	0.00011687	1353.6	5.0254e-06	4.5041e-06	1346.4	368.1	4.8938e-06	4.7198e-06	419.11	136.81	121.67	41.406	4.7797e-06	51.511	-84.322	-62.931	-62.282	-132.432	-13.727	-3.065	-132.340	-127.715	4.609	-8.625	-128.180	-123.776	-123.313	-118.827	-0.692	-119.443	-8191	255	
869.974	1	1	0	0	0.12475	0.13363	0.25618	0.1592	0.11504	0.24827	0.5018	0.014447	0.012343	0.4457	0.24067	0.10392	0.26034	0.272	0.18886	0.35673	-2.8167	-2.8229	-2.8167	-3.3833	-2.8625	-2.9854	-3.3625	-2.7625	-3.3625	-3.0833	-2.8771	-3.4021	-2.9458	-2.9479	-3.1271	-2.7271	105.678	-45.385	-95.946	172.892	117.451	38.731	176.365	201.905	48.587	55.517	172.279	187.630	182.201	125.899	92.714	153.371	0.00038799	0.00046953	0.00013198	1345.1	4.3521e-06	3.3626e-06	1335.3	362.15	3.1681e-06	4.9217e-06	411.49	131.59	119.55	40.689	4.7865e-06	50.41	0.00045837	0.00043089	0.00011802	1359.6	4.9671e-06	4.87e-06	1350	367.7	4.86e-06	4.7438e-06	418.94	137.21	121.9	41.557	4.7577e-06	51.59	-84.331	-48.579	-50.263	-132.466	3.001	30.431	-132.502	-127.895	-13.861	5.773	-128.027	-123.735	-123.498	-118.983	31.076	-119.624	-8191	255	
870.095	1	1	0	0	0.24731	0.076085	0.20746	0.25226	0.1292	0.27058	0.16716	0.070433	0.072923	0.020762	0.10486	0.063345	0.018388	0.076536	0.09795	0.21479	-2.7375	-3.1417	-2.7896	-3.3083	-2.8417	-2.9458	-3.2896	-2.8917	-3.2354	-3.0563	-2.775	-3.1167	-2.8583	-3.0479	-3.2354	-2.7458	-76.241	-66.414	-25.539	177.316	-110.535	-121.713	165.250	-142.521	-118.169	107.472	145.549	-11.099	53.272	157.791	172.367	-144.049	0.00038903	0.00053147	0.00011615	1348.9	5.1245e-06	5.641e-06	1340.7	361.61	3.2659e-06	3.2253e-06	413.72	132.44	120.03	40.659	4.6732e-06	50.465	0.00044939	0.00042639	0.00011785	1363.3	5.138e-06	4.5427e-06	1356.3	368.41	5.0612e-06	4.6421e-06	420.54	138.13	122.25	41.715	5.1504e-06	51.683	-85.128	-57.813	-29.790	-132.411	12.153	-6.716	-132.392	-127.815	-19.638	-4.611	-128.378	-124.300	-123.457	-118.683	-1.624	-119.697	-8191	255	
870.189	1	1	0	0	0.10361	0.134	0.23794	0.43121	0.04421	0.15368	0.22465	0.17592	0.13993	0.10877	0.14066	0.098828	0.29965	0.28689	0.068296	0.32016	-2.5938	-3.2229	-2.8521	-3.3229	-2.9958	-3.0312	-3.3646	-2.9479	-3.0854	-3.1375	-2.9417	-3.2771	-3.0667	-2.9354	-3.3979	-2.9188	184.954	-66.515	128.887	186.834	163.464	66.521	160.222	171.132	-112.896	-8.855	-41.015	144.439	112.441	142.013	187.041	205.373	0.0003879	0.00049329	0.00013203	1359.3	3.8846e-06	5.8613e-06	1349.3	364.88	3.3618e-06	4.6326e-06	417.13	133.33	120.59	40.777	4.4482e-06	50.819	0.00047014	0.00046027	0.00013031	1373.7	5.1695e-06	4.9368e-06	1366.5	371.37	5.2933e-06	5.0997e-06	423.64	138.6	123.18	41.872	5.0639e-06	52.032	-84.977	-69.903	-22.910	-132.445	-1.788	-18.110	-132.512	-127.828	2.579	-9.349	-128.422	-124.462	-123.747	-118.985	23.064	-119.526	-8191	255	
870.285	1	1	0	0	0.24156	0.13642	0.35799	0.42088	0.077081	0.25485	0.18634	0.26109	0.24597	0.15804	0.3109	0.041559	0.083832	0.32896	0.062742	0.21464	-2.6167	-3.1625	-2.8396	-3.2313	-2.9688	-2.6667	-3.5896	-3.1146	-3.1104	-3.1813	-2.925	-3.0312	-3.1312	-2.9313	-3.3312	-3.0438	114.877	-114.834	-109.218	127.013	161.913	-20.333	210.329	143.120	-50.668	147.495	127.551	154.232	-1.305	-109.185	-101.718	135.677	0.00038676	0.00054612	0.00019815	1365.3	4.362e-06	5.593e-06	1354.3	366.29	4.3498e-06	4.4163e-06	417.63	133.26	120.54	40.968	5.7913e-06	50.856	0.00046874	0.00046785	0.00012613	1379.3	5.2436e-06	5.0243e-06	1370.4	371.96	5.2725e-06	5.0599e-06	424.77	138.84	123.26	41.992	5.0489e-06	52.021	-85.594	-74.632	-51.716	-132.529	0.652	1.947	-132.511	-127.790	-15.350	11.545	-128.499	-124.086	-123.497	-118.923	17.049	-119.768	-8191	255	
870.382	1	1	0	0	0.18719	0.32329	0.19829	0.16025	0.14778	0.16159	0.17101	0.12875	0.35644	0.18748	0.04193	0.36073	0.24395	0.13348	0.27015	0.11146	-2.6083	-2.9917	-2.6229	-3.4167	-3.0521	-2.6437	-3.4708	-3.0208	-2.8104	-3.3812	-3.0583	-3.0208	-3.1375	-2.9062	-3.4333	-2.9875	-62.027	36.250	85.032	187.217	-16.324	199.030	176.886	166.286	128.911	-101.487	-88.517	42.243	200.972	-94.755	191.646	192.778	0.00037248	0.00053335	0.00010954	1369.8	2.3019e-06	3.5925e-06	1359.1	365.58	3.9915e-06	4.5239e-06	419.9	133.15	121.01	41.009	3.8424e-06	50.766	0.00045171	0.0004705	0.00012756	1384.4	4.9531e-06	5.0601e-06	1375.7	372.88	5.1954e-06	5.1389e-06	425.6	138.84	123.52	42.073	5.2261e-06	52.134	-87.252	-45.676	-38.645	-132.457	-19.865	5.232	-132.511	-127.769	-9.718	8.768	-128.492	-123.757	-123.606	-118.905	-3.509	-119.728	-8191	255	
870.502	1	1	0	0	0.20031	0.22344	0.31627	0.30295	0.13584	0.16896	0.23583	0.26298	0.17425	0.17614	0.38582	0.031964	0.14928	0.32274	0.15011	0.29732	-2.4	-3.3229	-2.7021	-3.1521	-3.2646	-2.8604	-3.2417	-3.0646	-2.9583	-3.2938	-3.0062	-2.9792	-3.2625	-2.8333	-3.0958	-3.1229	-128.366	53.038	31.000	192.175	12.705	-2.949	154.997	132.791	55.008	10.758	-144.105	194.550	-126.031	90.960	-47.754	151.528	0.00039589	0.00049726	0.00016676	1374.1	3.7907e-06	5.8748e-06	1361.8	368.03	4.8975e-06	5.8968e-06	419.47	134.08	121.28	41.187	5.0207e-06	50.945	0.00048898	0.00046988	0.00013216	1387.7	5.1853e-06	5.1263e-06	1378.3	373.41	5.1871e-06	5.0599e-06	425.71	139.49	123.67	42.128	5.1904e-06	52.059	-84.397	-34.296	-53.914	-132.518	-5.114	2.842	-132.373	-128.015	-7.363	9.381	-128.285	-124.161	-123.476	-119.000	7.302	-119.455	-8191	255	
870.574	1	1	0	0	0.086586	0.13446	0.20291	0.31913	0.15492	0.15097	0.084012	0.1129	0.1483	0.2665	0.24437	0.29031	0.2671	0.16878	0.1843	0.27373	-2.425	-3.2979	-2.9375	-3.2062	-3.2604	-2.8583	-3.3771	-3.1	-2.9771	-3.2604	-3.0875	-3.0042	-3.1771	-2.9188	-3.0292	-3.0854	119.897	140.528	107.925	203.470	157.150	-104.785	113.578	142.696	19.781	-134.877	-130.671	-145.100	151.197	97.942	-20.595	83.966	0.0003913	0.00043468	0.00016371	1378.5	4.9009e-06	3.6102e-06	1362.1	368.31	3.9623e-06	5.7354e-06	420.47	134.5	121.3	41.23	5.4132e-06	51.023	0.00047005	0.00047413	0.00013021	1389.8	5.2938e-06	4.9313e-06	1378.8	374.25	5.2381e-06	5.1307e-06	426.08	139.33	123.86	42.092	5.104e-06	52.199	-85.053	-64.698	-31.419	-132.459	12.320	-3.795	-132.546	-127.970	1.815	21.572	-128.346	-123.726	-123.633	-118.895	15.286	-119.599	-8191	255	
870.670	1	1	0	0	0.18364	0.12095	0.15063	0.20413	0.1001	0.15907	0.19826	0.27245	0.19695	0.20449	0.34094	0.0948	0.12843	0.18223	0.20066	0.043595	-2.3854	-3.1688	-2.9	-3.2542	-3.2854	-2.85	-3.325	-3.2313	-2.8812	-3.1896	-3.1792	-2.8208	-3.35	-2.9313	-3.1271	-3.1729	-77.608	-55.833	-92.146	212.732	198.000	-5.455	103.867	-139.757	-10.246	54.999	165.282	176.982	200.249	-86.638	-107.857	210.391	0.00036531	0.00046639	0.00019078	1374.8	4.7096e-06	4.4759e-06	1360.3	368.22	4.8481e-06	5.4117e-06	418.44	133.25	121.15	41.039	3.7114e-06	50.794	0.00047095	0.00046927	0.00013156	1390	5.0773e-06	5.0257e-06	1379.7	374.2	5.2553e-06	4.8792e-06	425.8	139.76	123.56	42.088	5.0132e-06	52.111	-83.271	-49.993	-52.342	-132.539	-5.949	19.349	-132.530	-127.826	9.636	10.414	-128.396	-124.129	-123.646	-119.048	11.123	-119.646	-8191	255	
870.766	1	1	0	0	0.18012	0.23022	0.3046	0.037348	0.20215	0.20012	0.22268	0.29583	0.10297	0.050884	0.097408	0.21748	0.27465	0.035959	0.1213	0.19701	-2.2333	-3.2958	-2.9417	-3.0208	-3.4104	-2.9625	-3.2875	-3.3167	-2.6813	-3.3333	-2.9813	-2.7104	-3.4604	-3.0354	-3.0438	-3.2729	-61.034	-15.416	156.765	94.297	-74.125	-32.651	205.274	106.854	-59.467	58.411	166.548	205.088	212.686	-116.133	-130.170	97.960	0.00039719	0.00057201	0.00016264	1374	3.7157e-06	6.0269e-06	1364	369.25	4.2372e-06	4.5565e-06	418.99	134.47	121.06	41.053	4.3013e-06	51.062	0.000465	0.00046113	0.00013342	1389.1	5.1182e-06	5.1249e-06	1380.5	374.45	5.2096e-06	4.9238e-06	425.67	139.79	123.6	42.134	5.2305e-06	52.13	-84.055	-41.083	-37.068	-132.440	8.478	18.597	-132.375	-127.836	-0.991	13.083	-128.378	-124.509	-123.277	-119.009	6.141	-119.603	-8191	255	
870.887	1	1	0	0	0.015985	0.19214	0.12654	0.2511	0.22056	0.10783	0.12203	0.1247	0.1677	0.20746	0.21392	0.21827	0.068233	0.11968	0.10619	0.25369	-2.3583	-3.1833	-2.9417	-2.9771	-3.3292	-2.8042	-3.1917	-3.2979	-2.7687	-3.2271	-3.1792	-2.7062	-3.1188	-3.0458	-2.9479	-3.2417	33.757	149.270	-61.179	167.954	-72.276	201.265	146.849	168.555	-83.361	75.731	197.213	145.233	-52.912	-94.346	145.837	190.368	0.00039419	0.00046113	0.000143	1380.2	2.935e-06	6.499e-06	1359.9	367.34	3.5185e-06	4.4838e-06	419.28	133.66	121.01	41.145	4.9778e-06	50.943	0.00047674	0.00046311	0.00013106	1392	5.1911e-06	5.2179e-06	1379.1	374.4	5.4458e-06	5.0139e-06	426.16	139.53	123.56	42.117	5.4497e-06	52.117	-84.570	-54.161	-26.816	-132.543	-4.402	18.032	-132.501	-127.891	-3.660	20.350	-128.146	-124.619	-123.556	-118.866	14.376	-119.560	-8191	255	
870.983	1	1	0	0	0.23283	0.0081549	0.12788	0.23246	0.34669	0.23741	0.050003	0.20994	0.31755	0.028503	0.18033	0.088927	0.20082	0.12459	0.075119	0.13312	-2.4208	-3.0083	-3.1667	-2.7958	-3.15	-3.0875	-3.0958	-3.5083	-2.9333	-3.1063	-3.2646	-2.8708	-3.2271	-3.1771	-2.9729	-3.3729	52.402	10.089	136.634	159.625	43.003	-144.657	-94.440	169.022	189.423	179.865	211.524	48.991	-118.886	-16.275	-74.627	198.362	0.00041159	0.00055558	0.00013119	1370.7	6.4458e-06	4.9843e-06	1365	368.45	5.0588e-06	3.8527e-06	418.52	132.48	121.35	41.049	5.026e-06	50.875	0.00049185	0.00048405	0.00013486	1388.2	5.3878e-06	4.9747e-06	1381.3	374.88	5.5099e-06	5.0626e-06	425.72	139.02	123.67	42.046	5.5461e-06	52.13	-83.281	-64.597	-50.897	-132.587	-22.545	20.507	-132.479	-127.856	-1.132	8.844	-128.524	-123.231	-123.445	-118.738	12.283	-119.725	-8191	255	
871.079	1	1	0	0	0.088309	0.19196	0.12041	0.13634	0.1311	0.09469	0.53246	0.17634	0.13086	0.084878	0.085583	0.20097	0.15241	0.20839	0.27914	0.27685	-2.3854	-2.9333	-3.4042	-2.9458	-3.2667	-3.1458	-2.9562	-3.1917	-2.9729	-3.1229	-3.4229	-2.7833	-3.1458	-3.175	-2.7875	-3.4333	-56.426	-115.668	-113.888	132.186	16.091	-83.621	153.550	128.907	50.440	-24.152	160.361	88.529	157.841	111.339	-113.253	180.237	0.00040214	0.00037532	0.0001609	1376.8	4.661e-06	4.9897e-06	1365.4	367.74	2.5242e-06	3.9267e-06	419.52	133.85	122.03	41.135	4.6146e-06	50.915	0.00048343	0.00048842	0.00012787	1391.2	5.1719e-06	5.4343e-06	1382.3	374.48	5.3046e-06	5.0599e-06	425.99	139.15	123.8	42.13	5.3551e-06	52.103	-85.445	-44.816	-49.854	-132.425	0.473	-9.738	-132.403	-127.997	-1.827	22.984	-128.397	-124.168	-123.585	-118.834	11.840	-119.684	-8191	255	
871.175	1	1	0	0	0.11131	0.28905	0.22015	0.46263	0.16305	0.13131	0.20238	0.32554	0.16569	0.23054	0.15883	0.16302	0.22201	0.31708	0.1261	0.095283	-2.4229	-3.1542	-3.2021	-2.9813	-3.2854	-3.0938	-2.9458	-3.3021	-2.9354	-3.0604	-3.4625	-2.85	-3.1688	-3.2229	-2.9021	-3.4562	46.411	-73.770	147.929	192.858	41.359	84.742	119.620	76.192	102.244	-127.577	208.832	-19.651	-122.311	101.241	130.966	175.235	0.00037891	0.00043606	0.00019443	1373.7	5.2285e-06	4.4593e-06	1364.4	368.44	3.5406e-06	5.0995e-06	420.08	133.7	121.62	41.176	3.5334e-06	50.978	0.00047775	0.00050167	0.00012915	1390	5.3189e-06	5.2434e-06	1383.4	374.41	5.4025e-06	5.4289e-06	427	139.74	124.1	42.109	5.4941e-06	52.294	-82.850	-50.588	-38.974	-132.451	-3.884	7.459	-132.546	-127.874	-5.335	19.362	-128.495	-124.343	-123.633	-118.922	-25.110	-119.421	-8191	255	
871.270	1	1	0	0	0.11947	0.28796	0.20156	0.10449	0.22273	0.15447	0.35651	0.25026	0.10155	0.092625	0.31548	0.27462	0.28082	0.29389	0.16991	0.021547	-2.6146	-2.8417	-3.0812	-3.1771	-3.0979	-3.2667	-2.8438	-3.2208	-3.1583	-2.8312	-3.3729	-2.7812	-3.15	-3.2958	-2.7583	-3.3125	184.858	95.803	78.337	84.444	-21.662	-19.909	101.015	157.917	136.095	-126.144	102.096	209.314	133.486	143.869	7.570	-53.663	0.0003791	0.00049306	0.00012034	1379.9	2.6931e-06	3.9288e-06	1367.1	369.08	5.3778e-06	3.8448e-06	420.36	135.37	120.68	41.266	4.6801e-06	51.093	0.00047952	0.00050099	0.00013253	1392.7	5.316e-06	5.4074e-06	1383.8	374.51	5.6132e-06	5.3993e-06	426.67	139.96	123.62	42.221	5.5405e-06	52.243	-85.073	-48.024	-40.377	-132.474	3.014	-8.531	-132.590	-127.883	-5.325	6.429	-128.475	-124.086	-123.525	-119.034	23.062	-119.712	-8191	255	
871.368	1	1	0	0	0.095064	0.16346	0.21039	0.31358	0.32715	0.16171	0.10224	0.13057	0.24187	0.27804	0.13048	0.31255	0.22641	0.10183	0.19681	0.224	-2.5479	-2.8	-3.3167	-3.0646	-3.0875	-3.3667	-3.0667	-3.1896	-3.0167	-2.6771	-3.4896	-3.0187	-3.0208	-3.1146	-2.7667	-3.2625	-114.407	97.048	71.785	209.188	80.706	-62.784	141.607	183.173	-61.742	122.919	-94.517	196.120	133.234	96.926	-76.649	98.789	0.00038787	0.00040723	0.00012558	1373.8	4.1469e-06	3.3566e-06	1368.7	368.46	3.5158e-06	4.1092e-06	420.01	132.72	121.49	41.196	4.3951e-06	50.95	0.00049221	0.00051473	0.00013706	1393	5.5114e-06	5.3812e-06	1383.3	374.79	5.5794e-06	5.6694e-06	426.18	139.24	123.87	42.2	5.3983e-06	52.196	-82.362	-68.993	-40.641	-132.577	6.627	10.800	-132.609	-127.939	8.796	17.307	-128.345	-123.818	-123.286	-119.083	10.056	-119.558	-8191	255	
871.486	1	1	0	0	0.20519	0.11658	0.18963	0.27303	0.2406	0.059348	0.13807	0.40261	0.14001	0.15854	0.19246	0.18441	0.18793	0.13325	0.24745	0.19237	-2.8333	-2.7646	-3.1729	-3.1958	-2.9583	-3.3917	-3.2354	-3.0896	-3.2854	-2.8646	-3.3396	-2.8833	-2.9354	-3.4667	-2.7521	-3.3583	61.458	128.498	162.716	150.551	56.908	-99.953	122.683	162.010	197.028	-30.376	21.593	155.324	-40.280	203.826	-12.129	174.344	0.00039244	0.00057332	0.00012127	1377	4.3916e-06	5.6877e-06	1368.7	369.55	4.6287e-06	4.3296e-06	419.58	134.91	120.97	41.226	4.326e-06	50.832	0.00048107	0.00051054	0.00013301	1393.8	5.5622e-06	5.2283e-06	1384.4	375.18	5.5111e-06	5.5209e-06	426.39	140.4	123.67	42.165	5.6707e-06	52.128	-85.453	-55.470	-35.597	-132.465	-10.151	-7.121	-132.508	-127.840	-11.118	9.233	-128.431	-123.859	-123.583	-118.865	26.590	-119.858	-8191	255	
871.583	1	1	0	0	0.20867	0.30294	0.19724	0.066031	0.057879	0.14534	0.33622	0.19767	0.13346	0.2369	0.35049	0.1519	0.23281	0.18832	0.1696	0.074358	-2.7104	-2.675	-3.1521	-3.3021	-2.9188	-3.3125	-3.0042	-3.1333	-3.1813	-2.8021	-3.3958	-2.975	-2.8688	-3.3146	-2.7958	-3.2292	-94.320	185.833	154.991	210.228	44.839	-120.030	161.820	87.758	-4.256	3.073	176.437	-131.766	54.860	48.831	-1.493	178.536	0.00037947	0.00035439	0.00020312	1376.9	4.9951e-06	4.7154e-06	1366.4	369	3.1124e-06	5.5203e-06	419.69	134.84	121.72	41.018	4.24e-06	50.939	0.00047686	0.00049354	0.00013793	1391.5	5.4619e-06	5.3082e-06	1382.6	374.9	5.3687e-06	5.4632e-06	426.43	139.93	124	42.16	5.5355e-06	52.166	-84.263	-63.388	-41.555	-132.395	7.236	-6.695	-132.552	-127.988	20.803	-2.925	-128.407	-124.067	-123.585	-118.811	17.357	-119.631	-8191	255	
871.679	1	1	0	0	0.18668	0.16756	0.24914	0.19161	0.12787	0.19221	0.18392	0.1111	0.071661	0.20552	0.18889	0.022643	0.11229	0.20787	0.096647	0.31986	-2.8292	-2.6417	-3.2125	-3.2542	-2.825	-3.2188	-3.0771	-3.0708	-3.3479	-2.8563	-3.1813	-2.9896	-2.8312	-3.3521	-2.9042	-3.05	-111.297	-135.761	-79.968	146.775	130.911	12.091	177.358	165.220	39.134	145.902	-109.913	-126.465	-119.322	-140.009	33.728	94.963	0.00037061	0.00046331	0.00018899	1375.8	4.056e-06	4.2301e-06	1365.5	368.97	4.3831e-06	4.4709e-06	420.2	133.82	121.95	41.161	4.9862e-06	50.982	0.00047202	0.000509	0.00014056	1392.7	5.7466e-06	5.3406e-06	1382.1	374.99	5.3443e-06	5.5656e-06	426.9	139.6	124.09	42.224	5.6025e-06	52.215	-84.402	-48.886	-62.235	-132.583	17.647	2.905	-132.525	-128.036	4.104	0.191	-128.538	-123.828	-123.502	-118.886	1.753	-119.525	-8191	255	
871.775	1	1	0	0	0.041088	0.19158	0.17066	0.33129	0.10937	0.20688	0.17129	0.20263	0.45517	0.10695	0.08991	0.034489	0.12395	0.25194	0.049668	0.084123	-2.8458	-2.7938	-2.9458	-3.2	-2.9833	-3.35	-3.2396	-3.0687	-3.3646	-2.8458	-3.2458	-3.1146	-2.8792	-3.3	-3.0646	-3.0375	-57.050	-36.345	7.108	200.067	81.263	145.798	188.603	203.574	205.907	96.967	-143.434	-18.533	103.203	-70.835	13.030	-88.382	0.00041099	0.00047963	0.00018546	1377.2	4.5671e-06	5.146e-06	1371.8	368.38	4.5757e-06	5.508e-06	421.45	133.03	121.71	41.137	4.9999e-06	50.984	0.00048612	0.00050425	0.00013588	1394.9	5.6048e-06	5.0298e-06	1385.4	374.99	5.5355e-06	5.4873e-06	427.47	139.48	123.9	42.23	5.295e-06	52.175	-84.055	-59.284	-41.159	-132.540	-14.413	14.924	-132.498	-128.042	-4.886	9.376	-128.322	-124.236	-123.430	-118.896	1.242	-119.749	-8191	255	
871.871	1	1	0	0	0.057384	0.056655	0.14818	0.31922	0.21404	0.15751	0.24995	0.34783	0.18427	0.22192	0.28843	0.15576	0.0713	0.28093	0.32985	0.3282	-3.0167	-2.7479	-3.0479	-3.2875	-2.6667	-3.1417	-3.1813	-3.0417	-3.275	-2.9375	-3.1583	-3.2083	-2.8187	-3.2125	-3.1646	-2.8521	2.265	-132.266	-31.105	142.802	100.646	109.917	127.071	175.774	-127.806	-5.852	78.685	-23.227	122.341	107.424	-144.676	153.982	0.00041107	0.00051438	0.00013998	1379.9	2.3031e-06	6.3922e-06	1368.3	368.03	3.2892e-06	4.8117e-06	420.7	136.51	121.53	41.237	2.6901e-06	50.914	0.00047534	0.00050173	0.00013557	1394.2	5.6223e-06	5.3916e-06	1384.5	374.82	5.4542e-06	5.6254e-06	427.28	141.03	124.05	42.219	5.419e-06	52.198	-85.657	-63.950	-55.735	-132.355	-7.613	15.629	-132.600	-127.937	3.786	-9.337	-128.279	-124.574	-123.665	-118.959	1.588	-119.642	-8191	255	
871.967	1	1	0	0	0.1619	0.2373	0.074458	0.45654	0.11478	0.2076	0.54862	0.17805	0.090391	0.18327	0.13944	0.087344	0.28165	0.20092	0.035574	0.09439	-2.9417	-2.9146	-3.1208	-3.5333	-3.0083	-3.2958	-3.375	-3.0854	-3.2812	-3.1104	-3.2167	-3.1792	-2.6833	-3.2354	-3.0812	-2.9896	45.505	76.657	-128.260	185.416	10.191	-42.225	122.070	-132.919	208.787	-51.726	171.484	47.169	209.872	197.813	104.159	157.071	0.00038724	0.00040473	0.00011566	1378.6	3.3325e-06	5.2276e-06	1363.7	368.14	3.9464e-06	4.1887e-06	420.2	135.07	121.23	41.033	3.4353e-06	50.913	0.00046906	0.00046397	0.00013462	1394.1	5.3778e-06	5.2799e-06	1383.7	374.87	5.4488e-06	5.3533e-06	426.91	140.14	123.71	42.083	5.6018e-06	52.185	-85.882	-69.037	-46.627	-132.597	-14.032	12.035	-132.421	-127.942	-7.282	24.671	-128.233	-123.998	-123.326	-119.135	0.759	-119.718	-8191	255	
872.063	1	1	0	0	0.16509	0.24712	0.048735	0.25774	0.36826	0.14175	0.15933	0.51815	0.17658	0.32592	0.2679	0.026101	0.091684	0.26988	0.088743	0.12683	-2.75	-2.9104	-2.8771	-3.4979	-2.8167	-3.1229	-3.3688	-2.9208	-3.2938	-3.0708	-2.9688	-3.3125	-2.9667	-3.2146	-3.0167	-2.9229	159.733	-62.876	-67.433	160.803	-55.817	-49.357	134.802	148.035	-29.300	-14.713	159.899	21.378	-137.116	164.285	-63.989	180.188	0.0004006	0.00047433	0.000176	1380.6	3.9129e-06	5.1705e-06	1371.3	367.99	4.1862e-06	3.5086e-06	418.99	133.69	121.46	41.133	4.7762e-06	51.274	0.00049012	0.00051017	0.00014739	1395.3	5.8061e-06	5.816e-06	1388.3	375.35	6.0317e-06	5.8686e-06	425.97	139.47	123.88	42.155	6.2725e-06	52.303	-83.541	-67.464	-44.413	-132.577	6.206	-2.900	-132.503	-128.089	-7.576	25.266	-128.493	-124.569	-123.458	-119.114	26.546	-119.520	-8191	255	
872.160	1	1	0	0	0.09372	0.070874	0.050827	0.22015	0.10032	0.14813	0.19091	0.038194	0.29882	0.13867	0.13301	0.13706	0.15965	0.045683	0.17091	0.24275	-2.7104	-3.0396	-2.8292	-3.3708	-2.8229	-3.1937	-3.3375	-2.8563	-2.9979	-3.1562	-2.9813	-3.3563	-2.8417	-3.1021	-3.3271	-2.8688	4.513	-66.574	-51.867	201.564	1.915	18.186	154.558	-108.374	-122.770	11.801	134.344	-53.579	-114.112	123.311	92.533	-141.034	0.00041383	0.00049282	0.00015587	1386.1	3.1905e-06	7.2652e-06	1371.5	369.36	5.3146e-06	4.1355e-06	421.82	135.94	121.28	41.258	3.7641e-06	51.231	0.00052365	0.00058008	0.00016864	1399.7	6.5168e-06	6.4134e-06	1389.5	375.89	6.392e-06	6.4465e-06	428.01	140.27	124.23	42.279	6.3257e-06	52.392	-84.070	-71.646	-40.992	-132.525	12.471	9.801	-132.720	-128.159	-11.987	-0.878	-128.531	-124.523	-123.576	-119.082	24.239	-119.755	-8191	255	
872.278	1	1	0	0	0.3718	0.044261	0.20864	0.2789	0.1918	0.079462	0.13431	0.2823	0.16447	0.07944	0.38411	0.24561	0.32388	0.11698	0.27598	0.25485	-2.6688	-3.1063	-2.8521	-3.5583	-2.9792	-2.9604	-3.3917	-2.85	-3.1521	-3.2583	-2.8229	-3.0792	-3.0604	-3.0667	-3.4125	-3.0417	81.300	-27.292	-107.610	168.816	94.484	-35.375	143.214	104.046	-95.571	22.256	193.042	-25.148	189.308	110.532	148.612	-123.569	0.00043061	0.00041507	0.00017514	1388.3	5.2638e-06	3.338e-06	1373.6	369.31	3.8397e-06	4.9905e-06	419.77	133.56	121.94	41.186	4.5416e-06	50.816	0.00051006	0.00052236	0.00014902	1401.6	5.8586e-06	5.5314e-06	1390.4	375.82	5.6014e-06	5.5017e-06	426.85	139.91	124.05	42.169	5.6607e-06	52.205	-84.149	-61.136	-49.138	-132.599	-16.233	-7.644	-132.461	-127.893	-26.186	8.905	-128.407	-123.524	-123.640	-118.945	17.312	-119.638	-8191	255	
872.375	1	1	0	0	0.0090711	0.26264	0.15233	0.17263	0.34551	0.38013	0.28311	0.09137	0.18972	0.17931	0.16514	0.11269	0.36771	0.20546	0.1098	0.11683	-2.8688	-3.1271	-2.8292	-3.3708	-2.8625	-2.8354	-3.4854	-3.1063	-3.1833	-3.4437	-3.0104	-3.2875	-3.1583	-2.85	-3.2604	-2.8792	-98.112	47.693	99.937	193.439	109.829	22.146	172.212	196.507	105.451	186.435	121.259	143.261	198.918	213.543	-31.300	150.701	0.00037519	0.00058732	0.00016587	1379.6	3.016e-06	4.0575e-06	1370.2	368.22	3.5412e-06	5.7788e-06	419.77	132.78	120.94	41.035	5.1314e-06	51.154	0.00048585	0.00051041	0.0001477	1397.9	5.7413e-06	5.6307e-06	1385.1	375.29	5.777e-06	5.7092e-06	427.5	139.34	123.86	42.16	5.846e-06	52.268	-86.249	-51.598	-48.050	-132.622	9.049	-3.619	-132.558	-128.088	-4.165	-6.843	-128.540	-124.129	-123.586	-119.055	5.869	-119.840	-8191	255	
872.448	1	1	0	0	0.15216	0.16024	0.13605	0.22137	0.22943	0.22022	0.19736	0.35161	0.2159	0.23633	0.27517	0.027905	0.14878	0.17718	0.063325	0.27037	-2.6562	-3.2625	-2.7083	-3.3396	-3.0729	-2.9708	-3.4292	-2.9375	-3.125	-3.2271	-2.9271	-2.9896	-3.1125	-2.8312	-3.2854	-3.0333	-9.820	100.250	203.606	206.556	59.647	180.852	212.458	183.414	103.396	-98.619	166.621	99.663	-139.919	110.740	-27.722	-123.243	0.00037349	0.00046109	0.00015868	1382.2	2.1908e-06	7.5509e-06	1371.3	369.71	3.1602e-06	4.9706e-06	421.18	134.23	121.58	41.207	6.9336e-06	50.88	0.00051117	0.00053721	0.0001582	1398.3	6.0442e-06	6.1137e-06	1387.7	375.83	6.202e-06	5.9868e-06	427.59	140.19	123.94	42.199	6.0076e-06	52.215	-82.305	-71.908	-30.016	-132.425	23.849	5.578	-132.471	-127.872	-7.080	-7.882	-128.511	-124.351	-123.468	-118.859	14.572	-119.556	-8191	255	
872.567	1	1	0	0	0.30966	0.11677	0.21788	0.14109	0.07437	0.22216	0.25731	0.44354	0.05072	0.21464	0.032146	0.061129	0.26464	0.18519	0.084133	0.34476	-2.525	-3.2979	-2.7292	-3.3896	-3.2542	-2.8521	-3.5667	-3.075	-2.8417	-3.3271	-2.8187	-3.1063	-3.1958	-2.8812	-3.1604	-3.0583	6.375	127.182	155.786	166.518	175.112	36.230	158.451	138.525	203.453	183.156	-108.974	49.954	-143.999	-102.733	181.493	160.000	0.00042709	0.00050567	0.00016323	1384.2	5.3656e-06	5.5453e-06	1370.8	367.21	4.8395e-06	3.48e-06	419.86	134.52	121.25	41.172	4.1845e-06	50.884	0.00052117	0.00056542	0.00015894	1398.7	6.3808e-06	6.2818e-06	1389.5	374.95	6.2062e-06	6.3255e-06	426.89	140.01	123.77	42.137	6.0445e-06	52.119	-82.145	-67.737	-57.521	-132.518	-8.709	8.911	-132.591	-127.667	-1.882	-10.172	-128.267	-123.640	-123.420	-118.989	10.584	-119.619	-8191	255	
872.663	1	1	0	0	0.096271	0.2632	0.12605	0.2307	0.35717	0.13494	0.20698	0.21659	0.067785	0.1262	0.2571	0.2177	0.1514	0.09887	0.25141	0.22001	-2.5687	-3.3042	-2.75	-3.3937	-3.2354	-2.8146	-3.5229	-3.1417	-2.9708	-3.3333	-3.1021	-3.0187	-3.3667	-2.9042	-2.9708	-3.1708	48.534	108.380	124.999	163.631	164.922	53.099	86.357	90.603	-87.864	-91.950	143.506	-89.969	-127.297	-125.251	25.621	-79.705	0.00037725	0.00033705	0.00015472	1382.1	3.9227e-06	5.835e-06	1363.9	368.8	4.226e-06	5.7143e-06	420.19	133.3	121.25	41.149	4.5882e-06	50.971	0.00051003	0.00055587	0.00015228	1396.9	6.0068e-06	6.0489e-06	1384.4	375.49	6.1189e-06	5.8391e-06	426.35	139.25	123.84	42.207	5.8961e-06	52.161	-85.164	-62.036	-23.609	-132.534	-3.989	-11.830	-132.390	-127.997	-22.199	5.675	-128.537	-123.716	-123.706	-119.046	27.572	-119.468	-8191	255	
872.759	1	1	0	0	0.25812	0.046457	0.16074	0.22716	0.12959	0.15893	0.22679	0.17178	0.14974	0.093071	0.2816	0.26692	0.03596	0.080302	0.064424	0.17615	-2.4417	-3.0646	-2.9896	-3.1083	-2.9792	-2.8312	-3.2479	-3.1875	-2.7479	-3.2146	-2.9104	-3.1125	-3.4313	-2.9271	-3.1063	-3.2188	200.547	-14.880	200.863	-124.690	-127.274	20.961	133.924	194.171	194.559	141.987	142.823	194.699	209.889	104.558	187.495	-15.656	0.00040353	0.00058636	0.00015659	1384.2	4.5689e-06	4.3527e-06	1369.8	368.64	4.2616e-06	5.75e-06	420.13	135.13	120.87	41.219	4.271e-06	50.883	0.00050983	0.00055643	0.00015697	1399.5	5.9205e-06	6.2273e-06	1387.5	375.25	6.4412e-06	5.9765e-06	426.93	139.7	123.63	42.153	6.1666e-06	52.175	-84.736	-57.709	-55.330	-132.574	-11.125	-2.019	-132.381	-127.883	-13.913	0.984	-128.339	-123.370	-123.651	-118.832	-4.423	-119.694	-8191	255	
872.855	1	1	0	0	0.36414	0.035449	0.12132	0.24454	0.15629	0.12302	0.19379	0.15425	0.20178	0.25085	0.26459	0.4305	0.34728	0.10537	0.13967	0.090402	-2.4396	-3.1521	-2.7062	-3.2229	-3.2979	-2.8438	-3.5083	-3.1833	-2.8875	-3.1083	-3.1583	-2.8937	-3.4688	-2.8083	-2.9875	-3.2625	45.643	-143.566	183.400	-130.037	122.963	19.701	-137.746	71.198	132.701	34.600	172.769	64.588	199.229	-103.337	188.589	-72.889	0.00039866	0.00038435	0.00018073	1383.5	6.7385e-06	6.4269e-06	1368.8	368.85	4.1286e-06	3.7533e-06	420.74	133.82	121.48	41.071	3.763e-06	51.127	0.00051278	0.00054891	0.00015431	1396.8	5.924e-06	5.9765e-06	1386.2	375.1	6.0329e-06	5.9552e-06	427.14	139.78	123.9	42.133	6.0145e-06	52.158	-85.703	-64.719	-45.672	-132.647	-5.300	-0.518	-132.556	-127.812	-3.080	-8.357	-128.341	-124.120	-123.245	-119.012	24.866	-119.722	-8191	255	
872.976	1	1	0	0	0.12823	0.12214	0.30795	0.28632	0.12826	0.080352	0.30074	0.16869	0.43658	0.16318	0.072393	0.16817	0.13169	0.10722	0.027699	0.38277	-2.4333	-3.2583	-2.8625	-2.9208	-3.4542	-2.825	-3.3667	-3.3271	-2.8583	-3.1771	-3.1229	-2.9833	-3.3063	-2.95	-2.8063	-3.2771	-115.069	166.283	-104.017	-133.664	65.113	-60.338	140.004	-132.360	20.877	-134.296	163.501	-116.124	-61.385	-138.412	17.034	168.293	0.00037112	0.0006876	0.00013097	1386.2	5.2007e-06	6.1124e-06	1372	368.14	6.3133e-06	2.5539e-06	419.77	133.07	121.36	41.127	5.0466e-06	50.919	0.00051305	0.00056142	0.00014855	1400.1	6.0955e-06	5.9366e-06	1387.4	374.85	6.0471e-06	5.8604e-06	427.08	139.69	123.66	42.177	6.1134e-06	52.123	-82.763	-56.701	-51.128	-132.622	-8.225	2.118	-132.429	-127.899	2.800	-14.954	-128.463	-124.700	-123.701	-118.998	6.431	-119.778	-8191	255	
873.072	1	1	0	0	0.11028	0.11155	0.057616	0.13503	0.16111	0.3327	0.40524	0.10606	0.22545	0.35157	0.33392	0.0095964	0.11694	0.12377	0.23368	0.34063	-2.3792	-3.0375	-3.0354	-3.1458	-3.325	-2.9583	-3.3167	-3.4333	-2.875	-3.0708	-3.4437	-2.7792	-3.3937	-3.1292	-3.1292	-3.4062	3.208	199.435	197.492	-137.300	-21.635	-91.041	146.511	-114.781	129.321	110.491	125.358	-121.046	-117.477	178.918	114.287	129.477	0.00039725	0.0005664	0.00015374	1380.4	3.6714e-06	5.7598e-06	1371.7	368.55	4.2319e-06	4.8458e-06	420.75	134.16	121.17	41.185	6.2841e-06	50.977	0.0005129	0.00057947	0.00015498	1398.1	6.0337e-06	6.2122e-06	1386.6	374.85	5.8607e-06	6.0246e-06	426.64	139.54	123.66	42.186	6.0677e-06	52.175	-84.469	-52.171	-30.256	-132.386	-3.344	6.780	-132.572	-128.051	-2.578	0.870	-128.402	-123.873	-123.436	-118.864	2.670	-119.526	-8191	255	
873.168	1	1	0	0	0.20382	0.24215	0.17515	0.23239	0.17214	0.08219	0.34384	0.33391	0.058414	0.067543	0.27891	0.39979	0.25467	0.13018	0.16139	0.13067	-2.3167	-3.1458	-3.0479	-2.8542	-3.1792	-3.1125	-2.9771	-3.3125	-2.8708	-3.1562	-3.1771	-2.8354	-3.2979	-3.1354	-2.8417	-3.3792	43.264	-79.214	-141.758	104.358	161.171	14.189	159.354	-108.755	212.505	-48.130	189.215	-94.924	167.770	212.512	189.295	119.841	0.00038288	0.00067552	0.0001206	1379.2	4.0875e-06	5.0271e-06	1370.3	368.62	3.8911e-06	5.7578e-06	421.03	133.84	121.34	41.034	4.8987e-06	51.028	0.00051684	0.00055809	0.00015067	1396.4	5.9636e-06	6.1943e-06	1385.7	375.06	5.9688e-06	6.0342e-06	427.28	139.72	123.68	42.053	5.9763e-06	52.178	-85.566	-63.278	-64.179	-132.468	-10.614	-3.989	-132.777	-127.764	-16.677	16.209	-128.368	-124.277	-123.713	-118.887	5.642	-119.746	-8191	255	
873.264	1	1	0	0	0.12263	0.11115	0.11398	0.1092	0.26643	0.12418	0.19392	0.36449	0.042184	0.16453	0.15641	0.15401	0.25194	0.081496	0.17135	0.22801	-2.5542	-3.1	-3.1937	-3.15	-3.1437	-3.0187	-3.0708	-3.4292	-2.8396	-3.0687	-3.3667	-2.8229	-3.225	-3.3458	-2.8187	-3.2583	-126.557	-27.194	153.401	142.615	39.688	-24.997	129.577	163.642	64.787	-64.970	123.626	42.244	-138.009	-140.089	-63.001	116.465	0.00039173	0.00061823	0.0001669	1384.3	3.4365e-06	5.7862e-06	1374.7	368.83	4.8965e-06	4.5544e-06	421.12	133.87	121.48	41.202	4.938e-06	50.824	0.00051407	0.00057017	0.00014924	1396.3	5.8755e-06	5.9614e-06	1386.9	375.04	5.9242e-06	5.9518e-06	426.65	139.81	123.64	42.151	6.3282e-06	52.078	-81.782	-70.877	-24.716	-132.339	9.376	0.081	-132.651	-127.782	-5.332	-0.321	-128.366	-124.374	-123.441	-118.842	5.411	-119.643	-8191	255	
873.359	1	1	0	0	0.055207	0.35089	0.12245	0.41784	0.28302	0.053781	0.59762	0.073265	0.21237	0.11139	0.16313	0.20833	0.18323	0.056906	0.13523	0.11419	-2.4729	-3.0396	-3.3521	-3.0896	-3.2542	-3.25	-3.0021	-3.4479	-2.7729	-2.9271	-3.6542	-2.8458	-3.1854	-3.275	-2.9021	-3.4542	-65.637	-100.537	110.587	192.408	-111.386	80.165	166.411	175.653	115.353	210.333	143.644	56.001	2.388	124.403	7.719	-51.694	0.00040067	0.00046453	0.00014977	1384.8	5.054e-06	5.4171e-06	1371.2	368.09	5.1541e-06	5.0854e-06	419.27	134.59	121.73	40.929	2.9436e-06	50.917	0.0005115	0.00055612	0.00014896	1397.5	5.9181e-06	6.1364e-06	1386.8	374.97	6.0394e-06	5.9511e-06	426.02	140.15	123.76	42.072	6.0815e-06	52.135	-84.350	-77.393	-42.834	-132.485	18.887	15.169	-132.521	-127.964	-20.636	3.476	-128.386	-123.769	-123.606	-119.033	18.423	-119.729	-8191	255	
873.455	1	1	0	0	0.14529	0.31675	0.06403	0.35086	0.11094	0.18122	0.076087	0.044211	0.2658	0.1823	0.029745	0.15555	0.1602	0.048743	0.13866	0.13404	-2.5812	-2.9917	-3.3167	-3.1771	-3.1875	-3.3167	-3.0667	-3.4021	-3.1771	-2.9854	-3.4354	-3.0021	-3.0646	-3.2229	-2.6937	-3.2042	-85.917	-80.419	61.960	195.843	37.912	62.733	-69.665	-66.155	117.919	-101.242	107.356	82.155	166.310	100.027	-93.469	110.168	0.00039756	0.00055367	0.00012408	1379	4.8275e-06	6.5926e-06	1370.6	369.26	5.2193e-06	4.4062e-06	420.7	134.03	121.37	41.105	5.5606e-06	50.845	0.00050588	0.00054805	0.0001485	1398.1	5.9438e-06	5.816e-06	1387	375.41	6.17e-06	5.9421e-06	426.98	140.31	123.76	42.198	5.8748e-06	52.155	-84.949	-64.070	-54.597	-132.476	5.944	8.599	-132.602	-127.938	-15.238	11.478	-128.645	-123.876	-123.467	-118.759	-0.855	-119.658	-8191	255	
873.576	1	1	0	0	0.097071	0.024297	0.15683	0.24552	0.32282	0.097259	0.10181	0.23539	0.11218	0.044177	0.32773	0.055131	0.12726	0.12228	0.14524	0.05548	-2.65	-2.875	-3.3	-3.0917	-2.9729	-3.3625	-3.0958	-3.2583	-3.0958	-2.8083	-3.4333	-2.9021	-3.0292	-3.5042	-2.7771	-3.3521	-69.505	-29.607	207.202	128.678	-87.818	82.659	121.318	170.343	-34.485	-32.107	-98.021	32.413	-16.623	-83.663	-54.917	65.464	0.00039167	0.00048429	9.541e-05	1381.6	4.6199e-06	4.3976e-06	1375.4	368.42	4.1123e-06	4.7667e-06	417.89	135.71	121.4	41.214	4.2632e-06	50.982	0.00050564	0.000547	0.00014445	1399.1	5.8709e-06	5.9311e-06	1389	375.59	5.796e-06	5.8288e-06	426.43	140.17	123.92	42.226	6.0521e-06	52.181	-87.678	-46.357	-61.708	-132.540	16.805	21.212	-132.434	-127.805	3.531	7.428	-128.252	-123.614	-123.662	-118.857	16.276	-119.643	-8191	255	
873.672	1	1	0	0	0.1336	0.14961	0.19183	0.29229	0.13644	0.22512	0.20937	0.14058	0.22034	0.25251	0.063115	0.24107	0.18437	0.093168	0.061474	0.13154	-2.6875	-2.8063	-3.1896	-3.1813	-3.0438	-3.4333	-3.025	-3.2542	-3.1813	-2.975	-3.5271	-3.0792	-2.9208	-3.3667	-3.0042	-3.2625	77.739	206.058	-97.897	208.448	-9.591	-96.081	120.931	-15.615	99.597	90.864	88.621	-97.901	105.272	199.246	177.603	154.376	0.00039202	0.00031582	0.00018347	1385.1	3.8332e-06	5.196e-06	1370.9	368.24	4.6525e-06	6.2298e-06	421.88	134.5	121.29	41.149	4.9199e-06	51.015	0.0005034	0.00055581	0.00014809	1398.6	6.0266e-06	5.8374e-06	1389.3	375.45	6.0038e-06	6.1167e-06	427.49	139.94	123.78	42.13	6.0082e-06	52.193	-86.402	-48.261	-34.845	-132.550	2.861	12.605	-132.457	-127.873	-8.238	1.850	-128.378	-124.442	-123.362	-118.855	5.759	-119.889	-8191	255	
873.743	1	1	0	0	0.10193	0.2073	0.066624	0.3265	0.093468	0.091721	0.26803	0.16533	0.13758	0.18998	0.28499	0.065101	0.18972	0.184	0.18679	0.40692	-2.8104	-2.8979	-3.3479	-3.4125	-2.95	-3.4042	-3.2687	-3.1979	-3.2854	-3.0146	-3.3792	-3.0938	-2.7833	-3.3375	-2.9604	-3.2125	95.031	-13.341	-48.051	189.708	-60.109	-108.369	108.721	105.938	-60.633	-138.575	140.873	-4.978	65.778	134.009	190.395	-144.282	0.00039834	0.00047324	0.00012632	1383.3	5.4181e-06	4.7923e-06	1366.8	367.99	4.5018e-06	4.4654e-06	419.14	135.24	121.57	41.133	4.4841e-06	50.897	0.00050054	0.00053703	0.00014408	1398.5	5.9175e-06	5.7657e-06	1385.4	375.04	5.8204e-06	5.9215e-06	426.24	139.98	123.91	42.134	5.8567e-06	52.054	-85.565	-52.195	-53.573	-132.593	8.654	5.066	-132.344	-128.019	-9.577	15.319	-128.308	-124.390	-123.574	-118.815	-4.859	-119.507	-8191	255	
873.840	1	1	0	0	0.073424	0.18223	0.16509	0.28718	0.17259	0.072437	0.16233	0.14081	0.20437	0.24685	0.094595	0.042715	0.10814	0.19738	0.15356	0.25531	-2.8104	-2.9688	-3.1729	-3.3812	-2.9229	-3.3146	-3.0708	-3.0917	-3.4729	-2.9604	-3.3688	-3.1312	-2.8625	-3.3375	-3.1604	-2.8958	33.708	-139.172	129.101	199.269	198.559	72.863	103.815	22.282	90.410	180.671	-96.922	-88.240	148.136	-138.802	84.740	93.502	0.00036856	0.00045271	0.00014819	1382.8	3.4677e-06	4.7128e-06	1369.2	368.4	5.3416e-06	4.1351e-06	420.64	132.73	121.29	41.114	4.3686e-06	50.748	0.00048737	0.00053216	0.00014603	1396.8	5.7472e-06	5.661e-06	1384.3	374.63	5.8227e-06	5.9311e-06	426.63	139.13	123.93	42.098	5.9951e-06	52.051	-84.067	-70.372	-55.426	-132.528	10.286	41.918	-132.634	-127.856	10.005	6.550	-128.352	-123.539	-123.607	-118.969	19.516	-119.666	-8191	255	
873.960	1	1	0	0	0.21051	0.20587	0.30055	0.096916	0.26102	0.11208	0.3305	0.059744	0.14969	0.16241	0.38471	0.085516	0.040222	0.12264	0.11382	0.22939	-2.8729	-2.6604	-3.0396	-3.3187	-2.6083	-3.2833	-3.1583	-3.0062	-3.2104	-3.0708	-3.075	-3.2646	-3.075	-3.4375	-2.9667	-3.1729	42.281	161.852	-50.524	72.693	35.175	-81.255	95.901	83.753	-18.988	-2.995	99.239	40.956	186.799	189.865	-90.595	162.792	0.00038034	0.00048593	0.00019177	1382.6	2.7832e-06	6.9745e-06	1370.6	369.07	3.6342e-06	4.9231e-06	418.47	132.58	120.79	41.004	3.3518e-06	50.816	0.00049268	0.00054448	0.00014522	1396.4	6.0103e-06	5.776e-06	1385.7	374.79	5.6773e-06	5.8769e-06	426.12	139.45	123.52	42.099	5.712e-06	52.101	-83.340	-61.515	-27.428	-132.537	-1.120	17.666	-132.585	-127.980	-10.944	-0.230	-128.240	-123.708	-123.502	-118.886	-3.038	-119.757	-8191	255	
874.056	1	1	0	0	0.15649	0.17666	0.22563	0.21332	0.11819	0.1822	0.18982	0.16222	0.11483	0.19964	0.10308	0.064284	0.36704	0.16236	0.10108	0.15639	-2.7604	-2.9729	-2.9646	-3.4125	-2.8146	-3.2667	-3.325	-3.0083	-3.1917	-3.0083	-3.1583	-3.1979	-2.8875	-3.3083	-3.1375	-3.1083	-81.580	-9.073	44.607	140.956	-78.766	94.284	154.502	163.216	-115.151	90.452	178.897	-137.456	145.438	-107.477	85.382	197.194	0.00040812	0.00071465	0.00013476	1382.4	4.438e-06	5.2814e-06	1371.7	368.08	5.2281e-06	4.8365e-06	418.42	133.68	120.65	41.046	3.0518e-06	51.048	0.00049588	0.00053413	0.00014613	1395.6	5.9841e-06	5.7099e-06	1385.8	374.93	5.6904e-06	5.7257e-06	426.27	139.5	123.59	42.037	5.7296e-06	52.179	-83.907	-47.754	-54.606	-132.526	12.256	15.678	-132.471	-128.059	-11.451	17.494	-127.996	-123.676	-123.671	-118.834	0.894	-119.847	-8191	255	
874.152	1	1	0	0	0.19696	0.12559	0.13218	0.15912	0.10296	0.13754	0.065332	0.12936	0.05314	0.049863	0.21687	0.1887	0.181	0.0592	0.10181	0.080044	-2.8292	-2.9771	-2.8583	-3.5292	-2.9146	-3.2958	-3.3688	-2.7542	-3.1833	-3.0042	-3.1708	-3.2854	-2.9896	-3.3021	-3.2542	-2.9708	153.581	-25.510	76.931	84.511	-43.563	-21.816	-51.148	106.150	-60.126	-96.653	183.273	-139.655	213.527	53.831	124.845	64.140	0.00041102	0.00035126	0.00016733	1378	4.6989e-06	4.7377e-06	1369	369.51	4.693e-06	4.4821e-06	418.49	134	121.47	41.148	4.3974e-06	50.782	0.00049872	0.00051627	0.00014898	1395.9	5.938e-06	5.7567e-06	1385.1	375.09	5.8768e-06	5.7814e-06	426.24	139.59	123.7	42.113	5.8849e-06	52.078	-83.821	-52.179	-60.740	-132.525	2.314	8.319	-132.753	-127.671	-7.894	-5.726	-128.323	-123.912	-123.637	-118.767	25.219	-119.593	-8191	255	
874.249	1	1	0	0	0.1082	0.15236	0.13956	0.32429	0.17587	0.070775	0.26156	0.26843	0.14375	0.056017	0.10371	0.078942	0.012686	0.19776	0.11978	0.081037	-2.8354	-2.9646	-2.8875	-3.5	-2.8771	-3.0958	-3.3688	-2.9104	-3.2583	-3.2583	-3.0875	-3.2083	-3.1167	-3.0708	-3.2458	-3.0604	31.622	-31.194	-15.637	-127.237	166.053	195.371	138.143	118.610	-51.614	59.120	-142.500	177.846	-133.641	173.772	-10.572	-123.251	0.00037907	0.00058093	0.00014819	1383.3	3.6711e-06	4.0074e-06	1369	369.23	5.5115e-06	4.9828e-06	419.63	134.21	122	41.182	3.3957e-06	50.833	0.00050702	0.00056764	0.00015981	1399	6.1883e-06	6.587e-06	1386.7	375.44	6.5926e-06	6.5056e-06	427.21	140.05	124.16	42.12	6.5035e-06	52.126	-88.139	-55.504	-30.962	-132.358	0.560	-24.703	-132.487	-127.973	-4.827	16.991	-128.351	-123.581	-123.455	-118.898	30.321	-119.562	-8191	255	
874.343	1	1	0	0	0.27813	0.10586	0.076876	0.24085	0.24111	0.19209	0.065805	0.11598	0.12561	0.14337	0.30808	0.022615	0.26597	0.086299	0.18422	0.25309	-2.7542	-3.025	-2.8667	-3.3833	-3.0271	-3.0542	-3.3708	-3.1083	-3.325	-3.0812	-2.9625	-3.2188	-2.8854	-2.9792	-3.2792	-3.0042	-20.602	47.789	0.784	179.037	-72.828	194.061	95.077	126.642	-8.517	-138.062	185.081	51.863	160.285	-50.694	146.252	144.635	0.00038947	0.00056717	0.00017119	1387.3	4.6855e-06	4.6587e-06	1373.1	369.31	4.7712e-06	4.6056e-06	419.92	134.9	122.04	41.289	3.8303e-06	51.125	0.00054196	0.0006269	0.00017474	1401	6.9479e-06	6.791e-06	1389	376.1	6.3528e-06	6.5516e-06	427.66	140.59	124.07	42.162	6.0765e-06	52.302	-84.322	-53.710	-30.434	-132.474	14.513	15.512	-132.678	-128.036	-2.510	2.147	-128.376	-123.980	-123.523	-118.920	-14.753	-119.586	-8191	255	
874.439	1	1	0	0	0.24331	0.21519	0.030157	0.23061	0.24474	0.040211	0.053286	0.10487	0.2064	0.052568	0.13588	0.36191	0.10107	0.3038	0.12371	0.01235	-2.7687	-3.1792	-2.8063	-3.55	-3.0896	-2.975	-3.3812	-3.0812	-3.125	-3.2792	-3.1021	-3.1479	-3.175	-2.9521	-3.2542	-3.1437	-74.264	-117.297	14.241	141.322	-26.348	97.398	7.920	-141.162	101.016	-30.912	201.516	123.332	185.358	169.867	-93.767	166.702	0.00040511	0.00056087	0.00017065	1384.7	4.4976e-06	5.2843e-06	1374.2	368.13	4.9336e-06	4.7454e-06	421.66	135.79	121.24	41.148	5.2101e-06	50.92	0.00051619	0.00055551	0.0001518	1400.1	5.9374e-06	5.8146e-06	1390.5	375.64	6.0192e-06	5.8858e-06	428.04	140.29	123.71	42.195	6.0157e-06	52.147	-84.075	-41.746	-42.898	-132.523	0.366	-11.920	-132.424	-127.824	10.062	0.503	-128.287	-124.471	-123.692	-118.866	5.706	-119.820	-8191	255	
874.537	1	1	0	0	0.11352	0.1773	0.1427	0.33412	0.18232	0.18309	0.20869	0.25988	0.12334	0.17279	0.12606	0.20941	0.052309	0.1126	0.23472	0.14362	-2.7062	-2.9437	-2.8125	-3.4604	-3.0875	-2.9	-3.6083	-3.1208	-3.0646	-3.5333	-2.8979	-3.2479	-3.1958	-3.0042	-3.3875	-3.1875	211.857	-28.526	118.644	146.382	-26.863	36.349	183.383	158.720	179.986	-23.644	80.013	117.905	-132.798	153.128	38.006	150.486	0.00041307	0.00044328	0.00012995	1386.6	4.9344e-06	5.6165e-06	1372.3	369.99	5.6596e-06	3.5293e-06	421.79	135.95	121.87	41.214	2.9671e-06	51.079	0.00051263	0.00053148	0.00014919	1401.5	5.9543e-06	5.6754e-06	1390.9	375.91	5.907e-06	5.6116e-06	428.12	140.46	123.86	42.184	5.5705e-06	52.312	-83.795	-53.806	-41.520	-132.647	10.860	2.752	-132.541	-127.807	18.395	3.364	-128.338	-124.135	-123.383	-119.101	16.130	-119.708	-8191	255	
874.656	1	1	0	0	0.074394	0.11402	0.24372	0.30627	0.20856	0.18713	0.34593	0.33709	0.025882	0.19863	0.34923	0.010654	0.14099	0.1601	0.056659	0.12856	-2.45	-3.1813	-2.6958	-3.3771	-3.2438	-2.6792	-3.4708	-3.2083	-2.9854	-3.325	-2.9896	-3.2333	-3.1854	-2.95	-3.4188	-3.2854	203.927	33.265	213.198	186.034	69.870	42.715	118.852	173.345	194.468	-106.842	204.781	11.147	-99.475	-128.550	30.657	185.683	0.00041573	0.00044815	0.00015254	1387.7	3.9213e-06	4.6969e-06	1379	369.83	4.2215e-06	5.2212e-06	419.74	134.07	121.67	41.189	3.6688e-06	51.232	0.00049209	0.00048892	0.00014422	1401.8	5.6865e-06	5.5418e-06	1392.6	375.96	5.8079e-06	5.6432e-06	427.26	140.31	124.16	42.223	5.8285e-06	52.274	-84.574	-63.210	-36.333	-132.476	-3.325	4.818	-132.523	-127.910	-4.823	9.628	-128.426	-124.507	-123.575	-118.976	9.939	-119.667	-8191	255	
874.752	1	1	0	0	0.14544	0.12069	0.15045	0.20756	0.17669	0.046611	0.2064	0.32499	0.20473	0.16047	0.04922	0.00087307	0.075809	0.085394	0.088538	0.073083	-2.5062	-3.1813	-2.8042	-3.2667	-3.2938	-2.9813	-3.4792	-3.1833	-2.9667	-3.3208	-3.0583	-3.1292	-3.2958	-2.9688	-3.3479	-3.2896	130.479	185.806	149.376	105.637	-120.404	-32.257	178.674	205.982	-79.577	21.711	139.721	180.000	-123.988	-44.157	-68.074	70.115	0.00039083	0.00048283	0.0001425	1388.1	5.1509e-06	5.4816e-06	1371.9	370.4	2.9828e-06	5.5917e-06	419.47	133.56	121.75	41.384	3.2909e-06	51.063	0.00049639	0.00051707	0.00015199	1403	5.917e-06	6.0151e-06	1390.5	376.11	6.2151e-06	5.9792e-06	426.95	139.69	124.02	42.231	6.0364e-06	52.221	-81.936	-60.081	-51.353	-132.503	-1.279	10.204	-132.483	-127.921	-24.525	20.027	-128.303	-123.191	-123.554	-118.897	-0.430	-119.681	-8191	255	
874.848	1	1	0	0	0.16236	0.28283	0.27084	0.19117	0.19916	0.14702	0.14368	0.11268	0.19083	0.28483	0.42457	0.11162	0.044717	0.20612	0.11609	0.20088	-2.6292	-3.3187	-3.0687	-3.3021	-3.2271	-2.8771	-3.2	-3.1437	-2.9062	-3.2438	-3.0146	-2.9792	-3.4813	-2.9396	-3.1063	-3.1688	110.402	97.444	-86.757	169.634	6.866	2.584	189.638	171.622	85.116	33.678	199.538	-26.503	-20.545	-113.405	174.456	160.442	0.00038325	0.00038055	0.00017643	1386.5	5.1e-06	5.2572e-06	1373.1	370.04	4.341e-06	5.0664e-06	420.62	134.76	121.84	41.179	3.5877e-06	51.184	0.00050803	0.00052859	0.00015569	1401.5	5.7933e-06	6.1178e-06	1390.2	376.19	5.875e-06	5.9002e-06	427.46	140.02	124	42.191	5.7941e-06	52.209	-85.311	-52.566	-41.163	-132.611	0.180	9.718	-132.530	-128.004	-17.014	7.507	-128.282	-124.243	-123.524	-118.775	-6.063	-119.666	-8191	255	
874.969	1	1	0	0	0.093266	0.32132	0.16063	0.104	0.053847	0.34623	0.088726	0.42555	0.16878	0.072721	0.1291	0.28325	0.052669	0.094567	0.16905	0.36808	-2.5167	-3.2917	-3.1	-3.1271	-3.2854	-2.8708	-3.1354	-3.2021	-2.8479	-3.2896	-3.0979	-2.9417	-3.3583	-3.05	-3.2438	-3.1792	97.007	198.127	142.823	-140.641	197.535	24.072	56.351	138.121	141.290	12.932	151.499	-16.043	-116.934	-88.359	21.571	156.765	0.00040314	0.00046533	0.00014287	1389.5	5.206e-06	6.7181e-06	1377	369.66	4.0178e-06	4.3813e-06	419.88	133.65	120.98	41.014	4.3453e-06	50.943	0.00051009	0.00053222	0.00014912	1402	5.8184e-06	6.0324e-06	1391.8	375.79	5.9237e-06	5.7051e-06	427.54	139.9	123.71	42.111	5.7571e-06	52.061	-83.798	-58.527	-29.843	-132.513	11.835	5.083	-132.565	-128.106	-11.107	-13.511	-128.434	-124.062	-123.455	-118.893	-24.839	-119.644	-8191	255	
875.041	1	1	0	0	0.24851	0.199	0.12643	0.24321	0.16398	0.1955	0.17409	0.10954	0.13963	0.30188	0.291	0.15409	0.31596	0.29124	0.21692	0.14137	-2.3604	-3.0667	-3.0938	-3.0563	-3.5458	-2.8667	-3.4708	-3.3833	-3.0292	-3.3312	-3.225	-2.9104	-3.4604	-2.8896	-3.1708	-3.2979	9.810	97.964	98.028	208.342	24.347	92.208	119.923	13.863	34.165	208.470	197.563	68.730	-97.512	-136.176	-133.973	149.072	0.00038207	0.00045256	0.00014855	1387.1	4.213e-06	4.061e-06	1370.8	368.6	4.9803e-06	4.1234e-06	421.6	133.5	121.3	40.992	2.6548e-06	50.726	0.00049289	0.00053505	0.00014471	1400.2	5.7057e-06	5.8642e-06	1389.6	375.48	6.0358e-06	5.5216e-06	427.43	139.65	123.79	42.103	5.7433e-06	52.018	-85.011	-59.590	-47.453	-132.553	6.543	-2.135	-132.415	-127.907	-2.265	2.183	-128.402	-124.124	-123.819	-119.051	13.543	-119.986	-8191	255	
875.137	1	1	0	0	0.17995	0.14467	0.21835	0.24397	0.18535	0.074638	0.17195	0.053169	0.1537	0.16324	0.16541	0.13729	0.14706	0.27428	0.22659	0.34864	-2.2938	-3.225	-2.9875	-3.0104	-3.2917	-2.9417	-3.2646	-3.4188	-2.8833	-3.3646	-3.1354	-2.7292	-3.4146	-3.1813	-3.1021	-3.3812	104.471	-89.205	-99.244	189.023	185.927	-77.030	137.331	-44.920	193.947	-104.477	166.057	-94.451	-95.880	185.209	-113.496	154.370	0.00039916	0.0005596	0.00011597	1382.6	5.3167e-06	6.816e-06	1370.1	369.17	3.8325e-06	3.7334e-06	420.06	134.78	121.59	41.086	3.6496e-06	51.058	0.00049624	0.0005138	0.0001444	1398.2	5.8195e-06	5.8167e-06	1386.7	375.43	5.7011e-06	5.4625e-06	426.4	139.5	123.7	42.046	5.6206e-06	52.123	-85.697	-77.257	-49.650	-132.375	7.220	-0.167	-132.657	-127.827	4.174	22.253	-128.384	-123.650	-123.489	-118.810	31.022	-119.451	-8191	255	
875.257	1	1	0	0	0.012832	0.14733	0.11994	0.2666	0.16342	0.074932	0.064688	0.21315	0.11004	0.38154	0.10807	0.22553	0.28599	0.29868	0.11208	0.088465	-2.4979	-3.1188	-3.0292	-2.9271	-3.4333	-3.0979	-3.2542	-3.4396	-2.975	-3.0583	-3.1521	-2.9396	-3.325	-3.2062	-2.9604	-3.4396	179.535	167.926	94.215	210.419	78.306	164.864	191.519	-13.873	111.251	121.668	134.409	-84.793	164.970	193.890	-23.742	184.407	0.00038362	0.00042529	0.00017214	1377	4.0217e-06	4.5418e-06	1369.6	367.79	3.3785e-06	2.5729e-06	419.48	135.15	121	40.899	4.2765e-06	50.909	0.0004825	0.00047801	0.00013756	1394.6	5.4671e-06	5.0836e-06	1386.4	374.45	5.5396e-06	5.1554e-06	425.84	139.7	123.36	42.017	5.4778e-06	51.97	-84.680	-61.313	-30.421	-132.580	8.852	13.608	-132.252	-127.970	7.456	8.624	-128.215	-124.116	-123.403	-118.817	20.125	-119.765	-8191	255	
875.352	1	1	0	0	0.13686	0.024377	0.2687	0.1757	0.23334	0.31971	0.35697	0.36867	0.038116	0.15528	0.16782	0.16666	0.015557	0.096493	0.099631	0.043169	-2.5333	-3.2167	-3.1229	-2.9875	-3.2375	-3.0812	-3.1333	-3.3542	-2.9229	-3.1708	-3.4042	-2.8396	-3.2917	-3.0271	-2.925	-3.4188	45.766	118.952	89.359	190.276	-68.820	158.674	151.677	142.884	-51.184	114.725	18.882	82.582	-79.457	-103.919	-22.704	101.526	0.00040196	0.00043034	0.00016495	1382.6	5.0622e-06	5.1742e-06	1368.1	368.8	4.1743e-06	5.5367e-06	420.64	134.68	121.36	41.004	4.1319e-06	50.734	0.00048522	0.00050777	0.00013923	1396.4	5.3609e-06	5.1187e-06	1384.4	374.5	5.539e-06	5.657e-06	426.13	140.13	123.57	42.027	5.5311e-06	52.043	-83.279	-41.809	-49.642	-132.463	-10.094	6.867	-132.390	-127.771	9.723	22.389	-128.364	-123.664	-123.386	-118.839	12.350	-119.705	-8191	255	
875.448	1	1	0	0	0.18596	0.19852	0.21176	0.216	0.31478	0.1071	0.073537	0.1605	0.0071944	0.11175	0.26016	0.16814	0.065988	0.19195	0.27985	0.16627	-2.375	-3.1667	-3.0708	-2.9562	-3.2292	-3.1333	-3.1083	-3.4375	-3.0229	-2.9854	-3.3563	-2.7042	-3.0687	-3.0667	-2.9125	-3.4104	-33.044	-76.197	-17.884	-127.278	-111.285	87.996	161.982	159.570	87.406	211.963	-132.218	-62.293	186.356	145.662	68.294	-126.587	0.00037795	0.00043429	0.00015439	1379.5	4.3607e-06	5.2137e-06	1369.3	368.62	4.1916e-06	5.5297e-06	420.09	133.43	121.52	41.071	4.7465e-06	50.911	0.00049979	0.00051017	0.00013624	1396.5	5.6999e-06	5.486e-06	1386.3	374.91	5.7664e-06	5.6536e-06	426.2	139.95	123.77	42.104	5.635e-06	52.164	-84.931	-70.171	-43.894	-132.433	2.359	17.158	-132.375	-127.953	13.765	9.055	-128.291	-124.016	-123.611	-119.096	29.552	-119.439	-8191	255	
875.544	1	1	0	0	0.054855	0.19145	0.15411	0.36812	0.060608	0.15039	0.32089	0.26568	0.014731	0.10665	0.28236	0.036891	0.11706	0.47428	0.15693	0.093187	-2.8021	-2.9917	-3.2021	-3.0604	-3.1458	-3.2146	-2.95	-3.2917	-2.9583	-2.7812	-3.45	-2.8854	-3.1188	-3.1688	-2.8271	-3.2146	-140.777	-117.830	179.445	156.262	-27.264	-64.227	165.955	155.024	-41.147	-101.183	155.030	51.672	204.595	152.625	-107.378	74.780	0.00040316	0.00038001	0.00013151	1380.3	4.1865e-06	5.4461e-06	1366	367.69	3.6002e-06	4.1154e-06	418.92	133.46	121.23	41.022	4.2154e-06	50.917	0.00048364	0.00049477	0.00013725	1395.7	5.6807e-06	5.4274e-06	1384.8	374.83	5.6399e-06	5.3608e-06	426.41	139.39	123.56	42.088	5.6525e-06	52.191	-84.923	-53.145	-28.258	-132.493	-11.874	-9.886	-132.404	-127.973	-0.534	3.731	-128.456	-123.712	-123.263	-118.997	17.947	-119.426	-8191	255	
875.640	1	1	0	0	0.098859	0.22554	0.048217	0.044608	0.039928	0.20441	0.12555	0.10484	0.062879	0.062362	0.13864	0.1452	0.088041	0.17297	0.29228	0.08002	-2.7354	-2.8021	-3.2292	-3.0542	-3.0604	-3.2062	-3.0458	-3.2208	-3.0958	-2.7125	-3.3104	-2.9021	-3.125	-3.2292	-2.8396	-3.2938	-98.376	127.677	210.620	129.994	-96.809	12.842	97.946	153.589	152.944	-97.700	174.150	16.267	192.472	208.901	-96.179	166.671	0.00038835	0.00042908	0.00018701	1380.3	3.1675e-06	5.2183e-06	1369.7	369.57	4.3182e-06	5.4488e-06	420.59	133.89	121.27	41.057	3.1614e-06	51.043	0.00048835	0.00051503	0.00013691	1396.7	5.6124e-06	5.2496e-06	1385.7	375.49	5.4447e-06	5.7477e-06	427.06	139.13	123.46	42.006	5.6876e-06	52.185	-84.865	-64.268	-38.678	-132.613	-13.007	20.489	-132.482	-127.882	-12.128	11.083	-128.267	-123.922	-123.507	-118.884	3.696	-119.648	-8191	255	
875.736	1	1	0	0	0.068273	0.30997	0.1918	0.16904	0.022061	0.05901	0.12175	0.13144	0.064453	0.19389	0.16565	0.17562	0.10558	0.11407	0.12661	0.091601	-2.6688	-2.7687	-3.2667	-3.3104	-2.7062	-3.2896	-2.9917	-3.2854	-3.1188	-2.9375	-3.3688	-3.1042	-2.8729	-3.4708	-2.8104	-3.1104	-108.514	-110.281	5.900	157.569	185.341	194.927	131.924	-117.603	-60.726	184.809	148.118	-69.330	-24.250	156.679	140.207	163.649	0.00039595	0.0004508	0.00012977	1378.9	4.2785e-06	4.3799e-06	1367.8	368.76	4.5884e-06	4.1887e-06	421.56	133.75	120.98	41.228	5.8643e-06	50.697	0.00048128	0.00049816	0.00013472	1395.8	5.7407e-06	5.3289e-06	1384.9	374.83	5.5462e-06	5.49e-06	426.86	139.06	123.52	42.055	5.7646e-06	52.049	-84.516	-61.903	-36.235	-132.502	-8.287	16.205	-132.526	-127.895	3.318	12.704	-128.441	-124.110	-123.325	-119.057	12.832	-119.537	-8191	255	
875.832	1	1	0	0	0.053267	0.25149	0.21015	0.32895	0.14617	0.14067	0.047578	0.20758	0.23656	0.19368	0.16417	0.21048	0.15694	0.066529	0.11531	0.17767	-2.7979	-2.7958	-3.1333	-3.1896	-2.9062	-3.2687	-3.075	-3.2354	-3.0479	-2.7125	-3.4292	-3.2	-3.1083	-3.4188	-2.9958	-3.1729	63.006	-89.336	95.857	201.540	14.340	-27.008	152.224	154.962	-57.038	-16.776	-137.445	-22.784	-61.010	-127.817	71.159	169.128	0.00037314	0.0005028	0.00015386	1379.1	3.417e-06	6.0296e-06	1366.5	369.96	5.0537e-06	3.6186e-06	418.86	134.97	121.33	41.155	4.5361e-06	50.968	0.00048635	0.00050388	0.00013585	1397.2	5.5651e-06	5.7085e-06	1384.9	375.41	5.4915e-06	5.6604e-06	426.26	139.91	123.54	42.083	5.6657e-06	52.141	-85.142	-61.284	-34.704	-132.561	-3.415	7.239	-132.428	-127.808	-9.194	18.330	-128.340	-124.120	-123.597	-118.742	21.394	-119.684	-8191	255	
875.929	1	1	0	0	0.25526	0.18796	0.079615	0.26314	0.23123	0.20455	0.28057	0.22569	0.02033	0.077466	0.13225	0.15323	0.10531	0.15225	0.082813	0.15567	-2.6875	-2.9354	-3.1875	-3.2979	-2.95	-3.2375	-3.1562	-3.2479	-3.2896	-2.7521	-3.2792	-3.0812	-2.8021	-3.3146	-2.9646	-3.1188	-54.303	-126.477	143.132	151.624	24.290	20.362	133.168	117.117	-87.934	-15.034	123.814	-62.377	142.363	174.287	-145.098	173.798	0.00040255	0.00051227	0.00017863	1380.9	3.6284e-06	5.1993e-06	1371.1	368.99	4.5297e-06	5.3701e-06	419.24	133.17	121.65	41.149	3.2628e-06	50.974	0.00047928	0.00052489	0.00013923	1396.7	5.6742e-06	5.5411e-06	1387.8	375.11	5.4915e-06	5.7525e-06	426.34	139.32	123.92	42.12	5.5574e-06	52.156	-82.284	-72.515	-18.561	-132.666	11.203	10.411	-132.649	-127.509	11.402	23.088	-128.338	-123.485	-123.491	-119.066	18.351	-119.601	-8191	255	
876.049	1	1	0	0	0.2087	0.10993	0.16903	0.27024	0.33054	0.1561	0.2115	0.28827	0.23237	0.11406	0.11603	0.054083	0.19101	0.23601	0.06258	0.059737	-2.9729	-2.7708	-3.0042	-3.475	-2.875	-3.2146	-3.2333	-2.925	-3.2979	-2.8833	-3.2313	-3.2292	-2.8917	-3.5	-3.2104	-3.0438	8.388	54.516	183.121	120.428	69.939	-134.673	145.425	-112.569	-106.271	92.976	13.455	-21.533	-28.501	-140.016	175.670	213.475	0.00038113	0.00039011	0.00010051	1379.7	4.7172e-06	5.106e-06	1373	369.81	5.2129e-06	5.6078e-06	420.45	133.82	121.8	41.27	2.8031e-06	50.99	0.00050033	0.00051725	0.00013692	1397.4	5.7991e-06	5.7209e-06	1389.8	375.39	5.5865e-06	5.714e-06	427.13	139.71	124.16	42.218	5.6463e-06	52.266	-83.354	-51.801	-40.185	-132.378	-6.438	16.981	-132.464	-128.055	-1.116	8.363	-128.205	-123.947	-123.368	-118.947	18.315	-119.709	-8191	255	
876.145	1	1	0	0	0.16159	0.28319	0.043646	0.26677	0.24088	0.093061	0.18929	0.032754	0.031674	0.14293	0.16384	0.12434	0.2502	0.095147	0.15845	0.20009	-2.8896	-3.0146	-3.1208	-3.5167	-2.95	-3.4062	-3.2708	-3.0104	-3.45	-2.9792	-3.075	-3.3458	-2.9625	-3.2833	-3.075	-3.0479	-16.451	-4.791	18.604	149.493	43.778	181.116	125.635	33.651	-20.181	95.209	187.750	200.937	155.495	-16.418	131.056	165.041	0.00039684	0.00070391	0.00016897	1383.5	4.5234e-06	4.4824e-06	1372.5	369.76	4.5904e-06	3.6205e-06	421.25	134.69	121.74	41.303	3.7402e-06	50.947	0.00050284	0.00053752	0.0001402	1400.9	5.7577e-06	5.4729e-06	1389.9	376.3	5.5378e-06	5.5072e-06	427.46	140.12	124.1	42.249	5.8141e-06	52.269	-83.875	-59.592	-43.675	-132.612	15.553	-9.828	-132.616	-127.798	-7.893	6.301	-128.185	-124.157	-123.413	-119.169	-3.602	-119.529	-8191	255	
876.240	1	1	0	0	0.1258	0.08202	0.28766	0.1633	0.094385	0.069191	0.12195	0.23386	0.20662	0.041112	0.29828	0.23279	0.12072	0.45024	0.12614	0.17329	-2.8333	-3.0687	-2.8542	-3.4958	-2.8625	-3.2271	-3.3	-3.0771	-3.2354	-2.9979	-3.0792	-3.2354	-2.975	-3.2021	-3.1854	-2.8	41.876	-127.820	82.155	148.940	-3.299	-119.325	-82.879	-6.336	128.252	94.908	-117.293	113.878	-23.785	-104.202	190.375	210.058	0.00039049	0.00037197	0.00013311	1385.7	4.6625e-06	5.4175e-06	1374.3	369.79	4.1223e-06	5.9084e-06	421.49	134.69	121.07	41.239	3.9661e-06	50.939	0.00048958	0.00051553	0.00014227	1399.7	5.7291e-06	5.5624e-06	1390.2	376.48	5.3633e-06	5.6529e-06	427.93	140.06	124	42.223	5.4334e-06	52.178	-85.257	-57.087	-37.851	-132.394	5.745	25.248	-132.424	-127.903	-25.294	-2.627	-128.373	-124.008	-123.574	-119.041	-6.069	-119.532	-8191	255	
876.338	1	1	0	0	0.13431	0.10918	0.12344	0.23122	0.26553	0.11488	0.14496	0.14187	0.059036	0.30699	0.15088	0.14208	0.13975	0.24803	0.16564	0.095711	-2.8083	-2.9417	-2.8187	-3.5146	-3.0604	-3.2375	-3.3417	-2.9729	-3.2792	-3.0187	-3.1083	-3.2042	-2.9729	-3.275	-3.2604	-2.8958	-69.425	72.459	-36.902	167.356	43.348	-20.258	138.274	54.341	-16.760	19.128	175.831	-58.448	150.438	183.010	-102.488	-64.907	0.00038432	0.00049463	0.00011009	1390.4	3.7278e-06	5.6395e-06	1374.4	369.03	3.6951e-06	5.6251e-06	420.34	134.54	121.8	41.106	4.2397e-06	50.809	0.00048994	0.00051657	0.00014516	1402.8	5.6912e-06	5.4825e-06	1391.1	375.83	5.726e-06	5.9504e-06	427.35	140.13	124.23	42.22	5.5398e-06	52.073	-87.737	-51.102	-47.625	-132.620	-29.781	10.018	-132.587	-127.906	-3.383	-0.547	-128.292	-123.992	-123.647	-118.920	-1.986	-119.716	-8191	255	
876.432	1	1	0	0	0.092159	0.16432	0.1495	0.25156	0.16525	0.19218	0.13516	0.1893	0.098525	0.20841	0.058533	0.12924	0.14508	0.023657	0.096245	0.13294	-2.8083	-3.0812	-2.8563	-3.5292	-3.0896	-3.1	-3.425	-2.9583	-3.1937	-3.1063	-2.7417	-3.2771	-2.8417	-3.1	-3.2625	-2.7896	207.632	136.972	17.574	192.567	177.071	-28.346	-133.829	166.253	-96.188	-103.249	29.729	-131.461	186.020	28.633	88.303	170.208	0.00040667	0.00035592	0.00014711	1389.9	5.2578e-06	5.5546e-06	1376.5	368.62	5.465e-06	5.6224e-06	419.84	134.1	121.72	41.112	4.2073e-06	50.847	0.00048743	0.00051269	0.00014809	1403.9	5.844e-06	5.8146e-06	1392.4	375.98	5.6435e-06	5.8219e-06	427.61	140.15	124.16	42.212	5.7433e-06	52.167	-86.729	-87.625	-56.242	-132.553	-8.532	10.377	-132.357	-127.833	-16.576	12.366	-128.304	-124.085	-123.448	-119.058	8.173	-119.565	-8191	255	
876.528	1	1	0	0	0.043168	0.15778	0.11419	0.1092	0.1668	0.14111	0.25618	0.14312	0.24606	0.1546	0.15041	0.058487	0.18335	0.11888	0.069822	0.22258	-2.8417	-2.8937	-2.7667	-3.3312	-3.1104	-3.0021	-3.4875	-3.0229	-3.2833	-3.3021	-2.8167	-3.2375	-3.1396	-2.975	-3.3875	-2.7854	-110.953	201.433	-102.592	95.470	43.060	170.405	114.820	194.554	19.210	93.886	90.555	115.663	-116.393	166.438	51.941	124.698	0.00038653	0.00048235	0.00015731	1386.7	5.4432e-06	5.8354e-06	1376.8	370.25	5.495e-06	5.6911e-06	422.79	134.68	121.77	41.053	3.9895e-06	50.951	0.00050248	0.00052723	0.00015124	1402	5.9911e-06	5.8932e-06	1393.5	376.27	5.6441e-06	5.558e-06	428.07	140.49	124.22	42.159	5.9644e-06	52.239	-86.035	-46.689	-52.963	-132.384	1.367	14.869	-132.382	-128.150	-21.743	5.770	-128.417	-124.014	-123.583	-119.062	6.930	-119.619	-8191	255	
876.649	1	1	0	0	0.15341	0.10643	0.082435	0.49619	0.12623	0.23334	0.10437	0.053596	0.19284	0.17016	0.23216	0.11698	0.038541	0.32413	0.19858	0.019463	-2.7708	-3.3104	-2.6854	-3.3729	-3.0125	-2.7583	-3.5208	-2.8625	-2.8688	-3.2125	-2.8417	-3.1417	-3.2	-2.8937	-3.4437	-3.125	155.148	151.770	-130.717	160.460	61.294	-121.021	176.946	-32.405	34.749	-101.023	122.863	187.824	154.374	-124.554	-18.059	75.333	0.00038631	0.0003321	0.00013158	1386.2	5.5034e-06	4.0887e-06	1374.9	370.19	4.6444e-06	3.4607e-06	420.65	134.61	121.74	41.085	3.7196e-06	50.981	0.00049301	0.00052471	0.00015009	1402.7	6.0803e-06	6.0062e-06	1392.8	376.21	5.8305e-06	5.7188e-06	427.98	140.15	124.24	42.212	5.7684e-06	52.233	-83.969	-43.227	-34.612	-132.570	-0.712	24.663	-132.540	-127.857	-5.076	9.090	-128.491	-124.550	-123.461	-118.966	-3.169	-119.635	-8191	255	
876.745	1	1	0	0	0.10273	0.30389	0.11991	0.16906	0.16925	0.18375	0.25295	0.14745	0.097929	0.15182	0.26096	0.29327	0.15798	0.10937	0.17422	0.25753	-2.675	-3.3979	-2.8208	-3.4813	-3.1562	-2.8042	-3.4021	-3.0208	-2.8729	-3.3208	-3.0187	-3.2188	-3.125	-3.0208	-3.2042	-3.0792	135.071	2.592	181.914	204.673	83.722	103.982	134.570	164.123	180.191	103.055	184.943	154.938	202.183	154.199	-105.530	137.382	0.00038637	0.00056999	0.00014118	1385.8	4.6106e-06	6.3885e-06	1378	369.35	4.5929e-06	4.483e-06	422.16	135.19	121.88	41.111	4.725e-06	51.132	0.00051111	0.00055187	0.0001484	1402.8	5.8516e-06	5.9421e-06	1393.2	375.87	5.9023e-06	5.4845e-06	428.29	140.08	124.39	42.216	5.5054e-06	52.372	-85.727	-60.144	-38.751	-132.377	6.487	-6.770	-132.460	-127.885	-6.540	-6.367	-128.159	-124.130	-123.185	-118.844	-3.239	-119.550	-8191	255	
876.841	1	1	0	0	0.46924	0.16116	0.061393	0.34239	0.14565	0.23443	0.27721	0.27168	0.34637	0.19426	0.22979	0.3305	0.13718	0.42139	0.16429	0.1263	-2.5396	-3.1562	-2.6958	-3.4083	-3.3542	-2.9083	-3.4938	-3.1083	-3.075	-3.4125	-2.9875	-3.0938	-3.3229	-2.7729	-3.1667	-3.0521	-116.221	143.050	-132.455	194.566	205.028	69.841	159.107	89.604	148.611	-121.662	184.968	159.299	-54.567	154.955	-41.182	150.948	0.00041152	0.0004258	0.00013156	1386.2	5.1681e-06	4.4736e-06	1375.4	370.89	4.086e-06	4.6781e-06	420.85	134.35	121.7	41.168	4.1613e-06	51.142	0.00050332	0.0005297	0.00014416	1403.9	5.8569e-06	5.8105e-06	1392.3	376.9	5.6672e-06	5.457e-06	428.09	140.39	124.2	42.247	5.6569e-06	52.285	-82.900	-59.584	-65.437	-132.488	-15.931	40.058	-132.616	-127.633	-3.606	5.230	-128.228	-124.755	-123.586	-118.762	14.550	-119.623	-8191	255	
876.937	1	1	0	0	0.23829	0.23234	0.17472	0.40064	0.15994	0.099917	0.17889	0.25092	0.11824	0.059793	0.14235	0.21601	0.14804	0.15984	0.037611	0.05328	-2.6312	-3.2854	-2.7667	-3.2229	-3.175	-2.9021	-3.3229	-3.0833	-2.8	-3.2646	-2.8292	-3.0125	-3.275	-2.7083	-3.2146	-3.1479	-39.567	-86.848	200.744	199.855	123.850	-145.366	123.085	156.842	-96.506	-134.678	-113.876	158.048	128.991	176.307	46.706	174.307	0.00040614	0.00062623	0.00018959	1388.4	5.2645e-06	4.0787e-06	1374.2	370.12	4.0079e-06	4.4437e-06	422.85	134.68	121.43	41.301	5.9408e-06	50.97	0.00049579	0.00051374	0.00015007	1404.4	5.6812e-06	6.0186e-06	1390.9	376.48	5.9628e-06	5.4859e-06	428.41	139.94	124.19	42.322	5.7039e-06	52.313	-82.858	-54.820	-49.651	-132.402	13.912	26.084	-132.483	-127.859	2.675	-6.914	-128.496	-124.306	-123.740	-118.968	4.471	-119.614	-8191	255	
877.033	1	1	0	0	0.2262	0.12632	0.19114	0.26479	0.05224	0.10348	0.36601	0.28894	0.086839	0.25799	0.10162	0.20764	0.38505	0.12342	0.082998	0.38595	-2.3771	-3.1437	-2.7646	-3.1063	-3.3063	-3.0187	-3.5479	-3.1417	-2.725	-3.2687	-3.0479	-3.0479	-3.3667	-2.9833	-3.0854	-3.3146	4.009	55.731	-44.839	174.068	180.571	-47.042	187.098	136.231	129.786	123.799	79.112	48.136	-131.268	-68.479	171.493	133.711	0.00040308	0.00054671	0.0001658	1386.7	5.3079e-06	4.957e-06	1371	370.03	4.4753e-06	4.2738e-06	419.45	133.25	121.49	41.382	5.1316e-06	51.181	0.0005092	0.00051682	0.00014358	1403.2	5.7524e-06	5.6954e-06	1391.1	376.76	6.0073e-06	5.5044e-06	427.22	139.85	124.1	42.277	5.8022e-06	52.36	-85.724	-47.185	-38.370	-132.580	-9.982	19.967	-132.557	-127.942	-16.815	-14.631	-128.219	-124.022	-123.551	-118.838	5.212	-119.516	-8191	255	
877.130	1	1	0	0	0.088236	0.15282	0.2271	0.1395	0.21102	0.10878	0.11253	0.19297	0.15134	0.14332	0.11697	0.1513	0.18114	0.064123	0.10694	0.15889	-2.3646	-3.2125	-2.9958	-3.2083	-3.325	-2.9417	-3.3937	-3.3	-2.8708	-3.0812	-3.2208	-2.9521	-3.2167	-3.0833	-3.05	-3.3042	-120.895	-86.912	124.718	-132.206	110.796	-46.092	149.707	137.052	-8.648	191.949	-22.607	26.518	-117.232	189.592	-127.347	106.994	0.00039991	0.00055431	0.00013232	1389.1	5.6025e-06	2.9822e-06	1380.4	370.75	4.8397e-06	3.891e-06	421.53	135.61	122.24	41.299	4.8775e-06	51.064	0.00050585	0.00051565	0.0001472	1403.5	5.8866e-06	5.8484e-06	1393.4	376.51	5.9035e-06	5.7649e-06	428.01	140.5	124.47	42.265	5.8905e-06	52.325	-83.164	-38.086	-54.064	-132.446	20.770	6.882	-132.603	-127.678	-5.393	10.810	-128.392	-124.130	-123.560	-118.976	13.062	-119.704	-8191	255	
877.226	1	1	0	0	0.21262	0.12404	0.11122	0.1373	0.19457	0.081538	0.33025	0.076779	0.11928	0.17884	0.35987	0.077764	0.10128	0.16454	0.21427	0.13193	-2.4188	-3.2917	-2.9437	-3.0583	-3.375	-2.9583	-3.2354	-3.4208	-2.8563	-3.0646	-3.2042	-2.725	-3.2958	-3.1375	-3.1271	-3.3854	163.478	28.996	136.026	183.705	91.091	-6.563	189.930	50.921	-35.183	114.372	-43.851	-54.021	96.175	183.019	-120.313	99.657	0.00037989	0.0003726	0.00014554	1391	3.9976e-06	5.3597e-06	1377.4	369.53	5.4291e-06	3.8199e-06	419.95	132.47	121.87	41.179	4.313e-06	50.8	0.00050785	0.0005308	0.00014644	1404.1	5.8843e-06	5.8787e-06	1393.5	376.12	5.8477e-06	5.7264e-06	427.45	139.69	124.27	42.245	5.8629e-06	52.202	-83.092	-54.056	-22.737	-132.405	-15.027	8.775	-132.348	-127.996	11.455	11.753	-128.625	-124.283	-123.591	-118.797	13.048	-119.844	-8191	255	
877.322	1	1	0	0	0.23655	0.08894	0.13464	0.11035	0.19735	0.28849	0.31525	0.085393	0.060756	0.12598	0.089017	0.28992	0.12826	0.17462	0.17888	0.20698	-2.5	-3.2354	-3.1229	-3.1583	-3.4958	-3.025	-3.1792	-3.5208	-2.9542	-3.2125	-3.3208	-2.7354	-3.5021	-3.1354	-3.1	-3.3937	102.697	22.016	191.064	142.203	51.738	61.064	155.001	21.258	196.958	-121.102	24.336	-50.870	107.961	-131.262	-92.474	144.264	0.00037641	0.000421	0.00016964	1388.5	4.5974e-06	5.2618e-06	1379.3	370.65	3.6075e-06	5.6572e-06	420.75	134.2	121.65	41.277	4.5552e-06	51.118	0.00050651	0.0005292	0.00014896	1404.9	5.7612e-06	5.9249e-06	1394.9	377.2	6.0625e-06	5.9408e-06	428.09	139.98	124.16	42.248	5.8379e-06	52.274	-82.701	-58.778	-63.093	-132.530	1.511	20.699	-132.389	-127.828	7.518	0.307	-128.390	-123.880	-123.645	-119.169	17.964	-119.554	-8191	255	
877.441	1	1	0	0	0.31625	0.11418	0.18477	0.18291	0.092696	0.1509	0.37524	0.22426	0.10584	0.28286	0.18611	0.14984	0.20521	0.22954	0.25479	0.07171	-2.4562	-3.1521	-3.0938	-3.0333	-3.4188	-3.2792	-3.1	-3.4813	-3.1708	-3.1583	-3.4083	-2.8833	-3.3104	-3.0604	-3.0375	-3.4229	9.407	110.335	52.165	177.717	-52.912	195.787	130.833	141.765	116.090	40.664	-118.381	30.623	168.021	73.607	61.032	102.874	0.00039648	0.00056837	0.00013412	1392.2	4.0868e-06	5.1465e-06	1375	370.44	3.9412e-06	4.9427e-06	422.38	135.08	121.83	41.198	3.809e-06	50.903	0.00051887	0.00053475	0.00014543	1405.1	5.9794e-06	5.9807e-06	1393.7	376.22	6.2026e-06	6.0163e-06	428.47	140.03	124.37	42.246	6.1284e-06	52.316	-82.720	-79.308	-48.635	-132.461	13.593	-5.134	-132.745	-127.926	3.436	12.504	-128.394	-123.913	-123.312	-119.214	9.116	-119.690	-8191	255	
877.512	1	1	0	0	0.070484	0.23146	0.13148	0.11857	0.2058	0.086226	0.40097	0.25396	0.066365	0.30621	0.13235	0.01486	0.13882	0.22441	0.21951	0.28039	-2.5417	-3.1458	-3.2458	-3.0104	-3.1167	-3.0438	-3.1437	-3.4104	-2.9292	-3.0771	-3.3896	-2.8208	-3.1104	-3.1917	-2.8958	-3.3292	-103.272	57.909	1.598	124.079	-42.098	208.760	133.450	130.255	135.614	39.837	200.290	134.997	-76.774	-81.126	-22.715	211.858	0.00039268	0.00046162	0.00013324	1393.6	4.7495e-06	5.6841e-06	1373.4	371.76	3.911e-06	3.3223e-06	422.78	134.6	122.07	41.319	4.573e-06	51.279	0.00051825	0.00054848	0.00014924	1404.9	5.9135e-06	5.9545e-06	1393	377.13	6.2097e-06	6.1153e-06	428.14	139.96	124.36	42.241	6.0458e-06	52.233	-83.740	-70.569	-29.957	-132.645	-14.730	-0.346	-132.512	-127.893	8.408	21.735	-128.548	-124.828	-123.503	-118.857	11.514	-119.613	-8191	255	
877.610	1	1	0	0	0.10639	0.2322	0.081663	0.25838	0.21382	0.079594	0.17974	0.13388	0.16741	0.23483	0.11211	0.071365	0.031187	0.10548	0.10403	0.16648	-2.5125	-2.8729	-3.275	-3.0646	-3.2313	-3.1188	-2.9208	-3.4083	-3.3271	-2.9479	-3.4208	-2.8104	-3.1583	-3.4979	-2.775	-3.3771	197.996	189.113	158.356	-145.734	-2.390	-18.059	164.024	102.217	204.993	34.316	-125.734	10.795	-86.755	96.197	120.532	-81.365	0.00039201	0.00041619	0.00013316	1387.9	1.8235e-06	4.3384e-06	1376.7	371.18	3.6602e-06	5.7284e-06	420.53	134.43	121.35	41.176	3.9988e-06	51.177	0.00050514	0.00055132	0.0001541	1404.9	6.0832e-06	5.9759e-06	1392.7	377.25	5.9901e-06	6.1565e-06	428.37	140.32	124.16	42.226	6.2124e-06	52.308	-84.580	-69.222	-24.087	-132.279	5.896	1.663	-132.478	-127.881	0.567	13.373	-128.338	-124.343	-123.530	-119.065	0.097	-119.572	-8191	255	
877.729	1	1	0	0	0.24524	0.049496	0.13129	0.36154	0.17469	0.12013	0.13396	0.24102	0.10669	0.25192	0.1875	0.16994	0.1082	0.11122	0.088472	0.39197	-2.4958	-2.8854	-3.2021	-2.8125	-3.1875	-3.4146	-3.0604	-3.2771	-3.1583	-2.8688	-3.3771	-2.7875	-3.1479	-3.4104	-2.8083	-3.3521	-17.087	-101.622	-137.743	165.696	-103.063	-133.413	-122.970	182.484	69.386	74.818	171.377	208.818	199.233	-141.454	-20.219	-116.237	0.00039828	0.00030748	0.00016961	1391.6	4.903e-06	4.4334e-06	1376.9	369.81	4.8312e-06	4.3725e-06	419.65	134.71	121.26	41.345	3.1538e-06	51.21	0.0005052	0.00054805	0.00014698	1403.4	6.0249e-06	5.7044e-06	1392.2	376.58	5.8417e-06	6.026e-06	427.9	139.9	124.09	42.311	5.8604e-06	52.331	-84.386	-47.207	-39.313	-132.573	18.286	-7.270	-132.509	-127.805	-11.406	4.417	-128.377	-124.192	-123.227	-118.871	10.020	-119.625	-8191	255	
#DATA ENDS
