BOXY.EXE: ISS Imagent and Oximeter Data Acquisition Program Version 0.80
Ascii Record File

#ACQ INFORMATION
2  Detector Channels 
16  External MUX Channels 
1  Auxiliary Channels 
5000  Waveform (CCF) Frequency (Hz)
1  Waveforms Skipped 
30  Waveforms Averaged 
1  Cycles Averaged 
16  Acquisitions per Waveform 
10.0806  Updata Rate (Hz) 

#FILE INFORMATION
TRUE -- External MUX Channel results are PARSED.
FALSE -- AC DC and Phase are NOT grouped.
TRUE -- Companion Program Settings File CREATED.
FALSE -- AC data not excluded
FALSE -- DC data not excluded
FALSE -- Phase data not excluded
FALSE -- Auxillary Chn. data not excluded
Tab delimiters

#CALIBRATION STATE
TRUE -- Waveform Calibration Values APPLIED.


#AUX CALIBRATION VALUES
Val Type	aux-1	

Term	1.0000e+00	
Factor	0.0000e+00	


#WF CALIBRATION VALUES
A = Detector Channel
Val Type	A-AC1	A-AC2	A-AC3	A-AC4	A-AC5	A-AC6	A-AC7	A-AC8	A-AC9	A-AC10	A-AC11	A-AC12	A-AC13	A-AC14	A-AC15	A-AC16	A-DC1	A-DC2	A-DC3	A-DC4	A-DC5	A-DC6	A-DC7	A-DC8	A-DC9	A-DC10	A-DC11	A-DC12	A-DC13	A-DC14	A-DC15	A-DC16	A-Ph1	A-Ph2	A-Ph3	A-Ph4	A-Ph5	A-Ph6	A-Ph7	A-Ph8	A-Ph9	A-Ph10	A-Ph11	A-Ph12	A-Ph13	A-Ph14	A-Ph15	A-Ph16	

Term	0.00000e+00	0.00000e+00	0.00000e+00	0.00000e+00	0.00000e+00	0.00000e+00	0.00000e+00	0.00000e+00	0.00000e+00	0.00000e+00	0.00000e+00	0.00000e+00	0.00000e+00	0.00000e+00	0.00000e+00	0.00000e+00	0.00000e+00	0.00000e+00	0.00000e+00	0.00000e+00	0.00000e+00	0.00000e+00	0.00000e+00	0.00000e+00	0.00000e+00	0.00000e+00	0.00000e+00	0.00000e+00	0.00000e+00	0.00000e+00	0.00000e+00	0.00000e+00	0.00000e+00	0.00000e+00	0.00000e+00	0.00000e+00	0.00000e+00	0.00000e+00	0.00000e+00	0.00000e+00	0.00000e+00	0.00000e+00	0.00000e+00	0.00000e+00	0.00000e+00	0.00000e+00	0.00000e+00	0.00000e+00	
Factor	1.00000e+00	1.00000e+00	1.00000e+00	1.00000e+00	1.00000e+00	1.00000e+00	1.00000e+00	1.00000e+00	1.00000e+00	1.00000e+00	1.00000e+00	1.00000e+00	1.00000e+00	1.00000e+00	1.00000e+00	1.00000e+00	1.00000e+00	1.00000e+00	1.00000e+00	1.00000e+00	1.00000e+00	1.00000e+00	1.00000e+00	1.00000e+00	1.00000e+00	1.00000e+00	1.00000e+00	1.00000e+00	1.00000e+00	1.00000e+00	1.00000e+00	1.00000e+00	X	X	X	X	X	X	X	X	X	X	X	X	X	X	X	X	

B = Detector Channel
Val Type	B-AC1	B-AC2	B-AC3	B-AC4	B-AC5	B-AC6	B-AC7	B-AC8	B-AC9	B-AC10	B-AC11	B-AC12	B-AC13	B-AC14	B-AC15	B-AC16	B-DC1	B-DC2	B-DC3	B-DC4	B-DC5	B-DC6	B-DC7	B-DC8	B-DC9	B-DC10	B-DC11	B-DC12	B-DC13	B-DC14	B-DC15	B-DC16	B-Ph1	B-Ph2	B-Ph3	B-Ph4	B-Ph5	B-Ph6	B-Ph7	B-Ph8	B-Ph9	B-Ph10	B-Ph11	B-Ph12	B-Ph13	B-Ph14	B-Ph15	B-Ph16	

Term	0.00000e+00	0.00000e+00	0.00000e+00	0.00000e+00	0.00000e+00	0.00000e+00	0.00000e+00	0.00000e+00	0.00000e+00	0.00000e+00	0.00000e+00	0.00000e+00	0.00000e+00	0.00000e+00	0.00000e+00	0.00000e+00	0.00000e+00	0.00000e+00	0.00000e+00	0.00000e+00	0.00000e+00	0.00000e+00	0.00000e+00	0.00000e+00	0.00000e+00	0.00000e+00	0.00000e+00	0.00000e+00	0.00000e+00	0.00000e+00	0.00000e+00	0.00000e+00	-2.65566e+02	-1.24841e+02	-1.20241e+02	-1.81994e+02	-7.06572e+01	-6.59311e+01	-1.56309e+02	-1.62015e+02	-6.90623e+01	-6.87394e+01	-1.73690e+02	-1.70229e+02	-1.84320e+02	-1.76364e+02	-6.75761e+01	-1.49227e+02	
Factor	6.26878e-05	1.67292e-04	5.27594e-05	1.83783e-01	2.31563e-06	1.97287e-06	1.71397e-01	5.46504e-02	2.81418e-06	1.76473e-06	1.02938e-01	3.00253e-02	5.63014e-02	9.41980e-03	2.03463e-06	1.37220e-02	5.32171e-06	6.03407e-06	1.68690e-06	9.18392e-02	6.45977e-08	6.66728e-08	8.01300e-02	2.73424e-02	6.44674e-08	6.66207e-08	4.98357e-02	1.45750e-02	2.78928e-02	4.75395e-03	6.55589e-08	6.70704e-03	X	X	X	X	X	X	X	X	X	X	X	X	X	X	X	X	



#DISTANCE SETTINGS
A = Detector Channel
A-1	A-2	A-3	A-4	A-5	A-6	A-7	A-8	A-9	A-10	A-11	A-12	A-13	A-14	A-15	A-16	

2.5000e+00	3.0000e+00	2.5000e+00	3.0000e+00	2.0000e+00	3.0000e+00	1.5000e+00	3.0000e+00	3.0000e+00	3.0000e+00	3.0000e+00	3.0000e+00	3.0000e+00	3.0000e+00	1.5000e+00	3.0000e+00	

B = Detector Channel
B-1	B-2	B-3	B-4	B-5	B-6	B-7	B-8	B-9	B-10	B-11	B-12	B-13	B-14	B-15	B-16	

1.0000e+01	1.0000e+01	1.0000e+01	1.4400e+00	1.0000e+01	1.0000e+01	1.5100e+00	1.9400e+00	1.0000e+01	1.0000e+01	1.9900e+00	2.4900e+00	2.4100e+00	2.9000e+00	1.0000e+01	2.9800e+00	




#DATA BEGINS
time	group	step	mark	flag	A-AC1	A-AC2	A-AC3	A-AC4	A-AC5	A-AC6	A-AC7	A-AC8	A-AC9	A-AC10	A-AC11	A-AC12	A-AC13	A-AC14	A-AC15	A-AC16	A-DC1	A-DC2	A-DC3	A-DC4	A-DC5	A-DC6	A-DC7	A-DC8	A-DC9	A-DC10	A-DC11	A-DC12	A-DC13	A-DC14	A-DC15	A-DC16	A-Ph1	A-Ph2	A-Ph3	A-Ph4	A-Ph5	A-Ph6	A-Ph7	A-Ph8	A-Ph9	A-Ph10	A-Ph11	A-Ph12	A-Ph13	A-Ph14	A-Ph15	A-Ph16	B-AC1	B-AC2	B-AC3	B-AC4	B-AC5	B-AC6	B-AC7	B-AC8	B-AC9	B-AC10	B-AC11	B-AC12	B-AC13	B-AC14	B-AC15	B-AC16	B-DC1	B-DC2	B-DC3	B-DC4	B-DC5	B-DC6	B-DC7	B-DC8	B-DC9	B-DC10	B-DC11	B-DC12	B-DC13	B-DC14	B-DC15	B-DC16	B-Ph1	B-Ph2	B-Ph3	B-Ph4	B-Ph5	B-Ph6	B-Ph7	B-Ph8	B-Ph9	B-Ph10	B-Ph11	B-Ph12	B-Ph13	B-Ph14	B-Ph15	B-Ph16	aux-1	digaux	

783.119	1	1	0	256	0.1902	0.06135	0.32053	0.24119	0.016888	0.017847	0.20299	0.088294	0.29293	0.25202	0.29927	0.12206	0.064789	0.38272	0.043832	0.19767	-2.4625	-2.7604	-2.725	-3.2354	-2.7	-2.7708	-2.9833	-2.7917	-2.9646	-2.85	-2.9042	-3.0146	-2.5917	-2.9042	-2.8208	-2.6083	403.082	369.670	434.309	241.171	282.723	244.860	387.873	454.702	254.706	363.452	481.941	393.587	328.589	512.046	395.028	197.778	0.00098479	0.00034081	9.9822e-05	1185	3.735e-06	3.339e-06	1247.3	251.06	6.1345e-06	3.8852e-06	309.75	86.071	69.469	19.538	3.0388e-06	27.54	0.00027966	0.00024293	6.7311e-05	1175.8	2.6987e-06	2.6259e-06	1239.7	249.84	2.6058e-06	2.5503e-06	309.24	85.84	68.687	19.869	2.3634e-06	28.089	418.244	268.832	246.337	164.798	254.170	289.611	164.155	171.558	286.737	298.738	171.509	177.556	177.838	185.223	307.474	184.495	-8191	255	
783.217	1	1	0	0	0.13126	0.15817	0.096699	0.095508	0.12449	0.16738	0.17051	0.08649	0.27732	0.31554	0.18783	0.13768	0.17644	0.021642	0.27227	0.26492	-2.7438	-2.6958	-2.7875	-3.1333	-2.5812	-2.9708	-3.2333	-2.8146	-3.0438	-2.9104	-2.7667	-3.1271	-2.7833	-3.0604	-2.9542	-2.6	397.060	198.588	311.255	434.125	258.354	276.540	155.740	246.125	452.820	285.437	341.387	194.579	386.652	401.665	376.881	372.855	0.00096537	0.0004193	0.00011201	1177.2	7.4308e-06	1.3587e-06	1247	250.83	7.5675e-06	2.9269e-06	309.13	85.916	69.219	19.487	2.575e-06	27.494	0.00024615	0.00020717	5.7748e-05	1167.4	2.366e-06	2.2437e-06	1232.8	248.98	2.2905e-06	2.1964e-06	307.76	85.741	68.376	19.827	2.1208e-06	27.951	415.245	265.944	237.666	164.540	275.324	325.256	164.127	171.527	283.046	310.769	171.347	177.318	177.616	185.003	268.715	184.262	-8191	255	
783.311	1	1	0	0	0.11568	0.098434	0.2413	0.22736	0.018184	0.17691	0.35849	0.26422	0.24278	0.20313	0.23086	0.08776	0.040982	0.22158	0.12302	0.15884	-2.4688	-2.8104	-2.6167	-3.0875	-2.5938	-2.9625	-2.9917	-2.7146	-2.8812	-2.8708	-2.9	-3.0333	-2.6708	-2.9208	-2.9667	-2.6688	506.417	414.916	304.791	392.196	513.257	457.561	442.280	176.958	362.456	328.015	503.244	504.525	385.797	437.140	340.661	172.732	0.00097799	0.00027841	5.0383e-05	1177.8	2.5149e-06	3.5509e-06	1244.5	250.23	7.9367e-06	2.8872e-06	310.36	85.91	68.851	19.391	3.2314e-06	27.324	0.00022869	0.00019488	5.383e-05	1165.2	2.2406e-06	2.2053e-06	1230.5	248.94	2.3155e-06	2.2741e-06	308.55	85.758	68.263	19.734	2.2663e-06	27.95	413.507	253.345	291.315	164.736	290.027	275.802	164.404	171.944	282.495	345.396	171.340	177.792	177.747	185.196	253.989	184.590	-8191	255	
783.408	1	1	0	0	0.090162	0.091736	0.23584	0.062186	0.065822	0.27065	0.37648	0.14828	0.17185	0.18436	0.1916	0.20367	0.20419	0.20464	0.17089	0.23585	-2.5625	-2.6521	-2.4417	-3.0438	-2.6021	-2.8792	-3.175	-2.6771	-2.8229	-3.0396	-2.775	-3.1063	-2.5938	-2.7687	-3.1167	-2.6979	231.855	404.254	361.063	236.857	294.089	233.539	437.571	198.703	446.949	378.650	478.612	442.554	300.414	481.332	333.506	439.394	0.00098206	0.00029397	9.0525e-05	1180.3	4.477e-06	9.984e-07	1246.8	251.58	6.4082e-06	4.6525e-06	308.1	85.528	69.36	19.498	2.6929e-06	27.485	0.00024612	0.00020582	5.6349e-05	1168.9	2.3718e-06	2.3813e-06	1236.1	249.4	2.417e-06	2.2981e-06	309.01	85.55	68.527	19.832	2.2966e-06	27.989	415.831	213.559	236.221	164.717	293.957	305.539	164.299	171.508	258.028	306.998	171.408	177.741	177.647	185.076	316.348	184.701	-8191	255	
783.504	1	1	0	0	0.08291	0.13156	0.18693	0.20185	0.33035	0.17995	0.17433	0.12891	0.076063	0.084525	0.072843	0.15804	0.23915	0.20659	0.20713	0.083602	-2.5021	-2.8292	-2.6188	-3.1521	-2.6854	-2.5104	-3.1979	-2.8667	-2.8187	-2.9542	-2.6771	-3.0771	-2.6979	-2.6021	-3.0292	-2.5646	365.450	476.688	165.773	444.456	320.763	317.780	432.236	420.605	192.880	260.834	381.684	217.454	169.957	448.407	210.773	439.348	0.00098117	0.00026348	8.6151e-05	1182.6	6.7511e-06	3.1017e-06	1252	251.64	7.1213e-06	1.9339e-06	312.3	85.561	69.074	19.55	2.1249e-06	27.569	0.00024906	0.00021079	5.7741e-05	1171.6	2.2948e-06	2.3399e-06	1241.5	250.16	2.4085e-06	2.2999e-06	310.55	85.774	68.565	19.868	2.2544e-06	28.08	420.887	277.584	258.093	164.617	258.694	276.230	164.276	171.578	277.022	335.366	171.224	177.724	177.936	185.484	277.518	184.519	-8191	255	
783.624	1	1	0	0	0.069447	0.11697	0.12032	0.12268	0.2028	0.073782	0.18958	0.14019	0.19366	0.14072	0.055735	0.16107	0.085982	0.31147	0.11844	0.25682	-2.3	-2.8708	-2.6833	-3.075	-2.6729	-2.8104	-3.1667	-2.9396	-2.8563	-3.0271	-2.8125	-3.0229	-2.7667	-2.7146	-3.0583	-2.8625	376.406	238.243	415.793	363.175	305.464	352.265	164.874	187.718	249.224	208.836	177.771	492.591	454.854	498.105	309.760	431.117	0.00095051	0.00021931	5.375e-05	1188.2	4.2493e-06	2.7958e-06	1253.2	252.68	7.8338e-06	5.6006e-06	310.17	86.478	69.697	19.607	1.5349e-06	27.575	0.00023748	0.0001965	5.4993e-05	1176.4	2.1908e-06	2.0474e-06	1244.8	250.95	2.0654e-06	1.9836e-06	310.06	86.228	68.528	19.933	1.9537e-06	28.096	415.348	260.149	263.191	164.695	294.458	341.800	164.311	171.761	287.157	295.982	171.384	177.547	177.981	185.075	332.494	184.262	-8191	255	
783.721	1	1	0	0	0.19862	0.2589	0.22678	0.21627	0.21955	0.064998	0.30495	0.13767	0.19484	0.20133	0.22085	0.091925	0.16841	0.16038	0.19799	0.1753	-2.4875	-3.0438	-2.6396	-3.1021	-2.8896	-2.65	-3.1542	-2.9313	-2.6042	-3.0854	-2.6229	-2.8625	-2.9938	-2.625	-2.9146	-2.8458	506.835	277.590	399.648	265.069	502.013	284.056	504.438	259.555	183.969	156.772	317.759	276.453	483.791	503.191	167.906	493.947	0.0009551	0.00036356	3.3008e-05	1187.8	3.3792e-06	3.9696e-06	1258.6	251.1	7.2868e-06	4.7554e-06	312.14	86.328	69.574	19.484	3.8586e-06	27.35	0.00021604	0.00017843	4.8316e-05	1175.3	1.9775e-06	1.8813e-06	1246	249.89	1.9586e-06	1.7703e-06	309.83	85.823	68.225	19.778	1.793e-06	27.873	419.064	224.963	322.812	164.643	272.503	312.482	164.472	171.639	294.198	319.765	171.356	177.688	177.850	184.999	297.140	184.403	-8191	255	
783.817	1	1	0	0	0.044596	0.17702	0.13081	0.19129	0.039951	0.10989	0.4019	0.21668	0.31883	0.073934	0.2351	0.075158	0.27374	0.1797	0.056573	0.074378	-2.4146	-3.0146	-2.8979	-3.1229	-2.9167	-2.7271	-3.2896	-2.8833	-2.9	-3.1042	-2.8438	-2.85	-2.9604	-2.6292	-3.1708	-3.0417	250.528	390.824	188.650	499.042	278.191	465.926	470.972	461.961	328.370	232.409	191.948	185.576	481.405	350.178	214.129	267.698	0.00093031	0.00030164	6.6269e-05	1179.8	5.6062e-06	2.2145e-06	1250.7	249.09	8.0009e-06	2.3751e-06	306.98	84.901	68.507	19.281	9.0152e-07	26.935	0.00020019	0.00016327	4.5276e-05	1167.9	1.883e-06	1.7436e-06	1237.6	246.93	1.8377e-06	1.82e-06	306.42	84.752	67.402	19.491	1.8938e-06	27.559	415.347	262.404	274.277	164.906	296.513	341.944	164.449	172.002	270.825	344.570	171.190	178.015	177.950	185.204	403.055	184.418	-8191	255	
783.913	1	1	0	0	0.074622	0.072914	0.10338	0.20815	0.10893	0.17351	0.30771	0.27901	0.11536	0.10215	0.20177	0.023802	0.041434	0.11971	0.25174	0.22888	-2.35	-3.1063	-2.8563	-3.0833	-3.0229	-2.6437	-3.2208	-3.0333	-2.6021	-2.9562	-3.0083	-2.875	-2.9562	-2.6292	-2.8229	-3.0979	471.494	393.892	241.707	504.937	360.452	171.427	401.995	485.098	292.191	156.683	449.979	322.588	452.422	171.754	345.011	450.868	0.00093247	0.00027173	9.5497e-05	1174.7	5.7913e-06	3.0493e-06	1246.1	243.85	5.6057e-06	2.0698e-06	305.2	84.029	67.882	19.04	3.6306e-06	26.755	0.00021077	0.00017364	4.7743e-05	1163.7	1.9268e-06	1.821e-06	1232.7	243.69	1.8638e-06	1.7741e-06	304.56	84.133	66.968	19.299	1.7185e-06	27.332	413.930	239.133	217.984	164.651	299.972	323.260	164.576	172.352	300.272	297.532	171.489	178.051	177.749	185.081	321.051	184.840	-8191	255	
784.009	1	1	0	0	0.21488	0.15303	0.067698	0.49453	0.093484	0.078552	0.13963	0.25531	0.23344	0.064864	0.10864	0.35715	0.086245	0.080696	0.35099	0.073766	-2.2438	-3.0583	-2.8792	-2.8021	-3	-2.7958	-3.1042	-2.95	-2.75	-3	-2.7562	-2.8042	-2.9646	-2.7583	-2.9417	-2.7896	332.763	500.635	450.108	427.670	352.771	404.711	362.407	215.495	339.856	204.086	196.360	194.186	507.841	445.651	273.280	301.135	0.00097116	0.00045489	4.5701e-05	1167.1	4.0351e-06	3.215e-06	1237.7	245.25	6.3891e-06	1.9226e-06	302.4	83.995	67.943	19.001	3.816e-06	26.621	0.00019229	0.00015838	4.3406e-05	1156.6	1.8463e-06	1.7746e-06	1226.2	242.98	1.8266e-06	1.746e-06	302.22	83.781	66.967	19.282	1.7392e-06	27.297	416.917	242.486	264.530	164.756	281.325	300.058	164.594	172.435	312.201	286.100	171.568	177.589	177.735	184.747	300.501	184.388	-8191	255	
784.105	1	1	0	0	0.14596	0.065625	0.088238	0.12123	0.24951	0.21147	0.14584	0.055056	0.088599	0.14949	0.088606	0.079097	0.0181	0.25138	0.20843	0.10644	-2.2	-2.9479	-2.8792	-2.9938	-3.0563	-2.8521	-3.0521	-3.0375	-2.7646	-3.1167	-3.1625	-2.7042	-3.0687	-2.7146	-2.9375	-3.0687	287.649	212.384	197.519	471.345	426.097	324.964	168.916	436.140	182.785	157.645	508.200	354.183	186.714	347.721	469.592	181.470	0.00092569	0.0003548	7.5159e-05	1166.6	4.7519e-06	2.3072e-06	1234.1	243.83	4.6997e-06	2.6679e-06	303.41	84.191	66.932	18.964	2.7683e-06	26.709	0.00019405	0.00016194	4.2362e-05	1155.5	1.8557e-06	1.7118e-06	1222.3	242.19	1.822e-06	1.7559e-06	302.65	83.843	66.465	19.163	1.794e-06	27.2	415.435	271.070	251.348	164.533	263.470	337.642	164.528	172.139	250.009	318.173	171.512	178.287	178.105	185.464	262.012	184.864	-8191	255	
784.201	1	1	0	0	0.18802	0.12264	0.067105	0.11109	0.14015	0.029284	0.26603	0.12275	0.034638	0.1319	0.074214	0.1999	0.089858	0.22463	0.24798	0.23196	-2.3833	-2.9167	-2.6667	-2.8063	-3.1042	-2.9229	-2.8667	-3.2854	-2.7958	-2.8583	-2.9188	-2.7313	-3.1271	-2.7479	-2.9375	-3.0187	154.921	354.263	314.952	304.930	161.772	243.853	459.960	162.481	384.777	171.749	412.553	331.055	396.225	458.133	507.344	466.341	0.0009788	0.00010756	4.4272e-05	1163	4.8396e-06	4.0023e-06	1233.4	242.11	5.9449e-06	2.0839e-06	301.71	83.934	67.548	18.951	4.2651e-06	26.576	0.00019016	0.00015316	4.3283e-05	1153.2	1.7887e-06	1.657e-06	1221.3	241.14	1.695e-06	1.6618e-06	301.16	83.513	66.439	19.17	1.599e-06	27.146	413.860	250.771	237.168	164.940	268.496	317.864	164.557	172.263	279.225	285.837	171.564	177.861	177.952	185.153	301.588	184.473	-8191	255	
784.297	1	1	0	0	0.29944	0.26882	0.18383	0.19252	0.21623	0.095132	0.29984	0.14385	0.36985	0.1551	0.15683	0.099287	0.047669	0.19693	0.087663	0.03988	-2.4354	-3.0958	-3.1542	-2.8667	-2.8729	-2.9229	-2.9229	-3.1979	-2.7417	-2.975	-2.9646	-2.7958	-3.0271	-2.9729	-2.6604	-3.1125	375.054	482.091	379.222	492.739	347.731	421.546	474.139	424.572	234.598	490.230	461.545	225.467	202.165	511.781	455.061	479.620	0.00098066	0.00039555	0.0001035	1158.3	4.6174e-06	4.2986e-06	1227.4	242.61	4.9113e-06	3.091e-06	302.56	83.573	67.51	18.937	4.6115e-06	26.762	0.00018974	0.00014726	3.8862e-05	1148.5	1.7159e-06	1.5303e-06	1216.7	240.72	1.6625e-06	1.6615e-06	301.65	83.504	66.353	19.206	1.5695e-06	27.208	415.319	224.177	281.025	164.699	277.451	314.137	164.659	172.370	278.455	345.041	171.524	177.591	177.670	185.513	295.983	184.673	-8191	255	
784.416	1	1	0	0	0.23011	0.2923	0.036186	0.18661	0.20939	0.027279	0.1769	0.11712	0.47205	0.075704	0.10248	0.37835	0.10107	0.15982	0.067781	0.05567	-2.2938	-2.8146	-2.9042	-2.8	-2.9562	-2.8958	-2.8563	-3.1625	-2.7979	-2.9354	-3.125	-2.7542	-2.9625	-2.9458	-2.8479	-3.0417	362.651	252.312	287.830	508.232	462.289	375.714	416.437	274.479	362.777	385.385	422.853	449.485	473.071	356.403	498.205	334.796	0.00099471	0.00048657	4.2774e-05	1163.2	3.7087e-06	3.9844e-06	1230.6	243.51	7.0383e-06	3.1109e-06	302.14	83.771	67.627	18.84	6.0048e-06	26.483	0.00018157	0.00014744	4.1318e-05	1152.4	1.7269e-06	1.6532e-06	1220	241.39	1.7297e-06	1.7008e-06	301.2	83.395	66.136	19.106	1.8055e-06	27.07	414.757	269.009	221.268	164.635	254.463	312.568	164.314	172.172	272.757	269.213	171.267	177.530	177.643	185.183	280.106	184.852	-8191	255	
784.512	1	1	0	0	0.24387	0.080508	0.077197	0.34168	0.21899	0.22403	0.09418	0.11353	0.079339	0.21889	0.27568	0.25133	0.24469	0.091119	0.14921	0.21915	-2.4	-2.7542	-2.9958	-2.6896	-2.9646	-2.9333	-2.8979	-3.0896	-2.7292	-2.7792	-3.0417	-2.9542	-2.9417	-3.1104	-2.7292	-2.9729	482.525	371.301	258.553	471.293	440.795	198.852	272.034	460.795	330.522	177.496	475.921	462.330	207.615	489.114	185.516	448.340	0.0010063	0.00030675	9.0768e-05	1160.1	6.9581e-06	5.1359e-06	1222.5	240.78	7.0105e-06	1.7817e-06	300.16	83.48	67.025	18.923	4.5945e-06	26.634	0.00019639	0.00015902	4.2946e-05	1150.4	1.8351e-06	1.71e-06	1216.5	239.89	1.8706e-06	1.7607e-06	299.95	83.315	66.124	19.105	1.7074e-06	27.001	420.737	265.073	222.209	164.850	248.074	330.976	164.487	172.186	275.426	341.934	171.656	177.589	178.395	185.531	296.574	184.869	-8191	255	
784.584	1	1	0	0	0.14816	0.1523	0.14772	0.21578	0.052498	0.12643	0.38248	0.060413	0.076236	0.22355	0.11664	0.10484	0.14518	0.16675	0.081321	0.19549	-2.3979	-2.6708	-3.1708	-3.0125	-2.7271	-2.8792	-2.8125	-3.1292	-2.7979	-2.65	-2.9125	-2.8187	-2.8958	-3.0125	-2.6021	-2.9062	262.872	482.682	214.695	399.708	319.077	419.363	474.470	310.092	442.470	263.387	244.120	498.897	441.118	443.929	510.400	400.721	0.00093884	0.00020843	8.7821e-05	1148.8	5.723e-06	5.4384e-06	1226.1	241.03	7.1073e-06	2.0461e-06	300.69	82.634	66.722	18.858	3.9212e-06	26.398	0.00019203	0.00015	4.1304e-05	1142.5	1.7445e-06	1.5914e-06	1211.6	239.31	1.6794e-06	1.5706e-06	299.35	82.585	65.69	19.02	1.5543e-06	26.881	415.728	263.418	253.301	164.887	291.790	317.097	164.623	172.281	288.749	305.593	171.217	177.550	177.953	185.823	314.358	184.696	-8191	255	
784.705	1	1	0	0	0.1723	0.093072	0.24496	0.18291	0.056537	0.097368	0.29168	0.23497	0.047813	0.14307	0.08746	0.16918	0.20921	0.13036	0.29317	0.083682	-2.5479	-2.5563	-3.0167	-2.9667	-2.725	-2.8187	-2.8875	-3.1667	-2.9208	-2.8604	-3.1583	-2.8812	-2.7479	-3.1021	-2.8583	-2.9042	425.261	492.080	420.741	509.436	446.525	483.013	504.510	407.449	496.553	424.477	160.421	455.121	198.741	236.270	326.512	325.666	0.00096405	0.00035527	9.3878e-05	1142.9	6.5005e-06	5.458e-06	1214	238.93	4.4795e-06	2.8265e-06	298.81	82.412	67.258	18.764	4.4021e-06	26.281	0.00017537	0.00013844	3.8679e-05	1133.8	1.5797e-06	1.4514e-06	1203	237.74	1.4711e-06	1.4068e-06	297.87	82.311	65.806	18.983	1.4886e-06	26.798	413.785	273.442	251.314	164.656	267.851	301.957	164.470	172.286	275.948	312.587	171.319	178.127	177.425	185.665	294.702	184.775	-8191	255	
784.801	1	1	0	0	0.083769	0.12422	0.1267	0.15924	0.064116	0.081974	0.11026	0.20878	0.11339	0.10458	0.21158	0.092639	0.16199	0.19371	0.12254	0.30899	-2.6271	-2.7687	-3.1125	-2.8979	-2.5854	-2.9604	-2.8563	-2.8229	-3.0854	-2.7812	-3.0729	-2.8792	-2.7646	-2.9917	-2.8583	-2.9417	419.439	463.744	327.042	345.599	192.471	421.144	168.473	295.238	392.444	413.865	469.227	207.809	235.522	423.711	361.413	439.055	0.00094465	0.00045526	6.6948e-05	1141.5	5.0628e-06	1.7755e-06	1209.2	238.32	9.175e-06	3.5271e-06	296.18	82.134	66.525	18.64	2.8515e-06	26.314	0.00017667	0.00013709	3.7179e-05	1130.1	1.5443e-06	1.4358e-06	1198.6	236.82	1.5757e-06	1.5076e-06	296.28	82.34	65.293	18.877	1.4987e-06	26.842	414.139	262.251	252.436	164.939	274.330	272.414	164.376	172.597	284.108	310.564	171.657	177.796	177.303	185.546	285.377	184.821	-8191	255	
784.897	1	1	0	0	0.031791	0.059195	0.25356	0.16563	0.097737	0.20129	0.18184	0.20368	0.16869	0.13797	0.043552	0.11564	0.11343	0.076218	0.04251	0.22534	-2.5625	-2.6125	-2.9229	-2.8312	-2.7729	-3.0792	-2.9167	-2.9021	-3.1333	-2.6562	-3.0438	-2.9313	-2.6354	-3.0583	-2.9188	-2.8688	370.568	463.446	453.842	510.700	429.608	203.988	381.693	438.144	502.220	304.569	486.307	470.846	485.340	170.871	228.395	456.647	0.00090638	0.0002935	0.00014678	1138.5	3.3169e-06	3.3246e-06	1201.1	238.09	5.4555e-06	2.3119e-06	297.96	82.844	66.31	18.601	3.0813e-06	26.123	0.00017725	0.0001342	3.928e-05	1126.2	1.5869e-06	1.5322e-06	1192.5	236.34	1.5855e-06	1.4805e-06	296.63	82.355	65.376	18.839	1.4687e-06	26.747	422.022	257.980	260.912	164.857	275.667	275.676	164.621	172.317	296.463	286.041	171.315	177.628	177.742	185.361	292.193	184.724	-8191	255	
785.018	1	1	0	0	0.1546	0.17436	0.17185	0.10384	0.20774	0.21998	0.29712	0.22752	0.086732	0.27711	0.27203	0.081741	0.069283	0.17316	0.17417	0.139	-2.8625	-2.7062	-2.7812	-3.0521	-2.6542	-3.1021	-3.1063	-2.8625	-3.1667	-2.7167	-3	-3.0521	-2.5792	-3.0792	-2.8667	-2.7313	289.008	493.083	263.272	501.671	377.032	505.290	451.695	296.164	235.439	411.969	431.945	188.024	485.610	496.610	425.123	498.062	0.00086821	0.00010159	0.00010232	1137.7	4.2061e-06	2.6063e-06	1206.3	240.12	5.7838e-06	1.6847e-06	296.82	82.002	65.826	18.568	4.9087e-06	26.248	0.00017272	0.00013629	3.825e-05	1126.5	1.5376e-06	1.4712e-06	1194.4	236.95	1.598e-06	1.5448e-06	295.82	82.018	65.177	18.812	1.5617e-06	26.746	415.322	319.234	225.485	164.661	279.798	295.933	164.636	172.121	294.098	289.888	171.589	177.487	177.762	185.560	304.658	185.149	-8191	255	
785.112	1	1	0	0	0.21835	0.19685	0.14836	0.1792	0.12797	0.064782	0.30051	0.18849	0.28766	0.3989	0.16956	0.0098608	0.19775	0.20697	0.08106	0.14083	-2.6437	-2.7042	-2.7583	-3.1	-2.4188	-2.8	-3.0625	-2.8771	-2.9375	-2.8042	-2.9333	-3.1688	-2.6688	-2.7604	-2.7583	-2.6083	312.380	217.646	214.227	283.013	238.690	458.623	427.425	457.363	158.376	512.583	373.247	455.049	272.844	492.517	405.359	378.785	0.0010057	0.00017221	0.0001215	1132.1	3.7431e-06	2.5927e-06	1204.4	238.31	5.8213e-06	3.0547e-06	294.98	82.063	65.572	18.593	4.217e-06	26.262	0.00018436	0.0001388	3.9621e-05	1122.9	1.6404e-06	1.4922e-06	1191.1	236.43	1.5862e-06	1.4332e-06	294.98	81.961	65.024	18.83	1.5251e-06	26.756	418.106	213.949	233.139	164.986	262.935	249.930	164.780	172.080	285.128	308.015	171.936	177.622	178.080	185.514	277.489	184.639	-8191	255	
785.186	1	1	0	0	0.11532	0.086745	0.052321	0.044652	0.22339	0.17897	0.22183	0.048009	0.14721	0.093156	0.1753	0.17948	0.21892	0.0083244	0.0089047	0.11798	-2.6917	-2.6063	-2.8104	-3.1542	-2.7938	-3.0667	-3.1521	-2.9	-3.1729	-2.7917	-2.7896	-3.0917	-2.5146	-2.9104	-2.8292	-2.8167	420.455	508.770	298.476	192.301	408.079	433.852	195.988	414.560	206.081	462.879	466.948	491.119	270.717	408.331	401.898	408.604	0.00088313	0.00025013	0.00011309	1126.9	4.2555e-06	3.8708e-06	1193.2	236.99	8.7288e-06	3.1621e-06	295.78	81.865	66.272	18.582	4.186e-06	26.117	0.00017151	0.00013212	3.7695e-05	1120.4	1.5812e-06	1.4547e-06	1187.6	235.99	1.5502e-06	1.4383e-06	295.66	82.048	65.117	18.816	1.4402e-06	26.701	417.883	238.962	271.712	164.778	272.508	307.216	164.896	172.355	281.937	322.178	171.524	178.003	178.242	185.940	303.990	184.659	-8191	255	
785.304	1	1	0	0	0.17682	0.15202	0.1322	0.17104	0.044535	0.29119	0.18121	0.12206	0.026055	0.13941	0.32875	0.046313	0.20655	0.21141	0.098784	0.13925	-2.6229	-2.7812	-2.6375	-3.075	-2.7062	-3.0208	-3.0958	-2.8125	-2.9667	-2.8438	-2.725	-3.2458	-2.7479	-2.8125	-3.1854	-2.8312	343.742	235.852	311.321	499.296	293.072	361.901	406.856	181.193	341.077	494.149	487.278	362.548	172.578	476.745	377.839	403.485	0.00095049	0.00022318	6.5167e-05	1124.8	5.1381e-06	3.0654e-06	1196.3	235.67	6.6293e-06	2.8662e-06	294.71	81.883	66.423	18.606	3.2002e-06	26.207	0.00016913	0.00012899	3.6711e-05	1115.3	1.4708e-06	1.3523e-06	1183.9	234.63	1.4939e-06	1.4232e-06	294.87	81.797	65.096	18.824	1.3983e-06	26.721	415.648	275.097	263.094	164.813	283.859	296.707	164.712	172.254	296.888	356.196	171.433	177.713	177.554	185.463	312.778	184.939	-8191	255	
785.401	1	1	0	0	0.27196	0.20424	0.22951	0.038107	0.015663	0.064298	0.28957	0.075189	0.10807	0.071811	0.042072	0.084427	0.14463	0.17014	0.14023	0.22821	-2.8229	-2.8937	-2.6104	-3.1437	-2.8896	-2.8604	-3.3375	-2.9042	-2.95	-3.0125	-2.7708	-3.0771	-2.8854	-2.7542	-3.1979	-2.8646	473.393	480.245	510.931	414.944	331.167	342.875	436.300	439.893	491.607	307.319	440.082	452.244	374.035	445.401	495.637	475.856	0.00088955	0.00018758	0.00012635	1122.3	5.002e-06	5.6689e-06	1189.4	235.79	6.0395e-06	2.6012e-06	294.13	81.474	65.493	18.492	3.0581e-06	26.011	0.00016799	0.00012214	3.5555e-05	1112.3	1.4333e-06	1.3655e-06	1181	234.4	1.3985e-06	1.2994e-06	293.68	81.863	64.77	18.767	1.3239e-06	26.711	415.978	282.143	249.286	164.589	255.654	300.809	164.622	172.239	300.831	271.132	171.362	177.878	177.615	185.191	281.220	184.929	-8191	255	
785.497	1	1	0	0	0.25412	0.11803	0.12846	0.19687	0.099799	0.20554	0.49342	0.17389	0.14248	0.11968	0.14131	0.15733	0.035883	0.10388	0.16622	0.127	-2.5083	-3.0125	-2.6813	-3.0938	-3.0563	-2.6229	-3.175	-2.9146	-3.025	-2.9771	-2.9958	-2.9792	-2.9417	-2.8125	-2.9646	-3.0125	356.641	175.986	426.392	421.139	496.999	480.145	421.707	183.514	326.480	198.050	451.095	181.015	421.439	158.057	267.760	477.119	0.00092715	7.0745e-05	5.9143e-05	1117.5	3.1589e-06	3.1153e-06	1184.6	234.87	6.6457e-06	4.2894e-06	291.52	80.717	64.899	18.146	3.9782e-06	25.736	0.00016223	0.00011983	3.2824e-05	1109.5	1.3984e-06	1.2929e-06	1177	234.39	1.3869e-06	1.2526e-06	293.77	81.763	64.606	18.748	1.2788e-06	26.68	412.947	275.714	261.632	164.761	297.423	294.172	164.320	172.003	286.926	320.405	171.336	177.888	177.811	184.640	280.894	184.365	-8191	255	
785.593	1	1	0	0	0.21909	0.15026	0.14465	0.034026	0.069428	0.18297	0.24499	0.091444	0.15822	0.22375	0.029394	0.11163	0.21629	0.21584	0.12165	0.35324	-2.5646	-3.05	-2.7062	-2.9083	-3.0396	-2.7687	-3.1646	-2.8208	-3.0104	-3.0958	-2.7896	-2.8979	-2.8917	-2.6917	-2.9021	-2.8417	296.420	343.308	161.646	190.984	500.403	407.426	191.663	481.293	303.587	280.973	367.605	236.023	197.926	480.887	304.373	466.616	0.00094831	0.00040616	7.6104e-05	1105.2	5.5881e-06	2.7801e-06	1175.5	233.87	7.2372e-06	3.5266e-06	292.16	81.223	65.765	18.381	2.7686e-06	25.978	0.00016366	0.0001152	3.2972e-05	1105.3	1.3314e-06	1.3068e-06	1174.2	234.22	1.3799e-06	1.3051e-06	293.25	81.782	64.782	18.761	1.3143e-06	26.698	417.486	261.711	225.644	164.605	291.180	302.636	164.410	171.889	287.831	296.698	171.386	177.683	177.936	185.751	309.294	184.679	-8191	255	
785.713	1	1	0	0	0.18794	0.17273	0.073589	0.13433	0.13815	0.22525	0.33833	0.23647	0.10682	0.056032	0.031951	0.14511	0.050978	0.13833	0.07736	0.075661	-2.4833	-2.9833	-2.5896	-3.1208	-2.8958	-2.6729	-3.0729	-2.9313	-2.8146	-3.2	-2.7771	-2.925	-3.0187	-2.9021	-3.0333	-2.8438	213.093	386.808	301.531	503.606	389.881	387.156	455.593	432.014	366.266	241.918	201.396	438.466	411.567	477.086	496.251	356.083	0.00093952	0.00032334	7.1682e-05	1109.5	5.8154e-06	3.678e-06	1182.1	232.87	7.1224e-06	2.8085e-06	292.16	81.349	65.759	18.411	1.5349e-06	26.218	0.0001588	0.00011342	3.1158e-05	1104.2	1.3641e-06	1.1976e-06	1174.2	233.65	1.3347e-06	1.2171e-06	293.15	81.699	64.735	18.754	1.2356e-06	26.692	416.275	271.007	247.076	164.795	273.082	305.092	164.697	172.330	278.726	336.506	171.648	177.863	177.649	185.133	337.354	184.650	-8191	255	
785.810	1	1	0	0	0.19918	0.025632	0.17166	0.20781	0.07461	0.39915	0.23364	0.1882	0.17666	0.19217	0.1964	0.29163	0.15317	0.056015	0.1558	0.15866	-2.4313	-3.1417	-2.7521	-2.95	-3.1167	-2.7458	-3.2125	-3	-2.8104	-3.0042	-2.8646	-2.9604	-2.9375	-2.8042	-3.025	-3.0854	187.949	332.327	247.383	188.267	437.119	258.791	460.461	391.612	163.254	440.554	193.478	374.737	492.755	199.366	376.999	472.019	0.00084189	0.00018933	3.9221e-05	1105.2	4.1608e-06	4.6356e-06	1173.6	234.3	7.1676e-06	1.8086e-06	292.97	81.225	65.548	18.352	4.0786e-06	25.989	0.00015629	0.00011499	3.119e-05	1100.7	1.2673e-06	1.2689e-06	1169.1	233.67	1.3539e-06	1.2017e-06	292.96	81.679	64.622	18.746	1.2859e-06	26.673	417.096	256.546	235.629	164.717	298.378	290.626	164.689	172.403	282.099	246.113	171.391	177.614	177.897	185.672	299.447	184.515	-8191	255	
785.881	1	1	0	0	0.24396	0.097209	0.16544	0.30559	0.31111	0.090762	0.11121	0.087125	0.14899	0.11323	0.14519	0.11363	0.085702	0.42573	0.11424	0.19771	-2.4354	-3.1125	-2.725	-2.9125	-3.05	-2.8333	-3.3292	-3.0333	-2.8229	-3.2542	-2.9583	-3.0333	-3.0438	-2.9417	-2.7729	-3.0646	324.357	232.834	409.199	173.990	156.824	352.692	157.567	162.724	462.586	226.769	227.300	364.149	435.599	181.239	338.824	192.048	0.00098842	0.00021248	0.00011725	1102.1	5.2767e-06	2.4515e-06	1174.1	232.38	7.1167e-06	3.24e-06	290.62	81.145	65.123	18.365	3.4805e-06	26.113	0.00016562	0.00011652	3.2269e-05	1097.1	1.407e-06	1.2735e-06	1168.1	232.82	1.3987e-06	1.2863e-06	292.2	81.466	64.394	18.679	1.3206e-06	26.621	421.756	252.147	258.223	164.856	303.497	323.822	164.676	171.986	290.242	330.585	171.683	177.961	177.976	185.419	298.807	184.831	-8191	255	
785.977	1	1	0	0	0.084226	0.22031	0.22278	0.1798	0.15136	0.22412	0.25991	0.058801	0.22877	0.10198	0.15062	0.088129	0.13387	0.24867	0.090742	0.1831	-2.3104	-3.0229	-2.8854	-3.125	-3.2229	-2.8625	-3.2438	-3.1083	-2.8708	-2.9542	-3.0187	-2.8833	-3.0625	-2.7438	-3.0479	-3.1437	420.342	431.037	421.127	498.780	378.917	377.296	208.144	288.680	311.158	163.284	326.459	319.667	405.603	391.159	203.672	455.586	0.00095795	0.0002645	0.00010043	1098.5	3.538e-06	2.7637e-06	1171.8	232.97	6.7653e-06	2.8182e-06	291.29	81.625	65.136	18.218	4.3842e-06	25.828	0.00016131	0.00011915	3.3162e-05	1095.2	1.3759e-06	1.2508e-06	1166.1	232.98	1.3769e-06	1.2648e-06	292.43	81.281	64.241	18.586	1.3247e-06	26.492	414.808	232.122	256.057	165.002	296.221	327.322	164.409	172.190	287.389	324.297	171.319	177.681	177.886	185.334	287.952	184.663	-8191	255	
786.098	1	1	0	0	0.20882	0.27745	0.054978	0.19768	0.096938	0.19605	0.037992	0.25149	0.18681	0.25511	0.026458	0.22213	0.13701	0.28176	0.081931	0.13383	-2.5	-2.9417	-2.825	-3	-3.0542	-2.9375	-3.075	-3.1917	-2.7979	-3.1667	-3.175	-2.9021	-3.1583	-2.6813	-2.7958	-3.3292	340.857	259.082	494.933	205.562	432.426	448.312	430.834	499.492	383.003	265.476	489.657	420.557	504.385	499.874	271.531	486.657	0.00089627	0.00030619	9.3797e-05	1102.2	4.5335e-06	2.3809e-06	1164.1	232.77	9.6238e-06	2.9655e-06	292.97	80.715	64.904	18.292	2.0206e-06	25.87	0.00015946	0.00012053	3.508e-05	1096.3	1.356e-06	1.2766e-06	1161.6	232.63	1.3985e-06	1.3192e-06	292.26	81.013	64.077	18.592	1.294e-06	26.456	416.933	222.088	253.376	164.731	251.251	336.699	164.404	172.547	283.293	271.472	171.401	177.887	177.919	185.191	351.448	184.859	-8191	255	
786.194	1	1	0	0	0.11729	0.1417	0.083234	0.17284	0.23527	0.046745	0.016825	0.18356	0.057597	0.17457	0.23669	0.23477	0.074822	0.093054	0.049555	0.12576	-2.5	-2.9917	-2.95	-2.9146	-3.1937	-2.9667	-2.9938	-3.2333	-2.8583	-3.0042	-2.9979	-2.6521	-3.1875	-3.075	-2.5625	-3.0375	493.329	249.482	194.489	208.361	296.494	296.964	418.481	256.423	309.152	237.557	479.163	322.096	306.234	513.025	338.049	412.207	0.00084392	0.00041722	5.8293e-05	1098.2	6.2195e-06	2.3754e-06	1168.7	231.46	7.8886e-06	2.1605e-06	290.33	80.55	64.46	18.089	4.5332e-06	25.765	0.00016682	0.00012411	3.2768e-05	1093.2	1.4444e-06	1.3322e-06	1163	231.66	1.4288e-06	1.4017e-06	291.14	80.931	63.983	18.521	1.4116e-06	26.383	420.310	261.250	240.729	164.866	292.165	330.125	164.716	171.966	282.237	325.387	171.606	178.041	177.827	185.396	282.882	185.047	-8191	255	
786.289	1	1	0	0	0.1661	0.17923	0.063128	0.21551	0.086052	0.04263	0.13927	0.21202	0.21827	0.041529	0.25316	0.18353	0.1644	0.14706	0.19957	0.29519	-2.3917	-2.8812	-3.0187	-2.8625	-3.1354	-2.9396	-2.9604	-3.1479	-2.6479	-2.9979	-3.2104	-2.5708	-3.0646	-2.6417	-2.7146	-3.1333	379.446	396.880	472.943	347.125	469.060	402.870	477.091	450.248	204.271	459.291	469.781	368.728	284.359	245.772	192.667	499.457	0.00087734	0.00026985	5.5406e-05	1095.6	6.7327e-06	3.3927e-06	1169.9	231.21	8.2468e-06	6.7766e-07	289.09	80.187	64.906	18.142	3.2596e-06	25.658	0.0001606	0.00012887	3.5348e-05	1092.7	1.5139e-06	1.3954e-06	1163.4	230.75	1.4774e-06	1.3875e-06	290.28	80.671	63.983	18.487	1.4729e-06	26.384	417.353	252.770	280.376	164.871	273.914	305.812	164.641	172.113	284.029	340.639	171.624	178.280	177.826	185.593	314.172	184.890	-8191	255	
786.387	1	1	0	0	0.037007	0.13232	0.21734	0.35249	0.15647	0.046661	0.24885	0.12897	0.10083	0.15709	0.24644	0.40223	0.22612	0.084837	0.17215	0.17249	-2.3583	-2.7333	-3.1583	-2.8021	-2.8146	-2.9688	-2.8583	-3.1021	-2.8479	-2.7917	-3.075	-2.6771	-3.0708	-2.9646	-2.5958	-3.0521	252.278	312.527	483.160	450.672	286.819	403.245	186.109	200.109	402.436	422.363	494.266	168.484	491.222	331.786	404.350	177.881	0.00097527	0.00020689	7.5324e-05	1102.4	4.3742e-06	4.6287e-06	1169.4	231.5	8.5947e-06	1.5818e-06	290.29	80.637	64.627	18.26	3.2681e-06	25.928	0.00016727	0.00012376	3.4873e-05	1094.7	1.4805e-06	1.3911e-06	1163.2	231.35	1.4955e-06	1.4365e-06	290.53	80.796	63.973	18.507	1.4513e-06	26.353	416.063	229.239	285.263	164.736	298.572	337.720	164.674	172.056	282.925	333.841	171.602	177.844	178.184	185.431	252.358	184.749	-8191	255	
786.481	1	1	0	0	0.12034	0.095712	0.12363	0.15311	0.12582	0.1231	0.29906	0.098085	0.33817	0.068776	0.063178	0.12278	0.13806	0.19158	0.11474	0.19359	-2.5792	-2.8125	-3.0375	-2.8875	-2.9125	-2.9625	-3.0125	-2.9875	-2.8458	-2.7667	-2.9437	-2.7458	-3.0146	-3.0125	-2.8708	-3.2062	253.391	158.329	333.681	430.077	371.566	278.906	412.321	503.784	258.863	435.872	431.484	441.651	397.753	233.387	488.977	461.697	0.00092205	0.00034388	7.4493e-05	1099.4	5.743e-06	2.7752e-06	1164.7	231.95	8.1739e-06	2.9047e-06	289.55	80.56	65.716	18.2	2.6726e-06	25.753	0.00017363	0.00013271	3.6725e-05	1093.6	1.5518e-06	1.415e-06	1161.8	231.28	1.5554e-06	1.4672e-06	290.43	80.865	64.311	18.507	1.4271e-06	26.366	417.420	268.961	241.308	164.847	274.572	292.762	164.648	172.254	265.622	328.387	171.431	178.194	178.294	185.608	279.720	184.757	-8191	255	
786.577	1	1	0	0	0.12618	0.061204	0.14007	0.16032	0.22434	0.094565	0.068622	0.24277	0.05558	0.10847	0.1527	0.21368	0.23266	0.16131	0.17759	0.05413	-2.6	-2.775	-3	-2.8667	-2.925	-3.1875	-3.0292	-3.0021	-3	-2.8917	-3.1625	-2.725	-2.8271	-3.0312	-2.6813	-3.0792	164.181	361.179	314.177	497.660	277.892	441.229	273.346	484.783	444.818	208.065	260.076	167.230	465.388	336.280	368.582	475.874	0.00096991	0.00023294	4.6323e-05	1096.9	3.9231e-06	3.2619e-06	1166.1	231.91	7.0833e-06	2.2006e-06	288.9	79.882	64.74	18.171	2.5812e-06	25.742	0.00017575	0.00012995	3.6071e-05	1094.7	1.5137e-06	1.3257e-06	1162.6	231.4	1.454e-06	1.392e-06	290.06	80.567	64.089	18.499	1.4465e-06	26.337	418.411	207.135	255.374	164.627	307.037	255.202	164.618	172.078	295.155	240.184	171.564	177.863	178.038	185.501	321.838	184.870	-8191	255	
786.698	1	1	0	0	0.06979	0.26062	0.28608	0.061026	0.35944	0.24856	0.20059	0.53621	0.13553	0.15794	0.15956	0.20992	0.11224	0.11914	0.17146	0.23348	-2.6583	-2.5	-3.0333	-2.9667	-2.7104	-3.0812	-2.8125	-2.8063	-2.9437	-2.8	-3.1604	-2.8187	-2.7042	-3.125	-2.8104	-3.0146	244.273	185.624	220.127	264.371	277.844	354.434	393.582	466.139	378.910	467.016	507.937	431.276	364.746	487.608	499.111	441.932	0.00087081	0.00028364	0.0001223	1095.9	5.8377e-06	3.282e-06	1160.6	232.34	5.9195e-06	1.5367e-06	289.89	80.083	64.925	18.124	2.9497e-06	25.836	0.00016548	0.00012793	3.5509e-05	1094	1.489e-06	1.3911e-06	1159.7	231.27	1.3987e-06	1.3363e-06	290.7	80.741	64.127	18.533	1.3338e-06	26.452	415.487	249.878	262.012	164.796	298.397	297.053	164.563	172.099	300.687	263.815	171.214	177.685	177.904	185.434	325.022	184.659	-8191	255	
786.794	1	1	0	0	0.19205	0.13983	0.10583	0.12871	0.080915	0.070195	0.30451	0.11506	0.10643	0.072834	0.10672	0.21188	0.070057	0.25511	0.19141	0.11498	-2.6021	-2.825	-3.1083	-3.0167	-2.8063	-2.9646	-3.0229	-2.9542	-2.9104	-2.7438	-3.2	-3.1542	-2.75	-2.9604	-2.6542	-2.9021	481.911	200.965	474.152	501.529	401.830	433.890	451.328	477.299	192.273	247.787	206.086	472.862	393.759	435.599	330.975	266.815	0.00097977	0.00015999	8.8424e-05	1099.6	5.6542e-06	3.1858e-06	1163	232.05	9.2356e-06	2.9989e-06	290.21	80.488	64.538	18.174	4.328e-06	25.84	0.00016472	0.00012296	3.4023e-05	1092.4	1.4451e-06	1.2854e-06	1158.5	230.89	1.3741e-06	1.289e-06	289.84	80.817	64.015	18.527	1.3505e-06	26.486	417.242	218.702	230.355	164.788	275.415	292.112	164.547	172.526	289.291	270.227	171.462	177.759	177.768	185.749	295.062	185.120	-8191	255	
786.890	1	1	0	0	0.12957	0.031133	0.068147	0.22941	0.16097	0.49027	0.099108	0.28163	0.012614	0.11993	0.14307	0.15371	0.095572	0.15952	0.14223	0.17077	-2.7042	-2.5646	-2.9083	-2.9813	-2.7188	-2.9729	-3.0271	-2.9083	-2.9917	-2.775	-3.0667	-3.0104	-2.8083	-3.0312	-2.9896	-2.8104	400.366	356.283	482.431	445.915	403.068	367.698	501.612	415.790	243.828	200.803	174.644	482.188	277.219	463.903	281.892	388.812	0.00096149	0.00040054	2.1634e-05	1094.6	1.8285e-06	3.6191e-06	1160.3	230.39	4.8014e-06	4.1137e-06	288.71	80.518	64.377	18.329	5.0958e-06	25.843	0.00015819	0.00011966	3.2016e-05	1091	1.3918e-06	1.2768e-06	1159.3	230.96	1.3854e-06	1.2663e-06	289.56	80.996	63.961	18.611	1.2998e-06	26.471	418.190	258.313	283.484	164.860	261.673	320.894	164.557	172.283	280.113	314.901	171.349	177.636	178.038	185.577	315.580	184.530	-8191	255	
786.986	1	1	0	0	0.24396	0.23994	0.14804	0.28005	0.066071	0.02986	0.39729	0.30387	0.23816	0.30617	0.13672	0.27369	0.31362	0.082874	0.17443	0.21084	-2.4979	-2.6208	-3.0271	-3.0667	-2.6917	-3.0958	-2.9333	-2.8771	-3.2083	-2.9771	-2.9521	-3.1333	-2.9	-3.0771	-2.8312	-2.7604	208.990	342.569	362.056	368.603	264.061	401.983	419.060	416.676	241.368	246.903	417.487	398.026	351.899	378.032	204.689	395.417	0.00090026	0.00019418	9.8663e-05	1078.8	5.5041e-06	2.9187e-06	1154.8	228.99	7.5322e-06	2.9982e-06	286.7	79.628	64.205	18.099	5.3377e-06	25.623	0.0001577	0.00011716	3.2722e-05	1085.5	1.4207e-06	1.328e-06	1156.2	230.27	1.4411e-06	1.2904e-06	289.28	80.505	63.858	18.519	1.2927e-06	26.312	412.819	249.795	243.656	164.604	287.009	304.947	164.518	172.063	276.842	339.476	171.675	177.818	177.995	185.047	317.397	184.530	-8191	255	
787.107	1	1	0	0	0.093452	0.25275	0.14228	0.089291	0.24314	0.17558	0.27172	0.19105	0.070398	0.12916	0.10486	0.042588	0.064677	0.1954	0.15431	0.17379	-2.5375	-2.8104	-2.7979	-3.175	-2.7062	-3.0687	-3.1	-2.7833	-2.9104	-2.7583	-2.9729	-3.0833	-2.7417	-3.0104	-3.0042	-2.7333	427.082	279.456	244.048	411.325	242.868	207.989	426.842	504.121	458.678	342.190	370.968	358.585	254.834	491.434	235.785	265.098	0.00092115	0.0003023	8.0687e-05	1082.7	3.2376e-06	4.9835e-06	1153.6	229.45	6.6915e-06	3.9656e-06	286.52	79.533	64.988	18.112	3.9247e-06	25.354	0.00016067	0.00011555	3.3358e-05	1084.8	1.3649e-06	1.2384e-06	1151.8	229.97	1.3201e-06	1.2583e-06	289	80.534	63.987	18.495	1.1467e-06	26.338	417.503	243.916	264.258	164.606	263.123	297.451	164.481	172.421	282.805	285.618	171.315	177.639	177.641	185.409	298.844	184.346	-8191	255	
787.178	1	1	0	0	0.06507	0.21791	0.092309	0.16508	0.14376	0.14631	0.28135	0.24359	0.093874	0.16444	0.26194	0.069301	0.11427	0.038491	0.081998	0.28344	-2.7542	-2.7729	-2.9146	-3.1396	-2.5146	-3.0312	-3.2354	-2.7167	-3	-2.8375	-2.9083	-3.0875	-2.8438	-2.8875	-3.0354	-2.575	454.622	348.029	404.814	498.728	170.978	307.205	478.564	429.361	197.685	424.113	203.019	488.455	279.235	232.891	215.781	484.745	0.00097479	0.00029154	7.6517e-05	1081.8	3.6024e-06	2.5519e-06	1151.8	229.7	5.0071e-06	2.5736e-06	286.73	79.938	64.912	18.251	2.7008e-06	25.669	0.00015443	0.00010516	3.0016e-05	1081.6	1.2245e-06	1.1179e-06	1150.2	229.68	1.1592e-06	1.0716e-06	288.41	80.646	63.824	18.558	1.0861e-06	26.439	415.807	251.305	247.616	165.013	292.984	299.188	164.778	172.084	318.168	285.339	171.452	177.766	177.996	186.156	334.567	184.791	-8191	255	
787.275	1	1	0	0	0.16733	0.33207	0.19128	0.25891	0.093074	0.20898	0.24812	0.30356	0.049082	0.075654	0.035572	0.17298	0.11548	0.30072	0.13526	0.21804	-2.5458	-2.7792	-2.8479	-3.2562	-2.6542	-2.8417	-3.1042	-2.8667	-3.0875	-2.8708	-2.8854	-2.9167	-2.6437	-2.7146	-2.9208	-2.6813	376.949	229.198	304.837	428.055	171.130	232.349	363.743	453.846	185.677	502.688	158.614	254.859	389.080	503.046	414.169	435.678	0.0010172	0.00027125	8.1567e-05	1082.9	3.8902e-06	2.6467e-06	1152.1	231.26	7.2608e-06	1.5887e-06	289.4	80.305	65.239	18.103	5.1399e-06	25.896	0.00014879	9.8041e-05	2.6765e-05	1077.9	1.1905e-06	1.0858e-06	1148.6	230.42	1.1841e-06	1.1056e-06	288.88	80.476	63.899	18.494	1.1445e-06	26.453	414.317	216.570	253.487	165.028	282.671	248.457	164.745	172.114	293.008	268.957	171.533	177.734	178.206	185.806	302.009	184.521	-8191	255	
787.369	1	1	0	0	0.073336	0.22882	0.080541	0.050206	0.24286	0.090729	0.1653	0.10421	0.093639	0.20612	0.20256	0.042562	0.084949	0.077508	0.17516	0.15718	-2.6813	-2.9458	-2.4708	-3.0729	-2.7458	-2.6854	-3.2667	-2.8812	-3	-2.9083	-2.7667	-2.9604	-2.8333	-2.9125	-3.2667	-2.6896	165.855	470.198	299.843	330.106	420.382	201.470	426.359	392.326	430.373	342.240	228.627	398.100	256.134	244.033	183.697	461.648	0.00099376	0.0001762	9.7659e-05	1081.1	3.8415e-06	2.9268e-06	1154.9	230.55	5.2597e-06	1.4433e-06	289.19	80.741	64.586	18.373	1.7565e-06	26.12	0.0001482	0.00010585	2.8603e-05	1076.9	1.3014e-06	1.1134e-06	1148	229.73	1.1948e-06	1.1177e-06	289.64	80.768	63.795	18.589	1.1078e-06	26.478	417.201	261.400	254.737	164.829	270.327	289.413	164.704	172.280	295.756	319.018	171.547	177.955	177.621	185.676	323.517	184.568	-8191	255	
787.490	1	1	0	0	0.34706	0.16984	0.046588	0.27658	0.13058	0.25678	0.29338	0.1337	0.087236	0.16828	0.32723	0.10986	0.077523	0.14293	0.43344	0.37682	-2.4062	-2.9979	-2.6625	-2.9958	-2.9354	-2.7687	-3.2167	-2.7812	-2.7979	-2.9667	-2.7542	-3.0187	-2.9417	-2.6479	-3.1354	-2.9042	327.335	385.153	389.077	405.724	437.200	376.949	428.892	188.750	397.197	502.044	196.827	205.484	443.230	357.607	373.913	463.341	0.00099993	0.00016028	7.0358e-05	1084.4	4.6485e-06	3.5653e-06	1158.1	229.87	8.0289e-06	3.7231e-06	289.43	80.537	64.798	18.375	4.1666e-06	25.996	0.00014734	0.00010116	2.9387e-05	1078.9	1.2583e-06	1.1273e-06	1148.5	230.12	1.2642e-06	1.0983e-06	289.38	80.792	63.827	18.61	1.1579e-06	26.484	415.948	234.916	233.566	165.028	286.832	325.908	164.758	172.067	276.898	293.710	171.672	178.196	178.096	185.697	293.136	184.647	-8191	255	
787.586	1	1	0	0	0.10763	0.12434	0.12213	0.15679	0.20801	0.2916	0.068904	0.12034	0.19795	0.19982	0.31776	0.21008	0.20887	0.037397	0.18653	0.26016	-2.3979	-2.975	-2.6458	-3.0458	-2.8146	-2.6542	-3.2646	-2.8479	-2.7875	-2.9979	-2.8083	-2.9854	-2.95	-2.6854	-2.8958	-2.8854	199.271	297.473	161.472	166.912	452.105	249.970	154.469	511.555	304.487	477.771	466.065	430.843	422.202	239.401	170.184	177.117	0.00089418	0.00031004	0.00010145	1088.7	5.5941e-06	4.666e-06	1158.2	230.8	6.4196e-06	2.3888e-06	288.55	80.41	65.159	18.327	2.8673e-06	26.007	0.00014668	0.00010381	2.8161e-05	1078.8	1.2081e-06	1.1225e-06	1148.2	230.41	1.212e-06	1.0931e-06	289.02	80.694	63.856	18.606	1.0887e-06	26.503	418.549	240.789	262.747	165.005	277.206	289.327	164.577	172.174	303.623	263.691	171.713	177.838	177.746	185.824	269.492	184.876	-8191	255	
787.682	1	1	0	0	0.13188	0.13446	0.053678	0.047693	0.1806	0.19355	0.14007	0.18138	0.26377	0.089376	0.1804	0.4119	0.036144	0.094474	0.082907	0.1332	-2.3979	-2.9271	-2.7167	-3.0604	-3.0271	-2.725	-3.1646	-2.8937	-2.5979	-3.0396	-2.7479	-2.75	-2.8187	-2.7146	-3	-2.8354	397.765	324.457	167.378	157.164	282.069	389.782	433.922	157.804	459.488	431.617	503.176	510.598	213.952	333.317	277.035	465.509	0.00088529	0.00019904	7.3838e-05	1086.6	6.209e-06	2.4642e-06	1153.8	231.84	7.1903e-06	1.7898e-06	289.94	80.847	65.008	18.349	4.1088e-06	26.012	0.00014381	9.8619e-05	2.8772e-05	1078.8	1.2198e-06	1.0433e-06	1147.3	230.17	1.2203e-06	1.0532e-06	289.54	80.839	63.758	18.601	1.1388e-06	26.51	420.607	269.802	272.736	165.159	291.664	295.750	164.766	172.408	269.236	296.479	171.920	177.898	178.128	185.608	286.990	184.917	-8191	255	
787.778	1	1	0	0	0.046139	0.071773	0.21033	0.26486	0.15287	0.11652	0.22429	0.048045	0.29705	0.14608	0.081252	0.32018	0.10804	0.11063	0.043239	0.27116	-2.1833	-3.0833	-2.4771	-2.9917	-2.9667	-2.6104	-3.0021	-2.8646	-2.8875	-3.1167	-2.8271	-2.6458	-3.025	-2.7167	-2.9062	-3.0417	278.765	227.138	341.181	386.064	360.209	255.912	444.474	483.761	388.920	269.995	300.929	436.910	452.698	382.135	328.244	389.960	0.00085576	0.00021363	0.00011771	1084.9	3.6754e-06	2.454e-06	1150.2	232.07	6.5082e-06	2.9063e-06	288.41	80.432	64.839	18.323	4.6075e-06	25.869	0.00014534	9.9072e-05	2.7683e-05	1077.5	1.1684e-06	1.0957e-06	1145	230.42	1.2192e-06	1.054e-06	288.79	80.674	63.931	18.57	1.1477e-06	26.473	414.620	290.678	223.795	165.012	277.511	339.075	164.686	172.355	275.691	292.770	171.553	178.112	177.798	185.911	274.721	184.471	-8191	255	
787.874	1	1	0	0	0.12631	0.045285	0.21733	0.15254	0.17823	0.24806	0.32523	0.04842	0.083525	0.13097	0.14695	0.1253	0.25528	0.12767	0.2392	0.10376	-2.3521	-3.0875	-2.75	-2.9625	-3.1229	-2.7083	-3.0021	-2.9771	-2.4729	-3.0417	-2.7104	-2.825	-3.1271	-2.525	-2.8042	-2.8021	454.714	311.424	360.322	172.389	432.529	362.741	417.085	237.381	462.681	337.999	485.921	239.003	211.783	314.447	222.903	466.515	0.00096976	0.00025627	9.7733e-05	1079.6	4.665e-06	2.0229e-06	1152.8	231.31	6.2241e-06	2.1432e-06	288.77	81.026	65.058	18.267	3.6466e-06	25.971	0.00014791	0.00010043	2.7486e-05	1074.1	1.1766e-06	1.0979e-06	1143.8	230.53	1.1818e-06	1.0404e-06	288.69	80.917	63.948	18.548	1.0724e-06	26.484	414.528	237.865	251.477	164.967	286.825	296.504	164.691	172.123	290.922	305.520	171.643	177.915	177.743	185.564	317.166	185.115	-8191	255	
787.970	1	1	0	0	0.17691	0.23941	0.17596	0.16856	0.11177	0.018906	0.15551	0.19423	0.23169	0.20273	0.27167	0.12533	0.036851	0.05769	0.2041	0.20332	-2.3063	-2.9354	-2.7896	-2.6646	-3.0563	-2.7812	-3.0125	-2.9313	-2.5604	-2.9854	-2.8979	-2.6979	-3.0979	-2.7958	-2.8146	-3.0333	363.839	165.938	478.910	466.920	505.702	378.579	475.395	424.323	473.253	396.117	186.861	504.917	293.403	374.066	201.512	365.883	0.00093636	0.000276	5.7309e-05	1076	3.8741e-06	3.1256e-06	1146.2	229.71	4.9407e-06	2.8512e-06	287.31	80.866	64.229	18.151	3.6466e-06	25.81	0.00014025	9.5175e-05	2.6414e-05	1072.6	1.1515e-06	1.0005e-06	1140.1	229.75	1.0871e-06	1.0397e-06	287.89	80.714	63.5	18.513	1.0496e-06	26.441	416.970	212.603	296.141	164.779	284.635	304.239	164.879	172.151	278.426	291.519	171.501	177.883	177.846	185.692	311.303	184.605	-8191	255	
788.067	1	1	0	0	0.035915	0.07804	0.069305	0.086148	0.11031	0.072414	0.14008	0.070362	0.099284	0.015364	0.097526	0.1305	0.26433	0.038317	0.28417	0.2912	-2.275	-2.7917	-2.8104	-2.8167	-3.0458	-2.8063	-2.875	-3.0604	-2.6146	-3.1292	-2.8875	-2.5375	-3.0687	-2.9688	-2.7958	-3.1167	289.079	490.153	340.698	419.396	373.614	362.243	428.076	379.680	448.701	231.508	488.966	452.814	453.468	229.218	334.205	500.493	0.00090432	0.00015183	6.2303e-05	1077.2	5.1786e-06	3.3767e-06	1145.8	231.42	6.1145e-06	3.099e-06	289.28	80.842	65.094	18.345	3.9719e-06	25.769	0.00014147	9.2937e-05	2.5187e-05	1069.8	1.148e-06	1.0291e-06	1140.1	230.1	1.1062e-06	1.0301e-06	288.31	80.635	63.743	18.568	1.0242e-06	26.404	418.813	284.621	283.240	165.140	293.872	319.125	164.699	172.453	299.278	299.242	171.473	177.868	178.169	185.617	277.832	184.883	-8191	255	
788.187	1	1	0	0	0.16845	0.14073	0.017112	0.18603	0.21642	0.14316	0.18355	0.17003	0.20844	0.089327	0.072252	0.064439	0.14626	0.081091	0.20256	0.3032	-2.475	-2.8146	-2.7521	-2.7875	-2.7792	-2.8146	-2.8646	-3.0396	-2.6667	-2.8292	-3.0938	-2.7167	-2.8563	-2.7833	-2.6167	-3.0687	157.955	339.308	175.146	481.831	171.475	345.207	288.659	247.920	289.308	243.645	508.357	210.092	356.381	444.291	343.926	476.177	0.00084404	0.00029543	4.3843e-05	1071.9	5.0062e-06	3.8952e-06	1147.2	229.5	6.9435e-06	2.5824e-06	287.25	80.382	64.875	18.249	2.7318e-06	25.722	0.00013617	9.1793e-05	2.6899e-05	1067.7	1.2041e-06	1.0588e-06	1137.1	228.96	1.1346e-06	1.0103e-06	287.44	80.532	63.557	18.496	1.1265e-06	26.316	417.557	262.970	227.873	165.048	292.260	300.999	164.642	172.186	284.732	289.647	171.514	177.873	177.794	185.735	319.144	184.872	-8191	255	
788.282	1	1	0	0	0.2786	0.21561	0.19781	0.3594	0.12354	0.19977	0.20301	0.4765	0.11625	0.1678	0.095685	0.28826	0.081567	0.29884	0.22613	0.27274	-2.3708	-2.8438	-3.05	-2.9	-3.0958	-2.8312	-2.9458	-2.7687	-2.8917	-2.8375	-3.0938	-2.8063	-2.825	-2.8625	-2.5687	-3.0854	285.498	404.323	282.367	436.768	222.919	180.309	170.599	479.265	281.862	498.069	502.840	173.347	434.613	445.381	362.120	386.467	0.00092322	0.00017092	7.9831e-05	1074.4	5.7974e-06	2.8135e-06	1143	230.05	5.3809e-06	2.4247e-06	286.71	79.952	64.076	18.051	5.4698e-06	25.59	0.00014511	9.9575e-05	2.8203e-05	1066.7	1.1967e-06	1.0843e-06	1135.1	228.74	1.2239e-06	1.108e-06	286.77	80.101	63.203	18.359	1.1246e-06	26.144	420.008	239.482	221.509	164.969	275.554	305.532	164.720	172.350	288.327	299.188	171.698	178.020	178.135	185.408	284.814	184.880	-8191	255	
788.378	1	1	0	0	0.13433	0.14207	0.20944	0.13335	0.15242	0.19666	0.081377	0.083503	0.16773	0.30288	0.26397	0.1783	0.1571	0.24654	0.078714	0.19521	-2.2	-2.7396	-2.9521	-2.8792	-2.9271	-3.0167	-2.775	-3.1292	-2.7146	-2.675	-3.1646	-2.7	-2.8646	-2.8229	-2.7062	-3.0938	373.009	471.860	493.631	165.969	246.578	165.558	177.294	475.337	283.938	292.461	362.875	509.916	203.605	416.359	280.619	453.817	0.00090865	0.00026735	0.00010426	1076.7	3.5137e-06	1.8424e-06	1143.6	229.79	6.9294e-06	1.1327e-06	288.44	79.499	64.493	18.112	3.5883e-06	25.507	0.00014342	9.9776e-05	2.8835e-05	1065.3	1.24e-06	1.1095e-06	1134.1	228.68	1.2289e-06	1.0861e-06	286.61	79.698	63.31	18.31	1.2022e-06	26.054	415.696	257.462	261.652	164.980	283.879	326.080	164.859	172.330	285.632	382.369	171.665	177.968	177.761	185.742	342.229	185.015	-8191	255	
788.474	1	1	0	0	0.018069	0.17631	0.17393	0.076609	0.055615	0.34592	0.21818	0.21376	0.12103	0.060416	0.23978	0.25643	0.1053	0.18352	0.074542	0.20502	-2.4854	-2.6542	-3.1813	-2.8979	-2.8458	-2.9875	-2.8208	-3.0979	-2.8812	-2.7979	-3.1792	-2.95	-2.8396	-3.1229	-2.5667	-2.9479	206.525	263.998	299.094	157.272	365.005	405.399	467.802	418.746	404.485	291.313	480.919	490.449	356.274	503.899	387.518	505.970	0.00088041	0.00034	0.00010811	1075.2	5.3002e-06	5.6963e-06	1136.5	228.97	5.3954e-06	3.3194e-06	285.9	79.62	63.746	17.896	4.2636e-06	25.558	0.00015175	0.00010946	2.9837e-05	1065.3	1.2621e-06	1.122e-06	1132.9	227.88	1.2672e-06	1.1874e-06	285.65	79.833	62.949	18.238	1.2057e-06	26.081	414.894	233.224	245.091	165.037	278.373	300.238	164.739	172.278	291.427	331.506	171.577	178.277	178.035	185.596	285.627	185.066	-8191	255	
788.570	1	1	0	0	0.058392	0.086373	0.22432	0.099339	0.15874	0.18225	0.21573	0.29508	0.15359	0.089293	0.12454	0.1946	0.12117	0.13019	0.12602	0.12322	-2.5938	-2.6729	-3.0958	-3.0833	-2.8271	-3.1167	-2.9667	-3.0083	-2.975	-2.7625	-3.1792	-2.7	-2.8896	-2.975	-2.8854	-2.9	421.376	281.164	497.021	372.245	189.676	460.427	446.142	428.444	370.986	235.531	457.611	343.940	254.395	174.145	305.403	339.023	0.00088948	0.00023394	0.00010643	1068.7	5.8845e-06	2.3578e-06	1138.5	227.52	4.4744e-06	3.4797e-06	285.45	79.178	63.506	17.919	3.715e-06	25.572	0.00015128	0.00010817	3.0519e-05	1063.7	1.2518e-06	1.2047e-06	1132.5	227.31	1.2842e-06	1.1777e-06	286.02	79.559	62.95	18.304	1.2507e-06	26.047	415.692	257.821	258.767	165.019	266.048	303.916	164.761	172.101	280.481	293.188	171.626	177.974	178.051	185.370	300.356	184.852	-8191	255	
788.666	1	1	0	0	0.3211	0.11552	0.071615	0.44513	0.091294	0.11794	0.20557	0.29889	0.10699	0.21862	0.35817	0.079439	0.094802	0.23998	0.014453	0.16602	-2.5792	-2.5771	-3.0604	-3.0646	-2.5375	-3.0125	-3.0312	-3.1333	-3.1333	-2.7271	-3.2229	-2.85	-2.6771	-3.1792	-2.8125	-3	215.755	257.163	340.035	493.164	400.471	341.136	364.011	477.188	160.546	258.579	342.103	201.317	238.349	185.043	243.546	391.617	0.00094779	0.00024241	3.8519e-05	1066.4	5.152e-06	3.5744e-06	1140	227.9	8.3256e-06	2.676e-06	285.87	79.345	63.906	17.978	2.4876e-06	25.41	0.00015368	0.0001108	3.081e-05	1063	1.3471e-06	1.1948e-06	1132.1	227.45	1.3505e-06	1.1958e-06	285.82	79.531	62.988	18.289	1.2321e-06	26.044	417.246	248.442	258.751	165.071	286.897	335.478	164.683	172.481	277.583	276.076	171.544	178.108	178.037	185.452	307.927	184.750	-8191	255	
788.787	1	1	0	0	0.36603	0.04353	0.18148	0.1946	0.18454	0.13311	0.092604	0.25892	0.079933	0.18769	0.26218	0.16606	0.29039	0.086698	0.067623	0.33457	-2.5625	-2.7146	-3.0563	-2.95	-2.6688	-3.0271	-2.9896	-2.9583	-2.9437	-2.9354	-3.0229	-2.9354	-2.6979	-3.0917	-2.7458	-2.8021	354.465	163.920	369.745	450.294	408.644	352.013	181.672	512.236	311.013	178.126	361.529	270.260	193.834	158.329	244.377	509.493	0.00092597	0.00036377	0.00013522	1070.3	5.5117e-06	3.6872e-06	1139.9	227.82	7.7285e-06	4.693e-06	286.38	79.207	64.14	18.065	2.1528e-06	25.623	0.00015445	0.00011357	3.1879e-05	1065.9	1.3625e-06	1.2372e-06	1132.2	227.19	1.3632e-06	1.2418e-06	285.97	79.603	62.913	18.305	1.2098e-06	26.053	422.349	253.700	250.043	164.850	297.097	304.441	164.548	172.298	291.793	314.187	171.773	177.919	178.191	185.679	339.368	184.690	-8191	255	
788.883	1	1	0	0	0.19753	0.081938	0.13055	0.18942	0.10608	0.11376	0.20693	0.15468	0.21418	0.28849	0.13642	0.14843	0.2096	0.093935	0.31566	0.29686	-2.6375	-2.65	-2.9146	-3.1583	-2.7167	-2.9771	-3.0792	-2.9771	-2.9979	-2.7562	-2.9938	-3.0438	-2.7271	-2.9896	-2.9625	-2.8667	372.195	374.059	250.531	436.314	419.762	510.255	394.428	469.648	490.345	493.682	447.459	270.945	305.478	421.344	260.849	221.854	0.00087074	0.00035499	5.5675e-05	1072.8	5.4617e-06	3.3251e-06	1139.5	227.97	5.1986e-06	2.0978e-06	285.92	79.106	63.843	17.953	2.5173e-06	25.5	0.00015605	0.00011536	3.1826e-05	1066	1.3323e-06	1.2164e-06	1131.8	227.35	1.3063e-06	1.1681e-06	286.16	79.461	63.094	18.259	1.2359e-06	26.077	420.150	236.122	228.128	164.988	259.108	351.495	164.584	172.370	316.534	245.240	171.592	177.873	177.857	185.868	341.344	184.966	-8191	255	
788.979	1	1	0	0	0.15003	0.43312	0.058854	0.11202	0.144	0.25892	0.25231	0.28572	0.13114	0.053279	0.10282	0.33904	0.31556	0.18084	0.11901	0.16964	-2.5708	-2.7854	-2.8458	-3.1354	-2.7625	-2.9792	-3.0812	-2.8708	-3.0646	-2.7896	-2.8167	-3.1708	-2.7562	-2.8688	-3.0938	-2.7083	161.673	475.379	358.186	177.946	448.040	408.478	473.002	396.492	165.906	439.001	493.151	450.225	232.528	159.142	283.394	372.447	0.00097058	0.00012949	8.484e-05	1073.1	4.6625e-06	3.4615e-06	1135.3	228.42	8.883e-06	1.9288e-06	286	79.496	63.913	17.949	1.5485e-06	25.469	0.00015282	0.00011257	3.0561e-05	1065.8	1.3478e-06	1.2439e-06	1131.5	227.09	1.3296e-06	1.2204e-06	286.18	79.712	63.078	18.267	1.2227e-06	26.082	418.359	242.776	283.130	165.001	273.969	294.010	164.557	172.307	285.895	304.850	171.515	177.984	178.074	185.532	292.148	184.967	-8191	255	
789.051	1	1	0	0	0.28283	0.092457	0.13652	0.060158	0.12276	0.12265	0.11081	0.3411	0.12734	0.12513	0.041001	0.24539	0.11784	0.080748	0.25077	0.27899	-2.6125	-2.6604	-2.8396	-3.1437	-2.6271	-3.0854	-2.9813	-2.6271	-3.0271	-2.9375	-2.8146	-3.1188	-2.5458	-2.9021	-2.9813	-2.7708	304.643	470.834	284.916	384.298	271.249	270.505	284.685	172.115	454.821	181.171	376.404	363.838	421.389	256.943	165.869	293.407	0.0008945	0.00026835	8.6317e-05	1062.4	6.4927e-06	3.7907e-06	1133.1	226.31	8.257e-06	3.5938e-06	284.44	79.259	63.511	17.988	2.1634e-06	25.584	0.00015464	0.00011272	3.1668e-05	1063.5	1.3109e-06	1.2153e-06	1131.4	226.93	1.2903e-06	1.2085e-06	285.9	79.673	62.999	18.285	1.2858e-06	26.072	419.579	258.404	226.997	164.739	297.517	318.252	164.852	172.417	269.013	315.653	171.457	177.794	177.507	185.431	319.274	184.897	-8191	255	
789.170	1	1	0	0	0.062919	0.19953	0.17662	0.22121	0.27455	0.15432	0.27319	0.12465	0.32582	0.1453	0.28585	0.043134	0.24861	0.21368	0.04822	0.053217	-2.5938	-2.6833	-2.6396	-3.1688	-2.9188	-2.9271	-3.2104	-2.8583	-2.9042	-2.9521	-2.7188	-3.1979	-2.8042	-2.9625	-2.7854	-2.7292	239.074	341.929	282.274	463.271	199.969	271.968	401.438	442.725	248.153	343.225	366.107	345.282	325.887	487.303	474.341	497.898	0.0009548	0.00033684	6.949e-05	1072.1	2.233e-06	1.6298e-06	1142.6	228.24	9.0004e-06	2.3331e-06	285.36	78.818	63.441	17.826	2.0509e-06	25.207	0.00016044	0.00011389	3.2547e-05	1065	1.3672e-06	1.2097e-06	1133.7	227.7	1.3028e-06	1.2555e-06	285.35	79.655	62.89	18.248	1.2803e-06	26.004	417.932	257.307	215.716	165.066	279.731	326.535	164.698	172.185	284.679	304.262	171.758	178.321	177.799	185.279	316.315	184.608	-8191	255	
789.266	1	1	0	0	0.19065	0.23904	0.20377	0.24676	0.23455	0.21297	0.10933	0.14548	0.2923	0.26484	0.20526	0.23319	0.071445	0.11943	0.17403	0.214	-2.5604	-2.9688	-2.6792	-3.1646	-2.7979	-2.6188	-3.125	-2.8167	-2.8563	-2.8979	-2.8458	-3.1104	-2.8146	-2.7083	-2.95	-2.6688	200.444	493.744	321.511	493.602	180.240	448.259	490.304	371.855	461.784	380.483	347.679	494.612	493.706	458.711	458.255	447.480	0.00086587	0.00033237	2.603e-05	1066.8	5.2941e-06	2.9033e-06	1137.2	227.07	7.7783e-06	2.3689e-06	282.76	79.267	63.713	17.872	5.0171e-06	25.414	0.00015791	0.0001123	3.2223e-05	1066.4	1.3045e-06	1.2393e-06	1132.7	227.53	1.4144e-06	1.2577e-06	285.02	79.697	62.813	18.217	1.281e-06	26.01	420.076	247.579	246.939	164.897	278.333	285.834	164.597	172.306	288.638	284.899	171.411	178.009	177.512	185.630	276.384	184.735	-8191	255	
789.362	1	1	0	0	0.26446	0.089175	0.041422	0.23105	0.068193	0.25041	0.36209	0.23613	0.094809	0.14467	0.20843	0.34243	0.29151	0.35734	0.24568	0.31813	-2.4313	-2.8479	-2.7188	-3.1854	-3	-2.725	-3.1063	-2.8271	-2.8875	-2.8729	-2.7313	-3.0042	-2.7458	-2.7333	-3.1125	-2.9229	504.100	449.877	227.569	488.656	273.992	331.845	418.175	419.872	226.838	172.867	424.896	388.402	336.528	198.250	490.570	408.955	0.00085929	0.00029742	6.1638e-05	1066.7	1.8968e-06	2.7118e-06	1129.5	227.12	5.2913e-06	1.4364e-06	283.52	78.841	63.431	17.881	4.3231e-06	25.351	0.00015637	0.00011338	3.2525e-05	1064.6	1.3879e-06	1.2618e-06	1132.1	227.29	1.3729e-06	1.2559e-06	285.61	79.607	63.011	18.271	1.3175e-06	26.086	416.696	223.447	265.922	164.887	254.201	301.170	164.602	172.221	259.914	329.455	171.439	178.006	177.433	185.546	316.478	184.539	-8191	255	
789.458	1	1	0	0	0.23194	0.15338	0.079236	0.12319	0.1693	0.11488	0.19641	0.26367	0.18945	0.051907	0.25433	0.068729	0.23391	0.14636	0.10306	0.13489	-2.275	-3.1208	-2.8438	-3.0187	-2.9208	-2.6021	-3.1625	-2.8896	-2.8292	-2.9417	-2.7292	-2.9583	-2.7438	-2.6312	-2.9771	-2.8688	376.564	405.658	218.583	410.786	299.748	179.406	212.255	486.610	168.636	183.400	414.990	474.097	477.283	362.780	320.235	162.386	0.00084565	0.00037092	0.00010709	1067.1	4.6644e-06	2.9218e-06	1135.6	226.46	9.0274e-06	2.762e-06	284.58	79.407	63.631	17.99	4.1763e-06	25.402	0.00015396	0.00011379	3.254e-05	1065.5	1.3964e-06	1.2729e-06	1133.7	227.14	1.4532e-06	1.2594e-06	286.49	79.853	62.963	18.271	1.306e-06	26.038	416.699	280.398	233.114	164.977	313.816	305.469	164.666	172.319	273.281	304.747	171.567	178.098	178.082	185.047	296.353	184.733	-8191	255	
789.579	1	1	0	0	0.26135	0.30251	0.12008	0.25882	0.23948	0.1763	0.13677	0.20559	0.049823	0.14723	0.24145	0.27904	0.31199	0.090163	0.040898	0.099051	-2.3542	-2.8646	-2.7	-3.0583	-3.0125	-2.8542	-3.0604	-2.8417	-2.8146	-3.1104	-2.6458	-3.0042	-2.8146	-2.6104	-3.0104	-2.95	489.099	194.897	271.654	432.122	378.739	212.021	484.063	423.532	248.605	258.027	488.631	509.984	344.232	323.472	454.065	407.703	0.00094096	0.00036613	7.3083e-05	1065.6	4.712e-06	2.9053e-06	1134.9	227.04	7.1714e-06	2.3159e-06	284.55	78.909	63.547	17.833	1.4473e-06	25.456	0.00015958	0.00012004	3.2617e-05	1068	1.3529e-06	1.2471e-06	1135.8	227.8	1.357e-06	1.277e-06	286.47	79.736	63.071	18.329	1.297e-06	26.125	418.063	264.976	222.452	164.949	293.777	279.912	164.628	172.153	285.073	302.779	171.578	177.755	178.002	185.492	249.877	184.630	-8191	255	
789.650	1	1	0	0	0.19609	0.10289	0.11763	0.21029	0.030553	0.11743	0.18692	0.20613	0.20045	0.17418	0.071922	0.05098	0.10339	0.33617	0.17607	0.15976	-2.4313	-3.1646	-2.6208	-2.9146	-2.9354	-2.6458	-3.1375	-3.0667	-2.8125	-3.1063	-2.8417	-3.025	-2.9979	-2.8667	-2.8833	-2.9833	327.093	435.237	155.665	426.710	181.496	423.480	366.264	475.817	460.375	426.460	469.453	398.411	428.670	191.189	292.361	237.403	0.00089659	0.0004198	0.00010704	1072.8	2.3975e-06	6.0124e-06	1136.9	227.08	6.7565e-06	3.9315e-06	284.78	78.661	64.272	17.8	3.2675e-06	25.358	0.00015726	0.00011792	3.2627e-05	1070.4	1.3755e-06	1.3333e-06	1137	227.38	1.4e-06	1.2623e-06	286.41	79.827	63.32	18.259	1.3519e-06	26.048	418.261	237.443	244.494	164.654	274.511	315.710	164.557	172.252	273.591	339.126	171.292	177.556	177.905	185.329	272.030	184.814	-8191	255	
789.747	1	1	0	0	0.15447	0.18591	0.10567	0.099717	0.12882	0.15675	0.23455	0.090608	0.027417	0.13086	0.11957	0.43889	0.14586	0.049383	0.17501	0.28004	-2.1167	-3	-2.7333	-2.7979	-2.975	-2.6229	-2.9979	-3.1146	-2.5833	-3.0687	-2.8083	-2.7958	-3.1417	-2.8146	-2.9208	-2.9604	343.004	346.252	505.517	427.330	459.941	404.341	470.970	165.038	404.347	218.248	198.972	480.845	306.933	466.345	468.123	223.040	0.00090158	0.00029099	0.00010404	1072.8	4.8595e-06	4.8141e-06	1140.1	226.56	7.5553e-06	2.9949e-06	285.03	79.355	63.968	17.887	4.5527e-06	25.552	0.00015812	0.0001221	3.4778e-05	1070.5	1.3866e-06	1.3214e-06	1136.8	227.24	1.3956e-06	1.3217e-06	286.29	79.855	63.074	18.283	1.3183e-06	26.135	417.425	239.696	234.568	164.764	293.174	305.920	164.767	172.066	289.764	287.665	171.370	178.043	177.889	185.731	317.874	184.609	-8191	255	
789.867	1	1	0	0	0.18396	0.21883	0.1051	0.38986	0.14176	0.11299	0.13979	0.13379	0.13662	0.21837	0.048645	0.17056	0.10658	0.17815	0.045081	0.29069	-2.2083	-2.95	-2.8479	-2.9729	-3.1646	-2.7042	-3.1312	-3.0833	-2.6833	-2.9208	-2.9354	-2.6417	-2.8625	-2.7167	-2.7396	-3.05	304.852	289.803	345.563	432.192	361.746	230.841	486.457	505.967	476.768	350.725	199.766	191.660	202.412	509.647	406.178	430.547	0.00096953	0.00014091	4.9145e-05	1071.1	3.9708e-06	3.2407e-06	1139.7	227.68	5.0914e-06	3.271e-06	284.27	79.68	63.649	17.849	3.033e-06	25.358	0.00016552	0.00011658	3.1499e-05	1070.3	1.3508e-06	1.2812e-06	1137.1	227.81	1.3076e-06	1.2902e-06	286.26	80.082	63.259	18.281	1.3175e-06	26.075	418.141	228.866	269.879	164.939	283.900	315.638	164.486	172.597	291.828	292.607	171.291	177.743	178.083	185.300	315.991	184.491	-8191	255	
789.963	1	1	0	0	0.090132	0.31593	0.28553	0.17468	0.15816	0.1004	0.34843	0.24024	0.123	0.051574	0.15099	0.21247	0.06552	0.31772	0.10672	0.21552	-2.2333	-2.8333	-2.8667	-2.8646	-3.0417	-2.8812	-3.1063	-2.9104	-2.5583	-3.0354	-2.9167	-2.6604	-3.05	-2.8417	-2.7812	-2.9729	224.582	296.476	298.737	278.151	481.869	479.726	441.282	425.244	217.720	357.856	447.490	490.820	226.798	227.240	484.580	155.553	0.00093978	0.00026121	7.5664e-05	1070.3	3.8108e-06	3.363e-06	1136	225.91	9.0629e-06	3.2313e-06	284.84	79.388	63.555	17.885	2.1839e-06	25.497	0.00016072	0.00011876	3.3109e-05	1070.4	1.3917e-06	1.3115e-06	1137.9	227.47	1.4386e-06	1.3234e-06	286.47	79.985	63.009	18.339	1.3638e-06	26.149	415.661	247.206	232.494	164.851	264.558	344.001	164.680	172.246	281.014	278.192	171.618	177.718	178.073	185.463	318.962	184.848	-8191	255	
790.059	1	1	0	0	0.20545	0.074914	0.15198	0.32893	0.082279	0.23496	0.33906	0.17371	0.20814	0.071262	0.10106	0.25775	0.058579	0.22234	0.15361	0.30945	-2.3208	-2.9333	-2.875	-2.8521	-2.9792	-2.6979	-2.725	-3.1958	-2.7396	-2.9146	-3.1021	-2.7188	-3.0354	-2.8375	-2.6729	-3.0062	379.531	345.142	442.102	435.679	170.380	421.964	449.433	255.810	280.500	432.745	303.095	206.154	341.427	480.629	423.319	455.906	0.00089988	0.00026822	0.00010112	1063.9	5.4209e-06	4.3612e-06	1129.5	226.92	5.6841e-06	2.605e-06	281.11	78.884	63.13	17.675	3.599e-06	25.127	0.00015866	0.00012068	3.3517e-05	1067.2	1.3972e-06	1.2633e-06	1135.9	227.88	1.4075e-06	1.3138e-06	285.11	79.881	62.898	18.212	1.3698e-06	26.042	414.892	254.685	249.376	164.528	288.818	281.944	164.355	172.203	275.545	311.737	171.750	178.178	178.014	185.198	300.437	184.102	-8191	255	
790.180	1	1	0	0	0.086917	0.14835	0.23549	0.32643	0.1879	0.12531	0.25274	0.16592	0.21986	0.37609	0.0887	0.12019	0.089621	0.15399	0.14992	0.20861	-2.3063	-2.7938	-3.0208	-2.8937	-3.0187	-2.8187	-2.8979	-3.15	-2.8	-2.8646	-3.1021	-2.7479	-2.8292	-2.8604	-2.6417	-3.1583	230.309	283.917	206.975	466.211	167.565	242.144	347.020	447.390	383.104	463.000	314.534	456.436	455.349	167.686	246.745	327.723	0.000911	0.00019012	3.529e-05	1061.9	6.516e-06	2.2856e-06	1131.8	227.7	6.8119e-06	2.0456e-06	281.79	79.252	63.479	17.925	3.8166e-06	25.312	0.00016065	0.00012811	3.5692e-05	1066.4	1.5093e-06	1.3805e-06	1135.3	228.05	1.4674e-06	1.3888e-06	286.03	80.052	63.244	18.346	1.3894e-06	26.133	415.403	246.539	248.337	164.950	296.552	322.031	164.525	172.324	297.266	319.201	171.281	177.921	177.723	185.366	321.552	185.025	-8191	255	
790.275	1	1	0	0	0.12104	0.09245	0.11981	0.33611	0.36834	0.2298	0.1937	0.21051	0.18755	0.16653	0.16828	0.3214	0.13226	0.12705	0.10639	0.10061	-2.3438	-2.7396	-2.9521	-2.8063	-2.9021	-2.8833	-2.9292	-3.0396	-2.8792	-2.7125	-3.2	-2.7812	-2.8958	-2.975	-2.5604	-3.0208	245.691	449.824	437.557	490.794	423.981	403.646	442.789	313.734	490.483	328.466	183.721	435.178	378.624	384.137	316.575	371.471	0.00086788	0.00013954	5.205e-05	1068.3	6.1806e-06	4.3421e-06	1135.8	226.16	4.5426e-06	1.127e-06	284.62	78.921	63.854	17.862	4.2632e-06	25.314	0.00016835	0.000126	3.2603e-05	1071.3	1.445e-06	1.3229e-06	1140.4	227.92	1.4301e-06	1.3598e-06	287.35	80.033	63.613	18.346	1.4372e-06	26.162	418.774	208.936	264.425	164.740	290.129	290.929	164.483	172.043	301.258	307.764	171.167	177.639	177.696	185.582	297.998	184.852	-8191	255	
790.346	1	1	0	0	0.16956	0.18943	0.19754	0.14051	0.082512	0.31449	0.39817	0.35816	0.23738	0.21765	0.11561	0.14268	0.044652	0.23072	0.12976	0.12601	-2.3312	-2.7208	-2.9542	-2.8	-2.9688	-2.8833	-2.9688	-3	-2.9104	-2.7417	-3.0604	-2.7854	-2.8792	-3.1229	-2.6833	-3.0229	227.829	333.111	340.899	444.899	282.502	497.843	469.179	476.264	156.792	409.158	276.819	266.630	200.982	202.989	195.529	442.384	0.00087528	0.00018193	8.9286e-05	1071.1	3.4635e-06	1.9218e-06	1140.2	228.53	5.469e-06	3.665e-06	286.02	79.089	64.08	17.801	1.981e-06	25.407	0.00016272	0.00012364	3.6648e-05	1076.7	1.5063e-06	1.3893e-06	1142.7	228.99	1.5038e-06	1.4797e-06	287.94	80.054	63.55	18.347	1.5419e-06	26.183	412.253	257.913	220.284	164.632	287.366	313.969	164.365	172.051	294.771	299.939	171.302	177.800	178.173	185.228	259.975	185.250	-8191	255	
790.467	1	1	0	0	0.22103	0.10633	0.16606	0.23753	0.059614	0.074829	0.28041	0.14373	0.27369	0.1971	0.10006	0.11371	0.045131	0.33203	0.31852	0.10693	-2.5417	-2.7521	-2.9229	-3.0271	-2.9938	-2.9792	-3.0792	-3.0396	-3	-2.9229	-3.1646	-2.825	-2.8333	-2.9729	-2.8875	-2.9833	216.776	164.511	464.535	162.474	286.277	208.768	478.369	383.763	487.506	495.543	163.431	364.869	195.093	428.511	257.607	158.704	0.00097219	0.00014222	7.9882e-05	1075.3	2.0703e-06	2.7618e-06	1145.9	227.69	6.9436e-06	1.8268e-06	285.34	79.181	63.39	17.856	3.1634e-06	25.181	0.00017596	0.00014201	3.8184e-05	1080	1.5766e-06	1.5425e-06	1148.3	229.4	1.5973e-06	1.5756e-06	287.83	80.054	63.243	18.3	1.6062e-06	26.027	414.049	308.811	238.656	164.897	297.600	302.482	164.464	172.144	298.413	276.142	171.454	177.541	177.465	185.364	283.978	184.488	-8191	255	
790.563	1	1	0	0	0.15679	0.011232	0.12327	0.25639	0.19206	0.051351	0.24192	0.17402	0.1761	0.1152	0.018563	0.2553	0.19817	0.23943	0.08792	0.12222	-2.3688	-2.625	-3.0812	-2.8917	-2.7729	-2.9375	-2.8354	-3.0187	-3.0062	-2.7125	-3	-2.7708	-2.6146	-3.1688	-2.7458	-2.9229	444.887	233.330	501.180	483.927	513.830	182.581	422.566	471.888	178.512	437.912	404.438	495.191	215.721	337.805	429.287	353.780	0.00083564	0.00030226	0.00011006	1074.9	3.9717e-06	4.3698e-06	1141.2	226.14	7.068e-06	4.0142e-06	282.36	78.464	63.233	17.684	4.5627e-06	25.142	0.00018081	0.0001475	4.2401e-05	1080	1.7179e-06	1.5975e-06	1147.2	227.9	1.7158e-06	1.6292e-06	285.64	79.453	63.1	18.177	1.7252e-06	25.995	416.332	284.436	276.989	164.484	294.211	293.043	164.280	172.088	274.205	313.461	171.202	177.673	177.983	185.473	291.664	184.458	-8191	255	
790.659	1	1	0	0	0.18696	0.12076	0.085143	0.15949	0.035913	0.10601	0.16403	0.071041	0.088388	0.12274	0.27501	0.32889	0.11156	0.036242	0.14498	0.12985	-2.4354	-2.6646	-2.9938	-2.9708	-2.7438	-3.0312	-3.0375	-2.8667	-2.9	-2.6625	-3.0792	-2.9896	-2.8187	-2.9875	-2.7062	-2.9313	340.400	395.907	440.375	445.251	478.220	261.179	461.034	348.747	499.926	283.167	171.939	461.112	157.467	452.624	443.047	504.552	0.00087376	0.00042049	3.1966e-05	1070	8.1451e-06	3.8328e-06	1133.7	222.2	4.4157e-06	2.679e-06	280.22	78.276	62.872	17.505	1.0271e-06	24.982	0.00019515	0.00015816	4.5149e-05	1081.6	1.8619e-06	1.7731e-06	1149.4	226.32	1.8598e-06	1.8369e-06	285.38	79.414	63.043	18.098	1.9369e-06	25.891	421.409	275.563	284.341	164.419	283.017	317.186	164.274	171.602	283.223	279.801	171.200	177.286	178.065	185.426	319.809	184.591	-8191	255	
790.755	1	1	0	0	0.13195	0.17715	0.064765	0.30777	0.12616	0.27914	0.2908	0.026497	0.11583	0.34158	0.049632	0.2831	0.025625	0.176	0.13468	0.15254	-2.7146	-2.55	-2.9146	-2.975	-2.6729	-3.0479	-2.9521	-2.9	-3.0062	-2.6479	-3.0708	-2.8438	-2.7938	-3.0354	-2.8458	-2.8021	164.389	280.355	375.437	484.007	232.247	373.908	457.374	293.195	323.704	402.678	189.060	474.450	367.587	500.057	188.651	415.455	0.00089352	0.00023833	8.9295e-05	1086.5	3.9367e-06	3.0867e-06	1149.7	226.79	4.2544e-06	7.5952e-07	282.76	78.144	64.249	17.832	2.5186e-06	25.215	0.00020419	0.00017105	4.9658e-05	1088.1	1.9756e-06	1.8621e-06	1154	227.68	1.9869e-06	1.8804e-06	285.77	79.482	63.446	18.215	1.8392e-06	25.902	417.348	261.204	255.270	164.996	330.144	236.323	164.307	172.126	294.175	366.878	171.638	178.024	177.775	185.040	303.503	184.604	-8191	255	
790.876	1	1	0	0	0.16067	0.40074	0.19416	0.1036	0.063961	0.29844	0.19033	0.34136	0.11305	0.24485	0.15509	0.12683	0.074996	0.11941	0.14555	0.24887	-2.6354	-2.7708	-2.7833	-3.2354	-2.5979	-3.1562	-2.9354	-2.8812	-3.0604	-2.7771	-2.9625	-2.9458	-2.7438	-2.925	-2.9396	-2.8187	420.701	474.024	381.816	403.469	474.759	162.890	447.121	470.201	387.355	173.137	338.922	342.001	371.391	383.407	461.348	368.513	0.00091592	0.00028349	6.486e-05	1077.7	7.9902e-06	3.5268e-06	1145	223.56	9.5565e-06	2.9361e-06	280.01	77.718	63.064	17.647	3.176e-06	25.167	0.00020663	0.00017325	4.7824e-05	1089.7	1.8842e-06	1.8781e-06	1156.6	227.12	1.856e-06	1.7636e-06	285.55	79.527	63.207	18.203	1.813e-06	25.919	420.325	263.158	284.454	164.458	294.458	281.580	164.299	172.056	283.484	290.407	171.260	177.584	178.053	185.358	298.584	184.865	-8191	255	
790.948	1	1	0	0	0.037269	0.18314	0.30992	0.12601	0.12974	0.14033	0.078593	0.13039	0.41945	0.23943	0.12748	0.20123	0.065067	0.044421	0.066616	0.12899	-2.4958	-2.7292	-2.9125	-3.0125	-2.7771	-2.975	-2.9042	-2.9979	-3.1958	-2.7562	-2.8896	-3.0438	-2.8333	-2.9813	-2.9771	-2.5625	234.513	352.797	387.703	236.843	241.135	180.842	259.899	390.775	243.273	270.934	425.241	434.088	326.886	497.710	442.849	461.883	0.00092784	0.00030383	9.522e-05	1087	5.6378e-06	9.477e-07	1153.1	226	5.9638e-06	2.7801e-06	283.69	79.275	63.433	17.723	3.975e-06	25.296	0.00019492	0.00016146	4.3842e-05	1092.2	1.7833e-06	1.7541e-06	1158.6	227.75	1.8173e-06	1.7001e-06	286.15	79.776	63.457	18.265	1.7551e-06	26.019	415.454	257.248	261.202	164.556	260.640	311.873	164.336	172.158	266.458	310.794	171.125	178.000	177.613	185.525	289.845	184.749	-8191	255	
791.044	1	1	0	0	0.19716	0.15005	0.031364	0.31002	0.088454	0.17035	0.14734	0.22991	0.049698	0.13221	0.057789	0.12885	0.065511	0.41447	0.12188	0.16482	-2.7104	-2.6542	-2.7667	-3.1625	-2.8146	-2.8792	-3.2458	-2.75	-2.8458	-2.8125	-2.8312	-3.0687	-2.6958	-2.9583	-2.9521	-2.6208	263.702	376.577	317.888	160.870	237.307	288.318	424.170	398.608	468.017	364.588	382.400	380.349	464.106	173.204	336.883	451.294	0.00097154	0.00036118	6.1523e-05	1085.2	2.7659e-06	2.9617e-06	1151.5	226.94	3.0119e-06	2.442e-06	282.74	78.651	63.439	17.819	2.5555e-06	25.077	0.00019971	0.00015886	4.4327e-05	1088.3	1.7807e-06	1.7388e-06	1154	227.42	1.7913e-06	1.6944e-06	285.75	79.438	63.091	18.235	1.7171e-06	26.013	415.599	229.275	234.004	164.837	288.705	319.483	164.512	172.123	314.893	313.813	171.231	177.802	177.829	185.463	311.445	184.669	-8191	255	
791.140	1	1	0	0	0.083303	0.086287	0.13162	0.049413	0.24939	0.11421	0.062454	0.19292	0.16738	0.18853	0.084316	0.28066	0.073905	0.19151	0.22998	0.12156	-2.6208	-2.7125	-2.675	-3.0812	-2.7417	-2.9333	-3.275	-2.7729	-2.8958	-2.975	-2.8208	-3.1542	-2.7396	-2.7583	-3.0021	-2.8146	364.618	424.567	449.818	228.720	443.563	293.139	453.512	434.922	236.860	301.260	505.153	182.600	391.227	256.707	288.252	159.451	0.0008568	0.00036228	0.00011415	1084.7	5.2898e-06	1.4777e-06	1143.1	226	5.2247e-06	3.1055e-06	281.92	79.011	63.563	17.808	2.7574e-06	25.244	0.00019043	0.00015339	4.2563e-05	1087.3	1.7525e-06	1.7089e-06	1149.2	227.17	1.7414e-06	1.6464e-06	285.48	79.645	62.94	18.238	1.6742e-06	25.986	420.541	262.615	295.152	164.699	303.098	249.152	164.456	172.106	310.262	311.174	171.176	178.164	177.645	185.647	247.153	184.887	-8191	255	
791.259	1	1	0	0	0.14216	0.14683	0.15059	0.14272	0.076451	0.012627	0.16884	0.17993	0.14832	0.34575	0.19325	0.062385	0.19778	0.25021	0.063254	0.21306	-2.4542	-2.9458	-2.7458	-3.25	-2.7792	-2.7375	-3.1188	-2.5792	-2.7812	-2.8667	-2.8271	-3.0625	-2.6208	-2.7417	-3.0687	-3.1958	415.387	491.824	208.644	408.744	373.516	436.356	456.230	426.863	317.043	400.719	384.244	483.953	429.067	182.996	374.291	157.337	0.00089987	0.00021047	8.8269e-05	1084.1	4.8009e-06	3.5408e-07	1149.7	225.31	7.3756e-06	1.441e-06	283.15	78.723	63.806	17.834	1.8768e-06	25.054	0.00018579	0.00014586	4.0872e-05	1084.8	1.7012e-06	1.6375e-06	1150.5	226.78	1.6858e-06	1.6404e-06	285.33	79.374	63.029	18.232	1.659e-06	25.982	418.711	287.583	265.573	164.727	298.723	311.827	164.607	172.156	297.429	303.689	171.391	177.889	177.757	185.582	325.237	184.839	-8191	255	
791.355	1	1	0	0	0.24689	0.16389	0.10706	0.035686	0.17631	0.14474	0.096315	0.17542	0.19866	0.08527	0.15215	0.24679	0.25915	0.21528	0.38225	0.21964	-2.3563	-2.9875	-2.6333	-2.9875	-2.7646	-2.75	-3.2167	-2.8667	-2.8458	-3.0375	-2.6708	-2.9708	-3.0083	-2.525	-3	-2.6312	154.375	416.899	279.887	184.416	395.099	189.885	480.880	348.839	470.622	200.931	441.050	432.487	347.444	252.053	359.917	400.707	0.00085325	0.00043219	5.614e-05	1084.6	3.152e-06	3.0136e-06	1148.9	224.49	6.4618e-06	3.1536e-06	280.98	78.683	63.372	17.696	2.8809e-06	25.357	0.00018758	0.00015208	4.2928e-05	1084.6	1.7308e-06	1.6429e-06	1150.4	226.26	1.6995e-06	1.6319e-06	284.38	79.483	63.05	18.194	1.7508e-06	25.976	419.214	266.547	304.533	164.972	287.794	288.557	164.410	171.954	291.401	355.455	171.379	178.026	177.832	185.874	253.548	184.712	-8191	255	
791.451	1	1	0	0	0.083277	0.13767	0.29464	0.032528	0.10234	0.29087	0.15263	0.11058	0.17423	0.24117	0.073902	0.14969	0.18521	0.12017	0.26874	0.31177	-2.2771	-2.8708	-2.6354	-2.9104	-2.8896	-2.4958	-3.2479	-2.9458	-2.8042	-3.0292	-2.6917	-3.15	-2.9437	-2.7729	-2.9625	-2.9313	222.445	203.502	376.134	392.303	438.819	430.137	468.296	366.760	285.924	391.832	484.708	221.738	291.063	439.258	404.839	155.765	0.00084839	0.00037503	0.00011317	1079.7	4.7765e-06	3.3883e-06	1146.9	225.96	4.4198e-06	2.2578e-06	281.42	78.411	63.839	17.96	2.8666e-06	25.381	0.00019316	0.00015212	4.2429e-05	1083.6	1.8071e-06	1.6802e-06	1150.3	226.73	1.7626e-06	1.6432e-06	284.69	79.399	63.132	18.225	1.7011e-06	25.974	414.254	258.770	260.321	164.839	296.534	317.318	164.600	172.247	307.331	286.119	171.236	177.758	177.641	185.508	300.617	184.789	-8191	255	
791.547	1	1	0	0	0.32851	0.12854	0.19569	0.096943	0.085705	0.2012	0.1343	0.083274	0.18154	0.23356	0.31794	0.051742	0.1423	0.25166	0.10777	0.050441	-2.3083	-3.1208	-2.7333	-2.8729	-2.9479	-2.7667	-3.175	-3.0625	-2.7167	-3.1146	-2.9021	-2.8979	-3.0917	-2.6562	-2.8688	-3	395.060	334.280	381.850	309.687	465.577	503.657	351.123	211.846	379.833	416.102	333.083	350.315	245.645	243.324	411.702	472.443	0.0010191	0.00030727	0.00014598	1082.4	3.6901e-06	2.3853e-06	1148	226.12	4.413e-06	2.62e-06	282.82	78.756	63.387	17.707	2.3786e-06	25.26	0.00019491	0.00015274	4.3582e-05	1084.8	1.8128e-06	1.6638e-06	1150	227.12	1.7175e-06	1.6416e-06	285.03	79.495	63.17	18.214	1.7418e-06	25.94	416.927	249.651	245.604	164.835	311.000	333.721	164.501	172.392	290.782	297.397	171.511	177.599	178.014	185.235	284.751	185.026	-8191	255	
791.643	1	1	0	0	0.17308	0.19307	0.061707	0.10044	0.23055	0.31307	0.23117	0.26114	0.1554	0.076103	0.075499	0.40856	0.12461	0.22503	0.12231	0.066395	-2.3312	-3.1063	-2.5979	-2.8937	-3.0208	-2.5729	-3.3104	-2.8792	-2.6083	-3.3354	-2.8646	-2.7854	-3.1792	-2.7979	-2.9938	-2.8292	155.314	305.148	210.640	476.027	482.019	307.845	403.395	186.567	506.280	251.430	231.029	424.896	158.340	188.464	370.121	361.440	0.00083289	0.00021786	0.00010457	1085	4.6971e-06	2.5737e-06	1148.2	225.79	9.0693e-06	2.4413e-06	282.88	78.865	63.252	17.749	2.3368e-06	25.149	0.00018785	0.00015716	4.239e-05	1085.1	1.7397e-06	1.6282e-06	1150.6	226.97	1.7677e-06	1.668e-06	285.07	79.695	63.005	18.259	1.6776e-06	25.99	415.974	261.157	249.837	164.866	305.408	334.555	164.419	172.174	285.030	302.745	171.299	177.618	178.070	185.619	297.578	184.748	-8191	255	
791.739	1	1	0	0	0.20348	0.21402	0.14628	0.39706	0.059715	0.15807	0.22812	0.090767	0.21034	0.28404	0.25583	0.11876	0.17312	0.34419	0.093871	0.18067	-2.5187	-3.1188	-2.4958	-2.6958	-3.0521	-2.7667	-3.3146	-3.0208	-2.6479	-2.9021	-2.9437	-2.6833	-3.1292	-2.7917	-2.7396	-2.9979	468.683	202.937	374.268	451.792	388.620	503.845	440.393	400.935	162.704	510.880	481.292	507.578	298.521	476.310	445.072	200.777	0.00088941	0.00021257	9.1456e-05	1083.6	5.6636e-06	5.1249e-06	1150.3	226	6.2828e-06	3.2333e-06	283.32	78.776	63.339	17.822	9.7555e-07	25.291	0.00018773	0.00015484	4.3575e-05	1086.1	1.7857e-06	1.6859e-06	1150.1	226.99	1.7334e-06	1.6845e-06	285.63	79.59	63.174	18.237	1.7388e-06	26.024	413.965	226.899	280.192	164.996	282.417	291.946	164.444	172.061	281.647	330.521	171.665	177.973	177.979	185.285	335.135	184.777	-8191	255	
791.860	1	1	0	0	0.0899	0.17989	0.1566	0.25358	0.11315	0.34135	0.1123	0.12341	0.33501	0.068405	0.17139	0.35729	0.10328	0.20469	0.22087	0.16181	-2.4083	-2.9771	-2.8354	-2.7479	-3.1521	-2.7333	-3.0229	-2.9938	-2.8854	-3	-2.9354	-2.5958	-2.9	-3.0062	-2.8896	-3.1604	377.636	277.453	250.282	173.691	253.790	315.708	188.024	513.871	347.402	316.811	466.758	443.303	173.802	174.878	308.408	202.786	0.00098048	0.000202	0.0001173	1084.1	3.6072e-06	3.8897e-06	1152.5	226.21	6.8824e-06	2.7304e-06	284.45	78.705	64.007	17.795	2.9458e-06	25.156	0.0001932	0.00015378	4.2879e-05	1085.5	1.723e-06	1.6879e-06	1151.9	227.33	1.7832e-06	1.6798e-06	285.66	79.497	63.302	18.207	1.7391e-06	26.032	418.015	270.540	213.080	164.810	259.842	333.175	164.460	172.144	304.733	306.882	171.726	177.791	177.727	185.513	308.737	184.491	-8191	255	
791.955	1	1	0	0	0.11587	0.25798	0.10316	0.091689	0.18798	0.19114	0.15418	0.033767	0.19122	0.18652	0.27689	0.17835	0.11267	0.11676	0.11833	0.16207	-2.2646	-2.8167	-3.025	-2.9271	-3.0375	-2.8875	-2.7875	-3.1	-2.8063	-2.8688	-3	-2.6708	-3.1083	-2.8104	-2.85	-3.0833	377.399	451.237	271.346	233.855	353.755	315.298	408.772	389.337	156.391	473.386	457.988	449.339	512.400	481.486	428.493	396.462	0.00092136	0.00033539	6.2309e-05	1082.2	5.1641e-06	4.9474e-06	1148.9	226.1	8.9224e-06	1.7052e-06	282.12	79.043	63.105	17.659	5.83e-06	25.014	0.00018753	0.00015479	4.2759e-05	1084.2	1.8133e-06	1.6927e-06	1149.2	226.56	1.7257e-06	1.719e-06	285.42	79.565	62.939	18.208	1.7107e-06	25.954	413.420	302.152	257.618	164.919	286.863	276.786	164.445	172.239	284.235	333.978	171.526	177.936	177.903	185.186	279.046	184.624	-8191	255	
792.051	1	1	0	0	0.16234	0.0385	0.15615	0.21821	0.065791	0.29917	0.24318	0.17975	0.25442	0.24572	0.062777	0.29419	0.10813	0.24424	0.14801	0.2024	-2.3042	-2.8521	-2.975	-2.9417	-3.1625	-2.9042	-2.6875	-3.0667	-2.8063	-2.8625	-3.1375	-2.6917	-3.0687	-3.0458	-2.7604	-3.0563	385.542	286.268	321.713	160.655	199.237	240.324	415.169	464.178	387.333	296.397	505.335	481.439	283.646	484.641	431.081	477.484	0.00090502	0.00028477	8.6493e-05	1082.5	3.6894e-06	2.8325e-06	1147.2	227.68	5.3296e-06	3.3071e-06	284.27	78.977	63.683	17.889	4.4048e-06	25.143	0.00019289	0.00015878	4.3255e-05	1085.5	1.7961e-06	1.6438e-06	1149	227.29	1.7848e-06	1.747e-06	285.24	79.611	63.05	18.256	1.7096e-06	25.954	416.415	247.288	275.816	164.979	282.591	306.816	164.693	172.036	293.971	301.589	171.479	177.798	178.012	185.377	307.545	184.525	-8191	255	
792.171	1	1	0	0	0.069236	0.080432	0.30322	0.13707	0.1922	0.12923	0.1334	0.1921	0.26963	0.1525	0.37128	0.15293	0.13364	0.18863	0.15807	0.13691	-2.4354	-2.825	-3.1354	-2.7583	-2.95	-2.9375	-2.8667	-3.0292	-2.6813	-2.8979	-2.9583	-2.8604	-2.9375	-2.7979	-2.8625	-3.0312	364.859	404.857	254.287	450.361	387.203	429.947	278.393	359.710	359.057	243.760	455.151	409.228	284.925	453.036	441.225	467.461	0.0008341	0.00018909	5.3294e-05	1077.4	6.6399e-06	3.1995e-06	1140.9	226.51	6.0673e-06	2.4777e-06	283.61	79.121	63.79	17.787	2.8185e-06	25.443	0.00018623	0.00015102	4.3511e-05	1082.2	1.8261e-06	1.6965e-06	1146.2	226.76	1.7414e-06	1.6849e-06	285.35	79.581	63.318	18.219	1.664e-06	26.035	419.137	259.242	268.519	164.814	279.827	292.413	164.304	171.790	290.565	288.870	171.443	177.938	177.714	185.814	327.998	184.787	-8191	255	
792.243	1	1	0	0	0.3639	0.12248	0.10805	0.25055	0.13582	0.23417	0.040955	0.030104	0.11648	0.10587	0.11197	0.34256	0.16701	0.34408	0.1224	0.22808	-2.3042	-2.6646	-3.0771	-2.8875	-2.8375	-2.8854	-2.7729	-3.1208	-2.6917	-2.8937	-3.2583	-2.7542	-3.0542	-2.8458	-2.5938	-2.9979	498.474	456.037	386.021	485.960	483.884	302.674	313.951	293.615	175.046	451.724	162.867	391.287	472.092	154.942	341.170	409.303	0.00090706	0.00031493	0.00011536	1081.2	2.5687e-06	3.7048e-06	1143.8	224.37	7.054e-06	2.9316e-06	284.32	78.642	63.158	17.741	2.0584e-06	25.272	0.0001865	0.00015261	4.2201e-05	1081.7	1.8073e-06	1.6224e-06	1148.2	226.83	1.7679e-06	1.7146e-06	285.2	79.657	63.164	18.19	1.6734e-06	25.976	417.424	254.214	241.128	164.495	290.336	316.627	164.638	172.211	293.525	265.915	171.349	177.789	177.703	185.483	298.911	184.561	-8191	255	
792.339	1	1	0	0	0.15442	0.074188	0.36279	0.28306	0.099966	0.18697	0.067459	0.25366	0.30117	0.15226	0.26893	0.21279	0.12355	0.11901	0.073253	0.17729	-2.4271	-2.7771	-2.9583	-2.8771	-2.8187	-2.9833	-2.6333	-3.0979	-2.7562	-2.7958	-3.0417	-2.8042	-2.8438	-3.075	-2.7833	-2.9604	305.319	411.846	334.174	456.691	505.849	473.719	479.689	396.922	340.146	386.422	258.296	307.882	478.217	270.075	513.239	388.824	0.0009711	0.00015304	8.2736e-05	1080.7	6.5652e-06	4.4768e-06	1153.9	226.11	7.437e-06	3.7415e-06	282.62	78.813	63.87	17.896	2.5157e-06	25.222	0.00019142	0.00014714	4.3599e-05	1083.3	1.776e-06	1.6931e-06	1149.7	227.15	1.7687e-06	1.6572e-06	284.8	79.562	63.372	18.275	1.6799e-06	26.014	419.551	272.978	240.807	164.786	274.473	283.868	164.623	172.126	293.016	307.451	171.559	177.880	177.585	185.341	294.310	184.898	-8191	255	
792.435	1	1	0	0	0.10568	0.17765	0.25562	0.31575	0.10363	0.093248	0.045746	0.18685	0.14899	0.23084	0.19509	0.23597	0.040197	0.023004	0.069045	0.12019	-2.3937	-2.6896	-2.9771	-2.9583	-2.7542	-3.0646	-2.7792	-3.2125	-2.9625	-2.5958	-3.3208	-2.8792	-2.7729	-2.9813	-2.8063	-3.1354	239.356	501.948	470.760	461.726	315.399	429.326	345.926	429.074	412.000	297.541	490.288	418.135	337.970	226.034	162.673	405.407	0.0009445	0.00016172	8.0158e-05	1084.1	2.8385e-06	4.9835e-06	1151.1	226.49	5.2653e-06	2.4734e-06	285.48	78.7	64.112	17.672	2.9237e-06	25.378	0.00019234	0.00015535	4.1775e-05	1083.8	1.7152e-06	1.6515e-06	1150.9	227.43	1.6314e-06	1.6156e-06	286.05	79.587	63.517	18.214	1.6631e-06	26.046	419.996	228.203	296.456	164.807	291.132	315.176	164.601	172.425	333.107	318.586	171.285	177.655	178.026	185.424	289.052	184.519	-8191	255	
792.554	1	1	0	0	0.10588	0.11151	0.25999	0.22564	0.18223	0.072205	0.31895	0.15833	0.095266	0.14824	0.10683	0.077609	0.064917	0.034564	0.36665	0.19044	-2.5979	-2.775	-2.9542	-2.9458	-2.8146	-3.1042	-2.8021	-2.8187	-2.9708	-2.6375	-3.0563	-3.0438	-2.7292	-3.1958	-2.8438	-2.8542	488.018	222.559	436.905	381.503	237.087	213.856	490.505	233.502	239.811	346.694	469.030	364.100	355.039	449.852	424.697	329.417	0.000942	0.00016296	6.8358e-05	1085.4	4.1654e-06	3.1596e-06	1148.6	226.39	6.6793e-06	3.2903e-06	285.53	79.155	63.405	17.844	2.5061e-06	25.29	0.00018704	0.0001484	4.2081e-05	1085.1	1.6732e-06	1.6025e-06	1149.3	227.03	1.614e-06	1.6258e-06	286.31	79.608	63.184	18.258	1.6219e-06	25.983	418.988	238.718	270.489	164.758	289.516	306.152	164.502	172.229	291.849	297.850	171.650	177.327	177.726	185.609	338.161	184.817	-8191	255	
792.650	1	1	0	0	0.2556	0.073196	0.10961	0.040024	0.19962	0.066765	0.11893	0.1084	0.033284	0.22446	0.21343	0.22252	0.16337	0.15797	0.12913	0.18254	-2.6396	-2.5687	-3.0563	-2.9313	-2.5354	-3.1875	-3.0479	-2.8229	-2.9229	-2.6917	-2.8771	-2.8812	-2.6417	-2.9354	-2.9021	-2.7917	183.470	454.674	234.277	189.782	462.629	212.121	502.641	401.492	500.943	486.994	469.124	178.913	196.120	484.307	465.923	494.360	0.00088806	0.00023314	7.5605e-05	1082.6	4.046e-06	2.5776e-06	1146.7	226.56	6.1987e-06	2.2705e-06	284	79.136	63.57	17.869	3.0393e-06	25.423	0.00017663	0.0001435	4.1048e-05	1082.5	1.5762e-06	1.5319e-06	1147.5	227.15	1.6228e-06	1.4748e-06	285.7	79.538	63.007	18.26	1.4587e-06	26.019	419.531	175.581	264.965	164.847	264.388	310.014	164.477	172.346	286.606	318.186	171.164	177.572	178.117	185.929	340.740	184.779	-8191	255	
792.746	1	1	0	0	0.22456	0.25527	0.20056	0.18637	0.15851	0.096436	0.097935	0.23183	0.037723	0.13449	0.047526	0.059216	0.087867	0.19033	0.071436	0.088295	-2.7167	-2.5979	-2.9146	-3.0812	-2.6125	-3.1167	-3.0125	-2.8521	-3.0208	-2.8438	-3.0083	-2.9896	-2.7583	-3.0896	-2.8604	-2.9396	438.998	366.112	228.052	449.308	261.808	327.451	390.645	482.174	229.349	268.236	309.292	170.897	376.507	442.209	425.479	322.800	0.00091273	0.00028163	9.3475e-05	1080	4.4602e-06	3.9123e-06	1141.4	225.47	5.6998e-06	3.0367e-06	282.2	79.447	64.036	17.84	4.4328e-06	25.302	0.00017327	0.00012611	3.6781e-05	1076.9	1.495e-06	1.4078e-06	1142.5	226.55	1.4277e-06	1.4253e-06	284.74	79.685	63.147	18.287	1.4211e-06	26.019	419.718	247.387	275.855	164.654	269.056	292.851	164.489	172.167	262.295	320.493	171.188	178.089	177.526	185.417	291.651	185.060	-8191	255	
792.820	1	1	0	0	0.099864	0.29181	0.011301	0.35856	0.082961	0.16836	0.053465	0.29424	0.20421	0.10633	0.13288	0.18145	0.35955	0.1464	0.23439	0.33364	-2.7271	-2.7125	-2.9062	-3.0812	-2.6063	-2.8333	-3.1354	-2.7896	-3.1646	-2.8688	-2.8896	-3.0354	-2.6771	-3.0167	-2.925	-2.7542	268.390	432.108	198.556	463.738	485.603	358.352	453.710	193.261	400.984	404.603	177.151	508.574	316.963	393.133	346.090	468.492	0.00089357	0.0002728	7.9589e-05	1067.9	3.6399e-06	1.6907e-06	1139.5	224.96	8.0207e-06	1.7211e-06	281.71	78.637	63.625	17.793	3.378e-06	25.399	0.00016436	0.00012521	3.4195e-05	1071	1.4936e-06	1.3867e-06	1139.1	226.13	1.5568e-06	1.4272e-06	284.55	79.416	62.864	18.238	1.4499e-06	26.035	418.744	189.411	293.475	164.883	296.982	349.561	164.560	172.440	283.352	311.244	171.460	177.788	178.143	185.357	268.014	185.210	-8191	255	
792.939	1	1	0	0	0.090144	0.1092	0.1858	0.078084	0.11388	0.1165	0.22733	0.21074	0.34865	0.12088	0.20402	0.075347	0.3665	0.058602	0.30051	0.10713	-2.5667	-2.7938	-2.625	-3.1937	-2.6792	-3.0062	-2.9813	-2.5604	-2.8333	-2.9125	-2.7938	-2.9604	-2.6083	-3.1188	-3.0542	-2.6875	410.737	302.396	460.443	446.878	277.275	410.854	429.765	449.878	298.646	170.882	493.487	296.958	208.626	272.524	265.346	395.313	0.00087428	0.0003096	8.7209e-05	1073.6	3.3188e-06	2.117e-06	1138.1	225.41	5.5007e-06	2.3196e-06	284.35	78.962	63.192	17.842	3.1602e-06	25.263	0.00016658	0.00012658	3.6483e-05	1070.7	1.5123e-06	1.4233e-06	1137.8	226	1.5303e-06	1.3764e-06	285.24	79.517	62.919	18.227	1.4266e-06	25.99	417.843	188.550	278.243	164.847	268.776	335.324	164.710	172.073	285.141	345.086	171.400	177.644	177.854	185.264	255.268	185.301	-8191	255	
#DATA ENDS
