BOXY.EXE: ISS Imagent and Oximeter Data Acquisition Program Version 0.80
Ascii Record File

#ACQ INFORMATION
2  Detector Channels 
16  External MUX Channels 
1  Auxiliary Channels 
5000  Waveform (CCF) Frequency (Hz)
1  Waveforms Skipped 
30  Waveforms Averaged 
1  Cycles Averaged 
16  Acquisitions per Waveform 
10.0806  Updata Rate (Hz) 

#FILE INFORMATION
TRUE -- External MUX Channel results are PARSED.
FALSE -- AC DC and Phase are NOT grouped.
TRUE -- Companion Program Settings File CREATED.
FALSE -- AC data not excluded
FALSE -- DC data not excluded
FALSE -- Phase data not excluded
FALSE -- Auxillary Chn. data not excluded
Tab delimiters

#CALIBRATION STATE
TRUE -- Waveform Calibration Values APPLIED.


#AUX CALIBRATION VALUES
Val Type	aux-1	

Term	1.0000e+00	
Factor	0.0000e+00	


#WF CALIBRATION VALUES
A = Detector Channel
Val Type	A-AC1	A-AC2	A-AC3	A-AC4	A-AC5	A-AC6	A-AC7	A-AC8	A-AC9	A-AC10	A-AC11	A-AC12	A-AC13	A-AC14	A-AC15	A-AC16	A-DC1	A-DC2	A-DC3	A-DC4	A-DC5	A-DC6	A-DC7	A-DC8	A-DC9	A-DC10	A-DC11	A-DC12	A-DC13	A-DC14	A-DC15	A-DC16	A-Ph1	A-Ph2	A-Ph3	A-Ph4	A-Ph5	A-Ph6	A-Ph7	A-Ph8	A-Ph9	A-Ph10	A-Ph11	A-Ph12	A-Ph13	A-Ph14	A-Ph15	A-Ph16	

Term	0.00000e+00	0.00000e+00	0.00000e+00	0.00000e+00	0.00000e+00	0.00000e+00	0.00000e+00	0.00000e+00	0.00000e+00	0.00000e+00	0.00000e+00	0.00000e+00	0.00000e+00	0.00000e+00	0.00000e+00	0.00000e+00	0.00000e+00	0.00000e+00	0.00000e+00	0.00000e+00	0.00000e+00	0.00000e+00	0.00000e+00	0.00000e+00	0.00000e+00	0.00000e+00	0.00000e+00	0.00000e+00	0.00000e+00	0.00000e+00	0.00000e+00	0.00000e+00	0.00000e+00	0.00000e+00	0.00000e+00	0.00000e+00	0.00000e+00	0.00000e+00	0.00000e+00	0.00000e+00	0.00000e+00	0.00000e+00	0.00000e+00	0.00000e+00	0.00000e+00	0.00000e+00	0.00000e+00	0.00000e+00	
Factor	1.00000e+00	1.00000e+00	1.00000e+00	1.00000e+00	1.00000e+00	1.00000e+00	1.00000e+00	1.00000e+00	1.00000e+00	1.00000e+00	1.00000e+00	1.00000e+00	1.00000e+00	1.00000e+00	1.00000e+00	1.00000e+00	1.00000e+00	1.00000e+00	1.00000e+00	1.00000e+00	1.00000e+00	1.00000e+00	1.00000e+00	1.00000e+00	1.00000e+00	1.00000e+00	1.00000e+00	1.00000e+00	1.00000e+00	1.00000e+00	1.00000e+00	1.00000e+00	X	X	X	X	X	X	X	X	X	X	X	X	X	X	X	X	

B = Detector Channel
Val Type	B-AC1	B-AC2	B-AC3	B-AC4	B-AC5	B-AC6	B-AC7	B-AC8	B-AC9	B-AC10	B-AC11	B-AC12	B-AC13	B-AC14	B-AC15	B-AC16	B-DC1	B-DC2	B-DC3	B-DC4	B-DC5	B-DC6	B-DC7	B-DC8	B-DC9	B-DC10	B-DC11	B-DC12	B-DC13	B-DC14	B-DC15	B-DC16	B-Ph1	B-Ph2	B-Ph3	B-Ph4	B-Ph5	B-Ph6	B-Ph7	B-Ph8	B-Ph9	B-Ph10	B-Ph11	B-Ph12	B-Ph13	B-Ph14	B-Ph15	B-Ph16	

Term	0.00000e+00	0.00000e+00	0.00000e+00	0.00000e+00	0.00000e+00	0.00000e+00	0.00000e+00	0.00000e+00	0.00000e+00	0.00000e+00	0.00000e+00	0.00000e+00	0.00000e+00	0.00000e+00	0.00000e+00	0.00000e+00	0.00000e+00	0.00000e+00	0.00000e+00	0.00000e+00	0.00000e+00	0.00000e+00	0.00000e+00	0.00000e+00	0.00000e+00	0.00000e+00	0.00000e+00	0.00000e+00	0.00000e+00	0.00000e+00	0.00000e+00	0.00000e+00	-2.65566e+02	-1.24841e+02	-1.20241e+02	-1.81994e+02	-7.06572e+01	-6.59311e+01	-1.56309e+02	-1.62015e+02	-6.90623e+01	-6.87394e+01	-1.73690e+02	-1.70229e+02	-1.84320e+02	-1.76364e+02	-6.75761e+01	-1.49227e+02	
Factor	6.26878e-05	1.67292e-04	5.27594e-05	1.83783e-01	2.31563e-06	1.97287e-06	1.71397e-01	5.46504e-02	2.81418e-06	1.76473e-06	1.02938e-01	3.00253e-02	5.63014e-02	9.41980e-03	2.03463e-06	1.37220e-02	5.32171e-06	6.03407e-06	1.68690e-06	9.18392e-02	6.45977e-08	6.66728e-08	8.01300e-02	2.73424e-02	6.44674e-08	6.66207e-08	4.98357e-02	1.45750e-02	2.78928e-02	4.75395e-03	6.55589e-08	6.70704e-03	X	X	X	X	X	X	X	X	X	X	X	X	X	X	X	X	



#DISTANCE SETTINGS
A = Detector Channel
A-1	A-2	A-3	A-4	A-5	A-6	A-7	A-8	A-9	A-10	A-11	A-12	A-13	A-14	A-15	A-16	

2.5000e+00	3.0000e+00	2.5000e+00	3.0000e+00	2.0000e+00	3.0000e+00	1.5000e+00	3.0000e+00	3.0000e+00	3.0000e+00	3.0000e+00	3.0000e+00	3.0000e+00	3.0000e+00	1.5000e+00	3.0000e+00	

B = Detector Channel
B-1	B-2	B-3	B-4	B-5	B-6	B-7	B-8	B-9	B-10	B-11	B-12	B-13	B-14	B-15	B-16	

1.0000e+01	1.0000e+01	1.0000e+01	1.4400e+00	1.0000e+01	1.0000e+01	1.5100e+00	1.9400e+00	1.0000e+01	1.0000e+01	1.9900e+00	2.4900e+00	2.4100e+00	2.9000e+00	1.0000e+01	2.9800e+00	




#DATA BEGINS
time	group	step	mark	flag	A-AC1	A-AC2	A-AC3	A-AC4	A-AC5	A-AC6	A-AC7	A-AC8	A-AC9	A-AC10	A-AC11	A-AC12	A-AC13	A-AC14	A-AC15	A-AC16	A-DC1	A-DC2	A-DC3	A-DC4	A-DC5	A-DC6	A-DC7	A-DC8	A-DC9	A-DC10	A-DC11	A-DC12	A-DC13	A-DC14	A-DC15	A-DC16	A-Ph1	A-Ph2	A-Ph3	A-Ph4	A-Ph5	A-Ph6	A-Ph7	A-Ph8	A-Ph9	A-Ph10	A-Ph11	A-Ph12	A-Ph13	A-Ph14	A-Ph15	A-Ph16	B-AC1	B-AC2	B-AC3	B-AC4	B-AC5	B-AC6	B-AC7	B-AC8	B-AC9	B-AC10	B-AC11	B-AC12	B-AC13	B-AC14	B-AC15	B-AC16	B-DC1	B-DC2	B-DC3	B-DC4	B-DC5	B-DC6	B-DC7	B-DC8	B-DC9	B-DC10	B-DC11	B-DC12	B-DC13	B-DC14	B-DC15	B-DC16	B-Ph1	B-Ph2	B-Ph3	B-Ph4	B-Ph5	B-Ph6	B-Ph7	B-Ph8	B-Ph9	B-Ph10	B-Ph11	B-Ph12	B-Ph13	B-Ph14	B-Ph15	B-Ph16	aux-1	digaux	

1231.309	1	1	0	512	0.27632	0.21492	0.0536	0.10929	0.013502	0.12818	0.19163	0.14231	0.13583	0.089446	0.046675	0.32509	0.17933	0.15541	0.20863	0.23795	-2.3708	-2.95	-2.9333	-2.8979	-2.9354	-3.1021	-2.8229	-3.2833	-2.8021	-2.9333	-3.0479	-2.9167	-2.9833	-2.9854	-2.7896	-3.1813	248.796	183.951	232.056	377.388	369.257	202.593	253.096	339.362	320.401	300.265	96.622	417.269	397.614	356.918	348.835	301.851	0.002257	0.00055623	0.00018911	407.12	8.0079e-06	5.1804e-06	636.15	160.41	8.0763e-06	5.1061e-06	300.25	134.8	72.109	34.023	6.2824e-06	70.596	0.00030274	0.00018154	5.1591e-05	399.15	2.1424e-06	1.8638e-06	628.71	159.08	2.0016e-06	2.0114e-06	298.15	133.47	69.641	34.147	1.9265e-06	71.029	397.622	190.836	196.185	108.942	234.472	253.461	108.025	113.267	260.748	230.930	112.079	115.304	116.269	119.453	254.218	118.674	-8191	255	
1231.405	1	1	0	0	0.10381	0.067948	0.038465	0.019034	0.12027	0.14082	0.054786	0.29871	0.088149	0.10698	0.27328	0.2015	0.088335	0.14342	0.21863	0.21063	-2.3521	-2.9146	-3.2021	-2.7458	-3.0979	-3.0563	-2.8292	-2.9521	-2.7188	-2.8521	-3.2687	-2.7229	-3.1271	-3.2562	-2.7208	-3.4667	195.195	182.761	204.309	395.875	235.121	374.928	377.955	222.316	114.968	286.734	429.080	423.446	199.045	398.386	308.145	413.589	0.0022911	0.00042118	0.00012971	405.12	4.2981e-06	4.4693e-06	636.36	161	9.3941e-06	3.7322e-06	303.05	135.77	72.151	34.303	5.5998e-06	71.323	0.00030689	0.00017455	5.3401e-05	400.47	2.0682e-06	1.9737e-06	630.18	159.42	2.0271e-06	1.9208e-06	299.58	134.02	69.596	34.508	2.0591e-06	71.635	397.271	176.892	203.473	108.794	222.490	207.398	108.053	113.441	234.121	253.405	111.828	115.249	116.446	119.759	264.132	118.671	-8191	255	
1231.501	1	1	0	0	0.091029	0.052314	0.090532	0.022794	0.24493	0.20912	0.020306	0.12923	0.19756	0.26538	0.039188	0.39792	0.22932	0.33417	0.077109	0.026071	-2.6042	-2.8729	-3.25	-2.8958	-2.9771	-3.1854	-2.8792	-3.1917	-3.0292	-2.6542	-3.2458	-2.9875	-3.0125	-3.2708	-2.7979	-3.1146	272.353	443.240	131.509	262.529	119.953	131.377	296.852	402.938	454.197	362.944	122.823	382.371	290.420	451.484	278.163	183.064	0.0023093	0.00031334	0.00017138	407.94	6.2008e-06	3.2533e-06	640.1	162.3	9.4234e-06	3.7262e-06	305.69	136.74	72.384	34.076	6.5904e-06	71.233	0.00031354	0.0001845	5.6743e-05	403.26	2.1744e-06	2.0669e-06	633.03	160.86	2.0501e-06	1.9123e-06	303.03	135.29	70.159	34.359	2.0027e-06	71.631	395.215	151.867	193.277	108.472	241.690	267.757	108.099	113.374	242.916	213.660	112.114	115.120	116.826	119.807	268.474	118.653	-8191	255	
1231.595	1	1	0	0	0.19186	0.092722	0.062337	0.23788	0.044273	0.048266	0.23424	0.28193	0.10844	0.0927	0.12999	0.20044	0.2722	0.090597	0.20634	0.33031	-2.5771	-2.6854	-3.0396	-2.8833	-3.1292	-2.9958	-2.6896	-2.9708	-3.0187	-2.7521	-3.2354	-2.9646	-2.7271	-3.1271	-2.8729	-3.2167	305.999	237.028	370.569	396.409	453.421	161.250	276.139	375.804	196.226	348.681	100.173	436.617	151.115	346.340	363.389	354.164	0.0023476	0.0005739	8.4037e-05	407.83	4.9758e-06	5.1287e-06	643.59	162.67	5.9719e-06	1.3846e-06	306.76	136.4	72.98	34.034	7.6052e-06	70.525	0.00030349	0.00017699	5.6283e-05	403.17	1.9643e-06	2.0594e-06	631.73	161.31	1.9575e-06	1.9263e-06	302.72	135.07	70.369	34.075	1.9502e-06	70.918	399.344	180.572	205.233	108.780	233.939	248.355	108.260	113.561	232.330	250.806	111.634	115.075	116.679	119.503	248.911	118.835	-8191	255	
1231.693	1	1	0	0	0.15898	0.16998	0.26046	0.05909	0.08808	0.11302	0.1359	0.25382	0.14985	0.017019	0.26768	0.076223	0.019744	0.25272	0.35834	0.13959	-2.3812	-2.7083	-3.1458	-2.7	-2.9917	-3.3688	-3.0021	-3.0354	-3.1146	-2.8229	-3.1063	-3.0354	-2.9208	-3.0625	-2.8479	-3.1813	273.445	223.386	357.878	332.036	338.807	282.759	320.120	353.106	109.948	359.012	178.390	127.872	332.123	198.111	441.992	351.701	0.0023049	0.00024715	0.00011029	408.38	6.6837e-06	4.5883e-06	639.08	162.2	5.2648e-06	3.859e-06	306.94	136.65	72.889	33.886	5.7229e-06	71.1	0.00030406	0.00017182	5.4789e-05	405.06	1.9016e-06	2.0378e-06	631.82	160.73	1.9692e-06	1.8994e-06	302.87	135.17	70.316	34.045	1.9597e-06	71.449	395.377	176.127	210.001	108.352	228.404	245.939	108.139	113.435	244.981	234.622	111.673	115.163	116.906	119.599	240.438	118.455	-8191	255	
1231.812	1	1	0	0	0.11199	0.25943	0.17144	0.09091	0.21531	0.21969	0.087507	0.12783	0.25527	0.12231	0.0069255	0.015344	0.078896	0.088477	0.071168	0.12264	-2.5812	-2.7542	-3.1708	-3.0458	-2.8021	-3.1771	-2.8563	-3.0208	-2.975	-2.5812	-3.3063	-3.1312	-2.6729	-3.2021	-2.9833	-3.0938	107.648	409.146	271.088	176.443	226.337	126.060	177.903	180.314	377.623	417.694	218.259	167.895	114.317	134.118	436.112	423.768	0.0023568	0.00028075	0.00016883	406.28	7.7452e-06	5.1912e-06	642.8	162.86	8.7112e-06	5.7247e-06	306.07	138.67	73.418	33.78	3.7422e-06	71.742	0.00030306	0.00017288	5.5506e-05	404.48	1.9114e-06	2.1031e-06	634.58	161.88	2.0987e-06	1.8186e-06	304.96	137.06	71.042	34.126	1.9617e-06	72.007	396.507	209.110	196.670	108.519	229.087	221.751	108.288	113.403	236.550	233.565	111.641	115.087	116.624	119.646	243.266	118.622	-8191	255	
1231.908	1	1	0	0	0.15389	0.09578	0.19271	0.14092	0.22774	0.12417	0.13906	0.33752	0.11271	0.087752	0.11987	0.13504	0.35021	0.18525	0.063104	0.21912	-2.6437	-2.9104	-3.0667	-2.9042	-2.9437	-3.1646	-3.1813	-2.7625	-3.1833	-2.8146	-2.9521	-3.0604	-2.6271	-3.2625	-2.8667	-3.1271	381.696	111.448	297.987	137.237	130.378	441.276	386.250	210.322	395.819	327.011	233.596	103.914	392.434	102.631	420.344	437.738	0.0024148	0.00034527	0.00015477	412.76	6.7179e-06	4.3471e-06	645.08	164.17	9.8221e-06	5.5153e-06	309.62	138.49	72.922	33.422	5.7891e-06	71.474	0.00032699	0.00017061	5.4705e-05	407.56	1.9295e-06	2.2291e-06	637.8	163.23	2.176e-06	1.9666e-06	307.21	138.08	71.559	33.84	1.9654e-06	72.023	396.458	169.730	202.291	108.854	228.008	237.334	107.985	113.257	243.807	239.218	111.733	115.023	116.592	119.708	255.724	118.390	-8191	255	
1232.004	1	1	0	0	0.07027	0.21217	0.2745	0.085669	0.26878	0.12507	0.14311	0.21895	0.17198	0.1385	0.086443	0.19644	0.21781	0.12982	0.05643	0.081349	-2.7729	-2.6958	-3.0208	-3.1354	-2.725	-3.0271	-2.9458	-2.8146	-3.0375	-2.7271	-3.2792	-3.0687	-2.9104	-3.2229	-2.75	-2.9646	436.340	451.793	432.234	225.734	370.775	372.575	407.898	386.865	342.020	243.921	309.053	446.193	447.490	394.769	157.321	401.981	0.0023345	0.00028307	0.00011508	411.67	7.89e-06	3.3368e-06	646.84	165.1	1.0339e-05	3.7971e-06	306.44	138.19	73.51	33.765	2.5472e-06	70.836	0.00031986	0.00017927	5.2719e-05	409.3	1.8694e-06	2.2287e-06	638.81	163.68	2.2311e-06	1.8959e-06	306.28	137.56	71.423	33.96	1.983e-06	71.511	397.486	159.303	198.727	108.406	232.408	250.392	107.837	113.228	239.902	238.519	111.360	115.116	116.074	119.624	270.525	118.517	-8191	255	
1232.101	1	1	0	0	0.22942	0.20248	0.15352	0.061954	0.19384	0.26585	0.34275	0.1013	0.1287	0.14093	0.13513	0.19467	0.15595	0.26648	0.1663	0.26914	-2.625	-2.6625	-2.8917	-2.975	-2.7188	-3.0958	-3.0354	-2.8333	-3.0625	-3.0083	-2.9208	-3.3187	-2.825	-3.025	-3.0854	-2.6979	342.901	193.432	319.745	340.217	172.653	350.651	413.636	376.035	390.259	276.107	449.816	416.220	250.399	120.965	155.904	367.421	0.0022005	0.0004259	0.00016637	410.33	6.3149e-06	4.747e-06	644.11	166.14	5.5377e-06	5.4326e-06	311.02	139.72	73.991	33.939	7.487e-06	71.371	0.0003235	0.00017818	5.1046e-05	410.03	1.9261e-06	2.1891e-06	636.95	164.32	2.2292e-06	1.9713e-06	308.13	138.53	72.031	33.94	2.0998e-06	71.764	399.148	159.250	176.473	108.723	240.764	230.847	108.079	113.452	217.739	249.155	111.617	115.026	116.458	119.999	241.296	118.791	-8191	255	
1232.197	1	1	0	0	0.12442	0.1681	0.055412	0.064885	0.18401	0.080563	0.084808	0.081196	0.23967	0.2412	0.054118	0.14685	0.17289	0.19967	0.22296	0.041168	-2.65	-2.8229	-2.7833	-3.1667	-2.7458	-3.3708	-3.15	-2.8812	-3.2125	-3.0271	-2.8812	-3.4583	-2.7583	-3.0375	-3.1125	-2.7604	316.943	247.905	256.904	426.532	317.067	397.326	314.213	426.415	335.800	216.956	336.406	409.049	128.468	381.428	99.071	114.211	0.002325	0.00051814	0.00011617	414.35	5.1956e-06	2.4167e-06	649.08	166.94	8.6812e-06	5.3318e-06	313.58	141.05	74.201	33.846	5.0567e-06	72.034	0.00033358	0.00018132	5.1124e-05	411.3	1.9566e-06	2.1192e-06	640.03	165.31	2.3429e-06	1.9263e-06	310.81	139.33	72.223	33.951	2.1449e-06	72.157	395.720	185.837	188.554	108.859	211.774	237.676	108.149	113.407	232.505	254.355	111.825	115.184	116.225	119.722	259.307	118.621	-8191	255	
1232.293	1	1	0	0	0.033175	0.36606	0.19568	0.30886	0.18531	0.11448	0.13536	0.15838	0.040262	0.067488	0.22146	0.33495	0.22251	0.11634	0.092609	0.14493	-2.8271	-2.95	-2.8812	-3.0146	-2.7021	-3.0854	-3.0563	-2.7729	-3.2146	-2.9354	-2.7917	-3.15	-2.9188	-3.0771	-3.0271	-3.1063	109.770	133.769	288.110	138.997	389.405	334.996	277.740	372.143	358.326	233.412	204.015	441.241	252.667	340.959	442.613	346.746	0.0023177	0.00035013	0.00013034	415.51	7.0386e-06	5.0495e-06	651.59	167.98	6.417e-06	4.4177e-06	315.13	142.42	75.414	33.928	8.747e-06	72.529	0.0003301	0.00017995	4.9936e-05	411.99	1.9954e-06	2.0357e-06	642.7	166.12	2.2531e-06	1.9698e-06	312.38	140.81	72.947	33.925	2.2631e-06	72.685	396.721	200.710	218.774	108.546	239.390	260.608	108.174	113.332	253.969	225.224	112.037	115.176	117.157	119.677	242.932	118.819	-8191	255	
1232.389	1	1	0	0	0.14543	0.19698	0.19145	0.11932	0.18227	0.26273	0.078256	0.2205	0.15965	0.078843	0.084862	0.043072	0.28264	0.14189	0.29733	0.15037	-2.7458	-2.9875	-3.0604	-3.4271	-2.7771	-3.0208	-3.3771	-2.8042	-3.0958	-3	-2.8563	-3.2354	-2.8875	-3.0458	-3.0104	-2.7667	304.790	230.345	365.951	310.638	192.010	132.992	164.810	314.596	132.317	268.791	352.443	396.883	113.212	326.919	451.135	425.412	0.0023861	0.00050527	7.8048e-05	417.86	7.458e-06	3.6677e-06	653.18	168.01	8.6744e-06	5.2391e-06	315.7	141.66	75.798	33.602	7.4225e-06	72.113	0.00032669	0.00018833	4.9535e-05	413.44	1.9272e-06	1.9573e-06	643.41	166.28	2.1165e-06	1.9975e-06	312.2	140.39	73.202	33.906	2.2427e-06	72.24	395.364	181.755	213.389	108.364	220.931	239.168	108.408	113.455	236.544	256.505	111.553	115.019	116.891	119.908	258.097	118.776	-8191	255	
1232.510	1	1	0	0	0.24154	0.22026	0.092961	0.052532	0.29694	0.19109	0.18647	0.2615	0.3275	0.2625	0.14214	0.047275	0.3151	0.23654	0.097735	0.19912	-2.5958	-2.85	-2.8354	-2.9667	-2.8229	-2.9167	-3.1708	-2.9188	-2.9208	-3.0667	-2.8979	-3.0958	-2.9333	-2.8229	-2.95	-2.8854	327.994	294.030	240.461	412.986	200.745	331.406	381.630	421.217	191.387	348.617	223.677	328.904	436.363	438.482	421.204	450.563	0.002356	0.00027405	5.2418e-05	416.98	5.0527e-06	5.7239e-06	648.63	168.15	1.0536e-05	4.6575e-06	315.78	142.13	75.381	33.696	8.3096e-06	71.899	0.00033035	0.00018779	5.0094e-05	412.6	1.9377e-06	1.9873e-06	641.25	166.81	2.1409e-06	2.0347e-06	312.7	140.46	73.094	33.761	2.3571e-06	72.25	397.523	169.458	171.639	108.386	210.042	247.591	107.974	113.276	229.246	254.111	111.889	115.320	116.746	120.170	225.987	118.754	-8191	255	
1232.604	1	1	0	0	0.022756	0.23547	0.29364	0.12006	0.19069	0.12174	0.02952	0.051997	0.07654	0.14803	0.20732	0.097329	0.078254	0.22922	0.13371	0.41292	-2.5604	-2.7771	-2.7333	-3.0979	-2.8312	-2.8208	-3.0563	-2.8167	-2.8792	-2.9479	-2.8729	-3.0979	-2.975	-2.9125	-3.0958	-3.0646	391.816	341.231	371.029	99.215	310.463	270.819	268.704	176.797	103.066	351.923	382.229	142.265	301.041	385.496	299.477	391.479	0.0024047	0.00040046	0.00010634	417.16	5.6882e-06	4.5854e-06	654.85	170.25	1.0035e-05	1.0355e-06	319.44	143.54	75.938	33.676	6.3304e-06	72.537	0.00032087	0.00019518	4.8569e-05	413.15	2.0565e-06	1.9813e-06	647.52	168.53	1.9891e-06	2.1079e-06	316.41	142.34	73.986	33.803	2.3445e-06	72.749	395.920	209.669	201.300	108.657	235.232	241.496	108.393	113.207	239.817	230.064	111.661	115.136	116.589	119.735	233.126	118.794	-8191	255	
1232.700	1	1	0	0	0.15433	0.23641	0.065181	0.090608	0.15976	0.048299	0.20752	0.1136	0.068407	0.12882	0.24855	0.031316	0.14229	0.15928	0.069434	0.32359	-2.5333	-3.0083	-2.7833	-2.8896	-2.9354	-2.9021	-3.0604	-2.9688	-3.0062	-3.2292	-2.8667	-3.0958	-2.9979	-2.8208	-2.9833	-3.2188	390.953	427.020	177.981	342.845	294.912	346.217	354.073	402.690	187.809	280.922	405.756	394.077	430.646	322.304	414.274	376.713	0.0023635	0.00040538	0.00011925	411.1	4.7426e-06	6.7512e-06	653.02	169.41	6.7724e-06	4.4752e-06	315.31	142.9	75.386	33.288	5.1948e-06	71.709	0.00031828	0.00019812	4.8393e-05	413.53	2.0433e-06	1.9407e-06	649.98	168.87	2.0122e-06	2.2118e-06	316.26	142.58	73.964	33.734	2.3e-06	72.761	397.604	159.441	189.065	108.452	245.302	264.332	107.832	113.060	232.788	227.212	111.385	115.080	116.286	119.387	270.841	118.454	-8191	255	
1232.774	1	1	0	0	0.10747	0.084965	0.05956	0.094613	0.050681	0.18894	0.12595	0.14918	0.2294	0.066634	0.17167	0.25694	0.10043	0.21098	0.25045	0.19914	-2.5833	-3.1146	-2.8063	-3.1854	-2.9062	-2.6375	-3.2458	-2.9417	-2.7479	-3.1521	-3.025	-3.025	-2.8125	-2.8854	-3.1583	-2.9896	213.961	180.512	139.176	336.178	404.615	192.875	353.633	281.930	383.119	430.109	284.841	258.936	111.703	138.234	260.072	357.837	0.0024206	0.0005294	0.00012203	416.03	7.1755e-06	5.7982e-06	660.85	170.51	1.271e-05	4.8238e-06	314.02	141.15	75.469	33.028	6.3623e-06	71.582	0.00031038	0.00020052	4.9514e-05	414.81	2.1368e-06	1.9774e-06	652.25	169.56	2.0349e-06	2.2038e-06	316.24	142.09	74.035	33.667	2.2368e-06	72.743	394.566	198.912	178.562	108.499	238.626	237.277	108.104	112.915	253.195	245.781	111.539	114.885	115.790	119.549	245.237	118.376	-8191	255	
1232.893	1	1	0	0	0.16284	0.10539	0.02983	0.015124	0.18055	0.06234	0.21832	0.20284	0.069087	0.30401	0.1314	0.27938	0.12024	0.28088	0.28892	0.045446	-2.3021	-2.975	-2.8167	-2.9417	-3.1333	-3.0396	-3.1562	-3.075	-2.7979	-3.15	-2.9396	-3.0375	-3.0708	-2.725	-3.0312	-3.15	202.022	153.442	378.529	303.745	268.458	106.538	283.912	368.205	212.355	362.946	180.005	251.945	158.027	130.792	175.142	97.983	0.0023606	0.00019625	0.00017005	414.54	8.5286e-06	5.8945e-06	654.62	168.65	7.0268e-06	4.0077e-06	319.06	144.03	75.515	33.134	7.9717e-06	71.582	0.00031566	0.00020835	4.9707e-05	415.66	2.1542e-06	1.963e-06	654.34	169.64	2.0197e-06	2.2998e-06	319.64	143.7	74.317	33.729	2.267e-06	73.146	397.234	214.591	193.976	108.612	241.347	220.812	107.997	113.260	229.297	273.781	111.301	114.860	116.139	119.257	245.743	118.263	-8191	255	
1232.989	1	1	0	0	0.15978	0.062257	0.038262	0.15318	0.063367	0.056334	0.33715	0.095488	0.088616	0.14105	0.20339	0.12567	0.10265	0.27036	0.17129	0.18281	-2.4688	-3.0271	-2.8479	-2.8021	-3.1667	-2.8396	-3.0833	-2.9583	-2.7229	-3.125	-3.0062	-2.8833	-3.3125	-2.9188	-2.7875	-3.1354	407.862	153.257	392.035	109.926	362.505	215.641	346.552	116.068	420.076	432.321	368.366	452.687	316.384	408.540	184.553	398.518	0.0022952	0.00036324	0.00013999	416.09	7.4432e-06	5.3921e-06	660.97	171.42	6.9863e-06	5.1796e-06	321.49	145.03	76.27	33.435	5.157e-06	72.468	0.00031365	0.00020528	5.132e-05	418.67	2.2153e-06	1.8629e-06	658.55	171.18	2.0447e-06	2.2837e-06	322.08	144.98	75.007	33.977	2.2052e-06	73.737	393.860	169.256	202.141	108.172	239.158	229.284	107.925	112.877	252.876	256.571	111.497	114.803	115.788	119.572	247.772	118.470	-8191	255	
1233.085	1	1	0	0	0.27241	0.20109	0.19071	0.079489	0.30419	0.14229	0.16473	0.21341	0.23725	0.28549	0.079999	0.2103	0.18868	0.21721	0.12222	0.23208	-2.1771	-2.9833	-2.9417	-2.7896	-3.1188	-2.9208	-3.1417	-3.0542	-2.6792	-3.1333	-3.2417	-2.9521	-3.1	-2.9958	-2.9083	-3.0187	108.975	391.860	143.222	232.887	119.228	332.637	308.300	387.601	160.030	172.177	306.745	399.707	270.220	411.527	380.550	429.408	0.0023386	0.00035658	0.00013781	418.9	7.0342e-06	4.2276e-06	664.67	171.22	8.6427e-06	2.7293e-06	323.61	145.11	76.763	33.231	5.7223e-06	73.025	0.00031591	0.00021247	5.2744e-05	421.75	2.2718e-06	1.9892e-06	663.27	171.58	2.0067e-06	2.2598e-06	324.15	145.67	75.69	34.07	2.1737e-06	74.349	396.553	225.429	185.449	108.369	249.961	233.644	107.920	113.061	256.801	272.589	111.382	114.946	116.110	119.396	223.794	118.417	-8191	255	
1233.181	1	1	0	0	0.093525	0.29452	0.083741	0.27959	0.12852	0.26143	0.18092	0.075253	0.25465	0.057777	0.047631	0.19387	0.23007	0.13974	0.15514	0.22321	-2.3354	-2.8875	-2.7396	-2.8104	-3.1646	-2.7417	-3.0312	-3.1917	-2.7521	-3.125	-2.9583	-2.775	-3.0729	-2.8667	-2.8708	-3.0875	199.765	340.691	134.163	379.289	390.106	349.441	392.788	191.969	423.446	338.884	145.106	453.936	433.045	447.225	291.871	364.541	0.0023953	0.00033966	0.00019414	424.32	6.0168e-06	5.1925e-06	663.09	170.98	1.0702e-05	3.5681e-06	324.42	146.24	76.972	33.667	5.859e-06	72.801	0.00031528	0.00021032	5.3148e-05	424.14	2.2234e-06	2e-06	666.41	172.03	2.0149e-06	2.1699e-06	325.6	146.04	75.666	34.172	2.1476e-06	74.044	396.242	195.765	171.531	108.231	246.444	247.458	107.486	112.628	237.316	222.513	111.248	114.688	116.478	119.488	231.309	118.475	-8191	255	
1233.302	1	1	0	0	0.12522	0.12863	0.072758	0.033925	0.21436	0.22441	0.3138	0.25341	0.21889	0.13334	0.18626	0.053317	0.15577	0.16621	0.1924	0.062371	-2.3104	-3.1188	-2.8833	-2.6125	-3.0438	-3.0021	-2.9562	-3.1854	-2.8708	-2.8958	-3.0479	-2.85	-3.0646	-3.1063	-2.7729	-3.2167	292.834	385.904	443.510	365.497	309.311	390.814	404.762	306.403	379.096	284.147	423.621	419.569	292.740	297.780	354.754	444.437	0.0023637	0.00063398	0.00019956	421.23	5.5733e-06	4.5947e-06	662.77	170.83	5.9785e-06	2.8269e-06	321.45	144.01	75.825	33.092	7.3085e-06	72.487	0.00031519	0.00020405	5.5239e-05	423.48	2.3098e-06	2.0553e-06	664.25	172.3	2.0117e-06	2.1385e-06	323.7	145.13	75.377	33.861	2.0936e-06	73.787	396.779	179.594	173.847	108.386	221.422	247.584	107.797	112.655	246.228	264.345	111.147	114.759	116.261	119.493	220.557	118.782	-8191	255	
1233.396	1	1	0	0	0.082653	0.33899	0.11665	0.11804	0.36231	0.085939	0.21351	0.078088	0.082516	0.21608	0.14099	0.15201	0.070757	0.086176	0.10204	0.14534	-2.3729	-2.8792	-2.9396	-2.9188	-3.0167	-2.8375	-2.7646	-3.2167	-2.7646	-2.7313	-2.9313	-2.9354	-3.2021	-2.8792	-2.6604	-3.1958	411.485	330.258	208.221	426.758	188.869	367.969	430.716	104.705	105.995	414.891	330.825	183.488	142.657	268.619	110.655	280.411	0.0022843	0.00029202	0.000153	427.21	5.7968e-06	4.7804e-06	668.04	175.16	8.9995e-06	4.1009e-06	327.83	147.5	78.993	34.413	7.8349e-06	74.723	0.00030904	0.00019152	5.7548e-05	425.63	2.2698e-06	2.137e-06	666.09	175.24	2.0626e-06	2.1557e-06	328.6	147.89	76.893	34.807	2.0879e-06	75.647	397.270	159.447	168.259	108.439	221.704	264.033	108.031	113.093	237.726	251.219	111.235	114.704	116.387	119.718	255.281	118.729	-8191	255	
1233.494	1	1	0	0	0.13835	0.13918	0.043143	0.12503	0.13272	0.26568	0.16911	0.13658	0.12728	0.17647	0.33956	0.23631	0.11386	0.28519	0.26595	0.15894	-2.4375	-2.7542	-2.8458	-2.7667	-2.9458	-2.8375	-2.9354	-3.1396	-2.5667	-2.8458	-3.2479	-2.8292	-2.8583	-3.1437	-2.7042	-3.1604	235.450	402.113	451.819	274.806	145.604	409.800	329.906	395.753	180.152	359.659	96.385	393.043	378.573	431.077	149.764	349.823	0.0025636	0.00039705	9.8554e-05	428.4	3.9241e-06	4.5588e-06	681.82	180.83	7.385e-06	4.9009e-06	339.33	152.13	80.89	35.094	7.9479e-06	76.823	0.00032778	0.00019706	5.869e-05	426.26	2.2845e-06	2.1665e-06	675.42	179.86	2.1336e-06	2.1283e-06	338.33	151.86	78.847	35.539	2.1842e-06	77.733	394.234	171.185	212.135	108.487	253.575	238.109	107.948	112.900	234.752	263.430	111.276	114.728	115.728	119.588	257.635	118.465	-8191	255	
1233.590	1	1	0	0	0.097289	0.25993	0.18157	0.40891	0.088053	0.18434	0.22562	0.13577	0.27214	0.10565	0.13197	0.050795	0.21805	0.14233	0.15177	0.40024	-2.3771	-2.75	-2.9375	-2.7625	-2.9583	-2.9625	-2.7708	-3.1979	-2.8833	-2.7354	-3.2188	-2.7854	-2.8708	-3.0062	-2.7646	-3.2438	247.091	118.025	371.137	386.713	366.737	316.980	440.977	369.695	235.036	305.576	403.717	336.513	374.119	450.823	388.332	380.892	0.002524	0.00038061	0.00014247	428.59	9.9384e-06	5.7784e-06	690.73	186.14	1.0767e-05	2.338e-06	350.75	157.77	83.62	36.749	7.0641e-06	79.452	0.00033521	0.00019873	6.2626e-05	428.82	2.3119e-06	2.3645e-06	686.28	186.12	2.2016e-06	2.2279e-06	348.78	157.5	81.854	37.205	2.3028e-06	80.346	394.682	170.030	199.620	108.834	211.467	257.845	108.202	112.644	235.973	223.009	111.285	114.442	116.030	119.731	232.991	118.333	-8191	255	
1233.684	1	1	0	0	0.10393	0.04558	0.11213	0.12691	0.06707	0.40673	0.23647	0.15189	0.2094	0.20242	0.32017	0.27467	0.097838	0.15703	0.12193	0.21432	-2.3667	-2.9688	-3.2271	-2.7271	-2.8167	-2.9167	-2.8646	-3.1125	-2.975	-2.9708	-3.1625	-2.9437	-2.7104	-3.1312	-2.8479	-3.2313	159.692	297.688	177.979	263.024	410.927	246.198	121.726	411.141	235.683	200.628	376.911	384.990	194.349	303.891	278.124	99.837	0.0025251	0.00039656	0.00010492	437.44	7.1648e-06	4.0977e-06	697.58	187.34	1.1724e-05	4.0583e-06	348.52	159.19	85.502	37.723	8.2055e-06	80.31	0.0003523	0.00021143	6.5054e-05	434.17	2.3858e-06	2.4845e-06	692.85	187.62	2.3989e-06	2.1911e-06	348.45	158.97	83.365	38.325	2.2947e-06	81.184	397.166	194.289	192.341	108.373	250.915	224.275	107.853	112.915	258.945	263.197	111.369	114.529	115.555	119.400	224.626	118.332	-8191	255	
1233.781	1	1	0	0	0.09838	0.024986	0.089458	0.094485	0.30024	0.24468	0.19594	0.21958	0.13574	0.21243	0.15965	0.056528	0.1919	0.10854	0.17424	0.019008	-2.6125	-2.6937	-3.0812	-2.8104	-2.7729	-3.1917	-3.0208	-2.8646	-2.8688	-2.7062	-3.1625	-3.0104	-2.8104	-2.9729	-2.8646	-2.9958	384.231	417.583	220.127	422.885	148.274	374.711	440.292	382.430	403.317	358.909	335.660	143.852	363.353	329.893	313.111	242.804	0.0026882	0.00053614	0.00010793	436.2	6.0832e-06	5.0618e-06	689.81	185.51	1.3954e-05	4.3667e-06	340.71	154.16	83.564	36.958	6.0377e-06	77.972	0.00036208	0.00020664	6.4475e-05	434.42	2.2955e-06	2.5198e-06	686.6	184.96	2.4015e-06	2.2601e-06	340.48	154.06	81.36	37.387	2.1568e-06	78.8	394.116	172.004	185.809	108.546	221.922	226.744	107.689	112.881	245.074	228.567	111.140	114.443	115.747	119.241	249.229	118.312	-8191	255	
1233.901	1	1	0	0	0.095741	0.10523	0.077813	0.20416	0.12926	0.27985	0.30827	0.14572	0.041807	0.091161	0.14846	0.21741	0.088591	0.28757	0.11411	0.29394	-2.5062	-2.55	-3.1208	-2.9021	-2.7167	-2.8167	-2.8312	-2.8875	-2.9083	-2.7771	-3.0687	-2.9042	-2.9104	-3.3021	-2.8438	-3.0667	423.791	412.297	438.297	443.168	408.077	431.010	404.386	266.347	318.455	328.566	377.728	129.772	352.193	422.702	395.722	401.349	0.0025929	0.00043748	0.00022018	433.49	6.4904e-06	6.0529e-06	685.81	182.14	7.946e-06	4.1938e-06	336.08	152.59	81.84	36.689	6.4919e-06	76.881	0.00034796	0.00019024	6.1983e-05	431.33	2.1386e-06	2.4465e-06	680.34	181.42	2.3874e-06	2.0858e-06	335.01	151.98	79.794	37.149	2.1884e-06	77.792	397.460	193.356	178.846	108.672	232.818	240.075	107.862	112.757	245.225	229.308	111.196	114.988	115.846	119.679	253.466	118.323	-8191	255	
1233.997	1	1	0	0	0.25455	0.11565	0.09795	0.16306	0.15532	0.08453	0.35327	0.19365	0.020018	0.30066	0.11875	0.31293	0.25191	0.073862	0.18037	0.11182	-2.5938	-2.7292	-2.9021	-2.7979	-2.5667	-3.1021	-3.0438	-2.7958	-2.9333	-2.5687	-3.1833	-3.3	-2.7521	-3.1042	-2.8729	-2.9479	252.042	406.225	189.058	368.212	247.467	229.640	119.160	134.406	368.353	116.313	180.525	113.888	315.254	416.728	416.793	371.776	0.0024921	0.0003929	0.00018928	429.02	8.9328e-06	4.7858e-06	670.31	175.79	8.7497e-06	4.6841e-06	325.99	146.98	79.075	35.826	7.0817e-06	75.752	0.00034516	0.00018253	5.907e-05	425.46	2.0644e-06	2.3852e-06	664.72	175.16	2.3151e-06	1.9861e-06	325.53	145.95	76.643	36.271	2.1495e-06	76.262	396.913	159.560	172.086	108.334	239.644	250.070	107.965	112.916	255.337	232.479	111.727	114.822	116.326	119.809	255.009	118.285	-8191	255	
1234.069	1	1	0	0	0.093644	0.38443	0.09235	0.084045	0.28295	0.054666	0.068688	0.13131	0.071605	0.16663	0.28372	0.043718	0.26675	0.12599	0.148	0.16256	-2.4583	-2.5875	-2.9813	-2.9354	-2.6188	-3	-3.0167	-2.8542	-3.0542	-2.6542	-2.8979	-3.0438	-2.8333	-2.8667	-2.925	-2.9979	292.638	305.497	429.692	106.442	429.093	117.075	299.110	262.587	113.751	369.160	395.827	444.803	388.760	112.435	271.594	154.033	0.0024083	0.00044934	0.00011188	422.38	7.7052e-06	5.848e-06	661.66	173.61	9.6725e-06	1.6812e-06	320.02	144.22	77.61	36.276	7.1232e-06	75.479	0.00034272	0.00019027	5.656e-05	421.62	2.1053e-06	2.3084e-06	655.92	172.27	2.4032e-06	2.0371e-06	318.91	143.86	75.889	36.587	2.1823e-06	75.907	397.152	193.244	166.936	108.766	238.888	227.683	107.742	113.297	229.926	259.261	111.527	114.918	116.216	119.439	239.267	118.225	-8191	255	
1234.165	1	1	0	0	0.10319	0.070383	0.15621	0.19157	0.090559	0.15852	0.37402	0.15595	0.20554	0.20695	0.18706	0.17979	0.12258	0.22101	0.27605	0.24935	-2.7083	-2.7687	-2.9104	-3.0979	-2.6958	-2.8167	-3.1729	-2.8958	-2.9062	-2.775	-3.0521	-3.2771	-2.8187	-2.9458	-2.9854	-3.0646	361.082	252.581	302.262	111.076	140.251	429.242	350.160	111.255	111.119	115.390	254.297	100.673	400.144	336.401	226.593	404.380	0.0024426	0.00039697	0.00013038	421.01	6.5013e-06	5.5534e-06	662.57	175.63	1.2966e-05	4.8004e-06	327.29	148.75	80.885	37.44	6.5403e-06	78.484	0.00034647	0.000189	5.5699e-05	420.86	2.0165e-06	2.254e-06	657.03	174.62	2.3218e-06	2.0783e-06	324.99	147.82	78.47	37.916	2.353e-06	79.177	397.204	171.801	183.124	108.557	212.674	255.839	108.183	112.963	243.014	229.755	111.370	114.860	115.777	119.441	260.159	118.184	-8191	255	
1234.286	1	1	0	0	0.1947	0.087026	0.20822	0.22375	0.058203	0.17012	0.23654	0.43688	0.1616	0.24193	0.0029964	0.090846	0.082152	0.11644	0.051098	0.29954	-2.6688	-2.7	-2.7208	-3.1479	-2.4792	-2.8083	-3.1979	-2.9021	-3.05	-2.7708	-2.8812	-3.2625	-2.675	-2.8438	-3.0521	-3	430.307	161.187	411.549	286.754	265.674	261.463	387.141	407.192	330.435	311.214	286.548	115.863	410.879	208.827	223.370	403.496	0.0025221	0.00023819	0.00013024	429.62	5.4733e-06	6.8827e-06	682.36	183.99	1.2495e-05	3.7043e-06	335.38	153.19	83.323	38.656	7.9305e-06	79.658	0.00036021	0.00020323	5.8757e-05	427.79	2.0737e-06	2.4106e-06	677.3	183.06	2.5101e-06	2.2697e-06	336.1	152.44	80.698	39.066	2.4638e-06	80.432	396.364	190.385	197.630	108.615	227.148	270.703	107.766	112.694	249.977	248.689	111.165	114.440	115.879	119.399	250.373	118.355	-8191	255	
1234.382	1	1	0	0	0.13803	0.20266	0.15212	0.11917	0.31611	0.17617	0.11247	0.24847	0.23762	0.17039	0.24282	0.30201	0.22148	0.2989	0.17029	0.19575	-2.6292	-2.9479	-2.7333	-2.9396	-2.7458	-2.9292	-3.0833	-2.8	-2.9896	-2.7896	-2.8167	-3.2562	-2.8958	-2.6875	-3.0396	-2.9521	259.705	245.163	98.273	389.635	332.069	103.030	390.080	151.017	262.098	220.857	419.106	100.986	145.640	441.642	297.829	387.531	0.0024036	0.00067557	0.00021414	431.51	8.4618e-06	3.2256e-06	687.18	183.86	8.0069e-06	5.5976e-06	340.63	155.78	84.66	39.519	4.3661e-06	81.555	0.00036197	0.00021276	5.966e-05	429.13	2.2059e-06	2.4218e-06	682.42	183.82	2.5479e-06	2.347e-06	338.85	155.39	82.514	39.945	2.6407e-06	82.34	394.388	183.329	182.481	108.388	257.921	206.999	108.029	112.416	229.963	237.909	111.066	114.427	115.991	119.647	240.719	118.094	-8191	255	
1234.478	1	1	0	0	0.13476	0.029733	0.18286	0.23149	0.087924	0.15385	0.31411	0.057541	0.13461	0.10083	0.077195	0.31126	0.10672	0.079247	0.30136	0.23168	-2.5604	-2.825	-2.7292	-3.1979	-2.8979	-2.8542	-3.2021	-2.8542	-2.8521	-2.7771	-3.0229	-3.3021	-2.9083	-2.7938	-3.0125	-2.9729	168.333	422.771	315.157	413.355	145.206	359.896	428.606	394.790	114.004	255.878	206.567	360.674	383.680	322.423	370.392	412.353	0.0027757	0.00044245	0.00015578	429.83	8.0304e-06	4.9401e-06	684.23	184.76	1.2319e-05	4.7169e-06	337.64	154.87	83.934	39.305	5.3467e-06	80.584	0.00037943	0.00022516	5.882e-05	428.29	2.3452e-06	2.4208e-06	678.35	183.59	2.5666e-06	2.5205e-06	336.05	154.24	82.014	39.834	2.648e-06	81.273	396.979	213.766	206.413	108.516	263.144	280.307	107.765	112.609	250.625	262.167	111.029	114.430	115.663	119.744	245.151	118.280	-8191	255	
1234.574	1	1	0	0	0.11057	0.10653	0.18735	0.20236	0.14135	0.24718	0.076632	0.28929	0.13146	0.057498	0.21315	0.10749	0.27086	0.1344	0.22567	0.13846	-2.6063	-2.8312	-2.7458	-3.1188	-2.8979	-2.7771	-3.3375	-2.8479	-2.8021	-3.0563	-2.9583	-3.1542	-2.7979	-2.7854	-3.0646	-2.6417	146.322	152.434	183.179	184.686	400.054	247.985	374.722	398.719	120.706	259.907	381.432	452.120	283.409	390.844	300.114	370.553	0.0025678	0.00025621	0.00014576	424.56	9.7398e-06	5.1719e-06	678.59	182.44	9.2667e-06	3.9377e-06	333.13	151.24	81.692	37.732	6.3624e-06	77.233	0.00037813	0.00022978	5.6982e-05	423.64	2.3902e-06	2.4005e-06	672.11	181.45	2.4929e-06	2.4727e-06	331.83	150.44	79.736	38.202	2.5508e-06	77.986	396.074	185.974	174.702	108.851	236.745	226.070	107.921	112.889	244.893	235.709	110.807	114.583	116.001	119.491	226.807	118.013	-8191	255	
1234.669	1	1	0	0	0.10195	0.34866	0.070035	0.20317	0.16975	0.14683	0.24104	0.26002	0.18117	0.088196	0.27997	0.025984	0.31603	0.067677	0.11535	0.16192	-2.4833	-2.775	-2.5896	-3.0187	-2.8375	-2.7396	-3.1896	-2.7458	-2.8125	-3.1312	-2.6292	-3.1562	-3.0083	-2.7438	-3.05	-2.9854	398.305	406.520	115.022	436.089	220.750	185.504	372.411	151.103	176.922	418.874	398.436	454.691	135.323	204.447	143.188	430.533	0.002535	0.0004012	0.00019495	417.03	6.1303e-06	4.729e-06	656.38	175.74	7.4713e-06	3.7609e-06	322.83	145.17	78.182	36.005	4.4972e-06	74.487	0.00035409	0.00022137	5.4301e-05	416.17	2.2114e-06	2.2235e-06	653.2	175.06	2.2734e-06	2.2911e-06	322.18	144.56	76.715	36.439	2.4235e-06	75.313	393.739	181.702	178.203	108.735	247.587	247.878	107.898	112.779	234.703	232.094	111.454	114.943	116.142	119.465	262.672	118.273	-8191	255	
1234.765	1	1	0	0	0.10618	0.19368	0.16392	0.26095	0.25803	0.11776	0.31216	0.28881	0.16541	0.12726	0.17198	0.17339	0.28452	0.30831	0.097555	0.14264	-2.5271	-3.1354	-2.875	-3.0167	-2.8229	-2.7646	-3.1021	-2.7583	-2.8438	-3.0771	-2.8854	-3.15	-2.9604	-2.5833	-3.275	-2.8708	220.376	218.373	266.232	256.001	309.252	424.465	102.093	427.330	328.681	144.178	420.762	339.394	426.594	447.742	108.067	327.071	0.0024208	0.0004167	0.00012236	414.99	7.3955e-06	4.6422e-06	659.76	177.11	9.0621e-06	5.8642e-06	328.25	146.42	78.965	35.207	7.1409e-06	75.002	0.00033925	0.00021455	5.1447e-05	411.28	2.2426e-06	2.0676e-06	650.12	175.9	2.2954e-06	2.3148e-06	325.6	145.26	76.683	35.335	2.4412e-06	75.132	395.375	179.763	186.196	108.755	210.603	267.538	108.090	113.014	253.029	264.520	111.624	114.944	116.031	119.546	261.087	118.489	-8191	255	
1234.861	1	1	0	0	0.172	0.14485	0.1128	0.2599	0.13206	0.014862	0.084274	0.20735	0.18425	0.17897	0.2687	0.32299	0.25532	0.064909	0.23544	0.42503	-2.2083	-3.1729	-2.7979	-2.7333	-2.9271	-2.6771	-3.0083	-3.0333	-2.6625	-3.0104	-2.8688	-2.8333	-2.7667	-2.9313	-2.8708	-2.9354	304.570	217.784	197.686	412.570	359.169	266.964	422.555	414.937	294.282	192.811	439.641	346.634	322.274	348.764	215.649	328.691	0.0023325	0.00036417	0.0001813	416.65	6.3477e-06	2.4249e-06	661.84	179.77	6.7924e-06	3.6599e-06	334.23	148.99	80.109	35.437	8.3104e-06	75.787	0.00032844	0.00021206	5.3626e-05	411.57	2.2997e-06	2.0138e-06	653.2	178.42	2.1912e-06	2.4243e-06	329.71	147.28	77.575	35.528	2.4048e-06	75.97	398.423	174.596	186.238	108.547	216.191	229.304	107.994	112.834	247.823	237.599	111.140	114.667	115.690	119.782	227.701	118.313	-8191	255	
1234.982	1	1	0	0	0.29536	0.22711	0.26651	0.062624	0.13789	0.29823	0.16239	0.1879	0.091942	0.1685	0.20231	0.07748	0.12447	0.2485	0.23057	0.032237	-2.1646	-3.0021	-2.65	-2.8333	-3.0687	-2.6542	-3.2313	-2.9188	-2.7104	-3.0896	-2.7562	-2.7083	-2.8083	-2.8458	-3.0271	-2.8583	328.641	345.913	286.211	287.625	347.845	314.990	231.373	113.825	199.056	381.558	390.486	239.460	351.876	155.502	285.814	440.226	0.0024417	0.00044788	0.00011149	419.53	7.3686e-06	4.1804e-06	665.97	181.52	6.5169e-06	3.7504e-06	338.24	150.01	80.794	35.494	7.3631e-06	76.506	0.00032831	0.00021513	5.4582e-05	415.36	2.3619e-06	2.0171e-06	659.02	180.32	2.1883e-06	2.4215e-06	333.96	148.67	78.388	35.802	2.4524e-06	76.896	397.338	190.210	145.881	108.720	233.898	241.045	107.922	112.897	251.583	224.971	111.274	114.587	116.032	119.981	245.059	118.670	-8191	255	
1235.078	1	1	0	0	0.23734	0.079822	0.091615	0.15304	0.22486	0.1722	0.2137	0.3841	0.1669	0.059872	0.089756	0.14049	0.034139	0.19505	0.24138	0.21432	-2.2229	-2.975	-2.925	-2.7625	-2.8792	-2.6479	-3.1271	-2.9854	-2.6854	-2.9771	-3.0062	-2.9917	-3.0563	-2.5979	-2.9813	-3.3187	306.418	358.883	386.303	236.892	246.898	104.762	434.142	333.220	251.296	210.491	277.170	354.432	421.830	448.780	100.201	410.485	0.0025288	0.00051623	0.00014868	417.57	8.5691e-06	4.8206e-06	672.38	181.87	8.2389e-06	5.1494e-06	337.29	151.68	81.314	35.943	6.4091e-06	77.13	0.00033433	0.00021826	5.7604e-05	415.47	2.4334e-06	2.1196e-06	661.81	180.26	2.112e-06	2.3964e-06	334.22	149.92	78.527	36.03	2.4815e-06	77.404	395.584	195.602	183.557	108.744	234.738	246.659	108.125	112.871	224.021	228.324	111.304	114.592	116.127	119.833	250.619	118.743	-8191	255	
1235.174	1	1	0	0	0.24725	0.079014	0.15902	0.099005	0.11569	0.063967	0.13458	0.21707	0.0433	0.19477	0.27437	0.35704	0.14326	0.16148	0.10907	0.011815	-2.425	-2.8792	-2.8417	-2.8354	-3.0062	-2.6833	-2.9521	-3.0979	-2.7229	-2.7521	-2.9458	-2.8375	-3.0938	-2.7083	-2.9625	-3.2042	120.080	233.242	172.027	146.936	188.689	440.721	99.358	440.740	208.141	299.943	446.097	426.820	137.405	183.873	113.454	281.975	0.0024708	0.00029099	0.00016208	419.36	5.6698e-06	5.2671e-06	673.1	182.29	1.06e-05	5.8752e-06	335.71	151.14	79.753	35.685	5.1866e-06	76.952	0.00033323	0.00022487	5.8173e-05	415.87	2.4185e-06	2.1603e-06	662.66	180.39	2.0791e-06	2.4178e-06	334.56	149.72	78.171	35.862	2.3986e-06	77.221	396.532	194.820	175.992	108.710	251.783	225.685	108.116	113.076	251.065	253.735	111.556	114.811	116.450	119.771	227.670	118.639	-8191	255	
1235.295	1	1	0	0	0.1897	0.081707	0.32538	0.148	0.11242	0.057359	0.097871	0.097966	0.24979	0.26094	0.34038	0.075043	0.065612	0.15011	0.078837	0.2324	-2.2458	-3.1417	-2.9479	-2.4562	-3.15	-2.9125	-2.9	-3.1229	-2.6813	-3.0021	-3.0917	-2.7938	-3.2521	-2.7125	-2.9771	-3.3042	403.566	289.291	120.010	431.489	142.167	325.197	220.460	295.719	161.944	390.603	111.385	293.497	102.618	360.149	126.650	437.066	0.0025064	0.00042272	0.00015273	418.1	5.5296e-06	2.9454e-06	671.73	181.13	8.8013e-06	5.4156e-06	336.55	149.15	78.602	34.576	4.2196e-06	74.54	0.00032894	0.00022263	5.8398e-05	415.61	2.3763e-06	2.1651e-06	662.45	179.11	2.1477e-06	2.3084e-06	332.96	147.83	76.826	34.823	2.3041e-06	75.101	396.946	192.133	213.969	109.167	251.841	249.377	108.212	113.070	249.304	227.110	111.385	114.944	116.403	119.809	254.283	118.842	-8191	255	
1235.366	1	1	0	0	0.17332	0.065491	0.10535	0.15251	0.24653	0.25757	0.32252	0.15028	0.24824	0.17892	0.1813	0.20874	0.26082	0.29573	0.1341	0.33223	-2.4146	-2.8208	-2.9417	-2.8208	-2.9562	-2.8604	-3.15	-2.8937	-2.8229	-2.9813	-2.9562	-2.75	-3.1833	-2.8958	-2.7562	-3.2313	417.687	239.097	317.390	349.054	148.592	302.576	404.488	361.261	225.333	387.180	436.561	448.983	231.059	400.560	153.261	371.768	0.0024164	0.00034695	7.5291e-05	416.29	6.5931e-06	6.3232e-06	663.53	178.22	9.4295e-06	4.2301e-06	329.57	147.3	78.859	34.524	6.9816e-06	73.972	0.00031736	0.00021633	5.8339e-05	411.57	2.3822e-06	2.2031e-06	652.94	176.35	2.0779e-06	2.3414e-06	327.6	145.67	76.283	34.565	2.1099e-06	74.217	397.518	167.545	181.900	108.682	256.832	241.347	108.195	113.090	250.287	199.805	111.536	114.881	116.344	120.012	225.355	118.725	-8191	255	
1235.462	1	1	0	0	0.0069657	0.17034	0.29405	0.13744	0.15269	0.099544	0.21511	0.26334	0.11296	0.14955	0.17934	0.25743	0.060888	0.086421	0.14615	0.21924	-2.2438	-2.8312	-2.9521	-2.6312	-3.0917	-2.7292	-2.8667	-3.2042	-2.55	-2.7792	-3.1792	-2.7313	-2.7958	-3.0563	-2.55	-3.0604	260.901	193.062	320.595	423.203	211.171	415.865	422.307	452.116	407.131	322.336	447.177	417.367	349.012	208.648	139.923	375.851	0.0023545	0.00034862	0.00018172	415.19	5.5372e-06	4.3166e-06	662.84	178.11	1.1001e-05	7.4738e-06	330.5	147.39	78.713	34.229	4.2273e-06	74.102	0.00031991	0.00020644	5.8528e-05	411.01	2.3429e-06	2.1985e-06	651.4	175.53	2.1135e-06	2.2453e-06	327.84	146.07	76.213	34.506	2.1383e-06	74.639	395.636	173.072	191.732	108.935	224.716	246.605	108.218	112.959	228.612	239.877	111.409	114.735	116.482	119.956	242.868	118.539	-8191	255	
1235.581	1	1	0	0	0.28455	0.16547	0.18033	0.047301	0.19096	0.14634	0.16267	0.13469	0.1479	0.28044	0.3088	0.23239	0.087391	0.10368	0.17583	0.16896	-2.25	-2.7875	-2.8979	-2.6167	-2.9833	-3.0583	-2.6583	-2.925	-2.7292	-2.85	-3.0521	-2.7625	-2.7708	-3.0146	-2.7417	-3.2521	143.427	197.707	429.406	292.993	319.591	400.001	301.260	125.075	407.304	187.255	391.859	427.859	188.652	442.563	232.960	322.969	0.0023615	0.000561	0.00018734	416.97	4.6448e-06	3.6016e-06	665.49	174.63	6.1209e-06	5.0089e-06	331.92	147.79	78.644	33.933	6.4818e-06	73.854	0.00032133	0.00020445	5.8426e-05	414.25	2.3324e-06	2.3247e-06	655.84	174.35	2.1394e-06	2.1328e-06	327.94	146.21	75.943	34.085	2.0971e-06	74.3	395.795	178.222	193.105	108.901	254.363	248.742	108.113	113.064	255.731	269.058	111.723	115.119	116.368	119.844	250.691	118.865	-8191	255	
1235.677	1	1	0	0	0.31357	0.10844	0.15811	0.11352	0.22802	0.18662	0.081298	0.14522	0.028017	0.30835	0.34964	0.17101	0.25905	0.2835	0.17838	0.087281	-2.3708	-2.6229	-2.9042	-2.9771	-2.9792	-2.9958	-2.8792	-2.9521	-2.9646	-2.7958	-3.0125	-2.6813	-2.8083	-3.0229	-2.6542	-2.9958	419.142	184.718	121.690	309.569	405.021	404.140	227.435	415.524	336.294	125.446	451.511	107.121	255.529	435.394	237.876	397.326	0.0024507	0.00042113	0.00012937	424.58	7.5246e-06	7.0917e-06	673.72	176.41	6.883e-06	3.7241e-06	334.09	148.46	78.853	34.26	7.6122e-06	74.1	0.00032908	0.0001994	6.05e-05	420.96	2.2861e-06	2.2517e-06	663.53	175.13	2.2723e-06	2.116e-06	329.77	146.79	76.258	34.383	2.1587e-06	74.477	396.502	176.860	161.026	108.608	220.880	267.463	108.197	113.028	230.823	283.240	111.553	114.926	116.434	119.805	233.834	118.799	-8191	255	
1235.774	1	1	0	0	0.15451	0.10162	0.1371	0.05538	0.12795	0.2782	0.21492	0.22724	0.11022	0.027333	0.28517	0.29774	0.093713	0.33101	0.096865	0.26468	-2.4833	-2.6375	-2.9437	-2.7292	-2.9354	-3.1063	-2.6146	-3.1917	-2.9833	-2.6188	-3.1521	-2.8021	-2.8333	-3.0875	-2.7292	-3.0792	191.770	224.854	216.099	224.629	153.974	337.262	309.233	426.352	169.734	227.492	156.015	451.465	393.726	452.311	303.009	406.234	0.0024909	0.0004368	0.00013068	434	3.5512e-06	5.2199e-06	677.88	176.9	1.313e-05	5.8948e-06	334.89	149.85	79.169	34.477	7.4893e-06	74.844	0.00034221	0.00020218	6.2911e-05	430.42	2.2977e-06	2.3749e-06	670.17	175.12	2.3803e-06	2.0806e-06	331.76	148.42	76.829	34.667	2.2137e-06	75.017	396.579	196.381	208.256	108.667	243.036	235.561	108.180	113.578	238.836	244.167	111.490	115.122	116.804	119.777	236.488	118.682	-8191	255	
1235.870	1	1	0	0	0.29468	0.20066	0.055706	0.27272	0.16527	0.11479	0.15315	0.21294	0.048733	0.041249	0.015882	0.27386	0.067465	0.07292	0.11367	0.061065	-2.5417	-2.6104	-3.0917	-2.7333	-2.875	-3.2333	-2.8958	-3.2271	-2.9458	-2.6417	-3.2917	-3.0812	-2.6667	-3.0062	-2.7062	-3.0042	274.834	329.371	203.376	106.217	296.570	118.293	438.447	443.945	283.645	316.648	411.803	440.363	106.420	208.454	177.693	154.097	0.0023883	0.00055775	0.00010417	437.49	1.1419e-05	4.4811e-06	687.1	178.23	1.0482e-05	5.1477e-06	337.81	151.41	80.241	34.826	7.0804e-06	75.234	0.00034688	0.00019105	6.5329e-05	433.47	2.3254e-06	2.4602e-06	675.73	176.5	2.4345e-06	2.1357e-06	333.49	149.32	77.366	34.948	2.3288e-06	75.68	396.546	196.036	169.939	108.826	243.015	245.118	108.307	113.520	236.557	253.349	111.750	114.869	116.621	119.639	244.973	118.830	-8191	255	
1235.966	1	1	0	0	0.10745	0.35054	0.26537	0.072778	0.0727	0.37466	0.20456	0.20168	0.13399	0.15189	0.11789	0.069412	0.14159	0.17611	0.21722	0.25984	-2.5333	-2.5542	-2.8958	-2.9979	-2.7771	-3.0208	-2.9188	-2.9729	-2.9479	-2.725	-3.2458	-3.0458	-2.6188	-2.9917	-2.6292	-2.8167	109.265	180.210	315.738	251.162	221.467	104.403	375.197	325.479	381.691	234.786	165.679	221.659	378.501	399.790	442.475	383.935	0.0025353	0.00051256	0.00018558	439.4	8.0247e-06	4.2546e-06	689.48	178.49	9.3715e-06	6.0269e-06	340.2	152.12	79.838	35.104	5.7193e-06	78.016	0.00035424	0.00020037	6.3754e-05	435.7	2.3139e-06	2.519e-06	680.92	176.94	2.476e-06	2.1359e-06	335.83	150.68	77.342	35.346	2.3538e-06	78.182	396.431	179.040	170.094	108.944	235.650	262.293	108.424	113.103	243.235	235.174	111.716	114.781	116.670	119.836	255.705	118.648	-8191	255	
1236.062	1	1	0	0	0.16913	0.29684	0.22102	0.20107	0.056803	0.066505	0.22829	0.0031237	0.27781	0.045883	0.10885	0.13773	0.14248	0.089344	0.26596	0.1419	-2.8021	-2.6604	-2.8438	-2.8563	-2.7396	-3.0417	-2.9688	-2.9104	-3.0646	-2.8604	-3.0687	-2.9875	-2.6625	-2.9521	-2.7479	-2.9792	375.514	284.544	264.241	427.298	429.817	164.369	260.009	129.536	101.924	154.657	371.253	95.289	391.760	182.113	401.650	114.794	0.0024916	0.0004711	0.00010118	447.22	7.937e-06	6.5617e-06	706.94	182.88	8.1768e-06	5.0492e-06	348.14	157.04	81.733	36.431	6.2294e-06	80.382	0.00036802	0.00020528	6.5062e-05	443.26	2.2471e-06	2.5583e-06	696.64	180.98	2.5858e-06	2.2029e-06	345.53	155.45	79.364	36.648	2.5317e-06	80.859	397.165	185.784	180.549	108.523	258.029	222.006	108.226	113.095	229.568	243.632	111.208	114.804	116.055	120.161	241.880	118.895	-8191	255	
1236.158	1	1	0	0	0.21718	0.15742	0.20578	0.15069	0.18718	0.20713	0.21721	0.13527	0.36938	0.39756	0.050155	0.2143	0.067893	0.053423	0.29722	0.067405	-2.7188	-2.7271	-2.9583	-2.9562	-2.7229	-3.2271	-2.9667	-2.9667	-2.7292	-2.7375	-2.8937	-3.0208	-2.7938	-3.0396	-3.0062	-2.7604	149.660	209.233	190.868	434.113	383.862	451.414	369.626	450.324	429.463	199.009	160.784	257.585	401.946	434.728	168.504	369.842	0.0027166	0.00059798	0.00024806	457.76	6.056e-06	4.1863e-06	725.51	188.96	4.7672e-06	3.1833e-06	358.23	160.21	83.437	38.219	5.8542e-06	83.374	0.00039158	0.00022721	7.0041e-05	452.55	2.4112e-06	2.9062e-06	717.89	186.59	2.8794e-06	2.687e-06	354.69	159.1	81.285	38.626	2.8888e-06	84.204	396.722	172.301	189.149	108.683	250.729	246.880	108.320	113.082	250.500	218.663	111.196	114.777	116.379	120.159	238.003	118.921	-8191	255	
1236.254	1	1	0	0	0.12612	0.075172	0.12888	0.18777	0.16517	0.2186	0.26252	0.17471	0.20156	0.18563	0.14206	0.15778	0.22322	0.07418	0.19304	0.060262	-2.5083	-2.8792	-3.0167	-3.0042	-2.7208	-3.0417	-2.9688	-2.7354	-3.1375	-2.7396	-2.8	-3.0333	-2.7021	-2.7562	-2.6688	-2.85	164.538	173.411	127.170	312.819	258.693	353.337	351.044	385.774	189.241	207.930	170.094	411.943	207.484	355.326	110.195	281.461	0.0028268	0.00052183	0.00012883	461.21	1.0266e-05	6.1525e-06	735.4	190.73	1.012e-05	2.24e-06	361.92	161.68	84.726	39.056	5.242e-06	86.213	0.00042053	0.0002464	7.3566e-05	460.07	2.5211e-06	2.9924e-06	728.62	189.19	3.0421e-06	2.6931e-06	358.89	160.46	82.333	39.482	2.9903e-06	86.773	397.621	173.080	181.088	109.022	251.548	259.234	108.207	112.876	250.643	266.022	111.514	115.031	116.231	120.015	244.200	118.912	-8191	255	
1236.375	1	1	0	0	0.094515	0.24976	0.12092	0.14389	0.119	0.12538	0.23148	0.11923	0.054436	0.194	0.29738	0.29493	0.19886	0.17064	0.24594	0.10968	-2.5833	-2.6667	-2.7271	-3.0396	-2.6583	-2.9271	-2.7958	-2.6167	-3.1292	-2.625	-2.8917	-3.3333	-2.5438	-2.8646	-2.9208	-2.8187	376.867	380.326	182.272	349.131	302.330	243.077	312.372	141.176	268.259	155.298	410.079	98.487	216.614	435.164	320.976	380.355	0.0027407	0.0003014	0.0001483	471.89	7.9168e-06	5.557e-06	752.88	193.69	7.8107e-06	6.5708e-06	369.02	164.95	87.284	41.23	5.6958e-06	90.396	0.00043397	0.00025982	7.2916e-05	469.36	2.6955e-06	3.0682e-06	744.92	191.8	3.1856e-06	2.98e-06	366.12	164.17	84.571	41.7	3.1539e-06	90.962	395.257	199.482	211.635	109.047	248.164	238.869	108.021	112.857	231.037	223.910	111.225	114.855	116.015	120.662	247.997	119.031	-8191	255	
1236.469	1	1	0	0	0.069038	0.20945	0.054873	0.11915	0.11098	0.24358	0.17738	0.37329	0.36615	0.14182	0.14588	0.14548	0.06133	0.10864	0.10502	0.057339	-2.5854	-3.0146	-2.8729	-3.0104	-2.7292	-2.8375	-2.7958	-2.6646	-2.9083	-2.7167	-2.85	-3.2667	-2.6188	-2.9083	-3.0146	-2.9917	274.371	200.963	356.167	423.262	396.819	301.634	201.531	380.963	202.777	227.737	386.300	415.424	400.538	133.697	234.376	345.198	0.0029599	0.00061006	0.0001176	477.04	8.3199e-06	3.9003e-06	763.58	195.25	9.4931e-06	6.3823e-06	373.57	167.7	88.061	43.127	7.1899e-06	93.662	0.00045966	0.00028305	7.454e-05	474.97	2.9813e-06	3.1672e-06	756.16	194.28	3.3727e-06	3.1793e-06	370.56	166.4	85.998	43.468	3.3432e-06	94.214	398.080	208.146	184.522	108.879	224.191	263.299	107.832	112.843	247.974	240.207	111.211	114.725	116.758	120.434	232.325	119.435	-8191	255	
1236.565	1	1	0	0	0.096636	0.13788	0.063567	0.23971	0.2085	0.33907	0.20821	0.16375	0.070061	0.16279	0.32812	0.22093	0.080546	0.099148	0.066756	0.28868	-2.6937	-3.0333	-2.7812	-2.9729	-2.8563	-2.7687	-3.0979	-2.6479	-2.9083	-2.9229	-2.5938	-3.2354	-2.9875	-2.9333	-3.0208	-2.9021	355.397	200.954	208.536	396.611	125.210	179.073	414.801	356.207	132.738	381.077	421.363	441.046	447.880	273.088	363.907	424.492	0.0032105	0.00072484	0.00013721	480.02	8.0374e-06	1.963e-06	770.8	198.04	1.1729e-05	5.3367e-06	373.58	167.45	89.346	43.6	7.4681e-06	93.709	0.00048316	0.00030612	7.9059e-05	477.91	3.2532e-06	3.2967e-06	761.73	197.15	3.5311e-06	3.4017e-06	370.06	166.88	86.883	43.996	3.5342e-06	94.306	394.611	174.516	187.459	108.844	213.754	209.233	107.899	112.922	256.202	250.180	111.220	115.057	116.087	120.374	246.517	119.041	-8191	255	
1236.663	1	1	0	0	0.21028	0.14046	0.091158	0.41334	0.14043	0.16578	0.18399	0.14883	0.10869	0.15329	0.095626	0.18783	0.15227	0.02409	0.13732	0.20216	-2.4146	-2.9271	-2.65	-2.8146	-2.7542	-2.825	-3.15	-2.8396	-2.9854	-3.0625	-2.8229	-3.025	-2.8563	-2.8125	-3.0854	-3.0083	430.109	359.163	185.058	290.208	183.968	383.162	398.161	337.487	128.517	312.563	319.138	187.806	371.106	351.944	258.762	436.173	0.003004	0.00037468	9.4365e-05	479.69	6.8254e-06	5.7317e-06	767.33	199.53	8.5047e-06	2.8008e-06	371.49	168.04	88.933	43.478	5.3385e-06	93.509	0.00048738	0.00030849	8.1277e-05	476.99	3.3178e-06	3.3068e-06	761.77	197.96	3.6067e-06	3.5469e-06	370.2	166.7	86.86	43.948	3.7311e-06	94.156	395.931	189.491	164.870	108.702	238.965	259.025	107.636	112.666	232.057	241.326	111.002	115.052	116.269	120.482	226.188	118.890	-8191	255	
1236.758	1	1	0	0	0.20213	0.10752	0.033196	0.0062637	0.24389	0.2279	0.20246	0.18211	0.34266	0.3801	0.18934	0.086735	0.11496	0.15273	0.067647	0.27997	-2.6458	-3.1021	-2.5771	-2.9313	-2.9021	-2.8333	-3.0604	-2.7146	-2.9	-3.3396	-2.8667	-3.0125	-3.0354	-2.9188	-3.2667	-2.9792	96.374	219.476	389.972	168.443	151.908	344.360	401.106	401.802	133.213	153.049	179.902	165.197	101.290	212.021	219.101	145.644	0.0029346	0.00059832	0.00020503	479.07	8.3994e-06	3.3416e-06	765.41	194.62	8.6375e-06	7.0567e-06	363.09	164.12	86.631	42.995	8.7787e-06	92.169	0.0004667	0.00031235	8.1263e-05	477.86	3.4817e-06	3.3203e-06	763.12	195.86	3.5785e-06	3.5859e-06	367.2	165.53	86.281	44.27	3.8788e-06	94.467	397.198	190.398	188.798	108.867	245.836	247.063	107.999	112.631	226.606	238.964	110.756	114.907	116.421	120.461	260.261	118.958	-8191	255	
1236.856	1	1	0	0	0.17645	0.078836	0.38385	0.14467	0.15263	0.21257	0.25917	0.1179	0.19203	0.057394	0.17634	0.29345	0.18879	0.095359	0.075219	0.1016	-2.3396	-2.9104	-2.7479	-2.9479	-2.9896	-2.8333	-3.15	-2.8458	-2.9625	-3.2208	-2.8	-3	-3.0604	-2.8271	-3.1417	-3.0604	149.978	300.654	436.005	332.426	195.791	229.372	150.286	385.535	99.236	129.412	284.296	423.653	103.303	389.075	304.877	267.517	0.0030009	0.00073933	0.00016354	468.93	4.071e-06	7.9983e-06	763.82	196.45	7.4916e-06	5.5022e-06	368.91	165.44	87.969	45.194	6.7715e-06	94.802	0.00047904	0.00034148	8.709e-05	475.65	3.5795e-06	3.3225e-06	765.98	198.73	3.5852e-06	3.83e-06	369.95	165.93	87.013	45.707	4.0566e-06	96.384	395.608	169.778	185.449	108.589	210.815	242.265	107.834	112.342	263.336	260.044	111.237	115.407	116.427	121.274	251.333	119.482	-8191	255	
1236.975	1	1	0	0	0.22348	0.082731	0.23793	0.053578	0.16066	0.041919	0.21936	0.16859	0.13195	0.24022	0.12183	0.27199	0.2903	0.11629	0.098922	0.34858	-2.4688	-2.9813	-2.8667	-3.1188	-3.0396	-2.5979	-2.9542	-2.8354	-2.6167	-3.1708	-2.9208	-3.1	-2.9667	-2.65	-3.0604	-3.0563	404.473	358.269	227.682	312.174	136.806	101.957	421.905	413.275	224.796	326.769	121.086	117.855	295.581	365.366	349.143	393.201	0.0031273	0.00063973	0.00013958	480.54	5.2311e-06	5.6494e-06	763.51	195.43	9.4919e-06	3.3171e-06	362.45	163.5	87.921	45.312	5.57e-06	94.797	0.00048205	0.00035648	9.0917e-05	477.68	3.5912e-06	3.3502e-06	763.89	196.03	3.4101e-06	3.873e-06	364.03	163.79	86.176	46.026	3.9667e-06	96.152	394.323	179.228	178.005	108.528	242.272	240.227	107.710	112.714	264.552	252.994	111.628	115.205	116.880	121.099	255.938	119.152	-8191	255	
1237.071	1	1	0	0	0.39167	0.11033	0.23551	0.24975	0.28115	0.15797	0.26375	0.10536	0.22473	0.3099	0.23383	0.08028	0.1004	0.17501	0.26728	0.17517	-2.2646	-3.0375	-2.8583	-2.7625	-2.9813	-2.7938	-3.1562	-3.2021	-2.7271	-2.8896	-3.0583	-2.9792	-3.0958	-2.8708	-2.9979	-3.1792	321.027	376.061	204.568	447.704	173.585	419.890	405.854	229.798	364.984	449.614	142.095	303.046	404.499	103.647	263.620	236.248	0.0031154	0.00082287	0.00010655	473.49	9.0076e-06	5.4804e-06	763.33	194.53	6.533e-06	4.0157e-06	363.77	163.75	87.694	45.381	5.3516e-06	94.398	0.0004696	0.0003568	9.0203e-05	475.3	3.7109e-06	3.4398e-06	758.7	195.43	3.371e-06	3.9216e-06	363.55	163.7	86.64	46.046	3.9442e-06	95.675	395.856	197.037	220.894	108.558	254.726	202.291	107.809	112.835	229.564	252.956	111.296	115.419	116.703	121.186	255.657	119.469	-8191	255	
1237.167	1	1	0	0	0.041188	0.41044	0.082096	0.034748	0.21331	0.1562	0.17078	0.25059	0.070904	0.053745	0.22731	0.13595	0.1341	0.33141	0.18004	0.16792	-2.3604	-2.9583	-2.8917	-2.7042	-3.1667	-2.8167	-3.0438	-3.0958	-2.7375	-3.0417	-2.9938	-2.8333	-3.1083	-3.0146	-2.9583	-3.3083	124.345	362.638	432.009	435.245	253.243	450.306	398.626	422.791	400.721	309.822	401.629	426.714	144.834	155.323	109.581	397.634	0.0030703	0.00056098	0.00015117	475.36	7.5623e-06	6.966e-06	764.87	197.9	1.1705e-05	5.2313e-06	363.55	164.6	88.738	45.64	8.6993e-06	95.267	0.00047511	0.00036751	9.3384e-05	475.66	3.8275e-06	3.5189e-06	761.07	198.34	3.4208e-06	4.0675e-06	366.36	164.76	87.213	46.495	3.87e-06	96.681	394.318	182.218	189.441	108.672	245.586	260.958	108.091	112.862	209.956	235.950	111.247	115.469	116.777	121.147	262.100	119.469	-8191	255	
1237.263	1	1	0	0	0.31999	0.14908	0.091113	0.20254	0.18583	0.13997	0.069908	0.11607	0.090995	0.1051	0.017698	0.19829	0.14538	0.21377	0.22024	0.10604	-2.3688	-2.9354	-2.8875	-2.8604	-3.2271	-2.7583	-2.9688	-3.1375	-2.7583	-3.2979	-3.0167	-2.7854	-3.0563	-3.1521	-2.7687	-3.2021	273.268	330.347	180.554	385.624	391.475	204.149	325.009	414.324	177.579	194.546	109.509	406.544	357.475	325.371	238.983	104.711	0.0030822	0.00058559	0.00019516	476.62	8.2457e-06	7.4497e-06	763.5	200.49	9.8297e-06	5.0789e-06	366.09	165.26	88.76	46.688	7.0264e-06	96.358	0.0004776	0.00037776	9.6599e-05	475.03	4.0522e-06	3.7381e-06	761.31	200.15	3.528e-06	4.1105e-06	367.35	165.37	87.499	47.287	3.9748e-06	97.914	397.112	166.850	168.837	108.867	208.959	244.554	108.105	112.591	263.582	251.483	111.542	115.466	117.054	121.325	239.393	119.499	-8191	255	
1237.359	1	1	0	0	0.22661	0.18801	0.20095	0.16788	0.12863	0.16663	0.15121	0.29343	0.068676	0.13733	0.26095	0.094014	0.12055	0.10823	0.11001	0.14271	-2.4938	-3.0292	-2.9792	-2.7562	-3.3667	-2.7812	-2.7021	-3.375	-2.9104	-3.0167	-3.2229	-3.0458	-3.0563	-3.2062	-2.9167	-3.2062	313.094	169.379	203.568	103.010	109.228	125.030	372.603	142.402	361.480	324.438	367.454	419.238	406.870	436.180	143.536	405.739	0.003267	0.00045144	0.00016374	468.12	6.8949e-06	3.9993e-06	754.59	196.83	1.0768e-05	4.7964e-06	360.89	164.1	88.565	47.439	6.5663e-06	98.299	0.00050489	0.0003758	0.00010055	469.36	4.0526e-06	3.8745e-06	753	197.95	3.7466e-06	4.2192e-06	361.78	164.98	87.716	48.271	3.8769e-06	99.879	396.916	211.934	188.689	108.575	244.533	222.195	108.025	112.753	225.684	245.095	111.623	115.906	117.153	121.431	239.729	119.515	-8191	255	
1237.455	1	1	0	0	0.29871	0.11947	0.16515	0.12353	0.12711	0.21288	0.21413	0.12457	0.22209	0.082579	0.34482	0.11713	0.17348	0.21659	0.097492	0.15554	-2.3021	-2.9938	-2.9813	-3.0146	-3.0208	-3.0125	-2.9229	-3.0458	-2.8521	-3.1	-3.0812	-2.9583	-3.0563	-3.0146	-2.8	-3.3688	113.191	364.138	173.335	336.724	244.409	228.905	368.403	204.492	98.448	222.531	136.787	425.083	120.741	182.703	249.338	443.589	0.0031045	0.00052323	0.0001524	455.93	8.3643e-06	6.5426e-06	736.49	193.77	1.1511e-05	4.5674e-06	353.11	167.1	90.049	50.955	7.7446e-06	104.2	0.00052015	0.00038724	0.00010499	458.95	4.4303e-06	4.1907e-06	735.98	194.44	4.1215e-06	4.3675e-06	355.3	167.46	89.014	51.648	4.1252e-06	105.68	397.175	219.201	164.606	108.693	232.765	253.757	108.303	113.122	251.956	241.553	112.313	116.408	117.863	121.865	252.419	119.785	-8191	255	
1237.551	1	1	0	0	0.3046	0.15471	0.2087	0.047248	0.082436	0.0654	0.076235	0.2176	0.20406	0.32812	0.18448	0.11588	0.042759	0.15707	0.16644	0.21281	-2.475	-2.8333	-3.075	-2.8229	-2.8375	-2.8375	-3.0187	-3.325	-2.7708	-2.8937	-3.2021	-2.8375	-2.9188	-3.1542	-2.8375	-3.1437	300.877	139.962	308.095	140.942	104.506	377.036	228.025	341.899	305.245	249.059	455.306	114.971	138.323	328.776	446.996	381.762	0.003395	0.00018154	0.00020515	443.24	9.649e-06	4.6076e-06	724.13	189.51	1.0632e-05	5.4172e-06	357.44	177.54	95.66	54.363	7.9502e-06	111.15	0.00055205	0.00040127	0.00011123	441.9	4.5786e-06	4.3358e-06	722.08	190.64	4.1792e-06	4.3152e-06	357.73	177.63	94.292	54.985	4.0616e-06	112.16	397.858	205.876	196.871	108.934	241.342	246.491	108.530	113.868	220.540	266.645	112.464	116.852	118.336	122.074	239.168	119.832	-8191	255	
1237.670	1	1	0	0	0.26963	0.19372	0.28129	0.12765	0.18663	0.25946	0.18734	0.31709	0.24199	0.13526	0.16444	0.28204	0.11769	0.10848	0.05732	0.36733	-2.4167	-2.7313	-2.9562	-2.8958	-3.1333	-3.1354	-2.8896	-2.9854	-2.7229	-3.0729	-3.075	-2.8542	-2.8958	-3.2979	-2.7396	-3.1167	425.930	286.841	119.822	297.416	322.844	173.910	393.509	412.289	415.105	398.852	358.826	398.755	125.285	143.862	298.678	392.132	0.0036704	0.00038768	0.00025725	436.98	8.304e-06	5.7881e-06	735.13	193.93	1.0049e-05	7.3104e-06	368.98	182.2	98.066	54.9	9.964e-06	112.63	0.00058178	0.0003716	0.00011097	435.08	4.3344e-06	4.2097e-06	732.11	194.43	4.0213e-06	3.9351e-06	369.97	182.41	96.593	55.614	3.9283e-06	113.53	396.279	202.709	177.554	109.226	229.157	303.867	108.370	113.700	232.845	245.837	112.456	116.887	118.043	121.885	244.243	119.898	-8191	255	
1237.766	1	1	0	0	0.081434	0.26897	0.26054	0.24374	0.16161	0.016364	0.23004	0.13124	0.038803	0.23122	0.088428	0.22725	0.075536	0.38863	0.14715	0.33909	-2.3979	-2.8479	-3.1958	-2.7917	-2.9813	-3.0729	-2.9625	-3.1271	-3.1063	-2.9188	-2.95	-2.8479	-2.8292	-3.2083	-2.6125	-3.1417	341.409	313.388	189.083	406.838	437.749	378.195	361.845	370.332	408.845	434.555	340.882	450.686	182.861	439.938	204.362	406.882	0.0036622	0.00033549	0.0002715	440.18	7.3163e-06	8.576e-06	744.57	200.03	1.2839e-05	4.5074e-06	379.57	181.23	98.662	52.994	6.768e-06	106.98	0.00057253	0.00035754	0.00011085	441.02	4.0515e-06	4.0709e-06	741.34	199.92	3.9058e-06	3.7288e-06	379.67	181.33	96.707	53.587	3.7464e-06	107.82	396.954	197.212	183.073	109.130	240.862	238.258	108.702	113.652	245.227	220.999	111.974	116.606	117.541	121.828	239.332	119.800	-8191	255	
1237.838	1	1	0	0	0.15269	0.10844	0.15962	0.31506	0.28204	0.041721	0.16251	0.15946	0.12486	0.20587	0.16436	0.1094	0.24221	0.37831	0.044933	0.24032	-2.7833	-2.9708	-2.8708	-2.925	-2.9729	-3.0521	-2.8854	-3.1646	-2.9229	-2.8146	-3.0062	-2.8021	-2.9833	-3.2812	-2.6021	-3.0708	209.234	226.789	192.722	164.257	358.257	137.646	333.971	360.721	114.172	293.261	402.313	381.930	432.983	394.117	193.157	413.401	0.0034725	0.00087983	0.00025155	452.93	9.2049e-06	8.9556e-06	764.33	207.73	9.9823e-06	6.686e-06	384.58	176.1	96.994	47.866	5.3864e-06	97.032	0.00053173	0.00032815	0.00010514	454.68	3.6391e-06	3.7952e-06	761.02	207.53	3.5603e-06	3.1524e-06	383.41	175.38	94.708	48.584	3.1706e-06	98.074	396.110	186.857	198.631	109.408	242.106	236.687	108.027	112.792	256.011	268.504	111.232	115.200	116.375	120.655	233.275	119.294	-8191	255	
1237.934	1	1	0	0	0.15098	0.29422	0.2776	0.2575	0.19598	0.082997	0.096034	0.015708	0.10913	0.19863	0.18864	0.060507	0.35692	0.31576	0.18815	0.16694	-2.5375	-2.6958	-3.0104	-2.9208	-2.9708	-3.2146	-3	-2.9667	-2.9562	-2.7854	-2.975	-2.9771	-2.6854	-3.1104	-2.8771	-2.9562	421.881	206.848	220.871	238.920	245.256	404.164	444.965	366.865	226.407	326.682	400.923	432.132	399.562	106.432	325.162	104.327	0.003206	0.0004269	0.00019537	461.4	7.6088e-06	5.9014e-06	769.1	207.64	1.0928e-05	7.1455e-06	386.27	175.13	94.783	45.541	9.0045e-06	93.738	0.00046171	0.00027123	9.0962e-05	459.56	2.9586e-06	3.2939e-06	761.51	207.12	3.1085e-06	2.8954e-06	384.22	174.56	92.725	46.068	3.0333e-06	94.905	395.740	206.828	146.737	108.843	221.687	258.566	108.128	112.869	237.755	225.260	111.547	114.825	116.190	120.811	250.120	119.326	-8191	255	
1238.055	1	1	0	0	0.23783	0.15348	0.070441	0.1174	0.06169	0.16609	0.041406	0.31424	0.15923	0.066823	0.12472	0.25949	0.21101	0.34234	0.12757	0.33245	-2.6375	-2.7729	-3.025	-3.1875	-2.7771	-3.0062	-3.2	-3.1833	-3.0438	-2.9854	-3.2271	-3.0062	-2.6667	-3.3375	-2.7646	-3.2208	385.406	429.907	95.944	108.363	145.149	213.749	433.343	392.110	396.552	331.504	144.035	129.248	369.083	425.723	142.183	419.003	0.0031043	0.00064412	0.0001657	459.22	8.9432e-06	6.7072e-06	769.76	208.05	5.8129e-06	5.7839e-06	389.41	179.42	97.918	47.326	6.0114e-06	99.546	0.00044636	0.0002706	8.4566e-05	460.36	2.8422e-06	3.2875e-06	764.75	208.66	3.2161e-06	2.9588e-06	388.51	178.7	95.212	48.042	3.2558e-06	100.62	394.570	167.067	219.688	108.710	236.649	224.999	107.919	112.585	228.901	237.597	111.258	115.106	115.975	120.925	257.663	119.201	-8191	255	
1238.151	1	1	0	0	0.11774	0.12598	0.19223	0.1646	0.21897	0.096781	0.15532	0.18695	0.15306	0.17584	0.12337	0.19962	0.13521	0.11835	0.12887	0.24011	-2.6979	-2.675	-3.1229	-2.9458	-2.8812	-3.225	-3.0187	-2.8354	-3.2687	-2.7375	-3.0792	-3.0625	-2.8167	-3.2208	-2.8563	-3.0042	395.415	294.720	287.530	396.128	427.009	153.702	224.734	414.160	329.578	179.706	396.411	439.944	152.768	113.985	292.711	419.336	0.0032553	0.00068592	0.00023422	465.66	9.2913e-06	7.1089e-06	775.2	209.13	1.0235e-05	4.2681e-06	390.41	181.49	99.614	50.243	8.7715e-06	104.94	0.0004846	0.00028595	9.1658e-05	465.77	3.0835e-06	3.5719e-06	771.4	209.51	3.6505e-06	3.2843e-06	390.69	181.7	97.284	50.932	3.5493e-06	105.92	397.225	175.365	188.957	108.817	256.707	252.353	108.298	112.920	240.762	232.391	111.411	115.341	116.817	121.419	222.632	119.460	-8191	255	
1238.247	1	1	0	0	0.063571	0.049496	0.22374	0.13539	0.041322	0.28645	0.20344	0.1915	0.027353	0.17955	0.090261	0.13679	0.051759	0.21534	0.049536	0.204	-2.7604	-2.5458	-2.8854	-3.0646	-2.5438	-3.0229	-3.0812	-2.8896	-3.1708	-2.9979	-2.7938	-3.2354	-2.9479	-3.1562	-2.9354	-3.0792	426.832	415.933	271.486	114.111	384.913	231.110	404.817	98.730	186.563	321.907	397.278	446.108	145.845	104.014	225.179	441.460	0.0034729	0.0003965	0.00018044	455.53	6.8756e-06	9.2829e-06	768.06	207.25	1.2995e-05	5.8723e-06	378.87	180.42	99.584	51.409	1.082e-05	105.66	0.00052277	0.00031524	9.5102e-05	458.07	3.4566e-06	3.9401e-06	762.19	207.36	3.9383e-06	3.6136e-06	385.7	182.21	97.995	52.175	3.7333e-06	106.8	397.719	174.326	188.121	108.587	241.682	219.882	108.196	112.727	257.352	244.665	110.897	115.260	116.704	121.535	247.899	119.282	-8191	255	
1238.343	1	1	0	0	0.063227	0.13195	0.055732	0.12543	0.15005	0.2003	0.16583	0.26163	0.23321	0.095884	0.42282	0.23937	0.078409	0.053046	0.10283	0.3753	-2.6604	-2.8708	-2.8896	-3.0646	-2.7438	-3	-3.2479	-2.8146	-3.0646	-3.0187	-2.7	-3.1521	-2.8104	-3.1437	-3.1542	-2.8458	371.566	396.639	252.472	365.398	284.605	287.794	378.375	314.693	385.341	417.621	113.644	377.429	276.801	196.405	125.372	432.499	0.0034896	0.00055193	0.00015265	451.48	6.752e-06	4.2496e-06	768.57	208.78	7.7728e-06	3.2888e-06	389.07	183.25	100.09	51.289	6.459e-06	105.52	0.00055232	0.0003351	9.4157e-05	455.58	3.6031e-06	4.12e-06	761.17	207.93	4.1675e-06	3.7148e-06	386.94	182.1	97.801	51.731	3.8872e-06	106.14	396.861	188.047	201.404	108.627	237.858	266.682	108.560	112.946	246.141	277.455	111.774	115.697	117.036	121.521	242.216	119.574	-8191	255	
1238.462	1	1	0	0	0.1062	0.094798	0.081535	0.23605	0.26136	0.26648	0.11272	0.19034	0.15065	0.091885	0.20087	0.17417	0.029928	0.042983	0.19103	0.32907	-2.5458	-2.7979	-2.8833	-3.2042	-2.8021	-3.1562	-3.0917	-2.8625	-2.9833	-3.0979	-2.9354	-3.2896	-2.8833	-2.9542	-3.1312	-2.8333	360.269	446.769	141.152	428.746	109.678	374.044	444.090	371.680	441.094	337.876	111.205	104.885	327.572	274.676	412.770	404.859	0.003456	0.00072907	0.00028585	461.58	7.2414e-06	6.308e-06	773.81	207.93	7.2994e-06	4.5895e-06	387.68	181.59	99.033	50.367	7.6309e-06	103.94	0.00055116	0.00033251	9.0351e-05	459.72	3.4631e-06	3.8627e-06	762.22	206.58	3.9125e-06	3.6571e-06	384.98	180.84	96.565	51.415	3.7311e-06	105.58	397.445	190.546	183.479	108.776	226.241	228.533	108.322	113.044	248.165	266.143	111.647	115.826	116.795	121.259	210.055	119.135	-8191	255	
1238.536	1	1	0	0	0.1092	0.34143	0.052132	0.09346	0.17794	0.066528	0.071741	0.21934	0.15526	0.19773	0.11541	0.11995	0.01737	0.18527	0.20882	0.15961	-2.8125	-2.9208	-2.9667	-3.0958	-3.0646	-2.925	-3.1896	-2.7479	-3.075	-3.05	-2.8854	-3.2146	-2.7625	-3.0771	-3.1375	-3.0604	371.612	176.309	179.172	254.289	328.642	284.349	292.508	114.066	170.653	378.104	213.962	403.739	421.802	179.076	170.263	361.685	0.0032815	0.00050661	0.00014664	454.7	8.7202e-06	4.7537e-06	756.28	203.9	9.4535e-06	3.4347e-06	379.31	178.72	96.999	50.874	1.051e-05	105.69	0.00054012	0.00032976	9.0014e-05	456.96	3.5862e-06	3.8629e-06	757.66	205.12	4.1122e-06	3.697e-06	380.98	179.9	96.015	51.902	4.0311e-06	106.41	394.629	187.244	184.221	108.834	244.709	244.752	108.240	112.678	209.752	238.092	111.505	115.607	116.325	121.118	262.554	119.546	-8191	255	
1238.655	1	1	0	0	0.26474	0.30456	0.12553	0.16588	0.077876	0.12589	0.12523	0.22938	0.13638	0.22037	0.22284	0.093514	0.26082	0.30462	0.080265	0.47102	-2.5646	-2.8708	-2.6833	-3.2333	-3.0271	-2.9208	-3.175	-2.7229	-3.1021	-2.9708	-2.8521	-3.3021	-2.7771	-3.0292	-3.0604	-2.8104	384.621	138.277	419.297	178.996	447.345	217.152	315.680	395.686	216.168	367.063	439.281	425.711	209.846	417.687	279.027	353.744	0.0034303	0.0005594	0.000189	456.8	6.6901e-06	4.9995e-06	763.87	205.73	1.4625e-05	7.7479e-06	381.49	180.39	97.93	51.493	1.1174e-05	105.61	0.00054733	0.0003429	9.1152e-05	457.88	3.6589e-06	3.637e-06	755.47	203.93	4.0174e-06	3.8078e-06	377.71	178.74	95.364	51.693	4.1544e-06	105.82	397.520	206.429	223.992	109.070	242.500	235.368	108.343	112.844	256.131	238.817	111.653	115.925	117.049	121.628	234.436	119.666	-8191	255	
1238.751	1	1	0	0	0.057671	0.12782	0.2854	0.13161	0.27737	0.33002	0.24381	0.31169	0.17179	0.096435	0.13874	0.22169	0.39602	0.56844	0.1491	0.21562	-3.0062	-2.7917	-2.9354	-3.2083	-2.9104	-2.9167	-3.0021	-2.9875	-3.1042	-2.9271	-2.9625	-3.3979	-2.9521	-2.7625	-3.1646	-3.2062	332.040	164.768	100.490	402.581	213.924	267.166	410.343	184.710	379.675	363.860	429.367	424.613	127.368	405.491	422.687	377.267	0.0033115	0.00049323	0.00021195	461.69	1.0985e-05	4.4774e-06	762.66	205.74	9.8297e-06	4.4547e-06	379.5	179.06	97.399	50.665	1.0296e-05	104.34	0.0005337	0.00034975	9.3015e-05	457.08	3.6378e-06	3.5378e-06	752.52	203.25	3.7957e-06	3.8068e-06	376.25	177.43	94.683	51.072	4.2608e-06	105.04	394.815	178.066	198.275	108.797	254.680	290.315	108.505	113.109	230.105	280.139	111.979	115.992	116.677	121.542	250.889	119.605	-8191	255	
1238.847	1	1	0	0	0.23749	0.11694	0.21677	0.23677	0.016479	0.26441	0.28353	0.14833	0.1143	0.15966	0.059985	0.028607	0.18788	0.32256	0.17243	0.059596	-2.4979	-3.1375	-2.7417	-3.0083	-3.1479	-2.7313	-3.2104	-3.075	-3.025	-3.0354	-2.95	-3.2604	-2.9188	-2.9813	-3.0187	-3.1125	131.931	102.520	241.008	343.154	273.819	385.229	360.804	315.411	157.082	351.821	262.527	107.676	104.582	98.431	249.264	386.087	0.0033652	0.0010083	0.0002555	459.47	9.9983e-06	7.7692e-06	765.8	204.69	1.6259e-05	8.1457e-06	380.32	178.94	97.653	50.786	6.8162e-06	103.65	0.00052143	0.0003608	9.3844e-05	455.34	3.7938e-06	3.6756e-06	754.23	203.28	3.855e-06	4.138e-06	378.01	178.26	95.33	51.386	4.25e-06	105.36	396.434	191.660	205.215	109.321	246.352	209.847	108.326	113.033	221.944	222.457	111.592	115.752	117.008	121.654	245.128	119.543	-8191	255	
1238.943	1	1	0	0	0.1191	0.057385	0.16596	0.32886	0.1638	0.17917	0.12495	0.11508	0.14819	0.28066	0.019775	0.088663	0.28791	0.26827	0.34272	0.34945	-2.5708	-3.125	-2.9146	-2.7958	-3.0563	-2.9458	-3.3521	-2.9208	-3.0042	-2.9375	-2.9646	-3.0333	-2.9146	-2.7562	-3.0896	-2.9958	303.171	109.188	338.320	432.311	359.100	213.527	121.427	368.462	396.575	413.375	175.026	336.425	433.379	369.591	280.773	447.702	0.003404	0.00062336	0.0001484	456.32	8.0542e-06	6.177e-06	756.39	204.79	1.3906e-05	5.6409e-06	381.93	180.55	97.722	51.22	7.4214e-06	105.3	0.00051776	0.00037824	0.00010029	455.81	3.9652e-06	3.8672e-06	752.29	204.47	3.9735e-06	4.444e-06	380.59	179.19	96.015	51.614	4.7293e-06	105.91	396.853	191.768	205.490	108.801	245.770	267.660	108.086	113.100	243.600	222.964	111.697	115.992	117.045	121.717	249.645	119.753	-8191	255	
1239.064	1	1	0	0	0.081244	0.1777	0.19644	0.10904	0.11993	0.1999	0.092737	0.027583	0.11945	0.16898	0.15881	0.085681	0.10764	0.28609	0.12203	0.31778	-2.2792	-3.15	-2.7333	-3.0354	-2.9667	-2.8312	-3.1208	-3.0604	-2.7208	-3.1896	-2.9854	-3.0396	-2.9958	-3.0833	-3.125	-3.1125	441.047	125.481	371.291	290.628	253.342	438.405	121.457	135.392	206.025	159.300	351.771	224.580	133.527	115.858	308.653	375.121	0.0034277	0.00049566	0.00019415	458.87	8.5691e-06	5.3641e-06	759.29	207.32	1.0762e-05	4.7078e-06	384.16	179.04	98.104	50.035	6.873e-06	101.76	0.00054479	0.00041771	0.00010384	456.28	4.1321e-06	3.8762e-06	750.58	205.5	3.8757e-06	4.328e-06	380.66	177.78	95.801	50.338	4.2488e-06	102.08	397.293	160.632	174.925	109.029	216.308	254.505	108.416	113.228	235.137	223.713	111.677	115.493	116.312	121.227	238.162	119.458	-8191	255	
1239.135	1	1	0	0	0.16803	0.11	0.10717	0.13403	0.16667	0.19473	0.20941	0.32171	0.13107	0.056677	0.30557	0.16146	0.16911	0.24241	0.1561	0.073457	-2.2729	-2.95	-2.7188	-2.8542	-3.1146	-2.8771	-3.2438	-3.0229	-2.6229	-3.2042	-2.85	-3.05	-2.9229	-2.9958	-3.0438	-3.1875	276.172	372.878	358.471	399.776	160.843	329.221	386.894	378.207	372.955	419.380	428.859	152.467	176.770	389.342	259.547	287.968	0.0032906	0.00072089	0.00019002	458.93	9.1224e-06	7.1535e-06	758.46	206.12	8.2954e-06	8.9444e-06	384.79	177.02	97.436	47.776	6.7603e-06	97.428	0.00050657	0.00037737	9.2906e-05	455.16	3.8226e-06	3.4792e-06	747.66	204.4	3.4091e-06	3.8704e-06	379.1	175.77	94.708	47.998	3.6907e-06	97.624	394.981	216.460	195.513	109.011	250.447	233.463	108.675	112.820	223.720	241.498	111.508	115.556	116.564	121.175	221.233	119.484	-8191	255	
1239.231	1	1	0	0	0.14247	0.12337	0.07226	0.19723	0.16424	0.13134	0.43404	0.16314	0.2056	0.023598	0.27753	0.26737	0.10567	0.24861	0.024998	0.33491	-2.4146	-2.9792	-3.05	-2.8563	-3.075	-2.9146	-3.0438	-3.2917	-2.9792	-3.1063	-3.1292	-3.1167	-3.1104	-2.7979	-3.0312	-3.05	154.589	137.140	302.978	171.478	440.422	199.682	357.351	316.154	171.499	274.374	111.193	210.727	438.995	390.021	307.434	391.015	0.0031644	0.00079633	0.00017973	456.23	9.5534e-06	8.0865e-06	754.72	204.88	1.2503e-05	7.783e-06	372.98	173.75	94.954	46.045	7.042e-06	93.307	0.00046319	0.00034426	8.5371e-05	453.81	3.5697e-06	3.2914e-06	747.15	204.01	3.2066e-06	3.6711e-06	376.99	175.55	94.173	47.049	3.42e-06	95.401	398.191	178.193	162.277	109.210	220.155	242.207	108.293	112.722	229.079	228.487	110.858	114.542	115.908	120.587	250.575	118.990	-8191	255	
1239.352	1	1	0	0	0.074626	0.14742	0.14165	0.33661	0.13638	0.11794	0.11373	0.16354	0.28237	0.1613	0.4412	0.19472	0.33802	0.050119	0.018574	0.11211	-2.2104	-3.1021	-2.8729	-2.6729	-3.2062	-2.7917	-3.0812	-3.0771	-2.9396	-3.2562	-3.0083	-3.0417	-3.2729	-2.825	-2.8667	-3.5062	360.715	313.168	128.100	398.800	344.250	433.893	334.771	309.655	291.406	308.470	410.693	405.259	112.582	358.771	431.612	186.989	0.0031478	0.00056816	0.00015098	446.05	8.0517e-06	4.5747e-06	737.73	197.28	1.1368e-05	5.7604e-06	367.51	172.4	94.341	45.693	9.09e-06	92.105	0.00044747	0.00032473	8.0201e-05	447.69	3.4968e-06	3.1114e-06	737.17	198.54	3.093e-06	3.3777e-06	369.95	173.57	93.319	46.655	3.2644e-06	93.768	396.243	186.748	155.339	108.667	224.053	219.914	108.164	112.716	231.574	224.532	111.085	114.688	115.695	120.134	248.928	118.607	-8191	255	
1239.446	1	1	0	0	0.17472	0.10527	0.066401	0.059079	0.32242	0.028841	0.18805	0.11209	0.11533	0.1345	0.17624	0.2467	0.21445	0.18738	0.20949	0.14424	-2.4625	-2.8479	-3.0438	-2.6937	-3.1437	-3.0104	-2.9104	-3.2271	-2.7625	-2.9833	-3.2625	-3.0021	-3.0687	-2.9229	-2.8896	-3.2979	436.185	338.023	111.873	124.621	398.342	128.686	389.786	230.744	249.116	310.399	415.630	437.245	383.863	345.193	313.591	350.377	0.0029473	0.00027816	0.00015955	440.1	8.5256e-06	8.8912e-06	731.66	193.29	1.023e-05	6.5287e-06	360.64	168.89	92.64	44.909	5.3942e-06	88.304	0.00043647	0.00030062	8.1231e-05	442.64	3.5418e-06	3.1018e-06	729.57	194.45	3.1216e-06	3.3037e-06	362.53	169.77	90.85	45.742	3.1658e-06	90.286	398.560	158.494	185.459	108.643	249.939	243.665	107.767	112.463	258.072	220.807	110.933	114.223	115.756	119.644	243.417	118.333	-8191	255	
1239.543	1	1	0	0	0.23486	0.087705	0.077184	0.1305	0.12615	0.11094	0.17172	0.095483	0.11636	0.15275	0.24169	0.18387	0.2067	0.37884	0.074899	0.090609	-2.4125	-2.9875	-2.8729	-2.8104	-3.1958	-2.8167	-3.0208	-3.1229	-2.9188	-3.0521	-3.1937	-2.9333	-3.075	-2.8187	-2.8563	-3.2875	317.291	362.932	412.269	423.555	175.854	197.354	331.688	201.509	281.536	263.029	371.372	140.721	437.680	335.658	374.657	358.004	0.0029321	0.00033771	0.00018922	436.64	7.4169e-06	5.0461e-06	717.26	189.18	1.0975e-05	5.6611e-06	357.33	170.06	92.847	45.301	8.2252e-06	90.598	0.00043575	0.00029338	8.3663e-05	438.51	3.3131e-06	3.0449e-06	718.87	190.19	3.1224e-06	3.2594e-06	359.89	170.51	91.075	46.184	3.1873e-06	92.149	396.234	196.601	204.885	108.539	260.946	257.737	107.669	112.755	248.809	224.732	111.027	114.552	115.641	120.115	247.517	118.655	-8191	255	
1239.639	1	1	0	0	0.1432	0.15155	0.16111	0.24422	0.10435	0.13096	0.13355	0.30878	0.10218	0.23515	0.092282	0.22221	0.037813	0.094214	0.07545	0.1293	-2.4521	-3.0354	-3.0896	-2.7583	-3.2271	-3.0979	-2.8937	-3.2542	-2.8917	-3.1104	-3.2542	-2.7771	-3.0021	-3.2646	-2.7333	-3.1688	295.780	368.941	388.706	366.956	347.389	396.324	179.867	386.739	211.299	100.497	131.521	415.303	296.516	160.620	387.301	453.612	0.0029646	0.00032084	0.00017039	436.99	6.3213e-06	5.5246e-06	723.2	189.91	9.0987e-06	8.3797e-06	357.45	171.11	93.119	46.601	7.4653e-06	93.521	0.00043428	0.00030165	8.9704e-05	440.11	3.4807e-06	3.491e-06	724.85	190.92	3.3307e-06	3.5251e-06	360.37	172.31	92.154	47.499	3.5276e-06	95.18	396.384	177.434	177.489	108.656	235.008	247.821	107.862	112.874	241.527	241.339	111.135	114.917	116.631	120.829	204.420	119.416	-8191	255	
1239.758	1	1	0	0	0.12556	0.17534	0.23704	0.12223	0.2246	0.14329	0.11148	0.080471	0.32677	0.042511	0.11576	0.17391	0.11275	0.13582	0.18064	0.31455	-2.4521	-2.9521	-3.1083	-2.9313	-3.0375	-2.9146	-2.9917	-3.0146	-2.8354	-2.9167	-3.1354	-3.0812	-2.9542	-3.1146	-2.9396	-3.2583	229.496	324.231	135.642	171.518	336.327	320.700	328.876	374.752	363.868	328.459	335.162	431.104	217.932	228.645	252.352	380.680	0.0030372	0.00053458	0.00021131	428.73	1.0358e-05	6.8458e-06	718.14	186.64	1.4819e-05	5.7348e-06	353.13	169.49	91.349	46.667	6.7061e-06	93.557	0.00046826	0.00032427	9.8564e-05	433.79	3.5932e-06	3.6371e-06	718.89	188.46	3.4759e-06	3.44e-06	355.31	169.67	89.982	47.142	3.4881e-06	93.964	396.008	172.877	175.936	108.744	221.113	275.112	107.876	112.993	234.694	249.959	111.496	115.475	116.924	121.862	245.769	120.255	-8191	255	
1239.831	1	1	0	0	0.10983	0.20468	0.21252	0.073612	0.16292	0.011546	0.02133	0.088609	0.23368	0.055615	0.063526	0.13563	0.15008	0.11894	0.04248	0.048219	-2.5667	-2.8667	-2.7938	-2.8854	-3.0354	-3.0083	-2.7479	-3.2021	-2.8396	-2.5917	-3.2208	-2.9208	-2.7375	-3.0729	-2.8792	-3.0458	285.188	264.484	258.044	352.811	180.103	259.586	348.780	356.587	368.301	414.108	431.369	133.862	98.085	177.555	312.813	426.035	0.0031107	0.00038818	0.00010663	431.72	6.1367e-06	2.6469e-06	705.19	181.08	1.2697e-05	5.4637e-06	329.76	152.95	80.081	40.748	6.7813e-06	77.711	0.0004733	0.00031142	9.699e-05	431.88	3.3152e-06	3.5407e-06	697.36	178.61	3.1065e-06	2.9542e-06	327.18	151.48	77.509	40.875	2.6846e-06	78.17	396.991	180.344	187.737	109.288	232.616	263.822	108.613	113.819	240.316	275.530	112.364	115.836	117.365	121.967	238.752	119.980	-8191	255	
1239.927	1	1	0	0	0.30203	0.2936	0.095584	0.16892	0.1098	0.10571	0.080601	0.13202	0.20327	0.1557	0.056419	0.14468	0.24368	0.174	0.096577	0.033519	-2.3792	-2.8187	-3	-2.7125	-3.0271	-2.9875	-2.7396	-2.9896	-2.9604	-2.7146	-3.0833	-3.1479	-2.7521	-3.0625	-2.7417	-3.0708	158.366	253.243	189.457	148.361	184.661	249.994	415.648	105.058	196.004	160.516	414.934	397.093	329.795	140.209	197.874	346.032	0.0025454	0.00033887	0.00010828	441.76	8.3319e-06	4.9001e-06	690.91	166.76	9.6955e-06	3.8294e-06	301.12	125.66	66.985	34.199	6.4487e-06	69.042	0.00037894	0.00022936	7.0839e-05	437.94	2.4293e-06	2.6798e-06	681.06	164.91	2.3359e-06	2.1854e-06	297.2	124.02	64.497	34.287	2.344e-06	69.167	397.041	185.044	180.318	108.955	242.982	217.273	108.108	113.921	228.163	225.288	112.420	116.478	117.920	121.905	248.349	120.169	-8191	255	
1240.023	1	1	0	0	0.25509	0.21654	0.068891	0.12821	0.29237	0.098093	0.065038	0.06427	0.17166	0.11421	0.19376	0.093336	0.1667	0.19211	0.17437	0.45843	-2.75	-2.7521	-3.1271	-2.8771	-2.8937	-3.1146	-2.9229	-2.8146	-2.975	-2.7208	-2.8417	-3.0396	-2.8271	-3.25	-2.7083	-3.0687	363.527	417.152	256.462	229.811	250.217	299.076	161.552	335.491	447.588	324.874	361.121	361.962	272.373	405.656	166.341	401.403	0.0022361	0.00031379	0.0001679	445	3.8838e-06	1.698e-06	694.64	168.98	8.3614e-06	4.5746e-06	308.14	131.44	70.71	37.095	5.5097e-06	75.414	0.00032762	0.00019915	6.4021e-05	439.27	2.2503e-06	2.6273e-06	682.73	166.48	2.4659e-06	2.2823e-06	304.92	129.64	68.619	37.252	2.3671e-06	75.357	396.897	224.251	182.100	108.792	213.928	209.679	108.142	113.853	247.814	249.680	112.315	116.564	118.385	122.211	254.624	120.685	-8191	255	
1240.142	1	1	0	0	0.1897	0.22566	0.10242	0.040065	0.19427	0.17717	0.22161	0.13243	0.15567	0.29776	0.19091	0.099452	0.1294	0.071665	0.05356	0.1811	-2.7292	-2.7812	-2.9354	-2.9146	-2.475	-3.2188	-2.9667	-2.8979	-3.1125	-2.7542	-3.1417	-3.0104	-2.6562	-3.2479	-2.9062	-2.9208	206.326	376.823	354.950	372.000	252.779	449.143	149.951	210.533	140.260	212.632	393.406	135.092	350.110	400.899	373.778	379.349	0.0024064	0.00034641	0.00017363	456.1	7.6777e-06	5.5346e-06	709.42	168.04	8.7595e-06	4.0675e-06	317.9	143.14	79.244	45.592	6.0416e-06	93.982	0.00036324	0.00021924	6.7051e-05	449.46	2.4357e-06	2.8029e-06	697.83	167.2	2.8147e-06	2.4007e-06	316.22	141.6	76.535	45.724	2.4983e-06	93.814	396.696	195.199	163.572	109.133	226.723	235.191	108.641	114.705	241.679	225.616	113.020	117.115	119.066	123.053	243.232	120.741	-8191	255	
1240.238	1	1	0	0	0.034012	0.20867	0.19849	0.20126	0.32513	0.12689	0.15875	0.25064	0.089484	0.13713	0.076993	0.22247	0.080563	0.10921	0.1076	0.35271	-2.5167	-2.5958	-2.9354	-3.0042	-2.8396	-3.35	-2.9125	-2.9542	-3.3708	-2.7604	-3.2458	-3.1896	-2.6917	-3.2771	-2.8604	-3.1458	414.520	346.432	390.826	435.968	249.311	344.274	304.235	420.303	116.940	311.945	348.101	98.986	203.463	399.965	350.029	436.339	0.0031542	0.00064948	0.00016874	452.21	6.2368e-06	5.7912e-06	750.85	190.58	6.8476e-06	5.2371e-06	372.31	168.75	92.59	59.966	9.2429e-06	121.84	0.00043774	0.00023274	6.9932e-05	448.63	2.5927e-06	2.919e-06	738.11	188.66	3.0318e-06	2.5746e-06	367.12	167.04	90.14	60.014	2.9161e-06	121.91	397.595	175.884	195.224	110.023	227.583	231.798	109.283	115.302	250.279	234.323	113.297	117.641	119.072	122.846	261.495	120.597	-8191	255	
1240.335	1	1	0	0	0.19911	0.18991	0.47425	0.17039	0.25177	0.15932	0.040231	0.12669	0.12093	0.10505	0.18479	0.2701	0.15175	0.14649	0.20122	0.13071	-2.6521	-2.8604	-2.8417	-3.275	-2.8125	-3.0271	-3.0354	-3.0833	-2.9146	-2.7667	-2.9583	-3.2042	-3.0229	-3.0333	-3.0042	-3.1667	409.559	260.907	389.169	123.132	357.607	151.915	260.560	151.348	278.410	360.846	427.663	121.951	427.352	345.410	179.949	373.770	0.0039742	0.00068589	0.00017373	480.35	1.2036e-05	5.1371e-06	785.59	214.38	1.0345e-05	4.7766e-06	395.52	193.3	101.15	60.902	7.8594e-06	128.63	0.00051044	0.00024909	7.4659e-05	475.56	2.7641e-06	3.1171e-06	775.24	212.93	3.142e-06	2.7284e-06	391.93	190.97	97.756	60.797	2.9422e-06	128.4	397.292	188.185	178.545	110.118	233.657	258.987	109.159	115.049	261.539	204.117	113.404	117.292	119.466	122.865	242.385	120.455	-8191	255	
1240.431	1	1	0	0	0.14696	0.093466	0.23651	0.025508	0.087059	0.050297	0.166	0.32833	0.12086	0.14095	0.23729	0.35969	0.071676	0.26663	0.054303	0.060017	-2.7	-2.6958	-2.7792	-3.025	-2.8167	-3.0208	-3.1604	-2.8167	-3.1042	-2.7979	-2.9583	-3.2833	-2.7958	-3.1625	-3.075	-3.0938	223.148	311.378	433.023	121.538	319.649	308.666	383.223	144.281	423.438	146.262	118.933	101.254	277.208	122.753	122.297	106.713	0.0041582	0.00059496	0.00020403	490.33	9.3249e-06	7.1812e-06	790.7	214.71	1.6329e-05	7.4953e-06	386.17	170.72	88.705	52.989	1.0957e-05	109.23	0.00051241	0.00023612	6.8998e-05	486.6	2.4915e-06	2.7204e-06	778.97	211.9	2.7732e-06	2.2987e-06	380.13	168.42	85.584	53.011	2.5613e-06	109.2	397.692	186.122	186.467	109.986	253.278	262.764	109.292	115.329	228.337	244.224	113.449	117.640	119.754	123.484	247.817	121.038	-8191	255	
1240.527	1	1	0	0	0.21732	0.094815	0.20572	0.1184	0.027969	0.079293	0.16893	0.14775	0.29135	0.25516	0.13335	0.12342	0.23238	0.42731	0.054464	0.39452	-2.5812	-2.8792	-2.8042	-3.1312	-2.8458	-3.1771	-2.9333	-2.5167	-2.975	-2.9625	-2.6792	-2.9292	-2.8021	-2.8688	-3.0812	-3.0875	218.058	444.717	187.872	436.029	188.805	291.114	420.085	147.431	324.126	299.436	421.660	399.719	304.057	114.811	290.429	424.331	0.0035655	0.00056435	0.00014728	477.54	7.5358e-06	6.9836e-06	750.73	202.06	9.8925e-06	5.8182e-06	353.04	141.17	76.738	42.755	6.3557e-06	90.911	0.0004346	0.00020381	5.694e-05	473.4	2.0807e-06	2.2676e-06	741.22	199.06	2.3228e-06	2.0616e-06	347.74	139.69	73.382	42.753	2.2035e-06	90.992	395.702	190.440	176.702	109.823	234.375	220.500	109.250	114.880	236.282	278.750	113.356	117.995	119.887	123.709	237.785	121.260	-8191	255	
1240.623	1	1	0	0	0.14443	0.15725	0.13506	0.44908	0.22924	0.11364	0.35186	0.17668	0.20096	0.19261	0.059485	0.15227	0.14727	0.042751	0.24418	0.17697	-2.5625	-2.7458	-2.8625	-3.1146	-2.9333	-2.9729	-3.0146	-2.8333	-3.05	-2.9271	-2.8875	-3.1896	-2.6479	-2.8292	-3.0771	-2.8208	200.927	393.099	108.138	435.737	439.380	129.388	341.815	398.707	162.119	383.324	447.393	97.460	258.629	357.271	226.133	456.991	0.0028414	0.00043662	0.00016755	465.15	5.9365e-06	4.1422e-06	741.15	196.77	9.7038e-06	6.4011e-06	352.77	143.84	77.473	45.966	6.9636e-06	100.39	0.00036098	0.00018191	5.0505e-05	459.83	1.8514e-06	1.9814e-06	724.1	194.37	2.1899e-06	2.063e-06	347.96	141.79	74.999	45.913	2.3008e-06	100.1	397.387	174.387	197.156	109.731	255.764	239.020	108.853	115.061	270.352	230.523	113.217	118.125	120.215	123.374	261.034	121.052	-8191	255	
1240.744	1	1	0	0	0.088149	0.11118	0.18125	0.17702	0.098673	0.16418	0.31816	0.21264	0.092141	0.097756	0.25263	0.17129	0.10582	0.23318	0.162	0.14006	-2.375	-2.7562	-2.825	-3.0625	-2.7667	-2.9188	-3.2	-2.8375	-2.9562	-2.8146	-2.8563	-3.3187	-3.05	-2.7313	-3.0667	-3.0083	179.138	345.026	143.853	152.007	293.567	338.977	423.660	413.988	122.912	247.152	389.096	383.867	118.902	402.613	367.950	379.618	0.0033815	0.00039527	0.00014084	486.46	6.1518e-06	7.2249e-06	766.77	204.08	1.044e-05	3.6189e-06	363.66	156.36	82.092	50.769	7.5613e-06	106.11	0.00038791	0.00019738	5.2209e-05	479.83	2.0907e-06	2.1617e-06	755.78	201.02	2.3748e-06	2.3023e-06	358.02	153.96	79.74	50.759	2.5482e-06	106	395.656	179.284	182.506	110.240	233.825	236.185	108.981	114.998	246.392	239.386	113.048	117.725	120.315	123.218	261.393	121.000	-8191	255	
1240.838	1	1	0	0	0.14958	0.24807	0.088219	0.22024	0.034236	0.19228	0.19741	0.17004	0.20223	0.16547	0.15043	0.31087	0.14491	0.090638	0.23255	0.32153	-2.5646	-3.025	-2.7792	-2.975	-2.7542	-2.9083	-3.1792	-2.9125	-3.0771	-3.0792	-2.8083	-3.0854	-2.8979	-2.8708	-3.2167	-2.85	208.424	306.468	130.017	277.942	105.381	443.971	357.392	169.369	287.149	270.754	341.583	371.294	425.222	433.270	425.651	368.996	0.0035651	0.00055439	8.2826e-05	486.24	1.0514e-05	4.3924e-06	753.84	199.8	9.1065e-06	6.6285e-06	354.4	149.05	79.735	48.956	6.8405e-06	103.61	0.00040856	0.00020669	5.2065e-05	480.29	2.0814e-06	2.1359e-06	742.65	197.03	2.1958e-06	2.324e-06	348.85	147.17	76.957	48.798	2.4463e-06	103.41	396.019	189.857	205.965	109.890	232.953	248.362	109.029	115.075	256.730	224.400	113.408	117.805	120.377	123.407	272.883	121.086	-8191	255	
1240.934	1	1	0	0	0.10862	0.065877	0.19641	0.35978	0.16817	0.080914	0.055425	0.48225	0.17479	0.2093	0.11778	0.21865	0.14878	0.18644	0.2836	0.2331	-2.6125	-3.1312	-2.6667	-3.1312	-2.8729	-2.8042	-3.2083	-2.7833	-2.8937	-3.1667	-2.8792	-3.1021	-3.0271	-2.8771	-2.9854	-3.0729	253.830	442.592	274.745	416.758	380.502	249.720	232.407	393.083	214.069	386.287	266.695	397.528	206.781	408.240	364.948	425.176	0.0033132	0.00065293	0.00017181	483.8	9.2057e-06	4.8633e-06	754.85	198.12	7.7703e-06	6.3294e-06	352.51	149.4	79.469	47.913	8.8241e-06	101.52	0.00038748	0.00021068	5.2983e-05	476.59	2.1728e-06	2.1171e-06	742.98	195.98	2.2433e-06	2.2539e-06	348.51	147.55	76.773	47.844	2.4178e-06	101.36	396.407	178.617	180.602	109.970	246.946	243.744	109.054	114.960	252.951	233.612	113.172	117.733	119.836	123.370	251.105	121.017	-8191	255	
1241.008	1	1	0	0	0.21201	0.072867	0.29355	0.17549	0.15022	0.03699	0.10367	0.2486	0.2287	0.25032	0.13594	0.15231	0.13556	0.16856	0.27095	0.18833	-2.2562	-3.1792	-2.7	-3.0625	-2.8042	-2.8146	-2.9333	-2.9083	-2.8792	-3.0687	-2.8979	-3.2146	-2.9271	-2.9646	-3.0333	-2.9917	218.029	320.082	434.588	333.407	243.333	107.934	312.429	401.816	312.595	263.731	418.033	394.059	352.496	390.990	217.022	305.768	0.0033235	0.00048298	0.00018057	486.77	5.7897e-06	5.8609e-06	769.74	201.41	8.2427e-06	7.2359e-06	358.79	152.37	81.16	48.715	9.1853e-06	102.93	0.00038783	0.00021764	5.1152e-05	481.12	2.2779e-06	2.0752e-06	753.3	199.46	2.1904e-06	2.3306e-06	354.65	150.78	78.582	48.66	2.4836e-06	102.94	397.707	193.859	203.396	110.005	248.153	245.434	109.174	115.386	229.244	245.028	113.273	117.923	120.047	123.453	249.167	121.187	-8191	255	
1241.126	1	1	0	0	0.089418	0.048805	0.36275	0.25023	0.093685	0.11821	0.3616	0.30032	0.18235	0.08161	0.11055	0.50028	0.13145	0.34801	0.13152	0.30407	-2.5	-3.0479	-2.9458	-2.8083	-2.8854	-2.9729	-3.0896	-2.7125	-2.8896	-3	-3.0271	-2.8937	-2.9854	-2.8438	-3.0292	-3.1437	359.820	155.779	357.019	378.333	213.745	260.197	416.572	428.331	237.605	432.300	177.571	404.555	269.631	423.664	391.096	394.273	0.0032224	0.00047643	0.00018735	486.37	8.7593e-06	6.1534e-06	760.9	200.98	8.8212e-06	4.9702e-06	354.03	151.8	80.941	49.081	8.1973e-06	102.79	0.00038209	0.00021969	5.3531e-05	479.75	2.3434e-06	2.0423e-06	748.47	198.08	2.2205e-06	2.3818e-06	348.87	150.02	78.121	48.942	2.4326e-06	102.84	396.368	224.515	172.140	110.069	258.697	240.510	109.342	114.908	237.206	235.453	113.438	117.993	119.934	123.210	252.071	121.127	-8191	255	
#DATA ENDS
