BOXY.EXE: ISS Imagent and Oximeter Data Acquisition Program Version 0.80
Ascii Record File

#ACQ INFORMATION
2  Detector Channels 
16  External MUX Channels 
1  Auxiliary Channels 
5000  Waveform (CCF) Frequency (Hz)
1  Waveforms Skipped 
30  Waveforms Averaged 
1  Cycles Averaged 
16  Acquisitions per Waveform 
10.0806  Updata Rate (Hz) 

#FILE INFORMATION
TRUE -- External MUX Channel results are PARSED.
FALSE -- AC DC and Phase are NOT grouped.
TRUE -- Companion Program Settings File CREATED.
FALSE -- AC data not excluded
FALSE -- DC data not excluded
FALSE -- Phase data not excluded
FALSE -- Auxillary Chn. data not excluded
Tab delimiters

#CALIBRATION STATE
TRUE -- Waveform Calibration Values APPLIED.


#AUX CALIBRATION VALUES
Val Type	aux-1	

Term	1.0000e+00	
Factor	0.0000e+00	


#WF CALIBRATION VALUES
A = Detector Channel
Val Type	A-AC1	A-AC2	A-AC3	A-AC4	A-AC5	A-AC6	A-AC7	A-AC8	A-AC9	A-AC10	A-AC11	A-AC12	A-AC13	A-AC14	A-AC15	A-AC16	A-DC1	A-DC2	A-DC3	A-DC4	A-DC5	A-DC6	A-DC7	A-DC8	A-DC9	A-DC10	A-DC11	A-DC12	A-DC13	A-DC14	A-DC15	A-DC16	A-Ph1	A-Ph2	A-Ph3	A-Ph4	A-Ph5	A-Ph6	A-Ph7	A-Ph8	A-Ph9	A-Ph10	A-Ph11	A-Ph12	A-Ph13	A-Ph14	A-Ph15	A-Ph16	

Term	0.00000e+00	0.00000e+00	0.00000e+00	0.00000e+00	0.00000e+00	0.00000e+00	0.00000e+00	0.00000e+00	0.00000e+00	0.00000e+00	0.00000e+00	0.00000e+00	0.00000e+00	0.00000e+00	0.00000e+00	0.00000e+00	0.00000e+00	0.00000e+00	0.00000e+00	0.00000e+00	0.00000e+00	0.00000e+00	0.00000e+00	0.00000e+00	0.00000e+00	0.00000e+00	0.00000e+00	0.00000e+00	0.00000e+00	0.00000e+00	0.00000e+00	0.00000e+00	0.00000e+00	0.00000e+00	0.00000e+00	0.00000e+00	0.00000e+00	0.00000e+00	0.00000e+00	0.00000e+00	0.00000e+00	0.00000e+00	0.00000e+00	0.00000e+00	0.00000e+00	0.00000e+00	0.00000e+00	0.00000e+00	
Factor	1.00000e+00	1.00000e+00	1.00000e+00	1.00000e+00	1.00000e+00	1.00000e+00	1.00000e+00	1.00000e+00	1.00000e+00	1.00000e+00	1.00000e+00	1.00000e+00	1.00000e+00	1.00000e+00	1.00000e+00	1.00000e+00	1.00000e+00	1.00000e+00	1.00000e+00	1.00000e+00	1.00000e+00	1.00000e+00	1.00000e+00	1.00000e+00	1.00000e+00	1.00000e+00	1.00000e+00	1.00000e+00	1.00000e+00	1.00000e+00	1.00000e+00	1.00000e+00	X	X	X	X	X	X	X	X	X	X	X	X	X	X	X	X	

B = Detector Channel
Val Type	B-AC1	B-AC2	B-AC3	B-AC4	B-AC5	B-AC6	B-AC7	B-AC8	B-AC9	B-AC10	B-AC11	B-AC12	B-AC13	B-AC14	B-AC15	B-AC16	B-DC1	B-DC2	B-DC3	B-DC4	B-DC5	B-DC6	B-DC7	B-DC8	B-DC9	B-DC10	B-DC11	B-DC12	B-DC13	B-DC14	B-DC15	B-DC16	B-Ph1	B-Ph2	B-Ph3	B-Ph4	B-Ph5	B-Ph6	B-Ph7	B-Ph8	B-Ph9	B-Ph10	B-Ph11	B-Ph12	B-Ph13	B-Ph14	B-Ph15	B-Ph16	

Term	0.00000e+00	0.00000e+00	0.00000e+00	0.00000e+00	0.00000e+00	0.00000e+00	0.00000e+00	0.00000e+00	0.00000e+00	0.00000e+00	0.00000e+00	0.00000e+00	0.00000e+00	0.00000e+00	0.00000e+00	0.00000e+00	0.00000e+00	0.00000e+00	0.00000e+00	0.00000e+00	0.00000e+00	0.00000e+00	0.00000e+00	0.00000e+00	0.00000e+00	0.00000e+00	0.00000e+00	0.00000e+00	0.00000e+00	0.00000e+00	0.00000e+00	0.00000e+00	-2.65566e+02	-1.24841e+02	-1.20241e+02	-1.81994e+02	-7.06572e+01	-6.59311e+01	-1.56309e+02	-1.62015e+02	-6.90623e+01	-6.87394e+01	-1.73690e+02	-1.70229e+02	-1.84320e+02	-1.76364e+02	-6.75761e+01	-1.49227e+02	
Factor	6.26878e-05	1.67292e-04	5.27594e-05	1.83783e-01	2.31563e-06	1.97287e-06	1.71397e-01	5.46504e-02	2.81418e-06	1.76473e-06	1.02938e-01	3.00253e-02	5.63014e-02	9.41980e-03	2.03463e-06	1.37220e-02	5.32171e-06	6.03407e-06	1.68690e-06	9.18392e-02	6.45977e-08	6.66728e-08	8.01300e-02	2.73424e-02	6.44674e-08	6.66207e-08	4.98357e-02	1.45750e-02	2.78928e-02	4.75395e-03	6.55589e-08	6.70704e-03	X	X	X	X	X	X	X	X	X	X	X	X	X	X	X	X	



#DISTANCE SETTINGS
A = Detector Channel
A-1	A-2	A-3	A-4	A-5	A-6	A-7	A-8	A-9	A-10	A-11	A-12	A-13	A-14	A-15	A-16	

2.5000e+00	3.0000e+00	2.5000e+00	3.0000e+00	2.0000e+00	3.0000e+00	1.5000e+00	3.0000e+00	3.0000e+00	3.0000e+00	3.0000e+00	3.0000e+00	3.0000e+00	3.0000e+00	1.5000e+00	3.0000e+00	

B = Detector Channel
B-1	B-2	B-3	B-4	B-5	B-6	B-7	B-8	B-9	B-10	B-11	B-12	B-13	B-14	B-15	B-16	

1.0000e+01	1.0000e+01	1.0000e+01	1.4400e+00	1.0000e+01	1.0000e+01	1.5100e+00	1.9400e+00	1.0000e+01	1.0000e+01	1.9900e+00	2.4900e+00	2.4100e+00	2.9000e+00	1.0000e+01	2.9800e+00	




#DATA BEGINS
time	group	step	mark	flag	A-AC1	A-AC2	A-AC3	A-AC4	A-AC5	A-AC6	A-AC7	A-AC8	A-AC9	A-AC10	A-AC11	A-AC12	A-AC13	A-AC14	A-AC15	A-AC16	A-DC1	A-DC2	A-DC3	A-DC4	A-DC5	A-DC6	A-DC7	A-DC8	A-DC9	A-DC10	A-DC11	A-DC12	A-DC13	A-DC14	A-DC15	A-DC16	A-Ph1	A-Ph2	A-Ph3	A-Ph4	A-Ph5	A-Ph6	A-Ph7	A-Ph8	A-Ph9	A-Ph10	A-Ph11	A-Ph12	A-Ph13	A-Ph14	A-Ph15	A-Ph16	B-AC1	B-AC2	B-AC3	B-AC4	B-AC5	B-AC6	B-AC7	B-AC8	B-AC9	B-AC10	B-AC11	B-AC12	B-AC13	B-AC14	B-AC15	B-AC16	B-DC1	B-DC2	B-DC3	B-DC4	B-DC5	B-DC6	B-DC7	B-DC8	B-DC9	B-DC10	B-DC11	B-DC12	B-DC13	B-DC14	B-DC15	B-DC16	B-Ph1	B-Ph2	B-Ph3	B-Ph4	B-Ph5	B-Ph6	B-Ph7	B-Ph8	B-Ph9	B-Ph10	B-Ph11	B-Ph12	B-Ph13	B-Ph14	B-Ph15	B-Ph16	aux-1	digaux	

1363.835	1	1	0	512	0.10858	0.19766	0.060046	0.11923	0.15652	0.23159	0.37084	0.29767	0.071228	0.15821	0.17756	0.27202	0.19112	0.045773	0.10137	0.15019	-2.4875	-2.9083	-3.0563	-2.7375	-3.0292	-2.9188	-2.6979	-3.3458	-2.9771	-2.9604	-3.3333	-2.8625	-3.1188	-3.0083	-2.7687	-3.2188	-82.317	-30.831	48.033	141.282	172.989	133.667	174.853	136.747	186.170	192.220	-7.951	139.396	185.919	-130.987	93.889	157.213	0.0031648	0.00063958	0.00028069	422.03	1.2249e-05	4.0268e-06	688.13	187.37	1.7572e-05	9.7227e-06	353.34	187.63	102.44	60.338	6.6107e-06	113.59	0.001731	0.0018183	0.0005243	447.77	2.0113e-05	2.0066e-05	709.6	196.62	1.8758e-05	2.0049e-05	367.79	191.9	110.12	62.453	1.9108e-05	117.09	58.567	-29.310	-36.011	-139.171	-17.169	-26.479	-139.600	-134.262	7.901	6.919	-135.362	-132.435	-131.373	-127.262	19.007	-129.190	-8191	255	
1363.931	1	1	0	0	0.063642	0.12084	0.15083	0.12941	0.10167	0.12777	0.23094	0.14045	0.090517	0.071325	0.27191	0.28254	0.22214	0.33545	0.124	0.32098	-2.4917	-2.8292	-3.0792	-2.9667	-2.9917	-3.2125	-2.7604	-3.3083	-2.9125	-3.0854	-3.0563	-3.0021	-3.1333	-3.125	-2.7812	-3.3	169.161	-139.633	161.781	128.323	165.230	48.175	151.514	130.250	11.753	8.944	182.761	-116.687	166.515	172.654	-63.534	163.016	0.0030098	0.00085144	0.00028982	422.31	5.2582e-06	1.001e-05	687.65	188.42	1.8579e-06	2.3819e-06	351.82	187.69	102.85	60.575	1.3295e-05	113.33	0.0017765	0.0018085	0.00052605	447.8	1.9477e-05	1.9937e-05	709.5	197.15	1.8356e-05	1.9009e-05	368.09	191.97	110.09	62.493	1.8361e-05	116.89	59.809	-70.618	-126.296	-138.917	-15.457	-13.162	-139.603	-134.249	-146.109	18.193	-135.550	-132.295	-131.342	-127.266	-23.706	-129.256	-8191	255	
1364.052	1	1	0	0	0.096106	0.19768	0.026556	0.079579	0.14228	0.25017	0.072734	0.17698	0.12244	0.18645	0.13092	0.20682	0.1903	0.026625	0.22221	0.068727	-2.4792	-2.925	-3.1312	-2.9896	-2.7771	-2.8521	-2.7812	-3.1354	-2.9354	-2.7083	-3.2396	-3.0667	-2.9188	-3.0604	-2.8958	-3.3542	98.520	167.599	-93.306	173.485	32.799	184.901	144.765	122.654	141.683	-6.139	87.774	164.745	137.016	-75.701	-128.339	161.161	0.0029117	0.00044492	0.00023873	426.15	3.8104e-06	8.2306e-06	686.98	188.24	5.484e-06	6.2722e-06	351.39	187.3	102.65	60.311	5.0157e-06	113.94	0.001727	0.0017037	0.00051585	447.5	1.8952e-05	1.9788e-05	709.27	196.86	1.8558e-05	1.8531e-05	367.5	191.97	109.57	62.452	1.7865e-05	117.04	64.291	-108.368	-52.944	-138.930	-36.505	-78.462	-139.520	-133.973	18.979	14.362	-135.411	-132.133	-131.395	-127.247	38.314	-129.264	-8191	255	
1364.124	1	1	0	0	0.13442	0.063274	0.053875	0.16466	0.21235	0.11605	0.3118	0.074133	0.086468	0.10887	0.27884	0.12225	0.18909	0.14688	0.20342	0.08282	-2.4313	-2.5729	-3.1896	-2.9062	-2.7417	-2.9875	-3.0271	-2.9396	-2.9854	-2.7604	-3.2021	-2.7875	-3.0896	-3.2062	-2.7792	-3.3375	186.882	-34.437	170.274	129.553	39.917	-49.440	111.978	86.719	-139.672	51.022	142.421	193.272	-46.366	-62.121	10.135	-78.933	0.0030472	0.00060106	0.00033661	421.67	9.4305e-06	7.8599e-06	689.48	188.63	6.5397e-06	6.9701e-06	355.17	187.1	102.47	60.331	6.7204e-06	113.49	0.0016967	0.0016401	0.000496	447.07	1.8024e-05	1.9496e-05	710.28	197.11	1.9052e-05	1.8775e-05	369.65	192.43	109.88	62.555	1.8569e-05	117.2	59.572	-77.051	8.347	-138.857	4.866	-9.651	-139.666	-134.003	-24.948	33.060	-135.645	-132.368	-131.394	-127.298	-32.393	-129.192	-8191	255	
1364.242	1	1	0	0	0.03121	0.14491	0.055428	0.096955	0.036953	0.36724	0.43394	0.16814	0.058503	0.10694	0.20202	0.21835	0.21015	0.14542	0.12624	0.19215	-2.5896	-2.6646	-2.9375	-3.075	-2.6792	-3.1312	-2.7938	-2.9083	-3.275	-2.7875	-3.2375	-3.0958	-2.7479	-3.0917	-2.5896	-3.1646	-15.328	15.012	106.746	89.205	187.789	-34.298	-77.762	162.756	91.732	174.067	-104.287	206.271	108.691	167.450	-75.849	112.989	0.0030416	0.00103	0.0002134	423.69	6.4537e-06	5.546e-06	693.32	188.79	5.2479e-06	8.0022e-06	354.4	187.16	101.69	60.39	8.6166e-07	113.88	0.001782	0.0016738	0.00051497	448.21	1.8188e-05	1.979e-05	710.57	196.31	1.9102e-05	1.8438e-05	368.6	192.56	109.2	62.517	1.8717e-05	117.33	63.998	-52.595	-79.735	-138.745	4.583	78.377	-139.716	-133.940	-25.497	9.731	-135.691	-132.330	-131.225	-126.945	35.142	-129.246	-8191	255	
1364.339	1	1	0	0	0.095737	0.13693	0.079743	0.2325	0.10802	0.23544	0.18914	0.090896	0.36498	0.0717	0.2129	0.1576	0.060241	0.087022	0.062149	0.2364	-2.5542	-2.4813	-2.8542	-2.9521	-2.9208	-3.025	-3.0271	-2.9146	-2.975	-2.7896	-3.1417	-3.0229	-2.7667	-3.2146	-2.8771	-3.0604	182.858	-19.366	116.935	118.524	51.827	36.379	105.130	75.235	-17.576	2.049	-137.685	136.406	-81.195	-141.750	50.115	203.077	0.0029899	0.0011232	0.00030884	421.51	1.2013e-05	3.7684e-06	690.33	188.03	1.1215e-05	1.221e-05	354.06	187.83	101.88	60.163	6.0841e-06	113.83	0.0018073	0.0017085	0.00051558	448.39	1.8376e-05	2.0305e-05	712.91	196.01	1.9316e-05	1.8124e-05	368.29	192.58	109.15	62.299	1.8094e-05	117.17	60.258	-32.719	-30.050	-138.858	-18.179	-44.625	-139.553	-134.077	-65.048	-8.383	-135.622	-132.180	-131.165	-126.861	-31.785	-129.182	-8191	255	
1364.435	1	1	0	0	0.19907	0.072124	0.056616	0.35664	0.20402	0.095453	0.093731	0.11695	0.055362	0.1533	0.067944	0.090627	0.15296	0.32741	0.30292	0.24256	-2.5062	-2.6708	-2.8375	-3.0625	-2.6562	-3.2	-2.8958	-2.9062	-2.8375	-2.7042	-2.9688	-2.9875	-2.8104	-3.0083	-2.7958	-2.9417	151.167	-99.014	4.139	142.080	-70.857	148.814	135.021	107.747	-133.319	80.975	174.641	179.875	-131.645	201.155	55.381	148.060	0.0030409	0.0007097	0.00021812	424.17	3.9228e-06	3.9088e-06	688.13	186.7	4.6885e-06	9.2029e-06	349.19	186.05	101.42	59.833	4.0679e-06	113.19	0.0017739	0.0016514	0.00049659	447.9	1.8022e-05	2.0164e-05	709.76	195.06	1.9535e-05	1.8232e-05	366.05	191.36	108.44	62.041	1.8865e-05	116.45	65.305	-69.211	-27.007	-139.119	-88.986	-73.077	-139.524	-134.061	-88.791	11.006	-135.353	-132.270	-131.320	-127.079	23.878	-129.093	-8191	255	
1364.531	1	1	0	0	0.13502	0.12087	0.19046	0.13958	0.35697	0.27874	0.26054	0.28395	0.1853	0.081977	0.31131	0.36584	0.2348	0.34634	0.11096	0.24469	-2.6833	-2.7396	-2.9771	-3.0021	-2.7667	-3.1	-2.8521	-2.9292	-3	-2.7208	-2.9646	-3.1125	-2.8792	-2.9792	-3.0396	-3	-142.862	67.681	115.477	161.811	30.045	166.039	101.120	176.402	183.333	65.577	151.256	182.069	107.418	152.225	99.806	197.753	0.0029464	0.00064025	0.00022422	422.53	6.2532e-06	1.0501e-05	686.1	186.45	3.4756e-06	9.4522e-06	349.61	186.11	101.87	59.961	4.0571e-06	113.45	0.001824	0.0016885	0.00049749	447.64	1.8071e-05	2.0454e-05	707.37	194.25	2.0312e-05	1.9437e-05	364.63	191.67	109.14	62.174	2.0471e-05	116.85	57.933	-46.554	-67.667	-138.920	-41.909	57.723	-139.674	-134.273	112.848	0.845	-135.452	-132.297	-131.127	-127.469	-55.581	-129.065	-8191	255	
1364.652	1	1	0	0	0.10138	0.25347	0.15567	0.085982	0.13713	0.10976	0.10651	0.10134	0.16164	0.080224	0.15635	0.24714	0.23912	0.31097	0.14276	0.27796	-2.5167	-2.7146	-2.85	-3.1021	-2.7896	-2.9833	-3.0583	-2.825	-3.1354	-2.8	-3.1083	-3.1063	-2.9021	-3.0104	-3.0458	-2.8146	-49.853	-86.543	-93.887	194.283	28.356	-119.647	72.731	205.150	88.269	187.198	156.383	181.101	51.413	149.570	106.772	149.933	0.003183	0.00070894	0.00033985	420.62	1.2362e-05	4.1881e-06	688.68	187.34	1.2455e-05	7.9207e-06	352.39	186.39	101.81	60.265	1.0116e-05	113.73	0.0019322	0.001826	0.00052723	448.48	1.9346e-05	2.1549e-05	710.62	195.92	2.1368e-05	2.0603e-05	366.98	192.13	109.41	62.561	2.2077e-05	117.42	61.524	-1.232	-42.004	-138.926	-8.590	-1.422	-139.774	-134.091	-7.854	-40.517	-135.568	-132.305	-131.638	-127.459	-58.654	-129.208	-8191	255	
1364.723	1	1	0	0	0.077145	0.1465	0.32158	0.18655	0.14169	0.26708	0.24292	0.31995	0.14101	0.21584	0.32055	0.17477	0.025006	0.086381	0.32488	0.2206	-2.6	-2.9813	-2.6896	-3.2562	-2.5438	-3.0521	-2.9688	-2.7438	-2.9229	-2.8208	-2.9521	-3.2792	-2.7917	-3.0854	-2.8771	-2.9354	148.054	16.921	-48.320	-147.791	32.877	130.999	-106.238	193.860	60.572	30.134	133.145	-140.839	-147.986	186.703	-82.033	80.910	0.0029672	0.00055038	0.00017871	421.74	1.0383e-05	7.846e-06	687.73	186.53	1.7658e-05	9.5265e-06	351.38	187.52	101.85	60.126	8.8583e-06	113.37	0.0020432	0.0019921	0.00055324	452.13	2.0142e-05	2.2174e-05	713.52	195.34	2.1301e-05	2.0872e-05	367.28	192.89	109.51	62.376	2.1614e-05	117.34	60.308	-62.344	-31.842	-138.844	-5.057	23.369	-139.575	-133.891	-8.344	-47.510	-135.499	-132.459	-131.309	-127.107	26.461	-129.177	-8191	255	
1364.819	1	1	0	0	0.20433	0.080811	0.37393	0.14037	0.19354	0.16032	0.18618	0.16571	0.14727	0.30519	0.15055	0.21105	0.13469	0.17423	0.10674	0.27867	-2.5792	-2.8646	-2.6854	-3.1479	-2.5729	-2.9458	-3.25	-2.6604	-2.925	-2.9354	-2.7917	-3.1833	-2.8333	-3.0354	-3.0125	-2.9542	15.921	41.636	156.517	87.091	11.349	-117.096	198.506	-98.840	162.767	-95.025	188.741	150.778	203.734	160.197	-126.958	141.625	0.003124	0.00060855	0.00010804	426.38	1.7253e-05	1.0596e-05	688.17	187.4	5.6477e-06	3.1492e-06	352.38	186.64	102.08	59.775	5.9141e-06	113.11	0.0019677	0.0019484	0.00052973	453.06	2.0373e-05	2.2025e-05	714.84	196.1	2.1893e-05	2.181e-05	367.34	192.21	109.69	62.235	2.2093e-05	116.71	61.051	37.865	-29.222	-138.859	-11.428	-19.158	-139.792	-134.374	-70.858	33.363	-135.330	-132.635	-131.620	-127.201	-29.063	-129.326	-8191	255	
1364.916	1	1	0	0	0.16186	0.21045	0.090137	0.12079	0.015928	0.2793	0.1402	0.17841	0.05061	0.07666	0.082819	0.17841	0.085571	0.49677	0.15256	0.22688	-2.3187	-2.8854	-2.7479	-3.0729	-2.7958	-2.7208	-3.1771	-2.7667	-3.075	-2.9	-2.6354	-3.0854	-2.7896	-2.7542	-2.8917	-2.8625	-110.391	-15.502	16.887	-117.541	18.642	-106.251	67.298	205.608	82.118	-13.014	165.515	-110.318	190.278	156.879	185.246	207.317	0.002975	0.00087367	0.00020724	420.5	1.0724e-05	1.0622e-05	685.94	187.39	4.0944e-06	6.1886e-06	350.43	186.33	101.91	59.934	1.2615e-05	113.19	0.0019556	0.00194	0.00051473	449.87	2.0099e-05	2.0802e-05	712.04	195.45	2.0973e-05	2.1545e-05	365.61	191.67	109.46	62.08	2.1506e-05	116.56	60.110	-54.105	-115.837	-138.800	-83.504	16.801	-139.593	-134.078	54.225	-12.972	-135.618	-132.112	-131.414	-127.218	-18.118	-129.183	-8191	255	
1365.012	1	1	0	0	0.13106	0.31864	0.33355	0.16769	0.22655	0.1154	0.049461	0.041733	0.15157	0.13374	0.23534	0.10637	0.20203	0.2169	0.057629	0.24005	-2.6188	-2.7604	-2.8688	-2.9625	-2.9771	-2.8479	-3.275	-2.9333	-2.8812	-2.925	-2.6479	-3.1458	-2.8708	-2.8812	-3.0625	-2.8896	36.777	32.544	-89.812	-74.522	187.556	-101.161	-103.797	57.057	199.595	124.946	-116.190	86.159	-66.933	188.772	43.308	159.980	0.0030461	0.00073968	0.00016752	422.61	8.5976e-06	8.6029e-06	689.13	186.75	1.385e-05	1.0357e-05	351.86	187.12	101.4	59.735	4.9451e-06	112.84	0.001898	0.0019257	0.00049529	449.46	1.9669e-05	1.9871e-05	712.28	195.32	2.0034e-05	2.0645e-05	365.73	192.09	109.31	62.024	2.091e-05	116.63	61.755	-76.693	-64.265	-139.094	23.227	-15.229	-139.716	-134.218	-30.921	-12.805	-135.578	-132.395	-131.393	-127.190	-63.248	-129.316	-8191	255	
1365.131	1	1	0	0	0.12848	0.13705	0.22347	0.078556	0.40383	0.18826	0.19818	0.31455	0.046487	0.19263	0.037803	0.14011	0.32241	0.22386	0.10932	0.36833	-2.4896	-2.9333	-2.7979	-3.05	-2.9229	-2.7896	-3.1458	-2.7979	-2.8354	-3.0292	-2.9375	-3.0812	-2.8396	-2.7292	-2.8229	-3.0375	100.988	69.467	-93.726	17.248	30.972	-0.018	87.503	-150.551	200.959	133.062	105.941	66.274	-129.230	192.887	-98.267	173.634	0.0030799	0.00050484	0.00017808	420.84	8.1142e-07	8.6337e-06	687.06	186.92	1.6768e-05	8.6294e-06	350.96	185.81	101.1	59.899	3.4175e-06	113.08	0.0018656	0.001908	0.00049867	448.74	2.0164e-05	1.9757e-05	714.16	195.2	1.9786e-05	2.1088e-05	365.34	191.45	109.05	61.855	2.078e-05	116.65	60.869	14.357	-77.378	-138.951	-116.713	-3.506	-139.584	-134.277	-39.398	30.522	-135.608	-132.393	-131.523	-127.211	4.876	-129.198	-8191	255	
1365.227	1	1	0	0	0.15229	0.25057	0.043164	0.16259	0.19822	0.17018	0.40174	0.20691	0.23801	0.19645	0.10175	0.26498	0.017149	0.39898	0.020075	0.28742	-2.4021	-2.9813	-2.7188	-3.1	-3.0958	-2.9562	-3.2146	-2.9313	-2.8896	-3.0479	-2.7958	-3.0667	-3.0083	-2.8104	-3.0687	-3.1354	-150.790	40.741	2.549	196.966	135.644	-125.935	137.295	155.442	-118.986	158.178	-109.928	-148.303	7.882	-141.604	-15.089	160.697	0.003283	0.00042913	0.00011515	423.32	1.9728e-06	3.637e-06	691.17	186.93	3.3409e-06	6.1859e-06	356.07	187.12	101.91	60.062	7.8354e-06	112.87	0.001793	0.0018809	0.00048427	449.52	1.9827e-05	1.929e-05	713.44	195.85	1.9346e-05	2.1184e-05	367.43	192.39	109.64	61.948	2.0006e-05	116.31	60.743	-35.754	63.051	-138.705	-40.279	-0.528	-139.789	-134.181	16.245	-76.403	-135.391	-132.213	-131.594	-127.213	35.382	-129.233	-8191	255	
1365.323	1	1	0	0	0.1735	0.10323	0.23607	0.34762	0.18767	0.22322	0.15888	0.21936	0.061534	0.11632	0.2671	0.084292	0.11672	0.076352	0.29428	0.37501	-2.4604	-3.0438	-2.6625	-2.9688	-2.9208	-2.7979	-3.2667	-2.8708	-2.7854	-2.8854	-2.8021	-3.0542	-3.3146	-3.0667	-3.1208	-3.1792	146.383	155.898	-84.940	69.327	199.209	-106.587	-93.213	140.314	89.587	143.165	125.539	-43.627	99.308	125.414	142.154	107.397	0.0030316	0.0003241	0.00023887	425.46	7.7199e-06	9.1303e-06	687.29	188.22	1.8339e-05	6.6973e-06	352.55	186.88	101.86	59.936	9.736e-06	113.01	0.0017162	0.001833	0.00047117	449.31	1.918e-05	1.8186e-05	711.99	196.01	1.8069e-05	2.012e-05	366.47	191.92	109.43	61.879	1.9628e-05	116.31	61.669	-59.400	-13.657	-139.022	-43.215	1.089	-139.460	-134.375	3.854	-19.635	-135.353	-132.203	-132.101	-127.206	-35.735	-129.169	-8191	255	
1365.419	1	1	0	0	0.13413	0.10919	0.086666	0.087074	0.08561	0.095372	0.1789	0.059477	0.18136	0.096612	0.28867	0.11399	0.14161	0.13933	0.090278	0.24277	-2.1479	-2.9125	-2.8063	-2.9208	-3.0438	-2.725	-3.1479	-3.0417	-2.6688	-3.0333	-2.9771	-2.9	-3.1292	-2.9313	-2.8917	-3.2625	60.179	106.701	-80.925	95.938	-100.426	73.730	191.451	55.243	-6.544	196.392	-76.054	108.188	16.996	157.186	-57.419	180.584	0.003307	0.0010051	8.2518e-05	427.18	6.7336e-06	3.1306e-06	690.12	188.08	1.0043e-05	5.8081e-06	350.35	186.49	102.21	59.818	1.0569e-05	112.93	0.0016679	0.0018066	0.00046944	447.95	1.9088e-05	1.82e-05	713.88	196.16	1.7704e-05	1.9677e-05	366.23	191.76	109.16	61.671	1.9064e-05	116.41	56.981	30.761	-118.793	-139.052	-26.463	4.520	-139.566	-134.387	-4.733	1.327	-135.395	-132.158	-131.369	-127.435	-55.399	-129.243	-8191	255	
1365.515	1	1	0	0	0.10957	0.10132	0.25682	0.10943	0.089705	0.11303	0.097704	0.21653	0.25014	0.11217	0.10189	0.1895	0.087304	0.25365	0.13268	0.18344	-2.4021	-2.9146	-2.6542	-2.9333	-2.9729	-2.8583	-3.0042	-3.0333	-2.7542	-3.1708	-2.9375	-3.0333	-3.0167	-2.925	-2.8979	-3.0771	121.636	151.213	147.013	-113.263	64.440	94.804	60.117	200.837	99.547	-118.531	155.357	179.355	132.494	147.982	-145.846	140.145	0.0030085	0.00041609	8.6877e-05	422.96	7.4893e-06	1.9482e-06	689.29	188.38	1.0354e-05	1.1123e-05	354.08	187.45	101.6	60.013	2.3014e-06	113.38	0.0016285	0.001787	0.00047651	447.62	1.9219e-05	1.8129e-05	713.31	196.02	1.7214e-05	1.9434e-05	366.83	192.06	108.97	61.922	1.8412e-05	116.91	62.569	-15.816	-80.028	-138.977	-51.328	-102.238	-139.719	-133.796	-20.605	-9.768	-135.482	-132.243	-131.228	-127.338	-32.646	-129.057	-8191	255	
1365.611	1	1	0	0	0.1977	0.17552	0.23521	0.15029	0.060031	0.058049	0.19874	0.20123	0.12815	0.12027	0.026975	0.30008	0.22091	0.17428	0.035274	0.37096	-2.3667	-2.8271	-2.6542	-2.8937	-3.0729	-2.6854	-3.1063	-3.0708	-2.6396	-2.9208	-3.0229	-2.8667	-2.8979	-3.0104	-2.8292	-3.3208	-88.782	12.097	-15.771	89.001	103.863	116.045	-74.955	135.746	12.213	110.921	-35.156	-147.643	202.316	164.465	43.292	169.779	0.0030318	0.00060552	0.00026766	422.17	1.0411e-05	8.2467e-06	692.94	187.22	4.1216e-06	1.1016e-05	354.15	186.4	102.16	59.932	8.5304e-06	112.97	0.0015814	0.0017261	0.00046531	446.91	1.8686e-05	1.7917e-05	713.21	195.49	1.6942e-05	1.9131e-05	366.97	191.33	109.01	61.783	1.7761e-05	116.45	59.569	-37.289	-94.350	-138.682	-29.627	13.591	-139.673	-134.026	-3.362	0.589	-135.488	-132.293	-131.602	-127.229	-10.855	-129.200	-8191	255	
1365.732	1	1	0	0	0.13118	0.14154	0.11261	0.092119	0.10688	0.045882	0.13588	0.3092	0.13034	0.22923	0.079186	0.23741	0.22968	0.07535	0.048596	0.23451	-2.3688	-2.9854	-3.1063	-2.7771	-2.9792	-2.7625	-2.975	-3.2271	-2.7542	-3.1458	-3.1	-2.8771	-2.9313	-2.8812	-2.7167	-3.1937	165.761	147.231	-22.007	169.556	147.664	-23.422	118.993	-21.300	-118.502	64.495	-81.168	175.961	198.736	104.294	76.449	127.342	0.0029585	0.00036199	0.0001061	426.1	1.0359e-05	1.3155e-05	694.66	187.84	7.0255e-06	6.6384e-06	354.25	187.31	102.81	60.181	4.1097e-06	113.47	0.0015527	0.0016962	0.00045894	446.21	1.8365e-05	1.7942e-05	712.56	196.18	1.6835e-05	1.88e-05	368.57	192.12	109.7	62.138	1.7982e-05	116.78	62.364	-63.808	-37.242	-139.311	23.953	-27.280	-139.458	-134.104	-31.915	-31.671	-135.394	-132.196	-131.574	-127.317	61.468	-129.104	-8191	255	
1365.828	1	1	0	0	0.056036	0.11293	0.36406	0.072258	0.1313	0.23875	0.18987	0.15808	0.37127	0.099186	0.093571	0.14134	0.1111	0.26234	0.2191	0.17274	-2.3812	-2.6958	-2.8583	-2.7208	-3.0938	-2.8958	-2.7667	-3.0604	-2.7062	-2.9646	-2.9958	-2.8854	-2.8667	-2.9	-2.975	-3.2208	50.241	60.235	194.193	-94.407	135.565	184.863	-93.216	129.303	203.654	-127.087	99.747	159.402	164.026	182.300	-67.515	125.070	0.0029844	0.00084732	0.00021244	427.65	3.673e-06	1.0962e-05	690.57	189.3	1.0264e-05	9.1525e-06	354.93	187.53	102.39	60.086	5.0035e-06	113.37	0.0016001	0.0016897	0.00046556	447.84	1.8083e-05	1.7865e-05	712.26	196.4	1.6673e-05	1.8126e-05	369.09	191.95	109.61	62.048	1.7472e-05	116.61	60.558	-12.518	-99.030	-138.985	4.522	-2.903	-139.619	-134.131	-17.043	-8.549	-135.519	-132.264	-131.745	-127.167	-9.890	-129.034	-8191	255	
1365.924	1	1	0	0	0.17976	0.19505	0.22957	0.20301	0.11692	0.38375	0.27888	0.062372	0.21386	0.23776	0.034709	0.19229	0.21312	0.049506	0.078349	0.10649	-2.3187	-2.9271	-3.1688	-2.8875	-3.0625	-2.9729	-2.7042	-3.1333	-2.8333	-2.8083	-3.1688	-2.7396	-2.9792	-3.2979	-2.7667	-3.2396	30.784	-140.565	138.297	199.199	-30.276	75.623	84.087	185.730	74.535	-58.921	-147.893	188.184	-3.290	164.433	15.982	114.988	0.002914	0.0011078	0.0001872	423.83	8.0212e-06	4.7945e-06	691.4	189.15	1.2431e-05	6.2465e-06	355.17	187.85	102.3	60.08	5.4313e-06	113.48	0.0016275	0.0016835	0.00047877	447.92	1.8497e-05	1.8315e-05	713.34	196.6	1.6967e-05	1.7691e-05	369.47	192.51	109.12	62.137	1.6621e-05	116.98	61.700	-77.366	-62.332	-138.880	-30.180	5.977	-139.931	-134.082	-16.483	-2.889	-135.662	-132.286	-131.695	-127.294	-14.959	-129.209	-8191	255	
1366.020	1	1	0	0	0.25352	0.25067	0.33388	0.026957	0.19994	0.086526	0.2164	0.19868	0.061142	0.057453	0.13079	0.22466	0.3183	0.088274	0.20276	0.30964	-2.3792	-2.6667	-2.9833	-2.7375	-2.9521	-3.0083	-2.7583	-3.175	-2.7438	-2.7229	-3.1792	-2.85	-2.9667	-3.2125	-2.7708	-3.0187	116.092	-6.692	-94.772	-87.656	-145.989	43.651	126.506	140.379	-72.591	132.138	165.011	-72.459	155.928	148.243	15.235	139.864	0.0031623	0.00084949	0.00026671	425.94	9.7986e-06	4.8107e-06	695.74	188.3	4.6092e-06	8.6639e-06	353.78	186.45	101.53	59.903	6.2283e-06	112.71	0.0015734	0.0015686	0.00046172	447.59	1.7425e-05	1.8085e-05	714.63	196.42	1.7323e-05	1.7336e-05	367.51	191.28	108.44	61.757	1.6514e-05	116.17	59.780	-52.056	-119.936	-138.916	9.791	48.860	-139.895	-134.211	-15.185	-2.074	-135.588	-132.267	-131.832	-127.238	105.119	-129.058	-8191	255	
1366.117	1	1	0	0	0.23545	0.28217	0.060044	0.072131	0.070985	0.12413	0.083198	0.18707	0.22282	0.10752	0.11406	0.24584	0.091787	0.29179	0.10397	0.10426	-2.5	-2.6792	-2.975	-2.7375	-2.9167	-2.9771	-2.8229	-3.0417	-2.9604	-2.9021	-3.2438	-2.8438	-3.0708	-3.0354	-2.9146	-3.2958	-70.796	202.365	-131.168	171.396	22.945	-147.382	90.131	157.394	3.920	-117.063	134.932	157.526	55.407	166.356	42.939	153.590	0.0029582	0.00083652	0.00014154	423.33	7.0594e-06	2.0375e-06	693.65	187.4	9.5902e-06	4.094e-06	352.63	185.89	101.15	59.496	7.7701e-06	112.43	0.0015842	0.0015227	0.00045392	445.66	1.7002e-05	1.7998e-05	710.59	195.25	1.7155e-05	1.699e-05	366.15	190.4	108.08	61.577	1.687e-05	115.66	64.736	-13.890	-60.915	-139.021	-24.786	-84.768	-139.845	-134.295	-29.518	-31.081	-135.603	-132.318	-131.052	-127.023	-25.398	-129.175	-8191	255	
1366.211	1	1	0	0	0.34625	0.11119	0.32834	0.23322	0.18806	0.056695	0.04287	0.14233	0.14342	0.16354	0.05905	0.10238	0.29563	0.21525	0.38358	0.22768	-2.4188	-2.6583	-2.8104	-2.875	-2.8354	-2.9333	-2.8187	-2.9437	-2.8833	-2.7479	-3.0667	-2.9437	-2.7875	-3.1271	-2.6854	-3.2146	138.960	173.483	-38.273	175.028	32.727	170.102	32.355	72.191	77.574	111.333	-54.774	188.372	-5.464	146.298	136.107	187.729	0.003067	0.00028531	0.00034449	424.62	9.7314e-06	4.5196e-06	693.32	187.91	7.3064e-06	9.0625e-06	353.7	186.53	101.5	59.745	1.0782e-05	112.69	0.0016546	0.0015549	0.00047611	447.34	1.7116e-05	1.8466e-05	711.96	196.15	1.7612e-05	1.7381e-05	367.62	191.34	108.39	61.936	1.7892e-05	116.3	62.752	-42.919	-99.306	-138.311	-38.605	-27.793	-139.588	-134.039	-15.326	-52.902	-135.451	-132.163	-131.490	-126.988	-8.797	-129.122	-8191	255	
1366.332	1	1	0	0	0.37749	0.20422	0.26858	0.271	0.14838	0.14513	0.076069	0.15344	0.06995	0.30401	0.19889	0.25231	0.061385	0.28568	0.097777	0.35283	-2.5104	-2.6667	-3.0271	-2.675	-2.7313	-2.9271	-2.7271	-2.9167	-2.9854	-2.7625	-2.9958	-2.8396	-2.7417	-3.0229	-2.9	-2.9708	-112.333	138.949	121.098	130.358	127.915	13.389	90.145	191.738	206.454	-115.864	202.470	-137.590	-82.262	187.207	-47.836	114.796	0.0029828	0.0013118	0.00026648	425.55	1.0828e-05	6.2203e-06	693.25	188.22	2.9604e-06	5.6188e-06	353.99	187.31	101.83	59.792	1.0183e-05	112.89	0.0017308	0.001624	0.00050465	448.64	1.8e-05	1.9825e-05	713.61	196.31	1.8555e-05	1.7461e-05	368.54	191.77	108.26	61.741	1.7607e-05	116.11	58.355	-66.520	-27.716	-139.105	22.003	-51.963	-139.879	-134.027	-84.409	-7.735	-135.730	-132.357	-131.514	-127.154	-13.436	-129.079	-8191	255	
1366.428	1	1	0	0	0.23139	0.079636	0.037258	0.14223	0.24064	0.067567	0.11288	0.22408	0.17961	0.11554	0.19223	0.31007	0.24042	0.2416	0.26165	0.12172	-2.5687	-2.6896	-2.8583	-2.7687	-2.8854	-2.9271	-2.8604	-3.0292	-3.0375	-2.7938	-3.1646	-3.15	-2.6229	-3.1688	-2.5792	-3.0792	18.877	-100.297	-9.825	-144.380	111.747	203.749	-125.676	-66.470	-125.350	149.208	-94.635	204.690	43.413	-130.070	-17.932	-134.590	0.0030443	0.00022915	3.0441e-05	425.34	1.3485e-05	5.9849e-06	691.36	188.33	1.5522e-05	1.3396e-06	353.24	186.41	101.53	59.602	9.353e-06	113.08	0.0017115	0.0015704	0.00048715	447.75	1.7079e-05	1.9181e-05	713.64	195.75	1.8333e-05	1.7503e-05	367.05	191.53	108.21	61.761	1.7611e-05	116.14	59.290	26.267	141.138	-138.768	-63.203	47.113	-139.791	-134.157	-53.404	48.740	-135.515	-132.290	-131.475	-126.998	-5.180	-129.165	-8191	255	
1366.524	1	1	0	0	0.18594	0.13459	0.13364	0.1067	0.13056	0.19904	0.18921	0.40356	0.29	0.033911	0.088891	0.19699	0.24063	0.058961	0.079205	0.23337	-2.5979	-2.6188	-2.8104	-2.9167	-2.7583	-2.95	-2.7875	-2.8792	-2.9437	-2.8208	-2.9604	-3.2375	-2.7083	-2.975	-3	-2.8729	-132.166	-106.543	197.723	-28.509	151.656	106.128	-130.696	200.047	-133.187	-11.245	158.783	158.526	171.408	160.785	139.989	161.689	0.0029316	0.00073545	0.00020559	422.84	4.3578e-06	8.4945e-06	693.52	187.08	1.157e-05	6.284e-06	351.7	186.41	100.51	59.716	9.2127e-06	113	0.0016793	0.0015875	0.00048358	448.77	1.7027e-05	1.925e-05	713.09	194.96	1.8587e-05	1.8004e-05	365.66	191.11	107.82	61.737	1.8624e-05	116.25	62.943	-50.221	-28.221	-138.664	-5.978	2.127	-139.629	-134.169	-32.473	-28.865	-135.268	-132.289	-130.940	-127.206	-29.850	-129.246	-8191	255	
1366.596	1	1	0	0	0.083217	0.096724	0.13294	0.24409	0.19713	0.043844	0.25011	0.085844	0.16546	0.10333	0.03042	0.40683	0.24317	0.27254	0.043765	0.19517	-2.5563	-2.6875	-2.6937	-3.1229	-2.6833	-3.0229	-2.9771	-2.7583	-2.8417	-3.0187	-2.8187	-3.1813	-2.7812	-3.175	-2.7521	-3.0083	-73.828	107.633	96.738	194.723	128.767	122.417	-151.705	115.904	-148.977	-32.721	-66.994	159.809	-140.145	190.432	95.924	194.705	0.0030591	0.00051888	0.00012782	419.91	7.6393e-06	2.1351e-06	693.35	187.95	1.955e-05	3.5687e-06	358.14	189.13	102.22	60.09	8.4264e-06	113.83	0.0017466	0.0016329	0.00047827	446.37	1.6717e-05	1.8793e-05	715.93	195.36	1.8107e-05	1.7514e-05	369.38	193.46	108.81	62.152	1.7753e-05	117.1	62.224	-56.626	-49.344	-138.871	7.255	39.229	-139.663	-134.073	-16.172	30.724	-135.402	-132.265	-131.330	-127.122	-81.407	-128.903	-8191	255	
1366.692	1	1	0	0	0.14088	0.26278	0.18533	0.19212	0.043131	0.10172	0.23298	0.06369	0.19865	0.074343	0.17896	0.14266	0.25614	0.10228	0.1166	0.31144	-2.5938	-2.7208	-2.9313	-2.9854	-2.6292	-2.9604	-2.9646	-2.6167	-2.9729	-2.8271	-2.7687	-3.2583	-2.7583	-3.1562	-2.9625	-3.0062	83.632	20.203	99.007	68.670	62.758	183.465	131.539	-9.272	165.022	157.612	125.536	-110.590	187.472	109.640	90.644	183.910	0.0031093	0.00089149	0.0001202	427.82	9.3567e-06	1.1502e-05	700.94	189.83	1.1729e-05	9.0676e-06	360	190.18	103.33	60.198	6.902e-06	114.51	0.0016946	0.0016012	0.00044833	450.59	1.651e-05	1.8825e-05	720.3	196.83	1.8218e-05	1.7608e-05	371.46	194.41	109.15	62.228	1.7663e-05	117.37	60.356	-83.604	-88.476	-138.589	-70.407	18.835	-139.821	-133.947	-49.485	1.745	-135.395	-132.207	-131.444	-127.144	63.966	-129.173	-8191	255	
1366.812	1	1	0	0	0.18988	0.072606	0.045588	0.088753	0.21805	0.13479	0.17326	0.24279	0.16922	0.010312	0.33319	0.098797	0.053408	0.078339	0.02673	0.1723	-2.4708	-3	-2.6375	-3.1917	-2.7125	-3.0042	-3.0187	-2.7354	-2.8979	-2.8125	-2.875	-3.3125	-2.6542	-3.0812	-3.0333	-2.9458	87.123	117.701	115.667	36.600	-78.471	194.036	86.862	104.566	119.142	-51.988	133.288	80.011	200.173	195.244	97.034	93.823	0.003012	0.00050784	0.00027136	429.26	7.0484e-06	5.597e-06	701.75	190.23	1.3228e-05	8.885e-06	361.1	189.91	102.79	60.735	6.39e-06	114.65	0.0016614	0.001574	0.00043582	451.83	1.6694e-05	1.8341e-05	721.65	197.43	1.824e-05	1.7772e-05	372.46	194.74	109.27	62.493	1.7394e-05	117.59	63.707	-79.151	-50.751	-138.898	-31.173	-67.580	-139.508	-134.229	-27.369	12.365	-135.731	-132.355	-131.283	-127.001	-63.403	-129.124	-8191	255	
1366.908	1	1	0	0	0.091706	0.21057	0.20531	0.36934	0.081449	0.16042	0.29785	0.18044	0.034908	0.041523	0.12787	0.19045	0.30587	0.30365	0.12402	0.28385	-2.5083	-2.8958	-2.7542	-2.8896	-2.7792	-2.6167	-3.2	-2.6625	-3.1042	-2.8771	-2.8708	-3.1646	-2.8375	-2.9688	-3.0229	-3.0771	157.194	62.113	98.303	-108.470	58.297	187.944	-139.883	6.860	104.295	191.035	-74.722	103.007	-91.826	192.711	9.707	143.830	0.0029798	0.00078529	0.00023604	428	1.0946e-05	1.049e-05	702.47	189.34	8.5281e-06	5.9463e-06	357.94	189.18	103.25	60.178	1.0238e-05	113.86	0.0015996	0.0015168	0.00040131	449.85	1.566e-05	1.6544e-05	719.02	196.03	1.7095e-05	1.695e-05	369.34	193.55	108.95	62.194	1.7384e-05	117.13	63.121	-77.711	-38.457	-138.830	-43.640	-21.066	-139.457	-134.201	-13.794	-45.648	-135.629	-132.212	-131.494	-127.117	-9.300	-129.190	-8191	255	
1367.005	1	1	0	0	0.24969	0.055433	0.35365	0.16773	0.33744	0.093136	0.082147	0.095844	0.05084	0.098445	0.14912	0.055739	0.20238	0.36049	0.11672	0.19606	-2.3438	-2.9917	-2.8021	-3.0167	-2.8688	-2.7729	-3.2292	-2.6958	-2.8625	-2.9917	-2.7333	-3.1021	-2.7833	-3.0396	-3.0687	-2.9188	-70.117	-109.861	48.755	192.463	74.844	-29.212	-52.650	46.818	160.703	103.898	195.150	153.966	204.257	149.158	-16.469	164.150	0.003214	0.00049076	0.00010745	425.61	9.0402e-06	1.5208e-05	695.45	188.84	2.0118e-05	8.286e-06	354.04	187.44	102.31	60.136	3.2834e-06	114	0.0016402	0.0016064	0.00041719	448.81	1.67e-05	1.7011e-05	716.05	195.41	1.7297e-05	1.737e-05	367.26	192.08	108.41	61.898	1.8327e-05	116.98	62.677	-43.658	-50.567	-138.919	4.335	-44.760	-139.421	-134.091	3.251	-4.457	-135.606	-132.440	-131.407	-127.215	-15.846	-129.313	-8191	255	
1367.125	1	1	0	0	0.29271	0.30886	0.16776	0.085961	0.24871	0.13073	0.099232	0.33072	0.18841	0.16684	0.081329	0.14632	0.16629	0.17312	0.090317	0.13346	-2.5854	-2.9875	-2.5563	-3.0875	-2.8167	-2.9458	-2.9896	-2.925	-2.7562	-3.0125	-2.5771	-3.1604	-3.025	-2.925	-3.0229	-2.8229	-63.096	-55.714	-66.225	34.027	123.503	60.798	121.925	97.640	129.534	-18.885	-121.025	-136.490	25.817	-101.783	30.020	-71.024	0.0030714	0.00074229	0.00022017	423.97	6.135e-06	3.2067e-06	696.25	188.42	1.5549e-05	3.7384e-06	357.77	189.37	102.76	60.106	4.4456e-06	114.26	0.0016433	0.0016531	0.00043577	448.78	1.7645e-05	1.7564e-05	717.7	196.46	1.8004e-05	1.8744e-05	370	194.27	109.5	62.169	1.9192e-05	117.65	60.353	-88.515	-101.004	-138.969	-23.114	86.765	-139.949	-134.165	-23.884	7.008	-135.518	-132.381	-131.347	-127.110	69.074	-129.185	-8191	255	
1367.220	1	1	0	0	0.24926	0.047951	0.10111	0.055123	0.15759	0.075628	0.11225	0.020432	0.11174	0.18222	0.20522	0.066558	0.11	0.18729	0.045817	0.23327	-2.4333	-3.0438	-2.7292	-2.95	-2.8937	-2.6979	-3.2438	-2.6333	-2.8917	-3.0333	-2.7417	-3.1042	-3.0042	-2.8792	-2.9292	-3.0625	-58.861	-55.661	104.831	82.419	27.157	119.375	207.123	140.068	-113.065	163.691	-111.386	206.207	-122.688	-130.154	137.745	130.436	0.0031111	0.00040796	0.00021252	426.3	1.023e-05	5.4472e-06	699.63	189.36	1.5499e-05	1.1758e-05	358.02	190.01	102.34	60.358	1.0134e-05	114.85	0.0017077	0.0017561	0.00046358	451.42	1.8737e-05	1.8197e-05	720.64	196.9	1.8382e-05	1.9517e-05	371.05	194.81	109.85	62.325	1.9798e-05	118.03	62.508	-74.779	-93.361	-139.013	-10.346	-71.449	-139.558	-134.103	-10.813	37.485	-135.524	-132.277	-131.546	-127.128	-29.022	-129.215	-8191	255	
1367.293	1	1	0	0	0.060185	0.13711	0.047761	0.17168	0.1854	0.33649	0.15798	0.20061	0.21364	0.035539	0.17821	0.14331	0.30324	0.1196	0.23737	0.27059	-2.3063	-3.0312	-2.6583	-2.9875	-2.7479	-2.8125	-3.0958	-3.0083	-2.7958	-3.1667	-2.8479	-3.0729	-2.8479	-2.9458	-3.1813	-3.0062	88.037	151.838	142.773	156.276	175.263	-68.956	0.689	148.276	-51.655	11.563	117.908	129.162	161.094	108.892	155.954	185.154	0.003308	0.00042436	0.00027487	430.79	1.0566e-05	6.9986e-06	696.86	189.7	9.2537e-06	1.4185e-05	356.75	189.83	102.8	60.408	9.5288e-06	114.29	0.0016531	0.0017414	0.00045463	451.6	1.8152e-05	1.7596e-05	718.97	197.27	1.7517e-05	1.912e-05	370.47	194.13	109.66	62.272	1.8812e-05	117.54	63.311	-44.029	-28.998	-138.908	-38.521	18.015	-139.559	-134.118	-37.401	-32.953	-135.630	-132.285	-131.592	-127.115	-14.890	-129.175	-8191	255	
1367.412	1	1	0	0	0.068729	0.19149	0.18158	0.1542	0.37977	0.074425	0.086618	0.064161	0.050106	0.284	0.17974	0.11512	0.091734	0.17279	0.12227	0.21882	-2.2708	-2.9688	-2.6146	-2.95	-2.85	-2.6813	-3.0604	-3.1104	-2.6208	-3.0167	-2.725	-3.0438	-2.9896	-2.7938	-2.8604	-3.2958	56.757	-115.717	-40.595	-135.450	201.199	-76.031	187.839	190.979	184.389	64.797	131.982	-61.867	101.523	85.215	-150.978	50.224	0.003269	0.00039452	0.00013832	424.81	9.4385e-06	2.7566e-06	697.81	189	1.1335e-05	9.493e-06	355.21	189.07	102.16	60.052	1.56e-05	114.18	0.0015711	0.0016872	0.0004393	447.7	1.7508e-05	1.6821e-05	717.1	196.17	1.6301e-05	1.8642e-05	368.6	193.1	108.82	61.927	1.8475e-05	117.36	62.927	-46.706	-81.216	-138.574	-45.459	-20.115	-139.690	-133.923	-28.740	-20.881	-135.705	-132.319	-131.323	-127.178	0.205	-129.099	-8191	255	
1367.508	1	1	0	0	0.15408	0.14543	0.24059	0.1368	0.035313	0.10404	0.18149	0.20903	0.30648	0.12366	0.027705	0.2068	0.46062	0.27954	0.097413	0.15306	-2.25	-2.9667	-2.9313	-2.7167	-3.0458	-2.5167	-3.1896	-2.9917	-2.6833	-2.9167	-3.0021	-3.0792	-2.9167	-2.8563	-2.6958	-3.2104	63.519	152.844	-66.241	182.921	123.904	44.218	201.944	162.166	-29.363	37.633	-79.118	-98.400	-77.293	-140.415	-18.753	70.245	0.0031434	0.00053378	0.00024894	423.35	3.4626e-06	7.2782e-06	691.71	188.02	7.8415e-06	4.9202e-06	353.45	187.81	101.3	59.842	8.4612e-06	113.45	0.0015569	0.0017316	0.00045164	446.48	1.8411e-05	1.7554e-05	715.52	195.6	1.7054e-05	1.951e-05	367.24	191.8	108.53	61.733	1.9106e-05	116.99	59.052	-78.589	-24.546	-139.039	0.006	-4.593	-139.508	-134.225	-82.496	-14.176	-135.472	-132.447	-131.622	-127.076	2.481	-129.075	-8191	255	
1367.604	1	1	0	0	0.1803	0.14324	0.25244	0.26252	0.21974	0.12915	0.20114	0.073096	0.29541	0.047794	0.19879	0.15553	0.059204	0.25737	0.31298	0.17089	-2.0021	-3.0187	-2.7812	-2.7812	-3.0583	-2.7938	-2.8563	-3	-2.725	-2.9062	-2.9479	-2.7375	-3.1354	-2.7729	-2.7083	-3.2	-5.155	203.864	104.208	176.105	180.987	-0.772	114.866	-75.231	95.062	-98.251	-123.942	-118.822	-144.255	-149.377	185.779	78.425	0.003147	0.0012913	0.00017409	420.85	9.7784e-06	6.6838e-06	695.12	187.51	1.5629e-05	6.5114e-06	352.59	187.71	101.5	60.21	2.9182e-06	113.89	0.0016065	0.0017722	0.0004741	445.26	1.8936e-05	1.8219e-05	717.5	195.37	1.745e-05	1.9796e-05	367.57	192.41	109.09	62.057	1.9148e-05	117.49	59.939	-42.538	-2.794	-138.864	13.755	-4.568	-139.801	-134.180	26.052	8.479	-135.605	-132.291	-131.384	-127.178	-56.264	-129.172	-8191	255	
1367.725	1	1	0	0	0.0921	0.030015	0.067019	0.29101	0.20657	0.21648	0.06128	0.36994	0.093843	0.153	0.31151	0.27785	0.045876	0.21676	0.11188	0.26099	-2.2854	-2.9667	-2.8958	-2.725	-3.0292	-2.7062	-2.7979	-3.0167	-2.8146	-2.7938	-2.8792	-2.8771	-2.8125	-2.8979	-2.5521	-3.3	39.607	205.039	2.354	135.916	206.505	-25.506	52.404	177.921	94.335	205.607	25.650	192.095	-50.845	-135.318	32.165	155.103	0.0032345	0.00022511	4.061e-05	419.98	1.211e-05	1.1286e-05	692	186.6	9.6786e-06	6.4592e-06	350.8	186.86	100.27	59.429	6.3422e-06	113.05	0.0016872	0.0018364	0.00049575	445.15	1.9933e-05	1.9246e-05	714.3	195.04	1.82e-05	2.0395e-05	365.6	191.37	108.79	61.644	1.9488e-05	116.61	58.573	-102.042	45.523	-138.974	5.184	-54.151	-139.561	-134.077	-7.136	-23.996	-135.714	-132.568	-131.205	-127.088	59.246	-129.080	-8191	255	
1367.821	1	1	0	0	0.17938	0.12192	0.20933	0.10195	0.094826	0.022925	0.069231	0.089786	0.15759	0.17154	0.33131	0.14378	0.17811	0.16874	0.12358	0.32363	-2.2062	-2.9604	-2.8854	-2.5833	-2.9104	-2.9104	-2.9458	-3.0375	-2.6958	-2.9875	-3.0875	-2.7396	-2.725	-2.9229	-2.5667	-3.1542	120.593	205.584	11.180	187.381	119.197	39.870	80.718	147.633	72.049	19.645	177.310	28.264	123.037	146.593	-88.085	157.246	0.0033374	0.001004	0.00022077	418.21	1.0511e-05	6.3947e-06	688.21	184.1	5.0759e-06	1.0328e-05	347.42	184.36	100.38	59.443	8.3008e-06	112.53	0.0017417	0.0018698	0.00050929	442.41	2.0413e-05	1.9861e-05	710.13	193.54	1.9015e-05	2.0883e-05	363.19	190.18	108.49	61.449	1.9638e-05	116.22	62.319	-43.318	-55.115	-138.620	23.163	-6.627	-139.703	-134.137	-70.749	-12.136	-135.342	-132.113	-131.006	-127.184	26.236	-129.121	-8191	255	
1367.893	1	1	0	0	0.36332	0.10207	0.10801	0.19755	0.11073	0.098111	0.076554	0.24029	0.13119	0.05605	0.26633	0.30946	0.12125	0.078597	0.12408	0.26336	-2.1479	-2.9479	-3.0062	-2.7646	-3.2062	-2.8354	-2.9167	-3.1	-2.9292	-2.8125	-3.0333	-2.8458	-3.0687	-3.0875	-2.6875	-3.2	166.451	-150.186	40.598	207.254	-143.733	87.042	43.231	186.378	166.388	-85.830	175.470	197.603	-7.493	3.060	-65.382	129.322	0.0029834	0.0008287	0.00021828	415.53	1.3477e-05	8.9359e-06	684.45	184.44	1.2654e-05	6.458e-06	348.51	185.89	100.59	59.543	7.3131e-06	113.26	0.001815	0.0018863	0.00053214	440.17	2.0895e-05	2.0249e-05	707.71	192.87	1.9168e-05	2.0098e-05	363.85	190.81	108.64	61.586	1.9796e-05	116.98	62.901	-93.494	-91.620	-138.828	0.660	2.697	-139.566	-133.826	-16.602	-14.920	-135.163	-132.099	-131.190	-127.348	-18.702	-129.095	-8191	255	
1367.989	1	1	0	0	0.10497	0.15343	0.16083	0.1357	0.25598	0.2007	0.082453	0.19361	0.13366	0.095448	0.24177	0.22385	0.14672	0.088201	0.093049	0.35778	-2.3271	-2.5729	-3.1042	-2.6625	-2.9437	-2.9708	-2.775	-3.0604	-2.8625	-2.8271	-3.2083	-2.8063	-3.0146	-3.1854	-2.5854	-3.1604	124.939	23.450	42.452	-138.121	60.749	-9.762	-10.241	128.165	-68.350	-36.159	-116.437	133.211	-76.707	160.196	56.849	151.825	0.003123	0.00085154	0.00026765	417.34	1.0174e-05	6.7982e-06	690.16	184.18	6.675e-06	7.0964e-06	347.86	186.44	100.84	59.399	1.5139e-05	112.87	0.0018903	0.0019288	0.00056477	443.93	2.1487e-05	2.139e-05	710.31	193.92	2.0266e-05	2.0404e-05	364.33	191.51	108.55	61.534	1.9643e-05	116.71	60.334	-68.592	-68.743	-138.805	6.352	63.732	-139.637	-133.981	-22.986	-64.776	-135.164	-132.197	-131.471	-127.135	-13.637	-129.072	-8191	255	
1368.108	1	1	0	0	0.15863	0.073489	0.16349	0.27104	0.080835	0.2049	0.097829	0.094379	0.18729	0.29403	0.044012	0.36013	0.076072	0.23956	0.41607	0.16488	-2.3958	-2.7	-3.1333	-2.9167	-2.6708	-2.9188	-2.7083	-3.3083	-2.8125	-2.925	-3.0438	-2.8646	-2.8729	-3.0729	-2.5938	-3.25	185.039	-68.340	44.202	83.726	43.848	124.487	1.040	40.175	-136.305	-117.320	30.715	180.179	6.263	169.285	200.775	193.874	0.0030828	0.0012524	0.00019951	415.91	8.356e-06	7.6212e-06	682.41	182.63	1.2636e-05	1.0597e-05	348.49	184.95	99.987	58.941	3.2581e-06	112.28	0.0018649	0.0018457	0.00055704	442.88	2.1339e-05	2.1691e-05	706.92	193.01	2.1201e-05	2.0978e-05	364.53	190.24	108.38	61.327	2.004e-05	115.93	63.354	-69.455	-63.730	-138.782	9.952	-22.056	-139.717	-133.840	-67.378	14.409	-135.424	-132.093	-131.633	-127.298	8.184	-129.206	-8191	255	
1368.204	1	1	0	0	0.152	0.069117	0.068123	0.10848	0.056899	0.22403	0.14884	0.15658	0.23794	0.082981	0.16407	0.27656	0.14168	0.20006	0.12891	0.17129	-2.4437	-2.6979	-2.9021	-2.7833	-2.7896	-3.0542	-2.8229	-2.9958	-3.2354	-2.6792	-3.0167	-2.9167	-2.7771	-3.0563	-2.7979	-3.0563	168.818	143.959	96.038	4.260	166.558	49.650	59.822	168.512	179.494	-36.516	-71.065	50.970	-84.171	-114.489	170.120	131.719	0.0029758	0.00069158	0.00014258	417.25	3.6828e-06	8.5037e-06	681.79	183.55	1.6664e-05	1.1187e-05	346.29	183.89	99.877	58.765	9.15e-06	112.12	0.0018839	0.0018197	0.00055908	442.25	2.0295e-05	2.1073e-05	705.01	192.5	1.9983e-05	1.9786e-05	362.63	189.52	107.55	61.093	1.9916e-05	115.77	60.738	-41.758	-44.153	-138.838	-29.939	2.766	-139.916	-134.096	20.708	-17.862	-135.483	-132.269	-131.291	-127.145	-35.549	-129.206	-8191	255	
1368.300	1	1	0	0	0.22403	0.27486	0.12786	0.1325	0.23985	0.14788	0.063273	0.1665	0.18191	0.0093417	0.11614	0.25259	0.15167	0.081449	0.24745	0.3785	-2.475	-2.6667	-3.0208	-2.8104	-2.9583	-2.9667	-2.9313	-2.9167	-3.0604	-2.6396	-3.1771	-3.0354	-2.8312	-3.1021	-2.7562	-3.0333	150.898	-59.697	198.000	136.016	79.787	90.890	-142.360	28.584	-64.890	-137.602	-108.121	193.703	141.279	-89.170	144.972	64.267	0.0032469	0.0011358	0.00029178	417.47	9.5061e-06	5.0063e-06	684.37	184.35	9.4657e-06	6.0829e-06	348.76	185.3	100.24	58.766	1.1701e-05	112.22	0.0018374	0.0017768	0.00054459	442.53	1.8885e-05	2.0377e-05	706.97	192.08	1.8802e-05	1.8111e-05	363.43	190.21	107.01	60.902	1.8658e-05	115.78	59.574	-55.562	-99.787	-138.438	-39.461	4.935	-139.647	-134.089	-74.055	-47.407	-135.338	-132.421	-131.002	-127.258	-37.816	-129.006	-8191	255	
1368.396	1	1	0	0	0.25734	0.3289	0.32312	0.17825	0.1133	0.094855	0.10996	0.24772	0.14057	0.11373	0.40278	0.20611	0.31162	0.1732	0.049162	0.17697	-2.4208	-2.7188	-3	-2.8063	-2.7938	-3.2104	-2.9021	-2.9979	-2.8063	-2.6854	-2.9521	-3.1167	-2.7042	-3.0958	-2.7521	-3.075	127.777	201.551	-18.049	137.820	145.672	190.570	205.103	136.267	133.041	203.140	157.119	134.934	155.918	195.549	89.361	159.409	0.0028785	0.00067803	0.00010771	416.39	7.7568e-06	5.7677e-06	686.33	183.67	1.1628e-05	6e-06	346.51	184.7	99.136	58.635	7.8562e-06	111.5	0.0017732	0.0016943	0.00051785	442.24	1.8292e-05	2.0554e-05	705.57	191.92	1.8891e-05	1.8239e-05	361.81	189.45	106.33	60.64	1.8344e-05	114.8	61.048	-58.019	-41.818	-138.793	-6.801	59.094	-139.609	-134.261	-8.708	-15.035	-135.276	-132.042	-131.148	-127.121	-56.235	-129.120	-8191	255	
1368.517	1	1	0	0	0.2115	0.081222	0.21616	0.18986	0.039877	0.28415	0.15987	0.04817	0.073642	0.17611	0.11227	0.11102	0.17114	0.31656	0.24931	0.33563	-2.6604	-2.5604	-2.8812	-2.8021	-2.6896	-3.0521	-2.9646	-2.6958	-2.9646	-2.7	-2.9771	-3.0771	-2.6979	-3.1167	-2.65	-3.0687	-69.586	2.295	-38.248	186.145	2.082	-104.490	197.329	170.810	-111.057	141.592	68.108	196.717	153.308	137.422	-107.399	144.569	0.0029697	0.00062316	0.00021721	417.44	1.1388e-05	7.7642e-06	681.03	181.43	9.1156e-06	5.2938e-06	345.47	183.51	98.117	58.205	5.8477e-06	111.05	0.0017303	0.0016619	0.00050564	440.01	1.7841e-05	2.0572e-05	702.44	189.88	2.0063e-05	1.9283e-05	359.48	188.32	106.03	60.45	1.9789e-05	114.52	60.575	-88.656	-49.240	-139.011	-37.936	-49.439	-139.619	-133.945	-41.901	-20.384	-135.461	-132.379	-130.962	-127.103	-89.661	-129.196	-8191	255	
1368.588	1	1	0	0	0.18351	0.22779	0.29041	0.15988	0.06318	0.15361	0.30368	0.16614	0.16361	0.060508	0.022309	0.16455	0.047914	0.1012	0.080778	0.2088	-2.5354	-2.6375	-2.9083	-2.925	-2.6125	-3.0563	-3.0167	-2.5792	-3.0125	-2.6646	-2.9542	-3.1229	-2.7583	-3.0875	-2.9125	-2.775	-0.647	-138.840	109.192	-115.006	-42.740	185.816	133.857	139.915	-67.444	191.545	18.370	196.579	-114.148	-97.619	140.640	54.684	0.0030473	0.00042409	0.00037001	412.31	4.2028e-06	1.1925e-05	681.15	181.32	1.2768e-05	1.0883e-05	343.45	181.93	98.483	58.078	1.3498e-05	111.28	0.0018773	0.0017833	0.0005259	439.17	1.8805e-05	2.1183e-05	704.2	189.53	2.0347e-05	1.9641e-05	358.85	187.51	105.96	60.412	2.0667e-05	114.91	61.828	-105.989	-73.019	-138.724	-6.824	-21.345	-139.824	-133.780	-37.081	-38.001	-135.536	-132.043	-131.490	-127.237	-80.179	-129.200	-8191	255	
1368.685	1	1	0	0	0.080224	0.089697	0.21311	0.16855	0.11989	0.056922	0.1096	0.16616	0.11205	0.077769	0.13226	0.28685	0.17385	0.062759	0.11433	0.16891	-2.8417	-2.7938	-2.8271	-2.9854	-2.7542	-2.9688	-2.9667	-2.6979	-2.8812	-2.7104	-2.8896	-3.1542	-2.675	-2.9792	-2.8875	-2.7958	131.634	155.093	-96.740	-111.253	-105.838	-38.069	142.259	129.998	74.949	-125.583	164.402	182.671	-28.093	78.485	-120.813	190.177	0.0029951	0.00082875	0.00023715	413.05	1.3921e-05	5.7913e-06	680.59	181.06	9.5354e-06	1.6161e-05	345.67	183.76	98.839	58.237	5.4339e-06	112.39	0.0019441	0.001855	0.00052751	440.03	1.9006e-05	2.1337e-05	704.32	189.75	2.0594e-05	1.9552e-05	360.03	188.7	106	60.488	1.9325e-05	115.48	59.569	-57.097	-64.748	-139.035	-3.453	47.807	-139.722	-134.121	-22.164	-4.508	-135.324	-132.324	-131.260	-127.114	-13.208	-129.164	-8191	255	
1368.805	1	1	0	0	0.18505	0.083346	0.18092	0.27066	0.14542	0.030731	0.029615	0.24594	0.17018	0.022803	0.13764	0.091627	0.13572	0.2897	0.074577	0.28182	-2.5812	-2.5708	-2.6604	-2.9	-2.9125	-2.95	-2.9896	-2.8208	-2.9313	-2.7896	-2.9604	-3.1292	-2.7729	-2.8042	-3.1104	-2.7979	-31.970	-97.577	35.934	-143.093	-29.315	178.436	146.141	58.377	-64.189	4.471	-137.980	-138.520	-142.299	-105.187	135.072	180.660	0.0029857	0.00079795	0.0001998	414.56	9.4687e-06	1.2129e-05	685.45	183.15	1.0745e-05	8.4432e-06	347.45	185.27	99.058	58.68	4.3728e-06	112.22	0.001865	0.0017493	0.0004908	440.66	1.8634e-05	2.0333e-05	707.45	190.81	2.0561e-05	1.9789e-05	361.75	190.39	106.77	60.819	1.9487e-05	115.97	64.219	-72.798	-58.275	-138.756	-53.733	-10.125	-139.535	-133.943	8.634	-5.887	-135.281	-132.132	-131.224	-126.954	-12.574	-129.159	-8191	255	
1368.901	1	1	0	0	0.03953	0.062115	0.08098	0.11515	0.12041	0.12201	0.28597	0.068351	0.062685	0.080306	0.19848	0.21128	0.41404	0.2204	0.16289	0.29955	-2.575	-2.6208	-2.8375	-3.0083	-2.8271	-2.9208	-3.1646	-2.6063	-3.1479	-2.8333	-2.6312	-3.2188	-2.8396	-2.8854	-3.0438	-2.7729	-68.959	152.677	-127.058	-140.858	87.174	72.440	100.699	-98.201	-25.216	-2.627	204.189	180.042	102.615	86.380	77.438	169.697	0.0029102	0.00044018	0.0002271	417.19	7.15e-06	9.8101e-06	682.3	183.74	1.3574e-05	5.8764e-06	348.27	185.77	99.509	58.884	7.0852e-06	112.32	0.0018208	0.0017219	0.00046921	442.53	1.8149e-05	1.9514e-05	707.67	191.2	1.9811e-05	1.9561e-05	362.19	190.67	106.95	60.931	2.0287e-05	115.82	61.478	-107.639	-57.824	-138.645	6.532	-25.051	-139.729	-133.897	-43.334	-21.514	-135.627	-132.302	-131.351	-127.026	-22.234	-129.141	-8191	255	
1368.998	1	1	0	0	0.14017	0.27225	0.10376	0.33758	0.20898	0.051797	0.28571	0.065085	0.1987	0.17189	0.081467	0.27364	0.094677	0.044246	0.15182	0.33872	-2.6729	-2.7979	-2.7604	-3.0979	-2.8625	-2.8979	-3.0312	-2.7542	-3.0479	-2.975	-2.7854	-3.1771	-2.675	-3.0458	-3.0958	-2.9208	-33.080	-15.371	-70.384	-132.591	161.126	200.717	130.997	67.870	-57.772	61.730	-59.976	185.744	121.267	-131.825	60.477	195.519	0.0030632	0.00023371	0.00020728	419.65	7.7038e-06	1.0786e-05	689.09	185.92	1.576e-05	6.8008e-06	352.97	186.88	100.9	59.285	8.854e-06	113.42	0.0018488	0.0017758	0.00047701	444.85	1.8327e-05	1.891e-05	711.32	193.04	1.9071e-05	1.8777e-05	366.17	192.15	107.66	61.269	1.9295e-05	116.52	61.506	-33.724	-27.783	-138.895	24.217	-32.642	-139.632	-134.164	-10.452	-43.302	-135.474	-132.210	-131.295	-127.040	11.663	-129.202	-8191	255	
1369.094	1	1	0	0	0.13121	0.10744	0.44274	0.21758	0.13594	0.24341	0.26941	0.085689	0.15682	0.25559	0.35466	0.11642	0.082522	0.051359	0.1371	0.093896	-2.5333	-2.7708	-2.775	-3.2771	-2.8271	-2.8146	-3.05	-2.9646	-2.8667	-3.0479	-2.8354	-3.2958	-2.7229	-2.8646	-3.0542	-3.0479	73.992	-54.289	-144.161	207.046	68.174	81.079	126.827	-57.903	120.558	17.954	113.295	103.566	183.069	158.785	82.800	194.343	0.0032426	0.00088494	0.00020163	421.01	1.4229e-05	5.4566e-06	691.8	187.53	1.5119e-05	4.737e-06	358.61	188.78	101.73	60.034	6.0203e-06	114.49	0.0017346	0.0016967	0.00045324	447.76	1.7989e-05	1.8134e-05	717.6	195.48	1.8134e-05	1.8624e-05	370.64	193.85	108.49	61.729	1.8411e-05	117.41	60.891	-24.715	-30.638	-139.007	-9.639	-23.741	-139.699	-134.133	-4.807	25.623	-135.430	-132.148	-131.328	-126.972	-41.560	-129.050	-8191	255	
1369.188	1	1	0	0	0.21882	0.21093	0.084076	0.35811	0.28901	0.22128	0.19891	0.17267	0.1234	0.12361	0.17353	0.28316	0.073507	0.20919	0.027863	0.26704	-2.2646	-2.8875	-2.6875	-2.8542	-3.1146	-2.6729	-3.0417	-2.7271	-2.8979	-3	-2.8312	-2.9729	-2.7979	-2.7417	-3.0938	-2.7646	-18.340	-129.844	-60.600	198.196	41.109	64.032	200.917	81.511	156.963	-104.261	3.323	147.403	24.272	149.806	196.717	160.131	0.0030878	0.00082186	0.00023415	424.44	1.0175e-05	3.4441e-06	699.69	188.79	9.0649e-06	9.6735e-06	358.61	189.37	102.53	59.985	1.3586e-05	114.67	0.0016173	0.0016263	0.00043272	447.57	1.7208e-05	1.7044e-05	719.88	196.13	1.7318e-05	1.8529e-05	372.06	194.8	109.08	61.918	1.8499e-05	117.87	59.574	-54.426	-39.598	-138.587	-22.854	18.031	-140.088	-133.977	-34.318	-30.349	-135.530	-132.238	-131.648	-127.076	-47.142	-129.186	-8191	255	
1369.284	1	1	0	0	0.17151	0.26675	0.08107	0.22145	0.079135	0.25731	0.20884	0.20896	0.062586	0.1003	0.39889	0.13721	0.10202	0.18596	0.15348	0.13431	-2.3042	-3.0917	-2.525	-2.9521	-2.9333	-2.725	-3.1458	-2.875	-2.7229	-3.0229	-2.9646	-3.0667	-2.9521	-2.8688	-2.9708	-2.9167	-1.259	-121.171	174.952	-59.963	-117.857	33.035	146.573	162.087	-5.719	-79.592	182.520	120.725	79.446	182.472	-48.033	168.943	0.0031082	0.00025363	0.00024858	424.96	1.3161e-05	8.0797e-06	701.81	189	1.3862e-05	8.5998e-06	359.8	189.18	101.96	60.09	1.0303e-05	114.12	0.0015594	0.0016085	0.00041716	447.3	1.6579e-05	1.6317e-05	719.16	196.61	1.6635e-05	1.8384e-05	372.06	193.98	108.88	61.973	1.8591e-05	117.34	63.600	-92.114	-22.498	-139.156	-3.395	38.034	-139.633	-134.100	-10.854	-11.972	-135.608	-132.257	-131.688	-127.152	-10.919	-129.079	-8191	255	
1369.405	1	1	0	0	0.18339	0.23927	0.24133	0.18039	0.18544	0.18893	0.17279	0.11552	0.14224	0.069197	0.38807	0.093546	0.080685	0.16783	0.11636	0.31924	-2.2583	-3.0438	-2.7	-2.85	-3.0271	-2.6271	-3.2458	-2.8667	-2.7833	-3.1063	-2.9854	-3.0312	-3.0292	-2.7833	-2.8375	-2.9729	54.023	77.914	-75.352	205.717	24.065	-120.898	-143.880	51.167	-5.159	100.005	158.426	108.788	202.627	206.850	155.878	-122.040	0.0029649	0.00047077	0.00015111	423.6	1.2958e-05	4.6426e-06	698.6	190.23	1.1e-05	6.8158e-06	359.22	188.84	102.07	59.857	9.2439e-06	114.31	0.0015614	0.0016733	0.00043409	446.27	1.7272e-05	1.6627e-05	716.91	196.79	1.6193e-05	1.8138e-05	371.45	193.37	108.45	61.751	1.7481e-05	117.42	60.531	-34.392	-81.909	-138.934	-0.323	24.332	-139.671	-134.414	-14.841	-27.917	-135.438	-132.246	-131.347	-127.060	-25.663	-129.031	-8191	255	
1369.501	1	1	0	0	0.25777	0.2158	0.15751	0.14454	0.14321	0.18694	0.055904	0.086871	0.221	0.31829	0.057007	0.21195	0.22228	0.31477	0.11122	0.11878	-2.3021	-3.0083	-2.8438	-2.8667	-3.0875	-2.8125	-3.1083	-2.9521	-2.6896	-3.0812	-2.8104	-2.975	-3.125	-2.6771	-2.9229	-3.0729	5.885	138.752	-73.326	202.514	36.751	-18.536	201.121	179.936	33.095	191.567	109.956	-133.067	86.386	121.397	-66.644	136.355	0.0030442	0.00035098	0.00020636	423.19	9.0298e-06	7.3731e-06	695.27	188.92	1.1995e-05	6.969e-06	359.22	189.09	101.76	60.064	8.6093e-06	114.54	0.0014917	0.0016357	0.00042069	445.03	1.7195e-05	1.6626e-05	715.82	196.15	1.643e-05	1.8673e-05	371.49	193.4	108.76	61.979	1.8284e-05	117.77	59.475	-61.799	-74.937	-139.002	-26.869	-21.224	-139.782	-134.305	16.469	37.005	-135.526	-132.199	-131.352	-126.978	-19.851	-129.181	-8191	255	
1369.597	1	1	0	0	0.11169	0.16748	0.044916	0.14454	0.12472	0.2265	0.20354	0.058035	0.24844	0.12346	0.19653	0.081098	0.44898	0.37999	0.16423	0.11148	-2.3146	-2.9729	-2.8167	-2.7708	-3.0729	-2.6104	-3.1854	-2.8667	-2.6562	-2.9813	-2.7958	-2.8438	-2.9667	-2.7438	-2.7479	-3.2188	103.272	-18.006	-33.475	197.570	84.420	-11.226	-144.517	-133.913	10.825	178.682	125.701	70.269	-125.247	175.878	9.269	-47.774	0.0032336	0.00080973	0.00019162	425.2	8.6268e-06	2.444e-06	694.69	188.96	1.1101e-05	7.6026e-06	361.21	190.25	102.4	60.208	1.3081e-05	114.89	0.0015497	0.0016727	0.00043312	445.1	1.7662e-05	1.6838e-05	716.67	196.74	1.657e-05	1.8584e-05	373.45	194.43	109.14	62.127	1.7752e-05	118.28	61.779	-36.417	-63.138	-139.028	-42.554	54.385	-139.655	-134.198	-67.728	-27.287	-135.479	-132.239	-131.336	-126.927	-11.751	-129.224	-8191	255	
1369.693	1	1	0	0	0.10048	0.1561	0.16246	0.18084	0.21046	0.22591	0.30203	0.092048	0.10798	0.19382	0.22547	0.13607	0.18899	0.28427	0.21789	0.33374	-2.1292	-2.9188	-2.6917	-2.8354	-2.9083	-2.9583	-2.7625	-3.075	-2.6458	-2.9333	-2.85	-2.6833	-3.0458	-2.7125	-2.7833	-3.1813	-44.538	2.114	100.873	113.583	-100.942	-98.914	144.696	102.248	-122.815	65.795	-146.499	-139.122	113.035	-141.749	144.964	144.854	0.0030064	8.1132e-05	0.00021364	422.53	3.0003e-06	1.3472e-05	695.95	189.6	1.4814e-05	1.2347e-05	360.14	189.92	102.27	60.13	6.028e-06	114.56	0.0015805	0.0017287	0.00045151	445.4	1.84e-05	1.7581e-05	716.91	197.52	1.6481e-05	1.8374e-05	372.97	194.25	109.23	62.018	1.72e-05	117.8	64.256	191.534	-34.726	-138.925	-49.054	14.108	-140.031	-134.065	13.873	-1.437	-135.569	-132.171	-131.385	-127.235	32.305	-129.032	-8191	255	
1369.789	1	1	0	0	0.12316	0.2655	0.068369	0.039246	0.19541	0.1383	0.14891	0.10224	0.099082	0.25452	0.22502	0.20955	0.028006	0.26135	0.33452	0.066891	-2.2188	-2.9437	-3.0125	-2.7562	-2.9229	-2.7208	-2.7958	-3.0958	-2.5354	-3.025	-2.7708	-2.8104	-2.8937	-2.9271	-2.6688	-3.2146	93.999	164.457	-4.062	66.617	139.630	155.855	98.575	85.800	92.850	-14.852	93.275	167.860	-92.712	-143.451	-64.231	148.176	0.0029743	0.0007874	0.00018647	422.97	1.4252e-05	6.662e-06	696.5	191.43	1.6943e-06	5.0836e-06	358.78	189.67	103.01	59.958	5.4055e-06	114.21	0.0015663	0.0016836	0.00045719	445.01	1.8611e-05	1.8009e-05	716.76	198.32	1.7167e-05	1.8613e-05	374.02	194.08	109.56	61.944	1.7456e-05	117.6	60.275	-57.578	-21.462	-139.085	21.408	10.404	-139.600	-134.349	-30.132	5.869	-135.699	-132.246	-131.844	-127.208	-47.500	-129.233	-8191	255	
1369.886	1	1	0	0	0.30253	0.015842	0.044877	0.25914	0.017528	0.10794	0.12074	0.27809	0.17199	0.30048	0.17372	0.29278	0.16637	0.27114	0.10511	0.41797	-2.375	-2.9333	-2.8625	-2.6479	-3.0604	-2.7917	-2.9979	-2.9875	-2.7646	-2.8708	-3.1937	-2.7208	-3.0083	-2.9125	-2.5375	-3.1396	4.656	59.233	153.030	186.754	-21.294	-79.873	194.124	45.492	57.114	142.269	173.872	185.257	-15.914	187.229	-49.654	130.635	0.0030827	0.00079923	0.00017508	422.94	3.3544e-06	5.1701e-06	696.84	190.69	7.931e-06	7.3402e-06	361.37	189.1	101.95	60.283	9.3909e-06	114.69	0.0015831	0.0016657	0.00046176	446.84	1.8866e-05	1.8107e-05	718.49	199.47	1.8061e-05	1.9143e-05	375.69	194.36	109.94	62.281	1.8915e-05	118.21	60.228	-56.986	-22.306	-138.761	63.983	18.424	-139.800	-134.118	-61.381	-16.922	-135.777	-132.317	-131.582	-127.232	-22.599	-129.214	-8191	255	
1369.982	1	1	0	0	0.13509	0.22941	0.19671	0.35105	0.19092	0.46454	0.16919	0.11464	0.1228	0.12774	0.073105	0.079234	0.14994	0.20089	0.19155	0.31312	-2.3583	-2.7604	-3.0312	-2.6375	-2.9167	-2.7	-2.8292	-2.9479	-2.7562	-2.7313	-2.875	-2.9313	-3.0812	-2.7583	-2.6667	-2.9958	-89.781	129.005	119.587	77.800	-30.408	173.458	17.739	78.560	58.142	-42.550	97.117	137.701	110.402	-148.980	5.915	160.697	0.0030052	0.00031878	8.3909e-05	425.15	7.9387e-06	4.3178e-06	697.08	190.6	1.5046e-05	5.5299e-06	362.72	190.3	103.32	60.209	8.4329e-06	114.52	0.0017364	0.0017542	0.00049571	448.57	1.9097e-05	1.8563e-05	720.04	199.91	1.7613e-05	1.8288e-05	378.15	195.1	110.36	62.175	1.7575e-05	117.94	60.560	-78.380	-64.565	-138.979	0.118	46.337	-139.323	-134.165	-39.274	29.805	-135.826	-132.412	-131.356	-127.012	15.306	-128.997	-8191	255	
1370.078	1	1	0	0	0.21875	0.1096	0.20845	0.30695	0.092229	0.056966	0.21111	0.1962	0.11117	0.061418	0.17461	0.08784	0.046312	0.30369	0.09123	0.20912	-2.3417	-2.7313	-3.2354	-2.6792	-2.8542	-3.1146	-2.7104	-3.2167	-2.6708	-2.6854	-3.1708	-2.8646	-2.7896	-3.0312	-2.5521	-3	-51.154	-141.411	88.374	94.717	-5.972	139.477	70.362	66.298	-75.055	-100.290	140.347	148.175	-61.806	-147.302	-27.910	159.178	0.0031971	0.0010742	0.00019839	428.95	9.9185e-06	1.1479e-05	701.24	193.74	9.1383e-06	3.8576e-06	367.89	190.86	103.22	60.148	8.1449e-06	114.04	0.0016334	0.0016445	0.00048472	449.55	1.7982e-05	1.8466e-05	720.6	201.55	1.7188e-05	1.7376e-05	380.53	195	109.77	62.063	1.6567e-05	117.34	59.721	-33.088	-44.079	-138.858	-68.579	31.535	-139.707	-134.219	-9.333	-56.551	-135.774	-132.278	-131.554	-126.928	-27.600	-129.051	-8191	255	
1370.174	1	1	0	0	0.2104	0.26767	0.15719	0.081348	0.42014	0.17278	0.083673	0.2614	0.06672	0.28693	0.091365	0.1254	0.084451	0.35077	0.090384	0.1703	-2.4729	-2.6771	-3.1104	-2.7167	-2.9271	-2.8292	-2.9292	-3.0583	-2.8729	-2.7958	-3.2583	-2.7292	-3.0708	-3.0042	-2.7854	-3.0938	203.687	109.838	-110.330	66.593	13.706	-50.705	-134.819	-69.959	62.691	25.866	161.291	166.726	-14.057	160.686	29.995	132.817	0.0029875	0.00050322	0.00012356	427.46	4.4738e-06	9.4987e-06	701.83	192.85	7.3843e-06	1.0334e-05	365.81	190.25	103.69	60.424	7.366e-06	114.48	0.0015656	0.0015388	0.00046473	448.92	1.719e-05	1.8178e-05	719.41	201.11	1.7097e-05	1.7359e-05	380.14	195.14	110.23	62.336	1.7368e-05	117.85	60.996	-79.451	-50.399	-139.050	-5.421	29.688	-139.732	-134.270	-91.960	-18.289	-135.570	-132.221	-131.703	-127.028	-11.159	-129.105	-8191	255	
1370.293	1	1	0	0	0.42839	0.0078819	0.12614	0.26118	0.13771	0.093624	0.18766	0.074883	0.12286	0.14195	0.13819	0.28039	0.23703	0.27018	0.18593	0.030361	-2.4854	-2.7458	-3.0292	-2.9542	-2.9104	-2.8604	-2.9437	-2.9208	-2.9354	-2.825	-2.9979	-2.9792	-2.725	-3.1708	-2.6771	-3.1104	86.337	69.191	-138.398	144.682	173.252	-124.390	166.500	-120.822	147.550	104.291	-137.194	142.295	182.923	197.767	66.433	199.477	0.0030081	0.00054656	0.00022723	426.78	8.3238e-06	6.3812e-06	699.04	192.68	1.0672e-05	6.9585e-06	364.07	190.62	103.53	60.425	4.5203e-06	115.04	0.0016394	0.0015787	0.00048339	449.28	1.713e-05	1.8369e-05	719.46	200.21	1.732e-05	1.7033e-05	378.8	195.58	109.98	62.543	1.765e-05	118.52	63.237	-54.567	-32.409	-138.533	-34.678	-17.205	-139.639	-134.458	-15.099	19.179	-135.587	-132.340	-131.896	-127.075	22.096	-129.016	-8191	255	
1370.389	1	1	0	0	0.11632	0.060793	0.20722	0.017709	0.15376	0.13601	0.13018	0.16907	0.14773	0.26523	0.32545	0.36234	0.084533	0.08602	0.243	0.1986	-2.3875	-2.7354	-2.8646	-2.7375	-2.9625	-3.025	-2.7292	-2.9958	-3.1312	-2.5792	-3.1708	-2.9792	-2.8937	-3.1167	-2.7104	-3.0563	-109.021	-25.235	-130.885	-49.734	145.913	-88.655	-22.221	173.593	48.905	-136.660	161.429	166.268	56.741	-124.548	-0.286	159.871	0.0032795	0.0005763	0.0001895	427.41	1.334e-05	3.6492e-06	697.1	191.71	3.2517e-06	1.2246e-05	365.71	191.33	104.1	60.763	7.7918e-06	115.35	0.0017125	0.0016539	0.00051265	450.07	1.8408e-05	2.0178e-05	719.65	200.57	1.8693e-05	1.8107e-05	379.71	196.29	110.72	62.825	1.7992e-05	118.5	63.268	-58.871	-40.995	-138.869	-56.038	-30.647	-139.814	-134.487	-6.262	-34.122	-135.480	-132.513	-131.399	-127.145	39.073	-129.058	-8191	255	
1370.485	1	1	0	0	0.06369	0.1106	0.2895	0.23553	0.41201	0.29583	0.17327	0.11418	0.28305	0.13569	0.25233	0.066626	0.31575	0.27761	0.31023	0.097756	-2.7208	-2.6833	-3.2062	-3.0292	-2.8271	-2.9	-2.9833	-2.9313	-2.9708	-2.6229	-3.1021	-3.1417	-2.7729	-3.1542	-2.7167	-3.1437	14.697	-123.148	-88.368	127.280	60.312	-8.965	-107.739	193.161	4.758	167.982	-137.060	152.347	182.428	176.260	66.327	40.832	0.0030987	0.00058003	0.00014266	425.47	5.959e-06	1.2584e-05	698.12	192.27	7.3745e-06	3.0205e-06	363.1	189.57	102.51	60.152	4.4258e-06	113.99	0.0017277	0.0016231	0.00049684	449.18	1.7737e-05	1.9953e-05	718.15	200.05	1.9089e-05	1.8418e-05	377.55	194.6	110.06	62.39	1.9474e-05	117.79	60.736	-111.971	-39.645	-139.296	-22.234	-10.256	-139.845	-134.250	-13.516	-28.918	-135.640	-132.539	-131.680	-127.141	9.223	-129.279	-8191	255	
1370.581	1	1	0	0	0.25475	0.086572	0.078168	0.17996	0.22699	0.1369	0.12374	0.062376	0.24653	0.15926	0.12757	0.14244	0.15874	0.2379	0.02489	0.069661	-2.6667	-2.7771	-3.0354	-3.2167	-2.7562	-3.0542	-2.7583	-3.0271	-2.9729	-2.7542	-3.0167	-3.1667	-2.7125	-3.2062	-2.7333	-2.9896	147.310	122.910	68.543	180.398	-85.198	-74.841	-94.862	8.687	-16.278	173.087	-143.477	105.531	0.544	165.246	-28.101	105.627	0.0031199	0.00060789	0.00037607	423.85	9.0041e-06	1.1151e-05	689.72	189.44	1.3287e-05	9.736e-06	357.94	188.69	102.4	60.03	3.6277e-06	114.29	0.0018978	0.0017941	0.00054021	449.78	1.9455e-05	2.191e-05	715.61	198.14	2.1225e-05	2.0082e-05	374.37	193.77	109.61	62.126	1.9759e-05	117.59	60.365	-65.177	-39.641	-139.153	2.391	-24.695	-139.546	-134.110	-41.182	-8.389	-135.799	-132.335	-131.735	-127.197	-7.690	-129.227	-8191	255	
1370.678	1	1	0	0	0.32691	0.066939	0.060222	0.16423	0.29116	0.16416	0.044267	0.17211	0.12845	0.16832	0.31499	0.19968	0.2985	0.11609	0.2259	0.20949	-2.7521	-2.6063	-2.9729	-3.1083	-2.5333	-3.0833	-3.0312	-2.7083	-3.1708	-2.8083	-3.1833	-3.0167	-2.7833	-3.1604	-3.0187	-2.9562	144.068	-14.853	-66.520	161.962	-25.355	29.068	97.998	142.466	54.426	48.235	128.139	109.698	163.068	-106.536	-2.370	149.957	0.0031511	0.00075421	0.00042814	421.37	7.3037e-06	1.8147e-05	692	189.76	1.6206e-05	1.0799e-05	360.19	189.47	102.85	59.955	8.0202e-06	114.18	0.001916	0.0017831	0.00052798	449.59	1.9344e-05	2.1764e-05	716.38	198.29	2.1163e-05	1.955e-05	375.12	194.51	109.45	61.98	1.9504e-05	117.41	59.266	-75.201	-70.191	-139.093	-14.394	-2.240	-139.548	-134.158	-64.181	26.015	-135.496	-132.448	-131.270	-127.300	-69.186	-129.102	-8191	255	
1370.774	1	1	0	0	0.2415	0.27479	0.13891	0.096108	0.074726	0.096645	0.16491	0.15438	0.075667	0.1437	0.11156	0.15632	0.10422	0.25669	0.27666	0.1738	-2.7271	-2.6688	-2.9271	-2.9375	-2.7062	-2.8896	-3	-2.9021	-2.9437	-2.8521	-2.7104	-3.0479	-2.6312	-2.8417	-2.8667	-2.8896	92.891	-95.093	82.653	-138.531	41.914	-73.383	-71.929	130.496	-39.989	22.624	-148.125	-113.976	-92.614	-126.798	-51.196	143.497	0.0032311	0.0002085	0.00014204	423.22	1.5262e-05	4.4615e-06	695.75	190.88	1.6516e-05	3.7609e-06	360	189.64	101.96	59.931	6.5487e-06	114.19	0.001844	0.0017094	0.00048879	448.63	1.8154e-05	1.9877e-05	718.12	198.37	2.0221e-05	1.9023e-05	375.61	194.86	109.4	62.017	2.0559e-05	117.52	59.255	-84.301	-77.748	-139.096	-64.093	62.729	-139.516	-134.326	-5.466	-37.316	-135.972	-132.257	-131.796	-127.205	5.011	-129.061	-8191	255	
1370.894	1	1	0	0	0.059226	0.11823	0.083482	0.091548	0.033187	0.22839	0.22063	0.058351	0.11971	0.33043	0.1529	0.15056	0.18758	0.054935	0.024398	0.40497	-2.5687	-2.7313	-2.6188	-2.8396	-2.6271	-2.7188	-3.0042	-2.6208	-2.9313	-2.7021	-2.75	-3.0354	-2.7062	-2.9875	-2.8833	-3.0083	85.848	167.274	129.807	-8.279	-125.712	94.842	165.729	103.715	129.204	193.105	-42.136	146.474	28.002	-83.044	-72.042	127.302	0.0031093	0.00066179	0.00032418	422.98	9.3394e-06	9.6147e-06	693.72	189.39	1.1172e-05	4.8218e-06	358.01	187.17	101.12	59.19	8.8336e-06	113.05	0.00194	0.0018355	0.00051574	450.41	1.9274e-05	2.1002e-05	717.19	197.3	2.0952e-05	1.9909e-05	371.37	192.23	108.12	61.164	2.0324e-05	116.29	63.919	-46.326	-42.365	-139.052	-50.861	-31.192	-139.579	-134.417	5.285	-57.278	-135.479	-132.439	-131.347	-127.312	-26.590	-129.123	-8191	255	
1370.990	1	1	0	0	0.17512	0.17371	0.12618	0.19386	0.095615	0.1687	0.015098	0.26058	0.16207	0.038129	0.23501	0.24761	0.42023	0.2962	0.016421	0.17188	-2.5208	-2.7812	-2.8937	-3.0479	-2.7604	-2.8021	-3.15	-2.8125	-3.1521	-2.6312	-2.825	-2.9833	-2.7708	-2.7917	-2.7521	-2.8563	174.977	173.949	51.661	-4.830	206.751	-77.254	45.868	125.260	188.011	136.516	165.462	204.598	-98.987	163.119	195.300	174.183	0.002971	0.00052545	0.00010152	418.1	2.1176e-05	1.5928e-06	690.87	187.35	9.2134e-06	5.7814e-06	354.66	186.99	100.06	58.984	7.6473e-06	113.25	0.0018655	0.0018073	0.00049334	445.75	1.8823e-05	2.022e-05	712.57	195.33	2.016e-05	1.9908e-05	369.01	191.65	107.49	61.024	2.0097e-05	116.19	60.521	-29.218	-23.764	-138.910	-4.933	115.924	-139.805	-134.407	-15.869	-47.006	-135.762	-132.639	-131.841	-127.359	-74.240	-129.415	-8191	255	
1371.087	1	1	0	0	0.16444	0.12018	0.19627	0.26074	0.14182	0.29097	0.20095	0.31185	0.22237	0.20857	0.063391	0.14294	0.024013	0.13856	0.065131	0.090694	-2.5042	-2.9083	-2.6937	-3.1104	-2.7979	-2.7625	-3.2292	-2.9375	-2.8583	-2.9979	-2.8688	-3.1521	-2.9542	-2.8979	-2.9771	-2.9229	-30.876	-137.410	162.546	-57.515	65.710	-142.540	40.254	179.211	56.665	-5.154	132.570	-131.017	71.578	156.680	-122.004	81.564	0.0030428	0.00054706	0.00025304	420.5	1.5237e-05	9.4414e-06	691.35	189.52	1.5982e-05	6.7895e-06	359.43	189.72	101.66	59.942	1.6017e-05	114.27	0.0018372	0.0017999	0.00048516	446.21	1.9214e-05	2.0018e-05	712.93	196.97	2.0087e-05	2.0382e-05	373.22	194.5	109.39	61.867	2.1002e-05	117.37	60.987	-71.324	-41.018	-138.497	4.028	-38.379	-139.794	-134.183	51.522	-35.277	-135.616	-132.428	-131.568	-127.056	-46.622	-129.146	-8191	255	
1371.181	1	1	0	0	0.15319	0.1161	0.064011	0.23162	0.093704	0.1126	0.10464	0.13463	0.15709	0.14374	0.15647	0.049251	0.14201	0.14105	0.31316	0.24782	-2.4167	-2.8667	-2.4854	-3.0208	-2.7458	-2.6562	-3.1104	-2.8875	-2.7417	-3.0812	-2.7104	-3.1813	-2.7833	-2.875	-3	-2.9542	-2.674	147.479	15.134	-124.868	190.020	36.224	103.152	128.935	97.055	173.845	191.822	13.853	-9.027	161.018	-48.705	150.456	0.0031451	0.0005157	0.00020698	421.55	5.3602e-06	6.5969e-06	691.8	189.17	1.1152e-05	5.7206e-06	360.67	190.01	101.89	60.028	5.038e-06	113.95	0.0018612	0.0018712	0.00049234	448.26	1.9214e-05	1.9698e-05	716.53	197.52	1.9624e-05	2.0292e-05	373.93	194.3	109.04	61.742	2.0255e-05	117.14	64.369	-102.436	-80.902	-138.812	-54.977	5.249	-139.607	-134.546	-5.568	-3.132	-135.845	-132.259	-131.270	-127.332	-14.355	-129.241	-8191	255	
1371.277	1	1	0	0	0.080391	0.19355	0.30841	0.025417	0.081312	0.079109	0.098915	0.053345	0.13287	0.032764	0.07674	0.27272	0.20486	0.14212	0.11175	0.2008	-2.4854	-2.8479	-2.7708	-3.1292	-2.9083	-2.7625	-3.1771	-2.8833	-2.8708	-2.8729	-2.8688	-3.1625	-2.8417	-2.725	-2.9813	-2.9354	74.006	188.736	129.349	-45.309	-119.772	159.485	76.466	185.424	55.697	22.099	88.759	147.868	205.660	-88.698	131.241	18.954	0.002875	0.00039924	0.00012818	422.51	4.2136e-06	2.7929e-06	693.9	188.19	1.5087e-06	8.7314e-06	358.93	188.29	101.08	59.105	1.0926e-05	112.73	0.0017354	0.0017814	0.00046751	446.77	1.8447e-05	1.8378e-05	714.1	196.05	1.8081e-05	1.9234e-05	370.03	192.39	107.77	60.934	1.8884e-05	115.85	64.688	-108.957	-92.523	-138.666	16.436	-82.714	-139.744	-134.122	-31.902	23.981	-135.874	-132.269	-131.519	-127.282	-2.629	-129.192	-8191	255	
1371.373	1	1	0	0	0.14307	0.071427	0.046667	0.13081	0.25902	0.15812	0.26265	0.12181	0.21561	0.18233	0.29005	0.13312	0.19299	0.36274	0.087886	0.21636	-2.2583	-2.9333	-2.6146	-3.0354	-2.875	-2.6667	-3.1604	-2.7896	-2.7792	-2.9458	-2.7896	-2.9354	-2.7896	-2.9688	-2.9021	-3.0604	-54.631	101.464	26.837	47.702	83.969	148.741	117.321	64.749	-25.534	-57.402	116.574	162.190	141.842	123.365	136.853	178.164	0.0029465	0.000258	5.4453e-05	418.84	1.7746e-05	6.9459e-07	691.37	186.23	1.0237e-05	7.2378e-06	354.86	185.48	98.981	58.335	8.5849e-06	111.36	0.0016309	0.0017117	0.00043743	443.18	1.8044e-05	1.754e-05	710.89	194.06	1.7243e-05	1.8795e-05	366.45	189.66	106.28	60.079	1.8526e-05	114.13	57.930	111.809	98.724	-138.850	-48.897	149.709	-139.631	-134.214	-37.960	44.839	-135.637	-132.349	-131.520	-127.287	-13.507	-129.279	-8191	255	
1371.494	1	1	0	0	0.20827	0.059473	0.11167	0.12264	0.19007	0.086875	0.38819	0.081063	0.13011	0.10782	0.26721	0.19277	0.076336	0.25561	0.30466	0.31428	-2.2396	-2.9271	-2.6063	-2.9833	-2.9188	-2.7771	-2.9938	-2.9688	-2.7125	-3.0146	-2.7917	-2.9542	-3.0875	-2.8542	-3.0229	-3.0042	-71.744	89.409	-93.258	176.208	-62.958	158.807	154.659	-120.655	-4.811	61.025	169.492	-145.335	-141.267	135.677	158.985	132.036	0.002848	0.00062335	0.00022164	415.89	1.4274e-05	5.0866e-06	686.44	185.23	1.1295e-05	5.4382e-06	351.68	183.14	98.134	57.63	4.5678e-06	110.69	0.0015714	0.0016954	0.00042906	438.71	1.7248e-05	1.6329e-05	707.01	191.93	1.6094e-05	1.8503e-05	362.15	187.07	105.31	59.383	1.866e-05	113.66	64.796	-75.660	-41.916	-139.040	-66.784	12.977	-139.620	-134.265	-71.632	-28.563	-135.629	-132.334	-131.671	-127.248	-25.254	-129.369	-8191	255	
1371.590	1	1	0	0	0.20536	0.068382	0.037981	0.16785	0.13142	0.16046	0.20101	0.1966	0.26893	0.15327	0.052938	0.16021	0.2352	0.1861	0.18974	0.18799	-2.275	-2.975	-2.7771	-2.8	-3.1208	-2.6312	-3.0896	-2.8854	-2.6479	-3.0167	-2.65	-3.0021	-3.0104	-2.8521	-3.0292	-2.975	-77.496	194.983	-18.652	113.770	-106.642	-79.902	-123.951	153.544	1.928	-78.868	71.056	90.202	-3.554	112.251	173.440	89.325	0.0028278	0.00045144	0.00020259	414.67	4.0587e-06	6.5891e-06	687.06	185.09	1.0255e-05	9.3662e-06	351.9	184.05	98.52	57.999	1.1941e-05	111.54	0.0016138	0.0017613	0.00045074	438.08	1.8418e-05	1.7344e-05	706.08	191.53	1.6202e-05	1.8288e-05	362.08	188	105.42	59.609	1.7617e-05	114.35	64.183	-98.838	-42.647	-138.838	-49.146	17.376	-139.586	-134.192	-36.308	-2.582	-135.821	-132.308	-131.864	-127.095	-8.808	-129.116	-8191	255	
1371.686	1	1	0	0	0.16751	0.14092	0.039411	0.096226	0.13087	0.17476	0.38922	0.1444	0.074971	0.33803	0.035411	0.22859	0.31523	0.19725	0.18838	0.24431	-2.1208	-3.1063	-2.6458	-2.7417	-3.0167	-2.6333	-2.8917	-3.0167	-2.6146	-2.9979	-3.0021	-2.7479	-3.0875	-2.8708	-2.9458	-3.1937	153.097	51.867	-149.663	131.273	138.805	-125.275	132.453	-121.832	188.046	92.176	-46.394	170.023	-126.417	92.608	94.776	71.676	0.0030696	0.00079825	0.00019493	414.74	6.1876e-06	6.0547e-06	687.11	184.01	1.5508e-05	4.0541e-06	348.82	184.55	99.51	58.035	8.6158e-06	111.25	0.001558	0.0017152	0.00045342	438.26	1.8726e-05	1.7545e-05	706.52	191.39	1.6898e-05	1.885e-05	361.77	188.17	105.58	59.557	1.782e-05	113.84	61.745	-73.586	-112.765	-139.148	1.070	48.424	-139.497	-134.383	-15.714	51.076	-135.527	-132.307	-131.531	-127.167	-43.232	-129.168	-8191	255	
1371.758	1	1	0	0	0.11404	0.20642	0.23823	0.039524	0.3463	0.3418	0.29758	0.11778	0.092347	0.13369	0.13316	0.14438	0.11575	0.092293	0.12029	0.16761	-2.1292	-2.9667	-2.6521	-2.7854	-2.8875	-2.7771	-3.0854	-3.125	-2.7771	-2.9021	-2.9104	-2.7417	-2.9562	-2.9792	-2.6771	-3.1708	55.210	24.854	200.286	147.767	37.616	43.414	103.729	75.744	63.295	172.237	105.658	103.056	113.676	-73.213	-76.708	101.567	0.0028982	0.00088758	0.0002335	417.59	1.1426e-05	1.1402e-05	687.34	184.44	7.1511e-06	2.7511e-06	351.29	183.66	99.223	57.616	5.8503e-06	110.11	0.0015358	0.0016637	0.00044674	437.51	1.8053e-05	1.6855e-05	705.24	191.48	1.5743e-05	1.7618e-05	363.06	187.49	104.99	59.187	1.6332e-05	112.97	63.002	-80.965	-19.668	-138.799	-35.383	-56.803	-139.708	-134.316	-71.328	21.119	-135.485	-132.408	-131.581	-127.129	-55.860	-129.185	-8191	255	
1371.854	1	1	0	0	0.30717	0.040879	0.16063	0.16798	0.026878	0.070415	0.20162	0.062435	0.047274	0.15739	0.048376	0.07539	0.30448	0.18725	0.16719	0.35233	-2.0458	-3.0812	-2.8417	-2.9521	-2.7667	-2.9062	-2.6562	-3.1312	-2.7812	-2.7271	-3.0521	-2.7104	-3.0521	-3.0354	-2.6562	-3.375	44.285	-130.803	-57.858	140.868	39.343	61.477	101.845	151.983	99.944	116.140	-135.927	173.652	-25.651	186.841	45.824	105.773	0.00289	0.0010073	0.00016246	417.24	1.148e-05	3.1712e-06	692.29	186.13	5.7729e-06	5.0128e-06	354.86	184.28	99.319	57.886	7.703e-06	110.77	0.0014525	0.0015396	0.00041641	435.65	1.6127e-05	1.511e-05	707.4	192.45	1.3812e-05	1.5293e-05	365.23	188.01	104.85	59.261	1.4296e-05	113.25	58.477	-53.192	-48.378	-139.028	-59.378	-22.967	-139.815	-134.156	14.321	-4.113	-135.732	-132.303	-131.824	-127.030	3.257	-129.099	-8191	255	
1371.975	1	1	0	0	0.053367	0.31841	0.13122	0.12307	0.16674	0.2123	0.12737	0.18005	0.15202	0.13455	0.30501	0.15292	0.12509	0.20114	0.22892	0.19257	-2.2542	-2.8021	-3.0979	-2.625	-2.9958	-2.7708	-2.9271	-3.0646	-2.725	-2.8521	-3.1542	-2.7812	-2.7979	-2.7708	-2.7604	-3.2292	15.307	58.821	37.045	-60.348	-54.202	127.445	122.283	64.278	131.523	76.397	124.844	-23.507	-140.837	160.433	-90.684	170.746	0.0031792	0.00046638	7.6208e-05	422.37	1.2604e-05	8.3705e-06	691.42	186.47	1.4115e-05	6.1617e-06	354.69	184.3	99.772	57.612	7.2146e-06	110.11	0.0013128	0.0013607	0.00038419	436.65	1.4993e-05	1.4668e-05	707.53	192.35	1.408e-05	1.505e-05	364.55	187.72	104.9	59.097	1.4358e-05	113.12	60.957	-6.618	110.409	-139.268	-12.300	17.203	-139.907	-134.237	-31.251	38.678	-135.856	-132.396	-131.740	-127.174	-29.055	-129.403	-8191	255	
1372.071	1	1	0	0	0.23483	0.05405	0.16877	0.21222	0.096341	0.19802	0.17162	0.06406	0.19214	0.18757	0.11097	0.11164	0.026291	0.21886	0.16	0.27905	-2.4167	-2.6479	-3.1854	-2.6833	-3.0958	-2.9313	-2.9021	-3.0146	-2.7375	-2.75	-2.9646	-2.8042	-2.85	-2.8646	-2.5604	-3.1833	-84.855	125.398	22.076	205.364	-8.565	79.728	199.264	-139.855	95.647	-115.094	-26.539	89.462	7.968	172.021	64.480	199.224	0.002718	0.00018773	0.0001936	419.55	8.1652e-06	8.9173e-06	692.79	185.68	1.3114e-05	7.8654e-06	354.04	183.86	99.362	57.578	6.8746e-06	109.91	0.0013462	0.0013727	0.00039015	435.77	1.5112e-05	1.5099e-05	707.58	191.83	1.4152e-05	1.4836e-05	363.41	186.92	104.48	59.047	1.3591e-05	112.66	63.015	-78.853	-62.836	-138.824	-21.368	29.053	-139.752	-134.196	-6.350	-14.141	-135.862	-132.155	-131.207	-127.026	32.645	-129.022	-8191	255	
1372.167	1	1	0	0	0.14526	0.224	0.042098	0.1285	0.009836	0.24072	0.19389	0.14942	0.15206	0.21775	0.22743	0.094165	0.09576	0.17706	0.10815	0.072961	-2.4646	-2.6625	-3.1021	-2.7771	-2.7667	-2.9875	-2.7542	-2.9792	-2.6542	-2.9208	-3.1	-2.8	-3.0396	-3.0792	-2.7229	-3.1813	179.905	176.615	176.153	157.104	-136.387	-36.364	115.771	157.434	159.203	-5.667	-50.901	170.497	166.138	-98.740	-120.703	199.219	0.0029727	0.00068303	0.00018102	420.6	9.373e-06	6.6071e-06	692.37	187.57	9.764e-07	7.2832e-06	353.83	183.56	99.518	58.164	5.6449e-06	111.09	0.0013093	0.0013002	0.00038251	435.68	1.4718e-05	1.4988e-05	707.09	192.67	1.4515e-05	1.4933e-05	364.43	187.34	104.88	59.558	1.4014e-05	113.56	63.280	-62.225	-73.582	-139.227	9.135	-81.622	-139.483	-134.174	163.187	-22.567	-135.506	-132.278	-131.696	-127.153	-26.072	-129.015	-8191	255	
1372.286	1	1	0	0	0.22285	0.17577	0.09865	0.10926	0.38732	0.15554	0.31258	0.18095	0.19569	0.20936	0.058996	0.26606	0.25523	0.12395	0.036703	0.19444	-2.4729	-2.7021	-2.925	-2.8396	-2.7375	-3.1042	-2.7708	-3.2854	-3.0354	-2.8979	-3.1167	-2.9479	-2.7667	-2.9479	-2.7729	-3.0938	-100.201	184.483	-1.836	126.300	-141.994	-53.678	69.977	123.950	148.957	-36.214	92.671	165.434	153.602	194.127	140.588	170.781	0.0031507	0.001129	0.00034289	421.19	8.2663e-06	5.7554e-06	693.93	187.72	2.0042e-05	8.6473e-06	358.43	187.18	100.18	58.285	7.1272e-06	111.97	0.0013616	0.0012885	0.00038743	437.96	1.4159e-05	1.4681e-05	708.27	193.91	1.3932e-05	1.3713e-05	368.47	189.66	105.38	59.98	1.3423e-05	114.54	64.051	-60.037	-18.694	-138.900	-3.254	-25.935	-140.022	-134.135	-38.947	21.837	-136.004	-132.385	-131.606	-127.205	-25.339	-129.050	-8191	255	
1372.358	1	1	0	0	0.16094	0.19352	0.059763	0.04681	0.12289	0.10438	0.19523	0.15649	0.046646	0.086468	0.18696	0.40082	0.24129	0.20145	0.098417	0.04302	-2.5542	-2.5208	-3.0625	-2.8146	-2.65	-3.2	-2.8792	-2.9542	-2.9021	-2.6333	-3.3063	-2.8896	-2.8042	-3.1125	-2.7458	-3.3771	-32.724	45.040	147.194	178.252	-101.905	28.584	95.011	156.393	-46.510	-82.473	125.448	121.058	176.120	172.921	93.167	191.329	0.0028499	0.00082507	0.00019697	422.91	8.254e-06	1.431e-05	703.06	191.59	8.1868e-06	9.3746e-06	363.79	188.73	101.9	58.929	1.3659e-05	112.5	0.0013304	0.0012477	0.00037744	439.87	1.3483e-05	1.4695e-05	714.2	197.45	1.374e-05	1.3173e-05	374.5	192.05	106.89	60.636	1.2993e-05	114.98	61.779	-21.608	-45.046	-138.979	-25.765	18.349	-139.742	-134.260	-59.852	-19.915	-135.572	-132.308	-131.539	-126.842	-39.141	-129.097	-8191	255	
1372.454	1	1	0	0	0.13486	0.21419	0.20182	0.3005	0.151	0.12282	0.029327	0.19996	0.29225	0.20184	0.16505	0.18813	0.28552	0.309	0.099159	0.11685	-2.5167	-2.6479	-3.05	-2.8625	-2.7021	-3.0958	-2.9104	-3.0375	-2.9708	-2.7812	-3.0479	-2.9604	-2.7604	-3.2417	-2.8667	-2.9271	197.640	-27.477	172.914	-141.630	-142.630	-57.468	99.767	10.601	103.100	-19.210	73.362	151.292	-47.973	163.178	-114.436	18.923	0.0031456	0.00065509	0.00013753	425.24	6.7639e-06	7.6531e-06	698.99	193.17	1.2646e-05	1.0592e-05	364.24	188.66	103.02	59.011	1.3039e-05	112.34	0.0013045	0.0011686	0.0003622	441.64	1.3028e-05	1.4545e-05	713.93	198.16	1.3624e-05	1.3068e-05	373.92	191.93	106.89	60.642	1.3163e-05	114.9	60.818	-84.101	-19.817	-139.128	-18.907	-26.183	-139.510	-134.054	-5.277	-57.893	-135.786	-132.238	-131.729	-127.024	-51.716	-129.005	-8191	255	
1372.574	1	1	0	0	0.1487	0.17391	0.11511	0.020972	0.25309	0.1362	0.34304	0.09168	0.28627	0.10045	0.21128	0.066017	0.070976	0.24339	0.1961	0.24856	-2.7375	-2.5854	-3.0438	-2.9104	-2.6458	-3.1583	-2.7687	-3.0479	-2.9042	-2.7792	-3.0708	-2.9771	-2.7687	-3.2167	-2.7646	-2.9917	88.737	194.269	115.167	62.733	-29.280	68.264	207.631	-17.984	114.342	126.004	146.453	80.584	-125.084	-148.338	149.989	99.773	0.0028162	0.00072578	0.00022661	426.32	9.214e-06	4.3381e-06	700.7	191.86	1.2666e-05	3.9593e-06	366.73	188.89	101.69	59.234	6.2007e-06	112.45	0.0013242	0.0011476	0.00035396	441.53	1.25e-05	1.4026e-05	714.33	197.64	1.3211e-05	1.2261e-05	374.97	192.05	106.34	60.73	1.2762e-05	115.37	63.188	-66.991	-57.582	-139.033	26.926	-0.110	-139.533	-134.180	-21.981	-42.067	-135.619	-132.482	-131.407	-126.911	-34.064	-128.885	-8191	255	
1372.670	1	1	0	0	0.027352	0.096034	0.087628	0.26993	0.095157	0.2895	0.28256	0.026132	0.24008	0.19435	0.083067	0.15815	0.28547	0.05876	0.29454	0.38764	-2.7021	-2.5896	-3.0062	-2.9188	-2.7833	-3.2	-2.9333	-2.7896	-3.1833	-2.7521	-3.2167	-3.125	-2.8646	-3.1813	-2.875	-2.9646	189.496	200.789	150.661	106.580	-126.548	181.990	187.639	-2.257	-109.777	-98.504	-88.838	123.598	-96.055	-117.956	38.709	162.090	0.0031391	0.00080772	0.0003063	429.29	1.2093e-05	3.1584e-06	700.59	193.73	2.3255e-05	7.2124e-06	370.25	191.25	102.66	59.521	5.2622e-06	113.25	0.0013015	0.0011304	0.00034223	442.38	1.1901e-05	1.3583e-05	716.25	198.85	1.2931e-05	1.1901e-05	377.9	193.61	106.82	60.875	1.2777e-05	115.61	63.936	-36.286	-64.593	-138.821	9.162	79.414	-139.456	-133.952	-44.463	-1.805	-135.660	-132.487	-131.609	-126.804	-21.506	-128.908	-8191	255	
1372.767	1	1	0	0	0.27016	0.084665	0.034178	0.023334	0.097621	0.22104	0.28096	0.12318	0.20614	0.15288	0.20371	0.072091	0.060279	0.4127	0.2539	0.28338	-2.5438	-2.8875	-2.7687	-3.0625	-2.7958	-3.0146	-3.0312	-2.6646	-3.0979	-3.0292	-3.0125	-3.1896	-2.7146	-3.1604	-2.9708	-2.7875	71.838	93.589	-120.656	-44.155	168.500	11.354	135.454	47.162	-91.615	-36.023	-37.442	198.117	-132.757	143.464	80.590	135.653	0.0029842	0.00080591	0.00018198	428.86	1.0067e-05	1.1345e-05	708.43	195.83	9.9732e-06	6.059e-06	369.64	190.68	102.69	59.192	1.0199e-05	113.31	0.0012876	0.0011401	0.00034091	443.38	1.2206e-05	1.3799e-05	719.01	200.24	1.3421e-05	1.2724e-05	378.85	193.41	106.93	60.716	1.2851e-05	115.67	60.957	-67.938	-82.401	-139.037	12.543	-9.684	-139.762	-134.188	-58.592	-11.086	-135.487	-132.324	-131.316	-126.855	-26.641	-128.951	-8191	255	
1372.887	1	1	0	0	0.18396	0.075187	0.12411	0.11313	0.39618	0.28691	0.25917	0.33083	0.10088	0.13188	0.14127	0.35413	0.17478	0.20133	0.13324	0.15728	-2.9271	-2.625	-2.9042	-3.0833	-2.7562	-2.7562	-3.0687	-2.75	-3.0417	-2.8646	-2.7667	-3.1917	-2.6979	-2.9646	-2.9333	-2.9521	-59.523	-114.507	-9.406	73.526	198.088	74.243	142.372	124.201	-119.661	115.895	128.801	196.850	-46.458	176.972	-40.300	101.375	0.0030231	0.00012727	0.00016677	428.96	7.021e-06	2.4357e-06	709.13	195.5	1.1331e-05	4.2437e-06	367.87	188.89	102.13	58.766	4.5332e-06	112.57	0.0012656	0.0011209	0.00032651	444.34	1.1828e-05	1.3442e-05	721.75	199.14	1.3069e-05	1.2565e-05	376.81	191.49	105.85	60.138	1.2803e-05	114.84	61.284	-113.590	-38.459	-138.829	-16.099	41.284	-139.598	-134.326	-10.482	-30.030	-135.818	-132.338	-131.807	-126.776	33.609	-128.846	-8191	255	
1372.959	1	1	0	0	0.18339	0.043667	0.19687	0.32874	0.2016	0.26605	0.058096	0.19889	0.20398	0.18905	0.12848	0.28037	0.11913	0.18692	0.26139	0.21038	-2.5021	-2.7375	-2.625	-3.0396	-2.8917	-2.6875	-2.8958	-2.8021	-2.7083	-2.9604	-2.7875	-3.3083	-2.6083	-2.9958	-2.8604	-3.0417	187.386	-69.662	52.267	190.787	57.507	82.162	156.288	73.717	124.429	198.828	147.012	-133.958	-15.651	-121.149	15.777	133.881	0.0029614	0.00048022	6.9301e-05	430.12	1.063e-05	1.3999e-06	709.53	195.1	1.9914e-05	4.9448e-06	369.67	188.13	101.43	58.355	5.0672e-06	111.86	0.0012699	0.0011168	0.00031127	444.63	1.152e-05	1.2917e-05	720.88	198.8	1.2635e-05	1.2322e-05	376.33	190.61	105.23	59.654	1.23e-05	113.91	59.202	-94.685	-54.282	-138.985	11.834	-59.036	-139.419	-133.928	-38.042	-33.514	-135.536	-132.238	-131.431	-126.885	-6.399	-128.889	-8191	255	
1373.055	1	1	0	0	0.12864	0.16403	0.074248	0.19414	0.068339	0.082649	0.17176	0.15548	0.039905	0.21991	0.26046	0.077339	0.19006	0.059046	0.18578	0.26703	-2.4313	-2.9375	-2.775	-2.8375	-2.7979	-2.8104	-3.0583	-2.85	-3.0979	-2.9562	-2.6437	-3.0917	-2.8438	-2.8792	-3.0125	-2.7438	204.461	153.150	-32.679	63.312	-84.864	-147.699	121.209	86.072	180.558	78.807	-146.850	-148.073	157.870	179.472	-89.390	-151.353	0.0030614	0.00056338	0.00019402	427.55	1.3867e-05	7.6537e-06	710.7	193.39	8.2123e-06	5.2644e-06	368.46	187.43	100.78	58.238	8.3437e-06	111.35	0.0012137	0.0011009	0.00029334	442.1	1.1281e-05	1.2182e-05	720.8	196.89	1.2126e-05	1.2177e-05	374.24	189.88	104.45	59.417	1.2385e-05	113.64	63.369	-58.344	-58.168	-138.806	-20.591	18.237	-139.565	-134.223	-0.499	-14.674	-135.733	-132.263	-131.295	-126.914	-23.726	-128.906	-8191	255	
1373.151	1	1	0	0	0.25912	0.10881	0.11634	0.26486	0.15099	0.10993	0.19771	0.10363	0.1098	0.1144	0.15239	0.050313	0.048842	0.23578	0.24595	0.32571	-2.6729	-2.9271	-2.7521	-3.0312	-2.8812	-2.7896	-3.1583	-2.6979	-2.9375	-3.0771	-2.6979	-3.1312	-2.8042	-2.9875	-3.0104	-2.9146	47.626	145.217	133.990	180.309	11.612	-129.747	170.531	42.012	78.791	143.740	-125.447	167.080	-113.635	182.888	-37.495	207.626	0.0028404	0.00059153	0.00022157	429.85	7.7355e-06	5.486e-06	717.24	193.48	1.6669e-05	5.1401e-06	370.6	187.49	101	58.215	9.4388e-06	111.62	0.0011962	0.0010955	0.0002881	443.3	1.1175e-05	1.143e-05	723.61	197.54	1.1746e-05	1.162e-05	375.88	190.27	104.67	59.354	1.2052e-05	113.74	59.334	-82.200	-54.039	-138.877	-28.380	-16.463	-139.825	-134.231	-9.501	-2.396	-135.842	-132.328	-131.345	-126.818	9.331	-128.882	-8191	255	
1373.270	1	1	0	0	0.11335	0.28164	0.18883	0.16752	0.11462	0.26361	0.034025	0.11765	0.16478	0.20436	0.10137	0.18804	0.048644	0.24951	0.038216	0.4087	-2.2833	-2.8854	-2.6042	-3.0458	-3.0062	-2.7417	-2.9458	-2.7792	-2.9417	-2.9229	-2.6896	-3.0854	-3.0042	-2.8	-2.9938	-3.1083	188.672	110.757	-47.278	-104.975	-106.002	204.268	-26.735	-87.620	155.341	-47.632	-99.411	131.564	-100.482	146.571	83.739	138.392	0.0030778	0.00030541	0.0003273	428.27	4.8395e-06	4.6669e-06	717.06	193.92	1.7628e-06	5.9161e-06	367.28	185.47	100.02	57.247	7.4211e-06	110.59	0.001176	0.0011083	0.00028797	443.39	1.163e-05	1.1738e-05	725.17	197.32	1.1874e-05	1.2038e-05	374.21	187.96	103.74	58.435	1.1936e-05	112.48	62.495	-64.504	-57.364	-138.785	-64.000	-33.457	-139.595	-134.240	61.514	-0.542	-135.449	-132.306	-131.542	-126.813	-47.148	-128.982	-8191	255	
1373.366	1	1	0	0	0.047176	0.10348	0.13028	0.064661	0.31221	0.10777	0.23866	0.22367	0.14571	0.093874	0.10138	0.33219	0.071437	0.27767	0.022248	0.2268	-2.3646	-3.2417	-2.4979	-3.0583	-2.8167	-2.6813	-3.2646	-2.8042	-2.8646	-3.1479	-2.9437	-3.0125	-2.7625	-2.8958	-2.9813	-2.975	84.721	147.630	107.464	203.109	-142.259	-61.333	146.957	127.831	-101.902	136.049	-73.376	196.692	-25.130	150.291	-100.780	188.683	0.0029447	0.00063374	0.000206	432.81	7.6861e-06	1.1938e-05	714.77	192.36	1.0942e-05	7.4538e-06	365.99	183.2	99.002	56.436	7.8844e-06	109.06	0.0010988	0.0010713	0.00027017	444.05	1.1042e-05	1.0865e-05	724.82	196.5	1.1046e-05	1.1842e-05	372.3	185.43	102.49	57.491	1.1538e-05	110.93	63.782	-87.187	-27.417	-139.009	-6.112	9.255	-139.764	-134.219	-41.927	-26.961	-135.750	-132.359	-131.076	-126.704	-69.699	-128.714	-8191	255	
1373.462	1	1	0	0	0.32408	0.095837	0.15465	0.31236	0.22219	0.10682	0.29371	0.22075	0.21117	0.11901	0.19561	0.26978	0.1907	0.36188	0.20946	0.20226	-2.25	-2.8187	-2.6	-2.7979	-2.9167	-2.7812	-3.2333	-2.7833	-2.9604	-2.9938	-2.9625	-2.8854	-2.9875	-2.6833	-2.8229	-2.9083	203.766	-11.301	-69.464	-124.791	177.596	168.596	143.339	108.651	5.506	38.285	204.052	102.947	119.502	186.587	-142.465	185.997	0.002994	0.00058415	0.00010334	430.75	1.0382e-05	8.4351e-06	716.46	191.33	9.9048e-06	5.6331e-06	363.27	179.87	97.113	55.57	5.9889e-06	108.81	0.0010229	0.00098472	0.0002456	443.39	1.0067e-05	9.5556e-06	724.51	194.69	9.6192e-06	1.0288e-05	369.09	182.91	100.28	56.512	1.0194e-05	110.66	63.042	-36.787	-39.565	-138.987	17.588	3.176	-139.898	-134.288	-24.970	17.444	-135.691	-132.087	-131.454	-126.531	-12.238	-128.655	-8191	255	
1373.559	1	1	0	0	0.16475	0.18907	0.056794	0.16586	0.074922	0.051172	0.21661	0.0046383	0.085307	0.11154	0.0664	0.087795	0.062689	0.35233	0.077269	0.22614	-2.3729	-2.9646	-2.8021	-2.8875	-3.1063	-2.7229	-3.125	-2.6625	-2.6063	-2.8917	-2.6833	-3.0187	-3.0604	-2.7333	-2.9417	-3.2417	20.323	-127.892	177.491	123.793	61.072	181.766	94.469	-10.493	198.796	-97.466	-103.218	194.081	41.595	-134.875	47.796	149.003	0.0029293	0.0005604	0.00012673	436.96	3.7313e-06	9.2899e-06	721.58	191.09	1.2398e-05	7.0287e-06	364.35	181.69	97.63	55.894	5.8027e-06	109.84	0.00093653	0.00091123	0.00023273	444.39	9.5922e-06	8.9039e-06	727.64	194.3	9.1186e-06	1.0269e-05	369.96	183.67	100.43	56.935	1.021e-05	111.82	64.979	-92.149	-13.765	-138.852	-96.187	25.900	-139.565	-134.217	-21.615	5.448	-135.603	-132.151	-131.639	-126.804	-11.719	-128.578	-8191	255	
1373.653	1	1	0	0	0.13369	0.32456	0.25601	0.09187	0.23961	0.089879	0.061397	0.12903	0.13377	0.063246	0.15572	0.33363	0.2939	0.21299	0.45414	0.31382	-2.3542	-3	-2.8167	-2.7458	-3.1	-2.5687	-3.0292	-2.8792	-2.7521	-3.2292	-3	-2.9396	-3.1167	-2.9354	-2.9792	-2.9979	-12.357	-112.523	65.709	109.433	154.910	-131.325	3.038	205.845	120.705	-90.571	207.585	181.468	140.642	146.141	134.302	163.177	0.0029775	0.00030986	0.00024006	435.4	9.5875e-06	9.6267e-06	724.58	192.59	9.4651e-06	6.0257e-06	369.02	184.59	98.961	57.294	4.5878e-06	112.5	0.00092356	0.00092849	0.00023973	445.61	9.8008e-06	9.1479e-06	730.23	195.89	8.959e-06	1.0225e-05	373.77	186.67	102.2	58.419	1.0453e-05	114.54	60.337	-35.806	-68.192	-139.147	17.657	-4.103	-139.652	-134.056	-12.534	4.167	-135.739	-132.157	-131.819	-126.626	-21.348	-128.863	-8191	255	
#DATA ENDS
