BOXY.EXE: ISS Imagent and Oximeter Data Acquisition Program Version 0.80
Ascii Record File

#ACQ INFORMATION
2  Detector Channels 
16  External MUX Channels 
1  Auxiliary Channels 
5000  Waveform (CCF) Frequency (Hz)
1  Waveforms Skipped 
30  Waveforms Averaged 
1  Cycles Averaged 
16  Acquisitions per Waveform 
10.0806  Updata Rate (Hz) 

#FILE INFORMATION
TRUE -- External MUX Channel results are PARSED.
FALSE -- AC DC and Phase are NOT grouped.
TRUE -- Companion Program Settings File CREATED.
FALSE -- AC data not excluded
FALSE -- DC data not excluded
FALSE -- Phase data not excluded
FALSE -- Auxillary Chn. data not excluded
Tab delimiters

#CALIBRATION STATE
TRUE -- Waveform Calibration Values APPLIED.


#AUX CALIBRATION VALUES
Val Type	aux-1	

Term	1.0000e+00	
Factor	0.0000e+00	


#WF CALIBRATION VALUES
A = Detector Channel
Val Type	A-AC1	A-AC2	A-AC3	A-AC4	A-AC5	A-AC6	A-AC7	A-AC8	A-AC9	A-AC10	A-AC11	A-AC12	A-AC13	A-AC14	A-AC15	A-AC16	A-DC1	A-DC2	A-DC3	A-DC4	A-DC5	A-DC6	A-DC7	A-DC8	A-DC9	A-DC10	A-DC11	A-DC12	A-DC13	A-DC14	A-DC15	A-DC16	A-Ph1	A-Ph2	A-Ph3	A-Ph4	A-Ph5	A-Ph6	A-Ph7	A-Ph8	A-Ph9	A-Ph10	A-Ph11	A-Ph12	A-Ph13	A-Ph14	A-Ph15	A-Ph16	

Term	0.00000e+00	0.00000e+00	0.00000e+00	0.00000e+00	0.00000e+00	0.00000e+00	0.00000e+00	0.00000e+00	0.00000e+00	0.00000e+00	0.00000e+00	0.00000e+00	0.00000e+00	0.00000e+00	0.00000e+00	0.00000e+00	0.00000e+00	0.00000e+00	0.00000e+00	0.00000e+00	0.00000e+00	0.00000e+00	0.00000e+00	0.00000e+00	0.00000e+00	0.00000e+00	0.00000e+00	0.00000e+00	0.00000e+00	0.00000e+00	0.00000e+00	0.00000e+00	0.00000e+00	0.00000e+00	0.00000e+00	0.00000e+00	0.00000e+00	0.00000e+00	0.00000e+00	0.00000e+00	0.00000e+00	0.00000e+00	0.00000e+00	0.00000e+00	0.00000e+00	0.00000e+00	0.00000e+00	0.00000e+00	
Factor	1.00000e+00	1.00000e+00	1.00000e+00	1.00000e+00	1.00000e+00	1.00000e+00	1.00000e+00	1.00000e+00	1.00000e+00	1.00000e+00	1.00000e+00	1.00000e+00	1.00000e+00	1.00000e+00	1.00000e+00	1.00000e+00	1.00000e+00	1.00000e+00	1.00000e+00	1.00000e+00	1.00000e+00	1.00000e+00	1.00000e+00	1.00000e+00	1.00000e+00	1.00000e+00	1.00000e+00	1.00000e+00	1.00000e+00	1.00000e+00	1.00000e+00	1.00000e+00	X	X	X	X	X	X	X	X	X	X	X	X	X	X	X	X	

B = Detector Channel
Val Type	B-AC1	B-AC2	B-AC3	B-AC4	B-AC5	B-AC6	B-AC7	B-AC8	B-AC9	B-AC10	B-AC11	B-AC12	B-AC13	B-AC14	B-AC15	B-AC16	B-DC1	B-DC2	B-DC3	B-DC4	B-DC5	B-DC6	B-DC7	B-DC8	B-DC9	B-DC10	B-DC11	B-DC12	B-DC13	B-DC14	B-DC15	B-DC16	B-Ph1	B-Ph2	B-Ph3	B-Ph4	B-Ph5	B-Ph6	B-Ph7	B-Ph8	B-Ph9	B-Ph10	B-Ph11	B-Ph12	B-Ph13	B-Ph14	B-Ph15	B-Ph16	

Term	0.00000e+00	0.00000e+00	0.00000e+00	0.00000e+00	0.00000e+00	0.00000e+00	0.00000e+00	0.00000e+00	0.00000e+00	0.00000e+00	0.00000e+00	0.00000e+00	0.00000e+00	0.00000e+00	0.00000e+00	0.00000e+00	0.00000e+00	0.00000e+00	0.00000e+00	0.00000e+00	0.00000e+00	0.00000e+00	0.00000e+00	0.00000e+00	0.00000e+00	0.00000e+00	0.00000e+00	0.00000e+00	0.00000e+00	0.00000e+00	0.00000e+00	0.00000e+00	-2.65566e+02	-1.24841e+02	-1.20241e+02	-1.81994e+02	-7.06572e+01	-6.59311e+01	-1.56309e+02	-1.62015e+02	-6.90623e+01	-6.87394e+01	-1.73690e+02	-1.70229e+02	-1.84320e+02	-1.76364e+02	-6.75761e+01	-1.49227e+02	
Factor	6.26878e-05	1.67292e-04	5.27594e-05	1.83783e-01	2.31563e-06	1.97287e-06	1.71397e-01	5.46504e-02	2.81418e-06	1.76473e-06	1.02938e-01	3.00253e-02	5.63014e-02	9.41980e-03	2.03463e-06	1.37220e-02	5.32171e-06	6.03407e-06	1.68690e-06	9.18392e-02	6.45977e-08	6.66728e-08	8.01300e-02	2.73424e-02	6.44674e-08	6.66207e-08	4.98357e-02	1.45750e-02	2.78928e-02	4.75395e-03	6.55589e-08	6.70704e-03	X	X	X	X	X	X	X	X	X	X	X	X	X	X	X	X	



#DISTANCE SETTINGS
A = Detector Channel
A-1	A-2	A-3	A-4	A-5	A-6	A-7	A-8	A-9	A-10	A-11	A-12	A-13	A-14	A-15	A-16	

2.5000e+00	3.0000e+00	2.5000e+00	3.0000e+00	2.0000e+00	3.0000e+00	1.5000e+00	3.0000e+00	3.0000e+00	3.0000e+00	3.0000e+00	3.0000e+00	3.0000e+00	3.0000e+00	1.5000e+00	3.0000e+00	

B = Detector Channel
B-1	B-2	B-3	B-4	B-5	B-6	B-7	B-8	B-9	B-10	B-11	B-12	B-13	B-14	B-15	B-16	

1.0000e+01	1.0000e+01	1.0000e+01	1.4400e+00	1.0000e+01	1.0000e+01	1.5100e+00	1.9400e+00	1.0000e+01	1.0000e+01	1.9900e+00	2.4900e+00	2.4100e+00	2.9000e+00	1.0000e+01	2.9800e+00	




#DATA BEGINS
time	group	step	mark	flag	A-AC1	A-AC2	A-AC3	A-AC4	A-AC5	A-AC6	A-AC7	A-AC8	A-AC9	A-AC10	A-AC11	A-AC12	A-AC13	A-AC14	A-AC15	A-AC16	A-DC1	A-DC2	A-DC3	A-DC4	A-DC5	A-DC6	A-DC7	A-DC8	A-DC9	A-DC10	A-DC11	A-DC12	A-DC13	A-DC14	A-DC15	A-DC16	A-Ph1	A-Ph2	A-Ph3	A-Ph4	A-Ph5	A-Ph6	A-Ph7	A-Ph8	A-Ph9	A-Ph10	A-Ph11	A-Ph12	A-Ph13	A-Ph14	A-Ph15	A-Ph16	B-AC1	B-AC2	B-AC3	B-AC4	B-AC5	B-AC6	B-AC7	B-AC8	B-AC9	B-AC10	B-AC11	B-AC12	B-AC13	B-AC14	B-AC15	B-AC16	B-DC1	B-DC2	B-DC3	B-DC4	B-DC5	B-DC6	B-DC7	B-DC8	B-DC9	B-DC10	B-DC11	B-DC12	B-DC13	B-DC14	B-DC15	B-DC16	B-Ph1	B-Ph2	B-Ph3	B-Ph4	B-Ph5	B-Ph6	B-Ph7	B-Ph8	B-Ph9	B-Ph10	B-Ph11	B-Ph12	B-Ph13	B-Ph14	B-Ph15	B-Ph16	aux-1	digaux	

842.542	1	1	0	256	0.27436	0.15617	0.058866	0.064371	0.10764	0.27822	0.19589	0.18927	0.25936	0.055825	0.12357	0.11109	0.17207	0.098314	0.16145	0.15537	-2.5104	-2.6042	-2.9646	-3.0542	-2.6208	-3.2333	-2.8604	-3.0417	-2.9625	-2.6875	-2.9979	-2.8271	-2.9229	-2.9813	-2.825	-2.875	455.527	235.629	407.047	262.544	196.174	287.740	432.484	424.719	306.834	462.695	433.072	440.774	469.368	175.370	216.435	501.514	0.00095628	0.00026682	8.8038e-05	1102.3	3.4212e-06	2.796e-06	1161.6	229.59	3.9199e-06	2.2505e-06	289.4	80.841	64.892	18.117	3.8691e-06	25.884	0.0002816	0.00025204	7.0544e-05	1086.1	2.7406e-06	2.6051e-06	1147	228.03	2.4664e-06	2.4583e-06	287.5	80.368	64.105	18.339	2.3021e-06	26.239	421.154	280.123	266.512	165.595	315.199	336.245	165.105	172.499	282.254	283.686	172.387	178.705	178.998	186.433	290.831	185.676	-8191	255	
842.662	1	1	0	0	0.42355	0.19029	0.20672	0.27834	0.090938	0.20258	0.40096	0.11894	0.2055	0.099277	0.17368	0.15297	0.010578	0.23038	0.20714	0.086814	-2.5104	-2.4938	-3.0042	-3.0479	-2.4708	-3.1188	-2.6833	-2.825	-3.0771	-2.6771	-2.9771	-2.9021	-2.6979	-2.9583	-2.6333	-2.7062	470.131	259.816	512.472	512.757	506.804	336.945	426.533	488.662	479.151	375.555	451.459	488.685	378.595	162.141	352.014	380.399	0.0009398	0.00034701	0.00013955	1087.5	4.9866e-06	3.5949e-06	1161	230.36	6.8028e-06	4.9363e-06	289.17	80.877	65.104	18.324	3.1242e-06	25.938	0.00023662	0.00019876	5.7397e-05	1074.5	2.3002e-06	2.2376e-06	1140.9	227.7	2.267e-06	2.1623e-06	287.19	80.412	63.955	18.448	2.1733e-06	26.291	417.353	238.966	253.548	165.577	311.099	285.960	165.415	172.746	295.633	315.506	172.350	178.778	179.281	186.035	314.482	185.810	-8191	255	
842.757	1	1	0	0	0.066019	0.18966	0.043003	0.19184	0.25154	0.062114	0.12217	0.19484	0.15113	0.010489	0.12532	0.17423	0.11514	0.17949	0.095692	0.06477	-2.6417	-2.7292	-2.7	-3.1792	-2.8542	-3.0479	-2.8542	-2.8896	-2.9896	-2.5854	-3.0417	-2.9958	-2.4958	-3.0729	-2.9208	-2.8542	423.517	460.366	186.876	490.021	375.585	158.710	472.152	288.799	339.883	185.643	496.439	474.923	414.159	154.900	471.499	276.863	0.000845	0.00020195	0.00014307	1090.2	4.3444e-06	2.5265e-06	1146.5	230.79	6.7104e-06	2.9802e-06	289.85	81.054	65.166	18.398	4.8963e-06	26.232	0.00022442	0.0001966	5.2385e-05	1071.2	2.0769e-06	2.0457e-06	1133.2	227.65	2.1082e-06	2.0067e-06	287.05	80.491	64.123	18.515	1.8855e-06	26.494	418.985	283.298	235.413	165.665	257.531	266.921	165.252	172.706	264.915	288.146	172.563	178.675	179.260	186.035	311.176	185.544	-8191	255	
842.853	1	1	0	0	0.029944	0.03781	0.055051	0.20047	0.14906	0.24596	0.16544	0.045905	0.12513	0.059682	0.13758	0.18279	0.13149	0.41014	0.035896	0.19813	-2.5292	-2.7208	-3.0312	-3.0146	-2.6833	-2.975	-3.1521	-2.7562	-3.0917	-2.8083	-3.0667	-3.0896	-2.7083	-3.0146	-2.7917	-2.7417	454.012	496.720	387.304	203.863	363.641	297.571	164.574	457.502	457.749	475.537	211.874	463.330	488.767	339.405	476.205	395.558	0.00094831	0.00048521	3.5244e-05	1084.7	4.0128e-06	4.6178e-06	1158.5	233.51	7.507e-06	1.6974e-06	291.83	81.661	65.416	18.5	1.9833e-06	26.453	0.0001984	0.00016262	4.4003e-05	1071	1.7506e-06	1.6706e-06	1137.6	230.59	1.7637e-06	1.7001e-06	289.45	81.088	64.323	18.648	1.8899e-06	26.504	418.098	288.666	240.705	165.714	247.970	310.109	165.260	172.210	291.426	363.197	172.082	178.869	179.254	185.759	307.831	185.153	-8191	255	
842.951	1	1	0	0	0.31649	0.080393	0.24731	0.046969	0.19387	0.14989	0.026644	0.32827	0.22562	0.13713	0.39789	0.04791	0.10275	0.13837	0.20584	0.14171	-2.4562	-2.6479	-2.6583	-2.9854	-2.5917	-2.9958	-2.9667	-2.9083	-3.2188	-3.1271	-2.7792	-2.9375	-2.9437	-2.9083	-2.9521	-2.9083	462.038	492.082	340.013	501.707	257.082	245.768	330.690	395.465	388.134	301.914	419.485	510.006	455.605	364.982	449.620	192.357	0.00097251	0.00045558	5.6808e-05	1085.8	7.2576e-06	2.0859e-06	1148.6	231.53	1.2091e-05	5.4223e-06	289.18	80.956	65.382	18.178	3.2814e-06	25.856	0.0002097	0.00017759	5.1366e-05	1067.4	2.153e-06	1.9777e-06	1132.1	228.61	2.1288e-06	2.1005e-06	287.28	80.324	64.031	18.333	2.0467e-06	26.264	416.270	255.054	250.464	165.537	278.456	302.987	165.118	172.622	273.049	329.771	172.334	178.451	178.601	186.607	294.977	185.734	-8191	255	
843.045	1	1	0	0	0.063951	0.20866	0.12262	0.30906	0.40857	0.11527	0.23915	0.049814	0.12235	0.23077	0.20981	0.28435	0.11884	0.1185	0.067902	0.30705	-2.6583	-2.825	-2.6937	-3.3187	-2.8812	-2.9021	-3.1458	-2.6146	-2.8729	-3.0938	-2.7729	-3.0563	-2.6312	-2.8417	-2.9208	-2.5104	368.960	249.527	493.927	159.033	219.805	177.143	451.415	173.938	431.049	348.931	383.531	486.722	214.659	347.290	454.451	321.307	0.00093936	0.00026669	5.2771e-05	1086.1	5.317e-06	2.9794e-06	1155.1	232.12	6.4418e-06	3.2021e-06	290.71	81.399	65.767	18.264	2.8358e-06	25.879	0.0002174	0.00017973	4.7455e-05	1069.7	1.9406e-06	1.883e-06	1135.8	229.08	1.8536e-06	1.6911e-06	288.48	80.62	64.006	18.435	1.4819e-06	26.323	416.486	242.424	259.252	165.686	268.358	296.692	165.104	172.577	279.667	295.141	172.524	178.760	178.927	186.441	304.913	185.040	-8191	255	
843.141	1	1	0	0	0.35358	0.28359	0.12682	0.11017	0.15841	0.16509	0.22914	0.33825	0.13226	0.2102	0.064505	0.16575	0.15485	0.18224	0.35097	0.26448	-2.6937	-2.9479	-2.6167	-3.1271	-2.7479	-2.8354	-3.0917	-2.8417	-2.8333	-2.9625	-2.6292	-3.0354	-2.7229	-2.7583	-3.2458	-2.5583	211.073	258.106	378.797	442.891	496.638	507.041	446.067	175.331	198.746	168.011	262.183	276.621	504.304	253.555	205.651	508.654	0.00088994	0.00028866	4.7654e-05	1078.2	6.4238e-06	2.7794e-06	1147.2	231.23	6.7577e-06	3.744e-06	289.02	81.68	66.181	18.599	4.4323e-06	26.216	0.00017062	0.00012815	3.4297e-05	1061.7	1.3556e-06	1.2943e-06	1129.4	228.66	1.3732e-06	1.2521e-06	287.14	81.034	64.426	18.646	1.2979e-06	26.558	420.575	217.869	258.194	165.617	263.957	329.189	165.317	172.792	284.095	289.367	172.412	178.753	178.432	186.064	303.973	185.576	-8191	255	
843.262	1	1	0	0	0.1505	0.052294	0.22627	0.2513	0.23204	0.028613	0.37553	0.058371	0.10619	0.11466	0.074096	0.2105	0.04452	0.42552	0.19773	0.10934	-2.4583	-2.9458	-2.6292	-3.1667	-2.7521	-2.8688	-3.0563	-2.675	-2.9979	-2.8521	-2.675	-2.9292	-2.8646	-2.7625	-3.1292	-2.8542	382.896	275.693	498.041	497.168	488.824	321.389	352.462	258.553	508.634	227.351	363.340	174.035	186.991	404.121	509.635	302.391	0.00094239	0.00024721	6.5302e-05	1083.4	4.3753e-06	4.7001e-06	1147.6	233.24	4.3602e-06	1.9705e-06	290.61	81.332	65.954	18.409	2.2956e-06	26.359	0.00016715	0.0001197	3.4595e-05	1064	1.4981e-06	1.4146e-06	1130.7	229.78	1.55e-06	1.4355e-06	288.48	80.858	64.323	18.549	1.5263e-06	26.545	419.530	242.386	346.691	165.765	271.599	318.811	165.222	172.440	297.603	300.754	172.345	178.730	179.070	186.172	293.111	185.371	-8191	255	
843.358	1	1	0	0	0.12198	0.31101	0.095988	0.092351	0.23789	0.031428	0.18811	0.12193	0.30024	0.19861	0.14764	0.22184	0.054366	0.16811	0.12502	0.23741	-2.3688	-2.9188	-2.8271	-3.0479	-2.65	-2.9229	-3.1042	-2.7771	-2.8583	-3.0792	-2.6854	-3.0854	-2.9417	-2.5771	-3.1417	-2.7896	460.345	470.148	507.285	470.462	319.473	488.180	423.801	400.136	348.674	244.043	430.615	477.851	172.129	240.171	257.569	236.248	0.00092245	0.00029569	0.00011198	1094.3	4.1685e-06	4.1005e-06	1158.3	234.58	6.3754e-06	1.4097e-06	293.92	81.791	66.61	18.508	3.0606e-06	26.217	0.00018241	0.00014296	4.1824e-05	1078.6	1.7038e-06	1.6097e-06	1144	232.09	1.7562e-06	1.6682e-06	291.55	81.379	64.903	18.616	1.7639e-06	26.538	422.006	259.889	229.000	165.519	287.191	308.798	165.178	172.436	293.064	327.756	171.981	178.435	179.127	186.008	297.150	185.185	-8191	255	
843.454	1	1	0	0	0.15668	0.058055	0.091617	0.11012	0.27981	0.11282	0.22364	0.19968	0.064542	0.12988	0.12976	0.28112	0.11137	0.19833	0.26101	0.094527	-2.4479	-2.8729	-2.8833	-3.1271	-2.7979	-2.6854	-3.0542	-2.7333	-2.6292	-3.2938	-2.9042	-3.0708	-2.7292	-2.65	-3.0625	-2.8563	172.957	392.817	415.623	489.562	239.286	221.333	395.865	435.638	210.553	238.060	485.152	427.817	391.495	175.156	288.526	472.950	0.00095688	0.00034408	9.3478e-05	1106.2	6.8476e-06	4.093e-06	1162.6	231.94	6.8781e-06	2.3995e-06	289.34	80.702	65.55	18.216	3.4856e-06	25.785	0.00020654	0.00016498	4.795e-05	1087.8	1.9487e-06	1.8893e-06	1148.7	229.56	2.0056e-06	1.8933e-06	287.52	80.483	64.092	18.299	1.8447e-06	26.144	411.942	241.644	259.980	165.655	302.101	304.247	165.268	172.685	284.435	324.809	172.491	178.711	178.360	186.429	277.313	185.245	-8191	255	
843.550	1	1	0	0	0.2925	0.17956	0.18102	0.31789	0.25779	0.26567	0.18325	0.11468	0.24577	0.171	0.17132	0.19342	0.13106	0.16017	0.053421	0.17515	-2.275	-3.0417	-2.7042	-3.0458	-2.8021	-2.7687	-3.1604	-2.9104	-2.725	-2.9167	-2.7042	-3.0146	-2.9729	-2.6229	-3.0687	-2.95	479.765	473.706	397.502	469.130	365.148	320.227	414.764	368.638	332.749	268.315	507.464	473.271	226.206	418.976	191.497	260.844	0.00092817	0.00035336	4.1179e-05	1088.7	2.3633e-06	3.7453e-06	1148.9	229.46	6.6325e-06	3.8215e-06	286.88	80.202	65.694	18.011	4.38e-06	25.499	0.00019603	0.0001541	4.4e-05	1072.6	1.6822e-06	1.6093e-06	1134.6	226.27	1.5835e-06	1.4376e-06	285.02	79.825	63.623	18.157	1.4396e-06	25.952	421.378	243.883	233.630	165.517	292.698	350.311	165.164	172.891	275.516	320.694	172.357	178.248	178.762	185.993	282.801	185.427	-8191	255	
843.647	1	1	0	0	0.11606	0.1198	0.29547	0.04027	0.06675	0.11546	0.39302	0.171	0.081146	0.13678	0.20564	0.24444	0.089719	0.34284	0.049145	0.2415	-2.2958	-2.8896	-2.8063	-3.0083	-3.2271	-2.6542	-3.1937	-2.8875	-2.8479	-3.2271	-2.9833	-2.7979	-3.0208	-2.7708	-3.0229	-2.8479	206.453	252.934	367.976	467.674	442.198	234.495	440.607	502.232	445.296	175.066	187.858	322.884	391.833	226.607	339.425	445.778	0.0008385	0.00034598	7.8483e-05	1075.1	3.0436e-06	2.8583e-06	1142	227.08	4.9257e-06	2.4126e-06	285.79	80.086	64.509	17.918	2.1944e-06	25.324	0.00016716	0.00012836	3.5977e-05	1060.3	1.4886e-06	1.4204e-06	1124.2	224.42	1.5609e-06	1.4058e-06	283.22	79.405	63.138	18.023	1.4551e-06	25.719	418.812	277.393	262.629	165.864	269.006	295.016	165.353	172.719	300.797	319.737	172.648	178.697	178.360	185.943	317.565	185.723	-8191	255	
843.743	1	1	0	0	0.15223	0.2799	0.055614	0.36363	0.20928	0.10861	0.29163	0.17272	0.25163	0.11938	0.16902	0.14787	0.18145	0.017771	0.11104	0.1309	-2.2542	-2.8771	-2.6792	-2.8729	-3.0833	-2.7021	-3.225	-2.6583	-2.625	-3.1292	-2.9313	-2.7438	-3.0062	-2.6646	-2.8979	-2.9333	306.379	421.358	192.135	167.334	383.670	188.726	461.147	441.143	496.471	317.028	417.543	182.178	161.472	443.293	186.245	445.595	0.00092033	0.00033642	7.7994e-05	1070.4	4.8449e-06	4.6252e-06	1140.3	225.4	5.9742e-06	2.2315e-06	284.08	79.622	63.704	17.933	3.2608e-06	25.257	0.00017588	0.00012899	3.6641e-05	1055.4	1.5256e-06	1.3694e-06	1122.2	223.11	1.4927e-06	1.3759e-06	281.62	79.007	62.629	17.974	1.4255e-06	25.636	419.783	247.774	274.718	165.627	294.492	308.368	165.284	172.699	268.929	310.616	172.543	178.775	178.526	185.935	282.713	185.281	-8191	255	
843.839	1	1	0	0	0.27589	0.095661	0.21892	0.15166	0.18721	0.14386	0.081128	0.24425	0.052458	0.028056	0.28881	0.045763	0.12688	0.099157	0.031326	0.11177	-2.425	-2.8854	-2.7604	-3.0646	-3.0958	-2.9083	-3.0938	-3.0812	-2.8	-3.0521	-2.9625	-2.775	-3.1354	-2.8625	-2.9875	-3.0167	212.630	326.975	439.831	384.793	243.962	273.952	470.560	476.287	449.988	399.836	378.004	458.981	454.333	249.042	292.284	452.323	0.00093617	0.00021991	9.7969e-05	1078.6	4.2912e-06	1.3489e-06	1149.4	226.68	5.5408e-06	1.8411e-06	284.03	79.372	64.128	17.975	2.8242e-06	25.515	0.00016815	0.00012141	3.4574e-05	1063	1.4957e-06	1.3833e-06	1128	223.9	1.4071e-06	1.3273e-06	281.68	79.144	62.809	18.018	1.3464e-06	25.733	417.126	255.240	250.910	165.746	285.247	299.396	165.441	172.663	286.925	323.943	172.159	178.628	178.979	186.387	297.283	185.805	-8191	255	
843.958	1	1	0	0	0.1941	0.036011	0.15424	0.15586	0.2375	0.052644	0.257	0.1694	0.09685	0.091988	0.16178	0.084967	0.052249	0.18372	0.26768	0.099488	-2.15	-2.9292	-2.7667	-2.8375	-3.0146	-2.8458	-2.9375	-3.0458	-2.8917	-3.0792	-2.9	-2.7208	-3.0812	-2.6646	-2.675	-3.0604	221.495	440.107	201.178	420.223	269.619	498.021	387.032	397.097	513.595	406.916	463.181	483.814	277.812	205.447	434.678	321.011	0.0010305	0.00028732	9.6398e-05	1083.4	3.8108e-06	2.5402e-06	1142.1	226.71	5.7442e-06	3.1517e-06	284.39	79.456	64.404	17.869	4.4465e-06	25.307	0.00016791	0.00012484	3.3675e-05	1064.6	1.4883e-06	1.3353e-06	1124.5	223.27	1.4437e-06	1.3485e-06	281.01	79.164	62.74	18.007	1.3031e-06	25.678	418.409	244.644	213.870	165.712	302.200	306.627	165.359	172.791	264.842	273.364	172.525	178.418	178.862	186.682	283.614	185.836	-8191	255	
844.054	1	1	0	0	0.12006	0.194	0.18333	0.12891	0.1892	0.15755	0.26936	0.099851	0.063208	0.078712	0.26236	0.22538	0.070744	0.16272	0.23949	0.037409	-2.25	-2.9688	-2.9771	-2.8812	-3.0833	-2.8312	-2.8625	-3.0667	-2.75	-3.0417	-2.8875	-2.7417	-2.9771	-2.8021	-2.8479	-2.9542	395.917	167.972	445.944	184.527	248.093	253.908	433.614	162.124	336.308	183.665	493.247	471.931	269.324	508.387	503.733	390.402	0.00094648	0.00031382	8.5975e-05	1077.5	3.5545e-06	5.1115e-06	1131.9	223.81	7.0658e-06	9.7453e-07	282.28	79.249	64.634	17.826	2.2031e-06	25.374	0.00016304	0.0001146	3.2272e-05	1059.3	1.3399e-06	1.2215e-06	1119.2	221.78	1.3268e-06	1.2408e-06	279.48	78.837	62.587	17.921	1.2479e-06	25.613	417.229	279.195	240.622	165.834	262.659	321.232	165.141	173.041	288.333	303.968	172.487	178.324	178.620	187.156	314.008	185.366	-8191	255	
844.150	1	1	0	0	0.18536	0.23249	0.2126	0.22722	0.08394	0.25622	0.12917	0.18545	0.21624	0.092369	0.17788	0.13951	0.058272	0.16196	0.42144	0.44565	-2.1917	-2.9458	-2.9021	-2.6771	-2.9646	-2.8937	-3.1104	-3.0062	-2.5708	-2.9125	-2.8375	-2.6188	-2.9958	-2.8063	-2.4688	-3.1146	345.392	319.712	421.182	447.081	451.491	491.174	276.369	173.357	366.325	460.207	483.405	302.905	177.660	281.787	345.174	313.469	0.00085374	0.00035186	0.00011428	1071.3	3.6839e-06	2.0868e-06	1133.2	223.49	6.2327e-06	2.9793e-06	282.26	78.896	63.605	17.703	1.7911e-06	25.146	0.00015258	0.00011369	3.1837e-05	1054.1	1.3084e-06	1.2097e-06	1115.9	221.13	1.3773e-06	1.2348e-06	278.95	78.61	62.147	17.826	1.2354e-06	25.467	419.220	261.272	244.551	165.505	280.453	298.591	165.463	172.621	274.075	296.463	172.120	178.975	178.591	186.478	295.745	185.550	-8191	255	
844.246	1	1	0	0	0.24896	0.20441	0.30958	0.10596	0.12223	0.053058	0.20989	0.15412	0.061944	0.15718	0.1473	0.26688	0.24693	0.1584	0.15603	0.15588	-2.1937	-2.8	-2.9833	-3.0854	-3.0083	-2.8229	-2.7812	-3.0979	-2.8417	-2.8833	-3.1083	-2.8792	-2.8333	-2.9625	-2.7542	-2.9313	268.243	507.825	453.497	488.685	503.441	266.923	501.134	455.226	461.744	400.600	187.278	485.126	155.057	449.676	291.531	487.756	0.00088236	0.00021051	8.325e-05	1060.6	4.7232e-06	2.4637e-06	1126.3	222.44	6.0559e-06	2.3779e-06	280.8	78.769	63.708	17.634	4.3855e-06	25.243	0.00015359	0.00011431	3.0624e-05	1046	1.3195e-06	1.1468e-06	1106.6	219.87	1.3006e-06	1.1682e-06	278.26	78.188	62.036	17.767	1.1951e-06	25.478	414.660	260.945	216.056	165.676	282.742	323.563	165.312	172.690	303.149	292.232	172.557	178.664	179.035	186.406	273.333	185.664	-8191	255	
844.342	1	1	0	0	0.14149	0.20225	0.20293	0.25098	0.26739	0.15999	0.4123	0.070136	0.2105	0.007622	0.093767	0.21329	0.14329	0.20009	0.06166	0.22724	-2.3187	-2.6667	-2.9813	-2.8208	-2.9667	-2.8479	-2.7354	-3.1333	-2.7104	-2.6125	-3.0625	-2.6854	-3.0146	-3.0812	-2.475	-2.9437	485.201	462.164	213.470	478.228	178.898	186.392	462.345	354.371	416.095	381.572	431.082	430.643	293.110	456.038	257.031	261.760	0.0009144	0.00033308	9.1667e-05	1052.8	3.0589e-06	2.0713e-06	1115.3	221.94	6.2051e-06	3.1937e-06	279.15	78.704	63.323	17.786	2.2651e-06	25.08	0.00014968	0.00010704	2.9155e-05	1038.4	1.2481e-06	1.1518e-06	1099.5	219.2	1.1984e-06	1.1346e-06	276.52	77.771	61.689	17.759	1.1918e-06	25.391	415.638	249.581	270.459	165.545	268.341	319.691	165.267	172.690	261.394	332.123	172.626	178.813	179.022	186.414	335.243	185.638	-8191	255	
844.437	1	1	0	0	0.17882	0.18298	0.097387	0.25544	0.19563	0.26274	0.37947	0.31463	0.15078	0.13112	0.047285	0.058864	0.096727	0.14005	0.11803	0.24336	-2.4021	-2.4938	-3.125	-2.8354	-2.8292	-3.0167	-3.0375	-2.9333	-2.8958	-2.7167	-3.0292	-2.7354	-2.7708	-3.1667	-2.6229	-2.8667	175.410	434.131	385.839	457.211	345.186	209.270	414.635	504.973	243.103	492.471	354.181	491.275	439.754	359.795	494.790	404.641	0.00089256	0.00019499	8.2864e-05	1047.9	1.8504e-06	1.1012e-06	1105.7	220.38	6.6946e-06	3.45e-06	277.54	78.005	62.929	17.455	3.5232e-06	24.969	0.00014074	0.00010169	2.6516e-05	1030.1	1.1782e-06	1.019e-06	1090.6	217.24	1.1197e-06	1.0051e-06	274.46	77.454	61.111	17.583	1.036e-06	25.178	419.228	282.549	247.596	165.833	295.771	269.005	165.349	172.780	280.458	310.117	172.604	178.697	178.702	186.961	282.930	185.572	-8191	255	
844.533	1	1	0	0	0.17672	0.23201	0.17577	0.2461	0.20025	0.066895	0.24911	0.041349	0.11791	0.046302	0.14041	0.15161	0.25775	0.18562	0.13535	0.10787	-2.4437	-2.8021	-3.0208	-2.8021	-2.6708	-2.9167	-2.7875	-3.0146	-2.8	-2.6979	-3.2083	-2.8312	-2.4813	-3.0917	-2.6042	-2.8	240.114	258.885	479.653	493.169	191.502	376.394	417.562	436.046	182.690	428.448	407.170	168.249	285.094	204.392	239.828	348.433	0.00088767	0.00026132	0.00011131	1032.1	5.32e-06	2.6167e-06	1095.7	218.59	5.3195e-06	1.5524e-06	274.47	77.427	61.995	17.291	3.7699e-06	24.997	0.00013226	8.7859e-05	2.4934e-05	1014.4	1.0325e-06	9.4953e-07	1074.7	214.83	1.0014e-06	9.0909e-07	271.04	76.79	60.631	17.402	9.6057e-07	25.153	414.731	273.315	255.772	165.983	257.911	318.670	165.264	173.133	271.073	322.789	172.762	178.959	179.509	186.514	291.680	185.881	-8191	255	
844.629	1	1	0	0	0.47252	0.16267	0.069945	0.088389	0.072918	0.35386	0.15447	0.040393	0.15603	0.11847	0.16008	0.017451	0.14283	0.2409	0.2881	0.17678	-2.475	-2.6437	-2.9854	-3.0021	-2.6813	-3.0583	-2.8479	-2.8021	-2.9771	-2.4146	-3.1917	-2.8104	-2.7021	-3.1354	-2.6771	-2.8042	424.734	339.150	468.975	257.464	364.604	411.900	472.174	443.321	370.111	291.504	435.970	175.777	480.121	216.804	390.930	499.382	0.0008877	0.00026202	9.8766e-05	1013.2	5.0641e-06	2.3299e-06	1079.6	216.11	9.0978e-06	3.0716e-06	272.44	76.865	61.486	17.328	4.1389e-06	24.646	0.0001261	8.2453e-05	2.1596e-05	997.43	1.0388e-06	8.8022e-07	1061.7	213.07	9.932e-07	9.1506e-07	269.53	76.36	60.205	17.363	9.6208e-07	24.948	419.318	223.611	250.548	165.902	272.527	320.934	165.672	172.846	285.856	320.021	172.709	179.036	179.302	186.636	282.213	185.764	-8191	255	
844.750	1	1	0	0	0.053152	0.059163	0.051986	0.21702	0.24395	0.034275	0.29539	0.21517	0.058315	0.23205	0.17807	0.14415	0.15723	0.073312	0.15085	0.055232	-2.5875	-2.6396	-2.9938	-2.8125	-2.6583	-3.0021	-3.1042	-2.825	-2.8063	-2.7188	-3.1583	-2.9354	-2.6167	-3.0208	-2.7062	-2.8542	453.306	366.608	173.544	471.304	435.616	378.206	412.673	388.178	330.182	256.795	489.855	500.189	493.749	447.830	205.068	269.149	0.00084822	0.00031618	9.4275e-05	1006.2	3.9644e-06	3.7687e-06	1071.9	213.95	6.3817e-06	4.923e-07	269.28	76.381	61.325	17.213	2.0043e-06	24.64	0.00012649	8.3786e-05	2.3272e-05	990.32	1.0426e-06	9.5939e-07	1054.2	211.72	1.0123e-06	9.3297e-07	267.62	75.927	59.822	17.277	1.0409e-06	24.926	416.826	264.224	282.080	165.836	289.377	312.290	165.573	173.231	286.358	325.525	172.729	179.045	179.220	186.726	307.925	185.132	-8191	255	
844.846	1	1	0	0	0.15218	0.32832	0.10174	0.10914	0.18153	0.12286	0.17643	0.069983	0.11772	0.11823	0.33227	0.13709	0.21162	0.14643	0.43037	0.21827	-2.6063	-2.6229	-2.825	-2.9833	-2.5896	-2.8688	-3.0021	-2.7833	-2.9	-2.8167	-3.0458	-3.075	-2.775	-3	-2.8854	-2.7792	317.755	429.335	169.076	181.043	182.764	390.620	383.023	287.958	248.134	320.342	402.361	441.637	497.527	409.127	462.297	342.334	0.00085687	0.00022608	5.4389e-05	1005.1	2.5304e-06	1.1855e-06	1073.1	214.55	7.5033e-06	3.4717e-06	270.61	76.573	60.852	17.324	2.614e-06	24.627	0.00012879	9.3792e-05	2.5465e-05	990.33	1.1083e-06	9.3425e-07	1055.5	212.12	1.0645e-06	9.5642e-07	268.74	76.194	60.031	17.36	9.3722e-07	24.934	415.391	265.002	251.942	165.808	278.444	277.716	165.536	172.983	292.455	311.901	172.657	178.892	179.180	186.708	293.059	185.801	-8191	255	
844.942	1	1	0	0	0.034776	0.08811	0.17339	0.35961	0.044418	0.44606	0.34469	0.052455	0.045824	0.013148	0.17385	0.19285	0.1186	0.31261	0.018029	0.16315	-2.5146	-2.6417	-2.725	-2.9542	-2.8042	-3.05	-3.0396	-2.7958	-2.9	-2.725	-2.9604	-3.0812	-2.6771	-2.8729	-2.8979	-2.8396	497.497	242.928	158.740	460.293	449.953	284.369	368.939	495.517	301.813	238.120	358.606	450.423	513.770	234.766	363.457	168.725	0.00089704	0.00033253	9.8796e-05	1013	4.5384e-06	2.6869e-06	1081.4	215.81	5.1938e-06	3.1456e-06	273.23	77.226	62.556	17.436	2.3518e-06	24.93	0.0001342	8.8525e-05	2.4523e-05	997.35	1.0447e-06	9.6328e-07	1064.1	212.91	1.0651e-06	1.048e-06	270.09	76.707	60.6	17.501	1.0361e-06	25.097	416.193	265.905	263.091	165.916	270.246	264.717	165.223	172.965	276.490	326.123	172.747	178.753	179.004	186.827	314.037	185.578	-8191	255	
845.038	1	1	0	0	0.058263	0.081822	0.064507	0.15253	0.043699	0.25444	0.17631	0.18889	0.18225	0.37989	0.29347	0.090104	0.1502	0.31491	0.40872	0.21547	-2.5479	-2.6833	-2.6979	-3.0563	-2.8042	-2.9896	-3.1354	-2.6729	-3.0542	-2.7604	-2.5833	-3.1104	-2.7792	-3.0875	-2.7979	-2.6146	425.047	307.470	253.460	480.169	388.909	376.902	457.080	162.238	460.292	483.894	271.538	509.358	485.476	470.936	502.255	318.592	0.0009578	0.00027781	8.2731e-05	1022.8	2.7243e-06	2.0881e-06	1086.5	216.99	6.9972e-06	2.7779e-06	273.93	77.728	62.429	17.614	3.7885e-06	24.776	0.00013699	9.4936e-05	2.6519e-05	1004.9	1.1955e-06	1.084e-06	1070.1	214.01	1.2214e-06	1.1044e-06	271.33	77.157	60.799	17.596	1.1817e-06	25.203	419.376	248.655	239.803	165.897	266.837	343.653	165.440	173.068	264.235	297.414	172.130	178.771	178.406	186.271	329.555	185.619	-8191	255	
845.134	1	1	0	0	0.25196	0.12486	0.17565	0.19409	0.1604	0.49391	0.4104	0.12713	0.20982	0.093023	0.10587	0.04954	0.18898	0.19786	0.19642	0.16034	-2.6063	-2.7438	-2.775	-3.3292	-2.6021	-2.7917	-3.0104	-2.6562	-2.8792	-2.9146	-2.7229	-2.9125	-2.7396	-2.8354	-2.9813	-2.8646	371.242	339.612	160.098	450.321	252.030	257.449	392.269	347.821	316.295	510.529	410.318	415.210	432.814	471.735	320.373	433.569	0.00085994	0.00028023	4.518e-05	1026.2	4.2944e-06	4.2241e-06	1095.9	218.22	6.1323e-06	4.151e-06	276.77	78.146	62.789	17.59	2.7406e-06	25.105	0.00014605	0.00011005	3.0505e-05	1011.9	1.3241e-06	1.234e-06	1078.3	215.38	1.2888e-06	1.1842e-06	273.79	77.667	61.321	17.75	1.1814e-06	25.428	413.309	278.125	251.635	165.753	271.092	296.624	165.625	173.063	298.315	254.325	172.613	179.000	179.027	186.472	307.687	185.727	-8191	255	
845.230	1	1	0	0	0.17829	0.11914	0.20019	0.25957	0.21614	0.032842	0.40957	0.14986	0.12447	0.14433	0.33011	0.098044	0.16367	0.10308	0.1648	0.052057	-2.5438	-3.0042	-2.6604	-3.2333	-2.5938	-2.7917	-3.2104	-2.825	-2.9083	-2.8937	-2.9292	-3.0667	-2.7833	-2.9458	-3.1063	-2.6875	458.039	248.993	211.484	164.116	451.005	512.818	415.517	503.082	379.557	467.441	508.887	168.192	166.895	298.409	159.829	379.898	0.00097214	0.00035037	6.1828e-05	1030.6	5.5051e-06	3.7764e-06	1101.7	219.19	5.0075e-06	2.368e-06	275.96	78.617	63.173	17.649	2.8588e-06	25.265	0.00014985	0.00011086	3.0557e-05	1017.8	1.3124e-06	1.1852e-06	1084.1	216.91	1.2957e-06	1.2107e-06	274.91	77.979	61.687	17.78	1.1682e-06	25.557	417.357	245.927	245.399	165.505	306.387	303.771	165.249	172.953	256.059	319.978	172.504	178.728	178.452	186.247	326.783	185.870	-8191	255	
845.349	1	1	0	0	0.12314	0.21932	0.1946	0.025606	0.081488	0.066043	0.047644	0.1538	0.1194	0.19506	0.074326	0.26675	0.1998	0.11744	0.188	0.061651	-2.5125	-2.7604	-2.6042	-3.2104	-2.8104	-2.8604	-3.2396	-2.7667	-2.9854	-2.8604	-2.7583	-3.1979	-2.8875	-2.8438	-3.0958	-2.6063	490.103	169.989	371.171	471.413	196.849	301.448	486.828	508.028	459.270	346.178	319.002	465.216	392.586	384.558	452.686	181.378	0.00090023	0.00027951	0.00010872	1040	6.9935e-06	3.3418e-06	1109.9	222.15	4.8675e-06	2.565e-06	279.4	79.382	63.45	17.781	2.4579e-06	25.455	0.00015226	0.00010817	3.0835e-05	1025.1	1.2463e-06	1.1165e-06	1090.4	218.85	1.2492e-06	1.1367e-06	276.5	78.366	61.905	17.941	1.1291e-06	25.713	417.067	247.576	253.955	165.616	288.345	310.335	165.510	172.627	298.341	311.999	172.506	178.747	179.302	186.666	303.518	185.751	-8191	255	
845.446	1	1	0	0	0.125	0.21889	0.39633	0.11027	0.2385	0.080614	0.16462	0.21257	0.15455	0.13751	0.076647	0.15546	0.11609	0.0053602	0.14618	0.16007	-2.8021	-3.0021	-2.7938	-3.1437	-2.9542	-2.7792	-3.2417	-2.7667	-2.8396	-3.0271	-2.8854	-2.9729	-2.9167	-2.9771	-3.0917	-2.7958	346.548	215.303	389.280	452.054	367.925	386.297	468.858	194.205	327.271	205.568	353.495	467.651	253.941	396.927	162.528	463.885	0.00085303	0.00028035	9.2993e-05	1032	5.5223e-06	1.5848e-06	1099.7	220.7	5.3967e-06	1.5706e-06	278.32	78.464	63.142	17.669	2.129e-06	25.2	0.00014098	9.9462e-05	2.7946e-05	1016.7	1.196e-06	1.175e-06	1082.4	217.58	1.2566e-06	1.1181e-06	275.36	77.868	61.573	17.792	1.1764e-06	25.59	418.508	238.628	263.065	165.690	288.349	291.367	165.460	172.770	285.082	324.465	172.512	178.728	179.094	186.306	301.340	185.827	-8191	255	
845.517	1	1	0	0	0.1463	0.12298	0.33308	0.15721	0.062616	0.22404	0.36284	0.22582	0.1556	0.084186	0.12125	0.16884	0.14731	0.16599	0.22055	0.088548	-2.4021	-3.0021	-2.8167	-3.1292	-2.8333	-2.675	-3.1208	-2.9271	-2.7979	-2.8833	-2.7104	-3.0667	-2.8646	-2.7333	-3.0125	-2.7771	248.202	298.343	411.681	506.902	477.148	483.609	440.326	450.991	509.221	476.405	301.039	352.678	511.447	513.047	249.244	221.638	0.00088928	0.00026992	4.3555e-05	1036.4	3.7694e-06	2.3029e-06	1095.2	220.73	4.9212e-06	4.7749e-06	278.7	78.485	63.279	17.724	1.5924e-06	25.28	0.0001487	0.00010004	2.9327e-05	1016.9	1.1972e-06	1.1204e-06	1082.6	218.16	1.2235e-06	1.1446e-06	275.79	77.92	61.527	17.843	1.1892e-06	25.55	415.888	253.881	300.582	165.678	283.793	309.705	165.612	172.977	269.843	292.271	172.393	178.760	178.838	186.617	336.517	185.859	-8191	255	
845.638	1	1	0	0	0.056063	0.33953	0.089353	0.11678	0.09494	0.032261	0.15193	0.14252	0.071632	0.20955	0.070599	0.18995	0.14204	0.11418	0.071154	0.21252	-2.3417	-2.8708	-2.6354	-2.9188	-2.7646	-2.6458	-3.0792	-2.7521	-2.8	-2.8708	-2.725	-3.1375	-2.9354	-2.4625	-2.9417	-3.0979	510.020	199.322	367.298	455.784	204.977	258.786	462.463	431.905	510.306	287.041	513.314	310.323	477.754	465.407	180.602	469.370	0.00087815	0.00020668	5.8792e-05	1039.8	4.3663e-06	3.6656e-06	1104	220.92	5.6335e-06	3.9586e-06	279.72	79.396	63.508	17.784	3.438e-06	25.497	0.00014281	0.00010726	2.9268e-05	1021.2	1.2438e-06	1.1169e-06	1086.2	218.48	1.2054e-06	1.1239e-06	276.86	78.554	61.916	17.92	1.0932e-06	25.717	413.745	223.691	273.113	165.970	303.025	342.093	165.372	172.770	277.249	312.327	172.496	178.490	179.162	186.444	295.470	185.376	-8191	255	
845.734	1	1	0	0	0.074691	0.14568	0.20028	0.32044	0.1807	0.054036	0.15991	0.31438	0.1296	0.17442	0.16153	0.18363	0.15642	0.2844	0.20117	0.094337	-2.1625	-3.0542	-2.725	-2.9208	-3.1521	-2.7146	-3.0583	-2.925	-2.5958	-2.8083	-2.6521	-2.8542	-2.9729	-2.7313	-2.7208	-2.7854	420.612	239.270	207.538	470.873	334.571	323.907	164.443	470.915	451.237	476.520	491.593	164.636	459.241	220.480	395.016	171.051	0.00089295	0.00027407	9.4965e-05	1039.2	5.8997e-06	4.2079e-06	1110.1	222.77	6.0596e-06	2.5077e-06	280.46	79.042	63.687	17.84	5.5317e-06	25.685	0.00014507	0.00010061	2.8287e-05	1022.8	1.2298e-06	1.1218e-06	1089.1	219.36	1.2067e-06	1.1066e-06	277.62	78.457	62.036	18	1.1474e-06	25.871	416.710	203.729	227.800	165.687	270.562	290.209	165.400	172.721	288.284	301.055	172.207	178.645	178.580	186.690	300.054	185.688	-8191	255	
845.830	1	1	0	0	0.37811	0.055323	0.11876	0.16202	0.088194	0.046701	0.30815	0.087644	0.12211	0.2176	0.23063	0.097516	0.13533	0.14136	0.078029	0.13259	-2.2438	-2.7604	-2.7938	-2.8771	-3.0062	-2.7729	-3.1833	-2.9604	-2.5333	-2.8812	-2.7188	-2.6125	-2.9833	-2.6958	-2.9938	-2.9667	217.036	282.689	253.178	416.622	171.056	445.162	433.559	408.858	285.839	292.373	457.809	434.565	260.050	499.099	239.513	179.378	0.00085976	0.00044258	0.00013161	1042.3	6.4016e-06	2.4117e-06	1110.1	222.67	7.6267e-06	2.6985e-06	281.63	79.503	64.026	17.955	3.9869e-06	25.447	0.00014421	9.999e-05	2.6702e-05	1026.8	1.1877e-06	1.0454e-06	1091.5	220.34	1.2367e-06	1.0877e-06	278.58	78.711	62.195	18.054	1.1172e-06	25.775	417.691	237.004	252.271	165.894	266.598	279.159	165.375	172.759	280.622	325.760	172.174	178.811	178.388	186.161	301.948	185.679	-8191	255	
845.926	1	1	0	0	0.1079	0.27805	0.15737	0.083795	0.14604	0.15943	0.23629	0.16526	0.12803	0.12491	0.049982	0.13561	0.053151	0.099986	0.16969	0.35049	-2.2687	-3.0417	-2.6479	-2.825	-3.0583	-2.65	-3.0708	-2.9292	-2.6521	-3.1375	-3.0938	-2.7708	-3.0938	-2.6271	-2.9938	-3.0104	241.323	323.548	252.773	237.832	328.841	427.063	477.808	358.399	411.783	255.605	510.606	365.852	367.058	343.284	309.773	345.715	0.00089151	0.0002936	6.6712e-05	1038.6	3.9395e-06	3.5369e-06	1106.7	223.81	6.1166e-06	2.2786e-06	281.4	79.264	63.751	17.896	3.3386e-06	25.498	0.00014039	9.8481e-05	2.7106e-05	1023.5	1.212e-06	1.0536e-06	1090.3	220.56	1.1618e-06	1.0622e-06	278.53	78.458	62.067	18.034	1.1003e-06	25.815	415.550	241.068	217.140	165.716	308.639	298.091	165.405	172.679	276.116	306.278	172.313	178.717	179.355	186.761	295.470	185.834	-8191	255	
846.022	1	1	0	0	0.16273	0.083522	0.334	0.073633	0.026362	0.30258	0.32333	0.16064	0.12082	0.11764	0.14253	0.071713	0.1436	0.10726	0.11732	0.18287	-2.3167	-2.8667	-2.8667	-2.7146	-2.9917	-2.7562	-2.9354	-3.0042	-2.6542	-3.0042	-2.9125	-2.8292	-2.9646	-2.6854	-2.9458	-3.0938	297.786	235.682	409.825	374.531	318.288	410.426	425.661	159.975	488.611	450.850	502.808	425.175	442.198	327.223	481.781	373.035	0.00084215	0.00012481	9.3362e-05	1041	4.0158e-06	2.6677e-06	1109.6	224.45	6.4828e-06	2.3824e-06	280.56	79.064	63.563	17.945	3.6708e-06	25.724	0.00014233	0.00010086	2.8442e-05	1023.8	1.2134e-06	1.1023e-06	1092.8	220.86	1.2006e-06	1.1263e-06	278.69	78.674	62.4	18.052	1.1108e-06	25.913	416.605	258.731	265.377	165.750	305.739	252.891	165.304	172.759	281.188	307.304	172.540	178.517	179.060	186.471	302.897	185.970	-8191	255	
846.141	1	1	0	0	0.20363	0.18788	0.42265	0.18607	0.17878	0.014562	0.16005	0.059381	0.18602	0.25538	0.10376	0.10132	0.302	0.11672	0.086933	0.26025	-2.0771	-2.8958	-2.7583	-2.7021	-2.7438	-2.6979	-3.0271	-3.0875	-2.7417	-2.9938	-3.2021	-2.85	-3.1292	-2.8375	-2.7438	-3.0375	157.304	357.577	374.709	397.949	406.573	295.378	497.039	178.293	270.709	255.338	162.286	404.258	478.181	458.230	242.158	259.892	0.00092819	0.00025493	6.9112e-05	1042.6	6.3206e-06	1.9244e-06	1112.5	225.25	4.7028e-06	2.5452e-06	283.87	79.757	64.346	18.116	2.6471e-06	25.826	0.00014751	9.9424e-05	2.6126e-05	1027	1.1667e-06	1.0837e-06	1095.3	222.24	1.1812e-06	1.0891e-06	280.36	79.146	62.601	18.223	1.1242e-06	26.032	417.527	226.880	268.918	165.791	298.026	272.725	165.337	172.808	297.721	288.182	172.399	178.717	178.505	186.335	308.627	185.899	-8191	255	
846.215	1	1	0	0	0.078587	0.18037	0.23743	0.07843	0.15341	0.13585	0.20039	0.07888	0.20824	0.11722	0.16903	0.20128	0.10074	0.17853	0.094341	0.172	-2.2313	-2.9729	-2.9458	-2.5771	-2.9167	-2.7917	-2.7979	-3.2396	-2.8292	-2.7792	-3.0875	-2.6437	-2.85	-2.6771	-2.7458	-2.8708	190.698	287.556	443.603	181.913	338.862	210.348	438.872	171.481	266.656	157.304	158.105	278.144	196.056	426.570	355.590	197.137	0.00088434	0.00025673	9.6412e-05	1047.3	5.9627e-06	3.0081e-06	1120.9	226.9	5.8185e-06	2.0088e-06	285.54	80.097	64.384	18.145	3.7393e-06	25.666	0.00014246	9.6998e-05	2.6948e-05	1035.3	1.1838e-06	1.0744e-06	1103.4	224.01	1.2038e-06	1.0927e-06	281.9	79.529	62.96	18.273	1.1332e-06	26.023	417.648	227.895	252.007	165.761	302.538	309.871	165.453	172.724	278.997	283.057	172.414	178.567	178.737	186.188	302.502	185.669	-8191	255	
846.311	1	1	0	0	0.28413	0.18786	0.12751	0.26991	0.19378	0.066709	0.35515	0.23393	0.21208	0.16878	0.20729	0.16625	0.10333	0.21018	0.14924	0.14473	-2.2979	-2.7854	-2.8375	-2.7167	-2.8438	-2.9917	-2.9458	-2.9292	-2.6188	-2.8438	-3.1354	-3.0125	-2.9042	-2.8479	-2.5917	-2.9292	256.972	346.796	357.375	455.922	473.896	473.525	387.733	490.647	397.453	225.800	442.972	345.986	322.170	244.973	437.875	304.750	0.00085737	0.00026608	8.7326e-05	1061	5.123e-06	3.1229e-06	1131.5	227.99	7.8551e-06	3.2486e-06	286.79	80.328	63.866	18.109	2.6742e-06	25.832	0.00014498	0.00010964	2.9956e-05	1043	1.3236e-06	1.174e-06	1110.1	224.82	1.2642e-06	1.2303e-06	283.1	79.552	62.804	18.253	1.364e-06	26.037	417.747	258.014	255.340	165.723	267.783	346.936	165.369	172.755	296.090	285.143	172.053	178.719	178.872	186.573	269.108	185.898	-8191	255	
846.430	1	1	0	0	0.14965	0.19271	0.058844	0.36604	0.20042	0.049457	0.15698	0.1813	0.22112	0.11942	0.0071715	0.37068	0.12318	0.15707	0.13738	0.14103	-2.4146	-2.5771	-2.9354	-2.7896	-2.9958	-2.9688	-2.8375	-2.9771	-2.7146	-2.6375	-3.1146	-2.8812	-2.8333	-2.9167	-2.5854	-3.0083	378.987	186.825	192.580	505.796	238.100	307.005	434.318	412.276	384.710	277.924	403.785	491.204	351.596	503.436	287.181	276.003	0.00093117	0.00018342	9.3122e-05	1057.8	5.1876e-06	1.8852e-06	1125.8	226.4	7.5123e-06	2.2127e-06	284.93	79.829	64.755	18.004	1.8341e-06	25.666	0.00016136	0.00012331	3.203e-05	1042.7	1.4353e-06	1.2983e-06	1108.5	224.14	1.4294e-06	1.298e-06	281.98	79.141	62.878	18.123	1.4801e-06	25.93	417.814	247.588	241.505	165.699	268.672	321.258	165.356	173.008	295.839	305.480	172.486	178.989	178.958	186.425	281.510	185.594	-8191	255	
846.526	1	1	0	0	0.11794	0.39473	0.24551	0.11252	0.25718	0.16633	0.14064	0.28328	0.035791	0.024836	0.1175	0.17579	0.28274	0.17015	0.16521	0.25011	-2.5625	-2.7896	-3.0208	-2.7125	-2.8021	-3.0146	-2.5312	-2.9688	-2.9083	-2.7354	-2.9375	-2.8583	-2.7167	-2.9667	-2.5812	-2.9458	485.579	466.097	222.995	479.905	312.603	317.760	430.830	439.057	508.259	372.885	279.140	465.478	485.454	172.596	266.676	481.809	0.00087678	0.00050734	5.7427e-05	1059.8	3.9633e-06	1.8813e-06	1124.5	224.11	6.6424e-06	2.9904e-06	284.93	79.673	64.15	17.902	4.2971e-06	25.49	0.00016371	0.00012892	3.5393e-05	1042.6	1.4993e-06	1.4571e-06	1107.8	222.12	1.5029e-06	1.4564e-06	280.71	78.623	62.506	17.992	1.5242e-06	25.697	418.449	238.988	243.036	165.731	294.940	300.135	165.291	173.184	258.542	323.497	172.574	178.862	179.011	186.624	312.847	185.492	-8191	255	
846.622	1	1	0	0	0.22758	0.27401	0.15447	0.36793	0.212	0.061828	0.19857	0.20545	0.28967	0.098409	0.034111	0.35032	0.15614	0.15142	0.23705	0.048107	-2.4417	-2.5042	-2.9042	-2.8917	-2.9729	-2.9479	-2.8167	-3.0104	-2.8354	-2.6125	-3.0333	-2.7542	-2.7542	-3.1188	-2.7417	-2.8125	390.240	300.829	176.779	454.229	291.406	183.444	438.783	379.405	432.870	354.028	497.193	410.032	453.985	294.657	381.524	423.993	0.00093164	0.00036596	9.7383e-05	1052.7	3.9834e-06	2.6456e-06	1118.7	223.63	7.1322e-06	3.5214e-06	282.75	79.142	63.793	17.841	5.7833e-06	25.438	0.0001751	0.00013538	3.8482e-05	1035.2	1.5775e-06	1.4457e-06	1101.1	220.71	1.5793e-06	1.508e-06	279.78	78.808	62.18	17.961	1.5938e-06	25.707	416.831	222.854	276.831	165.757	273.519	274.894	165.475	173.367	294.427	288.147	172.804	178.838	178.799	186.658	293.000	185.711	-8191	255	
846.743	1	1	0	0	0.049178	0.24695	0.089775	0.32597	0.059643	0.082499	0.09008	0.19595	0.26632	0.25397	0.045727	0.047613	0.14741	0.16605	0.066318	0.10722	-2.5125	-2.6437	-2.95	-2.8354	-2.6125	-3.3063	-2.9375	-2.9354	-3.0896	-2.7625	-2.9229	-2.9333	-2.6521	-3.0021	-2.7167	-2.8521	348.648	325.561	337.413	463.497	166.129	293.893	477.245	190.644	273.634	246.431	324.188	353.209	396.060	417.665	487.803	390.065	0.00091775	0.00011891	8.972e-05	1050.2	3.8474e-06	1.8588e-06	1117.8	222.89	3.6729e-06	1.2049e-06	281.64	78.902	63.409	17.804	1.567e-06	25.27	0.00018281	0.00014302	4.0967e-05	1034.3	1.8187e-06	1.6804e-06	1102.4	219.79	1.7597e-06	1.7549e-06	279.14	78.463	62.382	17.926	1.8729e-06	25.643	417.633	314.717	240.033	165.926	301.622	302.030	165.359	173.430	272.946	285.850	172.431	179.210	179.272	186.290	246.768	185.612	-8191	255	
846.814	1	1	0	0	0.15872	0.11273	0.13443	0.44941	0.23225	0.26176	0.13531	0.1586	0.062269	0.20996	0.077293	0.089069	0.32952	0.1165	0.121	0.1191	-2.5563	-2.5812	-2.8958	-2.8771	-2.7896	-3.0687	-2.8042	-2.8354	-2.9042	-2.8625	-2.9958	-2.8521	-2.7	-3.0375	-2.925	-2.7583	452.074	186.374	161.620	462.702	342.270	473.742	500.976	434.866	266.662	301.092	158.930	186.303	418.920	405.912	483.861	478.721	0.00084642	0.00029698	5.2363e-05	1056	1.8041e-06	2.5364e-06	1123.2	222.42	9.8898e-06	3.1588e-06	282.74	79.023	64.058	17.924	5.8942e-06	25.399	0.00020929	0.00016585	4.8143e-05	1039.9	1.9303e-06	1.8511e-06	1108.3	220.03	1.9453e-06	1.9795e-06	280.37	78.78	62.88	18.007	2.0479e-06	25.771	416.973	230.689	230.690	165.852	263.102	297.351	165.650	173.293	293.218	320.742	172.362	178.665	178.777	186.848	320.429	185.813	-8191	255	
846.910	1	1	0	0	0.16859	0.11103	0.15696	0.10345	0.18309	0.24414	0.088043	0.14943	0.32562	0.083606	0.093084	0.18465	0.19367	0.22972	0.20169	0.11626	-2.5604	-2.8083	-2.7479	-3.0792	-2.7375	-3.0292	-3.0042	-2.7729	-2.9104	-2.5958	-2.9792	-3.0271	-2.4979	-3.05	-2.725	-2.85	341.626	295.117	195.161	369.717	407.809	357.312	179.920	191.279	419.848	219.386	414.793	393.912	337.700	333.716	283.286	254.593	0.0008803	0.00029127	5.0726e-05	1060.8	4.872e-06	3.4484e-06	1135.8	225.2	1.0066e-05	2.6965e-06	283.76	79.442	64.132	17.9	4.825e-06	25.332	0.00021729	0.00018875	5.1092e-05	1048	2.1519e-06	2.1158e-06	1114.9	222.04	2.1629e-06	2.1437e-06	281.55	78.769	62.961	17.991	2.1252e-06	25.708	418.792	270.844	276.228	165.652	289.859	317.335	165.395	173.172	297.640	307.794	172.285	178.906	179.047	186.567	295.621	185.461	-8191	255	
847.031	1	1	0	0	0.071594	0.18465	0.084616	0.41253	0.11759	0.10892	0.095613	0.18479	0.21573	0.14134	0.16929	0.24329	0.03821	0.097816	0.084205	0.022831	-2.5625	-2.6021	-2.9896	-3.0292	-2.4521	-3.0646	-2.8646	-2.7313	-2.9729	-2.5563	-2.8104	-3.0896	-2.6042	-3.0229	-2.85	-2.6937	184.958	192.788	178.742	414.684	196.976	172.501	428.422	405.475	468.343	462.326	406.552	225.554	272.291	481.891	344.657	435.235	0.00081316	0.00027551	0.00011973	1068.8	3.0714e-06	5.0789e-06	1130.3	224.58	7.2674e-06	2.75e-06	282.1	79.226	64.589	17.691	4.8164e-06	25.449	0.00022097	0.00018874	5.3218e-05	1050.2	2.1643e-06	2.1099e-06	1114	221.61	2.1469e-06	2.1295e-06	280.75	78.87	63.114	18.004	2.1719e-06	25.766	417.075	270.756	237.077	165.617	292.161	310.801	165.351	173.042	297.913	313.245	172.221	178.586	178.772	186.400	286.131	185.789	-8191	255	
847.127	1	1	0	0	0.15601	0.089343	0.05182	0.43669	0.14047	0.17984	0.13981	0.25196	0.12691	0.22381	0.21752	0.087182	0.27113	0.2433	0.22904	0.12065	-2.5792	-2.8125	-2.7313	-3.1458	-2.6188	-2.9729	-3.0167	-2.8229	-3.0333	-2.7396	-2.8104	-3.1646	-2.5438	-2.9271	-3	-2.6375	327.954	373.075	216.538	508.642	474.436	239.325	467.743	470.798	240.288	358.599	414.495	264.293	355.818	413.767	505.604	355.563	0.0008998	0.00060221	0.00012605	1061.6	3.9055e-06	4.1912e-06	1132.9	224.56	4.5488e-06	2.1575e-06	282.33	79.332	64.01	17.954	4.7691e-06	25.492	0.00022002	0.00019966	5.3678e-05	1048.4	2.2244e-06	2.053e-06	1116	221.93	2.1932e-06	2.1102e-06	280.99	79.001	62.817	18.006	2.1483e-06	25.837	413.350	249.954	251.213	165.572	273.649	288.950	165.517	173.424	275.014	315.126	172.231	178.931	178.919	186.765	297.698	185.600	-8191	255	
847.222	1	1	0	0	0.091023	0.20918	0.19059	0.092814	0.1318	0.056013	0.10278	0.21672	0.15039	0.24112	0.097605	0.083907	0.20766	0.11003	0.20117	0.22437	-2.4229	-2.7833	-2.6083	-3.1312	-2.8146	-2.7104	-2.925	-2.7	-2.7729	-2.8542	-2.8479	-3.0542	-2.6354	-2.9104	-2.7229	-2.8729	427.297	425.621	414.305	244.300	285.446	399.304	401.918	474.791	211.382	220.098	462.742	493.415	314.365	471.757	477.977	421.207	0.00084694	0.000462	7.8053e-05	1063.8	3.3747e-06	2.3802e-06	1136.2	224.72	4.8672e-06	4.0108e-06	284.7	79.502	64.514	17.719	2.7174e-06	25.395	0.00022489	0.00019405	5.5457e-05	1050.2	2.2362e-06	2.1003e-06	1116	222.01	2.1223e-06	2.0533e-06	281.55	79.007	63.069	17.982	2.1303e-06	25.804	414.747	234.475	250.611	165.953	247.999	246.409	165.576	173.472	281.153	305.133	172.583	178.670	178.938	186.678	293.239	185.654	-8191	255	
847.318	1	1	0	0	0.17627	0.034599	0.25315	0.23271	0.16979	0.37488	0.24583	0.35196	0.15028	0.044043	0.45247	0.15021	0.05982	0.042838	0.076116	0.13526	-2.5354	-2.7854	-2.6896	-2.9771	-2.7583	-2.8792	-2.9708	-2.6208	-3.1604	-2.7521	-2.4729	-3.1	-2.6875	-2.6146	-3.1104	-2.7104	305.457	416.392	349.263	484.498	298.727	501.931	462.236	470.227	511.479	482.919	401.532	510.253	484.421	508.176	487.823	338.835	0.00088705	0.00028548	5.6803e-05	1063.6	3.2506e-06	3.845e-06	1134.8	225.29	7.7772e-06	5.2638e-06	283.13	79.829	64.05	17.824	3.2306e-06	25.264	0.00021664	0.00019367	5.3531e-05	1048.8	2.1167e-06	2.1069e-06	1114.6	222.25	2.1235e-06	2.0419e-06	281.16	79.01	63.056	18.041	2.0546e-06	25.777	414.334	284.880	224.899	165.767	275.768	333.746	165.459	173.568	288.842	328.739	172.263	179.173	179.101	186.641	297.137	185.745	-8191	255	
847.438	1	1	0	0	0.27259	0.27125	0.098316	0.10504	0.039517	0.17889	0.26966	0.20283	0.11943	0.094689	0.14908	0.081949	0.13934	0.10115	0.28015	0.15382	-2.6417	-2.8937	-2.5146	-3.0833	-2.7417	-2.7125	-3.2396	-2.7979	-2.7667	-3	-2.8083	-3.1063	-2.6625	-2.6792	-2.8688	-2.7458	161.648	243.003	343.464	439.042	199.535	298.256	461.340	373.678	402.062	367.639	369.927	216.889	289.057	479.188	271.958	434.747	0.0009904	0.00027791	0.00011385	1062.5	5.212e-06	2.0542e-06	1130	224.34	9.1948e-06	2.3363e-06	282.91	79.491	64.338	17.877	3.417e-06	25.468	0.00021244	0.00017971	4.9032e-05	1048.3	2.0658e-06	1.9063e-06	1113.4	221.93	1.9892e-06	1.844e-06	280.83	79.034	63.044	18.023	1.8239e-06	25.747	418.062	281.446	262.434	165.692	283.240	327.944	165.477	173.312	270.603	402.046	172.169	178.864	178.406	186.264	297.746	185.545	-8191	255	
847.510	1	1	0	0	0.1272	0.19291	0.22596	0.21691	0.066773	0.1806	0.10487	0.2101	0.1652	0.17531	0.29191	0.18416	0.12094	0.07997	0.11279	0.1138	-2.5792	-2.8	-2.6562	-3.0271	-2.9292	-2.8688	-3.2938	-2.6042	-2.7917	-2.9792	-2.6104	-2.9396	-2.7542	-2.7438	-3.1083	-2.7333	510.162	393.468	484.458	487.930	314.842	281.465	402.481	489.043	268.772	366.322	461.220	479.764	236.896	263.149	259.918	194.105	0.00091828	0.00034418	8.1213e-05	1054.5	5.0883e-06	2.3676e-06	1110.9	222.15	4.3643e-06	6.0933e-07	279	78.922	63.8	17.655	1.9062e-06	25.18	0.00019979	0.00016203	4.1181e-05	1037.1	1.7269e-06	1.5972e-06	1096.2	218.9	1.6344e-06	1.5528e-06	277.01	78.25	62.076	17.885	1.5671e-06	25.581	421.601	275.727	261.247	165.867	284.283	273.219	165.650	173.475	279.297	363.697	172.103	178.906	178.340	186.369	292.405	186.075	-8191	255	
847.606	1	1	0	0	0.044961	0.13316	0.22776	0.19067	0.20955	0.1953	0.2104	0.22221	0.085874	0.23434	0.36957	0.19102	0.067061	0.13081	0.12107	0.1926	-2.5438	-2.9333	-2.5833	-3.0563	-2.9625	-2.7021	-3.2042	-3.0104	-2.7958	-3.0729	-2.8187	-2.9188	-2.9104	-2.5687	-3.0792	-2.95	270.632	312.535	234.484	496.103	301.908	208.214	377.010	443.582	311.626	301.484	292.584	439.257	353.285	393.263	447.789	266.965	0.00085367	0.00026099	4.3567e-05	1023.2	3.8464e-06	2.0361e-06	1092.8	219.81	5.8988e-06	2.6777e-06	274.17	78.058	62.839	17.733	3.1896e-06	25.134	0.00017716	0.00013392	3.7934e-05	1009.8	1.5731e-06	1.4736e-06	1075	215.78	1.5714e-06	1.4641e-06	273.61	77.434	61.386	17.753	1.5221e-06	25.471	418.998	267.015	261.833	165.834	297.093	271.092	165.585	173.393	306.645	319.952	172.475	178.842	179.446	186.569	316.131	185.829	-8191	255	
847.702	1	1	0	0	0.1551	0.11995	0.20601	0.12817	0.28468	0.043983	0.27454	0.12287	0.40423	0.098696	0.32401	0.19011	0.12503	0.04533	0.084592	0.20835	-2.3396	-2.8438	-2.6562	-2.9792	-2.8021	-2.6708	-3.2333	-3.1	-2.7771	-2.9417	-2.7604	-2.9375	-2.9021	-2.7188	-2.9396	-2.6271	321.833	254.656	399.997	479.158	218.713	387.814	444.082	437.279	399.390	249.027	477.698	386.937	481.532	453.830	440.977	478.271	0.00084573	0.00018352	5.8672e-05	1022.1	3.105e-06	4.0461e-06	1082.9	217.98	7.9789e-06	2.9115e-06	276.96	78.056	62.33	17.515	3.5363e-06	25.121	0.00017462	0.00013998	3.9762e-05	1006.3	1.6727e-06	1.6051e-06	1068.7	215.05	1.6373e-06	1.6204e-06	273.24	77.44	61.428	17.698	1.5514e-06	25.369	419.287	268.250	278.430	165.901	264.172	306.530	165.659	173.428	283.070	303.094	172.795	178.753	179.343	186.690	322.165	186.049	-8191	255	
847.823	1	1	0	0	0.14705	0.15666	0.074271	0.2621	0.31988	0.085168	0.16889	0.13298	0.10652	0.20271	0.1621	0.094254	0.16186	0.21167	0.31729	0.18448	-2.6083	-3	-2.6688	-2.9729	-2.8854	-2.7458	-3.0021	-2.8708	-2.6542	-2.9104	-2.7812	-2.8917	-2.7979	-2.7208	-2.8542	-2.8063	222.386	385.257	308.628	193.465	358.745	324.986	506.880	418.327	400.173	187.562	462.047	399.625	280.372	468.725	260.167	260.244	0.00099854	0.00019238	6.3654e-05	1021.6	5.2334e-06	2.5074e-06	1085.7	217.02	7.8123e-06	2.6437e-06	275.91	78.248	62.294	17.468	3.8312e-06	25.185	0.00018348	0.00013961	3.9473e-05	1002.9	1.5841e-06	1.5199e-06	1068.4	214.74	1.6129e-06	1.5777e-06	273.1	77.621	61.136	17.685	1.573e-06	25.44	419.801	222.947	298.841	165.789	276.927	314.505	165.522	173.861	286.980	301.691	172.535	179.068	179.089	186.762	321.706	186.030	-8191	255	
847.919	1	1	0	0	0.17039	0.35839	0.2111	0.39521	0.12587	0.32493	0.30968	0.17343	0.11451	0.063535	0.15543	0.2415	0.082271	0.1066	0.14938	0.085007	-2.3625	-2.9354	-2.8104	-2.8312	-2.8542	-2.7229	-3.1083	-2.85	-2.6479	-2.9604	-2.8708	-2.8479	-2.8438	-2.725	-3.0438	-2.9292	513.709	403.493	471.153	473.921	287.876	426.904	511.124	425.195	204.331	289.247	470.233	388.379	394.914	426.845	227.829	500.007	0.00086688	0.00032859	3.2124e-05	1023	4.5494e-06	2.2106e-06	1085.3	216.95	4.2189e-06	2.8969e-06	274.79	77.791	62.714	17.611	3.7708e-06	25.03	0.00018041	0.0001458	3.9888e-05	1003.5	1.6248e-06	1.5563e-06	1069.8	214.61	1.654e-06	1.575e-06	273.46	77.24	61.291	17.722	1.6741e-06	25.358	415.269	236.430	180.592	165.928	284.949	312.972	165.713	173.518	269.271	297.268	173.016	178.883	179.229	186.894	303.660	185.826	-8191	255	
848.015	1	1	0	0	0.22213	0.022696	0.041959	0.18827	0.15137	0.32213	0.18286	0.37567	0.19353	0.25247	0.2398	0.0951	0.19919	0.13397	0.11763	0.042285	-2.1646	-2.8542	-2.6042	-2.8375	-3.1292	-2.7104	-3.0896	-3.0417	-2.6729	-2.9646	-2.7958	-2.7875	-2.9708	-2.7	-2.7438	-3.2438	211.691	454.519	164.937	434.225	412.442	491.335	442.654	466.721	430.727	512.131	411.784	494.742	441.766	315.720	510.263	291.601	0.00096299	0.00024037	8.8078e-05	1024.6	3.1727e-06	2.6077e-06	1084.8	217.06	8.1428e-06	4.3992e-06	277.48	77.897	62.835	17.57	3.2868e-06	25.085	0.00018809	0.00015134	4.2078e-05	1005.3	1.6794e-06	1.6377e-06	1070.1	214.58	1.681e-06	1.6063e-06	274.22	77.346	61.193	17.678	1.695e-06	25.382	420.007	253.803	255.755	165.839	314.829	318.753	165.752	173.555	270.193	317.018	172.537	178.853	179.083	186.528	284.763	185.536	-8191	255	
848.112	1	1	0	0	0.25678	0.13024	0.14747	0.28168	0.17119	0.12286	0.16854	0.027578	0.27322	0.15145	0.078204	0.17682	0.28071	0.06807	0.10094	0.15182	-2.2083	-2.9938	-2.6792	-2.8125	-2.9292	-2.9938	-3.1021	-2.9688	-2.6875	-3.0833	-2.9646	-2.8375	-2.9708	-2.8375	-2.8479	-3.0646	353.992	246.481	229.406	492.750	160.572	342.088	432.325	264.896	313.944	432.310	262.828	490.811	473.782	256.060	278.937	422.386	0.00090613	0.00011802	8.172e-05	1021.3	3.7656e-06	1.4809e-06	1089.7	217.89	7.3385e-06	1.4717e-06	277.05	78.011	62.256	17.635	2.0944e-06	25.071	0.00018882	0.00015327	4.2988e-05	1005.4	1.7871e-06	1.7286e-06	1072.4	215.11	1.7648e-06	1.6973e-06	273.72	77.39	61.326	17.724	1.6961e-06	25.425	415.723	241.254	250.995	165.674	296.607	367.884	165.434	173.198	268.904	304.408	172.858	178.700	178.911	186.191	329.890	185.697	-8191	255	
848.208	1	1	0	0	0.35689	0.073	0.12196	0.14194	0.20205	0.074355	0.13914	0.15237	0.075862	0.15776	0.13034	0.15791	0.33084	0.2374	0.15038	0.057829	-2.3083	-2.8896	-2.9729	-2.7562	-2.9875	-2.8688	-2.7833	-2.8563	-2.7062	-2.9542	-2.9854	-2.6188	-2.9375	-2.7417	-2.6729	-2.9437	313.776	497.234	440.697	180.069	351.922	294.739	441.005	492.915	368.229	402.925	404.446	292.918	233.987	313.680	189.742	480.730	0.00086165	0.00019988	4.8692e-05	1024.6	2.5145e-06	1.7433e-06	1095	218.28	7.368e-06	2.7585e-06	275.33	78.294	62.918	17.562	6.2729e-06	25.158	0.00019188	0.00015368	4.1006e-05	1009.1	1.7425e-06	1.6988e-06	1077	215.79	1.7704e-06	1.6672e-06	274.63	77.701	61.588	17.745	1.6813e-06	25.491	418.645	282.063	312.806	165.837	278.751	264.787	165.773	173.156	276.788	316.364	172.723	178.783	178.950	186.757	314.837	185.771	-8191	255	
848.304	1	1	0	0	0.15015	0.067866	0.24699	0.085964	0.2144	0.036681	0.29201	0.32022	0.064068	0.2104	0.14706	0.1236	0.030867	0.12319	0.124	0.030927	-2.2521	-2.8812	-2.8417	-2.775	-2.8917	-2.8312	-2.9167	-3.1083	-2.5833	-2.8479	-3.0146	-2.6792	-3.05	-2.6729	-2.6646	-3.0833	477.565	342.899	470.857	465.439	445.532	387.726	423.730	477.289	405.910	457.828	476.957	454.766	237.143	289.373	191.690	456.333	0.00092308	0.00026245	9.9801e-05	1029.4	4.5903e-06	3.106e-06	1096.3	218.21	1.0111e-05	8.8464e-07	277.02	78.208	63.318	17.658	3.4235e-06	25.108	0.00018902	0.00015893	4.2369e-05	1014	1.7764e-06	1.7129e-06	1079.4	216.03	1.7232e-06	1.635e-06	275.04	77.75	61.728	17.779	1.6877e-06	25.47	413.159	254.679	230.824	165.694	292.075	284.322	165.601	173.421	298.202	300.439	172.615	179.152	179.024	186.694	303.115	186.010	-8191	255	
848.423	1	1	0	0	0.2537	0.23409	0.1326	0.23067	0.27012	0.28088	0.39246	0.050622	0.13724	0.095451	0.10555	0.49873	0.093321	0.16799	0.099728	0.071053	-2.375	-2.7479	-2.85	-2.7833	-3.1312	-2.875	-2.7562	-3.0542	-2.7812	-2.7854	-2.9479	-2.6604	-2.9938	-2.7854	-2.7396	-3.0479	348.913	169.817	277.345	166.365	219.297	425.504	421.614	356.064	200.754	323.278	459.616	470.120	244.271	473.377	275.421	333.531	0.00093348	0.00046987	0.00011124	1028.5	3.1993e-06	3.7743e-06	1097	219.92	5.4245e-06	3.0203e-06	277.66	78.451	63.79	17.735	2.132e-06	25.33	0.00018671	0.00014601	4.0001e-05	1011.9	1.638e-06	1.5481e-06	1079.8	216.8	1.6689e-06	1.5889e-06	275.16	77.863	62.185	17.876	1.521e-06	25.631	420.078	272.592	221.250	165.809	283.625	308.836	165.635	173.451	272.237	307.183	172.415	179.095	179.096	186.413	260.482	185.468	-8191	255	
848.519	1	1	0	0	0.092897	0.066148	0.33521	0.24625	0.13963	0.19136	0.048191	0.3446	0.15243	0.17322	0.068012	0.32014	0.19429	0.26596	0.099078	0.12712	-2.2604	-2.5896	-3.0354	-2.7542	-2.8896	-2.9979	-2.8604	-2.9375	-2.7521	-2.7417	-3.0604	-2.6271	-2.7854	-2.8917	-2.6042	-2.9646	169.087	290.511	415.862	454.176	163.401	175.168	469.347	431.556	218.281	396.389	507.308	466.581	197.824	272.506	392.195	349.555	0.0008615	0.00012982	6.0998e-05	1028.5	4.74e-06	2.937e-06	1094.6	220.16	8.8657e-06	2.5038e-06	278.42	78.376	63.617	17.812	4.5957e-06	25.328	0.0001816	0.00014425	3.9617e-05	1013.4	1.6354e-06	1.4985e-06	1080.1	217.11	1.6269e-06	1.5344e-06	275.8	77.902	61.789	17.909	1.576e-06	25.594	414.764	211.557	247.152	165.677	285.813	315.251	165.823	173.618	290.010	276.842	172.567	178.769	179.119	186.743	285.956	185.472	-8191	255	
848.615	1	1	0	0	0.19421	0.14447	0.042498	0.064967	0.1965	0.40515	0.27916	0.15592	0.35751	0.04403	0.10281	0.067162	0.17757	0.12451	0.057898	0.11292	-2.3896	-2.6125	-3.0979	-2.6042	-2.8563	-2.8833	-2.825	-3.0938	-2.95	-2.6479	-3.1188	-2.9708	-2.7729	-2.9375	-2.7542	-2.9583	226.821	491.831	230.365	248.611	476.966	165.308	461.910	497.156	322.864	181.290	349.124	175.261	297.410	202.110	403.364	180.612	0.00088087	0.00026827	3.2868e-05	1028	5.0029e-06	2.5959e-06	1092.6	220.02	5.3926e-06	6.2862e-07	277.33	78.072	63.149	17.812	4.2043e-06	25.218	0.00018071	0.00014191	3.9867e-05	1012.2	1.6248e-06	1.5025e-06	1078.2	217.1	1.5373e-06	1.504e-06	276.23	77.937	61.788	17.909	1.4805e-06	25.601	415.501	236.388	266.660	165.775	271.292	308.794	165.553	173.273	290.700	297.588	172.569	178.823	179.284	186.631	298.530	185.920	-8191	255	
848.711	1	1	0	0	0.34028	0.29086	0.037761	0.028663	0.22111	0.13755	0.13961	0.26265	0.13755	0.17893	0.19284	0.056508	0.12929	0.13881	0.20704	0.037585	-2.5167	-2.5667	-2.9771	-3.0958	-2.7542	-3.1167	-2.7938	-2.9896	-2.9021	-2.6979	-3.0021	-3.0896	-2.8771	-3.2083	-2.5854	-2.9333	478.272	357.037	448.577	364.804	421.452	165.160	255.525	198.898	217.019	452.444	512.146	305.587	241.883	476.043	489.910	194.243	0.00090062	0.00031451	7.3952e-05	1025.4	3.1906e-06	3.0658e-06	1099	221.21	7.8864e-06	2.8594e-06	278.86	78.833	63.021	17.829	4.842e-06	25.393	0.00017339	0.0001331	3.6996e-05	1011.4	1.5215e-06	1.3885e-06	1080.1	217.85	1.443e-06	1.4176e-06	275.86	78.161	61.787	17.942	1.3306e-06	25.663	415.719	229.219	257.613	165.798	311.336	299.142	165.787	173.773	280.617	303.842	172.708	178.847	179.033	186.291	310.592	185.931	-8191	255	
848.807	1	1	0	0	0.16519	0.25822	0.06674	0.26802	0.1523	0.040193	0.15163	0.14399	0.16547	0.13695	0.10665	0.031011	0.054874	0.25182	0.15003	0.15365	-2.5271	-2.6917	-2.9667	-2.9854	-2.7833	-3.0312	-2.8063	-2.9667	-2.6896	-2.7938	-3.1063	-2.9938	-2.7396	-2.9458	-2.7958	-2.7104	183.945	225.414	320.774	168.612	160.020	177.504	372.187	511.275	223.008	184.780	498.886	320.729	220.900	163.192	168.783	334.919	0.0007702	0.00043666	8.719e-05	1021.7	2.7171e-06	3.4362e-06	1094.4	220.89	7.5228e-06	2.084e-06	278.6	78.841	63.564	17.866	2.3758e-06	25.528	0.00015833	0.00011961	3.2645e-05	1007.2	1.4065e-06	1.2414e-06	1075.8	217.95	1.335e-06	1.2036e-06	276.74	78.335	62.071	17.974	1.2604e-06	25.81	417.430	264.986	290.937	165.829	314.955	285.257	165.622	173.291	280.755	271.104	172.383	179.046	178.860	186.368	322.254	185.797	-8191	255	
848.903	1	1	0	0	0.10905	0.056212	0.13478	0.15936	0.068789	0.059199	0.19927	0.23299	0.035195	0.079263	0.10972	0.25322	0.25178	0.045727	0.14606	0.26178	-2.5062	-2.4896	-2.8458	-2.85	-2.6437	-3.0417	-2.8875	-2.9479	-2.9917	-2.7667	-2.8333	-3.1146	-2.5854	-3.0021	-2.8375	-2.7917	206.073	443.175	181.461	473.753	258.990	418.774	445.827	375.003	375.796	290.495	499.027	485.018	395.893	448.476	300.710	475.449	0.0010047	0.00027743	6.7385e-05	1021.4	4.8179e-06	3.3746e-06	1088.1	223.56	7.8816e-06	1.6416e-06	281	79.451	63.583	17.79	2.9762e-06	25.514	0.0001541	0.00011797	3.0923e-05	1006.3	1.4085e-06	1.2344e-06	1073.1	219.58	1.2853e-06	1.1994e-06	277.99	78.712	62.089	17.967	1.17e-06	25.737	413.998	221.369	261.883	165.981	297.724	310.197	165.818	173.363	285.458	272.311	172.501	179.046	178.936	186.770	265.081	185.593	-8191	255	
849.000	1	1	0	0	0.082451	0.22744	0.10042	0.183	0.075356	0.10357	0.08566	0.12613	0.19112	0.15106	0.15871	0.18482	0.28816	0.08916	0.1152	0.25793	-2.5979	-2.5417	-2.9167	-2.8896	-2.4437	-3.0229	-2.7729	-2.9062	-2.9813	-2.5687	-2.9646	-3.0583	-2.6125	-3.0479	-2.7875	-2.7542	428.105	371.941	385.444	496.468	263.210	250.393	482.797	447.458	236.910	340.884	473.729	237.439	330.890	486.082	484.184	452.807	0.00096645	0.00047045	7.4004e-05	1022.9	4.6272e-06	9.9097e-07	1092.8	222.16	7.5442e-06	3.826e-06	280.99	78.732	63.644	17.838	3.8611e-06	25.687	0.00015381	0.00011168	3.178e-05	1006.5	1.3094e-06	1.1846e-06	1075.5	219.8	1.264e-06	1.259e-06	278.31	78.375	62.053	17.97	1.2063e-06	25.841	416.750	240.493	261.612	165.932	284.555	319.220	165.758	173.249	278.265	248.286	172.369	178.811	178.863	186.384	311.510	185.922	-8191	255	
849.120	1	1	0	0	0.12252	0.1652	0.15653	0.27871	0.11186	0.08695	0.20751	0.14141	0.14267	0.18047	0.12116	0.059112	0.25447	0.45846	0.15175	0.31077	-2.6833	-2.6542	-2.7292	-3.1188	-2.4062	-3.0187	-3.0938	-2.6646	-2.9208	-2.5604	-2.8875	-3	-2.6271	-2.9542	-2.8729	-2.7021	218.467	245.858	437.080	164.112	224.557	396.441	464.064	496.779	391.564	295.330	445.687	403.138	491.393	477.445	356.742	182.958	0.00093679	0.00024114	0.00011466	1022.4	5.6789e-06	2.4592e-06	1096.2	223.89	8.0982e-06	3.6925e-06	281.69	80.218	64.042	17.924	4.1621e-06	25.713	0.00015229	0.00011056	3.0434e-05	1006.7	1.2708e-06	1.1532e-06	1075.6	220.82	1.1935e-06	1.1185e-06	278.43	78.978	62.56	18.099	1.1466e-06	25.898	416.879	280.697	241.433	165.978	292.014	291.553	165.664	173.363	304.356	304.341	172.530	179.113	179.095	186.127	303.316	185.939	-8191	255	
849.215	1	1	0	0	0.27589	0.17381	0.093862	0.32439	0.22017	0.1164	0.17519	0.27598	0.078991	0.041195	0.14646	0.28608	0.17305	0.23165	0.25118	0.21099	-2.4125	-2.7	-2.6292	-3.0458	-2.6354	-2.8792	-2.9188	-2.5812	-3.0438	-2.7062	-2.8917	-3.0729	-2.5979	-3.0687	-2.9646	-2.6667	257.901	504.733	511.212	443.098	270.293	432.774	465.533	476.809	479.780	512.847	480.862	482.186	271.188	212.001	341.465	356.356	0.00088197	0.00045329	8.6519e-05	1019.8	5.6487e-06	3.034e-06	1096	224.92	6.4026e-06	3.5906e-06	281.88	79.306	63.798	18.055	4.7602e-06	25.762	0.00014353	9.8582e-05	2.7693e-05	1007.2	1.1879e-06	1.1095e-06	1077.2	221.31	1.1775e-06	1.0865e-06	279.65	78.964	62.374	18.161	1.0743e-06	25.999	416.016	235.459	253.650	165.808	288.264	303.848	165.667	173.306	300.679	292.900	172.591	179.058	178.797	185.928	288.454	185.748	-8191	255	
849.311	1	1	0	0	0.14618	0.15746	0.15998	0.114	0.18954	0.15902	0.15963	0.21718	0.13661	0.16991	0.18839	0.13968	0.087706	0.087541	0.086134	0.13274	-2.4146	-2.7167	-2.5958	-3.025	-2.875	-2.9021	-3.1771	-2.6	-3.0229	-2.7812	-2.9083	-2.8771	-2.6271	-3	-2.8375	-2.6521	401.336	322.642	278.518	478.492	430.196	497.039	339.957	421.226	380.023	228.040	456.704	168.822	189.116	187.286	460.923	344.841	0.00090931	0.00020068	8.9872e-05	1027.5	4.668e-06	3.3843e-06	1092.6	226.04	5.071e-06	2.6754e-06	283.15	79.844	64.117	18.07	2.5475e-06	25.971	0.0001419	9.3176e-05	2.6273e-05	1008.6	1.1115e-06	1.037e-06	1075.5	222.43	1.0458e-06	9.6114e-07	280.39	79.296	62.435	18.167	9.7519e-07	26.033	416.963	270.347	235.387	165.653	287.392	317.396	165.687	173.300	289.975	318.305	172.394	178.833	179.498	186.661	305.340	185.719	-8191	255	
849.384	1	1	0	0	0.2038	0.2204	0.25013	0.035553	0.25332	0.12637	0.10431	0.16967	0.17328	0.1725	0.13582	0.21869	0.17881	0.077535	0.088155	0.14602	-2.5729	-2.7687	-2.6333	-3.0167	-2.5792	-2.6667	-2.9813	-2.4083	-3.0625	-2.9562	-2.7875	-3.0708	-2.8125	-2.8146	-2.8958	-2.5563	193.760	238.981	242.584	456.538	471.782	373.203	468.045	438.598	199.195	191.964	453.667	334.742	513.873	479.016	309.460	509.257	0.00092974	0.00024963	8.3282e-05	1020	3.5562e-06	2.5231e-06	1092	225.06	5.2031e-06	1.8042e-06	284.16	80.784	64.474	18.21	3.5243e-06	25.884	0.00012877	8.5772e-05	2.3033e-05	1005.2	9.8444e-07	8.7147e-07	1075.6	222.29	9.2954e-07	8.0791e-07	280.15	79.762	62.726	18.341	7.9927e-07	26.115	419.150	252.773	231.530	166.024	302.147	328.451	165.871	173.400	288.042	325.132	172.818	178.972	178.690	186.822	315.853	185.945	-8191	255	
849.503	1	1	0	0	0.19771	0.13324	0.027179	0.093145	0.12572	0.1602	0.13561	0.077061	0.22228	0.28494	0.10779	0.23308	0.10278	0.089347	0.096227	0.15998	-2.3479	-2.9646	-2.2792	-3.1042	-2.7458	-2.6875	-3.2792	-2.7271	-2.8146	-2.7375	-2.6083	-3.0125	-2.8042	-2.9188	-2.9167	-2.6375	245.440	386.250	289.166	463.083	180.114	251.745	480.384	450.243	492.284	339.573	172.936	369.178	317.914	355.184	432.470	358.952	0.0008878	0.000311	0.00010012	1016.1	4.2725e-06	2.7498e-06	1090.3	224.55	7.803e-06	2.6989e-06	282.63	79.67	63.754	17.97	2.5343e-06	25.704	0.00011998	7.0951e-05	2.2594e-05	1000.8	8.8781e-07	7.916e-07	1072.5	221.93	9.1732e-07	7.3144e-07	279.42	79.199	62.396	18.173	7.512e-07	25.933	414.549	265.840	260.550	166.063	304.268	287.428	165.798	173.148	294.536	327.659	172.581	178.899	179.343	186.181	287.974	185.741	-8191	255	
849.599	1	1	0	0	0.28522	0.041954	0.018755	0.22797	0.15728	0.20941	0.32274	0.20024	0.0934	0.10081	0.02006	0.098837	0.17703	0.17035	0.3203	0.27731	-2.3667	-2.8229	-2.6396	-3.0521	-2.9042	-2.5812	-3.175	-2.7167	-2.8667	-2.8583	-2.8229	-2.9479	-2.7229	-2.7687	-3.0271	-2.8354	454.695	439.528	381.110	158.982	323.933	163.107	447.308	423.347	385.075	469.568	343.686	478.842	171.455	369.779	456.579	491.786	0.00089461	0.000249	6.38e-05	1009.1	5.1932e-06	4.4283e-06	1077.9	224.27	7.2087e-06	1.3856e-06	280.1	78.787	63.151	17.837	3.8847e-06	25.407	0.0001209	7.0951e-05	2.1156e-05	994.24	9.0989e-07	8.5425e-07	1062.8	220.66	9.8447e-07	9.0285e-07	277.26	78.227	61.731	17.909	9.8489e-07	25.62	417.795	238.105	276.130	165.760	279.747	301.487	165.649	173.275	277.001	309.644	172.632	178.626	179.142	186.680	302.582	185.568	-8191	255	
849.695	1	1	0	0	0.10918	0.27854	0.17638	0.1216	0.12809	0.21432	0.18248	0.18679	0.24679	0.21055	0.28148	0.17418	0.16187	0.16426	0.13101	0.14738	-2.4792	-2.9208	-2.5125	-2.925	-2.6979	-2.7625	-3.2896	-2.7083	-2.8292	-3.0187	-2.8875	-2.9542	-2.8729	-2.6792	-3.1104	-2.8438	230.731	412.050	162.434	393.571	299.955	352.276	378.526	172.230	260.012	240.636	492.904	448.957	473.892	465.578	507.145	323.603	0.00095201	0.0003973	0.00011895	1003.4	2.3651e-06	4.1375e-06	1076	220.4	6.9212e-06	3.1773e-06	275.92	78.019	62.004	17.394	1.2603e-06	24.973	0.00013516	9.4873e-05	2.7482e-05	989.04	1.1492e-06	1.0445e-06	1057.6	216.81	1.2324e-06	1.1101e-06	273.24	77.135	60.753	17.589	1.2087e-06	25.271	418.379	243.910	244.710	165.867	301.865	323.838	165.739	173.418	281.156	297.961	172.586	178.863	178.860	186.255	279.013	186.051	-8191	255	
849.792	1	1	0	0	0.082247	0.12264	0.047665	0.3932	0.12314	0.18509	0.20857	0.13289	0.29875	0.30733	0.32308	0.18606	0.19789	0.2823	0.08659	0.2541	-2.2167	-2.8646	-2.6729	-3.0667	-2.9188	-2.7896	-3.0958	-2.8542	-2.7729	-3.0812	-2.8063	-2.9458	-2.8104	-2.6417	-2.7562	-3.0167	361.933	368.425	459.900	509.336	202.081	209.494	406.955	226.855	446.440	220.359	396.527	424.204	345.915	175.201	324.663	318.301	0.00087291	0.000235	4.838e-05	1000.5	3.0423e-06	4.1025e-06	1072.1	216.61	7.0975e-06	3.2905e-06	273.18	76.974	61.806	17.42	4.2179e-06	24.761	0.00015182	0.00011507	3.254e-05	987.43	1.3722e-06	1.3685e-06	1053.2	213.31	1.4387e-06	1.3074e-06	270.66	76.351	60.417	17.508	1.3642e-06	25.103	416.141	287.564	226.657	165.961	263.855	320.314	165.475	173.322	270.226	352.632	172.801	178.661	178.903	186.973	297.738	185.621	-8191	255	
849.912	1	1	0	0	0.23182	0.18614	0.094837	0.080315	0.1073	0.19082	0.30829	0.29121	0.19769	0.074899	0.31583	0.0038532	0.05789	0.050302	0.15373	0.18255	-2.3208	-3.0125	-2.6833	-2.7354	-2.9646	-2.575	-3.0917	-2.7667	-2.7854	-2.9396	-2.7583	-2.9542	-2.8896	-2.7812	-2.9562	-2.8688	321.884	486.701	165.531	501.074	253.380	386.671	452.688	168.537	381.433	169.871	414.873	380.201	166.591	315.205	408.269	500.770	0.00090017	0.00024676	4.837e-05	996.28	5.2784e-06	3.0284e-06	1065.5	214.62	6.8386e-06	3.6155e-06	273.13	77.311	61.842	17.424	3.2507e-06	24.793	0.00015823	0.00012002	3.3474e-05	984.37	1.4004e-06	1.3146e-06	1051	212.43	1.375e-06	1.2994e-06	270.39	76.546	60.515	17.518	1.3109e-06	25.1	416.036	249.608	265.576	166.115	279.980	306.405	165.784	173.701	293.575	298.650	172.717	178.922	179.108	186.774	313.029	186.196	-8191	255	
849.984	1	1	0	0	0.17633	0.12191	0.4447	0.20578	0.13919	0.23953	0.092537	0.20555	0.1328	0.13641	0.039974	0.37793	0.10991	0.3017	0.1759	0.14479	-2.2854	-2.9646	-2.6	-2.9979	-3.0687	-2.6437	-3.0062	-3.0417	-2.8583	-2.9	-2.8688	-2.8542	-3.0833	-2.4125	-3.025	-2.8688	230.500	227.236	451.692	395.543	456.680	502.602	455.846	424.083	402.420	511.017	414.614	343.495	502.458	396.462	506.662	163.836	0.00087366	0.00023617	5.8792e-05	997.55	1.6348e-06	4.0435e-06	1068.1	214.09	4.8368e-06	2.9627e-06	271.59	77.027	61.463	17.305	2.4115e-06	24.641	0.00016239	0.00012122	3.3274e-05	985.02	1.3971e-06	1.2965e-06	1049.7	212.49	1.4296e-06	1.3567e-06	270.19	76.444	60.262	17.461	1.4687e-06	24.988	420.048	243.006	203.838	166.070	258.393	320.047	165.865	173.501	270.270	323.539	172.649	178.971	179.391	186.305	296.260	185.988	-8191	255	
850.104	1	1	0	0	0.16667	0.19215	0.087566	0.23708	0.049568	0.16689	0.22915	0.24534	0.30516	0.21415	0.11416	0.20388	0.14227	0.059935	0.19225	0.033638	-2.375	-2.9292	-2.9521	-2.7021	-3.0312	-2.6542	-2.9417	-3.0354	-2.5354	-3.0417	-2.8521	-2.5687	-3.0792	-2.8292	-2.9646	-2.925	239.382	402.761	200.212	490.813	345.277	380.309	420.604	268.434	337.732	432.319	376.435	495.912	309.094	496.144	416.421	296.795	0.00079566	0.00034579	8.7248e-05	997.06	5.0111e-06	6.6028e-07	1068.7	214.42	5.7838e-06	3.0373e-06	271.46	77.13	61.247	17.379	3.9219e-06	24.67	0.00017051	0.00012976	3.7804e-05	984.02	1.5166e-06	1.4915e-06	1051.8	211.78	1.5169e-06	1.4584e-06	269.29	76.196	60.023	17.431	1.4784e-06	25.054	421.314	265.065	257.206	165.927	285.852	285.273	165.798	173.482	295.080	302.993	172.685	179.142	178.769	186.533	287.526	185.827	-8191	255	
850.201	1	1	0	0	0.20366	0.3376	0.023171	0.26852	0.21318	0.11337	0.077818	0.34008	0.29604	0.068863	0.13813	0.0085229	0.19058	0.087872	0.20679	0.12868	-2.3937	-2.9646	-2.8521	-2.8979	-2.9417	-2.775	-2.925	-2.9333	-2.6271	-2.9688	-3.0896	-2.7083	-2.9979	-2.6917	-2.9021	-3.1625	370.303	172.126	248.034	436.319	301.145	464.665	340.815	172.463	284.361	300.106	460.118	366.256	352.104	394.919	384.478	505.328	0.00080534	9.7488e-05	8.2506e-05	1000.1	2.75e-06	2.2349e-06	1071.9	214.56	8.5605e-06	1.897e-06	272.46	76.858	62.125	17.465	4.1951e-06	24.837	0.00017088	0.00013314	3.6412e-05	986.97	1.4918e-06	1.4492e-06	1053.9	211.7	1.5077e-06	1.4511e-06	270.4	76.252	60.573	17.478	1.5025e-06	25.063	419.883	212.885	266.979	166.053	294.323	268.134	165.843	173.316	294.193	351.929	172.660	179.115	179.120	186.445	321.825	185.745	-8191	255	
850.295	1	1	0	0	0.070136	0.23054	0.10021	0.16343	0.17198	0.18301	0.20229	0.092726	0.027642	0.16789	0.131	0.1255	0.18612	0.1864	0.10887	0.27121	-2.2458	-3.0271	-2.7583	-2.9562	-3.0271	-2.7458	-2.9375	-2.9667	-2.525	-2.9208	-2.9458	-2.8021	-2.9854	-2.8208	-2.8771	-3.0208	255.661	281.739	339.816	190.173	217.142	188.195	408.576	448.642	238.007	278.584	341.375	194.944	503.056	458.470	174.358	442.201	0.00090269	0.00022204	0.00011879	1004.8	4.8354e-06	3.0534e-06	1072.1	215.57	7.6438e-06	2.0906e-06	273.37	77.026	61.116	17.434	2.6884e-06	24.882	0.00017174	0.00013171	3.5144e-05	988.75	1.4789e-06	1.3283e-06	1056.3	212.42	1.5041e-06	1.4282e-06	270.15	76.443	60.465	17.552	1.4005e-06	25.237	420.091	235.550	257.645	165.969	310.184	291.867	165.553	173.439	304.219	299.663	172.514	179.163	179.039	186.632	320.094	185.908	-8191	255	
850.393	1	1	0	0	0.10448	0.090868	0.18605	0.26233	0.16143	0.063015	0.084078	0.13891	0.1831	0.15648	0.091728	0.10701	0.1055	0.12322	0.34471	0.058044	-2.1271	-2.8208	-2.9542	-2.8083	-3.0208	-2.8854	-2.8833	-3.0167	-2.6708	-2.6604	-3.0583	-2.7021	-2.8896	-2.6771	-2.8	-2.975	498.513	312.107	357.924	469.953	482.415	480.193	403.824	499.849	233.575	322.222	271.986	401.546	224.088	356.551	336.808	316.218	0.00091087	0.00015484	0.00011217	1004.5	6.446e-06	3.3844e-06	1074.6	215.38	4.637e-06	2.1463e-06	275.11	77.692	62.43	17.623	4.5273e-06	25.106	0.00016376	0.00012835	3.4086e-05	990.4	1.4707e-06	1.3426e-06	1055.9	212.63	1.3643e-06	1.4001e-06	271.08	76.943	60.586	17.627	1.3631e-06	25.365	414.887	241.790	273.686	166.011	280.759	302.436	165.662	173.474	278.323	318.678	172.653	178.946	179.406	186.681	315.999	185.842	-8191	255	
850.512	1	1	0	0	0.36368	0.069148	0.075613	0.1243	0.16039	0.09115	0.12656	0.23024	0.16284	0.088233	0.28662	0.104	0.074599	0.19309	0.089427	0.14929	-2.4146	-2.8104	-2.8979	-2.9062	-2.9292	-2.8187	-2.7771	-2.9	-2.7229	-2.925	-2.9688	-2.6813	-2.8563	-2.8312	-2.5812	-2.9458	426.027	268.877	180.342	158.126	329.401	237.243	416.491	467.026	285.628	362.724	446.768	218.828	474.975	484.603	263.905	502.648	0.00093364	0.00026095	4.0581e-05	1004	4.9732e-06	2.5197e-06	1071.9	215.75	4.2904e-06	3.2168e-06	274.08	77.149	61.819	17.518	2.2589e-06	24.959	0.00015636	0.00012048	3.2104e-05	989.27	1.3634e-06	1.2437e-06	1056	212.81	1.3204e-06	1.2898e-06	270.67	76.907	60.633	17.626	1.2631e-06	25.39	419.501	281.611	282.374	166.115	290.962	273.917	165.811	173.522	277.267	289.050	172.610	178.916	178.848	186.599	310.464	185.934	-8191	255	
850.608	1	1	0	0	0.064254	0.15757	0.32503	0.24243	0.17995	0.19304	0.26497	0.051358	0.088005	0.17214	0.29473	0.11587	0.20749	0.17886	0.061691	0.13732	-2.3375	-2.7125	-2.8708	-2.825	-2.9583	-3.0729	-2.7792	-3.1312	-2.6771	-2.8458	-2.8729	-2.7042	-2.7729	-2.9583	-2.8042	-2.9521	260.511	436.895	331.997	162.920	209.524	214.865	454.298	453.524	426.416	440.544	171.257	204.339	476.770	158.665	290.712	361.552	0.00089698	0.00022231	9.3545e-05	999.06	4.2546e-06	3.1426e-06	1065.2	215.85	7.9217e-06	2.8552e-06	274.05	77.098	62.357	17.453	3.1034e-06	24.771	0.00015152	0.00011381	3.0062e-05	985.12	1.2477e-06	1.2596e-06	1051.2	212.56	1.2881e-06	1.2106e-06	271.01	76.526	60.595	17.581	1.2076e-06	25.21	418.344	267.624	270.096	165.962	281.333	340.334	165.742	173.398	265.007	325.307	172.738	179.051	178.969	186.537	280.100	185.739	-8191	255	
850.680	1	1	0	0	0.21287	0.25161	0.1707	0.1669	0.22697	0.13416	0.084019	0.24588	0.12476	0.13349	0.16977	0.18653	0.35044	0.17256	0.051856	0.22202	-2.3229	-2.6125	-3.0417	-2.7083	-2.9333	-2.75	-2.6583	-2.9938	-2.7354	-2.5812	-3.1042	-2.8146	-2.8208	-2.825	-2.6229	-2.8646	469.516	383.146	282.415	367.869	480.825	199.640	223.022	486.954	204.622	262.416	364.803	515.551	210.656	488.572	408.766	325.332	0.00084145	0.00023617	7.8933e-05	998.1	4.4669e-06	3.2702e-06	1062.8	214.32	6.922e-06	3.6094e-06	273.01	77.276	62.069	17.527	2.4902e-06	24.793	0.00014944	0.00010832	3.1545e-05	980.17	1.3199e-06	1.1602e-06	1047.7	212.12	1.2603e-06	1.2011e-06	270	76.601	60.574	17.59	1.2414e-06	25.208	418.974	218.931	246.949	166.117	283.170	297.154	165.636	173.560	283.303	289.316	172.641	178.893	178.806	186.611	280.104	186.037	-8191	255	
850.800	1	1	0	0	0.18952	0.44507	0.17341	0.060025	0.15813	0.17868	0.16408	0.051987	0.12828	0.27175	0.12052	0.11416	0.19266	0.35959	0.13504	0.25015	-2.5312	-2.4854	-2.9604	-2.8063	-2.8646	-2.9354	-2.7958	-3.1167	-2.8667	-2.5146	-3.0458	-2.9396	-2.625	-2.9167	-2.5812	-3.1083	189.150	389.359	242.405	467.376	165.133	245.900	497.258	475.639	229.873	286.493	500.385	237.686	462.220	469.621	363.955	402.306	0.0008527	0.00026811	9.354e-05	991.7	2.8498e-06	2.5193e-06	1063.2	214.51	7.589e-06	2.7501e-06	270.84	76.863	61.862	17.315	2.8021e-06	24.816	0.0001524	0.0001123	3.0087e-05	977.98	1.3047e-06	1.1914e-06	1046.3	212.42	1.2664e-06	1.2139e-06	269.56	76.622	60.448	17.49	1.2361e-06	25.139	418.081	257.663	245.538	165.915	272.359	283.565	165.816	173.669	308.471	271.856	172.589	179.031	179.186	186.662	272.713	186.316	-8191	255	
850.896	1	1	0	0	0.092201	0.18961	0.041684	0.26871	0.08635	0.14122	0.10748	0.31044	0.15854	0.078565	0.37989	0.043288	0.2215	0.31855	0.13555	0.17507	-2.5583	-2.7292	-3.1021	-2.7438	-2.7354	-3.0438	-2.8104	-2.8667	-2.9708	-2.4896	-3.025	-2.6875	-2.7771	-3.0812	-2.7812	-2.85	260.621	334.419	465.731	455.981	365.468	255.276	500.846	509.790	333.940	278.035	187.623	171.829	249.555	501.051	493.142	193.071	0.00083502	0.00030099	6.8106e-05	991.2	3.8474e-06	3.7556e-06	1061.7	215.37	4.5059e-06	1.9438e-06	273.61	77.534	62.025	17.46	3.1574e-06	25.18	0.00015165	0.00011249	3.19e-05	979.15	1.3208e-06	1.1843e-06	1045.6	212.38	1.3137e-06	1.1836e-06	270.49	76.778	60.602	17.562	1.228e-06	25.266	421.116	245.910	273.520	165.874	286.042	307.008	165.493	173.437	295.460	326.117	172.477	178.851	179.107	186.272	315.324	186.047	-8191	255	
850.993	1	1	0	0	0.12566	0.14751	0.21835	0.20429	0.0098942	0.0086023	0.22009	0.16802	0.11777	0.27259	0.049764	0.22452	0.075095	0.12188	0.32028	0.04511	-2.3812	-2.6917	-2.9604	-3.0708	-2.6417	-3.1417	-3.0708	-2.9437	-2.9604	-2.7958	-2.9208	-2.975	-2.3688	-3.0208	-2.6917	-2.7333	500.292	468.360	345.106	428.231	435.010	349.639	339.593	296.115	427.834	484.115	216.134	226.289	194.038	444.911	437.242	392.439	0.00089837	0.00026789	9.6506e-05	1001.7	5.7683e-06	3.7991e-06	1068.4	215.47	7.5631e-06	1.86e-06	273.45	76.88	62.073	17.548	2.6336e-06	24.995	0.00015343	0.00011193	3.1042e-05	983.62	1.3116e-06	1.2348e-06	1050.9	212.7	1.3445e-06	1.2521e-06	271.37	76.553	60.629	17.59	1.2735e-06	25.273	417.509	254.579	252.514	165.769	263.264	331.811	165.731	173.260	296.064	313.722	172.680	179.254	179.153	186.637	269.048	186.120	-8191	255	
851.089	1	1	0	0	0.083895	0.36097	0.05378	0.39957	0.10738	0.29474	0.27075	0.22738	0.28569	0.17449	0.16648	0.03599	0.079348	0.12334	0.20079	0.046211	-2.5938	-2.4562	-3	-2.8542	-2.5729	-2.7104	-2.9146	-2.775	-3.0167	-2.6875	-2.7375	-3.1188	-2.6292	-3.0208	-2.575	-2.7771	467.417	258.972	510.002	515.175	461.165	407.856	395.276	323.698	232.129	309.662	232.005	282.428	172.900	376.999	247.975	170.636	0.00085988	0.00030807	6.7769e-05	997.31	5.0856e-06	4.6014e-06	1066.3	215.82	5.3862e-06	1.1454e-06	273.48	77.048	61.775	17.383	2.5311e-06	24.978	0.00015389	0.00011621	3.2564e-05	983.39	1.3744e-06	1.2947e-06	1050.2	213.12	1.4356e-06	1.3402e-06	270.69	76.542	60.409	17.546	1.4565e-06	25.221	418.348	243.688	267.790	165.991	261.576	322.534	165.366	173.785	312.307	337.871	172.613	179.088	179.165	186.687	263.436	186.135	-8191	255	
851.185	1	1	0	0	0.12182	0.20016	0.28529	0.11918	0.14718	0.090404	0.2218	0.24518	0.19994	0.12634	0.31975	0.24595	0.24363	0.032672	0.067878	0.10808	-2.8063	-2.6271	-2.9396	-2.8375	-2.5354	-2.9333	-2.8917	-2.9229	-2.8542	-2.8208	-2.8354	-3.1208	-2.5687	-2.9188	-3.0021	-2.7083	203.652	336.004	182.890	470.771	484.468	360.395	495.570	404.432	339.829	294.735	419.501	418.117	474.537	400.254	205.530	374.503	0.00084412	0.00030082	7.7635e-05	997.97	4.1868e-06	2.9408e-06	1071.7	215.53	4.3126e-06	2.9386e-06	272.93	76.242	61.149	17.207	1.6855e-06	24.872	0.00016099	0.00012203	3.494e-05	983.95	1.4812e-06	1.3743e-06	1052.4	212.88	1.4527e-06	1.3652e-06	270.44	76.299	60.355	17.449	1.4424e-06	25.097	416.642	224.354	202.668	166.190	294.712	290.080	165.617	173.469	302.868	293.228	172.420	179.043	179.359	186.592	285.521	185.918	-8191	255	
851.281	1	1	0	0	0.085932	0.20206	0.15868	0.26726	0.054389	0.2314	0.096715	0.13712	0.30473	0.10735	0.21183	0.31708	0.063731	0.22786	0.36357	0.055048	-2.5312	-2.5062	-2.7875	-3.2667	-2.5333	-2.8021	-2.9146	-2.6896	-3.0104	-2.9271	-2.6813	-3.0292	-2.675	-3.0125	-2.8542	-2.7542	505.068	257.867	458.129	415.186	502.395	205.149	387.409	307.629	397.383	235.349	393.806	211.773	191.337	440.804	500.858	395.157	0.00091693	0.00012365	8.4652e-05	1001.3	5.4341e-06	2.0317e-06	1069.8	214.51	6.9513e-06	3.6144e-06	273.47	76.873	62	17.406	4.1303e-06	24.739	0.00016323	0.00012899	3.6644e-05	987.88	1.607e-06	1.4626e-06	1054.4	212.67	1.5664e-06	1.5355e-06	270.66	76.275	60.474	17.46	1.5953e-06	25.06	418.988	227.182	262.976	165.737	305.421	334.924	165.533	173.637	277.760	302.198	172.640	179.075	179.104	186.858	286.204	185.729	-8191	255	
851.375	1	1	0	0	0.22612	0.075471	0.20073	0.11327	0.088489	0.20594	0.11348	0.11841	0.21047	0.21013	0.28114	0.14016	0.068172	0.11388	0.24525	0.18841	-2.5875	-2.7	-2.5604	-3.2	-2.8063	-2.9521	-3.1958	-2.625	-2.8896	-2.75	-2.8979	-2.9479	-2.7687	-3.0729	-2.725	-2.65	309.937	307.870	244.674	365.824	253.783	235.960	466.539	478.532	249.056	458.912	433.828	189.152	308.480	474.896	460.688	412.890	0.00078857	0.00018153	0.0001362	1007.3	4.024e-06	3.684e-06	1074.9	215.04	7.4517e-06	4.0687e-06	273.75	77.282	62.783	17.367	2.0707e-06	24.774	0.00017665	0.00013976	4.0113e-05	992.99	1.631e-06	1.5429e-06	1058.9	213.58	1.6003e-06	1.533e-06	271.34	76.74	60.671	17.496	1.4741e-06	25.093	419.816	221.415	272.297	166.070	314.178	342.914	165.733	173.314	285.996	292.115	172.448	178.986	178.561	186.734	286.076	185.813	-8191	255	
851.473	1	1	0	0	0.033299	0.19253	0.12227	0.091742	0.21232	0.25696	0.045917	0.055514	0.057421	0.26285	0.18641	0.23211	0.030974	0.16461	0.18503	0.19303	-2.4188	-2.8021	-2.6937	-2.8917	-2.7854	-2.6312	-3.275	-2.5521	-3.0479	-2.75	-2.8104	-2.9313	-2.5708	-2.8021	-3.0312	-2.5646	400.223	218.144	164.619	359.044	194.189	227.338	209.146	438.001	300.445	304.605	401.489	201.155	379.092	511.584	474.573	310.335	0.00085019	0.00012705	8.0597e-05	1010.1	3.176e-06	3.7933e-06	1078.3	217.23	5.4622e-06	1.2872e-06	273.63	77.502	61.924	17.407	3.625e-06	25.027	0.00016824	0.00013596	3.514e-05	995.67	1.4783e-06	1.4751e-06	1062.5	214.04	1.5581e-06	1.4096e-06	271.26	76.9	60.588	17.531	1.4917e-06	25.176	422.177	289.074	252.546	165.831	229.929	292.096	165.683	173.339	269.450	298.502	172.790	178.831	178.603	186.817	273.254	186.035	-8191	255	
851.592	1	1	0	0	0.12513	0.21178	0.20641	0.26388	0.20769	0.15881	0.093913	0.29645	0.24312	0.2941	0.068016	0.366	0.11006	0.16849	0.049761	0.16643	-2.5479	-2.7729	-2.6	-2.9562	-2.8646	-2.6688	-3.0792	-2.7229	-2.9896	-2.7396	-2.7687	-2.8104	-2.7958	-2.5042	-2.9229	-2.65	429.154	477.404	201.093	491.346	247.279	229.664	373.118	429.882	400.787	434.035	443.934	162.124	333.428	492.639	294.349	329.677	0.00095728	0.00041368	7.7211e-05	1007.3	3.6359e-06	1.6027e-06	1075.4	217.41	4.1818e-06	5.1726e-06	274.99	77.45	62.321	17.347	2.5738e-06	24.895	0.00017325	0.00012966	3.5903e-05	994.24	1.5061e-06	1.4197e-06	1060	214.3	1.4818e-06	1.4208e-06	272.26	76.839	60.736	17.564	1.3384e-06	25.236	416.140	239.573	271.795	165.856	274.095	278.886	165.910	173.433	290.736	326.007	173.063	178.649	179.171	186.550	285.782	185.972	-8191	255	
851.688	1	1	0	0	0.30518	0.10597	0.028613	0.20209	0.20644	0.2312	0.21588	0.022937	0.11045	0.16579	0.14597	0.17621	0.15802	0.14108	0.027545	0.2976	-2.5917	-2.7667	-2.5333	-2.9125	-3.0208	-2.6292	-3.0542	-2.6396	-2.6896	-2.8563	-2.5625	-3.0958	-2.8563	-2.6771	-2.8083	-2.6021	267.473	324.731	304.657	454.174	260.364	275.224	395.625	309.365	423.022	263.282	410.479	497.997	504.209	444.856	262.201	229.232	0.00084102	0.00026868	9.714e-05	1004.7	5.8116e-06	3.4821e-06	1075.8	216.11	7.1912e-06	2.3633e-06	275.44	76.912	62.098	17.514	3.7901e-06	24.806	0.00016531	0.0001234	3.4149e-05	990.4	1.4416e-06	1.391e-06	1059.4	213.39	1.4764e-06	1.3176e-06	272.01	76.761	60.688	17.633	1.4228e-06	25.226	415.934	233.871	229.974	165.976	280.158	326.514	165.676	173.434	269.966	318.747	172.676	178.706	179.087	186.690	270.653	185.896	-8191	255	
851.784	1	1	0	0	0.28245	0.019981	0.29228	0.058386	0.087641	0.22636	0.092518	0.14288	0.13368	0.40451	0.20507	0.13624	0.05234	0.15554	0.11032	0.26171	-2.525	-2.8937	-2.4813	-2.9208	-2.8438	-2.5521	-3.1208	-2.7708	-2.7812	-2.95	-2.6979	-2.8979	-2.8187	-2.6792	-2.9521	-2.5854	291.628	353.833	242.733	302.553	218.930	181.430	280.448	413.271	309.803	403.666	226.771	255.798	373.742	446.756	384.747	342.165	0.00088658	0.00024196	0.00012337	1007.7	4.4275e-06	2.964e-06	1075.9	216.76	4.109e-06	7.5319e-07	274.34	77.677	61.871	17.536	3.6094e-06	25.043	0.00016134	0.00012091	3.4827e-05	991.67	1.3788e-06	1.3539e-06	1058.7	213.69	1.3715e-06	1.2532e-06	272.08	77.135	60.908	17.694	1.2101e-06	25.379	418.831	255.233	237.479	166.153	271.484	325.054	165.557	173.632	242.865	239.390	172.562	179.184	178.499	186.863	271.979	185.446	-8191	255	
851.881	1	1	0	0	0.32604	0.065503	0.13378	0.26906	0.15797	0.23593	0.23125	0.20872	0.13	0.19268	0.19822	0.21514	0.20876	0.030795	0.038134	0.19102	-2.2042	-2.9562	-2.3792	-3.0833	-2.9125	-2.7396	-2.9958	-2.9958	-2.8875	-3.1208	-2.8292	-2.7438	-3.0167	-2.8417	-2.8646	-2.7792	452.788	434.705	375.721	485.692	474.789	468.237	440.280	403.026	193.954	454.895	409.346	327.340	474.096	504.888	431.707	387.393	0.00088502	0.00036846	4.9017e-05	1006.5	6.3631e-06	2.2202e-06	1073.4	218.35	6.3539e-06	3.0413e-06	276.54	78.208	62.648	17.731	1.8124e-06	25.281	0.0001487	0.0001036	2.8888e-05	990.3	1.1815e-06	1.0837e-06	1056.6	215.29	1.1063e-06	1.0222e-06	273.56	77.653	61.368	17.828	1.0832e-06	25.558	413.349	251.055	230.913	166.024	290.966	323.237	165.875	173.232	284.984	331.233	172.656	179.062	178.995	186.610	331.314	185.823	-8191	255	
851.977	1	1	0	0	0.038571	0.2167	0.1273	0.072713	0.19748	0.16148	0.26239	0.25268	0.18044	0.073756	0.33351	0.26865	0.20168	0.30594	0.3835	0.17231	-2.2708	-2.9708	-2.6875	-2.9729	-3.275	-2.7021	-3.1958	-3.1625	-2.5687	-3.1562	-2.8625	-2.7167	-2.9917	-2.5583	-2.9271	-2.8229	189.031	341.086	496.426	495.387	190.232	283.072	472.540	249.803	393.901	372.626	404.302	174.416	380.916	467.152	434.987	466.625	0.00083958	0.00029983	7.315e-05	1002.2	4.1444e-06	3.4384e-06	1071	219.82	5.286e-06	2.1982e-06	275.92	78.468	62.784	17.718	4.6595e-06	25.196	0.00013819	9.2384e-05	2.6987e-05	986.86	1.1279e-06	9.8134e-07	1055	217.04	1.0511e-06	9.7655e-07	274.35	77.968	61.238	17.856	1.0209e-06	25.589	412.979	250.110	253.643	165.899	304.211	306.571	165.836	173.221	282.042	295.749	172.334	178.697	178.951	186.449	301.777	185.544	-8191	255	
852.073	1	1	0	0	0.13597	0.36298	0.096449	0.15856	0.24584	0.087479	0.14383	0.04344	0.1437	0.26421	0.29997	0.1262	0.24878	0.13151	0.16387	0.095803	-2.4	-3.1083	-2.6813	-2.8333	-2.9896	-2.6021	-3.1229	-2.9646	-2.6667	-2.8833	-2.8187	-2.7	-3.0375	-2.8333	-2.9688	-2.9417	479.181	271.483	206.998	419.756	384.799	295.351	455.512	471.184	214.961	306.760	419.305	438.221	446.733	450.810	353.913	296.979	0.00089881	0.00039843	8.4541e-05	1003	3.1603e-06	1.8693e-06	1071.4	219.94	6.2259e-06	3.6366e-06	277.79	78.647	62.421	17.656	2.7566e-06	25.382	0.00013341	8.8839e-05	2.5064e-05	984.51	1.0116e-06	9.1939e-07	1052.1	217.03	9.7399e-07	9.195e-07	274.34	77.93	61.231	17.827	9.6385e-07	25.594	418.274	236.249	252.496	165.833	289.544	297.549	165.936	173.449	261.972	264.282	172.557	179.150	179.258	186.637	310.781	185.501	-8191	255	
852.194	1	1	0	0	0.24658	0.2255	0.3098	0.053107	0.017972	0.19272	0.27142	0.072517	0.093882	0.12476	0.20936	0.10781	0.21804	0.31704	0.2424	0.063172	-2.3438	-3.0229	-2.9188	-2.7208	-3.0375	-2.8875	-3.0292	-2.875	-2.6646	-3.0812	-2.9625	-2.7396	-2.8333	-2.6896	-2.8375	-2.8375	327.917	424.837	334.840	379.407	295.112	362.030	446.106	374.004	491.261	445.466	421.523	429.482	227.659	241.964	409.005	410.442	0.00079913	0.00019282	9.2532e-05	1000.7	1.149e-06	3.3709e-06	1068.6	220.62	6.4857e-06	4.0875e-06	275.67	78.239	62.718	17.715	3.1131e-06	25.373	0.00012585	7.9989e-05	2.2991e-05	983.21	9.8283e-07	9.187e-07	1051.6	217.46	9.6661e-07	9.1201e-07	273.64	77.599	61.095	17.781	9.4159e-07	25.581	418.683	245.769	270.847	166.421	286.987	320.147	165.954	173.452	288.309	272.349	172.721	178.886	179.020	186.691	295.192	185.752	-8191	255	
852.288	1	1	0	0	0.10201	0.16232	0.25623	0.22258	0.26096	0.039107	0.18999	0.23267	0.21379	0.22902	0.097769	0.12151	0.18687	0.13976	0.083655	0.2669	-2.4437	-3.0146	-2.6896	-2.7812	-2.8542	-2.7792	-2.7938	-3.25	-2.6521	-3.075	-2.8917	-2.7646	-2.8979	-2.8229	-2.8292	-2.9688	400.687	193.571	474.251	449.333	292.811	207.476	471.148	209.804	472.010	411.159	324.234	400.567	388.530	371.672	501.065	423.240	0.0009277	0.00036512	8.7072e-05	992.75	3.9361e-06	2.6076e-06	1068.8	220.4	9.6835e-06	1.1667e-06	277.41	78.205	62.195	17.784	2.7151e-06	25.341	0.0001263	8.156e-05	2.2682e-05	978.19	9.8929e-07	8.8383e-07	1048.8	216.9	1.0358e-06	9.3963e-07	274.48	77.59	60.971	17.78	9.5033e-07	25.539	418.268	240.739	255.536	166.111	262.437	313.597	165.768	173.635	301.761	351.065	172.703	178.952	178.743	186.850	294.632	185.744	-8191	255	
852.384	1	1	0	0	0.25316	0.21648	0.22219	0.27547	0.11873	0.26994	0.22787	0.26819	0.1574	0.13058	0.060549	0.02451	0.09987	0.18922	0.11906	0.1908	-2.6063	-2.6771	-2.8438	-2.7125	-3.0458	-2.775	-2.8229	-3.0604	-2.5312	-3.0792	-2.9417	-2.8625	-2.9167	-2.8021	-2.8	-3.0229	275.678	463.687	343.946	482.760	304.320	465.363	443.055	427.105	199.755	388.229	360.039	438.050	205.775	220.567	348.522	183.092	0.00095666	0.00026865	0.00013013	997.26	4.7432e-06	3.7025e-06	1062.2	219.68	5.8992e-06	2.1034e-06	277.13	77.952	62.523	17.734	3.2834e-06	25.095	0.0001278	8.2516e-05	2.277e-05	979.79	9.726e-07	8.6105e-07	1046.8	216.77	9.8662e-07	9.1118e-07	273.26	77.531	61.105	17.761	9.2315e-07	25.435	416.382	233.044	261.354	166.085	271.836	296.474	165.770	173.479	289.824	301.334	172.557	179.142	179.298	186.419	268.756	185.976	-8191	255	
#DATA ENDS
