BOXY.EXE: ISS Imagent and Oximeter Data Acquisition Program Version 0.80
Ascii Record File

#ACQ INFORMATION
2  Detector Channels 
16  External MUX Channels 
1  Auxiliary Channels 
5000  Waveform (CCF) Frequency (Hz)
1  Waveforms Skipped 
30  Waveforms Averaged 
1  Cycles Averaged 
16  Acquisitions per Waveform 
10.0806  Updata Rate (Hz) 

#FILE INFORMATION
TRUE -- External MUX Channel results are PARSED.
FALSE -- AC DC and Phase are NOT grouped.
TRUE -- Companion Program Settings File CREATED.
FALSE -- AC data not excluded
FALSE -- DC data not excluded
FALSE -- Phase data not excluded
FALSE -- Auxillary Chn. data not excluded
Tab delimiters

#CALIBRATION STATE
TRUE -- Waveform Calibration Values APPLIED.


#AUX CALIBRATION VALUES
Val Type	aux-1	

Term	1.0000e+00	
Factor	0.0000e+00	


#WF CALIBRATION VALUES
A = Detector Channel
Val Type	A-AC1	A-AC2	A-AC3	A-AC4	A-AC5	A-AC6	A-AC7	A-AC8	A-AC9	A-AC10	A-AC11	A-AC12	A-AC13	A-AC14	A-AC15	A-AC16	A-DC1	A-DC2	A-DC3	A-DC4	A-DC5	A-DC6	A-DC7	A-DC8	A-DC9	A-DC10	A-DC11	A-DC12	A-DC13	A-DC14	A-DC15	A-DC16	A-Ph1	A-Ph2	A-Ph3	A-Ph4	A-Ph5	A-Ph6	A-Ph7	A-Ph8	A-Ph9	A-Ph10	A-Ph11	A-Ph12	A-Ph13	A-Ph14	A-Ph15	A-Ph16	

Term	0.00000e+00	0.00000e+00	0.00000e+00	0.00000e+00	0.00000e+00	0.00000e+00	0.00000e+00	0.00000e+00	0.00000e+00	0.00000e+00	0.00000e+00	0.00000e+00	0.00000e+00	0.00000e+00	0.00000e+00	0.00000e+00	0.00000e+00	0.00000e+00	0.00000e+00	0.00000e+00	0.00000e+00	0.00000e+00	0.00000e+00	0.00000e+00	0.00000e+00	0.00000e+00	0.00000e+00	0.00000e+00	0.00000e+00	0.00000e+00	0.00000e+00	0.00000e+00	0.00000e+00	0.00000e+00	0.00000e+00	0.00000e+00	0.00000e+00	0.00000e+00	0.00000e+00	0.00000e+00	0.00000e+00	0.00000e+00	0.00000e+00	0.00000e+00	0.00000e+00	0.00000e+00	0.00000e+00	0.00000e+00	
Factor	1.00000e+00	1.00000e+00	1.00000e+00	1.00000e+00	1.00000e+00	1.00000e+00	1.00000e+00	1.00000e+00	1.00000e+00	1.00000e+00	1.00000e+00	1.00000e+00	1.00000e+00	1.00000e+00	1.00000e+00	1.00000e+00	1.00000e+00	1.00000e+00	1.00000e+00	1.00000e+00	1.00000e+00	1.00000e+00	1.00000e+00	1.00000e+00	1.00000e+00	1.00000e+00	1.00000e+00	1.00000e+00	1.00000e+00	1.00000e+00	1.00000e+00	1.00000e+00	X	X	X	X	X	X	X	X	X	X	X	X	X	X	X	X	

B = Detector Channel
Val Type	B-AC1	B-AC2	B-AC3	B-AC4	B-AC5	B-AC6	B-AC7	B-AC8	B-AC9	B-AC10	B-AC11	B-AC12	B-AC13	B-AC14	B-AC15	B-AC16	B-DC1	B-DC2	B-DC3	B-DC4	B-DC5	B-DC6	B-DC7	B-DC8	B-DC9	B-DC10	B-DC11	B-DC12	B-DC13	B-DC14	B-DC15	B-DC16	B-Ph1	B-Ph2	B-Ph3	B-Ph4	B-Ph5	B-Ph6	B-Ph7	B-Ph8	B-Ph9	B-Ph10	B-Ph11	B-Ph12	B-Ph13	B-Ph14	B-Ph15	B-Ph16	

Term	0.00000e+00	0.00000e+00	0.00000e+00	0.00000e+00	0.00000e+00	0.00000e+00	0.00000e+00	0.00000e+00	0.00000e+00	0.00000e+00	0.00000e+00	0.00000e+00	0.00000e+00	0.00000e+00	0.00000e+00	0.00000e+00	0.00000e+00	0.00000e+00	0.00000e+00	0.00000e+00	0.00000e+00	0.00000e+00	0.00000e+00	0.00000e+00	0.00000e+00	0.00000e+00	0.00000e+00	0.00000e+00	0.00000e+00	0.00000e+00	0.00000e+00	0.00000e+00	-9.90304e+01	-1.35732e+02	-1.36445e+02	-1.81955e+02	-6.32359e+01	-7.00468e+01	-1.55865e+02	-1.62015e+02	-5.28796e+01	-6.72096e+01	-1.73578e+02	-1.70098e+02	-1.84416e+02	-1.76662e+02	-7.14242e+01	-1.49046e+02	
Factor	1.61227e-05	1.53640e-04	4.82937e-05	1.70074e-01	1.20327e-06	1.47695e-06	1.57498e-01	5.08174e-02	1.03867e-06	1.45238e-06	9.60303e-02	2.81729e-02	5.38668e-02	9.01616e-03	1.33076e-06	1.28469e-02	1.78411e-06	1.91716e-06	5.33672e-07	8.42362e-02	2.08320e-08	2.10161e-08	7.33345e-02	2.52856e-02	2.08088e-08	2.10259e-08	4.56947e-02	1.35968e-02	2.61707e-02	4.47479e-03	2.08188e-08	6.15170e-03	X	X	X	X	X	X	X	X	X	X	X	X	X	X	X	X	



#DISTANCE SETTINGS
A = Detector Channel
A-1	A-2	A-3	A-4	A-5	A-6	A-7	A-8	A-9	A-10	A-11	A-12	A-13	A-14	A-15	A-16	

2.5000e+00	3.0000e+00	2.5000e+00	3.0000e+00	2.0000e+00	3.0000e+00	1.5000e+00	3.0000e+00	3.0000e+00	3.0000e+00	3.0000e+00	3.0000e+00	3.0000e+00	3.0000e+00	1.5000e+00	3.0000e+00	

B = Detector Channel
B-1	B-2	B-3	B-4	B-5	B-6	B-7	B-8	B-9	B-10	B-11	B-12	B-13	B-14	B-15	B-16	

1.0000e+01	1.0000e+01	1.0000e+01	1.4400e+00	1.0000e+01	1.0000e+01	1.5100e+00	1.9400e+00	1.0000e+01	1.0000e+01	1.9900e+00	2.4900e+00	2.4100e+00	2.9000e+00	1.0000e+01	2.9800e+00	




#DATA BEGINS
time	group	step	mark	flag	A-AC1	A-AC2	A-AC3	A-AC4	A-AC5	A-AC6	A-AC7	A-AC8	A-AC9	A-AC10	A-AC11	A-AC12	A-AC13	A-AC14	A-AC15	A-AC16	A-DC1	A-DC2	A-DC3	A-DC4	A-DC5	A-DC6	A-DC7	A-DC8	A-DC9	A-DC10	A-DC11	A-DC12	A-DC13	A-DC14	A-DC15	A-DC16	A-Ph1	A-Ph2	A-Ph3	A-Ph4	A-Ph5	A-Ph6	A-Ph7	A-Ph8	A-Ph9	A-Ph10	A-Ph11	A-Ph12	A-Ph13	A-Ph14	A-Ph15	A-Ph16	B-AC1	B-AC2	B-AC3	B-AC4	B-AC5	B-AC6	B-AC7	B-AC8	B-AC9	B-AC10	B-AC11	B-AC12	B-AC13	B-AC14	B-AC15	B-AC16	B-DC1	B-DC2	B-DC3	B-DC4	B-DC5	B-DC6	B-DC7	B-DC8	B-DC9	B-DC10	B-DC11	B-DC12	B-DC13	B-DC14	B-DC15	B-DC16	B-Ph1	B-Ph2	B-Ph3	B-Ph4	B-Ph5	B-Ph6	B-Ph7	B-Ph8	B-Ph9	B-Ph10	B-Ph11	B-Ph12	B-Ph13	B-Ph14	B-Ph15	B-Ph16	aux-1	digaux	

1638.945	1	1	0	256	0.19552	0.09812	0.09653	0.13238	0.17513	0.0088716	0.26565	0.09043	0.3599	0.32585	0.11562	0.11022	0.051912	0.12683	0.13611	0.19475	-2.1917	-2.6562	-2.7854	-2.7625	-2.9437	-2.6708	-2.6729	-2.8958	-2.3937	-2.6813	-2.9479	-2.6792	-2.8812	-2.7729	-2.6042	-2.6625	-105.665	-95.204	115.057	-40.170	183.249	-63.854	146.326	-16.976	55.259	15.420	185.292	210.865	-42.637	-88.641	-93.791	134.361	0.00012776	0.00018259	0.00010871	943.9	1.1447e-06	2.1859e-06	991.63	194.61	1.334e-06	1.2615e-06	240.91	66.227	51.159	15.222	2.4323e-06	21.269	6.9602e-05	6.1772e-05	1.6924e-05	936.84	7.0286e-07	6.6249e-07	991.86	194.64	6.9796e-07	6.483e-07	239.37	66.994	51.243	15.38	5.8709e-07	21.412	-121.879	-29.425	-52.961	-121.800	32.090	63.030	-121.948	-114.866	-25.880	29.031	-115.049	-109.193	-108.424	-101.201	-15.722	-101.508	-8191	255	
1639.042	1	1	0	0	0.40758	0.064349	0.2115	0.34764	0.21299	0.25017	0.28022	0.12112	0.34988	0.16612	0.19451	0.18607	0.26134	0.15007	0.014703	0.11878	-2.0604	-2.6937	-2.7958	-2.625	-2.7771	-2.95	-2.7021	-3.0229	-2.6792	-2.6917	-2.9875	-2.8646	-2.7938	-2.7708	-2.3854	-2.8917	33.077	-116.368	-82.240	-121.003	212.850	82.518	192.165	172.331	-13.085	-117.903	197.250	126.266	-59.364	-105.735	65.858	16.933	0.0001112	0.00022628	7.6089e-05	933.43	7.1501e-07	2.5564e-06	980.34	192.15	2.106e-06	2.3306e-06	238.04	65.75	50.712	15.089	1.2677e-06	21.036	6.1381e-05	5.2267e-05	1.4203e-05	925.74	5.8382e-07	5.6323e-07	978.1	192.21	5.5391e-07	5.2963e-07	236.58	66.385	50.574	15.203	5.2884e-07	21.196	-121.400	-39.618	-26.224	-121.918	21.798	2.992	-121.859	-114.724	-25.108	39.179	-115.025	-108.856	-108.098	-101.078	74.476	-101.754	-8191	255	
1639.138	1	1	0	0	0.20204	0.16736	0.15515	0.28562	0.21196	0.1398	0.050569	0.25184	0.10063	0.084419	0.12831	0.25348	0.10936	0.21258	0.056294	0.22137	-2.2708	-2.4375	-2.875	-2.7146	-2.8187	-2.8958	-2.7354	-2.975	-2.725	-2.8521	-3.0479	-2.4938	-2.8812	-2.8833	-2.6312	-2.9104	-80.223	225.693	31.944	213.770	99.914	-90.644	200.637	167.139	-129.761	10.221	23.689	164.310	136.352	-39.006	92.538	126.961	0.00011757	0.00022688	9.6428e-05	932.24	1.0556e-06	3.217e-06	974.51	191.11	1.265e-06	3.1424e-06	237.75	65.406	50.969	15.102	2.2745e-06	21.123	5.7615e-05	5.0429e-05	1.3921e-05	921.46	5.8212e-07	5.6109e-07	973.58	191.35	5.9383e-07	6.0174e-07	236.53	66.338	50.817	15.266	6.5523e-07	21.342	-125.263	-28.272	-41.298	-122.053	102.812	31.555	-121.885	-114.622	-65.274	-7.658	-115.300	-109.009	-109.025	-101.216	28.710	-101.914	-8191	255	
1639.234	1	1	0	0	0.040121	0.27835	0.11474	0.040382	0.10283	0.1074	0.31522	0.18855	0.17866	0.30388	0.10781	0.061454	0.1216	0.20495	0.11785	0.21002	-2.3958	-2.4271	-2.9292	-2.725	-2.7125	-2.9917	-2.7104	-2.9083	-2.6771	-2.6937	-3.0958	-2.7292	-2.7146	-2.8167	-2.6667	-2.65	93.854	206.336	158.166	162.128	57.535	87.350	-116.895	42.474	79.453	102.744	38.180	38.123	45.917	220.675	81.939	105.416	0.00012861	0.00021722	9.2916e-05	935.44	4.2941e-07	3.2099e-06	981.92	193.07	2.6643e-06	1.0889e-06	240.2	66.108	51.568	15.208	7.7284e-07	21.363	6.767e-05	6.1956e-05	1.7248e-05	926.96	7.0486e-07	6.6542e-07	982.75	193.26	7.2363e-07	6.8698e-07	238.9	66.89	51.316	15.385	6.7435e-07	21.513	-124.691	-8.738	-69.845	-122.010	28.812	23.893	-121.966	-114.433	-30.300	49.795	-114.874	-108.882	-108.900	-101.757	54.645	-101.678	-8191	255	
1639.330	1	1	0	0	0.30083	0.23086	0.1604	0.17318	0.14566	0.059324	0.32791	0.27034	0.15532	0.010413	0.17037	0.065268	0.094292	0.17369	0.12875	0.15162	-2.3333	-2.6479	-2.8812	-2.7958	-2.7292	-2.8396	-2.8792	-2.8104	-2.8458	-2.6667	-2.9833	-2.8792	-2.6125	-2.9354	-2.5667	-2.9542	191.599	53.499	-86.096	224.839	163.552	-114.389	204.329	31.826	-119.859	104.294	-84.502	205.435	118.807	182.093	49.938	203.757	0.00011525	0.00030634	9.5585e-05	940.83	1.6136e-06	1.7996e-06	989.59	193.28	2.2941e-06	3.1445e-06	241.17	66.778	51.453	15.364	3.1396e-06	21.387	6.7696e-05	6.3035e-05	1.7629e-05	933.27	7.1315e-07	6.7593e-07	988.77	194.05	7.2423e-07	6.9429e-07	239.81	67.213	51.52	15.547	7.3009e-07	21.569	-127.382	-52.580	-64.553	-122.033	51.933	25.458	-121.755	-114.944	-12.721	30.069	-115.361	-109.130	-108.749	-101.875	-18.429	-101.803	-8191	255	
1639.426	1	1	0	0	0.070205	0.16809	0.043353	0.182	0.075024	0.14126	0.073233	0.053476	0.244	0.17759	0.144	0.15815	0.1375	0.16595	0.16721	0.042	-2.3521	-2.5167	-2.7979	-2.7958	-2.675	-2.9771	-2.7104	-2.8	-2.8812	-2.6104	-2.9292	-2.8229	-2.4333	-3.0104	-2.6396	-2.7833	48.393	-124.736	99.049	192.965	80.213	149.875	-6.722	-12.182	35.287	-82.729	92.424	192.457	143.342	-39.005	-105.432	-23.574	0.00010399	0.00034388	8.5322e-05	951.82	1.1067e-06	2.9115e-06	1001.1	195.61	2.2664e-06	7.8032e-07	244.19	67.122	52.505	15.431	3.3988e-06	21.476	7.5657e-05	7.0516e-05	2.0144e-05	944.87	8.0381e-07	7.8902e-07	1001.7	196.03	8.7861e-07	8.3123e-07	242.34	67.98	52.47	15.673	8.982e-07	21.742	-129.855	-63.953	-43.033	-122.099	-6.159	-8.142	-121.859	-115.035	10.077	66.740	-115.101	-108.685	-108.848	-101.816	-27.320	-102.038	-8191	255	
1639.545	1	1	0	0	0.29849	0.11522	0.2122	0.29911	0.15708	0.057397	0.34135	0.1349	0.17363	0.33981	0.10874	0.14569	0.1906	0.12485	0.2588	0.11602	-2.2729	-2.6458	-2.9958	-2.8812	-2.8	-2.9917	-2.8812	-2.7729	-3.0375	-2.6896	-3.0396	-2.7229	-2.3667	-2.7687	-2.7812	-2.6312	36.643	180.811	165.967	110.112	-67.789	-58.724	127.119	104.789	92.307	3.595	41.782	-50.259	-65.416	128.265	187.083	-127.798	0.00013122	0.00037248	0.00011797	964.19	1.6399e-06	1.8616e-06	1012.6	196.42	1.5638e-06	1.1485e-06	245.48	67.102	52.202	15.385	1.9367e-06	21.492	9.0651e-05	8.4283e-05	2.3822e-05	957.72	9.6808e-07	9.3815e-07	1011.5	197.89	9.9154e-07	9.5208e-07	243.63	68.068	52.552	15.629	9.708e-07	21.71	-121.304	-44.114	-59.920	-122.096	-27.055	23.638	-122.114	-114.955	-5.671	-20.366	-115.290	-109.057	-108.557	-101.538	74.928	-101.963	-8191	255	
1639.641	1	1	0	0	0.22409	0.20849	0.02887	0.073517	0.05599	0.12024	0.13874	0.20993	0.071228	0.036892	0.13535	0.10491	0.20649	0.28426	0.06134	0.23147	-2.5062	-2.4708	-2.9458	-3	-2.6167	-2.9229	-2.8375	-2.7083	-2.6896	-2.5729	-2.9208	-2.9042	-2.5208	-2.8458	-2.7854	-2.6917	72.140	-99.043	-25.006	224.362	-15.393	137.022	-42.675	180.752	98.724	71.483	161.309	69.050	33.559	79.169	-105.591	199.773	9.7934e-05	0.00020894	7.6816e-05	963.29	6.9205e-07	3.5316e-07	1009.5	196.3	1.9014e-06	1.5074e-06	244.35	66.55	52.054	15.364	1.0451e-06	21.355	9.4231e-05	8.9176e-05	2.4697e-05	957.31	9.7997e-07	9.4603e-07	1010.2	197.86	9.6111e-07	9.272e-07	243.56	67.791	52.277	15.536	8.9824e-07	21.585	219.702	-47.976	-40.463	-122.087	-9.849	-96.979	-121.862	-115.014	-37.888	-12.003	-115.150	-108.818	-108.395	-101.630	-14.097	-102.176	-8191	255	
1639.715	1	1	0	0	0.21732	0.12089	0.098098	0.23179	0.07283	0.25436	0.16366	0.23804	0.097684	0.15662	0.051543	0.051658	0.072679	0.12573	0.1645	0.17943	-2.4604	-2.6688	-2.7333	-2.9021	-2.4646	-2.7687	-3.0062	-2.7667	-2.8104	-2.7979	-2.6042	-2.8625	-2.5062	-2.8229	-2.9021	-2.5917	32.161	57.415	184.288	225.472	-43.256	-22.810	96.493	180.198	-80.196	-2.734	6.826	208.717	128.069	154.229	149.844	118.086	0.00010747	0.0001441	9.0789e-05	955.11	5.8879e-07	2.0509e-06	1002.3	194.38	1.76e-06	2.0935e-06	240.63	66.328	51.375	15.236	2.1685e-06	21.262	8.6392e-05	7.7837e-05	2.1732e-05	949.85	8.8731e-07	8.5071e-07	1001.7	195.83	8.666e-07	8.5781e-07	240.66	67.212	51.55	15.391	8.3097e-07	21.427	-127.673	-54.232	-48.005	-121.969	-10.648	1.179	-122.082	-114.768	-18.490	16.317	-115.573	-108.772	-108.559	-101.734	42.501	-101.864	-8191	255	
1639.834	1	1	0	0	0.13275	0.14699	0.063968	0.10569	0.067808	0.26238	0.10463	0.11109	0.14642	0.17178	0.20263	0.13461	0.05554	0.23093	0.22874	0.055312	-2.5354	-2.7479	-2.5896	-3.1188	-2.5979	-2.7979	-3.0229	-2.7417	-2.8208	-2.8667	-2.5958	-2.8854	-2.6937	-2.75	-2.825	-2.4437	0.008	144.185	-92.817	89.202	164.160	-7.975	117.891	-45.962	172.560	-125.531	-75.121	172.391	136.977	-45.630	27.280	221.104	0.00012453	0.00016121	8.3314e-05	947.56	1.6612e-06	2.5566e-06	997.16	193.78	1.9831e-06	3.3746e-06	241.21	65.771	51.671	15.06	1.6858e-06	20.978	8.1597e-05	7.4078e-05	2.1063e-05	941.68	8.4057e-07	7.9489e-07	995.99	194.56	8.1102e-07	7.8672e-07	239.25	66.835	51.413	15.284	7.6956e-07	21.263	-131.558	-87.465	-64.528	-121.975	10.959	11.660	-122.049	-115.072	4.509	12.784	-115.220	-108.717	-108.088	-101.897	-84.516	-101.519	-8191	255	
1639.930	1	1	0	0	0.12481	0.16666	0.12075	0.16505	0.14184	0.068096	0.23887	0.069672	0.1462	0.02436	0.24947	0.12505	0.079181	0.063671	0.011768	0.19101	-2.3458	-2.7958	-2.6333	-3.0312	-2.6063	-2.5104	-3.075	-2.7667	-2.7667	-2.7396	-2.5854	-2.8812	-2.6625	-2.7396	-2.8312	-2.4896	31.903	64.365	-112.384	-48.542	-41.675	153.417	158.074	143.500	-129.276	10.595	93.897	224.179	136.984	57.064	5.949	188.291	0.00011457	0.00015597	8.2459e-05	944.44	1.6181e-06	2.8975e-06	990.72	192.77	1.0491e-06	2.525e-06	238.93	65.678	51.524	15.018	1.381e-06	20.945	7.8493e-05	6.9461e-05	1.9288e-05	936.85	7.9778e-07	7.5601e-07	989.42	192.99	7.8991e-07	7.5939e-07	237.17	66.589	51.224	15.218	7.3325e-07	21.208	221.790	-61.615	-28.659	-121.808	9.516	-15.433	-122.059	-114.742	-4.608	18.754	-115.166	-109.227	-108.366	-101.353	-30.790	-101.580	-8191	255	
1640.026	1	1	0	0	0.27849	0.1754	0.18551	0.24449	0.037444	0.27898	0.045691	0.22705	0.16738	0.30721	0.14551	0.21508	0.21877	0.058643	0.10218	0.14646	-2.3771	-2.6979	-2.3583	-2.8667	-2.7562	-2.7854	-2.9417	-2.7771	-2.7812	-2.6146	-2.6167	-2.8875	-2.6813	-2.6562	-2.8375	-2.7667	-68.366	111.512	101.269	135.255	119.066	157.174	197.939	30.167	-5.690	-13.609	216.302	110.622	169.952	83.650	186.346	-11.270	9.9104e-05	0.00010535	6.912e-05	936.6	1.9247e-06	2.8283e-06	983.56	191.03	1.6989e-06	1.9639e-06	236.6	65.318	50.475	14.846	7.4362e-07	20.775	7.5583e-05	6.7875e-05	1.8625e-05	931.23	7.8406e-07	7.2138e-07	983.08	191.77	7.4448e-07	7.1256e-07	235.59	66.093	50.584	15.063	7.0576e-07	21.066	-126.319	24.730	-45.500	-121.811	7.412	-2.015	-122.003	-114.799	-10.170	14.949	-115.164	-108.910	-108.145	-101.334	4.772	-101.675	-8191	255	
1640.122	1	1	0	0	0.13575	0.17288	0.20912	0.23517	0.10442	0.24995	0.22564	0.19876	0.37476	0.036822	0.33809	0.11255	0.01723	0.31524	0.19572	0.32213	-2.4437	-2.7542	-2.6417	-2.9437	-2.6271	-2.6125	-3.125	-2.5167	-2.7208	-2.7271	-2.5042	-2.9958	-2.6604	-2.675	-3.0187	-2.5542	-32.319	184.994	56.688	212.225	110.356	-37.573	203.719	-126.616	29.656	199.991	124.228	11.468	42.679	-116.056	-121.521	-124.297	0.00011522	0.00018609	7.7632e-05	934.25	2.0264e-06	2.1532e-06	982.02	189.73	1.8206e-06	2.1744e-06	236.77	64.977	50.144	14.915	1.0794e-06	20.785	7.2543e-05	6.4892e-05	1.8477e-05	925.63	7.286e-07	7.1131e-07	979.45	190.78	7.4621e-07	6.9044e-07	235.22	65.806	50.266	15.073	7.0398e-07	21.019	-121.553	-27.531	3.483	-121.865	-36.094	-28.599	-121.849	-114.739	-38.995	10.748	-115.166	-108.859	-108.417	-101.324	44.397	-101.554	-8191	255	
1640.243	1	1	0	0	0.14324	0.2093	0.17405	0.19719	0.13138	0.12942	0.33354	0.25303	0.085458	0.12115	0.21443	0.20143	0.1166	0.21689	0.14709	0.25807	-2.2333	-2.8438	-2.4667	-2.8604	-2.7292	-2.6146	-2.9833	-2.4667	-2.6875	-2.9083	-2.525	-2.6646	-2.9083	-2.3917	-2.6937	-2.7938	52.021	195.538	-14.444	188.989	130.124	120.199	222.646	182.878	-3.970	139.375	136.645	205.915	101.128	170.121	20.990	217.319	0.00010491	0.00033699	6.9689e-05	930.97	1.2264e-06	1.8987e-06	972.15	189.2	8.274e-07	2.5401e-06	236.38	64.936	49.982	14.822	1.8124e-06	20.835	7.2977e-05	6.4237e-05	1.7775e-05	922.98	7.2365e-07	6.934e-07	973.9	189.95	7.0741e-07	6.833e-07	234.43	65.665	50.169	15	6.7193e-07	20.983	-119.658	-73.022	-99.847	-121.725	-6.270	4.741	-121.958	-114.509	-87.651	15.917	-115.308	-108.981	-108.178	-101.136	-10.589	-101.889	-8191	255	
1640.337	1	1	0	0	0.13375	0.016157	0.18359	0.065952	0.19498	0.29468	0.12688	0.20215	0.23411	0.3938	0.27341	0.15194	0.30088	0.32159	0.093511	0.069427	-2.0958	-2.7292	-2.4813	-2.8833	-2.7896	-2.5292	-3.1354	-2.8083	-2.5229	-2.8187	-2.7083	-2.7042	-2.9083	-2.5708	-2.8167	-2.7083	80.720	-44.367	-31.006	153.567	143.377	-94.379	141.296	113.443	86.141	11.425	166.790	167.764	64.424	-68.674	193.890	-83.287	0.00011878	0.00024781	8.0917e-05	924.88	2.1663e-06	3.1197e-07	972.74	189.09	1.2176e-06	2.9093e-06	236.48	64.311	50.667	14.865	1.4156e-06	20.631	6.9885e-05	6.2923e-05	1.6943e-05	917.9	7.0508e-07	6.6139e-07	973.05	189.9	7.026e-07	6.5986e-07	233.65	65.355	50.363	14.973	6.4222e-07	20.942	227.217	-46.370	-27.623	-121.905	6.328	-14.272	-121.899	-114.771	-27.052	3.992	-115.203	-108.146	-108.618	-101.316	31.129	-101.810	-8191	255	
1640.435	1	1	0	0	0.10227	0.20196	0.086947	0.29166	0.11671	0.23554	0.02532	0.1811	0.11898	0.21488	0.36438	0.2313	0.13185	0.21252	0.083537	0.14174	-2.1646	-2.7792	-2.6021	-2.7896	-2.9604	-2.7438	-3.1625	-2.7708	-2.5687	-2.8063	-2.7188	-2.6562	-2.7167	-2.5396	-2.8333	-2.6875	148.295	122.396	-51.668	119.516	62.049	144.539	157.218	160.612	91.035	103.640	82.208	145.602	140.914	214.729	113.064	101.773	0.00010942	0.00030374	0.00010747	924.25	2.277e-06	1.5597e-06	970.7	188.44	1.4782e-06	2.515e-06	235.06	64.415	50.159	14.735	9.7484e-07	20.627	6.6194e-05	6.0055e-05	1.6124e-05	915.55	6.6662e-07	6.3666e-07	969.23	188.92	6.6796e-07	6.4199e-07	232.72	65.373	49.802	14.907	6.4386e-07	20.862	-129.231	-33.599	-25.397	-121.967	2.473	13.044	-122.067	-114.986	63.989	29.219	-114.854	-108.823	-108.398	-101.695	-20.920	-101.644	-8191	255	
1640.529	1	1	0	0	0.10591	0.095582	0.26609	0.095955	0.30552	0.20997	0.21743	0.23575	0.097092	0.059232	0.19999	0.16657	0.29641	0.1771	0.1773	0.18527	-2.0354	-2.6521	-2.5875	-2.5292	-2.7604	-2.475	-2.9854	-2.7646	-2.35	-2.7917	-2.8063	-2.6667	-2.9354	-2.7458	-2.6125	-2.825	-95.115	-131.073	-3.272	152.587	57.372	93.358	173.816	58.260	77.393	-3.808	0.624	213.568	209.734	-89.395	0.445	95.078	0.00011386	0.00024224	7.5439e-05	919.54	2.2185e-06	9.3784e-07	966.34	187.82	1.5101e-06	1.9578e-06	232.39	64.15	50.229	14.79	1.6193e-06	20.467	6.334e-05	5.8929e-05	1.6005e-05	911.89	6.6897e-07	6.2729e-07	964.07	188.18	6.4564e-07	6.0213e-07	231.05	64.904	49.747	14.851	6.0257e-07	20.664	-124.314	-48.453	-59.536	-121.790	6.953	66.041	-121.803	-114.572	14.852	15.986	-115.233	-108.467	-108.127	-101.498	-15.576	-101.332	-8191	255	
1640.625	1	1	0	0	0.15481	0.06912	0.077468	0.16171	0.32698	0.2069	0.27455	0.10784	0.097075	0.27346	0.15645	0.10812	0.12846	0.2348	0.039599	0.23708	-2.0479	-2.8729	-2.6625	-2.7542	-2.9292	-2.6104	-2.8229	-2.8312	-2.425	-2.9833	-2.7562	-2.5792	-2.7562	-2.6312	-2.5958	-2.7708	178.607	204.159	199.097	-62.280	-62.981	-49.364	125.003	165.104	-69.400	-131.886	121.078	-48.067	91.210	203.589	214.307	60.304	0.00010294	0.00017507	5.9273e-05	912.29	1.1738e-06	1.8558e-06	958.38	186.52	1.3209e-06	3.2192e-06	232.7	64.064	50.068	14.695	1.4719e-06	20.421	6.0875e-05	5.2997e-05	1.4898e-05	904.36	6.0083e-07	5.6958e-07	958.63	186.97	5.9383e-07	5.6871e-07	230.58	64.744	49.568	14.772	5.6597e-07	20.638	-130.333	-62.404	-42.165	-121.675	63.142	85.111	-121.785	-114.348	-5.050	17.727	-114.859	-108.392	-108.278	-101.173	-5.347	-101.379	-8191	255	
1640.722	1	1	0	0	0.22239	0.21143	0.31917	0.056289	0.075172	0.033592	0.064325	0.17598	0.14397	0.22642	0.27355	0.090286	0.17004	0.21696	0.12058	0.12086	-2.2188	-2.8292	-2.7083	-2.5896	-2.7646	-2.6063	-2.8458	-2.8875	-2.5583	-2.7646	-2.8583	-2.6437	-2.8958	-2.7333	-2.7458	-2.9042	-83.541	101.796	155.923	25.446	62.589	104.936	-108.792	199.094	-58.303	137.785	81.385	3.275	27.431	206.949	163.606	46.806	0.0001065	0.00027148	6.6825e-05	911.27	2.2695e-06	9.3124e-07	957.31	186.78	1.1711e-06	2.139e-06	231.7	64.273	49.836	14.73	1.4996e-06	20.496	5.9381e-05	5.1424e-05	1.4181e-05	902.95	5.7466e-07	5.508e-07	955.25	186.78	5.9249e-07	5.6205e-07	230.58	64.685	49.422	14.766	5.5647e-07	20.663	-127.567	10.416	-47.033	-122.060	-53.991	-14.565	-121.786	-114.728	-46.944	30.054	-114.779	-108.558	-108.185	-101.430	-33.400	-101.347	-8191	255	
1640.842	1	1	0	0	0.14399	0.11431	0.12331	0.20246	0.20451	0.083339	0.12896	0.21626	0.19312	0.2268	0.21882	0.26707	0.091669	0.28411	0.23657	0.075952	-2.0833	-2.8958	-3.0146	-2.4979	-2.85	-2.5896	-2.8063	-2.9813	-2.5104	-2.9188	-2.8646	-2.6125	-2.9062	-2.7375	-2.6188	-2.8521	95.917	6.522	200.499	222.737	-29.519	-48.357	215.220	144.642	35.635	141.628	-97.688	-130.029	-48.616	-17.578	-48.529	106.509	0.00010316	0.00021044	8.043e-05	912.19	1.9172e-06	1.3336e-06	958.77	186.71	2.1551e-06	2.222e-06	231.16	63.763	49.959	14.684	1.5257e-06	20.445	5.8299e-05	4.8504e-05	1.3878e-05	902.67	5.8746e-07	5.3534e-07	956.31	187.04	5.8893e-07	5.6958e-07	230	64.718	49.501	14.78	5.7451e-07	20.646	-124.435	-26.100	-27.294	-121.896	40.882	39.578	-121.778	-114.794	-3.467	30.365	-114.988	-108.643	-107.995	-101.473	1.874	-101.482	-8191	255	
1640.938	1	1	0	0	0.083165	0.32633	0.16818	0.2219	0.10533	0.15011	0.038377	0.17342	0.023754	0.11908	0.27175	0.21941	0.20046	0.14522	0.19897	0.14381	-2.1208	-2.6604	-2.9458	-2.5479	-2.9229	-2.7438	-2.7521	-3.0417	-2.6396	-2.8229	-2.8312	-2.625	-2.6937	-2.5938	-2.5583	-2.9604	117.240	-131.025	39.983	213.140	39.550	-95.297	-106.678	69.989	-80.642	-39.921	185.357	10.109	225.152	138.133	-69.475	191.041	9.5048e-05	0.0003313	0.0001136	914.04	1.2242e-06	1.6025e-06	959.78	186.23	1.3671e-06	3.462e-06	232.82	63.814	49.751	14.638	6.5818e-07	20.476	5.8415e-05	5.0074e-05	1.3626e-05	903.98	6.0148e-07	5.5579e-07	955.67	186.59	5.9674e-07	5.5872e-07	230.29	64.722	49.461	14.787	5.5209e-07	20.692	225.015	-40.368	-40.746	-121.860	12.204	29.365	-121.644	-114.671	-34.823	30.152	-114.762	-108.695	-108.405	-101.192	117.903	-101.557	-8191	255	
1641.010	1	1	0	0	0.058207	0.24377	0.080923	0.0681	0.10033	0.11204	0.043955	0.14294	0.26757	0.38812	0.11986	0.19272	0.075806	0.14688	0.10767	0.19311	-2.2438	-2.7021	-2.7979	-2.7333	-2.8187	-2.6583	-2.4667	-2.9417	-2.7667	-2.6729	-2.925	-2.6646	-2.8688	-2.9604	-2.5292	-2.8875	-69.796	221.242	68.388	-110.352	104.272	-120.454	203.211	77.002	140.234	196.574	220.084	81.617	189.357	98.039	29.391	71.183	0.00010416	0.00013162	5.1743e-05	909.62	1.8938e-06	2.0808e-06	957.44	187.22	1.4799e-06	6.243e-07	231.85	63.965	49.633	14.734	2.8253e-06	20.562	5.9039e-05	4.7729e-05	1.396e-05	901.68	5.6064e-07	5.342e-07	955.92	186.94	5.4216e-07	5.3104e-07	229.67	64.668	49.313	14.822	5.34e-07	20.663	-128.005	-42.222	-86.146	-121.703	25.686	-36.126	-121.812	-114.698	-18.462	46.547	-115.155	-108.466	-108.280	-101.225	1.347	-101.190	-8191	255	
1641.106	1	1	0	0	0.31428	0.10711	0.16273	0.16391	0.093081	0.25362	0.17107	0.25769	0.13698	0.13447	0.14257	0.091553	0.031846	0.024403	0.1659	0.11116	-2.1813	-2.4708	-2.9021	-2.6188	-2.8208	-2.8604	-2.6479	-2.9396	-2.8187	-2.7771	-2.8937	-2.6562	-2.6125	-2.8812	-2.3208	-2.8667	200.146	94.191	141.378	-108.809	151.975	0.030	161.641	176.276	128.655	-1.975	31.299	9.090	1.194	211.418	136.777	-97.484	0.00010868	0.00025771	7.0128e-05	906.28	1.3642e-06	2.2828e-06	950.79	185.44	1.7733e-06	2.4737e-06	231.32	64.141	49.665	14.652	1.9366e-06	20.55	5.4345e-05	4.6982e-05	1.2894e-05	898.17	5.2909e-07	5.0439e-07	950.41	186.13	5.1628e-07	4.9433e-07	229.22	64.633	49.323	14.764	4.9349e-07	20.696	-126.047	-65.362	-52.354	-121.921	5.763	39.381	-121.832	-114.395	-16.253	33.550	-114.933	-108.391	-108.215	-101.495	-31.101	-101.688	-8191	255	
1641.202	1	1	0	0	0.11353	0.17192	0.14553	0.14024	0.32806	0.23178	0.37701	0.12435	0.089845	0.24222	0.089448	0.12523	0.16635	0.11322	0.22249	0.26388	-2.1854	-2.5792	-2.7125	-2.6792	-2.5396	-2.7604	-2.7062	-2.9625	-2.7229	-2.5604	-2.8896	-2.6375	-2.7625	-2.9021	-2.4813	-2.9792	63.491	-124.757	45.108	197.138	36.598	74.740	152.570	133.042	12.081	-40.322	217.288	135.959	197.467	131.402	-39.383	4.769	0.00011215	0.00028499	9.9566e-05	904.3	1.3716e-06	2.6654e-06	950.32	185.99	1.5952e-06	5.9297e-07	233.06	63.413	49.813	14.723	2.3509e-06	20.623	5.2103e-05	4.4834e-05	1.2774e-05	895.02	5.3447e-07	4.8538e-07	950.09	185.9	5.0917e-07	5.0164e-07	229.21	64.575	49.211	14.807	4.8655e-07	20.679	-125.343	-13.006	-50.750	-121.757	-5.961	22.752	-121.847	-114.620	-20.663	48.926	-115.106	-108.314	-108.340	-101.593	6.519	-101.845	-8191	255	
1641.323	1	1	0	0	0.19091	0.22758	0.040294	0.21678	0.23709	0.23032	0.15438	0.12133	0.169	0.12307	0.00034057	0.21545	0.012471	0.25325	0.047181	0.063175	-2.4188	-2.5667	-2.6625	-2.8875	-2.6958	-2.9521	-2.575	-2.8396	-2.9062	-2.6396	-3	-2.6354	-2.6813	-2.9688	-2.6625	-2.75	-42.732	75.680	73.638	149.588	93.995	-68.359	202.987	141.521	174.445	-84.067	180.000	39.118	-109.716	223.956	177.611	-44.929	9.7064e-05	0.00030964	7.8345e-05	902.79	1.0457e-06	1.9398e-06	950.28	185.4	1.4195e-06	1.0964e-06	229.84	64.101	50.01	14.78	6.6606e-07	20.559	5.3906e-05	4.5317e-05	1.2624e-05	893.56	5.2405e-07	4.9064e-07	948.23	185.97	5.3141e-07	5.0436e-07	228.68	64.554	49.26	14.81	4.9844e-07	20.717	-119.787	-19.292	-27.238	-121.693	35.632	-26.957	-121.579	-114.621	-19.268	25.675	-115.209	-109.083	-108.418	-101.529	53.045	-101.335	-8191	255	
1641.417	1	1	0	0	0.036524	0.031538	0.17128	0.1471	0.25292	0.14159	0.045303	0.29468	0.095936	0.030937	0.15431	0.089956	0.27156	0.070917	0.06725	0.12527	-2.3271	-2.6417	-2.8667	-2.6958	-2.6042	-2.9917	-2.6979	-2.8292	-2.9104	-2.4813	-3.0333	-2.8667	-2.5792	-2.7354	-2.7167	-2.7812	77.711	106.663	191.138	139.524	-93.448	-5.347	154.946	99.853	122.128	124.069	63.882	-12.443	110.197	50.299	-59.015	93.576	0.00010622	0.00016622	7.4856e-05	901.05	1.3336e-06	1.3252e-06	950.46	186.04	2.1439e-06	2.2875e-06	232.89	64.303	49.509	14.783	1.9381e-06	20.648	5.4174e-05	4.6962e-05	1.2143e-05	894.01	5.4181e-07	5.0071e-07	950.13	186.04	5.2412e-07	5.09e-07	229.66	64.783	49.273	14.865	5.2754e-07	20.769	-127.987	-61.771	-47.115	-122.011	-1.888	23.241	-121.632	-114.686	-10.960	15.694	-115.172	-108.458	-108.354	-101.463	7.556	-101.346	-8191	255	
1641.515	1	1	0	0	0.15019	0.094105	0.12814	0.16651	0.080709	0.40604	0.28953	0.062959	0.21088	0.059838	0.1365	0.3136	0.25217	0.35213	0.040781	0.17166	-2.575	-2.5354	-2.9479	-2.9021	-2.4625	-2.9	-2.8688	-2.7521	-2.75	-2.4062	-2.9583	-2.6833	-2.4292	-2.8271	-2.5271	-2.5125	90.046	147.861	-76.466	214.413	-51.553	151.726	158.385	-40.575	185.336	-130.538	-56.836	62.116	166.895	151.168	-95.498	-77.514	0.00012178	0.00031612	9.9715e-05	906.6	1.6611e-06	2.4515e-06	954.45	185.29	1.8846e-06	1.7179e-06	231.84	63.971	49.438	14.826	8.9672e-07	20.591	5.5292e-05	4.7398e-05	1.3385e-05	897.72	5.6151e-07	5.2829e-07	952.09	185.93	5.6591e-07	5.3218e-07	230.04	64.809	49.371	14.871	5.4515e-07	20.725	-130.870	-64.923	-44.706	-121.773	-6.712	19.395	-121.753	-114.650	2.269	49.007	-114.913	-108.500	-108.276	-101.570	54.156	-101.815	-8191	255	
1641.634	1	1	0	0	0.15686	0.1178	0.14757	0.10999	0.14462	0.2151	0.20179	0.18656	0.1524	0.074393	0.044517	0.079628	0.22484	0.17686	0.08268	0.18246	-2.4042	-2.5375	-2.7979	-2.9708	-2.6708	-2.8354	-3.0229	-2.4854	-2.875	-2.4896	-2.8312	-2.9708	-2.5979	-2.7854	-2.7417	-2.7479	56.468	44.330	-37.910	201.573	-7.415	-110.454	186.066	211.701	-113.817	63.784	-65.086	-54.989	181.138	175.472	32.386	203.615	0.0001267	0.00017401	9.3888e-05	904.66	2.8213e-07	2.5396e-06	955.37	185.98	2.144e-06	2.3526e-06	232.46	63.834	49.762	14.854	1.3687e-06	20.576	5.7236e-05	5.011e-05	1.3198e-05	898.91	5.5652e-07	5.2142e-07	954	186.47	5.546e-07	5.2464e-07	229.59	64.773	49.59	14.965	5.4693e-07	20.767	-126.095	-80.407	-37.393	-122.163	-15.192	19.867	-121.654	-114.546	-18.412	17.811	-114.897	-108.718	-108.320	-101.473	0.859	-101.193	-8191	255	
1641.706	1	1	0	0	0.16633	0.23936	0.058034	0.32164	0.13439	0.18732	0.11942	0.093076	0.085237	0.17818	0.13684	0.17834	0.44291	0.29488	0.19999	0.24106	-2.5604	-2.7604	-2.725	-2.9354	-2.6042	-2.7271	-2.8187	-2.6396	-2.8833	-2.6937	-2.8	-2.8667	-2.4396	-2.7188	-2.6854	-2.5792	169.903	191.305	-14.727	220.464	-18.216	-130.195	109.709	-128.783	0.912	83.288	160.943	173.502	224.844	-66.165	92.553	-88.009	0.00010331	0.00015773	6.1014e-05	905.68	1.0475e-06	1.6267e-06	954.28	185.78	1.0564e-06	1.7445e-06	232.68	64.409	50.004	14.758	2.4422e-06	20.736	5.7983e-05	4.995e-05	1.3517e-05	898.49	5.7132e-07	5.3679e-07	953.14	186.36	5.4914e-07	5.2263e-07	230.55	64.918	49.459	14.926	5.291e-07	20.871	-123.576	-69.567	-49.600	-121.832	-8.832	-6.804	-121.838	-114.757	-67.332	-2.868	-115.054	-108.757	-108.676	-101.261	-46.134	-101.295	-8191	255	
1641.802	1	1	0	0	0.13328	0.3136	0.25664	0.37618	0.12467	0.071302	0.10722	0.083622	0.10954	0.15582	0.29809	0.17536	0.19202	0.099989	0.10994	0.24713	-2.4437	-2.6667	-2.7083	-3.1083	-2.6021	-2.9688	-2.9271	-2.5479	-2.9625	-2.8229	-2.8729	-2.7854	-2.4729	-2.7125	-2.9188	-2.4104	67.173	126.780	173.635	215.443	-97.088	204.714	41.108	187.683	-70.141	84.245	-102.360	182.922	-63.030	-64.383	-71.029	93.624	0.00011196	0.00019616	7.1116e-05	905.43	8.2117e-07	2.919e-06	958.08	186.16	1.8867e-06	2.1291e-06	232.9	64.302	49.747	14.784	1.0238e-06	20.611	5.5831e-05	4.8276e-05	1.3454e-05	899.65	5.5756e-07	5.4257e-07	955.68	186.7	5.533e-07	5.253e-07	230.58	65.063	49.483	14.912	5.2563e-07	20.86	-123.814	-32.345	-75.598	-121.789	51.572	28.412	-121.825	-114.492	-36.534	-35.771	-114.684	-108.574	-108.801	-101.191	-5.652	-101.578	-8191	255	
1641.923	1	1	0	0	0.075294	0.046968	0.22794	0.21297	0.32792	0.26099	0.23001	0.1528	0.081949	0.06738	0.269	0.15644	0.03799	0.1443	0.12075	0.098411	-2.3979	-2.6083	-2.5312	-2.9042	-2.4896	-2.7687	-2.8521	-2.5729	-3.0438	-2.8333	-2.5854	-2.925	-2.5167	-2.7708	-3.0187	-2.6021	-4.715	88.073	220.659	139.894	109.452	36.981	129.532	5.173	189.202	190.502	182.358	156.081	-24.423	151.413	125.904	-39.839	0.00012423	0.00023538	5.7696e-05	906.36	1.061e-06	2.137e-06	955.49	186.56	1.069e-06	2.6846e-06	233.47	64.404	49.579	14.759	1.0536e-06	20.731	5.6842e-05	5.0453e-05	1.375e-05	899.08	5.5396e-07	5.2943e-07	955.3	186.92	5.425e-07	5.0015e-07	230.14	65.081	49.394	14.898	5.2255e-07	20.849	-129.733	-35.985	-66.431	-121.916	81.364	-11.600	-121.834	-114.911	-0.492	30.860	-114.907	-108.694	-108.343	-101.035	43.674	-101.451	-8191	255	
1642.019	1	1	0	0	0.16405	0.1614	0.091158	0.10369	0.11858	0.11945	0.11774	0.25836	0.21537	0.14452	0.17132	0.18933	0.095745	0.21931	0.082189	0.25477	-2.225	-2.7354	-2.5229	-3.0833	-2.6792	-2.8312	-3.0292	-2.6792	-2.6521	-2.7792	-2.6521	-2.8063	-2.7104	-2.7979	-2.9458	-2.5167	-90.964	180.032	-76.130	221.867	37.550	-24.187	169.034	220.939	-125.644	-90.571	102.090	171.430	199.048	122.144	14.599	-115.852	0.0001109	0.00024773	2.0237e-05	907.11	1.2269e-06	1.6399e-06	953.59	186.82	1.6023e-06	2.0571e-06	232.15	64.46	49.893	14.887	1.7053e-06	20.72	5.5727e-05	4.7949e-05	1.329e-05	898.27	5.4424e-07	5.2965e-07	952.77	186.94	5.5859e-07	5.4558e-07	230.14	65.088	49.57	14.958	5.6584e-07	20.83	-125.760	-38.182	-43.975	-121.794	-4.396	22.638	-121.786	-114.297	24.149	-14.470	-115.124	-108.686	-107.978	-101.204	-36.102	-101.649	-8191	255	
1642.115	1	1	0	0	0.14798	0.128	0.13464	0.24801	0.16439	0.18531	0.20386	0.084055	0.18445	0.078114	0.27054	0.15455	0.1343	0.095233	0.048887	0.076112	-2.3	-2.8271	-2.5729	-2.8521	-2.8167	-2.6354	-3.0979	-2.5563	-2.7812	-2.7062	-2.5396	-2.9604	-2.4688	-2.5083	-2.8271	-2.7167	135.401	65.986	-19.799	-125.417	41.683	44.235	193.863	-118.293	83.669	-113.755	202.362	211.241	22.722	112.401	-117.548	158.356	0.00010704	0.00023775	6.0821e-05	906.91	1.5959e-06	1.7886e-06	960.78	187.27	2.4406e-06	1.561e-06	233.6	64.706	50.251	14.902	2.3884e-06	20.737	6.1113e-05	5.4675e-05	1.5104e-05	899.74	6.3633e-07	6.0566e-07	957.45	187.51	6.5184e-07	6.1001e-07	231.66	65.29	49.918	15.022	6.3467e-07	21.002	-124.833	-28.607	-48.118	-121.794	5.835	17.988	-121.662	-114.833	-13.010	18.372	-115.066	-108.698	-108.681	-101.649	27.159	-101.505	-8191	255	
1642.236	1	1	0	0	0.25436	0.035745	0.15756	0.14609	0.24464	0.27082	0.28541	0.081747	0.012485	0.080301	0.1381	0.072019	0.17151	0.069842	0.10886	0.1611	-2.3708	-2.7313	-2.5583	-2.9583	-2.6667	-2.5563	-3.2896	-2.7812	-2.7229	-2.8708	-2.7396	-2.825	-2.8604	-2.4958	-2.8333	-2.6813	103.184	-92.266	154.719	147.724	-48.303	-53.467	118.237	-107.169	-74.487	67.414	62.745	188.518	219.685	38.072	62.361	117.628	0.0001205	0.00023867	3.4504e-05	913.2	1.0372e-06	1.2482e-06	965.47	188.42	2.3811e-06	2.4189e-06	234.82	64.349	50.149	14.985	1.8701e-06	20.888	6.677e-05	5.8609e-05	1.6426e-05	906.49	6.6059e-07	6.2882e-07	963.31	188.71	6.4338e-07	6.4142e-07	232.49	65.525	50.029	15.08	6.2144e-07	21.028	-126.821	-21.649	-46.982	-121.806	-1.875	45.389	-121.698	-114.819	-9.924	41.180	-115.036	-108.569	-108.287	-101.756	-38.647	-101.513	-8191	255	
1642.307	1	1	0	0	0.19812	0.093809	0.29849	0.17339	0.27116	0.13385	0.059955	0.19664	0.030718	0.15076	0.16996	0.13724	0.1665	0.21531	0.24147	0.11176	-2.1854	-2.7979	-2.4792	-2.7708	-2.5479	-2.4792	-2.9792	-2.5979	-2.5646	-2.8167	-2.575	-2.8542	-2.7438	-2.4354	-3.0208	-2.7333	-80.817	9.295	98.947	134.424	57.562	-37.992	215.479	176.021	-77.944	171.012	-71.004	-113.323	100.675	-74.766	82.537	188.581	0.00011921	0.00014343	8.2739e-05	918.33	1.4951e-06	1.3313e-06	964.45	188.77	1.5805e-06	2.9521e-06	235.03	64.687	50.292	14.902	1.6595e-06	20.817	6.347e-05	5.6916e-05	1.5154e-05	909.85	6.079e-07	6.011e-07	963.1	188.9	6.1477e-07	6.0796e-07	232.34	65.557	50.031	15.048	6.0895e-07	20.965	-128.164	-44.883	-31.879	-121.853	11.676	16.599	-121.651	-114.827	-46.338	14.745	-114.959	-108.871	-108.550	-101.366	49.578	-101.552	-8191	255	
1642.403	1	1	0	0	0.080529	0.13717	0.21103	0.098002	0.024403	0.11332	0.19578	0.083175	0.53732	0.097198	0.16974	0.22298	0.26076	0.12702	0.16112	0.30987	-2.1562	-3.0312	-2.4729	-2.9854	-2.7792	-2.7021	-3.0812	-2.8146	-2.4708	-2.9458	-2.6875	-2.7	-2.7958	-2.6583	-2.8333	-2.6688	-84.868	149.831	209.535	219.960	-56.527	58.316	174.984	62.522	177.098	202.348	153.011	197.442	78.774	181.401	8.224	196.042	0.0001079	0.00022504	5.5556e-05	917.67	4.5528e-07	2.679e-06	964.79	188.64	6.9787e-07	1.4043e-06	234.02	64.793	50.189	14.996	7.1782e-07	20.706	6.5629e-05	5.7147e-05	1.5857e-05	909.32	6.6241e-07	6.0868e-07	963.47	189.07	6.4646e-07	6.0174e-07	232.61	65.598	50.152	15.099	5.9932e-07	21.023	-126.433	-73.975	-46.330	-121.684	-44.237	15.341	-121.775	-114.843	-68.250	38.667	-115.136	-108.686	-108.260	-101.385	-61.018	-101.911	-8191	255	
1642.522	1	1	0	0	0.25778	0.1969	0.099415	0.22402	0.080583	0.074043	0.2205	0.13554	0.29793	0.1554	0.27386	0.12223	0.17565	0.12059	0.15093	0.3032	-2.0187	-3.0062	-2.5979	-2.7521	-2.8167	-2.5708	-2.9688	-2.6604	-2.5146	-2.9938	-2.7854	-2.9021	-2.8896	-2.4833	-2.7667	-2.9208	11.591	140.921	-122.293	203.629	8.284	-26.459	150.657	88.994	43.079	-102.511	145.752	194.544	96.339	-70.501	207.677	199.225	0.00011344	0.00020636	5.6395e-05	916.89	2.1012e-06	1.2143e-06	962.19	188.26	1.3182e-06	1.8509e-06	234.98	64.82	50.311	14.877	2.0296e-06	20.785	6.373e-05	5.5486e-05	1.5823e-05	908.63	6.6723e-07	6.4244e-07	964.42	189.15	6.6627e-07	6.3437e-07	232.97	65.646	50.279	15.103	6.5913e-07	21.065	-128.743	-50.472	-14.663	-121.972	41.207	24.234	-121.805	-114.916	-8.621	33.506	-115.213	-108.545	-108.458	-101.371	-9.341	-101.765	-8191	255	
1642.618	1	1	0	0	0.24243	0.0013638	0.16562	0.12889	0.13541	0.12177	0.43875	0.21362	0.35684	0.079594	0.1081	0.14111	0.34386	0.24905	0.029947	0.19866	-2.1208	-2.9333	-2.8104	-2.7917	-2.8167	-2.6813	-2.9062	-2.7313	-2.4583	-2.7375	-2.8417	-2.7354	-2.9125	-2.4229	-2.6521	-2.8896	143.103	180.000	128.721	-95.790	166.494	105.660	155.990	193.419	-124.933	102.888	210.137	-128.790	113.251	-130.129	-42.057	194.911	0.00011887	0.00014957	4.8074e-05	922.51	1.833e-06	1.1845e-06	970.04	189.64	1.7894e-06	4.5124e-06	236.09	64.807	50.267	14.952	1.1439e-06	20.892	6.7915e-05	6.0694e-05	1.6359e-05	913.69	6.8702e-07	6.5938e-07	968.31	189.97	6.9332e-07	6.7476e-07	234.17	65.883	50.392	15.137	6.8572e-07	21.068	-129.125	-94.062	-28.756	-121.751	-15.088	-18.433	-121.517	-114.813	-14.936	16.929	-114.967	-108.590	-108.129	-101.418	-37.474	-101.660	-8191	255	
1642.715	1	1	0	0	0.12845	0.057196	0.11099	0.073	0.055245	0.31195	0.19441	0.1209	0.08566	0.087226	0.08409	0.22794	0.33162	0.095325	0.22686	0.29483	-1.9375	-2.7729	-2.7146	-2.6604	-2.9958	-2.6229	-2.8937	-2.9833	-2.6854	-2.9229	-2.7104	-2.6771	-3.0187	-2.6146	-2.6312	-2.8271	-118.410	0.974	183.258	178.381	40.450	-118.536	-89.065	-13.460	-100.567	117.775	82.635	-91.737	-22.978	136.636	119.026	-123.304	0.00012304	0.00026978	5.7096e-05	921.1	1.4413e-06	2.1669e-06	970.47	189.95	1.5803e-06	1.6752e-06	236.65	64.906	50.828	14.962	1.4921e-06	20.857	6.8658e-05	6.2288e-05	1.7279e-05	914.32	7.2387e-07	6.7904e-07	968.8	190.39	7.1847e-07	6.6985e-07	234.74	65.87	50.519	15.135	6.5722e-07	21.125	-125.864	-40.426	-59.490	-121.712	45.530	2.071	-121.721	-114.631	0.393	20.929	-115.297	-108.864	-107.841	-100.993	-5.658	-101.539	-8191	255	
1642.811	1	1	0	0	0.24906	0.1065	0.09971	0.375	0.056589	0.067069	0.18195	0.046904	0.32256	0.18782	0.10374	0.11711	0.088539	0.20562	0.068815	0.22598	-2	-2.7667	-2.8312	-2.7313	-2.8583	-2.7792	-2.7104	-3.0396	-2.4	-2.7354	-2.8458	-2.6375	-3.0542	-2.7958	-2.6188	-2.9896	12.654	-41.932	30.196	157.998	-47.134	186.123	-35.103	178.147	50.745	140.213	-55.271	57.508	-132.346	-105.662	-47.421	172.489	0.00011879	0.00020429	8.566e-05	919.13	1.342e-06	6.1668e-07	968.94	189.56	2.3088e-06	2.2587e-06	236.29	64.88	50.996	14.942	1.6551e-06	20.892	6.5845e-05	5.9288e-05	1.6139e-05	912.35	6.6133e-07	6.2273e-07	967.03	190.17	6.7226e-07	6.4239e-07	234.15	65.753	50.462	15.092	6.4612e-07	21.101	-119.110	-24.836	-71.445	-122.015	-97.215	53.059	-121.776	-114.720	-16.559	13.332	-115.060	-109.166	-108.512	-101.547	-15.043	-101.532	-8191	255	
1642.882	1	1	0	0	0.3961	0.079563	0.065064	0.29539	0.15865	0.14768	0.57791	0.15962	0.14445	0.19351	0.32477	0.23713	0.11364	0.14196	0.27985	0.1383	-2.2708	-2.7292	-2.8104	-2.7562	-2.9229	-2.7104	-2.675	-3.0479	-2.7	-2.9333	-2.9667	-2.5729	-2.8729	-2.8354	-2.5	-3	-108.552	45.104	92.612	198.923	-80.516	45.495	173.211	-128.153	-25.842	-100.665	-119.135	-73.162	-114.360	-123.382	-106.912	-46.370	0.0001179	0.00020825	8.1508e-05	917.86	2.3021e-07	1.1213e-06	967.19	189.5	1.4078e-06	1.9089e-06	236.38	65.219	50.171	15.075	1.5612e-06	20.892	6.6254e-05	6.206e-05	1.6499e-05	911.88	7.0304e-07	6.6954e-07	967.03	190.01	6.7052e-07	6.6214e-07	234.16	66.05	50.282	15.148	6.8966e-07	21.17	-115.778	-35.436	-17.947	-121.644	-94.327	-21.767	-121.905	-114.521	-65.147	30.626	-115.145	-108.717	-108.344	-101.283	-16.293	-102.095	-8191	255	
1643.003	1	1	0	0	0.12492	0.042812	0.17455	0.24276	0.22826	0.099019	0.13268	0.24576	0.010933	0.12054	0.094247	0.040984	0.15918	0.30179	0.019897	0.20307	-2.3812	-2.6437	-2.9146	-2.6396	-2.8812	-2.9813	-2.6896	-2.9083	-2.6354	-2.7333	-2.9042	-2.6562	-2.9437	-2.9313	-2.5104	-2.8604	52.514	135.997	-95.857	121.924	128.093	59.665	85.229	101.282	150.392	170.012	87.855	140.154	124.691	171.935	18.936	-106.194	0.00011807	0.0002038	4.4161e-05	920.33	1.4495e-06	2.3899e-06	965.78	190.08	1.8128e-06	1.7169e-06	236.6	65.023	50.611	14.98	2.4338e-06	20.971	6.9045e-05	6.1133e-05	1.6701e-05	912.79	6.8945e-07	6.7326e-07	967.3	190.27	6.801e-07	6.4361e-07	234	65.823	50.465	15.124	6.4217e-07	21.138	-125.908	-17.470	-69.665	-121.966	66.730	0.503	-121.786	-114.491	-9.559	-2.796	-114.948	-108.625	-108.272	-101.399	67.933	-101.749	-8191	255	
1643.099	1	1	0	0	0.075156	0.23311	0.12521	0.090265	0.089096	0.11364	0.15268	0.093228	0.054934	0.12275	0.27993	0.16256	0.19397	0.16118	0.20674	0.095	-2.1312	-2.3625	-2.8312	-2.7958	-2.6417	-2.7604	-2.7083	-2.9562	-2.8021	-2.5062	-2.9938	-2.6	-2.675	-2.75	-2.5875	-2.8792	-48.491	214.782	-59.640	-13.101	-76.381	-14.730	69.493	59.471	-119.613	149.436	68.880	186.254	125.373	40.574	76.375	90.181	0.00010323	0.00011384	1.8718e-05	919.39	1.2707e-06	2.8503e-06	962.32	189.02	2.2608e-06	2.0286e-06	234.84	65.207	51.113	14.981	1.5563e-06	20.842	6.5997e-05	5.7411e-05	1.5495e-05	912.13	6.6341e-07	6.3512e-07	964.07	189.86	6.6306e-07	6.1177e-07	233.37	65.695	50.341	15.076	5.9355e-07	21.061	-126.710	-28.103	36.140	-121.937	-30.928	35.235	-121.697	-114.582	-25.894	9.207	-115.081	-108.733	-108.305	-101.043	-37.312	-101.872	-8191	255	
1643.195	1	1	0	0	0.18179	0.053396	0.16559	0.23544	0.29764	0.20114	0.42299	0.14585	0.049641	0.17424	0.27952	0.21006	0.23416	0.24201	0.17949	0.23641	-2.2125	-2.475	-2.7854	-2.8375	-2.675	-2.8792	-2.55	-3.0062	-2.5458	-2.5458	-2.8	-2.5417	-2.4729	-2.9708	-2.6896	-2.9354	63.291	74.988	201.717	116.679	40.001	70.943	159.297	101.550	212.736	-54.713	176.831	-105.564	-128.272	-72.605	22.698	165.232	0.00011872	0.00026823	4.7589e-05	917.36	1.6261e-06	1.6007e-06	965.24	189.18	1.4284e-06	2.2275e-06	234.17	65.142	50.616	14.926	9.6131e-07	20.866	6.4637e-05	5.6396e-05	1.6051e-05	909.35	6.4731e-07	6.0548e-07	963.89	189.44	6.4941e-07	6.0226e-07	232.71	65.706	50.148	15.072	6.106e-07	21.085	-128.380	-78.905	-109.274	-122.009	-48.712	18.856	-121.820	-114.919	18.200	22.642	-115.429	-108.740	-108.286	-101.512	64.247	-101.860	-8191	255	
1643.314	1	1	0	0	0.045474	0.14924	0.23475	0.46008	0.12346	0.060061	0.18118	0.32485	0.051035	0.27556	0.1351	0.14143	0.28918	0.17338	0.070753	0.29513	-2.2458	-2.6417	-2.9437	-2.8479	-2.6667	-2.9417	-2.7021	-2.85	-2.6354	-2.5271	-3.0729	-2.8354	-2.5646	-2.8646	-2.7667	-2.9042	-110.780	-43.860	35.887	188.084	160.966	-124.709	178.625	134.392	62.691	145.807	7.469	116.749	103.440	209.541	127.561	206.215	0.00011634	9.8401e-05	7.68e-05	914.86	1.9008e-06	3.8826e-06	961.81	188.35	2.9822e-06	1.5892e-07	234.56	64.972	50.37	14.842	2.5678e-06	20.765	6.3685e-05	5.6476e-05	1.5252e-05	908.46	6.4874e-07	5.7545e-07	962.25	189.15	6.2804e-07	5.9911e-07	233.18	65.682	50.143	15.075	5.9078e-07	20.988	-124.728	-60.150	-67.679	-121.818	54.489	3.242	-121.868	-114.952	-9.155	29.421	-115.136	-108.607	-108.769	-101.521	-7.212	-101.563	-8191	255	
1643.410	1	1	0	0	0.19482	0.17948	0.1192	0.48763	0.2374	0.077776	0.19153	0.053947	0.179	0.17829	0.23069	0.11032	0.25856	0.068404	0.11542	0.10655	-2.6521	-2.4875	-2.9604	-2.8708	-2.5042	-2.7146	-2.8958	-2.8563	-2.8021	-2.7396	-2.9167	-2.7458	-2.7729	-2.975	-2.5812	-2.9667	-96.654	206.650	10.354	172.459	-72.975	42.683	205.851	-110.415	-111.543	-99.386	121.546	-73.666	-72.666	198.557	116.250	157.572	0.0001222	0.00022793	2.6626e-05	912.56	1.3701e-06	3.1077e-06	959.25	188.16	1.9235e-06	2.4709e-06	235.29	64.708	51.028	14.871	7.2726e-07	20.928	6.186e-05	5.3812e-05	1.5522e-05	905.92	6.2926e-07	5.8622e-07	961.55	189.38	6.387e-07	5.9258e-07	233.12	65.645	50.181	15.011	6.0648e-07	21.069	-123.139	-55.328	-14.698	-121.746	-13.498	-16.161	-121.817	-114.801	-3.874	19.329	-115.239	-108.955	-108.458	-101.291	103.446	-101.587	-8191	255	
1643.506	1	1	0	0	0.13344	0.23682	0.15294	0.069764	0.15682	0.33313	0.24675	0.12315	0.22323	0.14364	0.12031	0.15645	0.13649	0.045383	0.14608	0.24891	-2.5583	-2.4083	-2.7438	-2.9854	-2.6333	-3.025	-2.8104	-2.8104	-3.0042	-2.5854	-2.95	-2.8771	-2.5646	-3.0542	-2.6167	-2.5042	66.617	166.466	179.033	-34.051	128.039	140.358	133.445	156.606	106.014	198.130	132.659	58.187	204.406	141.801	193.382	154.992	0.00010172	0.00017557	5.4307e-05	911.23	4.8483e-07	2.3463e-06	958.16	189.01	1.6771e-06	3.2223e-06	234.43	64.932	50.308	14.952	1.2462e-06	20.726	6.3053e-05	5.4899e-05	1.4747e-05	906.11	6.388e-07	5.902e-07	959.67	189.5	6.3081e-07	5.9797e-07	233.29	65.689	50.042	15.089	6.034e-07	20.997	-130.339	-27.839	-24.049	-121.879	-46.905	44.501	-121.655	-114.613	19.671	20.287	-114.968	-108.711	-108.516	-101.210	-18.413	-101.559	-8191	255	
1643.603	1	1	0	0	0.12793	0.18299	0.096914	0.089949	0.18192	0.096749	0.098278	0.28567	0.11733	0.31999	0.089954	0.089952	0.20136	0.086661	0.19519	0.18859	-2.4708	-2.5729	-2.65	-3.1083	-2.4896	-2.8104	-2.8521	-2.5792	-2.5563	-2.6354	-2.8542	-3.05	-2.4833	-2.925	-2.8063	-2.6417	95.852	-61.426	178.860	-31.867	93.918	103.548	203.663	196.617	-69.560	151.214	151.724	-131.708	141.944	-117.683	-98.864	210.406	0.00012341	0.00020117	5.5589e-05	913.35	7.862e-07	2.4007e-06	955.18	188.95	1.6629e-06	1.8566e-06	234	64.936	50.389	14.847	2.0835e-06	20.686	6.2098e-05	5.4152e-05	1.583e-05	904.61	6.1151e-07	5.7466e-07	959.01	189.09	6.185e-07	5.9087e-07	233.16	65.435	49.921	15.015	6.1099e-07	20.994	-121.712	-42.488	-5.152	-121.803	13.242	5.510	-121.629	-114.347	-23.497	-15.570	-114.739	-108.782	-108.104	-101.453	4.337	-101.556	-8191	255	
1643.699	1	1	0	0	0.18662	0.09524	0.16355	0.13665	0.04662	0.11882	0.20678	0.11101	0.22955	0.1829	0.12395	0.077453	0.19166	0.14815	0.18289	0.080264	-2.3167	-2.5417	-2.8563	-3.0625	-2.6833	-2.8792	-2.8917	-2.6604	-2.7708	-2.5312	-2.625	-2.9313	-2.3792	-2.5667	-2.6667	-2.5854	-82.050	14.817	-70.596	146.160	-28.154	96.516	128.943	148.620	-111.898	84.089	47.336	88.605	126.781	137.371	-66.388	192.575	0.00010233	0.00023712	8.2684e-05	911.07	6.0338e-07	1.3575e-06	959.06	188.14	8.7978e-07	1.8954e-06	235.03	64.656	50.329	14.89	1.1544e-06	20.821	6.0924e-05	5.3573e-05	1.5428e-05	905.05	6.25e-07	5.8819e-07	960.9	188.99	6.1399e-07	5.9652e-07	233.1	65.515	50.094	15.012	6.1541e-07	21.037	-127.048	-51.610	-25.970	-121.793	-36.932	48.467	-121.773	-114.542	34.668	7.021	-115.232	-108.583	-108.689	-101.667	33.686	-101.940	-8191	255	
1643.795	1	1	0	0	0.16245	0.21514	0.13712	0.14209	0.062927	0.042614	0.12158	0.39758	0.07462	0.2095	0.075098	0.30741	0.071386	0.078535	0.06719	0.13086	-2.4062	-2.6125	-2.55	-2.9021	-2.5396	-2.8	-2.7438	-2.5396	-2.9667	-2.7	-2.8583	-2.9062	-2.55	-3.0083	-2.775	-2.4646	-30.640	12.091	-70.259	-130.860	-110.743	212.922	139.114	208.131	195.986	-20.053	113.398	89.852	72.449	191.383	146.990	-102.607	9.9207e-05	0.00017484	6.0503e-05	914.25	1.589e-06	3.6149e-06	963.4	189.11	9.5149e-07	2.1417e-06	235.7	64.773	50.19	14.744	1.26e-06	20.604	6.3313e-05	5.4683e-05	1.5786e-05	907.17	6.3728e-07	5.9773e-07	961.76	189.43	6.2006e-07	5.8005e-07	233.26	65.539	50.013	15.016	5.7252e-07	20.952	-124.862	-0.026	-23.480	-121.831	21.267	-7.465	-121.743	-114.918	0.095	-25.382	-115.213	-108.639	-108.444	-101.432	8.096	-101.599	-8191	255	
1643.916	1	1	0	0	0.082802	0.16077	0.32421	0.19336	0.094225	0.10723	0.25077	0.073888	0.067865	0.3218	0.11496	0.090149	0.2035	0.1817	0.20885	0.10258	-2.5833	-2.7188	-2.575	-3.0479	-2.4479	-2.5979	-3.05	-2.6896	-2.7062	-2.7104	-2.7458	-2.9313	-2.7562	-2.8	-2.7396	-2.5792	-0.900	-19.048	180.383	-132.067	97.424	113.791	174.923	156.733	-49.024	112.357	169.403	-124.225	-75.214	-103.493	49.750	149.155	9.5519e-05	5.6306e-05	2.368e-05	908.16	1.6341e-06	6.6037e-07	960.41	188.51	1.5713e-06	1.9122e-06	236.29	65.025	50.137	14.896	2.3407e-06	20.859	6.0258e-05	5.1811e-05	1.4067e-05	902.89	5.9506e-07	5.7098e-07	958.14	188.9	6.152e-07	5.5215e-07	232.7	65.627	49.933	15.028	5.7143e-07	21.043	-129.599	-80.945	32.965	-121.783	-4.873	161.164	-121.974	-114.759	-1.115	6.004	-115.083	-108.551	-108.527	-101.186	7.128	-101.435	-8191	255	
1644.012	1	1	0	0	0.25946	0.14775	0.031002	0.021338	0.097102	0.32289	0.28105	0.12054	0.16066	0.16292	0.18332	0.2618	0.21773	0.16711	0.12613	0.12302	-2.3333	-2.7375	-2.3979	-2.9229	-2.4521	-2.8021	-2.9	-2.6937	-2.8563	-2.8104	-2.4625	-2.8438	-2.5667	-2.6375	-2.9104	-2.7438	-26.395	163.202	-63.619	-118.523	-30.153	155.692	225.995	136.378	116.484	-72.799	92.072	-51.373	84.731	-37.283	134.630	166.456	0.00010518	0.00017885	7.0741e-05	915.56	1.9568e-06	3.4606e-06	957.03	188.22	5.3878e-07	9.7942e-07	234.78	64.972	50.292	14.925	2.1266e-06	20.654	5.9626e-05	5.0353e-05	1.4645e-05	905.24	6.0656e-07	5.6371e-07	959.04	189.04	6.1087e-07	5.6958e-07	232.9	65.643	50.076	15.081	5.6098e-07	21.038	-132.287	-36.280	-46.359	-121.822	72.031	0.148	-121.588	-114.788	14.017	-14.290	-115.129	-108.708	-108.282	-101.639	9.294	-101.451	-8191	255	
1644.108	1	1	0	0	0.17191	0.21345	0.19035	0.20351	0.24591	0.11302	0.21604	0.10151	0.2622	0.14915	0.22967	0.087172	0.2137	0.067334	0.054316	0.16607	-2.4083	-2.7042	-2.525	-2.8292	-2.6312	-2.6146	-3.0125	-2.4458	-2.6146	-2.8271	-2.5042	-2.8896	-2.6479	-2.5458	-2.7583	-2.7542	-24.989	151.818	-31.048	189.694	27.828	56.967	-95.609	-43.752	149.109	28.387	28.941	-63.719	-24.909	117.673	-30.919	210.003	0.00010476	0.00022837	0.00011552	912.72	1.684e-06	1.5789e-06	961.45	188.43	1.5664e-06	8.8121e-07	234.96	64.9	50.273	14.968	2.2605e-06	20.807	6.1942e-05	5.1268e-05	1.4785e-05	905.05	5.9245e-07	5.7251e-07	958.78	188.87	5.8815e-07	5.5202e-07	232.69	65.737	50.172	15.074	5.7134e-07	21.046	-129.625	-98.417	-56.484	-121.750	-11.968	26.606	-121.885	-114.863	3.976	0.939	-114.976	-108.692	-108.255	-101.717	33.149	-101.823	-8191	255	
1644.204	1	1	0	0	0.1548	0.19369	0.15194	0.090161	0.14215	0.16225	0.33706	0.049975	0.084142	0.14132	0.30184	0.18532	0.077567	0.16019	0.25256	0.17199	-2.225	-3.0083	-2.4833	-2.9375	-2.675	-2.6375	-2.9458	-2.5979	-2.7812	-2.9021	-2.5896	-2.8396	-2.5896	-2.5917	-3	-2.625	83.223	130.567	84.593	13.995	-49.584	-95.560	127.214	-98.338	164.616	130.302	-98.173	33.411	-58.559	-105.615	-98.641	111.317	0.00011794	0.00028366	6.2529e-05	909.52	9.0437e-07	1.2198e-06	956.98	187.81	7.0512e-07	3.0251e-06	236.19	64.416	49.986	14.909	7.3388e-07	20.832	5.9823e-05	5.1556e-05	1.4235e-05	902.52	5.9918e-07	5.5115e-07	957.3	188.48	5.7372e-07	5.4567e-07	232.86	65.44	49.917	15.062	5.4489e-07	21.065	-127.764	-42.059	-84.903	-121.826	-33.332	-77.223	-121.845	-114.654	-11.305	14.406	-115.047	-108.610	-108.483	-101.099	67.248	-102.074	-8191	255	
1644.300	1	1	0	0	0.14103	0.3892	0.1097	0.22468	0.12927	0.081757	0.12243	0.17968	0.19591	0.37769	0.15485	0.1756	0.22586	0.042151	0.070064	0.12323	-2.1229	-2.8021	-2.3375	-2.8146	-2.7021	-2.5875	-2.8812	-2.6542	-2.7625	-2.9292	-2.6437	-2.7458	-2.6854	-2.6813	-2.925	-2.7542	123.409	40.778	43.212	-121.172	55.160	188.135	142.069	56.100	-72.285	24.996	184.371	1.624	38.205	168.130	0.763	-53.240	0.00011572	0.00028037	0.00012398	910.18	1.4858e-06	6.1918e-07	959.69	187.74	8.3469e-07	1.8583e-06	234.11	64.611	50.572	14.913	1.2543e-06	20.775	5.9348e-05	4.9591e-05	1.4294e-05	901.12	5.7639e-07	5.4773e-07	957.62	188.68	6.0385e-07	5.5373e-07	232.8	65.442	49.984	15.039	5.4597e-07	20.965	-126.779	-46.867	-56.866	-121.774	12.423	32.734	-121.722	-114.742	28.729	53.970	-114.932	-108.917	-108.182	-101.617	11.741	-101.836	-8191	255	
1644.396	1	1	0	0	0.08062	0.13539	0.11849	0.13969	0.098376	0.10133	0.16224	0.12476	0.046996	0.074564	0.24551	0.056179	0.14391	0.090325	0.37894	0.11915	-2.1396	-2.825	-2.5021	-2.8792	-2.8667	-2.475	-2.8583	-2.9417	-2.6396	-2.65	-2.7292	-2.8021	-2.9667	-2.6375	-2.7354	-2.6667	-86.608	46.768	179.714	54.820	4.444	139.274	226.190	145.008	105.240	-69.940	-113.934	-29.066	-89.755	74.949	-81.465	153.755	0.00011533	0.00012295	8.5396e-05	907.52	2.5545e-06	5.705e-07	957.29	188.05	1.7545e-06	1.2967e-06	233.96	64.698	50.192	15.001	2.1841e-06	20.856	5.8864e-05	4.9814e-05	1.4095e-05	900.71	5.7939e-07	5.36e-07	955.78	188.71	5.6778e-07	5.2828e-07	232.17	65.542	49.854	15.041	5.3786e-07	21.046	-125.751	-34.120	-65.322	-121.795	12.677	14.127	-121.413	-114.590	-1.021	10.654	-115.042	-108.677	-108.249	-101.393	31.872	-101.844	-8191	255	
1644.491	1	1	0	0	0.31426	0.19712	0.12208	0.16042	0.21001	0.1911	0.09543	0.20828	0.14094	0.10211	0.080483	0.18931	0.057959	0.1079	0.17858	0.24035	-2.0896	-2.8458	-2.6271	-2.8125	-2.7667	-2.5062	-3.0479	-2.8896	-2.4938	-2.9167	-2.6625	-2.6917	-2.7396	-2.4938	-2.8854	-2.9813	126.393	168.026	31.548	-47.325	156.261	-25.909	226.861	-114.507	120.723	103.746	224.535	148.047	136.835	-89.901	175.910	65.934	0.0001249	0.00031291	3.7087e-05	907.55	1.5489e-06	3.8114e-06	957.71	188.08	1.1117e-06	2.6011e-06	235.14	64.758	50.423	14.876	1.1542e-06	20.708	5.8348e-05	5.0477e-05	1.3844e-05	900.89	5.9783e-07	5.406e-07	955.14	188.78	5.8854e-07	5.4729e-07	232.73	65.501	50.008	15.01	5.5322e-07	21.014	-121.208	-63.123	222.538	-121.946	-0.344	27.419	-121.699	-114.864	-60.943	3.047	-114.699	-108.894	-108.349	-101.369	-7.642	-101.582	-8191	255	
1644.587	1	1	0	0	0.19323	0.28471	0.10239	0.096909	0.13817	0.13837	0.26281	0.20992	0.26029	0.16301	0.074701	0.1218	0.047794	0.18827	0.14029	0.074936	-2.2396	-2.6771	-2.6708	-2.75	-2.9146	-2.6521	-3	-2.8458	-2.4833	-2.8083	-2.675	-2.7229	-2.825	-2.6167	-2.6729	-2.7354	-38.432	-57.205	-87.411	-7.760	90.862	-106.722	160.798	213.178	118.802	42.995	217.929	-84.366	96.102	117.290	161.305	180.002	0.0001337	0.00029068	4.8479e-05	910.14	2.1974e-06	1.572e-06	957.21	188.19	1.5633e-06	1.3842e-06	234.92	65.184	50.717	14.862	2.5517e-06	20.906	5.8909e-05	5.1476e-05	1.4475e-05	902.16	5.8538e-07	5.5202e-07	956.6	188.92	5.7276e-07	5.4286e-07	233.19	65.754	50.102	15.108	5.6406e-07	21.089	-125.550	-22.966	-39.359	-121.741	-22.824	-18.888	-121.687	-114.867	29.765	42.545	-114.671	-108.583	-108.118	-101.314	-9.626	-101.626	-8191	255	
1644.707	1	1	0	0	0.17054	0.090773	0.032389	0.031215	0.27294	0.28851	0.063893	0.1381	0.073425	0.29526	0.02116	0.13865	0.24304	0.047961	0.16246	0.206	-2.2938	-2.8625	-2.775	-2.7833	-2.8729	-2.6688	-2.9875	-2.9958	-2.6917	-2.7479	-2.7562	-2.5	-2.95	-2.7479	-2.6021	-2.9958	79.365	122.960	115.137	53.563	30.506	223.086	85.922	129.001	69.487	129.596	-74.223	-131.638	152.279	180.915	-81.860	104.764	0.00010463	0.00022241	7.2204e-05	911.71	2.3879e-06	1.15e-06	958.21	189.19	1.2772e-06	2.1431e-06	234.41	64.638	50.537	14.95	2.1789e-06	20.872	5.8991e-05	4.8408e-05	1.3794e-05	904.75	5.7735e-07	5.4799e-07	959.45	189.5	5.9717e-07	5.4102e-07	232.79	65.683	50.183	15.12	5.4033e-07	21.039	-129.904	-36.215	-48.806	-121.851	-20.389	18.356	-121.843	-114.446	-5.149	4.159	-115.138	-108.740	-108.537	-101.696	-31.527	-101.859	-8191	255	
1644.804	1	1	0	0	0.077981	0.30102	0.13118	0.29596	0.14831	0.23467	0.35968	0.178	0.15149	0.24176	0.17527	0.12154	0.12353	0.050394	0.24533	0.30481	-2.1021	-2.7	-2.9271	-2.6125	-3.0563	-2.5312	-2.725	-2.9313	-2.5104	-2.7083	-2.875	-2.5708	-3.0375	-2.7625	-2.6521	-2.8729	199.824	114.910	99.214	155.496	218.425	159.365	159.916	-66.548	95.922	210.781	-125.964	-28.974	16.054	134.488	205.202	127.995	0.00010806	0.00010589	4.6167e-05	913.04	2.1709e-06	2.1794e-06	962.26	188.63	1.3741e-06	1.5873e-06	236.75	65.128	50.585	15.064	1.3484e-06	20.877	5.9258e-05	5.0178e-05	1.3747e-05	904.97	5.8768e-07	5.49e-07	960.68	189.38	5.6643e-07	5.3616e-07	233.33	65.649	50.16	15.133	5.1635e-07	21.083	-129.058	-72.096	-37.866	-121.902	10.401	5.895	-121.877	-114.782	19.473	43.816	-115.038	-108.841	-108.498	-101.861	0.599	-101.621	-8191	255	
1644.875	1	1	0	0	0.1504	0.17667	0.067817	0.24799	0.14825	0.25025	0.25525	0.089943	0.11765	0.024973	0.1716	0.13994	0.090986	0.15986	0.12188	0.059287	-2.2042	-2.7583	-2.6396	-2.5333	-2.9896	-2.7292	-2.675	-3.05	-2.65	-2.7958	-2.9229	-2.5563	-2.9396	-2.8271	-2.5646	-2.9688	172.250	106.279	-124.289	205.140	-77.177	75.615	148.440	169.122	-66.546	32.416	19.361	-67.114	-42.425	52.765	-123.119	56.797	0.0001004	0.00022529	8.8494e-05	913.96	2.5654e-06	2.4861e-06	960.83	188.23	1.3227e-06	5.8209e-07	235.27	65.196	50.4	15.079	2.1915e-06	20.83	5.6222e-05	4.7889e-05	1.3514e-05	904.62	5.7041e-07	5.6345e-07	959.28	189.2	5.9895e-07	5.709e-07	233.35	65.846	50.149	15.12	6.1589e-07	21.099	-120.213	-76.477	-42.193	-121.731	40.099	11.379	-121.714	-114.744	13.623	13.749	-115.161	-108.800	-108.243	-101.511	1.427	-101.433	-8191	255	
1644.996	1	1	0	0	0.14587	0.013736	0.18128	0.068237	0.10956	0.051481	0.28854	0.29057	0.26755	0.18535	0.098431	0.14255	0.186	0.07022	0.17022	0.048433	-2.2208	-2.5646	-2.7396	-2.7104	-2.7271	-2.75	-2.6854	-2.7396	-2.6208	-2.575	-3.0083	-2.4813	-2.8271	-2.8667	-2.4437	-2.9167	-63.746	111.463	119.445	116.276	28.657	-34.644	175.997	121.480	-78.995	134.338	-113.004	-45.019	227.180	179.766	117.093	-25.606	0.00011561	0.00019521	6.8097e-05	915.4	7.6616e-07	2.405e-06	960.92	188.18	1.2822e-06	8.8502e-07	235.66	65.124	50.941	14.969	1.713e-06	21.011	6.3354e-05	5.7415e-05	1.6234e-05	905.13	6.6359e-07	6.1113e-07	961.43	189.57	6.5093e-07	6.3174e-07	234.23	65.884	50.394	15.132	6.4647e-07	21.155	-129.032	-9.760	-43.013	-121.809	-86.063	3.959	-121.800	-114.663	-0.191	-24.480	-115.029	-108.524	-108.001	-101.413	24.827	-101.879	-8191	255	
1645.092	1	1	0	0	0.072267	0.11388	0.10321	0.24621	0.14311	0.035499	0.13986	0.26395	0.044069	0.055281	0.2425	0.14556	0.12711	0.089446	0.22491	0.18279	-2.2979	-2.7375	-2.8	-2.7958	-2.8396	-2.8292	-2.6521	-2.8896	-2.7125	-2.8083	-2.8771	-2.6458	-2.7792	-2.9167	-2.4917	-2.6312	-93.170	129.246	60.867	-95.735	-100.960	80.868	156.286	176.335	142.715	139.329	220.104	-112.031	180.213	28.116	-37.763	32.202	0.00010295	0.00023325	9.6715e-05	917.32	8.129e-07	1.7865e-06	965.29	189.01	1.5941e-06	1.594e-06	235.6	65.081	50.449	14.972	1.2487e-06	20.932	6.5986e-05	5.6964e-05	1.5174e-05	908.78	6.5052e-07	6.0299e-07	962.83	189.99	6.2457e-07	6.0112e-07	234.08	65.879	50.268	15.095	5.7889e-07	21.103	-130.554	-41.270	-48.026	-122.014	55.858	36.678	-121.722	-114.663	-41.416	50.986	-115.058	-109.004	-108.509	-101.482	-12.825	-101.655	-8191	255	
1645.188	1	1	0	0	0.22999	0.26028	0.04038	0.22596	0.17418	0.216	0.14513	0.21636	0.1935	0.2589	0.21031	0.13517	0.063214	0.41924	0.11188	0.070246	-2.2458	-2.5458	-2.7438	-2.8042	-2.7125	-2.8312	-2.7458	-2.9604	-2.9437	-2.5792	-3.0271	-2.7167	-2.8042	-2.9729	-2.4417	-2.9229	-22.050	141.705	64.085	216.592	-54.001	123.234	150.659	180.845	-117.051	-118.088	82.798	-16.782	-91.408	163.592	-43.752	114.988	0.00011912	0.00018332	7.6187e-05	913.34	1.3792e-06	2.3118e-06	957.53	189.43	1.7789e-06	2.1868e-06	235.86	65.003	50.397	14.979	2.2807e-06	20.839	6.1195e-05	5.1747e-05	1.4331e-05	906.9	6.1446e-07	5.5224e-07	958.82	189.82	6.2791e-07	6.0261e-07	234.17	65.713	50.09	15.092	5.9008e-07	21.063	-130.516	-22.563	-40.751	-121.955	37.197	4.583	-121.795	-114.571	-33.007	1.214	-115.108	-108.677	-108.877	-101.094	-17.791	-101.813	-8191	255	
1645.284	1	1	0	0	0.16487	0.20062	0.10358	0.099685	0.084315	0.035204	0.15361	0.12341	0.082431	0.13465	0.034478	0.046857	0.20286	0.2265	0.17719	0.026164	-2.2083	-2.5542	-2.8542	-2.8312	-2.575	-2.8396	-2.7271	-2.9688	-2.7687	-2.6583	-2.9521	-2.8563	-2.4583	-2.925	-2.65	-2.7917	-66.788	85.645	108.957	194.104	-104.187	189.231	123.120	148.830	73.654	55.799	-20.841	-16.583	38.712	26.677	158.420	29.777	0.00011027	0.00019339	7.2353e-05	909.43	1.6409e-06	2.9618e-06	957.52	188.77	1.8889e-06	1.7697e-06	234.74	64.905	50.494	15.015	1.1553e-06	20.863	6.2202e-05	5.4903e-05	1.5036e-05	903.96	6.4141e-07	5.8788e-07	958.49	189.52	6.3268e-07	5.9674e-07	233.54	65.665	50.181	15.105	5.9845e-07	21.123	-122.295	-91.741	-43.714	-121.797	20.712	47.177	-121.874	-114.608	25.693	7.844	-115.032	-108.933	-108.354	-101.571	38.923	-101.583	-8191	255	
1645.405	1	1	0	0	0.041707	0.16344	0.091986	0.29337	0.20783	0.15066	0.16996	0.34768	0.089857	0.13327	0.25788	0.16285	0.1149	0.1371	0.095045	0.026249	-2.3667	-2.4146	-2.7771	-2.8771	-2.5354	-2.7562	-2.8187	-2.6188	-2.9042	-2.4792	-2.9604	-2.725	-2.4708	-2.8292	-2.5833	-2.7188	-132.387	-0.833	39.351	216.686	151.088	-50.736	136.627	208.094	19.535	-80.948	71.840	-44.965	-62.775	63.463	50.520	100.723	0.00010521	0.00014117	7.0068e-05	910.36	8.4065e-07	1.0632e-06	957.11	188.97	1.5116e-06	2.0277e-06	235.59	65.024	50.605	14.898	1.3406e-06	20.826	6.0433e-05	5.2534e-05	1.4959e-05	903.21	5.9493e-07	5.5671e-07	956.57	189.53	5.9544e-07	5.7107e-07	233.99	65.643	50.201	15.054	5.9359e-07	21.08	-130.505	-64.186	-80.500	-121.689	3.673	-3.510	-121.741	-114.841	48.543	26.018	-115.129	-108.431	-108.460	-101.364	5.496	-101.513	-8191	255	
1645.477	1	1	0	0	0.052419	0.16508	0.12336	0.27857	0.18686	0.23445	0.30598	0.35106	0.19424	0.153	0.10412	0.11048	0.14124	0.11195	0.033434	0.31318	-2.2687	-2.475	-2.95	-2.9042	-2.4646	-2.9542	-2.7938	-2.7583	-2.9396	-2.5854	-3.0021	-2.7729	-2.4875	-2.9583	-2.6042	-2.625	146.387	-96.215	-121.467	-125.140	13.823	111.331	164.162	191.561	25.561	-55.433	-72.467	-13.650	-118.509	220.517	32.150	151.966	0.00011679	0.00016829	6.7549e-05	911.06	1.9148e-06	2.2994e-06	956.11	188.43	2.0037e-06	1.2579e-06	235.45	64.764	50.466	14.934	4.4692e-07	20.888	6.2124e-05	5.2526e-05	1.4808e-05	903.35	6.1294e-07	5.7387e-07	956.24	189.53	6.2613e-07	5.893e-07	233.81	65.594	50.109	15.085	5.87e-07	21.05	-129.006	-29.066	-14.025	-121.812	-6.007	28.408	-122.073	-114.606	-18.483	-26.205	-114.932	-109.015	-108.671	-101.287	80.092	-101.797	-8191	255	
1645.596	1	1	0	0	0.33463	0.14312	0.32357	0.23824	0.1671	0.054779	0.12617	0.25652	0.20783	0.01968	0.057129	0.065957	0.14469	0.10785	0.17987	0.10281	-2.4021	-2.5125	-2.7771	-2.9938	-2.6042	-2.9042	-2.8271	-2.6479	-2.8792	-2.6292	-2.8542	-2.7875	-2.4542	-2.8375	-2.8438	-2.6562	-6.310	-117.644	-54.514	-127.708	9.633	-41.126	119.038	197.292	130.847	172.707	197.019	97.958	-102.807	-91.024	104.720	186.364	0.00013565	0.00013755	5.0901e-05	909.37	1.2229e-06	2.8015e-06	961.9	189.56	9.8795e-07	2.1155e-06	235.33	64.792	50.863	14.906	1.6475e-06	21.049	6.047e-05	5.4859e-05	1.448e-05	902.62	6.1932e-07	5.6945e-07	958.07	189.89	6.0077e-07	5.6477e-07	233.61	65.704	50.228	15.058	5.7494e-07	21.137	-125.497	1.597	-37.936	-121.637	-56.900	26.885	-121.820	-114.678	-0.985	20.560	-114.812	-108.800	-108.146	-101.338	23.897	-101.770	-8191	255	
1645.692	1	1	0	0	0.10139	0.13664	0.30778	0.07764	0.13373	0.29553	0.24052	0.033697	0.069506	0.34733	0.084084	0.16261	0.292	0.27114	0.09721	0.23281	-2.4125	-2.575	-2.5604	-2.9146	-2.3542	-2.8438	-2.8458	-2.4938	-2.7938	-2.4896	-2.8312	-2.8792	-2.7146	-2.8729	-2.6833	-2.5625	-60.087	-60.587	166.146	-117.634	-72.201	-126.203	170.585	-124.494	116.931	201.223	-22.881	22.412	211.764	-74.920	83.224	127.958	0.00010478	8.8611e-05	8.1347e-05	908.67	7.505e-07	2.8892e-06	956.14	188.06	1.2389e-06	1.8316e-06	235.87	65.15	50.273	14.91	1.744e-06	20.792	6.0373e-05	5.0469e-05	1.4448e-05	900.9	5.8286e-07	5.6187e-07	955.03	189.38	5.8828e-07	5.5136e-07	233.59	65.657	50.141	15.054	5.5911e-07	21.027	-124.347	-38.415	-36.733	-121.729	45.870	29.857	-121.877	-114.681	-34.086	28.677	-114.893	-108.433	-108.796	-101.593	-6.541	-101.410	-8191	255	
1645.788	1	1	0	0	0.15128	0.1253	0.11345	0.14718	0.15758	0.12464	0.11534	0.1192	0.27045	0.25847	0.21111	0.19352	0.12998	0.13116	0.13264	0.18043	-2.3312	-2.6271	-2.6542	-2.95	-2.6896	-2.7729	-2.8583	-2.6146	-2.9604	-2.625	-2.6792	-2.7438	-2.5375	-2.7521	-2.6896	-2.7708	51.972	32.022	68.597	198.705	-66.443	150.829	143.010	138.501	115.127	141.129	-9.669	158.598	14.741	-99.664	138.093	-72.001	0.00012194	0.00040217	6.6149e-05	907.84	3.7929e-07	2.8387e-06	955.3	189.21	8.7838e-07	2.6543e-06	236.53	64.678	50.468	14.923	1.4399e-06	20.76	6.0292e-05	5.1416e-05	1.4054e-05	901.8	5.7205e-07	5.6612e-07	955.66	189.36	5.6284e-07	5.6091e-07	233.4	65.672	50.116	15.04	5.54e-07	21.063	-126.539	-44.880	-50.182	-121.922	30.860	15.496	-121.838	-114.769	-21.032	5.266	-114.964	-108.573	-108.242	-101.370	-9.177	-101.695	-8191	255	
1645.884	1	1	0	0	0.19011	0.19183	0.27258	0.11491	0.024234	0.16474	0.2764	0.30298	0.13503	0.1606	0.14638	0.042013	0.088533	0.29245	0.3123	0.1271	-2.4688	-2.7708	-2.6479	-3.1479	-2.6021	-2.8521	-2.9667	-2.7812	-2.825	-2.8417	-2.6667	-2.8708	-2.7521	-2.8625	-3.1271	-2.5333	-132.143	180.250	-104.993	6.830	-11.496	148.372	-113.059	137.963	-128.393	86.891	-59.419	81.722	21.068	68.178	-46.961	-20.505	0.00012688	5.4074e-05	0.00011121	910.38	1.2712e-06	1.5152e-06	952.5	188.64	1.0971e-06	2.0557e-06	235.99	64.808	50.626	14.897	2.0863e-06	20.786	5.8303e-05	5.0565e-05	1.4133e-05	901.73	6.1051e-07	5.4961e-07	954.96	189.29	5.8044e-07	5.5749e-07	233.51	65.523	50.115	15.074	5.533e-07	21.023	-131.709	-88.055	-52.663	-121.839	-15.203	52.127	-121.766	-114.496	-96.289	45.305	-115.045	-108.640	-108.613	-101.771	-4.651	-101.813	-8191	255	
1646.005	1	1	0	0	0.1728	0.16746	0.11116	0.18633	0.13086	0.24935	0.35759	0.13384	0.11916	0.23314	0.097388	0.40217	0.2824	0.16081	0.027687	0.20864	-2.3854	-2.8208	-2.3146	-3.0521	-2.5917	-2.7292	-3.0708	-2.8104	-2.8708	-2.8292	-2.5917	-2.8792	-2.5	-2.8312	-2.9875	-2.4896	47.452	-74.013	86.794	-59.716	166.877	167.173	144.188	141.592	-89.365	114.876	-62.084	138.876	217.781	-131.401	-69.352	21.033	0.00011596	0.00024311	8.706e-05	907.71	1.5973e-06	1.6983e-06	956.46	188.78	1.6464e-06	1.4896e-06	236.42	64.422	50.109	14.814	2.1648e-06	20.724	5.8195e-05	5.0521e-05	1.4281e-05	899.58	6.0899e-07	5.3355e-07	954.51	189.38	5.9392e-07	5.6866e-07	233.45	65.451	49.893	15.006	5.6623e-07	21.054	-130.466	-28.905	-31.910	-121.932	-26.325	16.123	-121.908	-114.931	14.827	20.373	-115.340	-108.720	-108.128	-101.214	22.384	-101.434	-8191	255	
1646.076	1	1	0	0	0.29695	0.059321	0.15501	0.24821	0.16099	0.13507	0.26015	0.17993	0.2438	0.32714	0.18502	0.18028	0.26301	0.046489	0.097102	0.28807	-2.4771	-2.8125	-2.5646	-2.6917	-2.7396	-2.5812	-3.1	-2.5458	-2.7458	-2.7	-2.5646	-2.8688	-2.7	-2.5354	-2.8625	-2.6458	3.589	186.950	-127.319	176.030	40.037	180.618	18.735	167.761	-12.018	-106.202	-50.387	-111.247	109.366	-117.994	-9.737	95.991	0.00011737	5.7514e-05	6.2432e-05	907.02	2.1792e-06	6.2185e-07	955.89	188.59	1.8203e-06	1.7648e-06	234.88	64.708	49.887	14.929	3.0087e-07	20.84	6.086e-05	5.2287e-05	1.4122e-05	899.57	5.8985e-07	5.36e-07	954.59	188.92	5.8451e-07	5.4207e-07	233.23	65.501	49.727	15.081	5.4532e-07	21	-122.091	-38.435	-60.622	-121.876	-5.643	-64.040	-121.769	-114.704	-7.171	5.939	-114.896	-108.649	-108.275	-101.186	48.666	-101.552	-8191	255	
1646.172	1	1	0	0	0.27843	0.043117	0.069876	0.1378	0.05584	0.25738	0.06585	0.21628	0.14106	0.13055	0.28637	0.026098	0.20307	0.10564	0.23095	0.20139	-2.2208	-2.85	-2.5479	-3.0687	-2.6292	-2.6104	-3.1958	-2.8833	-2.8375	-2.95	-2.7083	-3.0021	-2.7479	-2.55	-3.0021	-2.6625	81.033	110.240	-61.050	78.782	214.049	3.716	127.630	124.624	48.312	-86.516	216.307	211.710	2.264	193.114	103.313	68.024	0.00010912	0.00011593	9.8871e-05	905.71	1.638e-06	2.4165e-06	954.24	188.8	2.9878e-06	2.6523e-06	235.09	64.765	50.136	14.879	2.0382e-06	20.789	5.7924e-05	4.9946e-05	1.3792e-05	899.38	5.9393e-07	5.5947e-07	953.58	189.18	5.774e-07	5.2468e-07	232.9	65.617	49.924	15.051	5.4168e-07	21.053	-128.156	-47.721	-49.881	-121.812	63.559	-17.436	-121.901	-114.624	0.084	18.630	-115.265	-108.875	-107.720	-101.731	-8.021	-101.743	-8191	255	
1646.269	1	1	0	0	0.19256	0.07979	0.18636	0.2451	0.1025	0.12206	0.15758	0.42923	0.043774	0.14448	0.11527	0.23074	0.12161	0.35324	0.097363	0.10038	-2.4833	-2.8208	-2.5604	-2.9062	-2.6854	-2.4917	-3.1083	-2.7979	-2.6188	-2.9125	-2.7562	-2.8625	-2.7521	-2.725	-2.7542	-2.6	-45.765	70.479	71.206	-125.072	-106.479	-21.135	179.586	117.869	190.099	-22.256	-102.024	-129.526	193.458	167.742	133.215	108.556	0.00011194	0.00028959	5.0966e-05	910.24	1.1941e-06	1.0221e-06	957.48	188.41	1.7061e-06	2.7279e-06	234.29	64.76	49.76	14.87	1.0169e-06	20.933	5.727e-05	4.8488e-05	1.3649e-05	901.25	5.7366e-07	5.4379e-07	955.78	189.11	5.8091e-07	5.4483e-07	233.14	65.485	49.912	15.068	5.4879e-07	21.046	-122.847	-44.558	-65.736	-121.839	-3.108	-4.226	-121.928	-114.505	3.023	30.140	-114.861	-108.613	-108.192	-101.410	-34.532	-101.652	-8191	255	
1646.387	1	1	0	0	0.12089	0.2208	0.048399	0.17685	0.096571	0.23025	0.099985	0.055693	0.031275	0.20703	0.33398	0.22839	0.0899	0.30808	0.32804	0.068794	-2.3083	-2.9229	-2.6792	-3.0187	-2.7167	-2.6917	-2.9354	-2.6958	-2.6063	-2.9667	-2.7	-2.7792	-2.7854	-2.6688	-2.8646	-2.9021	-24.970	92.984	36.581	159.171	72.073	-41.025	47.461	51.589	26.347	132.252	168.020	217.961	-119.241	-44.892	-118.669	-87.161	0.00010703	0.00033673	8.2878e-05	907.98	1.7789e-06	1.6222e-06	955.02	188.19	6.0858e-07	2.6162e-06	235.87	65.121	50.226	14.965	2.2866e-06	20.719	5.96e-05	5.0945e-05	1.4558e-05	899.88	5.8238e-07	5.5863e-07	955.73	188.9	5.8655e-07	5.6179e-07	233.35	65.661	50.132	15.079	5.5942e-07	21.003	-130.635	-16.761	-65.119	-121.899	4.462	-19.336	-121.764	-114.745	40.140	1.457	-115.092	-108.919	-108.359	-101.539	24.447	-101.857	-8191	255	
1646.484	1	1	0	0	0.045334	0.14704	0.03974	0.1276	0.14137	0.18092	0.10404	0.1413	0.013474	0.14081	0.14619	0.017976	0.14762	0.3035	0.14148	0.2627	-2.2938	-2.8438	-2.5667	-2.8708	-2.8646	-2.6042	-2.9292	-2.9896	-2.5312	-2.9813	-2.7292	-2.7167	-2.8	-2.5104	-2.7042	-2.6771	210.245	-86.335	-126.996	127.990	28.320	104.464	160.675	51.845	17.183	-49.788	106.859	-2.247	96.746	135.426	35.041	161.905	9.5616e-05	0.00032303	9.1609e-05	911.27	1.5643e-07	1.1831e-06	957.6	188.9	9.2531e-07	5.3078e-07	235.33	65.024	50.824	15.031	1.692e-06	20.821	5.8976e-05	5.2638e-05	1.4523e-05	902.06	5.8594e-07	5.6371e-07	957.1	189.53	5.9964e-07	5.8531e-07	233.43	65.711	50.187	15.083	5.72e-07	21.07	-131.914	-75.281	-41.007	-121.803	-123.545	13.639	-121.721	-114.911	-0.758	49.826	-115.109	-108.796	-108.287	-100.945	6.183	-101.598	-8191	255	
1646.580	1	1	0	0	0.20475	0.11761	0.27279	0.18142	0.24843	0.13713	0.13922	0.10791	0.22397	0.15299	0.16155	0.15265	0.27873	0.14352	0.14648	0.049637	-2.4167	-2.8521	-2.4042	-2.7417	-2.925	-2.6854	-3.0167	-2.9021	-2.5604	-2.9292	-2.7333	-2.775	-2.9813	-2.5083	-2.7938	-2.8417	45.101	-68.843	144.714	141.147	80.629	97.164	56.611	173.242	60.585	-27.113	195.329	-27.802	-99.483	-25.283	-0.419	-81.340	0.00011441	0.00035975	4.0577e-05	907.89	1.2855e-06	2.0613e-06	960	188.56	2.1791e-06	2.3327e-06	236.5	64.653	50.329	14.934	1.2907e-06	20.982	6.0065e-05	5.1819e-05	1.4183e-05	902.14	6.2183e-07	5.5478e-07	957.72	189.34	5.9674e-07	5.741e-07	233.68	65.633	50.073	15.091	5.7694e-07	21.129	-124.975	-65.009	-85.695	-121.891	-34.463	49.750	-121.703	-114.905	-29.655	6.963	-114.856	-108.971	-108.889	-101.650	0.002	-101.675	-8191	255	
1646.676	1	1	0	0	0.11631	0.16321	0.28079	0.052345	0.1226	0.079634	0.16112	0.24928	0.30739	0.14874	0.1542	0.2028	0.13613	0.096169	0.16705	0.096339	-2.1104	-2.9104	-2.5479	-2.5833	-2.8812	-2.6354	-2.9792	-2.975	-2.6604	-2.8146	-2.8875	-2.6396	-2.7375	-2.6979	-2.6396	-2.95	114.625	57.967	-90.323	-31.215	15.060	99.441	-99.746	-82.702	160.308	155.949	211.099	-36.757	221.760	133.124	193.454	-4.011	0.00010191	0.00024982	0.000101	911.81	1.0413e-06	3.365e-06	958.12	189.07	1.4115e-06	1.6406e-06	235.03	65.013	50.198	15.017	2.9751e-06	20.924	6.0143e-05	5.3441e-05	1.4434e-05	902.11	5.8959e-07	5.592e-07	957.51	189.47	5.7506e-07	5.4164e-07	233.39	65.641	49.983	15.059	5.6098e-07	21.016	-120.518	-48.606	-61.443	-121.941	-41.742	-3.243	-121.719	-114.609	-19.134	54.097	-115.390	-108.900	-107.966	-101.479	20.052	-101.793	-8191	255	
1646.772	1	1	0	0	0.16596	0.098633	0.18847	0.049367	0.17685	0.08652	0.14787	0.19615	0.1129	0.16719	0.17458	0.26027	0.07064	0.041499	0.1148	0.13946	-2.3354	-2.7854	-2.775	-2.6042	-2.7687	-2.8167	-2.8417	-2.8708	-2.5208	-2.7792	-2.75	-2.6167	-2.7729	-2.6188	-2.7521	-2.8229	-71.725	11.496	183.195	139.614	-29.582	-95.797	180.872	169.260	7.409	-41.207	140.158	78.146	-110.010	110.077	-73.449	-121.124	9.8349e-05	0.00017662	4.3657e-05	909.05	1.0036e-06	9.2149e-07	956.19	188.44	1.6975e-06	1.8919e-06	234.55	64.874	50.418	14.827	9.1007e-07	21.009	5.6902e-05	4.8688e-05	1.3839e-05	900.61	5.7258e-07	5.1862e-07	954.21	189.26	5.7047e-07	5.3095e-07	232.99	65.561	50.109	14.982	5.4849e-07	21.036	-127.014	-56.828	-42.520	-121.730	53.953	15.058	-121.588	-114.667	5.539	25.060	-115.100	-108.746	-108.270	-101.380	24.769	-101.831	-8191	255	
1646.868	1	1	0	0	0.26839	0.12648	0.10952	0.31594	0.15052	0.070969	0.17811	0.323	0.060761	0.15281	0.037047	0.070765	0.17796	0.12081	0.17865	0.096722	-2.2271	-2.8021	-2.8146	-2.4854	-2.8521	-2.675	-2.7062	-3.025	-2.7042	-2.7771	-3.0729	-2.4979	-2.8875	-2.7833	-2.5187	-3.0042	-106.365	18.969	1.919	139.776	176.752	-128.048	212.214	161.188	116.949	166.981	-110.417	71.305	156.609	39.025	23.383	101.955	9.9835e-05	0.00020039	4.4629e-05	905.12	2.6054e-06	2.4271e-06	953.42	188.6	2.4538e-06	1.8523e-06	235.88	64.614	50.098	14.886	2.4423e-06	21.008	5.8731e-05	5.0154e-05	1.3594e-05	896.58	5.8126e-07	5.5141e-07	952.31	189.08	5.7051e-07	5.2718e-07	233.21	65.638	49.966	15.008	5.4428e-07	21.099	-126.456	-50.517	-4.895	-121.785	37.323	20.175	-121.641	-114.558	39.025	36.403	-115.129	-108.834	-108.468	-101.486	17.002	-101.908	-8191	255	
1646.964	1	1	0	0	0.098995	0.13076	0.10008	0.067639	0.22382	0.16142	0.33737	0.24298	0.13355	0.10639	0.054645	0.17541	0.11265	0.30283	0.079744	0.32916	-2.1479	-2.8708	-2.7958	-2.5563	-2.8438	-2.7854	-3.05	-2.8917	-2.7042	-2.8583	-2.9146	-2.5375	-2.8187	-2.9396	-2.7	-2.9833	183.852	149.496	-57.020	-90.582	80.491	123.224	173.762	-131.117	-63.992	169.822	10.667	170.638	52.489	196.990	-87.127	145.149	0.00011167	0.00025633	6.4818e-05	905.63	2.0883e-06	3.1559e-06	952.9	189.04	9.9137e-07	2.2843e-06	235.69	65.2	50.32	14.924	2.9692e-06	20.817	5.5207e-05	4.9291e-05	1.333e-05	898.32	5.8225e-07	5.2728e-07	951.36	188.95	5.7766e-07	5.1299e-07	232.63	65.588	49.953	15.015	5.4333e-07	20.963	-130.521	-64.624	-66.195	-121.783	-7.920	-9.003	-121.591	-114.667	17.318	38.082	-114.931	-108.621	-108.211	-101.132	12.334	-101.297	-8191	255	
1647.085	1	1	0	0	0.035357	0.089452	0.10729	0.37057	0.16344	0.16357	0.16785	0.10459	0.23759	0.15793	0.051703	0.14955	0.1445	0.07272	0.12344	0.074112	-2.2438	-2.6458	-2.8521	-2.6125	-2.8563	-2.6583	-2.8854	-3.0479	-2.7313	-2.6896	-2.9437	-2.75	-2.7125	-2.8542	-2.6312	-2.9479	-52.759	-119.237	23.561	-131.851	210.404	85.297	146.367	-102.619	4.410	126.397	-20.639	-97.017	-0.390	-105.866	208.562	148.641	0.00012323	0.00024509	6.2802e-05	907.18	2.1071e-06	1.6946e-06	955.06	189.02	8.3905e-07	8.5801e-07	235.63	64.705	50.599	14.847	2.606e-06	20.837	5.7404e-05	4.7394e-05	1.3633e-05	896.25	5.5101e-07	5.2133e-07	951	189.26	5.6704e-07	5.1899e-07	232.87	65.367	49.968	15.045	5.3027e-07	21.005	-125.182	-63.469	-32.133	-121.651	31.479	45.792	-121.598	-114.576	26.864	-42.653	-115.140	-108.905	-108.590	-101.245	-6.080	-101.651	-8191	255	
1647.181	1	1	0	0	0.15731	0.071608	0.2219	0.23115	0.16721	0.23085	0.3734	0.027777	0.15493	0.069081	0.10831	0.2087	0.13846	0.15654	0.22043	0.26805	-2.2792	-2.4375	-3.0271	-2.7021	-2.8208	-2.9417	-2.9	-3.0563	-2.9833	-2.5938	-2.9	-2.6771	-2.7354	-2.9208	-2.5042	-2.9042	106.566	-85.977	83.779	96.023	80.371	107.965	167.715	30.866	168.153	-93.052	34.081	-132.225	-99.677	-103.811	-10.156	216.223	0.00011111	0.00016633	8.0698e-05	905.92	1.7217e-06	1.7988e-06	954.9	188.91	1.3692e-06	1.2295e-06	234.8	64.668	50.624	14.922	2.5038e-06	20.805	5.7485e-05	4.8368e-05	1.3434e-05	896.02	5.6654e-07	5.3009e-07	951.35	188.94	5.5668e-07	5.1864e-07	232.68	65.443	50.007	15.004	5.3916e-07	20.955	-125.662	-44.999	-27.337	-121.709	-8.150	-34.329	-121.680	-114.497	-19.258	62.058	-114.821	-108.812	-108.758	-101.384	22.605	-101.940	-8191	255	
1647.277	1	1	0	0	0.071673	0.09963	0.033072	0.34828	0.1088	0.26974	0.13822	0.14401	0.25243	0.15375	0.11668	0.3187	0.053877	0.059894	0.064129	0.11664	-2.3917	-2.5812	-2.7271	-2.9771	-2.5312	-2.9104	-2.7188	-2.9437	-2.6354	-2.4896	-2.9021	-2.7188	-2.7646	-3.0833	-2.5292	-2.8187	-32.258	-93.095	220.359	197.818	221.037	225.940	86.735	145.131	147.245	128.447	-20.463	-98.131	49.981	68.145	121.887	-106.818	0.00010652	0.00026622	0.00010124	904.01	1.3285e-06	1.2101e-06	951.23	188.26	1.1869e-06	1.9194e-06	235.16	64.739	50.191	14.872	1.953e-06	20.766	5.498e-05	4.5752e-05	1.3088e-05	895.41	5.4358e-07	4.8862e-07	950.38	188.37	5.3839e-07	4.9424e-07	232.83	65.415	49.95	15.006	5.343e-07	21.004	-129.234	-18.276	-34.675	-121.803	-44.025	25.104	-121.835	-114.633	-15.935	21.945	-114.846	-109.029	-108.151	-101.249	33.860	-101.342	-8191	255	
1647.373	1	1	0	0	0.15841	0.15237	0.16176	0.081101	0.23402	0.11034	0.23437	0.35125	0.10516	0.24513	0.06743	0.084431	0.12829	0.15674	0.12881	0.16343	-2.275	-2.5104	-2.8646	-2.725	-2.6125	-2.8708	-2.8937	-2.7292	-2.8542	-2.7313	-2.8063	-2.7771	-2.625	-2.7896	-2.8125	-2.7917	224.044	-70.017	115.515	216.264	-36.135	106.517	207.472	-132.454	-59.578	65.079	84.969	153.215	0.123	-67.208	-46.117	-45.129	0.000101	0.00021717	8.9523e-05	903.14	1.2641e-06	2.1354e-06	949.89	188.36	2.2039e-06	2.0931e-06	234.92	64.743	50.252	14.799	1.6874e-06	20.879	5.5895e-05	4.6208e-05	1.2512e-05	894.01	5.2418e-07	5.0176e-07	949.93	188.62	5.4194e-07	4.8403e-07	232.47	65.431	49.788	14.984	5.1132e-07	20.989	-125.538	-24.028	-8.123	-121.695	10.767	9.009	-121.616	-114.669	1.287	7.977	-115.007	-108.802	-108.683	-101.034	-46.717	-101.498	-8191	255	
1647.468	1	1	0	0	0.21125	0.10301	0.28462	0.14356	0.17165	0.12017	0.26718	0.073063	0.17767	0.17929	0.13785	0.21374	0.029387	0.031524	0.17002	0.21292	-2.3958	-2.5583	-3.0062	-2.6958	-2.625	-3.1271	-2.8708	-2.9104	-2.9583	-2.5938	-2.8	-2.825	-2.4521	-2.7313	-2.7021	-2.9083	214.151	169.262	11.899	107.176	195.734	8.991	160.090	-74.657	-68.122	93.442	212.651	211.305	150.766	-5.923	-83.731	-5.981	9.8972e-05	0.00019055	4.4638e-05	903.79	7.7028e-07	1.5225e-06	949.85	188.43	1.2332e-06	1.6053e-06	233.94	64.721	50.407	14.943	2.2916e-06	20.666	5.2906e-05	4.5876e-05	1.2254e-05	894.52	5.2306e-07	4.8972e-07	948.93	188.83	5.0735e-07	4.9748e-07	232.39	65.348	50.039	15.016	4.8473e-07	20.932	-131.336	-24.233	17.651	-121.961	-36.417	83.589	-121.765	-114.874	6.182	55.811	-115.148	-108.640	-108.146	-101.146	17.871	-101.435	-8191	255	
1647.564	1	1	0	0	0.13424	0.1163	0.12911	0.12881	0.22744	0.1733	0.13155	0.058268	0.23576	0.042463	0.25363	0.055478	0.19644	0.093217	0.1893	0.17149	-2.5021	-2.3937	-2.8	-2.9583	-2.4854	-2.925	-2.9208	-2.7188	-2.9583	-2.5292	-2.8208	-2.75	-2.3875	-2.775	-2.6583	-2.6604	201.115	25.301	116.571	-107.135	-64.786	41.939	71.448	88.503	14.627	180.376	-105.199	128.029	195.133	-40.815	-48.583	54.333	0.00012282	0.00025567	6.8272e-05	908.49	1.3773e-06	1.1658e-06	950.09	187.59	1.1485e-06	2.7472e-06	233.81	64.221	50.619	14.872	2.1295e-06	20.877	5.4675e-05	4.427e-05	1.229e-05	894.46	5.1607e-07	4.9191e-07	948.04	188.48	5.2204e-07	4.9161e-07	232.03	65.219	49.829	14.976	4.6196e-07	21.07	-124.523	-10.097	-70.030	-121.835	29.924	-5.765	-121.699	-114.289	-3.964	46.787	-115.083	-108.689	-108.660	-101.556	34.086	-101.116	-8191	255	
1647.685	1	1	0	0	0.23089	0.042171	0.088922	0.38969	0.068854	0.28004	0.19032	0.0099872	0.044407	0.060699	0.17665	0.17883	0.14512	0.13231	0.12233	0.17821	-2.4875	-2.6021	-2.7208	-3.0479	-2.6312	-2.8063	-2.8542	-2.6583	-2.9083	-2.9188	-2.8021	-2.7958	-2.4167	-2.8021	-2.6333	-2.5208	223.808	-33.695	-60.543	161.421	16.372	26.728	195.144	69.868	-50.494	-15.411	152.009	226.521	-104.399	38.533	181.015	-46.103	0.00011341	0.00031226	5.0552e-05	902.39	9.3687e-07	2.5807e-06	946.23	187.38	5.3618e-07	2.4432e-06	234.49	64.935	50.027	14.871	1.6506e-06	20.85	5.052e-05	4.2797e-05	1.1352e-05	892.98	4.8022e-07	4.4598e-07	946.28	187.77	4.623e-07	4.4592e-07	231.61	65.342	49.736	14.989	4.5263e-07	20.988	-123.693	-46.914	-27.464	-121.740	54.939	-10.134	-121.828	-114.502	-42.766	32.439	-114.895	-108.437	-108.233	-101.045	14.930	-101.594	-8191	255	
1647.781	1	1	0	0	0.12612	0.19582	0.041745	0.17105	0.31431	0.089465	0.028089	0.047604	0.14999	0.33383	0.27988	0.24447	0.050504	0.047259	0.20401	0.17555	-2.4542	-2.6354	-2.5729	-3.0375	-2.6146	-2.7229	-2.9271	-2.5521	-3.0271	-2.6833	-2.7792	-3.0479	-2.5583	-2.7375	-2.7125	-2.5979	104.473	213.906	162.499	179.174	-63.729	177.426	67.100	146.568	-4.707	-16.706	-105.394	188.463	-13.810	159.990	141.756	-128.807	0.00011052	0.00023193	4.3118e-05	900.79	1.9141e-06	1.3162e-06	950.09	187.53	2.0366e-06	1.4621e-06	233.18	64.935	50.612	14.946	1.3438e-06	20.902	5.0215e-05	4.0983e-05	1.1508e-05	890.84	4.9103e-07	4.5977e-07	946.21	187.66	4.6148e-07	4.5482e-07	231.45	65.355	49.875	15.013	4.4951e-07	21.042	-124.866	-83.976	-44.942	-121.754	-11.177	3.060	-121.634	-114.531	-10.883	-19.182	-114.968	-108.666	-108.404	-101.158	-1.326	-101.470	-8191	255	
1647.877	1	1	0	0	0.46768	0.099025	0.079471	0.025344	0.22946	0.23323	0.12595	0.14724	0.29117	0.14877	0.18329	0.35569	0.10955	0.18335	0.10117	0.15263	-2.4021	-2.5271	-2.4062	-2.975	-2.6083	-2.7042	-3.075	-2.5896	-2.825	-2.6792	-2.7604	-2.9062	-2.7062	-2.8292	-2.7479	-2.725	-32.868	-95.489	30.455	-99.491	-118.262	7.620	81.679	168.401	-39.177	175.592	141.625	168.227	-8.268	-3.301	-33.157	-63.275	9.4503e-05	0.00014387	7.1086e-05	900.42	1.9817e-06	2.3847e-06	945.95	188.47	6.0098e-07	1.806e-06	233.92	64.822	50.185	14.948	1.5574e-06	20.981	5.0825e-05	3.937e-05	1.1412e-05	890.99	4.8881e-07	4.4572e-07	946.37	188.22	4.8762e-07	4.4728e-07	231.81	65.362	49.606	15.013	4.4413e-07	21.038	-122.849	-47.976	-47.461	-121.725	31.353	-0.114	-121.714	-114.712	0.730	-13.619	-114.691	-108.766	-108.216	-101.324	42.141	-101.754	-8191	255	
1647.973	1	1	0	0	0.073617	0.2073	0.10986	0.27585	0.17726	0.1186	0.36956	0.10413	0.26527	0.089674	0.17468	0.17833	0.18969	0.13153	0.045393	0.1624	-2.5104	-2.5438	-2.425	-2.95	-2.5375	-2.7396	-3.1	-2.675	-2.8229	-2.8333	-2.6521	-2.8563	-2.725	-2.6792	-2.9396	-2.4792	141.927	39.191	25.488	-81.223	24.806	142.170	173.776	-91.900	-104.787	-48.782	-86.154	-91.938	-31.026	28.729	-70.680	92.888	0.00011856	0.0003669	9.0634e-05	903.59	1.1441e-06	2.9929e-06	947.59	188.1	2.1506e-06	1.6906e-06	235.69	64.767	50.153	14.901	2.1248e-06	20.935	5.071e-05	3.9529e-05	1.1094e-05	892.1	4.7992e-07	4.2505e-07	945.59	188	4.5753e-07	4.1675e-07	231.93	65.536	49.708	15.005	4.3121e-07	21.033	-124.371	-49.353	-57.734	-121.668	34.514	-4.898	-121.953	-114.680	-4.296	38.482	-115.146	-108.376	-108.767	-101.096	-24.179	-102.006	-8191	255	
1648.069	1	1	0	0	0.26927	0.081991	0.15901	0.076309	0.12759	0.18228	0.11719	0.19714	0.18627	0.24383	0.14214	0.22248	0.20965	0.22107	0.41568	0.11051	-2.4979	-2.8604	-2.5208	-2.8438	-2.775	-2.5479	-3.0521	-2.6583	-2.8583	-2.9271	-2.7792	-3.0062	-2.6292	-2.5458	-2.8583	-2.7458	158.189	96.826	155.697	-19.989	75.116	150.719	38.704	142.234	-56.276	120.256	-105.990	-104.525	-9.558	218.578	-12.868	-104.574	9.8006e-05	0.0002112	4.8731e-05	895.85	1.3665e-06	1.1231e-06	944.58	187.27	2.1123e-06	3.0477e-06	234.13	64.64	50.254	14.832	1.868e-06	20.923	4.8583e-05	3.8639e-05	1.0854e-05	887.64	4.5791e-07	3.9655e-07	943.18	187.8	4.1544e-07	3.7343e-07	231.26	65.207	49.647	14.981	3.76e-07	20.97	224.469	-55.667	-72.629	-121.896	44.075	24.998	-121.509	-114.544	-20.981	13.396	-115.035	-108.526	-108.339	-101.028	-6.797	-101.924	-8191	255	
1648.165	1	1	0	0	0.19963	0.05203	0.12202	0.30117	0.07604	0.27657	0.16722	0.12797	0.07199	0.23525	0.20507	0.11803	0.11794	0.21557	0.067715	0.24176	-2.2042	-2.8312	-2.3646	-2.7521	-2.7792	-2.6917	-3.0667	-2.4375	-2.85	-3.0333	-2.7562	-2.8604	-2.7521	-2.4625	-2.9292	-2.5938	48.415	96.071	2.118	-129.274	17.287	-11.932	173.628	-111.663	198.209	204.818	131.694	39.938	-37.058	-18.374	164.132	190.089	0.00011836	0.0002354	2.6712e-05	890.42	1.5603e-06	2.7729e-06	938.16	187.55	1.4939e-06	1.4035e-06	233.25	64.343	49.798	14.86	8.6679e-07	20.782	4.4521e-05	3.3426e-05	9.4049e-06	882.41	3.9433e-07	3.5662e-07	937.49	187.21	3.7989e-07	3.4426e-07	230.37	64.801	49.236	14.912	3.4282e-07	20.9	-127.312	-69.261	-65.848	-121.591	-21.102	-4.100	-121.690	-114.522	5.096	2.808	-114.963	-108.460	-108.291	-101.130	-9.288	-101.354	-8191	255	
1648.262	1	1	0	0	0.072867	0.21747	0.028107	0.2753	0.1189	0.17337	0.23499	0.22314	0.095839	0.2342	0.19652	0.15127	0.2057	0.14676	0.24795	0.15299	-2.3271	-2.8333	-2.5021	-3.0333	-2.6625	-2.4708	-2.9938	-2.6667	-2.6042	-3	-2.6604	-2.8792	-2.6854	-2.4958	-3.1292	-2.7896	124.785	107.523	58.569	131.413	212.146	118.600	179.976	-47.284	9.924	-42.896	131.527	-113.465	57.429	221.418	89.096	169.862	0.00010464	0.00023698	7.2897e-05	881.56	1.3198e-06	1.3246e-06	930.16	185.95	6.453e-07	1.9109e-06	231.95	64.442	49.575	14.821	1.0357e-06	20.841	4.1194e-05	3.1114e-05	8.7e-06	873.92	3.6794e-07	3.402e-07	927.62	186.1	3.5735e-07	3.1859e-07	229.22	64.771	49.062	14.872	3.1488e-07	20.865	-127.022	-72.010	-26.879	-121.743	29.699	28.090	-121.572	-114.914	-44.923	26.704	-114.988	-108.724	-108.198	-100.942	15.908	-101.208	-8191	255	
1648.358	1	1	0	0	0.10775	0.11124	0.22948	0.14018	0.39721	0.11989	0.15894	0.22189	0.17523	0.16554	0.26322	0.031989	0.095722	0.1684	0.18731	0.23761	-2.3542	-2.9271	-2.5333	-2.8896	-2.6292	-2.625	-3.1021	-2.8042	-2.6104	-2.9646	-2.7396	-2.7458	-2.925	-2.4875	-2.9292	-2.9521	55.898	-58.925	-66.171	-50.767	52.194	137.561	175.786	164.087	49.478	101.837	172.636	98.106	-109.831	213.914	213.527	-120.137	0.00011912	0.00019098	7.5709e-05	871.11	1.7379e-06	2.7552e-06	921.03	185.04	1.5228e-06	1.3118e-06	231.59	64.313	49.478	14.846	1.7402e-06	20.841	3.7529e-05	2.5978e-05	7.2668e-06	864.27	3.13e-07	2.6301e-07	919.35	184.99	3.1681e-07	2.6383e-07	228.66	64.478	48.774	14.811	2.765e-07	20.783	-128.675	-45.175	-53.958	-121.482	1.293	18.595	-121.623	-114.569	-38.461	32.548	-115.206	-108.259	-108.023	-100.927	-22.514	-101.751	-8191	255	
1648.477	1	1	0	0	0.19103	0.079229	0.21483	0.19067	0.28394	0.15119	0.26752	0.2007	0.18971	0.088354	0.091969	0.040739	0.073402	0.18148	0.16093	0.19004	-2.1813	-2.9625	-2.5021	-2.7729	-2.8354	-2.6771	-2.9271	-2.9875	-2.6875	-3.0708	-2.6188	-2.5417	-2.9333	-2.4813	-3.0438	-2.8375	-81.491	-69.767	120.315	207.814	-89.118	141.144	-56.313	-122.013	-126.740	164.526	-84.439	159.563	48.996	127.137	-88.171	121.645	0.00011481	0.0002466	4.8219e-05	867.3	6.024e-07	2.4283e-06	913.63	184.62	7.663e-07	2.5319e-06	231.2	64.086	49.258	14.784	8.4031e-07	20.529	3.4039e-05	2.4048e-05	6.7454e-06	858.89	2.7654e-07	2.469e-07	914.84	184.69	2.83e-07	2.2581e-07	228.02	64.384	48.532	14.773	2.4254e-07	20.711	226.005	-61.765	-43.754	-121.711	4.108	-6.706	-121.567	-114.361	14.763	31.167	-114.850	-108.656	-108.434	-101.334	20.151	-101.266	-8191	255	
1648.573	1	1	0	0	0.10656	0.10795	0.15074	0.15583	0.11427	0.16861	0.39488	0.11677	0.13969	0.23644	0.10083	0.17832	0.14311	0.096832	0.32074	0.027628	-2.2125	-2.7812	-2.8083	-2.6646	-2.8083	-2.6292	-2.9313	-2.825	-2.45	-2.8146	-2.5979	-2.7167	-2.8625	-2.6417	-2.975	-2.725	-130.744	-68.134	-117.012	91.769	-60.862	-31.304	174.285	214.158	-114.123	197.388	41.336	188.622	-90.981	-86.247	135.478	-58.941	0.00011068	0.00025419	4.6372e-05	864.42	1.4412e-06	2.9415e-06	912.19	184.17	1.7819e-06	1.5284e-06	230.56	63.228	49.223	14.668	1.8894e-06	20.576	3.3422e-05	2.2159e-05	6.0627e-06	854.59	2.578e-07	2.2916e-07	910.5	184.15	2.677e-07	2.2125e-07	227.4	64.116	48.484	14.741	2.1747e-07	20.686	-125.843	-40.092	-47.279	-121.442	11.259	5.959	-121.356	-114.379	-24.251	29.059	-115.161	-108.686	-108.318	-101.167	-20.916	-101.512	-8191	255	
1648.646	1	1	0	0	0.028346	0.11833	0.25292	0.084408	0.10887	0.19015	0.18727	0.17648	0.11825	0.14252	0.1148	0.073401	0.10126	0.27081	0.16632	0.37187	-1.9292	-2.725	-2.7667	-2.7521	-3.0042	-2.5854	-2.9625	-2.9604	-2.4896	-3.0854	-2.9792	-2.625	-2.8625	-2.6646	-2.7812	-2.9583	12.381	-79.513	-21.578	150.630	72.886	32.596	213.135	176.149	145.391	187.945	77.367	177.163	225.806	12.872	108.647	178.838	0.00010333	0.00035272	5.7834e-05	854.67	9.925e-07	6.324e-07	902.03	182.37	1.0885e-06	1.6406e-06	229.49	63.269	48.93	14.555	1.7503e-06	20.618	3.0482e-05	1.9515e-05	5.0665e-06	844.53	2.2273e-07	1.9068e-07	900.67	182.83	2.3076e-07	1.8258e-07	226.21	63.97	48.177	14.636	1.9804e-07	20.577	-127.363	-48.849	-75.626	-121.308	5.299	67.208	-121.520	-114.375	-35.395	23.124	-114.858	-108.473	-108.084	-101.303	16.487	-101.518	-8191	255	
1648.765	1	1	0	0	0.21459	0.22314	0.047367	0.1677	0.15845	0.050341	0.3195	0.12424	0.34943	0.14763	0.10629	0.33698	0.11125	0.11283	0.16122	0.12692	-2.1354	-2.7729	-2.5354	-2.5625	-2.8604	-2.6104	-2.8042	-2.9188	-2.6333	-2.9083	-2.8063	-2.8438	-2.9646	-2.6354	-2.6896	-2.9521	207.656	184.046	-75.582	-84.235	182.720	39.815	187.086	154.852	5.774	221.233	-19.115	12.819	-73.429	160.400	-54.641	132.875	0.00011368	0.00028762	7.1902e-05	848.58	1.8667e-06	1.9372e-06	896.41	181.95	1.4405e-06	1.5547e-06	228.97	63.755	48.786	14.611	1.7199e-06	20.362	2.7709e-05	1.7929e-05	4.6863e-06	839.74	2.1691e-07	1.8056e-07	894.41	182.14	2.1567e-07	1.7561e-07	225.37	63.842	47.996	14.657	1.9149e-07	20.533	-128.454	-53.116	-31.133	-121.460	25.413	27.162	-121.607	-114.372	6.295	28.810	-114.767	-108.048	-108.315	-100.809	-2.712	-101.617	-8191	255	
#DATA ENDS
