BOXY.EXE: ISS Imagent and Oximeter Data Acquisition Program Version 0.80
Ascii Record File

#ACQ INFORMATION
2  Detector Channels 
16  External MUX Channels 
1  Auxiliary Channels 
5000  Waveform (CCF) Frequency (Hz)
1  Waveforms Skipped 
30  Waveforms Averaged 
1  Cycles Averaged 
16  Acquisitions per Waveform 
10.0806  Updata Rate (Hz) 

#FILE INFORMATION
TRUE -- External MUX Channel results are PARSED.
FALSE -- AC DC and Phase are NOT grouped.
TRUE -- Companion Program Settings File CREATED.
FALSE -- AC data not excluded
FALSE -- DC data not excluded
FALSE -- Phase data not excluded
FALSE -- Auxillary Chn. data not excluded
Tab delimiters

#CALIBRATION STATE
TRUE -- Waveform Calibration Values APPLIED.


#AUX CALIBRATION VALUES
Val Type	aux-1	

Term	1.0000e+00	
Factor	0.0000e+00	


#WF CALIBRATION VALUES
A = Detector Channel
Val Type	A-AC1	A-AC2	A-AC3	A-AC4	A-AC5	A-AC6	A-AC7	A-AC8	A-AC9	A-AC10	A-AC11	A-AC12	A-AC13	A-AC14	A-AC15	A-AC16	A-DC1	A-DC2	A-DC3	A-DC4	A-DC5	A-DC6	A-DC7	A-DC8	A-DC9	A-DC10	A-DC11	A-DC12	A-DC13	A-DC14	A-DC15	A-DC16	A-Ph1	A-Ph2	A-Ph3	A-Ph4	A-Ph5	A-Ph6	A-Ph7	A-Ph8	A-Ph9	A-Ph10	A-Ph11	A-Ph12	A-Ph13	A-Ph14	A-Ph15	A-Ph16	

Term	0.00000e+00	0.00000e+00	0.00000e+00	0.00000e+00	0.00000e+00	0.00000e+00	0.00000e+00	0.00000e+00	0.00000e+00	0.00000e+00	0.00000e+00	0.00000e+00	0.00000e+00	0.00000e+00	0.00000e+00	0.00000e+00	0.00000e+00	0.00000e+00	0.00000e+00	0.00000e+00	0.00000e+00	0.00000e+00	0.00000e+00	0.00000e+00	0.00000e+00	0.00000e+00	0.00000e+00	0.00000e+00	0.00000e+00	0.00000e+00	0.00000e+00	0.00000e+00	0.00000e+00	0.00000e+00	0.00000e+00	0.00000e+00	0.00000e+00	0.00000e+00	0.00000e+00	0.00000e+00	0.00000e+00	0.00000e+00	0.00000e+00	0.00000e+00	0.00000e+00	0.00000e+00	0.00000e+00	0.00000e+00	
Factor	1.00000e+00	1.00000e+00	1.00000e+00	1.00000e+00	1.00000e+00	1.00000e+00	1.00000e+00	1.00000e+00	1.00000e+00	1.00000e+00	1.00000e+00	1.00000e+00	1.00000e+00	1.00000e+00	1.00000e+00	1.00000e+00	1.00000e+00	1.00000e+00	1.00000e+00	1.00000e+00	1.00000e+00	1.00000e+00	1.00000e+00	1.00000e+00	1.00000e+00	1.00000e+00	1.00000e+00	1.00000e+00	1.00000e+00	1.00000e+00	1.00000e+00	1.00000e+00	X	X	X	X	X	X	X	X	X	X	X	X	X	X	X	X	

B = Detector Channel
Val Type	B-AC1	B-AC2	B-AC3	B-AC4	B-AC5	B-AC6	B-AC7	B-AC8	B-AC9	B-AC10	B-AC11	B-AC12	B-AC13	B-AC14	B-AC15	B-AC16	B-DC1	B-DC2	B-DC3	B-DC4	B-DC5	B-DC6	B-DC7	B-DC8	B-DC9	B-DC10	B-DC11	B-DC12	B-DC13	B-DC14	B-DC15	B-DC16	B-Ph1	B-Ph2	B-Ph3	B-Ph4	B-Ph5	B-Ph6	B-Ph7	B-Ph8	B-Ph9	B-Ph10	B-Ph11	B-Ph12	B-Ph13	B-Ph14	B-Ph15	B-Ph16	

Term	0.00000e+00	0.00000e+00	0.00000e+00	0.00000e+00	0.00000e+00	0.00000e+00	0.00000e+00	0.00000e+00	0.00000e+00	0.00000e+00	0.00000e+00	0.00000e+00	0.00000e+00	0.00000e+00	0.00000e+00	0.00000e+00	0.00000e+00	0.00000e+00	0.00000e+00	0.00000e+00	0.00000e+00	0.00000e+00	0.00000e+00	0.00000e+00	0.00000e+00	0.00000e+00	0.00000e+00	0.00000e+00	0.00000e+00	0.00000e+00	0.00000e+00	0.00000e+00	-2.65566e+02	-1.24841e+02	-1.20241e+02	-1.81994e+02	-7.06572e+01	-6.59311e+01	-1.56309e+02	-1.62015e+02	-6.90623e+01	-6.87394e+01	-1.73690e+02	-1.70229e+02	-1.84320e+02	-1.76364e+02	-6.75761e+01	-1.49227e+02	
Factor	6.26878e-05	1.67292e-04	5.27594e-05	1.83783e-01	2.31563e-06	1.97287e-06	1.71397e-01	5.46504e-02	2.81418e-06	1.76473e-06	1.02938e-01	3.00253e-02	5.63014e-02	9.41980e-03	2.03463e-06	1.37220e-02	5.32171e-06	6.03407e-06	1.68690e-06	9.18392e-02	6.45977e-08	6.66728e-08	8.01300e-02	2.73424e-02	6.44674e-08	6.66207e-08	4.98357e-02	1.45750e-02	2.78928e-02	4.75395e-03	6.55589e-08	6.70704e-03	X	X	X	X	X	X	X	X	X	X	X	X	X	X	X	X	



#DISTANCE SETTINGS
A = Detector Channel
A-1	A-2	A-3	A-4	A-5	A-6	A-7	A-8	A-9	A-10	A-11	A-12	A-13	A-14	A-15	A-16	

2.5000e+00	3.0000e+00	2.5000e+00	3.0000e+00	2.0000e+00	3.0000e+00	1.5000e+00	3.0000e+00	3.0000e+00	3.0000e+00	3.0000e+00	3.0000e+00	3.0000e+00	3.0000e+00	1.5000e+00	3.0000e+00	

B = Detector Channel
B-1	B-2	B-3	B-4	B-5	B-6	B-7	B-8	B-9	B-10	B-11	B-12	B-13	B-14	B-15	B-16	

1.0000e+01	1.0000e+01	1.0000e+01	1.4400e+00	1.0000e+01	1.0000e+01	1.5100e+00	1.9400e+00	1.0000e+01	1.0000e+01	1.9900e+00	2.4900e+00	2.4100e+00	2.9000e+00	1.0000e+01	2.9800e+00	




#DATA BEGINS
time	group	step	mark	flag	A-AC1	A-AC2	A-AC3	A-AC4	A-AC5	A-AC6	A-AC7	A-AC8	A-AC9	A-AC10	A-AC11	A-AC12	A-AC13	A-AC14	A-AC15	A-AC16	A-DC1	A-DC2	A-DC3	A-DC4	A-DC5	A-DC6	A-DC7	A-DC8	A-DC9	A-DC10	A-DC11	A-DC12	A-DC13	A-DC14	A-DC15	A-DC16	A-Ph1	A-Ph2	A-Ph3	A-Ph4	A-Ph5	A-Ph6	A-Ph7	A-Ph8	A-Ph9	A-Ph10	A-Ph11	A-Ph12	A-Ph13	A-Ph14	A-Ph15	A-Ph16	B-AC1	B-AC2	B-AC3	B-AC4	B-AC5	B-AC6	B-AC7	B-AC8	B-AC9	B-AC10	B-AC11	B-AC12	B-AC13	B-AC14	B-AC15	B-AC16	B-DC1	B-DC2	B-DC3	B-DC4	B-DC5	B-DC6	B-DC7	B-DC8	B-DC9	B-DC10	B-DC11	B-DC12	B-DC13	B-DC14	B-DC15	B-DC16	B-Ph1	B-Ph2	B-Ph3	B-Ph4	B-Ph5	B-Ph6	B-Ph7	B-Ph8	B-Ph9	B-Ph10	B-Ph11	B-Ph12	B-Ph13	B-Ph14	B-Ph15	B-Ph16	aux-1	digaux	

754.143	1	1	0	256	0.14473	0.2381	0.14775	0.22423	0.11626	0.031779	0.062797	0.1458	0.14374	0.18703	0.22139	0.079178	0.082299	0.18463	0.041597	0.23257	-2.3146	-2.9479	-2.6708	-3.0938	-2.7792	-2.7792	-3.0875	-2.85	-2.8729	-3.1771	-2.6562	-2.9188	-2.8167	-2.7146	-2.7896	-2.7479	215.823	494.939	376.998	462.082	409.481	474.925	341.369	260.960	504.549	488.291	153.421	403.839	203.797	237.066	451.035	445.578	0.0017464	0.00029116	9.2673e-05	1245.5	1.0058e-05	6.2159e-07	1255.3	340.06	1.3224e-05	2.7862e-06	388.52	128.34	113.72	37.409	8.7469e-06	46.903	0.00077013	0.00075186	0.00020964	1280.3	8.147e-06	8.2403e-06	1284.9	348.88	8.049e-06	8.03e-06	401.93	132.04	116.19	39.052	7.9662e-06	49.095	412.644	239.264	267.176	162.508	282.536	204.151	162.172	166.899	274.939	304.944	166.717	170.758	170.912	176.310	305.853	175.417	-8191	255	
754.237	1	1	0	0	0.1304	0.25102	0.11451	0.070229	0.12342	0.051239	0.073189	0.11976	0.17534	0.26115	0.28611	0.096833	0.061881	0.10359	0.18715	0.32193	-2.2833	-2.7938	-2.5354	-3.1583	-2.825	-2.7375	-3.1729	-2.7458	-2.8792	-3.0438	-2.825	-3.0271	-2.9125	-2.775	-2.9333	-2.9813	263.569	404.424	462.805	463.501	483.617	159.301	479.419	315.591	507.559	165.382	409.505	319.593	239.890	196.055	503.431	508.414	0.0017246	0.00054533	8.482e-05	1241.1	4.4659e-06	7.7109e-06	1249.5	339.64	1.0158e-05	8.0918e-06	389.3	128.58	113.02	37.648	1.0838e-05	47.072	0.00074388	0.00072692	0.00020145	1275.6	7.7656e-06	7.8952e-06	1280.7	348.78	7.8974e-06	7.9813e-06	402.23	132.22	116.02	39.176	7.9063e-06	49.338	412.064	266.751	249.850	162.362	277.822	331.365	162.081	167.071	276.778	302.233	166.595	171.005	170.930	176.392	295.845	175.159	-8191	255	
754.334	1	1	0	0	0.11839	0.28257	0.16123	0.10057	0.12101	0.26509	0.049245	0.37544	0.26395	0.092199	0.18383	0.27959	0.054641	0.34452	0.14682	0.27881	-2.3729	-3.0083	-2.6792	-3.0604	-2.8146	-2.5438	-3.1458	-2.9667	-2.8812	-3.0021	-2.825	-2.9667	-2.9042	-2.8083	-2.9875	-3.0333	410.917	383.007	180.187	231.880	425.152	472.261	412.736	471.868	421.970	436.164	445.203	156.596	276.767	201.817	385.010	490.781	0.0017985	0.00057113	0.00017282	1249.6	5.928e-06	4.8161e-06	1263.1	339.68	1.261e-05	3.8866e-06	391.24	128.88	113.92	37.933	7.0721e-06	47.417	0.00073868	0.00072249	0.0002031	1284.3	7.9368e-06	8.035e-06	1289	349.59	8.0884e-06	8.1788e-06	404.5	132.89	117.14	39.434	8.5071e-06	49.598	413.758	239.200	229.328	162.427	287.123	306.429	161.979	167.110	269.232	274.992	166.521	170.928	171.114	176.390	258.940	174.987	-8191	255	
754.454	1	1	0	0	0.13717	0.1431	0.18339	0.21567	0.1285	0.25901	0.14965	0.40929	0.072119	0.13308	0.18527	0.26821	0.30507	0.034266	0.029128	0.11944	-2.3125	-2.9708	-2.6833	-3.1437	-2.9688	-2.65	-3.0938	-2.875	-2.675	-3.2562	-2.9625	-2.7292	-3.1125	-2.7917	-2.9729	-3.0104	220.582	485.410	301.261	457.565	247.252	459.666	470.580	191.998	161.693	199.608	392.615	392.562	422.811	317.740	258.661	181.752	0.0017705	0.00031213	0.00016842	1264.4	9.3556e-06	6.8776e-06	1272.6	342.83	6.5033e-06	6.347e-06	396.7	130.1	114.53	38.111	2.4735e-06	47.648	0.00079238	0.00078779	0.00022365	1300.9	8.8084e-06	8.8312e-06	1306.2	354.3	8.7903e-06	9.0896e-06	409.14	134.06	118.3	39.79	9.1001e-06	49.982	413.937	261.990	273.878	162.398	282.215	319.953	162.130	167.011	258.805	290.251	166.544	170.770	170.940	176.234	273.665	174.801	-8191	255	
754.550	1	1	0	0	0.2918	0.14839	0.16984	0.13521	0.092807	0.22641	0.17355	0.34908	0.051678	0.12823	0.22674	0.1007	0.14131	0.25731	0.041818	0.075951	-2.1729	-3.0375	-2.6917	-2.95	-2.8833	-2.7125	-3.1958	-2.9938	-2.6458	-2.9104	-2.8875	-2.8604	-3.0167	-2.6917	-2.8458	-2.9	393.728	160.548	468.605	465.962	236.391	343.756	203.259	477.816	470.975	205.509	494.903	442.107	452.043	159.938	379.531	157.735	0.0017219	0.00040163	0.00016405	1279.5	9.4047e-06	3.0836e-06	1282.2	346.07	1.342e-05	1.2482e-06	396.97	130.62	115	38.131	7.1273e-06	47.66	0.00084325	0.00082497	0.00022977	1315.2	8.7997e-06	8.9854e-06	1314.8	355.92	8.7044e-06	8.7741e-06	410.79	134.47	118.39	39.843	8.7755e-06	49.938	412.263	208.124	248.494	162.342	274.883	262.421	161.979	166.997	260.878	244.333	166.546	170.507	171.180	176.232	266.089	175.295	-8191	255	
754.646	1	1	0	0	0.051009	0.15518	0.21373	0.061585	0.24673	0.12667	0.19688	0.21066	0.09444	0.15483	0.25697	0.13676	0.035573	0.12745	0.31636	0.23195	-2.2438	-2.7708	-2.8104	-2.8125	-3.0312	-2.725	-2.9458	-3.1042	-2.6271	-3.1208	-3.0583	-2.7812	-3.1063	-2.7667	-2.7604	-3.1229	476.969	491.852	245.858	448.113	436.949	215.304	468.597	491.064	217.467	330.753	166.900	443.754	501.929	161.568	204.753	459.908	0.0017573	0.00077837	0.00015887	1276.2	7.0349e-06	4.9477e-06	1279.2	345.28	1.0092e-05	5.4888e-06	397.22	130.32	114.69	38.136	4.9048e-06	47.711	0.00079739	0.00080479	0.00022181	1311.5	8.5963e-06	8.625e-06	1312.7	354.87	8.3214e-06	8.4994e-06	409.14	133.98	117.93	39.659	8.208e-06	49.806	413.548	239.382	240.979	162.613	285.614	289.334	162.187	166.910	269.903	285.976	166.652	170.666	171.027	176.264	268.827	174.947	-8191	255	
754.718	1	1	0	0	0.40673	0.036534	0.24148	0.10932	0.11918	0.078346	0.12723	0.22768	0.19956	0.080853	0.21542	0.032422	0.32169	0.24507	0.096816	0.14201	-2.2979	-2.8167	-2.6813	-2.6333	-2.9292	-2.8521	-2.9688	-3.2167	-2.5938	-2.7958	-2.8771	-2.7229	-3.0938	-2.8125	-2.7021	-3.1146	284.195	433.960	251.274	167.246	159.341	269.085	400.366	411.013	239.775	323.573	495.587	289.274	450.936	491.360	238.673	189.549	0.0017413	0.00040176	0.00015073	1272.1	5.3361e-06	4.0388e-06	1272.8	344.32	1.6996e-05	4.347e-06	394.79	130.05	115.1	37.987	7.3364e-06	47.694	0.000758	0.000735	0.00020632	1305.3	7.7907e-06	7.8732e-06	1303.7	353.57	7.6837e-06	7.6567e-06	407.43	133.49	117.38	39.531	7.6272e-06	49.69	412.769	195.574	264.898	162.581	325.675	259.553	161.990	167.040	253.350	312.903	166.363	170.812	171.387	176.431	271.962	174.888	-8191	255	
754.814	1	1	0	0	0.25639	0.18121	0.16449	0.22817	0.16137	0.095828	0.15881	0.12889	0.19128	0.057334	0.14127	0.11622	0.076761	0.30415	0.11828	0.23042	-2.1458	-2.7271	-2.7062	-2.6479	-3.0833	-2.7833	-3.1208	-3.2042	-2.7125	-2.9771	-3.0042	-2.8479	-3.0104	-2.8854	-2.6896	-3.1479	463.557	330.354	402.206	408.302	196.127	212.204	365.462	394.198	308.501	299.861	507.643	225.090	457.044	448.502	199.980	359.549	0.0016209	0.00049907	0.00010979	1257.8	5.0153e-06	6.0646e-06	1260.6	342.5	1.2917e-05	4.7248e-06	393.2	129.4	114.61	38.031	4.0352e-06	47.38	0.00071708	0.00070576	0.0001957	1294	7.6029e-06	7.7572e-06	1294.8	352.19	7.7944e-06	7.8202e-06	405.77	133.11	116.7	39.481	7.5062e-06	49.577	409.938	254.248	221.508	162.233	257.913	291.978	162.200	167.095	262.404	324.047	166.386	170.634	171.232	176.225	277.026	175.402	-8191	255	
754.935	1	1	0	0	0.020083	0.13806	0.17748	0.18132	0.25923	0.10312	0.37511	0.35885	0.3556	0.24946	0.31741	0.43073	0.20125	0.028154	0.088234	0.40285	-2.3646	-2.7833	-3.0583	-2.8375	-2.9542	-2.8125	-2.8208	-3.2313	-2.7271	-2.7958	-3.0208	-2.8	-3.05	-2.8292	-2.7938	-3.0542	151.179	291.818	224.538	411.836	165.216	245.394	383.862	412.503	477.596	416.780	441.347	180.024	173.335	415.815	483.889	496.817	0.0017609	0.00048642	0.00011808	1260.4	6.4268e-06	6.1553e-06	1269.2	342.53	1.0203e-05	3.097e-06	393.46	129.07	114.81	37.883	5.5298e-06	47.413	0.00070771	0.00068635	0.00019076	1293.5	7.4838e-06	7.5076e-06	1297.4	352.22	7.5087e-06	7.6936e-06	405.67	133.2	117.18	39.504	7.8238e-06	49.598	414.164	252.826	227.965	162.417	270.352	295.141	161.966	167.083	295.887	299.070	166.342	170.767	171.066	176.396	284.387	175.126	-8191	255	
755.031	1	1	0	0	0.032448	0.10094	0.094379	0.020461	0.39965	0.11355	0.10787	0.23514	0.11559	0.12878	0.21216	0.2879	0.045588	0.11352	0.21634	0.30983	-2.4396	-2.8021	-2.9083	-2.8292	-2.925	-2.9292	-2.7896	-3.2333	-2.7646	-2.8833	-3.1021	-2.7604	-3.0292	-2.8625	-2.6979	-3.0354	281.317	184.396	163.736	473.366	356.824	420.634	440.519	452.447	289.948	387.583	456.743	169.155	323.294	356.519	246.440	463.094	0.0016613	0.00036788	4.492e-05	1265.6	9.4787e-06	1.5182e-06	1274	345.9	9.0349e-06	4.7736e-06	396.22	130.65	115.69	38.072	5.5799e-06	47.903	0.0007323	0.00073443	0.00020732	1299.5	8.1567e-06	8.1127e-06	1307.5	355.03	8.1359e-06	8.3102e-06	409.36	134.34	118.26	39.797	8.1835e-06	50.016	420.594	236.613	209.271	162.404	301.213	316.357	162.066	167.265	307.789	299.162	166.253	170.715	171.098	176.276	313.707	175.188	-8191	255	
755.127	1	1	0	0	0.13388	0.024989	0.072728	0.24426	0.12824	0.10125	0.16435	0.11174	0.1115	0.17912	0.058048	0.10468	0.07529	0.12776	0.31678	0.37252	-2.5125	-2.625	-3.1729	-2.8458	-2.7687	-2.9833	-2.7792	-3.1312	-2.7521	-2.7104	-3.0625	-2.9062	-2.8229	-2.8625	-2.6875	-3.1063	333.353	303.586	327.089	173.584	489.788	262.829	417.421	493.987	237.355	391.297	221.549	335.249	161.481	431.764	239.053	202.487	0.0017615	0.00039396	0.00020692	1277.3	8.1134e-06	4.1545e-06	1280.7	347.77	1.0912e-05	4.0689e-06	397.48	131.18	115.55	38.207	6.7298e-06	48.166	0.00075977	0.00074545	0.0002041	1313.2	7.9801e-06	8.097e-06	1315.3	356.32	7.8592e-06	7.654e-06	410.12	134.49	118.13	39.894	7.5715e-06	50.098	414.243	254.568	268.316	162.552	271.261	277.835	162.101	167.234	284.300	284.622	166.594	170.861	170.788	176.080	247.008	175.176	-8191	255	
755.223	1	1	0	0	0.27294	0.29586	0.052333	0.23221	0.076304	0.067745	0.36659	0.10479	0.093747	0.061849	0.11119	0.16676	0.12082	0.036491	0.10671	0.27053	-2.2708	-2.7438	-2.9646	-2.8479	-2.8417	-3.0187	-2.8479	-3.0417	-2.7604	-2.7708	-3.1958	-2.8604	-2.7229	-3.1479	-2.7396	-3.05	435.142	396.920	332.400	436.396	392.128	323.042	460.113	461.053	268.220	170.823	272.458	413.937	287.297	276.882	256.456	397.606	0.0016912	0.00035376	0.00017541	1279.2	1.1163e-05	4.4319e-06	1279.5	345.95	8.4606e-06	1.6353e-06	397.72	130.48	115.73	38.282	8.6357e-06	47.657	0.00070599	0.00066415	0.00018935	1309.6	7.1691e-06	7.2019e-06	1310.6	355.17	7.0577e-06	7.0823e-06	409.52	134.16	117.92	39.852	6.9334e-06	49.977	415.201	266.384	258.674	162.727	313.442	293.922	161.922	167.032	258.939	331.322	166.484	170.671	171.318	176.222	288.279	175.167	-8191	255	
755.342	1	1	0	0	0.11272	0.34924	0.11461	0.35238	0.1782	0.13398	0.26406	0.18302	0.069743	0.073843	0.37353	0.32526	0.083794	0.062293	0.074307	0.16238	-2.45	-2.6937	-3.0354	-3.0812	-2.7438	-2.9396	-2.8688	-3.0167	-2.8833	-2.5833	-3.15	-2.8292	-2.6896	-3.1708	-2.7417	-2.9958	196.081	351.062	229.679	500.111	189.367	418.183	434.726	404.807	284.784	465.511	186.898	333.246	175.558	496.784	252.456	433.610	0.0016765	0.00055672	0.00025106	1272.4	6.2112e-06	6.3437e-06	1273.9	347.02	1.2069e-05	4.8882e-06	396.1	131.36	116.02	38.547	3.4686e-06	48.048	0.0006527	0.00062441	0.00017387	1304.1	6.8163e-06	6.8873e-06	1306	355.38	6.8588e-06	6.7705e-06	408.99	134.58	118.08	39.967	6.8872e-06	50.09	413.784	268.104	246.273	162.443	266.466	312.800	162.055	167.346	274.276	287.921	166.755	170.529	170.900	176.266	279.510	174.919	-8191	255	
755.416	1	1	0	0	0.093468	0.31224	0.1035	0.34483	0.18894	0.1189	0.21484	0.1356	0.264	0.17305	0.18906	0.087934	0.31905	0.20752	0.091092	0.14311	-2.7125	-2.8187	-2.8688	-2.8833	-2.6833	-2.975	-2.7917	-2.9792	-2.8417	-2.6937	-3.0625	-3.0167	-2.6396	-3.2292	-2.7458	-2.9917	161.917	427.968	251.840	182.051	350.251	340.182	452.868	157.926	247.738	451.019	494.925	355.186	359.459	453.052	434.708	305.177	0.0018774	0.00063876	0.0001726	1272.7	8.8989e-06	5.7475e-06	1281.6	347.35	9.2781e-06	4.6231e-06	397.24	131.35	116.41	38.471	7.4888e-06	48.04	0.000663	0.00063035	0.000177	1306.7	7.0647e-06	7.0861e-06	1310.4	355.55	7.017e-06	7.0798e-06	410.4	134.65	118.63	40.048	7.0457e-06	50.22	413.310	235.770	264.349	162.451	274.955	276.241	162.048	167.247	265.582	310.632	166.695	170.560	171.114	176.276	273.834	175.080	-8191	255	
755.535	1	1	0	0	0.14064	0.11543	0.14957	0.16576	0.13619	0.091055	0.084886	0.068576	0.27143	0.069501	0.21739	0.22982	0.10273	0.18895	0.14051	0.13628	-2.6188	-2.725	-2.8312	-3.1	-2.7562	-2.9813	-3.0729	-2.8625	-3.0833	-2.7354	-3.1562	-3.0896	-2.6479	-3.2917	-2.8563	-2.7667	234.831	508.406	250.953	489.421	296.960	463.456	335.328	163.736	355.874	291.660	168.587	377.580	377.555	178.826	339.168	392.561	0.0017682	0.00054653	0.00013639	1277.7	7.8642e-06	5.5052e-06	1283.9	347.97	1.0534e-05	3.9993e-06	400.04	131.47	115.95	38.644	2.7239e-06	48.095	0.00066816	0.00063167	0.00017812	1310.2	6.87e-06	6.9365e-06	1316.2	356.74	7.0076e-06	6.9707e-06	411.58	135.29	118.71	40.201	7.2033e-06	50.371	414.676	224.324	287.199	162.436	289.083	321.040	162.115	167.365	288.476	287.470	166.316	170.784	171.070	176.226	293.446	175.251	-8191	255	
755.631	1	1	0	0	0.11979	0.13897	0.11149	0.19216	0.19884	0.071142	0.18001	0.094149	0.34132	0.13392	0.23827	0.23232	0.088141	0.046111	0.15322	0.23064	-2.6125	-2.7	-2.7896	-3.2646	-2.7812	-2.9313	-2.9604	-2.9042	-2.9917	-2.7938	-3.1833	-3.125	-2.7229	-3.0062	-2.775	-2.8625	379.238	316.536	359.054	416.448	353.344	258.257	479.889	502.691	429.284	209.932	499.425	326.168	312.620	379.614	213.950	439.737	0.001651	0.00042412	0.00022556	1283.8	8.6898e-06	1.826e-06	1286.7	348.52	1.324e-05	2.9006e-06	399.97	131.76	116.43	38.678	6.8073e-06	48.447	0.00068164	0.00064498	0.00018222	1315.2	7.0103e-06	7.1295e-06	1318.3	357.42	7.0089e-06	7.0095e-06	411.61	135.38	118.86	40.241	7.0424e-06	50.417	416.959	239.655	232.709	162.415	262.376	373.532	161.981	167.339	278.555	257.856	166.412	170.784	171.083	176.294	265.086	174.838	-8191	255	
755.727	1	1	0	0	0.21711	0.2066	0.073395	0.13958	0.13142	0.13431	0.441	0.033578	0.22426	0.25369	0.3199	0.11892	0.16962	0.11103	0.013255	0.16607	-2.6896	-2.8542	-3.0062	-3.2604	-2.8937	-3.0687	-3.0875	-2.9062	-3.0229	-2.6646	-2.85	-3.1708	-2.6792	-3.1	-2.8479	-2.9229	166.747	394.038	173.466	293.002	502.010	407.432	428.025	470.109	321.527	414.411	159.771	287.341	318.196	264.677	486.391	356.573	0.0017341	0.00066295	0.00019431	1284.4	8.2591e-06	3.5184e-06	1294.9	349.75	1.2461e-05	4.2637e-06	399.25	132.02	117.41	38.697	5.9641e-06	48.561	0.00066842	0.00063041	0.00017718	1317.2	6.9163e-06	6.9665e-06	1322.4	358.36	6.8674e-06	6.9199e-06	411.93	135.59	119.21	40.314	6.8875e-06	50.462	410.035	249.423	223.423	162.497	254.497	330.190	161.965	167.305	286.171	286.732	166.248	170.633	170.945	176.194	294.202	175.071	-8191	255	
755.823	1	1	0	0	0.043305	0.1832	0.14656	0.19547	0.19635	0.18225	0.16337	0.21256	0.25108	0.022853	0.094066	0.17065	0.030071	0.07888	0.25136	0.33337	-2.5875	-2.8208	-2.7062	-3.1479	-2.6771	-2.8667	-3.0938	-3.0167	-3.0792	-2.8708	-2.8979	-3.2	-2.5875	-3.075	-3.1375	-2.7542	471.136	301.874	242.397	496.304	475.493	223.227	436.276	471.187	331.471	496.923	158.073	444.939	192.161	433.675	280.894	393.937	0.0017707	0.00013182	7.0603e-05	1289.2	6.8843e-06	6.9953e-06	1290.5	348.7	8.0359e-06	3.5474e-06	398.8	132.33	116.51	38.669	2.4513e-06	48.364	0.00065876	0.0006281	0.00017446	1320.2	6.8324e-06	7.0208e-06	1322.8	358.04	7.0194e-06	6.9081e-06	412.19	135.42	119.03	40.301	7.1084e-06	50.457	414.321	232.655	249.266	162.475	270.132	301.450	162.034	167.235	299.227	291.992	166.634	170.509	170.850	176.137	319.526	174.987	-8191	255	
755.944	1	1	0	0	0.23687	0.12793	0.17283	0.18598	0.16675	0.16327	0.4011	0.10973	0.046734	0.04425	0.13382	0.25689	0.059305	0.21783	0.22318	0.14923	-2.6042	-2.7625	-2.7729	-3.1833	-2.7708	-2.8125	-3.1333	-2.9417	-3	-2.8854	-2.9875	-3.1458	-2.7625	-2.8458	-2.8875	-2.7604	389.367	437.718	246.790	483.400	440.992	366.957	407.437	173.580	442.974	370.051	467.969	508.502	189.341	424.500	189.519	179.826	0.0016243	0.00061308	9.3888e-05	1284.5	1.1897e-06	4.2484e-06	1293.9	350.64	1.2156e-05	4.576e-06	400.72	132.11	117.08	38.755	6.3685e-06	48.36	0.00066934	0.00064444	0.00017922	1321.2	7.0938e-06	7.2161e-06	1324.7	359.12	7.2949e-06	7.4003e-06	413.46	135.57	119.52	40.366	7.2815e-06	50.518	416.195	235.090	278.509	162.526	299.307	273.270	162.059	167.399	283.513	299.889	166.191	170.505	171.210	176.502	301.243	175.146	-8191	255	
756.015	1	1	0	0	0.26278	0.16167	0.023602	0.2189	0.1501	0.23041	0.16258	0.069817	0.13259	0.15235	0.073588	0.17953	0.37827	0.25553	0.17717	0.14125	-2.4688	-2.9062	-2.7833	-3.2292	-2.9104	-2.7417	-3.1354	-2.7833	-2.9146	-2.9958	-2.7521	-3.2083	-2.9	-2.8854	-3.1021	-2.6771	278.554	297.101	383.347	473.854	353.645	318.556	439.844	424.234	462.128	378.799	184.774	445.595	471.478	497.006	234.247	441.719	0.0017968	0.00052433	0.00020131	1293.9	1.2683e-05	7.9004e-06	1295.4	350.99	1.2908e-05	8.7536e-06	401.78	132.54	116.94	38.896	4.4672e-06	48.619	0.00070362	0.00067213	0.00018366	1328.3	7.3606e-06	7.4633e-06	1330.3	360.56	7.4092e-06	7.465e-06	414.46	136.27	119.88	40.521	7.4897e-06	50.71	415.827	240.707	260.455	162.580	285.944	280.137	161.999	167.243	302.230	304.507	166.364	170.537	171.041	176.209	243.831	175.008	-8191	255	
756.111	1	1	0	0	0.20235	0.14818	0.17349	0.17899	0.3156	0.22681	0.097475	0.10356	0.067073	0.31647	0.2431	0.14433	0.11733	0.19983	0.23581	0.12696	-2.5229	-2.9271	-2.6333	-3.1146	-2.7479	-2.7	-3.2708	-2.8354	-2.925	-3.075	-2.7042	-3.0042	-2.85	-2.8792	-3.0167	-2.9021	312.647	325.904	399.155	454.660	166.898	415.646	407.981	430.443	344.248	415.816	421.824	442.855	322.598	433.507	403.360	152.370	0.0018717	0.00073897	0.00014437	1303.5	7.1167e-06	4.4683e-06	1305.7	351.11	1.1009e-05	6.7769e-06	403.42	132.61	117.6	39.103	9.5001e-06	48.651	0.00070652	0.00067242	0.00019112	1334.3	7.4013e-06	7.3875e-06	1337.3	361.65	7.4718e-06	7.4049e-06	415.91	136.4	120.12	40.639	7.4607e-06	50.775	412.055	230.253	231.792	162.469	314.113	279.504	162.107	167.201	267.617	291.691	166.545	170.582	170.748	176.481	289.147	175.271	-8191	255	
756.230	1	1	0	0	0.26547	0.15807	0.19156	0.1699	0.18095	0.13699	0.34943	0.39736	0.2343	0.20537	0.14929	0.18446	0.045307	0.35443	0.11226	0.062557	-2.6	-3.0625	-2.4729	-2.9813	-2.9458	-2.5958	-3.0958	-2.7292	-2.7708	-3.0812	-2.8063	-2.9604	-2.9833	-2.85	-3.0833	-3.0104	425.562	279.806	363.169	164.616	356.268	389.471	458.773	469.258	234.185	268.015	440.159	418.509	428.319	359.906	215.285	352.193	0.0017067	0.00016447	0.00016041	1299	8.6502e-06	3.8337e-06	1302.2	351.58	4.2507e-06	9.1924e-06	404.66	132.69	117.35	39.01	9.2403e-06	48.583	0.00070231	0.00068309	0.00018915	1334.1	7.4291e-06	7.4899e-06	1337.7	361.63	7.454e-06	7.4028e-06	416.41	136.47	120.28	40.59	7.1702e-06	50.737	410.574	259.680	206.976	162.495	293.366	341.209	161.975	167.226	270.165	313.976	166.341	170.488	170.870	176.279	297.988	175.008	-8191	255	
756.326	1	1	0	0	0.15367	0.23703	0.26203	0.33149	0.27818	0.127	0.43334	0.19324	0.14869	0.11488	0.04123	0.24902	0.11584	0.31226	0.19938	0.26289	-2.3563	-2.9417	-2.6646	-2.9583	-3.1208	-2.6792	-3.0021	-3.0042	-2.7604	-2.9792	-2.9521	-2.9688	-2.9167	-2.7708	-3.1104	-2.8937	235.442	221.885	485.722	457.110	468.381	325.663	489.141	500.998	488.783	418.191	395.947	382.951	480.514	467.126	388.852	491.222	0.0017322	0.00019128	0.00018416	1302	8.7449e-06	5.9022e-06	1313	352.79	9.5865e-06	4.9409e-06	403.8	133.37	118.08	39.049	8.5942e-06	48.48	0.00068712	0.00064762	0.00018014	1336.1	6.957e-06	7.058e-06	1339.3	362.12	7.0527e-06	7.1069e-06	416.08	136.92	120.36	40.682	7.1579e-06	50.788	413.693	346.603	268.835	162.433	239.775	276.158	162.062	167.398	269.081	305.646	166.427	170.473	171.197	176.210	283.205	174.982	-8191	255	
756.423	1	1	0	0	0.22698	0.086487	0.17827	0.2381	0.12046	0.19079	0.27524	0.10311	0.058233	0.10675	0.16324	0.14664	0.048726	0.24645	0.0058008	0.035555	-2.3333	-3.0312	-2.7979	-2.9646	-2.9583	-2.7854	-2.775	-3.0687	-2.7583	-3.125	-2.8812	-2.825	-2.825	-2.8812	-2.9437	-2.9208	171.825	451.437	266.702	481.100	502.331	345.318	452.195	181.017	169.405	489.149	450.245	415.665	425.179	475.584	420.702	292.881	0.0018202	0.00051445	0.00023881	1298.4	6.8979e-06	7.696e-06	1305.5	352.32	1.3803e-05	4.2934e-06	401.72	132.69	117.24	39.182	9.3122e-06	48.841	0.00067352	0.00064782	0.00018113	1335.6	7.0191e-06	7.0138e-06	1337.6	361.63	7.075e-06	7.1025e-06	415.37	136.61	120.1	40.645	7.1306e-06	50.865	415.221	254.448	220.480	162.466	270.575	295.497	161.985	167.169	267.958	282.637	166.746	170.498	171.252	176.312	296.257	174.914	-8191	255	
756.519	1	1	0	0	0.075821	0.034127	0.44907	0.28667	0.11314	0.13964	0.058839	0.22086	0.2246	0.12882	0.25763	0.04556	0.13228	0.35009	0.23535	0.13137	-2.3958	-3.0208	-2.95	-3.0354	-3.0687	-2.7458	-3.2	-3.0729	-2.4938	-3.1521	-2.7396	-2.6271	-2.9188	-2.6417	-2.9542	-3.0979	336.260	152.131	410.475	160.822	299.724	384.864	449.258	394.265	343.315	225.350	162.443	345.833	193.600	403.491	204.140	460.556	0.0018808	0.00070567	0.0001856	1301.4	1.0977e-05	9.7469e-06	1309.6	352.46	1.6959e-05	7.3632e-06	402.61	133.06	117.3	39.075	4.4656e-06	48.763	0.00068126	0.00065588	0.00018319	1336.5	7.0798e-06	7.1197e-06	1337.6	361.61	7.1214e-06	7.1453e-06	415.73	136.42	120.03	40.564	7.3089e-06	50.828	416.959	257.338	269.830	162.432	291.458	305.237	161.975	167.330	272.673	270.582	166.259	170.521	171.174	176.265	284.113	175.026	-8191	255	
756.615	1	1	0	0	0.10497	0.15472	0.11324	0.18092	0.14197	0.1029	0.27879	0.17015	0.021667	0.06564	0.16836	0.16872	0.09303	0.13946	0.15636	0.21972	-2.1354	-3.0042	-2.7438	-2.9833	-2.9667	-2.5771	-3.0312	-3.1937	-2.6604	-2.9625	-3.0312	-2.7354	-3.1542	-2.9938	-2.8292	-3.0333	332.118	326.564	452.879	467.839	191.291	332.848	390.987	150.967	419.571	234.828	323.171	437.167	433.780	466.945	284.135	452.108	0.0017244	0.00045163	0.00022439	1298.1	5.6901e-06	3.3207e-06	1305	351.13	1.1176e-05	4.4142e-06	401.76	132.46	117.44	38.97	4.347e-06	48.503	0.00069288	0.0006712	0.00018502	1333.3	7.2123e-06	7.3846e-06	1336.1	361.33	7.3791e-06	7.4289e-06	415.51	136.37	120.19	40.608	7.392e-06	50.669	412.564	231.350	229.232	162.447	289.746	329.652	162.069	167.278	275.567	299.027	166.449	170.747	170.736	176.328	291.111	175.187	-8191	255	
756.711	1	1	0	0	0.28623	0.098428	0.21693	0.15362	0.11025	0.22285	0.051878	0.50346	0.13521	0.13506	0.077381	0.22657	0.0826	0.25534	0.13665	0.15755	-2.2938	-2.8812	-2.7062	-2.7687	-2.9958	-2.825	-3.1521	-3.0521	-2.6729	-2.9104	-3.0563	-2.7354	-3.0896	-2.8354	-2.8104	-3.0125	386.187	358.027	362.238	401.124	399.908	492.224	310.640	460.030	171.542	155.216	431.727	401.338	418.867	241.920	192.493	454.252	0.001723	0.00068031	0.00019775	1301.6	5.2745e-06	6.4105e-06	1306.9	352.04	1.3531e-05	2.8462e-06	402.56	133.04	117.36	39.023	7.756e-06	48.649	0.00068592	0.00067848	0.00018571	1336	7.2247e-06	7.3947e-06	1335.9	361.78	7.2088e-06	7.234e-06	415.5	136.39	119.81	40.564	7.2183e-06	50.683	417.506	235.833	266.644	162.221	246.507	303.877	161.955	167.578	259.460	279.323	166.541	170.831	171.144	176.255	327.713	175.083	-8191	255	
756.807	1	1	0	0	0.18362	0.28968	0.13469	0.10849	0.16302	0.15645	0.20911	0.22011	0.1533	0.063658	0.38289	0.13349	0.098958	0.19812	0.16498	0.053513	-2.425	-2.9792	-2.9062	-2.8604	-3.1917	-2.6979	-2.9938	-3.1875	-2.7542	-2.9479	-3.075	-2.8917	-3.2062	-2.8583	-2.7208	-3.1875	418.599	174.430	304.473	476.632	255.407	215.432	500.725	440.685	432.335	334.261	495.260	341.079	421.895	443.458	399.179	457.531	0.0018977	0.00070252	0.0001416	1298	4.6423e-06	8.3207e-06	1308.7	352.23	1.2516e-05	4.4682e-06	404.95	132.76	117.42	39.027	1.0415e-05	48.585	0.00070121	0.00066494	0.00018733	1334.3	7.3238e-06	7.3273e-06	1337	361.86	7.421e-06	7.5244e-06	415.51	136.35	120.07	40.544	7.5069e-06	50.746	414.013	253.112	267.527	162.514	278.971	289.832	162.107	167.055	289.392	321.550	166.384	170.714	171.230	176.296	291.636	175.080	-8191	255	
756.903	1	1	0	0	0.19822	0.12969	0.16023	0.31447	0.015313	0.33005	0.067539	0.18037	0.13564	0.17701	0.10997	0.22192	0.11758	0.25017	0.15935	0.1847	-2.3729	-2.7896	-2.9646	-2.6958	-3.0021	-2.8063	-2.7188	-3.0917	-2.8604	-2.7771	-2.9729	-2.8229	-2.8854	-2.9875	-2.5438	-3.0708	316.671	285.127	284.035	448.190	376.332	189.408	469.712	310.400	257.131	458.350	362.762	308.692	404.934	348.699	168.571	446.201	0.0018385	0.00052222	6.4862e-05	1304.9	5.902e-06	5.7206e-06	1302.1	351.9	1.6801e-05	7.4794e-06	402.46	132.52	117.6	38.919	5.0058e-06	48.464	0.0007264	0.00070809	0.00019438	1336.9	7.6564e-06	7.7345e-06	1334.9	361.7	7.7366e-06	7.741e-06	415.04	136.4	120.3	40.459	7.6936e-06	50.635	413.661	280.644	186.576	162.414	290.719	331.003	162.040	167.258	298.568	315.536	166.465	170.796	171.183	176.242	306.922	174.842	-8191	255	
757.022	1	1	0	0	0.20764	0.21027	0.10338	0.11815	0.1815	0.19485	0.24695	0.21108	0.068289	0.13105	0.25241	0.19038	0.19995	0.3268	0.28951	0.33403	-2.3312	-2.7646	-2.9875	-2.8438	-2.8896	-2.9437	-2.7667	-2.9062	-2.9104	-2.5375	-3.1813	-2.8292	-3.0708	-2.7583	-2.6125	-3.0479	234.506	385.949	338.700	504.363	268.095	472.639	397.990	476.115	407.945	252.363	500.232	455.715	407.776	448.389	342.658	420.368	0.0018798	0.000573	0.00014382	1300	6.654e-06	2.2853e-06	1302.7	350.87	1.4005e-05	5.4105e-06	404.1	131.99	116.48	38.983	6.414e-06	48.519	0.00073276	0.00070272	0.00019303	1334	7.5994e-06	7.6827e-06	1335.2	360.92	7.484e-06	7.7007e-06	415.21	135.98	119.65	40.443	7.6128e-06	50.622	413.182	248.240	209.536	162.409	276.102	271.088	162.075	167.214	270.211	287.949	166.371	170.887	171.220	176.500	293.184	174.762	-8191	255	
757.118	1	1	0	0	0.16874	0.074985	0.27591	0.083126	0.078853	0.28219	0.35799	0.25698	0.16591	0.13014	0.34571	0.097588	0.19765	0.21913	0.22572	0.12044	-2.4437	-2.8729	-2.9083	-2.9458	-2.7	-2.9833	-2.8208	-3.2229	-2.8729	-2.7771	-3.0812	-2.7792	-2.8688	-3.1	-2.6833	-3.1333	500.020	208.270	263.627	198.080	401.670	411.453	442.559	400.958	394.827	505.271	460.674	228.950	291.705	450.690	205.903	382.066	0.0017685	0.00046184	0.00016079	1298.1	8.315e-06	5.9751e-06	1299.3	349.96	1.1367e-05	5.8331e-06	401.23	132.47	116.81	38.855	5.3237e-06	48.516	0.00071454	0.00069378	0.00019238	1332.3	7.5817e-06	7.5639e-06	1332.9	360.35	7.5611e-06	7.5173e-06	414.82	136.32	119.82	40.412	7.6674e-06	50.652	411.837	241.997	263.179	162.345	281.754	284.525	162.000	167.303	285.106	287.086	166.426	170.704	170.972	176.167	258.138	175.221	-8191	255	
757.215	1	1	0	0	0.19993	0.12066	0.11201	0.24548	0.21792	0.16302	0.23625	0.13384	0.23015	0.20556	0.18186	0.24757	0.18844	0.35599	0.36294	0.13289	-2.3708	-2.6375	-3.0125	-2.9708	-2.8	-3.0625	-2.8958	-3.0771	-2.9604	-2.8896	-3.1437	-2.8688	-2.8229	-3.0854	-2.7771	-2.9771	203.558	475.402	345.087	477.880	331.264	488.012	448.014	463.947	228.477	355.904	251.239	365.641	199.380	167.466	394.161	484.007	0.0018197	0.00056066	0.00015283	1298.2	4.6376e-06	6.5719e-06	1304.1	351.91	1.5682e-05	3.9912e-06	402.23	132.48	117.01	38.952	9.1514e-06	48.29	0.00069983	0.00069085	0.00019479	1332.5	7.5184e-06	7.5914e-06	1335.6	361.39	7.5685e-06	7.6247e-06	415.17	136.23	119.87	40.429	7.5447e-06	50.55	414.339	245.786	222.219	162.461	318.971	288.501	161.972	167.218	275.960	322.397	166.210	170.613	170.941	176.293	283.214	175.031	-8191	255	
757.311	1	1	0	0	0.17457	0.2334	0.089053	0.23818	0.263	0.049628	0.1282	0.37162	0.13508	0.071459	0.30766	0.2617	0.026432	0.094471	0.076873	0.31761	-2.5875	-2.7562	-3.1188	-3.125	-2.8042	-3.1333	-2.8708	-3.0479	-2.9437	-2.8125	-3.1021	-3.0521	-2.8229	-3.0854	-2.8521	-2.9375	351.259	374.848	443.940	204.163	314.230	397.102	476.676	440.140	250.186	306.100	400.711	457.234	433.463	229.994	265.580	452.539	0.0018097	0.00042496	0.0001766	1304	1.0562e-05	5.6142e-06	1304.6	351.41	1.1364e-05	6.4031e-06	404.04	132.15	117.3	38.973	2.6076e-06	48.34	0.0006999	0.00067501	0.00019011	1333.8	7.4002e-06	7.3785e-06	1334.1	360.87	7.3941e-06	7.5227e-06	415.26	136.08	119.8	40.48	7.4017e-06	50.539	411.668	242.118	252.054	162.430	300.737	276.614	162.117	167.280	303.636	317.862	166.312	170.385	170.949	176.226	312.658	175.259	-8191	255	
757.407	1	1	0	0	0.21645	0.044787	0.26796	0.11222	0.013614	0.44783	0.22067	0.23339	0.14747	0.19012	0.16003	0.074749	0.098974	0.18149	0.1977	0.25862	-2.2958	-2.65	-3.1688	-2.8479	-2.625	-3.0354	-2.8833	-3.0729	-2.825	-2.5104	-3.1542	-2.8583	-2.7104	-3.0771	-2.8167	-3.0521	200.920	443.571	419.508	447.896	215.851	490.977	480.611	473.871	434.031	201.942	460.427	477.147	433.727	160.872	151.388	507.959	0.001711	0.00065095	0.00016777	1297.6	4.5129e-06	3.1068e-06	1299.6	351.72	1.1571e-05	5.6762e-06	402.31	131.7	117.23	38.932	3.3485e-06	48.558	0.00069265	0.00066969	0.00018707	1330.1	7.338e-06	7.411e-06	1331.7	360.57	7.257e-06	7.3609e-06	414.89	135.99	119.87	40.383	7.3522e-06	50.586	411.241	226.656	234.888	162.355	296.426	285.966	162.122	167.195	298.545	296.917	166.809	170.757	170.937	176.129	280.286	175.083	-8191	255	
757.527	1	1	0	0	0.053543	0.25684	0.047631	0.23734	0.11289	0.089764	0.18832	0.29324	0.29702	0.27189	0.2785	0.018886	0.10572	0.28626	0.1285	0.20226	-2.7396	-2.6771	-2.9042	-3.1146	-2.6937	-2.9437	-2.9771	-2.85	-3.15	-2.55	-3.1375	-2.9875	-2.6917	-3.0083	-2.8396	-2.7521	279.167	499.887	149.188	475.985	423.666	155.992	431.062	207.315	310.863	501.983	454.335	297.699	417.952	405.848	286.761	376.423	0.0017842	0.00044774	0.00021291	1295.3	7.3133e-06	8.8809e-06	1298	350.88	1.2416e-05	5.4968e-06	399.54	132.06	117.31	38.803	1.2454e-05	48.719	0.00069873	0.00068023	0.00018695	1330.1	7.3328e-06	7.428e-06	1332.8	360.43	7.275e-06	7.4454e-06	413.97	136.06	119.87	40.394	7.473e-06	50.574	415.976	234.951	224.639	162.314	266.679	268.930	162.030	167.162	276.977	340.510	166.589	170.758	170.801	176.192	302.250	174.989	-8191	255	
757.624	1	1	0	0	0.23023	0.32409	0.089083	0.10218	0.1604	0.31416	0.17008	0.21912	0.20454	0.091616	0.17149	0.22557	0.05687	0.36372	0.11553	0.19203	-2.6542	-2.6896	-3.0771	-2.9938	-2.4958	-2.9688	-3.0958	-2.7146	-3.025	-2.7167	-2.9792	-3.1917	-2.7208	-3.0375	-2.9062	-2.8479	276.677	417.070	296.928	162.289	217.183	331.841	402.908	378.389	196.649	400.238	199.606	401.396	301.539	430.559	175.137	491.524	0.0017238	0.00050404	0.00021924	1293.2	5.2654e-06	7.5712e-06	1303.6	351.97	9.0639e-06	3.9353e-06	402.26	132.36	116.99	38.912	3.59e-06	48.645	0.00071287	0.00068976	0.000194	1331.6	7.4396e-06	7.7332e-06	1334.5	360.54	7.5302e-06	7.6443e-06	415.22	136.21	119.91	40.543	7.6779e-06	50.785	410.277	200.892	269.755	162.470	266.358	340.398	162.077	167.403	302.280	294.203	166.380	170.755	170.869	176.273	302.111	174.911	-8191	255	
757.718	1	1	0	0	0.16721	0.32249	0.28209	0.26648	0.15115	0.13309	0.3706	0.065007	0.15091	0.11214	0.069583	0.091469	0.20039	0.34476	0.10659	0.2665	-2.7562	-2.5771	-2.9271	-3.0667	-2.5646	-3.1875	-3.1104	-2.9417	-3.0625	-2.8104	-2.8646	-3.1188	-2.6104	-3.0354	-2.8875	-2.6375	335.929	431.142	417.474	466.213	225.587	493.767	485.176	207.352	462.107	326.262	151.149	189.888	485.055	156.704	149.618	153.733	0.0018837	0.0006474	0.00018334	1304.8	9.9273e-06	9.2108e-06	1307.3	352.26	1.1933e-05	3.1222e-06	402.74	133.09	117.48	38.884	5.5224e-06	48.416	0.00071567	0.00069545	0.00019306	1336.6	7.5486e-06	7.5978e-06	1338.3	361.59	7.5176e-06	7.4723e-06	415.72	136.57	119.88	40.516	7.4047e-06	50.652	412.688	238.947	255.307	162.408	274.012	291.903	161.945	167.300	270.383	281.794	166.559	170.967	170.918	175.999	298.391	175.270	-8191	255	
757.814	1	1	0	0	0.16808	0.035285	0.20983	0.10666	0.14619	0.12972	0.18042	0.16066	0.055231	0.19222	0.14707	0.28853	0.20517	0.013409	0.045098	0.17075	-2.5896	-2.8187	-2.7375	-3.2188	-2.5812	-2.9271	-3.1875	-2.6625	-3.0646	-2.7229	-2.95	-3.2229	-2.7021	-3.0333	-2.9958	-2.5563	312.843	295.909	203.121	249.837	250.891	290.068	453.368	427.471	273.776	344.172	414.754	495.620	205.343	433.896	482.380	426.160	0.0017074	9.983e-05	0.00012493	1300.2	7.0814e-06	5.2425e-06	1301.6	352.25	1.2886e-05	5.6753e-06	401.72	132.12	117.35	39.032	9.065e-06	48.486	0.00069952	0.00067008	0.00018491	1333.1	7.2078e-06	7.2725e-06	1333.8	360.57	7.2387e-06	7.2277e-06	414.2	136.1	119.83	40.528	7.3231e-06	50.584	416.971	214.812	295.789	162.346	240.649	283.019	162.077	167.311	296.448	325.648	166.435	170.741	171.049	176.167	283.999	175.150	-8191	255	
757.910	1	1	0	0	0.038472	0.259	0.3265	0.15734	0.25629	0.21754	0.12226	0.084453	0.20283	0.090292	0.19214	0.1361	0.16361	0.26071	0.18764	0.16671	-2.5583	-2.7604	-2.6167	-3.0938	-2.6854	-3.0292	-3.0208	-2.7646	-3.0771	-2.8375	-3.0354	-3.1063	-2.7917	-2.9188	-3.0771	-2.7333	221.718	270.302	385.314	490.737	361.472	428.845	490.567	410.820	332.702	294.171	501.050	276.822	167.982	495.061	216.644	163.680	0.0017365	0.00041903	0.00016443	1303.4	6.5177e-06	7.4806e-06	1303.9	352.18	1.0886e-05	6.8126e-06	402.1	132.71	117.12	38.772	9.8736e-06	48.488	0.00070182	0.00067712	0.00018799	1333.3	7.3068e-06	7.4954e-06	1334.3	361.45	7.4366e-06	7.4833e-06	414.97	136.25	119.92	40.443	7.3537e-06	50.668	415.367	249.462	228.545	162.376	284.417	298.001	161.952	167.293	285.309	285.877	166.492	170.683	171.154	176.071	314.989	174.913	-8191	255	
758.006	1	1	0	0	0.12213	0.18826	0.24582	0.14425	0.18524	0.13648	0.27341	0.16655	0.067709	0.068567	0.045578	0.28291	0.2824	0.10429	0.17578	0.29035	-2.5396	-2.825	-2.6042	-3.0729	-2.6729	-2.7021	-3.2771	-2.7708	-2.85	-2.9229	-2.5604	-2.9437	-2.7229	-2.8875	-2.9792	-2.8771	377.234	329.695	187.175	447.522	209.999	347.999	408.699	422.481	415.177	384.326	413.158	202.025	461.322	411.467	257.530	442.775	0.0019499	0.00056631	0.00020798	1299.4	5.0752e-06	6.4276e-06	1304.6	352.22	1.323e-05	3.4845e-06	402.05	132.29	118.31	38.92	6.6362e-06	48.406	0.00070279	0.00068523	0.00019043	1334	7.2748e-06	7.3673e-06	1335.8	360.88	7.4473e-06	7.4944e-06	414.75	136.28	120.09	40.513	7.3945e-06	50.672	414.460	239.907	251.611	162.335	292.925	303.359	162.141	167.192	281.443	309.666	166.538	170.866	171.105	176.488	283.813	174.917	-8191	255	
758.103	1	1	0	0	0.11935	0.18063	0.11122	0.079295	0.20077	0.12381	0.095974	0.34696	0.25388	0.1576	0.30229	0.04517	0.36779	0.26066	0.065915	0.070931	-2.5333	-2.8312	-2.575	-2.9958	-2.7667	-2.8021	-3.2354	-2.7812	-2.8125	-2.8146	-2.8479	-3.1021	-2.7958	-2.6917	-3.0708	-2.775	232.748	481.097	192.650	406.335	396.755	204.465	168.371	444.253	467.702	312.818	438.176	483.696	169.680	444.424	405.070	208.854	0.0017318	0.0005714	0.00020873	1298.6	4.7127e-06	9.914e-06	1308.4	352.36	1.1678e-05	4.6447e-06	402.47	132.86	117.34	39.005	9.3321e-06	48.718	0.00070964	0.00067891	0.00018776	1333.9	7.4573e-06	7.5065e-06	1337.2	361.13	7.3944e-06	7.4048e-06	415.25	136.4	120.16	40.525	7.4289e-06	50.705	415.301	238.873	224.782	162.676	235.329	279.346	162.007	167.393	308.850	290.328	166.511	170.826	170.958	176.396	268.096	175.075	-8191	255	
758.199	1	1	0	0	0.24481	0.11413	0.2104	0.095834	0.18363	0.23488	0.1602	0.29437	0.21373	0.29264	0.24467	0.040897	0.24848	0.23616	0.12785	0.10541	-2.3604	-2.8875	-2.4667	-3.1083	-2.7812	-2.5667	-3.2396	-2.8812	-2.9146	-3.0396	-3.0396	-2.9646	-2.8625	-2.6937	-3.0854	-2.8021	314.299	311.277	247.558	496.462	452.626	213.148	462.596	387.274	419.712	235.296	179.280	437.217	308.350	468.205	237.858	344.111	0.0016696	0.00054142	0.0001555	1295.4	9.457e-06	2.7977e-06	1304.1	351.35	9.5007e-06	1.3984e-06	404.41	132.9	117.92	38.906	6.6974e-06	48.465	0.00069367	0.00067608	0.00018986	1333	7.3684e-06	7.5325e-06	1334.9	361.14	7.3129e-06	7.4933e-06	415.4	136.3	120.26	40.463	7.465e-06	50.68	411.145	266.117	245.466	162.403	297.430	251.474	161.944	167.288	291.281	320.586	166.383	170.456	171.133	176.402	279.634	175.135	-8191	255	
758.319	1	1	0	0	0.21007	0.27855	0.13705	0.22859	0.033265	0.27819	0.32442	0.1508	0.19143	0.13335	0.1378	0.26281	0.17308	0.40834	0.22902	0.17411	-2.4625	-2.9313	-2.6125	-3.1521	-2.8854	-2.7708	-3.1875	-2.7896	-2.7125	-2.9625	-2.875	-2.8896	-2.9021	-2.6667	-2.7812	-2.8979	310.813	317.132	404.213	185.716	227.304	454.741	463.676	415.548	278.000	248.219	413.887	508.611	426.189	447.060	209.765	492.771	0.0016977	0.00064629	0.00021164	1296.1	5.798e-06	9.7599e-06	1303.9	351.09	1.8523e-05	1.4196e-06	400.7	132.74	116.76	38.95	7.3174e-06	48.478	0.00070703	0.00067177	0.00018944	1331.1	7.3853e-06	7.3562e-06	1335.1	360.91	7.3534e-06	7.474e-06	414.46	136.43	119.66	40.502	7.4875e-06	50.634	416.704	256.408	224.155	162.406	311.532	278.962	162.041	167.140	262.505	339.049	166.430	170.727	171.130	176.355	277.320	175.098	-8191	255	
758.416	1	1	0	0	0.17182	0.15056	0.19106	0.21831	0.18444	0.060079	0.20276	0.24144	0.099424	0.20729	0.27617	0.039619	0.16394	0.2087	0.21634	0.25054	-2.1104	-2.9458	-2.7104	-3.075	-2.9771	-2.5354	-3.1917	-2.8604	-2.6063	-2.8979	-2.8125	-2.9938	-3.2146	-2.7708	-3.0167	-2.8167	160.930	380.744	387.016	400.612	430.814	171.751	437.105	428.341	180.424	304.234	307.839	277.974	440.198	458.884	280.616	441.919	0.0018519	0.00081363	0.00017564	1298.6	7.9962e-06	6.7701e-06	1301.3	351.8	1.0525e-05	3.3073e-06	403.48	132.23	117.24	38.888	6.2658e-06	48.682	0.00070554	0.00066886	0.00019115	1332.5	7.3657e-06	7.3679e-06	1334	360.99	7.405e-06	7.3637e-06	415.13	136.15	119.87	40.432	7.4831e-06	50.614	413.252	271.046	229.574	162.461	284.107	283.236	162.176	167.236	282.112	336.234	166.499	170.593	171.042	176.149	247.587	174.970	-8191	255	
758.512	1	1	0	0	0.19945	0.30573	0.13551	0.097388	0.067024	0.10901	0.26647	0.070611	0.13012	0.1598	0.47432	0.017921	0.14548	0.28482	0.17525	0.26852	-2.1542	-3.0208	-2.7292	-2.9979	-2.9333	-2.5521	-2.9875	-3.0062	-2.6021	-2.8729	-2.6896	-2.7646	-2.9771	-2.8833	-2.8354	-3.0458	300.274	235.749	467.407	164.652	342.248	207.685	429.628	396.041	373.294	427.531	408.428	362.061	150.920	438.910	251.381	391.547	0.0018452	0.00063542	0.00019945	1301.1	7.3373e-06	2.928e-06	1297.3	351.43	1.6477e-05	4.2938e-06	402.31	132.6	117.45	38.816	1.7583e-06	48.439	0.00070208	0.00067598	0.00019051	1332.9	7.4225e-06	7.5092e-06	1331.7	360.91	7.488e-06	7.5843e-06	414.4	136.26	119.93	40.362	7.6696e-06	50.637	413.761	245.166	244.703	162.411	284.243	295.539	162.104	167.256	267.295	303.812	166.638	170.739	170.713	176.340	263.903	174.925	-8191	255	
758.608	1	1	0	0	0.30145	0.12543	0.14146	0.27542	0.35278	0.33423	0.32088	0.17752	0.20341	0.13163	0.17062	0.31306	0.11161	0.26465	0.11853	0.13774	-2.2396	-2.9667	-2.8333	-2.8583	-3.0125	-2.8479	-3.0375	-2.9417	-2.6979	-3.0646	-2.7313	-2.85	-2.9833	-2.6646	-2.7167	-2.8646	336.060	237.916	299.472	480.329	219.285	217.393	350.688	158.974	311.461	477.891	155.478	252.094	176.680	401.144	453.590	468.772	0.0017165	0.00042412	0.00014786	1296.4	1.1556e-05	3.4772e-06	1301.5	350.77	1.2302e-05	3.3919e-06	401.27	132.46	117.66	38.811	7.497e-06	48.614	0.00070648	0.00069037	0.00019703	1329.9	7.4918e-06	7.6095e-06	1332.7	360.51	7.5666e-06	7.6868e-06	414.43	136.03	119.96	40.408	7.7201e-06	50.581	417.676	202.169	282.650	162.700	285.992	270.259	162.212	167.404	268.073	256.321	166.481	170.616	170.937	176.506	297.232	175.335	-8191	255	
758.704	1	1	0	0	0.21872	0.024109	0.1266	0.22178	0.22345	0.10588	0.18134	0.31322	0.14852	0.11894	0.13234	0.11439	0.27378	0.20856	0.11196	0.18988	-2.2417	-2.8312	-2.85	-2.8417	-3.0917	-2.6917	-2.9188	-3.0979	-2.5542	-2.9583	-2.8792	-2.7833	-2.9542	-2.7417	-2.775	-3.1708	267.890	194.843	244.600	485.285	203.366	478.122	430.811	451.995	165.403	257.790	459.800	433.773	413.664	457.886	349.871	409.982	0.001647	0.00058201	0.0001463	1301.2	1.1546e-05	6.1174e-06	1307.8	351.37	1.3737e-05	5.9249e-06	402.03	132.14	117.81	38.833	6.3226e-06	48.415	0.00070424	0.00070177	0.00019316	1335.5	7.6379e-06	7.6889e-06	1336.6	361.21	7.6577e-06	7.7702e-06	414.56	136.16	120.15	40.492	7.7829e-06	50.534	410.177	222.721	212.864	162.417	269.444	258.084	162.070	167.240	272.853	277.746	166.477	170.704	171.064	176.124	257.807	174.975	-8191	255	
758.798	1	1	0	0	0.34119	0.099217	0.34459	0.30005	0.18827	0.29845	0.10414	0.021332	0.38224	0.086196	0.20199	0.22198	0.20765	0.48443	0.059951	0.28293	-2.2417	-2.8708	-2.8229	-2.6646	-2.9167	-2.9292	-3.0042	-3.1125	-2.6625	-2.9354	-3.0021	-2.6604	-2.9354	-2.7917	-2.8583	-3.1063	488.215	463.118	299.600	429.789	150.126	164.004	497.258	195.427	344.668	272.190	196.009	400.967	481.014	482.242	433.708	473.820	0.0017288	0.00040135	3.1761e-05	1299.9	6.3333e-06	1.1455e-05	1302.2	351.44	1.363e-05	3.4725e-06	401.86	133.24	116.91	38.874	1.1815e-05	48.24	0.00072281	0.00070972	0.0001961	1336.1	7.6579e-06	7.6586e-06	1335.8	361.21	7.5666e-06	7.5172e-06	414.83	136.43	119.89	40.424	7.4143e-06	50.577	414.018	204.177	201.110	162.606	306.088	285.571	161.969	167.327	274.330	284.941	166.619	170.769	171.177	176.094	290.038	175.051	-8191	255	
758.895	1	1	0	0	0.14762	0.11435	0.22955	0.23595	0.28691	0.10951	0.12476	0.4482	0.01101	0.16291	0.14986	0.22861	0.16088	0.22117	0.10169	0.13725	-2.3833	-2.7938	-2.8271	-2.9	-2.7854	-2.7917	-2.8	-3.1583	-2.7625	-2.9229	-3.0875	-2.7271	-3.1583	-2.9229	-2.6354	-3.1312	394.296	238.547	309.732	402.276	210.561	485.135	336.135	487.624	240.786	154.451	476.545	465.772	443.256	435.577	501.865	478.138	0.0017423	0.00039941	0.00015381	1303.5	9.3185e-06	6.9252e-06	1305.7	351.48	1.0299e-05	2.326e-06	401.77	132.15	117.5	38.786	6.5995e-06	48.502	0.00070094	0.00067868	0.00018688	1335.9	7.3979e-06	7.3446e-06	1337	361.07	7.2331e-06	7.3623e-06	415.38	136.29	120.01	40.408	7.4069e-06	50.637	414.407	267.972	278.942	162.547	254.128	298.346	161.966	167.350	270.798	281.404	166.443	170.625	170.858	176.170	279.662	175.116	-8191	255	
759.015	1	1	0	0	0.33987	0.17117	0.041832	0.30576	0.084184	0.11176	0.13257	0.28253	0.17418	0.15976	0.081307	0.20002	0.037248	0.22294	0.13697	0.1196	-2.4	-2.9667	-3.0458	-2.8125	-2.8354	-2.9104	-2.8104	-3.0292	-2.8812	-2.8125	-3.1333	-2.7521	-3.1146	-2.8521	-2.5854	-3.0438	479.951	476.767	380.280	465.493	346.193	292.510	471.679	468.174	155.302	304.982	158.377	432.700	450.609	158.822	153.350	340.234	0.0016489	0.00066705	0.00017139	1299.7	8.088e-06	4.5943e-06	1304.3	351.8	1.253e-05	5.7171e-06	401.83	132.75	117.6	38.788	4.5313e-06	48.441	0.00070281	0.00068093	0.00018626	1333.2	7.3947e-06	7.451e-06	1335.4	361.02	7.3835e-06	7.464e-06	415.1	136.48	119.89	40.426	7.4229e-06	50.573	408.259	250.051	260.201	162.360	276.744	328.072	161.941	167.330	270.262	290.851	166.433	170.649	171.166	176.232	328.579	175.223	-8191	255	
759.111	1	1	0	0	0.037033	0.34329	0.14606	0.073242	0.14806	0.23573	0.33609	0.070297	0.19713	0.32223	0.14364	0.18698	0.19707	0.26442	0.091634	0.14398	-2.4667	-2.7208	-3	-2.8688	-2.9208	-2.9167	-2.7438	-3.0583	-2.775	-2.9292	-3.1583	-2.6417	-2.8937	-2.9167	-2.6	-3.0375	205.648	413.373	456.895	173.445	479.057	187.270	460.977	375.234	278.445	380.501	386.099	164.592	230.795	418.884	249.749	307.060	0.0018133	0.00066709	0.00012882	1300.6	3.3413e-06	7.304e-06	1305.1	350.69	1.2632e-05	3.0431e-06	402.49	132.12	117.11	38.98	8.5736e-06	48.61	0.00071111	0.00068967	0.00019219	1334.7	7.4333e-06	7.4507e-06	1337.5	360.73	7.5009e-06	7.575e-06	415.24	136.12	119.95	40.471	7.4497e-06	50.692	414.052	251.314	209.183	162.365	330.000	285.753	161.899	167.161	301.735	301.250	166.339	170.900	170.861	176.280	276.222	175.030	-8191	255	
759.207	1	1	0	0	0.045506	0.10253	0.12035	0.14806	0.16606	0.16343	0.33251	0.13602	0.028724	0.24663	0.31613	0.19111	0.095764	0.31101	0.18519	0.098482	-2.4708	-2.7208	-2.9958	-2.8458	-2.8667	-3.0333	-2.9417	-3.1229	-2.8896	-2.7104	-3.1604	-2.8792	-2.8792	-3.0896	-2.8063	-3.1229	403.063	472.047	243.598	443.472	214.554	452.814	427.950	372.153	491.351	383.865	449.596	178.127	365.009	457.204	501.013	159.135	0.0019551	0.00061495	0.00026561	1301.2	7.1607e-06	2.0555e-06	1307	351.71	1.4006e-05	4.2508e-06	402.52	132.73	117.2	38.884	5.5608e-06	48.654	0.00071386	0.00068648	0.00019416	1335.8	7.511e-06	7.6543e-06	1337.3	361.2	7.475e-06	7.5465e-06	414.8	136.47	119.89	40.427	7.4902e-06	50.67	409.706	266.638	234.747	162.427	303.524	358.441	162.299	167.413	275.324	271.182	166.364	170.673	170.801	176.349	340.313	175.139	-8191	255	
759.304	1	1	0	0	0.23495	0.082247	0.051785	0.3397	0.077896	0.28346	0.14519	0.15444	0.21664	0.15202	0.070212	0.2255	0.21493	0.054694	0.12352	0.2581	-2.5646	-2.7021	-2.9167	-2.8354	-2.8604	-3.0792	-2.8854	-3.0479	-2.9167	-2.8042	-3.1042	-2.6979	-2.8042	-3.1104	-2.7375	-3.0479	176.741	313.449	456.212	495.383	404.780	398.215	171.327	434.420	226.056	432.067	504.975	474.968	433.262	493.023	226.023	374.425	0.0019051	0.00078012	0.00016127	1297.7	8.9857e-06	6.6877e-06	1308.3	352.9	1.1143e-05	4.7155e-06	402.49	132.54	117.44	38.974	4.8626e-06	48.643	0.00071622	0.00068211	0.00019011	1334.3	7.5746e-06	7.5878e-06	1338.5	361.7	7.5413e-06	7.5666e-06	415.08	136.47	120.18	40.531	7.6724e-06	50.677	415.164	235.572	268.606	162.469	283.273	289.385	162.016	167.310	281.998	275.099	166.558	170.715	171.100	176.326	278.834	175.131	-8191	255	
759.400	1	1	0	0	0.042073	0.15809	0.23719	0.29144	0.17755	0.11666	0.24545	0.34265	0.12545	0.016871	0.096334	0.11696	0.063802	0.25532	0.075097	0.26185	-2.425	-2.5854	-2.9083	-2.9042	-2.5917	-3.0792	-2.8063	-3.1729	-2.875	-2.5167	-3.0583	-3.0896	-2.7708	-3.1104	-2.875	-2.9729	476.126	460.664	493.296	487.901	272.482	496.174	405.416	476.652	494.220	185.610	409.358	447.822	431.209	436.834	409.553	421.863	0.0017744	0.00060462	7.4821e-05	1301.9	5.3495e-06	6.2343e-06	1306.2	352.31	1.1767e-05	5.3631e-06	403.77	132.62	117.6	38.795	4.0063e-06	48.5	0.00071295	0.00069259	0.00019772	1337.4	7.5866e-06	7.6081e-06	1339.6	361.64	7.5712e-06	7.7404e-06	415.9	136.39	120.23	40.454	7.8141e-06	50.65	408.613	244.991	203.566	162.544	274.332	265.882	162.096	167.238	277.462	316.611	166.517	170.581	170.968	176.208	274.142	175.270	-8191	255	
759.496	1	1	0	0	0.19071	0.27196	0.14243	0.27003	0.22009	0.14273	0.13776	0.22647	0.13998	0.049274	0.16786	0.21611	0.12792	0.23524	0.1173	0.03336	-2.525	-2.6	-2.8479	-3.1875	-2.7521	-3.0271	-2.9583	-2.9729	-3.1188	-2.8375	-3.0271	-3.1625	-2.6917	-3.1375	-2.7146	-3.0771	308.157	268.658	245.598	472.881	396.877	498.258	213.581	395.138	222.207	212.242	446.419	184.825	421.108	149.747	497.174	278.921	0.0018357	0.0003611	0.00013187	1300.1	9.1192e-06	4.6979e-06	1306.3	351.38	1.2499e-05	3.1679e-07	403.09	132.99	118.08	38.961	6.796e-06	48.801	0.00073812	0.00070935	0.00020107	1337.9	7.6994e-06	7.8014e-06	1338.3	361.46	7.8543e-06	7.8127e-06	415.54	136.6	120.39	40.545	7.8135e-06	50.732	410.429	228.896	237.100	162.263	297.396	338.689	162.104	167.251	262.447	293.290	166.403	170.842	170.917	176.314	312.848	175.029	-8191	255	
759.592	1	1	0	0	0.10992	0.15766	0.053064	0.34376	0.12953	0.08838	0.10918	0.38443	0.29387	0.096585	0.16226	0.18408	0.088499	0.10389	0.071685	0.23467	-2.4583	-2.4729	-2.8208	-2.9562	-2.6562	-3.1375	-3.0938	-3.0021	-3.0312	-2.6521	-3.0062	-3.0083	-2.6354	-3.0417	-2.8312	-2.8792	183.644	207.541	243.602	497.620	228.607	466.255	487.824	162.944	487.463	357.086	445.627	474.420	290.532	506.502	468.859	425.061	0.0017318	0.00020844	0.00017062	1302.9	5.2008e-06	4.4919e-06	1309.2	351.99	1.3063e-05	4.1874e-06	402.64	132.96	117.83	38.998	7.9632e-06	48.526	0.0007239	0.00070188	0.00019752	1338	7.757e-06	7.6972e-06	1339.5	361.7	7.6617e-06	7.778e-06	415.49	136.44	120.11	40.542	7.6341e-06	50.688	411.536	192.683	222.875	162.286	278.746	254.696	161.958	167.324	292.757	297.677	166.339	170.646	171.204	176.237	281.590	175.031	-8191	255	
759.711	1	1	0	0	0.22933	0.25705	0.14693	0.36751	0.045761	0.14823	0.43449	0.32866	0.1187	0.07471	0.1068	0.15452	0.19793	0.30918	0.1749	0.15453	-2.5417	-2.7771	-2.6042	-3.15	-2.7042	-2.975	-3.0979	-2.8708	-3.175	-2.9271	-3.0708	-3.0417	-2.7396	-2.9875	-2.9042	-2.8688	366.013	445.028	457.711	482.083	381.491	331.642	444.760	453.384	243.402	308.051	446.848	149.765	301.514	499.450	165.894	306.565	0.0017807	0.00033336	0.00015857	1300.7	1.0704e-05	4.0273e-06	1308.9	352.06	1.4653e-05	5.1885e-06	404.49	133.01	117.79	38.938	8.4537e-06	48.6	0.00072509	0.00070567	0.0001979	1337.4	7.6969e-06	7.7896e-06	1340	361.91	7.7139e-06	7.7759e-06	416.05	136.47	120.29	40.533	7.6759e-06	50.707	413.882	249.932	272.596	162.310	304.220	296.622	162.036	167.229	260.286	290.749	166.397	170.602	170.924	176.191	260.629	174.934	-8191	255	
759.783	1	1	0	0	0.1804	0.43672	0.16319	0.1362	0.068703	0.34012	0.29976	0.44304	0.042186	0.013876	0.16143	0.04053	0.15708	0.060935	0.1978	0.13379	-2.6063	-2.6479	-2.7313	-3.1208	-2.6312	-2.8771	-3.025	-2.8104	-3.0625	-2.8187	-2.7396	-2.9562	-2.7667	-2.9292	-2.7792	-2.6646	213.070	448.315	493.226	188.938	225.171	388.528	160.283	401.526	155.565	230.321	452.633	392.873	403.366	326.656	168.850	191.410	0.0017455	0.00022752	0.00019221	1305.6	7.4399e-06	2.5566e-06	1310.1	351.71	1.3792e-05	5.6061e-06	404.06	132.69	118.39	38.964	9.8569e-06	48.49	0.00072715	0.00071368	0.00019678	1340.1	7.8127e-06	7.8643e-06	1340.6	361.59	7.7219e-06	7.8761e-06	416.32	136.59	120.45	40.576	7.8158e-06	50.69	413.258	308.760	240.044	162.562	271.581	330.677	161.924	167.269	271.303	295.779	166.472	170.951	170.777	175.963	291.331	174.878	-8191	255	
759.879	1	1	0	0	0.056627	0.17383	0.069427	0.14231	0.12951	0.15109	0.15539	0.14452	0.3091	0.014163	0.080702	0.21265	0.019439	0.28924	0.058173	0.09779	-2.6083	-2.7896	-2.7417	-3.0646	-2.6167	-2.9167	-2.9688	-2.8438	-2.9771	-2.9	-2.8167	-3.0167	-2.7875	-2.825	-2.9708	-2.8458	376.633	357.118	178.741	483.420	347.311	197.351	481.572	485.181	168.918	163.263	286.222	503.975	151.539	499.571	449.569	244.331	0.0016685	0.00041903	0.00013953	1306.6	1.318e-05	7.8602e-06	1307.3	352.41	1.3728e-05	3.2989e-06	403.66	132.29	117.5	39.118	7.9906e-06	48.387	0.00073091	0.00071396	0.00019871	1340.2	7.8817e-06	7.8898e-06	1342	362.25	7.854e-06	7.8537e-06	416.44	136.5	120.17	40.61	7.7473e-06	50.704	412.989	265.296	264.034	162.325	285.890	308.638	162.043	167.244	283.705	222.406	166.463	170.489	171.136	176.103	283.538	175.033	-8191	255	
759.999	1	1	0	0	0.10167	0.15816	0.11378	0.23945	0.14935	0.29489	0.0436	0.16752	0.074023	0.20446	0.16195	0.261	0.208	0.089327	0.063382	0.26803	-2.6396	-2.8021	-2.7646	-3.1104	-2.6333	-2.8104	-3.1729	-2.9021	-2.8354	-2.9375	-2.6542	-3.2042	-2.8792	-2.7	-2.9917	-2.8042	160.414	350.872	508.958	453.622	283.852	162.259	307.861	439.659	234.052	296.156	157.657	201.874	497.983	415.913	490.405	396.805	0.0017828	0.00061718	4.6699e-05	1303.7	1.0463e-05	4.5832e-06	1307.7	352.52	1.0566e-05	5.5876e-06	403.57	132.73	117.15	38.795	8.4623e-06	48.587	0.00073382	0.00071827	0.00019998	1339	7.7889e-06	7.8743e-06	1341.8	361.83	7.8971e-06	7.8278e-06	416.35	136.57	120.23	40.526	7.7821e-06	50.667	413.617	220.823	193.208	162.472	252.041	278.029	162.064	167.209	302.827	333.991	166.610	170.707	171.149	176.310	288.614	175.026	-8191	255	
760.096	1	1	0	0	0.11622	0.080108	0.12999	0.2072	0.27801	0.28714	0.14209	0.146	0.16934	0.13149	0.13505	0.32964	0.064796	0.17045	0.11336	0.080903	-2.3583	-2.9333	-2.5021	-3.0167	-2.875	-2.8042	-3.2646	-2.8854	-2.9708	-2.9729	-2.7938	-3.1667	-2.825	-2.8604	-3.0833	-2.8958	289.040	269.819	280.314	475.610	251.758	273.598	397.136	466.011	192.069	360.950	393.643	447.291	492.279	475.076	171.058	155.037	0.0016581	0.00059897	0.00016097	1304	7.2038e-06	8.2547e-06	1309.6	352.65	9.3171e-06	4.2244e-06	403.7	132.56	117.67	38.864	7.5008e-06	48.575	0.00074522	0.00070848	0.00019905	1340.3	7.7291e-06	7.7817e-06	1340.6	361.48	7.8375e-06	7.738e-06	416.51	136.36	120.33	40.518	7.7951e-06	50.704	413.324	200.886	248.422	162.328	317.943	298.436	162.035	167.356	295.591	294.004	166.390	170.684	170.924	176.289	264.811	175.172	-8191	255	
760.192	1	1	0	0	0.04814	0.0032822	0.1509	0.092178	0.10254	0.077329	0.14541	0.12407	0.26713	0.055525	0.062591	0.13881	0.13267	0.12173	0.1475	0.25624	-2.6437	-2.8771	-2.6458	-2.9542	-2.7875	-2.6958	-3.225	-2.9333	-2.9083	-2.9896	-2.7479	-2.9167	-3.0062	-2.8542	-3.1646	-2.8354	492.772	198.684	173.629	188.998	232.995	340.479	403.720	458.285	267.510	389.081	340.401	413.954	391.485	166.422	288.618	507.371	0.0017587	0.0003189	0.00014732	1305.9	6.4526e-06	5.3736e-06	1311.1	353.35	8.9746e-06	3.3991e-06	401.95	132.47	117.55	38.945	3.5351e-06	48.625	0.00073284	0.00070215	0.00019871	1339.1	7.6663e-06	7.7102e-06	1341.1	362.16	7.666e-06	7.7698e-06	415.74	136.46	120.2	40.559	7.7506e-06	50.683	413.783	236.999	215.713	162.325	267.796	251.877	162.096	167.147	283.275	306.856	166.372	170.653	170.901	176.161	244.988	174.854	-8191	255	
760.288	1	1	0	0	0.31682	0.25936	0.042754	0.15806	0.19238	0.10215	0.02016	0.14704	0.12989	0.13191	0.22821	0.16605	0.097718	0.24133	0.23589	0.16068	-2.1833	-2.9479	-2.7396	-2.9708	-2.9271	-2.6729	-3.1396	-2.8583	-2.8583	-3.0771	-2.9292	-2.9938	-2.8979	-2.8354	-3.0729	-3.0042	376.741	401.357	418.885	170.712	250.078	376.311	473.940	468.437	480.119	481.846	493.022	463.587	451.387	468.901	465.579	495.372	0.0017783	0.00059442	6.3744e-05	1306.4	1.1346e-05	1.7636e-06	1306.9	350.93	1.2409e-05	5.516e-06	404.34	132.75	117.02	39.01	5.2798e-06	48.414	0.00073233	0.00070317	0.00019635	1338.3	7.7126e-06	7.75e-06	1339.3	361.03	7.6195e-06	7.7453e-06	416.08	136.35	120.11	40.54	7.8164e-06	50.654	413.405	206.331	258.858	162.354	303.501	382.564	161.938	167.084	289.797	297.173	166.450	170.736	170.805	176.276	256.937	175.203	-8191	255	
760.409	1	1	0	0	0.028049	0.10491	0.28608	0.18794	0.21853	0.12993	0.19151	0.26712	0.025877	0.085396	0.18112	0.15513	0.049471	0.22194	0.1046	0.10948	-2.3021	-3.1354	-2.6458	-3.0438	-2.9042	-2.8417	-3.275	-2.9	-2.7271	-3.1292	-2.8771	-2.8312	-3.0271	-2.75	-2.9521	-2.7854	177.250	319.227	488.642	157.481	372.686	272.309	440.389	488.274	344.894	498.426	176.364	409.349	229.415	408.308	318.295	476.920	0.0018441	0.00059788	0.00017377	1307.2	1.0778e-05	2.1181e-06	1307	352.54	9.8474e-06	8.4419e-06	403.1	133.09	118.12	38.922	6.185e-06	48.595	0.00073658	0.00070771	0.00020082	1341.4	7.7823e-06	7.8948e-06	1339.7	361.9	7.7791e-06	7.829e-06	416.32	136.65	120.27	40.594	7.7556e-06	50.699	412.425	246.281	268.958	162.409	285.451	338.914	162.063	167.073	266.047	318.374	166.479	170.726	171.116	176.278	341.836	175.171	-8191	255	
760.480	1	1	0	0	0.23216	0.084195	0.13839	0.10007	0.058094	0.2292	0.31578	0.053004	0.22264	0.31171	0.12285	0.12774	0.297	0.19234	0.10173	0.13919	-2.3354	-2.9958	-2.6917	-3.0375	-3.175	-2.6854	-3.1729	-3.0812	-2.7375	-3.1271	-3.0375	-2.9167	-2.9729	-2.6813	-3.0062	-3.0125	228.056	214.163	507.975	427.196	424.495	199.553	380.700	361.396	488.305	487.552	364.834	376.725	178.971	152.474	289.881	220.764	0.0015966	0.00059646	4.8518e-05	1307.5	5.0747e-06	9.2796e-06	1310.7	352.26	6.9865e-06	1.583e-06	404.81	132.57	117.89	39.056	6.7843e-06	48.771	0.00071783	0.00069922	0.00019319	1340.6	7.527e-06	7.5251e-06	1343.1	362	7.37e-06	7.553e-06	416.71	136.56	120.53	40.535	7.462e-06	50.824	411.724	255.180	249.753	162.378	271.457	328.501	162.138	167.379	257.584	185.989	166.396	170.609	171.368	176.201	279.560	174.901	-8191	255	
760.576	1	1	0	0	0.25041	0.065081	0.10643	0.0091233	0.05945	0.060321	0.20287	0.14351	0.065129	0.27346	0.14411	0.21826	0.19097	0.14466	0.098545	0.19937	-2.2979	-3.0167	-2.8312	-2.8854	-3.1042	-3.0125	-3.2167	-3.0729	-2.8333	-3.1729	-2.9479	-2.9771	-3.0833	-2.7875	-2.8667	-3.0583	267.528	393.763	384.570	163.921	377.029	293.666	474.830	172.772	498.491	170.883	484.063	417.650	360.354	506.303	300.189	464.268	0.0018624	0.00058942	9.3925e-05	1304.9	8.9837e-06	4.6086e-06	1313.1	351.85	1.2138e-05	6.815e-06	402.61	133.19	117.96	38.962	3.8188e-06	48.564	0.00069656	0.000669	0.00018889	1339.9	7.3787e-06	7.4614e-06	1341.8	361.43	7.4672e-06	7.5366e-06	415.08	136.54	120.38	40.605	7.6601e-06	50.771	410.490	210.870	217.768	162.443	254.732	242.069	161.896	167.234	288.339	278.355	166.627	170.547	170.946	176.197	322.705	175.278	-8191	255	
760.697	1	1	0	0	0.26861	0.041284	0.099396	0.21629	0.11933	0.10254	0.22241	0.26042	0.062878	0.28772	0.28377	0.17305	0.28517	0.24513	0.15863	0.24564	-2.35	-2.9667	-2.9813	-2.8	-2.9708	-3.0042	-3.1333	-3.2542	-2.6792	-2.8917	-2.9062	-2.7521	-3.2042	-2.8521	-2.725	-3.2229	245.539	426.998	470.202	381.458	309.380	337.131	410.302	430.198	213.866	161.011	458.950	414.276	427.008	470.042	197.370	451.688	0.0017415	0.00045536	0.000238	1308.9	4.4966e-06	2.4198e-06	1309.5	353.24	1.626e-05	5.4909e-06	403.18	132.89	117.35	39.1	6.5973e-06	48.69	0.0007178	0.00070066	0.00019355	1340	7.6691e-06	7.7053e-06	1341.7	362.52	7.739e-06	7.7995e-06	416.32	136.67	120.33	40.64	7.7799e-06	50.78	415.404	234.641	261.464	162.424	300.092	284.665	162.079	167.412	261.080	304.689	166.407	170.882	171.062	176.296	325.587	175.074	-8191	255	
760.791	1	1	0	0	0.10983	0.046143	0.11598	0.1003	0.16987	0.082242	0.18585	0.037464	0.27241	0.12411	0.13911	0.17121	0.078694	0.044199	0.068261	0.41174	-2.4354	-2.9396	-2.8083	-2.8917	-2.9479	-2.9292	-3.0479	-3.2292	-2.7	-3.0396	-2.9958	-2.8333	-3.1833	-3.0062	-2.8625	-3.1542	232.628	354.911	205.882	466.290	215.724	276.597	429.051	291.211	287.470	189.215	468.994	465.611	499.663	262.324	220.729	428.507	0.0017977	0.00043097	0.00011578	1302.5	8.5891e-06	2.6235e-06	1307.8	351.61	1.1695e-05	5.6483e-06	402.65	132.8	117.66	39.07	5.175e-06	48.577	0.00073678	0.00071222	0.00019818	1340.6	7.8938e-06	7.8727e-06	1343.4	361.96	7.7898e-06	7.9218e-06	415.62	136.55	120.31	40.562	7.826e-06	50.753	414.082	268.944	247.929	162.425	299.086	240.675	162.089	167.235	301.014	294.836	166.505	170.732	171.265	176.377	275.519	175.179	-8191	255	
760.888	1	1	0	0	0.11035	0.022666	0.17191	0.26304	0.12944	0.20771	0.2718	0.099697	0.15123	0.036855	0.21033	0.35444	0.017934	0.10755	0.13697	0.10086	-2.3667	-2.8104	-3.0396	-2.6458	-2.8958	-2.9146	-3.0271	-3.2938	-2.8312	-2.8792	-3.0354	-2.6542	-3	-2.9188	-2.8917	-3.1813	350.427	378.853	373.037	466.469	349.530	154.100	437.985	434.980	460.029	182.814	485.401	479.178	462.194	486.947	351.570	154.009	0.0018029	0.00049459	9.5643e-05	1307.3	7.7858e-06	6.3333e-06	1308.3	352.74	1.2693e-05	3.8645e-06	404.35	132.75	117.56	39.054	4.59e-06	48.466	0.00073329	0.0007133	0.00019607	1341.5	7.7026e-06	7.8582e-06	1342.4	362.26	7.7908e-06	7.8111e-06	416.57	136.45	120.37	40.551	7.7108e-06	50.653	414.226	221.276	304.473	162.490	277.103	313.235	162.003	167.333	293.773	308.313	166.441	170.784	171.412	176.295	310.864	175.187	-8191	255	
761.008	1	1	0	0	0.1079	0.087385	0.2027	0.21443	0.072601	0.11874	0.28407	0.2612	0.13613	0.23199	0.19374	0.18198	0.14215	0.17567	0.18509	0.17534	-2.5854	-2.8042	-2.8625	-2.8583	-3.025	-2.8458	-2.9896	-3.075	-2.6625	-2.9146	-3.1042	-2.8875	-3.1167	-3.05	-2.5667	-3.1771	181.338	328.458	214.593	491.569	332.562	207.033	433.971	441.044	306.973	504.152	470.952	452.129	397.100	455.383	201.821	399.045	0.0018522	0.00053793	0.00017231	1304.4	6.6487e-06	4.8922e-06	1311.5	352.53	1.0904e-05	3.951e-06	403.16	132.71	117.72	38.932	5.6529e-06	48.563	0.00073017	0.00070748	0.00019558	1340.2	7.6813e-06	7.8499e-06	1341.1	361.95	7.6947e-06	7.7148e-06	415.58	136.5	120.36	40.492	7.8112e-06	50.671	413.523	275.276	244.730	162.589	269.390	309.422	162.116	167.231	270.266	307.317	166.373	170.669	171.025	176.187	290.194	175.025	-8191	255	
761.080	1	1	0	0	0.17773	0.09236	0.062168	0.19188	0.050081	0.097798	0.20565	0.11252	0.1602	0.099238	0.26441	0.23774	0.070668	0.2097	0.083179	0.25648	-2.3292	-2.7083	-3.0563	-2.8604	-2.9833	-3.0771	-2.8792	-3.1792	-2.8042	-2.7146	-3.0312	-2.8375	-2.8083	-3.1292	-2.6604	-3.1125	265.873	486.858	245.270	422.058	224.824	153.825	339.571	422.746	477.231	380.063	454.108	154.362	180.205	504.270	402.800	433.678	0.0016361	0.00040279	0.00017745	1305.6	5.7871e-06	5.0375e-06	1308.1	352.91	1.3027e-05	5.4749e-06	401.45	133.02	117.78	38.956	1.2729e-05	48.483	0.00072689	0.00071501	0.00019697	1340.4	7.7595e-06	7.8203e-06	1340.9	361.89	7.7172e-06	7.8085e-06	415.75	136.61	120.43	40.536	7.8896e-06	50.744	412.259	227.940	255.433	162.487	293.726	242.137	162.007	167.190	281.010	267.928	166.489	170.823	171.175	176.261	275.797	175.221	-8191	255	
761.176	1	1	0	0	0.18494	0.13186	0.12546	0.13295	0.094392	0.35199	0.1952	0.11311	0.13115	0.3383	0.11881	0.12701	0.043023	0.05553	0.042282	0.15392	-2.4042	-2.725	-2.8667	-2.9229	-2.6562	-3.05	-2.7604	-3.2021	-2.8875	-2.7313	-3.0604	-2.9292	-2.8542	-2.9813	-2.7021	-3.1292	387.841	433.635	209.047	175.461	447.535	274.625	414.588	412.376	360.619	473.582	249.125	472.077	443.418	303.983	214.557	447.862	0.0017084	0.00064883	0.00025988	1307	6.1704e-06	3.2529e-06	1307	353.09	7.3291e-06	5.0696e-06	402.9	133.02	117.63	39.05	7.0395e-06	48.59	0.00073946	0.00070905	0.00020078	1340.4	7.7983e-06	7.8959e-06	1342.1	361.96	7.9149e-06	7.971e-06	415.6	136.67	120.2	40.554	7.8201e-06	50.759	412.215	260.564	263.106	162.253	327.588	287.962	162.149	167.506	260.572	271.339	166.487	170.866	170.928	176.190	284.892	174.848	-8191	255	
761.272	1	1	0	0	0.1255	0.19584	0.22078	0.066957	0.15611	0.01462	0.2289	0.43269	0.1276	0.038861	0.04147	0.12409	0.14927	0.25703	0.044176	0.16033	-2.4938	-2.7042	-3.1	-3.0938	-2.8354	-3.0438	-2.8688	-3.0229	-2.9375	-2.6771	-3.0896	-2.9979	-2.7583	-3.1562	-2.6208	-2.9542	308.367	429.316	394.128	457.369	265.360	451.062	418.365	444.004	172.272	329.547	221.527	444.064	504.035	482.639	356.521	385.583	0.0016686	7.3091e-05	0.00013586	1305.1	7.731e-06	5.1706e-06	1308.8	351.96	1.7586e-05	3.8535e-06	403.4	132.69	118.12	38.935	7.0191e-06	48.48	0.00072807	0.00069942	0.00019891	1340.5	7.7426e-06	7.739e-06	1340.6	361.41	7.5337e-06	7.7817e-06	415.74	136.32	120.25	40.504	7.7123e-06	50.703	410.770	202.853	245.780	162.415	290.311	330.245	162.045	167.396	294.823	325.211	166.527	170.622	170.919	176.220	290.103	174.991	-8191	255	
761.393	1	1	0	0	0.35477	0.30661	0.18869	0.16552	0.063179	0.047446	0.29819	0.12664	0.29694	0.1169	0.17241	0.21806	0.18633	0.23206	0.17001	0.15513	-2.5833	-2.4333	-2.8854	-3.0833	-2.7792	-2.8792	-2.9271	-3.1292	-2.9542	-2.7896	-3.1146	-2.8875	-2.8646	-3.1042	-2.6896	-2.9042	494.751	220.106	299.191	503.660	280.756	202.229	438.235	446.568	282.219	333.327	206.992	352.478	452.012	475.451	348.277	494.573	0.0017473	0.00051882	0.00012447	1302.8	8.6291e-06	1.7139e-06	1307.5	352.26	8.1245e-06	3.0276e-06	403.65	132.31	117.62	38.908	5.8864e-06	48.568	0.00072695	0.00069164	0.00019714	1339.5	7.6337e-06	7.696e-06	1340.2	361.86	7.6352e-06	7.6383e-06	415.54	136.36	120.32	40.548	7.56e-06	50.777	414.377	239.569	278.178	162.578	275.124	305.949	162.118	167.280	293.352	342.990	166.473	170.566	171.072	176.326	316.896	174.995	-8191	255	
761.489	1	1	0	0	0.17183	0.32902	0.12632	0.19956	0.06275	0.1496	0.16362	0.17971	0.17619	0.066841	0.26119	0.17188	0.06767	0.11471	0.19605	0.18459	-2.5792	-2.7062	-2.9208	-2.9042	-2.7125	-3.0875	-3.0187	-2.825	-2.9396	-2.8208	-2.8312	-3.0833	-2.6146	-3.0563	-2.8896	-2.9062	417.273	309.838	374.519	189.410	206.081	437.856	485.765	396.602	453.520	293.932	496.675	453.069	241.279	177.007	326.445	458.931	0.0019066	0.00035271	0.00023945	1301.9	7.7216e-06	6.9321e-06	1309.3	352.43	1.1198e-05	1.2006e-06	403.88	132.86	117.99	38.951	6.3991e-06	48.642	0.00071761	0.00069096	0.00019432	1338.6	7.4102e-06	7.6783e-06	1339.6	361.93	7.4475e-06	7.5161e-06	416.16	136.47	120.42	40.496	7.6302e-06	50.76	410.890	238.574	234.862	162.527	277.406	283.207	161.931	167.396	281.839	343.741	166.511	170.690	171.153	176.339	320.957	175.226	-8191	255	
761.585	1	1	0	0	0.15955	0.23262	0.16126	0.21567	0.20573	0.15123	0.29875	0.096933	0.16271	0.1582	0.33088	0.23862	0.16991	0.22102	0.2133	0.093704	-2.6521	-2.8354	-2.9188	-3.0938	-2.6875	-3.1437	-3.1021	-3.0375	-3.125	-2.6021	-2.9646	-2.8896	-2.6583	-3.0917	-2.9562	-2.775	298.257	338.334	408.262	463.436	346.878	508.292	451.553	463.428	299.619	484.056	470.148	460.294	367.623	170.956	173.139	319.440	0.0019174	0.00079966	4.4902e-05	1300.2	6.1151e-06	4.6793e-06	1302	352.54	8.6283e-06	1.0398e-05	403.13	132.48	117.9	38.954	6.3043e-06	48.567	0.00071078	0.00067808	0.00019054	1336.4	7.4699e-06	7.6585e-06	1337.6	361.67	7.5846e-06	7.4776e-06	415.81	136.43	120.2	40.511	7.4809e-06	50.699	411.795	254.728	319.786	162.409	277.471	340.054	162.193	167.317	285.656	275.579	166.408	170.668	171.174	176.244	343.231	175.277	-8191	255	
761.679	1	1	0	0	0.19169	0.11193	0.28917	0.24478	0.0201	0.15347	0.35691	0.28028	0.24822	0.11473	0.26647	0.13225	0.25325	0.035537	0.26718	0.29127	-2.5854	-2.8	-2.8958	-3.0292	-2.8792	-3.0208	-2.8896	-2.7875	-3.075	-2.8833	-2.8	-3.1021	-2.5958	-3.0708	-2.8604	-2.8354	170.452	362.007	165.441	406.333	180.330	301.673	449.551	404.896	203.198	426.286	438.776	466.757	250.272	326.569	328.838	422.915	0.0017787	0.00038054	0.0001219	1305.5	9.0218e-06	7.1259e-06	1303.2	353.2	1.367e-05	1.4788e-06	403.71	132.65	117.61	39.029	4.4641e-06	48.571	0.00071127	0.00067565	0.00018852	1338.3	7.371e-06	7.4322e-06	1337.9	361.86	7.4401e-06	7.5197e-06	415.63	136.45	120.16	40.526	7.3459e-06	50.686	415.466	243.693	216.781	162.396	280.399	314.105	162.090	167.179	297.019	309.780	166.544	170.755	171.224	176.419	264.398	175.053	-8191	255	
761.776	1	1	0	0	0.12349	0.25877	0.18258	0.115	0.048448	0.024062	0.095321	0.11368	0.056029	0.16059	0.19575	0.10336	0.12093	0.29284	0.214	0.36328	-2.6437	-2.6583	-2.7146	-3.3125	-2.7042	-2.9875	-3	-2.8396	-3.0979	-2.8708	-2.9542	-3.0125	-2.8708	-3.2521	-3.0479	-2.9021	294.450	306.786	301.472	426.470	367.269	267.745	202.928	391.464	233.323	199.053	164.879	418.133	162.400	381.013	423.827	460.374	0.0018095	0.00067288	0.00020061	1303.2	3.7486e-06	4.1541e-06	1307.1	352.76	6.9272e-06	5.0478e-06	403.05	132.48	117.37	38.916	1.1061e-05	48.64	0.0006939	0.00065804	0.00018462	1336.6	7.1279e-06	7.2176e-06	1338.1	361.27	7.0731e-06	7.1333e-06	414.66	136.24	119.99	40.452	6.9794e-06	50.573	415.388	255.127	277.529	162.506	267.409	324.879	162.060	167.329	286.854	259.509	166.194	170.742	171.040	176.220	273.527	175.174	-8191	255	
761.872	1	1	0	0	0.13244	0.11265	0.049812	0.17842	0.18421	0.12737	0.30144	0.16405	0.098129	0.13776	0.0508	0.096843	0.22632	0.12389	0.17972	0.26875	-2.85	-2.8229	-2.8667	-3.2729	-2.7188	-2.9562	-3.3542	-2.8	-3.0917	-2.8896	-2.8354	-3.1125	-2.7	-2.9083	-3.1354	-2.8708	506.379	204.582	482.064	422.620	334.259	182.563	424.496	406.137	497.756	281.769	454.249	225.511	382.236	169.621	158.846	431.802	0.0017612	0.00046901	0.00021434	1300.3	6.3411e-06	5.7235e-06	1308.5	351.93	1.1006e-05	4.2559e-06	403.02	133.09	117.93	38.911	5.4719e-06	48.366	0.00066091	0.00062655	0.00017564	1335.8	6.9157e-06	6.9074e-06	1337.1	361.01	6.9669e-06	6.9576e-06	414.62	136.28	119.93	40.417	6.9356e-06	50.595	412.505	211.642	257.988	162.371	342.290	318.620	162.010	167.294	299.808	330.285	166.560	170.812	171.226	176.307	285.488	175.149	-8191	255	
761.968	1	1	0	0	0.14577	0.17912	0.077886	0.2261	0.096361	0.10596	0.46113	0.40755	0.068309	0.19561	0.18767	0.2001	0.056274	0.1762	0.18505	0.074315	-2.5062	-2.7938	-2.5938	-3.1979	-2.8896	-2.7271	-3.2875	-2.7854	-3.0042	-2.9729	-2.7042	-3.0667	-3.0104	-2.8875	-3.1937	-2.9521	225.994	385.819	387.393	151.737	505.240	149.835	473.872	377.602	433.357	300.992	440.257	403.952	485.385	460.520	169.039	237.668	0.001746	0.000477	4.2217e-05	1296.4	9.7224e-06	5.1284e-06	1306.9	351.67	9.3363e-06	5.2357e-06	403.1	132.77	117.74	38.987	6.7306e-06	48.588	0.00066057	0.00063579	0.00017629	1331.4	6.8638e-06	6.9011e-06	1336.2	361.06	6.8977e-06	6.8834e-06	414.31	136.28	119.89	40.441	6.797e-06	50.59	414.346	230.243	238.944	162.548	255.647	301.125	162.117	167.336	318.007	328.244	166.603	170.617	171.270	176.230	322.312	175.129	-8191	255	
762.089	1	1	0	0	0.039886	0.20088	0.098205	0.19993	0.21582	0.31591	0.32739	0.29776	0.2906	0.16482	0.11206	0.04398	0.13704	0.12674	0.13815	0.056637	-2.6458	-2.8479	-2.6833	-3.1375	-2.9562	-2.7396	-3.2729	-2.7854	-3.0125	-3	-2.8917	-3.2208	-2.8438	-2.7438	-3.0917	-2.9792	260.743	257.991	367.045	431.625	171.284	429.827	446.370	421.582	306.071	257.278	484.661	190.110	382.469	270.015	212.885	505.236	0.0017511	0.00039058	0.00021225	1300.7	9.2378e-06	5.753e-06	1302.6	350.5	1.5672e-05	7.3161e-06	401.63	133.08	117.4	38.825	5.8167e-06	48.481	0.00065249	0.00060645	0.00016759	1332.6	6.719e-06	6.603e-06	1333	359.82	6.5804e-06	6.6393e-06	414	136.13	119.86	40.32	6.6354e-06	50.516	412.803	261.336	253.490	162.405	294.405	321.749	162.148	167.300	281.058	300.182	166.517	170.827	170.797	176.257	284.486	175.079	-8191	255	
762.185	1	1	0	0	0.028721	0.19101	0.13116	0.18706	0.17942	0.17361	0.059116	0.2504	0.20279	0.198	0.14485	0.15893	0.1195	0.26452	0.19796	0.17302	-2.6	-2.9083	-2.8104	-3.1208	-2.9688	-2.8937	-3.1417	-2.9271	-2.8958	-3.1583	-2.6958	-2.9646	-2.9688	-2.7396	-2.9375	-2.8375	457.134	287.242	452.628	182.125	330.020	466.392	436.845	456.328	487.469	278.120	500.564	398.191	161.648	501.059	237.655	221.094	0.0017871	0.00082882	0.00019259	1291.9	6.2971e-06	7.6548e-06	1300.5	351.24	8.578e-06	3.2624e-06	399.93	132.33	117.63	38.893	6.748e-06	48.472	0.00063925	0.00060549	0.00016729	1328.2	6.5703e-06	6.5764e-06	1332.4	359.6	6.4615e-06	6.5834e-06	413.12	136.06	119.4	40.341	6.5719e-06	50.495	410.614	216.204	207.426	162.537	272.472	279.609	162.122	167.377	253.356	284.333	166.403	170.807	171.178	176.440	263.795	175.141	-8191	255	
762.281	1	1	0	0	0.13231	0.10903	0.098869	0.060067	0.021094	0.19224	0.23258	0.26156	0.16185	0.017724	0.23236	0.15129	0.051511	0.18469	0.3279	0.10409	-2.5354	-3.0792	-2.6292	-3.1792	-3.0292	-2.7521	-3.1937	-2.9458	-2.7333	-2.9958	-2.8729	-3.0062	-3.0083	-2.9792	-2.8667	-2.9167	460.369	237.286	332.386	198.793	507.394	270.384	465.259	477.077	405.406	465.287	458.072	430.546	183.590	425.605	338.626	500.844	0.0018735	0.00020902	0.00025306	1297.5	7.4886e-06	7.7713e-06	1298.6	350.95	8.3175e-06	5.3935e-06	403.48	132.57	117.08	38.873	7.3644e-06	48.385	0.00063469	0.00059089	0.00016682	1330.4	6.4225e-06	6.4692e-06	1330	359.45	6.3507e-06	6.337e-06	413.47	135.9	119.6	40.323	6.2486e-06	50.484	414.704	261.032	245.160	162.475	274.459	321.004	162.179	167.157	263.821	289.756	166.489	170.665	170.950	176.450	270.869	175.277	-8191	255	
762.377	1	1	0	0	0.2374	0.057438	0.1417	0.23354	0.25498	0.23315	0.11431	0.24181	0.22536	0.09413	0.28152	0.056436	0.1702	0.26088	0.14621	0.16985	-2.4167	-3.0333	-2.5771	-2.8708	-2.9729	-2.7021	-3.0875	-2.9313	-2.6542	-3.0521	-2.7	-2.7417	-3.0583	-2.8042	-2.9562	-3.0687	410.430	502.052	329.040	423.249	481.074	412.371	472.653	446.092	379.741	352.725	190.763	258.760	261.537	482.261	450.680	505.053	0.0018623	0.00022771	0.00019107	1294.3	7.6784e-06	3.6872e-06	1298.7	349.95	1.3645e-05	5.4464e-06	399.96	132.57	116.6	38.892	7.1333e-06	48.224	0.0006034	0.00057292	0.00015898	1326.2	6.0805e-06	6.2427e-06	1328.7	358.65	6.1564e-06	6.1269e-06	412.5	135.71	119.1	40.275	6.1579e-06	50.335	415.861	227.402	269.556	162.472	278.890	278.674	162.118	167.253	304.701	309.251	166.190	170.616	171.033	176.289	270.352	175.192	-8191	255	
762.473	1	1	0	0	0.20239	0.15279	0.071022	0.32477	0.32205	0.16988	0.18774	0.27295	0.20408	0.2766	0.27819	0.087802	0.20637	0.19672	0.20145	0.20808	-2.2146	-2.8875	-2.7562	-3.0833	-3.0083	-2.7188	-3.1813	-3.1292	-2.6417	-3.0625	-2.8646	-3.0292	-3.1292	-2.7625	-2.8854	-2.9083	154.173	310.281	421.152	473.618	342.045	468.632	461.180	495.792	351.955	267.848	486.072	224.004	264.262	397.781	368.596	478.810	0.0017701	0.00045886	0.0001418	1288.2	8.632e-06	4.4529e-06	1294.2	349.2	1.3825e-05	2.3092e-06	400.27	131.61	117.14	38.631	7.349e-06	48.271	0.00058779	0.00055858	0.00015339	1321.4	6.0105e-06	6.0189e-06	1323.4	358.11	6.065e-06	6.1247e-06	411.63	135.44	118.95	40.138	6.2174e-06	50.321	414.175	276.134	212.141	162.467	267.231	236.332	162.140	167.386	274.291	321.645	166.361	170.643	170.899	176.443	308.429	175.148	-8191	255	
762.569	1	1	0	0	0.19121	0.2235	0.031384	0.2907	0.19125	0.095489	0.21404	0.07143	0.038078	0.1113	0.23047	0.14424	0.12096	0.21287	0.09822	0.1743	-2.2729	-2.7167	-2.7562	-2.95	-2.9833	-2.7875	-3.1	-3.0563	-2.7083	-2.9146	-2.9646	-2.9333	-3.0854	-2.6771	-2.7917	-3.1583	281.238	220.451	269.088	463.950	398.261	210.846	410.436	372.038	427.174	410.808	434.973	200.668	350.732	443.653	493.050	197.230	0.0017317	0.00062711	0.00012915	1288.3	6.6347e-06	5.9876e-06	1294.6	348.3	1.5482e-05	2.3874e-06	398.87	132.21	117.52	38.644	7.8375e-06	48.197	0.00059838	0.00055278	0.00015747	1319.7	6.1375e-06	6.1349e-06	1323.1	357.39	6.1257e-06	6.0765e-06	410.66	135.35	119.12	40.154	6.0467e-06	50.265	414.850	226.906	236.218	162.589	281.179	297.505	162.121	167.350	286.057	316.199	166.611	170.982	170.877	176.350	279.120	175.087	-8191	255	
762.688	1	1	0	0	0.28996	0.16237	0.21549	0.077297	0.24153	0.19442	0.19797	0.2122	0.082894	0.30424	0.11133	0.15974	0.29174	0.20739	0.063197	0.17279	-2.1771	-3.0271	-2.7292	-2.8729	-2.9667	-2.7812	-2.9708	-3.2188	-2.5625	-3.0104	-3.1083	-2.8542	-3.1271	-3.0292	-2.8979	-2.9271	432.706	282.355	202.081	251.083	165.991	488.727	439.967	370.084	417.181	479.777	421.128	429.414	155.536	158.637	289.670	391.533	0.0017836	0.00041475	0.00018473	1286.9	4.5785e-06	5.7896e-06	1293.7	349.08	7.1992e-06	3.3271e-06	398.33	132.12	116.5	38.608	6.6491e-06	48.169	0.00058303	0.00055567	0.00015396	1317.3	5.9809e-06	6.1045e-06	1322.1	357.57	6.0558e-06	6.1209e-06	410.62	135.2	118.58	40.077	5.9145e-06	50.166	415.797	235.166	268.183	162.433	350.935	304.554	161.985	167.275	279.025	285.954	166.488	171.041	171.246	176.298	283.757	175.169	-8191	255	
762.784	1	1	0	0	0.21874	0.031416	0.15351	0.54139	0.13128	0.095825	0.23422	0.3153	0.048068	0.041412	0.43658	0.22788	0.31039	0.24187	0.21658	0.12588	-2.3083	-2.9771	-3.0396	-2.7062	-3.0875	-2.7792	-3	-3.2833	-2.6896	-3.0021	-3.0646	-2.8542	-3	-2.9375	-2.8812	-3.1271	323.836	285.104	171.734	443.787	327.340	179.653	502.147	417.396	336.489	321.677	158.262	436.570	341.657	211.955	311.758	484.296	0.0017192	0.00056923	0.0001338	1284.4	8.0579e-06	7.8516e-06	1290	347.74	7.5704e-06	3.7443e-06	397.11	131.57	116.66	38.586	6.7538e-06	47.842	0.0005867	0.00054161	0.00015267	1315.1	5.9311e-06	5.9636e-06	1317.7	356.69	6.0002e-06	6.0411e-06	410.03	134.92	118.41	40.049	5.8711e-06	50.121	412.430	217.164	251.176	162.365	320.332	340.075	162.089	167.330	294.302	285.430	166.320	170.787	170.952	176.385	304.794	175.218	-8191	255	
762.880	1	1	0	0	0.15821	0.073967	0.16894	0.16162	0.31055	0.38362	0.024514	0.23785	0.11966	0.054886	0.21437	0.048066	0.14914	0.10026	0.1935	0.055882	-2.2417	-2.7729	-2.9396	-2.95	-2.9708	-2.8167	-2.9354	-3.1063	-2.8063	-2.9167	-3.0667	-2.8833	-2.9188	-2.9417	-2.8104	-3.1229	343.919	218.562	423.088	318.394	403.706	460.205	153.259	420.573	191.056	358.256	414.240	437.081	453.770	474.309	369.728	164.911	0.0016798	0.00044856	4.781e-05	1280	6.5224e-06	3.2163e-06	1286.4	346.81	8.0932e-06	3.831e-06	397.86	131.7	116.83	38.588	4.8217e-06	48.063	0.00057943	0.00054256	0.00014829	1312.6	5.892e-06	5.8523e-06	1314.5	355.73	5.8742e-06	5.8392e-06	409.44	134.78	118.48	40.005	5.8814e-06	50.067	413.738	259.626	207.451	162.561	303.758	347.205	162.024	167.566	282.596	301.002	166.438	170.755	171.207	176.258	283.214	175.209	-8191	255	
762.952	1	1	0	0	0.32152	0.19731	0.19931	0.4278	0.19381	0.079426	0.22897	0.17134	0.28661	0.28351	0.06876	0.21402	0.24697	0.12587	0.10642	0.22003	-2.5125	-2.7667	-2.8875	-2.8333	-3.0646	-2.9771	-2.9271	-3.2875	-2.7938	-2.8729	-3.1667	-2.7146	-2.8979	-2.9458	-2.8729	-3.1	201.277	446.622	231.176	421.896	448.531	497.274	468.388	457.764	255.411	342.077	199.514	465.958	191.443	191.182	192.845	171.965	0.0015807	0.00045439	8.8089e-05	1278.8	8.9933e-06	4.9123e-06	1283.4	347.12	5.0172e-06	3.7542e-06	398.55	131.27	116.83	38.544	4.1063e-06	48.254	0.0005739	0.00053287	0.00014941	1310.2	5.8161e-06	5.7382e-06	1312.8	356.13	5.8449e-06	5.7671e-06	409.15	134.78	118.43	40.046	5.7395e-06	50.184	414.408	249.619	286.572	162.568	289.577	246.146	162.043	167.429	250.069	287.310	166.620	170.723	171.155	176.171	253.266	175.047	-8191	255	
763.073	1	1	0	0	0.06934	0.094094	0.13965	0.23324	0.066518	0.13985	0.16935	0.10615	0.23451	0.12564	0.10867	0.065764	0.098621	0.19532	0.13336	0.11851	-2.3312	-2.775	-2.8438	-2.7313	-2.8417	-3.1	-2.9792	-3.1479	-2.9083	-2.7667	-3.1229	-2.9625	-2.9292	-3.1521	-2.6979	-3.1167	173.905	187.436	360.771	457.411	226.598	472.044	489.442	465.401	436.021	474.894	308.184	394.246	216.728	166.679	456.855	159.213	0.0018067	0.00028555	0.0001107	1279.4	5.7064e-06	2.413e-06	1284.5	347.24	1.0724e-05	4.1207e-06	398.06	131.6	116.25	38.601	4.4677e-06	48.176	0.00056596	0.00051805	0.00014448	1309.7	5.7617e-06	5.7528e-06	1313.2	355.7	5.6988e-06	5.7367e-06	409.11	134.78	118.28	39.998	5.7613e-06	50.142	414.013	214.246	241.217	162.419	289.254	311.040	162.083	167.405	276.399	284.142	166.445	170.854	171.250	176.297	302.641	175.072	-8191	255	
763.169	1	1	0	0	0.2381	0.10877	0.17442	0.23639	0.10896	0.34565	0.3756	0.067919	0.11223	0.15493	0.14223	0.29345	0.21045	0.23674	0.1297	0.13074	-2.5	-2.5125	-3.0938	-2.7562	-2.7	-3.0146	-3.1021	-3.1958	-2.9292	-2.6792	-3.2625	-2.9167	-2.7896	-3.0021	-2.6896	-2.8771	370.037	231.324	440.897	454.186	440.628	418.655	444.134	353.675	227.605	483.251	483.804	505.513	421.351	383.655	424.858	185.989	0.0017216	0.00058007	0.00011402	1277.6	6.4684e-06	5.5415e-06	1284.8	346.86	1.2084e-05	3.4459e-06	398.92	131.34	116.22	38.668	7.3517e-06	48.283	0.00056377	0.00051946	0.00014601	1308.6	5.717e-06	5.6947e-06	1314	355.58	5.7525e-06	5.7162e-06	409.27	134.66	118.11	40.095	5.8054e-06	50.128	411.734	230.042	234.254	162.584	262.578	285.133	162.029	167.371	274.260	295.880	166.467	170.671	170.935	176.394	293.501	175.345	-8191	255	
763.265	1	1	0	0	0.31445	0.019984	0.087846	0.35886	0.12415	0.068945	0.29379	0.2253	0.29363	0.073481	0.087307	0.32132	0.11483	0.11954	0.19266	0.20287	-2.5625	-2.8042	-3.0792	-3.0875	-2.7438	-3.0875	-2.9125	-3.0167	-2.9917	-2.5938	-3.2021	-2.9542	-2.7458	-3.1333	-2.5792	-2.9458	319.139	269.986	195.548	174.256	211.041	273.659	476.919	288.159	464.513	464.144	204.652	470.347	281.323	488.215	490.076	409.505	0.0017603	0.00057492	0.00011067	1280.3	5.8347e-06	1.8537e-06	1287.1	346.56	1.5141e-05	7.0249e-06	398.08	131.02	116.14	38.564	6.7444e-06	48.201	0.00056664	0.00052335	0.00014617	1310.3	5.7748e-06	5.733e-06	1315.3	355.37	5.7982e-06	5.7602e-06	408.75	134.76	118.28	40.038	5.7151e-06	50.109	414.275	242.926	245.281	162.542	271.920	281.144	162.148	167.398	260.263	298.520	166.624	170.678	171.370	176.491	277.741	175.238	-8191	255	
763.361	1	1	0	0	0.049719	0.060543	0.14208	0.20449	0.25389	0.20944	0.2929	0.2128	0.21874	0.094603	0.029038	0.27666	0.066672	0.13896	0.11942	0.19133	-2.5646	-2.6021	-2.9833	-2.9896	-2.5417	-3.0708	-2.8542	-2.9292	-2.9167	-2.5667	-3.1937	-2.9333	-2.8104	-3.1583	-2.8417	-2.8667	386.121	264.396	365.480	446.197	372.057	391.839	413.096	360.307	428.638	178.556	202.485	443.511	335.677	463.448	209.744	480.928	0.0017311	0.00047539	0.00013264	1276.1	2.459e-06	5.8689e-06	1285.1	346.64	1.5969e-05	6.6573e-06	398.02	131.45	115.93	38.442	6.9508e-06	48.448	0.00056441	0.00052244	0.00014738	1309.2	5.7869e-06	5.8269e-06	1313.1	355.6	5.7654e-06	5.6626e-06	409.6	134.67	118.06	39.97	5.6904e-06	50.092	411.097	241.569	240.846	162.467	320.030	320.072	162.060	167.295	275.752	321.151	166.726	170.803	171.194	176.428	290.189	175.089	-8191	255	
763.480	1	1	0	0	0.16061	0.1991	0.10827	0.096408	0.15177	0.23439	0.22642	0.19901	0.10764	0.092908	0.10108	0.26513	0.1477	0.081096	0.19527	0.11717	-2.5021	-2.5458	-3.0187	-2.9313	-2.6333	-3.0062	-3.0583	-2.9188	-3.05	-2.6583	-3.0667	-2.9208	-2.4604	-3.0271	-2.8271	-2.8104	498.756	320.394	221.444	357.590	290.840	238.019	168.773	480.740	430.943	383.939	451.381	507.908	460.258	458.674	259.630	259.445	0.0016977	0.00034519	0.00025285	1279.7	5.7304e-06	3.2746e-06	1285.2	347.15	1.1577e-05	5.8196e-07	398.49	131.31	115.79	38.675	7.0972e-06	48.053	0.00056704	0.00052196	0.00014651	1309.1	5.8163e-06	5.7257e-06	1314.1	355.81	5.7074e-06	5.6622e-06	409.58	134.75	118.16	40.046	5.7161e-06	50.113	409.871	258.717	254.284	162.585	305.744	280.893	162.103	167.459	301.785	304.843	166.647	170.669	171.263	176.240	260.737	175.052	-8191	255	
763.576	1	1	0	0	0.15126	0.19683	0.2189	0.33423	0.24438	0.14206	0.20379	0.24358	0.1744	0.36927	0.15093	0.2398	0.074391	0.083265	0.30585	0.34755	-2.6104	-2.6958	-2.7271	-3.2396	-2.7479	-2.9417	-2.9917	-2.7188	-3.1417	-2.8833	-3.0583	-3.0312	-2.7479	-2.9333	-2.8187	-2.7958	218.143	332.742	425.164	430.121	309.298	419.081	454.810	454.644	164.054	312.632	163.530	279.802	339.025	242.647	416.700	449.861	0.0018333	0.00077733	0.00015848	1276.3	5.858e-06	3.4118e-06	1284	346.61	1.2237e-05	3.892e-06	396.28	131.87	116.95	38.629	7.5351e-06	48.434	0.00056277	0.00050998	0.00014373	1309.2	5.6629e-06	5.6084e-06	1312.8	355.39	5.6531e-06	5.6503e-06	408.62	134.98	118.38	40.052	5.6837e-06	50.189	413.350	237.610	278.125	162.452	259.134	247.325	162.143	167.379	270.595	284.493	166.333	170.772	171.034	176.304	289.604	175.236	-8191	255	
763.650	1	1	0	0	0.064927	0.16233	0.19457	0.35999	0.068332	0.047681	0.19392	0.32293	0.018728	0.18588	0.2163	0.30557	0.12964	0.24885	0.082321	0.10062	-2.4979	-2.675	-2.8	-3.0563	-2.5583	-3.0708	-3.1562	-2.7854	-3.1083	-2.8104	-2.9688	-3.2354	-2.7521	-3.1125	-2.9625	-2.6833	158.616	168.173	484.676	495.124	334.147	408.201	455.457	464.900	158.545	360.498	251.014	466.097	360.808	191.145	476.830	193.129	0.0015922	0.00064049	0.0001459	1274.3	3.448e-06	3.0138e-06	1284.5	347.8	1.2906e-05	3.4489e-06	397.46	131.93	116.67	38.752	3.4364e-06	48.31	0.00055093	0.00050814	0.0001418	1307.4	5.5123e-06	5.6105e-06	1315.2	356.07	5.637e-06	5.5514e-06	409.26	135.16	118.24	40.155	5.5366e-06	50.233	412.067	231.363	260.586	162.415	324.902	292.036	162.163	167.344	285.495	301.806	166.366	170.915	171.065	176.254	265.716	174.887	-8191	255	
763.770	1	1	0	0	0.11743	0.13169	0.09562	0.21896	0.39657	0.3155	0.16238	0.39842	0.15578	0.040979	0.10213	0.1406	0.28434	0.09891	0.035741	0.13901	-2.5104	-2.7333	-2.7625	-3.1271	-2.6583	-2.8333	-3.1625	-2.7083	-3.1271	-2.6771	-2.9292	-3.0583	-2.7	-2.925	-2.8979	-2.7313	350.947	293.192	413.818	154.178	285.178	183.288	458.331	402.395	358.146	420.253	415.993	466.842	454.921	442.870	395.329	174.179	0.001825	0.00054194	9.017e-05	1278.1	6.8034e-06	4.8836e-06	1285.3	346.73	1.1563e-05	4.6947e-06	398.83	131.71	116.54	38.645	7.5698e-06	48.214	0.00055396	0.00050368	0.00013869	1309.7	5.5383e-06	5.6783e-06	1312.6	355.29	5.6453e-06	5.5485e-06	408.83	134.9	118.24	40.009	5.5474e-06	50.149	413.165	225.544	242.128	162.413	327.787	298.646	161.940	167.345	282.085	298.981	166.313	170.795	171.182	176.239	299.713	175.228	-8191	255	
763.865	1	1	0	0	0.012542	0.1178	0.24923	0.36774	0.14777	0.25954	0.13125	0.38925	0.25602	0.14803	0.23655	0.17552	0.19822	0.062338	0.15708	0.19842	-2.6958	-2.9708	-2.5396	-3.2062	-2.6896	-2.9437	-3.1937	-2.875	-2.8708	-2.775	-2.8958	-3.0771	-2.7083	-2.8271	-2.8521	-2.6833	456.431	397.818	454.937	435.971	386.155	294.986	493.651	166.266	417.456	457.400	248.938	392.375	483.251	153.374	226.211	488.357	0.0017756	0.00053351	0.00019132	1275.1	9.2707e-06	5.2305e-06	1281.8	346.89	9.8584e-06	4.027e-06	396.23	131.58	116.38	38.632	5.8319e-06	48.163	0.00055341	0.00049863	0.00013804	1309.7	5.4687e-06	5.614e-06	1311.2	355.47	5.4709e-06	5.41e-06	408.61	134.7	118.22	40.035	5.4746e-06	50.208	415.432	241.701	274.129	162.575	288.618	278.883	162.086	167.426	267.006	260.189	166.510	170.692	171.195	176.233	266.573	175.207	-8191	255	
763.961	1	1	0	0	0.17431	0.12019	0.08818	0.16222	0.10749	0.2445	0.15399	0.2153	0.18603	0.21994	0.12389	0.1796	0.20031	0.15617	0.13883	0.22178	-2.5771	-2.6688	-2.5438	-3	-2.5812	-2.7	-3.0833	-2.5667	-3.0229	-2.8063	-2.8063	-2.9688	-2.8458	-2.7146	-2.9521	-2.6375	240.833	288.328	212.638	498.190	439.152	242.613	410.199	455.307	317.782	455.443	455.574	441.661	231.420	505.173	464.817	397.026	0.0016533	0.00071861	0.00015256	1277.2	9.8671e-06	7.7607e-06	1278.2	346.58	1.3872e-05	3.179e-06	396.9	131.08	115.57	38.452	7.0981e-06	48.336	0.00054431	0.00049855	0.00013775	1307.8	5.4681e-06	5.477e-06	1310	355.38	5.5208e-06	5.4737e-06	408.01	134.83	118.03	39.993	5.4686e-06	50.173	413.145	256.635	230.013	162.492	275.883	300.737	162.013	167.172	277.331	295.227	166.439	170.804	171.141	176.391	283.980	175.103	-8191	255	
#DATA ENDS
