BOXY.EXE: ISS Imagent and Oximeter Data Acquisition Program Version 0.80
Ascii Record File

#ACQ INFORMATION
2  Detector Channels 
16  External MUX Channels 
1  Auxiliary Channels 
5000  Waveform (CCF) Frequency (Hz)
1  Waveforms Skipped 
30  Waveforms Averaged 
1  Cycles Averaged 
16  Acquisitions per Waveform 
10.0806  Updata Rate (Hz) 

#FILE INFORMATION
TRUE -- External MUX Channel results are PARSED.
FALSE -- AC DC and Phase are NOT grouped.
TRUE -- Companion Program Settings File CREATED.
FALSE -- AC data not excluded
FALSE -- DC data not excluded
FALSE -- Phase data not excluded
FALSE -- Auxillary Chn. data not excluded
Tab delimiters

#CALIBRATION STATE
TRUE -- Waveform Calibration Values APPLIED.


#AUX CALIBRATION VALUES
Val Type	aux-1	

Term	1.0000e+00	
Factor	0.0000e+00	


#WF CALIBRATION VALUES
A = Detector Channel
Val Type	A-AC1	A-AC2	A-AC3	A-AC4	A-AC5	A-AC6	A-AC7	A-AC8	A-AC9	A-AC10	A-AC11	A-AC12	A-AC13	A-AC14	A-AC15	A-AC16	A-DC1	A-DC2	A-DC3	A-DC4	A-DC5	A-DC6	A-DC7	A-DC8	A-DC9	A-DC10	A-DC11	A-DC12	A-DC13	A-DC14	A-DC15	A-DC16	A-Ph1	A-Ph2	A-Ph3	A-Ph4	A-Ph5	A-Ph6	A-Ph7	A-Ph8	A-Ph9	A-Ph10	A-Ph11	A-Ph12	A-Ph13	A-Ph14	A-Ph15	A-Ph16	

Term	0.00000e+00	0.00000e+00	0.00000e+00	0.00000e+00	0.00000e+00	0.00000e+00	0.00000e+00	0.00000e+00	0.00000e+00	0.00000e+00	0.00000e+00	0.00000e+00	0.00000e+00	0.00000e+00	0.00000e+00	0.00000e+00	0.00000e+00	0.00000e+00	0.00000e+00	0.00000e+00	0.00000e+00	0.00000e+00	0.00000e+00	0.00000e+00	0.00000e+00	0.00000e+00	0.00000e+00	0.00000e+00	0.00000e+00	0.00000e+00	0.00000e+00	0.00000e+00	0.00000e+00	0.00000e+00	0.00000e+00	0.00000e+00	0.00000e+00	0.00000e+00	0.00000e+00	0.00000e+00	0.00000e+00	0.00000e+00	0.00000e+00	0.00000e+00	0.00000e+00	0.00000e+00	0.00000e+00	0.00000e+00	
Factor	1.00000e+00	1.00000e+00	1.00000e+00	1.00000e+00	1.00000e+00	1.00000e+00	1.00000e+00	1.00000e+00	1.00000e+00	1.00000e+00	1.00000e+00	1.00000e+00	1.00000e+00	1.00000e+00	1.00000e+00	1.00000e+00	1.00000e+00	1.00000e+00	1.00000e+00	1.00000e+00	1.00000e+00	1.00000e+00	1.00000e+00	1.00000e+00	1.00000e+00	1.00000e+00	1.00000e+00	1.00000e+00	1.00000e+00	1.00000e+00	1.00000e+00	1.00000e+00	X	X	X	X	X	X	X	X	X	X	X	X	X	X	X	X	

B = Detector Channel
Val Type	B-AC1	B-AC2	B-AC3	B-AC4	B-AC5	B-AC6	B-AC7	B-AC8	B-AC9	B-AC10	B-AC11	B-AC12	B-AC13	B-AC14	B-AC15	B-AC16	B-DC1	B-DC2	B-DC3	B-DC4	B-DC5	B-DC6	B-DC7	B-DC8	B-DC9	B-DC10	B-DC11	B-DC12	B-DC13	B-DC14	B-DC15	B-DC16	B-Ph1	B-Ph2	B-Ph3	B-Ph4	B-Ph5	B-Ph6	B-Ph7	B-Ph8	B-Ph9	B-Ph10	B-Ph11	B-Ph12	B-Ph13	B-Ph14	B-Ph15	B-Ph16	

Term	0.00000e+00	0.00000e+00	0.00000e+00	0.00000e+00	0.00000e+00	0.00000e+00	0.00000e+00	0.00000e+00	0.00000e+00	0.00000e+00	0.00000e+00	0.00000e+00	0.00000e+00	0.00000e+00	0.00000e+00	0.00000e+00	0.00000e+00	0.00000e+00	0.00000e+00	0.00000e+00	0.00000e+00	0.00000e+00	0.00000e+00	0.00000e+00	0.00000e+00	0.00000e+00	0.00000e+00	0.00000e+00	0.00000e+00	0.00000e+00	0.00000e+00	0.00000e+00	-9.90304e+01	-1.35732e+02	-1.36445e+02	-1.81955e+02	-6.32359e+01	-7.00468e+01	-1.55865e+02	-1.62015e+02	-5.28796e+01	-6.72096e+01	-1.73578e+02	-1.70098e+02	-1.84416e+02	-1.76662e+02	-7.14242e+01	-1.49046e+02	
Factor	1.61227e-05	1.53640e-04	4.82937e-05	1.70074e-01	1.20327e-06	1.47695e-06	1.57498e-01	5.08174e-02	1.03867e-06	1.45238e-06	9.60303e-02	2.81729e-02	5.38668e-02	9.01616e-03	1.33076e-06	1.28469e-02	1.78411e-06	1.91716e-06	5.33672e-07	8.42362e-02	2.08320e-08	2.10161e-08	7.33345e-02	2.52856e-02	2.08088e-08	2.10259e-08	4.56947e-02	1.35968e-02	2.61707e-02	4.47479e-03	2.08188e-08	6.15170e-03	X	X	X	X	X	X	X	X	X	X	X	X	X	X	X	X	



#DISTANCE SETTINGS
A = Detector Channel
A-1	A-2	A-3	A-4	A-5	A-6	A-7	A-8	A-9	A-10	A-11	A-12	A-13	A-14	A-15	A-16	

2.5000e+00	3.0000e+00	2.5000e+00	3.0000e+00	2.0000e+00	3.0000e+00	1.5000e+00	3.0000e+00	3.0000e+00	3.0000e+00	3.0000e+00	3.0000e+00	3.0000e+00	3.0000e+00	1.5000e+00	3.0000e+00	

B = Detector Channel
B-1	B-2	B-3	B-4	B-5	B-6	B-7	B-8	B-9	B-10	B-11	B-12	B-13	B-14	B-15	B-16	

1.0000e+01	1.0000e+01	1.0000e+01	1.4400e+00	1.0000e+01	1.0000e+01	1.5100e+00	1.9400e+00	1.0000e+01	1.0000e+01	1.9900e+00	2.4900e+00	2.4100e+00	2.9000e+00	1.0000e+01	2.9800e+00	




#DATA BEGINS
time	group	step	mark	flag	A-AC1	A-AC2	A-AC3	A-AC4	A-AC5	A-AC6	A-AC7	A-AC8	A-AC9	A-AC10	A-AC11	A-AC12	A-AC13	A-AC14	A-AC15	A-AC16	A-DC1	A-DC2	A-DC3	A-DC4	A-DC5	A-DC6	A-DC7	A-DC8	A-DC9	A-DC10	A-DC11	A-DC12	A-DC13	A-DC14	A-DC15	A-DC16	A-Ph1	A-Ph2	A-Ph3	A-Ph4	A-Ph5	A-Ph6	A-Ph7	A-Ph8	A-Ph9	A-Ph10	A-Ph11	A-Ph12	A-Ph13	A-Ph14	A-Ph15	A-Ph16	B-AC1	B-AC2	B-AC3	B-AC4	B-AC5	B-AC6	B-AC7	B-AC8	B-AC9	B-AC10	B-AC11	B-AC12	B-AC13	B-AC14	B-AC15	B-AC16	B-DC1	B-DC2	B-DC3	B-DC4	B-DC5	B-DC6	B-DC7	B-DC8	B-DC9	B-DC10	B-DC11	B-DC12	B-DC13	B-DC14	B-DC15	B-DC16	B-Ph1	B-Ph2	B-Ph3	B-Ph4	B-Ph5	B-Ph6	B-Ph7	B-Ph8	B-Ph9	B-Ph10	B-Ph11	B-Ph12	B-Ph13	B-Ph14	B-Ph15	B-Ph16	aux-1	digaux	

1687.083	1	1	0	256	0.18754	0.22072	0.2297	0.27127	0.19612	0.29725	0.11956	0.25738	0.17509	0.079084	0.13871	0.083782	0.30058	0.10805	0.13848	0.1698	-2.3979	-2.725	-3.0375	-2.8979	-2.9833	-2.7625	-2.7417	-3.2104	-2.7625	-2.5312	-2.9521	-2.6312	-2.7771	-2.9083	-2.6562	-2.9958	220.136	191.063	55.958	207.421	190.331	-50.887	-117.512	-98.853	46.221	-1.955	-10.042	-68.158	199.223	104.188	6.514	189.547	9.3606e-05	0.00036949	6.3704e-05	944.61	1.6211e-06	2.4493e-06	988.95	195.1	2.609e-06	2.6652e-06	241.93	65.68	51.759	14.807	1.4168e-06	20.869	7.6293e-05	6.903e-05	1.9174e-05	938.97	7.9296e-07	7.7225e-07	990.47	194.79	7.9811e-07	7.5474e-07	240.42	66.805	51.471	15.008	7.1525e-07	21.136	-132.724	-60.906	-20.690	-121.744	37.490	41.997	-121.783	-114.911	0.630	6.481	-115.062	-108.770	-108.293	-101.315	18.885	-101.832	-8191	255	
1687.180	1	1	0	0	0.30302	0.12268	0.053183	0.16173	0.16265	0.083096	0.074943	0.17998	0.058189	0.14556	0.06423	0.14674	0.047861	0.30077	0.15365	0.18731	-2.375	-2.6688	-2.9375	-2.8438	-2.8146	-2.9479	-2.9813	-2.8833	-2.8292	-2.7583	-2.95	-2.7458	-2.8021	-3.0312	-2.8104	-2.9021	72.709	139.152	219.182	204.969	86.959	-115.657	159.041	149.739	79.320	-60.408	135.191	208.078	121.248	-94.543	-39.542	-13.577	0.00011038	0.00024805	6.5704e-05	944.27	1.2805e-06	2.6532e-06	994.24	193.54	1.0615e-06	3.4085e-06	240.77	65.497	51.144	14.75	2.193e-06	20.868	6.9658e-05	6.3346e-05	1.7261e-05	936.84	6.8529e-07	6.4068e-07	990.38	194.19	6.596e-07	6.1378e-07	238.9	66.536	50.879	14.942	6.2487e-07	20.957	224.946	-67.781	-61.259	-121.842	-30.949	51.468	-121.884	-114.571	-9.574	3.482	-114.831	-108.795	-108.320	-101.251	9.355	-101.285	-8191	255	
1687.276	1	1	0	0	0.14886	0.053599	0.099541	0.15326	0.17182	0.04553	0.27235	0.25508	0.15892	0.19124	0.20023	0.24857	0.0084644	0.20078	0.19312	0.18704	-2.3646	-2.6896	-2.95	-2.8229	-2.8479	-2.9896	-2.8292	-2.9792	-2.7229	-2.5396	-3.1188	-2.85	-2.6292	-2.8917	-2.5292	-2.8792	87.021	-125.012	-118.921	202.051	121.297	46.474	65.796	146.897	15.065	125.512	147.231	169.130	14.367	-54.136	209.333	107.986	0.00010712	0.00035179	8.9571e-05	943.15	6.5477e-07	2.4128e-06	989.27	193.56	1.6026e-06	1.7158e-06	241.03	65.958	51.495	14.87	2.5401e-06	21.028	6.5748e-05	6.0011e-05	1.6022e-05	932.58	6.9245e-07	6.7904e-07	986.75	194.4	7.2913e-07	7.1352e-07	239.22	66.795	51.242	14.979	7.3889e-07	21.14	-123.493	-40.114	-48.731	-121.818	26.007	-21.958	-121.722	-114.549	5.009	-2.607	-115.239	-108.739	-108.281	-101.335	-71.242	-101.991	-8191	255	
1687.347	1	1	0	0	0.24722	0.071205	0.092171	0.44186	0.21807	0.17296	0.15974	0.17035	0.21814	0.23503	0.090261	0.1248	0.10118	0.21247	0.10293	0.12987	-2.4792	-2.3625	-2.8604	-2.9271	-2.7917	-2.8875	-2.8375	-3.075	-3.025	-2.5521	-2.8479	-2.8563	-2.6479	-2.8979	-2.7792	-2.9083	184.373	-72.566	-18.204	-124.241	68.496	170.725	201.862	106.167	113.309	78.013	186.918	132.580	110.138	76.708	166.649	182.516	9.7977e-05	0.00022595	3.4538e-05	950.97	1.7269e-06	2.0721e-06	994.16	194.32	1.8438e-06	2.7425e-06	242.17	66.104	51.898	14.884	1.897e-06	20.891	7.3892e-05	6.6705e-05	1.8607e-05	939.67	7.4939e-07	7.1249e-07	993.13	195.02	7.499e-07	7.1952e-07	240.04	66.935	51.318	14.994	7.0727e-07	21.143	-120.558	-29.383	-47.263	-121.795	8.657	-41.592	-121.812	-114.700	10.759	39.360	-115.045	-108.602	-108.897	-101.600	4.177	-101.838	-8191	255	
1687.466	1	1	0	0	0.17894	0.08431	0.1356	0.16797	0.17479	0.21047	0.043449	0.16783	0.16151	0.20444	0.098009	0.19354	0.28986	0.17185	0.1362	0.17179	-2.6083	-2.4604	-2.9875	-2.8563	-2.7875	-2.9396	-2.8875	-2.8625	-3.0146	-2.6937	-2.85	-2.9771	-2.7896	-3.2333	-2.9042	-2.8417	-82.082	75.003	136.587	211.381	37.450	158.335	153.950	-38.370	180.133	100.640	87.338	110.054	-28.333	-3.933	-80.429	153.665	0.00011302	0.00041998	7.5165e-05	953.11	1.9662e-06	1.1074e-06	995.17	193.68	2.1449e-06	1.2791e-06	241.51	65.897	51.573	14.826	1.305e-06	20.91	7.1238e-05	6.3454e-05	1.7979e-05	942.81	7.2686e-07	7.0912e-07	995.84	194.96	7.3759e-07	7.0713e-07	240.15	66.736	51.133	14.948	6.7826e-07	21.127	-127.601	-39.629	-37.934	-121.580	-27.531	17.013	-121.850	-114.903	-31.144	3.214	-115.189	-108.673	-108.417	-101.400	-40.717	-101.642	-8191	255	
1687.562	1	1	0	0	0.025589	0.025466	0.14891	0.27018	0.34364	0.11272	0.2611	0.31049	0.17781	0.081554	0.2069	0.13209	0.26861	0.39537	0.27254	0.083335	-2.6042	-2.6813	-2.9042	-2.9521	-2.6208	-3.0271	-2.9479	-2.7958	-2.9875	-2.7625	-3	-2.9333	-2.3896	-2.9896	-2.8625	-2.9646	108.391	72.189	-122.865	159.739	84.283	42.294	185.179	-126.468	60.177	142.667	-44.963	207.489	-132.257	208.462	-87.955	-2.746	0.00011481	0.00022195	6.9689e-05	943.61	8.0246e-07	1.6495e-06	993.22	194.14	2.2858e-06	2.5632e-06	241.72	66.227	51.533	14.767	3.0902e-06	21.055	6.9283e-05	6.3079e-05	1.7464e-05	939.36	7.2964e-07	6.9226e-07	992.69	194.92	7.1197e-07	6.7782e-07	240.23	66.661	51.055	14.914	6.7748e-07	21.159	-119.542	-16.410	-3.642	-121.834	38.357	-2.890	-121.718	-114.848	-16.873	-22.232	-114.791	-108.579	-108.564	-101.502	-11.247	-101.665	-8191	255	
1687.659	1	1	0	0	0.12861	0.28186	0.1374	0.19172	0.33548	0.060345	0.23054	0.23206	0.12845	0.28412	0.19467	0.093061	0.11628	0.29498	0.13725	0.13838	-2.4188	-2.7042	-2.8896	-2.8354	-2.525	-2.9542	-2.7146	-2.7542	-2.9458	-2.5812	-3.0396	-3.1542	-2.5271	-2.8937	-2.65	-2.5521	101.723	6.625	168.733	136.991	174.619	125.827	178.380	196.509	165.598	219.825	88.342	148.838	-15.921	-79.819	24.497	11.648	0.00011335	0.00021761	0.00012989	945.49	1.9049e-06	1.438e-06	986.64	193.07	2.3066e-06	1.992e-06	238.53	65.28	50.745	14.703	3.3264e-06	20.834	6.6406e-05	6.0982e-05	1.6578e-05	936.39	6.5842e-07	6.3219e-07	986.38	193.7	6.6666e-07	6.0331e-07	237.31	65.899	50.471	14.801	6.3402e-07	20.907	223.288	-36.785	-56.655	-121.815	-2.973	-27.250	-121.729	-114.615	-37.658	-33.308	-114.700	-108.951	-108.274	-100.848	25.297	-102.198	-8191	255	
1687.755	1	1	0	0	0.043933	0.22161	0.080016	0.2326	0.24853	0.13912	0.19125	0.068736	0.092629	0.1674	0.11586	0.16796	0.1619	0.050536	0.13695	0.10703	-2.5417	-2.6375	-2.7271	-3.0604	-2.4479	-2.8667	-2.8333	-2.7313	-3.0729	-2.7146	-2.7375	-3.0208	-2.5833	-2.9521	-2.5375	-2.5563	10.086	33.238	-84.675	183.192	-91.392	130.365	-130.185	198.120	-74.001	-6.539	108.507	-122.955	164.901	89.997	-35.593	-2.136	0.0001067	0.0001599	4.2991e-05	931.1	1.2403e-06	2.5401e-06	973.58	191.64	1.7543e-06	1.5788e-06	235.69	64.611	50.229	14.506	1.1252e-06	20.473	6.6309e-05	5.785e-05	1.6112e-05	923.47	6.3477e-07	6.1949e-07	974.19	192.03	6.4455e-07	6.3603e-07	235.29	65.278	50.011	14.648	6.3441e-07	20.709	-128.619	-27.910	-42.040	-121.677	-33.642	8.867	-121.624	-114.706	13.090	-31.623	-114.829	-108.321	-108.296	-101.183	62.883	-101.680	-8191	255	
1687.851	1	1	0	0	0.19796	0.14203	0.15142	0.36989	0.26547	0.15222	0.23541	0.15508	0.20729	0.22322	0.056637	0.33584	0.22353	0.14761	0.054468	0.058405	-2.5812	-2.7458	-2.7375	-3.1437	-2.9083	-2.7521	-2.9625	-2.8667	-2.9167	-2.8333	-2.7958	-3.1417	-2.7938	-2.9	-3.0083	-2.7604	147.318	-50.623	95.358	-90.638	-56.967	82.562	133.387	113.662	-13.306	-26.705	197.657	-110.991	176.590	-41.344	-114.454	34.010	0.00012522	0.00012797	7.9474e-05	917.61	1.2895e-06	1.5778e-06	963.97	189.52	1.5425e-06	3.1085e-06	234.12	63.799	49.792	14.328	1.2666e-06	20.374	6.5083e-05	5.5845e-05	1.521e-05	910.84	6.099e-07	5.4721e-07	962.37	189.81	6.0033e-07	5.617e-07	232.92	64.733	49.521	14.474	5.4593e-07	20.586	-121.759	-6.052	-64.638	-121.844	-10.780	-9.036	-121.606	-114.478	-19.704	-5.039	-114.796	-108.452	-107.994	-101.158	-45.380	-101.280	-8191	255	
1687.972	1	1	0	0	0.28714	0.30848	0.16591	0.096617	0.11347	0.10438	0.16995	0.30049	0.32774	0.13428	0.15636	0.20911	0.16411	0.34892	0.1239	0.1402	-2.5396	-2.8438	-2.6917	-3.1354	-2.7125	-2.8563	-3.0583	-2.4458	-2.8771	-2.8063	-2.6125	-2.9813	-2.7125	-2.6833	-2.8167	-2.6833	165.435	-10.035	-0.695	207.997	-52.668	-63.208	66.649	111.948	10.107	-52.030	-81.468	154.956	-63.722	226.692	-29.153	226.200	0.00010336	0.00020812	6.7429e-05	910.95	1.1402e-06	2.3099e-06	960.23	189.08	1.3624e-06	1.5656e-06	234.21	63.933	49.651	14.381	1.2426e-06	20.397	5.7556e-05	4.8213e-05	1.3616e-05	907.14	5.5309e-07	5.219e-07	962.11	188.96	5.4896e-07	5.1111e-07	232.51	64.715	49.358	14.493	5.0668e-07	20.524	227.012	-56.367	-51.693	-121.737	-2.081	34.138	-121.590	-114.857	6.095	59.740	-114.896	-108.369	-107.883	-101.174	23.440	-101.325	-8191	255	
1688.043	1	1	0	0	0.13659	0.10366	0.04563	0.20301	0.2045	0.089303	0.18358	0.066592	0.21003	0.095931	0.13509	0.1463	0.20738	0.061129	0.14138	0.31665	-2.5062	-2.7562	-2.7792	-2.9021	-2.5812	-2.7833	-3.0375	-2.6813	-2.8646	-2.8625	-2.8063	-2.9625	-2.8042	-2.7146	-3.0792	-2.775	13.233	139.976	108.509	189.984	73.100	77.563	155.565	98.630	107.163	185.219	186.206	85.137	-113.921	86.009	-16.669	163.154	0.00011038	0.0001641	0.00011277	910.21	1.0319e-06	1.352e-06	957.5	186.79	2.2596e-06	1.4824e-06	232.99	63.656	49.491	14.281	1.4742e-06	20.26	5.4802e-05	4.6719e-05	1.2595e-05	904.28	5.0674e-07	4.758e-07	957.42	187.72	4.9191e-07	4.4277e-07	231.24	64.34	48.934	14.395	4.3871e-07	20.371	-123.756	-80.048	-29.734	-121.641	5.672	27.601	-121.674	-114.562	-2.465	-13.095	-114.806	-108.609	-108.106	-100.994	4.529	-101.500	-8191	255	
1688.164	1	1	0	0	0.23151	0.16675	0.19591	0.37008	0.061925	0.15595	0.13684	0.46259	0.29319	0.16247	0.26871	0.025773	0.076761	0.25577	0.10735	0.039914	-2.4417	-2.7313	-2.4854	-3.0812	-2.6562	-2.6625	-3.0896	-2.725	-2.8396	-2.8125	-2.5625	-3.0333	-2.6542	-2.7438	-3.1833	-2.5687	9.058	-132.532	129.217	179.178	40.949	167.605	117.865	95.641	-113.383	-64.466	-98.969	-31.190	223.753	168.284	65.667	-123.129	0.00010257	0.00025618	6.2896e-05	908.39	7.0378e-07	2.7287e-06	952.78	186.45	9.1229e-07	1.4483e-06	232.2	63.328	48.894	14.319	2.1262e-06	20.264	5.0234e-05	3.9729e-05	1.0904e-05	899.87	4.5665e-07	4.2956e-07	953.35	186.7	4.6516e-07	4.1706e-07	229.9	64.028	48.747	14.325	4.3667e-07	20.345	-125.259	-85.796	-58.641	-121.604	-22.641	26.656	-121.541	-114.809	14.943	-11.456	-115.067	-108.401	-108.422	-101.475	23.471	-101.702	-8191	255	
1688.260	1	1	0	0	0.31741	0.078717	0.064279	0.1899	0.25475	0.12921	0.14815	0.032153	0.093911	0.15661	0.043646	0.2267	0.039254	0.18455	0.048529	0.2772	-2.1833	-2.9604	-2.4938	-2.9604	-2.7583	-2.6667	-3.0333	-2.6896	-2.85	-3.0146	-2.625	-2.9667	-2.8396	-2.5271	-2.8354	-2.6979	-115.963	15.316	-106.237	54.606	8.477	55.591	181.544	-71.748	226.188	-57.530	155.667	-30.999	100.944	-90.751	220.768	-119.456	0.00011426	0.00013577	6.2985e-05	904.23	1.2228e-06	2.7569e-06	959.03	185.9	1.3331e-06	2.0561e-06	231.85	63.068	49.193	14.271	9.3736e-07	20.218	4.8104e-05	3.8467e-05	1.0692e-05	897.6	4.5383e-07	4.4335e-07	953.94	186.5	4.6933e-07	4.3011e-07	229.78	63.892	48.651	14.365	4.2761e-07	20.3	-126.662	-17.137	-26.972	-121.588	-28.137	9.657	-121.273	-114.408	-50.502	23.739	-114.666	-108.653	-108.234	-101.018	-23.494	-101.645	-8191	255	
1688.356	1	1	0	0	0.21794	0.088829	0.10131	0.21765	0.20818	0.11963	0.21793	0.19446	0.10345	0.12884	0.20649	0.16629	0.19888	0.22826	0.20169	0.10352	-2.25	-2.7396	-2.4688	-3.075	-3.0458	-2.8937	-3.2021	-2.9083	-2.7188	-2.8792	-2.7458	-2.9	-2.7	-2.6479	-2.9125	-2.8104	12.754	128.036	92.645	190.219	72.733	-99.600	196.337	191.269	186.307	108.106	77.352	-20.630	-14.129	19.535	133.856	191.272	0.00011906	0.00026545	9.9827e-05	902.66	7.2798e-07	2.6795e-06	950.72	186.69	1.3308e-06	2.557e-06	231.75	63.318	49.048	14.185	8.4223e-07	20.22	4.8108e-05	4.1155e-05	1.0915e-05	897.98	4.771e-07	4.4629e-07	952.08	186.69	4.8619e-07	4.2823e-07	230.13	64.059	48.672	14.342	4.5094e-07	20.309	-124.681	-14.212	-59.445	-121.854	-59.842	28.594	-121.635	-114.444	-9.363	-7.748	-114.751	-108.141	-108.231	-101.093	-18.000	-101.193	-8191	255	
1688.452	1	1	0	0	0.20504	0.26073	0.029393	0.16436	0.10994	0.13871	0.31976	0.24869	0.24761	0.084581	0.16481	0.098687	0.25465	0.23279	0.24971	0.17399	-2.1771	-2.875	-2.6688	-3.0167	-2.9625	-2.4688	-2.9521	-2.9354	-2.6125	-3.0083	-2.7375	-2.9083	-2.9875	-2.5646	-2.8521	-2.85	29.900	-128.115	123.488	115.769	225.708	199.030	177.168	143.808	53.583	104.655	195.494	119.832	164.235	-11.360	224.243	209.389	0.00011884	5.4654e-05	6.7005e-05	909.15	8.1266e-07	1.8721e-06	953.31	187.12	1.316e-06	1.643e-06	233.21	63.515	49.388	14.301	1.3297e-06	20.11	5.1988e-05	4.0863e-05	1.1722e-05	900.25	4.9511e-07	4.6892e-07	952.93	186.8	5.0795e-07	4.8075e-07	230.64	64.154	48.79	14.402	4.826e-07	20.297	-131.055	-111.592	-62.115	-121.699	83.126	44.601	-121.606	-114.498	-24.041	39.823	-115.173	-108.559	-108.047	-100.859	44.418	-101.130	-8191	255	
1688.571	1	1	0	0	0.15068	0.12632	0.24685	0.12692	0.038526	0.14847	0.078754	0.29714	0.39361	0.27899	0.14801	0.22608	0.02899	0.1064	0.029866	0.13087	-2.1646	-2.8771	-2.6146	-2.8312	-3.0604	-2.5708	-2.9542	-2.8875	-2.5896	-3.0604	-2.5917	-2.8104	-2.9437	-2.8688	-2.8042	-2.9021	142.699	-40.124	190.280	-97.037	105.267	199.907	224.220	91.086	-108.457	7.112	213.893	-69.046	214.210	138.684	42.219	222.573	0.00011058	0.00024999	4.6168e-05	910.24	3.6379e-07	3.359e-06	956.33	185.74	1.4448e-06	2.776e-06	232.26	63.342	49.367	14.256	1.932e-06	20.208	5.3802e-05	4.4258e-05	1.2098e-05	902.03	5.349e-07	4.8569e-07	956.44	186.79	5.1389e-07	4.8863e-07	230.56	64.126	48.962	14.401	4.6703e-07	20.305	-120.857	-43.007	-32.846	-121.528	70.374	44.549	-121.604	-114.635	-3.216	16.746	-114.750	-108.354	-108.279	-101.405	37.838	-101.205	-8191	255	
1688.643	1	1	0	0	0.13483	0.17109	0.13039	0.10085	0.11523	0.29269	0.28985	0.18904	0.053831	0.13045	0.19919	0.2621	0.13105	0.31674	0.21859	0.17817	-2.2146	-2.6813	-2.7646	-2.8479	-3.1063	-2.5833	-2.9375	-3.0333	-2.5	-2.85	-3.0062	-2.8271	-2.775	-2.5375	-2.7812	-2.9479	185.987	221.256	151.491	-74.524	144.663	170.566	209.529	82.881	14.924	169.228	81.284	108.155	160.701	220.534	84.280	139.669	9.8262e-05	0.00037698	7.7689e-05	909.89	2.5262e-06	1.7562e-06	954.73	187.55	1.1775e-06	1.8432e-06	231.79	63.416	49.24	14.263	1.353e-06	20.215	5.0654e-05	4.1922e-05	1.1703e-05	902.23	4.8634e-07	4.3403e-07	956.28	187.17	4.8116e-07	4.6327e-07	229.65	64.161	49.036	14.385	4.6521e-07	20.325	226.273	-39.777	-64.867	-121.549	-18.686	-39.932	-121.710	-114.813	8.241	-3.241	-114.681	-108.480	-108.566	-101.536	16.665	-101.496	-8191	255	
1688.763	1	1	0	0	0.14663	0.011041	0.17078	0.11572	0.029367	0.063716	0.29278	0.12186	0.13696	0.1823	0.064465	0.12878	0.29087	0.060315	0.14271	0.11693	-2.2854	-3.0083	-2.7896	-2.5917	-3.0292	-2.6167	-2.8438	-2.8521	-2.5208	-2.8063	-2.75	-2.4979	-2.9813	-2.6896	-2.6479	-2.9896	64.816	192.175	72.428	201.673	-80.887	-93.783	156.396	-55.845	104.058	-51.060	168.811	182.019	42.434	-122.641	198.545	124.188	0.00010457	0.00013645	7.3003e-05	907.56	6.6162e-07	8.2142e-07	955.19	185.87	1.4284e-06	1.9227e-06	231.28	63.347	49.446	14.269	1.222e-06	20.091	4.9728e-05	4.1958e-05	1.1841e-05	899.26	4.9532e-07	4.7361e-07	953.2	186.64	4.9672e-07	4.2805e-07	229.88	64.11	48.817	14.402	4.7024e-07	20.242	-127.367	-55.450	-59.706	-121.645	-3.996	49.427	-121.522	-114.521	-16.757	6.500	-114.860	-108.541	-108.134	-101.213	-9.175	-100.999	-8191	255	
1688.860	1	1	0	0	0.26188	0.089344	0.22401	0.032123	0.13046	0.17278	0.11873	0.11182	0.15382	0.15377	0.10107	0.2008	0.090084	0.17767	0.12939	0.11719	-2.1937	-2.5667	-2.7188	-2.6833	-2.7729	-2.6813	-2.9292	-3.1	-2.6813	-2.9583	-3.0021	-2.4562	-2.8792	-2.7771	-2.5896	-2.8125	152.012	4.138	59.089	-20.070	-104.741	109.601	158.659	-48.525	198.000	174.025	223.368	-122.229	141.597	72.661	-79.820	-77.688	0.00011952	0.0001436	6.3181e-05	908.29	1.0356e-06	2.4578e-06	955.57	187.47	5.8947e-07	3.7536e-07	233.19	63.358	49.479	14.35	1.2489e-06	19.975	5.1438e-05	4.439e-05	1.1596e-05	899.83	5.1156e-07	4.6905e-07	955.23	186.81	5.1766e-07	4.797e-07	230.73	64.207	48.898	14.427	4.7987e-07	20.32	-124.914	-47.926	-88.284	-121.628	12.192	25.252	-121.464	-114.645	-9.059	15.728	-114.950	-108.663	-108.130	-101.192	26.150	-101.306	-8191	255	
1688.956	1	1	0	0	0.22312	0.05191	0.09181	0.15534	0.032713	0.20975	0.31961	0.18146	0.21404	0.32598	0.12213	0.13938	0.19212	0.065062	0.15827	0.11158	-2.1229	-2.6437	-2.7542	-2.8104	-2.9917	-2.6	-2.7562	-3	-2.85	-2.7646	-2.9708	-2.6875	-2.8375	-2.9354	-2.625	-2.9833	22.062	220.773	-13.783	109.319	106.296	60.961	202.589	225.216	21.227	39.016	182.182	140.463	164.654	154.997	-73.225	-20.365	0.00011113	0.00022031	5.6934e-05	912.61	7.7738e-07	2.2256e-06	959.64	187	1.5666e-06	2.2413e-06	233.34	64.276	50.006	14.333	1.5452e-06	20.23	5.0977e-05	4.4334e-05	1.2041e-05	904.85	5.3035e-07	4.8805e-07	960.95	187.78	5.3431e-07	4.9818e-07	231.29	64.666	49.366	14.504	5.1817e-07	20.406	-123.299	-79.701	-102.812	-121.717	6.563	22.910	-121.622	-114.650	-21.049	62.078	-114.484	-108.502	-107.937	-100.967	43.935	-101.364	-8191	255	
1689.052	1	1	0	0	0.21574	0.20586	0.11817	0.10885	0.10824	0.059844	0.13966	0.25664	0.080378	0.11353	0.051257	0.10537	0.14071	0.21732	0.26338	0.18755	-2.1979	-2.7354	-2.8104	-2.7146	-2.9604	-2.7104	-2.6271	-2.8729	-2.65	-2.75	-3.0708	-2.4958	-2.775	-2.7271	-2.4208	-2.9479	-14.224	-108.247	65.209	-78.044	-70.770	113.684	138.919	-91.450	127.818	-132.355	215.735	176.079	-92.749	-132.115	-9.030	209.365	0.00011484	0.00015032	3.3314e-05	920.32	1.1124e-06	1.2672e-06	968.51	188.16	1.6725e-06	1.2768e-06	236.11	63.758	49.973	14.534	1.7859e-06	20.232	5.5973e-05	4.971e-05	1.2965e-05	911.32	5.7093e-07	5.3727e-07	967.9	189.27	5.8161e-07	5.3126e-07	233.33	64.826	49.556	14.603	5.3513e-07	20.513	-125.399	-38.508	-53.150	-121.565	-77.410	93.223	-121.897	-114.391	-11.743	6.206	-114.688	-108.453	-108.542	-101.518	-35.090	-101.187	-8191	255	
1689.148	1	1	0	0	0.12389	0.15827	0.25524	0.2279	0.15454	0.1993	0.1852	0.16128	0.16221	0.11844	0.46954	0.23903	0.27574	0.11041	0.3288	0.2281	-2.2625	-2.5667	-2.8021	-2.7521	-2.8833	-2.7771	-2.7458	-3.1063	-2.7417	-2.6354	-2.9542	-2.7271	-2.6688	-2.775	-2.4979	-2.9	-13.630	-78.678	-125.042	206.290	-9.678	75.733	165.718	213.915	-95.551	-0.494	222.201	156.043	183.538	156.837	-91.842	205.609	0.00011818	0.00034556	6.982e-05	919.21	7.3694e-07	2.8272e-06	966.43	188.7	1.4134e-06	2.1427e-06	235.58	64.207	49.763	14.578	2.1139e-06	20.337	5.7987e-05	4.723e-05	1.3633e-05	913.4	5.7739e-07	5.4629e-07	968.28	189.44	5.8191e-07	5.4107e-07	233.37	64.993	49.719	14.616	5.7035e-07	20.53	-122.908	-34.820	-0.139	-121.555	90.679	-23.873	-121.654	-114.440	-27.935	5.971	-114.717	-108.527	-108.606	-101.531	-9.255	-101.596	-8191	255	
1689.269	1	1	0	0	0.15151	0.13123	0.099182	0.069749	0.13188	0.15984	0.097283	0.13327	0.14496	0.12498	0.1388	0.08649	0.056926	0.081021	0.28518	0.21703	-2.3042	-2.5771	-2.8875	-2.6813	-2.6771	-2.9229	-2.7229	-2.8812	-2.7604	-2.4688	-3.0062	-2.6625	-2.7687	-2.8187	-2.5375	-2.8583	206.295	-40.202	195.279	148.827	110.972	38.112	14.790	-88.433	86.961	-26.332	153.962	-33.144	161.140	148.247	126.750	111.100	9.7146e-05	1.2913e-05	0.00010199	925.26	1.0338e-06	2.8719e-06	972.17	189.73	1.0621e-06	3.2651e-06	236.87	64.683	50.224	14.528	1.1726e-06	20.251	6.0927e-05	5.4459e-05	1.4881e-05	917.54	6.2795e-07	6.0386e-07	971.05	190.43	6.1746e-07	5.6928e-07	234.3	65.242	49.852	14.693	5.4753e-07	20.545	-131.487	195.024	-24.803	-121.671	-40.755	6.221	-121.557	-114.452	-19.142	7.708	-114.875	-108.535	-108.401	-101.539	55.149	-101.438	-8191	255	
1689.340	1	1	0	0	0.25802	0.19757	0.12257	0.14217	0.1648	0.054085	0.105	0.03985	0.090638	0.078674	0.14821	0.15493	0.22219	0.11286	0.066944	0.16131	-2.3	-2.5917	-2.8771	-2.7771	-2.7458	-2.8521	-2.6729	-2.8229	-2.6	-2.4146	-3.0687	-2.8042	-2.4229	-2.8979	-2.8208	-2.9562	-85.969	151.732	216.666	119.113	179.433	78.512	163.223	-10.658	198.669	156.663	5.415	104.885	109.183	65.953	138.344	148.264	0.00011189	0.00027722	9.317e-05	927.69	1.6264e-06	1.7125e-06	971.38	189.59	1.0329e-06	2.3218e-06	235.63	64.594	50.152	14.487	4.5873e-07	20.342	5.7943e-05	5.0317e-05	1.4133e-05	917.74	5.7301e-07	5.5356e-07	970.3	190.01	5.8889e-07	5.5368e-07	234.04	65.276	49.735	14.688	5.9425e-07	20.552	-125.356	-64.370	-45.781	-121.798	23.057	6.854	-121.652	-114.750	-41.343	30.857	-114.836	-109.146	-107.941	-101.413	-73.256	-101.569	-8191	255	
1689.437	1	1	0	0	0.22978	0.29752	0.14689	0.36885	0.11771	0.077619	0.047592	0.23323	0.063904	0.25869	0.23642	0.15556	0.12062	0.18325	0.10528	0.21112	-2.3812	-2.6917	-3.1083	-2.9271	-2.5896	-3.0104	-2.6937	-2.7958	-2.9667	-2.7646	-2.9688	-2.9375	-2.6375	-2.9437	-2.7833	-2.9021	-29.626	110.888	192.625	105.555	1.310	-55.440	215.222	153.713	-78.182	147.597	-72.398	222.960	74.363	147.718	69.324	-84.619	9.7742e-05	0.00017791	7.9991e-05	922.2	1.2875e-06	1.1371e-06	972.7	189.24	1.2603e-06	2.3643e-06	236.48	64.291	50.572	14.559	1.0953e-06	20.286	6.1436e-05	5.376e-05	1.5301e-05	916.17	6.2513e-07	5.7378e-07	970.92	190.2	6.0328e-07	5.7677e-07	234.55	65.164	49.903	14.689	5.7399e-07	20.573	-131.521	-50.481	-52.487	-121.503	7.981	-13.569	-121.653	-114.225	-35.600	36.692	-114.590	-108.591	-107.944	-101.425	101.887	-101.209	-8191	255	
1689.533	1	1	0	0	0.18411	0.17702	0.056091	0.12773	0.21485	0.17415	0.21966	0.021655	0.15603	0.11124	0.036748	0.092316	0.06518	0.18069	0.17076	0.11212	-2.4083	-2.3875	-2.9354	-2.8396	-2.5104	-2.9562	-2.8625	-2.7562	-3.0729	-2.7542	-2.75	-2.7125	-2.5896	-2.8396	-2.7917	-2.7833	-87.124	209.387	-36.354	-46.975	107.886	12.966	66.488	-115.397	118.127	54.928	31.288	166.122	214.561	190.464	171.826	132.256	0.00010729	0.00026258	5.4627e-05	920.57	4.5964e-07	3.0036e-06	968.43	189.4	1.8738e-06	1.3783e-06	238.02	63.929	50.603	14.607	1.0146e-06	20.34	5.9359e-05	5.1927e-05	1.4576e-05	915.51	5.9419e-07	5.7081e-07	969.77	190	6.1408e-07	5.8408e-07	235	65.308	49.992	14.735	5.9902e-07	20.603	-129.981	-78.195	-25.898	-121.553	7.777	5.553	-121.681	-114.425	24.213	7.679	-114.752	-108.606	-108.345	-101.340	20.800	-101.853	-8191	255	
1689.652	1	1	0	0	0.1676	0.10106	0.153	0.12292	0.19729	0.15682	0.05765	0.081933	0.090253	0.20299	0.10379	0.14543	0.048524	0.067527	0.029918	0.049019	-2.4417	-2.55	-2.7458	-2.9271	-2.7417	-2.8125	-2.8875	-2.8042	-2.9104	-2.4562	-2.7417	-2.8	-2.7042	-2.8625	-2.5854	-2.4854	64.119	63.027	136.452	-79.149	-11.189	-121.961	-40.724	13.901	130.992	205.138	13.145	-104.359	104.807	85.340	119.184	41.222	9.3733e-05	9.7764e-05	6.9055e-05	925.64	1.2502e-06	3.1552e-06	969.86	189.73	1.8687e-06	2.4133e-06	236.58	64.343	50.322	14.568	1.7328e-06	20.504	6.024e-05	5.3804e-05	1.4975e-05	916.66	6.221e-07	5.8105e-07	969.93	190.48	6.4425e-07	6.0752e-07	234.49	65.303	50.016	14.712	6.4772e-07	20.634	-126.542	-25.501	-75.337	-121.701	43.700	20.317	-121.544	-114.297	0.471	32.448	-114.794	-108.238	-108.584	-101.498	-7.396	-101.478	-8191	255	
1689.748	1	1	0	0	0.036641	0.2928	0.14203	0.14582	0.17916	0.18155	0.14438	0.045656	0.064758	0.19506	0.14143	0.16371	0.21958	0.10912	0.11745	0.19144	-2.475	-2.6833	-2.7208	-3.1688	-2.5812	-3.0083	-2.8937	-2.8187	-2.9896	-2.7979	-2.6875	-2.9146	-2.4333	-2.7812	-2.8375	-2.6729	-27.317	-11.726	134.009	132.442	-96.775	197.912	-106.720	-64.749	-22.937	-31.442	192.447	-107.721	145.349	175.837	157.099	-9.280	9.2514e-05	0.00019782	6.1106e-05	924.28	1.4993e-06	1.7715e-06	973.48	189.71	5.1331e-07	2.1715e-06	235.62	64.557	50.638	14.55	9.2905e-07	20.454	6.3098e-05	5.5498e-05	1.5365e-05	916.1	6.3646e-07	6.092e-07	971.8	190.54	6.4026e-07	6.0879e-07	234.45	65.406	50.087	14.747	6.2998e-07	20.673	-130.346	-45.983	-10.406	-121.706	9.371	-22.867	-121.766	-114.612	-41.871	6.316	-114.957	-108.617	-108.322	-101.154	-25.671	-101.259	-8191	255	
1689.844	1	1	0	0	0.10085	0.20791	0.1461	0.23653	0.20411	0.084345	0.15645	0.17603	0.30466	0.12858	0.064133	0.18303	0.22997	0.14054	0.045509	0.1556	-2.5208	-2.6083	-2.8042	-3.0479	-2.6167	-2.8187	-3.0292	-2.6458	-2.975	-2.9417	-2.6	-3.0021	-2.5417	-2.6708	-3.0021	-2.6625	-38.657	102.938	44.018	130.583	45.618	188.321	52.314	-122.530	-35.156	92.836	184.190	113.451	168.850	48.755	51.230	70.490	8.3776e-05	0.00022109	6.8257e-05	925.17	1.7003e-06	2.345e-06	974.05	190.51	2.8883e-06	1.515e-06	237.01	64.444	50.311	14.581	3.1967e-06	20.442	6.4087e-05	5.6908e-05	1.5731e-05	919.11	6.326e-07	6.219e-07	974.63	191	6.5296e-07	6.1869e-07	235.24	65.443	50.283	14.755	6.5189e-07	20.667	-126.534	-28.338	-42.258	-121.812	13.990	48.623	-121.700	-114.601	16.321	42.579	-114.871	-108.604	-108.692	-100.855	1.233	-101.792	-8191	255	
1689.940	1	1	0	0	0.15185	0.10855	0.099585	0.20849	0.20716	0.20184	0.14129	0.13497	0.048227	0.14319	0.11424	0.097265	0.095556	0.34604	0.044499	0.17172	-2.4542	-2.7208	-2.6375	-3.0354	-2.7333	-2.7229	-3.0917	-2.6646	-2.9208	-2.8063	-2.75	-3.0521	-2.7979	-2.6979	-2.9833	-2.6521	-19.991	111.197	133.202	189.236	3.940	213.265	24.371	-128.899	121.874	-89.745	132.846	198.237	219.470	176.699	92.765	80.829	9.3866e-05	8.728e-05	5.4857e-05	928.09	1.451e-06	1.8803e-06	978.41	190.32	2.3834e-06	2.2694e-06	236.24	64.617	49.926	14.713	4.2207e-07	20.424	6.6439e-05	5.9104e-05	1.6413e-05	921.73	6.694e-07	6.2882e-07	976.23	191.26	6.7165e-07	6.2592e-07	235.45	65.655	50.07	14.81	6.2187e-07	20.684	-130.626	-43.344	-66.761	-121.824	-4.625	18.289	-121.732	-114.781	-11.501	-17.642	-114.928	-108.313	-108.516	-101.199	-26.320	-101.777	-8191	255	
1690.036	1	1	0	0	0.039391	0.10961	0.15404	0.28458	0.18881	0.20973	0.37247	0.10802	0.21041	0.04325	0.09835	0.28262	0.038181	0.11718	0.029722	0.34129	-2.4208	-2.7125	-2.4479	-2.8208	-2.4917	-2.65	-3.125	-2.7438	-2.7083	-2.9583	-2.6625	-2.8521	-2.5979	-2.7083	-3.0687	-2.7521	16.027	223.836	158.731	215.141	116.288	-99.709	82.803	223.963	184.052	-73.794	197.923	202.000	-35.362	188.250	-59.431	144.270	9.3105e-05	0.00029805	5.153e-05	930.12	1.2314e-06	2.1058e-06	973.1	190.5	2.5161e-06	1.5351e-06	237.71	64.834	50.29	14.678	2.7214e-06	20.606	6.635e-05	5.7287e-05	1.6228e-05	922.56	6.6641e-07	6.5509e-07	977.22	191.24	6.57e-07	6.6744e-07	235.9	65.731	50.238	14.813	6.7826e-07	20.774	-124.026	-92.349	-59.665	-121.655	-8.354	61.223	-121.487	-114.777	30.209	-6.160	-115.173	-108.442	-108.233	-101.282	-15.923	-101.044	-8191	255	
1690.132	1	1	0	0	0.07722	0.17551	0.10831	0.058392	0.014289	0.15	0.30258	0.075685	0.094041	0.16177	0.13117	0.079416	0.21434	0.25457	0.15021	0.11453	-2.4583	-2.9167	-2.6312	-3.0083	-2.7667	-2.6312	-3.1354	-2.625	-2.75	-2.8354	-2.65	-2.9771	-2.7208	-2.5625	-2.9188	-2.6125	-89.474	65.177	172.492	-27.169	56.189	119.810	124.857	180.871	219.403	80.437	31.435	13.125	-74.530	149.685	-126.756	-63.160	0.00010763	0.00021468	7.2398e-05	929.3	1.0589e-06	1.5766e-06	981.05	191.12	1.953e-06	2.5722e-06	236.51	65.075	50.62	14.646	3.1839e-06	20.551	6.9391e-05	6.232e-05	1.7045e-05	924.74	7.148e-07	6.7921e-07	982.8	192.02	7.271e-07	6.914e-07	236.03	65.971	50.501	14.88	7.0992e-07	20.839	-122.794	-80.628	-81.169	-121.792	6.655	57.050	-121.611	-114.626	-15.408	6.266	-115.109	-108.388	-108.214	-101.042	-66.327	-101.728	-8191	255	
1690.253	1	1	0	0	0.14602	0.19702	0.10359	0.27262	0.22671	0.052613	0.01473	0.28431	0.20246	0.041922	0.17939	0.3485	0.065815	0.45293	0.26922	0.21843	-2.4437	-3.0208	-2.5104	-3.0771	-2.8125	-2.6688	-3.0979	-2.5792	-2.7	-3.0917	-2.65	-2.8375	-2.7938	-2.5583	-2.9854	-2.7146	-40.711	-107.372	114.855	-124.016	102.822	102.300	108.637	148.620	-51.851	-17.069	157.179	202.150	130.567	-3.153	55.510	-73.062	9.5027e-05	0.00023441	8.8871e-05	937.49	1.6784e-06	1.1778e-06	984.49	191.29	9.6348e-07	3.0428e-06	239.05	65	50.915	14.75	5.4646e-07	20.467	7.1227e-05	6.478e-05	1.7761e-05	932.42	7.1731e-07	7.0759e-07	984.84	192.34	7.2025e-07	6.7752e-07	236.93	65.899	50.702	14.916	6.9916e-07	20.839	-127.542	-50.175	-79.287	-121.693	-33.511	112.521	-121.866	-114.457	10.009	35.494	-114.864	-108.643	-108.019	-101.463	32.604	-101.475	-8191	255	
1690.349	1	1	0	0	0.23225	0.073119	0.14327	0.14634	0.32302	0.16688	0.18747	0.12869	0.2274	0.049422	0.11379	0.085285	0.211	0.075157	0.083013	0.14833	-2.4292	-3.0396	-2.7479	-3.0917	-2.7854	-2.45	-3.0625	-2.8063	-2.7417	-2.9792	-2.7104	-2.8375	-2.8812	-2.6354	-2.9958	-2.8333	211.625	-53.624	68.774	-128.925	46.359	59.492	93.613	226.950	74.750	10.751	96.401	-120.956	160.021	130.985	-41.955	29.444	8.3572e-05	0.00016127	7.3278e-05	935.29	1.707e-06	2.581e-06	984.28	191.85	1.5691e-06	1.7589e-06	240.07	65.474	50.486	14.698	1.6418e-06	20.56	7.2294e-05	6.365e-05	1.7825e-05	929.63	7.2578e-07	7.0886e-07	985.98	192.75	7.3221e-07	6.9451e-07	237.31	66.131	50.515	14.887	7.1573e-07	20.86	-122.115	-22.390	-28.870	-121.917	-14.336	-0.217	-121.528	-114.578	-2.003	57.126	-114.860	-108.916	-108.507	-101.413	-40.640	-101.337	-8191	255	
1690.445	1	1	0	0	0.23223	0.13074	0.29095	0.11842	0.30304	0.053658	0.12232	0.18032	0.18244	0.063704	0.16041	0.11641	0.038359	0.213	0.13829	0.19975	-2.1646	-2.7729	-2.65	-2.8875	-2.7417	-2.5187	-3.125	-2.7167	-2.6854	-2.9458	-2.6625	-2.8292	-2.8563	-2.7062	-2.7917	-2.6958	-103.128	3.976	-130.216	-92.882	-18.670	8.996	93.275	128.556	73.631	-36.895	54.874	-19.451	-70.584	-127.963	137.548	188.680	8.9917e-05	0.00025512	7.6164e-05	935.05	1.3715e-06	3.031e-06	982.76	192.12	1.6513e-06	1.7663e-06	238.7	65.316	51.298	14.705	1.2473e-06	20.549	7.3594e-05	6.3566e-05	1.7532e-05	930.56	7.2474e-07	6.9051e-07	984.84	192.42	7.1452e-07	6.8794e-07	237.09	66.001	50.65	14.875	6.9001e-07	20.841	-122.727	-70.859	-13.413	-121.513	57.689	42.680	-121.559	-114.715	-0.045	-0.803	-115.197	-108.422	-108.429	-101.507	-126.108	-101.193	-8191	255	
1690.541	1	1	0	0	0.26019	0.24995	0.077888	0.37477	0.14085	0.1454	0.32219	0.076985	0.1637	0.049901	0.1985	0.16596	0.22099	0.25612	0.093107	0.014551	-2.2792	-2.7667	-2.7438	-2.7708	-3.0271	-2.5979	-3.0062	-2.7583	-2.6167	-2.8146	-2.7292	-2.7812	-2.8667	-2.5333	-2.7646	-2.8854	-43.855	140.409	185.841	167.329	117.390	193.889	203.724	-124.427	-49.772	-110.958	124.860	-116.004	198.290	178.573	-28.296	59.750	0.00010786	0.00025572	8.3848e-05	935.51	5.6109e-07	1.2834e-06	985.08	191.33	2.1046e-06	1.8891e-06	237.61	65.251	51.049	14.798	1.2492e-06	20.475	6.9796e-05	6.3482e-05	1.7706e-05	931.44	7.1384e-07	6.6621e-07	986.61	192.89	7.2974e-07	7.109e-07	236.72	66.123	50.832	14.909	7.0025e-07	20.787	-123.217	-26.086	-39.326	-121.739	27.595	46.839	-121.677	-114.605	10.604	44.734	-114.839	-108.447	-108.360	-101.031	18.646	-101.611	-8191	255	
1690.636	1	1	0	0	0.3267	0.30618	0.097348	0.10385	0.27479	0.2213	0.35844	0.11778	0.02307	0.046328	0.30921	0.075769	0.19695	0.18484	0.083799	0.054517	-2.1833	-2.8979	-2.6875	-2.8646	-2.8083	-2.6167	-3.0042	-2.8042	-2.7958	-2.9333	-2.6042	-2.6688	-2.8937	-2.6188	-2.8312	-2.8792	7.715	92.962	-37.323	-42.375	225.870	-23.241	112.490	86.654	15.238	200.207	129.529	155.288	-120.890	178.147	-126.644	-68.470	0.0001315	0.00034528	8.8232e-05	937.59	8.4594e-07	6.605e-07	983.1	191.75	1.9962e-06	2.2905e-06	238.96	65.354	50.872	14.742	1.4894e-06	20.586	6.9855e-05	6.1397e-05	1.7314e-05	931.43	7.1172e-07	6.652e-07	986.76	192.98	7.0442e-07	6.8934e-07	237.65	66.205	50.766	14.912	7.0949e-07	20.831	-124.342	-68.603	-64.240	-121.812	-51.183	25.035	-121.778	-114.640	-28.841	12.677	-114.965	-108.491	-108.519	-101.372	-23.152	-101.848	-8191	255	
1690.732	1	1	0	0	0.2124	0.10352	0.17748	0.16164	0.19546	0.12379	0.16089	0.10968	0.19637	0.20298	0.16185	0.074938	0.24586	0.236	0.15147	0.10156	-2.1125	-2.9813	-2.7625	-2.8042	-2.9583	-2.6396	-2.8521	-2.9583	-2.5542	-2.6854	-2.9521	-2.725	-3.0458	-2.7417	-2.5854	-2.9688	-95.582	-86.808	147.805	107.178	-50.126	81.627	100.582	90.553	121.713	-3.510	-3.698	-0.638	14.439	-46.163	-100.214	106.616	0.00010327	0.00020124	7.5337e-05	938.36	4.5218e-07	2.8489e-06	986.28	192.69	1.1454e-06	2.7213e-06	239	65.083	50.82	14.758	1.5327e-06	20.477	7.1256e-05	6.3622e-05	1.7415e-05	932.92	7.2786e-07	6.8272e-07	988.99	193.09	7.3273e-07	6.8418e-07	237.42	66.147	50.731	14.899	6.8277e-07	20.81	225.253	-38.416	-14.023	-121.926	59.568	53.440	-121.661	-114.588	-36.750	42.143	-115.295	-108.372	-108.348	-101.832	-8.797	-101.247	-8191	255	
1690.828	1	1	0	0	0.141	0.11252	0.17599	0.14446	0.14429	0.19655	0.26924	0.079621	0.27144	0.17494	0.10481	0.06089	0.072667	0.16839	0.22874	0.050062	-2.2812	-2.7375	-2.75	-2.6312	-2.7708	-2.7833	-2.8688	-2.8458	-2.6333	-2.8	-2.8792	-2.5667	-2.9083	-2.6604	-2.7313	-2.8833	-51.164	100.128	65.342	220.772	-27.376	217.077	167.274	-61.181	-79.365	148.178	-121.597	184.877	133.062	-86.111	181.653	171.605	0.00010973	0.00013753	2.2585e-05	938.77	3.5359e-07	3.2262e-06	987.34	191.5	1.2201e-06	1.975e-06	237.86	64.926	50.493	14.69	1.6729e-06	20.532	7.0234e-05	6.3298e-05	1.7673e-05	932.01	7.1115e-07	6.7304e-07	987.39	192.85	6.8721e-07	6.8098e-07	237.02	66.028	50.664	14.876	6.6564e-07	20.854	-119.579	-14.643	-55.467	-121.848	46.545	58.532	-121.764	-114.663	-43.012	66.294	-115.195	-108.746	-108.342	-101.257	17.561	-101.507	-8191	255	
1690.949	1	1	0	0	0.21408	0.24909	0.15464	0.063953	0.19664	0.28313	0.13333	0.2106	0.29129	0.16662	0.1228	0.22568	0.12226	0.14196	0.049391	0.070749	-2.225	-2.6312	-2.7625	-2.7583	-2.7875	-2.725	-2.7729	-2.9917	-2.6917	-2.7438	-2.9667	-2.6208	-2.85	-2.6854	-2.5	-2.8771	-52.403	143.801	-118.447	225.194	193.323	214.228	181.956	181.527	96.734	98.600	-112.449	58.440	184.445	36.198	-82.898	169.164	0.00011283	0.00045741	6.5481e-05	939.81	1.973e-06	5.1559e-07	985.18	191.35	1.0353e-06	3.6455e-06	239.78	65.263	50.96	14.751	1.6072e-06	20.448	6.861e-05	6.238e-05	1.7467e-05	933.43	7.194e-07	6.7681e-07	988.61	192.68	6.8981e-07	6.6192e-07	237.66	66.089	50.61	14.932	6.8017e-07	20.812	-123.660	-27.075	-53.576	-121.734	-21.384	27.523	-121.528	-114.556	-60.726	25.133	-114.968	-108.407	-108.159	-101.483	21.750	-101.621	-8191	255	
1691.043	1	1	0	0	0.16272	0.22089	0.20629	0.11573	0.1998	0.047224	0.41506	0.21558	0.12365	0.2863	0.19174	0.15292	0.33602	0.28446	0.050138	0.044004	-2.4083	-2.725	-2.8104	-2.8604	-2.925	-2.8125	-2.7313	-3.1125	-2.775	-2.7833	-2.9271	-2.6479	-2.8854	-2.8521	-2.4771	-3.0062	111.047	22.236	147.474	178.459	63.631	-65.100	184.892	137.993	51.571	169.439	67.253	81.374	56.397	161.858	-93.773	-79.943	9.4967e-05	7.5311e-05	8.7237e-05	938.94	7.4064e-07	2.1073e-06	988.67	192.26	1.4019e-06	1.9772e-06	238.7	64.99	51.21	14.657	3.364e-06	20.657	6.8387e-05	6.2523e-05	1.7222e-05	932.04	7.1931e-07	6.6866e-07	987.41	192.92	6.9623e-07	6.6692e-07	236.74	66	50.723	14.868	6.5796e-07	20.819	-127.974	-37.883	-48.109	-121.565	20.466	7.692	-121.829	-114.639	35.936	-19.452	-115.006	-108.324	-108.247	-101.146	10.690	-101.260	-8191	255	
1691.139	1	1	0	0	0.14563	0.15052	0.15189	0.25384	0.14994	0.28915	0.26889	0.20254	0.054618	0.12637	0.14404	0.070181	0.12093	0.081697	0.28363	0.14693	-2.3875	-2.6583	-2.8792	-2.7896	-2.8333	-2.9333	-2.775	-2.9021	-2.6896	-2.6333	-2.9437	-2.6875	-2.8083	-2.8083	-2.4917	-2.8979	33.625	160.253	151.963	212.440	71.932	-129.483	172.382	-15.737	-87.090	-78.387	128.846	-54.397	174.337	163.199	96.229	189.564	0.00011301	0.00014146	8.2956e-05	938.03	1.1126e-06	2.6931e-06	984.96	191.65	2.535e-06	1.5824e-06	238.63	65.749	50.882	14.696	2.6549e-06	20.673	6.79e-05	6.091e-05	1.7194e-05	930.52	7.2456e-07	6.6678e-07	983.55	192.29	6.7767e-07	6.5956e-07	237.07	66.049	50.471	14.858	6.6715e-07	20.808	-121.051	-112.175	-63.469	-121.939	-12.939	7.237	-121.691	-114.832	-15.052	79.513	-115.326	-108.394	-108.479	-100.910	-11.747	-101.740	-8191	255	
1691.235	1	1	0	0	0.15984	0.2393	0.17453	0.3226	0.19639	0.17658	0.16822	0.26593	0.086319	0.24727	0.26037	0.31388	0.037212	0.29907	0.3844	0.236	-2.3604	-2.6625	-2.8167	-2.6542	-2.7167	-2.8729	-2.8083	-3.0583	-2.9833	-2.6375	-2.8958	-2.7646	-2.9979	-2.825	-2.6312	-3.0021	96.726	-113.536	177.280	160.297	145.997	198.652	106.392	172.071	197.737	-89.227	203.119	208.132	216.241	77.558	79.790	18.232	0.00011224	0.00013406	0.00010958	931.46	1.9625e-06	1.2714e-06	985.1	191.92	7.4614e-07	1.583e-06	239.88	65.345	50.734	14.667	1.1113e-06	20.584	7.0216e-05	5.9795e-05	1.6226e-05	926.6	7.0308e-07	6.5299e-07	983.05	192.34	6.9185e-07	6.6692e-07	237.59	65.928	50.407	14.805	6.4755e-07	20.779	-124.753	-43.635	-46.759	-121.677	30.293	36.071	-121.554	-114.534	75.788	25.568	-114.946	-108.778	-108.149	-100.887	-0.817	-101.418	-8191	255	
1691.332	1	1	0	0	0.13059	0.37012	0.1183	0.16621	0.20255	0.11465	0.20662	0.14073	0.21623	0.27031	0.13971	0.27814	0.26622	0.23354	0.13437	0.18012	-2.2729	-2.5312	-2.7438	-2.7854	-2.5229	-2.9292	-2.6896	-2.8104	-2.7562	-2.5375	-2.8396	-2.6625	-2.6021	-2.8583	-2.5812	-2.7021	79.361	-76.048	-65.850	158.337	122.197	-52.806	96.721	213.273	56.554	-7.371	209.519	-69.383	-83.284	195.102	-33.091	43.805	9.591e-05	0.00038307	9.9731e-05	931.51	6.1916e-07	7.679e-07	977.94	190.82	1.5037e-06	1.0638e-06	238.07	64.851	50.63	14.585	1.0817e-06	20.396	6.7633e-05	5.8501e-05	1.6956e-05	924.96	6.7426e-07	6.219e-07	981	191.54	6.5444e-07	6.5053e-07	236.88	65.838	50.365	14.798	6.6486e-07	20.705	-131.608	-66.932	-34.381	-121.890	-56.002	67.500	-121.759	-114.699	0.787	18.934	-115.208	-108.754	-108.322	-101.109	-28.171	-101.627	-8191	255	
1691.428	1	1	0	0	0.21408	0.2435	0.12548	0.12245	0.30335	0.32231	0.087802	0.096263	0.2425	0.161	0.2068	0.2151	0.039216	0.17079	0.10153	0.1718	-2.4521	-2.4771	-2.8125	-2.65	-2.5917	-2.9833	-2.7188	-2.8833	-2.7542	-2.6729	-2.8854	-2.8833	-2.4146	-3.0708	-2.5958	-2.8583	99.938	-96.349	134.395	185.452	60.778	-112.834	158.782	59.745	72.437	-118.223	219.412	-6.791	-70.605	99.216	8.254	40.464	0.00011368	0.00028841	7.2313e-05	929.56	1.7625e-06	3.9868e-06	977.89	190.88	2.222e-06	9.8171e-07	238.07	64.67	50.318	14.648	1.1365e-06	20.516	6.7595e-05	5.96e-05	1.6746e-05	926.48	6.7895e-07	6.5421e-07	981.47	191.59	6.778e-07	6.4861e-07	236.47	65.803	50.353	14.81	6.8715e-07	20.774	-126.367	-47.322	-43.937	-121.767	22.170	21.110	-121.595	-114.885	-13.503	12.508	-114.971	-108.551	-108.437	-101.311	-54.607	-101.661	-8191	255	
1691.524	1	1	0	0	0.28633	0.24155	0.10354	0.32669	0.098506	0.12706	0.34512	0.16224	0.26006	0.23383	0.017112	0.15354	0.14835	0.19723	0.22568	0.23665	-2.3958	-2.5396	-2.725	-2.7958	-2.675	-2.9458	-2.7812	-2.7292	-2.9083	-2.5563	-2.8833	-2.8354	-2.5667	-3.0812	-2.7	-2.6229	215.881	-4.940	156.991	165.821	-126.456	-37.303	162.158	199.736	145.188	36.872	204.624	110.246	200.591	97.670	-55.557	75.353	0.00010137	0.00028291	3.2331e-05	933.31	1.2738e-06	9.1241e-07	977.5	191.59	1.0107e-06	2.2814e-06	237.1	64.781	50.352	14.654	2.7118e-06	20.352	6.9283e-05	5.9763e-05	1.6629e-05	928.47	7.1519e-07	6.8876e-07	981.5	192.3	6.964e-07	6.8352e-07	236.53	65.854	50.498	14.845	6.9747e-07	20.746	-126.486	-24.461	-105.619	-121.813	-56.628	50.655	-121.850	-114.713	-45.055	18.695	-114.789	-108.521	-108.189	-101.163	0.206	-101.196	-8191	255	
1691.645	1	1	0	0	0.18168	0.11929	0.10191	0.066808	0.54982	0.24302	0.19469	0.036306	0.080495	0.0692	0.23626	0.29852	0.13133	0.12583	0.051447	0.02004	-2.5604	-2.5167	-2.6479	-2.9083	-2.3563	-2.8667	-3.0208	-2.7667	-2.9646	-2.4833	-2.9062	-2.9771	-2.6396	-2.8146	-2.5896	-2.5812	120.341	-85.057	155.956	176.406	30.728	71.504	178.898	39.644	-56.232	-14.355	54.347	-130.663	165.431	-128.245	150.417	185.345	0.00010347	0.00025348	8.2924e-05	934.72	1.1238e-06	2.0781e-06	981.52	191.91	1.9598e-06	2.3652e-06	239.65	64.862	50.583	14.724	2.6289e-06	20.671	7.0234e-05	6.5012e-05	1.77e-05	928.73	7.1888e-07	6.7821e-07	982.82	192.29	7.1075e-07	6.854e-07	237.37	65.981	50.492	14.858	6.9006e-07	20.866	-125.589	-23.719	-22.394	-121.644	-3.263	35.868	-121.610	-114.672	4.680	-21.550	-114.997	-108.629	-108.536	-101.314	-34.906	-101.439	-8191	255	
1691.741	1	1	0	0	0.059338	0.1906	0.29442	0.20164	0.12863	0.094805	0.27735	0.25275	0.19423	0.1853	0.026707	0.27364	0.16072	0.078578	0.11619	0.01672	-2.5896	-2.525	-2.5667	-2.9167	-2.6354	-2.8583	-2.925	-2.7354	-2.9437	-2.6354	-2.7146	-2.9583	-2.4583	-2.9062	-2.75	-2.7583	193.323	84.655	113.054	179.685	41.136	152.882	201.426	168.364	-75.328	-80.960	156.047	224.967	-80.633	-35.062	-127.877	71.158	0.00012206	0.00018611	5.3905e-05	936.59	2.3854e-06	1.6829e-06	983.12	191.37	1.7956e-06	2.9286e-06	239.38	64.887	50.894	14.668	3.2297e-06	20.632	7.249e-05	6.5299e-05	1.7983e-05	930.35	7.483e-07	7.2033e-07	984.8	192.44	7.228e-07	7.031e-07	237.52	65.909	50.689	14.858	7.038e-07	20.86	-119.996	-55.023	-45.775	-121.538	6.940	26.175	-121.669	-114.662	-0.693	-8.027	-114.766	-108.529	-107.890	-101.527	7.510	-101.381	-8191	255	
1691.837	1	1	0	0	0.13671	0.19319	0.2162	0.27756	0.23485	0.11437	0.27797	0.30075	0.19733	0.12408	0.10796	0.073409	0.17445	0.10812	0.3841	0.17132	-2.5208	-2.4875	-2.8063	-2.8646	-2.5479	-2.7812	-2.9354	-2.5604	-2.8479	-2.5062	-2.6312	-2.9854	-2.5146	-2.7625	-2.7438	-2.5438	198.575	-114.890	-74.639	136.263	-83.246	178.828	190.004	154.706	27.900	-21.967	39.464	1.640	-66.069	164.748	74.258	95.267	0.00011782	0.0001329	8.5652e-05	939.63	1.0474e-06	3.4862e-06	985.91	192.16	1.6815e-06	1.6627e-06	238.91	65.447	51.312	14.798	2.6798e-06	20.459	7.3587e-05	6.5787e-05	1.8764e-05	930.17	7.3954e-07	7.1446e-07	984.72	192.69	7.3694e-07	7.0673e-07	237.11	66.059	50.767	14.904	7.277e-07	20.822	-130.157	-45.234	-37.315	-121.582	116.538	-12.937	-121.711	-114.755	-0.676	46.605	-114.815	-108.801	-108.636	-101.161	-5.382	-101.363	-8191	255	
1691.933	1	1	0	0	0.26871	0.034899	0.16676	0.13011	0.03196	0.12937	0.25388	0.13183	0.059052	0.17754	0.32059	0.14082	0.12325	0.1897	0.075361	0.15733	-2.5438	-2.6646	-2.7687	-3.1063	-2.6375	-2.8688	-3.0604	-2.4542	-2.7542	-2.7958	-2.6896	-2.8333	-2.6437	-2.6354	-2.7792	-2.5979	168.383	170.351	196.476	130.961	219.428	150.036	181.589	-65.385	31.194	135.514	193.401	197.397	14.699	-20.962	187.819	108.592	0.00012226	0.00030476	6.3813e-05	939.06	1.2444e-06	1.7211e-06	985.67	192.71	1.4454e-06	1.8249e-06	238.73	65.162	50.78	14.741	2.1889e-06	20.5	7.3591e-05	6.6102e-05	1.8514e-05	932.56	7.5017e-07	7.0759e-07	984.91	192.99	7.6485e-07	7.1462e-07	237.51	66.227	50.588	14.891	7.0593e-07	20.797	-127.680	-15.175	-70.498	-121.819	-13.056	47.226	-121.669	-114.779	21.321	19.327	-115.090	-109.072	-107.753	-101.484	-15.527	-101.807	-8191	255	
1692.027	1	1	0	0	0.078626	0.15714	0.2811	0.13318	0.20738	0.17666	0.32173	0.0063411	0.12209	0.23622	0.22257	0.037859	0.11413	0.096149	0.14543	0.028383	-2.375	-2.6229	-2.6333	-3.0042	-2.6458	-2.8438	-3	-2.8417	-2.8563	-3.0167	-2.6979	-2.7229	-2.6354	-2.5312	-3.0229	-2.6437	128.509	193.908	-57.334	204.723	214.224	-96.333	208.158	43.195	224.627	211.095	176.916	11.826	205.260	139.233	-45.514	88.890	0.00010048	0.00036214	0.00010644	937.64	1.6515e-06	2.8984e-06	989.3	191.74	2.333e-08	1.1114e-06	240.09	65.013	51.055	14.778	5.6642e-07	20.717	7.481e-05	6.5295e-05	1.7946e-05	932.23	7.4848e-07	7.1534e-07	987.8	193.09	7.7786e-07	7.1742e-07	237.53	66.129	50.834	14.909	7.4653e-07	20.922	-132.261	-69.119	-68.776	-121.635	13.315	42.670	-121.641	-114.605	-64.660	47.192	-115.129	-108.502	-108.132	-101.516	25.953	-101.254	-8191	255	
1692.124	1	1	0	0	0.18993	0.16101	0.18322	0.26004	0.17569	0.11495	0.18242	0.18602	0.1477	0.19963	0.14289	0.072506	0.038218	0.26708	0.12801	0.15254	-2.4375	-2.8958	-2.6646	-2.9979	-2.6208	-2.5771	-3.0917	-2.6271	-2.7854	-2.6958	-2.5458	-2.7229	-2.5167	-2.7	-2.8542	-2.7042	114.167	65.700	-63.452	200.190	-65.593	106.667	91.923	169.666	28.681	-96.224	192.868	-43.386	-61.775	189.416	190.008	118.948	0.00011177	9.1853e-05	0.0001215	943.69	2.7913e-06	3.1768e-06	988.39	193.26	9.2618e-07	9.2686e-07	239.96	65.627	51.262	14.787	2.8092e-06	20.564	7.617e-05	6.726e-05	1.8612e-05	936.05	7.5772e-07	7.2142e-07	989.56	193.82	7.5302e-07	7.285e-07	238.29	66.304	50.99	14.95	7.2566e-07	20.876	-124.729	-65.090	-32.697	-121.700	-17.977	58.905	-121.695	-114.474	-71.184	8.144	-114.990	-108.415	-108.294	-101.821	-17.946	-101.547	-8191	255	
1692.244	1	1	0	0	0.12797	0.16789	0.20175	0.13272	0.13165	0.18254	0.21773	0.13774	0.26569	0.12098	0.20793	0.15909	0.16902	0.069486	0.15456	0.1041	-2.3771	-2.7479	-2.5729	-3.0187	-2.7125	-2.7396	-3.0938	-2.7833	-2.7125	-2.8688	-2.7771	-2.6562	-2.8458	-2.5521	-2.9354	-2.8563	119.337	-37.842	-65.161	221.594	125.585	163.813	178.078	175.358	133.655	-96.917	60.660	143.141	221.497	-130.388	-69.141	-27.982	0.0001039	0.00042593	5.8118e-05	946.43	9.274e-07	7.9317e-07	992.91	193.44	1.311e-06	1.9934e-06	240.26	65.486	51.539	14.842	2.2452e-06	20.719	7.5356e-05	6.7991e-05	1.8653e-05	938.13	7.9179e-07	7.3596e-07	993.43	194.1	7.7214e-07	7.4252e-07	239.02	66.386	51.046	14.979	7.5151e-07	20.961	-129.642	-55.678	-124.150	-121.490	-105.128	-81.491	-121.695	-114.747	-21.520	36.186	-115.167	-108.580	-108.178	-101.141	36.154	-101.534	-8191	255	
1692.340	1	1	0	0	0.056071	0.16031	0.046542	0.27876	0.094704	0.16201	0.035802	0.032502	0.077356	0.22953	0.019612	0.13057	0.18157	0.11693	0.20817	0.26109	-2.25	-2.7	-2.6833	-2.9437	-2.7583	-2.7042	-3.15	-2.7708	-2.5875	-2.8979	-2.8208	-2.8375	-2.9313	-2.4313	-2.8438	-2.6625	42.260	102.839	213.885	220.290	203.508	19.337	-101.068	-84.304	194.858	58.509	0.733	21.157	46.227	-42.353	120.105	67.149	0.00012831	0.00048485	0.00011193	948.57	1.9023e-06	9.7892e-07	992.21	193.57	8.7823e-07	9.4214e-07	240.19	65.475	51.328	14.678	1.0742e-06	20.523	7.7802e-05	6.9245e-05	1.8832e-05	940.94	7.881e-07	7.4108e-07	994.4	194.2	7.7639e-07	7.2136e-07	239.11	66.569	51.109	14.954	7.4258e-07	20.895	-118.311	-60.683	-46.860	-121.748	-12.526	-39.617	-121.724	-114.721	20.876	69.922	-114.802	-108.562	-108.268	-101.457	42.216	-101.135	-8191	255	
1692.436	1	1	0	0	0.092625	0.084324	0.25298	0.11646	0.10627	0.20501	0.17759	0.16463	0.090437	0.16268	0.06812	0.16491	0.16807	0.22349	0.32229	0.033468	-2.2521	-2.8396	-2.6354	-2.8042	-2.8125	-2.4167	-2.9729	-2.8229	-2.6625	-2.8937	-2.7396	-2.8146	-2.8271	-2.5062	-2.8729	-2.7833	74.032	-95.456	18.816	97.297	-13.095	213.489	-111.275	72.343	-130.221	147.624	-38.866	199.292	-60.477	141.971	134.794	52.831	0.00011681	4.2989e-05	4.7959e-05	948.18	2.1947e-06	3.2972e-06	1000	193.22	1.0173e-06	1.4538e-06	240.13	66.147	51.702	14.849	2.3772e-06	20.592	7.4613e-05	6.6793e-05	1.9074e-05	942.53	7.7243e-07	7.3088e-07	997.76	194.15	7.9091e-07	7.3183e-07	238.32	66.847	51.191	14.98	7.6973e-07	20.943	-128.650	-111.162	9.568	-121.918	-24.961	11.418	-121.720	-114.708	4.490	3.433	-114.963	-108.520	-108.464	-101.055	-3.433	-101.600	-8191	255	
1692.508	1	1	0	0	0.086445	0.26224	0.12173	0.2807	0.079072	0.17938	0.089937	0.078532	0.20803	0.28619	0.16259	0.051403	0.066121	0.16801	0.18491	0.10559	-2.2521	-2.9521	-2.5563	-2.8667	-2.9188	-2.7833	-2.9521	-2.9688	-2.4917	-2.8667	-2.6417	-2.8521	-2.8688	-2.6479	-2.9333	-2.7958	-129.448	141.601	81.127	151.293	-85.676	33.554	152.044	180.603	170.434	62.977	-68.917	-61.760	79.312	174.346	86.768	-33.563	0.00012837	9.8988e-05	9.9163e-05	949.19	1.141e-06	1.2202e-06	997.66	193.79	8.3095e-07	2.9415e-06	240.46	65.837	51.215	14.85	2.2671e-06	20.748	7.5397e-05	6.6318e-05	1.8417e-05	942.25	7.4891e-07	7.0483e-07	995.56	194.32	7.4166e-07	7.0108e-07	239.03	66.494	51.084	14.998	7.2497e-07	20.944	-132.145	-67.169	-77.304	-121.856	91.879	-10.584	-121.717	-114.418	20.384	3.083	-115.049	-108.246	-108.173	-101.780	-6.250	-101.896	-8191	255	
1692.629	1	1	0	0	0.1378	0.16626	0.26906	0.064249	0.1226	0.18189	0.29884	0.055635	0.16329	0.020967	0.3084	0.21273	0.20439	0.17545	0.16397	0.12432	-2.1896	-2.7667	-2.5042	-2.7396	-2.9604	-2.6188	-3.0979	-2.8146	-2.6458	-2.7896	-2.8104	-2.7417	-2.95	-2.5875	-2.8333	-2.775	98.950	-58.726	3.891	-128.053	8.523	81.084	161.103	79.490	47.456	177.520	175.672	156.100	-41.723	-90.609	38.574	169.784	9.8102e-05	0.00028643	6.5278e-05	945.5	2.5638e-06	2.4194e-06	995.29	193.33	7.7921e-07	2.0278e-06	241.39	65.674	51.125	14.86	3.2192e-06	20.688	7.0298e-05	6.488e-05	1.7797e-05	940.55	7.5069e-07	7.1372e-07	994.83	194.2	7.3464e-07	7.116e-07	238.81	66.57	50.976	14.962	7.1274e-07	20.92	-123.043	-50.980	-44.866	-121.574	6.321	7.463	-121.685	-114.905	-31.699	-49.166	-114.842	-108.629	-108.538	-101.168	17.787	-101.545	-8191	255	
1692.725	1	1	0	0	0.075683	0.32668	0.064409	0.14674	0.092115	0.13672	0.12913	0.23333	0.071868	0.14401	0.079608	0.13835	0.34521	0.082446	0.11594	0.19003	-2.1	-2.7875	-2.7708	-2.6729	-3.0479	-2.6146	-3.0062	-2.9625	-2.6188	-2.7938	-2.6688	-2.6667	-2.8563	-2.575	-2.7479	-3.05	180.095	-104.590	90.064	220.891	124.549	159.479	170.852	-100.469	41.759	58.821	-118.640	199.404	116.943	-4.442	-8.891	185.431	0.00011285	0.00026927	0.00011587	949.41	1.2679e-06	1.915e-06	993.67	193.75	7.3615e-07	9.2092e-07	241.03	66.023	51.008	14.787	1.6553e-06	20.71	7.3721e-05	6.5072e-05	1.8117e-05	941.06	7.3958e-07	6.9261e-07	994.72	194.1	7.4474e-07	7.2846e-07	238.8	66.574	51.127	14.955	7.2592e-07	20.934	-132.029	-31.728	-96.202	-121.700	-23.987	63.046	-121.960	-114.442	-16.739	-28.590	-114.933	-108.615	-108.259	-101.565	-0.780	-101.167	-8191	255	
1692.821	1	1	0	0	0.1278	0.17708	0.090883	0.14261	0.06564	0.10952	0.35083	0.16516	0.12366	0.10712	0.17655	0.15555	0.22778	0.25205	0.21243	0.23065	-2.0292	-2.7125	-2.8604	-2.7417	-2.8833	-2.7646	-2.7271	-2.9125	-2.5667	-2.8667	-2.8125	-2.6667	-2.7938	-2.6792	-2.5583	-2.9021	201.573	-106.681	210.533	224.764	-99.960	98.218	17.483	-111.397	-96.507	194.455	-124.148	-7.209	-67.712	225.644	14.637	218.046	0.00012336	7.1366e-05	0.0001013	945.74	1.5037e-06	2.255e-06	991.54	193.87	1.1859e-06	5.2299e-06	241.89	65.543	51.093	14.781	1.5047e-06	20.877	7.3665e-05	6.6346e-05	1.804e-05	938.61	7.6779e-07	7.0526e-07	990.82	194.15	7.2762e-07	7.1952e-07	238.48	66.445	50.944	14.943	7.0892e-07	20.913	-127.019	-58.651	-52.463	-121.866	-11.571	-1.358	-121.668	-114.675	-25.331	7.421	-115.042	-108.667	-108.756	-101.235	6.663	-101.555	-8191	255	
1692.917	1	1	0	0	0.18237	0.17567	0.20878	0.047754	0.34571	0.12312	0.2605	0.27381	0.12845	0.21567	0.11345	0.10089	0.21912	0.19815	0.15584	0.16412	-2.275	-2.6729	-2.8063	-2.7875	-2.8167	-2.7146	-3.0208	-2.9458	-2.675	-2.7771	-2.9292	-2.4938	-2.8458	-2.7021	-2.7479	-3.0146	35.555	-23.266	-32.756	42.129	-53.225	-116.577	161.200	120.264	62.342	120.797	207.313	105.104	104.445	170.285	123.776	-13.220	0.00011013	0.00036749	8.5568e-05	945.3	1.1011e-06	5.891e-07	993.05	193.44	1.4041e-06	9.0151e-07	239.01	66.043	51.08	14.795	2.2435e-06	20.52	7.0892e-05	6.4648e-05	1.763e-05	938.33	7.4244e-07	7.0347e-07	993.31	194.01	7.4075e-07	7.2566e-07	238.5	66.515	50.92	14.962	6.9313e-07	20.846	-130.216	-59.118	-73.992	-121.733	-6.062	19.927	-121.539	-114.455	32.141	14.199	-115.061	-108.506	-108.401	-101.479	2.445	-101.849	-8191	255	
1693.036	1	1	0	0	0.18024	0.21815	0.1098	0.1744	0.13545	0.10275	0.13142	0.04758	0.009237	0.16561	0.20961	0.25915	0.069473	0.10641	0.18685	0.089518	-2.3396	-2.7854	-2.925	-2.6312	-2.7375	-2.8208	-2.6521	-3.0146	-2.625	-2.8792	-3.0687	-2.5604	-2.8708	-2.85	-2.5792	-2.9437	-18.916	-55.838	152.527	136.218	-18.708	225.941	-129.411	224.315	28.267	-132.046	37.687	70.559	-109.943	26.811	117.700	25.501	0.00010958	0.00016286	8.5316e-05	940.51	2.203e-06	1.536e-06	988.16	192.27	2.8237e-07	2.253e-06	240.39	65.373	51.05	14.658	2.1932e-06	20.714	6.9915e-05	6.4896e-05	1.7537e-05	935.82	7.3025e-07	6.8385e-07	988.75	193.36	7.2532e-07	6.9885e-07	238.2	66.283	50.767	14.894	6.894e-07	20.864	-128.868	-69.603	-4.833	-121.724	11.228	9.464	-121.668	-114.646	41.912	75.157	-115.173	-108.903	-108.263	-101.264	18.489	-101.801	-8191	255	
1693.108	1	1	0	0	0.24375	0.16272	0.042725	0.014269	0.15349	0.17936	0.14655	0.068775	0.15001	0.1039	0.083195	0.087552	0.17451	0.074518	0.16976	0.078329	-2.4271	-2.6208	-2.9188	-2.775	-2.9333	-2.9396	-2.7542	-2.9375	-2.75	-2.7104	-3.0563	-2.6458	-2.8083	-2.6917	-2.4396	-2.9042	-92.955	66.021	16.973	90.261	-26.695	-47.428	74.977	216.173	59.483	194.450	188.279	14.077	180.253	138.489	-3.533	-96.074	0.00012398	0.00016985	7.3592e-05	943.16	2.2963e-06	1.5163e-06	991.08	194.07	1.5037e-06	1.507e-06	240.01	65.588	51.194	14.822	2.4215e-06	20.683	6.7164e-05	6.061e-05	1.7232e-05	937.45	7.112e-07	6.8499e-07	991.7	193.77	7.1101e-07	6.5807e-07	238.19	66.366	51.036	14.96	6.983e-07	20.881	226.503	-20.960	-32.986	-121.669	48.967	85.386	-121.686	-114.599	9.792	-9.189	-114.904	-108.939	-108.270	-101.115	-2.132	-101.608	-8191	255	
1693.206	1	1	0	0	0.19662	0.23433	0.10976	0.15348	0.15429	0.038873	0.13329	0.19703	0.26218	0.039172	0.10035	0.27172	0.15622	0.18886	0.12064	0.13712	-2.2812	-2.5958	-2.9417	-2.6167	-2.8438	-2.9604	-2.7687	-3.1125	-2.7646	-2.6396	-3.0458	-2.5687	-2.6292	-2.9625	-2.5771	-2.9479	-29.270	-39.236	-88.282	-108.954	-103.601	-37.219	205.443	113.507	94.306	-37.103	-118.219	-96.072	74.020	154.332	-84.058	187.426	0.00010654	0.00028352	2.8273e-05	945.76	1.6588e-06	1.9837e-06	989.13	193.19	1.2912e-06	2.0725e-06	240.98	65.645	50.971	14.724	1.8183e-06	20.577	7.1732e-05	6.367e-05	1.7164e-05	936.88	7.1697e-07	6.8863e-07	989.03	193.73	7.2202e-07	6.8312e-07	238.34	66.477	50.726	14.92	6.9951e-07	20.798	-124.764	-70.324	-45.745	-121.787	-13.539	69.216	-121.665	-114.740	-19.994	53.240	-115.360	-108.724	-107.639	-100.906	-9.257	-101.544	-8191	255	
1693.325	1	1	0	0	0.31925	0.06216	0.1195	0.070115	0.12287	0.25119	0.15186	0.053249	0.14396	0.20444	0.20847	0.054805	0.103	0.0839	0.087932	0.0902	-2.3583	-2.5146	-2.9688	-2.6271	-2.5979	-2.9104	-2.8125	-2.7417	-2.7979	-2.6021	-2.9646	-2.8417	-2.5771	-3.0167	-2.6146	-2.8792	170.206	-46.956	98.080	62.190	-52.016	-118.704	95.844	-83.206	-121.297	206.844	217.653	8.675	-31.795	19.169	134.305	101.776	9.8205e-05	9.454e-05	2.8836e-05	939.57	1.8288e-06	1.3594e-06	986.44	191.48	1.1465e-06	3.4791e-06	238.85	65.455	51.014	14.747	3.0397e-06	20.452	6.8276e-05	6.2268e-05	1.7285e-05	931.98	7.1002e-07	6.6358e-07	985.54	192.97	7.1825e-07	6.7419e-07	237.59	66.222	50.579	14.904	6.8125e-07	20.757	226.964	-27.687	-0.008	-121.691	13.979	13.313	-121.721	-114.455	26.401	-1.965	-114.999	-108.506	-108.374	-101.513	-11.498	-101.500	-8191	255	
1693.421	1	1	0	0	0.17538	0.33028	0.063925	0.31331	0.057755	0.018578	0.13725	0.11046	0.38262	0.32566	0.24291	0.13972	0.048111	0.12759	0.22713	0.053586	-2.3292	-2.5125	-2.6	-2.8875	-2.7292	-3.0083	-2.7604	-2.9396	-3.0354	-2.5604	-3.0271	-2.7458	-2.6104	-2.7375	-2.5687	-2.7229	18.197	-82.048	8.158	190.093	225.744	51.527	211.419	66.052	-92.660	88.886	-98.297	-78.521	139.900	138.322	171.276	43.000	0.00010436	0.00012624	1.2658e-05	935.8	2.34e-06	1.8977e-06	978.56	191.51	1.2594e-06	1.2889e-06	237.92	64.768	50.476	14.719	2.5486e-06	20.563	6.7168e-05	5.9228e-05	1.6359e-05	927.4	6.8246e-07	6.3963e-07	980.81	192.68	6.6376e-07	6.2311e-07	236.64	65.785	50.256	14.842	6.2847e-07	20.753	-126.159	-62.464	-83.624	-121.780	31.111	-8.720	-121.614	-114.658	-24.964	-23.909	-115.128	-108.862	-108.366	-101.114	33.856	-101.332	-8191	255	
1693.517	1	1	0	0	0.047376	0.19976	0.080852	0.12327	0.22565	0.13833	0.3006	0.13293	0.069147	0.13758	0.18424	0.153	0.25851	0.21049	0.076164	0.24197	-2.3458	-2.5583	-3.0833	-2.7667	-2.7354	-3	-2.8667	-2.9042	-2.9729	-2.6646	-3.0875	-2.8729	-2.6646	-3.025	-2.825	-2.7729	-73.031	3.091	37.649	90.528	159.042	-43.792	144.324	-126.556	-108.842	204.612	-61.247	186.637	-130.248	55.059	57.740	92.846	0.00012516	0.00030884	6.9391e-05	934.3	1.8194e-06	2.2495e-06	984.36	191.96	8.5901e-07	1.8793e-06	237.47	64.984	50.872	14.712	1.8964e-06	20.566	6.4042e-05	5.7986e-05	1.6218e-05	926.3	6.5881e-07	6.2352e-07	982.72	192.3	6.5097e-07	6.1111e-07	236.64	65.846	50.483	14.851	6.2638e-07	20.706	-125.521	-94.786	-73.934	-121.788	-26.273	-53.791	-121.598	-114.544	-4.665	22.338	-114.736	-108.769	-108.404	-101.598	-18.571	-101.526	-8191	255	
1693.637	1	1	0	0	0.1249	0.18768	0.18998	0.13173	0.11702	0.22407	0.20742	0.051222	0.20873	0.23378	0.064133	0.13555	0.25141	0.1306	0.086889	0.058018	-2.5271	-2.6625	-2.7021	-2.8542	-2.5292	-3.0979	-2.925	-2.8	-2.9479	-2.6271	-2.7375	-2.7708	-2.5146	-2.8021	-2.5208	-2.9146	120.120	220.559	-65.954	175.768	-37.154	-119.080	194.001	78.959	-49.394	-34.220	116.059	-6.160	120.364	-120.883	-44.050	55.703	0.00010418	0.00021804	0.00011058	928.57	1.3282e-06	2.3026e-06	979.02	191.39	2.2229e-06	2.8766e-06	237.41	65.244	50.318	14.632	9.782e-07	20.548	6.4443e-05	5.6752e-05	1.5758e-05	923.57	6.6107e-07	6.2216e-07	978.61	191.87	6.214e-07	6.0708e-07	236.03	65.991	50.306	14.81	6.5089e-07	20.746	-120.302	-42.286	-49.824	-121.745	-51.992	61.306	-121.490	-114.810	-6.284	17.222	-114.882	-108.565	-108.377	-101.253	26.468	-101.524	-8191	255	
1693.709	1	1	0	0	0.087688	0.15349	0.17642	0.13521	0.035912	0.16539	0.1627	0.11641	0.11906	0.092781	0.13132	0.20416	0.29397	0.22761	0.095572	0.078895	-2.5917	-2.8042	-2.6917	-2.9604	-2.5625	-2.8042	-2.7812	-2.9333	-2.9708	-2.7167	-2.7917	-3.0146	-2.7021	-2.9208	-2.8042	-2.7812	103.810	-12.377	166.721	195.218	-85.516	-92.106	-95.381	155.452	157.809	181.576	-107.884	180.174	81.629	179.143	116.687	163.311	9.8745e-05	0.00022561	4.9394e-05	930.47	2.3122e-06	2.3437e-07	979.57	191.71	8.0269e-07	2.4767e-06	238.61	64.86	50.748	14.558	2.5772e-07	20.462	6.3295e-05	5.501e-05	1.5736e-05	925.78	6.3841e-07	5.9721e-07	981.56	192.27	6.6181e-07	6.0822e-07	236.89	65.818	50.363	14.811	6.2539e-07	20.738	-129.261	-36.900	-61.098	-121.954	-14.068	90.691	-121.682	-114.518	-0.710	32.493	-114.898	-108.560	-108.725	-100.760	48.430	-101.639	-8191	255	
1693.805	1	1	0	0	0.22235	0.047725	0.17014	0.025541	0.13069	0.11906	0.26593	0.30138	0.19541	0.14943	0.30452	0.13716	0.10782	0.18374	0.11998	0.02655	-2.5792	-2.4083	-2.6167	-3.0167	-2.5979	-3.0312	-2.8833	-2.5417	-3.1667	-2.6646	-2.8417	-3.1625	-2.5854	-2.8063	-2.6813	-2.5146	-111.755	128.911	211.269	-60.337	-131.532	224.920	218.410	177.813	-120.242	68.842	208.340	145.063	148.221	148.588	108.465	220.837	0.00011662	0.00023168	5.9894e-05	931.17	3.2773e-07	2.2853e-06	981.74	191.39	1.6971e-06	6.7409e-07	237.35	64.667	50.527	14.552	8.265e-07	20.481	6.3537e-05	5.7103e-05	1.57e-05	927.2	6.5799e-07	6.3727e-07	983.22	192.04	6.5413e-07	6.2613e-07	236.38	65.764	50.367	14.796	6.2621e-07	20.773	-123.407	-66.871	-56.031	-121.728	-98.184	5.806	-121.845	-114.637	-22.969	101.337	-114.730	-108.627	-108.490	-101.237	44.466	-101.365	-8191	255	
1693.926	1	1	0	0	0.21324	0.067526	0.033958	0.17132	0.13512	0.11392	0.26903	0.081226	0.26883	0.035119	0.11378	0.29405	0.020855	0.16111	0.11459	0.14859	-2.5208	-2.7188	-2.4771	-3.2167	-2.6333	-2.8667	-3.0583	-2.5583	-2.8854	-2.8042	-2.6979	-2.7854	-2.5229	-2.85	-2.7896	-2.6542	131.154	143.189	-80.763	159.556	-31.262	-131.499	145.263	111.576	-12.776	207.380	-60.809	133.263	220.175	195.908	111.472	-1.419	0.00010165	0.00019425	0.00011882	933.64	8.6424e-07	1.6048e-06	980	191.19	3.0378e-06	1.5709e-06	238.84	65.095	50.631	14.609	1.7786e-06	20.585	6.538e-05	5.6205e-05	1.588e-05	927.48	6.5538e-07	6.3871e-07	980.61	192.18	6.5955e-07	6.1553e-07	236.48	66.045	50.375	14.838	6.2465e-07	20.759	-122.543	-61.266	-28.493	-121.755	89.348	23.828	-121.553	-114.710	5.336	-11.269	-115.079	-108.742	-108.253	-101.647	23.222	-101.332	-8191	255	
1694.020	1	1	0	0	0.048389	0.22776	0.20282	0.14869	0.1426	0.19681	0.17997	0.14975	0.20677	0.15337	0.054945	0.12354	0.11345	0.13023	0.13366	0.16728	-2.4271	-2.7979	-2.525	-3.0312	-2.5563	-2.6979	-3.0354	-2.7604	-2.875	-2.9021	-2.7854	-2.825	-2.6146	-2.7229	-2.9125	-2.9437	48.239	-41.047	138.681	139.645	-81.819	-86.450	171.321	-7.013	4.043	-85.688	-120.603	81.308	-98.601	-65.140	46.362	68.840	0.0001205	0.00022786	3.2886e-05	933.76	1.1307e-06	1.9849e-06	986.07	191.63	1.6886e-06	2.0204e-06	238.26	65.1	50.826	14.724	3.0077e-06	20.659	6.7432e-05	5.7023e-05	1.5975e-05	927.57	6.5304e-07	6.3434e-07	983.13	191.98	6.7629e-07	6.3612e-07	236.78	66.034	50.531	14.857	6.6004e-07	20.776	-113.701	-117.407	-92.285	-121.580	26.495	11.966	-121.557	-114.565	-35.359	59.055	-114.879	-108.968	-108.476	-101.588	-1.017	-101.347	-8191	255	
1694.116	1	1	0	0	0.074069	0.1415	0.085411	0.072687	0.11874	0.26464	0.37255	0.16419	0.20859	0.29275	0.27295	0.30723	0.26594	0.029696	0.13256	0.040318	-2.375	-2.8438	-2.6104	-2.9396	-2.7396	-2.7812	-3.0229	-2.6271	-2.775	-2.975	-2.65	-2.975	-2.6958	-2.5583	-3.0521	-2.6312	-129.080	-116.978	-12.805	45.801	78.967	-114.103	120.366	0.132	142.246	222.051	48.785	83.502	8.758	156.009	154.940	-33.439	0.00010349	0.00019822	4.0351e-05	934.31	1.8563e-06	2.4157e-06	985.29	191.06	6.851e-07	1.6069e-06	239.52	64.79	50.598	14.652	2.1321e-06	20.635	6.7261e-05	5.7527e-05	1.5991e-05	928.57	6.9084e-07	6.4659e-07	983.29	192.32	6.7754e-07	6.5575e-07	236.84	65.869	50.464	14.844	6.3649e-07	20.772	-127.784	-70.599	10.372	-121.888	39.763	13.139	-121.711	-114.727	-35.899	31.827	-114.940	-108.970	-108.314	-101.504	-1.744	-101.310	-8191	255	
1694.213	1	1	0	0	0.066428	0.093027	0.071491	0.24616	0.042501	0.10513	0.056876	0.4161	0.18868	0.20334	0.080631	0.17294	0.0685	0.079688	0.25133	0.19251	-2.2604	-2.6917	-2.4938	-2.9083	-2.7708	-2.7604	-3.0708	-2.7417	-2.8063	-2.8312	-2.6437	-2.8792	-2.9104	-2.7	-3.0271	-2.6208	132.853	-91.167	-3.870	-119.256	213.714	143.448	187.368	94.891	136.196	227.495	171.908	-31.058	88.888	-39.571	158.454	98.553	0.00012497	0.00023093	8.719e-05	935.07	3.6971e-07	2.8465e-06	985.44	191.94	1.1429e-06	2.8914e-06	237.95	65.233	50.871	14.589	9.4245e-07	20.407	6.5975e-05	5.8941e-05	1.5748e-05	928.76	6.5872e-07	6.3237e-07	983.41	192.59	6.5903e-07	6.4668e-07	236.19	65.904	50.659	14.83	6.2157e-07	20.736	-125.483	-25.915	-74.924	-121.557	220.874	27.331	-121.783	-114.500	41.709	21.066	-114.706	-108.900	-108.602	-101.310	34.520	-101.702	-8191	255	
1694.333	1	1	0	0	0.040927	0.15717	0.10119	0.23996	0.21568	0.22772	0.337	0.25355	0.17831	0.19947	0.052159	0.1719	0.16225	0.21484	0.2432	0.073811	-2.2417	-3.0604	-2.5667	-2.9437	-2.7729	-2.7729	-2.9708	-2.8271	-2.7667	-3.1458	-2.575	-2.8729	-2.9292	-2.675	-2.9417	-2.7042	100.734	-12.529	-76.451	146.322	-129.086	-67.644	136.232	51.994	54.118	174.605	123.220	140.889	52.786	-58.486	204.751	194.627	0.00011987	0.00025015	8.5008e-05	931.1	5.5263e-07	1.7766e-06	979.16	191.79	2.5015e-06	1.3349e-06	239.39	65.017	50.382	14.705	2.6091e-06	20.599	6.4562e-05	5.7327e-05	1.5448e-05	926.46	6.5525e-07	6.1748e-07	980.41	192.38	6.4941e-07	6.2999e-07	236.79	65.983	50.269	14.839	6.0288e-07	20.729	-124.793	-12.315	-39.127	-121.730	2.018	44.176	-121.568	-114.689	-6.987	93.596	-114.998	-108.576	-107.834	-100.963	17.731	-101.564	-8191	255	
1694.405	1	1	0	0	0.2318	0.11805	0.10399	0.086609	0.23038	0.1787	0.38446	0.13838	0.22043	0.23372	0.053302	0.23251	0.087066	0.22479	0.15013	0.016022	-2.1896	-3.1063	-2.7375	-2.8375	-2.8271	-2.7583	-3.1396	-2.8438	-2.7521	-3.3104	-2.7083	-2.6958	-2.875	-2.7021	-3.1854	-3.0729	-68.331	-42.702	0.453	-82.908	175.145	-8.399	181.736	180.459	-93.913	-120.228	-109.038	99.127	-98.508	210.230	40.084	148.968	0.00012062	8.1846e-05	0.00011362	934.04	5.4009e-07	2.0333e-06	977.89	191.69	1.4346e-06	4.0642e-06	237.8	64.9	50.964	14.626	2.1054e-06	20.635	6.4343e-05	5.648e-05	1.5354e-05	926.01	6.3464e-07	6.1087e-07	980.53	192.08	6.6302e-07	5.9845e-07	236.65	65.733	50.488	14.838	6.22e-07	20.812	-130.660	-62.725	-68.700	-121.732	40.064	49.762	-121.840	-114.634	-11.917	25.019	-114.847	-108.193	-107.876	-101.173	-5.936	-101.756	-8191	255	
1694.501	1	1	0	0	0.17052	0.076811	0.17291	0.31245	0.19579	0.16459	0.30732	0.34654	0.26325	0.18255	0.26804	0.19303	0.24435	0.23121	0.32237	0.16399	-2.4417	-2.7687	-2.6813	-2.8854	-3.075	-2.6292	-2.9062	-2.7	-2.5625	-2.9875	-2.5375	-2.7792	-2.7333	-2.6208	-2.9313	-2.9208	72.624	170.786	101.205	170.841	120.021	129.657	198.573	173.020	166.759	67.494	84.684	137.443	13.289	205.018	-113.581	17.162	0.00011783	0.00019869	3.2776e-05	935.29	1.1504e-06	7.7809e-07	978.95	191.81	9.4262e-07	1.4418e-06	238.77	65.043	50.123	14.644	1.8078e-06	20.581	6.5685e-05	5.8162e-05	1.5645e-05	926.61	6.388e-07	6.1218e-07	982.02	192.5	6.413e-07	5.9788e-07	236.86	65.889	50.369	14.841	6.2638e-07	20.756	-121.018	-33.618	-12.882	-121.567	-62.764	-30.423	-121.454	-114.606	-47.618	49.385	-114.912	-108.554	-108.292	-101.131	-49.890	-101.401	-8191	255	
1694.597	1	1	0	0	0.096955	0.10722	0.19808	0.058023	0.2945	0.095737	0.053577	0.1323	0.31781	0.16255	0.075525	0.43562	0.1977	0.068155	0.11942	0.035801	-2.2	-2.9646	-2.6042	-2.7062	-3.0062	-2.4938	-3.1354	-2.8208	-2.6562	-2.8375	-2.6896	-2.7	-2.7958	-2.5854	-2.8729	-2.9521	133.385	-103.957	162.675	84.765	-43.960	122.871	-82.564	-81.958	36.091	-63.783	71.071	221.189	-123.677	201.274	159.234	138.802	8.8734e-05	0.00012053	9.9191e-05	935.13	2.1242e-06	2.235e-06	982.9	192.07	9.6497e-07	1.4368e-06	238.81	65.147	50.491	14.874	1.2405e-06	20.483	6.2343e-05	5.5266e-05	1.5684e-05	928.87	6.3455e-07	6.0382e-07	981.83	192.58	6.371e-07	6.3704e-07	236.9	65.988	50.422	14.898	5.949e-07	20.701	-130.887	-17.905	-55.768	-121.759	-32.227	20.618	-121.641	-114.670	-7.560	14.506	-114.671	-108.768	-107.819	-101.234	-31.930	-101.751	-8191	255	
1694.718	1	1	0	0	0.05886	0.13201	0.17851	0.071877	0.049826	0.030807	0.28085	0.24566	0.13132	0.072027	0.20165	0.1018	0.082313	0.063235	0.16966	0.10889	-2.3542	-2.9625	-2.4854	-2.8271	-2.8958	-2.5479	-2.9688	-2.9625	-2.6229	-3.0938	-2.7896	-2.7125	-2.9667	-2.6771	-2.7896	-2.9146	-131.399	59.648	-82.604	155.007	180.462	-30.409	144.934	203.554	165.310	-70.420	191.135	150.720	86.939	-47.992	-37.779	40.317	9.1534e-05	0.00024735	4.1412e-05	936.6	1.3888e-06	1.8313e-06	984.12	192.11	1.9818e-06	2.1341e-06	239.5	64.859	51.125	14.706	1.9335e-06	20.488	6.2053e-05	5.5638e-05	1.5093e-05	928.2	6.3876e-07	6.0986e-07	981.89	192.29	6.2838e-07	6.2504e-07	236.98	65.918	50.425	14.855	6.3549e-07	20.704	225.234	-63.841	-70.981	-121.804	-23.512	42.330	-121.662	-114.677	-13.716	31.861	-114.984	-108.313	-108.476	-101.362	10.430	-101.247	-8191	255	
1694.814	1	1	0	0	0.12498	0.061725	0.2555	0.21351	0.14821	0.20819	0.041734	0.15325	0.12665	0.18289	0.17032	0.19503	0.14682	0.10077	0.032014	0.15838	-2.1833	-2.8833	-2.6917	-2.8292	-3.0563	-2.675	-2.7771	-2.9583	-2.7062	-3.0062	-3.0104	-2.7521	-2.9562	-2.7313	-2.5958	-2.9167	144.478	-12.470	225.322	182.125	155.742	-83.289	161.641	51.371	178.660	53.841	183.138	126.188	23.326	-103.727	141.453	142.119	0.00011689	0.00019734	6.658e-05	934.34	4.0059e-07	2.2023e-06	980.01	191.78	1.4047e-06	2.0354e-06	238.06	65.244	50.976	14.792	1.4274e-06	20.466	6.4819e-05	5.6356e-05	1.5637e-05	927.33	6.6194e-07	6.092e-07	980.27	192.09	6.4676e-07	6.1562e-07	236.76	65.972	50.419	14.843	6.0956e-07	20.762	-118.957	-48.632	-32.098	-121.720	-27.110	-16.467	-121.518	-114.402	47.450	-13.596	-114.975	-108.580	-108.443	-101.096	-39.531	-101.723	-8191	255	
1694.910	1	1	0	0	0.13856	0.089822	0.16554	0.088492	0.19478	0.097171	0.28582	0.12701	0.24638	0.1555	0.2949	0.1157	0.17216	0.12592	0.20048	0.11053	-2.2521	-2.875	-2.7292	-2.7292	-2.9417	-2.7271	-2.7146	-3.0292	-2.6958	-2.8937	-3.025	-2.5021	-2.9979	-2.6875	-2.7375	-2.9875	-111.612	-11.936	-51.466	163.573	190.250	-18.831	124.180	98.883	57.482	-74.285	152.335	-124.987	13.727	-49.589	121.253	196.262	0.0001067	0.00021842	0.00011373	932.83	2.074e-06	1.919e-06	981.37	190.77	8.8696e-07	3.2882e-06	238.99	65.254	50.262	14.63	2.3472e-06	20.568	6.4243e-05	5.6269e-05	1.5531e-05	924.13	6.4631e-07	5.9694e-07	977.97	191.71	6.4867e-07	6.0296e-07	236.69	65.916	50.243	14.823	6.1762e-07	20.692	-127.405	-17.989	-53.731	-121.618	-45.198	57.094	-121.284	-114.462	-72.398	27.308	-114.886	-108.573	-108.779	-101.140	-19.820	-101.279	-8191	255	
1695.006	1	1	0	0	0.086979	0.12267	0.30588	0.19561	0.24713	0.094213	0.089742	0.23615	0.19281	0.14503	0.087998	0.031319	0.064903	0.27214	0.16894	0.18824	-2.3646	-2.6604	-2.7542	-2.7542	-3.0187	-2.7396	-2.825	-2.9	-2.8229	-2.875	-3.1729	-2.7354	-2.9375	-2.7812	-2.3812	-3.1562	-72.138	186.776	89.298	183.638	37.854	48.567	-114.180	-118.606	192.998	214.806	48.479	61.093	184.732	-107.002	-84.209	212.684	0.0001076	0.0001849	4.4966e-05	934.34	5.4937e-07	1.0774e-06	979.04	191.95	1.2272e-06	1.4374e-06	237.86	64.847	50.34	14.662	2.5044e-06	20.523	6.1849e-05	5.4523e-05	1.4882e-05	924.64	6.2604e-07	6.2155e-07	979.14	191.81	6.126e-07	5.7716e-07	236.32	65.793	50.192	14.801	5.9008e-07	20.672	-126.912	-34.806	-47.257	-121.656	-91.966	24.363	-121.438	-114.414	-11.233	36.155	-114.856	-108.498	-108.327	-101.367	-5.661	-101.625	-8191	255	
1695.101	1	1	0	0	0.3982	0.15545	0.16792	0.10973	0.13139	0.15434	0.28238	0.13762	0.36009	0.12268	0.1735	0.12428	0.12648	0.19531	0.20501	0.10937	-2.1896	-2.6208	-2.9208	-2.6833	-2.9521	-2.925	-2.7438	-2.8187	-2.7396	-2.7687	-2.8833	-2.5979	-2.8	-2.9896	-2.7042	-2.9583	108.525	-54.155	120.168	166.209	-33.094	-76.311	165.839	53.675	49.469	-87.955	225.177	190.002	-47.550	191.598	28.379	149.604	0.00010647	0.00019461	0.00010912	927.52	7.8405e-07	2.3647e-06	976.95	190.65	1.2487e-06	1.5101e-06	238.25	64.82	50.934	14.64	1.0288e-06	20.526	6.2065e-05	5.4575e-05	1.5092e-05	920.27	6.3525e-07	5.8867e-07	975.48	191.55	6.3415e-07	5.8513e-07	236.3	65.72	50.294	14.797	6.1671e-07	20.701	-125.233	-61.009	-34.967	-121.739	41.286	23.978	-121.610	-114.779	19.525	-22.548	-114.989	-108.659	-108.399	-101.137	-62.354	-101.591	-8191	255	
1695.197	1	1	0	0	0.12777	0.094212	0.077246	0.3306	0.058669	0.063689	0.13332	0.17725	0.2303	0.34632	0.195	0.14916	0.11488	0.17127	0.13053	0.068437	-2.1583	-2.6312	-3.0167	-2.6542	-2.9417	-2.8812	-2.8146	-3.0187	-2.7896	-2.6458	-3.1063	-2.6	-2.875	-2.8125	-2.5187	-2.9417	-32.829	170.203	-94.449	195.177	119.668	129.915	-18.367	-108.958	-30.670	165.465	195.721	-87.316	-22.487	157.685	120.935	155.444	0.00011072	0.00027589	5.7744e-05	926.54	1.1967e-06	2.0211e-06	976.17	191.77	1.5718e-06	1.5254e-06	237.49	64.692	50.382	14.748	8.1754e-07	20.539	6.2403e-05	5.6956e-05	1.5485e-05	919.77	6.5417e-07	6.1398e-07	975.04	191.75	6.2821e-07	6.0682e-07	235.88	65.675	50.278	14.829	6.1264e-07	20.756	222.133	-15.350	-53.506	-121.686	-22.179	10.751	-121.487	-114.895	-47.365	33.692	-114.769	-108.575	-107.803	-101.091	-67.722	-101.224	-8191	255	
1695.317	1	1	0	0	0.32676	0.16113	0.17861	0.27272	0.13134	0.21438	0.34251	0.15052	0.11184	0.083865	0.27039	0.2361	0.026028	0.10335	0.19205	0.14447	-2.4896	-2.6417	-2.7396	-2.7833	-2.55	-2.8854	-2.7792	-3.0146	-2.7208	-2.7958	-3.0375	-2.7521	-2.7333	-3.1125	-2.6917	-2.7604	35.931	2.010	173.562	123.927	168.457	44.952	-131.485	182.947	-32.306	197.603	210.003	110.413	-10.999	138.191	-130.872	93.287	0.0001169	0.00021258	5.4009e-05	930.84	6.6772e-07	1.9609e-06	979.61	191.83	1.6966e-06	7.6306e-07	237.55	64.781	50.227	14.685	1.2352e-06	20.592	6.5124e-05	5.9476e-05	1.6157e-05	922.56	6.6185e-07	6.0758e-07	976.98	192.13	6.72e-07	6.3306e-07	236.13	65.813	50.243	14.857	6.4707e-07	20.751	-125.812	-102.815	-34.673	-121.829	-15.101	-1.962	-121.566	-114.491	-32.136	93.875	-114.908	-108.813	-108.412	-101.384	21.939	-101.774	-8191	255	
1695.414	1	1	0	0	0.12142	0.22488	0.034297	0.17323	0.16799	0.17986	0.29454	0.12232	0.11741	0.22832	0.20172	0.22667	0.17053	0.25548	0.30315	0.07819	-2.4354	-2.5812	-2.975	-2.9313	-2.7812	-2.9083	-2.8312	-2.8896	-2.8958	-2.7208	-2.8542	-2.7521	-2.6188	-2.8438	-2.6937	-2.8896	8.763	198.041	58.930	-95.185	105.344	-76.922	187.862	77.890	-128.479	223.306	-130.364	147.906	79.210	159.604	126.038	-35.409	9.8832e-05	0.00014554	5.6442e-05	932.33	1.9935e-06	1.3814e-06	979.62	191.48	2.0782e-06	1.8945e-06	238.59	65.287	50.826	14.819	9.4284e-07	20.563	6.6517e-05	5.9584e-05	1.6358e-05	924.7	6.7496e-07	6.4292e-07	978.98	192.45	6.7976e-07	6.409e-07	236.75	65.885	50.468	14.892	6.2491e-07	20.734	-123.619	-70.425	-27.397	-121.715	30.581	64.885	-121.464	-114.471	-16.252	80.672	-115.123	-108.565	-108.559	-101.282	-2.246	-101.700	-8191	255	
1695.510	1	1	0	0	0.075119	0.19407	0.17917	0.178	0.21666	0.026915	0.12578	0.092005	0.22059	0.089966	0.3635	0.1087	0.14273	0.12492	0.10201	0.2464	-2.65	-2.4667	-2.8167	-2.8042	-2.7792	-3.0229	-2.6771	-2.6708	-2.95	-2.5771	-3.0292	-2.725	-2.5563	-2.9167	-2.6708	-2.7708	-19.838	20.881	-13.196	25.807	110.341	63.441	161.895	163.527	102.917	210.089	32.189	-12.995	-130.758	-26.697	-107.292	108.687	0.00011738	0.00016626	4.4936e-05	933.55	1.5227e-06	2.0051e-06	981.03	191.4	1.2265e-06	2.6288e-06	239.86	65.104	50.85	14.725	2.4246e-06	20.623	6.5083e-05	5.8437e-05	1.6165e-05	923.93	6.6558e-07	6.3123e-07	979.69	192.13	6.7577e-07	6.5167e-07	236.88	66.006	50.608	14.885	6.5518e-07	20.776	-127.272	-36.321	38.168	-121.810	2.033	19.097	-121.566	-114.415	-65.592	26.038	-114.680	-108.738	-108.429	-101.659	46.851	-101.389	-8191	255	
1695.606	1	1	0	0	0.25545	0.086421	0.15322	0.1482	0.15209	0.2453	0.33215	0.10936	0.069594	0.073423	0.18405	0.12479	0.15219	0.13196	0.17937	0.1386	-2.4938	-2.4875	-2.9854	-2.9437	-2.4042	-2.9313	-2.9437	-2.8292	-2.9729	-2.6125	-2.9646	-2.8771	-2.4188	-3.1063	-2.6063	-2.8125	-44.095	149.600	-66.251	117.745	-111.193	-116.160	204.743	-96.864	-112.563	-118.409	78.827	118.691	48.684	215.163	102.539	197.391	0.0001111	0.00022488	2.7393e-05	935.96	2.0077e-06	1.346e-06	981.03	191.21	1.4509e-06	2.6273e-06	238.79	65.059	50.48	14.774	5.9799e-07	20.526	6.9614e-05	6.0914e-05	1.7166e-05	927.05	6.9405e-07	6.6503e-07	980.5	192.39	6.9371e-07	6.6092e-07	236.93	65.936	50.394	14.874	6.665e-07	20.798	-123.797	-50.851	-84.170	-121.728	-15.909	43.131	-121.662	-114.688	-23.017	31.836	-114.949	-108.529	-108.414	-101.116	129.163	-101.298	-8191	255	
1695.702	1	1	0	0	0.029794	0.182	0.15314	0.02905	0.093989	0.14737	0.31369	0.16555	0.2332	0.18383	0.21421	0.051367	0.16057	0.13772	0.19494	0.21967	-2.6	-2.6125	-2.8458	-2.9542	-2.5021	-2.9313	-2.9479	-2.6646	-2.8958	-2.7854	-2.7	-2.85	-2.5521	-3.0229	-2.9396	-2.7188	-40.472	20.694	169.790	-5.531	170.850	-63.660	207.846	-86.796	5.035	-2.192	82.760	-48.846	169.973	-76.428	156.218	152.180	0.00011842	0.00020253	1.8645e-05	933.76	4.6177e-07	5.7648e-07	976.66	191.25	1.6263e-06	2.5766e-06	238.51	64.856	51.15	14.719	3.0981e-06	20.626	6.8469e-05	6.1117e-05	1.6582e-05	926.41	6.9006e-07	6.5842e-07	978.41	192.28	6.9445e-07	6.6503e-07	236.51	65.935	50.541	14.928	6.7769e-07	20.806	-123.300	-42.995	-90.780	-121.712	-9.167	40.927	-121.450	-114.272	-16.181	-3.247	-114.897	-108.415	-108.221	-101.443	5.691	-101.354	-8191	255	
1695.798	1	1	0	0	0.21012	0.25436	0.30768	0.14565	0.15317	0.28155	0.10602	0.19271	0.21115	0.18871	0.14687	0.18565	0.14895	0.17784	0.27374	0.13152	-2.5333	-2.6688	-2.7708	-2.8688	-2.6792	-2.8667	-3.0062	-2.6042	-2.9042	-2.9833	-2.7417	-3.0729	-2.7521	-2.8937	-2.8312	-2.6542	37.781	52.574	181.210	-125.259	116.238	163.777	153.746	189.828	174.071	82.526	79.504	138.747	42.683	227.424	-5.062	213.862	9.6285e-05	0.0003415	8.3622e-05	931.45	8.356e-07	2.5015e-06	979.79	191.85	9.1223e-07	1.4378e-06	238.4	65.056	50.896	14.632	1.5505e-06	20.51	6.7908e-05	5.9767e-05	1.6184e-05	925.53	6.8633e-07	6.7409e-07	979.91	192.5	6.8903e-07	6.5513e-07	237.27	65.935	50.56	14.879	7.0662e-07	20.82	-127.101	-29.986	-58.101	-121.833	-108.937	102.392	-121.684	-114.575	-42.829	5.336	-115.079	-108.439	-108.195	-101.132	44.887	-101.553	-8191	255	
1695.894	1	1	0	0	0.13346	0.13637	0.1119	0.05652	0.15635	0.098675	0.098547	0.18707	0.33266	0.087955	0.20147	0.067179	0.12398	0.4572	0.18658	0.056933	-2.5646	-2.7396	-2.7083	-3.0312	-2.7708	-2.8458	-3.025	-2.4	-2.7917	-2.7875	-2.65	-3.0083	-2.55	-2.6292	-2.9354	-2.6146	42.547	147.951	87.605	183.638	156.279	-20.428	-70.498	159.346	35.745	121.724	205.276	-58.494	0.928	195.073	123.451	-99.881	0.00011406	0.00018608	5.8711e-05	936.13	2.6929e-06	1.0538e-06	984.57	192.23	1.4802e-06	2.3263e-06	238.35	65.118	50.961	14.748	9.9683e-07	20.696	6.7859e-05	6.0666e-05	1.6736e-05	928.27	7.0304e-07	6.8329e-07	982.25	193.07	7.0767e-07	6.7686e-07	237.42	66.14	50.561	14.889	6.803e-07	20.831	-127.620	-64.038	-59.313	-121.535	22.202	69.018	-121.489	-114.735	-38.635	85.181	-114.896	-108.814	-107.853	-101.840	-0.060	-101.308	-8191	255	
1695.990	1	1	0	0	0.091096	0.1428	0.072967	0.34028	0.1244	0.12004	0.16895	0.10002	0.207	0.21483	0.31761	0.10468	0.206	0.12455	0.031015	0.10434	-2.4146	-2.6104	-2.475	-2.8833	-2.6375	-2.8688	-2.9625	-2.4771	-2.9896	-2.7271	-2.5479	-2.9583	-2.6146	-2.6979	-2.875	-2.8146	-54.948	56.713	130.944	99.646	-71.573	-129.557	107.233	171.327	2.711	74.731	205.877	108.349	-92.949	172.533	-120.016	-46.409	8.629e-05	0.00028901	2.1146e-05	934.95	1.4545e-06	2.3974e-06	981.07	192.84	5.1042e-07	1.0583e-06	239.58	65.042	50.498	14.862	2.9169e-06	20.674	6.8406e-05	5.8581e-05	1.7415e-05	928.39	7.1332e-07	6.6862e-07	982.11	192.99	7.0048e-07	6.5846e-07	237.67	66.039	50.59	14.937	6.6781e-07	20.841	-124.484	-66.671	-49.310	-121.703	65.427	2.913	-121.612	-114.856	-62.774	31.296	-114.948	-108.524	-108.154	-101.073	-26.294	-101.436	-8191	255	
1696.109	1	1	0	0	0.28499	0.1458	0.24894	0.43695	0.21214	0.18583	0.16141	0.32902	0.14802	0.1699	0.089292	0.15925	0.13067	0.20707	0.053974	0.09246	-2.5687	-2.7042	-2.5292	-3.0229	-2.8063	-2.6917	-3.0687	-2.7313	-3.0021	-2.9292	-2.6854	-3.0396	-2.7896	-2.7479	-2.9917	-2.7146	85.662	14.831	42.336	108.297	-82.686	46.112	164.888	-113.154	9.142	10.808	165.879	225.019	114.086	-56.683	39.979	-20.172	0.00012418	0.00012077	0.00012051	934.51	1.5738e-06	1.7944e-06	987.34	191.27	8.495e-07	1.0181e-06	238.22	65.14	51.262	14.75	2.2208e-06	20.705	6.8699e-05	6.0191e-05	1.7391e-05	928.37	7.1927e-07	6.6831e-07	983.81	192.69	6.9445e-07	6.5675e-07	237.37	66.101	50.754	14.927	6.5367e-07	20.873	222.498	-43.154	-75.687	-121.826	19.668	49.601	-121.534	-114.732	-36.895	26.501	-114.775	-108.426	-108.615	-101.127	11.454	-101.356	-8191	255	
1696.206	1	1	0	0	0.37424	0.21129	0.40188	0.22102	0.12192	0.11887	0.33523	0.25248	0.064159	0.088214	0.1876	0.26742	0.054155	0.15613	0.10762	0.11444	-2.4313	-2.8792	-2.5479	-2.8354	-2.5083	-2.75	-3.0854	-2.7042	-2.9479	-2.8271	-2.6063	-2.9333	-2.8812	-2.6917	-2.8125	-2.5062	19.509	171.830	154.281	-118.292	-22.387	-75.657	97.635	74.103	-80.786	180.497	200.566	177.184	163.153	-52.062	-110.536	51.792	0.0001162	0.00010796	4.3827e-05	936.09	2.1077e-06	1.4761e-06	976.63	192.59	1.0198e-06	1.9209e-06	241.48	65.215	51.35	14.772	2.6369e-06	20.576	6.9662e-05	6.107e-05	1.6658e-05	928.85	6.8863e-07	6.4051e-07	980.25	192.87	6.9684e-07	6.5947e-07	237.63	66.016	50.784	14.896	6.662e-07	20.785	-127.917	-15.814	5.271	-121.659	-62.972	42.353	-121.727	-114.718	31.780	-6.604	-114.968	-108.432	-108.179	-101.509	28.899	-101.293	-8191	255	
1696.279	1	1	0	0	0.19727	0.19943	0.29691	0.10655	0.052049	0.025225	0.19344	0.17539	0.36542	0.01926	0.15023	0.16043	0.12332	0.22381	0.064792	0.12503	-2.4062	-2.8979	-2.5292	-2.9583	-2.7917	-2.7646	-2.9875	-2.9792	-2.7062	-2.8125	-2.6708	-2.8688	-2.7854	-2.5833	-2.8458	-2.775	147.451	91.419	221.613	75.502	8.294	197.548	137.631	223.442	-24.531	66.888	121.608	147.702	135.287	80.804	-119.249	106.286	0.0001075	0.00018943	4.3431e-05	936.2	1.2279e-06	3.0324e-06	978.78	191.92	1.3668e-06	8.5729e-07	238.32	65.143	50.725	14.745	5.8389e-07	20.479	6.674e-05	5.8565e-05	1.6568e-05	928.28	6.6337e-07	6.5325e-07	980.11	192.81	6.8517e-07	6.4541e-07	236.95	66.077	50.517	14.876	6.7006e-07	20.805	-125.431	-34.266	-79.231	-121.677	-23.948	28.898	-121.705	-114.723	1.167	-18.950	-114.856	-108.464	-108.183	-101.339	63.908	-101.151	-8191	255	
1696.398	1	1	0	0	0.12973	0.22176	0.091411	0.095187	0.067937	0.1417	0.33258	0.10169	0.17166	0.17294	0.1855	0.084166	0.13183	0.35536	0.067401	0.24899	-2.2917	-2.9875	-2.6667	-2.8875	-2.8083	-2.6813	-3.2229	-2.6292	-2.6	-2.8937	-2.7396	-2.7729	-2.9354	-2.5521	-2.8229	-2.7708	161.902	97.020	142.608	189.719	177.586	54.107	181.837	182.320	-117.557	225.317	101.930	-65.141	57.542	-98.392	130.969	222.616	0.00011859	0.00012891	7.6965e-05	933.37	4.957e-07	2.3707e-06	981.7	191.59	8.953e-07	2.5161e-06	239.76	65.457	50.365	14.784	1.5237e-06	20.605	6.7826e-05	5.9779e-05	1.6664e-05	927.47	7.0447e-07	6.4953e-07	981.37	192.61	6.6116e-07	6.4361e-07	237.44	66.089	50.386	14.891	6.4998e-07	20.813	-117.469	226.780	-119.440	-121.836	-10.730	1.696	-121.508	-114.722	-10.410	-23.602	-114.928	-108.944	-108.201	-101.030	30.185	-101.342	-8191	255	
1696.494	1	1	0	0	0.20739	0.1734	0.07271	0.31188	0.2343	0.10814	0.23399	0.13569	0.46455	0.28082	0.25472	0.13111	0.078011	0.16619	0.12111	0.21675	-2.2	-2.7958	-2.7062	-2.8708	-2.9729	-2.5563	-3.1833	-2.8625	-2.6354	-3.0333	-2.7542	-2.6979	-2.7833	-2.6604	-2.7479	-2.7146	-121.904	-1.016	-65.171	221.041	141.285	-43.764	112.835	-13.837	-53.999	-131.361	146.560	-122.265	52.828	163.272	-112.916	-107.796	0.00010272	4.3944e-05	3.7675e-05	929.77	1.2339e-06	3.0313e-06	979.86	190.88	2.0723e-06	1.8012e-06	240.11	65.193	50.916	14.774	2.3166e-06	20.537	6.5964e-05	6.0446e-05	1.6211e-05	925.91	6.8095e-07	6.4699e-07	980.23	192.3	6.6198e-07	6.4659e-07	237.39	66.191	50.597	14.894	6.6455e-07	20.777	-117.830	-52.704	-18.497	-121.644	55.236	39.662	-121.629	-114.540	-3.362	42.771	-114.653	-108.481	-108.346	-101.453	45.344	-101.261	-8191	255	
1696.590	1	1	0	0	0.1856	0.13726	0.25889	0.2259	0.1504	0.18537	0.12065	0.10978	0.12934	0.12307	0.19245	0.20823	0.11584	0.23543	0.089484	0.26635	-2.0833	-2.8396	-2.75	-2.9188	-3.0146	-2.6458	-2.9562	-2.8708	-2.5812	-2.9708	-2.8583	-2.6042	-2.7729	-2.5792	-2.7938	-2.8854	-86.538	193.842	116.790	222.096	86.032	153.269	216.438	195.935	-36.606	-118.918	91.684	165.040	38.702	149.223	-103.879	128.943	0.00011466	0.00027912	9.4974e-05	935.53	1.3534e-06	3.0062e-06	981.81	192.6	1.7518e-06	1.6708e-06	238.07	65.21	50.796	14.798	1.7285e-06	20.524	6.6555e-05	5.94e-05	1.6413e-05	926.68	6.6753e-07	6.448e-07	981.28	192.87	6.7403e-07	6.5872e-07	236.9	66.09	50.561	14.887	6.502e-07	20.797	-130.589	-57.710	-71.203	-121.762	3.152	-4.877	-121.603	-114.597	0.759	41.471	-114.660	-108.660	-108.374	-101.033	49.606	-101.462	-8191	255	
1696.686	1	1	0	0	0.22838	0.16358	0.057265	0.27121	0.067858	0.20759	0.26115	0.11365	0.089197	0.052477	0.08907	0.10232	0.30726	0.018623	0.25523	0.076867	-1.8813	-2.8333	-2.75	-2.6	-2.9104	-2.6833	-3.0062	-2.9938	-2.6958	-2.8583	-2.8146	-2.6958	-2.8312	-2.5458	-2.7021	-2.9437	108.881	-114.333	212.916	118.046	193.109	124.372	155.376	197.516	3.542	105.243	207.489	-100.693	117.067	-125.854	61.108	165.636	9.9552e-05	0.00013305	7.2739e-05	934.17	1.5242e-06	2.0979e-06	980.16	192.41	1.0383e-06	2.2844e-06	239.93	65.635	50.476	14.662	1.5473e-06	20.392	6.764e-05	5.831e-05	1.6558e-05	926.82	6.9323e-07	6.4533e-07	979.94	192.72	6.6424e-07	6.3949e-07	237.47	66.171	50.392	14.875	6.4586e-07	20.757	-118.692	-68.333	-75.798	-121.549	-10.230	12.220	-121.757	-114.638	-16.726	-15.967	-114.925	-108.549	-108.568	-101.058	23.976	-101.519	-8191	255	
1696.807	1	1	0	0	0.051925	0.21592	0.12345	0.29175	0.24465	0.21645	0.048319	0.24206	0.25026	0.29092	0.13391	0.23362	0.044104	0.0059502	0.29088	0.03308	-2.375	-2.7687	-2.7521	-2.6667	-2.7917	-2.7146	-3.0333	-3.0104	-2.6542	-2.9104	-2.8583	-2.5771	-2.8396	-2.4813	-2.9042	-2.9542	122.905	157.709	-109.775	128.020	33.592	132.329	-16.074	161.716	142.752	68.877	135.705	-102.987	28.750	-57.498	148.097	-57.376	0.00011215	0.00044073	0.00012813	937.03	2.2065e-06	2.9116e-07	980.84	191.87	2.0383e-06	2.3246e-06	239.12	65.113	50.802	14.777	6.4068e-07	20.528	6.58e-05	5.8925e-05	1.6114e-05	928.09	6.724e-07	6.4239e-07	980.7	192.72	6.5452e-07	6.5259e-07	237.07	66.079	50.532	14.898	6.5115e-07	20.798	-123.818	-40.663	-75.450	-121.711	3.290	20.954	-121.475	-114.441	-16.828	17.774	-114.749	-108.650	-108.053	-101.441	-17.512	-101.692	-8191	255	
1696.879	1	1	0	0	0.12182	0.21943	0.14239	0.15347	0.018796	0.23694	0.43401	0.16362	0.11735	0.16604	0.11239	0.16156	0.16137	0.15669	0.28972	0.14485	-2.2833	-2.7229	-2.6646	-2.5271	-2.875	-2.6583	-2.5667	-2.9667	-2.5958	-2.8187	-2.8979	-2.4667	-2.8292	-2.6333	-2.7104	-2.9083	161.257	79.144	137.191	46.916	4.663	-59.760	151.325	168.503	64.033	141.877	57.443	-67.075	134.317	-127.148	177.244	214.827	0.00010556	0.0001946	8.0075e-05	934.65	9.0663e-07	3.0766e-06	981.78	192.32	1.2534e-06	1.8748e-06	238.44	65.183	51.25	14.733	2.1082e-06	20.42	6.761e-05	6.0998e-05	1.6463e-05	926.18	6.868e-07	6.3648e-07	980.55	192.66	6.7603e-07	6.5851e-07	236.91	66.188	50.752	14.904	6.5518e-07	20.738	226.082	-53.256	-74.863	-121.629	13.826	-12.381	-121.647	-114.245	-83.536	28.678	-114.889	-108.579	-108.211	-101.254	29.991	-101.483	-8191	255	
#DATA ENDS
