BOXY.EXE: ISS Imagent and Oximeter Data Acquisition Program Version 0.80
Ascii Record File

#ACQ INFORMATION
2  Detector Channels 
16  External MUX Channels 
1  Auxiliary Channels 
5000  Waveform (CCF) Frequency (Hz)
1  Waveforms Skipped 
30  Waveforms Averaged 
1  Cycles Averaged 
16  Acquisitions per Waveform 
10.0806  Updata Rate (Hz) 

#FILE INFORMATION
TRUE -- External MUX Channel results are PARSED.
FALSE -- AC DC and Phase are NOT grouped.
TRUE -- Companion Program Settings File CREATED.
FALSE -- AC data not excluded
FALSE -- DC data not excluded
FALSE -- Phase data not excluded
FALSE -- Auxillary Chn. data not excluded
Tab delimiters

#CALIBRATION STATE
TRUE -- Waveform Calibration Values APPLIED.


#AUX CALIBRATION VALUES
Val Type	aux-1	

Term	1.0000e+00	
Factor	0.0000e+00	


#WF CALIBRATION VALUES
A = Detector Channel
Val Type	A-AC1	A-AC2	A-AC3	A-AC4	A-AC5	A-AC6	A-AC7	A-AC8	A-AC9	A-AC10	A-AC11	A-AC12	A-AC13	A-AC14	A-AC15	A-AC16	A-DC1	A-DC2	A-DC3	A-DC4	A-DC5	A-DC6	A-DC7	A-DC8	A-DC9	A-DC10	A-DC11	A-DC12	A-DC13	A-DC14	A-DC15	A-DC16	A-Ph1	A-Ph2	A-Ph3	A-Ph4	A-Ph5	A-Ph6	A-Ph7	A-Ph8	A-Ph9	A-Ph10	A-Ph11	A-Ph12	A-Ph13	A-Ph14	A-Ph15	A-Ph16	

Term	0.00000e+00	0.00000e+00	0.00000e+00	0.00000e+00	0.00000e+00	0.00000e+00	0.00000e+00	0.00000e+00	0.00000e+00	0.00000e+00	0.00000e+00	0.00000e+00	0.00000e+00	0.00000e+00	0.00000e+00	0.00000e+00	0.00000e+00	0.00000e+00	0.00000e+00	0.00000e+00	0.00000e+00	0.00000e+00	0.00000e+00	0.00000e+00	0.00000e+00	0.00000e+00	0.00000e+00	0.00000e+00	0.00000e+00	0.00000e+00	0.00000e+00	0.00000e+00	0.00000e+00	0.00000e+00	0.00000e+00	0.00000e+00	0.00000e+00	0.00000e+00	0.00000e+00	0.00000e+00	0.00000e+00	0.00000e+00	0.00000e+00	0.00000e+00	0.00000e+00	0.00000e+00	0.00000e+00	0.00000e+00	
Factor	1.00000e+00	1.00000e+00	1.00000e+00	1.00000e+00	1.00000e+00	1.00000e+00	1.00000e+00	1.00000e+00	1.00000e+00	1.00000e+00	1.00000e+00	1.00000e+00	1.00000e+00	1.00000e+00	1.00000e+00	1.00000e+00	1.00000e+00	1.00000e+00	1.00000e+00	1.00000e+00	1.00000e+00	1.00000e+00	1.00000e+00	1.00000e+00	1.00000e+00	1.00000e+00	1.00000e+00	1.00000e+00	1.00000e+00	1.00000e+00	1.00000e+00	1.00000e+00	X	X	X	X	X	X	X	X	X	X	X	X	X	X	X	X	

B = Detector Channel
Val Type	B-AC1	B-AC2	B-AC3	B-AC4	B-AC5	B-AC6	B-AC7	B-AC8	B-AC9	B-AC10	B-AC11	B-AC12	B-AC13	B-AC14	B-AC15	B-AC16	B-DC1	B-DC2	B-DC3	B-DC4	B-DC5	B-DC6	B-DC7	B-DC8	B-DC9	B-DC10	B-DC11	B-DC12	B-DC13	B-DC14	B-DC15	B-DC16	B-Ph1	B-Ph2	B-Ph3	B-Ph4	B-Ph5	B-Ph6	B-Ph7	B-Ph8	B-Ph9	B-Ph10	B-Ph11	B-Ph12	B-Ph13	B-Ph14	B-Ph15	B-Ph16	

Term	0.00000e+00	0.00000e+00	0.00000e+00	0.00000e+00	0.00000e+00	0.00000e+00	0.00000e+00	0.00000e+00	0.00000e+00	0.00000e+00	0.00000e+00	0.00000e+00	0.00000e+00	0.00000e+00	0.00000e+00	0.00000e+00	0.00000e+00	0.00000e+00	0.00000e+00	0.00000e+00	0.00000e+00	0.00000e+00	0.00000e+00	0.00000e+00	0.00000e+00	0.00000e+00	0.00000e+00	0.00000e+00	0.00000e+00	0.00000e+00	0.00000e+00	0.00000e+00	-2.65566e+02	-1.24841e+02	-1.20241e+02	-1.81994e+02	-7.06572e+01	-6.59311e+01	-1.56309e+02	-1.62015e+02	-6.90623e+01	-6.87394e+01	-1.73690e+02	-1.70229e+02	-1.84320e+02	-1.76364e+02	-6.75761e+01	-1.49227e+02	
Factor	6.26878e-05	1.67292e-04	5.27594e-05	1.83783e-01	2.31563e-06	1.97287e-06	1.71397e-01	5.46504e-02	2.81418e-06	1.76473e-06	1.02938e-01	3.00253e-02	5.63014e-02	9.41980e-03	2.03463e-06	1.37220e-02	5.32171e-06	6.03407e-06	1.68690e-06	9.18392e-02	6.45977e-08	6.66728e-08	8.01300e-02	2.73424e-02	6.44674e-08	6.66207e-08	4.98357e-02	1.45750e-02	2.78928e-02	4.75395e-03	6.55589e-08	6.70704e-03	X	X	X	X	X	X	X	X	X	X	X	X	X	X	X	X	



#DISTANCE SETTINGS
A = Detector Channel
A-1	A-2	A-3	A-4	A-5	A-6	A-7	A-8	A-9	A-10	A-11	A-12	A-13	A-14	A-15	A-16	

2.5000e+00	3.0000e+00	2.5000e+00	3.0000e+00	2.0000e+00	3.0000e+00	1.5000e+00	3.0000e+00	3.0000e+00	3.0000e+00	3.0000e+00	3.0000e+00	3.0000e+00	3.0000e+00	1.5000e+00	3.0000e+00	

B = Detector Channel
B-1	B-2	B-3	B-4	B-5	B-6	B-7	B-8	B-9	B-10	B-11	B-12	B-13	B-14	B-15	B-16	

1.0000e+01	1.0000e+01	1.0000e+01	1.4400e+00	1.0000e+01	1.0000e+01	1.5100e+00	1.9400e+00	1.0000e+01	1.0000e+01	1.9900e+00	2.4900e+00	2.4100e+00	2.9000e+00	1.0000e+01	2.9800e+00	




#DATA BEGINS
time	group	step	mark	flag	A-AC1	A-AC2	A-AC3	A-AC4	A-AC5	A-AC6	A-AC7	A-AC8	A-AC9	A-AC10	A-AC11	A-AC12	A-AC13	A-AC14	A-AC15	A-AC16	A-DC1	A-DC2	A-DC3	A-DC4	A-DC5	A-DC6	A-DC7	A-DC8	A-DC9	A-DC10	A-DC11	A-DC12	A-DC13	A-DC14	A-DC15	A-DC16	A-Ph1	A-Ph2	A-Ph3	A-Ph4	A-Ph5	A-Ph6	A-Ph7	A-Ph8	A-Ph9	A-Ph10	A-Ph11	A-Ph12	A-Ph13	A-Ph14	A-Ph15	A-Ph16	B-AC1	B-AC2	B-AC3	B-AC4	B-AC5	B-AC6	B-AC7	B-AC8	B-AC9	B-AC10	B-AC11	B-AC12	B-AC13	B-AC14	B-AC15	B-AC16	B-DC1	B-DC2	B-DC3	B-DC4	B-DC5	B-DC6	B-DC7	B-DC8	B-DC9	B-DC10	B-DC11	B-DC12	B-DC13	B-DC14	B-DC15	B-DC16	B-Ph1	B-Ph2	B-Ph3	B-Ph4	B-Ph5	B-Ph6	B-Ph7	B-Ph8	B-Ph9	B-Ph10	B-Ph11	B-Ph12	B-Ph13	B-Ph14	B-Ph15	B-Ph16	aux-1	digaux	

1248.859	1	1	0	256	0.45126	0.23053	0.098538	0.1611	0.096541	0.11	0.14029	0.29582	0.26915	0.11627	0.30773	0.38107	0.22695	0.33124	0.081434	0.34577	-2.6854	-2.8479	-2.7562	-3.2188	-2.7083	-2.9979	-3.3042	-2.8792	-2.9313	-2.9604	-2.8479	-3.1188	-2.8396	-3.0208	-2.8479	-2.9333	101.473	287.922	113.612	126.284	339.221	216.988	439.584	418.593	342.532	341.661	326.755	164.614	295.065	121.154	115.637	444.984	0.0033007	0.00077452	0.00016019	566.24	6.8364e-06	7.8295e-06	873.73	233.05	1.6177e-05	7.0909e-06	446.51	192.6	106.7	53.029	8.6026e-06	102.15	0.00049542	0.00030794	8.5997e-05	559.55	3.0884e-06	3.4882e-06	858.61	229.53	3.714e-06	3.3924e-06	439.5	190.42	103.78	53.063	3.6317e-06	102.08	395.702	192.725	203.699	108.771	237.839	237.155	108.054	113.352	234.373	258.615	111.915	115.456	116.939	121.832	255.496	119.769	-8191	255	
1248.979	1	1	0	0	0.29508	0.11554	0.04388	0.19394	0.17123	0.10888	0.10537	0.072505	0.22711	0.045338	0.21715	0.20681	0.086579	0.094024	0.041242	0.26997	-2.5792	-2.8021	-2.8063	-2.9125	-2.7146	-2.8375	-3.0875	-2.8187	-3.0583	-2.8688	-2.9292	-3.2333	-2.7646	-2.9021	-3.1708	-2.8125	263.828	212.414	318.708	104.282	437.949	302.988	193.655	422.321	408.404	154.138	110.179	422.754	271.054	148.486	156.735	416.166	0.0031996	0.0007682	0.00015922	573.67	9.3117e-06	7.4228e-06	880.72	233.62	1.0631e-05	7.0777e-06	443.15	191.63	107.03	52.897	8.9313e-06	102.03	0.00049574	0.00029947	8.1242e-05	563.7	3.0644e-06	3.2579e-06	862.66	229.58	3.4918e-06	3.3005e-06	437.84	189.15	103.08	52.887	3.5597e-06	101.87	397.292	205.753	191.833	108.499	252.066	266.114	108.286	113.336	233.148	242.097	111.809	115.581	116.876	121.758	230.974	119.939	-8191	255	
1249.074	1	1	0	0	0.18844	0.040929	0.036869	0.20534	0.20661	0.13281	0.055203	0.046165	0.058931	0.17286	0.21674	0.27548	0.26892	0.050446	0.19853	0.56291	-2.4396	-2.9646	-2.7375	-3.1437	-2.8979	-2.8167	-3.1292	-2.9833	-3.0104	-3.0292	-2.7833	-3.0875	-2.8833	-2.8667	-3.1625	-2.9958	451.382	314.841	240.172	440.913	322.098	405.213	448.890	110.909	109.968	125.263	136.331	118.310	183.383	139.485	110.390	390.079	0.0033707	0.00065341	0.00015762	572.52	6.5007e-06	6.4364e-06	880.32	232.97	1.5403e-05	5.7608e-06	443.45	192.4	107.97	53.196	6.2984e-06	101.56	0.00049713	0.00031475	7.8472e-05	566.79	3.2016e-06	3.2779e-06	865.66	229.67	3.4679e-06	3.3959e-06	435.63	190.15	104.06	53.097	3.5538e-06	101.32	396.024	192.742	185.344	108.678	246.365	251.831	108.025	113.163	245.734	252.721	111.892	115.426	116.161	121.313	232.167	119.762	-8191	255	
1249.170	1	1	0	0	0.16746	0.18192	0.19058	0.16708	0.02768	0.12967	0.26558	0.19045	0.24357	0.07957	0.34003	0.14967	0.034567	0.28524	0.10549	0.13707	-2.3167	-3.0708	-2.6354	-3.1104	-2.9458	-2.7958	-3.3583	-2.8187	-2.9292	-3.0438	-2.7979	-3.2375	-2.9021	-2.8729	-3.0792	-2.8563	157.337	169.239	104.294	410.685	364.856	202.402	397.411	384.295	106.832	259.973	402.301	420.847	388.710	114.247	226.774	164.800	0.0033074	0.0006566	0.00019183	573.65	8.1019e-06	7.5329e-06	877.34	232.33	1.1146e-05	5.0744e-06	441.87	192.57	107.09	53.347	7.5242e-06	101.55	0.00048842	0.0003113	7.8866e-05	567.25	3.3585e-06	3.2452e-06	860.82	229.35	3.4647e-06	3.509e-06	435.15	190.23	104.11	53.17	3.6701e-06	101.37	396.780	208.695	184.370	108.511	239.306	220.102	108.022	113.175	255.586	224.657	111.819	115.337	117.052	121.697	251.657	119.819	-8191	255	
1249.266	1	1	0	0	0.093207	0.052505	0.091285	0.25012	0.10335	0.14255	0.11915	0.26313	0.03793	0.17225	0.21147	0.070239	0.23004	0.13421	0.10939	0.28695	-2.55	-3.0792	-2.8396	-3.2521	-2.8583	-2.9104	-3.2042	-3.0479	-2.9896	-3.15	-2.8104	-3.075	-2.9771	-2.8229	-3.0979	-3.025	309.244	254.048	176.612	375.543	326.366	378.972	369.655	397.285	359.861	137.068	108.053	424.420	391.382	447.725	336.017	416.130	0.0032427	0.00052931	0.00022742	572.73	1.1456e-05	7.4278e-06	874.95	231.91	1.239e-05	6.9528e-06	442.02	193.36	107.46	52.957	5.7276e-06	101.81	0.00047497	0.00031908	7.8409e-05	563.5	3.3094e-06	3.1338e-06	860.36	228.3	3.3205e-06	3.5553e-06	435.44	190.81	104.57	53.041	3.6738e-06	101.63	395.905	186.084	195.755	108.960	245.726	251.719	108.268	113.251	241.115	232.523	111.767	115.376	116.819	121.403	231.482	119.976	-8191	255	
1249.362	1	1	0	0	0.18969	0.20013	0.11102	0.11768	0.21379	0.19978	0.22673	0.07565	0.039948	0.16264	0.27392	0.41495	0.18323	0.058044	0.31759	0.23893	-2.3229	-3.0729	-2.6896	-3.0563	-2.9646	-2.6375	-2.9646	-3.0979	-2.975	-3.0833	-3.0563	-2.9917	-3.0354	-2.725	-3.0917	-3.0792	329.762	355.232	373.890	172.470	188.187	159.790	441.580	184.809	156.092	309.449	421.123	387.131	170.557	425.570	218.079	413.855	0.0032566	0.00072425	0.00022839	573.65	8.1476e-06	5.3984e-06	885.91	232.68	1.4875e-05	4.0212e-06	443.04	191.5	106.94	52.924	7.5551e-06	101.57	0.0004765	0.00032392	8.1182e-05	568.41	3.339e-06	3.0813e-06	868.98	229.19	3.2454e-06	3.4776e-06	436.09	188.95	103.55	52.776	3.7056e-06	101.18	397.473	180.898	183.859	108.801	239.757	203.548	107.937	113.467	245.046	256.604	112.077	115.491	116.826	121.584	227.629	119.880	-8191	255	
1249.458	1	1	0	0	0.13237	0.090089	0.15342	0.26506	0.087615	0.12133	0.20255	0.11026	0.15571	0.14995	0.33344	0.21759	0.15229	0.24851	0.20171	0.35256	-2.2979	-3.0042	-2.7062	-2.8646	-3.0021	-2.9021	-2.9979	-3.1208	-2.7167	-3.0729	-2.6854	-2.9646	-3.1396	-2.8438	-2.9688	-3.1021	105.439	442.433	354.848	409.851	100.908	131.073	414.673	425.393	275.648	425.340	395.996	380.058	119.809	450.707	358.210	433.792	0.0033278	0.0003234	0.00016202	582.69	1.0476e-05	8.847e-06	889.46	233.43	1.2348e-05	8.0394e-06	442.84	192.13	107.83	52.748	5.7063e-06	101.25	0.00047569	0.00032493	8.3663e-05	573.71	3.5101e-06	3.1888e-06	871.39	229.59	3.2348e-06	3.665e-06	434.73	189.39	104.15	52.805	3.6952e-06	101.13	395.801	220.024	177.072	108.774	250.161	233.383	107.657	113.522	236.481	234.755	111.669	115.430	116.648	121.454	244.911	119.585	-8191	255	
1249.554	1	1	0	0	0.10745	0.20925	0.30672	0.12875	0.17259	0.14406	0.2231	0.10166	0.17551	0.17828	0.17584	0.23164	0.041957	0.12883	0.31825	0.38523	-2.3083	-3.0896	-2.9083	-2.9021	-3.025	-2.7271	-2.9062	-3.0042	-2.7167	-2.8542	-2.9	-2.8792	-3.1813	-2.9021	-3.0312	-3.2729	159.066	374.555	201.408	108.050	284.955	236.850	438.769	358.439	115.906	222.600	431.974	448.552	184.846	237.981	394.358	405.261	0.0034245	0.0007014	0.00019576	581.31	1.2776e-05	7.3371e-06	885.04	231.94	1.3126e-05	6.6527e-06	440.21	195.55	109.6	53.266	9.1875e-06	101.62	0.0004736	0.00033777	8.5617e-05	572.3	3.5647e-06	3.1871e-06	870.84	228.79	3.2399e-06	3.6943e-06	434.18	192.89	106.35	53.366	3.6699e-06	101.7	396.490	190.685	210.402	108.643	240.148	239.160	107.964	113.273	240.367	245.951	111.535	115.253	116.290	121.417	241.774	119.741	-8191	255	
1249.675	1	1	0	0	0.22422	0.039267	0.10681	0.19499	0.066396	0.084811	0.37118	0.053817	0.34637	0.10131	0.26822	0.28458	0.25021	0.1593	0.041891	0.10382	-2.4813	-2.8396	-2.8125	-2.8458	-3.0292	-2.8083	-3.2771	-2.9854	-2.9938	-3.0438	-2.9604	-3.0062	-3.1729	-3.0208	-2.9	-3.225	434.285	400.717	171.113	148.318	358.210	149.577	383.715	409.400	413.311	447.370	401.134	454.082	341.437	436.355	432.636	413.950	0.0033824	0.00047783	0.0002446	581.32	9.1564e-06	7.0616e-06	888.44	232.67	1.198e-05	4.8177e-06	444.28	196.53	109.86	53.987	1.015e-05	103.01	0.00046572	0.00033528	8.7908e-05	574.76	3.5767e-06	3.231e-06	871.21	229.71	3.215e-06	3.7738e-06	437.09	193.83	106.56	54.014	3.6897e-06	102.89	397.234	142.400	190.846	108.472	233.848	220.527	107.888	113.403	249.636	249.723	111.741	115.190	116.578	121.365	241.884	119.645	-8191	255	
1249.771	1	1	0	0	0.16679	0.13216	0.033182	0.268	0.052356	0.11697	0.17211	0.27855	0.16567	0.086418	0.29508	0.27654	0.28407	0.29447	0.16817	0.25167	-2.3333	-3.0354	-2.8563	-2.8688	-3.0563	-2.8333	-2.9604	-3.1708	-2.6958	-2.9229	-3.0667	-2.6937	-3.2292	-2.8083	-2.7854	-3.225	381.021	409.758	317.850	192.022	247.748	404.716	358.171	428.586	298.746	344.823	353.154	98.697	375.228	406.135	271.347	431.846	0.0034369	0.00068074	0.00019523	585.25	7.6539e-06	1.0172e-05	890.53	232.48	1.1632e-05	5.8898e-06	443.66	196.25	110.02	53.464	5.1104e-06	102.13	0.00047987	0.00034632	9.1922e-05	577.24	3.7477e-06	3.4449e-06	874.95	229.99	3.3175e-06	3.7442e-06	436.66	193.1	106.53	53.623	3.5792e-06	101.98	395.963	181.615	179.032	108.497	238.740	240.222	107.927	113.489	240.179	264.995	111.669	115.108	116.421	121.333	220.889	119.658	-8191	255	
1249.867	1	1	0	0	0.076784	0.20737	0.072819	0.15028	0.10439	0.067719	0.30189	0.18246	0.1173	0.055634	0.22197	0.3049	0.19294	0.37388	0.17882	0.31583	-2.2354	-2.9417	-2.7625	-2.8187	-2.8688	-2.8708	-2.8	-3.1312	-2.9521	-2.7896	-3.1729	-2.8979	-3.0687	-3.0083	-2.7208	-3.3417	192.703	187.775	441.669	282.285	132.987	341.715	362.978	365.709	135.868	139.653	443.504	450.051	361.812	95.960	157.014	368.947	0.0032907	0.0004635	0.00013336	586.2	6.0843e-06	8.2904e-06	892.4	232.36	1.3944e-05	5.2137e-06	440.71	195.95	110.11	53.649	8.9635e-06	102.09	0.00047557	0.00033705	9.421e-05	577.69	3.7457e-06	3.4919e-06	875.9	229.21	3.4013e-06	3.7484e-06	435.32	193.51	106.55	53.571	3.5043e-06	101.98	394.372	212.221	183.379	108.579	233.490	229.423	108.018	113.294	244.147	243.544	111.630	115.087	116.116	121.295	222.675	119.619	-8191	255	
1249.939	1	1	0	0	0.22298	0.15258	0.082723	0.20704	0.11447	0.23825	0.068835	0.28095	0.15318	0.36735	0.45021	0.15662	0.14534	0.22611	0.21168	0.17526	-2.3458	-2.7625	-3.1437	-2.7979	-3.1312	-2.9458	-2.9083	-3.2104	-2.7854	-2.9979	-3.2062	-2.8958	-2.9938	-3.1958	-2.625	-3.3479	220.721	396.862	279.523	385.471	334.337	333.498	190.869	445.761	405.648	342.472	101.550	403.502	395.820	97.691	102.458	95.905	0.003305	0.00040786	0.00013396	592.42	1.0258e-05	6.2389e-06	897.36	234.03	1.3765e-05	6.4211e-06	441.26	197.36	110.39	53.674	9.4384e-06	102.58	0.00048232	0.00033074	9.1215e-05	584.09	3.7354e-06	3.5696e-06	880.32	230.43	3.4444e-06	3.6322e-06	436.42	194.14	106.79	53.814	3.4431e-06	102.5	397.531	173.959	210.685	108.758	240.028	258.409	108.092	113.159	240.411	235.578	111.773	115.136	116.636	121.289	263.446	119.564	-8191	255	
1250.058	1	1	0	0	0.22432	0.073278	0.33708	0.35036	0.10598	0.15999	0.16178	0.16887	0.16989	0.060544	0.17752	0.13114	0.04055	0.20879	0.11193	0.1722	-2.4062	-2.7604	-3.0563	-2.7625	-3.1104	-2.9729	-2.9167	-3.1292	-2.8146	-2.975	-3.2625	-2.8937	-2.8667	-3.1604	-2.6292	-3.2229	138.520	415.260	191.671	397.321	400.975	159.943	376.556	150.902	175.661	372.375	363.173	117.063	326.476	431.949	253.115	377.711	0.0032537	0.00041725	0.00022106	598.21	5.6341e-06	6.0198e-06	903.71	232.59	1.6897e-05	7.3057e-06	445.88	195.49	109.43	53.298	1.1683e-05	102.06	0.00049939	0.00033411	9.266e-05	588.62	3.6656e-06	3.6178e-06	887	230.25	3.5133e-06	3.4336e-06	438.35	192.55	105.93	53.426	3.2528e-06	101.98	395.116	178.749	185.818	108.427	220.600	239.628	107.998	113.345	251.579	224.545	111.595	115.323	116.861	121.500	255.061	119.910	-8191	255	
1250.154	1	1	0	0	0.075856	0.14076	0.18645	0.098278	0.41222	0.15854	0.12739	0.23196	0.15605	0.19039	0.2034	0.11633	0.37065	0.11989	0.12194	0.33899	-2.5292	-2.6875	-2.9979	-2.9042	-3.0125	-2.8958	-2.8083	-3.1875	-2.9083	-2.9792	-3.2062	-2.75	-3.0187	-3.0375	-2.825	-3.1688	224.160	149.362	199.066	170.841	313.614	423.858	282.549	392.414	170.298	165.869	138.260	409.660	394.228	435.550	312.065	381.959	0.0035183	0.00045683	0.00022999	599.95	7.13e-06	8.1034e-06	910.13	237.21	1.6736e-05	3.9681e-06	444.66	193.81	108.02	52.874	7.836e-06	100.75	0.00049686	0.00030644	9.1476e-05	592.17	3.4802e-06	3.5171e-06	896.3	233.12	3.3831e-06	3.2361e-06	438.55	190.79	104.99	52.869	3.121e-06	100.55	397.133	198.339	204.881	108.705	248.596	260.104	107.831	113.313	238.079	214.603	111.766	115.385	116.560	121.422	248.242	119.874	-8191	255	
1250.250	1	1	0	0	0.095411	0.11908	0.13558	0.075318	0.059985	0.12971	0.13573	0.24048	0.092799	0.23291	0.13804	0.25377	0.12809	0.030769	0.19436	0.44596	-2.4938	-2.5812	-3.1771	-3.0854	-2.9583	-3.0083	-2.9396	-3.2146	-2.9146	-2.9708	-3.1146	-2.7979	-3.0375	-2.9708	-2.8542	-3.2188	104.008	252.616	215.475	166.478	436.379	135.497	393.046	434.935	125.439	340.806	385.346	402.149	103.635	126.252	394.266	378.406	0.0032086	0.00077118	0.00016817	608.96	5.0768e-06	3.9136e-06	913.96	235.52	1.4165e-05	5.458e-06	441.14	190.55	107.21	52.681	1.0796e-05	99.894	0.00047827	0.00028804	9.111e-05	599.98	3.2794e-06	3.4885e-06	894.22	232.06	3.3296e-06	2.9974e-06	434.64	188.12	104.05	52.64	3.0784e-06	99.662	395.696	185.936	199.265	108.612	254.263	247.253	107.838	113.427	251.651	249.936	111.763	115.508	116.604	121.511	249.461	119.725	-8191	255	
1250.346	1	1	0	0	0.17476	0.20767	0.053722	0.068227	0.30431	0.12344	0.23145	0.066592	0.16942	0.074956	0.29878	0.032225	0.26493	0.021817	0.45897	0.12077	-2.6188	-2.7687	-2.8542	-2.8354	-2.8604	-3.0708	-3.0208	-3.1229	-2.9958	-2.7854	-3.1896	-3.0708	-2.8542	-3.2375	-2.6708	-2.8563	411.879	284.077	174.285	291.884	146.815	349.344	374.994	117.630	454.702	95.799	323.073	199.100	376.574	295.328	379.325	436.509	0.0032542	0.00085994	0.00019379	611.11	8.3993e-06	7.4722e-06	914.53	232.95	1.1703e-05	5.1932e-06	440.17	192.64	108.3	52.692	7.26e-06	100.83	0.00047219	0.00028263	9.0924e-05	602.75	3.195e-06	3.4693e-06	897.18	230.34	3.5282e-06	3.0546e-06	433.52	190.02	104.48	52.702	3.2385e-06	100.69	395.689	191.007	179.133	108.635	234.108	250.167	107.937	113.288	237.390	215.065	111.651	115.290	116.603	121.248	251.132	119.659	-8191	255	
1250.467	1	1	0	0	0.10685	0.18291	0.1646	0.061457	0.10604	0.20697	0.18884	0.27036	0.20544	0.072184	0.14785	0.23365	0.060819	0.17597	0.15679	0.098535	-2.6604	-2.8229	-3.025	-2.8167	-3.0729	-3.05	-2.9354	-3.1854	-3.1604	-2.7333	-3.1688	-2.8792	-2.7979	-3.2542	-2.7646	-3.1312	215.342	135.670	421.030	352.792	297.724	204.235	445.200	347.822	145.188	386.872	151.899	408.399	256.162	369.412	316.946	312.823	0.0032808	0.00035278	0.00023426	602.26	6.1119e-06	7.7482e-06	907.93	231.17	1.2679e-05	7.2463e-06	440.79	197.58	110.46	53.118	8.8639e-06	102	0.00049011	0.00028532	9.6438e-05	595.33	3.1935e-06	3.593e-06	891.99	228.75	3.5941e-06	3.2956e-06	433.83	194.56	106.93	53.149	3.5029e-06	102.08	396.443	161.628	178.304	108.542	226.816	257.200	107.921	113.185	229.136	247.222	111.580	115.349	116.844	120.975	258.959	119.770	-8191	255	
1250.539	1	1	0	0	0.11667	0.061022	0.032842	0.049563	0.096216	0.1908	0.31199	0.24872	0.11412	0.15569	0.19597	0.30281	0.10513	0.13553	0.37638	0.052969	-2.5833	-2.775	-2.9917	-2.8854	-2.6729	-3.075	-3.0542	-3.1542	-2.8833	-2.75	-3.1604	-3.0563	-2.8563	-3.2438	-2.8125	-3.1167	256.354	181.985	383.409	393.842	285.635	186.360	431.115	421.306	404.511	209.581	376.547	369.827	206.084	407.281	364.375	263.487	0.0034619	0.00065993	0.00020451	604.49	9.9024e-06	6.7846e-06	904.96	231.27	9.8132e-06	9.5936e-06	441.01	198.05	110.18	53.038	1.0106e-05	101.6	0.00051159	0.00029142	9.5566e-05	595.87	3.2141e-06	3.7408e-06	889.52	228.11	3.5334e-06	3.1545e-06	434.1	195.12	106.26	53.035	3.4562e-06	101.41	396.792	199.008	203.889	108.484	232.778	235.391	107.905	113.550	238.465	218.257	111.534	114.935	116.958	121.035	238.812	119.696	-8191	255	
1250.659	1	1	0	0	0.090587	0.039312	0.069505	0.38644	0.16471	0.20181	0.24252	0.10517	0.023211	0.17675	0.2378	0.2737	0.29159	0.23842	0.21643	0.1406	-2.5667	-2.6813	-3.1813	-3.1125	-2.7	-3.1917	-2.7292	-2.6667	-3.0646	-2.8771	-3.1063	-3.0521	-2.7729	-3.2792	-2.7875	-2.9542	139.122	170.895	176.619	450.235	248.010	408.263	384.318	361.333	122.117	143.802	435.655	388.235	414.810	142.623	332.354	422.074	0.0032671	0.00069747	0.00014013	605.35	7.846e-06	4.6216e-06	907.96	231.56	9.3244e-06	4.0676e-06	438.27	198.74	111.45	52.92	6.4397e-06	101.41	0.00049978	0.00029284	9.0797e-05	597.1	3.1642e-06	3.7246e-06	891.69	227.47	3.6391e-06	3.3122e-06	432.51	195.68	107.71	52.846	3.5432e-06	101.39	396.181	193.467	198.449	108.244	234.081	246.247	107.995	113.455	233.099	247.380	111.459	114.953	116.286	121.085	251.394	119.637	-8191	255	
1250.755	1	1	0	0	0.36902	0.10007	0.27952	0.084708	0.08022	0.16372	0.28447	0.18194	0.21499	0.3634	0.21399	0.20823	0.13432	0.25013	0.067981	0.087241	-2.6063	-2.7104	-2.9417	-3	-2.6562	-3.2646	-2.9729	-2.9437	-2.9875	-2.7375	-2.9167	-3.1833	-2.8187	-3.125	-3.0792	-2.6167	157.513	142.295	452.053	356.924	320.467	185.835	108.986	311.625	337.083	338.718	381.411	105.077	431.535	401.893	258.448	399.881	0.0033565	0.00084102	0.00023071	601.24	7.3628e-06	8.8139e-06	903.19	229.32	8.7683e-06	7.1243e-06	440.67	200.64	113.36	52.628	6.6409e-06	103.1	0.00049797	0.00029356	8.8204e-05	594.22	3.1076e-06	3.6664e-06	889.07	226.59	3.6236e-06	3.2937e-06	433.04	197.66	109.2	52.731	3.5145e-06	102.67	397.530	188.185	192.715	108.615	251.936	239.426	107.999	113.361	250.138	252.342	111.632	114.890	116.445	121.158	264.619	119.509	-8191	255	
1250.852	1	1	0	0	0.28773	0.25749	0.21149	0.19016	0.16504	0.0889	0.19055	0.3289	0.33239	0.14314	0.06787	0.31504	0.092822	0.15393	0.16207	0.19083	-2.725	-2.7542	-2.7729	-3.0896	-2.7562	-2.9729	-2.9792	-2.8521	-2.8646	-2.7729	-2.8187	-3.1208	-2.8167	-2.9333	-3.1208	-2.9875	399.436	400.622	194.616	112.184	189.272	208.473	452.626	389.311	330.204	95.878	219.630	408.787	119.225	111.204	294.349	413.553	0.00328	0.00051274	0.00024905	606.61	8.0819e-06	7.4607e-06	908.01	228.96	1.1203e-05	7.9535e-06	441.48	203.27	113.63	52.802	8.2602e-06	104.75	0.00050336	0.00030896	8.4661e-05	595.66	3.2038e-06	3.5639e-06	888.83	226.85	3.5915e-06	3.3224e-06	435.01	200.7	110.74	52.983	3.4227e-06	104.58	396.062	162.784	186.385	108.559	234.473	219.292	107.874	113.394	237.305	229.989	111.681	114.879	116.461	121.010	257.092	119.454	-8191	255	
1250.948	1	1	0	0	0.17414	0.081996	0.14099	0.14222	0.14337	0.067087	0.20803	0.2449	0.12882	0.29718	0.043832	0.089345	0.25969	0.10949	0.19039	0.052699	-2.5896	-2.8146	-2.7	-2.9792	-2.7458	-2.8833	-3.0687	-2.7833	-3.2208	-2.7792	-3.0396	-3.0792	-2.8063	-3.0104	-3.0875	-3.0604	360.136	160.927	437.444	354.028	433.208	430.580	290.988	352.815	376.226	411.407	347.488	436.784	295.147	366.411	429.602	381.779	0.0034702	0.00056736	0.00013911	603.39	9.5868e-06	4.7903e-06	906.77	232.07	1.3888e-05	3.676e-06	442.86	203.73	113.7	52.631	9.0382e-06	104.27	0.00051433	0.00031455	8.1758e-05	592.48	3.1841e-06	3.4549e-06	889.37	228.4	3.6311e-06	3.394e-06	436.36	200.28	110.08	52.846	3.385e-06	104.1	397.111	175.150	189.282	108.580	255.829	248.395	108.017	113.221	233.008	218.381	111.561	115.116	116.414	121.368	228.210	119.525	-8191	255	
1251.067	1	1	0	0	0.12598	0.15286	0.083544	0.050827	0.099537	0.17001	0.2344	0.23391	0.11939	0.17317	0.28215	0.22682	0.20349	0.23844	0.11259	0.43421	-2.5896	-2.8333	-2.6667	-3.0021	-2.9688	-2.5667	-3.2917	-2.8417	-2.9896	-2.9458	-2.7188	-3.1708	-2.7438	-2.9646	-2.925	-3.1396	147.229	422.654	198.091	96.723	409.924	258.052	403.805	322.259	119.939	446.989	339.198	106.605	365.116	347.238	356.510	421.416	0.0033835	0.00064437	0.00015143	592.04	8.1481e-06	7.1621e-06	889.5	227.19	9.4264e-06	6.9522e-06	438.18	200.07	112.37	52.446	1.0094e-05	104.46	0.00049786	0.00029393	7.642e-05	581.06	3.1104e-06	3.217e-06	873.2	224.29	3.4432e-06	3.2414e-06	432.8	197.06	108.48	52.47	3.4238e-06	104.44	397.567	179.216	199.240	108.573	225.189	254.940	107.924	113.287	226.266	247.520	111.671	115.162	116.425	121.240	235.786	119.756	-8191	255	
1251.163	1	1	0	0	0.18013	0.15218	0.19513	0.080298	0.10191	0.081598	0.20189	0.054189	0.19174	0.10309	0.051064	0.45605	0.052656	0.50972	0.24466	0.26058	-2.4917	-3.0333	-2.775	-3.1375	-2.7812	-2.8063	-3.2313	-2.6729	-3.0187	-3.1458	-2.8833	-3.2042	-2.7125	-2.8979	-3.0521	-2.9771	107.782	253.868	322.223	342.064	353.823	172.224	412.936	417.679	414.541	433.368	431.266	425.691	200.960	389.309	421.994	384.966	0.0032622	0.0006773	0.00022896	578.23	8.9554e-06	7.3999e-06	883.31	226.74	7.5665e-06	3.4674e-06	440.57	199.35	110.75	52.449	1.0699e-05	105.74	0.00047847	0.00029313	7.2909e-05	570.01	2.9147e-06	2.9786e-06	863.62	223.8	3.1251e-06	3.026e-06	434.05	195.67	107.32	52.45	3.3387e-06	105.55	395.914	196.193	204.561	108.348	242.444	250.403	107.988	113.304	246.015	223.752	111.665	115.251	116.323	121.594	234.836	119.937	-8191	255	
1251.234	1	1	0	0	0.15611	0.18635	0.27768	0.11336	0.17728	0.26483	0.099173	0.2673	0.16522	0.26271	0.088994	0.30949	0.16326	0.10965	0.2106	0.17894	-2.5125	-2.9833	-2.9854	-3.05	-2.8458	-2.8375	-3.1521	-2.8792	-2.8979	-3.1167	-2.8958	-3.125	-3.1333	-2.8854	-3.1542	-2.8979	207.952	387.431	385.622	419.571	295.660	167.203	373.147	370.818	257.456	423.374	213.519	396.763	168.487	113.423	139.538	360.104	0.0034326	0.00073117	0.00012649	573.14	7.8555e-06	6.556e-06	874.39	226.78	1.0498e-05	4.4332e-06	444.45	199.65	111.89	53.323	7.2365e-06	108.7	0.0004667	0.00028394	7.0305e-05	564.1	2.9504e-06	2.7601e-06	859.25	224.11	2.9325e-06	2.9945e-06	437.67	197.12	108.04	53.341	3.249e-06	108.7	397.848	182.470	156.904	108.623	239.257	227.274	108.377	113.351	252.241	226.427	111.844	115.533	116.567	121.654	244.175	119.913	-8191	255	
1251.355	1	1	0	0	0.15818	0.065624	0.24814	0.070298	0.11101	0.14899	0.084619	0.090753	0.093185	0.1811	0.29506	0.36663	0.20781	0.47663	0.19454	0.2215	-2.4792	-3.0729	-2.6813	-3.0187	-2.8875	-2.8812	-3.0375	-3.0542	-2.7479	-3.2521	-2.8563	-3.2604	-2.975	-2.6542	-3.1333	-2.9021	113.419	97.172	170.577	388.731	263.719	213.163	268.173	389.275	295.316	270.737	444.729	389.248	366.134	433.110	224.583	363.764	0.0034556	0.00055368	0.00020423	570.23	1.0772e-05	4.1008e-06	881.69	232.92	1.4333e-05	9.2995e-06	444.84	207.52	115.51	54.091	7.1993e-06	110.91	0.00046217	0.00028468	7.1373e-05	560.76	2.9928e-06	2.7223e-06	863.27	228.85	2.9973e-06	3.1557e-06	438.34	204.54	111.96	54.156	3.4179e-06	110.62	398.627	231.739	182.259	108.589	232.498	233.689	108.132	113.344	245.687	246.112	111.943	115.056	116.563	121.464	236.117	119.500	-8191	255	
1251.451	1	1	0	0	0.037709	0.15082	0.29885	0.1433	0.24787	0.047768	0.17197	0.11997	0.2173	0.090246	0.082246	0.26898	0.11401	0.22519	0.23016	0.21817	-2.4333	-2.9583	-2.7271	-2.9667	-2.9604	-2.6396	-3.1521	-2.9688	-2.7917	-3.0229	-2.8104	-3.0542	-2.8458	-3.1021	-3.0375	-2.9875	266.925	264.007	205.211	97.008	273.480	432.821	324.219	276.748	212.321	387.879	361.611	427.473	299.774	356.013	348.422	341.409	0.0035426	0.00051572	0.00023956	576.57	1.0367e-05	5.9021e-06	881.55	232.67	1.2654e-05	5.6894e-06	443.06	206.93	116.49	54.442	1.0363e-05	110.45	0.00045721	0.0002968	7.5555e-05	566.95	3.0604e-06	2.8593e-06	864.64	229.21	2.9437e-06	3.2977e-06	437.1	204.23	112.66	54.337	3.4431e-06	110.23	398.226	216.028	182.284	108.837	233.749	240.224	108.135	113.375	244.441	260.271	111.373	115.462	116.949	121.346	235.292	119.397	-8191	255	
1251.547	1	1	0	0	0.26653	0.1766	0.12902	0.18906	0.1934	0.050428	0.12923	0.17337	0.060679	0.050759	0.12058	0.25521	0.12041	0.12682	0.19648	0.28879	-2.275	-2.7938	-2.8375	-2.9562	-3.1688	-2.8063	-2.9688	-2.9813	-2.5854	-3.1312	-2.8979	-2.9333	-3.0312	-2.8354	-2.9354	-3.0708	448.609	379.562	243.815	301.960	356.251	193.161	400.549	323.833	394.394	178.556	419.564	348.263	404.848	450.507	398.328	391.067	0.0035729	0.00060809	0.00020647	576.57	9.6316e-06	6.8908e-06	879.96	232.53	1.42e-05	5.5178e-06	443.11	206.27	115.76	54.035	9.0527e-06	109.13	0.00046368	0.000317	7.6427e-05	567.63	3.1556e-06	2.9647e-06	863.89	229.04	2.9061e-06	3.238e-06	436.46	203.32	112.34	53.982	3.3921e-06	109.18	396.168	176.736	170.142	108.653	249.564	240.232	108.064	113.191	231.857	253.394	111.589	114.945	116.304	121.113	248.775	119.387	-8191	255	
1251.644	1	1	0	0	0.29111	0.16313	0.2898	0.15734	0.060586	0.21089	0.29368	0.34109	0.16742	0.12319	0.19895	0.20874	0.10425	0.16657	0.12602	0.37603	-2.3896	-2.9896	-2.7646	-2.8646	-3.0167	-2.7604	-2.9125	-2.9896	-2.8312	-3.0271	-2.8917	-2.9729	-2.8708	-2.9021	-3.0667	-3.1125	434.443	272.255	160.885	437.870	353.136	438.372	427.587	368.648	395.452	382.453	395.352	367.979	446.099	139.814	441.784	389.465	0.0035202	0.00080808	0.00018903	590.59	1.019e-05	7.291e-06	898.09	235.62	1.8244e-05	4.6387e-06	442.67	210.21	118.9	53.902	8.1189e-06	109.62	0.000458	0.00031924	7.9263e-05	583.29	3.2996e-06	3.051e-06	882.8	232.53	2.9897e-06	3.401e-06	437.09	206.59	114.77	53.962	3.2796e-06	109.26	395.515	190.322	199.829	108.405	231.443	241.083	108.161	113.303	259.201	237.016	111.756	114.987	116.411	121.061	231.186	119.441	-8191	255	
1251.764	1	1	0	0	0.24987	0.21144	0.17238	0.1293	0.061504	0.085813	0.13912	0.033391	0.18063	0.26357	0.17853	0.24861	0.23673	0.24092	0.1755	0.20318	-2.3646	-2.7854	-2.7938	-2.9958	-3.0083	-2.8396	-3	-3.2333	-2.7354	-2.8563	-2.8958	-2.7583	-3.0896	-3.1042	-2.8	-3.3542	115.520	432.284	397.759	238.937	139.042	124.582	111.004	229.897	135.868	404.080	279.567	427.392	378.294	386.474	240.673	413.133	0.0033801	0.00066324	0.00024223	610.23	1.044e-05	8.2739e-06	911.37	235.85	1.2227e-05	6.2043e-06	443.97	210.54	119.75	54.04	6.9679e-06	109.05	0.00045932	0.00030741	7.6845e-05	599.14	3.4331e-06	3.0174e-06	894.99	233.31	3.0063e-06	3.4305e-06	437.67	207.46	115.79	54.095	3.2528e-06	108.76	395.551	159.311	188.773	108.661	235.956	252.431	107.850	113.054	248.639	237.296	111.625	114.954	116.536	120.846	249.182	119.326	-8191	255	
1251.836	1	1	0	0	0.077363	0.082294	0.022067	0.19347	0.22019	0.017934	0.066063	0.040815	0.17926	0.086472	0.21601	0.20665	0.12732	0.052595	0.068552	0.38938	-2.4562	-2.6833	-3.0229	-2.6708	-3.0125	-2.7396	-3.0438	-3.075	-2.8833	-2.8958	-2.9979	-2.8688	-3.2479	-2.9729	-2.9062	-3.3479	281.505	280.726	316.862	399.408	195.089	98.962	260.793	311.013	435.576	223.681	106.690	413.685	301.670	108.926	382.759	385.617	0.003485	0.00049926	0.0001515	604.83	7.8042e-06	7.0615e-06	907.19	235.03	9.8424e-06	4.6197e-06	440.01	208.03	119.07	53.654	8.8886e-06	108.07	0.00046274	0.00030398	7.9193e-05	597.45	3.3429e-06	3.041e-06	889.41	231.78	2.9766e-06	3.2922e-06	433.7	204.77	114.73	53.697	3.1908e-06	107.93	395.308	176.001	177.541	108.498	235.869	226.927	107.850	113.316	242.638	242.542	111.580	114.973	116.235	120.875	252.792	119.321	-8191	255	
1251.932	1	1	0	0	0.25571	0.16965	0.16429	0.34473	0.18181	0.21162	0.17224	0.20544	0.25475	0.19385	0.15359	0.071971	0.11346	0.10299	0.12152	0.0781	-2.2979	-2.8854	-2.8792	-2.8854	-3.15	-2.9125	-3.0708	-3.2	-2.5958	-3.0312	-2.9646	-2.9083	-3.1167	-2.8896	-2.7	-3.1042	241.746	128.728	198.418	407.251	395.138	396.968	394.155	395.448	294.556	138.268	148.499	422.812	411.965	188.745	207.454	368.645	0.0035336	0.00050815	0.00016026	615.07	1.0014e-05	7.301e-06	920.15	238.68	1.4353e-05	4.9962e-06	442.11	209.76	119.98	54.081	1.0065e-05	107.83	0.00047543	0.00030948	8.3396e-05	607.57	3.4861e-06	3.0965e-06	902.98	235.09	3.1032e-06	3.2158e-06	434.37	206.23	115.73	54.125	3.2053e-06	107.74	397.812	176.271	198.736	108.261	242.828	251.994	107.857	113.285	238.434	250.081	111.384	114.762	116.072	120.658	241.253	119.101	-8191	255	
1252.028	1	1	0	0	0.27987	0.10793	0.032084	0.35947	0.16884	0.31628	0.19938	0.21837	0.1151	0.24304	0.24949	0.1608	0.037196	0.13265	0.20489	0.21952	-2.3771	-2.9083	-2.9833	-2.8375	-3.1063	-2.9958	-2.8646	-3.2646	-2.9292	-2.8625	-2.9729	-2.8792	-3.0521	-2.9062	-2.8479	-3.2396	372.241	367.413	205.945	445.396	207.505	429.457	331.176	399.887	340.507	292.565	331.990	430.170	219.043	300.722	117.142	387.079	0.0035608	0.00057327	0.00018906	627.07	8.9177e-06	4.1681e-06	936.89	241.87	1.0258e-05	6.1496e-06	442.65	212.01	120.91	54.26	1.0319e-05	108.18	0.00048618	0.00030903	8.8341e-05	620.6	3.6362e-06	3.3435e-06	919.04	239.57	3.2173e-06	3.3037e-06	436.2	208.69	117.03	54.358	3.0545e-06	107.8	394.721	206.384	155.559	108.331	246.870	253.263	107.886	112.825	244.964	241.197	111.765	114.747	116.017	120.679	259.205	119.125	-8191	255	
1252.147	1	1	0	0	0.14259	0.11758	0.18065	0.25848	0.09876	0.032889	0.1654	0.13079	0.0085816	0.30543	0.033695	0.15111	0.095929	0.25139	0.28983	0.34769	-2.2458	-2.7188	-3.175	-2.8667	-3.0354	-3.0958	-3.0521	-3.1375	-2.9062	-2.7646	-3.375	-2.8542	-2.9521	-3.2062	-2.7313	-3.5104	383.739	440.613	160.891	412.303	107.711	384.257	99.250	412.127	278.473	106.373	110.358	423.286	193.976	117.138	327.471	109.523	0.0034984	0.00053887	0.00023847	626.31	7.5454e-06	6.1258e-06	928.5	237.72	1.0805e-05	6.198e-06	437.19	206.43	117.96	52.645	8.4283e-06	106.03	0.00047638	0.00028671	8.3906e-05	618.7	3.3511e-06	3.1504e-06	910.36	233.92	3.1304e-06	3.0011e-06	430.26	203.63	113.57	52.667	2.9217e-06	105.71	396.781	215.277	207.501	108.480	247.174	256.019	108.021	112.917	244.060	236.888	111.307	114.718	117.074	120.979	248.603	119.279	-8191	255	
1252.243	1	1	0	0	0.078529	0.089497	0.079999	0.030608	0.2876	0.12369	0.32721	0.21836	0.22966	0.13261	0.2172	0.124	0.16826	0.12296	0.25819	0.095601	-2.4208	-2.9	-3.1208	-2.8021	-2.8875	-3.1458	-2.8021	-3.1688	-2.9854	-2.9583	-3.1312	-2.8646	-2.8333	-3.0687	-2.7417	-3.1917	358.732	430.341	291.745	442.517	184.109	442.795	362.698	351.634	158.954	293.426	371.565	372.187	265.806	319.621	185.087	109.508	0.0033411	0.00071058	0.00021737	611.83	8.4385e-06	4.48e-06	904.38	227.09	1.2558e-05	5.4922e-06	433.43	198.79	110.8	51.561	1.0323e-05	105.23	0.00044947	0.00025275	7.7411e-05	600.8	2.8496e-06	2.8258e-06	885.72	224.23	2.734e-06	2.6146e-06	428.11	195.8	107.07	51.614	2.6738e-06	104.79	397.627	188.445	197.337	108.334	237.649	258.032	107.925	113.276	226.465	240.600	112.167	115.326	116.734	121.581	243.648	119.896	-8191	255	
1252.339	1	1	0	0	0.095185	0.093413	0.16012	0.33875	0.089514	0.014326	0.11504	0.26842	0.10617	0.14882	0.1364	0.36667	0.16233	0.074017	0.046616	0.18497	-2.6146	-2.9313	-3.0042	-2.6771	-2.9125	-3.1396	-2.8958	-3.0271	-2.9229	-2.7542	-3.2875	-3.0021	-2.9938	-3.1292	-2.7812	-3.1958	144.880	375.458	287.186	393.512	310.834	284.233	390.681	441.848	431.355	102.988	366.195	367.009	452.057	159.646	398.733	394.776	0.0033694	0.00066608	0.00021364	592.09	9.9006e-06	7.4548e-06	896.41	226.09	1.3495e-05	7.655e-06	440.61	195.99	107.88	52.712	9.8791e-06	107.22	0.00043915	0.00023836	7.8455e-05	584.2	2.6765e-06	2.8083e-06	876.97	222.74	2.7153e-06	2.4944e-06	433.79	192.63	104.34	52.668	2.6692e-06	107.14	398.515	173.434	195.555	108.831	236.573	257.814	108.082	113.721	251.144	239.094	112.257	115.636	117.320	122.170	219.714	119.825	-8191	255	
1252.460	1	1	0	0	0.35371	0.043855	0.15079	0.36612	0.13817	0.20161	0.13651	0.31466	0.22613	0.034038	0.28699	0.17962	0.12574	0.20516	0.030899	0.14634	-2.5458	-2.8	-3.0812	-2.7896	-2.9708	-2.9354	-2.8375	-3.0896	-2.8167	-2.85	-3.2938	-3.0583	-2.9562	-3.0479	-2.8375	-3.3333	150.073	296.165	401.342	431.295	116.081	344.744	268.484	146.896	123.031	333.290	441.768	358.139	115.969	350.247	215.300	442.869	0.0033541	0.00075529	0.00021825	581.06	9.503e-06	7.1496e-06	891.51	230.32	9.2409e-06	6.5858e-06	449.6	193.5	107.8	55.665	7.0206e-06	114.38	0.00043271	0.00023322	7.3127e-05	573.94	2.5255e-06	2.8628e-06	874.81	226.76	2.7095e-06	2.4763e-06	443.25	190.89	104.1	55.755	2.6733e-06	114.08	399.151	197.105	206.738	109.090	237.631	263.402	108.309	113.838	241.459	234.991	112.220	115.836	117.746	122.701	251.727	120.508	-8191	255	
1252.532	1	1	0	0	0.01291	0.010976	0.16987	0.12057	0.15585	0.071375	0.31345	0.0084718	0.21448	0.23953	0.23476	0.18487	0.10212	0.030144	0.09579	0.11166	-2.4979	-2.9146	-2.9104	-2.9813	-2.8354	-3.1562	-3.0062	-3	-3.0625	-2.6083	-3.1333	-3.2042	-2.9146	-3.3771	-2.7896	-3.0458	443.723	399.544	211.543	192.017	135.953	128.310	431.249	250.314	310.083	234.617	408.555	391.762	145.381	175.637	332.226	444.181	0.0037292	0.00066948	0.00015371	580.56	8.375e-06	8.6411e-06	914.6	253.59	1.298e-05	6.7492e-06	482.17	203.56	115.48	63.892	1.1384e-05	125.4	0.00045781	0.0002355	7.402e-05	570.99	2.5204e-06	2.9768e-06	895.33	250.27	2.9022e-06	2.5328e-06	473.69	200.98	111.33	63.855	2.7141e-06	125.23	396.741	203.448	210.761	109.419	236.778	265.261	108.354	114.037	252.436	251.966	112.511	116.559	118.251	122.596	257.103	120.294	-8191	255	
1252.628	1	1	0	0	0.21405	0.23366	0.11503	0.25651	0.17158	0.119	0.17767	0.22939	0.13273	0.31221	0.12629	0.17109	0.069091	0.14607	0.16214	0.17118	-2.5417	-2.8187	-2.8375	-3.0854	-2.8	-3.2667	-2.9437	-2.9437	-2.9708	-2.8167	-3.0354	-3.0583	-2.8021	-3.2687	-2.9146	-2.9771	122.273	182.339	281.919	429.689	446.950	218.282	324.033	424.454	205.693	98.504	311.621	420.981	408.557	399.521	340.120	314.819	0.0040232	0.00056566	0.00018891	593.09	1.2637e-05	1.0277e-05	923.13	265.14	1.0503e-05	5.9719e-06	485.9	205.3	118.04	65.507	1.2227e-05	124.89	0.00048369	0.00023879	7.3369e-05	582.35	2.5765e-06	2.9028e-06	906.7	260.96	2.9748e-06	2.5954e-06	477.27	202.56	113.56	65.453	2.7212e-06	124.75	397.214	200.374	198.112	109.474	240.462	256.602	108.414	113.817	258.746	221.321	112.579	116.616	118.380	122.692	242.947	120.503	-8191	255	
1252.748	1	1	0	0	0.067356	0.025643	0.22367	0.13445	0.34321	0.091311	0.24372	0.25366	0.34204	0.1093	0.072617	0.2402	0.15633	0.088611	0.15794	0.12662	-2.5604	-2.7146	-2.7292	-2.8812	-2.7542	-3.0208	-3.0396	-2.7875	-3.1104	-2.8042	-3.1354	-3.1437	-2.7396	-3.1354	-2.8583	-3.0208	142.255	435.539	243.783	122.445	367.895	210.952	339.544	366.566	287.305	223.773	162.061	446.441	411.730	281.802	403.134	121.338	0.0041446	0.00063595	0.00019241	624.89	9.4395e-06	8.2959e-06	948.63	257.25	1.1303e-05	5.7537e-06	457.25	190.54	109.58	57.947	7.3892e-06	109.68	0.00049283	0.00022893	6.8657e-05	615.39	2.4182e-06	2.8796e-06	927.81	253.51	2.8898e-06	2.4754e-06	450.58	188.26	105.35	57.895	2.7675e-06	109.52	397.867	192.543	196.651	109.453	246.166	240.940	108.384	113.922	234.009	245.811	112.594	116.676	118.313	122.629	258.233	120.616	-8191	255	
1252.845	1	1	0	0	0.1561	0.19686	0.25055	0.063521	0.18358	0.27329	0.12811	0.20685	0.12038	0.13831	0.09844	0.1476	0.06557	0.14568	0.12423	0.45847	-2.6229	-2.8521	-2.8167	-3.3521	-2.5729	-3.0479	-3.0292	-2.8063	-3.0354	-3.1312	-3.0604	-3.0917	-2.9417	-3.2062	-2.8833	-2.85	418.900	127.340	339.787	157.092	256.447	274.601	341.573	282.046	184.131	233.352	119.194	415.620	259.442	435.219	423.666	438.151	0.0035195	0.00069601	0.00018531	659.13	9.4494e-06	8.6221e-06	975.77	253.86	8.8705e-06	6.6936e-06	443.13	180.2	103.26	52.856	9.4599e-06	101.56	0.00045501	0.0002368	6.9194e-05	646.83	2.504e-06	2.8303e-06	956.2	249.54	2.9357e-06	2.5285e-06	436.14	177.76	99.18	52.689	2.7725e-06	101.13	398.384	184.122	167.337	108.967	241.544	250.496	107.949	114.128	258.835	226.725	112.329	116.701	118.219	122.863	248.373	120.432	-8191	255	
1252.941	1	1	0	0	0.0093092	0.056182	0.24101	0.10071	0.11208	0.25207	0.15345	0.4397	0.24899	0.11294	0.13333	0.16129	0.055621	0.099155	0.16213	0.21024	-2.7208	-2.7042	-2.6479	-3.3063	-2.7229	-3.0771	-3.0292	-2.8146	-3.1729	-2.7771	-3.0229	-3.1562	-2.7354	-2.8208	-3.0354	-2.9708	240.246	223.889	194.511	190.461	133.070	438.595	420.216	425.906	324.774	431.570	118.777	423.854	134.374	374.104	246.933	412.014	0.0033495	0.00054489	9.0178e-05	672.64	8.5466e-06	4.566e-06	996.1	253.53	8.8347e-06	6.6445e-06	439.19	177.4	101.92	50.19	7.191e-06	96.341	0.00044482	0.00023687	6.8284e-05	663.92	2.478e-06	2.8464e-06	975.37	249.43	2.9209e-06	2.5235e-06	433.43	175.02	97.939	50.149	2.7875e-06	96.009	395.924	192.792	188.795	108.452	262.013	245.446	107.703	113.320	238.359	231.204	111.956	116.165	117.778	122.425	243.279	120.671	-8191	255	
1253.060	1	1	0	0	0.17671	0.16403	0.091389	0.20756	0.15181	0.19335	0.40094	0.10788	0.34336	0.29388	0.10811	0.17717	0.21699	0.10744	0.069506	0.15575	-2.5771	-2.7917	-2.6542	-3.2146	-2.7333	-3.1208	-3.1937	-2.8396	-3.0792	-2.9917	-3.0583	-3.1188	-2.9104	-2.7542	-3.1521	-2.9729	446.542	295.788	406.621	364.345	189.360	387.908	375.126	330.134	371.341	147.987	372.716	370.146	334.671	446.453	332.466	438.298	0.0030452	0.00064426	0.00021122	700.69	8.4037e-06	8.0864e-06	1018.8	251.6	1.2225e-05	4.3575e-06	441.42	177.4	101.15	49.65	1.1393e-05	95.804	0.00042647	0.00023677	6.509e-05	686.46	2.5932e-06	2.7279e-06	999.03	248.22	2.8256e-06	2.5785e-06	433.36	174.54	97.718	49.406	2.9294e-06	95.493	395.492	186.632	199.992	108.501	248.882	230.256	107.834	113.433	240.860	238.694	111.937	115.969	117.375	122.541	249.530	120.541	-8191	255	
1253.131	1	1	0	0	0.046798	0.26287	0.37361	0.31664	0.11638	0.26246	0.045125	0.28264	0.16306	0.14385	0.11955	0.22332	0.27005	0.11462	0.42877	0.11954	-2.5312	-3.0167	-2.8	-3.1083	-2.8417	-2.7917	-3.2313	-2.7917	-2.9813	-3.0062	-2.7771	-2.9667	-2.8812	-3.0396	-3.2062	-3.0062	139.152	323.814	333.997	426.971	185.143	124.780	280.525	392.789	397.654	153.751	107.688	111.526	357.197	303.983	251.984	443.652	0.0030558	0.00062656	0.00022177	687.44	8.9896e-06	6.1726e-06	1004.3	245.26	1.3066e-05	6.7005e-06	438.24	180.19	102.74	48.892	9.4978e-06	94.673	0.00042985	0.00024782	6.5684e-05	675.4	2.5966e-06	2.689e-06	984.54	241.86	2.8817e-06	2.767e-06	432.94	177.7	99.228	48.67	3.0455e-06	94.134	397.963	185.652	178.805	108.369	241.679	252.758	107.535	113.395	241.763	220.588	111.970	115.797	117.199	122.372	262.868	120.245	-8191	255	
1253.227	1	1	0	0	0.0519	0.051521	0.072068	0.26348	0.36058	0.15739	0.30361	0.095076	0.17132	0.27787	0.18187	0.24474	0.11788	0.21118	0.36146	0.22358	-2.5833	-2.9104	-2.7042	-2.8917	-2.8812	-2.7146	-3.0625	-2.8708	-2.8292	-2.9979	-2.6708	-3.1396	-2.8458	-2.8583	-3.1708	-2.9562	181.398	297.276	185.071	431.995	163.329	288.042	368.369	403.136	442.979	409.025	402.249	425.738	439.839	405.424	446.367	377.300	0.0030704	0.00056539	0.00021192	680.07	6.654e-06	7.2971e-06	996.63	240.04	1.5645e-05	6.1629e-06	438.67	187.43	105.63	49.224	8.6668e-06	95.304	0.00042856	0.00026231	6.7381e-05	669.72	2.7638e-06	2.7693e-06	975.02	235.84	2.9809e-06	3.0156e-06	432	184.28	101.79	49.212	3.2976e-06	95.007	398.566	163.698	191.920	108.513	247.374	250.390	107.540	113.395	250.086	228.119	112.021	115.415	116.719	121.960	228.430	120.129	-8191	255	
1253.324	1	1	0	0	0.16375	0.083999	0.19668	0.21727	0.2029	0.20072	0.028559	0.16488	0.049828	0.24655	0.23576	0.19927	0.24182	0.090397	0.22485	0.32074	-2.6625	-2.9542	-2.7333	-2.9917	-2.8646	-2.8521	-3.2625	-2.7958	-2.7438	-3.25	-3.0479	-3.2	-2.8604	-2.7521	-2.9958	-2.9375	358.432	271.199	383.090	407.854	281.773	310.125	153.500	415.113	266.049	373.913	439.793	402.404	441.848	429.078	97.893	442.789	0.0031363	0.0005881	0.00021586	658.74	6.7046e-06	5.9921e-06	969.36	233.03	7.4157e-06	6.2946e-06	434.01	191.54	106.8	49.464	1.0976e-05	96.861	0.00043307	0.00028115	7.0463e-05	648.9	2.8313e-06	2.7866e-06	949.27	229.37	3.0153e-06	3.1208e-06	427.58	188.37	103.16	49.544	3.3761e-06	96.583	394.908	146.643	179.156	108.435	230.340	273.119	107.546	113.452	253.169	253.225	112.089	115.327	116.681	121.722	225.928	120.058	-8191	255	
1253.421	1	1	0	0	0.21687	0.051478	0.23794	0.38505	0.13979	0.20489	0.36772	0.23529	0.060528	0.066948	0.29016	0.2487	0.29804	0.29829	0.052725	0.13441	-2.4208	-3.0062	-2.6917	-2.9083	-2.8396	-2.8521	-2.9896	-3.0208	-2.7271	-3.0333	-2.6042	-3.0125	-2.9167	-2.7687	-2.9083	-3.0042	365.312	432.131	278.692	435.693	259.977	190.408	375.539	414.315	185.626	126.912	395.715	443.535	113.548	98.638	204.434	376.892	0.0032278	0.00058152	0.00015158	620.28	7.9158e-06	6.1114e-06	925.26	225.22	1.2571e-05	4.8408e-06	436.1	197.09	110.45	51.046	1.082e-05	101.12	0.00044187	0.00029857	7.4406e-05	613.1	3.023e-06	2.8975e-06	908	222.79	2.9881e-06	3.1893e-06	428.41	194.76	106.69	51.082	3.4186e-06	100.78	395.619	172.408	191.271	108.270	246.806	223.672	107.760	113.465	230.023	255.325	111.757	115.062	117.056	121.576	260.497	119.748	-8191	255	
1253.540	1	1	0	0	0.1407	0.22524	0.10059	0.17808	0.17794	0.21521	0.16978	0.23823	0.26189	0.24047	0.077125	0.14948	0.19339	0.24553	0.22051	0.42133	-2.2708	-2.9792	-2.7833	-2.9417	-2.9479	-2.7333	-3.2271	-2.9396	-2.8312	-3.1229	-2.8688	-3.0229	-3.0521	-2.825	-2.9125	-3.0917	145.859	136.832	229.100	325.605	153.264	454.146	363.674	434.188	131.478	285.800	216.545	336.552	442.162	444.139	115.257	378.190	0.0032573	0.00061943	0.00016096	600.72	8.9299e-06	7.9093e-06	904.87	227.7	8.831e-06	8.5058e-06	438.3	203.71	114.55	52.065	6.5947e-06	104.63	0.00044589	0.00030486	7.5127e-05	591.8	3.1688e-06	2.9543e-06	888.06	225.25	3.1346e-06	3.4003e-06	431.37	200.98	110.76	52.104	3.4179e-06	104.58	395.259	202.601	180.990	108.553	252.669	252.489	108.165	113.161	236.433	247.311	111.468	115.101	116.747	121.329	245.099	119.618	-8191	255	
1253.636	1	1	0	0	0.10452	0.08432	0.098021	0.045795	0.17257	0.28819	0.16245	0.18917	0.11828	0.20953	0.21172	0.071319	0.30475	0.061658	0.14959	0.24749	-2.2354	-3.0625	-2.5896	-2.9375	-2.9375	-2.775	-2.975	-2.8958	-2.65	-2.9083	-2.9188	-3.1167	-2.9625	-2.9979	-2.8	-3.1458	269.077	383.018	326.727	227.996	376.402	336.751	117.879	347.914	228.737	252.252	133.107	399.009	344.100	128.370	384.348	407.419	0.0032786	0.00048252	0.00025334	588.08	1.1895e-05	5.0474e-06	893.68	228.54	1.2229e-05	7.1586e-06	441.17	204.78	114.1	52.304	8.7292e-06	106.07	0.00045354	0.00031024	7.726e-05	578.85	3.321e-06	2.9658e-06	877.98	226.01	2.9498e-06	3.4762e-06	434.71	201.67	110.73	52.451	3.301e-06	105.76	397.597	184.786	179.769	108.455	242.012	228.701	108.064	113.491	237.518	263.903	111.881	115.292	116.755	121.410	248.945	119.514	-8191	255	
1253.708	1	1	0	0	0.24654	0.15279	0.03256	0.078188	0.15892	0.18271	0.22284	0.31177	0.16821	0.16279	0.15769	0.21782	0.1797	0.25878	0.12193	0.12883	-2.3458	-3.0396	-2.8271	-2.7521	-3.0958	-2.7979	-3.1396	-3.0417	-2.7313	-3.0521	-3.05	-3.0146	-3.0208	-2.9167	-2.9437	-3.0896	405.844	338.110	101.737	433.088	340.446	334.524	400.126	394.772	386.517	367.256	396.451	381.747	359.502	387.495	360.504	402.293	0.0033857	0.00062425	0.0001219	585.92	9.6742e-06	5.0132e-06	891.89	230.75	1.2073e-05	5.3446e-06	440.32	204.8	114.99	52.28	1.0925e-05	106.21	0.00045388	0.00030739	7.6307e-05	576.25	3.2402e-06	2.8675e-06	874.54	227.27	2.9326e-06	3.4089e-06	434.55	201.91	111.49	52.376	3.183e-06	105.9	397.599	180.362	174.019	108.753	239.443	235.180	108.237	113.579	247.272	216.963	111.415	114.902	116.626	121.458	256.962	119.398	-8191	255	
1253.829	1	1	0	0	0.19733	0.24842	0.10946	0.20429	0.1111	0.062929	0.082468	0.18971	0.27815	0.28684	0.18617	0.26988	0.23147	0.12494	0.22358	0.27562	-2.2833	-3.1437	-2.7354	-2.8271	-2.9375	-2.7687	-3.0708	-3.1688	-2.6271	-2.8312	-3.1	-2.8375	-3.0542	-3.0583	-2.9333	-3.1417	377.531	218.871	241.421	116.357	261.073	218.905	270.033	418.439	248.294	333.202	122.358	412.633	364.102	453.631	326.175	447.029	0.0031857	0.00070816	0.00018561	590.65	1.0027e-05	8.6991e-06	894.82	230.79	1.223e-05	6.6015e-06	441.47	205.69	116.5	52.584	8.8751e-06	105.57	0.00045324	0.00031453	7.7935e-05	579.57	3.3305e-06	3.0019e-06	880.47	228.86	3.0274e-06	3.3544e-06	435.29	203.15	112.52	52.445	3.1894e-06	105.51	395.912	197.054	197.458	108.654	249.044	241.097	107.670	113.251	240.615	239.461	111.931	115.177	116.467	121.496	252.546	119.642	-8191	255	
1253.925	1	1	0	0	0.027449	0.14882	0.044754	0.076099	0.012381	0.12304	0.1726	0.1873	0.23368	0.10106	0.22774	0.064907	0.20354	0.071314	0.11775	0.52659	-2.3312	-2.9146	-2.8667	-2.6542	-3.3229	-2.9062	-2.9604	-3.0833	-2.8063	-2.9771	-3.0917	-2.7917	-3.1833	-2.8937	-2.8917	-3.0417	280.999	403.512	224.114	169.653	288.174	424.145	367.480	398.979	282.766	359.307	439.387	188.471	289.441	100.218	101.203	407.637	0.0033047	0.00057191	0.00025226	592.41	7.5949e-06	7.3445e-06	895.69	228.84	1.2129e-05	4.4917e-06	440.39	205.87	115.57	52.318	1.1029e-05	105.64	0.00045976	0.00030849	8.0159e-05	583.02	3.4319e-06	3.0138e-06	878.26	227.19	3.0035e-06	3.2791e-06	435.22	202.65	111.74	52.456	3.1606e-06	105.52	396.256	188.149	187.633	108.568	216.534	248.781	108.119	113.421	245.873	233.561	111.757	115.248	116.743	121.451	246.703	119.559	-8191	255	
1254.021	1	1	0	0	0.25712	0.24966	0.1469	0.28362	0.030384	0.093826	0.21673	0.18891	0.096281	0.26519	0.097209	0.2484	0.245	0.16759	0.20823	0.13023	-2.3792	-2.9292	-3.0333	-2.8521	-2.9854	-2.9125	-2.9958	-3.1458	-2.8104	-2.9771	-3.1708	-2.8354	-3.0083	-2.9167	-2.8187	-3.2542	109.531	413.892	360.303	119.551	204.614	116.632	387.140	332.147	329.244	441.996	446.783	403.321	403.901	366.008	120.371	396.376	0.0033797	0.00075093	0.00017672	591.99	8.3497e-06	5.738e-06	897.54	229.16	1.4831e-05	4.8666e-06	441.97	203.68	114.15	52.101	7.8874e-06	105.78	0.00045572	0.00029669	7.9572e-05	583.35	3.2308e-06	2.9029e-06	880.85	225.81	3.0403e-06	3.1313e-06	436.25	200.55	110.06	52.139	2.9732e-06	105.61	396.663	190.776	208.255	108.570	250.155	244.571	107.967	113.532	247.568	276.759	111.593	115.123	116.826	121.792	246.999	119.695	-8191	255	
1254.140	1	1	0	0	0.27225	0.012522	0.11968	0.16517	0.11589	0.12833	0.2248	0.11804	0.22654	0.33886	0.22225	0.12328	0.32686	0.30851	0.099114	0.1695	-2.2167	-2.8917	-2.8854	-2.925	-3.0167	-3.1167	-2.7604	-3.125	-2.75	-3.0229	-3.2	-2.8625	-2.8375	-3.0979	-2.7708	-3.2479	429.753	402.131	204.872	151.850	156.991	118.342	379.416	267.879	285.165	267.177	404.614	408.233	165.915	414.849	325.669	419.363	0.0034749	0.00030766	0.00021578	589.27	7.6419e-06	4.5343e-06	890.57	227.47	1.1518e-05	4.9909e-06	443.22	203.55	112.81	52.224	9.109e-06	105.31	0.00045245	0.00027617	8.1291e-05	579.6	3.2105e-06	3.0471e-06	874.11	225.07	2.9486e-06	3.0365e-06	436.07	199.88	109.4	52.243	2.9846e-06	105.1	397.159	206.625	180.141	108.472	247.103	254.535	108.007	113.580	248.340	257.766	111.751	115.105	116.501	121.813	242.181	119.779	-8191	255	
1254.236	1	1	0	0	0.16633	0.066184	0.046278	0.17756	0.10265	0.21733	0.24572	0.30155	0.13984	0.21899	0.11475	0.1402	0.28203	0.11378	0.17025	0.27648	-2.4708	-2.7646	-3.1542	-2.8563	-3.025	-3.0479	-2.6979	-3.1708	-2.775	-2.975	-3.0312	-3.0521	-2.8438	-3.1396	-2.7438	-3.2062	237.866	452.167	403.391	387.458	407.586	133.612	416.824	371.466	142.330	309.678	124.043	406.909	100.551	229.660	288.214	391.094	0.003332	0.00046774	0.0002248	580.51	7.4322e-06	7.363e-06	881.28	227.1	1.1251e-05	6.1198e-06	437.66	203.17	113.9	52.157	7.4975e-06	105.23	0.0004426	0.00027489	8.308e-05	572.18	3.1645e-06	3.0626e-06	867.35	223.88	2.918e-06	2.9302e-06	433.46	199.85	109.72	52.179	2.9441e-06	105.07	397.302	186.385	203.815	108.581	234.244	250.649	108.207	113.679	249.294	232.436	111.688	115.269	116.551	121.756	240.509	119.857	-8191	255	
1254.332	1	1	0	0	0.1444	0.15287	0.13219	0.10121	0.17888	0.14584	0.048757	0.031867	0.081519	0.13418	0.13548	0.45212	0.21774	0.28531	0.10659	0.42323	-2.4146	-2.7938	-2.8937	-2.8187	-2.7875	-3.0229	-2.7333	-2.8979	-2.8792	-2.7771	-3.0625	-2.8146	-2.9437	-2.9562	-2.8479	-3.1333	221.618	99.948	428.964	359.855	289.829	370.359	266.548	157.218	117.629	261.164	349.362	404.234	114.829	367.065	114.733	366.219	0.0034257	0.00067529	0.00019748	586.98	5.605e-06	6.1381e-06	889.17	226.74	1.5101e-05	5.6035e-06	440.8	202.21	112.66	52.297	7.4872e-06	105.61	0.00046118	0.00026606	8.353e-05	575.53	3.0563e-06	3.1652e-06	872.98	224.47	2.9826e-06	2.8777e-06	434.27	199.44	109.23	52.23	2.9395e-06	105.55	396.708	189.222	196.421	108.663	240.723	249.586	108.171	113.395	234.905	253.821	111.496	115.352	117.050	121.690	244.625	119.827	-8191	255	
1254.428	1	1	0	0	0.25545	0.17075	0.10426	0.11394	0.022057	0.23352	0.28492	0.061899	0.16315	0.13137	0.21257	0.14025	0.29203	0.36379	0.11486	0.22307	-2.4562	-2.6979	-2.9979	-2.9417	-2.8979	-2.9146	-2.9083	-2.8354	-2.8271	-2.6458	-3.2042	-2.9708	-2.9083	-3.1083	-2.6771	-3.1188	209.996	123.234	299.267	337.531	386.160	260.285	355.724	102.462	209.313	433.436	332.502	344.049	111.498	342.186	126.449	97.859	0.0034104	0.00068111	0.00024002	583	9.8898e-06	7.6513e-06	880.37	226.26	9.8757e-06	6.9842e-06	444.37	198.8	111.4	52.785	7.6938e-06	108.11	0.00046167	0.00025388	8.2939e-05	572.01	2.871e-06	3.1378e-06	864.99	223.26	2.9231e-06	2.7317e-06	437.9	196.68	106.85	52.816	2.7746e-06	107.92	395.701	206.556	185.527	108.702	262.052	272.131	108.338	113.662	240.927	237.055	111.880	115.477	116.970	122.074	244.733	119.901	-8191	255	
1254.525	1	1	0	0	0.23397	0.21224	0.079649	0.054653	0.091341	0.15713	0.13209	0.26971	0.15253	0.19453	0.043716	0.26729	0.21753	0.049272	0.077687	0.56546	-2.5146	-2.7979	-3.0812	-2.8646	-2.5667	-3.0396	-2.8333	-2.8542	-2.75	-2.6729	-3.0521	-2.9875	-2.7604	-3.2125	-2.8875	-3.0896	188.315	258.827	282.745	100.638	129.657	328.239	329.971	437.822	287.650	178.324	284.103	411.175	274.921	428.982	163.569	353.350	0.0034798	0.00067404	0.00017256	555.27	1.0734e-05	4.6258e-06	864.51	228.91	1.053e-05	5.1702e-06	450.98	198.84	110.41	54.478	5.9928e-06	110.48	0.00046281	0.00024226	7.9186e-05	548.47	2.82e-06	3.1015e-06	848.83	225.26	3.0059e-06	2.7181e-06	443.72	196.47	106.49	54.561	2.8384e-06	110.18	396.622	184.039	165.885	109.091	235.286	262.953	108.506	113.746	244.020	233.246	112.004	115.872	117.200	122.279	234.917	120.109	-8191	255	
1254.621	1	1	0	0	0.27459	0.22772	0.39715	0.22193	0.044113	0.043216	0.19672	0.097009	0.13333	0.2518	0.13891	0.24585	0.36381	0.29484	0.1402	0.16586	-2.4354	-2.7521	-2.9604	-2.7896	-2.6625	-3.1312	-2.8979	-2.8604	-3.0208	-2.6333	-3.1354	-3.1292	-2.6688	-3.2	-2.8125	-2.9313	166.466	136.002	118.447	444.465	134.826	141.912	431.860	455.571	197.744	299.409	455.362	436.770	449.309	120.594	108.295	301.032	0.0037316	0.00064901	0.00013695	545.47	9.2004e-06	7.4397e-06	861.27	229.9	1.1318e-05	6.0637e-06	451.35	200.24	111.51	54.753	9.5194e-06	110.12	0.00047712	0.00024761	7.6641e-05	538.81	2.726e-06	3.1157e-06	844.33	226.15	3.0498e-06	2.6994e-06	444.74	197.65	107.22	54.744	2.9028e-06	110.03	396.993	191.000	201.345	109.125	247.657	250.602	108.393	113.905	235.363	232.831	112.130	115.872	117.372	122.337	257.376	120.062	-8191	255	
1254.741	1	1	0	0	0.19464	0.15196	0.29981	0.22223	0.047377	0.089407	0.32409	0.06728	0.068057	0.093161	0.38115	0.38653	0.14337	0.20788	0.04555	0.066295	-2.6771	-2.6125	-3.0687	-3.1937	-2.7146	-3.0062	-3.0104	-2.9208	-3.1188	-2.6479	-3.1708	-3.1604	-2.7771	-3.1729	-2.6188	-3.1896	373.731	361.730	299.982	125.538	444.148	420.303	373.317	107.381	215.385	339.856	437.598	360.312	423.107	100.316	385.138	377.737	0.0035977	0.00057938	0.00019247	552.64	1.0727e-05	9.0068e-06	866.15	228.53	1.1579e-05	6.8137e-06	450.3	201.49	111.34	54.163	9.8794e-06	109.69	0.00047897	0.00025227	7.7952e-05	544.69	2.7968e-06	3.1454e-06	849.68	225.19	3.0801e-06	2.7006e-06	442.75	198.37	107.68	54.081	2.8926e-06	109.49	395.102	182.266	191.713	109.110	237.427	252.550	108.478	113.691	250.621	238.008	111.996	115.638	117.434	122.183	247.466	119.894	-8191	255	
1254.837	1	1	0	0	0.11758	0.36439	0.12809	0.18819	0.050608	0.43516	0.12677	0.221	0.13468	0.051995	0.37853	0.36074	0.15011	0.28378	0.21107	0.10072	-2.5	-2.7604	-2.8438	-3.0354	-2.5687	-2.8875	-2.9688	-2.7062	-3.0229	-3.0229	-2.7146	-3.1771	-2.7229	-3.125	-2.8833	-2.9167	184.300	266.675	203.767	407.450	128.577	189.394	347.119	367.513	154.747	352.248	373.952	448.094	145.400	106.368	320.488	408.105	0.0034851	0.00065113	0.00011184	558.98	7.584e-06	6.3033e-06	868.85	226.87	1.4436e-05	5.7081e-06	447.87	203.88	112.39	53.211	8.1757e-06	108.16	0.00047972	0.00024532	7.3914e-05	549.77	2.5842e-06	3.0597e-06	852.96	223.94	3.1389e-06	2.7023e-06	440.26	200.55	108.83	53.343	2.8718e-06	108.03	396.576	187.752	201.800	108.747	230.178	236.508	108.072	113.721	240.232	241.967	111.815	115.344	117.129	122.092	225.006	119.975	-8191	255	
1254.934	1	1	0	0	0.070522	0.1038	0.11409	0.14534	0.14467	0.41984	0.37502	0.31297	0.1961	0.17094	0.1175	0.10092	0.33381	0.060859	0.2922	0.30259	-2.525	-2.6896	-2.6188	-3.1354	-2.975	-2.7917	-3.0729	-2.7146	-3.1625	-2.8187	-2.9646	-3.3146	-2.6688	-2.9708	-2.9021	-2.9562	120.674	442.269	304.089	167.154	263.605	105.250	378.154	105.892	216.169	260.642	148.369	351.710	446.250	448.497	432.342	403.576	0.0034871	0.00066393	0.00023691	568.75	1.0155e-05	6.4211e-06	870.86	225.26	1.2376e-05	5.7628e-06	441.4	202.23	112.71	52.716	1.0361e-05	105.81	0.0004678	0.00025142	7.1851e-05	560.91	2.7231e-06	2.9201e-06	857.21	222.3	3.074e-06	2.7113e-06	435.19	198.96	108.85	52.717	3.1097e-06	105.65	397.202	188.605	217.971	108.674	223.823	228.718	108.259	113.790	235.944	236.168	112.135	115.402	117.221	121.672	230.549	119.674	-8191	255	
1255.005	1	1	0	0	0.078569	0.10369	0.13944	0.24242	0.17431	0.12334	0.12181	0.17934	0.11594	0.088362	0.1474	0.27023	0.23455	0.24559	0.089349	0.40371	-2.5667	-2.8604	-2.825	-2.9938	-2.9417	-3.0146	-3.0833	-3.0583	-2.9146	-2.6833	-2.9188	-3.3042	-2.6333	-3.0292	-3.0292	-2.8688	377.163	354.382	395.804	406.610	341.598	315.684	342.167	145.078	395.356	403.122	361.627	354.224	175.304	418.414	442.080	387.785	0.0036016	0.00038239	0.00014545	578.61	8.7572e-06	3.6688e-06	878.72	225.96	1.4199e-05	4.9237e-06	438.73	200.42	111.93	51.785	5.5965e-06	104.39	0.00047294	0.00025372	7.2828e-05	568.1	2.7163e-06	2.9176e-06	863.98	222.24	3.1576e-06	2.8709e-06	431.4	197.22	108.04	51.885	3.0396e-06	103.96	396.891	179.882	218.967	108.412	222.708	235.114	108.044	113.508	252.270	249.973	111.835	115.446	116.799	121.888	264.439	119.977	-8191	255	
1255.101	1	1	0	0	0.1332	0.23034	0.14192	0.33715	0.23639	0.19247	0.31752	0.14857	0.5091	0.14274	0.23104	0.18376	0.084649	0.13924	0.14655	0.28558	-2.5667	-2.8083	-2.6229	-2.8271	-2.7708	-2.8875	-3.1583	-2.9813	-3.1583	-2.9604	-2.7708	-3.2792	-2.8917	-3.0208	-2.8417	-2.8833	114.661	120.682	393.877	438.399	127.566	210.888	366.201	405.373	179.138	382.082	442.593	96.127	307.733	177.873	135.288	360.438	0.0034089	0.00079802	0.00025183	582.65	1.0281e-05	5.696e-06	888.56	225.33	1.5423e-05	5.2626e-06	438.05	200.62	112.58	51.484	7.4578e-06	103.77	0.00046478	0.00027185	7.0375e-05	573.64	2.7824e-06	2.9574e-06	869.84	221.99	3.1641e-06	2.9491e-06	430.04	197.9	108.49	51.465	3.1879e-06	103.26	396.798	182.804	189.887	108.824	227.200	231.991	108.304	113.960	241.476	209.398	111.909	115.371	116.483	121.877	225.121	119.677	-8191	255	
1255.220	1	1	0	0	0.25732	0.26403	0.14262	0.20615	0.4804	0.20909	0.094118	0.19823	0.087768	0.23262	0.20707	0.16201	0.25602	0.30115	0.14821	0.057777	-2.5521	-2.7938	-2.7458	-3.025	-3.0583	-2.8417	-3.1562	-2.7542	-2.7042	-2.8771	-2.7375	-3.1771	-2.8333	-2.9813	-3.0042	-3.1521	290.206	103.979	105.947	364.154	142.726	223.118	378.131	143.896	329.669	149.312	427.642	404.711	196.837	124.281	99.701	236.890	0.0032446	0.00073113	0.00015972	589.72	4.5191e-06	6.3974e-06	894.96	226.29	9.4432e-06	6.3344e-06	437.32	200.02	111.7	51.057	9.135e-06	102.87	0.00046272	0.00027095	7.0428e-05	581.83	2.8191e-06	2.9137e-06	877.17	222.14	3.1416e-06	2.9452e-06	429.55	197.33	108.18	51.175	3.2684e-06	102.64	396.999	193.314	199.387	108.664	233.847	216.003	108.238	113.645	240.004	254.800	111.931	115.387	117.276	121.719	235.581	119.647	-8191	255	
1255.316	1	1	0	0	0.25351	0.1646	0.12638	0.16147	0.2859	0.2126	0.11077	0.44035	0.04695	0.1885	0.037368	0.52597	0.26897	0.12212	0.089567	0.30945	-2.4958	-3.0333	-2.7812	-3.0167	-2.7104	-2.8104	-3.1667	-2.8896	-2.8896	-2.9292	-2.8771	-2.9604	-2.9042	-2.8667	-2.9667	-3.0229	293.264	270.241	175.371	307.976	419.475	219.681	115.581	383.356	292.739	98.083	439.343	413.878	383.871	125.716	205.218	431.443	0.003309	0.00080132	0.00015715	596.5	1.0743e-05	7.4946e-06	898.73	224.69	8.3534e-06	5.8612e-06	433.88	199.57	112.1	50.739	5.0781e-06	102.12	0.00045891	0.00028409	7.0554e-05	588.85	2.9183e-06	2.8764e-06	881.41	221.31	3.0707e-06	3.0024e-06	426.97	195.99	107.7	50.795	3.2788e-06	101.7	396.949	201.948	186.625	108.650	228.420	242.629	108.078	113.744	255.712	246.113	111.878	115.322	116.656	121.679	253.917	119.849	-8191	255	
1255.413	1	1	0	0	0.21486	0.17392	0.20809	0.1091	0.045296	0.097907	0.16222	0.060909	0.078789	0.093979	0.12757	0.20498	0.22908	0.19951	0.1903	0.053382	-2.6646	-3.0896	-2.7042	-2.9604	-2.7167	-2.7354	-2.9833	-2.9313	-2.8812	-3.1688	-2.85	-3.0417	-2.9271	-2.6958	-3.1375	-3.0458	144.146	106.191	422.065	170.716	321.134	169.456	357.615	231.302	349.790	338.478	410.222	113.563	449.979	390.305	450.620	366.413	0.0033593	0.00078555	0.00024056	597.4	1.0168e-05	7.9937e-06	899.29	223.84	1.102e-05	6.6106e-06	431.25	198.58	112.03	50.432	1.1526e-05	101.7	0.00045009	0.00028933	6.9961e-05	587.56	2.9697e-06	2.7878e-06	880.67	220.65	2.9307e-06	3.1449e-06	424.6	195.62	107.9	50.453	3.2202e-06	101.65	396.061	181.117	193.886	108.780	250.646	231.223	108.047	113.537	238.627	211.630	112.011	115.161	116.912	121.849	248.564	119.900	-8191	255	
1255.509	1	1	0	0	0.11244	0.11261	0.18011	0.11116	0.20718	0.15807	0.15041	0.21159	0.036014	0.2501	0.10192	0.11618	0.13695	0.13375	0.20753	0.25236	-2.4521	-3.0896	-2.6375	-3.0833	-2.8958	-2.8833	-3.0771	-2.9708	-2.6188	-3.0833	-2.5812	-3.1312	-3.025	-2.9021	-2.9292	-3.0125	213.714	314.492	420.385	153.876	225.271	390.383	372.128	114.738	244.782	388.782	383.080	408.184	306.653	409.349	164.800	329.051	0.0032574	0.0006228	0.00019376	599.26	8.7124e-06	6.1927e-06	899.85	225.02	8.2955e-06	5.087e-06	432.6	201.13	113.54	51.25	1.0131e-05	103.14	0.00045094	0.00029162	7.2589e-05	591.97	3.053e-06	2.8605e-06	883.89	222.09	3.01e-06	3.245e-06	426.18	198.16	109.71	51.182	3.3804e-06	103.28	398.164	174.887	202.222	108.600	249.513	255.148	108.117	113.566	246.569	232.172	111.653	115.071	117.000	121.747	258.654	119.588	-8191	255	
1255.629	1	1	0	0	0.1462	0.16382	0.032843	0.18204	0.1858	0.29422	0.046374	0.24467	0.23847	0.080583	0.067633	0.33187	0.10558	0.19987	0.06621	0.15073	-2.3875	-3.0625	-2.7917	-2.9083	-2.9917	-2.6229	-3.0583	-3.0021	-2.8583	-3.1958	-3	-2.9604	-3.2938	-2.8167	-3.0146	-3.1417	430.109	189.551	395.076	360.715	196.864	438.870	252.775	371.271	185.538	142.665	363.727	416.439	401.347	448.163	233.777	424.884	0.0032755	0.0005273	0.00014407	605.08	9.0038e-06	8.1085e-06	905.92	227.61	7.7362e-06	7.4861e-06	434.21	202.82	114.92	51.669	9.4936e-06	103.88	0.00045696	0.00030393	7.6497e-05	597.64	3.307e-06	2.9249e-06	889.75	225.3	2.9674e-06	3.3635e-06	428.03	199.85	111.07	51.704	3.4103e-06	103.91	395.344	194.177	216.163	108.694	236.804	243.514	108.019	113.423	253.809	243.060	111.848	115.157	117.023	121.449	247.538	119.708	-8191	255	
1255.701	1	1	0	0	0.18619	0.10916	0.24271	0.14548	0.072511	0.194	0.26253	0.30848	0.16211	0.0057818	0.118	0.23621	0.069448	0.18035	0.24719	0.25635	-2.3	-3.1	-2.7438	-2.9229	-3.0292	-2.75	-3.0812	-2.8438	-2.8063	-3.0708	-2.6771	-3.0229	-3.0062	-3.0604	-2.8521	-3.1375	156.105	386.215	250.603	161.108	132.524	400.928	364.728	430.838	386.755	243.136	419.076	155.985	418.788	191.370	230.782	339.149	0.0034286	0.00059351	0.00022346	602.67	6.8879e-06	7.1644e-06	898.5	228.24	1.1821e-05	6.0239e-06	435.25	202.36	114.4	51.317	7.9999e-06	104.17	0.00045495	0.00030404	7.7267e-05	594.07	3.2939e-06	2.8632e-06	882.25	225.31	2.9384e-06	3.2788e-06	429.03	199.26	110.25	51.462	3.3542e-06	103.87	397.017	198.808	195.906	108.699	234.528	222.906	108.084	113.352	238.723	259.951	111.845	115.077	116.854	121.500	266.744	119.702	-8191	255	
1255.822	1	1	0	0	0.039535	0.053558	0.2019	0.17318	0.10234	0.054559	0.18233	0.11464	0.13516	0.043884	0.23826	0.067028	0.18243	0.31102	0.084051	0.099786	-2.2208	-3.0104	-2.8	-2.8021	-3.0854	-2.8063	-3.2062	-3.1167	-2.4938	-3.2313	-3.1063	-2.8312	-2.9917	-2.8292	-2.8479	-3.2729	114.505	134.531	369.714	140.369	438.178	412.908	349.090	153.038	145.566	293.476	391.763	99.710	399.428	453.088	238.182	383.392	0.0034316	0.00057517	0.00023163	598.24	8.3902e-06	9.0718e-06	897.58	228.01	1.2366e-05	6.177e-06	434.7	202.83	113.51	51.452	7.0412e-06	104.56	0.00045477	0.0002983	7.5366e-05	587.93	3.255e-06	2.8401e-06	878.74	225.17	2.8442e-06	3.221e-06	429.57	199.38	110	51.415	3.127e-06	104.34	395.911	166.923	190.346	108.492	251.533	239.383	108.085	113.345	240.785	264.387	111.889	115.021	116.842	121.658	244.800	119.828	-8191	255	
1255.918	1	1	0	0	0.26281	0.14835	0.17798	0.12151	0.035926	0.072803	0.13424	0.13469	0.072213	0.06182	0.33645	0.23242	0.12363	0.21827	0.23223	0.099062	-2.1771	-3.0187	-2.9604	-2.6688	-3.1688	-2.7896	-2.7375	-3.1396	-2.8979	-2.9583	-3.0854	-2.975	-3.0771	-2.9667	-2.8354	-3.1437	382.176	320.352	146.001	321.083	425.741	206.332	271.839	420.593	387.672	417.500	387.734	343.587	138.353	106.844	162.194	406.042	0.0035007	0.00051175	0.00021405	595.05	7.2592e-06	5.6702e-06	900.96	227.64	1.065e-05	4.6446e-06	437.87	203.95	114.41	52.094	5.4775e-06	106.28	0.00045304	0.00029396	7.753e-05	586.46	3.2377e-06	2.8628e-06	880.48	224.74	2.8889e-06	3.2544e-06	431.33	200.78	110.85	51.959	3.1578e-06	105.71	395.407	192.264	193.024	108.825	239.403	254.993	108.168	113.614	244.267	238.823	111.844	115.195	116.763	121.762	258.769	119.769	-8191	255	
1256.014	1	1	0	0	0.035923	0.22281	0.11317	0.18269	0.28009	0.15731	0.15989	0.050985	0.16168	0.18736	0.16809	0.058327	0.070113	0.1971	0.10549	0.17181	-2.2021	-2.8479	-3.0438	-2.7042	-3.0958	-3.05	-2.5833	-3.1896	-2.6542	-3.2375	-2.9896	-2.7354	-3.0083	-3.0187	-2.9125	-3.1	128.404	369.453	129.478	208.788	241.504	227.239	387.432	451.067	437.406	119.094	114.916	342.058	103.721	125.659	156.286	352.438	0.0034632	0.00053494	0.00019743	595.26	9.7025e-06	7.3731e-06	899.5	229.2	1.244e-05	5.773e-06	439.79	205.26	115.18	52.052	8.3238e-06	106.45	0.00044858	0.00030099	7.8919e-05	587.61	3.1884e-06	2.9147e-06	883.92	226.74	2.8324e-06	3.0736e-06	433.66	201.73	111.04	52.016	2.9877e-06	106.29	397.966	188.810	197.974	108.783	244.237	234.758	107.923	113.437	251.183	264.272	111.646	115.226	116.709	121.474	226.593	119.712	-8191	255	
1256.110	1	1	0	0	0.1877	0.16653	0.19325	0.032029	0.22093	0.10887	0.32015	0.15036	0.1323	0.10141	0.4538	0.10622	0.11779	0.28827	0.20487	0.1457	-2.4417	-3.0583	-3.0208	-2.9854	-3.0354	-2.8812	-2.8104	-3.2104	-2.9146	-2.8292	-3.1813	-2.8229	-3.0229	-3.0583	-2.5812	-3.1917	309.816	353.745	393.888	275.138	199.441	152.240	395.182	373.202	216.419	127.838	416.829	370.818	353.271	116.375	172.568	355.561	0.0034176	0.000473	0.00020134	599.79	8.1931e-06	8.427e-06	900.97	230.02	8.7013e-06	6.7933e-06	440.47	204.67	115.04	52.305	6.7689e-06	106.86	0.00044521	0.00028345	7.9358e-05	588.37	3.1968e-06	2.9683e-06	881.16	226.93	2.8524e-06	3.1047e-06	433.27	201.31	111.47	52.263	2.8767e-06	106.66	397.466	204.571	181.121	108.585	242.835	248.270	108.169	113.498	225.086	245.524	111.771	115.160	117.014	121.442	245.724	119.428	-8191	255	
1256.229	1	1	0	0	0.037258	0.055261	0.18271	0.244	0.16969	0.15569	0.16611	0.12026	0.094789	0.28524	0.26807	0.15983	0.34966	0.35411	0.11682	0.26119	-2.3563	-2.7333	-3.0062	-2.7167	-2.8729	-2.8146	-2.9146	-3.1646	-2.8917	-2.9479	-3.3125	-2.8333	-3.075	-2.9313	-2.675	-3.3063	138.452	202.755	250.915	153.310	375.975	373.036	327.039	271.144	333.121	372.811	395.421	414.545	111.048	426.209	156.124	425.733	0.0034314	0.00049792	0.00022929	592.32	1.0853e-05	5.2646e-06	892.56	232.3	1.0769e-05	5.5815e-06	441.58	206.65	117.44	53.208	7.451e-06	108.07	0.00045296	0.00027554	8.2503e-05	582.86	3.1448e-06	3.0161e-06	876.76	229.87	2.9463e-06	3.0279e-06	434.43	204.31	113.62	53.168	2.9467e-06	107.8	395.507	183.954	208.619	108.635	236.761	230.227	108.246	113.569	244.899	232.096	111.725	115.250	117.121	121.584	242.865	119.432	-8191	255	
1256.301	1	1	0	0	0.26263	0.077304	0.24627	0.065878	0.066511	0.14093	0.2604	0.27982	0.17044	0.26014	0.25912	0.18905	0.084263	0.24171	0.2002	0.26677	-2.4604	-2.7458	-3.1333	-2.9104	-3.0812	-2.9208	-2.9125	-3.2417	-2.8937	-2.6354	-3.3271	-2.8896	-2.9062	-2.9562	-2.8208	-3.3292	179.855	288.067	368.971	429.971	126.319	105.659	361.125	403.095	432.020	150.127	380.302	418.361	117.773	329.816	452.769	428.350	0.0033363	0.00047827	0.00026974	593.27	8.9153e-06	6.3959e-06	899.9	237.56	1.2766e-05	5.7638e-06	443.66	210.37	119.65	54.454	8.1596e-06	109.69	0.0004562	0.00028227	8.3895e-05	584.75	3.1626e-06	3.2072e-06	880.36	233.45	3.0691e-06	3.0106e-06	438.61	207.61	115.35	54.284	2.9519e-06	109.31	398.942	186.260	184.152	108.527	230.017	284.169	108.184	113.302	235.552	265.433	111.886	115.084	116.739	121.218	249.696	119.571	-8191	255	
1256.397	1	1	0	0	0.058313	0.067038	0.2963	0.12342	0.13774	0.12617	0.052717	0.15696	0.16393	0.0849	0.1738	0.083588	0.20223	0.35049	0.08844	0.10378	-2.3646	-2.5396	-3.0812	-2.7083	-2.8729	-3.2146	-2.9437	-2.9479	-3.0604	-2.7896	-3.1146	-2.9792	-2.8229	-3.075	-2.8438	-3.3104	384.599	205.300	215.727	348.794	217.184	152.817	326.294	392.686	195.122	177.796	298.019	153.573	143.011	455.010	270.976	370.896	0.0035725	0.00036347	0.00022678	594.58	1.0517e-05	5.5892e-06	900.34	237.74	1.4074e-05	5.3175e-06	446.06	210.68	119.12	54.284	9.343e-06	109.24	0.00048452	0.00027201	8.4148e-05	583.31	3.1403e-06	3.2525e-06	881.37	233.8	3.1582e-06	2.9541e-06	439.81	207.71	114.97	54.389	2.8989e-06	109.21	395.712	176.523	187.288	108.727	253.744	240.644	107.937	113.487	256.371	222.578	111.782	115.232	117.162	121.511	237.526	119.623	-8191	255	
1256.517	1	1	0	0	0.11487	0.27566	0.12617	0.15251	0.067619	0.088935	0.04837	0.04181	0.21013	0.045845	0.13175	0.26273	0.20045	0.16527	0.19339	0.11429	-2.2833	-2.6708	-3.0042	-2.9604	-2.6979	-3.2667	-2.7771	-2.9938	-3.0938	-3.0042	-3.0771	-3.0271	-2.825	-3.125	-2.8083	-3.0958	249.616	107.471	311.903	100.100	274.666	397.565	219.785	215.257	363.358	253.037	390.600	361.214	264.044	98.929	429.426	373.178	0.0036068	0.00059858	0.00017336	587.5	9.676e-06	5.514e-06	894.37	235.13	9.7421e-06	6.9286e-06	445.36	208.79	117.72	54.054	7.8671e-06	108.99	0.0004727	0.00026429	8.3547e-05	579.86	2.9862e-06	3.2591e-06	876.59	232.14	3.1385e-06	2.8546e-06	437.63	205.56	113.88	53.957	3.0074e-06	108.73	398.298	191.285	201.001	108.718	207.364	256.550	108.155	113.371	230.368	230.855	111.791	115.190	116.794	121.460	246.285	119.529	-8191	255	
1256.614	1	1	0	0	0.28145	0.1976	0.13821	0.1597	0.14599	0.13839	0.47517	0.12938	0.19985	0.12418	0.093003	0.18459	0.22645	0.25283	0.32308	0.26417	-2.6813	-2.6562	-3.1021	-2.925	-2.7438	-3.1833	-3.1437	-3	-2.8646	-2.7875	-3.1188	-3.1625	-2.8063	-3.1854	-2.9562	-3.0167	410.170	232.901	162.441	375.520	354.643	452.854	349.675	432.082	225.804	413.348	156.665	125.090	360.896	439.394	413.375	371.077	0.0035145	0.00072347	0.00026794	582.76	1.1651e-05	6.3238e-06	890.69	234.87	1.4283e-05	8.8029e-06	444.95	208.77	118.06	54.212	7.4255e-06	109.34	0.00047875	0.00025685	8.1305e-05	576.24	2.8981e-06	3.171e-06	872.21	231.35	3.1913e-06	2.7534e-06	437.88	205.63	113.74	54.236	2.9775e-06	109.12	397.444	203.402	193.551	108.748	215.899	253.435	108.012	113.343	239.571	233.538	111.705	115.063	117.001	121.393	246.911	119.396	-8191	255	
1256.710	1	1	0	0	0.24751	0.26866	0.14294	0.094994	0.14756	0.12104	0.13039	0.093444	0.12255	0.089905	0.19509	0.26937	0.051994	0.19557	0.22222	0.29736	-2.8021	-2.8958	-2.8917	-3.0896	-2.6917	-3.0917	-3.0958	-2.8896	-3.1396	-2.6542	-3.0729	-3.0479	-2.8917	-3.1104	-2.7354	-3.0292	372.076	334.215	374.143	159.559	150.612	246.854	248.897	315.541	430.732	286.791	261.785	436.086	382.156	297.858	364.241	387.733	0.0034951	0.00069848	0.00010467	585.47	8.8698e-06	5.9532e-06	889.56	236.38	1.0903e-05	8.1495e-06	443.97	209.49	117.93	54.2	1.1202e-05	109.34	0.00048146	0.00025495	8.0043e-05	577.31	2.8015e-06	3.1318e-06	873.48	231.85	3.1573e-06	2.7535e-06	439.26	206.33	114.04	54.072	3.1039e-06	109.39	394.729	189.408	188.235	108.719	262.731	244.425	108.141	113.076	246.896	251.512	111.734	115.323	116.573	121.531	241.230	119.622	-8191	255	
1256.806	1	1	0	0	0.067868	0.34793	0.079381	0.26871	0.13969	0.091636	0.15491	0.0903	0.076041	0.19188	0.18269	0.11447	0.25748	0.02751	0.31309	0.13808	-2.7021	-2.8917	-2.9146	-3.0208	-2.8292	-3.1833	-3.2146	-2.9375	-3.225	-2.6771	-3.2958	-3.0854	-2.9354	-3.1375	-2.9208	-2.8875	175.986	372.409	382.150	402.595	412.913	349.971	370.398	336.488	108.025	222.493	405.299	417.745	118.917	123.311	135.032	345.391	0.0035623	0.00080636	0.00016771	590.2	1.2441e-05	6.9438e-06	898.58	235.35	1.0794e-05	6.05e-06	448.62	209.42	117.89	54.167	5.9631e-06	110.16	0.00048226	0.00025293	7.8926e-05	580.23	2.7606e-06	3.1856e-06	879.83	232.19	3.1183e-06	2.8927e-06	440.31	206.67	113.87	54.159	3.0456e-06	109.99	398.401	194.901	193.450	108.791	242.358	263.984	108.175	113.391	249.337	240.962	111.863	115.274	116.828	121.408	249.082	119.702	-8191	255	
1256.902	1	1	0	0	0.30344	0.28186	0.15465	0.1076	0.1503	0.21009	0.14965	0.29849	0.08554	0.12939	0.026193	0.19073	0.19331	0.26586	0.12908	0.26587	-2.7354	-2.8854	-2.8229	-3.2417	-2.7854	-3.1437	-2.9729	-2.9604	-3.0687	-2.7208	-3.0167	-3.2062	-2.7104	-3.2125	-3.0208	-3.1771	133.078	303.082	218.344	406.770	212.867	240.293	419.520	372.210	409.903	212.904	380.893	313.788	291.795	403.244	368.460	409.641	0.0035257	0.00057844	0.00013372	587.28	9.9759e-06	7.2893e-06	891.34	235.2	1.4933e-05	4.5168e-06	445.12	210.7	119.13	54.463	1.0503e-05	109.8	0.00048191	0.00025728	7.7706e-05	579.38	2.7334e-06	3.1157e-06	875.77	233.04	3.1846e-06	2.8601e-06	439.42	207.05	114.8	54.4	3.1613e-06	109.9	394.949	180.178	195.522	108.794	240.873	239.938	107.875	113.413	231.491	253.926	111.532	115.186	116.341	121.812	245.416	119.537	-8191	255	
1256.998	1	1	0	0	0.24936	0.17704	0.28697	0.052747	0.17792	0.14461	0.35528	0.20777	0.18379	0.086856	0.32959	0.29508	0.094413	0.31767	0.14212	0.059206	-2.5667	-2.8083	-2.7771	-3.0875	-2.7875	-3.1396	-3.1208	-2.6292	-3.1792	-2.6229	-3.0083	-3.2313	-2.7917	-3.0125	-2.8167	-2.8229	397.302	312.083	160.871	155.736	184.360	284.489	418.800	373.909	207.194	143.583	421.725	444.975	261.304	376.667	333.879	447.800	0.0036931	0.00059257	0.00019272	584.9	9.922e-06	8.7089e-06	893.58	238.24	9.7902e-06	5.032e-06	446.31	212.86	120.78	55.211	7.4268e-06	111.06	0.00049786	0.00027108	7.8293e-05	576.26	2.7609e-06	3.3192e-06	875.83	235.4	3.2475e-06	3.0593e-06	441.02	209.56	116.41	55.101	3.2546e-06	110.73	395.588	164.339	183.264	108.691	233.997	253.400	108.178	113.177	210.399	232.824	111.749	115.209	116.663	121.262	246.968	119.461	-8191	255	
1257.094	1	1	0	0	0.17542	0.15515	0.048899	0.1139	0.029235	0.27587	0.18107	0.11667	0.062419	0.030752	0.18601	0.18178	0.090996	0.22253	0.1656	0.26983	-2.7625	-2.6917	-2.7625	-3.2229	-2.7625	-2.9667	-3.2167	-2.8146	-3.1417	-2.9229	-2.9313	-3.3354	-2.8729	-3.0812	-3.0854	-3.0271	278.013	229.107	339.448	287.338	378.480	272.804	397.307	99.650	97.792	202.112	395.213	312.021	268.213	416.306	349.853	371.021	0.0035264	0.00062521	0.00023439	585.68	8.1391e-06	7.5618e-06	893.36	239.27	1.3186e-05	6.5937e-06	447.86	212.63	120.47	55.262	5.8332e-06	111.52	0.00048817	0.00028032	7.7193e-05	578.28	2.9652e-06	3.2696e-06	877.52	236.33	3.3056e-06	3.068e-06	442.35	209.84	116.34	55.424	3.2587e-06	111.16	396.756	196.534	176.996	108.625	238.664	243.411	108.344	113.288	261.329	244.891	111.945	115.317	116.750	121.460	241.277	119.489	-8191	255	
1257.191	1	1	0	0	0.30387	0.083264	0.17344	0.13953	0.099783	0.14723	0.15235	0.25644	0.14769	0.031367	0.39903	0.069339	0.14254	0.40579	0.044931	0.28439	-2.8125	-2.85	-2.7875	-3.0021	-2.9208	-2.8917	-3.1917	-2.85	-3.1417	-3.0938	-2.775	-3.3896	-2.925	-3.1667	-2.9979	-3.1875	352.652	344.113	315.673	158.843	178.347	134.281	377.681	416.884	227.028	424.192	440.114	331.100	134.027	432.232	187.428	380.431	0.0035229	0.00064285	0.00018227	588.75	7.3418e-06	6.8765e-06	897.03	239.98	1.2653e-05	6.3686e-06	448.5	213.11	120.46	55.367	1.2458e-05	111.37	0.00050013	0.0002848	7.6641e-05	581.15	3.0098e-06	3.169e-06	881.22	236.2	3.3088e-06	3.1323e-06	443.17	210.6	116.64	55.334	3.3585e-06	111.28	397.111	192.486	212.250	108.791	224.585	225.153	108.045	113.291	225.255	235.584	111.700	115.187	116.771	121.542	250.032	119.544	-8191	255	
1257.309	1	1	0	0	0.13845	0.058655	0.096707	0.099731	0.052103	0.051373	0.17293	0.066866	0.26635	0.043368	0.13073	0.21109	0.07305	0.39929	0.028685	0.20545	-2.6188	-2.9458	-2.7333	-3.2417	-2.9833	-2.8812	-3.4125	-2.8958	-2.9354	-3.1042	-2.9146	-3.2521	-3.0896	-2.9625	-3.2771	-3.2125	125.260	420.373	353.068	126.977	308.710	254.962	382.450	408.460	264.099	224.966	148.306	372.595	313.213	100.585	322.319	414.362	0.0034934	0.00062402	0.00024964	586.58	9.256e-06	5.9315e-06	895.75	239.14	1.2479e-05	8.9103e-06	449.22	213.02	121.04	55.232	1.1727e-05	110.71	0.00048694	0.00029162	7.5088e-05	579.43	2.9675e-06	2.9918e-06	880.01	235.25	3.2873e-06	3.1896e-06	441.87	209.82	116.39	55.292	3.3338e-06	110.55	394.853	187.961	177.171	108.899	213.181	288.484	108.033	113.298	238.661	258.381	111.817	115.235	116.909	121.451	252.173	119.583	-8191	255	
1257.406	1	1	0	0	0.16321	0.1374	0.20112	0.17253	0.084967	0.062827	0.15213	0.30789	0.079878	0.22758	0.15102	0.14909	0.20455	0.22858	0.23531	0.071776	-2.6042	-3.0146	-2.7708	-3.1937	-2.8458	-2.9979	-3.1458	-3.075	-2.9938	-3.2479	-2.9625	-3.4625	-3.1625	-2.8271	-3.2458	-2.8354	252.217	343.266	160.562	105.833	367.156	153.426	409.280	393.940	389.229	113.049	107.826	348.256	325.486	420.174	387.208	429.759	0.0035407	0.00086516	0.00021565	592.57	8.7254e-06	5.7672e-06	896.66	238.35	1.3553e-05	5.6365e-06	448.65	212.3	121.01	55.267	9.2753e-06	111.21	0.00047928	0.00028473	7.2614e-05	580.31	2.9829e-06	2.9167e-06	878.24	235.24	3.2012e-06	3.1424e-06	441.17	209.18	116.43	55.189	3.3761e-06	110.68	396.152	204.005	182.228	108.512	229.726	248.270	107.926	113.417	239.889	241.993	111.857	115.263	116.855	121.549	231.770	119.319	-8191	255	
1257.502	1	1	0	0	0.21723	0.12896	0.16031	0.21127	0.20533	0.14378	0.090588	0.19591	0.17507	0.14674	0.21342	0.26287	0.15585	0.27193	0.17083	0.321	-2.4833	-2.9979	-2.9125	-3.1167	-3.1354	-2.9875	-3.2687	-3.0042	-2.75	-3.0875	-2.7812	-3.1729	-3.1562	-2.9062	-3.1917	-3.0521	435.901	307.991	182.527	309.525	234.404	364.657	331.353	389.190	147.054	426.322	408.042	439.725	148.431	412.362	311.161	389.188	0.0036884	0.00053289	0.00020316	590.62	7.1449e-06	6.093e-06	896.6	239.07	1.0922e-05	4.2214e-06	451.4	212.3	120.17	55.059	9.6399e-06	111.27	0.00048318	0.00028923	7.3819e-05	583.73	3.1151e-06	2.9671e-06	882.28	235.54	3.1671e-06	3.1555e-06	443.29	209.65	115.94	55.108	3.3628e-06	110.95	395.871	192.206	202.827	108.438	242.509	244.575	108.130	113.115	254.839	242.113	111.660	115.071	116.445	121.478	235.968	119.354	-8191	255	
1257.596	1	1	0	0	0.17792	0.050993	0.090044	0.11668	0.12361	0.15316	0.13997	0.1036	0.13537	0.12223	0.10844	0.076904	0.14515	0.23807	0.17903	0.038992	-2.4542	-3.0979	-2.7646	-3.0208	-2.9167	-2.8312	-3.1229	-2.9188	-2.8396	-3.1354	-3.0771	-3.1083	-2.9271	-2.9437	-2.9917	-3.1667	355.672	326.306	313.703	438.375	201.805	133.731	447.127	307.006	380.214	319.362	402.402	395.402	454.098	100.793	302.723	376.234	0.003698	0.00055768	0.00018419	593.15	6.8318e-06	8.3455e-06	904.53	241.2	1.4816e-05	3.6267e-06	450.27	215.45	121.8	55.563	1.0587e-05	111.25	0.00047925	0.00029661	7.4744e-05	584.06	3.1084e-06	2.8761e-06	886.62	237.87	3.0224e-06	3.2702e-06	444.21	211.91	117.47	55.563	3.4234e-06	111.15	398.136	193.807	183.227	108.445	259.609	239.202	108.030	113.152	239.705	277.088	111.752	115.024	116.784	121.248	235.779	119.569	-8191	255	
1257.692	1	1	0	0	0.099948	0.26301	0.13653	0.015052	0.1505	0.32452	0.30058	0.1597	0.095249	0.14158	0.17564	0.08556	0.08814	0.32723	0.11057	0.23083	-2.2687	-3.0146	-2.6562	-2.9792	-2.9062	-2.9104	-3.1479	-3.1479	-2.9062	-2.8917	-2.9979	-3.0062	-3.2958	-2.8979	-2.925	-3.0687	121.709	142.637	276.859	380.104	206.249	118.633	131.264	442.923	313.206	374.961	147.793	441.951	392.989	387.806	438.716	408.547	0.0036719	0.0006156	0.00028956	593.72	7.348e-06	2.6034e-06	901.35	242.82	1.3219e-05	6.4903e-06	450.31	216.28	122.74	56.36	9.0648e-06	112.98	0.00047688	0.00030762	7.7109e-05	584.52	3.2888e-06	2.8954e-06	886.47	239.66	3.0006e-06	3.3292e-06	445.25	213.32	118.45	56.407	3.5146e-06	112.86	396.324	186.225	181.292	108.576	238.040	269.188	108.145	113.333	243.456	240.887	111.997	115.296	116.547	121.196	238.429	119.409	-8191	255	
1257.813	1	1	0	0	0.18163	0.38609	0.25197	0.3071	0.056304	0.1713	0.21555	0.13442	0.22609	0.11779	0.0322	0.28232	0.044478	0.10687	0.060992	0.24566	-2.3	-3.1292	-2.8063	-2.9688	-3.3271	-2.6375	-3.3312	-3.0875	-2.7396	-3.2604	-2.975	-3.0542	-3.025	-2.7604	-2.925	-3.2562	272.445	157.443	408.693	401.600	251.293	382.972	398.028	410.786	359.085	451.311	185.633	398.141	453.314	344.334	141.801	387.318	0.0036853	0.00073457	0.00017872	592.59	8.7346e-06	5.7274e-06	899.91	242.62	1.4457e-05	4.78e-06	452.11	215.33	121.39	56.248	7.2282e-06	111.89	0.0004771	0.00031559	8.089e-05	584.4	3.27e-06	2.9943e-06	885.73	239.27	2.9948e-06	3.3953e-06	444.83	211.89	117.27	56.23	3.4132e-06	111.73	397.104	197.348	178.838	108.542	233.169	238.576	108.217	113.157	227.612	239.790	111.784	115.133	116.662	121.167	254.356	119.431	-8191	255	
1257.909	1	1	0	0	0.090555	0.088297	0.065853	0.23291	0.23894	0.049341	0.028667	0.24887	0.028261	0.14418	0.14357	0.072496	0.26594	0.17716	0.33001	0.3681	-2.125	-3.1292	-2.8229	-2.8229	-3.2708	-2.8979	-3.1604	-3.0542	-2.8354	-2.9667	-2.9271	-3.1042	-3.075	-2.9208	-3.0125	-3.1708	232.366	422.268	441.754	373.821	405.266	193.758	309.486	97.165	432.282	444.626	450.681	419.458	418.100	191.365	167.574	400.368	0.003576	0.00055501	0.00019536	592.03	7.3254e-06	7.9592e-06	905.74	241.47	1.475e-05	6.1802e-06	450.31	214.47	120.36	55.552	8.294e-06	111.41	0.00046539	0.00031582	7.8739e-05	583.03	3.2868e-06	2.9926e-06	888.62	237.59	2.9628e-06	3.3446e-06	444.44	211.19	116.48	55.607	3.2774e-06	111.34	397.260	170.310	180.578	108.351	217.839	253.247	108.060	113.187	248.958	228.248	111.935	115.300	116.911	121.493	243.506	119.538	-8191	255	
1258.005	1	1	0	0	0.17764	0.14899	0.2221	0.10409	0.03305	0.13597	0.25306	0.12689	0.2272	0.13281	0.26156	0.029853	0.024019	0.23935	0.081799	0.36101	-2.4917	-3.1708	-2.7125	-2.8146	-3.3354	-2.7958	-3.25	-3.0042	-2.8396	-3.1083	-3.0542	-3.0354	-2.95	-3.1063	-2.9146	-3.2687	141.896	293.319	370.269	441.115	148.830	252.120	315.669	322.077	141.938	430.988	360.448	289.485	452.622	420.079	325.410	446.731	0.0036947	0.00058553	0.00020302	596.18	1.1527e-05	9.3222e-06	900.87	237.93	1.327e-05	5.2144e-06	450.81	213.79	119.2	55.608	6.7811e-06	111.65	0.00046899	0.00029939	7.9407e-05	585.21	3.2748e-06	3.0396e-06	886.02	234.76	2.9634e-06	3.2131e-06	444.96	210.22	115.82	55.516	3.2214e-06	111.63	397.462	190.242	212.881	108.725	240.254	249.011	108.286	113.371	240.004	239.269	111.632	115.315	116.770	121.478	238.881	119.602	-8191	255	
1258.101	1	1	0	0	0.27264	0.30315	0.19329	0.23259	0.11892	0.086698	0.3885	0.1251	0.16565	0.24437	0.23531	0.16012	0.16903	0.18721	0.087971	0.1485	-2.625	-3.0354	-2.8	-2.9292	-3.0875	-2.9396	-3.0167	-3.3333	-2.6896	-3.0479	-3.3208	-2.8	-3.0646	-3.0938	-2.9	-3.4188	278.188	335.817	415.430	366.242	380.855	448.927	105.459	442.254	116.449	426.670	432.724	399.709	253.517	140.259	276.373	420.230	0.0036748	0.00067738	0.0002267	595.25	8.8749e-06	7.2451e-06	908.35	237.21	1.079e-05	4.2571e-06	449.22	211.52	119.46	55.103	1.0618e-05	110.2	0.000471	0.00029568	7.9407e-05	588.27	3.3402e-06	3.0736e-06	891.81	234.15	2.9925e-06	3.2103e-06	443.29	208.54	115.17	54.954	3.1091e-06	109.89	396.853	194.716	195.258	108.348	240.673	257.484	108.117	113.297	241.859	274.948	112.006	115.168	116.853	121.629	244.989	119.677	-8191	255	
1258.197	1	1	0	0	0.10744	0.19138	0.14106	0.068399	0.1959	0.18907	0.16463	0.33898	0.081425	0.39148	0.072476	0.24588	0.25238	0.32244	0.11961	0.33478	-2.1854	-3.0979	-3.0083	-2.8396	-3.1146	-3.0479	-2.7313	-3.2438	-2.8542	-3.0083	-3.3542	-3.0833	-3.1979	-3.0521	-2.8521	-3.2146	389.824	285.908	347.953	332.278	125.516	176.216	387.341	426.308	275.301	374.666	362.500	371.100	441.247	423.968	403.722	370.196	0.0036771	0.00052958	0.00016843	593.51	1.1379e-05	8.0134e-06	903.89	236.6	1.5457e-05	5.6354e-06	447.18	211.97	119.56	54.823	7.6445e-06	109.37	0.00047044	0.00029894	8.193e-05	585.96	3.2937e-06	3.0336e-06	886.35	233.37	2.9562e-06	3.1527e-06	440.54	208.88	115.45	54.747	2.9963e-06	109.34	396.703	170.366	187.131	108.694	239.254	261.836	108.133	113.177	256.482	224.463	111.740	115.092	116.844	121.412	243.925	119.465	-8191	255	
1258.294	1	1	0	0	0.26168	0.13918	0.12767	0.068358	0.04345	0.24764	0.12797	0.11653	0.21471	0.241	0.1261	0.27041	0.20348	0.069836	0.18622	0.17927	-2.4292	-3.025	-3.075	-3.0708	-2.95	-3.0646	-3.1104	-3.2042	-2.9813	-2.8292	-3.3333	-2.9083	-3.0583	-3.1604	-2.8125	-3.2417	230.742	182.937	331.693	319.248	332.147	127.087	337.180	194.406	119.544	403.438	261.110	117.638	377.986	100.148	377.292	392.692	0.0035293	0.00055985	0.00012668	601.39	1.0961e-05	5.3172e-06	902.57	234.45	1.2567e-05	4.6845e-06	446.76	210.02	118.64	54.645	9.244e-06	109.1	0.00047163	0.00028144	8.0599e-05	590.39	3.1693e-06	3.0594e-06	886.4	231	3.0849e-06	3.0186e-06	440.24	206.94	114.6	54.551	2.9667e-06	109	395.445	198.891	204.843	108.461	238.135	266.859	108.149	113.211	249.685	244.094	111.780	115.314	116.673	121.436	246.546	119.584	-8191	255	
1258.390	1	1	0	0	0.084292	0.029678	0.20504	0.3164	0.31459	0.25729	0.068072	0.10618	0.11444	0.090275	0.1655	0.22264	0.065806	0.28591	0.17123	0.11065	-2.3937	-3.1292	-2.9896	-2.7812	-2.9583	-2.9938	-2.8854	-3.2438	-2.7062	-3.0354	-3.3063	-2.9646	-2.9646	-3.1021	-2.65	-3.3458	333.723	249.218	229.652	111.955	353.843	203.754	169.300	214.835	410.114	399.469	101.716	388.552	234.717	445.123	140.280	365.761	0.0035352	0.00053795	0.00024515	599.33	7.2796e-06	7.6532e-06	900.85	231.79	1.05e-05	6.8545e-06	446.98	207.21	116.48	53.815	7.3897e-06	108.53	0.00047521	0.00026667	8.251e-05	589.49	3.1777e-06	3.1078e-06	884.38	228.41	2.9879e-06	2.8507e-06	439.65	204.63	112.35	53.939	2.9635e-06	108.54	397.587	180.789	187.681	108.474	243.973	251.151	107.875	113.435	234.700	236.254	111.867	115.343	117.082	121.695	220.010	119.769	-8191	255	
1258.486	1	1	0	0	0.12785	0.13261	0.18382	0.22339	0.10409	0.16024	0.1673	0.19852	0.23946	0.24142	0.094555	0.18203	0.21478	0.13359	0.19747	0.16048	-2.3896	-2.8896	-3.0771	-2.9396	-3.1188	-3.0646	-3.0062	-3.2042	-2.9521	-2.975	-3.2083	-3.2083	-3.0687	-3.1292	-2.8104	-2.9437	340.901	179.446	173.767	411.785	344.778	371.295	441.892	197.121	337.245	329.702	325.700	355.598	205.899	128.564	433.147	396.231	0.0035615	0.00067234	0.00023906	589.38	1.1557e-05	7.8125e-06	896.35	229.46	1.0438e-05	7.5059e-06	440.77	205.9	116.46	53.59	8.4206e-06	106.95	0.00046889	0.00025327	8.1983e-05	580.3	2.9579e-06	3.0429e-06	878.9	226.12	2.967e-06	2.8268e-06	435.29	203.21	111.72	53.385	2.9168e-06	106.78	395.522	179.759	196.241	108.337	255.981	236.998	108.135	113.701	238.893	246.513	112.135	115.518	117.149	121.552	244.237	119.768	-8191	255	
1258.582	1	1	0	0	0.26166	0.18864	0.3108	0.065491	0.31251	0.054022	0.19983	0.42412	0.1577	0.33795	0.22041	0.099469	0.15159	0.40332	0.21873	0.1891	-2.6167	-2.65	-3.3	-2.9062	-2.7479	-3.2854	-2.825	-3.1292	-2.9813	-2.7354	-3.1771	-2.9792	-2.8146	-3.2167	-2.8021	-3.1646	98.186	215.224	321.140	403.187	242.437	221.228	380.985	392.625	379.042	301.833	386.812	352.134	168.556	371.946	391.629	414.936	0.0035518	0.00057679	0.00026452	591.39	8.8911e-06	7.464e-06	891.7	226.57	7.9513e-06	6.7392e-06	438.19	204.97	115.06	53.151	7.6725e-06	106.06	0.00046497	0.00024776	8.3125e-05	580.61	2.9096e-06	3.081e-06	871.02	223.27	3.0061e-06	2.675e-06	430.97	201.55	110.53	53.056	2.8621e-06	105.78	395.305	187.611	186.659	108.655	236.285	282.431	107.909	113.616	255.804	240.256	111.820	115.299	116.821	121.635	245.011	119.706	-8191	255	
1258.701	1	1	0	0	0.23175	0.25459	0.23165	0.26811	0.21234	0.2366	0.16681	0.14794	0.051396	0.14945	0.039623	0.14125	0.11717	0.17467	0.029856	0.43302	-2.5771	-2.8917	-3.0021	-2.9979	-2.7625	-3.0271	-2.8708	-3.0333	-3.0542	-2.75	-3.0042	-3.2438	-2.8708	-3.1792	-2.9208	-3.0167	248.921	311.867	192.919	178.412	114.044	223.308	335.393	204.992	392.834	413.024	381.858	432.781	174.086	380.126	415.646	393.584	0.0034693	0.00075471	0.00014662	588.75	8.2553e-06	5.0244e-06	888.31	225.68	1.0864e-05	6.3896e-06	436.7	203.4	114.44	52.587	6.2732e-06	106.1	0.00045604	0.00024053	7.9667e-05	578.53	2.719e-06	3.0893e-06	868.8	222.58	2.9317e-06	2.6916e-06	430.11	199.92	110.02	52.578	2.8235e-06	105.69	396.731	184.798	154.200	108.954	244.048	249.519	108.176	113.610	252.792	241.098	111.655	115.431	116.921	121.642	230.308	119.665	-8191	255	
#DATA ENDS
