BOXY.EXE: ISS Imagent and Oximeter Data Acquisition Program Version 0.80
Ascii Record File

#ACQ INFORMATION
2  Detector Channels 
16  External MUX Channels 
1  Auxiliary Channels 
5000  Waveform (CCF) Frequency (Hz)
1  Waveforms Skipped 
30  Waveforms Averaged 
1  Cycles Averaged 
16  Acquisitions per Waveform 
10.0806  Updata Rate (Hz) 

#FILE INFORMATION
TRUE -- External MUX Channel results are PARSED.
FALSE -- AC DC and Phase are NOT grouped.
TRUE -- Companion Program Settings File CREATED.
FALSE -- AC data not excluded
FALSE -- DC data not excluded
FALSE -- Phase data not excluded
FALSE -- Auxillary Chn. data not excluded
Tab delimiters

#CALIBRATION STATE
TRUE -- Waveform Calibration Values APPLIED.


#AUX CALIBRATION VALUES
Val Type	aux-1	

Term	1.0000e+00	
Factor	0.0000e+00	


#WF CALIBRATION VALUES
A = Detector Channel
Val Type	A-AC1	A-AC2	A-AC3	A-AC4	A-AC5	A-AC6	A-AC7	A-AC8	A-AC9	A-AC10	A-AC11	A-AC12	A-AC13	A-AC14	A-AC15	A-AC16	A-DC1	A-DC2	A-DC3	A-DC4	A-DC5	A-DC6	A-DC7	A-DC8	A-DC9	A-DC10	A-DC11	A-DC12	A-DC13	A-DC14	A-DC15	A-DC16	A-Ph1	A-Ph2	A-Ph3	A-Ph4	A-Ph5	A-Ph6	A-Ph7	A-Ph8	A-Ph9	A-Ph10	A-Ph11	A-Ph12	A-Ph13	A-Ph14	A-Ph15	A-Ph16	

Term	0.00000e+00	0.00000e+00	0.00000e+00	0.00000e+00	0.00000e+00	0.00000e+00	0.00000e+00	0.00000e+00	0.00000e+00	0.00000e+00	0.00000e+00	0.00000e+00	0.00000e+00	0.00000e+00	0.00000e+00	0.00000e+00	0.00000e+00	0.00000e+00	0.00000e+00	0.00000e+00	0.00000e+00	0.00000e+00	0.00000e+00	0.00000e+00	0.00000e+00	0.00000e+00	0.00000e+00	0.00000e+00	0.00000e+00	0.00000e+00	0.00000e+00	0.00000e+00	0.00000e+00	0.00000e+00	0.00000e+00	0.00000e+00	0.00000e+00	0.00000e+00	0.00000e+00	0.00000e+00	0.00000e+00	0.00000e+00	0.00000e+00	0.00000e+00	0.00000e+00	0.00000e+00	0.00000e+00	0.00000e+00	
Factor	1.00000e+00	1.00000e+00	1.00000e+00	1.00000e+00	1.00000e+00	1.00000e+00	1.00000e+00	1.00000e+00	1.00000e+00	1.00000e+00	1.00000e+00	1.00000e+00	1.00000e+00	1.00000e+00	1.00000e+00	1.00000e+00	1.00000e+00	1.00000e+00	1.00000e+00	1.00000e+00	1.00000e+00	1.00000e+00	1.00000e+00	1.00000e+00	1.00000e+00	1.00000e+00	1.00000e+00	1.00000e+00	1.00000e+00	1.00000e+00	1.00000e+00	1.00000e+00	X	X	X	X	X	X	X	X	X	X	X	X	X	X	X	X	

B = Detector Channel
Val Type	B-AC1	B-AC2	B-AC3	B-AC4	B-AC5	B-AC6	B-AC7	B-AC8	B-AC9	B-AC10	B-AC11	B-AC12	B-AC13	B-AC14	B-AC15	B-AC16	B-DC1	B-DC2	B-DC3	B-DC4	B-DC5	B-DC6	B-DC7	B-DC8	B-DC9	B-DC10	B-DC11	B-DC12	B-DC13	B-DC14	B-DC15	B-DC16	B-Ph1	B-Ph2	B-Ph3	B-Ph4	B-Ph5	B-Ph6	B-Ph7	B-Ph8	B-Ph9	B-Ph10	B-Ph11	B-Ph12	B-Ph13	B-Ph14	B-Ph15	B-Ph16	

Term	0.00000e+00	0.00000e+00	0.00000e+00	0.00000e+00	0.00000e+00	0.00000e+00	0.00000e+00	0.00000e+00	0.00000e+00	0.00000e+00	0.00000e+00	0.00000e+00	0.00000e+00	0.00000e+00	0.00000e+00	0.00000e+00	0.00000e+00	0.00000e+00	0.00000e+00	0.00000e+00	0.00000e+00	0.00000e+00	0.00000e+00	0.00000e+00	0.00000e+00	0.00000e+00	0.00000e+00	0.00000e+00	0.00000e+00	0.00000e+00	0.00000e+00	0.00000e+00	-2.65566e+02	-1.24841e+02	-1.20241e+02	-1.81994e+02	-7.06572e+01	-6.59311e+01	-1.56309e+02	-1.62015e+02	-6.90623e+01	-6.87394e+01	-1.73690e+02	-1.70229e+02	-1.84320e+02	-1.76364e+02	-6.75761e+01	-1.49227e+02	
Factor	6.26878e-05	1.67292e-04	5.27594e-05	1.83783e-01	2.31563e-06	1.97287e-06	1.71397e-01	5.46504e-02	2.81418e-06	1.76473e-06	1.02938e-01	3.00253e-02	5.63014e-02	9.41980e-03	2.03463e-06	1.37220e-02	5.32171e-06	6.03407e-06	1.68690e-06	9.18392e-02	6.45977e-08	6.66728e-08	8.01300e-02	2.73424e-02	6.44674e-08	6.66207e-08	4.98357e-02	1.45750e-02	2.78928e-02	4.75395e-03	6.55589e-08	6.70704e-03	X	X	X	X	X	X	X	X	X	X	X	X	X	X	X	X	



#DISTANCE SETTINGS
A = Detector Channel
A-1	A-2	A-3	A-4	A-5	A-6	A-7	A-8	A-9	A-10	A-11	A-12	A-13	A-14	A-15	A-16	

2.5000e+00	3.0000e+00	2.5000e+00	3.0000e+00	2.0000e+00	3.0000e+00	1.5000e+00	3.0000e+00	3.0000e+00	3.0000e+00	3.0000e+00	3.0000e+00	3.0000e+00	3.0000e+00	1.5000e+00	3.0000e+00	

B = Detector Channel
B-1	B-2	B-3	B-4	B-5	B-6	B-7	B-8	B-9	B-10	B-11	B-12	B-13	B-14	B-15	B-16	

1.0000e+01	1.0000e+01	1.0000e+01	1.4400e+00	1.0000e+01	1.0000e+01	1.5100e+00	1.9400e+00	1.0000e+01	1.0000e+01	1.9900e+00	2.4900e+00	2.4100e+00	2.9000e+00	1.0000e+01	2.9800e+00	




#DATA BEGINS
time	group	step	mark	flag	A-AC1	A-AC2	A-AC3	A-AC4	A-AC5	A-AC6	A-AC7	A-AC8	A-AC9	A-AC10	A-AC11	A-AC12	A-AC13	A-AC14	A-AC15	A-AC16	A-DC1	A-DC2	A-DC3	A-DC4	A-DC5	A-DC6	A-DC7	A-DC8	A-DC9	A-DC10	A-DC11	A-DC12	A-DC13	A-DC14	A-DC15	A-DC16	A-Ph1	A-Ph2	A-Ph3	A-Ph4	A-Ph5	A-Ph6	A-Ph7	A-Ph8	A-Ph9	A-Ph10	A-Ph11	A-Ph12	A-Ph13	A-Ph14	A-Ph15	A-Ph16	B-AC1	B-AC2	B-AC3	B-AC4	B-AC5	B-AC6	B-AC7	B-AC8	B-AC9	B-AC10	B-AC11	B-AC12	B-AC13	B-AC14	B-AC15	B-AC16	B-DC1	B-DC2	B-DC3	B-DC4	B-DC5	B-DC6	B-DC7	B-DC8	B-DC9	B-DC10	B-DC11	B-DC12	B-DC13	B-DC14	B-DC15	B-DC16	B-Ph1	B-Ph2	B-Ph3	B-Ph4	B-Ph5	B-Ph6	B-Ph7	B-Ph8	B-Ph9	B-Ph10	B-Ph11	B-Ph12	B-Ph13	B-Ph14	B-Ph15	B-Ph16	aux-1	digaux	

704.925	1	1	0	768	0.085387	0.12399	0.14255	0.37746	0.072673	0.38583	0.11181	0.22116	0.18124	0.11655	0.063616	0.11974	0.22769	0.13204	0.31985	0.26474	-2.4521	-2.9729	-2.7875	-3.1312	-2.7	-2.8833	-3.3542	-2.9688	-3.0146	-2.9188	-2.9292	-3.225	-3	-2.9458	-3.0042	-2.7729	352.096	295.115	428.006	478.582	474.915	219.579	447.407	442.281	340.748	431.737	487.557	426.524	177.358	193.245	171.913	165.147	0.0020715	0.00046514	0.00014021	1362.8	7.4071e-06	9.5157e-06	1360	368.21	1.0802e-05	4.1515e-06	415.76	139.96	123.22	41.528	5.483e-06	50.887	0.00066189	0.00062781	0.00017459	1395	7.0397e-06	7.2444e-06	1390	376.68	7.5235e-06	7.5621e-06	429	143.61	125.74	43.134	8.0901e-06	53.177	414.879	237.929	233.948	161.898	262.295	306.468	161.324	166.128	272.826	317.453	165.749	170.176	170.147	175.540	302.837	174.416	-8191	255	
705.021	1	1	0	0	0.045987	0.080512	0.071952	0.092339	0.19743	0.17357	0.026716	0.13535	0.053556	0.092871	0.046751	0.14307	0.20479	0.24242	0.18375	0.23702	-2.6188	-2.9896	-2.4021	-3.3646	-2.85	-2.7604	-3.3167	-3.0521	-2.9104	-3.2104	-2.7708	-3.275	-3.0062	-2.9646	-3.0875	-3.1271	247.535	376.837	248.531	153.798	506.725	386.434	388.807	363.516	252.131	376.684	150.566	398.823	436.551	459.331	458.230	474.159	0.0017665	0.00049076	0.00015884	1359	9.2424e-06	6.3938e-06	1363.7	368.22	7.2707e-06	2.5102e-06	417.43	139.57	123.51	41.637	4.3791e-06	51.007	0.00076251	0.00073389	0.0002013	1393.9	7.944e-06	8.0206e-06	1393.5	377.33	7.9611e-06	7.8561e-06	430.15	143.55	125.88	43.194	8.0221e-06	53.299	410.385	253.599	229.750	161.804	268.874	291.578	161.476	166.388	276.386	278.347	165.731	169.961	170.182	175.512	274.806	174.270	-8191	255	
705.115	1	1	0	0	0.088155	0.025856	0.075422	0.075874	0.23008	0.19265	0.37598	0.15741	0.11573	0.027163	0.24395	0.11041	0.30009	0.077471	0.12652	0.057004	-2.6479	-2.975	-2.7896	-3.1833	-2.8854	-2.8937	-3.3063	-3.0146	-2.8646	-3.1167	-2.8688	-3.0792	-2.8958	-2.9188	-3.0417	-2.9917	348.435	230.161	490.176	354.169	480.930	187.486	455.607	465.771	205.108	312.419	187.191	207.664	441.083	234.111	412.872	347.797	0.0018546	0.0005452	0.00017801	1364.2	2.5599e-06	6.7267e-06	1359	367.19	1.3398e-05	6.2923e-06	415.38	139.48	122.7	41.308	4.8212e-06	50.972	0.00075586	0.00071966	0.00020153	1397.5	7.9252e-06	8.0271e-06	1391.4	376.44	7.9459e-06	7.9066e-06	428.9	142.9	125.17	42.806	7.8843e-06	53.041	413.221	226.894	229.442	162.168	250.844	330.166	161.537	166.293	281.244	297.655	165.873	170.173	170.278	175.497	314.601	174.352	-8191	255	
705.211	1	1	0	0	0.06828	0.24027	0.018286	0.14479	0.12211	0.21117	0.32457	0.19949	0.12258	0.20549	0.33121	0.080361	0.32446	0.14258	0.071793	0.24049	-2.5187	-3.0292	-2.8521	-3.1354	-2.9146	-2.7438	-3.3312	-3.0375	-2.8604	-3.0229	-2.8708	-3.2021	-3.1104	-2.9646	-3.1104	-2.9646	249.827	221.077	185.277	492.933	160.168	245.020	435.597	150.890	231.626	177.368	461.063	209.626	484.947	439.834	247.686	427.615	0.0018417	0.00070185	0.0001418	1357.1	6.6447e-06	5.0758e-06	1358.3	366.87	1.2571e-05	2.5428e-06	417.7	139.17	122.39	41.282	7.6699e-06	51.071	0.00073546	0.00071113	0.00020043	1391.7	7.7212e-06	7.7418e-06	1387.5	375.55	7.7014e-06	7.7448e-06	428.85	142.61	124.65	42.818	7.5113e-06	52.979	412.225	230.123	250.844	161.958	268.638	277.731	161.377	166.450	253.767	276.355	165.903	170.318	170.181	175.629	276.982	174.538	-8191	255	
705.307	1	1	0	0	0.18081	0.38753	0.23904	0.08931	0.30932	0.056545	0.25022	0.44787	0.10845	0.068979	0.052366	0.24903	0.12195	0.24166	0.2403	0.29813	-2.2583	-3.0167	-2.7313	-3.1583	-3.1	-2.8333	-3.2104	-3.0687	-2.7958	-3.0479	-3.0271	-2.9188	-3.1729	-2.7646	-3.0896	-3.1188	201.330	302.171	364.536	175.388	251.144	264.785	440.468	462.687	228.696	391.191	465.476	462.646	329.648	416.864	284.294	482.826	0.0019302	0.00025418	0.00019308	1356.1	8.6479e-06	6.7311e-06	1350.8	365.57	1.0428e-05	7.2753e-07	414.44	139.2	123.02	41.216	6.5562e-06	50.766	0.00070949	0.0006657	0.00018874	1388	7.2308e-06	7.3118e-06	1383.2	374.29	7.0265e-06	7.0775e-06	426.25	142.34	124.92	42.732	6.8719e-06	52.88	416.116	212.818	254.084	162.002	266.134	323.887	161.156	166.268	262.386	317.315	165.828	170.201	170.192	175.494	247.704	174.428	-8191	255	
705.404	1	1	0	0	0.12277	0.092675	0.16385	0.10078	0.12775	0.17965	0.23917	0.215	0.051413	0.13792	0.059251	0.072466	0.22575	0.178	0.092639	0.25714	-2.2917	-3.0979	-2.9	-3.1604	-3.1625	-2.7125	-3.225	-3.2438	-2.6979	-3.1625	-3.1146	-2.9208	-3.1417	-2.8542	-3.0104	-3.0417	214.876	344.693	460.553	405.874	152.289	212.375	395.927	175.079	345.596	392.584	496.744	458.772	445.208	439.542	413.134	451.820	0.0019956	0.00049342	0.00016092	1353.3	1.3573e-05	4.3045e-06	1349.4	365.1	1.115e-05	1.0387e-06	415.01	138.51	120.99	40.816	6.2682e-06	50.675	0.00066179	0.00063169	0.00017687	1386.4	6.6666e-06	6.817e-06	1380.9	373.65	6.6553e-06	6.6215e-06	426.36	141.42	123.43	42.362	6.6925e-06	52.495	412.118	285.876	243.176	161.830	271.404	354.195	161.718	166.539	294.955	290.636	165.890	170.066	170.270	175.561	292.568	174.323	-8191	255	
705.524	1	1	0	0	0.097029	0.034735	0.26223	0.39423	0.07294	0.12021	0.33743	0.43382	0.19727	0.094414	0.057937	0.48828	0.083201	0.096598	0.20401	0.34312	-2.3167	-3.1771	-2.9562	-3.0583	-2.9542	-2.8708	-3.2479	-3.1937	-2.5125	-3.0375	-3.1688	-2.9938	-3.15	-2.7896	-3.0167	-3.1292	259.543	153.621	319.091	479.393	278.969	167.250	483.706	469.446	452.831	491.397	296.751	452.508	447.720	459.561	288.412	447.305	0.001888	0.00022827	7.6144e-05	1344	7.1849e-06	7.1189e-06	1342.8	360.97	1.3585e-05	2.9329e-07	411.3	136.33	119.58	40.552	7.3285e-06	50.173	0.00064583	0.00059928	0.00016984	1372.7	6.6599e-06	6.6683e-06	1369.3	369.39	6.5859e-06	6.7212e-06	421.63	139.86	122.35	41.925	6.6636e-06	52.061	417.054	214.217	257.426	161.903	301.333	278.543	161.505	166.726	288.325	353.862	165.784	170.341	170.665	175.768	292.040	174.608	-8191	255	
705.620	1	1	0	0	0.19274	0.1306	0.34562	0.34491	0.10537	0.034228	0.2562	0.18794	0.2482	0.047951	0.097946	0.17123	0.076476	0.11863	0.16454	0.28243	-2.2833	-2.8937	-2.9521	-2.9458	-3.0833	-3.0104	-3.1667	-3.2792	-2.9479	-2.9625	-3.0896	-2.8937	-3.0083	-3.2313	-2.9625	-3.2271	218.384	231.702	420.668	442.718	408.591	466.922	431.146	412.175	160.828	305.743	159.199	375.294	494.342	165.067	228.396	430.260	0.0018376	0.00020469	0.00013745	1335.2	8.892e-06	9.0332e-06	1333.7	358.97	1.5361e-05	3.375e-06	407.93	136.14	119.98	40.43	4.1021e-06	49.962	0.00063133	0.00060052	0.0001657	1365.2	6.5588e-06	6.5677e-06	1362.6	367.19	6.5206e-06	6.6115e-06	420.13	139.34	121.89	41.8	6.6788e-06	51.985	411.435	220.818	227.073	161.912	279.361	301.422	161.683	166.781	282.470	267.428	165.928	170.118	169.952	175.610	279.980	174.340	-8191	255	
705.716	1	1	0	0	0.064247	0.16517	0.14054	0.036563	0.2306	0.14973	0.29854	0.095297	0.11523	0.18165	0.074933	0.29081	0.29614	0.0090784	0.25548	0.2504	-2.25	-3.2021	-3.0021	-2.95	-3.3292	-3.0396	-2.9396	-3.1604	-2.7792	-3.0021	-3.0542	-2.7917	-3.2833	-3.0083	-2.8583	-3.1188	500.496	413.700	200.270	475.222	153.492	267.373	457.820	490.349	370.069	344.286	158.649	492.759	191.116	218.731	317.861	479.399	0.0018018	0.00033036	0.00017151	1330.8	6.1231e-06	6.0235e-06	1334.9	357.13	1.1958e-05	5.1416e-06	408.83	136.13	119.82	40.138	8.6054e-06	49.744	0.00064529	0.00060906	0.00016948	1360.1	6.7583e-06	6.9426e-06	1360.4	366.04	6.728e-06	6.7448e-06	419.15	139.01	121.8	41.656	6.7793e-06	51.852	414.402	269.893	257.816	161.875	255.431	322.844	161.588	166.926	288.098	311.690	165.974	169.995	170.393	175.728	263.686	174.808	-8191	255	
705.813	1	1	0	0	0.12369	0.20573	0.28636	0.22986	0.20113	0.11654	0.11326	0.095229	0.31532	0.27092	0.20986	0.20723	0.090084	0.16437	0.078536	0.19281	-2.3187	-2.9708	-3.0187	-2.8958	-3.0875	-3.25	-2.8479	-3.2667	-2.7417	-2.9188	-3.2729	-2.9604	-3.2146	-3.1	-2.7792	-3.1521	460.204	260.345	405.595	476.793	197.755	299.106	393.287	155.733	403.101	260.705	465.933	458.679	448.463	464.327	242.128	193.125	0.0016958	0.00063323	5.5976e-05	1329.5	3.8783e-06	3.0879e-06	1336.8	357.82	1.5764e-05	6.2296e-06	408.47	135.58	119.69	40.373	4.8955e-06	49.921	0.00065723	0.00061947	0.00017303	1361.6	6.8195e-06	6.8009e-06	1363.2	366.7	6.7971e-06	6.8605e-06	419.56	139.26	122.01	41.763	6.7814e-06	51.905	412.511	231.930	240.472	161.982	284.805	309.980	161.520	166.872	287.826	294.277	165.898	170.278	170.664	175.622	298.598	174.527	-8191	255	
705.909	1	1	0	0	0.12944	0.18131	0.13037	0.31042	0.12297	0.19946	0.33359	0.43278	0.15861	0.037584	0.37441	0.29872	0.029519	0.076193	0.13687	0.135	-2.5271	-2.9646	-3.0604	-3.0792	-3.0354	-2.8792	-2.9271	-3.2708	-3.1208	-3	-3.1542	-2.9854	-2.9729	-3.1292	-2.8396	-3.1688	258.740	319.538	155.261	495.705	430.090	373.198	495.497	455.581	402.475	305.466	179.649	409.847	196.184	478.864	259.400	217.636	0.0018961	0.0004539	0.0001674	1334.3	4.6268e-06	6.6719e-06	1336.2	358.45	1.055e-05	6.3877e-06	410.69	136.29	120.29	40.295	8.1678e-06	49.83	0.00065204	0.00062688	0.000175	1366.5	6.8698e-06	6.6858e-06	1364.7	367.3	6.8499e-06	6.8937e-06	421.17	139.56	122.3	41.875	6.8348e-06	51.979	409.337	238.748	233.175	161.928	289.867	319.360	161.677	166.793	298.363	324.771	165.958	170.254	170.188	175.739	277.193	174.777	-8191	255	
706.005	1	1	0	0	0.15632	0.18536	0.29108	0.20641	0.083176	0.2801	0.32259	0.11309	0.18863	0.22199	0.14745	0.14493	0.063621	0.19352	0.090647	0.061399	-2.5271	-2.7458	-3.1333	-2.9875	-2.9771	-3.1937	-2.8083	-3.1562	-2.7812	-2.8438	-3.0062	-2.8333	-3.0604	-3.1354	-2.6396	-3.0208	377.183	204.643	195.847	480.436	254.644	393.810	430.850	492.730	359.747	408.080	206.764	443.692	375.591	158.818	471.534	212.611	0.001869	0.0006997	4.1319e-05	1336.9	1.002e-05	6.9907e-06	1336	360.08	1.1644e-05	6.1262e-06	409.03	135.92	120.4	40.463	6.3895e-06	50.008	0.00065417	0.0006259	0.00017643	1367.9	6.8868e-06	6.9019e-06	1368	368.54	7.0008e-06	7.1219e-06	421.16	139.5	122.47	41.916	7.2485e-06	52.075	414.519	191.756	270.848	161.958	268.924	280.781	161.479	166.772	287.703	307.622	166.092	170.183	170.152	175.660	276.803	174.273	-8191	255	
706.101	1	1	0	0	0.12351	0.19826	0.27978	0.26151	0.067747	0.12206	0.35777	0.16619	0.235	0.029945	0.20605	0.36961	0.09841	0.14276	0.10571	0.1614	-2.3937	-2.8458	-2.9938	-3.0875	-2.7583	-2.9958	-2.8104	-3.0062	-2.9708	-2.9437	-3.2667	-2.9604	-2.9562	-3.2292	-2.7833	-3.1625	252.753	408.077	312.014	474.140	280.107	185.792	470.663	505.924	459.400	379.855	208.602	479.824	454.861	374.265	427.653	186.219	0.0018382	0.00062938	0.00014471	1341.7	6.4418e-06	8.469e-06	1341	361.19	1.044e-05	5.2341e-06	410.85	136.12	120.17	40.387	7.4235e-06	50.019	0.00069892	0.00066182	0.00018784	1372.5	7.2933e-06	7.2733e-06	1370.7	369.24	7.0997e-06	7.2335e-06	421.85	139.59	122.3	41.836	7.2216e-06	52.119	411.541	245.078	285.442	161.878	285.870	294.504	161.460	166.830	291.460	305.046	165.781	170.306	170.363	175.799	260.829	174.517	-8191	255	
706.220	1	1	0	0	0.118	0.14449	0.16141	0.25433	0.099293	0.090184	0.17513	0.20966	0.18619	0.30259	0.49992	0.15607	0.1075	0.30562	0.041459	0.25604	-2.7625	-2.8646	-3.225	-2.9167	-2.8208	-3.1125	-2.9979	-3.0354	-3.1104	-2.8292	-3.1312	-2.9417	-2.8937	-3.4375	-2.8812	-3.0771	450.594	424.984	340.328	168.957	312.452	467.717	503.763	458.032	217.212	163.259	480.894	149.699	307.737	438.426	399.990	271.795	0.0018582	0.00043509	0.00015282	1338.5	9.6316e-06	3.6882e-06	1341.4	359.38	7.214e-06	6.2013e-06	411.44	136.37	119.75	40.236	7.4928e-06	49.924	0.00068514	0.00064879	0.00018183	1369.2	7.0838e-06	7.1497e-06	1366.9	367.98	7.0393e-06	7.0485e-06	421.84	139.48	122.06	41.748	7.0819e-06	51.932	412.436	211.756	283.138	162.008	280.041	324.046	161.680	166.740	266.879	294.188	166.020	170.174	170.306	175.682	291.847	174.570	-8191	255	
706.316	1	1	0	0	0.17539	0.2415	0.12948	0.098242	0.11901	0.20393	0.058484	0.18845	0.17847	0.13953	0.18367	0.23456	0.14676	0.23742	0.26424	0.094903	-2.6854	-2.7062	-3.2354	-3.1146	-2.6708	-3.1188	-3.0104	-3.0729	-3.1229	-2.7625	-3.0187	-3.2042	-2.9104	-3.0687	-2.7833	-2.9917	419.134	354.075	320.418	432.435	447.851	245.790	359.793	494.785	321.943	357.774	272.127	480.045	384.578	442.134	171.925	322.408	0.0018762	0.00031707	3.2427e-05	1333.1	5.7783e-06	5.4929e-06	1334.4	359.99	1.2573e-05	7.3897e-06	407.99	135.75	119.14	40.24	6.9214e-06	49.819	0.00067698	0.00062904	0.00017938	1367.9	6.9535e-06	6.9898e-06	1363.6	367.68	7.1e-06	7.046e-06	421.09	139.33	121.91	41.709	7.2189e-06	51.846	416.800	234.563	225.877	162.055	265.700	347.721	161.527	166.864	271.733	302.804	165.993	170.137	170.493	175.888	288.670	174.635	-8191	255	
706.412	1	1	0	0	0.23029	0.25897	0.2338	0.18434	0.075967	0.20303	0.27067	0.52769	0.30023	0.13607	0.29521	0.25457	0.25184	0.057734	0.093387	0.27568	-2.7146	-2.8896	-3.0583	-3.0521	-2.5938	-3.3104	-2.9521	-2.8625	-3.1021	-2.7979	-3.1479	-3.2062	-2.7979	-3.2021	-2.9042	-3.0583	386.021	445.270	347.538	488.409	460.305	303.923	397.543	478.373	388.073	245.988	159.896	440.294	476.309	304.751	255.585	378.260	0.0018713	0.00061497	0.00012511	1330	5.2827e-06	7.3016e-06	1334.5	357.58	1.0927e-05	4.0115e-06	409	135.87	119.71	40.133	4.3531e-06	49.881	0.00070303	0.00067182	0.00019095	1364.8	7.4917e-06	7.6086e-06	1364.3	367.08	7.5967e-06	7.6539e-06	420.96	139.26	121.99	41.769	7.6903e-06	51.979	412.356	216.561	225.903	161.989	273.133	281.694	161.541	167.071	277.101	317.078	166.124	170.320	170.231	175.773	305.161	174.745	-8191	255	
706.484	1	1	0	0	0.13902	0.22167	0.34199	0.22854	0.22531	0.1186	0.26598	0.266	0.053785	0.2492	0.18962	0.13968	0.11232	0.068181	0.12583	0.12781	-2.6562	-2.7021	-3	-3.2771	-2.7521	-3.0792	-3.1458	-2.8854	-3.0833	-2.9229	-3.0729	-3.2104	-2.8875	-3.2958	-2.7896	-2.8625	366.366	252.407	361.514	162.355	252.268	387.891	440.955	426.959	306.464	415.338	477.372	338.414	173.334	160.646	479.565	374.171	0.0017958	0.00043442	0.00014295	1339.7	1.0237e-05	3.9686e-06	1340.4	359.06	1.2743e-05	7.323e-06	409.31	135.91	119.17	40.164	8.0832e-06	49.889	0.00072856	0.00070365	0.00020059	1370.1	7.7035e-06	7.9339e-06	1367	367.05	8.0035e-06	7.9825e-06	420.99	138.96	121.82	41.643	8.0796e-06	51.863	411.222	230.228	218.897	162.101	291.082	358.536	161.674	167.098	280.302	303.944	166.133	170.245	170.365	175.507	284.113	174.657	-8191	255	
706.605	1	1	0	0	0.10756	0.16465	0.12481	0.050051	0.29152	0.046375	0.33075	0.17859	0.13189	0.11905	0.10624	0.071842	0.066719	0.15843	0.14782	0.23673	-2.6875	-2.7062	-2.7875	-3.1375	-2.725	-3.0604	-3.35	-3.0208	-3.1854	-2.8104	-2.9354	-3.1688	-3	-3.0958	-2.9708	-2.7729	383.477	394.539	329.238	301.033	477.570	283.197	468.070	467.569	171.455	316.570	246.863	507.563	155.113	188.112	503.166	438.677	0.0018407	0.00038594	0.00012326	1337.3	7.0112e-06	2.6699e-06	1344.2	359.65	1.1671e-05	4.299e-06	408.33	135.79	120.47	40.294	5.9734e-06	49.984	0.00074923	0.00073411	0.00020504	1368.9	7.9579e-06	8.0696e-06	1367.5	367.58	7.804e-06	7.937e-06	421.03	138.87	122.2	41.713	7.7006e-06	51.92	414.534	231.860	221.463	161.907	317.571	317.908	161.712	167.129	304.586	278.997	166.079	170.179	170.662	175.680	277.097	174.684	-8191	255	
706.701	1	1	0	0	0.29069	0.17703	0.11477	0.17251	0.079791	0.21434	0.35767	0.17166	0.18949	0.18393	0.14899	0.21104	0.1513	0.10836	0.09273	0.19997	-2.7021	-2.7833	-2.8479	-3.2188	-2.8229	-3.0167	-3.1146	-2.9771	-3.1979	-3.05	-3.1562	-3.0104	-2.8542	-2.9771	-3	-2.7958	307.403	395.046	195.697	478.021	331.611	256.641	466.220	441.363	303.789	361.224	183.421	430.352	373.512	418.043	215.660	382.971	0.0018067	0.00071215	0.00019014	1343.3	8.2197e-06	3.565e-06	1342.9	360.2	1.5419e-05	5.1292e-06	409.26	136.26	120.62	40.392	4.959e-06	50.112	0.00073018	0.00069098	0.00019435	1371	7.5334e-06	7.7396e-06	1369.1	368.06	7.6845e-06	7.5939e-06	421.91	139.45	122.26	41.858	7.4644e-06	52.039	413.719	255.538	254.976	162.026	239.671	295.784	161.647	167.047	284.268	298.231	166.025	170.445	170.312	175.826	279.753	174.485	-8191	255	
706.797	1	1	0	0	0.11771	0.089296	0.13905	0.28198	0.12402	0.06356	0.045989	0.37562	0.14854	0.28936	0.17299	0.27861	0.032758	0.072691	0.26585	0.11387	-2.4813	-2.9875	-2.875	-3.1229	-2.8563	-2.8875	-3.1896	-2.9458	-2.7958	-3.1	-2.9417	-3.1375	-2.7854	-3.1083	-3.0875	-2.8667	210.346	221.060	376.395	435.953	398.601	393.531	417.762	385.442	407.640	344.129	505.903	442.667	319.306	195.163	307.029	268.078	0.0020316	0.00070353	0.00016243	1339.4	1.1513e-05	7.6284e-06	1346.9	360.66	1.1251e-05	4.8413e-06	411.31	135.98	120.42	40.559	7.3384e-06	50.062	0.00071728	0.0006729	0.00018891	1370.4	7.4044e-06	7.3475e-06	1370.9	368.66	7.4131e-06	7.4325e-06	422.63	139.4	122.27	41.848	7.368e-06	51.97	412.224	217.704	288.264	161.806	289.538	287.954	161.526	166.909	251.209	252.904	166.225	170.078	170.591	175.795	251.411	174.586	-8191	255	
706.893	1	1	0	0	0.22594	0.19124	0.10725	0.11495	0.030176	0.17407	0.15421	0.097989	0.23731	0.23448	0.21765	0.10966	0.28062	0.082571	0.13585	0.10595	-2.7042	-2.9417	-2.8833	-3.2917	-2.7708	-2.8604	-3.4729	-2.8854	-2.9604	-3.0167	-2.9083	-3.0604	-3.1208	-2.8917	-3.3229	-2.9271	270.008	490.792	389.487	214.067	507.359	254.298	461.965	501.648	295.011	437.159	407.616	156.433	172.295	362.741	238.125	325.139	0.001781	0.00075917	0.00010366	1343.2	9.9328e-06	4.3605e-06	1344.9	360.03	1.2297e-05	5.4178e-06	410.05	136.36	120.18	40.394	8.0095e-06	50.289	0.00069048	0.00066938	0.00018537	1372.4	7.2131e-06	7.1861e-06	1368.6	368.19	7.0877e-06	7.1137e-06	421.56	139.54	122.19	41.831	7.216e-06	52.065	416.339	259.149	223.447	161.873	250.015	298.577	161.485	166.959	286.680	261.918	166.110	170.307	170.530	175.728	296.760	174.514	-8191	255	
707.012	1	1	0	0	0.16139	0.060232	0.29163	0.061731	0.022173	0.12108	0.010473	0.1463	0.10916	0.2498	0.2424	0.086734	0.10576	0.18527	0.11165	0.22886	-2.5146	-3.0229	-2.8833	-3.1292	-2.775	-2.8792	-3.3542	-2.8688	-2.7812	-3.1	-2.8187	-3.2125	-2.8854	-2.7417	-3.0833	-2.7292	266.678	279.511	230.370	456.940	435.365	345.750	424.136	468.473	460.996	163.371	448.309	435.527	412.807	222.710	246.486	504.173	0.0017852	0.00062505	0.00017789	1342.1	9.243e-06	5.135e-06	1336.9	360.41	1.2868e-05	4.6006e-06	410.09	136.59	119.98	40.536	5.4594e-06	50.036	0.0006807	0.00065307	0.00017968	1369.1	7.1222e-06	7.1612e-06	1365.7	368.1	7.1609e-06	7.1973e-06	421.08	139.5	122.05	41.824	7.0321e-06	51.97	413.236	225.135	253.847	161.843	276.528	271.957	161.570	167.166	263.665	275.233	165.957	170.273	170.360	175.807	293.339	174.939	-8191	255	
707.085	1	1	0	0	0.22082	0.20011	0.1135	0.21895	0.21078	0.1438	0.29315	0.15564	0.11093	0.26588	0.2408	0.11524	0.033765	0.19482	0.14105	0.11731	-2.5708	-2.8271	-2.6667	-3.2479	-3.0271	-2.8729	-3.2958	-3.0187	-2.8604	-3.0083	-2.9792	-3.2042	-3.0563	-2.9104	-3.0958	-2.8479	199.081	371.206	351.466	164.049	159.554	182.090	443.662	457.043	204.817	445.058	152.521	461.234	216.661	157.096	238.680	412.121	0.001917	0.00035881	0.00014715	1338	9.4054e-06	2.9922e-06	1342.8	360.38	1.0804e-05	4.1305e-06	410.34	136.53	120.37	40.422	8.5177e-06	50.104	0.00068119	0.00064756	0.00018184	1370.1	7.0479e-06	7.0048e-06	1367.4	367.99	7.1097e-06	7.0723e-06	421.11	139.79	122.13	41.849	6.9654e-06	52.024	414.329	240.775	247.424	162.070	283.850	274.311	161.587	166.855	269.788	281.653	166.021	170.177	170.469	175.772	302.914	174.599	-8191	255	
707.204	1	1	0	0	0.35534	0.040374	0.047878	0.31122	0.052343	0.082753	0.40228	0.2669	0.046924	0.05636	0.18451	0.23614	0.19578	0.1282	0.26046	0.16443	-2.5875	-3.1562	-2.6688	-3.0125	-3.175	-2.8187	-3.2979	-2.9688	-2.7188	-3.0583	-2.975	-2.8958	-2.9333	-2.8604	-2.9833	-3.0583	206.232	235.387	215.097	460.779	158.123	436.370	473.689	444.349	413.332	168.639	188.541	478.782	182.901	381.736	316.862	352.298	0.0018391	0.00068966	0.00011371	1336	9.2388e-06	7.1139e-06	1338.4	360.02	1.3866e-05	7.7824e-07	410.79	136.71	120.21	40.561	6.939e-06	50.045	0.00065491	0.00061336	0.00017422	1367.2	6.805e-06	6.7516e-06	1365.1	367.72	6.7829e-06	6.7744e-06	421.31	139.75	122.18	41.905	6.7292e-06	52.048	413.797	255.024	221.780	162.139	279.237	280.250	161.587	166.737	282.242	286.367	165.916	170.218	170.487	176.028	305.060	174.582	-8191	255	
707.300	1	1	0	0	0.10741	0.18364	0.22741	0.22589	0.10534	0.12482	0.30644	0.039483	0.097027	0.22108	0.1566	0.12128	0.30886	0.22046	0.35933	0.090832	-2.2667	-2.9583	-2.7396	-3.0708	-3.0896	-2.6562	-3.2417	-2.9896	-2.7104	-3.2375	-3.0521	-3.0375	-3.1	-2.7625	-3.1021	-2.8958	491.800	322.898	400.184	154.049	501.130	354.245	403.072	349.955	223.399	432.802	435.128	504.643	489.302	485.477	400.230	387.166	0.0018552	0.00072894	0.00016526	1339.8	9.8588e-06	5.6632e-06	1342.3	358.37	8.7359e-06	5.9827e-06	411.08	136.69	120.41	40.166	7.2436e-06	50.011	0.00064201	0.00059436	0.00016511	1367.9	6.6331e-06	6.5941e-06	1365.1	367.09	6.573e-06	6.7316e-06	421.19	139.67	122.15	41.709	6.8023e-06	52.013	412.583	233.737	262.588	161.912	269.848	313.104	161.650	166.887	274.943	299.452	166.021	170.292	170.357	175.724	314.861	174.529	-8191	255	
707.397	1	1	0	0	0.09893	0.15557	0.19773	0.17775	0.1547	0.098558	0.31915	0.10481	0.11904	0.16604	0.2932	0.17538	0.16357	0.31329	0.14445	0.070677	-2.2917	-3.0917	-2.7521	-2.975	-2.9833	-2.8542	-3.1188	-3.0521	-2.7875	-3.075	-2.9292	-2.8	-3.1437	-2.9	-3.0333	-3.1417	249.185	316.830	442.274	158.394	330.014	168.106	467.387	382.578	490.408	294.331	477.932	271.589	177.322	486.402	301.370	242.352	0.0019863	0.00057528	0.00013001	1334.1	8.0265e-06	7.0766e-06	1334	358.14	1.5733e-05	3.1722e-06	409.11	136.04	119.14	40.266	5.5948e-06	50.021	0.00065822	0.00063162	0.00017712	1363.5	7.0403e-06	7.0997e-06	1362.6	366.85	7.1031e-06	7.137e-06	421.14	139.32	121.62	41.751	7.1771e-06	51.968	413.015	239.583	207.784	161.912	287.920	306.078	161.739	166.651	243.834	342.830	165.848	170.557	170.265	175.716	302.909	174.836	-8191	255	
707.493	1	1	0	0	0.16891	0.3148	0.15289	0.15352	0.13154	0.23937	0.36491	0.33743	0.16221	0.16215	0.17187	0.078438	0.24114	0.16221	0.36755	0.16688	-2.2604	-2.9375	-2.7521	-3.0542	-2.9104	-2.8125	-3.0563	-3.025	-2.6375	-3.0104	-3.0646	-2.8333	-3	-2.7313	-2.8896	-3.2042	153.220	481.006	364.886	472.645	373.230	347.549	386.413	428.621	163.429	268.870	400.453	488.883	180.754	280.721	395.905	455.620	0.0018406	0.00069931	0.00011901	1335.3	1.0278e-05	5.1261e-06	1338.2	360.82	6.8174e-06	4.4409e-06	409.61	136.49	120.32	40.495	5.7941e-06	50.066	0.0006752	0.00065362	0.0001811	1366.1	6.9865e-06	7.0313e-06	1366.2	367.9	6.8664e-06	6.9054e-06	420.64	139.64	122.09	41.902	6.6956e-06	51.977	417.898	215.586	268.279	161.980	278.470	297.061	161.698	166.961	257.191	325.328	166.020	170.460	170.340	175.613	302.301	174.633	-8191	255	
707.613	1	1	0	0	0.10959	0.10778	0.25815	0.34248	0.2151	0.12804	0.12657	0.19774	0.074222	0.14802	0.29394	0.22779	0.15565	0.062909	0.13112	0.089023	-2.3479	-3.0896	-2.9292	-2.9625	-3.0271	-3.0896	-3.2542	-3.2667	-2.8646	-2.9688	-3.1771	-2.6646	-3.3063	-3.0396	-2.8417	-3.0396	241.299	363.560	459.671	435.407	411.026	298.775	500.554	479.845	209.766	308.102	161.960	457.073	227.357	209.190	320.524	356.100	0.0018175	0.00066012	0.00018568	1335.2	9.444e-06	4.0079e-06	1338	360.14	9.147e-06	6.2729e-06	409.64	136.2	120.33	40.513	4.4119e-06	49.716	0.00064126	0.00060849	0.00017014	1365.3	6.6201e-06	6.6392e-06	1363	367.32	6.6916e-06	6.7502e-06	420.75	139.43	121.88	41.776	6.6519e-06	51.842	413.279	223.091	216.424	162.074	280.618	257.158	161.732	167.037	279.281	281.343	165.935	170.198	170.307	175.750	298.342	174.493	-8191	255	
707.709	1	1	0	0	0.21595	0.24338	0.19539	0.28692	0.16961	0.015024	0.18354	0.2905	0.2538	0.11753	0.27493	0.10667	0.1149	0.14209	0.24997	0.26883	-2.4271	-2.9771	-2.8958	-2.8542	-3.0083	-2.7812	-2.9417	-3.2687	-2.7604	-3.0125	-3.2667	-2.8833	-3.1479	-3.0667	-2.675	-3.1729	322.208	426.403	391.145	442.703	498.356	275.275	415.777	467.419	187.575	388.966	501.939	437.913	494.229	252.833	502.007	418.307	0.0018086	0.00047257	0.00018236	1333.3	4.5649e-06	5.586e-06	1337.9	359.27	1.6139e-05	5.2275e-06	408.54	136.42	120.66	40.433	6.5087e-06	49.932	0.00064753	0.00060857	0.00016947	1362.9	6.5964e-06	6.6513e-06	1360.9	366.88	6.6353e-06	6.6679e-06	420.53	139.56	122	41.831	6.767e-06	51.923	415.085	244.607	208.376	161.962	297.095	272.444	161.785	166.790	262.180	289.422	166.040	170.249	170.090	175.710	279.308	174.639	-8191	255	
707.781	1	1	0	0	0.10174	0.18761	0.23746	0.10824	0.31862	0.18254	0.21362	0.12395	0.27612	0.1727	0.16645	0.058895	0.15566	0.033052	0.094896	0.086316	-2.2104	-2.8438	-2.8917	-2.9667	-3.0229	-2.8917	-2.9417	-3.0792	-2.7667	-2.9417	-3.2167	-2.8771	-2.9854	-3.125	-2.825	-3.2271	272.151	443.915	453.376	500.238	384.441	203.911	501.143	405.596	285.770	240.715	431.504	345.426	150.744	248.338	419.709	504.404	0.0018414	0.00058903	0.00013973	1332	1.0823e-05	6.3125e-06	1337.4	359.37	9.7793e-06	6.401e-06	410.11	136.6	119.98	40.514	4.1127e-06	50.145	0.00064752	0.00061867	0.00017271	1363.9	6.8693e-06	6.8097e-06	1363.1	367.83	6.7969e-06	6.7427e-06	420.58	139.69	122.08	41.861	6.803e-06	52.061	418.129	235.298	250.302	161.877	244.798	345.718	161.650	166.743	256.590	318.830	166.072	170.343	170.719	175.793	314.486	174.751	-8191	255	
707.902	1	1	0	0	0.061915	0.16325	0.048825	0.0080751	0.22322	0.15873	0.19704	0.18804	0.11474	0.10991	0.046526	0.13359	0.13528	0.15894	0.13312	0.14087	-2.2396	-2.7938	-3.0792	-2.9979	-3.1354	-3.0521	-2.8271	-3.2208	-3.0521	-2.9146	-3.1771	-2.8438	-2.9979	-3.1188	-2.7583	-3.2667	313.218	237.321	344.438	345.595	420.693	416.036	428.949	432.425	371.518	484.084	397.213	163.661	183.998	429.974	199.906	342.535	0.0018347	0.00063588	0.00021072	1335.9	6.7696e-06	4.0568e-06	1336.5	360.18	1.4314e-05	5.7082e-06	408.88	136.65	120.05	40.166	7.281e-06	50.01	0.00065357	0.00062204	0.00017247	1365.3	6.7805e-06	6.9626e-06	1363.1	367.71	6.7405e-06	6.6926e-06	419.94	139.62	121.96	41.712	6.8002e-06	51.885	411.701	251.594	238.226	161.880	292.674	289.554	161.617	166.899	265.499	303.131	165.976	170.269	170.370	175.659	283.043	174.720	-8191	255	
707.998	1	1	0	0	0.15726	0.18778	0.058968	0.27835	0.20612	0.025916	0.12159	0.11169	0.20231	0.12129	0.049701	0.25833	0.24079	0.45389	0.31936	0.1555	-2.4938	-2.9021	-2.9708	-3.0646	-3.0375	-3.0271	-2.8083	-3.0938	-2.9146	-2.8229	-3.1792	-2.9271	-3.0396	-3.1479	-2.8083	-3.1833	250.311	440.558	450.695	153.945	295.335	378.468	483.178	206.763	306.124	381.144	262.021	223.424	435.426	456.580	379.058	245.918	0.0017987	0.00039794	8.3591e-05	1334	4.2564e-06	4.9302e-06	1333.8	359.31	1.1158e-05	5.9408e-06	410.77	136.35	119.97	40.489	9.1636e-06	50.046	0.00065157	0.0006126	0.00016975	1363.3	6.7344e-06	6.6734e-06	1359	366.76	6.7328e-06	6.6292e-06	420.52	139.47	121.78	41.751	6.6784e-06	51.892	408.716	214.748	182.345	162.144	279.862	291.320	161.718	166.746	288.964	277.195	166.222	170.222	170.572	175.751	281.648	174.769	-8191	255	
708.092	1	1	0	0	0.13224	0.040194	0.1432	0.22015	0.19511	0.19069	0.049245	0.14914	0.15608	0.25023	0.14152	0.14712	0.027097	0.13609	0.10285	0.37657	-2.3937	-2.75	-2.95	-2.9583	-2.7604	-3.0458	-2.9333	-3.0958	-3.0667	-2.8	-3.1688	-3.0021	-2.7604	-3.2562	-2.65	-3.0396	318.002	424.925	297.804	457.235	262.729	481.228	295.609	435.192	464.749	474.587	283.721	453.323	498.623	450.740	422.829	468.029	0.0018584	0.00063242	0.00015519	1335.5	5.2145e-06	2.8471e-06	1334.2	357.86	1.2571e-05	7.1479e-07	408.06	136.45	120.38	40.198	4.8491e-06	49.829	0.00064651	0.00061359	0.00017338	1362.3	6.7343e-06	6.6562e-06	1358.6	366.28	6.822e-06	6.7702e-06	419.64	139.44	121.94	41.738	6.7879e-06	51.895	412.558	246.772	271.849	161.954	305.199	249.482	161.683	166.851	268.839	246.492	166.171	170.252	170.388	175.761	264.938	174.615	-8191	255	
708.188	1	1	0	0	0.29095	0.11146	0.05103	0.091999	0.26651	0.090704	0.28257	0.2625	0.31607	0.30104	0.13908	0.22841	0.23937	0.1474	0.11762	0.12019	-2.5042	-2.8083	-3.125	-3.0667	-2.7667	-3.1417	-2.9708	-3.1396	-2.9875	-2.7083	-3.1792	-2.9104	-2.7896	-3.0646	-2.8563	-3.1333	412.433	410.675	233.385	383.363	210.519	424.756	429.363	403.036	345.149	508.279	382.941	343.912	341.931	371.162	268.186	436.399	0.0017678	0.00058516	0.00023935	1332.5	9.6293e-06	5.099e-06	1333.4	358.84	1.0396e-05	4.4833e-06	410.24	135.94	119.79	40.225	3.5851e-06	49.793	0.00065367	0.00061591	0.00017398	1359.9	6.7326e-06	6.8761e-06	1359.5	366.4	6.8137e-06	6.9635e-06	420.03	138.97	121.59	41.65	6.9804e-06	51.732	412.106	288.078	254.183	161.889	296.461	305.892	161.581	166.986	295.968	282.646	165.898	170.388	170.094	175.604	270.998	174.575	-8191	255	
708.309	1	1	0	0	0.1053	0.20902	0.30655	0.15304	0.08952	0.16696	0.12469	0.22568	0.18333	0.15651	0.33452	0.50242	0.11879	0.015115	0.046661	0.11665	-2.7104	-2.7583	-2.9854	-3.025	-2.6625	-3.1167	-2.9875	-3.0604	-2.9437	-2.7438	-2.9729	-3.0417	-2.9229	-2.9792	-3.0375	-3.0229	476.915	343.003	438.674	474.991	315.058	350.772	480.141	468.376	284.664	381.878	467.669	157.815	252.561	316.739	324.234	362.817	0.0017728	0.00047058	4.6715e-05	1328.2	6.6676e-06	6.7866e-06	1331.8	357.8	1.0973e-05	4.0556e-06	408.69	135.42	119.96	40.174	6.3302e-06	50.062	0.00067153	0.00064717	0.00017886	1360.4	7.043e-06	7.1532e-06	1358.2	365.91	7.1404e-06	7.3528e-06	419.37	138.93	121.51	41.541	7.2847e-06	51.824	416.202	266.366	238.357	162.158	274.015	290.086	161.615	166.847	321.582	247.010	166.025	170.320	170.638	175.602	287.235	174.714	-8191	255	
708.381	1	1	0	0	0.15811	0.089292	0.047442	0.26309	0.117	0.11813	0.23573	0.13087	0.10139	0.076152	0.12757	0.17878	0.092359	0.29493	0.06077	0.2299	-2.5625	-2.7771	-3.0938	-3.2042	-2.7	-3.1604	-3.0333	-2.9167	-3.1833	-2.8063	-3.0625	-2.9938	-2.6875	-3.0792	-2.9437	-2.6521	240.823	492.603	457.712	495.657	260.635	398.829	447.100	469.217	362.293	400.474	442.893	481.841	482.835	491.541	387.578	449.316	0.0017631	0.0004831	0.00016457	1332.9	6.3204e-06	5.511e-06	1335.3	358.15	1.5553e-05	5.943e-06	408.03	135.11	119.04	40.012	5.5577e-06	49.84	0.00070713	0.00067165	0.00018384	1363.4	7.2495e-06	7.4525e-06	1359.8	366.51	7.4779e-06	7.4311e-06	419.9	138.53	121.62	41.555	7.5604e-06	51.753	417.114	234.336	257.982	161.873	314.694	305.280	161.715	166.922	283.105	304.598	166.038	170.384	170.632	175.648	290.445	174.706	-8191	255	
708.477	1	1	0	0	0.20923	0.10125	0.067059	0.31675	0.11465	0.32169	0.34929	0.064582	0.37906	0.092884	0.12897	0.15401	0.16847	0.17986	0.18854	0.15504	-2.6271	-2.4271	-3.0146	-3.1458	-2.7167	-2.9667	-3.0896	-3.0646	-3.0187	-2.7354	-3.1125	-3.2687	-2.6708	-3.0708	-2.9292	-2.8792	161.067	307.484	294.614	187.387	198.495	193.582	422.808	486.085	235.665	163.437	481.953	459.395	469.798	499.855	268.240	204.447	0.0017339	0.00084321	0.00010434	1330	9.0186e-06	5.0047e-06	1334.3	356.95	1.1832e-05	3.8644e-06	408.72	135.07	119.97	40.149	4.9062e-06	49.875	0.00070926	0.00068529	0.00019427	1364.4	7.672e-06	7.5935e-06	1362.3	365.85	7.5471e-06	7.5642e-06	420.21	138.59	121.63	41.557	7.6025e-06	51.695	417.013	238.871	288.312	162.066	281.691	273.848	161.615	166.923	280.753	334.855	165.914	170.144	170.326	175.839	279.894	174.579	-8191	255	
708.573	1	1	0	0	0.13776	0.059012	0.14639	0.22201	0.070305	0.17084	0.22171	0.1255	0.11642	0.54278	0.15483	0.29336	0.24999	0.12959	0.18125	0.15422	-2.7	-2.7604	-2.8875	-3.125	-2.8083	-3.1021	-3.1917	-3.0917	-3.0917	-2.8271	-3.2562	-3.1562	-2.775	-2.975	-3.0625	-2.925	243.393	491.024	227.345	481.940	348.290	438.747	436.340	149.886	454.112	470.675	496.307	467.925	207.179	305.580	311.508	393.283	0.0019524	0.00035297	0.00018911	1333.9	5.1323e-06	7.5313e-06	1336.4	357.35	1.3336e-05	2.5598e-06	407.03	134.94	119.22	40.043	6.278e-06	49.669	0.00071369	0.00069622	0.00019498	1365.9	7.5504e-06	7.5915e-06	1361.8	366.12	7.6789e-06	7.7198e-06	420.07	138.29	121.17	41.5	7.6483e-06	51.618	414.223	223.735	252.403	161.735	242.173	343.043	161.600	166.910	281.999	316.559	165.851	170.291	170.626	175.880	286.658	174.518	-8191	255	
708.694	1	1	0	0	0.25931	0.16847	0.14405	0.3605	0.095752	0.13367	0.043005	0.052473	0.25602	0.19961	0.087407	0.24953	0.076628	0.30007	0.2593	0.13047	-2.7583	-2.9167	-2.925	-3.3	-2.8896	-3.0583	-3.225	-2.9375	-3.2188	-2.9708	-3.0479	-3.2333	-2.8	-3.1375	-3.1021	-2.9292	388.647	321.724	388.808	454.178	198.248	458.027	422.092	366.761	384.507	193.947	230.741	459.322	251.076	242.873	424.638	278.960	0.0017475	0.00070412	0.00015714	1333.1	1.2372e-05	2.0293e-06	1332.3	357.79	1.4974e-05	3.6826e-06	407.09	134.4	118.47	39.857	3.9981e-06	49.453	0.00072874	0.00072333	0.00020014	1364.8	7.9035e-06	7.9645e-06	1360.6	365.82	8.0614e-06	8.1441e-06	418.89	138.12	121.31	41.392	8.3144e-06	51.6	412.030	247.558	210.362	162.022	274.573	306.232	161.601	166.962	269.533	246.491	165.912	170.096	170.585	175.949	307.314	174.814	-8191	255	
708.790	1	1	0	0	0.058417	0.2198	0.20779	0.18347	0.16277	0.19252	0.30111	0.13217	0.058793	0.023324	0.21966	0.23717	0.22635	0.076282	0.21848	0.028031	-2.6917	-3.0812	-2.8208	-3.2146	-2.8875	-2.9083	-3.275	-2.7812	-3.0125	-2.9	-2.8063	-3.0208	-2.875	-2.8812	-3.0042	-2.9604	299.218	288.862	411.004	451.398	216.385	216.317	368.333	508.768	170.474	290.810	491.093	449.523	492.140	499.310	345.107	318.219	0.0018426	0.00045624	0.00021637	1333.8	8.0551e-06	2.1222e-06	1333.9	355.81	1.1442e-05	4.327e-06	406.95	134.66	118.07	39.82	6.7328e-06	49.26	0.00077128	0.00076711	0.00021376	1366.4	8.4601e-06	8.4891e-06	1361.6	365.32	8.4885e-06	8.5197e-06	418.72	137.67	121.06	41.303	8.754e-06	51.489	410.640	209.413	235.325	162.044	313.872	338.679	161.441	166.797	280.410	238.405	165.923	170.336	170.599	175.833	293.272	174.943	-8191	255	
708.886	1	1	0	0	0.24265	0.091848	0.25562	0.14526	0.12078	0.18159	0.29221	0.20872	0.048959	0.3674	0.21386	0.10991	0.12036	0.021347	0.10225	0.45097	-2.6271	-2.9458	-2.7062	-3.0917	-2.8729	-2.8583	-3.1854	-2.9625	-2.9208	-3.0938	-2.7812	-3.1813	-2.9729	-2.8854	-3.1562	-2.8729	353.439	358.731	226.616	425.880	397.055	182.833	480.135	465.141	467.414	195.054	482.604	452.249	436.819	385.413	276.796	453.942	0.0017724	0.00037248	0.00018176	1338.3	4.5743e-06	6.2597e-06	1334.7	355.55	8.9086e-06	2.7862e-06	407.88	133.99	118.75	39.802	8.3684e-06	49.258	0.00081651	0.00080802	0.00022231	1369.4	8.7593e-06	8.8915e-06	1364.3	364.83	8.8135e-06	8.798e-06	419.64	137.83	121.29	41.345	8.944e-06	51.488	413.784	226.914	270.626	161.912	249.842	303.654	161.643	167.016	273.601	286.222	165.932	170.319	170.346	175.887	255.165	174.605	-8191	255	
708.982	1	1	0	0	0.24295	0.26372	0.10469	0.22781	0.070632	0.14812	0.22619	0.29882	0.13161	0.23346	0.11465	0.059991	0.15951	0.22094	0.28065	0.35032	-2.6042	-2.9938	-2.8438	-3.3917	-2.8083	-2.8354	-3.4979	-2.8937	-2.9479	-3.1771	-2.8979	-3.2792	-3.1688	-2.9042	-2.9146	-2.9146	404.006	384.818	401.386	474.429	270.069	215.639	449.660	463.230	291.729	152.899	407.351	231.295	198.230	322.127	358.977	478.831	0.0017363	0.00083683	0.00015398	1336.7	1.1163e-05	7.0986e-06	1333.1	356.97	1.4392e-05	3.8012e-06	407.39	134.35	118.47	39.74	4.7346e-06	49.478	0.00083365	0.00082116	0.00022986	1371	9.0678e-06	9.2388e-06	1364.7	365.84	9.0719e-06	9.2934e-06	419.44	138.09	121.45	41.428	9.3574e-06	51.694	408.882	283.931	207.393	161.812	271.582	303.092	161.459	166.818	253.397	297.150	166.055	170.280	170.372	175.822	305.636	174.626	-8191	255	
709.078	1	1	0	0	0.17486	0.073729	0.14382	0.1232	0.052076	0.18569	0.034612	0.11705	0.12459	0.046336	0.28777	0.11199	0.10842	0.18213	0.20662	0.18235	-2.4729	-3.0938	-2.85	-3.0958	-3.15	-2.725	-3.2188	-2.9292	-2.8667	-3.0396	-2.8	-3.0563	-2.8521	-2.75	-3.225	-2.8583	485.428	462.293	248.189	370.310	452.063	286.981	442.688	507.709	430.765	349.212	419.326	173.405	162.562	441.292	483.422	180.558	0.0018059	0.00062807	0.00013571	1342.9	6.5702e-06	2.8821e-06	1343	357.42	1.1755e-05	5.2593e-06	405.76	134.53	118.03	39.691	6.1577e-06	49.084	0.00085559	0.00085364	0.00023865	1375.2	9.3887e-06	9.4027e-06	1370.6	366.09	9.2586e-06	9.3155e-06	419.78	138.15	121.42	41.371	9.2463e-06	51.502	412.456	222.192	260.164	162.003	298.786	276.224	161.576	166.661	298.073	329.326	165.925	170.249	170.388	175.804	323.163	174.673	-8191	255	
709.174	1	1	0	0	0.060066	0.074409	0.19496	0.25491	0.035331	0.15617	0.09532	0.2979	0.088112	0.23428	0.15136	0.11883	0.1255	0.23148	0.10483	0.28443	-2.4979	-3.1208	-2.7917	-3.1792	-3.0458	-2.775	-3.2604	-3.15	-2.6771	-3.1312	-2.9417	-2.8979	-3.2188	-2.7667	-3.2417	-2.9604	227.242	488.760	482.528	418.147	264.967	364.214	505.339	420.295	237.939	286.828	503.349	457.007	444.153	485.601	341.745	466.513	0.00178	0.00034385	0.00016796	1333.7	6.6411e-06	6.3237e-06	1337.9	355.05	1.2e-05	4.5769e-06	405.47	133.55	118.38	39.798	8.7147e-06	49.095	0.00084515	0.00082624	0.00022913	1369.8	8.987e-06	9.101e-06	1364.8	364.3	8.7822e-06	8.8346e-06	418.28	137.55	121.05	41.284	8.5819e-06	51.363	420.835	262.079	255.122	161.989	321.070	262.762	161.746	166.813	274.106	317.234	166.179	170.372	170.458	175.789	260.378	174.957	-8191	255	
709.293	1	1	0	0	0.1841	0.12441	0.22101	0.055293	0.12128	0.049337	0.17942	0.19505	0.20739	0.054377	0.038323	0.089832	0.058822	0.14937	0.09243	0.08346	-2.2812	-2.975	-2.7292	-2.9417	-3.225	-2.6979	-3.3	-3.2396	-2.8937	-3.2562	-2.8688	-3.0312	-3.1854	-2.9333	-3.0833	-2.9271	263.217	341.758	319.547	333.810	356.989	359.574	446.644	471.529	306.321	211.367	482.788	460.780	415.576	474.856	436.902	433.847	0.0020013	0.00062448	0.00013114	1330.3	7.1257e-06	7.1276e-06	1326.7	354.31	1.2126e-05	5.5625e-06	404.61	133.8	117.68	39.664	7.7836e-06	49.351	0.00079819	0.00076201	0.00021348	1364.2	8.1295e-06	8.1903e-06	1357.4	362.42	7.8994e-06	8.0014e-06	416.71	137.2	120.16	41.125	7.4887e-06	51.309	411.783	245.440	244.470	162.114	290.138	274.921	161.732	166.852	278.972	269.629	166.154	170.353	170.460	175.795	289.785	174.653	-8191	255	
709.389	1	1	0	0	0.18338	0.19219	0.21828	0.1186	0.22412	0.33152	0.061363	0.12663	0.080427	0.17935	0.43827	0.09185	0.11657	0.17399	0.42359	0.15116	-2.1917	-3.0396	-2.9313	-3.0021	-3.1542	-3.0604	-3.1021	-3.2062	-2.65	-2.975	-3.1188	-2.9333	-3.1375	-2.9188	-2.95	-3.2062	173.724	463.960	192.504	429.016	222.584	170.830	495.309	474.631	342.151	483.552	395.974	372.939	463.876	468.771	338.759	470.156	0.0018335	0.00034168	0.00010741	1327.5	7.4486e-06	4.7755e-06	1324.8	353.57	8.1697e-06	9.0954e-06	405.64	134.9	118.62	40.017	5.368e-06	49.904	0.00069087	0.0006618	0.00018169	1356.6	6.9285e-06	6.9508e-06	1351.9	362.56	6.6121e-06	6.7037e-06	416.76	137.93	120.55	41.399	6.3625e-06	51.599	415.945	274.386	223.442	161.951	309.204	292.527	161.569	166.939	263.712	298.201	166.060	170.356	170.714	175.611	291.986	174.480	-8191	255	
709.486	1	1	0	0	0.3578	0.064697	0.057175	0.21025	0.1141	0.21664	0.13033	0.16276	0.33969	0.10894	0.21532	0.19702	0.046857	0.1807	0.11147	0.15497	-2.3521	-3.2708	-2.7208	-2.7896	-3.025	-2.7854	-3.0854	-3.1604	-2.75	-2.8854	-3.0208	-2.975	-2.9875	-3.0062	-2.8688	-3.1854	416.213	202.414	461.880	439.690	249.860	471.253	383.620	425.972	430.708	259.140	191.314	442.420	479.230	336.292	224.925	424.257	0.0018637	0.00032079	0.00010468	1320	7.5583e-06	7.6704e-06	1322.2	356.7	1.3481e-05	8.3682e-06	406.76	136.1	119.34	40.221	6.6376e-06	49.98	0.0006051	0.0005582	0.00015316	1349.3	5.8484e-06	5.8372e-06	1348.8	363.85	5.6772e-06	5.6401e-06	418.1	138.75	120.95	41.583	5.5127e-06	51.836	416.002	251.107	260.665	162.006	283.840	308.386	161.636	166.738	286.633	284.517	166.017	170.405	170.597	175.709	296.431	174.869	-8191	255	
709.606	1	1	0	0	0.10877	0.11305	0.11382	0.33917	0.27393	0.14778	0.04916	0.3022	0.24723	0.19815	0.14551	0.13999	0.15332	0.33184	0.091309	0.1696	-2.4292	-2.825	-2.8417	-2.975	-3.0146	-2.85	-2.9625	-3.1083	-2.8812	-3.0833	-3.2208	-2.9437	-3.0208	-2.8708	-2.9333	-3.175	383.219	370.671	229.439	456.424	499.716	442.590	359.243	410.700	317.943	265.129	437.601	188.965	156.851	471.810	154.052	202.871	0.0017378	0.00037178	0.00015895	1321.5	6.4768e-06	3.0527e-06	1322.3	356.68	6.9991e-06	2.2e-06	407.07	135.73	119.49	40.295	7.151e-06	50.014	0.00053793	0.00048623	0.00013886	1346.3	5.3689e-06	5.3797e-06	1347.2	363.92	5.3272e-06	5.3544e-06	416.28	138.62	120.62	41.555	5.2315e-06	51.692	411.385	231.676	234.802	161.967	297.530	290.792	161.796	166.816	268.894	314.654	166.037	170.289	170.467	175.780	266.662	174.679	-8191	255	
709.678	1	1	0	0	0.12964	0.11042	0.14466	0.15061	0.22095	0.28537	0.36714	0.15727	0.036114	0.12584	0.21625	0.12284	0.10733	0.15431	0.12273	0.086061	-2.5271	-2.8458	-2.9333	-3.0875	-3.0312	-2.8271	-3.1521	-3.1708	-2.9188	-2.9646	-3.0667	-2.9146	-2.9375	-2.8688	-2.7687	-2.9562	152.970	392.190	485.771	342.960	390.262	354.939	467.775	225.918	288.922	253.014	175.167	172.239	345.163	484.470	250.958	419.176	0.00182	0.00029543	0.00011857	1312	8.9554e-06	8.241e-06	1314.1	356.66	1.3836e-05	5.7186e-06	406.95	136.1	119.68	40.38	7.9742e-06	49.833	0.00052139	0.00047997	0.00013403	1338.8	5.1428e-06	5.1652e-06	1338.8	362.94	5.1287e-06	5.148e-06	415.54	138.66	120.77	41.533	5.0681e-06	51.723	413.624	260.110	228.525	162.109	272.481	285.314	161.799	166.832	290.719	289.809	166.004	170.206	170.489	175.848	278.369	174.645	-8191	255	
709.774	1	1	0	0	0.21915	0.30011	0.11872	0.042608	0.171	0.074062	0.055886	0.28373	0.39724	0.034067	0.10353	0.49774	0.17659	0.26592	0.079623	0.096866	-2.6	-2.7229	-3.1	-2.9188	-2.9896	-2.9562	-2.9833	-3.2771	-2.9104	-2.8208	-2.9958	-2.9854	-2.9208	-2.9271	-2.7167	-3.1729	249.236	173.206	489.325	503.699	270.540	384.926	497.087	439.365	396.498	172.032	489.871	469.054	412.989	245.187	210.558	365.543	0.0017099	0.0002076	0.00011004	1311.1	7.9424e-06	7.1992e-06	1314.9	356.49	1.3184e-05	5.971e-06	406.18	136.3	119.63	40.239	7.1697e-06	50.199	0.00050864	0.00044966	0.00012677	1337.9	4.9696e-06	4.9457e-06	1338	363.49	4.957e-06	4.8936e-06	415.89	138.89	120.71	41.598	4.8815e-06	51.805	412.901	222.366	230.025	162.118	267.247	302.048	161.669	166.863	274.707	298.296	166.057	170.444	170.588	175.566	299.053	174.520	-8191	255	
709.870	1	1	0	0	0.10019	0.18536	0.054519	0.35287	0.27159	0.068794	0.20759	0.34162	0.14573	0.24052	0.14605	0.039159	0.34489	0.32283	0.065959	0.12225	-2.4646	-2.9	-3.1	-2.7229	-3.0687	-3.1833	-2.7479	-3.0438	-2.9125	-2.7604	-3.1188	-2.75	-3	-3.0833	-2.7625	-3.2687	318.998	358.767	435.193	443.879	481.189	466.172	378.924	418.826	255.067	394.666	420.768	214.513	507.337	484.789	400.043	340.824	0.0018892	0.00017905	0.00025747	1311.3	8.9492e-06	6.6737e-06	1318.8	355.2	9.3134e-06	1.7381e-06	407.55	135.72	119.7	40.203	6.7274e-06	50.191	0.00050133	0.0004494	0.00012402	1336.3	4.8677e-06	4.9367e-06	1337.1	362.93	4.9014e-06	4.8934e-06	416.11	138.73	120.67	41.518	4.8733e-06	51.864	414.352	233.632	256.818	162.002	291.679	291.194	161.826	166.842	284.573	314.821	166.068	170.070	170.275	175.800	283.435	174.726	-8191	255	
709.989	1	1	0	0	0.26227	0.065401	0.28121	0.13289	0.082249	0.21829	0.31609	0.24493	0.2296	0.29593	0.18353	0.16903	0.21699	0.14105	0.078053	0.18533	-2.3958	-2.8604	-3.0979	-2.8604	-2.8396	-2.8854	-2.9792	-3.2083	-2.8396	-2.8979	-3.2042	-2.9583	-2.8458	-3.1167	-2.7562	-3.0146	165.465	441.736	450.161	420.996	231.779	174.311	474.354	507.816	280.119	467.420	418.502	205.212	432.341	267.978	228.827	327.678	0.0017189	0.00022746	0.00014596	1314.8	6.766e-06	7.0659e-06	1317.5	356.73	1.1262e-05	3.6171e-06	406.29	136.45	119.28	40.325	4.6988e-06	50.08	0.00049851	0.00045208	0.000124	1337.1	4.8814e-06	4.8955e-06	1339.8	363.17	4.8877e-06	4.8637e-06	416.15	139.05	120.72	41.604	4.944e-06	51.762	411.916	273.014	230.378	162.100	258.335	322.213	161.832	166.938	279.284	324.747	166.076	170.228	170.796	175.827	269.008	174.527	-8191	255	
710.087	1	1	0	0	0.097193	0.03543	0.071624	0.15644	0.16253	0.2531	0.33014	0.26595	0.017972	0.22898	0.12296	0.051701	0.17249	0.10031	0.1254	0.089991	-2.425	-2.5979	-3.0833	-2.9958	-2.7667	-3.0771	-3.0833	-3.1333	-2.85	-2.8792	-3.2625	-2.9771	-2.8375	-3.0917	-2.6562	-2.9604	367.737	300.058	340.503	413.261	226.008	335.872	444.141	182.649	472.256	425.245	404.035	446.903	500.048	474.497	190.222	386.734	0.0018207	0.00045915	0.00016074	1311.2	6.0518e-06	5.0363e-06	1318.5	355.96	7.3537e-06	5.0644e-06	409.01	136.2	120.31	40.474	7.0578e-06	49.941	0.00051339	0.00046374	0.00012745	1338.1	5.1459e-06	5.0302e-06	1340.2	363.03	5.1019e-06	5.0047e-06	417.06	139.31	120.98	41.605	5.0773e-06	51.757	411.988	264.747	256.949	162.097	285.189	282.861	161.718	166.845	264.394	318.219	166.240	170.449	170.159	175.693	292.515	174.553	-8191	255	
710.181	1	1	0	0	0.16963	0.20267	0.11332	0.29207	0.22771	0.13398	0.25036	0.20818	0.23009	0.31057	0.031594	0.18724	0.17929	0.086895	0.15032	0.020605	-2.5458	-2.4229	-2.8521	-2.9917	-2.8688	-3.1021	-2.9229	-3.0167	-2.8812	-2.9104	-3.2375	-2.8479	-2.8521	-3.1708	-2.7646	-3.1125	498.049	248.856	469.312	445.782	197.827	453.069	482.526	227.015	396.438	178.687	271.316	497.975	260.786	204.037	423.384	454.028	0.0019394	0.00032167	0.00012511	1312.6	7.785e-06	6.3416e-06	1316.9	356.56	1.0229e-05	6.7037e-06	409.33	136.73	119.53	40.389	6.233e-06	50.117	0.00051617	0.00046779	0.00012976	1340.8	5.2024e-06	5.193e-06	1342.3	364.16	5.2399e-06	5.216e-06	417.86	139.44	121.03	41.646	5.3769e-06	51.893	411.229	255.373	245.550	162.074	281.821	287.283	161.700	166.837	285.673	285.326	165.931	170.252	170.100	175.719	273.662	174.560	-8191	255	
710.255	1	1	0	0	0.11041	0.3286	0.096662	0.5762	0.25943	0.060744	0.15894	0.35938	0.10801	0.14554	0.073765	0.27612	0.2774	0.22588	0.12905	0.18657	-2.4938	-2.8875	-2.9708	-3.0354	-2.8104	-3.0375	-2.9729	-2.9458	-2.9708	-2.8	-3.0896	-3.1583	-2.7458	-3.0687	-2.7542	-3.1271	195.302	309.514	415.461	472.020	153.606	479.815	395.617	422.822	424.665	442.714	353.405	505.878	487.170	153.276	424.501	152.321	0.0018536	0.00059574	9.8624e-05	1318.6	6.9844e-06	3.0011e-06	1320.8	358.02	1.0142e-05	4.5073e-06	407.9	136.68	119.76	40.337	6.6064e-06	50.033	0.00053964	0.00048941	0.00013706	1344.3	5.4161e-06	5.5244e-06	1347.4	364.95	5.4522e-06	5.6382e-06	418.12	139.26	121.23	41.618	5.6553e-06	51.869	417.923	272.049	255.046	162.104	269.244	314.856	161.823	166.897	284.132	305.251	165.985	170.515	170.309	175.682	298.891	174.725	-8191	255	
710.374	1	1	0	0	0.15097	0.13035	0.11501	0.21444	0.17308	0.20708	0.11348	0.013194	0.17231	0.22275	0.26745	0.1364	0.2759	0.029843	0.16296	0.19721	-2.6375	-2.7313	-2.8667	-3.1208	-2.7562	-3.0917	-2.9854	-2.8375	-3.0312	-2.6875	-3.1	-3.0479	-2.8792	-3.1188	-3.0083	-3.0042	424.629	429.779	448.410	422.411	195.663	486.678	487.673	449.355	152.015	159.433	238.678	149.559	467.541	239.982	229.325	426.793	0.0018222	0.00036697	0.00012885	1319	9.769e-06	6.1581e-06	1323.4	357.23	1.133e-05	8.6654e-06	407.85	136	119.63	40.295	9.1089e-06	49.824	0.00056415	0.0005161	0.00014733	1345.1	5.6296e-06	5.7187e-06	1348.2	364.82	5.6714e-06	5.6582e-06	418.28	139.02	121.2	41.632	5.8563e-06	51.728	415.765	262.576	225.639	162.111	285.694	323.340	161.670	166.860	262.101	308.299	166.310	170.287	170.525	175.773	279.758	174.439	-8191	255	
710.470	1	1	0	0	0.26648	0.11191	0.067341	0.2157	0.11352	0.18035	0.3329	0.1766	0.23593	0.045401	0.19457	0.15852	0.19708	0.18174	0.075538	0.32951	-2.6271	-2.8125	-2.8187	-3.2625	-2.6479	-3.1271	-3.0125	-2.8167	-3.0062	-2.6271	-2.975	-3.1125	-2.7125	-3.2313	-3.0729	-2.8563	329.839	500.408	156.464	455.360	377.889	310.957	401.851	265.659	161.549	189.446	205.684	247.830	508.681	449.582	475.751	419.052	0.0017528	0.00060615	0.00016617	1316.8	1.1035e-05	6.7884e-06	1319.1	356.49	1.2393e-05	2.7758e-06	407.8	135.32	118.8	40.281	5.0334e-06	49.707	0.00057307	0.0005222	0.00015034	1346.9	5.8006e-06	5.8483e-06	1346.6	364.51	5.8395e-06	5.9383e-06	418.1	138.6	120.81	41.508	5.9783e-06	51.64	413.053	267.940	226.741	161.989	281.874	311.086	161.751	166.956	286.763	228.140	165.983	170.176	170.462	175.787	252.669	174.753	-8191	255	
710.566	1	1	0	0	0.17772	0.033441	0.093725	0.26781	0.060753	0.10392	0.2681	0.39016	0.10563	0.059752	0.070121	0.12687	0.21304	0.27204	0.17219	0.19879	-2.7	-2.7896	-2.6979	-3.2313	-2.8187	-2.9437	-3.1604	-3.0583	-3.1146	-2.8479	-2.9875	-3.2083	-2.9396	-2.9458	-2.9958	-2.95	328.718	429.637	153.765	164.364	340.474	363.523	445.483	467.722	259.707	156.934	445.233	427.850	452.951	463.353	319.325	500.141	0.0016785	0.00027812	0.00016385	1319.9	1.0158e-05	4.8622e-06	1320.7	358.14	1.2552e-05	6.8445e-06	408.08	135.26	119.28	40.101	4.874e-06	49.671	0.00060173	0.00055796	0.00015835	1346.4	6.0827e-06	6.1979e-06	1347.1	364.94	6.156e-06	6.2747e-06	418.31	138.38	120.86	41.474	6.3518e-06	51.614	413.549	185.530	282.349	161.934	280.606	294.406	161.640	166.879	280.201	281.567	166.155	170.447	170.468	175.754	285.445	174.767	-8191	255	
710.687	1	1	0	0	0.1729	0.23122	0.1958	0.39319	0.38415	0.14587	0.11334	0.16501	0.027777	0.16697	0.24046	0.02755	0.2831	0.41116	0.17653	0.1411	-2.7083	-2.7292	-2.7875	-3.2917	-2.9917	-2.8146	-3.3333	-2.9062	-2.9813	-2.8229	-2.825	-3.1875	-2.6583	-2.8167	-3.0521	-2.8896	222.253	465.057	390.083	481.602	413.174	282.257	498.955	476.448	461.192	198.575	481.908	262.808	206.508	153.839	327.074	468.850	0.001821	0.00055553	0.00018568	1316.8	5.8542e-06	5.1175e-06	1315.8	357.34	1.0269e-05	5.8307e-06	406.29	134.98	118.64	40.084	8.5589e-06	49.656	0.00060875	0.00056641	0.00015892	1346.2	6.1917e-06	6.2082e-06	1345.9	364.71	6.1658e-06	6.1351e-06	417.11	138.29	120.38	41.453	6.1729e-06	51.552	412.660	260.510	247.942	162.130	302.559	270.223	161.700	166.891	264.578	296.099	165.994	170.138	170.471	175.770	309.737	174.641	-8191	255	
710.783	1	1	0	0	0.061341	0.036265	0.069371	0.32702	0.13302	0.28902	0.16573	0.22349	0.2637	0.067125	0.027163	0.093425	0.27849	0.20268	0.077504	0.11239	-2.425	-3.0125	-2.7729	-3.2417	-2.8896	-2.8375	-3.2938	-2.9354	-2.9562	-2.9146	-2.6021	-3.1958	-2.8146	-3.0312	-3.1083	-2.8417	341.033	484.125	426.438	482.093	360.464	297.046	494.665	434.186	343.267	461.200	298.523	360.981	399.779	488.914	358.830	448.511	0.0017572	0.00084989	4.8767e-05	1317.3	6.5998e-06	9.0039e-06	1320.3	357.66	1.5232e-05	7.0134e-06	407.86	135.96	119.49	40.033	5.1695e-06	49.863	0.00060311	0.00055369	0.00015292	1345.5	6.022e-06	6.1392e-06	1346.8	364.88	6.0234e-06	6.0782e-06	417.76	138.66	120.82	41.473	6.055e-06	51.68	415.405	247.803	282.537	161.983	290.109	314.888	161.695	166.893	277.212	299.169	165.892	170.317	170.256	175.824	284.943	174.678	-8191	255	
710.879	1	1	0	0	0.14351	0.16219	0.082159	0.20372	0.21969	0.22984	0.29673	0.14631	0.078608	0.13395	0.1439	0.073529	0.09967	0.046601	0.27345	0.17493	-2.5625	-3.1167	-2.7667	-3.1729	-2.9396	-2.725	-3.2708	-2.9896	-2.9938	-3.0083	-2.7521	-3.0625	-2.8958	-2.9292	-2.8833	-2.9021	175.983	422.312	274.142	484.117	459.615	398.301	475.726	464.911	397.756	364.315	449.777	200.802	241.951	443.861	381.853	416.548	0.0018012	0.00054523	0.00024499	1316.3	6.9501e-06	6.8421e-06	1318.3	356.5	1.2825e-05	2.7594e-06	406.78	135.1	118.79	40.079	6.1405e-06	49.76	0.00059428	0.00055432	0.00015489	1345.3	6.0476e-06	5.9978e-06	1343.1	363.98	6.1505e-06	6.0596e-06	417.31	138.24	120.91	41.414	6.0575e-06	51.565	413.982	222.988	243.849	162.068	298.150	280.567	161.508	166.724	273.145	325.221	165.860	170.366	170.745	175.687	292.329	174.503	-8191	255	
710.975	1	1	0	0	0.12934	0.086266	0.29583	0.15312	0.073121	0.085611	0.19073	0.20706	0.23506	0.19866	0.13454	0.15462	0.058688	0.1817	0.091274	0.3084	-2.5292	-2.9854	-2.7458	-3.2687	-2.9	-2.6146	-3.2167	-2.9292	-2.6958	-3.0458	-2.9042	-3.025	-3.0667	-2.8	-3.1958	-2.9729	324.468	359.701	359.758	462.764	265.440	370.992	248.733	155.856	342.958	282.928	421.179	398.853	440.126	435.901	431.860	440.434	0.0018275	0.00051852	0.00021719	1314.5	1.0448e-05	6.3992e-06	1316	357.16	1.0693e-05	3.8088e-06	407.27	134.86	119.59	40.136	7.8699e-06	49.438	0.00060299	0.00054671	0.00015347	1343.8	6.0449e-06	6.0629e-06	1342	363.82	5.9861e-06	5.9367e-06	417.12	138.1	120.68	41.404	6.0815e-06	51.411	412.422	219.266	252.172	162.259	274.911	299.460	161.763	166.807	289.738	332.187	165.751	170.246	170.603	175.818	280.906	174.791	-8191	255	
711.071	1	1	0	0	0.11282	0.33935	0.16645	0.24836	0.18206	0.20705	0.39792	0.23004	0.10083	0.14804	0.18885	0.16963	0.06781	0.16642	0.40926	0.11282	-2.2854	-2.9188	-2.5583	-3.1458	-2.975	-2.8646	-3.3604	-2.9833	-2.925	-3.0958	-2.8896	-2.9729	-2.8479	-2.8375	-3.1	-2.9646	402.792	298.981	319.751	424.683	255.847	248.561	487.414	470.815	246.113	450.130	278.072	185.477	154.053	490.948	350.248	383.347	0.0019419	0.00042179	0.00015372	1316.4	7.3509e-06	3.7939e-06	1314.5	355.23	1.7943e-05	3.2243e-06	406.79	135.6	119.45	40.276	7.7408e-06	49.668	0.00059599	0.00053825	0.00015311	1344	5.9777e-06	6.0689e-06	1340.9	363.81	5.9713e-06	5.9899e-06	416.94	138.42	120.84	41.413	6.0974e-06	51.514	416.521	233.565	255.175	162.267	296.864	303.197	161.758	166.548	272.738	300.534	166.054	170.345	170.240	175.755	277.489	174.582	-8191	255	
711.166	1	1	0	0	0.1953	0.17004	0.077014	0.25537	0.0932	0.097716	0.054266	0.15229	0.063135	0.28767	0.10239	0.096017	0.086858	0.27574	0.094493	0.049028	-2.3375	-2.9396	-2.7208	-3.1458	-2.9167	-2.7208	-3.3208	-3.0479	-2.6542	-2.9208	-2.7958	-3.025	-2.8125	-2.8271	-2.9458	-3.0563	172.528	394.614	209.824	173.842	331.643	340.467	420.182	393.383	413.690	438.794	177.488	389.651	479.046	266.621	476.208	187.554	0.0018999	0.00019362	0.00017251	1318.5	7.8477e-06	4.7179e-06	1319.2	356.35	1.5904e-05	5.7998e-06	408.53	135.26	118.68	40.117	6.0044e-06	49.813	0.00059259	0.00054791	0.00015271	1343.5	6.04e-06	6.0742e-06	1342.2	364.23	6.1045e-06	6.1589e-06	417.5	138.32	120.27	41.421	6.1823e-06	51.576	414.243	283.884	209.934	161.998	272.318	293.573	161.715	166.910	279.207	276.356	166.192	170.532	170.469	175.996	313.454	174.492	-8191	255	
711.286	1	1	0	0	0.15373	0.24215	0.20271	0.2649	0.16016	0.40422	0.1449	0.25649	0.077775	0.19476	0.063182	0.14447	0.28962	0.047539	0.10531	0.13386	-2.3604	-3.0625	-2.6146	-2.9875	-2.9458	-2.7042	-3.0563	-2.9562	-2.7292	-3.0729	-2.7833	-2.9604	-3.1979	-2.8042	-3.0083	-3.0604	464.973	471.228	327.974	492.194	158.294	267.421	482.015	449.673	289.116	317.734	240.335	494.388	508.485	164.546	285.258	368.857	0.0017658	0.00062408	0.00010645	1316.9	7.146e-06	6.1095e-06	1319.3	355.91	1.321e-05	2.9817e-06	406.63	135.47	119.17	40.121	5.3652e-06	49.626	0.00060786	0.00055986	0.00015971	1344.7	6.1052e-06	6.1827e-06	1343.2	364.28	6.2234e-06	6.2476e-06	417.28	138.36	120.76	41.443	6.293e-06	51.565	416.242	235.128	256.078	162.065	279.187	292.025	161.628	166.901	288.334	312.097	166.007	170.601	170.213	176.016	321.822	174.543	-8191	255	
711.382	1	1	0	0	0.25437	0.099238	0.22419	0.14783	0.11075	0.17972	0.38375	0.1637	0.30695	0.13856	0.082763	0.26109	0.1023	0.12878	0.34704	0.20851	-2.175	-2.9167	-2.825	-2.9104	-2.9333	-2.7521	-3.1813	-3.1208	-2.6417	-3.025	-3.0854	-2.8125	-3.0729	-3.0021	-3.0208	-3.2521	217.080	351.438	279.953	221.991	419.834	358.632	431.957	373.250	236.026	341.074	325.352	415.870	504.787	234.476	351.869	476.442	0.001799	0.00041147	0.00022314	1311.2	7.0742e-06	2.5886e-06	1322.3	357.05	1.4945e-05	4.2499e-06	407.56	135.55	119.32	40.123	7.1003e-06	49.688	0.00060929	0.00056419	0.00015671	1343.1	6.0933e-06	6.095e-06	1345.3	364.55	6.2003e-06	6.2106e-06	417.93	138.49	120.57	41.409	6.2864e-06	51.645	409.524	270.821	234.885	162.334	258.786	284.332	161.564	166.773	290.591	274.428	165.956	170.166	170.791	175.896	278.706	174.321	-8191	255	
711.479	1	1	0	0	0.051952	0.10512	0.09964	0.19499	0.18985	0.067971	0.25436	0.28085	0.12792	0.24284	0.12036	0.20957	0.27773	0.22508	0.014149	0.17417	-2.2458	-3.0229	-2.9542	-2.85	-3.0667	-2.8854	-3.1562	-3.1104	-2.8479	-3.1583	-3.0396	-2.9958	-3.0021	-2.8937	-2.9792	-3.1937	418.054	190.858	234.837	443.595	350.757	333.746	455.392	458.644	239.611	336.911	477.505	354.244	357.744	454.341	215.598	389.638	0.0017339	0.00026458	0.00014654	1320.4	7.9571e-06	7.0356e-06	1322.2	356.29	1.6176e-05	5.4529e-06	408.4	135.76	119.25	40.036	5.8384e-06	49.875	0.00060465	0.00056846	0.00015886	1347.4	6.1921e-06	6.2184e-06	1347.2	364.69	6.1985e-06	6.2623e-06	418.32	138.61	120.84	41.545	6.2073e-06	51.681	413.153	262.588	231.740	162.166	289.839	298.854	161.637	166.665	276.553	301.053	166.174	170.366	170.406	175.742	282.890	174.625	-8191	255	
711.550	1	1	0	0	0.15736	0.062004	0.15716	0.13689	0.18926	0.21291	0.10604	0.26755	0.017528	0.21974	0.18424	0.19861	0.1506	0.21675	0.10994	0.33974	-2.3271	-2.9729	-2.9979	-2.8792	-3.1063	-2.8792	-2.9708	-3.2646	-2.6479	-3.0208	-2.9125	-2.8083	-2.9938	-2.8875	-2.8729	-3.2125	282.729	191.344	155.990	459.746	278.280	280.953	357.474	420.148	373.619	362.731	404.510	445.572	275.224	481.128	387.371	497.196	0.0019773	0.00018063	0.00019867	1318.9	6.6019e-06	3.2749e-06	1321.7	359.24	1.2645e-05	3.9352e-06	407.88	135.29	119.65	40.44	3.8608e-06	50.056	0.00061735	0.00056588	0.00015818	1347.9	6.1017e-06	6.1383e-06	1348.2	365.4	6.1181e-06	6.2339e-06	418.2	138.78	121.23	41.61	6.1878e-06	51.649	413.862	200.272	235.862	162.119	293.014	327.462	161.618	166.913	264.769	257.864	166.056	170.553	170.252	175.826	268.476	174.696	-8191	255	
711.671	1	1	0	0	0.17129	0.11413	0.17092	0.51209	0.097562	0.20237	0.18128	0.076792	0.13771	0.10222	0.15396	0.15761	0.16788	0.27267	0.14959	0.18761	-2.4625	-2.8708	-2.9708	-2.925	-2.9688	-2.95	-3.0625	-3.2125	-2.8042	-3.0458	-3.0979	-2.8396	-3.1271	-3.0187	-2.7083	-3.0875	357.067	337.695	270.293	498.086	434.055	197.712	409.510	476.104	467.363	280.737	282.736	412.416	316.486	453.512	403.641	465.449	0.0018203	0.00035727	0.00020513	1320.7	7.5239e-06	4.5066e-06	1323.9	358.45	1.4593e-05	5.2013e-06	408.33	135.58	119.41	40.234	2.7446e-06	49.781	0.00060532	0.00056796	0.00015759	1349.5	6.1837e-06	6.2129e-06	1347.8	365.6	6.1611e-06	6.2836e-06	418.73	138.66	121.2	41.614	6.1157e-06	51.683	413.441	270.037	263.533	162.020	287.986	246.824	161.575	166.909	278.057	297.838	165.889	170.264	170.649	175.690	335.952	174.618	-8191	255	
711.767	1	1	0	0	0.064735	0.17566	0.020522	0.31098	0.068638	0.15669	0.27058	0.26952	0.19201	0.28043	0.13442	0.24128	0.18069	0.12668	0.15417	0.26882	-2.4646	-2.8187	-3.1667	-2.9729	-3.125	-2.9771	-2.9354	-3.2062	-2.6396	-2.7125	-3.1104	-2.7917	-3.0979	-3.0479	-2.6917	-3.2646	489.599	215.046	239.155	159.823	238.130	403.592	435.006	483.942	233.417	359.802	423.168	468.258	190.996	237.398	201.371	423.327	0.0019054	0.00059165	9.8599e-05	1322.2	1.1017e-05	3.0255e-06	1324.4	358.55	1.1362e-05	2.1071e-06	408.18	136.19	119.62	40.017	8.2036e-06	49.922	0.000611	0.00056679	0.00015811	1349.7	6.2473e-06	6.2613e-06	1350	365.65	6.2805e-06	6.2263e-06	418.43	138.8	121.25	41.528	6.2225e-06	51.704	413.350	227.997	305.463	161.941	287.289	330.254	161.647	166.795	316.563	371.938	166.084	170.267	170.289	175.689	294.705	174.884	-8191	255	
711.863	1	1	0	0	0.17538	0.049376	0.2738	0.38869	0.10777	0.13883	0.25835	0.31653	0.21979	0.21596	0.033659	0.3301	0.081856	0.16601	0.16486	0.074403	-2.3375	-2.7875	-2.9333	-3.0187	-3.0667	-3.1833	-3.025	-3.1417	-2.8771	-2.7938	-3.2771	-2.8125	-2.7917	-3.2021	-2.8104	-3.0271	229.977	402.915	442.287	497.108	333.093	473.649	453.021	467.579	317.335	356.372	284.596	385.384	162.655	447.972	284.138	503.210	0.0017129	0.00059715	0.00012921	1321.9	6.9538e-06	2.7875e-06	1325.3	358.57	1.1843e-05	3.3636e-06	408.07	135.86	120.01	40.028	4.0504e-06	49.885	0.0006168	0.00056728	0.00015978	1350.1	6.2115e-06	6.1903e-06	1348.3	365.67	6.1944e-06	6.2505e-06	418.7	139.07	121.6	41.542	6.1254e-06	51.76	417.880	221.716	244.891	161.960	263.247	352.363	161.521	166.917	268.551	286.398	166.214	170.259	170.735	175.717	284.986	174.820	-8191	255	
711.959	1	1	0	0	0.27144	0.068336	0.19211	0.24728	0.32627	0.31424	0.049034	0.17522	0.31694	0.087665	0.14851	0.31846	0.21795	0.078879	0.2725	0.099134	-2.6813	-2.6125	-3.1312	-2.7458	-2.9771	-2.9979	-2.9688	-2.9854	-2.7938	-2.7792	-3.125	-2.9292	-2.8542	-3.1479	-2.6083	-3.0771	451.258	267.953	221.156	456.672	326.425	386.910	456.283	399.442	336.453	273.789	409.293	501.518	440.620	366.968	389.625	360.595	0.0018988	0.00066578	3.2501e-05	1320.2	6.4857e-06	6.6817e-06	1322.2	357.92	1.4501e-05	1.2168e-06	409.44	135.98	119.46	40.371	5.1152e-06	49.833	0.0006114	0.0005629	0.00015816	1349.7	6.158e-06	6.1803e-06	1348.3	365.55	6.2638e-06	6.2766e-06	418.69	138.78	121.34	41.6	6.3087e-06	51.701	410.577	222.802	228.495	162.106	279.186	284.996	161.689	166.848	245.373	263.158	165.822	170.219	170.475	175.739	271.337	174.554	-8191	255	
712.078	1	1	0	0	0.15039	0.081893	0.084072	0.25393	0.26139	0.26312	0.20291	0.0511	0.25564	0.013959	0.20362	0.35602	0.16954	0.32484	0.073096	0.15503	-2.4562	-2.7417	-2.9625	-2.8771	-2.8458	-2.9979	-2.8187	-3.0958	-2.9021	-2.8375	-3.0646	-3.0646	-2.7292	-3.1854	-2.7958	-2.9854	440.421	447.673	169.471	448.311	241.453	507.413	399.456	481.871	472.500	497.946	408.364	441.709	357.880	336.636	475.281	354.788	0.0017666	0.0004183	9.2043e-05	1323.6	8.3206e-06	7.5527e-06	1322.1	357.12	1.1044e-05	5.9546e-06	407.04	135.88	118.9	40.196	5.0104e-06	49.89	0.00061913	0.00056405	0.00015666	1351.5	6.2327e-06	6.302e-06	1349.4	365.62	6.3134e-06	6.1892e-06	419.05	139.11	121.17	41.581	6.3151e-06	51.759	411.044	255.224	204.525	162.110	292.704	308.245	161.531	166.771	291.291	325.478	166.284	170.406	170.677	175.792	308.080	174.729	-8191	255	
712.152	1	1	0	0	0.1632	0.36329	0.20521	0.20348	0.20033	0.059894	0.30507	0.15089	0.20733	0.24852	0.022133	0.24716	0.086895	0.17559	0.15098	0.15525	-2.6042	-2.5396	-2.9375	-2.975	-2.9146	-3.1813	-2.8563	-2.8625	-3.0417	-2.8979	-3.0854	-2.9167	-2.7188	-3.2375	-2.7938	-2.8583	310.331	253.207	410.727	468.963	218.289	489.821	438.363	158.491	285.428	370.197	221.094	491.813	506.405	498.329	276.043	503.322	0.0017561	0.00012757	0.00021387	1322.6	3.2894e-06	7.0516e-06	1324.5	359.66	1.2197e-05	8.1393e-06	410.27	136.26	120.33	40.266	6.4858e-06	50.056	0.00061731	0.00056137	0.0001573	1351	6.2634e-06	6.2338e-06	1351.1	366.73	6.2094e-06	6.1789e-06	419.72	139.22	121.63	41.663	6.3017e-06	51.886	414.428	225.683	250.246	162.256	251.608	271.363	161.489	166.795	308.005	286.541	166.105	170.252	170.000	175.788	286.924	174.613	-8191	255	
712.248	1	1	0	0	0.1718	0.29879	0.0032529	0.20917	0.28923	0.096408	0.11551	0.28108	0.0399	0.086263	0.27166	0.25398	0.1278	0.36282	0.22225	0.14043	-2.5417	-2.5667	-3.0563	-2.8833	-2.6792	-3.3187	-3.05	-2.7313	-3.0292	-2.6292	-2.9979	-3.0229	-2.6396	-3.2708	-2.7604	-2.8021	198.327	217.649	264.216	153.157	343.444	380.723	497.486	412.902	340.328	296.738	163.486	478.117	314.118	422.527	345.697	354.626	0.0018044	0.00050801	0.00014421	1326.6	8.5789e-06	6.2092e-06	1327.5	358.02	9.5759e-06	1.7053e-06	407.67	136.18	120.48	40.399	4.8214e-06	50.119	0.00061217	0.00056816	0.00016009	1353.1	6.2225e-06	6.3331e-06	1351.7	366.19	6.2823e-06	6.3871e-06	418.92	139.09	121.72	41.703	6.3189e-06	51.938	413.559	232.872	236.460	162.118	287.492	320.372	161.561	166.832	267.900	391.822	166.276	170.349	170.665	175.682	275.284	174.714	-8191	255	
712.367	1	1	0	0	0.25865	0.19274	0.078193	0.084293	0.071657	0.11232	0.24177	0.17647	0.12202	0.17523	0.27157	0.041671	0.081682	0.14161	0.21965	0.13159	-2.4646	-2.5938	-2.8937	-3.1083	-2.55	-3.075	-2.9604	-2.8646	-3.1292	-2.7083	-2.8312	-3.0812	-2.5083	-3.0896	-2.7229	-2.8104	323.073	331.507	396.025	492.238	238.698	273.968	422.102	309.456	167.715	383.786	215.869	315.104	402.397	159.553	387.857	499.905	0.0017329	0.00069225	7.5231e-05	1327.5	9.9828e-06	6.3215e-06	1325.2	358.84	5.0685e-06	6.5292e-06	408.8	136.57	120.53	40.301	5.6511e-06	49.828	0.00061031	0.00057304	0.00016055	1354.3	6.2824e-06	6.257e-06	1350.8	366.44	6.2554e-06	6.3964e-06	418.95	139.34	121.55	41.649	6.2773e-06	51.784	412.025	235.478	233.017	162.060	287.860	298.235	161.710	166.755	251.330	306.732	166.096	170.373	170.452	175.652	289.967	174.522	-8191	255	
712.463	1	1	0	0	0.046307	0.18335	0.01686	0.10824	0.31607	0.089197	0.080255	0.053036	0.16529	0.094413	0.047574	0.38382	0.31012	0.18876	0.18299	0.15127	-2.475	-2.5417	-2.6562	-3.0625	-2.6792	-3.2625	-3.0396	-2.9333	-3.0396	-2.8625	-2.9125	-2.975	-2.8479	-3.025	-2.8417	-2.9396	443.656	495.803	254.803	466.004	396.368	389.612	404.880	395.069	270.392	335.601	368.432	486.507	451.508	431.752	292.513	487.037	0.001895	0.00059549	0.00010665	1322.6	1.0133e-05	4.4461e-06	1323.6	358.35	1.1296e-05	1.8962e-06	410.34	136.04	119.81	40.168	9.1421e-06	49.81	0.00061283	0.00056935	0.00015917	1351.5	6.2337e-06	6.2924e-06	1351.9	366.11	6.2492e-06	6.2283e-06	419.46	139.06	121.42	41.616	6.2383e-06	51.759	413.919	228.221	273.580	161.955	265.431	310.426	161.497	166.947	287.329	316.859	165.851	170.340	170.363	175.801	270.740	174.805	-8191	255	
712.559	1	1	0	0	0.13258	0.21319	0.093578	0.18901	0.13896	0.14275	0.11899	0.27755	0.26522	0.24344	0.22842	0.14285	0.082562	0.30395	0.19907	0.34402	-2.5292	-2.8625	-2.8271	-3.1146	-2.5917	-3.0875	-3.0896	-2.8396	-3.0896	-2.8125	-3.0542	-3.0187	-2.7812	-2.8646	-3.0708	-2.775	157.906	456.388	250.755	489.570	248.664	264.294	488.600	416.853	347.080	438.804	252.020	504.349	259.197	182.202	385.740	474.049	0.0017824	0.00040222	0.00015165	1328	7.2167e-06	6.3395e-06	1323.5	358.42	9.6047e-06	4.8932e-06	409.7	136.53	120	40.36	7.6431e-06	49.926	0.00061479	0.000564	0.00015745	1352.7	6.2103e-06	6.2881e-06	1350.4	366.14	6.2833e-06	6.1881e-06	419.94	139.4	121.52	41.679	6.1586e-06	51.825	414.855	275.322	233.196	161.939	288.720	300.800	161.778	166.959	270.409	316.435	166.148	170.245	170.519	175.752	279.463	174.606	-8191	255	
712.655	1	1	0	0	0.2522	0.18517	0.13004	0.33073	0.14492	0.099703	0.081718	0.12385	0.19142	0.074053	0.12369	0.25395	0.14667	0.048138	0.1428	0.15388	-2.5208	-2.7479	-2.6229	-3.1937	-2.7479	-3.0521	-3.1521	-2.9646	-2.9688	-2.8292	-2.6667	-3.2896	-2.8479	-3.1354	-3.1	-2.8312	455.581	375.352	480.725	508.473	314.695	173.248	485.531	409.597	457.081	191.674	182.984	487.944	241.322	426.343	179.012	483.116	0.0017148	0.00011489	0.00014814	1325	7.1183e-06	1.052e-05	1327.2	359.33	1.4504e-05	6.9461e-06	410.16	136.6	119.6	40.422	5.866e-06	50.177	0.00060319	0.00055853	0.00015861	1350.6	6.0755e-06	6.2493e-06	1352	366.81	6.0712e-06	6.0834e-06	419.84	139.21	121.36	41.699	6.0796e-06	51.889	412.660	229.346	261.922	162.055	298.098	309.025	161.610	166.688	260.586	331.035	166.011	170.536	169.913	175.800	282.425	174.464	-8191	255	
712.776	1	1	0	0	0.13418	0.068765	0.15876	0.22664	0.2052	0.23256	0.23624	0.12806	0.33198	0.10267	0.14748	0.22841	0.054796	0.12994	0.17274	0.12488	-2.4604	-2.8167	-2.7062	-3.2396	-2.7229	-2.8792	-3.1458	-2.9208	-2.9292	-2.7958	-2.9458	-3.1542	-2.9375	-2.8792	-3.1542	-2.825	441.487	407.688	196.498	481.859	176.415	447.687	487.020	460.243	414.002	499.044	386.893	481.184	413.234	170.969	491.407	321.888	0.0019282	0.00061617	0.00019264	1322.3	1.1066e-05	4.1101e-06	1328.9	359.1	7.2515e-06	5.6592e-06	408.86	135.94	120.1	40.191	6.0697e-06	49.964	0.00060781	0.00055544	0.00015379	1351.4	6.1139e-06	6.0804e-06	1349.8	366.05	6.2096e-06	6.245e-06	418.79	138.92	121.34	41.619	6.1885e-06	51.811	413.567	248.408	262.027	161.811	260.028	328.141	161.752	166.786	287.764	294.436	166.152	170.095	170.546	175.896	329.986	174.583	-8191	255	
712.847	1	1	0	0	0.25127	0.14547	0.14572	0.41421	0.14319	0.15832	0.070499	0.072649	0.064534	0.029266	0.22119	0.07085	0.074804	0.19447	0.23987	0.18399	-2.4729	-2.9375	-2.4458	-3.3063	-2.7604	-2.8958	-3.2062	-2.9333	-2.9271	-2.8187	-2.7917	-3.175	-2.8583	-2.9313	-3.0458	-2.9396	328.586	263.480	458.994	416.285	395.538	486.680	416.423	477.879	267.045	398.074	234.639	267.935	492.561	461.630	465.341	499.209	0.0017599	0.0005107	0.00013843	1325.5	8.1284e-06	6.3902e-06	1325.3	357.22	9.5399e-06	3.0285e-06	408.16	135.98	119	40.3	5.9604e-06	50.008	0.00061985	0.00057653	0.00015682	1350.3	6.2314e-06	6.2182e-06	1348.4	365.85	6.1462e-06	6.1895e-06	418.88	138.96	121.28	41.608	6.2482e-06	51.769	412.147	236.559	231.450	162.080	267.337	300.948	161.646	166.840	282.641	310.374	165.925	170.277	170.513	175.629	296.691	174.793	-8191	255	
712.968	1	1	0	0	0.26186	0.37353	0.001051	0.39531	0.13456	0.17962	0.18636	0.33581	0.16545	0.075484	0.19101	0.19721	0.076248	0.163	0.13269	0.24468	-2.4021	-3.0167	-2.6229	-3.0979	-2.825	-2.7125	-3.1104	-2.8104	-2.8979	-3.1	-2.8729	-3.1562	-2.9521	-2.7812	-3.0396	-2.8208	315.456	150.138	180.000	211.338	169.056	260.031	155.991	360.041	237.454	398.941	465.473	491.865	386.555	440.939	497.319	401.909	0.0018643	0.0007424	9.8687e-05	1324.7	1.0258e-05	5.2041e-06	1324.7	358.45	1.457e-05	5.6089e-06	409.64	136.14	119.96	40.234	7.8255e-06	50.059	0.00061413	0.00056222	0.00015928	1350.3	6.2992e-06	6.1286e-06	1348	365.4	6.0837e-06	6.1596e-06	419.36	139.02	121.4	41.625	6.1751e-06	51.88	416.785	233.274	241.950	162.135	263.879	275.829	161.633	166.717	290.723	318.036	166.012	170.360	170.402	175.819	305.374	174.629	-8191	255	
713.062	1	1	0	0	0.15934	0.22241	0.22375	0.26186	0.22899	0.048574	0.24781	0.21308	0.19817	0.13866	0.17731	0.25768	0.21472	0.12225	0.11216	0.23927	-2.3688	-3.0479	-2.6271	-3.2479	-3.0604	-2.7062	-3.15	-2.8	-2.8063	-3.0292	-2.8104	-3.1813	-2.9208	-2.6354	-3.0104	-2.8792	208.129	377.786	152.584	505.461	465.665	290.203	401.927	423.174	378.861	276.637	477.223	451.304	501.547	449.257	230.642	413.237	0.0017125	0.00052999	0.00014091	1324.8	6.4385e-06	7.1502e-06	1327.9	359.37	1.0064e-05	3.6746e-06	409.56	136.67	120.17	40.408	6.8375e-06	50.241	0.00060406	0.00057009	0.00015754	1352.8	6.1505e-06	6.1895e-06	1352.5	366.95	6.2075e-06	6.3577e-06	420.36	139.51	121.92	41.791	6.2004e-06	51.972	410.350	217.033	254.961	161.952	300.770	298.369	161.687	166.768	279.421	262.862	165.915	170.406	170.496	175.932	269.172	174.585	-8191	255	
713.159	1	1	0	0	0.27892	0.13478	0.29898	0.30914	0.12264	0.14109	0.19472	0.25377	0.08205	0.2266	0.3181	0.19768	0.19475	0.35147	0.027227	0.059074	-2.3792	-2.9146	-2.7687	-3.0583	-3.0875	-2.6625	-3.1375	-2.9917	-2.7292	-2.9771	-2.8125	-3.0417	-2.8458	-2.7938	-3.1521	-3.0271	149.700	213.866	257.159	495.960	473.945	202.629	477.490	389.563	247.293	410.242	469.721	451.496	186.884	488.816	155.309	302.789	0.0018645	0.00027668	5.3595e-05	1329	9.2642e-06	7.3098e-06	1329.5	359.32	7.0689e-06	6.2557e-06	409.41	136.63	120.06	40.314	5.4088e-06	49.979	0.00060223	0.00056452	0.00015706	1357	6.1967e-06	6.2614e-06	1355	367.24	6.1437e-06	6.3453e-06	420.29	139.64	121.89	41.749	6.2402e-06	51.897	412.250	288.781	252.277	162.179	270.678	288.709	161.713	166.727	293.721	320.535	166.045	170.232	170.450	175.642	301.614	174.466	-8191	255	
713.255	1	1	0	0	0.035384	0.13341	0.22712	0.11707	0.16696	0.15315	0.056159	0.12132	0.099772	0.078818	0.3959	0.13203	0.25973	0.12717	0.19869	0.042125	-2.4	-3.1146	-2.7062	-2.9292	-2.9729	-2.8958	-3.0917	-3.1188	-2.8042	-3.2125	-2.875	-2.9813	-3.0375	-2.8604	-2.9437	-3.0396	191.277	479.698	174.327	449.651	393.664	444.222	508.359	479.505	501.635	397.383	499.540	501.117	340.386	242.202	285.702	269.114	0.001882	0.00071384	0.00013464	1327.9	5.3705e-06	7.1346e-06	1328.3	359.11	1.2578e-05	3.1987e-06	410.47	136.19	120.43	40.196	5.3372e-06	49.87	0.00060714	0.00057599	0.00015749	1355.9	6.2339e-06	6.3045e-06	1352.2	366.78	6.2312e-06	6.3503e-06	419.41	139.12	121.65	41.559	6.4442e-06	51.847	414.498	248.454	210.304	162.081	283.751	296.912	161.820	166.715	277.664	319.752	166.106	170.582	170.434	175.574	270.168	174.892	-8191	255	
713.375	1	1	0	0	0.28722	0.1179	0.1275	0.19003	0.18331	0.15961	0.19688	0.49803	0.051094	0.22288	0.27678	0.22753	0.046555	0.11392	0.10425	0.16038	-2.3063	-2.9437	-3.0229	-2.9	-3.0708	-2.7167	-3.0229	-3.1604	-2.7104	-2.9792	-2.8937	-2.7542	-3.1958	-2.8125	-2.875	-3.125	285.071	213.654	293.727	170.731	300.760	157.893	413.475	488.541	234.460	346.444	487.288	317.570	371.112	398.959	359.233	352.761	0.001728	0.00037102	0.0001101	1326	7.8986e-06	4.6545e-06	1326.8	358.81	1.1104e-05	6.0799e-06	409.46	136.56	120.04	40.294	7.2005e-06	49.786	0.00061827	0.00058342	0.00016309	1350.3	6.336e-06	6.4384e-06	1351.1	366.38	6.4669e-06	6.5277e-06	419.57	139.17	121.55	41.585	6.4547e-06	51.728	412.459	258.434	257.666	162.075	263.565	287.324	161.742	166.725	261.955	265.307	166.028	170.392	170.670	175.896	295.078	174.803	-8191	255	
713.447	1	1	0	0	0.28055	0.288	0.29831	0.18452	0.21137	0.22075	0.24993	0.20386	0.22205	0.1433	0.53832	0.092035	0.17026	0.095772	0.085735	0.20204	-2.3729	-2.8937	-2.9604	-2.8896	-3.1021	-2.6521	-3.0833	-3.1688	-2.6271	-3.0458	-2.8208	-2.8563	-3.2021	-2.8979	-2.8792	-3.1042	154.381	250.874	416.382	479.778	318.549	277.156	481.344	396.935	233.250	384.818	175.053	403.030	275.581	227.457	294.677	365.514	0.0017587	0.00028294	0.00016461	1327.6	8.8881e-06	4.4248e-06	1325.5	359.76	1.2657e-05	6.9955e-06	409.92	135.76	119.56	40.296	8.9273e-06	49.939	0.00062237	0.00058221	0.00016296	1353	6.3186e-06	6.3961e-06	1350.4	366.82	6.2955e-06	6.3075e-06	419.78	138.88	121.37	41.605	6.3972e-06	51.805	417.238	218.911	270.228	161.917	284.945	326.815	161.657	166.500	276.035	285.758	166.019	170.179	170.197	175.580	291.129	174.483	-8191	255	
713.543	1	1	0	0	0.26531	0.021568	0.1356	0.22696	0.075325	0.35481	0.47724	0.11336	0.22917	0.15148	0.20088	0.08913	0.1183	0.13822	0.27399	0.087109	-2.3688	-2.9646	-2.975	-2.6958	-3.0292	-2.8396	-2.9375	-3.1167	-2.7167	-2.9958	-3.1063	-2.7604	-3.0729	-2.8833	-2.9167	-3.2708	268.588	330.056	463.364	441.619	257.527	384.060	475.177	173.772	307.624	203.322	450.148	358.860	441.897	373.105	347.736	281.762	0.0019401	0.00044038	0.00014945	1324.8	9.7064e-06	8.7373e-06	1324.2	358.23	9.795e-06	4.7611e-06	408.72	135.67	119.94	40.219	5.8392e-06	49.825	0.00061526	0.00057423	0.00016107	1352	6.2944e-06	6.3603e-06	1349.8	366.44	6.3077e-06	6.361e-06	419.66	138.78	121.33	41.584	6.3998e-06	51.704	415.792	228.805	230.754	161.975	268.347	278.130	161.703	166.783	275.162	284.789	166.214	170.323	170.241	175.935	251.780	174.886	-8191	255	
713.639	1	1	0	0	0.052277	0.28038	0.36702	0.2917	0.13128	0.13044	0.35355	0.037784	0.20276	0.20971	0.25334	0.085643	0.092179	0.068452	0.16799	0.23272	-2.3187	-2.7958	-2.9896	-2.7833	-2.9479	-2.8625	-3.05	-3.3167	-2.8458	-2.8833	-3.2146	-2.8417	-3.0021	-2.9708	-2.7375	-3.2646	358.851	363.634	263.486	463.081	468.982	243.628	427.143	218.417	415.812	453.027	434.818	248.417	392.380	293.497	419.147	438.730	0.0017045	0.00050116	0.00019927	1320.9	1.3021e-05	4.1496e-06	1327.2	359.72	1.2416e-05	5.9611e-06	410.91	136.07	119.17	40.136	8.1617e-06	50.135	0.00061874	0.00058038	0.00016387	1350.5	6.2824e-06	6.445e-06	1350	366.63	6.4633e-06	6.4095e-06	420.28	138.81	121.4	41.547	6.2861e-06	51.837	411.911	237.498	222.267	162.098	261.923	314.120	161.591	166.720	276.040	280.124	165.960	170.255	170.524	175.722	286.075	174.589	-8191	255	
713.735	1	1	0	0	0.05833	0.094627	0.22941	0.23966	0.11013	0.18966	0.18426	0.2977	0.13534	0.090243	0.17537	0.12622	0.073481	0.17131	0.25503	0.13781	-2.2812	-2.8917	-2.8958	-2.7062	-3.0354	-3.0062	-2.9271	-3.1771	-2.9583	-2.9542	-3.2417	-2.825	-3.0958	-2.9813	-2.7896	-3.1937	236.066	195.049	394.896	446.807	295.656	246.696	403.313	448.902	379.883	298.661	170.998	411.000	341.958	424.108	387.189	445.770	0.0016912	0.00057135	0.00017288	1322	8.1458e-06	5.4529e-06	1323.5	359.09	1.2427e-05	7.954e-06	407.88	135.93	120.12	40.147	6.1145e-06	49.985	0.00062021	0.00056965	0.00015908	1349.3	6.3035e-06	6.4145e-06	1348.8	366.41	6.2654e-06	6.3102e-06	419.1	138.92	121.49	41.514	6.0833e-06	51.75	414.318	253.757	233.980	162.068	285.536	288.313	161.648	166.674	279.232	317.604	166.177	170.296	170.389	176.076	290.980	174.657	-8191	255	
713.856	1	1	0	0	0.30798	0.11585	0.42186	0.1373	0.021295	0.17131	0.35153	0.19425	0.18175	0.25757	0.083974	0.18901	0.077857	0.20228	0.15854	0.049522	-2.3396	-2.6979	-3.0458	-2.9771	-2.8833	-2.9333	-2.8354	-3.1833	-2.8063	-2.7917	-3.1312	-2.7854	-2.7104	-2.9729	-2.5479	-3.1688	401.157	183.144	160.970	503.320	409.225	374.596	480.761	456.272	387.079	377.566	416.224	413.380	217.149	485.908	430.808	368.357	0.0018115	0.00033394	0.00016732	1325.3	1.1827e-05	5.6544e-06	1318.8	358.95	1.3265e-05	5.4028e-06	410.44	136.86	119.39	40.33	7.5897e-06	49.747	0.00061312	0.00055736	0.00015632	1349.6	6.1384e-06	6.1503e-06	1348.8	366.75	6.142e-06	6.1652e-06	419.76	139.36	121.56	41.703	6.0499e-06	51.829	413.921	227.703	254.004	162.153	277.948	266.572	161.537	166.655	253.544	290.431	165.961	170.175	170.522	175.736	311.755	174.532	-8191	255	
713.952	1	1	0	0	0.060123	0.13265	0.28459	0.21812	0.24815	0.11085	0.3862	0.086502	0.043033	0.15919	0.13828	0.22614	0.43432	0.14086	0.21925	0.24631	-2.3271	-2.675	-2.9833	-2.8729	-2.6542	-2.9229	-2.9479	-3.1917	-2.8875	-2.6583	-3.1083	-2.8229	-3.0187	-3.1021	-2.7938	-2.9854	425.742	202.526	361.079	476.351	187.778	343.556	469.676	442.061	211.714	495.050	453.325	491.711	269.442	451.955	162.617	427.198	0.0018698	0.00057712	0.0001881	1321.3	8.3964e-06	6.6506e-06	1319.2	360.23	1.3862e-05	5.2356e-06	409.45	136.1	119.42	40.216	8.0107e-06	49.851	0.0005931	0.00054529	0.000152	1350.8	6.0636e-06	5.9276e-06	1346.2	366.91	5.9858e-06	5.9945e-06	419.24	139.12	121.3	41.631	5.9671e-06	51.69	412.706	243.537	260.850	162.060	291.410	326.672	161.646	166.620	271.174	279.753	166.061	170.279	170.572	175.645	296.088	174.906	-8191	255	
714.048	1	1	0	0	0.25117	0.22768	0.093409	0.18157	0.074505	0.14691	0.253	0.29092	0.14807	0.039156	0.13247	0.16009	0.18704	0.1568	0.24098	0.014441	-2.5938	-2.6833	-2.8229	-2.9	-2.6188	-2.9708	-2.7208	-2.9896	-2.9333	-2.6125	-3.2188	-2.9521	-2.925	-3.1875	-2.9042	-3.0083	272.770	484.248	236.545	488.049	305.377	257.228	444.054	389.676	328.212	325.281	243.212	483.178	464.432	206.243	199.257	281.414	0.0018397	0.00044644	0.00011359	1322.3	5.6672e-06	6.0068e-06	1325.8	357.87	9.7026e-06	7.7234e-06	411.25	136.4	120.03	40.415	1.0079e-05	50.086	0.0005834	0.00052429	0.00015152	1346.4	5.8163e-06	5.8215e-06	1345.9	366.09	5.8048e-06	5.8138e-06	419.64	139.25	121.54	41.708	5.8468e-06	51.836	415.602	244.391	228.817	161.984	262.955	303.824	161.811	166.572	269.872	304.843	166.232	170.375	170.094	175.910	284.492	174.515	-8191	255	
714.145	1	1	0	0	0.077684	0.15082	0.10572	0.17148	0.20156	0.1755	0.44306	0.22133	0.11818	0.13813	0.35563	0.091896	0.13113	0.040178	0.098397	0.18642	-2.4542	-2.6229	-3.1333	-2.9292	-2.7458	-3.0687	-2.85	-2.8396	-3.1312	-2.8271	-3.1333	-3.0417	-2.9771	-2.9479	-2.5229	-2.8521	158.937	243.854	376.826	489.480	279.719	487.867	432.499	453.317	357.657	319.627	477.166	503.134	159.799	411.458	398.526	294.833	0.0017431	0.00036961	0.00026159	1324.2	1.0351e-05	5.0763e-06	1322.2	359.01	8.4756e-06	6.1838e-06	407.59	135.81	119.56	40.376	8.8074e-06	49.879	0.00056632	0.00053047	0.00014882	1349.8	5.7717e-06	5.8655e-06	1347.9	366.44	5.8359e-06	5.9279e-06	418.24	138.93	121.45	41.62	5.9405e-06	51.68	415.241	254.743	237.772	162.210	275.475	314.823	161.735	166.679	280.306	308.953	166.268	170.338	170.360	176.033	303.274	174.634	-8191	255	
714.239	1	1	0	0	0.33843	0.17255	0.21178	0.29258	0.47765	0.19468	0.17541	0.28182	0.14045	0.085268	0.1081	0.1726	0.25114	0.11725	0.28211	0.10059	-2.7104	-2.7396	-2.9083	-3.0646	-2.6667	-2.8375	-3.0229	-2.8771	-2.9062	-2.7542	-3.0812	-3.0958	-2.6521	-3.2708	-2.9875	-2.8354	175.477	435.655	313.386	161.800	476.693	495.812	478.578	450.700	369.004	418.264	406.899	479.309	355.744	282.716	366.371	268.397	0.0017774	0.0003965	0.00011267	1317.1	8.5359e-06	5.5799e-06	1317.9	357.42	7.192e-06	6.833e-06	406.56	135.9	119.87	40.335	9.1686e-06	50.018	0.00058509	0.0005447	0.00015413	1343.5	5.9227e-06	5.9993e-06	1341.2	365.16	5.9329e-06	6.0046e-06	417.4	139.03	121.42	41.633	5.9358e-06	51.853	417.226	241.348	239.858	162.189	280.673	299.957	161.747	166.589	278.087	314.848	165.942	170.306	170.616	175.720	291.059	174.586	-8191	255	
714.337	1	1	0	0	0.40489	0.1569	0.038872	0.1266	0.13722	0.36775	0.012997	0.31549	0.27669	0.065832	0.1207	0.102	0.12286	0.16944	0.13363	0.15196	-2.7292	-2.5938	-2.975	-3.1396	-2.775	-3.1333	-3.0833	-2.8979	-2.9938	-2.7333	-2.825	-3.2271	-2.775	-3.0896	-2.8771	-2.8646	182.679	463.088	240.745	333.105	488.270	299.153	285.598	492.291	368.523	457.253	307.694	466.507	430.320	156.981	239.126	255.156	0.0018487	0.00096423	0.00015251	1318.7	9.8112e-06	3.6854e-06	1321.3	357.09	1.2995e-05	4.129e-06	407.41	136	119.31	39.995	8.371e-06	49.713	0.00058354	0.00053363	0.00014917	1345.6	5.7462e-06	5.7911e-06	1343.2	365.27	5.7247e-06	5.8011e-06	416.89	138.67	120.84	41.441	5.8474e-06	51.57	409.709	220.214	251.066	162.049	284.767	326.000	161.679	166.640	283.006	329.734	165.815	170.285	170.259	175.662	275.378	174.769	-8191	255	
714.456	1	1	0	0	0.16103	0.18594	0.11969	0.43225	0.20963	0.090465	0.28839	0.10788	0.1713	0.11901	0.11421	0.10512	0.2029	0.27264	0.10016	0.22726	-2.6333	-2.825	-2.9229	-3.075	-2.7021	-3.0687	-2.9562	-2.8604	-3.0167	-2.8167	-2.8083	-3.1896	-2.7625	-3.0687	-2.9813	-2.7958	435.284	265.922	320.561	453.295	498.022	499.174	477.748	477.212	415.262	305.131	356.095	464.224	174.035	497.139	494.623	176.400	0.0018528	0.00058329	0.00015292	1308.1	1.1063e-05	5.2742e-06	1313.3	356.55	8.0869e-06	4.9654e-06	407.19	135.34	119.05	40.11	8.1995e-06	49.771	0.00057693	0.00054046	0.00014844	1336.5	5.8235e-06	5.8939e-06	1335.3	363.82	5.8561e-06	5.8406e-06	416.53	138.39	120.45	41.306	5.864e-06	51.45	415.440	259.885	248.263	162.062	286.054	284.125	161.757	166.619	286.630	287.196	166.109	170.449	170.472	175.607	268.957	174.464	-8191	255	
714.552	1	1	0	0	0.22097	0.033069	0.11869	0.36644	0.076291	0.05051	0.16089	0.33299	0.081715	0.30542	0.094935	0.14939	0.31575	0.25767	0.12983	0.12051	-2.7917	-2.7917	-2.7625	-3.0187	-2.875	-3.1437	-3.3604	-2.8812	-2.9875	-2.9771	-2.8625	-3.2313	-2.6896	-3.025	-2.8125	-2.7062	498.733	456.030	182.303	450.660	349.485	172.514	454.197	440.440	214.637	475.509	173.758	164.540	497.213	507.927	365.496	228.030	0.0019367	0.00079479	0.00013136	1307	6.6378e-06	4.8936e-06	1308.4	355.26	1.2405e-05	4.2382e-06	405.65	134.81	118.73	39.712	3.6248e-06	49.25	0.0005911	0.00053899	0.00015015	1334.9	5.9477e-06	5.8935e-06	1333	363.12	6.0379e-06	5.9494e-06	415.57	137.56	120.23	41.103	6.0833e-06	51.16	412.810	270.497	253.462	162.216	279.138	309.306	161.809	166.568	276.201	259.919	165.939	170.224	170.445	175.812	272.410	174.573	-8191	255	
714.648	1	1	0	0	0.086968	0.26664	0.24813	0.33238	0.23505	0.053266	0.17691	0.12845	0.082119	0.085084	0.036686	0.056415	0.16253	0.012485	0.060134	0.33272	-2.4813	-3.0333	-2.7208	-3.2667	-2.8229	-2.9604	-3.125	-2.8354	-3.0792	-2.9271	-2.9833	-2.9938	-2.7333	-2.8958	-3.0938	-2.7604	350.023	298.287	287.089	443.540	387.036	485.709	403.336	505.961	472.182	448.769	466.933	461.037	204.289	243.640	402.805	175.941	0.0017793	0.00041244	0.00018748	1298	6.8229e-06	5.4172e-06	1301.1	353.83	1.5545e-05	3.5086e-06	405.26	134.17	118.56	39.66	8.8308e-06	49.237	0.00059187	0.00055491	0.00015596	1326.4	6.0952e-06	6.2189e-06	1326.2	361.24	6.1466e-06	6.2065e-06	414.44	137.15	119.87	41.066	6.1289e-06	51.107	411.078	229.452	240.585	162.069	313.818	295.296	161.568	166.770	280.975	301.449	165.967	170.331	170.282	175.833	288.770	174.840	-8191	255	
714.744	1	1	0	0	0.12882	0.12953	0.24159	0.19615	0.0010705	0.31348	0.33865	0.25862	0.4061	0.16898	0.19008	0.19745	0.15965	0.17251	0.075827	0.028977	-2.6458	-2.9854	-2.5583	-3.2521	-2.8042	-2.9188	-3.225	-2.8854	-3.0917	-2.9833	-2.7958	-3.2792	-2.8417	-3.0708	-3.0125	-2.7625	496.201	174.993	494.993	310.812	180.000	190.798	459.799	425.724	390.835	264.823	338.619	485.139	426.950	152.126	217.367	503.075	0.0018837	0.00028716	0.0001693	1302.7	4.1608e-06	4.3219e-06	1306.4	355.59	1.2031e-05	3.2679e-06	406.01	135.3	118.94	39.882	5.0476e-06	49.286	0.00060857	0.00056089	0.00015693	1330.5	6.0887e-06	6.2254e-06	1330.9	362.67	6.185e-06	6.1229e-06	415.1	137.78	120.3	41.202	6.0828e-06	51.277	411.708	211.419	224.317	162.223	265.013	289.657	161.674	166.598	300.133	317.967	166.247	170.242	170.721	175.834	282.307	174.373	-8191	255	
#DATA ENDS
