BOXY.EXE: ISS Imagent and Oximeter Data Acquisition Program Version 0.80
Ascii Record File

#ACQ INFORMATION
2  Detector Channels 
16  External MUX Channels 
1  Auxiliary Channels 
5000  Waveform (CCF) Frequency (Hz)
1  Waveforms Skipped 
30  Waveforms Averaged 
1  Cycles Averaged 
16  Acquisitions per Waveform 
10.0806  Updata Rate (Hz) 

#FILE INFORMATION
TRUE -- External MUX Channel results are PARSED.
FALSE -- AC DC and Phase are NOT grouped.
TRUE -- Companion Program Settings File CREATED.
FALSE -- AC data not excluded
FALSE -- DC data not excluded
FALSE -- Phase data not excluded
FALSE -- Auxillary Chn. data not excluded
Tab delimiters

#CALIBRATION STATE
TRUE -- Waveform Calibration Values APPLIED.


#AUX CALIBRATION VALUES
Val Type	aux-1	

Term	1.0000e+00	
Factor	0.0000e+00	


#WF CALIBRATION VALUES
A = Detector Channel
Val Type	A-AC1	A-AC2	A-AC3	A-AC4	A-AC5	A-AC6	A-AC7	A-AC8	A-AC9	A-AC10	A-AC11	A-AC12	A-AC13	A-AC14	A-AC15	A-AC16	A-DC1	A-DC2	A-DC3	A-DC4	A-DC5	A-DC6	A-DC7	A-DC8	A-DC9	A-DC10	A-DC11	A-DC12	A-DC13	A-DC14	A-DC15	A-DC16	A-Ph1	A-Ph2	A-Ph3	A-Ph4	A-Ph5	A-Ph6	A-Ph7	A-Ph8	A-Ph9	A-Ph10	A-Ph11	A-Ph12	A-Ph13	A-Ph14	A-Ph15	A-Ph16	

Term	0.00000e+00	0.00000e+00	0.00000e+00	0.00000e+00	0.00000e+00	0.00000e+00	0.00000e+00	0.00000e+00	0.00000e+00	0.00000e+00	0.00000e+00	0.00000e+00	0.00000e+00	0.00000e+00	0.00000e+00	0.00000e+00	0.00000e+00	0.00000e+00	0.00000e+00	0.00000e+00	0.00000e+00	0.00000e+00	0.00000e+00	0.00000e+00	0.00000e+00	0.00000e+00	0.00000e+00	0.00000e+00	0.00000e+00	0.00000e+00	0.00000e+00	0.00000e+00	0.00000e+00	0.00000e+00	0.00000e+00	0.00000e+00	0.00000e+00	0.00000e+00	0.00000e+00	0.00000e+00	0.00000e+00	0.00000e+00	0.00000e+00	0.00000e+00	0.00000e+00	0.00000e+00	0.00000e+00	0.00000e+00	
Factor	1.00000e+00	1.00000e+00	1.00000e+00	1.00000e+00	1.00000e+00	1.00000e+00	1.00000e+00	1.00000e+00	1.00000e+00	1.00000e+00	1.00000e+00	1.00000e+00	1.00000e+00	1.00000e+00	1.00000e+00	1.00000e+00	1.00000e+00	1.00000e+00	1.00000e+00	1.00000e+00	1.00000e+00	1.00000e+00	1.00000e+00	1.00000e+00	1.00000e+00	1.00000e+00	1.00000e+00	1.00000e+00	1.00000e+00	1.00000e+00	1.00000e+00	1.00000e+00	X	X	X	X	X	X	X	X	X	X	X	X	X	X	X	X	

B = Detector Channel
Val Type	B-AC1	B-AC2	B-AC3	B-AC4	B-AC5	B-AC6	B-AC7	B-AC8	B-AC9	B-AC10	B-AC11	B-AC12	B-AC13	B-AC14	B-AC15	B-AC16	B-DC1	B-DC2	B-DC3	B-DC4	B-DC5	B-DC6	B-DC7	B-DC8	B-DC9	B-DC10	B-DC11	B-DC12	B-DC13	B-DC14	B-DC15	B-DC16	B-Ph1	B-Ph2	B-Ph3	B-Ph4	B-Ph5	B-Ph6	B-Ph7	B-Ph8	B-Ph9	B-Ph10	B-Ph11	B-Ph12	B-Ph13	B-Ph14	B-Ph15	B-Ph16	

Term	0.00000e+00	0.00000e+00	0.00000e+00	0.00000e+00	0.00000e+00	0.00000e+00	0.00000e+00	0.00000e+00	0.00000e+00	0.00000e+00	0.00000e+00	0.00000e+00	0.00000e+00	0.00000e+00	0.00000e+00	0.00000e+00	0.00000e+00	0.00000e+00	0.00000e+00	0.00000e+00	0.00000e+00	0.00000e+00	0.00000e+00	0.00000e+00	0.00000e+00	0.00000e+00	0.00000e+00	0.00000e+00	0.00000e+00	0.00000e+00	0.00000e+00	0.00000e+00	-9.90304e+01	-1.35732e+02	-1.36445e+02	-1.81955e+02	-6.32359e+01	-7.00468e+01	-1.55865e+02	-1.62015e+02	-5.28796e+01	-6.72096e+01	-1.73578e+02	-1.70098e+02	-1.84416e+02	-1.76662e+02	-7.14242e+01	-1.49046e+02	
Factor	1.61227e-05	1.53640e-04	4.82937e-05	1.70074e-01	1.20327e-06	1.47695e-06	1.57498e-01	5.08174e-02	1.03867e-06	1.45238e-06	9.60303e-02	2.81729e-02	5.38668e-02	9.01616e-03	1.33076e-06	1.28469e-02	1.78411e-06	1.91716e-06	5.33672e-07	8.42362e-02	2.08320e-08	2.10161e-08	7.33345e-02	2.52856e-02	2.08088e-08	2.10259e-08	4.56947e-02	1.35968e-02	2.61707e-02	4.47479e-03	2.08188e-08	6.15170e-03	X	X	X	X	X	X	X	X	X	X	X	X	X	X	X	X	



#DISTANCE SETTINGS
A = Detector Channel
A-1	A-2	A-3	A-4	A-5	A-6	A-7	A-8	A-9	A-10	A-11	A-12	A-13	A-14	A-15	A-16	

2.5000e+00	3.0000e+00	2.5000e+00	3.0000e+00	2.0000e+00	3.0000e+00	1.5000e+00	3.0000e+00	3.0000e+00	3.0000e+00	3.0000e+00	3.0000e+00	3.0000e+00	3.0000e+00	1.5000e+00	3.0000e+00	

B = Detector Channel
B-1	B-2	B-3	B-4	B-5	B-6	B-7	B-8	B-9	B-10	B-11	B-12	B-13	B-14	B-15	B-16	

1.0000e+01	1.0000e+01	1.0000e+01	1.4400e+00	1.0000e+01	1.0000e+01	1.5100e+00	1.9400e+00	1.0000e+01	1.0000e+01	1.9900e+00	2.4900e+00	2.4100e+00	2.9000e+00	1.0000e+01	2.9800e+00	




#DATA BEGINS
time	group	step	mark	flag	A-AC1	A-AC2	A-AC3	A-AC4	A-AC5	A-AC6	A-AC7	A-AC8	A-AC9	A-AC10	A-AC11	A-AC12	A-AC13	A-AC14	A-AC15	A-AC16	A-DC1	A-DC2	A-DC3	A-DC4	A-DC5	A-DC6	A-DC7	A-DC8	A-DC9	A-DC10	A-DC11	A-DC12	A-DC13	A-DC14	A-DC15	A-DC16	A-Ph1	A-Ph2	A-Ph3	A-Ph4	A-Ph5	A-Ph6	A-Ph7	A-Ph8	A-Ph9	A-Ph10	A-Ph11	A-Ph12	A-Ph13	A-Ph14	A-Ph15	A-Ph16	B-AC1	B-AC2	B-AC3	B-AC4	B-AC5	B-AC6	B-AC7	B-AC8	B-AC9	B-AC10	B-AC11	B-AC12	B-AC13	B-AC14	B-AC15	B-AC16	B-DC1	B-DC2	B-DC3	B-DC4	B-DC5	B-DC6	B-DC7	B-DC8	B-DC9	B-DC10	B-DC11	B-DC12	B-DC13	B-DC14	B-DC15	B-DC16	B-Ph1	B-Ph2	B-Ph3	B-Ph4	B-Ph5	B-Ph6	B-Ph7	B-Ph8	B-Ph9	B-Ph10	B-Ph11	B-Ph12	B-Ph13	B-Ph14	B-Ph15	B-Ph16	aux-1	digaux	

1617.002	1	1	0	256	0.25223	0.189	0.031042	0.1484	0.045486	0.14679	0.18421	0.2549	0.078831	0.16576	0.059012	0.15829	0.048274	0.40986	0.2169	0.11351	-2.2104	-2.5229	-2.9313	-2.8417	-2.9958	-2.7708	-2.7333	-2.9688	-2.7562	-2.6646	-3.0896	-2.7667	-2.6188	-3.1021	-2.7583	-2.8688	105.436	5.040	84.132	131.908	55.382	-37.349	148.112	94.828	20.480	78.039	52.261	-100.224	-64.041	210.366	-90.433	144.139	0.00022501	0.00010801	0.00014173	984.49	3.8639e-06	2.2579e-06	980.72	264.82	3.1903e-06	1.9218e-06	304.4	99.344	85.646	29.841	2.191e-06	36.683	0.00040706	0.0004147	0.00011405	1018	4.5481e-06	4.5218e-06	1020.5	276.86	4.5246e-06	4.498e-06	317.02	105.06	91.344	31.334	4.464e-06	38.636	-126.005	-130.677	-5.409	-124.035	6.906	62.723	-124.086	-119.271	-72.179	38.266	-120.144	-115.614	-115.214	-110.610	176.174	-110.878	-8191	255	
1617.098	1	1	0	0	0.2581	0.16934	0.15832	0.28206	0.3829	0.16538	0.10883	0.084684	0.13807	0.2416	0.15882	0.35338	0.10399	0.039735	0.18437	0.16364	-2.4229	-2.6542	-2.7979	-2.75	-2.6521	-2.9771	-2.7958	-2.8646	-2.7271	-2.5438	-3.1063	-2.7896	-2.7917	-2.9958	-2.6229	-2.8563	182.672	-27.579	26.586	169.138	92.233	-116.528	53.740	211.998	10.004	170.967	185.378	-80.354	172.979	116.052	77.037	-41.606	0.00021741	0.00052785	0.0001567	981.57	3.37e-06	1.9599e-06	979.74	263.97	2.424e-06	9.9729e-07	304.79	99.319	85.996	29.735	3.193e-06	36.61	0.00040259	0.00041278	0.00011416	1016.4	4.4611e-06	4.4884e-06	1019.9	276.51	4.3437e-06	4.3235e-06	316	104.75	90.84	31.208	4.182e-06	38.447	-137.140	-15.599	-113.825	-124.124	21.606	69.350	-124.066	-119.203	26.403	-19.136	-119.841	-115.629	-115.280	-110.501	33.545	-110.972	-8191	255	
1617.195	1	1	0	0	0.10799	0.28296	0.22129	0.13776	0.079275	0.090171	0.11292	0.04689	0.30672	0.13694	0.1143	0.10521	0.053123	0.16067	0.092251	0.3277	-2.5271	-2.2979	-3.0146	-2.8104	-2.5646	-2.9708	-2.825	-2.8625	-2.9146	-2.6458	-2.8625	-2.7542	-2.6146	-2.8208	-2.6542	-2.7271	80.385	-113.099	97.778	121.732	22.284	-40.332	-104.307	-55.256	9.669	78.271	-36.590	34.683	211.004	158.981	-111.265	215.682	0.00021919	0.00044367	2.8342e-05	971.35	2.0161e-06	2.494e-06	972.77	262.97	3.2728e-06	2.3818e-06	302.09	99.284	85.141	29.616	2.573e-06	36.333	0.00038103	0.00037996	0.00010648	1006.7	4.1343e-06	4.1267e-06	1010.9	274.66	4.0732e-06	4.0441e-06	314.46	104.36	90.118	30.971	3.9896e-06	38.278	-127.649	-87.035	97.096	-123.880	-67.848	9.986	-124.123	-119.086	-59.881	-13.188	-119.892	-115.710	-115.210	-110.210	73.828	-111.074	-8191	255	
1617.313	1	1	0	0	0.13161	0.13777	0.095959	0.23982	0.049907	0.056216	0.15643	0.12329	0.084319	0.13495	0.1019	0.14565	0.064171	0.20206	0.01923	0.27273	-2.4813	-2.65	-2.8896	-2.9437	-2.6354	-3.0229	-2.9021	-2.9146	-2.9479	-2.425	-2.8646	-2.7958	-2.6979	-2.9938	-2.7271	-2.7708	27.620	50.347	-36.505	148.631	-69.388	56.436	169.035	205.530	-130.825	220.270	-60.360	152.085	8.242	-62.766	-126.967	205.186	0.00020822	0.00064502	0.00018191	967.67	1.5531e-06	2.0534e-06	962.34	261.4	1.1728e-06	5.9325e-06	302.87	98.68	84.911	29.678	3.3913e-06	36.436	0.00035721	0.00036027	0.00010159	1000.3	3.9075e-06	3.9222e-06	1001.8	273.12	3.891e-06	3.8739e-06	313	103.78	89.839	30.92	3.9154e-06	38.192	-123.343	-47.624	-27.048	-123.944	150.295	51.361	-124.128	-119.170	-81.969	13.031	-119.791	-115.756	-114.923	-110.564	56.853	-110.874	-8191	255	
1617.410	1	1	0	0	0.12069	0.20848	0.09678	0.41178	0.12899	0.24568	0.054528	0.17062	0.047058	0.010982	0.21563	0.23875	0.33645	0.0064695	0.04795	0.13131	-2.6104	-2.6125	-2.7208	-2.8292	-2.7687	-2.8187	-2.9604	-2.7875	-2.9958	-2.6354	-2.8042	-2.9188	-2.6396	-3.0583	-2.6958	-2.85	35.895	112.974	133.004	212.774	80.752	-134.857	-40.997	149.173	29.424	6.789	173.330	137.543	170.269	178.499	95.307	-112.717	0.00024425	9.5918e-05	0.00022671	966.73	1.0193e-06	4.2916e-06	964.84	261.69	1.9868e-06	2.24e-06	302.8	98.896	84.75	29.566	3.757e-06	36.353	0.0003576	0.00036222	0.00010111	1000.1	3.9619e-06	3.9801e-06	1004.3	272.65	4.0628e-06	4.0735e-06	313.27	103.96	89.67	30.919	4.1055e-06	38.212	-128.525	-72.344	-38.092	-123.804	-34.526	-43.472	-124.067	-119.117	62.911	14.762	-119.731	-115.676	-115.306	-110.352	-13.132	-111.247	-8191	255	
1617.483	1	1	0	0	0.21422	0.1306	0.11941	0.39764	0.11484	0.20481	0.10273	0.29349	0.20297	0.22611	0.16431	0.039962	0.14384	0.10191	0.26937	0.24285	-2.55	-2.4125	-2.7708	-2.9729	-2.6917	-3.0438	-2.9104	-2.6458	-3.1146	-2.6562	-2.8771	-2.8104	-2.3812	-2.9292	-2.7396	-2.7125	-81.465	193.818	29.381	158.601	-14.395	-83.304	154.322	-134.388	-56.411	-121.322	-94.623	184.710	92.688	-35.694	-134.960	-98.176	0.00019041	0.00065285	0.00010192	965.58	4.8868e-07	3.8812e-06	963.23	261.1	2.4425e-06	3.1319e-06	300.72	98.625	84.494	29.35	4.9289e-06	36.286	0.00037389	0.00038342	0.00010614	999.1	4.1373e-06	4.1699e-06	1003.4	272.85	4.2056e-06	4.1623e-06	312.77	103.88	89.64	30.839	4.2605e-06	38.199	221.225	-72.371	-35.625	-123.933	-1.986	-27.137	-123.978	-118.963	-30.131	14.207	-119.839	-115.412	-114.627	-110.439	18.601	-111.207	-8191	255	
1617.602	1	1	0	0	0.11735	0.017926	0.10771	0.1544	0.14641	0.13468	0.041075	0.29065	0.098759	0.1972	0.11527	0.10853	0.026705	0.18997	0.14357	0.059843	-2.475	-2.6583	-2.7562	-2.9854	-2.725	-2.8438	-2.9771	-2.7458	-2.8792	-2.7958	-2.6583	-3.0958	-2.4417	-2.7313	-2.7104	-2.6771	164.258	-42.207	166.682	191.453	-72.284	-67.338	-51.829	91.270	74.702	84.306	161.217	179.262	135.210	-13.215	103.767	113.368	0.000202	0.00032536	0.00015153	968.05	2.6218e-06	2.8831e-06	966.71	261.4	3.7048e-06	5.1121e-06	301.31	98.431	84.725	29.515	2.3911e-06	36.338	0.00038496	0.00039277	0.00011025	1000.2	4.3023e-06	4.3796e-06	1007	273.28	4.4038e-06	4.4479e-06	313.63	104.07	90.312	31.005	4.4197e-06	38.337	-134.258	-47.348	-62.096	-123.700	-52.799	-47.206	-124.080	-119.270	-31.644	14.582	-119.924	-115.593	-115.386	-110.548	37.643	-111.142	-8191	255	
1617.698	1	1	0	0	0.10534	0.11255	0.11565	0.10677	0.17967	0.090653	0.084533	0.11014	0.061612	0.070897	0.17332	0.15153	0.31909	0.14517	0.12204	0.13056	-2.3292	-2.6667	-2.7375	-3.0604	-2.6375	-2.825	-2.8	-2.7833	-2.7062	-2.7542	-2.6708	-3.0729	-2.5792	-2.9021	-2.7896	-2.8396	146.702	112.364	-79.481	67.664	138.507	5.144	75.470	215.336	-24.954	-70.957	-134.870	94.111	-107.068	168.933	41.626	-118.111	0.00025085	0.00017767	0.00023857	971.02	2.0064e-06	1.3638e-06	972.47	261.97	5.0068e-07	1.6423e-06	301.45	98.719	84.877	29.49	3.9818e-06	36.467	0.00040281	0.00041076	0.00011461	1007	4.5021e-06	4.4702e-06	1009.9	274.02	4.5108e-06	4.5263e-06	314.36	104.34	90.602	30.997	4.5274e-06	38.373	-127.500	-33.953	-35.046	-123.919	46.126	107.443	-124.131	-119.175	-78.278	-78.161	-119.842	-115.490	-115.133	-110.370	-45.163	-110.996	-8191	255	
1617.794	1	1	0	0	0.098854	0.18513	0.15672	0.23836	0.051754	0.18214	0.14696	0.17207	0.2394	0.20393	0.18598	0.17234	0.19367	0.12722	0.13696	0.17198	-2.4667	-2.6937	-2.6729	-3.1688	-2.6479	-2.7146	-3.0583	-2.6604	-2.9917	-2.6375	-2.7542	-3.0563	-2.5375	-2.6771	-2.7583	-2.4146	196.007	196.707	-104.414	157.371	-79.571	185.231	77.220	136.857	136.001	165.875	217.757	-118.107	128.224	25.850	2.019	166.114	0.00023075	0.00048322	0.00015284	969.64	2.713e-06	3.125e-06	967.16	262.96	3.1971e-06	3.9253e-06	300.76	98.727	85.112	29.46	1.1436e-06	36.212	0.00041115	0.00042022	0.00011649	1006	4.629e-06	4.6709e-06	1009.8	274.43	4.6426e-06	4.6497e-06	314.53	104.22	90.604	30.99	4.6164e-06	38.249	-120.438	-49.268	-37.015	-123.980	-69.127	-69.220	-124.268	-119.077	-40.908	-17.155	-119.969	-115.813	-115.204	-110.633	-23.898	-111.086	-8191	255	
1617.915	1	1	0	0	0.073951	0.31687	0.02382	0.021674	0.16926	0.17287	0.14393	0.21838	0.25813	0.27112	0.12412	0.15413	0.12083	0.10177	0.40869	0.14825	-2.4667	-2.7875	-2.6167	-2.9042	-2.7396	-2.7062	-3.0833	-2.5687	-3.0333	-2.8688	-2.6375	-3.1708	-2.8563	-2.6542	-2.9354	-2.8083	209.932	-123.137	20.073	118.234	-21.820	-82.346	-96.741	190.864	-12.779	-38.477	93.970	166.642	221.548	119.651	-94.238	52.077	0.00022518	0.00044091	8.9364e-05	966.24	4.259e-06	4.6405e-06	964.26	262.01	3.4051e-06	2.7316e-06	299.94	98.539	84.805	29.448	4.3988e-06	36.186	0.00041951	0.00042009	0.000117	1003.8	4.7009e-06	4.6058e-06	1007	273.75	4.693e-06	4.7112e-06	313.94	104.09	90.529	30.945	4.6444e-06	38.27	-118.644	-83.430	-18.659	-123.937	6.298	-45.662	-124.106	-119.317	39.543	37.421	-119.962	-115.591	-115.069	-110.562	-25.495	-111.030	-8191	255	
1618.011	1	1	0	0	0.13893	0.11591	0.089789	0.18577	0.23603	0.14093	0.033861	0.029217	0.35155	0.29812	0.2293	0.20046	0.26326	0.09572	0.13322	0.12893	-2.475	-2.7854	-2.4917	-2.975	-2.7458	-2.65	-3.1792	-2.8604	-2.8063	-2.7	-2.7188	-3.0292	-2.8167	-2.7667	-2.9708	-2.7979	-0.253	59.474	49.544	-97.781	167.623	-87.227	51.286	149.726	-92.242	57.026	-51.824	26.628	213.395	132.250	203.025	181.033	0.00021471	0.00014648	7.814e-05	960.88	1.0092e-06	3.5151e-06	968.58	261.87	1.5797e-06	1.6258e-06	302.59	98.338	84.168	29.506	6.4436e-06	36.15	0.0004208	0.00043192	0.00011913	1002	4.6955e-06	4.6872e-06	1007.4	273.92	4.6917e-06	4.6758e-06	314.51	104.01	90.154	30.947	4.6095e-06	38.244	-126.233	33.031	-16.378	-124.130	-63.891	10.909	-124.077	-119.205	14.508	-48.923	-119.979	-115.560	-114.893	-110.473	-23.851	-110.944	-8191	255	
1618.107	1	1	0	0	0.26515	0.27111	0.14692	0.19829	0.26801	0.10511	0.30977	0.18028	0.18388	0.11301	0.074497	0.22238	0.11652	0.26623	0.066341	0.12647	-2.45	-2.9	-2.475	-2.9833	-2.725	-2.5938	-2.9021	-2.6958	-3.0646	-3.0479	-2.7188	-3.0396	-2.8354	-2.5833	-2.8417	-2.6542	222.713	168.585	145.932	-4.186	-9.695	59.748	179.991	124.160	-90.159	201.025	-56.396	166.620	-117.083	209.752	97.207	149.665	0.00021424	0.00028464	9.1086e-05	966.07	2.8997e-06	3.3256e-06	964.12	261.56	4.4469e-06	3.2353e-06	299.23	98.25	84.374	29.238	8.9157e-07	36.225	0.00041537	0.00041939	0.0001154	1003.4	4.5638e-06	4.5834e-06	1005.5	273.08	4.5137e-06	4.552e-06	313.09	103.66	89.796	30.811	4.5712e-06	38.203	-124.271	-58.618	-52.728	-123.905	46.435	30.524	-124.258	-119.153	-46.924	72.354	-119.855	-115.705	-114.791	-110.264	-100.390	-111.031	-8191	255	
1618.203	1	1	0	0	0.11712	0.082173	0.14759	0.40936	0.16276	0.11197	0.076288	0.20739	0.10355	0.24729	0.21153	0.20846	0.18931	0.26981	0.13379	0.34331	-2.3896	-3.0375	-2.6583	-3.0563	-2.8	-2.5646	-3.0375	-2.8063	-2.8	-3.0854	-2.6562	-2.8729	-2.9229	-2.5833	-2.9417	-2.8271	138.095	87.150	160.676	149.762	-116.965	204.577	207.630	161.094	159.111	57.572	-71.348	138.862	83.183	213.883	62.273	-101.793	0.00018776	0.00045582	4.9352e-05	966.7	5.0258e-06	9.8664e-07	966.11	260.34	2.1028e-06	3.4272e-06	301.34	97.917	84.586	29.261	3.6121e-06	36.265	0.00041281	0.00041954	0.00011657	1002.6	4.5592e-06	4.577e-06	1005.9	272.95	4.5202e-06	4.4833e-06	313.08	103.62	90.035	30.826	4.486e-06	38.159	-130.667	-28.220	-103.662	-123.941	-17.085	-9.030	-124.116	-119.202	14.055	-1.798	-119.928	-115.973	-114.839	-110.152	-44.281	-111.178	-8191	255	
1618.299	1	1	0	0	0.10787	0.27128	0.16875	0.27688	0.18702	0.14011	0.18886	0.13702	0.12589	0.27979	0.28619	0.29682	0.27304	0.35789	0.047254	0.19555	-2.4333	-2.9417	-2.7625	-2.9167	-2.8396	-2.6375	-2.9062	-2.9708	-2.5729	-3.0917	-2.7687	-2.7458	-2.9562	-2.525	-2.9042	-2.8417	70.956	79.992	62.950	203.450	109.197	18.462	131.747	203.559	24.136	85.221	-108.402	147.893	170.856	-123.180	60.442	-75.627	0.00019895	0.00023174	9.3605e-05	966.52	8.0398e-07	1.9849e-06	966.95	261.87	4.0554e-06	2.758e-06	300.6	98.162	84.823	29.318	2.8347e-06	36.281	0.00040445	0.00041197	0.00011424	1002.4	4.4525e-06	4.4497e-06	1007.2	272.94	4.3814e-06	4.4169e-06	313.42	103.65	89.97	30.843	4.3578e-06	38.158	-124.384	-18.487	-23.723	-123.977	-107.897	-10.813	-124.277	-119.219	-8.313	51.786	-119.920	-115.693	-114.976	-110.302	-15.762	-110.777	-8191	255	
1618.396	1	1	0	0	0.37265	0.097365	0.082232	0.22408	0.10926	0.31879	0.30557	0.21464	0.12397	0.20348	0.035713	0.27612	0.20907	0.28539	0.20097	0.15684	-2.1458	-2.9979	-2.6479	-2.8063	-3.0229	-2.5771	-3.0333	-2.8917	-2.7125	-2.9042	-2.6917	-2.7667	-2.8167	-2.6771	-2.8563	-2.8104	0.594	-27.936	-120.644	199.953	186.862	155.175	163.888	200.333	1.786	-90.099	211.840	-79.784	-91.149	162.566	217.650	47.484	0.00022263	0.00035749	0.00011977	965.99	1.433e-06	3.4453e-07	967.75	260.63	2.4555e-06	5.1869e-06	299.16	98.088	84.728	29.441	1.3952e-06	36.226	0.0003896	0.00039753	0.00011092	1001.3	4.2875e-06	4.3122e-06	1005.7	272.39	4.2789e-06	4.3037e-06	311.85	103.56	89.792	30.815	4.2701e-06	38.082	-131.928	-52.725	-6.880	-123.948	140.462	129.810	-123.997	-119.237	-0.596	19.923	-120.004	-115.780	-114.973	-110.380	9.328	-110.869	-8191	255	
1618.490	1	1	0	0	0.20109	0.33704	0.073103	0.12368	0.087471	0.10717	0.15105	0.10408	0.24653	0.13376	0.04611	0.12258	0.10733	0.24418	0.087765	0.27808	-2.2812	-2.9271	-2.6875	-2.7458	-2.8625	-2.6729	-3.0917	-3.0458	-2.6625	-3.0187	-2.7521	-2.6271	-2.95	-2.75	-2.7958	-2.8771	100.052	175.965	188.948	48.103	-6.391	140.970	129.946	-95.714	52.761	128.744	13.311	174.553	208.409	68.268	51.642	196.594	0.00019186	0.00062739	0.00018826	967.07	2.7736e-06	4.1462e-06	965.79	261.15	3.4023e-06	2.583e-06	299.93	98.167	84.209	29.355	6.6293e-07	36.216	0.00038297	0.00039191	0.00010885	1000.7	4.2783e-06	4.3164e-06	1003.9	272.65	4.2848e-06	4.2842e-06	312.24	103.46	89.727	30.821	4.2412e-06	38.094	-127.397	-71.637	-53.452	-123.788	24.684	-13.473	-123.832	-119.209	-9.404	3.003	-119.648	-115.643	-115.201	-110.372	-34.064	-111.093	-8191	255	
1618.611	1	1	0	0	0.19272	0.14311	0.073995	0.15088	0.35426	0.073619	0.27471	0.07226	0.35056	0.13703	0.13974	0.12994	0.055658	0.27263	0.28646	0.089733	-2.1229	-2.8271	-2.5917	-2.7583	-2.9729	-2.75	-2.7729	-2.925	-2.5062	-2.9542	-2.9083	-2.8146	-3.1063	-2.7083	-2.7833	-2.8021	-105.898	210.105	-126.442	28.007	202.999	-98.716	145.037	16.545	-5.411	-119.956	209.767	-117.897	-130.677	152.577	-100.093	-80.959	0.00021148	0.00016885	6.4212e-05	963.94	2.0678e-06	3.4298e-06	964.51	261.22	3.0669e-06	2.3609e-06	300.32	98.212	84.629	29.393	1.4346e-06	36.099	0.00038183	0.00038967	0.00010754	998.64	4.2575e-06	4.2452e-06	1005	272.93	4.2215e-06	4.2605e-06	312.42	103.6	89.41	30.829	4.2005e-06	38.007	-136.301	65.190	-77.692	-123.753	-18.270	-17.688	-124.043	-119.197	10.099	-16.997	-119.976	-115.492	-114.702	-110.423	-84.065	-110.752	-8191	255	
1618.707	1	1	0	0	0.13906	0.10898	0.057304	0.29015	0.15834	0.24089	0.34935	0.12095	0.18619	0.13741	0.19864	0.41858	0.069792	0.12254	0.2187	0.094287	-2.1167	-2.9042	-2.6813	-2.7208	-2.825	-2.7479	-2.6979	-3.0375	-2.5333	-2.8292	-2.775	-2.7604	-2.7917	-2.7083	-2.6	-2.95	202.316	-4.887	180.874	85.536	-37.041	179.165	99.458	193.443	90.768	-128.108	193.252	181.923	209.552	126.498	107.794	56.908	0.00019303	0.00022632	0.00015271	963.64	3.4439e-06	4.1596e-06	961.88	260.94	8.7374e-07	1.2223e-06	299.33	98.16	84.492	29.23	3.2749e-06	36.2	0.00037692	0.00038447	0.00010628	998.05	4.2202e-06	4.1677e-06	1002.7	272.04	4.1691e-06	4.1372e-06	311.89	103.21	89.404	30.716	4.1458e-06	37.966	-132.473	-28.483	-75.168	-123.844	11.842	-25.131	-124.059	-119.139	-49.881	163.754	-119.726	-115.519	-115.095	-110.407	-28.930	-111.022	-8191	255	
1618.778	1	1	0	0	0.13382	0.088986	0.14623	0.19237	0.2201	0.35271	0.25792	0.049179	0.15785	0.076725	0.10327	0.092655	0.25365	0.39317	0.12264	0.080269	-2.2542	-2.7958	-2.8083	-2.5708	-2.8042	-2.7708	-2.8292	-2.9625	-2.7	-2.8563	-3.0979	-2.5521	-2.8333	-2.8583	-2.7458	-3.0354	22.761	-6.017	166.872	148.293	-90.084	194.353	146.395	90.597	-52.354	-80.383	184.796	-13.705	-118.142	146.618	120.561	190.565	0.00019063	0.00017129	0.00014966	960.83	3.6624e-06	2.2305e-06	966.33	260.83	7.1599e-07	2.1852e-07	300.17	97.875	84.024	29.294	1.0942e-06	36.027	0.0003729	0.00037656	0.0001048	995.61	4.1763e-06	4.0998e-06	1001.5	271.68	4.1288e-06	4.121e-06	311.38	103.06	89.429	30.73	4.1019e-06	37.933	-121.835	-87.390	-5.214	-123.876	-37.013	13.855	-123.824	-119.118	43.748	-4.915	-119.897	-115.678	-115.039	-110.663	-12.132	-111.045	-8191	255	
1618.875	1	1	0	0	0.14103	0.18445	0.10701	0.21991	0.18118	0.21357	0.31805	0.12881	0.23083	0.11891	0.19853	0.035284	0.13515	0.11586	0.24033	0.095966	-2.1958	-2.6146	-2.6979	-2.6583	-2.7479	-2.6167	-2.7479	-3.0667	-2.5938	-2.7583	-2.8688	-2.6083	-2.8312	-2.9208	-2.4708	-2.9542	-96.687	-52.428	77.402	205.393	71.899	217.208	169.299	6.712	162.302	-89.305	207.521	182.898	100.449	200.802	9.806	133.342	0.00021961	0.0005836	0.00019867	960.17	2.9372e-06	5.6202e-06	961.64	260.45	2.0696e-06	2.0472e-06	298.05	97.996	83.932	29.15	3.215e-06	36.032	0.00037492	0.00037844	0.0001056	995.58	4.1457e-06	4.1231e-06	1001.1	272.16	4.169e-06	4.1474e-06	311.56	103.24	89.135	30.644	4.0806e-06	37.969	-126.735	-56.416	-26.215	-123.806	-85.279	34.079	-123.848	-118.980	-44.188	-8.248	-120.143	-115.511	-115.110	-110.278	47.796	-110.794	-8191	255	
1618.995	1	1	0	0	0.031376	0.28495	0.24018	0.34465	0.081988	0.1182	0.21223	0.023534	0.26362	0.051806	0.16179	0.36217	0.23607	0.074229	0.060394	0.10945	-2.1396	-2.6312	-2.8792	-2.6854	-2.6875	-2.8792	-2.6521	-3	-2.6917	-2.5583	-2.9146	-2.4333	-2.7646	-2.9479	-2.4917	-2.9979	171.486	31.871	219.102	152.996	-128.845	144.278	-136.149	-109.335	3.683	126.631	179.169	-75.151	188.945	56.167	17.921	-71.468	0.00024264	0.00019617	6.586e-05	961.19	2.7651e-06	7.9902e-07	963.58	259.31	3.5209e-06	2.5577e-06	299.79	97.855	83.771	29.243	4.1981e-06	36.267	0.0003696	0.00037435	0.00010467	995.93	4.1361e-06	4.0955e-06	1001	271.29	4.0985e-06	4.0782e-06	311.57	103.17	89.21	30.687	4.0658e-06	37.918	-131.066	-96.179	4.130	-123.937	-23.810	154.444	-124.047	-119.149	-32.168	75.074	-119.884	-115.734	-115.079	-110.486	-49.234	-111.024	-8191	255	
1619.091	1	1	0	0	0.062365	0.23188	0.048948	0.15758	0.23081	0.12872	0.089861	0.17958	0.33757	0.15631	0.24587	0.085025	0.23169	0.13799	0.07791	0.18645	-2.2479	-2.5271	-2.8396	-2.7083	-2.6063	-2.9396	-2.6583	-3.0479	-2.7167	-2.8	-2.9979	-2.7667	-2.6792	-3.0292	-2.5729	-2.8646	48.711	-132.472	44.145	-120.488	114.347	-54.199	26.433	175.330	-8.358	173.532	130.209	-56.035	-67.032	-84.033	-105.795	-98.482	0.00021216	0.00020974	0.00020004	959.62	1.3622e-06	4.9724e-06	960.78	259.98	3.6165e-06	2.2348e-06	299.91	97.683	84.281	29.24	2.7665e-06	36.083	0.00036964	0.00037224	0.00010325	995.11	4.077e-06	4.0773e-06	999.71	271.53	4.1076e-06	4.1098e-06	311.2	103.33	89.4	30.715	4.1049e-06	37.975	-134.543	190.654	-51.546	-123.917	24.889	58.165	-124.034	-119.289	30.900	37.358	-119.918	-115.506	-114.845	-110.541	-55.295	-111.005	-8191	255	
1619.187	1	1	0	0	0.057625	0.089386	0.16756	0.23379	0.11512	0.2403	0.20424	0.25788	0.11411	0.24378	0.16326	0.20386	0.11508	0.13614	0.12789	0.083567	-2.4771	-2.675	-2.8521	-2.5417	-2.8187	-2.9104	-2.6958	-3.0125	-2.7833	-2.5479	-2.9146	-2.7125	-2.6729	-2.9125	-2.675	-2.7229	151.766	38.106	200.397	102.744	135.785	-65.613	189.360	191.927	-79.042	146.464	180.952	152.180	190.703	80.832	-133.765	214.336	0.00024516	0.00055035	6.8866e-05	963.5	1.5116e-06	5.0425e-06	964.54	260.49	9.2455e-07	3.3673e-06	299.85	97.613	84.417	29.197	1.188e-06	36.011	0.00037087	0.00037788	0.0001063	996.48	4.1307e-06	4.1256e-06	1001.7	271.58	4.1789e-06	4.1411e-06	311.47	103.18	89.397	30.659	4.1814e-06	37.934	-122.979	-83.941	-28.897	-123.972	-9.648	1.063	-123.860	-119.101	-91.239	-12.842	-119.595	-115.589	-115.075	-110.617	-132.134	-110.959	-8191	255	
1619.284	1	1	0	0	0.17286	0.18215	0.39248	0.066877	0.1573	0.090642	0.14391	0.090578	0.18277	0.26143	0.05862	0.066026	0.30072	0.097813	0.24373	0.08376	-2.4917	-2.4917	-2.8604	-2.8833	-2.4938	-2.8563	-2.8479	-2.8542	-2.8333	-2.4479	-2.9146	-2.7042	-2.625	-3.0812	-2.6312	-2.8833	128.483	-36.563	46.699	18.751	-21.202	102.795	191.507	209.100	-4.578	47.091	-71.069	92.595	202.825	-24.911	27.589	-109.171	0.00022997	0.00047169	0.00015606	961.66	4.433e-06	1.1227e-06	965.18	260.57	2.5467e-06	1.3951e-06	298.59	97.784	83.783	29.382	1.7206e-06	35.97	0.00037513	0.00037764	0.00010692	996.21	4.1765e-06	4.1502e-06	1003	271.95	4.1723e-06	4.1914e-06	311.56	103.3	89.313	30.767	4.1858e-06	37.954	-133.255	-52.916	-36.038	-123.935	-32.703	215.102	-123.971	-119.303	37.252	111.904	-119.698	-115.740	-115.110	-110.043	76.603	-110.928	-8191	255	
1619.402	1	1	0	0	0.16512	0.17241	0.12005	0.30947	0.06966	0.080173	0.12519	0.34686	0.20247	0.10121	0.042286	0.023401	0.2077	0.20242	0.19243	0.016961	-2.5708	-2.6792	-2.8167	-2.8937	-2.5938	-2.8667	-2.7708	-2.9396	-2.8625	-2.6396	-2.8542	-2.7958	-2.7042	-2.9208	-2.5521	-2.6479	156.598	67.954	122.801	-58.816	139.860	87.187	141.612	113.758	24.694	52.477	-58.934	169.078	-135.547	199.838	151.184	-65.593	0.00027279	0.00051576	0.00013444	960.32	7.8201e-07	4.8257e-06	960.89	260.68	3.4304e-06	2.8535e-06	298.09	97.781	84.165	29.376	2.5458e-06	36.247	0.00037662	0.0003817	0.00010689	994.97	4.1528e-06	4.1876e-06	1000.7	271.53	4.1732e-06	4.16e-06	311.05	103.26	89.284	30.724	4.1852e-06	38.003	222.745	-110.353	-75.861	-123.876	69.150	-36.511	-124.074	-119.186	-53.032	-12.088	-119.782	-115.686	-115.104	-110.223	43.921	-110.802	-8191	255	
1619.476	1	1	0	0	0.066725	0.15435	0.14185	0.17319	0.18339	0.17511	0.22277	0.15854	0.13269	0.13456	0.14562	0.028552	0.19088	0.18253	0.27424	0.31351	-2.4604	-2.65	-2.8646	-2.7167	-2.5667	-2.9542	-2.9104	-2.6583	-2.8021	-2.5729	-2.7313	-2.7979	-2.5146	-2.7771	-2.7188	-2.7562	-4.631	134.403	38.944	176.878	130.181	-46.547	71.885	105.268	-43.269	-16.174	-135.054	126.866	154.307	89.667	-82.911	213.419	0.00024089	0.00027347	0.00010823	961.11	1.0054e-06	6.6158e-06	961.53	260.38	2.0425e-06	4.6185e-06	299.95	98.049	83.436	29.345	1.7391e-06	35.907	0.00037717	0.00038299	0.00010703	994.33	4.1658e-06	4.1828e-06	1001.1	271.8	4.1524e-06	4.1761e-06	311.59	103.02	89.048	30.727	4.1322e-06	37.859	-128.291	-96.206	-64.838	-123.781	45.956	26.295	-124.076	-119.059	-11.953	12.444	-119.952	-115.627	-115.299	-110.428	-0.512	-110.990	-8191	255	
1619.595	1	1	0	0	0.089076	0.25428	0.23846	0.15448	0.27824	0.20101	0.32818	0.23908	0.1554	0.045627	0.16335	0.19098	0.038705	0.18748	0.24772	0.11548	-2.3854	-2.625	-2.8979	-3.0271	-2.5146	-2.7979	-2.8563	-2.8458	-2.8021	-2.7562	-2.7833	-2.9604	-2.6063	-2.8417	-2.8104	-2.6667	59.980	86.880	-92.379	-86.008	-40.981	126.632	114.292	-136.639	87.464	215.695	-105.294	-92.524	-29.236	97.964	-49.042	-8.579	0.00023457	0.00024922	0.00011899	961.21	3.4763e-06	4.3932e-06	960.37	260.72	2.4088e-06	1.3932e-06	299.46	98.037	84.255	29.247	2.8983e-06	36.134	0.00037053	0.00038114	0.00010478	994.82	4.1526e-06	4.1935e-06	1000.7	271.68	4.1664e-06	4.1598e-06	311.33	103.08	89.412	30.66	4.1242e-06	38.021	-126.911	-84.026	-51.738	-123.981	27.345	-10.938	-123.937	-119.163	9.161	143.269	-119.910	-115.703	-115.364	-110.244	90.116	-111.135	-8191	255	
1619.691	1	1	0	0	0.072833	0.26601	0.21276	0.17213	0.22181	0.069206	0.25773	0.13466	0.026861	0.21832	0.1153	0.25053	0.16773	0.14019	0.17099	0.048136	-2.5583	-2.5792	-2.7646	-3.0062	-2.5312	-2.9042	-2.8771	-2.5812	-2.8917	-2.7583	-2.8042	-2.8271	-2.6625	-2.9125	-2.8333	-2.625	-101.533	-0.300	212.147	134.591	-134.883	209.428	162.249	122.942	22.150	86.665	211.301	133.991	122.079	121.509	-5.370	-41.278	0.00018764	0.0006335	0.00017436	960.86	1.7687e-06	1.2076e-06	963.45	259.8	4.397e-06	5.0232e-06	300.06	98.059	83.937	29.202	3.5053e-06	36.125	0.00037785	0.00038138	0.00010495	993.91	4.1525e-06	4.1887e-06	1000.4	271.42	4.155e-06	4.1306e-06	311.72	103.13	89.208	30.693	4.1203e-06	37.925	-129.408	-63.029	-55.962	-123.744	14.264	21.833	-124.102	-119.095	-54.204	-10.626	-119.773	-115.550	-115.028	-110.577	-32.303	-110.993	-8191	255	
1619.787	1	1	0	0	0.10561	0.30246	0.097134	0.30536	0.16099	0.21918	0.048244	0.21004	0.085716	0.22194	0.43105	0.038334	0.13164	0.2067	0.087707	0.22611	-2.4229	-2.6437	-2.6937	-3.0333	-2.5729	-2.7375	-3.1417	-2.65	-2.7979	-2.7687	-2.7333	-2.75	-2.5625	-2.7812	-2.8146	-2.5854	-19.085	199.199	64.884	111.446	-84.480	217.000	69.215	179.245	106.497	47.331	175.739	-14.868	158.903	-76.573	128.072	-122.176	0.00023043	0.00031459	0.00012594	962.61	1.7172e-06	5.6103e-06	960.4	260.26	3.0712e-06	2.8952e-06	299.82	97.708	83.873	29.271	2.5651e-06	36.242	0.00037262	0.00038095	0.00010446	995.5	4.1822e-06	4.1587e-06	1001	271.69	4.2147e-06	4.1719e-06	311.27	103.1	89.266	30.697	4.1455e-06	37.978	-133.965	-8.542	-70.870	-123.918	11.082	-2.586	-124.019	-119.022	-56.014	49.600	-119.808	-115.625	-115.296	-110.375	-11.532	-111.006	-8191	255	
1619.883	1	1	0	0	0.13409	0.15958	0.32832	0.37033	0.2173	0.080671	0.062429	0.35026	0.069442	0.22232	0.20542	0.19891	0.10545	0.072928	0.041729	0.092479	-2.2771	-2.6208	-2.5604	-3.0125	-2.7062	-2.675	-3.125	-2.6083	-2.6771	-2.6958	-2.5979	-3.0167	-2.5646	-2.6937	-2.7604	-2.8396	210.496	150.949	-52.430	200.569	60.812	-96.605	102.283	171.807	28.705	196.547	59.410	170.943	1.190	-79.495	-70.749	206.939	0.00024785	0.00067717	6.7344e-05	960.76	4.9079e-07	1.6668e-06	964.49	259.39	4.4732e-06	1.7441e-06	299.28	98.466	83.953	29.257	2.5719e-06	36.116	0.00037282	0.00037997	0.00010572	994.66	4.167e-06	4.1496e-06	1000.5	271.53	4.1529e-06	4.1705e-06	311.91	103.37	89.312	30.674	4.1748e-06	37.873	-130.472	-101.111	-68.716	-123.883	138.317	70.106	-123.861	-119.297	-33.698	54.493	-119.846	-115.823	-115.215	-110.484	12.410	-110.859	-8191	255	
1620.004	1	1	0	0	0.10222	0.15087	0.13974	0.1021	0.099304	0.17914	0.14276	0.54017	0.09315	0.23764	0.17496	0.20024	0.13299	0.15519	0.046894	0.071036	-2.4083	-2.8167	-2.5604	-2.9875	-2.6813	-2.7687	-2.95	-2.7333	-2.8229	-2.7167	-2.5833	-2.9938	-2.7938	-2.5917	-2.95	-2.6458	12.288	126.424	-75.881	-137.203	107.429	97.850	217.418	185.838	-40.611	58.976	-12.031	-100.409	59.997	200.182	10.967	78.667	0.00018882	0.00010399	0.00010571	956.48	5.0117e-06	3.4258e-06	963.35	260.8	3.6099e-06	2.3816e-06	299.77	98.214	83.935	29.146	2.6375e-06	36.139	0.00037804	0.00037885	0.00010498	992.63	4.1828e-06	4.1359e-06	999.81	271.78	4.1985e-06	4.1306e-06	311.55	103.37	89.224	30.637	4.1226e-06	37.92	-126.771	-89.370	-107.239	-123.883	-26.371	11.019	-123.891	-119.315	16.617	66.466	-119.918	-115.605	-115.171	-110.435	114.716	-110.919	-8191	255	
1620.076	1	1	0	0	0.23818	0.10906	0.089753	0.21202	0.11673	0.057093	0.025122	0.20272	0.058094	0.26547	0.099954	0.023438	0.059233	0.28799	0.15234	0.3485	-2.3604	-2.8021	-2.5417	-2.9625	-2.7479	-2.7	-3.1937	-2.725	-2.8563	-2.9396	-2.7125	-2.8	-2.7625	-2.6146	-2.8417	-2.8	135.900	17.507	-14.330	162.666	-135.912	-20.848	83.764	192.831	-117.311	155.967	73.262	-114.222	-66.432	196.869	-12.754	62.255	0.00018363	0.00028	0.00015975	958.44	2.5372e-06	7.2842e-06	959.89	260.29	3.6097e-06	4.4879e-06	299.85	97.569	84.14	29.357	2.1916e-06	36.05	0.00037508	0.00037836	0.00010591	994.13	4.1805e-06	4.1447e-06	999.52	271.52	4.1199e-06	4.1137e-06	311.25	102.93	89.247	30.67	4.1492e-06	37.896	-129.177	-72.780	0.430	-123.955	-2.474	23.366	-124.239	-119.162	-48.553	27.387	-119.817	-115.647	-115.215	-110.293	34.307	-111.144	-8191	255	
1620.172	1	1	0	0	0.09679	0.28245	0.083376	0.31006	0.14805	0.087699	0.20532	0.23894	0.27358	0.14452	0.082428	0.049574	0.13133	0.1689	0.19136	0.17543	-2.4313	-2.8563	-2.5292	-3.0708	-2.8146	-2.5938	-3.0104	-2.6396	-2.5563	-2.9271	-2.5625	-2.7521	-2.6708	-2.75	-2.9062	-2.6854	-65.308	179.056	174.778	201.140	9.323	-105.961	216.113	171.331	-94.987	218.508	162.857	0.261	-92.720	104.039	171.219	121.756	0.00021038	0.0003835	8.1529e-05	960	2.7816e-06	2.3546e-06	960.56	259.6	3.1812e-06	2.365e-06	300.34	98.023	83.507	29.291	2.2876e-06	36.072	0.0003739	0.00037987	0.00010504	994.08	4.1554e-06	4.0869e-06	999.22	271.36	4.102e-06	4.1339e-06	311.26	103.16	89.009	30.675	4.1239e-06	37.876	-134.486	11.021	-56.692	-123.831	93.602	-0.800	-124.065	-119.170	1.824	1.575	-119.861	-115.771	-114.856	-110.054	145.661	-110.992	-8191	255	
1620.292	1	1	0	0	0.15164	0.047784	0.070358	0.15344	0.28128	0.094465	0.17968	0.27549	0.20535	0.15305	0.2259	0.1188	0.13818	0.26981	0.13077	0.21752	-2.1771	-2.975	-2.6542	-2.6979	-2.9229	-2.6188	-3.1125	-2.7562	-2.4021	-3.05	-2.6583	-2.9542	-2.9938	-2.6667	-2.8563	-2.8625	15.635	-90.799	70.206	-64.225	-57.102	106.026	147.285	197.429	81.544	-111.498	174.561	6.530	11.722	-109.224	106.846	-134.291	0.00021631	0.0003008	0.00015174	958.89	1.8752e-06	1.477e-06	960.1	259.55	3.3586e-06	5.9868e-06	298.1	97.488	83.886	29.292	2.2052e-06	36.023	0.00037059	0.00037782	0.00010422	992.19	4.108e-06	4.0797e-06	997.51	270.91	4.0823e-06	4.0973e-06	310.92	102.86	89.014	30.613	4.0918e-06	37.863	-119.126	-60.962	-61.485	-123.844	-92.699	-80.515	-124.051	-119.264	1.893	-22.201	-119.998	-115.357	-115.189	-110.013	-7.588	-110.991	-8191	255	
1620.387	1	1	0	0	0.32109	0.058894	0.19635	0.19476	0.11548	0.26664	0.35006	0.17181	0.27235	0.12721	0.18645	0.097093	0.17935	0.17499	0.12687	0.013439	-2.0938	-2.8042	-2.5708	-2.8417	-2.7458	-2.6104	-2.9688	-2.85	-2.5812	-2.8896	-2.6937	-2.6375	-2.8854	-2.5771	-2.7021	-2.7604	199.573	-2.822	-110.313	142.796	52.654	34.391	155.443	-74.314	-127.253	-58.524	218.732	108.457	-134.224	-130.800	45.473	-106.157	0.00023124	0.00027912	0.00021932	959.46	5.7987e-06	4.2222e-06	957.19	259.29	3.6386e-06	8.2234e-06	298.19	97.579	84.637	29.011	1.0704e-06	35.877	0.00036735	0.00037472	0.00010415	991.49	4.0485e-06	4.0544e-06	995.1	271.03	4.0515e-06	4.0348e-06	310.43	102.78	89.341	30.561	4.0277e-06	37.811	-133.050	-129.602	-22.163	-123.967	56.197	24.838	-124.163	-119.020	-24.444	10.625	-120.058	-115.843	-115.303	-110.310	-47.066	-110.927	-8191	255	
1620.483	1	1	0	0	0.1703	0.17607	0.075975	0.17868	0.26607	0.060582	0.28296	0.14607	0.21954	0.029587	0.029549	0.33153	0.21476	0.28944	0.13188	0.20392	-2.0542	-2.9271	-2.4479	-2.8563	-2.9396	-2.6188	-2.8312	-3.0062	-2.4646	-2.7604	-2.6542	-2.8625	-2.8333	-2.6354	-2.8771	-2.9917	-128.246	147.532	-92.735	211.485	165.781	-25.396	174.923	85.018	-125.620	123.879	-53.267	208.720	188.081	-84.412	142.243	207.759	0.00023553	0.00019803	0.00016859	953.5	1.2215e-06	2.2329e-06	959.45	260.33	1.2486e-06	3.7015e-06	297.45	97.803	83.704	29.252	7.5525e-06	35.913	0.0003612	0.00036928	0.00010313	989.06	4.0337e-06	4.0392e-06	995.99	270.87	4.0464e-06	4.025e-06	310.1	102.84	88.765	30.633	3.9872e-06	37.765	-128.881	-93.260	-81.441	-124.052	7.912	-115.333	-123.912	-119.219	-27.366	-12.524	-119.905	-115.445	-115.126	-110.424	3.709	-111.180	-8191	255	
1620.579	1	1	0	0	0.091837	0.27503	0.086687	0.30837	0.059964	0.1042	0.1757	0.37635	0.12585	0.10341	0.24832	0.077932	0.2029	0.099254	0.096376	0.088189	-2.1833	-2.8729	-2.7438	-2.7792	-2.85	-2.5146	-2.8979	-3.0375	-2.6854	-2.9979	-2.8708	-2.6813	-2.8479	-2.6917	-2.6125	-3.0917	74.743	16.595	-122.448	-111.471	-41.010	-93.196	173.379	196.121	-64.025	185.997	175.217	126.325	-116.753	139.391	-70.993	117.523	0.00022847	0.00035657	0.00011303	954.6	8.9821e-07	3.709e-06	953.43	259.54	2.438e-06	6.0221e-06	296.37	97.455	83.641	29.096	3.0512e-06	35.85	0.00036279	0.00037255	0.00010265	988.43	4.0497e-06	4.0771e-06	993.55	270.67	4.0517e-06	4.0615e-06	309.48	102.69	88.979	30.529	4.0629e-06	37.763	-130.717	-2.283	-77.673	-123.837	55.868	16.453	-123.962	-119.209	40.099	89.468	-119.636	-115.792	-115.233	-110.366	26.781	-110.956	-8191	255	
1620.675	1	1	0	0	0.1839	0.11621	0.14161	0.18164	0.13892	0.068766	0.13655	0.15518	0.067509	0.21593	0.16313	0.16474	0.23951	0.11965	0.52402	0.39048	-2.0958	-2.7896	-2.7417	-2.6792	-2.7167	-2.725	-2.7875	-2.9104	-2.5979	-2.9	-2.8771	-2.55	-2.8771	-2.8604	-2.6208	-2.8958	120.912	14.372	176.745	120.912	132.371	-112.362	148.494	41.549	176.113	219.130	182.011	158.781	-33.138	160.466	178.045	147.474	0.00021703	0.00051076	0.00025357	951.28	1.1564e-06	3.3696e-06	957.47	259.52	1.2106e-06	2.8109e-06	297.77	97.444	83.689	29.139	4.1518e-06	35.991	0.0003657	0.00037137	0.00010267	986.75	4.0275e-06	4.0409e-06	993.22	270.37	4.0053e-06	4.0551e-06	309.92	102.57	88.827	30.539	4.0507e-06	37.83	-123.897	-46.422	-48.050	-123.858	34.049	33.219	-123.871	-119.196	35.058	-1.569	-119.779	-115.632	-115.191	-110.266	14.504	-110.908	-8191	255	
1620.771	1	1	0	0	0.17278	0.22563	0.048731	0.14603	0.056677	0.17838	0.17384	0.11829	0.067579	0.19477	0.22661	0.29826	0.34162	0.3339	0.20306	0.12064	-2.0042	-2.7667	-2.8896	-2.6083	-2.8812	-2.7771	-2.7	-3.0812	-2.4562	-2.8187	-2.8479	-2.6458	-2.8542	-2.7125	-2.5438	-2.8688	20.166	70.498	-28.884	54.057	194.669	0.591	215.588	196.750	119.402	115.382	169.624	216.519	-133.463	191.413	187.658	102.021	0.00023625	0.00049156	0.00013348	954.56	2.4169e-06	3.3184e-06	955.46	259.31	3.8064e-06	9.8781e-07	299.29	97.752	83.823	29.077	2.0458e-06	36.064	0.00036531	0.00036937	0.00010239	987.78	4.0388e-06	4.0274e-06	993.04	270.28	4.0679e-06	4.0163e-06	310.43	102.73	88.93	30.508	3.9802e-06	37.765	-130.387	-31.332	5.986	-123.968	-1.386	6.420	-123.979	-119.136	20.059	-14.294	-120.099	-115.732	-114.715	-110.286	44.859	-110.962	-8191	255	
1620.867	1	1	0	0	0.27303	0.15194	0.22652	0.079571	0.10325	0.14868	0.27441	0.31744	0.15286	0.12185	0.20889	0.17047	0.18567	0.20396	0.33147	0.25637	-2.1771	-2.7292	-3.0312	-2.5771	-2.725	-2.6646	-2.6854	-2.9958	-2.675	-2.6917	-3.1583	-2.7125	-2.7812	-2.8646	-2.5271	-2.8937	193.185	-72.253	-99.955	-43.149	-12.627	-45.049	135.846	119.434	-27.107	193.219	-121.510	204.110	113.748	183.557	-66.853	125.243	0.00024371	0.00053731	0.00016837	952.43	4.0347e-06	2.4386e-06	955.04	259.14	3.7924e-06	6.752e-06	297.53	97.629	83.326	29.058	4.8359e-06	35.991	0.00036279	0.00036556	0.0001011	986.76	3.9774e-06	3.9828e-06	992.45	270.16	3.9901e-06	3.9879e-06	309.42	102.63	88.623	30.494	3.989e-06	37.796	-119.448	-11.800	-14.131	-123.932	-30.361	52.890	-124.062	-119.001	-6.370	17.123	-119.595	-115.849	-114.972	-110.294	7.702	-110.836	-8191	255	
1620.964	1	1	0	0	0.12462	0.12166	0.24515	0.12564	0.1126	0.27759	0.2467	0.23321	0.17572	0.071274	0.28245	0.24794	0.28643	0.10431	0.082036	0.31938	-2.3083	-2.7625	-2.9062	-2.5167	-2.9104	-2.8729	-2.6813	-3.1958	-2.5854	-2.5146	-2.9813	-2.725	-2.8875	-2.8688	-2.6042	-2.9646	-42.651	33.001	-62.318	111.186	104.130	-82.868	161.625	218.977	121.383	52.004	183.566	207.906	197.281	89.136	-128.982	142.394	0.00023235	0.00050874	0.00010992	951.29	2.8097e-06	3.7595e-06	952.23	259.62	2.7776e-06	2.5327e-06	297.56	97.679	83.607	29.065	2.466e-06	35.966	0.00035764	0.0003664	0.00010049	986.3	4.0097e-06	3.9471e-06	991.06	270.39	3.9634e-06	3.951e-06	309.58	102.56	88.698	30.518	3.9231e-06	37.714	-124.783	-76.012	-104.851	-123.660	-0.795	24.449	-123.939	-119.142	-26.151	-1.841	-119.871	-115.508	-114.950	-110.355	-8.862	-110.815	-8191	255	
1621.082	1	1	0	0	0.24714	0.15226	0.11063	0.27758	0.14751	0.14919	0.24008	0.24732	0.1393	0.13776	0.17896	0.16689	0.1296	0.28844	0.071857	0.26489	-2.2146	-2.5542	-2.9396	-2.6813	-2.7562	-2.8854	-2.6917	-2.8917	-2.8563	-2.4562	-2.9083	-2.4	-2.6688	-2.9271	-2.4542	-2.6979	182.829	161.974	98.638	-94.507	-39.143	2.999	91.722	178.207	-132.556	8.690	135.876	14.133	183.914	-75.933	32.998	141.181	0.00024292	0.00056882	0.00014139	951.67	2.0447e-06	5.4192e-07	955.23	259.16	1.1682e-06	5.3e-06	296.96	97.352	83.911	29.087	2.1706e-06	35.912	0.0003573	0.00035657	9.9789e-05	985.19	3.9333e-06	3.9565e-06	991.33	270.22	3.9311e-06	3.8963e-06	309.4	102.5	88.674	30.457	3.883e-06	37.699	-124.768	-64.920	-70.882	-123.893	59.072	-34.876	-124.084	-119.082	37.479	7.079	-119.933	-115.665	-115.025	-110.384	-8.217	-110.993	-8191	255	
1621.179	1	1	0	0	0.27796	0.21818	0.31773	0.19111	0.14769	0.25792	0.14115	0.10941	0.047792	0.022296	0.19728	0.077643	0.20622	0.17519	0.21696	0.1978	-2.125	-2.4292	-2.8583	-2.6458	-2.7604	-2.9021	-2.7729	-2.8187	-2.8896	-2.5292	-2.775	-2.8042	-2.7458	-3.025	-2.6396	-2.9646	222.374	183.401	158.594	44.482	-66.559	144.955	-99.757	114.042	193.059	172.309	167.553	104.473	156.730	134.065	-98.910	181.110	0.00019698	0.00025963	8.8513e-05	950.8	2.4121e-06	2.7386e-06	953.51	259.07	1.8946e-06	6.0355e-06	298.83	97.573	83.421	29.127	4.9151e-06	36.111	0.00035435	0.00036125	9.8792e-05	985.95	3.8931e-06	3.9184e-06	992.26	270.16	3.8937e-06	3.8951e-06	309.64	102.66	88.569	30.529	3.8702e-06	37.783	-124.960	6.685	-80.085	-123.794	21.190	-50.181	-123.998	-119.131	19.924	-1.866	-119.508	-115.723	-115.077	-110.387	-70.557	-110.840	-8191	255	
1621.275	1	1	0	0	0.12823	0.083957	0.17575	0.10405	0.13961	0.35936	0.22938	0.10946	0.22735	0.26427	0.18018	0.099554	0.077534	0.1391	0.23221	0.15165	-2.3542	-2.5375	-2.7208	-2.8542	-2.5563	-2.9125	-2.7708	-2.9833	-2.8833	-2.5708	-3.1167	-2.8104	-2.6063	-3.0167	-2.7438	-2.7167	167.031	56.689	-126.574	-100.228	62.762	115.766	154.940	123.156	32.307	-106.516	186.140	-41.610	-34.913	169.872	114.919	97.414	0.00023619	0.00070448	0.00016744	953.19	1.6553e-06	5.5318e-06	952.08	258.32	2.7234e-06	7.6129e-06	298.14	97.306	83.626	29.177	2.2396e-06	36.05	0.00035263	0.00035462	9.9171e-05	986.02	3.866e-06	3.8683e-06	992.05	269.9	3.8908e-06	3.8926e-06	309.26	102.5	88.652	30.503	3.8525e-06	37.753	-124.094	-62.759	-72.217	-123.671	3.048	16.632	-124.025	-119.074	-84.853	36.956	-119.540	-115.731	-115.235	-110.528	58.208	-111.008	-8191	255	
1621.371	1	1	0	0	0.092772	0.27099	0.13649	0.1608	0.24735	0.10721	0.34299	0.059038	0.27442	0.064075	0.10968	0.12098	0.11951	0.37077	0.1491	0.071704	-2.2938	-2.5854	-2.7125	-2.7479	-2.5604	-3.0104	-2.8292	-2.8688	-2.7479	-2.5458	-3.025	-2.8042	-2.5458	-2.9479	-2.7104	-2.6958	-25.009	25.827	184.287	146.342	154.664	115.253	160.285	39.964	-93.715	212.570	-114.827	140.267	-69.621	141.514	17.910	-59.446	0.00024149	0.00011729	0.0002041	951.08	1.2921e-06	3.2086e-06	950.37	258.27	4.3641e-06	4.4263e-06	297.75	97.204	83.535	29.092	4.6059e-06	35.823	0.00035106	0.00035564	9.9096e-05	983.28	3.879e-06	3.883e-06	990.42	269.52	3.9151e-06	3.8947e-06	309	102.49	88.532	30.496	3.8975e-06	37.67	-132.482	-88.093	-56.371	-123.863	-79.919	112.761	-124.075	-119.267	-16.387	-11.376	-119.915	-115.777	-114.945	-110.236	-19.396	-110.895	-8191	255	
1621.467	1	1	0	0	0.24266	0.084918	0.21226	0.23311	0.024899	0.047306	0.2099	0.4223	0.061783	0.093441	0.179	0.14072	0.07874	0.096563	0.12304	0.20861	-2.3792	-2.5583	-2.7125	-2.85	-2.5229	-2.8771	-2.925	-2.6813	-3.0833	-2.6708	-2.7687	-2.9646	-2.4562	-2.8896	-2.6271	-2.8875	178.618	133.416	158.131	142.187	-114.550	65.921	134.336	125.424	-65.301	42.243	19.994	195.975	186.463	-96.351	166.127	-124.801	0.00021825	0.00033962	6.7529e-05	950.5	2.7786e-07	2.5394e-06	950.1	258.37	4.0896e-06	2.9224e-06	298.11	97.764	83.873	29.164	7.9135e-07	35.878	0.00035355	0.00035664	9.9976e-05	984.76	3.906e-06	3.934e-06	990.49	269.88	3.9477e-06	3.9315e-06	309.02	102.64	88.863	30.524	3.9185e-06	37.683	-126.762	-8.274	-77.852	-123.852	14.001	-17.694	-124.197	-119.141	38.804	22.734	-119.817	-115.838	-115.253	-110.518	-32.419	-111.120	-8191	255	
1621.588	1	1	0	0	0.17276	0.25618	0.23638	0.16417	0.15026	0.15375	0.11658	0.15878	0.18613	0.19258	0.054457	0.29117	0.058939	0.2193	0.23209	0.056262	-2.4062	-2.4375	-2.7708	-2.9813	-2.625	-3.0438	-2.9833	-2.6937	-2.8729	-2.5854	-2.7542	-2.8271	-2.3979	-2.8125	-2.75	-2.5479	49.093	-109.633	104.529	132.307	70.775	66.466	147.015	-76.394	183.089	79.259	118.096	211.536	-24.365	161.613	116.142	10.709	0.0002189	0.00054518	0.00010767	951.24	3.4331e-06	1.8908e-07	952.73	258.59	1.7705e-06	3.7806e-06	299.07	97.342	83.74	29.091	1.1417e-06	36.2	0.0003563	0.00035983	9.9988e-05	984.86	3.9039e-06	3.9588e-06	991	269.86	3.9118e-06	3.9276e-06	309.48	102.41	88.611	30.453	3.9117e-06	37.792	-136.803	-51.981	-102.686	-123.958	-7.328	174.374	-124.148	-119.220	-65.740	-6.901	-120.073	-115.509	-114.939	-110.290	-7.273	-110.605	-8191	255	
1621.684	1	1	0	0	0.25151	0.033823	0.13431	0.24786	0.081503	0.21962	0.18114	0.13381	0.12832	0.082326	0.112	0.11157	0.15801	0.29923	0.24112	0.070541	-2.5021	-2.4813	-2.7646	-2.9396	-2.6354	-2.8063	-2.9229	-2.6063	-2.8063	-2.6854	-2.6271	-2.9521	-2.6979	-2.9313	-2.8208	-2.7521	-84.414	165.931	73.086	206.103	28.038	-50.315	176.373	162.852	199.869	-52.484	143.429	-41.056	163.575	37.410	9.113	180.050	0.00021109	0.00038056	8.033e-05	952.65	3.7689e-06	2.0566e-06	955.65	259	2.6236e-06	2.8209e-06	298.27	97.923	83.875	29.138	2.5467e-06	35.974	0.00035355	0.00035613	9.9903e-05	984.88	3.8994e-06	3.9107e-06	992.36	269.99	3.9504e-06	3.9502e-06	309.29	102.76	88.681	30.515	3.9125e-06	37.722	-132.779	-70.215	-18.660	-123.769	67.242	60.497	-123.846	-119.070	-52.616	36.002	-119.839	-115.554	-114.993	-110.136	-26.471	-110.983	-8191	255	
1621.780	1	1	0	0	0.16448	0.13529	0.32499	0.26103	0.065896	0.13594	0.14888	0.16871	0.19275	0.19059	0.17331	0.117	0.15326	0.18116	0.23366	0.16132	-2.6021	-2.85	-2.5604	-3.1375	-2.4813	-2.8312	-2.6771	-2.4562	-2.6688	-2.6688	-2.7188	-2.8542	-2.4625	-2.775	-2.8583	-2.7208	-25.810	-6.571	48.427	172.863	191.532	-104.604	143.553	219.193	-131.130	-24.418	99.979	186.586	-7.331	-103.575	-136.659	200.372	0.00018438	0.00034493	8.6041e-05	948.74	4.0314e-06	1.1603e-06	953.03	257.93	1.6792e-06	1.7167e-06	297.32	97.342	83.631	29.072	1.2003e-06	35.858	0.00035919	0.00035526	9.9813e-05	984.29	3.9387e-06	3.9307e-06	992.05	269.55	3.9245e-06	3.9182e-06	309.08	102.58	88.605	30.518	3.881e-06	37.72	-133.639	-93.710	-83.214	-123.854	27.298	-113.914	-124.128	-119.158	17.526	43.104	-119.788	-115.619	-115.225	-110.336	12.512	-110.923	-8191	255	
1621.874	1	1	0	0	0.21292	0.21005	0.037833	0.019392	0.20507	0.084143	0.08163	0.32252	0.09552	0.097883	0.22815	0.32956	0.098982	0.063714	0.098204	0.3018	-2.4375	-2.5812	-2.6208	-2.9938	-2.5708	-2.6146	-3.0583	-2.6083	-2.9313	-2.775	-2.6792	-2.9354	-2.6021	-2.7229	-2.8042	-2.6458	-56.478	-134.473	1.116	83.086	157.780	-91.027	48.774	207.499	-12.136	58.351	-47.117	178.162	-34.457	164.373	-137.068	82.935	0.00025945	0.00058955	0.00012574	950.73	1.8088e-06	1.5271e-06	953.69	258.91	2.2483e-06	3.8776e-06	297.91	97.793	83.705	28.989	7.6768e-07	35.755	0.00035554	0.00035584	9.937e-05	985.2	3.854e-06	3.8837e-06	991.15	269.64	3.8957e-06	3.891e-06	309.02	102.71	88.552	30.468	3.8741e-06	37.668	-126.765	-45.950	-63.315	-123.587	55.081	28.500	-124.085	-119.169	-41.071	1.668	-120.046	-115.595	-115.291	-110.268	44.240	-111.066	-8191	255	
1621.948	1	1	0	0	0.19209	0.37491	0.13851	0.070311	0.054906	0.13977	0.056626	0.31013	0.25007	0.23214	0.2391	0.13971	0.40855	0.16381	0.21479	0.11946	-2.475	-2.6854	-2.5438	-2.975	-2.55	-2.6063	-2.9542	-2.5062	-2.6854	-2.8312	-2.6854	-2.9979	-2.725	-2.8146	-2.9896	-2.65	-105.576	124.185	209.275	168.186	109.688	-38.650	28.318	157.241	-117.632	27.168	185.816	132.450	4.857	-124.855	-81.097	-33.213	0.00023409	0.00019572	0.00015648	955.2	1.0537e-06	2.7532e-06	950.05	258.54	6.6244e-07	1.9627e-06	296.31	97.681	83.473	29.204	3.3695e-06	36.056	0.00035517	0.00035428	9.8568e-05	985.96	3.8859e-06	3.8829e-06	990.75	269.83	3.8992e-06	3.8702e-06	308.22	102.59	88.346	30.491	3.833e-06	37.68	-123.927	-96.644	-38.922	-123.797	-2.781	19.764	-123.905	-119.077	62.433	59.614	-119.608	-115.785	-115.321	-110.245	10.980	-110.781	-8191	255	
1622.067	1	1	0	0	0.15262	0.12178	0.2908	0.042157	0.047198	0.13277	0.34202	0.27109	0.15617	0.18291	0.025455	0.083041	0.083951	0.11695	0.069413	0.14558	-2.3479	-2.7125	-2.6146	-2.9062	-2.7021	-2.6917	-3.1437	-2.7167	-2.7	-2.9396	-2.6542	-2.8729	-2.7458	-2.5312	-2.7646	-2.5062	189.131	149.014	32.292	28.602	187.908	-115.140	92.817	165.360	135.182	78.340	125.552	-5.925	-98.736	96.680	73.793	128.639	0.00020833	0.00034234	0.00014944	950.12	3.0596e-06	5.656e-06	950.39	258.38	6.857e-06	2.2516e-06	297	97.514	83.967	29.094	2.8129e-06	35.83	0.00034917	0.00035578	9.8743e-05	982.61	3.8426e-06	3.8409e-06	989.77	269.59	3.837e-06	3.8541e-06	308.37	102.36	88.439	30.467	3.8523e-06	37.657	-122.768	-127.670	-74.256	-123.561	37.675	7.968	-124.016	-119.197	24.632	-21.978	-119.886	-115.484	-114.977	-110.342	54.520	-110.844	-8191	255	
1622.163	1	1	0	0	0.072669	0.14275	0.088139	0.069604	0.11449	0.18141	0.21994	0.13747	0.41623	0.16687	0.088991	0.060906	0.13731	0.38365	0.16081	0.19337	-2.1208	-2.8083	-2.6771	-2.8063	-2.7583	-2.5854	-3.1042	-2.7625	-2.675	-2.9396	-2.5729	-2.7687	-2.7667	-2.6146	-2.9708	-2.6292	-109.779	171.961	126.848	40.370	214.894	37.492	-108.423	209.025	-122.983	118.036	189.894	99.460	-55.268	143.638	117.145	74.080	0.00024708	0.00068572	0.00015841	950.93	2.8383e-06	1.1113e-06	950.37	258.5	1.333e-06	3.2055e-06	296.97	97.265	83.238	29.101	4.1758e-06	35.801	0.00034717	0.00035429	9.8466e-05	983.87	3.8331e-06	3.8412e-06	989	269.53	3.8642e-06	3.8428e-06	308.62	102.46	88.246	30.393	3.839e-06	37.631	-130.693	-81.125	-34.251	-123.721	-27.505	68.918	-123.972	-119.277	-15.629	27.519	-120.006	-115.485	-114.809	-110.349	27.108	-111.017	-8191	255	
1622.259	1	1	0	0	0.31038	0.21074	0.23598	0.2251	0.087143	0.10283	0.1806	0.32388	0.20303	0.097028	0.18889	0.24358	0.024626	0.22439	0.11879	0.19906	-2.175	-3	-2.6979	-2.875	-2.5604	-2.7021	-3.0354	-2.5938	-2.6188	-2.8917	-2.5875	-2.7042	-2.7938	-2.4958	-2.8729	-2.7208	-110.571	87.938	-36.362	-130.608	-25.896	186.696	181.322	-125.218	-77.702	175.984	-126.735	49.927	-101.720	-108.142	-49.997	-97.070	0.00020288	0.00021355	0.00020996	949.52	2.5698e-06	1.4614e-06	952.28	259.06	3.2945e-06	1.8846e-06	298.08	97.357	84.461	29.113	1.3928e-06	36.026	0.00034537	0.000353	9.8009e-05	982.79	3.8615e-06	3.8403e-06	989.93	269.76	3.869e-06	3.8842e-06	308.68	102.43	88.496	30.483	3.8668e-06	37.651	-135.605	-100.731	-60.148	-123.674	9.012	50.248	-123.983	-119.236	63.411	5.188	-119.766	-115.528	-115.224	-110.398	2.612	-110.885	-8191	255	
1622.355	1	1	0	0	0.12991	0.068532	0.13255	0.21512	0.15778	0.17496	0.40017	0.17153	0.14022	0.025096	0.20314	0.34282	0.033156	0.079913	0.20408	0.33753	-2.1542	-2.8646	-2.5	-2.925	-3.0417	-2.4688	-2.9646	-2.7271	-2.4729	-2.8646	-2.7146	-2.75	-2.9271	-2.5958	-2.6375	-2.8333	198.532	142.537	24.102	161.701	-20.688	113.624	134.748	-110.376	-18.278	-6.374	176.268	62.844	-68.987	162.741	-30.063	145.712	0.00020815	0.00040704	0.00017443	949.06	2.0006e-06	1.2607e-06	950.82	257.82	3.1088e-06	3.7252e-06	296.94	97.785	83.6	29.207	3.9347e-06	35.892	0.00034733	0.00035216	9.6679e-05	982.18	3.8456e-06	3.8103e-06	988.23	269.16	3.8528e-06	3.815e-06	308.64	102.5	88.507	30.447	3.8245e-06	37.674	-131.052	-7.329	-66.637	-123.681	5.170	13.061	-123.999	-119.112	31.004	21.968	-119.954	-115.461	-114.675	-110.441	31.729	-111.091	-8191	255	
1622.476	1	1	0	0	0.10429	0.12697	0.056716	0.14201	0.22264	0.29062	0.34691	0.34599	0.10201	0.068057	0.45271	0.24631	0.19152	0.067364	0.10585	0.16795	-2.0646	-3.0125	-2.7271	-2.6375	-2.8812	-2.725	-2.7896	-2.8187	-2.5	-2.8396	-2.8292	-2.6271	-2.6688	-2.7229	-2.7917	-2.9437	194.163	-50.582	162.893	209.364	3.142	97.750	211.285	199.881	138.866	214.964	177.329	123.974	182.367	148.563	-103.786	-125.823	0.00025586	0.00039251	9.8212e-05	950.58	5.9549e-07	3.7232e-06	947.46	258.28	3.1304e-06	2.8658e-06	297.16	97.362	83.299	29.064	1.8383e-06	35.878	0.00034758	0.00035067	9.7563e-05	981.52	3.8575e-06	3.8218e-06	985.86	269.39	3.8378e-06	3.8248e-06	308.94	102.38	88.263	30.434	3.8315e-06	37.658	-125.269	-78.492	-79.043	-123.677	-25.923	-3.290	-123.909	-119.146	29.226	-62.612	-119.692	-115.528	-114.895	-110.228	45.942	-111.010	-8191	255	
1622.572	1	1	0	0	0.13819	0.25384	0.12486	0.16446	0.078038	0.11173	0.19213	0.2834	0.17281	0.14586	0.20923	0.13969	0.088316	0.10033	0.091325	0.13158	-2.1562	-2.6729	-2.5687	-2.6521	-2.9417	-2.7188	-2.8854	-2.9188	-2.6417	-2.9292	-2.7687	-2.6458	-2.7042	-2.6375	-2.75	-2.8354	108.117	200.006	200.511	178.249	-114.563	184.721	203.241	193.923	153.263	169.765	121.338	131.683	52.583	-88.065	213.045	78.909	0.00023642	0.00018106	0.00016245	945.87	2.2897e-06	2.2397e-06	945.84	257.97	2.4664e-06	4.7083e-06	298.02	97.551	83.582	29.146	2.9371e-06	36.13	0.00034705	0.00035125	9.6704e-05	979.44	3.8207e-06	3.7543e-06	985.02	268.99	3.793e-06	3.8216e-06	308.88	102.31	88.207	30.417	3.7819e-06	37.608	-133.659	-41.654	-106.941	-123.735	-11.754	-61.414	-124.046	-119.136	-10.318	27.481	-119.754	-115.601	-115.229	-110.380	-54.939	-111.211	-8191	255	
1622.668	1	1	0	0	0.014261	0.14207	0.31352	0.38818	0.16538	0.028709	0.14328	0.28549	0.16126	0.16304	0.16512	0.14925	0.036276	0.24595	0.13468	0.051537	-1.9021	-2.9521	-2.7542	-2.7208	-2.9229	-2.6708	-2.8354	-3.0104	-2.6125	-2.8479	-3.0104	-2.5271	-3.0104	-2.7875	-2.6521	-3.0354	88.826	-93.007	-52.595	-136.481	-20.051	-96.797	165.474	38.381	-131.329	213.612	-133.213	155.942	-128.498	-68.114	-5.337	35.882	0.00024569	0.00010437	0.0001299	942.59	6.9719e-07	2.1612e-06	946.56	257.81	5.4714e-06	1.5604e-06	296.72	97.079	83.507	29.063	1.4181e-06	35.784	0.00034042	0.00034488	9.5178e-05	976.11	3.7241e-06	3.7372e-06	984.05	268.5	3.732e-06	3.7429e-06	307.89	102.12	88.26	30.414	3.7466e-06	37.56	-134.530	193.459	-72.201	-123.859	-113.844	-28.218	-124.135	-119.152	0.134	45.589	-119.719	-115.473	-115.474	-110.442	92.007	-111.056	-8191	255	
1622.764	1	1	0	0	0.16446	0.15692	0.29306	0.4152	0.31302	0.23024	0.07922	0.27599	0.21401	0.27315	0.25255	0.10059	0.05502	0.16196	0.19279	0.25472	-2.1896	-2.7521	-2.8021	-2.7	-2.7729	-2.6125	-2.6688	-2.8667	-2.5875	-2.8479	-2.8854	-2.6896	-2.8146	-3.0875	-2.5167	-3.0021	119.908	-135.791	173.249	147.708	173.231	124.287	176.445	154.080	-7.556	-108.360	-120.533	-50.148	222.424	159.097	52.395	178.741	0.00021375	0.00044077	0.00013765	942.18	1.8821e-06	3.114e-06	945.12	257.7	3.1833e-06	3.5468e-06	296.62	97.712	83.568	29.046	2.5386e-06	35.958	0.00033837	0.00034468	9.5323e-05	977.31	3.7574e-06	3.7522e-06	984.62	268.31	3.7824e-06	3.8368e-06	308.01	102.42	88.143	30.423	3.7534e-06	37.607	-123.324	-83.084	-24.211	-123.717	1.617	-65.031	-124.018	-119.353	-18.235	-26.311	-119.586	-115.664	-114.899	-110.364	7.134	-110.978	-8191	255	
1622.859	1	1	0	0	0.3154	0.30414	0.16887	0.20477	0.15879	0.24926	0.15897	0.20295	0.21958	0.11524	0.20625	0.061428	0.025775	0.26159	0.10804	0.1593	-2.2625	-2.5729	-2.8625	-2.6708	-2.9062	-2.6792	-2.6792	-3.0021	-2.5917	-2.7104	-2.9479	-2.4813	-2.8563	-2.8917	-2.6167	-2.9458	25.589	210.713	155.895	118.000	99.209	-67.399	207.028	192.250	-41.276	220.688	-112.388	-135.010	179.150	202.116	1.846	77.714	0.00020326	0.00030961	2.4091e-05	944.69	1.0561e-06	6.0662e-06	947.03	257.75	1.053e-06	3.3031e-06	299.18	97.489	83.82	29.105	1.5613e-06	35.77	0.00033601	0.00034179	9.4827e-05	977.29	3.7551e-06	3.7393e-06	983.51	268.79	3.7199e-06	3.7512e-06	308.72	102.2	88.162	30.411	3.6889e-06	37.556	-130.174	-114.240	108.330	-123.751	125.330	5.399	-123.995	-119.119	27.405	-10.126	-120.013	-115.350	-114.927	-110.334	-13.112	-110.964	-8191	255	
1622.957	1	1	0	0	0.37947	0.14188	0.25735	0.077448	0.094947	0.019108	0.26745	0.17212	0.078272	0.25972	0.17362	0.12684	0.30224	0.098272	0.28971	0.39219	-2.2771	-2.6688	-2.9854	-2.6083	-2.7188	-2.8563	-2.6104	-2.8625	-2.6021	-2.65	-2.85	-2.5563	-2.9729	-2.6542	-2.6	-2.8875	-110.620	27.169	142.804	87.839	39.767	123.101	138.939	-85.021	116.051	93.546	-10.060	219.878	156.188	-57.729	56.580	175.867	0.00024439	0.00076434	0.00013157	942.37	2.1659e-06	3.744e-06	947.82	258.05	1.3721e-06	2.2569e-06	297.43	96.966	83.987	29.081	1.1143e-06	35.8	0.00033469	0.00034461	9.5344e-05	977.13	3.7849e-06	3.7349e-06	983.47	268.72	3.7864e-06	3.745e-06	307.99	101.99	88.277	30.411	3.7345e-06	37.539	-127.988	-52.383	-84.759	-123.845	-67.480	-3.279	-123.788	-119.007	-9.659	7.594	-119.829	-115.643	-115.058	-110.416	40.191	-110.624	-8191	255	
1623.075	1	1	0	0	0.16841	0.087792	0.14013	0.28743	0.20804	0.15383	0.15639	0.15747	0.067911	0.13698	0.16726	0.22266	0.23634	0.16194	0.096827	0.32486	-2.2708	-2.4688	-2.7083	-2.8208	-2.6417	-2.9354	-2.8063	-3.1292	-2.8146	-2.4479	-3.0604	-2.6042	-2.6583	-2.8875	-2.4583	-2.8979	31.341	-22.547	-21.036	193.249	-20.761	147.746	198.607	220.991	-14.494	197.168	192.488	-103.958	146.576	-35.093	102.036	96.467	0.00020858	0.000448	5.8282e-05	943.59	3.676e-06	6.0338e-06	946.69	257.6	4.6148e-06	4.0227e-06	297.4	97.35	83.613	29.193	2.8765e-06	36.005	0.00034062	0.00034186	9.5952e-05	976.5	3.7455e-06	3.7415e-06	984.35	268.51	3.7702e-06	3.7548e-06	307.9	102.33	88.343	30.405	3.7094e-06	37.572	-131.846	-59.374	-46.566	-123.834	-46.920	1.217	-123.924	-119.092	7.340	36.833	-119.714	-115.748	-114.893	-110.208	52.779	-111.059	-8191	255	
1623.172	1	1	0	0	0.33568	0.10167	0.099913	0.34761	0.040583	0.45098	0.21752	0.19659	0.20696	0.091438	0.19897	0.12472	0.19231	0.028389	0.15293	0.22076	-2.2396	-2.475	-2.6333	-2.7438	-2.7292	-2.8542	-2.6625	-2.9292	-2.6063	-2.5958	-2.9688	-2.7917	-2.7062	-3.0021	-2.5167	-2.8312	-109.690	219.272	-63.910	209.083	219.373	27.698	194.788	-93.318	-3.436	100.727	195.980	186.188	-117.237	33.238	211.294	-61.461	0.00022668	0.00050787	0.0001157	945.86	3.0673e-06	1.2067e-06	947.72	257.69	4.0416e-06	2.8705e-06	297.19	97.11	83.624	29.117	1.0475e-06	35.736	0.00033765	0.00033647	9.5242e-05	976.51	3.7269e-06	3.7029e-06	984.8	268.62	3.7743e-06	3.6987e-06	308.04	102.33	88.235	30.38	3.7014e-06	37.528	-127.723	-36.325	-62.671	-123.860	-5.478	-27.089	-124.000	-119.122	-58.028	-22.758	-119.642	-115.675	-115.174	-110.645	-35.349	-110.972	-8191	255	
1623.268	1	1	0	0	0.2589	0.14623	0.22099	0.13055	0.038192	0.15903	0.13829	0.141	0.1483	0.1427	0.20416	0.21422	0.20823	0.18495	0.11049	0.15332	-2.525	-2.4708	-2.9125	-2.8688	-2.7292	-2.9688	-2.7125	-2.9083	-2.7896	-2.3458	-2.9104	-2.6625	-2.5354	-2.9479	-2.5687	-2.825	-1.093	-96.874	-124.974	-111.919	197.440	-53.875	193.851	79.749	-0.736	215.816	168.409	196.438	-7.645	-127.112	37.973	132.929	0.00023859	0.00046309	0.00019805	944.68	3.8122e-07	3.1516e-06	947.73	257.53	6.6495e-07	2.2762e-06	296.9	97.346	83.719	29.141	2.471e-06	35.881	0.00033502	0.0003403	9.4698e-05	977.7	3.742e-06	3.7286e-06	984.3	268.51	3.762e-06	3.7031e-06	308.06	102.19	88.246	30.38	3.703e-06	37.566	-126.176	-46.361	-73.564	-123.803	38.641	-101.729	-124.044	-119.083	110.598	-12.940	-119.826	-115.662	-114.651	-110.320	-51.050	-110.789	-8191	255	
1623.364	1	1	0	0	0.13167	0.2307	0.056542	0.053324	0.10654	0.063157	0.091879	0.31143	0.10083	0.063393	0.14589	0.034245	0.094242	0.11733	0.30247	0.32194	-2.2375	-2.4771	-2.8833	-2.7854	-2.5312	-2.9646	-2.8063	-2.8583	-2.7854	-2.4188	-2.8333	-2.7354	-2.5021	-2.8083	-2.5917	-2.7958	-41.509	144.769	-115.591	-46.263	61.538	-44.713	112.747	209.556	4.018	193.517	218.449	-130.686	102.621	-134.718	-18.166	127.655	0.00021	0.00027795	2.9475e-05	946.7	4.0906e-07	2.4677e-06	949.02	258.55	2.0179e-06	4.8738e-06	297.68	97.568	83.183	29.074	9.8633e-07	35.973	0.00033707	0.00034257	9.5749e-05	978.19	3.7422e-06	3.6719e-06	985.23	269	3.7351e-06	3.7399e-06	308.24	102.28	88.084	30.438	3.728e-06	37.626	-124.966	-44.262	159.093	-123.792	-39.058	68.428	-123.853	-119.044	15.079	31.511	-119.747	-115.706	-114.959	-110.318	37.219	-110.755	-8191	255	
1623.460	1	1	0	0	0.28651	0.19434	0.092087	0.23684	0.30745	0.17993	0.16218	0.2535	0.18223	0.1432	0.11418	0.057893	0.23665	0.20948	0.15646	0.1671	-2.5417	-2.4	-2.65	-2.875	-2.5187	-2.8833	-2.7313	-2.8083	-2.9208	-2.5646	-2.7438	-2.8917	-2.4979	-2.9333	-2.6292	-2.5292	-73.635	181.373	81.786	186.505	219.053	-22.804	-102.407	173.334	-124.976	-38.711	-90.857	-61.222	190.326	168.939	-25.864	-107.998	0.00021646	0.00018467	0.00016654	949.81	2.859e-06	4.4688e-06	946.42	256.88	2.9928e-06	2.1278e-06	298.57	97.347	83.99	29.032	3.1738e-06	35.798	0.00033629	0.00034139	9.5236e-05	979.15	3.6941e-06	3.7038e-06	984.56	268.58	3.7002e-06	3.6834e-06	308.22	102.18	88.098	30.386	3.7049e-06	37.561	-129.541	-10.141	-40.166	-123.868	4.186	-20.655	-123.776	-119.134	-15.968	18.502	-119.867	-115.624	-114.853	-110.350	51.137	-111.049	-8191	255	
1623.556	1	1	0	0	0.25954	0.23775	0.076691	0.26536	0.12464	0.24158	0.082141	0.36447	0.072551	0.28751	0.052022	0.22788	0.0157	0.25132	0.084232	0.03254	-2.4625	-2.5958	-2.5687	-2.9	-2.6229	-2.8792	-2.8708	-2.6229	-2.9458	-2.6458	-2.7958	-2.8333	-2.5312	-2.9833	-2.7146	-2.6521	-30.483	-78.698	17.042	174.972	113.427	217.092	95.514	167.726	89.231	114.197	5.412	178.416	110.164	176.879	-41.470	-5.432	0.00018583	0.00025846	0.00016255	943.45	2.7536e-06	2.112e-06	945.4	257.72	2.2953e-06	5.963e-06	297.02	96.948	82.909	29.069	4.5701e-06	35.92	0.00033538	0.00033734	9.4681e-05	976.58	3.6492e-06	3.7058e-06	982.46	268.73	3.6914e-06	3.6875e-06	307.46	101.98	87.793	30.372	3.6944e-06	37.539	-134.956	-2.326	-40.596	-123.816	-27.712	61.197	-123.955	-119.001	-48.519	-29.494	-119.700	-115.812	-114.834	-110.489	3.939	-110.906	-8191	255	
1623.652	1	1	0	0	0.051027	0.20822	0.091644	0.25198	0.15193	0.13321	0.076736	0.22334	0.26114	0.16585	0.18018	0.028651	0.15555	0.13703	0.13521	0.056162	-2.4208	-2.5812	-2.6354	-2.9229	-2.4979	-2.6604	-2.6667	-2.75	-2.7771	-2.6146	-2.8542	-2.9854	-2.5083	-2.925	-2.5396	-2.4854	81.199	23.854	-88.644	49.433	91.073	103.209	105.682	143.742	47.745	166.584	-116.258	-62.567	-98.387	-87.757	143.272	156.840	0.00024975	5.5424e-05	0.0001403	943.43	5.0506e-06	1.3712e-06	948.94	257.87	1.0844e-06	5.7517e-06	296.28	97.353	83.784	29.005	4.9058e-06	35.872	0.000338	0.00034151	9.5436e-05	976.05	3.7067e-06	3.7331e-06	983.94	268.54	3.731e-06	3.7265e-06	308.13	102.18	88.168	30.363	3.6957e-06	37.627	-130.543	109.668	-61.617	-123.925	25.574	-29.864	-123.999	-119.098	-65.667	30.226	-119.785	-115.755	-114.942	-110.147	-17.300	-111.135	-8191	255	
1623.771	1	1	0	0	0.039709	0.15989	0.11464	0.070317	0.15929	0.21935	0.14564	0.18771	0.01846	0.17671	0.43716	0.10681	0.30621	0.065199	0.22786	0.22031	-2.4437	-2.4542	-2.4958	-2.9708	-2.3875	-2.5875	-2.9688	-2.7167	-2.9333	-2.625	-2.5146	-3.0417	-2.6875	-2.6917	-2.7812	-2.5938	13.942	-29.961	89.804	160.553	40.559	171.943	121.045	120.800	193.255	215.355	215.392	152.424	155.152	52.643	148.820	118.681	0.00024229	0.00077818	8.8414e-05	944.47	1.2679e-06	3.542e-06	946.61	256.98	2.9311e-06	5.1387e-06	296.67	97.124	83.492	28.965	5.3583e-06	35.844	0.00033668	0.00033873	9.3941e-05	975.66	3.7291e-06	3.7103e-06	983.18	268.37	3.7365e-06	3.705e-06	307.86	102.11	88.064	30.363	3.714e-06	37.608	-132.643	-76.318	-7.174	-123.952	108.022	67.905	-123.923	-119.180	-36.787	4.110	-119.828	-115.558	-115.036	-110.508	-8.712	-110.940	-8191	255	
1623.845	1	1	0	0	0.23081	0.21452	0.20185	0.11831	0.019288	0.20766	0.087109	0.15485	0.30093	0.2393	0.1357	0.18494	0.17401	0.22837	0.28728	0.068997	-2.3063	-2.7208	-2.5521	-2.8958	-2.6917	-2.6833	-2.9104	-2.5958	-2.8187	-2.7833	-2.7167	-2.8312	-2.5812	-2.6625	-2.9437	-2.6042	87.448	-107.377	22.116	151.480	-111.402	30.095	40.233	119.061	161.204	110.476	-54.365	34.107	161.007	104.884	43.833	131.323	0.00022264	0.00032234	8.6193e-05	945.95	3.0735e-06	4.0438e-06	944.98	257.23	3.1885e-06	7.1223e-06	297.17	97.089	83.236	28.982	4.2318e-06	35.837	0.00033904	0.0003435	9.4195e-05	975.79	3.7135e-06	3.735e-06	983.07	268.32	3.731e-06	3.6857e-06	307.8	102.12	88.164	30.323	3.6682e-06	37.558	-126.717	-23.544	-84.197	-123.805	-45.147	-4.736	-123.968	-119.249	9.639	22.038	-119.634	-115.709	-114.887	-110.198	-26.372	-110.952	-8191	255	
1623.941	1	1	0	0	0.18787	0.073612	0.23467	0.21962	0.20817	0.080812	0.039426	0.48784	0.225	0.0056291	0.052029	0.25624	0.17866	0.14038	0.25886	0.24476	-2.4062	-2.6688	-2.4292	-2.8563	-2.7354	-2.7812	-3.1479	-2.5396	-2.9208	-2.875	-2.7333	-3.0042	-2.8792	-2.7396	-2.9062	-2.6917	123.684	-102.314	-131.294	159.621	85.353	79.230	-18.319	111.673	-8.176	-114.439	28.167	199.410	120.824	-127.231	83.321	125.149	0.00021658	0.00047583	0.00017063	944.73	3.0495e-06	2.699e-06	944.76	257.21	2.3012e-06	4.8975e-06	296.27	97.574	83.802	29.047	4.985e-06	35.966	0.00033591	0.00033917	9.2956e-05	976.54	3.7352e-06	3.7296e-06	982.11	268.35	3.755e-06	3.6919e-06	307.51	102.33	88.097	30.357	3.7268e-06	37.61	-133.823	-79.048	-27.762	-123.604	81.146	-47.651	-124.094	-119.191	-15.590	26.680	-119.884	-115.418	-115.427	-110.260	4.669	-110.959	-8191	255	
1624.037	1	1	0	0	0.21086	0.1424	0.042023	0.19869	0.10991	0.10658	0.27479	0.22923	0.16481	0.14444	0.49877	0.089854	0.10992	0.26404	0.13735	0.17907	-2.1771	-2.6979	-2.4229	-3.1292	-2.5771	-2.4771	-3.0521	-2.4146	-2.7083	-2.7875	-2.5917	-2.9083	-2.5229	-2.6021	-3.0333	-2.6646	109.660	203.686	67.047	-136.749	-54.363	-98.621	107.634	177.092	186.479	-21.621	-117.343	35.803	210.191	-50.272	-114.351	-134.433	0.00023476	0.000358	0.00012224	946.23	2.7043e-06	2.8694e-06	945.78	257.62	3.5529e-06	4.5507e-06	296.35	96.894	83.311	29.018	4.8321e-06	35.958	0.00033549	0.00033746	9.3394e-05	976.41	3.7084e-06	3.6994e-06	983.28	268.46	3.6987e-06	3.6561e-06	307.89	102.16	88.029	30.34	3.6438e-06	37.608	-128.341	-58.221	-64.537	-123.903	-2.468	-11.406	-124.021	-119.018	-49.170	-24.323	-119.657	-115.382	-114.887	-110.449	-18.482	-111.146	-8191	255	
1624.156	1	1	0	0	0.24257	0.066675	0.37405	0.25676	0.18268	0.21918	0.14774	0.12289	0.1226	0.10331	0.058909	0.12948	0.24864	0.27489	0.093537	0.29582	-2.3667	-2.9354	-2.4562	-2.9188	-2.6979	-2.5646	-3.0479	-2.6333	-2.6792	-2.8812	-2.6729	-2.9667	-2.8771	-2.6063	-2.9167	-2.7875	193.933	-51.939	141.855	216.839	-41.864	-49.061	86.249	-28.958	177.830	-46.001	-106.596	-83.590	-44.276	215.678	55.483	187.568	0.00021758	0.00044158	4.2506e-05	944.07	1.5708e-06	3.5284e-06	946.87	257.92	1.4632e-06	6.6424e-06	297.58	96.907	83.72	29.11	1.6404e-06	35.829	0.0003357	0.00033496	9.3575e-05	975.46	3.6903e-06	3.6726e-06	983.84	268.43	3.6839e-06	3.6603e-06	307.91	102.08	88.195	30.4	3.6468e-06	37.553	-118.519	-52.321	-49.228	-123.789	54.798	9.227	-124.076	-119.165	16.255	-16.222	-119.898	-115.618	-115.071	-110.512	-24.454	-110.911	-8191	255	
1624.252	1	1	0	0	0.10889	0.21287	0.19693	0.17025	0.097012	0.099259	0.28786	0.18459	0.17597	0.43858	0.12485	0.20519	0.25248	0.36144	0.071356	0.17844	-2.1625	-3.0333	-2.55	-2.9979	-2.7208	-2.5375	-3.1396	-2.7854	-2.5812	-2.8729	-2.5708	-2.8646	-2.8771	-2.6479	-2.8792	-2.6937	114.918	-32.652	187.615	-123.165	154.043	-44.174	108.783	202.147	135.161	95.800	-89.582	-120.818	113.941	193.182	20.827	75.984	0.00023349	0.00016524	7.555e-05	946.03	5.081e-06	1.2371e-06	946.19	257.43	5.3757e-07	3.158e-06	297.64	96.936	83.788	28.956	1.7095e-06	35.906	0.00033188	0.0003312	9.3283e-05	977.67	3.6273e-06	3.6634e-06	984.32	268.68	3.6949e-06	3.6504e-06	307.56	102.19	88.207	30.342	3.6441e-06	37.557	-131.330	-3.923	-76.875	-123.817	10.317	202.058	-124.051	-119.167	127.029	-50.278	-119.761	-115.323	-114.979	-110.244	-6.256	-110.884	-8191	255	
1624.348	1	1	0	0	0.14317	0.032504	0.3165	0.12565	0.20672	0.20323	0.21883	0.23375	0.20434	0.087225	0.19165	0.22707	0.2806	0.16241	0.3379	0.17	-2.1604	-2.8187	-2.4688	-2.7208	-2.6937	-2.5104	-2.9771	-2.6937	-2.5563	-2.9479	-2.7375	-2.7042	-2.8896	-2.3917	-2.8521	-2.9354	-135.194	-57.347	-11.061	216.472	24.362	222.401	172.621	139.655	-30.529	162.954	-115.974	180.471	195.591	3.105	-93.061	106.715	0.00018604	0.00053792	0.00010477	946.99	2.4869e-06	3.3366e-06	947.55	256.89	4.5132e-06	5.6043e-06	297.95	97.406	83.727	29.024	3.1388e-06	35.768	0.00033107	0.00033421	9.3139e-05	976.93	3.6778e-06	3.6702e-06	983.75	268.28	3.6924e-06	3.6619e-06	307.89	102.14	88.203	30.398	3.6649e-06	37.531	-129.620	-19.930	-71.548	-123.744	31.808	7.691	-123.896	-118.998	-40.584	-0.262	-119.736	-115.535	-115.198	-110.318	15.178	-110.804	-8191	255	
1624.469	1	1	0	0	0.25365	0.25426	0.12337	0.04214	0.23958	0.28246	0.17321	0.41691	0.07784	0.057953	0.31696	0.21382	0.12431	0.070281	0.088001	0.15038	-2.2042	-2.5896	-2.6729	-2.7542	-2.9062	-2.625	-2.8688	-2.9646	-2.5625	-2.8312	-2.8896	-2.7	-2.7771	-2.7854	-2.9208	-2.9625	126.919	24.243	207.017	118.389	183.555	-20.779	154.553	159.011	41.961	83.158	195.471	50.677	-41.062	-130.205	-72.316	-4.439	0.00025618	0.00010165	0.00016554	947.62	3.6535e-07	2.514e-06	949.61	257.14	2.6388e-06	2.6012e-06	296.91	97.037	83.562	29.021	3.0473e-06	35.918	0.00033262	0.00033698	9.3274e-05	978.72	3.6875e-06	3.6812e-06	985	268.18	3.6662e-06	3.6394e-06	308.04	102.12	88.093	30.384	3.6716e-06	37.642	-126.604	-68.624	-16.818	-123.941	98.656	59.355	-123.849	-119.220	13.295	23.784	-119.865	-115.648	-114.830	-110.194	37.819	-111.014	-8191	255	
1624.540	1	1	0	0	0.2206	0.039733	0.24525	0.22931	0.083722	0.17203	0.3323	0.11477	0.12041	0.046938	0.10004	0.21064	0.14588	0.075105	0.11672	0.24136	-1.9729	-2.9167	-2.5896	-2.7313	-2.8438	-2.4771	-2.9979	-2.9021	-2.3958	-2.8479	-2.875	-2.8583	-2.9437	-2.6312	-2.7	-2.7729	-77.186	-16.652	-55.035	216.353	49.528	104.123	-117.413	202.996	123.574	203.322	-101.627	145.421	148.683	-68.442	43.505	-67.895	0.00027408	0.00043746	0.00012212	944.53	2.4319e-06	2.0256e-06	946.35	257.27	4.4911e-06	5.0054e-06	297.01	97.069	83.526	29.06	2.435e-06	35.686	0.00033201	0.00033396	9.4422e-05	976.12	3.6559e-06	3.6643e-06	983.31	268.34	3.6773e-06	3.6748e-06	307.26	102.05	87.994	30.333	3.6838e-06	37.488	-129.029	-71.182	-11.568	-123.627	-58.705	-18.631	-123.946	-119.082	-39.201	13.921	-119.734	-115.520	-114.849	-110.209	-20.989	-110.849	-8191	255	
1624.637	1	1	0	0	0.25619	0.13959	0.066757	0.19092	0.18953	0.23893	0.084015	0.22819	0.13068	0.23273	0.1667	0.24515	0.074319	0.17232	0.037946	0.28925	-2.1937	-2.7104	-2.7417	-2.4854	-2.8458	-2.6562	-2.8833	-2.9917	-2.6146	-2.6604	-2.9167	-2.6688	-3.0604	-2.7	-2.6833	-2.8229	145.403	-101.002	168.361	170.497	114.663	-19.356	49.791	107.164	6.204	7.431	-124.426	145.429	-59.698	-87.233	-105.078	29.149	0.00021537	0.00019282	6.971e-05	944.49	2.0209e-06	2.2163e-06	947.45	257.11	3.4412e-06	5.6292e-06	296.93	97.298	83.402	29.021	4.0252e-06	35.859	0.00033649	0.00033651	9.4263e-05	978.48	3.6778e-06	3.7473e-06	984.03	268.23	3.685e-06	3.7314e-06	307.81	102.11	87.972	30.328	3.6901e-06	37.615	-125.953	-33.964	1.698	-123.642	-51.970	117.060	-124.005	-118.947	11.257	36.476	-119.932	-115.618	-115.078	-110.352	-9.280	-110.819	-8191	255	
1624.757	1	1	0	0	0.17476	0.2694	0.21949	0.15406	0.1265	0.19246	0.11356	0.15232	0.2019	0.055335	0.19541	0.064333	0.1656	0.064153	0.15202	0.2621	-2.1667	-2.8146	-2.7271	-2.7167	-2.8625	-2.7042	-2.7208	-2.9625	-2.5354	-2.7583	-2.8625	-2.6021	-2.7833	-2.6229	-2.5708	-2.8083	113.775	123.929	110.539	-122.845	120.505	81.316	70.362	8.593	-19.990	-68.222	140.856	-93.996	191.037	92.977	171.266	202.976	0.00020922	0.00040589	3.8227e-05	946.14	1.8955e-06	3.706e-06	947.14	257.72	1.8292e-06	4.3724e-06	296.47	97.355	83.554	29.101	1.983e-06	35.907	0.00033876	0.00033876	9.4103e-05	977.41	3.7007e-06	3.71e-06	984.27	268.78	3.7208e-06	3.731e-06	307.65	102.29	88.144	30.367	3.6545e-06	37.577	-120.100	-7.033	-50.469	-123.996	-32.020	-23.130	-123.855	-119.014	71.790	27.857	-119.909	-115.578	-115.041	-110.391	37.365	-110.955	-8191	255	
1624.852	1	1	0	0	0.18842	0.31848	0.1365	0.33342	0.11554	0.0075881	0.16674	0.092837	0.26178	0.12085	0.31655	0.13817	0.15599	0.21683	0.20051	0.26521	-2.0833	-2.7042	-2.8271	-2.7375	-2.7417	-2.6312	-2.6188	-2.9188	-2.6396	-2.8458	-2.9	-2.5542	-2.7188	-2.8833	-2.6958	-3.0729	187.470	112.225	-57.585	128.333	-26.697	17.652	-129.494	-17.252	-47.796	-95.141	192.617	33.344	-28.530	130.748	78.983	-110.140	0.00023754	0.00037938	0.00015957	945.38	3.4237e-06	4.4399e-06	948.5	258	2.0274e-06	3.4392e-06	296.37	97.47	83.361	28.948	2.4253e-06	35.909	0.00033427	0.00033835	9.4587e-05	977.16	3.7564e-06	3.7716e-06	984.83	268.76	3.7505e-06	3.7162e-06	307.79	102.19	88.112	30.343	3.6807e-06	37.51	-125.105	-50.335	-34.312	-123.737	-50.356	33.819	-123.999	-118.975	-64.065	36.861	-119.907	-115.645	-115.105	-110.109	-37.377	-110.842	-8191	255	
1624.948	1	1	0	0	0.067872	0.10221	0.11128	0.16853	0.12267	0.20798	0.065873	0.15857	0.17655	0.068835	0.33511	0.22994	0.16935	0.14448	0.14934	0.15131	-2.2083	-2.7625	-2.9354	-2.8063	-2.8417	-2.7021	-2.6333	-3.1375	-2.5938	-2.4854	-2.8896	-2.4542	-2.7792	-2.8333	-2.4583	-2.825	201.977	198.839	81.911	-65.149	-108.925	75.424	205.198	-86.949	-27.672	142.741	136.140	-135.579	-92.854	-114.878	193.796	199.500	0.00023623	0.00055914	0.00011139	949.24	1.0943e-06	3.2538e-06	946.82	257.34	1.32e-06	3.2902e-06	296.6	97.077	83.985	29.022	3.0841e-06	35.882	0.00033738	0.00034097	9.4599e-05	977.13	3.7529e-06	3.692e-06	984.05	268.43	3.7053e-06	3.7082e-06	307.85	101.99	88.203	30.323	3.6816e-06	37.585	-127.211	-53.989	-10.935	-123.692	-49.370	-81.137	-124.055	-119.112	122.461	-37.798	-119.503	-115.627	-115.001	-110.506	40.634	-111.162	-8191	255	
1625.068	1	1	0	0	0.22601	0.16546	0.0872	0.24495	0.072588	0.21486	0.19993	0.067576	0.20834	0.1419	0.13022	0.09313	0.076499	0.14864	0.1116	0.37366	-2.1562	-2.6396	-2.7771	-2.9313	-2.7396	-2.8667	-2.575	-3.025	-2.6396	-2.5479	-2.8896	-2.65	-2.6292	-2.9021	-2.5021	-3.0104	83.283	-84.945	63.757	-91.227	52.446	-124.207	126.950	77.751	103.995	-47.281	-69.942	182.909	-32.541	182.164	-3.806	220.386	0.00024487	0.00023138	6.3924e-05	944.99	2.7602e-06	7.7842e-07	943.43	258.96	2.0454e-06	5.188e-06	296.49	97.351	83.614	29.004	4.6793e-06	35.778	0.00033358	0.00033401	9.3474e-05	974.83	3.6985e-06	3.6995e-06	981.37	268.54	3.6783e-06	3.7207e-06	307.37	102.12	88.203	30.38	3.6617e-06	37.445	-123.841	100.980	-34.881	-124.055	8.372	133.223	-123.944	-119.084	-66.287	33.449	-120.052	-115.610	-115.138	-110.473	17.980	-110.944	-8191	255	
1625.140	1	1	0	0	0.10648	0.34361	0.082759	0.14084	0.13822	0.1954	0.3034	0.066658	0.044848	0.14631	0.10988	0.14959	0.10116	0.20301	0.18171	0.34155	-2.4979	-2.8333	-2.925	-2.6937	-2.6604	-2.8354	-2.6417	-2.9188	-2.9	-2.4021	-3.0021	-2.6104	-2.6437	-2.8917	-2.5104	-2.8583	-27.524	185.967	-47.918	-63.390	165.330	-2.441	129.135	17.216	-116.734	-32.741	-81.601	193.855	138.852	-113.779	72.665	101.589	0.00025768	0.00049678	0.00014959	945.74	2.6929e-06	2.3424e-06	945.73	257.09	2.8745e-06	4.0965e-06	296.28	97.079	83.145	29.251	4.9288e-07	35.643	0.00033042	0.0003342	9.2868e-05	976.47	3.6227e-06	3.6562e-06	982.54	268.64	3.6202e-06	3.6191e-06	307.78	102.09	87.964	30.365	3.6207e-06	37.431	-128.480	-27.285	-71.291	-123.798	41.202	-55.592	-123.940	-119.042	-0.436	9.930	-119.583	-115.718	-115.348	-110.466	-18.073	-110.760	-8191	255	
1625.236	1	1	0	0	0.1184	0.11437	0.04034	0.19805	0.10488	0.21997	0.31449	0.26438	0.089062	0.23726	0.2672	0.1779	0.081798	0.17636	0.14818	0.27298	-2.3208	-2.5917	-2.9792	-2.8292	-2.6271	-3.0458	-2.7062	-2.8563	-2.925	-2.4854	-3	-2.7313	-2.7333	-3.0771	-2.5938	-2.7938	-27.353	146.035	-19.293	124.949	127.511	-64.524	174.361	160.888	39.662	-117.151	124.276	-96.598	189.325	156.869	29.506	127.740	0.00021148	0.00022446	0.00013847	943.45	2.9932e-06	3.3766e-06	947.43	258.04	2.2703e-06	3.7297e-06	296.97	96.976	83.328	29.002	2.5448e-07	35.73	0.00033222	0.00033351	9.3548e-05	975.44	3.7034e-06	3.6381e-06	982.76	268.87	3.6493e-06	3.6038e-06	307.81	102.02	87.972	30.387	3.6441e-06	37.51	-123.765	-18.071	-24.828	-123.827	-30.385	-36.504	-124.074	-119.077	-41.583	-16.217	-120.018	-115.550	-114.949	-110.289	163.150	-110.800	-8191	255	
1625.332	1	1	0	0	0.1977	0.10327	0.20384	0.18751	0.21638	0.061084	0.12874	0.11003	0.23224	0.099937	0.1926	0.10965	0.28525	0.18633	0.20962	0.083398	-2.3229	-2.3312	-2.7875	-2.7333	-2.5104	-2.6604	-2.7729	-2.8771	-2.8312	-2.6667	-2.9021	-2.8063	-2.6479	-3.0708	-2.5312	-2.7521	202.852	-98.293	-20.764	-112.696	153.624	80.688	120.570	6.276	-75.446	61.076	165.697	-78.296	143.232	38.574	215.966	163.568	0.00020567	0.00023786	0.00014623	944.82	3.9864e-06	3.6683e-06	948.42	257.17	2.0566e-06	3.2201e-06	295.81	97.168	83.468	29.061	4.1483e-06	35.8	0.00032723	0.00033371	9.2821e-05	976.81	3.6491e-06	3.6598e-06	983.06	268.26	3.6008e-06	3.6357e-06	307.22	102.15	88.151	30.338	3.6147e-06	37.478	-127.902	2.532	-72.836	-123.800	-3.068	-7.725	-123.997	-119.106	-127.537	21.389	-119.923	-115.761	-115.058	-110.407	-69.278	-111.077	-8191	255	
1625.453	1	1	0	0	0.073063	0.18291	0.25103	0.17893	0.081313	0.1198	0.12741	0.29154	0.27026	0.078833	0.075212	0.19211	0.37072	0.14576	0.33105	0.17757	-2.4562	-2.5271	-2.7313	-2.8375	-2.5938	-2.8354	-2.7188	-2.7938	-2.8458	-2.5438	-2.8312	-2.8312	-2.4458	-3.0604	-2.7792	-2.6396	187.799	-122.842	-87.386	64.998	100.028	-4.934	69.102	-116.818	-57.342	56.562	163.126	23.270	-25.276	194.667	-64.000	86.069	0.00022214	0.00048555	9.4611e-05	945.88	3.6553e-06	4.364e-06	948.78	257.74	2.2538e-06	6.1045e-06	296.8	97.295	83.343	29.087	3.0495e-06	35.698	0.00032883	0.00033056	9.3308e-05	976.09	3.6327e-06	3.636e-06	982.19	268.35	3.6301e-06	3.6176e-06	307.43	102.07	87.935	30.33	3.6382e-06	37.446	-131.317	-52.163	20.151	-123.873	-69.214	-11.870	-123.676	-119.076	40.493	11.391	-119.716	-115.506	-115.179	-110.373	-11.422	-110.900	-8191	255	
1625.549	1	1	0	0	0.2385	0.20381	0.078063	0.34687	0.26308	0.2452	0.22401	0.10319	0.1189	0.27839	0.099828	0.095085	0.17336	0.20501	0.096405	0.30735	-2.4625	-2.5583	-2.7417	-2.7125	-2.5458	-2.7917	-2.7729	-2.7208	-2.9188	-2.6833	-2.775	-2.7729	-2.3917	-2.8438	-2.65	-2.6	-64.072	-132.003	209.704	-128.918	89.511	173.723	168.302	101.173	-111.155	-25.135	184.281	74.094	77.225	-106.293	156.270	12.639	0.00021429	0.00039251	0.00012662	941.62	8.3453e-07	1.5598e-06	945.31	257.46	3.1826e-06	3.8317e-06	296.35	97.022	83.598	28.954	3.8973e-06	35.832	0.00032611	0.00032826	9.1918e-05	974.75	3.5938e-06	3.5987e-06	981.72	267.92	3.6229e-06	3.609e-06	307.22	102.05	87.968	30.274	3.6144e-06	37.472	-128.072	-50.046	-58.336	-123.800	-8.724	-65.543	-123.987	-118.903	-9.315	59.941	-119.753	-115.729	-115.076	-110.289	-23.262	-110.752	-8191	255	
1625.645	1	1	0	0	0.2521	0.10781	0.25737	0.12512	0.086632	0.026308	0.16183	0.18809	0.089111	0.14731	0.20344	0.16606	0.13649	0.054106	0.17454	0.15923	-2.3438	-2.5417	-2.6	-2.9	-2.5021	-2.7417	-3.0292	-2.4146	-2.8187	-2.6063	-2.6667	-2.9458	-2.5062	-2.9271	-2.6729	-2.6688	-109.837	-62.777	171.221	43.590	-123.305	101.049	28.531	148.640	68.225	203.499	101.836	20.669	-45.177	-71.578	21.859	193.029	0.00021828	0.00044564	0.00019109	937.14	3.0117e-06	3.0422e-06	943.65	256.89	2.4577e-06	6.1098e-06	295.81	96.988	83.725	28.916	3.471e-06	35.864	0.00032857	0.00033059	9.2858e-05	972.6	3.633e-06	3.6726e-06	981.15	268.21	3.6727e-06	3.6621e-06	306.98	102.09	88.118	30.316	3.6291e-06	37.542	-125.828	-66.107	-81.939	-123.918	14.869	35.888	-123.767	-119.183	-2.423	-10.291	-119.738	-115.498	-114.947	-110.224	20.402	-111.124	-8191	255	
1625.741	1	1	0	0	0.040467	0.13268	0.11168	0.099419	0.11381	0.22408	0.095142	0.045237	0.16697	0.26952	0.029327	0.05763	0.036739	0.078503	0.20375	0.41403	-2.5458	-2.5417	-2.7208	-3.2188	-2.5125	-2.7625	-2.8208	-2.5667	-2.8958	-2.6417	-2.5042	-2.9146	-2.6583	-2.8854	-2.8187	-2.5354	103.293	182.452	26.864	106.648	185.744	-127.218	181.075	56.705	-45.702	-100.975	134.503	158.273	-15.708	188.364	-113.096	44.835	0.00022567	0.00026681	3.2854e-05	941.11	3.1055e-06	6.0156e-06	942.91	257.05	9.4699e-07	1.8091e-06	295.69	97.106	83.444	29.042	3.2929e-06	35.949	0.00032763	0.00033474	9.2959e-05	973.2	3.6576e-06	3.6524e-06	979.75	268.22	3.6827e-06	3.6979e-06	307.4	101.98	87.999	30.348	3.6088e-06	37.569	-134.746	-45.455	-111.941	-123.790	-32.799	-10.441	-123.923	-119.149	-15.626	220.488	-119.716	-115.552	-115.030	-110.278	-49.528	-110.998	-8191	255	
1625.838	1	1	0	0	0.3313	0.28691	0.14996	0.20351	0.15267	0.13582	0.092091	0.22563	0.17365	0.054694	0.18168	0.23919	0.096624	0.18485	0.14507	0.20885	-2.3271	-2.5875	-2.4521	-3.0062	-2.5458	-2.7	-2.9125	-2.6583	-2.8542	-2.7208	-2.5146	-2.9771	-2.6	-2.5875	-2.8854	-2.6021	163.960	-52.709	112.175	217.793	5.091	13.862	201.284	112.605	15.449	-54.127	-12.908	171.241	75.346	-57.171	-27.521	5.589	0.00022585	0.00023752	4.0838e-05	938.41	1.2978e-06	1.5704e-06	942.68	256.38	2.6664e-06	2.0683e-06	297.29	96.853	83.46	28.932	4.3074e-06	35.8	0.00033392	0.00033117	9.3417e-05	972.21	3.6856e-06	3.6688e-06	979.68	267.82	3.6894e-06	3.7032e-06	307.04	102.03	87.846	30.297	3.6183e-06	37.454	-125.355	-55.475	154.550	-123.904	-47.481	35.866	-123.824	-119.071	-9.973	16.559	-119.881	-115.282	-114.837	-110.181	-20.885	-110.751	-8191	255	
1625.932	1	1	0	0	0.21668	0.050657	0.18412	0.42555	0.081482	0.15853	0.155	0.15128	0.24018	0.067078	0.22132	0.11334	0.095451	0.18784	0.13344	0.1059	-2.2292	-2.7604	-2.4188	-2.9729	-2.5479	-2.6312	-2.925	-2.5708	-2.6167	-2.5896	-2.5354	-2.9646	-2.6542	-2.725	-2.7938	-2.5229	132.528	-77.040	-22.019	177.804	-14.259	-11.778	214.127	-121.183	-9.555	156.162	169.507	-7.481	2.208	-87.979	-91.984	196.861	0.00017333	0.00050853	0.00010642	940.85	2.9193e-06	5.0818e-06	947.12	257.24	1.5054e-06	2.5027e-06	296.59	97.11	83.513	28.901	2.8523e-06	35.853	0.00033377	0.00033275	9.2016e-05	972.62	3.6631e-06	3.6441e-06	980.47	267.85	3.6125e-06	3.6277e-06	307.25	102.05	87.772	30.257	3.6195e-06	37.451	-123.474	-65.176	-38.333	-123.709	14.021	-21.353	-123.886	-119.299	15.838	-25.509	-119.524	-115.750	-115.349	-110.335	-7.120	-110.765	-8191	255	
1626.030	1	1	0	0	0.21238	0.10357	0.081234	0.027306	0.10865	0.31454	0.18993	0.23497	0.28625	0.12507	0.11095	0.082755	0.15925	0.085013	0.2098	0.13962	-2.2167	-2.7521	-2.5292	-2.8937	-2.4708	-2.5938	-3.0667	-2.6625	-2.5583	-2.85	-2.4521	-2.9146	-2.7167	-2.575	-2.7917	-2.5583	31.956	193.890	-128.132	99.209	118.382	71.342	201.702	-85.744	92.456	-104.394	-112.760	-33.544	-4.168	-133.470	-67.474	-125.791	0.0002193	0.00039725	0.00015912	941.79	3.8988e-06	3.0173e-06	943.16	257.77	3.861e-06	4.734e-06	295.94	97.11	83.127	29.003	4.3217e-07	35.837	0.0003307	0.00033085	9.1928e-05	971.76	3.6183e-06	3.6207e-06	978.98	268.04	3.6347e-06	3.6173e-06	306.94	101.94	87.612	30.298	3.6016e-06	37.49	-129.368	-31.044	-51.019	-123.864	10.643	-10.936	-124.002	-119.177	4.147	-7.849	-119.859	-115.370	-114.978	-110.316	205.355	-110.867	-8191	255	
1626.149	1	1	0	0	0.15618	0.11445	0.10952	0.099771	0.09069	0.37779	0.012687	0.14801	0.20702	0.1258	0.14353	0.072521	0.018228	0.24518	0.060546	0.17534	-2.1708	-2.9313	-2.35	-2.9188	-2.7604	-2.4771	-3.1063	-2.5896	-2.7104	-2.9938	-2.5438	-2.7104	-2.7896	-2.6229	-2.8542	-2.6896	144.931	109.696	-111.143	135.703	-55.802	202.531	-10.392	-123.560	124.967	187.798	-29.175	34.683	113.263	172.836	22.789	-134.638	0.00022116	0.00028111	0.00013246	943.68	4.1435e-06	1.7517e-06	941.68	258.29	1.7553e-06	4.8441e-06	296.84	97.056	83.529	28.893	1.533e-06	35.766	0.00033117	0.00032787	9.2155e-05	973.14	3.6455e-06	3.575e-06	979.28	268.16	3.6458e-06	3.6291e-06	307.4	102.07	87.815	30.296	3.5937e-06	37.489	-130.282	12.082	-18.527	-123.779	11.244	-28.548	-123.938	-119.026	-16.914	-0.142	-119.805	-115.485	-114.762	-110.381	-50.266	-111.164	-8191	255	
1626.245	1	1	0	0	0.26929	0.12177	0.11575	0.16491	0.083589	0.30971	0.23968	0.059701	0.17953	0.16135	0.12165	0.18548	0.18073	0.15734	0.20776	0.026598	-2.2188	-2.7333	-2.6292	-2.8792	-2.6375	-2.5271	-2.9208	-2.8625	-2.7375	-2.8	-2.5875	-2.8958	-2.7687	-2.6437	-2.7917	-2.7313	122.982	-10.295	216.369	-52.032	-26.926	-7.584	215.096	209.102	48.884	-129.233	186.012	132.689	-114.249	-36.142	158.523	-100.267	0.00021306	0.00039349	0.00010973	940.65	2.829e-06	2.6597e-06	942.81	257.02	5.4633e-07	6.0252e-06	296.54	96.912	83.635	28.941	4.0102e-06	35.649	0.00032987	0.00033385	9.1712e-05	973.13	3.6633e-06	3.6248e-06	978.42	267.85	3.6755e-06	3.6066e-06	307.38	101.83	88.028	30.298	3.6692e-06	37.479	-124.552	-5.791	-10.531	-123.783	89.612	11.857	-123.908	-119.006	63.717	8.666	-119.860	-115.779	-114.697	-110.423	35.150	-110.852	-8191	255	
1626.341	1	1	0	0	0.27724	0.11034	0.25266	0.32216	0.29859	0.12301	0.21657	0.126	0.22445	0.094362	0.099163	0.078004	0.064843	0.19877	0.13954	0.13035	-2.0396	-2.7854	-2.65	-2.8563	-2.8729	-2.5167	-2.9	-2.6729	-2.3812	-2.8792	-2.6188	-2.625	-2.7854	-2.6708	-2.6625	-2.7292	21.221	203.394	178.545	180.320	88.950	-135.952	120.113	-108.580	205.252	180.145	-88.986	-89.285	125.556	70.418	-52.356	108.260	0.00024921	0.00055021	9.7185e-05	939.76	9.3778e-07	1.1948e-06	940.73	256.55	2.6328e-06	5.7226e-06	295.85	97.044	83.259	28.925	3.2563e-06	35.62	0.00032861	0.00033226	9.2035e-05	970.82	3.654e-06	3.5883e-06	976.66	267.71	3.6281e-06	3.6373e-06	307.09	101.91	87.836	30.244	3.6373e-06	37.421	-118.936	-43.628	-89.674	-123.894	-93.702	85.572	-123.867	-118.934	-72.960	9.122	-119.788	-115.771	-114.852	-110.470	25.355	-111.171	-8191	255	
1626.437	1	1	0	0	0.19809	0.11694	0.21325	0.22365	0.046708	0.16432	0.13408	0.11919	0.14642	0.21397	0.16375	0.024047	0.27562	0.15811	0.18101	0.19216	-2.0208	-2.8458	-2.6292	-2.7583	-2.7125	-2.4521	-2.7896	-2.925	-2.4896	-2.8021	-2.725	-2.7979	-2.8458	-2.6833	-2.725	-2.7417	157.146	91.468	214.772	221.900	213.111	-73.335	74.548	213.498	141.231	53.355	-15.453	-36.717	-103.967	43.651	179.195	136.987	0.00021081	0.00024531	0.00012435	937.29	4.5965e-06	2.5245e-06	938.87	256.86	3.1691e-06	3.5291e-06	295.77	97.4	83.527	28.945	4.9556e-06	35.645	0.00033249	0.00033117	9.1842e-05	970.42	3.649e-06	3.6578e-06	976.51	267.73	3.6381e-06	3.6112e-06	306.75	102.03	87.936	30.262	3.6085e-06	37.446	-132.055	-94.055	-84.616	-123.748	-94.296	60.073	-124.026	-119.068	45.950	25.292	-119.911	-115.415	-115.143	-110.516	-65.534	-111.039	-8191	255	
1626.533	1	1	0	0	0.077552	0.1573	0.030824	0.3124	0.24648	0.21595	0.32048	0.05595	0.23659	0.083134	0.21036	0.17389	0.084245	0.23842	0.19927	0.18653	-1.9104	-2.9208	-2.5375	-2.7875	-2.8854	-2.625	-2.8229	-2.9062	-2.4396	-2.6688	-2.6208	-2.7521	-2.9083	-2.3792	-2.7333	-2.7	140.631	196.199	21.405	166.268	-70.255	156.279	164.746	-66.427	103.789	-62.717	116.785	48.423	-22.098	-16.040	141.084	203.112	0.00024729	0.00045151	0.0001059	939.04	2.0595e-06	3.0161e-06	941.55	256.99	1.5486e-06	3.4446e-06	294.62	97.044	83.413	28.928	4.0469e-06	35.749	0.00032667	0.00033313	9.0966e-05	970.37	3.6075e-06	3.6007e-06	976.98	267.73	3.6118e-06	3.5862e-06	306.67	101.89	87.883	30.288	3.5998e-06	37.491	-122.471	-103.955	-62.121	-123.828	8.784	-17.068	-123.735	-119.221	-47.183	-25.577	-119.754	-115.662	-115.316	-110.102	0.323	-110.871	-8191	255	
1626.629	1	1	0	0	0.21415	0.1236	0.13071	0.41196	0.24192	0.13402	0.051367	0.30461	0.21065	0.23707	0.14215	0.17717	0.15167	0.15397	0.114	0.20951	-2.1229	-2.8646	-2.8167	-2.7667	-2.7917	-2.5479	-2.8937	-2.8979	-2.5271	-2.7104	-2.7958	-2.4708	-2.9229	-2.7875	-2.5521	-2.9146	134.403	167.851	0.250	168.513	84.836	-54.346	-76.809	73.998	-44.034	-130.480	154.309	-42.902	-6.886	49.335	-121.758	165.692	0.00018274	0.00024802	0.00017407	939	2.1966e-06	2.8962e-07	942.1	258.15	3.2166e-06	5.0805e-06	296.71	96.714	82.747	28.852	4.7618e-07	35.827	0.00032597	0.00032963	9.1576e-05	970.85	3.5953e-06	3.61e-06	978.08	267.96	3.6391e-06	3.5714e-06	307.31	101.84	87.664	30.266	3.5836e-06	37.511	-129.307	12.790	-21.202	-123.754	6.278	122.119	-123.955	-119.166	-56.902	-1.997	-119.565	-115.763	-114.829	-110.428	-130.018	-111.010	-8191	255	
1626.750	1	1	0	0	0.2363	0.33887	0.2969	0.22827	0.10951	0.028616	0.12506	0.036032	0.06691	0.067469	0.28757	0.087537	0.21205	0.15536	0.10011	0.084664	-2.0083	-2.7792	-2.7562	-2.6104	-2.7792	-2.5854	-2.5083	-2.8854	-2.4083	-2.6917	-2.7521	-2.5812	-2.8292	-2.6167	-2.6396	-2.7979	91.668	18.983	-75.986	-136.202	-99.411	-63.894	41.338	-78.625	164.770	-117.021	67.453	47.777	-86.198	157.838	-132.783	174.787	0.00022455	0.00020505	0.00010206	944.09	3.5182e-06	2.4633e-06	941.5	257.16	1.2785e-06	2.0488e-06	295.33	96.811	83.449	28.981	1.8122e-06	35.724	0.00032751	0.00033012	9.157e-05	970.96	3.62e-06	3.5921e-06	977.94	267.65	3.6176e-06	3.6523e-06	306.83	101.79	87.767	30.303	3.6354e-06	37.442	-128.244	-50.244	-50.941	-123.876	-4.728	-53.385	-123.992	-119.228	-6.683	-40.211	-119.990	-115.695	-115.069	-110.171	-28.469	-110.869	-8191	255	
1626.846	1	1	0	0	0.10721	0.013052	0.14866	0.29386	0.2859	0.10122	0.23128	0.020111	0.1575	0.1782	0.14455	0.28605	0.13265	0.1525	0.27992	0.26822	-2.0833	-2.5208	-2.5896	-2.4813	-2.6542	-2.6375	-2.6437	-2.9708	-2.5729	-2.6625	-2.8583	-2.4125	-2.8917	-2.6354	-2.3771	-2.75	-50.274	221.956	129.388	132.687	191.075	106.819	198.124	73.450	-64.700	-58.419	-130.848	180.331	80.043	178.248	193.283	174.140	0.00021254	0.00034805	8.0125e-05	938.55	5.346e-06	3.3993e-06	941.88	257.31	3.3659e-06	3.8487e-06	294.49	97.239	83.56	28.997	5.2041e-06	35.771	0.00032996	0.00033425	9.1448e-05	971.22	3.6273e-06	3.6414e-06	977.29	267.79	3.6246e-06	3.6142e-06	306.63	101.97	87.885	30.309	3.5947e-06	37.454	-135.841	-93.538	-61.940	-123.880	6.476	7.641	-123.874	-118.981	-26.611	60.611	-119.724	-115.478	-114.858	-110.281	-15.223	-110.807	-8191	255	
#DATA ENDS
