BOXY.EXE: ISS Imagent and Oximeter Data Acquisition Program Version 0.80
Ascii Record File

#ACQ INFORMATION
2  Detector Channels 
16  External MUX Channels 
1  Auxiliary Channels 
5000  Waveform (CCF) Frequency (Hz)
1  Waveforms Skipped 
30  Waveforms Averaged 
1  Cycles Averaged 
16  Acquisitions per Waveform 
10.0806  Updata Rate (Hz) 

#FILE INFORMATION
TRUE -- External MUX Channel results are PARSED.
FALSE -- AC DC and Phase are NOT grouped.
TRUE -- Companion Program Settings File CREATED.
FALSE -- AC data not excluded
FALSE -- DC data not excluded
FALSE -- Phase data not excluded
FALSE -- Auxillary Chn. data not excluded
Tab delimiters

#CALIBRATION STATE
TRUE -- Waveform Calibration Values APPLIED.


#AUX CALIBRATION VALUES
Val Type	aux-1	

Term	1.0000e+00	
Factor	0.0000e+00	


#WF CALIBRATION VALUES
A = Detector Channel
Val Type	A-AC1	A-AC2	A-AC3	A-AC4	A-AC5	A-AC6	A-AC7	A-AC8	A-AC9	A-AC10	A-AC11	A-AC12	A-AC13	A-AC14	A-AC15	A-AC16	A-DC1	A-DC2	A-DC3	A-DC4	A-DC5	A-DC6	A-DC7	A-DC8	A-DC9	A-DC10	A-DC11	A-DC12	A-DC13	A-DC14	A-DC15	A-DC16	A-Ph1	A-Ph2	A-Ph3	A-Ph4	A-Ph5	A-Ph6	A-Ph7	A-Ph8	A-Ph9	A-Ph10	A-Ph11	A-Ph12	A-Ph13	A-Ph14	A-Ph15	A-Ph16	

Term	0.00000e+00	0.00000e+00	0.00000e+00	0.00000e+00	0.00000e+00	0.00000e+00	0.00000e+00	0.00000e+00	0.00000e+00	0.00000e+00	0.00000e+00	0.00000e+00	0.00000e+00	0.00000e+00	0.00000e+00	0.00000e+00	0.00000e+00	0.00000e+00	0.00000e+00	0.00000e+00	0.00000e+00	0.00000e+00	0.00000e+00	0.00000e+00	0.00000e+00	0.00000e+00	0.00000e+00	0.00000e+00	0.00000e+00	0.00000e+00	0.00000e+00	0.00000e+00	0.00000e+00	0.00000e+00	0.00000e+00	0.00000e+00	0.00000e+00	0.00000e+00	0.00000e+00	0.00000e+00	0.00000e+00	0.00000e+00	0.00000e+00	0.00000e+00	0.00000e+00	0.00000e+00	0.00000e+00	0.00000e+00	
Factor	1.00000e+00	1.00000e+00	1.00000e+00	1.00000e+00	1.00000e+00	1.00000e+00	1.00000e+00	1.00000e+00	1.00000e+00	1.00000e+00	1.00000e+00	1.00000e+00	1.00000e+00	1.00000e+00	1.00000e+00	1.00000e+00	1.00000e+00	1.00000e+00	1.00000e+00	1.00000e+00	1.00000e+00	1.00000e+00	1.00000e+00	1.00000e+00	1.00000e+00	1.00000e+00	1.00000e+00	1.00000e+00	1.00000e+00	1.00000e+00	1.00000e+00	1.00000e+00	X	X	X	X	X	X	X	X	X	X	X	X	X	X	X	X	

B = Detector Channel
Val Type	B-AC1	B-AC2	B-AC3	B-AC4	B-AC5	B-AC6	B-AC7	B-AC8	B-AC9	B-AC10	B-AC11	B-AC12	B-AC13	B-AC14	B-AC15	B-AC16	B-DC1	B-DC2	B-DC3	B-DC4	B-DC5	B-DC6	B-DC7	B-DC8	B-DC9	B-DC10	B-DC11	B-DC12	B-DC13	B-DC14	B-DC15	B-DC16	B-Ph1	B-Ph2	B-Ph3	B-Ph4	B-Ph5	B-Ph6	B-Ph7	B-Ph8	B-Ph9	B-Ph10	B-Ph11	B-Ph12	B-Ph13	B-Ph14	B-Ph15	B-Ph16	

Term	0.00000e+00	0.00000e+00	0.00000e+00	0.00000e+00	0.00000e+00	0.00000e+00	0.00000e+00	0.00000e+00	0.00000e+00	0.00000e+00	0.00000e+00	0.00000e+00	0.00000e+00	0.00000e+00	0.00000e+00	0.00000e+00	0.00000e+00	0.00000e+00	0.00000e+00	0.00000e+00	0.00000e+00	0.00000e+00	0.00000e+00	0.00000e+00	0.00000e+00	0.00000e+00	0.00000e+00	0.00000e+00	0.00000e+00	0.00000e+00	0.00000e+00	0.00000e+00	-9.90304e+01	-1.35732e+02	-1.36445e+02	-1.81955e+02	-6.32359e+01	-7.00468e+01	-1.55865e+02	-1.62015e+02	-5.28796e+01	-6.72096e+01	-1.73578e+02	-1.70098e+02	-1.84416e+02	-1.76662e+02	-7.14242e+01	-1.49046e+02	
Factor	1.61227e-05	1.53640e-04	4.82937e-05	1.70074e-01	1.20327e-06	1.47695e-06	1.57498e-01	5.08174e-02	1.03867e-06	1.45238e-06	9.60303e-02	2.81729e-02	5.38668e-02	9.01616e-03	1.33076e-06	1.28469e-02	1.78411e-06	1.91716e-06	5.33672e-07	8.42362e-02	2.08320e-08	2.10161e-08	7.33345e-02	2.52856e-02	2.08088e-08	2.10259e-08	4.56947e-02	1.35968e-02	2.61707e-02	4.47479e-03	2.08188e-08	6.15170e-03	X	X	X	X	X	X	X	X	X	X	X	X	X	X	X	X	



#DISTANCE SETTINGS
A = Detector Channel
A-1	A-2	A-3	A-4	A-5	A-6	A-7	A-8	A-9	A-10	A-11	A-12	A-13	A-14	A-15	A-16	

2.5000e+00	3.0000e+00	2.5000e+00	3.0000e+00	2.0000e+00	3.0000e+00	1.5000e+00	3.0000e+00	3.0000e+00	3.0000e+00	3.0000e+00	3.0000e+00	3.0000e+00	3.0000e+00	1.5000e+00	3.0000e+00	

B = Detector Channel
B-1	B-2	B-3	B-4	B-5	B-6	B-7	B-8	B-9	B-10	B-11	B-12	B-13	B-14	B-15	B-16	

1.0000e+01	1.0000e+01	1.0000e+01	1.4400e+00	1.0000e+01	1.0000e+01	1.5100e+00	1.9400e+00	1.0000e+01	1.0000e+01	1.9900e+00	2.4900e+00	2.4100e+00	2.9000e+00	1.0000e+01	2.9800e+00	




#DATA BEGINS
time	group	step	mark	flag	A-AC1	A-AC2	A-AC3	A-AC4	A-AC5	A-AC6	A-AC7	A-AC8	A-AC9	A-AC10	A-AC11	A-AC12	A-AC13	A-AC14	A-AC15	A-AC16	A-DC1	A-DC2	A-DC3	A-DC4	A-DC5	A-DC6	A-DC7	A-DC8	A-DC9	A-DC10	A-DC11	A-DC12	A-DC13	A-DC14	A-DC15	A-DC16	A-Ph1	A-Ph2	A-Ph3	A-Ph4	A-Ph5	A-Ph6	A-Ph7	A-Ph8	A-Ph9	A-Ph10	A-Ph11	A-Ph12	A-Ph13	A-Ph14	A-Ph15	A-Ph16	B-AC1	B-AC2	B-AC3	B-AC4	B-AC5	B-AC6	B-AC7	B-AC8	B-AC9	B-AC10	B-AC11	B-AC12	B-AC13	B-AC14	B-AC15	B-AC16	B-DC1	B-DC2	B-DC3	B-DC4	B-DC5	B-DC6	B-DC7	B-DC8	B-DC9	B-DC10	B-DC11	B-DC12	B-DC13	B-DC14	B-DC15	B-DC16	B-Ph1	B-Ph2	B-Ph3	B-Ph4	B-Ph5	B-Ph6	B-Ph7	B-Ph8	B-Ph9	B-Ph10	B-Ph11	B-Ph12	B-Ph13	B-Ph14	B-Ph15	B-Ph16	aux-1	digaux	

1590.112	1	1	0	256	0.2744	0.084151	0.11039	0.27146	0.10001	0.21955	0.27084	0.15589	0.23864	0.23269	0.23932	0.13649	0.25652	0.023794	0.25994	0.10334	-2.35	-2.8688	-2.5438	-3.0271	-2.7938	-2.7354	-3.2188	-2.8354	-2.7854	-3.1625	-2.6208	-2.8688	-2.6333	-2.6604	-2.825	-2.7458	-128.388	9.120	189.058	222.651	117.429	-102.280	114.835	122.938	-66.954	-11.151	197.220	123.733	-49.048	-17.242	59.746	126.942	0.00016097	0.00023369	7.8705e-05	1295.2	2.8102e-06	3.7667e-06	1357.7	266.54	1.6899e-06	2.9718e-06	330.72	90.322	70.248	20.625	2.9657e-06	28.614	5.9519e-05	4.5644e-05	1.3188e-05	1242.2	5.5075e-07	4.9278e-07	1308.8	257.45	5.4771e-07	4.7243e-07	316.76	88.311	67.547	20.091	4.862e-07	27.963	-128.904	-56.032	-41.035	-124.860	8.232	7.132	-124.590	-117.874	2.927	-22.805	-117.883	-111.693	-111.118	-104.277	22.220	-104.361	-8191	255	
1590.208	1	1	0	0	0.10871	0.15977	0.078601	0.23554	0.14837	0.23863	0.32288	0.25488	0.17554	0.25198	0.11563	0.29704	0.14309	0.032639	0.22355	0.17472	-2.5521	-2.8937	-2.575	-3.0187	-2.6188	-2.7458	-3.2	-2.6562	-2.6833	-2.8729	-2.7417	-2.9979	-2.9271	-2.5521	-2.7812	-2.6354	70.024	201.068	30.314	141.583	34.302	-92.417	163.436	180.649	141.535	143.002	152.919	164.328	103.265	169.610	58.103	176.823	0.00016463	0.00024807	8.2661e-05	1288.8	8.4394e-07	2.1455e-06	1340.9	266.28	1.4516e-06	2.5352e-06	332.01	90.514	71.012	20.662	1.6359e-06	28.703	5.4687e-05	4.2425e-05	1.2159e-05	1231.2	5.1069e-07	4.7715e-07	1295.1	256.47	5.2391e-07	4.6844e-07	316.2	88.181	67.767	20.049	4.8985e-07	27.95	-124.732	-53.835	-77.833	-124.484	16.840	47.043	-124.639	-117.867	-25.846	-11.005	-118.117	-111.386	-111.830	-104.513	11.139	-104.233	-8191	255	
1590.304	1	1	0	0	0.12861	0.16253	0.19448	0.35701	0.18946	0.22155	0.33078	0.16821	0.25588	0.049338	0.1218	0.070572	0.16245	0.1182	0.18282	0.2047	-2.1708	-3.0042	-2.6625	-2.8875	-2.7125	-2.65	-3.075	-2.8563	-2.5354	-3.0625	-2.5833	-2.6354	-2.725	-2.6833	-2.8667	-2.6771	-6.640	179.141	73.295	199.964	128.786	148.207	189.780	76.538	25.395	56.991	185.531	9.853	163.673	214.798	187.383	161.556	0.0001629	0.00025789	0.00010115	1290.4	2.0058e-06	2.9318e-06	1349.9	265.34	1.7778e-06	3.1727e-06	331.15	91.006	71.345	20.771	2.5048e-06	29.015	5.5497e-05	4.2996e-05	1.2042e-05	1234.5	5.1828e-07	4.5995e-07	1303.4	256.97	5.0891e-07	4.6126e-07	317.08	88.652	67.841	20.113	4.4283e-07	28.067	-119.972	-37.630	-45.163	-124.615	19.747	-7.888	-124.661	-117.626	-57.020	37.136	-118.203	-111.674	-111.414	-104.433	-11.917	-104.544	-8191	255	
1590.425	1	1	0	0	0.019569	0.42184	0.16612	0.24637	0.12288	0.18939	0.14172	0.24399	0.17251	0.09055	0.21905	0.14977	0.31703	0.25763	0.24752	0.16095	-2.1104	-2.9583	-2.5312	-2.9625	-2.8646	-2.6396	-3.0708	-2.9125	-2.6771	-2.8729	-2.7958	-2.9896	-3.1437	-2.7	-2.5938	-2.8625	45.444	177.641	206.373	190.199	86.179	-96.010	144.126	196.977	86.303	212.167	-78.916	69.209	208.263	-134.866	175.292	-68.506	0.00015089	0.00025128	0.00014665	1291.1	2.0818e-06	3.2559e-06	1351.5	264.85	2.1552e-06	3.5584e-06	331.17	89.982	70.905	20.661	2.784e-06	28.777	5.3702e-05	3.9737e-05	1.1224e-05	1233.9	5.0088e-07	4.4375e-07	1301	256.16	4.8454e-07	4.4514e-07	315.95	87.96	67.552	20.118	4.7107e-07	27.941	-127.715	-69.850	-32.706	-124.659	-28.916	-3.073	-124.754	-117.849	-41.905	5.068	-117.570	-111.574	-111.812	-104.543	-7.016	-104.817	-8191	255	
1590.521	1	1	0	0	0.062543	0.11348	0.16566	0.37006	0.11791	0.11006	0.20192	0.15171	0.12886	0.14789	0.222	0.14237	0.090903	0.024736	0.07279	0.29761	-2.0542	-2.8583	-2.7229	-2.9188	-2.9271	-2.6417	-3.0354	-2.8792	-2.6375	-2.8729	-2.8708	-2.6604	-3.0354	-2.5875	-2.8542	-2.9104	60.647	-26.680	88.903	161.556	-16.064	128.825	217.854	29.352	21.606	-32.671	144.925	188.986	-125.891	-15.425	-64.132	196.907	0.00015962	0.00033548	0.00011242	1288.1	2.4464e-06	3.5341e-06	1349.7	265.79	1.6826e-06	2.4745e-06	328.34	90.679	70.994	20.788	3.5091e-06	28.819	5.3322e-05	4.0456e-05	1.1421e-05	1231	5.0791e-07	4.3854e-07	1300.4	256.31	5.112e-07	4.3576e-07	315.63	88.29	67.789	20.133	4.4678e-07	28.04	-125.966	-40.124	-32.891	-124.814	11.496	8.674	-124.764	-117.609	3.107	37.801	-117.788	-111.855	-111.342	-104.277	40.532	-104.504	-8191	255	
1590.617	1	1	0	0	0.08603	0.088578	0.19584	0.30404	0.1693	0.22685	0.20941	0.071385	0.34185	0.091073	0.15812	0.084147	0.061736	0.014251	0.3217	0.34178	-2.0646	-2.8917	-2.6729	-2.6417	-3.1167	-2.725	-3.0812	-3.0625	-2.55	-3.1625	-2.95	-2.5708	-2.9875	-2.7625	-2.9083	-3.1646	6.525	137.866	-114.830	140.685	-52.062	120.694	158.765	57.451	58.719	29.242	110.479	98.844	209.946	182.744	-20.794	148.688	0.0001609	0.00033247	8.1701e-05	1289.2	9.4323e-07	3.6027e-06	1350.7	265.73	1.7221e-06	3.0228e-06	332.32	90.413	70.846	20.825	1.8552e-06	28.778	5.3854e-05	4.1379e-05	1.0938e-05	1235.1	4.9558e-07	4.2531e-07	1303.8	256.42	4.8792e-07	4.5039e-07	317.13	88.223	67.637	20.165	4.604e-07	28.089	-119.624	-35.116	-36.276	-124.555	40.227	14.404	-124.647	-117.605	17.093	31.482	-118.305	-111.693	-111.489	-104.416	49.174	-104.644	-8191	255	
1590.713	1	1	0	0	0.10904	0.3965	0.16272	0.11492	0.12854	0.33814	0.10708	0.031754	0.20509	0.12145	0.20903	0.067935	0.084961	0.10216	0.23914	0.037088	-2.3583	-2.7417	-2.6708	-2.7917	-2.9125	-2.8833	-2.9188	-2.9896	-2.5771	-2.8937	-2.8083	-2.75	-3.025	-2.8354	-2.6396	-2.8812	194.863	-88.561	90.709	170.790	-80.303	-16.978	133.094	-74.707	149.295	194.715	163.451	144.404	204.125	-88.245	-93.664	38.488	0.00014304	0.00034548	6.2335e-05	1291.4	2.3973e-06	2.8356e-06	1352.3	266.32	2.0597e-06	3.4333e-06	330.75	90.36	70.873	20.633	8.4545e-07	28.906	5.3166e-05	3.9609e-05	1.1048e-05	1234.5	4.6672e-07	4.4217e-07	1303	256.41	4.8281e-07	4.2779e-07	315.3	88.103	67.574	20.05	4.5845e-07	28.045	-123.968	-41.188	-92.388	-124.763	-17.001	-6.997	-124.622	-117.818	-16.426	31.340	-117.726	-111.498	-110.612	-104.570	-31.535	-104.855	-8191	255	
1590.832	1	1	0	0	0.14831	0.23099	0.29649	0.23753	0.28691	0.059568	0.17669	0.12113	0.2733	0.17538	0.18998	0.31252	0.23858	0.28518	0.21701	0.079214	-2.275	-2.95	-2.7542	-2.6437	-2.7854	-2.8896	-2.8354	-3.0854	-2.5	-2.9562	-2.8354	-2.65	-2.7188	-2.8417	-2.7687	-2.9146	174.027	44.297	-132.321	160.058	-84.924	26.720	161.817	39.754	106.506	161.254	128.080	-131.258	44.757	161.843	212.871	12.835	0.00015214	0.00030691	0.00010563	1282.5	2.0642e-06	4.4145e-06	1352.4	266.18	2.6394e-06	2.9032e-06	331.47	90.539	71.129	20.641	3.4226e-06	28.801	5.4088e-05	4.1119e-05	1.1015e-05	1227.5	4.8829e-07	4.4576e-07	1300.2	256.36	4.718e-07	4.4943e-07	315.96	88.059	67.544	20.096	4.4131e-07	28.005	-127.203	-32.707	-49.560	-124.750	-26.343	7.787	-124.406	-117.822	-28.404	26.222	-118.110	-111.348	-111.252	-104.412	6.761	-104.250	-8191	255	
1590.905	1	1	0	0	0.26735	0.12866	0.052128	0.17166	0.13641	0.17001	0.33771	0.084632	0.13192	0.11837	0.10662	0.15458	0.30688	0.25812	0.35974	0.33187	-2.3583	-2.9313	-2.725	-2.9042	-2.8104	-2.8375	-2.8083	-2.975	-2.675	-2.8063	-2.9521	-2.6437	-3.0646	-2.9125	-2.4396	-3.0167	62.684	94.013	38.162	147.329	176.349	154.768	133.625	193.826	96.749	151.416	-33.156	219.270	-25.748	88.831	67.951	75.619	0.00012606	0.00016592	6.664e-05	1282.4	1.1239e-06	3.2304e-06	1338.4	263.83	1.4962e-06	2.0718e-06	328.29	89.328	70.315	20.507	1.7379e-06	28.517	5.3319e-05	4.0005e-05	1.1328e-05	1227.6	4.9719e-07	4.2536e-07	1292.1	254.84	4.6759e-07	4.0913e-07	313.95	87.404	66.66	19.834	4.0466e-07	27.721	-125.198	-50.345	-9.493	-124.609	-12.324	-22.837	-124.429	-117.520	6.911	3.607	-117.870	-111.340	-111.340	-104.567	-9.190	-104.618	-8191	255	
1591.000	1	1	0	0	0.152	0.15617	0.32698	0.41345	0.18915	0.042633	0.3747	0.0062323	0.02772	0.081956	0.34815	0.12349	0.024051	0.19518	0.11929	0.19142	-2.3312	-2.6937	-2.9708	-2.6937	-2.8167	-2.9458	-2.75	-2.975	-2.725	-2.8271	-3.1667	-2.6771	-2.6	-2.9875	-2.5646	-2.9083	-7.952	-55.950	-54.528	153.187	-118.342	58.776	175.806	-53.036	196.449	158.363	219.112	132.940	-73.869	133.810	-120.635	88.750	0.00014958	0.00038362	7.9086e-05	1261	2.1312e-06	1.889e-06	1313	258.28	1.4178e-06	3.1018e-06	322.52	87.892	68.98	20.019	3.4513e-06	28.012	4.8754e-05	3.403e-05	9.7406e-06	1204.3	4.3079e-07	3.6218e-07	1266.7	249.18	3.9762e-07	3.6222e-07	307.61	86.013	65.6	19.499	3.6654e-07	27.29	-116.676	-30.527	-77.196	-124.794	-4.443	10.215	-124.534	-117.734	-27.064	21.552	-117.805	-111.288	-111.396	-104.267	-9.004	-104.209	-8191	255	
1591.120	1	1	0	0	0.23921	0.12304	0.04172	0.069539	0.040582	0.11271	0.33055	0.24458	0.25545	0.111	0.043092	0.20092	0.196	0.12967	0.23988	0.17603	-2.2792	-2.7438	-2.8812	-2.6688	-2.8042	-3.1896	-2.8542	-2.9688	-2.7729	-2.6771	-3.0729	-2.8125	-2.7708	-3.0542	-2.6521	-2.9396	160.841	-76.024	146.579	154.790	35.346	26.771	110.171	-107.006	134.891	-40.193	113.235	191.528	120.462	101.907	76.133	139.545	0.00014024	0.00032987	0.00010641	1234	2.1219e-06	2.8336e-06	1301.3	254.64	2.0612e-06	1.7041e-06	318.34	87.956	68.412	20.186	2.0498e-06	28.168	4.5365e-05	3.2029e-05	9.3148e-06	1182.7	4.0115e-07	3.564e-07	1251.6	246.87	3.8626e-07	3.4272e-07	305.01	85.498	65.235	19.457	3.7374e-07	27.254	-129.343	-37.337	-9.475	-124.733	4.192	29.280	-124.516	-117.556	-4.695	44.009	-117.838	-111.500	-110.766	-104.215	20.270	-104.095	-8191	255	
1591.216	1	1	0	0	0.068066	0.21374	0.32797	0.17236	0.29881	0.030818	0.18337	0.10854	0.030857	0.22556	0.25244	0.31328	0.19209	0.053397	0.32829	0.11702	-2.2625	-2.6458	-2.8312	-2.8479	-2.8063	-3.1667	-2.7396	-3.075	-2.9062	-2.5187	-2.9458	-2.6813	-2.725	-2.8583	-2.5792	-3.0062	159.088	-110.205	-104.527	-72.463	-110.704	90.260	161.203	24.803	23.605	109.103	-120.197	90.018	217.161	48.847	120.751	-4.625	0.00012795	0.0003318	0.00011572	1234	1.8713e-06	2.4671e-06	1293.6	253.76	1.363e-06	1.8217e-06	316.58	87.755	67.649	19.942	2.3232e-06	27.905	4.4729e-05	3.4269e-05	9.6094e-06	1181.4	4.1655e-07	3.4712e-07	1247.6	245.19	3.8756e-07	3.5862e-07	302.68	85.018	64.625	19.319	3.6788e-07	27.124	-123.873	-41.480	-54.697	-124.476	-6.868	24.002	-124.433	-117.646	-1.362	39.862	-117.574	-111.380	-111.005	-104.216	28.278	-104.496	-8191	255	
1591.313	1	1	0	0	0.094413	0.22611	0.23002	0.30899	0.23603	0.25649	0.19788	0.15078	0.067403	0.22873	0.1707	0.18445	0.17454	0.17873	0.29332	0.11858	-2.3458	-2.5854	-2.9417	-2.9521	-2.5771	-3.0833	-2.875	-2.8312	-2.7958	-2.5438	-2.9771	-2.7562	-2.7208	-2.7458	-2.4938	-2.775	195.955	157.525	182.328	153.508	-54.105	133.228	-66.487	-129.583	215.299	-35.591	154.253	161.269	-77.799	200.088	65.474	90.342	0.00015407	0.0002466	0.00010933	1233.9	9.8622e-07	2.3923e-06	1291.9	252.46	2.045e-06	2.3224e-06	313.5	86.428	67.553	19.856	1.3728e-06	27.742	4.5933e-05	3.3818e-05	9.3559e-06	1178.2	3.9924e-07	3.4173e-07	1243.4	243.78	3.766e-07	3.3904e-07	300.96	84.245	64.347	19.179	3.5058e-07	26.861	-127.957	-37.120	-46.911	-124.510	17.926	-10.209	-124.337	-117.663	-4.333	15.763	-117.729	-111.599	-111.011	-103.951	-35.089	-104.274	-8191	255	
1591.409	1	1	0	0	0.087323	0.057206	0.077604	0.22299	0.22949	0.27304	0.32047	0.33303	0.16884	0.12205	0.14844	0.076962	0.17539	0.031204	0.168	0.083574	-2.3729	-2.4542	-2.7313	-2.7812	-2.7167	-3.1104	-2.8125	-2.9625	-2.8375	-2.6688	-2.9458	-2.7313	-2.5083	-2.9875	-2.6417	-2.8271	103.563	22.657	131.959	-115.496	80.847	62.435	163.207	144.891	-9.940	59.373	68.503	-34.385	-89.919	-81.489	-43.169	105.302	0.0001616	0.00030562	0.00010711	1215	1.5225e-06	2.7072e-06	1275.2	249.16	2.6467e-06	2.2664e-06	313.06	86.255	67.247	19.764	1.5099e-06	27.518	4.2952e-05	2.9392e-05	8.3764e-06	1162.1	3.6847e-07	3.1091e-07	1230.2	241.19	3.769e-07	3.2476e-07	298.45	83.984	63.936	19.092	3.3102e-07	26.684	-127.249	-63.685	-60.724	-124.223	11.379	28.930	-124.249	-117.291	-6.996	-9.018	-117.574	-111.292	-111.436	-104.081	13.916	-104.353	-8191	255	
1591.505	1	1	0	0	0.091508	0.12548	0.2765	0.10215	0.0022553	0.12938	0.13652	0.26173	0.10931	0.24666	0.053495	0.1877	0.13617	0.15498	0.19317	0.17521	-2.4417	-2.6021	-2.9062	-2.8583	-2.5833	-3.0271	-2.9042	-3.0875	-3.0479	-2.6875	-2.9771	-3.0187	-2.6875	-3.0979	-2.6333	-2.7375	163.670	-106.972	-76.943	140.121	-72.885	-113.381	58.133	112.142	152.847	-68.376	-26.034	55.895	11.003	206.605	196.868	-84.109	0.00014498	0.00033136	0.00012866	1210.6	1.0791e-06	2.0813e-06	1262.8	247.25	1.3805e-06	1.5883e-06	312.17	85.516	66.737	19.654	2.6109e-06	27.464	4.209e-05	2.9249e-05	8.3497e-06	1156.1	3.6256e-07	3.0894e-07	1220.3	239.33	3.5028e-07	3.0488e-07	296.87	83.428	63.559	18.976	3.2299e-07	26.657	-123.950	-30.419	-29.218	-124.376	2.427	40.627	-124.379	-117.488	-13.112	6.239	-117.590	-111.151	-111.020	-103.839	17.743	-103.894	-8191	255	
1591.601	1	1	0	0	0.19316	0.12527	0.43462	0.18007	0.1309	0.013867	0.10427	0.14571	0.078904	0.1267	0.34924	0.13994	0.13845	0.2011	0.1549	0.13794	-2.5583	-2.5687	-2.9021	-3.1375	-2.7104	-2.9542	-2.9188	-2.5438	-2.9417	-2.7917	-2.7729	-2.95	-2.6063	-2.9104	-2.7562	-2.6958	56.807	-27.540	-34.753	208.548	133.564	212.209	181.810	130.180	-122.489	4.497	127.197	-38.361	-88.101	174.179	157.875	104.852	0.00014948	0.00022363	9.0956e-05	1201.3	1.6751e-06	4.729e-06	1263.5	246.6	2.3331e-06	1.8225e-06	311.23	85.346	66.7	19.586	1.6976e-06	27.477	4.1053e-05	2.811e-05	7.9084e-06	1150.5	3.5818e-07	3.074e-07	1216.5	238.66	3.5327e-07	3.157e-07	296.2	83.285	63.308	18.97	3.2642e-07	26.644	-122.670	-55.088	-56.619	-124.431	-13.480	6.756	-124.247	-117.276	-27.723	51.801	-117.451	-111.505	-110.892	-103.549	-35.120	-104.008	-8191	255	
1591.697	1	1	0	0	0.079723	0.24922	0.19629	0.17904	0.11417	0.084607	0.077777	0.38183	0.097773	0.10752	0.078559	0.086512	0.37882	0.085521	0.22771	0.11438	-2.4167	-2.7021	-2.6979	-3.0458	-2.7188	-2.9917	-3.025	-2.9854	-2.9104	-2.8	-2.8604	-2.8042	-2.5729	-2.7917	-2.6396	-2.7313	177.908	43.821	58.938	-100.619	159.649	-59.155	205.268	171.657	-64.555	140.462	33.419	-20.294	202.420	152.551	27.431	152.823	0.00014778	0.00019788	0.00013716	1202.9	1.6317e-06	1.7195e-06	1257.9	247.21	1.7299e-06	2.938e-06	309.25	85.122	67.055	19.521	1.5272e-06	27.174	4.2949e-05	2.8821e-05	8.1596e-06	1148.9	3.6265e-07	3.2829e-07	1215.9	238.8	3.7252e-07	3.139e-07	295.22	83.176	63.319	18.94	3.1506e-07	26.575	-124.335	-30.490	-60.040	-124.532	-38.897	4.901	-124.396	-117.245	-28.127	23.365	-117.671	-111.354	-110.855	-103.834	0.877	-104.194	-8191	255	
1591.793	1	1	0	0	0.15665	0.17445	0.13809	0.29534	0.14699	0.18643	0.098015	0.31192	0.20442	0.11002	0.016423	0.098142	0.13669	0.1242	0.14962	0.1306	-2.3729	-2.7354	-2.8063	-3.0312	-2.6979	-2.8563	-2.9583	-2.7333	-2.95	-2.6958	-2.7833	-2.9167	-2.8479	-2.8146	-2.9104	-2.7271	154.141	-0.989	-43.306	175.318	10.560	115.943	-131.812	125.789	131.960	159.804	129.156	-130.714	69.980	84.983	14.858	80.780	0.00013575	0.00033656	9.2742e-05	1193.1	2.3313e-06	3.4207e-06	1248.2	245.32	1.5491e-06	2.2717e-06	308.07	85.164	66.625	19.486	1.8424e-06	27.335	4.2376e-05	2.8957e-05	7.9929e-06	1141.5	3.3908e-07	2.986e-07	1206.9	237.27	3.4252e-07	2.955e-07	294.39	82.785	63.071	18.787	3.1605e-07	26.479	-120.639	-70.577	-43.198	-124.397	-26.917	33.554	-124.067	-117.257	-27.029	20.601	-117.581	-111.463	-110.722	-103.841	-1.176	-103.869	-8191	255	
1591.912	1	1	0	0	0.084811	0.25352	0.12273	0.27391	0.12026	0.042455	0.25494	0.20619	0.065957	0.05444	0.22094	0.20715	0.16288	0.10195	0.083442	0.17949	-2.4604	-2.6813	-2.6271	-3.0667	-2.4437	-3.1396	-3.1208	-2.7583	-2.8521	-2.7375	-2.6604	-3.1625	-2.7562	-2.7812	-3.0479	-2.5563	111.561	211.004	-3.467	199.228	151.842	-105.699	148.225	-130.878	42.046	139.283	153.861	-112.247	185.413	-28.677	-130.757	178.878	0.00015588	0.0003385	9.3994e-05	1187.7	2.217e-06	2.4633e-06	1243	244.29	2.2803e-06	1.9395e-06	305.38	84.668	66.11	19.189	3.4844e-06	27.14	4.1663e-05	2.7999e-05	7.6382e-06	1137.7	3.6491e-07	2.9782e-07	1200.5	236.64	3.5245e-07	3.0382e-07	292.73	82.509	62.573	18.69	3.0569e-07	26.366	-123.470	-59.537	-43.775	-124.435	10.268	14.375	-124.339	-117.499	-18.098	23.635	-117.650	-111.317	-110.993	-103.703	5.422	-104.110	-8191	255	
1592.008	1	1	0	0	0.24064	0.19966	0.22889	0.18034	0.13261	0.045093	0.3045	0.15553	0.2473	0.11777	0.34321	0.051063	0.17443	0.2072	0.051941	0.060045	-2.475	-2.9104	-2.6813	-2.8792	-2.7021	-2.8792	-3.1417	-2.6833	-2.8646	-2.9354	-2.7333	-2.8688	-2.8458	-2.9938	-3.1625	-2.4521	-64.953	-134.510	97.446	158.334	-133.222	72.099	159.230	49.741	176.069	-57.032	46.360	76.035	-24.126	-63.589	210.041	92.969	0.00015176	0.00018508	5.1462e-05	1176.9	2.2513e-06	1.6909e-06	1237.7	244	2.85e-06	1.8057e-06	304	84.073	65.934	19.236	2.0849e-06	26.847	4.2016e-05	2.7343e-05	7.805e-06	1129.3	3.4347e-07	2.9471e-07	1194.9	235.74	3.6866e-07	3.0124e-07	291.28	82.078	62.686	18.707	3.4026e-07	26.197	-126.154	-102.774	-52.430	-124.442	-10.819	-54.698	-124.493	-117.544	-9.106	40.297	-117.465	-111.427	-111.219	-103.997	19.543	-103.857	-8191	255	
1592.105	1	1	0	0	0.15771	0.22104	0.11334	0.29625	0.27195	0.21823	0.17111	0.35605	0.19945	0.15728	0.090116	0.2074	0.027025	0.18026	0.013928	0.14095	-2.3917	-2.8604	-2.7458	-3.1792	-2.9333	-2.6667	-3.3542	-2.7687	-2.8896	-3.125	-2.7104	-3.0625	-2.9125	-2.7104	-2.9417	-2.7604	143.021	200.472	178.182	162.219	-57.873	-14.861	105.753	151.585	2.313	74.128	201.840	99.688	165.302	115.390	108.893	-86.195	0.00015826	0.00026404	9.3519e-05	1181.6	1.347e-06	2.0554e-06	1237.8	243.47	1.7523e-06	1.3056e-06	305.42	84.396	65.775	19.197	1.4318e-06	27.097	4.2822e-05	2.9376e-05	8.0785e-06	1129	3.5111e-07	3.0176e-07	1192.9	235.71	3.5137e-07	2.9848e-07	290.91	82.282	62.409	18.684	3.2872e-07	26.305	-129.456	-52.635	-73.604	-124.201	-24.738	24.911	-124.132	-117.603	3.873	40.508	-117.533	-111.380	-111.344	-103.883	-27.114	-103.836	-8191	255	
1592.201	1	1	0	0	0.10131	0.088339	0.19426	0.12936	0.082263	0.16823	0.17028	0.22828	0.088557	0.13784	0.17926	0.29894	0.024362	0.1383	0.16466	0.23923	-2.4146	-2.9562	-2.475	-2.9313	-2.7375	-2.5958	-3.2708	-2.8708	-2.6208	-2.8771	-2.7583	-2.8833	-2.7	-2.8271	-2.9188	-2.8208	172.040	24.301	-39.871	113.119	7.963	57.433	151.643	175.913	-85.368	107.232	145.952	217.852	109.030	-124.408	179.135	155.529	0.00014824	0.00012776	7.7904e-05	1182.2	1.7279e-06	2.7631e-06	1240.1	243.44	1.7642e-06	2.7852e-06	305.69	84.608	65.994	19.352	1.4465e-06	26.997	4.1782e-05	2.7288e-05	7.597e-06	1129.4	3.7059e-07	2.9676e-07	1195.8	235.56	3.5115e-07	3.0426e-07	291.77	82.112	62.533	18.683	3.1987e-07	26.25	-122.172	-46.869	-53.431	-124.419	40.473	12.072	-124.219	-117.127	-17.716	34.972	-117.469	-111.387	-110.699	-103.898	6.774	-104.053	-8191	255	
1592.297	1	1	0	0	0.15075	0.18785	0.25298	0.17015	0.081695	0.085123	0.12367	0.051789	0.30038	0.19585	0.15897	0.18134	0.24822	0.21873	0.049839	0.098643	-2.2438	-2.9292	-2.5583	-2.9354	-3.0146	-2.4792	-2.9354	-2.9688	-2.875	-2.9208	-2.7438	-2.9333	-3.0542	-2.5625	-2.8604	-2.75	81.269	77.513	-97.868	37.755	195.500	223.096	-32.154	127.934	-20.988	192.131	109.444	120.629	126.126	-134.178	-76.738	95.357	0.00014095	0.00026308	0.00011145	1177.9	7.7693e-07	2.396e-06	1235.9	242.86	2.176e-06	2.0615e-06	305.99	84.544	65.883	19.136	2.8485e-06	27.023	4.1421e-05	2.9428e-05	8.0295e-06	1125.8	3.5006e-07	3.0114e-07	1193.5	235.17	3.4404e-07	3.0439e-07	291.66	82.281	62.607	18.663	3.3557e-07	26.274	-121.028	-35.249	-37.086	-124.533	10.451	-21.209	-124.281	-117.164	-23.574	-5.496	-117.285	-111.257	-111.028	-103.568	-11.460	-104.297	-8191	255	
1592.393	1	1	0	0	0.15982	0.068978	0.12185	0.29933	0.15907	0.20487	0.38901	0.33901	0.16104	0.20527	0.06995	0.32852	0.27329	0.26314	0.055797	0.12161	-2.1875	-2.9813	-2.6542	-2.9	-2.8771	-2.4833	-3.1188	-2.9896	-2.5125	-3.0625	-2.7521	-2.7417	-3.1688	-2.65	-2.9188	-2.975	-46.691	46.503	183.905	156.929	114.161	-15.676	190.722	134.050	134.594	73.324	-79.122	179.355	91.366	-5.863	224.165	-36.088	0.00014342	0.0001637	7.9172e-05	1176.7	9.5245e-07	2.8179e-06	1242.3	242.81	2.2421e-06	1.9766e-06	308.24	84.276	65.294	19.288	8.0698e-07	27.005	4.2863e-05	2.7911e-05	7.7727e-06	1128.3	3.4581e-07	3.0666e-07	1195	235.11	3.5748e-07	3.1889e-07	292.34	82.284	62.398	18.671	3.2351e-07	26.315	-129.850	-57.624	-21.317	-124.325	-59.352	9.475	-124.210	-117.417	0.550	31.818	-117.339	-111.290	-110.528	-103.756	20.996	-104.223	-8191	255	
1592.514	1	1	0	0	0.20341	0.09235	0.092863	0.16392	0.037778	0.046937	0.22728	0.15203	0.13686	0.10703	0.16166	0.10714	0.10972	0.23736	0.38657	0.12766	-2.0583	-3	-2.7896	-2.8479	-3.0917	-2.6854	-3.0479	-2.9083	-2.5646	-3.0854	-2.7854	-2.8187	-3.0771	-2.7188	-2.7438	-3.0792	-25.322	59.218	99.842	143.156	135.231	133.443	179.963	199.331	99.845	35.590	-46.166	165.446	221.080	155.372	187.350	85.505	0.00017565	0.00042016	6.9066e-05	1185.3	2.318e-06	1.9973e-06	1242.4	243.8	3.5451e-06	3.1513e-06	305.7	84.651	66.096	19.283	2.0759e-06	27.246	4.3071e-05	2.994e-05	7.6682e-06	1130.9	3.5983e-07	2.9733e-07	1198.1	235.39	3.6142e-07	3.1394e-07	291.8	82.285	62.744	18.724	3.3124e-07	26.371	-127.727	-46.303	-41.539	-124.258	-10.663	29.153	-124.228	-117.382	-14.612	20.426	-117.388	-111.200	-110.944	-104.053	-4.917	-104.032	-8191	255	
1592.610	1	1	0	0	0.16745	0.13289	0.066923	0.071649	0.20338	0.17075	0.18655	0.054788	0.22109	0.11479	0.12793	0.14311	0.11115	0.29733	0.11747	0.22039	-2.2438	-2.975	-2.7917	-2.7354	-2.9479	-2.75	-2.9437	-2.9062	-2.6167	-2.9583	-2.8792	-2.6708	-2.9042	-2.7125	-2.7979	-2.8854	79.450	125.449	83.318	-52.329	156.921	104.117	136.436	106.774	164.943	45.780	107.026	30.863	59.250	-97.286	9.768	216.253	0.00014628	0.0003401	5.1467e-05	1178.6	3.0135e-06	1.7864e-06	1242.2	242.95	1.0879e-06	1.7097e-06	303.46	84.779	65.914	19.286	1.9929e-06	26.957	4.1789e-05	2.952e-05	8.223e-06	1130.2	3.6495e-07	3.0867e-07	1198.4	235.56	3.6225e-07	3.1228e-07	291.21	82.494	62.62	18.711	3.1809e-07	26.301	-125.150	-74.683	-74.706	-124.529	-7.648	17.017	-124.208	-117.333	-32.893	13.108	-117.794	-111.300	-110.765	-103.971	16.605	-103.989	-8191	255	
1592.706	1	1	0	0	0.073476	0.077216	0.17073	0.12934	0.12745	0.12491	0.18738	0.37531	0.18148	0.1002	0.18106	0.38167	0.10759	0.37231	0.13023	0.20885	-2.1583	-3.0312	-2.775	-2.7167	-2.95	-2.8167	-2.8375	-2.9292	-2.7458	-2.7917	-2.9354	-2.6417	-3.0542	-2.8563	-2.7542	-2.9354	41.349	-109.778	91.054	130.353	62.084	-7.413	-114.952	183.186	-110.468	143.517	146.563	126.766	210.527	175.185	81.672	215.626	0.0001556	0.00034461	9.2192e-05	1182.7	1.866e-06	2.4359e-06	1242.5	243.58	2.1159e-06	1.6922e-06	305.48	84.071	65.769	19.146	3.2225e-06	27.05	4.2815e-05	2.8945e-05	7.736e-06	1131.2	3.6347e-07	3.1331e-07	1197.4	235.58	3.6086e-07	3.1044e-07	291.97	82.242	62.591	18.697	3.2876e-07	26.289	-125.786	-71.741	-46.956	-124.317	-15.246	25.352	-124.305	-117.755	-2.822	35.886	-117.692	-111.217	-111.097	-104.198	17.176	-103.657	-8191	255	
1592.778	1	1	0	0	0.061904	0.11855	0.032104	0.083154	0.031335	0.1068	0.27148	0.12614	0.27121	0.076052	0.14276	0.39976	0.12948	0.18442	0.22082	0.12447	-2.3708	-2.7438	-2.8688	-2.6146	-2.8104	-2.8937	-2.8146	-3.05	-2.55	-2.8854	-2.9313	-2.5062	-2.975	-2.7812	-2.7542	-2.9625	145.539	-16.194	-53.016	-31.338	41.369	176.988	115.033	-21.344	-130.217	-134.391	-131.144	158.795	208.429	158.536	137.026	-75.148	0.00015316	0.00027856	8.699e-05	1178	1.9649e-06	3.0071e-06	1242.7	242.62	1.6172e-06	3.1487e-06	305.53	84.1	65.988	19.276	2.7439e-06	27.162	4.2607e-05	2.853e-05	7.9017e-06	1130.9	3.5197e-07	3.1191e-07	1198.3	235.29	3.479e-07	3.1556e-07	292.04	82.38	62.628	18.746	3.3683e-07	26.301	-127.298	-71.728	-92.222	-124.368	28.098	40.823	-124.217	-117.351	15.305	31.426	-117.654	-111.213	-110.622	-103.936	2.752	-104.437	-8191	255	
1592.896	1	1	0	0	0.14127	0.25923	0.29668	0.040729	0.204	0.10882	0.25769	0.29434	0.17557	0.28955	0.15458	0.16146	0.16782	0.26568	0.14753	0.17218	-2.2917	-2.6937	-2.8458	-2.8438	-2.6896	-2.7583	-2.6063	-3.1875	-2.8146	-2.8521	-2.9104	-2.5708	-2.9729	-2.7104	-2.6667	-2.9313	150.797	175.297	-37.094	182.839	-76.955	102.145	98.534	213.496	56.090	-25.280	-128.075	193.176	-17.216	223.249	49.389	161.478	0.00012684	0.00029855	0.00010001	1182.6	2.691e-06	2.8545e-06	1239.7	244.06	1.9286e-06	2.206e-06	307.52	84.756	65.936	19.372	1.7057e-06	27.022	4.1109e-05	2.9968e-05	8.2564e-06	1131.6	3.6061e-07	3.0692e-07	1198.5	235.59	3.4955e-07	3.1767e-07	292.63	82.367	62.675	18.72	3.1935e-07	26.249	-122.312	-59.423	-64.597	-124.550	19.818	13.603	-124.218	-117.366	-33.038	28.220	-117.519	-111.483	-110.563	-103.583	-4.138	-103.777	-8191	255	
1592.993	1	1	0	0	0.087359	0.16579	0.2408	0.063445	0.086787	0.14499	0.53539	0.31737	0.069446	0.044484	0.12139	0.088792	0.33415	0.11278	0.082424	0.20477	-2.3833	-2.7333	-2.9	-2.6875	-2.7938	-2.9604	-2.8271	-3.0625	-2.7479	-2.6479	-3.0896	-2.6417	-2.7938	-2.7958	-2.6083	-2.8729	200.835	42.659	76.798	146.451	146.416	100.912	185.987	183.254	201.203	-121.622	162.254	184.176	-86.537	-96.969	163.985	174.187	0.00014748	0.00020484	0.00013089	1182.2	1.2457e-06	2.2565e-06	1238.8	244.18	2.6831e-06	2.5645e-06	305.77	84.228	66.135	19.248	2.3029e-06	26.98	4.0183e-05	2.8825e-05	7.9439e-06	1131.8	3.4464e-07	3.0438e-07	1198.8	235.69	3.5687e-07	3.1876e-07	292.32	82.414	62.744	18.742	3.0938e-07	26.324	-123.733	-98.621	-31.859	-124.269	10.244	13.237	-124.176	-117.392	-15.072	14.928	-117.545	-111.480	-110.542	-104.076	6.854	-104.180	-8191	255	
1593.089	1	1	0	0	0.20763	0.17621	0.072219	0.26336	0.13765	0.072317	0.47496	0.11589	0.14927	0.088976	0.10394	0.073752	0.13602	0.16891	0.11759	0.35825	-2.3396	-2.6312	-2.9062	-2.95	-2.7479	-2.925	-2.9458	-2.8875	-2.6833	-2.6312	-2.9667	-2.8333	-2.6833	-2.8896	-2.7521	-2.9646	33.256	211.919	199.930	223.416	128.339	-117.074	149.374	91.370	34.995	-13.403	-42.647	-1.214	218.867	157.374	56.066	152.588	0.00016971	0.00026237	0.00010418	1178.7	2.383e-06	4.0952e-06	1245.5	242.97	6.9294e-07	3.5972e-06	305.46	84.566	65.763	19.451	1.1767e-06	27.137	4.1566e-05	2.8454e-05	7.7805e-06	1130.4	3.5966e-07	2.9466e-07	1198.9	235.37	3.4408e-07	3.1881e-07	292.1	82.526	62.683	18.725	3.2417e-07	26.383	-129.470	-60.001	-48.234	-124.269	-0.878	4.904	-124.337	-117.476	5.905	22.950	-117.652	-111.396	-110.922	-103.957	15.313	-104.244	-8191	255	
1593.185	1	1	0	0	0.23652	0.051664	0.18428	0.26366	0.1814	0.19926	0.10149	0.10049	0.090942	0.1698	0.3702	0.17404	0.10699	0.33932	0.22232	0.26484	-2.3563	-2.7292	-2.9917	-2.9208	-2.5625	-2.8563	-2.8542	-3.0271	-2.7562	-2.6875	-3.0938	-2.8812	-2.8292	-2.8542	-2.65	-2.9833	60.688	143.288	98.393	172.196	-86.739	40.488	136.054	37.710	-112.268	179.024	186.288	78.618	92.297	189.953	-87.966	112.947	0.00015926	0.00029253	4.7208e-05	1174.1	1.239e-06	2.8512e-06	1238.3	241.59	2.1521e-06	1.4745e-07	307.31	84.459	65.871	19.238	1.9051e-06	27.065	4.002e-05	2.7927e-05	7.6004e-06	1128.6	3.5111e-07	2.9418e-07	1197.3	235.17	3.3788e-07	3.0418e-07	291.94	82.364	62.634	18.694	3.0192e-07	26.345	-125.689	-41.140	-14.932	-124.410	-45.386	-27.625	-124.175	-117.393	14.877	15.798	-117.421	-111.229	-110.462	-103.913	31.455	-104.122	-8191	255	
1593.306	1	1	0	0	0.16937	0.25955	0.055905	0.15415	0.12258	0.20257	0.22761	0.29574	0.037099	0.092626	0.21538	0.23855	0.057068	0.18368	0.11384	0.31545	-2.5729	-2.5812	-2.95	-2.9	-2.6521	-2.9729	-2.7042	-2.8396	-2.8979	-2.975	-2.7292	-2.8083	-2.6437	-2.9458	-2.5125	-2.9167	-49.407	211.603	-39.645	159.492	1.181	55.594	165.562	220.078	-32.872	-95.523	174.729	118.777	-67.519	174.681	11.397	219.084	0.00014835	0.00021315	5.4551e-05	1181.3	1.2964e-06	2.4076e-06	1238.7	243.43	1.6535e-06	2.2873e-06	304.18	84.599	66.361	19.192	2.2085e-06	27.101	4.1198e-05	2.7252e-05	7.4936e-06	1130.6	3.4364e-07	2.9278e-07	1196	235.45	3.3116e-07	2.9283e-07	291.89	82.299	62.668	18.742	3.1384e-07	26.341	-121.253	-36.578	-34.060	-124.343	-5.701	8.984	-124.451	-117.448	26.645	37.225	-117.514	-111.375	-110.863	-104.211	27.899	-104.000	-8191	255	
1593.377	1	1	0	0	0.20271	0.20023	0.10243	0.15567	0.10628	0.18618	0.22878	0.087493	0.10837	0.0056467	0.10991	0.11719	0.33307	0.11408	0.11614	0.055424	-2.3125	-2.55	-2.8333	-3.0146	-2.5104	-3.0062	-2.9688	-2.7271	-3.0875	-2.6229	-2.9833	-2.9938	-2.6625	-2.8917	-2.8458	-2.8583	174.164	117.489	-123.792	213.213	61.597	3.928	198.577	-76.019	12.296	57.424	-54.652	-1.670	123.688	180.635	209.266	131.458	0.0001232	0.00022183	7.9611e-05	1177.4	1.5295e-06	1.7661e-06	1243	243.01	1.7932e-06	2.621e-06	305.23	84.074	65.878	19.283	2.3948e-06	27.057	3.8563e-05	2.6225e-05	7.3769e-06	1129.6	3.4386e-07	2.7886e-07	1197.3	235.04	3.3238e-07	2.8573e-07	291.87	82.273	62.516	18.696	2.9758e-07	26.276	-125.983	-55.097	-40.281	-124.519	-13.961	-44.599	-124.210	-117.264	-24.842	3.455	-117.734	-111.169	-110.804	-103.949	-21.927	-104.262	-8191	255	
1593.473	1	1	0	0	0.28814	0.26553	0.098394	0.12637	0.21602	0.20098	0.16999	0.20322	0.2158	0.25911	0.31219	0.032374	0.14601	0.11895	0.028152	0.18697	-2.5729	-2.6604	-2.8854	-3.1854	-2.8292	-2.9542	-2.9146	-2.9021	-3.1458	-2.5604	-2.9271	-3.1083	-2.7083	-2.7646	-2.7521	-2.8271	-123.949	-33.986	-62.896	147.482	-130.507	203.250	187.294	-104.164	-97.953	212.237	135.375	-24.791	34.337	198.400	-80.929	127.639	0.00015231	0.00025616	9.8395e-05	1184.9	1.7203e-06	3.1622e-06	1241.5	242.72	1.8664e-06	3.5047e-06	304.4	84.595	65.664	19.205	1.2813e-06	27.026	4.0365e-05	2.7495e-05	7.7883e-06	1129.9	3.367e-07	2.7356e-07	1196.1	235.23	3.368e-07	2.9765e-07	291.29	82.355	62.468	18.704	3.0317e-07	26.296	-122.927	-28.836	-32.734	-124.506	-4.247	-8.123	-124.110	-117.340	-10.745	-6.741	-117.428	-111.315	-110.884	-103.599	-25.947	-104.516	-8191	255	
1593.594	1	1	0	0	0.14063	0.2533	0.22359	0.16425	0.12153	0.42605	0.223	0.11297	0.14282	0.22545	0.14905	0.17792	0.30447	0.06813	0.20321	0.064957	-2.5479	-2.5958	-2.7979	-2.8583	-2.5875	-2.8375	-2.6917	-2.9813	-2.8708	-2.4771	-3.0083	-3.0896	-2.5021	-2.8312	-2.8146	-2.6604	-72.974	107.918	-78.779	115.551	26.376	98.583	170.613	221.269	-99.818	-27.094	91.808	-2.296	-126.502	-11.486	212.538	41.001	0.0001359	0.00025271	0.00010386	1175.3	1.6494e-06	1.3801e-06	1234.7	241.94	7.6726e-07	2.4984e-06	306.49	84.543	65.756	19.114	1.3855e-06	27.159	3.9079e-05	2.6173e-05	7.6159e-06	1128.6	3.3197e-07	2.8534e-07	1195.2	234.5	3.4478e-07	2.9244e-07	291.64	82.357	62.605	18.667	3.0192e-07	26.341	-129.606	-58.965	-16.230	-124.534	-12.452	67.491	-124.121	-117.204	-48.487	-0.625	-117.293	-111.654	-110.961	-103.880	-13.564	-104.081	-8191	255	
1593.690	1	1	0	0	0.22353	0.088568	0.095151	0.12806	0.16782	0.16384	0.3246	0.064713	0.1618	0.11026	0.17833	0.38918	0.20622	0.062856	0.096383	0.13742	-2.3271	-2.6562	-2.6042	-2.95	-2.5958	-2.8521	-2.8604	-2.6	-2.8771	-2.5479	-2.7438	-2.9458	-2.6667	-2.9437	-2.725	-2.6292	218.214	121.970	119.252	187.245	73.949	-53.861	161.720	-134.460	157.914	85.359	211.400	137.446	113.265	171.170	199.919	149.919	0.00013879	0.00019956	0.00010227	1180.5	1.3781e-06	2.1999e-06	1243.3	243.29	1.3644e-06	1.8232e-06	304.9	84.281	65.685	19.177	1.7433e-06	27.063	3.9131e-05	2.6684e-05	7.8205e-06	1129.7	3.4112e-07	2.7925e-07	1196.6	235.04	3.3394e-07	2.923e-07	291.31	82.122	62.423	18.675	3.0153e-07	26.313	-130.729	-82.201	-66.548	-124.591	-8.346	7.737	-124.563	-117.393	-12.249	41.416	-117.624	-111.375	-110.712	-103.895	-34.628	-103.702	-8191	255	
1593.786	1	1	0	0	0.096802	0.19227	0.2127	0.20619	0.18011	0.22043	0.19728	0.27105	0.12675	0.17086	0.22218	0.21242	0.1653	0.15083	0.27122	0.18133	-2.4188	-2.6708	-2.675	-3.0979	-2.6854	-2.8896	-2.9646	-2.7458	-2.8667	-2.7146	-2.7021	-3.0583	-2.5792	-2.8187	-2.6875	-2.5667	-6.385	181.431	-90.420	183.603	130.495	-74.206	132.347	138.670	-60.843	161.173	-83.419	148.302	180.200	161.251	19.098	190.885	0.00013963	0.00029602	8.4959e-05	1176.8	1.8353e-06	2.2292e-06	1241.6	243.57	1.0532e-06	2.4097e-06	304.79	84.802	66.155	19.27	2.1838e-06	27.19	3.9596e-05	2.6984e-05	7.5226e-06	1128.3	3.413e-07	2.9878e-07	1198.4	235.44	3.3749e-07	2.9804e-07	291.69	82.413	62.685	18.735	3.0326e-07	26.299	-118.026	-60.459	-71.192	-124.494	-31.094	-0.551	-124.299	-117.306	4.224	1.303	-117.599	-110.844	-110.905	-103.973	-24.845	-104.034	-8191	255	
1593.905	1	1	0	0	0.21307	0.40474	0.15181	0.18021	0.16745	0.36398	0.297	0.12787	0.08269	0.10879	0.066715	0.21503	0.10195	0.0094969	0.13431	0.098629	-2.3542	-2.7354	-2.7021	-3.1979	-2.7333	-2.7771	-3.0104	-2.6167	-2.5917	-2.8479	-2.5979	-2.8854	-2.4813	-2.6917	-2.9146	-2.5917	-82.794	76.822	79.889	104.752	33.677	-12.954	152.782	208.299	-123.681	3.945	68.690	51.127	-134.466	123.634	159.331	181.253	0.00015183	0.00039522	7.193e-05	1179.9	9.4349e-07	1.0209e-06	1237.2	243.7	1.4718e-06	2.7701e-06	306.52	83.933	65.052	19.244	1.6261e-06	26.851	4.0982e-05	2.9061e-05	7.696e-06	1129.3	3.5688e-07	2.8998e-07	1197.2	235.14	3.4872e-07	3.0238e-07	291.64	82.118	62.417	18.707	3.0235e-07	26.264	-123.813	-68.861	-71.481	-124.336	2.554	8.253	-124.223	-117.250	-18.735	8.118	-117.406	-111.138	-110.924	-104.015	-9.382	-103.769	-8191	255	
1594.001	1	1	0	0	0.29526	0.087113	0.11465	0.39134	0.034463	0.095722	0.30677	0.039097	0.053103	0.1885	0.25575	0.080201	0.29501	0.13887	0.11957	0.11259	-2.4813	-2.8187	-2.6562	-3.0563	-2.7687	-2.6667	-3.1396	-2.6354	-2.9917	-2.9271	-2.7896	-3.0125	-2.8563	-2.5396	-2.9792	-2.625	29.823	-33.681	-24.932	176.595	60.239	116.483	118.777	-122.813	114.497	109.134	205.628	212.171	98.286	82.866	-62.540	-132.015	0.00014765	0.00040835	7.915e-05	1177.9	1.8504e-06	3.4067e-06	1237.9	242.67	1.625e-06	3.2974e-06	306.64	84.567	65.439	19.313	2.1173e-06	27.073	4.1376e-05	2.849e-05	7.5615e-06	1127.9	3.4607e-07	2.8941e-07	1195	234.92	3.3307e-07	2.9476e-07	291.78	82.452	62.514	18.71	3.0504e-07	26.335	-124.409	-27.832	-57.750	-124.442	0.711	-8.150	-124.414	-117.759	-17.287	0.231	-117.365	-111.331	-111.157	-103.641	29.039	-104.018	-8191	255	
1594.073	1	1	0	0	0.088845	0.12594	0.065238	0.3181	0.23992	0.055935	0.049625	0.44729	0.20976	0.040839	0.1129	0.13432	0.070258	0.1552	0.041529	0.058892	-2.25	-2.9667	-2.525	-3.0917	-2.7562	-2.7562	-3.0312	-2.8083	-2.6521	-2.875	-2.7417	-2.9271	-2.9562	-2.8042	-2.9146	-2.7354	163.153	153.535	83.005	216.033	161.083	106.086	99.616	162.267	115.713	214.884	-73.777	7.394	25.291	-93.107	190.032	63.004	0.00012697	0.0002858	9.1529e-05	1178.8	1.937e-06	2.4549e-06	1243.9	242.88	1.6552e-06	1.9793e-06	305.1	84.633	65.905	19.222	1.7785e-06	27.008	4.1105e-05	2.8482e-05	8.0395e-06	1128.2	3.4638e-07	2.9532e-07	1198.1	235.2	3.5379e-07	2.8424e-07	291.4	82.434	62.683	18.744	3.0868e-07	26.311	-123.448	-48.266	-41.207	-124.193	-21.202	42.480	-124.417	-117.385	3.421	20.216	-117.405	-111.333	-111.175	-103.909	33.132	-104.448	-8191	255	
1594.194	1	1	0	0	0.057187	0.1706	0.12022	0.12136	0.12695	0.065437	0.19355	0.18183	0.059009	0.11207	0.11017	0.20394	0.25182	0.09787	0.09742	0.22759	-2.1417	-2.9875	-2.5438	-2.9146	-2.7917	-2.5354	-3.0521	-2.6854	-2.7458	-2.9042	-2.7062	-2.9146	-2.8917	-2.5104	-2.8688	-2.8063	165.793	56.922	-94.169	-109.606	16.907	41.592	197.939	180.960	137.615	23.393	-124.711	49.389	122.498	70.644	24.943	-93.820	0.00014877	0.00032433	0.00011852	1177.8	2.3462e-06	2.1072e-06	1240.4	243.73	2.2358e-06	3.0731e-06	304.83	84.281	66.123	19.381	2.1415e-06	27.122	4.0811e-05	2.8066e-05	7.6348e-06	1130.9	3.4954e-07	3.0845e-07	1198.9	235.6	3.4937e-07	2.9984e-07	291.58	82.376	62.839	18.763	3.223e-07	26.412	-123.457	-55.134	-48.480	-124.517	-32.725	-2.992	-124.285	-117.595	-1.054	55.562	-117.588	-111.493	-110.775	-103.727	-1.920	-104.263	-8191	255	
1594.290	1	1	0	0	0.14068	0.21903	0.20443	0.12566	0.066402	0.14707	0.093085	0.20172	0.095912	0.13017	0.11255	0.21112	0.30784	0.17308	0.1126	0.17138	-2.3063	-2.8542	-2.5854	-2.9104	-2.8125	-2.2792	-3.0271	-2.6562	-2.7021	-3.0479	-2.8396	-2.7438	-2.9729	-2.5563	-2.9917	-2.7708	24.287	112.521	173.443	140.589	-97.263	-87.271	170.101	193.526	182.273	-117.330	140.318	160.567	156.869	-48.319	60.895	-117.684	0.00015029	0.0003216	5.1147e-05	1180.6	1.2161e-06	2.5592e-06	1241.5	244.25	1.6953e-06	2.5486e-06	304.81	84.816	65.305	19.34	2.2347e-06	27.2	4.1369e-05	2.7831e-05	7.875e-06	1131.7	3.4733e-07	3.106e-07	1199.7	235.62	3.5887e-07	2.9108e-07	291.57	82.547	62.563	18.739	3.2577e-07	26.42	-127.786	-32.047	-69.532	-124.398	19.687	8.898	-124.508	-117.279	17.079	21.990	-117.590	-111.261	-112.107	-103.530	13.360	-104.184	-8191	255	
1594.386	1	1	0	0	0.32455	0.096216	0.2471	0.056563	0.09133	0.13297	0.36593	0.36338	0.095248	0.16472	0.2515	0.23045	0.089913	0.035198	0.19229	0.25765	-2.2146	-2.9521	-2.6562	-2.8979	-2.8688	-2.4917	-3.1833	-2.8146	-2.7542	-2.9667	-2.8354	-2.8896	-2.9562	-2.6188	-2.7896	-2.7771	180.909	163.637	-98.046	213.256	51.264	85.312	132.186	-93.874	-123.777	16.272	-102.911	-113.256	-17.936	88.846	-64.769	86.668	0.00014364	0.00020174	6.7849e-05	1185	2.4333e-06	2.0885e-06	1242.3	244.24	1.3893e-06	2.8052e-06	305.37	84.913	65.987	19.303	2.5255e-06	27.282	4.1811e-05	2.9029e-05	7.3914e-06	1132.8	3.4798e-07	3.0469e-07	1201	235.8	3.5089e-07	2.9314e-07	291.94	82.566	62.824	18.752	3.2534e-07	26.48	-125.667	-32.012	-51.619	-124.185	18.803	41.360	-124.213	-117.395	-11.782	15.283	-117.659	-111.284	-110.870	-103.923	-7.507	-103.980	-8191	255	
1594.482	1	1	0	0	0.086612	0.22834	0.20938	0.25811	0.090141	0.075297	0.1837	0.10722	0.023836	0.20272	0.090965	0.32905	0.16849	0.13617	0.10321	0.022659	-2.2167	-2.9021	-2.7167	-2.9313	-2.8917	-2.4896	-3.1021	-2.8812	-2.6333	-2.8708	-2.8354	-2.5792	-2.6937	-2.6333	-2.825	-2.7979	157.267	57.315	-58.522	-127.750	-10.724	-10.925	156.263	129.010	34.380	-39.613	4.980	186.864	193.674	223.935	-115.459	177.368	0.00014226	0.00034043	9.4047e-05	1187.1	2.7886e-07	3.4443e-06	1242.7	244.58	2.0632e-06	3.3953e-06	304.46	84.862	66.597	19.332	1.5596e-06	27.275	4.0856e-05	2.7595e-05	7.6004e-06	1134.6	3.4616e-07	3.1581e-07	1200.3	236.23	3.469e-07	3.0439e-07	292.17	82.501	62.867	18.785	3.2959e-07	26.507	-124.712	-29.162	-52.460	-124.223	-20.951	5.644	-124.391	-117.320	-27.136	14.117	-117.293	-111.307	-110.979	-103.932	-11.437	-104.429	-8191	255	
1594.603	1	1	0	0	0.12133	0.17988	0.097314	0.099364	0.18157	0.056679	0.29549	0.1113	0.15817	0.15078	0.14964	0.21807	0.12586	0.064146	0.17402	0.17449	-2.1604	-2.7667	-2.7667	-2.9417	-2.9146	-2.7146	-2.8937	-2.8667	-2.6583	-2.8438	-2.7708	-2.7146	-2.8146	-2.5271	-2.6958	-2.8292	-39.780	57.593	121.466	211.264	184.656	45.185	66.467	24.751	96.313	-0.121	197.405	-78.604	193.322	-107.245	118.209	200.874	0.00014642	0.00036763	5.6625e-05	1182.1	1.379e-06	1.7498e-06	1243.6	243.17	2.6662e-06	2.0995e-06	306.54	84.563	66.365	19.347	2.9561e-06	27.122	4.1845e-05	2.8925e-05	7.5837e-06	1131.8	3.5783e-07	2.99e-07	1199.1	235.77	3.5509e-07	3.0128e-07	292.53	82.495	62.865	18.749	3.1775e-07	26.411	-124.882	-69.022	-58.091	-124.466	20.623	16.267	-124.140	-117.345	-28.936	-5.069	-117.526	-111.382	-111.091	-103.766	2.162	-103.633	-8191	255	
1594.674	1	1	0	0	0.25844	0.24933	0.088684	0.042162	0.18738	0.25446	0.21601	0.24634	0.15981	0.13692	0.054017	0.27761	0.0040632	0.22798	0.17134	0.090103	-2.2042	-2.8208	-2.7417	-2.6646	-3.1	-2.675	-2.8604	-3.1083	-2.5646	-2.8937	-2.9833	-2.5125	-2.8604	-2.6146	-2.6854	-2.925	-67.159	14.018	145.628	-114.825	169.781	79.820	141.607	-132.125	78.493	224.250	-107.465	-125.252	71.615	166.965	51.572	-11.342	0.00015393	0.00034475	8.1915e-05	1181.9	1.6209e-06	1.7869e-06	1238.6	244.12	3.1405e-06	2.8637e-06	306.14	84.95	66.145	19.36	1.4043e-06	27.151	4.0986e-05	2.7379e-05	7.6871e-06	1132.2	3.5367e-07	2.9252e-07	1197.9	235.58	3.5323e-07	3.0939e-07	292.09	82.684	62.707	18.754	3.3045e-07	26.458	-126.293	-48.171	-30.620	-124.376	-35.608	74.637	-124.537	-117.347	-12.356	26.074	-117.796	-111.210	-110.630	-103.991	-18.996	-103.906	-8191	255	
1594.771	1	1	0	0	0.28509	0.30312	0.049121	0.11237	0.049403	0.11035	0.15814	0.1686	0.080785	0.24755	0.15143	0.24895	0.092939	0.1483	0.21295	0.15046	-2.1604	-2.8417	-2.7021	-2.8896	-2.9188	-2.5625	-2.8083	-3.1312	-2.6729	-2.7271	-2.9188	-2.7875	-2.9583	-2.7708	-2.6708	-3.0958	104.448	-31.930	7.291	161.793	197.710	-128.661	215.913	70.135	141.703	200.547	133.935	116.500	-83.439	49.120	-116.379	-63.716	0.00015355	0.00041186	8.0775e-05	1179.1	2.1389e-06	2.0027e-06	1244.8	244.55	1.8802e-06	2.7626e-06	304.99	84.906	66.25	19.32	1.4634e-06	27.228	4.1592e-05	2.8681e-05	7.5848e-06	1130.3	3.3765e-07	3.0014e-07	1200.2	235.98	3.5327e-07	3.04e-07	292.27	82.682	62.861	18.721	3.1575e-07	26.474	-131.348	-50.176	-31.989	-124.483	8.339	7.282	-124.250	-117.233	-26.936	1.411	-117.782	-110.996	-110.748	-104.503	38.699	-104.220	-8191	255	
1594.867	1	1	0	0	0.17612	0.10427	0.27061	0.13062	0.14039	0.10709	0.22297	0.040151	0.26936	0.042009	0.11396	0.13866	0.13165	0.20791	0.122	0.44284	-2.2854	-2.6833	-2.7896	-2.8729	-2.8312	-2.7375	-2.8917	-3.0375	-2.8083	-2.7396	-3.0333	-2.6604	-2.9125	-2.7792	-2.5312	-3.0563	-112.916	35.714	66.168	121.853	126.088	3.693	167.124	-86.818	72.518	170.120	158.549	165.205	75.186	187.984	-105.249	135.119	0.00013896	0.00028318	6.43e-05	1182.1	1.0526e-06	3.3975e-06	1240.5	244.44	2.2551e-06	1.8462e-06	306.26	85.046	65.744	19.231	1.9593e-06	27.222	4.1644e-05	2.829e-05	7.378e-06	1131	3.4546e-07	3.1993e-07	1198.8	236.2	3.5011e-07	3.0198e-07	292.16	82.608	62.673	18.734	3.1211e-07	26.449	-122.063	-65.489	-58.760	-124.393	18.726	16.817	-124.441	-117.378	-13.315	10.031	-117.589	-110.905	-111.108	-103.943	5.013	-104.452	-8191	255	
1594.986	1	1	0	0	0.15199	0.13542	0.076567	0.29197	0.31611	0.045453	0.019498	0.24966	0.15498	0.17922	0.094423	0.18446	0.27157	0.22875	0.28049	0.11124	-2.3958	-2.5354	-2.9208	-2.7313	-2.8438	-2.7521	-2.8771	-2.9688	-2.8563	-2.4708	-2.9	-2.7875	-2.7875	-2.8146	-2.5604	-2.9729	89.021	165.582	-84.861	160.409	-47.960	-32.822	-105.219	-76.305	200.766	-85.195	104.585	-37.934	201.870	181.431	168.116	-98.499	0.00013797	0.00024087	9.0015e-05	1182.7	1.5947e-06	2.7093e-06	1244.8	243.21	1.426e-06	2.7985e-06	303.49	84.485	65.664	19.286	1.8067e-06	27.086	4.2205e-05	3.103e-05	7.9006e-06	1130.7	3.4546e-07	2.9812e-07	1200.8	235.6	3.5119e-07	3.0163e-07	291.93	82.576	62.684	18.758	3.3514e-07	26.4	-129.349	-34.589	-61.850	-124.461	-16.575	0.551	-124.089	-117.218	-33.216	8.242	-117.613	-111.066	-111.008	-104.053	14.365	-103.977	-8191	255	
1595.082	1	1	0	0	0.15876	0.12827	0.12443	0.088336	0.22323	0.19534	0.3064	0.12993	0.29324	0.06979	0.19121	0.25867	0.138	0.21822	0.23675	0.26462	-2.3229	-2.6437	-2.8417	-2.8354	-2.6917	-2.8917	-2.9667	-3.0583	-2.6458	-2.8479	-2.9792	-2.8021	-2.8625	-2.9292	-2.6458	-2.8187	37.810	215.201	-111.858	133.236	51.885	193.744	149.115	-33.319	23.683	-79.629	160.658	132.382	125.810	179.605	153.535	169.886	0.00015777	0.00011629	7.9824e-05	1180.5	1.0313e-06	2.6914e-06	1243.6	244.48	1.9941e-06	1.5099e-06	305.22	84.33	65.933	19.498	1.9944e-06	27.035	4.0678e-05	2.9552e-05	7.8761e-06	1130.4	3.5163e-07	3.1231e-07	1200.9	236	3.5973e-07	2.9778e-07	292.05	82.419	62.812	18.858	3.092e-07	26.411	-124.604	-60.450	-57.063	-124.315	-30.764	20.519	-124.284	-117.002	-5.161	7.140	-117.770	-111.334	-110.672	-103.983	-5.982	-104.082	-8191	255	
1595.178	1	1	0	0	0.25582	0.20585	0.18535	0.1923	0.11912	0.11186	0.35426	0.20417	0.17141	0.13864	0.19399	0.14755	0.10636	0.10952	0.11121	0.33286	-2.4771	-2.5812	-2.8312	-2.7479	-2.6937	-2.8229	-2.7479	-2.9021	-2.8625	-2.6583	-3.0354	-2.7167	-2.7146	-3.0333	-2.6479	-2.8875	108.038	29.923	158.454	184.281	18.463	16.214	183.493	198.550	61.142	21.979	-54.854	0.741	31.946	-48.562	-10.746	140.066	0.0001306	0.00032033	0.00011849	1180.2	2.1052e-06	1.8821e-06	1239.4	244.35	1.7521e-06	2.6503e-06	305.85	84.819	66.063	19.334	2.5934e-06	27.003	4.1109e-05	2.9029e-05	8.2341e-06	1132.2	3.5523e-07	2.9922e-07	1200.2	236.07	3.6611e-07	3.0952e-07	292.12	82.633	62.974	18.807	3.2278e-07	26.417	-120.298	-64.318	-46.815	-124.531	1.083	-1.302	-124.325	-117.375	-16.690	11.950	-117.826	-111.235	-111.079	-103.700	28.618	-104.192	-8191	255	
1595.274	1	1	0	0	0.15252	0.26991	0.15808	0.31601	0.10472	0.25151	0.42345	0.22421	0.14023	0.1156	0.27877	0.206	0.28555	0.018959	0.19693	0.20103	-2.4417	-2.4437	-2.8937	-2.8083	-2.6	-2.9583	-2.6729	-2.825	-2.9104	-2.7604	-2.9833	-2.7417	-2.7271	-3.0229	-2.6417	-2.6937	5.131	-104.562	-79.610	191.460	-61.318	-14.360	185.125	186.231	119.844	-63.648	176.917	-28.767	85.552	207.787	53.084	150.291	0.00013425	0.00018576	5.8459e-05	1181.1	1.6875e-06	2.6777e-06	1243	243.71	1.6658e-06	2.3799e-06	305.76	84.722	65.972	19.426	1.8577e-06	26.942	4.0139e-05	2.8518e-05	7.6437e-06	1132.8	3.4841e-07	2.9576e-07	1199.6	235.8	3.5939e-07	3.1464e-07	292.28	82.599	62.823	18.801	3.2026e-07	26.316	-128.312	-43.938	-77.940	-124.538	-23.732	-0.986	-124.339	-117.446	4.635	21.632	-117.392	-111.433	-111.098	-104.014	9.491	-104.086	-8191	255	
1595.370	1	1	0	0	0.2434	0.085131	0.17865	0.17767	0.019183	0.23091	0.19302	0.016619	0.099135	0.10117	0.11288	0.10658	0.074312	0.21936	0.1276	0.26849	-2.4146	-2.5187	-2.8812	-2.9688	-2.5521	-2.95	-2.9437	-2.7083	-2.8625	-2.6667	-3.0271	-3.0958	-2.6312	-2.9375	-2.4875	-2.5479	123.771	120.469	68.983	172.834	181.673	-64.986	64.628	-7.793	197.744	-119.610	101.928	152.695	191.163	93.157	73.393	-99.906	0.00014295	0.00026224	0.00011935	1178.8	1.5465e-06	1.487e-06	1245.2	243.88	2.3199e-06	3.047e-06	306.93	84.629	66.027	19.437	1.1227e-06	27.102	4.0176e-05	2.8342e-05	7.8261e-06	1130.4	3.6473e-07	3.0136e-07	1201.9	235.95	3.3316e-07	3.0978e-07	292.91	82.601	62.942	18.812	3.2833e-07	26.401	-124.992	-47.857	-32.710	-124.430	-43.177	10.978	-124.202	-117.392	-11.666	-21.246	-117.539	-111.415	-110.775	-104.079	-0.717	-103.924	-8191	255	
1595.466	1	1	0	0	0.023082	0.28192	0.06378	0.15748	0.10472	0.24906	0.37979	0.39446	0.21418	0.18932	0.39162	0.18569	0.059373	0.14961	0.28039	0.095468	-2.3979	-2.5833	-2.7417	-2.8438	-2.6417	-2.8917	-2.6792	-2.8333	-2.9813	-2.6521	-2.8521	-3.0583	-2.6396	-2.9354	-2.7667	-2.5625	-90.702	150.762	27.322	-100.812	102.195	192.249	128.127	157.321	50.937	-84.582	-112.115	195.067	98.613	159.332	-33.930	-110.238	0.00014749	0.00022179	6.2804e-05	1185.8	1.1347e-06	4.1738e-06	1244.1	243.82	2.1899e-06	3.1467e-06	303.94	84.74	65.558	19.312	2.5638e-06	27.195	4.0124e-05	2.8721e-05	7.7727e-06	1132.9	3.5909e-07	3.1966e-07	1202.2	235.93	3.5843e-07	3.1692e-07	292	82.748	62.7	18.787	3.4221e-07	26.413	-123.556	-75.573	-34.337	-124.259	86.227	13.375	-124.433	-117.330	-26.363	4.957	-117.604	-111.440	-111.114	-104.077	-36.963	-104.086	-8191	255	
1595.587	1	1	0	0	0.2137	0.21047	0.13921	0.21748	0.25372	0.15531	0.12553	0.3344	0.18045	0.2323	0.122	0.15413	0.032839	0.29561	0.094622	0.22537	-2.4417	-2.5875	-2.8438	-2.9854	-2.6562	-3.0521	-2.8354	-2.6417	-3.0083	-2.6104	-2.9	-2.8937	-2.675	-2.9396	-2.725	-2.5187	-94.465	166.776	38.109	35.723	28.590	121.514	88.663	134.870	-94.756	92.965	176.328	63.861	14.409	153.962	-69.440	135.018	0.00014722	0.00031916	0.00012683	1181.1	1.251e-06	2.7689e-06	1240.5	243.56	7.0105e-07	1.6349e-06	304.74	85.104	66.105	19.312	2.0682e-06	27.247	4.0834e-05	2.8038e-05	8.1107e-06	1132.9	3.4256e-07	3.2198e-07	1200.4	235.71	3.6294e-07	3.0812e-07	292.19	82.709	62.759	18.797	3.1493e-07	26.516	-119.131	-44.966	-57.131	-124.457	3.268	-2.505	-124.482	-117.411	0.735	4.962	-117.596	-111.448	-111.502	-104.037	19.775	-104.002	-8191	255	
1595.683	1	1	0	0	0.10926	0.11361	0.054851	0.47507	0.11703	0.19692	0.13518	0.17732	0.21076	0.33468	0.17972	0.20835	0.11936	0.13348	0.070779	0.1259	-2.4979	-2.75	-2.6	-2.8042	-2.4479	-2.9104	-2.8937	-2.8417	-2.8583	-2.5458	-2.9542	-3.1771	-2.6875	-2.8104	-2.8521	-2.6562	-76.100	133.615	27.555	164.225	-97.453	114.236	156.253	211.733	136.730	136.521	111.210	118.283	-103.416	204.829	-91.261	-30.328	0.00015354	0.00043076	7.2272e-05	1184	7.6266e-07	1.4954e-06	1251.1	244.7	1.6461e-06	2.4239e-06	307.2	84.617	66.601	19.291	2.2137e-06	27.458	4.1124e-05	2.8154e-05	7.6604e-06	1133.8	3.6196e-07	3.0907e-07	1202.3	236.24	3.4894e-07	3.1285e-07	292.91	82.671	63.04	18.784	3.1974e-07	26.507	-125.948	-59.260	-70.606	-124.276	10.615	18.170	-124.374	-117.318	-7.932	9.024	-117.530	-111.465	-110.768	-103.924	11.404	-104.026	-8191	255	
1595.777	1	1	0	0	0.20247	0.10469	0.17837	0.20284	0.10597	0.37061	0.23921	0.028678	0.21491	0.17082	0.22164	0.038134	0.10708	0.21657	0.21411	0.20045	-2.4021	-2.5687	-2.6312	-3.1167	-2.6375	-2.7938	-3.0354	-2.6417	-2.6146	-2.775	-2.5938	-3.0333	-2.4771	-2.575	-2.8458	-2.5583	-127.815	13.651	10.560	-115.276	167.762	-126.888	150.608	-43.656	178.525	91.453	178.760	82.095	172.227	193.346	172.714	-123.439	0.00015852	0.00030327	0.00011871	1181.4	1.806e-06	3.3112e-06	1247	243.42	2.3889e-06	3.335e-06	306.31	84.588	66.036	19.317	2.9006e-06	27.208	4.1982e-05	2.954e-05	8.4554e-06	1134.2	3.7827e-07	3.236e-07	1203.3	236.19	3.808e-07	3.1767e-07	292.89	82.595	62.918	18.834	3.2777e-07	26.493	-127.674	-55.834	-61.232	-124.475	-18.128	6.184	-124.428	-117.206	8.723	-3.907	-117.422	-111.452	-110.801	-103.710	-1.177	-104.220	-8191	255	
1595.875	1	1	0	0	0.32909	0.0603	0.28047	0.23019	0.038873	0.13568	0.32704	0.25448	0.058553	0.16789	0.1723	0.20712	0.13822	0.21816	0.10148	0.020245	-2.3792	-2.7083	-2.7	-3.0792	-2.5812	-2.8896	-3.0021	-2.7167	-2.9042	-2.8708	-2.5354	-3.0375	-2.4396	-2.7333	-2.9833	-2.5438	187.088	63.126	47.597	190.140	-93.654	208.990	182.725	-98.463	63.451	-82.174	-79.706	159.668	-34.392	75.033	48.117	-49.184	0.00014822	0.00035772	0.00011878	1185.2	1.3166e-06	2.6167e-06	1247.6	243.18	2.5798e-06	2.7918e-06	305.91	84.893	65.923	19.413	2.5743e-06	27.243	4.1417e-05	2.9333e-05	8.3364e-06	1136.4	3.5957e-07	3.2549e-07	1205.4	235.93	3.6628e-07	3.22e-07	293.39	82.772	62.861	18.876	3.2651e-07	26.494	-127.131	-65.085	-52.949	-124.513	-25.262	0.243	-124.540	-117.384	5.064	15.858	-117.821	-111.339	-111.044	-104.109	-10.643	-104.160	-8191	255	
1595.970	1	1	0	0	0.21406	0.24753	0.026669	0.14825	0.083277	0.1948	0.10154	0.26959	0.16543	0.09315	0.17851	0.31791	0.29849	0.11794	0.049263	0.085812	-2.3812	-2.6917	-2.4667	-3.0396	-2.8625	-2.6375	-3.0146	-2.7438	-2.7167	-2.7854	-2.6813	-3.0458	-2.6188	-2.7021	-2.7729	-2.5687	142.850	180.536	207.222	110.876	-86.377	7.516	215.851	118.713	59.980	131.922	-89.886	211.874	-86.613	121.799	191.774	202.919	0.00014632	0.00015112	8.1065e-05	1188.4	2.0073e-06	2.5952e-06	1245.7	245.51	1.9112e-06	3.9558e-06	304.61	85.537	65.955	19.345	1.2122e-06	27.305	4.3101e-05	2.9021e-05	8.2497e-06	1137.5	3.5814e-07	3.1944e-07	1204	236.84	3.6086e-07	3.2914e-07	293.02	82.979	62.937	18.82	3.4355e-07	26.536	-122.200	-47.300	-29.638	-124.523	11.512	9.322	-124.405	-117.191	-1.629	12.839	-117.783	-111.403	-111.034	-103.792	18.469	-104.551	-8191	255	
1596.066	1	1	0	0	0.11146	0.20655	0.10817	0.28441	0.13452	0.063843	0.21518	0.24034	0.15954	0.14481	0.11262	0.29434	0.2865	0.080134	0.14346	0.14895	-2.2917	-2.8042	-2.6	-3.175	-2.8208	-2.7167	-2.9458	-2.8771	-2.8688	-2.9938	-2.6917	-2.9479	-2.6646	-2.5917	-2.8958	-2.7292	71.072	-72.691	58.362	180.790	19.034	160.144	127.894	161.995	25.995	78.220	-16.070	212.342	81.306	215.512	113.044	-33.660	0.00015769	0.0003783	0.00012072	1185.5	2.1442e-06	1.7244e-06	1248.1	245.73	2.0993e-06	1.1592e-06	306.74	84.787	65.722	19.372	2.9146e-06	27.108	4.3766e-05	2.9748e-05	8.5521e-06	1137.8	3.6486e-07	3.215e-07	1204.3	237.08	3.6506e-07	3.1259e-07	293.17	82.803	62.867	18.834	3.2868e-07	26.4	-125.839	-70.345	-51.932	-124.556	-1.161	22.295	-124.260	-117.479	-10.991	22.060	-117.608	-111.247	-110.947	-104.145	10.450	-104.363	-8191	255	
1596.162	1	1	0	0	0.21254	0.06149	0.12554	0.15344	0.1435	0.1941	0.35406	0.29074	0.098452	0.11694	0.29555	0.12634	0.079283	0.094812	0.14593	0.21498	-2.5104	-2.8187	-2.6771	-2.9875	-2.8417	-2.6063	-3.125	-2.775	-2.6521	-2.9042	-2.6979	-2.6875	-2.8312	-2.4938	-2.7438	-2.6708	-72.917	71.922	101.335	156.499	139.913	59.870	118.735	-92.331	-121.431	133.865	193.823	-78.775	-40.181	213.272	-65.932	68.529	0.00013956	0.00026542	0.00011923	1185.9	1.3513e-06	1.8828e-06	1251.7	243.65	1.7087e-06	3.0561e-06	305.96	84.674	66.734	19.417	3.1926e-06	27.216	4.1744e-05	3.1517e-05	8.5832e-06	1136.4	3.699e-07	3.2592e-07	1204.7	236.07	3.8262e-07	3.1618e-07	293.64	82.77	63.202	18.839	3.3063e-07	26.413	-123.048	-62.219	-37.164	-124.602	-3.106	7.166	-124.416	-117.284	-3.952	32.566	-117.641	-111.047	-110.805	-104.003	-23.959	-104.192	-8191	255	
1596.283	1	1	0	0	0.1433	0.2327	0.15024	0.12584	0.05527	0.092391	0.12256	0.16879	0.08519	0.084563	0.057089	0.088015	0.10498	0.26985	0.28072	0.23052	-2.2042	-2.8937	-2.5479	-2.8792	-2.975	-2.7479	-2.95	-2.8708	-2.6083	-2.9146	-2.5979	-2.8625	-3.0167	-2.4583	-2.7833	-2.9229	137.709	-51.559	-88.313	-110.225	-27.586	172.375	192.764	123.967	-80.047	27.013	191.111	-131.302	216.675	197.258	-43.358	217.259	0.00014409	0.00010951	0.00010769	1184	2.063e-06	2.7892e-06	1253.6	244.23	1.2914e-06	2.1729e-06	305.68	84.991	66.44	19.434	3.4272e-06	27.415	4.2354e-05	2.9988e-05	8.1863e-06	1135.9	3.7276e-07	3.3433e-07	1204.4	236.07	3.7556e-07	3.2993e-07	292.97	82.796	63.066	18.844	3.478e-07	26.522	-125.140	-28.055	-47.024	-124.234	16.318	26.989	-124.290	-117.601	-30.857	17.524	-117.491	-110.946	-111.209	-104.078	-5.768	-104.197	-8191	255	
1596.379	1	1	0	0	0.19063	0.3168	0.15171	0.28997	0.25891	0.10386	0.18539	0.21631	0.13369	0.12987	0.11586	0.17175	0.20343	0.066716	0.034093	0.21973	-2.2	-2.9292	-2.6979	-2.9729	-2.9021	-2.5812	-3.1021	-2.9083	-2.5396	-3.1167	-2.8625	-2.7396	-3	-2.7188	-2.7812	-2.9167	203.459	-113.130	-0.261	-42.689	95.037	74.383	141.559	151.446	-57.758	54.552	175.067	197.037	-98.490	88.177	1.653	-92.749	0.00014865	0.00028002	5.6619e-05	1184.2	1.9136e-06	2.5283e-06	1242.3	243.49	2.8056e-06	3.5066e-06	307.13	84.471	66.297	19.37	2.1374e-06	27.437	4.1191e-05	3.073e-05	8.3186e-06	1137.6	3.6695e-07	3.2833e-07	1203.2	236.29	3.7647e-07	3.1153e-07	293.31	82.617	63.034	18.85	3.2651e-07	26.567	-120.826	-23.658	-58.804	-124.242	0.305	19.181	-124.353	-117.233	0.311	9.771	-117.472	-111.392	-111.198	-104.156	-16.944	-104.369	-8191	255	
1596.475	1	1	0	0	0.18177	0.08736	0.0085164	0.10593	0.17513	0.20199	0.21653	0.060145	0.21054	0.10231	0.28419	0.14719	0.21287	0.05755	0.043258	0.024881	-2.0542	-2.7917	-2.6604	-2.8583	-2.9083	-2.6125	-3.0187	-2.7604	-2.4958	-3.0375	-2.7313	-2.7313	-2.7708	-2.7354	-2.8688	-2.8021	-82.965	175.437	105.627	153.246	95.004	87.126	174.863	80.635	-8.180	197.255	175.457	223.198	-126.903	-77.995	113.496	-54.268	0.00014321	0.00025837	8.5242e-05	1184.9	2.416e-06	2.6438e-06	1245.9	243.96	1.6571e-06	3.7674e-06	309.13	84.413	66.419	19.397	3.1747e-06	27.18	4.2439e-05	3.0319e-05	8.8034e-06	1137.8	3.6699e-07	3.4007e-07	1204	236.79	3.6884e-07	3.2866e-07	293.56	82.685	62.982	18.854	3.4008e-07	26.558	-117.709	-20.367	-15.541	-124.411	26.577	16.570	-124.268	-117.396	-32.809	1.275	-117.539	-111.484	-111.074	-103.520	-3.572	-104.273	-8191	255	
1596.547	1	1	0	0	0.25347	0.32878	0.25094	0.18968	0.069043	0.14649	0.15826	0.1747	0.06992	0.11661	0.090246	0.18873	0.20681	0.14467	0.092136	0.12254	-2.0271	-2.8375	-2.6625	-2.7354	-2.8625	-2.575	-3.0167	-3.0438	-2.5146	-3.0583	-2.8187	-2.7792	-2.9875	-2.7583	-2.7583	-2.8729	174.661	120.337	-84.715	169.006	-72.056	220.964	183.033	78.995	-45.119	29.428	0.273	-124.226	113.338	66.885	-52.544	-101.529	0.00014306	0.00025362	6.0042e-05	1186.8	1.1602e-06	3.579e-06	1249.8	244.16	1.9264e-06	2.3182e-06	306.97	85.05	65.933	19.328	2.1109e-06	27.478	4.3584e-05	2.8745e-05	8.4531e-06	1138.3	3.8322e-07	3.2098e-07	1206.1	236.67	3.7807e-07	3.2371e-07	293.74	83.045	62.85	18.839	3.4828e-07	26.525	-125.530	-58.520	-83.882	-124.374	4.303	13.629	-124.515	-117.204	-4.806	45.246	-117.606	-111.496	-110.904	-103.892	-27.592	-104.539	-8191	255	
1596.667	1	1	0	0	0.15639	0.23696	0.15926	0.096425	0.28879	0.11137	0.19185	0.22431	0.12264	0.23443	0.25927	0.16669	0.23516	0.34564	0.12899	0.23782	-2.2646	-2.6271	-2.7438	-2.7979	-3.0021	-2.7583	-2.875	-2.9625	-2.5458	-2.9562	-2.9917	-2.4375	-2.7708	-2.7229	-2.5333	-3.0479	186.257	-35.888	185.918	-69.524	54.660	23.875	-47.987	182.020	152.752	188.460	-88.457	193.789	185.572	183.316	201.496	131.621	0.00014533	0.00025321	0.00011541	1185.1	2.6899e-06	4.0513e-06	1247.1	244.8	2.6483e-06	2.1508e-06	305.01	84.903	66.61	19.346	2.0462e-06	27.259	4.1997e-05	2.9592e-05	8.2297e-06	1136.9	3.7372e-07	3.2063e-07	1205.7	236.48	3.7902e-07	3.2104e-07	293.41	82.785	63.191	18.836	3.3774e-07	26.533	-122.534	-59.931	-35.105	-124.340	-7.674	22.482	-124.467	-117.689	-10.602	25.202	-117.480	-111.348	-110.996	-103.822	-11.619	-104.089	-8191	255	
1596.763	1	1	0	0	0.13776	0.064236	0.11176	0.09387	0.11734	0.02527	0.17942	0.10427	0.037846	0.10132	0.086074	0.23194	0.10668	0.16558	0.16112	0.10147	-2.1875	-2.8688	-2.8208	-2.7583	-2.9771	-2.7542	-2.8667	-2.8979	-2.5021	-2.65	-2.9188	-2.6562	-2.925	-2.725	-2.5792	-3.0021	126.893	74.657	80.996	-76.581	139.249	-24.208	26.428	136.282	-115.980	179.431	183.228	176.080	152.642	178.245	207.551	142.987	0.00015068	0.00032529	6.1946e-05	1187.7	7.6757e-07	3.0278e-06	1255.1	245.02	2.276e-06	2.3829e-06	308.37	84.96	65.81	19.421	3.0812e-06	27.287	4.361e-05	3.0119e-05	8.0184e-06	1138.9	3.6608e-07	3.1822e-07	1209	236.97	3.7131e-07	3.1688e-07	294.31	82.991	62.934	18.871	3.2425e-07	26.607	-126.584	-67.864	-56.073	-124.454	12.041	7.962	-124.256	-117.080	-17.481	-2.147	-117.368	-111.342	-111.218	-103.678	11.812	-104.110	-8191	255	
1596.860	1	1	0	0	0.035796	0.16338	0.14311	0.36157	0.088868	0.22382	0.17088	0.25866	0.10714	0.026373	0.085862	0.31367	0.094582	0.082604	0.10712	0.051102	-2.1188	-2.7292	-2.8271	-2.7167	-2.9729	-2.7417	-2.8042	-3.0687	-2.7125	-2.7812	-3.0854	-2.6479	-2.7917	-2.6063	-2.6333	-2.9833	-46.327	-64.236	24.691	142.175	13.443	214.419	161.921	167.016	21.995	-7.821	201.574	-96.889	-48.887	133.762	45.133	-130.111	0.00014231	0.00038762	7.802e-05	1187.6	2.4302e-06	1.1536e-06	1251.4	244.76	2.0258e-06	3.1283e-06	306.71	84.887	66.033	19.451	3.5352e-06	27.343	4.3097e-05	2.9896e-05	8.0284e-06	1139.7	3.7372e-07	2.9974e-07	1208.8	236.75	3.7824e-07	3.3585e-07	293.83	82.921	63.284	18.896	3.5097e-07	26.61	-126.051	-73.084	-32.596	-124.417	-13.666	5.935	-124.142	-117.237	-4.019	13.081	-117.677	-111.519	-111.384	-104.005	-24.337	-103.769	-8191	255	
1596.956	1	1	0	0	0.092671	0.16543	0.12237	0.057278	0.31162	0.19663	0.58253	0.20307	0.209	0.27129	0.38621	0.22066	0.090012	0.22007	0.10646	0.094468	-2.3167	-2.65	-2.7167	-2.8104	-2.8438	-2.7708	-2.7646	-2.9125	-2.625	-2.6354	-3.0271	-2.5854	-2.7625	-2.8354	-2.5292	-3.0312	213.942	10.187	-79.784	-22.145	148.224	65.501	145.216	-95.102	62.456	210.739	220.029	141.805	16.276	210.867	28.246	69.620	0.00015078	0.00030956	9.3101e-05	1189	2.3347e-06	2.0625e-06	1247.1	244.49	1.3403e-06	2.1815e-06	306.65	85	66.707	19.324	2.3624e-06	27.285	4.2588e-05	2.9448e-05	8.2797e-06	1139.7	3.6821e-07	3.1721e-07	1208	236.69	3.5479e-07	3.2459e-07	294.06	83.078	63.284	18.866	3.4533e-07	26.59	-118.878	-69.096	-31.241	-124.381	12.835	14.115	-124.395	-117.462	-8.756	35.672	-117.602	-111.601	-110.423	-103.565	-5.389	-104.223	-8191	255	
1597.075	1	1	0	0	0.31335	0.23496	0.47824	0.21168	0.11387	0.22051	0.33727	0.070794	0.31871	0.14289	0.23517	0.14372	0.11214	0.06746	0.24032	0.2619	-2.1937	-2.5958	-2.8146	-2.7125	-2.7625	-2.925	-2.6875	-2.8521	-2.5812	-2.7188	-2.8812	-2.7625	-2.9125	-2.7542	-2.5375	-2.9958	182.577	186.446	124.775	120.689	-131.310	-64.555	182.239	144.396	25.773	135.094	162.732	218.998	122.331	169.402	-113.227	125.066	0.00015021	0.00028379	0.00011602	1192.4	2.813e-06	2.9596e-06	1252.4	243.76	2.4798e-06	1.9501e-06	306.99	85.019	66.479	19.525	2.8743e-06	27.417	4.3402e-05	2.9596e-05	8.3208e-06	1140.4	3.6104e-07	3.0854e-07	1209.2	236.58	3.7239e-07	3.4618e-07	293.69	82.891	63.236	18.908	3.4108e-07	26.633	-131.522	-43.512	-53.676	-124.524	-29.391	5.823	-124.491	-117.451	-16.041	25.516	-117.540	-111.345	-110.593	-103.571	-5.086	-104.113	-8191	255	
1597.171	1	1	0	0	0.27252	0.079932	0.1483	0.30712	0.10647	0.11486	0.18823	0.13782	0.065431	0.11291	0.18899	0.17599	0.14316	0.22149	0.0021223	0.25203	-2.2396	-2.5042	-2.8063	-2.7292	-2.6292	-2.8979	-2.7792	-2.7167	-2.8854	-2.7625	-3.0771	-2.8625	-2.7208	-2.7687	-2.5708	-2.8875	48.147	2.170	18.130	114.172	212.030	219.118	199.515	208.105	83.974	-110.577	-117.711	149.836	130.554	-108.696	180.000	76.302	0.00012831	0.00032415	2.1848e-05	1190.1	2.3487e-06	1.554e-06	1248.2	245.23	2.1028e-06	1.8661e-06	308.59	84.712	66.803	19.523	2.7211e-06	27.326	4.199e-05	3.0399e-05	8.352e-06	1139.7	3.6825e-07	3.2303e-07	1209.5	237.28	3.8739e-07	3.1762e-07	294.38	82.816	63.413	18.884	3.3852e-07	26.596	-127.311	-85.925	-80.413	-124.447	-3.160	10.525	-124.301	-117.521	-4.723	29.123	-117.479	-111.599	-111.045	-103.992	9.881	-104.013	-8191	255	
1597.267	1	1	0	0	0.16325	0.2537	0.13966	0.19603	0.20846	0.36643	0.20803	0.12708	0.14317	0.17603	0.14134	0.2527	0.074094	0.16053	0.24148	0.11864	-2.2521	-2.5771	-2.9729	-2.8208	-2.6562	-2.8729	-2.725	-3.0187	-2.8312	-2.7146	-2.8417	-3.0125	-2.625	-3.1063	-2.6542	-2.6146	134.102	153.589	62.417	-118.939	-62.149	-25.516	189.205	143.521	69.050	74.883	128.000	-133.130	63.978	-113.081	201.871	75.142	0.00016094	0.000276	5.3474e-05	1189.3	2.2968e-06	2.419e-06	1251.4	244.05	8.5641e-07	2.1091e-06	306.45	85.133	66.302	19.477	2.6489e-06	27.316	4.2529e-05	3.0159e-05	8.3364e-06	1141.5	3.6109e-07	3.2781e-07	1210.2	236.88	3.6246e-07	3.3103e-07	293.86	83.218	63.207	18.888	3.4052e-07	26.559	-124.658	-41.783	-29.535	-124.425	-7.736	10.639	-124.378	-117.478	-27.336	25.490	-117.846	-111.144	-111.415	-103.761	-4.066	-104.184	-8191	255	
1597.363	1	1	0	0	0.25807	0.16066	0.10514	0.15209	0.29565	0.14732	0.20748	0.3005	0.055656	0.08195	0.08491	0.033575	0.10758	0.15884	0.031912	0.14785	-2.3271	-2.8187	-2.8208	-2.8396	-2.6312	-2.925	-2.9396	-2.7604	-2.6792	-2.7125	-3.0083	-2.6813	-2.6375	-3.0062	-2.6354	-2.8	-115.267	-15.603	82.087	208.264	-28.506	139.081	152.869	-130.139	22.854	189.839	-133.885	-20.180	-98.845	207.317	195.028	198.641	0.00016228	0.00018592	8.6392e-05	1186.6	1.8271e-06	1.4892e-06	1252.2	245.35	2.4857e-06	2.2506e-06	308.35	85.454	66.029	19.524	1.986e-06	27.345	4.3149e-05	2.9604e-05	8.1574e-06	1140.6	3.7567e-07	3.1331e-07	1210.4	237.44	3.6953e-07	3.1245e-07	294.81	83.105	63.299	18.92	3.39e-07	26.573	-125.208	-46.133	-68.701	-124.572	11.474	16.294	-124.373	-117.391	-9.115	1.614	-117.538	-111.516	-111.082	-103.922	12.903	-104.326	-8191	255	
1597.459	1	1	0	0	0.22788	0.21534	0.18119	0.13127	0.28503	0.10398	0.35509	0.15526	0.13295	0.084836	0.19782	0.2021	0.087699	0.082127	0.026545	0.08639	-2.3792	-2.5625	-2.7292	-2.9604	-2.6667	-2.8667	-2.9875	-2.8208	-2.9104	-2.6104	-2.9104	-2.8042	-2.5333	-2.9979	-2.7417	-2.8125	61.393	-35.479	-59.904	157.287	-93.898	164.357	195.966	-129.587	35.052	98.572	-127.504	167.360	-38.327	201.942	-37.429	87.643	0.00014764	0.00034771	8.3664e-05	1190.1	1.7289e-06	3.6018e-06	1252.4	245.6	1.7973e-06	3.021e-06	308.43	84.944	66.584	19.411	3.0398e-06	27.317	4.1547e-05	3.073e-05	8.1752e-06	1141.8	3.6018e-07	3.1909e-07	1210.6	237.22	3.4317e-07	3.1259e-07	294.71	83.13	63.371	18.889	3.4273e-07	26.569	-128.302	-56.129	-40.344	-124.488	19.234	-8.493	-124.261	-117.357	-10.372	22.915	-117.543	-111.612	-110.686	-103.568	-20.606	-103.967	-8191	255	
1597.555	1	1	0	0	0.28273	0.14031	0.35341	0.196	0.13531	0.19027	0.40077	0.12681	0.12744	0.07392	0.23766	0.037575	0.077741	0.26819	0.14508	0.35361	-2.7021	-2.6937	-2.8	-2.8688	-2.5	-2.8167	-2.7562	-2.8	-2.9	-2.5312	-2.9562	-2.7604	-2.6958	-2.8917	-2.7583	-2.7458	110.248	182.093	-39.597	152.255	50.432	-19.631	168.933	177.880	217.009	177.967	-28.858	-42.940	-33.518	207.695	33.640	160.445	0.0001547	0.00022483	7.2043e-05	1188.5	1.0991e-06	2.4538e-06	1248.9	243.87	1.5972e-06	2.6741e-06	307.75	85.536	65.963	19.395	1.5641e-06	27.196	4.2343e-05	2.7116e-05	8.0974e-06	1140	3.6608e-07	3.0561e-07	1208.6	236.47	3.5735e-07	3.2468e-07	294.15	83.201	63.076	18.855	3.3032e-07	26.565	-126.228	-58.863	-45.548	-124.512	10.185	21.069	-124.160	-117.503	-29.237	23.391	-117.419	-111.309	-111.126	-103.940	-28.885	-103.976	-8191	255	
1597.676	1	1	0	0	0.091983	0.18506	0.16428	0.26812	0.30801	0.27409	0.080563	0.23005	0.1286	0.18931	0.085356	0.081101	0.19841	0.14434	0.16888	0.13041	-2.5583	-2.5833	-2.7562	-3.1521	-2.5542	-2.7021	-2.8542	-2.6542	-2.9854	-2.7979	-2.8625	-3.0646	-2.475	-2.9083	-2.7917	-2.6896	137.838	-62.079	-61.932	187.802	141.977	113.778	117.065	182.593	-48.758	178.554	112.792	50.148	105.044	-5.616	-51.891	204.791	0.00015342	0.00035449	8.5411e-05	1187.2	1.6259e-06	3.2186e-06	1255.1	244.69	1.2237e-06	3.7927e-06	307.41	84.983	65.839	19.435	1.8036e-06	27.44	4.2488e-05	2.9816e-05	7.8261e-06	1140.2	3.5193e-07	3.1726e-07	1209.4	237.04	3.456e-07	3.1819e-07	294.35	83.158	62.924	18.881	3.3497e-07	26.638	-121.473	-53.241	-37.799	-124.410	19.288	-25.066	-124.227	-117.534	-17.162	18.652	-117.751	-111.349	-111.059	-103.534	-6.283	-104.559	-8191	255	
1597.770	1	1	0	0	0.19219	0.039305	0.085057	0.3386	0.2079	0.045514	0.30277	0.16339	0.096338	0.11389	0.21477	0.19352	0.077738	0.1031	0.18549	0.2911	-2.5458	-2.8042	-2.675	-3.0479	-2.5417	-3	-2.8646	-2.7083	-2.6979	-2.7146	-2.8083	-3.0146	-2.7854	-2.8271	-2.7979	-2.7313	-118.975	71.637	78.591	193.479	149.808	-86.564	68.490	151.946	63.985	195.991	84.493	215.031	106.352	-82.619	103.111	207.868	0.00015047	0.00022439	0.00012092	1188.1	1.6608e-06	2.2799e-06	1253.2	245.8	1.1667e-06	2.0379e-06	306.4	84.817	66.519	19.374	1.0773e-06	27.158	4.138e-05	2.9189e-05	8.3931e-06	1140.1	3.3665e-07	3.0762e-07	1207.5	237.68	3.5037e-07	3.2113e-07	293.48	82.934	63.193	18.898	3.1428e-07	26.501	-131.989	-65.002	-65.953	-124.529	-20.419	-1.464	-124.315	-117.464	-40.276	15.128	-117.621	-111.045	-110.872	-104.210	40.461	-104.181	-8191	255	
1597.844	1	1	0	0	0.060392	0.18567	0.10202	0.17424	0.082764	0.48833	0.17393	0.13518	0.14607	0.027886	0.17642	0.031423	0.22777	0.19488	0.13556	0.11277	-2.5771	-2.6	-2.6417	-3.0542	-2.7646	-2.8521	-3.1604	-2.6604	-2.6354	-2.7812	-2.8583	-3.0604	-2.6833	-2.7271	-2.8896	-2.3667	190.563	139.006	-128.586	177.030	-88.761	92.036	154.701	119.815	-101.804	12.346	197.568	29.978	-99.222	159.227	200.011	42.433	0.0001623	0.0003195	5.5949e-05	1186.1	1.3451e-06	1.5871e-06	1244.9	243.36	1.3069e-06	2.9261e-06	306.71	85.414	65.975	19.375	1.8938e-06	27.311	4.0785e-05	3.0227e-05	7.6771e-06	1137.3	3.5948e-07	3.0289e-07	1204.6	236.58	3.6368e-07	3.0269e-07	293.73	83.226	63.038	18.841	3.1488e-07	26.494	-128.856	-34.789	-70.271	-124.355	-45.407	-10.617	-124.430	-117.389	-42.455	16.435	-117.659	-111.039	-111.099	-103.848	5.585	-103.710	-8191	255	
1597.940	1	1	0	0	0.27679	0.049494	0.30046	0.074858	0.15604	0.16169	0.13897	0.46892	0.055912	0.095468	0.15893	0.20845	0.048807	0.29409	0.12303	0.19458	-2.3458	-2.6917	-2.6958	-3.0438	-2.6437	-2.6688	-3.1833	-2.8146	-2.7521	-2.6896	-2.6479	-2.7562	-2.7271	-2.6958	-2.8646	-2.7542	133.200	-13.121	190.068	151.827	35.385	133.534	97.403	152.277	221.556	126.226	183.285	142.451	210.614	-60.311	-55.535	158.495	0.00015074	0.0002642	0.00011723	1182	1.7569e-06	3.1168e-06	1241.1	243.86	1.361e-06	3.2862e-06	306.65	85.01	65.684	19.453	2.7927e-06	27.129	4.1153e-05	2.8106e-05	7.9084e-06	1133.1	3.5197e-07	2.912e-07	1202.7	235.95	3.5605e-07	2.9971e-07	293.55	82.913	62.884	18.876	3.1579e-07	26.473	-126.821	-46.329	-58.857	-124.463	19.164	16.399	-123.977	-117.220	7.189	-2.084	-117.577	-111.304	-110.783	-103.916	-10.005	-103.917	-8191	255	
1598.059	1	1	0	0	0.23709	0.239	0.2196	0.27243	0.21158	0.33287	0.22221	0.15174	0.29392	0.20779	0.10978	0.14706	0.16436	0.26727	0.37044	0.21759	-2.4188	-2.9021	-2.3708	-3.0479	-2.7917	-2.625	-3.0125	-2.7812	-2.8896	-2.8583	-2.8542	-2.8833	-2.7771	-2.8812	-2.9229	-2.725	10.278	160.962	-130.962	206.212	-60.880	48.527	167.806	144.290	196.653	-11.630	198.266	217.661	-120.270	216.641	-42.459	212.895	0.00014026	0.00027942	0.00013107	1177.1	3.4285e-06	2.6387e-06	1244.1	243.61	1.9788e-06	1.1641e-06	306.59	84.98	65.965	19.335	2.8299e-06	27.109	4.1291e-05	2.7228e-05	7.5626e-06	1131.3	3.4082e-07	2.9545e-07	1200.4	235.82	3.296e-07	2.8162e-07	292.66	82.888	62.831	18.786	2.9814e-07	26.452	-126.901	-43.735	-76.669	-124.230	-20.626	20.953	-124.003	-117.422	-25.650	28.034	-117.721	-111.162	-110.785	-103.507	1.450	-103.879	-8191	255	
1598.155	1	1	0	0	0.26466	0.2049	0.10843	0.13981	0.069142	0.030735	0.33656	0.1613	0.26034	0.24364	0.1013	0.074814	0.15659	0.28332	0.16915	0.21769	-2.2542	-2.9958	-2.5167	-3.0521	-2.6896	-2.6167	-3.2042	-2.6208	-2.5167	-2.9854	-2.8688	-2.7042	-2.8417	-2.6146	-2.9167	-2.625	-51.716	-25.924	17.435	220.751	-5.828	205.419	176.536	199.825	45.340	136.365	38.398	-53.353	-86.415	-68.304	160.107	36.391	0.00014503	0.00026882	6.3864e-05	1172.7	1.3857e-06	2.6655e-06	1241.5	243.27	1.0983e-06	1.0666e-06	307.95	84.872	66.163	19.38	9.1507e-07	27.444	4.0477e-05	2.5562e-05	7.1779e-06	1129.7	3.4052e-07	2.9348e-07	1199.6	235.6	3.1668e-07	2.8727e-07	293.21	82.904	63.023	18.834	2.8357e-07	26.581	-126.237	-59.703	-65.662	-124.376	1.056	24.834	-124.362	-117.454	-31.407	-40.975	-117.415	-110.996	-110.650	-104.100	-8.010	-104.254	-8191	255	
1598.251	1	1	0	0	0.27169	0.14744	0.091956	0.36924	0.17369	0.20598	0.27964	0.039165	0.13997	0.28742	0.16555	0.21577	0.31283	0.20418	0.11267	0.22681	-2.425	-2.7875	-2.5417	-2.8979	-2.8896	-2.5583	-3.0542	-2.7354	-2.625	-2.9188	-2.8104	-2.8208	-2.8979	-2.6979	-2.9188	-2.6333	43.199	-76.231	63.370	141.466	94.832	-124.144	132.756	152.867	-6.536	188.635	-127.905	222.617	202.157	18.112	221.544	207.941	0.00014275	0.00029882	5.3933e-05	1173.1	2.1454e-06	2.0009e-06	1240.4	244.39	2.8263e-06	2.4131e-06	307.84	84.986	66.502	19.412	2.7227e-06	27.368	4.0351e-05	2.6125e-05	7.3513e-06	1129.5	3.2216e-07	2.9221e-07	1198.4	235.94	3.1816e-07	2.8197e-07	293.29	82.969	63.021	18.87	3.0846e-07	26.534	-118.314	-47.569	-44.546	-124.190	-3.217	6.741	-124.137	-117.410	-10.780	28.794	-117.756	-111.381	-110.869	-103.851	-20.165	-104.265	-8191	255	
1598.347	1	1	0	0	0.13776	0.01427	0.18817	0.1205	0.12696	0.11213	0.16419	0.25513	0.15641	0.18373	0.31356	0.16993	0.27306	0.16271	0.30819	0.055221	-2.0375	-2.9896	-2.4667	-2.7083	-2.8458	-2.5292	-3.1	-2.8104	-2.5625	-2.9958	-2.725	-2.7771	-2.9771	-2.4479	-2.7833	-2.9708	88.223	50.958	-24.095	150.139	47.706	-93.218	151.432	169.451	88.724	-21.836	207.002	205.401	215.332	146.153	-95.853	194.768	0.00014787	0.0003192	6.8533e-05	1177.9	2.429e-06	1.9197e-06	1243.8	243.45	1.4819e-06	2.3675e-06	306.66	85.171	66.398	19.394	3.0132e-06	27.162	4.1848e-05	2.6377e-05	7.517e-06	1130.3	3.4338e-07	2.8958e-07	1199.7	235.7	3.319e-07	2.9489e-07	292.56	82.969	62.928	18.86	3.0734e-07	26.505	-128.590	-49.477	-5.654	-124.353	-9.278	26.189	-124.251	-117.441	-3.564	34.794	-117.703	-111.198	-111.265	-103.776	10.769	-104.167	-8191	255	
1598.443	1	1	0	0	0.19652	0.052291	0.028529	0.2593	0.15598	0.13402	0.14103	0.33	0.32751	0.21396	0.22311	0.12997	0.11625	0.33221	0.14354	0.26515	-2.3292	-2.8271	-2.6208	-2.6854	-2.8333	-2.7042	-2.9229	-2.8729	-2.6312	-2.8417	-2.7229	-2.8875	-2.9354	-2.6667	-2.7958	-2.8917	137.079	144.472	43.950	213.325	-19.804	-20.736	185.816	-134.248	-97.371	182.640	-66.676	137.000	207.063	-63.566	-38.992	136.787	0.00014895	0.00018976	4.9119e-05	1177.7	2.8321e-06	3.3458e-06	1238.7	242.9	2.3195e-06	2.4896e-06	308.52	85.494	66.283	19.334	2.8559e-06	27.32	4.0072e-05	2.702e-05	7.4436e-06	1127.5	3.446e-07	2.9646e-07	1197.3	235.87	3.4309e-07	2.8197e-07	293.53	83.112	63.058	18.851	3.0742e-07	26.582	-129.291	-50.451	-59.388	-124.448	23.749	34.428	-124.326	-117.414	-16.590	20.088	-117.508	-111.267	-111.755	-103.633	9.735	-103.969	-8191	255	
1598.540	1	1	0	0	0.12847	0.11467	0.012833	0.12649	0.15598	0.11021	0.14931	0.18478	0.059562	0.13059	0.22385	0.18442	0.058122	0.23035	0.17662	0.10849	-2.1562	-2.8625	-2.8125	-2.9729	-3.0333	-2.675	-2.9604	-2.9375	-2.6208	-2.8563	-2.7792	-2.7375	-2.975	-2.5958	-2.9854	-2.9	176.442	-28.187	132.872	219.658	104.162	117.901	206.364	193.188	-4.843	55.972	166.446	105.186	-99.338	-97.430	-74.934	155.096	0.00014404	0.00029988	0.00011229	1181.3	2.1234e-06	2.624e-06	1235.6	243.76	2.2376e-06	2.4376e-06	305.79	85.082	66.394	19.408	2.6438e-06	27.221	4.022e-05	2.7216e-05	7.4392e-06	1130	3.367e-07	2.9326e-07	1197.4	236.16	3.5284e-07	2.9607e-07	293.18	83.039	63.08	18.855	3.0074e-07	26.536	-126.030	-30.035	-52.189	-124.301	-3.305	19.316	-124.271	-117.218	-19.408	16.713	-117.800	-111.026	-111.027	-103.941	15.224	-104.295	-8191	255	
1598.636	1	1	0	0	0.40011	0.16019	0.046157	0.21743	0.14269	0.14415	0.10445	0.3574	0.24567	0.01516	0.13628	0.12349	0.16987	0.25696	0.16172	0.25844	-2.2542	-2.8604	-2.9604	-2.7229	-2.9708	-2.625	-2.9938	-3.1188	-2.6208	-2.8063	-2.8521	-2.75	-2.9896	-2.8125	-2.8396	-2.925	124.307	-20.469	170.124	174.540	112.506	214.119	-128.819	139.371	68.616	-71.119	128.507	4.737	160.946	198.443	172.443	147.170	0.0001414	0.00028197	6.3553e-05	1176.4	2.0917e-06	2.9348e-06	1242.5	242.89	2.7547e-06	2.6908e-06	306.59	84.88	66.007	19.455	5.4773e-07	27.148	4.0618e-05	2.7751e-05	7.6293e-06	1128.2	3.4407e-07	2.888e-07	1199.8	236.27	3.397e-07	2.8924e-07	293.73	82.931	62.743	18.843	3.1272e-07	26.514	-131.977	-45.648	-73.084	-124.391	-37.754	17.980	-124.081	-117.559	-25.505	22.033	-117.373	-111.524	-111.013	-104.100	28.103	-104.272	-8191	255	
1598.756	1	1	0	0	0.26173	0.11	0.2221	0.31392	0.20508	0.1323	0.052524	0.097579	0.22644	0.20272	0.15508	0.24682	0.16452	0.1253	0.051427	0.25269	-2.2313	-2.8396	-2.7958	-2.6771	-3.0146	-2.8208	-3.0417	-3.1229	-2.5646	-2.9979	-2.9729	-2.5458	-2.9688	-2.7917	-2.625	-2.8979	25.268	46.408	45.212	-118.601	-82.013	95.378	59.336	74.209	62.141	85.006	178.661	-124.172	-27.243	-100.058	177.481	45.993	0.00014348	0.00025157	5.8143e-05	1178.4	1.9013e-06	3.1129e-06	1236.5	243.37	1.6434e-06	2.7611e-06	306.05	84.885	66.126	19.425	2.1494e-06	27.357	3.9466e-05	2.6557e-05	7.4458e-06	1128	3.4347e-07	2.9475e-07	1197.4	236.12	3.3194e-07	2.8337e-07	292.85	82.932	62.926	18.871	3.2035e-07	26.574	-127.209	-39.196	-66.335	-124.415	-3.589	4.992	-124.361	-117.447	-28.808	21.336	-117.549	-111.456	-110.980	-103.911	-7.949	-104.102	-8191	255	
1598.851	1	1	0	0	0.2517	0.027564	0.086715	0.3728	0.043032	0.14338	0.17757	0.083224	0.23578	0.17916	0.078907	0.14583	0.29289	0.13861	0.18148	0.18638	-2.1813	-2.7146	-2.8688	-2.6458	-2.9146	-2.7313	-2.8937	-3.0354	-2.7083	-2.8187	-3.1562	-2.7021	-2.9375	-2.7625	-2.6146	-3.1292	14.930	-44.119	-84.354	213.222	29.828	126.741	74.018	117.126	57.019	99.947	170.246	171.217	-26.004	202.199	-49.916	176.991	0.00014257	0.00034997	9.9928e-05	1178.1	1.4987e-06	3.9973e-06	1236.8	243.56	2.4065e-06	3.3596e-06	307.19	84.945	66.386	19.358	1.8419e-06	27.487	4.0213e-05	2.9225e-05	7.3013e-06	1127	3.3978e-07	2.9571e-07	1197.7	236.41	3.4777e-07	3.0255e-07	293.39	83.007	63.106	18.848	3.0764e-07	26.55	-130.803	-38.466	-21.643	-124.349	20.735	-5.711	-124.304	-117.556	9.502	12.151	-117.501	-111.491	-111.034	-104.077	37.410	-104.185	-8191	255	
1598.949	1	1	0	0	0.29373	0.084599	0.35019	0.148	0.093863	0.12016	0.3325	0.21909	0.13877	0.090999	0.34747	0.11244	0.24605	0.21751	0.2065	0.30109	-2.0375	-2.7062	-3.0354	-2.7667	-2.9	-2.7917	-2.7687	-2.9917	-2.7646	-2.6771	-2.9542	-2.6833	-2.9417	-2.9562	-2.6562	-3.0521	-37.420	7.885	203.659	196.297	198.969	27.788	116.948	158.462	152.576	-80.431	135.603	3.955	-17.612	196.363	33.116	130.549	0.00013832	0.0003476	5.5329e-05	1180.2	1.4042e-06	1.9456e-06	1240.4	243.87	2.3796e-06	3.0362e-06	307.22	84.717	66.32	19.294	3.2639e-06	27.226	3.9897e-05	2.8793e-05	7.5615e-06	1128.2	3.3787e-07	2.9186e-07	1197.3	235.94	3.4707e-07	2.888e-07	293.02	82.756	63.013	18.834	3.151e-07	26.52	-126.026	-78.877	-65.976	-124.436	89.492	16.572	-124.214	-117.260	9.236	-2.034	-117.570	-111.369	-110.888	-104.490	-2.395	-104.160	-8191	255	
1599.068	1	1	0	0	0.14453	0.098914	0.15428	0.11188	0.12536	0.20226	0.11969	0.19985	0.20929	0.10215	0.29242	0.20986	0.25054	0.063313	0.28957	0.10389	-2.4104	-2.75	-2.8479	-2.6604	-2.8125	-3.0729	-2.9083	-3.0792	-2.7521	-2.7417	-3.1167	-2.5854	-2.6937	-2.9229	-2.7354	-2.9271	219.889	67.618	-59.208	128.421	67.266	-26.129	205.810	-108.077	-41.999	65.424	175.376	89.839	-43.438	-59.913	-80.531	18.126	0.00016397	0.00042343	8.8297e-05	1178.3	1.7177e-06	1.7412e-06	1241	243.04	1.6275e-06	2.4748e-06	305.56	84.626	66.27	19.362	2.9157e-06	27.091	4.0377e-05	2.6481e-05	7.4314e-06	1127.8	3.4746e-07	2.8564e-07	1196.6	235.44	3.5665e-07	2.9905e-07	292.98	82.719	62.893	18.809	3.2451e-07	26.437	-124.544	-41.270	-47.592	-124.276	4.808	12.340	-124.244	-117.369	28.215	2.754	-117.530	-111.240	-110.989	-104.053	-16.855	-104.387	-8191	255	
1599.139	1	1	0	0	0.22306	0.097136	0.20223	0.24878	0.1482	0.077052	0.25746	0.20005	0.22812	0.15681	0.052913	0.2101	0.11137	0.14601	0.14969	0.11817	-2.2833	-2.5167	-2.9167	-2.7729	-3.0458	-3.1333	-2.8354	-2.9854	-2.7292	-2.6604	-3.025	-2.8646	-2.6188	-2.9854	-2.7979	-2.8812	-22.850	214.778	198.853	196.944	-129.646	77.880	141.317	67.751	80.266	-40.713	36.268	89.688	128.126	52.830	12.230	-120.149	0.00014645	0.00035208	9.5575e-05	1171.1	1.5047e-06	1.8408e-06	1236.7	243.07	1.9292e-06	3.6462e-06	306.87	84.347	65.638	19.31	8.5086e-07	27.108	3.9927e-05	2.7355e-05	7.5748e-06	1124	3.5145e-07	2.9024e-07	1195	235.56	3.3329e-07	2.9866e-07	292.55	82.603	62.791	18.695	3.043e-07	26.466	-125.892	-62.760	-49.100	-124.564	-20.127	1.277	-124.492	-117.478	-23.309	26.627	-117.533	-111.111	-110.885	-103.929	-10.403	-104.500	-8191	255	
1599.235	1	1	0	0	0.11076	0.3197	0.16935	0.22434	0.1971	0.21244	0.13672	0.29553	0.20955	0.18535	0.061774	0.055952	0.038986	0.17572	0.082682	0.10969	-2.525	-2.5354	-2.9583	-2.8542	-2.6229	-2.8667	-2.9104	-2.8312	-2.6937	-2.6771	-2.9521	-2.6958	-2.7562	-2.975	-2.5687	-2.9417	-101.423	-32.268	204.952	219.344	190.163	86.846	141.756	-134.809	134.059	-130.440	89.915	73.035	-4.820	210.947	203.484	-109.059	0.00014715	0.00018501	8.2076e-05	1173.7	2.0835e-06	2.5065e-06	1235.1	242.55	2.2434e-06	1.6167e-06	304.53	84.468	66.014	19.273	1.7203e-06	27.287	4.2488e-05	2.7228e-05	7.3302e-06	1124.5	3.5241e-07	2.8718e-07	1193.9	235.35	3.5306e-07	3.1018e-07	292.2	82.562	62.648	18.724	3.4086e-07	26.376	-127.610	-45.416	-33.428	-124.528	-12.607	18.996	-124.302	-117.128	6.167	57.021	-117.142	-111.312	-111.079	-103.949	0.913	-104.296	-8191	255	
1599.356	1	1	0	0	0.048412	0.056728	0.1875	0.16868	0.29016	0.18095	0.27314	0.074706	0.099256	0.10677	0.15006	0.25249	0.15212	0.12657	0.24721	0.21411	-2.5583	-2.7625	-2.95	-2.9146	-2.7167	-2.975	-2.825	-2.9104	-2.8625	-2.6042	-3.0083	-2.9833	-2.7271	-2.7812	-2.775	-2.6688	-57.621	16.738	74.497	175.973	-37.988	193.375	152.130	172.520	220.381	-50.651	-17.452	181.653	-113.347	100.236	-81.876	19.296	0.00014138	0.00018904	9.6236e-05	1169.5	1.2529e-06	1.8575e-06	1234.6	243.56	1.5551e-06	2.6201e-06	306.9	84.041	66.231	19.27	1.574e-06	27.173	4.1228e-05	2.9061e-05	7.6526e-06	1123.5	3.4954e-07	2.9155e-07	1191.7	235.23	3.3888e-07	3.0641e-07	292.4	82.351	62.612	18.705	3.1662e-07	26.379	-132.473	-74.274	-59.411	-124.414	-39.049	-17.794	-124.299	-117.551	-48.953	5.375	-117.249	-111.228	-111.174	-103.787	2.032	-104.296	-8191	255	
1599.452	1	1	0	0	0.14509	0.025316	0.0136	0.25835	0.086619	0.25277	0.21908	0.23094	0.058135	0.048681	0.061792	0.15577	0.30398	0.17711	0.097779	0.13984	-2.625	-2.6979	-2.825	-2.9313	-2.5771	-3.0354	-3.05	-2.6896	-2.9104	-2.6583	-2.9521	-2.9083	-2.4813	-2.8875	-2.6583	-2.6688	133.768	100.926	123.877	216.644	-18.978	168.456	177.748	2.216	41.857	18.679	-64.887	140.407	82.886	149.090	196.458	-132.153	0.00014098	0.00028552	8.4819e-05	1171.3	2.5735e-06	2.3422e-06	1234.5	243.12	2.7228e-06	2.281e-06	305.51	84.131	65.692	19.269	2.2704e-06	27.101	3.9838e-05	2.861e-05	8.0584e-06	1124.6	3.452e-07	2.9309e-07	1193.7	235.09	3.4382e-07	2.9822e-07	292.52	82.26	62.557	18.735	3.1245e-07	26.373	-126.809	-51.721	-58.660	-124.302	18.356	-14.406	-124.289	-117.398	6.317	48.962	-117.489	-111.315	-110.487	-103.936	22.298	-104.185	-8191	255	
1599.548	1	1	0	0	0.1079	0.23696	0.21516	0.063744	0.18408	0.23564	0.28212	0.16697	0.082685	0.1628	0.10492	0.20808	0.22994	0.19402	0.18168	0.15922	-2.6083	-2.5563	-2.8625	-3.1292	-2.5729	-2.7875	-2.7646	-2.7542	-2.9146	-2.7208	-2.9833	-2.8292	-2.4958	-2.9	-2.8542	-2.5417	186.035	96.353	155.214	66.844	164.490	213.914	167.977	175.814	136.314	-86.460	-122.772	-28.756	123.176	124.191	102.823	196.646	0.00013373	0.00015997	9.6656e-05	1167.7	1.9601e-06	3.0775e-06	1234.7	242.64	2.6816e-06	3.5914e-06	304.45	84.384	65.444	19.296	1.6894e-06	27.21	4.0856e-05	2.7719e-05	7.865e-06	1121.9	3.4416e-07	3.1445e-07	1194.7	235.07	3.6966e-07	3.0172e-07	292.15	82.396	62.729	18.707	3.174e-07	26.445	-129.121	-63.913	-48.954	-124.576	-8.504	0.195	-124.386	-117.350	-6.737	20.592	-117.524	-111.371	-110.791	-103.672	26.766	-104.052	-8191	255	
1599.644	1	1	0	0	0.10395	0.059075	0.10915	0.10453	0.13908	0.19948	0.20326	0.28608	0.22321	0.23806	0.18524	0.06366	0.074622	0.19347	0.21048	0.094266	-2.5229	-2.7021	-2.7667	-3.1875	-2.5417	-2.8979	-2.9813	-2.825	-2.8958	-2.5021	-2.6354	-2.9417	-2.5854	-2.8917	-2.775	-2.6229	-97.274	-95.527	-128.199	-94.030	184.381	182.158	174.603	152.161	-69.981	5.260	-102.776	-134.198	53.779	-117.251	-69.617	153.506	0.00012993	0.00043488	0.00011047	1170.5	1.5948e-06	2.0303e-06	1231.1	242.91	1.1096e-06	3.0188e-06	305.83	84.509	65.792	19.244	2.3281e-06	26.957	4.0514e-05	3.0447e-05	7.7749e-06	1122.1	3.6938e-07	3.0701e-07	1191.9	235.1	3.5167e-07	2.9997e-07	292.07	82.359	62.691	18.731	3.2954e-07	26.366	-122.068	-42.128	-64.754	-124.317	-14.808	2.877	-124.359	-117.374	5.160	20.271	-117.193	-111.020	-111.275	-103.739	5.446	-103.988	-8191	255	
1599.741	1	1	0	0	0.1152	0.089943	0.26559	0.082768	0.13331	0.062579	0.27742	0.1848	0.20717	0.11507	0.16277	0.14015	0.24331	0.088114	0.028738	0.033159	-2.5667	-2.7875	-2.8208	-3.1	-2.5292	-2.8104	-3.0333	-2.7271	-3.0438	-2.8042	-2.675	-2.8333	-2.6396	-2.9875	-2.9938	-2.7042	18.425	-5.717	52.942	-85.087	67.239	90.398	72.516	190.269	-68.278	0.830	145.897	15.366	-102.378	190.213	176.590	-18.059	0.00013752	0.00035451	0.0001179	1168	1.8314e-06	2.9744e-06	1233.4	242.1	1.5439e-06	2.3775e-06	304.21	84.474	65.543	19.232	2.0645e-06	27.107	4.0603e-05	2.8693e-05	7.8205e-06	1121.2	3.5167e-07	3.0552e-07	1191.5	234.5	3.4933e-07	2.9314e-07	291.4	82.415	62.404	18.69	3.1497e-07	26.344	-127.823	-9.832	-70.813	-124.591	11.865	1.114	-124.186	-117.398	-37.573	22.663	-117.479	-111.456	-110.739	-104.182	-16.825	-103.620	-8191	255	
1599.837	1	1	0	0	0.30082	0.15352	0.25717	0.24318	0.1731	0.17318	0.3249	0.17711	0.091564	0.099924	0.10122	0.24102	0.16249	0.13233	0.16088	0.11381	-2.6146	-2.7167	-2.6021	-3.0875	-2.4021	-2.8229	-3.0438	-2.7167	-3.1292	-2.8208	-2.7812	-3.0396	-2.675	-2.7208	-2.9188	-2.7271	119.957	198.335	168.021	172.991	210.105	127.447	166.365	197.473	-48.364	-34.821	133.994	47.864	216.682	176.998	177.797	81.156	0.00015446	7.4727e-05	7.4112e-05	1167.1	1.1401e-06	3.0536e-06	1231.2	241.46	1.8239e-06	2.5807e-06	302.48	84.632	65.865	19.247	2.1416e-06	27.141	4.1317e-05	2.7156e-05	7.9673e-06	1120.2	3.5562e-07	3.0972e-07	1191.1	234.64	3.4673e-07	2.8486e-07	290.95	82.524	62.544	18.686	3.1762e-07	26.327	-126.749	-73.628	-53.685	-124.343	-21.453	9.468	-124.144	-117.197	-22.312	61.896	-117.701	-111.289	-111.124	-103.735	4.679	-103.788	-8191	255	
1599.933	1	1	0	0	0.15908	0.13728	0.088646	0.07114	0.18689	0.18523	0.23776	0.099284	0.076748	0.13841	0.13231	0.11983	0.13267	0.088212	0.10349	0.19332	-2.3083	-2.7771	-2.8083	-3.2333	-2.775	-2.6521	-3.1875	-2.6542	-2.8875	-2.7292	-2.6375	-3.1688	-2.8542	-2.8083	-3.0563	-2.6312	179.728	7.783	109.837	151.585	72.512	207.653	150.653	-129.705	-52.752	-67.046	142.409	-59.749	-127.505	127.951	-115.590	208.972	0.00014873	0.00027794	0.00011379	1173.9	1.5874e-06	2.8626e-06	1231	242.03	2.0223e-06	1.7227e-06	303.68	84.623	65.365	19.368	1.3461e-06	27.146	4.0503e-05	2.8969e-05	7.8005e-06	1122	3.6091e-07	2.9112e-07	1190.4	234.68	3.6719e-07	3.0067e-07	290.95	82.509	62.507	18.73	3.1571e-07	26.417	-124.430	-36.385	-48.730	-124.255	-7.434	24.015	-124.387	-117.320	2.780	-11.236	-117.494	-111.205	-110.522	-103.681	34.736	-103.644	-8191	255	
#DATA ENDS
