BOXY.EXE: ISS Imagent and Oximeter Data Acquisition Program Version 0.80
Ascii Record File

#ACQ INFORMATION
2  Detector Channels 
16  External MUX Channels 
1  Auxiliary Channels 
5000  Waveform (CCF) Frequency (Hz)
1  Waveforms Skipped 
30  Waveforms Averaged 
1  Cycles Averaged 
16  Acquisitions per Waveform 
10.0806  Updata Rate (Hz) 

#FILE INFORMATION
TRUE -- External MUX Channel results are PARSED.
FALSE -- AC DC and Phase are NOT grouped.
TRUE -- Companion Program Settings File CREATED.
FALSE -- AC data not excluded
FALSE -- DC data not excluded
FALSE -- Phase data not excluded
FALSE -- Auxillary Chn. data not excluded
Tab delimiters

#CALIBRATION STATE
TRUE -- Waveform Calibration Values APPLIED.


#AUX CALIBRATION VALUES
Val Type	aux-1	

Term	1.0000e+00	
Factor	0.0000e+00	


#WF CALIBRATION VALUES
A = Detector Channel
Val Type	A-AC1	A-AC2	A-AC3	A-AC4	A-AC5	A-AC6	A-AC7	A-AC8	A-AC9	A-AC10	A-AC11	A-AC12	A-AC13	A-AC14	A-AC15	A-AC16	A-DC1	A-DC2	A-DC3	A-DC4	A-DC5	A-DC6	A-DC7	A-DC8	A-DC9	A-DC10	A-DC11	A-DC12	A-DC13	A-DC14	A-DC15	A-DC16	A-Ph1	A-Ph2	A-Ph3	A-Ph4	A-Ph5	A-Ph6	A-Ph7	A-Ph8	A-Ph9	A-Ph10	A-Ph11	A-Ph12	A-Ph13	A-Ph14	A-Ph15	A-Ph16	

Term	0.00000e+00	0.00000e+00	0.00000e+00	0.00000e+00	0.00000e+00	0.00000e+00	0.00000e+00	0.00000e+00	0.00000e+00	0.00000e+00	0.00000e+00	0.00000e+00	0.00000e+00	0.00000e+00	0.00000e+00	0.00000e+00	0.00000e+00	0.00000e+00	0.00000e+00	0.00000e+00	0.00000e+00	0.00000e+00	0.00000e+00	0.00000e+00	0.00000e+00	0.00000e+00	0.00000e+00	0.00000e+00	0.00000e+00	0.00000e+00	0.00000e+00	0.00000e+00	0.00000e+00	0.00000e+00	0.00000e+00	0.00000e+00	0.00000e+00	0.00000e+00	0.00000e+00	0.00000e+00	0.00000e+00	0.00000e+00	0.00000e+00	0.00000e+00	0.00000e+00	0.00000e+00	0.00000e+00	0.00000e+00	
Factor	1.00000e+00	1.00000e+00	1.00000e+00	1.00000e+00	1.00000e+00	1.00000e+00	1.00000e+00	1.00000e+00	1.00000e+00	1.00000e+00	1.00000e+00	1.00000e+00	1.00000e+00	1.00000e+00	1.00000e+00	1.00000e+00	1.00000e+00	1.00000e+00	1.00000e+00	1.00000e+00	1.00000e+00	1.00000e+00	1.00000e+00	1.00000e+00	1.00000e+00	1.00000e+00	1.00000e+00	1.00000e+00	1.00000e+00	1.00000e+00	1.00000e+00	1.00000e+00	X	X	X	X	X	X	X	X	X	X	X	X	X	X	X	X	

B = Detector Channel
Val Type	B-AC1	B-AC2	B-AC3	B-AC4	B-AC5	B-AC6	B-AC7	B-AC8	B-AC9	B-AC10	B-AC11	B-AC12	B-AC13	B-AC14	B-AC15	B-AC16	B-DC1	B-DC2	B-DC3	B-DC4	B-DC5	B-DC6	B-DC7	B-DC8	B-DC9	B-DC10	B-DC11	B-DC12	B-DC13	B-DC14	B-DC15	B-DC16	B-Ph1	B-Ph2	B-Ph3	B-Ph4	B-Ph5	B-Ph6	B-Ph7	B-Ph8	B-Ph9	B-Ph10	B-Ph11	B-Ph12	B-Ph13	B-Ph14	B-Ph15	B-Ph16	

Term	0.00000e+00	0.00000e+00	0.00000e+00	0.00000e+00	0.00000e+00	0.00000e+00	0.00000e+00	0.00000e+00	0.00000e+00	0.00000e+00	0.00000e+00	0.00000e+00	0.00000e+00	0.00000e+00	0.00000e+00	0.00000e+00	0.00000e+00	0.00000e+00	0.00000e+00	0.00000e+00	0.00000e+00	0.00000e+00	0.00000e+00	0.00000e+00	0.00000e+00	0.00000e+00	0.00000e+00	0.00000e+00	0.00000e+00	0.00000e+00	0.00000e+00	0.00000e+00	-9.90304e+01	-1.35732e+02	-1.36445e+02	-1.81955e+02	-6.32359e+01	-7.00468e+01	-1.55865e+02	-1.62015e+02	-5.28796e+01	-6.72096e+01	-1.73578e+02	-1.70098e+02	-1.84416e+02	-1.76662e+02	-7.14242e+01	-1.49046e+02	
Factor	1.61227e-05	1.53640e-04	4.82937e-05	1.70074e-01	1.20327e-06	1.47695e-06	1.57498e-01	5.08174e-02	1.03867e-06	1.45238e-06	9.60303e-02	2.81729e-02	5.38668e-02	9.01616e-03	1.33076e-06	1.28469e-02	1.78411e-06	1.91716e-06	5.33672e-07	8.42362e-02	2.08320e-08	2.10161e-08	7.33345e-02	2.52856e-02	2.08088e-08	2.10259e-08	4.56947e-02	1.35968e-02	2.61707e-02	4.47479e-03	2.08188e-08	6.15170e-03	X	X	X	X	X	X	X	X	X	X	X	X	X	X	X	X	



#DISTANCE SETTINGS
A = Detector Channel
A-1	A-2	A-3	A-4	A-5	A-6	A-7	A-8	A-9	A-10	A-11	A-12	A-13	A-14	A-15	A-16	

2.5000e+00	3.0000e+00	2.5000e+00	3.0000e+00	2.0000e+00	3.0000e+00	1.5000e+00	3.0000e+00	3.0000e+00	3.0000e+00	3.0000e+00	3.0000e+00	3.0000e+00	3.0000e+00	1.5000e+00	3.0000e+00	

B = Detector Channel
B-1	B-2	B-3	B-4	B-5	B-6	B-7	B-8	B-9	B-10	B-11	B-12	B-13	B-14	B-15	B-16	

1.0000e+01	1.0000e+01	1.0000e+01	1.4400e+00	1.0000e+01	1.0000e+01	1.5100e+00	1.9400e+00	1.0000e+01	1.0000e+01	1.9900e+00	2.4900e+00	2.4100e+00	2.9000e+00	1.0000e+01	2.9800e+00	




#DATA BEGINS
time	group	step	mark	flag	A-AC1	A-AC2	A-AC3	A-AC4	A-AC5	A-AC6	A-AC7	A-AC8	A-AC9	A-AC10	A-AC11	A-AC12	A-AC13	A-AC14	A-AC15	A-AC16	A-DC1	A-DC2	A-DC3	A-DC4	A-DC5	A-DC6	A-DC7	A-DC8	A-DC9	A-DC10	A-DC11	A-DC12	A-DC13	A-DC14	A-DC15	A-DC16	A-Ph1	A-Ph2	A-Ph3	A-Ph4	A-Ph5	A-Ph6	A-Ph7	A-Ph8	A-Ph9	A-Ph10	A-Ph11	A-Ph12	A-Ph13	A-Ph14	A-Ph15	A-Ph16	B-AC1	B-AC2	B-AC3	B-AC4	B-AC5	B-AC6	B-AC7	B-AC8	B-AC9	B-AC10	B-AC11	B-AC12	B-AC13	B-AC14	B-AC15	B-AC16	B-DC1	B-DC2	B-DC3	B-DC4	B-DC5	B-DC6	B-DC7	B-DC8	B-DC9	B-DC10	B-DC11	B-DC12	B-DC13	B-DC14	B-DC15	B-DC16	B-Ph1	B-Ph2	B-Ph3	B-Ph4	B-Ph5	B-Ph6	B-Ph7	B-Ph8	B-Ph9	B-Ph10	B-Ph11	B-Ph12	B-Ph13	B-Ph14	B-Ph15	B-Ph16	aux-1	digaux	

1663.434	1	1	0	256	0.032052	0.19428	0.19477	0.22837	0.12715	0.14058	0.18442	0.036104	0.18085	0.17099	0.28896	0.19771	0.12451	0.16944	0.31498	0.10985	-2.4208	-2.5021	-2.8563	-2.7625	-2.3312	-2.9396	-2.7896	-2.9688	-2.9688	-2.4813	-3.0583	-2.8917	-2.5042	-3.0958	-2.4313	-2.8167	-19.831	52.132	10.572	60.329	-55.230	165.747	196.029	154.881	222.250	108.708	199.557	206.969	-78.898	196.501	-38.687	-85.429	0.00022716	0.00024167	0.00011002	971.58	2.3265e-06	1.9318e-06	967.4	265.39	2.0362e-06	2.0762e-06	305.61	100.58	86.441	29.935	5.0714e-06	37.076	0.00030844	0.00030768	8.7312e-05	1001.4	3.3678e-06	3.3754e-06	1003.7	275.71	3.359e-06	3.3854e-06	315.64	105.24	90.568	31.317	3.3923e-06	38.738	-120.979	-38.532	-39.624	-123.900	28.016	7.971	-123.884	-119.101	13.122	32.944	-119.717	-115.647	-115.213	-110.273	-9.573	-110.750	-8191	255	
1663.555	1	1	0	0	0.16101	0.23939	0.16311	0.15629	0.19534	0.068076	0.21366	0.052117	0.25775	0.3004	0.17954	0.37889	0.038985	0.13869	0.088883	0.056066	-2.5021	-2.4688	-2.7125	-2.8271	-2.5417	-2.9604	-2.7542	-2.6021	-2.8271	-2.525	-2.825	-2.9729	-2.6646	-3.0104	-2.5021	-2.6375	136.399	54.604	183.820	79.400	8.477	68.874	189.541	-101.081	-82.039	117.240	93.251	94.335	-84.542	195.630	-67.727	-132.040	0.00021228	0.00048172	0.000276	968.28	2.3454e-06	4.3302e-06	966.71	265.23	3.1965e-06	2.1314e-06	304.26	100.41	86.108	30.013	4.1354e-06	36.864	0.00030831	0.0003109	8.6247e-05	999.92	3.3889e-06	3.4113e-06	1003.4	275.64	3.3563e-06	3.3956e-06	314.87	105.31	90.167	31.266	3.3715e-06	38.634	-123.561	-59.133	-38.206	-123.848	1.063	-11.873	-123.747	-119.240	-11.595	-24.853	-119.674	-115.692	-115.133	-110.129	-20.511	-110.978	-8191	255	
1663.651	1	1	0	0	0.057452	0.084315	0.24654	0.24056	0.11896	0.24592	0.081221	0.28109	0.060599	0.33875	0.29709	0.36985	0.17097	0.040123	0.14427	0.15652	-2.6042	-2.4542	-2.6354	-2.8958	-2.4604	-2.9292	-2.7479	-2.7667	-2.8312	-2.5104	-2.7042	-2.8375	-2.4896	-3.0333	-2.7375	-2.775	170.653	28.110	172.594	211.270	172.835	-31.184	41.652	157.894	72.421	154.780	186.873	-103.757	218.843	-108.562	107.865	-9.731	0.00024103	0.00037859	0.00013698	968.84	5.6411e-06	3.9651e-06	965.83	264.49	1.737e-06	5.1559e-06	304.51	100.45	86.084	29.889	3.0428e-06	36.916	0.000313	0.00031553	8.7342e-05	1000.5	3.4459e-06	3.4586e-06	1002.6	275.19	3.4456e-06	3.4408e-06	314.18	105.22	90.192	31.184	3.4173e-06	38.582	-128.162	-107.733	-49.556	-123.962	20.010	20.970	-123.741	-118.996	5.685	-17.684	-119.619	-115.566	-115.121	-110.065	-21.584	-110.862	-8191	255	
1663.747	1	1	0	0	0.24419	0.019076	0.24709	0.23654	0.099526	0.051112	0.23351	0.33752	0.16941	0.26697	0.13386	0.23911	0.2228	0.097749	0.18795	0.2195	-2.3458	-2.7062	-2.6583	-2.9542	-2.5292	-2.8688	-2.8812	-2.7167	-2.9146	-2.6562	-2.7896	-3.1063	-2.75	-3.0312	-2.8	-2.6271	52.958	-17.743	70.201	180.325	183.095	-0.276	202.819	147.665	24.459	-14.341	-95.156	6.318	144.244	-132.027	-81.409	148.308	0.00021695	0.00029326	6.6974e-05	964.04	1.1903e-06	4.6595e-06	962.49	262.56	9.4172e-07	3.819e-06	302.96	100.21	85.414	29.919	1.4148e-06	37.157	0.00031008	0.0003121	8.5858e-05	996.28	3.3697e-06	3.4307e-06	998.86	273.97	3.3647e-06	3.3541e-06	314.04	104.82	89.8	31.184	3.2344e-06	38.564	222.487	-55.475	-29.832	-123.752	-82.723	-45.161	-123.714	-119.116	29.591	43.976	-119.705	-115.667	-114.934	-110.147	30.342	-110.890	-8191	255	
1663.843	1	1	0	0	0.14675	0.15939	0.053256	0.18151	0.072784	0.0756	0.24051	0.13951	0.14087	0.019174	0.14165	0.19469	0.20782	0.15621	0.16804	0.16737	-2.5938	-2.6562	-2.625	-3.125	-2.4667	-2.7438	-2.875	-2.6375	-2.6875	-2.7938	-2.7	-3.0042	-2.7375	-2.6958	-2.9	-2.5	218.781	19.604	-101.486	183.478	161.949	54.753	-132.655	-9.274	76.093	170.071	-131.899	105.524	29.512	-124.748	-102.356	125.104	0.00021472	0.00028913	9.0521e-05	961.87	3.6037e-06	1.5598e-06	955.75	263.1	1.312e-06	5.0067e-06	302.29	100.19	85.554	29.764	5.6612e-06	36.643	0.00030208	0.00030206	8.1744e-05	992.28	3.2271e-06	3.2239e-06	993.63	273.45	3.2406e-06	3.2175e-06	312.15	104.58	89.643	31.062	3.1537e-06	38.325	-130.332	-64.425	-61.809	-123.855	-13.369	210.706	-123.766	-119.213	-39.957	41.477	-119.580	-115.514	-115.106	-110.236	24.367	-110.926	-8191	255	
1663.939	1	1	0	0	0.27515	0.15427	0.11563	0.10467	0.062358	0.15992	0.026599	0.22917	0.038133	0.18847	0.18007	0.20706	0.10083	0.13854	0.064215	0.21594	-2.4562	-2.5542	-2.55	-3.0875	-2.6917	-2.8042	-2.9583	-2.5417	-2.8729	-2.7083	-2.5917	-3.0542	-2.4688	-2.7354	-2.8771	-2.5812	129.659	-57.640	205.510	-79.872	73.790	-54.204	-34.299	166.658	78.911	-80.917	188.647	158.659	221.254	165.813	-135.956	128.456	0.00024645	0.00052893	0.00011513	956.82	2.7311e-06	2.0658e-06	958.21	262.33	5.2672e-07	5.5222e-06	302.22	99.298	85.489	29.809	4.1513e-06	36.792	0.00029066	0.00029013	7.9645e-05	987.84	3.1468e-06	3.1066e-06	991.4	272.74	3.1439e-06	3.1129e-06	312.18	104.27	89.394	31.012	3.0696e-06	38.287	-125.611	-55.278	-41.675	-123.822	15.541	-1.084	-123.854	-118.893	-69.921	30.727	-119.658	-115.358	-114.715	-110.272	-2.605	-110.899	-8191	255	
1664.035	1	1	0	0	0.2213	0.060672	0.21657	0.22531	0.13216	0.17449	0.092395	0.33565	0.076598	0.12994	0.29405	0.31393	0.14491	0.27181	0.17888	0.2088	-2.4604	-2.8833	-2.6083	-2.8771	-2.8167	-2.85	-3.0729	-2.5875	-2.7104	-2.8458	-2.5375	-3.2313	-2.575	-2.7708	-3.0812	-2.7354	114.152	181.104	-41.065	155.251	-8.577	10.870	125.216	188.444	-51.973	208.539	170.055	192.058	216.197	-85.360	153.634	137.221	0.00022506	0.00024993	3.0437e-05	956.61	3.8074e-06	4.5842e-07	957.52	261.74	8.4875e-07	3.2095e-06	299.71	99.729	85.17	29.937	1.944e-06	36.663	0.00028385	0.00028092	7.7053e-05	988.16	3.0828e-06	3.0408e-06	992.21	272.8	3.068e-06	3.0167e-06	311.26	104.39	89.127	31.05	3.0139e-06	38.25	-126.712	-50.648	-65.195	-123.852	-10.706	52.862	-123.787	-119.094	1.034	-38.880	-119.592	-115.526	-114.941	-110.243	-57.627	-110.911	-8191	255	
1664.154	1	1	0	0	0.21992	0.054313	0.29572	0.20274	0.08356	0.16372	0.36532	0.30215	0.083949	0.074623	0.25306	0.17828	0.248	0.16447	0.2704	0.07231	-2.2604	-2.8583	-2.4062	-2.8604	-2.725	-2.7271	-2.85	-2.7313	-2.6646	-2.9396	-2.6063	-2.8979	-2.6542	-2.675	-2.8438	-2.6188	179.949	220.370	45.699	196.327	168.917	123.563	175.340	184.812	104.425	96.562	-32.048	155.769	205.613	29.072	-118.468	95.399	0.00023504	0.00033875	0.0001122	952.47	7.0898e-07	3.5324e-06	948.93	261.9	3.6729e-06	5.5447e-06	301	99.194	84.753	29.48	2.5386e-06	36.544	0.00027217	0.00026932	7.349e-05	982.9	2.9431e-06	2.9362e-06	984.43	271.62	2.9078e-06	2.8495e-06	310.17	103.75	88.543	30.821	2.8416e-06	38.108	-131.672	-74.725	-48.070	-123.620	-24.354	10.305	-123.733	-118.963	10.635	66.272	-119.977	-115.462	-114.956	-110.166	-64.140	-110.960	-8191	255	
1664.250	1	1	0	0	0.23769	0.18607	0.12474	0.25998	0.26988	0.097594	0.2141	0.13698	0.1213	0.067964	0.15224	0.23619	0.1035	0.028261	0.12139	0.19934	-2.5354	-2.7875	-2.6688	-3.0396	-2.7271	-2.5438	-3.1104	-2.8167	-2.7812	-2.8083	-2.5938	-2.9021	-2.8271	-2.75	-2.7771	-2.5521	-24.565	41.478	46.054	144.775	78.840	35.263	163.441	44.881	188.536	216.827	94.726	176.169	56.252	162.568	87.809	-99.430	0.00022694	0.00068029	3.2577e-05	950.36	2.7427e-06	2.8566e-06	950.61	261.35	2.4217e-06	6.735e-07	300.84	99.764	85.817	29.863	9.9255e-07	36.671	0.00026559	0.00026314	7.2575e-05	980.8	2.8861e-06	2.8967e-06	985.63	271.74	2.9555e-06	2.9483e-06	310.74	104.08	89.125	31.009	3.0251e-06	38.264	-120.541	-63.645	-57.316	-123.760	-56.644	-48.560	-123.792	-118.919	-10.588	49.750	-119.938	-115.690	-115.108	-110.146	194.066	-110.896	-8191	255	
1664.347	1	1	0	0	0.22442	0.12902	0.17997	0.098911	0.20244	0.27722	0.134	0.25036	0.23254	0.16352	0.15123	0.15169	0.24173	0.032085	0.17294	0.073242	-2.2562	-2.7708	-2.5208	-2.85	-2.8729	-2.4062	-2.9437	-3.0292	-2.75	-2.7167	-2.6042	-2.8458	-2.8021	-2.5687	-2.9271	-2.8083	134.906	22.926	-127.238	-84.300	23.722	181.135	-21.330	11.956	-122.632	222.667	-87.188	-125.249	154.006	27.853	26.106	-23.361	0.0002279	0.00032413	9.3787e-05	956.74	1.7716e-06	3.1344e-06	950.86	262.49	2.5025e-06	3.246e-06	302.5	99.481	84.924	29.748	3.9313e-06	36.521	0.00028489	0.00028507	7.9967e-05	987.77	3.188e-06	3.1969e-06	991.21	273.12	3.2322e-06	3.213e-06	311.92	104.36	89.335	30.992	3.1429e-06	38.297	-134.076	-76.019	-42.313	-123.745	25.510	79.737	-123.785	-119.136	4.253	-17.272	-119.708	-115.523	-115.062	-110.081	-22.919	-110.893	-8191	255	
1664.443	1	1	0	0	0.050902	0.2232	0.31668	0.21133	0.26508	0.15308	0.111	0.098957	0.22602	0.057281	0.17211	0.068463	0.066526	0.18563	0.17587	0.14262	-2.3479	-2.8521	-2.4875	-2.8167	-2.7375	-2.7	-3.1896	-2.9333	-2.6854	-2.8812	-2.6667	-2.9667	-2.9375	-2.6271	-2.9062	-2.8542	-127.000	-24.359	123.251	-97.148	16.026	184.779	173.560	-109.280	212.609	86.617	115.001	204.662	116.514	215.522	19.535	165.080	0.00022548	0.00033546	4.7884e-05	955.29	3.8506e-06	2.6215e-06	954.13	262.13	5.0727e-06	2.8435e-06	301.5	99.444	85.21	29.735	3.034e-06	36.828	0.00028401	0.00028261	7.8558e-05	987.76	3.0451e-06	3.0282e-06	990.83	272.08	3.0481e-06	2.9773e-06	311.81	104.11	89.138	30.972	2.9861e-06	38.28	-124.723	-104.878	-7.945	-123.651	0.632	-43.836	-123.729	-118.952	0.017	54.845	-119.761	-115.521	-115.086	-110.373	16.051	-110.660	-8191	255	
1664.539	1	1	0	0	0.072846	0.22222	0.12734	0.23626	0.1503	0.30185	0.36503	0.10217	0.14874	0.068066	0.29296	0.080493	0.11064	0.19443	0.20961	0.097465	-2.1937	-2.9896	-2.6417	-2.7271	-3.0333	-2.6229	-3.0208	-2.775	-2.7938	-2.9583	-2.7417	-2.7104	-2.9688	-2.6458	-2.7083	-2.8604	176.369	205.981	105.365	185.079	-110.791	-59.200	169.266	137.474	84.397	-67.676	213.458	169.913	190.219	84.382	-20.956	101.180	0.00024446	0.0005278	5.7129e-05	955.91	2.0566e-06	3.5426e-06	954.3	261.66	1.8645e-06	1.7363e-06	302.48	99.272	85.393	29.615	1.8074e-06	36.642	0.00027353	0.00027347	7.605e-05	986.6	2.9528e-06	2.9462e-06	988.91	272.24	3.001e-06	3.004e-06	311.78	104.14	89.119	30.882	3.0241e-06	38.198	-126.193	-78.351	-43.793	-123.555	-8.958	3.091	-123.742	-118.980	-13.730	-10.716	-119.691	-115.699	-115.149	-110.138	-52.946	-110.822	-8191	255	
1664.635	1	1	0	0	0.26789	0.063488	0.11724	0.090062	0.1444	0.026766	0.076045	0.12548	0.11352	0.1773	0.17221	0.10879	0.20121	0.046824	0.23864	0.15582	-2.325	-2.8729	-2.5083	-2.7687	-2.8083	-2.6333	-2.8958	-2.8979	-2.5333	-2.9208	-2.7417	-2.6521	-2.8875	-2.5208	-2.7	-2.8958	16.005	21.142	87.657	-25.433	86.137	102.739	93.130	191.753	155.463	-135.558	10.060	-16.519	-83.138	113.506	203.513	169.610	0.00021043	0.00023845	5.1776e-05	960.16	5.953e-06	4.0674e-06	954.47	261.9	2.9027e-06	1.7297e-06	301.33	99.134	85.281	29.644	4.3108e-06	36.564	0.0002743	0.00027372	7.5278e-05	988.5	3.0014e-06	2.9672e-06	991.49	272.6	2.981e-06	2.9794e-06	311.75	104.1	89.077	30.869	2.968e-06	38.194	-126.621	-66.275	42.344	-123.800	-36.268	-42.527	-123.774	-119.119	-20.322	49.189	-119.653	-115.380	-115.155	-110.271	-25.276	-110.921	-8191	255	
1664.756	1	1	0	0	0.10597	0.33276	0.22048	0.18462	0.11706	0.21259	0.081793	0.32607	0.17775	0.081594	0.056699	0.18993	0.26809	0.27941	0.11476	0.16358	-2.0458	-2.9062	-2.7146	-2.7313	-2.9125	-2.5708	-2.8625	-3.0542	-2.6292	-2.7438	-2.9417	-2.5312	-3.0458	-2.7125	-2.7396	-3.0708	177.594	49.909	196.773	222.160	201.148	51.329	128.402	148.990	194.823	-9.748	48.243	-79.457	-31.007	98.574	-134.834	222.925	0.00021567	0.00015431	7.3042e-05	964.72	3.5117e-06	2.4127e-06	963.58	262.02	2.3002e-06	2.5815e-06	302.96	99.081	84.743	29.693	1.0189e-06	36.547	0.00027227	0.00026986	7.3125e-05	996.63	2.8312e-06	2.8356e-06	998.43	273.12	2.7974e-06	2.7971e-06	311.63	103.96	88.76	30.863	2.7559e-06	38.123	-126.060	-63.833	-80.624	-123.741	-3.773	2.667	-123.862	-119.044	12.348	-13.765	-119.702	-115.654	-115.014	-110.425	-100.976	-110.867	-8191	255	
1664.852	1	1	0	0	0.09903	0.20436	0.080772	0.22874	0.088825	0.14386	0.24013	0.25921	0.26719	0.20682	0.010495	0.23668	0.080984	0.095329	0.11793	0.18115	-2.1833	-2.9333	-2.8083	-2.6708	-2.8354	-2.7958	-2.95	-3.2562	-2.5396	-2.7417	-3.0812	-2.4917	-2.9667	-2.9479	-2.5979	-3.0187	94.654	-115.765	-8.198	-69.331	212.429	191.951	157.421	164.086	39.944	-87.724	7.615	178.531	65.669	102.345	-22.488	69.305	0.00024015	0.00016974	0.00011148	960.5	1.1114e-06	2.5814e-06	962.93	261.86	1.9698e-06	2.3157e-06	299.97	99.481	85.139	29.57	5.899e-06	36.828	0.00025611	0.00025823	7.1339e-05	992.32	2.8282e-06	2.8062e-06	997.52	272.66	2.837e-06	2.8175e-06	311.11	104	88.93	30.828	2.8271e-06	38.205	-135.316	-24.997	-131.102	-123.814	34.946	-26.357	-123.897	-118.916	-43.935	54.847	-119.690	-115.764	-114.874	-110.230	-18.322	-110.743	-8191	255	
1664.946	1	1	0	0	0.1775	0.32052	0.18629	0.22219	0.038069	0.1385	0.46565	0.21046	0.15453	0.074243	0.30147	0.25673	0.063134	0.10848	0.16693	0.17457	-2.1667	-2.7146	-2.6521	-2.65	-2.8583	-2.7104	-2.85	-3.0792	-2.6562	-2.975	-3.0625	-2.6875	-2.8021	-2.8063	-2.4042	-2.9437	13.526	124.818	197.230	87.376	159.130	-71.675	196.924	195.044	-124.603	93.966	207.915	197.598	-28.782	104.022	135.693	197.060	0.00024115	0.00052973	0.00018853	968.93	2.9377e-06	2.4676e-06	962.61	262.89	2.7509e-06	2.4065e-06	301.08	99.565	84.907	29.578	1.2125e-06	36.498	0.00026233	0.00025916	7.1205e-05	996.9	2.865e-06	2.7996e-06	998.82	273.04	2.8594e-06	2.8459e-06	311.38	103.89	88.848	30.801	2.7847e-06	38.126	-127.668	-75.366	-24.951	-123.627	-17.714	-0.219	-123.978	-118.796	-48.246	16.681	-119.679	-115.620	-115.023	-110.052	-31.284	-110.906	-8191	255	
1665.042	1	1	0	0	0.10462	0.06701	0.15067	0.27898	0.1258	0.1125	0.031935	0.19144	0.17586	0.045111	0.11588	0.18853	0.14398	0.1695	0.31605	0.28417	-2.1458	-2.6833	-2.9396	-2.6667	-2.8042	-2.8833	-2.8771	-3.1312	-2.8083	-2.7625	-3.0104	-2.7042	-2.9729	-2.8646	-2.4771	-2.8417	-53.728	-5.690	117.816	191.090	-10.250	-90.063	166.223	-122.795	77.414	34.571	77.685	167.501	-66.090	134.144	170.488	151.982	0.00023136	0.00055187	0.00018275	962.07	3.5377e-06	4.5713e-06	957.77	262.31	1.7237e-06	2.4049e-06	301.93	99.506	85.205	29.546	2.3141e-06	36.523	0.00025584	0.00024757	6.9218e-05	993.6	2.7518e-06	2.6823e-06	994.62	272.23	2.6503e-06	2.6046e-06	310.04	103.62	88.088	30.662	2.5418e-06	37.927	-131.278	-47.287	-65.615	-123.650	18.466	29.597	-123.814	-119.009	-62.332	15.578	-119.663	-115.488	-114.949	-110.337	32.187	-110.902	-8191	255	
1665.116	1	1	0	0	0.33744	0.052354	0.14733	0.049508	0.064273	0.068734	0.18573	0.11067	0.16103	0.17601	0.16416	0.19418	0.021752	0.1025	0.18103	0.050913	-2.2521	-2.6771	-2.9167	-2.6167	-2.8333	-2.8646	-2.8354	-3.0229	-2.6104	-2.4875	-3.0042	-2.5167	-2.6396	-2.9979	-2.5771	-3.0146	93.050	-121.239	49.811	116.305	39.099	136.918	217.467	82.364	-62.387	146.137	-89.464	-2.199	-81.835	-114.104	43.327	125.755	0.0002321	0.0004175	0.00011198	961.25	2.4739e-06	3.0151e-06	958.89	261.4	3.0787e-06	4.3673e-06	300.68	98.734	84.345	29.42	5.6575e-06	36.412	0.00024108	0.00023136	6.4511e-05	989.41	2.5874e-06	2.491e-06	992.87	270.87	2.5417e-06	2.4962e-06	308.87	103.05	87.725	30.506	2.4489e-06	37.718	-130.568	-85.686	-65.716	-123.549	31.932	24.708	-123.798	-118.899	36.565	-6.558	-119.638	-115.549	-115.248	-110.242	5.598	-110.979	-8191	255	
1665.235	1	1	0	0	0.17553	0.034326	0.23105	0.14077	0.051718	0.15516	0.096555	0.30019	0.08248	0.11719	0.18661	0.22764	0.28192	0.24097	0.06784	0.11551	-2.2979	-2.5687	-2.7729	-2.7333	-2.5333	-2.9167	-2.7292	-2.9125	-2.8167	-2.4938	-2.7854	-2.6208	-2.7625	-2.9167	-2.5333	-3.0292	145.650	-121.519	-95.190	-109.111	197.770	-127.790	177.628	106.457	69.370	16.071	-128.985	-131.305	90.104	-32.042	-27.834	14.288	0.0002023	0.00038814	0.00013561	956.34	1.9065e-06	4.2362e-06	953.84	260.31	3.5013e-06	1.5154e-06	301.44	98.566	85.089	29.447	3.3259e-06	36.456	0.00023064	0.00022272	6.2165e-05	982.71	2.4677e-06	2.4272e-06	986.63	269.86	2.5133e-06	2.5142e-06	308.23	102.97	87.762	30.552	2.5412e-06	37.796	-123.430	-28.453	-36.225	-123.694	-23.988	31.981	-123.927	-119.008	-39.375	69.370	-119.624	-115.519	-114.630	-110.046	19.327	-110.733	-8191	255	
1665.331	1	1	0	0	0.11632	0.094347	0.10156	0.1731	0.20023	0.37562	0.069695	0.31871	0.072893	0.13862	0.095775	0.20196	0.056938	0.10211	0.23064	0.23715	-2.3375	-2.4729	-2.8667	-2.8646	-2.45	-2.9562	-2.6646	-2.9583	-2.6	-2.6042	-2.9333	-2.5625	-2.5917	-3.0146	-2.6208	-2.8812	-59.546	-125.099	-131.152	177.977	201.099	137.073	-136.541	182.558	-130.484	87.190	35.111	-93.014	-129.189	-112.974	-57.165	207.420	0.00022372	0.00046768	6.9899e-05	956.94	6.0279e-06	4.0293e-06	953.48	259.37	2.1751e-06	3.7217e-06	298.13	98.455	84.011	29.367	3.204e-06	36.325	0.00023748	0.00023268	6.499e-05	983.97	2.5667e-06	2.5328e-06	987.4	268.96	2.5516e-06	2.5323e-06	307.13	102.58	87.267	30.438	2.5369e-06	37.687	-128.480	-66.224	-7.347	-123.541	3.381	23.754	-123.755	-119.013	-71.304	51.958	-119.292	-115.496	-114.795	-110.248	16.618	-110.691	-8191	255	
1665.427	1	1	0	0	0.14595	0.25492	0.14736	0.14975	0.1317	0.16458	0.29243	0.24828	0.3743	0.080538	0.18925	0.21048	0.21171	0.25935	0.1938	0.10348	-2.4896	-2.6479	-2.8	-2.8417	-2.5938	-2.825	-2.7667	-2.9875	-2.8417	-2.6771	-2.7833	-2.7979	-2.6396	-2.9458	-2.6271	-2.7979	82.496	-130.852	26.547	-76.380	-73.389	198.038	118.798	190.989	188.266	27.873	206.608	211.549	-29.593	206.446	210.559	-52.536	0.00023526	0.00013617	7.8549e-05	952.57	3.1631e-06	1.5293e-06	949.3	257.65	3.3458e-06	2.5176e-06	296.04	97.998	83.479	29.153	2.5911e-06	36.187	0.00023401	0.00023242	6.4895e-05	977.55	2.488e-06	2.5297e-06	979.56	267.51	2.5007e-06	2.4776e-06	304.96	102.1	86.735	30.303	2.4578e-06	37.48	-130.620	-98.156	33.904	-123.686	10.668	1.386	-123.786	-118.884	0.282	73.259	-119.568	-115.509	-114.921	-110.394	18.751	-110.594	-8191	255	
1665.523	1	1	0	0	0.12221	0.14942	0.28419	0.14482	0.32302	0.16409	0.061459	0.23876	0.1772	0.19704	0.15059	0.21804	0.16467	0.086354	0.12306	0.1136	-2.3208	-2.5771	-2.8438	-2.8583	-2.7229	-2.9792	-2.7104	-2.8229	-2.8604	-2.6125	-2.8917	-2.8438	-2.5438	-2.9375	-2.6542	-2.65	222.731	182.690	40.170	151.276	-68.910	98.870	-133.712	218.516	-54.508	211.974	-33.083	201.310	-45.062	109.956	-34.450	-115.710	0.00022698	0.00044954	2.1399e-05	948.71	2.3166e-06	4.8764e-06	948.81	258.02	3.265e-06	5.2199e-06	296.25	98.025	84.15	29.224	1.0208e-06	36.135	0.00023145	0.00022891	6.3745e-05	974.93	2.4841e-06	2.5021e-06	978.56	267.22	2.5422e-06	2.5391e-06	305.1	102.16	86.796	30.318	2.5678e-06	37.525	-129.822	-60.375	-31.030	-123.730	-32.566	10.802	-123.645	-118.871	-43.310	-40.493	-119.685	-115.599	-115.195	-110.047	-23.875	-110.596	-8191	255	
1665.644	1	1	0	0	0.11104	0.23916	0.19084	0.13967	0.19703	0.038032	0.12038	0.15212	0.17948	0.014994	0.23548	0.11667	0.10808	0.096087	0.15648	0.20504	-2.3937	-2.6375	-2.7458	-2.9188	-2.4021	-2.9313	-2.9271	-2.7958	-2.7812	-2.6458	-2.8417	-2.8146	-2.4813	-2.9979	-2.7167	-2.6604	122.800	99.764	-80.453	26.744	135.844	-83.034	-71.795	83.407	68.093	7.095	41.861	203.377	-28.565	76.632	213.449	197.118	0.00024469	0.00026504	0.00015294	946.39	1.4236e-06	4.655e-06	945.02	257.2	2.507e-06	5.3982e-06	295.85	97.609	83.347	29.001	2.9173e-06	35.904	0.00024009	0.00024	6.5688e-05	972.36	2.6055e-06	2.6186e-06	975.9	266.9	2.5917e-06	2.5708e-06	304.19	101.93	86.773	30.221	2.648e-06	37.455	-129.405	-50.077	-70.918	-123.525	-51.401	35.493	-123.772	-119.017	-13.271	25.321	-119.553	-115.442	-114.364	-110.092	0.275	-110.852	-8191	255	
1665.740	1	1	0	0	0.10224	0.25459	0.012402	0.39713	0.12747	0.22768	0.14389	0.3458	0.30333	0.049364	0.032507	0.050107	0.25711	0.10476	0.016219	0.14082	-2.65	-2.6583	-2.4667	-3.0625	-2.5958	-2.7938	-2.8875	-2.4521	-2.7625	-2.7167	-2.9354	-2.9604	-2.4958	-2.8312	-2.6708	-2.4854	-12.292	79.436	157.369	189.129	-107.205	-63.162	162.252	157.147	-31.998	59.197	131.921	-83.004	209.581	101.442	134.993	-123.069	0.00024838	0.00015269	0.00013651	944.98	1.5741e-06	2.5601e-06	943.52	257.23	3.4077e-06	2.9392e-06	295.48	97.517	83.302	29.163	3.5424e-06	35.997	0.00024941	0.00024565	6.9036e-05	973.21	2.7461e-06	2.722e-06	976.82	266.37	2.7685e-06	2.7632e-06	304.2	101.81	86.813	30.272	2.7587e-06	37.422	-129.587	-64.966	-62.265	-123.741	31.771	35.074	-123.766	-118.985	-7.808	-13.511	-119.411	-115.023	-114.737	-110.141	-0.099	-110.809	-8191	255	
1665.836	1	1	0	0	0.14811	0.097871	0.1041	0.31578	0.066361	0.14405	0.17278	0.63708	0.14722	0.19493	0.16155	0.11453	0.10153	0.2464	0.1872	0.17297	-2.5458	-2.6063	-2.6104	-3.1063	-2.6	-2.8271	-2.95	-2.6437	-2.9646	-2.7687	-2.7458	-2.8042	-2.5396	-2.8083	-2.7292	-2.8208	2.991	-35.930	-55.992	153.961	16.909	79.115	-91.382	174.809	-118.000	102.309	-29.197	117.509	-121.553	208.964	85.699	129.468	0.00018665	0.00026769	0.00010537	937.65	3.7947e-06	1.3756e-06	936.66	255.85	2.9915e-06	2.608e-06	295.43	97.338	83.402	29.137	1.2596e-06	36.049	0.00025445	0.00024973	6.9198e-05	967.46	2.7312e-06	2.6933e-06	970.76	265.8	2.7674e-06	2.72e-06	303.56	101.59	86.552	30.189	2.6828e-06	37.437	-127.271	-7.015	-33.380	-123.596	-6.066	-1.479	-123.775	-118.819	-29.013	55.296	-119.579	-115.329	-115.000	-110.125	-25.830	-110.554	-8191	255	
1665.932	1	1	0	0	0.21109	0.28432	0.079448	0.11812	0.33137	0.19794	0.16704	0.35061	0.089752	0.081784	0.29413	0.48701	0.08049	0.3715	0.095011	0.15066	-2.2667	-2.6583	-2.7271	-3.0146	-2.6688	-2.6125	-2.8521	-2.7167	-2.9146	-2.6958	-2.6104	-2.9667	-2.7438	-2.95	-2.8729	-2.5104	166.426	74.986	81.123	209.389	137.232	120.647	197.012	125.955	194.366	-44.196	143.850	183.170	196.277	-122.251	67.294	-94.653	0.00021492	0.00032493	0.00015431	941.44	7.8601e-07	2.9527e-06	938.63	255.66	1.483e-06	3.9756e-06	294.38	97.074	83.127	29.035	4.0491e-06	35.833	0.00025157	0.00024664	6.8536e-05	967.51	2.7491e-06	2.7028e-06	971.68	265.1	2.7268e-06	2.6896e-06	303.11	101.45	86.301	30.113	2.6857e-06	37.331	-129.499	-43.126	-57.731	-123.757	-53.811	-0.321	-123.768	-118.894	-61.440	13.853	-119.932	-115.252	-114.823	-109.971	-55.216	-110.575	-8191	255	
1666.027	1	1	0	0	0.19986	0.14163	0.15485	0.23789	0.033268	0.1167	0.19803	0.062271	0.14469	0.020986	0.19269	0.28043	0.19052	0.29693	0.095422	0.096428	-2.2792	-2.6229	-2.5542	-3.025	-2.6688	-2.7354	-2.9292	-2.5938	-2.7667	-2.9458	-2.7896	-3.1396	-2.5146	-2.7292	-3.0812	-2.6917	-59.000	102.025	122.887	194.508	213.991	52.202	146.827	49.598	205.351	128.800	204.435	9.004	-96.489	-128.939	-34.970	-64.261	0.0002119	9.6829e-05	0.00013436	936.35	1.1537e-06	5.0862e-06	934.24	255.13	3.1678e-06	2.0338e-06	293.34	96.517	82.842	28.913	1.6465e-06	36.035	0.00025195	0.00024236	6.8216e-05	965.09	2.7027e-06	2.6642e-06	967.81	264.49	2.6868e-06	2.6605e-06	302.31	101.09	86.254	30.037	2.6533e-06	37.375	-134.801	-93.862	-64.716	-123.655	2.730	-14.674	-123.720	-118.816	16.172	-25.764	-119.402	-115.115	-114.735	-109.979	44.464	-110.893	-8191	255	
1666.124	1	1	0	0	0.077736	0.18322	0.13545	0.20422	0.035644	0.099595	0.075764	0.33987	0.099887	0.1532	0.11643	0.37399	0.26923	0.17662	0.13594	0.14636	-2.3958	-2.8646	-2.6229	-3.0187	-2.5875	-2.7875	-3.1229	-2.775	-3.0125	-2.8812	-2.6562	-3.0417	-2.7167	-2.5771	-2.875	-2.6854	27.827	-37.278	-123.165	139.160	97.259	-42.212	86.213	147.131	110.808	11.468	205.630	197.638	-55.065	112.087	-82.179	139.065	0.00020958	0.00039216	5.0594e-05	935.79	1.9706e-06	6.2292e-06	935.86	253.89	1.2775e-06	2.4401e-06	292.15	96.876	82.613	28.915	1.0273e-06	35.619	0.00025018	0.00024631	6.8411e-05	963.41	2.7272e-06	2.6907e-06	967.39	264.38	2.7518e-06	2.7487e-06	302.22	101.13	85.967	30.023	2.7357e-06	37.25	-125.022	-53.546	-65.979	-123.347	-16.300	22.233	-123.807	-118.909	-39.903	-6.077	-119.458	-115.595	-114.783	-110.338	109.308	-110.618	-8191	255	
1666.243	1	1	0	0	0.18585	0.071326	0.11127	0.38959	0.13499	0.23853	0.10662	0.17908	0.077543	0.071489	0.083309	0.11123	0.24505	0.11164	0.20621	0.040964	-2.3354	-2.7146	-2.5396	-2.8083	-2.7771	-2.4917	-3.0208	-2.7896	-2.6979	-2.9604	-2.6958	-2.9938	-2.775	-2.5375	-2.9604	-2.6937	71.618	156.256	205.428	196.686	4.252	-112.837	202.615	204.988	-68.509	-30.571	166.098	91.288	-48.042	204.293	124.852	165.961	0.00018826	0.00032378	4.7661e-05	935.23	1.4424e-06	1.2932e-06	931.94	254.96	2.1339e-06	4.2684e-06	292.77	96.898	82.218	28.873	2.5284e-06	35.973	0.00025335	0.00024789	6.9692e-05	961.58	2.7434e-06	2.7387e-06	966.24	264.21	2.7363e-06	2.722e-06	301.41	101.15	85.776	30	2.8052e-06	37.307	-129.649	-39.325	-77.205	-123.554	-6.956	-46.149	-123.701	-118.742	1.720	-22.629	-119.517	-115.313	-114.554	-109.928	-9.770	-110.877	-8191	255	
1666.340	1	1	0	0	0.19469	0.30338	0.13307	0.075536	0.14004	0.21808	0.19489	0.13802	0.18167	0.10736	0.17138	0.28065	0.23006	0.098479	0.12553	0.086038	-2.1063	-2.8563	-2.625	-2.875	-2.8	-2.6083	-2.9688	-2.7896	-2.6562	-2.8667	-2.7979	-2.7188	-2.875	-2.6125	-2.9667	-2.7354	74.202	218.254	-46.311	127.763	-20.155	100.655	181.467	-128.040	206.292	-18.288	201.160	4.279	-47.488	-46.863	219.786	-47.122	0.00020032	0.0002983	0.00010086	936.25	1.9267e-06	4.0589e-06	933.88	253.96	5.0036e-06	2.0228e-06	293.56	97.121	82.962	28.899	2.8358e-06	35.745	0.00025696	0.0002553	7.1211e-05	962.64	2.8119e-06	2.7982e-06	966.27	263.93	2.8088e-06	2.7884e-06	302.05	101.33	86.053	29.934	2.8267e-06	37.312	-130.740	-78.402	-110.182	-123.555	-109.178	22.869	-123.801	-118.973	-48.069	71.448	-119.575	-115.268	-114.928	-110.299	4.060	-110.822	-8191	255	
1666.411	1	1	0	0	0.13284	0.099029	0.28905	0.18974	0.13907	0.089815	0.16638	0.17572	0.11556	0.037596	0.14228	0.1262	0.25781	0.23046	0.22652	0.13217	-2.2396	-2.8271	-2.5958	-2.8917	-2.8333	-2.4354	-3.0854	-2.7	-2.5375	-2.95	-2.65	-2.7812	-2.7667	-2.6042	-2.8125	-2.9146	75.583	16.565	203.943	83.640	188.100	137.677	120.142	123.907	18.301	219.177	151.368	101.330	151.994	191.177	128.111	68.422	0.00021505	0.00057916	4.2648e-05	932.99	2.1078e-06	4.9232e-06	933.52	255.94	5.5779e-07	2.0498e-06	294.21	96.826	83.131	28.881	2.8126e-06	36.132	0.00025721	0.00025929	7.1957e-05	960.66	2.8066e-06	2.7902e-06	966.36	264.96	2.855e-06	2.8712e-06	302.94	101.27	86.269	30.026	2.8906e-06	37.486	-119.866	-67.263	-50.872	-123.638	-101.669	35.206	-123.684	-118.937	-64.372	31.230	-119.612	-115.321	-115.022	-110.074	2.277	-110.821	-8191	255	
1666.532	1	1	0	0	0.11768	0.16406	0.28661	0.077377	0.25458	0.082386	0.17261	0.083614	0.16182	0.070697	0.15185	0.1888	0.19993	0.22054	0.25186	0.11939	-2.1354	-3.0354	-2.475	-2.8229	-2.875	-2.675	-2.9521	-2.6604	-2.4021	-2.9042	-2.6896	-2.8292	-2.7854	-2.6	-2.7333	-2.8958	-69.646	43.988	102.724	-60.930	-20.034	-109.226	-126.208	131.480	204.163	184.718	-88.589	88.402	138.982	168.882	65.024	168.257	0.00021827	0.00050645	8.8236e-05	938.02	2.5048e-06	4.3558e-06	939.01	255.92	1.7488e-06	3.2328e-06	295.66	97.593	83.015	29.007	4.1303e-06	36.051	0.00026255	0.00026521	7.3993e-05	968.02	2.9233e-06	2.9479e-06	973.66	265.99	2.9734e-06	2.9619e-06	304.91	101.81	86.922	30.193	2.975e-06	37.618	-130.517	-75.779	-47.375	-123.547	-10.217	53.872	-123.746	-118.984	24.175	4.972	-119.467	-115.558	-115.086	-109.960	30.887	-110.782	-8191	255	
1666.628	1	1	0	0	0.094936	0.17676	0.062451	0.29253	0.23243	0.26882	0.14479	0.25529	0.3079	0.033161	0.17841	0.23574	0.082414	0.077779	0.13723	0.33637	-2.1167	-2.9854	-2.5646	-2.6979	-2.9792	-2.5667	-2.8542	-2.8417	-2.5417	-2.8458	-2.8417	-2.6125	-2.9042	-2.6271	-2.8146	-3.0042	1.233	161.242	60.261	142.069	6.781	86.624	175.075	177.530	75.664	186.071	-23.256	212.527	33.530	178.199	-133.475	-85.235	0.00021998	0.00027983	0.00017124	947.15	2.8558e-06	8.036e-07	952.59	257.52	2.053e-06	3.6187e-06	296.56	97.436	83.877	29.071	3.3924e-06	36.188	0.00027401	0.00027357	7.6313e-05	976.62	2.9892e-06	2.9852e-06	984.23	267.55	2.9892e-06	3.021e-06	305.99	102.24	87.492	30.302	3.0055e-06	37.713	-126.823	-14.411	-47.132	-123.782	-14.635	4.271	-123.751	-119.066	14.863	24.677	-119.692	-115.246	-114.960	-110.172	-9.771	-110.923	-8191	255	
1666.724	1	1	0	0	0.38119	0.10127	0.3468	0.12583	0.1076	0.15549	0.26767	0.22128	0.14044	0.15138	0.15727	0.11014	0.1167	0.32662	0.21484	0.1492	-2.1917	-2.95	-2.8458	-2.7542	-3	-2.5583	-2.95	-3.0792	-2.4313	-2.7521	-2.8292	-2.5417	-3.175	-2.7354	-2.6562	-2.975	144.763	-53.244	-120.020	142.014	-7.417	61.818	130.702	208.069	177.147	80.008	213.576	-104.958	-22.748	208.740	96.319	103.856	0.00020566	0.00027796	0.0001131	948.53	1.3337e-06	4.3621e-06	953.38	257.69	2.5917e-06	3.2267e-06	297.11	97.839	83.343	29.141	3.4829e-06	36.088	0.00027447	0.00027002	7.4844e-05	978.59	2.9645e-06	2.9376e-06	984.67	267.6	2.9716e-06	2.9725e-06	306.09	102.49	87.166	30.338	2.9303e-06	37.694	-119.102	-48.493	-42.764	-123.657	58.246	29.418	-123.810	-118.856	-28.468	20.173	-119.676	-115.435	-114.942	-110.017	-6.909	-110.619	-8191	255	
1666.820	1	1	0	0	0.22872	0.34534	0.11069	0.33459	0.13571	0.089115	0.15032	0.12699	0.18265	0.26138	0.14805	0.23453	0.27402	0.47846	0.33654	0.10528	-2.1958	-2.6396	-2.8187	-2.7812	-2.9562	-2.8187	-2.7229	-2.8167	-2.6042	-2.6167	-3.0229	-2.5938	-2.8458	-2.9	-2.6771	-2.9979	124.933	-99.953	-76.142	188.430	-66.617	70.086	197.989	79.250	45.597	3.836	193.867	92.542	106.222	156.819	-112.117	90.236	0.0002032	0.00026606	0.00013532	950.14	1.0439e-06	3.7418e-06	949.5	258.2	3.302e-06	1.253e-06	294.66	97.777	83.333	29.197	2.3462e-06	36.12	0.00027099	0.0002693	7.4521e-05	979.54	2.9347e-06	2.9276e-06	983.07	267.88	2.9547e-06	2.9299e-06	304.81	102.13	87.027	30.313	2.8816e-06	37.622	-127.467	-51.096	-82.053	-123.586	146.860	33.874	-123.775	-118.909	-1.828	58.372	-119.430	-115.433	-115.135	-110.218	17.512	-110.899	-8191	255	
1666.939	1	1	0	0	0.20302	0.26298	0.053157	0.23419	0.061495	0.029753	0.22351	0.17451	0.095063	0.32388	0.23452	0.27246	0.32456	0.17597	0.12227	0.10745	-2.1833	-2.7333	-2.8167	-2.6229	-2.9375	-2.7833	-2.625	-3.0854	-2.6333	-2.8292	-2.8354	-2.5417	-2.9437	-2.8042	-2.5104	-3.0458	131.142	197.469	-34.946	150.866	15.244	-9.028	163.596	117.944	152.125	-86.414	-104.538	170.505	161.369	215.279	123.804	185.926	0.00019999	0.0005184	9.5085e-05	947.34	9.7558e-07	3.2271e-06	946.49	257.98	1.1208e-06	2.8125e-06	297.12	98.14	83.539	29.028	1.8144e-06	36.17	0.00026812	0.00026464	7.3156e-05	976.53	2.9202e-06	2.8717e-06	979.98	267.45	2.9085e-06	2.8919e-06	305.26	102.22	87.215	30.293	2.833e-06	37.604	-128.423	-52.359	-106.434	-123.682	31.002	-15.712	-123.736	-118.939	11.519	-15.108	-119.553	-115.449	-114.711	-110.095	-56.766	-110.825	-8191	255	
1667.035	1	1	0	0	0.21387	0.02417	0.20872	0.091702	0.33348	0.0088674	0.074768	0.15824	0.12552	0.04796	0.10062	0.20465	0.14464	0.14113	0.089961	0.059062	-2.1875	-2.7417	-2.8292	-2.95	-2.875	-2.7854	-2.8708	-3.0958	-2.6396	-2.5479	-2.9583	-2.7146	-2.7333	-2.7146	-2.6042	-3.0687	-90.480	50.246	16.225	204.897	-37.946	5.627	118.458	18.110	-92.163	-81.482	218.902	-128.147	-69.664	182.025	211.719	111.231	0.0002279	0.00035999	5.6989e-05	947.01	2.1014e-06	3.924e-06	944.43	257.22	2.0434e-06	2.7265e-06	296.4	97.359	83.575	29.155	2.9175e-06	36.256	0.00026661	0.00026237	7.3301e-05	975.06	2.8853e-06	2.8443e-06	977.9	267.19	2.8837e-06	2.8394e-06	305.21	101.99	87.009	30.286	2.8383e-06	37.604	-130.164	-38.253	-48.581	-123.658	18.263	94.745	-123.803	-119.090	-10.794	-10.834	-119.527	-115.327	-114.870	-110.334	-49.010	-110.904	-8191	255	
1667.107	1	1	0	0	0.2097	0.20835	0.15986	0.15717	0.25929	0.1963	0.20486	0.14197	0.083158	0.25448	0.25112	0.12021	0.14534	0.073933	0.068543	0.1112	-2.3417	-2.7375	-2.9083	-2.65	-2.7708	-2.9188	-2.7167	-2.9271	-2.7062	-2.6083	-3.0625	-2.5708	-2.7604	-2.7375	-2.7146	-2.9958	-45.517	86.469	56.494	207.607	167.715	170.734	168.305	-120.422	25.942	42.699	180.804	130.226	60.143	181.171	146.331	177.816	0.00023609	0.00023967	0.00017475	944.57	5.6241e-06	2.5738e-06	946.81	257.53	1.9372e-06	4.7659e-06	294.88	98.077	83.216	29.133	1.9864e-06	36.135	0.00026451	0.00025849	7.3314e-05	973.85	2.8677e-06	2.8201e-06	977.72	267.19	2.8543e-06	2.8218e-06	304.55	101.88	87.057	30.259	2.8386e-06	37.563	-125.910	-14.800	-97.899	-123.652	4.218	-63.921	-123.859	-118.871	8.116	-15.502	-119.756	-115.579	-114.622	-110.128	-26.681	-110.652	-8191	255	
1667.205	1	1	0	0	0.17776	0.020143	0.020546	0.27909	0.21574	0.16506	0.24641	0.06926	0.26425	0.13938	0.10528	0.1277	0.16233	0.15063	0.12054	0.14906	-2.4521	-2.5708	-2.8354	-2.7521	-2.7625	-2.9208	-2.8604	-3.0563	-2.7562	-2.4458	-2.9854	-2.6771	-2.6729	-3.075	-2.6146	-2.9667	160.453	55.146	-90.684	189.679	-15.351	113.695	-99.570	202.226	112.936	-24.183	-9.112	-110.385	-112.375	169.901	208.672	148.772	0.00022514	0.00045871	0.00010945	944.88	2.7668e-06	2.7556e-06	943.43	257.12	3.3855e-06	4.7187e-06	296.02	97.681	84.387	29.124	2.4851e-06	35.984	0.00026397	0.00026307	7.326e-05	972.56	2.9021e-06	2.887e-06	979.12	267.13	2.9233e-06	2.8668e-06	304.98	102.09	87.419	30.313	2.8886e-06	37.603	-127.966	-48.320	-20.213	-123.748	-43.821	34.475	-123.775	-118.886	-4.089	10.670	-119.650	-115.275	-114.702	-110.015	-4.951	-110.822	-8191	255	
1667.324	1	1	0	0	0.32496	0.081979	0.1039	0.063297	0.045572	0.021776	0.12777	0.2035	0.033544	0.13632	0.19253	0.015209	0.26223	0.20059	0.14922	0.034319	-2.4917	-2.5062	-2.9896	-2.8583	-2.6146	-2.8563	-2.6896	-2.8375	-2.9292	-2.7188	-2.925	-2.5542	-2.5479	-3.075	-2.4896	-2.8021	188.865	187.124	102.121	118.579	-5.769	-53.342	-82.985	-130.314	209.394	83.496	192.176	-135.004	187.044	175.490	-1.706	129.152	0.00020864	0.00042398	0.00012441	948.56	2.1904e-06	2.4975e-06	944.14	257.03	1.4632e-06	3.1631e-06	296.39	97.782	83.471	29.094	3.4143e-06	36.114	0.00027039	0.00026791	7.3915e-05	977.48	2.9664e-06	2.938e-06	980.3	267.07	2.9843e-06	2.943e-06	305.75	102.26	87.277	30.287	2.9717e-06	37.576	-124.302	-107.613	-96.622	-123.659	33.498	39.501	-123.852	-119.012	-64.816	-14.417	-119.711	-115.349	-114.665	-110.047	12.162	-110.623	-8191	255	
1667.420	1	1	0	0	0.36986	0.26837	0.22154	0.3351	0.13511	0.27575	0.08566	0.055481	0.11517	0.087112	0.14756	0.20158	0.13988	0.32201	0.24101	0.16292	-2.2687	-2.3833	-2.7562	-2.7833	-2.6042	-2.8042	-2.85	-2.7646	-2.9146	-2.3646	-2.9875	-2.8292	-2.5104	-3.1208	-2.6042	-2.6937	192.141	223.033	-24.274	133.139	112.975	-33.973	-71.219	175.403	-24.716	-3.066	-107.718	215.231	26.269	-39.933	-113.277	-116.286	0.00020359	0.00036908	7.9095e-05	947.35	4.0895e-06	3.5178e-06	946.01	257.09	1.5418e-06	5.0916e-06	296.79	97.522	83.574	29.184	2.2123e-06	36.011	0.00027215	0.00027055	7.5526e-05	975.9	2.9731e-06	2.9686e-06	979.94	267.14	2.951e-06	2.9502e-06	305.5	102.2	87.182	30.281	2.9577e-06	37.628	-127.650	-59.733	-47.583	-123.631	17.242	29.793	-123.813	-118.891	-26.824	47.819	-119.635	-115.388	-114.926	-110.058	-17.765	-110.774	-8191	255	
1667.516	1	1	0	0	0.033479	0.26908	0.23627	0.021807	0.060686	0.13617	0.16231	0.025071	0.11751	0.14595	0.16811	0.24111	0.19589	0.13975	0.36926	0.10009	-2.4333	-2.4	-2.7833	-2.7375	-2.7292	-2.9146	-2.9333	-2.6521	-2.9646	-2.4271	-2.7479	-2.9042	-2.4062	-2.8583	-2.6667	-2.5104	79.563	130.749	-106.790	-74.305	47.948	-23.663	202.850	-131.831	222.983	-64.941	109.303	159.513	167.350	-84.395	216.724	166.329	0.00022039	0.00053909	0.00010155	944.69	2.0537e-06	3.7811e-06	944.93	257.3	2.6478e-06	3.8848e-06	296.6	97.594	83.359	29.177	1.9541e-06	36.203	0.00027343	0.00026938	7.5467e-05	974.65	2.9633e-06	2.9449e-06	978.37	267.4	2.9684e-06	2.9913e-06	305.38	101.94	87.037	30.276	2.9439e-06	37.635	-128.507	-52.748	-54.618	-123.641	-14.712	-27.425	-123.640	-118.868	-48.644	29.894	-119.838	-115.443	-114.990	-109.955	-2.312	-110.929	-8191	255	
1667.637	1	1	0	0	0.2007	0.090443	0.17136	0.30015	0.1058	0.22793	0.163	0.18114	0.14675	0.15985	0.098818	0.1491	0.11311	0.12652	0.089682	0.26269	-2.4354	-2.4771	-2.525	-3.0958	-2.6021	-2.9208	-2.8417	-2.7354	-2.8292	-2.4896	-2.8479	-2.9396	-2.5438	-2.875	-2.8333	-2.5021	-62.079	125.106	-40.351	201.328	-12.698	27.898	189.920	213.082	-99.179	98.188	161.168	149.030	8.382	208.105	-74.565	-79.678	0.00020133	8.0825e-05	0.00016231	946.92	2.5546e-06	8.191e-07	944.54	257.21	5.8046e-07	1.753e-06	294.99	97.213	83.731	29.117	3.8254e-06	36	0.00027137	0.00026948	7.5726e-05	973.8	2.9532e-06	2.968e-06	977.54	267.36	2.9684e-06	2.9361e-06	304.62	101.96	87.167	30.281	2.9052e-06	37.564	-133.914	149.802	-77.052	-123.667	-0.674	23.583	-123.675	-118.890	-50.334	-14.966	-119.942	-115.440	-114.956	-110.025	-9.895	-110.795	-8191	255	
1667.708	1	1	0	0	0.16783	0.22176	0.16369	0.23635	0.18981	0.18483	0.11021	0.13268	0.21115	0.067681	0.1297	0.27183	0.14295	0.25387	0.19217	0.21591	-2.2729	-2.4375	-2.6	-2.9625	-2.525	-2.8208	-2.8521	-2.5563	-2.7125	-2.575	-2.6604	-2.9042	-2.6229	-2.9437	-2.6646	-2.5771	-123.780	181.126	-49.369	158.456	-37.981	-107.589	145.890	203.925	38.407	194.001	-123.825	9.799	-112.103	165.908	8.756	109.329	0.00019579	0.0005178	7.2306e-05	948.38	1.1993e-06	3.0483e-06	944.11	256.92	7.1643e-07	2.8397e-06	294.28	97.93	83.521	29.211	2.6105e-06	36.069	0.00027114	0.00026857	7.4863e-05	974.54	2.954e-06	2.9257e-06	977.44	266.87	2.9609e-06	2.9109e-06	304.55	102.12	86.928	30.264	2.9261e-06	37.591	-131.873	-70.070	-80.651	-123.561	66.218	13.814	-123.754	-118.947	-96.300	11.425	-119.571	-115.186	-115.241	-110.145	-20.861	-110.494	-8191	255	
1667.804	1	1	0	0	0.17108	0.079389	0.18801	0.13842	0.3023	0.048784	0.2423	0.083961	0.17527	0.062197	0.30809	0.21568	0.10007	0.24697	0.051431	0.30082	-2.2313	-2.4979	-2.6146	-2.9646	-2.4604	-2.8479	-2.7917	-2.7687	-2.8125	-2.6	-2.5125	-2.5542	-2.6771	-2.7896	-3.0521	-2.6146	-126.819	113.313	-120.086	143.475	-67.549	112.157	118.018	-101.870	-14.558	-42.736	197.305	120.119	119.927	130.884	-24.432	179.241	0.00018045	0.00024608	9.6138e-05	946.36	2.5794e-06	3.7116e-06	943.42	257.45	1.2991e-06	2.737e-06	295.39	98.169	83.274	29.055	1.5273e-06	36.104	0.00026603	0.00026905	7.342e-05	974.01	2.9229e-06	2.9445e-06	977.9	267.05	2.9896e-06	2.9426e-06	304.73	102.16	86.944	30.258	2.9229e-06	37.559	-134.939	-90.216	-17.323	-123.598	28.207	46.824	-123.703	-118.934	-28.289	38.827	-119.527	-115.449	-115.065	-110.291	211.900	-110.627	-8191	255	
1667.925	1	1	0	0	0.15053	0.021311	0.28756	0.18604	0.18929	0.15402	0.3825	0.26693	0.10363	0.22737	0.11655	0.26789	0.22563	0.17513	0.021332	0.12397	-2.2938	-2.6854	-2.5146	-3.0354	-2.6208	-2.5687	-3.0208	-2.6208	-2.8187	-2.6188	-2.5604	-2.9313	-2.4562	-2.6104	-2.9271	-2.8312	217.177	-34.213	142.553	-133.088	91.671	-22.720	176.845	161.609	-123.099	196.860	195.338	163.645	204.216	69.722	121.613	188.352	0.00023141	0.0006844	1.3221e-05	945.5	3.1323e-06	1.9184e-06	944.32	256.78	2.479e-06	7.9819e-07	294.82	97.961	83.436	29.235	2.7367e-06	36.171	0.00027013	0.00026521	7.3544e-05	975	2.9183e-06	2.9041e-06	979.52	267.13	2.9375e-06	2.9014e-06	304.79	102.29	87.106	30.301	2.9178e-06	37.589	-126.766	-57.685	151.474	-123.791	25.376	174.465	-123.885	-119.033	32.021	41.393	-119.523	-115.676	-114.817	-110.210	-38.166	-110.904	-8191	255	
1668.020	1	1	0	0	0.18057	0.1544	0.36283	0.16813	0.1462	0.14241	0.06409	0.12623	0.077074	0.11417	0.092288	0.24509	0.17835	0.12951	0.10042	0.1361	-2.4292	-2.8021	-2.2417	-3.0208	-2.525	-2.6917	-3.0667	-2.65	-2.8333	-2.8354	-2.525	-2.8792	-2.625	-2.7167	-2.6688	-2.6479	215.051	8.363	-10.026	78.051	207.188	22.080	205.459	219.622	185.378	-107.440	-95.681	112.748	163.071	122.739	215.641	150.605	0.00024213	0.00020658	0.00019067	951.84	1.4031e-06	4.8221e-06	946.39	257.24	3.2566e-06	3.1616e-06	295.64	97.598	83.824	29.244	4.0571e-06	36.291	0.00027297	0.00026755	7.3622e-05	977.39	2.9426e-06	2.8847e-06	979.96	267.37	2.8954e-06	2.8764e-06	305.5	102.43	87.429	30.365	2.9148e-06	37.715	-133.787	-67.628	-56.028	-123.695	83.554	-4.663	-123.605	-118.791	49.897	33.396	-119.570	-115.517	-115.081	-110.019	18.568	-110.754	-8191	255	
1668.116	1	1	0	0	0.16203	0.29908	0.19383	0.39722	0.187	0.16578	0.41413	0.34943	0.15684	0.086987	0.019942	0.14427	0.20691	0.14007	0.10191	0.15717	-2.2104	-2.5938	-2.6042	-2.9437	-2.8042	-2.5333	-2.9229	-2.5021	-2.6604	-2.925	-2.4688	-2.8083	-2.5771	-2.5583	-2.85	-2.5312	-60.630	-28.646	188.978	186.607	71.486	-107.733	185.366	-108.113	-24.212	190.081	189.496	88.260	192.289	159.029	-88.901	90.617	0.00025126	0.00056542	0.00018278	949.93	2.295e-06	4.2878e-06	947.4	257.15	1.8405e-06	3.5778e-06	296.17	97.969	83.734	29.159	2.227e-06	36.229	0.00027188	0.0002663	7.3846e-05	977.88	2.8896e-06	2.8932e-06	983.01	267.33	2.9198e-06	2.8999e-06	305.86	102.31	87.412	30.366	2.9027e-06	37.643	-128.353	-49.992	-32.874	-123.538	-9.146	35.276	-123.538	-118.790	-42.905	71.917	-119.411	-115.451	-115.136	-110.070	55.973	-111.110	-8191	255	
1668.236	1	1	0	0	0.20185	0.13526	0.18722	0.26547	0.11932	0.16779	0.16314	0.12141	0.17583	0.12846	0.1171	0.069364	0.1471	0.11769	0.16453	0.017269	-2.2979	-2.7896	-2.5333	-2.7167	-2.7646	-2.5729	-3.0375	-2.7708	-2.5687	-2.7771	-2.6979	-2.9708	-2.8021	-2.5896	-2.8708	-2.725	169.232	-18.032	151.160	217.269	154.473	70.908	-127.122	192.350	-22.549	193.065	-121.307	206.362	164.624	180.655	-130.831	74.022	0.00022359	0.00034416	0.00012072	951.6	1.6072e-06	5.6988e-06	946.7	257.44	1.3479e-06	1.23e-06	296.43	97.334	83.718	29.163	2.2025e-06	36.242	0.00026356	0.00025928	7.2731e-05	978.52	2.8517e-06	2.8245e-06	979.87	267.45	2.8408e-06	2.8238e-06	305.01	102.08	87.074	30.324	2.838e-06	37.591	-131.219	-124.190	-21.910	-123.682	-21.528	-9.764	-123.888	-118.834	9.396	-30.921	-119.705	-115.263	-115.223	-110.183	-34.480	-110.956	-8191	255	
1668.308	1	1	0	0	0.1906	0.033735	0.064627	0.19964	0.088942	0.16435	0.33095	0.27925	0.091842	0.10572	0.070066	0.061032	0.43192	0.11361	0.14799	0.089546	-2.2833	-2.7646	-2.4896	-3.0042	-2.7229	-2.5771	-3.2021	-2.7333	-2.6146	-2.975	-2.6042	-2.8979	-2.8125	-2.4958	-3.0125	-2.7792	-120.680	82.201	-104.816	164.024	-32.651	184.118	172.568	214.474	-5.125	168.878	68.872	108.166	138.710	-15.435	-42.074	73.490	0.00022588	0.00063079	0.00020555	945.72	1.744e-06	4.2778e-06	941.81	257.87	4.0002e-06	2.3006e-06	295.71	97.778	83.718	29.254	4.7644e-06	36.111	0.00026573	0.00026001	7.2008e-05	974.18	2.8622e-06	2.8222e-06	977.06	267.47	2.8428e-06	2.8099e-06	304.67	101.99	87.041	30.345	2.8032e-06	37.53	-128.030	-13.042	-47.962	-123.553	32.034	-0.693	-123.723	-119.039	0.463	46.505	-119.893	-115.440	-114.727	-110.304	-2.478	-110.709	-8191	255	
1668.404	1	1	0	0	0.34046	0.35838	0.29742	0.23987	0.17392	0.036034	0.3811	0.32399	0.031717	0.16105	0.16852	0.085464	0.18326	0.30509	0.17273	0.1074	-2.2729	-2.8063	-2.5187	-2.9813	-2.7938	-2.5292	-2.9688	-2.7646	-2.4688	-2.8417	-2.7188	-2.7625	-3.0333	-2.6104	-2.8375	-2.8812	-40.602	-39.524	132.263	174.538	144.320	95.841	149.547	77.978	14.976	104.498	94.145	-47.384	-134.569	-132.500	114.970	81.562	0.00023842	0.00047096	6.5577e-05	944.08	3.2899e-06	6.5245e-06	940.2	257.54	3.3461e-06	2.9565e-06	295.86	98.105	83.758	29.262	4.0752e-06	36.098	0.00026081	0.00025669	7.1671e-05	973.62	2.8561e-06	2.7821e-06	975.65	267.33	2.8336e-06	2.8412e-06	305.26	102.15	87.16	30.345	2.8154e-06	37.568	-132.968	-41.145	-30.690	-123.549	12.434	4.728	-123.744	-118.965	1.775	81.890	-119.727	-115.408	-115.137	-110.159	11.527	-110.729	-8191	255	
1668.500	1	1	0	0	0.044098	0.03119	0.092311	0.18677	0.30944	0.16513	0.2342	0.2065	0.24233	0.20404	0.12777	0.18084	0.15065	0.21267	0.32484	0.069101	-2.0438	-3.0042	-2.6542	-2.6854	-2.7833	-2.6104	-2.9729	-2.7771	-2.5896	-2.9292	-2.6104	-2.6437	-2.9813	-2.5854	-2.6917	-2.9458	-53.878	-83.881	112.075	-116.169	69.340	-87.323	-129.088	174.119	44.274	64.615	136.524	155.276	211.598	205.803	98.792	80.210	0.0002331	0.00031212	9.9154e-05	944.18	2.1414e-06	4.1913e-06	939.71	257.83	1.6854e-06	2.8868e-06	295.85	98.023	84.03	29.165	2.692e-06	35.919	0.00026038	0.00025724	7.169e-05	971.67	2.8392e-06	2.7961e-06	975.72	267.14	2.8486e-06	2.8286e-06	304.29	101.99	87.239	30.306	2.7936e-06	37.512	-127.622	-26.654	-63.797	-123.628	-5.344	-1.626	-123.824	-118.727	-59.720	47.945	-119.789	-115.171	-114.949	-110.012	30.089	-110.763	-8191	255	
1668.621	1	1	0	0	0.19828	0.20649	0.25372	0.31603	0.24243	0.10277	0.3029	0.19684	0.25635	0.17879	0.23179	0.15751	0.25486	0.25431	0.15009	0.14366	-2.1583	-2.8688	-2.7229	-2.7292	-3.0938	-2.5625	-2.9646	-2.9667	-2.45	-2.8521	-2.7938	-2.4854	-2.8375	-2.6771	-2.6542	-2.8729	160.529	159.421	102.681	18.686	-110.179	149.702	194.334	217.791	47.426	0.881	-30.323	-119.471	214.533	137.842	-113.884	-70.749	0.00023568	0.00042039	9.587e-05	941.94	1.8814e-06	1.8501e-06	941.99	257.67	3.955e-06	7.7984e-07	297.19	97.765	84.061	29.132	5.0337e-06	36.022	0.00025931	0.00025498	7.1076e-05	971.9	2.7752e-06	2.7908e-06	974.6	267.29	2.7698e-06	2.7507e-06	304.76	101.97	87.041	30.286	2.7883e-06	37.489	-124.232	-74.085	-46.571	-123.624	-7.335	2.386	-123.686	-118.903	16.923	-46.684	-119.607	-115.455	-114.801	-109.889	-5.071	-110.879	-8191	255	
1668.717	1	1	0	0	0.20328	0.048499	0.1065	0.13666	0.09076	0.16103	0.0457	0.13067	0.059725	0.035516	0.10927	0.23543	0.093303	0.14525	0.032606	0.044892	-2.05	-2.8542	-2.65	-2.675	-2.9354	-2.6396	-2.6917	-2.9854	-2.6125	-2.9125	-2.7854	-2.65	-2.8875	-2.6208	-2.7438	-3.0563	198.883	169.492	124.049	143.547	82.155	84.325	121.300	209.736	-106.106	-110.923	96.218	132.244	-40.582	88.083	-78.852	39.216	0.00022592	0.00030578	0.00014429	942.83	4.7908e-06	3.3242e-06	940.64	257.55	2.9152e-06	3.4914e-06	295.01	97.725	83.344	29.302	1.7585e-06	36.101	0.00025674	0.00025347	7.1055e-05	971.03	2.8013e-06	2.7694e-06	974.29	266.81	2.8117e-06	2.8078e-06	304.42	102.07	87	30.307	2.7992e-06	37.526	-133.251	-122.217	-36.814	-123.493	9.327	-35.041	-123.669	-118.905	38.824	20.723	-119.804	-115.509	-114.923	-110.068	-52.437	-110.835	-8191	255	
1668.813	1	1	0	0	0.016832	0.21035	0.083306	0.1239	0.19301	0.092623	0.40429	0.16106	0.12271	0.14276	0.099831	0.23299	0.20406	0.15362	0.2035	0.4326	-2.2104	-2.6208	-2.8438	-2.6646	-2.825	-2.6146	-2.8354	-3.0979	-2.6375	-2.8646	-3.0604	-2.7208	-3.0292	-2.8521	-2.6104	-2.9771	215.821	75.062	-125.574	-82.288	86.407	104.485	158.443	208.021	-34.567	80.942	-11.639	-53.669	-125.163	106.815	153.175	101.744	0.00024265	0.00035283	5.3399e-05	944.52	8.995e-07	1.9617e-06	940.82	257.4	2.7062e-06	5.1108e-06	295.77	97.758	83.718	29.121	2.4672e-06	36.057	0.00025993	0.00026035	7.194e-05	972.35	2.8297e-06	2.8295e-06	976.62	267.1	2.869e-06	2.8444e-06	304.55	102.21	87.177	30.325	2.7744e-06	37.514	-130.463	-59.146	-45.625	-123.623	39.971	52.645	-123.526	-118.937	-11.321	6.990	-119.705	-115.568	-114.892	-110.229	59.372	-110.933	-8191	255	
1668.909	1	1	0	0	0.092109	0.17742	0.37463	0.05519	0.16002	0.10195	0.27506	0.21589	0.047019	0.13658	0.2457	0.099921	0.16864	0.12045	0.227	0.46762	-2.3771	-2.65	-2.9458	-2.5833	-2.8812	-2.7625	-2.9375	-3.0896	-2.6792	-2.625	-3.0958	-2.6937	-2.9917	-2.6833	-2.5271	-3.0375	33.119	4.589	-20.292	-73.840	-111.500	186.658	176.531	170.627	154.907	95.752	201.870	177.666	215.985	100.768	17.002	62.859	0.00020065	0.00014133	9.5013e-05	947.68	1.2973e-06	7.5495e-07	946.58	257.43	1.8532e-06	5.9484e-06	295.66	97.739	84.098	29.23	5.3855e-06	36.044	0.00025761	0.00025616	7.1292e-05	974.24	2.796e-06	2.7816e-06	978.06	267.09	2.7541e-06	2.7806e-06	304.97	102.2	87.265	30.34	2.7317e-06	37.464	-132.679	-27.851	-61.920	-123.575	-33.579	31.056	-123.652	-118.876	4.120	20.833	-119.852	-115.533	-114.760	-110.209	11.334	-110.653	-8191	255	
1669.004	1	1	0	0	0.10154	0.053293	0.14133	0.1543	0.22145	0.16418	0.35563	0.16593	0.27894	0.037628	0.033628	0.13446	0.047111	0.1134	0.22803	0.041752	-2.1125	-2.7042	-2.8521	-2.8083	-2.7708	-2.8104	-2.8271	-2.8937	-2.7104	-2.6875	-2.9	-2.7417	-2.6688	-2.9458	-2.5292	-2.9625	202.945	104.858	207.791	215.145	160.140	124.672	222.388	181.748	177.814	76.999	183.101	-126.202	-7.133	172.201	124.287	103.107	0.00022007	0.00040803	0.00012934	947.88	1.8816e-06	5.8327e-06	944.76	257.72	2.1657e-06	3.3468e-06	296.92	98.084	84.151	29.155	3.5281e-06	36.286	0.00025232	0.00024712	6.9152e-05	974.51	2.7366e-06	2.7356e-06	978.02	267.5	2.7401e-06	2.7319e-06	305.12	102.32	87.385	30.355	2.7137e-06	37.604	-127.082	-65.714	-72.809	-123.602	42.563	-4.706	-123.706	-118.796	4.487	19.654	-119.629	-115.578	-114.624	-110.037	47.604	-110.479	-8191	255	
1669.100	1	1	0	0	0.15058	0.13341	0.23369	0.20771	0.091453	0.095434	0.1046	0.1646	0.21256	0.19644	0.10739	0.18883	0.22492	0.049616	0.1009	0.086849	-2.35	-2.4083	-2.85	-2.6333	-2.6958	-2.9646	-2.6312	-2.7375	-2.6396	-2.6292	-2.9562	-2.7125	-2.7042	-2.8771	-2.6063	-3.1729	68.875	130.636	-51.178	143.562	-38.720	75.993	46.054	220.956	32.393	100.166	180.974	-117.392	126.811	129.184	143.479	153.220	0.00022234	0.00041986	8.3895e-05	951.35	1.8601e-06	1.7284e-06	948.04	258.25	3.4862e-06	5.0479e-06	296.21	98.5	83.627	29.303	2.0089e-06	36.317	0.0002515	0.00024881	6.9184e-05	976.8	2.7327e-06	2.7289e-06	980.16	267.36	2.7404e-06	2.7595e-06	305.29	102.32	87.05	30.357	2.7052e-06	37.574	-128.454	-65.295	-41.025	-123.645	6.126	16.866	-124.027	-118.909	1.382	7.543	-119.549	-115.346	-115.059	-110.104	-25.092	-110.925	-8191	255	
1669.198	1	1	0	0	0.11357	0.19781	0.054994	0.097259	0.38512	0.31382	0.1309	0.22554	0.18984	0.03484	0.16837	0.21941	0.038843	0.2526	0.10193	0.077207	-2.3875	-2.5729	-2.8438	-2.7188	-2.6167	-2.8333	-2.7271	-2.9479	-2.7229	-2.6604	-3.0583	-2.6792	-2.6292	-2.9354	-2.6521	-2.7979	20.315	-94.343	113.442	216.450	205.737	-136.380	-121.317	133.991	58.426	-60.909	156.732	194.374	116.024	112.742	142.699	137.264	0.00022421	0.00037287	0.0001168	946.51	3.2989e-06	4.4265e-06	946.11	258.41	1.3837e-06	5.9378e-06	296.73	98.058	83.853	29.262	3.16e-06	35.99	0.00025534	0.00025028	7.017e-05	975.2	2.7772e-06	2.7603e-06	978.54	267.53	2.7205e-06	2.7361e-06	304.99	102.25	87.141	30.38	2.7292e-06	37.53	-131.618	-86.038	-55.919	-123.614	-41.101	-1.925	-123.794	-118.876	45.929	23.745	-119.561	-115.647	-114.844	-110.181	-44.552	-110.768	-8191	255	
1669.317	1	1	0	0	0.18329	0.11464	0.06928	0.36203	0.060646	0.12752	0.14019	0.14688	0.31406	0.10809	0.12806	0.18872	0.18464	0.097155	0.036814	0.080255	-2.3708	-2.6146	-2.7229	-2.7833	-2.5771	-3.0292	-2.7125	-2.8542	-2.7583	-2.6021	-3.1021	-2.7729	-2.6063	-2.9854	-2.4854	-2.8063	-83.042	170.489	45.608	222.771	148.661	192.951	202.347	161.717	54.619	70.711	-120.640	-8.947	178.165	207.049	-123.102	160.149	0.00020664	0.0003414	0.00016544	943.32	2.4446e-06	1.9485e-06	944.49	257.58	2.4036e-06	4.8874e-06	297.18	98.487	83.392	29.334	5.196e-06	36.079	0.00025117	0.00025354	6.9183e-05	974.15	2.7782e-06	2.7277e-06	977.29	267.43	2.7737e-06	2.7314e-06	305.15	102.3	87.241	30.383	2.7339e-06	37.515	-117.574	-39.236	-43.994	-123.785	64.219	10.753	-123.816	-118.900	7.175	34.621	-119.566	-115.636	-114.544	-110.134	16.394	-111.002	-8191	255	
1669.413	1	1	0	0	0.36683	0.16072	0.12236	0.089759	0.35473	0.2511	0.1568	0.15817	0.14215	0.09582	0.16735	0.30996	0.1701	0.13291	0.20036	0.083425	-2.3812	-2.5375	-2.6979	-2.6875	-2.7562	-2.8167	-2.7083	-2.8167	-2.8271	-2.6375	-2.8167	-2.7417	-2.4229	-2.9021	-2.5729	-2.6583	48.121	-9.724	202.889	137.909	-127.848	26.495	173.592	180.518	-73.557	-99.195	159.291	-86.980	-88.280	-114.811	36.828	213.223	0.00023163	0.00050334	0.00011684	946.62	1.9141e-06	4.2165e-06	940.44	257.58	2.7041e-06	3.04e-06	296.21	98.399	83.932	29.074	3.2972e-06	36.096	0.00025713	0.00024831	6.9987e-05	974.12	2.7761e-06	2.7411e-06	977.15	267.48	2.7641e-06	2.735e-06	305.11	102.24	87.19	30.364	2.7332e-06	37.522	-131.590	-40.315	-101.551	-123.583	-7.922	-11.470	-123.824	-118.817	1.682	64.970	-119.713	-115.256	-114.555	-110.290	-24.285	-110.777	-8191	255	
1669.509	1	1	0	0	0.16605	0.13521	0.24283	0.092998	0.062664	0.23877	0.30056	0.27263	0.15003	0.088321	0.32841	0.4934	0.021215	0.08237	0.21094	0.18424	-2.5458	-2.5104	-2.75	-2.9042	-2.5917	-2.9437	-2.8937	-2.7292	-2.7812	-2.5458	-2.7729	-2.8604	-2.5938	-2.8979	-2.75	-2.7208	169.862	25.637	180.861	170.777	-82.328	194.739	-131.200	196.633	148.246	199.399	222.167	162.100	91.178	135.553	-17.275	44.617	0.00024134	0.0003012	7.3709e-05	944.3	6.1483e-07	2.3901e-06	942.59	257.17	2.1057e-06	4.2803e-06	296.95	97.853	83.899	29.209	3.9591e-06	36.06	0.00025103	0.00025096	6.9258e-05	972.54	2.7446e-06	2.7319e-06	975.76	266.87	2.7759e-06	2.7322e-06	305.01	102.13	87.039	30.338	2.7016e-06	37.484	-126.064	-12.328	-41.574	-123.664	157.587	14.460	-123.866	-118.802	27.282	50.669	-119.721	-115.409	-114.851	-110.020	39.464	-110.539	-8191	255	
1669.605	1	1	0	0	0.16756	0.25217	0.27571	0.077227	0.11431	0.17065	0.15615	0.1151	0.25082	0.16459	0.12633	0.23411	0.12976	0.26847	0.11852	0.13694	-2.5458	-2.55	-2.7708	-2.7354	-2.4938	-2.8521	-2.975	-2.6437	-2.6875	-2.6937	-2.8208	-2.8042	-2.6542	-3.0646	-2.7667	-2.8146	-32.399	-50.217	-17.369	-39.056	15.107	175.113	187.036	-2.192	24.363	76.763	-5.430	169.887	59.059	188.289	-18.487	91.469	0.00020464	0.00022639	0.00012467	944.63	2.1219e-06	3.7678e-06	941.89	257.94	1.8713e-06	3.9277e-06	295.88	98.057	83.904	29.118	3.3785e-06	36.087	0.00025064	0.0002474	6.8956e-05	971.52	2.7045e-06	2.7056e-06	975.96	266.82	2.7092e-06	2.6716e-06	304.35	102.01	87.135	30.33	2.7044e-06	37.483	-129.981	-70.004	-57.973	-123.733	-32.240	-35.263	-123.928	-118.944	-30.992	-27.530	-119.371	-115.437	-114.743	-110.109	32.238	-110.878	-8191	255	
1669.701	1	1	0	0	0.11268	0.16518	0.15486	0.12763	0.041969	0.072771	0.04166	0.16518	0.17646	0.18837	0.1234	0.13696	0.022584	0.25492	0.073207	0.17938	-2.3563	-2.6354	-2.6813	-3.0125	-2.5292	-2.8583	-2.8646	-2.7271	-2.8729	-2.6958	-2.7792	-2.9896	-2.6521	-2.7229	-2.8167	-2.4854	146.106	-120.339	-89.565	172.753	28.014	166.576	111.113	-7.623	-107.683	54.616	114.748	156.972	183.574	170.627	-25.579	193.269	0.00021741	0.00035572	8.0505e-05	942.97	2.55e-06	6.6724e-06	943.7	256.83	2.9143e-06	4.0285e-06	295.85	97.412	83.514	29.077	1.7293e-06	36.144	0.00025049	0.00024842	7.0221e-05	971.48	2.72e-06	2.7269e-06	976.97	266.54	2.7638e-06	2.7123e-06	304.66	101.95	87.111	30.303	2.7236e-06	37.457	-129.670	-48.296	-59.204	-123.619	-33.591	-11.620	-123.898	-118.865	-29.712	35.250	-119.381	-115.411	-114.757	-109.985	-15.637	-110.604	-8191	255	
1669.797	1	1	0	0	0.14787	0.28602	0.12003	0.29824	0.13063	0.26882	0.10509	0.09493	0.045	0.1352	0.20617	0.085364	0.29985	0.12902	0.18474	0.072065	-2.6104	-2.7146	-2.6188	-2.8458	-2.6521	-2.8667	-2.8229	-2.4896	-2.8625	-2.7583	-2.7167	-3.0729	-2.6813	-2.8312	-2.7313	-2.5917	-10.321	-18.606	134.355	181.463	-27.635	1.260	92.705	65.176	103.806	21.925	24.294	-86.818	-90.489	218.728	163.341	139.878	0.00021063	0.00024583	0.0001053	944.13	2.0922e-06	1.3323e-07	943.29	257.93	1.6925e-06	2.5479e-06	295.98	97.495	83.536	29.15	2.5449e-06	35.964	0.00025368	0.00024997	6.9088e-05	972.07	2.7279e-06	2.711e-06	974.66	266.68	2.702e-06	2.6814e-06	304.63	101.86	87.021	30.303	2.7134e-06	37.421	-127.101	-0.876	-93.557	-123.810	-21.739	90.357	-123.814	-118.860	-35.220	13.878	-119.524	-115.151	-114.436	-110.112	-8.248	-110.415	-8191	255	
1669.918	1	1	0	0	0.19062	0.16768	0.13565	0.11832	0.14862	0.18758	0.28994	0.0284	0.30005	0.14611	0.18658	0.25814	0.10265	0.090038	0.2045	0.24983	-2.4271	-2.7646	-2.5521	-2.9542	-2.5104	-2.7521	-3.1813	-2.6979	-2.9938	-2.9146	-2.6813	-2.9167	-2.5375	-2.8625	-2.7667	-2.6875	-39.434	91.777	-13.373	-116.406	166.281	-77.431	123.371	139.141	2.938	61.667	-116.857	159.051	117.067	27.650	-37.311	-83.282	0.00023044	0.00034738	0.00011325	942.93	1.5135e-07	2.1841e-06	942.04	256.99	2.6483e-06	4.5456e-06	295.35	97.439	83.414	29.112	3.9104e-06	36.185	0.00024975	0.00024973	6.8794e-05	970.63	2.7123e-06	2.7327e-06	974.92	266.54	2.74e-06	2.7158e-06	304.96	102.06	86.886	30.307	2.7147e-06	37.543	-125.907	-55.958	-41.380	-123.429	-61.794	-0.737	-123.581	-118.808	38.719	-32.419	-119.565	-115.315	-114.889	-110.007	21.437	-110.599	-8191	255	
1670.014	1	1	0	0	0.25335	0.13296	0.14976	0.076974	0.18673	0.26098	0.29078	0.18882	0.083151	0.13846	0.24963	0.23937	0.092855	0.1541	0.054172	0.25137	-2.4333	-2.7125	-2.7125	-3	-2.6833	-2.8	-3.1688	-2.6104	-2.7938	-2.8688	-2.3667	-2.7729	-2.5917	-2.6375	-2.7958	-2.6542	-120.400	-107.823	-110.420	-107.759	72.217	-98.602	112.071	148.460	-70.313	-54.534	166.777	166.681	103.145	-131.739	10.273	101.454	0.00021343	0.00035678	0.00017763	945.42	1.6192e-06	3.8293e-06	944.72	257.32	9.8766e-07	3.1578e-06	296.52	97.644	84.038	29.111	2.7149e-06	36.174	0.00025318	0.00025169	6.9688e-05	974.19	2.7442e-06	2.6905e-06	977.61	266.66	2.7244e-06	2.6738e-06	304.76	102.11	87.066	30.304	2.6887e-06	37.532	-119.590	-106.134	-62.825	-123.627	1.847	13.499	-123.692	-118.823	-53.197	11.860	-119.600	-115.444	-114.849	-110.128	23.192	-110.922	-8191	255	
1670.109	1	1	0	0	0.2153	0.12956	0.13869	0.3911	0.059599	0.32229	0.10641	0.27975	0.10829	0.1281	0.12647	0.24048	0.21729	0.1224	0.0596	0.14225	-2.375	-2.7188	-2.5563	-2.925	-2.6417	-2.575	-3.0729	-2.8312	-2.7021	-2.9375	-2.6292	-2.8771	-2.6021	-2.75	-2.7604	-2.6229	199.944	137.230	212.927	210.285	131.165	94.002	-31.052	220.360	193.531	122.285	210.913	-131.215	168.642	153.334	-20.556	143.124	0.00021259	0.00019737	0.00020218	946.74	2.3315e-06	1.854e-06	945.2	256.76	1.5718e-06	3.1539e-06	296.88	98.074	83.739	29.291	3.6585e-06	36.16	0.00025146	0.00024805	6.8579e-05	975.86	2.7425e-06	2.7661e-06	978.9	266.84	2.7754e-06	2.7196e-06	304.88	102.29	87.225	30.394	2.7159e-06	37.549	-124.763	-42.173	-30.574	-123.757	-19.065	-8.391	-123.979	-118.964	-32.430	-56.595	-119.276	-115.801	-114.905	-110.051	4.672	-110.729	-8191	255	
1670.205	1	1	0	0	0.1682	0.15613	0.14414	0.099308	0.32385	0.16539	0.1843	0.14911	0.24456	0.29286	0.030634	0.19822	0.045614	0.21541	0.17726	0.11499	-2.2542	-2.8812	-2.5875	-2.9083	-2.7917	-2.55	-3.0938	-2.8292	-2.8688	-2.9875	-2.5771	-3.0167	-2.7917	-2.5917	-2.775	-2.6667	-99.298	125.969	222.320	163.107	147.996	-12.133	215.823	155.458	61.333	32.756	186.788	190.694	-126.670	205.274	198.190	160.865	0.00021913	0.00037671	0.00011374	950.19	2.8995e-06	5.0693e-06	947.49	257.83	1.0713e-06	2.9117e-06	297.41	97.873	83.884	29.39	2.658e-06	36.331	0.00025367	0.00024979	6.9477e-05	978.83	2.7415e-06	2.7055e-06	981.69	267.64	2.7185e-06	2.6991e-06	305.8	102.18	87.208	30.427	2.6764e-06	37.616	-127.184	-6.830	-69.358	-123.616	25.933	3.869	-124.013	-118.978	-3.765	32.278	-119.555	-115.405	-114.568	-110.241	-2.079	-110.746	-8191	255	
1670.278	1	1	0	0	0.056368	0.069397	0.13356	0.28746	0.10145	0.23929	0.31994	0.40107	0.11013	0.21459	0.45409	0.20915	0.17909	0.094994	0.21353	0.22	-2.3479	-2.9354	-2.6396	-3.0312	-2.8896	-2.55	-3.0271	-2.8521	-2.8333	-2.8438	-2.8042	-2.8521	-2.825	-2.6917	-2.8854	-2.6688	-51.148	91.343	-126.633	171.181	-124.561	192.531	136.257	122.576	-134.604	61.545	211.795	195.344	1.466	212.976	26.030	107.802	0.00018511	0.00023398	4.9166e-05	952.7	2.8328e-06	4.1219e-06	948.21	258.33	1.8664e-06	2.3229e-06	295.69	98.439	84.209	29.365	1.7936e-06	36.086	0.00024962	0.00024341	6.7503e-05	977.9	2.7128e-06	2.6887e-06	982.6	267.66	2.7058e-06	2.6805e-06	305.09	102.4	87.274	30.465	2.7021e-06	37.546	-120.271	-124.180	-87.645	-123.621	-46.689	2.218	-123.754	-118.992	-68.576	-5.737	-119.362	-115.392	-114.743	-110.120	-27.589	-111.039	-8191	255	
1670.397	1	1	0	0	0.1652	0.10677	0.37942	0.21069	0.080418	0.098931	0.16939	0.058403	0.11765	0.09065	0.20763	0.010114	0.096486	0.26847	0.037132	0.18467	-2.2729	-2.8354	-2.6	-3.0167	-2.8375	-2.4292	-2.9771	-2.8146	-2.4979	-2.925	-2.5479	-2.7958	-3.0396	-2.6125	-2.9771	-2.9042	-58.017	16.712	208.046	148.277	-19.163	-136.450	115.852	-135.881	111.465	-120.740	-48.301	194.797	115.133	133.473	71.893	-130.868	0.00023159	0.00054152	0.00014141	951.95	1.6944e-06	2.761e-06	949.92	258.15	1.2599e-06	3.6407e-06	296.21	98.106	83.638	29.413	2.6638e-06	36.102	0.00024909	0.00024455	6.8622e-05	978.5	2.6874e-06	2.6944e-06	982.45	267.38	2.6866e-06	2.6786e-06	305.31	102.36	87.258	30.452	2.7108e-06	37.587	-128.478	-85.083	-91.104	-123.757	-126.994	91.255	-123.630	-118.939	-29.970	-17.190	-119.596	-115.554	-114.777	-110.113	-4.901	-110.541	-8191	255	
1670.493	1	1	0	0	0.19601	0.47179	0.25432	0.15252	0.099378	0.24225	0.24369	0.20143	0.077061	0.23278	0.074458	0.09578	0.30285	0.063102	0.085367	0.11857	-2.1813	-3.0542	-2.575	-2.7958	-2.9562	-2.7562	-3.1042	-2.7104	-2.6	-2.9062	-2.7583	-2.7271	-2.8187	-2.6375	-2.9396	-3.0167	27.469	14.772	17.003	-135.421	24.031	112.781	202.635	216.947	27.622	-59.082	220.347	167.387	147.557	172.055	157.338	212.927	0.00023118	0.00030924	5.6955e-05	951.88	1.0066e-06	2.1671e-06	948.64	258.32	1.7555e-06	1.6279e-06	297.56	98.177	84.394	29.304	4.0337e-06	36.1	0.00024964	0.00024585	6.8747e-05	977.94	2.7279e-06	2.6831e-06	981.25	267.25	2.7068e-06	2.7e-06	305.22	102.28	87.354	30.403	2.6788e-06	37.574	-132.487	1.384	-31.443	-123.610	-17.713	60.968	-123.825	-119.021	26.667	59.908	-119.669	-115.338	-114.742	-110.063	-4.909	-110.641	-8191	255	
1670.589	1	1	0	0	0.20167	0.1905	0.15299	0.23618	0.061846	0.050481	0.2605	0.084811	0.2053	0.077906	0.15125	0.26801	0.14969	0.27679	0.14972	0.2396	-2.2333	-2.7792	-2.7354	-2.8604	-2.8875	-2.6021	-3.1333	-2.95	-2.6396	-2.9771	-2.825	-2.7125	-2.9083	-2.8146	-2.8104	-2.9125	1.644	142.759	160.352	207.111	-108.141	161.182	105.636	167.488	200.817	-33.739	-84.518	50.203	10.452	173.972	204.321	106.348	0.00020538	0.0002903	0.00012662	948.82	1.1457e-06	4.247e-06	942.49	257.44	1.9033e-07	2.7982e-06	295.98	98.265	83.858	29.251	4.0931e-06	36.041	0.00024959	0.00024777	6.8714e-05	975.85	2.7018e-06	2.7119e-06	977.65	267.1	2.7041e-06	2.6993e-06	305.11	102.4	87.051	30.4	2.6454e-06	37.561	-129.391	23.476	-52.466	-123.712	-4.162	4.897	-123.661	-118.853	-113.547	14.459	-119.226	-115.438	-115.010	-109.969	1.790	-110.839	-8191	255	
1670.685	1	1	0	0	0.098381	0.088248	0.093238	0.22793	0.31969	0.28727	0.26701	0.26872	0.043811	0.09142	0.134	0.11872	0.23603	0.20772	0.39809	0.060548	-2.1833	-2.8688	-2.8021	-2.6125	-2.8625	-2.6896	-2.7396	-2.9562	-2.6708	-3.0208	-2.9958	-2.8438	-2.8729	-2.7229	-2.675	-3.0271	124.962	-114.614	-97.739	-71.610	-43.320	-128.347	175.370	179.306	5.542	-112.672	171.421	185.931	-86.074	146.873	186.041	139.364	0.00020005	0.00047954	0.00013476	948.3	1.2472e-06	3.303e-06	949.92	257.48	3.2118e-06	3.2661e-06	295.84	97.956	84.057	29.257	1.4851e-06	36.162	0.00024991	0.00024825	6.833e-05	975.37	2.72e-06	2.7204e-06	980.03	267.4	2.7451e-06	2.7676e-06	305.01	102.28	87.099	30.435	2.7349e-06	37.602	-130.104	-33.556	-37.830	-123.514	157.234	-55.849	-123.699	-118.888	-9.941	-14.619	-119.616	-115.347	-114.852	-110.006	-16.041	-110.842	-8191	255	
1670.806	1	1	0	0	0.062167	0.12398	0.22618	0.017941	0.11029	0.041109	0.28547	0.12949	0.057249	0.038544	0.019127	0.0984	0.037315	0.10411	0.052232	0.26234	-2.1896	-2.7938	-2.8333	-2.7104	-2.9271	-2.8958	-2.8958	-2.9437	-2.6208	-2.7875	-2.8833	-2.7208	-2.9896	-2.8104	-2.6979	-2.9354	37.146	-75.556	-59.039	-133.851	70.463	96.827	199.049	104.105	-70.485	7.002	196.865	105.636	119.954	172.718	-56.483	110.986	0.00022066	0.00027866	0.00016492	950.09	1.5563e-06	5.5401e-06	947.08	258.46	3.2115e-07	2.6735e-06	297.33	97.761	83.533	29.286	2.1866e-06	36.265	0.0002538	0.00024807	7.0233e-05	976.64	2.7603e-06	2.7542e-06	980.93	267.41	2.7478e-06	2.7305e-06	305.2	102.24	87.007	30.41	2.7841e-06	37.717	-131.078	-94.628	-43.039	-123.535	-72.318	3.367	-123.792	-118.933	148.340	37.639	-119.804	-115.401	-115.029	-110.220	43.041	-111.013	-8191	255	
1670.878	1	1	0	0	0.1286	0.11737	0.074743	0.26046	0.33782	0.2169	0.15093	0.18627	0.21647	0.050369	0.21923	0.13724	0.14099	0.16293	0.15532	0.13066	-2.2042	-2.6208	-2.6979	-2.7042	-2.9979	-2.8812	-2.7812	-3.1396	-2.6396	-2.7021	-2.9021	-2.6854	-2.8604	-2.8937	-2.5833	-3.0083	93.344	-100.457	38.705	106.082	-41.707	-48.161	153.967	172.499	59.733	20.821	136.896	152.575	-54.358	-77.058	-122.171	165.451	0.00024185	0.00057808	0.00013511	950.04	2.162e-06	3.942e-06	945.28	258.25	3.2497e-07	2.1341e-06	297.09	98.177	83.894	29.332	1.8354e-06	36.178	0.00025571	0.00025777	7.0258e-05	977.27	2.8481e-06	2.8009e-06	980.28	267.72	2.8498e-06	2.8286e-06	305.77	102.45	87.34	30.477	2.8053e-06	37.667	-131.759	-31.799	-44.836	-123.775	57.918	-14.125	-123.731	-118.760	-7.827	-28.972	-119.516	-115.200	-114.918	-109.955	14.910	-110.754	-8191	255	
1670.998	1	1	0	0	0.10868	0.13475	0.16089	0.09152	0.3079	0.13379	0.28127	0.35528	0.050712	0.067615	0.037066	0.12671	0.12334	0.15487	0.19259	0.30152	-2.3271	-2.6417	-2.7729	-2.6667	-2.9583	-2.7438	-2.6562	-3.0271	-2.5604	-2.7438	-2.9917	-2.7438	-2.8396	-2.8604	-2.5479	-2.9938	161.697	61.967	16.195	144.886	-105.974	-39.101	200.743	162.377	-59.886	109.254	207.246	90.188	-2.499	109.507	-136.096	148.804	0.0002513	0.00014725	6.4852e-05	952.88	2.7821e-06	2.6145e-06	948.18	258.1	2.8489e-06	2.1289e-06	296.03	98.07	83.625	29.323	3.4385e-06	36.083	0.00026205	0.00026198	7.2108e-05	980.31	2.8496e-06	2.8116e-06	981.81	267.49	2.8218e-06	2.8087e-06	305.56	102.34	87.272	30.459	2.7931e-06	37.63	-128.153	13.867	-101.614	-123.532	77.176	63.662	-123.769	-118.820	5.685	7.131	-119.581	-115.359	-114.819	-110.283	-12.099	-110.739	-8191	255	
1671.095	1	1	0	0	0.24252	0.054561	0.084641	0.18228	0.090314	0.32664	0.055633	0.13496	0.14467	0.15095	0.075279	0.29678	0.14593	0.12135	0.15031	0.052445	-2.3042	-2.6604	-2.8563	-2.7313	-2.9354	-2.8479	-2.7417	-3	-2.6437	-2.7771	-2.9146	-2.7458	-2.9083	-2.7729	-2.5292	-2.9688	-20.102	-54.207	149.201	188.181	-1.354	62.635	126.301	207.882	-15.109	137.999	94.585	182.085	-86.031	162.104	-19.731	-55.403	0.00023891	0.00029734	0.00015574	948.14	3.7298e-06	2.5682e-06	949.71	257.42	1.1232e-06	1.0887e-06	297.14	98.379	83.848	29.314	2.2247e-06	36.216	0.0002598	0.00025332	7.105e-05	978.85	2.8036e-06	2.7876e-06	982.23	267.5	2.7865e-06	2.7544e-06	305.68	102.53	87.324	30.446	2.7568e-06	37.605	-124.699	-38.918	-56.852	-123.795	27.168	-20.518	-123.842	-118.807	-26.052	117.520	-119.622	-115.348	-114.854	-110.090	-2.371	-110.862	-8191	255	
1671.189	1	1	0	0	0.12361	0.16039	0.21706	0.098012	0.15589	0.24483	0.33591	0.061008	0.16689	0.20654	0.057956	0.1166	0.24012	0.082019	0.031851	0.23359	-2.4479	-2.6667	-2.9896	-2.8833	-2.8875	-2.8937	-2.7687	-3.1479	-2.775	-2.6188	-3.0479	-2.7604	-2.7646	-3.1063	-2.6396	-2.9688	219.099	77.954	22.550	-119.596	-103.340	118.190	51.814	183.916	167.064	-58.724	155.264	-135.384	136.613	135.784	213.932	-21.092	0.0002127	0.00035729	1.8173e-05	953.15	4.9955e-06	2.6762e-06	944.87	257.73	2.8422e-06	2.7149e-07	297.62	98.415	83.997	29.391	2.4833e-06	36.139	0.00025598	0.00024978	7.0053e-05	978.77	2.7459e-06	2.6876e-06	980.48	267.37	2.7518e-06	2.6893e-06	305.69	102.29	87.312	30.442	2.7049e-06	37.56	-136.733	15.880	0.413	-123.518	-11.795	-9.291	-123.713	-118.807	29.760	221.797	-119.711	-115.480	-114.927	-110.350	19.891	-110.713	-8191	255	
1671.285	1	1	0	0	0.075955	0.17652	0.048731	0.26594	0.084502	0.21375	0.22828	0.40379	0.132	0.046356	0.27055	0.074896	0.15861	0.04728	0.22362	0.20617	-2.375	-2.6437	-2.9708	-2.9146	-2.7875	-2.8354	-2.9083	-3.0375	-2.7479	-2.6104	-3.1729	-2.8958	-2.525	-3.0125	-2.5687	-2.8354	-107.625	-14.430	192.382	221.787	-126.002	116.783	207.227	207.606	142.131	118.431	217.482	59.963	166.405	196.826	47.496	208.550	0.00024533	0.00029259	6.1088e-05	949.25	2.2866e-06	5.7383e-06	947.8	257.48	2.3372e-06	2.496e-06	296.35	97.995	83.969	29.337	3.3843e-06	36.113	0.00025301	0.0002483	6.8859e-05	976.55	2.701e-06	2.7062e-06	980.03	267.48	2.7137e-06	2.7126e-06	304.9	102.32	86.922	30.449	2.6936e-06	37.529	-117.002	-66.255	-38.760	-123.753	40.369	0.548	-123.659	-118.736	-26.288	39.665	-119.632	-115.560	-114.899	-110.053	37.228	-110.537	-8191	255	
1671.406	1	1	0	0	0.12069	0.10718	0.25265	0.096184	0.40106	0.43325	0.12123	0.12912	0.19074	0.17347	0.13713	0.06536	0.18995	0.071012	0.11668	0.10982	-2.4792	-2.4396	-2.7938	-2.9146	-2.7062	-2.9083	-2.8854	-2.9062	-3.0229	-2.4979	-2.9729	-2.7354	-2.5417	-2.9771	-2.7208	-2.6813	-54.288	89.338	141.716	-107.155	-22.261	-121.650	155.256	64.188	67.452	157.600	-95.838	167.839	201.834	158.052	-38.140	68.457	0.00023374	0.00036459	0.00012391	946.8	9.9749e-07	5.2659e-06	948.43	257.07	2.8228e-06	4.3715e-06	296.48	98.255	83.518	29.269	4.2054e-06	36.145	0.00025058	0.00024453	6.8293e-05	976.88	2.6759e-06	2.6714e-06	979.88	267.04	2.6839e-06	2.6334e-06	304.82	102.15	87.005	30.386	2.6842e-06	37.533	-129.734	-14.510	-65.031	-123.604	-8.124	14.708	-123.816	-118.686	-46.930	14.323	-119.638	-115.546	-114.962	-110.053	-17.767	-110.818	-8191	255	
1671.477	1	1	0	0	0.12127	0.13841	0.11357	0.23552	0.39744	0.16903	0.31406	0.2462	0.12627	0.22856	0.14496	0.087107	0.1073	0.35505	0.15656	0.11286	-2.525	-2.5354	-2.6771	-2.8542	-2.4854	-2.8937	-2.8292	-2.8042	-2.8229	-2.4479	-2.7562	-2.8333	-2.6063	-2.9521	-2.7875	-2.8208	187.727	175.295	92.461	195.819	115.438	47.121	166.011	111.044	155.559	3.905	143.613	163.007	34.112	201.753	40.486	106.492	0.00020166	6.2852e-05	0.00013694	945.88	2.3765e-06	3.6678e-06	942.18	257.66	1.0384e-06	4.8249e-06	296.43	97.401	83.96	29.305	3.1869e-06	36.134	0.00024522	0.00024036	6.7966e-05	973.59	2.6203e-06	2.613e-06	976.88	266.51	2.6397e-06	2.6583e-06	304.74	101.86	87.052	30.352	2.5977e-06	37.502	-128.107	-118.207	-33.960	-123.551	-2.909	33.108	-123.737	-119.009	34.159	-6.636	-119.388	-115.303	-114.713	-109.974	22.152	-110.673	-8191	255	
1671.598	1	1	0	0	0.16737	0.15145	0.12374	0.164	0.047586	0.059686	0.11812	0.14512	0.048345	0.12669	0.1719	0.1629	0.14037	0.17133	0.17385	0.30782	-2.4667	-2.6771	-2.75	-2.9146	-2.4479	-2.8958	-3.0042	-2.7542	-3.0396	-2.6396	-2.7	-3.0563	-2.5083	-2.9396	-2.7833	-2.675	26.819	-86.366	76.106	199.559	76.072	-117.204	-91.259	132.549	11.947	-117.748	114.415	158.060	-65.434	-80.945	102.313	154.767	0.00020071	0.00042774	9.3972e-05	944.42	3.5521e-06	4.323e-06	942.31	257.27	2.2504e-06	3.8386e-06	295.94	97.335	84.022	29.197	2.7107e-06	36.074	0.00024441	0.00024059	6.6891e-05	972.66	2.629e-06	2.6065e-06	975.94	266.69	2.6375e-06	2.5981e-06	303.94	101.98	86.926	30.367	2.574e-06	37.461	222.904	-47.357	-47.926	-123.620	-26.195	-5.198	-123.851	-118.922	-19.040	-14.363	-119.452	-115.389	-114.814	-110.113	2.150	-110.531	-8191	255	
1671.694	1	1	0	0	0.3772	0.12443	0.19845	0.053977	0.14909	0.046147	0.12639	0.029458	0.17587	0.068062	0.1724	0.025956	0.013024	0.12332	0.28446	0.13307	-2.5375	-2.6083	-2.6604	-2.8917	-2.6354	-2.9562	-2.975	-2.7458	-2.7771	-2.5854	-2.7521	-2.8375	-2.4229	-2.9333	-2.7104	-2.6042	-78.109	120.894	63.688	134.832	87.581	-85.057	94.385	97.890	10.219	109.672	-94.089	39.389	25.214	-40.518	127.152	167.602	0.00022696	0.00043239	9.1756e-05	943.41	1.6377e-06	5.9973e-06	941	256.9	1.2965e-06	3.3586e-06	295.36	97.713	83.544	29.258	1.4073e-06	36.169	0.0002392	0.00023274	6.5796e-05	970.96	2.575e-06	2.5921e-06	973.72	266.35	2.6112e-06	2.5461e-06	303.77	101.79	86.606	30.341	2.5514e-06	37.512	223.001	53.134	-72.790	-123.691	-41.411	35.625	-123.847	-118.863	-88.132	25.970	-119.499	-115.258	-114.742	-110.235	-79.330	-110.752	-8191	255	
1671.790	1	1	0	0	0.18451	0.099188	0.11172	0.44724	0.11261	0.065063	0.21914	0.0096149	0.074578	0.18282	0.17387	0.18498	0.092346	0.045631	0.26928	0.21983	-2.3125	-2.6083	-2.5271	-3.0708	-2.5875	-2.8917	-2.9271	-2.6708	-2.9479	-2.8438	-2.7104	-2.9771	-2.5104	-2.8521	-2.9562	-2.6917	139.307	29.444	218.597	202.722	-3.814	90.284	170.150	-42.245	151.769	30.413	-133.769	128.972	208.773	112.664	-102.937	208.294	0.00022683	0.0002722	8.0453e-05	941.82	2.5996e-06	6.6462e-07	939.26	256.87	3.262e-06	4.1702e-06	296.68	97.969	83.666	29.124	2.8885e-06	36.045	0.00023888	0.00023555	6.5574e-05	968.32	2.5668e-06	2.5893e-06	972.97	266.15	2.6003e-06	2.5762e-06	304.38	101.91	86.834	30.294	2.5517e-06	37.483	-122.414	-69.997	-59.230	-123.643	-36.079	34.910	-123.752	-118.912	-3.954	-40.714	-119.600	-115.500	-114.792	-109.842	-17.108	-110.866	-8191	255	
1671.887	1	1	0	0	0.15745	0.039274	0.22715	0.091552	0.16046	0.26826	0.17707	0.092408	0.085805	0.21617	0.19447	0.31763	0.21472	0.19454	0.23761	0.12176	-2.5187	-2.5917	-2.5625	-3.0417	-2.6792	-2.8771	-3.0896	-2.7417	-2.8937	-2.5417	-2.5708	-3.1437	-2.5667	-2.5125	-2.8208	-2.6604	17.753	-63.095	-35.175	-73.885	163.903	-110.789	123.294	159.189	180.963	-123.192	-113.462	119.347	-129.192	-95.664	-90.291	-59.030	0.0002402	0.00022325	7.1441e-05	943.48	1.0374e-06	1.1642e-06	943.74	256.77	1.3276e-06	3.1323e-06	294.45	97.715	83.859	29.244	1.9322e-06	36.147	0.00024045	0.00023581	6.6006e-05	971.17	2.5897e-06	2.5449e-06	975.37	266.44	2.5892e-06	2.5716e-06	303.99	101.98	87.008	30.348	2.5581e-06	37.452	-127.492	-24.239	-71.822	-123.660	220.191	-29.127	-123.799	-119.020	-28.171	-0.467	-119.618	-115.427	-115.278	-110.164	-13.948	-110.822	-8191	255	
1671.981	1	1	0	0	0.13303	0.20131	0.12525	0.23762	0.060964	0.1646	0.38184	0.21067	0.16081	0.069826	0.17434	0.082971	0.11565	0.087002	0.099218	0.38414	-2.4375	-2.6521	-2.5021	-3.0438	-2.9021	-2.7542	-2.9958	-2.7042	-2.9167	-2.8729	-2.5208	-2.9146	-2.925	-2.6479	-2.925	-2.5896	-17.974	120.942	7.694	153.180	95.679	-127.372	150.863	199.179	155.503	-131.136	125.557	-112.901	-53.724	52.211	56.679	-118.449	0.00021042	0.00024324	0.00017238	947.58	2.5621e-06	4.8854e-06	948.49	257.25	2.6751e-06	3.5013e-06	296.63	98.072	83.959	29.423	1.9778e-06	36.222	0.00023413	0.00022965	6.3869e-05	974.12	2.5346e-06	2.4983e-06	979.29	266.63	2.5357e-06	2.4757e-06	304.5	102.16	86.946	30.394	2.5e-06	37.488	-122.327	-60.642	-73.169	-123.573	54.367	-23.556	-123.744	-118.801	-31.199	27.334	-119.522	-115.422	-115.028	-109.984	-24.773	-110.700	-8191	255	
1672.102	1	1	0	0	0.15175	0.14334	0.18653	0.25487	0.1277	0.020387	0.10474	0.17967	0.1112	0.26329	0.22035	0.18686	0.22557	0.17317	0.10035	0.10243	-2.4333	-2.775	-2.5375	-3.0375	-2.8896	-2.6542	-2.8854	-2.8146	-2.8417	-2.8875	-2.7542	-3.0875	-2.6458	-2.6146	-2.9708	-2.8	117.720	24.286	-24.003	145.514	200.794	-32.508	128.685	-91.866	147.325	100.514	142.221	-121.825	-132.601	-101.699	117.651	-58.656	0.00023566	0.00011445	5.7556e-05	948.61	2.3996e-06	1.3624e-06	946.32	257.13	1.4886e-06	2.6504e-06	296.92	97.996	84.167	29.328	1.7715e-06	36.266	0.00023402	0.00022966	6.3707e-05	975.8	2.5438e-06	2.5145e-06	978.76	266.76	2.5531e-06	2.5209e-06	304.94	102.15	87.134	30.366	2.5439e-06	37.525	-124.325	-73.323	-113.157	-123.686	34.726	69.626	-123.787	-118.793	-6.092	26.136	-119.516	-115.366	-114.710	-110.092	-27.442	-110.875	-8191	255	
1672.173	1	1	0	0	0.11403	0.045993	0.13896	0.12855	0.087481	0.1504	0.070838	0.15354	0.21355	0.21885	0.11299	0.11985	0.20241	0.052746	0.2037	0.14472	-2.2438	-2.95	-2.4896	-2.9167	-2.7583	-2.7062	-3.1333	-2.9062	-2.675	-2.9979	-2.7667	-2.9375	-2.8312	-2.6875	-2.875	-2.6292	-2.309	161.852	6.322	119.458	-46.273	-21.437	126.403	104.466	-20.300	-60.675	172.997	33.030	-93.689	151.155	16.063	101.614	0.00020515	0.00019953	7.8937e-05	943.86	2.6811e-06	6.5819e-06	947.64	257.95	1.7965e-06	2.9485e-06	295.63	97.463	83.55	29.352	1.0999e-06	36.132	0.00024109	0.00023305	6.4985e-05	974.37	2.5577e-06	2.5329e-06	979.07	267.11	2.5669e-06	2.5488e-06	304.49	102.02	86.839	30.343	2.5374e-06	37.514	-124.772	-56.912	-40.387	-123.580	-50.065	-5.753	-123.662	-118.824	10.811	3.856	-119.849	-115.416	-114.560	-110.218	-5.894	-110.905	-8191	255	
1672.269	1	1	0	0	0.25117	0.26867	0.030219	0.050323	0.18836	0.067128	0.26925	0.15903	0.11948	0.20706	0.1887	0.19278	0.25046	0.14479	0.12303	0.12944	-2.3396	-2.8042	-2.5625	-2.9479	-2.9021	-2.5771	-3.2521	-2.8688	-2.8375	-3.2208	-2.7812	-2.8	-2.8604	-2.6354	-2.8583	-2.725	52.328	161.284	204.602	140.741	218.421	74.604	191.971	190.660	118.254	122.224	97.964	39.378	-86.789	86.358	46.585	69.600	0.00020587	0.00044974	8.9951e-05	945.8	2.3333e-06	3.5537e-06	946.84	257.27	2.9351e-06	3.4228e-06	296.13	97.906	83.626	29.349	2.7209e-06	36.178	0.00023693	0.0002319	6.4893e-05	974.24	2.5669e-06	2.569e-06	977.55	266.73	2.5994e-06	2.5992e-06	304.73	102.17	86.911	30.404	2.6167e-06	37.542	-131.042	-44.722	-29.300	-123.801	5.833	-11.371	-123.705	-119.039	-17.619	20.593	-119.619	-115.351	-115.289	-110.211	-3.798	-110.922	-8191	255	
1672.366	1	1	0	0	0.17889	0.087753	0.26547	0.15267	0.19141	0.15484	0.012808	0.22987	0.35472	0.10182	0.11703	0.079372	0.077099	0.18048	0.069715	0.14848	-2.2229	-3.0271	-2.4417	-2.8479	-2.8729	-2.6688	-3.1854	-2.9104	-2.6146	-3.0354	-2.6063	-2.925	-2.9542	-2.5896	-3.0542	-2.7771	-0.985	13.910	175.998	-92.926	-79.204	119.295	137.003	-129.403	-130.645	-105.832	96.416	85.370	146.394	167.182	33.326	164.884	0.00022712	0.00015672	0.00010844	944.17	1.4859e-06	1.3699e-06	944.55	257.08	2.9245e-06	1.6479e-06	295.62	98.165	83.747	29.132	6.4564e-07	36.139	0.00024443	0.00024217	6.7366e-05	972.75	2.6403e-06	2.6173e-06	976.81	266.83	2.7015e-06	2.7043e-06	305.06	102.09	87.161	30.373	2.6924e-06	37.54	-128.300	-38.691	-37.058	-123.383	3.395	-12.210	-123.797	-118.832	-24.964	-21.293	-119.516	-115.382	-114.970	-110.040	-57.192	-110.830	-8191	255	
1672.486	1	1	0	0	0.21276	0.0096514	0.17105	0.038562	0.17033	0.15362	0.43745	0.23544	0.093729	0.16042	0.17847	0.17393	0.11159	0.08125	0.042804	0.20378	-2.1792	-2.7479	-2.6396	-2.8896	-2.8438	-2.6937	-2.85	-2.8542	-2.6667	-3.0062	-2.7458	-2.7646	-2.8271	-2.5417	-2.8792	-2.8521	-36.404	27.297	117.433	212.232	215.784	172.982	209.233	92.136	178.299	54.488	144.724	202.430	19.404	25.766	217.621	2.201	0.00021687	0.0003261	5.5154e-05	947.03	1.5634e-06	4.9812e-06	945.47	258.04	4.5734e-07	4.586e-07	295.76	97.665	83.883	29.251	1.5793e-06	36.203	0.00025179	0.00024784	6.9531e-05	974.93	2.7452e-06	2.728e-06	978.11	267.18	2.7192e-06	2.7692e-06	305.06	102.24	87.08	30.404	2.8213e-06	37.636	-132.647	-73.817	-87.822	-123.675	-9.662	45.776	-123.902	-118.910	92.068	36.645	-119.598	-115.334	-114.781	-110.313	9.978	-110.765	-8191	255	
1672.582	1	1	0	0	0.094147	0.24455	0.10836	0.25846	0.20161	0.19299	0.26438	0.15306	0.09209	0.081519	0.1177	0.16073	0.11121	0.27513	0.14995	0.14173	-2.2292	-2.8667	-2.6646	-2.6813	-2.8667	-2.7188	-3	-2.9167	-2.4667	-3.0563	-2.8292	-2.55	-2.7438	-2.6854	-2.8896	-2.9667	179.381	-118.822	91.202	182.475	179.567	189.503	161.636	203.361	65.256	126.918	123.244	109.126	-23.253	-121.978	-90.088	102.308	0.00020466	0.0005728	0.00015092	950.34	3.2555e-06	1.5607e-06	942	257.51	2.0706e-06	5.2933e-06	296.95	98.028	84.2	29.295	3.8116e-06	36.153	0.0002606	0.00026119	7.2323e-05	976.24	2.8491e-06	2.8293e-06	976.78	267.49	2.8931e-06	2.8842e-06	305.93	102.39	87.555	30.435	2.8731e-06	37.622	-124.907	-33.732	-33.898	-123.817	-38.803	55.232	-123.819	-118.826	11.768	15.939	-119.352	-115.462	-114.833	-109.968	16.245	-110.914	-8191	255	
1672.678	1	1	0	0	0.13014	0.20934	0.18293	0.11516	0.024629	0.20028	0.31212	0.21988	0.20165	0.19072	0.061033	0.046612	0.17184	0.23813	0.069576	0.053814	-2.0687	-2.8187	-2.7875	-2.7625	-2.8521	-2.6729	-2.9542	-2.8187	-2.5042	-2.9667	-2.8729	-2.4958	-2.9333	-2.8729	-2.7417	-2.9562	-90.444	-1.568	45.531	-102.396	203.468	-11.369	219.857	175.180	15.388	124.947	219.762	16.204	64.392	221.010	174.907	181.290	0.00023939	0.00040291	0.00014645	949.94	2.6138e-06	4.2372e-06	943.33	258.76	1.5408e-06	2.9736e-06	296.78	97.877	83.115	29.262	5.9479e-07	36.251	0.0002681	0.00026571	7.2843e-05	975.2	2.9374e-06	2.8983e-06	978.45	267.76	2.9118e-06	2.8937e-06	305.7	102.38	87.111	30.453	2.8867e-06	37.606	-128.668	-54.435	-57.540	-123.634	-17.285	33.318	-123.727	-119.112	-48.465	10.249	-119.310	-115.322	-114.243	-110.260	-76.340	-110.769	-8191	255	
1672.775	1	1	0	0	0.12485	0.25448	0.17011	0.10773	0.10502	0.13778	0.19621	0.17016	0.16136	0.28377	0.18831	0.089402	0.026708	0.2367	0.1266	0.21186	-1.9875	-2.6833	-2.8104	-2.7667	-2.9604	-2.6375	-2.8292	-3.0646	-2.6833	-2.6833	-2.8625	-2.7	-2.9458	-2.7562	-2.7	-2.8854	-39.428	-81.763	196.767	63.932	52.431	-109.322	-72.265	-98.981	32.686	158.306	212.328	185.511	-65.757	139.656	219.654	211.383	0.00022655	0.00061048	5.8895e-05	947.54	3.1408e-07	3.3551e-06	941.74	258.2	1.7439e-06	3.6224e-06	296.32	98.167	83.746	29.244	3.8437e-06	36.174	0.00026505	0.00026777	7.323e-05	974.86	2.9161e-06	2.9078e-06	976.05	267.6	2.8888e-06	2.9176e-06	305.51	102.3	87.264	30.4	2.8615e-06	37.6	-127.131	-23.741	-81.311	-123.611	130.237	15.879	-123.726	-118.765	-0.607	84.817	-119.660	-115.399	-114.956	-110.372	6.816	-110.644	-8191	255	
1672.871	1	1	0	0	0.067624	0.079867	0.070247	0.11387	0.18575	0.20941	0.10296	0.11237	0.057578	0.14487	0.36977	0.058798	0.22784	0.1123	0.15005	0.10185	-2.2062	-2.8167	-2.7438	-2.6083	-2.8771	-2.8146	-2.7021	-3.0938	-2.7417	-2.6417	-2.9813	-2.5417	-2.8438	-2.7708	-2.5917	-3.0333	-27.128	180.938	201.516	-37.488	16.881	-60.796	172.258	110.861	177.495	55.495	183.829	23.620	-30.114	55.459	149.959	166.501	0.00021833	0.00040605	0.00010631	944.7	1.546e-06	2.732e-06	943.69	257.64	2.0513e-06	1.8301e-06	296.81	97.526	83.697	29.34	3.8897e-06	36.164	0.00026886	0.00026867	7.3761e-05	972.9	2.9406e-06	2.9183e-06	976.39	267.83	2.9623e-06	2.8826e-06	305.54	102.07	87.307	30.417	2.87e-06	37.675	-123.114	-90.467	-51.386	-123.804	26.588	-1.018	-123.765	-118.879	-40.757	-32.436	-119.662	-115.534	-114.848	-110.102	-23.048	-110.762	-8191	255	
1672.967	1	1	0	0	0.27696	0.17378	0.20328	0.18321	0.2663	0.086583	0.2344	0.11688	0.19055	0.097128	0.22474	0.11681	0.23655	0.089043	0.1808	0.14069	-2.1917	-2.6208	-2.8	-2.7042	-2.6646	-2.7062	-2.7979	-3.0333	-2.6542	-2.7625	-2.9	-2.5833	-2.8146	-2.8187	-2.5229	-2.9208	222.665	90.283	-130.393	172.371	86.250	20.120	195.590	214.984	139.421	159.828	-123.217	184.689	11.810	12.790	-111.056	-116.083	0.00022641	0.00042101	4.2462e-05	945.99	2.778e-06	2.9674e-06	943.6	257.35	3.507e-06	5.2352e-06	296.35	97.474	83.925	29.241	2.466e-06	36.142	0.00026694	0.0002631	7.3824e-05	972.82	2.9094e-06	2.8585e-06	976.63	267.63	2.9105e-06	2.8864e-06	305.88	102.26	87.473	30.43	2.8756e-06	37.674	-125.563	-67.653	-105.434	-123.622	-4.564	-24.295	-123.673	-119.010	-30.304	-1.232	-119.351	-115.517	-115.016	-110.110	4.385	-110.904	-8191	255	
1673.086	1	1	0	0	0.25712	0.1401	0.14048	0.12778	0.10972	0.11144	0.20504	0.201	0.15707	0.16469	0.12847	0.28095	0.10263	0.13939	0.24522	0.41698	-2.3708	-2.7	-2.9188	-2.6896	-2.8063	-2.8792	-2.7521	-2.9771	-2.7938	-2.775	-3.1292	-2.5708	-2.7562	-2.9854	-2.6625	-3.0104	56.828	-97.290	179.488	114.710	-130.573	48.478	196.243	124.261	188.411	-72.659	150.692	138.468	77.138	121.919	21.448	223.002	0.0002329	0.00044749	0.00023961	949.26	3.6334e-06	3.1262e-06	943.49	257.98	1.6923e-06	4.4743e-06	297.38	98.088	83.852	29.198	2.8796e-06	36.096	0.00026847	0.00026481	7.4587e-05	975.92	2.9358e-06	2.9123e-06	978.22	268.07	2.9274e-06	2.8972e-06	306.5	102.53	87.48	30.435	2.8813e-06	37.628	-130.571	-62.467	-49.121	-123.545	37.704	-11.122	-123.625	-118.943	-12.422	-0.893	-119.518	-115.425	-115.109	-110.143	-20.058	-110.689	-8191	255	
1673.182	1	1	0	0	0.20163	0.29997	0.14003	0.074379	0.13258	0.20003	0.30929	0.083651	0.044716	0.30812	0.15974	0.14545	0.18862	0.031191	0.33671	0.22014	-2.325	-2.5687	-2.9688	-2.6813	-2.6542	-2.8417	-2.8438	-2.9875	-2.75	-2.6292	-3.0042	-2.7125	-2.6708	-2.8271	-2.6042	-2.8563	-93.991	-24.886	-127.405	163.820	-127.092	-16.821	154.017	81.159	36.088	1.450	68.844	123.872	208.680	7.307	160.981	17.346	0.00018767	0.0003173	0.00010155	949.72	2.1379e-06	4.8392e-07	945.03	258.28	2.1181e-06	4.676e-06	296.34	98.228	83.77	29.325	2.616e-06	36.198	0.00026943	0.0002668	7.3777e-05	977.75	2.9089e-06	2.8471e-06	979.89	267.9	2.9424e-06	2.8884e-06	305.51	102.42	87.351	30.446	2.8909e-06	37.652	-126.224	-49.084	-72.530	-123.597	-60.412	-6.528	-123.956	-118.944	45.251	48.388	-119.307	-115.412	-114.722	-110.232	19.657	-110.875	-8191	255	
1673.278	1	1	0	0	0.10871	0.033275	0.30499	0.11979	0.30013	0.066112	0.34364	0.18137	0.11664	0.43103	0.062562	0.078195	0.054994	0.090039	0.10568	0.17863	-2.3521	-2.4354	-2.8042	-2.8667	-2.5417	-2.8125	-2.8646	-3.0021	-2.9	-2.7021	-3.05	-2.7875	-2.7271	-3.0646	-2.575	-2.9521	118.789	-87.083	74.942	-127.253	176.473	61.458	130.567	212.347	-104.168	-19.402	173.722	49.267	-104.245	46.682	-118.570	210.885	0.00024498	0.00039911	8.0116e-05	947.26	4.1999e-06	2.3712e-06	944.78	258.36	2.873e-06	4.7524e-06	297.13	97.91	84.064	29.289	5.9454e-06	36.164	0.00027308	0.00026594	7.4679e-05	976.31	2.9843e-06	2.9415e-06	978.26	267.83	2.9825e-06	2.9333e-06	306.22	102.36	87.384	30.491	2.9938e-06	37.69	-125.435	-108.914	-59.540	-123.694	5.265	55.224	-123.901	-118.996	-25.924	-5.201	-119.830	-115.643	-115.010	-110.183	-24.742	-110.827	-8191	255	
#DATA ENDS
