BOXY.EXE: ISS Imagent and Oximeter Data Acquisition Program Version 0.80
Ascii Record File

#ACQ INFORMATION
2  Detector Channels 
16  External MUX Channels 
1  Auxiliary Channels 
5000  Waveform (CCF) Frequency (Hz)
1  Waveforms Skipped 
30  Waveforms Averaged 
1  Cycles Averaged 
16  Acquisitions per Waveform 
10.0806  Updata Rate (Hz) 

#FILE INFORMATION
TRUE -- External MUX Channel results are PARSED.
FALSE -- AC DC and Phase are NOT grouped.
TRUE -- Companion Program Settings File CREATED.
FALSE -- AC data not excluded
FALSE -- DC data not excluded
FALSE -- Phase data not excluded
FALSE -- Auxillary Chn. data not excluded
Tab delimiters

#CALIBRATION STATE
TRUE -- Waveform Calibration Values APPLIED.


#AUX CALIBRATION VALUES
Val Type	aux-1	

Term	1.0000e+00	
Factor	0.0000e+00	


#WF CALIBRATION VALUES
A = Detector Channel
Val Type	A-AC1	A-AC2	A-AC3	A-AC4	A-AC5	A-AC6	A-AC7	A-AC8	A-AC9	A-AC10	A-AC11	A-AC12	A-AC13	A-AC14	A-AC15	A-AC16	A-DC1	A-DC2	A-DC3	A-DC4	A-DC5	A-DC6	A-DC7	A-DC8	A-DC9	A-DC10	A-DC11	A-DC12	A-DC13	A-DC14	A-DC15	A-DC16	A-Ph1	A-Ph2	A-Ph3	A-Ph4	A-Ph5	A-Ph6	A-Ph7	A-Ph8	A-Ph9	A-Ph10	A-Ph11	A-Ph12	A-Ph13	A-Ph14	A-Ph15	A-Ph16	

Term	0.00000e+00	0.00000e+00	0.00000e+00	0.00000e+00	0.00000e+00	0.00000e+00	0.00000e+00	0.00000e+00	0.00000e+00	0.00000e+00	0.00000e+00	0.00000e+00	0.00000e+00	0.00000e+00	0.00000e+00	0.00000e+00	0.00000e+00	0.00000e+00	0.00000e+00	0.00000e+00	0.00000e+00	0.00000e+00	0.00000e+00	0.00000e+00	0.00000e+00	0.00000e+00	0.00000e+00	0.00000e+00	0.00000e+00	0.00000e+00	0.00000e+00	0.00000e+00	0.00000e+00	0.00000e+00	0.00000e+00	0.00000e+00	0.00000e+00	0.00000e+00	0.00000e+00	0.00000e+00	0.00000e+00	0.00000e+00	0.00000e+00	0.00000e+00	0.00000e+00	0.00000e+00	0.00000e+00	0.00000e+00	
Factor	1.00000e+00	1.00000e+00	1.00000e+00	1.00000e+00	1.00000e+00	1.00000e+00	1.00000e+00	1.00000e+00	1.00000e+00	1.00000e+00	1.00000e+00	1.00000e+00	1.00000e+00	1.00000e+00	1.00000e+00	1.00000e+00	1.00000e+00	1.00000e+00	1.00000e+00	1.00000e+00	1.00000e+00	1.00000e+00	1.00000e+00	1.00000e+00	1.00000e+00	1.00000e+00	1.00000e+00	1.00000e+00	1.00000e+00	1.00000e+00	1.00000e+00	1.00000e+00	X	X	X	X	X	X	X	X	X	X	X	X	X	X	X	X	

B = Detector Channel
Val Type	B-AC1	B-AC2	B-AC3	B-AC4	B-AC5	B-AC6	B-AC7	B-AC8	B-AC9	B-AC10	B-AC11	B-AC12	B-AC13	B-AC14	B-AC15	B-AC16	B-DC1	B-DC2	B-DC3	B-DC4	B-DC5	B-DC6	B-DC7	B-DC8	B-DC9	B-DC10	B-DC11	B-DC12	B-DC13	B-DC14	B-DC15	B-DC16	B-Ph1	B-Ph2	B-Ph3	B-Ph4	B-Ph5	B-Ph6	B-Ph7	B-Ph8	B-Ph9	B-Ph10	B-Ph11	B-Ph12	B-Ph13	B-Ph14	B-Ph15	B-Ph16	

Term	0.00000e+00	0.00000e+00	0.00000e+00	0.00000e+00	0.00000e+00	0.00000e+00	0.00000e+00	0.00000e+00	0.00000e+00	0.00000e+00	0.00000e+00	0.00000e+00	0.00000e+00	0.00000e+00	0.00000e+00	0.00000e+00	0.00000e+00	0.00000e+00	0.00000e+00	0.00000e+00	0.00000e+00	0.00000e+00	0.00000e+00	0.00000e+00	0.00000e+00	0.00000e+00	0.00000e+00	0.00000e+00	0.00000e+00	0.00000e+00	0.00000e+00	0.00000e+00	-1.69354e+02	-1.24500e+02	-1.26007e+02	-1.81856e+02	-7.20648e+01	-6.60610e+01	-1.55941e+02	-1.62015e+02	-8.36741e+01	-7.05933e+01	-1.73451e+02	-1.70343e+02	-1.85611e+02	-1.76758e+02	-7.82995e+01	-1.49150e+02	
Factor	2.79693e-05	1.50077e-04	4.66187e-05	1.73418e-01	1.51648e-06	1.77694e-06	1.62039e-01	5.03774e-02	1.43685e-06	1.59001e-06	9.33508e-02	2.79180e-02	5.22402e-02	9.18004e-03	1.47996e-06	1.28111e-02	6.68720e-06	8.20656e-06	2.27921e-06	8.97480e-02	8.71168e-08	9.03065e-08	7.88262e-02	2.61664e-02	8.65761e-08	9.09272e-08	4.70504e-02	1.41354e-02	2.72224e-02	4.80701e-03	8.85628e-08	6.51392e-03	X	X	X	X	X	X	X	X	X	X	X	X	X	X	X	X	



#DISTANCE SETTINGS
A = Detector Channel
A-1	A-2	A-3	A-4	A-5	A-6	A-7	A-8	A-9	A-10	A-11	A-12	A-13	A-14	A-15	A-16	

2.5000e+00	3.0000e+00	2.5000e+00	3.0000e+00	2.0000e+00	3.0000e+00	1.5000e+00	3.0000e+00	3.0000e+00	3.0000e+00	3.0000e+00	3.0000e+00	3.0000e+00	3.0000e+00	1.5000e+00	3.0000e+00	

B = Detector Channel
B-1	B-2	B-3	B-4	B-5	B-6	B-7	B-8	B-9	B-10	B-11	B-12	B-13	B-14	B-15	B-16	

1.0000e+01	1.0000e+01	1.0000e+01	1.4400e+00	1.0000e+01	1.0000e+01	1.5100e+00	1.9400e+00	1.0000e+01	1.0000e+01	1.9900e+00	2.4900e+00	2.4100e+00	2.9000e+00	1.0000e+01	2.9800e+00	




#DATA BEGINS
time	group	step	mark	flag	A-AC1	A-AC2	A-AC3	A-AC4	A-AC5	A-AC6	A-AC7	A-AC8	A-AC9	A-AC10	A-AC11	A-AC12	A-AC13	A-AC14	A-AC15	A-AC16	A-DC1	A-DC2	A-DC3	A-DC4	A-DC5	A-DC6	A-DC7	A-DC8	A-DC9	A-DC10	A-DC11	A-DC12	A-DC13	A-DC14	A-DC15	A-DC16	A-Ph1	A-Ph2	A-Ph3	A-Ph4	A-Ph5	A-Ph6	A-Ph7	A-Ph8	A-Ph9	A-Ph10	A-Ph11	A-Ph12	A-Ph13	A-Ph14	A-Ph15	A-Ph16	B-AC1	B-AC2	B-AC3	B-AC4	B-AC5	B-AC6	B-AC7	B-AC8	B-AC9	B-AC10	B-AC11	B-AC12	B-AC13	B-AC14	B-AC15	B-AC16	B-DC1	B-DC2	B-DC3	B-DC4	B-DC5	B-DC6	B-DC7	B-DC8	B-DC9	B-DC10	B-DC11	B-DC12	B-DC13	B-DC14	B-DC15	B-DC16	B-Ph1	B-Ph2	B-Ph3	B-Ph4	B-Ph5	B-Ph6	B-Ph7	B-Ph8	B-Ph9	B-Ph10	B-Ph11	B-Ph12	B-Ph13	B-Ph14	B-Ph15	B-Ph16	aux-1	digaux	

20934.883	1	1	0	768	0.34568	0.090553	0.17505	0.14072	0.10607	0.19247	0.25867	0.40385	0.15092	0.12487	0.21357	0.10977	0.10579	0.22322	0.16035	0.25907	-2.2125	-2.4458	-2.7333	-2.7729	-2.4729	-2.7146	-2.6833	-2.8125	-2.4646	-2.475	-2.9771	-2.7771	-2.5771	-3.05	-2.3917	-2.7854	404.962	516.469	496.418	416.102	338.775	432.487	432.843	456.274	496.995	265.802	526.264	416.486	277.792	485.394	516.816	493.857	0.00079847	0.00054152	0.00012803	1241.1	4.0834e-06	5.4076e-06	1257.3	338.01	3.9175e-06	3.7597e-06	390.53	136.49	118.22	41.866	3.4278e-06	51.375	0.0004081	0.00034061	9.3552e-05	1258.6	3.7765e-06	3.6917e-06	1276.3	344.55	3.645e-06	3.6011e-06	398.64	139.01	120.07	42.881	3.6977e-06	53.043	517.199	281.753	232.558	183.140	293.413	334.138	182.431	187.482	269.284	346.686	187.163	190.755	190.343	196.405	297.945	195.457	-8191	255	
20934.979	1	1	0	0	0.15676	0.16551	0.1038	0.27566	0.1756	0.045896	0.39433	0.032556	0.15732	0.18337	0.12441	0.29893	0.15766	0.2577	0.19745	0.072462	-2.125	-2.2146	-2.7979	-2.6688	-2.6063	-2.8958	-2.6333	-2.7375	-2.6417	-2.4021	-2.7521	-2.7333	-2.525	-2.8563	-2.5125	-2.7896	219.058	313.276	490.277	465.436	509.350	375.095	436.658	333.718	464.808	245.871	433.662	268.791	282.221	496.653	175.862	257.152	0.00080032	0.00038187	0.00014634	1251	5.632e-06	4.2527e-06	1261.9	343.09	5.9313e-06	3.8218e-06	395.3	137.77	119.91	42.249	5.71e-06	51.87	0.00039507	0.00032466	8.8595e-05	1268.7	3.5725e-06	3.483e-06	1284.7	348.04	3.5323e-06	3.477e-06	402.93	140.66	121.54	43.334	3.4897e-06	53.566	516.131	254.542	241.485	182.808	291.856	321.900	182.433	187.538	287.950	303.215	187.117	190.810	190.964	196.516	310.589	195.631	-8191	255	
20935.076	1	1	0	0	0.14852	0.047023	0.088836	0.17374	0.29847	0.070752	0.20848	0.16652	0.13125	0.13225	0.19837	0.29745	0.17659	0.092379	0.36437	0.43275	-2.1208	-2.4396	-2.7313	-2.6688	-2.4667	-2.775	-2.8521	-2.55	-2.7833	-2.4562	-2.775	-2.525	-2.5729	-2.9437	-2.3563	-2.8083	391.001	187.918	324.484	169.686	411.541	245.195	492.958	492.585	281.374	373.021	279.931	422.503	444.991	203.046	410.923	476.187	0.00076211	0.0004153	0.00014992	1253.7	3.5684e-06	4.136e-06	1268	343.04	4.532e-06	3.3095e-06	397.88	137.92	119.27	42.009	5.6463e-06	52.055	0.00037929	0.00030951	8.6601e-05	1273.2	3.4444e-06	3.3477e-06	1289.4	349.84	3.3732e-06	3.4293e-06	403.88	140.69	121.73	43.202	3.4418e-06	53.574	517.362	255.115	261.861	182.902	287.457	314.681	182.465	187.453	278.527	323.988	186.896	190.830	190.860	196.289	291.208	195.647	-8191	255	
20935.172	1	1	0	0	0.13239	0.19779	0.1626	0.15782	0.20331	0.20052	0.31938	0.30969	0.165	0.19874	0.11095	0.24874	0.16706	0.23613	0.034967	0.061211	-2.3021	-2.3375	-2.7687	-2.6437	-2.3833	-2.6333	-2.6875	-2.7042	-2.5917	-2.5375	-2.6479	-2.7104	-2.4313	-2.8	-2.6292	-2.6729	184.973	386.989	388.394	479.385	197.323	308.613	463.290	460.266	249.318	456.804	423.659	503.548	362.814	192.268	319.254	424.621	0.0007616	0.00064494	0.00015122	1258.4	4.6814e-06	2.3328e-06	1270.1	345.14	5.6969e-06	4.7549e-06	397.26	138.26	121.05	42.229	3.3967e-06	52.178	0.00038208	0.00031048	8.4583e-05	1276.8	3.4607e-06	3.3238e-06	1292.1	350.63	3.4167e-06	3.348e-06	404.18	140.87	122.18	43.252	3.4563e-06	53.586	515.434	262.277	295.410	183.014	283.525	366.757	182.492	187.478	271.680	304.248	187.012	190.890	190.726	196.528	282.824	195.748	-8191	255	
20935.268	1	1	0	0	0.10655	0.21735	0.14244	0.028231	0.037567	0.04038	0.15256	0.29452	0.22345	0.16233	0.090919	0.23513	0.22507	0.26482	0.24399	0.11025	-2.4333	-2.3958	-2.7458	-2.7062	-2.4667	-2.8125	-2.6562	-2.5708	-2.7646	-2.5771	-2.7583	-2.8479	-2.4771	-2.7646	-2.5646	-2.5292	367.029	397.818	310.027	494.379	291.949	288.771	454.456	175.823	408.213	476.585	470.777	265.095	235.895	172.736	501.173	507.535	0.0007988	0.0004161	0.00014855	1258.8	6.6008e-06	5.484e-06	1271.5	343.87	5.5359e-06	6.183e-06	396.48	138.26	120.07	42.186	6.2837e-06	52.176	0.00038639	0.00030255	8.398e-05	1274.5	3.4359e-06	3.3824e-06	1289.9	349.74	3.5583e-06	3.4799e-06	403.8	140.77	121.68	43.248	3.4324e-06	53.588	515.770	290.683	274.906	182.714	292.880	315.650	182.502	187.516	288.057	317.629	186.793	190.620	191.072	196.518	311.706	195.453	-8191	255	
20935.363	1	1	0	0	0.26212	0.085228	0.10404	0.31875	0.13514	0.26112	0.077405	0.37271	0.20523	0.14908	0.24666	0.24355	0.024845	0.22843	0.15156	0.18644	-2.1354	-2.5104	-2.6292	-2.8312	-2.2917	-2.7125	-2.8875	-2.5396	-2.7562	-2.5625	-2.7521	-2.975	-2.3542	-2.7667	-2.6604	-2.6813	370.732	417.879	240.270	505.591	517.438	193.958	350.200	220.866	514.048	453.039	180.731	440.885	439.902	171.391	182.738	498.392	0.00080013	0.00037629	0.00010044	1257.5	2.8742e-06	3.0163e-06	1271.7	344.68	6.0547e-06	4.8065e-06	395.71	138.26	119.82	42.155	4.9119e-06	52.09	0.00038652	0.00030325	8.4986e-05	1275	3.5455e-06	3.4211e-06	1290.8	350.03	3.4501e-06	3.4172e-06	403.67	140.76	121.42	43.318	3.4447e-06	53.603	513.781	265.701	280.156	183.182	330.942	315.684	182.593	187.415	282.886	316.840	186.946	190.888	190.642	196.452	298.810	195.429	-8191	255	
20935.484	1	1	0	0	0.16632	0.35902	0.074527	0.24275	0.2198	0.11512	0.13949	0.21021	0.11904	0.28137	0.052446	0.07746	0.28095	0.36564	0.11535	0.11649	-2.4396	-2.3854	-2.6167	-2.8083	-2.5667	-2.7042	-2.7729	-2.6188	-2.6021	-2.5208	-2.7854	-3.025	-2.5062	-2.8063	-2.8125	-2.4667	426.365	296.114	398.347	505.976	379.246	355.788	445.126	450.439	313.198	501.820	488.391	414.006	507.733	476.448	286.621	509.873	0.00084018	0.00052662	0.0001848	1257.9	4.1592e-06	8.2551e-06	1271.8	344.37	5.0577e-06	4.2113e-06	397.23	138.26	120.25	42.265	3.1311e-06	52.151	0.00038787	0.00031462	8.547e-05	1275.3	3.4366e-06	3.4251e-06	1292.3	350.32	3.5399e-06	3.4054e-06	403.93	141.02	121.88	43.349	3.3327e-06	53.642	516.095	269.262	281.188	182.772	292.948	318.392	182.723	187.255	280.953	310.912	187.055	190.787	190.554	196.214	310.932	195.610	-8191	255	
20935.580	1	1	0	0	0.21517	0.074059	0.20666	0.35616	0.018019	0.23712	0.19852	0.12806	0.041807	0.051893	0.17061	0.3095	0.091603	0.050214	0.21328	0.33691	-2.5646	-2.5083	-2.5312	-2.7646	-2.4521	-2.6604	-2.7667	-2.4625	-2.6792	-2.6562	-2.7208	-2.8021	-2.5708	-2.7042	-2.6979	-2.5958	351.806	247.647	363.559	495.688	202.600	211.980	339.170	478.153	176.041	482.497	477.422	519.691	190.402	300.232	217.801	452.703	0.0008078	0.0004881	0.00014445	1259.3	3.8025e-06	4.6962e-06	1275.1	344.09	4.9948e-06	3.5323e-06	396.51	137.94	119.62	42.214	4.7951e-06	52.019	0.00038603	0.00030768	8.5385e-05	1275.7	3.4406e-06	3.2783e-06	1291.7	350.3	3.4277e-06	3.2976e-06	404	140.82	121.33	43.312	3.494e-06	53.557	518.742	264.189	259.957	182.918	305.820	344.528	182.499	187.471	268.492	300.404	187.117	190.764	190.597	196.505	297.584	195.417	-8191	255	
20935.678	1	1	0	0	0.16199	0.31972	0.30904	0.30081	0.34832	0.15499	0.21858	0.23215	0.1106	0.28121	0.25822	0.13218	0.29944	0.15875	0.27582	0.27621	-2.3542	-2.8063	-2.2542	-2.8542	-2.4104	-2.7104	-2.9979	-2.575	-2.7313	-2.5563	-2.4146	-2.7292	-2.5354	-2.6708	-2.9458	-2.5021	449.115	469.756	440.665	190.335	453.441	169.947	472.850	506.707	353.817	245.559	271.644	503.861	503.911	501.435	390.768	228.123	0.00082535	0.0003879	0.00012417	1255.9	4.5853e-06	4.3724e-06	1268.2	343.13	4.8775e-06	3.1535e-06	395.33	137.35	118.48	41.888	4.0192e-06	51.734	0.00038632	0.00030723	8.6026e-05	1272.3	3.5758e-06	3.4574e-06	1285.9	349.36	3.4358e-06	3.417e-06	401.99	140.02	120.72	43.081	3.4113e-06	53.33	513.862	283.444	251.689	183.093	295.221	351.797	182.426	187.703	279.467	303.071	186.826	191.059	190.725	196.286	264.141	195.437	-8191	255	
20935.773	1	1	0	0	0.12822	0.1292	0.21056	0.098121	0.23948	0.085011	0.28336	0.1137	0.21166	0.34935	0.22004	0.15416	0.21895	0.13907	0.14472	0.10683	-2.15	-2.6208	-2.5333	-3.0458	-2.5354	-2.4333	-2.9042	-2.55	-2.5812	-2.625	-2.4458	-2.9146	-2.5854	-2.4625	-2.7896	-2.4417	373.894	377.899	523.368	306.479	186.856	448.049	425.181	455.615	437.439	383.842	478.327	476.013	438.338	458.746	395.047	460.219	0.00079317	0.00030341	0.0001824	1251	4.9534e-06	4.851e-06	1270.4	343.37	6.4321e-06	4.7931e-06	396.57	138.35	118.85	42.337	1.8588e-06	52.015	0.00037994	0.00030487	8.6211e-05	1270	3.385e-06	3.1969e-06	1288	349.55	3.4318e-06	3.2183e-06	403.86	140.73	121.35	43.332	3.3052e-06	53.648	517.461	295.164	232.771	182.800	307.646	308.704	182.552	187.567	274.962	326.658	186.843	190.982	190.813	196.376	296.118	195.475	-8191	255	
20935.869	1	1	0	0	0.16566	0.29991	0.071211	0.275	0.039343	0.38365	0.28331	0.13635	0.25297	0.2501	0.070511	0.28578	0.19461	0.20395	0.069331	0.18566	-2.125	-2.5917	-2.3167	-2.9167	-2.5167	-2.7	-2.8708	-2.4708	-2.6479	-2.8396	-2.5604	-2.7354	-2.4729	-2.5292	-2.9062	-2.6646	319.128	473.283	202.860	448.963	220.206	322.548	500.767	230.135	347.667	417.454	517.244	451.652	420.704	447.092	307.624	368.710	0.00079707	0.0005086	0.00021529	1258	5.0073e-06	4.3373e-06	1267.1	344.36	7.2071e-06	4.5157e-06	397.8	139.47	119.93	42.355	4.7821e-06	52.133	0.00037641	0.00029795	8.2489e-05	1275.1	3.2892e-06	3.216e-06	1289.9	350.43	3.3041e-06	3.2592e-06	404.72	141.33	122.08	43.494	3.3436e-06	53.682	514.587	261.630	246.623	183.218	309.343	320.390	182.632	187.441	289.578	336.501	186.921	190.893	190.490	196.454	312.871	195.606	-8191	255	
20935.965	1	1	0	0	0.10745	0.26324	0.13048	0.1468	0.1997	0.030766	0.22018	0.27387	0.1717	0.27059	0.12619	0.44423	0.14162	0.046193	0.17467	0.19022	-2.2687	-2.6063	-2.3458	-3.0146	-2.4375	-2.6354	-2.9458	-2.6958	-2.575	-2.775	-2.4188	-2.7313	-2.6042	-2.5021	-2.9167	-2.7417	452.230	405.415	512.530	192.473	365.382	376.243	435.094	509.694	307.669	346.515	469.201	457.291	504.324	448.107	211.954	449.354	0.00078298	0.00041238	0.0001284	1261	4.9922e-06	2.7383e-06	1272.9	345.42	6.0754e-06	5.9865e-06	397.79	139.14	120.64	42.671	4.8294e-06	52.504	0.00037494	0.00028347	7.926e-05	1274.6	3.2763e-06	3.1022e-06	1291.5	351.57	3.2607e-06	3.1345e-06	404.97	141.49	122.38	43.6	3.2008e-06	53.863	516.466	260.969	241.563	182.899	304.160	347.984	182.446	187.488	280.622	317.888	186.961	190.950	190.800	196.332	332.014	195.412	-8191	255	
20936.061	1	1	0	0	0.35839	0.20755	0.067308	0.30943	0.21539	0.287	0.13243	0.21914	0.074247	0.14037	0.074224	0.095467	0.22225	0.16808	0.035342	0.29173	-1.9958	-2.7375	-2.5396	-2.9229	-2.6333	-2.5458	-2.8979	-2.7229	-2.5854	-2.8417	-2.6646	-2.7458	-2.8312	-2.5354	-2.6875	-2.6562	450.800	327.922	473.445	491.257	278.656	360.902	439.488	487.990	225.906	269.243	491.571	478.256	481.918	454.273	324.032	435.529	0.00084025	0.00052813	0.0001798	1257.4	5.1339e-06	4.5526e-06	1266.2	345.69	4.6611e-06	6.6354e-06	398.92	139.43	120.72	42.522	2.7645e-06	52.448	0.00037844	0.00028497	7.9787e-05	1276.8	3.2106e-06	3.0962e-06	1290.8	351.77	3.2475e-06	3.0269e-06	405.72	141.85	122.22	43.635	3.0624e-06	53.991	515.164	256.218	252.593	183.125	290.292	342.159	182.613	187.369	279.892	317.905	187.071	190.624	190.565	196.444	256.588	195.315	-8191	255	
20936.180	1	1	0	0	0.079914	0.037721	0.078426	0.37673	0.16447	0.22126	0.29478	0.30809	0.017576	0.18104	0.11083	0.24091	0.11864	0.23423	0.11687	0.23242	-1.975	-2.8438	-2.4896	-2.8333	-2.7333	-2.5229	-2.8854	-2.8438	-2.3646	-2.8521	-2.6375	-2.6625	-2.8229	-2.55	-2.8646	-2.5896	359.038	326.797	512.244	478.635	516.088	490.407	457.557	483.359	230.619	375.482	238.335	441.156	496.146	411.926	194.361	355.755	0.00078422	0.00030676	9.8548e-05	1258.9	4.4682e-06	4.7058e-06	1276.1	346.04	5.4606e-06	3.8588e-06	396.31	139.03	121.1	42.746	3.443e-06	52.713	0.00036512	0.00027138	7.7161e-05	1277.2	3.1493e-06	3.0719e-06	1294.6	352.19	3.1658e-06	3.1203e-06	405.3	142.01	122.7	43.725	3.0956e-06	54.039	519.583	246.832	253.417	182.803	293.322	312.400	182.501	187.435	290.967	315.649	186.960	190.955	190.601	196.130	288.200	195.516	-8191	255	
20936.277	1	1	0	0	0.18107	0.079671	0.28439	0.18408	0.20904	0.12319	0.22304	0.25003	0.16299	0.13436	0.11325	0.24805	0.19851	0.13784	0.1542	0.26798	-1.9542	-2.6396	-2.4771	-2.4813	-2.6688	-2.3396	-2.7917	-2.8896	-2.3771	-2.6875	-2.55	-2.6167	-2.8708	-2.7	-2.7062	-2.8604	499.642	312.963	205.071	482.107	245.814	487.778	484.599	508.767	517.070	494.999	234.621	246.974	518.146	216.971	216.612	451.093	0.00080329	0.00036709	0.0001109	1263	1.3885e-06	5.1487e-06	1273.2	345.03	4.8881e-06	4.7772e-06	398.56	139.17	120.36	42.857	3.1988e-06	52.695	0.00036437	0.00027494	7.7123e-05	1279.1	3.1803e-06	3.0142e-06	1294.3	352.02	3.1541e-06	3.0082e-06	405.48	141.88	122.36	43.829	3.1364e-06	54.055	514.483	272.159	264.675	182.897	326.755	326.901	182.476	187.489	277.569	326.263	187.154	190.864	190.610	196.456	283.794	195.386	-8191	255	
20936.373	1	1	0	0	0.041873	0.15345	0.34138	0.30154	0.16992	0.2432	0.18695	0.17971	0.01993	0.076942	0.19986	0.37592	0.17161	0.034336	0.18311	0.10591	-1.9375	-2.7021	-2.6271	-2.8271	-2.7542	-2.2875	-2.8417	-2.6729	-2.3521	-2.7	-2.6667	-2.6104	-2.9208	-2.6479	-2.6917	-2.8042	296.539	337.210	414.525	455.746	295.411	210.490	434.530	233.349	294.185	460.399	384.121	486.485	525.186	193.625	526.720	491.149	0.0007757	0.00037514	0.00012647	1263.9	6.572e-06	4.496e-06	1276.9	345.93	5.4028e-06	4.8704e-06	399.25	139.66	121.3	42.714	4.0522e-06	52.843	0.00036271	0.00027889	7.6582e-05	1279.2	3.099e-06	3.0279e-06	1294.2	352.38	3.0909e-06	3.0194e-06	406.43	142.21	123.05	43.755	3.101e-06	54.151	518.835	264.954	266.208	183.043	294.617	340.412	182.855	187.442	268.348	295.678	187.036	190.546	190.436	196.602	298.575	195.542	-8191	255	
20936.443	1	1	0	0	0.20482	0.23421	0.043898	0.33499	0.083022	0.096727	0.10068	0.32532	0.092334	0.094636	0.2264	0.083307	0.10576	0.15003	0.19726	0.078914	-1.8542	-2.6479	-2.3458	-2.6958	-2.7125	-2.5542	-2.8	-2.6896	-2.3896	-2.6021	-2.6208	-2.5604	-2.675	-2.5	-2.4458	-2.8438	177.506	202.288	193.730	475.997	229.532	225.747	485.010	498.029	370.089	511.670	485.669	319.690	181.526	517.302	417.261	406.847	0.00075839	0.00066949	0.00010435	1261.2	5.0586e-06	2.3947e-06	1276.1	347.31	5.3377e-06	3.7822e-06	397.75	139.05	120.83	42.511	4.1292e-06	52.417	0.00035445	0.00028388	7.7318e-05	1276.7	3.1117e-06	2.9156e-06	1293.4	352.35	3.1698e-06	2.901e-06	404.65	141.78	122.51	43.65	3.1639e-06	53.969	515.101	253.499	247.523	182.881	285.710	311.863	182.529	187.534	278.614	299.302	187.037	190.718	190.851	196.262	280.466	195.455	-8191	255	
20936.564	1	1	0	0	0.24515	0.12278	0.11253	0.22043	0.036218	0.11166	0.17831	0.23532	0.13458	0.1051	0.30264	0.33259	0.13103	0.15332	0.14038	0.063942	-1.75	-2.7417	-2.6042	-2.6229	-2.8312	-2.5646	-2.8063	-2.8688	-2.4667	-2.7792	-2.6542	-2.4729	-2.7438	-2.7042	-2.4083	-2.8438	511.834	289.542	349.622	495.744	429.546	284.209	511.874	496.847	266.942	202.177	459.749	471.011	519.360	276.393	473.598	444.721	0.00075475	0.00064716	0.00016658	1253.5	4.5036e-06	5.741e-06	1262.7	344.2	5.4474e-06	3.106e-06	396.33	138.6	120.14	42.487	5.1711e-06	52.405	0.00035973	0.00028215	7.5784e-05	1271	3.1391e-06	3.0076e-06	1287	350.02	3.1584e-06	2.9709e-06	403.45	141.03	121.63	43.483	3.0774e-06	53.769	515.054	260.722	263.559	183.023	299.536	335.167	182.579	187.621	299.049	300.963	187.070	191.064	190.939	196.443	303.852	195.864	-8191	255	
20936.660	1	1	0	0	0.11493	0.06139	0.13638	0.19666	0.1494	0.16319	0.26731	0.14458	0.18603	0.16254	0.25308	0.20259	0.08122	0.22024	0.072285	0.35173	-1.9833	-2.5521	-2.6229	-2.4396	-2.7521	-2.7208	-2.6833	-2.8104	-2.3229	-2.7917	-2.8708	-2.5146	-2.8542	-2.6479	-2.4146	-2.7875	330.457	517.939	437.561	451.457	433.313	243.361	460.309	501.134	331.389	197.170	474.854	189.831	477.620	496.940	511.444	460.923	0.00082339	0.00029967	0.00014817	1254	4.4787e-06	4.9327e-06	1264.5	342.23	4.7102e-06	4.1385e-06	396	138.33	119.89	42.222	4.0567e-06	52.256	0.00036792	0.00028193	7.529e-05	1269.2	3.1981e-06	2.9869e-06	1284.1	348.64	3.1317e-06	3.0826e-06	402.35	140.72	121.27	43.319	3.1659e-06	53.676	517.695	284.510	278.643	183.105	281.801	325.298	182.714	187.488	272.455	312.857	187.020	190.628	190.681	196.418	284.713	195.574	-8191	255	
20936.758	1	1	0	0	0.29832	0.08936	0.23077	0.20464	0.18478	0.11611	0.28559	0.24118	0.18894	0.057627	0.036132	0.13749	0.1187	0.25084	0.007566	0.080094	-2.1583	-2.575	-2.55	-2.5729	-2.7188	-2.6458	-2.525	-3.0229	-2.425	-2.6521	-2.8458	-2.7125	-2.5583	-2.7562	-2.5042	-2.6813	392.444	409.490	527.726	460.376	298.162	522.396	466.948	526.011	427.170	214.029	377.559	337.971	376.073	449.284	386.501	477.160	0.00083235	0.00026584	0.00013015	1247.2	5.6152e-06	3.1432e-06	1263	343.22	6.8908e-06	4.9616e-06	395.3	138.74	119.86	42.267	2.3809e-06	52.272	0.00036139	0.00027456	7.7142e-05	1265.3	3.16e-06	3.0034e-06	1282.5	349.03	3.1317e-06	2.9792e-06	402.12	140.83	121.71	43.333	3.0999e-06	53.604	514.161	279.045	273.432	182.997	284.454	305.252	182.544	187.289	258.307	313.119	187.207	190.894	191.016	196.354	298.731	195.624	-8191	255	
20936.854	1	1	0	0	0.18533	0.18396	0.10347	0.15598	0.18134	0.16571	0.39916	0.17074	0.21715	0.14033	0.032257	0.159	0.051904	0.11441	0.25202	0.032695	-2.0146	-2.4292	-2.7833	-2.5979	-2.5312	-2.5687	-2.4917	-2.8771	-2.4729	-2.4146	-2.7125	-2.75	-2.8729	-2.7167	-2.3688	-2.9896	527.771	217.965	524.696	216.698	198.673	436.393	421.205	502.496	232.754	259.457	309.241	498.385	216.834	180.008	463.978	271.511	0.0008077	0.00026606	0.00019277	1249.7	2.2454e-06	6.1804e-06	1266.2	344.08	6.4336e-06	4.2085e-06	395.06	139.43	120.49	42.482	4.6993e-06	52.371	0.00036038	0.00027913	7.6938e-05	1267.5	3.0349e-06	3.0601e-06	1285.6	349.9	3.223e-06	3.0377e-06	402.96	141.36	122.14	43.597	3.0744e-06	53.808	516.546	293.809	245.828	183.013	270.722	330.758	182.460	187.552	281.598	311.353	186.737	190.834	190.623	196.312	302.295	195.541	-8191	255	
20936.973	1	1	0	0	0.25396	0.13536	0.017999	0.177	0.033128	0.22908	0.37936	0.062553	0.12039	0.33252	0.18979	0.019829	0.058735	0.22103	0.084995	0.25114	-2.0187	-2.2438	-2.7458	-2.7417	-2.6937	-2.8146	-2.725	-2.7792	-2.675	-2.4479	-2.8312	-2.6063	-2.6792	-2.8604	-2.4062	-2.8292	326.802	355.461	395.615	222.166	436.724	336.632	488.132	259.486	443.502	397.308	377.003	464.704	175.425	506.711	520.617	452.659	0.00078047	0.00043603	0.00013795	1258.2	5.7442e-06	4.3317e-06	1275.2	346.85	5.6813e-06	5.0492e-06	398.3	139.57	121.2	42.524	2.6234e-06	52.402	0.00036285	0.0002756	7.699e-05	1274.3	3.1358e-06	2.9425e-06	1291.9	352.28	3.129e-06	3.0618e-06	405.45	142.08	122.73	43.705	3.0929e-06	53.984	515.066	265.788	265.690	182.959	299.162	313.115	182.425	187.461	282.190	315.992	187.135	190.729	190.990	196.335	289.114	195.478	-8191	255	
20937.047	1	1	0	0	0.1873	0.094603	0.1806	0.12966	0.085784	0.10923	0.29462	0.22697	0.34493	0.14744	0.09475	0.094995	0.039248	0.20983	0.15707	0.21633	-2.0979	-2.5	-2.575	-2.5333	-2.5021	-2.7104	-2.6771	-2.7875	-2.6833	-2.4271	-2.9562	-2.6833	-2.5438	-2.9479	-2.4229	-2.7479	264.844	286.122	487.520	232.087	364.171	182.781	436.491	226.464	459.173	298.335	484.572	501.098	236.448	211.271	515.307	518.600	0.00083411	0.00048458	0.00013661	1259.6	2.6289e-06	4.9146e-06	1274.1	346.44	5.2611e-06	4.6751e-06	398.61	139.69	121.38	42.794	3.6871e-06	52.517	0.00036147	0.00028164	7.321e-05	1277.1	3.1226e-06	3.0027e-06	1294.2	352.63	3.1375e-06	2.9801e-06	405.89	142.45	123.05	43.884	3.0181e-06	54.164	517.405	272.139	270.770	182.984	303.277	336.042	182.537	187.517	268.345	300.471	186.880	190.664	190.613	196.322	283.478	195.640	-8191	255	
20937.164	1	1	0	0	0.068166	0.051831	0.038905	0.38461	0.05558	0.18482	0.24925	0.13223	0.14545	0.16636	0.17557	0.037013	0.12396	0.067653	0.21755	0.24795	-2.3292	-2.3229	-2.8896	-2.6771	-2.55	-2.7667	-2.6	-2.9083	-2.625	-2.3688	-2.9396	-2.7542	-2.6125	-2.8312	-2.475	-2.7917	497.796	254.975	268.705	506.590	292.134	468.494	436.614	500.734	199.061	426.628	487.352	454.244	453.854	169.781	500.395	428.819	0.00079504	0.00039687	0.00013612	1264.7	4.2596e-06	3.5708e-06	1276.5	348.59	4.6788e-06	5.2901e-06	399.72	139.89	121.87	43.118	6.1671e-06	52.957	0.00035296	0.00027562	7.7697e-05	1281.6	3.0792e-06	3.0144e-06	1298.7	354.23	3.1032e-06	2.908e-06	406.38	142.63	123.43	44.009	3.1019e-06	54.393	517.402	240.221	268.096	182.930	304.969	329.619	182.666	187.563	270.788	304.812	187.107	190.734	190.697	196.494	286.839	195.277	-8191	255	
20937.262	1	1	0	0	0.17681	0.098708	0.30614	0.1082	0.030464	0.37561	0.33776	0.20768	0.30111	0.088779	0.2367	0.11242	0.16234	0.30321	0.29885	0.18813	-2.2792	-2.3875	-2.55	-2.6792	-2.5625	-2.8021	-2.5438	-2.5375	-2.6646	-2.4917	-2.8021	-2.6813	-2.3312	-2.8521	-2.5146	-2.5062	443.326	495.779	255.713	369.528	509.603	200.996	514.953	171.444	251.178	238.126	410.514	171.463	171.192	420.447	418.350	190.010	0.00085096	0.00044897	0.00012808	1268.4	4.6397e-06	5.3417e-06	1282.8	349.08	5.2882e-06	3.8481e-06	400.44	139.89	122.07	43.028	3.9334e-06	53.198	0.00037278	0.00027071	7.6952e-05	1284.1	3.1549e-06	2.9491e-06	1303.6	354.47	3.1485e-06	3.1027e-06	408.19	143.04	123.69	43.986	2.9855e-06	54.498	516.699	268.385	261.488	182.763	295.924	328.848	182.617	187.590	272.173	359.283	187.158	190.960	190.754	196.592	297.427	195.401	-8191	255	
20937.357	1	1	0	0	0.1069	0.12153	0.10003	0.38039	0.15616	0.10113	0.021412	0.094288	0.24516	0.33115	0.17327	0.18723	0.022441	0.056863	0.19995	0.19609	-2.3146	-2.1562	-2.6729	-2.8063	-2.4021	-2.9708	-2.7	-2.6854	-2.775	-2.4708	-2.7833	-2.6562	-2.4792	-2.8396	-2.5771	-2.7833	483.294	219.759	394.056	499.028	380.903	349.447	520.525	465.512	318.416	296.011	406.791	520.506	291.766	466.867	210.916	416.264	0.000824	0.00055779	0.00010889	1270.3	4.5479e-06	5.6667e-06	1281.4	348.48	4.9875e-06	4.4376e-06	402.08	140.67	122.18	43.025	5.3509e-06	53.026	0.00035995	0.00028114	7.7821e-05	1288.6	3.0244e-06	2.9756e-06	1303.4	355.09	3.0854e-06	2.9955e-06	407.87	143.29	123.81	44.04	3.1543e-06	54.498	518.281	261.035	256.188	182.883	317.609	312.320	182.514	187.588	285.729	317.179	187.291	190.564	190.640	196.130	286.889	195.471	-8191	255	
20937.453	1	1	0	0	0.21009	0.11447	0.0918	0.22972	0.17018	0.29093	0.14195	0.27066	0.21629	0.31618	0.032491	0.14781	0.14659	0.10572	0.23227	0.28493	-2.375	-2.4542	-2.6729	-2.8229	-2.3708	-2.9	-2.6125	-2.6021	-2.7979	-2.3479	-2.7687	-2.8979	-2.4583	-2.7104	-2.6542	-2.4833	368.367	250.002	359.644	468.495	314.878	301.056	449.679	170.708	503.396	283.989	348.887	351.057	526.191	327.880	333.939	439.911	0.00084105	0.00038292	9.8589e-05	1273.9	3.7635e-06	6.8465e-06	1284.1	347.52	4.449e-06	4.359e-06	400.53	140.08	122.4	43.15	5.4543e-06	53.117	0.0003632	0.00028282	7.7242e-05	1289.9	3.1799e-06	3.0388e-06	1305.9	354.76	3.1923e-06	3.0544e-06	409.03	143.28	123.65	44.197	3.1798e-06	54.517	515.099	268.936	263.830	182.880	304.181	323.891	182.656	187.360	295.370	315.918	187.033	190.813	190.700	196.232	302.011	195.504	-8191	255	
20937.574	1	1	0	0	0.1549	0.32031	0.087492	0.25074	0.3137	0.11772	0.14012	0.21067	0.21612	0.19876	0.262	0.17487	0.19836	0.19539	0.0749	0.16914	-2.2062	-2.4792	-2.6542	-2.7542	-2.5083	-2.7521	-2.7396	-2.7021	-2.8208	-2.6292	-2.9104	-2.875	-2.3937	-2.7062	-2.5375	-2.5438	192.252	390.879	417.125	492.547	310.321	522.128	507.997	467.849	417.566	351.059	503.624	443.214	440.756	212.135	265.565	186.789	0.00076994	0.00039304	0.00015818	1272.9	6.1491e-06	6.7086e-06	1287.3	348.53	5.2414e-06	4.5896e-06	400.63	140.71	121.92	42.937	4.744e-06	53.176	0.00035193	0.00027285	7.6135e-05	1290.4	3.1122e-06	3.0324e-06	1304.2	354.86	3.1829e-06	3.0728e-06	408.98	143.17	123.76	44.072	3.1514e-06	54.52	517.530	250.242	273.304	182.831	318.063	349.081	182.526	187.509	275.760	303.998	187.144	190.797	190.691	196.100	316.382	195.417	-8191	255	
20937.670	1	1	0	0	0.2057	0.10656	0.14232	0.33573	0.23849	0.16352	0.068433	0.29441	0.21805	0.13538	0.073729	0.090031	0.26982	0.28788	0.14482	0.25242	-2.4042	-2.4104	-2.4208	-2.8354	-2.3167	-2.7438	-2.6521	-2.5396	-2.7833	-2.5312	-2.4562	-2.7604	-2.5083	-2.5792	-2.5875	-2.5271	170.129	427.381	436.945	456.125	289.536	464.446	425.165	459.749	489.791	363.047	263.448	523.525	432.260	196.774	427.682	212.177	0.00085289	0.0004631	0.00013984	1270.9	4.6266e-06	5.9621e-06	1285.2	349.47	5.9855e-06	4.5044e-06	400.6	140.62	121.89	43.227	5.2301e-06	53.085	0.00036878	0.00028097	7.6396e-05	1289.5	3.0794e-06	3.0134e-06	1308	355.32	3.1476e-06	3.0188e-06	408.43	143.39	123.95	44.235	3.1724e-06	54.528	517.261	272.832	262.595	182.922	319.057	295.519	182.651	187.235	294.319	323.501	186.991	190.924	191.047	196.431	324.378	195.635	-8191	255	
20937.742	1	1	0	0	0.21542	0.065776	0.12999	0.20743	0.082408	0.20141	0.16012	0.21644	0.18712	0.041188	0.031549	0.33683	0.20287	0.03779	0.27542	0.20875	-2.2229	-2.2271	-2.4479	-2.9625	-2.5375	-2.5021	-2.7125	-2.4562	-2.7333	-2.5062	-2.5312	-2.9542	-2.2958	-2.7062	-2.7104	-2.4708	471.643	447.394	254.497	322.547	499.967	439.174	396.534	454.033	265.031	472.675	225.889	501.375	210.234	197.461	523.637	436.269	0.0008611	0.00043531	0.00012057	1277.3	5.4602e-06	4.3966e-06	1291	348.89	5.3314e-06	4.9925e-06	402.07	141.07	122.15	43.301	4.279e-06	53.277	0.00037097	0.00027552	7.6724e-05	1293.5	3.1685e-06	2.9235e-06	1309.1	355.1	3.1645e-06	3.0534e-06	408.48	143.61	124.09	44.294	3.1469e-06	54.74	514.969	266.115	263.658	182.858	312.707	303.089	182.632	187.400	303.439	303.652	186.745	190.664	190.822	196.359	253.735	195.443	-8191	255	
20937.859	1	1	0	0	0.12672	0.23845	0.035961	0.27927	0.11083	0.36614	0.33727	0.21487	0.14855	0.067956	0.17204	0.44086	0.18934	0.21897	0.22221	0.20635	-2.1188	-2.4917	-2.425	-2.8958	-2.3979	-2.6188	-2.9229	-2.5417	-2.6125	-2.7938	-2.6521	-2.8646	-2.5458	-2.6458	-2.7562	-2.5438	429.332	406.751	456.294	514.114	276.942	355.944	497.335	478.196	228.784	311.783	502.202	179.919	264.331	184.914	380.353	266.180	0.00082803	0.00052017	0.00021865	1276.4	4.0096e-06	2.8445e-06	1289.8	349.32	7.3421e-06	3.9373e-06	400.5	141.04	122.34	43.177	4.0173e-06	53.089	0.00036986	0.00028855	7.8623e-05	1292.4	3.1961e-06	2.9383e-06	1308.9	355.61	3.2042e-06	3.1379e-06	408.81	143.66	124.26	44.242	3.1098e-06	54.68	516.549	239.183	243.613	182.875	295.525	315.456	182.463	187.574	283.625	295.066	186.931	190.723	190.602	196.337	303.763	195.473	-8191	255	
20937.957	1	1	0	0	0.28654	0.14288	0.15261	0.30842	0.16807	0.033481	0.23061	0.16034	0.16212	0.21679	0.16386	0.26247	0.099421	0.031041	0.17006	0.14734	-2.1875	-2.6521	-2.4333	-2.9583	-2.4958	-2.5854	-3.0479	-2.5	-2.7812	-2.5604	-2.6396	-2.8688	-2.5896	-2.6042	-2.9313	-2.4271	209.602	278.976	361.640	490.697	299.679	529.513	458.729	471.510	519.235	218.156	360.762	478.984	340.135	473.187	190.431	399.516	0.00081	0.00048983	0.00012967	1276.8	4.5876e-06	5.3635e-06	1287.8	349.13	4.5549e-06	4.5483e-06	402.63	141.16	122.54	43.098	3.2844e-06	52.928	0.00036548	0.00028145	7.7854e-05	1292.4	3.1805e-06	3.0228e-06	1308.9	355.24	3.1815e-06	2.9762e-06	409.65	143.81	124.04	44.197	3.139e-06	54.575	517.612	270.171	266.779	182.793	295.805	299.170	182.517	187.525	287.630	309.898	186.820	190.797	190.878	196.329	310.701	195.466	-8191	255	
20938.053	1	1	0	0	0.38608	0.11931	0.25889	0.22735	0.25957	0.30679	0.15572	0.17049	0.19494	0.056058	0.24866	0.33846	0.14603	0.25178	0.12082	0.10273	-2.1375	-2.7812	-2.3688	-2.8812	-2.4979	-2.5438	-3.0292	-2.6875	-2.4	-2.7812	-2.5812	-2.8042	-2.6417	-2.5021	-2.7396	-2.5646	267.235	381.669	365.236	402.176	468.495	424.175	501.710	506.505	174.652	527.083	360.198	209.880	503.580	459.033	250.067	218.526	0.00082222	0.00046449	0.00010646	1272	4.6901e-06	2.6805e-06	1289.4	349.41	6.617e-06	2.8842e-06	402.8	141.1	123.53	43.325	5.9117e-06	53.383	0.00036852	0.00027225	7.6852e-05	1293	3.0917e-06	3.0038e-06	1309.8	355.65	3.1754e-06	3.0438e-06	409.46	144.29	124.62	44.426	3.1196e-06	54.852	514.572	271.046	242.088	182.904	302.101	320.884	182.744	187.237	282.981	315.248	186.714	190.688	190.527	196.210	292.984	195.597	-8191	255	
20938.148	1	1	0	0	0.16746	0.073591	0.18611	0.20819	0.16627	0.10542	0.30432	0.093568	0.16294	0.13526	0.41869	0.058814	0.3978	0.13197	0.13006	0.15448	-2.1604	-2.6875	-2.6312	-2.8104	-2.6667	-2.5021	-2.8521	-2.6208	-2.4688	-2.6937	-2.6042	-2.7771	-2.8583	-2.4083	-2.7521	-2.7042	454.848	468.074	402.607	424.360	197.051	185.709	439.470	200.258	225.259	382.954	493.516	400.929	503.894	227.624	222.766	456.622	0.00082874	0.00033099	0.0001537	1279.6	5.4638e-06	5.1994e-06	1288.3	351.5	4.5237e-06	5.2122e-06	402.19	141.43	122.04	43.192	4.8832e-06	53.172	0.00036298	0.00027791	7.7237e-05	1295.9	3.068e-06	3.0072e-06	1312.1	356.76	3.2524e-06	3.0002e-06	409.19	144.21	124.31	44.263	3.1794e-06	54.698	516.987	277.299	243.948	183.025	297.610	315.425	182.544	187.347	272.941	325.129	186.989	190.534	190.596	196.325	292.233	195.342	-8191	255	
20938.270	1	1	0	0	0.23356	0.050222	0.11118	0.22837	0.16661	0.11152	0.38871	0.16903	0.31221	0.093302	0.24479	0.38681	0.10931	0.27903	0.16104	0.23918	-2.1375	-2.6229	-2.4667	-2.7938	-2.4229	-2.3458	-2.9583	-2.6625	-2.3812	-2.775	-2.5833	-2.8729	-2.5104	-2.5062	-2.7479	-2.7479	425.811	253.223	187.794	482.066	398.258	310.424	472.639	205.482	485.295	253.418	312.294	435.904	222.599	311.855	458.939	503.128	0.00078354	0.00031874	0.00017883	1282.6	5.2914e-06	3.2928e-06	1291.9	351.12	4.019e-06	3.7505e-06	403.46	141.61	122.98	43.256	4.9098e-06	53.358	0.00036555	0.00028533	8.0551e-05	1299.8	3.3339e-06	3.1321e-06	1314.8	356.65	3.335e-06	3.2416e-06	410	144.09	124.51	44.332	3.2932e-06	54.776	515.718	278.203	259.037	182.657	282.304	311.092	182.616	187.243	296.970	317.921	187.187	190.643	190.645	196.449	282.998	195.410	-8191	255	
20938.342	1	1	0	0	0.21798	0.087204	0.20713	0.22396	0.14814	0.10473	0.28802	0.17159	0.15482	0.063873	0.14392	0.094823	0.14244	0.23766	0.15246	0.26254	-1.9208	-2.7333	-2.4896	-2.6792	-2.6583	-2.6333	-3.0042	-2.6708	-2.4958	-2.8438	-2.6771	-2.6625	-2.7417	-2.5354	-2.6917	-2.5438	179.432	421.627	496.168	177.603	411.020	285.421	483.473	421.528	178.435	393.374	204.575	296.565	299.367	220.678	359.788	390.627	0.00079892	0.00025421	0.00017865	1284	4.5107e-06	4.7524e-06	1293.8	351.41	7.1925e-06	2.15e-06	401.19	140.7	123.38	43.242	3.9838e-06	53.36	0.00037072	0.00028979	8.1772e-05	1301.4	3.2613e-06	3.1366e-06	1317.6	356.94	3.3898e-06	3.2495e-06	409.44	144.1	124.48	44.281	3.3774e-06	54.74	517.586	265.595	270.708	182.952	292.497	349.913	182.630	187.457	287.793	325.050	186.989	190.776	190.859	196.343	325.376	195.245	-8191	255	
20938.438	1	1	0	0	0.34258	0.037316	0.20566	0.295	0.23198	0.11069	0.34578	0.22106	0.058431	0.15658	0.25493	0.25682	0.31436	0.26148	0.12752	0.37736	-2.0667	-2.7458	-2.4396	-2.8792	-2.8688	-2.5438	-3.0771	-2.7188	-2.3542	-2.8875	-2.6417	-2.6458	-2.85	-2.6375	-2.7333	-2.775	272.929	313.027	455.144	522.274	463.868	290.027	491.154	440.196	497.220	298.602	490.688	419.186	499.508	526.396	421.502	444.161	0.00084029	0.00055265	0.0002127	1284.4	2.8754e-06	3.882e-06	1295.9	350.7	4.4086e-06	3.9728e-06	404.77	141.94	122.98	43.126	5.1369e-06	53.591	0.000381	0.00030463	8.4055e-05	1301.5	3.3531e-06	3.2683e-06	1317.4	356.75	3.3667e-06	3.2239e-06	411.19	144.27	124.73	44.279	3.2702e-06	54.888	514.718	264.098	257.449	182.919	305.638	310.685	182.509	187.383	275.611	330.238	186.929	190.926	190.675	196.386	299.503	195.350	-8191	255	
20938.533	1	1	0	0	0.061084	0.34805	0.33916	0.19819	0.020786	0.34057	0.041068	0.16114	0.1234	0.12211	0.13335	0.09407	0.22135	0.1086	0.15522	0.047717	-1.9604	-2.5812	-2.1979	-2.5979	-2.9458	-2.4292	-2.9125	-2.75	-2.5083	-2.7042	-2.7917	-2.5812	-2.7833	-2.7458	-2.6583	-2.9292	289.916	524.913	479.043	497.878	304.535	210.079	184.942	187.285	470.812	340.565	238.361	481.601	395.273	188.317	413.657	379.786	0.00079526	0.00078306	0.00016383	1284.2	6.5038e-06	4.5926e-06	1299.2	350.79	4.5117e-06	3.1837e-06	404.87	142.06	122.82	43.416	4.4219e-06	53.337	0.00037505	0.00029144	8.0091e-05	1300.8	3.1995e-06	3.1314e-06	1317.5	357.33	3.2271e-06	3.0961e-06	410.64	144.56	124.85	44.497	3.2384e-06	54.932	514.422	261.135	266.363	183.057	296.412	324.804	182.630	187.459	267.167	306.421	186.910	190.618	190.697	196.471	291.948	195.380	-8191	255	
20938.654	1	1	0	0	0.043137	0.28807	0.25839	0.32241	0.1911	0.1708	0.14895	0.38421	0.061177	0.29216	0.1651	0.1168	0.041212	0.1248	0.092649	0.2224	-1.9896	-2.6688	-2.5438	-2.4688	-2.7146	-2.7146	-2.7313	-2.6437	-2.6604	-2.675	-2.8604	-2.4979	-3.0021	-2.6667	-2.5854	-2.8229	351.262	447.795	192.759	416.522	229.864	457.810	326.613	492.228	188.715	258.241	318.985	409.662	482.471	506.129	359.512	460.613	0.00085449	0.00062912	0.00014758	1285.3	5.0077e-06	5.6247e-06	1292.9	350.65	6.027e-06	3.6304e-06	403.75	142.86	123.7	43.684	4.1829e-06	53.781	0.00036902	0.00028672	7.5789e-05	1303.5	3.2039e-06	3.0219e-06	1316.7	357.43	3.1903e-06	3.0385e-06	411.42	145.01	125.24	44.662	3.1198e-06	55.11	514.816	269.970	250.921	182.919	266.478	327.379	182.614	187.421	300.374	288.459	187.051	190.906	191.014	196.238	295.206	195.498	-8191	255	
20938.750	1	1	0	0	0.23499	0.1713	0.23332	0.26245	0.10034	0.30033	0.2224	0.40681	0.14147	0.28398	0.28996	0.16053	0.1846	0.31264	0.18519	0.047803	-2.2167	-2.7167	-2.6771	-2.8	-2.8417	-2.55	-2.8646	-2.825	-2.4896	-2.6896	-2.5812	-2.5333	-2.8167	-2.7375	-2.6188	-2.9792	427.307	217.667	384.266	511.017	337.582	316.662	477.931	440.820	198.520	312.693	338.904	474.168	171.790	508.542	262.518	463.236	0.00086883	0.00041933	0.00017355	1289.2	5.1323e-06	5.6004e-06	1297.9	353.07	5.3144e-06	4.7075e-06	405.15	142.58	123.25	43.501	3.7248e-06	53.471	0.00036773	0.00027808	7.6947e-05	1304.5	3.1402e-06	3.0516e-06	1320.6	358.1	3.1874e-06	3.05e-06	411.8	145.08	124.96	44.554	3.0414e-06	55.076	518.283	263.260	250.729	182.884	307.850	326.389	182.671	187.468	270.247	326.982	187.059	190.740	190.696	196.123	297.047	195.605	-8191	255	
20938.846	1	1	0	0	0.24841	0.11731	0.16519	0.45833	0.30453	0.20012	0.39531	0.13911	0.15662	0.17922	0.19291	0.22635	0.1975	0.18044	0.18726	0.18795	-2.1208	-2.8063	-2.7562	-2.6063	-2.8583	-2.6688	-2.7979	-3.0563	-2.4417	-2.4417	-2.7646	-2.7167	-2.9062	-2.7625	-2.4917	-2.9958	424.395	290.996	175.555	173.681	495.012	336.810	490.020	176.879	490.944	223.029	464.991	477.377	522.223	495.461	266.001	461.615	0.00085706	0.00049334	0.00017366	1289.2	4.4928e-06	5.1075e-06	1297.4	352	5.5612e-06	5.191e-06	405.51	142.56	124.5	43.572	5.3478e-06	53.555	0.00036919	0.00028275	7.378e-05	1305.3	3.1801e-06	3.0063e-06	1319.5	357.96	3.1947e-06	3.0122e-06	411.22	145.15	125.51	44.666	3.0257e-06	55.083	517.008	250.646	269.990	182.918	305.731	314.397	182.503	187.300	290.029	302.123	187.021	190.685	190.901	196.176	278.924	195.407	-8191	255	
20938.943	1	1	0	0	0.15033	0.21396	0.19273	0.15843	0.14744	0.24514	0.15558	0.099453	0.059516	0.090539	0.18252	0.22326	0.1144	0.008411	0.27852	0.2987	-2.0917	-2.5417	-2.7854	-2.675	-2.75	-2.5438	-2.6583	-3.0479	-2.4417	-2.6	-2.8167	-2.4646	-2.6375	-2.95	-2.5271	-2.9062	313.579	257.427	283.408	197.202	279.369	446.270	455.529	446.249	207.386	435.855	342.291	476.182	255.598	244.858	312.394	461.968	0.00085233	0.00046348	0.00016886	1287.4	4.7145e-06	4.7354e-06	1298.2	352.83	4.6987e-06	3.3103e-06	404.39	142.6	122.99	43.541	4.6647e-06	54.023	0.00036291	0.0002833	7.6501e-05	1303.4	3.0789e-06	2.8887e-06	1319.4	358.36	3.0935e-06	3.0129e-06	411.61	145.01	124.89	44.599	3.0261e-06	55.299	518.396	252.547	269.214	182.960	292.767	327.907	182.702	187.466	306.436	323.235	187.050	190.750	190.718	196.305	313.954	195.501	-8191	255	
20939.037	1	1	0	0	0.1915	0.11419	0.14002	0.1646	0.16809	0.12304	0.34269	0.24404	0.27738	0.11835	0.14805	0.25126	0.18335	0.31469	0.13242	0.33959	-2.1188	-2.3312	-2.7646	-2.625	-2.7396	-2.6771	-2.6312	-2.9188	-2.4271	-2.55	-2.9958	-2.6312	-2.7854	-2.7521	-2.4583	-2.7604	281.274	173.411	186.038	175.023	412.568	256.219	471.082	203.247	195.073	363.712	527.728	191.651	220.655	235.388	351.196	417.142	0.00085763	0.00046195	0.00013255	1284.3	6.2519e-06	3.4188e-06	1293.4	351.92	5.8393e-06	4.0207e-06	405.01	142.44	123.64	43.677	4.8469e-06	53.615	0.00036646	0.00027266	7.4715e-05	1302.5	3.1407e-06	2.978e-06	1318	357.99	3.1708e-06	3.0216e-06	412.14	145.13	125.37	44.608	3.0883e-06	55.099	516.690	279.380	248.645	182.971	303.885	267.621	182.653	187.693	276.977	316.576	186.990	190.657	190.809	196.172	295.311	195.456	-8191	255	
20939.135	1	1	0	0	0.17561	0.24764	0.41112	0.34521	0.24966	0.094927	0.25536	0.086851	0.22049	0.23971	0.19585	0.32814	0.33138	0.16509	0.24137	0.30732	-1.9958	-2.3833	-2.7	-2.2896	-2.6958	-2.6542	-2.4958	-2.875	-2.4646	-2.5542	-2.9542	-2.4667	-2.6604	-2.7625	-2.4792	-2.7396	275.771	358.842	419.646	465.513	207.256	319.638	401.689	217.831	391.005	415.073	460.480	512.772	470.568	213.723	437.250	439.343	0.00081098	0.00059891	0.00013548	1289.3	4.6564e-06	5.2419e-06	1302	351.81	5.2978e-06	4.1574e-06	406.11	142.71	123.9	43.51	5.1412e-06	53.696	0.00036355	0.00027567	7.6197e-05	1305.3	3.1275e-06	2.9997e-06	1319.6	358.19	3.1313e-06	2.9818e-06	412.59	145.38	125.33	44.688	3.0421e-06	55.14	520.117	264.069	218.243	182.743	317.162	320.422	182.431	187.456	281.379	329.670	187.033	190.820	190.761	196.292	278.268	195.389	-8191	255	
20939.254	1	1	0	0	0.090905	0.293	0.20316	0.35847	0.21149	0.23107	0.25601	0.28328	0.14746	0.094924	0.33332	0.23703	0.097015	0.15379	0.19321	0.46118	-2.1437	-2.4	-2.7021	-2.6583	-2.6937	-2.8083	-2.8312	-2.9479	-2.7062	-2.4646	-2.9167	-2.525	-2.6792	-2.8646	-2.3292	-2.7	457.407	391.606	325.833	453.665	307.417	521.116	474.013	195.388	381.232	300.587	478.485	482.948	227.341	468.611	260.989	347.427	0.0008219	0.00041818	9.0281e-05	1286.8	4.2211e-06	4.2863e-06	1299.3	352.73	5.815e-06	2.1896e-06	403.98	142.24	124.79	43.549	5.6148e-06	53.681	0.0003581	0.00027266	7.5485e-05	1304.3	3.0758e-06	2.9199e-06	1320.2	358.82	3.1342e-06	2.9267e-06	411.36	145.37	125.81	44.682	3.0777e-06	55.288	515.580	290.638	285.645	183.052	295.501	296.656	182.656	187.567	291.387	314.932	186.947	190.602	190.684	196.376	295.592	195.293	-8191	255	
20939.350	1	1	0	0	0.12949	0.2568	0.15434	0.23646	0.14897	0.14587	0.1796	0.25124	0.17213	0.21198	0.22367	0.34802	0.12196	0.22943	0.061537	0.13464	-2.0833	-2.4292	-2.6875	-2.6875	-2.5938	-2.7625	-2.6083	-2.6104	-2.6354	-2.5917	-2.9188	-2.6437	-2.4104	-2.8542	-2.4562	-2.65	439.081	475.764	257.846	463.063	322.508	339.324	468.388	453.187	514.801	402.234	466.327	523.965	353.532	219.012	220.230	212.412	0.0008483	0.00053532	0.00015561	1287.7	5.8668e-06	5.2038e-06	1299.1	352.07	3.9147e-06	2.2941e-06	404.74	142.71	123.87	43.617	3.5035e-06	53.639	0.00036837	0.00028051	7.4355e-05	1305.2	3.0349e-06	3.0112e-06	1320.2	358.25	3.0958e-06	2.9943e-06	411.9	145.32	125.49	44.693	3.1043e-06	55.151	519.594	261.271	282.025	182.890	310.069	330.399	182.343	187.542	279.295	320.299	186.834	190.542	190.817	196.263	287.240	195.408	-8191	255	
20939.445	1	1	0	0	0.2013	0.018637	0.26637	0.32258	0.13365	0.1392	0.054775	0.10505	0.14012	0.09075	0.2346	0.053669	0.11821	0.13435	0.24674	0.13975	-2.1729	-2.3521	-2.5771	-2.7354	-2.4688	-2.8063	-2.6562	-2.7812	-2.6417	-2.5083	-2.8104	-2.6312	-2.5458	-2.9042	-2.4396	-2.4208	525.923	229.057	182.442	473.552	474.441	503.194	415.881	355.300	419.359	286.284	508.577	172.635	516.337	394.934	442.566	474.207	0.00081207	0.00035394	0.00010003	1287.7	5.7618e-06	5.9763e-06	1300.8	353.19	6.1669e-06	3.5342e-06	404.64	142.31	123.43	43.676	5.6147e-06	53.629	0.00036066	0.00027649	7.5504e-05	1305.4	3.1108e-06	2.9171e-06	1319.7	358.55	3.188e-06	3.0046e-06	412	145.15	125.11	44.754	3.0848e-06	55.128	515.224	257.999	275.027	183.004	305.656	314.230	182.619	187.527	298.757	301.018	187.002	190.520	190.535	196.355	307.774	195.498	-8191	255	
20939.566	1	1	0	0	0.12216	0.20441	0.20982	0.26444	0.082324	0.24261	0.17038	0.35446	0.29019	0.095041	0.2299	0.14636	0.19247	0.30198	0.10434	0.13525	-2.1312	-2.3979	-2.5312	-2.5729	-2.3271	-2.6437	-2.8312	-2.6667	-2.7292	-2.5333	-2.7062	-2.7729	-2.5271	-2.7792	-2.4354	-2.6729	295.742	195.645	406.953	392.990	244.232	388.502	426.697	491.511	215.875	480.015	501.076	379.365	223.086	507.452	288.183	415.899	0.00087004	0.00055595	0.0001193	1288.8	5.0509e-06	2.4133e-06	1299.9	352.26	5.2227e-06	4.7472e-06	403.53	142.05	123.09	43.612	2.7774e-06	53.323	0.00036715	0.0002795	7.6885e-05	1305.1	3.1485e-06	3.0044e-06	1318.8	358.46	3.1445e-06	2.932e-06	411.32	144.88	125.11	44.557	3.1484e-06	54.893	516.553	261.732	266.710	182.829	300.082	309.977	182.590	187.467	281.073	327.916	187.004	190.777	190.795	196.360	307.391	195.616	-8191	255	
20939.639	1	1	0	0	0.056735	0.22418	0.017244	0.15664	0.21116	0.088653	0.23597	0.3482	0.12044	0.22155	0.091798	0.059967	0.069398	0.19395	0.15324	0.35043	-2.1646	-2.2208	-2.5812	-2.7	-2.3083	-2.7396	-2.6562	-2.2833	-2.8354	-2.5563	-2.725	-2.8312	-2.4062	-2.8667	-2.5917	-2.4792	302.970	292.087	285.724	319.393	478.991	401.421	442.746	213.226	459.451	491.363	196.534	438.564	252.207	514.267	408.031	477.302	0.00083392	0.00036638	9.9414e-05	1282.1	4.5215e-06	6.5674e-06	1292	349.77	4.6595e-06	5.3647e-06	404.07	141.43	123.23	43.42	4.4084e-06	53.205	0.00036591	0.00027595	7.774e-05	1300.8	3.1779e-06	2.9675e-06	1314.4	356.64	3.098e-06	2.9817e-06	410.3	144.43	124.67	44.448	3.0218e-06	54.881	517.675	287.399	260.180	182.943	310.232	306.648	182.585	187.455	267.299	287.326	186.967	190.578	190.603	196.297	308.802	195.441	-8191	255	
20939.734	1	1	0	0	0.26827	0.10592	0.1684	0.054155	0.11057	0.23729	0.032367	0.12931	0.23233	0.12997	0.092139	0.087309	0.093057	0.19564	0.070493	0.23864	-2.3187	-2.5896	-2.5021	-2.825	-2.3063	-2.6854	-2.7313	-2.6271	-2.8333	-2.5458	-2.6854	-2.6521	-2.4833	-2.65	-2.6479	-2.5646	210.543	325.261	509.899	442.495	374.809	362.733	191.237	175.539	224.686	516.236	283.210	516.167	384.068	479.281	463.531	520.664	0.00079535	0.00051026	0.00018086	1280.9	5.3505e-06	3.0093e-06	1293.7	349.78	5.4419e-06	3.0255e-06	401.63	141.45	123.16	43.447	3.4276e-06	53.621	0.00036111	0.0002709	7.5841e-05	1298.6	3.1411e-06	3.0119e-06	1314.1	356.47	3.1377e-06	3.0936e-06	409.41	144.34	124.72	44.409	3.0665e-06	54.996	515.351	268.443	256.140	182.983	321.048	335.835	182.643	187.658	286.343	315.463	187.049	190.800	190.983	196.309	301.263	195.508	-8191	255	
20939.830	1	1	0	0	0.15693	0.10166	0.1771	0.31456	0.30086	0.21492	0.061017	0.097806	0.18486	0.097595	0.13738	0.27803	0.18192	0.064571	0.10356	0.17834	-2.2875	-2.2875	-2.5292	-2.8604	-2.5292	-2.8229	-2.7521	-2.5708	-2.8063	-2.5375	-2.7792	-2.9437	-2.6792	-2.9333	-2.5979	-2.5104	495.157	271.468	296.643	488.574	436.718	436.631	491.933	423.614	423.641	242.777	368.228	477.025	471.682	189.339	211.761	441.466	0.00081316	0.00040138	5.5821e-05	1282.3	5.9926e-06	5.2172e-06	1289.6	350.4	6.8572e-06	4.5473e-06	402.49	141.32	123.14	43.273	5.2631e-06	53.326	0.0003596	0.00027345	7.3595e-05	1298.5	2.9883e-06	2.8477e-06	1310.5	356.64	3.013e-06	2.9697e-06	409.99	144.34	124.84	44.4	2.9814e-06	54.92	516.482	288.964	315.282	182.962	309.198	323.808	182.645	187.394	280.707	326.450	187.075	190.931	190.471	196.178	295.703	195.490	-8191	255	
20939.949	1	1	0	0	0.18152	0.23707	0.10233	0.12754	0.14239	0.089966	0.042591	0.26337	0.23206	0.19984	0.13383	0.39996	0.032083	0.15022	0.09571	0.23197	-2.4708	-2.5167	-2.6896	-3.0875	-2.4208	-2.7188	-2.7354	-2.4313	-2.8146	-2.6083	-2.6813	-2.9479	-2.5833	-2.4542	-2.8937	-2.55	438.098	223.337	514.708	206.236	327.255	355.276	443.561	485.840	397.520	262.765	498.076	513.302	270.300	414.724	437.558	445.414	0.00084927	0.00035809	0.00012022	1287.1	5.4116e-06	3.9361e-06	1291.4	351.29	5.8651e-06	4.1056e-06	403.76	142.47	122.84	43.182	4.1814e-06	53.654	0.00036445	0.00027157	7.3865e-05	1301.3	3.1487e-06	2.9662e-06	1313.3	356.96	3.1772e-06	2.982e-06	410.44	144.97	124.89	44.503	2.9025e-06	55.176	518.504	263.188	273.976	182.951	298.755	321.326	182.586	187.555	261.398	323.583	186.701	190.859	190.875	196.387	306.151	195.454	-8191	255	
20940.047	1	1	0	0	0.18246	0.13611	0.16953	0.17358	0.28453	0.10875	0.32939	0.19195	0.27218	0.039084	0.1526	0.2874	0.18093	0.057673	0.24472	0.075809	-2.2042	-2.5812	-2.35	-2.8396	-2.2958	-2.5396	-3	-2.4188	-2.5979	-2.7417	-2.5375	-2.8625	-2.5062	-2.7229	-2.75	-2.6208	467.827	262.021	433.070	476.721	367.518	252.148	442.175	336.599	365.887	369.387	419.868	528.749	388.182	388.182	446.605	316.293	0.00086027	0.00044348	0.00011632	1283	5.0658e-06	5.4949e-06	1295	351.71	4.4308e-06	1.9717e-06	404.22	142.14	123.45	43.635	3.3958e-06	53.688	0.00036498	0.00027058	7.4317e-05	1300.7	3.0182e-06	2.909e-06	1315.8	357.15	3.0991e-06	2.9269e-06	410.26	144.69	125.09	44.505	2.9964e-06	55.109	515.819	252.601	273.602	182.973	307.558	326.145	182.629	187.357	280.617	346.796	186.912	190.637	190.970	196.379	313.181	195.424	-8191	255	
20940.143	1	1	0	0	0.28849	0.10461	0.084477	0.22589	0.071203	0.098434	0.25567	0.27368	0.12285	0.078601	0.12595	0.27807	0.073877	0.38028	0.18342	0.285	-2.2854	-2.575	-2.4271	-2.9458	-2.7375	-2.6833	-3.1	-2.5271	-2.5208	-2.65	-2.5146	-2.7229	-2.5625	-2.5917	-2.9104	-2.6833	505.415	323.539	430.020	499.797	458.878	455.290	170.544	481.980	408.604	523.451	403.941	487.119	304.834	199.566	309.159	523.945	0.00079525	0.00030682	8.8284e-05	1286	3.3953e-06	5.6018e-06	1290.4	350.57	6.4541e-06	3.3486e-06	402.87	142.4	123.26	43.507	6.3019e-06	53.412	0.00035607	0.00027186	7.577e-05	1300.5	3.0567e-06	2.9024e-06	1312.9	357.19	3.127e-06	2.8752e-06	410.08	144.93	124.91	44.53	2.9678e-06	54.981	515.749	263.978	245.625	183.088	295.198	312.455	182.476	187.378	284.910	326.542	186.783	190.917	190.745	196.416	296.057	195.653	-8191	255	
20940.215	1	1	0	0	0.15625	0.36557	0.16388	0.17785	0.29441	0.24849	0.404	0.28834	0.10846	0.13462	0.15111	0.15474	0.12505	0.079042	0.1747	0.14126	-2.0708	-2.5542	-2.4	-2.8021	-2.6188	-2.2167	-2.9437	-2.8104	-2.6458	-2.7333	-2.5125	-2.9167	-2.7271	-2.475	-2.8458	-2.6083	267.618	310.483	469.341	382.087	441.902	306.358	453.886	516.232	222.466	477.503	231.782	342.260	245.336	441.097	404.956	182.273	0.00087324	0.00044632	0.00014702	1283.3	8.7126e-06	5.974e-06	1295.3	352.22	6.5025e-06	5.0317e-06	404.78	142.18	123.63	43.661	4.2975e-06	53.666	0.00036778	0.00027795	7.4649e-05	1301.7	3.062e-06	2.9018e-06	1316.9	357.18	3.1115e-06	2.9318e-06	411	145.21	125.13	44.701	3.0517e-06	55.093	517.822	260.766	260.572	183.107	312.084	302.914	182.694	187.491	272.643	310.758	186.795	190.660	190.637	196.423	285.745	195.585	-8191	255	
20940.334	1	1	0	0	0.22623	0.16487	0.14258	0.34848	0.092482	0.28587	0.083592	0.2824	0.28923	0.13345	0.31006	0.24715	0.075256	0.0014772	0.19763	0.28582	-2.0312	-2.6771	-2.4521	-2.7792	-2.5125	-2.4708	-2.9188	-2.6833	-2.4521	-2.625	-2.5625	-2.8	-2.6229	-2.575	-2.7125	-2.6229	489.755	310.198	389.012	493.460	191.168	239.407	373.677	492.086	501.392	290.815	490.350	194.744	378.621	180.000	380.777	427.975	0.00081712	0.00039359	0.00018468	1282.2	5.8715e-06	4.7207e-06	1297.6	352.53	6.8586e-06	4.9512e-06	403.96	142.22	123.94	43.375	5.1042e-06	53.78	0.0003608	0.00027285	7.4644e-05	1301.8	3.0473e-06	3.0087e-06	1318.2	357.91	3.1066e-06	2.9275e-06	410.89	145.2	125.25	44.631	3.149e-06	55.131	514.653	273.544	263.306	182.961	318.926	309.307	182.569	187.476	285.795	317.133	186.969	190.701	190.697	196.279	289.168	195.495	-8191	255	
20940.430	1	1	0	0	0.29679	0.22841	0.1896	0.22794	0.097343	0.058894	0.30541	0.33678	0.22854	0.14178	0.30746	0.14525	0.17808	0.14367	0.27883	0.1079	-1.9604	-2.6417	-2.5104	-2.8083	-2.5687	-2.525	-2.775	-2.5625	-2.3125	-2.8854	-2.5604	-2.6875	-2.6417	-2.5896	-2.7958	-2.6458	402.011	440.991	408.995	462.992	451.768	366.680	495.267	180.538	179.784	331.284	483.965	428.674	452.311	183.019	316.728	185.071	0.00083353	0.00055204	0.00013647	1287.5	5.9843e-06	3.9577e-06	1296.7	352.25	5.2029e-06	2.8063e-06	405.68	142.66	123.86	43.735	4.6211e-06	53.958	0.00036853	0.00026666	7.5233e-05	1302.1	3.0531e-06	2.9961e-06	1317.9	357.53	3.0893e-06	2.9551e-06	411.56	145.18	125.55	44.737	3.0571e-06	55.292	515.699	267.561	236.826	182.912	294.321	306.779	182.885	187.440	277.197	323.784	186.728	190.485	190.798	196.445	310.216	195.535	-8191	255	
20940.525	1	1	0	0	0.039886	0.33041	0.33862	0.39423	0.24823	0.18185	0.27232	0.42147	0.15652	0.053575	0.32969	0.054996	0.077515	0.090528	0.22187	0.28258	-2.0542	-2.7313	-2.625	-2.6896	-2.8104	-2.4875	-3.0208	-2.6708	-2.5667	-2.6771	-2.6104	-2.6333	-2.8	-2.4208	-2.7625	-2.6063	188.166	256.245	327.586	505.623	214.173	194.361	501.479	468.283	492.423	526.462	474.416	403.470	480.045	251.340	334.697	207.384	0.00084518	0.00043631	0.0001425	1283.9	3.9463e-06	5.672e-06	1301.6	352.22	5.3399e-06	4.297e-06	405.63	142.5	123.41	43.731	3.8939e-06	53.657	0.00036561	0.00027439	7.5015e-05	1302.8	3.0761e-06	2.978e-06	1319.9	357.94	3.1622e-06	3.0273e-06	411.64	145.28	125.16	44.689	3.182e-06	55.098	515.303	270.256	270.575	182.963	282.507	308.668	182.364	187.448	282.447	289.800	186.806	190.656	190.568	196.265	299.990	195.358	-8191	255	
20940.646	1	1	0	0	0.34218	0.16711	0.099631	0.24324	0.20038	0.069847	0.20212	0.0382	0.14985	0.18761	0.086568	0.13311	0.15512	0.1168	0.20204	0.16191	-1.9062	-2.6875	-2.4125	-2.7604	-2.7229	-2.3812	-2.9	-2.6688	-2.5312	-2.8042	-2.5729	-2.675	-2.8688	-2.5396	-2.6417	-2.8	376.135	424.494	244.546	190.730	350.763	495.039	433.760	493.236	196.928	351.946	379.734	426.298	451.781	347.229	249.641	437.293	0.00082464	0.00046627	0.00011868	1285.4	6.1227e-06	4.2755e-06	1296.6	352.81	5.5057e-06	3.6121e-06	404.83	142	123.38	43.537	4.2109e-06	53.547	0.00035672	0.00027364	7.4777e-05	1301.9	3.04e-06	2.886e-06	1317.7	358.15	3.1333e-06	2.9184e-06	411.61	145.19	125.28	44.631	3.0921e-06	55.138	517.615	249.722	234.666	183.099	297.707	325.906	182.765	187.389	300.884	291.643	186.974	190.820	190.788	196.560	313.232	195.586	-8191	255	
20940.742	1	1	0	0	0.043457	0.20626	0.069561	0.25032	0.24802	0.067905	0.17523	0.21973	0.032446	0.19089	0.017434	0.16904	0.10537	0.14414	0.16792	0.070079	-1.875	-2.625	-2.5812	-2.6292	-2.8875	-2.7958	-2.8521	-2.7229	-2.3646	-2.6646	-2.5458	-2.6146	-2.7833	-2.6146	-2.6167	-2.8771	358.194	171.219	285.474	173.378	373.279	474.173	262.389	526.374	238.890	341.553	173.779	278.634	446.337	441.331	311.187	232.017	0.00082703	0.00046493	9.7471e-05	1289.2	5.8981e-06	5.7708e-06	1298.1	352.16	4.5638e-06	2.6987e-06	404	142.71	124.28	43.578	4.4755e-06	53.578	0.0003622	0.00027205	7.5513e-05	1304.9	3.1204e-06	2.9728e-06	1319	358	3.1382e-06	2.9379e-06	411.33	145.59	125.45	44.698	3.0294e-06	55.161	515.883	265.640	267.940	182.910	317.730	297.159	182.579	187.520	285.997	325.772	186.919	190.752	190.749	196.208	277.063	195.527	-8191	255	
20940.838	1	1	0	0	0.41139	0.14217	0.22492	0.46579	0.12919	0.19781	0.2326	0.094521	0.32028	0.11354	0.23171	0.19001	0.1103	0.082315	0.16149	0.20799	-1.9854	-2.675	-2.5917	-2.4917	-2.7833	-2.4562	-2.7917	-2.6083	-2.3104	-2.5667	-2.6437	-2.6208	-2.8583	-2.4833	-2.5042	-2.7792	190.405	173.121	214.928	466.338	249.914	259.204	493.369	280.754	324.349	411.474	464.374	515.460	201.657	472.954	415.708	515.724	0.00083645	0.0004366	9.9615e-05	1285.2	4.9437e-06	3.4048e-06	1301.8	352.07	5.9725e-06	2.4162e-06	403.45	142.99	122.73	43.525	6.6341e-06	53.909	0.00035421	0.00027109	7.396e-05	1303	3.1651e-06	2.8804e-06	1318.5	358.04	3.1202e-06	2.9614e-06	411.51	145.36	124.94	44.601	3.0578e-06	55.229	514.045	266.496	246.064	182.848	304.080	303.372	182.529	187.547	282.325	329.127	187.127	190.693	190.722	196.002	301.847	195.260	-8191	255	
20940.936	1	1	0	0	0.24919	0.36468	0.07578	0.067349	0.084785	0.1585	0.33021	0.1853	0.083736	0.22633	0.1105	0.19623	0.061851	0.036065	0.15716	0.21156	-1.8333	-2.6792	-2.5583	-2.5521	-2.5833	-2.55	-2.3667	-2.925	-2.5458	-2.6375	-2.6521	-2.7188	-2.6437	-2.6458	-2.4479	-2.9146	291.743	394.705	205.387	191.329	514.375	393.964	426.664	476.747	333.315	219.928	238.037	486.393	435.820	317.377	303.406	363.379	0.00079483	0.00061638	0.00012813	1285.7	4.9771e-06	2.1866e-06	1299.5	351.27	5.784e-06	3.8301e-06	404.67	142.51	123.78	43.569	4.6117e-06	53.74	0.00035764	0.00027822	7.2099e-05	1302.5	2.9852e-06	2.8606e-06	1318.6	357.64	3.0545e-06	2.929e-06	411.35	145.31	125.39	44.73	3.0325e-06	55.289	517.357	295.233	268.265	183.077	288.044	328.437	182.754	187.624	286.876	308.270	187.124	190.702	190.650	196.177	321.579	195.410	-8191	255	
20941.029	1	1	0	0	0.12189	0.24077	0.20883	0.34329	0.16291	0.091903	0.11119	0.31542	0.13669	0.32438	0.4182	0.1532	0.20905	0.18436	0.01505	0.18227	-1.9292	-2.5938	-2.4188	-2.4271	-2.7979	-2.5458	-2.6583	-2.7333	-2.5292	-2.5771	-2.7062	-2.5917	-2.7021	-2.5875	-2.4437	-2.85	348.846	458.923	417.147	488.544	182.569	448.850	463.516	443.069	480.963	510.559	514.891	529.041	523.986	519.675	369.891	435.771	0.00082227	0.00054677	0.00017744	1289.1	4.9093e-06	7.6285e-06	1297.9	351.62	6.384e-06	4.1518e-06	405.66	142.91	123.5	43.836	4.4108e-06	53.883	0.00034775	0.0002723	7.3096e-05	1306.4	3.0072e-06	2.8134e-06	1319.1	357.87	3.0073e-06	2.9392e-06	412.09	145.6	125.39	44.8	2.9478e-06	55.336	514.740	263.579	245.707	183.152	295.665	322.782	182.555	187.469	289.206	345.861	186.681	190.716	190.757	196.299	320.179	195.569	-8191	255	
20941.127	1	1	0	0	0.1677	0.17384	0.16169	0.20482	0.061573	0.093008	0.213	0.2464	0.11683	0.053384	0.2077	0.35988	0.13045	0.068837	0.18025	0.027721	-1.9958	-2.4854	-2.7229	-2.6167	-2.6937	-2.6146	-2.6271	-2.7313	-2.4313	-2.4146	-2.8479	-2.5396	-2.6792	-2.5625	-2.5604	-2.9021	320.391	392.347	198.192	493.422	438.713	464.626	449.910	479.970	391.821	524.910	494.094	470.285	522.524	340.230	244.992	419.979	0.00083112	0.00031281	0.00012636	1287.6	3.9031e-06	7.3871e-06	1299.5	352.06	6.077e-06	3.8436e-06	404.92	142.81	124.67	43.726	4.0637e-06	54.042	0.00035476	0.00027345	7.5057e-05	1304.4	3.0122e-06	2.9303e-06	1319.9	357.65	3.065e-06	2.9392e-06	411.89	145.55	125.59	44.803	2.9759e-06	55.41	517.447	311.077	255.931	183.032	282.599	337.608	182.614	187.294	276.639	334.366	186.803	190.528	190.805	196.203	306.373	195.515	-8191	255	
20941.246	1	1	0	0	0.19192	0.10516	0.10025	0.090866	0.22481	0.0094435	0.062254	0.12259	0.12869	0.061933	0.11899	0.33316	0.097718	0.23771	0.18339	0.067912	-1.9583	-2.5312	-2.675	-2.7125	-2.6146	-2.5417	-2.5521	-2.7958	-2.3146	-2.4979	-2.8625	-2.4437	-2.7229	-2.6833	-2.4042	-2.8896	205.174	296.142	242.770	476.251	298.192	435.915	289.052	423.595	376.467	333.903	434.960	461.817	480.627	509.202	344.415	349.707	0.00076589	0.00050199	0.00011739	1288.8	4.9618e-06	4.5609e-06	1297.1	352.36	5.4953e-06	6.9872e-06	404.27	142.86	123.89	43.834	3.5568e-06	53.771	0.00034838	0.0002621	7.0157e-05	1307.7	2.9879e-06	2.8554e-06	1320.6	358.24	2.9972e-06	2.9046e-06	411.99	145.71	125.59	44.808	2.8859e-06	55.339	516.736	276.355	256.230	182.965	289.240	328.980	182.598	187.133	286.164	301.833	186.963	190.651	190.857	196.272	294.655	195.667	-8191	255	
20941.344	1	1	0	0	0.18124	0.25613	0.28433	0.091292	0.26427	0.15228	0.22782	0.1641	0.18004	0.21314	0.31058	0.0921	0.040393	0.27844	0.028923	0.22152	-2.1833	-2.4604	-2.6917	-2.5542	-2.6521	-2.675	-2.5917	-2.7333	-2.7271	-2.3354	-2.6896	-2.6125	-2.5458	-2.8958	-2.3333	-2.6271	326.625	382.111	486.368	372.978	286.001	412.456	470.045	485.785	353.368	400.101	413.966	513.978	170.612	175.098	199.073	258.769	0.00080179	0.00027432	0.00011064	1287.6	5.9122e-06	4.9644e-06	1297.3	352.4	5.6474e-06	4.3447e-06	404.5	142.86	124.15	43.754	4.5475e-06	54.025	0.00035456	0.0002583	7.2626e-05	1305.6	3.0333e-06	2.8488e-06	1319.2	358.24	2.9629e-06	2.8968e-06	411.52	145.71	125.47	44.831	2.9322e-06	55.339	514.993	276.140	283.525	183.006	284.175	331.626	182.584	187.467	277.671	325.003	186.756	190.788	190.560	196.160	319.636	195.435	-8191	255	
20941.439	1	1	0	0	0.20241	0.11358	0.23024	0.18202	0.11722	0.26226	0.28701	0.091368	0.16009	0.17751	0.10981	0.25682	0.24496	0.094527	0.27991	0.20887	-2.2104	-2.4292	-2.6958	-2.65	-2.5	-2.8167	-2.5458	-2.9104	-2.6042	-2.2604	-2.6937	-2.6646	-2.4521	-2.7917	-2.2458	-2.6958	344.427	390.080	241.922	489.549	258.756	256.053	446.768	431.730	515.918	468.250	218.142	519.522	494.838	218.885	458.928	409.168	0.00088913	0.00037588	0.00014878	1291.7	5.5804e-06	6.7248e-06	1301.1	352.11	5.9032e-06	5.1832e-06	406.35	143.09	124.31	43.632	4.7179e-06	53.976	0.00035118	0.00025138	7.2346e-05	1306.9	2.9556e-06	2.8795e-06	1320.8	358.19	2.9777e-06	2.8464e-06	413.01	145.98	126.1	44.88	2.9375e-06	55.415	517.402	275.913	278.852	182.843	320.247	315.153	182.719	187.546	295.807	314.601	187.104	190.530	190.884	196.168	291.059	195.497	-8191	255	
20941.512	1	1	0	0	0.08912	0.15416	0.11584	0.24981	0.11481	0.10645	0.22131	0.23403	0.05813	0.20439	0.13583	0.018646	0.4216	0.27945	0.36137	0.003609	-2.2354	-2.4896	-2.6625	-2.5354	-2.45	-2.7958	-2.6458	-2.7188	-2.6896	-2.4	-2.9854	-2.6146	-2.7375	-2.8896	-2.3833	-2.7625	386.148	314.856	361.158	485.457	379.334	263.759	398.882	506.274	244.727	213.018	226.514	466.480	507.711	413.572	231.066	228.609	0.00084075	0.0004082	0.00010105	1291.9	4.6069e-06	3.8473e-06	1304.3	353.27	6.4737e-06	3.7197e-06	405.17	143.65	124.64	43.975	6.0077e-06	54.258	0.0003489	0.00025842	7.1615e-05	1307.8	2.993e-06	2.8067e-06	1323.2	359.02	3.0152e-06	2.8214e-06	411.95	146.17	126.18	44.937	2.9562e-06	55.578	516.366	273.785	277.822	182.930	313.779	303.517	182.794	187.503	287.181	353.127	187.095	190.694	190.801	196.155	300.604	195.582	-8191	255	
20941.607	1	1	0	0	0.12144	0.16561	0.27173	0.055602	0.25917	0.21061	0.1445	0.3999	0.045854	0.40296	0.092032	0.22086	0.11964	0.19758	0.21864	0.047441	-2.5042	-2.1354	-2.6458	-2.7229	-2.4417	-2.6708	-2.6208	-2.6521	-2.6458	-2.3521	-2.8312	-2.7458	-2.4437	-2.8187	-2.7292	-2.7479	399.991	483.796	300.317	435.235	290.168	359.604	488.120	517.525	185.816	402.475	488.537	445.192	442.796	463.642	510.162	503.095	0.000866	0.0005304	9.5091e-05	1293.9	3.7509e-06	5.0146e-06	1303.3	353.45	5.716e-06	5.4491e-06	406.02	143.52	124.12	43.868	2.502e-06	54.078	0.00035487	0.00026056	7.1292e-05	1309.5	2.9937e-06	2.8695e-06	1323.7	359.32	2.9301e-06	2.8697e-06	413.1	146.32	126.03	45.008	2.932e-06	55.513	515.353	262.224	254.932	182.893	292.603	316.572	182.625	187.583	289.715	314.836	186.835	190.732	190.515	195.888	310.575	195.550	-8191	255	
20941.727	1	1	0	0	0.11441	0.28069	0.18854	0.042779	0.17163	0.26657	0.09066	0.062057	0.083352	0.45775	0.12999	0.50162	0.15942	0.18277	0.14075	0.22106	-2.2438	-2.3688	-2.7938	-2.7729	-2.4938	-2.7583	-2.6271	-2.6729	-2.7	-2.5354	-2.8083	-2.7146	-2.3833	-2.8438	-2.3958	-2.6562	342.705	183.240	273.340	185.064	193.179	386.707	440.518	484.102	228.242	295.604	189.956	483.176	187.730	190.161	283.786	280.885	0.00084082	0.00053538	0.00015126	1291.3	5.6103e-06	4.8995e-06	1300.4	353.21	5.0604e-06	4.5637e-06	404.28	143.36	124.6	43.998	5.3841e-06	54.22	0.00035102	0.00026499	7.1914e-05	1308.1	3.0431e-06	2.8407e-06	1323.4	359.54	3.0128e-06	2.9078e-06	412.5	146.15	126.1	45.019	2.9534e-06	55.505	517.977	261.822	264.914	182.904	296.618	327.773	182.534	187.602	262.767	315.467	186.698	190.798	190.875	196.237	293.062	195.484	-8191	255	
20941.824	1	1	0	0	0.091287	0.14559	0.14429	0.091236	0.1665	0.24359	0.20326	0.026965	0.17841	0.13293	0.10156	0.022373	0.25088	0.44033	0.23411	0.19686	-2.2062	-2.3167	-2.5958	-2.6125	-2.0854	-2.7375	-2.8646	-2.6125	-2.6854	-2.6583	-2.5167	-2.8958	-2.2417	-2.7333	-2.5854	-2.5167	462.595	177.150	284.952	496.195	203.386	486.660	416.537	474.227	297.197	372.905	467.623	390.020	357.270	490.508	371.387	495.669	0.00083048	0.00060835	8.2326e-05	1287.9	4.8106e-06	6.2009e-06	1300.9	352.26	6.5483e-06	3.4856e-06	405.66	143.01	125.35	43.892	5.4623e-06	54.188	0.00034503	0.00026164	7.0774e-05	1307.9	2.991e-06	2.9186e-06	1323.4	358.71	3.0186e-06	2.9133e-06	412.97	146.1	126.39	45.009	2.9842e-06	55.537	516.503	260.891	263.320	183.082	303.810	341.995	182.655	187.496	287.920	300.200	187.168	190.795	190.648	196.344	288.997	195.510	-8191	255	
20941.920	1	1	0	0	0.092584	0.1083	0.15668	0.18279	0.20886	0.22079	0.3265	0.10722	0.038799	0.01326	0.034232	0.1661	0.24406	0.055376	0.050609	0.10524	-2.3458	-2.5625	-2.8229	-2.9688	-2.4771	-2.6875	-2.8208	-2.5312	-2.9354	-2.5875	-2.525	-2.8604	-2.3812	-2.8	-2.6229	-2.3771	528.730	253.412	386.705	181.457	211.080	258.055	455.628	508.511	499.649	370.184	204.437	458.125	345.824	196.965	371.329	435.025	0.00082407	0.00048477	9.7944e-05	1288.8	4.9897e-06	6.788e-06	1301.1	354.21	4.9277e-06	4.5478e-06	404.61	143.53	124.59	43.965	4.5093e-06	54.014	0.00034397	0.00025774	7.1007e-05	1307.2	2.9137e-06	2.7515e-06	1323.1	359.52	2.9761e-06	2.7899e-06	412.1	146.14	126.21	45.037	2.8656e-06	55.556	517.020	265.512	251.168	183.101	296.844	307.218	182.628	187.382	273.182	303.557	186.963	190.722	190.497	196.382	298.971	195.427	-8191	255	
20942.039	1	1	0	0	0.05869	0.17328	0.14329	0.19545	0.054593	0.17516	0.2136	0.32397	0.15632	0.23717	0.10736	0.1549	0.14029	0.21075	0.19075	0.038657	-2.2687	-2.5062	-2.2625	-2.9708	-2.3354	-2.6458	-3.0479	-2.5187	-2.8812	-2.5146	-2.6458	-2.7333	-2.4729	-2.6354	-2.6688	-2.6437	189.341	336.634	191.417	178.393	471.356	433.586	448.156	503.815	336.509	318.733	226.896	408.070	199.328	196.835	400.033	461.598	0.00083868	0.00022298	0.00012824	1290.7	3.0364e-06	4.1867e-06	1302.8	353.91	6.6205e-06	3.5253e-06	405.52	144.1	125.03	43.879	4.0174e-06	53.882	0.00035007	0.00025987	7.5874e-05	1308.8	3.0061e-06	2.836e-06	1323.4	359.68	2.918e-06	2.9154e-06	412.93	146.33	126.27	45.071	2.8449e-06	55.422	517.638	289.607	259.892	183.024	285.484	335.286	182.508	187.577	294.605	286.127	186.877	190.793	190.609	196.512	286.584	195.558	-8191	255	
20942.109	1	1	0	0	0.34552	0.31633	0.081674	0.21016	0.14484	0.14331	0.071672	0.071132	0.12864	0.12639	0.2361	0.29384	0.11917	0.1235	0.10987	0.14994	-2.2854	-2.3917	-2.5542	-2.8375	-2.65	-2.6646	-2.8563	-2.5771	-2.8375	-2.6375	-2.4208	-2.8521	-2.4417	-2.7229	-2.6854	-2.5854	248.685	376.489	499.075	420.502	362.105	502.886	273.776	187.358	328.916	402.201	519.479	524.696	223.507	482.617	288.096	422.823	0.00085069	0.00033304	0.00017345	1296.4	5.9021e-06	3.6907e-06	1303.3	352.5	4.3706e-06	3.784e-06	405.99	143.24	124.23	44.059	4.3218e-06	53.923	0.00035889	0.0002607	7.3709e-05	1309.4	2.9968e-06	2.8578e-06	1323.4	359.07	3.0475e-06	2.8576e-06	412.98	146.07	126.04	45.09	2.9419e-06	55.591	514.609	236.234	269.533	182.899	306.105	317.844	182.503	187.373	271.030	339.640	187.087	190.435	190.697	196.207	297.951	195.504	-8191	255	
20942.207	1	1	0	0	0.10608	0.07236	0.21694	0.31881	0.11708	0.10615	0.24699	0.309	0.26382	0.17576	0.16318	0.13626	0.1078	0.10019	0.2519	0.1376	-2.3042	-2.5229	-2.2708	-2.9042	-2.3333	-2.5208	-2.9146	-2.5958	-2.6542	-2.5333	-2.7083	-2.6854	-2.4354	-2.5396	-2.675	-2.5083	507.027	178.698	257.483	514.534	295.850	229.573	462.415	485.640	478.158	258.427	459.150	487.294	227.030	389.214	280.080	469.246	0.00081544	0.00031273	0.00013481	1291.1	4.6708e-06	5.5933e-06	1301.4	353.71	3.9201e-06	5.0024e-06	407.06	143.6	124.47	43.912	3.7447e-06	54.102	0.00035083	0.0002675	7.0048e-05	1307.6	2.952e-06	2.8921e-06	1323.2	359.44	2.9667e-06	2.9083e-06	413.55	146.29	126.03	45.011	2.9346e-06	55.522	516.720	268.278	279.517	182.884	296.865	317.405	182.539	187.458	277.687	309.596	186.971	190.733	190.340	196.361	274.406	195.307	-8191	255	
20942.326	1	1	0	0	0.26058	0.25681	0.097673	0.3293	0.19816	0.054757	0.19409	0.12086	0.27764	0.23908	0.14027	0.55251	0.10915	0.044066	0.23949	0.22193	-2.1271	-2.6625	-2.2146	-2.9396	-2.6146	-2.2729	-3.0458	-2.6771	-2.5187	-2.575	-2.3458	-2.5896	-2.5812	-2.5604	-2.7104	-2.5958	173.986	262.219	487.803	443.429	378.356	323.550	443.103	178.946	305.183	365.544	391.592	486.904	442.574	401.900	208.679	470.659	0.00082892	0.00044893	0.00015527	1290.5	3.4254e-06	4.6964e-06	1298.9	352.79	4.2691e-06	4.8961e-06	404.53	143.45	123.95	43.981	5.1281e-06	53.924	0.00034737	0.00025122	7.1833e-05	1307.9	2.9959e-06	2.7972e-06	1320.8	359.05	2.9843e-06	2.8449e-06	412.41	146.24	125.97	44.972	2.9143e-06	55.543	515.477	251.135	247.643	183.003	288.757	312.184	182.621	187.421	287.482	315.310	186.753	190.805	191.067	196.181	305.624	195.505	-8191	255	
20942.424	1	1	0	0	0.22289	0.25453	0.26422	0.15083	0.35006	0.19456	0.16553	0.4924	0.16046	0.26088	0.40941	0.30441	0.082862	0.29045	0.10087	0.10006	-2.3167	-2.5521	-2.4042	-2.7417	-2.525	-2.7104	-3.0979	-2.6979	-2.675	-2.6146	-2.4854	-2.725	-2.4333	-2.2229	-2.7229	-2.5812	332.519	226.911	205.732	513.439	174.246	237.058	426.138	428.784	184.327	520.974	496.285	496.099	441.147	205.020	486.380	494.286	0.00080344	0.0003785	0.00010644	1290	4.7399e-06	6.2577e-06	1300.6	353.48	6.4979e-06	7.5488e-06	406.39	142.65	124.37	43.932	3.9343e-06	53.986	0.00035313	0.00025169	7.3509e-05	1307	2.8988e-06	2.8648e-06	1321.2	358.74	3.0679e-06	2.8612e-06	412.68	145.91	125.96	44.935	2.9722e-06	55.359	517.080	237.230	251.114	183.122	313.824	325.344	182.469	187.320	276.608	314.384	186.831	190.761	190.815	196.223	294.202	195.592	-8191	255	
20942.520	1	1	0	0	0.070538	0.21967	0.30854	0.10756	0.11857	0.11797	0.25216	0.21715	0.069552	0.056122	0.36565	0.1208	0.12	0.15006	0.123	0.20674	-2.1125	-2.6458	-2.3208	-2.8646	-2.6063	-2.3875	-2.9083	-2.5521	-2.4583	-2.6833	-2.4667	-2.7188	-2.5792	-2.4	-2.5333	-2.5979	475.100	314.570	320.099	517.887	448.465	474.562	433.409	492.648	230.747	360.957	459.964	190.499	235.580	224.312	399.077	352.891	0.00082569	0.00043112	0.00013998	1288.8	6.2521e-06	5.0779e-06	1302.1	353.29	5.2592e-06	4.267e-06	405.21	143.05	124.45	43.738	7.4651e-06	53.983	0.00035698	0.00025423	7.1491e-05	1308	2.964e-06	2.8162e-06	1321.9	359.14	2.9203e-06	2.8748e-06	412.85	145.95	125.97	44.927	3.0364e-06	55.481	516.616	271.340	254.257	182.956	302.939	319.536	182.516	187.524	288.006	310.783	187.211	190.656	190.813	196.498	298.471	195.380	-8191	255	
20942.615	1	1	0	0	0.18471	0.16246	0.10513	0.064819	0.16467	0.20043	0.5069	0.33992	0.24308	0.30909	0.29445	0.31285	0.37857	0.24866	0.083019	0.102	-2.1958	-2.5583	-2.3854	-2.7771	-2.6208	-2.2667	-2.9104	-2.6229	-2.2812	-2.7542	-2.5354	-2.8146	-2.7917	-2.3021	-2.6021	-2.7188	258.152	452.310	198.485	331.658	353.574	400.866	464.936	487.204	419.370	407.047	487.275	444.418	518.964	489.222	350.831	197.918	0.00080257	0.0003526	0.00020014	1287.3	4.6903e-06	3.6693e-06	1302.1	352.15	5.1537e-06	3.893e-06	404.47	143.02	123.85	43.88	4.3149e-06	53.882	0.00035884	0.0002568	7.1064e-05	1306.6	2.9161e-06	2.8849e-06	1321.3	358.08	2.9499e-06	2.9445e-06	411.38	145.63	125.6	44.885	2.9014e-06	55.351	514.700	252.870	263.773	182.961	300.755	319.876	182.667	187.377	298.412	325.237	186.722	190.762	190.731	196.165	314.687	195.281	-8191	255	
20942.736	1	1	0	0	0.34297	0.41224	0.169	0.09435	0.18544	0.20995	0.36415	0.17293	0.15712	0.10059	0.12732	0.22201	0.12087	0.18938	0.2096	0.13034	-1.9542	-2.6354	-2.2083	-2.7146	-2.7229	-2.4146	-2.8333	-2.7125	-2.4354	-2.8021	-2.4604	-2.6479	-2.8167	-2.45	-2.5438	-2.6958	427.263	170.340	394.695	197.768	503.433	503.701	516.431	372.712	302.707	226.004	396.892	443.742	341.234	410.046	499.189	452.741	0.00083514	0.00032652	0.00015735	1287.6	4.7193e-06	4.8009e-06	1296.6	351.32	6.6074e-06	5.476e-06	403.98	142.34	123.42	43.573	5.5597e-06	53.636	0.00034422	0.00025912	7.1814e-05	1303.7	2.9173e-06	2.8537e-06	1318.2	357.5	2.9728e-06	2.8517e-06	410.97	145.22	125.28	44.675	2.9669e-06	55.158	518.288	283.495	275.104	182.890	294.151	321.349	182.761	187.467	268.393	314.740	186.993	190.763	190.533	196.319	300.458	195.559	-8191	255	
20942.809	1	1	0	0	0.030876	0.12968	0.22645	0.26462	0.16977	0.18022	0.082814	0.045264	0.080091	0.20506	0.21316	0.079812	0.17829	0.33195	0.12942	0.20147	-1.9479	-2.7083	-2.4437	-2.6333	-2.7042	-2.4771	-2.6521	-2.7833	-2.3271	-2.7521	-2.6625	-2.575	-2.8875	-2.4437	-2.7167	-2.7313	466.096	229.029	389.437	476.172	234.494	369.376	476.751	402.714	398.424	447.877	459.984	518.464	195.326	512.892	393.405	322.063	0.00080972	0.00050674	0.00015582	1281.4	5.6044e-06	6.1151e-06	1289.2	348.87	7.7474e-06	4.8153e-06	401.09	141.71	122.58	43.24	2.3653e-06	53.415	0.00034619	0.00025919	7.3524e-05	1298.6	2.9445e-06	2.8644e-06	1310.6	355.82	2.8336e-06	2.8157e-06	408.79	144.33	124.41	44.313	2.9506e-06	54.784	516.989	254.594	245.533	183.129	290.605	325.705	182.579	187.453	286.778	314.655	186.897	190.717	190.510	196.385	321.877	195.501	-8191	255	
20942.928	1	1	0	0	0.10277	0.060274	0.28456	0.17181	0.18942	0.17572	0.265	0.24825	0.23887	0.22738	0.20981	0.053027	0.14196	0.34705	0.16696	0.15867	-1.8708	-2.65	-2.6292	-2.6208	-2.6312	-2.275	-2.7938	-2.8312	-2.3292	-2.6625	-2.6667	-2.5375	-2.6979	-2.5479	-2.6896	-2.6521	354.916	506.167	311.650	176.545	502.297	226.498	457.662	466.083	206.623	334.755	474.142	198.394	484.790	192.795	264.621	316.778	0.00085501	0.0004167	0.00013922	1271.7	6.2797e-06	4.7972e-06	1286.9	349.24	6.3684e-06	3.485e-06	398.9	141.21	122.24	43.065	3.3628e-06	53.059	0.00035339	0.00025895	7.4564e-05	1291.8	2.9783e-06	2.9007e-06	1304.8	354.3	3.01e-06	2.8805e-06	406.29	143.4	123.65	44.098	3.0467e-06	54.524	514.110	274.747	256.529	183.105	300.847	324.996	182.474	187.529	275.079	313.216	186.982	190.776	191.016	196.136	291.748	195.602	-8191	255	
20943.023	1	1	0	0	0.062191	0.23121	0.29326	0.14828	0.16911	0.22209	0.18494	0.1569	0.17463	0.2994	0.21518	0.13077	0.24082	0.15559	0.28141	0.24558	-1.9896	-2.5812	-2.5229	-2.5021	-2.8021	-2.475	-2.7792	-2.9042	-2.3333	-2.7771	-2.6875	-2.55	-2.9229	-2.6125	-2.3917	-2.8104	279.129	432.737	176.538	486.239	286.203	217.257	457.628	252.785	514.125	498.802	178.863	171.544	170.733	512.603	455.998	453.415	0.00082296	0.00030409	0.00017258	1270.4	4.5702e-06	3.9538e-06	1281.7	346.7	5.1046e-06	4.5441e-06	397.68	140.33	120.53	42.95	3.7872e-06	52.915	0.00035154	0.00026287	7.3001e-05	1285	2.8885e-06	2.8185e-06	1299	352.44	2.9539e-06	2.8769e-06	405.48	142.72	123.03	43.916	2.934e-06	54.254	514.625	265.571	243.090	183.006	310.652	301.934	182.717	187.793	287.069	311.317	187.099	190.697	190.580	196.300	289.982	195.541	-8191	255	
20943.119	1	1	0	0	0.27668	0.01446	0.17041	0.13233	0.13425	0.20258	0.01095	0.041707	0.073429	0.2885	0.083731	0.21985	0.088317	0.15858	0.11381	0.46573	-2.0604	-2.5292	-2.4917	-2.6437	-2.7188	-2.6875	-2.5229	-2.7812	-2.4833	-2.4083	-2.8146	-2.6542	-2.8187	-2.7917	-2.4396	-2.7479	278.325	309.179	178.421	511.185	343.598	308.419	439.469	511.149	177.805	283.269	244.695	259.079	267.261	526.606	427.271	476.694	0.00079338	0.00039097	9.3109e-05	1264.4	6.2188e-06	5.5112e-06	1272.3	345.98	6.0544e-06	3.8035e-06	397.43	140.38	121.05	43.024	2.6366e-06	52.816	0.0003469	0.00026774	7.2712e-05	1278.8	2.9583e-06	2.8377e-06	1295.2	351.48	2.9452e-06	2.8614e-06	404.27	142.55	123	43.992	2.9049e-06	54.341	516.310	258.452	264.507	183.007	297.232	311.173	182.774	187.616	286.664	303.305	186.811	190.712	190.967	196.475	260.560	195.659	-8191	255	
20943.215	1	1	0	0	0.14964	0.17827	0.12745	0.1686	0.25383	0.20244	0.15204	0.27635	0.23992	0.18311	0.2024	0.14043	0.38887	0.30556	0.043336	0.075345	-2.0583	-2.6583	-2.7104	-2.5708	-2.6125	-2.4354	-2.6792	-2.8937	-2.5792	-2.5771	-2.7729	-2.45	-2.4667	-2.6542	-2.275	-2.8958	342.300	192.006	281.143	436.955	287.434	255.803	454.394	474.466	203.822	438.451	519.417	415.008	185.308	197.775	324.432	340.896	0.00078	0.00043283	0.00013706	1265	5.1375e-06	5.5814e-06	1278.9	346.31	7.4253e-06	1.7619e-06	399.02	140.54	122.26	43.206	3.9128e-06	53.218	0.00034343	0.0002543	7.0888e-05	1279.6	2.9455e-06	2.6926e-06	1296.8	352.14	2.9439e-06	2.7765e-06	404.93	143.01	123.58	44.108	2.8307e-06	54.577	515.821	261.308	272.482	182.984	307.473	317.908	182.627	187.570	292.891	341.125	187.058	190.880	191.130	196.366	291.864	195.581	-8191	255	
20943.336	1	1	0	0	0.2397	0.16504	0.058813	0.04736	0.22385	0.065986	0.17379	0.35534	0.1545	0.046416	0.11688	0.13549	0.15878	0.11145	0.21583	0.25776	-2.0438	-2.4313	-2.7708	-2.4729	-2.5938	-2.5062	-2.5417	-2.8396	-2.5458	-2.5354	-2.8917	-2.6146	-2.7125	-2.9146	-2.3812	-2.8354	460.345	315.278	215.815	181.810	205.857	195.857	172.853	448.747	267.821	225.726	471.698	276.866	503.563	465.332	468.588	192.057	0.00080003	0.00050303	0.00013854	1264.6	3.5884e-06	5.1002e-06	1273.7	346.39	5.0624e-06	4.758e-06	398.41	140.97	122.31	43.346	5.6908e-06	52.926	0.00034439	0.00025003	6.8908e-05	1280.5	2.8257e-06	2.7346e-06	1295.3	352.55	2.8128e-06	2.7712e-06	405.23	143.57	123.67	44.287	2.8598e-06	54.641	517.882	252.369	273.396	183.148	312.668	336.524	182.546	187.382	299.248	291.407	186.958	190.773	190.414	196.420	307.152	195.526	-8191	255	
20943.406	1	1	0	0	0.12685	0.096493	0.15743	0.17846	0.24428	0.31343	0.1985	0.082021	0.28254	0.11514	0.34751	0.06761	0.14923	0.26146	0.13785	0.2963	-1.9729	-2.3688	-2.7167	-2.5958	-2.7083	-2.6125	-2.4542	-2.7875	-2.5625	-2.3521	-2.6708	-2.4625	-2.7292	-2.7604	-2.5125	-2.7417	450.397	434.459	177.465	262.769	390.188	381.238	418.699	492.840	233.408	218.762	444.547	195.141	424.163	379.775	375.699	427.750	0.00082965	0.00041718	0.0001479	1267.5	3.8532e-06	4.6015e-06	1281.7	346.98	6.6312e-06	5.6259e-06	398.4	140.08	122.11	43.292	3.9333e-06	53.168	0.00033885	0.00024799	6.8291e-05	1283.4	2.8384e-06	2.7235e-06	1299	353.22	2.9043e-06	2.792e-06	406.38	143.46	123.85	44.302	2.8895e-06	54.731	517.912	278.990	277.296	183.214	310.902	298.032	182.663	187.443	291.355	308.328	186.993	190.886	190.597	196.400	252.164	195.209	-8191	255	
20943.504	1	1	0	0	0.12175	0.028429	0.22281	0.10456	0.053084	0.097097	0.10752	0.11749	0.065393	0.29321	0.080204	0.25516	0.080352	0.13016	0.28018	0.091573	-2.1958	-2.3875	-2.7958	-2.5062	-2.5917	-2.7417	-2.5458	-2.7438	-2.4208	-2.2896	-2.7417	-2.575	-2.4208	-2.5958	-2.4583	-2.8229	439.196	405.868	498.694	487.259	509.303	205.680	521.522	172.552	526.298	207.570	243.618	470.923	213.290	460.973	275.064	328.705	0.00079108	0.00044964	0.00011514	1267.9	4.8785e-06	4.6456e-06	1276.3	348.77	4.771e-06	3.0571e-06	399.26	141.48	122.38	43.422	2.9349e-06	53.673	0.00033814	0.00024456	6.8305e-05	1284.2	2.8358e-06	2.5989e-06	1298.4	353.88	2.9631e-06	2.6979e-06	406.81	143.86	123.81	44.425	2.8602e-06	54.926	517.835	296.741	237.592	182.834	296.814	337.461	182.588	187.521	284.510	318.165	186.910	190.730	190.800	196.118	297.327	195.349	-8191	255	
20943.600	1	1	0	0	0.18719	0.26833	0.14111	0.30688	0.18892	0.15728	0.19986	0.079483	0.24024	0.22754	0.17927	0.32226	0.22535	0.20574	0.05151	0.12808	-2.2333	-2.4396	-2.6396	-2.6771	-2.475	-2.7542	-2.475	-2.8792	-2.5417	-2.275	-2.6562	-2.6479	-2.55	-2.7208	-2.4479	-2.7521	400.051	275.035	256.790	464.075	418.547	210.637	489.359	465.484	436.201	340.917	518.932	183.972	448.450	396.290	261.681	466.370	0.00083973	0.0004032	0.00013334	1269.7	5.1501e-06	4.162e-06	1279.3	348.03	5.9102e-06	4.055e-06	399.57	141.5	122.33	43.349	4.8663e-06	53.515	0.00034064	0.00024621	6.8144e-05	1285.4	2.8235e-06	2.6232e-06	1298.9	354.07	2.8244e-06	2.7532e-06	406.83	143.94	124.16	44.356	2.7966e-06	54.914	518.442	264.131	264.602	182.997	325.260	325.090	182.519	187.295	278.752	301.727	187.021	190.851	190.768	196.427	293.303	195.591	-8191	255	
20943.695	1	1	0	0	0.098681	0.088549	0.24607	0.4379	0.20479	0.2901	0.19811	0.030296	0.053976	0.31789	0.068886	0.20526	0.11362	0.10371	0.26674	0.16625	-2.2375	-2.3479	-2.525	-2.7167	-2.575	-2.8708	-2.6479	-2.7583	-2.6562	-2.6333	-2.7208	-2.8083	-2.5	-2.8896	-2.4729	-2.7125	511.262	493.092	337.214	444.431	473.683	395.406	326.516	277.423	339.381	384.716	349.975	519.341	409.791	279.641	495.989	438.080	0.00080086	0.0004356	9.5081e-05	1271.6	4.5439e-06	4.0202e-06	1281	348.47	6.8075e-06	4.803e-06	399.14	141.19	122.17	43.424	3.745e-06	53.33	0.00033614	0.00024909	6.9525e-05	1287.1	2.8411e-06	2.6144e-06	1300.6	354.38	2.8316e-06	2.7085e-06	406.49	144.04	124.07	44.457	2.8167e-06	54.785	516.859	279.671	269.729	182.937	292.269	300.487	182.619	187.382	270.877	325.831	186.899	190.951	190.745	196.472	291.206	195.684	-8191	255	
20943.816	1	1	0	0	0.13621	0.065399	0.073329	0.22111	0.11525	0.11984	0.14135	0.14213	0.13069	0.24179	0.13143	0.073385	0.29638	0.23451	0.14972	0.37094	-2.1583	-2.3	-2.6458	-2.6208	-2.35	-2.4375	-2.5875	-2.5042	-2.6542	-2.4813	-2.7521	-2.7229	-2.4562	-2.7292	-2.2979	-2.8792	507.030	392.469	311.863	469.079	304.094	288.947	188.342	412.313	228.518	221.045	515.456	183.387	451.037	509.324	452.537	485.880	0.00082173	0.00036359	9.3497e-05	1269	4.3064e-06	6.1009e-06	1284	348.82	6.4473e-06	5.1895e-06	401.89	141.27	123.28	43.355	5.3812e-06	53.296	0.00033556	0.00025324	7.0091e-05	1287.2	2.8411e-06	2.7579e-06	1302	354.1	2.9214e-06	2.7386e-06	407.53	143.95	124.31	44.449	2.7547e-06	54.857	518.307	260.219	245.419	182.832	304.922	320.682	182.557	187.519	276.447	318.140	187.164	190.614	190.671	196.203	295.742	195.636	-8191	255	
20943.910	1	1	0	0	0.10803	0.040932	0.17995	0.17232	0.15339	0.22124	0.046735	0.20967	0.23017	0.072615	0.11609	0.16667	0.15459	0.30042	0.18476	0.042693	-2.2188	-2.525	-2.7167	-2.5812	-2.3729	-2.6771	-2.5917	-2.4833	-2.7417	-2.3646	-2.5625	-2.6979	-2.4188	-2.7083	-2.4417	-2.5625	392.361	232.857	434.957	323.257	386.308	476.724	206.159	456.466	172.292	354.997	497.931	447.766	505.882	453.513	397.620	387.306	0.00083697	0.00040725	0.00015795	1271.7	6.854e-06	2.113e-06	1282.4	347.57	5.8149e-06	5.7182e-06	399.95	141.74	122.19	43.471	3.7647e-06	53.802	0.00034258	0.00024847	6.8818e-05	1287.4	2.8943e-06	2.7845e-06	1303.1	354.13	2.8123e-06	2.7587e-06	407.52	144.38	124.27	44.492	2.7775e-06	55.02	517.003	277.065	275.450	182.958	302.719	307.530	182.599	187.488	302.909	297.556	187.317	190.515	190.687	196.283	310.472	195.484	-8191	255	
20944.010	1	1	0	0	0.34783	0.13076	0.24551	0.26705	0.12648	0.137	0.36682	0.40855	0.12867	0.094794	0.3171	0.24023	0.15823	0.029181	0.21787	0.2304	-2.2375	-2.4104	-2.4979	-2.9146	-2.1229	-2.7521	-2.725	-2.4604	-2.8333	-2.65	-2.6375	-2.8167	-2.425	-2.8917	-2.5271	-2.5062	520.099	418.711	454.709	501.772	526.854	173.752	447.575	464.320	239.350	373.722	452.935	508.720	527.184	528.886	360.857	191.661	0.00084771	0.00061467	0.00016577	1272	4.4496e-06	7.0863e-06	1283.3	349.3	4.9538e-06	4.1306e-06	400.4	141.88	123.05	43.461	4.529e-06	53.381	0.00033729	0.0002569	6.8224e-05	1288.2	2.8351e-06	2.7267e-06	1303	354.49	2.7762e-06	2.7058e-06	407.26	144.21	124.52	44.506	2.7829e-06	54.917	517.470	262.121	255.330	182.926	302.981	321.742	182.511	187.569	275.858	299.349	187.112	190.824	190.927	196.368	289.057	195.461	-8191	255	
20944.104	1	1	0	0	0.19485	0.070674	0.16442	0.23	0.16894	0.10519	0.1802	0.10427	0.16193	0.31756	0.083271	0.12022	0.076327	0.08164	0.2295	0.083452	-2.2875	-2.4667	-2.4229	-2.8667	-2.5104	-2.8417	-2.7479	-2.475	-2.7042	-2.2313	-2.7292	-2.8625	-2.5792	-2.6958	-2.7062	-2.3812	216.754	444.620	496.005	518.975	343.629	194.712	200.440	456.720	439.993	409.105	444.030	174.751	419.879	411.775	393.086	432.851	0.00086376	0.00029661	0.00013449	1270.9	5.0927e-06	5.3085e-06	1284.1	348.58	5.8903e-06	4.3936e-06	400.49	142.06	123.53	43.437	5.0472e-06	53.537	0.00034009	0.00025129	6.6572e-05	1287.1	2.8338e-06	2.6874e-06	1302.7	354.78	2.8491e-06	2.7066e-06	407.25	144.34	124.52	44.495	2.8276e-06	54.932	512.943	267.893	255.823	183.071	290.675	340.403	182.625	187.775	290.136	287.674	186.998	190.933	190.579	196.044	298.114	195.429	-8191	255	
20944.199	1	1	0	0	0.069134	0.11535	0.19323	0.17671	0.32393	0.17143	0.36832	0.30611	0.17921	0.16497	0.13471	0.39545	0.19022	0.19535	0.27341	0.13448	-2.2583	-2.5083	-2.2354	-2.8229	-2.4146	-2.6271	-2.7562	-2.3542	-2.5333	-2.4854	-2.4562	-2.8063	-2.5333	-2.7208	-2.7521	-2.5417	287.326	469.470	490.535	452.846	356.815	513.199	392.445	447.151	346.283	381.042	519.169	426.834	242.236	244.104	371.028	501.363	0.00079305	0.00040388	0.00018563	1270.1	5.0208e-06	6.1722e-06	1285.4	348.2	6.2385e-06	4.4162e-06	401.23	141.06	122.42	43.482	5.594e-06	53.441	0.00033651	0.00024577	6.8063e-05	1287	2.8079e-06	2.7504e-06	1306	354.49	2.8833e-06	2.7286e-06	407.61	144.04	124.26	44.562	2.7879e-06	54.868	515.970	278.118	258.369	182.929	303.617	325.391	182.561	187.625	275.074	333.225	186.994	190.765	190.867	196.576	300.929	195.545	-8191	255	
20944.295	1	1	0	0	0.11373	0.17914	0.21847	0.24387	0.15552	0.090746	0.44925	0.13328	0.17029	0.23859	0.19496	0.19284	0.20697	0.24414	0.058386	0.23586	-2.4667	-2.5146	-2.5729	-2.7833	-2.4396	-2.525	-2.7438	-2.6042	-2.5854	-2.5	-2.5792	-2.9396	-2.3021	-2.5667	-2.85	-2.3375	468.551	485.890	429.027	446.319	285.409	475.981	461.182	435.887	290.354	304.055	288.992	461.200	517.631	311.630	371.857	484.788	0.00082386	0.000446	0.00011114	1273.5	4.5125e-06	4.4963e-06	1283	349.67	6.1988e-06	5.5999e-06	401.67	141.26	122.95	43.563	4.6195e-06	53.186	0.00033857	0.0002471	6.8851e-05	1288.8	2.8926e-06	2.6385e-06	1303.6	354.28	2.8496e-06	2.6661e-06	407.21	144.2	124.68	44.499	2.7668e-06	54.727	514.840	247.759	259.775	182.867	310.328	319.768	182.716	187.566	274.267	317.513	186.834	190.847	190.747	196.140	298.625	195.555	-8191	255	
20944.416	1	1	0	0	0.25042	0.14102	0.18593	0.019354	0.25274	0.05324	0.070859	0.3041	0.099332	0.039126	0.07069	0.053471	0.26103	0.25599	0.13305	0.22455	-2.25	-2.5708	-2.2208	-2.8021	-2.5833	-2.7542	-2.9771	-2.4938	-2.5729	-2.65	-2.5542	-2.7125	-2.6958	-2.6646	-2.8625	-2.7188	498.198	413.646	247.937	313.187	269.472	429.449	172.042	486.605	230.870	487.219	386.651	417.647	287.908	496.177	258.278	191.198	0.00081786	0.00045197	0.00013	1269.5	4.6254e-06	3.7819e-06	1279.6	347.65	5.4078e-06	5.867e-06	399.09	141.44	122.66	43.337	5.727e-06	53.642	0.00034119	0.00024615	7.0062e-05	1286.7	2.7698e-06	2.7041e-06	1301.2	353.76	2.7863e-06	2.7172e-06	406.93	144.48	124.13	44.508	2.7726e-06	55.018	517.723	260.587	255.643	182.917	315.306	312.163	182.603	187.559	277.339	328.986	187.074	190.570	190.619	196.432	286.056	195.420	-8191	255	
20944.512	1	1	0	0	0.2791	0.13193	0.29075	0.11684	0.13124	0.1047	0.24491	0.3501	0.14859	0.10992	0.21878	0.29117	0.075913	0.074634	0.21374	0.10841	-2.3375	-2.6417	-2.2458	-2.8604	-2.5708	-2.5792	-2.9208	-2.6521	-2.6021	-2.6937	-2.6167	-2.7667	-2.6583	-2.3646	-2.7042	-2.6063	205.148	323.340	434.272	453.307	387.452	343.146	501.489	495.207	408.751	217.705	302.237	469.796	235.368	264.359	266.736	521.519	0.00082147	0.00033183	0.00013278	1269.3	3.9065e-06	5.5507e-06	1281	347.93	4.4381e-06	4.7164e-06	399.96	141.1	122.55	43.387	6.4499e-06	53.163	0.00034145	0.00024054	6.7569e-05	1286.9	2.879e-06	2.5901e-06	1301.6	353.55	2.9997e-06	2.7053e-06	406.71	143.92	123.94	44.356	2.7774e-06	54.606	514.612	270.790	253.282	182.964	313.767	341.425	182.603	187.408	269.352	323.310	187.080	190.755	190.256	196.286	292.313	195.589	-8191	255	
20944.607	1	1	0	0	0.059628	0.13868	0.081242	0.29015	0.11909	0.17746	0.072721	0.45363	0.048323	0.22478	0.41818	0.23566	0.18732	0.034925	0.094402	0.12628	-2.4417	-2.7125	-2.4729	-2.8208	-2.6312	-2.5125	-2.925	-2.4917	-2.5896	-2.6458	-2.6125	-2.6813	-2.8396	-2.4917	-2.75	-2.5333	204.348	276.636	408.745	507.662	443.962	421.146	323.692	494.543	311.758	357.501	468.943	514.267	176.228	193.950	494.884	482.093	0.00081984	0.00030021	0.00013191	1263.7	3.3343e-06	6.4041e-06	1275.4	346.33	7.1089e-06	4.4131e-06	396.48	140.05	121.34	43.062	4.9679e-06	52.89	0.00035144	0.00023905	6.8429e-05	1281.4	2.7729e-06	2.6475e-06	1297.5	351.97	2.8215e-06	2.6979e-06	404.25	142.94	123.02	44.033	2.8395e-06	54.36	517.519	262.512	248.180	183.087	310.645	314.468	182.739	187.447	273.266	292.226	186.760	190.825	190.673	196.246	311.090	195.508	-8191	255	
20944.705	1	1	0	0	0.2087	0.097511	0.16759	0.11818	0.26171	0.12392	0.1896	0.14988	0.40491	0.16426	0.091999	0.1164	0.13892	0.21786	0.048059	0.13828	-2.0938	-2.6958	-2.3958	-2.7521	-2.7667	-2.4583	-2.9646	-2.5833	-2.6292	-2.7354	-2.6312	-2.8729	-2.6271	-2.4562	-2.6167	-2.6208	382.090	376.838	516.371	436.455	195.304	319.176	487.526	419.997	435.470	303.317	463.262	496.883	329.996	174.745	279.806	375.889	0.00087827	0.00057238	0.00012195	1254.6	2.9684e-06	4.0807e-06	1265.7	343.54	4.6933e-06	4.6139e-06	394.55	139.48	121.06	42.725	4.5086e-06	52.581	0.00033394	0.00025011	6.7374e-05	1270.7	2.7589e-06	2.5337e-06	1285.1	349.41	2.7953e-06	2.7305e-06	401.9	141.8	122.12	43.719	2.7222e-06	54.082	516.932	259.529	272.042	183.112	297.829	290.689	182.622	187.566	292.089	340.353	187.051	190.709	190.805	196.171	296.168	195.754	-8191	255	
#DATA ENDS
