BOXY.EXE: ISS Imagent and Oximeter Data Acquisition Program Version 0.80
Ascii Record File

#ACQ INFORMATION
2  Detector Channels 
16  External MUX Channels 
1  Auxiliary Channels 
5000  Waveform (CCF) Frequency (Hz)
1  Waveforms Skipped 
30  Waveforms Averaged 
1  Cycles Averaged 
16  Acquisitions per Waveform 
10.0806  Updata Rate (Hz) 

#FILE INFORMATION
TRUE -- External MUX Channel results are PARSED.
FALSE -- AC DC and Phase are NOT grouped.
TRUE -- Companion Program Settings File CREATED.
FALSE -- AC data not excluded
FALSE -- DC data not excluded
FALSE -- Phase data not excluded
FALSE -- Auxillary Chn. data not excluded
Tab delimiters

#CALIBRATION STATE
TRUE -- Waveform Calibration Values APPLIED.


#AUX CALIBRATION VALUES
Val Type	aux-1	

Term	1.0000e+00	
Factor	0.0000e+00	


#WF CALIBRATION VALUES
A = Detector Channel
Val Type	A-AC1	A-AC2	A-AC3	A-AC4	A-AC5	A-AC6	A-AC7	A-AC8	A-AC9	A-AC10	A-AC11	A-AC12	A-AC13	A-AC14	A-AC15	A-AC16	A-DC1	A-DC2	A-DC3	A-DC4	A-DC5	A-DC6	A-DC7	A-DC8	A-DC9	A-DC10	A-DC11	A-DC12	A-DC13	A-DC14	A-DC15	A-DC16	A-Ph1	A-Ph2	A-Ph3	A-Ph4	A-Ph5	A-Ph6	A-Ph7	A-Ph8	A-Ph9	A-Ph10	A-Ph11	A-Ph12	A-Ph13	A-Ph14	A-Ph15	A-Ph16	

Term	0.00000e+00	0.00000e+00	0.00000e+00	0.00000e+00	0.00000e+00	0.00000e+00	0.00000e+00	0.00000e+00	0.00000e+00	0.00000e+00	0.00000e+00	0.00000e+00	0.00000e+00	0.00000e+00	0.00000e+00	0.00000e+00	0.00000e+00	0.00000e+00	0.00000e+00	0.00000e+00	0.00000e+00	0.00000e+00	0.00000e+00	0.00000e+00	0.00000e+00	0.00000e+00	0.00000e+00	0.00000e+00	0.00000e+00	0.00000e+00	0.00000e+00	0.00000e+00	0.00000e+00	0.00000e+00	0.00000e+00	0.00000e+00	0.00000e+00	0.00000e+00	0.00000e+00	0.00000e+00	0.00000e+00	0.00000e+00	0.00000e+00	0.00000e+00	0.00000e+00	0.00000e+00	0.00000e+00	0.00000e+00	
Factor	1.00000e+00	1.00000e+00	1.00000e+00	1.00000e+00	1.00000e+00	1.00000e+00	1.00000e+00	1.00000e+00	1.00000e+00	1.00000e+00	1.00000e+00	1.00000e+00	1.00000e+00	1.00000e+00	1.00000e+00	1.00000e+00	1.00000e+00	1.00000e+00	1.00000e+00	1.00000e+00	1.00000e+00	1.00000e+00	1.00000e+00	1.00000e+00	1.00000e+00	1.00000e+00	1.00000e+00	1.00000e+00	1.00000e+00	1.00000e+00	1.00000e+00	1.00000e+00	X	X	X	X	X	X	X	X	X	X	X	X	X	X	X	X	

B = Detector Channel
Val Type	B-AC1	B-AC2	B-AC3	B-AC4	B-AC5	B-AC6	B-AC7	B-AC8	B-AC9	B-AC10	B-AC11	B-AC12	B-AC13	B-AC14	B-AC15	B-AC16	B-DC1	B-DC2	B-DC3	B-DC4	B-DC5	B-DC6	B-DC7	B-DC8	B-DC9	B-DC10	B-DC11	B-DC12	B-DC13	B-DC14	B-DC15	B-DC16	B-Ph1	B-Ph2	B-Ph3	B-Ph4	B-Ph5	B-Ph6	B-Ph7	B-Ph8	B-Ph9	B-Ph10	B-Ph11	B-Ph12	B-Ph13	B-Ph14	B-Ph15	B-Ph16	

Term	0.00000e+00	0.00000e+00	0.00000e+00	0.00000e+00	0.00000e+00	0.00000e+00	0.00000e+00	0.00000e+00	0.00000e+00	0.00000e+00	0.00000e+00	0.00000e+00	0.00000e+00	0.00000e+00	0.00000e+00	0.00000e+00	0.00000e+00	0.00000e+00	0.00000e+00	0.00000e+00	0.00000e+00	0.00000e+00	0.00000e+00	0.00000e+00	0.00000e+00	0.00000e+00	0.00000e+00	0.00000e+00	0.00000e+00	0.00000e+00	0.00000e+00	0.00000e+00	-9.90304e+01	-1.35732e+02	-1.36445e+02	-1.81955e+02	-6.32359e+01	-7.00468e+01	-1.55865e+02	-1.62015e+02	-5.28796e+01	-6.72096e+01	-1.73578e+02	-1.70098e+02	-1.84416e+02	-1.76662e+02	-7.14242e+01	-1.49046e+02	
Factor	1.61227e-05	1.53640e-04	4.82937e-05	1.70074e-01	1.20327e-06	1.47695e-06	1.57498e-01	5.08174e-02	1.03867e-06	1.45238e-06	9.60303e-02	2.81729e-02	5.38668e-02	9.01616e-03	1.33076e-06	1.28469e-02	1.78411e-06	1.91716e-06	5.33672e-07	8.42362e-02	2.08320e-08	2.10161e-08	7.33345e-02	2.52856e-02	2.08088e-08	2.10259e-08	4.56947e-02	1.35968e-02	2.61707e-02	4.47479e-03	2.08188e-08	6.15170e-03	X	X	X	X	X	X	X	X	X	X	X	X	X	X	X	X	



#DISTANCE SETTINGS
A = Detector Channel
A-1	A-2	A-3	A-4	A-5	A-6	A-7	A-8	A-9	A-10	A-11	A-12	A-13	A-14	A-15	A-16	

2.5000e+00	3.0000e+00	2.5000e+00	3.0000e+00	2.0000e+00	3.0000e+00	1.5000e+00	3.0000e+00	3.0000e+00	3.0000e+00	3.0000e+00	3.0000e+00	3.0000e+00	3.0000e+00	1.5000e+00	3.0000e+00	

B = Detector Channel
B-1	B-2	B-3	B-4	B-5	B-6	B-7	B-8	B-9	B-10	B-11	B-12	B-13	B-14	B-15	B-16	

1.0000e+01	1.0000e+01	1.0000e+01	1.4400e+00	1.0000e+01	1.0000e+01	1.5100e+00	1.9400e+00	1.0000e+01	1.0000e+01	1.9900e+00	2.4900e+00	2.4100e+00	2.9000e+00	1.0000e+01	2.9800e+00	




#DATA BEGINS
time	group	step	mark	flag	A-AC1	A-AC2	A-AC3	A-AC4	A-AC5	A-AC6	A-AC7	A-AC8	A-AC9	A-AC10	A-AC11	A-AC12	A-AC13	A-AC14	A-AC15	A-AC16	A-DC1	A-DC2	A-DC3	A-DC4	A-DC5	A-DC6	A-DC7	A-DC8	A-DC9	A-DC10	A-DC11	A-DC12	A-DC13	A-DC14	A-DC15	A-DC16	A-Ph1	A-Ph2	A-Ph3	A-Ph4	A-Ph5	A-Ph6	A-Ph7	A-Ph8	A-Ph9	A-Ph10	A-Ph11	A-Ph12	A-Ph13	A-Ph14	A-Ph15	A-Ph16	B-AC1	B-AC2	B-AC3	B-AC4	B-AC5	B-AC6	B-AC7	B-AC8	B-AC9	B-AC10	B-AC11	B-AC12	B-AC13	B-AC14	B-AC15	B-AC16	B-DC1	B-DC2	B-DC3	B-DC4	B-DC5	B-DC6	B-DC7	B-DC8	B-DC9	B-DC10	B-DC11	B-DC12	B-DC13	B-DC14	B-DC15	B-DC16	B-Ph1	B-Ph2	B-Ph3	B-Ph4	B-Ph5	B-Ph6	B-Ph7	B-Ph8	B-Ph9	B-Ph10	B-Ph11	B-Ph12	B-Ph13	B-Ph14	B-Ph15	B-Ph16	aux-1	digaux	

1568.985	1	1	0	768	0.13275	0.18608	0.040102	0.17407	0.20581	0.18888	0.25508	0.043101	0.35718	0.19709	0.14746	0.19276	0.31583	0.3011	0.141	0.11349	-2.3063	-2.7	-2.7979	-2.8854	-2.6917	-2.8583	-2.6437	-3.3312	-2.7938	-2.7917	-3.0563	-2.8104	-2.9271	-2.8812	-2.6667	-2.7479	-45.968	-111.938	95.388	158.924	160.525	-133.629	191.372	120.094	-111.934	-10.701	122.493	151.895	133.031	-139.653	-133.833	111.014	0.00035753	0.00051357	0.00011779	1388.3	2.9256e-06	3.3934e-06	1377.5	372.57	4.9306e-06	3.5384e-06	425.93	141.09	121.94	42.534	7.2346e-06	52.433	0.00058176	0.00058971	0.00016416	1399	6.3419e-06	6.318e-06	1392.8	378.07	6.1633e-06	6.1157e-06	431.39	144.24	125.67	43.396	5.9064e-06	53.511	-123.253	-63.641	-62.592	-126.544	52.881	-67.765	-126.650	-122.439	-57.937	-128.402	-122.573	-118.524	-117.861	-113.354	20.503	-113.988	-8191	255	
1569.081	1	1	0	0	0.049884	0.064274	0.17684	0.079964	0.050607	0.074278	0.33945	0.34245	0.34728	0.1201	0.045334	0.26823	0.093808	0.17282	0.065389	0.11485	-2.3917	-2.775	-3.0438	-2.8542	-2.65	-2.9813	-2.8625	-3.0458	-2.8417	-2.6604	-3.0542	-2.6771	-2.9125	-2.9521	-2.825	-2.8854	-94.975	-109.350	154.684	198.286	182.049	151.414	173.732	179.394	93.628	-5.152	-138.768	172.155	-34.233	-96.151	190.366	-65.969	0.00030821	0.00054683	0.00024209	1385	6.4006e-06	5.7894e-06	1374.4	372.62	3.0999e-06	7.8075e-07	426.87	140.78	121.08	42.532	1.002e-06	52.247	0.00052991	0.00053029	0.00014811	1395	5.7883e-06	5.7459e-06	1392.2	377.36	5.7611e-06	5.7546e-06	430.55	144.13	124.95	43.256	5.7352e-06	53.441	-129.368	-65.201	-68.261	-126.657	-15.037	38.495	-126.801	-121.950	-12.013	28.588	-122.653	-118.506	-118.135	-113.131	-8.913	-113.813	-8191	255	
1569.177	1	1	0	0	0.35562	0.11384	0.13143	0.28303	0.07063	0.14855	0.05066	0.28715	0.035177	0.26436	0.27296	0.19651	0.10463	0.085796	0.18323	0.14035	-2.35	-2.6458	-2.9875	-2.7729	-2.7333	-2.9229	-2.675	-3.0021	-2.7771	-2.775	-2.9062	-2.625	-2.9021	-2.9167	-2.5208	-3.1729	41.967	158.114	167.498	126.447	85.339	65.281	195.727	153.626	55.579	-137.129	177.415	-137.581	194.468	-115.545	177.967	181.012	0.00033686	0.0002253	0.00010744	1380.6	3.7145e-06	4.4911e-06	1370.6	372.87	4.5918e-06	2.4289e-06	425.88	141.2	121.02	42.091	5.6559e-06	52.089	0.00052639	0.00053158	0.00014981	1392.7	5.901e-06	5.9619e-06	1391.6	377.85	6.0771e-06	6.0434e-06	431.51	144.45	125.66	43.386	6.2427e-06	53.641	-126.136	-30.338	-64.288	-126.831	-65.820	49.303	-126.678	-122.085	-47.037	42.221	-122.856	-118.641	-118.051	-113.208	27.963	-113.828	-8191	255	
1569.273	1	1	0	0	0.1511	0.12996	0.071144	0.21903	0.17885	0.1522	0.34963	0.23214	0.10841	0.16498	0.23238	0.23991	0.17658	0.09064	0.37639	0.36595	-2.2708	-2.6208	-2.7646	-2.8771	-2.8146	-2.9396	-2.9083	-3.1667	-2.8333	-2.5646	-2.9104	-2.6146	-2.725	-2.9958	-2.6083	-2.7375	-38.076	166.501	150.349	-133.966	83.649	-91.552	105.369	122.142	-96.075	158.298	119.816	-138.212	-27.517	-42.168	-101.406	-119.945	0.00034067	0.00021586	0.0002129	1384.7	4.3908e-06	2.3465e-06	1380.2	372.91	2.1425e-06	4.695e-06	429.51	141.42	122.3	42.659	7.8281e-06	52.517	0.00056693	0.00058029	0.00016136	1401.2	6.3942e-06	6.3851e-06	1400.3	379.22	6.5379e-06	6.5438e-06	434.09	145.14	126.48	43.632	6.7628e-06	54	-133.274	-35.788	-19.422	-126.834	45.640	-88.061	-126.852	-122.143	22.414	-26.269	-122.350	-118.438	-117.890	-113.557	61.620	-113.850	-8191	255	
1569.368	1	1	0	0	0.13415	0.22993	0.17615	0.14503	0.11182	0.1276	0.17156	0.22385	0.059804	0.13891	0.10688	0.32975	0.076639	0.093365	0.051608	0.077753	-2.5417	-2.6208	-2.8625	-2.9625	-2.6646	-3.05	-2.8167	-2.9708	-2.7458	-2.4729	-2.9	-2.8875	-2.7062	-3.0646	-2.7333	-2.9042	-110.746	-8.667	205.136	201.049	66.557	-75.794	122.545	146.116	-92.821	160.130	-105.646	179.414	157.174	130.549	-29.037	211.381	0.00033465	0.00071535	0.00015807	1403.1	3.8257e-06	4.191e-06	1390.6	375.14	4.8012e-06	7.3331e-06	430.83	142.08	122.69	42.925	6.5745e-06	52.795	0.00061619	0.00063519	0.00017813	1409.5	6.9619e-06	7.0269e-06	1406.5	381.07	6.8877e-06	6.9102e-06	435.91	145.48	127.33	43.807	6.8554e-06	54.048	-123.587	-21.378	-14.888	-126.656	0.079	17.258	-126.767	-122.116	20.206	14.160	-122.619	-118.440	-118.156	-113.201	3.651	-113.657	-8191	255	
1569.466	1	1	0	0	0.18729	0.02648	0.11338	0.15296	0.27565	0.045323	0.32037	0.2192	0.06836	0.12311	0.36519	0.099987	0.14503	0.22844	0.12146	0.1773	-2.5958	-2.6167	-2.8167	-2.9562	-2.4979	-2.8229	-2.8063	-2.8688	-3.1042	-2.5396	-3.1167	-2.8458	-2.45	-2.9271	-2.7083	-2.7812	74.409	208.087	-81.365	170.936	14.553	83.284	182.122	-94.739	19.793	146.574	198.651	-98.467	68.694	-119.668	24.756	15.007	0.00030149	0.00087805	6.0571e-05	1402.9	2.7034e-06	5.6705e-06	1395.7	377.02	2.9421e-06	1.5248e-06	431.93	142.12	122.3	42.798	2.3754e-06	52.516	0.00060752	0.00062183	0.00017444	1410.4	6.7255e-06	6.8326e-06	1409.2	381.61	6.8014e-06	6.84e-06	435.84	145.54	126.93	43.676	6.6893e-06	53.921	-124.450	-7.871	7.416	-126.661	-30.679	6.140	-126.666	-122.129	-37.903	132.282	-122.446	-118.329	-118.101	-113.316	-59.390	-113.815	-8191	255	
1569.584	1	1	0	0	0.14789	0.23804	0.27973	0.2095	0.21262	0.038521	0.38916	0.18858	0.22438	0.2299	0.29674	0.18927	0.31837	0.26345	0.13689	0.020847	-2.5312	-2.4292	-2.9021	-2.9583	-2.5042	-3.0104	-2.7854	-2.8708	-2.8167	-2.5938	-2.7687	-2.9604	-2.7438	-3.0229	-2.7542	-2.6729	62.246	199.034	148.387	183.751	120.920	141.118	144.980	156.610	114.284	90.268	157.621	201.601	194.641	206.134	0.147	94.889	0.00034141	0.00043384	0.00022746	1398.3	1.7773e-06	5.201e-06	1388.3	375.5	3.9173e-06	4.6568e-06	429.62	141.73	122.23	42.907	4.3387e-06	52.752	0.00061203	0.00062359	0.00017338	1405.4	6.8467e-06	6.8597e-06	1401.5	380.88	6.8324e-06	6.7827e-06	435.4	145.29	126.73	43.687	6.7883e-06	53.875	-133.786	-119.533	-32.158	-126.646	104.557	-11.062	-126.775	-122.233	-41.789	-24.595	-122.679	-118.466	-117.498	-113.116	-27.530	-113.765	-8191	255	
1569.681	1	1	0	0	0.2285	0.037285	0.060769	0.12062	0.13025	0.039115	0.41038	0.22307	0.22612	0.040303	0.080687	0.1127	0.18238	0.1821	0.067348	0.20237	-2.4854	-2.6188	-2.8812	-2.9896	-2.4208	-2.7729	-3.0062	-2.575	-2.9583	-2.7958	-2.8563	-2.9396	-2.675	-2.9833	-2.7958	-2.6771	-47.033	-51.901	42.266	-115.358	99.815	-124.631	162.044	203.658	172.188	15.044	135.372	189.205	-91.298	201.621	142.561	20.767	0.00037774	0.00052566	9.5437e-05	1400.7	3.7964e-06	3.486e-06	1387.9	374.65	5.6913e-06	2.9372e-06	431.3	141.69	123.04	42.739	2.2639e-06	52.418	0.00060748	0.00062168	0.0001725	1404.5	6.6615e-06	6.7576e-06	1400.8	380.67	6.7221e-06	6.7265e-06	434.85	145.06	126.57	43.531	6.6943e-06	53.815	-126.037	-58.229	-129.187	-126.568	-7.878	-107.460	-126.775	-122.265	46.274	75.962	-122.531	-118.521	-117.483	-113.228	16.498	-113.715	-8191	255	
1569.777	1	1	0	0	0.063025	0.11654	0.096355	0.24468	0.17213	0.31443	0.12192	0.29823	0.14945	0.1752	0.16953	0.19792	0.078436	0.2456	0.019632	0.10624	-2.4125	-2.6167	-2.6979	-3.1063	-2.7188	-2.8979	-3.0062	-2.7396	-2.9062	-2.9	-2.7188	-3.1229	-2.5708	-2.6354	-2.8625	-2.5833	75.541	144.580	203.470	216.044	-43.781	-42.766	89.189	159.949	181.791	26.843	-116.450	204.026	176.065	175.255	141.911	143.667	0.00035566	0.00032586	0.00013219	1397.7	3.7089e-06	5.2535e-06	1388.5	375.17	6.0945e-06	2.0218e-06	431.12	142.04	122.45	42.678	7.4178e-06	52.532	0.00060005	0.00061133	0.00017004	1404.5	6.6409e-06	6.7621e-06	1400.7	380.04	6.6495e-06	6.6693e-06	434.27	145.13	126.38	43.479	6.5888e-06	53.675	-119.976	-78.004	-50.007	-126.691	33.569	21.945	-126.725	-122.093	-20.096	-38.520	-122.462	-118.326	-118.367	-113.109	-1.827	-113.641	-8191	255	
1569.873	1	1	0	0	0.046015	0.2849	0.14505	0.21754	0.06623	0.029188	0.3578	0.22431	0.16113	0.069128	0.16888	0.16025	0.09029	0.076315	0.17494	0.15684	-2.4396	-2.6771	-2.6292	-3.2229	-2.6312	-2.8979	-2.9979	-2.7167	-2.8563	-2.7896	-2.7292	-2.975	-2.4104	-3.0125	-2.7833	-2.6437	-64.726	156.947	187.783	188.337	-121.720	183.672	152.981	156.837	27.258	166.936	-134.843	-47.243	210.955	201.590	-135.439	144.514	0.00033946	0.00088075	0.00021689	1399.7	5.8594e-06	2.2232e-06	1388.5	374.9	6.6074e-06	5.4198e-06	428.4	142.29	121.85	42.609	7.6871e-06	52.824	0.00059637	0.00061154	0.00016935	1404.4	6.7021e-06	6.713e-06	1400.2	379.76	6.5935e-06	6.6367e-06	432.9	145.05	126.26	43.428	6.5757e-06	53.71	-130.818	-66.913	-40.608	-126.596	-54.346	170.638	-126.731	-122.160	-40.145	-3.207	-122.423	-118.301	-117.783	-113.080	-23.449	-113.606	-8191	255	
1569.969	1	1	0	0	0.017055	0.089468	0.23469	0.14556	0.069628	0.30595	0.20074	0.52297	0.25095	0.034267	0.25896	0.19632	0.22613	0.026374	0.15971	0.13106	-2.5208	-2.7208	-2.5083	-3.2313	-2.5312	-2.5646	-3.2333	-2.8458	-2.8	-2.7854	-2.8812	-2.9938	-2.7021	-2.8187	-2.95	-2.6979	-40.753	94.083	-92.789	209.225	106.887	98.105	167.007	193.523	-85.929	163.060	142.776	210.328	114.060	12.469	-18.065	-104.237	0.00030585	0.00074957	0.00026288	1389.6	2.5554e-06	6.6323e-06	1386.1	373.79	6.7833e-06	7.8824e-06	429.46	141.6	121.76	42.612	1.3035e-06	52.756	0.00059391	0.00060152	0.00016809	1400.7	6.5533e-06	6.691e-06	1399.1	378.93	6.661e-06	6.6024e-06	432.87	145.12	125.93	43.428	6.5724e-06	53.713	-128.684	-110.192	-17.698	-126.722	28.317	22.993	-126.762	-122.091	-8.108	45.763	-122.393	-118.348	-117.926	-113.245	157.162	-113.672	-8191	255	
1570.065	1	1	0	0	0.057805	0.047485	0.13318	0.063396	0.23727	0.17962	0.17546	0.16791	0.18907	0.12062	0.030752	0.31679	0.33264	0.1026	0.14553	0.2184	-2.6312	-2.7917	-2.5563	-3.0833	-2.6021	-2.6229	-3.2604	-2.7042	-2.8833	-2.9125	-2.6083	-2.7875	-2.9104	-2.7667	-2.7521	-2.7021	-78.484	25.295	-38.875	38.733	-134.516	201.643	101.348	86.850	-50.384	6.602	94.310	-75.147	3.053	89.904	-102.912	111.311	0.00033827	0.0003603	0.00013313	1399.5	2.9261e-06	4.7488e-06	1390.5	374.31	6.2032e-06	6.9826e-06	428.81	141.55	121.83	42.405	8.1031e-06	52.482	0.00059183	0.00059851	0.00016722	1406.1	6.5772e-06	6.5425e-06	1404.1	379.42	6.6254e-06	6.5046e-06	433.29	144.88	126.23	43.37	6.5004e-06	53.639	-130.825	-52.186	34.497	-126.462	-97.216	-55.935	-126.785	-122.050	-24.786	7.107	-122.521	-118.337	-118.005	-113.126	-11.085	-113.764	-8191	255	
1570.186	1	1	0	0	0.10293	0.092752	0.12492	0.17692	0.092871	0.2145	0.33994	0.13249	0.12156	0.16269	0.22537	0.03389	0.19354	0.26645	0.27428	0.19934	-2.0479	-2.9333	-2.5542	-2.9396	-2.775	-2.6437	-3.1688	-2.9208	-2.7729	-2.65	-2.7729	-2.975	-2.8167	-2.6208	-2.8688	-2.6646	-67.800	-99.594	-85.404	191.248	76.557	-110.444	167.242	160.291	-134.445	169.705	118.767	-42.739	116.668	144.601	95.044	113.363	0.00032725	0.00021171	0.0002139	1393.2	5.5752e-06	7.6949e-06	1388.7	374.28	1.9571e-06	6.3301e-06	428.24	141.78	121.68	42.503	4.6602e-06	52.649	0.00058991	0.00059791	0.00016745	1404.2	6.5161e-06	6.5559e-06	1400.8	379.37	6.5227e-06	6.5197e-06	433.1	144.76	125.92	43.384	6.5289e-06	53.64	-122.376	38.737	-87.190	-126.748	70.950	-29.925	-126.862	-122.120	-3.450	61.777	-122.499	-118.367	-118.020	-113.239	-21.668	-113.656	-8191	255	
1570.280	1	1	0	0	0.2248	0.11937	0.10894	0.069249	0.085888	0.084646	0.056754	0.16409	0.21926	0.094752	0.047151	0.12578	0.032918	0.084978	0.18072	0.21386	-2.3104	-2.9667	-2.5917	-3.0271	-2.7271	-2.4542	-3.0479	-2.9042	-2.6	-2.8396	-2.5521	-2.975	-2.8	-2.5896	-2.8146	-2.5833	115.072	-114.451	35.115	191.392	89.651	126.076	162.990	157.507	23.253	27.957	153.456	-109.244	83.608	59.685	-84.370	212.466	0.0002924	0.00015739	0.0002051	1393.1	3.8328e-06	5.9818e-06	1386.9	374.61	5.6165e-06	5.3708e-06	428.55	141.17	122.47	42.547	7.1273e-06	52.696	0.00058952	0.00059411	0.00016612	1400.4	6.4694e-06	6.4279e-06	1397.9	378.79	6.4351e-06	6.4627e-06	432.27	144.49	125.87	43.331	6.4136e-06	53.599	-125.349	-121.627	-30.359	-126.746	-17.545	-45.211	-126.495	-122.091	-0.158	-32.851	-122.527	-118.447	-117.881	-113.351	-5.252	-113.488	-8191	255	
1570.376	1	1	0	0	0.22578	0.19615	0.22369	0.042793	0.35462	0.19996	0.11189	0.06152	0.29684	0.24233	0.024602	0.19459	0.084751	0.39519	0.23377	0.15833	-2.4396	-2.8896	-2.6167	-3.0229	-2.7958	-2.5812	-3.1	-2.7583	-2.6	-2.9208	-2.6604	-2.9813	-3.0687	-2.5438	-2.9375	-2.7146	133.603	-82.370	61.380	118.597	165.045	128.626	182.853	147.517	165.826	74.202	-43.810	207.330	130.318	156.590	207.044	140.030	0.00035075	0.00092421	9.0126e-05	1394.1	4.1976e-06	5.0516e-06	1387.4	373.62	5.6818e-06	5.2608e-06	427.16	141.52	121.89	42.766	8.7754e-06	52.704	0.00057757	0.00058566	0.00016296	1397.7	6.4358e-06	6.3805e-06	1395.8	378.32	6.4178e-06	6.474e-06	432.51	144.58	125.85	43.372	6.5697e-06	53.65	-125.357	-68.071	-67.292	-126.691	-24.318	-11.054	-126.561	-122.089	-46.065	-7.802	-122.518	-118.473	-117.910	-113.306	27.315	-113.801	-8191	255	
1570.472	1	1	0	0	0.073526	0.12314	0.17581	0.044511	0.23374	0.059781	0.26244	0.11276	0.055637	0.099085	0.028478	0.25439	0.086424	0.12713	0.12282	0.01886	-2.3937	-2.9646	-2.6854	-3.0729	-2.8875	-2.5771	-3.3458	-2.8792	-2.5396	-2.8917	-2.7313	-2.7146	-2.875	-2.6542	-2.8979	-3.0167	-105.253	-100.674	46.789	201.037	210.050	-23.616	202.327	133.395	-69.313	159.302	-114.812	-121.943	147.831	-100.639	-104.682	11.421	0.00034178	0.00043353	0.00037421	1399	3.2134e-06	8.848e-06	1386.3	374.47	4.6359e-06	4.4263e-06	427.77	141.68	122.08	42.721	2.8908e-06	52.758	0.00057841	0.00059305	0.00016455	1401.2	6.4604e-06	6.4111e-06	1398	378.85	6.3403e-06	6.4695e-06	432.46	144.48	125.91	43.345	6.3569e-06	53.639	-119.022	17.272	-41.931	-126.505	43.277	87.708	-126.649	-122.024	-104.414	-4.535	-122.346	-118.337	-117.711	-113.258	16.061	-113.689	-8191	255	
1570.546	1	1	0	0	0.061122	0.2494	0.083055	0.054492	0.076844	0.3741	0.36564	0.28865	0.16835	0.088336	0.043424	0.21743	0.076767	0.14255	0.23588	0.083084	-2.0958	-2.7854	-2.6813	-2.9625	-2.7188	-2.6583	-3.1104	-2.9938	-2.7271	-2.9896	-2.7521	-2.8417	-2.9125	-2.6854	-2.6667	-2.8354	211.221	17.594	-125.133	200.766	56.189	209.833	108.394	189.893	128.794	128.664	212.360	210.346	136.706	-88.225	8.268	154.114	0.00028336	0.00024317	0.00023368	1393.6	5.3012e-06	9.3776e-06	1386.5	373.64	6.6055e-07	3.6487e-06	428.56	141.49	122.2	42.555	3.1748e-06	52.488	0.00057363	0.00058619	0.00016254	1398.7	6.4771e-06	6.4263e-06	1397.7	378.37	6.3877e-06	6.4513e-06	431.79	144.29	125.6	43.264	6.419e-06	53.47	-122.188	-14.230	-68.887	-126.418	-35.597	44.547	-126.727	-122.038	13.033	-9.722	-122.539	-118.409	-117.734	-113.019	-63.809	-113.513	-8191	255	
1570.665	1	1	0	0	0.25501	0.025601	0.19526	0.18364	0.14709	0.27447	0.23698	0.29607	0.13702	0.10467	0.079271	0.2613	0.12692	0.10602	0.057199	0.085286	-2.2562	-2.9667	-2.7854	-2.8458	-2.9646	-2.7812	-2.9813	-3.1167	-2.5521	-3.0438	-2.9667	-2.7271	-2.9437	-2.5521	-2.7062	-2.9646	143.862	54.759	46.820	-130.500	175.980	95.949	101.779	167.605	185.092	44.812	7.966	160.266	-63.684	-66.236	-120.341	178.109	0.00033524	0.00026002	5.0682e-05	1392.1	2.7739e-06	6.6013e-06	1382.9	373.49	6.8221e-06	7.5806e-06	427.99	141.16	121.62	42.388	1.1385e-06	52.224	0.00057442	0.00058797	0.00016377	1395.2	6.4554e-06	6.4393e-06	1394.1	377.95	6.4003e-06	6.4981e-06	431.96	144.24	125.33	43.222	6.4205e-06	53.438	-129.002	-53.814	-7.238	-126.567	-134.306	-34.482	-126.722	-122.139	-38.521	47.401	-122.612	-118.242	-118.525	-113.430	15.718	-113.676	-8191	255	
1570.761	1	1	0	0	0.14875	0.34156	0.1413	0.33636	0.22923	0.10891	0.10959	0.070504	0.12142	0.13293	0.14659	0.25212	0.19316	0.14057	0.093762	0.14468	-2.1479	-2.8833	-2.6979	-2.7875	-3.025	-2.625	-3.0854	-3.0417	-2.5667	-2.8896	-2.9562	-2.5979	-3.0479	-2.8646	-2.5	-3.1146	121.098	186.342	5.868	195.606	24.766	-21.472	124.992	-2.326	-90.130	28.177	145.860	105.673	170.064	208.724	143.313	138.777	0.000272	0.00045321	0.00017301	1387.9	5.7052e-06	2.7618e-06	1383.5	374.86	7.4157e-06	7.8594e-07	426.5	141.25	121.16	42.301	9.979e-07	52.322	0.00057385	0.00059189	0.00016222	1393.3	6.3376e-06	6.4159e-06	1391.1	377.7	6.2856e-06	6.299e-06	430.43	143.92	125.23	43.137	6.217e-06	53.315	-126.983	-64.663	-118.637	-126.481	28.559	50.380	-126.707	-122.055	-22.946	-82.314	-122.505	-118.329	-117.970	-113.183	-84.312	-113.615	-8191	255	
1570.857	1	1	0	0	0.15116	0.10321	0.13874	0.17755	0.17617	0.27606	0.2672	0.14526	0.17496	0.30121	0.16823	0.23466	0.20298	0.16153	0.20858	0.23147	-2.3396	-2.7062	-2.8042	-2.6562	-2.9313	-2.6583	-2.9896	-3.2542	-2.7625	-2.9646	-2.9729	-2.8083	-3.1021	-2.95	-2.6604	-3.1083	172.906	74.281	-131.681	213.045	28.744	-120.706	-139.523	211.839	-83.294	117.079	-105.997	118.814	4.737	177.817	36.344	96.641	0.00028097	0.00063107	9.3832e-05	1388.5	4.2472e-06	3.0237e-06	1376	371.87	5.3915e-06	4.0478e-06	426.73	140.72	120.65	42.613	6.7232e-06	52.302	0.00056323	0.00057354	0.000158	1390	6.2987e-06	6.2855e-06	1387.8	376.62	6.2368e-06	6.2958e-06	430.38	143.78	125.08	43.215	6.2419e-06	53.337	-123.605	-130.691	-86.029	-126.560	-15.405	64.838	-126.706	-121.796	-2.643	-13.978	-122.175	-118.533	-117.554	-113.133	43.966	-113.789	-8191	255	
1570.953	1	1	0	0	0.19417	0.096015	0.25528	0.27804	0.1985	0.080341	0.23388	0.26514	0.35307	0.097469	0.33181	0.30156	0.16192	0.13203	0.2434	0.1789	-2.2667	-2.8104	-3.0167	-2.7854	-2.9146	-2.8104	-2.8167	-3.1458	-2.8042	-2.7938	-2.95	-2.6333	-2.8979	-2.9542	-2.6979	-3.0292	-21.463	-124.015	-67.646	186.532	92.626	161.579	135.543	207.597	66.442	89.096	180.569	177.772	-70.532	-83.518	-14.223	206.680	0.00034463	0.00085778	0.00014731	1389.1	4.8412e-06	4.4416e-06	1378.6	372.4	2.868e-06	8.8415e-06	426.5	141.1	121.22	42.405	2.4859e-06	52.357	0.0005674	0.00057826	0.00016103	1392.4	6.3305e-06	6.3223e-06	1389.7	376.74	6.3351e-06	6.4185e-06	430.48	143.92	125.06	43.14	6.2936e-06	53.373	-127.794	-40.766	-74.215	-126.530	32.639	69.476	-126.720	-122.196	4.089	5.645	-122.466	-118.045	-117.407	-113.245	18.925	-113.698	-8191	255	
1571.074	1	1	0	0	0.14967	0.053958	0.10449	0.27404	0.048533	0.20205	0.14477	0.30087	0.3008	0.065811	0.31529	0.12007	0.20219	0.15376	0.23931	0.25869	-2.2938	-2.8229	-3.0062	-2.7271	-2.7604	-2.7958	-2.7229	-3.1167	-2.4208	-2.5729	-3.0083	-2.6667	-2.875	-3.1396	-2.5083	-2.8604	-130.373	90.665	-109.139	206.086	39.502	161.861	134.694	148.065	-93.209	19.003	159.945	-114.619	178.033	182.878	-18.072	216.078	0.00030554	0.00032553	5.6441e-05	1391.4	6.6772e-06	6.8637e-06	1382	372.38	6.1982e-06	5.3814e-06	427.01	141.18	121.95	42.36	9.6678e-06	52.179	0.00057414	0.00058018	0.00016296	1393.5	6.4669e-06	6.3962e-06	1391	377.12	6.4426e-06	6.4052e-06	430.87	144.12	125.17	43.217	6.3929e-06	53.368	-134.946	-37.056	-94.961	-126.597	8.979	51.961	-126.541	-121.901	23.969	26.818	-122.329	-118.451	-118.348	-113.270	2.001	-113.793	-8191	255	
1571.146	1	1	0	0	0.14127	0.24983	0.079475	0.11162	0.055135	0.20198	0.1807	0.22959	0.17961	0.16099	0.31232	0.10997	0.19857	0.26598	0.12989	0.089883	-2.25	-2.675	-2.9	-2.8771	-2.5042	-2.9104	-2.6896	-2.8937	-2.9021	-2.7188	-3.025	-2.6083	-2.8583	-2.7812	-2.725	-2.8708	186.244	163.702	155.504	153.584	27.949	52.973	208.396	209.802	128.290	137.474	103.774	168.954	-114.206	-49.091	-34.808	-59.015	0.00031204	0.00035307	0.00026507	1390.8	7.1986e-07	4.7432e-06	1380.8	373.26	2.8593e-06	9.3247e-06	426.86	140.85	121.92	42.413	6.725e-06	52.688	0.00057695	0.00059142	0.00016442	1392.7	6.4992e-06	6.4878e-06	1390.7	377.49	6.5206e-06	6.5458e-06	431.26	143.99	125.72	43.199	6.5747e-06	53.633	-124.707	-89.093	-66.921	-126.486	19.836	-28.852	-126.571	-122.125	-21.345	-18.327	-122.447	-118.275	-117.440	-113.042	13.794	-113.683	-8191	255	
1571.266	1	1	0	0	0.13925	0.12524	0.011885	0.28903	0.018923	0.287	0.29205	0.10858	0.22377	0.23371	0.26841	0.19193	0.061426	0.13273	0.11592	0.054539	-2.475	-2.5833	-2.925	-2.8125	-2.7521	-2.7917	-2.8792	-2.9833	-2.8312	-2.5312	-3.125	-2.7771	-2.6458	-2.9375	-2.3937	-2.7042	17.407	-7.909	100.574	207.752	-59.164	181.499	197.084	120.616	64.035	83.010	-129.974	179.131	96.284	114.531	-107.624	76.464	0.00032552	0.0011413	0.00027657	1388.1	5.1217e-06	3.5726e-06	1378.7	373.03	9.4474e-06	5.0124e-06	427.64	141.44	121.77	42.342	7.5457e-06	52.397	0.00059531	0.00060488	0.00016918	1395.4	6.6425e-06	6.6104e-06	1391.4	378.17	6.6016e-06	6.6504e-06	432.52	144.45	125.89	43.27	6.626e-06	53.587	-127.912	-65.257	-45.239	-126.623	8.519	-46.065	-126.666	-122.089	-23.307	60.986	-122.642	-118.312	-117.753	-113.140	-43.010	-113.625	-8191	255	
1571.361	1	1	0	0	0.30622	0.14727	0.10026	0.31947	0.062892	0.22404	0.26708	0.18648	0.072513	0.083573	0.088065	0.27701	0.13817	0.32922	0.091108	0.25027	-2.4479	-2.4	-2.8333	-2.7562	-2.5229	-3.0687	-2.7313	-2.8708	-2.5729	-2.7062	-2.7354	-2.8375	-2.7771	-2.9083	-2.7188	-2.7521	112.499	20.318	35.607	-133.899	130.475	-70.377	125.270	-108.600	-13.953	212.899	112.477	177.250	217.098	208.460	117.929	161.744	0.00034002	0.00059797	0.0002137	1396.8	3.759e-06	5.8311e-06	1383.5	372.92	2.4054e-06	8.5301e-06	426.99	141.18	121.63	42.429	6.7427e-06	52.35	0.00059615	0.00060758	0.00016907	1399.9	6.5626e-06	6.5486e-06	1395.5	377.95	6.5296e-06	6.5228e-06	432.39	144.24	125.64	43.248	6.4774e-06	53.452	-128.972	-124.852	-91.670	-126.516	-90.397	12.833	-126.644	-122.191	78.600	-26.374	-122.291	-118.291	-117.792	-112.956	-8.158	-113.575	-8191	255	
1571.457	1	1	0	0	0.17631	0.12532	0.12138	0.20414	0.17057	0.024855	0.28731	0.37153	0.17547	0.29129	0.2819	0.097005	0.12194	0.11966	0.13583	0.31928	-2.5	-2.5521	-2.5896	-2.6813	-2.5625	-2.8354	-2.9292	-2.7583	-3.0271	-2.6437	-2.9646	-2.9042	-2.525	-2.9375	-2.6	-2.8625	-62.402	-8.656	202.226	179.253	-74.435	164.724	150.038	171.626	102.342	-36.411	-112.996	158.491	126.655	75.128	193.697	134.053	0.00028547	0.000715	0.00021311	1394.4	2.1388e-06	5.955e-06	1384.8	374.64	2.0653e-06	5.8283e-06	427.75	141.19	122.04	42.555	3.9416e-06	52.538	0.00058261	0.00059426	0.00016631	1400.3	6.4925e-06	6.5327e-06	1396	378.33	6.4657e-06	6.4679e-06	431.93	144.19	125.73	43.312	6.5229e-06	53.583	-130.882	-57.781	-46.201	-126.847	-4.662	21.862	-126.707	-122.004	-63.777	48.091	-122.291	-118.359	-117.741	-113.068	17.644	-113.531	-8191	255	
1571.553	1	1	0	0	0.080241	0.063369	0.2897	0.2379	0.15788	0.12464	0.32972	0.26436	0.10197	0.038205	0.072573	0.20531	0.10296	0.10568	0.15814	0.15813	-2.3646	-2.4917	-2.775	-3.0229	-2.6208	-2.8646	-2.8625	-2.7708	-2.9292	-2.5708	-2.7646	-3.0104	-2.6042	-3.2313	-2.6729	-2.7729	158.423	-103.326	79.132	-132.336	155.870	151.745	129.213	124.175	147.830	42.989	114.346	172.406	205.156	-22.525	215.603	183.889	0.00034679	0.00020696	0.00015272	1398	4.0996e-06	4.5767e-06	1387.3	373.62	5.7599e-06	1.6377e-06	426.82	141.03	121.91	42.56	4.3107e-06	52.209	0.00058198	0.00059127	0.00016543	1401.9	6.4534e-06	6.5395e-06	1397.6	378.04	6.4732e-06	6.5299e-06	432.35	144.24	125.73	43.314	6.5539e-06	53.53	-124.390	-137.187	188.577	-126.610	9.159	-14.171	-126.594	-121.995	-35.207	29.332	-122.425	-118.650	-117.838	-112.988	-44.115	-113.811	-8191	255	
1571.673	1	1	0	0	0.079231	0.047811	0.095256	0.22231	0.11153	0.046587	0.28013	0.1584	0.026065	0.092377	0.089818	0.35912	0.12568	0.21355	0.041573	0.15368	-2.5812	-2.5875	-2.8604	-3.2021	-2.5687	-2.7417	-2.9479	-2.6979	-2.8312	-2.5875	-2.7521	-2.8708	-2.4604	-2.9667	-2.6792	-2.6458	103.870	219.357	21.596	165.632	-78.236	4.688	144.282	193.158	55.239	154.339	212.753	125.299	-88.902	202.025	-120.577	156.446	0.00034595	0.00031116	6.4604e-05	1397.5	8.7458e-06	6.2414e-06	1392	373.02	7.9353e-06	6.5165e-06	428.14	141.3	121.43	42.539	8.2976e-07	52.361	0.00058893	0.0006028	0.00016714	1404.3	6.5338e-06	6.6379e-06	1398.9	378.33	6.5363e-06	6.5643e-06	432.73	144.37	125.59	43.301	6.5684e-06	53.547	-125.900	17.765	-135.962	-126.467	-33.127	-20.388	-126.528	-122.213	0.130	-0.595	-122.637	-118.355	-117.942	-113.194	-98.051	-113.560	-8191	255	
1571.770	1	1	0	0	0.25548	0.11028	0.096846	0.1779	0.11502	0.13624	0.15362	0.2314	0.55477	0.063123	0.10257	0.34745	0.34144	0.16493	0.077781	0.24568	-2.5396	-2.5625	-2.6937	-3.1729	-2.6333	-2.7938	-2.8396	-2.6396	-2.7771	-2.7208	-2.9521	-2.9854	-2.5938	-3.0062	-2.8187	-2.7104	-62.194	125.721	193.882	175.988	-87.740	150.103	150.018	135.635	219.120	-57.259	-57.227	138.862	212.848	65.331	-31.356	177.420	0.00033436	0.00090911	0.00015369	1396	4.7333e-06	5.2673e-06	1389.5	373.32	4.4643e-06	1.4524e-06	428.1	141.28	121.09	42.363	4.1825e-06	52.533	0.0005843	0.00059123	0.00016647	1400.2	6.4574e-06	6.4882e-06	1397.9	377.94	6.4611e-06	6.4086e-06	431.84	144.28	125.34	43.24	6.383e-06	53.52	-128.934	-58.637	-63.059	-126.535	18.132	19.350	-126.719	-122.059	5.010	123.574	-122.533	-118.518	-117.880	-113.108	-105.657	-113.564	-8191	255	
1571.866	1	1	0	0	0.15102	0.25754	0.0941	0.31543	0.064887	0.10204	0.25417	0.25967	0.38918	0.226	0.23091	0.060652	0.22637	0.16173	0.08893	0.29524	-2.6813	-2.6229	-2.5583	-3.1917	-2.4625	-2.8354	-2.9354	-2.4417	-2.9771	-2.7625	-2.8396	-2.8854	-2.7771	-2.8396	-2.9833	-2.5521	-112.143	-48.203	88.784	146.146	73.361	152.703	183.951	-128.239	96.302	-81.218	-138.906	153.639	-101.510	212.133	219.604	118.079	0.00027048	0.00085025	0.00027083	1401.6	3.507e-06	5.7451e-06	1391.6	373.49	7.2914e-06	1.8028e-06	427.68	140.99	122.34	42.593	4.2529e-06	52.5	0.0005809	0.0005896	0.00016492	1400.6	6.5231e-06	6.5299e-06	1396.9	377.55	6.5043e-06	6.4818e-06	432.1	144.17	125.62	43.339	6.4205e-06	53.498	-126.740	-68.046	-118.793	-126.694	-60.148	56.165	-126.587	-122.035	-45.268	149.971	-122.273	-118.306	-117.943	-112.930	-46.763	-113.655	-8191	255	
1571.962	1	1	0	0	0.041775	0.16764	0.25158	0.18892	0.24476	0.088497	0.16419	0.16545	0.071279	0.14704	0.30341	0.29422	0.20382	0.10886	0.14805	0.27662	-2.5125	-2.7917	-2.3875	-3.125	-2.7208	-2.8354	-3.0208	-2.7208	-2.9375	-2.8896	-2.4938	-2.925	-2.775	-2.7521	-3.0792	-2.7062	-117.897	198.092	112.913	200.428	186.432	62.460	178.404	146.550	70.578	138.605	134.423	105.636	179.011	-112.976	-81.612	161.235	0.00031154	0.00036166	0.00019767	1390.4	1.5687e-06	2.8181e-06	1387.6	372.86	3.8056e-06	3.1185e-06	427.19	141.5	121.28	42.446	3.9831e-06	52.385	0.00058461	0.00059463	0.00016444	1398	6.4431e-06	6.4777e-06	1397	377.67	6.5256e-06	6.4528e-06	431.67	144.32	125.46	43.276	6.3971e-06	53.54	-125.362	-103.346	-84.397	-126.659	215.174	56.849	-126.565	-122.086	-5.586	7.453	-122.563	-118.439	-118.100	-113.110	-33.182	-113.578	-8191	255	
1572.058	1	1	0	0	0.13091	0.044831	0.19158	0.034282	0.16908	0.048909	0.050031	0.31836	0.064523	0.27494	0.15251	0.2698	0.090713	0.056674	0.14735	0.16345	-2.2854	-2.8625	-2.5979	-3.0771	-2.6375	-2.7417	-3.0604	-2.8146	-2.8937	-2.8708	-2.8292	-2.9813	-2.7521	-2.7833	-2.9313	-2.6875	99.342	129.883	67.164	74.856	103.957	138.503	131.022	185.350	58.137	21.976	184.601	-136.940	40.155	-4.291	-78.813	145.115	0.00031291	0.00020004	0.00016016	1391.1	6.4205e-06	5.9557e-06	1385.5	374.08	5.3309e-06	1.4659e-06	427.89	140.88	121.71	42.42	3.5609e-06	52.425	0.00058088	0.00059767	0.00016419	1397.2	6.51e-06	6.4368e-06	1395.9	378.62	6.5115e-06	6.5383e-06	431.69	144.26	125.31	43.2	6.4441e-06	53.469	-133.306	-109.742	-135.602	-126.512	-25.405	24.992	-126.762	-122.163	14.622	70.818	-122.392	-118.191	-118.097	-112.911	-50.191	-113.651	-8191	255	
1572.154	1	1	0	0	0.17318	0.038857	0.12692	0.10935	0.08017	0.069382	0.33998	0.43034	0.21242	0.10432	0.048016	0.19109	0.1365	0.37384	0.12177	0.34774	-2.3479	-2.8771	-2.6	-3.0687	-2.6479	-2.6521	-3.2188	-2.7938	-2.7167	-2.9188	-2.7354	-3.1521	-2.9562	-2.8292	-2.8771	-2.7875	-37.740	113.088	141.559	14.246	-138.672	6.607	137.640	129.934	111.380	158.836	-64.286	94.964	-54.800	-119.296	-121.085	107.973	0.00032658	0.00056812	0.00043094	1394.4	3.4572e-06	8.1045e-06	1385.7	373.43	5.2458e-06	7.1421e-06	427.98	141.64	121.15	42.57	3.706e-06	52.61	0.00058156	0.00058479	0.00016355	1398	6.3155e-06	6.3826e-06	1395.6	377.79	6.3392e-06	6.4102e-06	431.19	144.38	125.18	43.231	6.3899e-06	53.529	-130.117	-18.962	-39.774	-126.517	-31.612	-26.628	-126.619	-122.079	-41.224	20.647	-122.333	-118.557	-117.585	-112.980	-39.605	-113.528	-8191	255	
1572.250	1	1	0	0	0.23325	0.16751	0.24512	0.11798	0.12974	0.16927	0.24747	0.063641	0.32196	0.12929	0.37477	0.14316	0.012559	0.18736	0.1501	0.14143	-2.175	-2.8917	-2.4854	-3.1063	-2.8312	-2.7396	-3.2042	-2.9979	-2.8146	-2.7708	-2.6688	-2.8917	-2.9271	-2.6167	-2.8021	-2.9333	-122.292	162.386	147.421	-116.188	-10.052	16.547	137.574	75.786	-40.075	1.113	182.651	-88.483	218.135	157.043	192.366	81.740	0.00029844	0.00076392	8.149e-05	1392.9	6.4539e-06	4.6432e-06	1385.4	373.44	5.8647e-06	7.6769e-06	427.8	141.17	122.02	42.469	6.1321e-06	52.393	0.00057566	0.00058808	0.00016245	1396.2	6.3107e-06	6.3761e-06	1393.9	377.64	6.4097e-06	6.3976e-06	431.48	144.39	125.52	43.179	6.4137e-06	53.362	-124.963	-101.665	-95.322	-126.594	-27.069	4.559	-126.729	-121.957	-20.682	57.829	-122.534	-118.332	-118.035	-113.062	-16.110	-113.802	-8191	255	
1572.369	1	1	0	0	0.11198	0.093482	0.060121	0.34126	0.24355	0.29794	0.18986	0.20058	0.1914	0.13449	0.10676	0.12026	0.084064	0.33044	0.12195	0.23313	-2.4562	-3.0417	-2.5729	-2.925	-2.7542	-2.6875	-3.0563	-2.8958	-2.4771	-2.8812	-2.6542	-2.9625	-2.7167	-2.7188	-2.9958	-3.0563	-70.971	107.088	100.707	191.351	-0.791	-109.581	146.689	177.857	123.451	-15.143	152.005	16.696	153.178	155.401	72.896	73.892	0.00034005	0.00080606	0.00019661	1392.3	7.7443e-06	3.5125e-06	1383.7	373.31	2.0496e-06	1.7493e-06	427.74	140.94	121.42	42.523	1.6729e-06	52.404	0.00056831	0.00058	0.00016031	1395.6	6.3539e-06	6.3184e-06	1393.7	377.82	6.331e-06	6.3698e-06	431.88	144.04	125.2	43.241	6.3861e-06	53.438	-124.693	-31.368	-94.814	-126.594	20.463	86.417	-126.624	-122.033	2.455	51.204	-122.483	-118.456	-117.864	-113.194	126.548	-113.641	-8191	255	
1572.441	1	1	0	0	0.14845	0.26342	0.10231	0.18424	0.22923	0.097941	0.18609	0.32613	0.059489	0.21979	0.069994	0.19549	0.068584	0.15859	0.066778	0.16977	-2.1229	-3.0271	-2.6271	-3.1312	-2.8396	-2.4958	-3.2667	-3.0292	-2.6896	-2.9792	-2.7687	-2.7833	-2.9062	-2.7125	-2.8896	-2.925	70.939	-16.846	-94.441	191.678	61.534	211.915	205.138	212.882	-116.364	153.123	62.207	184.755	187.162	127.688	50.830	68.600	0.0003655	0.0005516	0.00024475	1392.5	4.7701e-06	7.8099e-06	1388.1	373.05	4.9386e-06	4.4214e-06	428.33	141.21	121.98	42.436	6.3637e-06	52.464	0.00057638	0.00058867	0.00016508	1397.1	6.4427e-06	6.4501e-06	1395.5	377.83	6.3805e-06	6.4413e-06	432.02	144.17	125.37	43.247	6.4088e-06	53.481	-124.289	-89.543	-49.989	-126.445	11.834	20.879	-126.474	-122.213	-26.118	92.993	-122.595	-118.374	-117.942	-113.024	-48.548	-113.623	-8191	255	
1572.537	1	1	0	0	0.26554	0.061771	0.010917	0.17101	0.10211	0.15382	0.1852	0.24138	0.1503	0.24101	0.15239	0.16012	0.10242	0.15263	0.12539	0.072682	-1.9729	-2.8125	-2.6167	-2.9188	-2.8479	-2.6625	-2.9229	-3.0958	-2.5708	-3	-2.8438	-2.7104	-3.0375	-2.575	-2.6875	-2.7958	80.527	88.413	61.541	-123.451	-101.975	218.500	165.440	170.297	-123.215	-67.505	146.809	-113.802	51.861	160.925	120.733	209.924	0.00030222	0.0011171	0.00017662	1395.2	1.9287e-06	7.5656e-06	1390.1	373.1	4.9582e-06	1.5976e-06	427.57	140.96	121.78	42.515	5.8853e-06	52.504	0.00057698	0.0005891	0.000165	1399.1	6.4529e-06	6.4325e-06	1395.5	377.93	6.4439e-06	6.4588e-06	431.32	144.03	125.58	43.231	6.4219e-06	53.506	-124.726	-83.978	-120.371	-126.528	2.191	-6.963	-126.640	-121.999	-45.415	1.843	-122.340	-118.303	-117.586	-113.177	40.325	-113.701	-8191	255	
1572.635	1	1	0	0	0.25473	0.18386	0.25393	0.17884	0.082564	0.17344	0.22084	0.33314	0.28239	0.081933	0.25058	0.085021	0.16275	0.14298	0.087151	0.17089	-2.0979	-2.9167	-2.4188	-2.7438	-3.0042	-2.6937	-2.9458	-2.9979	-2.35	-2.7542	-2.7771	-2.6562	-2.9479	-2.7062	-2.7208	-2.9604	104.359	71.011	-95.015	-114.004	146.855	161.653	138.359	205.293	-101.759	194.993	155.853	152.387	-97.149	164.006	-95.534	212.333	0.00026027	0.00074402	0.00017682	1390.5	2.3717e-06	6.1981e-06	1383.9	373.99	6.2359e-06	5.6259e-06	428.05	141.2	122.4	42.522	2.5533e-06	52.321	0.0005792	0.00059766	0.00016388	1398.9	6.366e-06	6.4571e-06	1398.1	378.41	6.3812e-06	6.4338e-06	431.89	144.25	125.67	43.221	6.3087e-06	53.427	-129.117	-52.606	-112.301	-126.538	-69.119	-17.651	-126.623	-122.219	-39.230	50.121	-122.803	-118.299	-117.594	-113.283	-12.772	-113.540	-8191	255	
1572.754	1	1	0	0	0.14359	0.18371	0.17474	0.17116	0.27668	0.13588	0.1264	0.22067	0.29801	0.11486	0.093951	0.33589	0.092509	0.069846	0.16363	0.17247	-2.1937	-2.8958	-2.9646	-2.7271	-2.8083	-2.5875	-2.8063	-2.9479	-2.5354	-2.9208	-2.8625	-2.55	-3.0646	-2.9146	-2.6312	-3.0792	199.349	52.973	-100.519	141.291	-5.000	40.957	177.766	153.945	79.586	17.683	-33.902	161.963	56.054	31.509	55.288	143.569	0.00030917	0.00074877	0.00010725	1394.5	2.7188e-06	4.2561e-06	1387	373.6	3.9948e-06	5.6666e-06	428.31	141.25	120.97	42.36	4.2893e-06	52.514	0.00057042	0.00058915	0.00016252	1398.9	6.3954e-06	6.3428e-06	1396.5	377.61	6.3268e-06	6.3833e-06	431.33	144.2	125.19	43.145	6.2627e-06	53.475	-132.479	-19.196	-7.793	-126.636	56.519	-28.835	-126.574	-122.140	-40.307	16.996	-122.595	-118.140	-117.585	-113.089	-46.364	-113.573	-8191	255	
1572.850	1	1	0	0	0.2067	0.1565	0.28461	0.30662	0.055912	0.15048	0.16287	0.19825	0.202	0.095493	0.1375	0.2228	0.02109	0.059879	0.18179	0.18813	-2.2604	-2.7604	-2.8083	-2.5458	-2.9729	-2.6146	-2.8937	-2.8729	-2.7083	-2.6958	-2.8854	-2.775	-2.65	-2.7521	-2.6229	-2.8708	118.122	198.900	-53.041	203.499	189.701	51.171	184.718	183.409	-133.206	-116.169	174.839	-26.113	154.747	163.860	-139.624	215.357	0.00033405	0.00092106	0.00012875	1393.8	3.9226e-06	5.5905e-06	1388	372.99	5.3023e-06	4.3507e-06	426.85	141.01	121.1	42.551	4.1548e-06	52.408	0.00057027	0.00058179	0.00016145	1398.5	6.3775e-06	6.3428e-06	1397.3	377.82	6.3491e-06	6.4394e-06	431.56	144.2	125.36	43.237	6.3416e-06	53.424	-138.643	-27.848	-68.527	-126.580	3.804	-29.112	-126.734	-121.961	26.869	-1.915	-122.395	-118.332	-117.603	-113.022	4.906	-113.774	-8191	255	
1572.946	1	1	0	0	0.039385	0.2801	0.024059	0.037926	0.17214	0.065729	0.31164	0.13303	0.18091	0.20913	0.13102	0.31553	0.23042	0.16959	0.12687	0.081608	-2.0125	-2.6042	-2.6583	-2.6896	-2.7771	-2.7375	-2.8104	-3.0646	-2.6021	-2.6167	-3.1083	-2.6312	-2.8896	-2.9271	-2.475	-2.9208	174.197	189.458	-92.426	130.169	-137.136	139.941	183.191	198.098	0.469	180.963	-82.468	123.258	192.687	-102.741	-106.898	189.063	0.00031541	0.00031706	0.00018394	1392.9	7.4233e-06	4.5577e-06	1386.9	373.18	3.4825e-06	3.573e-06	426.9	141.14	121.52	42.441	4.9711e-06	52.392	0.00057247	0.0005811	0.00016181	1396.6	6.3158e-06	6.3423e-06	1394.7	377.92	6.2807e-06	6.3174e-06	431.59	144.26	125.36	43.198	6.2604e-06	53.391	-133.101	-56.252	-59.611	-126.608	-21.274	-26.016	-126.796	-122.158	-27.230	-28.639	-122.674	-118.223	-117.844	-113.072	-81.555	-113.625	-8191	255	
1573.042	1	1	0	0	0.21762	0.077813	0.19899	0.41809	0.22838	0.22383	0.33222	0.095498	0.05597	0.072298	0.30642	0.17713	0.23295	0.3778	0.32191	0.12174	-2.2188	-2.6042	-2.7854	-2.8417	-2.9083	-2.7188	-2.8583	-3.075	-2.7979	-2.5875	-3.0667	-2.6125	-2.7958	-2.9521	-2.4104	-3.0812	185.117	193.453	186.718	205.127	59.576	42.359	185.491	160.836	24.894	-11.913	169.552	-117.506	130.026	205.562	-90.910	-41.031	0.00027128	0.00069875	0.00012214	1393.6	2.2601e-06	3.0385e-06	1385	373.52	2.3881e-06	4.3109e-06	426.51	141.08	121.38	42.611	3.4317e-06	52.49	0.00056367	0.00057295	0.00015954	1397.9	6.2532e-06	6.2709e-06	1395.3	377.54	6.3119e-06	6.2548e-06	431.5	143.96	125.31	43.247	6.2641e-06	53.383	-123.489	-52.717	-66.889	-126.407	-15.124	96.172	-126.611	-122.207	-70.645	106.014	-122.499	-118.437	-117.891	-113.196	-28.669	-113.583	-8191	255	
1573.138	1	1	0	0	0.10078	0.15936	0.16755	0.21148	0.18847	0.11749	0.20563	0.11772	0.21382	0.11066	0.19627	0.23876	0.16135	0.2557	0.084578	0.080278	-2.175	-2.6604	-2.8771	-2.775	-2.7146	-2.7896	-2.8125	-3.1292	-2.6667	-2.7854	-3.125	-2.7458	-2.7854	-2.8875	-2.5229	-3.05	94.110	191.025	126.328	162.858	-57.442	165.543	200.926	187.039	-55.045	-78.356	154.561	198.734	110.343	94.105	45.125	81.064	0.00039786	0.00048459	0.00018367	1393.3	5.358e-06	6.0997e-06	1384.7	372.45	6.6442e-06	5.6691e-06	427.6	140.75	121.3	42.416	1.9757e-06	52.28	0.00056788	0.00057484	0.00016065	1397.2	6.2988e-06	6.3025e-06	1393.3	377.27	6.2566e-06	6.2238e-06	431.15	143.98	125.07	43.164	6.1676e-06	53.306	-127.732	-17.491	-77.963	-126.511	-59.204	3.935	-126.616	-121.980	-65.516	-43.658	-122.536	-118.319	-117.952	-113.150	-22.654	-113.885	-8191	255	
1573.235	1	1	0	0	0.089147	0.24302	0.19716	0.15956	0.05431	0.15989	0.15355	0.31482	0.098347	0.050509	0.2445	0.059592	0.063512	0.40199	0.24621	0.29962	-2.3729	-2.5854	-2.8708	-2.7646	-2.7167	-2.9354	-2.7542	-3.0792	-2.75	-2.5396	-3.0062	-2.7687	-2.7313	-2.8958	-2.6771	-2.9896	208.619	-58.174	-81.051	-133.173	-94.191	68.620	124.825	158.739	-16.621	-8.676	-110.516	-97.282	100.591	-98.372	14.657	139.210	0.0003175	0.00055689	0.00020627	1392	2.4339e-06	4.4494e-06	1385.1	372.84	2.0758e-06	6.4899e-06	426.13	140.67	121.2	42.397	5.9911e-06	52.265	0.00055727	0.0005691	0.00015989	1397.1	6.1736e-06	6.1719e-06	1393.7	377.34	6.2404e-06	6.1647e-06	431	143.83	124.76	43.142	6.124e-06	53.276	-123.393	-28.600	10.187	-126.576	-20.817	47.242	-126.679	-122.017	49.718	16.873	-122.525	-118.559	-118.024	-113.150	34.991	-113.695	-8191	255	
1573.355	1	1	0	0	0.41346	0.11273	0.34854	0.33033	0.12775	0.14402	0.32251	0.16951	0.15361	0.078675	0.31897	0.11015	0.23581	0.16473	0.16616	0.018171	-2.2896	-2.7	-3.0125	-2.85	-2.6771	-2.9667	-2.8292	-3.0938	-3.1021	-2.4208	-2.7979	-2.7979	-2.4708	-2.8958	-2.5938	-2.7396	172.004	130.106	15.398	152.091	-56.038	102.481	146.186	-125.217	115.333	70.498	156.654	-61.073	-127.949	-120.645	161.083	97.060	0.00029745	0.00081826	0.0001112	1390.6	1.6009e-06	4.0736e-06	1383.5	373.37	3.8446e-06	6.0771e-06	427.64	141.07	121.27	42.575	3.3434e-06	52.395	0.00055495	0.0005602	0.0001575	1395.2	6.1345e-06	6.1435e-06	1393.5	377.59	6.141e-06	6.1628e-06	430.76	143.84	125.03	43.173	6.1085e-06	53.383	-133.798	-96.586	-66.239	-126.546	-63.175	-2.539	-126.652	-121.889	10.509	44.286	-122.619	-118.239	-118.007	-112.897	-29.857	-113.525	-8191	255	
1573.450	1	1	0	0	0.19506	0.1889	0.064444	0.12345	0.15946	0.15874	0.1595	0.29369	0.32653	0.12642	0.14259	0.11601	0.31967	0.17827	0.14479	0.23466	-2.5792	-2.4271	-2.7708	-2.9375	-2.6979	-2.9479	-2.9437	-2.8875	-2.9062	-2.4875	-2.875	-2.9813	-2.3083	-3.1417	-2.7438	-2.8042	147.293	218.769	-76.516	214.322	-55.606	71.796	142.709	130.249	193.785	-5.884	-60.097	141.274	-33.522	42.679	103.215	209.069	0.00031193	0.00092988	0.00023274	1391.5	5.0397e-06	6.5367e-06	1382.8	373.35	1.4406e-06	9.4065e-07	427.21	140.74	120.91	42.388	4.5781e-06	52.288	0.00054849	0.00055727	0.0001557	1395.7	6.0528e-06	6.1863e-06	1391.7	377.04	6.1354e-06	6.143e-06	430.8	143.85	124.67	43.131	6.1707e-06	53.36	-131.739	-52.419	-55.158	-126.551	-3.759	0.057	-126.588	-122.044	9.174	-100.582	-122.704	-118.099	-117.754	-113.014	103.507	-113.901	-8191	255	
1573.546	1	1	0	0	0.18478	0.15589	0.19979	0.33993	0.18419	0.172	0.21393	0.24616	0.093053	0.074605	0.31265	0.25388	0.1578	0.2611	0.043859	0.18026	-2.5333	-2.5896	-2.9354	-2.9	-2.5833	-3.0167	-3.0062	-2.8833	-3.0521	-2.5083	-2.9042	-3.0146	-2.5083	-2.9271	-2.7667	-2.7167	186.662	43.581	-61.394	152.523	-35.451	55.624	212.915	160.220	213.882	-9.151	138.628	165.257	-101.518	81.054	11.148	168.327	0.00030933	0.00025602	0.00030598	1391.2	6.3089e-06	7.6e-06	1386.6	372.39	4.3814e-06	6.1372e-06	427.67	141.21	121.83	42.598	3.7618e-06	52.376	0.00055617	0.00056486	0.00015743	1393.9	6.1145e-06	6.1479e-06	1392.2	376.82	6.1561e-06	6.1065e-06	430.82	143.8	125.02	43.173	6.1879e-06	53.31	-133.287	40.970	-40.643	-126.410	-6.461	-14.226	-126.782	-121.981	-13.647	30.029	-122.437	-118.460	-118.117	-113.171	-92.775	-113.580	-8191	255	
1573.666	1	1	0	0	0.26257	0.12838	0.015564	0.098578	0.36849	0.15061	0.089661	0.098978	0.075697	0.13534	0.23777	0.076748	0.034162	0.37681	0.048125	0.28725	-2.5854	-2.5417	-2.6521	-3.1229	-2.4771	-3.0208	-2.9646	-2.7792	-2.8792	-2.6208	-2.8958	-3.0292	-2.7521	-2.9271	-2.6354	-2.7375	146.545	74.379	-52.719	218.817	114.495	79.720	104.935	123.515	-96.445	-139.721	187.032	215.572	100.712	190.447	-81.964	98.447	0.00029798	0.00059378	0.00014229	1391.2	2.6955e-06	5.9451e-06	1378.3	372.25	4.2384e-06	6.6753e-06	425.52	141.69	121.51	42.343	6.3899e-06	52.418	0.00055108	0.00056071	0.00015581	1393.3	6.0614e-06	6.1295e-06	1390	376.9	6.047e-06	6.1053e-06	430.09	143.91	124.73	43.087	6.0271e-06	53.269	-127.443	-76.304	10.187	-126.523	-6.476	3.772	-126.809	-121.986	-12.268	11.653	-122.411	-118.408	-117.688	-113.179	-25.861	-113.724	-8191	255	
1573.738	1	1	0	0	0.13453	0.09107	0.27417	0.26222	0.13512	0.14192	0.30282	0.23942	0.13752	0.36028	0.085461	0.15701	0.25314	0.098564	0.062622	0.2698	-2.3583	-2.8333	-2.7687	-3	-2.5229	-2.8729	-2.8646	-2.9437	-2.8354	-2.7021	-2.9354	-2.9854	-2.7104	-2.8729	-3.0354	-2.7438	-17.348	5.439	40.896	184.709	162.812	145.297	170.591	158.307	122.129	125.479	-17.519	-81.737	17.438	198.978	8.649	142.552	0.00031873	0.00030593	0.00019769	1391.5	1.2406e-06	7.0165e-06	1383.3	372.44	3.6268e-06	4.1707e-06	425.43	140.7	121.53	42.564	6.6744e-06	52.384	0.00054437	0.00055374	0.00015435	1392.8	6.0141e-06	6.0586e-06	1388.8	376.51	6.033e-06	6.0733e-06	429.94	143.65	124.75	43.174	6.033e-06	53.264	-130.328	-77.034	-62.389	-126.247	53.631	-20.466	-126.438	-122.051	53.642	35.346	-122.379	-118.183	-117.961	-113.063	-15.686	-113.822	-8191	255	
1573.834	1	1	0	0	0.29957	0.13321	0.19064	0.040259	0.15262	0.31021	0.20569	0.25771	0.25585	0.38087	0.097901	0.35493	0.086551	0.27346	0.065164	0.22639	-2.3333	-2.9625	-2.7271	-3.1813	-2.5792	-2.8708	-3.25	-2.7313	-2.8625	-2.7687	-2.6604	-2.8354	-2.8104	-2.9104	-2.7604	-2.6083	12.026	-95.048	-25.478	192.617	127.479	-121.492	195.897	110.231	13.173	-134.752	18.511	142.460	108.330	-108.620	77.779	-21.733	0.00032324	0.00015198	0.00019614	1386.6	6.9863e-06	5.121e-06	1380	372.01	1.9171e-06	3.2504e-06	425.24	140.5	122.28	42.293	1.9984e-06	52.433	0.00054737	0.00055428	0.00015501	1393.1	6.0843e-06	6.1289e-06	1390.2	376.35	6.1703e-06	6.1204e-06	429.91	143.74	125.2	43.094	6.097e-06	53.298	-125.755	6.352	-77.560	-126.423	8.255	17.817	-126.491	-122.129	-20.731	26.996	-122.587	-118.484	-117.919	-113.071	-118.193	-113.937	-8191	255	
1573.930	1	1	0	0	0.21998	0.25001	0.076859	0.31122	0.30446	0.19621	0.16243	0.26987	0.2087	0.096306	0.14963	0.058568	0.07792	0.04617	0.20461	0.21795	-2.3667	-2.6875	-2.6271	-3.0708	-2.5958	-2.8375	-3.2438	-2.7375	-2.9	-2.8563	-2.7562	-3.1833	-2.6042	-2.8542	-3.125	-2.7313	58.597	-60.886	109.902	177.015	-28.524	-132.683	62.689	141.910	-61.170	109.581	115.068	-81.069	181.659	-38.087	105.229	-43.480	0.00034965	0.0010318	9.7822e-05	1391.8	4.8466e-06	8.4574e-06	1385.2	373.64	3.215e-06	6.2109e-06	428.2	140.91	120.78	42.426	2.0902e-06	52.472	0.00054948	0.00056164	0.00015698	1395.5	6.1861e-06	6.2367e-06	1392	377.14	6.1762e-06	6.2073e-06	430.35	143.57	124.8	43.162	6.163e-06	53.313	-123.082	-96.199	-60.285	-126.431	79.024	20.626	-126.613	-121.998	-72.248	-9.421	-122.488	-118.345	-118.020	-113.111	37.560	-113.552	-8191	255	
1574.051	1	1	0	0	0.20309	0.16612	0.027524	0.44531	0.088377	0.052068	0.10425	0.18174	0.1899	0.11395	0.19428	0.083055	0.23033	0.17175	0.081414	0.18175	-2.4292	-2.7	-2.5458	-2.8354	-2.7625	-2.7354	-3.2313	-2.7625	-2.7146	-2.8729	-2.6937	-3.1396	-2.8521	-2.8125	-2.9292	-2.7542	164.474	18.281	110.294	-124.796	-94.365	191.463	-120.764	151.376	-113.623	-14.625	123.097	171.864	200.935	146.803	50.829	204.661	0.00032617	0.00019353	0.00012611	1386.9	1.9245e-06	8.8181e-06	1383.6	373.56	6.5849e-06	7.4564e-06	429.09	140.5	121.76	42.507	6.769e-06	52.201	0.00055746	0.00056589	0.00015577	1392.6	6.1641e-06	6.2267e-06	1392	377.06	6.2029e-06	6.2408e-06	430.75	143.69	124.9	43.099	6.2146e-06	53.262	-129.875	6.204	-54.991	-126.595	56.110	-8.676	-126.687	-122.027	-22.478	-14.997	-122.413	-118.459	-117.708	-112.941	7.814	-113.600	-8191	255	
1574.147	1	1	0	0	0.095035	0.11676	0.2515	0.081018	0.12418	0.11123	0.20598	0.18625	0.40277	0.1336	0.18545	0.11204	0.17274	0.50967	0.19729	0.16224	-2.2104	-2.875	-2.4604	-3.0187	-2.7146	-2.7479	-3.1542	-2.8354	-2.6437	-2.9896	-2.7562	-2.9562	-2.7938	-2.8	-2.8083	-2.9167	-76.717	28.948	-88.588	209.546	169.077	-8.362	155.149	151.941	96.771	138.953	132.943	35.470	-45.726	197.653	-58.089	115.527	0.00026534	0.00065247	0.00024626	1389.6	4.1391e-07	5.4424e-06	1384	372.5	2.6059e-06	3.6854e-06	428.01	140.93	121.29	42.363	3.8512e-06	52.163	0.00056024	0.00057374	0.00015872	1393.7	6.2523e-06	6.2131e-06	1391.8	376.82	6.214e-06	6.2055e-06	430.44	143.76	124.77	43.119	6.1834e-06	53.293	-120.741	-28.658	-52.701	-126.468	-65.598	-42.043	-126.633	-121.963	-22.252	22.941	-122.266	-118.305	-117.918	-112.901	-26.837	-113.500	-8191	255	
1574.243	1	1	0	0	0.11228	0.12224	0.078297	0.12415	0.31807	0.23937	0.19225	0.25691	0.10977	0.17482	0.26559	0.21653	0.085767	0.167	0.18956	0.17964	-2.2646	-2.6771	-2.6375	-2.8104	-2.6583	-2.6833	-3.0896	-2.8937	-2.7687	-3.0021	-2.7646	-2.725	-2.6813	-2.6729	-2.9646	-2.8125	-78.344	209.690	197.658	185.443	-44.920	-14.328	147.804	89.923	119.407	211.183	-121.573	216.321	214.763	41.756	129.695	138.581	0.0003333	0.00067638	0.0001934	1395.8	2.8577e-06	7.969e-06	1381.2	373.51	3.8719e-06	7.2997e-06	427.13	141.45	121.3	42.48	5.3955e-06	52.48	0.00056441	0.00057112	0.00015861	1396.1	6.2693e-06	6.2477e-06	1390.9	376.98	6.2216e-06	6.2564e-06	430.44	143.96	124.94	43.14	6.269e-06	53.362	-133.036	-51.287	-41.211	-126.692	-69.953	0.161	-126.618	-121.987	-9.354	36.336	-122.207	-118.264	-117.868	-112.957	-28.494	-113.682	-8191	255	
1574.315	1	1	0	0	0.11869	0.18713	0.092103	0.067381	0.063329	0.24566	0.129	0.076342	0.032679	0.30662	0.19027	0.18854	0.067901	0.20291	0.082746	0.16587	-2.1562	-2.85	-2.6646	-3.0021	-2.7146	-2.7854	-3.1042	-3.0729	-2.7979	-2.7479	-2.8937	-2.8333	-2.8104	-2.6979	-2.9813	-2.7146	54.247	40.084	177.159	208.198	149.463	175.166	165.439	121.214	172.801	162.048	82.271	149.083	144.522	185.510	90.766	194.093	0.00030834	0.00066564	0.0002348	1394.9	5.9367e-06	1.2711e-06	1386.3	371.99	5.7685e-06	5.8068e-06	424.47	140.82	120.54	42.482	6.7346e-06	52.417	0.00056024	0.00057706	0.00016092	1397.6	6.2578e-06	6.3099e-06	1394.5	377.01	6.2811e-06	6.3291e-06	430.2	143.87	125.12	43.141	6.2919e-06	53.345	-132.521	-47.359	-33.443	-126.482	-5.364	36.547	-126.745	-122.053	-20.249	12.854	-122.251	-118.066	-117.720	-113.377	18.974	-113.583	-8191	255	
1574.434	1	1	0	0	0.055421	0.083886	0.17136	0.06948	0.15012	0.071065	0.2048	0.30773	0.12013	0.11677	0.19007	0.1801	0.17651	0.24274	0.17564	0.21978	-2.3937	-2.8042	-2.7188	-2.7875	-2.9021	-2.5521	-3.075	-3.0479	-2.6625	-3.125	-2.8792	-2.9729	-2.8604	-2.7229	-2.9333	-2.8667	208.023	-55.729	-50.151	143.213	73.532	62.841	169.455	158.890	-107.630	152.866	105.832	-104.900	179.835	187.509	202.914	202.417	0.00034465	0.00034623	0.00022662	1387.7	3.4686e-06	3.7168e-06	1387.6	372.46	1.6363e-06	6.6776e-06	426.87	140.84	122.35	42.406	3.5253e-06	52.237	0.00056829	0.00057438	0.00016137	1395.8	6.3468e-06	6.3198e-06	1394	376.99	6.3086e-06	6.2887e-06	430.41	143.84	125.11	43.123	6.3533e-06	53.313	-136.774	-82.968	-51.810	-126.662	60.048	-38.406	-126.783	-121.908	19.983	5.210	-122.499	-118.348	-117.923	-113.057	40.641	-113.916	-8191	255	
1574.530	1	1	0	0	0.18871	0.16861	0.087765	0.20815	0.083173	0.12436	0.159	0.30173	0.035149	0.21886	0.039456	0.10884	0.11862	0.35564	0.18415	0.12706	-2.0938	-2.7146	-2.7313	-2.8792	-3.0896	-2.6604	-3.0104	-2.9125	-2.5229	-2.9354	-2.9625	-2.9583	-2.9167	-2.7542	-2.7792	-2.8917	13.855	207.976	215.738	-133.191	15.858	149.134	132.669	207.121	205.035	-25.191	206.745	-124.917	82.064	-101.614	9.995	112.861	0.00032363	0.00047811	0.00023725	1395.8	6.4085e-06	4.5999e-06	1385.2	372.49	4.1087e-06	3.7609e-06	429.66	140.7	121.29	42.349	3.6848e-06	52.473	0.000569	0.00058079	0.00016064	1396	6.2722e-06	6.3178e-06	1393.5	377.11	6.3222e-06	6.3366e-06	431.12	143.77	125.3	43.119	6.272e-06	53.381	-117.781	-106.555	-37.771	-126.597	-55.160	48.468	-126.590	-121.991	-15.122	-36.127	-122.288	-118.276	-117.890	-113.068	-17.190	-113.578	-8191	255	
1574.626	1	1	0	0	0.20393	0.13453	0.26227	0.17138	0.10872	0.027927	0.19262	0.09765	0.089878	0.098673	0.18512	0.11053	0.11582	0.33264	0.15718	0.099539	-2.1771	-2.7792	-2.8042	-2.8729	-3.0938	-2.6292	-2.9542	-2.9604	-2.7042	-2.7417	-2.7604	-2.8917	-2.9688	-2.7021	-2.7208	-3.0563	-98.789	44.814	129.038	185.152	219.948	-131.735	182.125	159.319	-116.746	-106.375	160.867	76.695	161.986	-129.708	30.232	133.910	0.00035646	0.00035638	0.00013014	1390.9	9.1197e-07	4.9589e-06	1379.5	373.05	1.0395e-06	5.8293e-06	429.64	140.68	120.8	42.399	2.6586e-06	52.215	0.00055751	0.0005744	0.00016087	1395.5	6.2442e-06	6.2939e-06	1393.8	376.98	6.2632e-06	6.3636e-06	430.83	143.79	124.98	43.171	6.3207e-06	53.262	-125.272	154.304	-88.286	-126.567	153.161	14.911	-126.574	-121.888	-57.427	21.925	-122.404	-118.133	-117.475	-113.066	-6.659	-113.544	-8191	255	
1574.747	1	1	0	0	0.079025	0.08574	0.2364	0.2866	0.21851	0.052165	0.30605	0.13969	0.25688	0.091225	0.20234	0.40757	0.21663	0.22933	0.1768	0.26414	-2.0792	-2.9313	-2.8125	-2.7958	-2.8167	-2.7146	-2.8271	-2.9667	-2.5646	-3.0187	-2.9208	-2.5875	-2.9792	-2.7708	-2.6729	-3.0375	-59.325	-71.666	51.650	170.768	-40.330	-132.001	187.873	125.097	57.654	-103.615	21.967	-137.677	-75.354	-107.286	199.193	193.542	0.00031778	0.00036639	0.00016687	1392.1	5.4803e-06	2.5483e-06	1383.9	371.8	6.3543e-06	6.7032e-06	427.22	140.84	121.11	42.387	3.8718e-06	52.347	0.00056135	0.00058379	0.0001617	1396.5	6.3377e-06	6.3024e-06	1392.5	376.71	6.3431e-06	6.2807e-06	430.72	143.66	125.23	43.161	6.2698e-06	53.253	-127.394	-75.485	24.372	-126.571	-19.357	62.753	-126.691	-121.926	-48.488	-15.580	-122.469	-118.273	-117.938	-113.189	-10.644	-113.757	-8191	255	
1574.843	1	1	0	0	0.041292	0.1729	0.23107	0.10355	0.19099	0.058169	0.24579	0.34688	0.14595	0.10035	0.24056	0.23719	0.16544	0.17131	0.26909	0.12531	-2.1354	-2.9229	-2.8167	-2.6937	-3.1104	-2.775	-2.6896	-2.9125	-2.5396	-2.85	-3.1104	-2.6833	-2.9771	-2.9542	-2.6771	-3.1562	-74.189	199.522	-122.462	125.904	1.032	46.061	207.457	202.854	-41.512	147.453	135.101	186.220	39.746	109.590	219.125	51.472	0.00032575	0.00061084	0.00023329	1389.9	1.1252e-06	5.556e-06	1382.1	373.15	6.8328e-06	4.8246e-08	426.63	141	120.69	42.379	3.9859e-06	52.152	0.00056946	0.00058067	0.00016268	1395.6	6.3055e-06	6.3659e-06	1393.5	377.42	6.3304e-06	6.384e-06	431.05	143.79	125.13	43.102	6.3457e-06	53.37	-123.984	-77.125	-70.089	-126.687	-59.621	38.533	-126.684	-121.977	-10.421	-126.773	-122.538	-118.463	-117.640	-113.044	-49.082	-113.965	-8191	255	
1574.939	1	1	0	0	0.033275	0.54555	0.041469	0.3132	0.16333	0.15218	0.26926	0.27384	0.24247	0.19666	0.26363	0.046965	0.22601	0.12619	0.028847	0.23931	-2.2583	-2.6917	-2.8333	-2.7146	-2.7958	-2.8083	-2.7625	-3.1562	-2.7188	-2.7438	-2.8333	-2.8229	-2.8979	-2.8354	-2.5771	-2.8063	133.890	194.796	150.302	164.533	86.472	129.787	186.472	201.435	-37.107	25.597	156.611	207.993	180.514	135.245	32.561	59.648	0.0003308	0.00069875	0.00019571	1391.7	4.0494e-06	5.0095e-06	1380	371.25	7.0376e-06	4.9898e-06	425.91	140.31	120.55	42.446	6.2699e-06	52.325	0.00056811	0.00058107	0.00016179	1396	6.3058e-06	6.3916e-06	1392.5	377	6.2563e-06	6.3849e-06	430.06	143.59	124.92	43.159	6.3415e-06	53.401	-128.842	-47.530	-121.890	-126.373	-22.074	27.005	-126.697	-122.118	-49.160	40.169	-122.549	-118.324	-117.540	-113.038	-24.892	-113.481	-8191	255	
1575.035	1	1	0	0	0.2025	0.041628	0.2629	0.14834	0.15132	0.12337	0.05612	0.1777	0.21188	0.30361	0.25279	0.11094	0.18072	0.28154	0.2288	0.17926	-2.2375	-2.5479	-2.9771	-2.8271	-2.6333	-2.7188	-2.7229	-2.9333	-2.7292	-2.7	-3.0479	-2.7146	-2.9313	-2.7583	-2.5187	-2.9188	67.324	-93.104	-23.545	121.797	213.139	126.410	94.125	153.375	173.048	-108.455	-66.923	135.331	-57.408	157.830	-27.257	197.606	0.00033935	0.00062557	0.00013323	1393.3	7.0179e-06	9.4705e-06	1382.9	374.03	1.9517e-06	2.1923e-07	428.65	141.29	121.52	42.355	2.8217e-06	52.339	0.00056519	0.00058171	0.00016111	1395.8	6.3704e-06	6.2988e-06	1394.3	377.77	6.3002e-06	6.2971e-06	431.38	143.92	125.06	43.129	6.2329e-06	53.294	-128.189	-37.946	-10.072	-126.440	-22.563	-10.980	-126.509	-122.030	-48.502	154.854	-122.647	-118.348	-117.800	-112.840	8.580	-113.591	-8191	255	
1575.131	1	1	0	0	0.38482	0.28154	0.28859	0.1104	0.12718	0.094237	0.15717	0.12395	0.11281	0.25051	0.23869	0.14351	0.075876	0.27406	0.16458	0.12565	-2.1854	-2.7979	-2.8896	-2.7771	-2.7438	-2.9688	-2.5938	-3.025	-2.7583	-2.9042	-2.9729	-2.725	-2.7104	-2.9646	-2.7146	-3.0167	-94.470	3.587	35.955	-138.502	112.933	156.405	135.889	-59.477	34.612	180.154	155.778	201.576	209.409	91.806	65.074	187.432	0.00039253	0.00070249	5.9983e-05	1389.8	2.1425e-06	3.1152e-06	1381.7	372.65	6.7184e-06	3.8064e-06	426.02	141.38	121.95	42.335	3.9755e-06	52.544	0.00056186	0.00056527	0.0001578	1396.5	6.2598e-06	6.2259e-06	1393.4	376.97	6.2675e-06	6.2433e-06	430.66	143.98	125.12	43.131	6.214e-06	53.417	-133.988	-74.349	-71.546	-126.690	22.761	-26.013	-126.490	-121.949	-88.332	88.549	-122.482	-118.464	-117.792	-112.989	-13.253	-113.600	-8191	255	
1575.228	1	1	0	0	0.11391	0.18068	0.061036	0.09666	0.19415	0.046801	0.54977	0.14676	0.14029	0.25017	0.085132	0.13436	0.19038	0.38076	0.23914	0.1782	-2.375	-2.5167	-2.8229	-2.8042	-2.8375	-2.9313	-2.7417	-2.9792	-2.8146	-2.975	-2.9667	-2.8646	-2.7042	-2.9437	-2.5458	-3.2646	143.493	216.536	157.454	151.879	-73.625	181.606	166.691	173.829	218.526	213.928	182.113	174.519	-80.581	191.105	67.878	114.394	0.00033557	0.00022523	3.6713e-05	1396.4	5.5845e-06	5.7841e-06	1382	372.86	1.6897e-06	4.0938e-06	427.86	141.03	121.2	42.416	6.8716e-06	52.405	0.00056423	0.00057931	0.00015901	1396.1	6.2938e-06	6.31e-06	1395.4	377.33	6.2764e-06	6.3082e-06	431.47	143.89	125.15	43.147	6.2439e-06	53.364	-136.156	-53.398	134.774	-126.440	-39.509	-8.682	-126.632	-121.908	21.083	-9.461	-122.299	-118.403	-117.406	-112.999	6.435	-113.715	-8191	255	
1575.346	1	1	0	0	0.056272	0.26826	0.18656	0.30727	0.14031	0.04177	0.40833	0.153	0.078638	0.071219	0.22641	0.035987	0.19377	0.20809	0.14338	0.29689	-2.4396	-2.6646	-2.8333	-2.8875	-2.8063	-2.9083	-2.625	-3.1521	-2.8542	-2.4813	-2.9667	-2.8396	-2.6437	-2.9146	-2.8021	-2.8271	183.257	158.590	195.369	184.764	23.081	84.005	147.734	219.854	160.610	179.139	87.671	99.733	-115.001	151.951	-57.308	181.995	0.00031437	0.00065829	0.00016495	1392.3	4.8073e-06	3.7491e-06	1385.9	373.17	3.9687e-06	4.5211e-06	426.39	141.58	121.95	42.499	4.9118e-06	52.406	0.00056783	0.0005751	0.00016149	1395.6	6.2785e-06	6.3194e-06	1394.2	377.41	6.3392e-06	6.2322e-06	431.11	144.23	125.31	43.188	6.2556e-06	53.434	-114.392	-71.995	-16.401	-126.542	44.300	30.266	-126.635	-122.049	-13.296	66.843	-122.418	-118.370	-117.872	-113.062	-14.544	-113.532	-8191	255	
1575.443	1	1	0	0	0.013756	0.32335	0.14989	0.27023	0.10083	0.13264	0.35396	0.33457	0.23087	0.14289	0.30187	0.099075	0.15168	0.073361	0.057947	0.13603	-2.5021	-2.5083	-2.7667	-3.075	-2.4896	-2.8167	-3.1063	-2.6917	-2.8688	-2.6729	-2.9021	-2.8354	-2.7729	-3.0521	-2.7021	-2.7313	66.317	191.577	-129.568	184.253	110.531	-134.285	163.184	155.702	-21.977	-49.307	-129.763	199.488	201.492	-57.864	122.424	-89.054	0.00033782	0.00072066	0.00016197	1394.5	4.2982e-06	4.8043e-06	1381	373.46	7.2302e-06	5.8213e-06	427.42	140.7	121.45	42.446	5.5967e-06	52.604	0.0005711	0.0005745	0.00016066	1396.4	6.3195e-06	6.3228e-06	1393.2	377.78	6.2715e-06	6.2817e-06	431.43	143.9	125.14	43.193	6.2293e-06	53.417	-128.191	-46.014	-105.686	-126.681	12.784	10.306	-126.644	-121.913	-54.394	7.245	-122.523	-118.557	-117.565	-113.004	31.589	-113.585	-8191	255	
1575.539	1	1	0	0	0.2064	0.11207	0.11646	0.43035	0.050426	0.11272	0.063598	0.060595	0.21203	0.14982	0.17456	0.17007	0.1655	0.23982	0.18663	0.28751	-2.4229	-2.4229	-2.8583	-2.8896	-2.6833	-2.9292	-2.9542	-2.8625	-3.0292	-2.5438	-3.1354	-3.0271	-2.7271	-2.8958	-2.5917	-2.7792	-113.723	6.519	10.103	170.390	109.891	181.453	66.153	145.456	-113.912	58.031	154.285	173.811	163.639	-98.087	-10.639	113.236	0.00032269	0.00072827	0.00021531	1392.3	3.8553e-06	3.779e-06	1381.5	373.78	3.2397e-06	6.9403e-06	428.79	141.11	121.38	42.485	5.9605e-06	52.175	0.00056125	0.00057746	0.00016088	1396.1	6.2453e-06	6.3573e-06	1392.5	377.56	6.2949e-06	6.2832e-06	431.47	143.95	124.95	43.203	6.2531e-06	53.364	-124.801	-78.022	-67.337	-126.557	-71.825	-55.313	-126.868	-121.999	37.909	-15.264	-122.307	-118.363	-117.843	-113.258	-3.093	-113.603	-8191	255	
1575.610	1	1	0	0	0.37651	0.107	0.20388	0.047708	0.18181	0.31961	0.24327	0.13589	0.11845	0.14977	0.18369	0.16581	0.12133	0.065367	0.19649	0.076424	-2.5042	-2.5042	-2.7604	-3.0604	-2.6333	-3.0167	-2.8458	-2.8917	-3.0854	-2.5146	-3.075	-2.9333	-2.7833	-3.0417	-2.8958	-2.7104	-114.759	30.241	29.027	165.373	63.165	74.483	185.093	211.401	190.897	148.080	174.342	138.421	211.430	-50.015	205.519	150.275	0.00039928	0.00019229	0.00026105	1392.2	4.7245e-06	5.2814e-06	1381.7	373.5	1.9587e-06	6.2795e-07	427.68	140.55	120.59	42.43	6.8546e-06	52.203	0.0005606	0.00057939	0.00016045	1397	6.2814e-06	6.3497e-06	1393	377.38	6.3262e-06	6.3636e-06	431.48	143.82	125.07	43.186	6.3029e-06	53.322	-124.863	-47.228	-100.624	-126.624	-50.998	-27.834	-126.702	-122.121	-17.342	44.606	-122.393	-118.199	-118.016	-113.123	-41.696	-113.713	-8191	255	
1575.707	1	1	0	0	0.16237	0.19639	0.3333	0.14745	0.049239	0.026281	0.29834	0.18463	0.090284	0.041935	0.054296	0.35773	0.14347	0.099819	0.11525	0.18021	-2.625	-2.7771	-2.6208	-3.1479	-2.5938	-2.8146	-3.0583	-2.6937	-2.9604	-2.8104	-2.8854	-3.0333	-2.7	-2.9125	-3.0333	-2.5563	57.850	-114.719	55.090	-52.009	-41.259	-129.817	147.136	219.757	110.830	40.138	57.073	141.803	-8.747	-74.332	35.490	-81.043	0.00029751	0.00032098	0.00027629	1394.8	5.4594e-06	2.9883e-06	1386	373.16	2.3695e-06	3.1483e-06	427.27	140.8	121.96	42.31	1.2706e-06	52.215	0.00056587	0.00057431	0.00016114	1397	6.2231e-06	6.3229e-06	1392.9	377.17	6.2875e-06	6.3221e-06	430.31	143.68	124.97	43.094	6.17e-06	53.294	-132.131	-10.960	-21.840	-126.514	29.615	-4.088	-126.682	-121.767	29.306	-99.562	-122.221	-118.358	-117.628	-113.042	-56.352	-113.766	-8191	255	
1575.827	1	1	0	0	0.12141	0.10162	0.27188	0.1785	0.12201	0.11742	0.14291	0.3109	0.061856	0.22607	0.16148	0.16496	0.17091	0.054808	0.14462	0.1225	-2.4625	-2.4729	-2.625	-3.0042	-2.5604	-2.9271	-2.875	-2.5687	-3.0083	-2.7292	-2.8	-3.0979	-2.7104	-2.9229	-2.9729	-2.7646	-6.502	122.426	100.414	-130.451	155.010	-93.849	71.564	174.914	-97.097	-125.145	-121.141	81.419	-122.489	187.072	116.471	146.417	0.0003654	0.00053931	0.00017307	1390.4	3.3094e-06	4.721e-06	1381	372.43	2.8164e-06	1.035e-05	428.52	140.96	121.44	42.437	4.2501e-06	52.117	0.00056563	0.00056998	0.00015934	1394.5	6.2488e-06	6.1749e-06	1391	376.7	6.1999e-06	6.1882e-06	430.78	143.66	124.8	43.155	6.0646e-06	53.256	-132.537	-62.492	-98.684	-126.598	6.885	39.392	-126.639	-122.137	1.372	18.925	-122.516	-118.004	-117.845	-112.944	-33.024	-113.445	-8191	255	
1575.923	1	1	0	0	0.31542	0.10079	0.11083	0.25007	0.13869	0.12043	0.24622	0.19054	0.075113	0.27403	0.18053	0.045137	0.053116	0.1714	0.17205	0.19181	-2.3979	-2.5667	-2.6104	-2.9417	-2.6646	-2.5687	-3.2333	-2.8396	-2.8438	-2.8438	-2.5583	-3.2083	-2.8167	-2.8333	-2.9396	-2.6937	90.619	25.273	42.797	-138.235	-31.506	17.498	159.673	150.901	-44.502	117.061	-128.583	105.718	-8.555	-3.851	-27.808	179.411	0.00032541	0.00082175	7.7813e-05	1389.3	1.8688e-06	6.0124e-06	1382.4	371.95	3.6157e-06	4.1051e-06	425.77	140.87	121.06	42.306	1.1317e-06	52.225	0.00055233	0.00056119	0.00015506	1392.3	6.1121e-06	6.1134e-06	1388.9	375.94	6.0716e-06	6.1019e-06	429.25	143.72	124.61	43.023	6.0452e-06	53.185	-130.626	-52.217	-51.435	-126.535	18.628	36.258	-126.757	-122.098	-29.482	-1.866	-122.273	-118.237	-118.020	-112.930	-14.021	-113.644	-8191	255	
1576.019	1	1	0	0	0.25796	0.16728	0.053651	0.54837	0.095653	0.10343	0.30706	0.33733	0.12361	0.14937	0.19344	0.039457	0.26117	0.26466	0.13452	0.13688	-2.25	-2.7417	-2.575	-2.9667	-2.8271	-2.5563	-3.2062	-2.9458	-3.0021	-2.9146	-2.9062	-3	-2.8563	-2.8771	-3.0583	-2.775	106.621	-118.233	149.390	153.992	155.632	-60.917	143.485	201.872	146.707	-56.850	-121.917	-121.566	171.661	193.937	196.058	-34.571	0.00037934	0.00028445	0.00021508	1389.5	2.8079e-06	3.8734e-06	1376.1	371.61	4.1391e-06	1.6815e-06	425.66	140.31	121.2	42.27	2.1617e-06	52.166	0.00054978	0.00055582	0.00015426	1391.7	6.0809e-06	6.0491e-06	1386.2	375.5	6.017e-06	6.0312e-06	428.79	143.2	124.03	43.031	5.9815e-06	53.105	-128.983	-29.199	-19.581	-126.460	47.527	16.970	-126.694	-122.149	46.018	27.635	-122.501	-118.310	-117.953	-113.112	173.369	-113.660	-8191	255	
1576.140	1	1	0	0	0.17798	0.056598	0.090404	0.11561	0.12581	0.20652	0.25615	0.26955	0.26328	0.049453	0.034001	0.22229	0.18579	0.038913	0.10674	0.17169	-2.3292	-2.8208	-2.6917	-3.0917	-2.8167	-2.6083	-3.1042	-2.6813	-2.8292	-3.0979	-2.6333	-2.85	-2.7292	-2.8667	-2.9521	-2.7646	72.825	-117.553	-3.081	-71.715	97.716	-29.265	154.719	142.016	7.557	131.480	60.463	187.587	137.833	184.346	-113.221	-111.186	0.0002849	0.00028945	0.00011926	1382.3	2.7467e-06	5.7889e-06	1373.8	369.73	4.7639e-06	3.3235e-06	425.05	140.27	120.69	42.277	4.2208e-06	51.772	0.00053896	0.00053986	0.00015117	1386.6	5.9438e-06	5.9215e-06	1383.4	374.44	5.8754e-06	5.772e-06	427.62	142.85	123.79	42.883	5.7167e-06	52.844	-123.273	-82.638	-65.709	-126.551	-50.944	10.914	-126.689	-122.030	28.667	-91.679	-122.183	-118.179	-117.783	-113.112	-68.674	-113.837	-8191	255	
1576.212	1	1	0	0	0.21338	0.28615	0.10088	0.25484	0.13828	0.05211	0.20693	0.16618	0.056902	0.15712	0.1022	0.23812	0.11119	0.13128	0.036866	0.092479	-2.35	-2.8667	-2.6271	-2.9083	-2.8812	-2.5583	-3.1604	-2.8896	-2.4917	-3.0333	-2.6354	-2.9479	-2.9062	-2.5854	-2.8688	-2.8438	102.510	197.848	127.380	161.940	172.504	-53.058	109.654	178.349	166.175	125.904	-139.744	-123.963	9.891	-110.980	171.691	184.906	0.00031123	0.00029504	5.9478e-05	1378.2	2.874e-06	5.5819e-06	1363.1	369.46	1.4847e-06	6.3348e-06	424.66	139.17	119.71	42.177	5.0695e-06	52.359	0.00051543	0.0005165	0.00014436	1379.9	5.6906e-06	5.6691e-06	1374.8	372.99	5.7492e-06	5.7109e-06	426.29	142.5	123.48	42.8	5.7593e-06	52.925	-132.794	-106.743	-107.120	-126.480	-23.998	19.328	-126.638	-121.997	59.052	-8.270	-122.470	-118.351	-117.738	-113.091	29.603	-113.609	-8191	255	
1576.308	1	1	0	0	0.18077	0.11082	0.15684	0.097677	0.22073	0.13545	0.22898	0.36396	0.12589	0.3062	0.20651	0.0080217	0.32179	0.066464	0.13274	0.17989	-2.1292	-2.7729	-2.65	-2.9708	-2.8333	-2.7333	-3.0292	-2.8583	-2.8271	-2.8937	-2.7062	-3.0229	-2.8229	-2.75	-2.8229	-2.6937	-107.431	1.081	37.215	156.842	56.789	42.524	130.785	159.847	199.644	44.626	106.493	-117.518	155.348	184.009	-97.534	-139.103	0.00030312	0.00093894	0.00013065	1374.2	4.0485e-06	7.3251e-06	1365.7	369.65	4.8585e-06	3.5692e-06	423.23	139.11	120.23	42.153	3.5987e-06	51.826	0.00051699	0.00052046	0.00014712	1375.9	5.6973e-06	5.6375e-06	1374.3	372.84	5.6361e-06	5.6944e-06	425.05	142.29	122.99	42.632	5.6453e-06	52.691	-135.412	-80.051	-53.442	-126.462	4.370	28.458	-126.595	-121.808	14.686	-17.945	-122.350	-118.230	-117.661	-112.958	36.195	-113.462	-8191	255	
1576.429	1	1	0	0	0.21542	0.2448	0.023119	0.26532	0.072618	0.060253	0.25767	0.14475	0.11992	0.091254	0.20437	0.27064	0.29513	0.19079	0.12801	0.31957	-2.2146	-2.7771	-2.7229	-3.1521	-3.2042	-2.5833	-3.2354	-3.075	-2.5958	-3.075	-2.7562	-2.8688	-2.9062	-2.85	-2.8187	-2.8688	154.083	-33.907	-66.559	172.962	123.957	-91.022	124.757	-62.993	-51.680	197.155	-26.185	124.950	2.509	46.317	170.123	122.997	0.00031309	0.00099084	0.00023921	1369.9	1.6557e-06	6.3216e-06	1362.9	369.09	3.8197e-06	3.0619e-06	421.81	138.72	119.48	41.915	2.9474e-07	52.076	0.00050437	0.00051441	0.00014119	1372.3	5.5215e-06	5.503e-06	1370.2	371.96	5.5142e-06	5.482e-06	423.63	141.7	122.44	42.544	5.4932e-06	52.603	-124.926	-64.804	-46.582	-126.465	51.791	16.477	-126.617	-122.158	3.365	-17.029	-122.385	-118.075	-117.429	-112.746	-36.317	-113.602	-8191	255	
1576.523	1	1	0	0	0.15328	0.14037	0.13224	0.10343	0.18751	0.02714	0.12832	0.13553	0.12433	0.043726	0.25092	0.11257	0.18144	0.089519	0.11035	0.095959	-2.1417	-2.8479	-2.6667	-2.8208	-2.9208	-2.6604	-3.1188	-2.9333	-2.6146	-3.0604	-2.8292	-2.7021	-3.1312	-2.8208	-2.9	-2.8542	150.319	-37.264	-63.000	184.150	-107.341	164.075	184.101	91.031	-4.472	137.819	-104.105	175.395	-97.234	164.520	48.940	-135.278	0.00032436	0.0003627	7.8835e-05	1367.1	3.4556e-06	3.1401e-06	1360	367.87	3.7537e-06	3.7956e-06	421.15	138.91	119.54	41.828	3.9044e-06	51.677	0.0004891	0.00049768	0.00013978	1365.5	5.4041e-06	5.4052e-06	1363.5	370.72	5.3361e-06	5.3876e-06	423	141.51	122.1	42.412	5.3518e-06	52.351	-132.519	-41.189	-19.580	-126.565	-30.740	-75.398	-126.650	-121.944	-53.220	-46.997	-122.320	-118.110	-117.637	-112.957	-14.380	-113.467	-8191	255	
1576.619	1	1	0	0	0.074113	0.19417	0.1844	0.28488	0.10332	0.074661	0.1574	0.2525	0.36405	0.20773	0.26647	0.16701	0.20823	0.16523	0.18863	0.13393	-2.2125	-2.9167	-2.6792	-2.9104	-3.1188	-2.6854	-2.7479	-3.0167	-2.4146	-3.0708	-2.8667	-2.7917	-3.075	-2.5604	-2.8833	-3.1104	93.877	80.248	38.223	147.681	80.930	162.964	157.537	207.699	172.543	-81.560	188.093	-67.195	6.808	156.690	-123.275	-22.401	0.00029365	0.00059453	0.0001779	1358.4	4.7485e-06	5.1886e-06	1353.9	367.35	1.7021e-06	6.2533e-06	421.74	138.99	119.83	41.745	3.1122e-06	51.902	0.00047893	0.00048794	0.00013701	1359.9	5.3728e-06	5.3555e-06	1361.4	370.2	5.3158e-06	5.3863e-06	421.58	141.41	122.29	42.323	5.3369e-06	52.453	-130.615	-58.999	8.230	-126.217	-21.732	18.049	-126.498	-121.733	16.582	6.222	-122.484	-118.225	-118.091	-113.000	36.478	-113.512	-8191	255	
1576.715	1	1	0	0	0.15461	0.11052	0.2574	0.3306	0.19305	0.15395	0.32783	0.1053	0.075217	0.32727	0.19551	0.28212	0.13193	0.1368	0.16618	0.050091	-2.2	-2.9688	-2.7771	-2.75	-2.8708	-2.7229	-2.7521	-3.0812	-2.4667	-2.8958	-2.7812	-2.7125	-3.0729	-2.9	-2.6146	-2.8771	-98.795	-74.031	-139.609	178.166	-79.555	28.207	200.105	185.235	86.756	-92.862	30.270	125.989	-110.425	140.375	-14.467	182.848	0.00030791	0.00054495	0.00018794	1360.8	3.0848e-06	8.6201e-06	1354.1	366.62	5.8807e-06	7.5832e-06	421.02	138.41	119.85	41.801	5.6301e-06	51.621	0.00048492	0.00049213	0.00013628	1364	5.3852e-06	5.3804e-06	1362.2	369.74	5.3557e-06	5.4158e-06	422.49	141.05	122.23	42.377	5.3704e-06	52.376	-126.344	-91.725	-28.481	-126.419	-66.842	-1.802	-126.452	-122.040	-19.156	-2.924	-122.387	-118.310	-118.097	-113.092	26.936	-113.362	-8191	255	
1576.836	1	1	0	0	0.076959	0.31802	0.1397	0.24561	0.046477	0.13487	0.16692	0.37954	0.17346	0.13975	0.2104	0.21953	0.060222	0.13452	0.27333	0.02411	-1.95	-2.7771	-2.8604	-2.8292	-2.9813	-2.775	-2.9417	-2.9583	-2.5354	-2.9021	-2.9	-2.5854	-2.9021	-2.6271	-2.7125	-3.0604	-23.500	-101.961	0.677	108.156	39.896	173.244	140.248	126.759	198.742	90.423	180.483	-58.964	148.916	135.107	99.221	100.120	0.00026857	0.00036799	0.0002118	1362.3	3.9978e-06	5.2682e-06	1355.2	365.66	5.7436e-06	7.2841e-07	420.46	139.13	119.02	41.893	2.8163e-06	51.813	0.0004894	0.0004942	0.00013608	1363.3	5.4365e-06	5.3461e-06	1362.4	369.69	5.4146e-06	5.4113e-06	422.44	141.52	122.27	42.39	5.3281e-06	52.485	-126.382	-101.535	-74.284	-126.427	16.212	0.040	-126.511	-122.008	-46.256	104.666	-122.150	-118.235	-117.477	-113.011	-53.327	-113.521	-8191	255	
1576.908	1	1	0	0	0.19942	0.061167	0.10597	0.25098	0.18889	0.16749	0.4446	0.089924	0.071713	0.19293	0.16356	0.082605	0.1907	0.23061	0.13589	0.27834	-2.1542	-2.6521	-2.8771	-2.8729	-3.0104	-2.6958	-2.6792	-3.1	-2.6813	-2.7521	-3.0625	-2.5687	-2.8771	-2.7667	-2.4833	-3.1229	14.987	175.308	70.168	206.277	126.383	45.418	163.735	-104.207	-8.434	180.156	91.662	148.014	86.808	-73.434	151.232	205.805	0.00033096	0.00051978	9.8151e-05	1365.4	5.2025e-06	5.0076e-06	1357.5	367.2	4.8189e-06	5.8395e-06	419.69	138.92	120.04	41.632	1.4341e-06	51.814	0.0004849	0.00049083	0.00013497	1364.6	5.4023e-06	5.3434e-06	1362.7	369.74	5.3281e-06	5.3777e-06	421.99	141.27	122.43	42.305	5.3067e-06	52.406	-133.883	-37.429	-25.415	-126.474	-17.616	-7.305	-126.534	-122.023	-22.111	-10.631	-122.481	-118.528	-117.392	-113.090	-1.898	-113.381	-8191	255	
1577.028	1	1	0	0	0.046131	0.4367	0.03032	0.24835	0.12402	0.15976	0.40187	0.28652	0.1713	0.10911	0.023573	0.10109	0.05704	0.184	0.24061	0.0725	-2.2188	-2.6125	-2.9313	-2.7188	-2.8917	-2.7354	-2.9354	-2.9313	-2.7979	-2.6562	-3.0979	-2.6813	-2.8208	-2.8479	-2.5875	-2.9708	70.829	83.605	-128.874	190.858	-120.808	160.457	213.586	110.195	-25.716	4.673	100.166	125.538	-91.817	161.020	84.554	-120.829	0.00029386	0.0002614	2.9518e-05	1359	3.0253e-06	4.7825e-06	1356.3	367.55	1.23e-06	3.5368e-06	419.34	138.67	119.67	42.028	9.5039e-07	51.677	0.00049	0.00048623	0.00013714	1361.9	5.447e-06	5.397e-06	1361.6	369.72	5.4369e-06	5.4462e-06	421.52	141.13	122.3	42.524	5.4327e-06	52.489	-127.248	-12.325	-20.951	-126.515	-17.518	49.272	-126.599	-121.862	-78.189	27.672	-122.264	-118.162	-117.684	-112.935	63.619	-113.546	-8191	255	
1577.124	1	1	0	0	0.11613	0.33255	0.13533	0.35228	0.12647	0.10508	0.24634	0.15164	0.16621	0.21289	0.23301	0.13139	0.16528	0.12774	0.075763	0.035363	-2.3125	-2.5625	-2.8979	-2.8604	-2.8833	-2.7833	-2.8063	-2.9646	-2.8458	-2.5833	-2.9292	-2.6063	-2.9146	-2.825	-2.5229	-3.0958	73.343	-104.212	-25.901	153.593	142.427	168.512	151.487	181.251	168.727	85.102	-129.776	168.532	115.727	-58.210	35.181	100.197	0.00027347	0.00045611	0.00019142	1362.3	2.8581e-06	3.4294e-06	1357.9	365.88	5.93e-06	2.0182e-06	420.56	138.93	119.79	41.814	4.5719e-06	51.492	0.00049372	0.00049818	0.00013785	1361.4	5.4986e-06	5.5002e-06	1362.5	369.58	5.4499e-06	5.5081e-06	422.49	141.55	122.51	42.421	5.4633e-06	52.433	-133.046	-44.916	-38.604	-126.437	-83.674	59.733	-126.605	-121.593	7.229	-12.501	-122.296	-118.344	-117.697	-113.079	9.296	-113.462	-8191	255	
1577.220	1	1	0	0	0.10769	0.38794	0.17711	0.052889	0.27868	0.11795	0.37355	0.41636	0.13694	0.11441	0.07704	0.14296	0.25707	0.097284	0.23729	0.27646	-2.25	-2.4792	-2.8479	-3.0042	-2.8312	-2.7438	-2.8104	-2.9896	-2.7375	-2.5604	-3.0375	-2.8479	-2.6688	-3.0438	-2.6188	-2.8667	28.552	60.004	41.351	172.044	21.023	193.409	123.363	175.385	62.154	-105.331	181.139	-109.371	-99.883	189.896	88.224	133.328	0.00032533	0.00059775	0.00018571	1362.2	4.5926e-06	2.6034e-06	1358.3	366.75	3.2146e-06	8.4816e-06	422.84	139.39	119.67	41.975	6.3129e-06	51.801	0.00049802	0.00049679	0.00013982	1366.4	5.4595e-06	5.4609e-06	1365.3	370.05	5.5088e-06	5.4456e-06	423.26	141.73	122.56	42.486	5.4729e-06	52.53	-126.163	-83.070	-52.587	-126.532	-72.820	-39.965	-126.666	-121.789	7.125	-39.462	-122.306	-118.512	-117.672	-113.199	32.755	-113.540	-8191	255	
1577.315	1	1	0	0	0.12504	0.1214	0.15694	0.16947	0.15043	0.034437	0.036171	0.30856	0.21481	0.12964	0.23088	0.23491	0.17317	0.19159	0.12681	0.063699	-2.1229	-2.7333	-2.8167	-2.8896	-2.5875	-2.8604	-2.7583	-2.9396	-2.8042	-2.5208	-2.9562	-2.6312	-2.4833	-3.0083	-2.7042	-2.8146	75.017	144.903	-32.065	184.573	-93.542	71.911	-106.963	180.034	-89.299	15.252	105.925	207.679	201.531	161.026	67.806	131.589	0.00033885	0.00074323	0.00017668	1367.9	4.4823e-06	4.3111e-06	1360.8	366.04	2.5092e-06	4.3463e-06	421.39	139.46	119.25	41.916	4.1968e-06	51.763	0.00050092	0.00050102	0.00014278	1370.1	5.5361e-06	5.5508e-06	1368.1	370.46	5.556e-06	5.5124e-06	423.2	141.72	122.62	42.516	5.5885e-06	52.588	-129.227	-87.972	-67.742	-126.475	33.949	27.168	-126.722	-121.952	34.006	-23.278	-122.553	-118.239	-117.723	-112.969	-110.869	-113.614	-8191	255	
1577.411	1	1	0	0	0.17438	0.17031	0.10251	0.14685	0.19078	0.14362	0.14327	0.016212	0.27953	0.17757	0.15179	0.1759	0.23053	0.24967	0.037257	0.069596	-2.4771	-2.5521	-2.8438	-2.8542	-2.7292	-2.8208	-2.8563	-3	-2.775	-2.5646	-2.8563	-2.7125	-2.6292	-2.8208	-2.7354	-2.6708	9.559	192.972	2.421	128.333	-59.298	-65.149	186.666	-133.111	-34.497	65.490	-103.549	162.272	-128.226	219.631	-135.481	165.557	0.0003238	0.0001926	0.00020169	1367.8	2.0739e-06	1.7199e-06	1360.6	367.1	6.5958e-06	5.3462e-06	421.63	138.41	120.82	42.005	2.3506e-06	51.599	0.00050511	0.00050946	0.00014303	1369.7	5.6184e-06	5.6035e-06	1367.8	371.21	5.6575e-06	5.6224e-06	424.03	141.62	122.95	42.529	5.6369e-06	52.502	-124.225	-79.977	-83.702	-126.493	30.287	-78.891	-126.570	-122.006	-34.293	10.390	-122.368	-118.138	-117.784	-113.078	15.399	-113.648	-8191	255	
1577.507	1	1	0	0	0.047596	0.2359	0.27921	0.45111	0.13132	0.14736	0.20034	0.1727	0.17906	0.21162	0.34229	0.035873	0.16045	0.0954	0.15862	0.1134	-2.2854	-2.5312	-2.8688	-2.9646	-2.5583	-2.7875	-2.7313	-2.8896	-2.9854	-2.4167	-2.9125	-2.8771	-2.675	-2.9	-2.725	-2.7208	-41.893	-79.001	194.441	129.147	44.465	218.068	153.743	174.699	218.560	-13.748	138.117	126.728	0.757	153.589	-88.220	79.766	0.00031803	0.00057679	3.6844e-05	1365.1	3.4167e-06	3.5667e-06	1358.4	366.64	4.0126e-06	2.6965e-06	420.29	138.79	119.05	41.944	4.9235e-06	51.655	0.00050662	0.00051171	0.00014368	1366.6	5.5515e-06	5.5689e-06	1367.1	370.74	5.5797e-06	5.5752e-06	422.95	141.42	122.15	42.509	5.5419e-06	52.56	-131.555	-91.829	-31.981	-126.502	44.273	-8.080	-126.684	-121.921	-30.007	-47.501	-122.182	-118.357	-117.869	-112.886	-30.067	-113.655	-8191	255	
1577.603	1	1	0	0	0.20823	0.34908	0.19731	0.087715	0.1193	0.11592	0.37728	0.22971	0.055976	0.032218	0.092305	0.11644	0.21452	0.18208	0.16351	0.19131	-2.6562	-2.5646	-2.7875	-3.0438	-2.6604	-2.7062	-2.9562	-2.6854	-2.9208	-2.6583	-2.8667	-2.9354	-2.4354	-2.9208	-2.9021	-2.5708	144.730	-41.526	-74.137	-134.812	-123.795	-88.595	192.107	78.396	182.774	-135.222	217.880	151.108	197.643	46.876	16.055	126.272	0.00029032	0.00086945	0.00020336	1365.2	3.8893e-06	6.7635e-06	1357.6	366.96	2.4897e-06	4.7155e-06	419.8	138.64	120.18	41.999	7.4103e-06	51.763	0.00050036	0.00050811	0.00014293	1367.9	5.5166e-06	5.5877e-06	1366.6	370.41	5.5705e-06	5.5272e-06	423.07	141.48	122.79	42.507	5.5544e-06	52.522	-119.134	-71.607	-39.155	-126.457	-26.129	15.603	-126.494	-121.863	-26.092	7.090	-122.309	-118.097	-117.814	-112.938	37.939	-113.682	-8191	255	
1577.699	1	1	0	0	0.22811	0.072082	0.16404	0.11034	0.43861	0.17999	0.36343	0.10859	0.2667	0.087272	0.2199	0.024951	0.19503	0.25107	0.10389	0.17205	-2.3396	-2.6729	-2.5979	-2.9979	-2.3646	-2.7729	-2.9417	-2.5958	-3.0312	-2.6875	-2.6771	-3.0417	-2.4708	-2.9833	-2.8333	-2.6042	39.358	20.694	-51.059	189.737	-134.795	-93.538	190.688	149.511	17.084	135.694	153.398	-38.050	77.980	157.545	-0.034	175.646	0.00031798	0.00084839	0.00010866	1368	4.0309e-06	4.6072e-06	1357.6	367.48	2.0442e-06	6.8347e-06	420.05	138.89	119.2	41.892	2.8748e-06	51.645	0.00049801	0.0005066	0.00014189	1367.4	5.5005e-06	5.6007e-06	1364.9	370.35	5.5036e-06	5.4981e-06	422.78	141.49	122.2	42.449	5.4766e-06	52.384	-129.675	-29.432	-138.934	-126.542	-24.425	64.900	-126.679	-122.000	-95.093	-27.468	-122.522	-118.389	-117.751	-113.006	-36.091	-113.650	-8191	255	
1577.796	1	1	0	0	0.18393	0.18568	0.1139	0.33	0.32778	0.13918	0.17925	0.3284	0.19498	0.12355	0.41709	0.30315	0.15547	0.22564	0.26499	0.090657	-2.4396	-2.6188	-2.8271	-2.8958	-2.3563	-2.8417	-3.15	-2.5042	-2.9542	-2.5979	-2.7958	-2.8646	-2.7792	-2.9146	-2.8812	-2.6208	-91.419	190.526	20.246	209.336	-107.452	-103.377	181.660	144.003	139.843	173.454	173.593	128.441	166.541	74.761	151.546	158.051	0.00029342	0.00041232	0.00014156	1366.9	2.5804e-06	9.316e-06	1359.7	365.82	4.774e-06	6.3079e-06	421.31	139	119.08	41.873	7.2668e-06	51.735	0.00050192	0.00050422	0.00014041	1365.6	5.4827e-06	5.5261e-06	1364.7	369.77	5.5234e-06	5.5176e-06	422.9	141.56	122.3	42.441	5.4469e-06	52.457	-115.600	-80.202	-17.078	-126.446	-25.823	10.972	-126.698	-121.883	-8.979	54.026	-122.305	-118.326	-117.869	-112.789	7.953	-113.570	-8191	255	
1577.916	1	1	0	0	0.079144	0.148	0.19277	0.19419	0.14519	0.075796	0.28089	0.44329	0.095394	0.064567	0.11479	0.13134	0.07159	0.13518	0.32375	0.11524	-2.5812	-2.6104	-2.6	-3.1021	-2.4562	-2.8396	-3.2458	-2.6625	-2.7771	-2.8563	-2.6083	-3.1125	-2.5854	-2.7854	-2.8146	-2.7083	20.076	156.101	-128.565	-97.256	214.388	-120.464	156.647	110.607	197.851	195.140	-116.038	135.238	3.742	128.799	88.167	214.392	0.00037744	0.00028378	0.0001541	1366	2.8959e-06	5.2116e-06	1357.4	367.48	5.778e-06	5.8098e-06	420.39	139.28	118.89	41.869	4.5187e-06	51.787	0.00049382	0.00050102	0.00013775	1365.2	5.4802e-06	5.4511e-06	1364.7	370.29	5.5266e-06	5.5102e-06	422.19	141.35	121.81	42.422	5.4414e-06	52.522	-120.462	-98.849	-51.641	-126.574	-4.196	-16.511	-126.571	-121.761	-28.492	-1.457	-122.308	-118.084	-117.655	-112.851	-23.450	-113.469	-8191	255	
1578.012	1	1	0	0	0.17976	0.21172	0.23838	0.33194	0.17986	0.23249	0.054707	0.11772	0.2827	0.10276	0.28539	0.17462	0.12945	0.077521	0.17948	0.11953	-2.5687	-2.7229	-2.6063	-3.1188	-2.575	-2.7521	-3.2125	-2.7438	-3.0083	-2.6625	-2.7708	-2.9688	-2.8604	-2.7812	-3.0438	-2.8521	-75.935	-73.846	200.363	213.668	39.328	94.598	-57.277	98.389	-34.950	172.110	201.851	38.747	-134.173	-18.735	87.388	33.612	0.00030857	0.00036965	0.0002176	1367	4.1988e-06	5.4546e-06	1360.5	366.12	2.4387e-06	8.421e-06	420.65	138.7	119.46	42.004	5.3765e-06	51.758	0.00049601	0.00050136	0.00013745	1366.3	5.4338e-06	5.475e-06	1364.8	369.91	5.5036e-06	5.4427e-06	422.76	141.43	122.07	42.463	5.4288e-06	52.423	-127.017	-80.564	-35.571	-126.366	-44.138	-63.140	-126.475	-122.076	-95.224	-15.410	-122.306	-118.326	-117.913	-112.919	-3.239	-113.673	-8191	255	
1578.109	1	1	0	0	0.20433	0.1798	0.051447	0.29165	0.1868	0.13477	0.3533	0.32623	0.12629	0.23277	0.37044	0.18904	0.05459	0.1091	0.2723	0.16551	-2.3438	-2.8292	-2.5875	-3.0542	-2.7021	-2.6292	-3.1292	-2.8583	-2.7875	-3.0333	-2.7583	-2.9667	-2.8312	-2.6271	-3.0521	-2.7167	128.450	81.756	187.884	206.528	7.503	-18.935	153.322	187.003	-65.277	-53.671	173.995	163.559	-37.754	126.227	183.131	118.368	0.00032112	0.00024137	0.00021691	1362.9	6.5319e-06	1.0063e-05	1357.5	367.85	5.7909e-06	3.1224e-06	420.82	139.36	119.46	41.957	1.118e-06	51.45	0.00049518	0.0005018	0.00013827	1364.8	5.4453e-06	5.3724e-06	1362.9	370.16	5.3822e-06	5.4072e-06	422.3	141.42	122.33	42.469	5.3806e-06	52.406	-123.602	-88.355	-53.412	-126.567	17.657	1.540	-126.807	-121.844	-8.999	5.368	-122.577	-118.247	-117.916	-112.790	-77.658	-113.581	-8191	255	
1578.205	1	1	0	0	0.26153	0.072546	0.09659	0.36492	0.098564	0.22105	0.32648	0.18669	0.023859	0.33141	0.24403	0.086516	0.08184	0.16482	0.20478	0.18901	-2.4562	-2.7479	-2.5333	-2.9271	-2.7313	-2.5833	-3.2562	-2.7	-2.7438	-2.7687	-2.5625	-2.8521	-3.0542	-2.4313	-3.2562	-2.7458	36.853	91.128	105.878	172.597	-57.041	167.138	165.431	-90.370	59.356	118.227	52.098	182.306	7.469	-81.035	-37.206	-74.787	0.00035232	0.00037472	9.0175e-05	1364.8	2.1763e-06	3.0023e-06	1356.9	367.26	1.9375e-06	3.8125e-06	420.05	139.56	119.81	41.959	6.7483e-06	51.561	0.00048933	0.00048884	0.000135	1363.6	5.3994e-06	5.3788e-06	1364	370.23	5.4059e-06	5.4135e-06	422.41	141.54	122.29	42.426	5.3885e-06	52.413	-125.468	-83.703	-29.928	-126.335	21.275	20.278	-126.535	-121.856	2.643	16.820	-122.335	-118.195	-117.848	-112.939	16.196	-113.440	-8191	255	
1578.301	1	1	0	0	0.2147	0.16131	0.080161	0.20455	0.15892	0.07878	0.34233	0.22603	0.36952	0.14168	0.28302	0.18643	0.15683	0.014868	0.2118	0.19033	-2.1625	-2.8083	-2.6562	-2.9396	-2.8521	-2.5729	-3.1604	-3.0667	-2.4875	-3.0479	-2.8063	-2.8208	-2.7729	-2.9667	-2.8979	-2.7917	57.459	158.018	77.242	219.505	17.306	61.796	129.947	101.734	-67.290	-46.532	218.163	100.682	100.793	-122.851	-114.682	168.369	0.00029048	0.00041704	0.00010978	1363.7	1.6861e-06	3.3083e-06	1354	368.69	2.5558e-06	1.2331e-06	421.71	138.98	119.41	41.913	2.462e-06	51.693	0.00048375	0.00048771	0.00013724	1362.3	5.3895e-06	5.3288e-06	1360.6	370.39	5.4275e-06	5.3773e-06	422.89	141.25	122.31	42.472	5.4059e-06	52.489	-119.772	-64.107	-2.034	-126.379	99.277	1.901	-126.668	-121.953	-34.263	39.786	-122.392	-118.061	-117.768	-112.895	98.984	-113.577	-8191	255	
1578.397	1	1	0	0	0.28718	0.096771	0.22611	0.23918	0.21606	0.14332	0.17725	0.17398	0.20344	0.018805	0.051476	0.069868	0.15078	0.1563	0.23183	0.18442	-2.1229	-2.9833	-2.5583	-3	-2.8042	-2.6083	-3.1958	-2.85	-2.5062	-3.0417	-2.6667	-2.7792	-2.7292	-2.6208	-2.95	-2.8792	-117.756	-20.832	-47.302	166.691	70.222	146.019	138.485	155.808	27.797	-124.631	216.730	49.597	95.770	210.875	-68.295	144.911	0.00035012	9.302e-05	0.00020286	1360.9	1.313e-06	4.2331e-06	1354	367.65	2.1344e-06	6.9096e-06	421.84	138.77	119.32	41.944	4.081e-06	51.934	0.00048779	0.00049581	0.00013961	1362.8	5.4143e-06	5.4265e-06	1361.2	370.21	5.3545e-06	5.4267e-06	423.28	141.48	122.1	42.457	5.4261e-06	52.575	-125.778	38.889	-57.509	-126.470	21.317	-5.726	-126.483	-121.910	122.630	-21.849	-122.367	-118.352	-117.896	-113.019	38.276	-113.469	-8191	255	
1578.516	1	1	0	0	0.16317	0.16192	0.044376	0.2762	0.24811	0.13684	0.43136	0.16898	0.18239	0.072848	0.034906	0.20564	0.093399	0.22852	0.27457	0.24067	-2.0729	-2.8625	-2.5979	-2.9333	-2.8208	-2.4604	-2.9979	-3.0583	-2.5396	-3.0146	-2.8042	-2.7229	-2.9458	-2.5583	-2.8979	-3.0062	-118.397	139.716	-102.501	170.432	-5.088	-96.401	178.905	142.302	160.284	86.983	-112.004	152.531	212.043	196.670	142.200	134.125	0.00030053	0.0007231	0.00022647	1365.4	3.5451e-06	5.6454e-06	1354.5	366.15	3.9809e-06	9.7372e-07	420.15	139.09	120.14	41.963	4.1472e-06	51.808	0.00048612	0.00049434	0.00013822	1363.4	5.3447e-06	5.3593e-06	1361.7	369.67	5.3098e-06	5.3762e-06	422.41	141.25	122.25	42.415	5.423e-06	52.479	-121.114	-66.859	-58.450	-126.558	-14.765	-17.826	-126.523	-121.810	-24.221	-65.202	-122.586	-118.116	-117.793	-112.879	50.867	-113.823	-8191	255	
1578.612	1	1	0	0	0.13393	0.044347	0.050778	0.21234	0.14734	0.019212	0.20252	0.20942	0.11133	0.11043	0.12107	0.19566	0.19896	0.20537	0.2167	0.16481	-2.0646	-2.8896	-2.7583	-2.8104	-3.1104	-2.6333	-3.05	-2.7771	-2.7646	-2.9188	-2.8563	-2.7646	-2.8792	-2.8333	-2.7146	-3.1188	20.512	56.094	-65.603	121.876	20.507	124.310	100.290	181.524	50.224	-52.296	174.335	147.889	178.905	183.822	182.364	160.163	0.00032095	0.00032689	0.00023655	1359.7	5.5154e-06	5.1999e-06	1351.4	368.5	1.7146e-06	8.0138e-06	418.2	138.76	119.19	41.916	7.5348e-06	51.794	0.00048257	0.00049525	0.00013671	1360.4	5.3615e-06	5.359e-06	1359	370.2	5.3764e-06	5.4522e-06	421.91	141.2	122	42.43	5.4446e-06	52.484	-121.799	-107.599	-36.796	-126.374	-9.844	14.778	-126.490	-121.767	-53.769	-14.774	-122.440	-118.290	-117.806	-112.939	-45.701	-113.532	-8191	255	
1578.708	1	1	0	0	0.061829	0.11142	0.052711	0.24321	0.13416	0.20334	0.26281	0.41334	0.3512	0.058296	0.11624	0.24622	0.20603	0.14456	0.061931	0.40884	-2.2229	-2.9021	-2.6604	-2.8563	-3.0979	-2.7792	-3.0354	-3.0375	-2.65	-2.9292	-2.9021	-2.7292	-3.0771	-2.7042	-2.6	-3.0042	-117.883	219.849	-26.801	139.274	68.085	81.698	161.758	162.421	-48.357	8.436	160.128	-106.933	-53.644	167.855	34.343	209.117	0.00032468	0.0007012	0.00016796	1360	4.593e-06	5.1512e-06	1351	367.68	1.1634e-06	2.9164e-06	420.98	138.68	120.16	41.976	2.7457e-06	51.829	0.00048787	0.00049926	0.00013761	1362.4	5.4349e-06	5.4036e-06	1360.2	369.92	5.4165e-06	5.4709e-06	422.26	141.26	122.22	42.471	5.3783e-06	52.431	-135.012	-35.944	-62.537	-126.248	50.444	-16.047	-126.651	-121.874	71.484	-47.850	-122.092	-118.241	-117.936	-112.923	4.083	-113.358	-8191	255	
1578.804	1	1	0	0	0.22025	0.26564	0.20229	0.076593	0.30254	0.22378	0.21319	0.10266	0.1822	0.23723	0.29892	0.18939	0.21534	0.073472	0.049794	0.27093	-2.5583	-2.8083	-2.8979	-2.9396	-2.8271	-2.6792	-2.8375	-3.0896	-2.7417	-2.9104	-3.0917	-2.5708	-2.9604	-2.7646	-2.775	-2.9813	32.250	208.786	65.556	67.689	-14.462	168.298	199.259	197.988	51.511	46.476	217.493	152.051	-48.062	-102.158	208.078	114.566	0.00031138	0.00033166	0.00012427	1360.1	5.0879e-06	5.0324e-06	1354	367.03	6.7373e-06	4.3138e-06	418.68	138.95	119.77	41.906	5.0049e-06	51.74	0.00048546	0.0005015	0.00013736	1361	5.4315e-06	5.4126e-06	1359.8	370.12	5.3793e-06	5.4066e-06	421.85	141.28	122.22	42.441	5.3559e-06	52.365	-129.524	9.360	-85.429	-126.556	-15.857	-1.878	-126.401	-122.021	-2.080	14.442	-122.416	-118.134	-117.792	-113.047	13.593	-113.600	-8191	255	
#DATA ENDS
