BOXY.EXE: ISS Imagent and Oximeter Data Acquisition Program Version 0.80
Ascii Record File

#ACQ INFORMATION
2  Detector Channels 
16  External MUX Channels 
1  Auxiliary Channels 
5000  Waveform (CCF) Frequency (Hz)
1  Waveforms Skipped 
30  Waveforms Averaged 
1  Cycles Averaged 
16  Acquisitions per Waveform 
10.0806  Updata Rate (Hz) 

#FILE INFORMATION
TRUE -- External MUX Channel results are PARSED.
FALSE -- AC DC and Phase are NOT grouped.
TRUE -- Companion Program Settings File CREATED.
FALSE -- AC data not excluded
FALSE -- DC data not excluded
FALSE -- Phase data not excluded
FALSE -- Auxillary Chn. data not excluded
Tab delimiters

#CALIBRATION STATE
TRUE -- Waveform Calibration Values APPLIED.


#AUX CALIBRATION VALUES
Val Type	aux-1	

Term	1.0000e+00	
Factor	0.0000e+00	


#WF CALIBRATION VALUES
A = Detector Channel
Val Type	A-AC1	A-AC2	A-AC3	A-AC4	A-AC5	A-AC6	A-AC7	A-AC8	A-AC9	A-AC10	A-AC11	A-AC12	A-AC13	A-AC14	A-AC15	A-AC16	A-DC1	A-DC2	A-DC3	A-DC4	A-DC5	A-DC6	A-DC7	A-DC8	A-DC9	A-DC10	A-DC11	A-DC12	A-DC13	A-DC14	A-DC15	A-DC16	A-Ph1	A-Ph2	A-Ph3	A-Ph4	A-Ph5	A-Ph6	A-Ph7	A-Ph8	A-Ph9	A-Ph10	A-Ph11	A-Ph12	A-Ph13	A-Ph14	A-Ph15	A-Ph16	

Term	0.00000e+00	0.00000e+00	0.00000e+00	0.00000e+00	0.00000e+00	0.00000e+00	0.00000e+00	0.00000e+00	0.00000e+00	0.00000e+00	0.00000e+00	0.00000e+00	0.00000e+00	0.00000e+00	0.00000e+00	0.00000e+00	0.00000e+00	0.00000e+00	0.00000e+00	0.00000e+00	0.00000e+00	0.00000e+00	0.00000e+00	0.00000e+00	0.00000e+00	0.00000e+00	0.00000e+00	0.00000e+00	0.00000e+00	0.00000e+00	0.00000e+00	0.00000e+00	0.00000e+00	0.00000e+00	0.00000e+00	0.00000e+00	0.00000e+00	0.00000e+00	0.00000e+00	0.00000e+00	0.00000e+00	0.00000e+00	0.00000e+00	0.00000e+00	0.00000e+00	0.00000e+00	0.00000e+00	0.00000e+00	
Factor	1.00000e+00	1.00000e+00	1.00000e+00	1.00000e+00	1.00000e+00	1.00000e+00	1.00000e+00	1.00000e+00	1.00000e+00	1.00000e+00	1.00000e+00	1.00000e+00	1.00000e+00	1.00000e+00	1.00000e+00	1.00000e+00	1.00000e+00	1.00000e+00	1.00000e+00	1.00000e+00	1.00000e+00	1.00000e+00	1.00000e+00	1.00000e+00	1.00000e+00	1.00000e+00	1.00000e+00	1.00000e+00	1.00000e+00	1.00000e+00	1.00000e+00	1.00000e+00	X	X	X	X	X	X	X	X	X	X	X	X	X	X	X	X	

B = Detector Channel
Val Type	B-AC1	B-AC2	B-AC3	B-AC4	B-AC5	B-AC6	B-AC7	B-AC8	B-AC9	B-AC10	B-AC11	B-AC12	B-AC13	B-AC14	B-AC15	B-AC16	B-DC1	B-DC2	B-DC3	B-DC4	B-DC5	B-DC6	B-DC7	B-DC8	B-DC9	B-DC10	B-DC11	B-DC12	B-DC13	B-DC14	B-DC15	B-DC16	B-Ph1	B-Ph2	B-Ph3	B-Ph4	B-Ph5	B-Ph6	B-Ph7	B-Ph8	B-Ph9	B-Ph10	B-Ph11	B-Ph12	B-Ph13	B-Ph14	B-Ph15	B-Ph16	

Term	0.00000e+00	0.00000e+00	0.00000e+00	0.00000e+00	0.00000e+00	0.00000e+00	0.00000e+00	0.00000e+00	0.00000e+00	0.00000e+00	0.00000e+00	0.00000e+00	0.00000e+00	0.00000e+00	0.00000e+00	0.00000e+00	0.00000e+00	0.00000e+00	0.00000e+00	0.00000e+00	0.00000e+00	0.00000e+00	0.00000e+00	0.00000e+00	0.00000e+00	0.00000e+00	0.00000e+00	0.00000e+00	0.00000e+00	0.00000e+00	0.00000e+00	0.00000e+00	-2.65566e+02	-1.24841e+02	-1.20241e+02	-1.81994e+02	-7.06572e+01	-6.59311e+01	-1.56309e+02	-1.62015e+02	-6.90623e+01	-6.87394e+01	-1.73690e+02	-1.70229e+02	-1.84320e+02	-1.76364e+02	-6.75761e+01	-1.49227e+02	
Factor	6.26878e-05	1.67292e-04	5.27594e-05	1.83783e-01	2.31563e-06	1.97287e-06	1.71397e-01	5.46504e-02	2.81418e-06	1.76473e-06	1.02938e-01	3.00253e-02	5.63014e-02	9.41980e-03	2.03463e-06	1.37220e-02	5.32171e-06	6.03407e-06	1.68690e-06	9.18392e-02	6.45977e-08	6.66728e-08	8.01300e-02	2.73424e-02	6.44674e-08	6.66207e-08	4.98357e-02	1.45750e-02	2.78928e-02	4.75395e-03	6.55589e-08	6.70704e-03	X	X	X	X	X	X	X	X	X	X	X	X	X	X	X	X	



#DISTANCE SETTINGS
A = Detector Channel
A-1	A-2	A-3	A-4	A-5	A-6	A-7	A-8	A-9	A-10	A-11	A-12	A-13	A-14	A-15	A-16	

2.5000e+00	3.0000e+00	2.5000e+00	3.0000e+00	2.0000e+00	3.0000e+00	1.5000e+00	3.0000e+00	3.0000e+00	3.0000e+00	3.0000e+00	3.0000e+00	3.0000e+00	3.0000e+00	1.5000e+00	3.0000e+00	

B = Detector Channel
B-1	B-2	B-3	B-4	B-5	B-6	B-7	B-8	B-9	B-10	B-11	B-12	B-13	B-14	B-15	B-16	

1.0000e+01	1.0000e+01	1.0000e+01	1.4400e+00	1.0000e+01	1.0000e+01	1.5100e+00	1.9400e+00	1.0000e+01	1.0000e+01	1.9900e+00	2.4900e+00	2.4100e+00	2.9000e+00	1.0000e+01	2.9800e+00	




#DATA BEGINS
time	group	step	mark	flag	A-AC1	A-AC2	A-AC3	A-AC4	A-AC5	A-AC6	A-AC7	A-AC8	A-AC9	A-AC10	A-AC11	A-AC12	A-AC13	A-AC14	A-AC15	A-AC16	A-DC1	A-DC2	A-DC3	A-DC4	A-DC5	A-DC6	A-DC7	A-DC8	A-DC9	A-DC10	A-DC11	A-DC12	A-DC13	A-DC14	A-DC15	A-DC16	A-Ph1	A-Ph2	A-Ph3	A-Ph4	A-Ph5	A-Ph6	A-Ph7	A-Ph8	A-Ph9	A-Ph10	A-Ph11	A-Ph12	A-Ph13	A-Ph14	A-Ph15	A-Ph16	B-AC1	B-AC2	B-AC3	B-AC4	B-AC5	B-AC6	B-AC7	B-AC8	B-AC9	B-AC10	B-AC11	B-AC12	B-AC13	B-AC14	B-AC15	B-AC16	B-DC1	B-DC2	B-DC3	B-DC4	B-DC5	B-DC6	B-DC7	B-DC8	B-DC9	B-DC10	B-DC11	B-DC12	B-DC13	B-DC14	B-DC15	B-DC16	B-Ph1	B-Ph2	B-Ph3	B-Ph4	B-Ph5	B-Ph6	B-Ph7	B-Ph8	B-Ph9	B-Ph10	B-Ph11	B-Ph12	B-Ph13	B-Ph14	B-Ph15	B-Ph16	aux-1	digaux	

813.779	1	1	0	256	0.16844	0.25929	0.20386	0.13553	0.020044	0.16699	0.23754	0.12631	0.10301	0.28104	0.19214	0.10003	0.22281	0.48288	0.23022	0.15027	-2.5438	-2.5646	-2.9479	-2.9062	-2.8854	-3.1479	-2.8833	-3.1917	-3.1229	-2.8833	-3.1417	-2.8875	-2.7687	-3.2375	-2.7917	-3.0271	228.045	355.705	453.786	490.761	460.098	381.120	452.902	383.843	431.598	173.114	443.344	204.847	409.703	187.664	151.300	391.658	0.0016871	0.00052452	0.00016872	1205.6	6.8374e-06	6.1928e-06	1221.2	339.36	1.2649e-05	4.6917e-06	389.96	128.69	113.21	37.849	2.1866e-06	48.004	0.00058784	0.0005492	0.00015719	1228.2	6.2195e-06	6.1506e-06	1242	344.95	6.0684e-06	6.054e-06	398.9	131.4	115.24	39.188	5.8309e-06	49.633	411.635	235.382	235.103	163.344	312.972	322.834	162.874	167.877	292.875	317.611	167.024	171.550	171.897	177.086	268.967	175.910	-8191	255	
813.875	1	1	0	0	0.051329	0.075692	0.20746	0.085528	0.13181	0.15597	0.46547	0.066248	0.17177	0.18493	0.16744	0.2914	0.138	0.14167	0.20412	0.25899	-2.5062	-2.7146	-3.1437	-2.6958	-2.9104	-3.0979	-2.8792	-3.0167	-3.1833	-2.7271	-3.1583	-2.925	-2.6333	-3.0229	-2.7313	-3.0292	262.546	220.093	279.736	163.068	217.694	164.574	487.501	339.038	487.506	464.921	384.555	410.908	152.553	461.239	211.235	403.223	0.0017706	0.00043284	8.4196e-05	1210.3	7.1208e-06	6.3768e-06	1218.2	336.35	1.0664e-05	5.5525e-06	389.33	128.59	113.89	37.918	2.5616e-06	47.753	0.00057212	0.00051981	0.00014672	1233	5.6769e-06	5.5709e-06	1239.8	344.27	5.5548e-06	5.4129e-06	399.21	131.51	115.11	39.151	5.3603e-06	49.491	410.048	216.345	194.545	163.304	269.473	295.552	162.708	167.789	275.836	292.369	167.492	171.629	171.602	176.812	268.301	176.068	-8191	255	
813.971	1	1	0	0	0.10623	0.37929	0.16766	0.071987	0.1495	0.32351	0.018983	0.27076	0.0435	0.116	0.14123	0.15826	0.10407	0.083734	0.14967	0.034699	-2.5042	-2.5104	-2.9875	-3.0917	-2.6063	-2.8167	-2.9729	-2.8979	-2.9271	-2.7354	-3.0125	-2.9646	-2.8979	-3.2896	-2.9125	-3.0396	245.308	188.321	390.245	158.391	479.238	161.394	387.147	435.014	491.259	166.859	186.663	371.106	360.352	181.398	199.192	176.368	0.0017306	0.00049256	7.5095e-05	1209	7.1658e-06	5.0181e-06	1220.8	337.61	9.0315e-06	2.4489e-06	390.88	128.95	113.9	38.016	5.3027e-06	47.853	0.00052875	0.00047873	0.00013389	1232.1	5.1768e-06	5.2195e-06	1241.2	344.45	5.1715e-06	5.1133e-06	399.46	131.85	115.37	39.23	5.1147e-06	49.494	412.499	250.877	267.150	163.185	280.481	282.281	162.820	167.763	277.364	336.716	167.201	171.539	171.781	177.254	297.751	176.284	-8191	255	
814.067	1	1	0	0	0.18953	0.22672	0.16325	0.086714	0.19924	0.26482	0.31953	0.063463	0.17253	0.23539	0.15309	0.22595	0.19705	0.098005	0.13064	0.41981	-2.6292	-2.5354	-2.875	-2.8646	-2.7833	-2.9938	-2.8625	-2.9667	-3.0333	-2.5812	-3.075	-2.9313	-2.7917	-3.0292	-2.4938	-2.9417	486.053	336.925	480.814	203.586	333.335	317.699	413.369	209.020	351.865	367.892	460.364	379.507	312.183	481.810	336.014	420.524	0.0016908	0.00061301	6.6373e-05	1211.5	8.593e-06	4.6678e-06	1222.7	337.48	8.7323e-06	3.3491e-06	391.14	129.1	114.35	38.139	6.8052e-06	47.821	0.00050127	0.00045895	0.00012838	1233.6	4.8467e-06	4.8656e-06	1244.4	345.15	4.8553e-06	4.7419e-06	399.62	131.92	115.21	39.264	4.908e-06	49.464	416.979	235.015	276.367	163.350	280.141	301.621	162.684	167.858	299.551	284.376	167.155	171.429	172.014	177.052	266.054	175.800	-8191	255	
814.186	1	1	0	0	0.15353	0.14097	0.11958	0.31335	0.33745	0.26518	0.22432	0.2662	0.24099	0.30175	0.11319	0.21989	0.19142	0.12835	0.057935	0.20028	-2.5729	-2.7042	-3.0333	-2.9625	-2.7062	-3.0271	-2.9042	-3.0333	-3.0208	-2.525	-2.9292	-3.0229	-2.7188	-3.0375	-2.9729	-2.7771	332.840	348.465	382.373	470.646	493.769	337.753	500.682	160.031	480.096	232.492	472.407	395.529	278.817	410.570	486.616	414.908	0.0017821	0.00038513	0.00014283	1207.5	9.1072e-06	2.939e-06	1220	337.73	1.3841e-05	4.7806e-06	391.3	128.57	113.88	37.902	5.0214e-06	48.043	0.00048882	0.0004338	0.00012378	1232.3	4.7775e-06	4.9875e-06	1241.8	344.42	4.9598e-06	4.903e-06	398.99	131.3	115.02	39.104	4.9593e-06	49.457	414.691	216.867	236.278	163.294	297.415	289.197	162.925	167.729	272.102	308.426	167.262	171.627	171.951	176.960	257.623	175.914	-8191	255	
814.282	1	1	0	0	0.21915	0.25816	0.12164	0.077697	0.19721	0.1172	0.17304	0.043652	0.038732	0.28695	0.135	0.043469	0.24069	0.069254	0.12354	0.13118	-2.7042	-2.8708	-2.7083	-3.1479	-2.6	-3.1896	-3.025	-2.6917	-3.0521	-2.9	-2.9437	-3.0812	-2.8229	-2.9938	-2.8646	-2.7542	222.589	429.587	306.690	162.365	328.956	273.754	389.738	489.077	509.758	357.948	490.641	411.963	385.273	154.817	407.975	151.839	0.0017495	0.00042285	0.00021477	1204.2	6.763e-06	2.6688e-06	1220.7	336.84	1.6053e-05	4.1028e-06	389.24	128.43	113.05	37.928	7.7562e-06	47.887	0.00050146	0.00045024	0.00012662	1230.7	4.889e-06	4.9302e-06	1240.8	344.43	4.973e-06	4.8616e-06	398.25	131.48	114.65	39.094	4.9378e-06	49.38	416.271	227.482	224.923	163.278	273.891	285.157	163.089	167.897	281.791	292.818	167.159	171.592	171.761	176.963	303.364	175.810	-8191	255	
814.379	1	1	0	0	0.13035	0.21635	0.1186	0.29423	0.12751	0.29712	0.25935	0.22628	0.16789	0.10238	0.25365	0.068549	0.13602	0.079053	0.29853	0.27253	-2.6125	-2.9167	-2.7979	-3.0479	-2.8521	-3.0375	-3.1542	-2.9188	-2.9521	-2.8208	-2.7958	-3.0208	-2.7646	-2.9833	-2.9604	-2.625	223.474	494.216	473.730	460.492	485.420	447.240	446.015	456.604	465.996	397.436	497.546	243.035	302.010	433.359	281.793	436.614	0.0017976	0.0003675	0.00020686	1207.8	7.4954e-06	4.4134e-06	1219.4	336.86	1.5115e-05	3.9554e-06	387.98	128.58	113.32	37.854	6.2725e-06	47.729	0.00049715	0.00045024	0.00012291	1232.5	4.9462e-06	4.9977e-06	1242.2	344.57	5.0075e-06	4.9666e-06	398.76	131.48	114.82	39.068	5.0956e-06	49.39	412.448	236.626	253.951	163.225	277.610	303.376	162.772	167.836	301.141	292.815	166.950	171.424	171.791	177.031	318.339	175.716	-8191	255	
814.475	1	1	0	0	0.045259	0.25434	0.13655	0.21073	0.076315	0.10837	0.10362	0.22706	0.19311	0.1265	0.32512	0.1619	0.23524	0.10789	0.16378	0.43522	-2.6188	-2.9083	-2.8646	-3.0771	-2.9375	-3.0187	-3.0771	-2.9292	-3.1396	-2.8583	-2.7125	-3.1458	-2.8583	-3.0917	-2.8896	-2.8354	282.478	332.063	408.934	437.575	249.487	291.927	223.002	416.601	441.379	336.515	502.515	500.238	501.081	380.209	330.011	415.055	0.0018552	0.00016201	8.6983e-05	1206.2	4.0127e-06	6.4741e-06	1221.2	337.08	1.1414e-05	4.5616e-06	387.89	128.54	113.26	37.703	2.6704e-06	47.894	0.00051629	0.00046377	0.00012892	1233.5	5.1414e-06	5.0387e-06	1244.1	344.67	5.1683e-06	5.1049e-06	397.52	131.09	114.68	38.99	5.1021e-06	49.375	412.571	186.528	240.874	163.230	275.170	284.595	162.862	167.763	270.348	309.285	167.057	171.306	171.732	177.226	308.434	175.833	-8191	255	
814.571	1	1	0	0	0.073728	0.29102	0.10337	0.18276	0.11351	0.12392	0.12904	0.32891	0.1811	0.10894	0.17663	0.19089	0.16222	0.20659	0.16029	0.10752	-2.7146	-2.775	-2.7042	-3.2917	-2.7646	-2.6688	-3.35	-2.7875	-2.9979	-2.8583	-2.7333	-3.2583	-2.7646	-2.85	-3.2271	-2.7896	346.942	439.702	428.686	470.434	433.526	499.781	164.439	155.970	489.634	162.905	428.111	154.537	152.449	463.595	369.781	451.181	0.0016809	0.00045347	0.00011758	1204.9	6.3851e-06	4.0608e-06	1224.7	337.38	1.371e-05	5.0149e-06	390.63	128.48	113.37	37.812	3.1258e-06	47.618	0.00052408	0.00046063	0.00013002	1231.7	5.1398e-06	5.0827e-06	1244	344.55	5.1069e-06	5.0307e-06	398.83	131.13	114.61	39.004	4.9979e-06	49.373	414.733	237.736	210.215	163.119	291.810	306.783	162.792	167.862	285.543	306.159	167.298	171.376	172.036	177.203	310.170	175.740	-8191	255	
814.667	1	1	0	0	0.23925	0.094993	0.18213	0.2244	0.14571	0.17571	0.20643	0.14863	0.19792	0.071766	0.17812	0.21266	0.085346	0.14136	0.17099	0.20081	-2.75	-2.925	-2.7583	-3.0687	-2.8354	-2.8083	-3.1312	-2.8354	-2.9396	-2.9021	-2.7	-3.2188	-2.8646	-2.6708	-3.0312	-2.8458	485.838	236.767	189.317	163.410	432.005	233.913	402.340	421.648	181.318	187.579	425.406	509.610	153.626	497.166	204.691	153.199	0.0018246	0.0003576	0.0001398	1202.4	4.7205e-06	6.1825e-06	1218.3	334.93	1.0411e-05	4.1481e-06	388.6	128.45	113	37.685	8.3206e-06	47.553	0.00050966	0.00044448	0.00012446	1229.5	4.8727e-06	4.8805e-06	1241.6	343.42	4.9338e-06	4.8414e-06	397.02	130.95	114.37	38.981	4.8925e-06	49.211	415.429	232.201	261.049	163.404	326.975	294.446	162.781	168.010	281.246	272.111	167.322	171.489	171.757	177.090	299.127	176.037	-8191	255	
814.763	1	1	0	0	0.081937	0.11083	0.15873	0.22509	0.084139	0.13268	0.23118	0.10518	0.056327	0.17528	0.22508	0.2077	0.15222	0.082274	0.24453	0.10646	-2.5167	-2.8896	-2.675	-3.0875	-2.6937	-2.75	-3.2188	-2.9354	-2.9417	-3.0292	-2.7438	-3.2083	-2.8271	-2.9271	-2.9062	-2.7021	354.525	199.431	282.904	178.000	382.665	503.967	468.945	163.229	502.394	280.736	151.265	438.219	301.052	273.067	302.692	443.180	0.0017114	0.00035307	0.00018449	1204	1.1381e-05	3.8303e-06	1218.4	335.49	1.098e-05	5.9683e-06	387.68	128.55	113.47	37.736	5.4084e-06	47.454	0.00049022	0.0004385	0.00012209	1229.6	4.7785e-06	4.7811e-06	1241.3	342.89	4.7448e-06	4.6411e-06	396.22	130.86	114.5	38.919	4.5845e-06	49.154	414.217	236.068	247.269	163.285	283.030	283.788	162.845	168.157	302.291	274.808	167.114	171.522	172.043	177.099	289.025	175.672	-8191	255	
814.884	1	1	0	0	0.071655	0.094685	0.18892	0.18631	0.11142	0.068365	0.28683	0.34886	0.25823	0.1813	0.20847	0.069486	0.12809	0.16912	0.1765	0.11299	-2.3729	-2.9604	-2.5729	-3.3604	-3.0875	-2.6792	-3.2917	-2.9667	-2.9229	-2.9167	-2.8875	-2.9833	-2.9042	-2.7313	-3.05	-2.8458	331.227	465.699	496.773	450.273	356.235	247.934	452.716	446.495	402.931	195.355	509.239	244.558	277.526	220.216	284.672	469.106	0.001726	0.00044592	0.00017218	1202.2	6.5826e-06	4.9651e-06	1212.4	334.1	1.0374e-05	3.7116e-06	386.26	127.42	112.54	37.592	6.4997e-06	47.142	0.00045772	0.00041457	0.00010989	1227.2	4.4275e-06	4.3385e-06	1236.9	341.43	4.4123e-06	4.2945e-06	395.41	130.17	113.94	38.752	4.4581e-06	48.867	414.674	245.467	245.512	163.336	276.168	278.351	162.907	168.055	271.923	277.840	167.220	171.372	171.938	177.191	284.309	175.857	-8191	255	
814.980	1	1	0	0	0.11161	0.12687	0.23371	0.12319	0.03712	0.066438	0.27529	0.12769	0.17397	0.21137	0.14279	0.27546	0.085935	0.16661	0.091835	0.37494	-2.3688	-2.8792	-2.5771	-2.9729	-3.0417	-2.5875	-3.0208	-2.9417	-2.6854	-3.2687	-3.0021	-3.1333	-3.1542	-2.8125	-2.9625	-2.8937	175.126	208.710	299.324	217.927	266.581	218.377	468.016	424.615	157.720	195.075	458.847	466.162	199.870	277.261	298.652	474.965	0.0017712	0.00026752	0.00013816	1192.5	5.4389e-06	5.0865e-06	1209.3	332.12	1.3316e-05	2.8026e-06	384.98	127.24	111.94	37.505	4.6372e-06	47.103	0.0004523	0.00039094	0.0001107	1218.2	4.3805e-06	4.3596e-06	1232.1	339.69	4.3799e-06	4.3698e-06	393.83	130.04	113.55	38.681	4.3363e-06	48.851	415.058	217.837	245.925	163.334	279.170	277.910	162.892	168.310	294.073	309.611	167.494	171.632	171.777	177.071	300.776	175.851	-8191	255	
815.052	1	1	0	0	0.22392	0.11158	0.094364	0.034623	0.085201	0.1504	0.17669	0.36763	0.080917	0.10736	0.10717	0.1957	0.05182	0.044314	0.10252	0.033158	-2.3771	-2.9042	-2.8312	-3.0563	-2.9833	-2.6417	-3.2229	-3.0292	-2.8688	-3.1229	-2.6917	-2.9062	-3.1437	-2.7833	-3.0938	-3.1792	293.299	155.698	232.505	350.933	417.120	332.714	453.805	470.216	428.340	209.408	189.940	198.453	452.787	199.502	259.302	309.432	0.0017033	0.00035107	9.1094e-05	1185.3	4.7958e-06	5.0857e-06	1183	326.27	9.3147e-06	5.2205e-06	377.99	125.24	111.13	36.992	4.4523e-06	46.647	0.00045781	0.00039604	0.00011198	1215.2	4.2994e-06	4.3946e-06	1225.4	338.12	4.4525e-06	4.3596e-06	392.25	129.51	113	38.526	4.4079e-06	48.702	414.518	250.687	239.889	163.111	257.790	246.853	162.498	167.799	302.078	283.433	166.849	170.935	171.736	177.146	301.095	175.848	-8191	255	
815.148	1	1	0	0	0.21666	0.24345	0.065913	0.19414	0.17095	0.22742	0.21031	0.28397	0.10823	0.28735	0.13916	0.13713	0.31106	0.28964	0.18815	0.18598	-2.4562	-3.0271	-2.8458	-2.8083	-3.0167	-2.8854	-2.9917	-2.9146	-2.5917	-3.1604	-3.0125	-2.8417	-3.0958	-2.7667	-2.9667	-3.15	349.803	453.217	248.861	509.820	278.229	180.639	448.004	494.167	386.580	381.569	369.795	371.585	226.637	384.639	294.794	301.230	0.0017677	0.000316	9.391e-05	1174.3	5.5675e-06	9.15e-07	1195.6	329.8	1.1073e-05	2.7665e-06	380.91	126.66	111.66	37.171	2.9385e-06	46.87	0.00044994	0.00039736	0.00011089	1210.1	4.3982e-06	4.4154e-06	1225.3	337.98	4.369e-06	4.396e-06	392.3	129.75	112.97	38.545	4.3646e-06	48.728	412.848	222.422	206.986	163.333	248.493	284.225	162.838	168.228	269.078	290.060	167.206	171.511	171.900	176.995	302.333	175.795	-8191	255	
815.267	1	1	0	0	0.13717	0.083128	0.23054	0.26915	0.090104	0.13604	0.14535	0.39141	0.1345	0.16247	0.056206	0.20319	0.098803	0.063102	0.10479	0.30455	-2.3208	-3.0042	-2.8417	-2.9875	-3.0729	-2.8375	-3.0125	-3.2854	-2.7542	-3.1167	-2.9667	-2.7125	-3.1271	-2.9042	-2.8208	-3.2562	152.002	257.533	499.923	456.313	369.751	259.830	464.390	464.081	218.388	290.556	397.643	396.409	177.347	453.392	173.064	161.627	0.0015657	0.00020106	0.00012843	1179.3	5.001e-06	6.3623e-06	1197.2	330.7	9.5955e-06	2.6731e-06	375.79	124.45	110.58	36.834	6.9837e-06	46.2	0.00044559	0.00039907	0.00011044	1209.9	4.3805e-06	4.345e-06	1221.9	337.63	4.2702e-06	4.2673e-06	390.28	129.04	112.87	38.391	4.2996e-06	48.568	419.075	272.437	213.360	163.377	301.594	291.614	162.774	168.051	293.637	295.522	166.713	171.302	172.064	177.051	274.611	175.708	-8191	255	
815.363	1	1	0	0	0.15234	0.54034	0.049087	0.042878	0.13669	0.2039	0.11755	0.30567	0.096729	0.11	0.31554	0.17714	0.11986	0.12096	0.28255	0.12508	-2.3833	-2.9625	-2.8833	-2.9354	-3.0417	-2.9604	-3.0354	-3.2292	-2.8042	-3.0604	-2.8729	-2.85	-3.0896	-2.7188	-2.8854	-3.0438	269.401	202.837	244.620	423.577	464.404	272.449	447.516	457.926	370.361	502.206	457.554	368.490	208.521	443.843	214.430	323.444	0.0017222	0.00066418	0.000102	1172.1	9.8763e-06	3.4048e-06	1197.1	329.09	1.0578e-05	3.0827e-06	381.04	126.17	111.67	37.304	5.0666e-06	46.828	0.00044341	0.00038164	0.00010856	1203.4	4.2782e-06	4.2547e-06	1218.3	336.31	4.2307e-06	4.2304e-06	390.1	128.95	112.78	38.392	4.2005e-06	48.461	413.473	259.361	247.229	163.172	283.008	285.764	162.915	168.322	263.019	286.513	167.401	171.585	171.942	176.805	257.641	175.950	-8191	255	
815.459	1	1	0	0	0.17934	0.094136	0.1892	0.148	0.039732	0.15495	0.081629	0.20897	0.13786	0.12245	0.31041	0.24169	0.18482	0.2746	0.2287	0.08504	-2.2417	-2.8542	-2.9604	-2.8354	-2.9875	-2.775	-2.9708	-3.15	-2.9125	-2.9313	-3.1542	-2.8563	-2.9271	-2.9604	-2.7292	-3.1437	414.612	289.383	309.772	500.848	435.991	449.267	413.491	466.569	483.562	343.431	380.404	383.309	193.371	411.475	417.275	475.974	0.0017409	0.00029637	0.00013108	1172.6	4.8778e-06	3.9938e-06	1186.6	328.33	1.0147e-05	2.4649e-06	379.55	126.28	111.14	37.084	8.2307e-06	46.759	0.00043559	0.00038124	0.00010457	1197.9	4.1577e-06	4.1229e-06	1211.5	334.95	4.0406e-06	4.0727e-06	388.67	128.83	112.24	38.274	3.9593e-06	48.396	416.466	241.271	240.197	163.448	266.401	282.803	163.042	168.325	294.009	299.411	167.463	171.595	171.548	177.176	283.032	175.957	-8191	255	
815.580	1	1	0	0	0.16463	0.20613	0.16267	0.30478	0.18793	0.10683	0.23537	0.060299	0.2777	0.26802	0.27629	0.14392	0.095466	0.29653	0.11403	0.46016	-2.4604	-2.7771	-2.9479	-2.9188	-2.9188	-2.9771	-2.8604	-3.1521	-2.7708	-2.9896	-3.225	-2.7792	-2.9521	-2.8271	-2.5958	-3.0729	441.604	269.395	188.984	471.215	169.865	306.407	412.306	368.614	343.413	360.535	480.138	169.354	457.944	430.443	347.610	440.458	0.0016302	0.00016985	0.00014871	1172.1	8.8927e-06	4.2286e-06	1183.4	328.5	1.4475e-05	4.2752e-06	378.3	126.21	111.33	37.106	7.2151e-06	46.722	0.00041748	0.00036766	9.9552e-05	1192.5	3.9401e-06	3.7897e-06	1205.6	334.44	3.8546e-06	3.7588e-06	387.05	128.37	111.83	38.18	3.8721e-06	48.253	413.070	239.161	250.884	163.373	265.474	294.208	163.081	168.268	276.633	306.991	167.181	171.684	171.913	177.215	297.923	176.167	-8191	255	
815.676	1	1	0	0	0.31665	0.077054	0.26845	0.27985	0.17094	0.052911	0.27973	0.21946	0.27157	0.31683	0.14991	0.17755	0.21708	0.29558	0.10206	0.11899	-2.3917	-2.6917	-3.0375	-2.9146	-2.8688	-2.95	-3.0042	-3.0542	-2.9375	-2.7438	-3.1833	-2.9062	-2.9521	-2.9917	-2.6604	-2.9167	225.942	329.675	391.809	483.910	259.857	206.416	467.239	446.672	255.585	505.464	417.060	480.223	367.250	378.333	433.411	396.396	0.001706	0.00033043	0.00011499	1163.2	7.9599e-06	3.7477e-06	1172.4	327.56	1.3897e-05	2.947e-06	376.92	125.92	110.64	36.958	6.2941e-06	46.867	0.00040021	0.00033934	9.3082e-05	1184.6	3.7407e-06	3.6112e-06	1198.1	333.4	3.7398e-06	3.6884e-06	386.13	128.1	111.5	38.157	3.6544e-06	48.232	414.490	208.514	249.549	163.310	294.881	296.634	163.093	168.252	283.279	310.593	167.454	171.911	172.091	177.135	271.263	176.197	-8191	255	
815.747	1	1	0	0	0.17199	0.20637	0.16463	0.14494	0.17901	0.21715	0.17599	0.1361	0.10684	0.09937	0.28988	0.1093	0.084483	0.32182	0.14781	0.19524	-2.3667	-2.7146	-2.9	-2.8354	-2.825	-2.8937	-2.9375	-2.9375	-2.8229	-2.6312	-3.0375	-2.9958	-2.8354	-3.0062	-2.775	-3.0375	265.466	389.101	453.616	454.750	386.978	463.197	166.874	476.265	430.267	180.099	471.324	425.949	314.551	507.984	230.873	265.632	0.0016583	7.8064e-05	9.7375e-05	1155.9	4.9954e-06	3.3155e-06	1173.5	327.45	1.2906e-05	6.5093e-06	377.01	125.28	110.93	37.25	4.8831e-06	46.44	0.00038891	0.00032075	9.1711e-05	1179.8	3.6234e-06	3.5395e-06	1195.4	332.7	3.5663e-06	3.5201e-06	385.47	127.93	111.67	38.196	3.6085e-06	48.101	413.368	260.844	266.383	163.463	322.711	316.041	162.965	168.445	287.451	301.908	167.275	171.840	171.965	177.449	301.574	175.958	-8191	255	
815.868	1	1	0	0	0.10836	0.24547	0.14065	0.21722	0.17504	0.14537	0.10033	0.19055	0.15715	0.15069	0.092493	0.19188	0.33028	0.19722	0.15576	0.10102	-2.7292	-2.6167	-2.9667	-3.0646	-2.9521	-3.0771	-2.6896	-3.0438	-3.15	-2.7292	-2.9604	-2.9771	-2.6042	-3.2146	-2.7458	-3.0312	247.313	211.411	162.060	485.691	176.929	165.446	478.860	437.390	426.345	243.211	457.173	334.237	172.023	505.417	213.105	400.725	0.0016844	0.00054572	0.0002294	1155.4	6.4432e-06	4.8114e-06	1173.1	325.97	1.228e-05	4.1873e-06	378.13	126	110.48	37.008	5.4154e-06	46.883	0.00039039	0.00032693	9.3208e-05	1175.8	3.6013e-06	3.5599e-06	1193.9	332.33	3.5739e-06	3.5006e-06	385.3	128.13	111.32	38.091	3.566e-06	48.257	414.219	224.933	240.880	163.409	297.179	304.672	163.038	168.288	273.337	314.107	167.466	171.599	172.327	177.197	278.748	175.887	-8191	255	
815.964	1	1	0	0	0.20674	0.095715	0.26982	0.22089	0.12465	0.14338	0.13156	0.31198	0.10651	0.13345	0.091796	0.13161	0.26533	0.325	0.21134	0.20574	-2.5271	-2.5812	-2.9562	-3.0458	-2.7917	-3.0792	-3.0062	-2.9437	-3.0229	-2.7979	-3.1667	-2.9813	-2.7938	-3.0729	-2.8688	-2.9646	208.443	266.325	283.200	435.250	388.992	189.903	485.997	162.639	438.653	349.365	497.296	479.206	437.960	490.938	394.584	484.149	0.0017988	0.00046473	0.00012579	1156.4	5.4107e-06	4.6923e-06	1175.2	326.65	7.9821e-06	3.1532e-06	376.59	125.4	110.65	36.895	5.1533e-06	46.678	0.00038804	0.00031792	9.144e-05	1177	3.5408e-06	3.4789e-06	1193	332.34	3.5723e-06	3.5047e-06	385.26	127.82	111.15	38.056	3.5126e-06	48.195	417.246	236.482	233.456	163.409	302.774	306.744	163.098	168.475	264.501	292.101	167.535	171.837	172.101	177.295	269.418	175.967	-8191	255	
816.060	1	1	0	0	0.19445	0.20189	0.18398	0.22007	0.29119	0.31848	0.08763	0.23845	0.2035	0.014336	0.11511	0.17902	0.21798	0.13277	0.14836	0.0772	-2.5625	-2.8958	-2.9479	-3.0812	-2.8812	-3.0521	-2.8271	-3.0333	-2.8667	-2.7917	-3.0917	-2.9792	-2.7083	-3.1792	-2.7521	-2.9042	398.975	235.702	212.879	446.952	260.975	278.306	480.816	446.533	370.463	493.753	401.151	316.234	314.057	162.903	349.183	445.872	0.0017988	0.00035593	0.00010992	1149.7	5.6531e-06	4.3653e-06	1171.3	325.1	1.1487e-05	3.1593e-06	375.58	125.26	110.79	36.979	4.7284e-06	46.489	0.00038615	0.00031959	9.0379e-05	1173.6	3.5665e-06	3.5156e-06	1190.4	331.69	3.589e-06	3.4974e-06	384.49	127.53	111.23	38.004	3.5045e-06	48.071	414.696	229.257	264.353	163.210	287.747	300.820	162.896	168.489	294.494	248.638	167.434	171.733	172.124	177.183	286.704	176.368	-8191	255	
816.179	1	1	0	0	0.063001	0.17695	0.13562	0.12124	0.12639	0.27669	0.18679	0.016015	0.18014	0.20644	0.093108	0.24831	0.21297	0.084023	0.21507	0.12055	-2.6354	-2.6604	-3	-2.9521	-2.6688	-3.1063	-2.7833	-2.8104	-3.0521	-2.6479	-2.9437	-3.0958	-2.6021	-3.0187	-2.8917	-2.8396	226.791	407.461	178.639	449.657	218.056	285.393	266.160	495.651	159.711	504.244	473.713	426.604	215.431	510.382	396.145	449.890	0.0017097	0.00027306	0.00016117	1148.8	6.2661e-06	7.4185e-06	1170.9	324.82	1.0208e-05	4.1418e-06	378.32	125.81	110.37	36.899	3.9166e-06	46.663	0.00037743	0.00032046	8.8875e-05	1172.2	3.5238e-06	3.4832e-06	1188.7	330.91	3.5241e-06	3.5262e-06	384.73	127.8	111	38.045	3.4473e-06	48.105	411.815	224.640	266.058	163.366	301.357	270.532	163.131	168.393	310.572	298.562	167.232	171.570	171.872	177.084	296.427	176.099	-8191	255	
816.275	1	1	0	0	0.11203	0.1558	0.18551	0.11069	0.15832	0.1761	0.11544	0.44757	0.23845	0.12573	0.21181	0.015456	0.16184	0.11811	0.35368	0.24793	-2.7083	-2.8146	-2.8708	-3.3833	-2.6229	-3.0771	-3.1083	-2.7562	-2.9813	-2.7833	-3.0917	-2.9771	-2.95	-3.0396	-3.0229	-2.7958	273.687	369.807	323.193	161.656	251.236	453.038	151.872	467.753	387.344	263.349	478.093	503.153	182.434	438.158	185.779	486.915	0.0016817	0.00036602	0.00018067	1150.8	8.6723e-06	3.9954e-06	1169.1	326.32	1.237e-05	5.9706e-06	376.48	125.41	110.84	37.102	4.8971e-06	46.64	0.00037831	0.00031582	8.7423e-05	1170.8	3.5122e-06	3.4756e-06	1187.7	331.74	3.4752e-06	3.4165e-06	384.99	127.68	111.08	38.068	3.5452e-06	48.082	415.364	231.567	230.845	163.435	265.334	298.458	163.049	168.400	295.946	298.473	167.829	171.719	172.043	177.416	289.270	175.934	-8191	255	
816.347	1	1	0	0	0.22415	0.16569	0.099594	0.20578	0.21672	0.20857	0.18374	0.27542	0.075716	0.19785	0.29171	0.25446	0.14326	0.1014	0.12704	0.13415	-2.6771	-2.7812	-2.8208	-3.0708	-2.8417	-2.9708	-3.1688	-2.7687	-3.1104	-2.7938	-2.9354	-3.1583	-2.6521	-2.8417	-2.9229	-2.9625	429.439	197.241	454.691	449.372	259.989	376.325	431.498	488.995	402.259	325.367	466.730	155.821	466.780	403.455	441.567	152.958	0.0016602	0.00030025	0.00013327	1149	7.3621e-06	3.0328e-06	1164.6	324.37	1.291e-05	5.277e-06	377.49	125.41	110.37	36.956	6.1027e-06	46.589	0.00037656	0.00031314	8.878e-05	1169.5	3.4618e-06	3.4381e-06	1187.4	330.67	3.5695e-06	3.4557e-06	384.05	127.51	110.91	37.989	3.4543e-06	48.063	413.485	243.082	234.267	163.482	272.215	272.020	163.047	168.538	270.036	312.447	167.293	171.876	172.196	177.276	284.216	176.026	-8191	255	
816.443	1	1	0	0	0.34696	0.1257	0.15933	0.49633	0.15349	0.16377	0.22202	0.21882	0.095172	0.1389	0.095496	0.040262	0.086669	0.11233	0.26619	0.23397	-2.7208	-2.8688	-2.825	-3.125	-2.6208	-3.0125	-3.0438	-3.0062	-2.7042	-2.9729	-2.7146	-3.0896	-2.5833	-3.1188	-3.0167	-2.8792	503.416	279.519	219.477	474.457	363.344	331.385	420.607	478.368	212.123	468.432	442.389	192.972	500.658	254.877	317.384	402.044	0.0016317	0.00045634	0.00014337	1140.7	1.0789e-05	4.8531e-06	1166.5	325.27	1.3513e-05	3.7067e-06	375.68	125	109.89	36.961	9.8027e-06	46.738	0.00037709	0.0003086	8.665e-05	1168.2	3.437e-06	3.2872e-06	1185.4	330.73	3.4188e-06	3.317e-06	383.99	127.52	110.7	38.025	3.3656e-06	48.168	413.479	259.967	248.810	163.487	302.681	292.319	162.888	168.352	290.673	237.843	167.529	171.704	172.204	177.208	279.944	175.837	-8191	255	
816.564	1	1	0	0	0.035348	0.16021	0.099977	0.14512	0.085739	0.23053	0.16615	0.21216	0.087493	0.021344	0.15652	0.13716	0.26153	0.044312	0.078522	0.2133	-2.4562	-2.7833	-2.675	-3.175	-2.8	-2.9104	-3.3167	-2.8792	-2.9313	-2.8292	-2.7917	-3.1354	-2.7479	-3.0104	-2.975	-2.85	469.318	434.782	358.740	491.745	399.804	413.457	427.147	478.089	373.876	419.987	192.141	172.211	160.414	314.844	433.271	382.973	0.0015716	0.00049106	0.00018622	1148.5	7.5962e-06	6.4039e-06	1167.9	324.11	8.3104e-06	2.4126e-06	374.91	125.26	110.15	36.919	7.0728e-06	46.514	0.00036699	0.0003037	8.4644e-05	1168.7	3.344e-06	3.2895e-06	1186.1	330.13	3.3324e-06	3.28e-06	384.13	127.53	110.78	37.966	3.3804e-06	48.048	414.417	234.214	245.108	163.509	280.148	305.833	163.038	168.377	251.266	334.911	167.235	171.693	172.036	177.180	288.933	175.811	-8191	255	
816.660	1	1	0	0	0.086473	0.15882	0.15756	0.22861	0.15453	0.15156	0.26161	0.30444	0.079123	0.09125	0.37906	0.2337	0.088235	0.15276	0.12419	0.053922	-2.3771	-2.9708	-2.6417	-3.0667	-2.8438	-2.8312	-3.1708	-2.9354	-3.075	-3.0396	-2.8042	-3.0354	-2.8542	-2.8604	-2.9292	-2.7729	363.649	499.530	220.554	480.899	462.215	364.529	423.615	433.943	466.005	440.919	412.461	473.697	338.329	273.163	391.650	254.019	0.0017144	0.00020399	0.00012364	1148.3	5.75e-06	4.8037e-06	1166.2	325.08	1.1673e-05	4.1749e-06	375.7	124.86	110.16	36.783	6.296e-06	46.667	0.00036741	0.00030359	8.4246e-05	1170.4	3.3934e-06	3.4053e-06	1186	330.49	3.4376e-06	3.321e-06	383.74	127.41	110.85	37.97	3.344e-06	48.119	414.804	235.799	235.967	163.585	274.971	276.536	163.025	168.223	269.399	301.483	167.270	171.719	172.086	177.268	295.432	176.062	-8191	255	
816.756	1	1	0	0	0.15759	0.20739	0.24287	0.33782	0.089957	0.10282	0.28748	0.15736	0.019614	0.099079	0.193	0.1794	0.21158	0.21155	0.055192	0.093252	-2.3708	-3.0854	-2.7271	-3.2292	-2.8812	-2.5771	-3.2229	-2.9396	-2.9437	-3.05	-2.6646	-3.0917	-2.9375	-2.9313	-2.9583	-2.9083	472.625	331.065	424.509	152.415	286.482	308.234	353.563	505.231	391.687	189.330	150.892	469.181	422.680	470.316	469.585	458.633	0.0016993	0.00035552	0.00014588	1143.9	3.7332e-06	5.8499e-06	1164.1	323.9	1.0021e-05	3.817e-06	376.3	125.22	110.09	36.999	7.1111e-06	46.392	0.00037175	0.00030123	8.4914e-05	1166.3	3.3968e-06	3.4646e-06	1184.3	329.75	3.4581e-06	3.3151e-06	383.58	127.3	110.68	38.039	3.3279e-06	47.996	414.679	238.398	272.638	163.514	280.151	298.918	162.841	168.356	293.878	297.414	167.378	171.681	171.897	177.421	287.929	176.003	-8191	255	
816.852	1	1	0	0	0.13099	0.10498	0.15327	0.089886	0.20051	0.096172	0.050446	0.097867	0.12391	0.2671	0.26591	0.11221	0.032665	0.27247	0.13516	0.14052	-2.3688	-3.1083	-2.6833	-3.1292	-3.1604	-2.8021	-3.2104	-2.8896	-2.8646	-2.9562	-2.9396	-2.9958	-3.0208	-2.7792	-3.0792	-2.9708	435.405	252.568	506.265	186.481	231.246	217.655	305.675	388.131	402.411	371.093	477.631	479.710	202.562	416.061	240.000	173.210	0.0017976	0.00045169	0.00017523	1148.1	1.0341e-05	5.2017e-06	1169.8	324.25	9.3341e-06	5.0323e-06	375.4	124.65	110.22	36.942	4.6883e-06	46.677	0.00037932	0.00030483	8.606e-05	1167	3.4499e-06	3.4034e-06	1185.8	329.68	3.4669e-06	3.3313e-06	383.83	127.13	110.82	37.972	3.4864e-06	48.087	414.825	269.473	275.552	163.417	261.591	305.686	163.126	168.427	309.161	279.314	167.653	171.744	172.065	177.302	297.852	176.272	-8191	255	
816.948	1	1	0	0	0.19825	0.14273	0.040493	0.25396	0.27922	0.084039	0.41654	0.039716	0.1687	0.097108	0.40484	0.085581	0.26164	0.093904	0.24157	0.37118	-2.2562	-2.9	-2.525	-2.9292	-3.0146	-2.5792	-3.2125	-2.7625	-2.9125	-3.1333	-2.9167	-3.1708	-2.9333	-2.7687	-2.9938	-2.9271	366.089	371.177	166.509	435.740	458.027	239.548	406.975	376.762	492.681	443.361	411.383	442.499	474.896	475.083	318.799	388.540	0.0016839	0.00037041	0.00017765	1144.1	6.3613e-06	5.5727e-06	1162.9	323.31	6.7792e-06	2.7597e-06	374.9	124.88	110.15	36.99	5.2149e-06	46.411	0.00037293	0.00030887	8.6854e-05	1166.7	3.376e-06	3.3236e-06	1182.3	329.5	3.4011e-06	3.3527e-06	383.58	127.34	110.6	37.93	3.4571e-06	47.993	413.988	235.850	243.708	163.408	295.026	323.889	162.931	168.364	275.447	344.162	167.524	171.786	171.923	177.354	261.604	176.159	-8191	255	
817.044	1	1	0	0	0.2794	0.20659	0.21074	0.45344	0.23631	0.18861	0.14986	0.33168	0.16163	0.12988	0.34959	0.21985	0.19549	0.21498	0.089593	0.22257	-2.1896	-3.1167	-2.7083	-3.1104	-2.9625	-2.9021	-3.2208	-2.9813	-2.7167	-3.125	-2.9292	-2.9979	-2.8896	-2.8333	-2.8438	-2.9104	296.297	217.805	160.094	444.279	160.989	381.051	467.589	440.782	172.906	188.618	451.592	227.055	363.566	381.106	370.151	446.868	0.0015468	0.00051415	0.00017374	1147.2	8.103e-06	4.6654e-06	1162.1	324.3	7.4992e-06	7.2523e-06	376.3	125	110.51	36.745	7.6856e-06	46.586	0.00037302	0.0003041	8.5237e-05	1167	3.3927e-06	3.3203e-06	1184.3	330.26	3.36e-06	3.3691e-06	383.43	127.44	110.86	37.984	3.3641e-06	47.999	414.037	225.130	255.078	163.551	294.685	317.910	162.958	168.068	293.127	305.628	167.522	171.897	172.153	177.297	294.067	175.924	-8191	255	
817.141	1	1	0	0	0.14963	0.19194	0.21709	0.17071	0.091192	0.38967	0.24431	0.18592	0.10456	0.15865	0.065067	0.1023	0.005109	0.075264	0.27947	0.18523	-2.4083	-3.0312	-2.7812	-2.925	-3.0146	-2.7062	-3.0708	-3.0396	-2.6854	-3.1125	-3.0021	-2.8125	-3.1688	-2.7479	-2.9938	-3.1521	453.669	387.053	393.643	412.526	271.897	376.693	428.932	427.243	248.072	369.628	416.475	326.784	181.467	483.403	261.025	385.839	0.0016833	0.00040527	0.00012585	1143.8	5.4975e-06	4.2726e-06	1165.2	324.9	9.9565e-06	4.4013e-06	375.38	124.92	111.07	36.886	5.6249e-06	46.488	0.00037274	0.00030546	8.4535e-05	1166.6	3.4161e-06	3.3436e-06	1185.6	330.08	3.4627e-06	3.3377e-06	383.27	127.29	110.73	37.923	3.3759e-06	47.998	414.506	265.460	253.247	163.683	318.776	304.358	162.906	168.395	272.749	304.088	167.253	171.694	172.132	177.094	258.912	175.775	-8191	255	
817.261	1	1	0	0	0.069587	0.17251	0.1091	0.022651	0.16861	0.17937	0.22271	0.23128	0.088956	0.15709	0.21798	0.27549	0.16503	0.08585	0.22237	0.14966	-2.3271	-2.9625	-2.8563	-2.8042	-2.9542	-2.7771	-2.8833	-3.0687	-2.9125	-3.0208	-2.9958	-2.6125	-3.1937	-2.8479	-2.8833	-3.0292	327.817	427.212	469.277	381.757	179.776	222.031	450.535	415.589	389.912	257.558	425.926	155.644	151.437	366.927	447.575	174.698	0.0016702	0.00031041	0.0001204	1143.9	6.1293e-06	4.3449e-06	1165.8	323.77	9.753e-06	3.8713e-06	376.7	125.11	110.51	36.994	6.8756e-06	46.635	0.00036663	0.00031199	8.4152e-05	1166.5	3.414e-06	3.3227e-06	1186.1	330.14	3.2972e-06	3.2937e-06	384.17	127.63	110.96	38.067	3.2327e-06	48.124	412.714	213.220	231.166	163.335	303.669	299.730	163.185	168.356	296.116	309.060	167.385	171.671	172.299	177.196	263.076	175.873	-8191	255	
817.356	1	1	0	0	0.10728	0.25572	0.076911	0.24848	0.16609	0.18805	0.16705	0.086579	0.22593	0.21942	0.20728	0.070801	0.12955	0.27739	0.18745	0.14253	-2.1354	-3.0875	-2.9437	-2.8521	-2.8167	-2.7833	-3.0208	-3.2667	-2.6104	-2.9646	-3.1729	-2.6583	-3.2083	-2.8042	-2.6312	-3.0667	399.930	352.603	360.359	504.268	424.533	350.876	441.201	273.349	168.339	428.124	329.677	411.431	463.090	185.861	317.981	316.265	0.0017596	0.0005359	0.00015	1149.7	9.1868e-06	5.6595e-06	1167.3	324.85	9.7859e-06	4.2017e-06	377.34	125.67	110.69	37.138	9.4141e-06	46.687	0.00035489	0.00028512	8.0398e-05	1169.4	3.1882e-06	3.1156e-06	1187.1	331.06	3.2048e-06	3.1213e-06	384.38	127.9	111.29	38.179	3.1538e-06	48.289	412.250	238.890	275.874	163.620	274.544	291.351	162.937	168.353	280.052	292.187	167.496	171.566	171.957	177.158	305.993	176.205	-8191	255	
817.452	1	1	0	0	0.1638	0.14039	0.20579	0.29608	0.04029	0.10177	0.23332	0.19621	0.15613	0.18313	0.056656	0.12167	0.096825	0.0052006	0.14936	0.25031	-2.4938	-2.8104	-3.0438	-2.7146	-3.05	-2.7917	-2.8979	-3.1937	-2.7687	-2.9667	-3.0833	-2.7729	-2.9458	-3.0208	-2.6396	-3.1958	396.123	238.045	403.082	416.467	403.518	181.640	407.821	449.322	437.274	260.453	402.956	170.308	224.674	489.461	265.938	497.322	0.0016905	0.00054585	0.00013728	1145.8	3.7875e-06	4.1036e-06	1166.2	325.62	9.5752e-06	3.4941e-06	377.64	125.42	110.64	37.009	6.2009e-06	46.714	0.00034583	0.00027754	7.7689e-05	1167.6	3.1124e-06	2.9887e-06	1185.6	331.14	3.0602e-06	3.0146e-06	385.07	127.74	111.14	38.156	3.0279e-06	48.255	415.685	220.615	252.793	163.550	272.662	313.822	163.066	168.248	272.211	306.840	167.399	171.819	172.120	177.394	321.125	175.979	-8191	255	
817.548	1	1	0	0	0.38864	0.060818	0.34085	0.21455	0.17611	0.15003	0.2402	0.13195	0.020332	0.188	0.23402	0.27495	0.15417	0.38634	0.12287	0.085695	-2.3812	-2.6583	-3.2354	-2.7792	-2.95	-2.975	-2.8854	-3.3854	-2.8312	-2.9646	-3.0792	-2.9333	-3.0125	-2.975	-2.6854	-3.1875	363.022	368.496	265.520	440.836	341.692	286.221	467.304	437.776	312.375	152.253	239.584	421.608	195.707	452.190	437.209	417.040	0.0017258	0.00026434	0.00014304	1148.2	5.3791e-06	6.3286e-06	1162.4	324.48	1.1487e-05	3.7626e-06	378.18	125.58	110.71	37.139	5.7442e-06	46.925	0.00034221	0.00026837	7.5285e-05	1166.3	3.0105e-06	2.9121e-06	1184.2	330.74	2.9625e-06	2.9147e-06	384.55	127.9	111.23	38.15	2.9724e-06	48.304	415.075	240.660	279.113	163.492	272.512	299.409	163.030	168.287	276.738	297.178	167.417	172.056	171.859	177.363	286.097	175.933	-8191	255	
817.644	1	1	0	0	0.10286	0.20368	0.092828	0.37506	0.16409	0.25668	0.29616	0.11546	0.16361	0.13276	0.02744	0.26028	0.072124	0.15003	0.080112	0.3311	-2.3563	-2.7833	-2.9938	-2.8771	-2.9458	-2.8375	-3.0292	-3.1208	-2.8438	-2.8333	-3.1937	-2.8833	-3.05	-3.0167	-2.9021	-3.1646	355.232	269.623	433.786	496.669	444.870	183.736	153.037	375.622	368.196	406.158	308.399	496.517	157.637	402.811	178.325	457.984	0.0016505	0.00036003	0.00018905	1143.9	6.193e-06	4.1766e-06	1164.4	326.42	9.3475e-06	2.2546e-06	377.78	125.77	110.78	37.054	5.8681e-06	46.821	0.00033477	0.00026903	7.4965e-05	1164.7	3.0007e-06	2.9408e-06	1183.3	331.19	2.9796e-06	2.8666e-06	384.67	127.99	111.21	38.141	2.9168e-06	48.288	415.136	278.993	256.728	163.471	278.521	286.327	162.997	168.372	284.468	304.876	167.372	171.576	172.294	177.296	303.326	176.175	-8191	255	
817.740	1	1	0	0	0.19273	0.16717	0.055398	0.064687	0.089934	0.26981	0.061398	0.16247	0.2066	0.076109	0.035772	0.14523	0.26018	0.077429	0.20212	0.20809	-2.4042	-2.6729	-3.0563	-2.8875	-2.8667	-3.1146	-2.8833	-3.1583	-2.9375	-2.6813	-2.9979	-2.8688	-3.0417	-3.0229	-2.8583	-2.9229	262.852	380.654	299.494	453.906	222.841	186.943	456.646	398.226	274.884	297.933	308.389	486.935	496.513	467.166	263.527	314.078	0.0016859	0.00032725	0.00014023	1145.8	6.5882e-06	3.6764e-06	1164	325.89	1.0559e-05	4.4123e-06	377.49	125.71	110.87	37.039	7.6324e-06	46.959	0.0003425	0.00026412	7.4195e-05	1165.2	2.9867e-06	2.8687e-06	1183.7	330.92	2.9587e-06	2.9265e-06	384.55	127.85	111.24	38.134	2.948e-06	48.219	412.807	258.477	251.369	163.580	294.030	275.858	163.059	168.426	279.656	278.145	167.318	171.809	172.086	177.297	285.901	176.228	-8191	255	
817.861	1	1	0	0	0.058045	0.11258	0.088138	0.12141	0.075484	0.2718	0.2621	0.20383	0.064515	0.26365	0.075631	0.37251	0.052966	0.19368	0.1703	0.06699	-2.4604	-2.6688	-3.0792	-2.7542	-2.8708	-2.9958	-2.8854	-3.0292	-2.9583	-2.6833	-3.2375	-2.8729	-2.7562	-2.9375	-2.7542	-2.9958	334.983	309.432	420.035	205.576	312.064	171.846	437.516	489.326	302.047	281.491	410.272	401.451	191.125	422.183	294.121	488.408	0.0016377	0.00037426	0.00019714	1144.5	6.6195e-06	2.9939e-06	1164.4	325.11	1.0244e-05	5.3725e-06	377.03	125.42	110.77	37.079	6.3841e-06	46.528	0.00033454	0.00026595	7.2523e-05	1163.6	2.9345e-06	2.8465e-06	1182.4	330.77	2.9795e-06	2.8884e-06	383.92	127.71	111.17	38.149	2.9492e-06	48.086	415.543	259.180	248.654	163.439	306.620	322.873	163.096	168.323	264.471	279.055	167.525	171.952	171.897	177.250	293.545	176.213	-8191	255	
817.957	1	1	0	0	0.19132	0.08859	0.18676	0.16486	0.053919	0.075892	0.19911	0.1932	0.30816	0.094242	0.22527	0.032903	0.16442	0.11427	0.23709	0.12947	-2.5187	-2.7	-2.9813	-3.0896	-2.9	-2.9979	-2.5979	-2.9437	-2.9104	-2.6	-3.0583	-2.9083	-2.5479	-3.1521	-2.7979	-2.9562	306.082	409.815	319.427	432.521	401.956	362.047	455.720	196.243	490.363	165.716	383.617	198.379	237.289	206.427	436.142	423.190	0.0016889	0.00039477	0.00013887	1139.4	1.0126e-05	5.801e-06	1164	324.38	9.1702e-06	4.7136e-06	375.67	125.3	110.1	36.887	4.6302e-06	46.374	0.00033411	0.00026721	7.4023e-05	1161.6	3.0146e-06	2.9061e-06	1180.9	329.86	2.9597e-06	2.9048e-06	383.24	127.29	110.57	37.908	3.0977e-06	47.922	415.841	231.059	271.281	163.413	291.088	312.722	162.932	168.406	293.765	310.373	167.459	171.831	172.056	177.269	278.833	176.157	-8191	255	
818.053	1	1	0	0	0.14644	0.23534	0.068739	0.22105	0.14166	0.13488	0.18698	0.1754	0.055871	0.13814	0.32702	0.1352	0.080695	0.096501	0.19471	0.34961	-2.6292	-2.7	-3.0125	-3.0167	-2.6167	-3.0333	-2.925	-2.9938	-3.1312	-2.5563	-3.2042	-3.0563	-2.7521	-3.0458	-2.8396	-2.9062	218.068	228.480	209.224	441.214	202.230	422.767	410.098	445.349	171.102	214.071	499.471	167.100	357.045	345.715	196.667	448.226	0.0016646	0.0003081	9.8941e-05	1140	8.954e-06	5.0268e-06	1158.1	322.53	1.0919e-05	4.0344e-06	374.35	124.12	110.02	36.672	5.3401e-06	46.127	0.0003489	0.00028498	8.0412e-05	1161.3	3.1933e-06	3.2138e-06	1179.2	328.55	3.3457e-06	3.298e-06	381.99	126.68	110.33	37.679	3.371e-06	47.664	414.578	247.618	238.051	163.530	288.048	316.031	163.219	168.216	276.897	303.529	167.466	171.899	171.794	177.400	285.660	176.193	-8191	255	
818.148	1	1	0	0	0.18911	0.10313	0.10608	0.1915	0.17306	0.080941	0.10266	0.14077	0.15106	0.21205	0.10943	0.1985	0.33571	0.19879	0.053862	0.15292	-2.6896	-2.6042	-2.9542	-3.0187	-2.7562	-2.9104	-2.9354	-3.0479	-2.9125	-2.8875	-2.8625	-3.1667	-2.5896	-3.2208	-2.6312	-3.0646	168.390	382.432	217.052	491.239	471.236	223.289	494.877	342.381	509.790	377.465	390.735	443.029	221.012	488.926	467.532	501.056	0.0016213	0.00074184	0.00010692	1136.5	9.2639e-06	5.7729e-06	1156.4	321.79	1.0401e-05	7.2948e-06	374.05	124.27	109.29	36.347	5.8304e-06	45.972	0.00037558	0.00030943	8.6207e-05	1159.8	3.5168e-06	3.5145e-06	1178.7	327.82	3.5497e-06	3.5169e-06	381.17	126.45	109.9	37.565	3.6839e-06	47.616	414.059	242.973	236.355	163.580	267.748	280.476	162.973	168.275	282.269	301.898	167.395	171.603	172.033	177.279	289.081	176.289	-8191	255	
818.244	1	1	0	0	0.10376	0.24588	0.17972	0.3049	0.095114	0.042884	0.174	0.17709	0.18867	0.21232	0.08464	0.18902	0.22976	0.32712	0.048075	0.25896	-2.6437	-2.7083	-3.025	-3.0104	-2.9562	-3.0167	-3.0646	-2.7104	-2.9771	-2.7708	-3.0042	-3.2771	-2.7188	-3.0687	-2.8	-2.8	247.909	438.551	274.677	155.461	495.702	297.564	455.826	445.899	216.131	472.404	385.397	498.100	437.106	468.771	506.109	467.681	0.001717	0.00034873	0.00011724	1140.9	4.5602e-06	4.7407e-06	1157.5	322.39	1.21e-05	4.5557e-06	372.24	123.8	109.85	36.376	4.6736e-06	46.171	0.00039238	0.00033528	9.1307e-05	1162.5	3.6426e-06	3.6702e-06	1180.6	328.42	3.7597e-06	3.6351e-06	381.29	126.39	110.34	37.589	3.7625e-06	47.671	414.061	260.484	216.060	163.453	301.878	304.961	163.170	168.534	270.211	288.902	167.416	171.477	172.122	177.315	318.441	176.156	-8191	255	
818.340	1	1	0	0	0.16731	0.091046	0.28176	0.32114	0.17188	0.16609	0.098068	0.31564	0.1447	0.17133	0.17117	0.26987	0.18021	0.28452	0.1742	0.12935	-2.5792	-2.7583	-2.8792	-3.0833	-2.7333	-2.9375	-2.9917	-2.7979	-3.1312	-2.7146	-2.9708	-3.1875	-2.8604	-2.9354	-2.9417	-2.8271	415.358	460.764	286.325	158.876	450.961	487.256	374.148	509.498	348.819	440.599	265.189	169.023	217.334	461.778	153.825	414.983	0.0016391	0.00045978	0.00013231	1137.7	7.9275e-06	3.9761e-06	1163.5	322.36	9.7341e-06	3.8611e-06	374.08	123.77	108.59	36.446	4.961e-06	46.131	0.00040117	0.00034149	9.5658e-05	1163.5	3.8484e-06	3.8776e-06	1183.2	328.87	3.9375e-06	3.9396e-06	382.35	126.55	110.07	37.651	4.0913e-06	47.75	415.121	253.070	219.942	163.398	292.830	292.106	163.060	168.396	285.098	307.325	167.304	171.607	172.025	177.410	298.243	175.863	-8191	255	
818.436	1	1	0	0	0.41187	0.12239	0.16421	0.081211	0.15683	0.060369	0.23965	0.034059	0.031749	0.040547	0.10946	0.17724	0.0093866	0.30512	0.1327	0.29697	-2.4813	-2.725	-2.7104	-3.2354	-2.6521	-2.9375	-3.0187	-2.7354	-3.0042	-2.75	-2.7979	-3.0125	-2.8479	-2.975	-2.9625	-2.7333	360.348	447.973	198.768	454.892	466.940	220.563	427.208	185.558	182.879	424.736	406.220	492.310	154.358	446.643	487.594	503.372	0.001682	0.00040398	8.1943e-05	1146.6	4.9649e-06	7.0844e-06	1171.7	324.46	1.0594e-05	4.8231e-06	375.49	124.19	109.52	36.759	5.8858e-06	46.47	0.0004363	0.00037891	0.00010591	1173.1	4.2116e-06	4.2039e-06	1194.2	331.48	4.2683e-06	4.2761e-06	385.7	127.41	111.15	37.967	4.253e-06	48.086	412.919	208.668	233.858	163.441	273.526	321.297	163.054	168.358	282.546	265.230	167.442	171.701	172.050	177.227	298.290	175.969	-8191	255	
818.532	1	1	0	0	0.26722	0.21093	0.17804	0.11915	0.10138	0.090468	0.35502	0.23594	0.17803	0.021252	0.23328	0.21187	0.14723	0.23857	0.071748	0.28966	-2.4396	-2.8167	-2.6042	-3.0417	-2.9521	-2.7479	-3.2417	-2.7083	-3.0583	-2.8021	-2.6667	-3.15	-2.6104	-2.8833	-2.9042	-2.8667	220.702	376.323	222.943	461.773	407.823	471.727	429.837	418.886	195.298	313.570	491.732	156.460	378.597	469.216	267.723	494.000	0.001788	0.00046239	0.00016941	1158.5	5.2454e-06	2.8584e-06	1174.8	324.62	1.0746e-05	4.0103e-06	376.05	124.52	109.66	36.677	7.1058e-06	46.363	0.00044644	0.00037992	0.00010961	1183.2	4.2071e-06	4.0507e-06	1198.5	331.68	4.2629e-06	4.0955e-06	386.17	127.5	111.03	37.909	4.1571e-06	48.09	412.304	256.625	236.652	163.464	273.278	277.819	163.120	168.212	267.319	321.271	167.439	171.680	172.184	177.156	303.672	175.845	-8191	255	
818.628	1	1	0	0	0.0662	0.13712	0.10913	0.13005	0.27134	0.30899	0.13359	0.22473	0.29921	0.11091	0.1411	0.12436	0.12018	0.18736	0.020412	0.12443	-2.5396	-3.0458	-2.7333	-3.2188	-2.95	-2.6896	-3.0396	-2.9229	-2.9771	-2.85	-2.9188	-3.0792	-2.8125	-2.8479	-3.0542	-2.8125	195.339	498.378	206.141	482.183	179.851	204.699	379.482	494.843	264.208	414.804	434.174	442.747	214.857	261.224	433.954	258.161	0.0016964	0.00043351	0.00015599	1155.9	8.8641e-06	3.3303e-06	1174.4	324.03	9.7814e-06	4.8558e-06	377.38	125.4	110.44	36.957	6.0069e-06	46.57	0.00043683	0.00037314	0.00010224	1182	4.1042e-06	4.0197e-06	1200.8	332.23	4.0228e-06	3.9109e-06	386.67	128.01	111.61	38.143	3.9165e-06	48.261	414.980	241.129	229.994	163.068	275.172	307.059	162.944	168.150	282.226	323.851	167.392	171.464	172.014	177.126	290.726	175.950	-8191	255	
818.749	1	1	0	0	0.13671	0.10632	0.14382	0.26732	0.13332	0.11758	0.15289	0.098432	0.12753	0.070823	0.021037	0.1519	0.040075	0.34071	0.041758	0.12144	-2.6229	-2.9625	-2.4875	-3.1188	-2.8708	-2.6229	-3.2271	-2.8854	-2.8542	-2.9896	-2.6104	-3.1104	-2.9021	-2.7792	-2.9771	-2.9604	262.727	430.723	445.293	444.181	410.518	369.415	448.153	415.772	199.896	470.934	186.321	460.185	301.810	486.474	281.538	408.243	0.0016803	0.00025588	8.561e-05	1158	6.9668e-06	6.2732e-06	1174	326.66	5.3064e-06	4.2338e-06	378.82	125.68	110.55	36.857	6.006e-06	46.566	0.00040872	0.00034658	9.6547e-05	1185.4	3.8063e-06	3.781e-06	1199.2	333.68	3.8107e-06	3.7088e-06	387.46	128.53	111.88	38.261	3.7654e-06	48.424	412.470	267.318	276.696	163.288	272.222	318.627	163.055	168.251	309.547	291.840	167.115	171.763	172.032	177.189	309.258	175.822	-8191	255	
818.845	1	1	0	0	0.25904	0.20286	0.20892	0.30659	0.21417	0.35657	0.13933	0.27232	0.081355	0.24694	0.13629	0.2675	0.13248	0.35371	0.16801	0.19053	-2.5271	-2.875	-2.7687	-3.0875	-2.8625	-2.5521	-3.2542	-2.8729	-2.7667	-3.0167	-2.8021	-3.1083	-2.8271	-2.6917	-3.05	-3.0979	422.441	409.537	474.784	445.816	498.338	451.526	215.773	455.015	317.524	362.039	488.451	220.967	277.662	359.572	459.887	357.707	0.0016604	0.0003252	9.1635e-05	1138.9	4.2654e-06	4.4965e-06	1161.8	320.68	1.3785e-05	2.9712e-06	373.47	124.74	109.88	36.729	6.2424e-06	46	0.00039942	0.00033304	9.3229e-05	1181.3	3.6775e-06	3.641e-06	1200.2	332.55	3.7563e-06	3.6548e-06	387.23	128.56	111.82	38.301	3.6643e-06	48.403	416.053	247.344	266.191	163.161	288.661	293.976	162.888	167.979	272.730	271.357	167.128	171.382	171.582	177.230	311.162	175.798	-8191	255	
818.941	1	1	0	0	0.23359	0.015472	0.1026	0.23054	0.089799	0.1664	0.20216	0.22735	0.34484	0.17741	0.16844	0.16016	0.029652	0.089461	0.035198	0.22526	-2.4729	-2.9667	-2.6562	-2.9229	-2.9688	-2.7479	-3.2083	-2.8896	-2.6167	-3.1917	-2.975	-2.9396	-2.9875	-2.7687	-3.1542	-2.9104	340.484	464.254	309.697	423.135	480.788	374.807	484.025	494.741	428.994	333.255	458.872	481.825	180.006	170.134	443.742	455.369	0.001684	0.00037885	7.0683e-05	1158.5	5.0818e-06	3.6197e-06	1174.5	326.3	1.2288e-05	5.9006e-06	378.61	125.97	110.69	37.168	3.8762e-06	46.755	0.00039227	0.00032849	9.0245e-05	1184.7	3.5918e-06	3.5962e-06	1203	334.31	3.6405e-06	3.5759e-06	388.35	128.6	112.14	38.401	3.5924e-06	48.558	412.168	249.943	261.349	163.137	257.218	283.286	162.895	168.288	284.696	288.029	167.280	171.573	172.061	177.227	297.315	175.847	-8191	255	
819.037	1	1	0	0	0.20937	0.078307	0.26944	0.26842	0.16083	0.1504	0.09171	0.25019	0.2037	0.13698	0.25897	0.10345	0.070227	0.18016	0.096588	0.13545	-2.3812	-2.9688	-2.575	-2.9958	-2.9896	-2.7854	-3.0938	-3.075	-2.7625	-3.075	-3.0187	-2.9021	-2.875	-2.7146	-2.9854	-3.1021	397.826	228.118	200.714	383.661	359.287	460.198	184.055	339.064	395.583	370.215	154.714	411.025	281.333	261.872	498.391	200.895	0.0017163	0.00037945	0.00011501	1157.6	6.6658e-06	3.2774e-06	1173	326.17	1.0907e-05	4.2438e-06	379.6	126.01	111.63	37.159	4.4804e-06	46.912	0.00038496	0.0003232	9.1138e-05	1185.3	3.5864e-06	3.4805e-06	1202.3	334.25	3.5072e-06	3.4332e-06	388.49	129.08	112.31	38.49	3.4353e-06	48.634	412.058	242.242	250.080	163.519	300.411	298.596	163.044	168.138	291.214	307.161	167.286	171.538	171.855	177.118	263.367	175.879	-8191	255	
819.134	1	1	0	0	0.14341	0.18571	0.17192	0.11808	0.095461	0.14844	0.30337	0.42318	0.16571	0.26113	0.22373	0.16054	0.059968	0.083753	0.074742	0.16903	-2.2938	-2.9667	-2.8	-2.9229	-3.075	-2.7062	-3.1167	-3.1021	-2.5417	-3.1813	-2.8354	-2.7687	-3.0521	-2.6354	-3.025	-2.9875	499.918	304.614	400.881	440.301	266.920	314.795	494.782	452.151	489.975	471.264	497.538	492.358	435.016	493.464	190.283	388.163	0.0017192	0.00052563	0.00019024	1153.9	6.8609e-06	4.3418e-06	1174.9	326.54	1.1801e-05	4.9333e-06	377.29	125.44	111.31	37.073	5.5528e-06	46.869	0.00037547	0.00031719	8.7722e-05	1183.8	3.4196e-06	3.3923e-06	1201.3	334.91	3.4679e-06	3.439e-06	388.21	128.75	112.2	38.43	3.5618e-06	48.6	411.873	233.976	259.275	163.389	285.274	298.756	162.919	168.200	283.633	306.992	167.265	171.438	171.772	177.047	267.448	175.957	-8191	255	
819.230	1	1	0	0	0.1204	0.32424	0.19853	0.22156	0.21473	0.20955	0.23992	0.1853	0.42466	0.07346	0.41749	0.087779	0.38355	0.19696	0.081718	0.18276	-2.0583	-2.9146	-2.7583	-3.0104	-3.1083	-2.675	-3.1146	-3.0417	-2.5354	-3.2125	-3.025	-2.7646	-3.1917	-2.8354	-2.8583	-3.2438	457.495	157.079	388.521	430.221	201.420	461.568	309.458	180.214	152.361	342.311	489.203	255.407	259.171	431.611	483.077	373.648	0.0016917	0.0003889	8.9951e-05	1153.5	6.2172e-06	6.3306e-06	1168.5	325.76	1.3397e-05	3.9757e-06	379.16	125.75	110.21	37.06	7.1064e-06	46.693	0.00038041	0.00031669	8.6924e-05	1182.8	3.4523e-06	3.4117e-06	1200	334.63	3.5027e-06	3.4401e-06	387.91	128.87	111.76	38.39	3.4716e-06	48.558	412.986	227.212	259.916	163.345	294.045	306.639	162.945	168.086	297.241	289.868	167.218	171.697	171.999	177.359	288.838	175.808	-8191	255	
819.349	1	1	0	0	0.15729	0.1981	0.21557	0.15379	0.087638	0.20704	0.11241	0.10853	0.077796	0.10409	0.2326	0.22735	0.16728	0.13668	0.076085	0.12427	-2.2708	-3.0521	-2.95	-2.6583	-3.2562	-2.7292	-2.9813	-3.1146	-2.5375	-2.8417	-2.9208	-2.7562	-3.0812	-3.0458	-2.5563	-3.1854	160.758	372.292	505.618	474.065	193.106	401.836	421.363	412.639	261.633	314.316	267.901	290.009	421.750	478.044	435.902	180.476	0.0017442	0.00036454	0.00011793	1152	8.2044e-06	3.081e-06	1166.9	324.99	9.6844e-06	3.2884e-06	376.86	124.55	110.67	37.03	4.8215e-06	46.333	0.00037807	0.00031642	8.6032e-05	1181.6	3.451e-06	3.387e-06	1199.7	334.62	3.4908e-06	3.3802e-06	387.55	128.6	112.03	38.438	3.4447e-06	48.478	416.272	249.169	273.813	163.330	293.033	342.252	162.948	168.199	293.925	305.474	167.066	171.394	172.055	177.239	313.206	175.948	-8191	255	
819.445	1	1	0	0	0.14063	0.26471	0.16119	0.26778	0.21953	0.18194	0.19109	0.2671	0.17036	0.1158	0.092195	0.26518	0.2612	0.13758	0.079651	0.32365	-2.2333	-2.8292	-3.1063	-2.8312	-2.9896	-2.8312	-2.7979	-3.0333	-2.8854	-3.0375	-3.0396	-2.7125	-3.0708	-2.9958	-2.5375	-3.1292	222.278	509.926	166.199	444.208	446.081	428.092	485.295	247.442	247.039	469.730	423.476	408.741	475.695	301.151	273.024	208.652	0.0016369	0.00045438	0.00013728	1153.4	7.5228e-06	6.0024e-06	1169.2	325.32	1.1316e-05	6.9118e-07	377.25	124.8	110.85	37.013	5.8885e-06	46.499	0.00038047	0.00031201	8.8685e-05	1182	3.4215e-06	3.4275e-06	1199.3	333.96	3.5017e-06	3.4365e-06	388.21	128.6	112.17	38.411	3.4102e-06	48.539	413.063	240.942	263.503	163.264	264.948	304.452	162.886	168.246	289.187	414.550	167.283	171.549	171.956	177.000	280.263	175.735	-8191	255	
819.541	1	1	0	0	0.094985	0.28206	0.079867	0.21044	0.24874	0.092044	0.097141	0.40125	0.19287	0.15588	0.15219	0.14006	0.13794	0.082576	0.16422	0.031219	-2.2667	-2.6854	-2.7938	-2.6354	-2.9958	-3.0083	-2.9938	-3.3354	-2.9167	-2.8479	-3.0062	-2.7958	-2.9437	-2.9125	-2.6833	-2.9875	475.236	160.203	344.033	455.512	269.049	459.732	435.573	159.312	509.612	190.292	400.305	287.747	154.245	177.905	451.023	167.111	0.0016892	0.00013664	8.7551e-05	1135.8	2.7091e-06	4.9662e-06	1151	321.87	9.0432e-06	5.0989e-06	371.1	123.89	110.48	36.796	6.2472e-06	46.206	0.00036974	0.0003025	8.457e-05	1179.9	3.3537e-06	3.392e-06	1196.2	333.86	3.4623e-06	3.4038e-06	387.04	128.41	112.13	38.431	3.4104e-06	48.522	411.626	281.184	211.535	163.060	298.887	283.297	162.643	167.953	289.949	306.312	166.786	171.255	171.933	176.955	270.717	175.747	-8191	255	
819.637	1	1	0	0	0.27563	0.19728	0.077605	0.12152	0.14406	0.16549	0.15079	0.15365	0.13655	0.1464	0.17047	0.065072	0.043119	0.27253	0.26389	0.16318	-2.4667	-2.8729	-3.0708	-2.9062	-2.9313	-2.8333	-2.75	-3.0187	-2.8417	-3.0375	-2.9854	-2.5833	-3.0687	-3.0667	-2.7562	-3.05	304.746	459.131	339.594	447.171	375.337	303.418	401.838	452.860	399.136	318.280	160.491	439.373	428.798	150.430	282.598	373.451	0.0017235	0.00046021	0.00020765	1145.7	7.7246e-06	6.3191e-06	1168.7	322.72	1.1702e-05	5.0664e-06	373.21	123.94	110.31	36.797	4.3833e-06	46.491	0.00036843	0.00030551	8.4591e-05	1181.4	3.3607e-06	3.2817e-06	1200.6	334.27	3.3746e-06	3.3295e-06	386.86	128.78	112.21	38.447	3.3783e-06	48.621	415.862	251.539	242.184	163.045	285.566	301.841	162.854	167.937	275.165	291.617	167.191	171.266	171.599	176.893	291.049	175.731	-8191	255	
819.733	1	1	0	0	0.23417	0.033497	0.11321	0.15217	0.31933	0.10512	0.25057	0.20387	0.25494	0.16083	0.11783	0.17754	0.11001	0.36047	0.16981	0.24067	-2.4562	-2.625	-2.9625	-2.6729	-2.7167	-2.9625	-2.7854	-2.9458	-2.9688	-2.5875	-3.0208	-2.7896	-2.9479	-2.9083	-2.6958	-3.0875	252.046	261.278	236.715	425.965	193.496	459.587	377.760	404.413	364.481	420.671	299.203	184.503	484.734	410.502	482.960	316.769	0.0016308	0.00051847	0.00014915	1149.4	7.6923e-06	3.9567e-06	1161.8	323.7	1.0526e-05	2.8567e-06	371.61	123.81	109.65	36.665	5.4452e-06	46.118	0.00036126	0.00030268	8.315e-05	1182.4	3.302e-06	3.1877e-06	1199.5	334.78	3.324e-06	3.2215e-06	386.83	128.6	112.13	38.482	3.2476e-06	48.61	415.214	258.437	251.780	163.293	290.091	329.930	162.879	168.171	273.487	308.350	167.185	171.144	171.621	176.690	302.530	175.635	-8191	255	
819.829	1	1	0	0	0.13373	0.094825	0.14853	0.13636	0.31053	0.26348	0.2603	0.38038	0.14061	0.079235	0.034063	0.16694	0.13131	0.070391	0.20114	0.12609	-2.4	-2.5917	-3.1542	-2.6667	-2.9458	-3.1458	-2.7958	-2.9875	-2.8521	-2.6021	-2.9625	-2.9271	-2.8104	-3.0396	-2.5875	-2.9792	177.297	252.342	225.094	468.215	365.756	503.195	473.678	153.603	421.244	422.434	387.234	468.064	429.717	189.225	292.590	457.050	0.0016698	0.00035722	0.00014388	1140.2	6.9317e-06	1.5235e-06	1161.2	323.11	1.2934e-05	4.0414e-06	373.13	124.35	110.21	36.535	5.7681e-06	46.102	0.00035711	0.00029431	8.1906e-05	1180.6	3.2851e-06	3.1378e-06	1199	334.64	3.3174e-06	3.1507e-06	387.82	128.72	112.24	38.355	3.239e-06	48.533	413.833	267.552	258.129	163.334	258.078	330.275	162.737	167.917	270.385	302.128	166.930	171.290	171.921	176.815	304.587	175.452	-8191	255	
819.950	1	1	0	0	0.097199	0.17319	0.1826	0.11167	0.049459	0.16657	0.033457	0.067001	0.13387	0.19654	0.35717	0.11058	0.070531	0.20257	0.18245	0.26485	-2.2687	-2.5333	-3.0479	-3.0146	-2.7229	-3.125	-2.8771	-2.8937	-3.0646	-2.6417	-3.3	-2.9313	-2.7729	-3.2	-2.7083	-2.9313	416.634	212.415	346.599	475.483	245.461	421.477	441.556	451.406	263.983	492.896	496.711	270.298	314.951	499.540	363.014	453.169	0.0017006	0.0004647	0.00010109	1139.9	5.9292e-06	2.4209e-06	1164	324.78	9.3409e-06	3.2755e-06	374.14	124.61	110.37	36.833	6.1748e-06	46.636	0.00035559	0.00029479	8.2324e-05	1178.3	3.2918e-06	3.2085e-06	1197.8	334.52	3.2791e-06	3.2072e-06	387.24	128.77	112.19	38.493	3.2484e-06	48.564	411.488	251.032	250.893	163.280	271.479	324.643	162.826	168.037	287.560	303.143	167.378	171.226	171.788	177.120	280.817	175.863	-8191	255	
820.046	1	1	0	0	0.122	0.21187	0.14778	0.24289	0.066172	0.13301	0.19876	0.25306	0.18049	0.10533	0.032593	0.11149	0.13704	0.18163	0.043309	0.20788	-2.7625	-2.5938	-3.025	-3.0042	-2.6042	-3.0479	-2.7979	-3.1125	-3.0167	-2.5354	-3.0146	-2.9458	-2.6208	-3.1417	-2.6667	-2.7521	305.094	160.676	500.173	491.660	292.327	446.862	426.364	465.066	404.430	496.953	162.987	399.159	314.710	411.659	228.101	226.485	0.0015852	0.00053716	7.8927e-05	1142.2	7.2189e-06	4.3709e-06	1158.7	324.32	1.0251e-05	4.2655e-06	375	124.53	110.04	37.059	5.066e-06	46.702	0.00036056	0.00029608	8.0792e-05	1178.4	3.3564e-06	3.2124e-06	1196.5	334.74	3.2647e-06	3.2927e-06	387.58	128.64	111.95	38.419	3.3128e-06	48.583	417.596	249.089	275.126	163.216	307.165	281.698	162.757	168.015	280.780	315.851	167.126	171.585	172.284	177.239	263.477	175.782	-8191	255	
820.118	1	1	0	0	0.22699	0.11868	0.21044	0.10856	0.049316	0.19678	0.21269	0.28742	0.083994	0.16108	0.20382	0.067529	0.17369	0.16409	0.35596	0.31437	-2.6667	-2.8625	-2.925	-3.0167	-2.5833	-2.9792	-3.1021	-2.9271	-2.8979	-2.5875	-2.9813	-3.1688	-2.7854	-3.125	-2.7854	-2.7521	253.317	204.709	414.340	349.877	220.754	308.305	424.678	463.101	273.933	223.941	341.369	277.023	245.916	404.823	409.786	459.402	0.0015636	0.00034083	9.4811e-05	1151.2	5.6689e-06	4.071e-06	1168.5	327.03	1.2266e-05	4.0031e-06	378.07	126.01	111.12	37.214	6.5716e-06	46.709	0.00035797	0.00029455	8.3262e-05	1179.1	3.2419e-06	3.2795e-06	1196.4	334.84	3.3414e-06	3.2397e-06	388.13	128.83	112.14	38.481	3.3023e-06	48.535	413.357	249.570	251.887	163.435	283.746	292.365	163.073	168.209	272.087	284.731	167.296	171.556	171.899	176.992	284.465	176.311	-8191	255	
820.214	1	1	0	0	0.04519	0.03761	0.14579	0.1968	0.098273	0.03981	0.21303	0.095388	0.047553	0.27774	0.21992	0.14677	0.15288	0.14924	0.20917	0.14667	-2.7708	-2.8021	-2.6229	-3.1312	-2.7104	-2.9875	-3.0187	-2.8187	-3.0354	-2.8979	-3.1	-3.0563	-2.8833	-3.0958	-2.8375	-2.7542	296.230	456.199	335.261	429.568	165.158	313.576	438.451	267.857	253.399	462.157	180.138	213.337	446.385	160.374	314.026	302.088	0.0017222	0.00034087	0.00019137	1147.5	8.4706e-06	3.4606e-06	1168.2	322.06	1.4101e-05	2.1899e-06	370.77	124.5	109.72	36.54	5.5846e-06	46.116	0.00036514	0.00030035	8.4942e-05	1178.7	3.3598e-06	3.337e-06	1196.6	333.35	3.4514e-06	3.3037e-06	386.77	128.45	111.72	38.268	3.3386e-06	48.396	414.182	217.750	271.221	163.412	279.883	333.925	162.906	168.087	275.171	289.117	167.286	171.380	171.807	177.018	283.012	176.015	-8191	255	
820.310	1	1	0	0	0.13765	0.098359	0.10367	0.14313	0.14697	0.25309	0.53375	0.20861	0.10242	0.31001	0.082856	0.17629	0.31769	0.24724	0.090497	0.20556	-2.8417	-2.7604	-2.6583	-3.1063	-2.7458	-2.9437	-2.9958	-2.8625	-2.9667	-2.7854	-3.0521	-3.1937	-2.5438	-3.0208	-2.7729	-2.8646	183.797	269.790	197.799	418.068	178.372	336.449	425.383	508.723	225.767	170.557	243.864	234.047	457.350	485.314	310.119	496.118	0.0016459	0.0004373	8.0864e-05	1130.7	7.7331e-06	4.3003e-06	1154.6	323.28	1.3637e-05	3.9321e-06	374.49	124.22	109.17	36.773	3.4166e-06	46.351	0.00036964	0.00030344	8.2911e-05	1175.9	3.3339e-06	3.3338e-06	1195.5	333.81	3.4041e-06	3.2916e-06	387	128.37	111.86	38.35	3.3267e-06	48.412	410.139	207.269	292.752	163.085	288.732	325.288	162.736	167.933	259.500	321.842	167.308	171.602	171.902	177.081	298.487	175.932	-8191	255	
820.429	1	1	0	0	0.14001	0.022862	0.20245	0.19133	0.067653	0.11301	0.29056	0.38889	0.11388	0.28359	0.10436	0.2082	0.094504	0.041828	0.08669	0.0045404	-2.6667	-2.7708	-2.6917	-3.1167	-2.7292	-2.975	-3.0271	-2.7687	-2.8708	-2.9271	-2.8479	-3.2396	-2.9125	-2.7083	-2.9958	-2.7313	268.678	485.288	397.260	151.884	308.591	158.660	473.438	418.473	244.268	431.845	445.119	450.967	273.028	507.508	508.076	299.871	0.001636	0.00041758	0.00016679	1145.6	6.1349e-06	5.9992e-06	1167.3	323.42	1.0843e-05	3.3047e-06	375.65	125.49	110.69	36.843	5.2366e-06	46.597	0.00036753	0.00030217	8.432e-05	1178.5	3.4183e-06	3.3523e-06	1196.8	332.88	3.4084e-06	3.3312e-06	387.2	128.39	111.67	38.241	3.3835e-06	48.341	417.087	213.832	226.597	163.245	311.452	319.438	162.875	168.292	263.108	310.472	167.138	171.473	172.193	177.232	264.875	176.035	-8191	255	
820.525	1	1	0	0	0.015176	0.18744	0.088789	0.021868	0.091672	0.066521	0.25342	0.1083	0.03173	0.38826	0.069012	0.13977	0.10056	0.12833	0.1513	0.13867	-2.5812	-2.9021	-2.4729	-3.3042	-2.725	-2.8458	-3.2062	-2.9437	-3.0854	-2.8708	-2.8625	-3.0854	-2.8125	-2.8271	-2.9167	-2.9	303.373	339.218	324.339	257.819	492.403	284.061	458.765	172.402	220.231	158.637	187.006	445.915	336.557	332.021	337.700	396.890	0.0017615	0.00044181	0.00015788	1146.6	4.0656e-06	3.5022e-06	1157.1	321.54	1.2155e-05	2.8351e-06	375.04	124.61	109.34	36.684	5.1594e-06	46.374	0.00037988	0.00030542	8.6214e-05	1178.4	3.4066e-06	3.4035e-06	1195.7	332.61	3.4841e-06	3.4283e-06	386.8	128.14	111.69	38.28	3.4388e-06	48.396	412.460	226.238	248.719	163.467	298.840	262.235	162.631	167.721	261.425	253.910	167.175	171.234	172.094	176.924	267.076	175.766	-8191	255	
820.621	1	1	0	0	0.15275	0.15453	0.15872	0.19435	0.080002	0.13204	0.19249	0.076767	0.021454	0.1793	0.11358	0.22367	0.31135	0.37833	0.27741	0.12783	-2.4646	-2.8229	-2.6	-3.2042	-2.7646	-2.8708	-3.1125	-3.0125	-2.9271	-2.9021	-2.6333	-3.2	-2.7333	-2.9458	-2.8375	-3.0417	253.542	254.066	393.632	455.304	210.489	441.415	399.364	410.196	337.497	477.405	499.826	494.185	344.650	504.923	163.280	203.825	0.0016495	0.00044138	0.00012708	1140	3.8037e-06	4.2245e-06	1166	325.7	8.2693e-06	2.8537e-06	375.97	125.5	110.98	37.048	4.8091e-06	46.64	0.00037812	0.00030965	8.6763e-05	1178	3.4215e-06	3.4471e-06	1195.9	333.62	3.4867e-06	3.448e-06	386.89	128.34	111.76	38.313	3.4645e-06	48.451	418.075	240.437	267.681	163.353	334.494	277.484	162.928	168.087	275.146	337.607	167.233	171.549	171.740	177.097	279.889	175.978	-8191	255	
820.742	1	1	0	0	0.18634	0.11287	0.038254	0.25994	0.050718	0.0034427	0.18943	0.14034	0.17332	0.17928	0.15705	0.11982	0.40131	0.16723	0.19303	0.21031	-2.4792	-2.9	-2.6875	-3.05	-2.7104	-2.7667	-3.2771	-2.8125	-2.9062	-3.0729	-2.6937	-3.1167	-2.8729	-2.9896	-3.0833	-2.8708	496.858	239.681	370.437	428.196	342.780	310.254	399.432	460.630	313.573	295.893	251.188	248.680	457.061	172.947	371.823	479.819	0.0017782	0.00058857	0.00018014	1148.9	4.652e-06	6.128e-06	1169.7	324.89	9.063e-06	5.0648e-06	373.07	125.46	110.18	36.87	6.6776e-06	46.68	0.00037819	0.00030866	8.6113e-05	1177.8	3.4039e-06	3.3634e-06	1196.5	333.38	3.4326e-06	3.4007e-06	385.98	128.4	111.66	38.298	3.4194e-06	48.357	413.931	262.780	254.937	163.193	299.329	303.631	162.941	168.264	293.480	310.424	167.174	171.571	171.953	177.288	300.291	175.961	-8191	255	
820.814	1	1	0	0	0.23669	0.21662	0.168	0.25688	0.097676	0.22549	0.16107	0.19181	0.16036	0.20444	0.17546	0.047607	0.26974	0.1527	0.10852	0.14673	-2.3104	-2.9896	-2.5271	-3.1167	-2.6833	-2.6729	-2.9813	-2.8	-2.7479	-2.7938	-2.6396	-2.9354	-2.8563	-2.6854	-3.0104	-2.9146	239.181	495.123	392.581	508.267	448.329	349.387	323.404	156.290	283.105	316.560	428.205	233.406	337.465	500.281	400.472	400.566	0.0017091	0.00058427	9.7061e-05	1154.2	4.8764e-06	2.6461e-06	1170.7	327.34	1.1288e-05	5.705e-06	380.7	125.92	110.62	37.174	5.4049e-06	46.91	0.00037773	0.00030923	8.6295e-05	1179.1	3.4233e-06	3.3886e-06	1196.3	333.71	3.4763e-06	3.3544e-06	387.82	128.48	111.81	38.356	3.364e-06	48.458	411.796	225.181	248.986	163.416	270.499	301.617	162.901	168.247	298.448	288.244	167.458	171.793	171.923	177.294	309.429	176.047	-8191	255	
820.910	1	1	0	0	0.21351	0.039324	0.033635	0.20405	0.22259	0.072232	0.10014	0.12156	0.17859	0.074191	0.28622	0.079296	0.065714	0.12775	0.12433	0.18031	-2.25	-2.8792	-2.5229	-3.0938	-3.0062	-2.675	-3.1458	-3.0563	-2.7271	-3.2	-2.9042	-3.0312	-3.0167	-2.6833	-2.9854	-3.1396	506.421	204.178	314.869	416.901	259.524	423.427	461.792	481.136	264.360	206.776	158.989	458.770	438.662	318.343	278.310	469.443	0.0016746	0.00047033	9.8865e-05	1152	5.2905e-06	3.0109e-06	1174.5	326.28	1.4167e-05	3.7632e-06	378.92	126	111	37.094	6.0447e-06	46.955	0.00037674	0.00030519	8.4861e-05	1176.7	3.468e-06	3.3456e-06	1195.3	333.16	3.5129e-06	3.3723e-06	386.59	128.24	111.68	38.271	3.4043e-06	48.43	413.851	257.067	229.929	163.460	286.624	272.932	162.995	168.212	293.605	322.066	167.339	171.874	171.973	177.393	307.095	175.919	-8191	255	
821.030	1	1	0	0	0.027553	0.1014	0.10745	0.057	0.23832	0.065179	0.10793	0.36015	0.14619	0.20643	0.11224	0.089652	0.3178	0.091015	0.18476	0.1023	-2.3187	-3.1042	-2.7875	-2.925	-3.05	-2.6979	-3.2833	-3.0229	-2.6458	-2.9792	-2.8667	-3.0896	-3.0667	-2.7375	-3.1354	-2.9625	464.044	439.995	455.865	239.113	502.535	441.016	488.228	450.159	432.097	258.620	497.459	479.634	365.900	365.591	483.379	430.639	0.0016987	0.00040212	0.00015723	1153.7	4.6139e-06	4.5482e-06	1176.3	327.12	7.7799e-06	4.4473e-06	377.89	126.4	111.08	37.046	5.437e-06	47.099	0.00036896	0.00030451	8.5455e-05	1176.3	3.3276e-06	3.2713e-06	1195.1	333.19	3.3878e-06	3.3223e-06	386.29	128.42	111.44	38.213	3.3421e-06	48.369	412.385	253.934	242.857	163.464	311.209	318.814	163.161	168.513	294.295	303.610	167.692	171.912	171.951	177.600	276.029	175.971	-8191	255	
821.127	1	1	0	0	0.1933	0.22252	0.3893	0.20993	0.21833	0.14485	0.18514	0.26265	0.078793	0.030227	0.19685	0.2948	0.42492	0.19194	0.10388	0.11138	-2.3583	-2.975	-2.6521	-2.9104	-3.0458	-2.7438	-3.1063	-3.1688	-2.6708	-3.0333	-2.8458	-2.8063	-3.0229	-2.7438	-2.8042	-2.925	499.773	223.431	293.531	351.202	200.027	440.376	412.183	479.506	295.401	387.446	189.365	430.899	450.103	178.936	491.359	407.495	0.0016998	0.00045894	0.00015707	1155.3	8.9162e-06	5.8089e-06	1170.4	327.61	1.1753e-05	3.4562e-06	378.74	125.88	111.08	37.007	7.5629e-06	46.899	0.00036283	0.00030248	8.522e-05	1176.3	3.3205e-06	3.3538e-06	1192.6	332.87	3.3918e-06	3.2983e-06	386.38	128.19	111.74	38.211	3.4186e-06	48.323	414.209	237.433	226.365	163.535	261.220	287.282	162.976	168.426	272.114	354.178	167.372	171.691	171.847	177.265	266.569	176.185	-8191	255	
821.221	1	1	0	0	0.16988	0.26639	0.15635	0.06805	0.055573	0.19988	0.24363	0.06185	0.039738	0.1754	0.21557	0.18483	0.11466	0.093519	0.24096	0.33973	-2.3042	-2.8375	-2.9083	-2.9083	-2.95	-2.7583	-3.0354	-2.8563	-2.8208	-2.9271	-2.8271	-2.8104	-3.0812	-2.7792	-2.8833	-3.1354	424.235	428.410	390.401	431.476	198.962	240.163	444.844	397.720	287.677	375.766	503.600	453.744	177.771	227.553	159.721	481.698	0.0015797	0.00091497	6.2438e-05	1150.4	6.0644e-06	5.4312e-06	1170.8	325.59	1.2902e-05	6.1618e-06	377.7	125.71	110.73	37.142	4.1253e-06	46.718	0.00036799	0.00030676	8.4816e-05	1173.1	3.3941e-06	3.3188e-06	1193.4	332.45	3.3704e-06	3.3323e-06	385.34	128.04	111.64	38.178	3.4293e-06	48.292	413.934	233.074	288.225	163.553	297.148	310.477	163.245	168.246	288.440	291.894	167.365	171.656	171.828	177.059	282.128	176.213	-8191	255	
821.342	1	1	0	0	0.29038	0.19466	0.072636	0.44148	0.031332	0.20951	0.096419	0.26394	0.13955	0.22613	0.30321	0.17152	0.1167	0.047131	0.086343	0.012131	-2.2125	-2.9521	-2.8458	-2.9437	-3.0917	-2.9146	-2.8063	-3.3	-2.9167	-3.1312	-3.1708	-2.7292	-3.1542	-2.9896	-2.8979	-3.1063	298.399	476.538	420.502	475.563	470.056	334.645	409.154	447.241	461.602	223.728	477.151	157.275	236.391	192.092	397.710	197.500	0.0015801	0.00041105	7.0627e-05	1146.7	6.7908e-06	4.203e-06	1173	326.87	7.0677e-06	2.9017e-06	378.36	125.79	110.04	37.117	7.228e-06	46.774	0.00036689	0.0003086	8.4296e-05	1171.5	3.4021e-06	3.367e-06	1192	332.94	3.5043e-06	3.3972e-06	385.83	128.13	111.11	38.172	3.4293e-06	48.298	414.600	260.487	229.641	163.657	292.640	325.282	163.191	168.140	272.959	291.294	167.419	171.630	172.009	177.327	278.707	175.969	-8191	255	
821.413	1	1	0	0	0.30022	0.23019	0.14239	0.14483	0.17626	0.18291	0.013212	0.25876	0.23993	0.12609	0.051848	0.1105	0.14725	0.17286	0.18549	0.23324	-2.2042	-2.9375	-2.9479	-2.7875	-3.1604	-2.7604	-3.1021	-3.2625	-2.6854	-2.9333	-3.15	-2.7	-3.0396	-2.7625	-2.5792	-3.1167	442.554	388.418	370.968	468.061	363.666	241.713	413.475	445.267	346.530	431.871	508.442	154.818	468.586	261.423	219.248	439.069	0.001723	0.00045087	0.00017139	1153.9	5.9832e-06	3.2855e-06	1176.1	327.14	1.0201e-05	4.5213e-06	376.62	125.96	111.14	37.104	3.9643e-06	46.888	0.00037099	0.00031239	8.5146e-05	1174.9	3.4027e-06	3.3706e-06	1193.4	332.85	3.4544e-06	3.3739e-06	385.45	128.15	111.57	38.187	3.4416e-06	48.315	414.669	252.269	242.803	163.577	278.837	256.007	163.008	168.323	279.054	277.260	167.340	171.638	171.986	177.426	293.815	176.176	-8191	255	
821.509	1	1	0	0	0.072203	0.16319	0.3347	0.23039	0.063218	0.083982	0.32625	0.11325	0.093926	0.14692	0.2332	0.11185	0.31589	0.071069	0.31887	0.13686	-2.2	-2.8646	-2.8854	-2.7938	-2.9583	-2.9083	-2.8771	-3.15	-2.8417	-2.8625	-3.0854	-2.8958	-2.9979	-2.8479	-2.5687	-3.1729	493.513	386.821	317.444	188.526	488.125	452.946	250.585	402.579	323.763	241.751	381.337	288.549	221.448	353.270	319.747	377.403	0.0016997	0.00039772	0.00012509	1151.7	5.6617e-06	3.3505e-06	1171.2	326.23	9.1946e-06	3.2825e-06	376.79	125.69	110.98	37.098	4.4578e-06	46.593	0.0003717	0.00031368	8.4387e-05	1173.4	3.4253e-06	3.3661e-06	1190.3	332.05	3.4576e-06	3.3334e-06	385.34	128.16	111.58	38.079	3.43e-06	48.227	413.733	266.720	235.871	163.295	304.153	310.532	163.105	168.487	292.587	314.780	167.586	171.674	171.891	177.257	292.097	176.338	-8191	255	
821.606	1	1	0	0	0.090728	0.24344	0.11629	0.2221	0.15231	0.17742	0.30861	0.11113	0.15199	0.19163	0.20426	0.20078	0.20802	0.03023	0.16566	0.10409	-2.4104	-2.8	-3.0375	-2.7833	-2.9833	-2.7625	-2.8958	-3.2188	-2.8604	-2.9271	-3.0812	-2.8854	-2.9917	-2.9708	-2.8146	-3.0958	453.313	450.275	163.315	469.059	258.556	398.987	211.245	154.717	159.095	270.100	158.742	498.956	272.002	501.665	467.039	486.245	0.0016843	0.00030784	0.0001855	1152.6	4.9766e-06	4.8641e-06	1171.2	325.49	8.7742e-06	4.8886e-06	378.43	125.24	110.66	37.007	4.5835e-06	46.962	0.00037195	0.00030586	8.6468e-05	1174.2	3.4631e-06	3.3446e-06	1191.2	332.5	3.4385e-06	3.3509e-06	386.26	128.08	111.37	38.164	3.4357e-06	48.354	415.133	241.363	237.287	163.572	284.827	301.186	163.165	168.230	280.593	275.958	167.594	171.830	172.408	177.277	300.220	176.342	-8191	255	
821.726	1	1	0	0	0.12138	0.27045	0.10052	0.11767	0.13846	0.18414	0.34802	0.038451	0.10393	0.14299	0.11997	0.058682	0.10014	0.054564	0.13947	0.229	-2.4583	-2.8438	-3.0563	-2.9333	-2.775	-3.1083	-2.7333	-2.9833	-2.8021	-2.7625	-3.3646	-2.8646	-2.9	-2.8958	-2.7687	-3.0062	291.948	166.154	296.557	418.372	229.373	312.190	450.660	394.080	373.654	396.850	473.817	441.864	208.819	191.639	429.629	395.516	0.0016139	0.00049905	0.00015701	1153.6	1.1157e-05	6.6514e-06	1172.1	325.52	7.0233e-06	3.6982e-06	376.83	126.22	110.67	37.097	4.7842e-06	46.722	0.00037216	0.00030187	8.5856e-05	1174.5	3.4102e-06	3.3402e-06	1191.9	332.36	3.4172e-06	3.3749e-06	385.82	128.2	111.5	38.192	3.444e-06	48.273	412.811	242.908	243.207	163.241	280.782	316.918	163.092	168.151	283.824	275.239	167.612	171.995	172.402	177.168	288.121	176.109	-8191	255	
821.822	1	1	0	0	0.12806	0.14803	0.23072	0.091776	0.15297	0.10281	0.13725	0.20347	0.15961	0.16601	0.15918	0.15413	0.14635	0.056226	0.066061	0.25978	-2.5125	-2.85	-2.9417	-2.8646	-2.9167	-3.1583	-2.8833	-3.1333	-2.8375	-2.6917	-3.3083	-2.7708	-2.7646	-3.0833	-2.7271	-2.9854	255.549	284.607	457.246	471.222	407.103	179.397	167.095	463.443	329.698	288.838	509.767	481.323	172.275	188.300	389.866	430.952	0.0016136	0.00038937	5.8316e-05	1155.9	4.7695e-06	6.1804e-06	1169.4	326.01	1.0783e-05	5.417e-06	377.27	125.6	110.25	37.089	3.1611e-06	46.592	0.00037063	0.00030452	8.6232e-05	1176.5	3.382e-06	3.297e-06	1190.9	332.57	3.381e-06	3.3423e-06	386.25	128.06	111.42	38.14	3.4495e-06	48.238	417.222	235.597	269.667	163.500	276.663	310.343	163.119	168.176	279.282	266.756	167.557	171.851	171.940	177.281	294.792	176.051	-8191	255	
821.918	1	1	0	0	0.2897	0.12292	0.21182	0.27467	0.23058	0.24527	0.226	0.22937	0.28318	0.14198	0.11138	0.15171	0.037657	0.37011	0.14923	0.047897	-2.5146	-2.85	-2.8542	-2.9083	-2.8438	-3.0187	-2.7667	-3.0125	-2.6917	-2.7313	-3.1125	-2.8563	-2.85	-3.175	-2.8083	-2.8646	488.829	386.345	323.631	164.113	199.926	231.617	475.001	447.425	385.340	408.875	507.668	279.057	503.326	179.205	259.212	299.339	0.0015794	0.00027972	0.00014943	1153.9	6.2058e-06	3.0617e-06	1170.7	327.39	1.0624e-05	3.9645e-06	376.67	126.01	111.09	37.217	7.5079e-06	46.72	0.00036775	0.0003038	8.5747e-05	1174.6	3.4733e-06	3.3903e-06	1193.1	333.12	3.4686e-06	3.3934e-06	385.43	128.07	111.59	38.204	3.4499e-06	48.209	412.400	263.491	239.539	163.449	272.365	302.039	162.978	168.086	298.496	284.960	167.268	171.786	172.299	177.230	303.617	176.016	-8191	255	
822.015	1	1	0	0	0.17557	0.20231	0.086464	0.1381	0.40328	0.13173	0.067655	0.1713	0.097744	0.12801	0.31638	0.078564	0.2199	0.16387	0.097841	0.29939	-2.6042	-2.4771	-2.7188	-2.9333	-2.7583	-3.1375	-2.9125	-2.9646	-3.1625	-2.6854	-2.9146	-2.8854	-2.5521	-2.9604	-2.7646	-3.025	401.587	378.762	471.557	155.103	353.779	242.584	383.023	461.040	391.553	214.917	450.365	222.071	445.405	373.170	221.118	238.714	0.0018777	0.00041693	0.00012594	1148.5	8.1002e-06	5.2944e-06	1172.8	325.33	1.1261e-05	4.1488e-06	378.86	125.34	110.65	37.163	2.9988e-06	46.995	0.0003734	0.00030819	8.7504e-05	1172.7	3.4015e-06	3.4039e-06	1192.4	332.32	3.4459e-06	3.3804e-06	385.89	127.89	111.37	38.162	3.414e-06	48.331	413.276	225.645	247.077	163.496	252.855	320.641	163.003	168.169	270.863	272.473	167.509	171.764	172.088	177.187	292.621	176.243	-8191	255	
822.111	1	1	0	0	0.072925	0.22195	0.047562	0.19545	0.14609	0.058706	0.19892	0.19211	0.38396	0.20026	0.15218	0.18871	0.18083	0.063898	0.012891	0.21288	-2.4479	-2.5958	-2.9104	-3.0917	-2.4458	-2.9667	-2.9062	-2.7917	-2.9188	-2.7604	-2.8417	-2.875	-2.6312	-2.9938	-2.8792	-2.8937	480.019	431.511	350.951	192.967	170.008	302.376	154.864	446.519	162.401	389.903	322.906	472.604	332.954	488.108	301.603	269.625	0.0017634	0.00035053	6.6268e-05	1149.9	7.0021e-06	4.4882e-06	1170.5	325.98	1.0057e-05	4.3611e-06	379.38	125.46	111.24	36.89	7.7764e-06	46.819	0.00037422	0.0003116	8.8081e-05	1172.9	3.3997e-06	3.3499e-06	1191.3	332.58	3.5046e-06	3.4373e-06	386.24	127.8	111.36	38.142	3.475e-06	48.235	413.575	221.238	253.837	163.299	274.111	312.342	163.027	168.319	281.241	305.584	167.476	171.887	172.098	177.155	300.539	176.038	-8191	255	
822.207	1	1	0	0	0.16335	0.057703	0.16013	0.21	0.33648	0.097937	0.30262	0.25535	0.015433	0.41044	0.11901	0.050145	0.29687	0.07497	0.17564	0.024261	-2.5125	-2.6063	-2.8833	-3.0396	-2.6917	-3.0271	-3.0875	-2.825	-2.925	-2.6229	-2.8792	-3.1771	-2.5271	-3.1021	-2.8229	-2.7167	389.399	455.892	267.246	486.769	402.632	193.353	405.280	409.860	167.101	369.297	479.814	410.961	439.409	491.843	490.375	230.180	0.0016116	0.00030824	0.00013416	1151.2	8.7476e-06	3.8835e-06	1168.5	325.69	1.082e-05	6.1777e-06	376.91	125.37	110.84	36.86	7.4999e-06	46.45	0.00037079	0.00031431	8.7121e-05	1174	3.3929e-06	3.4002e-06	1188.8	332.04	3.3793e-06	3.2929e-06	385.54	127.76	111.17	38.039	3.4913e-06	48.136	413.836	250.570	262.064	163.401	266.863	339.406	163.110	168.359	260.132	272.346	167.372	171.556	172.509	177.191	252.303	176.045	-8191	255	
822.303	1	1	0	0	0.14265	0.088574	0.12271	0.13136	0.13901	0.17609	0.16447	0.25662	0.13697	0.25729	0.059621	0.024083	0.024019	0.16224	0.28371	0.19604	-2.7458	-2.625	-2.8604	-3.1312	-2.6104	-2.7521	-2.9875	-2.8958	-3.0375	-2.7583	-2.8312	-3.0938	-2.6083	-3.0583	-2.8438	-2.7938	401.870	368.486	224.704	415.563	167.622	447.835	382.588	433.546	506.618	502.200	285.928	296.840	231.598	433.198	354.790	442.336	0.0018585	0.00032583	9.4024e-05	1146.1	7.8097e-06	4.1433e-06	1169.2	324.73	1.0614e-05	3.0006e-06	377.51	125.66	110.41	36.982	4.3603e-06	46.665	0.00037812	0.00031459	8.6316e-05	1172.3	3.4601e-06	3.3898e-06	1190.5	331.78	3.5423e-06	3.3703e-06	386.07	127.78	111.09	38.078	3.5041e-06	48.201	413.168	246.833	233.060	163.317	307.908	324.527	163.071	168.360	286.795	315.348	167.513	171.763	172.094	177.515	312.151	176.177	-8191	255	
822.422	1	1	0	0	0.093318	0.14625	0.23703	0.098128	0.11738	0.2063	0.20546	0.05351	0.053153	0.19302	0.23026	0.038386	0.034316	0.18186	0.07098	0.30668	-2.7667	-2.7583	-2.8187	-3.0042	-2.4917	-2.7521	-3.0896	-2.8438	-3.0833	-2.7042	-2.6729	-3.0958	-2.6896	-2.9813	-2.825	-2.5104	154.115	354.828	383.749	260.462	334.201	358.188	432.910	166.021	445.375	295.834	377.990	510.068	266.234	384.679	255.164	470.283	0.0016821	0.00040734	0.00014008	1149.4	8.1565e-06	3.3398e-06	1167.5	325.54	1.0593e-05	4.5052e-06	376.78	125.72	110.57	36.999	7.0666e-06	46.515	0.0003727	0.00031008	8.5192e-05	1173.4	3.4536e-06	3.4306e-06	1189.9	332.55	3.5115e-06	3.3763e-06	385.87	128	111.35	38.076	3.3554e-06	48.235	414.289	233.235	236.515	163.592	290.930	262.230	163.027	168.134	289.770	299.943	167.387	171.708	172.045	177.391	292.839	176.197	-8191	255	
822.518	1	1	0	0	0.21257	0.16589	0.06556	0.22113	0.0040057	0.093362	0.12061	0.61206	0.25219	0.20002	0.094577	0.26371	0.097448	0.022442	0.20901	0.13341	-2.8021	-2.7729	-2.6208	-3.0979	-2.8042	-2.7958	-3.1188	-2.8521	-2.7687	-2.9688	-2.7771	-3.0396	-2.8354	-3.0563	-2.9688	-2.8521	406.937	290.486	472.079	449.411	231.304	233.066	231.714	491.932	327.836	413.911	439.732	395.561	502.611	496.765	353.682	474.063	0.0015387	0.00029886	0.00010044	1151	4.8982e-06	5.5101e-06	1172.5	326.27	1.2718e-05	2.7458e-06	378.56	125.13	110.41	36.775	3.5605e-06	46.81	0.00037089	0.0003083	8.6742e-05	1173.4	3.4405e-06	3.405e-06	1190.3	332.37	3.5008e-06	3.4081e-06	385.84	127.91	111.42	38.048	3.4144e-06	48.23	414.302	239.776	271.121	163.640	279.382	317.285	163.150	168.140	297.972	286.122	167.520	171.593	172.331	177.359	299.156	176.290	-8191	255	
822.614	1	1	0	0	0.14422	0.24661	0.10957	0.33429	0.17797	0.29756	0.078635	0.29253	0.17435	0.1277	0.045093	0.086545	0.22396	0.16863	0.09893	0.23232	-2.4271	-2.8542	-2.6292	-2.9708	-2.9792	-2.6937	-3.1521	-2.9375	-3.0333	-2.9625	-2.8688	-3.0104	-2.7125	-2.7625	-2.9833	-2.7542	483.644	350.146	271.133	154.441	187.347	396.614	375.166	479.877	237.702	324.935	336.273	216.328	432.730	492.258	280.749	429.838	0.0017254	0.00043928	9.7818e-05	1151	5.5144e-06	1.904e-06	1170.1	325.7	1.0406e-05	4.9282e-06	376.83	125.75	111.08	36.908	4.725e-06	46.705	0.00038236	0.0003163	8.6696e-05	1172.6	3.4958e-06	3.4048e-06	1190.2	332.39	3.5432e-06	3.4276e-06	385.67	128.01	111.61	38.061	3.4858e-06	48.192	412.632	257.798	281.048	163.511	272.651	304.347	163.147	168.473	278.254	279.082	167.484	171.787	172.059	177.055	318.753	176.196	-8191	255	
822.710	1	1	0	0	0.21122	0.26894	0.01379	0.26066	0.044945	0.26022	0.22408	0.25728	0.11099	0.022657	0.17792	0.28074	0.10708	0.13112	0.20091	0.17773	-2.3979	-2.95	-2.6312	-3.0438	-2.8167	-2.6604	-3.1833	-2.7979	-2.7042	-3.0771	-2.6021	-3.0312	-2.8979	-2.7979	-3.0979	-2.6979	385.308	392.834	179.860	500.342	153.512	441.040	293.875	471.941	328.848	379.994	485.830	458.822	493.424	404.798	248.078	396.620	0.0016616	0.00046498	0.0001845	1151.2	7.1391e-06	4.2761e-06	1167.9	325.81	1.0287e-05	2.8661e-06	377.32	125.16	110.99	36.877	6.7195e-06	46.542	0.0003819	0.00031255	8.7662e-05	1172.7	3.4171e-06	3.4392e-06	1190.9	332.48	3.4612e-06	3.4076e-06	385.68	127.81	111.31	38.082	3.5325e-06	48.226	413.328	261.793	240.078	163.729	294.294	313.887	163.069	168.430	277.296	288.770	167.220	171.567	172.331	177.379	263.000	175.917	-8191	255	
822.807	1	1	0	0	0.15666	0.070812	0.064919	0.095766	0.12222	0.30591	0.32549	0.20548	0.063009	0.08538	0.16268	0.18553	0.080274	0.20958	0.16284	0.20617	-2.3438	-2.9396	-2.8	-3.2313	-2.7021	-2.7104	-3.2896	-2.6437	-2.8812	-3.0563	-2.7125	-2.8667	-2.7396	-2.7042	-2.8479	-2.7021	353.420	456.871	332.210	359.649	224.213	304.629	431.457	479.151	329.974	396.337	228.849	179.890	331.743	466.328	316.993	390.646	0.0016461	0.00040347	8.2439e-05	1149.5	4.6956e-06	6.3647e-06	1170.2	326.95	1.2571e-05	5.7342e-06	377.4	125.32	110.39	36.995	7.5204e-06	46.608	0.00038581	0.00031495	8.8028e-05	1173.7	3.505e-06	3.4324e-06	1191.1	332.74	3.4751e-06	3.4136e-06	385.89	127.99	111.42	38.14	3.594e-06	48.232	413.805	245.586	213.387	163.681	276.474	308.649	163.062	168.334	276.496	297.826	167.274	171.823	171.688	177.299	267.683	176.140	-8191	255	
822.903	1	1	0	0	0.21537	0.038067	0.19228	0.13231	0.1553	0.095872	0.057085	0.29705	0.38705	0.13426	0.42618	0.15676	0.16534	0.18391	0.070395	0.086179	-2.4542	-3.0354	-2.7417	-3.05	-2.6813	-2.7521	-3.1667	-2.825	-2.7771	-2.8	-2.6333	-2.9104	-3.0104	-2.7667	-3.1146	-2.8688	300.334	416.442	444.960	274.402	431.426	251.568	385.556	410.527	404.629	157.183	411.001	189.445	481.846	487.589	370.162	163.119	0.0016963	0.00033305	0.00014075	1151.6	5.7357e-06	5.991e-06	1170.1	327.08	1.0525e-05	2.3773e-06	379.04	125.4	110.52	36.86	6.3859e-06	46.742	0.00037891	0.00031558	8.8003e-05	1173	3.4243e-06	3.4111e-06	1189.5	332.9	3.5894e-06	3.4497e-06	386.52	127.79	111.26	38.053	3.5333e-06	48.239	413.776	247.163	229.887	163.464	286.607	288.203	163.021	168.166	300.694	273.681	167.408	171.846	172.089	177.271	310.559	176.132	-8191	255	
823.023	1	1	0	0	0.1527	0.1041	0.057747	0.30785	0.14615	0.14396	0.23426	0.18901	0.15999	0.084294	0.11547	0.17999	0.20239	0.074933	0.059579	0.28336	-2.3937	-2.7562	-2.6979	-3.0438	-2.8667	-2.6354	-3.1771	-2.8354	-2.6021	-3.0042	-2.8021	-2.8958	-2.9896	-2.7417	-2.9292	-2.9646	342.195	364.087	164.517	458.242	204.848	504.639	383.124	439.955	430.569	385.426	170.033	364.702	459.742	349.599	324.617	509.868	0.001762	0.00057178	8.4193e-05	1150.7	4.4687e-06	4.7991e-06	1170.5	325.87	8.9557e-06	3.9449e-06	376.97	125.57	110.54	36.914	5.6868e-06	46.818	0.00037904	0.00031243	8.924e-05	1172.1	3.4497e-06	3.4874e-06	1189.7	331.97	3.4565e-06	3.4082e-06	385.15	127.78	111.12	38.007	3.4723e-06	48.151	414.451	236.814	225.779	163.462	316.185	304.391	163.021	168.316	266.599	338.387	167.380	171.757	172.222	177.370	296.178	175.857	-8191	255	
823.119	1	1	0	0	0.17788	0.14737	0.075812	0.15916	0.19222	0.36319	0.054013	0.27289	0.048634	0.38527	0.24147	0.068868	0.095889	0.15594	0.23942	0.33995	-2.1167	-2.9396	-2.7167	-2.7146	-3	-2.7438	-3.0812	-2.9313	-2.7271	-2.9729	-2.7333	-2.8229	-3.1458	-2.6937	-2.8875	-3.0938	440.426	379.858	456.154	464.289	453.864	434.174	289.901	484.587	458.696	203.266	443.962	250.560	488.071	216.958	256.076	492.336	0.0016533	0.00039824	0.00015831	1146.2	7.9541e-06	4.8325e-06	1165.5	324.34	8.7828e-06	4.2624e-06	376.53	125.28	110.45	36.792	4.347e-06	46.655	0.00037667	0.00030886	8.7174e-05	1169.5	3.4165e-06	3.3279e-06	1186	331.35	3.5115e-06	3.4025e-06	385.01	127.37	110.99	37.942	3.4948e-06	48.083	410.595	254.607	203.973	163.776	300.336	293.439	163.131	168.494	298.868	280.631	167.403	171.782	172.332	177.263	298.323	176.000	-8191	255	
823.214	1	1	0	0	0.13587	0.12265	0.036971	0.28828	0.31375	0.18638	0.11095	0.30077	0.29446	0.14276	0.11106	0.26813	0.092899	0.27409	0.08025	0.15062	-2.3083	-2.9417	-2.825	-2.9062	-3.0458	-2.6875	-2.9	-2.9542	-2.6479	-3.0396	-2.975	-2.7458	-3.0583	-2.7646	-2.5792	-2.9625	304.391	245.321	414.740	503.998	464.226	376.513	358.879	159.677	232.024	392.296	180.189	399.294	384.485	478.957	358.675	338.530	0.0016285	0.00024354	9.6641e-05	1145.3	7.8401e-06	3.8589e-06	1162.9	325.85	9.0243e-06	3.1992e-06	379.1	125.28	110.95	36.989	6.7154e-06	46.491	0.00037249	0.00031263	8.5842e-05	1167.4	3.3898e-06	3.411e-06	1185.6	331.62	3.3929e-06	3.3373e-06	384.99	127.52	111.08	38.03	3.3376e-06	48.091	412.073	232.550	267.268	163.373	273.976	307.116	162.828	168.252	277.177	271.611	167.465	171.968	172.053	177.313	284.192	176.251	-8191	255	
823.287	1	1	0	0	0.06188	0.26816	0.26976	0.33432	0.11026	0.32887	0.1226	0.087095	0.12585	0.20799	0.31172	0.055405	0.086644	0.27375	0.025944	0.10034	-2.25	-2.9313	-2.7396	-2.7792	-2.8917	-2.7625	-3.0125	-3.0646	-2.5521	-2.8688	-3.0812	-2.6271	-2.9437	-2.6437	-2.8708	-2.875	275.612	282.083	384.135	440.227	365.157	270.363	211.504	495.549	187.829	216.066	366.535	291.410	448.781	491.832	428.074	256.817	0.0017795	0.00037885	0.00012679	1151.3	7.2934e-06	5.8379e-06	1163.5	325.82	1.0923e-05	4.2595e-06	379.09	125.63	111.13	37.008	5.9535e-06	46.695	0.00036585	0.00029673	8.3709e-05	1168.8	3.3252e-06	3.3595e-06	1186.3	331.49	3.4213e-06	3.3931e-06	385.42	127.55	111.18	38.047	3.3394e-06	48.066	415.723	263.227	275.794	163.553	245.172	307.028	163.019	168.204	280.333	340.827	167.357	171.727	172.142	177.634	286.201	175.974	-8191	255	
823.406	1	1	0	0	0.10106	0.0085393	0.15986	0.14546	0.1301	0.19601	0.30091	0.18449	0.18435	0.10787	0.17629	0.28945	0.18817	0.067923	0.11151	0.084009	-2.3375	-2.8958	-2.9938	-2.8167	-2.9292	-2.85	-2.9396	-2.9979	-2.6125	-2.7646	-3.0646	-2.8438	-3.025	-2.8104	-2.7625	-2.9604	218.351	461.517	493.878	205.571	289.642	413.507	458.451	393.676	509.205	230.205	493.677	498.607	267.196	399.764	396.812	195.031	0.0015499	0.00016177	0.0001201	1146.5	5.1957e-06	5.8783e-06	1170.3	326.22	8.1646e-06	3.3662e-06	377.71	125.18	111.19	37.183	4.9577e-06	46.658	0.00037041	0.00030866	8.4935e-05	1169	3.4724e-06	3.4367e-06	1186.9	331.53	3.434e-06	3.3878e-06	384.97	127.44	111.47	38.086	3.4087e-06	48.111	415.487	243.289	231.828	163.525	260.375	326.249	163.085	168.408	268.994	293.464	167.124	171.725	172.374	177.128	277.026	176.351	-8191	255	
823.502	1	1	0	0	0.14167	0.14264	0.11043	0.25346	0.27882	0.20161	0.21345	0.063304	0.23163	0.12635	0.13397	0.073693	0.14612	0.11482	0.18561	0.26765	-2.1813	-2.8438	-2.8312	-2.7542	-3	-2.5896	-2.9083	-2.875	-2.6771	-2.8146	-2.9708	-2.8604	-2.7333	-2.7833	-2.6167	-2.9708	170.057	215.103	344.726	477.366	440.688	295.714	460.348	444.032	216.974	370.475	380.241	177.648	158.083	273.651	288.971	376.165	0.0016038	0.00038316	0.00016644	1153.1	7.7626e-06	7.0839e-06	1166.2	327	8.3055e-06	4.2427e-06	378.45	125.2	110.64	36.964	6.361e-06	46.489	0.00037825	0.00030574	8.7764e-05	1171.4	3.5167e-06	3.4843e-06	1187.1	331.92	3.519e-06	3.5144e-06	385.05	127.46	110.98	37.97	3.5478e-06	48.047	411.530	227.854	261.546	163.518	278.607	309.497	163.180	168.194	272.017	300.038	167.401	171.677	172.178	177.374	266.114	176.052	-8191	255	
823.598	1	1	0	0	0.05967	0.27056	0.095343	0.16822	0.046302	0.13469	0.071106	0.03644	0.090492	0.13374	0.20691	0.34336	0.089991	0.1126	0.15551	0.27395	-2.2583	-2.6063	-2.9042	-2.7188	-2.9667	-2.9417	-2.8417	-3.0646	-2.6396	-2.8208	-2.9875	-2.7854	-3.0854	-2.9271	-2.7292	-3.0667	238.031	349.491	365.684	501.398	421.302	318.575	227.763	364.293	390.157	418.777	470.868	450.317	310.468	274.748	476.014	235.872	0.0017114	0.00043916	7.0302e-05	1150.7	5.7766e-06	4.4425e-06	1168	324.94	1.0581e-05	2.8682e-06	378	125.07	110.08	36.868	8.3158e-06	46.549	0.00038632	0.00031474	8.9775e-05	1169.1	3.5958e-06	3.4473e-06	1188.7	331.52	3.5602e-06	3.4931e-06	384.34	127.35	110.82	37.972	3.5518e-06	48.02	413.431	263.930	245.704	163.552	270.574	297.457	162.995	168.342	296.692	266.484	167.398	171.685	172.300	177.327	273.412	176.045	-8191	255	
#DATA ENDS
