BOXY.EXE: ISS Imagent and Oximeter Data Acquisition Program Version 0.80
Ascii Record File

#ACQ INFORMATION
2  Detector Channels 
16  External MUX Channels 
1  Auxiliary Channels 
5000  Waveform (CCF) Frequency (Hz)
1  Waveforms Skipped 
30  Waveforms Averaged 
1  Cycles Averaged 
16  Acquisitions per Waveform 
10.0806  Updata Rate (Hz) 

#FILE INFORMATION
TRUE -- External MUX Channel results are PARSED.
FALSE -- AC DC and Phase are NOT grouped.
TRUE -- Companion Program Settings File CREATED.
FALSE -- AC data not excluded
FALSE -- DC data not excluded
FALSE -- Phase data not excluded
FALSE -- Auxillary Chn. data not excluded
Tab delimiters

#CALIBRATION STATE
TRUE -- Waveform Calibration Values APPLIED.


#AUX CALIBRATION VALUES
Val Type	aux-1	

Term	1.0000e+00	
Factor	0.0000e+00	


#WF CALIBRATION VALUES
A = Detector Channel
Val Type	A-AC1	A-AC2	A-AC3	A-AC4	A-AC5	A-AC6	A-AC7	A-AC8	A-AC9	A-AC10	A-AC11	A-AC12	A-AC13	A-AC14	A-AC15	A-AC16	A-DC1	A-DC2	A-DC3	A-DC4	A-DC5	A-DC6	A-DC7	A-DC8	A-DC9	A-DC10	A-DC11	A-DC12	A-DC13	A-DC14	A-DC15	A-DC16	A-Ph1	A-Ph2	A-Ph3	A-Ph4	A-Ph5	A-Ph6	A-Ph7	A-Ph8	A-Ph9	A-Ph10	A-Ph11	A-Ph12	A-Ph13	A-Ph14	A-Ph15	A-Ph16	

Term	0.00000e+00	0.00000e+00	0.00000e+00	0.00000e+00	0.00000e+00	0.00000e+00	0.00000e+00	0.00000e+00	0.00000e+00	0.00000e+00	0.00000e+00	0.00000e+00	0.00000e+00	0.00000e+00	0.00000e+00	0.00000e+00	0.00000e+00	0.00000e+00	0.00000e+00	0.00000e+00	0.00000e+00	0.00000e+00	0.00000e+00	0.00000e+00	0.00000e+00	0.00000e+00	0.00000e+00	0.00000e+00	0.00000e+00	0.00000e+00	0.00000e+00	0.00000e+00	0.00000e+00	0.00000e+00	0.00000e+00	0.00000e+00	0.00000e+00	0.00000e+00	0.00000e+00	0.00000e+00	0.00000e+00	0.00000e+00	0.00000e+00	0.00000e+00	0.00000e+00	0.00000e+00	0.00000e+00	0.00000e+00	
Factor	1.00000e+00	1.00000e+00	1.00000e+00	1.00000e+00	1.00000e+00	1.00000e+00	1.00000e+00	1.00000e+00	1.00000e+00	1.00000e+00	1.00000e+00	1.00000e+00	1.00000e+00	1.00000e+00	1.00000e+00	1.00000e+00	1.00000e+00	1.00000e+00	1.00000e+00	1.00000e+00	1.00000e+00	1.00000e+00	1.00000e+00	1.00000e+00	1.00000e+00	1.00000e+00	1.00000e+00	1.00000e+00	1.00000e+00	1.00000e+00	1.00000e+00	1.00000e+00	X	X	X	X	X	X	X	X	X	X	X	X	X	X	X	X	

B = Detector Channel
Val Type	B-AC1	B-AC2	B-AC3	B-AC4	B-AC5	B-AC6	B-AC7	B-AC8	B-AC9	B-AC10	B-AC11	B-AC12	B-AC13	B-AC14	B-AC15	B-AC16	B-DC1	B-DC2	B-DC3	B-DC4	B-DC5	B-DC6	B-DC7	B-DC8	B-DC9	B-DC10	B-DC11	B-DC12	B-DC13	B-DC14	B-DC15	B-DC16	B-Ph1	B-Ph2	B-Ph3	B-Ph4	B-Ph5	B-Ph6	B-Ph7	B-Ph8	B-Ph9	B-Ph10	B-Ph11	B-Ph12	B-Ph13	B-Ph14	B-Ph15	B-Ph16	

Term	0.00000e+00	0.00000e+00	0.00000e+00	0.00000e+00	0.00000e+00	0.00000e+00	0.00000e+00	0.00000e+00	0.00000e+00	0.00000e+00	0.00000e+00	0.00000e+00	0.00000e+00	0.00000e+00	0.00000e+00	0.00000e+00	0.00000e+00	0.00000e+00	0.00000e+00	0.00000e+00	0.00000e+00	0.00000e+00	0.00000e+00	0.00000e+00	0.00000e+00	0.00000e+00	0.00000e+00	0.00000e+00	0.00000e+00	0.00000e+00	0.00000e+00	0.00000e+00	-2.65566e+02	-1.24841e+02	-1.20241e+02	-1.81994e+02	-7.06572e+01	-6.59311e+01	-1.56309e+02	-1.62015e+02	-6.90623e+01	-6.87394e+01	-1.73690e+02	-1.70229e+02	-1.84320e+02	-1.76364e+02	-6.75761e+01	-1.49227e+02	
Factor	6.26878e-05	1.67292e-04	5.27594e-05	1.83783e-01	2.31563e-06	1.97287e-06	1.71397e-01	5.46504e-02	2.81418e-06	1.76473e-06	1.02938e-01	3.00253e-02	5.63014e-02	9.41980e-03	2.03463e-06	1.37220e-02	5.32171e-06	6.03407e-06	1.68690e-06	9.18392e-02	6.45977e-08	6.66728e-08	8.01300e-02	2.73424e-02	6.44674e-08	6.66207e-08	4.98357e-02	1.45750e-02	2.78928e-02	4.75395e-03	6.55589e-08	6.70704e-03	X	X	X	X	X	X	X	X	X	X	X	X	X	X	X	X	



#DISTANCE SETTINGS
A = Detector Channel
A-1	A-2	A-3	A-4	A-5	A-6	A-7	A-8	A-9	A-10	A-11	A-12	A-13	A-14	A-15	A-16	

2.5000e+00	3.0000e+00	2.5000e+00	3.0000e+00	2.0000e+00	3.0000e+00	1.5000e+00	3.0000e+00	3.0000e+00	3.0000e+00	3.0000e+00	3.0000e+00	3.0000e+00	3.0000e+00	1.5000e+00	3.0000e+00	

B = Detector Channel
B-1	B-2	B-3	B-4	B-5	B-6	B-7	B-8	B-9	B-10	B-11	B-12	B-13	B-14	B-15	B-16	

1.0000e+01	1.0000e+01	1.0000e+01	1.4400e+00	1.0000e+01	1.0000e+01	1.5100e+00	1.9400e+00	1.0000e+01	1.0000e+01	1.9900e+00	2.4900e+00	2.4100e+00	2.9000e+00	1.0000e+01	2.9800e+00	




#DATA BEGINS
time	group	step	mark	flag	A-AC1	A-AC2	A-AC3	A-AC4	A-AC5	A-AC6	A-AC7	A-AC8	A-AC9	A-AC10	A-AC11	A-AC12	A-AC13	A-AC14	A-AC15	A-AC16	A-DC1	A-DC2	A-DC3	A-DC4	A-DC5	A-DC6	A-DC7	A-DC8	A-DC9	A-DC10	A-DC11	A-DC12	A-DC13	A-DC14	A-DC15	A-DC16	A-Ph1	A-Ph2	A-Ph3	A-Ph4	A-Ph5	A-Ph6	A-Ph7	A-Ph8	A-Ph9	A-Ph10	A-Ph11	A-Ph12	A-Ph13	A-Ph14	A-Ph15	A-Ph16	B-AC1	B-AC2	B-AC3	B-AC4	B-AC5	B-AC6	B-AC7	B-AC8	B-AC9	B-AC10	B-AC11	B-AC12	B-AC13	B-AC14	B-AC15	B-AC16	B-DC1	B-DC2	B-DC3	B-DC4	B-DC5	B-DC6	B-DC7	B-DC8	B-DC9	B-DC10	B-DC11	B-DC12	B-DC13	B-DC14	B-DC15	B-DC16	B-Ph1	B-Ph2	B-Ph3	B-Ph4	B-Ph5	B-Ph6	B-Ph7	B-Ph8	B-Ph9	B-Ph10	B-Ph11	B-Ph12	B-Ph13	B-Ph14	B-Ph15	B-Ph16	aux-1	digaux	

729.125	1	1	0	256	0.16596	0.44682	0.23959	0.21655	0.11716	0.1529	0.13555	0.1432	0.22411	0.22237	0.31496	0.16185	0.18986	0.068764	0.22203	0.28508	-2.4437	-3.0563	-2.7604	-2.9667	-3.125	-2.7271	-2.8542	-3.0375	-2.8104	-3.0938	-2.8771	-2.7729	-3.0958	-2.8063	-2.9271	-2.8563	450.790	252.794	297.172	419.310	366.068	306.691	464.739	242.538	244.375	350.862	435.967	257.034	186.506	405.172	364.313	431.744	0.0010375	0.00074374	7.8122e-05	1212	3.8959e-06	5.3909e-06	1280.4	259.57	6.5993e-06	4.1843e-06	319.54	89.323	71.632	20.521	4.2249e-06	28.674	0.00026861	0.00024051	6.847e-05	1198.4	2.547e-06	2.4762e-06	1266.8	256.61	2.432e-06	2.3431e-06	318.41	88.974	70.677	20.809	2.3727e-06	29.196	414.999	232.546	251.454	163.950	275.009	331.435	163.820	171.235	332.804	307.357	170.889	176.935	176.715	184.452	306.071	183.849	-8191	255	
729.245	1	1	0	0	0.12303	0.11306	0.25499	0.26894	0.2919	0.20008	0.077508	0.30572	0.038989	0.17142	0.054053	0.39883	0.12613	0.033937	0.042228	0.081921	-2.1979	-2.875	-2.8583	-2.7625	-2.9437	-2.7917	-2.9229	-3.2042	-2.6896	-2.9229	-2.7729	-2.8688	-2.825	-2.7479	-2.8146	-3.1208	394.449	371.746	270.423	465.200	272.662	456.568	511.735	497.424	208.440	388.854	412.268	473.816	309.136	166.267	283.424	199.264	0.00098684	0.00036624	8.6782e-05	1209.1	7.1846e-06	4.2322e-06	1277.8	257.64	1.0747e-05	1.7859e-06	316.86	88.32	71.22	20.192	2.6376e-06	28.131	0.00024595	0.00020846	5.7601e-05	1194	2.315e-06	2.2666e-06	1262	255.69	2.3039e-06	2.2242e-06	315.73	88.122	70.003	20.528	2.1363e-06	28.78	415.708	250.926	256.810	164.101	307.693	306.803	163.886	171.096	284.321	234.380	170.786	177.175	176.879	184.117	317.918	183.659	-8191	255	
729.317	1	1	0	0	0.043107	0.20624	0.10936	0.30544	0.21583	0.12226	0.087544	0.14294	0.12807	0.067186	0.37822	0.17623	0.1445	0.21376	0.23356	0.19529	-2.4146	-2.7792	-2.7979	-2.6146	-3.0229	-2.8521	-2.925	-3.1396	-2.7333	-2.9104	-2.9604	-2.8438	-2.9167	-2.8729	-2.5646	-3.0104	179.297	162.193	231.434	206.254	395.023	426.778	401.949	177.242	363.813	258.869	371.310	417.540	397.852	158.127	323.299	243.000	0.0010518	0.00032328	0.00012339	1196.3	7.1166e-06	3.8436e-06	1272.2	255.96	6.1779e-06	3.5875e-06	317.97	88.053	71.07	20.484	4.3242e-06	28.71	0.00023351	0.00018952	5.2213e-05	1183.1	2.0732e-06	1.9666e-06	1255.8	253.75	1.9692e-06	1.8186e-06	315.13	88.167	69.826	20.771	1.8123e-06	29.138	413.633	241.198	261.988	164.121	265.470	273.517	163.866	171.102	298.138	354.176	170.783	176.963	177.283	184.075	300.484	183.826	-8191	255	
729.413	1	1	0	0	0.0251	0.03841	0.089776	0.16633	0.052403	0.25059	0.02248	0.27625	0.11657	0.11682	0.23552	0.12382	0.15008	0.13117	0.19298	0.094847	-2.1479	-2.8417	-2.9292	-2.7687	-2.9813	-2.8542	-2.9125	-3.0708	-2.9375	-2.7604	-3.2583	-3.0187	-2.9854	-3.0396	-2.675	-3.1083	504.443	165.325	183.748	470.633	359.831	167.128	337.965	475.113	226.585	490.818	156.472	269.693	253.403	352.983	405.577	256.603	0.0010178	0.00021888	4.8537e-05	1201.8	5.5764e-06	3.5958e-06	1275.3	256.56	9.7699e-06	3.9377e-06	316.85	88.219	71.072	20.355	3.2639e-06	28.172	0.00020752	0.00016437	4.516e-05	1187.3	1.8712e-06	1.786e-06	1259.8	254.54	1.8618e-06	1.7467e-06	314.65	87.849	69.448	20.482	1.7717e-06	28.66	418.512	227.871	228.042	163.963	292.530	325.758	163.911	171.078	286.967	330.179	170.991	176.815	177.050	184.409	290.780	183.800	-8191	255	
729.534	1	1	0	0	0.24751	0.064973	0.1517	0.47022	0.24145	0.16097	0.41147	0.10999	0.073583	0.017996	0.21441	0.152	0.30706	0.17246	0.24859	0.095661	-2.3792	-2.8229	-3.1375	-2.7958	-2.9188	-2.9667	-2.7042	-3.2438	-2.7292	-2.7229	-3.1792	-2.8604	-2.8167	-3.0062	-2.6771	-2.9625	183.003	480.607	433.670	446.378	327.858	291.072	460.526	432.356	429.270	176.859	423.711	192.735	403.943	222.288	387.064	163.141	0.0010397	0.00023309	7.2895e-05	1182.7	5.091e-06	4.4282e-06	1254.5	253.83	7.3467e-06	3.7213e-06	314.58	87.44	69.891	20.127	3.0024e-06	28.094	0.00020226	0.00015797	4.2281e-05	1168.7	1.8453e-06	1.7236e-06	1238	251.12	1.8054e-06	1.7001e-06	311.41	87.121	68.714	20.316	1.6869e-06	28.631	419.571	238.810	230.691	164.283	273.007	311.002	163.801	171.132	304.546	299.197	170.697	177.336	177.174	184.395	334.252	183.820	-8191	255	
729.628	1	1	0	0	0.27968	0.17862	0.22688	0.1055	0.024305	0.13194	0.28096	0.22429	0.1964	0.18044	0.2182	0.21729	0.24536	0.18669	0.086736	0.16284	-2.3625	-2.9104	-2.9083	-2.7729	-2.8604	-2.8604	-2.7979	-3.0771	-2.8187	-2.8479	-3.2333	-2.6562	-2.8771	-3.0812	-2.5542	-2.8042	236.344	486.324	381.883	308.018	246.216	503.601	432.175	425.732	398.970	310.309	447.946	153.107	432.059	438.373	495.427	397.271	0.0010038	0.00021376	8.6614e-05	1184.1	5.0548e-06	2.5576e-06	1256.8	254.9	7.2641e-06	3.1168e-06	313.04	88.066	70.191	20.093	3.6156e-06	28.185	0.00019163	0.00015446	4.1571e-05	1170.5	1.7336e-06	1.612e-06	1241.5	252.06	1.7377e-06	1.6595e-06	312.53	87.61	69.082	20.387	1.6627e-06	28.684	417.141	226.591	252.905	163.988	285.672	307.793	163.817	171.033	286.342	307.802	170.796	177.369	177.097	184.142	274.080	183.908	-8191	255	
729.726	1	1	0	0	0.15924	0.34054	0.28716	0.14893	0.16778	0.19182	0.24936	0.37888	0.12654	0.25579	0.070536	0.25845	0.19437	0.26334	0.23665	0.13172	-2.4771	-2.5938	-2.9938	-2.9271	-2.6125	-3.15	-2.775	-2.9417	-3.0292	-2.7062	-3.0396	-2.675	-2.7479	-3.2542	-2.7479	-3.0167	410.695	429.955	352.372	463.377	501.096	256.966	429.912	462.107	421.365	478.441	156.705	436.121	477.693	308.771	424.048	310.240	0.0010296	0.00028527	9.6843e-05	1183.3	4.0876e-06	4.4315e-06	1257.1	251.89	7.8495e-06	2.2817e-06	311.9	86.015	70.202	19.816	3.6403e-06	27.945	0.00019448	0.00015453	4.3202e-05	1165.4	1.7346e-06	1.6739e-06	1236.8	250.06	1.804e-06	1.6536e-06	309.71	86.129	68.408	20.08	1.6453e-06	28.341	413.367	246.338	291.316	164.170	291.107	310.588	163.872	171.192	283.481	294.717	170.894	177.102	176.842	184.170	260.881	183.984	-8191	255	
729.845	1	1	0	0	0.028209	0.077558	0.14887	0.27569	0.22799	0.079463	0.25646	0.15975	0.18225	0.13796	0.12629	0.14625	0.17355	0.18003	0.01652	0.16305	-2.5042	-2.5708	-2.9854	-2.7708	-2.7292	-2.9354	-2.8063	-3.0125	-3.0604	-2.8542	-2.9896	-2.8958	-2.7708	-3.2167	-2.6458	-2.7687	400.889	162.227	248.712	442.952	316.673	239.146	158.668	491.324	207.770	251.555	158.454	420.829	486.685	428.016	341.240	442.247	0.0009952	0.00036806	0.00010063	1178.4	4.9371e-06	3.3205e-06	1247.5	252.06	5.274e-06	3.0497e-06	311.84	87.022	69.167	19.904	1.8534e-06	27.714	0.00018515	0.00014883	3.9688e-05	1162.1	1.6618e-06	1.5328e-06	1232.9	249.12	1.5609e-06	1.4707e-06	309.11	86.496	67.919	20.111	1.3915e-06	28.232	413.175	246.390	244.986	164.269	278.658	306.099	164.152	171.218	297.056	340.411	170.834	177.189	177.181	184.338	319.452	183.594	-8191	255	
729.941	1	1	0	0	0.0077469	0.037871	0.13015	0.19431	0.071567	0.29112	0.13652	0.14521	0.048208	0.29362	0.24422	0.10433	0.20199	0.04244	0.093471	0.16237	-2.5792	-2.5208	-2.9396	-3.0708	-2.6104	-3.1188	-2.9458	-2.8458	-2.925	-2.7687	-3.0646	-2.9604	-2.4396	-3.1104	-2.9771	-2.7917	155.964	303.610	184.654	459.655	262.733	235.308	164.340	166.331	285.813	216.153	458.453	334.215	487.615	406.893	408.156	479.223	0.00096071	0.00037867	0.00011843	1176.1	3.4141e-06	3.4582e-06	1245.9	251.97	6.853e-06	9.7626e-07	312.81	86.17	69.654	19.934	2.8112e-06	27.99	0.00016778	0.00012161	3.4497e-05	1162.1	1.3965e-06	1.323e-06	1232.3	249.17	1.4325e-06	1.3217e-06	309.61	86.262	68.078	20.097	1.3258e-06	28.375	417.855	218.502	267.259	164.346	312.209	307.361	164.105	171.079	315.880	323.464	171.011	177.202	177.098	184.581	284.628	183.935	-8191	255	
730.013	1	1	0	0	0.078802	0.22617	0.16388	0.099311	0.09493	0.044892	0.2187	0.14124	0.1331	0.19566	0.025697	0.12259	0.22007	0.080619	0.10987	0.038685	-2.6292	-2.6583	-2.8063	-2.8792	-2.7083	-3.05	-3.0167	-2.875	-3.0333	-2.75	-3.1562	-2.9979	-2.7583	-3.2958	-2.9354	-2.6271	212.638	391.597	310.821	322.728	402.812	448.505	471.165	156.779	385.032	422.258	404.134	398.805	170.643	369.826	404.606	495.625	0.0010437	0.0003639	7.2666e-05	1179.1	4.188e-06	3.2128e-06	1249.9	251.79	9.4261e-06	2.1464e-06	310.87	87.025	69.882	19.951	2.8563e-06	27.991	0.00016341	0.00011854	3.3358e-05	1164.5	1.3529e-06	1.2408e-06	1233.1	248.84	1.3376e-06	1.189e-06	308.82	86.692	68.149	20.134	1.2148e-06	28.395	417.616	242.985	257.192	164.557	287.618	324.163	163.924	171.014	276.182	314.911	171.068	177.186	177.298	184.341	292.847	184.098	-8191	255	
730.133	1	1	0	0	0.12069	0.063937	0.16006	0.36394	0.14924	0.17657	0.33627	0.31534	0.1338	0.091674	0.066749	0.049312	0.10371	0.33244	0.038226	0.15286	-2.7292	-2.7604	-3.0083	-3.1229	-2.6771	-2.8604	-3.1146	-2.8417	-3.1708	-2.9354	-3.0438	-3.0708	-2.6854	-3.0208	-3.1188	-2.7438	316.869	268.841	456.626	171.229	210.033	153.600	395.464	441.198	275.320	258.199	206.465	467.767	396.097	461.100	385.231	408.411	0.00099647	0.00032662	6.5632e-05	1180	6.262e-06	1.8321e-06	1252.9	252.24	6.6774e-06	3.1422e-06	312.71	86.599	69.64	19.85	4.8693e-06	27.968	0.00015575	0.00010494	3.0276e-05	1163.4	1.2696e-06	1.1048e-06	1234.1	249.21	1.2431e-06	1.1824e-06	309.26	86.309	68.149	20.002	1.1807e-06	28.325	419.646	272.161	254.749	164.149	274.216	292.562	163.907	171.142	283.760	312.343	170.872	177.342	177.124	184.442	299.906	183.866	-8191	255	
730.230	1	1	0	0	0.38075	0.069153	0.16194	0.18561	0.12214	0.092388	0.16092	0.22602	0.2918	0.127	0.20075	0.25163	0.21797	0.036268	0.058036	0.13149	-2.5625	-2.8167	-2.8271	-3.15	-2.7271	-3.1667	-3.0792	-2.9771	-3.0104	-2.7167	-2.7687	-3.0396	-2.8125	-3.2333	-3.0167	-2.7729	377.606	266.129	315.368	436.090	491.802	455.262	417.691	426.171	244.007	166.357	371.128	481.479	337.477	413.883	399.460	194.259	0.00096832	0.00027962	8.3473e-05	1172.4	3.3321e-06	2.2633e-06	1247.5	251.24	6.9302e-06	4.6904e-06	308.65	86.415	68.941	19.722	2.041e-06	27.667	0.00016025	0.00010269	2.9925e-05	1158.9	1.3094e-06	1.2266e-06	1229.3	248.39	1.3346e-06	1.2505e-06	307.35	85.686	67.5	19.87	1.2901e-06	28.099	417.882	237.828	267.895	164.297	275.917	347.998	164.016	171.220	303.749	299.840	171.237	177.322	177.342	184.518	275.384	183.863	-8191	255	
730.326	1	1	0	0	0.20957	0.097555	0.18043	0.30643	0.088061	0.10206	0.23051	0.070134	0.085474	0.17671	0.1354	0.19841	0.27958	0.14168	0.22382	0.15808	-2.7479	-2.9604	-2.8271	-3.2292	-2.8625	-2.8312	-3.1333	-2.7583	-3.1562	-2.6875	-2.7646	-3.125	-2.875	-2.8	-3.1437	-2.7667	383.750	513.118	271.673	483.422	157.514	394.241	489.149	510.839	365.289	339.631	314.537	470.351	213.772	243.963	233.133	339.361	0.001021	0.00035105	0.00011764	1171.1	3.8358e-06	4.6059e-06	1248.2	250.94	8.9354e-06	1.4877e-06	311.39	86.033	69.787	19.741	4.7798e-06	27.94	0.00016421	0.00012249	3.2487e-05	1157.9	1.4548e-06	1.2925e-06	1232.4	247.82	1.4584e-06	1.3524e-06	308.9	85.921	68.06	19.973	1.3669e-06	28.284	418.037	248.350	255.756	164.343	288.284	290.531	163.890	171.298	291.044	301.362	170.833	177.326	177.269	184.613	276.441	184.023	-8191	255	
730.422	1	1	0	0	0.21276	0.14201	0.10881	0.13802	0.24139	0.24518	0.17421	0.12142	0.087291	0.091097	0.23697	0.12099	0.20103	0.10917	0.2473	0.094146	-2.7958	-2.8604	-2.7521	-3.1854	-2.7333	-3.1583	-3.2354	-2.7271	-3.0146	-2.9208	-2.9896	-2.9938	-2.7646	-2.7479	-3.0083	-2.85	415.903	464.483	166.239	506.532	296.294	292.636	447.427	371.174	472.455	310.111	430.963	401.787	454.402	394.516	388.985	273.191	0.0010125	0.00036196	0.00012245	1187.1	3.3327e-06	3.2144e-06	1263	251.84	6.5021e-06	2.7559e-06	312.43	86.592	69.816	19.701	4.9744e-06	27.913	0.00017167	0.00013016	3.4824e-05	1172.4	1.5065e-06	1.3537e-06	1243.3	249.89	1.557e-06	1.3789e-06	309.97	86.124	68.245	19.994	1.4468e-06	28.211	416.612	256.353	224.704	164.287	288.497	313.441	164.056	171.118	283.923	291.701	170.793	177.305	177.513	184.700	323.633	183.880	-8191	255	
730.542	1	1	0	0	0.2386	0.11072	0.10467	0.088075	0.17416	0.048569	0.22131	0.18588	0.06935	0.11904	0.22244	0.18808	0.044761	0.084159	0.035031	0.15368	-2.5062	-2.7104	-2.5979	-3.1646	-2.6146	-2.8	-3.1896	-2.7417	-2.9979	-3.0917	-2.8438	-2.9313	-2.8354	-2.6646	-3.0146	-2.8917	171.202	468.776	455.004	502.399	153.470	178.620	445.122	485.646	468.481	374.736	419.213	174.088	240.779	235.692	204.405	295.518	0.00097263	0.00033175	9.7142e-05	1180.4	4.5928e-06	2.1377e-06	1250.8	251.35	7.3369e-06	2.8327e-06	310.4	86.733	69.562	19.809	2.8604e-06	27.873	0.00017204	0.00012563	3.5302e-05	1166.1	1.4123e-06	1.3648e-06	1235	248.02	1.4607e-06	1.2748e-06	308.87	86.147	68.087	20.045	1.38e-06	28.27	416.923	228.829	245.513	164.370	286.773	303.094	163.832	171.245	278.621	291.112	170.921	177.095	177.053	184.747	297.090	184.160	-8191	255	
730.614	1	1	0	0	0.16034	0.10446	0.36383	0.24639	0.067956	0.18148	0.30266	0.09039	0.058482	0.06954	0.25633	0.035581	0.22526	0.14942	0.30524	0.23586	-2.5208	-2.8896	-2.7229	-3.0625	-2.85	-2.5938	-3.3354	-2.9708	-2.8854	-3.0458	-2.6896	-3.0792	-2.8083	-2.8667	-2.9521	-2.725	504.880	248.657	464.048	432.417	356.831	207.499	417.792	321.922	277.941	252.943	342.509	394.749	448.539	296.903	332.412	224.078	0.00098843	0.00033983	0.00011043	1188.9	4.185e-06	3.8602e-06	1260.6	249.72	5.3237e-06	3.2234e-06	311.52	86.438	68.869	19.657	4.2788e-06	27.668	0.00016557	0.00012023	3.4269e-05	1172.5	1.4396e-06	1.3286e-06	1243.1	248.06	1.4482e-06	1.3221e-06	307.88	85.745	67.698	19.835	1.4433e-06	28.138	416.641	260.838	256.235	164.147	260.810	310.647	164.018	171.388	277.897	305.055	170.791	177.112	177.294	184.689	274.663	183.879	-8191	255	
730.709	1	1	0	0	0.21609	0.1784	0.053648	0.18207	0.037574	0.13512	0.24464	0.23399	0.1671	0.13192	0.11854	0.15999	0.2251	0.07663	0.067435	0.054673	-2.4062	-3.0146	-2.8083	-3.1688	-2.9208	-2.5104	-3.3625	-2.9542	-2.8479	-2.9562	-2.7646	-2.8187	-2.9021	-2.6875	-3.1354	-2.8396	427.643	205.829	261.120	503.289	208.358	292.842	424.581	464.753	422.628	269.155	350.173	205.230	433.484	507.675	293.224	393.338	0.0010201	0.00042226	0.00012093	1179.6	4.4585e-06	4.6322e-06	1253.3	249.94	6.7805e-06	1.9002e-06	308.51	85.789	68.69	19.518	3.5591e-06	27.592	0.00017545	0.0001326	3.7934e-05	1165.3	1.5895e-06	1.4778e-06	1236.3	246.6	1.5889e-06	1.5493e-06	306.44	85.319	67.42	19.74	1.6276e-06	27.925	413.328	262.138	229.507	163.985	283.164	306.100	163.940	171.278	292.260	277.207	170.758	177.338	177.599	184.908	295.820	184.141	-8191	255	
730.806	1	1	0	0	0.13711	0.29027	0.15985	0.22548	0.15142	0.15897	0.26833	0.1789	0.12904	0.027141	0.25517	0.27149	0.24611	0.092256	0.23714	0.11391	-2.1937	-3.0979	-2.8021	-2.9833	-2.9021	-2.6688	-3.1646	-3.0083	-2.7687	-3.1354	-2.9021	-2.8917	-3.0563	-2.7604	-3.1458	-3.0771	449.913	416.898	232.368	282.683	238.115	379.817	419.671	385.063	309.759	246.182	168.729	424.648	493.444	509.630	498.620	273.375	0.0010081	0.00019023	6.663e-05	1172.4	3.8205e-06	2.4862e-06	1250.2	247.67	7.9299e-06	1.658e-06	307.43	85.532	67.866	19.267	2.6814e-06	27.364	0.0001875	0.00015266	4.1663e-05	1161.3	1.6817e-06	1.6357e-06	1232.9	244.68	1.7017e-06	1.6883e-06	304.86	84.712	66.918	19.524	1.7482e-06	27.749	417.650	230.008	269.009	164.128	288.541	280.346	163.931	171.297	261.573	291.482	171.224	177.497	177.534	184.862	281.671	184.083	-8191	255	
730.925	1	1	0	0	0.047501	0.33277	0.12178	0.41533	0.050602	0.22933	0.15021	0.16329	0.20998	0.19313	0.16928	0.18541	0.20262	0.26725	0.12729	0.22588	-2.2917	-3.0042	-2.7354	-2.9437	-3.0979	-2.7625	-3.2417	-2.8417	-2.7854	-3.0729	-2.7146	-2.7167	-3.0146	-2.8104	-3.0938	-2.9125	501.877	388.922	443.670	154.473	246.761	434.743	436.408	205.056	247.561	355.131	400.599	257.880	335.248	233.343	192.818	448.062	0.0010053	0.00022454	0.00016781	1179.2	4.6531e-06	3.4928e-06	1251.2	245.65	1.0328e-05	3.26e-06	304.52	85.006	67.933	19.215	2.129e-06	27.099	0.0001997	0.00016374	4.4755e-05	1162.7	1.8904e-06	1.7436e-06	1233.8	242.96	1.9684e-06	1.8877e-06	303.13	84.452	67.037	19.447	2.0845e-06	27.622	416.632	264.586	263.645	164.169	261.761	288.051	164.017	171.220	281.304	300.098	171.048	177.093	177.306	184.456	307.678	183.796	-8191	255	
731.021	1	1	0	0	0.10083	0.10241	0.30341	0.095039	0.05312	0.1248	0.31693	0.12851	0.25416	0.26742	0.40208	0.19428	0.24327	0.16451	0.085526	0.25958	-2.4437	-2.8479	-2.6479	-2.9813	-3.1771	-2.7979	-3.1188	-3.0312	-2.6229	-3.1521	-2.8083	-2.7812	-2.8896	-2.8333	-2.9917	-3.0667	250.700	435.234	468.020	203.415	495.201	179.461	448.216	463.680	482.243	241.555	199.045	296.015	202.129	405.819	439.377	463.234	0.00097278	0.00038696	0.00010331	1181.4	1.1987e-06	3.4777e-06	1258.2	245.45	7.5385e-06	2.4576e-06	304.18	85.109	67.888	19.292	4.1075e-06	26.923	0.00023421	0.00019968	5.7147e-05	1172.6	2.2899e-06	2.3066e-06	1243	243.47	2.3829e-06	2.3777e-06	304.1	84.54	66.987	19.467	2.3185e-06	27.491	414.896	252.808	229.514	164.428	268.483	319.219	163.941	171.295	310.314	322.279	171.104	177.298	177.281	184.784	249.913	184.123	-8191	255	
731.118	1	1	0	0	0.12775	0.30195	0.14679	0.19526	0.18402	0.27932	0.11148	0.17309	0.34418	0.2752	0.25287	0.20219	0.21143	0.2207	0.34157	0.31905	-2.3229	-2.9708	-2.8229	-2.9167	-3.1229	-2.6729	-3.025	-3.0396	-2.7542	-2.9313	-2.8729	-2.8729	-3.1354	-2.8729	-2.8125	-3.1229	327.096	294.243	358.570	420.185	176.746	466.886	451.262	492.984	267.930	219.935	472.326	170.974	214.711	225.887	309.038	451.489	0.00098302	0.0002516	0.00013306	1180.4	4.1456e-06	3.2485e-06	1249.2	243.47	6.1506e-06	2.1621e-06	301.18	83.539	67.075	18.92	5.1662e-06	27.052	0.00023289	0.00020376	5.474e-05	1167.6	2.2018e-06	2.1484e-06	1234.7	240.91	2.2067e-06	2.196e-06	300.54	83.71	66.244	19.259	2.1894e-06	27.398	418.010	221.799	299.421	164.277	270.704	310.769	164.178	171.448	303.594	287.975	171.164	177.342	177.554	185.019	319.689	184.353	-8191	255	
731.214	1	1	0	0	0.11855	0.015347	0.15723	0.37023	0.12656	0.03524	0.30428	0.043074	0.25026	0.13188	0.23307	0.15867	0.18904	0.15321	0.4148	0.26964	-2.2667	-2.8771	-2.7271	-2.8542	-3.1562	-2.9667	-3.1021	-3.0187	-2.8146	-2.9229	-2.95	-2.8063	-2.9104	-2.8271	-2.7479	-3.0062	372.392	259.030	248.481	416.517	467.058	458.527	458.927	355.142	400.674	505.599	471.814	221.643	198.360	339.489	389.032	415.000	0.00089429	0.00027123	9.7472e-05	1179.1	5.5266e-06	3.3446e-06	1255.1	243.53	7.6975e-06	3.6003e-06	300.55	84.353	68.31	19.194	4.3384e-06	27.035	0.00023287	0.00019841	5.6796e-05	1166.9	2.3196e-06	2.3004e-06	1239.5	240.71	2.3019e-06	2.2558e-06	301.22	83.942	66.739	19.401	2.2801e-06	27.447	419.808	277.109	293.825	164.300	279.830	313.094	164.113	171.724	277.540	305.768	170.987	177.491	177.722	184.942	266.800	184.091	-8191	255	
731.310	1	1	0	0	0.19024	0.33306	0.12682	0.29838	0.15522	0.14779	0.32684	0.1386	0.30621	0.23068	0.13884	0.18185	0.12415	0.025473	0.094615	0.23456	-2.3417	-2.9	-2.8854	-2.7896	-3.0208	-2.8042	-2.9688	-3.0521	-2.8271	-2.9208	-3.1271	-2.75	-3.1042	-2.9042	-2.7229	-3.1417	513.425	480.073	305.226	463.054	243.736	261.530	419.907	434.124	512.974	236.063	228.317	369.479	219.842	181.289	430.375	390.605	0.00088503	0.0004034	0.00010802	1179.7	4.6378e-06	4.3948e-06	1242.9	240.81	4.7287e-06	1.7024e-06	300.37	82.82	67.619	18.871	4.2059e-06	26.729	0.00023361	0.00020619	5.5935e-05	1164.8	2.214e-06	2.1196e-06	1232.5	238.94	2.0724e-06	2.0315e-06	298.67	83.085	66.042	19.099	1.9165e-06	27.196	416.950	228.371	276.148	164.137	289.121	282.515	164.068	171.798	296.634	260.663	171.014	177.515	177.524	184.945	288.497	183.989	-8191	255	
731.406	1	1	0	0	0.18786	0.10661	0.035473	0.24013	0.12	0.30267	0.38452	0.11214	0.26061	0.053929	0.27181	0.16731	0.17618	0.13406	0.16604	0.29229	-2.25	-2.6375	-2.925	-2.8167	-3.0625	-2.7667	-2.8812	-3.1208	-2.7479	-2.8375	-3.1437	-2.7583	-2.7229	-2.9208	-2.8375	-3.0083	495.263	403.776	203.843	431.323	260.227	245.345	483.125	383.629	424.149	284.635	509.953	488.224	413.589	174.375	267.139	361.934	0.00092869	0.00016649	5.3014e-05	1157	3.7281e-06	2.8009e-06	1225.9	237.18	5.6771e-06	2.6437e-06	297.8	82.877	67.397	18.976	3.6579e-06	26.552	0.00021157	0.00017584	4.8474e-05	1144.7	1.9669e-06	1.9111e-06	1214.1	235.75	1.9277e-06	1.9024e-06	296.57	82.682	65.761	19.094	1.8937e-06	27.016	415.671	274.329	235.278	164.503	314.686	296.547	164.088	171.944	288.965	331.267	171.055	177.586	177.076	185.082	302.484	183.866	-8191	255	
731.527	1	1	0	0	0.19581	0.10531	0.1579	0.069577	0.1101	0.40659	0.054606	0.26945	0.20113	0.15806	0.17749	0.041949	0.099747	0.11698	0.14088	0.050053	-2.4125	-2.7188	-3.0021	-2.8563	-2.9542	-3.1562	-2.9375	-2.9625	-2.6708	-2.7646	-3.1271	-2.5687	-2.7625	-3.1458	-2.6729	-3.1917	279.962	346.159	220.402	508.717	381.437	365.854	270.462	483.122	481.451	376.223	417.331	330.368	513.766	497.177	177.153	297.010	0.00097261	0.00032372	7.4351e-05	1149.1	5.3199e-06	1.585e-06	1213.3	235.89	6.5436e-06	1.8574e-06	296.1	82.2	66.489	18.672	3.9394e-06	26.536	0.00020832	0.00016789	4.6762e-05	1132.9	1.9051e-06	1.8141e-06	1198.1	233.85	1.9101e-06	1.7507e-06	293.85	82.066	65.039	18.918	1.7803e-06	26.97	417.237	277.016	282.632	164.296	303.840	319.129	164.405	172.158	273.963	267.698	171.079	177.231	177.422	184.952	291.875	184.259	-8191	255	
731.623	1	1	0	0	0.19278	0.15818	0.13343	0.12288	0.055315	0.10953	0.080321	0.29128	0.23045	0.077092	0.2975	0.13062	0.089273	0.074947	0.15917	0.20823	-2.4333	-2.8917	-2.9958	-2.9833	-2.8063	-3.0083	-2.9479	-3.1042	-2.9146	-2.8021	-3.2125	-2.7896	-2.7938	-3.0146	-2.6625	-3.0021	333.017	420.463	483.192	504.940	423.122	462.895	505.066	434.871	439.060	382.923	161.277	399.987	444.186	255.743	246.890	410.417	0.00095897	0.00019664	9.8151e-05	1135.9	3.5171e-06	2.1154e-06	1203.9	234.43	5.9725e-06	4.6569e-06	292.98	81.896	66.112	18.588	3.3788e-06	26.51	0.00019808	0.00015886	4.3192e-05	1122.1	1.8048e-06	1.649e-06	1189.7	232.57	1.7833e-06	1.7253e-06	291.75	81.886	64.584	18.823	1.7089e-06	26.804	417.660	243.092	246.202	164.317	286.255	290.139	164.138	172.251	299.693	283.956	170.955	177.506	177.299	185.325	301.743	184.285	-8191	255	
731.717	1	1	0	0	0.085342	0.095063	0.096266	0.13332	0.056259	0.07694	0.13245	0.14947	0.08169	0.088741	0.13475	0.30279	0.039174	0.11227	0.034521	0.14219	-2.6333	-2.7188	-2.9313	-2.9292	-2.75	-2.9958	-3.0146	-3.1	-2.8417	-2.6979	-3.1437	-2.85	-2.8708	-3.0083	-2.7229	-3.1083	383.810	440.027	305.434	433.396	378.853	316.151	438.767	399.283	249.210	160.124	258.037	448.545	443.554	312.973	355.929	406.387	0.00098294	0.00025568	0.00014104	1117.1	5.4584e-06	3.816e-06	1188.3	231.47	9.4567e-06	2.1313e-06	290.51	81.389	65.046	18.314	4.1338e-06	26.225	0.00019308	0.00014806	4.1529e-05	1105.5	1.7222e-06	1.601e-06	1173.4	229.58	1.6274e-06	1.5896e-06	288.72	80.995	63.972	18.604	1.6026e-06	26.622	418.551	289.563	249.353	164.335	295.987	304.272	164.137	171.926	295.030	349.527	171.211	177.547	177.313	185.168	314.229	184.893	-8191	255	
731.813	1	1	0	0	0.19927	0.2618	0.16782	0.30408	0.16345	0.17364	0.096412	0.25135	0.15904	0.15679	0.14275	0.20689	0.27557	0.15978	0.085649	0.17415	-2.525	-2.575	-3.0083	-2.9521	-2.8187	-3.125	-3.0292	-3.0375	-3.0521	-2.75	-3.2896	-2.9437	-2.5354	-3.0583	-2.7396	-2.9333	341.902	265.217	268.372	479.054	478.828	396.631	160.831	465.881	296.898	159.053	359.696	336.139	177.389	179.017	274.069	197.200	0.00098858	0.0002937	0.00014441	1103.6	4.8557e-06	3.0589e-06	1174.8	229.78	5.5793e-06	3.9448e-06	289.09	81.122	65.471	18.432	4.4059e-06	26.301	0.00018492	0.00014338	3.9094e-05	1090.6	1.6433e-06	1.5043e-06	1163.8	228.18	1.578e-06	1.5119e-06	287.21	80.776	63.779	18.614	1.4902e-06	26.547	419.566	255.301	265.030	164.394	271.402	308.055	164.247	171.972	321.153	310.884	171.014	177.670	176.835	184.738	293.232	184.452	-8191	255	
731.910	1	1	0	0	0.034437	0.1878	0.20111	0.19008	0.21297	0.092569	0.1194	0.34153	0.16878	0.095921	0.16839	0.13492	0.070268	0.11054	0.028534	0.36402	-2.5958	-2.6875	-3.0125	-2.9646	-2.6479	-3.1167	-2.7979	-2.8771	-2.9271	-2.6479	-3.1146	-2.9813	-2.775	-3.1437	-2.7229	-2.9354	504.957	155.951	159.665	500.501	268.200	327.911	364.526	462.428	473.529	197.882	472.246	512.580	396.402	286.069	301.988	245.026	0.00089539	0.00024903	7.1669e-05	1103.6	3.456e-06	5.1665e-06	1176.7	229.22	5.1332e-06	3.439e-06	287.55	80.701	64.453	18.415	2.7509e-06	25.94	0.0001688	0.00013378	3.7639e-05	1089.2	1.5273e-06	1.4261e-06	1160.8	226.91	1.5085e-06	1.4644e-06	286.03	80.439	63.691	18.548	1.4393e-06	26.465	417.185	251.451	220.436	164.321	285.309	320.592	164.250	172.254	278.665	288.507	170.960	177.657	177.325	185.094	297.377	184.206	-8191	255	
732.006	1	1	0	0	0.30555	0.072182	0.26002	0.16705	0.15111	0.23635	0.14312	0.18292	0.26049	0.26599	0.34716	0.26564	0.1773	0.11995	0.099338	0.16569	-2.6	-2.6354	-2.9521	-3.0375	-2.7854	-3.0396	-2.9188	-2.8333	-2.9958	-2.725	-2.9917	-3.1229	-2.6146	-3.1188	-2.9292	-2.7792	163.677	440.666	477.245	471.259	236.041	392.174	480.950	415.079	313.579	384.959	497.429	469.957	350.148	265.889	276.856	388.264	0.00096466	0.00037778	0.00010491	1102.6	2.2379e-06	3.5391e-06	1174.1	227.86	7.5814e-06	1.2535e-06	288.33	80.457	64.766	18.27	2.1e-06	25.995	0.00017839	0.00013443	3.804e-05	1087.7	1.5322e-06	1.5096e-06	1155.6	226.24	1.5953e-06	1.431e-06	286.69	80.43	63.552	18.492	1.5098e-06	26.506	412.741	268.955	265.520	164.491	289.384	319.274	164.365	172.339	294.894	318.075	171.213	177.442	177.325	185.278	270.277	184.274	-8191	255	
732.102	1	1	0	0	0.10763	0.22123	0.066732	0.31728	0.25724	0.19399	0.32531	0.15269	0.26916	0.18783	0.17748	0.077521	0.16218	0.23512	0.1421	0.065149	-2.6646	-2.6958	-2.9792	-3.0521	-2.7854	-3.0687	-2.9833	-2.8167	-3.1792	-2.8438	-2.9083	-3.0042	-2.6708	-3.1208	-2.9229	-2.6604	420.843	501.046	485.192	169.963	325.722	190.011	215.473	227.246	342.477	163.946	297.953	339.651	349.427	221.627	273.220	392.572	0.00097866	0.0001598	8.5331e-05	1099.4	2.5625e-06	3.8258e-06	1170.1	228.5	6.4035e-06	2.4287e-06	287.55	80.845	64.515	18.41	5.0397e-06	26.021	0.00017821	0.00012971	3.7161e-05	1086.1	1.5766e-06	1.469e-06	1156.7	226.57	1.5171e-06	1.5101e-06	285.91	80.512	63.476	18.504	1.5018e-06	26.431	416.463	259.221	278.477	164.568	270.127	285.972	164.225	172.193	258.899	299.265	171.281	177.582	177.672	184.990	307.928	184.770	-8191	255	
732.198	1	1	0	0	0.098543	0.27674	0.076653	0.22873	0.071607	0.2319	0.16947	0.15434	0.089604	0.17199	0.13972	0.095974	0.22556	0.057368	0.1766	0.10116	-2.7583	-2.6688	-2.8167	-3.1813	-2.825	-2.9792	-2.9896	-2.6229	-2.9938	-2.7979	-2.9667	-3.1688	-2.7104	-3.0083	-3.0646	-2.8167	222.491	459.651	466.094	436.004	501.937	325.609	442.847	500.901	306.078	245.586	156.974	463.628	471.815	492.594	235.596	248.674	0.00094047	0.00028982	7.1086e-05	1101.8	4.8385e-06	3.4954e-06	1165.7	228.24	7.8146e-06	3.4932e-06	287.06	80.726	64.807	18.219	3.4837e-06	25.93	0.00017116	0.00013858	3.714e-05	1087.3	1.6191e-06	1.5482e-06	1155.8	226.15	1.6387e-06	1.6038e-06	285.23	80.219	63.309	18.427	1.6035e-06	26.389	413.801	269.025	226.149	164.657	260.748	289.615	163.964	172.099	276.545	282.704	170.875	177.896	177.066	185.051	298.063	184.512	-8191	255	
732.319	1	1	0	0	0.13672	0.094868	0.32394	0.24339	0.1894	0.10388	0.27917	0.031142	0.12447	0.16765	0.15812	0.20098	0.31104	0.069375	0.081308	0.011778	-2.5417	-3.0812	-2.8292	-3.3583	-2.7667	-2.8312	-3.1292	-2.8021	-3.0396	-2.9167	-2.8417	-3.0042	-2.5938	-2.9333	-3.0792	-2.9021	411.149	422.502	485.881	442.787	446.129	495.320	437.563	161.079	475.271	279.685	424.531	167.531	503.572	358.022	342.819	231.162	0.00092047	0.00030473	4.2121e-05	1100.4	4.8025e-06	3.2644e-06	1172.1	228.15	7.9853e-06	3.9849e-06	283.84	80.421	64.605	18.193	4.7952e-06	25.861	0.00018785	0.00014579	4.1888e-05	1086.5	1.7693e-06	1.6868e-06	1159.1	226.22	1.7213e-06	1.7369e-06	285.4	80.226	63.472	18.459	1.8072e-06	26.407	419.853	259.118	222.503	164.432	309.336	286.574	164.300	172.368	278.305	321.832	171.125	177.773	177.235	185.124	254.797	184.381	-8191	255	
732.415	1	1	0	0	0.22456	0.10444	0.1805	0.093275	0.10223	0.28063	0.27378	0.13728	0.21324	0.11786	0.10141	0.12339	0.12523	0.06522	0.17325	0.13577	-2.7438	-3	-2.8937	-3.2625	-2.9521	-2.9646	-3.2229	-2.9333	-2.9979	-3.05	-2.9125	-2.9833	-2.6479	-2.8563	-3.0042	-2.8417	219.856	491.840	168.456	154.844	324.469	338.486	387.439	249.792	218.467	486.343	495.259	461.038	446.023	191.979	294.513	436.713	0.00087184	0.0001547	9.7042e-05	1112.1	3.2463e-06	3.0316e-06	1184.2	230.52	5.7321e-06	4.3437e-06	288.93	80.819	64.983	18.243	5.124e-06	26.03	0.00020097	0.00017031	4.6787e-05	1099.8	1.9157e-06	1.8067e-06	1167.9	228.06	1.9156e-06	1.863e-06	287.1	80.573	63.788	18.51	1.9408e-06	26.472	418.820	307.883	213.945	164.520	281.512	289.068	164.197	172.167	290.756	293.343	171.207	177.537	177.236	185.408	292.914	184.254	-8191	255	
732.486	1	1	0	0	0.12982	0.062155	0.074395	0.15948	0.025275	0.24055	0.15526	0.13232	0.12704	0.15185	0.20401	0.16536	0.23808	0.15756	0.25936	0.08622	-2.3396	-2.8417	-2.6792	-3.0271	-2.6042	-2.8125	-3.2396	-2.8563	-2.8271	-3.1188	-2.7125	-3.0771	-2.7896	-2.7417	-2.9396	-2.8167	176.770	386.525	392.718	450.027	417.536	358.036	313.435	451.885	326.436	225.261	453.285	165.917	484.984	306.275	459.849	306.793	0.00093416	0.00019979	0.00010514	1113.6	4.4344e-06	7.1051e-06	1187	230.34	6.3335e-06	3.3684e-06	287.65	80.4	65.427	18.34	2.9247e-06	25.952	0.00020436	0.00016797	4.6555e-05	1100.4	1.9665e-06	1.8856e-06	1171.3	228.47	1.9039e-06	1.8775e-06	287.51	80.67	63.938	18.539	1.7066e-06	26.47	418.678	242.627	281.288	164.500	300.746	303.148	164.205	172.073	292.496	275.017	171.175	177.610	177.010	184.961	299.046	183.844	-8191	255	
732.605	1	1	0	0	0.093603	0.18631	0.1048	0.23749	0.23633	0.12426	0.17277	0.23753	0.21494	0.38768	0.20628	0.033349	0.088033	0.12165	0.19852	0.21485	-2.4521	-3.0792	-2.7604	-3.1583	-2.8563	-2.6667	-3.1375	-2.8917	-2.8354	-2.8208	-2.825	-2.9792	-2.9021	-2.7417	-2.9688	-2.7938	361.188	398.709	235.698	178.231	210.318	407.421	291.012	487.478	192.149	276.471	239.185	275.721	443.328	407.054	207.957	346.568	0.00091137	0.0001685	8.1736e-05	1109.9	6.4087e-06	3.3134e-06	1179.2	229.46	7.9655e-06	2.6069e-06	285.77	80.496	64.76	18.262	2.8341e-06	25.856	0.00019573	0.0001542	4.1006e-05	1099.7	1.7357e-06	1.5872e-06	1165.5	227.73	1.627e-06	1.531e-06	285.2	80.264	63.663	18.472	1.5028e-06	26.314	415.141	214.319	258.080	164.419	298.345	286.062	164.261	171.911	283.608	303.005	171.090	177.434	177.777	184.852	272.642	184.370	-8191	255	
732.701	1	1	0	0	0.12641	0.17249	0.26273	0.072352	0.16306	0.071474	0.19823	0.23535	0.22259	0.14751	0.092802	0.16387	0.24956	0.12664	0.16737	0.28056	-2.4292	-3.2271	-2.7854	-3.0812	-3.0187	-2.7333	-3.1937	-2.9958	-2.8208	-3.325	-2.8	-2.9771	-3.0292	-2.7375	-3.225	-2.8625	219.442	502.743	277.477	248.629	154.699	449.170	407.338	176.389	447.382	369.918	437.060	472.886	255.977	496.876	314.020	378.380	0.00098366	0.00023748	6.7526e-05	1102.2	5.5972e-06	3.1201e-06	1162.4	227.07	9.3484e-06	3.2369e-06	284.5	80.307	64.3	18.016	2.1294e-06	25.802	0.00017363	0.00012345	3.5861e-05	1085.2	1.5082e-06	1.3829e-06	1148.4	224.16	1.3843e-06	1.3239e-06	282.79	79.82	62.793	18.287	1.2882e-06	26.213	414.886	263.175	262.969	164.701	274.795	310.397	164.231	172.071	278.919	317.004	171.331	178.026	177.528	185.377	257.730	184.474	-8191	255	
732.798	1	1	0	0	0.21133	0.1811	0.095224	0.35597	0.14477	0.13153	0.26518	0.29191	0.30636	0.06877	0.22218	0.34935	0.075301	0.10286	0.10268	0.11303	-2.1813	-3.0792	-2.825	-2.9896	-2.8708	-2.7271	-2.9625	-2.8833	-2.7396	-2.85	-2.8229	-2.7917	-3.1354	-2.6833	-2.8667	-2.9125	455.580	155.047	241.278	469.474	201.598	484.575	441.048	453.283	285.920	337.552	489.114	440.660	510.119	195.796	436.204	386.284	0.00091824	0.00031903	9.1101e-05	1073.5	6.4695e-06	3.2378e-06	1145.5	224.29	6.6483e-06	1.3171e-06	284.41	80.043	63.808	18.286	4.4618e-06	26.013	0.00015766	0.00011149	2.9303e-05	1063.2	1.309e-06	1.1391e-06	1130	221.81	1.2214e-06	1.1005e-06	281.18	79.463	62.393	18.367	1.1392e-06	26.204	419.735	238.296	269.178	164.457	274.560	312.379	164.178	172.224	288.946	302.013	171.103	177.657	177.423	185.475	297.152	184.158	-8191	255	
732.896	1	1	0	0	0.19156	0.14581	0.2175	0.12752	0.018963	0.08324	0.18879	0.069334	0.21961	0.1574	0.28049	0.07002	0.02236	0.28376	0.15321	0.31021	-2.3042	-3.2479	-2.9458	-2.9917	-3.2021	-2.8083	-3.0312	-2.8688	-2.7188	-3.1708	-2.7792	-2.8208	-3.0833	-2.8271	-2.8021	-2.8979	189.707	444.545	285.371	298.712	319.016	297.295	407.987	387.577	477.767	400.196	340.403	437.985	318.277	512.425	422.164	437.673	0.0010104	0.00030188	0.00010098	1064.1	3.2434e-06	2.2353e-06	1138.6	226.15	6.3469e-06	3.3526e-06	282.82	80.632	64.457	18.285	2.8099e-06	25.935	0.0001414	9.3893e-05	2.6874e-05	1052.8	1.1138e-06	1.0105e-06	1124.9	222.98	1.1029e-06	9.4018e-07	282.77	79.954	63.162	18.424	9.4623e-07	26.336	413.632	225.866	254.167	164.839	287.274	273.507	164.267	171.822	278.101	325.803	170.983	177.673	177.625	185.135	305.566	184.232	-8191	255	
733.014	1	1	0	0	0.29842	0.027146	0.12332	0.14489	0.08228	0.19349	0.15552	0.25404	0.23052	0.13021	0.094155	0.16299	0.36395	0.25969	0.12551	0.14936	-2.3208	-2.8146	-2.7646	-2.7917	-2.9	-2.7375	-3.0687	-2.9437	-2.7292	-3.0583	-3.1021	-2.6625	-3.1229	-2.75	-3.0667	-3.1	301.494	507.746	306.701	273.577	419.807	286.055	305.335	239.310	411.289	408.274	365.870	239.449	416.758	483.525	334.976	432.363	0.00094955	0.00037498	0.00010572	1069.9	5.0741e-06	2.3321e-06	1137.2	227.68	9.0295e-06	2.1762e-06	286.79	80.506	64.64	18.245	2.6579e-06	25.863	0.00013344	8.5809e-05	2.3827e-05	1054.5	1.0466e-06	9.4592e-07	1122.5	224.86	1.0007e-06	8.8841e-07	283.4	80.048	62.95	18.455	8.9037e-07	26.298	416.502	240.132	271.283	164.577	260.916	277.374	164.096	171.911	280.311	298.032	171.165	177.712	177.508	184.924	292.467	184.462	-8191	255	
733.111	1	1	0	0	0.072566	0.22063	0.13735	0.12483	0.14164	0.30156	0.054355	0.12342	0.30785	0.20188	0.13968	0.036065	0.16198	0.34864	0.28074	0.11849	-2.3479	-3.025	-2.8667	-2.925	-3.0354	-2.6729	-2.95	-3.0875	-2.6479	-2.9771	-3.1354	-2.7354	-3.0667	-2.9146	-2.8812	-3.0729	509.938	316.090	232.061	361.606	420.135	478.173	366.916	463.752	218.428	373.889	155.087	235.332	162.917	161.981	359.814	420.458	0.00085623	0.0002187	8.9062e-05	1062.7	4.6046e-06	4.1519e-06	1134.1	227.5	6.1473e-06	4.2284e-06	285.44	80.568	64.447	18.315	2.0457e-06	25.986	0.00012805	8.0341e-05	2.2372e-05	1050.3	1.0186e-06	8.4883e-07	1120.4	225.2	9.8957e-07	8.8023e-07	283.59	80.146	62.845	18.51	9.5593e-07	26.381	419.709	219.528	249.048	164.706	305.273	309.778	164.286	172.250	289.395	308.606	171.097	177.638	177.107	185.007	287.196	184.591	-8191	255	
733.207	1	1	0	0	0.16497	0.16289	0.051357	0.21109	0.19138	0.16921	0.30346	0.018599	0.35307	0.23199	0.15944	0.1909	0.28192	0.10128	0.13151	0.078119	-2.1021	-2.9208	-2.9875	-2.7646	-3.1063	-2.7896	-3	-2.95	-2.825	-2.925	-2.9625	-2.6125	-2.9313	-2.8708	-2.775	-2.9958	257.395	355.792	260.163	497.964	175.581	381.112	418.326	200.442	499.598	246.307	457.731	494.623	388.371	230.672	205.249	409.768	0.00099027	0.00036672	6.2545e-05	1064.7	5.4461e-06	2.3736e-06	1136.9	228.2	7.6188e-06	2.1166e-06	286.65	80.638	64.556	18.354	3.2824e-06	25.867	0.00012882	8.1523e-05	2.135e-05	1050.4	9.7744e-07	8.7175e-07	1120.8	225.86	9.8259e-07	9.0049e-07	283.91	80.127	62.893	18.448	9.4063e-07	26.261	413.922	249.537	259.769	164.596	287.449	308.774	164.061	171.850	282.403	292.839	171.157	177.489	177.919	184.601	289.282	184.297	-8191	255	
733.303	1	1	0	0	0.31271	0.17368	0.11294	0.16658	0.085448	0.27212	0.29654	0.071663	0.13367	0.059536	0.12959	0.16235	0.2233	0.18572	0.07563	0.12153	-2.2687	-2.825	-2.7938	-2.7917	-2.8937	-2.7771	-2.7854	-2.9917	-2.8063	-2.7438	-3.1083	-2.9188	-2.9917	-2.8396	-2.7146	-2.9583	271.213	393.280	258.048	501.852	175.123	350.028	439.463	289.538	269.623	299.882	412.636	269.978	470.772	437.678	345.284	465.520	0.00093816	0.00031764	8.3735e-05	1057.8	2.4249e-06	1.2916e-06	1128.8	226.52	7.315e-06	3.7231e-06	284.5	80.371	64.126	18.151	2.5355e-06	25.774	0.00012814	8.5772e-05	2.2956e-05	1047.4	1.0342e-06	8.9008e-07	1117	225.19	9.8084e-07	9.7349e-07	282.81	79.832	62.593	18.365	9.6631e-07	26.312	415.780	221.254	255.442	164.768	314.415	299.998	164.488	171.900	298.455	320.479	171.496	177.615	177.123	185.112	296.457	184.355	-8191	255	
733.399	1	1	0	0	0.03837	0.044391	0.21588	0.16142	0.017861	0.11173	0.18008	0.1085	0.30063	0.16177	0.084522	0.35353	0.17346	0.25653	0.12711	0.16351	-2.2021	-2.9208	-3.0104	-2.8125	-2.8667	-2.9354	-2.7146	-3.0687	-2.5583	-2.7313	-3.125	-2.7021	-2.9437	-2.8771	-2.7	-3.2438	498.403	386.660	376.956	199.055	215.841	246.689	400.613	380.974	424.956	215.738	484.066	299.604	442.289	462.690	182.978	322.652	0.00097766	0.00031509	0.00012041	1063.7	4.2583e-06	2.0629e-06	1134.4	226.51	5.2363e-06	2.3366e-06	285.23	80.139	64.06	18.129	2.8046e-06	25.906	0.00013594	9.1567e-05	2.5184e-05	1048.2	1.114e-06	9.9148e-07	1118.8	224.31	1.1244e-06	1.0142e-06	283.3	79.739	62.599	18.335	1.1026e-06	26.238	418.371	228.135	261.212	164.604	284.602	299.076	164.405	172.339	283.486	350.346	171.157	177.487	177.829	185.127	281.878	184.404	-8191	255	
733.495	1	1	0	0	0.15554	0.034477	0.12781	0.19716	0.17342	0.077183	0.082651	0.15342	0.017245	0.047731	0.16177	0.08729	0.070961	0.068206	0.11301	0.35131	-2.6271	-2.7979	-3.0938	-2.7938	-3.0292	-2.8583	-2.8125	-3.1271	-2.7021	-2.7417	-2.9188	-2.6208	-2.8271	-3	-2.6667	-3.1521	251.527	302.773	205.004	197.899	441.276	191.748	330.148	258.776	201.407	438.978	484.197	376.039	336.378	154.579	445.443	458.680	0.00094906	0.0002101	8.3645e-05	1065.9	4.1903e-06	2.3614e-06	1134.6	226.89	5.1268e-06	3.0498e-06	284.36	80.108	63.734	18.192	3.1937e-06	25.967	0.00014401	9.8758e-05	2.7799e-05	1050.8	1.1905e-06	1.1177e-06	1121.1	224.5	1.1412e-06	1.1138e-06	282.35	79.496	62.418	18.338	1.1772e-06	26.276	412.100	259.938	230.852	164.263	303.407	328.475	164.200	171.906	282.213	316.502	170.965	177.773	177.889	184.957	312.596	184.255	-8191	255	
733.616	1	1	0	0	0.19513	0.049003	0.15185	0.24287	0.21087	0.11403	0.075374	0.095244	0.14693	0.25598	0.20638	0.036499	0.060499	0.033573	0.06536	0.19257	-2.5354	-2.8042	-3.0042	-2.9979	-2.7667	-3.0167	-2.9208	-3.1458	-2.9938	-2.8396	-3.1688	-2.7583	-2.7854	-3.0958	-2.6146	-2.9562	334.095	331.728	241.167	461.299	427.922	177.000	386.720	429.101	282.061	338.601	493.717	389.405	377.074	491.260	376.067	319.647	0.00095268	0.00022314	0.00011346	1074.1	4.4593e-06	2.7516e-06	1141.1	226.88	9.2038e-06	3.0159e-06	286.89	80.278	64.058	18.324	4.3126e-06	25.989	0.00014914	0.00011039	3.0684e-05	1056.8	1.2898e-06	1.2078e-06	1127.2	225.19	1.311e-06	1.1997e-06	284.49	80.011	62.853	18.482	1.2372e-06	26.318	416.029	228.517	260.544	164.745	259.861	351.950	164.182	171.874	273.851	302.985	171.711	177.500	177.535	184.787	292.464	184.541	-8191	255	
733.710	1	1	0	0	0.21841	0.13783	0.17062	0.26099	0.11202	0.02969	0.12728	0.052864	0.23558	0.061595	0.27444	0.12818	0.15024	0.26545	0.066029	0.15629	-2.5854	-2.8	-2.8937	-2.9583	-2.825	-2.8021	-2.8396	-2.95	-2.9042	-2.5646	-3.0521	-2.9	-2.8042	-3.0167	-2.6771	-2.9667	167.421	223.753	299.192	438.154	251.226	277.275	480.619	467.989	415.201	334.972	475.163	503.242	367.055	449.321	361.199	374.436	0.00084363	0.00019265	0.00012324	1076.6	3.3745e-06	1.0938e-06	1154.4	229.02	6.5891e-06	3.3693e-06	286.7	80.546	64.893	18.286	3.8089e-06	25.914	0.00015411	0.00011656	3.2779e-05	1065.3	1.4283e-06	1.2272e-06	1136.7	227.11	1.3578e-06	1.2813e-06	285.87	80.303	63.434	18.524	1.2962e-06	26.35	415.517	226.022	265.108	164.576	276.211	303.347	164.140	171.705	258.485	317.483	171.050	177.479	177.092	184.852	284.423	184.432	-8191	255	
733.782	1	1	0	0	0.22596	0.12098	0.15507	0.27107	0.10186	0.18221	0.34713	0.20857	0.097097	0.21993	0.25645	0.20809	0.22846	0.068777	0.076023	0.25364	-2.4625	-2.7062	-3.0333	-2.8833	-2.6854	-2.8667	-2.7917	-2.7771	-3.0021	-2.5021	-3.0521	-3.1542	-2.7771	-3.0875	-2.7812	-2.8042	452.711	199.448	511.900	181.733	328.933	305.091	501.501	447.788	241.746	430.215	390.591	481.773	513.483	503.237	312.460	316.406	0.0009511	0.00019734	7.7698e-05	1086.2	3.0956e-06	4.3464e-06	1157.2	229.36	9.2401e-06	3.0408e-06	285.45	80.801	64.696	18.323	4.0369e-06	26.023	0.00016322	0.00012161	3.3854e-05	1072.7	1.4041e-06	1.2969e-06	1139.9	226.81	1.4026e-06	1.2998e-06	285.06	80.167	63.052	18.464	1.352e-06	26.338	415.330	252.526	227.568	164.444	278.224	282.923	164.100	171.802	281.398	267.488	171.061	177.543	177.815	185.367	273.370	184.228	-8191	255	
733.878	1	1	0	0	0.21818	0.1919	0.17289	0.2933	0.081711	0.12389	0.26377	0.10296	0.12	0.07377	0.15938	0.21783	0.057432	0.12257	0.27686	0.099611	-2.6562	-2.6688	-2.9146	-2.8688	-2.65	-3.0542	-2.9125	-2.8937	-3.1562	-2.7854	-3.0167	-2.9313	-2.7271	-3.0104	-2.7521	-2.8542	509.940	279.772	453.121	178.331	345.589	229.170	399.446	179.835	458.765	497.334	407.113	479.158	422.352	307.449	507.758	413.940	0.00089791	0.00018894	0.00011391	1079.7	6.3526e-06	2.7896e-06	1145.7	224.42	4.9404e-06	2.9016e-06	280.32	78.684	63.934	17.954	3.6626e-06	25.461	0.00015943	0.00012274	3.3868e-05	1067.7	1.4124e-06	1.3028e-06	1134.2	222.49	1.3916e-06	1.3417e-06	280.37	78.88	62.295	18.135	1.3333e-06	25.933	413.320	261.394	281.603	164.499	274.837	327.252	164.147	172.037	268.764	291.521	171.217	177.207	178.299	185.078	334.285	184.518	-8191	255	
733.999	1	1	0	0	0.13244	0.21831	0.11446	0.34097	0.26268	0.12157	0.19381	0.041403	0.21457	0.16257	0.17419	0.16626	0.13591	0.31752	0.097151	0.11901	-2.5896	-2.6188	-2.8083	-3.0604	-2.7146	-2.8333	-3.0208	-2.775	-2.9354	-2.7562	-2.9208	-2.8771	-2.5375	-3.0875	-2.7687	-2.7521	368.240	400.803	492.060	483.092	445.447	325.166	347.697	187.462	502.969	501.601	497.377	445.348	485.085	462.648	451.326	491.946	0.00091383	0.00043713	7.4984e-05	1082.2	4.1881e-06	2.6605e-06	1150.8	225.04	5.7204e-06	1.824e-06	283.96	79.371	64.204	18.001	3.455e-06	25.626	0.00016283	0.00012413	3.5889e-05	1068.2	1.4938e-06	1.4003e-06	1136.9	223.36	1.4674e-06	1.3988e-06	282.3	79.248	62.735	18.213	1.4446e-06	25.994	414.142	256.943	210.052	164.472	275.640	335.241	164.362	172.101	285.918	314.622	171.238	177.445	177.000	185.122	251.025	184.214	-8191	255	
734.095	1	1	0	0	0.096639	0.0081174	0.045873	0.1211	0.27113	0.20456	0.3494	0.23262	0.028621	0.16227	0.30505	0.23553	0.2357	0.2923	0.17949	0.035138	-2.5854	-2.475	-2.8312	-3.0729	-2.6479	-3.0083	-2.8208	-2.7208	-2.975	-2.5375	-2.7854	-2.8292	-2.8	-3.0333	-2.9896	-2.7542	493.510	274.340	292.331	154.747	273.691	364.579	424.357	345.047	239.778	327.522	466.190	393.663	512.500	508.691	507.067	229.236	0.00093402	0.00030859	8.4024e-05	1082.6	3.4377e-06	3.5068e-06	1154.4	227.19	6.5011e-06	2.1089e-06	287.1	80.231	64.43	18.349	3.2395e-06	26.274	0.00016815	0.00012297	3.4304e-05	1070	1.4074e-06	1.2846e-06	1141.7	224.83	1.3235e-06	1.2244e-06	284.58	80.074	63.275	18.517	1.2027e-06	26.468	417.213	250.310	239.648	164.344	275.222	323.431	164.070	171.954	289.632	328.766	171.080	177.557	177.078	184.967	287.632	184.538	-8191	255	
734.191	1	1	0	0	0.15054	0.21471	0.24916	0.15787	0.16137	0.40913	0.22918	0.091069	0.23754	0.13255	0.14589	0.10274	0.17017	0.15147	0.053041	0.12609	-2.5792	-2.8	-2.6771	-3.1792	-2.7188	-3.0021	-2.8875	-2.8333	-3.1833	-2.8604	-2.7979	-3.1854	-2.9042	-3.0042	-2.9833	-2.6667	422.454	430.370	186.644	471.529	496.046	382.833	480.687	167.495	325.153	224.500	453.356	236.964	464.451	313.532	470.812	328.118	0.00089169	0.00035031	0.00014203	1088.9	2.3983e-06	3.3353e-06	1159.6	229.63	8.3278e-06	2.8435e-06	288.19	80.599	64.808	18.434	2.9754e-06	26.098	0.00015106	0.00010724	3.1454e-05	1077.3	1.3164e-06	1.2311e-06	1145.1	227.65	1.2967e-06	1.2065e-06	286.51	80.596	63.592	18.558	1.2254e-06	26.525	418.233	256.571	257.537	164.401	303.154	292.553	164.034	171.835	281.090	321.019	171.678	177.889	177.054	184.973	315.459	184.437	-8191	255	
734.287	1	1	0	0	0.063096	0.12906	0.19217	0.13284	0.24242	0.19521	0.096892	0.27844	0.11019	0.10552	0.12768	0.19875	0.038669	0.19562	0.17672	0.25485	-2.475	-2.6771	-2.7604	-3.1792	-2.8771	-2.8979	-3.1396	-2.8833	-3.1521	-2.9979	-2.6333	-3.0167	-2.6521	-2.9542	-3.0792	-2.7458	343.102	283.699	291.741	236.152	340.156	479.195	488.077	161.655	421.869	448.941	362.030	306.245	460.308	452.960	168.155	469.210	0.00085081	0.00020824	6.9332e-05	1091.7	7.1189e-06	3.5687e-06	1161.3	231.02	9.5974e-06	3.0401e-06	288.97	81.159	65.157	18.368	3.3823e-06	26.051	0.00014993	0.00011071	3.029e-05	1078.1	1.336e-06	1.2472e-06	1146.3	228.2	1.3159e-06	1.2015e-06	287.5	80.701	63.578	18.603	1.2742e-06	26.505	416.455	242.943	278.052	164.380	295.396	312.088	164.266	172.013	285.344	309.628	171.018	177.547	177.649	184.827	301.589	184.292	-8191	255	
734.383	1	1	0	0	0.15172	0.11013	0.25363	0.017572	0.093802	0.053363	0.18034	0.20364	0.27983	0.12966	0.14375	0.086185	0.27957	0.14977	0.14241	0.17972	-2.8125	-2.9688	-2.9083	-3.0229	-2.8292	-2.8354	-3.3104	-2.8875	-2.9688	-2.8333	-2.8583	-3.0979	-2.8021	-2.8604	-2.9271	-2.6875	243.166	230.444	352.720	315.635	330.210	399.058	427.375	453.322	448.960	444.952	173.950	291.287	482.681	291.091	282.571	156.744	0.0009233	0.0001369	6.7705e-05	1096.5	4.6136e-06	3.0672e-06	1160.7	229.26	9.4041e-06	1.7573e-06	289.1	80.825	65.413	18.313	3.5454e-06	26.062	0.00015893	0.00011435	3.2012e-05	1081.4	1.4034e-06	1.336e-06	1148.8	228.32	1.4748e-06	1.3138e-06	287.53	80.705	63.926	18.574	1.3796e-06	26.484	419.349	264.435	251.053	164.415	311.160	347.871	164.057	172.129	286.169	292.188	170.881	177.620	177.560	185.007	278.252	184.135	-8191	255	
734.479	1	1	0	0	0.21744	0.24879	0.12189	0.26898	0.16158	0.13298	0.12576	0.12012	0.075268	0.13545	0.10505	0.28021	0.10211	0.2464	0.014921	0.12767	-2.375	-3.0875	-2.6271	-3.1646	-2.95	-2.8563	-3.0042	-2.7	-2.9354	-2.9208	-2.7146	-3.1146	-2.7667	-2.7188	-3.0875	-2.7604	279.862	375.864	347.343	458.312	486.798	484.880	355.369	351.173	335.552	295.615	289.335	303.314	470.362	504.563	504.958	359.832	0.00099096	0.0003415	9.4157e-05	1094.7	5.5137e-06	3.6693e-06	1164.7	231.33	6.3737e-06	3.8992e-06	289.77	80.705	65.347	18.415	3.13e-06	25.972	0.00017566	0.00012635	3.5506e-05	1085.6	1.4971e-06	1.4069e-06	1152.1	228.94	1.5093e-06	1.4054e-06	288	80.584	63.915	18.614	1.3761e-06	26.479	415.629	257.728	222.416	164.573	300.906	281.050	163.980	171.918	261.547	328.478	171.422	177.607	177.153	184.842	259.034	184.636	-8191	255	
734.576	1	1	0	0	0.16254	0.32566	0.17248	0.11806	0.15638	0.14851	0.17399	0.090226	0.26241	0.16908	0.12243	0.27625	0.12805	0.049118	0.35698	0.099015	-2.3875	-3.0958	-2.5979	-3.1125	-2.8708	-2.8854	-3.1042	-2.8021	-2.7375	-3.0417	-2.7729	-3.1063	-3.0021	-2.5375	-3.075	-2.8688	329.399	263.310	210.325	465.707	283.599	383.464	400.254	243.396	182.635	396.319	402.673	243.285	170.377	372.178	491.434	359.876	0.00094705	0.00029421	9.2545e-05	1096.8	6.1923e-06	2.4051e-06	1172.5	230.72	4.9695e-06	2.9361e-06	289.33	81.128	65.194	18.26	5.5963e-06	26.042	0.00016808	0.00012586	3.662e-05	1087	1.5491e-06	1.4108e-06	1157.3	229.41	1.5216e-06	1.4505e-06	288.25	80.759	63.889	18.537	1.5507e-06	26.419	414.462	271.108	248.906	164.609	291.539	289.120	164.055	171.906	274.447	307.330	171.153	177.412	177.450	185.011	318.287	184.428	-8191	255	
734.696	1	1	0	0	0.18451	0.073967	0.05227	0.22929	0.14328	0.18991	0.28274	0.1252	0.097514	0.16239	0.13746	0.18832	0.18133	0.062196	0.039639	0.22925	-2.2333	-3.1625	-2.5625	-3.2417	-2.9417	-2.6875	-3.2625	-3.0687	-2.7667	-3.1521	-2.8396	-2.8979	-2.8979	-2.7396	-3.0938	-2.8771	492.154	267.688	230.641	188.623	419.692	373.587	440.320	502.318	288.633	394.676	237.618	320.180	159.790	491.925	233.238	194.977	0.00094488	0.00030935	7.9001e-05	1098.8	5.2274e-06	2.1042e-06	1164.6	230.12	8.7414e-06	3.6346e-06	288.4	80.836	65.429	18.317	3.2957e-06	25.958	0.00017353	0.00013465	3.6367e-05	1088	1.5119e-06	1.4382e-06	1153.9	228.42	1.5461e-06	1.4097e-06	287.46	80.497	63.708	18.539	1.4467e-06	26.396	419.273	287.053	270.473	164.564	285.940	320.604	164.122	171.784	296.728	285.879	171.160	177.297	177.268	185.020	313.465	184.553	-8191	255	
734.791	1	1	0	0	0.16513	0.14397	0.061606	0.15207	0.18687	0.17613	0.15067	0.19628	0.16835	0.090385	0.084551	0.14263	0.15486	0.25262	0.26645	0.31813	-2.2354	-3.15	-2.6125	-3.0187	-2.8563	-2.8146	-3.2479	-3.1063	-2.6542	-3.0479	-2.625	-2.7479	-2.9542	-2.7646	-3.0083	-3.0375	422.159	474.382	385.233	171.587	382.384	490.372	175.141	513.244	489.294	293.715	353.625	423.280	510.507	292.900	407.054	505.678	0.00089497	0.00012281	6.425e-05	1086.7	4.278e-06	4.3323e-06	1159.5	228.97	4.9755e-06	3.5541e-06	287.6	80.827	64.078	18.377	1.5255e-06	26.162	0.00016207	0.00011396	3.352e-05	1077.5	1.3602e-06	1.2457e-06	1145.6	227.06	1.3009e-06	1.2341e-06	286.31	80.505	63.334	18.585	1.1163e-06	26.582	416.146	261.573	247.925	164.384	302.071	326.334	164.062	171.994	277.909	292.432	171.272	177.325	176.990	185.044	342.541	184.759	-8191	255	
734.887	1	1	0	0	0.15915	0.20789	0.17252	0.091237	0.22249	0.077869	0.12922	0.030841	0.19543	0.14595	0.4175	0.11661	0.3152	0.31803	0.045066	0.13056	-2.2979	-3.0292	-2.8125	-3.0125	-3.0375	-2.6917	-3.05	-2.9854	-2.6604	-3.0708	-3.0208	-2.7062	-3.0479	-2.825	-2.9062	-2.7667	227.648	281.333	427.356	459.543	385.887	312.736	303.178	415.156	231.396	333.869	475.812	243.145	465.519	432.400	302.460	361.594	0.00093656	0.00025314	8.3724e-05	1081.2	7.0258e-06	3.22e-06	1146.7	228.51	5.327e-06	2.4702e-06	287.2	81.256	64.575	18.436	4.1657e-06	26.187	0.00014246	9.8908e-05	2.822e-05	1066.3	1.1545e-06	1.0215e-06	1133	226.57	1.133e-06	1.0157e-06	284.9	80.546	63.483	18.579	1.1189e-06	26.548	412.843	276.641	244.078	164.633	286.875	293.197	164.313	171.910	286.077	312.306	170.982	177.336	177.069	185.246	304.196	184.228	-8191	255	
735.007	1	1	0	0	0.12133	0.17922	0.08089	0.16176	0.37657	0.16169	0.21643	0.18158	0.15361	0.13244	0.20429	0.10582	0.06984	0.14387	0.14034	0.16844	-2.2708	-3.0104	-2.8229	-2.8812	-3.1104	-2.6917	-3.0187	-2.9042	-2.7833	-3.0625	-2.9396	-2.7812	-3.1063	-2.7479	-2.7583	-2.9938	490.339	472.935	506.300	172.960	407.571	279.639	167.385	448.528	498.933	440.561	273.279	261.040	261.117	467.179	488.903	408.581	0.0008665	0.0001259	5.1394e-05	1069.4	5.3646e-06	3.5856e-06	1146.5	228.29	8.9345e-06	4.7452e-06	286.34	80.158	64.048	18.187	3.049e-06	25.888	0.00013729	9.2472e-05	2.6389e-05	1059.7	1.1735e-06	1.1177e-06	1131.3	226.41	1.2511e-06	1.2032e-06	285.31	80.073	63.027	18.415	1.271e-06	26.312	414.025	327.092	285.981	164.739	286.496	320.074	164.157	171.906	288.147	286.564	171.210	177.397	177.344	185.093	290.515	184.582	-8191	255	
735.079	1	1	0	0	0.13324	0.1303	0.15988	0.22881	0.21957	0.11799	0.32774	0.17485	0.1029	0.1904	0.043128	0.06666	0.14515	0.10738	0.0188	0.31736	-2.1896	-2.8458	-2.925	-2.8708	-3.0083	-2.8208	-3.1542	-3.0563	-2.6292	-2.8604	-2.8896	-2.6521	-2.8604	-2.825	-2.725	-3.075	199.329	206.915	498.499	199.394	320.738	426.013	502.136	445.238	407.878	187.598	293.153	375.306	159.338	344.934	489.432	497.292	0.00094063	0.0002779	0.00013372	1076.3	3.1907e-06	3.5809e-06	1145.9	227.74	5.3349e-06	2.5565e-06	286.22	79.622	64.215	18.161	6.0791e-06	25.752	0.00015749	0.00011792	3.2093e-05	1065.1	1.3778e-06	1.3672e-06	1134.8	225.61	1.4363e-06	1.3689e-06	284.19	79.668	62.905	18.311	1.4054e-06	26.128	412.779	275.602	245.421	164.642	319.765	333.538	164.026	171.942	299.031	314.537	171.654	177.173	177.441	185.159	301.507	184.263	-8191	255	
735.175	1	1	0	0	0.072727	0.13871	0.096195	0.2964	0.17761	0.31065	0.59076	0.139	0.09772	0.20385	0.1865	0.32142	0.17209	0.32128	0.035219	0.19661	-2.2146	-2.9021	-2.7917	-2.6792	-3	-2.9604	-3.0354	-3.1229	-2.8042	-2.9313	-2.8625	-2.5104	-3.025	-2.9188	-2.5417	-3.1562	491.921	155.580	216.690	484.054	299.773	387.127	471.866	246.240	221.381	369.954	190.900	424.155	397.992	509.307	264.545	224.260	0.00091894	0.00030129	9.4238e-05	1086.3	5.3917e-06	1.328e-06	1155.5	227.06	7.5882e-06	2.6491e-06	284.61	79.823	64.511	18.031	2.3846e-06	25.623	0.00017217	0.00013182	3.6542e-05	1073.4	1.5642e-06	1.4665e-06	1141.8	224.94	1.6243e-06	1.5253e-06	284.05	79.548	62.977	18.272	1.5617e-06	26.146	414.316	263.130	246.019	164.530	285.987	314.450	164.066	172.000	307.039	288.779	171.191	177.749	177.551	185.128	325.210	184.592	-8191	255	
735.296	1	1	0	0	0.12803	0.14515	0.09075	0.25917	0.30724	0.053984	0.32896	0.27036	0.21872	0.36015	0.10666	0.22416	0.04183	0.078291	0.13589	0.020615	-2.3021	-2.8104	-2.9917	-2.7562	-3.0292	-2.7833	-2.9562	-3.0687	-2.6875	-2.8125	-3.0854	-2.7521	-3.1792	-2.9229	-2.8021	-2.9604	167.333	432.808	250.188	161.493	364.541	333.436	474.146	476.514	482.812	173.174	490.913	409.181	298.120	163.821	419.116	448.888	0.00087016	0.0004919	0.00012145	1096.7	5.4054e-06	2.8364e-06	1170	228.88	6.9047e-06	1.2677e-06	286.85	80.845	64.654	18.226	4.0135e-06	25.734	0.00018449	0.00015675	4.109e-05	1084.9	1.7806e-06	1.6308e-06	1158.1	227.13	1.8371e-06	1.8032e-06	286.21	80.346	63.685	18.401	1.816e-06	26.204	413.494	242.937	260.630	164.618	274.218	334.297	164.201	171.911	256.765	229.682	171.073	177.538	177.141	184.907	288.687	184.475	-8191	255	
735.392	1	1	0	0	0.082802	0.059789	0.37769	0.41193	0.21774	0.23718	0.14094	0.40438	0.27492	0.1443	0.032096	0.10502	0.20552	0.15299	0.12329	0.15918	-2.2667	-2.8	-2.9625	-2.9146	-2.9146	-2.7375	-2.7396	-2.9229	-2.6083	-2.6833	-3.125	-2.7625	-2.85	-2.9417	-2.6167	-2.9854	383.317	433.853	309.868	411.434	324.551	327.685	402.653	455.246	449.960	477.396	512.816	221.985	364.660	180.617	176.073	241.946	0.00095849	0.00029516	8.3049e-05	1112.6	3.027e-06	9.6823e-07	1180.3	230.07	7.1023e-06	3.4822e-06	289.3	80.898	64.748	18.16	5.5129e-06	25.839	0.00020468	0.00016961	4.5086e-05	1097.8	1.9727e-06	1.8918e-06	1169.3	228.58	1.9707e-06	1.9026e-06	287.93	80.733	64.004	18.441	1.9815e-06	26.272	416.992	241.815	243.799	164.237	304.723	356.674	164.144	171.620	287.541	296.390	171.165	177.265	177.483	184.569	292.433	184.575	-8191	255	
735.488	1	1	0	0	0.17975	0.13522	0.15238	0.26023	0.40415	0.11545	0.16639	0.17499	0.088489	0.20708	0.22765	0.33586	0.31445	0.05734	0.095758	0.12472	-2.4729	-2.6063	-2.7792	-2.7521	-2.8187	-2.9125	-2.9583	-3.0896	-2.8125	-2.675	-2.9667	-2.7104	-2.8354	-2.9188	-2.6979	-2.975	378.108	436.383	162.186	420.109	238.226	307.910	180.981	398.685	348.881	203.779	260.888	449.294	263.698	188.911	447.494	166.064	0.00091112	0.0003885	0.00015651	1118.6	4.595e-06	3.1005e-06	1193.4	230.46	6.313e-06	1.9063e-06	290.44	80.744	64.796	18.185	2.9021e-06	25.846	0.00021686	0.00017973	5.105e-05	1108.4	2.0514e-06	1.9853e-06	1177.5	229.73	2.0428e-06	2.0167e-06	288.48	80.932	64.232	18.421	2.0049e-06	26.245	414.766	207.571	200.704	164.404	295.074	319.275	164.212	171.803	286.847	339.936	171.223	177.322	177.424	185.024	266.085	184.625	-8191	255	
735.584	1	1	0	0	0.033127	0.2877	0.13951	0.1718	0.18944	0.21148	0.081759	0.22646	0.19169	0.035222	0.024703	0.16677	0.17671	0.17563	0.20397	0.13496	-2.3979	-2.6646	-2.7854	-2.7875	-2.7062	-2.9896	-2.875	-2.9167	-2.8812	-2.6104	-3.2917	-2.8083	-2.7917	-2.9062	-2.8375	-3.1063	213.536	222.084	405.748	444.030	197.392	508.969	221.804	478.903	258.893	157.950	169.637	193.317	491.002	242.552	504.463	313.952	0.00087514	0.00023867	0.0001234	1121	3.3616e-06	2.744e-06	1187.5	231.66	6.0975e-06	2.1544e-06	288.78	81.004	64.643	18.275	5.5099e-06	25.632	0.00021784	0.0001845	5.1612e-05	1111.6	2.1608e-06	2.0677e-06	1176.5	229.93	2.1006e-06	2.0933e-06	288.37	80.89	63.986	18.487	2.0282e-06	26.212	420.067	225.065	261.597	164.347	271.993	333.844	164.113	171.784	295.926	286.153	170.957	177.453	177.323	185.192	324.907	184.169	-8191	255	
735.679	1	1	0	0	0.13145	0.10576	0.1364	0.16626	0.30291	0.18631	0.22261	0.12275	0.050946	0.30217	0.34074	0.10023	0.23941	0.13496	0.094679	0.11117	-2.6125	-2.6958	-3.0687	-2.8375	-2.7417	-3.1604	-2.7167	-2.9458	-2.95	-2.8458	-3.0604	-2.8771	-2.8792	-3.0208	-2.8396	-2.8563	298.915	511.338	438.043	174.747	420.853	310.613	357.590	406.142	473.866	512.299	497.619	155.723	480.341	428.829	200.515	431.725	0.00091868	0.00027478	0.0001023	1123.4	5.7811e-06	7.0236e-07	1192.5	230.62	8.0264e-06	3.3902e-06	289.62	81.071	65.423	18.221	3.045e-06	25.922	0.00021666	0.00018877	5.1967e-05	1112.2	2.1539e-06	2.0123e-06	1179	229.79	2.1435e-06	2.0555e-06	289.02	80.836	64.268	18.472	2.0583e-06	26.313	415.422	245.410	241.981	164.462	276.922	352.189	164.270	172.010	279.196	264.969	170.724	177.307	177.097	184.911	287.664	184.420	-8191	255	
735.775	1	1	0	0	0.26086	0.089898	0.071539	0.1778	0.033111	0.10345	0.23021	0.25037	0.30236	0.088485	0.063943	0.30265	0.067301	0.34124	0.10779	0.12588	-2.7	-2.6437	-2.9688	-3.0125	-2.7604	-2.9729	-2.9	-2.8187	-3.1396	-2.7229	-2.8875	-2.9729	-2.7229	-2.9979	-2.7917	-2.8688	275.366	204.493	378.643	466.118	202.051	440.387	440.377	465.121	233.028	477.064	328.228	193.361	175.753	435.067	277.841	230.831	0.00097517	0.0002621	0.00011523	1122.9	6.0483e-06	2.4418e-06	1189.4	232.29	1.0066e-05	3.0013e-06	289.5	80.962	65.306	18.031	4.886e-06	25.785	0.00022327	0.00018747	5.3211e-05	1111.4	2.2008e-06	2.1267e-06	1176.9	230.09	2.1908e-06	2.0922e-06	288.05	80.617	64.183	18.37	2.2678e-06	26.279	415.601	268.447	289.150	164.379	282.445	294.893	164.023	171.764	275.792	321.748	171.394	177.404	177.760	185.050	251.734	184.543	-8191	255	
735.871	1	1	0	0	0.021168	0.0825	0.070485	0.012988	0.11536	0.15467	0.11198	0.022832	0.24066	0.22745	0.11175	0.13225	0.14827	0.27475	0.10363	0.43628	-2.6417	-2.7125	-3.0125	-3.0104	-2.6979	-3.0687	-2.7979	-2.8542	-3.0708	-2.7313	-2.9208	-2.9833	-2.6562	-3.2375	-2.9062	-2.7	360.603	419.158	325.052	403.245	462.470	367.632	458.463	508.242	323.277	270.424	298.392	390.048	345.900	164.186	282.397	208.495	0.00087932	0.00015343	7.9985e-05	1123.7	4.5545e-06	1.6019e-06	1192.4	230.88	4.6706e-06	4.9645e-06	288.05	81.125	64.72	18.071	5.0786e-06	26.014	0.00023512	0.00020163	5.6023e-05	1111.4	2.2122e-06	2.1919e-06	1177.6	229.58	2.2212e-06	2.1674e-06	287.58	80.691	64.049	18.386	2.1828e-06	26.346	417.868	287.776	261.483	164.298	278.315	252.821	163.949	171.850	288.557	322.827	170.977	177.248	177.507	185.132	274.845	184.552	-8191	255	
735.967	1	1	0	0	0.19747	0.2685	0.18802	0.10708	0.14803	0.2628	0.56688	0.22205	0.19664	0.22799	0.24217	0.1829	0.18605	0.26121	0.22675	0.13764	-2.65	-2.6771	-2.8833	-3.0146	-2.7167	-2.9562	-3.0479	-2.7687	-3.2146	-2.8	-2.8458	-2.8604	-2.7917	-2.9292	-2.8479	-2.825	462.058	392.502	433.009	428.308	275.908	432.593	437.853	485.962	311.330	265.618	192.521	198.073	500.764	430.137	438.816	439.860	0.0010133	0.00040767	0.00012718	1122.1	6.6194e-06	5.0412e-06	1185.6	230.79	7.0915e-06	2.2066e-06	288.97	80.469	64.566	18.024	5.3093e-06	25.687	0.00022871	0.0001964	5.6943e-05	1109.4	2.2798e-06	2.2387e-06	1175.2	229.46	2.2466e-06	2.1781e-06	287.54	80.483	63.944	18.356	2.2205e-06	26.272	415.716	265.863	290.207	164.390	290.023	281.343	164.248	171.807	295.172	314.416	171.304	177.546	177.233	185.157	312.699	184.155	-8191	255	
736.088	1	1	0	0	0.10836	0.16851	0.037204	0.068976	0.09463	0.27746	0.14067	0.11069	0.2056	0.20671	0.24997	0.11452	0.213	0.22821	0.12543	0.23862	-2.7125	-2.7062	-2.8958	-3.0438	-2.6479	-2.9604	-3.0583	-2.9604	-3.0875	-2.7958	-2.8187	-3.0438	-2.5208	-3.025	-2.9771	-2.6542	301.565	221.240	496.081	436.498	268.710	338.436	195.781	469.788	355.511	320.430	469.101	317.286	392.404	182.694	413.911	354.538	0.00084209	0.00025634	7.9949e-05	1122.2	5.9852e-06	2.6284e-06	1186.8	230.35	8.3672e-06	3.0216e-06	287.3	79.866	65.298	18.092	6.0065e-06	25.848	0.00023189	0.00020293	5.6286e-05	1111.1	2.3181e-06	2.1983e-06	1174.3	229.33	2.2979e-06	2.1212e-06	286.87	80.301	64.094	18.329	2.2224e-06	26.27	420.056	242.265	263.049	164.538	295.364	246.162	163.947	172.030	315.194	268.137	171.302	177.426	176.992	184.990	279.139	184.208	-8191	255	
736.184	1	1	0	0	0.052942	0.25746	0.293	0.021564	0.10308	0.063494	0.36691	0.32947	0.24619	0.10792	0.13253	0.12983	0.37831	0.12064	0.17622	0.14907	-2.6333	-2.75	-2.6354	-3.1583	-2.6354	-3.0646	-3.1521	-2.8833	-3.0938	-2.8229	-2.7687	-3.0208	-2.5854	-2.9458	-2.9396	-2.7458	375.314	344.588	451.183	491.640	324.770	189.284	440.773	463.524	187.104	471.096	279.170	466.351	298.951	191.597	207.172	396.183	0.00088834	0.00017236	8.4359e-05	1115.3	6.1619e-06	2.1779e-06	1177.2	230.15	9.0121e-06	2.5951e-06	286.97	80.36	65.333	17.986	4.6504e-06	25.604	0.00022826	0.00020098	5.357e-05	1106.3	2.1817e-06	2.1055e-06	1168.5	228.34	2.157e-06	2.079e-06	285.78	80.158	63.501	18.187	2.0327e-06	26.081	410.114	237.984	307.794	164.404	314.704	264.575	164.109	171.968	274.630	289.077	171.261	177.625	178.132	184.842	284.432	184.429	-8191	255	
736.280	1	1	0	0	0.11578	0.057654	0.21224	0.049241	0.037807	0.1759	0.0024682	0.08488	0.35223	0.021807	0.15616	0.20458	0.18532	0.12426	0.10259	0.175	-2.7083	-2.8333	-2.6792	-3.3312	-2.8083	-3.0563	-3.1646	-2.75	-3.0438	-2.9479	-2.6979	-3.2188	-2.8688	-2.85	-3.2562	-2.7562	469.526	337.611	338.707	394.743	213.816	450.412	180.000	184.528	495.723	478.084	332.211	488.940	477.339	374.187	154.090	270.636	0.000873	0.00034285	0.000174	1104.3	4.2335e-06	2.3616e-06	1175.8	229.27	6.7389e-06	3.8473e-06	283.77	79.815	64.039	18.014	3.0086e-06	25.296	0.00021644	0.00018359	4.9735e-05	1097.6	2.1076e-06	1.977e-06	1164.2	227.47	2.0932e-06	2.0287e-06	284.07	79.952	63.515	18.233	1.9985e-06	26.118	417.351	263.512	247.916	164.418	270.141	346.915	164.294	171.849	302.114	285.545	171.280	177.272	177.608	185.326	275.142	184.733	-8191	255	
736.376	1	1	0	0	0.095334	0.15448	0.14769	0.049952	0.090042	0.017266	0.33382	0.16474	0.12578	0.094155	0.14145	0.088012	0.1494	0.15263	0.068789	0.25325	-2.7438	-2.9083	-2.5708	-3.1604	-2.6771	-2.7458	-3.2854	-2.7792	-2.9688	-3.1729	-2.7729	-3.2708	-2.9562	-2.7771	-2.9979	-2.6979	274.196	489.434	195.293	473.505	244.553	220.878	485.941	455.697	385.563	387.373	189.165	311.175	385.393	326.916	228.838	157.271	0.00089342	7.4259e-05	3.7309e-05	1108	5.9515e-06	2.5236e-06	1176.4	229.58	9.8607e-06	2.1266e-06	286.45	80.539	64.017	17.932	4.023e-06	25.552	0.00022197	0.00018117	5.0396e-05	1099.6	2.122e-06	2.0489e-06	1165.8	227.72	2.1153e-06	2.031e-06	285.27	80.152	63.478	18.272	2.0677e-06	26.12	413.457	217.989	325.353	164.552	264.729	328.524	164.271	171.696	295.205	288.506	171.364	176.991	177.381	184.874	305.855	184.110	-8191	255	
736.472	1	1	0	0	0.04734	0.23672	0.24633	0.11231	0.27615	0.19403	0.26469	0.027812	0.15035	0.18272	0.011398	0.27667	0.05531	0.051777	0.024143	0.065386	-2.3812	-3.0083	-2.7625	-3.1458	-2.9437	-2.9	-3.1958	-2.7646	-2.8604	-3.1542	-2.7958	-3.1312	-2.9583	-2.6854	-2.9896	-2.6875	218.207	454.118	316.135	277.436	479.441	449.141	403.195	311.784	431.340	284.921	396.960	444.693	486.467	169.357	158.709	431.374	0.00086571	0.00034935	7.1175e-05	1105.9	6.985e-06	1.7059e-06	1177	229.23	5.919e-06	4.5698e-06	286.39	80.252	64.388	18.007	3.9271e-06	25.562	0.00021944	0.00018449	4.9707e-05	1099.3	2.0932e-06	1.9877e-06	1165.6	227.65	2.0897e-06	2.0732e-06	285.24	80.006	63.52	18.2	2.0609e-06	26.054	420.632	233.514	279.590	164.519	291.593	318.418	164.102	172.047	268.439	286.653	171.249	177.470	177.900	185.276	266.488	184.475	-8191	255	
736.568	1	1	0	0	0.11805	0.15313	0.095184	0.24714	0.096341	0.1587	0.082101	0.10202	0.1094	0.19902	0.11763	0.11435	0.19815	0.24256	0.31378	0.13471	-2.2604	-2.9875	-2.7042	-3.1188	-2.9958	-2.6208	-3.1458	-3.0604	-2.9188	-3.0125	-2.8292	-3.1354	-2.8917	-2.8021	-3.0708	-3.0479	336.994	508.158	463.870	352.416	160.692	280.095	405.073	503.064	490.143	346.736	365.683	496.658	163.516	262.207	408.215	511.452	0.00091709	0.00035412	5.4745e-05	1108.3	2.3447e-06	2.0298e-06	1178.3	228.57	6.2178e-06	2.6026e-06	285.8	80.06	64.697	17.789	4.0613e-06	25.502	0.00021361	0.00018555	5.0052e-05	1098.1	2.0907e-06	2.0287e-06	1165.2	226.86	2.0569e-06	2.0378e-06	285.01	79.991	63.534	18.172	2.0305e-06	26.044	419.106	225.387	219.800	164.341	301.302	314.147	164.038	172.027	311.441	240.341	171.025	177.513	177.229	185.180	289.280	184.380	-8191	255	
736.687	1	1	0	0	0.16467	0.32783	0.067368	0.27107	0.081646	0.055668	0.2913	0.18011	0.18025	0.16812	0.29625	0.14846	0.20542	0.25277	0.19909	0.081195	-2.4417	-3.0146	-2.7021	-2.9375	-2.9146	-2.9167	-3.2333	-2.975	-2.7271	-3.1312	-2.9437	-3.0458	-3.0375	-2.6937	-2.9021	-3.0417	262.657	205.202	229.749	178.137	223.740	260.430	412.877	438.296	449.120	399.627	342.072	433.432	240.387	440.567	422.084	218.549	0.0010729	0.00023874	6.71e-05	1108.7	5.8203e-06	4.4264e-06	1173.4	229.16	9.2229e-06	2.408e-06	285.97	79.762	64.144	17.818	1.6703e-06	25.543	0.0002156	0.00018102	5.0969e-05	1096	2.0769e-06	1.9814e-06	1160.8	227.24	2.1272e-06	1.9453e-06	284.7	79.839	63.36	18.139	2.0648e-06	25.965	420.869	265.834	238.603	164.418	281.707	317.855	163.980	172.024	284.607	242.979	171.242	177.567	177.538	185.025	346.985	184.332	-8191	255	
736.784	1	1	0	0	0.30908	0.19801	0.17891	0.15068	0.14824	0.22637	0.18889	0.23086	0.036238	0.35552	0.083525	0.12668	0.045511	0.20569	0.26468	0.16587	-2.2687	-3.0938	-2.8979	-3.0125	-3.0292	-2.7292	-3.1479	-3.0438	-2.6604	-3.0208	-2.7979	-2.8458	-2.9792	-2.6625	-3.0396	-3.0208	268.206	178.040	308.877	301.758	333.895	220.802	488.624	348.347	257.205	411.233	174.758	438.268	457.829	376.988	440.541	495.831	0.00097676	0.00035308	7.4948e-05	1108.2	2.6552e-06	4.3712e-06	1172.8	229.02	7.1554e-06	3.6077e-06	284.87	79.416	63.97	17.888	3.7067e-06	25.32	0.00021509	0.00018023	5.196e-05	1095.7	1.9946e-06	1.9541e-06	1160.2	227.23	2.084e-06	1.9044e-06	283.76	79.546	63.226	18.127	1.936e-06	25.905	419.084	285.202	231.721	164.556	304.199	299.088	164.166	172.046	275.789	336.641	171.147	177.218	177.415	184.742	254.176	184.263	-8191	255	
736.880	1	1	0	0	0.056048	0.2743	0.1023	0.42648	0.10419	0.24756	0.24084	0.13979	0.15773	0.15559	0.082838	0.12337	0.2012	0.036599	0.41472	0.10008	-2.2854	-2.9292	-2.8667	-2.9208	-3.0521	-2.7417	-3.0312	-3.0604	-2.675	-3.0146	-2.9896	-2.7354	-3.0229	-2.8792	-2.8833	-3.0292	233.000	365.448	324.182	437.392	398.750	256.655	468.537	352.813	354.116	263.384	421.331	270.601	430.833	340.215	349.730	365.735	0.0008754	0.00034597	9.5603e-05	1097.3	3.6954e-06	3.4226e-06	1169	227.4	8.7404e-06	1.7695e-06	283.11	79.746	64.386	17.789	2.3078e-06	25.386	0.00020816	0.0001756	5.0505e-05	1089.3	1.9873e-06	1.9403e-06	1154.8	226.13	1.9934e-06	1.8804e-06	283.05	79.624	63.267	18.042	1.9384e-06	25.851	412.926	264.477	275.003	164.556	267.142	253.974	164.109	171.906	314.468	274.000	171.290	177.481	177.563	184.986	303.522	184.638	-8191	255	
736.976	1	1	0	0	0.28067	0.060107	0.23226	0.088957	0.17751	0.054541	0.16657	0.14045	0.088025	0.2748	0.070142	0.044892	0.27837	0.31083	0.10667	0.21137	-2.1396	-3.0583	-2.7562	-2.9771	-3.075	-2.8104	-3.0625	-3.1542	-2.8438	-2.925	-3.0187	-2.8312	-3.1562	-2.775	-2.8896	-3.1292	382.735	427.748	259.956	245.944	310.677	389.689	406.952	489.960	396.670	429.222	234.926	361.744	261.978	492.914	499.942	459.703	0.00083932	0.00035624	4.6087e-05	1095.1	4.5651e-06	1.8758e-06	1164.4	226.83	8.1593e-06	2.7007e-06	284.84	79.395	63.916	17.804	4.7491e-06	25.454	0.00020519	0.00017416	4.8091e-05	1084.5	1.9382e-06	1.8081e-06	1150.5	225.32	1.8996e-06	1.8322e-06	282.68	79.326	63.07	18.088	1.9101e-06	25.877	415.991	230.149	243.968	164.558	270.770	298.656	164.223	171.812	284.878	336.742	170.895	177.628	177.651	185.150	294.759	184.453	-8191	255	
737.072	1	1	0	0	0.15171	0.10358	0.080135	0.057189	0.12372	0.2032	0.12649	0.35747	0.23415	0.15192	0.31392	0.24168	0.07475	0.057257	0.38691	0.12371	-2.2646	-2.9646	-3.025	-2.8167	-3.1458	-2.9813	-3.0312	-2.9875	-2.6896	-2.8	-3.1083	-2.7833	-3.0854	-2.7917	-2.8063	-3.025	423.092	175.204	278.493	431.532	164.187	160.198	355.461	485.229	331.595	511.363	465.975	496.808	408.717	245.850	494.283	354.215	0.00087972	0.00014061	4.6095e-05	1097.2	6.8322e-06	6.1838e-07	1161.6	228.44	6.0056e-06	2.1407e-06	284.66	79.398	64.267	17.997	3.6341e-06	25.285	0.00020677	0.00017481	4.8895e-05	1087.6	2.009e-06	1.9496e-06	1153.5	225.64	1.9899e-06	1.9741e-06	283.24	79.446	63.284	18.186	2.0636e-06	25.922	418.536	238.650	267.174	164.579	264.656	258.740	164.128	171.839	272.835	292.723	171.219	177.617	177.264	184.761	275.547	184.580	-8191	255	
737.168	1	1	0	0	0.099785	0.31413	0.15829	0.055018	0.27321	0.17532	0.33664	0.1086	0.2568	0.33032	0.13536	0.023255	0.12867	0.049398	0.1261	0.2073	-2.3833	-2.8937	-2.9333	-2.85	-3.0438	-3.0312	-3.0271	-3.1646	-2.7729	-2.8729	-3.0375	-2.7188	-3.0792	-2.9729	-3.0896	-3.1146	307.824	287.918	293.207	424.937	219.904	166.274	480.935	161.870	314.060	479.726	460.407	471.527	224.918	469.876	509.347	446.222	0.00092499	0.00035638	0.00012748	1100.8	5.5919e-06	2.6177e-06	1167.8	228.35	4.4041e-06	1.1488e-06	282.76	79.897	64.292	17.902	4.8959e-06	25.533	0.0002143	0.0001861	4.9908e-05	1092	2.0827e-06	1.9702e-06	1158.3	226.03	2.0521e-06	1.9439e-06	283.28	79.827	63.294	18.155	1.9325e-06	25.948	413.577	267.483	256.651	164.526	268.376	295.123	164.263	171.914	268.057	307.253	171.326	177.713	177.440	184.978	312.098	184.218	-8191	255	
737.264	1	1	0	0	0.38982	0.054422	0.19956	0.14434	0.327	0.19877	0.070206	0.14955	0.13331	0.28102	0.013801	0.096726	0.13533	0.1638	0.23034	0.18597	-2.2792	-2.7896	-2.9229	-2.9188	-3.0542	-2.8646	-2.9396	-3.2396	-2.825	-3.0396	-2.9896	-2.6937	-2.8958	-2.825	-2.5729	-3.0208	458.410	189.606	265.542	185.016	300.814	432.595	171.356	200.193	509.846	239.781	383.367	200.958	394.783	465.234	329.802	221.614	0.00086278	0.00018415	9.4568e-05	1105.3	4.8546e-06	3.6942e-06	1166.9	228.08	4.8368e-06	3.9396e-06	284.33	79.527	64.344	17.899	3.0859e-06	25.457	0.00021156	0.00017641	4.9229e-05	1093	2.0048e-06	1.8875e-06	1156.9	225.8	2.0029e-06	1.9582e-06	283.54	79.64	63.296	18.197	1.9422e-06	25.951	414.064	261.777	280.423	164.308	296.848	305.412	164.226	171.947	288.652	317.780	171.182	177.557	177.510	185.266	293.398	184.502	-8191	255	
737.385	1	1	0	0	0.2241	0.059264	0.15763	0.28539	0.23501	0.17654	0.2055	0.1216	0.19548	0.052179	0.087985	0.19058	0.26876	0.2524	0.18476	0.13372	-2.5479	-2.7771	-3.1271	-2.7146	-2.9146	-2.9208	-2.7417	-3.0104	-2.8479	-2.525	-3.15	-2.75	-2.9604	-3.0354	-2.7583	-2.9604	474.960	432.495	202.890	181.644	253.232	418.123	481.737	486.691	168.804	418.040	277.275	347.368	168.173	178.059	331.276	264.995	0.00097151	0.00026614	0.00012942	1100.8	3.9148e-06	3.8199e-06	1172.7	227.82	5.0705e-06	1.9816e-06	285.32	79.845	63.97	18.034	2.0059e-06	25.567	0.00020954	0.00017663	4.9792e-05	1090.4	2.0043e-06	1.9103e-06	1158.5	226.26	1.9793e-06	1.9456e-06	283.35	79.825	63.104	18.229	1.9826e-06	25.96	421.024	220.205	290.211	164.548	295.958	282.620	164.259	171.929	296.443	258.064	171.049	177.747	177.448	184.819	298.272	184.397	-8191	255	
737.479	1	1	0	0	0.27415	0.10671	0.25938	0.10526	0.042327	0.17017	0.066777	0.16256	0.15459	0.3134	0.34824	0.22903	0.28864	0.11423	0.034057	0.25033	-2.4042	-2.8917	-3.0625	-2.8708	-2.6917	-3.0646	-2.9625	-3.125	-2.9083	-2.8292	-2.9979	-2.8646	-2.7667	-3.0958	-2.6917	-2.975	388.695	336.641	467.362	441.215	366.233	343.853	415.900	295.127	331.799	243.642	462.453	481.217	447.237	497.407	512.338	365.975	0.00088745	0.00021033	7.9174e-05	1104.2	5.0242e-06	2.7812e-06	1171.8	226.29	6.4334e-06	3.8838e-06	283.8	79.469	63.851	17.867	4.2259e-06	25.291	0.00021135	0.00017617	4.976e-05	1090.7	1.9799e-06	1.8925e-06	1156.6	225.54	1.941e-06	1.9072e-06	283.54	79.528	63.255	18.128	1.9459e-06	25.848	416.732	213.711	249.758	164.462	272.520	291.575	164.362	171.924	296.540	292.040	171.507	177.260	177.300	185.192	298.870	184.293	-8191	255	
737.553	1	1	0	0	0.16016	0.07167	0.112	0.028661	0.070922	0.061992	0.14438	0.24844	0.1522	0.15219	0.11382	0.37359	0.14563	0.061039	0.2156	0.27501	-2.4396	-2.5854	-3.0104	-2.8	-2.9542	-3.0875	-3	-3.05	-2.8729	-2.6562	-3.1063	-2.9708	-2.6937	-3.0854	-2.7875	-3.0083	227.997	180.728	245.088	285.889	344.728	185.342	418.623	446.991	245.008	375.356	423.253	388.877	200.656	326.995	289.322	263.713	0.00097783	0.00023538	3.824e-05	1100.5	3.4417e-06	3.0755e-06	1166	228.37	7.2023e-06	8.7397e-07	284.75	79.301	64.253	17.909	3.6995e-06	25.426	0.00020749	0.00017689	4.8006e-05	1091	1.9513e-06	1.8845e-06	1154.8	225.74	1.9754e-06	1.8637e-06	283.18	79.422	63.034	18.135	1.8613e-06	25.89	420.334	252.509	263.329	164.325	253.707	259.991	163.989	171.765	282.924	274.624	171.512	177.665	177.411	184.929	284.844	184.218	-8191	255	
737.649	1	1	0	0	0.12569	0.16551	0.1794	0.31411	0.068169	0.12473	0.11956	0.25732	0.093444	0.12011	0.1211	0.101	0.082351	0.06724	0.15023	0.2679	-2.5187	-2.7375	-3.0104	-2.8771	-2.7479	-2.9688	-2.9375	-2.9958	-3.0417	-2.6854	-2.9875	-2.95	-2.7792	-2.9708	-2.7646	-3.0625	438.407	254.850	402.971	447.543	478.714	417.381	480.944	466.517	443.883	219.993	285.479	463.687	210.875	293.982	184.256	427.981	0.0008717	0.00034874	8.2211e-05	1101.7	6.702e-06	3.3974e-06	1163.3	226.78	6.8074e-06	2.0244e-06	285.1	79.644	64.253	17.884	3.7304e-06	25.372	0.00019697	0.00017127	4.6087e-05	1088.6	1.9075e-06	1.8021e-06	1151.7	225.4	1.8959e-06	1.8448e-06	283.06	79.558	63.028	18.194	1.8938e-06	25.907	419.202	239.021	244.359	164.543	287.830	319.602	164.215	171.873	286.013	352.177	171.286	177.587	177.526	185.032	267.278	184.768	-8191	255	
737.768	1	1	0	0	0.24596	0.057884	0.1856	0.066608	0.14396	0.11584	0.097262	0.15534	0.035591	0.22069	0.16753	0.29999	0.13116	0.091147	0.14851	0.099276	-2.4729	-2.6271	-2.9104	-3.1	-2.6042	-3.0271	-2.8833	-2.8312	-2.8979	-2.9771	-3.1	-3.0354	-2.7021	-3.2354	-2.8833	-2.8396	309.357	373.392	298.562	436.537	391.965	352.349	350.962	223.036	345.097	180.563	508.453	252.254	376.974	383.773	251.874	158.525	0.00088586	0.00024621	9.5988e-05	1091.8	6.1303e-06	2.7698e-06	1160.9	226.34	5.1876e-06	1.405e-06	283.01	79.537	64.23	17.947	3.8176e-06	25.268	0.0002033	0.00017041	4.6576e-05	1083.5	1.8946e-06	1.8282e-06	1149	225.25	1.8642e-06	1.7904e-06	282.51	79.37	62.929	18.216	1.8959e-06	25.842	414.178	261.492	282.758	164.428	298.417	294.875	164.363	171.969	261.604	251.380	171.379	177.591	177.312	184.794	296.311	184.464	-8191	255	
737.864	1	1	0	0	0.33618	0.037017	0.089411	0.21621	0.22054	0.15524	0.13952	0.24743	0.17322	0.22051	0.12466	0.10561	0.06841	0.31088	0.047639	0.32548	-2.5833	-2.7875	-2.7562	-3.1542	-2.6479	-3.0292	-2.8646	-2.7313	-2.9729	-2.7854	-3.025	-3.1	-2.7604	-2.9313	-2.9396	-2.9	434.208	448.882	457.781	417.151	189.777	199.991	440.394	502.484	431.960	220.241	487.274	173.839	271.325	233.522	197.989	393.832	0.00090635	0.00011136	5.3458e-05	1100.6	3.4001e-06	2.3057e-06	1156.4	226.59	8.2432e-06	3.2439e-06	284.44	79.326	63.541	17.796	5.3393e-06	25.277	0.00020093	0.00016853	4.828e-05	1085.1	1.9899e-06	1.8268e-06	1148.9	225.01	1.8497e-06	1.7985e-06	282.81	79.515	62.753	18.101	1.8691e-06	25.858	420.062	226.640	290.392	164.519	225.611	309.725	164.055	171.825	282.716	309.838	170.939	177.512	177.929	185.208	294.130	184.505	-8191	255	
737.960	1	1	0	0	0.26172	0.047371	0.17954	0.21128	0.25773	0.30297	0.23581	0.17081	0.050033	0.12389	0.16592	0.15914	0.13297	0.20609	0.13059	0.24171	-2.5667	-2.6437	-2.9354	-3.0792	-2.6646	-2.9917	-2.9604	-2.7896	-3.1	-2.7667	-2.9833	-3.0438	-2.5979	-2.9021	-2.9833	-2.5917	465.650	186.623	319.881	404.862	489.676	227.095	455.703	163.790	484.826	323.771	513.721	331.463	301.192	502.302	442.929	401.397	0.00086745	0.00030038	8.6935e-05	1095.7	2.3818e-06	1.655e-06	1158.4	226.38	7.6458e-06	1.3706e-06	284.9	79.918	64.189	17.85	3.8613e-06	25.456	0.00020148	0.00016555	4.4292e-05	1082.7	1.8735e-06	1.7789e-06	1147.2	224.82	1.8385e-06	1.8342e-06	283.38	79.492	62.947	18.158	1.85e-06	25.908	414.623	231.115	245.698	164.475	260.022	334.195	164.179	171.904	290.977	289.980	171.354	177.651	177.333	185.493	275.595	184.329	-8191	255	
738.056	1	1	0	0	0.070598	0.1275	0.091964	0.13358	0.10762	0.083747	0.23513	0.22889	0.33822	0.26312	0.12698	0.032836	0.091796	0.17709	0.027232	0.065468	-2.6333	-2.7458	-2.6188	-3.0396	-2.6375	-2.9708	-3.1104	-2.9688	-2.925	-2.775	-2.8937	-3	-2.6292	-2.8625	-2.9375	-2.7521	357.488	467.580	204.862	450.573	163.530	335.526	453.660	428.480	343.575	423.646	155.081	319.644	228.718	361.326	338.279	177.450	0.00098113	0.0002948	0.00011606	1095.4	6.7821e-06	1.1877e-06	1156.4	226.69	8.6472e-06	3.3509e-06	284.29	79.345	63.894	17.974	5.0733e-06	25.45	0.00020004	0.00016063	4.5174e-05	1081.7	1.851e-06	1.7703e-06	1146.2	224.81	1.8639e-06	1.7392e-06	282.61	79.281	62.844	18.167	1.7708e-06	25.877	422.221	292.070	274.360	164.519	302.820	323.291	164.395	171.968	288.340	305.686	171.183	177.738	176.994	185.017	312.735	184.413	-8191	255	
738.177	1	1	0	0	0.090782	0.058464	0.16904	0.036179	0.20397	0.27336	0.24826	0.093669	0.20751	0.1669	0.044426	0.072547	0.18705	0.10217	0.28195	0.14859	-2.6813	-2.8625	-2.6917	-3.0875	-2.7792	-2.95	-2.9562	-2.5875	-3.0146	-2.8458	-2.7875	-3.1375	-2.6937	-2.7396	-3.0083	-2.7729	242.225	278.679	177.703	196.614	167.039	310.846	462.406	442.244	392.522	436.848	443.857	173.718	389.334	220.488	177.586	483.906	0.00092806	0.00033025	9.9534e-05	1094.8	5.1448e-06	3.2842e-06	1161.2	226.2	6.7368e-06	3.0541e-06	285.12	79.645	64.141	17.98	2.7739e-06	25.482	0.00019353	0.0001597	4.5089e-05	1080.7	1.8592e-06	1.694e-06	1147.5	224.89	1.7997e-06	1.7846e-06	282.62	79.579	63.145	18.221	1.8019e-06	25.94	417.623	243.538	287.142	164.374	282.542	298.665	164.334	171.993	302.109	302.268	171.254	177.466	177.466	185.160	299.147	184.520	-8191	255	
738.248	1	1	0	0	0.2115	0.23823	0.11534	0.40773	0.11996	0.070503	0.10961	0.059034	0.27441	0.11402	0.25951	0.086087	0.26845	0.21712	0.16389	0.07031	-2.6083	-2.8521	-2.7438	-3.075	-2.7833	-3.0312	-3.0438	-2.6833	-2.8604	-2.8937	-2.7604	-3.0812	-2.6875	-2.8625	-3.0708	-2.7771	218.009	320.200	435.519	442.379	299.694	387.562	480.381	455.628	386.556	361.313	443.221	263.926	273.051	453.403	455.055	437.730	0.00086582	0.00017733	0.00011937	1088.5	6.0047e-06	4.4716e-06	1160.9	225.22	6.2268e-06	2.7461e-06	284.17	79.473	64.574	17.98	5.6347e-06	25.407	0.00019945	0.00015804	4.4717e-05	1079.9	1.8289e-06	1.8121e-06	1148.2	224.41	1.8434e-06	1.6759e-06	283.05	79.53	63.155	18.228	1.7329e-06	25.963	420.508	203.046	254.990	164.289	280.165	300.397	164.339	171.853	281.434	348.797	171.216	177.424	177.694	184.937	257.159	184.283	-8191	255	
738.369	1	1	0	0	0.08372	0.17591	0.24318	0.35363	0.2173	0.23852	0.11311	0.33796	0.29434	0.31981	0.23109	0.26919	0.12103	0.14883	0.193	0.1965	-2.4292	-2.8521	-2.4729	-3	-2.9479	-2.8854	-3.1396	-2.775	-2.7854	-2.8979	-2.7917	-3.1271	-2.8563	-2.7188	-3.2104	-2.7979	469.478	459.618	268.707	225.074	156.994	232.284	450.870	512.411	444.940	351.125	362.310	503.304	200.323	420.489	422.583	273.546	0.00085243	0.00024248	8.578e-05	1090.4	5.2853e-06	4.5878e-06	1159.1	227.44	8.2488e-06	2.2597e-06	284.1	79.326	64.448	18.086	4.4054e-06	25.548	0.00019551	0.00015544	4.3079e-05	1080	1.7729e-06	1.6803e-06	1147.4	225.27	1.7295e-06	1.6347e-06	282.86	79.573	63.175	18.322	1.6517e-06	26.019	417.233	245.835	291.130	164.624	257.307	297.275	164.225	171.920	282.089	290.369	171.284	177.268	177.555	184.904	301.448	184.347	-8191	255	
738.465	1	1	0	0	0.22345	0.15133	0.10051	0.11538	0.20671	0.10938	0.44403	0.076218	0.10175	0.25462	0.19717	0.11561	0.30043	0.19215	0.29076	0.1344	-2.5333	-2.7896	-2.625	-3.2521	-2.6354	-2.7833	-3.2708	-2.8396	-2.8208	-3.0229	-2.6979	-2.9792	-2.8604	-2.6312	-3.0854	-2.8563	445.961	232.685	389.126	484.508	183.881	388.794	429.161	410.177	168.154	161.892	441.648	192.094	165.388	369.774	407.933	270.151	0.00099286	0.00041268	0.00010392	1094	5.8847e-06	4.4894e-06	1156	225.89	7.962e-06	4.4866e-06	282.92	79.912	64.257	17.957	3.6225e-06	25.539	0.00019152	0.00015514	4.335e-05	1079.9	1.7346e-06	1.6589e-06	1145.3	224.95	1.7534e-06	1.6451e-06	282.58	79.761	63.153	18.299	1.6519e-06	26.142	416.467	246.990	241.112	164.427	296.576	301.232	164.303	171.832	291.776	296.761	171.229	177.378	177.639	185.504	307.235	184.304	-8191	255	
738.561	1	1	0	0	0.13236	0.025365	0.15188	0.14507	0.16478	0.14006	0.17678	0.14568	0.13883	0.085981	0.14623	0.18834	0.16107	0.071083	0.25614	0.071781	-2.3792	-2.9583	-2.6604	-3.0354	-2.7646	-2.5	-3.1583	-2.6437	-2.8104	-3.0333	-2.8063	-2.825	-2.9146	-2.65	-3.1917	-3.0333	211.708	285.754	361.391	428.988	384.519	370.858	467.806	427.508	461.044	494.698	188.845	431.643	443.681	479.471	393.909	495.313	0.00082362	0.00012288	5.8801e-05	1086.3	3.241e-06	3.0827e-06	1153.4	226.24	5.6419e-06	4.4073e-06	283.25	79.767	63.931	18.075	2.6083e-06	25.522	0.00019078	0.000147	4.251e-05	1077.8	1.7447e-06	1.6547e-06	1144.2	224.64	1.7639e-06	1.6493e-06	282.72	79.663	63.023	18.304	1.5954e-06	26.144	413.353	218.802	221.508	164.572	277.497	317.308	164.225	171.865	283.182	281.491	171.030	177.417	177.937	185.221	287.963	184.354	-8191	255	
738.658	1	1	0	0	0.05546	0.072311	0.23658	0.20047	0.084611	0.14136	0.42018	0.047993	0.13674	0.11068	0.1743	0.20419	0.31307	0.15534	0.036182	0.10597	-2.1937	-3.0812	-2.5667	-2.9479	-3.0521	-2.7125	-3.175	-3.0771	-2.6792	-3.0479	-2.7167	-3.0583	-2.7896	-2.7062	-2.9604	-3.0125	175.135	455.756	254.586	479.687	326.904	271.886	428.699	408.160	459.954	323.073	450.669	251.205	350.721	437.207	356.611	384.000	0.00088558	0.00031806	8.1764e-05	1084.9	5.5339e-06	3.4213e-06	1149.4	226.11	7.7529e-06	5.1077e-06	283.92	79.97	63.874	18.033	4.5822e-06	25.71	0.0001837	0.00015091	4.2116e-05	1075	1.7055e-06	1.6427e-06	1140.9	224.45	1.692e-06	1.5378e-06	282.91	79.759	63.102	18.304	1.6428e-06	26.14	416.748	289.441	276.202	164.641	280.507	313.066	164.000	172.097	288.475	321.124	171.034	177.719	177.235	185.338	270.908	184.511	-8191	255	
738.776	1	1	0	0	0.22121	0.14443	0.13311	0.16795	0.22229	0.12597	0.31221	0.16963	0.11559	0.06835	0.26985	0.038107	0.13182	0.12545	0.036735	0.26144	-2.1292	-3.0479	-3.0125	-3.0854	-3.0167	-2.9208	-2.9792	-2.9938	-2.85	-3.2562	-2.7875	-3.0292	-2.9708	-2.7792	-2.8729	-2.9958	399.075	446.358	232.813	166.258	398.690	198.133	420.509	411.174	437.812	218.275	154.162	217.386	443.552	303.416	239.032	505.251	0.00095094	0.00024231	9.1248e-05	1088.4	4.4909e-06	3.2438e-06	1147	225.6	4.7241e-06	1.7377e-06	282.98	79.744	64.177	18.02	3.9392e-06	25.618	0.00018938	0.0001462	4.1164e-05	1073.7	1.6424e-06	1.6625e-06	1138.9	223.97	1.7073e-06	1.5185e-06	282.57	79.559	63.07	18.293	1.5827e-06	26.134	413.440	257.886	280.377	164.440	268.635	312.969	164.251	171.947	290.967	244.157	171.066	177.568	177.469	185.219	278.823	184.302	-8191	255	
738.848	1	1	0	0	0.29232	0.13293	0.16724	0.17743	0.24865	0.095857	0.15863	0.24968	0.10945	0.080174	0.22707	0.15625	0.225	0.24886	0.18881	0.029333	-2.2125	-2.9771	-2.8271	-3.0312	-2.9062	-2.775	-3.1375	-3.1104	-2.7271	-2.85	-2.9354	-2.9125	-3.0729	-2.9458	-3.0125	-2.9104	467.477	351.096	283.318	496.248	358.312	425.675	343.931	176.629	401.747	488.129	326.369	166.786	465.522	482.889	412.798	214.932	0.00090615	8.4193e-05	8.2575e-05	1075	5.8878e-06	1.085e-06	1142.5	223	6.7174e-06	3.9948e-06	280.74	78.935	63.681	17.827	3.7067e-06	25.393	0.00018106	0.00014384	3.909e-05	1068.7	1.6544e-06	1.5614e-06	1136.1	223.44	1.6297e-06	1.5364e-06	281.64	79.365	62.907	18.23	1.5337e-06	26.12	422.839	184.285	275.371	164.491	258.702	293.311	164.262	171.836	289.833	311.415	171.368	177.261	177.163	185.240	263.091	184.106	-8191	255	
738.944	1	1	0	0	0.066409	0.082744	0.062878	0.12402	0.090713	0.26384	0.17895	0.35773	0.3039	0.073756	0.06371	0.093491	0.018775	0.18881	0.27015	0.29452	-2.2479	-3.125	-2.65	-2.975	-3.1063	-2.7375	-3.1146	-3.1479	-2.7229	-2.9896	-3.0458	-2.8625	-2.925	-2.7875	-2.7771	-3.1	159.270	478.079	217.558	436.666	291.062	296.122	504.503	448.326	475.777	453.462	215.168	385.206	256.889	183.034	296.719	217.267	0.00090212	0.00025479	7.1067e-05	1063.2	3.0636e-06	1.5872e-06	1133.6	224.53	6.4188e-06	2.2176e-06	281.29	78.911	63.024	17.648	3.4883e-06	25.014	0.0001846	0.00014086	3.8454e-05	1064.4	1.6611e-06	1.5231e-06	1133.1	223.72	1.6446e-06	1.5394e-06	282.55	79.445	62.789	18.214	1.6181e-06	25.988	416.853	208.438	268.463	164.314	289.629	350.036	164.088	172.133	292.579	310.747	171.311	177.453	177.333	184.736	284.833	184.498	-8191	255	
#DATA ENDS
