BOXY.EXE: ISS Imagent and Oximeter Data Acquisition Program Version 0.80
Ascii Record File

#ACQ INFORMATION
2  Detector Channels 
16  External MUX Channels 
1  Auxiliary Channels 
5000  Waveform (CCF) Frequency (Hz)
1  Waveforms Skipped 
30  Waveforms Averaged 
1  Cycles Averaged 
16  Acquisitions per Waveform 
10.0806  Updata Rate (Hz) 

#FILE INFORMATION
TRUE -- External MUX Channel results are PARSED.
FALSE -- AC DC and Phase are NOT grouped.
TRUE -- Companion Program Settings File CREATED.
FALSE -- AC data not excluded
FALSE -- DC data not excluded
FALSE -- Phase data not excluded
FALSE -- Auxillary Chn. data not excluded
Tab delimiters

#CALIBRATION STATE
TRUE -- Waveform Calibration Values APPLIED.


#AUX CALIBRATION VALUES
Val Type	aux-1	

Term	1.0000e+00	
Factor	0.0000e+00	


#WF CALIBRATION VALUES
A = Detector Channel
Val Type	A-AC1	A-AC2	A-AC3	A-AC4	A-AC5	A-AC6	A-AC7	A-AC8	A-AC9	A-AC10	A-AC11	A-AC12	A-AC13	A-AC14	A-AC15	A-AC16	A-DC1	A-DC2	A-DC3	A-DC4	A-DC5	A-DC6	A-DC7	A-DC8	A-DC9	A-DC10	A-DC11	A-DC12	A-DC13	A-DC14	A-DC15	A-DC16	A-Ph1	A-Ph2	A-Ph3	A-Ph4	A-Ph5	A-Ph6	A-Ph7	A-Ph8	A-Ph9	A-Ph10	A-Ph11	A-Ph12	A-Ph13	A-Ph14	A-Ph15	A-Ph16	

Term	0.00000e+00	0.00000e+00	0.00000e+00	0.00000e+00	0.00000e+00	0.00000e+00	0.00000e+00	0.00000e+00	0.00000e+00	0.00000e+00	0.00000e+00	0.00000e+00	0.00000e+00	0.00000e+00	0.00000e+00	0.00000e+00	0.00000e+00	0.00000e+00	0.00000e+00	0.00000e+00	0.00000e+00	0.00000e+00	0.00000e+00	0.00000e+00	0.00000e+00	0.00000e+00	0.00000e+00	0.00000e+00	0.00000e+00	0.00000e+00	0.00000e+00	0.00000e+00	0.00000e+00	0.00000e+00	0.00000e+00	0.00000e+00	0.00000e+00	0.00000e+00	0.00000e+00	0.00000e+00	0.00000e+00	0.00000e+00	0.00000e+00	0.00000e+00	0.00000e+00	0.00000e+00	0.00000e+00	0.00000e+00	
Factor	1.00000e+00	1.00000e+00	1.00000e+00	1.00000e+00	1.00000e+00	1.00000e+00	1.00000e+00	1.00000e+00	1.00000e+00	1.00000e+00	1.00000e+00	1.00000e+00	1.00000e+00	1.00000e+00	1.00000e+00	1.00000e+00	1.00000e+00	1.00000e+00	1.00000e+00	1.00000e+00	1.00000e+00	1.00000e+00	1.00000e+00	1.00000e+00	1.00000e+00	1.00000e+00	1.00000e+00	1.00000e+00	1.00000e+00	1.00000e+00	1.00000e+00	1.00000e+00	X	X	X	X	X	X	X	X	X	X	X	X	X	X	X	X	

B = Detector Channel
Val Type	B-AC1	B-AC2	B-AC3	B-AC4	B-AC5	B-AC6	B-AC7	B-AC8	B-AC9	B-AC10	B-AC11	B-AC12	B-AC13	B-AC14	B-AC15	B-AC16	B-DC1	B-DC2	B-DC3	B-DC4	B-DC5	B-DC6	B-DC7	B-DC8	B-DC9	B-DC10	B-DC11	B-DC12	B-DC13	B-DC14	B-DC15	B-DC16	B-Ph1	B-Ph2	B-Ph3	B-Ph4	B-Ph5	B-Ph6	B-Ph7	B-Ph8	B-Ph9	B-Ph10	B-Ph11	B-Ph12	B-Ph13	B-Ph14	B-Ph15	B-Ph16	

Term	0.00000e+00	0.00000e+00	0.00000e+00	0.00000e+00	0.00000e+00	0.00000e+00	0.00000e+00	0.00000e+00	0.00000e+00	0.00000e+00	0.00000e+00	0.00000e+00	0.00000e+00	0.00000e+00	0.00000e+00	0.00000e+00	0.00000e+00	0.00000e+00	0.00000e+00	0.00000e+00	0.00000e+00	0.00000e+00	0.00000e+00	0.00000e+00	0.00000e+00	0.00000e+00	0.00000e+00	0.00000e+00	0.00000e+00	0.00000e+00	0.00000e+00	0.00000e+00	-2.38903e+02	-1.30801e+02	-1.63948e+02	-1.83590e+02	-1.19141e+02	-8.70241e+01	-1.56897e+02	-1.62015e+02	-7.30551e+01	-8.26205e+01	-1.70590e+02	-1.70867e+02	-1.80044e+02	-1.77413e+02	-7.81630e+01	-1.50406e+02	
Factor	6.10723e-05	1.20878e-04	3.70736e-05	1.67276e-01	1.13400e-06	1.16405e-06	1.90682e-01	6.00034e-02	1.25406e-06	1.06024e-06	9.97472e-02	3.83765e-02	2.97706e-02	1.08004e-02	1.14664e-06	1.57894e-02	4.97580e-07	5.02158e-07	1.39475e-07	8.01861e-02	5.49628e-09	5.49947e-09	8.54324e-02	2.82743e-02	5.50406e-09	5.50380e-09	4.40950e-02	1.66559e-02	1.35827e-02	4.90122e-03	5.51462e-09	6.83088e-03	X	X	X	X	X	X	X	X	X	X	X	X	X	X	X	X	



#DISTANCE SETTINGS
A = Detector Channel
A-1	A-2	A-3	A-4	A-5	A-6	A-7	A-8	A-9	A-10	A-11	A-12	A-13	A-14	A-15	A-16	

2.5000e+00	3.0000e+00	2.5000e+00	3.0000e+00	2.0000e+00	3.0000e+00	1.5000e+00	3.0000e+00	3.0000e+00	3.0000e+00	3.0000e+00	3.0000e+00	3.0000e+00	3.0000e+00	1.5000e+00	3.0000e+00	

B = Detector Channel
B-1	B-2	B-3	B-4	B-5	B-6	B-7	B-8	B-9	B-10	B-11	B-12	B-13	B-14	B-15	B-16	

1.0000e+01	1.0000e+01	1.0000e+01	1.4400e+00	1.0000e+01	1.0000e+01	1.5100e+00	1.9400e+00	1.0000e+01	1.0000e+01	1.9900e+00	2.4900e+00	2.4100e+00	2.9000e+00	1.0000e+01	2.9800e+00	




#DATA BEGINS
time	group	step	mark	flag	A-AC1	A-AC2	A-AC3	A-AC4	A-AC5	A-AC6	A-AC7	A-AC8	A-AC9	A-AC10	A-AC11	A-AC12	A-AC13	A-AC14	A-AC15	A-AC16	A-DC1	A-DC2	A-DC3	A-DC4	A-DC5	A-DC6	A-DC7	A-DC8	A-DC9	A-DC10	A-DC11	A-DC12	A-DC13	A-DC14	A-DC15	A-DC16	A-Ph1	A-Ph2	A-Ph3	A-Ph4	A-Ph5	A-Ph6	A-Ph7	A-Ph8	A-Ph9	A-Ph10	A-Ph11	A-Ph12	A-Ph13	A-Ph14	A-Ph15	A-Ph16	B-AC1	B-AC2	B-AC3	B-AC4	B-AC5	B-AC6	B-AC7	B-AC8	B-AC9	B-AC10	B-AC11	B-AC12	B-AC13	B-AC14	B-AC15	B-AC16	B-DC1	B-DC2	B-DC3	B-DC4	B-DC5	B-DC6	B-DC7	B-DC8	B-DC9	B-DC10	B-DC11	B-DC12	B-DC13	B-DC14	B-DC15	B-DC16	B-Ph1	B-Ph2	B-Ph3	B-Ph4	B-Ph5	B-Ph6	B-Ph7	B-Ph8	B-Ph9	B-Ph10	B-Ph11	B-Ph12	B-Ph13	B-Ph14	B-Ph15	B-Ph16	aux-1	digaux	

4196.320	1	1	0	768	0.046574	0.069864	0.20023	0.18673	0.098615	0.26182	0.1059	0.29555	0.12285	0.026843	0.19824	0.25383	0.037862	0.065813	0.099066	0.27885	-3.5979	-4.3292	-4.4583	-3.7417	-4.6875	-4.1104	-4.1062	-4.6438	-3.8208	-4.2688	-4.5167	-3.7562	-4.7604	-4.3042	-3.8625	-4.8	-144.149	-146.403	-49.331	110.681	152.664	-2.477	-69.452	153.104	110.315	142.274	12.923	181.426	-23.933	41.369	-62.970	-149.460	0.0020066	0.00037662	0.00017994	826.39	3.2158e-06	5.3505e-06	1000	273.81	2.9476e-06	6.8097e-06	414.43	164.92	100.37	44.222	1.6561e-06	83.846	0.00020413	0.00019393	5.444e-05	788.79	2.1518e-06	2.1655e-06	951.49	258.8	2.1933e-06	2.1662e-06	380.63	148.96	92.32	40.508	2.1842e-06	74.754	94.140	-87.912	-112.673	-162.984	-9.719	-38.192	-163.468	-158.085	-159.260	-16.288	-158.885	-154.652	-153.741	-149.485	-41.574	-151.015	-8191	255	
4196.416	1	1	0	0	0.40347	0.11846	0.09011	0.059194	0.19264	0.081148	0.19374	0.055769	0.23401	0.1634	0.15602	0.090831	0.33764	0.13412	0.026385	0.10133	-3.5917	-4.2188	-4.5188	-3.8375	-4.6479	-4.3021	-4.0854	-4.7667	-4.0062	-4.0833	-4.5729	-3.8563	-4.5188	-4.3792	-3.9354	-4.7958	181.477	162.071	41.440	57.165	89.451	142.453	-79.215	-143.337	-89.987	-97.154	-129.603	-168.598	173.541	150.335	72.530	163.245	0.0024762	0.00039119	0.0001732	821.05	6.4869e-06	4.1872e-06	1003.5	272.82	8.7178e-06	3.9602e-06	413.2	165.65	99.644	44.456	2.5354e-06	83.803	0.0002103	0.00020036	5.478e-05	785.48	2.1876e-06	2.1755e-06	952.04	258.04	2.1786e-06	2.1724e-06	379.89	149.19	92.197	40.595	2.1507e-06	74.64	86.423	182.097	-76.775	-163.124	-86.503	-25.245	-163.342	-158.082	-74.259	-53.041	-158.801	-154.782	-154.000	-149.076	-24.100	-150.713	-8191	255	
4196.512	1	1	0	0	0.16726	0.047391	0.25898	0.22853	0.27054	0.19009	0.12354	0.2422	0.13265	0.023512	0.0783	0.097652	0.074521	0.24938	0.1063	0.16231	-3.4104	-4.1458	-4.5979	-3.8146	-4.425	-4.4083	-3.8917	-4.7562	-4.1562	-4.0771	-4.6896	-3.8563	-4.3125	-4.4896	-3.9083	-4.6271	-175.966	-157.403	-20.947	-128.370	82.035	122.131	-97.586	70.619	94.081	124.736	18.070	-172.283	26.329	135.446	-114.932	47.044	0.0021885	0.00048776	7.6981e-05	819.04	1.0031e-05	2.3578e-06	996.85	273.22	1.0416e-05	3.9556e-06	413.87	164.22	99.817	44.011	5.5098e-06	83.27	0.00020601	0.00019698	5.4297e-05	785.92	2.1688e-06	2.1337e-06	947.78	258.38	2.1416e-06	2.1165e-06	380.31	148.28	92.221	40.274	2.0696e-06	74.302	85.487	-93.355	-125.951	-162.966	-103.605	-78.472	-163.400	-158.243	-68.020	-123.559	-159.248	-154.837	-153.741	-149.279	-69.801	-151.174	-8191	255	
4196.608	1	1	0	0	0.2523	0.29285	0.1814	0.4413	0.10455	0.18749	0.1603	0.029546	0.17559	0.23029	0.11479	0.034374	0.25363	0.09876	0.17547	0.11895	-3.8021	-3.9021	-4.5563	-3.8625	-4.2979	-4.5188	-3.9229	-4.65	-4.1438	-3.8604	-4.8333	-4.0042	-4.2458	-4.6292	-3.9813	-4.5583	63.847	-153.168	154.154	149.576	4.364	8.345	-124.633	-157.779	48.047	89.964	145.072	-5.176	117.803	99.138	-78.060	100.179	0.0020853	0.00086948	0.00024353	822.81	4.6703e-06	4.0792e-06	998.94	278.04	2.6663e-06	4.2027e-06	417.37	164.87	99.764	44.077	5.5134e-06	83.293	0.00020057	0.00019027	5.2157e-05	788.78	2.0567e-06	2.0184e-06	951.34	260.7	2.0399e-06	2.0262e-06	382.32	148.87	92.161	40.38	2.0587e-06	74.341	86.503	-62.692	-73.307	-162.900	-104.530	7.166	-163.255	-158.358	-45.168	-76.856	-159.117	-154.772	-153.963	-149.401	23.821	-151.168	-8191	255	
4196.704	1	1	0	0	0.20679	0.16889	0.1219	0.13044	0.23481	0.21946	0.064679	0.25952	0.29054	0.061098	0.30211	0.21557	0.31957	0.047885	0.2892	0.24483	-3.7875	-3.7667	-4.6521	-4.1854	-4.2146	-4.6625	-3.8729	-4.5437	-4.4062	-3.6792	-4.5604	-4.1458	-4.0375	-4.5896	-3.5687	-4.4604	141.785	-143.570	-167.484	118.521	-63.201	115.509	4.997	150.033	-97.477	167.935	138.428	107.745	150.505	102.111	40.053	87.994	0.0021159	0.00077145	4.6247e-05	823.79	3.729e-06	2.4655e-06	1004.8	277.7	1.8549e-06	5.7695e-06	417.5	165.64	100.65	44.152	1.0691e-05	83.325	0.00019794	0.00018692	5.2353e-05	790.21	2.0832e-06	2.0739e-06	954.29	260.98	2.0845e-06	2.1055e-06	382.92	148.85	92.323	40.406	2.1323e-06	74.463	85.544	-89.401	-168.575	-163.041	-96.534	-135.307	-163.171	-158.238	-62.249	-79.318	-159.089	-154.829	-153.853	-149.877	-26.020	-150.963	-8191	255	
4196.800	1	1	0	0	0.11744	0.18653	0.021965	0.20538	0.044991	0.21219	0.29468	0.13883	0.14339	0.26812	0.054955	0.29273	0.18879	0.43687	0.14272	0.22827	-4.0062	-3.6771	-4.6229	-4.2104	-3.8542	-4.6458	-3.7938	-4.5271	-4.4812	-3.7479	-4.6417	-4.2604	-3.8812	-4.6021	-3.7708	-4.275	-79.790	-52.397	57.410	45.646	-129.884	152.875	50.049	-84.041	108.125	-99.588	-84.618	120.575	174.388	164.724	100.851	116.706	0.0021703	0.0002355	0.00014184	828.5	2.3706e-06	8.4124e-07	1008.8	276.17	8.0978e-06	7.078e-06	416.45	166.78	100.17	44.183	4.5319e-06	83.629	0.00019884	0.00018966	5.2566e-05	790.48	2.0577e-06	2.0349e-06	956.07	260.46	2.0263e-06	2.0566e-06	381.87	149.68	92.331	40.46	2.0629e-06	74.714	91.010	-16.655	-130.798	-163.135	172.773	-24.042	-163.375	-158.129	-58.895	34.024	-159.086	-154.651	-153.767	-149.510	-29.292	-150.954	-8191	255	
4196.921	1	1	0	0	0.12985	0.19281	0.12243	0.23613	0.21963	0.28879	0.064318	0.09171	0.16571	0.18365	0.023402	0.13713	0.24631	0.25914	0.37709	0.25665	-4.2146	-3.7479	-4.4625	-4.3292	-3.7917	-4.7458	-4.0729	-4.1292	-4.6208	-3.7687	-4.5188	-4.4062	-3.8771	-4.6729	-3.8438	-4.1583	-21.659	-160.123	-138.456	178.047	46.078	-136.141	163.301	-160.433	123.182	166.263	-161.603	82.513	146.590	108.400	22.955	135.335	0.0020252	0.00056536	7.559e-05	820.59	9.516e-06	2.044e-06	1000.9	273.66	2.3496e-06	1.4457e-06	411.64	162.79	98.857	43.6	5.6606e-06	82.072	0.0001978	0.00018774	5.2151e-05	786.96	2.0473e-06	2.079e-06	949.9	257.88	2.0916e-06	2.0922e-06	377.88	147.43	91.298	40.057	2.1567e-06	73.475	81.052	-137.236	-69.695	-163.044	-45.564	4.309	-163.391	-158.329	-74.823	17.065	-159.073	-154.904	-153.819	-149.447	-66.895	-151.011	-8191	255	
4197.017	1	1	0	0	0.070628	0.077814	0.14812	0.21125	0.067745	0.20948	0.18193	0.15693	0.31147	0.094398	0.15609	0.20036	0.12364	0.11567	0.086791	0.079499	-4.2833	-3.7917	-4.475	-4.3771	-3.7729	-4.6708	-4.1125	-4.05	-4.6937	-3.8438	-4.5083	-4.5208	-3.6937	-4.5958	-4.0458	-3.8458	-164.344	26.794	-23.504	163.405	-153.077	-170.590	86.774	-171.666	119.706	-68.287	108.701	64.324	152.003	-166.931	28.126	-45.366	0.0021798	0.00050537	0.00017555	814.05	3.0808e-06	6.6195e-06	991.05	269.75	7.1162e-06	2.5086e-06	407.62	162.84	98.354	43.24	2.0824e-06	81.762	0.00020542	0.00019418	5.4336e-05	780.7	2.1522e-06	2.1635e-06	944.47	255.05	2.1576e-06	2.2003e-06	375.54	146.86	91.049	39.794	2.1978e-06	73.161	86.348	-147.944	-154.608	-162.987	-109.509	12.342	-163.435	-158.360	-110.747	-29.365	-159.271	-154.466	-153.684	-149.381	-49.941	-150.973	-8191	255	
4197.113	1	1	0	0	0.039286	0.16097	0.20419	0.18843	0.071027	0.049316	0.11374	0.32401	0.12556	0.15605	0.26352	0.21475	0.25559	0.19942	0.14299	0.27123	-4.2979	-3.6583	-4.2042	-4.5938	-3.6312	-4.6854	-4.2542	-3.925	-4.6042	-3.8937	-4.2188	-4.4583	-3.8167	-4.6687	-4.3042	-3.9562	-9.606	97.827	-172.366	-161.067	62.307	-63.960	178.973	108.715	68.474	-63.548	142.954	147.157	-120.717	-101.944	144.990	113.282	0.0022781	0.0004544	7.7645e-05	815.21	5.2834e-06	8.1473e-06	990.04	268.01	7.7584e-06	3.4245e-06	407.83	162.56	98.735	43.427	4.5924e-06	82.067	0.00020956	0.00019978	5.5409e-05	782.69	2.2098e-06	2.1917e-06	942.26	254.33	2.1837e-06	2.2021e-06	375.88	146.91	90.942	39.768	2.1599e-06	73.45	86.759	-144.989	10.756	-162.766	-98.819	-47.869	-163.417	-158.244	-46.065	-122.582	-158.840	-154.486	-153.861	-149.451	-67.107	-150.910	-8191	255	
4197.209	1	1	0	0	0.26774	0.16374	0.23455	0.029565	0.17771	0.28126	0.049289	0.26264	0.059442	0.23001	0.44005	0.08713	0.071294	0.23431	0.15649	0.30899	-4.3167	-3.7917	-4.1083	-4.5521	-3.5417	-4.5583	-4.4437	-3.8396	-4.5458	-3.8063	-4.0458	-4.6833	-3.7896	-4.4771	-4.2271	-3.9667	-30.732	168.978	166.539	77.109	130.934	76.605	89.873	-135.125	133.180	-102.435	104.170	94.054	46.688	-175.787	-149.826	98.715	0.0021741	0.00026276	0.0002008	817.99	2.2285e-06	3.2909e-06	994.77	272.03	1.4477e-06	4.7191e-06	411.64	164.4	99.092	43.806	4.8582e-06	83.127	0.00020682	0.00019522	5.3564e-05	782.95	2.1217e-06	2.1065e-06	946.62	256	2.0764e-06	2.0964e-06	378.14	147.89	91.32	40.101	2.0577e-06	74.141	86.141	-107.193	-125.814	-162.844	-155.013	-24.719	-163.276	-158.367	-40.596	-84.368	-159.195	-154.491	-153.834	-149.469	-65.677	-151.045	-8191	255	
4197.304	1	1	0	0	0.064255	0.14615	0.083272	0.27744	0.1774	0.096113	0.061962	0.13937	0.046895	0.24224	0.12058	0.15897	0.036151	0.17361	0.14661	0.097338	-4.2208	-3.9083	-3.9313	-4.6687	-3.7875	-4.4021	-4.45	-3.7854	-4.7771	-4.1438	-4.1062	-4.7354	-3.7958	-4.1979	-4.5417	-3.6667	129.910	124.658	-105.580	-163.266	-162.311	-25.959	-71.609	157.717	-95.082	-173.862	151.181	181.469	45.904	81.356	-61.970	120.413	0.0019176	0.00041183	0.0002196	815.35	4.6888e-06	6.802e-06	993.14	269.93	7.8563e-06	6.2866e-06	408.7	162.59	97.813	43.295	1.8416e-06	82.229	0.00019927	0.00018961	5.247e-05	780.45	2.0812e-06	2.0705e-06	945.11	254.8	2.0852e-06	2.0904e-06	375.01	146.68	90.851	39.705	2.1118e-06	73.125	88.409	-101.146	-126.834	-163.174	-88.051	-74.750	-163.373	-158.261	-40.260	-89.010	-159.097	-154.684	-153.710	-149.320	75.720	-150.956	-8191	255	
4197.400	1	1	0	0	0.070278	0.19024	0.17004	0.13602	0.20611	0.20272	0.081429	0.030297	0.242	0.25049	0.10131	0.18488	0.095313	0.21115	0.13419	0.10056	-4.2042	-4.2188	-3.8542	-4.7854	-3.8417	-4.1667	-4.6937	-3.9875	-4.4896	-4.2958	-3.7438	-4.7167	-4.0146	-4.0521	-4.6	-3.85	20.298	129.723	134.494	158.994	150.154	-40.683	86.044	43.723	-10.161	58.693	123.861	64.329	88.887	-125.440	92.329	-111.121	0.001931	0.00034822	0.00018267	814.86	5.8751e-06	6.2321e-06	993.93	269.71	5.0646e-06	3.3855e-06	408.65	162.52	98.301	43.27	4.9244e-06	81.639	0.00020514	0.00019229	5.4029e-05	781.5	2.1512e-06	2.1351e-06	945.34	254.49	2.1431e-06	2.1117e-06	375.34	146.46	90.74	39.682	2.1068e-06	72.932	90.180	-67.058	-137.254	-162.793	-104.153	-32.031	-163.136	-158.265	-103.111	-77.203	-158.863	-154.713	-153.806	-149.340	21.931	-150.740	-8191	255	
4197.496	1	1	0	0	0.18487	0.139	0.13805	0.18306	0.059688	0.11378	0.21327	0.24488	0.10779	0.084438	0.09952	0.21937	0.20771	0.065804	0.13984	0.21611	-3.9271	-4.3021	-3.5812	-4.6687	-3.9625	-3.8625	-4.6062	-3.7979	-4.2646	-4.4688	-3.7646	-4.6958	-4.1229	-4.0021	-4.7229	-3.7687	-29.746	-85.119	16.355	126.322	65.862	-9.033	147.516	178.285	127.245	58.343	105.522	119.418	-170.837	-4.569	-29.586	-152.308	0.0020057	0.00015647	0.00016795	810.31	2.0149e-06	8.2595e-07	992.48	270.53	5.3158e-06	7.4327e-07	412.14	164.36	98.766	43.462	2.1063e-06	82.334	0.00020216	0.00018925	5.284e-05	778.32	2.0689e-06	2.0617e-06	944.7	255.4	2.0792e-06	2.0627e-06	376.81	147.63	91.014	39.858	2.0206e-06	73.637	87.718	-142.699	-52.414	-162.844	-10.874	-35.772	-163.219	-157.887	-93.342	-50.784	-159.028	-154.842	-153.674	-149.479	60.915	-150.861	-8191	255	
4197.617	1	1	0	0	0.069292	0.06689	0.12368	0.075534	0.28229	0.17555	0.32941	0.2045	0.16675	0.11862	0.13585	0.14923	0.21206	0.14901	0.16245	0.14474	-4.0229	-4.4125	-3.8729	-4.6604	-4.075	-3.9125	-4.8333	-3.9271	-4.1646	-4.4896	-3.8125	-4.6062	-4.2042	-3.7917	-4.6813	-3.9938	-135.047	136.718	125.752	-142.764	183.061	164.516	111.753	150.734	-123.001	175.317	-104.070	124.383	-142.987	158.764	-9.350	25.049	0.0022231	0.00034031	0.00022553	816.65	2.3774e-06	2.8087e-06	996.01	272.2	6.8912e-06	4.6112e-06	414.35	165.67	99.858	43.648	1.2994e-06	83.083	0.00019432	0.00018005	5.063e-05	780.19	2.0043e-06	1.9818e-06	946.85	256.5	1.9815e-06	1.9711e-06	378.81	148.56	91.431	40.036	1.9909e-06	74.125	82.069	-133.101	-124.817	-163.042	-85.346	-5.914	-163.257	-158.351	-41.079	-9.588	-159.141	-154.669	-153.716	-149.340	-62.153	-150.953	-8191	255	
4197.713	1	1	0	0	0.18515	0.058155	0.16965	0.14747	0.18014	0.071165	0.049112	0.1954	0.099836	0.09534	0.277	0.29787	0.12109	0.21757	0.076189	0.098334	-3.8812	-4.4062	-3.7021	-4.6083	-4.1729	-3.8667	-4.7688	-3.8812	-3.9208	-4.5229	-3.8875	-4.6646	-4.2583	-3.9458	-4.7667	-3.9938	177.979	-122.930	111.425	70.675	104.264	28.809	137.314	106.174	128.697	-7.706	168.879	-129.766	121.228	-141.362	18.942	22.888	0.0019677	0.00031645	0.00012862	817.84	9.6277e-07	4.1058e-06	1000.8	271.82	6.0734e-06	2.2806e-06	408.41	163.17	98.942	43.269	3.9495e-06	82.274	0.00019056	0.00018039	5.0884e-05	781.86	2.0014e-06	1.9784e-06	946.84	255.89	2.0111e-06	2.0129e-06	375.72	147.03	90.833	39.707	2.0111e-06	73.345	93.548	-69.163	-121.222	-163.043	-48.869	-31.922	-163.218	-158.286	-24.785	33.238	-159.091	-154.597	-153.811	-149.329	-36.154	-150.720	-8191	255	
4197.809	1	1	0	0	0.30578	0.12249	0.10513	0.18258	0.043124	0.16583	0.13421	0.3246	0.18788	0.099558	0.13552	0.080167	0.24	0.18783	0.17285	0.17074	-3.5104	-4.5437	-3.7417	-4.4021	-4.4271	-3.5542	-4.625	-4.2417	-3.8333	-4.6312	-3.8187	-4.4688	-4.525	-3.7708	-4.5229	-4.2542	153.998	-159.179	-68.070	-129.758	-65.745	-133.349	-67.257	104.678	13.952	108.164	-152.682	-57.618	140.633	-83.066	-130.827	148.367	0.002213	0.0010422	5.1462e-05	811.16	3.9729e-06	5.0907e-06	992.02	269.4	5.5737e-06	3.7058e-06	407.46	162.6	98.709	43.523	6.6266e-06	82.227	0.00019338	0.00018464	5.1152e-05	776.32	2.0275e-06	2.0208e-06	941.98	254.1	2.0207e-06	1.9964e-06	374.02	146.6	90.584	39.707	2.0164e-06	73.356	89.698	-112.824	-154.595	-163.107	-78.058	-82.152	-163.262	-158.235	-32.290	-29.380	-158.928	-154.875	-153.608	-149.669	-45.441	-150.804	-8191	255	
4197.881	1	1	0	0	0.086519	0.11607	0.1157	0.27272	0.088788	0.086681	0.03437	0.16237	0.074991	0.10472	0.1415	0.16332	0.32662	0.088353	0.18962	0.29919	-3.5771	-4.7125	-3.775	-4.2188	-4.4208	-3.6813	-4.75	-4.1854	-3.7625	-4.6937	-3.9125	-4.0521	-4.6458	-3.7729	-4.4229	-4.4792	73.276	30.586	-176.179	153.478	134.971	-88.150	95.099	-132.897	130.081	-24.016	115.557	24.826	39.089	-109.182	-117.551	159.427	0.0021521	0.00079794	7.4757e-05	810.37	3.1272e-06	2.0189e-06	990.59	268.27	7.8157e-06	1.7616e-06	409.03	163.39	98.905	43.767	4.3173e-06	82.987	0.00019142	0.00018164	5.0883e-05	774.74	1.9904e-06	1.9808e-06	940.55	253.23	1.9715e-06	2.0051e-06	375.02	147.19	90.932	39.995	1.9841e-06	73.815	90.920	-94.301	-136.951	-162.777	-89.341	-86.031	-163.084	-158.264	-149.324	176.294	-158.995	-154.978	-153.980	-149.320	-26.867	-150.983	-8191	255	
4198.001	1	1	0	0	0.10732	0.050527	0.09905	0.16363	0.10936	0.28745	0.1024	0.14065	0.10543	0.064771	0.31291	0.20245	0.096928	0.095965	0.042916	0.16838	-3.325	-4.7562	-4.0208	-4.1021	-4.4333	-3.8688	-4.35	-4.3979	-3.7083	-4.6354	-4.2042	-3.9813	-4.5375	-3.7354	-4.3938	-4.5125	115.379	-160.631	10.757	42.470	9.033	120.230	106.563	13.022	20.419	22.244	-9.874	-162.747	77.138	169.133	-154.491	-172.675	0.0019381	0.00029497	0.0001736	811.17	3.5799e-06	3.4757e-06	993.16	268.53	1.0682e-06	1.8643e-06	408.48	162.68	98.226	43.621	3.428e-06	82.303	0.00019149	0.00018394	5.1059e-05	776.32	2.0267e-06	2.0548e-06	941.88	253.42	2.1174e-06	2.1339e-06	374.82	147.06	90.756	39.947	2.2169e-06	73.579	90.711	-131.069	-131.618	-162.624	-96.484	-13.392	-163.475	-158.310	13.658	-57.233	-159.082	-154.945	-153.747	-149.672	-7.570	-150.870	-8191	255	
4198.098	1	1	0	0	0.086794	0.11782	0.10708	0.21663	0.13347	0.081774	0.26206	0.027727	0.14747	0.31525	0.16626	0.2679	0.24188	0.31406	0.098207	0.05603	-3.3937	-4.5083	-4.0021	-4.1104	-4.5687	-3.7625	-4.3583	-4.3292	-3.4688	-4.4042	-4.15	-3.9354	-4.5708	-3.8625	-4.1458	-4.7188	-50.096	-45.550	133.217	154.678	153.413	-134.178	47.504	-5.930	-64.680	-57.397	154.751	-158.207	66.828	161.863	-172.417	-138.348	0.002416	0.00053511	0.00015519	809.31	6.8561e-06	2.1403e-06	991.37	264.07	2.54e-06	3.9049e-06	400.38	160.33	96.875	42.907	3.8396e-06	81.01	0.00021678	0.00020866	5.7942e-05	778.99	2.3215e-06	2.3214e-06	944.57	251.42	2.3363e-06	2.3195e-06	370.88	145.45	89.964	39.478	2.277e-06	72.689	80.612	-66.136	-116.196	-162.922	-58.256	-82.190	-163.329	-158.149	-33.921	149.342	-159.100	-154.423	-153.555	-149.632	-117.891	-150.868	-8191	255	
4198.194	1	1	0	0	0.048754	0.041731	0.18941	0.25392	0.15394	0.17991	0.17352	0.25167	0.080564	0.18092	0.13104	0.049396	0.12727	0.25764	0.21888	0.2161	-3.4	-4.4042	-4.1792	-3.8792	-4.5958	-3.825	-4.2229	-4.575	-3.6833	-4.4875	-4.3854	-3.8042	-4.7208	-4.0188	-3.8646	-4.7167	88.456	-138.913	-28.856	50.534	6.294	0.612	52.168	160.965	91.445	134.607	143.147	89.668	115.165	152.876	-116.860	145.392	0.0018748	0.00037359	0.00012053	804.56	3.262e-06	7.6214e-06	987.92	266.52	1.0086e-05	4.2402e-06	404.89	162.6	98.336	43.612	6.6992e-06	82.714	0.00021484	0.00020254	5.5506e-05	772.52	2.1576e-06	2.1298e-06	938.45	252.08	2.0823e-06	2.038e-06	372.61	146.34	90.405	39.801	1.937e-06	73.57	94.955	-44.348	-99.771	-162.850	180.442	-84.083	-163.481	-158.047	-76.785	53.508	-158.848	-154.509	-153.775	-149.400	-69.152	-150.934	-8191	255	
4198.313	1	1	0	0	0.15211	0.037486	0.11731	0.074068	0.14351	0.23446	0.0069054	0.1266	0.12386	0.072097	0.12484	0.22372	0.078812	0.17376	0.054985	0.075102	-3.4625	-4.4521	-4.3604	-3.8792	-4.6375	-4.1188	-4.175	-4.5687	-3.7938	-4.3458	-4.7833	-3.7979	-4.5708	-4.175	-4.1312	-4.6833	117.496	34.419	-106.770	74.387	-28.508	147.558	155.343	36.593	139.377	-90.105	89.648	160.850	108.748	91.944	-118.114	145.154	0.0020944	0.00020985	0.000219	811.23	9.1744e-06	4.4887e-06	990.82	270.68	5.93e-06	6.023e-06	411.91	164.26	99.318	43.849	1.8132e-06	83.289	0.00018617	0.00017398	4.8173e-05	773.54	1.8867e-06	1.8537e-06	940.01	254.73	1.8903e-06	1.881e-06	377.29	147.54	91.143	39.984	1.909e-06	74.044	84.668	-156.682	-164.541	-163.148	-58.052	-20.636	-163.446	-158.098	-63.147	-31.099	-158.749	-154.800	-153.974	-149.765	-168.142	-150.796	-8191	255	
4198.409	1	1	0	0	0.15531	0.12839	0.20949	0.34193	0.22094	0.20774	0.064483	0.23323	0.28676	0.015879	0.1693	0.13087	0.14683	0.26187	0.16183	0.055342	-3.5833	-4.2	-4.4271	-3.8333	-4.6312	-4.0896	-4.0646	-4.6542	-3.7208	-4.1042	-4.5667	-3.7812	-4.5646	-4.3562	-3.8937	-4.8271	104.386	-127.028	41.973	-167.115	-6.813	-119.335	-101.764	-160.197	-32.796	111.254	146.145	64.421	-173.443	126.721	-152.140	-167.544	0.0019331	0.00038382	9.6721e-05	812.05	4.5174e-06	7.6007e-06	994.49	271.27	5.5237e-06	1.0782e-06	413.37	164.4	99.291	43.663	2.8552e-06	82.675	0.00018524	0.00017478	4.8165e-05	777.11	1.9475e-06	1.945e-06	944.36	255.97	1.9613e-06	1.986e-06	377.47	147.94	91.238	39.911	2.0362e-06	73.872	81.786	-100.917	-174.281	-163.233	-124.461	-7.140	-163.465	-158.294	-37.778	-32.121	-159.429	-155.128	-154.056	-149.499	-47.275	-150.978	-8191	255	
4198.482	1	1	0	0	0.014899	0.18287	0.2256	0.14931	0.28953	0.059173	0.22975	0.041463	0.22943	0.28435	0.17419	0.18264	0.096451	0.060998	0.15307	0.13517	-3.6271	-4.0875	-4.4542	-3.8458	-4.3521	-4.2229	-4.0104	-4.6125	-3.9542	-3.9792	-4.6646	-3.8792	-4.3604	-4.4667	-3.5687	-4.7125	18.346	-63.821	135.023	-167.454	-68.871	183.142	103.580	158.117	-31.495	-88.547	-105.162	42.675	117.722	25.144	25.877	174.863	0.0023158	0.00054916	0.00021996	812.99	4.4601e-06	9.7039e-06	999.53	268.84	2.2434e-06	4.6066e-06	409.3	163.7	97.752	43.044	3.8291e-06	81.378	0.00019691	0.00018838	5.2361e-05	778.9	2.0735e-06	2.0992e-06	946.58	254.41	2.118e-06	2.1088e-06	375.45	146.88	90.475	39.536	2.1268e-06	72.839	94.826	-98.241	170.363	-163.237	-69.470	-12.020	-163.698	-158.365	-39.691	-48.768	-159.123	-155.056	-153.888	-149.872	-123.294	-151.162	-8191	255	
4198.601	1	1	0	0	0.053254	0.048334	0.13979	0.10404	0.14433	0.10744	0.13486	0.23354	0.29319	0.1359	0.12246	0.20794	0.019566	0.12901	0.1739	0.14176	-3.6708	-3.9604	-4.6458	-3.9688	-4.2875	-4.3979	-3.7687	-4.5646	-4.0125	-3.7979	-4.7	-3.8854	-4.1167	-4.5	-3.7083	-4.3771	-163.022	143.725	-70.056	104.270	109.750	72.927	69.897	-146.835	-163.977	-136.542	151.561	-101.510	-41.741	68.886	-55.392	120.946	0.0020594	0.00048555	0.00010368	810.19	6.9916e-06	2.0866e-06	991.27	268.71	6.0222e-06	5.9423e-06	408.83	162.73	98.57	43.34	6.3907e-07	82.582	0.00020441	0.00019509	5.3624e-05	777.57	2.1053e-06	2.0936e-06	940.11	253.22	2.0351e-06	2.0297e-06	375.16	146.39	90.555	39.502	1.9002e-06	73.315	93.678	-104.528	-127.968	-163.554	-73.554	17.796	-163.779	-158.605	-9.280	3.613	-158.840	-155.049	-154.260	-150.072	-169.086	-151.100	-8191	255	
4198.697	1	1	0	0	0.20495	0.098331	0.10492	0.26393	0.2039	0.14227	0.076707	0.13275	0.155	0.17167	0.13838	0.26569	0.19249	0.033155	0.24217	0.25968	-3.9042	-3.7896	-4.5687	-3.9354	-3.9813	-4.5188	-3.7625	-4.4938	-4.125	-3.8771	-4.5604	-3.7188	-4.0583	-4.5979	-3.7146	-4.5042	-155.291	97.410	-112.275	162.672	-22.535	-92.636	132.055	-161.547	5.098	-6.086	141.638	154.087	-139.230	139.431	153.589	121.119	0.0020678	2.3671e-05	8.5445e-05	818.92	5.5447e-06	5.9995e-06	1000.3	270.99	7.302e-06	9.57e-06	415.32	165.41	99.219	44.066	6.1898e-06	82.736	0.0001789	0.00016845	4.622e-05	780.04	1.7871e-06	1.7738e-06	946.5	255.25	1.7746e-06	1.8024e-06	377.31	147.96	90.804	39.901	1.827e-06	73.723	90.741	20.614	-109.160	-163.297	-60.459	-71.105	-163.492	-158.478	-99.204	-95.827	-159.089	-154.983	-154.254	-149.794	-64.542	-151.278	-8191	255	
4198.793	1	1	0	0	0.042784	0.15142	0.29108	0.38393	0.12945	0.10136	0.16791	0.19639	0.13117	0.20899	0.074717	0.20513	0.10506	0.11701	0.1856	0.036759	-4.1083	-3.9396	-4.6021	-4.1229	-3.9083	-4.6937	-3.8333	-4.4375	-4.3729	-3.8167	-4.5771	-4.1333	-4.0458	-4.8063	-3.8833	-4.3333	-4.806	55.054	-155.835	130.833	21.795	142.269	10.166	57.898	104.445	-26.136	65.580	-142.406	91.700	126.992	-97.496	68.136	0.0021098	0.00021628	0.00014756	821.15	3.3444e-06	1.2534e-06	1000.7	271.12	1.4291e-06	8.7906e-06	409.36	164.27	98.849	43.673	5.7952e-06	82.203	0.00017905	0.00016993	4.7132e-05	782.88	1.8964e-06	1.8903e-06	950.48	253.88	1.9234e-06	1.9229e-06	374.83	147.38	90.682	39.854	2.0145e-06	73.391	89.273	-101.407	-98.758	-163.015	29.128	-27.786	-163.690	-158.568	49.014	-21.853	-159.442	-154.772	-154.257	-149.844	-71.309	-151.183	-8191	255	
4198.914	1	1	0	0	0.19679	0.15259	0.095663	0.17218	0.12001	0.16583	0.14418	0.23144	0.12776	0.246	0.30252	0.11467	0.099545	0.23032	0.23648	0.10362	-4.1021	-3.7354	-4.4917	-4.1104	-3.7792	-4.7292	-3.7021	-4.3438	-4.5917	-3.7396	-4.5375	-4.1875	-3.8312	-4.6937	-3.8625	-4.2146	48.219	-13.260	92.466	-149.709	23.070	-176.092	80.184	126.065	-37.465	-127.420	142.340	81.156	46.545	110.639	-16.740	183.597	0.0021151	0.00038685	0.00013333	818.22	6.1946e-06	3.5905e-06	993.98	263.41	3.6043e-06	5.4553e-06	402.01	162.46	97.157	43.075	5.1196e-06	80.992	0.00019428	0.00018793	5.2246e-05	783.26	2.0805e-06	2.0893e-06	947.78	250.28	2.103e-06	2.1359e-06	370.9	145.88	89.837	39.477	2.1523e-06	72.539	88.009	14.474	-135.080	-162.968	-83.159	-101.140	-163.624	-158.410	-48.117	37.658	-159.460	-155.073	-153.932	-149.849	-36.407	-151.338	-8191	255	
4199.010	1	1	0	0	0.19381	0.12365	0.085253	0.29202	0.038166	0.14071	0.32923	0.099534	0.11169	0.10626	0.1896	0.38794	0.065064	0.11289	0.16988	0.20798	-4.15	-3.7354	-4.4521	-4.2875	-3.7083	-4.6438	-4.1042	-4.0667	-4.6312	-3.7854	-4.4396	-4.3583	-3.7188	-4.6729	-3.9354	-3.9021	-171.095	-171.229	-55.875	170.410	182.706	-112.440	124.476	-173.508	8.994	120.589	125.120	127.732	5.041	180.632	-134.696	138.882	0.0019307	0.00047472	7.237e-05	812.47	7.0113e-06	3.6365e-06	992.56	262.63	1.1284e-06	3.9167e-06	403.4	160.77	97.014	42.957	2.7388e-06	81.537	0.00020657	0.00019649	5.4321e-05	780.29	2.1513e-06	2.1582e-06	942.33	248.85	2.1061e-06	2.0953e-06	369.84	145.17	89.777	39.352	2.0359e-06	72.856	87.759	164.886	69.677	-163.064	-124.398	-37.610	-163.535	-158.472	90.357	-54.026	-159.495	-155.044	-153.965	-149.745	180.314	-151.080	-8191	255	
4199.105	1	1	0	0	0.11186	0.30557	0.26482	0.34674	0.30594	0.08688	0.15402	0.01406	0.15781	0.13639	0.23922	0.081029	0.094404	0.20568	0.17173	0.23309	-4.2562	-3.6562	-4.2979	-4.6188	-3.6542	-4.4875	-4.1208	-3.825	-4.5792	-3.8583	-4.4563	-4.5708	-3.8604	-4.5687	-4.1562	-3.9	39.212	-150.765	-112.412	134.968	32.735	12.492	80.388	-64.006	-143.730	53.926	81.342	124.317	-6.489	90.536	30.577	102.221	0.0020963	0.0002554	0.00028372	809.49	2.123e-06	2.6255e-06	991.03	267.72	6.0589e-06	4.9598e-06	408.82	163.37	97.481	43.054	6.5134e-06	81.32	0.00019383	0.00018159	5.0128e-05	776.2	1.9985e-06	1.9708e-06	942.84	251.83	1.9938e-06	2.0007e-06	374.77	146.5	90.276	39.46	2.0511e-06	72.834	90.755	-130.168	-141.208	-163.231	-64.146	-101.570	-163.553	-158.530	-44.947	33.321	-159.674	-154.818	-154.179	-149.791	-52.783	-151.242	-8191	255	
4199.178	1	1	0	0	0.15687	0.10415	0.083514	0.08586	0.22246	0.056451	0.17726	0.22862	0.080766	0.090345	0.19192	0.17916	0.10855	0.16283	0.23677	0.097483	-4.3875	-3.8125	-4.0271	-4.5917	-3.6417	-4.425	-4.2042	-3.8667	-4.5021	-3.9854	-4.0271	-4.5833	-3.7188	-4.3688	-4.2104	-3.925	27.480	40.392	143.047	-127.052	-81.477	-30.847	137.667	58.136	-101.095	74.946	0.056	48.927	96.271	-23.329	-161.685	71.568	0.0020172	0.00046743	6.2611e-05	818.76	3.1903e-06	5.172e-06	998.07	266.52	5.2573e-06	8.2266e-06	405.16	160.57	97.194	42.798	2.4707e-06	80.746	0.00019958	0.0001897	5.3347e-05	783.36	2.1633e-06	2.1441e-06	950.88	252.13	2.1752e-06	2.1912e-06	372.92	145.62	89.937	39.277	2.2323e-06	72.44	85.798	-14.727	-96.766	-163.360	-63.863	-88.822	-163.513	-158.694	-74.294	-5.153	-159.416	-154.852	-154.042	-149.837	-111.506	-151.302	-8191	255	
4199.297	1	1	0	0	0.33954	0.18104	0.050924	0.08471	0.052503	0.071557	0.084507	0.29549	0.05774	0.10678	0.15279	0.20761	0.2333	0.28336	0.064691	0.10103	-4.1646	-3.8812	-3.9062	-4.6333	-3.5625	-4.1479	-4.5146	-3.8021	-4.4729	-4.0437	-4.0167	-4.5458	-3.8021	-4.2208	-4.5729	-3.7896	84.569	-73.657	86.913	71.566	0.988	138.580	96.690	164.691	137.160	-91.671	147.701	130.476	147.843	164.866	125.734	-163.843	0.0020502	0.00066422	0.00013718	817.33	6.3825e-06	5.8929e-06	994.2	265.34	8.5332e-06	2.7028e-06	402.99	160.86	97.45	42.898	4.945e-06	80.865	0.00021588	0.00020482	5.6796e-05	785	2.2489e-06	2.2062e-06	950.14	251.25	2.2343e-06	2.2112e-06	372.09	145.57	90.161	39.379	2.209e-06	72.527	83.046	-50.121	-125.444	-163.053	-82.848	-97.451	-163.298	-158.421	-70.939	148.528	-159.240	-154.511	-154.247	-149.534	-99.671	-151.184	-8191	255	
4199.393	1	1	0	0	0.23831	0.15132	0.094339	0.29478	0.073032	0.23033	0.26474	0.34465	0.12512	0.053528	0.12497	0.17039	0.14061	0.29928	0.13994	0.21707	-4.2146	-4.1104	-3.8083	-4.7167	-3.7021	-4.1979	-4.5771	-3.7542	-4.4437	-4.0896	-3.8646	-4.6917	-3.8083	-4.2375	-4.7146	-3.9354	-31.235	-12.860	41.675	111.200	85.374	165.272	103.699	-164.532	-24.046	-136.639	-133.128	95.705	127.621	21.770	-137.630	154.190	0.0022215	0.00066962	0.00013687	812.8	5.9185e-06	5.5729e-06	991.97	262.81	2.093e-06	7.4689e-06	402.56	159.48	96.66	42.609	5.1217e-06	80.089	0.00021168	0.00020199	5.6489e-05	781.17	2.2199e-06	2.2044e-06	943.47	249.83	2.1809e-06	2.1587e-06	370.99	144.79	89.707	39.083	2.1642e-06	71.873	88.903	-85.107	-30.932	-163.370	-50.076	-50.298	-163.568	-158.756	-58.012	-96.011	-159.357	-154.595	-154.132	-149.777	-43.537	-151.386	-8191	255	
4199.489	1	1	0	0	0.0051334	0.095566	0.056485	0.24243	0.073362	0.26009	0.068225	0.29166	0.15766	0.17794	0.12273	0.21676	0.14325	0.083735	0.055751	0.20053	-4.0583	-4.1417	-3.7146	-4.4458	-3.8292	-3.8708	-4.6312	-3.7771	-4.4479	-4.1708	-3.7667	-4.7	-3.9833	-3.8604	-4.4854	-3.7229	30.991	-52.197	128.013	169.351	50.249	-75.594	-87.243	-144.154	-57.895	-139.702	69.826	-77.625	-169.888	162.579	138.244	101.174	0.0019133	0.00046198	0.0001016	810.96	5.8438e-06	7.8185e-06	996.2	266.47	1.1529e-05	4.1191e-06	407.6	161.38	97.636	42.614	8.1595e-06	80.929	0.00020356	0.00019391	5.3545e-05	778.42	2.1028e-06	2.1064e-06	946.1	252.25	2.0831e-06	2.0688e-06	374.02	145.64	89.957	39.173	2.0735e-06	72.348	85.445	-82.596	162.736	-163.536	-59.756	-102.502	-163.581	-158.468	-15.106	-53.370	-159.275	-155.002	-153.847	-149.876	-5.492	-151.202	-8191	255	
4199.585	1	1	0	0	0.06283	0.10837	0.04882	0.13529	0.17148	0.10296	0.19595	0.028795	0.055259	0.055688	0.23464	0.27318	0.1266	0.077539	0.13891	0.13121	-4.0667	-4.325	-3.6167	-4.5729	-4.1042	-3.8104	-4.5583	-3.8604	-4.2042	-4.3896	-3.8208	-4.7125	-4.2	-3.8958	-4.6479	-3.8625	101.998	-84.762	-27.693	-71.067	71.474	108.448	127.855	-106.848	146.510	134.569	59.398	99.545	147.978	37.281	-74.626	123.411	0.0021678	0.00057046	0.00017067	819.61	4.6049e-06	7.0066e-06	999.78	267.77	7.2311e-06	4.9118e-06	408.57	162.29	97.997	42.72	5.3423e-06	81.284	0.00019686	0.00018915	5.2967e-05	783.42	2.0977e-06	2.0841e-06	949.84	254.01	2.1025e-06	2.1027e-06	375.02	146.06	90.14	39.261	2.0927e-06	72.52	91.585	-22.287	-120.936	-163.272	-64.683	-15.334	-163.491	-158.703	-125.901	-67.884	-159.406	-155.142	-154.063	-149.636	-78.988	-151.231	-8191	255	
4199.706	1	1	0	0	0.068264	0.19045	0.066697	0.097825	0.16377	0.21717	0.11256	0.21376	0.071413	0.29447	0.09478	0.25937	0.21182	0.063932	0.20196	0.073537	-3.8063	-4.4896	-3.6271	-4.6521	-4.1854	-3.7646	-4.5958	-3.9583	-4.0021	-4.6188	-3.7375	-4.5583	-4.2125	-3.8063	-4.5792	-3.9854	149.290	-146.822	-110.904	-13.751	-146.128	-60.234	162.545	171.484	129.034	64.223	138.111	110.122	59.514	-72.921	173.322	-166.642	0.0021127	0.00015502	0.00014217	817.08	6.4372e-06	3.2122e-06	1007.7	271.38	6.2362e-06	3.665e-06	413.03	161.41	97.697	42.746	5.9312e-07	80.45	0.00019952	0.00018935	5.3211e-05	783.67	2.0949e-06	2.0987e-06	954.71	255.58	2.1134e-06	2.1095e-06	377.37	145.88	90.413	39.248	2.1494e-06	71.978	93.031	-41.614	-79.801	-163.273	-109.686	-36.184	-163.704	-158.569	-46.765	-73.426	-158.940	-155.142	-154.375	-149.956	-148.014	-151.303	-8191	255	
4199.778	1	1	0	0	0.070008	0.25981	0.16117	0.37167	0.010709	0.079184	0.055369	0.25813	0.11291	0.19463	0.15746	0.032461	0.047849	0.13724	0.12721	0.13998	-3.6604	-4.5229	-3.5271	-4.4604	-4.2625	-3.6042	-4.6979	-4.0917	-3.9875	-4.4875	-3.8125	-4.2979	-4.1188	-3.8063	-4.4563	-4.0646	52.797	-166.465	131.272	154.992	95.717	59.007	-28.470	142.642	-74.511	0.972	-122.668	-18.527	105.345	11.417	41.045	41.923	0.0020531	0.00070213	0.00018757	820.69	2.7823e-06	6.3326e-06	1003.1	267.27	2.0284e-06	3.304e-06	402.39	157.3	95.29	40.882	1.21e-06	77.083	0.00020794	0.00019807	5.5923e-05	789	2.2354e-06	2.2538e-06	956.07	253.81	2.3414e-06	2.3203e-06	372.04	142.76	88.836	37.971	2.4738e-06	69.395	86.834	-87.869	-119.400	-163.244	-133.501	12.733	-163.522	-158.450	-70.391	81.082	-159.488	-155.139	-154.110	-149.795	6.465	-151.146	-8191	255	
4199.874	1	1	0	0	0.079757	0.13919	0.21173	0.20273	0.093009	0.11216	0.014856	0.08849	0.306	0.14262	0.067994	0.20266	0.24114	0.25628	0.43961	0.11298	-3.5917	-4.4583	-3.6917	-4.2875	-4.3167	-3.6312	-4.6917	-4.1208	-3.9833	-4.5958	-3.9313	-4.0854	-4.5	-3.7729	-4.3854	-4.3042	-57.505	-95.030	71.824	143.038	17.821	142.657	-94.933	13.360	151.061	-67.226	87.287	-123.480	33.511	-169.332	-73.743	132.866	0.0019538	0.00055485	0.00020667	823.66	7.7088e-06	4.5788e-06	998.29	263.32	6.9627e-06	4.6427e-06	393.18	153.85	93.052	40.075	3.0744e-06	75.687	0.00023735	0.00023141	6.469e-05	793.86	2.6013e-06	2.6067e-06	957.5	250.85	2.6897e-06	2.6794e-06	366.97	140.96	87.742	37.354	2.67e-06	68.562	84.035	-100.965	-99.242	-163.664	-87.565	0.850	-163.864	-158.694	-78.004	-26.273	-159.221	-155.210	-153.994	-149.548	69.159	-151.012	-8191	255	
4199.994	1	1	0	0	0.25384	0.096606	0.18266	0.28346	0.072976	0.23485	0.16212	0.081768	0.30471	0.13106	0.028888	0.15804	0.11546	0.21239	0.16969	0.1143	-3.3667	-4.5583	-3.8396	-4.2458	-4.625	-3.6917	-4.65	-4.4021	-3.675	-4.55	-3.9479	-4.0437	-4.6542	-3.6979	-4.2854	-4.4042	138.438	72.483	-161.885	94.087	-7.781	132.450	-53.261	-138.523	-6.376	7.586	61.309	156.590	-11.183	110.579	-119.985	75.105	0.0017897	0.00033312	0.00022313	814.06	3.3835e-06	4.6476e-06	996.1	261.23	1.6489e-06	1.0117e-06	398.28	155.61	93.884	40.942	3.2118e-06	77.322	0.00025452	0.0002419	6.6515e-05	786.46	2.5972e-06	2.5959e-06	952.95	249.64	2.5522e-06	2.5651e-06	368.06	141.97	88.071	37.868	2.5325e-06	69.835	88.773	-56.896	-81.802	-163.703	-113.666	-143.701	-163.509	-158.508	-3.223	-65.980	-159.465	-155.219	-154.368	-149.555	-64.163	-151.069	-8191	255	
4200.090	1	1	0	0	0.23426	0.091774	0.10542	0.10575	0.061138	0.057906	0.23994	0.19145	0.22966	0.077232	0.12574	0.17946	0.010958	0.24262	0.11542	0.15759	-3.3354	-4.6833	-4.0771	-4.0979	-4.6875	-3.8937	-4.4208	-4.5875	-3.6521	-4.6292	-4.1729	-4.0354	-4.6188	-3.7854	-4.0813	-4.5958	87.963	118.189	16.890	-120.959	-87.081	32.312	95.302	38.846	34.650	88.873	136.384	149.999	-103.099	-28.832	46.360	77.523	0.0021579	0.00062397	0.00025191	809.81	3.0226e-06	4.8814e-06	996.8	264.38	8.439e-06	3.3922e-06	401.43	158.11	95.102	41.864	6.0082e-06	79.287	0.00023889	0.00022587	6.3105e-05	783.96	2.4612e-06	2.4546e-06	952.03	251.4	2.4372e-06	2.3998e-06	370.57	143.3	88.828	38.415	2.2928e-06	70.885	84.242	-32.114	-158.586	-163.336	-137.352	-29.540	-163.624	-158.780	-59.182	0.205	-159.213	-155.052	-154.039	-149.790	-62.766	-151.040	-8191	255	
4200.187	1	1	0	0	0.1584	0.15523	0.16612	0.22954	0.19811	0.087876	0.10069	0.26647	0.1025	0.25682	0.264	0.16934	0.17733	0.068788	0.28169	0.15901	-3.3646	-4.5292	-4.0104	-3.9188	-4.625	-3.6521	-4.2438	-4.5271	-3.625	-4.5125	-4.2229	-3.7917	-4.6562	-3.8792	-4.0542	-4.6792	88.517	144.814	-12.540	168.428	-94.305	47.160	88.556	161.203	116.293	123.833	108.321	-162.935	147.960	-173.934	115.355	101.104	0.0022701	0.00039928	0.00035158	819.47	3.7637e-06	3.0468e-06	1001.2	268.76	4.2035e-06	3.9037e-06	405.64	159.76	96.786	41.669	1.0114e-05	78.514	0.00021434	0.00020096	5.5356e-05	785.96	2.1515e-06	2.1399e-06	952.89	253.53	2.1065e-06	2.0932e-06	373.6	144.12	89.336	38.319	2.0825e-06	70.418	79.146	-115.871	-148.905	-163.432	-54.585	-164.412	-163.728	-158.538	-35.689	-69.628	-159.407	-154.738	-154.147	-149.840	-24.217	-151.154	-8191	255	
4200.283	1	1	0	0	0.11856	0.17246	0.14229	0.15563	0.16599	0.063286	0.027669	0.26179	0.072377	0.078668	0.15971	0.19471	0.19782	0.17529	0.14912	0.11407	-3.3604	-4.4313	-4.3187	-3.8729	-4.6188	-4.0375	-4.0042	-4.8292	-3.7333	-4.3958	-4.3938	-3.6729	-4.7229	-4.0188	-3.925	-4.8375	109.953	121.668	-77.941	79.854	18.076	-68.365	118.451	172.862	-7.426	-58.998	99.244	157.716	181.764	-146.606	1.618	-170.981	0.0020773	0.00054999	0.00013676	826.94	4.3852e-06	7.7114e-06	1007.5	271.69	4.6605e-06	5.3422e-06	405.94	158.05	96.214	41.708	1.1247e-05	78.736	0.00019958	0.00019081	5.2899e-05	790.65	2.0841e-06	2.1066e-06	956.32	256.21	2.1236e-06	2.1278e-06	373.72	143.37	89.103	38.239	2.1911e-06	70.368	89.199	-122.447	-88.059	-163.625	-64.711	-66.620	-163.728	-158.596	5.642	-94.537	-159.211	-155.004	-153.872	-149.742	-59.556	-151.171	-8191	255	
4200.377	1	1	0	0	0.1197	0.10327	0.071385	0.18765	0.11955	0.1349	0.16077	0.18929	0.045651	0.1443	0.27459	0.25552	0.061531	0.14449	0.10263	0.27071	-3.5125	-4.3104	-4.4354	-3.7438	-4.4917	-4.1479	-3.9333	-4.5563	-3.8187	-4.1	-4.5792	-3.8542	-4.4625	-4.3042	-3.6937	-4.6875	-110.503	-14.733	13.021	123.195	43.549	78.153	153.600	13.248	-81.412	148.019	90.752	141.430	-86.736	-139.496	-107.168	169.836	0.0020329	0.0001866	6.5433e-05	820.42	5.4508e-06	7.3191e-06	1000.8	267.94	3.9105e-06	2.4601e-06	403.39	157.84	95.743	41.379	6.1928e-06	78.147	0.00021113	0.00019961	5.6604e-05	790.18	2.2469e-06	2.2741e-06	955.16	254.46	2.2756e-06	2.2978e-06	372.9	143.2	89.148	38.19	2.3777e-06	70.079	92.288	-84.528	99.158	-163.506	-92.559	-70.750	-163.450	-158.577	-15.424	-74.660	-159.266	-155.112	-154.283	-149.865	-72.852	-151.086	-8191	255	
4200.473	1	1	0	0	0.19037	0.18558	0.17022	0.21112	0.2611	0.19963	0.087171	0.15334	0.29217	0.051751	0.17886	0.15079	0.14858	0.34807	0.044657	0.19848	-3.3438	-4.0271	-4.4521	-3.7812	-4.4292	-4.3771	-3.9375	-4.6354	-4.0021	-4.0729	-4.7521	-3.8292	-4.4563	-4.3083	-3.8042	-4.4896	-45.381	143.508	35.359	88.043	-16.455	-136.886	80.526	-138.893	-78.211	-55.298	-132.468	160.520	151.347	-156.015	-149.983	84.864	0.0021471	0.00024594	0.00014043	825.4	2.1113e-06	2.2624e-06	1003.9	268.29	3.7378e-06	3.5523e-06	405.86	158.23	96.985	41.63	9.5203e-07	78.561	0.00022406	0.00021391	5.9524e-05	791.83	2.3219e-06	2.3115e-06	957.24	254.47	2.2686e-06	2.2635e-06	374.38	143.38	89.165	38.169	2.1952e-06	70.198	89.440	-148.834	-109.088	-163.195	-70.094	-62.046	-163.534	-158.601	-0.347	-69.142	-159.410	-154.849	-154.052	-149.522	-24.723	-151.155	-8191	255	
4200.594	1	1	0	0	0.26474	0.22224	0.084949	0.30785	0.14103	0.10557	0.2161	0.17845	0.05313	0.13698	0.020268	0.20487	0.13641	0.066851	0.10727	0.10049	-3.5729	-3.95	-4.5062	-3.8958	-4.3854	-4.4062	-4.0375	-4.55	-4.0312	-3.7604	-4.7479	-3.7146	-4.275	-4.5958	-3.8187	-4.7104	-166.910	-46.690	-166.238	132.680	-128.182	-25.494	83.323	32.924	-175.455	152.605	-82.024	-141.100	-140.056	46.307	-89.446	96.986	0.0017702	0.00036062	7.3009e-05	831.06	9.3172e-06	4.5153e-06	1013	270.48	6.6522e-06	3.3596e-06	407.37	158.03	96.066	40.939	6.6122e-06	76.957	0.00020716	0.0001963	5.4743e-05	796.24	2.123e-06	2.1265e-06	963.69	256.12	2.1259e-06	2.1481e-06	373.53	142.88	88.715	37.712	2.2104e-06	69.022	90.912	-92.123	-116.536	-163.103	-45.379	-80.535	-163.536	-158.513	-86.021	170.594	-159.568	-155.219	-154.130	-149.794	-19.991	-151.257	-8191	255	
4200.690	1	1	0	0	0.16054	0.22009	0.045824	0.099035	0.11255	0.095432	0.14287	0.24616	0.24498	0.19877	0.4497	0.14642	0.089191	0.15074	0.10722	0.022967	-3.8521	-3.8458	-4.7042	-3.9083	-4.1479	-4.4146	-3.8167	-4.5854	-4.1375	-3.8375	-4.6833	-3.8542	-4.1625	-4.525	-3.7938	-4.5354	-93.456	113.764	-49.303	-63.531	-31.874	-61.112	78.260	142.387	-163.702	-27.784	105.308	-158.266	-147.826	32.914	111.372	59.104	0.0022816	0.00056653	0.00026451	832.26	2.8348e-06	7.6713e-06	1013.2	265.81	3.1425e-06	2.8302e-06	398.88	155.39	93.893	40.398	8.0725e-06	75.885	0.00021031	0.00020658	5.7873e-05	798.97	2.3147e-06	2.3279e-06	960.92	252.62	2.3852e-06	2.4314e-06	369.01	141.16	88.061	37.506	2.5359e-06	68.539	90.946	-158.613	-134.132	-163.326	-42.267	20.834	-163.857	-158.659	-14.354	-113.541	-159.407	-155.021	-154.100	-149.637	-121.961	-150.970	-8191	255	
4200.786	1	1	0	0	0.23675	0.10858	0.032221	0.085251	0.064612	0.048387	0.19721	0.19813	0.11142	0.16209	0.093043	0.0896	0.02273	0.24501	0.05262	0.33114	-3.9896	-3.7479	-4.5813	-3.8438	-3.9083	-4.6042	-3.8438	-4.4667	-4.3354	-3.9	-4.7729	-4.1292	-3.9938	-4.625	-3.7042	-4.4708	81.773	44.314	2.698	-101.950	-69.830	105.714	110.646	114.545	48.869	69.456	180.531	80.455	-1.975	-150.009	168.172	169.691	0.0016992	0.00048102	0.00022714	817.44	2.9224e-06	2.8944e-06	999.57	262.67	9.3564e-06	4.6997e-06	394.47	154.84	93.713	40.376	6.7656e-06	75.891	0.00024027	0.00023312	6.451e-05	792.8	2.5767e-06	2.5904e-06	955.98	250.39	2.6188e-06	2.6465e-06	366.82	141.24	87.958	37.468	2.6293e-06	68.599	89.265	-37.778	-65.215	-163.150	-112.711	173.586	-163.533	-158.245	-55.456	-88.405	-159.102	-154.922	-154.254	-149.479	-31.156	-151.080	-8191	255	
4200.882	1	1	0	0	0.23345	0.207	0.15301	0.12073	0.26817	0.1279	0.12878	0.04778	0.22562	0.14362	0.13875	0.33674	0.046534	0.25631	0.10653	0.019642	-4.1292	-3.7	-4.4667	-4.0417	-3.8792	-4.5583	-3.9229	-4.35	-4.4729	-3.5438	-4.5813	-4.1083	-3.8667	-4.7	-3.8354	-4.225	119.444	-61.277	-130.804	171.736	-138.864	-76.227	110.628	-11.743	120.968	-94.690	80.357	-156.765	157.575	147.453	84.924	-0.932	0.0018432	0.00022662	6.0321e-05	822.07	7.5271e-06	5.1709e-06	1004.1	261.21	4.7674e-06	1.0786e-06	394.58	153.99	93.81	40.374	4.5698e-06	76.717	0.00024801	0.00024085	6.592e-05	793.39	2.5963e-06	2.5984e-06	956.13	249.3	2.5775e-06	2.5736e-06	366.96	141.11	88.012	37.493	2.532e-06	68.958	90.876	109.217	30.791	-163.214	-77.016	-124.836	-163.355	-158.745	-57.069	-49.482	-159.218	-154.640	-153.988	-149.660	1.122	-151.136	-8191	255	
4201.003	1	1	0	0	0.11243	0.072844	0.12958	0.1114	0.012	0.094368	0.37767	0.17639	0.092291	0.19543	0.10388	0.16402	0.138	0.09713	0.13347	0.11419	-4.1917	-3.6104	-4.4604	-4.3333	-3.8333	-4.5687	-4.0417	-4.1854	-4.5958	-3.6583	-4.3458	-4.4083	-3.8146	-4.775	-3.7812	-4.125	86.202	-1.583	182.377	-126.251	129.041	-127.465	93.102	145.866	-5.325	159.220	99.432	81.181	162.315	-101.155	99.528	161.452	0.0023304	0.0002243	7.3779e-05	816.26	1.8009e-06	7.3463e-06	998.65	259.9	5.7656e-06	5.4787e-06	391.57	154.29	92.851	40.243	5.6194e-06	75.78	0.00023906	0.00023013	6.384e-05	788.84	2.5356e-06	2.5285e-06	953.98	248.29	2.6087e-06	2.5984e-06	364.61	140.86	87.543	37.459	2.6445e-06	68.614	93.045	111.073	-122.084	-163.060	-69.933	-86.514	-163.567	-158.338	-41.745	-12.176	-159.027	-154.955	-154.080	-149.561	-62.269	-151.206	-8191	255	
4201.075	1	1	0	0	0.089347	0.17961	0.18959	0.29188	0.11971	0.16101	0.16744	0.14418	0.293	0.042482	0.10507	0.15603	0.10119	0.11449	0.033311	0.070421	-4.2063	-3.7188	-4.3083	-4.4396	-3.6271	-4.6104	-4.0792	-4.1687	-4.6021	-3.8896	-4.4083	-4.3167	-3.7313	-4.6687	-4.0792	-3.9792	170.103	-91.913	-55.555	107.139	-82.409	50.748	44.338	-23.145	-10.925	-93.898	-50.548	66.444	-3.688	-159.181	172.954	47.199	0.0022362	0.00054865	0.00034753	807.28	6.1598e-06	9.493e-06	980.09	254.53	3.5491e-06	1.8516e-06	388.25	152.2	92.934	40.111	8.5073e-06	75.56	0.00025334	0.00024153	6.7589e-05	781.88	2.6453e-06	2.6362e-06	941.57	244.81	2.7105e-06	2.7468e-06	360.9	139.8	87.513	37.531	2.9207e-06	68.527	88.733	-92.727	-98.638	-163.097	-95.893	4.298	-163.546	-158.503	-87.855	20.034	-159.155	-154.824	-153.479	-149.498	139.049	-150.925	-8191	255	
4201.171	1	1	0	0	0.13946	0.30136	0.29132	0.17399	0.10875	0.20519	0.24063	0.015171	0.063539	0.072141	0.033428	0.14078	0.036744	0.022302	0.22011	0.043524	-4.4021	-3.8333	-4.0208	-4.5479	-3.6063	-4.4313	-4.3104	-3.8896	-4.5687	-3.8167	-4.1292	-4.5563	-3.8125	-4.3063	-4.0417	-3.9437	133.052	-95.595	68.085	90.867	-81.206	-164.670	117.399	-160.248	58.516	126.877	-169.026	172.819	134.054	55.259	3.225	140.138	0.0018752	0.00027131	6.3587e-05	796.67	1.6791e-06	9.7145e-06	973.01	246.95	6.6165e-06	2.8634e-06	375.46	148.82	90.253	39.2	2.7175e-06	73.881	0.00028433	0.0002769	7.8324e-05	779.59	3.1795e-06	3.2175e-06	942.74	240.84	3.3241e-06	3.342e-06	355.77	138.24	86.6	37.065	3.3083e-06	67.6	97.041	-82.461	-100.265	-163.458	-91.426	-16.068	-163.492	-158.776	158.912	10.130	-159.104	-154.858	-153.852	-149.594	-85.609	-151.249	-8191	255	
4201.267	1	1	0	0	0.12576	0.18502	0.17124	0.11565	0.092829	0.06767	0.058358	0.21249	0.082685	0.18004	0.28724	0.095727	0.073648	0.13681	0.23975	0.12478	-4.4083	-3.8021	-4.1854	-4.6104	-3.6083	-4.3562	-4.4667	-3.7917	-4.6021	-3.9042	-3.9208	-4.5375	-3.7354	-4.325	-4.2125	-3.9146	113.225	-140.697	11.544	93.944	42.558	109.680	-76.834	-149.998	37.210	52.389	183.050	140.412	142.065	-148.514	-142.271	-129.784	0.0022186	0.00058183	8.5221e-05	789.15	6.2615e-06	4.2816e-06	971.03	247.57	6.9994e-06	4.4655e-06	379.59	150.78	90.5	39.513	9.0109e-06	75.139	0.00030372	0.00029162	8.0724e-05	772.4	3.093e-06	3.0595e-06	936.6	238.89	2.9688e-06	2.9551e-06	355.8	138.52	86.125	37.194	2.913e-06	68.365	97.884	-62.543	-74.776	-163.008	-120.734	-72.994	-163.553	-158.404	-13.951	-158.048	-159.517	-154.824	-153.694	-149.253	-61.167	-151.253	-8191	255	
4201.386	1	1	0	0	0.074586	0.16618	0.065154	0.10837	0.064731	0.1546	0.10017	0.43452	0.047193	0.27508	0.20096	0.21077	0.092044	0.19092	0.16252	0.32494	-4.2771	-4.0104	-3.8146	-4.6792	-3.7229	-4.0938	-4.4917	-3.7021	-4.4583	-4.2167	-4.05	-4.6667	-3.8146	-4.4062	-4.5104	-3.75	74.172	45.294	-9.572	-99.558	-67.417	-83.824	-36.431	130.772	13.342	95.586	-141.506	69.829	147.733	139.414	-122.774	130.098	0.0021206	0.00043915	9.9154e-05	788.14	4.2771e-06	7.899e-06	969.27	252.19	7.1582e-06	3.5004e-06	388.75	154.27	93.081	40.47	8.31e-06	76.831	0.00026985	0.00025616	7.1254e-05	764.84	2.6908e-06	2.6445e-06	929.71	241.41	2.5627e-06	2.5327e-06	360.04	139.89	86.651	37.495	2.3594e-06	68.967	84.938	-51.880	-163.457	-162.930	-94.422	-87.447	-163.398	-158.323	-57.951	11.238	-159.261	-154.912	-153.885	-149.609	-19.870	-150.902	-8191	255	
4201.482	1	1	0	0	0.41294	0.099952	0.030391	0.13593	0.15154	0.17606	0.16534	0.15656	0.24753	0.18478	0.13258	0.17517	0.16059	0.16822	0.13768	0.13817	-4.2	-4.2688	-3.7771	-4.6667	-3.8104	-4.0646	-4.6312	-3.8104	-4.5437	-4.3438	-3.975	-4.6458	-3.9146	-4.1292	-4.6896	-3.8479	-108.556	-9.706	96.678	130.975	169.180	160.130	117.318	124.748	-52.994	20.478	107.488	178.337	142.498	-148.407	173.327	9.097	0.0021515	0.00040481	0.00020289	801.52	1.4396e-06	4.2524e-06	982.09	263.34	5.155e-06	2.6221e-06	403.09	158.71	96.537	41.957	6.7197e-06	79.449	0.00021691	0.0002012	5.6031e-05	767.93	2.1173e-06	2.0803e-06	933.78	247.99	2.0007e-06	1.955e-06	368.46	142.76	88.473	38.332	1.8811e-06	70.697	91.799	98.680	-144.191	-163.171	-10.300	-11.497	-163.363	-158.207	-33.172	-36.829	-159.243	-154.761	-154.014	-149.362	-49.090	-151.324	-8191	255	
4201.578	1	1	0	0	0.0063066	0.18781	0.1579	0.096514	0.12301	0.020637	0.3668	0.26161	0.28553	0.12522	0.12193	0.17959	0.15587	0.29422	0.051981	0.22095	-4.0396	-4.3396	-3.7479	-4.45	-3.875	-3.9313	-4.7667	-3.8292	-4.2458	-4.3271	-3.675	-4.5167	-4.0292	-3.7625	-4.5896	-3.7604	-97.367	119.462	45.198	162.533	125.587	-64.797	54.771	132.440	54.771	85.877	92.790	45.254	155.380	91.448	107.943	102.215	0.0019209	0.0008208	0.00016665	814.77	4.442e-06	3.8937e-06	996.31	268.92	4.6947e-06	5.8221e-07	405.23	159.88	96.212	41.952	5.4045e-06	78.439	0.00018025	0.00016911	4.7548e-05	775.73	1.8807e-06	1.9044e-06	944.6	253.72	1.9629e-06	2.0037e-06	372	143.63	89.059	38.425	2.1702e-06	70.288	83.166	-111.090	-79.497	-163.264	-124.071	-19.650	-163.471	-158.680	-47.863	-10.679	-159.144	-154.912	-153.932	-149.729	-15.908	-150.806	-8191	255	
4201.674	1	1	0	0	0.17096	0.10975	0.14884	0.28554	0.21199	0.23703	0.096319	0.13106	0.065462	0.23797	0.29315	0.15317	0.14511	0.20494	0.22138	0.096825	-4.0708	-4.3958	-3.5458	-4.6542	-4.0938	-3.8958	-4.5458	-3.8583	-4.0938	-4.5125	-3.8521	-4.5271	-4.2146	-4.0062	-4.4667	-4.1333	131.526	28.486	-100.954	183.342	49.863	129.185	122.357	149.156	53.013	-172.429	106.165	133.707	-60.422	183.091	-134.765	103.520	0.0020424	0.00063995	0.00021689	816.45	4.4641e-06	7.4888e-06	997.68	265.79	1.1271e-05	6.3523e-06	400.91	157.31	94.971	41.569	3.867e-06	78.058	0.00021025	0.00020417	5.7213e-05	784.84	2.3077e-06	2.3361e-06	950.78	252.6	2.3255e-06	2.3437e-06	369.86	142.76	88.699	38.35	2.3449e-06	70.064	91.754	-78.278	-160.367	-163.187	-107.061	-73.319	-163.362	-158.643	-86.095	9.761	-159.108	-154.655	-153.829	-149.570	-44.270	-150.749	-8191	255	
4201.771	1	1	0	0	0.17578	0.078272	0.072239	0.1673	0.12731	0.21326	0.12722	0.10549	0.20086	0.061924	0.048579	0.11241	0.17676	0.082103	0.053595	0.17146	-3.7771	-4.5417	-3.6688	-4.3333	-4.2896	-4.0021	-4.6354	-3.975	-4.0042	-4.6167	-3.8417	-4.3938	-4.3438	-3.725	-4.5667	-4.1229	-149.951	-7.475	-60.921	121.154	86.167	64.423	150.791	166.780	43.556	75.173	151.990	-150.445	-89.461	113.464	51.961	107.892	0.001896	0.00031266	0.0001721	819.19	6.1601e-06	4.1892e-06	998.04	264.64	2.7428e-06	4.1723e-06	401.2	157.97	95.927	41.597	2.4596e-06	77.966	0.00022687	0.00021634	5.9613e-05	788.49	2.362e-06	2.3609e-06	952.44	251.78	2.3269e-06	2.2913e-06	369.19	143.16	88.967	38.401	2.3003e-06	70.124	94.381	-96.133	-92.115	-163.031	-116.009	-16.779	-163.465	-158.339	62.004	-22.210	-158.939	-154.755	-153.515	-149.548	-31.724	-150.958	-8191	255	
4201.867	1	1	0	0	0.20927	0.27625	0.14485	0.19913	0.071397	0.11703	0.42199	0.30775	0.24541	0.14023	0.097043	0.018129	0.13499	0.29851	0.14687	0.1254	-3.7667	-4.5354	-3.6771	-4.4458	-4.2854	-3.7208	-4.5521	-4.0979	-3.6708	-4.7438	-3.9292	-4.2417	-4.4021	-3.8333	-4.4437	-4.3375	52.422	-125.144	-98.454	175.422	154.373	25.188	150.766	93.055	-153.162	152.694	-23.474	128.384	127.638	81.503	55.193	136.169	0.0020639	0.0003173	0.00015688	817.93	2.2313e-06	2.2544e-06	991.46	262.7	2.7331e-06	3.541e-06	393.84	156.09	94.525	41.208	3.4331e-06	77.255	0.00022126	0.00020885	5.8136e-05	783.46	2.3057e-06	2.3254e-06	944.81	249.9	2.3614e-06	2.363e-06	365.75	141.56	88.23	38.122	2.3614e-06	69.621	88.043	-21.286	-98.956	-163.133	-117.113	-69.987	-163.482	-158.546	-37.858	-121.301	-158.996	-154.710	-153.735	-149.454	-72.478	-150.847	-8191	255	
4201.963	1	1	0	0	0.14188	0.1442	0.31804	0.3513	0.093313	0.41146	0.21815	0.18311	0.079452	0.10419	0.039481	0.22203	0.13575	0.21794	0.13093	0.22558	-3.4583	-4.5437	-3.7521	-4.1854	-4.3167	-3.6063	-4.4917	-4.3125	-3.7208	-4.6125	-4.0417	-4.0792	-4.4104	-3.8354	-4.2458	-4.3229	-100.481	128.413	82.124	107.785	96.424	126.680	131.747	176.289	-66.574	-156.176	120.555	108.877	-165.843	-138.302	129.725	89.336	0.0018093	0.00035241	0.00027439	812.68	4.4607e-06	3.3024e-06	984.65	263.76	1.2818e-06	6.4886e-06	397.55	157.12	95.568	41.992	2.1933e-06	78.741	0.0002259	0.0002141	5.9512e-05	780.21	2.3185e-06	2.3191e-06	938.88	250.11	2.2872e-06	2.2355e-06	367.1	142.31	88.599	38.506	2.1678e-06	70.522	83.297	-29.567	-76.443	-163.226	-12.493	-76.069	-163.600	-158.381	-166.754	-5.368	-159.085	-155.144	-153.624	-149.425	-80.068	-150.834	-8191	255	
4202.083	1	1	0	0	0.19442	0.11188	0.10444	0.17578	0.081376	0.19749	0.26938	0.15218	0.090907	0.36705	0.21002	0.27371	0.21123	0.068471	0.11189	0.13538	-3.2875	-4.5771	-4.0417	-4.1208	-4.5875	-3.8125	-4.2896	-4.1833	-3.7292	-4.6062	-4.1188	-3.9979	-4.6813	-3.9813	-4.3688	-4.4354	77.812	99.363	166.803	74.860	9.127	123.784	110.777	56.153	36.725	-48.468	103.086	161.943	-142.648	130.841	-68.874	11.973	0.0019562	0.00057206	8.1286e-05	816.32	7.4039e-06	3.5307e-06	994.75	267.07	1.7145e-06	7.656e-06	407.72	161.3	98.251	42.685	3.4781e-06	80.48	0.00020192	0.00018853	5.2296e-05	779.15	2.048e-06	2.0405e-06	941.76	253.35	2.009e-06	1.9732e-06	373.1	145.06	89.94	39.14	2.0311e-06	71.774	90.951	-168.521	-160.991	-163.276	-70.940	-134.048	-163.428	-158.079	33.327	-50.951	-159.140	-154.617	-154.079	-149.435	-99.621	-150.940	-8191	255	
4202.178	1	1	0	0	0.13057	0.25761	0.11219	0.30639	0.069889	0.079738	0.2962	0.006119	0.18163	0.29126	0.044965	0.077852	0.031546	0.12837	0.093381	0.25602	-3.4396	-4.5729	-3.9833	-3.875	-4.5333	-3.8354	-4.2833	-4.4396	-3.7	-4.5687	-4.2063	-4.0542	-4.6271	-3.7875	-4.2562	-4.6	38.534	-120.877	-131.205	49.742	-147.347	43.459	91.329	-118.655	-32.077	157.549	-158.046	-148.967	-162.519	-151.549	-165.265	112.640	0.0019853	0.00015477	0.0001969	816.66	2.3307e-06	2.955e-06	999.58	268.67	4.7747e-06	6.6384e-06	400.27	158.65	95.86	41.896	1.1473e-05	78.223	0.00019641	0.0001898	5.3427e-05	783.67	2.143e-06	2.195e-06	950.72	254.78	2.297e-06	2.2877e-06	371.77	144.08	89.435	38.728	2.4995e-06	70.476	90.785	-41.064	-91.317	-163.074	-87.117	-75.805	-163.825	-158.529	11.973	-49.704	-159.196	-154.911	-153.568	-149.610	-22.123	-150.794	-8191	255	
4202.276	1	1	0	0	0.2477	0.093535	0.22449	0.13946	0.038179	0.22625	0.045559	0.093759	0.059144	0.12751	0.23949	0.26336	0.088228	0.34171	0.19506	0.21587	-3.5146	-4.4708	-4.1958	-3.8854	-4.6188	-3.7667	-4.2958	-4.6729	-3.7792	-4.4604	-4.4792	-3.8312	-4.6604	-3.9437	-3.9104	-4.8125	81.629	71.126	-17.583	164.531	121.712	131.514	43.730	-0.739	-137.302	108.455	118.999	126.264	84.416	175.847	21.671	152.630	0.0017929	0.00030141	0.00016589	813.24	6.449e-07	4.3282e-06	986.19	260.43	3.6492e-06	5.1817e-06	390.15	153.84	93.782	40.751	6.5575e-06	76.26	0.00024363	0.00023802	6.6853e-05	788.46	2.6376e-06	2.6982e-06	946.36	249.88	2.696e-06	2.6932e-06	364.27	140.67	88.41	38.094	2.7427e-06	69.123	84.011	117.559	-80.848	-163.051	163.799	-69.337	-163.207	-158.250	-122.597	-118.829	-159.001	-154.537	-153.608	-149.216	7.194	-151.082	-8191	255	
4202.372	1	1	0	0	0.15965	0.084766	0.12075	0.27699	0.083086	0.055876	0.20715	0.056023	0.13321	0.16938	0.15268	0.19757	0.15149	0.18698	0.17469	0.1755	-3.4188	-4.2104	-4.2729	-3.725	-4.4729	-3.9458	-3.975	-4.65	-3.7625	-4.3167	-4.5417	-3.6896	-4.6458	-4.1333	-3.8458	-4.6896	-23.635	-11.457	6.175	154.202	-30.207	-55.167	135.357	-163.189	-175.768	15.760	159.132	38.440	-166.041	-149.422	-126.735	43.878	0.001868	0.00037087	0.00023356	803.39	5.5763e-06	1.0137e-05	977.6	258.56	9.4853e-06	2.7406e-06	392.56	154.3	94.162	41.214	1.7652e-06	77.179	0.00025372	0.00024469	6.7822e-05	778.11	2.6209e-06	2.6127e-06	935.59	248.12	2.5825e-06	2.5523e-06	363.51	140.73	88.064	38.065	2.4861e-06	69.31	94.152	-144.741	-103.214	-162.913	91.688	-41.514	-163.750	-158.248	-14.919	-25.313	-158.862	-154.838	-153.880	-149.695	104.546	-150.768	-8191	255	
4202.466	1	1	0	0	0.31697	0.069155	0.057811	0.10776	0.072669	0.066185	0.16204	0.06318	0.058558	0.1095	0.096997	0.26066	0.27393	0.15842	0.13016	0.21108	-3.5083	-4.1333	-4.3917	-3.8771	-4.4667	-4.0854	-3.9542	-4.6062	-3.9646	-4.0833	-4.5083	-3.6771	-4.5646	-4.1687	-3.6854	-4.7042	-75.796	-29.038	-170.346	169.654	180.070	80.189	144.140	-113.140	-75.538	-102.758	-144.565	179.238	-124.872	179.095	121.536	-76.663	0.0019899	0.0003958	0.0001382	809.31	2.1485e-06	7.4565e-06	981.37	263.93	3.5265e-06	1.1701e-06	400.3	159.12	97.048	42.45	1.6195e-06	79.908	0.00022708	0.00021918	5.961e-05	776.07	2.2969e-06	2.246e-06	937.31	250.27	2.1609e-06	2.1317e-06	367.45	143.31	89.216	38.921	2.0759e-06	71.341	86.627	-60.785	-140.339	-163.377	-129.933	-49.904	-163.454	-158.579	-90.840	-81.099	-159.177	-155.017	-153.962	-149.676	-18.054	-151.168	-8191	255	
4202.562	1	1	0	0	0.19144	0.21368	0.15613	0.17305	0.082516	0.22492	0.29223	0.13246	0.038786	0.043098	0.13978	0.20083	0.15711	0.10086	0.16617	0.10116	-3.6292	-4.0417	-4.5146	-3.7208	-4.2854	-4.275	-3.8042	-4.8042	-3.8479	-4.0208	-4.8229	-3.7188	-4.4229	-4.3333	-3.8	-4.8187	-141.784	82.602	62.381	137.115	-142.378	-102.109	72.642	89.153	-109.695	23.107	115.147	142.779	68.011	96.884	12.023	160.210	0.0020108	0.00073707	0.00015932	813.31	5.169e-06	2.8541e-06	996.86	267.2	7.7694e-06	5.627e-06	406.37	162.75	98.701	43.241	4.6786e-06	81.332	0.00019458	0.00018402	5.1011e-05	780.04	1.9773e-06	1.9667e-06	944.12	252.46	1.9602e-06	1.9308e-06	371.95	145.66	90.333	39.496	1.9166e-06	72.435	90.127	-56.817	-71.547	-162.872	-84.685	58.666	-163.760	-158.574	-54.278	-65.948	-158.994	-154.934	-153.638	-149.465	-39.778	-150.956	-8191	255	
4202.683	1	1	0	0	0.082724	0.13165	0.13342	0.16642	0.26967	0.097649	0.38153	0.33639	0.21219	0.24182	0.17755	0.055397	0.1857	0.12327	0.23074	0.050989	-3.9208	-3.7562	-4.5542	-3.8333	-4.1813	-4.3354	-3.7583	-4.625	-3.9188	-3.6917	-4.7292	-3.8083	-4.2562	-4.5437	-3.7104	-4.675	71.570	179.306	-63.682	-30.253	48.703	-141.025	115.228	109.920	164.446	-54.804	91.824	118.204	31.820	-74.000	137.078	-159.636	0.0021145	0.00030101	0.0001362	820.01	3.5242e-06	2.0924e-06	994.15	269.18	7.4427e-06	4.6601e-06	403.72	160.06	97.633	42.512	6.5857e-06	79.871	0.00018768	0.00017825	4.8872e-05	782.56	1.9611e-06	1.9471e-06	946.34	253.6	1.9796e-06	1.971e-06	371.46	144.14	89.613	38.939	1.9711e-06	70.966	89.456	-144.397	24.487	-162.971	-128.161	2.012	-163.449	-158.080	-63.515	-29.852	-158.928	-155.004	-153.678	-149.646	-39.888	-151.058	-8191	255	
4202.779	1	1	0	0	0.059515	0.053408	0.089843	0.30068	0.12371	0.069476	0.15119	0.29277	0.058768	0.11313	0.29038	0.13886	0.12058	0.20716	0.14361	0.14999	-3.8563	-3.6729	-4.6562	-3.95	-3.9458	-4.55	-3.8688	-4.5	-4.1208	-3.6646	-4.8125	-3.9729	-4.0479	-4.5813	-3.6375	-4.4292	-138.955	-134.037	-153.567	177.274	101.522	47.917	149.186	89.200	155.378	-57.308	74.872	160.785	135.383	-123.693	-111.906	170.113	0.0020538	0.00045067	0.00021619	819.28	4.5453e-06	4.38e-06	1003.9	271.82	9.168e-06	2.7747e-06	407.08	160.37	97.781	42.447	1.7992e-06	79.645	0.00018774	0.00017843	4.9025e-05	784.9	1.9403e-06	1.9148e-06	948.16	255.82	1.915e-06	1.9239e-06	372.02	143.72	89.763	38.82	1.9222e-06	70.915	87.670	-117.883	-163.244	-162.890	-37.001	-28.255	-163.165	-157.994	-116.454	-45.154	-159.083	-154.818	-153.915	-149.603	-9.349	-151.102	-8191	255	
4202.875	1	1	0	0	0.097413	0.2081	0.27605	0.12899	0.18632	0.30536	0.046747	0.16924	0.027541	0.19178	0.22216	0.36008	0.064371	0.13655	0.15489	0.071294	-4.0542	-3.6917	-4.65	-4.1271	-4.0333	-4.5	-3.8125	-4.1875	-4.3958	-3.6396	-4.6646	-4.1312	-3.8438	-4.7208	-3.7083	-4.2063	2.638	-90.645	-140.927	88.562	106.969	-102.198	133.611	39.625	60.577	-65.668	118.759	177.162	-103.803	-15.615	78.273	112.252	0.0019017	0.00042081	0.00021536	830.45	2.9209e-06	1.7355e-06	1003.5	272.76	2.5163e-06	2.3487e-06	406.21	159.88	97.036	42.54	2.2515e-06	78.868	0.00018628	0.00017698	4.9203e-05	791.32	1.9898e-06	1.9508e-06	950.93	256.46	1.9869e-06	1.9917e-06	372	144.16	89.711	38.739	2.0346e-06	70.679	90.069	-149.951	-151.399	-162.983	-57.625	82.412	-163.606	-158.255	-23.790	-17.526	-159.195	-154.846	-153.856	-149.502	-25.576	-150.783	-8191	255	
4202.947	1	1	0	0	0.047608	0.21925	0.11459	0.12556	0.04013	0.049179	0.075534	0.16376	0.17221	0.14532	0.19223	0.22405	0.14076	0.18834	0.19458	0.27487	-4.2229	-3.5271	-4.6458	-4.1271	-3.6833	-4.6854	-4.1	-4.2167	-4.5646	-3.7354	-4.6021	-4.4563	-3.7375	-4.5542	-3.8312	-4.0354	-141.335	-18.835	39.876	122.880	174.767	49.167	-153.412	119.175	65.405	-97.533	137.797	98.010	-95.469	-165.608	169.825	159.446	0.0020375	0.00084881	9.5304e-05	830.2	2.5723e-06	5.6533e-06	1006.6	268.67	4.7197e-06	1.4049e-06	404.07	159.76	96.665	42.231	5.378e-06	79.364	0.00019719	0.00018612	5.2268e-05	792.52	2.0893e-06	2.05e-06	953.52	254.8	2.0828e-06	2.0549e-06	371.93	143.82	89.669	38.704	2.0368e-06	70.739	86.981	-56.032	181.163	-163.132	-129.415	-61.036	-163.393	-158.535	-41.718	-62.054	-159.022	-154.771	-153.542	-149.500	-51.706	-151.147	-8191	255	
4203.043	1	1	0	0	0.19236	0.088825	0.17579	0.14192	0.14345	0.068858	0.044162	0.28536	0.07668	0.18308	0.2335	0.15944	0.16631	0.22656	0.031209	0.24618	-4.2125	-3.75	-4.3396	-4.6083	-3.7625	-4.6042	-4.0396	-4.0312	-4.5479	-3.7958	-4.3167	-4.325	-3.7354	-4.6542	-4.0646	-3.9167	-140.694	-172.898	-84.888	-175.267	-129.979	-50.231	95.506	77.078	-70.686	106.176	-148.951	145.218	-114.783	74.469	-48.143	-176.064	0.0019295	0.00091891	9.016e-05	828.04	5.2877e-06	4.1749e-06	1003.6	270.56	1.6694e-06	4.4633e-06	407.51	159.75	96.862	42.416	1.4027e-06	79.202	0.00019353	0.00018319	5.0574e-05	791.32	1.9842e-06	1.9576e-06	950.05	254.98	1.9219e-06	1.9123e-06	371.62	143.54	89.469	38.782	1.8983e-06	70.642	88.188	-109.445	-155.530	-162.928	-122.991	36.329	-163.374	-158.210	109.477	156.292	-159.292	-154.768	-153.953	-149.561	20.088	-150.770	-8191	255	
4203.164	1	1	0	0	0.13978	0.14497	0.10448	0.063447	0.093114	0.14393	0.16144	0.13914	0.19406	0.26321	0.18217	0.17541	0.070888	0.14984	0.17161	0.20839	-4.3313	-3.9167	-4.1979	-4.5	-3.7479	-4.4812	-4.0479	-4.0083	-4.5625	-3.6729	-4.3958	-4.5125	-3.725	-4.45	-4.2396	-3.9167	73.246	-35.485	-137.746	73.075	-36.613	113.029	-165.229	7.400	-68.349	-98.849	97.257	137.007	122.598	164.037	57.549	143.772	0.0020213	0.00026692	0.00015856	823.4	3.655e-06	3.794e-06	999.99	268.66	5.0048e-06	2.5409e-06	403.97	159.51	97.48	42.355	6.1392e-06	78.866	0.00018065	0.00017128	4.7989e-05	783.58	1.8821e-06	1.8754e-06	945.11	253.26	1.9076e-06	1.9011e-06	368.96	143.07	89.237	38.673	1.9544e-06	70.353	86.808	-125.675	-108.795	-163.068	-114.018	-68.830	-163.279	-158.235	-68.400	-67.398	-159.300	-155.053	-153.578	-149.320	-84.315	-150.912	-8191	255	
4203.260	1	1	0	0	0.21586	0.081531	0.29029	0.086012	0.073473	0.047927	0.21414	0.14793	0.031034	0.1388	0.27645	0.16985	0.14458	0.23029	0.20489	0.25408	-4.3	-3.8417	-4.0042	-4.5062	-3.6354	-4.5563	-4.3938	-3.7687	-4.5708	-3.8979	-4.2208	-4.5354	-3.9021	-4.4	-4.1875	-3.8063	23.420	152.258	73.510	161.057	113.265	110.313	100.081	132.172	-130.740	1.641	80.053	143.514	69.727	158.702	158.516	134.823	0.0022231	0.00023095	0.00011636	821	3.1581e-06	3.9553e-06	997.43	266.68	3.7524e-06	3.8318e-06	400.83	158.43	97.116	42.19	3.6112e-06	78.713	0.00018791	0.0001781	4.9278e-05	784.44	1.9707e-06	1.9626e-06	944.82	251.32	1.9905e-06	1.9956e-06	367.09	142.83	89.034	38.63	1.9854e-06	70.294	86.259	-49.759	-101.329	-162.660	-86.305	-44.559	-163.523	-158.315	-119.317	-56.103	-159.095	-154.889	-153.760	-149.645	-50.393	-151.059	-8191	255	
4203.356	1	1	0	0	0.12069	0.31362	0.18975	0.16648	0.072442	0.26231	0.039295	0.24364	0.16435	0.24967	0.29612	0.18509	0.29901	0.061526	0.43053	0.22861	-4.45	-3.8937	-4.0437	-4.675	-3.8375	-4.3938	-4.4917	-3.725	-4.5896	-3.9625	-4.0354	-4.6312	-3.8875	-4.2229	-4.4104	-3.8646	127.910	-2.566	-59.279	164.145	105.707	39.777	116.393	143.097	125.171	-29.422	93.907	-169.302	166.385	-157.695	95.402	154.038	0.0017401	9.4524e-05	9.6805e-05	825.54	1.4751e-06	6.3792e-06	1000	267.22	2.7692e-06	3.1011e-06	401.1	161.06	97.554	42.747	7.7105e-06	80.264	0.0001887	0.00017829	4.9826e-05	785.11	1.9321e-06	1.9344e-06	947.14	251.2	1.9202e-06	1.9405e-06	367.74	144.06	89.446	38.9	1.933e-06	71.403	87.745	-91.030	-142.244	-162.671	-109.247	-6.748	-163.347	-158.526	-77.148	-15.020	-159.197	-155.107	-153.607	-149.380	-36.367	-151.169	-8191	255	
4203.475	1	1	0	0	0.19216	0.10148	0.064649	0.072306	0.081706	0.091968	0.21281	0.23406	0.075563	0.15547	0.11472	0.17142	0.13147	0.11328	0.079696	0.35489	-4.2604	-4.0854	-3.7604	-4.7958	-3.8937	-4.4208	-4.5917	-3.75	-4.5125	-4.3063	-3.9146	-4.7438	-3.85	-4.0312	-4.5854	-3.9771	-14.682	-121.669	-63.834	134.719	-81.778	42.425	119.642	102.254	-40.943	175.803	172.112	157.276	160.669	0.959	144.283	161.323	0.0019762	0.00064453	0.000108	825.05	2.8311e-06	2.9818e-06	1005.2	267.48	4.2406e-06	4.9003e-06	401.26	159.75	96.615	42.404	2.7201e-06	79.663	0.00018613	0.00017708	4.9144e-05	786.43	1.9387e-06	1.9466e-06	949.66	251.51	1.9492e-06	1.9547e-06	367.98	143.88	89.299	38.843	1.9742e-06	70.753	80.420	-100.884	-117.769	-163.135	-79.551	68.224	-163.699	-158.424	45.349	15.066	-159.248	-154.721	-153.967	-149.877	-39.794	-151.243	-8191	255	
4203.547	1	1	0	0	0.14042	0.33253	0.12147	0.094932	0.28731	0.13701	0.17088	0.12932	0.14722	0.23321	0.1767	0.16529	0.13113	0.12933	0.15993	0.19364	-4.2229	-4.2417	-3.6604	-4.5917	-3.8833	-4.1292	-4.7479	-3.7708	-4.3396	-4.35	-3.8417	-4.6979	-3.9542	-4.0437	-4.5229	-3.7521	-167.055	148.299	-78.691	-28.960	-101.152	-102.196	89.931	106.484	151.187	17.251	59.075	98.299	45.272	182.492	121.844	163.637	0.001994	0.00045938	0.00016785	820.58	3.3765e-06	3.369e-06	996.78	266.99	4.0477e-06	4.3326e-06	403.68	160.06	97.032	43.034	2.4395e-06	79.89	0.00018882	0.00017638	4.9577e-05	782.26	1.933e-06	1.9066e-06	944.1	251.52	1.8914e-06	1.8847e-06	369.15	143.97	89.49	39.127	1.869e-06	71.178	89.280	-120.803	-125.257	-163.088	-45.951	-13.185	-163.644	-158.366	-90.354	-33.963	-159.132	-155.255	-153.780	-149.875	-53.676	-151.083	-8191	255	
4203.643	1	1	0	0	0.10094	0.22868	0.18418	0.17957	0.12579	0.10365	0.021461	0.27663	0.23882	0.19524	0.10034	0.11021	0.2179	0.18504	0.23943	0.1445	-4.075	-4.3458	-3.6625	-4.6208	-3.9792	-3.9188	-4.65	-3.8646	-4.1021	-4.3458	-3.5771	-4.6333	-4.1	-3.8792	-4.3417	-4.0208	114.004	95.738	66.537	127.341	85.314	51.728	63.469	18.716	66.044	-75.378	-92.773	4.895	-87.250	131.203	172.197	156.318	0.0020835	0.00020906	0.00024106	824.51	3.4971e-06	1.586e-06	1000.7	270.32	3.573e-06	6.1731e-06	407.52	161.48	98.75	42.7	4.4299e-06	80.107	0.00017985	0.0001702	4.7321e-05	784.93	1.8649e-06	1.873e-06	948.18	254.07	1.8729e-06	1.8512e-06	371.76	144.92	90.244	39.175	1.8825e-06	71.389	85.675	-164.265	-96.607	-162.902	155.022	-28.460	-163.320	-158.395	-34.090	-61.191	-159.276	-154.982	-153.767	-149.694	-80.377	-150.910	-8191	255	
4203.763	1	1	0	0	0.18136	0.20215	0.084902	0.19606	0.1305	0.17808	0.17666	0.49479	0.18849	0.030803	0.086358	0.33832	0.18182	0.17398	0.12512	0.32332	-3.825	-4.3729	-3.625	-4.4896	-4.1854	-3.8333	-4.65	-3.9021	-4.1333	-4.3979	-3.7854	-4.375	-4.1792	-3.8667	-4.5479	-3.8896	147.452	79.826	-70.841	89.831	22.800	-43.167	112.819	164.856	-64.791	-103.530	-59.119	136.610	171.011	-110.015	-0.195	70.417	0.0019011	0.00013156	0.0002106	830.47	2.7451e-06	5.26e-06	1010.7	272.98	5.5667e-06	2.4613e-06	410.65	161.52	98.822	43.053	3.6773e-06	80.488	0.00018125	0.00016993	4.7628e-05	791.41	1.8876e-06	1.9016e-06	955.45	256.6	1.9123e-06	1.9016e-06	374.39	145.26	90.5	39.286	1.9506e-06	71.625	88.728	157.284	-67.406	-162.951	-114.713	-33.876	-163.265	-158.247	-21.923	-48.200	-158.984	-155.065	-153.708	-149.541	-20.904	-151.115	-8191	255	
4203.860	1	1	0	0	0.070104	0.1071	0.082738	0.15409	0.10985	0.063425	0.044424	0.069756	0.040047	0.025869	0.1393	0.1409	0.13893	0.15037	0.09709	0.19207	-3.5563	-4.3542	-3.675	-4.3333	-4.3417	-3.7229	-4.7208	-4.025	-3.7833	-4.5146	-3.6958	-4.2688	-4.3729	-3.7646	-4.5792	-4.1312	67.247	137.578	160.927	-172.068	-76.443	49.387	142.526	-59.787	-167.264	-77.895	110.186	122.358	-71.464	57.263	-168.867	121.614	0.0024298	0.00029012	0.00020294	835.53	5.4833e-06	2.5859e-06	1014.5	273.48	8.2691e-06	1.4804e-06	409.85	161.05	98.113	42.799	2.3763e-06	79.877	0.0001899	0.0001768	4.9549e-05	796.06	1.9698e-06	1.9469e-06	960.96	256.94	1.9576e-06	1.9161e-06	374.72	144.98	90.346	39.171	1.9265e-06	71.285	85.202	-70.549	-128.545	-162.838	-101.973	-173.632	-163.353	-158.177	-89.772	-48.094	-159.010	-155.078	-153.705	-149.373	-13.885	-150.826	-8191	255	
4203.956	1	1	0	0	0.099421	0.24744	0.084224	0.041594	0.11315	0.064158	0.3227	0.072434	0.051312	0.090476	0.074096	0.28936	0.046779	0.072528	0.30714	0.21384	-3.6396	-4.4021	-3.7354	-4.4083	-4.425	-3.6417	-4.5917	-4.2604	-3.9313	-4.4729	-3.8542	-4.0813	-4.3708	-3.8438	-4.4062	-4.2271	159.059	20.635	47.169	-149.640	124.440	111.202	161.185	-162.397	68.301	-78.471	55.798	-173.125	-156.162	32.275	-30.274	96.964	0.0022116	0.00030099	7.4715e-05	834.73	2.5751e-06	7.8819e-06	1007.7	271.99	4.3096e-06	2.3797e-06	407.02	160.81	97.514	42.737	5.0635e-06	79.488	0.00018569	0.00017378	4.8204e-05	794.1	1.8943e-06	1.8986e-06	954.96	256.59	1.9089e-06	1.8821e-06	372.58	144.26	89.77	38.937	1.9389e-06	70.777	91.206	125.868	119.393	-163.282	-108.031	-58.400	-163.233	-158.086	-25.212	-84.240	-158.820	-154.825	-153.829	-149.394	-41.203	-150.913	-8191	255	
4204.076	1	1	0	0	0.11051	0.063741	0.12562	0.19998	0.18361	0.096131	0.2119	0.20106	0.31846	0.060846	0.16445	0.17296	0.16715	0.16072	0.23804	0.3412	-3.5604	-4.4062	-3.8271	-4.2438	-4.3187	-3.7125	-4.6438	-4.1208	-3.8563	-4.5958	-4.0375	-4.0271	-4.5354	-3.675	-4.3417	-4.3458	-72.105	-165.135	10.989	77.219	111.901	-130.705	112.116	124.214	116.547	-90.854	140.278	157.620	-163.794	128.396	47.574	125.357	0.002111	0.00018132	0.00013506	836.6	4.8978e-06	3.9543e-06	1007.8	271.39	7.5128e-06	2.3661e-06	408.4	160.18	97.641	42.417	6.8632e-06	78.663	0.00018573	0.00017396	4.8838e-05	795.6	1.9221e-06	1.9413e-06	956.97	256.42	1.9754e-06	1.9704e-06	373.17	143.68	89.787	38.671	1.9904e-06	70.219	87.467	-80.882	132.195	-163.017	-57.247	-87.776	-163.330	-158.320	-32.158	-98.669	-159.110	-154.882	-153.741	-149.489	-67.707	-150.967	-8191	255	
4204.173	1	1	0	0	0.19653	0.21973	0.09262	0.19335	0.14489	0.12214	0.12968	0.21954	0.053045	0.24135	0.12122	0.12881	0.13007	0.026819	0.22988	0.091981	-3.225	-4.6292	-4.075	-4.0125	-4.5312	-3.8229	-4.4771	-4.4521	-3.6333	-4.5	-4.1854	-3.9042	-4.6937	-3.8187	-4.1229	-4.4646	-72.167	-46.810	-148.033	102.461	-130.503	163.129	135.649	81.284	-22.605	20.898	145.946	-165.002	-142.632	-10.059	-73.309	76.835	0.0017679	0.0005269	0.00010808	836.62	2.7175e-06	2.2766e-06	1015.6	273.43	5.9325e-06	3.7054e-06	409.69	161.78	98.199	42.532	3.0225e-06	79.118	0.00019147	0.00017988	4.987e-05	800.13	1.9494e-06	1.9341e-06	963.38	257.43	1.9191e-06	1.9144e-06	374.53	144.64	90.078	38.857	1.908e-06	70.85	91.081	-37.476	-120.479	-163.056	-33.630	163.240	-163.377	-158.125	-48.033	-143.869	-158.918	-154.783	-153.742	-149.261	-36.455	-150.904	-8191	255	
4204.244	1	1	0	0	0.17207	0.044024	0.10631	0.10994	0.31826	0.17219	0.25864	0.10382	0.11137	0.038841	0.17089	0.19396	0.20744	0.23419	0.21511	0.096661	-3.3937	-4.5167	-4.0229	-3.9188	-4.55	-3.75	-4.1417	-4.575	-3.65	-4.4187	-4.1312	-3.825	-4.5958	-3.8312	-3.925	-4.4896	-86.800	108.225	-5.036	163.975	34.853	160.256	106.990	-134.227	131.821	112.949	-125.188	-74.124	61.508	-146.032	-32.212	131.011	0.0019439	0.00038037	5.8571e-05	838.01	3.1688e-06	2.0168e-06	1022.9	274.5	2.7785e-06	2.9257e-06	411.08	160.88	98.589	42.845	3.3459e-06	79.398	0.00018404	0.00017309	4.853e-05	800.99	1.8979e-06	1.8822e-06	965.52	258.63	1.915e-06	1.8977e-06	375.1	144.65	90.207	39.015	1.9157e-06	70.805	93.582	-108.026	173.126	-162.756	-43.261	-142.817	-163.163	-158.145	1.242	31.667	-159.036	-154.900	-153.593	-149.268	33.360	-150.798	-8191	255	
4204.340	1	1	0	0	0.33535	0.13233	0.095329	0.25104	0.059489	0.18073	0.015445	0.25092	0.10922	0.091361	0.087979	0.090076	0.18214	0.2874	0.016337	0.050772	-3.3125	-4.3271	-4.2937	-3.8958	-4.4854	-3.9313	-4.175	-4.6479	-3.5104	-4.2146	-4.3063	-3.8417	-4.4563	-4.1292	-3.85	-4.6104	168.736	102.447	145.760	169.407	110.936	31.426	6.997	160.293	-65.050	-109.795	164.025	181.569	-169.546	-163.757	-22.015	20.120	0.0021663	0.00031852	0.00010577	837.19	3.5477e-06	4.0323e-06	1011.3	272.36	5.3658e-06	3.2125e-06	406.12	158.71	98.128	42.493	5.2228e-06	78.825	0.00018338	0.00017469	4.7718e-05	796.37	1.8921e-06	1.9003e-06	956.95	255.73	1.908e-06	1.8969e-06	370.75	142.91	89.659	38.756	1.9052e-06	70.254	90.550	-167.995	-116.221	-163.136	-67.075	-95.130	-163.457	-158.138	-22.289	14.641	-159.048	-155.020	-154.013	-149.263	-22.275	-151.160	-8191	255	
4204.459	1	1	0	0	0.13132	0.066405	0.058894	0.23255	0.10653	0.18654	0.16591	0.24506	0.065946	0.10829	0.37927	0.050765	0.18074	0.2805	0.17875	0.23054	-3.5417	-3.9313	-4.2958	-3.6708	-4.4	-3.9437	-4.0396	-4.7146	-3.7188	-4.175	-4.4688	-3.7292	-4.4375	-4.1083	-3.6979	-4.6292	132.139	-170.674	135.098	-161.563	158.934	2.753	40.132	151.599	-71.283	-114.620	130.240	15.758	-17.229	109.628	61.442	151.853	0.0021299	0.00041399	8.8827e-05	837.91	3.3231e-06	3.8649e-06	1008.4	267.88	2.9476e-06	1.4074e-06	402.3	157.08	96.73	42.383	2.5495e-06	78.266	0.00018554	0.00017444	4.8783e-05	793.16	1.9298e-06	1.9499e-06	953.66	252.73	1.9867e-06	2.0107e-06	367.94	142.21	89.132	38.584	2.0516e-06	69.806	97.397	-99.158	162.792	-163.068	-114.870	17.534	-163.637	-158.209	19.385	3.939	-159.286	-155.032	-153.891	-149.429	-39.135	-150.789	-8191	255	
4204.555	1	1	0	0	0.2428	0.032409	0.22695	0.16243	0.1023	0.21302	0.14225	0.052751	0.13554	0.15821	0.085319	0.2425	0.21178	0.14121	0.099315	0.089708	-3.4708	-4.2792	-4.55	-3.7896	-4.3229	-4.1229	-3.7875	-4.6917	-3.6292	-4.0625	-4.4021	-3.6771	-4.3688	-4.3938	-3.8375	-4.7771	68.493	-174.528	-106.784	163.864	121.428	132.239	99.341	141.347	-108.679	-71.062	136.634	142.757	179.321	113.015	-140.842	84.680	0.0019716	0.00063408	8.6553e-05	828.5	4.0548e-06	5.5157e-06	1002	266.26	1.4317e-06	2.5646e-06	398.61	155.62	96.378	41.512	5.7873e-06	77.544	0.00019546	0.00018906	5.2489e-05	793.31	2.107e-06	2.1039e-06	953.1	251.34	2.1592e-06	2.1609e-06	366.28	141.32	88.949	38.227	2.197e-06	69.457	87.631	-33.743	-128.310	-162.864	-27.628	28.157	-163.606	-158.344	-131.255	33.156	-159.015	-155.131	-153.413	-149.201	-24.547	-150.965	-8191	255	
4204.652	1	1	0	0	0.24345	0.065756	0.11175	0.14791	0.10965	0.12659	0.11915	0.11287	0.19073	0.067656	0.118	0.16582	0.20564	0.18056	0.073008	0.24789	-3.6479	-3.8542	-4.5083	-3.6771	-4.2812	-4.3063	-3.7458	-4.6729	-3.8271	-3.8042	-4.5771	-3.6604	-4.1271	-4.5167	-3.7208	-4.6417	89.222	109.537	136.732	-118.967	-156.746	-127.764	158.613	133.532	-9.675	110.171	33.080	-104.239	-161.210	-133.937	19.395	92.188	0.0020064	0.00073122	0.0001134	830.8	2.6707e-06	1.2359e-06	1006.6	265.37	2.9316e-06	3.8819e-06	398.4	156.86	96.434	41.92	4.0773e-06	77.379	0.00020993	0.00020184	5.5092e-05	796.9	2.1799e-06	2.1663e-06	956.09	251.46	2.2047e-06	2.1761e-06	366.45	142.02	88.916	38.284	2.1817e-06	69.259	86.048	-110.666	-163.417	-162.914	-93.105	-61.835	-163.421	-158.225	-17.918	33.618	-159.181	-154.740	-154.099	-149.231	20.638	-150.917	-8191	255	
4204.748	1	1	0	0	0.25245	0.092546	0.054994	0.26038	0.151	0.11412	0.23072	0.17248	0.034368	0.055123	0.082105	0.18938	0.2163	0.27482	0.12378	0.23245	-3.9042	-3.7771	-4.4042	-3.9708	-4.2396	-4.3542	-3.9042	-4.575	-4.1979	-3.825	-4.5917	-3.8563	-4.0938	-4.5	-3.6604	-4.425	88.861	6.021	-154.105	130.041	-120.616	-85.507	80.546	-129.809	85.192	-149.546	-22.696	87.679	161.331	-150.187	117.632	53.641	0.001851	0.0005088	0.00012993	832.61	4.1364e-06	7.4451e-06	1000.9	265.1	1.6914e-06	1.4159e-06	393.61	155.95	95.654	41.283	4.5356e-06	76.737	0.00020654	0.00019649	5.428e-05	796.22	2.1657e-06	2.1292e-06	951.59	250.33	2.1675e-06	2.1407e-06	363.51	140.61	88.449	38.034	2.207e-06	68.624	83.597	-146.778	-112.442	-162.825	-174.709	-140.504	-163.276	-158.247	-50.139	-105.507	-158.997	-155.015	-153.482	-149.260	-39.699	-150.990	-8191	255	
4204.844	1	1	0	0	0.080296	0.15802	0.021938	0.089103	0.109	0.090927	0.18498	0.23168	0.17364	0.16116	0.048339	0.12311	0.23872	0.076026	0.1207	0.12593	-3.9938	-3.7438	-4.6312	-4.0604	-4.0646	-4.5021	-3.775	-4.4688	-4.3208	-3.7125	-4.6438	-4.0375	-4.0354	-4.5188	-3.8292	-4.3187	127.080	-140.989	151.989	172.259	-58.987	-161.594	51.289	57.183	-19.591	-6.784	169.239	-93.856	172.422	55.137	155.280	130.651	0.001948	0.00027181	0.00017743	823.67	4.0169e-06	3.3409e-06	992.87	263.18	6.1655e-06	5.968e-06	391.23	154.3	94.54	41.059	4.0455e-06	75.963	0.00021093	0.00020186	5.6332e-05	789.04	2.2275e-06	2.2172e-06	946.02	248.59	2.2493e-06	2.2749e-06	361.75	139.98	88.037	37.866	2.3551e-06	68.332	92.519	-101.952	-151.754	-162.896	-87.337	-87.608	-163.462	-158.541	-66.681	-111.027	-159.193	-154.938	-153.788	-149.481	-43.168	-150.880	-8191	255	
4204.940	1	1	0	0	0.20353	0.1595	0.078057	0.14286	0.019511	0.12437	0.28846	0.1469	0.060829	0.087816	0.18912	0.07833	0.26457	0.15032	0.30505	0.23246	-3.8917	-3.7042	-4.4583	-4.1854	-3.9146	-4.7104	-3.9688	-4.2583	-4.4354	-3.7458	-4.6854	-4.0146	-3.9104	-4.6229	-3.8229	-4.3708	-83.751	179.113	-130.503	-135.756	-119.388	46.783	134.648	-148.313	93.698	0.468	130.676	142.447	27.414	-165.047	126.612	134.698	0.0017378	0.001103	0.00026767	821.57	1.7504e-06	5.5131e-06	994.25	261.28	7.386e-06	8.3906e-06	389.75	153.18	93.863	40.535	7.2239e-06	75.368	0.00022581	0.00021757	6.0461e-05	791.03	2.4042e-06	2.4118e-06	946.54	248.36	2.4111e-06	2.4049e-06	361.58	139.26	87.562	37.503	2.4158e-06	67.731	83.251	-114.480	-105.749	-163.140	49.375	-76.246	-163.551	-158.368	-69.775	-75.864	-159.111	-154.416	-153.581	-149.463	-35.675	-151.061	-8191	255	
4205.036	1	1	0	0	0.077733	0.17336	0.12953	0.3133	0.04463	0.17283	0.047955	0.036019	0.047433	0.13053	0.37018	0.02986	0.078674	0.1744	0.22626	0.14178	-4.1625	-3.5187	-4.4437	-4.2354	-3.8063	-4.6542	-3.9458	-4.1167	-4.6062	-3.6854	-4.4375	-4.3771	-3.6792	-4.5417	-3.8	-3.9896	-34.595	-87.238	13.604	105.114	-19.203	-25.879	151.743	-160.513	45.628	-22.692	23.856	36.208	103.527	99.958	79.374	-121.925	0.0019492	0.00085905	0.00011776	822.36	7.9731e-06	3.7842e-06	997.93	260.25	7.6037e-06	6.1701e-06	390.99	154.48	93.763	40.807	2.0077e-06	75.683	0.00022684	0.00022207	6.0936e-05	792.08	2.3732e-06	2.3523e-06	949.55	247.69	2.3515e-06	2.3344e-06	362.15	139.66	87.629	37.687	2.3789e-06	68.105	87.977	-138.198	-95.197	-162.903	-105.091	5.446	-163.441	-158.236	-59.106	-73.173	-159.181	-154.536	-153.892	-149.067	-27.783	-150.985	-8191	255	
4205.157	1	1	0	0	0.072238	0.169	0.29554	0.16638	0.27212	0.18462	0.29215	0.037455	0.31123	0.22144	0.36122	0.1639	0.10844	0.069887	0.11474	0.27581	-4.3063	-3.5125	-4.3104	-4.2583	-3.7896	-4.5854	-4.0167	-4.0167	-4.4146	-3.5771	-4.325	-4.3792	-3.6854	-4.4083	-3.9938	-3.9583	-164.156	-75.787	91.315	61.111	-20.185	-104.289	106.972	-41.027	138.312	-115.254	141.397	99.425	-132.345	74.674	116.536	97.801	0.0019084	0.00024105	0.00012428	820.72	2.9258e-06	4.0861e-06	987.6	259.06	4.1443e-06	1.0233e-06	386.87	152.2	92.86	40.187	2.938e-06	74.267	0.00022235	0.00021697	6.0501e-05	788.77	2.3751e-06	2.3608e-06	941.97	245.36	2.3804e-06	2.3927e-06	358.51	138.37	86.889	37.273	2.4299e-06	67.206	88.422	-43.309	-116.997	-162.868	183.444	-33.265	-163.406	-158.280	8.961	-92.435	-159.123	-154.410	-153.636	-149.694	-101.703	-150.913	-8191	255	
4205.251	1	1	0	0	0.1005	0.03989	0.089008	0.078151	0.09432	0.10428	0.26351	0.16538	0.080591	0.047891	0.30397	0.18609	0.21755	0.15674	0.17789	0.26168	-4.3042	-3.5979	-4.1896	-4.5042	-3.6667	-4.5333	-4.1937	-3.7896	-4.6854	-3.7292	-4.0375	-4.5354	-3.7375	-4.5396	-4.0083	-3.8667	-173.843	51.841	-71.889	68.769	-22.718	174.052	111.374	130.837	145.657	34.326	170.314	59.461	176.378	9.898	-44.607	-68.296	0.0020287	0.00059684	0.00021984	805.08	4.2785e-06	3.7651e-06	975.31	256.8	1.6291e-06	3.3303e-06	383.62	151.37	93.177	40.14	6.5081e-06	74.763	0.00022894	0.00022057	6.174e-05	778.35	2.4057e-06	2.4305e-06	933.83	243.6	2.4192e-06	2.4111e-06	356.62	137.69	86.737	37.192	2.3707e-06	67.232	77.119	-102.111	-117.538	-162.938	-115.477	-72.492	-163.278	-158.378	-102.803	-55.004	-159.251	-154.606	-153.739	-149.588	-97.214	-150.951	-8191	255	
4205.347	1	1	0	0	0.33288	0.29019	0.12561	0.1144	0.20163	0.10379	0.087582	0.030553	0.07492	0.15776	0.083056	0.2618	0.16635	0.03223	0.26215	0.13998	-4.1979	-3.9729	-4.0625	-4.6896	-3.6312	-4.2958	-4.3708	-3.8125	-4.5229	-3.9333	-4.0437	-4.5521	-3.6104	-4.3271	-4.3833	-3.8646	-130.325	175.929	-112.319	77.626	38.177	-102.125	13.791	76.932	-32.730	82.875	5.152	129.228	128.411	-138.598	116.804	-114.458	0.0019368	0.00043726	5.4513e-05	806.37	5.6215e-06	6.907e-06	974.51	255.12	4.0191e-06	4.4568e-06	384.43	152.67	93.64	40.519	1.9502e-06	75.443	0.00022464	0.00021204	5.9276e-05	776.03	2.3345e-06	2.3413e-06	931.44	243.08	2.3586e-06	2.3493e-06	356.41	138.16	86.916	37.468	2.356e-06	67.847	90.666	-136.007	-88.324	-162.988	-132.578	-26.855	-163.471	-158.441	-41.450	33.912	-159.027	-154.959	-153.707	-149.686	-128.730	-151.030	-8191	255	
4205.445	1	1	0	0	0.18289	0.13135	0.088455	0.22952	0.15246	0.096309	0.12368	0.031525	0.025991	0.27752	0.34222	0.065497	0.17708	0.12809	0.24753	0.19213	-4.2854	-3.9229	-3.7021	-4.5583	-3.4583	-4.2188	-4.3833	-3.7833	-4.6167	-4.1583	-4.0729	-4.6292	-3.7104	-4.1354	-4.4229	-3.7625	2.231	176.627	-85.609	179.411	-153.983	165.857	157.194	150.566	-59.737	174.178	-159.360	181.646	149.466	-68.318	115.313	120.272	0.0018906	0.0003963	4.6613e-05	809.8	5.4744e-06	5.4245e-06	980.41	258.62	1.0239e-05	4.3229e-06	394.01	156.39	95.463	42.158	5.5651e-06	78.702	0.0002202	0.000213	5.8016e-05	777.66	2.2558e-06	2.2269e-06	932.64	245.03	2.1431e-06	2.1013e-06	361.28	141.28	88.216	38.447	1.9997e-06	70.201	89.614	-5.745	-155.336	-162.852	-87.277	23.704	-163.334	-158.114	-66.143	-53.134	-159.376	-154.779	-153.516	-149.399	-27.644	-151.105	-8191	255	
4205.540	1	1	0	0	0.13351	0.06192	0.081202	0.25674	0.19407	0.19639	0.10226	0.16527	0.20254	0.077921	0.098015	0.058808	0.13627	0.19451	0.1019	0.30508	-4.1667	-3.925	-3.7979	-4.7937	-3.8187	-4.0021	-4.5292	-3.7021	-4.4104	-4.1896	-3.875	-4.6438	-3.9458	-4.0125	-4.3833	-3.6458	131.214	-96.178	-74.236	-120.372	-44.449	111.588	67.454	62.409	85.677	158.799	26.746	90.027	169.752	18.123	-51.948	98.070	0.0019443	0.00065193	0.00011172	807.54	5.5127e-06	2.3192e-06	987.22	265.15	4.6607e-06	1.6023e-06	397.3	157.42	96.179	42.079	7.3781e-06	77.707	0.00018858	0.00018047	5.0108e-05	775.4	1.9829e-06	1.982e-06	936.23	250.12	2.0004e-06	2.0183e-06	366.02	142.21	88.589	38.535	2.0857e-06	69.377	87.224	-73.203	-131.560	-162.957	-82.582	-27.962	-163.308	-158.045	144.561	49.759	-159.046	-154.359	-153.724	-149.483	-83.670	-150.888	-8191	255	
4205.636	1	1	0	0	0.10299	0.25401	0.15855	0.090052	0.084587	0.17043	0.01462	0.1563	0.14069	0.23988	0.13358	0.24517	0.11468	0.19539	0.12496	0.25166	-4.075	-4.2937	-3.6521	-4.6375	-3.8271	-4.0083	-4.7354	-3.6521	-4.2937	-4.275	-3.7542	-4.6021	-3.9771	-3.7938	-4.6562	-3.7729	70.792	153.719	162.071	63.723	67.669	141.530	-21.603	120.925	81.896	142.379	88.306	-153.213	141.853	8.714	75.218	26.896	0.0020964	0.00054554	0.00025465	818.3	4.788e-06	5.6961e-06	990.3	267.85	3.6809e-06	1.746e-06	398.1	155.75	95.352	41.401	4.9134e-06	76.822	0.00020315	0.00019483	5.478e-05	785.71	2.2116e-06	2.2196e-06	943.43	253.31	2.2648e-06	2.2373e-06	366.42	140.82	88.512	38.274	2.2305e-06	69.064	89.433	-60.977	-164.504	-162.817	-4.857	-3.095	-163.273	-158.524	-24.191	71.643	-159.105	-154.710	-153.760	-149.869	-94.603	-150.990	-8191	255	
4205.756	1	1	0	0	0.08183	0.16716	0.21329	0.11031	0.15635	0.17787	0.080774	0.11772	0.15748	0.12343	0.039465	0.14391	0.28683	0.26184	0.096607	0.067095	-3.8229	-4.4208	-3.8271	-4.6458	-4.2667	-3.9062	-4.6583	-3.8354	-4.0292	-4.2937	-3.7896	-4.5979	-4.1917	-3.8542	-4.625	-3.8479	-132.301	170.204	82.404	-57.047	162.004	82.216	-82.081	112.158	48.109	-93.698	73.541	-83.060	-102.926	42.531	90.263	86.061	0.0020405	0.00019136	0.00024631	820.9	4.7722e-06	3.3184e-06	993.02	270.66	4.2525e-06	7.7136e-06	401.38	157.08	96.749	42.174	5.6074e-06	78.523	0.0002109	0.00019938	5.5142e-05	786.04	2.1509e-06	2.1267e-06	944.71	255.11	2.128e-06	2.1113e-06	369.42	142.46	89.212	38.713	2.1137e-06	70.202	83.827	-16.653	-170.461	-163.078	-84.795	-79.290	-163.566	-158.208	-60.688	-94.352	-159.238	-154.856	-153.627	-149.405	26.756	-150.786	-8191	255	
4205.853	1	1	0	0	0.1563	0.066749	0.21005	0.30065	0.032242	0.16461	0.038028	0.10271	0.12348	0.12976	0.16289	0.1572	0.087027	0.2208	0.088568	0.21135	-3.7354	-4.5896	-3.6437	-4.5771	-4.1854	-3.7708	-4.6333	-3.8729	-4.0813	-4.4896	-3.7625	-4.4833	-4.3021	-3.7896	-4.5583	-3.9458	63.570	131.353	-38.963	104.650	59.444	24.627	107.710	38.968	-158.732	27.592	98.569	63.430	-157.647	-18.804	152.181	48.553	0.0019075	0.00041687	0.0001846	821.94	2.924e-06	9.2397e-07	997.39	271.74	5.3709e-06	4.4755e-06	404.54	157.65	96.15	42.187	5.9274e-06	78.507	0.00020329	0.00019447	5.3866e-05	787.49	2.1381e-06	2.1737e-06	947.45	257.76	2.2252e-06	2.2345e-06	372.06	142.69	89.421	38.841	2.3042e-06	70.237	76.972	-133.237	-109.995	-162.891	-173.798	16.279	-163.299	-158.380	-66.366	-55.341	-158.955	-154.536	-153.155	-149.060	-39.925	-150.915	-8191	255	
4205.949	1	1	0	0	0.066892	0.23177	0.29756	0.11233	0.082023	0.17443	0.040026	0.15982	0.16023	0.057126	0.14183	0.30652	0.056508	0.17298	0.1708	0.1003	-3.7708	-4.5875	-3.5667	-4.2854	-4.2896	-3.6437	-4.6208	-4.0083	-3.8729	-4.4354	-3.7042	-4.275	-4.4437	-3.6417	-4.4771	-4.3271	-71.169	79.288	52.748	160.477	-173.004	-174.226	-11.600	61.809	122.164	9.449	136.796	72.802	86.921	168.810	-76.519	70.333	0.0018983	7.6729e-05	0.00018681	823.32	5.1183e-06	8.6991e-06	1000.6	270.59	4.4927e-06	4.4394e-06	402.12	157.64	96.482	42.132	3.7212e-06	78.13	0.00021894	0.0002098	5.8395e-05	791.8	2.2586e-06	2.2858e-06	952.41	257.52	2.287e-06	2.2478e-06	370.29	142.35	89.277	38.64	2.2176e-06	69.922	85.504	-175.721	-162.603	-162.804	-123.133	-38.441	-163.185	-158.224	-14.562	68.579	-158.904	-154.841	-153.587	-149.497	-106.092	-151.017	-8191	255	
4206.045	1	1	0	0	0.21786	0.073092	0.13118	0.036416	0.17417	0.10698	0.27345	0.079704	0.19605	0.016702	0.17063	0.33329	0.18557	0.25721	0.22684	0.1298	-3.4313	-4.5083	-3.8021	-4.3104	-4.4833	-3.8167	-4.625	-4.1479	-3.9146	-4.6062	-4	-4.1396	-4.6646	-3.8646	-4.3812	-4.4667	-162.501	58.177	47.729	3.610	-109.775	114.665	166.112	-23.658	3.627	-69.280	115.658	-148.397	-148.794	109.215	16.006	37.056	0.0021251	0.00087498	7.2418e-05	822.37	6.1331e-06	3.3941e-06	991.23	271.49	6.9901e-06	7.8789e-06	406.33	156.84	97.29	42.344	1.587e-06	77.932	0.00020829	0.00019726	5.4827e-05	788.73	2.128e-06	2.1335e-06	945.35	257.83	2.1219e-06	2.1213e-06	371.5	142.37	89.509	38.796	2.1428e-06	69.789	82.457	-133.570	173.933	-162.973	-53.120	-89.936	-163.294	-158.394	-58.767	-40.075	-158.955	-154.856	-153.600	-149.432	157.390	-150.973	-8191	255	
4206.141	1	1	0	0	0.13989	0.11349	0.21498	0.0526	0.29367	0.10238	0.21451	0.065858	0.026168	0.14099	0.27872	0.16593	0.17903	0.071481	0.057025	0.092698	-3.475	-4.5312	-3.6688	-4.1271	-4.4854	-3.6562	-4.3313	-4.2146	-3.6646	-4.6	-3.9021	-4.0875	-4.5896	-3.5938	-4.3042	-4.5687	152.941	7.175	-144.448	-160.330	128.375	-42.002	73.605	-12.155	-168.330	-98.327	83.868	-164.772	-148.091	160.813	132.219	165.975	0.0020338	0.00014736	0.00021017	827.78	3.4606e-06	2.0402e-06	999.72	272.66	7.6278e-06	3.8868e-06	403	157.02	96.136	41.97	8.8517e-06	77.173	0.00020625	0.00019656	5.4963e-05	793.34	2.1782e-06	2.184e-06	951.45	258.65	2.2564e-06	2.2345e-06	370.63	141.94	89.263	38.546	2.2404e-06	69.394	85.283	38.756	-113.213	-163.226	139.623	-9.426	-163.680	-158.314	-59.542	33.188	-159.074	-154.769	-153.645	-149.347	-22.253	-150.808	-8191	255	
#DATA ENDS
