BOXY.EXE: ISS Imagent and Oximeter Data Acquisition Program Version 0.80
Ascii Record File

#ACQ INFORMATION
2  Detector Channels 
16  External MUX Channels 
1  Auxiliary Channels 
5000  Waveform (CCF) Frequency (Hz)
1  Waveforms Skipped 
30  Waveforms Averaged 
1  Cycles Averaged 
16  Acquisitions per Waveform 
10.0806  Updata Rate (Hz) 

#FILE INFORMATION
TRUE -- External MUX Channel results are PARSED.
FALSE -- AC DC and Phase are NOT grouped.
TRUE -- Companion Program Settings File CREATED.
FALSE -- AC data not excluded
FALSE -- DC data not excluded
FALSE -- Phase data not excluded
FALSE -- Auxillary Chn. data not excluded
Tab delimiters

#CALIBRATION STATE
TRUE -- Waveform Calibration Values APPLIED.


#AUX CALIBRATION VALUES
Val Type	aux-1	

Term	1.0000e+00	
Factor	0.0000e+00	


#WF CALIBRATION VALUES
A = Detector Channel
Val Type	A-AC1	A-AC2	A-AC3	A-AC4	A-AC5	A-AC6	A-AC7	A-AC8	A-AC9	A-AC10	A-AC11	A-AC12	A-AC13	A-AC14	A-AC15	A-AC16	A-DC1	A-DC2	A-DC3	A-DC4	A-DC5	A-DC6	A-DC7	A-DC8	A-DC9	A-DC10	A-DC11	A-DC12	A-DC13	A-DC14	A-DC15	A-DC16	A-Ph1	A-Ph2	A-Ph3	A-Ph4	A-Ph5	A-Ph6	A-Ph7	A-Ph8	A-Ph9	A-Ph10	A-Ph11	A-Ph12	A-Ph13	A-Ph14	A-Ph15	A-Ph16	

Term	0.00000e+00	0.00000e+00	0.00000e+00	0.00000e+00	0.00000e+00	0.00000e+00	0.00000e+00	0.00000e+00	0.00000e+00	0.00000e+00	0.00000e+00	0.00000e+00	0.00000e+00	0.00000e+00	0.00000e+00	0.00000e+00	0.00000e+00	0.00000e+00	0.00000e+00	0.00000e+00	0.00000e+00	0.00000e+00	0.00000e+00	0.00000e+00	0.00000e+00	0.00000e+00	0.00000e+00	0.00000e+00	0.00000e+00	0.00000e+00	0.00000e+00	0.00000e+00	0.00000e+00	0.00000e+00	0.00000e+00	0.00000e+00	0.00000e+00	0.00000e+00	0.00000e+00	0.00000e+00	0.00000e+00	0.00000e+00	0.00000e+00	0.00000e+00	0.00000e+00	0.00000e+00	0.00000e+00	0.00000e+00	
Factor	1.00000e+00	1.00000e+00	1.00000e+00	1.00000e+00	1.00000e+00	1.00000e+00	1.00000e+00	1.00000e+00	1.00000e+00	1.00000e+00	1.00000e+00	1.00000e+00	1.00000e+00	1.00000e+00	1.00000e+00	1.00000e+00	1.00000e+00	1.00000e+00	1.00000e+00	1.00000e+00	1.00000e+00	1.00000e+00	1.00000e+00	1.00000e+00	1.00000e+00	1.00000e+00	1.00000e+00	1.00000e+00	1.00000e+00	1.00000e+00	1.00000e+00	1.00000e+00	X	X	X	X	X	X	X	X	X	X	X	X	X	X	X	X	

B = Detector Channel
Val Type	B-AC1	B-AC2	B-AC3	B-AC4	B-AC5	B-AC6	B-AC7	B-AC8	B-AC9	B-AC10	B-AC11	B-AC12	B-AC13	B-AC14	B-AC15	B-AC16	B-DC1	B-DC2	B-DC3	B-DC4	B-DC5	B-DC6	B-DC7	B-DC8	B-DC9	B-DC10	B-DC11	B-DC12	B-DC13	B-DC14	B-DC15	B-DC16	B-Ph1	B-Ph2	B-Ph3	B-Ph4	B-Ph5	B-Ph6	B-Ph7	B-Ph8	B-Ph9	B-Ph10	B-Ph11	B-Ph12	B-Ph13	B-Ph14	B-Ph15	B-Ph16	

Term	0.00000e+00	0.00000e+00	0.00000e+00	0.00000e+00	0.00000e+00	0.00000e+00	0.00000e+00	0.00000e+00	0.00000e+00	0.00000e+00	0.00000e+00	0.00000e+00	0.00000e+00	0.00000e+00	0.00000e+00	0.00000e+00	0.00000e+00	0.00000e+00	0.00000e+00	0.00000e+00	0.00000e+00	0.00000e+00	0.00000e+00	0.00000e+00	0.00000e+00	0.00000e+00	0.00000e+00	0.00000e+00	0.00000e+00	0.00000e+00	0.00000e+00	0.00000e+00	-2.38903e+02	-1.30801e+02	-1.63948e+02	-1.83590e+02	-1.19141e+02	-8.70241e+01	-1.56897e+02	-1.62015e+02	-7.30551e+01	-8.26205e+01	-1.70590e+02	-1.70867e+02	-1.80044e+02	-1.77413e+02	-7.81630e+01	-1.50406e+02	
Factor	6.10723e-05	1.20878e-04	3.70736e-05	1.67276e-01	1.13400e-06	1.16405e-06	1.90682e-01	6.00034e-02	1.25406e-06	1.06024e-06	9.97472e-02	3.83765e-02	2.97706e-02	1.08004e-02	1.14664e-06	1.57894e-02	4.97580e-07	5.02158e-07	1.39475e-07	8.01861e-02	5.49628e-09	5.49947e-09	8.54324e-02	2.82743e-02	5.50406e-09	5.50380e-09	4.40950e-02	1.66559e-02	1.35827e-02	4.90122e-03	5.51462e-09	6.83088e-03	X	X	X	X	X	X	X	X	X	X	X	X	X	X	X	X	



#DISTANCE SETTINGS
A = Detector Channel
A-1	A-2	A-3	A-4	A-5	A-6	A-7	A-8	A-9	A-10	A-11	A-12	A-13	A-14	A-15	A-16	

2.5000e+00	3.0000e+00	2.5000e+00	3.0000e+00	2.0000e+00	3.0000e+00	1.5000e+00	3.0000e+00	3.0000e+00	3.0000e+00	3.0000e+00	3.0000e+00	3.0000e+00	3.0000e+00	1.5000e+00	3.0000e+00	

B = Detector Channel
B-1	B-2	B-3	B-4	B-5	B-6	B-7	B-8	B-9	B-10	B-11	B-12	B-13	B-14	B-15	B-16	

1.0000e+01	1.0000e+01	1.0000e+01	1.4400e+00	1.0000e+01	1.0000e+01	1.5100e+00	1.9400e+00	1.0000e+01	1.0000e+01	1.9900e+00	2.4900e+00	2.4100e+00	2.9000e+00	1.0000e+01	2.9800e+00	




#DATA BEGINS
time	group	step	mark	flag	A-AC1	A-AC2	A-AC3	A-AC4	A-AC5	A-AC6	A-AC7	A-AC8	A-AC9	A-AC10	A-AC11	A-AC12	A-AC13	A-AC14	A-AC15	A-AC16	A-DC1	A-DC2	A-DC3	A-DC4	A-DC5	A-DC6	A-DC7	A-DC8	A-DC9	A-DC10	A-DC11	A-DC12	A-DC13	A-DC14	A-DC15	A-DC16	A-Ph1	A-Ph2	A-Ph3	A-Ph4	A-Ph5	A-Ph6	A-Ph7	A-Ph8	A-Ph9	A-Ph10	A-Ph11	A-Ph12	A-Ph13	A-Ph14	A-Ph15	A-Ph16	B-AC1	B-AC2	B-AC3	B-AC4	B-AC5	B-AC6	B-AC7	B-AC8	B-AC9	B-AC10	B-AC11	B-AC12	B-AC13	B-AC14	B-AC15	B-AC16	B-DC1	B-DC2	B-DC3	B-DC4	B-DC5	B-DC6	B-DC7	B-DC8	B-DC9	B-DC10	B-DC11	B-DC12	B-DC13	B-DC14	B-DC15	B-DC16	B-Ph1	B-Ph2	B-Ph3	B-Ph4	B-Ph5	B-Ph6	B-Ph7	B-Ph8	B-Ph9	B-Ph10	B-Ph11	B-Ph12	B-Ph13	B-Ph14	B-Ph15	B-Ph16	aux-1	digaux	

2987.168	1	1	0	256	0.19254	0.13344	0.11674	0.19148	0.22881	0.13942	0.20286	0.13377	0.15261	0.14972	0.21256	0.28009	0.058007	0.15779	0.082806	0.27011	-3.2625	-4.5625	-3.3937	-4.2021	-4.4479	-3.3375	-4.6792	-4.125	-3.5021	-4.5	-3.6479	-4.1813	-4.4833	-3.3146	-4.5104	-4.1896	125.711	183.080	27.683	271.713	177.309	163.617	298.674	264.258	46.460	138.450	340.432	56.917	286.454	300.695	52.077	136.969	0.00036203	0.00028794	0.00012674	1179.2	3.4724e-06	3.1431e-06	1264.6	247.09	4.54e-06	2.9591e-06	306.28	86.266	68.356	20.399	6.0116e-06	27.901	0.00017446	0.00017098	4.8285e-05	1113.2	1.8911e-06	1.8635e-06	1190.1	234.48	1.8966e-06	1.8704e-06	285.76	81.346	64.874	19.797	1.8913e-06	26.646	18.023	157.316	69.872	-0.225	156.537	164.386	-0.203	7.072	184.421	130.921	6.409	14.125	14.100	21.025	256.867	20.208	-8191	255	
2987.264	1	1	0	0	0.24624	0.15496	0.057706	0.041258	0.09901	0.18836	0.36796	0.05354	0.10961	0.19605	0.16549	0.25973	0.041769	0.23796	0.13589	0.17094	-3.2812	-4.6167	-3.4979	-4.2396	-4.4313	-3.55	-4.7021	-4.1	-3.6208	-4.6333	-3.5479	-3.9917	-4.6167	-3.4708	-4.3625	-4.1833	105.029	231.456	310.249	122.065	324.086	217.866	327.368	285.650	327.330	52.289	300.418	19.196	73.369	31.606	267.964	326.989	0.00062489	0.00058236	6.0096e-05	1172.9	7.7995e-06	5.5882e-06	1261.6	246.76	3.8621e-06	2.6618e-06	306.98	86.267	68.2	20.187	5.9443e-06	27.677	0.0001723	0.00017107	4.7685e-05	1110	1.889e-06	1.8825e-06	1190.7	234.4	1.9068e-06	1.8583e-06	285.33	81.479	64.761	19.696	1.87e-06	26.599	17.602	79.670	41.339	-0.052	111.705	95.741	-0.326	6.806	182.176	339.548	6.563	13.986	14.109	20.972	173.610	20.453	-8191	255	
2987.360	1	1	0	0	0.066071	0.028582	0.15584	0.40428	0.079115	0.049084	0.097228	0.13516	0.026903	0.1743	0.098301	0.08097	0.13424	0.11891	0.20219	0.3035	-3.225	-4.4979	-3.6625	-3.95	-4.425	-3.4417	-4.3396	-4.2354	-3.6229	-4.5542	-3.8771	-4.0417	-4.5083	-3.5938	-4.2083	-4.2604	0.768	17.167	226.316	332.394	307.906	263.846	239.216	326.349	261.651	232.201	337.678	51.791	106.569	251.502	326.281	282.845	0.00027719	0.00019312	8.8691e-05	1174.3	4.3197e-06	4.8345e-06	1262	246.27	1.7422e-06	1.7894e-06	306.49	86.461	68.381	20.378	6.7903e-06	28.069	0.00017255	0.00017039	4.7379e-05	1112	1.8986e-06	1.88e-06	1188.5	234.59	1.8714e-06	1.8662e-06	285.85	81.16	64.759	19.733	1.8861e-06	26.697	19.754	62.706	38.464	-0.372	72.732	69.085	-0.166	7.072	232.361	191.980	6.881	14.006	14.123	20.709	115.747	19.899	-8191	255	
2987.456	1	1	0	0	0.25706	0.069956	0.19554	0.098757	0.16892	0.11688	0.087348	0.14566	0.12726	0.10353	0.15528	0.17772	0.17187	0.067882	0.039053	0.07442	-3.2667	-4.3604	-3.7542	-3.7271	-4.4417	-3.2646	-4.4563	-4.2708	-3.6042	-4.6479	-3.7604	-3.7542	-4.5854	-3.4375	-4.2667	-4.2729	327.496	304.950	260.848	49.392	1.158	328.342	274.936	320.585	164.358	21.273	286.376	264.987	146.983	146.900	282.381	151.365	0.00037613	0.00017386	9.555e-05	1176.3	5.3268e-06	7.7874e-07	1259.6	247.61	7.1315e-06	3.6052e-06	303.62	86.286	68.508	20.345	4.5237e-06	27.696	0.00017433	0.00017024	4.761e-05	1110.7	1.8799e-06	1.8784e-06	1187.8	234.53	1.9049e-06	1.8911e-06	284.21	81.196	64.892	19.733	1.8759e-06	26.535	36.690	118.742	113.169	-0.289	174.392	200.304	-0.189	7.204	150.625	112.961	6.860	13.998	14.116	20.438	244.546	20.587	-8191	255	
2987.552	1	1	0	0	0.44324	0.10172	0.25223	0.17017	0.22679	0.089316	0.063641	0.27793	0.23463	0.15387	0.29512	0.14416	0.10037	0.11321	0.12908	0.036042	-3.1813	-4.6708	-3.8729	-3.6667	-4.5583	-3.4625	-4.0792	-4.4437	-3.6104	-4.6646	-3.9062	-3.7313	-4.5708	-3.4396	-3.95	-4.35	280.789	56.310	12.276	37.043	108.053	55.481	301.414	341.485	82.855	331.971	7.622	339.553	94.626	-8.135	234.512	189.001	0.00054646	0.00010185	0.00013193	1175.1	4.9243e-06	4.9017e-06	1259	245.61	3.072e-06	3.7546e-06	306.81	86.615	68.24	20.253	5.9202e-06	27.68	0.00017224	0.00017297	4.7683e-05	1110.9	1.8825e-06	1.8694e-06	1185.4	233.52	1.8814e-06	1.8649e-06	284.78	81.182	64.788	19.677	1.8694e-06	26.483	34.643	127.758	4.292	-0.322	88.194	194.960	-0.106	6.991	30.182	106.994	6.585	13.812	14.039	20.302	73.037	20.869	-8191	255	
2987.671	1	1	0	0	0.0904	0.13919	0.11848	0.080698	0.24267	0.22316	0.16138	0.2982	0.059534	0.091132	0.11031	0.15836	0.063451	0.13738	0.20253	0.06292	-3.2479	-4.5896	-4.0875	-3.6729	-4.4917	-3.6208	-4.3208	-4.4187	-3.4208	-4.4354	-4.1729	-3.775	-4.4542	-3.4875	-3.775	-4.3938	233.565	36.534	204.814	306.212	19.961	107.735	328.268	319.473	136.900	24.710	340.522	310.550	67.040	107.218	257.776	165.217	0.00020586	0.00021298	7.4771e-05	1171.8	3.3938e-06	1.0947e-06	1259.8	245.37	3.849e-06	1.7639e-06	306.68	86.522	68.581	20.327	2.0739e-06	27.695	0.00017234	0.00017138	4.741e-05	1108.4	1.8762e-06	1.8733e-06	1187	233.64	1.8744e-06	1.8643e-06	284.99	81.04	64.807	19.72	1.9016e-06	26.527	83.147	294.216	72.314	-0.372	21.077	141.658	-0.033	7.051	162.734	16.672	6.416	14.001	13.966	20.646	46.039	20.517	-8191	255	
2987.767	1	1	0	0	0.080058	0.27439	0.22338	0.15821	0.15089	0.14908	0.22176	0.23449	0.1558	0.21842	0.16055	0.14702	0.21974	0.25224	0.094026	0.052161	-3.0708	-4.3708	-4.2042	-3.6937	-4.4354	-3.7354	-4.1271	-4.4479	-3.4583	-4.3479	-4.0479	-3.5521	-4.6417	-3.7396	-3.8792	-4.5604	117.327	176.938	37.123	9.837	49.385	130.897	279.983	323.642	26.688	-4.373	313.307	29.229	340.339	315.104	256.107	147.962	0.0004533	0.0004015	9.6799e-05	1170.2	3.1507e-06	1.7196e-06	1262.5	245.85	3.9881e-06	2.6381e-06	304.5	85.885	67.786	20.192	1.1562e-06	27.693	0.00017331	0.00017065	4.7583e-05	1108.1	1.8635e-06	1.8564e-06	1185.6	234.05	1.8736e-06	1.8871e-06	284.68	81.113	64.668	19.671	1.9052e-06	26.568	39.284	310.208	98.985	-0.412	53.079	68.486	-0.222	7.332	328.374	170.846	6.632	14.158	14.730	20.852	144.441	20.645	-8191	255	
2987.839	1	1	0	0	0.065081	0.057824	0.21586	0.24503	0.11722	0.049044	0.17323	0.16632	0.21234	0.11293	0.1427	0.1602	0.19489	0.13818	0.19327	0.063571	-3.1042	-4.4187	-4.1708	-3.5938	-4.675	-3.9333	-4.0375	-4.4938	-3.6292	-4.2104	-4.2104	-3.3375	-4.5667	-3.7562	-3.7542	-4.6896	9.519	268.452	65.102	289.616	212.635	268.382	237.922	250.143	141.035	132.443	238.196	170.499	129.173	339.798	95.903	57.299	0.00021712	0.00015311	0.00016557	1172.1	3.3497e-06	2.6302e-06	1255.8	246.59	2.7322e-06	1.5594e-06	304.84	85.786	67.872	20.333	3.604e-06	27.699	0.00017326	0.00017094	4.7823e-05	1108.4	1.8803e-06	1.8771e-06	1184.2	234	1.9053e-06	1.8956e-06	284.65	81.022	64.668	19.65	1.9087e-06	26.545	38.314	102.369	76.911	-0.360	101.066	180.566	-0.253	6.887	292.769	122.777	6.838	14.108	14.310	20.939	106.505	20.527	-8191	255	
2987.959	1	1	0	0	0.20912	0.21351	0.053794	0.13891	0.071727	0.14847	0.18331	0.19049	0.13299	0.065988	0.12285	0.11812	0.034882	0.04025	0.28932	0.040795	-3.1667	-4.1604	-4.4146	-3.6521	-4.6208	-3.8625	-3.8771	-4.5896	-3.2479	-4.0813	-4.3812	-3.4917	-4.5354	-3.9271	-3.7333	-4.5458	-6.252	328.179	128.939	237.306	98.523	337.270	242.437	310.445	80.726	191.057	345.716	245.644	261.314	210.217	179.412	271.955	0.00019907	0.00042454	0.00014722	1175.1	3.9578e-06	6.81e-06	1260.5	245.91	4.34e-06	6.4291e-06	305.63	85.963	67.934	20.17	2.8519e-06	27.668	0.00017523	0.00017291	4.7984e-05	1109.6	1.8942e-06	1.8881e-06	1185.6	233.51	1.8982e-06	1.8889e-06	284.36	80.849	64.608	19.651	1.9075e-06	26.58	36.972	78.631	6.764	-0.153	52.427	75.786	-0.303	7.511	173.172	53.802	6.712	14.189	13.952	20.920	148.266	21.007	-8191	255	
2988.056	1	1	0	0	0.51872	0.083833	0.064782	0.18473	0.18042	0.13577	0.15878	0.063943	0.22696	0.052013	0.03658	0.20737	0.15851	0.070562	0.19409	0.097291	-3.2292	-4.1167	-4.2708	-3.6458	-4.4187	-3.8521	-3.8	-4.4667	-3.4188	-3.8979	-4.3396	-3.5896	-4.3187	-3.8563	-3.7125	-4.4146	-3.792	188.250	11.905	-6.799	245.623	69.747	267.841	282.316	74.011	60.636	250.840	249.979	105.686	22.984	113.742	97.910	0.0006224	0.00052673	6.577e-05	1167.6	2.3181e-06	5.237e-06	1258.3	244.87	5.0003e-06	3.8335e-06	304.89	86.037	67.946	20.285	1.5508e-06	27.712	0.00017417	0.00017264	4.8019e-05	1106.2	1.8708e-06	1.8884e-06	1185	233.24	1.8991e-06	1.89e-06	284.42	80.958	64.684	19.657	1.8803e-06	26.501	13.027	103.294	315.242	-0.455	191.924	114.799	-0.301	6.967	134.647	74.374	6.385	13.927	14.137	20.717	176.676	20.558	-8191	255	
2988.152	1	1	0	0	0.19504	0.12889	0.077337	0.35489	0.27477	0.24008	0.063904	0.20006	0.17936	0.19461	0.27211	0.070824	0.15126	0.031012	0.16463	0.19602	-3.275	-4	-4.2958	-3.4667	-4.3292	-3.9896	-3.6333	-4.6	-3.6333	-3.7958	-4.4958	-3.6208	-4.3833	-4.1479	-3.4729	-4.6021	165.725	242.583	146.278	323.303	331.378	129.925	248.263	156.636	45.638	195.095	310.002	289.419	100.951	85.410	340.748	285.308	0.00043998	0.00027561	8.2086e-05	1165.6	7.4803e-06	4.7323e-06	1254.8	246.83	9.6809e-07	2.4962e-06	304.71	85.534	68.071	20.251	4.249e-06	27.724	0.00017498	0.00017272	4.7728e-05	1105	1.891e-06	1.8734e-06	1182.6	233.76	1.8975e-06	1.9009e-06	284.23	80.734	64.746	19.604	1.8846e-06	26.578	1.152	322.502	305.760	-0.205	101.561	56.444	0.101	7.377	265.651	59.015	6.576	13.902	13.946	20.461	217.437	20.423	-8191	255	
2988.248	1	1	0	0	0.11016	0.068608	0.10164	0.15309	0.11126	0.2412	0.24446	0.18605	0.054982	0.056927	0.19725	0.14512	0.11461	0.12123	0.077187	0.076094	-3.4375	-3.8729	-4.3	-3.6292	-4.2208	-4.1292	-3.6917	-4.5896	-3.9083	-3.9062	-4.5229	-3.5458	-4.1667	-3.9729	-3.6979	-4.4292	23.138	126.084	49.854	305.641	197.141	33.514	288.362	197.113	86.672	298.586	45.237	197.358	197.650	199.090	16.450	186.144	0.00027856	0.00017797	0.00023197	1169.6	4.08e-06	1.0609e-06	1258.4	245.55	3.8914e-06	4.3894e-06	303.54	86.222	68.377	20.307	2.1924e-06	27.671	0.00017328	0.0001724	4.7816e-05	1105	1.8979e-06	1.864e-06	1184.4	233.62	1.8737e-06	1.8724e-06	283.65	80.787	64.68	19.667	1.9003e-06	26.526	21.360	319.168	41.148	-0.200	185.865	18.728	-0.237	7.078	106.702	175.527	6.977	14.004	14.231	20.601	57.418	20.936	-8191	255	
2988.369	1	1	0	0	0.22428	0.054249	0.11259	0.27538	0.28976	0.15743	0.0071875	0.27563	0.20612	0.036248	0.10747	0.056532	0.19251	0.14312	0.21902	0.088934	-3.5542	-3.8229	-4.5021	-3.6583	-4.1625	-4.1917	-3.8979	-4.5896	-3.9083	-3.8292	-4.55	-3.75	-4.1854	-4.3063	-3.6521	-4.6375	205.147	58.560	62.921	272.799	208.979	308.301	76.990	323.341	171.088	32.430	303.459	53.558	218.943	337.358	146.675	286.734	0.00040528	0.00060682	0.00010596	1165.7	8.7059e-06	2.4456e-06	1258.7	245.67	3.1266e-06	1.8391e-06	303.97	84.943	68.104	20.35	5.6568e-06	27.759	0.00017459	0.00017238	4.799e-05	1105.6	1.8972e-06	1.8726e-06	1184.5	233.97	1.9194e-06	1.8794e-06	284.23	80.715	64.578	19.677	1.8932e-06	26.538	47.995	48.771	75.276	-0.231	77.619	320.466	-0.203	7.010	7.149	309.966	6.679	13.814	14.341	20.670	145.025	21.007	-8191	255	
2988.465	1	1	0	0	0.21271	0.12359	0.027131	0.38209	0.11746	0.12021	0.14657	0.10602	0.097802	0.22509	0.24465	0.18716	0.13658	0.040412	0.11514	0.30653	-3.6083	-3.7396	-4.4021	-3.7417	-4.1979	-4.2375	-3.5854	-4.5521	-3.8646	-3.6083	-4.6687	-3.6104	-4.0583	-4.3167	-3.4167	-4.4479	78.843	78.696	3.472	315.188	185.013	177.137	269.847	283.932	45.000	89.089	128.850	132.641	228.744	25.824	104.558	315.967	0.00034733	0.00031273	5.681e-05	1167.1	1.8435e-06	3.9978e-06	1251.4	245.5	3.415e-06	4.7604e-06	304.88	85.628	67.941	20.158	2.7972e-06	27.704	0.00017542	0.00017247	4.757e-05	1106.3	1.8908e-06	1.8899e-06	1182.7	233.92	1.8886e-06	1.9026e-06	284.66	80.583	64.536	19.595	1.8858e-06	26.516	34.680	-9.803	135.770	-0.268	182.013	178.126	-0.246	7.349	319.949	117.968	6.872	13.900	14.272	20.720	300.424	20.453	-8191	255	
2988.536	1	1	0	0	0.13393	0.091677	0.19431	0.03233	0.17555	0.053592	0.36207	0.038713	0.15374	0.032051	0.18352	0.1925	0.14193	0.22196	0.13922	0.12845	-3.5521	-3.7125	-4.4812	-3.7938	-4.0604	-4.3167	-3.6729	-4.6271	-4.0563	-3.7687	-4.6542	-3.6646	-4.0833	-4.3979	-3.4813	-4.4208	320.028	332.357	342.763	249.268	291.293	27.663	260.606	302.696	120.795	254.212	189.714	17.730	32.297	286.625	190.673	340.925	0.00063076	0.00041327	0.0001319	1166.7	2.1832e-06	4.3677e-06	1254.2	246.13	6.7272e-06	2.5749e-06	303.94	85.589	67.84	20.318	1.8158e-06	27.558	0.00017332	0.00017238	4.7571e-05	1105	1.9014e-06	1.8843e-06	1184.4	234.17	1.9118e-06	1.8919e-06	283.97	80.659	64.488	19.626	1.8964e-06	26.557	50.876	336.557	44.263	-0.414	346.664	73.600	-0.069	7.215	199.346	33.953	6.901	14.008	14.159	20.796	284.367	20.161	-8191	255	
2988.633	1	1	0	0	0.28807	0.16276	0.25446	0.21069	0.14406	0.098145	0.076662	0.19404	0.16548	0.17534	0.18779	0.25495	0.35801	0.16235	0.14087	0.084106	-3.6979	-3.6333	-4.5667	-4.0854	-4.0042	-4.4771	-3.5458	-4.4208	-4.2042	-3.6688	-4.6646	-3.6917	-3.8812	-4.5417	-3.5146	-4.3271	226.715	0.064	27.307	313.303	2.979	262.758	171.147	316.115	159.398	274.691	279.026	112.350	117.573	144.008	298.166	48.143	0.00045711	0.00018908	5.0891e-05	1171	3.8555e-06	4.2018e-06	1251.9	245.46	3.8075e-06	2.1671e-06	306.73	85.798	67.762	20.306	3.4352e-06	27.573	0.00017291	0.00017328	4.7986e-05	1107.4	1.917e-06	1.8737e-06	1182.6	234	1.9049e-06	1.9123e-06	284.78	80.458	64.616	19.699	1.9026e-06	26.502	31.172	88.600	332.540	-0.457	97.041	177.255	-0.072	6.913	103.497	210.199	6.949	13.981	14.369	20.993	118.994	20.598	-8191	255	
2988.751	1	1	0	0	0.14379	0.038845	0.087236	0.19279	0.10827	0.091142	0.30484	0.091138	0.052428	0.15013	0.115	0.12911	0.13797	0.034337	0.14176	0.32075	-3.8333	-3.6146	-4.4458	-3.9208	-3.9458	-4.4458	-3.6521	-4.2688	-4.2479	-3.4604	-4.6271	-3.725	-3.7604	-4.5604	-3.4042	-4.2854	310.834	196.330	79.085	57.650	195.095	165.944	270.053	301.309	180.704	214.192	214.460	346.394	296.411	131.392	17.130	340.424	0.00039726	0.00016752	0.00017197	1165.6	4.7022e-06	6.4817e-06	1257.1	244.1	2.118e-06	3.4363e-06	304.17	84.811	68.117	20.217	8.9826e-06	27.761	0.00017391	0.00017349	4.8273e-05	1105.1	1.9117e-06	1.8919e-06	1184.4	233.2	1.9246e-06	1.9067e-06	284.04	80.323	64.644	19.627	1.9017e-06	26.593	3.650	54.251	38.691	-0.381	209.410	166.507	-0.272	7.384	71.025	162.360	6.418	14.086	14.016	21.418	99.417	20.811	-8191	255	
2988.848	1	1	0	0	0.17201	0.1051	0.10242	0.20304	0.015418	0.20593	0.1763	0.082593	0.14195	0.17579	0.29928	0.27332	0.22243	0.15196	0.022481	0.13934	-4.0042	-3.4437	-4.6021	-3.8604	-3.5938	-4.6438	-3.5458	-4.4187	-4.2812	-3.5604	-4.4833	-3.8417	-3.7958	-4.5458	-3.5604	-3.9562	316.211	215.541	152.735	35.155	307.704	176.736	265.405	62.344	115.306	228.901	18.370	302.101	335.008	-8.703	76.670	22.264	0.00050659	0.00022792	0.00019816	1169.4	5.7659e-06	8.3161e-06	1254.1	245.63	4.4415e-06	3.1092e-06	305.11	85.005	67.621	20.19	4.7091e-06	27.736	0.00017464	0.00017323	4.788e-05	1105.1	1.9005e-06	1.8805e-06	1182.5	233.78	1.8786e-06	1.9055e-06	284.3	80.478	64.373	19.568	1.9052e-06	26.459	18.480	332.530	39.787	-0.554	156.667	137.004	-0.277	7.140	144.382	1.485	6.899	13.733	14.223	20.894	107.699	20.566	-8191	255	
2988.944	1	1	0	0	0.24017	0.024667	0.30031	0.060593	0.06394	0.17744	0.1449	0.12254	0.18245	0.16524	0.12131	0.32098	0.028281	0.24896	0.14201	0.024752	-3.9021	-3.4208	-4.4917	-4.0563	-3.6292	-4.4563	-3.575	-3.9979	-4.4771	-3.5333	-4.5333	-3.9417	-3.5458	-4.6208	-3.3583	-4.0021	128.127	80.834	201.319	225.517	98.438	311.214	73.859	324.950	142.515	19.773	5.486	65.629	48.254	295.230	271.643	274.577	0.00055665	0.00035451	0.00037309	1167.7	4.3659e-06	6.8782e-07	1252.3	245.1	2.6441e-06	1.778e-06	302.82	85.675	67.703	20.198	2.0109e-06	27.675	0.00017522	0.00017323	4.821e-05	1104.9	1.8989e-06	1.9102e-06	1181.7	233.41	1.9051e-06	1.8966e-06	283.87	80.553	64.315	19.574	1.9008e-06	26.496	28.590	175.574	14.375	-0.609	139.470	36.744	-0.218	7.082	283.537	88.207	6.986	13.696	14.074	20.985	184.750	20.229	-8191	255	
2989.064	1	1	0	0	0.17508	0.28428	0.10908	0.29657	0.23185	0.4163	0.26292	0.17843	0.18962	0.26354	0.15879	0.083372	0.31432	0.12141	0.023535	0.064689	-4.1083	-3.4313	-4.5312	-4.2417	-3.5396	-4.5813	-3.5583	-4.0104	-4.4313	-3.5042	-4.3583	-4.0833	-3.6125	-4.3021	-3.6	-3.8354	296.540	195.827	151.772	307.358	331.250	253.465	21.007	280.967	44.287	327.504	335.461	69.682	345.935	225.282	83.477	297.864	0.00032132	0.00059025	0.00020606	1161.8	2.8791e-06	1.5376e-06	1248.9	245.08	1.7028e-06	3.6546e-06	305.14	85.526	67.667	20.215	1.9756e-06	27.664	0.00017382	0.0001739	4.8237e-05	1101.7	1.9083e-06	1.8951e-06	1179.4	233.3	1.8769e-06	1.8911e-06	284.12	80.465	64.52	19.622	1.9187e-06	26.468	15.875	103.790	19.836	-0.489	58.583	4.681	-0.283	7.426	123.714	104.812	6.743	13.804	14.324	20.642	131.375	20.425	-8191	255	
2989.136	1	1	0	0	0.21191	0.070912	0.061289	0.12935	0.21887	0.059595	0.21547	0.11507	0.11139	0.068591	0.12748	0.16199	0.24499	0.044412	0.13607	0.15199	-3.9938	-3.6167	-4.1	-4.0875	-3.5646	-4.4104	-3.7875	-4.15	-4.3542	-3.5208	-4.3229	-4.1146	-3.7667	-4.5771	-3.7188	-4.0208	273.089	199.774	249.505	174.671	264.545	288.005	253.312	322.106	72.122	178.920	286.216	181.663	254.559	95.795	258.013	338.780	0.00038396	0.00052359	0.00013777	1164	4.8837e-06	2.4352e-06	1252.5	246.15	6.7989e-06	7.511e-07	304.89	85.27	67.993	20.063	1.1216e-06	27.761	0.00017481	0.00017406	4.8378e-05	1104.2	1.9187e-06	1.8982e-06	1183	233.78	1.9018e-06	1.9085e-06	284.53	80.463	64.455	19.592	1.9133e-06	26.498	13.427	57.261	244.781	-0.424	17.501	227.082	-0.340	6.829	88.287	25.391	7.005	14.044	14.328	20.588	92.780	20.630	-8191	255	
2989.232	1	1	0	0	0.17568	0.13318	0.069297	0.17889	0.073256	0.12998	0.36178	0.24851	0.12845	0.14145	0.11601	0.14187	0.36377	0.21147	0.19987	0.087675	-3.9813	-3.6	-4.2812	-4.2792	-3.6771	-4.4271	-3.9896	-3.9375	-4.3917	-3.5312	-4.2042	-4.2937	-3.4042	-4.4875	-3.7458	-3.7	159.801	210.748	164.401	337.744	148.459	319.355	278.601	270.550	268.701	121.080	259.997	25.264	297.668	264.821	173.517	60.384	0.00042976	0.00026796	9.0172e-05	1169.1	5.4376e-06	6.1529e-06	1254.2	246.07	4.9518e-06	1.0526e-06	304.45	85.802	67.745	20.233	5.8736e-06	27.718	0.00017423	0.00017442	4.8094e-05	1105.4	1.9165e-06	1.9073e-06	1181.2	233.87	1.9098e-06	1.9012e-06	284.24	80.539	64.341	19.646	1.8992e-06	26.566	26.390	32.360	18.319	-0.416	157.441	111.473	-0.339	7.130	60.329	306.128	6.779	14.179	13.961	21.089	144.552	20.860	-8191	255	
2989.353	1	1	0	0	0.064293	0.13217	0.32256	0.26039	0.17395	0.36947	0.26132	0.0576	0.12934	0.22366	0.34419	0.28384	0.20334	0.23536	0.13695	0.15311	-4.2	-3.5542	-4.1875	-4.4583	-3.3792	-4.4688	-4.0021	-3.7188	-4.5687	-3.4208	-4.15	-4.4083	-3.2229	-4.7729	-3.9354	-3.6813	334.524	100.571	-2.713	25.012	79.260	167.498	290.885	31.014	60.227	53.300	342.065	111.590	307.737	349.068	143.262	244.755	0.00061659	0.0006131	8.3348e-05	1164	2.6183e-06	2.0881e-06	1254.9	245.45	7.1236e-06	4.1305e-06	305.55	85.716	67.415	20.454	2.1193e-06	27.775	0.00017564	0.00017359	4.7995e-05	1103.1	1.9201e-06	1.8994e-06	1180.2	233.51	1.9106e-06	1.9064e-06	284.42	80.643	64.281	19.694	1.9031e-06	26.501	29.850	-2.492	82.749	-0.518	87.222	125.737	-0.216	7.226	179.732	207.336	6.440	13.478	13.960	20.773	100.329	20.145	-8191	255	
2989.449	1	1	0	0	0.17758	0.10505	0.18495	0.16161	0.21565	0.098687	0.045749	0.33012	0.060034	0.20896	0.16203	0.21077	0.10603	0.1323	0.10572	0.10576	-4.4083	-3.5083	-4.0813	-4.5958	-3.4333	-4.3375	-4.1687	-3.5604	-4.55	-3.7396	-3.9021	-4.4417	-3.4271	-4.2104	-3.8792	-3.6292	3.893	117.517	177.769	301.685	146.893	-1.626	58.403	287.618	19.487	96.086	36.811	338.280	147.245	229.827	39.246	339.834	0.00043844	0.00017512	0.00012196	1165.6	2.9762e-06	3.9648e-06	1250.9	246.63	8.2146e-06	2.037e-06	303.74	85.234	68.006	20.188	4.093e-06	27.587	0.00017418	0.00017213	4.8176e-05	1103.8	1.9043e-06	1.9007e-06	1180.1	233.67	1.9032e-06	1.9257e-06	284.1	80.599	64.438	19.58	1.9217e-06	26.488	51.236	263.075	308.971	-0.569	298.390	217.152	-0.612	6.922	138.617	286.010	6.626	13.247	13.987	20.728	321.333	20.020	-8191	255	
2989.545	1	1	0	0	0.14529	0.24785	0.056422	0.038629	0.089372	0.045646	0.30774	0.0038889	0.25103	0.11695	0.018665	0.12971	0.27277	0.06325	0.16258	0.13853	-4.225	-3.7521	-4.0146	-4.7	-3.5229	-4.4146	-4.35	-3.4188	-4.4958	-3.6229	-3.9417	-4.6562	-3.2396	-4.3688	-3.9729	-3.4562	66.166	29.940	35.249	319.077	346.216	125.866	267.173	-5.351	247.770	91.939	279.799	240.822	337.275	340.989	-5.162	259.008	0.00034711	0.00052799	6.2196e-05	1165.4	2.5976e-06	1.9422e-06	1251.6	245.31	2.1234e-06	3.8904e-06	304.67	85.651	67.635	20.267	3.8048e-06	27.776	0.00017341	0.0001752	4.816e-05	1103.9	1.9053e-06	1.9286e-06	1180.7	233.6	1.9115e-06	1.9227e-06	284.66	80.707	64.49	19.683	1.9299e-06	26.508	53.323	52.747	70.138	-0.534	77.113	84.060	-0.695	7.250	103.244	103.863	7.166	13.719	14.342	21.272	147.685	20.672	-8191	255	
2989.664	1	1	0	0	0.14999	0.1794	0.035814	0.24842	0.10858	0.18596	0.27406	0.22079	0.25989	0.15036	0.15277	0.18349	0.23725	0.21381	0.076325	0.26308	-4.3854	-3.5708	-3.6542	-4.775	-3.0854	-4.225	-4.5417	-3.4458	-4.7396	-3.6917	-3.8729	-4.6271	-3.4333	-4.2854	-4.225	-3.4854	175.031	338.937	215.709	291.162	96.258	174.808	321.440	50.748	287.960	108.045	48.231	302.291	9.849	307.648	50.161	244.611	0.00067899	0.00043001	0.00012656	1164.1	4.1135e-06	4.7205e-06	1253.5	243.46	4.042e-06	4.8673e-06	304.23	85.662	67.623	20.197	3.1032e-06	27.39	0.00017403	0.00017479	4.8545e-05	1104.1	1.9283e-06	1.9146e-06	1180.1	233.13	1.9179e-06	1.9138e-06	284.22	80.451	64.446	19.601	1.9032e-06	26.474	18.636	182.271	38.261	-0.447	45.304	154.055	-0.291	7.100	32.167	119.285	6.943	13.923	14.153	21.136	84.723	20.338	-8191	255	
2989.736	1	1	0	0	0.29863	0.13225	0.15526	0.1464	0.06356	0.26702	0.15539	0.2342	0.070341	0.071526	0.36119	0.089259	0.098936	0.23877	0.33102	0.41854	-4.2688	-3.775	-3.7083	-4.5979	-3.3354	-4.1646	-4.2833	-3.3583	-4.6188	-4.0979	-3.6562	-4.6625	-3.4458	-4.3313	-4.4333	-3.3875	139.908	158.852	3.137	287.015	309.252	332.264	262.964	321.125	156.580	237.408	317.128	127.270	68.825	52.939	149.630	88.717	0.00036946	0.00028136	0.00010523	1168.3	3.6685e-06	1.8492e-06	1251.6	245.41	3.8939e-06	4.1088e-06	304.8	85.805	67.677	20.183	3.107e-06	27.619	0.00017601	0.00017322	4.8726e-05	1104.7	1.9282e-06	1.9067e-06	1181.9	233.22	1.9067e-06	1.8864e-06	284.74	80.504	64.423	19.604	1.9e-06	26.519	15.819	346.887	0.702	-0.280	152.872	128.329	-0.222	7.191	104.210	87.911	6.808	13.912	13.760	20.896	148.955	20.690	-8191	255	
2989.832	1	1	0	0	0.18996	0.1216	0.30928	0.093444	0.084094	0.027328	0.23032	0.2351	0.2449	0.19144	0.15055	0.23783	0.25449	0.088405	0.13717	0.050072	-4.4146	-3.8833	-3.5938	-4.7646	-3.6458	-4.1708	-4.4958	-3.4833	-4.6375	-3.9979	-3.8375	-4.5312	-3.7708	-3.9604	-4.575	-3.4792	164.904	76.995	131.707	275.371	121.747	95.017	276.455	318.799	339.360	245.643	228.294	284.475	171.261	59.838	325.613	335.842	0.00022386	0.00043493	0.0002586	1168	7.9669e-06	4.1053e-06	1254.8	244.75	8.3828e-06	2.0368e-06	305.08	85.676	67.397	20.127	5.7336e-06	27.809	0.0001758	0.0001748	4.8249e-05	1105.9	1.9067e-06	1.8991e-06	1181.4	233.07	1.9126e-06	1.918e-06	284.36	80.644	64.307	19.598	1.9144e-06	26.448	43.907	50.589	-7.944	-0.268	59.339	244.719	-0.412	6.971	136.896	126.016	6.634	14.084	14.330	20.552	180.505	20.331	-8191	255	
2989.928	1	1	0	0	0.10437	0.12252	0.27745	0.041465	0.044465	0.15497	0.29372	0.23629	0.15098	0.10392	0.30734	0.221	0.081778	0.20474	0.13842	0.058039	-4.1708	-4.0333	-3.5542	-4.6896	-3.4979	-4.0792	-4.7146	-3.3604	-4.4583	-3.9458	-3.3979	-4.8646	-3.6125	-3.8771	-4.4083	-3.4042	308.558	63.078	199.431	216.492	98.760	200.354	346.587	262.419	305.425	58.114	341.312	342.064	25.889	38.762	264.856	208.926	0.00026192	0.00085167	0.00018856	1166.4	2.1618e-06	2.5945e-06	1250.6	244.61	4.178e-06	3.3037e-06	302.4	85.467	67.668	20.273	1.8855e-06	27.634	0.00017579	0.00017407	4.7971e-05	1106.4	1.9223e-06	1.9079e-06	1181	233.35	1.9212e-06	1.9061e-06	283.59	80.63	64.483	19.655	1.9231e-06	26.463	-1.844	54.975	71.539	-0.210	108.901	284.411	-0.390	6.953	193.508	31.877	7.004	13.581	14.261	20.916	130.573	20.700	-8191	255	
2990.049	1	1	0	0	0.087117	0.049947	0.22497	0.25242	0.17068	0.1127	0.16512	0.0538	0.12987	0.1479	0.13123	0.065701	0.17605	0.077521	0.14953	0.087635	-4.0292	-4.0917	-3.4354	-4.7521	-3.4125	-3.8	-4.7063	-3.5021	-4.2833	-4	-3.6896	-4.5417	-3.6792	-3.8958	-4.3083	-3.6042	211.204	252.627	330.372	272.381	164.383	149.551	324.775	344.500	88.496	299.902	90.193	3.813	307.896	215.788	148.140	-8.318	0.0003994	0.00043397	9.2501e-05	1170.9	2.0146e-06	1.8348e-06	1251.8	244.41	4.1108e-06	6.6104e-07	305.44	85.238	67.481	20.265	7.1087e-06	27.478	0.00017459	0.00017421	4.8418e-05	1105.6	1.9042e-06	1.9e-06	1180.3	232.86	1.9025e-06	1.898e-06	284.25	80.482	64.255	19.626	1.9304e-06	26.444	40.304	94.028	173.500	-0.342	118.608	57.643	-0.287	7.268	216.986	219.391	6.769	13.949	14.079	20.990	131.877	20.301	-8191	255	
2990.145	1	1	0	0	0.077649	0.45151	0.14848	0.21018	0.16099	0.15319	0.1853	0.050918	0.11375	0.045085	0.1183	0.12282	0.14864	0.17959	0.19021	0.11668	-3.9562	-4.2083	-3.6458	-4.65	-3.575	-3.8083	-4.6667	-3.4521	-4.1646	-4.1813	-3.6937	-4.7104	-3.8458	-3.7542	-4.6562	-3.7	41.660	199.585	48.465	214.171	91.678	271.984	323.913	313.418	-10.066	188.132	18.584	245.511	230.516	254.988	56.513	235.165	0.00036197	0.00026305	0.00019	1166.2	4.5783e-06	4.4322e-06	1252.6	245.17	2.7821e-06	2.1744e-06	303.18	85.152	67.652	20.337	3.6838e-06	27.712	0.0001758	0.00017467	4.8204e-05	1104.9	1.9226e-06	1.902e-06	1181.8	233.19	1.9016e-06	1.921e-06	283.81	80.5	64.392	19.673	1.9133e-06	26.546	29.974	330.153	37.030	-0.522	142.610	68.459	-0.256	7.420	92.364	69.298	6.815	13.444	13.806	20.761	157.993	20.746	-8191	255	
2990.241	1	1	0	0	0.097695	0.10779	0.33525	0.21607	0.15754	0.03574	0.18945	0.25952	0.1798	0.14406	0.1521	0.20531	0.38295	0.23698	0.092457	0.065538	-3.8667	-4.3	-3.4896	-4.5125	-3.9583	-3.6917	-4.7958	-3.7062	-4.1042	-4.4896	-3.6979	-4.4396	-3.8792	-3.7604	-4.4208	-3.4625	220.796	170.878	259.813	296.309	25.728	12.339	245.909	298.368	205.070	101.587	151.603	340.150	275.379	140.847	273.021	180.495	0.00050626	0.00048416	3.0069e-05	1170.1	1.9509e-06	3.6624e-06	1251	243.89	3.2679e-06	2.612e-06	304.93	85.546	67.515	20.259	1.3325e-06	27.552	0.00017354	0.0001739	4.8228e-05	1106.5	1.913e-06	1.9103e-06	1180.7	233.07	1.9021e-06	1.9131e-06	283.91	80.498	64.296	19.636	1.9087e-06	26.418	48.896	160.154	72.339	-0.210	68.834	148.934	-0.186	7.173	156.249	79.903	6.854	13.997	14.072	21.147	-9.226	20.314	-8191	255	
2990.337	1	1	0	0	0.096002	0.30955	0.2837	0.19153	0.080363	0.14808	0.081963	0.20307	0.13764	0.12741	0.11662	0.14924	0.33981	0.20444	0.29636	0.16561	-3.675	-4.4812	-3.6042	-4.8042	-4.0396	-3.7667	-4.6792	-3.8104	-4.1458	-4.3146	-3.5354	-4.4771	-4.0083	-3.5229	-4.5979	-3.6083	242.631	274.137	230.567	295.174	112.597	4.161	224.123	133.178	243.938	44.170	235.140	291.758	81.693	236.795	340.362	323.048	0.00035951	0.00025984	0.00021898	1165	7.7776e-07	7.5929e-06	1247.1	243.78	5.4723e-06	2.1983e-06	305.31	85.707	67.914	20.373	4.1696e-06	27.403	0.00017396	0.00017458	4.8622e-05	1103.8	1.9311e-06	1.9209e-06	1181	232.91	1.9281e-06	1.906e-06	283.94	80.57	64.193	19.666	1.9107e-06	26.404	52.214	151.528	93.157	-0.077	278.392	86.049	-0.222	6.855	81.601	119.530	6.841	14.012	14.180	20.816	188.341	20.432	-8191	255	
2990.433	1	1	0	0	0.33848	0.24346	0.24816	0.36951	0.077503	0.25466	0.17511	0.2136	0.055995	0.11749	0.022856	0.15244	0.14923	0.21363	0.20037	0.17746	-3.6542	-4.5167	-3.375	-4.5292	-3.9354	-3.4083	-4.6354	-3.6312	-3.9958	-4.2188	-3.4729	-4.2958	-4.0729	-3.7333	-4.5646	-3.7271	110.277	315.566	199.889	344.924	41.714	116.481	163.072	327.115	-2.089	113.532	234.896	165.833	344.483	129.771	132.047	321.866	0.00064441	0.00033019	6.3032e-05	1167.1	2.7893e-06	3.4547e-06	1253.9	244.29	3.1743e-06	2.288e-06	302.46	85.689	67.818	20.164	1.071e-06	27.533	0.0001761	0.00017391	4.8249e-05	1104.6	1.9171e-06	1.9378e-06	1181.9	232.36	1.9512e-06	1.9147e-06	283.56	80.561	64.401	19.608	1.918e-06	26.398	0.912	326.409	17.584	-0.173	-4.213	305.812	-0.098	7.327	192.324	10.679	6.655	13.822	14.467	20.810	52.195	20.302	-8191	255	
2990.529	1	1	0	0	0.24692	0.033345	0.15232	0.3379	0.17286	0.25892	0.13333	0.16244	0.18471	0.096299	0.091111	0.12833	0.15686	0.17413	0.15149	0.2367	-3.7188	-4.3604	-3.4813	-4.3875	-4.1104	-3.7542	-4.6542	-3.7604	-3.8458	-4.475	-3.7125	-4.4146	-4.1354	-3.4979	-4.4729	-3.7875	265.949	49.453	305.565	329.820	174.972	54.601	255.399	8.345	268.486	177.020	262.215	-5.639	326.674	0.949	40.984	331.564	0.00046424	0.00046405	0.00015483	1167.4	6.9674e-06	1.3033e-06	1252.4	243.22	7.7757e-07	9.9979e-07	304.62	85.002	67.66	20.199	1.1832e-06	27.409	0.00017681	0.00017305	4.8644e-05	1105.8	1.937e-06	1.8932e-06	1181.1	232.61	1.9333e-06	1.9242e-06	283.87	80.435	64.297	19.618	1.908e-06	26.442	18.764	26.635	83.496	-0.275	160.962	287.934	-0.325	7.020	184.471	145.251	6.531	13.949	14.308	20.921	83.546	20.291	-8191	255	
2990.625	1	1	0	0	0.23841	0.042333	0.18625	0.21038	0.09489	0.21537	0.33777	0.1374	0.035855	0.052146	0.18714	0.069505	0.13168	0.16579	0.067665	0.091976	-3.5479	-4.4042	-3.4313	-4.5062	-4.1979	-3.3937	-4.7	-3.8792	-3.6792	-4.5208	-3.2979	-4.1875	-4.3375	-3.3167	-4.5667	-3.8854	258.497	233.591	105.067	252.640	139.078	31.097	252.691	144.923	164.012	323.535	11.650	57.840	-5.127	234.626	14.703	209.489	0.00063794	0.00016615	7.8369e-05	1169.3	2.416e-06	2.7006e-06	1252.9	242.94	1.1257e-06	1.9473e-06	304.32	85.427	67.363	20.184	3.6579e-06	27.426	0.00017733	0.00017524	4.8687e-05	1108.4	1.9054e-06	1.9255e-06	1180.8	232.56	1.9288e-06	1.919e-06	284	80.626	64.274	19.608	1.9071e-06	26.456	21.012	74.821	147.020	-0.134	206.556	119.049	-0.016	7.158	121.210	200.108	6.819	14.305	14.301	20.803	62.746	20.466	-8191	255	
2990.744	1	1	0	0	0.095265	0.17876	0.069755	0.42925	0.17566	0.10063	0.22533	0.071069	0.14925	0.045856	0.17627	0.14297	0.13578	0.19518	0.16632	0.1103	-3.3479	-4.5708	-3.2854	-4.2812	-4.525	-3.4437	-4.5312	-3.9896	-3.6125	-4.6396	-3.5625	-4.1646	-4.2833	-3.2667	-4.3667	-4.0229	90.674	183.670	131.681	295.862	83.022	15.343	287.273	31.763	242.751	159.798	328.780	9.528	209.171	298.694	83.960	-10.701	0.00056891	0.00027502	4.8759e-05	1167.7	6.236e-06	6.0709e-06	1258.1	243.96	5.9e-06	1.2838e-06	304.78	85.339	67.879	20.076	6.9127e-06	27.525	0.00017819	0.00017598	4.8526e-05	1106.8	1.9226e-06	1.9324e-06	1184.5	232.73	1.9379e-06	1.9237e-06	284.45	80.591	64.355	19.572	1.9287e-06	26.387	34.099	29.716	112.428	-0.309	116.040	145.679	-0.231	7.095	223.563	85.324	6.716	13.899	14.260	21.515	222.211	20.142	-8191	255	
2990.840	1	1	0	0	0.10244	0.022876	0.091529	0.14977	0.14464	0.15586	0.19421	0.18573	0.19779	0.17552	0.22945	0.083065	0.09571	0.21722	0.018322	0.1999	-3.2521	-4.6229	-3.5375	-4.1583	-4.4437	-3.4104	-4.5333	-4.1354	-3.7417	-4.6146	-3.6542	-4.0417	-4.4292	-3.6396	-4.2688	-4.0875	255.951	180.770	69.769	283.091	281.741	137.679	285.232	170.768	229.774	319.934	270.071	268.117	36.335	325.633	253.001	264.862	0.00047222	0.0001142	9.5784e-05	1169.1	4.2389e-06	7.3084e-06	1254.5	245.39	7.3624e-06	4.6752e-06	305.85	84.849	67.705	20.125	3.2075e-06	27.634	0.0001777	0.00017369	4.8698e-05	1107.9	1.9087e-06	1.928e-06	1182.6	233.42	1.9276e-06	1.8878e-06	284	80.527	64.366	19.553	1.9176e-06	26.405	37.945	262.869	327.318	-0.097	25.370	168.009	-0.305	7.013	101.311	86.405	7.138	13.917	14.237	21.048	60.252	20.168	-8191	255	
2990.937	1	1	0	0	0.10862	0.033656	0.16475	0.26324	0.19683	0.1682	0.11859	0.20881	0.27459	0.06949	0.1447	0.18474	0.089752	0.14961	0.1985	0.10298	-3.3688	-4.5479	-3.6271	-4.1229	-4.3146	-3.5812	-4.4625	-4.2354	-3.5312	-4.6438	-3.8563	-4.0125	-4.4938	-3.5604	-4.3396	-4.1687	193.106	83.393	126.157	238.985	134.369	297.758	279.815	280.679	49.007	344.370	299.185	219.702	134.517	313.623	191.082	192.485	0.00071667	0.00014467	5.3913e-05	1167.4	4.7182e-06	2.5339e-06	1255.9	243.25	1.0765e-06	3.4653e-06	303.25	84.919	68.081	20.353	4.8595e-06	27.514	0.00017682	0.00017528	4.874e-05	1106.1	1.9161e-06	1.9242e-06	1182.4	232.78	1.9155e-06	1.902e-06	284.04	80.449	64.395	19.627	1.9226e-06	26.416	15.543	84.190	79.419	-0.217	181.454	210.231	-0.224	6.927	106.777	1.713	6.759	14.404	14.100	21.505	94.204	20.361	-8191	255	
2991.033	1	1	0	0	0.11745	0.069165	0.058097	0.3492	0.14108	0.032533	0.11964	0.20261	0.041577	0.11778	0.075148	0.16962	0.342	0.19632	0.043045	0.15164	-3.2125	-4.5417	-3.8083	-4.1646	-4.3688	-3.3625	-4.3354	-4.4313	-3.4958	-4.6438	-3.9479	-3.6875	-4.4792	-3.4896	-4.2292	-4.3208	318.183	258.450	337.744	306.511	77.823	283.995	235.080	269.267	218.225	269.914	58.725	274.588	163.501	22.026	32.630	-4.413	0.00049417	0.0005364	0.00010905	1163.2	2.9278e-06	4.8308e-06	1256.6	244.31	4.8805e-06	1.5631e-06	303.7	85.414	67.639	20.22	3.6878e-06	27.546	0.00017682	0.0001765	4.8719e-05	1105.1	1.9242e-06	1.9316e-06	1184.4	233.14	1.9337e-06	1.9202e-06	283.65	80.54	64.311	19.598	1.9405e-06	26.41	35.672	118.939	18.938	-0.330	103.908	138.666	-0.202	7.317	80.599	165.900	6.761	13.937	14.055	21.040	238.901	20.271	-8191	255	
2991.129	1	1	0	0	0.10091	0.14493	0.1315	0.18931	0.11549	0.16849	0.096026	0.10652	0.115	0.2032	0.15504	0.14575	0.02928	0.24696	0.11289	0.14257	-3.2083	-4.5938	-3.7625	-3.7292	-4.5729	-3.3104	-4.3625	-4.4208	-3.3167	-4.7375	-4	-3.6208	-4.6021	-3.3271	-4.0479	-4.3083	340.871	266.596	125.434	320.840	121.074	236.559	13.051	203.966	217.331	238.557	277.918	80.465	17.342	-7.646	7.425	237.113	0.00050582	0.00036764	0.0001204	1169	1.4884e-06	6.3745e-07	1253.4	244.19	7.2636e-06	3.0298e-06	304.53	85.358	67.62	20.094	1.6522e-06	27.63	0.00017754	0.00017752	4.8627e-05	1107.5	1.9258e-06	1.9252e-06	1182.6	232.88	1.9475e-06	1.9242e-06	283.78	80.282	64.258	19.586	1.9381e-06	26.455	21.719	299.613	339.314	-0.060	201.310	100.589	-0.001	6.995	142.609	108.916	6.891	13.595	14.289	21.022	84.046	20.709	-8191	255	
2991.225	1	1	0	0	0.10013	0.2016	0.31361	0.19006	0.2077	0.23715	0.27125	0.15362	0.11629	0.17569	0.32293	0.17762	0.098117	0.34643	0.15348	0.15419	-3.0854	-4.4042	-3.9833	-3.75	-4.4792	-3.3854	-4.0771	-4.65	-3.2542	-4.5042	-4.0271	-3.5312	-4.725	-3.5042	-3.8812	-4.5146	344.183	237.890	180.570	163.257	156.585	37.462	344.199	320.748	306.577	269.492	322.277	308.035	251.113	330.860	168.490	306.357	0.00033385	0.00026307	9.079e-05	1166.8	2.8855e-06	2.8182e-06	1255.5	243.54	6.7616e-06	4.3214e-06	305.77	85.344	67.179	20.156	5.6772e-06	27.553	0.00017791	0.00017696	4.9179e-05	1106.6	1.9316e-06	1.9326e-06	1183.5	232.65	1.9413e-06	1.94e-06	284.04	80.468	64.122	19.574	1.941e-06	26.431	36.847	45.406	46.754	-0.094	130.096	96.661	-0.034	7.096	117.297	94.365	6.735	14.107	14.125	21.044	70.511	20.637	-8191	255	
2991.346	1	1	0	0	0.2193	0.20409	0.11698	0.3711	0.1959	0.045955	0.22417	0.069746	0.18098	0.34722	0.13041	0.2935	0.12927	0.1834	0.076849	0.13483	-3.2208	-4.5833	-3.85	-3.5771	-4.7333	-3.3792	-4.0979	-4.6	-3.4083	-4.3604	-4.1958	-3.55	-4.8125	-3.8333	-3.7958	-4.6583	323.845	180.005	326.130	-9.165	272.918	34.349	265.919	40.800	-4.989	49.419	214.746	311.593	343.236	0.565	154.573	20.874	0.00055617	0.0003139	2.6651e-05	1168.1	5.0547e-06	5.1398e-06	1258.1	243.56	3.9513e-06	5.287e-06	303.25	85.435	67.613	20.119	5.5667e-06	27.342	0.00017838	0.00017706	4.888e-05	1106.2	1.9496e-06	1.9368e-06	1183.3	232.86	1.9286e-06	1.9427e-06	284.19	80.709	64.257	19.559	1.9442e-06	26.409	49.933	-2.300	270.776	-0.161	84.008	135.137	0.009	7.063	163.910	102.381	6.735	14.114	14.244	20.897	176.718	20.124	-8191	255	
2991.442	1	1	0	0	0.022504	0.098612	0.13817	0.19628	0.22561	0.19652	0.082444	0.095268	0.25767	0.19511	0.1158	0.1873	0.13816	0.15378	0.070944	0.21189	-3.175	-4.2542	-4.2562	-3.8167	-4.5833	-3.7625	-4.0625	-4.7125	-3.4625	-4.1188	-4.3417	-3.5438	-4.4354	-3.7625	-3.7854	-4.4667	180.758	319.563	150.913	-9.640	322.528	51.309	270.135	284.715	112.748	248.550	260.714	270.753	-10.726	183.697	-4.280	69.614	0.0005384	0.00039641	0.00014868	1164.4	6.3921e-06	4.3466e-06	1255.5	244.65	5.4773e-06	1.4478e-06	305.12	84.73	67.293	20.119	2.6367e-06	27.434	0.00017933	0.00017581	4.8915e-05	1104.6	1.9318e-06	1.928e-06	1182.1	233.09	1.9333e-06	1.9241e-06	284.29	80.315	64.239	19.536	1.9219e-06	26.415	9.090	-2.351	101.812	-0.194	207.962	90.590	-0.301	7.066	264.926	175.925	6.773	13.830	14.423	21.147	192.041	20.380	-8191	255	
2991.536	1	1	0	0	0.09683	0.12771	0.17746	0.24469	0.26041	0.064854	0.11325	0.13374	0.32321	0.051557	0.1009	0.032716	0.18321	0.23247	0.14449	0.171	-3.2354	-4.0833	-4.2333	-3.6896	-4.4437	-3.8979	-3.8708	-4.55	-3.3708	-4.2708	-4.2396	-3.6146	-4.4812	-3.8625	-3.8833	-4.6208	60.225	273.634	187.637	309.574	177.133	305.264	309.537	243.092	237.418	304.601	248.421	236.085	291.937	83.857	191.983	232.115	0.00046819	0.00013353	0.00016775	1169.2	6.1707e-06	4.1398e-06	1258.9	244.71	5.0169e-06	3.1713e-06	305.02	84.588	67.698	20.108	2.068e-06	27.421	0.00017831	0.00017603	4.8745e-05	1106.2	1.9414e-06	1.9413e-06	1184	232.88	1.9327e-06	1.9351e-06	284.01	80.324	64.254	19.551	1.9317e-06	26.423	10.460	58.444	71.909	-0.305	64.742	90.708	-0.071	7.104	129.910	207.407	6.878	13.994	14.405	20.973	228.100	20.402	-8191	255	
2991.632	1	1	0	0	0.13141	0.23454	0.18785	0.1304	0.12185	0.10546	0.21489	0.071169	0.087051	0.19353	0.24991	0.19808	0.072891	0.043044	0.11075	0.23542	-3.2396	-4.0708	-4.5042	-3.8083	-4.5312	-3.8896	-3.6937	-4.6646	-3.6583	-4.0833	-4.3187	-3.3917	-4.5479	-3.8125	-3.6437	-4.675	309.632	209.401	282.358	147.992	158.972	335.448	326.676	168.761	185.677	55.754	-10.323	7.852	214.553	95.331	19.679	328.335	0.00025802	0.00044919	0.00012656	1166.3	5.6863e-06	5.7121e-06	1256.3	245.14	1.5392e-06	2.9675e-06	304.74	85.035	67.653	20.148	3.94e-06	27.539	0.00017868	0.00017569	4.8378e-05	1104.8	1.9452e-06	1.9242e-06	1183.7	233.32	1.9362e-06	1.928e-06	284.57	80.288	64.444	19.561	1.9422e-06	26.374	19.321	28.661	107.468	-0.467	90.511	266.454	-0.351	7.145	120.205	227.840	6.821	13.902	14.354	20.612	35.145	20.688	-8191	255	
2991.706	1	1	0	0	0.25334	0.15074	0.11611	0.5634	0.045859	0.07279	0.36643	0.084173	0.074407	0.066305	0.13242	0.048574	0.2445	0.24188	0.058889	0.1419	-3.0896	-4.1354	-4.4563	-3.4979	-4.4583	-3.9458	-3.7854	-4.6146	-3.4583	-4.1104	-4.6729	-3.4	-4.5125	-4.2354	-3.4271	-4.6833	52.762	178.027	294.101	300.302	137.315	181.014	278.523	318.912	52.755	7.677	78.037	199.973	241.041	287.463	297.185	293.618	0.00055843	0.00036883	0.00013097	1167.7	5.2974e-06	3.3714e-06	1255.5	243.8	2.8291e-06	2.4148e-06	304.84	85.518	68.073	20.082	5.6322e-06	27.45	0.00017821	0.00017766	4.891e-05	1106	1.9318e-06	1.924e-06	1182.3	232.94	1.9323e-06	1.9264e-06	284.1	80.357	64.597	19.577	1.9477e-06	26.394	29.146	35.363	-9.027	-0.389	116.733	204.941	-0.258	7.516	192.442	28.836	6.851	14.140	14.494	20.716	308.355	20.815	-8191	255	
2991.825	1	1	0	0	0.30591	0.20144	0.25418	0.14951	0.10961	0.16428	0.16009	0.20912	0.15578	0.059427	0.24463	0.044501	0.34203	0.43752	0.070888	0.18702	-3.4396	-3.8333	-4.5062	-3.5458	-4.1687	-3.9792	-3.6979	-4.7458	-3.6042	-3.6833	-4.7208	-3.4396	-4.4021	-4.1896	-3.3542	-4.5521	213.794	182.736	186.366	311.342	333.437	111.811	239.803	13.434	149.848	-4.140	335.682	243.359	301.395	320.658	200.148	306.208	0.00060349	0.00036899	0.00012773	1166	6.2187e-06	2.6313e-06	1251.7	245.16	5.3873e-06	2.5316e-06	302.83	85.952	67.509	20.04	5.1706e-06	27.523	0.00017853	0.0001772	4.8881e-05	1103.9	1.9507e-06	1.9306e-06	1182.8	233.47	1.9532e-06	1.9349e-06	283.78	80.48	64.248	19.519	1.9494e-06	26.437	67.559	79.447	60.912	-0.414	94.642	268.502	-0.229	7.229	130.729	84.496	6.783	13.686	14.257	20.834	85.274	20.621	-8191	255	
2991.921	1	1	0	0	0.13744	0.34122	0.32606	0.073699	0.28683	0.052587	0.04331	0.11731	0.14854	0.16719	0.18016	0.23828	0.11015	0.1536	0.069933	0.025425	-3.5687	-3.7521	-4.5083	-3.3958	-4.2167	-4.3375	-3.5917	-4.5437	-3.675	-3.7083	-4.5333	-3.5667	-4.0896	-4.1208	-3.4688	-4.4708	27.573	178.216	162.912	207.295	109.338	269.836	331.986	103.680	251.113	132.866	137.198	313.904	270.351	120.882	-5.034	194.202	0.00052127	0.00027653	0.00011175	1164.6	3.2491e-06	4.2917e-06	1249.8	244.48	2.3028e-06	1.8121e-06	303.58	85.342	67.954	20.065	2.7022e-06	27.602	0.00017585	0.00017747	4.9165e-05	1104.2	1.944e-06	1.9394e-06	1180.8	233.36	1.9437e-06	1.9495e-06	283.49	80.34	64.57	19.532	1.9326e-06	26.474	35.490	346.708	9.585	-0.527	213.564	133.382	-0.243	7.018	289.147	-6.891	6.887	13.924	14.537	20.748	64.783	20.681	-8191	255	
2992.017	1	1	0	0	0.2053	0.15078	0.045462	0.1532	0.15412	0.10249	0.1754	0.22904	0.18113	0.26759	0.04635	0.056263	0.3709	0.077886	0.33962	0.18529	-3.5958	-3.7438	-4.4479	-3.6063	-4.0667	-4.3417	-3.5917	-4.5188	-3.8979	-3.5312	-4.5271	-3.5187	-4.0146	-4.3583	-3.5187	-4.2417	340.092	127.458	226.771	276.203	242.483	204.586	313.658	308.041	235.827	208.321	326.359	91.779	263.448	-1.623	162.946	254.789	0.00040223	0.0003781	5.9519e-05	1163.4	4.8918e-06	2.0128e-06	1251.5	244.39	4.3106e-06	1.5788e-06	303.94	85.287	68.175	20.126	5.4946e-06	27.428	0.00017809	0.00017546	4.9029e-05	1102.3	1.9345e-06	1.9247e-06	1181.6	233.35	1.9232e-06	1.9478e-06	284.27	80.219	64.368	19.551	1.9472e-06	26.426	18.715	184.920	261.484	-0.203	174.821	136.279	-0.255	7.017	176.240	241.970	6.643	14.125	14.627	20.650	242.806	20.772	-8191	255	
2992.113	1	1	0	0	0.35298	0.074225	0.042104	0.20046	0.056802	0.084753	0.18398	0.13589	0.20575	0.12286	0.2911	0.15459	0.18616	0.21059	0.19608	0.24281	-3.6042	-3.5042	-4.3979	-3.6146	-3.9625	-4.4542	-3.6813	-4.3271	-3.9	-3.6729	-4.5604	-3.5729	-4.1542	-4.5542	-3.4771	-4.5062	163.416	48.527	71.326	317.709	162.438	141.664	282.836	220.123	184.026	88.393	303.603	135.417	344.639	38.435	280.770	261.909	0.00034492	0.00059854	0.00016562	1168.2	1.5772e-06	4.8544e-06	1247.9	244.92	6.0223e-06	8.8285e-07	304.14	84.834	67.911	20.112	3.8916e-06	27.684	0.0001771	0.00017609	4.9363e-05	1105.6	1.9167e-06	1.9309e-06	1180.4	233.22	1.9384e-06	1.9453e-06	284.28	80.277	64.537	19.534	1.9423e-06	26.519	53.251	124.265	27.013	-0.528	59.127	57.566	-0.140	7.181	232.797	311.271	7.211	13.954	14.381	20.863	109.380	20.739	-8191	255	
2992.234	1	1	0	0	0.2819	0.18121	0.14091	0.29267	0.14777	0.063717	0.27117	0.1628	0.16305	0.040767	0.1994	0.080382	0.20762	0.018926	0.054803	0.19993	-3.8021	-3.525	-4.7042	-3.6625	-3.9396	-4.4688	-3.5208	-4.2937	-4.0083	-3.5146	-4.7375	-3.5583	-3.7625	-4.4646	-3.4021	-4.2208	244.306	176.343	287.070	347.154	291.121	213.906	282.026	215.900	217.755	282.686	36.741	69.354	337.418	232.454	57.577	221.971	0.00027448	0.00018742	0.00017801	1165.3	2.7643e-06	3.7514e-06	1258.1	244.3	6.681e-06	1.901e-06	305.24	84.659	67.576	20.2	3.016e-06	27.554	0.00017776	0.00017699	4.9243e-05	1104.8	1.9305e-06	1.922e-06	1181.7	233.34	1.9505e-06	1.9494e-06	284.68	80.155	64.437	19.571	1.9445e-06	26.477	52.097	142.020	92.753	-0.416	65.764	136.464	-0.320	7.192	150.770	298.361	6.921	13.995	14.276	20.791	305.799	20.410	-8191	255	
2992.305	1	1	0	0	0.1531	0.12785	0.40239	0.13807	0.10271	0.11026	0.045323	0.19434	0.065276	0.23116	0.060978	0.28316	0.18493	0.11905	0.076814	0.11381	-3.8146	-3.4146	-4.6792	-3.8667	-3.7188	-4.4542	-3.6333	-4.2854	-4.2729	-3.5229	-4.5563	-3.8896	-4.0604	-4.4292	-3.5958	-4.2729	269.807	31.642	288.040	21.148	322.635	135.607	198.778	295.735	194.520	102.181	21.135	244.373	310.169	196.098	192.364	7.918	0.00033066	0.00045295	3.9278e-05	1165.5	5.0557e-06	2.4041e-06	1249.7	244.07	2.8775e-06	1.7191e-06	304.29	84.999	67.52	20.015	2.3879e-06	27.7	0.00017771	0.0001758	4.915e-05	1104.8	1.929e-06	1.9241e-06	1181.6	232.75	1.9461e-06	1.9339e-06	284.11	80.153	64.316	19.546	1.9235e-06	26.543	56.641	125.003	214.862	-0.531	74.921	146.218	-0.289	7.257	29.582	214.243	7.127	13.572	13.990	20.462	213.693	20.589	-8191	255	
2992.426	1	1	0	0	0.23402	0.12894	0.15804	0.14758	0.25067	0.17091	0.3249	0.081388	0.067398	0.099804	0.071013	0.10692	0.1658	0.16624	0.062693	0.13732	-3.8312	-3.7792	-4.5604	-3.8521	-3.7292	-4.4667	-3.5333	-4.2292	-4.1604	-3.2792	-4.6458	-4.0229	-3.675	-4.6271	-3.3833	-4.1813	107.895	194.255	82.119	306.254	346.937	144.594	291.914	338.087	137.426	104.295	296.415	98.865	176.504	165.794	294.369	119.441	0.00064406	0.00026381	0.00013981	1163.5	4.6569e-06	3.5842e-06	1252.9	245.61	2.6387e-06	4.0374e-06	303.44	85.443	67.41	20.113	1.2651e-06	27.585	0.00017775	0.00017713	4.8507e-05	1102.5	1.9461e-06	1.9413e-06	1179.7	233.49	1.9317e-06	1.9482e-06	284.06	80.381	64.324	19.568	1.9466e-06	26.502	39.395	-4.130	82.147	-0.442	99.939	13.219	-0.419	7.319	241.539	147.085	7.022	13.716	14.125	20.766	251.312	20.460	-8191	255	
2992.522	1	1	0	0	0.061314	0.033447	0.07381	0.10395	0.18182	0.26022	0.16155	0.19474	0.15644	0.42812	0.24541	0.089895	0.21938	0.045575	0.13205	0.15606	-4.1417	-3.2542	-4.6333	-3.9604	-3.7062	-4.6083	-3.55	-4.0854	-4.3708	-3.3187	-4.6417	-4.125	-3.5896	-4.5146	-3.5729	-3.9083	166.271	129.603	137.885	185.995	157.690	30.321	254.892	191.889	292.942	297.845	314.165	100.497	5.063	35.495	187.232	235.008	0.00077015	0.00028618	0.00011743	1165.8	5.1951e-06	6.2109e-06	1254.4	243.24	2.3182e-06	2.5694e-06	303.8	84.831	67.663	20.173	2.7507e-06	27.544	0.00017736	0.00017714	4.8778e-05	1103.5	1.9358e-06	1.9191e-06	1181.6	232.84	1.9176e-06	1.9357e-06	283.47	80.153	64.369	19.561	1.9302e-06	26.456	57.844	338.219	347.809	-0.492	99.149	103.997	-0.263	7.219	176.160	266.234	6.943	13.789	14.049	20.522	181.505	20.735	-8191	255	
2992.618	1	1	0	0	0.12275	0.071137	0.28025	0.020937	0.2468	0.11448	0.25562	0.19845	0.10803	0.085803	0.22384	0.056583	0.14097	0.35275	0.057934	0.1348	-4.1729	-3.4604	-4.2063	-4.1	-3.3479	-4.5312	-3.8979	-4.1083	-4.35	-3.3667	-4.4542	-4.0375	-3.6417	-4.4708	-3.5396	-3.9396	335.291	310.138	15.686	231.549	284.034	183.168	209.610	263.701	254.361	299.919	328.255	109.502	340.095	334.079	8.510	71.291	0.0001617	0.00033987	0.00016046	1169	4.0779e-06	1.5262e-06	1252.1	244.45	4.8741e-06	2.5612e-07	306.43	85.696	67.223	20.168	2.7979e-06	27.554	0.0001779	0.00017691	4.8664e-05	1103.6	1.9466e-06	1.9196e-06	1181.5	232.79	1.945e-06	1.9509e-06	284.85	80.528	64.256	19.563	1.9387e-06	26.467	-4.132	73.222	130.769	-0.389	285.152	147.532	-0.390	7.352	340.810	183.661	6.874	13.977	14.133	21.267	114.850	20.773	-8191	255	
2992.715	1	1	0	0	0.091119	0.036002	0.11429	0.1502	0.12466	0.11271	0.2817	0.21161	0.14245	0.12846	0.071509	0.12815	0.088857	0.15511	0.14191	0.23559	-4.1542	-3.5229	-4.3583	-4.1417	-3.5667	-4.2667	-3.8875	-4.0292	-4.3438	-3.5708	-4.3333	-4.0604	-3.6708	-4.4667	-3.8208	-4.0813	36.088	210.868	277.365	-5.598	6.603	326.830	300.146	286.354	292.779	161.713	97.688	338.804	18.605	217.585	335.683	201.676	0.00052898	0.00041461	0.00012183	1163.9	5.9646e-06	1.4789e-06	1249.9	245.41	2.3751e-06	3.0304e-06	303.97	85.025	68.176	20.255	2.4118e-07	27.45	0.00017912	0.0001761	4.864e-05	1102.2	1.9236e-06	1.9306e-06	1179.5	233.19	1.9443e-06	1.925e-06	283.91	80.313	64.521	19.559	1.9325e-06	26.467	41.188	80.521	67.732	-0.411	90.005	63.423	-0.337	7.347	148.632	300.967	6.698	13.898	14.028	21.038	102.779	21.170	-8191	255	
2992.833	1	1	0	0	0.10933	0.12899	0.099183	0.11745	0.062241	0.13601	0.29787	0.39722	0.15211	0.15045	0.1031	0.083228	0.057763	0.06411	0.091707	0.093108	-3.9813	-3.4083	-4.2146	-4.1604	-3.6937	-4.4542	-3.8563	-3.875	-4.4938	-3.5417	-4.3792	-4.2604	-3.6625	-4.4521	-3.8292	-3.9125	100.651	282.889	157.308	250.144	128.391	76.473	266.486	198.999	263.139	281.161	289.216	291.023	241.014	245.812	202.032	174.791	0.00031634	0.00037995	0.00010784	1162	5.3941e-06	1.4329e-06	1251.5	245.05	4.1937e-06	2.948e-06	305.27	84.776	68.067	20.172	2.9122e-06	27.553	0.00017684	0.00017623	4.8787e-05	1104	1.9252e-06	1.9021e-06	1178.9	233.44	1.9158e-06	1.9108e-06	284.47	80.336	64.424	19.545	1.9511e-06	26.504	38.254	135.959	27.511	-0.631	59.796	283.975	-0.277	7.097	140.686	51.053	6.812	14.119	14.208	20.573	82.091	21.082	-8191	255	
2992.905	1	1	0	0	0.37551	0.10261	0.24512	0.17015	0.1601	0.042575	0.19648	0.11927	0.1682	0.068606	0.14679	0.26154	0.21744	0.11927	0.13701	0.16825	-4.0687	-3.4729	-4.1979	-4.4708	-3.4688	-4.6542	-4.1875	-3.6396	-4.3042	-3.5396	-4.1646	-4.2375	-3.6667	-4.6375	-4.0125	-3.5625	219.512	331.667	129.549	21.805	214.897	190.011	295.371	141.580	140.741	164.633	308.631	293.250	308.600	34.901	257.572	209.230	0.00010147	0.00041543	0.00013709	1164.5	4.5622e-06	3.4318e-06	1252.7	245.54	3.1697e-06	3.9748e-06	304.63	84.99	67.925	20.234	2.2688e-06	27.531	0.00017619	0.00017634	4.8983e-05	1105.3	1.9467e-06	1.9242e-06	1181.5	233.68	1.9419e-06	1.9459e-06	284.65	80.28	64.476	19.609	1.9488e-06	26.416	29.224	49.807	8.757	-0.267	149.901	322.486	-0.572	7.283	93.885	76.333	6.825	13.870	14.128	20.869	177.410	20.549	-8191	255	
2993.001	1	1	0	0	0.072103	0.35731	0.2832	0.12984	0.093665	0.11218	0.064483	0.17239	0.2933	0.083491	0.27885	0.16453	0.077116	0.095562	0.077392	0.11732	-4.0833	-3.5292	-4.0521	-4.3708	-3.6292	-4.4792	-4.1042	-3.6312	-4.6021	-3.5083	-4.0917	-4.4	-3.15	-4.6417	-4.1312	-3.3229	107.795	230.915	197.123	304.703	6.536	103.534	191.468	5.716	296.281	223.263	318.191	161.155	64.081	55.155	301.546	50.094	0.00056128	0.00027001	0.0002451	1165.1	5.5498e-06	3.8901e-06	1253.6	243.89	5.008e-06	1.8473e-06	303.27	84.785	67.573	20.251	7.8511e-07	27.664	0.00017934	0.00017997	4.9319e-05	1106.8	1.9714e-06	1.9507e-06	1182.9	233.34	1.9591e-06	1.9474e-06	284.2	80.544	64.449	19.65	1.9874e-06	26.545	-0.890	216.323	24.519	-0.208	108.583	149.975	-0.280	7.215	130.153	252.583	7.057	14.205	14.573	21.243	165.237	20.648	-8191	255	
2993.122	1	1	0	0	0.13941	0.17368	0.089517	0.05777	0.33797	0.056536	0.15381	0.123	0.028087	0.019212	0.12522	0.27897	0.20635	0.16124	0.17302	0.029352	-4.6146	-3.4313	-3.7979	-4.6792	-3.3771	-4.3812	-4.2125	-3.4896	-4.6646	-3.675	-4.0083	-4.5625	-3.4896	-4.3271	-4.2354	-3.4729	30.974	205.281	319.258	71.268	347.227	32.069	334.528	21.498	162.331	340.683	15.086	305.420	324.886	61.673	265.986	51.667	0.00050955	0.00046812	1.3994e-05	1168	1.349e-06	2.8147e-06	1249	244.95	5.7598e-06	3.1097e-06	304.35	84.981	67.424	20.063	2.4819e-06	27.808	0.0001808	0.00018011	4.9839e-05	1108.4	1.9688e-06	1.9513e-06	1182.3	233.11	1.9814e-06	1.9881e-06	285.24	80.484	64.244	19.622	1.9905e-06	26.631	41.726	39.432	319.922	-0.587	348.954	58.925	-0.488	7.105	75.704	164.828	6.703	14.187	14.263	21.052	153.106	20.656	-8191	255	
2993.218	1	1	0	0	0.17445	0.12447	0.26944	0.28518	0.10591	0.24891	0.11875	0.18224	0.1611	0.17526	0.088535	0.25723	0.20704	0.093363	0.21967	0.21088	-4.3104	-3.4729	-3.9396	-4.4271	-3.3958	-4.1208	-4.2229	-3.4958	-4.3938	-3.8417	-3.8896	-4.3917	-3.4917	-4.1792	-4.1312	-3.5396	113.173	39.793	240.219	263.307	253.269	288.323	159.445	320.579	109.093	280.984	260.953	52.244	7.111	184.119	222.461	195.236	0.00037406	0.00094163	0.00010315	1168.2	9.8792e-07	1.1424e-06	1254.8	244.37	5.8628e-06	6.563e-07	306.07	85.948	67.599	20.163	3.7455e-06	27.74	0.00018161	0.0001802	4.9685e-05	1108.8	1.9836e-06	1.9577e-06	1184.8	233.24	1.9682e-06	1.9556e-06	285.17	80.678	64.449	19.617	1.9599e-06	26.521	35.545	42.500	115.341	-0.251	310.897	317.499	-0.182	7.072	180.855	239.690	6.814	14.389	13.903	21.104	155.782	20.259	-8191	255	
2993.314	1	1	0	0	0.25682	0.072842	0.17608	0.16944	0.29367	0.2209	0.33699	0.39733	0.14775	0.182	0.1243	0.2057	0.18767	0.010666	0.15752	0.103	-4.2708	-3.6375	-3.6229	-4.7167	-3.3688	-4.0687	-4.2958	-3.4167	-4.5875	-3.8333	-3.5958	-4.6333	-3.5583	-4.1833	-4.2521	-3.5687	215.431	215.609	305.562	304.486	331.518	331.776	245.824	340.754	133.154	256.260	269.787	55.299	93.822	111.408	119.456	284.379	0.00046736	0.00055066	0.00013097	1169.5	4.4415e-06	2.9385e-06	1259.8	245.07	3.6522e-06	6.4416e-06	304.68	85.344	67.536	20.243	5.5909e-06	27.655	0.00018023	0.00017798	4.939e-05	1110.7	1.9707e-06	1.9553e-06	1187.1	233.64	1.9625e-06	1.9555e-06	284.78	80.585	64.38	19.617	1.945e-06	26.45	-0.013	92.153	164.448	-0.361	93.862	4.928	-0.096	7.012	287.463	138.864	7.053	13.669	14.117	21.323	247.213	20.033	-8191	255	
2993.410	1	1	0	0	0.16555	0.2517	0.073123	0.24217	0.17993	0.21468	0.17029	0.18067	0.15822	0.13205	0.051525	0.08799	0.11546	0.48355	0.2131	0.19479	-4.3417	-3.9083	-3.65	-4.6375	-3.6375	-4.25	-4.5542	-3.4896	-4.5437	-3.9708	-3.7042	-4.6521	-3.6125	-3.9646	-4.3708	-3.5646	258.347	44.465	54.792	312.637	187.434	219.424	296.777	308.738	-8.066	89.255	338.419	231.309	173.282	-0.086	162.033	89.019	0.00039811	0.00014576	7.262e-05	1173.9	2.7779e-06	4.8517e-06	1259.9	245.77	4.4673e-06	1.4206e-06	304.72	85.714	67.801	20.141	6.7452e-06	27.899	0.00018058	0.00017931	4.9627e-05	1110.7	1.9526e-06	1.9408e-06	1187.6	233.72	1.964e-06	1.9627e-06	285.2	80.674	64.413	19.624	1.966e-06	26.457	4.327	89.738	50.101	-0.201	181.217	176.811	-0.249	7.137	100.690	277.320	6.752	13.823	14.077	20.801	92.742	20.207	-8191	255	
2993.529	1	1	0	0	0.1445	0.15436	0.16524	0.20919	0.097882	0.099506	0.30228	0.060661	0.1359	0.22531	0.18318	0.16715	0.2901	0.11859	0.030736	0.072798	-4.2208	-4.0437	-3.6	-4.7875	-3.6354	-3.9562	-4.5542	-3.4292	-4.3375	-4.0771	-3.6771	-4.3708	-3.6854	-3.8854	-4.3771	-3.3875	163.886	65.166	219.560	25.417	148.497	200.241	267.410	224.201	232.424	320.431	149.734	15.841	40.799	270.351	4.466	92.935	0.00033906	0.00048176	0.00014298	1172	6.0021e-06	3.58e-06	1253.8	244.22	1.2418e-06	4.4524e-06	304.71	85.783	67.204	20.234	5.3491e-06	27.473	0.0001793	0.00017912	5.028e-05	1110.4	1.9602e-06	1.9704e-06	1186.5	233.49	1.9804e-06	1.9499e-06	284.49	80.617	64.442	19.661	1.9436e-06	26.468	51.512	154.762	30.773	-0.487	182.887	183.592	-0.204	7.083	57.703	182.588	7.067	14.068	13.755	21.556	182.222	20.680	-8191	255	
2993.603	1	1	0	0	0.20779	0.18265	0.18048	0.27389	0.098237	0.21623	0.14116	0.092197	0.071454	0.064429	0.20552	0.040151	0.20486	0.20786	0.016626	0.069967	-3.9875	-3.8625	-3.3729	-4.6375	-3.7354	-4.025	-4.5375	-3.5958	-4.1729	-4.1021	-3.6312	-4.6417	-3.6729	-3.7271	-4.5437	-3.55	240.272	225.776	286.143	313.182	325.107	183.237	233.250	227.256	191.652	231.184	215.954	107.239	249.325	24.750	111.572	204.667	0.0004753	0.0002833	4.5471e-05	1171.8	4.3064e-06	2.6052e-06	1257	244.67	1.0139e-06	4.4868e-06	306.08	85.523	67.73	20.29	3.2433e-06	27.323	0.00017897	0.00017878	4.9698e-05	1111.2	1.9581e-06	1.9581e-06	1186.9	233.63	1.9411e-06	1.9782e-06	285.08	80.843	64.613	19.687	1.9583e-06	26.505	23.195	12.339	51.103	-0.537	291.267	79.646	-0.255	7.204	136.817	137.873	6.953	13.703	14.314	21.149	123.820	20.490	-8191	255	
2993.699	1	1	0	0	0.0882	0.074186	0.12662	0.12622	0.074594	0.092338	0.14415	0.17508	0.057124	0.16424	0.12614	0.08943	0.40574	0.36351	0.1225	0.053808	-3.9833	-4.2708	-3.4771	-4.6458	-3.975	-3.8021	-4.6	-3.4875	-4.1229	-4.2479	-3.6042	-4.5729	-3.8396	-3.7229	-4.2979	-3.55	17.412	133.296	134.020	329.078	258.118	313.392	267.120	110.361	295.920	-8.404	224.726	227.200	7.118	-4.171	244.301	0.998	0.00045579	0.00019922	5.4785e-05	1177.5	3.5895e-06	2.6663e-06	1255.7	245.01	1.4359e-06	4.4555e-06	303.58	85.815	67.499	19.988	1.1622e-06	27.434	0.00018034	0.00017925	4.9538e-05	1112.8	1.9671e-06	1.9538e-06	1187.7	233.86	1.9668e-06	1.9515e-06	284.93	80.666	64.367	19.554	1.9631e-06	26.548	21.458	224.455	289.569	-0.374	135.974	152.567	-0.339	7.061	295.592	274.693	6.744	14.032	13.981	20.934	17.151	20.519	-8191	255	
2993.795	1	1	0	0	0.11711	0.17478	0.11479	0.10703	0.12217	0.22958	0.34695	0.16352	0.1686	0.077355	0.1497	0.14233	0.19394	0.12833	0.048567	0.11084	-3.8438	-4.3646	-3.4417	-4.5854	-3.8021	-3.7396	-4.7063	-3.3812	-4.1188	-4.1854	-3.4729	-4.6271	-3.9771	-3.6833	-4.6104	-3.5	5.635	186.739	60.794	7.531	294.189	36.437	294.058	232.981	200.771	64.996	250.219	226.975	38.527	334.361	319.623	155.295	0.00025367	0.00049369	5.7835e-05	1173.2	3.5645e-06	1.605e-06	1261.9	245.79	2.9021e-06	3.0145e-06	304.4	86.173	67.066	20.24	2.1032e-06	27.389	0.000181	0.00017877	4.9791e-05	1112.8	1.9704e-06	1.959e-06	1187.1	233.69	1.9628e-06	1.9702e-06	285	80.882	64.284	19.635	1.9553e-06	26.48	38.991	85.193	4.323	-0.220	47.407	169.703	-0.295	6.940	136.012	159.153	6.961	13.925	14.221	20.660	239.846	20.508	-8191	255	
2993.914	1	1	0	0	0.10653	0.1514	0.020026	0.2014	0.27957	0.15561	0.15866	0.25412	0.18262	0.087169	0.080303	0.064733	0.22119	0.19061	0.07195	0.26011	-3.6104	-4.3083	-3.5208	-4.6146	-4.075	-3.7208	-4.6917	-3.7375	-3.9021	-4.4833	-3.7021	-4.6229	-3.9437	-3.8333	-4.4396	-3.8104	185.413	1.813	217.857	-6.735	319.029	63.295	298.757	319.486	31.952	117.965	325.093	308.259	246.169	304.664	94.884	326.230	0.00046184	0.00049285	8.5195e-05	1170	1.6238e-06	3.7233e-06	1259	245.46	2.4651e-06	4.5295e-06	304.56	84.67	67.86	19.985	4.9567e-06	27.348	0.00018097	0.00017754	4.9623e-05	1113	1.9825e-06	1.9594e-06	1187.4	233.61	1.9631e-06	1.9509e-06	284.62	80.597	64.546	19.55	1.9656e-06	26.485	18.127	28.785	119.841	-0.279	70.021	166.531	-0.200	7.082	89.978	-0.460	6.844	13.943	14.265	21.047	24.546	20.703	-8191	255	
2994.010	1	1	0	0	0.13801	0.070855	0.084186	0.37278	0.36506	0.27054	0.20509	0.15331	0.066388	0.17996	0.19524	0.28626	0.17173	0.057977	0.27334	0.13593	-3.6375	-4.2562	-3.3729	-4.375	-4.0312	-3.4813	-4.7104	-3.9833	-3.8271	-4.4104	-3.4396	-4.3708	-4.0375	-3.5938	-4.4625	-3.8354	80.438	90.237	167.937	0.758	126.544	127.126	281.700	338.300	138.774	238.253	56.887	332.712	226.160	271.483	53.781	198.424	0.0003539	0.00069392	0.0001377	1174.5	6.9092e-06	3.7203e-06	1258.6	245.91	7.7039e-06	5.3103e-06	304.17	86.052	68.251	20.242	3.9648e-06	27.718	0.00018025	0.00017868	4.9986e-05	1112.4	1.9569e-06	1.9657e-06	1188.5	233.96	1.9629e-06	1.9416e-06	284.89	80.805	64.658	19.693	1.9684e-06	26.549	93.875	29.147	239.780	-0.423	80.023	41.690	-0.196	7.281	152.360	16.527	6.841	14.163	13.964	21.257	125.068	20.328	-8191	255	
2994.106	1	1	0	0	0.068779	0.02467	0.28174	0.1931	0.099318	0.17906	0.14651	0.20121	0.099105	0.12254	0.23771	0.0058009	0.1264	0.21522	0.32107	0.29407	-3.6	-4.5667	-3.4354	-4.5458	-4.0292	-3.4271	-4.8458	-3.8604	-3.6875	-4.6813	-3.275	-4.1813	-4.4729	-3.4062	-4.7458	-3.9521	333.359	292.955	70.019	322.030	122.973	121.324	282.836	145.972	276.706	2.647	264.107	97.452	342.848	85.383	49.937	140.811	0.00035571	0.00057166	0.00014678	1176.6	5.5062e-06	2.8728e-06	1263.1	244.51	2.2776e-06	3.0934e-06	304.67	85.396	67.723	20.342	3.1622e-06	27.833	0.00017937	0.00017803	5.0199e-05	1113.7	1.9686e-06	1.9648e-06	1189.2	233.97	1.9619e-06	1.9412e-06	284.75	80.844	64.539	19.663	1.9806e-06	26.582	72.962	138.096	95.466	-0.194	85.953	72.503	-0.230	6.708	200.518	162.775	6.612	14.367	13.704	21.027	245.730	20.919	-8191	255	
2994.202	1	1	0	0	0.14134	0.11974	0.086423	0.24005	0.12797	0.042015	0.1455	0.16116	0.10797	0.084355	0.15852	0.08601	0.015761	0.22471	0.29827	0.093239	-3.3646	-4.7833	-3.3917	-4.2312	-4.4604	-3.5042	-4.7583	-3.9104	-3.7125	-4.5687	-3.5312	-4.2625	-4.1917	-3.4292	-4.3792	-3.8104	48.169	278.042	180.089	314.771	272.979	-2.360	296.172	273.721	214.981	253.784	72.650	120.220	-5.212	82.681	247.529	278.782	0.00033711	0.00039462	0.00017634	1179.7	1.3991e-06	1.8025e-06	1261	244.55	4.2117e-06	1.0845e-06	302.75	84.774	68.102	20.296	4.2256e-06	27.765	0.00018089	0.00017868	4.9637e-05	1114.8	1.938e-06	1.959e-06	1187.5	233.16	1.9499e-06	1.9451e-06	283.8	80.594	64.476	19.628	1.9637e-06	26.496	36.936	52.355	89.770	-0.357	332.276	197.107	-0.312	7.131	175.677	106.780	6.363	13.868	14.143	20.954	144.894	20.266	-8191	255	
2994.298	1	1	0	0	0.24352	0.18145	0.2326	0.1247	0.12274	0.31677	0.31773	0.03125	0.28093	0.10638	0.12621	0.2326	0.28076	0.013432	0.13382	0.15531	-3.2833	-4.6146	-3.4583	-4.175	-4.1062	-3.475	-4.625	-3.9333	-3.9354	-4.4229	-3.7021	-4.0479	-4.3875	-3.5604	-4.4104	-3.9813	255.225	195.201	43.450	297.947	100.695	109.810	259.074	191.302	95.427	-3.781	21.563	307.274	118.258	9.373	47.589	137.348	0.000548	0.00033012	0.00015371	1175.6	5.6573e-07	3.1675e-06	1263.6	244.83	5.065e-06	2.3626e-06	303.07	84.974	67.878	20.158	4.228e-06	27.734	0.00017955	0.00017659	4.9481e-05	1113.4	1.9603e-06	1.946e-06	1189.9	233.8	1.9475e-06	1.9394e-06	284.47	80.67	64.539	19.635	1.9651e-06	26.51	25.274	27.389	302.672	-0.151	88.464	152.584	-0.342	6.741	155.957	105.462	6.641	13.918	13.925	20.712	12.336	20.351	-8191	255	
2994.395	1	1	0	0	0.148	0.10669	0.048604	0.34675	0.16985	0.091856	0.17607	0.094969	0.085925	0.10191	0.18158	0.1247	0.14988	0.13053	0.042295	0.17558	-3.1083	-4.5646	-3.4625	-4.1771	-4.4417	-3.3771	-4.5396	-3.9188	-3.4542	-4.5771	-3.8	-4.1104	-4.3875	-3.5292	-4.3667	-4.0458	166.632	346.243	231.406	270.093	93.969	95.298	271.472	310.341	256.462	201.193	344.016	2.080	102.249	291.440	203.092	303.870	0.00042728	0.00072399	0.00030412	1178.6	4.082e-06	5.8695e-06	1260.7	244.71	2.324e-06	1.5943e-06	303.12	85.173	67.713	20.15	4.6681e-06	27.6	0.00017838	0.00017765	4.9578e-05	1114.9	1.9596e-06	1.9677e-06	1190.1	233.62	1.9768e-06	1.9667e-06	284.39	80.619	64.502	19.66	1.9719e-06	26.537	56.321	72.008	53.646	-0.013	215.518	285.650	-0.072	7.063	216.916	38.041	6.699	14.013	14.152	20.865	116.556	20.230	-8191	255	
2994.515	1	1	0	0	0.066222	0.18554	0.058674	0.09202	0.1061	0.11983	0.18765	0.19017	0.20001	0.09297	0.23228	0.17977	0.073726	0.18143	0.17859	0.1484	-3.2667	-4.4875	-3.7396	-4.1521	-4.5375	-3.5021	-4.4062	-4.0292	-3.5854	-4.4875	-3.6333	-3.875	-4.725	-3.4229	-4.2042	-4.2188	333.314	261.025	213.114	237.603	300.140	133.167	185.933	229.367	172.289	300.214	314.920	207.325	3.347	247.168	10.337	343.161	0.00051074	0.00040316	0.00013248	1174.2	3.7932e-06	1.4918e-06	1260.4	244.5	6.379e-06	5.1115e-06	304.6	85.532	67.556	20.051	4.3895e-06	27.375	0.00018116	0.00017961	5.0352e-05	1111.5	1.9631e-06	1.9647e-06	1187.6	233.4	1.9812e-06	1.9875e-06	284.35	80.59	64.485	19.61	1.9717e-06	26.487	65.083	91.798	-6.894	-0.137	70.116	135.549	-0.224	7.158	134.360	175.697	6.641	14.020	14.118	20.981	187.741	20.689	-8191	255	
2994.610	1	1	0	0	0.12372	0.21519	0.13564	0.070423	0.073246	0.020331	0.26039	0.16981	0.054867	0.1038	0.12864	0.076948	0.13915	0.18539	0.08023	0.03418	-3.0396	-4.6021	-3.6625	-3.95	-4.4792	-3.2812	-4.475	-4.3187	-3.3312	-4.5667	-3.8896	-3.5521	-4.7271	-3.4062	-4.1771	-4.1958	126.643	264.591	8.185	11.432	184.978	123.569	247.104	312.595	257.951	245.837	264.524	281.454	74.549	222.878	22.223	38.972	0.00034233	0.00037005	0.00010429	1175.4	5.357e-06	3.3756e-06	1261.2	245.03	2.152e-06	4.1221e-06	306.34	85.809	67.977	20.201	4.3538e-06	27.449	0.00018224	0.00017988	4.9705e-05	1113.1	1.9628e-06	1.9647e-06	1188	233.1	1.9701e-06	1.9684e-06	284.76	80.914	64.658	19.654	1.9677e-06	26.422	45.921	72.370	318.547	-0.381	136.897	241.418	-0.082	7.033	75.022	151.739	6.876	14.342	13.953	21.082	63.663	20.295	-8191	255	
2994.706	1	1	0	0	0.12745	0.11157	0.16143	0.38718	0.13116	0.25358	0.14146	0.18955	0.10757	0.36154	0.094955	0.28796	0.089628	0.17479	0.275	0.25408	-3.1562	-4.5917	-3.7604	-3.8375	-4.5979	-3.5875	-4.1521	-4.3479	-3.4146	-4.3583	-4.1729	-3.6625	-4.475	-3.4146	-4.1188	-4.2937	179.419	236.269	291.019	340.582	329.092	60.225	39.452	182.018	4.848	62.869	165.622	9.775	81.766	4.714	272.875	242.974	0.00051563	0.00032188	0.00010229	1176.1	1.6189e-06	1.7687e-06	1257.4	244.01	4.1841e-06	5.3615e-06	303.26	85.168	67.482	19.992	2.1969e-06	27.71	0.00018128	0.00018016	4.9941e-05	1111.5	1.9737e-06	1.9759e-06	1187.4	233.12	1.9688e-06	1.9669e-06	284.27	80.605	64.441	19.619	1.9734e-06	26.475	38.131	319.570	89.594	-0.359	217.217	337.714	-0.332	6.996	30.332	93.273	6.709	14.195	14.217	20.690	256.294	20.361	-8191	255	
2994.826	1	1	0	0	0.20952	0.18103	0.16581	0.20777	0.1481	0.075353	0.17423	0.14915	0.16588	0.029172	0.087129	0.079268	0.34371	0.11059	0.089946	0.2025	-3.275	-4.4271	-3.85	-3.8063	-4.2937	-3.5667	-4.2458	-4.3125	-3.4792	-4.4062	-4.0146	-3.5687	-4.4688	-3.6083	-3.9417	-4.5979	241.364	98.509	307.131	305.683	160.467	56.821	4.359	-4.593	202.573	99.977	146.517	194.076	28.644	165.278	315.270	335.548	0.00022708	0.00034568	0.00015775	1174	2.6394e-06	2.045e-06	1253.4	245.72	1.8018e-07	6.001e-06	302.54	85.686	67.832	20.285	3.1535e-06	27.555	0.00018166	0.00017641	4.9591e-05	1113.3	1.9349e-06	1.9334e-06	1187.9	233.68	1.9566e-06	1.9347e-06	283.89	80.841	64.515	19.67	1.9613e-06	26.516	0.135	-0.190	95.839	-0.459	184.352	131.925	-0.284	6.826	165.954	112.478	6.849	13.702	14.129	21.163	125.150	20.379	-8191	255	
2994.898	1	1	0	0	0.19388	0.04481	0.089185	0.41591	0.15842	0.15382	0.052635	0.099615	0.091124	0.083557	0.10637	0.088438	0.098059	0.1038	0.10443	0.18983	-3.0583	-4.4021	-4.1125	-3.8438	-4.6208	-3.7646	-4.1562	-4.5583	-3.4833	-4.2667	-4.1208	-3.4271	-4.5938	-3.7833	-3.8333	-4.4521	172.412	9.833	241.158	285.412	184.727	58.524	136.626	-7.156	107.490	44.962	296.305	121.056	125.857	29.133	331.104	49.540	0.00024461	0.00082419	1.8377e-05	1169.8	6.384e-06	4.3742e-06	1248	244.27	6.8503e-06	1.6993e-06	304.23	85.671	68.004	20.027	4.8397e-06	27.612	0.00018018	0.00017993	4.9885e-05	1111.1	1.9804e-06	1.9766e-06	1186.1	233.21	1.9807e-06	1.9683e-06	284.43	80.613	64.479	19.589	1.9964e-06	26.533	25.325	53.293	37.216	-0.467	89.201	306.737	0.017	7.033	109.396	65.578	6.697	14.015	14.319	20.857	113.117	20.220	-8191	255	
2994.994	1	1	0	0	0.14945	0.15406	0.060781	0.1489	0.049945	0.13018	0.32911	0.42511	0.18663	0.15792	0.11736	0.29411	0.20464	0.072139	0.071505	0.077431	-3.1167	-4.2063	-4.0792	-3.7438	-4.5813	-3.6229	-3.9021	-4.3792	-3.5083	-4.2562	-4.2167	-3.4875	-4.4583	-3.7417	-3.6312	-4.4396	24.227	132.335	121.151	-3.190	323.590	172.516	292.751	148.522	42.648	14.500	111.150	42.691	270.347	192.969	285.284	232.111	0.00018094	0.00027603	0.00010929	1173.9	4.8591e-06	1.3511e-06	1261.7	244.81	3.0387e-06	6.7774e-06	302.44	85.073	67.659	20.038	2.7914e-06	27.609	0.00018155	0.00018005	5.008e-05	1112.3	1.9795e-06	1.9717e-06	1191.1	233.49	1.9846e-06	1.9898e-06	284.06	80.675	64.597	19.6	2.0077e-06	26.55	7.237	187.067	16.760	-0.531	154.476	147.304	-0.158	7.186	100.294	150.534	6.615	13.845	14.267	21.000	161.343	20.583	-8191	255	
2995.090	1	1	0	0	0.15714	0.11848	0.1329	0.13012	0.22967	0.20593	0.25456	0.37667	0.30433	0.14586	0.15235	0.11866	0.12116	0.18119	0.16112	0.19854	-3.1354	-3.975	-4.125	-3.5021	-4.5375	-3.8646	-3.6958	-4.65	-3.1937	-4.1708	-4.4437	-3.3479	-4.5896	-3.9188	-3.5292	-4.6542	131.792	-2.926	94.861	41.818	244.425	341.256	275.113	310.004	201.662	327.792	259.096	30.927	292.541	146.876	51.859	232.818	0.00054471	0.00041677	0.00017248	1168.7	2.0664e-06	4.637e-06	1259.3	245.1	3.093e-06	1.896e-06	305.06	85.249	68.034	20.153	1.2126e-06	27.825	0.00018344	0.00017991	5.0378e-05	1110.4	2.0057e-06	1.9819e-06	1190.9	233.67	1.9917e-06	1.9627e-06	284.94	80.638	64.658	19.578	1.9925e-06	26.569	6.755	68.781	61.063	-0.346	4.469	184.944	-0.291	6.763	235.305	220.853	6.447	13.794	14.052	20.651	269.627	20.341	-8191	255	
2995.211	1	1	0	0	0.04134	0.14095	0.0080965	0.29788	0.10595	0.2101	0.274	0.074489	0.16877	0.0975	0.14242	0.2162	0.29248	0.017285	0.10517	0.18632	-3.2438	-3.8771	-4.2208	-3.5771	-4.4292	-4.0729	-3.6583	-4.6625	-3.3688	-3.8979	-4.5125	-3.3479	-4.4521	-3.9792	-3.4479	-4.8688	27.222	247.184	247.310	147.916	193.629	145.146	286.004	336.059	21.144	79.203	280.374	305.246	312.409	66.936	305.884	327.264	0.00034114	0.0001437	0.00010596	1172.3	1.2986e-06	3.2686e-06	1262.5	245.56	3.7028e-06	3.7815e-06	304.16	85.605	67.744	20.113	3.1893e-06	27.614	0.00018129	0.00017839	5.0061e-05	1111.5	1.9709e-06	1.9713e-06	1188.9	233.86	1.9663e-06	1.9653e-06	284.47	80.813	64.518	19.575	2.0142e-06	26.467	16.696	75.691	97.211	-0.583	152.898	-10.134	-0.401	6.618	135.072	99.695	6.667	13.518	14.224	20.738	148.188	20.563	-8191	255	
2995.307	1	1	0	0	0.057216	0.13558	0.12719	0.14317	0.05639	0.13564	0.20265	0.20051	0.1993	0.32207	0.31125	0.30041	0.25512	0.079906	0.17896	0.15311	-3.1896	-4.0708	-4.4333	-3.5646	-4.3771	-4.1687	-3.5583	-4.5333	-3.4625	-3.8417	-4.5458	-3.225	-4.1958	-4.1958	-3.4417	-4.6271	-7.245	290.172	115.196	-1.582	336.214	179.615	331.167	215.233	190.795	225.774	199.623	77.427	302.538	244.821	143.009	246.032	0.00043121	0.00011326	0.00010103	1175.1	2.3988e-06	3.2389e-06	1260.3	246.15	3.7209e-06	2.4749e-06	303.93	85.218	67.821	20.138	2.4902e-06	27.551	0.00018011	0.0001819	4.9995e-05	1112.2	1.9975e-06	1.9817e-06	1189.7	233.53	1.9842e-06	1.9935e-06	284.94	80.508	64.514	19.575	1.9951e-06	26.497	37.734	254.805	319.295	-0.371	222.076	90.924	-0.031	7.243	270.631	226.804	6.688	14.059	14.438	20.708	207.395	20.539	-8191	255	
2995.403	1	1	0	0	0.11252	0.03944	0.18359	0.26635	0.090563	0.28768	0.17369	0.033364	0.076559	0.10349	0.2929	0.086411	0.097357	0.22865	0.10086	0.010599	-3.275	-3.9	-4.3729	-3.4979	-4.3167	-4.0875	-3.6771	-4.5708	-3.7146	-3.8146	-4.6625	-3.5333	-4.2729	-3.9146	-3.4979	-4.4167	335.680	128.497	246.173	336.406	24.570	87.848	247.102	91.668	275.437	71.853	129.485	6.545	18.393	235.593	186.949	195.547	0.00045357	0.00026877	3.3963e-05	1173	3.9485e-06	3.3217e-06	1258.5	243.39	5.8771e-06	1.5368e-06	304.24	85.46	67.545	20.083	1.9215e-06	27.431	0.00018138	0.00018106	5.0432e-05	1112	1.9879e-06	1.9828e-06	1187.4	233.15	1.9992e-06	1.995e-06	284.57	80.606	64.55	19.558	2.0133e-06	26.498	50.210	63.340	58.467	-0.312	59.195	118.529	-0.427	6.852	114.296	140.775	6.696	14.231	14.483	21.201	75.688	20.567	-8191	255	
2995.475	1	1	0	0	0.18434	0.17527	0.13671	0.11577	0.09932	0.23835	0.045031	0.29888	0.13007	0.17853	0.11461	0.3463	0.1192	0.050668	0.046599	0.20882	-3.1625	-3.8833	-4.3562	-3.8125	-4.2708	-4.1604	-3.7313	-4.4542	-3.8583	-3.8083	-4.5417	-3.5771	-4.1625	-4.1521	-3.4104	-4.5771	48.327	228.044	206.381	302.822	348.245	193.998	346.939	303.283	93.711	121.065	312.364	245.562	239.127	328.982	168.434	246.141	0.00028337	0.00044328	2.1647e-05	1169.4	6.3985e-06	2.0479e-06	1259	245.53	9.7527e-06	5.6082e-06	303.92	85.531	67.924	19.988	1.1982e-06	27.583	0.00018417	0.00018112	5.0492e-05	1109.9	2.0045e-06	2.0067e-06	1189	233.95	1.9924e-06	1.9988e-06	284.79	80.401	64.587	19.553	1.9895e-06	26.511	37.653	96.450	-5.147	-0.583	62.953	162.142	-0.362	7.278	122.135	128.878	7.258	14.133	14.357	20.868	-7.442	20.547	-8191	255	
2995.596	1	1	0	0	0.099963	0.32212	0.081784	0.1827	0.3207	0.17316	0.1154	0.11383	0.24689	0.15128	0.052691	0.16849	0.1246	0.093946	0.097077	0.2225	-3.6375	-3.5125	-4.5333	-3.7667	-4.1771	-4.25	-3.7083	-4.4542	-4.0563	-3.7271	-4.7875	-3.3854	-4.1667	-4.35	-3.2313	-4.7042	308.391	301.037	158.748	269.954	226.509	252.220	45.890	31.786	0.047	43.829	46.487	235.766	250.197	218.530	292.431	148.854	0.0004972	0.00023225	7.5728e-05	1172.7	5.769e-06	4.7784e-06	1258.2	244.77	4.1588e-07	4.1779e-06	304.82	85.317	67.693	20.051	5.1534e-06	27.651	0.00018218	0.00018524	5.0681e-05	1111.2	2.0102e-06	1.987e-06	1187.6	233.63	2.0059e-06	1.9866e-06	284.74	80.563	64.563	19.591	2.0044e-06	26.594	21.748	204.485	246.946	-0.363	86.330	171.243	-0.256	7.301	27.309	46.328	6.985	14.131	14.187	20.815	113.234	20.609	-8191	255	
2995.692	1	1	0	0	0.13673	0.10879	0.27152	0.11571	0.11239	0.14232	0.24984	0.19553	0.013074	0.083243	0.1779	0.055256	0.1311	0.18288	0.15279	0.19052	-3.7542	-3.5083	-4.5396	-3.6104	-3.8354	-4.6292	-3.5292	-4.6375	-3.9146	-3.6875	-4.7708	-3.6937	-3.8729	-4.6	-3.4229	-4.3771	257.061	207.006	40.637	58.167	5.430	58.109	294.755	263.123	260.224	120.026	277.894	225.879	99.210	142.412	26.492	237.343	0.00047702	0.00047862	0.00013163	1170.8	4.2258e-06	5.8367e-06	1256.7	244.43	1.2452e-06	2.9688e-06	303.34	84.589	66.912	19.978	4.4588e-06	27.725	0.0001829	0.00018192	5.0343e-05	1110.7	1.983e-06	1.9924e-06	1188	233.37	1.9867e-06	1.9759e-06	284.21	80.476	64.394	19.595	1.9736e-06	26.587	346.640	72.081	89.631	-0.568	136.935	83.106	-0.093	7.262	224.332	-9.783	6.683	13.709	14.331	20.474	164.918	20.625	-8191	255	
2995.788	1	1	0	0	0.2086	0.082871	0.11325	0.18099	0.27394	0.17657	0.13229	0.096412	0.24276	0.32062	0.077578	0.39324	0.13046	0.070124	0.18063	0.082817	-3.6042	-3.5438	-4.3979	-3.7687	-4.0167	-4.1833	-3.5438	-4.3	-4.2063	-3.5708	-4.6562	-3.7313	-3.9854	-4.4917	-3.3146	-4.3833	235.320	210.963	264.458	301.257	20.010	45.808	269.399	246.084	48.136	58.426	297.854	93.845	327.133	340.753	279.203	54.819	0.00043339	0.00077379	0.00010861	1172.1	4.7614e-06	7.3661e-07	1260.8	244.64	7.1864e-06	3.4494e-06	302.99	85.034	68.403	20.043	2.9467e-06	27.365	0.00018213	0.00018196	5.0145e-05	1110.1	2.001e-06	1.9755e-06	1188.3	233.8	2.0102e-06	1.9985e-06	284.66	80.418	64.685	19.568	1.9999e-06	26.473	51.604	74.937	81.534	-0.531	59.553	337.783	-0.427	7.280	207.956	138.878	6.876	14.079	14.236	20.937	82.020	20.334	-8191	255	
2995.907	1	1	0	0	0.11655	0.056263	0.047533	0.14032	0.087312	0.1629	0.21537	0.12547	0.088995	0.2916	0.15817	0.18328	0.041565	0.040677	0.15556	0.10231	-3.8729	-3.4375	-4.7021	-3.6479	-3.7229	-4.5146	-3.4375	-4.1875	-3.9854	-3.3417	-4.6833	-3.7667	-3.8083	-4.5958	-3.4354	-4.1667	131.030	37.814	99.148	284.023	272.224	307.779	234.480	275.588	82.724	297.283	208.009	69.519	250.074	189.264	333.454	317.211	0.00030889	0.00051063	0.00014649	1169.9	2.1398e-06	1.8666e-06	1258.7	244.31	4.7344e-06	6.3185e-06	304.97	84.629	67.455	20.065	2.6918e-06	27.464	0.00018113	0.00018048	5.0127e-05	1111.1	1.9773e-06	1.961e-06	1186.3	233.46	1.9922e-06	1.9938e-06	284.64	80.452	64.395	19.551	1.9881e-06	26.424	22.257	61.533	65.650	-0.211	99.442	186.306	-0.473	7.452	198.358	143.115	7.003	13.485	14.042	20.878	177.160	20.527	-8191	255	
2996.003	1	1	0	0	0.063781	0.052318	0.14729	0.12575	0.071979	0.17743	0.22656	0.13734	0.21605	0.05814	0.23596	0.14559	0.22075	0.25445	0.026782	0.035979	-3.9229	-3.5062	-4.4625	-3.8854	-3.825	-4.475	-3.7875	-4.2312	-4.2896	-3.4354	-4.6604	-3.9833	-3.5458	-4.6208	-3.3417	-4.0292	131.284	75.790	342.362	0.224	211.601	294.052	327.203	336.806	209.245	337.362	14.052	133.649	340.885	318.224	89.240	205.974	0.00055066	0.00042238	7.0706e-05	1173.1	5.2368e-06	3.9588e-06	1256.1	245.19	8.995e-07	1.2013e-06	305.05	85.091	67.542	20.049	4.5099e-06	27.6	0.00018232	0.00018111	5.056e-05	1112.4	1.9972e-06	1.9718e-06	1187.2	233.73	1.9842e-06	1.9978e-06	284.72	80.355	64.618	19.585	2.0048e-06	26.513	28.649	139.222	106.293	-0.503	46.511	105.311	-0.361	7.155	252.149	65.293	6.762	13.941	14.293	21.182	130.372	20.621	-8191	255	
2996.075	1	1	0	0	0.1996	0.16157	0.10235	0.19884	0.054468	0.11712	0.1872	0.12011	0.17896	0.03658	0.12185	0.10184	0.22638	0.085282	0.11287	0.23898	-4.0646	-3.3375	-4.4854	-4.1333	-3.4417	-4.3917	-3.7792	-4.0542	-4.2979	-3.4646	-4.6125	-4.125	-3.5333	-4.6604	-3.5292	-4.0208	234.192	306.230	172.222	4.229	-9.489	179.145	245.895	9.185	273.016	45.793	229.773	152.808	320.347	149.770	234.149	344.521	0.00027672	0.00047072	0.00025174	1174.2	9.0395e-06	2.1638e-06	1261.3	245.27	3.2129e-06	3.9867e-06	304.43	85.178	67.88	20.126	3.6073e-06	27.623	0.00018219	0.00018164	5.0233e-05	1112	1.9968e-06	1.996e-06	1187.2	233.8	1.9976e-06	2.0142e-06	285.38	80.427	64.661	19.614	2.0137e-06	26.572	4.904	98.783	70.149	-0.578	14.974	238.661	-0.209	7.189	90.413	181.273	7.402	13.786	14.354	20.985	123.305	20.658	-8191	255	
2996.195	1	1	0	0	0.19464	0.1176	0.12553	0.18646	0.23744	0.20959	0.18113	0.013932	0.078861	0.15342	0.14778	0.10512	0.26945	0.087534	0.21153	0.053562	-4.0042	-3.3125	-4.4708	-4.1312	-3.5396	-4.4812	-3.6979	-3.9875	-4.4667	-3.5708	-4.3938	-4.0042	-3.5896	-4.5958	-3.5521	-3.9792	149.264	260.133	346.550	200.687	164.029	165.283	287.447	217.954	188.234	208.367	314.941	287.781	331.616	35.323	127.111	37.836	0.00021986	0.0005927	5.2294e-05	1170.2	1.5104e-06	2.5872e-06	1254.3	244.34	3.1064e-06	2.5683e-06	303.67	84.808	67.706	19.994	4.4083e-06	27.601	0.00018432	0.00018488	5.0912e-05	1110.7	2.016e-06	2.0033e-06	1186.9	233.58	2.0181e-06	2.0059e-06	284.63	80.342	64.63	19.639	2.0286e-06	26.554	2.769	311.306	40.647	-0.602	245.472	16.296	-0.327	7.195	261.867	198.468	6.725	14.038	13.816	20.843	97.162	20.308	-8191	255	
2996.291	1	1	0	0	0.094347	0.086911	0.08575	0.29482	0.1174	0.091732	0.16645	0.32584	0.065812	0.15277	0.29101	0.19934	0.15291	0.050553	0.23218	0.10461	-4.0917	-3.5687	-4.2083	-4.1896	-3.5875	-4.5062	-3.8458	-3.9042	-4.3708	-3.65	-4.2167	-4.1271	-3.7188	-4.4583	-3.8042	-3.7542	0.932	256.515	295.705	-2.522	318.494	256.515	262.937	303.034	88.551	97.749	280.175	289.638	229.701	80.559	141.174	224.817	0.00062657	0.00030254	5.0869e-05	1175.7	2.7277e-06	3.1219e-06	1257.4	244.97	4.4826e-06	1.8148e-06	303.88	85.091	67.771	19.995	7.3598e-06	27.457	0.00018436	0.00018294	5.1099e-05	1112.9	2.0236e-06	2.0029e-06	1188.1	233.83	2.0181e-06	2.0108e-06	284.54	80.513	64.555	19.596	2.0397e-06	26.563	11.485	285.691	108.572	-0.796	-5.535	162.901	-0.338	7.229	174.984	166.026	6.959	13.246	13.999	21.217	222.970	20.690	-8191	255	
2996.387	1	1	0	0	0.19891	0.26027	0.091094	0.20302	0.10912	0.19202	0.17181	0.23498	0.28635	0.099706	0.1224	0.098364	0.12756	0.090805	0.055486	0.23117	-4.1062	-3.5563	-4.1104	-4.3854	-3.4979	-4.4229	-4.0938	-3.6958	-4.4667	-3.2812	-4.2104	-4.1604	-3.4042	-4.5146	-3.8458	-3.7562	17.648	308.913	310.665	2.318	186.671	47.517	5.926	333.596	-6.873	309.111	294.636	40.753	-7.394	200.679	143.614	248.627	0.00054922	0.00069756	0.00013741	1173.9	2.1861e-06	1.4511e-06	1259.9	245.69	3.5299e-06	3.834e-06	304.68	85.325	67.422	20.123	5.3062e-06	27.509	0.00018628	0.00018392	5.151e-05	1112.6	2.0446e-06	2.0128e-06	1190.2	234.03	2.0458e-06	2.04e-06	285.77	80.493	64.621	19.642	2.0228e-06	26.553	25.667	65.644	38.367	-0.295	39.617	237.105	-0.401	7.338	147.022	136.257	7.273	13.812	14.091	21.075	185.629	20.597	-8191	255	
2996.508	1	1	0	0	0.19503	0.068004	0.31021	0.11759	0.16876	0.16674	0.11856	0.20761	0.18863	0.20654	0.13254	0.20433	0.14581	0.11907	0.075798	0.29222	-4.2	-3.2604	-4.1625	-4.2958	-3.1375	-4.55	-3.9979	-3.7042	-4.6667	-3.4604	-4.0479	-4.4812	-3.4917	-4.3938	-4.0146	-3.6021	106.143	123.798	136.879	277.074	348.921	160.446	248.845	-2.504	278.485	298.100	16.522	302.089	348.819	42.722	249.699	343.338	0.00044393	0.001265	8.909e-06	1173.5	2.8197e-06	3.1979e-06	1257.2	246.06	2.6106e-06	2.1936e-06	305.08	85.092	67.288	20.157	1.4364e-06	27.749	0.00018517	0.00018548	5.0834e-05	1113	2.042e-06	2.0329e-06	1190.1	234.53	2.0315e-06	2.037e-06	285.76	80.504	64.495	19.651	2.0385e-06	26.558	5.489	146.199	115.691	-0.339	187.153	85.106	-0.178	7.116	145.325	275.761	7.246	14.011	14.407	20.827	116.120	20.658	-8191	255	
2996.604	1	1	0	0	0.095107	0.19687	0.3191	0.083688	0.099118	0.12367	0.17989	0.2512	0.067505	0.21017	0.15203	0.12078	0.21039	0.20111	0.076092	0.21752	-4.4583	-3.65	-3.8542	-4.5208	-3.3771	-4.5646	-4.1479	-3.5479	-4.5167	-3.6667	-3.9625	-4.4812	-3.5458	-4.3208	-3.9896	-3.5771	8.266	138.928	318.039	-4.770	51.734	11.299	263.946	242.181	111.360	231.264	11.688	55.594	73.965	9.818	8.079	208.761	0.00035409	0.00046888	9.9356e-05	1172.7	7.2256e-06	2.8141e-06	1258.6	245.81	5.6635e-06	1.7218e-06	305.47	85.067	68.046	20.12	4.2073e-06	27.626	0.00018564	0.00018575	5.162e-05	1112.9	2.039e-06	2.0289e-06	1190	234.05	2.0586e-06	2.0503e-06	285.72	80.44	64.78	19.601	2.0501e-06	26.565	1.891	156.665	65.913	-0.692	150.198	88.473	-0.471	7.412	210.704	252.739	6.786	14.389	13.971	20.866	56.560	20.271	-8191	255	
2996.699	1	1	0	0	0.19704	0.17083	0.15444	0.17271	0.091246	0.12862	0.23778	0.22861	0.19893	0.21192	0.18526	0.084982	0.32161	0.059481	0.022276	0.40506	-4.1417	-3.6875	-3.8146	-4.6271	-3.525	-4.2312	-4.1521	-3.5917	-4.4104	-3.5521	-3.8625	-4.3688	-3.4333	-4.1292	-4.0542	-3.6521	90.460	78.847	240.143	256.861	325.647	84.872	251.655	1.318	149.771	132.094	345.592	230.125	303.548	303.247	247.638	346.906	0.00056648	0.00027743	0.00012717	1171.1	6.235e-06	7.0644e-06	1261.5	244.33	2.8808e-06	2.0638e-06	304.81	85.618	67.692	20.042	4.7489e-06	27.487	0.00018843	0.00018864	5.2461e-05	1114	2.0525e-06	2.0312e-06	1190.8	233.76	2.0338e-06	2.0643e-06	285.23	80.913	64.752	19.659	2.055e-06	26.588	39.003	-0.445	5.883	-0.547	99.096	119.248	-0.376	7.058	264.056	32.767	7.320	14.151	14.093	21.254	101.459	20.550	-8191	255	
2996.772	1	1	0	0	0.17167	0.12934	0.16169	0.17519	0.37617	0.34297	0.13535	0.18463	0.13552	0.10895	0.051821	0.33336	0.2807	0.21416	0.14676	0.075308	-4.0646	-3.8542	-3.7083	-4.4771	-3.3083	-4.2417	-4.3625	-3.4292	-4.5854	-3.9062	-3.8417	-4.5708	-3.3646	-4.3688	-4.1208	-3.5729	54.806	183.573	224.368	298.094	86.753	307.377	183.731	51.014	212.755	290.687	94.966	-9.128	31.406	329.545	153.660	45.567	0.00030948	0.00063248	6.9504e-05	1177.1	3.1363e-06	7.3991e-07	1259.6	246.64	3.3558e-06	1.3213e-06	304.46	85.497	67.117	20.205	5.3521e-06	27.544	0.00018859	0.00018702	5.2139e-05	1115.9	2.0667e-06	2.0474e-06	1188.9	234.25	2.0583e-06	2.0531e-06	285.44	80.69	64.542	19.673	2.0299e-06	26.493	346.392	63.252	314.398	-0.414	48.152	287.061	-0.302	7.147	239.176	160.507	6.937	14.153	14.134	20.904	161.580	20.483	-8191	255	
2996.891	1	1	0	0	0.17937	0.17679	0.055418	0.22757	0.11538	0.14184	0.059555	0.14695	0.33604	0.07074	0.056969	0.30434	0.12854	0.20227	0.19491	0.040742	-4.0833	-3.7896	-3.6604	-4.5354	-3.3521	-4.0896	-4.4896	-3.4667	-4.5167	-3.7333	-3.8	-4.3375	-3.5312	-4.0146	-4.3292	-3.5708	328.231	258.803	322.884	37.219	228.803	33.254	335.471	266.105	312.545	82.378	62.683	280.301	328.292	86.031	156.767	63.991	0.0004503	0.00011196	0.00014271	1180	4.5147e-06	4.5166e-06	1260.6	245.21	3.0227e-06	6.0836e-06	305	85.465	67.395	19.982	2.3208e-06	27.489	0.00018752	0.00018759	5.181e-05	1115.6	2.0576e-06	2.0533e-06	1191.9	234.11	2.0636e-06	2.0672e-06	285.4	80.767	64.563	19.629	2.0712e-06	26.544	56.065	343.631	-3.739	-0.456	247.059	134.202	-0.129	7.023	147.127	142.456	7.092	14.149	14.119	21.122	239.644	20.778	-8191	255	
2996.987	1	1	0	0	0.12011	0.22066	0.049236	0.28976	0.14441	0.22335	0.03625	0.078779	0.16473	0.10644	0.24216	0.017289	0.12553	0.1079	0.058809	0.2361	-3.9896	-3.8479	-3.6542	-4.5458	-3.5854	-4.0417	-4.3458	-3.6562	-4.3125	-3.8333	-3.6896	-4.5312	-3.7687	-4.0917	-4.2063	-3.7104	202.187	-1.951	333.090	279.411	143.359	203.955	311.055	333.984	-6.935	168.993	212.014	263.035	126.659	250.801	12.945	25.577	0.00054987	0.00048382	0.00011067	1172	5.062e-06	2.7918e-06	1258.7	245.37	5.0123e-06	3.1301e-06	304.6	85.413	67.574	20.15	2.0283e-06	27.523	0.00018741	0.00018808	5.2555e-05	1115.1	2.0929e-06	2.068e-06	1192	234.6	2.0898e-06	2.0923e-06	285.24	80.742	64.681	19.697	2.1093e-06	26.605	16.709	57.243	92.520	-0.279	59.539	33.144	-0.376	6.762	178.354	138.466	7.050	13.902	13.716	20.823	146.867	20.417	-8191	255	
#DATA ENDS
