BOXY.EXE: ISS Imagent and Oximeter Data Acquisition Program Version 0.80
Ascii Record File

#ACQ INFORMATION
2  Detector Channels 
16  External MUX Channels 
1  Auxiliary Channels 
5000  Waveform (CCF) Frequency (Hz)
1  Waveforms Skipped 
30  Waveforms Averaged 
1  Cycles Averaged 
16  Acquisitions per Waveform 
10.0806  Updata Rate (Hz) 

#FILE INFORMATION
TRUE -- External MUX Channel results are PARSED.
FALSE -- AC DC and Phase are NOT grouped.
TRUE -- Companion Program Settings File CREATED.
FALSE -- AC data not excluded
FALSE -- DC data not excluded
FALSE -- Phase data not excluded
FALSE -- Auxillary Chn. data not excluded
Tab delimiters

#CALIBRATION STATE
TRUE -- Waveform Calibration Values APPLIED.


#AUX CALIBRATION VALUES
Val Type	aux-1	

Term	1.0000e+00	
Factor	0.0000e+00	


#WF CALIBRATION VALUES
A = Detector Channel
Val Type	A-AC1	A-AC2	A-AC3	A-AC4	A-AC5	A-AC6	A-AC7	A-AC8	A-AC9	A-AC10	A-AC11	A-AC12	A-AC13	A-AC14	A-AC15	A-AC16	A-DC1	A-DC2	A-DC3	A-DC4	A-DC5	A-DC6	A-DC7	A-DC8	A-DC9	A-DC10	A-DC11	A-DC12	A-DC13	A-DC14	A-DC15	A-DC16	A-Ph1	A-Ph2	A-Ph3	A-Ph4	A-Ph5	A-Ph6	A-Ph7	A-Ph8	A-Ph9	A-Ph10	A-Ph11	A-Ph12	A-Ph13	A-Ph14	A-Ph15	A-Ph16	

Term	0.00000e+00	0.00000e+00	0.00000e+00	0.00000e+00	0.00000e+00	0.00000e+00	0.00000e+00	0.00000e+00	0.00000e+00	0.00000e+00	0.00000e+00	0.00000e+00	0.00000e+00	0.00000e+00	0.00000e+00	0.00000e+00	0.00000e+00	0.00000e+00	0.00000e+00	0.00000e+00	0.00000e+00	0.00000e+00	0.00000e+00	0.00000e+00	0.00000e+00	0.00000e+00	0.00000e+00	0.00000e+00	0.00000e+00	0.00000e+00	0.00000e+00	0.00000e+00	0.00000e+00	0.00000e+00	0.00000e+00	0.00000e+00	0.00000e+00	0.00000e+00	0.00000e+00	0.00000e+00	0.00000e+00	0.00000e+00	0.00000e+00	0.00000e+00	0.00000e+00	0.00000e+00	0.00000e+00	0.00000e+00	
Factor	1.00000e+00	1.00000e+00	1.00000e+00	1.00000e+00	1.00000e+00	1.00000e+00	1.00000e+00	1.00000e+00	1.00000e+00	1.00000e+00	1.00000e+00	1.00000e+00	1.00000e+00	1.00000e+00	1.00000e+00	1.00000e+00	1.00000e+00	1.00000e+00	1.00000e+00	1.00000e+00	1.00000e+00	1.00000e+00	1.00000e+00	1.00000e+00	1.00000e+00	1.00000e+00	1.00000e+00	1.00000e+00	1.00000e+00	1.00000e+00	1.00000e+00	1.00000e+00	X	X	X	X	X	X	X	X	X	X	X	X	X	X	X	X	

B = Detector Channel
Val Type	B-AC1	B-AC2	B-AC3	B-AC4	B-AC5	B-AC6	B-AC7	B-AC8	B-AC9	B-AC10	B-AC11	B-AC12	B-AC13	B-AC14	B-AC15	B-AC16	B-DC1	B-DC2	B-DC3	B-DC4	B-DC5	B-DC6	B-DC7	B-DC8	B-DC9	B-DC10	B-DC11	B-DC12	B-DC13	B-DC14	B-DC15	B-DC16	B-Ph1	B-Ph2	B-Ph3	B-Ph4	B-Ph5	B-Ph6	B-Ph7	B-Ph8	B-Ph9	B-Ph10	B-Ph11	B-Ph12	B-Ph13	B-Ph14	B-Ph15	B-Ph16	

Term	0.00000e+00	0.00000e+00	0.00000e+00	0.00000e+00	0.00000e+00	0.00000e+00	0.00000e+00	0.00000e+00	0.00000e+00	0.00000e+00	0.00000e+00	0.00000e+00	0.00000e+00	0.00000e+00	0.00000e+00	0.00000e+00	0.00000e+00	0.00000e+00	0.00000e+00	0.00000e+00	0.00000e+00	0.00000e+00	0.00000e+00	0.00000e+00	0.00000e+00	0.00000e+00	0.00000e+00	0.00000e+00	0.00000e+00	0.00000e+00	0.00000e+00	0.00000e+00	-2.38903e+02	-1.30801e+02	-1.63948e+02	-1.83590e+02	-1.19141e+02	-8.70241e+01	-1.56897e+02	-1.62015e+02	-7.30551e+01	-8.26205e+01	-1.70590e+02	-1.70867e+02	-1.80044e+02	-1.77413e+02	-7.81630e+01	-1.50406e+02	
Factor	6.10723e-05	1.20878e-04	3.70736e-05	1.67276e-01	1.13400e-06	1.16405e-06	1.90682e-01	6.00034e-02	1.25406e-06	1.06024e-06	9.97472e-02	3.83765e-02	2.97706e-02	1.08004e-02	1.14664e-06	1.57894e-02	4.97580e-07	5.02158e-07	1.39475e-07	8.01861e-02	5.49628e-09	5.49947e-09	8.54324e-02	2.82743e-02	5.50406e-09	5.50380e-09	4.40950e-02	1.66559e-02	1.35827e-02	4.90122e-03	5.51462e-09	6.83088e-03	X	X	X	X	X	X	X	X	X	X	X	X	X	X	X	X	



#DISTANCE SETTINGS
A = Detector Channel
A-1	A-2	A-3	A-4	A-5	A-6	A-7	A-8	A-9	A-10	A-11	A-12	A-13	A-14	A-15	A-16	

2.5000e+00	3.0000e+00	2.5000e+00	3.0000e+00	2.0000e+00	3.0000e+00	1.5000e+00	3.0000e+00	3.0000e+00	3.0000e+00	3.0000e+00	3.0000e+00	3.0000e+00	3.0000e+00	1.5000e+00	3.0000e+00	

B = Detector Channel
B-1	B-2	B-3	B-4	B-5	B-6	B-7	B-8	B-9	B-10	B-11	B-12	B-13	B-14	B-15	B-16	

1.0000e+01	1.0000e+01	1.0000e+01	1.4400e+00	1.0000e+01	1.0000e+01	1.5100e+00	1.9400e+00	1.0000e+01	1.0000e+01	1.9900e+00	2.4900e+00	2.4100e+00	2.9000e+00	1.0000e+01	2.9800e+00	




#DATA BEGINS
time	group	step	mark	flag	A-AC1	A-AC2	A-AC3	A-AC4	A-AC5	A-AC6	A-AC7	A-AC8	A-AC9	A-AC10	A-AC11	A-AC12	A-AC13	A-AC14	A-AC15	A-AC16	A-DC1	A-DC2	A-DC3	A-DC4	A-DC5	A-DC6	A-DC7	A-DC8	A-DC9	A-DC10	A-DC11	A-DC12	A-DC13	A-DC14	A-DC15	A-DC16	A-Ph1	A-Ph2	A-Ph3	A-Ph4	A-Ph5	A-Ph6	A-Ph7	A-Ph8	A-Ph9	A-Ph10	A-Ph11	A-Ph12	A-Ph13	A-Ph14	A-Ph15	A-Ph16	B-AC1	B-AC2	B-AC3	B-AC4	B-AC5	B-AC6	B-AC7	B-AC8	B-AC9	B-AC10	B-AC11	B-AC12	B-AC13	B-AC14	B-AC15	B-AC16	B-DC1	B-DC2	B-DC3	B-DC4	B-DC5	B-DC6	B-DC7	B-DC8	B-DC9	B-DC10	B-DC11	B-DC12	B-DC13	B-DC14	B-DC15	B-DC16	B-Ph1	B-Ph2	B-Ph3	B-Ph4	B-Ph5	B-Ph6	B-Ph7	B-Ph8	B-Ph9	B-Ph10	B-Ph11	B-Ph12	B-Ph13	B-Ph14	B-Ph15	B-Ph16	aux-1	digaux	

3023.180	1	1	0	256	0.078304	0.13456	0.19463	0.2506	0.036727	0.10988	0.24534	0.093588	0.12953	0.025404	0.091691	0.27912	0.075805	0.043507	0.084824	0.16029	-3.1833	-4.5188	-3.7104	-3.9479	-4.5583	-3.5458	-4.3729	-4.2625	-3.4542	-4.6875	-3.9104	-3.7021	-4.4646	-3.5521	-4.1229	-4.3938	29.223	286.063	158.500	326.162	88.219	254.490	302.047	171.995	289.769	115.390	295.098	305.172	69.871	16.396	3.804	273.325	0.00047313	0.00035385	5.2588e-05	1174	2.5881e-06	4.3508e-06	1269.8	244.59	3.4563e-06	1.0372e-06	306.62	85.57	66.571	19.718	2.8681e-06	27.639	0.00021786	0.00021454	6.0212e-05	1119.3	2.3919e-06	2.3586e-06	1203.5	235.22	2.3769e-06	2.3469e-06	289.49	81.944	64.949	19.647	2.3535e-06	26.952	22.765	123.726	322.413	-0.288	220.838	73.903	-0.384	6.657	261.729	245.486	6.477	13.922	14.492	20.806	121.752	20.575	-8191	255	
3023.276	1	1	0	0	0.15835	0.091753	0.10835	0.17802	0.097765	0.02428	0.17719	0.064983	0.16963	0.16713	0.058322	0.050864	0.18074	0.16939	0.20276	0.038249	-3.1583	-4.6292	-3.8146	-3.7917	-4.4646	-3.5417	-4.3812	-4.2521	-3.2792	-4.5437	-4.0792	-3.4167	-4.7188	-3.4583	-3.9396	-4.5062	129.984	70.958	72.662	321.045	150.303	270.575	286.584	132.583	284.594	69.366	187.844	303.915	261.919	282.362	97.886	339.215	0.00034547	0.00062917	0.00024033	1170.9	9.4057e-06	3.8912e-06	1267.7	244.32	2.6563e-06	3.5142e-06	306.12	85.119	67.182	19.872	6.2072e-06	27.656	0.00021696	0.00021313	6e-05	1118.7	2.3449e-06	2.3378e-06	1204.2	235.08	2.3609e-06	2.3363e-06	289.28	82.037	65.047	19.678	2.3648e-06	26.888	57.084	66.365	-6.468	-0.499	157.300	106.920	-0.268	6.787	87.670	88.187	6.526	13.951	14.342	20.730	20.853	20.626	-8191	255	
3023.397	1	1	0	0	0.30428	0.15193	0.019081	0.10598	0.24715	0.14783	0.16939	0.20563	0.069753	0.24176	0.16076	0.15809	0.1925	0.18922	0.19424	0.14744	-3.0312	-4.6042	-3.8875	-3.7042	-4.5271	-3.5271	-4.1125	-4.5896	-3.4271	-4.2937	-3.9979	-3.4562	-4.425	-3.6771	-3.9333	-4.3521	232.270	297.808	-1.924	15.590	220.016	6.417	9.388	246.325	206.734	30.783	329.645	171.778	249.219	316.059	202.533	305.578	0.00035128	0.00064166	0.00014556	1177.1	4.9103e-06	5.27e-06	1269.9	244.11	2.1209e-06	3.3776e-06	304.07	85.217	67.574	19.807	2.2733e-06	27.503	0.00021615	0.0002142	5.9508e-05	1118.4	2.35e-06	2.3513e-06	1204	234.66	2.3509e-06	2.353e-06	288.41	81.977	65.162	19.69	2.3646e-06	26.995	37.813	117.704	344.036	-0.510	88.329	310.019	-0.060	6.898	224.537	345.942	6.809	13.670	13.933	21.122	269.634	20.035	-8191	255	
3023.469	1	1	0	0	0.11711	0.12975	0.2265	0.15665	0.175	0.12499	0.29741	0.11975	0.056193	0.29171	0.14452	0.24484	0.078042	0.26335	0.11368	0.15947	-3.2104	-4.3333	-4.075	-3.7792	-4.4854	-3.7083	-4.1708	-4.5396	-3.5583	-4.3479	-4.3625	-3.5458	-4.5083	-3.7021	-3.7833	-4.5146	235.988	252.066	-7.888	-8.190	62.792	76.543	304.529	337.411	267.763	124.924	226.443	256.775	195.801	326.454	-2.015	113.339	0.00040083	0.00047208	0.00013865	1174.1	2.3984e-06	6.2407e-06	1271.4	243.68	3.6567e-06	3.8448e-06	305.51	86.057	67.672	19.705	1.6747e-06	27.699	0.00021635	0.00021357	5.9869e-05	1118.4	2.3531e-06	2.3602e-06	1205.3	234.86	2.3506e-06	2.3239e-06	288.47	81.809	65.165	19.588	2.3576e-06	27.035	-8.758	68.268	304.112	-0.388	121.671	109.021	-0.154	6.650	215.688	301.503	6.843	14.353	14.023	20.819	277.370	20.367	-8191	255	
3023.589	1	1	0	0	0.15579	0.25096	0.11887	0.26157	0.030406	0.41364	0.10028	0.080191	0.15284	0.15207	0.068495	0.21599	0.21577	0.32216	0.044081	0.17934	-3.1125	-4.3375	-4.4146	-3.5438	-4.5979	-3.825	-3.85	-4.5833	-3.4667	-4.2312	-4.3167	-3.1813	-4.8292	-3.7854	-3.6083	-4.6354	114.451	275.622	59.388	340.854	309.571	27.631	246.644	335.078	-8.125	93.120	290.151	230.739	287.753	35.657	326.612	50.388	0.00026667	0.00030138	7.0911e-05	1167.6	3.332e-06	1.2147e-06	1270	244	6.3173e-06	5.9712e-07	306.16	85.217	66.919	19.878	9.1763e-07	27.456	0.00021767	0.00021573	5.9782e-05	1117.2	2.3541e-06	2.3374e-06	1205.5	235.03	2.3491e-06	2.3433e-06	288.63	81.859	65.175	19.683	2.3871e-06	26.944	18.106	288.699	200.930	-0.344	102.130	75.626	-0.120	6.835	318.694	263.134	6.828	13.859	14.364	20.676	149.799	20.240	-8191	255	
3023.685	1	1	0	0	0.11828	0.2186	0.011392	0.15916	0.17354	0.18897	0.3261	0.26151	0.12148	0.15807	0.22483	0.27548	0.10298	0.13269	0.07979	0.072521	-2.825	-4.3167	-4.3875	-3.3208	-4.5625	-3.8458	-3.8333	-4.7729	-3.6771	-4.1	-4.3729	-3.5042	-4.4583	-3.875	-3.7208	-4.6271	158.393	46.836	295.327	284.860	311.354	102.662	288.510	-4.189	119.175	335.752	320.290	311.598	235.675	324.767	100.110	305.678	0.00043326	0.00076437	0.00017314	1176.3	2.4763e-06	7.3544e-06	1273.9	246.2	3.9818e-06	3.3426e-06	305.55	84.905	67.404	19.936	7.3031e-06	27.447	0.00021502	0.0002153	5.9716e-05	1116.8	2.3519e-06	2.3498e-06	1203.9	235.77	2.3812e-06	2.3618e-06	288.62	81.691	65.021	19.691	2.3804e-06	26.952	10.411	77.184	94.912	-0.360	125.745	250.317	-0.302	6.673	154.887	44.066	6.558	13.879	13.893	21.054	151.745	20.564	-8191	255	
3023.780	1	1	0	0	0.33407	0.079127	0.10118	0.1292	0.21269	0.17239	0.24266	0.21569	0.1638	0.21427	0.026617	0.25989	0.080877	0.12268	0.13605	0.23213	-3.2292	-4.0583	-4.3229	-3.6688	-4.4125	-3.9562	-3.7979	-4.6229	-3.4354	-3.8104	-4.575	-3.4625	-4.525	-3.925	-3.5958	-4.5417	168.700	162.202	54.087	315.398	97.983	230.585	321.863	311.313	194.373	179.903	97.845	200.173	287.943	307.994	88.363	317.126	0.00035546	0.00034063	0.00016495	1170.6	5.6331e-06	4.3216e-06	1270.6	243.89	2.9652e-06	7.0485e-06	305.68	85.547	67.362	19.788	6.3605e-06	27.319	0.00021652	0.0002159	5.9424e-05	1117.6	2.3764e-06	2.3703e-06	1203.3	235.32	2.3721e-06	2.3597e-06	288.53	81.914	65.122	19.655	2.3665e-06	26.917	13.574	143.528	258.620	-0.346	41.913	283.132	-0.127	7.071	14.609	136.568	6.708	14.053	13.950	20.546	55.698	20.772	-8191	255	
3023.878	1	1	0	0	0.048542	0.076066	0.25031	0.20842	0.064947	0.30911	0.12411	0.22604	0.22255	0.18844	0.18197	0.17586	0.086644	0.080029	0.12362	0.071913	-3.2917	-3.8458	-4.2729	-3.4479	-4.3354	-4.125	-3.8146	-4.4625	-3.7188	-3.7896	-4.5271	-3.5292	-4.2646	-4.0854	-3.6396	-4.6333	116.305	262.937	257.889	37.767	36.917	139.677	315.564	2.652	280.403	68.115	189.151	108.565	302.978	332.176	68.739	330.147	0.00031125	0.00021372	0.00013001	1173.7	1.693e-06	2.9759e-06	1271.7	244.83	3.5164e-06	4.7305e-06	306.82	85.285	67.358	20.012	3.8082e-06	27.747	0.00021691	0.00021589	5.9798e-05	1117.4	2.3686e-06	2.349e-06	1202.8	235.45	2.3641e-06	2.356e-06	290.02	81.913	65.279	19.753	2.364e-06	26.978	3.528	144.322	63.011	-0.352	-10.252	53.030	-0.167	6.931	64.072	293.527	6.869	13.653	14.001	20.954	88.876	20.894	-8191	255	
3023.997	1	1	0	0	0.14877	0.089404	0.22917	0.20513	0.1541	0.11444	0.23173	0.24748	0.29608	0.0072168	0.14341	0.032317	0.056954	0.28639	0.10044	0.24822	-3.4146	-3.8417	-4.3583	-3.675	-4.3021	-4.125	-3.775	-4.3979	-3.6125	-3.8125	-4.4417	-3.5187	-4.2083	-4.2146	-3.5146	-4.6792	264.660	129.769	170.705	272.733	221.204	61.692	170.967	17.120	223.966	188.727	41.746	13.462	268.645	278.035	186.113	-10.989	0.00046638	0.00014711	0.00025089	1174.7	4.4391e-06	3.4554e-06	1268	244.45	4.9802e-06	1.1907e-06	308.06	84.991	67.18	19.814	2.7287e-06	27.652	0.00021805	0.00021475	5.9837e-05	1118.2	2.3688e-06	2.3872e-06	1203.9	235.36	2.3719e-06	2.3861e-06	289.84	81.796	65.147	19.698	2.3889e-06	27.066	7.079	274.680	58.297	-0.465	101.887	195.274	-0.017	6.946	268.329	141.296	6.856	14.397	14.279	20.870	152.349	20.651	-8191	255	
3024.068	1	1	0	0	0.26414	0.12276	0.049599	0.23901	0.34134	0.24421	0.213	0.11841	0.10665	0.08329	0.073115	0.20003	0.099311	0.20466	0.15164	0.18582	-3.4854	-3.7021	-4.4062	-3.7125	-4.3021	-4.1438	-3.5312	-4.7188	-3.7687	-3.75	-4.5708	-3.4042	-4.2458	-4.3667	-3.4625	-4.6312	229.204	-9.830	218.711	285.416	119.672	141.911	7.784	-6.403	28.653	136.162	45.218	321.218	36.832	194.489	262.168	166.791	0.00054052	0.00055067	9.1012e-05	1172.5	7.0849e-06	5.8564e-06	1273.2	244.85	4.5995e-06	3.5905e-06	307.1	85.21	67.555	19.884	4.6489e-06	27.68	0.00021824	0.00021633	5.9644e-05	1118.2	2.3996e-06	2.3814e-06	1206.3	235.69	2.3902e-06	2.393e-06	289.46	81.864	65.241	19.698	2.3578e-06	27.016	40.218	112.177	149.690	-0.442	106.926	120.633	-0.334	7.019	146.670	102.194	6.917	14.003	14.155	20.938	255.730	20.474	-8191	255	
3024.164	1	1	0	0	0.10738	0.21137	0.19057	0.11188	0.23906	0.11483	0.32718	0.031869	0.16994	0.35593	0.10857	0.10016	0.056994	0.13398	0.097575	0.021607	-3.6417	-3.5812	-4.5229	-3.7792	-4.1271	-4.2917	-3.7521	-4.5312	-4.0354	-3.8292	-4.5271	-3.5187	-4.1	-4.3958	-3.6021	-4.4604	93.320	65.939	28.147	298.419	308.553	123.487	48.429	276.140	313.711	8.781	250.025	303.408	36.643	338.142	163.725	69.598	0.00053352	0.00030601	0.00014881	1171.7	4.4656e-06	4.2984e-06	1273.2	244.11	2.8081e-06	6.9992e-06	306.37	84.824	67.947	19.843	3.4917e-06	27.748	0.00021802	0.00021561	5.9989e-05	1116.9	2.3961e-06	2.3503e-06	1204.1	235.15	2.3856e-06	2.3718e-06	289.53	81.774	65.311	19.685	2.3945e-06	27.098	47.134	236.295	88.933	-0.425	209.841	172.841	-0.185	7.367	147.490	191.386	7.006	13.705	14.128	20.703	16.195	20.646	-8191	255	
3024.285	1	1	0	0	0.071457	0.3124	0.05447	0.098449	0.14804	0.11614	0.49469	0.26416	0.041151	0.15096	0.032234	0.1969	0.049917	0.083849	0.20003	0.26504	-3.6437	-3.775	-4.2646	-3.7	-3.9854	-4.2458	-3.7042	-4.4854	-3.9125	-3.6646	-4.6104	-3.6125	-4.0604	-4.4812	-3.4729	-4.3292	307.334	262.225	19.590	322.685	193.973	127.689	333.534	291.321	335.048	-1.295	182.239	310.318	324.174	212.736	100.786	340.976	0.00079605	0.00054642	5.843e-05	1169.7	1.8063e-06	3.7663e-06	1273.8	244.78	3.1064e-06	5.796e-06	306.06	85.838	67.177	19.843	4.4075e-06	27.388	0.00021653	0.00021507	5.993e-05	1116.2	2.3935e-06	2.3685e-06	1202.5	235.48	2.3886e-06	2.3524e-06	290	82.069	65.293	19.678	2.3987e-06	26.991	44.167	51.536	244.102	-0.534	191.650	46.839	-0.171	7.152	144.470	135.959	6.776	13.860	13.821	20.884	106.280	20.437	-8191	255	
3024.381	1	1	0	0	0.18557	0.21061	0.21456	0.13275	0.15228	0.18828	0.18686	0.16962	0.1486	0.38426	0.32996	0.17326	0.041183	0.018798	0.14963	0.31625	-3.7667	-3.55	-4.5521	-3.8146	-3.8937	-4.4021	-3.7729	-4.3979	-4.0958	-3.4167	-4.5958	-3.6521	-3.8	-4.4833	-3.4854	-4.275	205.354	245.138	-7.287	271.380	345.010	215.289	295.815	198.282	65.674	63.930	271.543	274.882	24.243	307.295	13.334	230.417	0.00056889	0.00024482	0.00016362	1172.5	2.8119e-06	5.516e-06	1264.2	244.3	5.4671e-06	5.4366e-06	305.76	85.291	67.246	19.837	3.8873e-06	27.645	0.00021819	0.00021885	6.0933e-05	1116.6	2.4096e-06	2.3766e-06	1203.1	235.59	2.3815e-06	2.3667e-06	289.69	81.849	65.304	19.73	2.3932e-06	27.028	52.653	156.952	195.959	-0.477	304.681	63.826	0.006	7.293	174.839	100.788	6.890	13.959	14.051	20.795	94.021	20.427	-8191	255	
3024.477	1	1	0	0	0.0094984	0.11165	0.28338	0.11019	0.13102	0.065271	0.15223	0.2396	0.19255	0.30488	0.12917	0.082734	0.036877	0.12985	0.045841	0.23039	-3.9042	-3.5979	-4.5146	-3.925	-3.7313	-4.5104	-3.6604	-4.1542	-4.3104	-3.4437	-4.6521	-3.8	-3.8583	-4.5667	-3.4375	-4.175	274.168	292.854	26.574	177.681	159.980	99.380	293.547	289.614	218.063	-8.043	93.228	306.310	175.402	259.923	188.191	268.459	0.00031516	0.00043452	0.00021557	1170.7	5.8797e-06	1.6697e-06	1269	245.27	2.3119e-06	1.6541e-06	304.87	85.588	67.592	19.905	4.5961e-06	27.507	0.00021907	0.00021869	6.0817e-05	1116.5	2.4149e-06	2.3929e-06	1202.7	235.69	2.4142e-06	2.3946e-06	289.92	81.902	65.282	19.761	2.4064e-06	27.062	65.892	89.987	22.768	-0.609	145.900	161.532	-0.355	7.298	188.444	84.022	6.489	13.592	13.987	20.571	280.297	20.908	-8191	255	
3024.573	1	1	0	0	0.29246	0.22553	0.11196	0.00656	0.076567	0.15474	0.20308	0.097357	0.10619	0.168	0.22298	0.11866	0.12071	0.051094	0.048344	0.21646	-3.9354	-3.5271	-4.4187	-4.0896	-3.6333	-4.425	-3.7062	-4.1646	-4.3292	-3.4354	-4.5813	-3.9708	-3.6	-4.6229	-3.6625	-4.2125	231.648	115.594	269.442	245.623	225.553	-5.596	256.445	265.109	60.427	303.938	204.054	278.164	213.079	248.400	121.087	300.395	0.00032614	0.00028233	0.00013932	1171.2	7.3414e-06	2.6257e-06	1272.5	244.34	4.9089e-06	6.1542e-06	308.86	85.041	67.531	19.942	7.1461e-06	27.55	0.00021967	0.00021916	6.0407e-05	1117.5	2.3985e-06	2.3866e-06	1204.3	235.38	2.3981e-06	2.3856e-06	290.62	81.993	65.203	19.734	2.4036e-06	27.079	44.184	99.042	84.230	-0.617	276.352	165.733	-0.579	7.259	131.125	148.790	6.721	13.512	13.878	20.624	142.699	20.707	-8191	255	
3024.670	1	1	0	0	0.079534	0.16311	0.05413	0.19286	0.062496	0.054453	0.067449	0.11174	0.079544	0.2346	0.17395	0.17666	0.10333	0.18333	0.15608	0.21312	-3.9646	-3.35	-4.3375	-3.9729	-3.7583	-4.5	-3.6562	-4.1813	-4.4021	-3.4917	-4.5938	-3.9708	-3.4896	-4.6833	-3.6021	-4.0938	149.687	316.605	64.028	321.715	286.741	304.699	312.953	341.254	18.150	8.112	269.355	35.382	254.100	19.470	304.684	262.645	0.00023557	0.0002774	0.0001213	1169.1	3.7784e-06	5.7447e-06	1270.6	245.21	4.3577e-06	1.5084e-06	307.19	85.406	67.725	19.96	2.5713e-06	27.465	0.00021825	0.00022047	6.1217e-05	1115.8	2.415e-06	2.411e-06	1203.6	235.77	2.4286e-06	2.4417e-06	289.75	81.943	65.321	19.782	2.4562e-06	27.054	41.496	94.590	34.641	-0.452	233.513	91.710	-0.371	7.123	92.336	270.965	6.874	13.598	14.261	20.786	33.673	20.461	-8191	255	
3024.764	1	1	0	0	0.14678	0.16053	0.058159	0.2833	0.15373	0.19547	0.088989	0.35776	0.19836	0.26096	0.15503	0.12319	0.19999	0.089151	0.085841	0.32849	-4.1333	-3.2583	-4.5479	-4.1875	-3.7146	-4.8187	-3.6625	-3.7687	-4.4	-3.1521	-4.5208	-4.1813	-3.5208	-4.6958	-3.7167	-3.9208	222.836	345.669	114.563	315.750	244.441	290.258	81.247	260.234	41.317	140.109	276.724	122.548	26.748	343.859	297.334	305.533	0.00028226	0.00031296	7.1434e-05	1174.8	1.6506e-06	4.2438e-06	1262.9	245.53	3.2083e-06	6.029e-07	307.54	85.426	67.231	19.898	7.3945e-07	27.552	0.00022118	0.00022289	6.1378e-05	1117.4	2.4316e-06	2.4288e-06	1202.6	236.44	2.4284e-06	2.4283e-06	290.15	82.14	65.303	19.77	2.441e-06	27.115	346.470	147.527	30.733	-0.572	101.819	162.853	-0.190	7.273	163.245	97.199	6.824	13.739	14.093	21.351	280.075	20.658	-8191	255	
3024.860	1	1	0	0	0.20265	0.17255	0.20591	0.22166	0.10937	0.25213	0.11353	0.039697	0.091276	0.065467	0.35692	0.066884	0.12368	0.054547	0.22083	0.21685	-4.1625	-3.3708	-4.2937	-4.2542	-3.5604	-4.4021	-3.875	-4.0229	-4.4417	-3.5521	-4.3854	-4.0292	-3.6458	-4.6292	-3.7438	-3.9417	149.008	114.258	317.562	338.935	175.998	317.007	249.925	326.055	51.480	170.333	291.914	128.029	-0.405	69.180	172.553	111.597	0.00059736	0.00028758	0.0001012	1171.6	1.3769e-05	7.4524e-06	1266.7	244.22	3.1151e-06	1.7473e-06	305.59	85.063	67.007	19.85	1.4118e-06	27.618	0.00022202	0.00022346	6.2063e-05	1116.5	2.4201e-06	2.438e-06	1204	235.66	2.4424e-06	2.4239e-06	290.12	81.881	65.285	19.75	2.4494e-06	27.057	47.125	131.748	184.673	-0.469	75.742	95.338	-0.267	7.200	188.605	154.691	6.842	13.747	13.978	20.952	150.237	20.540	-8191	255	
3024.958	1	1	0	0	0.15879	0.16267	0.098938	0.21952	0.2073	0.095256	0.17194	0.16283	0.19778	0.076459	0.24096	0.20845	0.19505	0.017186	0.20769	0.25371	-4.3083	-3.5062	-4.2125	-4.3125	-3.5333	-4.4021	-3.9646	-3.8021	-4.3083	-3.4979	-4.2729	-4.2396	-3.4896	-4.4833	-3.9313	-3.8396	276.981	35.405	269.942	304.821	-0.419	164.607	302.978	10.435	344.514	240.761	221.093	325.934	296.949	301.790	211.052	206.360	0.00063075	0.00050965	2.1183e-05	1169.1	4.906e-06	6.5676e-06	1271	245.17	2.8068e-06	2.1084e-06	307.6	85.571	67.025	19.886	6.6858e-06	27.751	0.00022115	0.00022033	6.1482e-05	1115.7	2.4219e-06	2.4034e-06	1204.4	235.95	2.4247e-06	2.4325e-06	290.72	82.043	65.203	19.782	2.4204e-06	27.086	49.057	223.848	66.366	-0.516	58.448	158.881	-0.520	6.913	250.740	66.616	7.019	13.669	14.195	20.992	186.266	20.647	-8191	255	
3025.077	1	1	0	0	0.08805	0.030097	0.033966	0.18615	0.073499	0.37453	0.044084	0.26033	0.092356	0.19386	0.071838	0.21226	0.056561	0.10433	0.073795	0.28642	-4.0646	-3.6479	-4.1271	-4.375	-3.4646	-4.6354	-4.0646	-3.7771	-4.5708	-3.5187	-4.0521	-4.5083	-3.3979	-4.5417	-3.8875	-3.6229	119.680	178.499	269.840	212.427	206.039	81.122	201.141	345.482	319.440	138.047	41.268	75.173	322.960	201.621	213.115	229.627	0.00076048	0.00045675	0.00014297	1169.6	4.5836e-06	3.5032e-06	1267.4	245.21	2.6286e-06	6.8385e-06	306.05	85.434	67.501	19.791	4.7525e-06	27.548	0.00022133	0.00022068	6.1212e-05	1116.6	2.4358e-06	2.4166e-06	1202.2	236.07	2.4221e-06	2.4285e-06	290.12	82.015	65.31	19.729	2.4365e-06	27.095	40.839	66.565	253.486	-0.249	165.956	12.780	-0.389	6.952	61.360	160.798	7.133	13.758	14.235	20.953	13.058	20.785	-8191	255	
3025.173	1	1	0	0	0.11532	0.13721	0.062682	0.18466	0.21238	0.10867	0.078877	0.13931	0.057531	0.042952	0.2009	0.12525	0.19174	0.066897	0.11744	0.293	-4.4187	-3.525	-3.9771	-4.6292	-3.3729	-4.5042	-4.1354	-3.5417	-4.65	-3.5646	-4.0479	-4.7104	-3.4375	-4.4479	-4.1729	-3.6479	266.276	305.060	347.142	318.549	187.634	317.393	233.187	279.796	304.983	168.731	288.000	334.647	272.543	236.620	124.062	93.030	0.00049294	0.00023579	6.4866e-05	1176.5	3.7112e-06	3.6398e-06	1268	246.05	3.8072e-06	5.0079e-07	307.39	85.892	67.432	19.982	3.9199e-06	27.476	0.000222	0.00022149	6.0526e-05	1117.9	2.4477e-06	2.4066e-06	1202.9	236.24	2.4278e-06	2.4396e-06	290.59	82.222	65.223	19.755	2.4254e-06	27.003	3.760	108.862	84.570	-0.481	300.562	113.665	-0.410	7.154	147.772	41.836	7.038	13.667	14.111	20.912	101.046	20.599	-8191	255	
3025.269	1	1	0	0	0.18052	0.13509	0.093395	0.27945	0.15102	0.075334	0.24984	0.2482	0.12961	0.19323	0.15139	0.2483	0.24175	0.082854	0.13629	0.10314	-4.3042	-3.6604	-3.7938	-4.7167	-3.4562	-4.4	-4.2208	-3.7042	-4.5583	-3.7208	-3.9833	-4.4792	-3.5812	-4.3021	-4.2104	-3.7396	322.870	303.170	337.794	303.620	206.482	214.899	267.497	336.131	62.383	198.493	231.250	70.199	27.909	73.543	44.040	128.732	0.00058726	0.0007929	0.00025482	1174.9	1.5668e-06	4.6353e-06	1269.3	245.45	1.003e-05	5.1845e-06	308.58	85.274	67.407	19.866	5.226e-06	27.573	0.00022257	0.00022051	6.1126e-05	1118.1	2.4192e-06	2.4092e-06	1204	235.87	2.4499e-06	2.4342e-06	290.46	82.011	65.263	19.797	2.4256e-06	27.085	34.926	290.839	36.614	-0.408	301.128	168.355	-0.467	7.163	117.620	159.673	7.008	13.534	13.764	20.964	148.607	20.247	-8191	255	
3025.365	1	1	0	0	0.20703	0.066975	0.11442	0.22731	0.31077	0.098201	0.15056	0.21987	0.12031	0.21479	0.30803	0.039493	0.055496	0.15874	0.13093	0.32822	-4.0792	-3.675	-3.7438	-4.6354	-3.5479	-4.1708	-4.3396	-3.525	-4.4542	-3.8333	-3.8771	-4.5354	-3.4792	-4.3021	-4.3396	-3.6604	-6.598	308.429	64.529	304.820	210.564	196.257	-1.636	247.123	325.229	290.713	221.175	293.209	168.227	180.955	289.832	301.497	0.00043613	0.0010105	8.1106e-05	1176.2	4.1125e-06	8.9072e-06	1268.7	244.77	6.6647e-06	5.1253e-06	307.26	85.451	67.314	19.866	4.3442e-06	27.618	0.00022305	0.00022045	6.1985e-05	1119.5	2.4191e-06	2.4487e-06	1203.8	235.83	2.4529e-06	2.4387e-06	290.84	82.299	65.385	19.806	2.4548e-06	27.092	59.755	72.409	288.050	-0.219	124.449	29.828	-0.329	7.157	164.198	105.856	6.726	13.767	14.022	20.895	109.414	20.902	-8191	255	
3025.462	1	1	0	0	0.10967	0.084466	0.055236	0.26625	0.18379	0.10833	0.11612	0.12715	0.19509	0.13457	0.31801	0.096973	0.1199	0.28696	0.099445	0.092614	-4.2583	-3.9313	-3.7771	-4.6312	-3.3979	-4.1146	-4.4021	-3.5458	-4.6562	-3.8354	-3.6875	-4.6146	-3.6292	-4.0708	-4.2063	-3.5833	-8.364	218.915	15.674	343.444	20.970	315.557	249.236	61.792	175.756	109.958	343.795	248.149	301.268	-4.283	59.946	270.967	2.7216e-05	0.00021657	4.6639e-05	1171.1	2.1069e-06	6.0247e-06	1270	245.33	5.5906e-06	2.804e-06	308.87	86.355	68.2	20.092	1.9989e-06	27.967	0.00022389	0.0002213	6.1842e-05	1119.1	2.4573e-06	2.4544e-06	1205.5	236.67	2.4612e-06	2.481e-06	292.52	82.954	66.26	20.102	2.5584e-06	27.469	260.196	126.745	2.770	-0.360	301.660	130.410	-0.298	6.896	244.465	106.341	7.088	13.603	14.178	21.215	87.983	20.418	-8191	255	
3025.558	1	1	0	0	0.20106	0.305	0.070858	0.181	0.13109	0.19099	0.24639	0.14064	0.02908	0.15873	0.23938	0.17154	0.12263	0.22022	0.077996	0.18425	-4.3667	-3.8667	-3.6125	-4.5646	-3.3771	-3.9833	-4.6458	-3.6542	-4.5521	-4.0333	-3.7521	-4.5938	-3.7292	-4.125	-4.4396	-3.6146	-9.745	201.767	331.294	11.131	304.014	84.927	315.612	274.912	281.235	159.534	300.633	68.964	120.965	33.646	283.020	285.749	0.0007637	0.00020818	0.00013422	1187.7	2.1157e-06	6.9759e-06	1280.3	248.63	4.9734e-06	3.7073e-06	311.75	86.873	68.452	20.46	6.8296e-06	27.958	0.00023287	0.00023422	6.5435e-05	1130.4	2.5719e-06	2.5947e-06	1217.2	240.48	2.6056e-06	2.5925e-06	296.05	84.058	67.028	20.458	2.641e-06	27.777	342.561	-1.592	79.744	-0.527	335.174	126.747	-0.566	6.490	293.698	180.497	6.500	13.951	14.042	20.404	172.770	20.246	-8191	255	
3025.678	1	1	0	0	0.10388	0.25257	0.10961	0.073099	0.13409	0.057002	0.33731	0.2157	0.098447	0.254	0.10337	0.23543	0.10899	0.23006	0.31063	0.018788	-4.0938	-3.9021	-3.8667	-4.7312	-3.6937	-3.9208	-4.5958	-3.7208	-4.4688	-4.2875	-3.7438	-4.5125	-3.7792	-3.875	-4.5208	-3.3625	291.850	156.786	264.602	285.195	126.914	323.713	348.606	228.388	26.047	58.038	19.271	79.420	11.903	330.958	157.590	246.778	0.00023563	0.00040131	5.1485e-05	1190.1	4.9118e-06	3.3478e-06	1275.3	251.43	4.9589e-06	3.499e-06	312.57	87.144	69.315	20.52	2.5988e-06	28.158	0.00024114	0.00024231	6.7576e-05	1136.1	2.6414e-06	2.6611e-06	1219.7	243	2.6777e-06	2.6758e-06	298.5	84.736	67.707	20.644	2.6875e-06	27.979	69.346	3.796	139.037	-0.538	104.709	7.313	-0.140	6.908	98.183	160.332	6.654	13.375	13.780	20.319	269.501	19.721	-8191	255	
3025.773	1	1	0	0	0.097076	0.23505	0.11605	0.057971	0.1869	0.18952	0.15106	0.24794	0.020373	0.059119	0.066203	0.075555	0.10082	0.23346	0.090308	0.22659	-4.0646	-4.1104	-3.3958	-4.9208	-3.6708	-3.9604	-4.8375	-3.5125	-4.3688	-4.375	-3.7333	-4.575	-3.8312	-3.8917	-4.5917	-3.5083	280.164	66.317	165.851	326.596	97.817	199.578	274.586	321.139	61.079	-7.399	270.655	229.997	167.777	310.837	6.769	317.389	0.00069608	0.00027814	0.00024234	1190.8	5.7108e-06	2.4157e-06	1283.6	252.84	9.8338e-06	2.5476e-06	313.41	87.608	68.952	20.469	4.0854e-06	28.121	0.00024345	0.0002435	6.7868e-05	1135.7	2.6699e-06	2.6457e-06	1222.9	243.69	2.6645e-06	2.6675e-06	298.02	84.65	67.575	20.562	2.6674e-06	27.883	21.096	34.205	41.830	-0.319	123.974	71.833	-0.436	6.733	128.371	122.633	6.732	13.566	13.792	20.382	34.634	20.191	-8191	255	
3025.869	1	1	0	0	0.080131	0.2655	0.11434	0.231	0.050909	0.21538	0.23917	0.13583	0.084504	0.085964	0.16367	0.051632	0.21931	0.10729	0.23016	0.1862	-4.1646	-4.2667	-3.5167	-4.5938	-3.8417	-3.8104	-4.9333	-3.5333	-4.0312	-4.4396	-3.6937	-4.5333	-3.8979	-3.8854	-4.6312	-3.7542	13.382	68.958	339.454	310.924	122.862	89.214	236.599	152.783	265.679	94.218	210.994	69.917	326.967	249.620	139.972	347.306	0.00027943	0.0012046	2.0496e-05	1181.6	1.7915e-06	1.7329e-06	1283	250.26	5.3895e-06	6.1533e-06	313.8	87.425	68.668	20.39	4.1168e-06	28.057	0.00024269	0.00024208	6.7093e-05	1133.7	2.6378e-06	2.6552e-06	1221	242.27	2.6359e-06	2.6323e-06	297.65	84.478	67.168	20.503	2.6261e-06	27.762	-1.081	22.189	3.651	-0.450	81.096	78.011	-0.232	6.914	190.231	72.919	6.602	13.701	13.758	20.700	150.021	19.820	-8191	255	
3025.941	1	1	0	0	0.18505	0.21958	0.17442	0.13925	0.090208	0.30634	0.13911	0.17641	0.29068	0.16399	0.11124	0.10529	0.092817	0.313	0.22149	0.064124	-3.9021	-4.2937	-3.6437	-4.6542	-3.9417	-3.5896	-4.7604	-3.7	-4.0458	-4.4875	-3.5333	-4.7167	-3.9562	-3.5729	-4.7312	-3.5187	150.199	267.751	165.594	59.356	258.801	124.168	272.562	261.159	242.423	274.302	247.168	217.705	225.960	342.184	247.718	176.105	0.00051397	0.0003797	0.00029456	1186.6	4.1559e-06	3.4061e-06	1284.7	251.15	5.3041e-06	1.2433e-06	311.86	86.972	68.652	20.351	5.1153e-06	28.154	0.00024172	0.00024021	6.6234e-05	1131.9	2.6319e-06	2.6323e-06	1221.5	241.76	2.6302e-06	2.6078e-06	296.15	84.281	66.942	20.422	2.6e-06	27.73	35.826	45.508	67.297	-0.373	332.501	292.255	-0.229	6.736	266.086	205.924	6.623	13.535	13.431	20.334	192.767	20.443	-8191	255	
3026.061	1	1	0	0	0.18191	0.13487	0.3065	0.21786	0.061301	0.2421	0.296	0.091878	0.039086	0.15969	0.16116	0.14844	0.052993	0.085262	0.065503	0.13505	-3.7333	-4.6021	-3.2479	-4.7188	-4.2083	-3.375	-4.975	-3.6208	-4.0625	-4.7146	-3.4875	-4.5188	-4.0896	-3.5229	-4.7292	-3.6813	283.310	12.674	113.905	299.627	174.715	277.793	282.780	-8.284	128.196	42.622	254.529	284.999	-5.490	330.346	61.505	269.046	0.0005579	0.0003579	6.6646e-05	1189.3	8.7446e-06	4.4504e-06	1281.4	250.04	4.8949e-06	7.5958e-06	311.36	87.003	68.979	20.283	5.5283e-06	28.132	0.00023969	0.00023941	6.6484e-05	1134.5	2.6261e-06	2.5891e-06	1220.4	241.29	2.6159e-06	2.6142e-06	295.97	84.086	67.044	20.34	2.6115e-06	27.701	7.045	107.839	346.399	-0.384	119.850	253.990	-0.378	6.703	20.540	163.798	6.657	13.305	13.753	20.633	141.772	20.354	-8191	255	
3026.157	1	1	0	0	0.16831	0.20739	0.1206	0.34491	0.12239	0.071801	0.17125	0.13299	0.15025	0.081186	0.19243	0.12324	0.048498	0.22702	0.079932	0.1278	-3.6083	-4.4229	-3.2708	-4.5958	-4.1875	-3.3771	-4.8479	-3.6896	-3.6896	-4.8125	-3.3458	-4.4125	-4.2979	-3.3229	-4.7604	-3.7792	236.916	309.947	216.848	337.823	32.377	64.031	275.388	187.949	82.460	263.566	104.705	344.796	156.380	61.488	277.082	77.939	0.00058457	0.00059316	0.00017451	1189.3	8.6223e-06	4.2844e-06	1284.2	250.82	1.9774e-06	2.56e-06	311.27	87.311	69.198	20.406	2.4135e-06	28.033	0.00023957	0.00023795	6.5709e-05	1134.2	2.6249e-06	2.6154e-06	1221.1	241.71	2.6298e-06	2.5967e-06	295.51	84.304	67.33	20.435	2.6138e-06	27.686	-1.127	84.890	348.109	-0.369	31.346	111.699	-0.278	6.613	96.956	192.321	6.513	13.706	13.381	20.654	159.551	20.220	-8191	255	
3026.253	1	1	0	0	0.074713	0.1036	0.15955	0.093562	0.20125	0.038775	0.22464	0.066901	0.10192	0.20738	0.38924	0.34255	0.20348	0.11757	0.086957	0.33847	-3.5083	-4.7354	-3.2021	-4.3292	-4.3479	-3.3146	-4.7125	-3.8312	-3.7354	-4.5583	-3.5125	-4.3063	-4.4208	-3.3417	-4.475	-3.9146	322.989	339.554	105.088	38.710	61.870	345.978	290.454	230.898	45.446	154.785	306.360	313.443	58.150	230.024	183.308	68.725	0.00060711	0.00019201	0.00021424	1184.6	7.2483e-06	3.1963e-06	1287.7	249.39	4.1738e-06	3.9155e-06	313.78	87.659	69.129	20.435	1.3846e-06	28.065	0.00024124	0.00023671	6.6601e-05	1134.5	2.6093e-06	2.6175e-06	1220.7	241.51	2.61e-06	2.6082e-06	296.1	84.358	67.169	20.406	2.6007e-06	27.742	46.293	22.239	-2.820	-0.428	1.658	60.749	-0.066	6.919	114.993	63.210	6.570	14.223	13.872	20.404	197.448	20.437	-8191	255	
3026.350	1	1	0	0	0.17905	0.29453	0.18246	0.09912	0.12207	0.0306	0.17675	0.25096	0.16721	0.26513	0.081432	0.020465	0.27181	0.12469	0.01396	0.21075	-3.5	-4.7042	-3.475	-4.25	-4.3562	-3.5833	-4.7188	-4.0896	-3.525	-4.55	-3.5479	-4.0625	-4.3958	-3.4292	-4.3917	-4.0521	284.781	347.531	152.333	287.289	98.482	34.245	310.582	307.271	66.567	256.363	146.695	87.188	290.561	296.383	66.810	257.704	0.00023154	0.000291	7.7982e-05	1186	5.0912e-06	5.1196e-06	1286.4	250.42	1.8144e-06	6.9009e-06	310.43	87.431	68.919	20.595	6.3476e-06	28.011	0.00023936	0.00023968	6.6488e-05	1133.6	2.6105e-06	2.5903e-06	1221.8	241.73	2.6277e-06	2.6147e-06	295.69	84.508	67.279	20.529	2.6313e-06	27.745	345.675	309.731	176.630	-0.280	36.811	14.267	-0.173	6.893	19.013	84.992	6.811	13.879	13.732	20.306	150.387	19.765	-8191	255	
3026.470	1	1	0	0	0.23461	0.058188	0.058609	0.18511	0.0052383	0.2658	0.14535	0.3701	0.1632	0.20135	0.063163	0.13614	0.10289	0.15778	0.041099	0.10695	-3.3354	-4.3938	-3.4875	-4.2438	-4.2958	-3.4646	-4.4958	-4.0125	-3.6646	-4.4958	-3.7229	-4.2708	-4.5729	-3.7687	-4.2667	-4.1396	33.163	290.738	183.234	265.763	158.780	192.738	311.662	278.173	219.318	326.816	220.595	323.519	110.396	75.658	27.773	162.885	0.00060709	0.00024777	0.00010939	1190.8	3.6304e-06	1.4602e-06	1285.8	249.97	7.43e-06	2.284e-06	310.75	86.501	69.013	20.237	6.2435e-06	27.897	0.00024263	0.0002396	6.6715e-05	1135.8	2.6262e-06	2.6201e-06	1221.4	241.77	2.6448e-06	2.6262e-06	295.64	84.333	67.134	20.44	2.6281e-06	27.726	20.436	62.129	76.183	-0.479	100.298	7.810	-0.216	6.726	219.954	260.435	6.483	13.565	13.403	20.298	214.848	19.540	-8191	255	
3026.566	1	1	0	0	0.25766	0.041836	0.076286	0.25051	0.091789	0.086003	0.15913	0.041951	0.034857	0.1122	0.058727	0.15649	0.028515	0.041069	0.0064278	0.092558	-3.2229	-4.4354	-3.6854	-4.0458	-4.2667	-3.475	-4.3688	-4.0854	-3.6833	-4.6125	-3.7833	-4.05	-4.5062	-3.4458	-4.3625	-4.2688	179.474	105.817	124.774	348.632	229.963	292.767	277.064	78.040	27.912	179.408	315.307	77.439	296.855	133.388	124.088	334.872	0.00027701	0.000271	0.00025946	1183.1	4.9096e-06	4.388e-06	1282.6	250.12	5.4662e-07	3.5491e-06	312.67	87.531	68.854	20.47	2.2235e-06	27.782	0.00023879	0.00023748	6.632e-05	1133.1	2.6238e-06	2.6331e-06	1220	241.74	2.6311e-06	2.6123e-06	296.09	84.437	67.19	20.428	2.6019e-06	27.655	346.743	316.991	89.741	-0.150	152.504	116.584	-0.160	7.093	148.306	71.003	6.721	13.999	14.117	20.720	200.430	19.888	-8191	255	
3026.638	1	1	0	0	0.13952	0.099606	0.071733	0.061211	0.22543	0.11158	0.2903	0.33008	0.20896	0.18718	0.27018	0.072768	0.11923	0.16429	0.082275	0.38743	-3.2812	-4.6521	-3.7938	-4.1479	-4.4062	-3.4771	-4.4542	-4.4104	-3.5396	-4.5417	-4.0188	-3.9479	-4.5687	-3.4833	-4.2708	-4.325	57.509	115.567	207.365	224.347	255.537	184.115	262.250	276.196	200.996	-4.345	340.044	289.801	-7.566	40.946	336.314	266.943	0.0003397	0.00060273	0.00021456	1186.5	5.4299e-06	3.5348e-07	1280.8	249.9	5.3122e-06	4.0106e-06	310.3	87.251	68.826	20.417	6.0428e-06	27.908	0.000239	0.00023707	6.6567e-05	1132.4	2.5973e-06	2.617e-06	1219.7	241.01	2.5963e-06	2.6024e-06	295.28	84.177	67.061	20.369	2.6183e-06	27.704	-7.660	92.760	64.011	-0.424	89.295	118.657	-0.196	6.813	151.600	310.112	6.661	13.699	13.626	20.565	145.253	20.322	-8191	255	
3026.759	1	1	0	0	0.10026	0.045629	0.26089	0.042468	0.16244	0.12587	0.17103	0.099045	0.2053	0.17825	0.17121	0.33024	0.13201	0.060343	0.15553	0.16822	-3.0729	-4.4688	-3.8646	-3.9375	-4.3854	-3.5729	-4.3042	-4.4396	-3.4083	-4.4708	-3.9833	-3.5646	-4.6021	-3.4792	-4.0563	-4.5188	110.614	16.891	185.755	323.055	263.693	250.618	268.240	284.492	332.515	129.597	32.165	324.336	240.451	38.009	29.132	324.803	0.00043988	0.00066285	8.4889e-05	1187.5	3.6794e-06	4.6576e-06	1284	249.74	6.9222e-06	6.1689e-06	309.55	87.641	68.8	20.282	1.8233e-06	27.929	0.00023827	0.00023864	6.6429e-05	1131.9	2.6135e-06	2.6001e-06	1220	241.44	2.6234e-06	2.6275e-06	295.43	84.3	66.887	20.356	2.6403e-06	27.678	31.267	69.249	150.371	-0.346	252.006	67.234	-0.137	6.835	180.434	320.452	6.816	13.819	13.362	20.540	56.707	20.196	-8191	255	
3026.853	1	1	0	0	0.1047	0.18551	0.034458	0.12781	0.091277	0.10961	0.31004	0.26155	0.17025	0.15232	0.11716	0.21513	0.12582	0.23277	0.17423	0.1267	-3.2458	-4.5146	-3.8958	-3.7708	-4.5542	-3.4479	-4.275	-4.5	-3.5687	-4.6417	-4.075	-3.8125	-4.7188	-3.5875	-3.9708	-4.4792	321.760	170.549	247.117	272.854	23.943	324.655	313.845	233.982	269.397	62.718	106.736	317.989	187.883	-4.758	232.629	189.729	0.00061395	0.00061598	0.00014036	1189.7	9.2858e-07	4.2808e-06	1284.6	249.65	3.5529e-06	2.254e-06	310.84	87.169	68.646	20.284	1.8411e-06	28.014	0.00023807	0.00023796	6.6091e-05	1133.3	2.6138e-06	2.6029e-06	1221.2	241.15	2.5799e-06	2.6123e-06	295.18	84.037	66.985	20.388	2.6137e-06	27.627	37.694	119.686	154.893	-0.346	184.320	99.714	0.019	6.797	237.770	199.236	6.581	13.979	14.086	20.029	319.946	19.893	-8191	255	
3026.949	1	1	0	0	0.14669	0.038753	0.23855	0.17195	0.025447	0.18534	0.27229	0.13139	0.061334	0.29169	0.14785	0.15345	0.12667	0.13725	0.15613	0.13707	-3.1333	-4.45	-3.9729	-3.6813	-4.6875	-3.4292	-4.0521	-4.5333	-3.3958	-4.4938	-4.1292	-3.6125	-4.7729	-3.6813	-4.0563	-4.6542	222.116	111.903	79.934	301.809	337.829	52.211	243.812	277.387	157.688	320.287	322.451	7.342	234.829	122.142	158.119	41.069	0.00021993	0.00015005	0.00017705	1189.8	2.4316e-06	2.1431e-06	1278.4	249.71	6.2042e-06	3.7929e-06	311.17	86.892	68.768	20.292	7.8448e-06	28.158	0.00023832	0.00023854	6.5842e-05	1133.2	2.5769e-06	2.5911e-06	1218	240.96	2.618e-06	2.5905e-06	295.25	83.919	66.986	20.345	2.6216e-06	27.68	30.348	9.471	139.257	-0.301	30.228	230.196	-0.116	6.933	123.295	46.149	6.662	13.753	13.754	20.417	169.527	20.016	-8191	255	
3027.070	1	1	0	0	0.026347	0.063995	0.20133	0.39907	0.089017	0.20004	0.31104	0.16789	0.17147	0.043018	0.054601	0.18381	0.079284	0.19418	0.11039	0.078731	-3.1813	-4.4708	-4.025	-3.5917	-4.5062	-3.7604	-3.9771	-4.4646	-3.2729	-4.3271	-4.2042	-3.6104	-4.4708	-3.8917	-3.6896	-4.5875	34.247	78.355	312.694	347.626	92.109	238.336	247.011	269.337	312.013	282.597	113.757	166.926	20.706	343.525	346.155	331.613	0.00058627	0.0002023	0.00027401	1186.8	1.9383e-06	5.1129e-06	1282.6	249.98	4.4252e-06	3.0969e-06	310.09	86.965	68.683	20.354	3.4658e-06	27.762	0.00023822	0.00023642	6.6116e-05	1131	2.5988e-06	2.5968e-06	1219.4	241.18	2.6167e-06	2.6103e-06	294.98	83.944	67.103	20.377	2.6219e-06	27.673	30.188	54.385	69.815	-0.379	236.132	302.990	-0.358	6.910	50.891	89.323	6.717	13.791	13.788	20.423	41.760	20.735	-8191	255	
3027.166	1	1	0	0	0.15912	0.14823	0.11806	0.15219	0.1434	0.16739	0.17169	0.23633	0.26234	0.1634	0.21717	0.15855	0.25619	0.065197	0.20725	0.076604	-3.1146	-4.2208	-4.1917	-3.7396	-4.5188	-3.6792	-3.8729	-4.4792	-3.4813	-4.1958	-4.3146	-3.5958	-4.6646	-3.7979	-3.8229	-4.6292	198.826	0.964	274.291	345.277	41.238	33.892	280.916	254.652	3.398	99.379	75.532	-5.119	97.634	97.082	134.457	233.740	0.00030573	0.0003033	7.0444e-05	1182.3	3.2636e-06	2.8286e-06	1288.6	250.06	6.8319e-06	4.309e-06	310.71	86.627	69.14	20.401	8.6343e-06	28.251	0.00023975	0.00024084	6.6501e-05	1131.2	2.5961e-06	2.6071e-06	1220.3	241.71	2.6301e-06	2.6175e-06	295.04	83.956	67.197	20.379	2.5914e-06	27.784	71.407	154.723	123.160	-0.536	59.546	322.322	-0.299	7.186	171.674	70.823	6.591	13.409	14.100	20.166	188.368	20.576	-8191	255	
3027.238	1	1	0	0	0.052236	0.18465	0.080611	0.28392	0.18158	0.1512	0.26166	0.12297	0.10573	0.15394	0.095819	0.11388	0.081185	0.038903	0.18778	0.23351	-3.0771	-4.2479	-4.3417	-3.4833	-4.5625	-3.8896	-3.8729	-4.6896	-3.3042	-4.0958	-4.4917	-3.5438	-4.5083	-3.9688	-3.7625	-4.7271	125.313	134.505	112.930	321.654	148.141	191.803	319.839	282.880	20.740	57.365	-0.909	39.626	78.423	339.903	198.703	301.169	0.00043086	0.0005273	0.0001528	1183.4	2.9683e-06	2.1095e-06	1279.9	250.64	4.9198e-06	3.0244e-06	311.28	86.944	68.998	20.278	4.6922e-06	28.061	0.00024059	0.00023559	6.5909e-05	1130.1	2.5941e-06	2.5785e-06	1217.6	240.81	2.5887e-06	2.5651e-06	294.92	83.659	67.149	20.309	2.5717e-06	27.677	24.818	-5.293	99.934	-0.257	131.490	300.307	-0.387	7.031	69.660	38.027	6.830	13.601	13.526	20.013	124.803	20.135	-8191	255	
3027.358	1	1	0	0	0.10332	0.027853	0.15971	0.27449	0.072362	0.30985	0.3445	0.16417	0.063048	0.12505	0.12222	0.23238	0.19053	0.12837	0.14856	0.08006	-3.2625	-4.1542	-4.4104	-3.5958	-4.6479	-4.0625	-3.6583	-4.7896	-3.475	-4.1083	-4.5042	-3.4854	-4.6875	-4.15	-3.3812	-4.7354	7.824	80.674	139.529	314.633	187.513	39.730	330.760	331.077	85.433	21.076	222.519	65.478	287.435	-0.597	283.741	305.628	0.00052195	0.00031154	0.00019547	1184.1	7.3338e-06	3.5021e-06	1285.5	250.9	3.96e-06	4.3357e-06	310.19	87.312	68.951	20.336	6.4203e-07	28.065	0.00023748	0.00023499	6.5389e-05	1131.2	2.5575e-06	2.5919e-06	1220.7	241.61	2.6028e-06	2.5864e-06	295.57	84.101	67.083	20.321	2.5956e-06	27.7	17.545	161.730	24.880	-0.323	165.933	132.153	-0.223	6.931	204.770	188.475	6.562	13.642	13.864	20.080	213.658	20.336	-8191	255	
3027.454	1	1	0	0	0.088296	0.1414	0.036712	0.34496	0.2385	0.12446	0.18615	0.28094	0.090215	0.28526	0.21464	0.14194	0.34897	0.17804	0.14661	0.1847	-3.1583	-4.0604	-4.4458	-3.6813	-4.2063	-3.9437	-3.6021	-4.7604	-3.5146	-4.0396	-4.4604	-3.3146	-4.5375	-4.2479	-3.4979	-4.8104	167.683	112.767	270.502	236.624	3.529	196.720	285.645	322.203	198.713	273.461	340.467	67.731	331.177	17.608	180.061	278.322	0.00037509	0.00028369	9.051e-05	1182.7	5.4319e-06	4.329e-06	1280.4	249.87	4.9748e-06	2.3222e-06	309.24	87.353	68.332	20.342	3.442e-06	28.055	0.00023584	0.00023832	6.5342e-05	1129.8	2.5886e-06	2.5692e-06	1219.5	241.35	2.6005e-06	2.58e-06	294.86	84.007	67.105	20.362	2.6119e-06	27.679	317.046	336.708	50.647	-0.375	214.888	149.793	-0.054	6.617	259.463	66.207	6.666	13.905	14.200	20.703	289.460	20.336	-8191	255	
3027.551	1	1	0	0	0.13824	0.15662	0.16772	0.14882	0.30781	0.064694	0.11108	0.058679	0.18287	0.086799	0.17802	0.057071	0.17835	0.013633	0.41604	0.1065	-3.3708	-3.8063	-4.625	-3.2917	-4.2562	-4.2542	-3.3521	-4.9646	-3.6167	-3.9458	-4.7875	-3.0667	-4.4313	-4.3229	-3.4062	-4.8708	316.001	-0.819	285.635	297.941	259.791	-8.142	1.097	1.100	333.968	345.415	204.707	171.635	-9.166	124.756	149.219	151.655	0.00036261	0.00083769	0.00024767	1183.6	2.2547e-06	6.5923e-06	1282.5	249.99	6.2546e-06	1.5448e-06	309.76	87.051	68.756	20.452	1.7299e-06	28.179	0.00023623	0.00023592	6.5542e-05	1130	2.5731e-06	2.5732e-06	1219.4	241.18	2.5597e-06	2.5687e-06	295.2	84.149	67.208	20.377	2.6089e-06	27.724	34.499	41.512	27.173	-0.459	43.825	153.472	-0.250	6.974	176.097	34.708	6.773	13.625	13.820	20.337	285.803	19.825	-8191	255	
3027.647	1	1	0	0	0.1704	0.20065	0.045364	0.29619	0.10778	0.046504	0.084192	0.084999	0.20311	0.096908	0.17537	0.20367	0.10974	0.23527	0.1568	0.12757	-3.3646	-3.7146	-4.7667	-3.6042	-4.2063	-4.2625	-3.7146	-4.7	-3.8458	-3.8667	-4.6021	-3.7562	-4.0354	-4.3417	-3.5042	-4.5687	330.033	330.751	183.480	303.703	218.327	131.423	245.992	128.682	98.407	142.158	250.574	21.848	331.352	275.431	9.988	92.045	0.00026324	0.0010636	0.00021123	1182.2	8.5471e-06	6.0224e-06	1282.1	249.5	4.8245e-06	1.4076e-06	308.56	86.835	68.496	20.28	3.7014e-06	27.734	0.00023609	0.00023615	6.587e-05	1128.2	2.5648e-06	2.5731e-06	1218.7	241.32	2.5816e-06	2.5934e-06	294.84	83.903	66.918	20.363	2.5913e-06	27.678	34.814	187.902	302.009	-0.364	53.217	107.451	-0.110	6.995	287.942	336.329	6.290	14.098	13.767	20.325	104.174	20.447	-8191	255	
3027.766	1	1	0	0	0.015685	0.37352	0.07151	0.15859	0.11035	0.16183	0.20919	0.18657	0.071029	0.22181	0.091844	0.16284	0.12801	0.16495	0.054015	0.11197	-3.5667	-3.6875	-4.4417	-3.5771	-3.9979	-4.3021	-3.5042	-4.5354	-3.9896	-3.8812	-4.7833	-3.4583	-3.9792	-4.2729	-3.4292	-4.5062	182.803	37.822	243.171	325.386	59.658	222.822	252.185	262.532	12.579	207.447	70.717	331.527	287.379	125.456	181.964	232.775	0.00029233	0.00042712	0.00016391	1184.7	1.5646e-06	6.8991e-06	1282.7	249.4	9.2928e-07	3.8608e-06	311.09	87.271	68.932	20.332	2.2312e-06	28.13	0.00023483	0.00023532	6.5705e-05	1130.9	2.5809e-06	2.5478e-06	1218.4	241.59	2.5753e-06	2.5972e-06	295.43	84.071	67.114	20.392	2.6086e-06	27.724	48.612	45.615	247.631	-0.633	213.048	186.243	-0.141	7.321	318.705	282.934	6.806	13.892	13.938	20.812	111.733	19.856	-8191	255	
3027.837	1	1	0	0	0.18818	0.1514	0.15447	0.37899	0.16888	0.12355	0.1893	0.17582	0.13696	0.18841	0.20089	0.27207	0.049524	0.16881	0.10333	0.080013	-3.6146	-3.5146	-4.5229	-3.7292	-4.1208	-4.3958	-3.6479	-4.4646	-4.075	-3.7083	-4.4854	-3.6937	-4.0687	-4.6375	-3.3917	-4.4938	165.128	139.986	211.591	317.707	-2.471	213.195	-8.829	70.636	122.010	278.500	281.702	346.742	95.177	1.992	262.749	44.362	0.00025831	0.00042289	8.0501e-05	1182.4	1.4478e-06	7.3915e-06	1283.8	250.43	5.2546e-06	3.2697e-06	310.66	87.446	69.103	20.42	6.7268e-06	27.913	0.00023893	0.00023731	6.5734e-05	1129.5	2.5866e-06	2.6066e-06	1218.3	241.64	2.6017e-06	2.6182e-06	295.29	84.038	67.168	20.39	2.642e-06	27.712	0.846	55.432	80.931	-0.407	150.851	136.336	-0.316	6.976	291.459	165.365	6.573	13.519	13.990	20.431	148.503	20.346	-8191	255	
3027.933	1	1	0	0	0.092247	0.1043	0.1997	0.22025	0.14365	0.16832	0.23255	0.093352	0.14652	0.017875	0.15941	0.42966	0.12467	0.080552	0.10169	0.16965	-3.6896	-3.3083	-4.7812	-3.8479	-3.9396	-4.5625	-3.6229	-4.6229	-3.8771	-3.4625	-4.8042	-3.8104	-3.8792	-4.5917	-3.5354	-4.2854	266.221	271.494	312.344	237.976	330.830	17.534	31.834	215.508	195.842	248.173	345.435	271.047	299.701	111.744	153.316	250.801	0.00053209	0.00058353	9.0179e-05	1184.9	1.8853e-06	3.9284e-06	1277.8	250.34	4.8612e-06	2.4349e-06	311.96	87.457	68.966	20.356	3.1459e-06	27.907	0.00023788	0.00023932	6.6039e-05	1129	2.5881e-06	2.5958e-06	1215.9	241.28	2.5753e-06	2.5944e-06	295.34	83.791	67.101	20.325	2.589e-06	27.581	4.527	191.138	54.461	-0.524	76.198	25.817	-0.420	6.940	168.834	309.369	6.844	13.593	13.862	20.113	179.175	19.738	-8191	255	
3028.031	1	1	0	0	0.070882	0.12195	0.12653	0.10319	0.15784	0.06804	0.21796	0.2268	0.033496	0.23506	0.17731	0.1786	0.059013	0.23649	0.039177	0.17213	-3.9271	-3.6188	-4.4854	-3.8833	-3.875	-4.4896	-3.5521	-4.3375	-4.3292	-3.3792	-4.7063	-3.6771	-3.7562	-4.6354	-3.4104	-4.2521	162.691	170.145	143.220	301.023	342.930	100.086	327.817	156.429	239.689	85.399	334.259	11.814	328.544	4.914	-0.172	83.452	0.00068979	0.00083435	8.9821e-05	1180.1	5.0539e-06	2.1637e-06	1280.7	250.16	4.5176e-06	2.1525e-06	310.42	86.48	68.781	20.349	2.9808e-06	27.849	0.00023766	0.00023762	6.51e-05	1128.5	2.5691e-06	2.5735e-06	1216.4	241.6	2.597e-06	2.5701e-06	294.91	83.804	66.981	20.325	2.5974e-06	27.656	-0.133	65.527	78.049	-0.657	129.983	29.485	-0.395	6.837	193.084	328.952	6.743	13.520	14.351	20.599	43.541	20.466	-8191	255	
3028.150	1	1	0	0	0.16893	0.26017	0.22396	0.052357	0.15635	0.21192	0.28827	0.17256	0.17033	0.202	0.069344	0.11529	0.11424	0.10101	0.13727	0.31839	-4.1042	-3.4625	-4.7604	-3.9917	-3.5542	-4.5333	-3.7333	-4.2896	-4.3	-3.3812	-4.5583	-3.9938	-3.725	-4.6937	-3.4188	-4.1104	69.875	12.969	55.258	178.730	238.886	323.069	261.219	284.396	178.134	284.575	272.706	303.113	308.097	13.199	70.753	34.243	0.00054738	0.0006925	9.4094e-05	1182.5	3.076e-06	6.2936e-06	1282.2	250.71	1.1364e-05	3.8857e-06	311.44	86.709	68.309	20.387	3.1347e-06	28.206	0.00023837	0.00023816	6.6245e-05	1128.9	2.6113e-06	2.6024e-06	1215.2	241.14	2.5857e-06	2.6087e-06	295.31	83.814	66.916	20.38	2.5821e-06	27.735	38.292	106.293	73.912	-0.438	102.292	127.192	-0.412	7.228	144.538	316.663	6.724	13.506	13.455	20.717	150.845	20.279	-8191	255	
3028.246	1	1	0	0	0.11532	0.092022	0.1575	0.074159	0.26828	0.075884	0.15047	0.12103	0.21983	0.1014	0.10316	0.093937	0.085512	0.024966	0.15164	0.080366	-3.9417	-3.4313	-4.4313	-4.1104	-3.5938	-4.4062	-3.825	-4.1438	-4.3271	-3.5229	-4.5	-3.8625	-3.6562	-4.5312	-3.4083	-3.8521	33.694	322.807	213.530	89.538	327.397	325.197	30.978	338.757	290.146	221.445	346.494	313.251	66.166	70.469	324.193	166.170	0.00042406	0.00028013	6.1097e-05	1182.1	3.8745e-06	3.7496e-06	1280.8	249.62	5.0925e-06	1.6421e-06	310.72	87.074	69.069	20.37	5.7268e-06	28.011	0.00023787	0.00023708	6.6029e-05	1127.4	2.6044e-06	2.5819e-06	1216.3	240.92	2.5926e-06	2.5721e-06	295.67	83.894	67.074	20.315	2.588e-06	27.674	10.151	308.688	119.575	-0.433	136.036	-4.042	-0.439	7.110	133.787	115.487	6.745	13.222	13.896	20.619	235.784	20.315	-8191	255	
3028.343	1	1	0	0	0.070378	0.15287	0.10513	0.19493	0.12153	0.074828	0.49184	0.13024	0.065675	0.06321	0.1865	0.071321	0.12318	0.17698	0.15896	0.024047	-4.2958	-3.3792	-4.475	-4.2104	-3.4542	-4.6958	-3.6417	-4.175	-4.4792	-3.3521	-4.4458	-4.2333	-3.7208	-4.5354	-3.6583	-4.0938	0.521	141.327	324.407	267.641	105.558	71.083	301.481	343.687	48.654	1.544	266.580	309.334	192.791	226.659	234.201	123.266	0.00022562	0.00063039	0.00016022	1181.4	6.2996e-06	3.2371e-06	1279.5	250.1	5.0199e-07	1.2727e-06	309.81	86.396	68.314	20.366	4.9856e-06	28.136	0.00023754	0.00023778	6.5784e-05	1127.4	2.6232e-06	2.5811e-06	1216	241.18	2.5899e-06	2.5818e-06	294.87	83.678	66.863	20.33	2.5989e-06	27.586	32.875	131.016	76.029	-0.523	121.684	20.682	-0.507	7.013	148.476	156.393	6.744	13.965	13.780	20.281	214.579	20.537	-8191	255	
3028.439	1	1	0	0	0.046103	0.17379	0.18984	0.097039	0.18126	0.21255	0.16232	0.26621	0.046988	0.25836	0.15049	0.22277	0.080939	0.15071	0.21487	0.20961	-4.1375	-3.5375	-4.2688	-4.1979	-3.6208	-4.5771	-3.8208	-3.8854	-4.7271	-3.3208	-4.2688	-4.25	-3.5917	-4.5646	-3.8854	-3.9354	337.868	128.283	168.313	254.150	136.903	146.681	248.787	262.317	338.919	71.393	134.576	14.464	17.726	119.589	146.706	95.128	0.00016704	0.00065696	0.00010508	1177.9	5.8294e-06	5.9985e-06	1274.9	249.76	2.8421e-06	2.7427e-06	311.98	87.52	68.779	20.385	4.5858e-06	27.88	0.00023773	0.00023647	6.572e-05	1128.2	2.5947e-06	2.5835e-06	1215.1	241.31	2.5923e-06	2.5755e-06	295.6	84.07	66.863	20.379	2.6182e-06	27.633	69.598	342.510	25.994	-0.583	228.910	165.152	-0.118	6.876	91.231	50.382	7.065	13.583	13.715	20.600	67.526	20.358	-8191	255	
3028.535	1	1	0	0	0.13544	0.32006	0.22648	0.19462	0.041968	0.048337	0.23659	0.16259	0.2274	0.1059	0.20292	0.1109	0.065989	0.30505	0.098449	0.14816	-4.1125	-3.4021	-4.2333	-4.3458	-3.4813	-4.5729	-4.0583	-3.7521	-4.4979	-3.6083	-4.2375	-4.3104	-3.4708	-4.4021	-3.9896	-3.8792	296.917	4.123	6.748	251.208	86.299	322.479	307.505	229.902	153.259	216.635	337.634	9.067	80.166	325.519	100.514	179.917	0.00030157	0.00016383	2.0753e-05	1181.5	1.4842e-06	3.6275e-06	1277.3	249.96	5.9064e-06	6.2587e-06	312.38	86.253	68.439	20.43	4.4514e-06	27.98	0.00023592	0.00023604	6.5328e-05	1127.3	2.6077e-06	2.5863e-06	1215	241.33	2.5925e-06	2.5906e-06	295.44	83.737	66.896	20.333	2.5841e-06	27.607	25.775	282.502	139.116	-0.608	25.987	191.233	-0.415	6.772	143.462	137.240	6.875	13.801	13.965	20.793	90.419	20.135	-8191	255	
3028.631	1	1	0	0	0.14587	0.15935	0.27216	0.17341	0.15209	0.19188	0.31827	0.20406	0.10636	0.1003	0.17218	0.079035	0.084116	0.19012	0.18518	0.16699	-4.05	-3.4833	-4.0417	-4.4521	-3.4875	-4.4917	-4.1458	-3.8542	-4.5125	-3.5083	-3.9979	-4.2854	-3.7	-4.5042	-3.9354	-3.7729	278.742	23.338	243.456	325.600	213.528	132.032	244.862	237.683	106.646	157.513	269.568	120.185	316.765	18.755	186.948	187.300	0.00027617	0.0005218	0.00022296	1179.2	5.5719e-06	7.5453e-06	1280.5	249.53	5.5388e-06	5.3913e-06	309.83	87.201	68.755	20.377	2.7413e-06	28.138	0.00023456	0.00023504	6.5209e-05	1125.7	2.5735e-06	2.5629e-06	1215.7	240.71	2.5521e-06	2.5441e-06	294.76	83.677	66.695	20.29	2.5847e-06	27.675	3.921	207.583	3.115	-0.378	109.570	63.174	-0.301	6.926	225.207	75.588	6.947	13.832	13.902	20.361	124.109	20.688	-8191	255	
3028.752	1	1	0	0	0.068682	0.045707	0.14485	0.27069	0.051217	0.17598	0.24118	0.083203	0.13337	0.1019	0.2552	0.21215	0.32717	0.12646	0.083344	0.1906	-4.375	-3.3896	-4.0708	-4.5333	-3.4125	-4.6229	-4.0604	-3.5833	-4.5854	-3.5938	-4.0521	-4.5062	-3.3854	-4.5208	-3.9938	-3.5563	213.231	311.929	130.489	292.747	38.933	24.644	307.557	300.921	184.421	312.500	299.416	195.135	341.112	267.157	279.219	285.277	0.00074448	9.9916e-05	0.00010517	1181.3	5.9751e-07	1.0889e-06	1273.6	250.24	8.5417e-06	6.0234e-06	309.97	86.746	68.763	20.43	9.293e-07	27.995	0.00023125	0.00023474	6.4284e-05	1127.7	2.5603e-06	2.5278e-06	1214.2	240.83	2.5538e-06	2.5606e-06	294.71	83.556	66.752	20.346	2.5756e-06	27.613	12.822	283.941	54.322	-0.523	159.876	214.528	-0.375	6.981	157.709	160.534	6.819	13.559	14.217	20.891	229.701	20.181	-8191	255	
3028.846	1	1	0	0	0.12409	0.15232	0.1898	0.068316	0.12339	0.09069	0.25028	0.36523	0.037368	0.13571	0.24691	0.12374	0.12129	0.18281	0.25684	0.093986	-4.4021	-3.6146	-3.9396	-4.4854	-3.2938	-4.2875	-4.2312	-3.6208	-4.4625	-3.6292	-3.8667	-4.35	-3.5938	-4.3438	-4.0229	-3.6375	322.581	101.955	318.132	286.225	111.223	327.127	330.902	344.880	0.454	11.586	282.031	263.226	327.919	8.168	261.586	273.532	0.00040355	0.0002948	0.00010377	1179.3	2.0804e-06	5.0598e-06	1271.8	249.54	1.3284e-06	5.0388e-06	311.58	87.303	68.429	20.352	4.5801e-06	27.858	0.00023392	0.00023274	6.5744e-05	1126.2	2.589e-06	2.5528e-06	1212.6	240.51	2.5568e-06	2.5571e-06	295.03	83.759	66.648	20.354	2.5582e-06	27.561	26.379	175.050	337.797	-0.362	45.283	-7.095	-0.323	6.878	20.196	160.757	6.825	13.595	13.674	20.451	109.674	20.264	-8191	255	
3028.942	1	1	0	0	0.17858	0.10098	0.13288	0.14107	0.15493	0.18169	0.1931	0.19561	0.16207	0.18317	0.23988	0.11493	0.093263	0.0826	0.18263	0.037901	-4.3521	-3.6208	-3.8125	-4.5958	-3.3625	-4.4417	-4.3104	-3.5687	-4.6792	-3.7062	-3.7687	-4.8104	-3.5563	-4.3438	-4.3417	-3.7208	184.867	185.633	118.293	285.308	297.827	4.420	104.144	249.365	191.574	14.308	266.099	234.743	93.669	3.185	344.141	142.932	0.00043442	0.00023873	0.00016968	1185.5	2.6746e-06	5.4744e-06	1278	249.2	6.1545e-06	4.652e-07	310.96	86.648	68.145	20.465	3.6693e-06	27.963	0.00023639	0.00023406	6.5032e-05	1127.8	2.548e-06	2.5524e-06	1213.9	240.4	2.5708e-06	2.5643e-06	294.87	83.522	66.675	20.312	2.5603e-06	27.572	23.696	14.777	122.151	-0.430	96.719	136.374	-0.182	6.949	199.474	241.948	6.832	13.967	13.913	20.490	196.514	20.567	-8191	255	
3029.038	1	1	0	0	0.19249	0.06212	0.30603	0.14215	0.25425	0.017558	0.32251	0.15425	0.07402	0.063406	0.1562	0.13263	0.078906	0.17107	0.06473	0.17256	-4.3042	-4.0042	-3.6271	-4.8021	-3.1958	-4.2771	-4.6229	-3.3958	-4.5833	-3.9375	-3.4167	-4.7312	-3.4688	-4.2	-4.3625	-3.6104	269.607	212.207	89.204	-5.409	69.857	309.299	310.065	309.787	84.161	191.833	-5.233	257.992	75.942	5.420	104.356	190.340	0.00026905	0.00061383	0.00025256	1185.6	4.8708e-07	6.9548e-06	1274.3	250.36	7.1805e-06	6.0409e-06	310.6	86.408	68.54	20.249	1.0515e-05	27.843	0.00023516	0.0002354	6.5424e-05	1129.5	2.5556e-06	2.5758e-06	1213.3	240.74	2.5728e-06	2.5788e-06	294.93	83.673	66.627	20.282	2.5792e-06	27.458	7.854	74.465	60.849	-0.349	68.036	14.177	-0.268	7.062	98.550	158.956	6.717	13.814	13.458	20.450	91.007	19.824	-8191	255	
3029.134	1	1	0	0	0.10803	0.1341	0.11523	0.18487	0.018801	0.01794	0.2767	0.0088896	0.026119	0.15477	0.25634	0.093785	0.2008	0.036297	0.0655	0.16246	-4.3042	-3.9083	-3.5708	-4.7562	-3.6417	-3.9479	-4.5458	-3.6188	-4.3667	-3.9604	-3.8417	-4.6312	-3.5208	-4.1438	-4.3292	-3.6292	17.275	131.861	37.427	69.792	30.698	247.812	-0.293	320.320	343.819	93.166	24.971	26.059	240.672	317.716	334.080	-0.328	0.00064081	0.00024019	0.00015136	1178	5.2394e-06	3.6899e-06	1276.4	247.78	3.6915e-06	1.9107e-06	309.69	86.446	68.222	20.287	7.1995e-06	27.634	0.00023642	0.0002371	6.5351e-05	1126.2	2.5852e-06	2.5675e-06	1213	239.83	2.5845e-06	2.6001e-06	294.5	83.618	66.596	20.329	2.5725e-06	27.505	347.652	256.548	0.282	-0.657	46.154	81.155	-0.542	6.684	287.104	70.221	6.336	13.608	13.312	20.559	179.002	20.111	-8191	255	
3029.231	1	1	0	0	0.081204	0.2199	0.18244	0.25095	0.24581	0.092297	0.35774	0.26634	0.11628	0.16903	0.16165	0.10878	0.10308	0.18135	0.19741	0.068691	-4.0521	-3.7812	-3.7042	-4.5708	-3.6208	-4.0188	-4.6813	-3.6042	-4.2354	-4.1042	-3.7583	-4.5146	-3.8312	-4.1271	-4.475	-3.6396	287.955	185.418	178.002	333.432	327.760	46.588	235.798	-1.841	268.196	257.937	318.971	272.893	41.023	253.633	130.546	21.978	0.00025109	0.00027036	4.0479e-05	1175.1	2.5399e-06	2.7988e-06	1274.7	248.42	5.7795e-06	2.9648e-06	311.75	86.572	67.636	20.325	2.2114e-06	27.747	0.00023824	0.00023513	6.5921e-05	1125.4	2.6355e-06	2.6069e-06	1211.4	240.15	2.6189e-06	2.6153e-06	294.95	83.544	66.577	20.315	2.5871e-06	27.539	62.655	335.715	329.753	-0.588	229.837	205.782	-0.492	6.314	100.296	272.081	6.329	13.493	13.435	20.089	0.803	20.360	-8191	255	
3029.327	1	1	0	0	0.11519	0.02962	0.082358	0.11938	0.19238	0.13944	0.40342	0.11097	0.052893	0.085436	0.10711	0.040501	0.078986	0.1665	0.18829	0.21906	-3.9688	-4.2021	-3.5167	-4.7646	-3.6542	-3.8438	-4.5104	-3.5958	-4.3271	-4.0375	-3.5896	-4.6042	-3.7125	-3.85	-4.3688	-3.3854	237.474	1.157	270.303	-5.280	190.151	260.466	264.244	144.898	86.445	122.839	305.632	15.746	30.720	239.651	167.359	245.516	0.00056542	0.00042669	0.00016672	1179.5	4.1269e-06	2.6917e-06	1272.6	247.64	1.0462e-06	6.8105e-07	309.86	87.518	68.55	20.282	5.3381e-06	27.926	0.00023779	0.00023539	6.5539e-05	1127.8	2.5854e-06	2.5862e-06	1211.5	239.64	2.5746e-06	2.5703e-06	294.5	83.898	66.513	20.293	2.5875e-06	27.493	33.766	338.676	-1.496	-0.645	46.891	234.796	-0.696	6.571	79.396	115.568	6.964	13.703	13.543	20.439	319.043	20.237	-8191	255	
3029.447	1	1	0	0	0.18712	0.24942	0.17406	0.26345	0.11125	0.29143	0.45263	0.15932	0.22245	0.22038	0.012105	0.31922	0.034077	0.14149	0.20214	0.079059	-3.9396	-4.375	-3.4271	-4.6937	-3.6708	-3.8604	-4.6542	-3.6542	-4.1917	-4.1125	-3.7083	-4.4458	-4.1	-3.8563	-4.5979	-3.4813	25.762	206.163	175.644	297.791	28.001	91.551	311.193	283.192	8.301	226.083	112.751	307.763	0.944	316.857	75.922	150.340	0.00032842	9.4407e-05	0.00013009	1176.1	6.2396e-06	5.6812e-06	1279	249.06	3.2441e-06	2.7256e-06	309	86.26	68.356	20.185	1.9919e-06	27.886	0.0002359	0.00023468	6.5068e-05	1126.8	2.5841e-06	2.5762e-06	1213.5	240.11	2.5884e-06	2.5737e-06	293.54	83.702	66.629	20.299	2.6002e-06	27.627	68.425	53.081	55.261	-0.660	141.022	46.565	-0.297	6.705	11.868	109.142	6.979	13.893	13.557	20.726	163.087	20.640	-8191	255	
3029.544	1	1	0	0	0.27147	0.14036	0.36322	0.24132	0.063496	0.13712	0.29243	0.13645	0.15839	0.16813	0.15522	0.22294	0.17177	0.08423	0.10757	0.17335	-3.7938	-4.3271	-3.6104	-4.4792	-3.9167	-3.7104	-4.6188	-3.6708	-4.1854	-4.4229	-3.4583	-4.5167	-3.975	-3.8208	-4.6146	-3.5479	314.926	1.817	286.810	301.038	247.236	236.285	260.617	290.777	52.966	4.955	256.616	304.644	161.990	-9.752	327.013	346.459	0.00023236	0.00015245	0.00025833	1181.6	2.884e-06	6.2766e-06	1277.8	248.8	7.7541e-06	1.1652e-06	310.79	86.264	68.138	20.265	2.0795e-06	27.819	0.00023669	0.00023563	6.523e-05	1126.5	2.5815e-06	2.5637e-06	1214.2	239.88	2.5792e-06	2.5533e-06	294.34	83.587	66.606	20.241	2.5549e-06	27.521	19.519	217.351	143.546	-0.354	114.015	71.301	-0.339	6.574	151.746	348.564	6.599	13.287	13.840	20.780	317.441	20.276	-8191	255	
3029.640	1	1	0	0	0.048884	0.37625	0.062008	0.20919	0.12311	0.27167	0.13723	0.1556	0.056204	0.24093	0.10512	0.30043	0.038488	0.26638	0.024072	0.041252	-3.7438	-4.3958	-3.4021	-4.5208	-3.9813	-3.6167	-4.7896	-3.4813	-3.8729	-4.4854	-3.6	-4.5938	-4.1438	-3.7771	-4.3938	-3.65	136.786	298.939	177.855	309.857	23.255	278.312	9.353	289.002	275.638	182.879	283.261	54.305	24.077	3.351	236.339	132.026	0.00054985	0.00037396	1.7023e-05	1178.8	2.0886e-06	1.0147e-06	1276.9	247.17	5.2277e-06	1.1609e-07	310.53	87.273	68.102	20.236	6.2885e-07	27.935	0.00023659	0.00023278	6.5177e-05	1126.8	2.5766e-06	2.5537e-06	1212.9	239.83	2.5677e-06	2.5625e-06	294.28	83.617	66.496	20.249	2.5705e-06	27.452	15.036	36.686	14.624	-0.342	190.214	288.799	-0.414	6.974	154.684	45.567	6.699	13.589	13.657	20.166	177.179	20.499	-8191	255	
3029.734	1	1	0	0	0.1303	0.13687	0.10775	0.20707	0.10712	0.078971	0.092572	0.19443	0.15779	0.18346	0.017876	0.2685	0.031698	0.16925	0.189	0.11253	-3.6583	-4.3854	-3.4813	-4.4938	-3.9688	-3.5521	-4.8542	-3.7938	-3.7729	-4.5167	-3.7271	-4.1917	-4.1229	-3.5396	-4.5771	-3.95	66.869	270.113	45.362	328.648	13.691	250.204	244.220	288.666	86.008	230.138	200.255	314.364	170.706	-4.750	202.592	248.277	0.00035729	0.00072467	0.00012259	1183	4.2257e-06	2.1302e-06	1279.4	247.94	4.5653e-06	2.7255e-06	309.86	86.791	68.378	20.218	8.4912e-06	27.84	0.00023556	0.00023339	6.5071e-05	1127.2	2.5634e-06	2.5662e-06	1213.6	239.75	2.5644e-06	2.5666e-06	293.42	83.623	66.517	20.238	2.6117e-06	27.533	80.432	55.507	192.287	-0.224	116.655	265.020	-0.260	7.106	148.990	12.139	6.956	14.029	13.771	20.969	92.107	20.268	-8191	255	
3029.832	1	1	0	0	0.22735	0.21993	0.32556	0.2191	0.076851	0.17261	0.38777	0.099978	0.11817	0.065675	0.1095	0.060907	0.014021	0.08176	0.16387	0.18837	-3.6125	-4.5146	-3.5062	-4.3396	-4.2083	-3.3583	-4.9521	-3.8854	-3.8146	-4.7312	-3.4417	-4.2292	-4.3938	-3.3229	-4.55	-3.8479	283.121	128.439	181.898	328.008	272.255	73.308	333.046	251.354	109.534	38.806	230.571	12.767	329.735	54.343	247.549	271.662	0.00072662	0.0007086	0.00019756	1175.9	6.0065e-06	3.1674e-06	1278.5	247.23	5.9278e-06	4.6264e-06	308.2	86.13	68.149	20.27	2.4605e-06	27.851	0.00023601	0.00023409	6.5376e-05	1125.6	2.5704e-06	2.5666e-06	1213.4	239.4	2.5809e-06	2.5728e-06	293.49	83.446	66.319	20.251	2.583e-06	27.487	17.246	28.037	44.747	-0.333	45.120	152.301	-0.332	7.073	245.621	226.029	6.962	14.013	14.048	21.082	110.172	20.228	-8191	255	
3029.926	1	1	0	0	0.1284	0.11106	0.14082	0.18973	0.28317	0.13093	0.1786	0.24481	0.18696	0.0094955	0.3779	0.11679	0.023778	0.1774	0.11422	0.35569	-3.4125	-4.7063	-3.3896	-4.2688	-4.3646	-3.1688	-4.6292	-3.9688	-3.7167	-4.5229	-3.5333	-4.1875	-4.4854	-3.4833	-4.5083	-3.8625	160.261	14.149	333.814	-6.728	70.001	77.244	221.910	284.839	30.952	65.964	203.141	283.522	25.849	306.139	283.045	83.322	0.0001627	0.00018053	0.00012886	1183.8	4.5887e-06	1.546e-06	1270.2	247.06	5.4866e-06	3.8185e-06	309.23	86.066	67.995	20.263	2.4722e-06	27.763	0.00023672	0.00023491	6.5574e-05	1126.8	2.5728e-06	2.5846e-06	1212.7	239.07	2.5587e-06	2.5627e-06	293.21	83.258	66.248	20.238	2.5824e-06	27.447	69.558	179.287	205.715	-0.334	46.700	297.393	0.119	6.794	132.988	37.505	6.997	13.851	13.775	20.493	65.280	20.146	-8191	255	
3030.023	1	1	0	0	0.19387	0.1608	0.024285	0.015496	0.11373	0.20489	0.19807	0.20963	0.23374	0.11114	0.092282	0.11294	0.18104	0.068649	0.11329	0.079186	-3.4562	-4.5771	-3.5354	-4.2396	-4.3792	-3.2354	-4.7958	-4.0792	-3.6688	-4.7542	-3.6625	-4.1729	-4.5729	-3.3167	-4.4854	-4.1896	51.197	265.722	11.595	3.934	257.122	112.531	278.711	275.913	62.707	279.914	343.275	-3.703	200.959	172.241	-7.813	202.363	0.0003883	0.00059896	0.00016035	1179.2	2.7814e-06	7.6841e-07	1278.2	247.76	4.4536e-06	3.4514e-06	308.01	86.542	67.911	20.191	5.0264e-06	27.685	0.00023333	0.00023513	6.5396e-05	1127.6	2.567e-06	2.5878e-06	1213.6	239.01	2.5785e-06	2.5665e-06	293.09	83.605	66.467	20.254	2.5999e-06	27.449	3.084	107.275	3.956	-0.287	282.811	231.910	-0.447	6.792	115.820	224.859	6.753	13.827	13.715	20.435	135.998	19.960	-8191	255	
3030.119	1	1	0	0	0.13788	0.070617	0.10445	0.1734	0.25818	0.29937	0.37225	0.20146	0.10874	0.084946	0.13113	0.079627	0.16342	0.13749	0.14341	0.088651	-3.2125	-4.6542	-3.5625	-4.0708	-4.5896	-3.3667	-4.7125	-4.175	-3.3729	-4.6375	-3.5625	-3.7938	-4.6292	-3.375	-4.3125	-4.1188	197.580	81.964	149.215	270.607	268.220	224.772	309.924	285.691	196.113	243.465	191.548	321.811	332.949	21.076	318.003	152.932	0.00041912	0.0001898	0.00012018	1182.6	4.4896e-06	5.7562e-06	1272.2	247.17	4.5679e-06	2.3182e-06	307.62	86.327	68.205	20.287	2.2986e-06	27.87	0.00023665	0.00023619	6.5996e-05	1127.9	2.566e-06	2.6099e-06	1213.3	239.22	2.61e-06	2.609e-06	293.24	83.38	66.54	20.253	2.5762e-06	27.503	56.686	4.218	322.925	-0.172	153.014	320.106	-0.288	6.694	157.503	287.689	6.718	13.723	13.524	20.806	161.243	20.155	-8191	255	
3030.239	1	1	0	0	0.090371	0.27094	0.093569	0.19217	0.1503	0.31952	0.13389	0.18273	0.068347	0.1558	0.2245	0.14924	0.057363	0.27132	0.060573	0.16924	-3.1083	-4.6813	-3.8312	-4.0229	-4.4708	-3.3458	-4.3958	-4.2854	-3.6125	-4.5375	-3.8688	-3.8542	-4.4938	-3.4854	-4.1667	-4.1167	64.547	79.879	213.643	260.979	99.265	-5.943	318.543	207.322	39.209	135.100	22.242	1.251	271.061	22.453	264.780	338.409	0.00044294	0.00055331	0.00014729	1176.3	1.5826e-06	2.4302e-06	1274.7	248	2.0407e-06	2.1046e-06	308.61	86.009	68.078	20.272	4.1553e-06	27.874	0.00023604	0.0002371	6.4888e-05	1124.7	2.5957e-06	2.5702e-06	1211.4	239.27	2.6112e-06	2.5778e-06	293.86	83.321	66.311	20.262	2.5981e-06	27.543	58.676	72.611	333.880	-0.177	174.019	139.365	-0.264	6.842	265.854	200.904	6.780	13.682	13.848	20.684	192.886	20.210	-8191	255	
3030.335	1	1	0	0	0.14263	0.10605	0.033823	0.15214	0.045972	0.054224	0.086495	0.13529	0.12256	0.13091	0.20527	0.14771	0.053548	0.23335	0.19995	0.19775	-3.35	-4.5333	-4.0021	-3.8542	-4.475	-3.4771	-4.3771	-4.3812	-3.4396	-4.5563	-3.8917	-3.8458	-4.575	-3.4792	-4.1312	-4.3333	39.675	216.857	195.589	-4.048	242.003	192.812	270.292	14.350	212.649	71.872	348.701	4.369	163.462	344.901	275.090	61.476	0.00060875	0.00054849	0.00030622	1176.1	1.7979e-06	1.721e-06	1272.3	247.82	2.1153e-06	4.1889e-06	309.55	86.755	68.574	20.058	1.8131e-06	27.967	0.00023771	0.00023635	6.4897e-05	1125	2.6017e-06	2.5851e-06	1212.6	239.62	2.5846e-06	2.566e-06	293.47	83.541	66.807	20.232	2.5931e-06	27.405	45.697	104.087	7.088	-0.317	50.146	81.904	-0.023	7.070	159.160	53.227	6.585	13.704	13.985	20.751	-4.234	19.997	-8191	255	
3030.432	1	1	0	0	0.16918	0.13548	0.032377	0.032888	0.086972	0.12229	0.39935	0.19695	0.12749	0.10646	0.19704	0.27187	0.1907	0.13705	0.17679	0.22819	-3.0021	-4.5333	-3.9417	-3.5938	-4.7646	-3.6417	-4.2646	-4.6229	-3.3771	-4.5979	-4.05	-3.4979	-4.7167	-3.6	-4.1042	-4.5604	167.485	152.905	2.045	221.755	141.050	93.417	270.141	14.727	7.059	229.263	56.556	221.625	24.825	190.631	236.739	6.147	0.00046071	0.00073237	0.00022435	1185.1	5.9558e-06	1.3258e-06	1276.9	248.11	2.1442e-06	3.8411e-06	309.62	87.26	68.13	20.099	6.2403e-07	27.842	0.00023616	0.0002345	6.5565e-05	1127.2	2.5857e-06	2.5785e-06	1213	238.92	2.6073e-06	2.5789e-06	293.57	83.774	66.564	20.187	2.5897e-06	27.52	22.745	48.869	-1.540	-0.339	114.800	103.957	0.157	7.077	227.115	111.945	6.522	13.935	14.071	20.724	16.343	20.002	-8191	255	
3030.528	1	1	0	0	0.11377	0.1662	0.057521	0.2202	0.089588	0.29237	0.14744	0.181	0.11072	0.015228	0.15909	0.3086	0.093087	0.11702	0.10834	0.087999	-2.9896	-4.5271	-3.9313	-3.7562	-4.5583	-3.4417	-4.225	-4.5271	-3.3333	-4.4771	-4.1146	-3.5208	-4.8292	-3.6729	-3.9771	-4.5979	114.433	282.953	150.807	317.645	88.734	268.691	-10.534	268.711	146.252	166.497	318.830	310.237	166.298	288.178	251.148	261.582	0.00058842	0.00063159	0.00015136	1178.8	2.8418e-06	3.6522e-06	1279.6	247.36	2.7482e-06	4.9996e-06	307.5	86.598	68.478	20.222	2.3671e-06	27.745	0.00023811	0.00023613	6.5316e-05	1125.3	2.5727e-06	2.596e-06	1213.7	239.03	2.614e-06	2.5613e-06	292.89	83.455	66.689	20.224	2.5843e-06	27.418	21.059	109.317	250.544	-0.318	-8.114	92.511	0.067	7.015	8.197	94.608	6.584	13.884	13.863	20.157	93.718	20.008	-8191	255	
3030.624	1	1	0	0	0.27104	0.23953	0.18105	0.59422	0.17288	0.17181	0.26442	0.07497	0.15419	0.12598	0.11526	0.1007	0.18185	0.15793	0.27632	0.043233	-3.0292	-4.3521	-4.0958	-3.575	-4.7354	-3.75	-4.0208	-4.6208	-3.4125	-4.3104	-4.3458	-3.7042	-4.5292	-3.7812	-3.7313	-4.7354	101.577	210.639	77.285	313.243	251.517	297.224	276.468	247.997	306.079	17.046	37.822	-5.494	29.163	316.265	151.124	249.195	0.00069359	0.00068696	0.00016377	1172.4	2.7412e-06	3.0523e-06	1271	247.32	2.745e-06	2.1448e-06	309.52	86.016	68.02	20.126	6.8713e-06	27.903	0.00023794	0.00023525	6.5518e-05	1123.6	2.5709e-06	2.5908e-06	1210	238.73	2.5682e-06	2.5584e-06	293.89	83.435	66.567	20.17	2.5743e-06	27.517	33.988	131.905	242.250	-0.126	14.799	173.711	-0.023	6.758	281.165	195.497	6.471	13.734	13.850	20.632	188.414	20.131	-8191	255	
3030.720	1	1	0	0	0.22204	0.16192	0.1185	0.23862	0.097252	0.21579	0.2124	0.060343	0.21204	0.10384	0.15288	0.16396	0.041539	0.078753	0.32551	0.29363	-2.9854	-4.3271	-4.3	-3.4188	-4.675	-3.6542	-4.0396	-4.7208	-3.325	-4.2708	-4.4583	-3.4917	-4.5646	-3.7146	-3.6625	-4.4062	270.964	234.793	119.848	317.455	71.790	85.834	330.999	0.705	164.091	331.018	251.501	313.218	46.237	186.648	180.027	169.586	0.00052553	0.00053516	0.00019449	1172.7	7.3661e-06	5.8132e-06	1279.5	248.31	7.146e-06	7.2451e-07	307.74	86.764	68.351	20.172	3.2925e-06	27.839	0.0002367	0.00023567	6.564e-05	1123.9	2.5717e-06	2.576e-06	1213.1	239.3	2.5665e-06	2.5706e-06	292.44	83.385	66.463	20.181	2.5798e-06	27.513	35.110	23.280	328.411	-0.508	38.831	80.982	0.023	7.010	78.570	-10.462	6.532	13.783	13.626	20.452	73.434	20.193	-8191	255	
3030.839	1	1	0	0	0.232	0.14725	0.10518	0.14487	0.10648	0.087845	0.13716	0.10148	0.10879	0.33184	0.10576	0.10914	0.1642	0.23727	0.14714	0.22145	-3.1063	-4.1979	-4.175	-3.5729	-4.4917	-3.9354	-3.7375	-4.5646	-3.3708	-4.1771	-4.5625	-3.4646	-4.6188	-3.7729	-3.4625	-4.8479	107.896	-10.426	83.898	233.494	134.646	90.438	292.300	-2.409	-0.028	63.093	1.869	281.524	288.786	32.304	189.128	43.602	8.3682e-05	9.4802e-05	8.3465e-05	1176.7	3.5084e-06	2.6055e-06	1278.7	248.74	4.2613e-06	6.0737e-06	308.13	86.938	68.416	20.121	4.5942e-06	27.838	0.00023584	0.00023559	6.5361e-05	1124.1	2.5708e-06	2.5649e-06	1213.1	239.29	2.5742e-06	2.5579e-06	292.71	83.561	66.513	20.167	2.5897e-06	27.446	100.972	329.126	149.237	-0.440	-4.011	11.083	-0.272	6.704	104.146	184.909	6.874	13.747	13.657	20.263	254.863	20.538	-8191	255	
3030.935	1	1	0	0	0.19993	0.058067	0.16249	0.08204	0.06252	0.25886	0.26078	0.25418	0.38389	0.098455	0.048943	0.15917	0.17121	0.046059	0.2035	0.15468	-2.8479	-4.0437	-4.4354	-3.3625	-4.5437	-4.0625	-3.5667	-4.8562	-3.3021	-3.9021	-4.5417	-3.3979	-4.5083	-3.8229	-3.3833	-4.5021	24.165	32.000	22.482	305.335	152.850	280.181	261.028	274.291	197.408	311.888	181.167	259.630	85.988	182.554	317.250	308.564	0.00049644	0.00094482	8.8262e-05	1178.6	5.6176e-06	1.8843e-06	1264	247.1	5.9219e-06	4.7593e-06	309.35	86.605	67.892	20.141	2.181e-06	27.715	0.00023786	0.00023529	6.5968e-05	1125.3	2.587e-06	2.5674e-06	1210.4	238.89	2.5814e-06	2.6005e-06	293.12	83.431	66.399	20.183	2.5914e-06	27.471	14.483	109.327	77.161	-0.335	35.546	180.956	-0.244	7.075	165.619	143.776	7.084	13.623	13.991	20.505	196.442	20.424	-8191	255	
3031.007	1	1	0	0	0.087861	0.091122	0.089938	0.17633	0.13342	0.082398	0.29405	0.14535	0.10256	0.05241	0.18325	0.22523	0.12876	0.05126	0.144	0.086894	-3.2354	-4.0771	-4.4646	-3.6833	-4.4417	-4.0896	-3.7646	-4.5104	-3.6083	-3.9958	-4.4563	-3.4333	-4.4854	-4.1646	-3.6396	-4.5167	284.302	33.137	143.264	33.761	95.838	282.200	259.620	32.967	6.664	96.011	38.518	204.544	232.737	78.439	318.312	96.112	0.00054708	0.00027784	1.8993e-05	1174.7	2.7731e-06	4.178e-06	1269.9	246.95	2.4079e-06	3.665e-06	306.8	86.095	68.15	20.168	2.9122e-06	27.827	0.00023391	0.00023796	6.5416e-05	1122.2	2.5597e-06	2.5673e-06	1210.9	239.09	2.5418e-06	2.5682e-06	292.83	83.123	66.457	20.157	2.5818e-06	27.495	32.218	164.917	154.106	-0.343	32.200	138.466	-0.140	7.124	156.319	108.327	6.939	13.734	14.194	20.913	20.452	20.786	-8191	255	
3031.127	1	1	0	0	0.18463	0.026845	0.26501	0.24898	0.048259	0.10159	0.21741	0.36715	0.040679	0.32646	0.2392	0.059723	0.10911	0.19948	0.20217	0.098668	-3.3271	-3.7646	-4.3333	-3.7167	-4.2833	-4.2875	-3.6312	-4.4604	-3.6437	-3.7313	-4.5271	-3.2917	-4.2188	-4.3562	-3.4792	-4.5833	176.299	134.671	264.040	302.299	196.039	180.106	246.416	276.900	144.299	58.967	258.720	141.476	254.572	258.649	41.146	32.716	0.00046843	0.00019893	6.2278e-05	1176.5	2.6632e-06	2.7623e-06	1275	247.32	2.7798e-06	1.9063e-06	309.12	86.324	67.928	20.097	1.313e-07	27.667	0.00023838	0.00023723	6.5743e-05	1124.4	2.6068e-06	2.6097e-06	1212.5	239.28	2.6178e-06	2.6134e-06	293.26	83.347	66.364	20.175	2.6294e-06	27.5	70.391	270.140	76.499	-0.452	265.089	198.087	-0.029	7.168	263.271	36.129	6.997	13.282	14.214	20.295	298.046	20.301	-8191	255	
3031.224	1	1	0	0	0.29289	0.082617	0.17431	0.43875	0.39051	0.13503	0.15591	0.27659	0.18275	0.19206	0.1546	0.15391	0.2285	0.23249	0.28786	0.10325	-3.275	-3.7333	-4.6229	-3.5646	-4.2375	-4.1562	-3.7208	-4.7333	-3.8042	-3.7812	-4.6271	-3.525	-4.2708	-4.3063	-3.3229	-4.6521	198.992	130.312	20.258	266.618	80.333	339.286	273.764	348.760	42.291	86.771	257.894	294.072	259.791	293.373	213.364	258.369	0.00044677	0.00065385	0.00012091	1168.6	3.9416e-06	3.2751e-06	1268.5	246.54	2.1094e-06	1.5443e-06	307.75	86.077	68.379	20.139	5.3137e-06	27.506	0.00023989	0.00023965	6.6103e-05	1120.2	2.6318e-06	2.6265e-06	1209.2	239.08	2.6295e-06	2.6291e-06	293.14	83.141	66.562	20.169	2.6209e-06	27.379	336.027	14.977	116.197	-0.449	206.135	163.353	-0.912	6.749	146.650	343.595	6.462	13.161	13.907	20.487	45.402	20.461	-8191	255	
3031.320	1	1	0	0	0.036853	0.047633	0.13884	0.24037	0.17498	0.17955	0.25007	0.12514	0.081312	0.19471	0.21172	0.012281	0.046779	0.13641	0.057881	0.18792	-3.5312	-3.6479	-4.5854	-3.5896	-4.0312	-4.2958	-3.3688	-4.5938	-3.9417	-3.475	-4.65	-3.3042	-3.9479	-4.4313	-3.2625	-4.4271	262.406	304.600	177.908	273.528	329.779	229.482	281.407	177.540	108.229	18.177	308.812	87.393	43.263	149.034	253.290	30.229	0.00049274	0.00047285	0.00012328	1170.1	3.8072e-06	3.0874e-06	1275.3	246.67	3.0708e-06	4.6062e-06	310.42	86.18	68.499	20.069	4.6038e-06	27.675	0.00023963	0.00023806	6.5446e-05	1120.7	2.5902e-06	2.5849e-06	1208.8	238.9	2.5948e-06	2.5787e-06	292.81	83.072	66.412	20.051	2.5733e-06	27.443	22.231	22.937	-1.957	-0.519	149.371	75.422	-0.625	6.649	38.760	77.714	6.588	13.556	13.809	20.606	158.648	20.234	-8191	255	
3031.416	1	1	0	0	0.23513	0.10434	0.17969	0.10482	0.038281	0.093139	0.16779	0.3213	0.27981	0.092718	0.082583	0.17269	0.083369	0.24773	0.045485	0.14783	-3.6896	-3.4104	-4.8187	-3.5396	-3.9396	-4.4833	-3.2771	-4.3917	-4.0333	-3.4562	-4.7958	-3.4521	-3.8917	-4.5083	-3.2875	-4.3479	157.777	183.288	20.358	305.474	174.034	244.325	302.990	287.264	59.216	66.645	335.548	164.234	133.587	6.740	59.732	294.335	0.00052811	0.00050371	0.0001685	1173.9	6.691e-06	2.0987e-06	1271.4	247.44	1.5417e-06	1.9127e-06	308.57	85.77	67.734	20.034	1.7151e-06	27.741	0.00023742	0.0002362	6.5221e-05	1122.3	2.6157e-06	2.5809e-06	1208.3	238.88	2.6094e-06	2.5742e-06	293.37	82.997	66.26	20.149	2.584e-06	27.378	40.666	24.881	137.682	-0.699	145.568	263.411	-0.469	6.844	194.766	126.869	6.214	13.549	13.776	20.395	12.005	19.766	-8191	255	
3031.512	1	1	0	0	0.075301	0.17948	0.16162	0.090734	0.13254	0.083386	0.31718	0.16021	0.2722	0.13081	0.1758	0.14884	0.052499	0.095067	0.16763	0.084718	-3.7	-3.4333	-4.7833	-3.6771	-3.9917	-4.6521	-3.625	-4.4021	-4.1687	-3.4042	-4.5646	-3.7896	-3.9042	-4.3667	-3.5333	-4.6021	152.398	153.658	265.904	348.940	317.415	249.608	289.216	330.727	134.997	271.883	239.886	99.011	303.037	293.435	182.984	242.963	0.00046657	0.00027043	5.3571e-05	1167.8	6.2496e-06	7.3578e-06	1270.3	246.36	7.8923e-06	2.9135e-06	309.81	86.275	68.42	19.93	2.3453e-06	27.479	0.00023711	0.000236	6.5089e-05	1119.9	2.5865e-06	2.5708e-06	1209	238.66	2.5928e-06	2.5645e-06	293.05	83.069	66.403	20.052	2.5902e-06	27.329	19.515	256.700	114.776	-0.768	146.506	117.273	-0.380	7.055	139.506	187.434	6.655	13.649	13.953	20.825	228.106	20.550	-8191	255	
3031.631	1	1	0	0	0.10475	0.071479	0.059742	0.1949	0.12338	0.14897	0.083656	0.12663	0.23804	0.16077	0.089924	0.17138	0.27323	0.063033	0.24084	0.018108	-3.9229	-3.2146	-4.7708	-3.775	-3.6542	-4.4812	-3.7208	-4.3396	-4.0771	-3.2542	-4.7208	-3.8729	-3.7729	-4.5312	-3.4125	-4.2646	126.114	127.439	43.106	345.372	147.261	34.025	253.840	313.252	265.901	82.789	295.839	57.403	137.851	154.707	265.439	291.212	0.00053056	0.00020644	3.9208e-05	1172.8	3.6665e-06	1.2262e-06	1271	246.13	3.3297e-06	4.9168e-06	308.7	85.979	67.675	20.235	1.6236e-06	27.659	0.00023548	0.00023524	6.5423e-05	1121.9	2.5798e-06	2.5593e-06	1208.1	238.77	2.5633e-06	2.5657e-06	292.73	82.897	66.104	20.071	2.5595e-06	27.417	38.814	74.921	17.773	-0.870	5.819	291.348	-0.630	6.892	114.966	99.524	6.519	13.734	13.683	20.322	344.075	19.987	-8191	255	
3031.704	1	1	0	0	0.084545	0.09509	0.15522	0.28579	0.20147	0.099176	0.23692	0.31571	0.038528	0.20494	0.099041	0.15178	0.31299	0.2439	0.15219	0.1664	-4.0208	-3.5271	-4.4479	-3.9229	-3.7062	-4.3938	-3.5604	-4.2271	-4.4875	-3.3521	-4.5542	-3.9271	-3.7229	-4.6417	-3.3583	-4.1021	272.243	93.636	152.326	325.582	329.361	6.540	210.221	291.151	12.996	237.458	312.222	22.057	337.496	88.661	223.137	337.556	0.00058103	0.00044046	0.00015544	1173.6	2.5773e-06	4.5307e-06	1267.4	247.37	4.2285e-06	5.5709e-06	308.35	85.538	67.713	19.932	2.7086e-06	27.741	0.0002354	0.00023424	6.4894e-05	1119.9	2.552e-06	2.5684e-06	1208.6	238.86	2.5778e-06	2.5773e-06	292.42	82.632	66.231	20.022	2.6023e-06	27.368	20.658	139.694	311.924	-0.623	316.724	92.607	-0.491	6.671	146.209	138.927	6.728	13.114	13.854	20.251	130.667	20.311	-8191	255	
3031.800	1	1	0	0	0.23369	0.12398	0.16909	0.32429	0.17123	0.10436	0.20705	0.22263	0.11433	0.15923	0.061246	0.081875	0.28298	0.19152	0.13604	0.13313	-3.9271	-3.2417	-4.5417	-4.0188	-3.3958	-4.8479	-3.6354	-4.1667	-4.3625	-3.4854	-4.5875	-3.8187	-3.4875	-4.6875	-3.4896	-3.8896	94.907	-10.871	235.226	309.013	342.850	340.536	316.310	267.175	112.025	330.131	294.608	292.829	303.354	307.568	224.322	246.024	0.00066165	0.00036508	0.00013556	1174	4.3429e-06	3.1116e-06	1266.2	246.88	3.1079e-06	7.8877e-07	306.71	86.333	67.526	20.209	2.9439e-06	27.696	0.00023464	0.00023706	6.5357e-05	1121	2.5862e-06	2.5533e-06	1206.1	238.84	2.5748e-06	2.5619e-06	292.28	82.982	65.913	20.124	2.5698e-06	27.361	64.771	75.385	139.557	-0.607	211.543	314.331	-0.702	6.898	98.528	159.127	6.599	13.200	13.365	20.335	130.064	20.402	-8191	255	
3031.919	1	1	0	0	0.20962	0.15536	0.17484	0.13039	0.21121	0.41296	0.16452	0.15192	0.11231	0.23534	0.15537	0.18467	0.14562	0.19012	0.060822	0.30206	-4.2396	-3.4625	-4.4625	-4.0292	-3.5583	-4.6396	-3.6771	-3.9896	-4.1104	-3.5396	-4.4771	-4.0521	-3.5563	-4.6042	-3.725	-4.0667	245.768	12.365	178.403	320.015	237.574	238.915	280.432	222.704	1.647	3.405	206.709	225.319	174.670	244.686	2.532	148.999	0.00038128	0.00077211	0.00021042	1171	4.632e-06	1.0092e-05	1267.1	246.57	6.753e-06	4.2629e-06	307.76	85.553	67.518	19.992	7.8953e-06	27.747	0.00023485	0.00023413	6.5565e-05	1118.5	2.5718e-06	2.5724e-06	1205.1	238.31	2.555e-06	2.5685e-06	292.43	82.67	65.869	19.991	2.5808e-06	27.291	-0.989	48.900	105.227	-0.690	76.911	158.196	-0.518	6.930	161.344	127.818	6.613	13.795	13.796	19.926	135.009	19.896	-8191	255	
3032.015	1	1	0	0	0.25193	0.14	0.28931	0.2856	0.13248	0.13667	0.22062	0.094134	0.088565	0.25274	0.12604	0.036394	0.054534	0.13294	0.11723	0.20611	-3.9479	-3.4458	-4.2229	-3.9375	-3.6896	-4.4625	-3.8354	-3.8771	-4.5	-3.3833	-4.3896	-4.1292	-3.5896	-4.6542	-3.5042	-3.6417	253.346	188.676	320.218	279.680	347.213	103.217	278.054	58.152	255.223	228.851	319.429	42.557	203.726	54.443	188.079	236.309	0.00032417	0.00014031	4.3653e-05	1171.8	3.0716e-06	4.4478e-06	1269.1	245.78	5.4454e-06	3.613e-06	308.9	86.114	67.909	20.063	4.1624e-06	27.7	0.00023144	0.00023432	6.4677e-05	1118.8	2.5546e-06	2.5259e-06	1206.5	238.45	2.5301e-06	2.5206e-06	292.46	82.753	66.11	20.067	2.5572e-06	27.336	54.958	185.126	140.016	-0.903	322.906	114.042	-0.468	6.984	200.209	100.889	6.921	13.414	13.750	20.640	17.020	20.435	-8191	255	
3032.112	1	1	0	0	0.15943	0.19185	0.1887	0.099919	0.29613	0.19219	0.34065	0.22598	0.19832	0.13534	0.0034627	0.086078	0.18904	0.32641	0.13934	0.14893	-4.1396	-3.1917	-4.1875	-4.4354	-3.1771	-4.8313	-4.0687	-3.8375	-4.7458	-3.1542	-4.1333	-4.2688	-3.3333	-4.6312	-3.7313	-3.7	111.906	192.440	163.866	315.062	313.993	207.493	242.982	305.273	139.902	195.157	272.777	33.464	332.070	136.631	127.442	10.132	0.00057022	0.00026593	8.3124e-05	1171.5	2.9929e-06	1.7061e-06	1268.1	246.39	8.8048e-06	2.5842e-06	308.14	85.479	67.384	20.033	5.2166e-06	27.301	0.00023187	0.0002331	6.427e-05	1120.8	2.5593e-06	2.5597e-06	1207.5	238.32	2.5523e-06	2.5484e-06	292.87	82.729	65.939	20.075	2.5649e-06	27.333	29.954	29.541	24.316	-0.601	221.346	224.032	-0.406	7.118	103.309	217.435	6.824	13.535	13.647	20.980	129.373	20.569	-8191	255	
3032.232	1	1	0	0	0.030376	0.096247	0.075593	0.21027	0.24062	0.15753	0.30514	0.030366	0.16361	0.20281	0.17859	0.19034	0.14426	0.074284	0.1505	0.14418	-4.2729	-3.3375	-4.1937	-4.4708	-3.4042	-4.3667	-4.0875	-3.8208	-4.4375	-3.5729	-4.2333	-4.4021	-3.3354	-4.5208	-3.9208	-3.5896	348.902	55.953	119.488	258.925	166.424	342.823	318.517	267.973	153.301	72.312	48.341	306.992	100.572	82.648	27.402	203.056	0.00051432	0.00054715	0.00019272	1170.4	3.4972e-06	5.489e-06	1270.3	246.48	3.0688e-06	1.3977e-06	306.68	85.7	67.702	20.062	6.4476e-06	27.788	0.00023384	0.0002323	6.4524e-05	1120.4	2.5511e-06	2.5341e-06	1208.2	238.06	2.537e-06	2.5438e-06	291.91	82.818	65.892	20.061	2.5512e-06	27.325	58.715	101.687	33.626	-0.492	231.924	348.420	-0.270	7.169	34.273	248.781	6.859	13.702	13.741	20.493	131.028	20.194	-8191	255	
3032.304	1	1	0	0	0.27155	0.17576	0.11213	0.16725	0.19487	0.094111	0.023701	0.1014	0.359	0.13313	0.1225	0.11765	0.124	0.15395	0.019195	0.069374	-4.2125	-3.6	-3.975	-4.6646	-3.3583	-4.4625	-4.0375	-3.4375	-4.6979	-3.4021	-4.025	-4.5917	-3.3417	-4.6062	-3.9646	-3.6646	244.435	341.920	294.361	28.652	336.482	310.014	252.894	170.556	199.741	187.400	195.575	91.796	108.397	323.264	247.702	233.253	0.00046248	0.00064606	0.00014072	1176.7	3.6138e-06	5.3917e-06	1266.3	246.72	3.6343e-06	2.0924e-06	309.07	86.227	67.743	20.122	5.4203e-06	27.641	0.00023328	0.00023356	6.4418e-05	1120.6	2.5464e-06	2.5385e-06	1205.6	238.14	2.5559e-06	2.5382e-06	292.27	82.873	65.971	20.016	2.5445e-06	27.278	-4.028	-2.965	309.376	-0.742	127.172	110.502	-0.636	6.791	47.690	247.314	6.734	13.773	13.616	20.646	52.696	20.075	-8191	255	
3032.400	1	1	0	0	0.11906	0.15157	0.22484	0.2412	0.21678	0.15865	0.2199	0.2829	0.030017	0.1998	0.059544	0.16823	0.33187	0.058246	0.095017	0.1091	-4.3792	-3.5396	-3.8979	-4.5813	-3.4062	-4.3729	-4.1625	-3.5125	-4.5312	-3.6688	-3.9208	-4.6208	-3.2958	-4.1438	-3.9375	-3.45	223.327	266.112	100.101	264.365	103.313	4.000	273.901	326.950	79.075	94.554	202.624	-10.046	262.309	253.093	73.456	286.800	0.00060752	0.00031285	0.00010634	1173.8	7.5164e-07	3.5981e-06	1269.5	247.98	1.5608e-06	3.6611e-06	309.78	85.821	67.346	20.124	1.0583e-06	27.759	0.00023303	0.00023181	6.4319e-05	1120.2	2.567e-06	2.5506e-06	1209.1	238.66	2.564e-06	2.5504e-06	293.13	82.928	65.885	20.064	2.539e-06	27.343	60.407	49.552	308.406	-0.547	168.716	109.414	-0.413	6.796	254.414	186.097	6.468	13.417	13.450	20.541	141.470	20.308	-8191	255	
3032.521	1	1	0	0	0.12606	0.12608	0.076265	0.17826	0.030376	0.057368	0.24346	0.040092	0.050614	0.11443	0.33247	0.27427	0.059183	0.12794	0.24488	0.1586	-4.2375	-3.575	-3.8167	-4.4792	-3.3812	-4.3167	-4.3354	-3.4375	-4.6312	-3.7104	-3.6958	-4.6479	-3.45	-4.2604	-4.1521	-3.5104	83.757	296.273	114.326	277.364	205.058	345.226	339.355	240.783	196.062	192.558	11.493	21.512	21.475	129.198	26.229	339.304	0.00036716	0.00030784	0.00028156	1172	6.118e-06	9.2703e-07	1272.6	245.6	5.3754e-06	3.0878e-06	309.15	86.334	67.289	19.971	1.9904e-06	27.674	0.00023264	0.00023166	6.4884e-05	1121.3	2.5447e-06	2.5324e-06	1206.6	237.94	2.5706e-06	2.5388e-06	293.03	82.856	66.013	20.018	2.5866e-06	27.413	10.856	84.800	75.793	-0.573	99.456	9.906	-0.514	6.930	327.242	101.084	6.642	13.609	13.819	20.272	226.178	20.513	-8191	255	
3032.617	1	1	0	0	0.14024	0.18995	0.11941	0.1776	0.1475	0.17258	0.11306	0.1577	0.19141	0.25658	0.045691	0.043596	0.0156	0.1525	0.074965	0.23703	-4.3667	-3.7146	-3.7875	-4.625	-3.4979	-4.2104	-4.3333	-3.5271	-4.4917	-3.775	-3.6604	-4.6146	-3.375	-4.1479	-4.2562	-3.6437	167.269	167.115	172.838	61.401	254.678	170.377	286.228	226.340	-3.356	255.967	-3.935	74.729	272.992	299.670	326.630	254.110	0.0003842	0.00048112	7.7602e-05	1176.3	2.5046e-06	5.655e-06	1272	246.51	5.1858e-06	4.3911e-06	307.28	86.389	67.752	19.907	3.2467e-06	27.723	0.00023623	0.00023469	6.4839e-05	1122.5	2.5678e-06	2.539e-06	1206.2	238.48	2.5379e-06	2.5257e-06	292.44	82.624	65.971	19.932	2.5175e-06	27.363	41.625	63.802	41.558	-0.541	197.016	151.702	-0.406	7.075	14.811	215.488	6.454	13.650	13.874	20.672	33.339	20.446	-8191	255	
3032.711	1	1	0	0	0.24695	0.25471	0.12934	0.11379	0.25576	0.26556	0.21842	0.22024	0.22086	0.21511	0.11369	0.21647	0.075756	0.10003	0.012884	0.15161	-4.1	-3.8208	-3.7583	-4.6687	-3.6167	-4.0021	-4.3688	-3.2812	-4.4458	-3.9229	-3.4708	-4.5854	-3.4917	-3.9875	-4.3958	-3.3083	289.399	193.568	289.582	302.227	111.623	217.136	247.878	9.127	266.128	201.958	338.859	30.978	4.393	229.221	264.386	255.310	0.00038385	0.00043125	0.00018109	1172.8	1.6064e-06	5.1745e-06	1269.3	247.23	1.4281e-06	5.2002e-06	308.43	86.182	67.843	20.056	3.6435e-06	27.791	0.000231	0.00023114	6.44e-05	1120.2	2.5548e-06	2.572e-06	1206.7	238.54	2.5656e-06	2.5805e-06	292.53	83.035	66.101	20.076	2.604e-06	27.439	46.930	83.425	347.826	-0.316	116.713	163.098	-0.453	6.888	163.444	138.150	6.973	14.012	13.632	20.720	161.612	20.466	-8191	255	
3032.832	1	1	0	0	0.24514	0.16082	0.13938	0.23016	0.080833	0.26206	0.2486	0.21049	0.13976	0.051616	0.026038	0.21812	0.23621	0.097924	0.12443	0.29048	-4.2104	-4.1854	-3.6396	-4.6917	-3.6312	-3.8542	-4.4521	-3.2583	-4.3646	-3.8646	-3.6875	-4.5917	-3.6937	-3.9333	-4.4417	-3.4521	12.971	14.649	83.752	-7.762	171.714	318.182	253.626	317.662	94.900	156.200	260.409	244.883	2.147	170.459	224.942	290.600	0.00064244	0.00087821	0.00013541	1177.3	2.3425e-06	1.5735e-06	1269.7	247.51	3.6812e-06	1.8694e-06	309.07	85.701	67.625	20.093	4.7857e-07	27.967	0.00023854	0.0002376	6.6118e-05	1123	2.5741e-06	2.594e-06	1206.7	238.6	2.5849e-06	2.5637e-06	293.39	82.784	65.989	20.1	2.566e-06	27.455	33.967	212.005	68.960	-0.365	118.187	336.346	-0.245	6.960	311.839	104.425	6.642	13.986	13.838	20.906	86.096	20.526	-8191	255	
3032.928	1	1	0	0	0.09305	0.1422	0.29029	0.22895	0.038614	0.23243	0.47177	0.47927	0.062921	0.19361	0.067331	0.24104	0.18819	0.067027	0.10069	0.25162	-4.1896	-4.1208	-3.3875	-4.5312	-3.5896	-3.7313	-4.6979	-3.4083	-4.4062	-4.125	-3.5625	-4.7562	-3.4729	-3.8479	-4.3167	-3.3854	339.389	102.084	273.230	33.445	67.920	41.288	307.458	-4.492	208.658	102.043	314.264	131.203	24.236	50.976	34.693	296.466	0.00063755	0.00063655	4.0994e-05	1174.6	2.6168e-06	2.7698e-06	1268.8	245.96	8.7685e-06	3.1396e-06	308.69	85.879	68.049	19.998	3.7579e-06	27.772	0.00023704	0.00023351	6.5504e-05	1122	2.5784e-06	2.5404e-06	1206.9	238	2.5564e-06	2.5587e-06	292.61	82.939	65.973	19.99	2.5753e-06	27.286	24.686	75.805	104.632	-0.281	87.910	0.928	-0.003	6.917	131.851	76.242	7.111	14.284	14.179	20.952	157.928	20.630	-8191	255	
3033.000	1	1	0	0	0.2228	0.1563	0.11741	0.19221	0.28098	0.14631	0.20544	0.1633	0.22535	0.071968	0.23591	0.12785	0.3468	0.16235	0.088052	0.22716	-3.825	-4.2771	-3.2	-4.775	-3.7188	-3.6937	-4.8292	-3.3333	-4.2417	-4.2583	-3.3771	-4.8812	-3.925	-3.5187	-4.9187	-3.3958	10.930	313.767	171.867	4.853	250.506	314.532	307.268	334.783	141.968	118.594	247.007	11.142	340.244	292.008	218.844	306.501	0.00029142	0.00046651	7.7651e-05	1173.4	4.8643e-06	4.8583e-06	1267.9	246.09	1.1016e-06	5.3844e-06	309.35	85.426	67.769	20.101	6.4779e-06	27.533	0.00023377	0.00023501	6.5042e-05	1120.8	2.5482e-06	2.5511e-06	1206	237.66	2.5242e-06	2.5389e-06	292.97	82.852	65.887	20.035	2.5608e-06	27.22	3.156	128.475	232.756	-0.385	116.382	343.137	-0.314	7.089	346.993	277.587	6.784	13.779	14.018	20.741	150.625	20.687	-8191	255	
#DATA ENDS
