BOXY.EXE: ISS Imagent and Oximeter Data Acquisition Program Version 0.80
Ascii Record File

#ACQ INFORMATION
2  Detector Channels 
16  External MUX Channels 
1  Auxiliary Channels 
5000  Waveform (CCF) Frequency (Hz)
1  Waveforms Skipped 
30  Waveforms Averaged 
1  Cycles Averaged 
16  Acquisitions per Waveform 
10.0806  Updata Rate (Hz) 

#FILE INFORMATION
TRUE -- External MUX Channel results are PARSED.
FALSE -- AC DC and Phase are NOT grouped.
TRUE -- Companion Program Settings File CREATED.
FALSE -- AC data not excluded
FALSE -- DC data not excluded
FALSE -- Phase data not excluded
FALSE -- Auxillary Chn. data not excluded
Tab delimiters

#CALIBRATION STATE
TRUE -- Waveform Calibration Values APPLIED.


#AUX CALIBRATION VALUES
Val Type	aux-1	

Term	1.0000e+00	
Factor	0.0000e+00	


#WF CALIBRATION VALUES
A = Detector Channel
Val Type	A-AC1	A-AC2	A-AC3	A-AC4	A-AC5	A-AC6	A-AC7	A-AC8	A-AC9	A-AC10	A-AC11	A-AC12	A-AC13	A-AC14	A-AC15	A-AC16	A-DC1	A-DC2	A-DC3	A-DC4	A-DC5	A-DC6	A-DC7	A-DC8	A-DC9	A-DC10	A-DC11	A-DC12	A-DC13	A-DC14	A-DC15	A-DC16	A-Ph1	A-Ph2	A-Ph3	A-Ph4	A-Ph5	A-Ph6	A-Ph7	A-Ph8	A-Ph9	A-Ph10	A-Ph11	A-Ph12	A-Ph13	A-Ph14	A-Ph15	A-Ph16	

Term	0.00000e+00	0.00000e+00	0.00000e+00	0.00000e+00	0.00000e+00	0.00000e+00	0.00000e+00	0.00000e+00	0.00000e+00	0.00000e+00	0.00000e+00	0.00000e+00	0.00000e+00	0.00000e+00	0.00000e+00	0.00000e+00	0.00000e+00	0.00000e+00	0.00000e+00	0.00000e+00	0.00000e+00	0.00000e+00	0.00000e+00	0.00000e+00	0.00000e+00	0.00000e+00	0.00000e+00	0.00000e+00	0.00000e+00	0.00000e+00	0.00000e+00	0.00000e+00	0.00000e+00	0.00000e+00	0.00000e+00	0.00000e+00	0.00000e+00	0.00000e+00	0.00000e+00	0.00000e+00	0.00000e+00	0.00000e+00	0.00000e+00	0.00000e+00	0.00000e+00	0.00000e+00	0.00000e+00	0.00000e+00	
Factor	1.00000e+00	1.00000e+00	1.00000e+00	1.00000e+00	1.00000e+00	1.00000e+00	1.00000e+00	1.00000e+00	1.00000e+00	1.00000e+00	1.00000e+00	1.00000e+00	1.00000e+00	1.00000e+00	1.00000e+00	1.00000e+00	1.00000e+00	1.00000e+00	1.00000e+00	1.00000e+00	1.00000e+00	1.00000e+00	1.00000e+00	1.00000e+00	1.00000e+00	1.00000e+00	1.00000e+00	1.00000e+00	1.00000e+00	1.00000e+00	1.00000e+00	1.00000e+00	X	X	X	X	X	X	X	X	X	X	X	X	X	X	X	X	

B = Detector Channel
Val Type	B-AC1	B-AC2	B-AC3	B-AC4	B-AC5	B-AC6	B-AC7	B-AC8	B-AC9	B-AC10	B-AC11	B-AC12	B-AC13	B-AC14	B-AC15	B-AC16	B-DC1	B-DC2	B-DC3	B-DC4	B-DC5	B-DC6	B-DC7	B-DC8	B-DC9	B-DC10	B-DC11	B-DC12	B-DC13	B-DC14	B-DC15	B-DC16	B-Ph1	B-Ph2	B-Ph3	B-Ph4	B-Ph5	B-Ph6	B-Ph7	B-Ph8	B-Ph9	B-Ph10	B-Ph11	B-Ph12	B-Ph13	B-Ph14	B-Ph15	B-Ph16	

Term	0.00000e+00	0.00000e+00	0.00000e+00	0.00000e+00	0.00000e+00	0.00000e+00	0.00000e+00	0.00000e+00	0.00000e+00	0.00000e+00	0.00000e+00	0.00000e+00	0.00000e+00	0.00000e+00	0.00000e+00	0.00000e+00	0.00000e+00	0.00000e+00	0.00000e+00	0.00000e+00	0.00000e+00	0.00000e+00	0.00000e+00	0.00000e+00	0.00000e+00	0.00000e+00	0.00000e+00	0.00000e+00	0.00000e+00	0.00000e+00	0.00000e+00	0.00000e+00	-2.38903e+02	-1.30801e+02	-1.63948e+02	-1.83590e+02	-1.19141e+02	-8.70241e+01	-1.56897e+02	-1.62015e+02	-7.30551e+01	-8.26205e+01	-1.70590e+02	-1.70867e+02	-1.80044e+02	-1.77413e+02	-7.81630e+01	-1.50406e+02	
Factor	6.10723e-05	1.20878e-04	3.70736e-05	1.67276e-01	1.13400e-06	1.16405e-06	1.90682e-01	6.00034e-02	1.25406e-06	1.06024e-06	9.97472e-02	3.83765e-02	2.97706e-02	1.08004e-02	1.14664e-06	1.57894e-02	4.97580e-07	5.02158e-07	1.39475e-07	8.01861e-02	5.49628e-09	5.49947e-09	8.54324e-02	2.82743e-02	5.50406e-09	5.50380e-09	4.40950e-02	1.66559e-02	1.35827e-02	4.90122e-03	5.51462e-09	6.83088e-03	X	X	X	X	X	X	X	X	X	X	X	X	X	X	X	X	



#DISTANCE SETTINGS
A = Detector Channel
A-1	A-2	A-3	A-4	A-5	A-6	A-7	A-8	A-9	A-10	A-11	A-12	A-13	A-14	A-15	A-16	

2.5000e+00	3.0000e+00	2.5000e+00	3.0000e+00	2.0000e+00	3.0000e+00	1.5000e+00	3.0000e+00	3.0000e+00	3.0000e+00	3.0000e+00	3.0000e+00	3.0000e+00	3.0000e+00	1.5000e+00	3.0000e+00	

B = Detector Channel
B-1	B-2	B-3	B-4	B-5	B-6	B-7	B-8	B-9	B-10	B-11	B-12	B-13	B-14	B-15	B-16	

1.0000e+01	1.0000e+01	1.0000e+01	1.4400e+00	1.0000e+01	1.0000e+01	1.5100e+00	1.9400e+00	1.0000e+01	1.0000e+01	1.9900e+00	2.4900e+00	2.4100e+00	2.9000e+00	1.0000e+01	2.9800e+00	




#DATA BEGINS
time	group	step	mark	flag	A-AC1	A-AC2	A-AC3	A-AC4	A-AC5	A-AC6	A-AC7	A-AC8	A-AC9	A-AC10	A-AC11	A-AC12	A-AC13	A-AC14	A-AC15	A-AC16	A-DC1	A-DC2	A-DC3	A-DC4	A-DC5	A-DC6	A-DC7	A-DC8	A-DC9	A-DC10	A-DC11	A-DC12	A-DC13	A-DC14	A-DC15	A-DC16	A-Ph1	A-Ph2	A-Ph3	A-Ph4	A-Ph5	A-Ph6	A-Ph7	A-Ph8	A-Ph9	A-Ph10	A-Ph11	A-Ph12	A-Ph13	A-Ph14	A-Ph15	A-Ph16	B-AC1	B-AC2	B-AC3	B-AC4	B-AC5	B-AC6	B-AC7	B-AC8	B-AC9	B-AC10	B-AC11	B-AC12	B-AC13	B-AC14	B-AC15	B-AC16	B-DC1	B-DC2	B-DC3	B-DC4	B-DC5	B-DC6	B-DC7	B-DC8	B-DC9	B-DC10	B-DC11	B-DC12	B-DC13	B-DC14	B-DC15	B-DC16	B-Ph1	B-Ph2	B-Ph3	B-Ph4	B-Ph5	B-Ph6	B-Ph7	B-Ph8	B-Ph9	B-Ph10	B-Ph11	B-Ph12	B-Ph13	B-Ph14	B-Ph15	B-Ph16	aux-1	digaux	

4355.697	1	1	0	768	0.19498	0.099169	0.13181	0.26711	0.19672	0.10024	0.19743	0.32963	0.15534	0.28283	0.29075	0.016879	0.24102	0.12249	0.15351	0.13289	-4.5583	-3.8771	-4.1833	-4.6438	-3.5812	-4.3083	-4.4313	-3.7354	-4.6021	-3.9229	-4.1875	-4.7354	-3.8792	-4.3854	-4.2917	-3.7896	-15.569	155.212	120.534	-89.085	225.368	123.967	141.013	157.465	226.368	-65.438	-57.592	61.673	256.184	168.936	87.048	181.337	0.00028491	9.1487e-05	0.00012159	933.18	5.0427e-06	5.2705e-06	1020.5	269.27	2.3334e-06	2.2629e-06	346.92	99.539	73.134	18.311	4.8897e-06	30.715	0.00012153	0.0001208	3.349e-05	872.36	1.3107e-06	1.3069e-06	951.44	249	1.2884e-06	1.3084e-06	311.91	89.547	66.62	16.876	1.2973e-06	27.653	99.681	95.162	-46.646	-83.054	50.879	146.226	-83.348	-79.376	212.217	8.379	-80.203	-76.487	-75.330	-71.098	40.595	-71.396	-8191	255	
4355.793	1	1	0	0	0.10118	0.091758	0.20841	0.1197	0.14551	0.26484	0.17761	0.13109	0.35474	0.22092	0.19984	0.15267	0.14284	0.2108	0.077437	0.25898	-4.2708	-4.0417	-4.0979	-4.575	-3.7354	-4.1958	-4.5312	-3.8354	-4.5167	-4.1271	-3.9771	-4.7042	-3.925	-4.2167	-4.3125	-3.8396	110.943	88.664	-25.984	247.829	35.384	-30.113	205.170	215.530	21.624	21.136	211.696	115.783	190.482	179.113	46.417	134.422	0.00029691	4.6075e-05	8.7298e-05	924.14	4.2264e-06	2.7709e-06	1013.7	268.34	5.1231e-06	5.076e-06	347.62	100	73.921	18.304	4.3838e-06	30.531	0.00011795	0.00011626	3.2822e-05	861.98	1.2828e-06	1.2824e-06	943.26	247.85	1.2591e-06	1.2855e-06	311.14	89.502	66.892	16.946	1.2732e-06	27.682	41.330	-54.864	253.654	-82.859	144.873	-89.741	-83.399	-79.424	-38.148	95.967	-80.359	-76.372	-75.472	-70.837	51.264	-71.826	-8191	255	
4355.889	1	1	0	0	0.12424	0.27272	0.32969	0.064405	0.069771	0.32692	0.27304	0.096132	0.069338	0.028546	0.060258	0.11408	0.15166	0.1395	0.15071	0.28104	-4.3333	-4.1292	-3.8125	-4.7229	-4.0813	-4.075	-4.6583	-3.875	-4.3708	-4.3042	-3.7792	-4.5646	-4.0813	-4.0458	-4.5667	-3.6667	132.045	192.132	17.275	155.396	5.084	246.350	231.952	206.968	221.459	-14.083	218.907	191.485	172.584	98.670	168.670	202.021	0.0003543	0.00040075	6.8453e-05	934.97	1.9554e-06	4.5554e-06	1032.9	270.67	4.3319e-06	6.3798e-06	349.22	99.932	74.078	18.393	3.0874e-06	30.385	0.00011879	0.00011604	3.2601e-05	872.24	1.2747e-06	1.2865e-06	959.19	250.07	1.2896e-06	1.2923e-06	314.48	89.699	67.283	17.022	1.2869e-06	27.634	80.623	-72.128	66.384	-82.823	-16.394	17.814	-83.266	-79.503	-76.316	85.335	-80.616	-76.276	-75.458	-70.622	187.097	-71.707	-8191	255	
4355.985	1	1	0	0	0.095134	0.11542	0.13621	0.35652	0.16471	0.11462	0.35894	0.23483	0.14497	0.23771	0.099358	0.076957	0.13554	0.2275	0.20582	0.29326	-4.2917	-4.3292	-3.8312	-4.9042	-3.9167	-4.0188	-4.6104	-3.7875	-4.3438	-4.3625	-3.7271	-4.5917	-4.1646	-3.9437	-4.6979	-3.7521	182.465	76.920	69.673	223.910	-4.366	-35.710	186.063	-84.909	178.635	92.793	240.199	1.678	156.309	138.680	109.878	147.994	0.00029097	0.00026711	6.9072e-05	949.79	2.3373e-06	4.356e-06	1032.4	272.13	1.9132e-06	2.4044e-06	351.43	99.733	74.142	18.524	3.8117e-06	30.615	0.00011994	0.00011846	3.2928e-05	880.43	1.302e-06	1.3111e-06	961.77	250.53	1.319e-06	1.3188e-06	315.99	89.983	67.469	17.084	1.3557e-06	27.83	72.352	57.001	20.325	-82.933	17.136	48.877	-83.172	-79.372	13.462	253.541	-79.885	-76.359	-75.351	-70.716	63.166	-71.082	-8191	255	
4356.081	1	1	0	0	0.040526	0.11252	0.084572	0.24448	0.14313	0.083913	0.17802	0.17251	0.086034	0.19887	0.14291	0.051576	0.087881	0.17895	0.13277	0.12692	-4.1125	-4.2125	-3.4938	-4.7208	-4.1146	-3.8833	-4.7354	-3.8	-4.2063	-4.4083	-3.8667	-4.5938	-4.1417	-3.9417	-4.6583	-3.8625	194.117	191.116	-67.922	-89.438	78.050	124.733	227.675	145.775	1.873	219.748	260.006	52.389	3.483	121.810	60.316	152.653	0.0003213	0.00032064	0.00016967	949.05	6.0476e-06	6.4927e-06	1052.8	270.28	1.2723e-06	3.4849e-06	348.34	99.538	72.567	17.631	4.8556e-06	29.844	0.0001301	0.00012847	3.5989e-05	891.29	1.4668e-06	1.4927e-06	984.98	251.16	1.5748e-06	1.5441e-06	316.42	90.013	66.639	16.595	1.4875e-06	27.369	85.257	-82.411	-11.695	-82.709	30.387	10.025	-83.564	-79.335	-30.787	72.575	-80.101	-76.049	-75.533	-70.479	0.514	-70.775	-8191	255	
4356.177	1	1	0	0	0.087865	0.12146	0.16001	0.18675	0.11955	0.21993	0.21686	0.33709	0.098389	0.16297	0.13397	0.24743	0.17757	0.19911	0.15099	0.18314	-3.725	-4.6021	-3.7146	-4.7625	-4.0854	-3.8875	-4.8896	-4.0646	-4.2458	-4.3812	-3.7125	-4.4187	-4.4062	-3.8521	-4.65	-4.0583	105.188	58.030	5.492	226.295	-18.577	42.140	-56.437	224.860	250.427	50.241	-61.933	66.444	256.169	245.357	-11.725	-31.097	0.00021982	0.00068174	5.2114e-05	906.05	1.5263e-06	5.0271e-06	991.6	256.13	3.3983e-06	2.2563e-06	338.01	96.387	69.539	17.074	3.6964e-06	30.072	0.00013475	0.00013044	3.6201e-05	847.87	1.4455e-06	1.4403e-06	925.58	237.72	1.4621e-06	1.4682e-06	304.39	87.5	63.968	16.101	1.4883e-06	27.356	84.973	-21.851	195.770	-82.965	199.206	29.981	-83.225	-79.009	-84.987	72.138	-79.899	-75.695	-75.367	-70.800	-32.946	-70.263	-8191	255	
4356.298	1	1	0	0	0.02636	0.1039	0.19505	0.24011	0.32114	0.1235	0.072291	0.25385	0.16639	0.28877	0.098879	0.35247	0.12757	0.24724	0.13575	0.19935	-3.65	-4.5687	-3.6688	-4.4458	-4.3083	-3.7313	-4.6479	-4.1417	-4	-4.4917	-3.7667	-4.2667	-4.6792	-3.75	-4.6167	-4.1438	70.477	-27.575	-46.780	-90.627	160.117	169.120	254.056	229.775	-74.110	-49.776	147.935	190.353	-89.019	159.522	69.579	202.375	0.00012681	0.00055268	0.0001126	888.07	4.6744e-06	5.6056e-06	989.55	254.78	3.4856e-06	3.2444e-06	339.21	98.06	70.369	17.19	3.566e-06	29.886	0.00013804	0.00013507	3.8316e-05	835.97	1.5027e-06	1.4955e-06	924.7	237.33	1.519e-06	1.4828e-06	305.64	88.514	64.45	16.244	1.4852e-06	27.394	73.972	21.642	37.361	-82.728	246.046	-28.580	-82.972	-78.898	15.419	54.933	-79.886	-75.551	-74.676	-70.044	22.059	-70.637	-8191	255	
4356.394	1	1	0	0	0.32095	0.14103	0.1922	0.10271	0.18052	0.22864	0.23936	0.34891	0.087762	0.095887	0.22611	0.10651	0.17629	0.20233	0.23706	0.17873	-3.3979	-4.5271	-3.6646	-4.4	-4.5104	-3.6229	-4.6125	-4.1521	-3.7521	-4.4875	-3.7896	-4.1854	-4.5813	-3.7771	-4.3458	-4.2375	-19.569	171.516	52.754	238.197	213.490	86.615	209.251	200.675	-80.743	-88.705	22.098	83.684	-52.656	118.799	-23.008	206.915	0.00013918	0.00017403	2.8815e-05	878.56	1.5166e-06	4.2615e-06	974.71	254.6	2.9508e-06	1.7744e-06	335.18	97.177	69.795	17.158	4.4087e-06	30.002	0.0001335	0.00012908	3.5956e-05	824.22	1.3901e-06	1.3801e-06	908.85	235.39	1.3703e-06	1.3512e-06	301.88	87.552	63.615	16.081	1.3304e-06	27.288	67.387	-69.405	100.076	-82.731	-30.949	27.469	-82.969	-78.854	173.500	146.046	-79.786	-75.664	-74.614	-69.856	0.629	-70.312	-8191	255	
4356.490	1	1	0	0	0.19284	0.16337	0.04398	0.23418	0.12002	0.040385	0.071497	0.13248	0.16742	0.082693	0.086047	0.13817	0.063099	0.028365	0.10788	0.16667	-3.4437	-4.5938	-3.9729	-4.1125	-4.5292	-3.5438	-4.4854	-4.2646	-3.7229	-4.5229	-4.0958	-3.9771	-4.4854	-3.7021	-4.2479	-4.3167	112.417	201.585	182.790	228.155	59.660	46.593	150.317	153.359	49.633	21.046	109.307	223.601	231.471	145.802	242.223	197.682	0.00024628	0.00037613	0.00017683	858.96	3.2836e-06	8.8095e-07	954.94	251.4	2.0401e-06	1.108e-06	332.97	97.614	69.899	17.17	1.5564e-06	30.102	0.00012055	0.00011938	3.3086e-05	805.34	1.2819e-06	1.2836e-06	892.31	233.54	1.2862e-06	1.2752e-06	300.36	87.343	63.592	16.075	1.2885e-06	27.183	28.887	-15.293	-18.276	-82.957	-94.064	181.737	-83.006	-78.971	15.831	-86.191	-79.688	-75.581	-74.859	-70.344	6.996	-70.597	-8191	255	
4356.586	1	1	0	0	0.13583	0.14827	0.061636	0.22196	0.074854	0.22112	0.12162	0.092358	0.065059	0.066656	0.14179	0.267	0.089886	0.18318	0.12	0.054906	-3.3958	-4.5667	-4.0875	-4.1937	-4.5833	-3.9437	-4.4708	-4.525	-3.6813	-4.5833	-4.2667	-3.8792	-4.7542	-3.8187	-4.2521	-4.4625	84.123	-72.287	200.196	-43.854	150.037	143.047	239.441	-11.790	-37.428	-46.372	165.211	207.211	-43.567	251.372	13.069	7.358	0.00032984	0.000388	6.8741e-05	860.08	1.4419e-06	2.0011e-06	955.04	252.48	3.6178e-06	2.3311e-07	334.42	96.466	69.688	17.18	4.5359e-06	29.83	0.00011746	0.00011639	3.2226e-05	805.63	1.2848e-06	1.2906e-06	890.73	233.8	1.2887e-06	1.276e-06	299.9	87.037	63.647	16.076	1.2709e-06	27.056	67.251	-31.572	173.480	-82.950	138.210	-27.340	-83.060	-79.173	83.203	-89.634	-79.997	-75.933	-75.097	-70.619	61.272	-70.918	-8191	255	
4356.681	1	1	0	0	0.20058	0.017154	0.13077	0.088734	0.20917	0.062009	0.16362	0.16457	0.24423	0.057343	0.20518	0.17182	0.11232	0.088258	0.0762	0.24897	-3.4458	-4.6271	-4.0604	-3.9562	-4.6333	-3.8083	-4.2292	-4.5729	-3.6583	-4.3646	-4.3979	-3.7979	-4.4667	-3.9979	-4.0771	-4.4917	-28.137	-59.717	176.736	174.300	109.043	-51.380	247.445	176.327	-9.211	234.024	-32.112	248.907	55.813	255.898	239.570	184.352	0.00035763	0.00045296	6.393e-05	855.83	4.4891e-06	2.714e-06	951.64	251.69	3.1963e-06	4.5017e-06	333.68	96.85	70.102	17.586	1.8343e-06	30.203	0.00011724	0.00011341	3.2118e-05	803.07	1.2542e-06	1.2497e-06	887.91	232.8	1.2526e-06	1.2558e-06	299.02	87.118	63.995	16.232	1.2534e-06	27.177	88.326	47.213	-35.096	-83.031	105.234	56.542	-82.763	-78.872	25.179	87.897	-79.763	-76.020	-75.417	-70.156	-96.509	-70.705	-8191	255	
4356.777	1	1	0	0	0.17504	0.16062	0.2019	0.056671	0.022788	0.10912	0.060077	0.13548	0.029838	0.20824	0.094181	0.13154	0.22197	0.044653	0.24233	0.11564	-3.5062	-4.3063	-4.2729	-3.9979	-4.6562	-3.9625	-3.975	-4.5958	-3.6542	-4.4104	-4.4979	-3.8187	-4.5	-3.975	-3.75	-4.7271	-66.176	103.235	-2.818	203.717	228.616	12.339	142.479	93.653	133.724	206.637	233.502	179.725	-67.969	-95.812	242.362	38.651	3.1752e-05	0.00039651	6.9642e-05	885.83	3.1195e-06	4.1692e-06	992.14	257.13	2.5693e-06	4.8105e-06	340.67	98.027	72.35	17.673	1.9207e-06	29.925	0.00011832	0.00011505	3.2072e-05	826.98	1.2797e-06	1.2897e-06	921.66	238.58	1.319e-06	1.3106e-06	306.85	88.401	65.564	16.475	1.3423e-06	27.255	31.919	-44.590	-20.822	-83.057	104.488	42.213	-83.130	-78.936	41.296	59.101	-79.871	-76.350	-75.066	-70.007	21.741	-70.962	-8191	255	
4356.873	1	1	0	0	0.20983	0.092221	0.23154	0.19504	0.12897	0.16974	0.19375	0.18687	0.11218	0.049432	0.2138	0.099884	0.13845	0.055382	0.10891	0.052376	-3.4562	-4.2042	-4.3688	-3.8271	-4.4229	-4.0437	-3.9646	-4.7312	-3.9229	-4.2146	-4.5354	-3.7104	-4.5188	-4.2125	-3.9292	-4.7854	205.148	43.875	168.934	255.126	-7.627	-51.665	29.132	163.478	149.075	-54.819	249.370	233.061	235.270	-76.830	216.021	254.093	0.00040016	0.00039596	0.00017102	899.06	2.952e-06	1.2023e-06	999.63	259.87	1.0295e-06	2.6559e-06	342.59	98.803	72.059	17.478	3.6104e-06	29.651	0.00012596	0.00012418	3.4367e-05	842.88	1.3689e-06	1.3769e-06	933.5	240.44	1.4069e-06	1.3959e-06	308.23	88.945	65.75	16.436	1.4544e-06	27.125	56.362	-33.099	-36.170	-82.792	31.749	98.088	-83.217	-79.307	156.072	55.240	-79.969	-76.088	-75.201	-70.025	2.820	-71.155	-8191	255	
4356.994	1	1	0	0	0.12964	0.24427	0.14007	0.15806	0.11318	0.13984	0.20934	0.096386	0.047613	0.235	0.19418	0.12491	0.1538	0.15681	0.30483	0.26279	-3.5417	-3.9688	-4.5083	-3.8208	-4.45	-4.3146	-3.9292	-4.7937	-3.9917	-4.0229	-4.7354	-3.8125	-4.4479	-4.3187	-3.8167	-4.6854	103.262	-8.732	-11.067	247.831	-14.545	248.040	259.628	-87.985	75.783	-75.177	247.768	180.275	75.980	169.286	43.114	239.282	0.000413	0.00058607	0.0001614	913.64	2.7283e-06	2.3813e-06	1013.6	260.91	2.6042e-06	1.0001e-06	340.06	98.288	72.647	17.523	1.4058e-06	29.37	0.0001397	0.00013695	3.8539e-05	856.81	1.5697e-06	1.5797e-06	948.94	243.4	1.6597e-06	1.6792e-06	309.62	89.148	66.715	16.615	1.7453e-06	27.18	113.436	-0.368	-32.231	-82.889	92.038	65.482	-83.409	-79.170	131.313	239.178	-80.315	-76.236	-75.209	-70.687	97.469	-71.144	-8191	255	
4357.090	1	1	0	0	0.050983	0.14708	0.090227	0.070929	0.071011	0.025097	0.19066	0.12796	0.2091	0.22147	0.12035	0.45032	0.15384	0.089948	0.33397	0.16405	-3.5438	-3.9125	-4.6375	-3.8771	-4.2125	-4.3625	-3.9146	-4.5271	-3.9437	-3.7313	-4.7792	-4.0646	-4.1875	-4.5	-3.775	-4.3396	160.918	-75.057	123.055	173.300	253.940	174.393	238.152	-48.691	-47.534	51.381	196.175	179.247	233.265	99.482	134.846	-76.895	0.00038411	9.0554e-05	6.9164e-05	918.17	3.0115e-06	7.375e-06	1008.3	260.33	4.4356e-06	1.129e-06	340.32	97.653	72.415	17.492	2.012e-06	29.693	0.0001628	0.00015796	4.315e-05	864.32	1.6896e-06	1.6514e-06	946.69	243.05	1.5993e-06	1.5742e-06	307.9	88.488	65.884	16.389	1.4865e-06	27.021	90.689	48.740	15.666	-82.828	22.445	163.639	-83.029	-79.325	-36.874	198.717	-80.026	-75.630	-75.315	-70.165	158.616	-70.840	-8191	255	
4357.186	1	1	0	0	0.12309	0.15691	0.080933	0.17223	0.052902	0.09177	0.11256	0.11424	0.021114	0.22738	0.045615	0.13787	0.077518	0.12792	0.069806	0.051818	-3.6604	-3.8542	-4.4354	-3.9417	-4.1375	-4.45	-3.7125	-4.5125	-4.175	-3.6792	-4.6896	-3.8667	-4.0229	-4.5687	-3.7021	-4.5208	47.127	127.737	30.879	254.406	155.265	143.886	185.882	167.355	155.523	-86.277	216.613	206.777	252.380	-8.966	-65.094	-25.013	0.0004986	0.00045295	0.00013532	902.66	4.6429e-06	2.9977e-06	992.14	260.44	3.4549e-06	7.8495e-06	337.93	97.715	71.665	17.438	3.8526e-06	29.65	0.00013581	0.00013305	3.6124e-05	847.15	1.4389e-06	1.4191e-06	927.2	240.4	1.3672e-06	1.3603e-06	305.16	88.001	65.351	16.302	1.3397e-06	27.023	136.870	30.915	5.705	-82.906	138.411	0.552	-83.122	-79.267	55.256	64.111	-79.851	-76.033	-75.459	-70.569	43.654	-70.960	-8191	255	
4357.258	1	1	0	0	0.19026	0.29837	0.13582	0.13815	0.07865	0.13327	0.21828	0.19106	0.029381	0.045653	0.12878	0.10495	0.22642	0.067709	0.12853	0.21609	-3.9271	-3.6292	-4.5417	-3.8896	-3.9313	-4.5771	-3.7917	-4.3854	-4.3458	-3.7458	-4.4708	-4.0312	-3.8229	-4.5	-3.7104	-4.2979	185.845	-23.877	74.721	-74.034	-64.679	207.582	214.495	2.000	-65.989	210.783	7.202	142.601	-19.021	36.558	248.438	145.939	0.00011622	0.00015967	0.00026628	895.55	2.7754e-06	3.7621e-06	984.5	259.69	4.2848e-06	2.598e-06	339.9	97.602	71.346	17.447	1.8387e-06	29.746	0.00012365	0.00012194	3.4096e-05	837.76	1.3302e-06	1.3293e-06	918.65	239.59	1.3183e-06	1.3076e-06	304.9	87.793	64.929	16.173	1.2887e-06	26.98	-0.114	-31.295	-59.028	-82.899	-30.759	53.482	-83.291	-79.061	62.190	0.184	-80.155	-75.776	-75.373	-70.426	38.947	-70.995	-8191	255	
4357.378	1	1	0	0	0.078985	0.20114	0.093953	0.14643	0.25779	0.14318	0.13333	0.094354	0.09876	0.059777	0.027043	0.26276	0.12384	0.20614	0.046284	0.10711	-4.2417	-3.5938	-4.5875	-4.1083	-4.0229	-4.7375	-3.9813	-4.3313	-4.3479	-3.6896	-4.4125	-4.3313	-3.6958	-4.5833	-3.7125	-4.2333	16.628	-17.558	150.703	179.541	119.228	250.538	241.775	61.954	2.424	170.227	55.031	-76.706	199.017	243.936	129.977	-30.473	0.00039583	0.00035146	8.4925e-05	883.5	4.8248e-06	2.4046e-06	975.72	257.74	2.184e-06	6.318e-06	338.87	96.537	70.889	17.401	1.9539e-06	29.515	0.00011735	0.0001155	3.2339e-05	826.32	1.2586e-06	1.2555e-06	910.99	238.98	1.2619e-06	1.2632e-06	303.31	87.179	64.577	16.096	1.2788e-06	26.684	93.586	26.994	-56.729	-82.728	105.471	-40.062	-83.027	-79.180	77.292	-1.265	-80.123	-75.554	-75.405	-70.272	36.053	-70.686	-8191	255	
4357.474	1	1	0	0	0.1315	0.12562	0.21163	0.20225	0.045334	0.076355	0.1656	0.055668	0.349	0.17826	0.17101	0.038353	0.26869	0.10383	0.15944	0.040981	-4.05	-3.675	-4.4708	-4.3333	-3.7313	-4.4938	-3.9979	-4.1687	-4.5188	-3.7854	-4.5312	-4.2792	-3.8021	-4.6417	-3.9688	-3.9417	-62.952	201.313	198.297	-87.505	29.529	-95.106	7.557	67.787	118.717	80.972	233.594	-62.008	113.869	-44.969	89.277	-31.076	0.00025418	0.0001402	9.7529e-05	889.42	2.4369e-06	5.7992e-06	982.13	258.91	5.3768e-06	2.2783e-06	336.95	96.866	70.741	17.302	5.7616e-06	29.321	0.00011604	0.00011628	3.2076e-05	830.67	1.2703e-06	1.257e-06	914.41	239.15	1.2707e-06	1.2788e-06	303.53	87.008	64.451	16.023	1.2653e-06	26.588	66.083	34.390	-73.563	-82.654	138.977	16.546	-83.079	-79.124	-33.312	-87.318	-79.956	-75.880	-75.226	-70.446	5.499	-70.687	-8191	255	
4357.571	1	1	0	0	0.024028	0.095407	0.11872	0.1096	0.22546	0.16347	0.24935	0.09737	0.10478	0.30222	0.32822	0.084642	0.10887	0.17385	0.20924	0.20657	-4.2063	-3.6042	-4.3042	-4.4	-3.6312	-4.5458	-4.1604	-3.9917	-4.6208	-3.775	-4.3333	-4.4271	-3.725	-4.4708	-4.1896	-3.9021	231.020	55.386	17.312	-83.865	258.628	145.672	209.938	107.694	28.681	-60.242	227.274	27.471	-81.656	-44.663	-94.672	111.899	0.00025395	0.00043326	6.4617e-05	880.38	1.5e-06	5.5009e-07	968.4	258.56	4.0746e-06	1.5312e-06	335.12	96.382	69.958	16.881	2.6198e-06	28.758	0.00011589	0.00011482	3.1517e-05	823.32	1.2534e-06	1.2466e-06	904.18	237.9	1.248e-06	1.2418e-06	302.06	86.502	63.581	15.762	1.286e-06	26.366	88.055	19.157	-20.449	-82.838	68.658	127.860	-83.096	-79.032	-11.175	1.642	-79.971	-76.017	-75.174	-70.522	-56.524	-70.798	-8191	255	
4357.689	1	1	0	0	0.19879	0.22965	0.091408	0.17959	0.15574	0.07249	0.14905	0.28455	0.15845	0.15136	0.36361	0.15019	0.25085	0.3513	0.028458	0.14703	-4.3313	-3.7292	-4.0833	-4.6708	-3.8021	-4.575	-4.3812	-3.9875	-4.6021	-4.0542	-4.3146	-4.6354	-3.6146	-4.475	-4.2604	-3.8667	161.822	258.107	17.197	-96.185	4.771	176.913	156.842	216.516	246.223	58.922	-67.440	40.223	260.828	-27.120	137.451	131.632	0.00020816	0.00011921	9.7155e-05	874.02	3.3893e-06	2.8579e-06	965.78	256.12	3.6407e-06	3.1878e-06	334.55	95.171	68.578	16.737	3.1257e-06	29.012	0.00011789	0.00011651	3.228e-05	818.48	1.3011e-06	1.2917e-06	900.22	236.57	1.2974e-06	1.2939e-06	299.89	85.707	62.639	15.559	1.2927e-06	26.079	64.694	144.864	-37.608	-82.814	62.370	6.672	-82.984	-78.988	-19.416	-21.152	-80.001	-75.706	-74.919	-69.797	68.171	-70.362	-8191	255	
4357.786	1	1	0	0	0.10624	0.061219	0.15166	0.40114	0.12674	0.10088	0.04326	0.24189	0.026654	0.18854	0.21464	0.16463	0.16598	0.1229	0.11167	0.068941	-4.2562	-3.9313	-4.125	-4.5125	-3.5729	-4.2896	-4.4688	-3.8042	-4.475	-4.0042	-4.1021	-4.4667	-3.7562	-4.075	-4.3896	-3.8458	249.916	186.394	-59.149	249.396	243.812	-35.007	217.403	186.568	-28.655	153.485	198.629	172.722	199.007	176.361	150.209	-85.954	0.00021693	0.00050999	4.3513e-05	869.33	4.5647e-06	1.8524e-06	959.16	254.28	8.1588e-07	3.0644e-06	331.65	93.821	68.331	16.387	1.41e-06	28.151	0.0001186	0.0001182	3.323e-05	813.88	1.3e-06	1.2946e-06	893.87	235.48	1.3063e-06	1.3197e-06	298.09	84.586	62.404	15.31	1.3215e-06	25.529	103.718	261.185	156.121	-82.870	-0.502	238.048	-82.859	-79.244	-9.931	3.153	-79.827	-75.956	-75.013	-70.502	14.500	-70.187	-8191	255	
4357.859	1	1	0	0	0.23329	0.0427	0.084153	0.25903	0.26651	0.14808	0.24783	0.16117	0.1234	0.30887	0.17069	0.15843	0.18155	0.25015	0.15891	0.34326	-4.3646	-3.9938	-3.9042	-4.7188	-3.6	-4.2396	-4.4979	-3.6646	-4.5375	-3.9667	-3.8833	-4.475	-3.8812	-4.1396	-4.4854	-3.5854	252.872	49.610	39.322	181.536	-11.194	207.372	153.354	164.434	-47.999	189.303	237.199	76.988	135.143	49.070	28.579	185.045	0.00024392	0.00019618	0.00013713	859.81	1.4514e-06	4.6362e-06	937.68	251.64	4.2367e-06	2.9527e-06	325.4	93.138	67.285	16.171	4.6304e-06	27.886	0.00012202	0.00011996	3.3106e-05	804.93	1.2836e-06	1.2928e-06	876.62	232.79	1.2878e-06	1.2605e-06	292.76	83.606	61.371	15.08	1.2579e-06	25.409	157.713	-80.227	-23.702	-82.779	-7.784	44.985	-82.972	-79.222	30.755	86.048	-80.327	-75.646	-75.280	-70.020	70.272	-70.759	-8191	255	
4357.978	1	1	0	0	0.11593	0.008498	0.17836	0.12884	0.016972	0.26792	0.053403	0.060773	0.13491	0.07071	0.33828	0.14014	0.22544	0.091281	0.10792	0.019814	-4.2083	-4.2479	-3.7375	-4.7875	-3.8292	-4.0271	-4.7542	-3.5625	-4.3	-4.2625	-3.6771	-4.6604	-3.8875	-3.9958	-4.5667	-3.7313	68.747	76.799	152.623	239.772	93.372	0.410	258.481	-24.770	-55.030	73.714	155.627	131.492	-81.078	181.836	-50.735	-96.252	0.00047002	0.0005522	0.000119	859.82	4.7765e-06	2.3817e-06	944.05	252.37	3.8276e-06	5.9297e-06	328.43	93.973	67.609	16.396	4.298e-06	28.332	0.00011597	0.0001147	3.2104e-05	800.99	1.2734e-06	1.2638e-06	880.82	233.39	1.2789e-06	1.2625e-06	295.04	84.177	61.663	15.321	1.2818e-06	25.667	43.168	53.005	4.680	-82.919	-28.830	72.999	-83.024	-79.109	74.943	-20.064	-80.274	-75.772	-74.877	-70.418	120.124	-70.626	-8191	255	
4358.074	1	1	0	0	0.18554	0.064679	0.15256	0.22438	0.16739	0.12698	0.15242	0.042523	0.1333	0.2483	0.28053	0.21195	0.14611	0.14822	0.059819	0.29498	-3.9729	-4.2937	-3.5646	-4.5563	-3.9896	-3.9396	-4.6271	-3.7417	-4.2646	-4.3313	-3.7333	-4.5146	-4.05	-3.7521	-4.6062	-3.8083	61.111	36.670	143.456	211.590	-74.908	211.966	160.943	220.941	145.569	198.872	230.732	198.979	210.495	252.420	98.131	145.713	0.00021517	0.00044155	0.00014366	855.43	4.1445e-06	2.0816e-06	949.43	252.88	3.2504e-06	2.9018e-06	327.96	94.365	67.693	16.297	4.28e-06	28.545	0.00011656	0.00011584	3.2125e-05	801.8	1.2545e-06	1.2459e-06	882.13	234.51	1.2625e-06	1.2476e-06	295.36	84.718	61.781	15.312	1.2626e-06	25.883	68.370	-31.254	102.331	-82.792	35.489	95.586	-83.014	-78.974	93.618	43.226	-79.905	-75.764	-75.194	-70.032	73.564	-70.928	-8191	255	
4358.170	1	1	0	0	0.046383	0.23216	0.10812	0.23499	0.16147	0.061686	0.14822	0.2058	0.16712	0.18802	0.11325	0.32952	0.24157	0.2619	0.034239	0.043334	-3.9354	-4.3729	-3.8542	-4.5729	-4.1833	-3.8854	-4.6375	-3.9271	-4.0104	-4.4333	-3.7167	-4.5646	-4.1562	-3.7354	-4.525	-3.825	208.094	261.477	197.121	225.310	51.524	258.451	203.076	174.438	91.918	56.048	56.041	-80.724	83.045	40.020	137.870	-74.053	0.00011206	0.00010041	0.00013628	861.33	5.1088e-06	2.6978e-06	952.15	255.48	3.6393e-06	1.264e-06	330.82	94.455	67.925	16.282	1.6293e-06	28.338	0.00011697	0.00011527	3.2432e-05	807.72	1.2946e-06	1.275e-06	889.29	235.55	1.3108e-06	1.3058e-06	297.14	84.826	62.061	15.305	1.3082e-06	25.722	65.141	245.317	-83.956	-82.601	48.402	50.116	-82.816	-79.045	131.855	5.151	-79.966	-75.648	-75.073	-70.232	211.460	-70.733	-8191	255	
4358.291	1	1	0	0	0.20013	0.15132	0.09514	0.13926	0.061643	0.27315	0.088075	0.16035	0.071277	0.12659	0.04187	0.056456	0.15329	0.24564	0.089984	0.25354	-3.6542	-4.3708	-3.6604	-4.5333	-4.2312	-3.6104	-4.6083	-3.8354	-4.0104	-4.4625	-3.7458	-4.2833	-4.3167	-3.7458	-4.6708	-3.9146	151.182	-75.406	165.714	256.199	179.891	244.933	11.486	241.708	194.507	-65.274	78.291	93.161	250.735	238.540	150.823	98.641	0.00033565	0.00010559	0.00015897	864.4	2.8664e-06	3.455e-06	951.02	253.08	4.36e-06	2.4361e-06	329.19	93.796	67.991	16.402	1.5639e-06	28.179	0.00012188	0.00012001	3.3661e-05	807.45	1.3491e-06	1.3342e-06	888.49	234.8	1.3746e-06	1.3635e-06	296.19	84.816	62.46	15.488	1.4482e-06	25.838	89.873	106.493	259.187	-82.838	40.667	63.303	-83.064	-79.036	92.491	105.926	-80.151	-75.759	-75.003	-70.312	233.343	-70.689	-8191	255	
4358.387	1	1	0	0	0.01286	0.028132	0.045595	0.20468	0.064258	0.20209	0.36443	0.037215	0.051413	0.064926	0.074595	0.20945	0.0866	0.35384	0.15532	0.11887	-3.6146	-4.5146	-3.6271	-4.3833	-4.525	-3.625	-4.7375	-4.175	-3.875	-4.5542	-3.775	-4.2417	-4.2688	-3.6583	-4.3771	-4.1208	-84.975	34.143	177.005	225.166	81.965	128.094	-84.339	232.786	-91.362	224.119	120.679	-43.263	68.414	-36.385	153.372	229.848	0.00029061	0.0002414	0.00010581	869.25	3.0639e-06	3.1679e-06	961.98	253.32	2.6702e-06	1.9377e-06	328.78	93.786	68.648	16.687	6.5007e-06	28.344	0.00013311	0.00013323	3.7582e-05	816.98	1.4703e-06	1.4744e-06	899.33	235.69	1.4981e-06	1.4967e-06	298.85	85.492	63.275	15.738	1.5136e-06	26.092	86.664	-15.283	-32.554	-82.783	-28.422	-91.662	-83.150	-78.774	-23.020	-92.882	-79.860	-75.866	-74.999	-69.740	40.859	-70.851	-8191	255	
4358.481	1	1	0	0	0.066228	0.037792	0.096064	0.27076	0.094238	0.16036	0.069558	0.035495	0.15576	0.22236	0.078543	0.092469	0.11425	0.1967	0.23071	0.26808	-3.4917	-4.4958	-3.8625	-4.1646	-4.4271	-3.6688	-4.4667	-4.0604	-3.7646	-4.4771	-4.1125	-4.0792	-4.6104	-3.5958	-4.3313	-4.2812	250.884	59.130	-29.994	221.649	79.717	109.235	241.364	28.480	20.505	-33.907	-84.747	41.267	251.312	194.653	30.936	185.672	0.00037869	0.00051944	7.0027e-05	879.82	7.335e-07	3.7017e-06	975.29	254.61	6.0596e-06	5.3046e-06	331.15	95.192	69.44	16.83	5.0713e-06	28.684	0.00014023	0.00013836	3.9245e-05	827.67	1.5369e-06	1.5499e-06	911.07	237.69	1.5829e-06	1.5722e-06	301.11	86.706	63.876	15.937	1.5724e-06	26.308	91.209	-73.018	-43.279	-82.876	-21.412	59.748	-83.102	-79.018	-37.206	57.988	-79.694	-75.960	-74.749	-70.099	29.337	-70.857	-8191	255	
4358.555	1	1	0	0	0.080562	0.15779	0.12673	0.11444	0.071886	0.093099	0.091427	0.13506	0.057165	0.089164	0.20435	0.28332	0.21401	0.37729	0.14005	0.26609	-3.3833	-4.6687	-3.8646	-4.1417	-4.3938	-3.6354	-4.4125	-4.5542	-3.6417	-4.6021	-4.1458	-4.0271	-4.6396	-3.8167	-4.2708	-4.3417	28.127	182.748	40.298	-15.837	186.909	53.158	200.026	175.412	-89.370	123.103	119.493	-68.286	181.480	-92.312	-85.051	-3.672	0.00038572	0.00015818	0.00010162	890.44	3.5027e-06	8.2444e-06	976.05	257.22	5.8958e-06	4.6681e-06	332.63	95.037	68.964	16.852	4.9122e-06	28.349	0.00014473	0.00014319	3.944e-05	833.47	1.5551e-06	1.5645e-06	913.9	238.8	1.5954e-06	1.5692e-06	301.18	86.488	63.926	15.877	1.5692e-06	26.106	96.174	-60.043	-82.239	-82.794	13.573	21.655	-83.123	-78.968	39.447	22.711	-79.846	-75.827	-75.264	-69.916	3.073	-70.611	-8191	255	
4358.674	1	1	0	0	0.093091	0.16912	0.10655	0.22789	0.14102	0.1832	0.083138	0.062268	0.023048	0.057019	0.15382	0.1173	0.1446	0.21011	0.10542	0.18499	-3.4958	-4.6583	-4.1292	-4.0417	-4.5042	-3.6458	-4.3167	-4.5917	-3.8083	-4.6312	-4.1438	-3.9062	-4.6312	-3.8542	-4.0625	-4.6062	161.854	153.511	122.902	214.717	51.658	163.551	159.223	55.271	49.271	-16.632	258.134	-49.694	101.499	-17.081	191.467	175.999	0.000136	0.0001682	1.5603e-05	878.19	2.6574e-06	3.7728e-06	965.19	254	5.2022e-06	2.3631e-06	326.99	93.957	69.772	16.877	6.13e-06	28.586	0.00014321	0.00013978	3.8775e-05	825.65	1.5161e-06	1.5031e-06	905.6	236.95	1.4654e-06	1.4416e-06	297.75	85.365	63.55	15.776	1.418e-06	25.955	111.807	-16.123	257.921	-82.949	-4.796	92.543	-83.106	-78.952	-3.403	244.883	-80.019	-76.049	-75.215	-69.999	33.661	-70.994	-8191	255	
4358.770	1	1	0	0	0.074758	0.075528	0.16523	0.18367	0.12158	0.085983	0.33682	0.11704	0.19883	0.018933	0.0080859	0.11564	0.023387	0.30886	0.039635	0.13203	-3.4729	-4.3146	-4.0958	-3.7979	-4.5729	-3.9979	-4.2104	-4.7292	-3.55	-4.4792	-4.2833	-3.8375	-4.6167	-3.9	-3.9083	-4.5	239.070	-9.779	256.376	-19.017	247.217	182.311	235.325	184.447	-74.152	-42.945	63.959	174.906	-89.797	153.953	135.371	234.442	0.00018079	0.00063046	5.6274e-05	876.72	2.4292e-06	3.5944e-07	962.8	256.21	3.5008e-06	1.858e-06	331.14	94.415	69.79	16.821	2.1416e-06	28.623	0.000131	0.00012662	3.546e-05	821.18	1.401e-06	1.4027e-06	899.54	237.45	1.4221e-06	1.4146e-06	298.52	85.712	63.679	15.825	1.424e-06	26.056	45.937	-30.177	16.794	-82.760	-61.497	-2.434	-83.024	-79.240	213.637	94.801	-80.099	-75.643	-75.001	-70.356	211.829	-70.743	-8191	255	
4358.866	1	1	0	0	0.11661	0.10876	0.26445	0.1964	0.15283	0.10202	0.211	0.23852	0.057237	0.22975	0.11718	0.13351	0.20566	0.13874	0.12321	0.11203	-3.3479	-4.1417	-4.4146	-3.8646	-4.4625	-4.0625	-4.1125	-4.5979	-3.6854	-4.2917	-4.35	-3.7292	-4.4354	-4.1021	-3.7687	-4.6958	139.172	259.805	120.707	28.324	118.032	32.316	181.738	235.525	21.450	80.943	230.510	177.722	65.475	74.886	246.743	251.882	0.00035815	0.00041955	0.00016021	874.17	1.3091e-06	3.9458e-06	960.16	256.55	1.6832e-06	1.7863e-06	330.91	94.769	69.564	16.952	3.7844e-06	28.699	0.00013067	0.00012764	3.5426e-05	819.47	1.3979e-06	1.365e-06	896.04	237.1	1.3482e-06	1.3336e-06	297.85	85.594	63.36	15.768	1.3292e-06	26.007	50.784	-21.741	-2.131	-82.982	180.236	88.231	-83.248	-79.021	63.135	-58.217	-80.156	-76.480	-75.250	-70.047	-14.355	-70.725	-8191	255	
4358.962	1	1	0	0	0.22403	0.054706	0.17207	0.24359	0.16524	0.19672	0.21395	0.28634	0.085135	0.12657	0.12868	0.077867	0.2676	0.10979	0.14204	0.22877	-3.5292	-4.1896	-4.4646	-3.6354	-4.4271	-4.2125	-3.9792	-4.8229	-3.7896	-4.2021	-4.6375	-3.6542	-4.5458	-4.2458	-3.6688	-4.6146	-30.044	38.491	86.455	-87.663	153.508	65.891	244.661	192.412	62.731	29.259	246.342	-13.964	225.905	252.473	212.306	199.503	3.1941e-05	0.00033739	0.00010953	878.23	2.7354e-06	3.2001e-06	961.65	258.38	3.9609e-06	2.6873e-06	331	96.12	70.529	17.124	4.0803e-06	28.764	0.00012178	0.0001191	3.3114e-05	820.15	1.298e-06	1.2893e-06	896.67	238.97	1.3051e-06	1.2807e-06	298.7	85.926	63.992	15.872	1.2907e-06	26.014	-77.718	160.929	-71.713	-82.877	153.552	5.475	-83.152	-79.184	161.524	72.413	-79.854	-75.932	-75.121	-70.236	-84.035	-71.044	-8191	255	
4359.083	1	1	0	0	0.22571	0.10195	0.085455	0.27827	0.13769	0.084406	0.37706	0.077887	0.16492	0.15482	0.090762	0.17186	0.13786	0.098337	0.26425	0.070119	-3.675	-4.0104	-4.6146	-3.7354	-4.3146	-4.3479	-3.8	-4.6479	-4.0312	-3.9375	-4.5542	-3.7104	-4.3604	-4.3313	-3.6542	-4.5667	-56.909	58.221	69.606	116.328	78.943	-21.624	191.850	108.413	142.677	18.916	190.285	238.190	-14.162	117.176	137.914	-87.004	0.00032367	0.00027216	9.2388e-05	875.98	2.6424e-06	1.4014e-06	957.1	258.6	2.2813e-06	1.4428e-06	333.65	95.573	70.282	17.171	7.1235e-06	28.804	0.00011908	0.00011797	3.1937e-05	819.76	1.2808e-06	1.2713e-06	895.6	239.04	1.2831e-06	1.2939e-06	299.06	85.683	63.899	15.919	1.317e-06	26.132	77.990	-57.157	-35.055	-82.652	78.782	120.049	-83.305	-79.011	-83.542	-83.007	-79.954	-76.190	-75.258	-70.258	39.710	-70.833	-8191	255	
4359.154	1	1	0	0	0.16023	0.14842	0.12583	0.22516	0.11157	0.2682	0.068495	0.13755	0.080684	0.22507	0.28483	0.16453	0.1506	0.019642	0.090574	0.072944	-3.7438	-3.9667	-4.5875	-3.8	-4.325	-4.4458	-3.9021	-4.4938	-3.975	-3.6771	-4.6937	-3.675	-4.2146	-4.5354	-3.6917	-4.4375	114.896	-8.574	-2.168	239.125	76.951	65.682	53.859	-93.752	-5.252	170.007	215.407	197.143	259.043	79.883	80.507	93.179	0.00021616	0.000446	0.00010198	880.39	1.8603e-06	3.9579e-06	970.05	258.98	2.4711e-06	7.7842e-07	334.13	95.494	70.816	17.235	3.7213e-06	28.742	0.00012197	0.00011968	3.3255e-05	826.62	1.3368e-06	1.3196e-06	905.17	240.55	1.3339e-06	1.3312e-06	300.08	85.883	64.183	15.987	1.305e-06	26.202	109.452	-22.577	5.941	-83.011	14.845	41.342	-83.425	-79.393	63.575	168.625	-80.339	-76.084	-75.159	-70.735	23.775	-70.780	-8191	255	
4359.251	1	1	0	0	0.14138	0.18055	0.061202	0.1724	0.10632	0.09591	0.10315	0.13365	0.35865	0.16414	0.43434	0.24971	0.15977	0.1301	0.073971	0.10302	-3.7333	-3.7562	-4.5354	-3.7625	-4.0771	-4.5792	-3.7292	-4.4437	-4.4646	-3.8396	-4.6854	-4.0729	-3.9917	-4.6646	-3.7042	-4.2438	-71.699	115.313	171.998	260.125	-52.261	85.173	243.505	258.225	163.955	34.635	182.147	119.142	231.928	-60.049	-72.710	75.234	0.00034935	0.00024873	0.00011205	886.52	5.5118e-06	2.0468e-06	974.07	260.65	2.4171e-06	6.5772e-06	335.33	95.582	71.059	17.247	3.8082e-06	28.803	0.00011993	0.00011944	3.247e-05	829.04	1.2985e-06	1.2887e-06	906.75	241.16	1.276e-06	1.2519e-06	300.38	86.024	64.347	16.022	1.2699e-06	26.259	89.343	-22.353	-18.125	-82.840	-25.610	11.013	-83.313	-79.205	125.722	78.840	-79.787	-76.233	-75.382	-70.838	91.381	-71.455	-8191	255	
4359.371	1	1	0	0	0.067834	0.1639	0.16799	0.10064	0.04463	0.12515	0.11761	0.20357	0.3524	0.10892	0.29942	0.24931	0.14151	0.24062	0.1279	0.26264	-4.0792	-3.6833	-4.5625	-4.0167	-3.7812	-4.5917	-3.8229	-4.3438	-4.4979	-3.6042	-4.5312	-4.1312	-3.9708	-4.6479	-3.7104	-4.2604	143.464	-76.010	129.229	247.126	88.997	196.435	-51.631	-34.927	241.271	-49.762	-79.365	-64.358	166.361	3.205	5.389	215.961	0.00036546	0.00072546	9.3048e-05	882.72	1.8116e-06	3.5865e-06	975.22	263.36	2.0759e-06	3.8598e-06	335.14	95.907	71.122	17.517	3.4376e-06	29.153	0.00011532	0.00011452	3.1856e-05	827.77	1.2559e-06	1.2525e-06	907.54	242.36	1.2524e-06	1.2668e-06	301.45	86.456	64.836	16.213	1.2902e-06	26.417	77.672	26.768	-89.839	-82.844	30.796	76.273	-83.396	-79.276	21.104	63.964	-80.343	-76.176	-75.337	-70.470	65.565	-70.911	-8191	255	
4359.467	1	1	0	0	0.31474	0.10113	0.1801	0.22993	0.21978	0.16426	0.10112	0.18294	0.1036	0.076355	0.11174	0.19879	0.15656	0.18015	0.060097	0.14948	-4.1229	-3.6688	-4.3187	-4.1417	-3.8146	-4.6	-4.1417	-4.2063	-4.4688	-3.6188	-4.5208	-4.1833	-4.0375	-4.5188	-3.85	-3.9708	23.930	17.741	-51.222	-0.853	16.232	-16.837	122.478	226.345	-53.399	22.417	-12.811	171.001	241.376	-47.648	195.219	130.223	0.00035821	7.0734e-05	0.00011053	894.62	3.416e-06	4.9931e-06	979.66	261.68	3.6735e-06	2.984e-06	334.71	95.553	71.006	17.395	3.1838e-06	29.011	0.0001177	0.00011664	3.2746e-05	836.07	1.2944e-06	1.2917e-06	915.01	242.31	1.2943e-06	1.2918e-06	300.95	86.061	64.593	16.231	1.3054e-06	26.312	93.139	-50.493	-60.495	-82.947	23.553	56.561	-83.345	-79.135	106.553	48.249	-80.181	-76.389	-75.296	-70.528	67.372	-70.700	-8191	255	
4359.562	1	1	0	0	0.22832	0.084783	0.094054	0.154	0.01677	0.21348	0.22547	0.039767	0.084809	0.19646	0.2322	0.23814	0.23019	0.20359	0.1291	0.1582	-4.2958	-3.6813	-4.4	-4.1125	-3.7396	-4.5188	-3.9417	-4.1104	-4.4604	-3.8	-4.5708	-4.2458	-3.8396	-4.6146	-3.9729	-4.0417	198.511	192.940	16.255	172.236	211.435	-12.684	182.300	-30.673	115.704	88.370	-69.080	-26.238	-54.274	103.847	243.078	174.777	0.00021595	0.0001751	3.4271e-05	888.92	3.1128e-06	5.3243e-06	976.11	261.59	4.9896e-06	1.9791e-06	333.92	96.347	70.777	17.342	2.3449e-06	29.196	0.00011923	0.00011722	3.2439e-05	833.74	1.2937e-06	1.2835e-06	907.98	241.43	1.2897e-06	1.2867e-06	299.74	85.868	64.45	16.181	1.2657e-06	26.386	64.067	225.575	-69.384	-82.866	244.218	81.780	-83.140	-79.303	31.882	18.475	-79.985	-76.003	-75.667	-70.524	57.719	-71.227	-8191	255	
4359.660	1	1	0	0	0.25039	0.16589	0.10707	0.33875	0.22856	0.10615	0.14585	0.19992	0.12032	0.13412	0.19576	0.33894	0.065827	0.2114	0.12295	0.16493	-4.4313	-3.7333	-4.2833	-4.4938	-3.5896	-4.7354	-4.3187	-3.9104	-4.5938	-3.7271	-4.2333	-4.55	-3.8979	-4.4958	-4.1375	-3.8417	-77.520	-67.128	69.506	156.692	128.576	24.242	165.060	180.067	211.321	238.066	238.579	201.338	152.516	227.788	89.242	-53.883	0.00035123	0.00031246	0.00010793	891.13	4.2031e-06	2.1701e-06	977.68	262.35	3.0426e-06	7.004e-07	335.02	95.9	70.93	17.571	2.8738e-06	29.133	0.00011948	0.00011645	3.2501e-05	832.76	1.2874e-06	1.2786e-06	910.55	242.18	1.3053e-06	1.305e-06	300.88	86.396	64.831	16.364	1.3053e-06	26.615	78.012	13.314	-50.029	-83.015	-41.788	-50.254	-83.406	-79.128	86.521	16.578	-80.133	-76.316	-75.374	-70.837	38.765	-71.151	-8191	255	
4359.754	1	1	0	0	0.032927	0.088008	0.17003	0.14407	0.022576	0.098357	0.15973	0.20903	0.14464	0.21651	0.1422	0.061443	0.36218	0.13226	0.1404	0.12065	-4.3458	-3.7708	-4.0375	-4.5979	-3.7854	-4.4187	-4.4917	-3.8021	-4.6208	-3.7604	-4.1	-4.475	-3.5938	-4.3229	-4.2812	-3.7542	34.329	85.062	21.461	186.278	176.925	204.362	203.480	-53.575	144.032	71.177	125.839	208.719	254.192	235.905	-10.790	178.693	0.00025089	0.00030496	0.00014281	895.48	3.027e-06	7.371e-06	978.69	262.96	5.3293e-06	2.068e-06	335.28	96.84	71.402	17.628	2.9669e-06	29.705	0.00011924	0.00011777	3.2474e-05	835.77	1.2994e-06	1.277e-06	910.06	242.02	1.2805e-06	1.2678e-06	301.07	86.756	64.794	16.452	1.2864e-06	26.902	58.353	119.321	43.179	-82.705	240.889	40.698	-83.134	-79.426	54.822	-50.477	-80.093	-75.769	-74.969	-70.928	-6.960	-71.286	-8191	255	
4359.850	1	1	0	0	0.069743	0.1212	0.26222	0.10913	0.19876	0.21471	0.17441	0.18936	0.16049	0.21567	0.15305	0.30553	0.15565	0.12864	0.12791	0.08128	-4.4563	-3.8312	-4.0417	-4.5021	-3.625	-4.325	-4.4271	-3.6542	-4.4854	-4.0542	-3.9583	-4.6646	-3.7125	-4.3292	-4.5333	-3.6896	127.454	88.795	98.777	-44.162	183.272	-62.632	160.663	191.383	88.901	171.666	113.936	226.162	-34.465	246.078	111.534	231.290	0.00041014	0.00017228	0.00016882	897.92	6.2081e-06	4.7261e-06	982.98	262.9	2.5308e-06	5.5382e-06	337.11	96.348	71.615	17.611	6.3917e-07	29.451	0.00012041	0.00011729	3.3013e-05	839.95	1.3141e-06	1.2879e-06	914.89	242.74	1.3081e-06	1.2903e-06	301.36	86.452	65.021	16.426	1.2807e-06	26.637	94.090	39.869	-63.712	-82.790	-19.725	110.050	-83.481	-79.142	-86.775	56.204	-80.244	-76.571	-75.642	-70.640	-31.088	-71.149	-8191	255	
4359.971	1	1	0	0	0.1425	0.2653	0.15624	0.24045	0.050534	0.074295	0.050844	0.029299	0.14061	0.20396	0.097155	0.14226	0.037284	0.077734	0.23781	0.11107	-4.1292	-4.05	-3.875	-4.8896	-3.7583	-4.0646	-4.5188	-3.6375	-4.3458	-4.025	-3.9104	-4.6813	-3.9333	-4.1	-4.3229	-3.6396	-39.853	88.134	178.275	-42.580	-53.952	223.031	95.267	-28.370	102.493	175.497	231.655	175.275	64.623	160.130	-67.580	249.376	0.00045348	0.00059692	0.00015781	892.73	2.3724e-06	1.5661e-07	979.95	261.9	4.7946e-06	4.9039e-06	333.44	96.13	71.08	17.715	6.0793e-07	29.493	0.00011947	0.00011544	3.2568e-05	836.37	1.2774e-06	1.2779e-06	910.96	241.98	1.2709e-06	1.26e-06	300.16	86.009	64.594	16.353	1.252e-06	26.65	89.560	32.567	37.897	-82.722	-22.844	187.943	-83.260	-79.274	54.818	43.848	-80.203	-76.299	-75.194	-70.715	1.273	-70.914	-8191	255	
4360.067	1	1	0	0	0.13771	0.17052	0.050138	0.44169	0.26708	0.10397	0.12504	0.44671	0.12681	0.2066	0.027222	0.24432	0.23108	0.011661	0.022126	0.14362	-4.0938	-4.1188	-3.875	-4.5396	-3.9375	-4.0167	-4.6729	-3.6333	-4.3667	-4.2146	-3.7667	-4.5396	-3.9437	-4.0792	-4.5896	-3.8167	1.291	-9.038	237.643	252.628	126.184	158.475	200.024	215.507	162.627	-36.412	83.331	-76.465	187.330	184.243	85.511	201.866	0.00021253	0.00011375	0.00018124	890.4	3.8453e-06	5.0484e-06	974.65	262.58	3.7997e-06	4.3049e-06	334.62	95.715	71.37	17.701	2.7228e-06	29.515	0.00011725	0.00011567	3.1958e-05	833.89	1.2759e-06	1.2653e-06	908.14	242.34	1.2574e-06	1.2664e-06	300.58	86.123	64.766	16.404	1.2634e-06	26.693	87.600	-49.529	-92.929	-82.801	24.368	1.137	-83.327	-79.257	195.333	35.360	-80.300	-76.335	-75.412	-70.248	44.399	-71.340	-8191	255	
4360.163	1	1	0	0	0.061163	0.089566	0.16293	0.099788	0.25774	0.057635	0.16615	0.048857	0.14075	0.18717	0.10877	0.10284	0.11682	0.15879	0.19585	0.056998	-4.0583	-4.2729	-3.5417	-4.6521	-4.1917	-3.7875	-4.7188	-3.6833	-4.1813	-4.2854	-3.7125	-4.5167	-4.2417	-3.7667	-4.3958	-3.8646	182.205	-95.692	-59.154	209.225	251.254	14.683	-93.240	257.824	-23.643	160.490	228.382	191.613	182.358	25.173	21.547	1.186	0.00021612	0.0002403	3.8032e-05	891.97	2.6746e-06	3.1647e-06	976.85	262.71	4.5844e-06	1.6737e-06	331.96	96.293	71.531	17.94	1.4e-06	29.683	0.00011668	0.00011434	3.1972e-05	833.01	1.2608e-06	1.2668e-06	908.26	242.71	1.2492e-06	1.245e-06	300.23	86.382	64.836	16.455	1.2647e-06	26.812	78.986	-19.231	64.500	-82.836	70.171	18.431	-83.113	-79.138	-50.023	56.279	-80.250	-76.147	-75.341	-70.497	-26.236	-71.264	-8191	255	
4360.259	1	1	0	0	0.086417	0.093465	0.23464	0.11091	0.11898	0.15629	0.1811	0.14596	0.15212	0.097013	0.10049	0.28631	0.17703	0.35272	0.10687	0.29645	-3.5917	-4.475	-3.6083	-4.4083	-4.0354	-3.8937	-4.7583	-4.0042	-4.15	-4.4146	-3.7062	-4.3375	-4.1021	-3.7583	-4.4792	-3.8688	152.092	206.483	2.401	245.718	30.344	101.283	223.961	-68.996	127.320	193.237	16.917	227.249	166.795	-83.007	42.652	-1.100	6.5943e-05	0.00047092	0.00024267	888.83	4.7486e-06	3.2743e-06	976.63	262.46	2.5429e-06	4.721e-06	334.12	96.009	71.255	17.607	1.6257e-06	29.484	0.00011611	0.00011413	3.1703e-05	830.92	1.2704e-06	1.2478e-06	908.77	242.55	1.262e-06	1.2488e-06	299.61	86.3	64.654	16.392	1.2769e-06	26.558	145.077	2.100	-16.353	-82.684	-42.472	-14.985	-83.125	-79.156	-16.995	94.142	-80.621	-75.923	-75.288	-70.748	-43.093	-71.219	-8191	255	
4360.380	1	1	0	0	0.26444	0.17481	0.23646	0.24143	0.076032	0.038027	0.15701	0.22122	0.11979	0.08028	0.12302	0.13483	0.062634	0.28637	0.12113	0.10325	-3.725	-4.4521	-3.5979	-4.3604	-4.1562	-3.5312	-4.6875	-4.0354	-3.9458	-4.5125	-3.8604	-4.1979	-4.3458	-3.5979	-4.375	-3.9896	-85.956	9.563	51.931	194.783	181.334	-42.214	261.391	-51.223	37.429	39.569	235.087	28.947	77.638	260.995	259.846	189.957	0.00026101	0.00053607	9.1916e-05	893.53	1.0266e-06	9.1003e-07	970.54	262.73	3.1042e-06	1.3871e-06	334.46	95.827	71.07	17.493	3.4121e-06	29.459	0.00011893	0.00011652	3.2231e-05	833.5	1.2726e-06	1.2682e-06	907.52	241.94	1.2736e-06	1.2652e-06	299.73	86.045	64.695	16.323	1.2474e-06	26.593	95.194	26.439	-57.749	-82.943	78.887	58.053	-83.121	-79.170	-6.326	172.073	-80.386	-76.355	-75.252	-70.484	0.278	-70.898	-8191	255	
4360.452	1	1	0	0	0.083418	0.18634	0.19464	0.055418	0.14926	0.18329	0.073418	0.13066	0.18841	0.045269	0.076525	0.16687	0.027681	0.29673	0.12138	0.17523	-3.4792	-4.5917	-3.7958	-4.1958	-4.3917	-3.5958	-4.5979	-4.1396	-3.8792	-4.5	-3.8417	-4.1937	-4.4688	-3.7313	-4.4	-4.1375	160.348	-22.823	11.083	254.826	-0.552	136.803	177.389	260.635	-40.320	77.431	-45.584	141.802	210.153	200.306	2.890	46.572	0.00031064	0.00032642	0.00012858	888.41	2.2522e-06	4.1206e-06	969.46	259.77	4.8611e-06	3.6951e-06	332.69	95.129	70.699	17.7	3.4943e-06	29.431	0.00011687	0.00011556	3.1806e-05	830.61	1.2547e-06	1.2532e-06	903.14	240.61	1.2683e-06	1.2384e-06	298.84	85.777	64.318	16.384	1.2419e-06	26.624	105.238	4.101	-30.706	-82.983	83.430	37.276	-83.300	-79.273	255.294	19.118	-80.085	-76.013	-74.898	-70.380	23.496	-71.109	-8191	255	
4360.548	1	1	0	0	0.2499	0.15946	0.24677	0.2291	0.26123	0.027547	0.18352	0.077612	0.22316	0.068646	0.089012	0.10131	0.24885	0.085941	0.058018	0.2035	-3.4396	-4.575	-3.8563	-4.2	-4.4833	-3.5875	-4.4708	-4.2792	-3.6958	-4.4521	-3.9979	-3.9167	-4.4104	-3.6792	-4.3688	-4.4313	-0.902	31.264	66.328	199.810	11.458	255.116	165.770	183.373	101.659	229.735	-8.288	-14.065	-83.357	209.754	169.534	233.739	0.00019067	0.00023678	0.00017881	884.26	3.6549e-06	3.6564e-06	969.62	260.94	4.7602e-06	3.9655e-06	333.79	95.746	71.074	17.694	1.9814e-06	29.524	0.00011482	0.00011182	3.1317e-05	826.25	1.2452e-06	1.2446e-06	903.14	241.21	1.2435e-06	1.2261e-06	300.03	86.266	64.556	16.396	1.2291e-06	26.748	143.895	-21.777	-50.988	-83.205	-51.170	49.728	-83.234	-79.074	110.466	48.320	-79.952	-76.330	-74.801	-70.362	15.944	-70.904	-8191	255	
4360.644	1	1	0	0	0.20968	0.094638	0.16596	0.28185	0.079425	0.064603	0.10012	0.29328	0.025091	0.31348	0.12672	0.047737	0.28969	0.2224	0.070777	0.052571	-3.4604	-4.6417	-3.9708	-3.9792	-4.5771	-3.6896	-4.3604	-4.4125	-3.7	-4.5375	-3.9396	-3.8458	-4.5479	-3.6667	-4.0167	-4.5813	-96.298	96.161	-76.129	-93.253	-23.099	98.356	42.058	-91.116	211.960	63.078	30.375	8.511	-86.794	262.750	228.835	-63.444	0.00025335	0.00037206	3.3487e-05	887.21	5.2695e-06	8.3546e-07	971.72	262.34	1.6065e-06	3.1959e-06	336.05	96.073	71.285	17.518	3.3206e-06	29.45	0.00011604	0.00011169	3.1225e-05	830.94	1.2347e-06	1.2414e-06	906.96	242.19	1.2404e-06	1.2342e-06	300.68	86.027	64.53	16.312	1.2335e-06	26.6	89.056	-77.677	181.146	-82.853	-46.890	96.188	-83.332	-79.195	239.279	-12.636	-80.185	-76.267	-75.074	-70.729	119.663	-71.396	-8191	255	
4360.763	1	1	0	0	0.10992	0.027374	0.2787	0.21504	0.21819	0.11855	0.1631	0.17151	0.025756	0.10035	0.060234	0.26895	0.23365	0.25583	0.14123	0.071102	-3.1854	-4.4688	-4.0854	-3.6958	-4.4354	-3.825	-4.2083	-4.5042	-3.6479	-4.2604	-4.3375	-3.7875	-4.5896	-3.9292	-3.9771	-4.5104	-55.889	93.485	111.315	229.550	-18.255	195.766	213.418	190.761	-70.955	42.937	-45.104	202.706	261.148	118.220	-93.025	154.888	0.00030569	0.00014494	0.00019955	881.88	2.7503e-06	4.5497e-06	969.26	262.07	2.8513e-06	3.0956e-06	335.09	95.819	71.28	17.718	1.9912e-06	29.421	0.00011464	0.00011182	3.0539e-05	826.72	1.2329e-06	1.2244e-06	902.54	241.92	1.2398e-06	1.2306e-06	300.05	86.111	64.721	16.391	1.2532e-06	26.7	96.727	124.525	251.607	-82.621	61.156	-9.457	-83.215	-79.320	-5.102	58.089	-80.065	-76.430	-75.442	-70.470	84.613	-70.890	-8191	255	
4360.859	1	1	0	0	0.21909	0.049923	0.39572	0.051659	0.11507	0.081652	0.22588	0.16414	0.044601	0.27703	0.1096	0.15539	0.066726	0.21059	0.19499	0.20086	-3.3812	-4.2562	-4.3688	-3.8333	-4.6229	-4.0021	-3.9979	-4.5771	-3.6562	-4.3042	-4.3292	-3.6646	-4.4083	-3.8833	-3.8937	-4.625	261.878	-4.973	-80.937	-91.823	35.338	-68.539	188.175	-83.640	-77.378	257.730	194.540	223.326	246.138	240.903	215.642	150.434	0.00034053	0.000401	0.00017248	891.09	2.5888e-06	3.0154e-06	974.38	262.82	1.005e-06	4.4553e-06	335.93	96.806	70.845	17.726	1.7248e-06	29.508	0.00011575	0.00011304	3.1514e-05	835.95	1.2435e-06	1.2308e-06	909.04	242.65	1.2466e-06	1.2413e-06	300.79	86.17	64.595	16.365	1.2442e-06	26.687	72.729	22.520	17.568	-83.118	23.001	32.390	-83.564	-79.466	186.468	13.823	-80.198	-76.211	-75.450	-70.384	9.496	-71.398	-8191	255	
4360.955	1	1	0	0	0.062442	0.33603	0.14967	0.15314	0.4072	0.18462	0.25846	0.088635	0.028099	0.17536	0.078354	0.12794	0.22669	0.068233	0.092261	0.03427	-3.2771	-4.1292	-4.3229	-3.6667	-4.65	-3.8146	-3.9229	-4.6417	-3.6771	-4.15	-4.3604	-3.6375	-4.5563	-4.0708	-3.8271	-4.5938	253.948	172.218	-58.339	237.245	118.266	198.199	179.360	135.123	253.948	-7.614	126.047	212.985	126.374	26.896	30.977	-83.830	0.00010056	0.00021044	0.00012277	890.79	2.3291e-06	5.353e-06	978.83	262.59	4.1256e-06	2.1801e-06	333.45	96.124	71.464	17.587	2.6272e-06	29.65	0.00011411	0.0001142	3.137e-05	833.56	1.2569e-06	1.2322e-06	909.48	242.32	1.2469e-06	1.2327e-06	300.62	86.465	64.9	16.376	1.269e-06	26.829	118.622	69.960	-26.620	-82.802	-20.986	28.791	-83.322	-79.188	109.395	26.789	-80.035	-76.146	-74.818	-70.696	50.128	-71.114	-8191	255	
4361.051	1	1	0	0	0.25053	0.13801	0.17794	0.20604	0.1968	0.080812	0.10244	0.23422	0.17459	0.35987	0.16539	0.15382	0.1614	0.1706	0.17597	0.15058	-3.4104	-3.9	-4.4104	-3.9313	-4.4042	-4.1125	-3.9458	-4.6646	-3.9313	-3.9583	-4.6958	-3.7625	-4.3208	-4.2375	-3.7729	-4.6729	4.555	137.726	-6.993	211.132	222.338	-75.830	181.749	160.838	9.073	209.011	-48.747	-95.334	238.974	144.745	-62.865	182.245	0.00019616	0.00033783	0.00013768	897.13	1.1717e-06	2.819e-06	979.36	261.88	1.0044e-06	2.1062e-06	335.35	96.344	71.462	17.786	3.1754e-06	29.493	0.00011692	0.00011418	3.1951e-05	838.55	1.2523e-06	1.2621e-06	913.9	242.92	1.2689e-06	1.2511e-06	301.53	86.659	64.885	16.461	1.2783e-06	26.648	132.277	243.507	-1.960	-83.017	238.853	113.010	-83.371	-79.186	37.095	102.038	-80.575	-76.281	-75.225	-70.407	-83.081	-71.191	-8191	255	
4361.147	1	1	0	0	0.12954	0.28467	0.14649	0.13705	0.13894	0.079687	0.29703	0.20223	0.24071	0.090059	0.049995	0.064265	0.19375	0.066268	0.10172	0.094039	-3.5833	-3.775	-4.6083	-3.9542	-4.4333	-4.3521	-3.6208	-4.6562	-4.0021	-3.9188	-4.6562	-3.7938	-4.1979	-4.3458	-3.5	-4.6667	3.246	132.905	38.730	-51.387	-9.207	219.518	207.372	197.884	162.783	-16.207	92.676	54.640	191.633	10.363	135.523	247.569	6.961e-05	0.00024713	8.1243e-05	895.59	3.2947e-06	9.4898e-07	978.77	262.12	2.7812e-06	4.5092e-06	333.4	96.205	71.164	17.55	3.0411e-06	29.328	0.00011882	0.00011412	3.1652e-05	838.3	1.2748e-06	1.2633e-06	911.45	242.02	1.2603e-06	1.2687e-06	300.59	85.981	64.769	16.303	1.2706e-06	26.499	54.130	90.044	-83.091	-82.918	-8.369	-55.130	-83.382	-79.239	-28.261	61.681	-80.123	-76.075	-75.487	-70.472	86.438	-71.293	-8191	255	
4361.244	1	1	0	0	0.1082	0.14166	0.13494	0.31134	0.077325	0.13285	0.12411	0.079693	0.1662	0.028561	0.096111	0.22068	0.062747	0.009972	0.11481	0.052455	-3.6896	-3.8021	-4.6229	-3.8333	-4.05	-4.3938	-3.7313	-4.5687	-4.0458	-3.7667	-4.7188	-4.0125	-4.1042	-4.5188	-3.6	-4.4021	124.787	-22.441	141.764	142.964	62.456	56.015	89.972	66.770	50.189	174.216	-5.005	109.199	130.077	140.063	-64.315	80.520	0.00026035	6.803e-05	6.3657e-05	893.38	2.5412e-06	4.4483e-06	977.2	261.44	4.126e-06	5.5608e-06	334.05	95.118	71.988	17.598	1.892e-06	29.469	0.00011597	0.00011402	3.1811e-05	834.71	1.2524e-06	1.2461e-06	909.51	241.86	1.2424e-06	1.2519e-06	300.36	86.052	64.995	16.342	1.2482e-06	26.597	26.386	108.243	248.186	-82.964	10.063	67.973	-83.355	-79.147	-77.724	16.213	-80.535	-76.179	-75.381	-70.402	101.634	-70.927	-8191	255	
4361.340	1	1	0	0	0.11229	0.10753	0.028279	0.10423	0.047897	0.029923	0.2146	0.24973	0.25795	0.14079	0.2672	0.15032	0.036096	0.076226	0.17629	0.057305	-3.8646	-3.6667	-4.5396	-4.0375	-4.0208	-4.5646	-3.9562	-4.5167	-4.1458	-3.5812	-4.4792	-3.8521	-3.8812	-4.4812	-3.5771	-4.3812	156.685	-26.416	35.930	187.863	125.510	136.316	124.780	194.512	-84.343	45.225	210.345	225.143	241.221	135.090	246.795	138.475	0.00023662	0.00026671	0.00013755	900.69	2.3651e-06	1.9875e-06	986.32	263.83	1.3142e-06	1.2846e-06	336.87	96.303	71.942	17.891	4.2614e-06	29.791	0.00011656	0.0001162	3.1853e-05	841.44	1.2643e-06	1.251e-06	918.88	243.42	1.2671e-06	1.2669e-06	302.99	86.558	65.311	16.51	1.2891e-06	26.892	79.181	254.499	-37.250	-82.978	132.205	79.402	-83.210	-79.557	136.152	63.502	-80.115	-76.087	-75.187	-70.698	33.941	-71.163	-8191	255	
4361.460	1	1	0	0	0.25636	0.21366	0.091749	0.070398	0.1812	0.10542	0.057719	0.17188	0.1438	0.15576	0.078536	0.33041	0.12204	0.335	0.06597	0.30076	-4.0021	-3.6167	-4.3771	-4.1188	-3.6875	-4.5896	-3.9188	-4.2542	-4.3313	-3.7917	-4.5417	-4.1208	-3.8979	-4.7375	-3.9125	-4.075	-67.456	-26.511	-55.675	-87.965	78.887	153.009	227.629	-52.099	-3.858	252.003	49.336	219.068	191.213	216.410	199.519	-14.389	0.00026021	0.00048848	0.00012359	904.2	3.1987e-06	1.956e-06	993.26	263.94	1.097e-06	3.8486e-06	341.24	96.412	71.742	17.749	2.1696e-06	29.526	0.00012014	0.00011684	3.2201e-05	849.31	1.2911e-06	1.2823e-06	928.74	244.16	1.3003e-06	1.2787e-06	305.16	86.998	65.361	16.533	1.2808e-06	26.787	94.713	15.242	-47.114	-82.792	-27.596	-0.730	-83.250	-79.339	17.173	80.916	-79.932	-76.488	-75.849	-70.380	-12.895	-71.005	-8191	255	
4361.555	1	1	0	0	0.18895	0.15363	0.12019	0.20598	0.088458	0.13989	0.08937	0.12273	0.010194	0.18263	0.26465	0.13155	0.15449	0.25696	0.070508	0.24824	-4.2583	-3.6854	-4.4792	-4.1	-3.7146	-4.5583	-3.975	-4.1271	-4.5604	-3.6625	-4.3917	-4.1813	-3.6854	-4.6	-3.9021	-3.9313	210.860	46.333	100.098	101.942	238.842	132.311	-78.012	-93.371	-33.877	-12.186	-41.823	176.581	216.204	218.831	70.262	-32.293	0.00034479	0.00033777	0.00020225	912.56	4.8139e-06	6.7192e-06	986.58	262.86	2.0881e-06	1.3291e-06	334.93	95.957	71.597	17.533	3.9932e-06	29.325	0.00011884	0.00011585	3.1962e-05	847.54	1.2801e-06	1.2637e-06	920.45	242.81	1.2663e-06	1.2621e-06	301.29	86.196	64.898	16.347	1.2642e-06	26.633	109.031	10.448	-67.643	-82.686	55.545	54.201	-83.164	-79.310	72.184	196.748	-80.381	-76.396	-75.489	-70.393	204.356	-71.049	-8191	255	
4361.653	1	1	0	0	0.24633	0.15286	0.20468	0.11546	0.1791	0.095619	0.1319	0.13129	0.18093	0.097476	0.24977	0.21282	0.1472	0.32819	0.093151	0.082064	-4.1813	-3.6417	-4.1521	-4.2875	-3.7292	-4.4187	-4.0229	-4	-4.45	-3.6667	-4.3917	-4.4583	-3.7417	-4.5333	-3.9604	-3.7938	120.840	193.191	0.329	128.199	28.262	-27.187	199.818	-91.582	72.525	159.628	244.605	188.749	225.340	229.228	187.599	162.875	0.00014939	0.00028394	0.00011755	903.07	1.4804e-06	2.4158e-06	990.02	263.25	5.3195e-06	4.7594e-06	336.73	95.69	71.508	17.746	2.7728e-06	29.405	0.00011872	0.00011682	3.2181e-05	845.03	1.2901e-06	1.2724e-06	922.5	243.86	1.3052e-06	1.2987e-06	302.75	86.234	65.083	16.418	1.2889e-06	26.706	101.338	107.565	-42.305	-82.874	238.331	-10.143	-83.189	-79.072	44.524	22.565	-80.269	-75.913	-75.472	-70.648	123.373	-70.925	-8191	255	
4361.747	1	1	0	0	0.18034	0.22775	0.1081	0.22846	0.022297	0.16397	0.14905	0.31374	0.19159	0.036977	0.052667	0.20084	0.041848	0.080173	0.09805	0.094447	-4.2312	-3.9771	-4.1021	-4.5167	-3.7083	-4.3604	-4.1542	-3.725	-4.6292	-3.7729	-4.1771	-4.5312	-3.8438	-4.6	-4.0792	-3.8625	-24.658	-43.420	196.460	229.877	-23.190	-59.342	226.174	207.589	-5.138	235.244	200.782	115.698	249.012	239.946	160.198	183.763	0.00044339	0.00056165	4.029e-05	910.4	3.127e-06	7.6938e-07	999.02	264.75	5.799e-06	2.7166e-06	337.99	96.274	71.742	17.791	4.435e-06	29.512	0.00012046	0.00011842	3.3255e-05	850.28	1.3112e-06	1.3051e-06	930.52	243.88	1.321e-06	1.3285e-06	304.13	86.698	65.383	16.524	1.3521e-06	26.762	69.980	-19.103	1.044	-82.505	59.406	4.584	-82.814	-79.081	10.017	43.875	-79.833	-75.941	-75.014	-70.388	59.057	-70.744	-8191	255	
4361.843	1	1	0	0	0.05295	0.11595	0.036858	0.20662	0.081387	0.22885	0.041955	0.096291	0.22981	0.036742	0.061795	0.17256	0.099209	0.076499	0.18459	0.1718	-4.3396	-3.9729	-3.9604	-4.6604	-3.6771	-4.3167	-4.475	-3.7208	-4.5271	-3.8937	-4.0271	-4.5042	-3.7812	-4.2583	-4.4167	-3.8167	154.827	183.811	147.247	172.167	225.656	-38.004	159.113	101.300	13.133	195.179	0.111	214.906	-89.005	-27.170	-80.254	173.103	0.0002276	0.00020869	0.00010004	918.6	8.6148e-07	1.7716e-06	1003.7	262.94	2.5334e-06	1.2142e-06	337.24	96.279	71.727	17.629	4.5478e-06	29.318	0.0001233	0.000123	3.3956e-05	859.61	1.3428e-06	1.3251e-06	935.74	244	1.3389e-06	1.3067e-06	303.61	86.633	65.239	16.44	1.3257e-06	26.627	73.318	-1.868	217.455	-82.429	-91.003	2.419	-82.800	-79.242	136.478	-50.910	-80.311	-75.789	-75.071	-70.514	-23.513	-70.810	-8191	255	
4361.939	1	1	0	0	0.019372	0.21982	0.20879	0.13693	0.13731	0.060661	0.14537	0.20138	0.3151	0.14119	0.060138	0.080124	0.25134	0.17129	0.13179	0.14972	-4.2937	-4	-3.7667	-4.5563	-3.7729	-4.1417	-4.5917	-3.7396	-4.3854	-4.0792	-3.9021	-4.6521	-3.7062	-4.1438	-4.35	-3.6625	96.762	56.297	48.328	173.576	176.830	99.528	205.083	178.051	-3.615	218.887	167.900	-4.670	131.605	-93.621	-40.679	234.175	0.00037512	0.00021132	0.00010427	911.23	2.3217e-06	3.0156e-06	999.15	261.21	3.4266e-06	5.2754e-06	334.78	95.327	71.148	17.567	1.296e-06	29.272	0.0001215	0.00011841	3.3411e-05	853.03	1.3024e-06	1.2968e-06	927.7	242.23	1.3014e-06	1.308e-06	301.02	85.939	64.835	16.371	1.3113e-06	26.589	80.947	145.553	184.270	-82.539	11.495	-1.428	-82.984	-79.226	115.909	59.900	-80.128	-75.790	-74.871	-69.807	-9.798	-70.993	-8191	255	
4362.060	1	1	0	0	0.17984	0.18609	0.16597	0.28149	0.18315	0.053826	0.1236	0.20871	0.1234	0.13419	0.34105	0.17039	0.11355	0.19659	0.22354	0.10933	-4.1854	-4.0292	-3.6854	-4.6646	-3.8896	-4.1854	-4.6271	-3.6646	-4.1958	-4.0813	-3.8063	-4.4979	-3.7729	-3.9625	-4.525	-3.6875	96.627	162.998	160.327	245.532	157.481	107.789	226.588	152.007	91.801	139.889	221.053	125.430	58.385	252.564	124.659	85.437	0.00028327	0.00032576	7.0743e-05	921.38	5.0624e-06	1.525e-06	1013.3	265.27	6.154e-06	2.2479e-06	343.28	96.582	73.272	18.096	4.8911e-07	30.028	0.00012388	0.00012337	3.4533e-05	861.78	1.3673e-06	1.3709e-06	943.84	245.3	1.4004e-06	1.4105e-06	307.77	87.721	66.853	16.919	1.4402e-06	27.323	90.230	6.287	106.734	-82.606	-53.379	145.003	-83.068	-79.116	57.014	-35.160	-80.002	-75.943	-75.066	-70.147	77.791	-71.171	-8191	255	
4362.156	1	1	0	0	0.1571	0.10957	0.021744	0.16969	0.10579	0.031664	0.085465	0.2583	0.095093	0.27237	0.14854	0.18051	0.15763	0.1385	0.11376	0.32879	-4.0083	-4.275	-3.7354	-4.6875	-3.8812	-4.0292	-4.6271	-3.7583	-4.2562	-4.2729	-3.7542	-4.4917	-4.1937	-3.8417	-4.625	-3.8208	-55.601	36.521	98.801	233.854	239.031	20.490	56.745	212.723	204.671	108.680	98.882	199.422	170.261	261.551	233.588	-57.947	0.00031195	0.00024397	9.3062e-05	958.33	2.6599e-06	7.8192e-07	1054.5	275.38	2.1563e-06	3.8902e-06	351.23	102.05	77.352	18.977	4.4197e-06	30.949	0.00013326	0.00013459	3.8139e-05	893.87	1.5178e-06	1.5543e-06	983.33	255.61	1.5977e-06	1.6118e-06	318.58	92.416	70.94	17.831	1.6118e-06	28.328	42.781	55.617	252.099	-82.216	246.720	181.938	-82.700	-78.876	0.231	105.194	-79.803	-75.954	-74.847	-70.293	46.613	-70.901	-8191	255	
4362.252	1	1	0	0	0.11486	0.1515	0.089979	0.11552	0.1389	0.20376	0.024347	0.17821	0.10453	0.073687	0.16987	0.13507	0.27492	0.19808	0.09095	0.10909	-3.9458	-4.3562	-3.5396	-4.6208	-3.9	-3.65	-4.6375	-3.7542	-4.1771	-4.4396	-3.5083	-4.4396	-4.2771	-3.8521	-4.6125	-3.8729	208.618	79.578	-41.618	204.372	159.256	-35.591	184.853	-71.415	-82.904	34.539	222.927	251.070	-82.852	-92.620	-8.521	-0.374	0.00024264	0.00028122	0.0001081	984.75	6.9663e-06	3.5034e-06	1074.1	282.98	4.0036e-06	2.0453e-06	360.51	105.14	79.949	19.736	3.8499e-06	31.616	0.00014867	0.00014398	3.9769e-05	919.06	1.5421e-06	1.5061e-06	1001.3	261.66	1.48e-06	1.4393e-06	324.17	94.498	72.57	18.128	1.3923e-06	28.677	56.958	-17.497	241.570	-82.305	-19.330	249.835	-82.714	-78.820	74.852	13.307	-79.921	-76.014	-75.092	-70.290	82.294	-71.000	-8191	255	
4362.324	1	1	0	0	0.084178	0.16306	0.10807	0.058139	0.19867	0.068465	0.1833	0.20849	0.049271	0.33771	0.063781	0.11886	0.075644	0.070848	0.12975	0.03671	-3.6917	-4.2667	-3.6729	-4.5104	-4.1625	-3.6896	-4.65	-3.9458	-4.0563	-4.5979	-3.8083	-4.3688	-4.3083	-3.7917	-4.5958	-3.8979	261.063	234.612	158.594	-96.273	113.668	92.828	164.796	175.232	85.048	45.474	186.679	-78.632	199.764	195.726	176.439	132.065	0.00037566	0.00031377	6.7826e-05	978.63	4.0294e-06	8.3225e-06	1075.4	283.24	5.2551e-06	3.2534e-06	360.84	104.75	78.594	19.266	2.4841e-06	31.43	0.00012899	0.0001257	3.4762e-05	917.89	1.3425e-06	1.347e-06	999.88	261.88	1.3342e-06	1.3042e-06	323.43	93.852	71.516	17.811	1.286e-06	28.33	87.785	262.330	43.998	-82.127	-24.556	31.327	-82.711	-78.785	-54.745	29.032	-79.678	-75.907	-75.146	-70.251	33.485	-70.701	-8191	255	
4362.420	1	1	0	0	0.17084	0.046146	0.082705	0.33283	0.050384	0.028562	0.1549	0.05976	0.13474	0.12754	0.041638	0.142	0.019558	0.47269	0.2094	0.11112	-3.6333	-4.5354	-3.6188	-4.2937	-4.2312	-3.6646	-4.5521	-4.0896	-3.9313	-4.4229	-3.7667	-4.2896	-4.3938	-3.6354	-4.5292	-4.0229	251.019	90.777	26.057	-83.938	-80.491	33.325	205.576	252.753	-12.037	-86.233	-82.377	-73.453	176.753	194.289	102.958	214.898	0.00022417	0.00055727	7.3996e-05	960.67	2.8446e-06	7.783e-06	1057.4	279.4	3.1187e-06	2.4662e-06	357.21	103.79	78.297	19.306	5.5531e-06	31.528	0.00011769	0.0001155	3.2501e-05	896.97	1.2634e-06	1.26e-06	984.09	258.33	1.2707e-06	1.2587e-06	320.71	92.875	71.082	17.746	1.2716e-06	28.338	66.149	78.781	-27.570	-82.293	21.690	61.911	-82.765	-78.584	-24.019	-84.126	-79.521	-75.724	-74.756	-69.992	84.182	-70.615	-8191	255	
4362.539	1	1	0	0	0.2079	0.17998	0.063611	0.047458	0.059059	0.092575	0.18914	0.080215	0.1302	0.10841	0.038673	0.11005	0.17113	0.18515	0.22976	0.04168	-3.5083	-4.4958	-3.7896	-4.2562	-4.3187	-3.6021	-4.7021	-4.225	-3.7229	-4.6458	-3.9708	-4.1458	-4.5583	-3.6771	-4.2792	-4.3271	126.591	72.229	102.577	-71.179	227.829	-42.411	217.794	83.363	-3.770	28.709	-20.471	251.458	206.847	-86.806	12.251	248.561	0.00021643	5.279e-05	6.5619e-05	964.89	1.0392e-06	2.1067e-06	1063.9	280.25	5.422e-07	3.5953e-06	357.7	103.55	79.103	19.147	3.1978e-06	31.324	0.00011934	0.0001151	3.2325e-05	899.38	1.2644e-06	1.2612e-06	986.24	258.63	1.2832e-06	1.2618e-06	320.99	92.765	71.181	17.636	1.2416e-06	28.225	97.860	3.521	-78.372	-82.618	-16.778	109.263	-82.963	-78.944	-75.273	10.860	-79.638	-75.829	-75.133	-70.239	-20.589	-70.317	-8191	255	
4362.635	1	1	0	0	0.20509	0.14307	0.21437	0.10404	0.084749	0.14532	0.3697	0.18202	0.15369	0.11379	0.32243	0.082401	0.0638	0.20112	0.18158	0.024172	-3.3167	-4.5042	-3.9604	-3.9854	-4.5625	-3.5354	-4.375	-4.4125	-3.7979	-4.5521	-4.1667	-3.9104	-4.5854	-3.65	-4.1667	-4.4062	178.961	-28.025	227.429	-2.471	-2.450	5.422	219.689	57.868	167.528	38.265	238.485	135.416	228.245	-43.584	173.580	247.660	0.00029952	0.00024831	0.00018712	962.28	2.6521e-06	5.1305e-07	1066.4	280.86	6.4679e-06	1.3621e-06	359.78	103.84	78.343	19.383	3.9526e-06	31.357	0.00011727	0.00011553	3.1939e-05	898.31	1.2592e-06	1.2603e-06	988.1	258.64	1.2635e-06	1.2535e-06	320.91	92.713	70.832	17.653	1.2543e-06	28.201	84.930	-37.009	7.442	-82.328	217.856	103.038	-82.612	-78.666	-10.970	23.417	-79.565	-76.048	-75.079	-70.045	49.860	-70.581	-8191	255	
4362.733	1	1	0	0	0.15573	0.037976	0.24869	0.26704	0.22349	0.16166	0.27931	0.08289	0.18297	0.1428	0.16203	0.13989	0.0079875	0.24565	0.18591	0.14404	-3.2729	-4.4	-4.0104	-3.9542	-4.6646	-3.7979	-4.3958	-4.4521	-3.5625	-4.4771	-4.0458	-3.9771	-4.6917	-3.7354	-4.05	-4.6083	247.930	113.337	-85.089	-60.250	-56.260	33.123	247.275	73.833	229.999	201.966	236.833	-54.914	169.602	127.781	257.789	171.148	0.00028989	0.00029803	6.6776e-05	959.55	3.25e-06	4.3288e-06	1054.9	279.73	3.3411e-06	4.5204e-06	354.51	102.74	76.861	18.946	2.3474e-06	31.005	0.0001161	0.00011292	3.1366e-05	895.82	1.2386e-06	1.2467e-06	979.68	257.22	1.2697e-06	1.2404e-06	318.96	91.745	69.887	17.371	1.2393e-06	27.792	120.366	30.565	-1.903	-82.085	258.846	193.495	-82.221	-78.465	22.249	57.716	-79.509	-75.584	-74.577	-70.122	158.472	-70.501	-8191	255	
4362.852	1	1	0	0	0.34757	0.21832	0.17515	0.22447	0.055473	0.095993	0.084059	0.15104	0.17233	0.19708	0.29538	0.070158	0.22279	0.13082	0.010829	0.20618	-3.2562	-4.5437	-4.0396	-3.9104	-4.6	-3.9292	-4.1312	-4.5896	-3.6292	-4.4604	-4.3125	-3.8104	-4.7042	-3.8292	-3.8625	-4.7312	-26.611	-48.392	77.734	205.490	113.165	191.409	40.483	188.889	86.865	-64.718	171.452	128.144	-6.412	29.197	-51.188	88.119	0.00039067	0.00062339	0.00010436	953.99	3.9885e-06	2.4747e-06	1052.1	278.1	1.7047e-06	3.9863e-06	354.93	102.48	76.984	18.79	1.4774e-06	30.953	0.00011501	0.00011141	3.1396e-05	886.83	1.23e-06	1.2294e-06	973.22	255.84	1.2573e-06	1.2199e-06	317.45	91.565	69.824	17.325	1.2653e-06	27.982	92.652	64.935	-51.437	-82.033	-30.102	73.424	-82.498	-78.141	-43.349	43.191	-79.326	-75.602	-74.866	-69.941	162.919	-70.791	-8191	255	
4362.924	1	1	0	0	0.23593	0.068576	0.12663	0.28826	0.13889	0.17234	0.068716	0.23624	0.18614	0.08404	0.14153	0.125	0.066525	0.18658	0.18314	0.31377	-3.2583	-4.3292	-4.2979	-3.7917	-4.5563	-4.1896	-4.0229	-4.5813	-3.6937	-4.2438	-4.4146	-3.7	-4.5167	-4.0813	-3.8667	-4.4938	97.608	61.364	-64.783	-74.989	20.683	50.800	-92.534	-94.757	-62.968	129.642	199.903	-69.405	-19.262	260.184	-60.263	243.378	0.00011529	0.00040358	0.00012488	953.16	3.6608e-06	2.7778e-06	1053.4	278.19	2.833e-06	3.2182e-06	356.29	102.66	77.933	18.927	1.6473e-06	31.551	0.00011586	0.00011334	3.1575e-05	889.75	1.2412e-06	1.2467e-06	976.53	256.79	1.2462e-06	1.2363e-06	318.83	92.022	70.342	17.501	1.2567e-06	28.129	94.642	-92.842	-78.315	-82.298	-52.112	27.560	-82.585	-78.434	98.863	70.113	-78.889	-75.489	-74.210	-69.845	111.065	-70.270	-8191	255	
4363.020	1	1	0	0	0.09185	0.045771	0.12866	0.19678	0.18159	0.15363	0.25839	0.19228	0.16922	0.13382	0.12125	0.16243	0.077405	0.10142	0.089662	0.19639	-3.4375	-4.2542	-4.3125	-3.7854	-4.5979	-4.2042	-3.8729	-4.4938	-3.85	-3.9917	-4.5312	-3.6208	-4.4271	-4.1542	-3.7438	-4.7333	185.366	60.336	155.255	201.107	172.036	-59.219	217.980	188.827	114.469	198.752	-15.119	84.115	212.745	207.335	107.626	-4.170	0.00023263	0.00048654	0.00013889	961.73	2.9185e-06	4.8849e-06	1061.5	279.01	3.0787e-06	2.783e-06	357.69	103.08	78.129	19.002	1.2096e-06	31.381	0.00011693	0.00011442	3.1708e-05	896.05	1.2589e-06	1.2494e-06	981.99	257.18	1.265e-06	1.2482e-06	319.54	92.381	70.556	17.518	1.2468e-06	28.111	125.130	26.308	-65.888	-81.729	72.194	39.804	-82.193	-78.383	206.256	67.469	-79.255	-75.667	-74.330	-69.997	6.358	-70.103	-8191	255	
4363.140	1	1	0	0	0.23391	0.17833	0.14904	0.22658	0.2128	0.11441	0.079793	0.12577	0.017904	0.055561	0.13319	0.20139	0.32631	0.14412	0.23091	0.17789	-3.6125	-3.8396	-4.4062	-3.65	-4.4104	-4.1021	-3.9333	-4.7188	-4.0208	-3.9938	-4.4938	-3.6896	-4.3292	-4.3542	-3.65	-4.5458	243.502	168.330	41.196	242.032	-78.149	248.636	198.050	206.546	45.016	108.137	151.793	-68.773	217.085	36.407	249.067	187.713	0.00039658	0.00041107	0.00023557	964.03	2.5914e-06	3.9587e-06	1060.3	279.33	3.854e-06	2.5467e-06	355.95	102.52	77.878	18.919	2.6507e-06	30.996	0.00011739	0.00011399	3.1678e-05	896.74	1.2579e-06	1.252e-06	984.63	257.44	1.2693e-06	1.2654e-06	319.44	92.081	70.242	17.385	1.2635e-06	27.928	84.598	16.099	-53.035	-81.940	-42.134	122.476	-82.152	-78.227	54.545	0.676	-79.146	-75.384	-74.716	-69.711	95.927	-70.169	-8191	255	
4363.236	1	1	0	0	0.26612	0.11691	0.29409	0.1946	0.12971	0.079293	0.15214	0.11028	0.14686	0.1152	0.23672	0.18152	0.027451	0.07847	0.21637	0.14843	-3.7	-3.7458	-4.5375	-3.8271	-4.3333	-4.6104	-3.8854	-4.6583	-4.1687	-3.9458	-4.7333	-3.8646	-4.1125	-4.6042	-3.6521	-4.6354	130.540	216.670	105.248	82.374	247.977	-13.618	95.427	188.730	-48.555	243.972	213.752	-86.511	225.029	-94.440	195.930	-29.883	0.00023726	0.00042984	0.00012325	949.87	3.8596e-06	4.131e-06	1046.4	276.27	1.452e-06	2.9726e-06	356.02	101.68	76.004	18.731	1.8866e-06	30.906	0.00011623	0.00011515	3.1289e-05	888.16	1.2448e-06	1.2465e-06	973.56	254.78	1.2549e-06	1.2563e-06	317.47	91.197	69.387	17.216	1.2402e-06	27.759	75.516	-40.085	-26.040	-81.162	8.823	51.640	-81.835	-77.500	192.562	6.161	-79.185	-75.051	-73.815	-69.510	10.102	-70.324	-8191	255	
4363.333	1	1	0	0	0.13955	0.35944	0.17251	0.036216	0.11468	0.17392	0.061295	0.19565	0.087937	0.19521	0.26577	0.13945	0.36213	0.18861	0.05704	0.15884	-3.8604	-3.6083	-4.6687	-3.8292	-4.1438	-4.4812	-3.8667	-4.6125	-4.1708	-3.6958	-4.7646	-4.0646	-4.1083	-4.5396	-3.6354	-4.4021	41.090	21.130	131.247	196.528	130.316	147.775	188.100	-72.063	-91.572	92.974	259.182	-85.213	180.578	-0.525	258.657	-94.546	0.00031492	0.00023125	8.2721e-05	945.18	2.2591e-06	5.4905e-06	1040	276.68	3.8088e-07	2.7677e-06	354.69	102.14	77.095	18.785	2.1457e-06	31.178	0.00011442	0.00011189	3.0753e-05	884.15	1.2393e-06	1.2194e-06	969.2	254.27	1.2476e-06	1.2222e-06	316.99	91.248	69.539	17.253	1.2194e-06	27.868	64.006	11.845	240.948	-81.301	-69.664	22.866	-81.644	-77.990	202.828	6.386	-78.678	-74.773	-73.796	-69.592	-25.999	-70.734	-8191	255	
4363.453	1	1	0	0	0.13421	0.22693	0.074498	0.23533	0.19491	0.11882	0.12243	0.085101	0.020986	0.17757	0.13805	0.11958	0.043462	0.071679	0.17155	0.2705	-3.9208	-3.8312	-4.4896	-4.0771	-3.7938	-4.4583	-3.7417	-4.2604	-4.2812	-3.6437	-4.6208	-4.1813	-4.0146	-4.6792	-3.5896	-4.0167	44.383	-50.461	119.105	232.024	98.135	76.678	125.248	-28.573	79.462	90.443	179.187	-63.053	200.198	145.264	168.433	-71.930	0.00034745	0.00025488	8.9589e-05	951.06	7.8264e-06	4.5121e-06	1047.6	276.03	3.2289e-06	5.9591e-06	355.09	102.49	76.675	18.691	3.6938e-06	31.199	0.00011365	0.00011046	3.1192e-05	885.07	1.2357e-06	1.2014e-06	972.87	255.07	1.242e-06	1.2297e-06	318.01	91.45	69.54	17.29	1.2382e-06	28.042	113.318	4.019	-44.207	-82.047	12.592	-24.722	-82.708	-78.689	221.394	-31.734	-79.787	-75.613	-75.001	-70.099	-23.588	-71.021	-8191	255	
4363.549	1	1	0	0	0.092299	0.043451	0.043837	0.30904	0.1561	0.44285	0.14151	0.21974	0.18643	0.13931	0.19609	0.26642	0.17243	0.068497	0.41902	0.13871	-4.1687	-3.5167	-4.4167	-4.25	-3.7854	-4.4854	-3.8667	-4.1771	-4.3583	-3.6688	-4.5896	-4.3292	-3.9146	-4.6229	-3.9979	-4.075	-74.277	-79.854	-34.188	219.601	-12.112	119.441	183.653	137.040	73.646	-60.620	228.136	167.019	86.896	-83.300	228.028	-83.439	0.00015512	0.00016601	3.7682e-05	959.8	4.3589e-06	1.5424e-06	1059.4	278.07	1.2628e-06	8.4014e-07	354.72	102.14	77.179	18.609	3.9059e-06	30.628	0.00011528	0.00011243	3.1426e-05	894.64	1.2627e-06	1.2272e-06	981.1	256.66	1.2411e-06	1.2382e-06	318.42	91.405	69.534	17.224	1.2397e-06	27.702	6.503	30.899	210.892	-82.433	-39.504	17.554	-82.845	-78.808	-76.886	-14.305	-79.788	-75.919	-74.723	-70.348	116.198	-70.983	-8191	255	
4363.621	1	1	0	0	0.22684	0.26598	0.12316	0.21605	0.17671	0.22809	0.067822	0.17526	0.20861	0.27634	0.12522	0.12901	0.16103	0.10899	0.14847	0.17341	-4.2604	-3.6521	-4.3833	-4.5708	-3.6813	-4.3646	-4.2333	-4.1271	-4.5479	-3.7583	-4.4417	-4.3646	-3.7687	-4.4187	-3.9625	-4.0583	192.581	156.898	30.241	40.095	-54.631	-74.545	223.937	259.821	52.481	51.712	257.925	243.260	-14.664	210.509	255.410	189.762	0.0004733	0.00022084	5.9314e-05	949.2	2.4422e-06	1.8234e-06	1047.4	275.95	1.3199e-06	3.8764e-06	352.67	101.02	76.28	18.329	2.5134e-06	30.175	0.00011392	0.00011217	3.1255e-05	885.3	1.2537e-06	1.2366e-06	972.9	253.55	1.2302e-06	1.2372e-06	315.43	90.332	68.794	16.974	1.2141e-06	27.379	76.302	-66.219	3.891	-82.379	-15.138	132.757	-82.651	-79.034	-20.127	33.758	-80.128	-75.602	-75.100	-70.390	140.615	-70.788	-8191	255	
4363.740	1	1	0	0	0.012036	0.24878	0.21654	0.41067	0.1009	0.26107	0.14849	0.24804	0.081399	0.17747	0.091092	0.083252	0.17607	0.16697	0.18609	0.12123	-4.1479	-3.6854	-4.3625	-4.4208	-3.7458	-4.5625	-4.1479	-4.0083	-4.5312	-3.9062	-4.2771	-4.4771	-3.6479	-4.4375	-4.0604	-3.9	189.659	117.384	-67.242	170.587	242.277	59.285	149.343	136.147	13.670	216.112	103.455	259.926	186.575	261.405	236.547	211.354	0.00011827	0.00044322	0.00012978	947.52	2.6771e-06	4.4198e-06	1042.5	275.08	3.2283e-06	2.716e-06	351.14	101.22	76.077	18.668	1.7128e-06	30.706	0.00011415	0.00011179	3.1117e-05	880.9	1.2349e-06	1.2095e-06	969.84	253.13	1.2468e-06	1.2274e-06	315.47	90.623	68.874	17.082	1.2366e-06	27.565	-83.285	25.375	15.966	-82.255	254.215	249.312	-82.721	-79.120	-7.423	68.726	-79.961	-76.197	-75.005	-69.817	28.492	-70.493	-8191	255	
4363.836	1	1	0	0	0.14508	0.15059	0.12655	0.28615	0.19687	0.17848	0.23919	0.31877	0.059114	0.10814	0.07338	0.24542	0.077281	0.034046	0.021223	0.072328	-4.3792	-3.6521	-4.2271	-4.5667	-3.7333	-4.2854	-4.2208	-3.925	-4.6833	-3.7208	-4.1479	-4.5396	-3.6937	-4.5229	-4.225	-3.7542	94.377	29.841	-63.443	177.244	-88.646	238.422	127.143	253.709	85.909	147.426	-43.980	-75.740	-63.418	44.831	83.524	77.507	0.00036975	0.00025199	0.00011208	950.84	2.8297e-06	3.9834e-06	1045.3	274.91	9.5587e-07	2.712e-06	350.92	100.97	75.897	18.464	5.0466e-06	30.784	0.00011523	0.00011378	3.1494e-05	885.88	1.2337e-06	1.2309e-06	971.84	254.07	1.2328e-06	1.2309e-06	315.08	90.39	68.55	17.04	1.2393e-06	27.539	123.119	159.749	-64.042	-82.292	112.421	26.930	-82.585	-78.938	158.544	-19.177	-79.808	-75.791	-75.008	-70.583	61.638	-71.084	-8191	255	
4363.932	1	1	0	0	0.23437	0.084236	0.099683	0.081726	0.12054	0.17248	0.34526	0.05022	0.096589	0.1378	0.16331	0.18877	0.13367	0.22622	0.1678	0.10268	-4.2667	-3.9437	-3.9938	-4.5958	-3.725	-4.25	-4.6729	-3.6542	-4.5208	-3.9875	-3.8896	-4.5563	-3.8458	-4.2917	-4.4729	-3.6229	59.257	235.345	-33.494	30.872	53.054	-21.958	211.352	179.609	150.431	199.768	212.037	-86.369	18.249	-27.626	49.639	-60.265	0.00014402	0.000371	3.9232e-05	942.15	4.1416e-06	1.7286e-06	1041.1	274.42	4.682e-06	4.7578e-06	349.51	100.73	75.452	18.456	3.7908e-06	30.528	0.00011162	0.00011131	3.1022e-05	879.3	1.2374e-06	1.2077e-06	966.7	252.25	1.2291e-06	1.2347e-06	314.68	90.193	68.374	16.961	1.2109e-06	27.43	50.360	40.099	-41.705	-82.357	-30.949	61.090	-82.737	-78.726	88.298	54.844	-80.178	-75.931	-74.959	-69.902	70.585	-71.060	-8191	255	
4364.028	1	1	0	0	0.1961	0.084011	0.079727	0.13793	0.34229	0.13591	0.14433	0.14243	0.3163	0.22461	0.13431	0.077276	0.15985	0.18035	0.034451	0.30902	-4.2917	-4.0229	-3.8521	-4.6667	-3.7521	-4.0833	-4.6396	-3.7229	-4.3771	-4.175	-3.8292	-4.6604	-3.7354	-4.0104	-4.525	-3.7146	140.374	-45.613	-85.016	242.816	77.074	153.763	161.035	212.240	155.326	115.046	261.476	221.126	19.470	-15.778	126.797	228.403	0.00017992	0.00026123	8.2397e-05	944.1	1.6217e-06	2.6251e-06	1041.6	274	4.1197e-06	4.4191e-06	351.16	100.46	75.387	18.249	2.9088e-06	30.376	0.00011269	0.0001115	3.1247e-05	881.16	1.2362e-06	1.234e-06	968.47	252.25	1.239e-06	1.2321e-06	314.77	89.905	68.426	16.917	1.2412e-06	27.344	125.073	-3.431	-14.365	-82.655	49.910	41.683	-82.903	-78.999	-91.421	16.272	-80.180	-76.378	-74.899	-70.529	2.742	-71.060	-8191	255	
4364.125	1	1	0	0	0.12448	0.035395	0.10912	0.13664	0.053656	0.14957	0.22393	0.21444	0.14144	0.071754	0.15584	0.03276	0.22602	0.089898	0.083217	0.10948	-4.1167	-4.2292	-3.7583	-4.6917	-3.8937	-4.0396	-4.7604	-3.6813	-4.325	-4.3354	-3.7146	-4.6271	-3.9125	-3.9313	-4.4833	-3.7438	34.793	70.594	-68.395	150.227	26.233	249.069	-57.840	-68.718	-38.700	2.130	213.529	258.159	241.371	242.855	-24.052	229.038	0.00027577	0.00022981	9.4818e-05	951.67	2.6223e-06	1.3554e-06	1044.3	275.58	2.3067e-06	1.7585e-06	351.96	100.12	75.594	18.415	2.0997e-06	30.177	0.00011503	0.00011232	3.1433e-05	886.37	1.2509e-06	1.2499e-06	972.83	253.33	1.2547e-06	1.2467e-06	315.16	90.003	68.505	17.015	1.2518e-06	27.295	95.964	-90.600	-23.304	-82.414	95.705	-7.186	-82.946	-79.265	127.201	134.045	-80.197	-75.967	-75.294	-70.250	-52.467	-70.606	-8191	255	
4364.221	1	1	0	0	0.29002	0.13811	0.078635	0.18663	0.049401	0.17993	0.16553	0.12486	0.12285	0.24172	0.070967	0.03029	0.087215	0.27122	0.076812	0.18083	-4.025	-4.1792	-3.5104	-4.6271	-3.9625	-3.7771	-4.6708	-3.8312	-4.1458	-4.4354	-3.625	-4.5938	-4.1521	-3.8063	-4.6667	-3.8458	243.861	189.576	11.868	108.735	147.935	55.384	-8.653	236.711	-76.404	126.845	167.772	-54.636	-39.682	240.009	162.603	79.581	0.00035853	0.00011539	8.8975e-05	951.92	4.0479e-06	4.1456e-06	1047.2	273.48	2.319e-06	3.4553e-06	349.49	100.66	75.924	18.379	1.3845e-06	30.345	0.00011608	0.0001133	3.1738e-05	887.29	1.2684e-06	1.246e-06	973.55	252.66	1.2569e-06	1.2447e-06	314.6	89.971	68.539	16.91	1.2532e-06	27.432	115.225	90.812	207.360	-82.509	36.958	38.535	-82.886	-79.088	-85.824	18.377	-80.273	-75.906	-74.964	-70.401	234.321	-71.169	-8191	255	
4364.317	1	1	0	0	0.11148	0.21972	0.13989	0.22103	0.093793	0.13015	0.23374	0.1047	0.21731	0.045965	0.2757	0.37246	0.03788	0.25184	0.15178	0.076929	-3.8	-4.6271	-3.7708	-4.5979	-4.1771	-3.7146	-4.8021	-3.9062	-4.075	-4.5771	-3.6937	-4.3896	-4.2021	-3.8083	-4.5563	-3.9813	143.200	138.035	-20.281	-57.982	-71.668	-20.922	207.337	11.142	31.965	9.741	244.681	234.014	202.335	121.831	133.190	38.540	0.000435	0.00037636	3.3223e-05	953.89	1.9046e-06	1.6619e-06	1050.5	274.02	4.4059e-06	1.7494e-06	351.52	100.4	75.367	18.292	1.9753e-06	30.088	0.00011808	0.00011629	3.2418e-05	891.19	1.2853e-06	1.2845e-06	977.69	253.36	1.2914e-06	1.2885e-06	315.4	90.217	68.513	16.898	1.2923e-06	27.233	60.488	17.747	224.675	-82.400	56.092	107.013	-82.768	-79.017	-46.483	55.580	-79.874	-76.026	-75.231	-70.389	128.116	-71.255	-8191	255	
4364.413	1	1	0	0	0.18318	0.041548	0.24876	0.1592	0.27947	0.044628	0.22149	0.26992	0.15814	0.21618	0.22964	0.19305	0.21551	0.11241	0.2334	0.16502	-3.7333	-4.5354	-3.5292	-4.4083	-4.2625	-3.7708	-4.6979	-3.9437	-3.9104	-4.5479	-3.6729	-4.2854	-4.4771	-3.8021	-4.4792	-3.925	-7.929	61.349	216.984	221.696	132.275	184.146	208.342	153.918	140.501	67.700	216.476	152.578	19.664	189.208	-90.876	184.130	0.00021333	0.00044292	0.00011243	946.31	2.7907e-06	1.2057e-06	1049	271.77	2.3177e-06	5.7658e-06	348.49	99.246	74.538	17.975	3.1156e-06	29.72	0.00012007	0.00011969	3.3421e-05	887.35	1.3116e-06	1.3123e-06	974.31	251.75	1.3327e-06	1.3082e-06	313.12	89.193	67.791	16.65	1.3088e-06	26.895	154.537	44.659	230.295	-82.426	13.976	134.927	-82.857	-78.919	83.692	-7.109	-79.804	-76.220	-75.361	-70.398	139.310	-70.664	-8191	255	
4364.534	1	1	0	0	0.065801	0.12032	0.073177	0.13082	0.06324	0.13398	0.32997	0.064143	0.17917	0.29622	0.22083	0.027922	0.15837	0.041105	0.4313	0.11049	-3.725	-4.5938	-3.5812	-4.1312	-4.35	-3.6229	-4.6271	-4.3	-3.7188	-4.6646	-3.8563	-4.1729	-4.5	-3.8333	-4.5333	-4.0854	-22.860	253.777	190.952	214.650	212.776	185.765	134.147	257.709	177.988	86.116	149.344	-33.091	-58.248	14.953	-78.197	149.453	0.0003209	0.0002454	5.4775e-05	936.76	1.6552e-06	2.99e-06	1028	269.13	3.1081e-06	3.4024e-06	345.57	99.172	74.281	17.858	3.3197e-06	29.811	0.00011948	0.00011459	3.192e-05	875.1	1.2543e-06	1.2471e-06	955.73	248.2	1.2536e-06	1.2277e-06	308.92	88.259	66.838	16.452	1.2454e-06	26.842	58.439	6.541	-53.084	-82.533	13.590	82.103	-82.699	-78.912	190.664	65.617	-80.084	-75.942	-74.944	-70.203	90.091	-71.179	-8191	255	
4364.628	1	1	0	0	0.1468	0.070317	0.20556	0.23522	0.1191	0.058952	0.18822	0.098784	0.20527	0.11966	0.36067	0.051932	0.024984	0.19461	0.11733	0.17273	-3.4646	-4.4688	-3.8917	-4.2292	-4.2646	-3.7146	-4.4875	-4.3375	-3.6937	-4.7021	-4.1375	-4.0854	-4.5917	-3.7313	-4.3479	-4.4	-15.488	136.829	-20.513	203.475	193.285	158.651	107.495	55.143	204.894	73.685	52.741	118.429	120.242	240.192	-56.473	225.853	0.00024728	0.0004599	0.00017125	931.08	1.6519e-06	2.1454e-06	1031	269.62	5.8164e-06	3.9444e-06	347.71	99.662	74.345	17.906	7.3336e-07	29.794	0.00011437	0.00011236	3.0756e-05	868.66	1.2363e-06	1.2326e-06	957.42	248.67	1.2451e-06	1.2366e-06	311.2	88.843	67.443	16.566	1.2604e-06	26.859	65.036	-33.903	-63.699	-82.608	-22.174	6.780	-82.885	-79.040	15.921	-14.601	-79.970	-75.913	-74.925	-70.629	88.408	-71.302	-8191	255	
4364.724	1	1	0	0	0.16614	0.074538	0.27913	0.093281	0.14906	0.10794	0.11674	0.22836	0.18261	0.040572	0.10685	0.16253	0.17183	0.040914	0.079007	0.13814	-3.5104	-4.5354	-3.8771	-4.0521	-4.6813	-3.7479	-4.425	-4.5417	-3.8688	-4.5917	-4.1937	-3.8604	-4.6771	-3.9292	-4.2188	-4.5417	12.880	110.777	82.067	232.194	18.330	1.315	-91.137	230.599	260.545	-74.812	211.138	89.547	180.435	60.567	20.230	2.025	0.0002968	0.00033376	0.00019505	948.41	5.6864e-06	4.2672e-06	1044.8	272.71	1.5387e-06	3.666e-06	349.04	99.267	75.501	18.103	4.3049e-06	29.75	0.00011624	0.00011559	3.2141e-05	884.98	1.2722e-06	1.28e-06	974.14	252.15	1.2802e-06	1.283e-06	313.62	89.451	68.252	16.713	1.2822e-06	26.937	82.851	11.567	-42.216	-82.842	-35.398	34.995	-82.891	-79.089	-12.777	60.912	-80.220	-75.896	-75.494	-70.967	45.346	-70.896	-8191	255	
4364.820	1	1	0	0	0.04271	0.065101	0.26385	0.061759	0.15443	0.13651	0.13505	0.32473	0.12208	0.10713	0.14289	0.26692	0.094814	0.27538	0.077684	0.027065	-3.4188	-4.3812	-4.0542	-3.9292	-4.5583	-3.8229	-4.2521	-4.4688	-3.6688	-4.3938	-4.1625	-3.8083	-4.5667	-3.7979	-3.9917	-4.7208	195.630	136.025	191.521	-28.240	214.473	18.775	12.250	150.182	174.213	261.738	-32.628	255.251	243.336	199.825	-72.870	-3.515	0.00035667	0.00039182	0.00011733	943.32	4.2146e-06	2.0694e-06	1045	270.94	4.3191e-06	2.2005e-06	347.67	99.261	74.705	17.739	5.4474e-06	29.576	0.0001174	0.00011538	3.2076e-05	881.31	1.2653e-06	1.2416e-06	967.11	249.78	1.2494e-06	1.2399e-06	310.45	88.66	67.347	16.445	1.234e-06	26.593	59.686	82.044	-67.331	-82.642	-22.588	-27.728	-83.095	-78.778	121.556	135.032	-80.390	-76.039	-75.154	-70.670	90.937	-70.814	-8191	255	
4364.916	1	1	0	0	0.31192	0.053928	0.16796	0.16601	0.18374	0.12443	0.27454	0.14572	0.23069	0.067886	0.090223	0.18067	0.18992	0.10688	0.12358	0.18568	-3.3896	-4.2937	-4.1875	-3.7729	-4.5917	-3.9167	-3.9229	-4.6479	-3.7687	-4.3667	-4.4812	-3.5583	-4.6625	-4.0083	-3.8917	-4.5396	230.105	225.613	142.652	250.403	5.002	151.051	188.123	87.854	230.189	247.168	251.931	107.715	263.185	-19.242	-47.682	128.083	0.00030823	0.00051063	0.00010591	928.86	3.5621e-06	9.9402e-07	1024.4	268.78	2.5736e-06	6.2496e-06	343.88	98.224	73.766	17.687	1.6176e-06	29.447	0.0001135	0.00011036	3.0624e-05	867.49	1.2012e-06	1.2001e-06	952.1	247.89	1.2163e-06	1.1927e-06	308.5	88.129	66.788	16.363	1.1911e-06	26.611	104.880	15.498	-23.329	-82.749	97.448	26.010	-82.767	-78.777	145.858	74.097	-79.912	-76.136	-74.996	-70.343	-1.372	-71.014	-8191	255	
4365.013	1	1	0	0	0.088969	0.054666	0.21673	0.17621	0.12725	0.24166	0.32704	0.14561	0.14965	0.083461	0.1545	0.13133	0.14992	0.39955	0.051125	0.22859	-3.4667	-4.1771	-4.3	-3.8375	-4.4708	-4.0521	-3.9417	-4.6458	-3.8312	-4.3313	-4.4313	-3.5833	-4.4917	-3.9271	-3.7687	-4.6333	147.800	229.171	74.016	-77.154	233.682	216.455	217.407	253.598	123.802	151.795	-31.176	140.996	-83.129	-27.026	75.658	248.911	0.00014676	0.00025869	0.00012581	925.81	4.372e-06	1.4918e-06	1021.8	269.14	6.9132e-07	2.2897e-06	344.71	99.053	74.235	17.871	1.9429e-06	29.792	0.00011182	0.00010804	3.0128e-05	863.11	1.1972e-06	1.1886e-06	949.9	247.82	1.206e-06	1.2047e-06	309.63	88.478	67.168	16.491	1.1959e-06	26.794	77.139	-13.829	-58.256	-82.606	-11.009	38.072	-83.040	-79.024	192.179	66.277	-80.099	-76.210	-75.143	-70.295	21.073	-71.175	-8191	255	
4365.133	1	1	0	0	0.10864	0.08832	0.25255	0.22466	0.099943	0.082803	0.31375	0.11877	0.22538	0.02912	0.13839	0.1771	0.10489	0.18914	0.26742	0.079663	-3.4	-4.1562	-4.5146	-3.6854	-4.4667	-4.1792	-3.8354	-4.5167	-3.8979	-3.9917	-4.6271	-3.7208	-4.3771	-4.2604	-3.6021	-4.5396	-94.077	-89.151	186.130	-79.329	260.327	39.970	181.734	153.890	184.948	24.034	-66.902	-14.408	180.614	150.673	130.093	-91.625	0.00025455	0.0002216	3.9722e-05	933.76	3.8409e-06	6.3819e-06	1038.4	270.72	3.5401e-06	1.8172e-06	349.39	99.463	75.091	17.967	2.7716e-06	29.835	0.00011165	0.00011026	3.019e-05	873.01	1.2015e-06	1.195e-06	963.1	250.38	1.2058e-06	1.2041e-06	312.22	89.116	67.928	16.601	1.2159e-06	26.842	41.699	87.589	-74.499	-82.882	-59.016	54.860	-83.006	-79.131	44.241	214.923	-80.208	-76.149	-75.322	-70.694	45.176	-71.276	-8191	255	
4365.229	1	1	0	0	0.057328	0.12194	0.18776	0.20916	0.18845	0.22388	0.14808	0.12405	0.098517	0.055692	0.21162	0.097714	0.18094	0.22288	0.11479	0.075018	-3.5104	-3.8312	-4.3771	-3.7146	-4.1813	-4.4167	-3.7646	-4.6958	-4.1354	-3.8979	-4.6375	-3.75	-4.2208	-4.3938	-3.5896	-4.4896	176.072	111.014	52.359	232.050	183.255	76.218	150.395	191.545	-73.674	18.769	-12.572	110.709	149.281	221.046	116.708	222.428	0.00034228	0.00030219	0.00012341	941.17	2.4336e-06	2.1512e-06	1038.6	270.95	2.7649e-06	1.4199e-06	345.58	98.629	74.857	17.698	3.2758e-06	29.445	0.00011143	0.00010931	3.0173e-05	877.73	1.195e-06	1.2072e-06	962.83	250.03	1.194e-06	1.1791e-06	309.72	88.227	67.288	16.403	1.193e-06	26.514	91.911	-48.646	3.356	-82.435	-64.980	-15.135	-83.011	-79.239	135.875	-25.867	-80.198	-76.087	-75.229	-70.545	142.911	-71.807	-8191	255	
4365.326	1	1	0	0	0.053264	0.38802	0.13269	0.15964	0.07843	0.15403	0.10884	0.058254	0.039395	0.090783	0.098398	0.12688	0.21277	0.37011	0.20613	0.017525	-3.8208	-3.8125	-4.5021	-3.875	-4.0188	-4.3771	-3.7375	-4.4938	-4.3104	-3.7542	-4.7833	-3.9708	-4.0625	-4.5104	-3.5542	-4.4083	-87.188	-10.152	-56.773	234.291	210.414	-94.874	209.920	200.193	86.152	241.716	153.196	211.392	-55.890	213.190	154.727	253.347	0.00026357	0.00042445	0.00027264	934.66	9.7436e-07	4.4232e-06	1024.4	269.57	4.4499e-06	2.3708e-06	347.17	98.932	73.955	17.764	1.6076e-06	29.251	0.00010962	0.00010871	2.9897e-05	869.83	1.2078e-06	1.18e-06	955.11	248.61	1.1871e-06	1.1861e-06	309.75	88.003	66.871	16.351	1.1857e-06	26.491	79.220	-47.047	5.574	-82.658	30.455	65.177	-83.203	-79.222	-2.412	3.197	-80.188	-76.277	-75.341	-70.428	222.880	-70.989	-8191	255	
4365.422	1	1	0	0	0.071484	0.14405	0.20505	0.20009	0.26024	0.29427	0.22887	0.13464	0.069274	0.034469	0.17874	0.081635	0.10435	0.11624	0.13313	0.12084	-4.025	-3.6958	-4.5188	-4.0062	-4.0292	-4.4083	-3.7062	-4.5125	-4.4167	-3.8104	-4.7063	-4.0979	-3.9917	-4.6792	-3.675	-4.3688	142.979	14.315	170.083	180.819	87.269	181.640	163.210	173.162	-34.539	111.065	-85.211	136.591	153.906	-0.914	-46.682	224.773	0.00021013	0.0007294	0.0001173	934.79	4.4168e-06	2.7758e-06	1026.1	270.25	2.5006e-06	4.4917e-06	346.53	98.607	74.202	17.764	2.0555e-06	29.6	0.00010981	0.00010747	2.9888e-05	869.35	1.1946e-06	1.1639e-06	954.71	249.09	1.1788e-06	1.1824e-06	309.73	88.475	66.991	16.385	1.1919e-06	26.645	101.965	-3.454	22.507	-82.702	40.181	7.009	-83.055	-79.166	5.145	96.758	-79.895	-76.284	-75.397	-70.595	0.936	-71.386	-8191	255	
4365.518	1	1	0	0	0.1243	0.085695	0.068965	0.048123	0.12067	0.25475	0.3549	0.28556	0.19661	0.079018	0.13461	0.074847	0.087704	0.21955	0.13103	0.38415	-4.1	-3.7229	-4.7229	-4.1771	-3.85	-4.6583	-3.8438	-4.2771	-4.4688	-3.7896	-4.5396	-4.0833	-3.8958	-4.5792	-3.9146	-4.1396	58.093	-61.350	-37.673	248.608	177.243	163.889	216.390	227.673	5.532	167.371	233.571	220.766	195.152	141.580	110.185	137.527	0.00019749	0.00033756	0.00014524	936.67	5.7055e-06	3.5168e-06	1037.5	271.34	3.3294e-06	2.8348e-06	350.52	99.13	74.508	17.924	3.9507e-06	29.775	0.00010952	0.00010981	2.9851e-05	874.97	1.2063e-06	1.1802e-06	965.11	250.68	1.1918e-06	1.2025e-06	312.66	88.989	67.68	16.509	1.2112e-06	26.747	74.709	-15.306	18.378	-82.607	-90.326	45.306	-83.147	-79.509	54.609	44.905	-80.176	-76.375	-75.138	-70.150	20.316	-71.415	-8191	255	
#DATA ENDS
