BOXY.EXE: ISS Imagent and Oximeter Data Acquisition Program Version 0.80
Ascii Record File

#ACQ INFORMATION
2  Detector Channels 
16  External MUX Channels 
1  Auxiliary Channels 
5000  Waveform (CCF) Frequency (Hz)
1  Waveforms Skipped 
30  Waveforms Averaged 
1  Cycles Averaged 
16  Acquisitions per Waveform 
10.0806  Updata Rate (Hz) 

#FILE INFORMATION
TRUE -- External MUX Channel results are PARSED.
FALSE -- AC DC and Phase are NOT grouped.
TRUE -- Companion Program Settings File CREATED.
FALSE -- AC data not excluded
FALSE -- DC data not excluded
FALSE -- Phase data not excluded
FALSE -- Auxillary Chn. data not excluded
Tab delimiters

#CALIBRATION STATE
TRUE -- Waveform Calibration Values APPLIED.


#AUX CALIBRATION VALUES
Val Type	aux-1	

Term	1.0000e+00	
Factor	0.0000e+00	


#WF CALIBRATION VALUES
A = Detector Channel
Val Type	A-AC1	A-AC2	A-AC3	A-AC4	A-AC5	A-AC6	A-AC7	A-AC8	A-AC9	A-AC10	A-AC11	A-AC12	A-AC13	A-AC14	A-AC15	A-AC16	A-DC1	A-DC2	A-DC3	A-DC4	A-DC5	A-DC6	A-DC7	A-DC8	A-DC9	A-DC10	A-DC11	A-DC12	A-DC13	A-DC14	A-DC15	A-DC16	A-Ph1	A-Ph2	A-Ph3	A-Ph4	A-Ph5	A-Ph6	A-Ph7	A-Ph8	A-Ph9	A-Ph10	A-Ph11	A-Ph12	A-Ph13	A-Ph14	A-Ph15	A-Ph16	

Term	0.00000e+00	0.00000e+00	0.00000e+00	0.00000e+00	0.00000e+00	0.00000e+00	0.00000e+00	0.00000e+00	0.00000e+00	0.00000e+00	0.00000e+00	0.00000e+00	0.00000e+00	0.00000e+00	0.00000e+00	0.00000e+00	0.00000e+00	0.00000e+00	0.00000e+00	0.00000e+00	0.00000e+00	0.00000e+00	0.00000e+00	0.00000e+00	0.00000e+00	0.00000e+00	0.00000e+00	0.00000e+00	0.00000e+00	0.00000e+00	0.00000e+00	0.00000e+00	0.00000e+00	0.00000e+00	0.00000e+00	0.00000e+00	0.00000e+00	0.00000e+00	0.00000e+00	0.00000e+00	0.00000e+00	0.00000e+00	0.00000e+00	0.00000e+00	0.00000e+00	0.00000e+00	0.00000e+00	0.00000e+00	
Factor	1.00000e+00	1.00000e+00	1.00000e+00	1.00000e+00	1.00000e+00	1.00000e+00	1.00000e+00	1.00000e+00	1.00000e+00	1.00000e+00	1.00000e+00	1.00000e+00	1.00000e+00	1.00000e+00	1.00000e+00	1.00000e+00	1.00000e+00	1.00000e+00	1.00000e+00	1.00000e+00	1.00000e+00	1.00000e+00	1.00000e+00	1.00000e+00	1.00000e+00	1.00000e+00	1.00000e+00	1.00000e+00	1.00000e+00	1.00000e+00	1.00000e+00	1.00000e+00	X	X	X	X	X	X	X	X	X	X	X	X	X	X	X	X	

B = Detector Channel
Val Type	B-AC1	B-AC2	B-AC3	B-AC4	B-AC5	B-AC6	B-AC7	B-AC8	B-AC9	B-AC10	B-AC11	B-AC12	B-AC13	B-AC14	B-AC15	B-AC16	B-DC1	B-DC2	B-DC3	B-DC4	B-DC5	B-DC6	B-DC7	B-DC8	B-DC9	B-DC10	B-DC11	B-DC12	B-DC13	B-DC14	B-DC15	B-DC16	B-Ph1	B-Ph2	B-Ph3	B-Ph4	B-Ph5	B-Ph6	B-Ph7	B-Ph8	B-Ph9	B-Ph10	B-Ph11	B-Ph12	B-Ph13	B-Ph14	B-Ph15	B-Ph16	

Term	0.00000e+00	0.00000e+00	0.00000e+00	0.00000e+00	0.00000e+00	0.00000e+00	0.00000e+00	0.00000e+00	0.00000e+00	0.00000e+00	0.00000e+00	0.00000e+00	0.00000e+00	0.00000e+00	0.00000e+00	0.00000e+00	0.00000e+00	0.00000e+00	0.00000e+00	0.00000e+00	0.00000e+00	0.00000e+00	0.00000e+00	0.00000e+00	0.00000e+00	0.00000e+00	0.00000e+00	0.00000e+00	0.00000e+00	0.00000e+00	0.00000e+00	0.00000e+00	-2.38903e+02	-1.30801e+02	-1.63948e+02	-1.83590e+02	-1.19141e+02	-8.70241e+01	-1.56897e+02	-1.62015e+02	-7.30551e+01	-8.26205e+01	-1.70590e+02	-1.70867e+02	-1.80044e+02	-1.77413e+02	-7.81630e+01	-1.50406e+02	
Factor	6.10723e-05	1.20878e-04	3.70736e-05	1.67276e-01	1.13400e-06	1.16405e-06	1.90682e-01	6.00034e-02	1.25406e-06	1.06024e-06	9.97472e-02	3.83765e-02	2.97706e-02	1.08004e-02	1.14664e-06	1.57894e-02	4.97580e-07	5.02158e-07	1.39475e-07	8.01861e-02	5.49628e-09	5.49947e-09	8.54324e-02	2.82743e-02	5.50406e-09	5.50380e-09	4.40950e-02	1.66559e-02	1.35827e-02	4.90122e-03	5.51462e-09	6.83088e-03	X	X	X	X	X	X	X	X	X	X	X	X	X	X	X	X	



#DISTANCE SETTINGS
A = Detector Channel
A-1	A-2	A-3	A-4	A-5	A-6	A-7	A-8	A-9	A-10	A-11	A-12	A-13	A-14	A-15	A-16	

2.5000e+00	3.0000e+00	2.5000e+00	3.0000e+00	2.0000e+00	3.0000e+00	1.5000e+00	3.0000e+00	3.0000e+00	3.0000e+00	3.0000e+00	3.0000e+00	3.0000e+00	3.0000e+00	1.5000e+00	3.0000e+00	

B = Detector Channel
B-1	B-2	B-3	B-4	B-5	B-6	B-7	B-8	B-9	B-10	B-11	B-12	B-13	B-14	B-15	B-16	

1.0000e+01	1.0000e+01	1.0000e+01	1.4400e+00	1.0000e+01	1.0000e+01	1.5100e+00	1.9400e+00	1.0000e+01	1.0000e+01	1.9900e+00	2.4900e+00	2.4100e+00	2.9000e+00	1.0000e+01	2.9800e+00	




#DATA BEGINS
time	group	step	mark	flag	A-AC1	A-AC2	A-AC3	A-AC4	A-AC5	A-AC6	A-AC7	A-AC8	A-AC9	A-AC10	A-AC11	A-AC12	A-AC13	A-AC14	A-AC15	A-AC16	A-DC1	A-DC2	A-DC3	A-DC4	A-DC5	A-DC6	A-DC7	A-DC8	A-DC9	A-DC10	A-DC11	A-DC12	A-DC13	A-DC14	A-DC15	A-DC16	A-Ph1	A-Ph2	A-Ph3	A-Ph4	A-Ph5	A-Ph6	A-Ph7	A-Ph8	A-Ph9	A-Ph10	A-Ph11	A-Ph12	A-Ph13	A-Ph14	A-Ph15	A-Ph16	B-AC1	B-AC2	B-AC3	B-AC4	B-AC5	B-AC6	B-AC7	B-AC8	B-AC9	B-AC10	B-AC11	B-AC12	B-AC13	B-AC14	B-AC15	B-AC16	B-DC1	B-DC2	B-DC3	B-DC4	B-DC5	B-DC6	B-DC7	B-DC8	B-DC9	B-DC10	B-DC11	B-DC12	B-DC13	B-DC14	B-DC15	B-DC16	B-Ph1	B-Ph2	B-Ph3	B-Ph4	B-Ph5	B-Ph6	B-Ph7	B-Ph8	B-Ph9	B-Ph10	B-Ph11	B-Ph12	B-Ph13	B-Ph14	B-Ph15	B-Ph16	aux-1	digaux	

2950.746	1	1	0	768	0.08462	0.14764	0.15241	0.085892	0.1949	0.19081	0.16448	0.34666	0.13274	0.076044	0.1504	0.070052	0.27911	0.18891	0.19988	0.10792	-3.8354	-4.4938	-3.5583	-4.525	-4.375	-3.5438	-4.8167	-3.9292	-3.8917	-4.7458	-3.6271	-4.4812	-4.3333	-3.475	-4.7396	-3.8667	330.286	185.940	236.038	48.351	324.305	197.786	49.356	61.461	176.648	117.778	304.173	296.917	250.079	251.996	292.850	162.157	0.00026921	0.00053297	1.0798e-05	1107	2.8421e-06	2.0515e-06	1225	219.79	5.2197e-06	2.4834e-06	286.99	79.725	61.123	18.267	3.6458e-06	25.797	0.0002139	0.00021159	5.8537e-05	1057.6	2.3214e-06	2.3155e-06	1161	213.22	2.3349e-06	2.2946e-06	271.63	76.79	59.871	18.226	2.3021e-06	25.375	59.300	123.094	202.100	-0.629	212.199	173.805	-0.385	6.751	54.637	303.543	6.612	14.222	13.997	21.047	67.131	20.517	-8191	255	
2950.842	1	1	0	0	0.16326	0.12304	0.31529	0.43324	0.064336	0.1722	0.11075	0.15651	0.032385	0.22753	0.11153	0.16664	0.23272	0.14855	0.18146	0.092173	-3.5062	-4.8375	-3.2875	-4.3792	-4.4354	-3.5396	-4.7104	-4.0333	-3.7646	-4.7542	-3.5896	-4.2625	-4.6604	-3.5208	-4.4292	-3.975	86.740	263.228	184.958	306.719	320.383	127.924	252.098	303.354	12.720	19.344	324.306	153.646	49.182	102.281	153.661	224.244	0.00051198	0.00027939	9.2894e-05	1113.8	4.8207e-06	4.6509e-06	1223.5	220.5	4.706e-06	4.6638e-06	287.25	79.222	61.523	18.219	5.1414e-06	25.678	0.00021121	0.00021022	5.8083e-05	1058.8	2.309e-06	2.289e-06	1160.3	213.01	2.3064e-06	2.2801e-06	271.36	76.573	59.862	18.157	2.3064e-06	25.355	-1.810	118.116	9.682	-0.364	120.785	106.177	-0.288	7.098	205.511	134.942	6.580	14.294	14.263	21.133	189.786	20.007	-8191	255	
2950.938	1	1	0	0	0.058575	0.062354	0.14519	0.21036	0.14393	0.1825	0.23549	0.083899	0.211	0.12618	0.091685	0.21348	0.21174	0.11971	0.1012	0.073662	-3.4083	-4.5958	-3.5458	-4.2917	-4.4396	-3.4875	-4.6979	-4.1458	-3.7479	-4.6792	-3.875	-4.1333	-4.6458	-3.4146	-4.4938	-4.1125	161.963	157.188	212.447	338.466	294.695	253.598	260.676	53.981	180.601	195.803	153.017	340.746	30.702	330.013	255.756	157.323	0.00055395	0.00080305	3.0591e-05	1105.7	2.3649e-06	5.159e-06	1224.2	221.04	6.0166e-06	3.8198e-06	285.88	79.848	61.476	18.055	5.5991e-06	25.731	0.00021152	0.00020864	5.7875e-05	1056.2	2.3108e-06	2.3226e-06	1161.6	213.17	2.3134e-06	2.2914e-06	271.8	76.564	59.967	18.138	2.2822e-06	25.351	9.861	75.646	58.467	-0.668	44.387	134.942	-0.305	7.037	140.550	73.245	6.537	13.889	14.329	21.491	124.654	20.736	-8191	255	
2951.034	1	1	0	0	0.31912	0.26086	0.12403	0.28909	0.11562	0.26822	0.27465	0.15235	0.11355	0.016196	0.17955	0.33796	0.042984	0.25595	0.16518	0.23151	-3.3792	-4.6292	-3.8	-4.3292	-4.5771	-3.4271	-4.5354	-4.0938	-3.5354	-4.6792	-3.7875	-4.0604	-4.6479	-3.2583	-4.4229	-4.3667	323.827	287.950	226.557	345.970	36.316	288.032	283.718	28.157	260.791	210.432	8.359	102.136	-3.155	50.964	160.456	37.318	0.00046333	0.00023886	6.1498e-05	1108.3	3.799e-06	4.1362e-06	1225.5	219.61	6.6013e-06	2.4812e-06	288.55	79.739	61.272	18.193	4.4824e-06	25.632	0.00020978	0.00020876	5.845e-05	1056.8	2.2961e-06	2.2881e-06	1160.2	212.63	2.3223e-06	2.2927e-06	271.62	76.688	59.9	18.18	2.2805e-06	25.252	55.388	61.386	52.814	-0.400	276.178	196.416	-0.089	7.044	115.798	192.324	6.528	14.064	14.205	21.075	276.431	20.921	-8191	255	
2951.130	1	1	0	0	0.071635	0.21557	0.19677	0.26511	0.10635	0.21409	0.24832	0.086055	0.07989	0.14398	0.24551	0.33923	0.070284	0.18063	0.040519	0.083499	-3.2229	-4.7937	-3.7062	-4.05	-4.6229	-3.6937	-4.5813	-4.5062	-3.4562	-4.6333	-3.9458	-3.9708	-4.6042	-3.6167	-4.2688	-4.3354	9.751	152.686	24.626	315.123	19.397	242.502	227.568	327.872	238.078	279.305	323.822	-8.275	347.035	106.202	157.391	164.458	0.00033814	6.5399e-05	0.00016184	1106.9	4.0976e-06	2.0812e-06	1222.9	220.65	7.1218e-06	5.5642e-06	285.5	79.525	61.728	18.104	3.7334e-06	25.779	0.00020995	0.0002069	5.7871e-05	1055.3	2.2825e-06	2.2682e-06	1161	213.14	2.2936e-06	2.2924e-06	271.44	76.625	59.933	18.116	2.2925e-06	25.303	9.381	343.137	168.697	-0.300	190.154	33.299	-0.328	6.962	19.380	91.276	6.843	13.854	14.273	21.047	269.692	21.020	-8191	255	
2951.227	1	1	0	0	0.12491	0.16601	0.040243	0.29425	0.027101	0.12467	0.22613	0.074027	0.16503	0.3017	0.25042	0.16843	0.22389	0.17154	0.19507	0.032917	-3.275	-4.5813	-3.825	-4.05	-4.55	-3.5708	-4.55	-4.5146	-3.5	-4.6354	-4.0417	-3.9021	-4.6396	-3.6562	-4.2833	-4.3812	58.862	258.504	9.102	276.443	265.499	22.130	260.685	226.279	14.235	139.166	32.192	69.872	225.701	159.193	70.289	176.183	0.00046041	0.00029365	7.0691e-05	1106.7	7.2782e-06	2.4044e-06	1224.6	220.02	4.7344e-06	2.9177e-06	285.67	80.052	61.968	18.054	7.9692e-07	25.749	0.00020915	0.00020975	5.7712e-05	1055.3	2.2951e-06	2.2806e-06	1161.8	213.11	2.3134e-06	2.297e-06	271.56	76.691	59.948	18.131	2.286e-06	25.324	22.565	21.413	266.494	-0.343	210.399	209.490	-0.216	7.267	156.254	59.054	7.029	14.221	14.236	20.957	137.350	20.670	-8191	255	
2951.347	1	1	0	0	0.20498	0.12102	0.056814	0.077075	0.22571	0.23422	0.30882	0.16466	0.16553	0.082727	0.05893	0.11963	0.29197	0.15892	0.083643	0.1835	-3.2583	-4.5646	-3.9	-3.6708	-4.4771	-3.6229	-4.2917	-4.6083	-3.4708	-4.5417	-4.0458	-3.6396	-4.5521	-3.4208	-4.0604	-4.5417	71.695	65.960	10.043	296.390	155.767	189.068	260.987	317.962	68.959	212.405	142.556	265.944	274.632	267.253	328.251	237.943	0.0003403	0.00045025	3.5485e-05	1109.3	7.4254e-06	6.5747e-07	1225.5	221.21	3.2452e-06	3.294e-06	286.53	79.629	61.482	18.258	1.9839e-06	25.935	0.00021081	0.00020673	5.7829e-05	1057.5	2.2858e-06	2.2993e-06	1160.8	213.15	2.3078e-06	2.288e-06	271.51	76.495	59.912	18.172	2.3029e-06	25.38	39.207	74.778	204.739	-0.510	131.640	273.435	-0.205	7.071	155.340	167.169	6.918	14.116	14.828	21.223	100.328	20.576	-8191	255	
2951.443	1	1	0	0	0.2326	0.081078	0.10137	0.27317	0.14286	0.16607	0.054149	0.13582	0.14921	0.065298	0.10034	0.21994	0.13347	0.19948	0.42415	0.20042	-3.1542	-4.55	-4.1438	-3.7583	-4.5292	-3.6604	-4.2833	-4.5271	-3.55	-4.4208	-4.1833	-3.7854	-4.475	-3.5917	-3.9521	-4.5813	260.126	108.799	89.356	250.999	330.002	259.434	232.427	198.792	14.600	38.118	132.108	33.443	173.877	69.686	185.749	327.206	0.00031173	0.00036437	0.00011684	1108.9	4.8151e-06	5.8145e-06	1224.6	221.08	3.0635e-07	1.0372e-06	285.85	79.525	61.735	18.173	5.4023e-06	25.817	0.00020892	0.00020791	5.822e-05	1058.2	2.2782e-06	2.2928e-06	1161.9	213.49	2.2981e-06	2.2906e-06	271.77	76.344	59.868	18.132	2.3023e-06	25.344	8.916	76.807	313.151	-0.238	90.364	116.420	-0.048	7.257	323.884	172.007	6.716	14.378	14.607	21.635	168.375	20.345	-8191	255	
2951.539	1	1	0	0	0.050255	0.12584	0.11534	0.31711	0.22954	0.15976	0.086345	0.17211	0.20758	0.039381	0.13993	0.14261	0.022621	0.14331	0.047843	0.22224	-3.1021	-4.3771	-4.1854	-3.7896	-4.7438	-3.7062	-4.1854	-4.5729	-3.3583	-4.4292	-4.3042	-3.4375	-4.7125	-3.8958	-3.6125	-4.6813	26.455	126.270	185.984	333.973	91.416	75.541	246.990	281.380	240.327	230.296	264.873	110.344	269.648	-1.549	-5.057	189.287	0.00052185	0.00024941	0.00016928	1110.8	2.4408e-06	1.6685e-06	1226.1	220.48	2.1426e-06	2.881e-06	287.36	78.889	61.45	18.171	2.2506e-06	25.889	0.00021107	0.00020981	5.8435e-05	1058.1	2.294e-06	2.3022e-06	1162.2	213.11	2.3001e-06	2.3039e-06	271.91	76.314	59.838	18.138	2.3104e-06	25.368	34.744	43.681	346.530	-0.450	4.954	102.129	-0.418	7.324	331.136	286.576	7.195	14.111	13.963	21.459	77.813	20.383	-8191	255	
2951.636	1	1	0	0	0.073133	0.071838	0.12989	0.17663	0.28659	0.13436	0.084235	0.090464	0.26537	0.22726	0.16033	0.19135	0.10112	0.13893	0.077053	0.12268	-2.8312	-4.55	-4.3313	-3.5312	-4.7937	-3.8646	-3.7542	-4.9125	-3.3604	-4.2396	-4.5208	-3.4562	-4.7	-3.9146	-3.7792	-4.6813	346.795	274.742	132.154	346.643	280.270	176.556	310.622	338.461	124.655	320.530	16.595	151.412	229.325	-1.786	97.308	341.701	0.00036124	0.00030968	8.897e-05	1109.3	2.6691e-06	1.6836e-06	1221.6	221.18	5.2532e-06	2.4473e-06	285.65	79.396	61.413	18.036	8.3473e-06	25.782	0.00021021	0.00020819	5.8753e-05	1056.4	2.2891e-06	2.2896e-06	1159.6	213.51	2.2888e-06	2.2948e-06	271.2	76.432	59.845	18.076	2.2962e-06	25.335	347.675	25.361	4.062	-0.568	128.568	-7.965	-0.325	7.097	124.560	274.944	6.680	13.860	14.267	20.906	177.560	20.450	-8191	255	
2951.730	1	1	0	0	0.16792	0.17365	0.047468	0.053868	0.13866	0.14946	0.25472	0.14504	0.16212	0.14773	0.088537	0.1482	0.16165	0.1725	0.13878	0.036085	-3.4437	-4.025	-4.25	-3.7667	-4.5687	-3.8792	-3.9146	-4.5458	-3.7917	-4.2729	-4.5	-3.6833	-4.5646	-3.9354	-3.5563	-4.5188	209.186	142.497	13.504	10.698	200.480	329.648	269.994	246.791	35.893	170.422	347.738	25.920	292.151	22.079	6.153	170.517	0.00060862	0.00058249	5.682e-05	1109.7	2.2272e-06	5.5537e-06	1223.2	221.72	4.4999e-06	1.5947e-06	285.66	79.348	61.533	18.177	5.9144e-07	25.525	0.00021053	0.00021034	5.7496e-05	1056	2.2953e-06	2.2943e-06	1161.4	213.28	2.2867e-06	2.2983e-06	270.95	76.427	59.841	18.124	2.2827e-06	25.358	44.644	159.094	87.161	-0.514	11.873	177.680	-0.423	7.054	240.388	43.733	6.825	13.969	14.102	20.999	236.454	20.581	-8191	255	
2951.826	1	1	0	0	0.27563	0.20058	0.22737	0.33903	0.12867	0.1034	0.35048	0.30717	0.10006	0.24169	0.32748	0.36503	0.093704	0.039396	0.16791	0.069668	-3.1937	-4.1417	-4.5292	-3.4646	-4.3771	-4.2854	-3.7396	-4.8667	-3.5583	-4.0542	-4.6438	-3.5563	-4.6333	-4.0146	-3.3563	-4.8146	213.760	56.030	96.539	290.822	285.068	54.265	304.866	297.900	247.919	217.997	279.751	326.503	47.856	237.263	313.797	219.454	0.00052855	7.2631e-05	0.00015694	1104.2	9.0672e-07	1.7155e-06	1223.1	220.98	3.9865e-06	6.3383e-06	287.47	79.4	61.796	18.121	4.5049e-06	25.964	0.00021041	0.00020928	5.7902e-05	1054	2.2983e-06	2.2687e-06	1160.1	213.24	2.3097e-06	2.3107e-06	271.45	76.216	60.056	18.093	2.3007e-06	25.399	67.420	321.878	74.332	-0.416	174.237	36.018	-0.311	7.075	115.720	190.266	6.480	14.125	14.508	21.334	290.842	21.009	-8191	255	
2951.922	1	1	0	0	0.12576	0.076574	0.18567	0.13934	0.16745	0.053508	0.075077	0.11196	0.068863	0.12738	0.15997	0.15495	0.20097	0.11972	0.013911	0.077131	-3.2062	-4.0188	-4.4646	-3.4208	-4.4979	-4.2667	-3.7646	-4.8812	-3.6208	-3.7979	-4.7521	-3.4229	-4.4083	-4.1438	-3.5271	-4.6854	3.023	107.097	309.019	327.941	13.197	111.021	320.149	292.170	52.655	336.397	301.493	68.551	84.871	245.022	86.320	105.955	0.0004566	7.695e-05	0.00015022	1105.7	6.881e-06	6.3065e-06	1223.1	221.74	2.2406e-06	1.2687e-06	285.98	79.109	61.514	18.181	2.6606e-06	25.882	0.00021104	0.00020926	5.8126e-05	1054.7	2.3031e-06	2.3031e-06	1159	213.53	2.2985e-06	2.2824e-06	271.57	76.259	59.952	18.136	2.2786e-06	25.373	59.770	155.609	70.521	-0.417	151.499	132.672	-0.349	7.140	4.781	283.022	6.849	14.124	14.565	21.139	140.379	20.530	-8191	255	
2952.043	1	1	0	0	0.21362	0.017874	0.099452	0.17922	0.09359	0.15888	0.20149	0.057238	0.082263	0.22833	0.073761	0.19777	0.45791	0.27341	0.087657	0.089763	-3.6542	-3.8833	-4.475	-3.6979	-4.3146	-4.2833	-3.7521	-4.7583	-3.7896	-3.9646	-4.7083	-3.7313	-4.3438	-4.1208	-3.6458	-4.7458	266.219	119.996	127.998	36.592	75.207	115.629	321.525	325.663	54.713	-5.365	21.896	296.456	307.911	217.693	-4.967	169.389	0.00051921	0.00011424	0.00010471	1105.3	3.4694e-07	2.3106e-06	1216.3	221.87	2.1318e-06	3.8671e-06	288.16	79.019	61.566	18.109	4.1366e-06	25.815	0.00020844	0.00020847	5.7612e-05	1054.9	2.2968e-06	2.2973e-06	1156.7	213.19	2.2961e-06	2.2961e-06	271.51	76.283	59.734	18.105	2.2955e-06	25.33	68.335	108.192	24.961	-0.481	88.369	60.361	-0.407	7.396	208.998	171.692	6.714	14.023	13.989	20.802	123.877	20.672	-8191	255	
2952.139	1	1	0	0	0.093107	0.085873	0.058027	0.13426	0.091947	0.13247	0.20685	0.13633	0.058595	0.20572	0.16781	0.039535	0.18781	0.16636	0.11093	0.21386	-3.4208	-4.05	-4.4354	-3.4979	-4.3812	-4.4771	-3.6396	-4.6833	-4.0646	-3.7833	-4.6813	-3.5833	-4.2021	-4.35	-3.4417	-4.7646	28.292	184.969	260.922	322.773	275.640	241.135	273.367	286.253	154.228	10.132	287.303	213.156	227.068	234.504	219.569	327.056	0.00029144	0.00039902	0.0002267	1105.8	3.4978e-06	4.8991e-06	1224.7	222.07	2.1582e-06	5.4084e-06	286.48	79.466	61.346	18.113	1.2093e-06	25.876	0.00021008	0.00020825	5.7814e-05	1055.2	2.2994e-06	2.2777e-06	1159.4	213.67	2.289e-06	2.2712e-06	271.32	76.41	59.937	18.08	2.2877e-06	25.406	19.928	108.945	84.864	-0.564	306.157	207.586	-0.183	7.170	112.267	151.559	6.717	13.507	14.292	20.728	119.445	21.014	-8191	255	
2952.235	1	1	0	0	0.27979	0.24817	0.090457	0.28403	0.072059	0.084601	0.064352	0.25414	0.17216	0.31996	0.17069	0.31743	0.19388	0.14081	0.14427	0.14058	-3.6771	-3.6229	-4.6438	-3.7	-4.1062	-4.4542	-3.3771	-4.6167	-3.9021	-3.8042	-4.75	-3.625	-4.2146	-4.5521	-3.3937	-4.7458	298.161	-5.905	331.949	235.274	258.217	34.564	282.431	297.947	165.672	52.938	295.515	347.514	37.620	309.906	255.175	310.959	0.00029946	0.00046926	2.4994e-05	1106.6	2.5018e-06	8.6319e-06	1218	220.3	3.7379e-06	2.4994e-06	285.4	79.763	61.526	18.169	6.5365e-06	25.952	0.00020848	0.00020662	5.8113e-05	1053.9	2.2782e-06	2.2613e-06	1157.5	212.95	2.2706e-06	2.278e-06	271.4	76.31	60.013	18.13	2.2995e-06	25.345	52.579	54.485	336.363	-0.643	160.254	240.565	-0.423	7.595	187.625	163.165	6.719	13.965	14.811	21.309	36.938	20.613	-8191	255	
2952.307	1	1	0	0	0.29472	0.14207	0.049288	0.20371	0.23478	0.20556	0.097122	0.1043	0.21152	0.32465	0.061433	0.058665	0.084232	0.16498	0.13234	0.17201	-3.6688	-3.65	-4.7146	-3.7292	-4.0687	-4.4354	-3.5333	-4.6104	-3.8875	-3.4813	-4.6708	-3.5479	-4.0292	-4.6062	-3.4458	-4.6042	77.727	-8.750	189.997	328.657	306.172	267.577	283.337	312.515	160.333	282.101	33.478	108.917	256.047	5.593	111.659	1.451	0.00057226	0.00055633	8.464e-05	1103.5	8.4399e-06	3.9349e-06	1223.7	220.83	6.4379e-06	1.7415e-06	287.43	79.715	61.943	18.1	3.325e-06	25.865	0.00020916	0.00020889	5.7987e-05	1054.1	2.2859e-06	2.2884e-06	1158.9	213.14	2.2932e-06	2.2644e-06	271.9	76.298	60.067	18.17	2.3001e-06	25.413	49.077	341.415	310.057	-0.623	65.719	-0.790	-0.307	7.056	86.036	125.319	6.838	14.343	14.105	20.983	241.553	20.754	-8191	255	
2952.428	1	1	0	0	0.092703	0.065966	0.15941	0.13649	0.16332	0.072182	0.065647	0.13932	0.20733	0.22229	0.26579	0.25288	0.18582	0.090466	0.11042	0.082933	-3.8875	-3.5417	-4.6396	-3.6813	-4.1438	-4.5708	-3.5187	-4.3021	-4.0729	-3.5708	-4.6833	-3.6625	-4.0188	-4.6562	-3.3917	-4.4208	152.241	332.116	78.684	319.906	96.513	338.842	304.366	333.154	270.780	142.166	86.636	345.098	248.277	46.152	234.107	99.239	0.00035406	0.00034053	0.00027038	1104.8	2.2906e-06	6.1696e-07	1220.8	221.29	2.2708e-06	3.787e-06	287.24	79.464	61.691	18.149	3.9319e-06	25.963	0.00021163	0.00021034	5.7842e-05	1055	2.3147e-06	2.3058e-06	1158.7	213.4	2.3135e-06	2.312e-06	271.65	76.309	59.967	18.189	2.3302e-06	25.451	31.456	38.978	74.519	-0.600	176.899	31.314	-0.545	6.950	205.072	114.628	6.733	13.931	13.968	20.898	40.337	20.695	-8191	255	
2952.524	1	1	0	0	0.12105	0.14137	0.067354	0.13397	0.11222	0.24581	0.38216	0.0524	0.093822	0.10742	0.21147	0.019134	0.12583	0.11395	0.37345	0.22318	-3.8333	-3.5646	-4.5229	-3.9229	-3.95	-4.6188	-3.55	-4.1875	-3.8854	-3.4583	-4.7188	-3.7917	-3.9062	-4.675	-3.3937	-4.35	104.269	252.134	136.295	209.826	146.297	68.380	304.174	268.466	2.204	87.215	7.122	318.391	-10.861	232.611	150.301	345.794	0.00040684	0.00050965	0.00010615	1104.8	4.8968e-06	5.7615e-06	1223.3	221.9	5.4363e-06	5.4686e-06	287.97	79.374	61.886	18.191	1.2865e-06	25.824	0.00021392	0.00021188	5.9182e-05	1053.2	2.3332e-06	2.3506e-06	1158.7	214.02	2.3512e-06	2.3678e-06	272.99	76.498	60.136	18.204	2.3778e-06	25.504	16.423	317.850	89.348	-0.703	95.297	112.156	-0.512	7.113	202.768	128.329	6.850	14.291	14.497	21.001	97.764	21.011	-8191	255	
2952.620	1	1	0	0	0.13664	0.11884	0.18116	0.15543	0.1173	0.015959	0.15943	0.1868	0.0065066	0.078162	0.21284	0.12866	0.25163	0.19921	0.10252	0.26663	-4.0375	-3.5396	-4.7729	-4.0917	-3.7562	-4.5896	-3.7458	-4.4292	-4.2667	-3.4958	-4.7917	-3.9104	-3.7854	-4.6208	-3.4625	-4.2271	57.247	330.588	275.135	294.737	271.711	173.899	347.713	251.454	202.343	32.202	174.647	302.911	309.737	107.627	77.257	233.751	0.0004133	0.00063173	7.6054e-05	1106.2	3.6374e-06	1.4215e-06	1223.5	220.74	2.8588e-06	4.955e-06	286.69	79.363	61.429	18.24	3.2955e-06	25.705	0.00021338	0.00021532	5.9578e-05	1054.7	2.3552e-06	2.3317e-06	1160.5	213.94	2.3472e-06	2.335e-06	272.76	76.592	60.097	18.225	2.3548e-06	25.443	0.139	51.960	119.698	-0.564	107.985	297.112	-0.479	7.226	282.848	181.448	6.551	14.216	14.593	21.184	162.489	21.044	-8191	255	
2952.739	1	1	0	0	0.058738	0.14359	0.14046	0.097586	0.22617	0.083807	0.16711	0.19727	0.085949	0.33607	0.037833	0.13071	0.29202	0.23324	0.19517	0.038736	-4.1625	-3.4875	-4.4875	-4.0687	-3.675	-4.7042	-3.7208	-4.275	-4.4812	-3.4229	-4.7479	-4.0333	-3.5521	-4.6333	-3.6896	-4.0625	2.863	323.974	227.698	-1.465	108.199	79.603	9.719	268.637	276.164	244.998	177.361	135.967	54.491	38.401	309.107	225.879	0.00042896	0.00052233	9.2238e-05	1102.6	3.0026e-06	1.6939e-06	1219.1	220.39	2.529e-06	1.5545e-06	287.48	79.747	61.482	18.146	6.6798e-06	25.84	0.00021326	0.00021395	5.9298e-05	1054.5	2.3246e-06	2.3315e-06	1158	213.78	2.3089e-06	2.3266e-06	271.89	76.658	59.988	18.183	2.3358e-06	25.435	93.082	74.567	86.245	-0.669	133.069	43.512	-0.460	7.490	212.510	39.689	7.068	13.873	14.358	20.960	128.872	20.894	-8191	255	
2952.835	1	1	0	0	0.16382	0.10378	0.17979	0.084567	0.29966	0.072293	0.027161	0.0038204	0.22946	0.18061	0.15094	0.15098	0.20077	0.039635	0.12825	0.11913	-4.0667	-3.4896	-4.3708	-4.1813	-3.5229	-4.6979	-3.8896	-4.1375	-4.5021	-3.4625	-4.4437	-4.2375	-3.7125	-4.6646	-3.7021	-4.1813	87.032	46.750	256.716	328.623	249.073	306.481	247.186	296.155	149.970	333.286	157.945	302.116	243.272	289.770	9.969	179.754	0.00048007	0.00066888	0.00014093	1108.1	4.9121e-06	2.4915e-06	1222.6	220.95	4.2146e-06	3.1932e-06	287.16	78.961	62.295	18.173	2.6434e-06	25.955	0.00021183	0.000214	5.9153e-05	1055	2.338e-06	2.33e-06	1159.2	213.85	2.332e-06	2.3361e-06	272.15	76.388	60.218	18.21	2.3266e-06	25.483	104.066	48.455	333.263	-0.649	142.016	143.205	-0.319	7.342	239.564	208.759	7.242	13.791	14.461	20.773	96.315	21.217	-8191	255	
2952.908	1	1	0	0	0.10415	0.20276	0.24571	0.19942	0.21978	0.08291	0.23342	0.13981	0.16839	0.12499	0.19498	0.35596	0.1667	0.15489	0.11495	0.14639	-4.1	-3.4813	-4.6604	-4.4104	-3.6229	-4.6854	-3.8312	-4.0604	-4.6896	-3.6729	-4.5188	-4.2354	-3.7396	-4.7812	-3.6729	-3.9854	65.183	248.110	153.817	212.615	-3.967	224.767	220.744	-8.033	223.949	204.824	330.019	9.436	182.480	300.680	69.315	22.858	0.00040468	0.00066049	0.0001239	1108.5	9.6542e-07	2.4906e-06	1222.5	221.84	4.804e-06	1.9024e-06	285.85	79.601	61.84	18.111	3.8287e-06	25.772	0.0002141	0.00021408	5.9562e-05	1056	2.3524e-06	2.333e-06	1159.1	214.11	2.3652e-06	2.3526e-06	272.05	76.491	60.083	18.211	2.3412e-06	25.41	43.853	333.024	146.865	-0.702	158.588	13.720	-0.609	7.160	92.458	49.226	7.067	14.040	14.182	21.491	82.270	20.431	-8191	255	
2953.027	1	1	0	0	0.15836	0.21252	0.10267	0.14773	0.11435	0.045299	0.16073	0.21145	0.20999	0.065638	0.26836	0.17972	0.11053	0.059789	0.27057	0.074133	-4.1792	-3.6604	-4.4292	-4.375	-3.6437	-4.5958	-4.025	-3.8542	-4.475	-3.4875	-4.3979	-4.3688	-3.5854	-4.7375	-3.9833	-3.8125	134.403	133.478	192.575	299.057	238.370	198.259	250.129	292.758	30.433	191.156	343.537	348.548	120.856	50.495	338.665	184.279	0.00039558	0.00025553	8.3557e-05	1097.9	5.5598e-06	8.39e-06	1217.5	222.05	3.8592e-06	6.1709e-06	287.91	79.153	61.271	18.227	6.1757e-06	26.003	0.00021475	0.00021427	5.8957e-05	1054.2	2.3649e-06	2.3423e-06	1158.3	213.99	2.3416e-06	2.326e-06	272.06	76.451	60.015	18.217	2.3433e-06	25.472	39.531	120.661	343.882	-0.592	147.017	66.829	-0.706	7.132	301.964	219.329	6.936	13.915	14.245	21.136	156.028	20.568	-8191	255	
2953.123	1	1	0	0	0.23679	0.053905	0.056037	0.1178	0.098819	0.164	0.08924	0.23474	0.2202	0.26313	0.27657	0.21396	0.16389	0.11113	0.32776	0.14117	-4.3375	-3.4708	-4.2646	-4.4667	-3.4521	-4.7104	-3.9979	-3.9729	-4.7458	-3.4458	-4.2521	-4.3625	-3.5396	-4.4917	-3.7146	-3.6708	331.506	317.193	151.236	269.029	42.178	80.532	273.386	4.390	207.816	299.269	344.975	254.549	331.879	267.668	68.880	284.350	0.0002712	0.00024216	0.00025849	1104.6	1.0033e-06	5.9525e-06	1225.5	221.06	2.0022e-06	2.3639e-06	289.32	79.39	61.559	18.238	5.8844e-06	26.039	0.00021398	0.00021449	5.8904e-05	1054	2.3493e-06	2.3326e-06	1160.5	214.21	2.341e-06	2.3497e-06	272.35	76.477	59.99	18.179	2.3355e-06	25.409	37.951	255.566	130.924	-0.477	316.603	27.335	-0.190	7.246	300.844	262.302	6.818	14.073	14.316	20.953	99.123	20.862	-8191	255	
2953.219	1	1	0	0	0.11902	0.055944	0.24274	0.089748	0.075663	0.1742	0.25274	0.16675	0.038212	0.11239	0.21413	0.17286	0.19181	0.19948	0.18479	0.060584	-4.2146	-3.5938	-4.1833	-4.4021	-3.3542	-4.6771	-4.1375	-3.5458	-4.6625	-3.5729	-4.2646	-4.5833	-3.225	-4.8146	-3.8958	-3.6042	291.185	20.395	176.709	26.126	288.832	179.215	291.055	318.313	6.946	156.231	243.312	264.372	338.963	308.737	346.703	291.349	0.00031452	0.00031513	0.000166	1105.8	1.9341e-06	5.8598e-06	1219.6	220.63	2.4054e-06	3.7991e-06	288.44	79.36	61.305	18.258	3.5221e-06	25.837	0.00021347	0.00021293	5.9604e-05	1055.4	2.3683e-06	2.345e-06	1158.3	213.77	2.3449e-06	2.3426e-06	272.79	76.71	60.031	18.231	2.3398e-06	25.486	346.874	24.594	20.458	-0.710	48.301	46.514	-0.390	7.033	51.640	115.466	7.063	14.349	14.205	21.948	173.669	20.994	-8191	255	
2953.340	1	1	0	0	0.15767	0.14091	0.12466	0.13894	0.1557	0.096951	0.14431	0.20736	0.15981	0.16099	0.057506	0.11172	0.021725	0.13907	0.067378	0.10416	-4.6833	-3.6542	-4.0146	-4.6604	-3.4333	-4.6021	-4.1333	-3.775	-4.5437	-3.5979	-3.9104	-4.6042	-3.4271	-4.6417	-4.1042	-3.6375	191.477	84.347	248.541	310.283	141.236	295.047	258.778	178.991	229.300	223.128	342.619	302.198	299.901	11.033	265.522	322.600	0.00056733	0.00039282	3.444e-05	1103.6	1.8887e-06	2.7006e-06	1214.9	221.47	2.7723e-06	2.8296e-06	286.07	79.28	61.573	18.097	5.0596e-06	25.731	0.00021402	0.0002133	5.8775e-05	1053.4	2.3473e-06	2.3138e-06	1157.3	214.13	2.2938e-06	2.3213e-06	272.39	76.506	60.017	18.194	2.3195e-06	25.456	20.914	91.822	267.255	-0.534	108.644	277.678	-0.458	7.217	203.403	57.586	6.866	13.949	14.183	21.017	167.675	21.045	-8191	255	
2953.436	1	1	0	0	0.048808	0.30525	0.28724	0.11563	0.22445	0.16635	0.1986	0.20586	0.21642	0.12581	0.24628	0.033973	0.21803	0.20065	0.097673	0.28342	-4.3729	-3.6354	-3.9313	-4.8083	-3.3417	-4.3063	-4.3187	-3.5917	-4.6979	-3.8125	-3.9083	-4.6	-3.4479	-4.3042	-4.0896	-3.4458	206.600	72.606	-3.466	275.051	50.135	96.181	227.223	311.856	16.592	104.496	164.461	333.618	16.919	54.846	216.635	299.597	0.00040836	0.00093241	0.00014315	1106.1	4.668e-06	3.2849e-06	1213.8	220.86	1.6008e-06	2.9785e-06	287.35	79.319	61.646	18.212	4.1941e-06	25.808	0.00021253	0.00021268	5.9298e-05	1054.5	2.3456e-06	2.2943e-06	1156.2	213.45	2.3141e-06	2.3154e-06	272.53	76.42	59.789	18.195	2.3277e-06	25.372	63.741	47.255	110.066	-0.420	132.756	22.005	-0.278	7.375	36.516	107.070	6.884	13.978	14.448	21.702	22.741	20.615	-8191	255	
2953.531	1	1	0	0	0.12352	0.10556	0.14905	0.17644	0.25019	0.053541	0.13961	0.12542	0.22318	0.027392	0.24575	0.078077	0.024077	0.1155	0.071803	0.14306	-4.4021	-3.5375	-3.875	-4.8583	-3.3729	-4.1792	-4.6687	-3.6958	-4.4875	-3.9188	-3.7333	-4.4938	-3.6667	-4.2021	-4.4	-3.8708	108.537	205.756	201.595	204.300	199.160	208.921	66.531	193.195	226.436	155.537	318.757	7.781	41.073	181.076	284.491	119.047	0.00041892	0.00032158	0.00024038	1106	5.0422e-06	1.8456e-06	1222.8	220.98	4.9083e-06	3.9349e-06	284.89	79.299	61.475	18.123	6.5459e-06	25.691	0.00021013	0.00021004	5.8848e-05	1054.3	2.3148e-06	2.3022e-06	1157.7	213.3	2.3098e-06	2.3158e-06	271.58	76.382	59.867	18.202	2.305e-06	25.355	-4.548	27.121	325.507	-0.289	91.776	44.122	-0.603	7.155	177.613	102.337	7.075	14.452	14.139	21.188	226.750	21.248	-8191	255	
2953.604	1	1	0	0	0.13937	0.025756	0.11091	0.14514	0.23545	0.068333	0.2744	0.13439	0.11587	0.12333	0.059769	0.14685	0.10218	0.18099	0.28548	0.16694	-4.2083	-3.6375	-3.7125	-4.6354	-3.5208	-4.1937	-4.4875	-3.7875	-4.6	-3.9771	-3.8	-4.6542	-3.6333	-4.0625	-4.4208	-3.75	4.453	106.170	1.341	-3.102	347.296	292.745	2.955	264.228	79.384	224.393	199.147	249.008	62.767	12.666	113.878	25.900	0.00049533	0.00037287	5.3739e-05	1107.3	5.8108e-07	1.1319e-06	1225.2	220.92	1.1426e-06	8.2999e-06	286.59	79.648	61.636	18.252	3.6322e-06	25.734	0.00021223	0.00021262	5.8805e-05	1055.6	2.3269e-06	2.3244e-06	1159.2	213.3	2.3217e-06	2.3142e-06	271.29	76.515	59.887	18.2	2.3326e-06	25.399	42.760	130.410	-3.233	-0.483	260.059	171.634	-0.474	7.219	39.303	128.325	6.949	14.109	14.250	20.848	234.266	20.879	-8191	255	
2953.723	1	1	0	0	0.085094	0.31798	0.20175	0.072668	0.40832	0.094019	0.094849	0.067424	0.10327	0.21598	0.19997	0.17136	0.11382	0.26206	0.089985	0.15012	-4.1667	-3.875	-3.6771	-4.7042	-3.6208	-4.0042	-4.5479	-3.6562	-4.5354	-3.9083	-3.8187	-4.3688	-3.7854	-4.0521	-4.3792	-3.5687	179.002	92.100	314.101	189.608	33.013	230.553	86.087	262.622	20.898	230.161	341.534	303.302	298.791	276.459	330.821	208.556	0.00017277	0.00067974	8.7285e-05	1109.5	8.9593e-06	7.9255e-06	1224.6	219.61	6.3058e-06	2.0685e-06	287.43	78.874	61.545	18.155	6.2088e-07	25.697	0.00021168	0.0002124	5.8865e-05	1056.4	2.3323e-06	2.3222e-06	1157.2	212.87	2.3335e-06	2.3427e-06	272.41	76.394	59.902	18.158	2.3289e-06	25.376	23.899	17.414	292.535	-0.309	89.046	90.617	-0.387	6.911	73.324	136.766	6.952	13.874	14.181	20.885	289.595	20.559	-8191	255	
2953.819	1	1	0	0	0.086614	0.21036	0.072632	0.20364	0.17424	0.12585	0.27131	0.40762	0.023341	0.20491	0.03294	0.11173	0.017412	0.29049	0.23638	0.21372	-4.0583	-4.1833	-3.8771	-4.3146	-3.7479	-3.975	-4.5917	-3.6729	-4.4333	-3.9896	-3.6083	-4.5708	-3.7771	-3.9208	-4.4938	-3.4792	308.967	206.361	233.468	319.143	264.182	320.066	311.637	295.297	15.816	89.776	178.081	83.778	185.095	28.734	7.207	86.086	0.00052367	0.00055414	0.00013792	1101.2	3.7143e-06	5.2007e-06	1217.9	220.94	5.2534e-06	2.4009e-06	286.75	79.002	61.418	18.047	7.924e-07	25.866	0.00021385	0.0002133	5.9044e-05	1053.1	2.3513e-06	2.3262e-06	1157.8	213.65	2.3601e-06	2.3453e-06	271.97	76.466	59.977	18.154	2.3418e-06	25.408	48.575	171.722	290.637	-0.445	328.695	46.780	-0.378	7.188	134.216	173.866	6.668	13.944	14.085	20.942	187.841	21.027	-8191	255	
2953.915	1	1	0	0	0.20016	0.040226	0.17396	0.12219	0.047071	0.25219	0.16168	0.29592	0.17445	0.095275	0.089228	0.078268	0.14029	0.20977	0.31692	0.32443	-4.0208	-4.0146	-3.4979	-4.6083	-3.5292	-4.0312	-4.7312	-3.6458	-4.2438	-4.1167	-3.6063	-4.5188	-4.0229	-3.8854	-4.4375	-3.575	194.808	54.957	99.474	23.658	326.172	106.801	256.186	1.513	17.133	51.764	160.351	238.940	222.215	130.616	56.389	246.513	0.00055325	0.00080892	4.2984e-05	1104.4	2.992e-06	1.3426e-06	1223.4	220.22	3.5983e-06	9.725e-07	286.63	79.509	61.267	18.067	7.3776e-06	25.694	0.00021593	0.00021455	5.9153e-05	1054.3	2.3468e-06	2.3226e-06	1156.9	213.23	2.3313e-06	2.334e-06	271.39	76.415	59.85	18.199	2.3379e-06	25.388	13.924	115.690	278.431	-0.385	74.469	270.408	-0.328	7.114	258.116	110.624	6.918	13.887	14.384	21.560	133.116	20.895	-8191	255	
2954.011	1	1	0	0	0.21042	0.11758	0.069196	0.12102	0.16584	0.10531	0.14792	0.1718	0.13766	0.13531	0.21867	0.19418	0.1479	0.0087152	0.2161	0.13208	-3.975	-4.2146	-3.3312	-4.6229	-3.8771	-3.9125	-4.8396	-3.6021	-4.1875	-4.2562	-3.7375	-4.6375	-3.9583	-3.75	-4.4437	-3.8042	262.562	55.214	315.783	53.205	246.088	228.871	42.413	-1.799	100.131	167.607	341.934	287.602	-1.233	228.548	148.422	63.250	0.00068463	0.00029656	0.00016004	1105	4.0456e-06	3.5219e-06	1217.7	220.24	3.8241e-06	4.2509e-06	286.59	79.74	61.118	18.197	3.8662e-06	25.791	0.00021596	0.00021437	5.9486e-05	1054.8	2.3619e-06	2.369e-06	1157.5	213.2	2.3585e-06	2.3386e-06	271.28	76.479	59.92	18.218	2.3429e-06	25.307	50.979	141.671	341.002	-0.293	68.972	152.663	-0.431	7.344	185.901	162.200	7.054	13.971	14.303	21.308	76.785	20.632	-8191	255	
2954.132	1	1	0	0	0.14775	0.11739	0.13645	0.12718	0.13207	0.080424	0.15546	0.30609	0.079864	0.16485	0.043804	0.13061	0.10424	0.35217	0.05151	0.31392	-3.8521	-4.3375	-3.6688	-4.6854	-3.9521	-3.9083	-4.5458	-3.5938	-4.1604	-4.1667	-3.7854	-4.4542	-3.9146	-3.8063	-4.3792	-3.6833	311.286	121.928	335.643	310.107	130.963	215.997	244.282	293.282	348.864	31.447	284.593	248.203	305.273	19.220	125.713	337.675	0.00024366	0.00031643	0.00012168	1100.9	5.9249e-06	2.8816e-06	1221.2	220.94	2.3734e-06	1.493e-06	285.29	79.599	61.362	18.203	4.0819e-06	25.771	0.00021396	0.00021313	5.9323e-05	1052.6	2.344e-06	2.3309e-06	1157.5	213.55	2.3543e-06	2.3132e-06	271.15	76.468	59.804	18.132	2.3105e-06	25.401	41.405	95.583	6.851	-0.400	233.755	299.740	-0.160	7.056	138.374	194.204	6.692	14.580	14.364	21.552	172.825	20.649	-8191	255	
2954.204	1	1	0	0	0.092929	0.11492	0.24103	0.12092	0.16657	0.18006	0.11908	0.16744	0.15749	0.20093	0.14984	0.13459	0.12497	0.13947	0.12336	0.084761	-3.8146	-4.1729	-3.6396	-4.5312	-3.9979	-3.7646	-4.7146	-3.7521	-4.0188	-4.4625	-3.8083	-4.3167	-3.9208	-3.7208	-4.3875	-3.7062	201.467	18.166	267.040	92.493	83.423	346.163	23.003	213.243	146.451	68.205	57.287	283.965	214.508	89.731	257.051	349.338	1.9751e-05	0.00031352	9.9074e-05	1099.4	1.8826e-06	2.9994e-06	1223.6	220.33	6.2173e-06	5.0858e-06	285.63	78.723	61.112	18.125	2.2164e-06	25.761	0.00021017	0.000211	5.8884e-05	1053.1	2.3112e-06	2.3225e-06	1158.7	213.41	2.3348e-06	2.3255e-06	271.47	76.401	59.669	18.178	2.3277e-06	25.399	167.863	144.125	113.078	-0.565	266.740	134.048	-0.352	7.395	292.030	151.601	6.522	14.142	14.202	21.374	79.209	20.494	-8191	255	
2954.300	1	1	0	0	0.11762	0.010091	0.078606	0.2328	0.030606	0.19346	0.091949	0.30992	0.099792	0.13168	0.15367	0.18147	0.25989	0.2852	0.01175	0.17519	-3.6813	-4.3313	-3.6083	-4.4229	-3.9375	-3.6896	-4.75	-3.7104	-3.8896	-4.4646	-3.4042	-4.4688	-4.0062	-3.6979	-4.6396	-3.7354	17.993	60.772	46.670	286.095	286.632	284.310	-6.271	1.906	326.166	305.825	219.047	211.992	319.648	290.239	243.258	78.030	0.00036707	0.00063713	1.5583e-05	1108	7.4356e-07	6.8458e-06	1221.2	220.07	3.7606e-06	5.5847e-06	287.38	79.549	61.364	18.183	4.5254e-06	25.766	0.00021301	0.00021166	5.9024e-05	1055.3	2.3588e-06	2.3192e-06	1158.1	213.48	2.3332e-06	2.3186e-06	272.18	76.559	59.829	18.183	2.3156e-06	25.403	16.187	152.646	0.654	-0.304	103.970	57.905	-0.361	7.093	45.463	119.395	6.752	14.255	14.133	21.240	8.691	20.329	-8191	255	
2954.420	1	1	0	0	0.17161	0.16444	0.14597	0.23458	0.090175	0.099911	0.29891	0.14562	0.091602	0.23445	0.066182	0.065001	0.031259	0.12455	0.25648	0.32839	-3.6688	-4.5229	-3.675	-4.3271	-4.1792	-3.6	-4.6292	-3.8021	-3.6583	-4.5625	-3.2125	-4.2937	-4.4104	-3.4292	-4.6542	-3.7479	16.798	72.666	216.232	311.381	322.494	291.148	297.647	30.897	130.332	336.638	276.201	193.727	129.550	142.317	169.377	167.224	0.00037771	0.00047057	0.00019192	1104.5	6.4557e-06	2.911e-06	1221.7	220.1	5.2675e-06	4.3449e-06	286.2	79.274	61.888	18.165	1.9741e-06	25.856	0.00021251	0.00021205	5.9121e-05	1056.3	2.3229e-06	2.32e-06	1160.1	213.33	2.3232e-06	2.3217e-06	271.77	76.493	59.955	18.182	2.3526e-06	25.323	20.249	106.717	107.254	-0.176	91.576	10.318	-0.185	7.123	129.306	300.924	6.942	14.173	14.438	21.569	266.984	20.680	-8191	255	
2954.517	1	1	0	0	0.090058	0.016578	0.16573	0.15277	0.17724	0.096644	0.23381	0.10586	0.14395	0.2733	0.23944	0.077814	0.13893	0.15485	0.16664	0.11045	-3.0542	-4.4583	-3.3583	-4.2646	-4.1646	-3.2042	-4.9125	-3.7042	-3.5396	-4.6021	-3.4896	-4.2375	-4.4	-3.4229	-4.4208	-3.6854	176.229	174.359	142.713	188.867	74.513	200.970	228.563	181.714	280.304	87.268	283.035	-8.293	277.294	24.977	82.886	252.987	0.00044889	0.00035771	0.00018944	1106.2	3.3523e-06	2.6165e-06	1222.9	220.6	1.9479e-06	2.3422e-06	286.63	79.793	61.36	18.137	3.6709e-06	25.639	0.0002134	0.00021295	5.9266e-05	1055.6	2.3382e-06	2.3323e-06	1162.3	213.32	2.331e-06	2.3281e-06	271.34	76.78	59.811	18.162	2.3254e-06	25.388	42.124	124.075	121.067	-0.399	111.309	260.783	-0.143	6.791	189.729	294.857	6.531	14.019	14.174	21.066	261.784	21.147	-8191	255	
2954.611	1	1	0	0	0.19431	0.13032	0.12968	0.38305	0.21759	0.091193	0.02519	0.10618	0.063617	0.13798	0.10402	0.17421	0.1768	0.35185	0.17906	0.077991	-3.3208	-4.5917	-3.4313	-4.1396	-4.2896	-3.5604	-4.5396	-4.0083	-3.7875	-4.5563	-3.5938	-4.0458	-4.3979	-3.5208	-4.3792	-3.9521	13.260	200.376	166.371	303.000	-4.195	287.886	34.999	212.409	159.762	213.636	211.348	261.508	322.362	138.292	145.152	14.218	0.00034035	0.00043197	0.00013616	1107.9	4.9612e-06	4.8313e-07	1221.8	220.49	2.2274e-06	3.0413e-06	287.17	79.497	61.441	18.24	5.2616e-06	25.924	0.00021095	0.00021141	5.8902e-05	1056.7	2.3218e-06	2.2983e-06	1158	213.28	2.3035e-06	2.2851e-06	271.9	76.478	59.796	18.168	2.3098e-06	25.381	49.819	66.593	329.968	-0.541	117.970	36.287	-0.219	6.982	124.725	202.655	6.864	14.129	13.946	20.522	145.515	20.686	-8191	255	
2954.709	1	1	0	0	0.058081	0.17297	0.14867	0.26566	0.24104	0.17511	0.16092	0.08985	0.073701	0.13436	0.15335	0.14918	0.12569	0.16338	0.14	0.050729	-3.3187	-4.4417	-3.7062	-4.2667	-4.4375	-3.4271	-4.6229	-4.0917	-3.7375	-4.7375	-3.7125	-4.1646	-4.4083	-3.4458	-4.5021	-4.1125	44.551	209.543	67.406	221.800	160.070	94.209	259.673	83.738	-2.748	224.155	139.438	31.566	328.466	289.874	283.896	211.684	0.00041445	0.00033885	0.00015194	1106.4	2.7812e-06	6.748e-06	1226.7	221.65	4.3102e-06	3.4376e-06	286.15	79.182	61.594	18.1	3.6968e-06	25.844	0.00020929	0.00020892	5.834e-05	1057	2.3116e-06	2.3082e-06	1161.7	213.4	2.3202e-06	2.3177e-06	271.56	76.529	59.819	18.155	2.3263e-06	25.325	17.218	281.656	48.157	-0.252	88.003	168.527	-0.117	7.140	151.615	217.986	6.661	13.755	14.143	21.140	348.199	20.846	-8191	255	
2954.803	1	1	0	0	0.20351	0.25697	0.19515	0.33717	0.08602	0.11979	0.20783	0.22589	0.20085	0.061965	0.17893	0.17745	0.085885	0.21041	0.16146	0.093011	-3.2104	-4.5521	-3.7458	-4.1625	-4.5375	-3.325	-4.4604	-4.2125	-3.4396	-4.425	-3.8208	-3.9479	-4.4229	-3.475	-4.5	-4.1625	330.315	312.069	207.275	281.874	10.897	-5.385	307.596	147.581	119.553	207.829	342.687	269.393	52.719	327.823	252.015	195.214	0.00045517	0.00057891	0.00011151	1106.5	6.1068e-06	1.743e-06	1218.8	219.46	7.9039e-06	1.6414e-06	286.57	79.38	61.358	18.153	1.7733e-06	25.671	0.00021331	0.00020947	5.871e-05	1056.6	2.3278e-06	2.3182e-06	1156.5	212.87	2.31e-06	2.324e-06	271.44	76.646	59.775	18.267	2.3113e-06	25.306	22.953	96.441	140.255	-0.448	70.572	314.733	0.094	7.279	232.993	156.605	6.778	13.763	14.129	21.305	257.958	20.769	-8191	255	
2954.900	1	1	0	0	0.40143	0.20164	0.16336	0.15138	0.073948	0.20291	0.20587	0.14531	0.22187	0.46567	0.25669	0.043193	0.024393	0.19962	0.1515	0.10748	-3.1667	-4.6438	-3.6333	-4.0479	-4.5563	-3.4104	-4.3708	-4.2375	-3.5021	-4.5042	-3.9417	-3.825	-4.4896	-3.4042	-4.3083	-4.1188	-6.832	110.464	-4.567	331.454	66.562	307.144	325.903	187.602	211.342	259.221	204.351	22.456	35.472	152.507	79.503	283.232	0.00044907	0.00072152	7.4602e-05	1111	2.8742e-06	6.7771e-06	1219.3	221.46	6.0822e-06	8.6701e-06	287.72	79.944	61.532	18.192	6.5175e-06	25.81	0.00021056	0.00021043	5.8489e-05	1057.3	2.3169e-06	2.3051e-06	1159	213.13	2.3006e-06	2.3385e-06	271.47	76.652	59.935	18.157	2.3318e-06	25.364	9.010	312.498	280.814	-0.195	136.756	170.176	-0.453	6.958	257.867	167.911	6.606	14.441	14.448	21.038	164.624	20.756	-8191	255	
2955.020	1	1	0	0	0.15501	0.13395	0.12744	0.40051	0.23664	0.16238	0.10187	0.10599	0.063565	0.14865	0.21006	0.30529	0.11053	0.007016	0.069706	0.19354	-3.1083	-4.6188	-3.7354	-3.8021	-4.4938	-3.2979	-4.4479	-4.5604	-3.1208	-4.6479	-3.8458	-3.7687	-4.7729	-3.4042	-4.2896	-4.2479	205.944	-1.070	335.075	336.254	342.087	318.036	8.588	213.686	2.446	28.341	18.389	296.888	-10.049	218.718	6.942	260.331	7.0582e-05	0.00059524	1.7816e-05	1111.1	2.859e-06	4.5675e-06	1224.2	220.54	5.6684e-06	2.7091e-06	284.92	79.629	61.881	18.182	1.289e-06	25.787	0.00021215	0.00021057	5.8461e-05	1058.2	2.3274e-06	2.3351e-06	1162.4	213.59	2.3258e-06	2.3046e-06	270.95	76.784	59.922	18.16	2.3288e-06	25.423	20.618	117.744	267.720	-0.558	313.674	215.018	-0.209	7.431	96.707	318.533	6.814	14.057	14.237	21.265	210.513	20.825	-8191	255	
2955.116	1	1	0	0	0.23035	0.097059	0.31014	0.060154	0.15385	0.10871	0.12181	0.19969	0.19441	0.18324	0.14176	0.18083	0.056695	0.11299	0.21224	0.14345	-3.0396	-4.4208	-3.8583	-3.7542	-4.5146	-3.4125	-4.2917	-4.3292	-3.4354	-4.4187	-4.0292	-3.7333	-4.6229	-3.475	-4.0479	-4.35	187.086	18.846	90.397	344.463	313.573	51.040	307.240	335.704	237.796	259.116	246.919	278.144	69.593	16.296	202.208	336.819	0.00016852	0.00042358	0.00011506	1106.1	1.5496e-06	1.0548e-06	1215.2	220.42	5.643e-06	1.5195e-06	286.42	79.526	61.227	18.186	1.0022e-05	25.711	0.00021474	0.00021166	5.8869e-05	1055.7	2.3157e-06	2.3212e-06	1157.8	212.88	2.331e-06	2.3344e-06	271.11	76.674	59.817	18.217	2.3406e-06	25.397	58.835	103.063	278.861	-0.331	2.642	201.222	-0.430	7.051	95.853	116.535	6.747	14.150	14.470	21.242	124.512	20.316	-8191	255	
2955.212	1	1	0	0	0.10305	0.058705	0.079343	0.030747	0.038297	0.077855	0.25071	0.046291	0.097356	0.16317	0.094516	0.070845	0.20466	0.066735	0.23827	0.13896	-2.9104	-4.5854	-3.8104	-3.6542	-4.7396	-3.5417	-4.2479	-4.4271	-3.5167	-4.4042	-4.0792	-3.7125	-4.7417	-3.375	-3.9125	-4.6521	83.154	308.738	191.610	220.143	298.234	195.930	269.592	264.739	183.541	4.207	211.147	108.126	341.389	33.241	153.389	20.411	0.00059207	0.00058808	0.00017676	1104.8	2.938e-06	1.6821e-06	1226.3	220.93	2.1995e-06	4.2583e-06	286.21	78.973	61.908	18.141	3.1762e-07	25.78	0.00021628	0.0002125	5.9262e-05	1055.2	2.322e-06	2.3394e-06	1161.7	213.13	2.3248e-06	2.3261e-06	271.19	76.462	60.179	18.126	2.3404e-06	25.386	44.974	107.123	91.561	-0.370	187.646	223.389	-0.398	7.409	233.772	20.053	6.553	14.168	14.597	20.962	54.083	20.900	-8191	255	
2955.309	1	1	0	0	0.054922	0.22229	0.069041	0.27285	0.081374	0.13137	0.20077	0.21877	0.061314	0.26945	0.19409	0.11628	0.038574	0.12074	0.19499	0.081052	-2.8292	-4.4187	-4.1021	-3.5542	-4.7188	-3.6562	-4.0667	-4.7438	-3.1854	-4.3229	-4.2979	-3.4646	-4.4958	-3.5708	-3.6813	-4.5458	242.594	57.247	156.547	239.217	333.443	305.202	286.823	151.362	111.603	295.991	97.870	243.397	315.350	112.180	287.200	108.710	0.00034143	0.00020208	0.00016847	1107.7	6.5648e-06	4.6479e-06	1223.5	219.83	1.7723e-07	8.1567e-06	287.58	79.258	61.355	18.245	1.8414e-06	25.643	0.00021463	0.00021264	5.949e-05	1057.8	2.3268e-06	2.3365e-06	1161	213.09	2.3443e-06	2.3258e-06	271.72	76.412	59.898	18.204	2.3626e-06	25.396	4.288	23.424	271.727	-0.352	69.558	43.533	-0.208	7.134	186.368	52.134	6.814	14.039	14.272	21.013	143.949	20.656	-8191	255	
2955.429	1	1	0	0	0.24121	0.10267	0.20888	0.063698	0.055597	0.18506	0.11459	0.030445	0.10265	0.10917	0.058696	0.11518	0.26211	0.09631	0.21619	0.12334	-3.0167	-4.2271	-4.1646	-3.7104	-4.6188	-3.6458	-4.0375	-4.6229	-3.4833	-4.2812	-4.2896	-3.3979	-4.5813	-3.8187	-3.9688	-4.5271	114.648	4.875	37.402	169.651	57.938	269.619	243.913	194.451	342.803	311.744	180.729	184.790	328.651	316.892	54.931	306.313	0.00041119	0.00070096	7.0145e-05	1106.4	4.0221e-06	2.0709e-06	1223.4	220.22	4.8548e-06	3.6303e-06	285.91	78.542	61.471	18.075	1.4388e-06	25.675	0.0002151	0.00021463	5.9389e-05	1055.7	2.3538e-06	2.3418e-06	1161	213.03	2.3694e-06	2.3472e-06	271.73	76.37	59.933	18.192	2.3832e-06	25.346	43.860	156.527	339.251	-0.564	222.685	-5.400	-0.301	7.056	7.450	114.997	6.701	14.130	14.448	21.355	154.447	20.895	-8191	255	
2955.501	1	1	0	0	0.093493	0.12695	0.14213	0.03771	0.16155	0.19745	0.11109	0.19418	0.14513	0.14048	0.14278	0.21056	0.30569	0.16829	0.098398	0.040517	-3.2396	-4.2562	-4.1146	-3.5771	-4.3542	-3.8021	-3.9688	-4.2937	-3.6	-4.0563	-4.2229	-3.5104	-4.4938	-3.8333	-3.5687	-4.4437	194.107	186.976	28.453	342.089	6.245	251.660	293.735	273.526	53.720	49.158	333.791	95.848	299.506	56.625	90.442	139.379	0.00060249	0.00025795	0.00019655	1102.6	2.8849e-06	1.7986e-06	1217.5	220.96	4.2096e-06	1.0232e-06	287.97	79.281	61.261	18.18	2.4432e-06	25.846	0.0002152	0.00021508	6.0514e-05	1053.5	2.3777e-06	2.3818e-06	1158.2	213.79	2.3822e-06	2.3619e-06	272.35	76.568	59.959	18.205	2.3878e-06	25.402	30.379	232.927	153.170	-0.613	134.538	264.249	-0.029	7.025	322.723	34.509	6.874	13.740	14.335	21.390	215.873	21.120	-8191	255	
2955.597	1	1	0	0	0.11998	0.10065	0.15544	0.25536	0.087514	0.17559	0.23666	0.064335	0.37852	0.1261	0.16548	0.17798	0.14964	0.26533	0.2797	0.067893	-3.2833	-3.9938	-4.1833	-3.5292	-4.3479	-3.9437	-3.8208	-4.475	-3.6667	-4.0333	-4.3042	-3.3354	-4.6396	-3.9667	-3.5417	-4.6396	68.594	55.203	59.168	163.995	-2.553	12.208	334.699	228.514	231.200	227.567	35.933	45.713	295.755	16.339	-2.337	85.682	0.00037333	0.00045807	0.00014547	1106.2	5.6561e-06	2.0627e-06	1215	220.98	4.1795e-06	5.1042e-06	285.55	79.288	61.19	18.101	4.606e-06	25.951	0.00021744	0.00021294	6.0288e-05	1053.3	2.3456e-06	2.3687e-06	1158.1	213.27	2.3568e-06	2.3413e-06	271.25	76.31	59.982	18.188	2.3635e-06	25.515	52.747	88.634	97.908	-0.267	210.340	72.809	-0.189	7.050	220.548	230.744	6.505	13.933	14.212	21.391	142.057	20.907	-8191	255	
2955.693	1	1	0	0	0.10461	0.22397	0.13395	0.23028	0.11332	0.13213	0.14629	0.044848	0.11258	0.1273	0.032614	0.12158	0.21637	0.067913	0.13307	0.12418	-3.0583	-3.9021	-4.5083	-3.5062	-4.4604	-3.9708	-3.6458	-4.8333	-3.5208	-3.9292	-4.4542	-3.3812	-4.4458	-4.1833	-3.5583	-4.6458	81.914	345.975	137.188	343.383	194.031	146.659	269.956	247.769	94.029	202.770	175.887	104.942	305.460	184.835	74.034	59.058	0.0003297	0.00013974	7.5819e-05	1106.7	1.3668e-06	6.7579e-06	1220.9	221.49	6.4501e-07	5.7969e-06	285.65	78.811	61.576	18.155	2.1535e-06	25.786	0.00021541	0.00021617	5.9612e-05	1056.5	2.3686e-06	2.355e-06	1159.7	213.67	2.3867e-06	2.3803e-06	271.68	76.27	60.15	18.219	2.4023e-06	25.485	58.300	76.754	257.200	-0.622	222.396	94.802	-0.356	7.139	28.766	100.519	6.872	14.016	14.186	21.118	-4.269	20.696	-8191	255	
2955.812	1	1	0	0	0.066845	0.082972	0.084065	0.082875	0.14606	0.099904	0.18798	0.215	0.36876	0.30905	0.14375	0.17622	0.21609	0.12905	0.169	0.12041	-3.4938	-3.9	-4.3375	-3.6333	-4.2208	-4.0021	-3.7146	-4.6333	-3.775	-3.9313	-4.5646	-3.5958	-4.2542	-4.0667	-3.5708	-4.4458	109.729	151.068	41.578	58.832	156.192	72.869	306.318	290.934	64.592	114.027	305.303	235.611	337.834	7.114	156.178	182.480	0.00031953	0.00079869	6.6185e-05	1104.5	2.75e-06	3.994e-06	1217.9	219.95	2.8176e-06	3.5071e-06	284.36	79.154	61.618	18.197	7.0494e-06	25.746	0.00022006	0.0002199	6.0481e-05	1054.5	2.4056e-06	2.3946e-06	1159.1	213.54	2.4181e-06	2.4116e-06	272.33	76.801	60.06	18.26	2.4051e-06	25.465	30.128	92.792	59.665	-0.459	204.977	104.173	-0.161	7.224	59.411	264.409	6.381	13.864	14.071	20.564	104.198	20.656	-8191	255	
2955.908	1	1	0	0	0.11262	0.23819	0.21647	0.28809	0.057032	0.0093869	0.19378	0.23933	0.15899	0.088787	0.18267	0.22672	0.22042	0.20025	0.099802	0.15381	-3.4167	-3.7812	-4.3646	-3.5083	-4.3229	-4.2667	-3.5333	-4.7625	-3.7125	-3.6375	-4.8271	-3.3583	-4.2312	-4.3521	-3.3479	-4.5917	228.054	80.533	126.281	278.867	-5.697	294.429	246.916	1.507	259.002	89.318	336.414	128.271	19.168	86.891	125.070	262.816	0.00052454	0.00036469	0.00010911	1103.9	3.7379e-06	3.2206e-06	1221	221.83	1.6133e-06	3.2264e-06	284.87	79.531	61.145	18.033	3.7876e-06	25.79	0.00022026	0.00022083	6.0474e-05	1054.7	2.4065e-06	2.3879e-06	1157.5	214.13	2.4129e-06	2.4191e-06	271.7	76.638	60.198	18.208	2.3997e-06	25.497	47.819	338.417	190.122	-0.613	125.207	155.560	-0.458	7.160	293.416	220.842	6.836	13.971	14.079	21.027	138.753	20.245	-8191	255	
2956.004	1	1	0	0	0.44666	0.12333	0.11576	0.26849	0.24569	0.16208	0.25021	0.059073	0.05921	0.15427	0.23513	0.13507	0.1876	0.19753	0.028232	0.29796	-3.55	-3.5542	-4.4292	-3.5271	-3.9562	-4.2625	-3.6729	-4.6542	-3.8854	-3.4938	-4.7854	-3.6083	-4.2875	-4.5083	-3.4354	-4.5938	42.674	-5.303	56.229	309.630	205.751	295.696	304.449	257.459	265.445	118.012	220.684	283.590	244.712	291.029	23.638	259.637	0.00029747	0.00054706	0.00015325	1104.5	1.2641e-06	5.4876e-06	1226.8	221.69	5.5151e-06	7.2618e-07	288.4	80.174	61.841	18.173	1.5677e-06	25.793	0.00022079	0.00021996	6.0196e-05	1055	2.4218e-06	2.378e-06	1160.9	214.29	2.3835e-06	2.3764e-06	272.57	76.831	60.291	18.238	2.394e-06	25.482	-8.781	75.661	4.056	-0.485	106.821	218.373	-0.534	7.177	106.279	183.284	7.083	14.015	14.181	20.968	111.461	20.609	-8191	255	
2956.101	1	1	0	0	0.082742	0.010759	0.1375	0.28209	0.21646	0.14959	0.24879	0.048146	0.14807	0.1701	0.086311	0.23367	0.082135	0.080283	0.17651	0.093802	-3.6437	-3.5375	-4.6813	-3.6063	-3.9938	-4.5854	-3.4104	-4.6417	-3.9958	-3.6813	-4.5917	-3.6146	-4.0583	-4.3646	-3.2604	-4.3833	68.046	1.312	55.142	309.938	224.249	127.501	291.613	276.000	233.519	59.819	171.451	-3.974	115.740	254.946	43.975	202.197	0.00047668	9.5905e-05	0.00018529	1100.2	7.0938e-06	7.4505e-07	1223.4	221.54	5.2414e-06	2.3548e-06	286.72	79.243	61.773	18.153	2.315e-06	25.72	0.00021893	0.00021973	6.1034e-05	1053.4	2.4147e-06	2.4064e-06	1161	214.2	2.3965e-06	2.4105e-06	272.33	76.69	60.263	18.267	2.405e-06	25.44	34.625	191.870	57.238	-0.548	124.290	292.127	-0.406	7.530	216.896	113.821	6.720	13.987	13.817	21.417	254.730	20.843	-8191	255	
2956.197	1	1	0	0	0.15542	0.19586	0.23074	0.19745	0.12323	0.25889	0.13313	0.14798	0.10726	0.12422	0.12552	0.056169	0.10509	0.22728	0.20656	0.1025	-3.7021	-3.5875	-4.6979	-3.55	-3.9979	-4.3417	-3.7375	-4.4688	-4.0542	-3.6646	-4.4979	-3.6104	-3.9229	-4.6604	-3.6521	-4.35	154.672	75.809	102.962	342.410	-2.866	118.331	328.532	255.697	123.976	55.764	334.757	320.374	279.684	331.723	121.176	315.199	0.00038534	0.00031436	0.00013002	1104.5	3.8363e-06	1.2305e-06	1221.6	220.41	4.2785e-06	3.6038e-06	287.9	79.538	61.768	18.243	2.468e-06	25.844	0.00022103	0.00021956	6.0789e-05	1055.8	2.4174e-06	2.3969e-06	1160.6	214.15	2.4492e-06	2.3829e-06	272.64	76.922	60.273	18.266	2.4034e-06	25.457	13.853	61.220	268.200	-0.695	52.241	173.858	-0.423	7.518	207.034	154.517	6.712	13.833	14.094	21.270	338.049	20.531	-8191	255	
2956.293	1	1	0	0	0.090959	0.15477	0.25379	0.14647	0.020947	0.18262	0.22712	0.13856	0.10719	0.198	0.15307	0.23042	0.15281	0.10329	0.17341	0.23952	-3.6792	-3.7729	-4.4604	-4.1042	-4.0146	-4.2729	-3.7042	-4.2583	-4.1708	-3.6458	-4.5479	-3.8354	-3.8875	-4.5604	-3.6146	-4.2354	323.158	184.203	253.507	-9.782	119.410	230.917	34.280	37.211	9.709	261.438	345.875	22.574	294.430	147.123	173.648	125.890	0.00038177	0.00040189	0.00017991	1104.9	6.691e-06	3.8749e-06	1221.9	221.78	4.2684e-06	4.9202e-06	287.34	79.67	61.558	18.132	6.885e-06	25.875	0.00022142	0.00021874	6.0618e-05	1055.8	2.3991e-06	2.4087e-06	1161.9	214.38	2.4084e-06	2.4292e-06	272.61	76.732	60.317	18.267	2.4237e-06	25.564	347.196	-10.594	38.125	-0.507	32.003	141.104	-0.282	7.331	100.101	198.235	7.065	14.389	14.093	21.712	180.699	20.894	-8191	255	
2956.389	1	1	0	0	0.16146	0.04915	0.1934	0.12505	0.13463	0.11198	0.1209	0.21079	0.18013	0.20932	0.30557	0.28532	0.29883	0.12102	0.21621	0.20846	-4.0042	-3.4833	-4.5479	-3.8208	-3.825	-4.6021	-3.5938	-4.2083	-4.3229	-3.6437	-4.5375	-3.9479	-3.8875	-4.5271	-3.6771	-4.3812	191.791	75.373	241.228	220.813	187.806	53.538	223.249	298.252	248.620	269.755	10.554	61.423	13.688	183.512	156.514	348.867	1.8805e-05	0.00022213	1.6085e-05	1103.9	1.9208e-06	2.042e-06	1226	221.68	4.2447e-06	3.6105e-06	289.1	79.285	62.066	18.031	3.9577e-06	25.756	0.00022292	0.00022189	6.167e-05	1056.3	2.413e-06	2.431e-06	1163	215.07	2.4294e-06	2.4335e-06	273.83	76.955	60.39	18.296	2.4483e-06	25.61	93.813	192.959	278.761	-0.606	283.399	271.131	-0.294	7.263	55.773	147.486	6.815	14.093	14.385	21.272	32.899	20.586	-8191	255	
2956.510	1	1	0	0	0.11664	0.19871	0.18374	0.117	0.085731	0.082096	0.24656	0.38535	0.13648	0.078209	0.15394	0.11056	0.50347	0.14797	0.31285	0.02139	-3.9354	-3.4021	-4.2542	-4.1104	-3.7958	-4.4812	-3.725	-4.1542	-4.2708	-3.4417	-4.7104	-3.9729	-3.7458	-4.5396	-3.4708	-4.3729	86.839	302.505	59.983	5.277	321.230	262.625	-1.961	259.024	252.605	221.902	285.287	150.525	322.623	21.238	121.728	247.684	0.00044034	0.00016992	0.00017785	1108.2	8.7228e-07	9.0245e-06	1218.4	221.52	6.4526e-07	1.7399e-06	288.64	79.402	61.277	18.239	8.6719e-06	25.909	0.00022266	0.00022185	6.1199e-05	1057.8	2.4355e-06	2.3871e-06	1161.1	214.88	2.4177e-06	2.4369e-06	273.47	76.959	60.16	18.288	2.4171e-06	25.624	12.793	122.393	5.869	-0.572	197.793	203.033	-0.320	6.932	292.745	218.543	6.611	14.240	13.838	21.197	199.665	20.926	-8191	255	
2956.604	1	1	0	0	0.23283	0.22981	0.14282	0.23197	0.061808	0.077629	0.14135	0.19135	0.1033	0.26368	0.052308	0.23277	0.10814	0.19487	0.16336	0.062185	-4.2021	-3.5938	-4.5479	-4.0479	-3.7292	-4.6208	-3.6396	-4.1521	-4.2812	-3.5229	-4.5292	-4.0458	-3.6354	-4.5417	-3.4896	-4.0125	57.792	41.156	112.982	-7.504	224.398	62.088	326.393	335.106	174.809	20.781	198.363	174.131	-5.713	329.119	319.075	338.269	1.702e-05	0.00052591	0.00013195	1108.2	1.8496e-06	5.7575e-06	1219.6	222.16	1.4046e-06	1.9337e-06	288.31	79.425	61.444	18.254	5.3721e-06	25.785	0.00022123	0.0002214	6.1436e-05	1057.9	2.4e-06	2.4145e-06	1160.9	214.88	2.4345e-06	2.4153e-06	273.36	76.722	60.311	18.328	2.429e-06	25.571	5.079	106.750	329.971	-0.582	123.979	153.203	-0.444	7.426	144.167	116.318	6.965	13.636	14.298	21.548	189.246	20.754	-8191	255	
2956.702	1	1	0	0	0.14419	0.012215	0.26243	0.12109	0.23299	0.096686	0.16305	0.11715	0.18242	0.068759	0.18419	0.257	0.13543	0.23071	0.17448	0.24493	-4.0229	-3.6083	-4.3688	-4.15	-3.4646	-4.5542	-3.5938	-3.9125	-4.5229	-3.1521	-4.4167	-3.9688	-3.3854	-4.8229	-3.5229	-3.825	127.690	164.950	255.516	246.447	139.520	191.162	272.017	302.877	143.004	293.590	16.655	176.007	330.058	-6.898	86.975	27.877	0.00030441	0.00065726	0.0001257	1106.3	2.4784e-06	1.7643e-06	1226.1	221.99	5.2184e-06	2.2817e-06	289.21	79.313	61.842	18.338	7.2215e-06	25.72	0.00022093	0.0002228	6.1567e-05	1058.3	2.434e-06	2.4162e-06	1163.3	215.02	2.4365e-06	2.4197e-06	274.42	76.73	60.373	18.387	2.4534e-06	25.592	4.204	124.860	-0.679	-0.495	346.718	245.514	-0.421	7.284	121.721	15.692	6.842	13.974	14.286	21.257	84.493	20.606	-8191	255	
2956.796	1	1	0	0	0.031683	0.17807	0.20415	0.4028	0.32427	0.17847	0.042868	0.15021	0.16425	0.12927	0.029384	0.06551	0.058942	0.21462	0.04461	0.12954	-4.2104	-3.1625	-4.4854	-4.3771	-3.2958	-4.7792	-3.7458	-3.9062	-4.7708	-3.45	-4.4396	-4.2917	-3.5938	-4.8417	-3.725	-4.0146	86.927	305.882	51.578	324.916	79.356	214.171	289.594	48.485	70.739	277.213	348.420	247.500	155.047	9.624	260.371	209.733	0.00051856	0.00058159	0.00015283	1107	7.4334e-07	9.623e-07	1228	220.97	5.4161e-06	3.7598e-06	286.71	79.106	61.399	18.25	2.3113e-06	26.178	0.00022165	0.000222	6.1307e-05	1058.8	2.4282e-06	2.4044e-06	1162.2	214.31	2.4228e-06	2.4395e-06	272.87	76.515	60.162	18.306	2.4199e-06	25.599	17.881	35.009	53.799	-0.450	18.081	129.898	-0.653	7.488	193.649	76.801	6.826	13.971	13.965	21.500	214.567	20.684	-8191	255	
2956.892	1	1	0	0	0.11401	0.18342	0.090152	0.28021	0.29106	0.1259	0.2294	0.44421	0.1004	0.23075	0.081722	0.076083	0.24501	0.12364	0.040323	0.19884	-4.2438	-3.4271	-3.95	-4.2917	-3.5354	-4.5417	-3.9417	-3.9771	-4.4583	-3.5583	-4.0917	-4.2562	-3.475	-4.6792	-3.9167	-3.7438	331.974	257.983	215.771	289.169	343.090	257.042	249.072	210.725	181.491	43.504	14.907	338.302	230.113	251.232	73.743	280.835	0.00019723	0.00015722	0.00022327	1100.1	6.1929e-06	2.6205e-06	1221.7	222	4.7937e-06	6.6457e-07	285.51	78.69	61.556	18.251	5.2826e-06	25.809	0.0002179	0.00022118	6.0794e-05	1054.4	2.4108e-06	2.4029e-06	1159.6	214	2.3771e-06	2.4021e-06	272.53	76.393	60.164	18.252	2.3824e-06	25.522	322.350	22.626	53.303	-0.596	176.625	190.196	-0.565	7.164	248.079	168.564	7.212	13.935	14.116	20.924	155.791	20.480	-8191	255	
2956.989	1	1	0	0	0.12193	0.32752	0.13026	0.34053	0.15638	0.29162	0.30003	0.15875	0.077671	0.19562	0.18633	0.25541	0.1127	0.18067	0.27744	0.11442	-4.3771	-3.4542	-4.2542	-4.3833	-3.2167	-4.8333	-4.1208	-3.6104	-4.6875	-3.5229	-4.1375	-4.3583	-3.5354	-4.6271	-3.8125	-3.6875	49.806	120.120	314.643	276.109	173.648	276.451	271.880	306.401	179.739	69.936	276.503	204.577	67.636	331.690	319.839	295.675	0.00029282	0.00048366	0.00021863	1104.6	5.5655e-06	8.9422e-06	1223.7	220.39	4.8196e-06	4.8462e-06	288.31	78.851	62.029	18.146	1.0185e-06	25.99	0.00022067	0.00021705	6.0128e-05	1055.5	2.3995e-06	2.4054e-06	1161	214.08	2.3946e-06	2.4198e-06	272.9	76.343	60.235	18.303	2.4114e-06	25.552	36.515	197.353	310.889	-0.341	256.518	127.591	-0.251	7.239	170.580	65.633	6.969	14.154	14.043	21.189	60.298	20.411	-8191	255	
2957.109	1	1	0	0	0.026225	0.38958	0.24652	0.10062	0.1007	0.016421	0.25646	0.078807	0.078245	0.10981	0.08827	0.082592	0.3072	0.32226	0.26042	0.057942	-4.3396	-3.6458	-4.0896	-4.5583	-3.6708	-4.4021	-4.0917	-3.7167	-4.6583	-3.7188	-4.1583	-4.325	-3.5438	-4.3729	-3.9875	-3.4771	260.114	142.903	268.152	330.270	253.706	124.556	310.869	85.223	295.359	348.236	2.117	7.647	295.049	206.660	159.030	194.093	0.00025981	0.00049334	0.00017199	1108.5	4.6581e-06	2.3648e-06	1219.7	221.57	2.8028e-06	1.2626e-06	289.15	79.536	61.432	18.293	2.3666e-06	25.732	0.00021952	0.00022067	6.0769e-05	1056.7	2.4142e-06	2.4218e-06	1159.8	214.35	2.4127e-06	2.415e-06	273.37	76.665	60.183	18.296	2.4098e-06	25.528	-0.317	139.778	119.976	-0.579	91.277	156.703	-0.328	7.068	69.227	295.729	7.046	13.927	13.857	21.240	222.926	20.854	-8191	255	
2957.205	1	1	0	0	0.10438	0.16866	0.051595	0.11198	0.2205	0.012181	0.11952	0.16289	0.19117	0.1191	0.092934	0.16684	0.080749	0.1655	0.074397	0.11972	-4.3271	-3.5417	-3.9646	-4.7646	-3.4104	-4.4042	-4.2479	-3.4896	-4.5583	-3.6979	-3.9458	-4.45	-3.6146	-4.2063	-3.9271	-3.5458	21.750	86.008	28.756	343.503	33.964	16.599	75.742	-3.517	79.281	20.756	26.294	85.121	303.577	42.963	187.061	274.402	0.00045278	0.00022034	0.00021375	1101.6	4.0818e-06	1.1216e-06	1218.1	221.5	7.7657e-06	3.2765e-06	287.57	79.254	61.648	18.232	5.6184e-06	25.859	0.00022234	0.00022047	6.0774e-05	1056.2	2.4304e-06	2.392e-06	1158.8	214.51	2.3971e-06	2.4015e-06	272.76	76.809	60.201	18.324	2.4145e-06	25.515	50.825	297.576	91.273	-0.222	-4.075	161.975	-0.424	7.407	102.823	139.086	6.988	13.776	14.183	21.233	238.931	21.082	-8191	255	
2957.302	1	1	0	0	0.15202	0.18798	0.24127	0.32583	0.1449	0.13771	0.16361	0.19284	0.035557	0.28302	0.10535	0.13681	0.060578	0.10622	0.10851	0.21874	-4.2771	-3.5833	-3.8333	-4.6354	-3.5125	-4.2625	-4.3896	-3.6667	-4.4042	-3.85	-4.0708	-4.4437	-3.6646	-4.2937	-4.1646	-3.5729	37.031	187.638	215.791	334.843	148.220	280.419	8.824	273.551	283.712	278.402	271.099	193.047	-10.207	89.649	116.337	129.004	0.00023184	0.0002694	5.163e-05	1105.6	1.3011e-06	4.9161e-06	1217.5	220.17	1.5524e-06	4.2293e-06	286.87	79.342	61.362	18.245	2.6469e-06	25.86	0.00021857	0.00021746	6.1149e-05	1055.7	2.4182e-06	2.4026e-06	1158.4	213.35	2.4178e-06	2.4219e-06	272.32	76.721	60.095	18.305	2.4488e-06	25.516	31.699	9.490	334.849	-0.382	125.344	203.996	-0.465	7.434	20.842	322.373	6.737	13.995	14.006	21.405	216.438	20.339	-8191	255	
2957.373	1	1	0	0	0.18781	0.21256	0.079625	0.17931	0.13445	0.15518	0.22803	0.12647	0.063631	0.1014	0.11585	0.29882	0.045614	0.20782	0.23376	0.34614	-4.1333	-3.7479	-3.8042	-4.5771	-3.5479	-4.2063	-4.3083	-3.4667	-4.4479	-3.9042	-3.7625	-4.4938	-3.4333	-4.0062	-4.4104	-3.3542	13.777	66.454	29.858	229.120	216.906	15.223	24.782	277.571	344.390	168.647	217.804	339.175	335.647	230.116	335.251	300.647	0.00040402	0.00027879	0.00014128	1111.7	4.3739e-06	3.2723e-06	1220.1	221	2.4938e-06	2.3583e-06	286.35	79.532	61.487	18.049	1.1643e-06	25.865	0.00022035	0.00021833	6.1271e-05	1056.5	2.429e-06	2.4191e-06	1157.7	214.06	2.4295e-06	2.419e-06	273.07	76.742	60.126	18.265	2.4105e-06	25.596	19.836	17.649	347.515	-0.365	131.100	161.786	-0.264	7.504	163.983	295.617	7.097	13.518	14.687	20.777	13.738	21.081	-8191	255	
2957.469	1	1	0	0	0.22092	0.1296	0.1378	0.099282	0.090114	0.033516	0.10546	0.044349	0.025903	0.072342	0.28338	0.32362	0.39334	0.20599	0.21907	0.087302	-4.2438	-3.8125	-3.4896	-4.6479	-3.1958	-4.2146	-4.5917	-3.2521	-4.4396	-3.8708	-3.7812	-4.6479	-3.5729	-3.9771	-4.3354	-3.5333	100.767	287.572	220.785	333.994	154.838	36.815	296.187	109.198	190.426	183.826	298.556	321.445	219.379	12.146	333.324	86.547	0.00022431	0.00044198	8.8557e-05	1108.8	3.2217e-06	3.7937e-06	1217.7	220.41	5.446e-06	5.4422e-06	286.99	78.879	61.132	18.252	5.4713e-06	25.697	0.0002228	0.00022195	6.1234e-05	1056.2	2.4387e-06	2.4313e-06	1157.5	213.65	2.4076e-06	2.4239e-06	273.28	76.579	59.893	18.311	2.4336e-06	25.474	45.076	116.539	168.238	-0.632	77.265	226.943	-0.123	7.077	112.382	58.443	6.820	14.143	14.101	21.570	150.824	20.515	-8191	255	
2957.590	1	1	0	0	0.21158	0.16995	0.12528	0.33859	0.13986	0.0016449	0.03203	0.11281	0.22126	0.086828	0.12874	0.20121	0.25107	0.2719	0.031257	0.099755	-4.0563	-3.8312	-3.5812	-4.5896	-3.6917	-3.9271	-4.5104	-3.4771	-4.2021	-3.7979	-3.5812	-4.3667	-3.55	-3.8604	-4.1729	-3.6125	254.406	196.535	89.949	290.202	136.677	180.000	344.926	91.781	88.367	248.408	52.886	329.878	293.188	9.692	80.936	253.508	0.00032853	0.00074557	9.7202e-05	1104.9	1.8333e-06	7.3065e-06	1214.4	219.79	3.9568e-06	4.0716e-06	286.11	79.643	61.399	18.227	6.1949e-06	25.987	0.00022058	0.00021873	6.1353e-05	1055.7	2.4185e-06	2.3954e-06	1157.3	213.76	2.4011e-06	2.4203e-06	272.79	76.815	59.953	18.298	2.4095e-06	25.595	43.448	189.062	36.313	-0.475	89.548	123.327	-0.301	6.985	186.235	-10.083	6.959	14.122	13.983	21.100	141.606	20.706	-8191	255	
2957.684	1	1	0	0	0.0699	0.080827	0.15778	0.10438	0.073618	0.10471	0.29207	0.06861	0.23523	0.11777	0.15615	0.14282	0.22057	0.29986	0.1434	0.25027	-3.9104	-4.0604	-3.4	-4.5208	-3.6188	-3.8125	-4.6062	-3.3417	-4.3146	-4.1229	-3.3792	-4.5354	-3.8875	-3.8354	-4.4917	-3.3896	315.121	324.845	246.832	284.699	231.193	3.136	307.742	-5.618	220.828	30.257	86.312	41.089	-3.108	274.165	-4.284	292.020	0.00050863	0.00066462	5.0521e-05	1102	1.7323e-06	2.1442e-06	1217.5	220.05	4.8594e-06	1.6961e-06	285.97	79.026	61.333	18.145	2.5164e-06	25.731	0.00021892	0.00021887	6.0958e-05	1053.9	2.3944e-06	2.4025e-06	1157.9	213.65	2.4118e-06	2.3904e-06	272.91	76.505	60.015	18.229	2.4041e-06	25.475	67.855	147.153	128.809	-0.238	29.435	33.337	-0.195	7.465	40.053	59.647	6.464	14.075	13.798	21.086	193.991	20.014	-8191	255	
2957.782	1	1	0	0	0.061383	0.24823	0.21074	0.28592	0.189	0.067251	0.16389	0.51724	0.21668	0.14165	0.10515	0.11421	0.23886	0.1172	0.16717	0.14183	-3.8771	-4.3667	-3.2333	-4.85	-3.6771	-3.8479	-4.7896	-3.4729	-4.2812	-4.3063	-3.325	-4.6792	-3.9229	-3.6521	-4.675	-3.4875	203.453	279.648	343.421	291.622	173.731	80.569	260.255	312.716	340.402	211.874	319.484	338.670	323.047	321.659	34.648	224.429	0.0002704	0.00035338	0.00014805	1107.5	9.0721e-06	3.7437e-06	1218.5	219.94	3.1097e-06	3.3275e-06	286.54	79.901	61.154	18.242	4.5645e-06	25.775	0.00022019	0.00021955	6.1123e-05	1056.1	2.4113e-06	2.4333e-06	1160	213.4	2.4069e-06	2.4135e-06	273.22	76.885	59.884	18.314	2.4042e-06	25.502	329.030	4.060	140.651	-0.507	83.006	86.781	-0.267	7.049	216.615	100.737	6.748	14.354	13.825	21.362	73.944	20.489	-8191	255	
2957.901	1	1	0	0	0.17928	0.19168	0.17913	0.27889	0.071177	0.076776	0.28829	0.17088	0.142	0.11714	0.017099	0.18633	0.15604	0.12361	0.34378	0.15922	-3.7	-4.275	-3.4458	-4.6708	-3.8208	-3.6542	-4.8104	-3.6208	-4.0292	-4.3187	-3.6083	-4.6479	-3.8083	-3.7542	-4.6687	-3.5917	331.951	30.271	43.770	267.207	229.876	224.086	250.617	290.403	-0.266	18.797	223.017	304.687	334.575	331.670	72.222	166.985	0.00018338	0.00029799	0.00010922	1105.3	3.621e-06	3.2182e-06	1223.3	219.96	1.3787e-06	4.3151e-06	286.43	79.517	61.48	18.253	3.049e-06	25.691	0.00021977	0.00021937	6.1074e-05	1057.1	2.4167e-06	2.4034e-06	1160.1	213.74	2.3883e-06	2.3799e-06	272.87	76.715	59.978	18.268	2.3817e-06	25.434	84.955	128.279	254.102	-0.216	146.546	337.661	-0.313	6.960	97.812	158.004	6.791	14.055	13.989	21.219	27.362	20.879	-8191	255	
2957.973	1	1	0	0	0.058092	0.17453	0.063691	0.12566	0.15161	0.16629	0.22453	0.17818	0.11453	0.21401	0.19429	0.19196	0.13809	0.16942	0.15978	0.18033	-3.7583	-4.3292	-3.5292	-4.5083	-3.8125	-3.8	-4.7833	-3.7271	-4.1417	-4.45	-3.3458	-4.5521	-4.0542	-3.6437	-4.4083	-3.5375	41.740	110.941	320.406	54.237	341.824	11.591	254.418	264.065	278.015	179.882	227.053	292.182	80.384	125.108	127.326	144.583	0.00035197	0.00031397	0.00011283	1107.6	2.6968e-06	7.1235e-07	1226.4	221.42	6.8559e-06	4.4457e-06	288.07	79.654	61.534	18.386	2.4895e-06	25.807	0.00021912	0.00021895	6.0898e-05	1057	2.3853e-06	2.3976e-06	1162.5	213.92	2.4266e-06	2.4198e-06	272.67	76.795	60.1	18.386	2.4271e-06	25.451	19.306	71.670	304.809	-0.394	140.152	284.821	-0.198	7.080	195.602	96.109	6.842	14.439	14.182	21.088	183.883	20.805	-8191	255	
2958.069	1	1	0	0	0.035697	0.11769	0.19787	0.3637	0.38351	0.14294	0.36889	0.18905	0.041138	0.16084	0.22736	0.22848	0.18729	0.14005	0.16939	0.091465	-3.7208	-4.5563	-3.2562	-4.6604	-4.1271	-3.25	-4.7417	-3.6729	-3.8104	-4.5979	-3.275	-4.4708	-4.3375	-3.3958	-5.0042	-3.7833	64.088	343.247	222.750	-4.425	348.305	275.064	290.393	257.099	324.829	42.633	247.582	226.895	295.835	277.110	27.684	333.056	0.00034643	0.001215	7.5705e-05	1111.5	4.6778e-06	3.2369e-06	1219.1	220.5	7.4303e-06	1.8508e-06	287.05	78.983	61.197	18.255	4.2023e-06	25.836	0.00022254	0.00021938	6.1553e-05	1059.8	2.4268e-06	2.4277e-06	1160.1	213.75	2.4008e-06	2.4161e-06	272.84	76.866	60.013	18.317	2.3827e-06	25.538	42.626	72.901	51.223	-0.355	140.071	119.302	-0.145	7.417	70.544	178.535	7.166	14.224	14.280	21.673	97.624	20.315	-8191	255	
2958.190	1	1	0	0	0.27193	0.16431	0.25446	0.12058	0.13184	0.27897	0.1554	0.099651	0.14777	0.17655	0.14114	0.02943	0.15771	0.38917	0.093524	0.154	-3.3896	-4.7063	-3.375	-4.4271	-4.2896	-3.5292	-4.8646	-3.7062	-3.5667	-4.6083	-3.3958	-4.1396	-4.3063	-3.6229	-4.5896	-3.7938	337.166	222.019	62.134	313.598	277.171	114.371	327.676	119.095	-3.018	143.249	170.871	317.799	154.325	206.440	145.397	-6.346	0.00038882	0.00043979	0.00011172	1109.8	9.7699e-07	7.2282e-06	1222	219.33	8.1315e-06	4.043e-06	285.63	78.921	61.163	18.228	4.7337e-06	25.717	0.00022161	0.0002188	6.0905e-05	1058.3	2.4031e-06	2.3933e-06	1159.7	212.84	2.4247e-06	2.3992e-06	271.83	76.811	59.995	18.262	2.399e-06	25.459	36.378	128.435	13.104	-0.425	104.991	149.869	-0.305	7.140	156.103	29.725	6.958	14.319	14.358	21.456	46.703	20.579	-8191	255	
2958.286	1	1	0	0	0.25468	0.090535	0.13111	0.39666	0.093688	0.097796	0.35569	0.21476	0.30631	0.19273	0.097928	0.069388	0.1768	0.068777	0.018396	0.066093	-3.4708	-4.4708	-3.4083	-4.15	-4.4229	-3.6875	-4.7625	-3.9938	-3.6979	-4.6021	-3.6417	-4.0833	-4.2937	-3.5417	-4.4375	-3.9208	268.263	81.500	-4.224	305.607	12.125	98.064	290.631	337.668	305.501	9.401	302.395	32.492	15.360	4.275	164.304	299.938	0.00032048	0.00041782	2.4357e-05	1103.4	2.1302e-06	6.7547e-06	1217.1	220.77	6.2057e-06	3.7367e-06	284.89	79.375	61.322	18.255	3.2503e-06	25.631	0.00022004	0.00021845	6.0419e-05	1055.6	2.4083e-06	2.4114e-06	1157.4	213.53	2.4048e-06	2.3978e-06	271.74	76.722	59.971	18.271	2.4035e-06	25.426	29.381	75.623	261.927	-0.363	24.505	84.387	-0.435	7.131	146.351	97.972	6.754	14.144	14.259	21.297	120.701	20.649	-8191	255	
2958.382	1	1	0	0	0.13935	0.10295	0.23325	0.29636	0.046537	0.1363	0.093802	0.096655	0.14321	0.10721	0.10482	0.16859	0.047163	0.12317	0.10595	0.11985	-3.4229	-4.3604	-3.625	-4.1917	-4.1	-3.7458	-4.6854	-3.9729	-3.6354	-4.4938	-3.8312	-4.3604	-4.3292	-3.6979	-4.3729	-3.9938	297.524	110.314	155.873	295.444	294.966	202.739	346.520	105.904	196.760	131.780	38.191	327.123	273.004	283.242	144.462	293.940	0.00030928	0.00027667	0.0001839	1105	4.1403e-06	4.4479e-06	1220.9	220.88	5.4223e-06	6.8947e-06	285.62	79.288	61.245	18.095	6.4472e-07	25.921	0.00022219	0.00021866	6.0744e-05	1055	2.4045e-06	2.3905e-06	1157.9	213.59	2.4115e-06	2.392e-06	271.44	76.891	59.922	18.27	2.4093e-06	25.483	-8.144	81.307	293.195	-0.217	195.606	74.129	-0.383	7.242	133.044	30.881	6.647	14.214	14.084	21.029	16.527	20.756	-8191	255	
2958.503	1	1	0	0	0.13312	0.092871	0.042563	0.12439	0.12187	0.054387	0.079257	0.043353	0.090126	0.046438	0.077137	0.39116	0.29498	0.019281	0.15242	0.2089	-3.3646	-4.3646	-3.6063	-4.1896	-4.2896	-3.6271	-4.5125	-4.0917	-3.55	-4.5979	-3.7062	-3.8688	-4.2917	-3.5208	-4.2833	-4.0375	198.225	200.644	264.570	46.542	8.841	248.541	299.438	-5.144	16.659	23.994	43.938	338.836	39.811	158.953	151.204	15.114	0.00025749	0.00090831	5.4797e-05	1102	4.5825e-06	2.6085e-06	1218.4	219.95	2.4815e-06	3.8202e-06	287.95	78.76	61.371	18.213	5.3639e-06	25.682	0.00022117	0.00021823	6.1014e-05	1055.2	2.408e-06	2.4114e-06	1160.1	213.54	2.4348e-06	2.4261e-06	272.44	76.763	60.025	18.338	2.4389e-06	25.54	93.522	103.637	35.035	-0.442	60.127	131.298	-0.371	7.216	211.836	147.571	6.760	14.272	13.994	21.734	169.828	21.133	-8191	255	
2958.599	1	1	0	0	0.077083	0.21561	0.10061	0.25303	0.095271	0.2017	0.34298	0.1624	0.036755	0.18145	0.11949	0.18201	0.099962	0.094385	0.08506	0.14067	-3.2104	-4.5708	-3.7146	-4.0188	-4.4708	-3.5229	-4.4396	-4.1958	-3.4437	-4.675	-3.9021	-3.7833	-4.7042	-3.6	-4.1625	-4.1979	191.214	89.876	69.231	329.589	2.121	339.180	283.567	74.566	329.301	323.825	81.204	245.147	276.075	12.160	200.985	39.633	0.00012329	0.00052096	4.3497e-06	1107.2	5.5945e-07	5.1791e-06	1222.5	219.57	3.5349e-06	2.2355e-06	287.04	79.642	61.633	18.136	3.2275e-06	25.575	0.00022438	0.00022199	6.151e-05	1055.6	2.4368e-06	2.4224e-06	1161.4	213.38	2.4437e-06	2.4133e-06	272.51	77.004	60.063	18.263	2.4454e-06	25.467	36.371	4.889	176.049	-0.430	188.638	89.874	-0.211	7.090	129.432	36.140	6.600	14.265	14.072	21.473	132.302	20.850	-8191	255	
2958.670	1	1	0	0	0.039118	0.094824	0.19345	0.29566	0.21619	0.14045	0.13533	0.18409	0.062508	0.21875	0.41991	0.21118	0.041621	0.23733	0.021137	0.075033	-2.9375	-4.6917	-3.8625	-3.8604	-4.6229	-3.4583	-4.45	-4.5146	-3.5542	-4.6729	-4.0896	-3.7354	-4.55	-3.5917	-4.1875	-4.4062	245.135	163.220	176.846	245.854	189.836	211.952	224.514	337.973	236.794	215.089	347.899	54.671	297.819	285.860	123.750	337.945	0.00042673	0.00060285	0.00012539	1104.2	3.9616e-06	7.2823e-06	1224.5	219.67	4.1078e-06	1.9756e-06	287.89	80	60.765	18.227	4.9476e-06	25.882	0.00022249	0.00022007	6.1659e-05	1057.2	2.4125e-06	2.4172e-06	1161.4	213.79	2.4315e-06	2.4121e-06	272.12	76.888	59.824	18.253	2.4221e-06	25.555	11.379	99.308	141.141	-0.142	118.541	121.449	-0.444	7.336	75.163	126.841	6.805	14.253	14.164	20.559	105.020	20.863	-8191	255	
2958.765	1	1	0	0	0.16804	0.23349	0.1948	0.20563	0.038521	0.072673	0.24049	0.18136	0.053389	0.17447	0.2694	0.048489	0.30259	0.2214	0.2299	0.15151	-3.2021	-4.4812	-3.8521	-3.875	-4.4417	-3.6	-4.3562	-4.2562	-3.4729	-4.4458	-4.1333	-3.7042	-4.5333	-3.6688	-3.8812	-4.3958	339.698	51.815	153.464	2.818	285.712	100.774	264.592	162.924	300.933	320.244	257.846	211.430	67.588	311.978	75.899	246.717	0.00030932	0.00069087	0.00011312	1099.4	4.0531e-06	8.8239e-07	1223.5	220.3	5.9691e-06	1.3118e-06	286.31	78.813	61.428	18.093	5.8601e-06	25.534	0.00022086	0.00021908	6.0777e-05	1054.9	2.4185e-06	2.4071e-06	1161.1	213.41	2.4248e-06	2.4138e-06	271.97	76.555	60.12	18.248	2.4278e-06	25.41	52.261	38.356	283.665	-0.395	257.662	24.414	-0.114	7.481	117.176	42.629	6.632	13.797	14.208	21.152	256.316	20.736	-8191	255	
2958.885	1	1	0	0	0.16187	0.12505	0.083453	0.25253	0.22602	0.010576	0.30251	0.24326	0.045277	0.11641	0.16381	0.19524	0.17027	0.15338	0.035515	0.095258	-3.0896	-4.3958	-3.875	-3.9021	-4.3521	-3.4729	-4.0333	-4.5312	-3.5458	-4.3854	-4.0938	-3.7417	-4.8167	-3.5896	-3.9167	-4.5979	174.074	25.829	34.046	291.475	235.490	166.502	311.226	318.711	338.372	322.635	183.660	313.264	122.916	258.130	97.883	341.224	0.00052089	0.00032061	0.00010685	1106.3	2.196e-06	1.7818e-06	1214.2	219.71	1.1973e-05	1.2605e-06	286.87	79.943	61.51	18.122	3.6462e-06	25.991	0.00022121	0.00022252	6.1412e-05	1055.6	2.4349e-06	2.4324e-06	1157.4	213.51	2.4407e-06	2.442e-06	272.22	76.896	60.142	18.243	2.4429e-06	25.484	-3.082	129.378	116.105	-0.491	144.950	212.012	-0.262	7.146	228.249	149.729	6.996	14.300	14.600	20.791	217.393	20.368	-8191	255	
2958.982	1	1	0	0	0.05018	0.09486	0.044209	0.29286	0.11154	0.042232	0.23109	0.1999	0.17918	0.09489	0.23002	0.24133	0.27444	0.16953	0.11122	0.093346	-2.8937	-4.4625	-4.2271	-3.7646	-4.5958	-3.5854	-4.1687	-4.5437	-3.6292	-4.2646	-4.2604	-3.6312	-4.5188	-3.8042	-3.8896	-4.5104	141.265	78.554	152.641	284.611	11.694	262.923	294.654	34.146	227.561	291.529	238.007	301.761	303.579	348.349	-5.835	318.960	0.00042742	0.00030204	0.00020465	1105.4	5.0829e-06	5.7912e-06	1219.3	220.86	5.9437e-06	2.7638e-06	286.04	79.62	61.47	18.138	3.7639e-06	25.52	0.00022316	0.00022142	6.1706e-05	1054.2	2.4053e-06	2.4286e-06	1159.5	213.34	2.4381e-06	2.4492e-06	272.29	76.748	60.146	18.257	2.4239e-06	25.444	45.109	93.050	0.540	-0.442	168.138	99.060	0.096	7.155	-3.555	159.270	6.829	13.997	14.173	21.577	203.382	20.570	-8191	255	
2959.078	1	1	0	0	0.053213	0.13845	0.051414	0.22746	0.033402	0.044001	0.26722	0.2379	0.052609	0.14993	0.28787	0.054611	0.03164	0.1291	0.47538	0.094336	-3.1792	-4.2646	-4.0896	-3.7021	-4.7083	-3.9667	-4.0146	-4.7583	-3.4896	-4.0687	-4.3688	-3.7146	-4.6729	-3.8146	-3.8646	-4.6229	145.679	230.697	178.244	307.139	246.459	114.376	331.348	298.191	143.979	344.117	127.073	242.369	233.063	102.635	36.173	265.449	0.00024011	0.00063221	8.3103e-05	1108.9	6.5946e-06	2.1459e-06	1214.5	219.85	2.9449e-06	5.6214e-06	285.99	79.732	61.522	18.13	6.7913e-06	25.908	0.00022427	0.00022096	6.1379e-05	1055.9	2.41e-06	2.3992e-06	1157.5	213.5	2.4206e-06	2.4128e-06	271.94	76.711	60.012	18.213	2.435e-06	25.523	341.910	82.393	29.105	-0.492	341.044	305.380	-0.242	6.843	113.474	192.747	6.717	14.332	13.955	20.627	155.120	20.855	-8191	255	
2959.174	1	1	0	0	0.24171	0.13128	0.089375	0.17997	0.10192	0.087428	0.32479	0.17433	0.26352	0.13489	0.25182	0.1169	0.18695	0.048782	0.062016	0.28332	-3.2	-4.3479	-4.3438	-3.5687	-4.5792	-3.8187	-3.7167	-4.7167	-3.4062	-4.1625	-4.3542	-3.2604	-4.55	-4.0354	-3.5875	-4.7167	135.438	296.621	96.022	260.493	268.316	88.246	313.884	36.860	78.791	162.313	23.229	345.232	323.473	-0.779	325.733	287.674	0.00051082	0.00028278	0.00019191	1099.7	6.5677e-06	3.6274e-06	1222.8	221.63	5.3022e-06	2.5568e-06	286.08	79.392	61.023	18.121	1.1992e-05	25.957	0.00022184	0.00022236	6.1673e-05	1052.3	2.4515e-06	2.4316e-06	1162.6	214.1	2.4642e-06	2.441e-06	271.81	76.685	60.052	18.261	2.4245e-06	25.569	70.297	91.367	173.323	-0.466	42.869	201.632	-0.188	7.169	245.190	216.355	6.942	14.324	14.510	20.739	88.764	20.736	-8191	255	
2959.270	1	1	0	0	0.10019	0.0033344	0.35604	0.14143	0.15584	0.1431	0.20538	0.1408	0.14407	0.10094	0.10578	0.0583	0.17869	0.020037	0.087517	0.18284	-3.0687	-4.1125	-4.5188	-3.4333	-4.6125	-3.9521	-3.8063	-4.6958	-3.4729	-4.1146	-4.4583	-3.1479	-4.5146	-4.0625	-3.4542	-4.7104	95.154	235.677	102.381	246.797	158.941	168.899	243.767	237.883	55.757	251.341	189.135	115.218	247.077	99.229	305.067	104.499	0.00033364	0.0003777	0.00021438	1104.1	1.7671e-06	3.4817e-06	1221.3	220.24	1.2563e-06	4.4415e-06	285.51	78.825	61.161	18.165	2.7347e-06	25.96	0.00022568	0.00022202	6.1554e-05	1056.2	2.4236e-06	2.4202e-06	1162.4	213.52	2.4615e-06	2.4088e-06	272.16	76.62	60.167	18.26	2.4267e-06	25.62	342.746	35.183	-9.160	-0.536	266.087	221.029	-0.269	7.434	24.312	233.572	6.591	14.392	14.128	21.262	120.900	21.070	-8191	255	
2959.366	1	1	0	0	0.24968	0.11335	0.17011	0.35227	0.12014	0.16345	0.20225	0.10397	0.17222	0.067871	0.15746	0.14267	0.077145	0.15479	0.091585	0.15214	-3.3396	-3.9583	-4.3771	-3.6333	-4.4833	-3.9208	-3.7188	-4.7667	-3.6104	-4.0333	-4.5021	-3.4875	-4.2708	-4.2688	-3.7125	-4.5833	169.747	329.149	147.227	271.785	157.382	149.692	303.829	-5.742	149.697	179.492	321.120	37.589	210.943	20.215	87.105	310.327	0.00054258	0.0010731	0.00026849	1108	2.4686e-06	8.5317e-06	1220.1	220.67	8.3385e-07	7.2938e-06	285.82	78.967	61.467	18.169	1.0834e-06	25.855	0.00022193	0.00022116	6.1729e-05	1056.5	2.4124e-06	2.4202e-06	1161.5	214.04	2.4386e-06	2.4144e-06	271.56	76.704	60.14	18.26	2.4436e-06	25.554	35.635	116.273	41.918	-0.474	109.056	110.739	-0.179	7.362	61.608	23.042	6.755	13.342	14.562	21.299	214.503	20.810	-8191	255	
2959.462	1	1	0	0	0.26711	0.054379	0.22091	0.10536	0.24981	0.055205	0.16206	0.15616	0.14203	0.10277	0.13431	0.19512	0.15071	0.031693	0.081336	0.11424	-3.4437	-3.9188	-4.4792	-3.8083	-4.4229	-4.1	-3.825	-4.5687	-3.7958	-3.9396	-4.45	-3.5521	-4.4521	-4.1792	-3.8896	-4.5875	328.732	219.022	328.222	330.110	280.402	91.545	284.318	319.196	308.198	73.606	67.558	261.497	290.738	143.089	223.792	83.175	0.00047795	0.00059858	3.4539e-05	1102.1	5.3086e-06	4.5072e-06	1221.7	221.21	7.3832e-06	1.1672e-06	287.46	79.414	61.598	18.204	2.3975e-06	25.669	0.0002233	0.00022113	6.1778e-05	1055.4	2.4339e-06	2.4266e-06	1160.5	214.19	2.4558e-06	2.4447e-06	272.63	76.77	60.344	18.32	2.4651e-06	25.53	19.644	198.355	86.686	-0.553	127.984	169.346	-0.243	7.255	161.051	170.551	7.296	13.917	14.415	21.245	-1.984	20.676	-8191	255	
2959.583	1	1	0	0	0.16637	0.026505	0.19644	0.26626	0.21748	0.085633	0.097489	0.2343	0.14033	0.11013	0.028108	0.27088	0.10125	0.08894	0.38271	0.30069	-3.4271	-3.8187	-4.5687	-3.5354	-4.2979	-4.3104	-3.8146	-4.675	-3.9104	-3.8396	-4.7271	-3.6937	-4.3417	-4.2896	-3.5167	-4.5938	283.047	251.406	297.239	299.792	102.158	-6.212	221.310	305.310	85.511	181.785	279.004	329.980	328.159	325.494	245.985	281.425	0.00032591	0.00049429	3.9141e-05	1107.4	3.3462e-06	1.8112e-06	1222.2	221.39	5.9453e-06	2.4122e-06	287.41	79.562	61.569	18.354	2.6999e-06	25.904	0.00022375	0.00022041	6.1965e-05	1057.3	2.4506e-06	2.4452e-06	1161.9	214.27	2.4494e-06	2.4151e-06	272.82	76.865	60.244	18.332	2.4589e-06	25.63	3.214	281.643	47.105	-0.355	164.394	184.740	-0.176	7.157	67.864	295.588	6.854	13.673	13.961	20.989	177.815	21.036	-8191	255	
2959.677	1	1	0	0	0.19846	0.15563	0.21365	0.064894	0.1486	0.085901	0.22653	0.23424	0.19048	0.11003	0.012406	0.17254	0.30865	0.29036	0.11355	0.064634	-3.6333	-3.6625	-4.6438	-3.6354	-4.3167	-4.4104	-3.7354	-4.7229	-3.8958	-3.8063	-4.5938	-3.6042	-4.0938	-4.4958	-3.65	-4.5604	242.559	150.598	312.276	162.538	307.523	248.141	251.679	265.740	127.255	81.135	81.413	159.632	192.817	131.081	10.192	124.163	0.00021433	0.00067823	9.7839e-05	1104.7	1.4544e-06	4.4289e-06	1220.4	220.67	1.8211e-06	5.7446e-06	285.83	78.797	61.689	18.289	3.8736e-06	25.695	0.00022294	0.00022243	6.1731e-05	1055.7	2.4408e-06	2.4154e-06	1161.4	213.92	2.4381e-06	2.4313e-06	272.07	76.533	60.357	18.295	2.4496e-06	25.493	27.416	129.969	37.603	-0.378	348.265	96.003	-0.424	7.162	218.873	130.219	6.729	13.985	14.441	21.077	145.593	20.889	-8191	255	
2959.773	1	1	0	0	0.30864	0.11188	0.15319	0.22421	0.17781	0.057329	0.44459	0.17506	0.086562	0.15718	0.0076475	0.21284	0.048297	0.16597	0.22706	0.20442	-3.6583	-3.6958	-4.525	-3.7542	-4.1292	-4.2729	-3.8542	-4.5208	-4.0542	-3.6021	-4.5104	-3.6604	-4.1104	-4.4583	-3.5729	-4.4271	341.052	165.101	82.250	266.297	320.161	296.488	253.390	110.599	327.264	245.659	193.467	78.685	168.407	13.590	320.612	326.986	0.00025858	0.00021599	0.00016736	1105	6.7709e-06	3.2151e-06	1223.2	220.95	1.8286e-06	8.042e-06	287.23	79.287	61.503	18.282	1.594e-06	26.086	0.00022303	0.00022089	6.1357e-05	1055.1	2.436e-06	2.4154e-06	1159.9	214.12	2.4349e-06	2.425e-06	272.7	76.538	60.124	18.302	2.4217e-06	25.577	67.338	140.692	56.845	-0.418	94.571	309.995	-0.068	7.280	328.440	194.479	6.910	14.082	14.520	21.264	153.287	20.909	-8191	255	
2959.870	1	1	0	0	0.14433	0.28928	0.24559	0.30957	0.13081	0.10672	0.0727	0.12359	0.010104	0.1074	0.27282	0.18005	0.15432	0.17584	0.052255	0.050573	-3.6125	-3.5979	-4.6167	-3.8792	-4.0667	-4.475	-3.7646	-4.5	-4.075	-3.5438	-4.775	-3.9479	-3.9354	-4.5958	-3.3396	-4.3958	254.044	195.926	11.213	349.401	178.139	253.860	113.312	245.067	104.644	75.438	299.006	163.019	64.879	231.841	120.807	264.082	0.00035535	0.00040075	0.00016905	1106.5	5.1412e-06	5.2444e-06	1218.3	221.09	4.0275e-06	3.8536e-06	286.35	78.675	61.692	18.2	5.9605e-06	25.829	0.00022036	0.00022216	6.1348e-05	1055.4	2.4004e-06	2.4098e-06	1159.8	213.97	2.4079e-06	2.4233e-06	272.79	76.606	60.227	18.343	2.4415e-06	25.518	21.057	162.874	-9.081	-0.401	163.896	345.940	-0.461	7.433	232.288	123.966	6.912	13.715	14.312	21.345	133.289	21.341	-8191	255	
2959.966	1	1	0	0	0.05954	0.28998	0.10409	0.36813	0.13099	0.20206	0.16033	0.064333	0.33923	0.13948	0.15039	0.12584	0.43179	0.17653	0.19141	0.066955	-3.925	-3.4437	-4.7354	-3.8688	-3.7792	-4.5729	-3.6333	-4.3938	-4.3375	-3.4021	-4.7417	-3.8229	-3.7542	-4.6479	-3.35	-4.2438	186.000	275.398	99.942	312.921	175.220	347.048	279.629	20.582	135.470	73.891	152.319	77.601	219.269	347.848	83.236	279.552	0.0006327	0.00033019	0.00012473	1105.9	3.9219e-06	2.8422e-06	1223.6	221.26	4.7959e-06	4.3727e-06	285.52	79.646	61.667	18.269	3.0739e-06	25.819	0.00022072	0.00022292	6.1283e-05	1056.1	2.4133e-06	2.4351e-06	1161.4	214	2.4278e-06	2.4317e-06	272.51	76.682	60.281	18.329	2.4373e-06	25.563	53.240	27.829	110.881	-0.601	71.282	78.438	-0.405	7.178	65.562	20.549	6.896	13.912	14.426	21.569	127.995	21.091	-8191	255	
2960.062	1	1	0	0	0.079738	0.14172	0.038762	0.15163	0.068066	0.19654	0.21553	0.22227	0.17764	0.19106	0.19265	0.19157	0.20359	0.00801	0.17892	0.031595	-4.1625	-3.7146	-4.4875	-4.0125	-3.65	-4.4521	-3.6083	-4.2104	-4.3187	-3.4625	-4.6708	-3.7896	-3.7979	-4.4792	-3.3542	-4.1083	334.353	227.557	345.184	292.797	27.962	27.374	297.143	289.319	310.445	246.003	282.018	288.705	300.155	168.293	23.656	341.950	0.00040186	0.00030618	0.00014955	1101	3.0991e-06	2.0231e-06	1216.7	220.5	1.2861e-06	2.7731e-06	289.6	79.193	61.515	18.152	1.2463e-06	25.764	0.00022282	0.00022334	6.2254e-05	1053.6	2.4581e-06	2.4437e-06	1159.6	213.79	2.4324e-06	2.4494e-06	273.12	76.705	60.224	18.299	2.4455e-06	25.548	23.665	127.037	17.954	-0.450	116.052	211.256	-0.395	7.286	30.404	245.342	6.738	13.775	14.161	21.476	332.333	21.120	-8191	255	
2960.183	1	1	0	0	0.19008	0.19259	0.1035	0.1565	0.18885	0.20159	0.07024	0.25049	0.21136	0.11354	0.19631	0.15847	0.049162	0.087904	0.20288	0.23609	-3.9125	-3.5938	-4.3042	-4.1438	-3.4896	-4.7958	-3.8812	-4.1625	-4.4646	-3.5792	-4.5563	-4.0604	-3.7146	-4.5125	-3.5292	-4.0312	196.797	222.127	121.443	97.705	191.119	23.047	222.600	339.148	169.022	61.472	5.812	20.756	194.296	80.001	303.134	338.330	0.00048392	0.00040541	9.9396e-05	1100.8	1.7943e-06	3.8629e-06	1214.7	220.69	4.3933e-06	4.3417e-07	285.62	79.185	61.377	18.21	3.1473e-06	25.678	0.00022363	0.00022506	6.2179e-05	1054	2.4721e-06	2.4565e-06	1155.6	214.08	2.4566e-06	2.4476e-06	272.15	76.629	60.179	18.273	2.4422e-06	25.534	98.239	95.796	320.754	-0.639	92.353	160.946	-0.313	7.350	196.728	317.024	6.739	14.044	14.516	21.352	-0.256	20.875	-8191	255	
2960.279	1	1	0	0	0.13337	0.10309	0.070155	0.28895	0.16381	0.19808	0.1257	0.16093	0.085701	0.092726	0.28653	0.17302	0.20379	0.10383	0.11659	0.12534	-4.1833	-3.7104	-4.3688	-4.2812	-3.6896	-4.5167	-3.775	-4.175	-4.4417	-3.6229	-4.5292	-4.2354	-3.7438	-4.7521	-3.7438	-4.0896	140.807	211.572	296.994	9.142	341.287	78.633	207.066	348.576	131.618	191.294	259.325	327.942	290.829	37.229	345.946	5.091	0.00051812	0.00010037	9.5143e-05	1101	3.9648e-06	3.514e-06	1217.9	219.78	4.4906e-06	5.75e-06	285.02	79.192	61.446	18.354	7.2333e-06	25.638	0.00022568	0.00022486	6.201e-05	1052.4	2.4835e-06	2.4705e-06	1156.6	213.97	2.4632e-06	2.451e-06	272.47	76.706	60.281	18.357	2.4551e-06	25.506	66.052	62.866	92.519	-0.575	158.390	114.968	-0.376	7.006	40.834	323.107	6.939	13.883	14.129	21.590	124.777	20.712	-8191	255	
2960.375	1	1	0	0	0.24064	0.072146	0.21099	0.10079	0.067624	0.045445	0.17591	0.078608	0.064856	0.10126	0.068839	0.13106	0.14822	0.24626	0.052861	0.27987	-4.1792	-3.3375	-4.3646	-4.1708	-3.5583	-4.5312	-3.9875	-3.9979	-4.5854	-3.5687	-4.1854	-4.2875	-3.6021	-4.7125	-3.7521	-3.95	303.377	220.220	23.244	311.733	274.757	272.122	301.577	234.810	219.732	309.124	301.027	155.791	333.253	303.711	152.824	21.063	0.00060075	0.00017626	3.7342e-05	1101.8	3.3365e-06	3.6802e-06	1212.9	220.26	4.2423e-06	3.3882e-06	286.45	79.431	61.528	18.292	1.2259e-06	25.748	0.00022389	0.00022471	6.223e-05	1054	2.4595e-06	2.4539e-06	1155.5	214.09	2.4536e-06	2.4594e-06	272.41	76.655	60.262	18.273	2.4569e-06	25.464	64.599	79.157	80.130	-0.592	198.718	35.316	-0.359	7.246	239.154	-7.182	6.718	14.265	14.004	21.327	289.096	21.113	-8191	255	
2960.471	1	1	0	0	0.1229	0.20868	0.062357	0.25981	0.12839	0.03961	0.34179	0.333	0.33139	0.19101	0.072799	0.048132	0.31594	0.10875	0.13529	0.11719	-4.15	-3.5812	-4.2708	-4.3333	-3.7875	-4.4271	-3.95	-3.8625	-4.5563	-3.4437	-4.3917	-4.2688	-3.3979	-4.4688	-3.9917	-3.7042	154.695	314.168	168.023	274.581	189.113	266.278	346.140	315.923	217.666	130.864	344.418	-5.302	15.691	320.541	279.121	214.665	0.00036483	0.00051516	0.00020883	1102.2	5.5227e-06	3.0294e-06	1215	220.99	5.5159e-06	4.3962e-06	286.29	79.449	61.186	18.203	2.7762e-06	25.688	0.00022383	0.00022467	6.1527e-05	1054.2	2.4613e-06	2.434e-06	1156.1	213.99	2.4432e-06	2.4321e-06	273.05	76.659	60.169	18.298	2.4405e-06	25.521	36.403	119.667	212.279	-0.709	69.084	204.177	-0.373	7.334	200.669	26.649	6.669	14.252	14.320	21.440	100.501	20.675	-8191	255	
2960.567	1	1	0	0	0.30997	0.2633	0.045902	0.34631	0.1685	0.11416	0.2252	0.23585	0.21007	0.072086	0.076589	0.21857	0.073531	0.31395	0.11467	0.16691	-4.2729	-3.4688	-4.0958	-4.5271	-3.4042	-4.5292	-4.0771	-3.8646	-4.5354	-3.475	-4.2229	-4.4458	-3.2042	-4.5979	-3.9229	-3.5375	205.217	150.577	166.561	32.161	181.541	305.099	248.365	99.102	227.911	290.899	325.830	117.464	76.458	34.342	176.062	20.432	0.00030696	0.00067921	0.00011391	1098.8	2.2996e-06	3.3583e-06	1218.4	220.58	4.5605e-06	3.1451e-06	288.11	79.368	61.398	18.203	2.356e-06	26.116	0.00022415	0.00022269	6.212e-05	1053.1	2.4409e-06	2.4429e-06	1154.9	214.03	2.4471e-06	2.4578e-06	273.36	76.792	60.105	18.328	2.4721e-06	25.567	16.858	106.301	340.577	-0.517	133.782	183.586	-0.478	6.930	88.083	282.827	7.223	14.030	14.650	21.459	86.644	20.631	-8191	255	
#DATA ENDS
