BOXY.EXE: ISS Imagent and Oximeter Data Acquisition Program Version 0.80
Ascii Record File

#ACQ INFORMATION
2  Detector Channels 
16  External MUX Channels 
1  Auxiliary Channels 
5000  Waveform (CCF) Frequency (Hz)
1  Waveforms Skipped 
30  Waveforms Averaged 
1  Cycles Averaged 
16  Acquisitions per Waveform 
10.0806  Updata Rate (Hz) 

#FILE INFORMATION
TRUE -- External MUX Channel results are PARSED.
FALSE -- AC DC and Phase are NOT grouped.
TRUE -- Companion Program Settings File CREATED.
FALSE -- AC data not excluded
FALSE -- DC data not excluded
FALSE -- Phase data not excluded
FALSE -- Auxillary Chn. data not excluded
Tab delimiters

#CALIBRATION STATE
TRUE -- Waveform Calibration Values APPLIED.


#AUX CALIBRATION VALUES
Val Type	aux-1	

Term	1.0000e+00	
Factor	0.0000e+00	


#WF CALIBRATION VALUES
A = Detector Channel
Val Type	A-AC1	A-AC2	A-AC3	A-AC4	A-AC5	A-AC6	A-AC7	A-AC8	A-AC9	A-AC10	A-AC11	A-AC12	A-AC13	A-AC14	A-AC15	A-AC16	A-DC1	A-DC2	A-DC3	A-DC4	A-DC5	A-DC6	A-DC7	A-DC8	A-DC9	A-DC10	A-DC11	A-DC12	A-DC13	A-DC14	A-DC15	A-DC16	A-Ph1	A-Ph2	A-Ph3	A-Ph4	A-Ph5	A-Ph6	A-Ph7	A-Ph8	A-Ph9	A-Ph10	A-Ph11	A-Ph12	A-Ph13	A-Ph14	A-Ph15	A-Ph16	

Term	0.00000e+00	0.00000e+00	0.00000e+00	0.00000e+00	0.00000e+00	0.00000e+00	0.00000e+00	0.00000e+00	0.00000e+00	0.00000e+00	0.00000e+00	0.00000e+00	0.00000e+00	0.00000e+00	0.00000e+00	0.00000e+00	0.00000e+00	0.00000e+00	0.00000e+00	0.00000e+00	0.00000e+00	0.00000e+00	0.00000e+00	0.00000e+00	0.00000e+00	0.00000e+00	0.00000e+00	0.00000e+00	0.00000e+00	0.00000e+00	0.00000e+00	0.00000e+00	0.00000e+00	0.00000e+00	0.00000e+00	0.00000e+00	0.00000e+00	0.00000e+00	0.00000e+00	0.00000e+00	0.00000e+00	0.00000e+00	0.00000e+00	0.00000e+00	0.00000e+00	0.00000e+00	0.00000e+00	0.00000e+00	
Factor	1.00000e+00	1.00000e+00	1.00000e+00	1.00000e+00	1.00000e+00	1.00000e+00	1.00000e+00	1.00000e+00	1.00000e+00	1.00000e+00	1.00000e+00	1.00000e+00	1.00000e+00	1.00000e+00	1.00000e+00	1.00000e+00	1.00000e+00	1.00000e+00	1.00000e+00	1.00000e+00	1.00000e+00	1.00000e+00	1.00000e+00	1.00000e+00	1.00000e+00	1.00000e+00	1.00000e+00	1.00000e+00	1.00000e+00	1.00000e+00	1.00000e+00	1.00000e+00	X	X	X	X	X	X	X	X	X	X	X	X	X	X	X	X	

B = Detector Channel
Val Type	B-AC1	B-AC2	B-AC3	B-AC4	B-AC5	B-AC6	B-AC7	B-AC8	B-AC9	B-AC10	B-AC11	B-AC12	B-AC13	B-AC14	B-AC15	B-AC16	B-DC1	B-DC2	B-DC3	B-DC4	B-DC5	B-DC6	B-DC7	B-DC8	B-DC9	B-DC10	B-DC11	B-DC12	B-DC13	B-DC14	B-DC15	B-DC16	B-Ph1	B-Ph2	B-Ph3	B-Ph4	B-Ph5	B-Ph6	B-Ph7	B-Ph8	B-Ph9	B-Ph10	B-Ph11	B-Ph12	B-Ph13	B-Ph14	B-Ph15	B-Ph16	

Term	0.00000e+00	0.00000e+00	0.00000e+00	0.00000e+00	0.00000e+00	0.00000e+00	0.00000e+00	0.00000e+00	0.00000e+00	0.00000e+00	0.00000e+00	0.00000e+00	0.00000e+00	0.00000e+00	0.00000e+00	0.00000e+00	0.00000e+00	0.00000e+00	0.00000e+00	0.00000e+00	0.00000e+00	0.00000e+00	0.00000e+00	0.00000e+00	0.00000e+00	0.00000e+00	0.00000e+00	0.00000e+00	0.00000e+00	0.00000e+00	0.00000e+00	0.00000e+00	-2.38903e+02	-1.30801e+02	-1.63948e+02	-1.83590e+02	-1.19141e+02	-8.70241e+01	-1.56897e+02	-1.62015e+02	-7.30551e+01	-8.26205e+01	-1.70590e+02	-1.70867e+02	-1.80044e+02	-1.77413e+02	-7.81630e+01	-1.50406e+02	
Factor	6.10723e-05	1.20878e-04	3.70736e-05	1.67276e-01	1.13400e-06	1.16405e-06	1.90682e-01	6.00034e-02	1.25406e-06	1.06024e-06	9.97472e-02	3.83765e-02	2.97706e-02	1.08004e-02	1.14664e-06	1.57894e-02	4.97580e-07	5.02158e-07	1.39475e-07	8.01861e-02	5.49628e-09	5.49947e-09	8.54324e-02	2.82743e-02	5.50406e-09	5.50380e-09	4.40950e-02	1.66559e-02	1.35827e-02	4.90122e-03	5.51462e-09	6.83088e-03	X	X	X	X	X	X	X	X	X	X	X	X	X	X	X	X	



#DISTANCE SETTINGS
A = Detector Channel
A-1	A-2	A-3	A-4	A-5	A-6	A-7	A-8	A-9	A-10	A-11	A-12	A-13	A-14	A-15	A-16	

2.5000e+00	3.0000e+00	2.5000e+00	3.0000e+00	2.0000e+00	3.0000e+00	1.5000e+00	3.0000e+00	3.0000e+00	3.0000e+00	3.0000e+00	3.0000e+00	3.0000e+00	3.0000e+00	1.5000e+00	3.0000e+00	

B = Detector Channel
B-1	B-2	B-3	B-4	B-5	B-6	B-7	B-8	B-9	B-10	B-11	B-12	B-13	B-14	B-15	B-16	

1.0000e+01	1.0000e+01	1.0000e+01	1.4400e+00	1.0000e+01	1.0000e+01	1.5100e+00	1.9400e+00	1.0000e+01	1.0000e+01	1.9900e+00	2.4900e+00	2.4100e+00	2.9000e+00	1.0000e+01	2.9800e+00	




#DATA BEGINS
time	group	step	mark	flag	A-AC1	A-AC2	A-AC3	A-AC4	A-AC5	A-AC6	A-AC7	A-AC8	A-AC9	A-AC10	A-AC11	A-AC12	A-AC13	A-AC14	A-AC15	A-AC16	A-DC1	A-DC2	A-DC3	A-DC4	A-DC5	A-DC6	A-DC7	A-DC8	A-DC9	A-DC10	A-DC11	A-DC12	A-DC13	A-DC14	A-DC15	A-DC16	A-Ph1	A-Ph2	A-Ph3	A-Ph4	A-Ph5	A-Ph6	A-Ph7	A-Ph8	A-Ph9	A-Ph10	A-Ph11	A-Ph12	A-Ph13	A-Ph14	A-Ph15	A-Ph16	B-AC1	B-AC2	B-AC3	B-AC4	B-AC5	B-AC6	B-AC7	B-AC8	B-AC9	B-AC10	B-AC11	B-AC12	B-AC13	B-AC14	B-AC15	B-AC16	B-DC1	B-DC2	B-DC3	B-DC4	B-DC5	B-DC6	B-DC7	B-DC8	B-DC9	B-DC10	B-DC11	B-DC12	B-DC13	B-DC14	B-DC15	B-DC16	B-Ph1	B-Ph2	B-Ph3	B-Ph4	B-Ph5	B-Ph6	B-Ph7	B-Ph8	B-Ph9	B-Ph10	B-Ph11	B-Ph12	B-Ph13	B-Ph14	B-Ph15	B-Ph16	aux-1	digaux	

3004.621	1	1	0	256	0.25529	0.15343	0.1831	0.38924	0.167	0.40186	0.26412	0.19013	0.071722	0.025474	0.16266	0.15904	0.17681	0.054672	0.085439	0.1968	-3.8312	-4.3854	-3.6188	-4.5625	-4.0062	-3.5271	-4.7167	-3.75	-4.0083	-4.4667	-3.5146	-4.4646	-4.2063	-3.7021	-4.5042	-3.9833	221.876	164.081	104.917	285.778	215.327	90.352	257.718	296.135	13.882	277.635	327.720	231.860	218.583	303.141	312.801	64.279	0.00087552	0.00064331	6.4887e-05	1416.8	3.3589e-06	1.66e-06	1415.8	375.12	1.6748e-06	2.2181e-06	429.85	142.32	122.89	41.941	3.0593e-06	52.16	0.00031956	0.00031582	8.7959e-05	1396.4	3.4461e-06	3.4636e-06	1388	367.64	3.4558e-06	3.4314e-06	415.06	136.84	118.93	40.753	3.4544e-06	50.25	13.827	58.176	5.759	-2.759	117.097	142.736	-3.130	1.742	97.417	132.643	1.090	6.182	6.515	10.894	139.902	9.953	-8191	255	
3004.718	1	1	0	0	0.19011	0.073128	0.21261	0.3382	0.1023	0.23097	0.236	0.1522	0.084149	0.12313	0.23783	0.12871	0.11417	0.15368	0.10707	0.024674	-3.6688	-4.3625	-3.3812	-4.5854	-4.1146	-3.6063	-4.7708	-3.8542	-3.75	-4.5062	-3.5167	-4.4313	-4.4125	-3.6729	-4.6687	-3.8208	336.646	313.666	-1.019	327.055	129.305	58.990	315.322	67.530	181.387	80.099	254.535	324.398	105.846	236.881	256.052	270.033	0.00053875	0.00032968	0.00021104	1417.7	8.1093e-06	4.5409e-06	1415.2	374.52	3.3235e-06	3.6295e-06	430.27	142.59	122.25	41.863	9.0317e-06	52.009	0.00031399	0.00031194	8.6731e-05	1395.9	3.4136e-06	3.4158e-06	1385.6	367.39	3.4143e-06	3.4185e-06	414.31	136.77	118.65	40.699	3.4539e-06	50.121	55.270	112.901	74.399	-2.910	136.426	105.440	-2.889	1.831	138.716	148.505	1.370	6.227	6.409	10.654	191.653	10.195	-8191	255	
3004.838	1	1	0	0	0.28491	0.25249	0.098106	0.24335	0.21076	0.061337	0.15159	0.26824	0.094548	0.19159	0.076828	0.14632	0.16973	0.10991	0.19901	0.060629	-3.6	-4.3938	-3.375	-4.5813	-4.3146	-3.525	-4.8417	-3.9375	-3.7104	-4.6958	-3.4208	-4.2083	-4.5354	-3.5146	-4.5917	-4.0083	18.692	275.098	221.674	331.445	186.510	321.246	303.045	244.174	264.402	166.425	290.461	-3.559	65.903	300.535	156.800	19.116	0.00060724	0.00018811	7.7741e-05	1419.2	1.1869e-05	3.7951e-06	1408.3	374.3	2.972e-06	2.0991e-06	426.54	142.25	122.77	41.912	8.9026e-06	52.079	0.00031521	0.00031184	8.6933e-05	1395.5	3.3943e-06	3.4104e-06	1385.2	366.85	3.3771e-06	3.4064e-06	412.8	136.44	118.68	40.69	3.3943e-06	50.127	29.611	268.122	199.045	-2.724	68.360	102.622	-2.770	1.697	148.969	35.569	1.343	6.262	6.558	10.918	89.333	10.012	-8191	255	
3004.934	1	1	0	0	0.023102	0.14626	0.19211	0.26925	0.1483	0.18245	0.34777	0.23202	0.10133	0.080784	0.23991	0.11896	0.1524	0.13469	0.11343	0.23303	-3.2542	-4.6542	-3.3667	-4.4	-4.3083	-3.3187	-5.0021	-4.0333	-3.7083	-4.7875	-3.5354	-4.2083	-4.4396	-3.2771	-4.5958	-4.0042	183.471	197.700	258.775	323.344	0.172	149.602	292.335	113.935	133.948	135.239	211.286	45.844	280.166	-0.720	248.371	333.641	0.00090645	0.00060123	0.00023307	1420.3	7.7393e-06	3.915e-06	1413.2	373.75	3.4334e-06	4.1705e-06	427.85	142.23	122.7	41.873	4.9913e-06	51.889	0.00031166	0.00030652	8.546e-05	1395.3	3.3584e-06	3.3704e-06	1386	366.35	3.372e-06	3.3718e-06	413.24	136.63	118.49	40.664	3.3658e-06	50.119	20.630	77.002	34.768	-2.739	96.300	198.682	-2.762	1.545	182.897	98.890	1.187	6.095	6.457	10.906	49.400	9.575	-8191	255	
3005.030	1	1	0	0	0.18108	0.04175	0.2266	0.24318	0.060943	0.38922	0.28664	0.075571	0.10598	0.1156	0.1323	0.23824	0.18502	0.16165	0.11513	0.14339	-3.0354	-4.7562	-3.5	-4.0917	-4.5563	-3.1958	-4.8479	-4.3208	-3.3271	-4.7854	-3.35	-3.8875	-4.6229	-3.2188	-4.4437	-4.1708	212.356	214.804	245.305	292.856	213.808	74.478	271.076	299.198	165.898	157.553	1.003	272.415	76.865	26.755	178.401	275.233	0.00064853	4.0838e-05	0.0002321	1414.4	4.8528e-06	8.6617e-06	1411.7	374.16	4.6931e-06	1.8653e-06	429.59	142.44	122.78	41.9	5.5049e-06	51.837	0.0003088	0.00030703	8.4693e-05	1393.5	3.3339e-06	3.3356e-06	1384.1	365.99	3.3536e-06	3.3289e-06	413.35	136.56	118.54	40.544	3.3562e-06	50.014	25.588	29.589	50.226	-2.771	175.032	122.374	-2.669	1.667	144.161	68.364	1.446	6.199	6.236	10.847	190.130	10.141	-8191	255	
3005.125	1	1	0	0	0.064935	0.136	0.067998	0.29795	0.17776	0.21085	0.41256	0.28397	0.37886	0.076279	0.13184	0.13874	0.2674	0.2314	0.14314	0.070441	-2.9542	-4.7771	-3.5542	-3.9583	-4.5938	-3.0146	-4.5	-4.4125	-3.4104	-4.6896	-3.725	-3.8729	-4.6521	-3.6688	-4.1229	-4.2146	165.962	175.618	49.179	280.792	81.138	134.637	304.516	253.152	63.961	315.589	136.174	68.187	320.217	44.726	44.253	136.853	0.00078361	0.00029819	0.00018463	1418.4	2.116e-06	4.0232e-06	1415.7	374.12	2.9241e-06	7.9419e-06	428.38	141.78	122.71	41.898	8.8957e-07	51.84	0.00030845	0.00030425	8.4298e-05	1393.3	3.3208e-06	3.3236e-06	1384.6	366.11	3.3259e-06	3.2888e-06	412.89	136.15	118.34	40.544	3.2847e-06	49.858	10.470	9.586	20.237	-2.673	164.294	103.330	-2.547	1.550	83.793	108.480	1.552	5.979	6.343	10.683	129.577	9.910	-8191	255	
3005.221	1	1	0	0	0.073693	0.33151	0.076387	0.23918	0.073158	0.14836	0.41914	0.12774	0.092095	0.27587	0.21591	0.13085	0.21467	0.2664	0.083587	0.085249	-3.2083	-4.4812	-3.6708	-3.8854	-4.5896	-3.5083	-4.4187	-4.2479	-3.4917	-4.5646	-3.9708	-3.9583	-4.6854	-3.6333	-4.1146	-4.2646	1.396	158.952	262.283	45.598	293.863	172.729	248.146	299.708	82.672	178.785	62.025	279.120	191.372	233.970	323.409	115.447	0.0006309	0.00031393	0.00029021	1417	1.9504e-06	5.2464e-06	1408.3	374.33	4.026e-06	5.5378e-06	428.84	141.68	122.65	41.945	5.5352e-06	52.084	0.00030495	0.00030086	8.4075e-05	1392.3	3.3253e-06	3.3144e-06	1381.6	366.3	3.3478e-06	3.3139e-06	412.93	136.07	118.19	40.567	3.3392e-06	50.063	53.617	126.017	305.922	-2.773	111.494	170.527	-2.766	1.623	194.929	120.513	1.186	5.953	6.431	10.650	120.568	10.156	-8191	255	
3005.317	1	1	0	0	0.19276	0.13488	0.20819	0.31565	0.26423	0.14691	0.19459	0.1849	0.2518	0.093204	0.10944	0.082783	0.18578	0.015454	0.17547	0.042473	-3.1667	-4.5167	-3.7542	-3.975	-4.4833	-3.275	-4.1458	-4.5646	-3.2667	-4.7458	-4.1687	-3.6604	-4.7125	-3.5104	-4.1417	-4.4187	113.912	246.992	196.249	320.217	80.799	76.470	307.723	192.611	160.889	304.120	238.129	322.202	43.240	1.789	245.159	107.068	0.00037412	0.00091364	0.00020443	1417.4	7.6687e-06	6.4072e-06	1413.7	373.03	4.118e-06	2.9082e-06	427.77	141.26	123.01	41.711	5.6344e-06	51.99	0.0003059	0.00030146	8.3512e-05	1392.9	3.3227e-06	3.2876e-06	1384.3	365.7	3.3018e-06	3.2909e-06	412.57	136.01	118.28	40.391	3.286e-06	49.937	39.691	48.261	44.182	-2.471	103.897	91.707	-2.693	1.713	134.848	46.700	1.469	6.311	6.601	10.664	93.195	9.879	-8191	255	
3005.413	1	1	0	0	0.102	0.10458	0.40337	0.19546	0.055862	0.28774	0.19894	0.15932	0.013095	0.23262	0.19659	0.071367	0.14804	0.099728	0.10964	0.054825	-3.1417	-4.3604	-3.9833	-3.7771	-4.4479	-3.4208	-4.1937	-4.3875	-3.55	-4.4333	-4.0437	-3.8	-4.4854	-3.6188	-4.0062	-4.5229	197.835	67.302	255.107	312.033	261.208	13.271	270.120	235.035	150.044	83.433	280.383	15.401	338.779	256.045	285.596	323.965	0.0006424	0.00016435	0.00025437	1417.9	4.5686e-06	3.61e-06	1408.4	375.04	4.3236e-06	6.1415e-07	427.11	141.55	122.72	41.856	5.265e-06	51.968	0.00030424	0.00030212	8.3351e-05	1391.4	3.2964e-06	3.2718e-06	1380.9	366.24	3.3063e-06	3.2705e-06	412.42	135.88	118.34	40.474	3.3309e-06	49.996	43.025	197.205	54.766	-2.646	190.778	89.374	-2.832	1.735	171.403	70.738	1.164	5.892	6.508	10.707	151.728	9.983	-8191	255	
3005.534	1	1	0	0	0.076754	0.14708	0.1298	0.21201	0.053371	0.17944	0.39533	0.22017	0.16939	0.030054	0.33743	0.15666	0.10629	0.14815	0.22939	0.084638	-3.3125	-4.3771	-3.8479	-3.7146	-4.5146	-3.6375	-3.9708	-4.4458	-3.4583	-4.375	-4.125	-3.5438	-4.7562	-3.6458	-3.775	-4.5417	280.460	2.088	76.820	253.951	216.332	172.865	290.042	-9.622	297.032	167.373	321.415	312.746	248.394	259.313	284.485	64.684	0.00072409	0.00010585	0.00014399	1417.7	5.3723e-06	7.1197e-06	1409.6	374.52	4.4073e-06	2.2232e-06	429.58	141.46	122.46	41.782	5.8761e-06	51.807	0.00030505	0.00030141	8.4146e-05	1391.5	3.3237e-06	3.3289e-06	1383.6	366.24	3.3498e-06	3.3138e-06	412.85	136.07	118.36	40.547	3.3707e-06	49.911	29.867	137.957	322.468	-2.766	99.432	138.460	-2.788	1.566	164.654	299.288	1.266	5.800	6.465	10.447	93.972	10.270	-8191	255	
3005.606	1	1	0	0	0.15665	0.16747	0.25163	0.20734	0.14064	0.11516	0.15224	0.055869	0.029025	0.26512	0.071383	0.22902	0.25026	0.10953	0.10547	0.084165	-2.975	-4.5687	-4.1917	-3.4958	-4.7521	-3.5792	-4.075	-4.8396	-3.2854	-4.4208	-4.4688	-3.3292	-4.9146	-3.7562	-3.7	-4.8208	149.402	-8.873	293.264	13.051	148.173	327.420	293.435	330.997	188.367	295.233	-7.051	171.528	-5.284	256.703	114.062	153.555	0.0007709	0.000404	0.00011726	1414.4	3.0232e-06	4.6728e-06	1417.3	374.43	1.5914e-06	4.0037e-06	427.36	141.64	122.11	41.607	3.224e-06	52.079	0.00030713	0.0003049	8.4652e-05	1392.1	3.3598e-06	3.3336e-06	1385.2	366.51	3.3514e-06	3.3195e-06	412.47	135.99	118.35	40.472	3.3638e-06	50.043	12.834	61.572	331.642	-2.527	24.052	71.346	-2.565	1.739	264.854	154.852	1.377	5.846	6.420	10.868	138.944	10.281	-8191	255	
3005.702	1	1	0	0	0.037314	0.049057	0.12823	0.21522	0.04741	0.2704	0.18713	0.033613	0.096952	0.23893	0.077016	0.11635	0.11851	0.15452	0.18738	0.044117	-3.0792	-4.1188	-4.1146	-3.5833	-4.7063	-3.9271	-3.9625	-4.7479	-3.4229	-4.2667	-4.65	-3.4792	-4.7396	-3.8625	-3.6521	-4.7292	66.659	94.799	207.662	328.483	139.408	129.726	262.611	223.877	298.626	91.808	135.478	198.077	88.797	280.433	-0.235	202.584	0.00082611	0.0007796	0.00016868	1413.9	2.8871e-06	5.7089e-06	1407	373.69	4.9099e-06	2.9463e-06	429.11	141.1	122.79	41.75	8.2644e-06	52.238	0.00030842	0.0003087	8.522e-05	1390	3.3536e-06	3.3607e-06	1380.7	366.22	3.3843e-06	3.379e-06	413.83	136.12	118.4	40.581	3.3855e-06	50.09	56.605	78.074	10.861	-2.800	46.088	202.740	-2.744	1.743	153.319	113.078	1.230	5.908	6.504	10.718	105.233	10.040	-8191	255	
3005.798	1	1	0	0	0.072682	0.23145	0.18115	0.21121	0.23206	0.40225	0.17593	0.17715	0.10971	0.21387	0.2732	0.19573	0.26497	0.24057	0.12113	0.051826	-3.1896	-4.2646	-4.3938	-3.5667	-4.4333	-4.0104	-3.8708	-4.6854	-3.5396	-4.0167	-4.4958	-3.4958	-4.5188	-3.9771	-3.5375	-4.6375	162.357	-0.898	245.144	-15.487	213.998	-1.466	270.759	295.117	280.565	208.760	257.547	318.556	12.959	271.694	67.435	98.427	0.00061616	0.00045105	3.1125e-05	1410.9	4.6209e-06	8.0005e-06	1411	374.89	7.0304e-06	9.3273e-07	428.16	140.95	122.7	41.86	5.9531e-06	51.921	0.00031002	0.00030761	8.5926e-05	1390.9	3.3937e-06	3.3914e-06	1381.7	366.45	3.4075e-06	3.4409e-06	413.55	136.16	118.64	40.577	3.4567e-06	50.096	21.782	124.640	41.260	-2.845	321.505	115.062	-2.812	1.773	83.691	290.625	1.363	6.053	6.148	10.866	98.961	10.302	-8191	255	
3005.919	1	1	0	0	0.078909	0.24761	0.032984	0.33166	0.01191	0.32688	0.25433	0.20141	0.15371	0.16753	0.23647	0.28744	0.068493	0.1999	0.10045	0.13132	-3.2062	-4.15	-4.5188	-3.35	-4.5979	-4.0813	-3.6188	-4.9187	-3.4667	-3.9333	-4.7688	-3.5708	-4.4333	-4.1	-3.6229	-4.6292	291.109	158.439	286.572	312.024	32.711	249.495	211.773	320.669	102.620	269.447	249.300	317.152	97.816	37.378	254.754	253.677	0.00020378	0.00018971	0.00011861	1414.1	6.8962e-07	1.1912e-06	1410.8	374.66	8.5727e-06	3.8248e-06	428.69	141.4	122.61	42.07	1.8596e-06	51.945	0.00031693	0.00031502	8.8076e-05	1391.2	3.4582e-06	3.4622e-06	1384.5	367.36	3.4487e-06	3.4394e-06	413.44	136.34	118.56	40.71	3.4471e-06	50.17	31.858	12.385	-4.613	-2.603	154.653	83.240	-2.785	1.898	160.986	143.662	1.319	5.950	6.642	10.930	337.188	10.173	-8191	255	
3006.015	1	1	0	0	0.23325	0.050759	0.099013	0.22132	0.13928	0.052686	0.27791	0.22032	0.14304	0.047794	0.29491	0.26508	0.30959	0.29306	0.082049	0.21608	-3.3354	-3.8854	-4.4354	-3.5354	-4.4354	-4.0792	-3.6583	-4.6646	-3.6083	-3.6375	-4.625	-3.4792	-4.3208	-4.2438	-3.3292	-4.6438	247.927	44.762	33.545	336.154	161.786	63.129	253.020	228.938	276.186	319.841	318.022	332.388	311.213	55.046	198.756	120.765	0.00068957	0.00034691	0.00030688	1416.2	5.4129e-06	1.9558e-06	1411.1	375.55	5.8079e-06	8.3699e-06	428.04	141.5	122.69	41.929	7.6906e-06	52.14	0.00031523	0.00031442	8.6865e-05	1391.1	3.4201e-06	3.4131e-06	1384	367.31	3.4619e-06	3.4625e-06	413.92	136.39	118.88	40.691	3.4646e-06	50.242	11.885	174.397	64.183	-2.778	308.510	38.796	-2.894	1.652	120.444	98.951	1.210	5.899	6.636	10.845	58.065	10.002	-8191	255	
3006.111	1	1	0	0	0.081118	0.16416	0.22059	0.13229	0.096174	0.30259	0.38467	0.27093	0.26062	0.13249	0.13571	0.20646	0.16103	0.24361	0.1722	0.10868	-3.4875	-3.7417	-4.4396	-3.4875	-4.1271	-4.0958	-3.5521	-4.7375	-3.7979	-3.6813	-4.7292	-3.2938	-4.3083	-4.6458	-3.0667	-4.7417	21.037	-9.017	343.003	255.299	98.086	189.123	273.875	284.087	290.165	189.706	312.099	312.299	271.466	328.906	37.183	77.592	0.00091867	0.00049433	0.00016331	1413.4	5.9552e-06	2.5306e-06	1409.4	375.47	4.3082e-06	3.4276e-06	427.69	141.85	122.76	41.792	1.0604e-05	52.314	0.00031678	0.00031763	8.7523e-05	1391.4	3.4765e-06	3.4793e-06	1383.2	367.64	3.4868e-06	3.4899e-06	414.08	136.54	118.84	40.696	3.4918e-06	50.412	26.175	46.294	87.169	-2.834	80.548	122.285	-2.937	1.881	211.110	199.198	1.380	5.819	6.868	10.768	88.793	10.381	-8191	255	
3006.230	1	1	0	0	0.1017	0.03391	0.194	0.16527	0.18145	0.048481	0.10053	0.1152	0.099549	0.063687	0.087396	0.2594	0.13092	0.20156	0.02441	0.12224	-3.5333	-3.7354	-4.6729	-3.6813	-4.1104	-4.2438	-3.5875	-4.7417	-3.875	-3.5896	-4.6896	-3.4604	-4.2083	-4.4104	-3.4354	-4.6146	212.469	202.327	-12.720	306.631	-8.171	51.813	220.828	305.969	9.779	281.323	303.961	-4.495	332.848	301.427	317.454	268.211	0.0006094	0.00023826	4.1798e-05	1415.7	1.3298e-06	4.9552e-06	1411.2	376.07	4.5815e-06	5.28e-06	429.14	142.31	123.22	41.888	4.1553e-06	52.197	0.00032251	0.00031982	8.8051e-05	1391.8	3.4849e-06	3.498e-06	1383.3	367.98	3.5144e-06	3.5067e-06	414.25	136.78	119.07	40.709	3.521e-06	50.357	25.246	58.636	107.870	-2.982	4.659	10.866	-2.781	1.721	144.342	127.605	1.213	5.760	6.642	10.633	125.504	10.261	-8191	255	
3006.301	1	1	0	0	0.1049	0.12928	0.17593	0.39887	0.054996	0.077131	0.26625	0.28671	0.050578	0.18325	0.14361	0.078931	0.14462	0.087014	0.03451	0.061371	-3.5333	-3.6813	-4.6125	-3.6833	-4.0375	-4.3125	-3.4729	-4.5958	-3.9021	-3.4875	-4.9313	-3.5667	-4.025	-4.6229	-3.1708	-4.3833	140.451	194.115	62.657	307.352	172.138	50.803	262.335	263.680	200.713	60.446	38.466	171.958	49.054	45.651	259.560	120.394	0.00064558	0.00062033	0.00015739	1412	6.935e-07	4.712e-06	1409.6	374.7	3.1809e-06	2.6775e-06	431.16	142.64	123.81	41.997	7.829e-06	52.299	0.00032687	0.00032488	8.9343e-05	1393.4	3.5831e-06	3.5684e-06	1385.7	369.04	3.6131e-06	3.6045e-06	417.12	137.28	119.73	41.003	3.6108e-06	50.697	28.052	111.133	47.678	-2.763	120.909	68.876	-2.922	1.671	125.208	134.090	1.402	5.892	6.750	10.822	151.071	10.497	-8191	255	
3006.399	1	1	0	0	0.29832	0.17144	0.17449	0.32019	0.16136	0.1924	0.05811	0.11398	0.065071	0.20605	0.19104	0.039122	0.054938	0.080792	0.26717	0.18289	-3.6896	-3.1375	-4.8187	-3.4875	-3.8708	-4.6375	-3.3896	-4.4854	-4.1417	-3.4083	-4.8729	-3.7208	-4.0021	-4.7042	-3.3708	-4.4	318.178	240.335	241.493	284.941	8.176	202.283	217.688	283.573	276.765	18.430	334.050	311.758	25.713	287.273	222.492	223.241	0.00080424	0.00032398	0.00022115	1421.4	6.4187e-06	2.2361e-06	1417	377.51	4.847e-06	7.356e-06	431.65	141.62	123.08	42.075	6.4224e-06	52.265	0.00033326	0.00033024	9.1619e-05	1400.8	3.6106e-06	3.6085e-06	1390.7	370.37	3.619e-06	3.6317e-06	417.85	137.4	119.82	41.065	3.6992e-06	50.871	24.603	103.081	32.582	-2.903	64.060	169.992	-2.934	1.822	119.684	160.390	1.290	6.062	6.337	10.694	153.827	10.316	-8191	255	
3006.518	1	1	0	0	0.18979	0.11184	0.14156	0.24015	0.040251	0.12663	0.25617	0.18224	0.19602	0.18197	0.096703	0.025332	0.096718	0.12301	0.0068817	0.22581	-3.9688	-3.5187	-4.4667	-3.8187	-3.7896	-4.5354	-3.5875	-4.4646	-4.1229	-3.3833	-4.5729	-3.8604	-3.9521	-4.6792	-3.4625	-4.1562	278.874	146.589	118.296	281.396	270.018	74.891	310.877	238.965	175.191	191.463	332.118	193.682	26.694	58.015	114.949	302.263	0.00073177	0.0010978	5.7414e-05	1417.1	5.6306e-06	5.9014e-06	1418.1	379.9	2.479e-06	6.41e-06	433.24	143.1	123.77	42.231	4.1904e-06	52.594	0.00034096	0.00034081	9.4872e-05	1402.7	3.7538e-06	3.745e-06	1397.3	373.48	3.7825e-06	3.7699e-06	420.46	138.5	120.99	41.357	3.7624e-06	51.121	19.410	53.076	70.292	-2.814	95.225	95.539	-2.859	1.737	302.495	137.322	1.291	5.956	6.527	10.712	166.799	10.066	-8191	255	
3006.614	1	1	0	0	0.24153	0.25679	0.066413	0.33468	0.14733	0.10119	0.29927	0.35687	0.1757	0.11676	0.189	0.21981	0.041939	0.074816	0.14137	0.031355	-4.0521	-3.5062	-4.4917	-3.8396	-3.8083	-4.3917	-3.475	-4.2771	-4.3438	-3.3458	-4.6646	-3.8292	-3.5854	-4.7875	-3.3812	-4.1375	258.737	337.532	286.890	312.634	239.293	153.371	279.161	315.588	72.842	141.966	264.056	332.664	15.493	30.201	337.941	328.766	0.00060693	0.00052337	6.5476e-05	1426.5	3.0805e-06	7.6716e-06	1423	379.36	5.2419e-06	6.8619e-06	433.09	142.21	124.18	42.307	3.1376e-06	52.724	0.00033927	0.00033732	9.4056e-05	1406.9	3.7226e-06	3.6915e-06	1397.5	372.7	3.7024e-06	3.6939e-06	419.83	138.13	120.61	41.407	3.7223e-06	51.172	40.134	-8.696	325.024	-3.016	157.949	158.862	-3.001	1.855	167.579	122.415	1.448	5.929	6.620	10.776	185.620	10.213	-8191	255	
3006.710	1	1	0	0	0.066186	0.17153	0.095708	0.35977	0.1532	0.061287	0.092155	0.37825	0.12733	0.20728	0.41544	0.035468	0.11641	0.061675	0.17353	0.21731	-4.1167	-3.2729	-4.3812	-4.1375	-3.6958	-4.6042	-3.7271	-4.1771	-4.3458	-3.4333	-4.6333	-4.0312	-3.7625	-4.3729	-3.5917	-3.9854	329.071	100.174	323.015	277.920	89.987	216.359	-3.439	314.957	81.560	265.461	300.329	71.920	130.737	322.761	-9.896	253.902	0.00072154	0.00084605	6.6035e-05	1423.9	6.9256e-06	1.0499e-05	1416.1	379.37	6.1646e-06	4.4383e-06	431.25	142.8	123.95	42.37	4.8166e-06	52.565	0.00033926	0.00033688	9.3727e-05	1403.5	3.7058e-06	3.6916e-06	1395.6	373.17	3.6664e-06	3.6923e-06	419.89	138.19	120.37	41.363	3.7221e-06	51.008	4.518	24.374	163.941	-2.832	157.655	51.323	-2.849	1.871	156.493	95.315	1.338	5.914	6.462	10.689	105.775	9.913	-8191	255	
3006.831	1	1	0	0	0.13859	0.055621	0.16787	0.31149	0.11978	0.22665	0.19412	0.22428	0.10823	0.30966	0.1987	0.11264	0.12057	0.10894	0.093314	0.33571	-4.0104	-3.4188	-4.45	-4.275	-3.4708	-4.6188	-3.9375	-4.2875	-4.6771	-3.2854	-4.6062	-4.1417	-3.6875	-4.5479	-3.6	-4.0083	327.077	127.672	291.866	270.983	294.803	217.165	285.048	271.660	164.880	131.981	254.889	34.350	132.200	9.978	299.667	-10.395	0.00089299	0.00057965	0.00011428	1417.7	7.6784e-06	8.4029e-06	1420.6	379.42	3.0052e-06	8.0276e-07	434.09	142.88	124.43	42.438	7.1115e-06	52.645	0.00033679	0.00033763	9.3851e-05	1400	3.6804e-06	3.7054e-06	1396.3	372.67	3.7022e-06	3.7008e-06	420.8	138.18	120.83	41.432	3.7306e-06	51.014	29.916	121.212	33.391	-2.684	175.088	54.116	-2.885	1.983	90.555	278.057	1.478	5.686	6.595	10.988	107.412	10.279	-8191	255	
3006.903	1	1	0	0	0.076337	0.31772	0.045931	0.13856	0.074138	0.28861	0.1825	0.18628	0.10716	0.18825	0.25734	0.067143	0.067749	0.084807	0.087029	0.15124	-4.25	-3.4646	-4.3896	-4.2521	-3.3812	-4.5458	-3.7896	-3.925	-4.5646	-3.275	-4.6188	-4.2354	-3.5292	-4.5167	-3.8167	-3.8646	102.736	302.915	315.134	229.574	5.877	321.989	294.769	257.333	102.013	23.857	-0.861	11.456	-2.729	10.318	230.499	274.321	0.00069132	0.00049244	0.00017307	1419.5	3.7302e-06	7.5503e-06	1416.1	378.47	4.235e-06	3.3e-06	432.62	143.01	124.41	42.405	1.1647e-06	52.656	0.00033746	0.00033889	9.3936e-05	1400.2	3.7009e-06	3.7068e-06	1393.9	372.32	3.6828e-06	3.713e-06	420.15	138.16	120.61	41.508	3.7178e-06	51.128	24.517	38.526	6.189	-2.823	81.261	173.166	-2.987	1.666	179.046	10.095	1.288	5.642	6.524	10.684	232.863	9.901	-8191	255	
3006.999	1	1	0	0	0.25504	0.094424	0.18635	0.10642	0.14218	0.17983	0.21631	0.11257	0.041035	0.089092	0.16407	0.16168	0.25586	0.17236	0.097464	0.26034	-4.2438	-3.3854	-4.3708	-4.3771	-3.4354	-4.7083	-3.9271	-3.9917	-4.575	-3.2333	-4.3958	-4.2	-3.5292	-4.6083	-3.8521	-3.7958	70.005	304.405	267.585	331.362	98.589	327.398	305.268	140.074	131.933	78.652	274.083	331.055	1.676	330.904	-2.731	202.291	0.00072208	0.00069861	0.00010886	1425.4	4.6999e-06	7.122e-06	1415.6	378.26	5.3864e-06	4.1413e-06	431.89	142.79	123.78	42.438	5.0063e-06	52.546	0.00034064	0.00033956	9.4078e-05	1402.2	3.7029e-06	3.7083e-06	1394.5	372.45	3.6825e-06	3.705e-06	419.73	138.3	120.64	41.46	3.7325e-06	50.996	13.105	85.919	39.630	-2.805	144.799	147.768	-2.773	1.809	177.138	179.795	1.272	5.779	6.592	10.874	233.544	10.001	-8191	255	
3007.095	1	1	0	0	0.061428	0.10083	0.21468	0.33346	0.053004	0.3191	0.24778	0.35592	0.11194	0.13275	0.09272	0.15616	0.46063	0.22033	0.16456	0.20762	-4.1792	-3.3979	-4.075	-4.5771	-3.5167	-4.5021	-4.1562	-3.9292	-4.6875	-3.725	-4.3104	-4.3729	-3.6542	-4.3583	-3.8833	-3.9562	136.193	170.693	296.105	299.991	210.590	322.445	296.277	320.784	75.692	-9.902	325.185	13.283	295.607	18.146	238.789	37.859	0.00090836	0.00018066	0.0001984	1420.8	1.0487e-05	3.0614e-06	1416.2	378.65	1.1592e-06	4.6241e-06	432.89	143.23	124.17	42.518	5.0422e-06	52.532	0.00034202	0.00033893	9.4013e-05	1402.8	3.7049e-06	3.7165e-06	1393.8	372.73	3.7442e-06	3.7294e-06	420.01	138.47	120.81	41.469	3.746e-06	51.001	23.605	56.849	31.210	-2.758	138.856	83.116	-2.927	2.039	165.392	145.745	1.300	6.018	6.126	10.946	220.185	10.037	-8191	255	
3007.214	1	1	0	0	0.15258	0.049267	0.15437	0.17152	0.14498	0.17398	0.19493	0.29107	0.26535	0.16867	0.21092	0.20195	0.16196	0.17585	0.062047	0.15336	-4.1438	-3.6312	-4.0437	-4.3833	-3.6583	-4.4354	-4.2083	-3.7917	-4.3667	-3.6958	-4.2396	-4.3729	-3.6312	-4.4875	-4.2104	-3.7229	196.841	75.827	163.262	337.350	254.781	276.167	302.825	291.044	180.455	305.061	272.352	228.167	336.929	322.358	12.359	113.552	0.00039014	0.00050655	0.00013861	1418.6	4.6022e-06	4.5838e-06	1411.5	378.84	7.5088e-06	1.1381e-06	433.85	143.11	123.73	42.645	6.4794e-06	52.731	0.00034245	0.00034126	9.4319e-05	1402.3	3.7425e-06	3.7186e-06	1393	373.08	3.7796e-06	3.7779e-06	420.52	138.65	120.75	41.55	3.7966e-06	51.289	28.358	68.343	-10.518	-2.778	78.399	127.725	-2.985	1.874	227.369	21.546	1.150	5.817	6.420	10.598	188.858	9.678	-8191	255	
3007.310	1	1	0	0	0.1791	0.37798	0.020698	0.27131	0.1651	0.17072	0.14786	0.20818	0.15251	0.05696	0.16239	0.2588	0.028146	0.1548	0.15273	0.24133	-4.3562	-3.4896	-4.0396	-4.6146	-3.4354	-4.55	-4.225	-3.5958	-4.6708	-3.5563	-4.1062	-4.6271	-3.4188	-4.4542	-3.9667	-3.6896	3.005	340.991	204.140	277.743	83.746	256.791	334.919	286.146	284.669	150.171	169.621	136.611	309.465	178.304	205.962	320.652	0.00071371	0.00092927	0.00012236	1420.7	4.8835e-06	2.1812e-06	1417.3	380.55	7.3258e-06	3.5046e-06	433.09	142.33	124.45	42.503	5.04e-06	52.645	0.00034823	0.00034518	9.5724e-05	1404	3.8028e-06	3.7736e-06	1395.9	373.74	3.7814e-06	3.7691e-06	421	138.57	120.87	41.545	3.7515e-06	51.166	28.233	23.353	296.905	-3.070	148.763	104.578	-3.368	1.441	182.551	182.265	1.336	6.025	6.200	10.709	116.854	10.110	-8191	255	
3007.406	1	1	0	0	0.084651	0.23101	0.038347	0.29042	0.062869	0.13112	0.09531	0.079184	0.13211	0.11981	0.17492	0.17995	0.18749	0.31256	0.11115	0.34615	-4.0458	-3.7854	-3.8854	-4.6708	-3.4354	-4.2792	-4.2708	-3.8438	-4.5604	-3.7625	-4.0813	-4.4062	-3.5312	-4.3417	-4.1937	-3.6521	11.111	-4.196	2.984	265.735	10.310	86.980	333.426	183.530	119.786	9.260	286.949	223.265	320.010	272.574	93.498	113.970	0.00073722	0.00016777	0.00017638	1420.6	2.5318e-06	4.9197e-06	1413.4	378.6	5.8556e-06	3.8792e-06	431.62	143.1	124.04	42.464	9.8615e-06	52.899	0.00034689	0.00034429	9.5551e-05	1403.1	3.7835e-06	3.7709e-06	1393.7	373.28	3.7659e-06	3.7768e-06	420.12	138.67	120.69	41.594	3.777e-06	51.26	37.986	225.784	88.015	-2.768	139.246	140.789	-3.308	1.639	110.488	252.222	1.318	5.825	6.509	10.950	113.195	10.301	-8191	255	
3007.502	1	1	0	0	0.12479	0.16828	0.10764	0.17236	0.12588	0.17676	0.095767	0.18507	0.10385	0.13731	0.18833	0.19162	0.16233	0.061378	0.071376	0.18191	-4.2833	-3.7604	-3.9083	-4.6458	-3.5854	-4.2979	-4.5417	-3.6188	-4.5771	-3.8229	-3.8271	-4.7583	-3.5146	-4.3646	-4.2896	-3.5625	85.698	155.450	272.808	212.746	112.590	68.238	93.338	2.508	95.539	226.168	302.941	251.758	268.268	320.236	-4.504	212.993	0.00079802	0.00040077	0.00015098	1421	4.8628e-06	7.3599e-06	1417.9	378.43	8.7298e-06	2.0537e-06	433.13	142.26	124.46	42.628	1.3006e-06	52.732	0.00034869	0.00034382	9.6266e-05	1404.8	3.7917e-06	3.7514e-06	1395.5	373.14	3.7843e-06	3.7655e-06	421.29	138.56	120.87	41.557	3.7824e-06	51.181	39.538	95.051	196.958	-2.679	68.138	112.570	-2.804	1.886	173.715	223.219	1.601	5.713	6.345	10.938	122.104	10.000	-8191	255	
3007.599	1	1	0	0	0.20299	0.17341	0.28778	0.20033	0.21564	0.25909	0.12927	0.12372	0.15297	0.14131	0.095128	0.023451	0.082646	0.18272	0.10759	0.14016	-4.4854	-3.8792	-3.8	-4.7771	-3.625	-4.3292	-4.5771	-3.4667	-4.7208	-4.0021	-3.5312	-4.9354	-3.6458	-4.1396	-4.4229	-3.3187	166.688	75.029	262.986	324.213	138.085	307.166	251.063	260.597	247.139	264.973	211.516	12.605	331.816	36.989	107.376	212.100	0.0005072	0.00070061	0.00021618	1424.4	3.6758e-06	4.4452e-06	1420.6	378.56	7.7646e-06	2.8972e-06	431.17	143.05	124.55	42.525	3.6019e-06	52.813	0.00034336	0.00033989	9.5519e-05	1404.6	3.729e-06	3.7354e-06	1394.4	372.77	3.7405e-06	3.7215e-06	419.98	138.46	120.71	41.579	3.7796e-06	51.268	33.159	249.247	42.249	-2.931	304.794	152.531	-2.991	1.978	184.369	224.479	1.576	6.103	6.154	10.823	220.136	10.363	-8191	255	
3007.695	1	1	0	0	0.028966	0.088037	0.088778	0.26985	0.12057	0.19337	0.20721	0.12553	0.24467	0.18569	0.16637	0.12602	0.10419	0.042307	0.30284	0.1149	-4.3438	-3.8521	-3.2208	-5.0875	-3.475	-3.9375	-4.8167	-3.3604	-4.5104	-4.0208	-3.6917	-4.6833	-3.6708	-4.1271	-4.4583	-3.7583	3.751	27.842	283.712	338.935	163.226	138.787	256.471	18.983	161.770	190.660	284.108	247.002	124.326	296.267	150.167	273.896	0.0008752	0.00025793	0.00014567	1421.2	2.5872e-06	1.0012e-06	1410.6	380.3	3.2119e-06	1.0763e-07	433.64	142.33	123.51	42.458	5.3944e-06	52.459	0.00034451	0.0003404	9.5558e-05	1404.1	3.7414e-06	3.7419e-06	1394.2	373.14	3.7555e-06	3.7428e-06	420.94	138.38	120.31	41.533	3.7757e-06	51.094	20.979	69.098	50.013	-2.593	162.026	252.051	-2.871	1.718	196.468	189.747	1.483	5.986	6.197	10.773	210.800	9.924	-8191	255	
3007.791	1	1	0	0	0.27958	0.075559	0.11859	0.27895	0.18926	0.14034	0.11484	0.31689	0.12257	0.11764	0.36313	0.11553	0.29464	0.058288	0.10053	0.056817	-3.9062	-3.8375	-3.5521	-4.8042	-3.5354	-3.9854	-4.6354	-3.4333	-4.3063	-3.9437	-3.6104	-4.7083	-3.675	-3.975	-4.4812	-3.3104	206.809	81.399	247.740	333.057	39.818	159.734	318.009	310.404	228.608	261.159	268.709	-4.342	254.791	97.377	111.000	12.720	0.00083405	0.00033314	0.00026384	1421.8	5.642e-06	7.4875e-06	1415.4	378.39	4.9929e-06	7.2873e-07	432.84	143.47	124.38	42.381	3.2176e-06	52.798	0.00034198	0.00033992	9.5662e-05	1404.8	3.7124e-06	3.727e-06	1393	372.56	3.7364e-06	3.7266e-06	420.25	138.77	120.77	41.548	3.7856e-06	51.18	8.610	66.614	16.961	-2.775	62.630	100.892	-2.905	1.679	108.021	290.679	1.367	6.013	6.325	10.646	84.684	10.016	-8191	255	
3007.911	1	1	0	0	0.12061	0.12202	0.13049	0.22964	0.12142	0.052999	0.25789	0.13672	0.13146	0.2512	0.048841	0.28079	0.19925	0.17064	0.24023	0.13098	-4.1542	-4.1667	-3.2313	-4.8729	-3.5812	-3.7917	-4.9146	-3.4292	-4.2812	-4.3271	-3.3604	-4.8542	-3.7604	-3.8875	-4.6	-3.3688	282.647	164.705	10.786	284.918	233.182	37.800	245.922	318.218	162.329	158.923	51.453	323.614	256.108	238.138	125.332	186.575	0.00072035	0.00039816	0.00014143	1420.6	6.1787e-06	8.6416e-06	1416.7	377.51	4.2056e-06	4.4059e-06	433.22	142.94	124.16	42.297	1.6003e-06	52.628	0.00034642	0.00034227	9.5836e-05	1404.3	3.7384e-06	3.7772e-06	1396.3	371.79	3.7912e-06	3.7764e-06	420.74	138.7	120.77	41.498	3.825e-06	51.09	31.711	214.126	50.285	-2.538	123.114	143.110	-2.823	1.690	194.670	48.150	1.362	6.057	6.432	10.774	311.866	9.746	-8191	255	
3008.008	1	1	0	0	0.047574	0.25311	0.21091	0.37785	0.011151	0.4278	0.053012	0.24473	0.28634	0.10325	0.19685	0.10573	0.16852	0.10212	0.22156	0.2507	-3.9313	-4.4313	-3.4667	-4.7354	-3.8271	-3.6708	-4.8938	-3.6854	-4.0938	-4.2333	-3.6958	-4.5292	-4.1354	-3.8729	-4.5375	-3.5187	46.788	296.916	90.290	263.054	124.541	-12.357	307.726	331.554	179.749	133.180	215.506	286.068	-0.932	294.195	67.776	295.991	0.0006036	0.00070649	1.8921e-05	1420.5	3.853e-06	7.6307e-06	1413.3	378.18	4.8894e-06	4.4314e-06	431.83	143.02	123.33	42.364	2.3608e-06	52.307	0.00035113	0.00034935	9.7018e-05	1404.2	3.7884e-06	3.8065e-06	1393.7	372.05	3.8082e-06	3.8132e-06	419.66	138.66	120.47	41.591	3.8099e-06	51.009	32.121	31.911	148.692	-2.789	35.532	171.320	-2.961	1.646	106.334	166.917	0.967	5.895	6.339	10.728	63.812	10.234	-8191	255	
3008.104	1	1	0	0	0.16076	0.063877	0.17446	0.2544	0.16077	0.1227	0.2051	0.036303	0.15075	0.048029	0.050109	0.19819	0.23553	0.24026	0.10927	0.039943	-3.7729	-4.4437	-3.4771	-4.5667	-3.8875	-3.7042	-4.4313	-3.8792	-4.0667	-4.1417	-3.6312	-4.4062	-4.1792	-3.8146	-4.3021	-3.5917	102.478	107.199	109.176	308.967	84.128	224.432	235.227	39.564	296.243	42.213	257.797	211.511	93.212	319.795	154.948	197.814	0.00073083	0.00079141	5.8192e-05	1419.7	5.6795e-06	2.3397e-06	1417.2	378.68	2.342e-06	8.1696e-06	430.46	143.01	124.14	42.395	2.4138e-06	52.609	0.00034799	0.00034538	9.6369e-05	1404.2	3.7555e-06	3.7519e-06	1394.3	372.59	3.7544e-06	3.7549e-06	419.37	138.7	120.7	41.507	3.7719e-06	51.004	33.500	66.288	153.014	-2.669	190.249	55.543	-2.860	1.541	173.199	76.589	1.352	6.121	6.410	10.848	48.308	10.226	-8191	255	
3008.200	1	1	0	0	0.11201	0.21395	0.3397	0.24851	0.090648	0.17941	0.28406	0.18731	0.03863	0.37264	0.090603	0.15199	0.18279	0.34108	0.085128	0.22419	-3.8187	-4.2188	-3.3042	-4.55	-3.9813	-3.6292	-4.7354	-3.5896	-4.0458	-4.5188	-3.4167	-4.575	-4.1875	-3.6646	-4.8417	-3.8479	326.154	205.952	136.770	310.979	128.426	91.255	287.310	217.871	238.734	80.790	24.749	342.691	-14.455	262.483	58.807	135.318	0.00081562	0.00012892	2.244e-05	1424.9	4.5704e-06	1.2635e-06	1423.8	378.68	5.5714e-06	4.5049e-06	431.58	143.17	123.74	42.573	4.2836e-06	52.54	0.0003462	0.00034382	9.5241e-05	1404.6	3.7561e-06	3.781e-06	1398.8	372.28	3.7605e-06	3.7437e-06	419.46	138.62	120.48	41.551	3.7635e-06	51.062	40.331	-5.560	77.488	-2.792	106.354	325.439	-2.785	1.559	213.371	159.072	1.356	6.321	6.530	10.626	214.262	10.167	-8191	255	
3008.294	1	1	0	0	0.19564	0.11372	0.075386	0.22208	0.1077	0.24439	0.13285	0.24798	0.30824	0.16925	0.25206	0.10454	0.15237	0.098183	0.047203	0.30028	-3.5542	-4.5458	-3.4958	-4.6188	-4.0833	-3.5396	-4.9625	-3.8292	-3.9104	-4.3542	-3.55	-4.3354	-4.2667	-3.6	-4.5229	-3.8958	89.546	139.129	154.238	334.712	23.254	73.966	278.732	267.945	188.216	216.515	63.786	322.028	123.589	164.353	282.353	2.698	0.00037277	0.00011865	0.00034836	1423.5	4.0511e-06	3.5056e-06	1415.8	376.59	3.0163e-06	8.2218e-07	432.61	142.74	123.33	42.456	5.435e-06	52.633	0.00034585	0.00034081	9.4999e-05	1404.6	3.7372e-06	3.737e-06	1393.7	371.86	3.7544e-06	3.7387e-06	418.95	138.44	120.52	41.558	3.7382e-06	51.038	16.947	16.676	17.213	-2.691	154.294	122.785	-2.943	1.559	216.472	148.194	1.257	6.014	6.325	10.744	116.926	9.899	-8191	255	
3008.391	1	1	0	0	0.087833	0.099219	0.38586	0.12475	0.12033	0.22886	0.21914	0.19797	0.046559	0.18535	0.029749	0.08792	0.15669	0.1951	0.20375	0.25847	-3.3396	-4.3458	-3.4125	-4.4042	-4.0687	-3.3812	-4.75	-3.9833	-3.725	-4.6188	-3.5083	-4.3521	-4.3146	-3.4833	-4.75	-3.9854	248.032	7.558	134.292	339.279	53.427	247.586	329.745	269.619	152.020	252.431	281.958	43.992	256.875	339.632	76.892	158.726	0.00055379	0.00044713	0.0002031	1425.9	3.4736e-06	5.6158e-06	1415.5	378.61	1.9996e-06	1.6122e-06	430.96	142.35	123.6	42.412	3.2627e-06	52.526	0.00034735	0.00034476	9.5915e-05	1403.7	3.7878e-06	3.7605e-06	1396.6	372.19	3.781e-06	3.7635e-06	419.18	138.7	120.55	41.476	3.7789e-06	51.048	37.796	70.028	241.577	-2.681	106.355	165.545	-2.736	1.690	178.591	332.512	1.097	6.029	6.205	10.842	193.933	9.752	-8191	255	
3008.511	1	1	0	0	0.19917	0.10387	0.069488	0.28741	0.036811	0.16186	0.34003	0.2285	0.078167	0.017082	0.34985	0.14208	0.154	0.14265	0.042409	0.19039	-3.1208	-4.6792	-3.5208	-4.3042	-4.2688	-3.5062	-4.7396	-3.975	-3.6958	-4.5813	-3.5396	-4.1562	-4.5479	-3.5167	-4.3917	-4.0542	236.355	341.885	314.475	309.216	253.943	201.088	279.111	315.003	222.881	79.147	311.478	38.972	177.626	343.511	329.508	300.575	0.00057873	0.00026669	0.00015158	1421.8	8.3374e-06	2.4661e-06	1416.2	378.62	4.9362e-06	2.7945e-06	432.3	143.75	124.25	42.469	2.4051e-06	52.571	0.00034836	0.00034442	9.5521e-05	1405.5	3.7819e-06	3.7578e-06	1395	372.38	3.7927e-06	3.7546e-06	419.71	138.72	120.78	41.462	3.7977e-06	51.049	23.418	39.507	33.898	-2.745	113.187	1.397	-2.776	1.601	144.028	169.244	1.275	6.036	6.259	10.846	86.065	9.827	-8191	255	
3008.607	1	1	0	0	0.089371	0.24366	0.10783	0.31855	0.074759	0.1697	0.27395	0.12349	0.12758	0.14844	0.17561	0.11109	0.18234	0.1027	0.19429	0.10176	-3.3708	-4.7458	-3.3667	-4.1937	-4.5271	-3.3979	-4.6229	-3.9896	-3.7375	-4.4104	-3.5854	-4.0646	-4.4313	-3.675	-4.4125	-4.075	229.297	112.634	116.290	312.390	127.481	77.785	272.680	231.270	229.056	23.364	305.641	59.076	-14.702	158.901	217.994	199.586	0.00071607	0.0005455	0.00011562	1422.6	5.8365e-06	4.9132e-06	1416.5	377.22	7.303e-06	7.9877e-06	430.4	142.93	124	42.501	5.2781e-06	52.351	0.00034967	0.00034431	9.6113e-05	1405.2	3.7803e-06	3.7819e-06	1396.6	371.92	3.8046e-06	3.7666e-06	418.79	138.7	120.44	41.46	3.7968e-06	50.94	30.335	116.035	318.157	-2.630	26.468	66.087	-2.713	1.731	153.496	57.439	1.378	6.075	6.189	10.748	109.955	9.808	-8191	255	
3008.703	1	1	0	0	0.21211	0.1366	0.19936	0.15257	0.15569	0.30833	0.14269	0.21942	0.097839	0.035188	0.31602	0.2359	0.30501	0.18512	0.18098	0.14463	-3.2625	-4.3896	-3.5042	-4.1312	-4.225	-3.6312	-4.4688	-4.1646	-3.7167	-4.6458	-3.8542	-4.05	-4.3875	-3.55	-4.2521	-4.3042	176.141	335.228	76.906	-12.946	46.954	294.758	288.304	257.860	66.261	320.318	311.216	194.958	12.543	42.231	58.077	229.409	0.00065093	0.00060342	0.00016874	1423.5	1.0047e-05	4.5732e-06	1414.2	376.14	2.658e-06	3.7987e-06	430.82	142.69	124.08	42.127	7.4235e-07	52.213	0.000347	0.00034388	9.5659e-05	1405.4	3.7571e-06	3.7725e-06	1393.8	371.25	3.7719e-06	3.7332e-06	418.35	138.61	120.65	41.397	3.7759e-06	50.847	46.062	84.805	69.508	-2.532	155.658	116.636	-2.962	1.770	142.050	104.800	1.107	6.145	6.351	10.747	49.166	9.937	-8191	255	
3008.775	1	1	0	0	0.091245	0.17593	0.11169	0.17078	0.095638	0.29867	0.40773	0.33104	0.044999	0.11988	0.15765	0.10998	0.24461	0.18365	0.22306	0.068298	-3.2958	-4.4958	-3.6792	-4.1854	-4.3208	-3.5792	-4.4208	-4.325	-3.7583	-4.5521	-3.9938	-4.1062	-4.4375	-3.5667	-4.2417	-4.3313	238.119	172.384	288.505	328.997	30.777	158.843	290.613	241.934	65.425	53.514	301.036	215.444	263.002	-11.444	120.220	22.263	0.00080383	0.00030412	0.00029997	1423.5	4.3891e-06	9.69e-06	1419	377.63	1.6858e-06	1.6419e-06	430.24	142.58	123.63	42.321	6.6548e-06	52.374	0.00034426	0.00034129	9.5399e-05	1404.7	3.7423e-06	3.7542e-06	1396.5	371.65	3.7381e-06	3.7289e-06	418.8	138.55	120.42	41.31	3.764e-06	50.916	22.112	170.086	74.150	-2.724	181.712	76.143	-2.773	1.900	53.596	138.279	1.364	6.042	6.467	10.788	27.085	9.975	-8191	255	
3008.896	1	1	0	0	0.22109	0.035786	0.05707	0.27488	0.088667	0.036113	0.16717	0.11257	0.19532	0.21906	0.21445	0.36698	0.096784	0.20662	0.14434	0.14259	-3.0958	-4.6354	-3.8208	-3.8833	-4.5229	-3.4271	-4.4125	-4.5646	-3.3896	-4.6771	-4.0958	-3.8271	-4.7479	-3.6917	-4.0708	-4.4292	148.794	270.798	79.209	289.177	213.748	67.684	283.359	207.602	163.298	82.788	320.991	287.702	231.462	294.013	340.601	226.401	0.0008484	0.001059	0.00019823	1426.9	1.5567e-06	5.2029e-06	1417.3	377.91	2.3029e-06	6.4359e-06	431.78	143.49	123.72	42.411	1.776e-06	52.748	0.00034266	0.00034145	9.5054e-05	1407.4	3.6999e-06	3.7371e-06	1396.1	372.26	3.7213e-06	3.7204e-06	418.23	138.68	120.47	41.352	3.7398e-06	51.011	24.648	110.578	113.880	-2.499	112.444	117.615	-2.807	1.587	129.437	94.321	1.169	6.240	6.377	10.764	183.744	9.853	-8191	255	
3008.992	1	1	0	0	0.19135	0.1855	0.10658	0.24247	0.091192	0.11836	0.046166	0.14928	0.11174	0.29558	0.10347	0.306	0.077046	0.075573	0.12523	0.2027	-3.1479	-4.5188	-3.8521	-3.7875	-4.6562	-3.75	-4.3	-4.4396	-3.6396	-4.5042	-4.1438	-3.8312	-4.6146	-3.6083	-3.9958	-4.4375	201.407	270.194	109.617	311.716	64.111	187.944	270.180	323.534	30.091	162.414	-2.073	46.959	290.535	62.858	226.696	286.060	0.00070978	0.00060608	8.1429e-05	1424.1	4.1205e-06	7.7073e-06	1421.1	379.11	8.0238e-06	5.1692e-06	431.44	142.25	123.37	42.393	9.5428e-06	52.237	0.00034169	0.00034146	9.5199e-05	1406.2	3.6995e-06	3.7257e-06	1397.1	371.57	3.742e-06	3.7263e-06	419	138.25	120.33	41.386	3.7242e-06	50.825	14.646	31.207	-16.264	-2.797	232.155	149.069	-2.873	1.553	126.752	135.574	1.270	5.823	6.513	10.653	66.897	10.009	-8191	255	
3009.088	1	1	0	0	0.20988	0.2158	0.19214	0.1305	0.019486	0.23058	0.0082223	0.087213	0.22428	0.10401	0.25565	0.089358	0.37788	0.021152	0.25901	0.1395	-3.1271	-4.4958	-4.0729	-3.6333	-4.5687	-3.6271	-4.1667	-4.5958	-3.3229	-4.4812	-4.1375	-3.5125	-4.7604	-3.5833	-3.7687	-4.6188	280.884	244.892	48.221	264.242	209.617	262.002	240.581	14.883	51.959	21.830	240.922	89.252	298.000	123.737	116.857	19.789	0.00043746	0.00063799	7.2779e-05	1427.4	4.7473e-06	6.472e-06	1422.1	378.36	2.8706e-06	1.6858e-06	430.87	143.4	124.58	42.335	8.5894e-07	52.52	0.00034349	0.00034299	9.4189e-05	1404.8	3.7294e-06	3.7421e-06	1398.8	371.74	3.7238e-06	3.7098e-06	418.29	138.45	120.4	41.362	3.7031e-06	50.97	39.417	109.765	99.591	-2.629	156.581	189.777	-2.528	1.701	97.456	13.783	1.388	5.787	6.416	10.555	164.493	10.075	-8191	255	
3009.184	1	1	0	0	0.12025	0.24665	0.14257	0.47112	0.083874	0.18303	0.29709	0.21315	0.081247	0.10657	0.20353	0.51067	0.19106	0.088156	0.1472	0.028701	-2.85	-4.4729	-4.0583	-3.5771	-4.7104	-3.4896	-3.9521	-4.8333	-2.9542	-4.4042	-4.4479	-3.2896	-5.0229	-3.8521	-3.7417	-4.8354	170.838	296.809	158.770	288.454	87.529	39.554	265.691	274.412	-6.186	81.174	140.330	250.059	266.887	323.089	233.300	162.321	0.00052983	0.00035958	0.00016205	1422.9	9.6059e-06	1.2363e-06	1415.9	377.89	6.4288e-06	3.0605e-06	430.34	142.94	123.78	42.35	1.3081e-06	52.26	0.00034352	0.00034037	9.4714e-05	1406.1	3.7376e-06	3.7408e-06	1396.5	372.11	3.7389e-06	3.7494e-06	418.9	138.44	120.5	41.37	3.7561e-06	50.837	40.086	164.514	48.850	-2.690	97.200	125.135	-2.778	1.844	168.025	1.518	1.292	6.041	6.416	10.333	52.569	10.214	-8191	255	
3009.303	1	1	0	0	0.055607	0.1818	0.18958	0.19056	0.074898	0.17537	0.12155	0.13917	0.13545	0.10648	0.076048	0.12821	0.091296	0.20131	0.18111	0.11792	-2.8521	-4.1813	-4.2188	-3.5729	-4.8688	-3.8396	-3.9479	-4.7646	-3.3229	-4.1792	-4.5333	-3.6063	-4.7292	-3.7479	-3.8	-4.6479	312.968	234.308	94.714	261.052	141.672	334.837	159.979	261.227	211.995	303.989	307.079	277.551	106.271	287.906	76.018	31.436	0.00085161	0.00071925	7.9353e-05	1420.9	4.7958e-06	5.7663e-06	1419.3	377.64	5.5534e-06	3.0997e-06	431.96	142.81	123.6	42.316	5.6346e-06	52.509	0.00034548	0.00034517	9.5269e-05	1403.2	3.7553e-06	3.7511e-06	1396.8	371.82	3.7745e-06	3.7392e-06	419.3	138.3	120.52	41.368	3.7519e-06	50.95	31.550	39.452	21.492	-2.985	180.737	139.014	-2.704	1.612	186.486	145.791	1.403	5.983	6.481	10.558	152.978	9.936	-8191	255	
3009.399	1	1	0	0	0.19419	0.043559	0.10598	0.28078	0.25907	0.061513	0.24745	0.30397	0.24844	0.034041	0.070722	0.047312	0.14654	0.18207	0.060604	0.1231	-3.1479	-4.2646	-4.4333	-3.6167	-4.7188	-3.6854	-3.9958	-4.5146	-3.4771	-4.1937	-4.4542	-3.5229	-4.7979	-3.8625	-3.6708	-4.6958	179.088	303.112	104.588	301.722	168.303	59.996	323.890	247.285	61.953	331.865	91.672	87.578	335.402	289.355	246.216	246.536	0.00068295	0.00062852	9.597e-05	1419.1	4.8895e-06	1.8317e-06	1417.3	377.28	1.6983e-06	2.3195e-06	431.1	142.67	123.78	42.26	6.1651e-06	52.696	0.00034567	0.00034231	9.4997e-05	1404.1	3.7737e-06	3.7774e-06	1395.5	371.77	3.7965e-06	3.7763e-06	418.88	138.48	120.65	41.317	3.8009e-06	51.113	45.109	140.847	326.018	-2.781	100.238	79.941	-2.831	1.656	137.363	91.009	1.324	6.001	6.729	10.646	117.273	9.892	-8191	255	
3009.473	1	1	0	0	0.21976	0.086065	0.15476	0.34494	0.11819	0.14606	0.20722	0.066957	0.29408	0.11751	0.12007	0.096989	0.054693	0.17024	0.16269	0.20956	-3.0375	-4.0875	-4.3375	-3.5083	-4.6937	-3.9333	-3.6562	-4.9771	-3.45	-4.1042	-4.6833	-3.3479	-4.5354	-4.1125	-3.5396	-4.7292	155.001	341.515	109.299	324.898	269.409	137.006	271.377	198.133	125.137	287.143	23.286	7.538	340.505	-14.405	63.131	334.225	0.00074532	0.00067603	0.00013735	1424.2	7.521e-06	2.0652e-06	1418.3	378.51	6.2048e-06	7.055e-06	432.24	143.21	123.84	42.321	4.4891e-06	52.521	0.00034737	0.00034448	9.474e-05	1404.7	3.7872e-06	3.7541e-06	1397	372.17	3.7706e-06	3.751e-06	418.93	138.6	120.62	41.345	3.7927e-06	51.013	38.917	-2.926	36.786	-2.774	41.705	111.492	-2.744	1.863	171.619	176.431	1.265	6.107	6.213	10.637	124.743	10.033	-8191	255	
3009.592	1	1	0	0	0.034128	0.10445	0.12339	0.095066	0.080965	0.13088	0.31648	0.26247	0.19964	0.26916	0.13533	0.031399	0.18006	0.11576	0.14481	0.10372	-3.1625	-3.8563	-4.6479	-3.3667	-4.65	-4.1292	-3.6104	-4.9021	-3.5604	-3.9521	-4.6042	-3.5146	-4.5708	-4.0896	-3.5563	-4.6021	125.672	154.309	185.512	338.244	232.589	120.751	229.430	250.811	281.857	132.278	339.162	184.736	273.965	313.101	298.315	-0.425	0.00059696	0.00060012	0.00027085	1423.6	4.7318e-06	3.0589e-06	1415.2	376.84	9.3838e-06	2.7778e-06	430.81	141.99	123.96	42.196	3.0238e-06	52.372	0.00034775	0.00034488	9.5434e-05	1404.7	3.8085e-06	3.7613e-06	1396.4	372.35	3.7896e-06	3.7849e-06	419.4	138.45	120.63	41.333	3.8011e-06	51.104	31.636	79.212	101.373	-2.837	146.847	135.279	-2.952	1.921	83.419	220.743	1.286	5.703	6.573	10.700	219.983	10.142	-8191	255	
3009.688	1	1	0	0	0.055737	0.1193	0.081763	0.10245	0.13561	0.10059	0.14852	0.074685	0.145	0.19172	0.15467	0.19121	0.22509	0.011477	0.28339	0.23282	-3.4375	-3.85	-4.55	-3.5979	-4.25	-4.0292	-3.7021	-4.6583	-3.7104	-3.9271	-4.5521	-3.4104	-4.4437	-4.3958	-3.5042	-4.7021	340.970	319.947	98.213	249.198	119.044	45.787	318.854	301.101	154.183	154.462	108.188	256.493	328.821	148.913	281.025	205.788	0.0008335	0.00029935	0.00018425	1420.3	3.0665e-06	1.2241e-06	1417.6	379.63	5.3954e-06	1.3523e-06	432.49	142.98	124.04	42.345	2.0163e-06	52.356	0.00034787	0.00034319	9.6419e-05	1403.9	3.7972e-06	3.7814e-06	1397.3	372.83	3.7892e-06	3.7897e-06	419.79	138.46	120.81	41.407	3.814e-06	51.07	29.155	85.128	9.754	-2.764	215.229	255.164	-2.931	1.810	277.360	236.280	1.407	5.672	6.280	10.416	40.539	9.992	-8191	255	
3009.784	1	1	0	0	0.081112	0.058965	0.063007	0.38417	0.013637	0.20033	0.33043	0.41509	0.14425	0.064854	0.099913	0.17757	0.14165	0.14595	0.19254	0.092864	-3.3354	-3.8646	-4.3688	-3.55	-4.2875	-4.0042	-3.7042	-4.5687	-3.8625	-3.875	-4.5604	-3.3271	-4.1917	-4.3167	-3.6271	-4.5708	133.928	110.224	163.766	311.162	178.483	308.602	214.803	328.019	183.474	6.261	218.481	330.307	260.374	24.393	309.248	199.037	0.00082452	0.00029665	0.0002255	1421.2	1.0045e-05	3.0729e-06	1416.7	379.09	4.2662e-06	6.0824e-06	430.49	142.67	123.75	42.353	3.117e-06	52.446	0.00034701	0.00034538	9.6621e-05	1404.7	3.7706e-06	3.7599e-06	1396	372.57	3.7907e-06	3.7901e-06	419.24	138.4	120.6	41.392	3.8322e-06	51.04	25.433	78.774	54.046	-3.202	153.248	242.700	-3.169	1.351	55.101	202.401	0.835	5.636	6.409	10.496	169.167	9.867	-8191	255	
3009.880	1	1	0	0	0.035091	0.12435	0.20191	0.12673	0.18151	0.1703	0.13104	0.30073	0.24423	0.17223	0.12785	0.24446	0.079239	0.27745	0.088866	0.15984	-3.5542	-3.8458	-4.4583	-3.6479	-4.1562	-4.2771	-3.6729	-4.6521	-3.7771	-3.5917	-4.7333	-3.7646	-4.1271	-4.3938	-3.425	-4.4583	2.860	148.686	234.663	253.418	25.637	321.892	330.374	316.756	74.723	338.672	18.226	309.539	309.408	13.960	326.775	330.498	0.00036894	0.00079916	7.3032e-05	1421.2	7.274e-06	3.1653e-06	1417.1	378.06	6.3885e-06	5.4571e-06	431.44	143.08	123.77	42.2	1.2857e-06	52.347	0.00034315	0.00034575	9.5774e-05	1404.9	3.7636e-06	3.7767e-06	1396.4	372.01	3.7614e-06	3.787e-06	419.09	138.45	120.64	41.29	3.755e-06	50.891	5.694	43.330	318.173	-3.125	75.898	137.516	-3.035	1.644	115.632	147.738	0.987	5.801	6.625	10.747	92.580	10.126	-8191	255	
3010.001	1	1	0	0	0.064761	0.20544	0.096291	0.087766	0.059244	0.22105	0.40154	0.10041	0.050604	0.10065	0.19394	0.17896	0.15904	0.11334	0.18583	0.24667	-3.5604	-3.6688	-4.4333	-3.8812	-3.9	-4.2104	-3.7958	-4.4417	-3.8083	-3.6375	-4.5292	-3.6604	-4.0896	-4.3146	-3.5646	-4.6104	230.890	189.363	152.293	288.564	29.103	174.753	264.544	224.856	191.395	9.813	24.692	41.494	308.383	261.791	109.804	301.641	0.00044374	0.00042789	7.6213e-05	1420.1	1.006e-06	5.4347e-06	1417.4	378.33	9.1138e-06	6.5075e-06	431.22	142.49	124.52	42.256	2.8668e-06	52.6	0.00034495	0.00034399	9.5748e-05	1403	3.766e-06	3.7901e-06	1398.9	372.43	3.7873e-06	3.7703e-06	419.69	138.07	120.84	41.348	3.7881e-06	51	19.171	92.580	53.093	-2.912	129.701	159.305	-2.833	1.679	155.444	69.565	1.332	5.804	6.575	10.832	100.520	9.836	-8191	255	
3010.072	1	1	0	0	0.14068	0.17191	0.12376	0.080304	0.28142	0.1468	0.24306	0.13966	0.087674	0.17452	0.22463	0.079577	0.041636	0.091884	0.25554	0.22473	-3.5167	-3.6792	-4.4958	-3.8396	-3.7375	-4.4417	-3.7	-4.4771	-3.9583	-3.5396	-4.6271	-3.8375	-4.1687	-4.35	-3.3396	-4.6083	192.238	143.314	68.425	338.736	102.238	182.156	299.080	209.486	86.867	324.290	212.602	110.583	310.993	296.077	222.710	264.538	0.00085859	0.0003108	0.0001397	1420.3	4.2261e-06	6.1543e-06	1416.9	376.93	7.4926e-06	2.9853e-06	431.91	142.9	123.83	42.331	1.6785e-07	52.495	0.00034708	0.00034747	9.5904e-05	1404.4	3.7821e-06	3.7939e-06	1396.4	371.9	3.8229e-06	3.8126e-06	419.5	138.5	120.6	41.402	3.8134e-06	51.089	28.259	99.950	42.061	-2.794	60.499	151.229	-2.865	1.914	257.511	121.784	1.360	5.850	6.693	10.829	62.309	10.099	-8191	255	
3010.193	1	1	0	0	0.18746	0.20178	0.18466	0.071627	0.17183	0.26012	0.17109	0.11373	0.15142	0.057237	0.15239	0.086228	0.070068	0.13994	0.27745	0.17716	-3.8896	-3.5771	-4.6062	-3.8708	-3.9813	-4.6458	-3.3875	-4.5062	-4.3063	-3.6208	-4.6708	-3.7146	-3.9542	-4.675	-3.4271	-4.1937	-0.296	300.945	334.824	181.594	145.190	79.411	211.150	272.782	315.352	329.591	14.788	252.457	135.812	304.016	227.584	-4.641	0.00076156	0.00030678	0.00014624	1419.8	8.4318e-06	2.7914e-06	1414.8	379.2	1.3107e-06	6.3999e-06	433.06	143.08	123.91	42.386	2.6448e-06	52.277	0.0003469	0.00034709	9.6157e-05	1402.1	3.7832e-06	3.7813e-06	1395.1	372.89	3.7574e-06	3.8016e-06	419.75	138.13	120.6	41.399	3.7584e-06	50.923	27.895	-3.320	19.738	-2.697	133.975	340.209	-3.076	1.884	102.308	111.262	1.204	5.837	6.254	10.961	92.383	10.025	-8191	255	
3010.287	1	1	0	0	0.024788	0.23124	0.16112	0.26148	0.076006	0.22809	0.1462	0.19	0.17406	0.29573	0.15424	0.082659	0.19593	0.084364	0.10303	0.19247	-4.0375	-3.3937	-4.6333	-3.9979	-3.6604	-4.5938	-3.5271	-4.1896	-4.3979	-3.5375	-4.5604	-3.8771	-3.6521	-4.7562	-3.4375	-4.2146	132.833	313.180	286.333	296.490	222.207	118.393	299.650	149.502	183.822	78.329	14.799	193.123	314.655	198.330	306.670	275.166	0.00076592	0.00039761	0.00034073	1418.6	4.6805e-06	2.4359e-06	1409.7	378.87	3.9955e-06	4.516e-06	432.02	142.28	123.26	42.288	6.0045e-06	52.403	0.00034359	0.0003433	9.4996e-05	1402.8	3.7869e-06	3.7594e-06	1392.8	372.28	3.7569e-06	3.7661e-06	418.96	138.08	120.51	41.412	3.7498e-06	51.006	26.370	6.727	43.306	-2.946	90.252	137.928	-2.840	1.922	165.377	99.069	1.310	5.960	6.569	10.623	131.769	10.113	-8191	255	
3010.383	1	1	0	0	0.30899	0.10499	0.10836	0.29415	0.15886	0.13469	0.40191	0.20009	0.087865	0.095884	0.16409	0.19061	0.15917	0.23141	0.17887	0.12195	-4.1562	-3.4271	-4.5062	-4.1292	-3.5187	-4.6375	-3.6875	-4.2875	-4.1562	-3.7083	-4.5312	-4.0646	-3.8292	-4.4812	-3.6021	-4.1167	281.632	333.305	324.855	297.585	170.837	313.691	310.982	54.650	242.984	290.603	327.216	324.348	302.435	15.934	180.373	-15.666	0.00045866	0.00020325	0.00021311	1420	1.8126e-06	6.4327e-06	1414.2	378.71	9.9088e-07	3.6687e-06	430.81	142.27	123.84	42.402	3.402e-06	52.403	0.00034742	0.00034514	9.5496e-05	1400.7	3.7491e-06	3.7475e-06	1394.9	372.29	3.7727e-06	3.7681e-06	419.18	138.16	120.42	41.365	3.7438e-06	51.008	44.974	129.425	8.205	-3.058	181.186	128.218	-2.883	1.579	267.382	128.442	1.379	5.803	6.506	10.921	93.576	10.081	-8191	255	
3010.480	1	1	0	0	0.028143	0.087742	0.17861	0.25156	0.15214	0.06027	0.21868	0.28302	0.057828	0.10215	0.11384	0.32907	0.19684	0.33938	0.081243	0.13617	-4.0896	-3.4688	-4.375	-4.1646	-3.7062	-4.3104	-3.9833	-4.2063	-4.3792	-3.6	-4.6208	-4.075	-3.5792	-4.4625	-3.7167	-4.0104	202.537	327.052	112.944	321.961	72.773	179.998	258.274	319.872	331.052	36.373	34.956	246.901	274.099	274.131	190.307	61.422	0.00059619	0.00060962	9.5854e-05	1421.5	7.704e-06	4.2655e-06	1411.3	378.49	4.5631e-06	5.4107e-06	430.71	141.82	124.34	42.213	2.42e-06	52.402	0.0003469	0.00034077	9.4874e-05	1402.6	3.7986e-06	3.758e-06	1394	372.3	3.7971e-06	3.7664e-06	419.14	138.15	120.67	41.289	3.795e-06	51.006	19.155	69.478	25.873	-2.894	79.792	139.701	-2.946	1.700	76.187	151.158	1.435	5.968	6.407	10.752	-1.105	10.107	-8191	255	
3010.600	1	1	0	0	0.28277	0.25467	0.064472	0.17143	0.1888	0.19747	0.18021	0.053847	0.21698	0.20682	0.041789	0.13581	0.32847	0.10157	0.14247	0.23555	-4.1958	-3.4104	-4.2604	-4.2188	-3.5875	-4.6667	-3.9167	-4.1062	-4.4583	-3.5729	-4.4292	-4.2583	-3.6312	-4.5604	-3.8354	-3.7438	103.416	299.704	83.775	22.892	90.767	319.601	251.257	213.150	140.130	313.574	238.296	10.344	168.423	107.848	45.827	290.989	0.00090623	0.00028853	0.00010951	1416.3	1.2981e-06	5.9039e-06	1418.3	377.68	8.978e-06	5.4346e-06	432.19	142.74	124.31	42.382	3.0179e-06	52.451	0.000347	0.00034384	9.589e-05	1401.6	3.7786e-06	3.7372e-06	1394.1	372.12	3.801e-06	3.7861e-06	419.88	138.18	120.61	41.409	3.7706e-06	50.971	23.134	47.218	76.791	-2.869	341.024	95.147	-2.978	2.025	184.875	155.222	1.441	5.990	6.585	11.039	15.301	10.035	-8191	255	
3010.696	1	1	0	0	0.10192	0.14864	0.071013	0.093028	0.17785	0.075439	0.25141	0.022702	0.15864	0.3532	0.37642	0.041726	0.36964	0.11396	0.051011	0.079435	-4.2917	-3.4437	-4.225	-4.4146	-3.3333	-4.4437	-3.9625	-3.9354	-4.4667	-3.5042	-4.2604	-4.2708	-3.6896	-4.5604	-3.7438	-3.8958	39.159	44.965	158.889	273.830	76.121	175.744	320.384	145.818	159.346	179.163	328.098	335.599	23.216	85.999	3.408	281.883	0.00028454	0.0004233	8.6145e-05	1418.6	8.6649e-06	2.5879e-06	1411.4	377.07	5.3967e-06	6.6279e-06	432.62	142.47	123.55	42.232	7.5197e-06	52.414	0.00034712	0.00034435	9.5407e-05	1401.5	3.7852e-06	3.7495e-06	1392.8	372.14	3.7698e-06	3.7751e-06	419.99	138.09	120.65	41.365	3.7944e-06	50.949	27.207	80.173	13.870	-2.904	68.763	60.788	-2.859	1.683	217.053	144.684	1.592	5.955	6.583	10.714	95.441	10.083	-8191	255	
3010.768	1	1	0	0	0.092418	0.10146	0.19268	0.33087	0.12979	0.16774	0.16582	0.27977	0.047487	0.079832	0.1512	0.10396	0.091168	0.14652	0.17421	0.194	-4.0083	-3.675	-4.2375	-4.3125	-3.3542	-4.2958	-4.1146	-4.0271	-4.4146	-3.5229	-4.1729	-4.3542	-3.7604	-4.4729	-3.9625	-3.7667	181.290	55.035	15.331	-3.700	124.313	182.043	271.150	266.426	135.263	177.284	293.639	338.338	263.717	20.103	27.921	340.316	0.00069748	0.00086339	0.00028462	1420.6	7.9316e-06	6.3307e-06	1416.4	378.86	7.7425e-06	7.461e-07	430.11	142.09	123.81	42.491	2.7235e-06	52.258	0.00034697	0.00034686	9.6991e-05	1403.2	3.8077e-06	3.7806e-06	1394.4	372.64	3.7829e-06	3.7956e-06	419.61	138.37	120.45	41.452	3.8412e-06	50.924	10.304	119.495	54.960	-2.927	118.655	32.814	-2.961	1.774	152.115	123.144	1.418	5.962	6.677	10.889	241.120	9.868	-8191	255	
3010.864	1	1	0	0	0.15268	0.038932	0.16779	0.40447	0.16183	0.23233	0.12077	0.24237	0.04596	0.27747	0.049842	0.37284	0.26255	0.08152	0.15968	0.088797	-4.1792	-3.6604	-3.8438	-4.3313	-3.6437	-4.4875	-4.2042	-3.7708	-4.5521	-3.7229	-4.2562	-4.4771	-3.7292	-4.5146	-4.1042	-3.7771	307.544	231.841	172.226	-8.997	294.424	158.473	291.317	335.889	340.952	81.607	171.875	263.149	296.214	330.244	92.877	317.490	0.00077396	0.00023094	0.00019518	1423.3	7.0326e-06	4.2679e-06	1417.5	377.85	6.3643e-06	2.0796e-06	431.08	142.3	123.7	42.6	8.4833e-06	52.118	0.00034656	0.00034639	9.6531e-05	1403	3.7832e-06	3.7658e-06	1393.9	372.55	3.7759e-06	3.7914e-06	420.15	138.24	120.46	41.533	3.7957e-06	50.949	36.789	75.841	316.580	-2.861	65.051	173.165	-2.904	1.755	99.280	97.228	1.454	5.954	6.265	10.875	83.436	10.109	-8191	255	
3010.960	1	1	0	0	0.30885	0.18287	0.055255	0.22452	0.14657	0.13769	0.051386	0.080518	0.060564	0.31755	0.17009	0.11222	0.19492	0.19758	0.065852	0.072732	-4.2896	-3.6271	-4.0354	-4.5729	-3.5521	-4.4437	-4.2292	-3.7917	-4.3958	-3.7542	-4.1396	-4.5312	-3.5792	-4.3313	-4.1333	-3.8063	254.441	53.867	-11.329	-13.056	38.290	106.731	246.427	215.569	64.705	32.991	271.641	9.045	230.160	17.884	283.122	301.439	0.00074544	0.00033913	0.00013957	1418.9	5.4595e-06	4.8203e-06	1420.3	378.48	2.1918e-06	4.8138e-06	431.03	142.16	124.03	42.378	5.6842e-06	52.868	0.0003457	0.0003454	9.5964e-05	1403.3	3.7869e-06	3.7757e-06	1394.7	371.85	3.7532e-06	3.7719e-06	419.41	138.03	120.62	41.405	3.7747e-06	51.064	26.997	105.544	71.767	-2.974	56.770	137.586	-2.910	1.921	63.913	186.037	1.486	5.701	6.283	11.002	86.695	9.990	-8191	255	
3011.081	1	1	0	0	0.11763	0.22278	0.15379	0.24941	0.15424	0.24597	0.042015	0.12916	0.1418	0.14336	0.20061	0.16519	0.22484	0.25341	0.26181	0.27079	-4.2562	-3.6917	-3.9313	-4.4729	-3.3812	-4.2875	-4.3375	-3.5625	-4.6458	-3.7979	-3.9938	-4.7042	-3.4229	-4.4042	-4.4062	-3.225	330.830	260.633	137.300	312.148	-7.640	178.410	180.661	307.442	11.527	131.759	286.374	331.683	295.911	329.582	322.603	337.048	0.0008448	0.00055714	0.0001065	1421.6	6.9605e-06	3.3935e-06	1410.6	379.02	2.7575e-06	5.5582e-06	432.31	142.83	123.99	42.421	2.814e-06	52.458	0.0003445	0.00034645	9.5498e-05	1403.8	3.762e-06	3.7563e-06	1393.8	372.74	3.7666e-06	3.7609e-06	419.1	138.31	120.46	41.489	3.7581e-06	50.959	19.226	10.294	14.413	-2.862	80.957	141.195	-2.727	1.748	187.794	96.203	1.577	6.048	6.459	10.888	83.116	10.049	-8191	255	
3011.175	1	1	0	0	0.076207	0.13105	0.085794	0.18314	0.07066	0.28322	0.067867	0.080668	0.36162	0.12405	0.14099	0.11189	0.13328	0.22712	0.17577	0.026867	-4.4792	-3.7146	-3.3979	-5.0938	-3.2562	-4.4437	-4.7875	-3.2104	-4.6083	-3.8292	-3.6667	-4.7771	-3.4583	-4.2146	-4.4729	-3.3187	191.321	-2.371	69.000	287.711	329.506	-10.178	0.974	269.345	219.165	96.604	169.649	-12.442	5.506	315.853	291.967	72.183	0.00069077	0.00059681	0.00010026	1421.2	2.8304e-06	1.0054e-05	1411.8	377.16	1.0643e-05	4.4392e-06	431.99	142.18	123.27	42.278	5.4277e-06	52.38	0.00034539	0.00034377	9.5504e-05	1404.3	3.7513e-06	3.7441e-06	1392.8	371.1	3.7343e-06	3.7607e-06	419.98	138.15	120.18	41.376	3.7444e-06	50.832	46.137	14.180	79.963	-2.666	87.329	116.837	-3.000	1.906	297.276	197.391	1.416	5.854	6.224	10.839	22.345	9.956	-8191	255	
3011.273	1	1	0	0	0.15726	0.084446	0.22838	0.11821	0.43739	0.19802	0.065959	0.29213	0.20104	0.27949	0.16592	0.32981	0.087152	0.13042	0.11655	0.11881	-4.4083	-3.7792	-3.6375	-4.9667	-3.325	-4.0479	-4.8167	-3.5542	-4.5146	-3.9917	-3.6208	-4.8979	-3.6937	-4.1188	-4.4833	-3.5229	67.463	196.632	313.502	275.824	167.133	28.383	17.021	320.125	87.325	245.160	6.614	317.692	53.309	319.458	241.027	245.039	0.00074808	0.00071617	8.6881e-05	1421.6	4.485e-06	1.2602e-06	1416.5	376.34	5.552e-06	4.1402e-06	431.31	142.55	123.6	42.243	6.0321e-06	52.366	0.00034397	0.00034268	9.451e-05	1402.9	3.7352e-06	3.7461e-06	1394.6	371.54	3.7507e-06	3.7493e-06	419.05	138.13	120.3	41.395	3.7386e-06	50.817	33.488	94.935	122.938	-2.550	98.381	65.533	-3.057	1.615	188.501	87.194	1.209	6.017	6.256	10.659	237.578	9.765	-8191	255	
3011.368	1	1	0	0	0.094752	0.036249	0.13234	0.2923	0.095549	0.27908	0.28281	0.058453	0.036559	0.11021	0.20525	0.20811	0.10215	0.18312	0.1043	0.08582	-4.2479	-4.0687	-3.3854	-5.025	-3.4938	-3.9417	-4.8708	-3.2521	-4.5667	-4.1687	-3.6917	-4.8	-3.8271	-4.1042	-4.5833	-3.4146	251.173	257.251	285.021	309.592	168.882	90.629	-14.607	112.740	278.703	-7.247	314.571	319.047	286.737	340.285	245.306	28.858	0.00047748	0.00067031	0.00015886	1427.2	3.7065e-06	7.9908e-06	1417.3	375.89	5.6737e-06	1.5043e-06	430.73	142.42	123.91	42.297	6.5431e-06	52.273	0.00034504	0.00034334	9.4938e-05	1405.1	3.7717e-06	3.737e-06	1395	371.21	3.725e-06	3.7339e-06	419.11	138.06	120.21	41.34	3.7352e-06	50.757	36.775	66.662	-4.757	-2.769	108.102	112.081	-2.890	1.826	184.515	130.237	1.008	6.049	6.197	10.775	95.515	10.126	-8191	255	
3011.464	1	1	0	0	0.24383	0.061123	0.26689	0.1429	0.058664	0.08273	0.51264	0.14641	0.081325	0.2077	0.094674	0.19574	0.31803	0.15251	0.13502	0.32188	-3.9125	-4.0979	-3.5125	-4.7104	-3.6833	-3.8667	-4.6042	-3.6125	-4.1583	-4.1542	-3.7042	-4.7521	-3.775	-3.975	-4.4646	-3.5708	163.462	237.753	17.063	272.675	138.760	65.337	312.239	295.537	222.268	181.310	252.775	321.795	295.569	273.911	15.965	308.103	0.00091995	0.00029101	4.5997e-05	1423.2	1.4822e-06	3.5353e-06	1414.3	377.35	6.6877e-06	2.2855e-06	431.57	142.49	123.92	42.378	2.6043e-06	52.428	0.00034353	0.00034055	9.4223e-05	1405.2	3.7266e-06	3.7241e-06	1394.1	371.14	3.7514e-06	3.7299e-06	418.95	138.34	120.34	41.406	3.7379e-06	50.87	7.196	158.278	90.836	-3.046	343.397	162.430	-2.853	1.760	180.733	118.111	1.277	5.985	6.188	10.863	176.501	9.903	-8191	255	
3011.560	1	1	0	0	0.026543	0.11084	0.13208	0.17836	0.11254	0.25164	0.15891	0.16988	0.063379	0.098833	0.19747	0.36042	0.35961	0.40104	0.037234	0.20679	-4.0458	-4.0875	-3.3667	-4.8333	-3.7833	-3.7438	-4.6667	-3.5312	-4.2229	-4.1958	-3.5687	-4.5167	-4.0604	-3.7104	-4.4833	-3.6458	187.184	65.525	215.977	199.821	94.549	313.233	296.943	77.525	229.400	-0.151	305.064	296.181	330.493	289.468	66.894	33.055	0.00049601	0.00036335	0.00015036	1423.7	6.865e-06	7.993e-06	1417.1	377.56	4.0206e-06	4.2729e-06	431.25	143.06	123.65	42.402	2.2815e-06	52.43	0.00034421	0.00033935	9.4967e-05	1405.7	3.7556e-06	3.7135e-06	1395.8	371.7	3.7303e-06	3.7015e-06	418.41	138.35	120.26	41.354	3.7047e-06	50.854	-7.073	126.661	80.753	-2.930	64.212	84.968	-2.850	1.578	180.879	16.067	1.290	6.258	6.619	10.653	42.733	10.097	-8191	255	
3011.681	1	1	0	0	0.23735	0.049859	0.14686	0.21283	0.017773	0.17303	0.22024	0.29696	0.11856	0.38999	0.082988	0.15433	0.093569	0.13492	0.15491	0.12737	-3.7917	-4.2354	-3.6083	-4.5667	-3.9542	-3.6021	-4.7312	-3.6562	-4.0417	-4.3375	-3.5479	-4.5917	-4.1167	-3.5833	-4.8063	-3.5625	47.848	229.934	254.587	233.077	255.369	-0.771	280.209	301.043	198.088	217.655	326.675	314.128	308.621	267.934	268.713	321.909	0.00089518	0.00051191	0.00021404	1422.3	6.2607e-06	5.4775e-06	1414.2	378.3	3.9029e-06	4.5138e-06	431.44	142.77	123.97	42.477	4.0983e-06	52.324	0.00034073	0.00033592	9.4299e-05	1405.2	3.7118e-06	3.683e-06	1395.1	372.16	3.7003e-06	3.6979e-06	419.24	138.3	120.33	41.377	3.7291e-06	50.913	2.308	82.674	67.837	-2.652	46.398	100.924	-2.929	1.723	201.602	119.404	1.309	6.103	6.102	10.775	176.262	10.245	-8191	255	
3011.777	1	1	0	0	0.23379	0.076978	0.27332	0.37153	0.046657	0.031108	0.14786	0.26923	0.10816	0.22408	0.12517	0.21072	0.19839	0.044893	0.14026	0.10767	-3.6083	-4.5333	-3.4188	-4.7229	-4.0312	-3.425	-4.8521	-3.7438	-4.0271	-4.5125	-3.4125	-4.5792	-4.1604	-3.6667	-4.5833	-3.6937	12.639	126.470	198.643	295.028	100.306	261.296	213.885	-13.496	224.627	125.378	59.486	2.677	188.943	234.531	321.325	87.653	0.00083099	0.00079248	0.00015528	1421.1	8.7512e-06	7.7213e-06	1420.1	376.75	6.0525e-06	2.066e-06	431.61	142.46	123.13	42.434	4.0092e-06	52.254	0.00034289	0.00033782	9.445e-05	1407.6	3.7366e-06	3.7212e-06	1396.1	371.28	3.7408e-06	3.7241e-06	419.44	138.36	120.4	41.407	3.7614e-06	50.781	25.069	87.040	98.460	-2.646	84.426	100.464	-2.786	1.580	118.840	228.770	1.357	5.948	6.479	10.706	121.689	9.914	-8191	255	
3011.873	1	1	0	0	0.063325	0.083252	0.073166	0.13183	0.13266	0.14227	0.092039	0.1084	0.1627	0.044738	0.34567	0.15219	0.11032	0.15751	0.12926	0.28349	-3.6542	-4.5625	-3.6146	-4.7417	-4.0396	-3.6625	-4.7854	-3.8063	-3.9333	-4.6521	-3.575	-4.4896	-4.3562	-3.4875	-4.9479	-3.7938	274.989	223.607	112.851	301.206	192.349	219.602	232.869	232.551	-14.904	284.624	338.044	266.633	-0.591	51.914	160.312	89.874	0.00047962	0.00041518	0.00020339	1423.1	6.9363e-06	7.0755e-06	1414.9	377.01	2.4919e-06	5.5683e-06	431.55	143.23	123.46	42.292	2.4514e-06	52.257	0.00034278	0.00034114	9.5352e-05	1405.7	3.7145e-06	3.7274e-06	1396.4	371.75	3.7251e-06	3.7316e-06	418.77	138.39	120.32	41.341	3.7692e-06	50.845	25.986	76.099	62.513	-2.822	39.748	93.555	-2.869	1.850	331.663	20.117	1.164	6.116	6.427	10.866	179.565	10.270	-8191	255	
3011.969	1	1	0	0	0.16057	0.22165	0.056715	0.05379	0.21006	0.12143	0.12201	0.12332	0.10829	0.16559	0.12018	0.32134	0.18991	0.45689	0.26863	0.067334	-3.5104	-4.5292	-3.3833	-4.4854	-4.3354	-3.4917	-4.7167	-3.9646	-4.0708	-4.5	-3.5208	-4.1958	-4.4042	-3.5604	-4.45	-3.8333	194.527	85.550	66.445	338.894	53.330	175.507	195.667	137.055	-13.721	92.568	-2.086	257.553	286.158	269.617	324.400	-11.269	0.00063035	0.00033893	9.8939e-05	1427.7	5.2225e-06	5.3475e-06	1420.5	377.72	9.1889e-06	2.6959e-06	431.59	142.98	123.72	42.412	1.8239e-06	52.276	0.00034349	0.00034057	9.5677e-05	1409.5	3.7264e-06	3.7356e-06	1398.3	371.86	3.7368e-06	3.7785e-06	419.52	138.47	120.34	41.38	3.79e-06	50.882	25.028	57.339	15.945	-2.708	147.735	85.809	-2.906	1.623	195.432	191.838	1.305	6.128	6.314	10.676	199.065	9.825	-8191	255	
3012.065	1	1	0	0	0.10023	0.18104	0.1998	0.18287	0.32998	0.1725	0.19166	0.18701	0.19793	0.17339	0.23103	0.1277	0.010621	0.23172	0.27057	0.18439	-3.5438	-4.5417	-3.6125	-4.3708	-4.1667	-3.4813	-4.6062	-4.0062	-3.6396	-4.5979	-3.7604	-4.2979	-4.5521	-3.675	-4.5042	-4.1396	228.274	16.423	42.565	306.867	138.933	304.265	10.301	309.684	52.740	-6.679	200.658	297.234	205.617	-15.006	311.069	308.992	0.00046548	0.000644	0.00010961	1424.1	4.9196e-06	1.7412e-06	1421.3	377.12	1.016e-05	1.0587e-05	432.43	142.27	123.96	42.435	4.3048e-07	52.363	0.00034407	0.00034208	9.5327e-05	1405.8	3.7283e-06	3.7554e-06	1399.4	371.44	3.7546e-06	3.7576e-06	420.01	138.31	120.51	41.416	3.7693e-06	50.901	57.370	52.849	287.602	-2.699	14.654	37.982	-2.691	1.585	155.005	98.423	1.394	6.179	6.311	10.653	146.827	9.796	-8191	255	
3012.161	1	1	0	0	0.13958	0.15444	0.1491	0.076219	0.1562	0.16034	0.086008	0.16774	0.14342	0.051279	0.17817	0.13137	0.021093	0.34291	0.031118	0.13977	-3.4083	-4.7188	-3.5792	-4.3458	-4.375	-3.2812	-4.85	-4.2812	-3.6104	-4.7167	-3.6646	-4.2167	-4.6188	-3.4458	-4.4771	-4.1208	342.668	174.666	168.133	280.242	301.306	318.283	194.099	299.820	300.794	109.800	165.027	124.310	47.074	317.951	38.393	231.848	0.00057668	0.00060296	0.00014012	1425.8	1.9109e-06	3.2099e-06	1421.1	378.32	3.8445e-06	5.0336e-06	429.33	142.92	123.55	42.058	1.1597e-06	52.3	0.00034518	0.0003434	9.5315e-05	1409.8	3.7424e-06	3.7533e-06	1399.9	371.99	3.7726e-06	3.7725e-06	418.28	138.54	120.43	41.319	3.8048e-06	50.88	35.509	49.486	-11.158	-2.679	81.898	59.723	-2.756	1.541	97.646	136.920	1.288	6.270	6.402	10.657	141.138	9.842	-8191	255	
3012.257	1	1	0	0	0.12453	0.33094	0.20566	0.25067	0.21627	0.09332	0.18531	0.19295	0.075698	0.15229	0.16153	0.15437	0.095431	0.33252	0.046051	0.12026	-3.175	-4.6521	-3.6625	-4.2083	-4.5396	-3.2729	-4.6646	-4.3979	-3.425	-4.7875	-3.75	-4.0563	-4.5083	-3.3312	-4.3438	-4.2042	80.122	197.836	208.265	333.054	90.303	149.291	265.727	253.656	196.449	231.370	127.727	149.246	-10.622	86.259	110.582	92.647	0.00068708	0.00093467	8.2145e-05	1423.2	4.5163e-06	7.1544e-06	1421.3	377.16	2.094e-06	1.7917e-06	431.57	142.48	124.58	42.189	2.1781e-06	52.354	0.00034803	0.00034579	9.5803e-05	1406.8	3.7521e-06	3.766e-06	1396.7	371.99	3.7811e-06	3.7514e-06	418.98	138.44	120.58	41.326	3.7601e-06	50.87	14.712	121.483	88.681	-2.694	104.643	128.592	-2.654	1.727	125.143	260.528	1.271	5.818	6.233	10.640	55.545	9.990	-8191	255	
3012.376	1	1	0	0	0.061638	0.1934	0.077585	0.26222	0.25475	0.096907	0.24611	0.10439	0.10589	0.19793	0.37933	0.13907	0.20726	0.28703	0.15352	0.076752	-3.1125	-4.8125	-3.7375	-3.9333	-4.7896	-3.45	-4.5604	-4.5	-3.6021	-4.7292	-3.8854	-3.9146	-4.7188	-3.425	-4.3021	-4.5604	221.904	77.371	140.991	300.723	309.311	58.159	320.794	254.693	122.603	201.993	-3.115	17.568	-1.462	298.679	59.857	183.131	0.00052567	0.00071051	0.00022833	1431	5.8913e-06	9.3714e-06	1421.5	376.96	6.1705e-06	4.0804e-06	430.03	142.71	124.13	42.255	5.8634e-06	52.105	0.00034466	0.00034113	9.3914e-05	1409.1	3.7358e-06	3.7273e-06	1397.4	370.88	3.749e-06	3.7261e-06	417.81	138.14	120.57	41.33	3.7376e-06	50.714	41.473	100.806	328.824	-2.605	74.035	89.753	-2.856	1.666	108.825	124.422	0.978	5.748	6.378	10.805	314.742	10.123	-8191	255	
3012.473	1	1	0	0	0.1822	0.17834	0.15305	0.08633	0.1531	0.038984	0.23598	0.11969	0.09341	0.044567	0.20766	0.19665	0.17742	0.3079	0.028809	0.16599	-3.2521	-4.5417	-3.9542	-3.8792	-4.5708	-3.3812	-4.4042	-4.2146	-3.7771	-4.6062	-3.8229	-3.775	-4.4458	-3.5708	-4.2146	-4.2083	229.652	91.243	43.581	176.505	67.710	193.275	306.262	188.145	212.042	271.094	57.630	18.576	203.396	327.502	82.480	151.074	0.00076679	0.00069489	0.00030028	1423.6	3.3865e-06	9.446e-06	1419.9	375.35	4.3222e-06	5.2715e-06	431.46	142.59	123.23	42.245	4.3595e-06	52.371	0.00034573	0.00034135	9.5028e-05	1406.3	3.7448e-06	3.7494e-06	1398.8	370.93	3.7443e-06	3.7369e-06	419.05	138.38	120.34	41.319	3.7353e-06	50.921	28.935	33.625	30.588	-2.797	197.499	155.252	-2.847	1.644	338.883	164.655	1.141	6.036	6.488	10.817	110.319	10.175	-8191	255	
3012.569	1	1	0	0	0.23067	0.10229	0.13483	0.045896	0.093081	0.18894	0.39255	0.051159	0.20736	0.026354	0.22468	0.22285	0.052398	0.1837	0.16827	0.37063	-3.225	-4.4354	-3.8937	-3.9646	-4.2854	-3.5979	-4.2521	-4.4313	-3.6875	-4.2875	-3.9958	-3.7938	-4.5167	-3.6917	-3.8812	-4.2646	52.403	120.734	133.233	-3.336	4.656	109.482	276.200	324.262	305.637	224.608	269.096	277.723	179.900	244.824	243.592	-12.922	0.00069462	0.00076545	5.2055e-05	1424.8	3.0418e-06	8.1557e-06	1421	377.76	1.8532e-06	7.9395e-06	430.31	143.05	123.97	42.228	1.3085e-06	52.489	0.00034387	0.00034085	9.425e-05	1408.4	3.7334e-06	3.7294e-06	1398.1	371.62	3.7475e-06	3.702e-06	418.36	138.5	120.56	41.338	3.7601e-06	50.782	25.375	32.987	150.126	-2.684	124.576	112.497	-2.810	1.471	229.109	49.767	1.205	5.920	6.603	10.648	78.017	9.850	-8191	255	
3012.640	1	1	0	0	0.035256	0.25367	0.1613	0.23912	0.17678	0.16289	0.11337	0.21611	0.16368	0.063108	0.11423	0.10853	0.28724	0.11162	0.068255	0.21557	-3.3021	-4.2396	-3.9688	-3.8146	-4.2708	-3.5875	-4.2604	-4.2646	-3.4792	-4.3	-4.0458	-3.6937	-4.4792	-3.5875	-3.9625	-4.4729	69.825	275.932	19.648	253.429	194.017	111.603	265.138	288.184	198.532	11.772	34.636	295.398	286.330	321.780	289.400	47.756	0.000814	0.00032705	0.00010169	1425.8	5.4075e-06	4.6286e-06	1423.7	378.34	1.6025e-06	1.8989e-06	432.1	142.94	123.66	42.284	4.3458e-06	52.227	0.00034424	0.00033939	9.4252e-05	1407.4	3.7338e-06	3.7173e-06	1400.8	371.97	3.7539e-06	3.715e-06	419.35	138.51	120.4	41.304	3.7438e-06	50.835	18.759	77.867	112.154	-2.975	159.261	81.948	-2.814	1.662	80.787	235.620	1.122	6.215	6.013	10.780	137.134	10.007	-8191	255	
3012.761	1	1	0	0	0.089794	0.16037	0.19312	0.17227	0.086017	0.027242	0.3148	0.13273	0.070178	0.12516	0.064894	0.37721	0.088933	0.16766	0.17262	0.13253	-3.3479	-4.3187	-3.9583	-3.75	-4.3833	-3.7896	-4.0229	-4.5	-3.5021	-4.3708	-4.2104	-3.6271	-4.5583	-3.8063	-3.8125	-4.6583	300.367	179.587	211.270	6.603	337.997	203.084	307.512	0.443	111.805	35.148	335.439	14.880	294.499	233.411	-14.926	-6.754	0.00064933	0.00046533	1.8325e-06	1424.4	9.6875e-06	8.6907e-07	1424.4	378.7	2.1656e-06	3.6944e-06	431.8	143.33	124.76	42.403	6.1285e-06	52.438	0.00034378	0.00034109	9.4557e-05	1407.2	3.736e-06	3.7203e-06	1401.4	372.04	3.745e-06	3.7478e-06	418.99	138.68	120.81	41.352	3.7688e-06	50.907	28.074	37.167	323.962	-2.901	-1.169	73.214	-2.714	1.675	253.598	32.101	1.223	5.990	6.633	10.593	132.885	10.250	-8191	255	
3012.857	1	1	0	0	0.14485	0.278	0.28258	0.28861	0.26338	0.14736	0.16617	0.30812	0.15653	0.024341	0.075914	0.17898	0.16425	0.1703	0.3088	0.14555	-3.3333	-4.3896	-4.3958	-3.7938	-4.6229	-3.7875	-4.0583	-4.4187	-3.6813	-4.2167	-4.2979	-3.5521	-4.575	-4.0917	-3.8875	-4.475	180.203	266.638	304.073	325.179	329.053	-10.635	285.401	240.997	34.516	193.151	52.862	309.185	86.689	137.566	332.124	275.819	0.00053595	0.00015994	0.00024467	1426.4	2.5535e-06	5.0963e-06	1417	377.59	7.561e-06	2.6408e-06	430.91	143.07	124.16	42.108	3.6034e-06	52.121	0.00034448	0.00033876	9.4709e-05	1405.8	3.7211e-06	3.7258e-06	1397.5	371.86	3.7363e-06	3.7391e-06	418.55	138.54	120.52	41.209	3.7399e-06	50.829	24.730	58.824	65.137	-2.932	33.403	141.448	-3.009	1.446	216.726	53.010	1.293	5.873	6.211	10.462	126.920	9.999	-8191	255	
3012.953	1	1	0	0	0.22571	0.063404	0.096593	0.025205	0.091759	0.24962	0.30936	0.25221	0.15324	0.13502	0.1957	0.12081	0.19345	0.10855	0.10131	0.11163	-3.1479	-4.4708	-4.3083	-3.6312	-4.6583	-3.8625	-3.9313	-4.6396	-3.45	-4.1813	-4.6354	-3.525	-4.7417	-3.9875	-3.7542	-4.7229	269.234	135.474	163.535	315.352	284.509	77.499	339.169	334.260	51.487	88.667	219.906	309.116	258.739	243.545	15.230	290.498	0.0007806	0.00028233	0.00015716	1425.6	3.9309e-06	6.5961e-06	1421.4	378.57	2.5665e-06	3.7959e-06	430.05	141.86	124.01	42.23	5.0699e-06	52.443	0.00034353	0.00033947	9.4548e-05	1406.2	3.7031e-06	3.7064e-06	1397.7	372.04	3.7013e-06	3.6947e-06	418.02	138.16	120.22	41.24	3.7217e-06	50.894	21.687	164.000	43.896	-2.848	90.712	113.655	-2.807	1.881	184.612	4.570	1.335	6.028	6.595	10.811	129.925	10.161	-8191	255	
3013.074	1	1	0	0	0.26851	0.26566	0.03793	0.35979	0.14726	0.067272	0.28826	0.21102	0.083536	0.014682	0.019317	0.13511	0.045211	0.066309	0.12069	0.23981	-3.2979	-4.1396	-4.3	-3.7979	-4.5042	-3.8729	-3.9354	-4.7125	-3.5979	-4.0062	-4.5521	-3.5896	-4.6771	-4.0729	-3.6979	-4.5437	251.594	325.706	21.527	292.620	295.370	229.752	295.356	274.854	337.802	237.956	238.127	318.558	330.287	117.479	131.839	320.609	0.00092442	0.00026952	0.00011897	1429.1	3.9147e-06	6.0978e-06	1423	378.02	3.9683e-06	1.1517e-06	431.42	143.14	124.04	42.238	6.4355e-06	52.628	0.00033886	0.00033816	9.3573e-05	1406.5	3.6852e-06	3.6758e-06	1398.2	371.32	3.7098e-06	3.7022e-06	418.28	138.23	120.55	41.285	3.7299e-06	50.838	17.207	21.911	22.755	-2.718	139.211	108.279	-2.798	1.479	120.167	258.098	1.190	6.165	6.547	10.737	217.707	10.064	-8191	255	
3013.168	1	1	0	0	0.13322	0.098144	0.20092	0.23717	0.13669	0.15897	0.060656	0.1542	0.068864	0.16111	0.24958	0.1236	0.089165	0.31395	0.16458	0.083815	-3.4021	-4.025	-4.4708	-3.6125	-4.4083	-3.9208	-3.7542	-4.8667	-3.7854	-3.9562	-4.6646	-3.5104	-4.5354	-4.1854	-3.4083	-4.7292	277.522	64.659	172.341	42.384	92.489	199.601	125.596	320.003	230.768	142.776	309.232	236.509	42.428	71.726	176.708	172.635	0.0006406	0.0005183	0.00021793	1424.9	6.1469e-06	6.7147e-06	1420.3	377.91	4.2305e-06	4.4246e-06	430.93	142.45	124.19	42.394	2.4789e-06	52.383	0.00033916	0.00033944	9.3908e-05	1405.3	3.7061e-06	3.7216e-06	1397.9	372.03	3.7348e-06	3.746e-06	418.45	138.19	120.73	41.256	3.7402e-06	50.851	41.125	49.537	22.724	-2.913	106.348	20.237	-2.955	1.993	57.392	106.036	1.471	5.811	6.326	10.570	216.519	10.273	-8191	255	
3013.242	1	1	0	0	0.13079	0.072265	0.31064	0.19717	0.11939	0.097577	0.062919	0.15261	0.11498	0.38375	0.06546	0.16893	0.17914	0.15655	0.084984	0.22003	-3.4604	-4.0958	-4.4688	-3.5625	-4.2771	-4.1896	-3.9146	-4.7271	-3.9062	-3.7646	-4.5729	-3.4062	-4.4271	-4.1729	-3.5042	-4.6792	139.518	172.272	343.393	289.509	331.552	-4.381	325.379	220.221	288.646	82.125	286.616	294.923	278.862	334.968	170.838	256.550	0.00082581	0.00032511	0.00015804	1424.4	7.4724e-06	5.7669e-06	1421.5	376.78	3.4835e-06	1.4965e-06	431.69	143.01	124.24	42.391	2.1181e-06	52.348	0.00034128	0.00034034	9.4333e-05	1404.9	3.7021e-06	3.6909e-06	1396.6	371.4	3.7152e-06	3.7061e-06	418.21	138.1	120.57	41.296	3.7157e-06	50.835	47.841	-10.601	37.337	-2.806	103.196	174.224	-2.909	1.764	87.816	116.923	1.054	5.881	6.798	10.829	88.438	10.028	-8191	255	
3013.362	1	1	0	0	0.19305	0.26156	0.21478	0.078114	0.14262	0.18535	0.27029	0.25764	0.09887	0.22741	0.17239	0.15858	0.19527	0.07777	0.32881	0.12518	-3.5625	-3.5833	-4.8125	-3.675	-4.2458	-4.2833	-3.6042	-4.7562	-3.8146	-3.6312	-4.9375	-3.7938	-4.3229	-4.5021	-3.3563	-4.6083	305.770	180.080	61.706	117.811	-13.599	152.492	265.644	300.908	96.448	175.279	303.272	41.886	252.763	239.912	139.014	313.809	0.0007608	0.00019915	7.6985e-05	1423.8	1.0519e-05	2.8253e-06	1417.7	378.26	6.4276e-06	6.8258e-06	432.55	142.6	124.03	42.487	2.7271e-06	52.526	0.00033909	0.00033807	9.3565e-05	1404.4	3.6897e-06	3.7111e-06	1396.9	371.85	3.6977e-06	3.7278e-06	418.86	138.1	120.51	41.231	3.6984e-06	50.906	24.014	-8.052	275.792	-2.840	162.650	178.326	-2.925	1.855	142.064	82.845	1.617	5.790	6.649	10.722	220.306	10.257	-8191	255	
3013.457	1	1	0	0	0.1891	0.073414	0.13765	0.11591	0.15308	0.16519	0.14395	0.13666	0.056723	0.19942	0.27128	0.1251	0.03045	0.21832	0.25652	0.24793	-3.5062	-3.4958	-4.7292	-3.5521	-4.1521	-4.5396	-3.6604	-4.9417	-3.8438	-3.5167	-4.9021	-3.6021	-4.2042	-4.5333	-3.3167	-4.7104	161.824	-1.011	80.152	50.617	-9.505	303.092	335.278	247.780	169.030	238.559	311.429	262.938	183.871	339.903	93.744	19.070	0.00071856	0.00061444	7.759e-05	1425.7	3.4909e-06	2.3728e-06	1420.3	378.63	1.824e-06	2.2127e-06	432	141.86	123.51	42.103	5.6796e-07	52.579	0.00033878	0.00033644	9.292e-05	1406	3.7068e-06	3.6809e-06	1395.7	372	3.7078e-06	3.6966e-06	418.61	137.84	120.45	41.254	3.7118e-06	50.845	25.702	46.755	66.110	-3.003	165.423	176.821	-2.913	1.819	89.641	178.534	1.420	5.834	6.848	10.778	231.248	10.192	-8191	255	
3013.553	1	1	0	0	0.3249	0.12342	0.051628	0.24789	0.18175	0.24411	0.19569	0.099678	0.080048	0.27283	0.16351	0.11596	0.28991	0.023931	0.11213	0.10251	-3.7542	-3.5312	-4.6208	-3.675	-4.0125	-4.7833	-3.6437	-4.6104	-3.9229	-3.5208	-4.8771	-3.7083	-3.9458	-4.5667	-3.325	-4.6104	298.780	309.468	119.223	6.000	95.427	269.288	335.315	292.549	126.157	266.945	41.660	34.588	317.917	152.013	112.269	142.306	0.00052863	0.00068975	0.00011734	1426.8	4.4906e-06	1.0856e-05	1418.8	377.15	9.3495e-06	2.0504e-06	431.97	143.07	124.12	42.33	4.0073e-06	52.333	0.00034305	0.00034015	9.405e-05	1405.4	3.742e-06	3.693e-06	1395.5	372	3.7199e-06	3.7006e-06	418.1	138.22	120.58	41.248	3.7161e-06	50.816	30.876	6.148	49.485	-3.002	16.147	78.540	-3.174	1.914	169.318	66.598	1.419	5.782	6.523	10.728	116.139	10.281	-8191	255	
3013.674	1	1	0	0	0.25395	0.1373	0.057491	0.21466	0.2758	0.26309	0.17696	0.054415	0.053564	0.15699	0.0359	0.13198	0.084509	0.19211	0.091424	0.29287	-3.8646	-3.6646	-4.6979	-3.8604	-3.9167	-4.6271	-3.8708	-4.4771	-4.1875	-3.5125	-4.7	-3.8417	-4.0479	-4.5667	-3.4792	-4.3042	59.048	123.350	15.978	279.506	-8.706	35.468	286.138	-4.791	91.378	206.958	58.754	54.780	237.960	305.914	129.576	144.177	0.00077156	0.00043397	0.00017371	1422.5	8.8801e-06	5.958e-06	1419	377.89	4.1565e-06	7.4842e-06	431.24	142.36	123.4	42.088	2.704e-06	52.484	0.00033966	0.00033758	9.4005e-05	1403.3	3.704e-06	3.681e-06	1394.9	371.69	3.6837e-06	3.6732e-06	418.29	137.67	120.28	41.155	3.6853e-06	50.753	51.000	131.220	48.260	-2.931	92.628	117.969	-2.916	1.914	146.299	122.000	1.170	5.935	6.621	10.655	143.350	10.103	-8191	255	
3013.770	1	1	0	0	0.028637	0.030317	0.10153	0.27821	0.144	0.071725	0.25088	0.19495	0.085095	0.15574	0.1479	0.17274	0.21979	0.15416	0.098369	0.23797	-3.9125	-3.4625	-4.6458	-3.7896	-3.8417	-4.5833	-3.5396	-4.3792	-4.4792	-3.3083	-4.7875	-3.9875	-3.9083	-4.675	-3.7188	-4.1854	-7.290	281.971	169.172	297.756	217.616	39.007	239.290	338.507	308.535	127.270	314.492	53.564	334.225	33.578	302.408	300.980	0.00055291	0.0002796	7.0998e-05	1420	4.1389e-06	1.268e-06	1417.5	378.08	4.0454e-06	4.5815e-06	430.81	142.37	123.97	42.334	2.0913e-06	52.368	0.00034029	0.00033496	9.3575e-05	1403	3.6879e-06	3.6796e-06	1395.1	371.88	3.6984e-06	3.6707e-06	418.31	137.87	120.39	41.236	3.6741e-06	50.834	18.644	206.642	282.495	-2.939	107.800	115.087	-3.184	1.653	160.300	139.908	1.394	5.924	6.363	10.805	182.246	10.233	-8191	255	
3013.866	1	1	0	0	0.26149	0.13741	0.25085	0.1264	0.25044	0.20241	0.1697	0.099104	0.10055	0.15923	0.20257	0.12834	0.12552	0.12607	0.30968	0.13844	-3.9354	-3.6146	-4.525	-4.0208	-3.6562	-4.6917	-3.6271	-4.3021	-4.5875	-3.4083	-4.7479	-4.1125	-3.7417	-4.9229	-3.3833	-4.1667	82.473	343.176	230.680	307.265	152.610	57.390	283.851	317.582	158.172	70.074	291.126	212.269	312.448	317.713	202.398	284.330	0.00056081	0.00022771	0.00012817	1420.4	6.7087e-06	4.2506e-06	1417.8	377.6	1.289e-06	3.9907e-06	432.11	141.98	123.95	42.317	5.4336e-06	52.718	0.00033811	0.00033612	9.2896e-05	1401.7	3.6932e-06	3.6559e-06	1395.6	371.6	3.6748e-06	3.6594e-06	418.79	137.65	120.25	41.244	3.6951e-06	50.926	28.736	342.964	33.373	-2.787	88.289	-12.407	-2.842	1.986	75.346	114.423	1.512	5.938	6.555	11.021	157.279	10.249	-8191	255	
3013.937	1	1	0	0	0.042907	0.035959	0.015001	0.38999	0.28762	0.10681	0.27055	0.16508	0.22719	0.28605	0.091976	0.18329	0.33706	0.096302	0.22277	0.1799	-4.2292	-3.375	-4.5208	-4.2063	-3.5667	-4.7771	-3.6562	-4.2354	-4.4563	-3.3208	-4.6792	-4.1625	-3.4875	-4.8938	-3.3771	-4.0771	-15.964	85.606	70.896	301.013	102.878	42.852	303.937	219.194	109.589	233.832	312.555	-4.821	-7.811	327.453	12.794	289.279	0.00085304	0.00044685	0.0001198	1422.2	4.5712e-06	9.2929e-06	1418	378.78	2.795e-06	5.4328e-06	431.94	142.22	124.41	42.355	5.6648e-06	52.602	0.00033794	0.00033391	9.3421e-05	1404.1	3.6724e-06	3.6382e-06	1395	371.93	3.6416e-06	3.6965e-06	419.2	137.69	120.42	41.284	3.7271e-06	50.966	47.230	116.764	118.113	-2.894	57.157	110.353	-3.031	1.833	232.413	191.199	1.475	5.655	6.372	10.997	146.339	10.046	-8191	255	
3014.058	1	1	0	0	0.1757	0.12767	0.065618	0.39951	0.17861	0.20023	0.099361	0.17687	0.15245	0.1951	0.42553	0.083814	0.18664	0.13689	0.22051	0.033308	-4.4083	-3.2646	-4.4625	-4.2688	-3.4062	-4.725	-3.675	-4.1833	-4.6958	-3.2938	-4.4833	-4.2854	-3.4125	-4.7667	-3.6771	-3.9562	143.902	-11.750	204.159	322.778	212.774	137.282	254.233	15.079	335.245	74.622	301.857	57.249	278.016	269.143	58.881	264.788	0.00050067	0.00089157	0.00014375	1418.4	3.3211e-06	7.3536e-06	1417.6	376.72	5.0195e-06	9.819e-07	431.26	142.73	124.44	42.202	5.5193e-06	52.304	0.00033917	0.00033781	9.4412e-05	1400.4	3.6923e-06	3.698e-06	1394.6	371.78	3.7018e-06	3.6976e-06	419.29	137.94	120.39	41.229	3.7657e-06	50.804	43.838	83.119	54.311	-3.099	56.943	87.348	-2.819	1.957	161.424	200.050	1.413	5.784	6.434	10.858	11.541	10.425	-8191	255	
3014.154	1	1	0	0	0.10762	0.14925	0.15728	0.028546	0.27973	0.065942	0.070456	0.085821	0.12428	0.34845	0.10482	0.33073	0.20392	0.23481	0.062259	0.21991	-4.3521	-2.8917	-4.3562	-4.6146	-3.5021	-4.8042	-4.0542	-3.8375	-4.6646	-3.4271	-4.4229	-4.4396	-3.6646	-4.5667	-3.7562	-4	305.632	217.211	312.251	301.889	-7.095	242.143	51.620	329.161	276.974	275.571	22.989	280.663	337.519	245.958	-5.968	284.891	0.00052895	0.00038313	0.00015953	1425.3	6.0079e-06	8.5643e-06	1413.3	376.91	3.6637e-06	6.0425e-06	431.39	141.96	123.61	42.269	9.6303e-06	52.566	0.0003406	0.00034009	9.4356e-05	1402.8	3.7158e-06	3.6996e-06	1392.9	371.56	3.6885e-06	3.7285e-06	419.03	137.66	120.16	41.276	3.7611e-06	50.913	28.625	88.098	104.172	-2.776	39.653	100.102	-3.034	1.758	152.243	34.128	1.441	5.896	6.349	10.566	138.548	9.944	-8191	255	
3014.249	1	1	0	0	0.12147	0.11253	0.17995	0.10334	0.26055	0.079788	0.22129	0.23337	0.051807	0.12543	0.091439	0.23186	0.10079	0.060682	0.15417	0.21566	-4.3854	-3.6146	-4.2625	-4.5896	-3.3417	-4.6417	-3.8917	-3.7292	-4.825	-3.2604	-4.475	-4.6021	-3.575	-4.7042	-3.9479	-3.8583	326.500	142.162	21.246	-10.049	317.253	311.916	267.208	327.551	7.013	1.740	150.950	325.068	203.274	308.983	-12.094	256.375	0.00085912	0.0010831	0.00010117	1424.2	3.6537e-06	7.0059e-06	1414.8	378.02	3.109e-06	4.9243e-06	431.48	142.35	123.92	42.095	9.948e-06	52.388	0.00034146	0.00034057	9.5043e-05	1403.6	3.7289e-06	3.7282e-06	1393.9	371.77	3.7214e-06	3.7143e-06	418.62	137.8	120.41	41.243	3.7281e-06	50.795	14.044	73.453	337.244	-2.770	143.919	135.082	-2.793	1.819	144.714	68.793	1.392	5.542	6.677	10.909	104.355	10.175	-8191	255	
3014.345	1	1	0	0	0.11519	0.14203	0.049201	0.21924	0.10604	0.039673	0.15091	0.37259	0.2695	0.090645	0.19586	0.29493	0.12092	0.11858	0.12227	0.17491	-4.3146	-3.4125	-4.0333	-4.6062	-3.5042	-4.5146	-4.1771	-3.65	-4.7521	-3.4958	-4.2958	-4.7021	-3.4146	-4.7208	-3.9	-3.7417	-10.783	259.394	177.532	14.562	177.773	112.742	297.859	335.499	265.000	117.275	273.620	25.274	321.061	16.604	109.489	252.381	0.00070398	0.00060203	0.0001799	1422.4	8.8648e-06	2.7911e-06	1417.3	378.46	4.9933e-06	6.933e-06	431.28	142.29	124.09	42.371	3.5939e-06	52.424	0.0003384	0.00033788	9.4135e-05	1403.5	3.6951e-06	3.6949e-06	1392.7	371.49	3.6679e-06	3.6704e-06	418.66	137.73	120.33	41.252	3.6549e-06	50.751	29.411	334.907	26.292	-2.848	54.143	47.554	-2.931	1.870	202.188	99.608	1.535	5.728	6.462	10.874	127.988	10.168	-8191	255	
3014.465	1	1	0	0	0.08312	0.12771	0.20254	0.25797	0.1739	0.23562	0.19995	0.2526	0.25883	0.091616	0.1212	0.12143	0.08322	0.24524	0.18557	0.18109	-4.4042	-3.4667	-4.0646	-4.7708	-3.2875	-4.6271	-4.3604	-3.7417	-4.5979	-3.5812	-4.1021	-4.5229	-3.6521	-4.4854	-4.1125	-3.6083	322.595	327.777	220.645	334.595	121.168	178.618	184.355	337.564	200.471	221.160	123.361	323.303	73.286	315.331	334.289	108.499	0.00075265	0.00016601	0.00012126	1424.8	2.0974e-06	5.5073e-06	1416.1	377.47	6.928e-06	2.3591e-06	428.98	142.48	123.73	42.266	2.1744e-06	52.429	0.00033685	0.00033563	9.3219e-05	1404.8	3.6636e-06	3.6341e-06	1395	371.63	3.6699e-06	3.6557e-06	417.73	137.85	120.06	41.271	3.6556e-06	50.845	39.540	179.305	74.889	-2.679	166.146	202.633	-2.847	1.766	136.261	285.949	1.366	5.831	6.373	10.542	218.754	10.003	-8191	255	
#DATA ENDS
