BOXY.EXE: ISS Imagent and Oximeter Data Acquisition Program Version 0.80
Ascii Record File

#ACQ INFORMATION
2  Detector Channels 
16  External MUX Channels 
1  Auxiliary Channels 
5000  Waveform (CCF) Frequency (Hz)
1  Waveforms Skipped 
30  Waveforms Averaged 
1  Cycles Averaged 
16  Acquisitions per Waveform 
10.0806  Updata Rate (Hz) 

#FILE INFORMATION
TRUE -- External MUX Channel results are PARSED.
FALSE -- AC DC and Phase are NOT grouped.
TRUE -- Companion Program Settings File CREATED.
FALSE -- AC data not excluded
FALSE -- DC data not excluded
FALSE -- Phase data not excluded
FALSE -- Auxillary Chn. data not excluded
Tab delimiters

#CALIBRATION STATE
TRUE -- Waveform Calibration Values APPLIED.


#AUX CALIBRATION VALUES
Val Type	aux-1	

Term	1.0000e+00	
Factor	0.0000e+00	


#WF CALIBRATION VALUES
A = Detector Channel
Val Type	A-AC1	A-AC2	A-AC3	A-AC4	A-AC5	A-AC6	A-AC7	A-AC8	A-AC9	A-AC10	A-AC11	A-AC12	A-AC13	A-AC14	A-AC15	A-AC16	A-DC1	A-DC2	A-DC3	A-DC4	A-DC5	A-DC6	A-DC7	A-DC8	A-DC9	A-DC10	A-DC11	A-DC12	A-DC13	A-DC14	A-DC15	A-DC16	A-Ph1	A-Ph2	A-Ph3	A-Ph4	A-Ph5	A-Ph6	A-Ph7	A-Ph8	A-Ph9	A-Ph10	A-Ph11	A-Ph12	A-Ph13	A-Ph14	A-Ph15	A-Ph16	

Term	0.00000e+00	0.00000e+00	0.00000e+00	0.00000e+00	0.00000e+00	0.00000e+00	0.00000e+00	0.00000e+00	0.00000e+00	0.00000e+00	0.00000e+00	0.00000e+00	0.00000e+00	0.00000e+00	0.00000e+00	0.00000e+00	0.00000e+00	0.00000e+00	0.00000e+00	0.00000e+00	0.00000e+00	0.00000e+00	0.00000e+00	0.00000e+00	0.00000e+00	0.00000e+00	0.00000e+00	0.00000e+00	0.00000e+00	0.00000e+00	0.00000e+00	0.00000e+00	0.00000e+00	0.00000e+00	0.00000e+00	0.00000e+00	0.00000e+00	0.00000e+00	0.00000e+00	0.00000e+00	0.00000e+00	0.00000e+00	0.00000e+00	0.00000e+00	0.00000e+00	0.00000e+00	0.00000e+00	0.00000e+00	
Factor	1.00000e+00	1.00000e+00	1.00000e+00	1.00000e+00	1.00000e+00	1.00000e+00	1.00000e+00	1.00000e+00	1.00000e+00	1.00000e+00	1.00000e+00	1.00000e+00	1.00000e+00	1.00000e+00	1.00000e+00	1.00000e+00	1.00000e+00	1.00000e+00	1.00000e+00	1.00000e+00	1.00000e+00	1.00000e+00	1.00000e+00	1.00000e+00	1.00000e+00	1.00000e+00	1.00000e+00	1.00000e+00	1.00000e+00	1.00000e+00	1.00000e+00	1.00000e+00	X	X	X	X	X	X	X	X	X	X	X	X	X	X	X	X	

B = Detector Channel
Val Type	B-AC1	B-AC2	B-AC3	B-AC4	B-AC5	B-AC6	B-AC7	B-AC8	B-AC9	B-AC10	B-AC11	B-AC12	B-AC13	B-AC14	B-AC15	B-AC16	B-DC1	B-DC2	B-DC3	B-DC4	B-DC5	B-DC6	B-DC7	B-DC8	B-DC9	B-DC10	B-DC11	B-DC12	B-DC13	B-DC14	B-DC15	B-DC16	B-Ph1	B-Ph2	B-Ph3	B-Ph4	B-Ph5	B-Ph6	B-Ph7	B-Ph8	B-Ph9	B-Ph10	B-Ph11	B-Ph12	B-Ph13	B-Ph14	B-Ph15	B-Ph16	

Term	0.00000e+00	0.00000e+00	0.00000e+00	0.00000e+00	0.00000e+00	0.00000e+00	0.00000e+00	0.00000e+00	0.00000e+00	0.00000e+00	0.00000e+00	0.00000e+00	0.00000e+00	0.00000e+00	0.00000e+00	0.00000e+00	0.00000e+00	0.00000e+00	0.00000e+00	0.00000e+00	0.00000e+00	0.00000e+00	0.00000e+00	0.00000e+00	0.00000e+00	0.00000e+00	0.00000e+00	0.00000e+00	0.00000e+00	0.00000e+00	0.00000e+00	0.00000e+00	-2.38903e+02	-1.30801e+02	-1.63948e+02	-1.83590e+02	-1.19141e+02	-8.70241e+01	-1.56897e+02	-1.62015e+02	-7.30551e+01	-8.26205e+01	-1.70590e+02	-1.70867e+02	-1.80044e+02	-1.77413e+02	-7.81630e+01	-1.50406e+02	
Factor	6.10723e-05	1.20878e-04	3.70736e-05	1.67276e-01	1.13400e-06	1.16405e-06	1.90682e-01	6.00034e-02	1.25406e-06	1.06024e-06	9.97472e-02	3.83765e-02	2.97706e-02	1.08004e-02	1.14664e-06	1.57894e-02	4.97580e-07	5.02158e-07	1.39475e-07	8.01861e-02	5.49628e-09	5.49947e-09	8.54324e-02	2.82743e-02	5.50406e-09	5.50380e-09	4.40950e-02	1.66559e-02	1.35827e-02	4.90122e-03	5.51462e-09	6.83088e-03	X	X	X	X	X	X	X	X	X	X	X	X	X	X	X	X	



#DISTANCE SETTINGS
A = Detector Channel
A-1	A-2	A-3	A-4	A-5	A-6	A-7	A-8	A-9	A-10	A-11	A-12	A-13	A-14	A-15	A-16	

2.5000e+00	3.0000e+00	2.5000e+00	3.0000e+00	2.0000e+00	3.0000e+00	1.5000e+00	3.0000e+00	3.0000e+00	3.0000e+00	3.0000e+00	3.0000e+00	3.0000e+00	3.0000e+00	1.5000e+00	3.0000e+00	

B = Detector Channel
B-1	B-2	B-3	B-4	B-5	B-6	B-7	B-8	B-9	B-10	B-11	B-12	B-13	B-14	B-15	B-16	

1.0000e+01	1.0000e+01	1.0000e+01	1.4400e+00	1.0000e+01	1.0000e+01	1.5100e+00	1.9400e+00	1.0000e+01	1.0000e+01	1.9900e+00	2.4900e+00	2.4100e+00	2.9000e+00	1.0000e+01	2.9800e+00	




#DATA BEGINS
time	group	step	mark	flag	A-AC1	A-AC2	A-AC3	A-AC4	A-AC5	A-AC6	A-AC7	A-AC8	A-AC9	A-AC10	A-AC11	A-AC12	A-AC13	A-AC14	A-AC15	A-AC16	A-DC1	A-DC2	A-DC3	A-DC4	A-DC5	A-DC6	A-DC7	A-DC8	A-DC9	A-DC10	A-DC11	A-DC12	A-DC13	A-DC14	A-DC15	A-DC16	A-Ph1	A-Ph2	A-Ph3	A-Ph4	A-Ph5	A-Ph6	A-Ph7	A-Ph8	A-Ph9	A-Ph10	A-Ph11	A-Ph12	A-Ph13	A-Ph14	A-Ph15	A-Ph16	B-AC1	B-AC2	B-AC3	B-AC4	B-AC5	B-AC6	B-AC7	B-AC8	B-AC9	B-AC10	B-AC11	B-AC12	B-AC13	B-AC14	B-AC15	B-AC16	B-DC1	B-DC2	B-DC3	B-DC4	B-DC5	B-DC6	B-DC7	B-DC8	B-DC9	B-DC10	B-DC11	B-DC12	B-DC13	B-DC14	B-DC15	B-DC16	B-Ph1	B-Ph2	B-Ph3	B-Ph4	B-Ph5	B-Ph6	B-Ph7	B-Ph8	B-Ph9	B-Ph10	B-Ph11	B-Ph12	B-Ph13	B-Ph14	B-Ph15	B-Ph16	aux-1	digaux	

4288.851	1	1	0	768	0.081778	0.17475	0.20588	0.20965	0.065206	0.19355	0.16725	0.18743	0.07271	0.046703	0.16374	0.063433	0.20871	0.027185	0.10419	0.23074	-4.1646	-4.1312	-3.8771	-4.7875	-3.875	-4.2896	-4.7354	-3.9437	-4.3688	-4.1875	-3.7042	-4.6229	-3.95	-4.2083	-4.6188	-3.7479	107.192	138.986	126.977	39.574	355.197	219.107	339.452	62.714	232.242	307.700	202.946	83.870	141.483	381.388	278.565	335.681	0.0010845	0.0004847	0.00016932	546.04	4.8922e-06	3.1302e-06	730.55	198.63	4.4547e-06	3.1036e-06	343.64	147.74	82.85	32.563	9.6446e-07	67	0.00010095	9.3068e-05	2.5987e-05	515.85	1.0195e-06	1.0054e-06	682.31	185.19	1.0162e-06	1.0028e-06	308.14	130.02	74.576	29.117	1.0158e-06	58.613	41.543	110.304	86.113	42.631	120.430	123.225	42.413	47.229	200.124	107.567	46.134	50.078	50.912	54.689	172.543	54.127	-8191	255	
4288.947	1	1	0	0	0.12379	0.071914	0.082773	0.075358	0.12614	0.13182	0.05655	0.15833	0.18034	0.19925	0.20498	0.11488	0.185	0.21707	0.10185	0.085106	-4.2562	-4.4146	-3.975	-4.75	-4.0854	-4.0271	-4.6875	-4.0333	-4.4812	-4.4875	-3.8604	-4.6625	-3.9896	-4.0229	-4.6708	-3.7396	84.922	247.988	147.988	269.374	381.018	183.661	387.654	113.496	91.480	181.046	381.114	46.244	63.788	59.069	203.605	355.758	0.0011778	0.00062038	0.0001778	545.81	2.8947e-06	5.5157e-06	730.88	198.52	4.301e-06	4.0709e-06	341.98	146.93	82.509	31.954	2.8403e-06	66.236	9.9909e-05	9.2772e-05	2.5871e-05	517.1	1.0145e-06	9.8915e-07	682.72	184.83	9.9472e-07	1.0057e-06	306.71	129	74.204	28.682	9.8767e-07	57.884	46.007	84.321	66.970	42.771	146.077	213.712	42.708	47.227	215.181	200.281	46.158	50.294	50.961	54.960	158.333	54.051	-8191	255	
4289.042	1	1	0	0	0.30473	0.18164	0.28887	0.12222	0.25924	0.1166	0.29023	0.10735	0.082434	0.18488	0.073057	0.46424	0.13842	0.097439	0.19646	0.13855	-4.1042	-4.3333	-3.8458	-4.8104	-4.0333	-3.9333	-4.7854	-3.9813	-4.2229	-4.6854	-3.9708	-4.6375	-4.1937	-3.8854	-4.6	-3.9375	361.844	38.019	322.354	154.655	49.121	99.831	57.966	353.895	118.467	327.256	94.732	365.171	340.993	123.702	382.878	272.525	0.001357	0.00033954	5.4508e-05	558.81	3.6569e-06	3.1997e-06	741.01	201.25	1.4307e-06	4.9731e-06	341.71	146.86	82.743	31.569	2.9707e-06	65.75	9.6172e-05	8.83e-05	2.4666e-05	527.9	9.7103e-07	9.7266e-07	694.6	186.11	9.7391e-07	9.7041e-07	307.89	129.42	74.075	28.421	9.8404e-07	57.435	42.252	101.570	360.336	42.573	170.351	145.942	42.426	47.236	115.308	174.806	46.063	50.166	51.120	54.895	171.741	54.338	-8191	255	
4289.140	1	1	0	0	0.098068	0.10921	0.12028	0.0929	0.19195	0.18305	0.2377	0.11579	0.15801	0.064094	0.11992	0.066478	0.3214	0.26561	0.16746	0.208	-3.9062	-4.4854	-3.875	-4.575	-4.2812	-3.8	-4.8438	-4.0167	-4.0729	-4.7042	-4.0958	-4.425	-4.4708	-3.8625	-4.6417	-4.1875	201.665	169.396	90.881	314.901	162.436	301.348	151.721	96.595	164.190	307.196	387.571	149.745	337.316	349.902	356.714	366.250	0.001098	0.00051962	6.3418e-05	565.99	6.0259e-06	2.5314e-06	750.54	200.73	4.1143e-06	1.4361e-06	341.39	144.37	81.593	30.995	5.7243e-06	64.127	9.6535e-05	8.7704e-05	2.4867e-05	533.97	9.7222e-07	9.7592e-07	698.38	186.2	9.6416e-07	9.6114e-07	306.89	127.25	72.923	27.837	9.6123e-07	56.136	43.567	100.298	106.393	42.477	133.460	216.741	42.701	47.238	183.912	357.407	45.809	50.336	51.025	55.084	146.799	54.252	-8191	255	
4289.234	1	1	0	0	0.15635	0.16293	0.15016	0.27711	0.11762	0.18522	0.21846	0.11667	0.035766	0.24465	0.38202	0.38641	0.06289	0.11825	0.10671	0.11286	-3.7438	-4.5354	-3.7938	-4.3208	-4.4875	-3.9437	-4.8208	-4.1062	-4.0771	-4.6104	-3.8958	-4.4625	-4.4688	-3.7896	-4.6687	-4.2729	177.084	236.560	351.013	330.655	334.120	225.440	368.759	277.447	261.071	62.002	257.969	356.053	38.820	348.364	338.121	319.649	0.0012627	0.00039302	0.00011575	558.61	3.8491e-06	1.6479e-06	743.33	198.99	1.2636e-06	1.8249e-06	337.91	143.22	80.995	30.815	2.5075e-06	63.75	9.5123e-05	8.6042e-05	2.4475e-05	527.28	9.606e-07	9.4844e-07	690.63	184.35	9.4611e-07	9.3829e-07	303.49	125.93	72.574	27.684	9.3743e-07	55.728	34.558	115.334	73.194	42.669	173.044	98.046	42.526	47.219	194.623	179.331	46.130	50.413	51.041	55.086	167.238	54.229	-8191	255	
4289.330	1	1	0	0	0.23507	0.059039	0.045274	0.12112	0.27494	0.18367	0.17147	0.2108	0.32469	0.1953	0.10892	0.17371	0.17484	0.29844	0.042783	0.14916	-3.5729	-4.6438	-3.9354	-4.3958	-4.4938	-3.6917	-4.7646	-4.3375	-3.9167	-4.75	-4.075	-4.2146	-4.7896	-3.6583	-4.5625	-4.2562	59.741	318.399	179.852	188.396	130.014	353.755	266.242	318.897	64.110	70.097	278.039	224.783	33.360	324.654	151.026	343.569	0.0012137	0.0002088	9.4952e-05	559.74	3.2343e-06	2.7253e-06	743.19	198.97	4.8141e-06	2.3966e-06	337.64	142.14	80.293	29.896	2.8263e-06	62.484	9.4373e-05	8.5867e-05	2.3915e-05	527.91	9.3396e-07	9.486e-07	692.27	184.58	9.457e-07	9.4692e-07	303.27	125.13	72.216	27.045	9.4306e-07	54.476	40.242	330.726	76.342	42.709	383.497	165.400	42.556	47.310	182.935	267.030	46.050	49.825	51.216	55.000	140.342	54.348	-8191	255	
4289.451	1	1	0	0	0.051024	0.12453	0.068528	0.15447	0.13659	0.061554	0.2513	0.060649	0.16718	0.027351	0.10497	0.1809	0.10525	0.073274	0.18542	0.11013	-3.5542	-4.5896	-3.9667	-4.2354	-4.6562	-3.7708	-4.4563	-4.4	-3.7	-4.5729	-4.2583	-4.3063	-4.7125	-3.7979	-4.2479	-4.5687	229.951	253.304	358.809	352.797	215.243	174.823	387.073	144.032	216.204	374.592	247.385	331.698	348.559	363.049	45.454	304.755	0.00086957	0.00034237	0.00014306	562.15	3.0781e-06	2.0296e-06	745.84	198.86	5.0401e-06	3.3563e-06	338.35	141.98	80.393	30.164	5.3031e-06	62.611	9.3607e-05	8.5919e-05	2.4132e-05	531.09	9.3739e-07	9.4732e-07	694.67	184.61	9.4618e-07	9.3588e-07	304.31	125.26	72.103	27.181	9.3846e-07	54.782	34.197	141.850	92.916	42.416	136.217	171.892	42.219	47.381	137.646	180.947	45.800	50.265	51.076	55.315	164.709	53.997	-8191	255	
4289.547	1	1	0	0	0.050208	0.18721	0.15666	0.19312	0.23167	0.17353	0.23318	0.096274	0.14208	0.2027	0.17861	0.21477	0.17894	0.30734	0.11282	0.24996	-3.5771	-4.55	-4.0271	-4.1125	-4.4521	-3.7313	-4.4271	-4.5292	-3.7188	-4.5312	-4.3292	-4.0333	-4.7271	-3.9646	-4.0813	-4.6875	149.168	317.412	79.930	336.095	280.541	62.716	316.571	330.854	43.913	110.767	244.867	281.238	210.442	342.435	325.372	40.115	0.0011521	0.00039291	6.0012e-05	566.85	2.8457e-06	2.578e-06	748.63	199.11	2.0476e-06	2.616e-06	339.61	141.68	80.418	30.229	3.7627e-06	62.229	9.4029e-05	8.5527e-05	2.3702e-05	533.45	9.4213e-07	9.2877e-07	696.96	184.79	9.3685e-07	9.2339e-07	304.68	124.99	71.868	27.055	9.3129e-07	54.449	42.317	81.052	124.540	42.397	139.178	123.631	42.290	47.541	126.918	214.464	45.922	50.053	51.042	55.015	165.188	54.230	-8191	255	
4289.643	1	1	0	0	0.10554	0.13704	0.16644	0.21166	0.34633	0.089551	0.078659	0.03	0.047853	0.088156	0.21296	0.29081	0.13291	0.079047	0.20005	0.24169	-3.4562	-4.4667	-4.3104	-3.9562	-4.6146	-3.9958	-4.25	-4.4729	-3.6667	-4.4938	-4.3375	-3.9042	-4.7958	-4.0333	-4.0167	-4.675	87.556	336.346	272.219	268.152	352.402	41.562	260.643	204.808	70.853	150.506	338.701	331.628	320.465	38.289	346.599	354.840	0.0012102	0.00038328	3.9881e-05	560.56	5.5351e-06	2.6058e-06	738.43	196.11	4.2661e-06	3.0022e-06	333.36	139.58	79.372	29.611	3.8267e-06	61.062	9.2299e-05	8.5671e-05	2.3085e-05	529.82	9.2129e-07	9.2222e-07	689.02	182.35	9.3324e-07	9.2452e-07	298.84	122.67	70.92	26.585	9.324e-07	53.375	49.346	109.421	40.283	42.542	113.722	150.775	42.740	47.142	204.026	152.063	45.880	49.934	50.823	54.624	161.111	54.097	-8191	255	
4289.739	1	1	0	0	0.28625	0.14321	0.16813	0.33842	0.20775	0.06304	0.15416	0.16461	0.18418	0.19112	0.22943	0.2419	0.12222	0.13419	0.067481	0.15714	-3.3812	-4.3688	-4.4062	-3.9042	-4.6875	-4.0104	-4.0563	-4.7646	-3.7812	-4.4021	-4.5104	-3.7583	-4.6917	-4.2229	-4.0333	-4.6729	176.744	356.778	48.533	255.858	100.424	358.794	313.718	55.456	300.507	129.446	372.349	370.294	171.276	298.618	176.950	172.046	0.0011529	0.00021222	0.00010514	552.15	4.8647e-06	3.2219e-06	733.97	194.19	1.8837e-06	4.847e-06	330.28	138.77	79.011	29.173	5.7422e-06	60.284	9.1235e-05	8.412e-05	2.3172e-05	523.96	9.3078e-07	9.265e-07	684.14	181.19	9.3452e-07	9.2546e-07	297.57	122.01	70.411	26.284	9.3801e-07	52.899	30.203	207.427	80.155	42.697	128.664	199.195	42.167	47.064	259.569	145.234	45.840	49.923	50.853	55.333	226.798	54.433	-8191	255	
4289.835	1	1	0	0	0.13462	0.15703	0.029178	0.18636	0.080868	0.22514	0.067755	0.21684	0.14464	0.13084	0.10794	0.049232	0.084666	0.063917	0.10963	0.34028	-3.4146	-4.3896	-4.4771	-3.9417	-4.4854	-4.0667	-3.9417	-4.5917	-3.7125	-4.1312	-4.4896	-3.5729	-4.4771	-4.3021	-3.7771	-4.6979	280.318	58.389	253.760	144.055	252.354	241.518	274.965	346.439	109.874	322.207	298.342	278.067	287.587	312.012	339.642	281.382	0.0011641	0.0003947	0.0001755	551.09	6.2578e-07	4.3953e-06	728.08	193.56	1.3567e-06	2.3651e-06	328.06	136.4	77.781	28.77	2.7736e-06	59.801	9.4622e-05	8.6119e-05	2.3973e-05	521.98	9.6822e-07	9.6424e-07	680.4	179.79	9.617e-07	9.6323e-07	294.73	120.53	69.707	25.89	9.5281e-07	52.213	40.950	106.144	113.147	42.480	81.988	146.206	42.359	47.410	307.885	167.677	46.065	50.246	50.956	55.349	239.891	54.360	-8191	255	
4289.932	1	1	0	0	0.18149	0.090774	0.12368	0.051332	0.054493	0.099162	0.13524	0.16173	0.22969	0.041164	0.17342	0.12515	0.13329	0.11055	0.094731	0.090644	-3.5687	-4.0167	-4.5729	-3.8271	-4.4667	-4.3125	-3.8854	-4.7375	-3.9417	-4.0687	-4.6542	-3.7271	-4.4854	-4.2438	-3.675	-4.8479	161.289	310.390	129.122	233.653	379.067	146.419	315.895	279.166	47.369	285.140	315.014	54.418	64.150	182.191	141.081	344.189	0.0010398	0.00035906	0.00010966	556.4	4.7048e-06	1.6412e-06	738.96	194.8	5.771e-06	1.5867e-06	330.33	136.29	76.887	28.273	6.4785e-06	58.899	9.3914e-05	8.6471e-05	2.3645e-05	525.34	9.3713e-07	9.2997e-07	687.99	180.24	9.4629e-07	9.298e-07	295.96	119.92	68.998	25.505	9.4613e-07	51.531	41.054	140.448	96.453	42.627	164.509	169.058	42.381	46.841	116.326	264.743	45.681	50.361	51.258	55.448	143.365	54.290	-8191	255	
4290.050	1	1	0	0	0.11862	0.16443	0.16526	0.25782	0.2346	0.15778	0.19694	0.17133	0.22619	0.1279	0.093663	0.11946	0.159	0.16773	0.16699	0.16859	-3.85	-3.925	-4.7562	-3.6688	-4.4104	-4.3896	-3.9604	-4.7146	-4.1542	-3.8688	-4.7375	-3.7313	-4.3208	-4.3833	-3.6479	-4.5792	309.473	248.054	182.544	46.460	142.220	37.200	385.929	242.393	201.059	334.145	292.148	314.932	84.069	376.648	325.733	274.036	0.0010674	0.00015152	0.00011028	560.92	4.8914e-06	4.0374e-06	729.97	191.97	1.9422e-06	3.8573e-06	325.3	132.96	75.352	27.892	3.3702e-06	57.581	9.1475e-05	8.5133e-05	2.3556e-05	526.94	9.3657e-07	9.1978e-07	680.53	178.1	9.3602e-07	9.3714e-07	291.2	117.1	67.683	25.038	9.3329e-07	50.468	32.646	360.057	131.172	42.500	129.552	173.117	42.558	46.818	169.165	178.281	46.295	50.319	50.849	54.980	126.239	54.560	-8191	255	
4290.147	1	1	0	0	0.25882	0.22558	0.017668	0.11483	0.14246	0.05243	0.22902	0.1385	0.12095	0.12851	0.33602	0.28688	0.1171	0.13278	0.21034	0.1672	-3.8167	-3.9021	-4.5188	-3.9292	-4.2396	-4.5271	-3.8042	-4.5854	-4.1438	-3.7104	-4.7604	-4.0042	-4.1708	-4.5042	-3.75	-4.5312	170.934	127.041	150.347	90.856	72.999	259.942	327.910	366.760	56.496	281.597	367.256	372.762	228.497	284.059	336.796	342.019	0.0012017	0.00031083	5.2071e-05	554.41	4.1008e-06	3.4952e-06	726.01	192.14	6.2661e-06	2.7353e-06	324.22	132.81	75.534	27.881	4.2469e-06	57.761	9.0212e-05	8.4491e-05	2.3667e-05	524.09	9.3448e-07	9.1188e-07	679.35	178.32	9.2732e-07	9.3507e-07	290.84	117.44	67.793	25.138	9.419e-07	50.754	35.257	156.228	381.924	42.607	123.804	135.264	42.395	47.081	165.146	139.685	45.942	49.905	50.736	55.192	194.117	54.193	-8191	255	
4290.243	1	1	0	0	0.083641	0.15157	0.083813	0.1649	0.061511	0.095431	0.21447	0.097372	0.070061	0.095496	0.1448	0.19538	0.17606	0.066291	0.22123	0.062299	-3.8458	-3.8083	-4.6125	-4.1312	-3.9938	-4.55	-4.05	-4.4437	-4.3063	-3.7313	-4.5833	-4.0062	-4.0542	-4.5396	-3.9062	-4.3562	307.059	317.066	129.427	297.047	172.570	285.919	35.899	320.427	378.758	198.177	247.242	357.640	332.594	327.628	227.098	201.756	0.0013091	0.00039425	8.9868e-05	557.63	1.6495e-06	3.2021e-06	731.26	192.94	2.8601e-06	1.9706e-06	327.14	134.04	76.017	28.292	2.4799e-06	58.622	9.1394e-05	8.5359e-05	2.3403e-05	525.21	9.3822e-07	9.2208e-07	681.6	178.43	9.4634e-07	9.3631e-07	293.56	118.3	68.322	25.398	9.4254e-07	51.314	41.659	138.472	359.910	42.717	111.843	198.496	42.430	46.956	139.633	123.679	45.869	50.226	50.788	55.102	145.103	53.870	-8191	255	
4290.339	1	1	0	0	0.088641	0.27826	0.096109	0.067961	0.18273	0.16638	0.019975	0.20722	0.13199	0.1042	0.20878	0.033464	0.23746	0.20177	0.10213	0.23189	-4.1708	-3.85	-4.7271	-4.1792	-3.8187	-4.7188	-4.025	-4.2917	-4.4229	-3.6583	-4.5563	-4.3958	-3.9625	-4.775	-3.8958	-4.1104	379.828	34.730	253.114	229.871	258.480	300.741	310.312	256.311	82.593	141.221	295.373	138.904	377.429	302.341	271.288	335.763	0.0010909	0.00028163	0.00012956	558.11	1.6833e-06	3.6653e-06	734.03	193.31	2.6735e-06	2.9788e-06	329.81	135.47	76.607	28.084	3.7972e-06	57.924	9.2882e-05	8.5427e-05	2.3733e-05	525.93	9.3739e-07	9.3008e-07	684.71	179.5	9.302e-07	9.3792e-07	294.91	119.41	68.826	25.262	9.3026e-07	50.863	29.789	142.496	108.994	42.261	337.966	111.407	42.345	47.189	132.324	142.223	45.960	50.362	51.424	55.178	177.422	54.138	-8191	255	
4290.411	1	1	0	0	0.16749	0.083333	0.081248	0.14997	0.096008	0.18892	0.19846	0.19431	0.06801	0.1039	0.13787	0.19764	0.0071352	0.11856	0.25911	0.12646	-4.1937	-3.6708	-4.5229	-4.3708	-3.9479	-4.7021	-3.9583	-4.0625	-4.6625	-3.7438	-4.6542	-4.4917	-3.8646	-4.7125	-3.9771	-4.0604	134.716	233.452	244.695	72.138	130.956	61.011	33.829	274.200	303.488	318.751	240.024	296.226	232.972	173.601	218.924	118.467	0.0012064	0.00052488	0.00017085	570.19	3.7491e-06	3.1451e-06	739.58	192.7	6.215e-06	2.8725e-06	328.1	133.16	76.084	27.188	2.1294e-06	55.837	9.0617e-05	8.315e-05	2.3422e-05	534.31	9.2121e-07	9.0974e-07	688.45	179.66	9.1291e-07	9.1303e-07	292.51	117.3	68.092	24.481	9.0768e-07	49.115	44.758	105.367	88.484	42.484	140.296	93.692	42.458	47.012	142.413	203.335	45.883	50.453	51.142	55.168	208.230	54.285	-8191	255	
4290.531	1	1	0	0	0.092937	0.099978	0.3083	0.15775	0.24164	0.070822	0.13683	0.2995	0.18602	0.1602	0.063991	0.16395	0.43554	0.084904	0.081073	0.094554	-4.2604	-3.7854	-4.1417	-4.3396	-3.7521	-4.7396	-4.1458	-4.0229	-4.7125	-3.8583	-4.4521	-4.3833	-3.7708	-4.4896	-4.1417	-3.9167	251.076	261.266	375.353	355.191	65.683	84.417	252.776	356.516	103.898	313.647	321.105	337.658	312.733	384.439	48.793	356.475	0.0010702	0.00021215	0.00014228	569.19	3.2669e-06	7.0703e-06	737.24	193.89	3.7177e-06	6.6536e-06	323.61	132.06	75.325	27.247	3.1968e-06	56.117	8.9337e-05	8.3308e-05	2.3025e-05	533.9	9.1763e-07	9.0645e-07	687.02	179.89	9.1655e-07	9.0993e-07	290.7	116.87	67.918	24.52	9.1791e-07	49.45	33.579	116.407	69.746	42.371	157.204	128.304	42.569	46.794	264.439	173.729	46.074	50.377	50.919	55.415	223.667	54.387	-8191	255	
4290.627	1	1	0	0	0.10249	0.20924	0.098821	0.17996	0.076912	0.09212	0.30991	0.094929	0.15163	0.12386	0.17894	0.19999	0.047652	0.18292	0.11612	0.13573	-4.4083	-3.9313	-4.2688	-4.5979	-3.8917	-4.5104	-4.3667	-3.9625	-4.6021	-3.9667	-4.2292	-4.6167	-3.75	-4.4354	-4.2021	-3.8438	187.880	362.656	296.951	256.896	97.044	379.703	333.026	70.268	161.459	301.652	213.050	309.866	94.747	160.170	200.317	352.066	0.0010097	0.00038607	6.0672e-05	567.41	3.2874e-06	5.0767e-06	739.05	194.23	4.8797e-06	2.9571e-06	325.37	133.95	76.566	27.541	4.0359e-06	57.449	9.0211e-05	8.522e-05	2.3223e-05	533.68	9.4047e-07	9.2026e-07	689.89	180.33	9.3308e-07	9.1731e-07	292.12	118.14	68.441	24.841	9.2811e-07	50.274	43.841	78.286	48.385	42.571	145.280	211.257	42.296	46.723	171.313	150.201	45.877	50.091	50.781	54.975	161.965	54.225	-8191	255	
4290.723	1	1	0	0	0.17282	0.12285	0.1661	0.16357	0.12772	0.15868	0.035016	0.069343	0.27796	0.20671	0.045188	0.10435	0.058369	0.077948	0.27405	0.18642	-4.3313	-3.9396	-4.0604	-4.5312	-3.6875	-4.4187	-4.4167	-3.8187	-4.5396	-3.9667	-4.1292	-4.8146	-3.7146	-4.4667	-4.2688	-3.7667	69.549	61.651	367.010	308.973	320.139	357.589	228.564	262.079	72.549	62.894	103.634	292.456	321.022	168.903	283.207	43.503	0.0010542	0.0001757	4.9349e-05	567.43	7.1078e-06	2.69e-06	741.07	195.45	6.7031e-06	2.5655e-06	328.4	134.59	76.153	27.671	1.617e-06	57.446	9.0418e-05	8.4472e-05	2.3665e-05	534.54	9.3575e-07	9.1267e-07	689.98	180.98	9.4336e-07	9.1664e-07	294.2	118.92	68.615	24.953	9.2524e-07	50.386	385.253	229.043	95.909	42.488	160.580	156.893	42.519	47.006	166.638	172.934	45.839	50.311	51.308	55.132	99.909	54.181	-8191	255	
4290.820	1	1	0	0	0.091833	0.21364	0.14978	0.22342	0.22219	0.13927	0.0086571	0.21083	0.12067	0.19281	0.10581	0.10689	0.085544	0.14729	0.25609	0.077483	-4.4729	-4.1979	-3.9229	-4.5979	-3.9104	-4.3375	-4.5458	-3.7583	-4.55	-4.0458	-4.0229	-4.6583	-3.9313	-4.4146	-4.4646	-3.8479	124.894	113.161	149.951	57.840	325.983	182.719	265.875	34.481	195.849	266.865	285.332	372.045	359.915	357.021	75.705	208.078	0.0011523	0.00015759	0.00012431	568.63	2.9041e-06	5.9072e-06	742.57	193.43	3.8868e-06	5.5447e-06	326.61	133.41	75.086	27.143	2.3038e-06	56.266	9.1082e-05	8.3542e-05	2.3565e-05	535.48	9.3292e-07	9.2035e-07	691.25	180.03	9.2193e-07	9.183e-07	291.93	117.28	67.727	24.48	9.1994e-07	49.248	33.203	80.345	118.403	42.427	85.122	202.834	42.410	46.720	220.587	180.037	45.570	50.177	51.170	55.338	158.748	54.027	-8191	255	
4290.938	1	1	0	0	0.20735	0.036917	0.22983	0.18195	0.041987	0.22327	0.11097	0.36644	0.17191	0.10835	0.26641	0.14011	0.022404	0.10735	0.024935	0.29419	-4.3313	-4.1521	-3.7708	-4.8688	-3.8688	-4.1125	-4.5854	-3.8563	-4.4875	-4.3812	-3.925	-4.7396	-4.1396	-3.9979	-4.5917	-4.0188	384.511	356.324	61.590	62.842	306.795	240.793	192.685	345.443	359.300	157.044	367.915	282.858	105.347	268.201	277.709	34.626	0.0010951	0.00021102	0.00012698	561.87	4.037e-06	1.6262e-06	732.36	193.21	3.6293e-06	2.7703e-06	322.35	131.42	75.002	26.725	3.2352e-06	55.218	9.0594e-05	8.3254e-05	2.3304e-05	530.47	9.1519e-07	9.2197e-07	682.37	178.82	9.0001e-07	9.0697e-07	288.69	115.81	67.312	24.217	9.3695e-07	48.504	34.521	133.216	110.042	42.267	136.133	43.299	42.326	47.088	223.321	225.461	45.826	50.268	50.833	55.430	147.875	54.332	-8191	255	
4291.012	1	1	0	0	0.096371	0.16158	0.019669	0.058988	0.16206	0.11861	0.096781	0.13474	0.016164	0.074183	0.23987	0.10564	0.28157	0.15524	0.048528	0.073769	-3.9271	-4.2125	-3.7083	-4.7083	-3.8583	-4.0375	-4.7	-3.7313	-4.4333	-4.525	-3.9833	-4.725	-4.0563	-3.9833	-4.5875	-3.9042	334.521	125.982	332.590	146.139	157.266	177.967	313.344	269.781	241.152	357.095	339.228	272.908	369.355	333.209	113.973	360.928	0.0011031	0.00038871	0.00010257	563.87	6.4838e-06	1.5978e-06	736.11	192.76	1.8917e-06	1.506e-06	320.71	130.2	74.439	26.657	5.3469e-06	55.041	8.9537e-05	8.3834e-05	2.3849e-05	529.81	9.3605e-07	9.1382e-07	683.04	178.33	9.3341e-07	9.2058e-07	287.05	115	66.65	23.983	9.2147e-07	48.431	43.174	166.503	48.471	42.423	148.383	329.461	42.571	46.934	195.760	151.373	45.409	50.021	51.432	54.866	206.443	54.155	-8191	255	
4291.133	1	1	0	0	0.05629	0.1282	0.036376	0.075234	0.36928	0.17286	0.036831	0.26831	0.18622	0.043205	0.13499	0.2154	0.2549	0.12359	0.25012	0.078068	-4.1188	-4.5146	-3.7958	-4.5521	-4.2	-3.9437	-4.8458	-3.8438	-4.1896	-4.5083	-3.7146	-4.5979	-4.3271	-3.9	-4.6979	-3.9979	283.672	307.105	331.525	68.664	369.036	221.044	186.186	382.977	221.609	223.617	89.463	277.033	122.365	370.687	191.625	158.153	0.0010394	0.0004179	8.6087e-05	560.65	3.6883e-06	1.9676e-06	732.82	192.21	7.2987e-06	2.4858e-06	320.25	131.11	74.107	26.853	2.5158e-06	55.917	9.0062e-05	8.3918e-05	2.3501e-05	528.47	9.2277e-07	9.1948e-07	682.97	178.02	9.2881e-07	9.323e-07	288.13	115.49	66.705	24.241	9.2979e-07	48.979	41.377	41.976	128.149	42.573	136.411	141.173	42.518	46.818	183.023	157.302	45.760	50.404	50.896	55.328	193.620	54.166	-8191	255	
4291.227	1	1	0	0	0.080255	0.31371	0.1577	0.14371	0.12511	0.15323	0.20259	0.15503	0.016336	0.12705	0.17154	0.086783	0.10088	0.20282	0.068777	0.24687	-3.9354	-4.6208	-3.7375	-4.4792	-4.3458	-3.8563	-4.8	-3.975	-4.0062	-4.5604	-3.8333	-4.6479	-4.5938	-3.7708	-4.5896	-4.0083	31.198	118.093	56.419	199.523	242.635	372.446	297.830	383.640	290.284	34.902	355.215	340.279	364.280	97.246	151.144	364.402	0.0011485	0.00048002	0.00015685	566.07	3.2323e-06	2.7077e-06	735.28	190.58	2.4321e-06	4.2603e-06	319.81	129.6	73.113	26.73	3.7593e-06	55.435	9.2503e-05	8.4194e-05	2.3704e-05	530.7	9.245e-07	9.1967e-07	684.34	176.53	9.3052e-07	9.1199e-07	287.23	114.26	65.917	24.04	9.383e-07	48.462	388.578	127.637	59.684	42.521	174.679	116.316	42.291	46.894	170.662	157.684	45.606	50.010	51.223	55.202	172.990	54.103	-8191	255	
4291.323	1	1	0	0	0.036741	0.029171	0.25247	0.077804	0.098552	0.2555	0.21233	0.080736	0.036127	0.039553	0.14946	0.053758	0.069524	0.22749	0.099691	0.1988	-3.7458	-4.5563	-3.8271	-4.4917	-4.3438	-3.8625	-4.6146	-3.9437	-4.0146	-4.6521	-3.975	-4.2979	-4.4958	-3.725	-4.5354	-4.2396	361.690	38.136	163.619	300.119	339.602	186.901	311.282	220.810	243.326	198.634	344.171	67.290	267.207	375.634	213.472	288.251	0.00097844	0.0001229	0.00017576	554.64	3.4228e-06	2.2385e-06	724.07	188.88	5.2495e-06	4.1555e-06	316.39	129.13	73.104	26.653	4.3981e-06	55.387	9.1055e-05	8.3597e-05	2.3824e-05	524.27	9.2717e-07	9.2845e-07	677.03	175.52	9.3791e-07	9.2323e-07	284.04	114.01	65.732	23.94	9.1756e-07	48.341	36.642	233.325	106.157	42.647	382.107	164.267	42.445	46.886	174.659	160.911	45.820	50.227	51.149	55.287	222.344	54.359	-8191	255	
4291.419	1	1	0	0	0.093893	0.04539	0.13125	0.27028	0.15975	0.2841	0.14527	0.18478	0.31347	0.035911	0.11803	0.11527	0.091608	0.14806	0.1426	0.090362	-3.4875	-4.8771	-3.8875	-4.3375	-4.5	-3.6979	-4.6667	-4.1854	-3.8583	-4.7458	-4.0729	-4.2833	-4.6896	-3.675	-4.4146	-4.2917	177.285	245.101	368.770	375.407	175.297	380.352	142.834	331.551	229.500	264.134	285.944	368.263	281.291	33.091	351.126	82.394	0.0010037	0.00077136	0.00014107	559.6	2.651e-06	2.4183e-06	723.84	189.55	2.2798e-06	8.5885e-07	320.61	130.11	73.29	26.634	1.6003e-06	55.092	9.0122e-05	8.3177e-05	2.3308e-05	525.42	9.2604e-07	9.3885e-07	678.19	175.43	9.2673e-07	9.1644e-07	286.39	114.4	65.912	23.931	9.2831e-07	48.471	40.873	125.147	74.963	42.598	170.455	210.415	42.239	47.285	126.801	113.854	46.117	50.384	50.855	55.043	152.054	54.278	-8191	255	
4291.540	1	1	0	0	0.18403	0.098911	0.073685	0.09385	0.20874	0.087332	0.2324	0.14719	0.096764	0.19372	0.24226	0.1058	0.1079	0.17338	0.054111	0.26847	-3.5	-4.5708	-3.9458	-4.0938	-4.6896	-3.6542	-4.4354	-4.3833	-3.8583	-4.5646	-4.1833	-4.1354	-4.6667	-3.9667	-4.3833	-4.5271	298.201	249.239	230.487	285.496	32.313	253.334	62.204	62.898	256.090	89.027	172.036	307.306	155.222	273.835	154.593	263.209	0.0011087	0.00052813	0.00017717	558.79	2.3115e-06	5.5593e-06	728.6	190.9	3.878e-06	1.8579e-06	318.83	130.68	74.525	26.721	7.9316e-06	55.451	9.0679e-05	8.5327e-05	2.3334e-05	528.08	9.2086e-07	9.2647e-07	682.77	176.69	9.3187e-07	9.3408e-07	287.04	114.95	66.447	24.019	9.3644e-07	48.685	40.386	127.530	94.694	42.477	104.373	156.982	42.205	47.008	178.357	121.937	46.000	50.202	51.267	55.141	241.527	54.068	-8191	255	
4291.636	1	1	0	0	0.126	0.12037	0.022176	0.21999	0.22313	0.077376	0.19774	0.078223	0.18309	0.15442	0.077016	0.095071	0.10608	0.17682	0.086346	0.13537	-3.575	-4.7333	-4.1625	-4.0333	-4.6687	-3.8646	-4.3354	-4.5417	-3.8292	-4.6521	-4.3354	-4.1042	-4.6875	-3.9292	-4.0958	-4.7438	301.273	294.595	331.709	383.466	58.907	326.366	333.310	380.238	285.530	159.822	237.754	263.654	319.025	334.354	224.111	153.059	0.0010337	0.00033584	0.00013585	562.85	6.0596e-06	1.4493e-06	738.01	191.23	1.6798e-06	6.633e-06	321.15	131.31	74.284	26.585	4.0069e-06	55.391	9.1857e-05	8.4877e-05	2.3278e-05	531.26	9.2276e-07	9.2495e-07	687.33	177.63	9.3856e-07	9.242e-07	287.92	115.8	66.826	24.043	9.2924e-07	48.392	39.704	155.108	116.840	42.548	161.567	181.437	42.360	46.775	103.190	202.110	46.017	50.181	51.048	55.278	175.940	54.225	-8191	255	
4291.708	1	1	0	0	0.065244	0.10758	0.12399	0.069744	0.047159	0.13379	0.17978	0.19387	0.083583	0.14816	0.043801	0.14398	0.11763	0.3751	0.17275	0.15329	-3.4833	-4.4125	-4.2917	-3.8479	-4.7021	-3.8375	-4.1292	-4.65	-3.7708	-4.3438	-4.2896	-3.9146	-4.5729	-3.8271	-3.8583	-4.7208	132.735	265.943	291.623	177.615	360.832	104.242	324.533	348.014	264.566	127.650	320.919	377.945	224.299	339.847	35.062	292.869	0.0012923	0.00045967	3.1373e-05	560.06	3.5355e-06	3.8562e-07	725.87	188.94	1.9423e-06	2.2121e-06	314.55	129.93	72.858	26.232	5.3722e-07	54.309	9.132e-05	8.4216e-05	2.3361e-05	526.01	9.286e-07	9.2694e-07	675.12	175.22	9.2736e-07	9.1635e-07	283.1	113.54	65.733	23.705	9.3442e-07	47.68	38.092	121.634	90.174	42.447	87.029	379.106	42.178	46.955	141.398	159.280	45.906	50.291	50.998	55.432	141.527	54.117	-8191	255	
4291.828	1	1	0	0	0.22562	0.18316	0.14824	0.22678	0.070507	0.2132	0.20994	0.099839	0.19129	0.14004	0.14926	0.2355	0.0080446	0.22707	0.16409	0.22075	-3.4875	-4.3792	-4.275	-3.8229	-4.6604	-4.0333	-4.0563	-4.6333	-3.6312	-4.1833	-4.3917	-3.8042	-4.7375	-4.0458	-3.9104	-4.7875	61.992	99.975	302.471	82.892	65.967	99.265	73.140	236.210	228.603	345.456	356.210	384.538	55.488	333.464	246.220	333.765	0.00092219	0.00061684	1.2377e-05	556.31	4.7644e-07	4.1089e-06	721.96	189.43	4.1185e-06	3.7735e-06	316.78	129.22	73.547	26.335	4.8087e-06	54.673	9.0537e-05	8.3252e-05	2.3197e-05	522.54	9.1573e-07	9.1053e-07	675.53	175.46	9.2806e-07	9.147e-07	284.43	114.04	65.967	23.798	9.3143e-07	47.991	44.021	115.975	254.458	42.502	91.103	77.835	42.328	47.252	243.772	182.238	45.925	50.231	51.388	55.618	158.121	53.995	-8191	255	
4291.924	1	1	0	0	0.12704	0.12258	0.19843	0.18265	0.1573	0.19737	0.073734	0.049004	0.16785	0.16156	0.10332	0.24198	0.0767	0.1124	0.12299	0.21024	-3.45	-4.125	-4.3938	-3.8354	-4.55	-4.1896	-3.8896	-4.575	-4.0604	-4.1667	-4.675	-3.85	-4.6292	-4.3833	-3.9562	-4.7875	97.773	256.600	245.325	39.351	380.672	141.904	166.032	58.317	197.814	299.289	381.863	306.238	282.982	183.876	307.930	86.942	0.0011033	0.00017313	8.9377e-05	556.47	3.652e-06	3.3402e-06	723.99	189.02	3.0911e-06	9.1902e-07	317.1	128.83	73.211	26.404	4.0417e-06	54.747	9.1595e-05	8.4551e-05	2.3467e-05	524.04	9.2241e-07	9.2491e-07	676.36	175.01	9.3038e-07	9.0653e-07	284.1	113.67	65.854	23.786	9.3193e-07	48.036	38.809	126.853	126.341	42.505	105.720	77.001	42.403	47.021	174.845	64.851	45.498	50.406	51.000	54.929	62.928	54.306	-8191	255	
4292.019	1	1	0	0	0.089411	0.055222	0.26219	0.26504	0.095633	0.14539	0.24394	0.10424	0.27739	0.31179	0.3136	0.12273	0.2677	0.13784	0.088429	0.21034	-3.725	-4.1167	-4.6562	-3.8604	-4.475	-4.4229	-3.8563	-4.8542	-4.0167	-4.1125	-4.7354	-3.8563	-4.4042	-4.5292	-3.7771	-4.8604	258.046	290.982	356.352	341.581	371.877	50.124	332.765	342.291	298.838	150.521	305.862	363.061	360.092	264.909	42.153	332.092	0.00098607	0.00030067	0.00011661	556.83	5.0417e-06	4.1632e-06	727.94	188.58	4.8419e-06	1.5591e-06	315.43	128.16	72.952	26.123	3.0904e-06	54.538	8.9305e-05	8.4073e-05	2.3613e-05	525.85	9.2167e-07	9.2293e-07	678.38	174.91	9.3153e-07	9.2663e-07	283.68	113.13	65.442	23.63	9.2294e-07	47.764	33.237	152.564	74.053	42.700	132.284	115.860	42.500	47.256	151.290	158.954	45.512	50.141	50.946	55.154	172.239	54.222	-8191	255	
4292.115	1	1	0	0	0.063156	0.21525	0.080244	0.12936	0.13052	0.19808	0.20274	0.11965	0.19835	0.11314	0.22897	0.23876	0.050974	0.043471	0.095534	0.083307	-3.7875	-3.8875	-4.7729	-3.7583	-4.2937	-4.4417	-3.8854	-4.6833	-4.1208	-3.9125	-4.7729	-3.8146	-4.3521	-4.6438	-3.8354	-4.5938	378.767	211.829	48.615	180.232	245.918	227.467	213.030	337.308	372.570	44.222	259.949	367.334	174.566	217.324	272.195	92.829	0.0010381	0.00052713	8.0912e-05	549.79	1.7856e-06	1.2601e-06	716.02	186.78	5.8494e-06	2.8707e-06	315.4	125.99	72.082	25.919	3.4457e-06	53.826	9.0122e-05	8.4215e-05	2.3142e-05	519.45	9.1994e-07	9.0498e-07	670.42	172.92	9.1144e-07	9.1552e-07	281.48	111.47	64.716	23.366	9.1211e-07	47.168	44.570	92.923	132.775	42.760	84.242	200.582	42.449	46.811	188.781	138.570	45.454	50.382	50.913	55.157	191.817	54.118	-8191	255	
4292.236	1	1	0	0	0.016051	0.12848	0.10458	0.20384	0.24492	0.15671	0.19472	0.15699	0.27916	0.22156	0.29367	0.066993	0.12536	0.16759	0.19989	0.14564	-3.8917	-3.9125	-4.8313	-4.1792	-4.225	-4.6188	-3.8646	-4.6312	-4.1521	-3.9604	-4.8688	-4.0896	-4.1729	-4.6333	-3.8167	-4.4792	297.334	180.743	192.773	197.469	206.182	102.310	60.501	312.955	78.550	232.163	78.719	47.871	349.082	77.223	246.937	87.894	0.00098649	0.00036546	8.048e-05	552.18	4.9868e-06	3.8579e-07	720.04	186.17	6.1989e-06	2.9083e-06	315.72	127.08	71.871	25.681	2.404e-06	53.506	8.9523e-05	8.4296e-05	2.2893e-05	519.05	9.089e-07	8.9747e-07	671.03	172.73	9.2057e-07	9.0536e-07	281.56	111.7	64.672	23.285	9.2867e-07	47.016	43.967	153.723	43.500	42.452	113.758	159.476	42.892	46.801	157.322	142.717	45.836	50.392	51.022	55.400	169.971	54.360	-8191	255	
4292.307	1	1	0	0	0.13933	0.081246	0.063926	0.09363	0.18636	0.19777	0.27299	0.069713	0.16821	0.26119	0.10444	0.15853	0.186	0.23749	0.18859	0.20163	-4.2771	-3.8563	-4.5604	-4.125	-3.9729	-4.6125	-3.9313	-4.2771	-4.3688	-3.7542	-4.6583	-4.1542	-3.9833	-4.6583	-3.95	-4.3146	356.914	158.908	244.854	323.388	160.101	126.492	304.246	150.698	201.047	310.160	258.363	360.306	234.107	65.899	129.080	277.036	0.0010696	0.00024413	3.0155e-05	554.44	1.8344e-06	1.5493e-06	720.43	186.74	3.3717e-06	2.0312e-06	312.12	127.45	72.669	25.979	2.8902e-06	53.595	8.9887e-05	8.2546e-05	2.3091e-05	522.18	9.2318e-07	9.0998e-07	673.57	173.75	9.2722e-07	9.0776e-07	282.1	112.53	65.092	23.33	9.3489e-07	47.084	40.477	149.364	151.136	42.510	374.830	115.361	42.380	46.875	175.138	95.277	45.937	49.898	51.520	55.457	197.511	54.257	-8191	255	
4292.403	1	1	0	0	0.10303	0.16897	0.14677	0.087904	0.28834	0.1047	0.17393	0.046413	0.24873	0.14909	0.086433	0.21801	0.12239	0.09206	0.096758	0.15717	-4.1271	-3.8521	-4.5771	-4.0854	-3.9146	-4.6521	-3.9667	-4.2479	-4.5583	-3.8771	-4.5938	-4.45	-3.9333	-4.6354	-3.9354	-4.2312	164.280	36.264	163.023	128.106	192.311	253.041	243.146	303.466	123.195	57.845	69.218	292.066	28.962	121.041	346.776	376.151	0.001142	0.000488	9.0461e-05	554.38	3.8513e-06	2.5213e-06	727.56	188.7	4.8855e-06	3.2191e-06	317.14	129.14	72.252	25.638	1.9599e-06	53.098	9.0891e-05	8.4819e-05	2.2868e-05	524.91	9.2068e-07	9.1675e-07	678.31	174.97	9.2094e-07	9.2753e-07	284.17	113.16	65.149	23.25	9.1696e-07	46.83	43.865	103.188	114.212	42.501	132.958	118.458	42.089	46.942	250.730	146.324	45.740	50.153	51.039	55.158	190.884	54.612	-8191	255	
4292.500	1	1	0	0	0.21414	0.31853	0.12743	0.059169	0.068767	0.16499	0.14485	0.29354	0.22051	0.073749	0.080085	0.21129	0.15869	0.11798	0.1031	0.25723	-4.2833	-3.4188	-4.5958	-4.3979	-3.8729	-4.7292	-3.9646	-4.0896	-4.5979	-3.7354	-4.4792	-4.3521	-3.775	-4.7042	-3.9313	-4.25	65.426	319.827	335.443	120.591	312.635	163.744	138.787	332.665	367.574	264.096	177.190	67.969	217.803	161.549	46.307	284.656	0.0010138	0.00030897	0.00016769	553.85	2.2302e-06	1.9631e-06	720.88	185.63	5.4571e-06	3.6527e-06	312.09	126.72	71.637	25.45	2.5661e-06	52.478	8.9024e-05	8.34e-05	2.3196e-05	522.25	9.1685e-07	9.022e-07	672.3	173.04	9.2348e-07	9.0747e-07	279.6	111.17	64.378	22.886	9.1486e-07	46.06	34.960	95.395	121.344	42.463	110.708	251.060	42.591	47.124	205.080	181.554	45.814	50.042	50.878	55.239	326.215	54.202	-8191	255	
4292.620	1	1	0	0	0.037201	0.25394	0.069123	0.17891	0.08407	0.078919	0.19584	0.15322	0.11678	0.086018	0.14975	0.15064	0.10085	0.23309	0.22256	0.1047	-4.3021	-3.8229	-4.4167	-4.5375	-3.6646	-4.5604	-4.3688	-3.9542	-4.5833	-3.6792	-4.2521	-4.4708	-3.7417	-4.55	-4.2292	-4.2917	215.802	382.150	152.932	69.438	335.396	78.379	164.872	259.517	45.479	320.730	324.167	69.495	263.857	361.207	319.346	385.275	0.00091434	0.00043871	0.00025981	552.82	2.1053e-06	7.0851e-07	721.08	186.23	1.212e-06	2.6328e-06	312.21	126.96	71.558	25.549	3.5508e-06	52.88	8.7955e-05	8.3354e-05	2.271e-05	520.09	9.2311e-07	9.1014e-07	670.69	173.19	9.1826e-07	9.1129e-07	279.88	111.2	64.363	23.039	9.0524e-07	46.605	35.000	154.819	99.009	42.505	154.376	376.338	42.277	47.192	162.614	130.097	45.855	50.178	50.952	55.240	164.230	54.076	-8191	255	
4292.716	1	1	0	0	0.16294	0.14592	0.13838	0.10039	0.2044	0.064992	0.087564	0.15092	0.14794	0.091668	0.22809	0.1684	0.094419	0.24563	0.1581	0.14548	-4.3021	-3.8833	-4.1687	-4.525	-3.6167	-4.4917	-4.2542	-3.7729	-4.5979	-4.0188	-4.1104	-4.7688	-3.7625	-4.5437	-4.425	-3.8729	42.053	371.273	195.811	257.524	276.197	342.708	329.942	67.347	324.132	216.821	308.298	214.947	282.797	370.796	241.938	301.444	0.0010957	0.00044508	0.00010257	552.83	5.1793e-06	1.191e-06	722.74	186.95	6.1448e-06	3.7015e-06	315.1	126.8	72.125	25.765	7.4583e-07	53.44	8.8331e-05	8.2906e-05	2.3109e-05	520.69	9.1689e-07	8.9963e-07	673.44	173.45	9.0846e-07	9.0557e-07	281.76	112.13	65.103	23.324	9.1974e-07	47.097	45.029	96.778	83.716	42.419	137.740	228.981	42.345	47.145	169.017	93.226	46.137	50.431	50.790	55.777	327.443	54.073	-8191	255	
4292.813	1	1	0	0	0.16504	0.083575	0.092492	0.16248	0.096557	0.18484	0.15932	0.046098	0.094207	0.066326	0.17106	0.21724	0.13672	0.19131	0.079161	0.32163	-4.275	-3.975	-4.1292	-4.6708	-3.5563	-4.2896	-4.4833	-3.7667	-4.7208	-4.2583	-4.1208	-4.7167	-3.7292	-4.3646	-4.4958	-3.7375	350.664	167.643	298.420	32.193	191.478	350.729	323.935	304.140	324.732	69.722	294.703	305.076	84.459	37.567	184.168	294.041	0.0010852	0.00032227	0.00016679	556.38	8.171e-07	3.9604e-06	724.54	187.36	4.2914e-06	3.2407e-06	314.29	127.65	72.396	25.747	3.5999e-06	53.16	8.9176e-05	8.3199e-05	2.3225e-05	522.93	9.2196e-07	9.1155e-07	678.18	173.86	9.1211e-07	9.0627e-07	282.94	112.53	64.801	23.224	9.135e-07	46.805	41.559	165.663	76.054	42.427	132.522	224.287	42.398	46.985	76.780	113.560	45.733	50.365	50.861	55.135	214.202	54.175	-8191	255	
4292.909	1	1	0	0	0.017101	0.075881	0.23516	0.15201	0.14192	0.17062	0.16496	0.25817	0.23208	0.18374	0.23149	0.060036	0.050759	0.11195	0.12674	0.20388	-4.3021	-4.075	-4.1	-4.875	-3.85	-4.4604	-4.6917	-3.9146	-4.6417	-4.2312	-3.9646	-4.7063	-3.9375	-4.1625	-4.3458	-3.9	73.815	335.556	34.696	321.672	238.852	250.560	310.215	314.276	260.559	147.091	30.090	46.973	207.367	373.504	291.442	54.508	0.00098244	0.0001228	0.00011404	553.72	1.2606e-06	2.6755e-06	723.76	187.16	4.053e-06	9.7898e-07	313.25	126.21	71.283	25.467	6.3625e-06	52.975	8.9877e-05	8.3713e-05	2.3051e-05	523.14	9.2186e-07	9.053e-07	674.35	173.09	9.0701e-07	9.0369e-07	280.83	110.97	64.091	23.009	9.0893e-07	46.36	43.631	128.266	68.237	42.461	148.347	117.805	42.476	46.985	206.282	339.270	45.758	50.048	51.397	55.254	190.470	54.205	-8191	255	
4293.005	1	1	0	0	0.025332	0.10522	0.28953	0.10256	0.070959	0.21059	0.24299	0.19113	0.29631	0.075599	0.040348	0.25612	0.20775	0.21003	0.15226	0.096045	-4.3271	-4.1188	-3.9229	-4.6667	-4.0563	-4.1	-4.6396	-3.7146	-4.5687	-4.4521	-4.0271	-4.675	-4.1792	-4.1875	-4.6521	-3.8292	115.317	386.416	80.209	306.621	121.741	99.562	349.015	348.595	331.584	287.093	323.598	330.714	370.037	344.808	342.390	375.122	0.0010373	0.00020867	7.4466e-05	549.55	4.2157e-06	1.4146e-06	721.3	184.29	8.4376e-06	4.2869e-07	312.28	125.9	71.264	25.363	3.5248e-06	52.743	8.8785e-05	8.2564e-05	2.3167e-05	518.93	9.1066e-07	8.9398e-07	671.15	172.2	9.0586e-07	9.0375e-07	279.57	111.16	64.128	22.944	9.0648e-07	46.29	29.405	69.032	99.968	42.438	197.095	178.521	42.624	47.146	194.237	157.821	46.079	50.384	51.133	55.307	164.768	54.086	-8191	255	
4293.101	1	1	0	0	0.27297	0.14136	0.1022	0.12308	0.14708	0.26137	0.1284	0.12759	0.1383	0.060564	0.21897	0.22946	0.069643	0.30621	0.16348	0.059673	-4.1604	-4.35	-3.7917	-4.6708	-3.9167	-4.0875	-4.7625	-3.8354	-4.4563	-4.4979	-3.8229	-4.6021	-4.0437	-3.9833	-4.6312	-4.125	344.558	228.743	242.092	316.018	80.150	171.413	66.388	74.526	309.846	165.131	327.589	297.975	34.428	299.157	318.628	358.799	0.0011702	0.00055345	1.4437e-05	552.32	5.1332e-06	1.5175e-06	721.89	185.32	6.0684e-06	4.18e-06	314.04	126.94	71.607	25.518	1.753e-06	52.808	8.9311e-05	8.3871e-05	2.2864e-05	520.42	9.1117e-07	9.0574e-07	672.91	172.6	9.0139e-07	8.9727e-07	280.73	111.53	64.406	22.999	9.1793e-07	46.373	42.611	77.554	197.540	42.590	126.488	123.845	42.562	46.868	179.331	170.458	45.957	50.031	51.050	55.414	139.420	54.298	-8191	255	
4293.220	1	1	0	0	0.053308	0.177	0.11199	0.19158	0.13154	0.065884	0.088809	0.068332	0.049528	0.15963	0.28067	0.34663	0.12221	0.072265	0.15439	0.091195	-3.8896	-4.5875	-3.6625	-4.7063	-4.3375	-3.7958	-4.6562	-4.0479	-4.2042	-4.6687	-3.7021	-4.6521	-4.2146	-3.8354	-4.7729	-4.2021	321.631	296.696	276.179	339.260	239.407	205.555	225.705	53.968	160.688	32.940	346.484	340.690	146.976	233.891	126.302	37.602	0.00095832	0.00017667	7.2522e-05	556.61	2.318e-06	1.3162e-06	726.13	186.94	2.4864e-06	4.7418e-06	313.79	127.71	71.545	25.35	4.6522e-06	52.989	8.9185e-05	8.2802e-05	2.2995e-05	522.78	9.074e-07	9.1625e-07	676.04	173.24	9.1511e-07	8.9139e-07	281.81	112.19	64.474	22.966	9.1148e-07	46.538	44.106	209.192	81.729	42.500	138.994	367.089	42.486	47.460	198.588	162.737	45.953	50.487	50.918	55.086	166.826	54.389	-8191	255	
4293.316	1	1	0	0	0.078449	0.087283	0.021667	0.20883	0.15398	0.24342	0.2034	0.38594	0.21746	0.1016	0.17175	0.079137	0.29073	0.21329	0.03129	0.15709	-3.8417	-4.6813	-3.8083	-4.5021	-4.2292	-3.8438	-4.6562	-4.0729	-3.8729	-4.5708	-3.7896	-4.3229	-4.3604	-3.7333	-4.5125	-4.0625	270.953	223.086	97.741	380.225	165.696	203.408	208.020	357.719	326.095	377.195	202.642	358.032	384.008	188.255	316.700	270.694	0.0010295	0.00026886	0.00010378	552.31	3.8292e-06	1.7486e-07	720.11	186.9	1.6299e-06	3.0086e-06	310.83	125.83	71.707	25.154	2.8102e-06	52.112	8.9905e-05	8.3245e-05	2.2915e-05	522.26	9.1194e-07	9.1869e-07	674.47	173.34	9.1405e-07	8.9582e-07	280.31	111.28	64.434	22.815	9.0992e-07	45.817	388.585	228.953	90.889	42.349	168.793	183.638	42.324	46.985	223.811	128.970	46.000	50.258	51.043	55.376	111.970	54.002	-8191	255	
4293.412	1	1	0	0	0.1358	0.0795	0.063029	0.16877	0.23305	0.12162	0.16371	0.068648	0.062152	0.15452	0.18878	0.10996	0.049918	0.14769	0.23995	0.039561	-3.4958	-4.5167	-3.6896	-4.4042	-4.3438	-3.7208	-4.6729	-4.1917	-3.95	-4.6104	-3.7687	-4.2146	-4.5917	-3.9104	-4.4625	-4.325	68.279	382.496	227.886	281.929	107.433	232.886	264.324	383.832	149.986	200.889	170.841	300.334	45.469	222.435	308.112	175.755	0.0010292	0.00040631	7.2414e-05	552.43	4.0044e-06	4.0089e-06	717.78	185.49	1.1735e-06	2.9054e-06	309.19	124.11	70.476	24.402	3.0491e-06	50.883	8.8621e-05	8.1678e-05	2.2681e-05	520.65	9.1696e-07	8.9945e-07	670.72	172.82	9.2457e-07	9.1099e-07	278.43	109.76	63.431	22.168	9.1076e-07	44.646	29.513	185.202	59.774	42.301	126.255	200.708	42.403	46.764	209.214	163.871	45.837	50.100	50.888	55.229	180.111	54.582	-8191	255	
4293.533	1	1	0	0	0.082144	0.13341	0.073019	0.27404	0.132	0.14769	0.17013	0.23622	0.13563	0.21692	0.1596	0.27564	0.23082	0.10005	0.29233	0.24145	-3.525	-4.6562	-3.8292	-4.1896	-4.4625	-3.8021	-4.5917	-4.3104	-3.8458	-4.6042	-4.0437	-4.1875	-4.6083	-3.6792	-4.4437	-4.25	352.235	79.233	264.634	102.322	203.410	88.225	340.640	306.885	348.913	361.715	297.511	217.201	52.959	386.614	161.701	366.684	0.0012078	1.2615e-05	9.2811e-05	557.54	8.2328e-07	1.5641e-06	725.25	187.13	2.0624e-06	1.5837e-06	310.93	123.99	70.389	24.598	3.1869e-06	51.094	8.9625e-05	8.2258e-05	2.2902e-05	525.03	9.0786e-07	9.1743e-07	675.06	173.92	9.2298e-07	9.1368e-07	278.8	109.37	63.488	22.195	9.069e-07	44.771	34.217	221.922	60.062	42.445	95.224	361.044	42.436	46.895	204.013	218.071	45.641	50.047	51.196	55.404	173.506	54.379	-8191	255	
4293.604	1	1	0	0	0.17151	0.15716	0.18069	0.15637	0.25888	0.15467	0.2427	0.18096	0.16235	0.060516	0.10794	0.25043	0.10723	0.051978	0.037988	0.21806	-3.5687	-4.7083	-4.1083	-3.975	-4.575	-3.7812	-4.4688	-4.5729	-3.6917	-4.725	-4.1062	-3.9958	-4.6125	-3.75	-4.2063	-4.4896	155.110	221.928	194.385	323.650	289.408	71.195	360.781	183.964	90.207	88.494	181.580	352.555	332.162	162.972	200.520	291.590	0.00079265	0.00038022	0.0001288	560.13	2.3209e-06	4.7953e-06	729.87	187.09	2.2717e-06	3.3547e-06	311.06	124.5	70.418	24.564	3.9705e-06	51.365	8.9144e-05	8.377e-05	2.3069e-05	526.65	9.1673e-07	9.0895e-07	679.53	173.98	9.0983e-07	8.9619e-07	280.22	110.13	63.772	22.317	9.3009e-07	45.225	39.710	77.548	86.427	42.123	122.584	149.035	42.320	47.271	175.233	163.963	46.176	50.315	51.228	55.487	225.120	54.649	-8191	255	
4293.701	1	1	0	0	0.029461	0.19909	0.046911	0.090466	0.085561	0.029489	0.045945	0.20946	0.13488	0.13483	0.036599	0.1027	0.037084	0.0373	0.17435	0.13977	-3.6375	-4.7083	-4.2	-4.1104	-4.6687	-3.7313	-4.1542	-4.475	-3.7396	-4.3292	-4.2	-3.9188	-4.6438	-3.9458	-4.0646	-4.4583	310.183	52.661	102.415	43.822	370.110	252.958	189.846	378.755	377.541	298.947	94.488	363.963	119.544	55.902	284.969	271.122	0.0008563	0.00023467	0.00011266	563.62	5.5469e-06	1.8153e-06	727.26	187.03	2.0397e-06	2.9324e-06	312.41	123.71	70.56	24.644	2.9969e-06	51.025	9.0064e-05	8.365e-05	2.3234e-05	528.36	9.2336e-07	9.1399e-07	679.15	173.46	9.0938e-07	9.0876e-07	279.04	109.15	63.319	22.271	9.1574e-07	44.891	38.160	125.863	383.258	42.784	154.452	246.114	42.265	47.012	167.708	122.374	45.509	50.398	50.768	55.121	279.140	54.099	-8191	255	
4293.797	1	1	0	0	0.21207	0.12306	0.092149	0.11467	0.21529	0.19123	0.3174	0.064891	0.17752	0.21649	0.39538	0.14413	0.12363	0.16941	0.16102	0.10202	-3.4021	-4.5458	-4.3333	-3.9333	-4.8875	-3.9792	-4.1167	-4.6208	-3.7313	-4.6271	-4.4083	-3.7771	-4.6417	-4.1271	-4.1062	-4.6854	103.716	46.496	123.754	318.312	271.148	361.933	301.959	69.961	90.557	359.204	336.378	343.557	370.248	269.763	75.707	78.865	0.00099185	0.00030004	4.9473e-05	554.41	1.6118e-06	2.4124e-06	720.52	186.32	3.2348e-06	4.8907e-06	308.87	123.33	70.018	24.517	3.4275e-06	50.806	8.8582e-05	8.2325e-05	2.2892e-05	522.44	9.1732e-07	9.0034e-07	673.16	172.45	9.1115e-07	9.1008e-07	277.19	108.94	63.206	22.127	9.1557e-07	44.552	46.475	79.853	93.204	42.325	76.373	198.213	42.502	47.173	174.477	195.234	45.868	50.150	51.098	55.391	180.822	54.355	-8191	255	
4293.916	1	1	0	0	0.20099	0.29479	0.011866	0.30604	0.16259	0.055885	0.14171	0.077292	0.19789	0.056023	0.040701	0.15403	0.1804	0.10877	0.06774	0.05098	-3.4917	-4.3042	-4.5042	-3.9792	-4.6021	-4.0917	-3.9979	-4.5938	-3.7125	-4.3292	-4.5813	-3.9458	-4.6062	-4.1354	-3.8646	-4.6813	329.014	73.668	299.975	352.580	164.819	136.290	256.110	201.572	340.066	343.448	191.743	305.516	299.831	184.216	178.429	50.794	0.00086439	0.00041192	5.2904e-05	552.77	1.7101e-06	2.5188e-06	717.04	186.35	1.6867e-06	3.4657e-06	309.01	123.49	70.02	24.451	5.9004e-07	51.073	8.8517e-05	8.2418e-05	2.2895e-05	522.61	9.0058e-07	9.1489e-07	673.07	172.58	9.0385e-07	8.9652e-07	276.79	109.15	63.094	22.113	9.1352e-07	44.769	39.348	138.213	62.740	42.342	70.947	152.262	42.717	47.301	207.479	156.968	45.956	50.413	51.238	55.035	170.782	54.589	-8191	255	
4294.012	1	1	0	0	0.34506	0.091015	0.19931	0.19179	0.16176	0.035373	0.29307	0.15713	0.097409	0.24453	0.23046	0.18354	0.13927	0.14854	0.092238	0.14171	-3.4771	-4.1937	-4.4646	-3.8083	-4.7604	-4.2167	-3.9021	-4.7312	-3.9833	-4.1167	-4.7708	-3.7771	-4.5667	-4.3104	-3.6729	-4.6896	120.399	314.796	230.249	305.660	151.075	36.281	266.072	255.146	275.091	339.001	287.384	326.439	164.009	316.058	241.420	357.022	0.00081562	0.00019229	0.00012888	556.55	1.3147e-06	2.8117e-06	721.59	186.23	6.3631e-06	3.0307e-06	310.81	124.39	70.525	24.494	3.6025e-06	51.458	8.8751e-05	8.3178e-05	2.3314e-05	524.62	9.1175e-07	9.1304e-07	677.13	172.86	9.2808e-07	9.2609e-07	278.95	109.72	63.415	22.241	9.192e-07	45.053	388.583	65.208	111.135	42.573	327.960	167.768	42.402	46.972	167.093	169.398	45.893	50.119	51.373	55.879	206.417	54.485	-8191	255	
4294.108	1	1	0	0	0.16688	0.10984	0.15486	0.090091	0.095198	0.095415	0.31943	0.24662	0.37059	0.13459	0.26964	0.013648	0.22781	0.21691	0.13329	0.16351	-3.7146	-3.9896	-4.5458	-3.6479	-4.2708	-4.3771	-3.9271	-4.5188	-3.9896	-4.0458	-4.7167	-3.8979	-4.25	-4.2812	-3.8937	-4.5521	117.615	284.598	247.685	124.331	332.014	111.180	46.945	33.586	124.581	31.119	380.483	244.488	121.608	53.098	51.863	309.566	0.00098112	0.00021995	0.00012206	559.19	3.6298e-06	1.9241e-06	722.57	186.76	1.215e-06	3.3337e-06	309.42	123.48	70.359	24.476	3.6029e-06	50.969	9.0653e-05	8.4592e-05	2.3176e-05	525.33	9.1465e-07	9.2578e-07	675.02	172.72	9.2157e-07	9.2434e-07	277.08	109.1	63.229	22.132	9.2828e-07	44.629	31.769	144.627	37.635	42.472	121.217	136.115	42.313	46.865	66.869	186.542	45.781	50.135	51.026	55.353	194.145	54.257	-8191	255	
4294.181	1	1	0	0	0.087711	0.13804	0.070912	0.22977	0.091129	0.13655	0.26669	0.18157	0.1436	0.13771	0.26715	0.21191	0.15062	0.22688	0.11112	0.12206	-3.8417	-3.8438	-4.4917	-3.9188	-4.3146	-4.5292	-3.9417	-4.5938	-4.1208	-3.7812	-4.8063	-3.8396	-4.2146	-4.55	-3.8208	-4.5125	326.055	325.286	195.537	251.107	75.275	297.630	263.375	344.133	363.890	72.227	246.832	58.984	327.139	237.150	271.703	66.881	0.00097495	0.00055335	9.9331e-05	553.29	2.5562e-06	7.4629e-07	719.67	184.12	1.5681e-06	2.222e-06	305.51	123.87	70.067	24.755	2.6138e-06	51.162	8.9419e-05	8.3313e-05	2.2936e-05	520.43	9.1367e-07	9.0133e-07	669.23	171.2	9.1393e-07	8.9758e-07	274.84	108.98	63.047	22.275	9.2449e-07	45.076	40.738	93.411	101.904	42.247	151.078	350.496	42.319	47.395	148.459	128.925	45.778	49.909	50.966	55.438	222.081	54.528	-8191	255	
4294.300	1	1	0	0	0.025793	0.11712	0.080147	0.17943	0.18401	0.064421	0.21862	0.098731	0.029819	0.12079	0.053801	0.19832	0.20541	0.24339	0.093994	0.047425	-3.9417	-3.8021	-4.5	-3.9417	-4.1417	-4.6042	-4.0542	-4.5042	-4.1937	-3.8104	-4.6667	-3.9917	-4.0083	-4.6458	-3.6979	-4.4729	226.415	203.741	97.396	78.617	322.779	164.683	148.700	328.125	172.557	260.002	116.394	387.442	314.947	142.752	58.760	276.315	0.0010447	0.00038734	0.0001103	550.78	2.9437e-06	1.4376e-06	718.16	185.57	1.5458e-06	2.2858e-06	310.57	123.21	70.309	24.65	1.4243e-06	51.649	8.9602e-05	8.3668e-05	2.2934e-05	518.96	8.9995e-07	8.8965e-07	672.15	171.56	9.012e-07	9.0468e-07	277.5	109.17	63.333	22.387	9.0844e-07	45.352	35.154	66.938	382.861	42.334	183.874	29.915	42.485	47.147	170.152	146.825	45.738	50.308	50.910	55.434	129.233	54.310	-8191	255	
4294.396	1	1	0	0	0.17514	0.18087	0.29004	0.16661	0.28716	0.10131	0.18186	0.3239	0.12852	0.1051	0.17288	0.26439	0.13085	0.125	0.062997	0.090358	-4.0125	-3.6521	-4.5583	-4.0479	-3.9854	-4.6771	-3.7812	-4.3583	-4.3771	-3.7562	-4.7479	-4.1521	-4.0958	-4.6604	-3.7479	-4.2458	382.447	370.330	167.719	112.092	31.671	43.391	280.242	354.407	284.444	289.983	319.882	262.402	216.550	67.033	98.759	284.352	0.0010914	0.00017294	4.5193e-05	554.18	2.1291e-06	3.0311e-06	719.82	185.97	4.3912e-06	2.6275e-06	311.57	124.92	70.51	24.94	2.6596e-06	52.142	8.9302e-05	8.4058e-05	2.3316e-05	522.78	9.2133e-07	9.0863e-07	673.82	172.12	9.2513e-07	9.2246e-07	278.8	110	63.495	22.537	9.258e-07	45.785	41.585	155.591	37.979	42.360	133.450	176.882	42.440	47.080	190.943	171.279	45.774	50.302	51.193	55.675	227.507	54.328	-8191	255	
4294.493	1	1	0	0	0.19961	0.27249	0.10482	0.35208	0.18674	0.13496	0.12488	0.27083	0.099531	0.2372	0.084683	0.1318	0.094398	0.077698	0.081769	0.21255	-4.0563	-3.7271	-4.4083	-4.175	-3.7729	-4.7083	-3.9292	-4.25	-4.5021	-3.8125	-4.4563	-4.3354	-3.6646	-4.6375	-4.0854	-4.2604	272.901	254.290	115.391	378.174	345.016	158.260	232.646	377.766	137.433	334.077	348.856	358.492	238.784	64.883	68.633	249.471	0.00094301	0.00057817	0.00021329	557.58	5.7267e-06	1.8465e-06	729.95	185.6	4.1529e-06	3.6567e-06	311.61	123.71	69.87	24.657	1.5493e-06	51.586	9.1079e-05	8.4787e-05	2.3113e-05	524.84	9.3896e-07	9.2396e-07	678.97	171.95	9.0808e-07	9.0914e-07	277.53	109.09	62.913	22.375	9.3352e-07	45.259	41.170	132.809	58.106	42.720	106.914	74.129	42.231	46.972	179.908	213.861	45.908	49.993	50.993	55.588	177.807	54.127	-8191	255	
4294.613	1	1	0	0	0.038549	0.15542	0.14429	0.22366	0.24764	0.13408	0.1483	0.10134	0.068976	0.039548	0.15505	0.20883	0.31521	0.19382	0.30181	0.073261	-4.2917	-3.7729	-4.4542	-4.1625	-3.6875	-4.625	-4.0583	-4.0667	-4.4729	-3.7396	-4.4688	-4.4021	-3.9479	-4.6896	-3.9562	-4.05	307.397	30.949	36.380	339.384	326.051	69.346	109.554	364.210	139.374	43.230	238.765	371.708	364.103	123.041	183.214	356.984	0.00085742	0.00028812	0.0001699	552.46	7.7326e-07	5.9944e-07	721.36	183.62	2.711e-06	3.8331e-06	306.94	122.16	69.386	24.588	3.8389e-06	50.787	8.843e-05	8.2543e-05	2.2904e-05	518.59	9.1933e-07	9.0218e-07	670.25	169.93	9.0268e-07	9.2136e-07	274.91	107.73	62.486	22.178	9.0475e-07	44.733	35.616	145.507	98.532	42.814	88.648	388.598	42.433	46.683	173.465	94.351	45.838	50.352	50.920	55.252	157.485	54.268	-8191	255	
4294.709	1	1	0	0	0.22156	0.15739	0.13197	0.10758	0.22596	0.14767	0.1261	0.13469	0.14832	0.058563	0.1482	0.074699	0.12796	0.1528	0.093447	0.21944	-4.1937	-3.7833	-4.2208	-4.5396	-3.6354	-4.6292	-4.2229	-3.85	-4.5875	-3.8229	-4.35	-4.6	-3.6625	-4.5271	-4.125	-3.8271	330.412	352.606	267.959	72.527	145.597	187.764	34.615	49.154	204.922	376.573	382.579	194.474	37.663	73.272	136.636	290.396	0.0010174	0.0004876	0.00016834	553	2.0324e-06	2.3241e-06	718.94	184.9	2.8765e-06	4.169e-06	307.21	123.24	70.091	24.319	3.56e-06	50.826	8.924e-05	8.4219e-05	2.3219e-05	520.32	9.2158e-07	9.1179e-07	669.04	171.01	9.1452e-07	9.1352e-07	275.38	108.38	62.773	22.059	9.1619e-07	44.596	34.687	105.886	138.076	42.764	125.229	189.274	42.467	46.860	131.385	166.387	45.727	50.480	51.317	55.046	198.338	54.246	-8191	255	
4294.805	1	1	0	0	0.11409	0.094224	0.090182	0.012229	0.074072	0.10125	0.18349	0.0489	0.091404	0.045922	0.062792	0.13322	0.17001	0.28148	0.13544	0.092303	-4.2292	-3.8625	-4.0729	-4.5958	-3.7896	-4.5208	-4.4396	-3.875	-4.6375	-3.9292	-4.1458	-4.75	-3.6729	-4.5875	-4.3812	-4.0354	270.531	69.416	149.366	136.179	95.623	301.286	43.880	314.446	92.470	35.598	43.220	359.661	46.087	272.175	263.058	83.917	0.00085099	0.00040467	0.00022613	550.5	3.5252e-06	2.7771e-06	718.62	184.17	2.8604e-06	9.1008e-07	306.86	122.71	69.793	24.448	2.7742e-06	50.815	8.8868e-05	8.2672e-05	2.3423e-05	520.98	9.2379e-07	9.0755e-07	669.79	171.38	9.1811e-07	9.3935e-07	275.38	108.22	62.707	22.043	9.1457e-07	44.611	35.738	119.421	129.119	42.703	100.014	39.247	42.289	47.045	210.687	82.516	45.892	50.317	51.283	55.286	164.691	54.080	-8191	255	
4294.902	1	1	0	0	0.05377	0.18292	0.16558	0.16933	0.33914	0.27681	0.18319	0.23842	0.14897	0.083598	0.17707	0.10781	0.16784	0.087953	0.23486	0.14737	-4.3708	-4.1604	-3.8979	-4.6771	-3.6458	-4.3333	-4.5167	-3.6604	-4.4938	-4.0938	-4.0417	-4.7333	-3.7958	-4.3229	-4.5875	-3.7417	225.842	241.549	290.966	57.809	174.047	287.019	328.104	334.202	352.460	60.177	249.557	34.986	54.869	339.280	143.599	56.917	0.00090835	0.00016814	0.0002162	552.14	4.3651e-06	1.6891e-06	716.4	184.74	3.654e-06	3.1639e-06	307.92	123.27	69.926	24.212	2.3827e-06	50.543	8.9553e-05	8.4633e-05	2.3105e-05	521.31	9.3194e-07	9.232e-07	671.94	171.35	9.217e-07	9.0787e-07	276.1	108.77	62.772	21.982	9.0389e-07	44.412	42.663	381.504	135.206	42.813	147.995	352.683	42.297	47.025	142.416	133.948	45.706	50.022	51.315	55.050	155.684	54.226	-8191	255	
4294.998	1	1	0	0	0.14842	0.2118	0.18801	0.14212	0.18464	0.22196	0.16125	0.2104	0.1109	0.23038	0.11328	0.14319	0.0939	0.2574	0.083852	0.14768	-4.2312	-4.2292	-3.9062	-4.7646	-3.7854	-4.2937	-4.5229	-3.9104	-4.6667	-4.1312	-3.8229	-4.7604	-3.9875	-4.2729	-4.4729	-3.8292	325.432	259.265	201.734	188.530	357.222	44.509	140.416	307.270	204.695	174.474	318.622	365.787	317.502	279.587	351.319	306.723	0.00077854	0.00038439	6.9308e-05	550.66	1.0759e-06	1.8184e-06	716.54	184.92	4.446e-06	3.4279e-07	305.04	121.55	69.433	24.182	6.0397e-07	49.969	8.9052e-05	8.3755e-05	2.3144e-05	520.33	9.1892e-07	9.0796e-07	667.61	171.06	9.3192e-07	9.1094e-07	273.56	107.69	62.61	21.885	9.1497e-07	43.924	35.981	112.301	85.142	42.528	109.538	174.221	42.331	47.043	177.157	158.353	46.125	50.445	51.081	55.342	237.074	54.109	-8191	255	
4295.092	1	1	0	0	0.17214	0.084724	0.015529	0.2315	0.28338	0.12447	0.18605	0.11073	0.21845	0.16966	0.093796	0.11932	0.19506	0.11305	0.0549	0.072477	-4.175	-4.2875	-3.6875	-4.625	-3.9792	-4.1813	-4.7458	-3.6375	-4.2354	-4.3812	-3.7729	-4.6729	-3.9417	-4.0375	-4.7292	-3.8104	40.699	286.782	53.549	364.405	120.780	295.248	281.681	345.016	90.426	168.207	319.222	105.697	343.853	311.983	263.011	328.489	0.00097823	0.0004865	0.00011989	550.32	3.162e-07	2.7457e-06	712.64	183.62	3.9335e-06	2.2713e-06	305.52	122.23	69.636	24.152	4.9921e-06	50.175	8.9524e-05	8.29e-05	2.311e-05	519.09	9.1467e-07	9.1894e-07	666.75	170.27	9.216e-07	8.9963e-07	274.15	107.99	62.49	21.909	9.1566e-07	44.235	43.843	101.446	41.437	42.760	220.892	180.300	42.427	47.129	193.930	160.810	45.748	50.059	50.993	55.180	154.297	54.242	-8191	255	
4295.213	1	1	0	0	0.076187	0.19904	0.22432	0.24707	0.078792	0.13124	0.1128	0.15394	0.109	0.090044	0.14914	0.13226	0.13097	0.06627	0.051461	0.064529	-3.9938	-4.4146	-3.5292	-4.6271	-4.1687	-3.9771	-4.7458	-3.9521	-4.0271	-4.5625	-3.8354	-4.4812	-4.15	-3.9938	-4.7354	-3.8833	63.784	300.074	74.354	289.321	208.125	353.645	317.686	45.911	172.363	199.319	292.505	370.890	80.632	315.849	162.962	124.754	0.00092057	0.00027331	0.00013972	552.3	1.6401e-06	2.1693e-06	718.63	185.07	4.2485e-06	2.314e-06	306.87	122.68	69.458	24.301	5.2709e-06	50.345	8.926e-05	8.1624e-05	2.3133e-05	520.48	9.2651e-07	9.1562e-07	670.63	171.51	9.0986e-07	9.0628e-07	275.8	108.38	62.793	21.907	9.1148e-07	44.236	38.999	145.879	122.790	42.421	130.644	191.160	42.574	46.909	158.616	139.849	45.799	50.076	51.128	55.389	187.234	54.257	-8191	255	
4295.309	1	1	0	0	0.16578	0.18678	0.19458	0.03406	0.17146	0.068059	0.23182	0.038028	0.038348	0.15686	0.29144	0.26273	0.15516	0.10771	0.3502	0.067864	-3.9958	-4.4979	-3.7583	-4.6104	-4.3729	-3.9354	-4.7125	-4.0125	-4.0875	-4.4938	-3.7125	-4.6396	-4.2833	-3.9396	-4.5354	-4.0479	261.498	33.037	257.511	333.190	64.222	239.896	336.302	218.737	72.466	367.990	359.156	387.528	157.010	249.427	62.328	30.330	0.0010558	0.00021934	0.00010317	555.06	3.3499e-06	1.2632e-06	724.74	185.66	1.9134e-06	2.5953e-06	310.37	122.66	70.196	24.244	4.0376e-06	50.383	9.0547e-05	8.351e-05	2.3233e-05	522.63	9.2273e-07	9.1579e-07	675.56	172.56	9.1635e-07	9.0394e-07	277.77	108.95	63.181	21.871	9.1989e-07	44.245	38.014	57.487	112.932	42.646	185.412	237.545	42.435	47.066	190.445	150.062	45.787	50.018	51.099	55.496	167.509	54.351	-8191	255	
4295.405	1	1	0	0	0.15172	0.19014	0.27958	0.17946	0.11877	0.074195	0.083766	0.21629	0.20461	0.097697	0.15294	0.15321	0.07397	0.063728	0.37048	0.11628	-3.7354	-4.4979	-3.7375	-4.475	-4.2792	-3.6792	-4.7667	-4.1021	-3.9604	-4.8708	-3.7625	-4.4979	-4.4187	-3.8333	-4.6125	-4.1625	317.562	321.565	309.582	67.499	36.222	180.747	311.507	100.664	192.761	135.885	374.606	324.153	175.788	179.047	304.564	379.717	0.00099247	0.00077499	9.6017e-06	551.6	2.641e-06	1.8426e-06	717.21	185.26	2.3732e-06	2.8254e-06	305.74	122.46	69.54	24.074	3.8128e-06	50.211	8.8424e-05	8.3652e-05	2.346e-05	520.48	9.1728e-07	9.3349e-07	669.53	171.61	9.2621e-07	9.0605e-07	274.67	107.95	62.54	21.791	9.0663e-07	43.925	387.939	171.099	173.523	42.477	167.674	140.104	42.397	47.159	207.928	172.362	45.654	50.139	51.209	55.540	159.762	54.352	-8191	255	
4295.477	1	1	0	0	0.2508	0.10097	0.040792	0.1876	0.23465	0.19865	0.11946	0.11885	0.2549	0.15313	0.13734	0.24984	0.17698	0.03967	0.13827	0.027529	-3.6188	-4.6333	-3.7729	-4.2958	-4.4437	-3.7313	-4.7063	-4.1792	-3.9167	-4.7479	-3.9708	-4.1312	-4.5437	-3.8167	-4.6229	-4.2667	150.279	45.742	268.978	33.257	111.348	74.561	232.373	192.257	262.935	212.216	338.954	225.285	369.914	238.387	87.958	41.684	0.00083314	0.00018494	0.0001879	550.72	2.4602e-06	2.4829e-06	712.07	183.76	3.8554e-06	2.8738e-06	303.54	122.1	69.181	24.11	1.4813e-06	50.269	9.0053e-05	8.2672e-05	2.2876e-05	518.22	9.01e-07	9.092e-07	667.01	170.48	8.9845e-07	8.8763e-07	273.71	107.82	62.455	21.817	9.0844e-07	44.083	42.980	74.125	73.963	42.652	158.728	155.447	42.573	47.167	126.969	205.398	46.015	50.216	51.441	54.985	179.857	54.171	-8191	255	
4295.597	1	1	0	0	0.083395	0.12073	0.077713	0.38778	0.11256	0.24511	0.14075	0.13103	0.22287	0.058527	0.28191	0.22987	0.21164	0.22414	0.1935	0.034551	-3.4854	-4.7521	-3.8104	-4.1458	-4.7021	-3.7792	-4.4458	-4.2688	-3.7208	-4.6958	-4.0667	-3.9646	-4.5875	-3.8625	-4.2708	-4.4313	288.126	118.033	140.835	304.965	307.427	83.243	130.634	76.118	327.025	73.450	361.166	342.769	336.454	249.006	249.714	306.320	0.00079528	0.00055934	0.00012355	550.55	1.8837e-06	1.6904e-06	719.09	184.25	6.3228e-06	2.8372e-06	306.04	123.06	69.595	24.658	1.8722e-06	50.874	8.8567e-05	8.2223e-05	2.3127e-05	517.78	9.0775e-07	9.058e-07	668.73	170.89	9.1914e-07	9.1106e-07	275.24	108.7	62.838	22.15	9.159e-07	44.659	43.572	157.466	36.612	42.570	136.232	183.711	42.342	47.206	215.325	185.775	45.761	49.923	51.021	55.341	215.601	54.258	-8191	255	
4295.694	1	1	0	0	0.22847	0.13807	0.20167	0.13723	0.19903	0.096161	0.25664	0.12423	0.2611	0.14611	0.2597	0.025813	0.25429	0.12212	0.084041	0.060304	-3.2958	-4.4042	-4	-4.0167	-4.5167	-3.7438	-4.4062	-4.5896	-3.7458	-4.5083	-4.0563	-4.1375	-4.6583	-3.8542	-4.3604	-4.5896	78.314	200.540	130.891	284.726	122.162	195.706	328.588	156.068	330.496	269.440	243.442	228.250	336.704	170.008	232.834	149.615	0.00091242	0.00015974	0.00018283	549.53	1.1911e-06	3.6929e-06	720.07	184.9	3.8451e-06	3.4084e-06	307.46	122.73	69.625	24.258	2.0789e-06	50.707	8.8695e-05	8.4038e-05	2.3115e-05	519.06	8.983e-07	9.0682e-07	672.1	171.49	9.1797e-07	9.0564e-07	275.65	108.41	62.797	21.987	9.125e-07	44.587	33.046	336.909	127.996	42.667	131.604	100.107	42.100	47.128	213.002	81.501	45.804	50.132	50.909	55.138	276.657	54.538	-8191	255	
4295.790	1	1	0	0	0.11818	0.16368	0.10222	0.085652	0.15883	0.2069	0.059758	0.10966	0.19325	0.037512	0.18996	0.10277	0.14616	0.23954	0.1005	0.17719	-3.4104	-4.5354	-4.0396	-4.1271	-4.7312	-3.8292	-4.3375	-4.5833	-3.7042	-4.5958	-4.2438	-3.8896	-4.7583	-3.8438	-4.0479	-4.7271	338.248	380.401	117.013	239.599	314.354	30.797	346.622	354.522	353.459	141.529	271.151	351.254	268.571	349.270	337.666	339.009	0.00090005	0.00030785	7.8315e-05	554.33	4.6028e-06	1.0937e-06	717.85	184.15	2.0429e-06	2.1033e-06	306.34	122.74	69.586	24.286	3.5469e-06	50.322	8.9692e-05	8.3673e-05	2.3449e-05	520.87	9.2134e-07	9.095e-07	669.11	170.67	9.274e-07	9.066e-07	274.53	108.03	62.378	21.875	9.1234e-07	44.048	388.181	52.486	92.138	42.667	93.996	350.281	42.449	47.106	246.020	294.831	45.923	50.090	51.299	55.587	130.415	54.567	-8191	255	
4295.886	1	1	0	0	0.10605	0.25594	0.031685	0.1587	0.089909	0.056468	0.13975	0.12419	0.25662	0.22228	0.15499	0.34923	0.088058	0.076295	0.10953	0.21299	-3.3937	-4.4479	-4.3021	-3.9771	-4.6208	-4.0021	-4.2542	-4.6917	-3.8125	-4.4167	-4.5042	-3.8771	-4.6042	-4.0708	-4.0188	-4.7042	230.437	383.712	284.767	379.946	227.857	181.195	182.394	243.895	195.079	353.604	195.862	318.486	250.978	217.491	206.831	269.445	0.00092243	0.00026677	0.00010835	547.36	1.6418e-06	4.4386e-06	714.71	183.41	2.8169e-06	3.9426e-06	303.32	120.83	68.974	24.09	7.5294e-07	49.528	8.7225e-05	8.2901e-05	2.2955e-05	517.73	9.0796e-07	9.0722e-07	666.48	170.2	9.0299e-07	9.0624e-07	272.75	107.09	62.213	21.728	9.2013e-07	43.754	34.215	144.030	79.333	42.698	158.689	156.676	42.305	47.184	87.290	130.190	45.868	50.283	51.141	55.366	144.548	54.611	-8191	255	
4295.982	1	1	0	0	0.11516	0.098261	0.13483	0.16079	0.14943	0.16005	0.27396	0.07575	0.18007	0.092632	0.11125	0.17374	0.20369	0.20931	0.035964	0.23665	-3.5875	-4.2646	-4.4688	-3.7938	-4.5687	-4.05	-4.0521	-4.7438	-3.8375	-4.1271	-4.5229	-3.7042	-4.5271	-4.1792	-3.7562	-4.7375	121.974	164.220	302.718	271.325	175.753	116.538	331.021	348.970	290.300	333.474	334.081	104.390	97.616	366.315	308.215	36.809	0.00092946	0.00033253	0.00014985	549.07	1.5655e-06	3.4087e-06	713.09	182.98	5.1318e-06	1.7482e-06	304.93	121.8	68.61	24.038	6.7985e-06	50.34	8.8821e-05	8.3576e-05	2.3113e-05	516.79	9.13e-07	9.1457e-07	666.41	169.67	9.1606e-07	9.032e-07	273.34	107.21	61.92	21.73	9.294e-07	44.094	32.329	144.131	138.559	42.645	63.857	167.035	42.312	47.195	181.548	165.966	45.864	50.281	51.258	55.753	216.662	54.263	-8191	255	
4296.078	1	1	0	0	0.056969	0.29982	0.10925	0.19528	0.37994	0.10794	0.08051	0.11278	0.10846	0.1877	0.19588	0.20605	0.016637	0.15233	0.017295	0.15199	-3.5854	-3.9333	-4.5667	-3.6188	-4.3875	-4.3313	-4.0042	-4.6479	-4.0479	-4.1417	-4.7083	-3.725	-4.4917	-4.5396	-3.8208	-4.6958	236.602	234.548	170.743	289.332	228.597	370.775	275.195	295.840	313.858	164.074	333.226	76.272	116.286	140.313	232.707	29.788	0.0011033	0.00041189	7.9001e-05	553.9	4.1452e-06	3.5597e-06	720.51	183.59	1.163e-06	3.1198e-06	306.84	122.67	69.413	24.36	1.8722e-06	50.774	8.9088e-05	8.36e-05	2.2969e-05	519.46	9.1394e-07	9.135e-07	671.96	170.63	9.3625e-07	9.1386e-07	274.6	108.2	62.254	21.987	9.2702e-07	44.566	33.747	109.743	368.863	42.419	101.481	173.550	42.424	47.131	181.958	211.229	45.872	50.022	50.936	55.316	176.858	54.468	-8191	255	
4296.174	1	1	0	0	0.17526	0.12377	0.016762	0.3885	0.043951	0.26339	0.18359	0.21614	0.21024	0.20089	0.22675	0.048016	0.063177	0.13177	0.11038	0.11402	-3.6979	-3.9958	-4.5771	-3.8854	-4.2542	-4.4521	-3.8187	-4.6479	-4.0875	-4.0563	-4.7	-3.6562	-4.2937	-4.5042	-3.7979	-4.5563	268.733	326.592	365.860	372.363	125.038	54.250	300.272	54.734	43.223	310.472	154.895	40.886	240.571	368.519	85.179	351.550	0.00094574	0.00052805	5.3376e-05	550.32	1.1787e-06	2.0686e-06	720.65	182.96	5.1199e-06	6.8992e-07	303.29	121.1	68.328	23.814	2.4599e-06	49.535	8.938e-05	8.3434e-05	2.3191e-05	519.62	9.1182e-07	9.1638e-07	669.79	169.59	9.2076e-07	9.1222e-07	272.21	106.58	61.462	21.536	9.1668e-07	43.6	45.149	78.720	372.946	42.251	121.922	53.832	42.317	47.018	246.910	83.156	46.004	50.113	51.221	55.417	164.734	54.313	-8191	255	
4296.293	1	1	0	0	0.17053	0.1853	0.21038	0.29957	0.076662	0.11298	0.11247	0.12657	0.062696	0.10407	0.067552	0.11787	0.19513	0.1218	0.04214	0.12121	-3.9167	-4.0104	-4.6813	-3.975	-4.1354	-4.4521	-3.725	-4.5417	-4.2312	-3.7375	-4.8375	-4.1583	-4.2396	-4.5375	-3.725	-4.5646	70.467	100.648	107.884	386.426	218.653	387.183	333.293	345.208	62.676	55.216	273.714	365.554	240.100	53.892	80.972	362.067	0.00092717	0.00018566	7.8e-05	545.32	3.3252e-06	3.6736e-06	713.54	181.55	4.0658e-06	6.5914e-06	302.6	119.76	68.181	23.453	1.2602e-06	49.308	8.873e-05	8.2438e-05	2.3088e-05	515.38	9.0673e-07	9.1337e-07	665.61	168.84	9.2199e-07	9.0954e-07	271.53	106.02	61.466	21.296	9.2195e-07	43.383	35.596	159.489	120.302	42.532	166.706	157.609	42.078	46.980	136.216	118.247	45.842	50.052	51.092	55.619	145.194	54.366	-8191	255	
4296.389	1	1	0	0	0.15873	0.17281	0.1263	0.19126	0.24153	0.11187	0.19975	0.12067	0.026273	0.16838	0.16742	0.1145	0.080734	0.10819	0.085694	0.15443	-3.9313	-3.6333	-4.6375	-4.0312	-4.0479	-4.5563	-3.7708	-4.3542	-4.4479	-3.9188	-4.7063	-4.0896	-4.0583	-4.7646	-3.7	-4.45	128.597	44.180	217.852	258.685	80.115	118.133	284.086	56.249	124.084	358.696	242.792	319.942	204.841	62.812	295.501	336.251	0.0011197	0.00041242	9.1624e-05	546.04	3.4171e-06	6.5391e-06	711.23	182.85	5.3813e-06	1.3721e-06	303.91	121.02	68.721	24.1	1.542e-06	50.354	8.9428e-05	8.3353e-05	2.28e-05	515.86	9.0462e-07	9.0251e-07	665.39	169.85	9.1202e-07	9.1483e-07	272.25	106.98	61.839	21.693	9.2325e-07	44.127	32.667	159.498	119.326	42.808	76.431	180.598	42.326	46.748	201.274	387.732	46.027	50.330	51.336	55.565	106.999	54.276	-8191	255	
4296.485	1	1	0	0	0.10061	0.10406	0.33509	0.32056	0.12965	0.17226	0.12174	0.25247	0.16748	0.056283	0.086736	0.13047	0.041835	0.28022	0.19238	0.21255	-4.0771	-3.8063	-4.6271	-4.1937	-3.9792	-4.6375	-3.9688	-4.2312	-4.4104	-3.5375	-4.4563	-4.35	-3.9958	-4.5583	-3.7208	-4.2271	192.216	290.744	277.869	374.039	160.547	99.545	89.579	322.751	202.246	210.929	380.027	328.836	50.372	199.586	92.982	373.054	0.00091927	0.00017592	3.9491e-05	549.31	7.9011e-07	1.3428e-06	711.29	182.79	3.1996e-06	3.1999e-06	303.58	122.4	68.905	24.439	4.0001e-06	50.975	8.9249e-05	8.4929e-05	2.3213e-05	515.73	9.2547e-07	9.1642e-07	664.55	169.97	9.3098e-07	9.3769e-07	272.89	108.08	62.023	22.043	9.2485e-07	44.791	37.806	62.877	55.027	42.536	177.199	118.239	42.524	46.889	180.089	192.838	46.033	50.237	50.578	55.347	164.692	54.251	-8191	255	
4296.582	1	1	0	0	0.10623	0.24156	0.17885	0.036928	0.068407	0.22141	0.21069	0.11924	0.085243	0.21662	0.33864	0.27615	0.079163	0.13435	0.097532	0.14934	-4.2146	-3.6646	-4.5729	-4.2167	-3.7604	-4.5542	-3.8792	-4.0646	-4.4208	-3.5792	-4.4521	-4.3125	-3.7896	-4.6083	-3.9479	-4.1771	315.268	72.934	193.123	139.962	133.336	103.382	294.569	324.033	374.316	282.421	349.379	227.725	353.423	49.085	225.915	112.089	0.00086513	0.00018883	4.7067e-06	546.67	9.4653e-07	2.9374e-06	713.19	178.56	1.898e-06	3.363e-06	301.04	120.97	68.312	24.646	4.2803e-06	51.344	8.919e-05	8.4631e-05	2.3384e-05	514.06	9.307e-07	9.2109e-07	663.78	166.72	9.0848e-07	9.1016e-07	270.56	106.66	61.344	22.068	9.1947e-07	45.002	40.800	109.603	206.563	42.691	124.270	185.045	42.352	46.832	189.881	138.959	45.934	50.232	51.063	55.168	171.602	54.094	-8191	255	
4296.702	1	1	0	0	0.067484	0.29691	0.21977	0.19116	0.031354	0.072914	0.13992	0.11396	0.18494	0.17226	0.14138	0.2387	0.20188	0.084172	0.1249	0.17431	-4.4792	-3.75	-4.2979	-4.4625	-3.7188	-4.6375	-4.0854	-4.0437	-4.6542	-3.7417	-4.4437	-4.5062	-3.6562	-4.7	-4.2042	-3.9188	219.018	181.693	384.298	374.209	301.888	171.942	318.984	330.163	365.766	114.057	334.558	378.117	323.804	186.579	138.325	350.881	0.0010628	0.00031408	0.00011075	540.15	2.2506e-06	2.2347e-06	709.41	181.04	1.5508e-06	2.0631e-06	303.67	122.94	69.288	24.624	5.8708e-06	51.508	8.7837e-05	8.3009e-05	2.3236e-05	510.11	9.1664e-07	9.0194e-07	662.84	168.33	9.1226e-07	9.1018e-07	272.96	108.28	62.408	22.26	9.2695e-07	45.327	39.812	148.160	52.470	42.600	183.485	174.152	42.537	46.793	141.604	195.693	45.937	50.555	51.153	55.394	180.095	54.040	-8191	255	
4296.774	1	1	0	0	0.074065	0.16096	0.14324	0.006546	0.034258	0.021624	0.099059	0.20905	0.06505	0.035009	0.083297	0.24684	0.11994	0.032837	0.12119	0.31967	-4.3958	-3.9083	-4.1625	-4.5208	-3.6042	-4.5792	-4.3292	-3.8771	-4.6729	-4.0563	-4.2729	-4.4938	-3.7146	-4.6083	-4.2625	-3.9688	31.578	63.264	101.153	61.006	122.406	95.640	345.585	351.471	309.053	198.297	282.999	317.033	314.874	353.039	251.969	329.925	0.00098434	0.00048024	0.000127	542.61	2.3435e-06	3.9883e-06	708.63	180.79	1.6595e-06	2.2528e-06	305.85	123.59	69.061	24.763	1.9351e-06	51.548	9.0316e-05	8.5477e-05	2.3265e-05	509.65	9.3425e-07	9.2123e-07	661.55	167.73	9.2306e-07	9.1879e-07	272.86	108.72	62.245	22.366	9.422e-07	45.359	45.080	86.044	68.464	42.651	122.925	136.342	42.578	47.233	227.417	94.412	45.987	50.195	51.030	55.366	254.066	54.454	-8191	255	
4296.895	1	1	0	0	0.062077	0.1869	0.18105	0.12147	0.047353	0.15383	0.18285	0.091643	0.04428	0.096546	0.090403	0.18474	0.24648	0.072068	0.15939	0.18771	-4.2792	-3.8292	-4.0437	-4.7396	-3.6104	-4.4854	-4.5208	-3.7292	-4.7333	-3.9417	-4.0542	-4.5167	-3.8479	-4.4521	-4.4021	-3.8937	52.432	48.674	97.327	316.141	355.991	336.124	296.964	345.709	287.957	341.226	316.112	318.248	326.758	355.372	62.147	31.153	0.00092463	0.00035764	0.00018181	542.95	9.1217e-07	5.3335e-06	708.92	180.84	5.5614e-06	4.2258e-06	306.76	125.14	69.714	24.986	4.3282e-06	52.559	9.1351e-05	8.4694e-05	2.3419e-05	511.62	9.4576e-07	9.2116e-07	662.03	168.15	9.3795e-07	9.4026e-07	275.16	109.94	62.901	22.682	9.2751e-07	46.217	43.899	179.361	84.446	42.617	36.033	130.690	42.477	47.181	277.986	146.871	45.748	50.446	51.056	55.316	185.229	54.150	-8191	255	
4296.989	1	1	0	0	0.091647	0.12382	0.12381	0.1016	0.068569	0.18963	0.19031	0.03782	0.14146	0.14894	0.15186	0.33349	0.11049	0.057388	0.28158	0.1885	-4.4812	-3.9646	-3.8833	-4.7438	-3.8479	-4.2167	-4.4375	-3.7729	-4.7021	-3.9688	-3.95	-4.6312	-3.9729	-4.2854	-4.5417	-3.9188	327.377	259.080	280.237	35.012	54.195	243.547	326.647	84.110	79.831	74.760	150.554	280.230	303.892	300.882	83.147	157.763	0.00090984	0.00032271	5.3797e-05	541.84	3.7996e-06	3.2123e-06	712.48	180.97	5.5694e-06	3.9591e-06	306.84	125.08	70.018	25.17	2.6553e-06	52.669	9.0962e-05	8.5785e-05	2.3624e-05	512.18	9.4618e-07	9.2786e-07	666.88	168.93	9.279e-07	9.271e-07	275.21	110.22	62.994	22.782	9.2025e-07	46.128	33.549	104.587	173.975	42.546	90.550	172.184	42.729	46.855	209.988	202.357	45.988	50.092	51.136	55.073	184.600	54.313	-8191	255	
4297.085	1	1	0	0	0.21582	0.32571	0.24481	0.20021	0.10913	0.12344	0.058569	0.14647	0.093695	0.17503	0.20953	0.15319	0.23277	0.1391	0.070394	0.21374	-4.3562	-4.1875	-3.7958	-4.7917	-3.8479	-4.0896	-4.6917	-3.7687	-4.4292	-4.2812	-3.9104	-4.6875	-3.8604	-4.0417	-4.6042	-3.7667	69.833	99.920	338.861	341.644	184.459	34.216	375.721	203.927	387.818	232.366	335.083	317.212	365.137	330.756	73.395	40.295	0.00092764	0.00015971	1.326e-05	537.76	1.6698e-06	1.7368e-06	707.53	180.45	3.3814e-06	3.2585e-06	300.86	122.44	68.68	24.823	4.6377e-06	51.81	9.0132e-05	8.4952e-05	2.3454e-05	507.62	9.1953e-07	9.0711e-07	659.12	167.31	9.3853e-07	9.1261e-07	271.24	108.41	61.988	22.387	9.2447e-07	45.48	48.547	257.414	63.898	42.621	117.280	160.775	42.512	47.114	134.987	145.551	45.651	49.861	51.007	55.270	136.458	54.488	-8191	255	
4297.181	1	1	0	0	0.21431	0.15431	0.20876	0.24596	0.096663	0.14598	0.29122	0.17988	0.29508	0.026709	0.20448	0.11367	0.22784	0.092144	0.084996	0.037035	-4.0958	-4.2333	-3.7208	-4.7396	-4.0771	-4.1542	-4.7542	-3.7021	-4.3292	-4.5396	-3.7604	-4.4604	-3.9896	-3.9542	-4.7063	-3.8896	283.143	53.537	298.366	348.113	182.118	254.564	249.798	337.875	286.467	151.642	376.119	193.169	381.721	315.994	382.318	192.020	0.0010062	0.00058208	0.00015836	534.95	2.7774e-06	3.1881e-06	705.37	178.41	2.2127e-06	3.9546e-06	304.64	124.31	69.804	24.952	3.8455e-06	52.454	9.0278e-05	8.3896e-05	2.3666e-05	505.34	9.353e-07	9.3324e-07	658.56	166.57	9.1678e-07	9.2856e-07	273.01	109.67	62.817	22.603	9.3224e-07	45.964	38.386	83.932	96.422	42.313	103.773	160.989	42.432	47.333	222.584	185.110	46.241	50.592	51.400	55.333	184.882	54.262	-8191	255	
4297.277	1	1	0	0	0.12607	0.036694	0.20957	0.17877	0.28449	0.18025	0.22666	0.20272	0.16689	0.2199	0.075174	0.18936	0.25666	0.13846	0.23625	0.12216	-4.0167	-4.4437	-3.6542	-4.7583	-4.2167	-3.9562	-4.75	-3.9646	-4.2542	-4.6354	-3.8229	-4.7063	-4.225	-3.9333	-4.7333	-3.9188	375.923	255.032	50.458	281.192	275.142	204.685	325.154	346.009	288.476	264.763	153.913	324.235	290.460	374.756	367.793	330.193	0.00086906	0.00024841	0.00015892	537.4	3.1975e-06	3.909e-06	711.44	180.8	4.6849e-06	3.9035e-07	308.29	125.36	70.479	25.184	3.8846e-06	53.262	9.1688e-05	8.3993e-05	2.3493e-05	507.93	9.2287e-07	9.2954e-07	663.68	168.3	9.298e-07	9.2822e-07	276.16	110.98	63.539	22.806	9.3209e-07	46.474	46.605	99.948	100.482	42.823	115.359	199.203	42.577	47.025	193.372	172.214	46.254	50.537	51.445	55.654	177.946	54.528	-8191	255	
4297.374	1	1	0	0	0.027903	0.18545	0.16669	0.33716	0.3068	0.086782	0.10385	0.073289	0.15976	0.30532	0.053446	0.092965	0.15251	0.21463	0.16055	0.21951	-3.9333	-4.5542	-3.8104	-4.6292	-4.2354	-3.8167	-4.7208	-4.0521	-4.1292	-4.5813	-3.7125	-4.5083	-4.3604	-3.75	-4.5792	-4.1062	207.228	266.583	102.366	316.205	249.148	340.651	324.434	153.900	178.940	72.409	361.881	214.856	341.462	348.905	341.520	355.690	0.0010255	0.00043848	0.00012211	541.66	2.9789e-06	1.147e-06	717.71	182.15	4.3636e-06	2.267e-06	308.01	125.09	70.147	24.95	2.7657e-06	51.853	9.1213e-05	8.4003e-05	2.3303e-05	512.29	9.1465e-07	9.2513e-07	670.26	169.24	9.2856e-07	9.2282e-07	275.97	110.33	63.014	22.538	9.3389e-07	45.653	34.168	137.879	130.685	42.733	68.523	320.004	42.753	47.170	194.332	223.674	46.257	50.539	51.608	55.492	156.467	54.504	-8191	255	
4297.470	1	1	0	0	0.26596	0.13785	0.1987	0.17972	0.05684	0.060591	0.20374	0.19904	0.16621	0.33238	0.1415	0.10017	0.23811	0.10243	0.17067	0.18686	-3.7708	-4.6208	-3.8479	-4.275	-4.2396	-3.7917	-4.6562	-3.9437	-3.8542	-4.6104	-3.9646	-4.2125	-4.6104	-3.7604	-4.525	-4.2354	313.490	351.636	320.701	35.269	153.785	166.596	52.619	271.542	300.687	285.492	116.997	240.164	308.596	278.574	292.126	368.486	0.00098314	0.00027549	0.00016321	538.4	1.7053e-06	7.3639e-07	704.75	180.73	1.745e-06	1.0296e-06	302.81	122.82	69.279	24.388	3.3776e-06	51.373	9.0078e-05	8.3869e-05	2.3575e-05	508.11	9.2381e-07	9.2665e-07	660.76	167.36	9.2944e-07	9.1455e-07	271.77	108.23	62.075	22.111	9.1809e-07	45.056	45.286	156.541	85.042	42.437	76.485	386.185	43.004	47.165	199.662	166.373	45.743	50.381	51.277	55.656	145.729	54.610	-8191	255	
4297.566	1	1	0	0	0.24915	0.12555	0.03653	0.15918	0.17988	0.23242	0.10527	0.15035	0.060019	0.29083	0.11849	0.18526	0.07585	0.090603	0.11714	0.17212	-3.6646	-4.5479	-3.8083	-4.3146	-4.5042	-3.8458	-4.6687	-4.3792	-3.7958	-4.6125	-4.05	-4.1833	-4.5729	-3.7146	-4.5104	-4.3583	310.920	35.817	78.653	75.526	277.265	167.958	267.934	108.800	175.936	361.804	236.508	167.534	376.560	31.455	230.490	302.932	0.0010686	0.00037457	0.00020926	537.62	4.5473e-06	3.1269e-06	703.78	179.45	3.7444e-06	4.5226e-06	304.17	123.81	68.844	24.94	4.6406e-06	52.164	9.0183e-05	8.2503e-05	2.3383e-05	507.75	9.189e-07	9.1315e-07	660.01	167.09	9.4309e-07	9.1486e-07	273.23	109.05	62.334	22.467	9.2727e-07	45.884	35.531	147.912	84.704	42.842	108.555	233.778	42.830	47.506	197.080	161.445	46.268	50.496	51.340	55.384	162.585	54.350	-8191	255	
4297.662	1	1	0	0	0.075069	0.1119	0.095877	0.21454	0.099861	0.11921	0.066927	0.063628	0.045086	0.1168	0.13659	0.11822	0.23072	0.096267	0.1273	0.30709	-3.6021	-4.6771	-4.0417	-4.0292	-4.6604	-3.8937	-4.4396	-4.5229	-3.75	-4.5521	-4.0896	-3.9771	-4.6333	-3.8458	-4.3208	-4.4292	201.260	90.509	327.759	324.582	256.566	263.006	307.160	45.105	269.320	257.661	63.662	90.624	179.606	93.151	355.906	57.871	0.0010722	0.00032888	8.2315e-05	537.26	2.793e-06	5.5721e-06	707.53	179.94	4.9045e-06	6.1378e-06	305.94	124.32	69.479	25.132	3.3841e-06	52.77	8.9831e-05	8.4144e-05	2.3679e-05	506.67	9.2152e-07	9.2681e-07	662.53	167.13	9.2741e-07	9.1948e-07	273.88	109.32	62.386	22.7	9.1998e-07	46.25	35.788	378.571	106.122	42.753	185.226	153.252	42.441	47.453	150.521	149.344	46.388	50.342	51.457	55.561	231.127	54.497	-8191	255	
4297.783	1	1	0	0	0.3406	0.074698	0.032334	0.17888	0.026768	0.17662	0.28282	0.17912	0.2107	0.033352	0.15554	0.20706	0.25426	0.052102	0.16624	0.083186	-3.4938	-4.6271	-4.2396	-3.9813	-4.6229	-3.7021	-4.4458	-4.5437	-3.7708	-4.6104	-4.2875	-3.8667	-4.725	-3.9062	-4.1208	-4.6167	210.218	254.712	155.752	375.209	76.288	237.080	343.932	322.347	80.947	210.081	120.300	272.984	56.914	193.880	42.962	268.453	0.001123	0.00035313	8.1836e-05	535.99	5.1397e-06	4.4555e-06	711.25	179.18	7.0439e-06	3.6409e-06	306.45	123.71	69.015	25.082	3.5885e-06	52.119	9.0207e-05	8.598e-05	2.3552e-05	506.55	9.2438e-07	9.2961e-07	663.8	166.8	9.4115e-07	9.2603e-07	274.45	109.08	62.197	22.511	9.3777e-07	45.796	35.152	139.152	86.219	42.779	137.310	162.121	42.911	47.087	229.987	161.469	46.259	50.547	51.447	55.399	136.771	54.388	-8191	255	
4297.879	1	1	0	0	0.051699	0.122	0.14862	0.1532	0.057287	0.17325	0.18425	0.2611	0.12901	0.28944	0.069753	0.11666	0.22529	0.078461	0.083143	0.19197	-3.4333	-4.5417	-4.1687	-3.8604	-4.6479	-3.8229	-4.2458	-4.6	-3.7292	-4.4625	-4.3958	-3.9375	-4.8042	-3.9271	-3.8771	-4.6542	240.473	115.298	252.388	364.573	168.474	43.995	75.262	356.348	291.463	274.508	53.688	270.879	302.865	358.543	259.548	330.881	0.0008859	0.00018991	7.6467e-05	535.63	1.0634e-06	1.2973e-06	705.9	179.25	2.2557e-06	2.8516e-06	303.81	122.74	68.463	24.702	6.2172e-06	52.109	9.044e-05	8.3045e-05	2.3319e-05	505.62	9.3535e-07	9.2392e-07	659.31	166.34	9.2632e-07	9.1641e-07	272.66	108.31	61.799	22.348	9.1527e-07	45.732	37.873	202.537	64.233	42.682	97.578	123.603	42.672	47.454	229.042	156.208	46.291	50.402	51.916	55.421	151.081	54.731	-8191	255	
4297.975	1	1	0	0	0.17316	0.25377	0.097049	0.17593	0.13694	0.14207	0.17595	0.18774	0.042371	0.10317	0.25539	0.05326	0.16584	0.077601	0.32027	0.050781	-3.4021	-4.4917	-4.3771	-3.7729	-4.7417	-3.9646	-4.0333	-4.6458	-3.7458	-4.3729	-4.5437	-3.5417	-4.625	-4.0146	-3.7854	-4.6042	285.259	174.850	293.820	45.799	124.539	199.714	231.147	65.957	266.835	77.360	370.380	233.800	75.737	308.719	231.177	51.015	0.0010438	0.00034713	0.00015577	534.8	2.0043e-06	4.64e-06	712.5	178.7	2.5603e-06	2.4707e-06	304.96	123.39	69.377	24.738	2.956e-06	52.297	9.0901e-05	8.2772e-05	2.3121e-05	506.1	9.1677e-07	9.1361e-07	662.54	166.19	9.3514e-07	9.1888e-07	273.43	109.01	62.283	22.462	9.1175e-07	46.113	34.522	85.146	77.148	42.731	237.752	139.190	42.547	47.517	150.236	197.002	45.984	50.523	51.292	55.191	175.575	54.404	-8191	255	
4298.071	1	1	0	0	0.075523	0.09788	0.058419	0.11067	0.3154	0.026471	0.11769	0.20006	0.39227	0.080969	0.1619	0.066613	0.26231	0.16927	0.06207	0.12903	-3.4333	-4.3521	-4.4938	-3.85	-4.6146	-4.2625	-4.0375	-4.6083	-3.7542	-4.1271	-4.65	-3.7396	-4.325	-4.2958	-3.9083	-4.7021	265.000	201.536	259.151	370.521	306.809	376.074	68.021	151.043	338.365	319.404	154.676	72.838	376.372	373.381	320.669	32.664	0.001125	0.00021373	0.00013264	539	3.2972e-06	3.0414e-06	706.74	179.06	3.9687e-06	2.5816e-06	305.9	123.88	68.969	24.868	2.3751e-06	52.641	9.0029e-05	8.3193e-05	2.3208e-05	506.24	9.193e-07	9.2068e-07	662.76	166.99	9.3756e-07	9.2267e-07	275.06	109.17	62.184	22.517	9.2821e-07	46.255	30.087	70.948	84.236	42.733	113.932	142.613	42.629	46.956	203.764	171.816	46.030	50.482	51.401	55.330	133.983	54.599	-8191	255	
4298.165	1	1	0	0	0.10255	0.06927	0.19126	0.14108	0.12986	0.1045	0.15763	0.11537	0.05992	0.11465	0.2207	0.049841	0.1855	0.18003	0.2567	0.12431	-3.6437	-4.1104	-4.5188	-3.7313	-4.3917	-4.2771	-3.9958	-4.7188	-3.9875	-4.225	-4.7167	-3.8521	-4.5062	-4.4688	-3.7542	-4.7562	177.442	362.020	133.462	359.568	182.777	204.606	366.879	294.491	120.112	86.786	371.949	158.087	338.819	297.455	179.494	352.272	0.0010357	6.8301e-05	7.3454e-05	539.26	2.022e-06	2.2454e-06	716.04	181	5.7042e-06	2.9614e-06	308.14	125.53	69.308	25.145	1.3389e-06	53.256	9.0088e-05	8.4029e-05	2.3267e-05	508.07	9.2178e-07	9.1918e-07	668.44	167.88	9.223e-07	9.2454e-07	277.56	110.37	62.611	22.705	9.2024e-07	46.665	44.777	370.602	89.864	42.592	118.743	122.459	42.879	47.343	208.757	212.224	46.371	50.543	51.037	55.485	175.145	54.710	-8191	255	
4298.263	1	1	0	0	0.15708	0.098665	0.033339	0.10504	0.094537	0.12172	0.17184	0.20676	0.1176	0.070879	0.25256	0.15465	0.20354	0.11731	0.099314	0.10519	-3.7396	-3.8708	-4.6417	-3.9313	-4.2792	-4.4896	-3.7667	-4.6188	-4.1417	-3.8937	-4.6771	-3.9542	-4.2646	-4.5896	-3.6896	-4.6271	237.644	255.546	180.978	66.816	47.495	110.793	375.421	367.825	112.649	67.560	293.670	115.808	315.648	329.622	46.545	294.909	0.0010562	0.00021047	7.8884e-05	537.21	4.7165e-06	3.347e-06	708.2	181.17	3.0135e-06	3.2554e-06	305.55	123.52	69.061	25.164	5.0406e-07	52.871	8.9301e-05	8.4344e-05	2.3397e-05	507.27	9.2926e-07	9.1218e-07	662.49	167.41	9.0577e-07	9.1595e-07	274.25	109.38	61.984	22.661	9.2766e-07	46.382	39.947	103.077	148.411	42.697	121.192	111.210	42.784	47.402	98.468	127.517	46.156	50.553	51.358	55.920	202.492	54.718	-8191	255	
4298.382	1	1	0	0	0.21099	0.17805	0.11812	0.18229	0.16591	0.19169	0.10865	0.14217	0.16949	0.25836	0.14434	0.021015	0.17265	0.12206	0.11322	0.24454	-3.9979	-3.9208	-4.7292	-4	-4.0792	-4.5292	-3.7354	-4.5521	-4.3958	-3.8792	-4.7083	-4.1479	-4.1458	-4.6271	-3.7979	-4.5312	149.981	181.071	271.111	369.042	352.931	101.117	332.699	329.655	203.205	243.267	354.859	176.281	290.318	378.882	279.256	384.943	0.00092009	0.00054449	0.00011141	534.62	2.2213e-06	3.2225e-06	707.88	178.83	3.6344e-06	3.3281e-06	304.77	123.25	69.162	24.847	4.8243e-06	52.604	8.819e-05	8.3683e-05	2.3275e-05	503.38	9.0896e-07	9.0668e-07	660.78	166.49	9.0756e-07	9.1822e-07	274.34	109.14	62.088	22.534	9.1713e-07	46.246	44.320	64.250	130.527	42.565	110.941	139.798	42.552	47.545	213.582	132.120	46.271	50.524	51.354	55.438	183.111	54.240	-8191	255	
4298.478	1	1	0	0	0.23419	0.063196	0.15517	0.20639	0.14738	0.20104	0.12931	0.10459	0.17523	0.09842	0.21225	0.1852	0.28272	0.042109	0.12995	0.10262	-4.1042	-3.8729	-4.7125	-4.0375	-4.2708	-4.6875	-3.9375	-4.3313	-4.3979	-3.8937	-4.6604	-4.2021	-3.8833	-4.6375	-3.7146	-4.3438	199.391	82.740	280.947	144.849	201.176	273.862	383.280	211.320	202.319	126.501	268.165	62.078	388.520	47.941	377.033	292.473	0.00085725	0.00021177	0.00012138	537.66	5.311e-06	2.6413e-06	711.49	179.3	4.3619e-06	3.1309e-06	306.68	124.31	69.625	25.14	4.2692e-06	53.098	8.8881e-05	8.4425e-05	2.3035e-05	506.27	9.3255e-07	9.1523e-07	663.29	166.93	9.2378e-07	9.1262e-07	276.1	110.12	62.682	22.73	9.2615e-07	46.439	46.405	81.264	97.508	42.749	161.230	154.070	42.770	47.405	161.661	116.070	46.521	50.613	51.413	55.312	154.178	54.283	-8191	255	
4298.575	1	1	0	0	0.11602	0.072882	0.062966	0.16841	0.076442	0.14681	0.17653	0.17981	0.24263	0.09874	0.1088	0.11384	0.12263	0.074164	0.23682	0.26488	-4.1312	-3.7521	-4.7	-4.4021	-3.875	-4.5271	-4.0771	-4.225	-4.2667	-3.8833	-4.6542	-4.4062	-4.0417	-4.7854	-3.7583	-4.15	296.018	233.827	188.896	280.476	214.783	261.472	160.385	323.254	137.479	61.407	290.980	83.582	163.394	347.647	313.454	335.255	0.0007633	0.0004399	0.00016108	540.35	3.4537e-06	3.7151e-06	713.65	180.43	9.4667e-07	1.2902e-06	308.6	126.57	69.963	25.201	3.6163e-06	53.455	8.9651e-05	8.4418e-05	2.3243e-05	509.08	9.264e-07	9.1259e-07	667.11	168.34	9.2569e-07	9.249e-07	277.45	111.41	63.179	22.856	9.2641e-07	46.986	29.961	172.484	150.825	42.958	79.771	136.657	42.601	47.289	126.292	119.510	46.115	50.719	51.054	55.324	221.732	54.388	-8191	255	
4298.671	1	1	0	0	0.22186	0.24256	0.29637	0.23276	0.10573	0.12937	0.13377	0.023257	0.16137	0.13296	0.1633	0.14793	0.15396	0.16381	0.072476	0.016223	-4.3604	-3.7521	-4.5771	-4.35	-3.8375	-4.6958	-3.825	-3.9833	-4.575	-3.7396	-4.5729	-4.45	-3.8	-4.7167	-3.9917	-4.1312	118.933	266.216	181.316	234.878	126.438	125.310	324.670	351.156	276.558	190.522	309.157	267.861	91.048	61.045	250.381	126.944	0.0010954	0.00044481	9.0607e-05	534.86	4.284e-06	4.3523e-06	710.27	181.21	3.5067e-06	2.1451e-06	307.76	125.21	69.496	25.211	5.7202e-06	52.719	9.0938e-05	8.41e-05	2.3484e-05	507.06	9.2403e-07	9.1747e-07	664.95	168.08	9.0695e-07	9.1431e-07	275.32	110.37	62.722	22.673	9.1792e-07	46.301	43.087	47.243	150.311	42.612	167.808	108.991	42.708	47.204	166.319	165.661	46.035	50.576	51.351	55.629	129.914	54.599	-8191	255	
#DATA ENDS
