BOXY.EXE: ISS Imagent and Oximeter Data Acquisition Program Version 0.80
Ascii Record File

#ACQ INFORMATION
2  Detector Channels 
16  External MUX Channels 
1  Auxiliary Channels 
5000  Waveform (CCF) Frequency (Hz)
1  Waveforms Skipped 
30  Waveforms Averaged 
1  Cycles Averaged 
16  Acquisitions per Waveform 
10.0806  Updata Rate (Hz) 

#FILE INFORMATION
TRUE -- External MUX Channel results are PARSED.
FALSE -- AC DC and Phase are NOT grouped.
TRUE -- Companion Program Settings File CREATED.
FALSE -- AC data not excluded
FALSE -- DC data not excluded
FALSE -- Phase data not excluded
FALSE -- Auxillary Chn. data not excluded
Tab delimiters

#CALIBRATION STATE
TRUE -- Waveform Calibration Values APPLIED.


#AUX CALIBRATION VALUES
Val Type	aux-1	

Term	1.0000e+00	
Factor	0.0000e+00	


#WF CALIBRATION VALUES
A = Detector Channel
Val Type	A-AC1	A-AC2	A-AC3	A-AC4	A-AC5	A-AC6	A-AC7	A-AC8	A-AC9	A-AC10	A-AC11	A-AC12	A-AC13	A-AC14	A-AC15	A-AC16	A-DC1	A-DC2	A-DC3	A-DC4	A-DC5	A-DC6	A-DC7	A-DC8	A-DC9	A-DC10	A-DC11	A-DC12	A-DC13	A-DC14	A-DC15	A-DC16	A-Ph1	A-Ph2	A-Ph3	A-Ph4	A-Ph5	A-Ph6	A-Ph7	A-Ph8	A-Ph9	A-Ph10	A-Ph11	A-Ph12	A-Ph13	A-Ph14	A-Ph15	A-Ph16	

Term	0.00000e+00	0.00000e+00	0.00000e+00	0.00000e+00	0.00000e+00	0.00000e+00	0.00000e+00	0.00000e+00	0.00000e+00	0.00000e+00	0.00000e+00	0.00000e+00	0.00000e+00	0.00000e+00	0.00000e+00	0.00000e+00	0.00000e+00	0.00000e+00	0.00000e+00	0.00000e+00	0.00000e+00	0.00000e+00	0.00000e+00	0.00000e+00	0.00000e+00	0.00000e+00	0.00000e+00	0.00000e+00	0.00000e+00	0.00000e+00	0.00000e+00	0.00000e+00	0.00000e+00	0.00000e+00	0.00000e+00	0.00000e+00	0.00000e+00	0.00000e+00	0.00000e+00	0.00000e+00	0.00000e+00	0.00000e+00	0.00000e+00	0.00000e+00	0.00000e+00	0.00000e+00	0.00000e+00	0.00000e+00	
Factor	1.00000e+00	1.00000e+00	1.00000e+00	1.00000e+00	1.00000e+00	1.00000e+00	1.00000e+00	1.00000e+00	1.00000e+00	1.00000e+00	1.00000e+00	1.00000e+00	1.00000e+00	1.00000e+00	1.00000e+00	1.00000e+00	1.00000e+00	1.00000e+00	1.00000e+00	1.00000e+00	1.00000e+00	1.00000e+00	1.00000e+00	1.00000e+00	1.00000e+00	1.00000e+00	1.00000e+00	1.00000e+00	1.00000e+00	1.00000e+00	1.00000e+00	1.00000e+00	X	X	X	X	X	X	X	X	X	X	X	X	X	X	X	X	

B = Detector Channel
Val Type	B-AC1	B-AC2	B-AC3	B-AC4	B-AC5	B-AC6	B-AC7	B-AC8	B-AC9	B-AC10	B-AC11	B-AC12	B-AC13	B-AC14	B-AC15	B-AC16	B-DC1	B-DC2	B-DC3	B-DC4	B-DC5	B-DC6	B-DC7	B-DC8	B-DC9	B-DC10	B-DC11	B-DC12	B-DC13	B-DC14	B-DC15	B-DC16	B-Ph1	B-Ph2	B-Ph3	B-Ph4	B-Ph5	B-Ph6	B-Ph7	B-Ph8	B-Ph9	B-Ph10	B-Ph11	B-Ph12	B-Ph13	B-Ph14	B-Ph15	B-Ph16	

Term	0.00000e+00	0.00000e+00	0.00000e+00	0.00000e+00	0.00000e+00	0.00000e+00	0.00000e+00	0.00000e+00	0.00000e+00	0.00000e+00	0.00000e+00	0.00000e+00	0.00000e+00	0.00000e+00	0.00000e+00	0.00000e+00	0.00000e+00	0.00000e+00	0.00000e+00	0.00000e+00	0.00000e+00	0.00000e+00	0.00000e+00	0.00000e+00	0.00000e+00	0.00000e+00	0.00000e+00	0.00000e+00	0.00000e+00	0.00000e+00	0.00000e+00	0.00000e+00	-2.38903e+02	-1.30801e+02	-1.63948e+02	-1.83590e+02	-1.19141e+02	-8.70241e+01	-1.56897e+02	-1.62015e+02	-7.30551e+01	-8.26205e+01	-1.70590e+02	-1.70867e+02	-1.80044e+02	-1.77413e+02	-7.81630e+01	-1.50406e+02	
Factor	6.10723e-05	1.20878e-04	3.70736e-05	1.67276e-01	1.13400e-06	1.16405e-06	1.90682e-01	6.00034e-02	1.25406e-06	1.06024e-06	9.97472e-02	3.83765e-02	2.97706e-02	1.08004e-02	1.14664e-06	1.57894e-02	4.97580e-07	5.02158e-07	1.39475e-07	8.01861e-02	5.49628e-09	5.49947e-09	8.54324e-02	2.82743e-02	5.50406e-09	5.50380e-09	4.40950e-02	1.66559e-02	1.35827e-02	4.90122e-03	5.51462e-09	6.83088e-03	X	X	X	X	X	X	X	X	X	X	X	X	X	X	X	X	



#DISTANCE SETTINGS
A = Detector Channel
A-1	A-2	A-3	A-4	A-5	A-6	A-7	A-8	A-9	A-10	A-11	A-12	A-13	A-14	A-15	A-16	

2.5000e+00	3.0000e+00	2.5000e+00	3.0000e+00	2.0000e+00	3.0000e+00	1.5000e+00	3.0000e+00	3.0000e+00	3.0000e+00	3.0000e+00	3.0000e+00	3.0000e+00	3.0000e+00	1.5000e+00	3.0000e+00	

B = Detector Channel
B-1	B-2	B-3	B-4	B-5	B-6	B-7	B-8	B-9	B-10	B-11	B-12	B-13	B-14	B-15	B-16	

1.0000e+01	1.0000e+01	1.0000e+01	1.4400e+00	1.0000e+01	1.0000e+01	1.5100e+00	1.9400e+00	1.0000e+01	1.0000e+01	1.9900e+00	2.4900e+00	2.4100e+00	2.9000e+00	1.0000e+01	2.9800e+00	




#DATA BEGINS
time	group	step	mark	flag	A-AC1	A-AC2	A-AC3	A-AC4	A-AC5	A-AC6	A-AC7	A-AC8	A-AC9	A-AC10	A-AC11	A-AC12	A-AC13	A-AC14	A-AC15	A-AC16	A-DC1	A-DC2	A-DC3	A-DC4	A-DC5	A-DC6	A-DC7	A-DC8	A-DC9	A-DC10	A-DC11	A-DC12	A-DC13	A-DC14	A-DC15	A-DC16	A-Ph1	A-Ph2	A-Ph3	A-Ph4	A-Ph5	A-Ph6	A-Ph7	A-Ph8	A-Ph9	A-Ph10	A-Ph11	A-Ph12	A-Ph13	A-Ph14	A-Ph15	A-Ph16	B-AC1	B-AC2	B-AC3	B-AC4	B-AC5	B-AC6	B-AC7	B-AC8	B-AC9	B-AC10	B-AC11	B-AC12	B-AC13	B-AC14	B-AC15	B-AC16	B-DC1	B-DC2	B-DC3	B-DC4	B-DC5	B-DC6	B-DC7	B-DC8	B-DC9	B-DC10	B-DC11	B-DC12	B-DC13	B-DC14	B-DC15	B-DC16	B-Ph1	B-Ph2	B-Ph3	B-Ph4	B-Ph5	B-Ph6	B-Ph7	B-Ph8	B-Ph9	B-Ph10	B-Ph11	B-Ph12	B-Ph13	B-Ph14	B-Ph15	B-Ph16	aux-1	digaux	

4143.131	1	1	0	256	0.059147	0.17668	0.12106	0.066422	0.18022	0.147	0.22226	0.028669	0.021018	0.11288	0.25392	0.12323	0.017369	0.2183	0.13874	0.22963	-3.3375	-4.3979	-4.0271	-3.6854	-4.4604	-3.7354	-4.0646	-4.4354	-3.4854	-4.2833	-4.1396	-3.7417	-4.5312	-3.7812	-3.7375	-4.6229	20.278	3.679	30.081	42.302	130.725	259.284	232.185	247.722	165.646	156.361	199.095	241.903	133.852	181.811	249.561	240.356	0.00043115	0.00070683	0.00025273	461.18	7.6921e-06	5.7309e-06	593.02	123.03	8.996e-06	9.6852e-06	183.15	57.558	36.113	14.453	4.1285e-06	24.847	0.0004991	0.00050234	0.00013993	503.67	5.7158e-06	5.7899e-06	631.92	141.13	6.071e-06	6.1389e-06	208.64	68.321	47.315	18.203	6.5452e-06	29.261	9.625	-2.823	329.913	-2.869	122.420	249.454	-4.034	1.189	121.674	26.793	-0.391	2.800	4.720	6.380	127.200	5.362	-8191	255	
4143.250	1	1	0	0	0.31828	0.14262	0.10253	0.074531	0.013311	0.065181	0.19049	0.053613	0.071794	0.16586	0.049565	0.18834	0.1124	0.25178	0.085536	0.17387	-3.3979	-4.1375	-4.2396	-3.7333	-4.5625	-3.7833	-3.8729	-4.5833	-3.5521	-4.0854	-4.2458	-3.5979	-4.55	-4.0104	-3.8229	-4.6146	10.878	336.964	19.863	262.783	73.358	131.683	281.153	213.862	46.871	314.486	333.203	99.410	207.951	-8.996	5.347	312.716	0.0003088	0.0010544	0.00024892	453.54	2.7297e-06	5.887e-06	591.44	121.93	3.392e-06	5.879e-06	183.38	56.555	35.617	13.891	7.4777e-06	23.894	0.00060733	0.00061013	0.00016976	515.4	6.6472e-06	6.5891e-06	641.62	142.96	6.3411e-06	6.1415e-06	207.4	65.888	44.835	16.875	5.5277e-06	26.847	50.443	49.134	102.702	-3.426	303.494	140.993	-4.536	0.345	131.207	218.058	-1.543	2.000	3.815	5.884	270.969	4.831	-8191	255	
4143.346	1	1	0	0	0.079882	0.17988	0.097505	0.14683	0.14886	0.20133	0.29879	0.12632	0.15585	0.076862	0.13023	0.22613	0.049057	0.11755	0.13487	0.10422	-3.3667	-4.1687	-4.3958	-3.625	-4.4521	-4.0604	-3.8125	-4.4979	-3.5833	-4.0896	-4.3604	-3.5333	-4.4812	-4.1979	-3.5187	-4.7896	227.519	208.675	220.478	295.330	142.307	155.286	236.567	-6.911	35.449	-9.738	145.950	90.358	44.315	95.655	50.238	256.771	0.00038665	0.00024539	0.00013791	450.15	3.4111e-06	2.5183e-06	598.08	123.58	6.7164e-06	3.5409e-06	186.93	56.915	36.883	14.234	5.8179e-06	24.151	0.00049254	0.000491	0.00013794	492.47	5.6903e-06	5.7811e-06	637.99	143.34	6.3625e-06	6.5677e-06	217.27	70.316	49.765	18.927	7.7536e-06	30.086	3.062	242.240	130.420	-3.546	263.786	49.044	-4.208	0.280	315.263	37.225	-1.826	2.376	3.039	6.439	178.074	4.531	-8191	255	
4143.442	1	1	0	0	0.1161	0.018187	0.11317	0.14115	0.12386	0.14993	0.24861	0.068922	0.1737	0.075629	0.10179	0.17142	0.20588	0.011274	0.052022	0.033232	-3.5104	-3.8521	-4.3396	-3.6125	-4.2292	-4.1854	-3.85	-4.6167	-3.8646	-4.0542	-4.5917	-3.7021	-4.2729	-4.1188	-3.6437	-4.5396	255.758	109.835	160.838	308.911	149.439	259.494	247.553	7.962	62.923	280.802	235.291	16.718	7.679	60.968	50.040	126.448	0.00080869	0.00039455	0.00010135	484.39	6.078e-06	3.1352e-06	617.15	128.12	4.0754e-06	3.3127e-06	187.18	56.098	35.838	13.5	4.6443e-06	23.026	0.00071012	0.00071793	0.00020107	558.9	7.6551e-06	7.4855e-06	675.61	151.99	6.8222e-06	6.6144e-06	213.22	66.138	45.048	16.558	5.3561e-06	25.88	22.950	308.279	153.765	-3.909	193.719	123.835	-4.730	-0.464	278.321	329.123	-2.156	1.213	3.908	6.115	224.750	3.857	-8191	255	
4143.538	1	1	0	0	0.1341	0.062637	0.16645	0.15687	0.17416	0.30482	0.15132	0.073328	0.068497	0.10767	0.040441	0.038597	0.19765	0.36667	0.2693	0.16802	-3.5979	-3.7708	-4.5938	-3.7771	-4.0938	-4.1396	-3.65	-4.5375	-4.0771	-3.8979	-4.5104	-3.6792	-4.1771	-4.35	-3.7438	-4.4771	-10.997	105.162	-17.414	96.456	269.004	-8.427	222.260	244.204	250.055	315.981	185.205	305.819	50.829	304.689	-7.786	210.304	0.00028896	0.00068517	0.00025678	442.91	4.7309e-06	2.372e-06	585.27	125.92	8.787e-07	6.8069e-06	186.99	55.425	35.337	13.409	2.6276e-06	23.547	0.00044546	0.00043916	0.00012014	472.66	4.5871e-06	4.5444e-06	602.01	136.9	4.4592e-06	4.5011e-06	197.89	60.818	41.371	15.405	4.2545e-06	25.141	86.055	113.282	161.887	-3.902	110.878	235.302	-4.575	0.072	309.650	92.702	-1.701	1.718	3.626	5.788	71.569	3.626	-8191	255	
4143.659	1	1	0	0	0.12436	0.12055	0.073982	0.056575	0.091337	0.13261	0.11375	0.17275	0.23684	0.058553	0.23427	0.10137	0.2667	0.19414	0.15405	0.053636	-3.6354	-3.725	-4.5375	-3.8708	-3.9542	-4.4563	-3.7354	-4.4187	-4.0813	-3.8042	-4.5417	-3.8667	-4.125	-4.2854	-3.8104	-4.3208	118.592	18.114	-2.025	242.072	241.423	161.644	229.680	246.804	83.099	124.082	125.260	288.640	42.222	55.130	44.043	222.204	0.00016288	7.5739e-05	0.00017391	470.92	4.5042e-06	9.8168e-06	627.4	135.15	8.2832e-06	5.3954e-06	199.78	58.95	37.863	14.074	4.3035e-06	24.336	0.00037659	0.0003822	0.00010511	491.36	4.173e-06	4.2031e-06	635.71	143.04	4.1769e-06	4.2091e-06	205.76	62.387	42.465	15.687	3.9153e-06	25.314	9.091	179.406	85.085	-4.384	128.898	206.575	-5.022	-0.779	58.637	159.447	-2.189	1.225	2.825	5.723	266.894	3.205	-8191	255	
4143.731	1	1	0	0	0.35272	0.27234	0.11302	0.088475	0.16589	0.019438	0.15898	0.078612	0.099082	0.083442	0.16146	0.14063	0.27792	0.14954	0.11149	0.17256	-3.9188	-3.7042	-4.6375	-4.0583	-3.6958	-4.375	-3.6729	-4.2625	-4.2667	-3.6708	-4.4187	-3.8667	-3.7792	-4.525	-3.6667	-4.3063	192.742	34.900	264.235	262.323	222.506	15.804	264.794	106.263	324.581	115.628	199.213	252.166	292.454	161.694	133.480	337.252	0.00021724	0.00073138	0.00015	484.25	6.5043e-06	8.54e-06	637.12	137.79	4.5505e-06	3.7037e-06	200.57	59.341	38.924	14.237	3.3712e-06	24.518	0.00034468	0.00035164	9.7209e-05	497.28	3.8542e-06	3.9175e-06	637.82	143.92	3.9473e-06	4.0231e-06	206.68	62.699	43.547	15.974	4.3773e-06	26.216	23.589	66.578	91.710	-4.168	141.627	171.487	-4.854	-0.215	174.970	322.354	-2.063	1.415	2.609	4.767	158.057	3.348	-8191	255	
4143.827	1	1	0	0	0.14306	0.17829	0.2445	0.10555	0.092284	0.11343	0.14924	0.20808	0.15365	0.10863	0.16845	0.18486	0.36907	0.13072	0.22506	0.16407	-4.0375	-3.6667	-4.3854	-4.0125	-3.8146	-4.4563	-3.8208	-4.1458	-4.4146	-3.6688	-4.4604	-4.0375	-3.6333	-4.5771	-3.6979	-4.1021	13.822	15.423	168.955	16.128	61.413	301.063	290.054	1.259	323.056	199.501	299.344	253.828	9.322	285.668	267.711	-10.068	0.00021475	0.00071456	0.00037058	532.13	3.0443e-06	1.3467e-05	716.17	152.89	4.4997e-07	1.4586e-05	225.59	64.683	42.979	16.024	3.0934e-06	26.481	0.00043132	0.00046066	0.00013295	563.86	5.8178e-06	6.0386e-06	748.9	171.58	6.6707e-06	6.8536e-06	249.43	76.351	54.504	19.97	6.876e-06	30.825	37.267	301.203	33.349	-4.701	310.724	97.160	-5.765	-1.194	246.916	162.808	-3.284	0.715	2.457	5.126	66.883	3.043	-8191	255	
4143.923	1	1	0	0	0.036097	0.073601	0.23615	0.030623	0.1022	0.1393	0.055021	0.039415	0.29991	0.11203	0.078363	0.14956	0.17349	0.12502	0.069929	0.16859	-3.975	-3.6708	-4.3417	-4.2688	-3.6854	-4.5646	-3.9292	-3.9833	-4.55	-3.5729	-4.4271	-4.2854	-3.7479	-4.4875	-3.7792	-3.7229	-3.285	16.994	137.039	137.295	121.181	272.167	255.399	291.707	246.574	-18.507	162.354	67.154	315.056	234.843	333.159	220.938	0.00060327	0.00084482	0.00026266	552.31	1.0056e-05	2.3089e-06	708	152.73	7.0723e-06	8.2772e-06	217.23	63.47	42.347	15.615	9.699e-06	26.273	0.00061311	0.0006075	0.0001662	598.2	6.5173e-06	6.4152e-06	739.26	170.23	6.221e-06	6.1779e-06	237.12	72.374	50.946	18.681	5.8228e-06	29.563	4.879	297.423	316.023	-5.156	18.197	38.047	-5.382	-1.334	24.721	219.577	-3.159	0.372	2.268	4.530	27.486	2.862	-8191	255	
4144.042	1	1	0	0	0.10701	0.26183	0.069999	0.13988	0.18404	0.13075	0.14673	0.11374	0.067269	0.30211	0.1611	0.16869	0.19145	0.15166	0.18317	0.27309	-4.0042	-3.7417	-4.2292	-4.1687	-3.7396	-4.45	-3.875	-3.6625	-4.5042	-3.5375	-4.1958	-4.2917	-3.5708	-4.6792	-3.8917	-3.6792	185.806	295.813	133.117	184.084	328.185	213.217	32.969	258.259	182.950	334.160	186.269	-1.056	27.082	320.986	301.415	322.816	0.00070073	0.0006268	3.7749e-05	539.73	9.7598e-06	7.8411e-06	718.19	156.25	6.8289e-06	4.1164e-06	226.82	66.695	43.8	16.652	9.0886e-06	27.708	0.00053606	0.00054197	0.00015083	581.42	6.2322e-06	6.3333e-06	751.49	174.73	6.8009e-06	6.9454e-06	251.75	78.579	55.994	20.687	7.2775e-06	32.5	2.033	283.773	279.751	-4.755	27.319	163.191	-5.630	-1.130	159.896	70.635	-3.311	0.173	1.855	4.514	105.586	2.468	-8191	255	
4144.138	1	1	0	0	0.20655	0.21922	0.10726	0.18946	0.080985	0.087286	0.080731	0.13405	0.063449	0.14716	0.070752	0.12277	0.10857	0.091695	0.14756	0.23754	-4.3208	-3.5958	-4.1937	-4.4979	-3.4792	-4.3042	-4.2354	-3.6937	-4.5521	-3.6479	-4.0667	-4.4187	-3.5646	-4.3187	-4.0771	-3.8896	95.528	285.020	322.469	194.447	289.169	49.122	290.122	39.174	303.833	245.219	-3.064	163.199	299.314	279.602	226.432	217.330	0.00025527	0.00083687	4.9359e-05	590.16	1.0432e-05	3.6994e-06	772.2	168.22	3.1634e-06	3.8489e-06	242.16	69.624	46.598	17.298	8.7116e-07	28.61	0.00066957	0.00066634	0.00018391	643.73	7.1376e-06	7.0183e-06	808.19	187.43	6.9826e-06	6.9355e-06	263.97	80.47	57.39	21.099	6.9585e-06	32.778	-8.944	314.899	320.267	-5.084	104.945	247.675	-5.720	-1.607	31.422	-18.459	-3.480	0.548	1.664	4.380	245.919	3.003	-8191	255	
4144.234	1	1	0	0	0.10623	0.41531	0.32461	0.09719	0.20195	0.15815	0.13003	0.3105	0.031192	0.076547	0.10677	0.071539	0.25816	0.025475	0.20794	0.20667	-4.1979	-3.7667	-3.9313	-4.5417	-3.5917	-4.3271	-4.0833	-3.5792	-4.3938	-3.9313	-4.0271	-4.4542	-3.6958	-4.1937	-4.3562	-3.7125	-1.042	207.604	333.747	16.963	52.978	100.871	3.287	238.149	110.174	215.386	54.519	-14.846	110.373	36.027	135.464	221.347	0.00052586	0.00021519	0.00016454	613.03	3.0499e-06	6.5513e-06	790.88	175.17	4.697e-06	7.3078e-06	246.35	70.161	46.964	17.257	6.2608e-06	28.189	0.00063309	0.00063175	0.00017737	664.36	7.021e-06	6.9682e-06	832.09	194.14	7.1285e-06	7.0909e-06	269.44	81.268	57.982	21.05	7.0765e-06	32.433	339.624	173.691	84.865	-5.331	198.514	16.871	-5.767	-2.021	138.478	323.788	-3.410	0.924	2.231	4.467	9.522	2.844	-8191	255	
4144.330	1	1	0	0	0.24732	0.2449	0.14266	0.041282	0.079044	0.19935	0.2576	0.15126	0.26785	0.098043	0.06649	0.21826	0.27321	0.23278	0.068335	0.16212	-4.275	-3.9229	-3.8458	-4.5792	-3.6125	-4.1854	-4.3833	-3.5854	-4.2542	-4.0583	-3.8542	-4.5104	-3.6979	-4.1771	-4.2021	-3.625	224.066	112.016	46.660	283.445	313.460	264.809	296.267	320.500	272.829	197.880	194.646	5.026	114.209	338.169	292.574	140.982	0.00034892	0.00055122	0.00034168	616.36	9.3907e-06	6.1325e-06	783.07	169.22	4.0168e-06	5.7415e-06	233.02	67.838	44.09	16.034	5.5728e-06	26.243	0.00063499	0.00062974	0.00017474	664.13	6.573e-06	6.4171e-06	808.84	183.87	6.0647e-06	5.8914e-06	247.86	74.321	51.365	18.394	5.0372e-06	28.21	26.445	70.144	78.264	-5.565	122.901	237.491	-6.172	-1.665	92.928	292.384	-3.317	0.382	1.941	5.255	132.702	3.116	-8191	255	
4144.427	1	1	0	0	0.04046	0.26662	0.092097	0.067389	0.087217	0.096558	0.22485	0.096986	0.15484	0.048492	0.1236	0.057498	0.19109	0.34344	0.3537	0.080065	-3.9229	-3.95	-3.5271	-4.6042	-3.6708	-3.9188	-4.6562	-3.7479	-4.3938	-4.1042	-3.8083	-4.5354	-4.0042	-3.8833	-4.3542	-3.7083	314.404	131.911	-12.779	-10.698	181.413	116.770	167.435	152.511	189.757	164.986	330.207	202.054	296.881	190.350	120.108	291.087	0.00047482	0.0005525	0.00015664	527.63	4.468e-06	5.5929e-06	680.41	152.17	6.7283e-06	7.0339e-06	219.75	64.671	42.728	15.349	6.0175e-06	25.792	0.00041986	0.00040455	0.00011029	541.42	4.0333e-06	3.926e-06	678.76	155.46	3.7362e-06	3.6966e-06	219.82	66.478	45.768	16.527	3.7637e-06	26.483	9.835	73.003	139.102	-4.870	58.748	182.399	-5.255	-1.168	172.589	34.111	-2.792	0.497	2.841	5.475	7.522	3.556	-8191	255	
4144.523	1	1	0	0	0.30677	0.14001	0.064905	0.033327	0.094681	0.093924	0.15619	0.036681	0.112	0.081525	0.14072	0.18175	0.11445	0.18053	0.16423	0.19855	-4.0229	-4.2458	-3.6729	-4.5167	-3.8396	-3.8604	-4.4938	-3.7583	-4.1958	-4.2375	-3.8271	-4.4563	-4.1292	-3.7062	-4.4563	-3.5938	52.552	39.308	39.777	68.602	134.791	13.935	259.255	6.223	245.070	19.780	226.302	185.827	321.368	251.693	302.231	177.000	0.0004771	0.00051614	6.4344e-05	515.62	3.8648e-06	7.873e-06	680.14	153.31	6.2727e-06	9.4784e-06	221.54	65.024	42.967	15.486	5.8347e-06	25.906	0.00034138	0.00034708	9.7531e-05	527.26	3.8343e-06	3.9561e-06	678.54	157.87	3.9959e-06	4.0565e-06	223.79	68.081	47.116	16.983	4.1758e-06	26.988	-6.127	91.161	145.257	-4.792	188.057	248.743	-5.423	-0.988	316.094	-9.944	-3.124	1.161	1.663	4.852	113.690	3.441	-8191	255	
4144.619	1	1	0	0	0.11778	0.25764	0.1595	0.16153	0.0038388	0.25346	0.15505	0.15431	0.19783	0.17667	0.021311	0.19414	0.10766	0.13851	0.12298	0.2014	-3.8625	-4.2979	-3.6625	-4.375	-4.0167	-3.7625	-4.6042	-3.8187	-4.1417	-4.4688	-3.7083	-4.3542	-4.2125	-3.7479	-4.5	-3.9729	242.667	59.900	229.944	8.008	99.682	335.447	270.881	300.809	222.483	64.147	210.859	294.673	-17.668	243.010	47.482	97.913	0.00016245	0.00015719	3.0948e-05	517.07	5.9617e-06	1.0854e-06	675.76	152.6	7.1832e-06	4.83e-06	220.56	65.466	42.318	15.444	4.5975e-06	25.745	0.00038171	0.00038443	0.0001072	530.65	4.227e-06	4.2714e-06	678.98	158.66	4.2492e-06	4.2677e-06	225.22	68.565	47.285	16.962	4.2097e-06	26.855	308.548	57.306	193.278	-4.954	75.182	189.048	-5.467	-0.930	28.991	1.109	-2.733	0.750	2.839	5.043	61.565	3.084	-8191	255	
4144.739	1	1	0	0	0.172	0.13492	0.055967	0.08612	0.10295	0.20226	0.30644	0.22966	0.13617	0.042974	0.15247	0.20834	0.34288	0.046829	0.17342	0.042305	-3.8729	-4.3958	-3.4417	-4.375	-4.0354	-3.5229	-4.6771	-3.7917	-3.8958	-4.3063	-3.7667	-4.3104	-4.1708	-3.6229	-4.4979	-3.8729	201.932	244.192	312.653	229.525	324.027	129.488	7.404	328.601	-14.126	-12.491	79.464	43.152	-8.736	5.370	327.887	105.581	0.00034327	0.00010943	0.00031584	508.8	2.3541e-06	3.8993e-06	664.26	149.67	5.4236e-06	7.787e-06	217.22	65.636	42.593	15.269	2.9976e-06	25.859	0.00037794	0.00037808	0.00010497	521.88	4.1008e-06	4.091e-06	666.05	155.45	4.0563e-06	4.0552e-06	221.15	67.955	46.848	16.84	4.1333e-06	26.888	76.342	238.304	281.509	-4.586	144.032	326.845	-5.093	-0.828	196.221	55.620	-3.029	1.038	2.545	5.138	148.454	2.959	-8191	255	
4144.836	1	1	0	0	0.083425	0.041363	0.15713	0.067123	0.051072	0.19382	0.27052	0.065468	0.25823	0.059949	0.16864	0.1292	0.2417	0.030961	0.15185	0.25939	-3.55	-4.4083	-3.4479	-4.0917	-4.2583	-3.6521	-4.4479	-3.95	-3.6729	-4.4604	-3.7896	-4.1583	-4.3792	-3.5354	-4.4146	-4.0958	263.055	269.949	182.984	206.532	321.879	108.718	267.931	147.490	129.847	337.336	135.106	278.763	106.646	195.837	127.236	215.930	0.000308	0.00097611	0.00035947	511.81	9.4402e-06	4.6785e-06	678.03	151.66	2.5312e-06	7.0954e-06	219.24	65.577	43.398	15.549	4.5773e-06	26.28	0.00038195	0.00038029	0.00010533	528.64	4.183e-06	4.1862e-06	680.01	157.53	4.2082e-06	4.1879e-06	224.56	68.811	47.684	17.145	4.2105e-06	27.367	36.264	8.152	305.654	-4.690	116.330	198.834	-5.183	-1.283	146.638	58.061	-2.404	1.115	2.385	5.172	8.007	3.265	-8191	255	
4144.932	1	1	0	0	0.080014	0.095037	0.10216	0.06334	0.07213	0.13653	0.31996	0.12129	0.15574	0.20042	0.10225	0.1323	0.18021	0.18292	0.1663	0.37989	-3.4813	-4.4625	-3.7333	-4.0354	-4.3104	-3.5792	-4.6229	-4.0604	-3.6875	-4.5104	-3.8104	-3.9521	-4.4708	-3.5979	-4.2208	-4.2167	330.662	256.236	221.599	272.957	106.565	105.556	320.292	200.830	329.985	43.656	20.786	203.350	323.150	194.513	7.530	315.766	0.00054821	0.00060864	0.00018098	533.41	6.8034e-06	4.4973e-06	706.01	154.55	8.0596e-06	5.2757e-06	224.41	66.43	43.598	15.967	3.9042e-06	26.396	0.00038328	0.0003822	0.00010527	547.62	4.1269e-06	4.0927e-06	701.41	159.27	4.0296e-06	3.9593e-06	225.46	68.846	47.44	17.246	3.9125e-06	27.193	32.740	195.923	82.071	-4.947	8.574	29.588	-5.446	-1.379	105.382	246.822	-2.834	0.544	1.881	4.647	140.910	3.068	-8191	255	
4145.028	1	1	0	0	0.09868	0.10354	0.14356	0.14862	0.25294	0.20983	0.048205	0.10382	0.23476	0.094484	0.22846	0.099667	0.062066	0.18639	0.03467	0.20079	-3.5187	-4.4313	-3.6271	-3.8563	-4.3938	-3.6312	-4.4271	-4.3646	-3.6	-4.5062	-3.8708	-3.9062	-4.6271	-3.8167	-4.1813	-4.1438	54.260	236.400	110.694	301.553	164.538	160.725	234.935	28.775	105.669	53.674	255.083	152.470	44.635	48.012	18.935	233.014	5.4468e-05	0.00044289	0.00027011	543.65	4.763e-06	2.3777e-06	702.76	153.75	6.6356e-06	7.0679e-06	223.03	66.236	43.101	15.828	7.4201e-06	26.361	0.00035441	0.00034676	9.5359e-05	549.23	3.7529e-06	3.6932e-06	696.09	156.71	3.6691e-06	3.631e-06	221.7	67.337	46.251	16.817	3.5806e-06	26.64	92.917	121.825	189.099	-4.872	140.077	188.807	-5.353	-1.482	114.252	153.249	-3.202	0.685	1.958	4.947	74.323	3.085	-8191	255	
4145.122	1	1	0	0	0.2204	0.14448	0.10805	0.11787	0.1369	0.15114	0.12733	0.044031	0.11421	0.21712	0.13743	0.042445	0.14276	0.26209	0.080749	0.17384	-3.3625	-4.5417	-3.9542	-3.8958	-4.4812	-3.5792	-4.3146	-4.3562	-3.5938	-4.5375	-4.1167	-3.6583	-4.5542	-3.7375	-4.0229	-4.4604	200.195	129.620	22.208	43.751	109.698	91.658	266.986	279.151	300.585	161.822	262.135	15.516	3.760	203.062	2.034	97.963	0.00052977	0.00056233	8.998e-05	541.05	5.3813e-06	2.0993e-06	697.8	152.17	6.9921e-06	6.4927e-06	219.64	65.442	43.472	15.536	8.241e-06	25.97	0.00032295	0.000319	8.773e-05	542.56	3.3976e-06	3.3235e-06	686.15	153.8	3.3394e-06	3.2818e-06	217.75	66.149	45.406	16.346	3.3231e-06	25.993	4.685	278.975	122.025	-4.978	48.397	-18.518	-5.887	-1.351	337.269	194.969	-3.388	0.742	2.355	5.553	214.817	3.178	-8191	255	
4145.218	1	1	0	0	0.15055	0.070705	0.10847	0.26016	0.058553	0.052114	0.38777	0.1208	0.11916	0.18821	0.012964	0.1187	0.10636	0.1388	0.16846	0.046244	-3.3375	-4.5125	-4.2167	-3.7958	-4.5917	-3.8125	-3.9667	-4.575	-3.6188	-4.4062	-4.0875	-3.675	-4.5437	-3.975	-3.8979	-4.45	69.466	186.786	180.223	-17.791	198.195	201.662	251.766	325.283	320.248	104.230	236.179	272.454	306.778	254.948	283.111	201.743	0.00035897	0.00048199	0.00027052	519.93	4.0112e-06	1.5801e-06	679.78	150.67	5.5984e-06	7.8114e-06	220.34	65.699	42.679	15.338	2.1138e-06	25.574	0.0003024	0.00030005	8.3232e-05	524.4	3.2542e-06	3.2411e-06	668	152.43	3.2376e-06	3.2282e-06	216.12	65.664	44.612	15.946	3.1616e-06	25.397	80.538	198.572	335.329	-4.855	187.065	194.547	-5.620	-1.220	211.116	86.410	-2.736	0.512	1.874	4.895	302.772	3.666	-8191	255	
4145.339	1	1	0	0	0.12354	0.21537	0.076844	0.20405	0.11465	0.11991	0.13927	0.073833	0.08691	0.082796	0.17744	0.11185	0.18159	0.15757	0.11188	0.15045	-3.3812	-4.3146	-4.3042	-3.6292	-4.6021	-3.7646	-3.9354	-4.5208	-3.6354	-4.0292	-4.25	-3.6604	-4.5625	-3.8958	-3.8104	-4.5771	36.725	168.699	266.639	46.055	211.549	-16.002	293.795	321.981	64.022	7.240	283.201	329.585	75.559	128.246	329.928	26.453	0.00023492	0.00043684	0.00021809	512.49	2.7985e-06	2.9965e-06	674.08	150.56	3.8836e-06	4.4007e-06	220.09	65.895	43.243	15.513	4.9481e-06	25.545	0.00028125	0.00028032	7.7834e-05	513.81	3.0247e-06	3.0094e-06	659.56	150.64	3.016e-06	3.0127e-06	214.02	65.398	44.384	15.883	3.0124e-06	25.239	12.064	-19.026	236.197	-4.710	58.900	185.263	-5.292	-1.444	197.570	87.229	-2.736	0.677	2.314	5.160	14.995	3.583	-8191	255	
4145.435	1	1	0	0	0.11635	0.10682	0.082319	0.10113	0.068584	0.15225	0.20271	0.053308	0.089667	0.25833	0.036899	0.15732	0.027415	0.30613	0.12203	0.084252	-3.2229	-4.1458	-4.3229	-3.6667	-4.4271	-4.1604	-3.875	-4.5146	-3.7375	-4.0146	-4.5646	-3.7188	-4.3313	-4.1333	-3.6833	-4.5312	8.187	45.601	161.509	214.588	116.289	244.152	270.271	15.394	144.944	135.771	25.203	3.450	306.574	-3.196	78.013	176.811	0.00058782	0.0002271	2.4552e-05	517.46	6.9329e-06	5.1004e-06	678.16	150.97	8.0201e-06	3.3014e-06	219.16	66.334	43.316	15.672	2.5373e-06	26.031	0.00027469	0.00027771	7.8696e-05	516.76	3.1629e-06	3.2387e-06	667.03	153.04	3.3782e-06	3.4771e-06	219.79	67.417	46.546	16.776	3.8091e-06	26.567	72.946	232.441	30.522	-4.569	55.014	92.761	-5.472	-1.644	125.563	107.090	-2.789	1.047	2.016	5.129	-17.521	3.577	-8191	255	
4145.531	1	1	0	0	0.1751	0.040184	0.25361	0.31755	0.057196	0.31598	0.20966	0.17623	0.087651	0.16437	0.17962	0.16049	0.081797	0.26816	0.20835	0.149	-3.4521	-4.0521	-4.3333	-3.6542	-4.325	-4.2271	-3.6937	-4.4542	-3.7313	-3.9375	-4.3896	-3.4521	-4.2896	-4.1729	-3.4479	-4.675	47.403	30.424	307.240	325.992	46.603	176.528	265.558	24.623	33.791	81.364	266.087	34.583	304.057	48.963	335.132	317.080	0.00032429	0.00022664	7.5352e-05	539.48	1.9379e-06	4.169e-06	710.07	155.06	2.9551e-06	4.6376e-06	224.17	67.081	44.026	15.71	3.188e-06	25.981	0.00035115	0.00036011	9.983e-05	552.6	3.9798e-06	4.0102e-06	705.46	159.05	3.9548e-06	3.9658e-06	224.99	68.946	47.353	17.021	3.8952e-06	26.712	7.835	196.694	5.602	-5.238	248.193	80.930	-5.731	-1.244	319.314	204.938	-3.046	0.545	2.047	4.950	302.313	3.458	-8191	255	
4145.603	1	1	0	0	0.12349	0.083314	0.18723	0.046029	0.033323	0.098848	0.13351	0.036113	0.2276	0.10683	0.12068	0.15883	0.097643	0.17534	0.16775	0.19937	-3.8021	-3.7812	-4.5896	-3.8312	-4.3521	-4.2771	-3.6083	-4.425	-3.8521	-3.7979	-4.6458	-3.7271	-4.1062	-4.175	-3.4917	-4.4125	155.864	-6.295	290.710	86.602	302.993	151.576	289.989	336.563	57.295	146.361	256.605	322.086	339.660	316.815	55.903	259.690	0.00049905	0.00080755	0.00011023	547.52	1.9884e-06	1.8595e-06	712.23	154.29	3.0962e-06	4.7e-06	224.37	67.469	44.441	15.992	9.0305e-06	26.47	0.00034673	0.00034672	9.4797e-05	555.1	3.698e-06	3.6313e-06	703.87	156.32	3.5045e-06	3.4574e-06	220.67	67.332	46.09	16.603	3.1464e-06	26.041	12.603	46.607	179.398	-5.107	115.836	115.117	-5.608	-1.137	52.641	38.751	-3.043	0.953	2.168	4.612	125.511	3.331	-8191	255	
4145.724	1	1	0	0	0.18296	0.13454	0.25334	0.1995	0.11784	0.038408	0.25191	0.011489	0.091038	0.077472	0.12866	0.094752	0.19438	0.036635	0.13816	0.12162	-3.5854	-3.7104	-4.4187	-3.8375	-4.0312	-4.4062	-3.7354	-4.5646	-4.0625	-3.4958	-4.6292	-3.7625	-3.8833	-4.4896	-3.5125	-4.3458	241.581	336.187	238.670	49.383	59.320	231.200	280.318	80.109	164.986	12.337	48.384	281.456	173.796	38.520	152.047	55.176	0.00046658	0.00065991	0.00017993	576.56	4.2769e-06	1.1326e-05	750.49	163.76	4.1618e-06	4.1209e-06	233.74	68.966	45.333	16.351	4.9868e-06	26.652	0.00027611	0.00027057	7.3084e-05	568.65	2.7886e-06	2.6812e-06	721.28	159.6	2.5345e-06	2.4917e-06	221.82	65.719	44.812	16.112	2.328e-06	25.327	35.447	145.541	0.895	-5.092	152.637	50.141	-5.509	-1.675	61.674	109.364	-3.348	0.550	2.128	4.889	85.013	3.206	-8191	255	
4145.820	1	1	0	0	0.096733	0.039179	0.17471	0.36597	0.060803	0.16078	0.056888	0.18404	0.079793	0.037152	0.045637	0.096501	0.21331	0.14836	0.19069	0.11735	-3.9354	-3.8167	-4.6667	-3.9021	-3.9229	-4.4458	-3.6354	-4.2771	-4.3708	-3.4813	-4.5542	-3.9188	-3.8833	-4.5396	-3.5521	-4.175	115.990	-3.878	45.069	327.091	31.923	50.767	315.487	216.949	176.201	123.115	144.637	192.916	173.906	166.622	7.274	124.236	0.00037801	0.00051017	0.00019289	565.51	4.9458e-06	2.4758e-06	731.66	158.42	2.1226e-06	8.1649e-06	228.93	68.262	44.466	16.097	4.2632e-06	26.519	0.00021257	0.00021197	5.7486e-05	550.41	2.2847e-06	2.221e-06	699.69	153.78	2.219e-06	2.2111e-06	215.89	64.346	43.669	15.83	2.1986e-06	24.961	-14.867	161.124	-16.610	-5.112	71.977	146.123	-5.693	-1.555	229.828	114.917	-3.282	0.594	2.270	5.274	40.361	3.922	-8191	255	
4145.916	1	1	0	0	0.01614	0.22552	0.094093	0.22774	0.17795	0.22456	0.087886	0.076456	0.04526	0.043749	0.1488	0.19117	0.091489	0.0045368	0.13402	0.1588	-4.0292	-3.525	-4.5542	-4.05	-3.775	-4.3688	-3.9062	-4.1896	-4.2562	-3.5104	-4.3333	-4.1229	-3.9167	-4.6542	-3.8063	-4.1354	94.994	320.192	22.614	-8.584	-1.407	15.618	180.591	98.273	2.500	8.003	326.166	169.847	84.730	139.381	129.476	278.455	0.00027925	0.00029724	0.0001025	547.06	2.4286e-06	5.132e-06	706.37	152.54	3.0465e-06	1.6303e-06	221.66	66.557	43.549	15.951	7.1146e-07	26.169	0.0001979	0.00019588	5.3628e-05	531.43	2.0761e-06	2.0369e-06	672.95	146.89	1.9874e-06	1.9624e-06	207.75	62.799	42.218	15.337	1.8546e-06	24.468	329.483	2.057	8.266	-5.041	141.675	77.151	-5.752	-1.239	198.532	128.536	-3.002	0.813	2.132	5.398	12.661	3.519	-8191	255	
4146.012	1	1	0	0	0.033008	0.19244	0.31017	0.15625	0.16715	0.21225	0.083251	0.16383	0.051215	0.12054	0.086603	0.092112	0.13755	0.24095	0.089348	0.055059	-4.2354	-3.4875	-4.3333	-4.2125	-3.6583	-4.5813	-3.9188	-4	-4.4062	-3.4771	-4.3729	-4.3125	-3.8	-4.6021	-3.7646	-3.9062	64.395	221.370	52.284	77.561	140.208	179.209	48.595	174.047	122.520	94.917	311.095	203.198	205.235	283.455	114.534	71.802	0.00041454	9.0139e-05	6.9279e-05	533.86	1.41e-06	4.8926e-06	691.85	152.71	2.5957e-06	2.8525e-06	221.98	67.97	44.041	15.926	2.2666e-06	26.053	0.00017007	0.00016626	4.5812e-05	515.52	1.807e-06	1.7848e-06	655.42	145.99	1.7781e-06	1.7824e-06	207.41	63.427	42.366	15.205	1.7942e-06	24.263	47.134	-11.433	-2.285	-5.048	32.400	135.883	-5.271	-1.209	59.880	157.227	-3.001	1.327	2.564	5.595	41.305	3.639	-8191	255	
4146.131	1	1	0	0	0.17374	0.27853	0.075737	0.071535	0.063178	0.20029	0.10024	0.14521	0.19335	0.12701	0.16886	0.11814	0.22051	0.21906	0.15561	0.25045	-4.1979	-3.6854	-3.9375	-4.1792	-3.7271	-4.3708	-4.0354	-3.7458	-4.3979	-3.7333	-4.2229	-4.3604	-3.5875	-4.6083	-4.0687	-3.8667	-17.713	88.660	312.997	194.311	4.912	-16.254	74.469	303.460	36.855	75.261	262.031	231.566	249.995	282.934	265.658	296.911	0.00025215	0.00027227	5.4782e-05	532.32	4.6842e-06	4.0381e-06	686.3	154.07	2.8543e-06	4.6828e-06	225.16	67.914	44.461	15.739	2.9046e-06	26.283	0.0001631	0.00016115	4.5337e-05	511.3	1.7919e-06	1.7795e-06	651.78	146.96	1.7824e-06	1.7713e-06	209.05	63.637	42.77	15.223	1.8147e-06	24.469	18.758	285.898	333.989	-5.026	159.867	71.180	-5.546	-1.035	193.604	143.870	-2.917	1.138	2.428	5.465	9.134	3.172	-8191	255	
4146.227	1	1	0	0	0.062679	0.11844	0.18717	0.22284	0.19482	0.25866	0.054201	0.30316	0.058318	0.23733	0.13615	0.045537	0.18671	0.13272	0.13054	0.046382	-4.3	-3.7417	-4.1708	-4.4854	-3.6208	-4.5104	-4.175	-3.7458	-4.4771	-3.7708	-4.1021	-4.4271	-3.7313	-4.3167	-4.1375	-3.6604	77.532	188.970	96.343	58.526	289.706	329.708	315.732	309.069	85.433	34.461	32.595	317.123	240.194	184.689	-3.158	290.762	0.0005638	0.0002329	0.00019331	535.84	8.4135e-06	5.3636e-06	688.86	155.05	2.0786e-06	4.2803e-06	224.14	68.168	44.464	15.817	1.4703e-06	26.126	0.0001685	0.00016853	4.7058e-05	513.97	1.8695e-06	1.911e-06	654.83	147.94	1.9568e-06	1.953e-06	210.51	64.233	43.245	15.367	2.0392e-06	24.509	13.525	331.293	99.621	-4.970	56.519	36.759	-5.289	-1.303	144.379	132.726	-2.907	1.279	2.172	5.092	297.547	3.536	-8191	255	
4146.301	1	1	0	0	0.24945	0.12204	0.11885	0.014469	0.34096	0.10033	0.13242	0.26985	0.18516	0.12075	0.35268	0.011488	0.060816	0.21689	0.29362	0.081927	-4.2875	-3.6875	-3.85	-4.4437	-3.5792	-4.1875	-4.2833	-3.7521	-4.4437	-4.0833	-3.9	-4.4229	-3.7875	-4.1792	-4.2125	-3.6063	144.258	44.423	222.865	87.586	231.385	80.285	297.193	258.786	292.700	232.716	240.352	2.486	55.069	109.299	187.513	283.834	0.00044061	0.00043018	6.0801e-05	532.39	4.0725e-06	3.5881e-06	693.02	154.84	2.6102e-06	2.5547e-06	224.61	68.085	44.061	15.748	5.2357e-06	25.851	0.00018663	0.00019104	5.3455e-05	518.33	2.1191e-06	2.154e-06	662.88	149.28	2.2173e-06	2.2215e-06	211.84	64.903	43.762	15.629	2.317e-06	24.852	-7.148	89.943	210.892	-4.743	-1.592	125.461	-5.313	-1.423	212.996	245.379	-3.174	0.625	2.151	5.127	173.073	3.683	-8191	255	
4146.419	1	1	0	0	0.05214	0.074213	0.20717	0.19195	0.14319	0.076216	0.18016	0.25145	0.25774	0.12403	0.054414	0.057757	0.042756	0.28901	0.20316	0.14546	-4.1542	-3.8187	-3.85	-4.5458	-3.5438	-3.975	-4.3104	-3.6458	-4.4292	-4.0625	-3.7792	-4.5708	-3.6729	-3.9625	-4.1646	-3.6813	276.103	333.730	219.519	322.958	-14.698	-8.657	304.463	243.717	249.096	37.276	88.663	-11.258	228.674	320.764	329.608	-5.406	0.00026374	0.00038264	0.00014212	545.01	4.0003e-06	3.2383e-06	704.94	154.27	5.2898e-06	4.5757e-06	225.09	68.449	44.804	16.105	2.9112e-06	26.124	0.00021456	0.00021482	6.0989e-05	531.3	2.4106e-06	2.4471e-06	676.63	151.13	2.4919e-06	2.5295e-06	215.49	66.255	44.909	16.058	2.6141e-06	25.264	45.699	60.138	28.822	-5.134	23.484	234.901	-5.331	-1.051	162.661	117.263	-2.781	0.552	2.594	5.164	43.334	3.830	-8191	255	
4146.516	1	1	0	0	0.21777	0.25641	0.19766	0.043064	0.068822	0.015117	0.094946	0.18372	0.060749	0.11777	0.16596	0.030486	0.040958	0.17581	0.3023	0.23082	-4.0563	-4.1312	-3.6042	-4.6667	-3.8688	-3.9813	-4.4792	-3.5646	-4.3	-4.2167	-3.625	-4.5917	-3.7646	-3.8958	-4.5604	-3.7146	19.626	171.841	159.835	181.652	300.828	184.883	237.700	260.127	152.001	-7.203	207.171	155.129	8.116	-9.624	279.109	210.025	0.00036598	0.00066869	0.00010543	554.14	6.0137e-06	4.2544e-06	708.88	155.15	2.6112e-06	6.2067e-06	225.67	69.342	44.593	16.019	1.6267e-06	26.459	0.00023798	0.00024148	6.7653e-05	542.84	2.6528e-06	2.6322e-06	686.84	152.52	2.6532e-06	2.6643e-06	217.2	67.056	45.274	16.198	2.7076e-06	25.485	-5.494	125.839	65.771	-4.597	145.443	144.579	-5.747	-1.192	316.966	82.093	-3.001	1.043	1.932	5.447	120.633	3.667	-8191	255	
4146.612	1	1	0	0	0.14454	0.046735	0.13627	0.09275	0.06119	0.10452	0.22039	0.23034	0.094591	0.041734	0.051567	0.036554	0.16145	0.015075	0.18678	0.090203	-4.0354	-4.1333	-3.5646	-4.5271	-3.9062	-3.8563	-4.6062	-3.7958	-4.375	-4.3854	-3.6375	-4.6479	-4.0083	-3.8187	-4.6021	-3.6417	62.071	122.833	322.499	274.693	244.492	141.432	287.570	246.165	324.771	275.999	5.096	59.426	258.586	215.126	276.879	204.278	0.00027026	0.00028872	0.00013696	556.74	5.7179e-06	2.9887e-06	715.22	155.08	4.2702e-06	3.4468e-06	226.61	69.039	45.576	15.985	4.8874e-06	26.001	0.00024705	0.00024765	6.826e-05	545.46	2.7115e-06	2.7174e-06	690.67	153.16	2.7027e-06	2.712e-06	217.41	67.097	45.772	16.277	2.7552e-06	25.484	-18.615	4.571	165.192	-4.771	24.059	71.313	-5.367	-1.363	113.850	238.387	-3.011	1.050	2.499	5.071	249.922	4.122	-8191	255	
4146.732	1	1	0	0	0.044844	0.041265	0.066414	0.23483	0.1006	0.062928	0.039689	0.1458	0.19652	0.06249	0.23393	0.10168	0.11633	0.11202	0.22036	0.13902	-4.0292	-4.2104	-3.7292	-4.5062	-3.9208	-3.8438	-4.7375	-3.8812	-4.1229	-4.475	-3.75	-4.4396	-3.9896	-3.7167	-4.6104	-3.7667	196.569	12.911	99.461	307.059	75.547	254.015	319.416	44.812	77.062	266.266	328.653	262.074	330.201	184.212	183.618	301.015	0.00040028	0.00050359	5.9557e-05	553.33	3.3136e-06	3.7068e-06	710.58	156.78	6.0563e-06	1.9864e-07	227.31	68.789	45.636	16.127	3.4333e-06	26.105	0.00025835	0.00026107	7.2076e-05	548.27	2.9223e-06	2.9256e-06	692.4	155.48	2.9858e-06	3.0061e-06	220.94	68.355	47.02	16.814	3.2419e-06	26.315	16.368	192.600	249.627	-4.816	296.141	152.099	-5.622	-1.208	114.664	223.198	-3.186	0.736	2.723	5.307	189.049	3.977	-8191	255	
4146.829	1	1	0	0	0.19635	0.093115	0.17287	0.17781	0.10442	0.063951	0.11222	0.16421	0.22408	0.1996	0.22082	0.24813	0.11891	0.15146	0.051936	0.16248	-3.6	-4.275	-3.4875	-4.3729	-4.0729	-3.6917	-4.5042	-3.9021	-3.8271	-4.2854	-3.7313	-4.2458	-4.2292	-3.5583	-4.4604	-3.9813	169.740	17.464	103.022	272.754	-10.376	-14.496	316.971	268.608	95.962	-9.107	28.200	75.956	185.045	294.487	281.051	93.078	0.00075344	0.0002165	9.1085e-05	583.24	3.8914e-06	3.8355e-06	764.4	165.68	6.1328e-06	1.1536e-06	240.7	71.732	47.759	16.841	3.6149e-06	26.631	0.00031456	0.00032305	9.3364e-05	586.91	3.9221e-06	4.0266e-06	755.43	170.6	4.4323e-06	4.5063e-06	244.96	75.63	53.189	18.862	4.9393e-06	28.852	35.835	172.198	18.164	-5.354	17.373	98.170	-6.004	-1.486	87.849	42.461	-3.270	0.885	1.922	5.317	21.256	4.209	-8191	255	
4146.900	1	1	0	0	0.23332	0.034789	0.13307	0.4175	0.12846	0.1706	0.082056	0.051129	0.13718	0.1233	0.12945	0.057136	0.17436	0.18403	0.074625	0.16775	-3.6604	-4.4875	-3.7438	-4.2521	-4.3125	-3.5833	-4.3521	-3.9042	-3.8583	-4.5979	-3.6875	-4.3958	-4.3792	-3.5938	-4.6125	-4.1312	-6.757	201.541	142.599	305.268	245.900	52.203	276.548	95.642	7.614	72.131	-4.654	194.472	-0.063	233.952	331.985	257.813	0.00036225	0.0002543	0.00015801	629.76	2.9511e-06	2.3405e-06	777.98	166.04	8.8826e-06	3.1699e-06	234.52	70.376	46.52	16.55	5.9516e-06	26.048	0.00045021	0.00044526	0.00012326	645.57	4.7425e-06	4.6567e-06	777.56	172.45	4.3855e-06	4.2504e-06	235.88	72.785	49.962	17.563	3.8263e-06	26.832	323.931	232.214	-0.336	-5.581	283.370	175.818	-6.014	-1.636	216.171	115.899	-3.348	0.876	2.474	5.481	338.821	4.150	-8191	255	
4147.021	1	1	0	0	0.4518	0.26879	0.033029	0.14424	0.16044	0.11718	0.22592	0.16512	0.069832	0.27665	0.092656	0.11708	0.41132	0.181	0.27696	0.098136	-3.3896	-4.6208	-3.8104	-4.2375	-4.3688	-3.7125	-4.5938	-4.1979	-3.8292	-4.6208	-3.8271	-3.9521	-4.4812	-3.7375	-4.3417	-4.1958	12.724	153.212	223.814	334.667	79.308	22.611	272.540	174.183	241.076	151.254	286.844	327.233	178.703	235.978	247.207	47.197	0.00014661	0.0004154	0.00010852	557.16	2.6587e-06	4.1164e-06	702.33	153.98	2.0529e-06	6.5883e-06	221.64	68.613	44.573	15.854	3.7424e-06	25.677	0.00033224	0.00032166	8.7141e-05	559.33	3.237e-06	3.1799e-06	685.77	153.77	2.9765e-06	2.8811e-06	215.9	67.124	45.37	16.05	2.7164e-06	25.008	66.381	-4.135	-7.769	-5.092	191.546	114.606	-5.420	-1.231	166.822	171.075	-3.172	1.136	2.165	4.921	47.102	4.328	-8191	255	
4147.115	1	1	0	0	0.077577	0.14685	0.25911	0.22979	0.21668	0.15292	0.18497	0.099616	0.21785	0.067255	0.11439	0.16294	0.05782	0.11816	0.25106	0.083266	-3.4271	-4.5542	-3.8708	-3.9729	-4.45	-3.5604	-4.3875	-4.275	-3.5687	-4.5	-3.7979	-3.9396	-4.4958	-3.5917	-4.1896	-4.2229	26.807	49.609	332.732	143.081	306.780	86.125	54.852	270.192	34.258	179.887	260.380	229.576	290.954	171.963	202.794	-9.531	0.00051199	0.00023675	7.6549e-05	532.61	1.3532e-06	5.8347e-06	672.34	153.62	3.6278e-06	2.7707e-06	221.79	67.441	44.461	15.853	1.8673e-06	25.674	0.00024238	0.00023932	6.679e-05	523.61	2.6388e-06	2.6214e-06	654	151.59	2.664e-06	2.7116e-06	213.42	65.9	45.034	16.028	2.733e-06	25.008	46.884	179.943	292.027	-4.823	6.615	216.197	-5.756	-1.456	72.606	20.618	-2.644	1.194	2.788	4.792	70.991	3.156	-8191	255	
4147.211	1	1	0	0	0.29077	0.27285	0.14136	0.087227	0.047735	0.1596	0.074555	0.069608	0.12644	0.36706	0.055118	0.11322	0.14941	0.063394	0.1603	0.24408	-3.525	-4.4396	-4.1417	-3.9542	-4.5167	-3.7042	-4.1167	-4.3667	-3.5646	-4.4563	-4.0771	-3.6125	-4.55	-3.7083	-4.1396	-4.3208	-10.685	80.295	287.371	-5.421	195.362	198.602	283.641	150.409	274.003	146.502	292.739	334.956	301.796	322.290	185.560	-4.851	0.00037554	0.00067407	0.0001836	528.38	8.2517e-07	6.4965e-06	667.14	152.83	2.5603e-06	3.9581e-06	222.06	66.89	44.011	15.804	2.9485e-06	25.645	0.00024794	0.00024698	6.8603e-05	521.74	2.6382e-06	2.6628e-06	649.57	151.11	2.6237e-06	2.5932e-06	212.27	64.81	44.203	15.798	2.4919e-06	24.615	-3.914	152.952	41.522	-4.772	169.546	135.292	-5.540	-1.301	-13.826	173.789	-2.834	1.392	2.139	5.019	163.027	3.443	-8191	255	
4147.308	1	1	0	0	0.20079	0.29337	0.042301	0.12548	0.082638	0.04304	0.24172	0.037651	0.13418	0.19661	0.29844	0.25097	0.11724	0.14448	0.15956	0.13027	-3.2896	-4.4021	-4.2042	-3.8354	-4.7	-3.9271	-4.1	-4.6125	-3.7438	-4.3354	-4.0896	-3.6854	-4.6458	-3.9792	-3.9958	-4.5542	105.089	19.207	138.460	232.488	330.352	211.336	305.870	200.297	106.013	254.021	275.799	286.212	129.446	-3.263	294.094	210.242	0.0004716	0.00052661	0.00013217	521.76	1.6939e-06	3.595e-06	654.89	153.96	5.3604e-06	2.1593e-06	220.52	67.348	44.477	15.69	2.5637e-06	25.854	0.00022313	0.00021947	6.1165e-05	509.19	2.3411e-06	2.3449e-06	633.7	149.47	2.2817e-06	2.3287e-06	209.6	64.177	43.826	15.671	2.4289e-06	24.697	27.800	191.553	39.307	-4.983	227.510	294.936	-5.560	-1.331	81.933	159.960	-2.882	0.698	2.222	5.184	194.350	3.956	-8191	255	
4147.428	1	1	0	0	0.0050694	0.15625	0.37562	0.10825	0.28435	0.30118	0.034444	0.11372	0.17493	0.20775	0.31961	0.16694	0.29953	0.10232	0.11338	0.10192	-3.2292	-4.3104	-4.1813	-3.6729	-4.5458	-3.9167	-4.0146	-4.5042	-3.7396	-4.2667	-4.4271	-3.6958	-4.4104	-3.9854	-3.8333	-4.5854	316.635	31.830	330.128	6.756	284.125	278.684	97.658	305.139	35.410	163.137	315.277	174.468	-10.439	323.344	259.276	250.310	0.00028946	0.0010093	0.00017787	527.43	2.6879e-06	2.1964e-06	673.81	155.87	5.9412e-06	5.3312e-06	223.97	69.265	45.327	16.243	3.517e-06	26.279	0.00022389	0.00022697	6.3474e-05	517.56	2.5792e-06	2.6216e-06	652.12	153.51	2.748e-06	2.8131e-06	216.58	67.551	46.273	16.598	3.0438e-06	26.006	8.036	52.488	5.522	-5.177	50.562	151.016	-5.660	-1.295	123.772	-17.183	-3.100	0.710	2.213	5.207	76.014	3.869	-8191	255	
4147.524	1	1	0	0	0.029213	0.04174	0.07702	0.2145	0.20153	0.18567	0.16785	0.1043	0.10113	0.084837	0.2279	0.055826	0.06327	0.17669	0.10883	0.24417	-3.4542	-4.1917	-4.4104	-3.7396	-4.4021	-4.1667	-3.7292	-4.6	-3.7521	-4.0646	-4.6	-3.7375	-4.4521	-4.0583	-3.7354	-4.5292	81.845	65.301	7.761	207.904	262.100	95.571	328.624	293.817	81.221	309.502	307.088	64.226	138.045	85.961	14.393	323.375	0.00027965	0.0010586	7.929e-05	542.38	5.0508e-06	4.3594e-06	690.34	156.7	4.6761e-06	3.4127e-06	225.33	68.903	45.782	16.14	3.4784e-06	26.193	0.00028396	0.00028585	7.923e-05	541.23	3.1701e-06	3.1642e-06	673.65	156.92	3.1388e-06	3.1469e-06	219.91	68.114	47.01	16.707	3.095e-06	25.903	74.842	40.261	45.680	-5.119	28.927	-8.263	-5.644	-1.216	199.962	-3.745	-2.829	0.791	2.046	5.012	99.645	3.858	-8191	255	
4147.596	1	1	0	0	0.076322	0.11745	0.25536	0.22784	0.14335	0.097823	0.18035	0.18122	0.17966	0.22715	0.27549	0.25364	0.14166	0.32687	0.18284	0.07953	-3.5167	-3.8583	-4.4271	-3.6021	-4.2958	-4.2021	-3.7375	-4.4187	-3.9167	-3.9208	-4.4938	-3.725	-4.2896	-4.1479	-3.4688	-4.5083	15.227	226.612	163.613	23.407	97.197	134.796	241.029	188.552	194.042	123.291	236.920	12.183	322.445	34.136	170.774	196.473	0.00033466	0.00080464	7.2439e-05	533.36	6.6089e-07	2.1398e-06	678.15	157.44	2.9214e-06	5.7197e-07	224.89	68.245	45.303	16.35	1.3649e-06	26.468	0.00027668	0.00027422	7.4713e-05	531.72	2.9184e-06	2.859e-06	658.38	155.1	2.7585e-06	2.7003e-06	215.78	66.525	45.515	16.296	2.6078e-06	25.518	14.468	333.608	64.250	-4.915	283.073	202.900	-5.710	-1.180	146.442	322.143	-3.051	1.094	2.212	5.088	115.842	3.392	-8191	255	
4147.692	1	1	0	0	0.082286	0.1714	0.061391	0.23544	0.11316	0.19086	0.14602	0.14472	0.19225	0.17865	0.18083	0.32059	0.18135	0.21212	0.22434	0.19968	-3.6104	-3.7271	-4.5437	-3.625	-3.9958	-4.4729	-3.8479	-4.5417	-3.975	-3.8417	-4.6271	-3.7333	-4.0417	-4.3063	-3.5667	-4.4521	99.689	279.203	52.432	332.883	140.615	20.888	193.381	260.886	308.805	240.022	37.640	340.225	174.908	66.680	205.563	200.623	7.5748e-05	0.00032672	9.6502e-05	536.41	3.9721e-06	2.6417e-06	680.43	159.88	3.3073e-06	1.3559e-06	226.33	68.883	46.062	16.491	8.1283e-06	26.986	0.00023435	0.0002335	6.3898e-05	527.32	2.5468e-06	2.5318e-06	656.43	155.89	2.4965e-06	2.4882e-06	216.64	66.505	45.55	16.341	2.4362e-06	25.767	149.624	320.946	283.228	-5.258	151.864	105.232	-5.873	-1.319	-5.108	179.286	-2.931	0.724	2.444	4.465	183.302	3.346	-8191	255	
4147.813	1	1	0	0	0.12784	0.079437	0.073444	0.17086	0.069837	0.10286	0.083884	0.11081	0.25475	0.14941	0.030109	0.13421	0.21247	0.13493	0.14632	0.029723	-3.6521	-3.7583	-4.4958	-3.7313	-4.1042	-4.3938	-3.6833	-4.3458	-4.2021	-3.575	-4.6333	-3.8563	-4.0917	-4.5625	-3.5375	-4.2604	118.908	319.012	279.249	141.912	-9.518	206.927	127.589	315.200	323.333	43.971	164.682	-13.409	173.846	67.408	102.153	195.328	0.00017003	0.00066261	0.00026832	544.33	5.4537e-06	2.0792e-06	684.21	160.98	1.8872e-06	2.1499e-06	227.69	69.612	46.006	16.519	5.222e-06	26.716	0.00022032	0.00021844	6.05e-05	530.66	2.4084e-06	2.3612e-06	659.65	156.61	2.3764e-06	2.4155e-06	217.17	66.542	45.685	16.389	2.4698e-06	25.731	83.457	31.746	87.316	-5.390	105.039	-8.668	-5.550	-1.441	112.932	196.644	-2.874	0.724	1.975	5.083	125.294	3.523	-8191	255	
4147.909	1	1	0	0	0.19809	0.034608	0.087161	0.11296	0.25939	0.20822	0.15214	0.21054	0.094424	0.05609	0.17364	0.044647	0.21509	0.23608	0.16996	0.097324	-4.0021	-3.6417	-4.5667	-3.9146	-3.9146	-4.3521	-3.7042	-4.2875	-4.3167	-3.7521	-4.4875	-3.9833	-3.8979	-4.7188	-3.5396	-4.1125	268.255	239.080	111.890	278.607	335.425	228.678	205.778	37.214	10.292	187.877	107.792	298.876	-6.722	-12.289	169.575	287.858	0.00032863	0.00032019	0.00012493	540.76	3.6172e-06	1.6661e-06	683.59	160.38	4.2833e-06	1.409e-06	228.74	69.54	45.927	16.515	4.769e-06	26.88	0.00022301	0.00022261	6.2943e-05	528.81	2.4463e-06	2.4239e-06	656.4	156.62	2.4361e-06	2.459e-06	217.83	66.91	46.039	16.548	2.6805e-06	26.047	19.283	166.589	29.668	-4.630	174.166	111.430	-5.385	-1.316	36.445	228.944	-3.105	0.831	2.035	4.820	167.191	3.419	-8191	255	
4148.005	1	1	0	0	0.062616	0.11554	0.11361	0.087402	0.19218	0.21292	0.10763	0.085201	0.22147	0.059148	0.2035	0.16707	0.17603	0.099862	0.34671	0.20887	-4.0354	-3.5521	-4.5729	-3.9646	-3.9229	-4.65	-3.85	-4.1625	-4.2833	-3.6229	-4.5771	-4.1229	-3.9292	-4.4771	-3.7438	-4.1208	31.850	113.742	79.350	167.909	286.500	191.568	300.269	239.970	148.036	292.221	272.470	181.832	174.297	214.663	305.683	264.944	0.00031051	0.00029621	1.107e-05	546.5	4.9853e-06	3.0552e-06	686.92	161.27	1.1494e-05	5.0696e-06	228.57	68.815	46.222	16.661	1.6855e-06	26.809	0.00025531	0.00025956	7.4205e-05	542.76	2.9997e-06	3.0149e-06	674.1	160.26	3.0708e-06	3.0709e-06	222.08	68.23	47.462	17.082	3.1107e-06	26.565	17.856	298.821	74.719	-4.975	135.110	142.051	-5.856	-1.329	157.377	304.792	-3.224	1.000	2.468	4.982	133.315	3.449	-8191	255	
4148.101	1	1	0	0	0.24128	0.14245	0.14198	0.18272	0.1691	0.081392	0.077684	0.31097	0.087849	0.33118	0.078448	0.17965	0.2365	0.034541	0.19732	0.31297	-4.2333	-3.6125	-4.3625	-4.175	-3.6667	-4.5583	-4.1479	-3.9771	-4.4125	-3.6708	-4.2083	-4.225	-3.7917	-4.5687	-4.0979	-3.9375	36.640	338.231	175.767	281.687	80.851	328.189	80.529	3.625	244.955	-2.656	142.859	-5.203	312.268	58.667	296.850	211.433	0.00033522	0.00055046	0.00016803	549.64	5.7481e-06	9.4802e-06	694.82	159.75	7.103e-06	5.0658e-06	227.35	69.075	46.025	16.953	5.3604e-06	27.112	0.00028155	0.00028415	7.9355e-05	544.79	3.0652e-06	3.0595e-06	675.73	158.83	3.0277e-06	3.0397e-06	220.45	68.179	47.278	17.172	3.0604e-06	26.65	70.263	295.444	78.225	-5.053	117.024	229.610	-5.672	-1.435	314.717	201.080	-3.112	1.292	2.012	5.332	96.843	3.384	-8191	255	
4148.196	1	1	0	0	0.16347	0.11654	0.046412	0.21092	0.057047	0.12941	0.088452	0.14274	0.079471	0.18221	0.31606	0.15801	0.12005	0.086424	0.16582	0.11189	-4.225	-3.6646	-4.1896	-4.3	-3.6146	-4.5667	-4.0271	-3.9271	-4.5	-3.6479	-4.2688	-4.4208	-3.7521	-4.3146	-3.9375	-3.7021	170.624	235.742	268.919	329.704	3.470	254.626	197.607	189.160	227.894	52.453	171.425	39.275	330.313	-0.519	28.607	216.339	0.00018369	0.00048948	0.00019676	556.7	6.8141e-06	6.3169e-06	706.79	161.31	6.0609e-06	4.1191e-06	229.92	69.935	46.807	17.108	3.3568e-07	27.443	0.00028319	0.00028745	7.9574e-05	552.98	3.1593e-06	3.1925e-06	689.69	161.26	3.1947e-06	3.2347e-06	224.53	69.415	48.255	17.584	3.2531e-06	27.202	326.160	101.789	324.636	-5.100	245.693	81.608	-6.083	-1.503	39.650	316.256	-3.159	0.194	1.721	5.122	190.526	3.454	-8191	255	
4148.293	1	1	0	0	0.099692	0.24488	0.049338	0.1286	0.29815	0.058591	0.046821	0.038607	0.088523	0.059938	0.19919	0.16152	0.12781	0.1422	0.13333	0.094335	-4.1646	-3.7396	-4.0875	-4.5208	-3.5375	-4.2375	-4.1625	-3.6396	-4.3771	-3.6479	-3.9875	-4.4208	-3.5042	-4.3604	-4.1	-3.9062	223.724	24.537	225.496	40.396	6.451	163.654	300.838	-11.065	133.709	187.974	147.850	87.936	256.981	48.301	205.809	-16.325	0.00010731	0.0003899	6.0146e-05	561.69	3.9994e-06	6.1735e-06	702.48	160.3	3.8605e-06	1.6071e-06	226.04	69.346	46.383	16.773	3.8655e-06	26.85	0.00029252	0.00029425	8.0887e-05	559.58	3.1544e-06	3.1144e-06	685.97	159.7	3.0672e-06	3.0376e-06	220.08	67.944	47.11	17.043	2.8682e-06	26.182	-9.454	194.907	53.444	-5.072	22.940	35.689	-5.823	-1.384	233.664	229.462	-2.862	0.834	2.137	5.283	157.372	3.158	-8191	255	
4148.412	1	1	0	0	0.031316	0.12029	0.10314	0.085376	0.038162	0.14915	0.1115	0.31	0.064212	0.052315	0.034308	0.16359	0.086718	0.29409	0.11984	0.13734	-4.3375	-3.7292	-3.9708	-4.5625	-3.6271	-4.3042	-4.25	-3.5375	-4.6729	-3.7917	-3.9271	-4.6083	-3.6792	-4.2833	-4.1833	-3.7938	266.738	239.001	53.735	224.323	158.819	243.672	263.131	11.745	167.548	21.333	118.039	255.676	240.309	35.247	132.983	317.605	4.8753e-05	0.00058344	0.00030018	545.95	2.4241e-06	4.4887e-06	679.74	158.49	1.3751e-06	5.2587e-06	224.81	68.232	45.714	16.667	6.3923e-06	26.574	0.00025616	0.00025422	6.9539e-05	536.68	2.6888e-06	2.6751e-06	657.74	156.08	2.5761e-06	2.5615e-06	214.25	65.592	45.539	16.491	2.4235e-06	25.591	10.668	14.696	338.542	-4.991	202.858	233.262	-5.404	-1.192	161.427	64.833	-3.267	0.877	2.079	4.701	24.856	3.402	-8191	255	
4148.509	1	1	0	0	0.1744	0.1302	0.22599	0.21241	0.2264	0.050326	0.21737	0.11392	0.088139	0.12163	0.13633	0.13752	0.40014	0.16019	0.052614	0.20823	-4.1813	-3.8458	-3.7646	-4.6375	-3.5917	-4.2354	-4.4208	-3.6937	-4.3396	-4.0208	-3.8042	-4.5	-3.725	-3.9854	-4.3958	-3.6667	90.349	4.913	15.393	256.203	60.149	121.380	1.587	188.579	1.659	303.864	251.964	35.936	188.387	272.995	213.423	331.902	0.00029393	0.00035451	8.4168e-05	543.9	3.745e-06	7.5588e-06	676.79	160.49	1.9012e-06	5.4487e-06	224.91	67.825	45.478	16.77	1.9482e-06	26.875	0.00021944	0.00021663	5.9821e-05	529.81	2.3345e-06	2.3496e-06	651.16	155.4	2.3384e-06	2.2993e-06	212.66	64.903	44.849	16.455	2.2897e-06	25.66	78.710	215.516	2.415	-5.034	156.128	39.298	-5.463	-1.671	222.231	69.664	-3.168	0.759	2.235	4.615	110.756	2.772	-8191	255	
4148.605	1	1	0	0	0.089964	0.18987	0.12956	0.07438	0.12577	0.12587	0.1328	0.046015	0.12753	0.25526	0.074331	0.033309	0.29345	0.10496	0.081403	0.18936	-4.1333	-4.0271	-3.5729	-4.3562	-3.4396	-3.9521	-4.2271	-3.5792	-4.1188	-4.0708	-3.4458	-4.3708	-3.7292	-3.8688	-4.4167	-3.6646	184.621	211.065	94.964	1.210	249.719	282.588	144.226	277.018	118.396	44.272	264.850	110.750	179.643	258.098	21.888	11.261	0.00052386	0.0006154	0.00018596	549.39	3.6228e-06	4.9069e-06	681.86	161.11	5.6544e-06	1.5033e-06	225.86	68.722	46.341	16.942	4.1103e-06	27.16	0.00021347	0.00021387	5.8836e-05	535.11	2.401e-06	2.4205e-06	658.77	157.36	2.4865e-06	2.4799e-06	215.82	66.304	46.224	16.809	2.5706e-06	26.081	40.558	73.518	36.503	-5.194	185.639	148.691	-5.609	-1.405	330.376	312.674	-3.295	0.553	2.058	4.653	134.032	3.456	-8191	255	
4148.701	1	1	0	0	0.13201	0.11997	0.20936	0.15943	0.19423	0.12544	0.070657	0.17436	0.12814	0.070598	0.062234	0.20901	0.069578	0.083296	0.17227	0.19918	-3.8688	-4.1146	-3.5021	-4.4271	-3.8125	-3.6333	-4.3458	-3.4562	-3.9208	-4.1417	-3.4333	-4.4458	-3.6833	-3.575	-4.4125	-3.6417	180.407	333.359	26.623	290.244	-17.062	119.739	188.135	196.290	65.128	15.700	244.056	245.308	127.447	189.999	309.923	15.033	0.00051774	0.00031819	0.00015312	546.2	7.1471e-06	4.9871e-06	684.91	160.87	5.5492e-06	1.7375e-06	226.81	69.153	46.606	16.955	2.3439e-06	26.771	0.00023884	0.00023837	6.7226e-05	538.87	2.7154e-06	2.7251e-06	665.51	159	2.7646e-06	2.7513e-06	218.22	67.187	46.693	16.871	2.6636e-06	25.915	-2.194	125.504	76.255	-5.210	78.804	15.402	-5.673	-1.464	36.842	44.637	-2.870	0.583	2.272	4.907	204.345	3.775	-8191	255	
4148.797	1	1	0	0	0.073274	0.22234	0.084519	0.12383	0.015254	0.13159	0.3364	0.32999	0.099278	0.068528	0.24513	0.060583	0.17645	0.19295	0.30927	0.065359	-3.7958	-4.3313	-3.3229	-4.2583	-3.9292	-3.3583	-4.425	-3.6875	-4.0437	-4.1917	-3.5208	-4.2417	-4.0042	-3.6417	-4.1542	-3.6042	162.129	143.355	322.767	162.194	226.466	-18.021	277.346	303.361	151.105	136.716	274.800	-8.571	149.209	339.614	214.227	19.108	0.00061766	0.00073981	0.00013502	549.34	3.2456e-06	4.8842e-06	679.74	160.16	6.4068e-06	2.0709e-06	223.19	68.479	45.644	16.577	1.5581e-06	26.57	0.00023952	0.00023407	6.4876e-05	539.75	2.499e-06	2.4607e-06	658.04	156.28	2.441e-06	2.3839e-06	213.61	65.454	45.163	16.377	2.3913e-06	25.322	55.050	26.239	325.170	-4.955	2.841	337.727	-5.346	-1.294	51.467	183.687	-3.179	0.568	1.828	4.802	99.056	3.170	-8191	255	
4148.893	1	1	0	0	0.12201	0.16803	0.25532	0.33032	0.075438	0.08109	0.18524	0.088446	0.14713	0.16798	0.27573	0.17585	0.14772	0.27949	0.24246	0.12306	-3.6333	-4.3708	-3.5042	-4.1833	-3.9062	-3.5583	-4.5417	-3.675	-3.6458	-4.2667	-3.4813	-4.1438	-4.0021	-3.6562	-4.3875	-3.9417	228.843	105.548	298.211	307.099	163.910	256.464	337.390	99.204	170.824	148.641	262.838	39.055	224.852	3.997	32.733	74.409	0.00034262	0.00053888	0.00014605	548.16	3.2134e-06	5.2252e-07	679.33	159.1	4.2732e-06	1.127e-06	222.2	67.477	44.834	16.269	3.0016e-06	26.527	0.00021736	0.00021254	5.9101e-05	533.54	2.2852e-06	2.2718e-06	651.86	154.37	2.2141e-06	2.1857e-06	209.77	63.994	43.999	15.996	2.1521e-06	24.905	22.546	180.601	2.783	-5.276	89.554	-5.333	-5.515	-1.174	0.346	40.233	-3.043	0.811	2.529	5.176	206.390	2.842	-8191	255	
4148.989	1	1	0	0	0.22767	0.028859	0.19369	0.21637	0.054923	0.22259	0.23729	0.23824	0.056157	0.15479	0.16504	0.15768	0.06668	0.28314	0.0797	0.067604	-3.3958	-4.2521	-3.4229	-3.9313	-3.9604	-3.4417	-4.4583	-3.8458	-3.7208	-4.375	-3.4437	-3.9688	-4.2375	-3.3917	-4.3187	-4.0917	316.488	92.323	102.983	5.517	308.225	6.515	311.594	305.743	33.988	30.726	304.205	288.235	204.908	-6.341	130.845	-18.534	0.00039094	0.0003028	0.00015751	544.98	2.1006e-06	3.1504e-06	677.75	160.3	3.8943e-06	4.7196e-06	223.04	67.873	45.099	16.566	2.824e-06	26.634	0.00019182	0.00019167	5.3259e-05	527.48	2.0698e-06	2.0788e-06	646.4	154.05	2.084e-06	2.0855e-06	210.4	64.104	44.242	16.148	2.1267e-06	25.106	37.744	249.179	2.579	-5.309	110.677	133.004	-5.705	-1.180	110.750	62.361	-3.306	0.906	2.403	5.174	286.818	3.477	-8191	255	
4149.085	1	1	0	0	0.15771	0.16051	0.11614	0.13778	0.0094517	0.23001	0.16773	0.17703	0.10247	0.12098	0.11321	0.21681	0.093261	0.10353	0.082408	0.20976	-3.5187	-4.4125	-3.5062	-3.8083	-4.1521	-3.4542	-4.2021	-3.9896	-3.6375	-4.3042	-3.8458	-3.9208	-4.3021	-3.4375	-4.2542	-4.1271	69.183	116.961	323.113	339.744	117.773	112.590	185.753	302.355	198.439	57.837	102.057	263.243	38.527	263.996	277.567	299.621	0.00031985	0.00090062	0.00021761	548.42	2.9557e-06	2.2008e-06	687.52	160.63	7.3688e-06	1.3226e-06	225.9	68.279	45.896	16.655	3.1166e-06	26.754	0.00019608	0.00019531	5.4994e-05	533.35	2.1521e-06	2.1677e-06	657.53	155.01	2.1685e-06	2.1931e-06	213.29	64.985	44.959	16.354	2.2821e-06	25.335	26.417	96.598	-15.833	-5.180	287.018	136.174	-5.534	-1.470	306.382	73.576	-2.638	0.639	2.498	5.006	58.096	3.301	-8191	255	
4149.204	1	1	0	0	0.31999	0.18789	0.029391	0.17522	0.14619	0.16811	0.29408	0.14215	0.13809	0.16923	0.1774	0.32956	0.14463	0.14126	0.22998	0.079705	-3.2271	-4.35	-3.6646	-3.6875	-4.3187	-3.6104	-4.1458	-4.1354	-3.4625	-4.3938	-3.8646	-3.8229	-4.3479	-3.4792	-3.9833	-4.1583	-9.562	232.333	180.792	140.762	55.777	291.357	290.201	54.866	132.222	195.821	-1.667	259.506	57.911	173.007	114.933	274.691	0.00028811	0.00048407	0.00012341	554.33	3.2721e-06	1.3118e-06	688.85	160.57	4.6722e-06	2.9731e-06	226.03	68.456	46.857	16.804	3.4267e-06	26.717	0.00020988	0.00020977	5.8533e-05	539.55	2.3206e-06	2.3618e-06	662.21	156.32	2.3944e-06	2.4291e-06	214.85	65.964	46.117	16.765	2.5686e-06	25.821	53.078	154.670	304.938	-5.275	153.039	233.935	-5.930	-1.047	268.251	21.418	-2.979	0.492	2.519	5.053	208.718	3.200	-8191	255	
4149.300	1	1	0	0	0.11537	0.15883	0.2301	0.19586	0.068113	0.30301	0.17747	0.13104	0.20981	0.0874	0.085443	0.29324	0.23222	0.14549	0.098267	0.26224	-3.1146	-4.3688	-3.7979	-3.8146	-4.4667	-3.5875	-4.0583	-4.0312	-3.5083	-4.3063	-4.0042	-3.6458	-4.4542	-3.5312	-3.6042	-4.3917	275.434	235.074	223.610	317.802	287.599	180.050	295.805	132.833	316.726	28.174	126.576	-0.563	-5.430	271.562	114.555	211.282	0.00028978	0.00053175	0.00012766	559.67	6.4138e-06	2.8589e-06	698.01	161.55	2.9279e-06	1.655e-06	225.93	69.161	46.473	17.02	5.7024e-06	26.78	0.00023884	0.00024121	6.7239e-05	550.15	2.6996e-06	2.7029e-06	677.82	158.75	2.7713e-06	2.7456e-06	217.72	67.075	46.825	17.001	2.747e-06	26.101	71.191	98.941	46.310	-5.024	167.427	274.203	-5.672	-1.329	259.919	191.942	-3.222	0.780	2.646	4.935	117.373	3.457	-8191	255	
4149.397	1	1	0	0	0.084782	0.10204	0.13262	0.071384	0.38239	0.18807	0.11772	0.12291	0.06787	0.22838	0.023232	0.29367	0.19662	0.23951	0.26765	0.080027	-3.0792	-4.3313	-3.9083	-3.5271	-4.2937	-3.5375	-3.8771	-4.4104	-3.3292	-4.1396	-4.0729	-3.7167	-4.4396	-3.6312	-3.7625	-4.2375	71.865	67.907	338.489	44.882	117.408	278.845	235.399	16.142	251.660	329.431	93.401	169.546	283.120	10.664	271.593	291.305	0.00048321	0.00015453	0.00012523	553.33	3.8014e-06	3.9591e-07	683.85	160.67	6.4892e-06	3.7236e-06	224.31	68.514	45.834	16.786	3.6223e-06	26.745	0.00025095	0.00024677	6.8067e-05	544.85	2.6595e-06	2.6239e-06	661.98	156.88	2.5791e-06	2.5395e-06	213.83	65.804	45.643	16.579	2.4902e-06	25.664	51.705	106.328	2.164	-5.010	94.863	5.715	-5.618	-1.620	111.187	279.455	-2.968	0.472	2.314	5.345	118.727	3.399	-8191	255	
4149.493	1	1	0	0	0.064196	0.17857	0.058219	0.084595	0.24769	0.17416	0.20906	0.14264	0.24129	0.21771	0.17893	0.18182	0.06672	0.30126	0.10339	0.11614	-3.15	-4.2167	-3.9437	-3.5563	-4.4583	-3.6813	-3.8833	-4.2896	-3.4958	-4.0271	-4.2958	-3.4833	-4.5167	-4.0188	-3.6229	-4.3333	311.098	8.746	151.030	31.640	7.108	51.886	242.079	250.428	110.885	16.643	39.805	181.262	102.804	239.173	150.548	84.986	0.0002725	0.00018682	0.00015199	553.14	2.2273e-06	4.5143e-06	690.48	159.99	4.2473e-06	7.234e-06	224.12	68.378	46.226	16.908	2.3134e-06	26.977	0.0002301	0.00022962	6.3693e-05	542.58	2.5596e-06	2.558e-06	667.58	157.43	2.6212e-06	2.6364e-06	216.28	66.677	46.594	16.989	2.812e-06	26.321	79.159	302.824	27.765	-5.273	281.284	149.151	-5.813	-1.296	78.427	82.381	-3.426	0.797	1.873	5.056	282.637	3.398	-8191	255	
4149.589	1	1	0	0	0.12182	0.26842	0.29541	0.13236	0.046225	0.15724	0.17371	0.065866	0.074008	0.11069	0.11954	0.077907	0.027631	0.29164	0.14443	0.31183	-3.2104	-3.9229	-4.175	-3.5146	-4.1292	-4.0458	-3.6667	-4.3208	-3.7687	-3.8646	-4.4313	-3.3854	-4.3187	-3.9417	-3.4271	-4.5667	137.710	189.715	5.449	271.727	18.716	178.169	179.582	190.312	0.720	266.627	269.173	259.238	195.924	117.570	245.072	319.315	0.00029819	0.00089479	0.00015438	563.4	9.3239e-07	2.0739e-06	707.81	162.12	6.7148e-06	2.1809e-06	226.66	68.158	46.624	16.948	1.3103e-06	27.036	0.00026687	0.0002698	7.5496e-05	559.9	3.095e-06	3.1422e-06	691.36	161.88	3.2967e-06	3.3245e-06	222.62	68.987	48.607	17.728	3.4631e-06	27.029	37.005	262.688	328.378	-5.183	90.299	138.754	-5.500	-1.507	100.668	128.415	-2.922	0.909	1.891	4.897	285.926	2.926	-8191	255	
4149.685	1	1	0	0	0.27366	0.084625	0.095069	0.13696	0.13595	0.013309	0.16139	0.15424	0.10155	0.13988	0.30541	0.076064	0.12317	0.075851	0.18964	0.25413	-3.3146	-3.8708	-4.2292	-3.5583	-4.3333	-4.0667	-3.5979	-4.4021	-3.6958	-3.6396	-4.3979	-3.5417	-3.9354	-4.1792	-3.6417	-4.3542	284.389	98.012	303.381	139.527	130.394	94.546	289.996	109.389	95.075	23.894	266.345	282.507	249.240	270.845	86.354	190.089	0.00053077	0.00028493	0.00012944	563.54	9.7924e-06	7.3817e-06	704.99	159.42	1.6028e-06	4.1576e-06	224.4	68.431	46.74	16.83	5.3928e-06	26.792	0.00031373	0.00031284	8.6534e-05	566.7	3.4381e-06	3.3804e-06	693.73	161.25	3.4325e-06	3.4458e-06	222.01	68.875	48.55	17.633	3.4687e-06	26.931	35.900	292.351	6.695	-5.001	90.829	106.605	-5.699	-1.226	75.130	222.507	-2.926	0.887	2.017	5.059	76.136	3.518	-8191	255	
4149.781	1	1	0	0	0.10886	0.13356	0.1186	0.20243	0.13202	0.064276	0.25303	0.32693	0.12023	0.15206	0.19109	0.040726	0.14176	0.22237	0.21423	0.17359	-3.4375	-3.7917	-4.2083	-3.5042	-3.9875	-4.2042	-3.5875	-4.275	-3.7583	-3.5583	-4.3271	-3.3688	-4.0333	-4.3229	-3.5104	-4.2771	105.625	132.839	228.584	305.364	195.751	200.417	311.990	79.813	215.692	256.822	299.510	189.937	53.870	255.624	138.935	252.401	0.00054599	0.00034234	0.00010879	562.41	3.3217e-06	2.6104e-06	703.41	158.46	8.9858e-06	6.3948e-06	222.91	67.947	46.034	16.595	9.2138e-06	26.346	0.00031406	0.00031202	8.7412e-05	566.29	3.387e-06	3.3208e-06	689.75	160.06	3.3174e-06	3.2919e-06	219.46	67.723	47.516	17.172	3.2623e-06	26.218	45.402	264.398	1.859	-5.316	33.734	95.562	-5.586	-1.220	224.896	203.705	-3.226	0.896	2.371	4.709	40.076	2.990	-8191	255	
4149.902	1	1	0	0	0.043317	0.12201	0.072814	0.048223	0.18503	0.060017	0.011418	0.24612	0.098583	0.08605	0.10867	0.18379	0.072258	0.20514	0.20766	0.088991	-3.6458	-3.6542	-4.3625	-3.7042	-4.0188	-4.2458	-3.5271	-4.2917	-3.9354	-3.5458	-4.4104	-3.5417	-3.6229	-4.25	-3.25	-4.125	-10.604	282.135	234.602	265.510	220.524	320.602	179.108	-15.477	143.432	218.673	31.644	4.094	34.964	316.984	58.666	179.841	0.00062638	0.00056777	0.00013529	550.16	4.8874e-06	5.6851e-06	691.58	157.41	5.2747e-06	5.1256e-06	222.01	67.576	46.103	16.813	3.9623e-06	26.538	0.00029172	0.00029333	8.134e-05	551.26	3.1389e-06	3.1542e-06	675.38	157.92	3.1133e-06	3.154e-06	217.53	67.244	47.333	17.141	3.1809e-06	26.288	69.241	21.653	168.461	-4.995	173.084	152.274	-5.641	-1.659	149.404	287.861	-3.144	0.904	1.956	4.950	169.404	3.067	-8191	255	
4149.998	1	1	0	0	0.020254	0.27123	0.023069	0.17714	0.23236	0.082457	0.078443	0.15356	0.035604	0.047171	0.10018	0.2226	0.13904	0.055582	0.19348	0.012315	-3.7854	-3.5917	-4.4333	-3.5875	-3.6146	-4.4417	-3.6604	-4.1042	-4.0417	-3.5729	-4.5021	-3.9562	-3.6854	-4.425	-3.5833	-4.2125	209.632	274.315	313.831	264.689	204.479	187.624	317.521	16.047	71.780	178.394	14.068	174.589	71.471	42.477	265.724	175.786	0.00026338	0.0004486	0.00010965	558.66	3.5411e-06	2.1414e-06	694.51	159.16	5.0014e-06	1.8144e-06	222.46	67.61	45.372	16.689	4.2556e-06	26.259	0.00028698	0.00029095	8.0965e-05	554.72	3.1551e-06	3.1404e-06	678.65	158.08	3.143e-06	3.1509e-06	217.49	67.004	46.764	16.969	3.0837e-06	25.897	68.499	310.467	25.366	-4.833	90.836	138.636	-5.958	-1.383	157.272	259.591	-2.978	0.958	2.155	4.709	167.329	2.973	-8191	255	
4150.094	1	1	0	0	0.095796	0.090855	0.19641	0.21819	0.1774	0.1905	0.10597	0.2106	0.28337	0.030772	0.049217	0.1273	0.10687	0.32862	0.11786	0.16206	-3.9083	-3.4479	-4.2583	-4.0375	-3.5687	-4.55	-3.5333	-3.9208	-4.3125	-3.4688	-4.4146	-4.0396	-3.5833	-4.4021	-3.6042	-3.9271	161.386	58.630	204.581	300.002	180.975	141.330	183.936	7.685	61.726	104.850	16.832	-2.820	257.930	285.275	4.381	320.510	0.00018263	0.00072298	2.9748e-05	555.72	6.2941e-06	5.7315e-06	688.72	157.62	5.881e-06	4.4635e-06	220.94	67.722	45.854	16.356	7.9717e-07	26.234	0.00027746	0.00027892	7.6861e-05	550.1	2.9982e-06	2.9495e-06	671.33	156.32	2.8503e-06	2.881e-06	214.18	65.922	46.186	16.603	2.7377e-06	25.441	110.725	53.780	169.804	-4.831	115.744	137.943	-5.546	-1.065	265.843	162.489	-2.716	0.759	2.323	5.281	168.586	3.496	-8191	255	
4150.190	1	1	0	0	0.080396	0.21924	0.10944	0.22072	0.12602	0.11664	0.14503	0.069341	0.1083	0.14158	0.13716	0.23161	0.23474	0.14614	0.15842	0.038019	-3.9188	-3.3708	-4.4229	-4.0312	-3.5729	-4.4229	-3.8104	-3.9396	-4.1792	-3.5146	-4.2042	-4.0938	-3.5083	-4.4583	-3.75	-3.6792	328.099	139.927	187.622	312.075	218.718	97.033	23.365	-9.754	336.096	29.666	291.205	-16.832	326.158	42.097	338.235	37.829	0.00042078	0.00026511	0.0001222	548.41	5.9346e-06	4.9075e-06	675.37	158.39	4.2995e-06	2.2144e-06	220.88	66.755	45.039	16.168	3.9426e-06	26.226	0.00024702	0.00024585	6.7073e-05	537.45	2.5849e-06	2.5263e-06	652.96	154.26	2.4071e-06	2.3729e-06	210.18	64.107	44.61	16.057	2.2176e-06	24.908	38.698	84.938	55.326	-4.946	-16.494	48.860	-5.438	-1.342	141.483	237.280	-2.450	0.629	2.424	5.343	330.879	3.444	-8191	255	
4150.285	1	1	0	0	0.21871	0.11161	0.11464	0.11396	0.10856	0.12505	0.15951	0.067793	0.041233	0.16218	0.077121	0.12848	0.079799	0.091798	0.042426	0.1803	-4.0021	-3.5396	-3.9333	-4.4208	-3.4313	-4.3104	-3.9083	-3.6625	-4.3771	-3.5708	-3.8479	-4.1854	-3.3854	-4.3458	-3.8417	-3.6542	273.405	322.063	294.210	271.412	220.434	193.210	161.334	179.444	36.877	-3.932	177.338	61.152	157.776	69.112	14.649	148.247	0.00035571	0.00023889	6.6865e-05	544.21	1.9037e-06	5.5376e-06	677.09	160.23	1.6495e-06	2.083e-06	223.56	67.515	45.582	16.871	8.1934e-07	27.04	0.00020283	0.00020293	5.6044e-05	527.32	2.2424e-06	2.258e-06	647.39	155.26	2.3347e-06	2.3506e-06	211.93	64.847	45.366	16.589	2.4689e-06	25.897	0.997	169.663	-3.334	-5.327	77.185	323.795	-5.475	-1.217	76.908	16.424	-2.748	0.964	2.455	4.564	123.475	3.282	-8191	255	
4150.381	1	1	0	0	0.21868	0.18623	0.26143	0.14391	0.295	0.10528	0.23494	0.10203	0.22291	0.013547	0.15962	0.080928	0.29186	0.37688	0.068139	0.18958	-3.9875	-3.6625	-3.8563	-4.2104	-3.4	-4.2896	-4.0396	-3.6125	-4.2625	-3.6	-4.1833	-4.1729	-3.4458	-4.2083	-4.0708	-3.6583	112.136	179.697	39.599	199.135	301.458	217.107	264.775	34.930	235.685	29.463	319.514	0.384	208.142	55.446	-7.659	119.265	0.00046613	0.00020027	0.00011906	547.98	5.4951e-06	2.7599e-06	684.19	161.95	1.3625e-06	4.0705e-06	223.2	68.052	46.78	17.115	5.6237e-06	26.872	0.00023833	0.00023903	6.7455e-05	542.27	2.8334e-06	2.8858e-06	668.62	160.79	3.1663e-06	3.212e-06	220.29	68.435	48.844	17.845	3.564e-06	27.245	317.477	110.237	307.422	-4.779	19.856	54.942	-5.566	-1.316	167.313	2.396	-2.886	0.969	2.450	5.033	293.443	3.435	-8191	255	
4150.501	1	1	0	0	0.35567	0.15745	0.22108	0.12962	0.036034	0.10478	0.09602	0.089037	0.20066	0.24944	0.30249	0.047316	0.13307	0.115	0.20455	0.12922	-4.0188	-3.5583	-3.7479	-4.2646	-3.2958	-4.0312	-4.2042	-3.4229	-4.5146	-3.6312	-3.8792	-4.4458	-3.5563	-4.0729	-4.2854	-3.5479	224.067	172.092	-2.714	262.963	39.164	15.255	176.035	63.917	95.570	169.856	107.798	86.998	176.121	58.738	130.325	144.988	0.00053131	0.00021444	0.00025163	566.98	4.1612e-06	1.9427e-06	712.91	161.78	1.1789e-05	9.9097e-06	227.71	69.013	46.897	17.214	4.0027e-06	27.131	0.00033687	0.00034087	9.6274e-05	575.83	3.8838e-06	3.9385e-06	708.36	166	4.0282e-06	4.0394e-06	229.01	71.284	50.812	18.567	4.1781e-06	28.225	64.426	98.566	312.692	-5.178	173.747	252.553	-5.539	-1.221	99.362	136.849	-2.751	0.956	2.286	5.062	-17.025	3.299	-8191	255	
4150.598	1	1	0	0	0.42954	0.32363	0.16029	0.10882	0.16934	0.08819	0.17833	0.14839	0.11837	0.11355	0.10537	0.056324	0.11882	0.12946	0.044638	0.13412	-4.0604	-3.8229	-3.5542	-4.2771	-3.7083	-3.9667	-4.2375	-3.6167	-4.3542	-3.975	-3.6542	-4.3708	-3.5271	-4.2021	-4.4667	-3.5563	198.485	191.668	109.256	265.358	187.526	269.344	184.038	42.978	232.256	142.532	300.815	327.878	2.929	-17.980	215.322	-7.375	9.9627e-05	0.00045475	8.6296e-05	590.47	8.7124e-06	1.8428e-06	722.42	161.73	1.6955e-06	6.7954e-06	224.04	68.329	46.808	17.164	5.6413e-06	26.788	0.00038276	0.00038282	0.00010676	600.07	4.1891e-06	4.1763e-06	721.59	167.18	4.224e-06	4.1948e-06	228.81	71.362	50.783	18.494	4.2073e-06	27.968	59.471	118.233	44.964	-5.140	115.541	-19.289	-5.569	-1.339	13.191	74.256	-2.748	0.723	1.649	5.107	90.612	2.942	-8191	255	
4150.694	1	1	0	0	0.22631	0.073999	0.081925	0.086651	0.092063	0.13225	0.30786	0.30867	0.12987	0.15025	0.12115	0.16557	0.21839	0.26702	0.10769	0.084512	-4.0125	-4.2875	-3.5	-4.3646	-3.5687	-3.8104	-4.4292	-3.5375	-4.1604	-4.0062	-3.5479	-4.3688	-3.6875	-3.7146	-4.3771	-3.4583	202.668	282.398	113.455	59.207	313.422	298.781	-15.071	264.599	89.469	319.657	208.339	74.296	240.013	132.343	180.702	269.064	0.00023896	0.00049121	0.00011042	582.18	2.2537e-06	3.8498e-06	727.39	162.2	6.787e-06	4.8528e-06	228.86	68.712	46.558	17.273	7.1604e-06	27.21	0.00038366	0.00038048	0.00010671	591.75	4.1092e-06	4.141e-06	722.3	167.05	3.9789e-06	3.8864e-06	227.72	70.315	49.447	18.114	3.6687e-06	27.498	27.865	295.738	180.883	-4.921	-11.290	-17.030	-5.494	-1.333	204.728	174.121	-3.068	0.694	2.393	4.606	114.616	3.101	-8191	255	
4150.765	1	1	0	0	0.13994	0.013944	0.037489	0.22359	0.081813	0.1837	0.2812	0.16379	0.024118	0.18575	0.099842	0.19775	0.13614	0.12268	0.28217	0.18937	-3.7917	-4.0292	-3.5708	-4.5021	-3.7562	-3.725	-4.7042	-3.5979	-3.9938	-4.1375	-3.4292	-4.3896	-3.875	-3.8271	-4.525	-3.3792	103.362	138.405	92.790	-13.453	144.523	223.603	334.365	280.334	218.607	209.048	86.842	149.974	340.088	83.756	223.028	286.911	0.00033565	0.00038013	0.00026268	583.3	4.2944e-06	3.2701e-06	729.04	160.65	5.2068e-06	9.8991e-06	226.15	67.747	46.38	17.235	3.6308e-06	26.682	0.00033273	0.00033728	9.5208e-05	589.14	3.9108e-06	4.083e-06	728.92	167.72	4.7326e-06	4.9367e-06	236.16	73.923	53.715	19.776	5.695e-06	29.745	18.928	128.132	62.704	-5.002	17.641	65.664	-5.793	-1.404	74.023	149.666	-2.926	1.232	2.277	5.060	279.859	3.397	-8191	255	
4150.886	1	1	0	0	0.047062	0.095408	0.16714	0.19907	0.15291	0.039264	0.09421	0.08074	0.1459	0.14353	0.097853	0.23698	0.25881	0.19734	0.022201	0.31191	-3.7396	-4.0917	-3.6208	-4.225	-3.8604	-3.6958	-4.4292	-3.7375	-3.95	-4.2396	-3.5396	-4.3729	-4.1	-3.5812	-4.4271	-3.7375	172.929	-2.130	214.189	67.069	215.552	160.013	202.192	295.372	124.541	92.883	185.874	312.035	27.662	324.862	131.352	283.107	0.00087541	0.00086859	0.00012188	620.43	7.0188e-06	3.6281e-06	764.09	168.77	1.2817e-06	5.7084e-06	236.76	70.921	48.651	17.983	4.2949e-06	27.992	0.00051786	0.00052435	0.00014664	650.35	5.7437e-06	5.8044e-06	784.62	181.39	5.808e-06	5.9049e-06	253.5	78.783	57.499	21.229	6.5543e-06	31.726	46.100	10.519	225.447	-5.245	-3.102	106.431	-5.753	-1.602	162.490	10.857	-3.602	0.759	2.297	5.447	84.602	3.595	-8191	255	
4150.982	1	1	0	0	0.22245	0.19617	0.15504	0.055818	0.35937	0.20004	0.14432	0.14908	0.10849	0.019684	0.16862	0.10021	0.068399	0.11664	0.11724	0.15695	-3.5396	-4.2521	-3.3854	-4.3812	-4.0646	-3.6646	-4.4729	-3.8417	-3.6937	-4.3646	-3.7208	-3.9958	-4.1771	-3.6583	-4.3938	-3.7438	16.036	-7.203	-3.520	83.087	41.263	75.575	107.512	254.702	75.579	48.640	-17.504	201.198	324.684	209.732	117.262	3.381	0.00048793	0.00065942	0.0001308	709.23	5.6405e-06	4.3667e-06	838.66	192.35	7.5473e-06	6.4764e-06	246.24	69.231	48.521	17.705	6.2302e-06	27.202	0.00062486	0.00064723	0.00018437	756.38	7.5504e-06	7.7977e-06	883.9	214.68	8.0353e-06	8.144e-06	279.49	84.06	62.257	22.707	8.2527e-06	33.222	40.037	90.625	-9.429	-6.036	323.980	258.266	-6.054	-2.452	202.049	184.748	-3.509	0.080	3.061	5.790	57.124	3.911	-8191	255	
4151.078	1	1	0	0	0.091536	0.22008	0.20782	0.025721	0.12007	0.085331	0.13316	0.18364	0.17583	0.16217	0.12051	0.12822	0.23826	0.19094	0.29809	0.15859	-3.3688	-4.3875	-3.5542	-4.2417	-4.2979	-3.3833	-4.45	-3.975	-3.6729	-4.3604	-3.6375	-3.8729	-4.2854	-3.6208	-4.1167	-3.9625	323.777	83.921	85.880	169.032	94.849	68.623	70.608	262.705	306.699	202.561	176.613	229.045	312.230	297.796	131.513	325.659	0.00036281	0.00067243	0.00025052	671.19	6.6622e-06	5.9556e-06	789.26	188.64	2.0961e-06	7.27e-06	242.64	69.799	49.27	18.106	4.1302e-06	27.785	0.00074769	0.00075283	0.00020585	732.77	8.0591e-06	8.1472e-06	846.92	210.13	8.1761e-06	8.143e-06	276.84	84.241	62.481	22.772	7.9631e-06	33.196	34.234	44.737	103.842	-5.404	87.599	68.480	-5.483	-1.413	209.397	107.300	-3.105	1.250	2.590	5.754	4.630	3.874	-8191	255	
4151.175	1	1	0	0	0.29992	0.025997	0.22414	0.19505	0.24845	0.11546	0.17514	0.26971	0.1433	0.089995	0.25407	0.069825	0.17148	0.18743	0.25897	0.053325	-3.0917	-4.3917	-3.5187	-4.075	-4.2979	-3.4479	-4.2063	-4.0833	-3.7438	-4.3458	-3.7854	-4.0042	-4.3146	-3.4521	-4.2083	-4.0875	261.153	64.399	288.123	283.335	23.488	44.309	270.829	339.317	6.968	322.105	79.028	176.466	315.502	3.020	145.685	138.439	0.00019365	0.000742	0.00030063	603.8	4.1853e-06	6.5282e-06	720.86	171.7	5.2391e-06	5.7743e-06	232.11	69.704	48.495	17.926	7.1444e-06	27.626	0.00071124	0.00070261	0.00018752	657.53	7.037e-06	6.8561e-06	760.78	187.47	6.3157e-06	6.1756e-06	249.16	77.278	56.175	20.687	5.8371e-06	30.603	55.095	29.687	114.716	-5.001	330.834	100.955	-5.497	-1.070	13.613	53.330	-2.902	1.019	2.954	5.278	122.492	3.788	-8191	255	
4151.293	1	1	0	0	0.12339	0.17216	0.10834	0.22908	0.051161	0.076601	0.18533	0.14279	0.22562	0.11526	0.029361	0.16754	0.086228	0.23896	0.073249	0.22306	-3.3438	-4.3521	-3.8354	-3.7979	-4.4667	-3.7	-4.3417	-4.275	-3.4188	-4.475	-3.9146	-3.7938	-4.4583	-3.6312	-4.0667	-4.2958	58.050	37.400	148.076	253.136	111.285	64.833	168.726	175.919	212.386	52.459	119.720	40.216	321.652	286.607	151.138	29.093	0.00042272	0.00054431	9.0452e-05	597.8	2.0162e-06	2.5433e-06	733.42	175.54	5.7456e-06	6.2755e-06	234.16	69.888	49.208	18.299	6.1704e-06	27.84	0.0005398	0.00054153	0.00015208	635.84	6.198e-06	6.3355e-06	768.92	191.78	6.6578e-06	6.7566e-06	258.77	80.683	59.457	21.97	6.9709e-06	32.282	2.624	193.467	229.670	-4.796	263.103	222.557	-5.414	-1.197	320.252	168.741	-2.878	1.324	2.585	4.721	33.838	3.235	-8191	255	
4151.365	1	1	0	0	0.25033	0.18396	0.24629	0.12856	0.19807	0.14187	0.18004	0.18667	0.08372	0.15116	0.14286	0.09297	0.1465	0.049801	0.097927	0.27539	-3.2042	-4.3875	-3.8979	-3.5542	-4.4354	-3.5917	-4.1937	-4.2958	-3.3583	-4.2625	-3.9938	-3.7083	-4.4667	-3.5604	-4.0021	-4.4146	306.848	28.849	179.763	196.603	253.413	249.749	238.617	241.346	21.266	-13.026	103.225	230.898	306.136	205.633	81.262	244.301	0.00081178	0.0011694	0.00035242	605.2	5.2056e-06	4.9451e-06	731.92	173.59	9.0753e-06	2.8444e-06	231.92	69.631	48.435	17.69	7.9863e-06	26.878	0.00063762	0.00063183	0.00017476	654.75	6.8782e-06	6.806e-06	771.94	190.53	6.6771e-06	6.5584e-06	253.39	78.935	57.383	20.801	6.2392e-06	30.572	19.778	281.847	66.626	-5.044	77.012	69.417	-5.441	-0.668	172.098	42.160	-3.128	1.280	2.968	5.062	134.779	3.641	-8191	255	
4151.461	1	1	0	0	0.038385	0.089978	0.18629	0.026072	0.095557	0.16613	0.1487	0.093274	0.023872	0.081632	0.25982	0.26752	0.099574	0.12404	0.047362	0.12255	-3.0896	-4.2438	-3.9813	-3.6646	-4.4	-3.7708	-3.9479	-4.3688	-3.3646	-4.1604	-4.2771	-3.6417	-4.4646	-3.7542	-3.6875	-4.4542	248.242	80.327	48.341	112.393	151.643	68.214	238.415	263.325	49.312	208.414	205.635	283.099	123.639	303.938	151.648	225.019	0.00024341	0.0001946	0.00018099	569.24	2.4331e-06	3.4342e-06	697.91	166.55	6.6475e-06	4.6255e-06	228.07	69.18	47.856	17.462	2.2961e-06	27.107	0.00055295	0.00054482	0.00014998	606.92	5.79e-06	5.6797e-06	724.64	178.97	5.55e-06	5.4691e-06	240.89	75.275	54.247	19.787	5.2123e-06	29.193	99.485	72.688	114.178	-4.979	327.350	65.150	-5.322	-0.747	147.288	234.125	-2.708	1.014	3.033	5.903	341.133	3.789	-8191	255	
4151.582	1	1	0	0	0.055757	0.062837	0.082823	0.25322	0.10686	0.1793	0.17188	0.307	0.091943	0.13178	0.13699	0.289	0.16781	0.054898	0.24858	0.17314	-3.2	-4.0563	-4.1687	-3.5479	-4.3792	-3.7042	-3.6688	-4.3458	-3.4292	-4.0292	-4.1646	-3.3792	-4.2521	-3.8187	-3.5938	-4.4146	259.282	165.121	134.850	15.244	209.268	89.502	-6.164	-15.433	61.391	298.992	309.623	276.485	317.441	35.660	133.010	2.406	0.00039012	0.00040604	0.00017903	546.01	8.9065e-06	5.7914e-06	670.29	163.08	5.8521e-07	4.6204e-06	223.45	67.925	46.508	16.999	3.0621e-06	26.902	0.000455	0.00044746	0.0001216	567.59	4.4502e-06	4.2925e-06	672.39	167.25	3.777e-06	3.6079e-06	221.27	68.069	47.939	17.399	2.9805e-06	26.087	0.977	60.584	18.615	-4.499	129.595	49.822	-4.970	-0.529	59.172	116.316	-2.615	1.480	2.991	5.778	144.098	3.504	-8191	255	
4151.678	1	1	0	0	0.057377	0.14967	0.2107	0.19778	0.20998	0.14649	0.19058	0.22129	0.094743	0.019204	0.097863	0.13598	0.069898	0.25249	0.14349	0.011778	-3.2917	-3.9458	-4.075	-3.3271	-4.2792	-4.1083	-3.6292	-4.4375	-3.6063	-3.9125	-4.4313	-3.5417	-4.2292	-4.1062	-3.5625	-4.4187	315.420	336.730	300.184	340.442	244.734	78.283	242.930	268.240	303.027	303.004	49.012	318.391	169.136	255.115	147.352	117.136	0.00023708	0.00033126	8.9856e-05	533.04	2.0676e-06	3.11e-06	653.64	164.79	4.6946e-06	5.6765e-06	226.6	68.517	47.029	17.343	3.8347e-06	26.829	0.00025578	0.00025193	6.8441e-05	524.97	2.6358e-06	2.6162e-06	635.83	162.29	2.6077e-06	2.6156e-06	216.34	66.292	46.859	17.16	2.522e-06	25.896	85.173	260.521	29.842	-4.408	240.847	164.429	-5.029	-0.785	119.240	160.067	-2.287	1.796	2.572	5.945	157.501	3.592	-8191	255	
4151.774	1	1	0	0	0.16222	0.16669	0.10214	0.041751	0.21643	0.12084	0.19589	0.034251	0.31349	0.15063	0.29404	0.15776	0.085088	0.11864	0.24427	0.073838	-3.3125	-3.6771	-4.3125	-3.475	-4.1146	-4.0854	-3.5354	-4.4583	-3.7229	-3.7833	-4.4292	-3.6896	-4.2604	-4.1271	-3.4625	-4.4646	104.895	153.791	92.128	13.619	145.570	201.182	59.902	274.696	166.553	122.503	259.512	291.709	31.417	237.563	208.570	330.773	0.00032033	0.00036497	0.00011016	535.75	2.8277e-06	4.9209e-06	660.5	165.91	6.1127e-06	1.8513e-06	224.96	68.655	46.621	17.198	7.0563e-06	26.727	0.00022575	0.00022386	6.1934e-05	526.12	2.3836e-06	2.3841e-06	634.57	160.64	2.3998e-06	2.3699e-06	213.57	65.238	46.121	16.93	2.4373e-06	25.588	49.601	290.835	23.861	-4.349	88.922	154.248	-4.800	-0.711	121.837	222.819	-2.485	1.202	2.760	5.259	114.365	3.874	-8191	255	
4151.895	1	1	0	0	0.12036	0.26646	0.18191	0.14929	0.16789	0.19199	0.19318	0.093335	0.25259	0.18351	0.10231	0.16178	0.22831	0.15402	0.1153	0.16216	-3.5396	-3.6188	-4.3396	-3.3937	-3.9917	-4.0813	-3.6417	-4.4521	-3.9458	-3.5687	-4.4583	-3.675	-4.0708	-4.3146	-3.5333	-4.1312	261.143	24.476	318.080	24.633	212.406	169.976	-5.700	82.168	31.591	275.191	291.751	328.345	114.290	291.587	210.960	293.382	0.00025464	0.00015305	8.7705e-05	540.93	5.561e-07	6.0927e-06	662.3	165.52	1.547e-06	3.3092e-06	225.56	68.021	46.661	17.37	4.1902e-06	26.832	0.00022482	0.00023121	6.5218e-05	529.01	2.5894e-06	2.6299e-06	641.83	161.87	2.6565e-06	2.6896e-06	215.82	65.954	46.807	17.266	2.6145e-06	25.929	40.069	13.873	280.427	-4.372	20.863	187.268	-5.175	-0.555	186.664	193.172	-2.442	1.192	2.586	5.500	156.018	3.837	-8191	255	
4151.966	1	1	0	0	0.24262	0.24759	0.13539	0.15086	0.076287	0.033406	0.24141	0.11536	0.17198	0.13656	0.19721	0.14604	0.055538	0.17287	0.10259	0.18329	-3.7354	-3.5292	-4.3083	-3.625	-3.8563	-4.2146	-3.5083	-4.3146	-3.9646	-3.6396	-4.275	-3.8854	-3.7604	-4.2	-3.5125	-4.1625	168.555	161.127	181.018	-4.627	294.266	168.927	266.238	188.990	214.908	2.490	274.005	226.016	311.017	150.757	171.356	118.527	0.00054221	0.00052563	0.00032828	532.7	1.6751e-06	8.9944e-06	655.47	164.89	4.9067e-06	3.4419e-06	225.15	67.931	46.334	17.2	2.8532e-06	26.883	0.00023376	0.00023398	6.3568e-05	524.6	2.4874e-06	2.4578e-06	635.04	160.06	2.3733e-06	2.3645e-06	212.01	64.811	45.768	16.787	2.2593e-06	25.417	32.536	63.792	15.678	-4.247	29.101	33.355	-5.106	-0.782	66.046	169.583	-2.348	1.562	2.672	5.035	146.570	3.722	-8191	255	
4152.063	1	1	0	0	0.13071	0.076497	0.023318	0.19043	0.084642	0.13647	0.05338	0.15496	0.32014	0.16547	0.29723	0.19647	0.10435	0.23088	0.13731	0.059403	-3.7917	-3.4479	-4.3521	-3.875	-3.8083	-4.4833	-3.4938	-4.125	-4.0896	-3.4271	-4.3729	-3.8875	-3.8042	-4.4979	-3.4458	-4.1896	-13.790	306.059	284.437	67.289	310.440	78.765	94.891	243.162	306.695	209.124	241.443	194.761	148.604	210.805	309.002	173.286	0.00025338	0.00086866	0.00012114	533.56	6.3635e-06	6.3863e-06	654.5	165.08	2.2967e-06	1.0238e-06	222.69	67.811	46.599	17.167	1.1899e-06	26.718	0.00020308	0.00020384	5.56e-05	520.37	2.2417e-06	2.2349e-06	629.55	159.4	2.2845e-06	2.3174e-06	211.62	64.871	45.943	16.837	2.321e-06	25.41	29.692	70.574	221.358	-4.168	99.051	106.074	-5.304	-0.775	238.090	2.379	-2.529	1.044	2.832	5.927	248.785	3.795	-8191	255	
4152.183	1	1	0	0	0.069099	0.196	0.17465	0.11495	0.017367	0.15226	0.14412	0.14376	0.14087	0.1946	0.34723	0.10554	0.23514	0.25874	0.10776	0.032221	-3.9729	-3.6188	-4.2833	-4.0229	-3.7292	-4.3979	-3.7271	-4.0938	-4.2229	-3.4958	-4.3521	-3.925	-3.6104	-4.3917	-3.6813	-4.0646	182.799	2.151	2.496	332.410	79.915	268.319	228.168	42.598	146.042	88.841	285.418	233.629	63.427	149.643	309.787	298.026	8.117e-05	0.00024714	0.00014908	529.41	4.7188e-06	4.583e-06	646	165.63	2.0464e-06	2.2524e-06	222.69	68.18	46.443	17.022	3.5253e-06	26.599	0.00021121	0.00020966	5.706e-05	516.71	2.2451e-06	2.1849e-06	621.6	158.68	2.1161e-06	2.1048e-06	209.97	64.094	45.158	16.519	1.9741e-06	25.078	165.598	66.023	74.517	-4.444	101.897	123.628	-5.073	-0.514	200.689	331.083	-2.432	1.280	3.142	5.314	152.560	3.560	-8191	255	
4152.278	1	1	0	0	0.14539	0.08633	0.17155	0.23595	0.24814	0.15095	0.016703	0.17726	0.020568	0.15123	0.078624	0.29951	0.13095	0.16305	0.20113	0.1914	-4.125	-3.4417	-4.2292	-4.1375	-3.3771	-4.3708	-3.9229	-3.8729	-4.2625	-3.4375	-4.1312	-4.0646	-3.6437	-4.3875	-3.8187	-3.7333	233.967	153.800	323.293	53.991	4.911	10.447	83.101	241.277	141.476	224.388	247.953	262.180	279.890	94.749	101.069	-12.258	0.00035665	0.00070793	0.00012591	531.13	5.4942e-06	3.9699e-06	653.95	167.81	2.8321e-06	5.5198e-06	228.04	69.415	47.988	18.066	2.6947e-06	28.197	0.00017947	0.00017887	4.9344e-05	512.34	1.9501e-06	1.9096e-06	621.54	160.63	1.9668e-06	1.9699e-06	213.77	65.206	46.302	17.274	2.0468e-06	26.429	12.507	146.538	105.052	-4.322	48.956	175.471	-5.029	-0.835	271.886	109.737	-3.145	1.328	3.238	5.450	88.721	3.106	-8191	255	
4152.374	1	1	0	0	0.13237	0.037483	0.22415	0.098234	0.1086	0.25492	0.080922	0.30735	0.14534	0.14585	0.13289	0.13463	0.14934	0.27859	0.0057188	0.21334	-4.0417	-3.5042	-4.025	-4.1979	-3.3771	-4.3667	-3.8937	-3.8146	-4.3667	-3.6083	-3.8729	-4.4083	-3.4437	-4.3479	-3.8646	-3.5771	200.888	82.212	311.800	303.351	222.515	230.993	193.664	221.753	237.925	339.812	265.208	298.176	192.574	250.106	-11.720	-12.535	0.00014514	0.00048126	0.00017542	549.39	2.2592e-06	4.7684e-06	667.81	172.58	3.64e-06	4.1803e-06	232.47	70.322	48.717	18.655	8.9412e-06	28.702	0.00019051	0.00019103	5.4157e-05	532.39	2.1709e-06	2.1968e-06	641.84	166.82	2.3403e-06	2.3541e-06	220.51	67.51	48.257	18.286	2.5868e-06	27.623	8.103	31.711	81.727	-4.173	327.053	119.014	-4.906	-0.800	147.154	237.914	-2.939	1.164	2.666	5.351	116.257	3.391	-8191	255	
4152.470	1	1	0	0	0.054196	0.19336	0.26217	0.030834	0.17103	0.22688	0.15901	0.16359	0.048684	0.1504	0.08813	0.14377	0.18419	0.095468	0.1094	0.21305	-4.1896	-3.6312	-3.8208	-4.2479	-3.4688	-4.2354	-4.0729	-3.7375	-4.2396	-3.6271	-3.8521	-4.3646	-3.4604	-4.2208	-4.0938	-3.6229	76.322	171.980	262.478	185.268	178.215	38.090	38.075	61.742	53.346	143.213	221.018	88.977	72.677	189.599	233.606	286.494	0.00060456	0.00039654	0.00020306	551.94	1.4937e-06	7.4117e-06	670.55	170.67	4.9194e-06	2.4411e-06	229.24	70.352	48.561	18.398	7.9317e-07	28.124	0.00024102	0.00024286	6.8698e-05	545.17	2.7051e-06	2.7255e-06	652.95	167.86	2.8014e-06	2.8399e-06	222.12	68.819	49.416	18.425	3.0864e-06	27.728	1.689	22.401	315.924	-4.439	210.150	115.564	-4.913	-0.891	228.823	113.689	-2.700	1.370	2.528	5.602	120.077	3.219	-8191	255	
4152.591	1	1	0	0	0.14276	0.18789	0.18753	0.072941	0.1877	0.27331	0.20604	0.23365	0.17977	0.11243	0.29098	0.20117	0.062724	0.1912	0.086303	0.082136	-4.0604	-3.6854	-3.8083	-4.3604	-3.3625	-3.9479	-4.4042	-3.4271	-4.2292	-3.9083	-3.6646	-4.3604	-3.625	-3.9792	-4.1646	-3.5583	136.193	158.959	171.677	285.746	67.887	162.284	316.057	254.825	102.916	225.126	300.117	306.263	293.953	308.889	4.667	226.778	0.00038766	8.5344e-05	0.00011722	559.17	2.5504e-06	6.0177e-06	693.87	171.27	5.6435e-06	3.043e-06	232.27	71.168	49.367	18.131	2.6753e-06	27.871	0.00029365	0.00030226	8.6924e-05	562.55	3.5911e-06	3.6857e-06	689.86	173.59	3.8329e-06	3.8446e-06	232.82	72.222	51.785	19.068	3.8983e-06	28.337	-0.356	-6.681	268.026	-4.232	234.656	33.980	-4.870	-0.658	185.952	69.915	-2.852	1.549	2.253	5.800	31.807	3.966	-8191	255	
4152.662	1	1	0	0	0.24913	0.17836	0.11855	0.21012	0.18752	0.080041	0.048964	0.21652	0.12978	0.2039	0.11074	0.13468	0.17952	0.18242	0.23905	0.10611	-4.1188	-4.0062	-3.4667	-4.4292	-3.5604	-4.1146	-4.3458	-3.5083	-4.2542	-3.9396	-3.5271	-4.5167	-3.5646	-4.0396	-4.375	-3.5938	148.714	-16.819	182.842	216.319	294.216	311.941	53.659	298.261	185.524	110.394	245.683	316.622	217.520	220.368	217.807	7.976	0.00068911	0.00057782	9.661e-05	555.48	3.4995e-06	3.8134e-06	685.45	168.58	4.7732e-06	1.4459e-06	227.64	69.75	47.964	17.675	1.7548e-06	27.29	0.0003523	0.00035706	9.9762e-05	563.62	3.9041e-06	3.9491e-06	683.53	170.42	3.7881e-06	3.7488e-06	226.37	70.45	50.187	18.304	3.3649e-06	27.033	43.699	68.243	171.130	-4.328	-4.660	19.338	-5.293	-0.631	284.184	80.883	-2.807	1.367	3.259	5.937	301.847	3.793	-8191	255	
4152.758	1	1	0	0	0.031498	0.15349	0.12055	0.21508	0.10641	0.1548	0.20987	0.28411	0.1235	0.16052	0.13368	0.043935	0.12583	0.11139	0.19327	0.39935	-3.8563	-4.0479	-3.6604	-4.4396	-3.6083	-3.7875	-4.3646	-3.5812	-4.1396	-4.1333	-3.5563	-4.3938	-3.8083	-3.7896	-4.2375	-3.5771	221.994	34.965	69.026	-13.842	328.918	210.897	297.305	275.719	158.714	150.668	271.885	317.356	108.156	247.764	23.059	182.837	0.00040701	0.00043181	0.00022228	534.76	5.0454e-06	9.0091e-06	656.56	166.19	3.8661e-06	7.1636e-06	225.74	69.28	47.576	17.456	5.2836e-06	27.314	0.00028647	0.00028003	7.5744e-05	531.13	2.8029e-06	2.7613e-06	639.31	162.54	2.5619e-06	2.5579e-06	215.23	66.456	47.067	17.261	2.3631e-06	26.01	17.570	117.011	-17.516	-4.240	104.933	332.888	-4.712	-0.389	163.526	142.566	-2.654	1.554	3.172	5.859	157.694	3.316	-8191	255	
4152.855	1	1	0	0	0.20183	0.091805	0.088818	0.14904	0.24673	0.099575	0.15016	0.12999	0.22937	0.16418	0.23661	0.15937	0.079466	0.11138	0.37859	0.23189	-3.7708	-4.1667	-3.2708	-4.2812	-3.95	-3.7271	-4.3667	-3.6229	-4.0104	-4.2021	-3.5771	-4.2729	-3.9208	-3.7167	-4.3646	-3.5167	190.489	140.285	-2.049	84.025	273.357	91.369	147.142	247.575	15.212	98.737	253.404	290.876	297.474	189.482	97.495	176.757	0.00043544	0.00071461	0.00012472	539.56	1.6988e-06	5.4551e-06	661.24	167.5	3.9004e-06	1.7737e-06	227.59	69.644	48.561	17.704	2.992e-06	27.728	0.0002086	0.00020763	5.7536e-05	524.67	2.2543e-06	2.2767e-06	636.17	163.24	2.3346e-06	2.3514e-06	216.07	66.523	47.483	17.603	2.5303e-06	26.593	35.076	149.187	-10.663	-4.308	54.579	139.979	-4.937	-0.702	91.029	174.138	-2.715	1.045	2.729	5.466	49.375	3.754	-8191	255	
4152.975	1	1	0	0	0.086894	0.18196	0.15196	0.0075942	0.1795	0.12482	0.23526	0.045422	0.17756	0.19211	0.21544	0.084099	0.16498	0.22086	0.47364	0.051708	-3.6271	-4.1479	-3.3812	-4.1583	-3.8208	-3.6708	-4.2438	-3.6958	-3.9	-4.2146	-3.5229	-4.2937	-4.0479	-3.7333	-4.4396	-3.7333	306.592	58.658	294.318	111.377	318.259	254.513	300.466	186.770	65.660	156.199	139.844	86.779	139.240	271.614	-0.998	327.012	0.00028905	0.00047417	0.00012325	542.26	1.2127e-06	6.2984e-06	661.67	167.78	2.6757e-06	2.0967e-06	225.24	69.44	48.432	17.776	5.4319e-06	27.504	0.00023819	0.00024175	6.7697e-05	535.33	2.7274e-06	2.7726e-06	644.3	164.54	2.7812e-06	2.7543e-06	217.42	67.626	48.51	17.899	2.8101e-06	26.836	-3.285	74.460	29.041	-4.252	81.181	36.908	-4.869	-0.336	333.529	248.975	-2.578	0.681	3.094	5.406	160.085	3.551	-8191	255	
#DATA ENDS
