BOXY.EXE: ISS Imagent and Oximeter Data Acquisition Program Version 0.80
Ascii Record File

#ACQ INFORMATION
2  Detector Channels 
16  External MUX Channels 
1  Auxiliary Channels 
5000  Waveform (CCF) Frequency (Hz)
1  Waveforms Skipped 
30  Waveforms Averaged 
1  Cycles Averaged 
16  Acquisitions per Waveform 
10.0806  Updata Rate (Hz) 

#FILE INFORMATION
TRUE -- External MUX Channel results are PARSED.
FALSE -- AC DC and Phase are NOT grouped.
TRUE -- Companion Program Settings File CREATED.
FALSE -- AC data not excluded
FALSE -- DC data not excluded
FALSE -- Phase data not excluded
FALSE -- Auxillary Chn. data not excluded
Tab delimiters

#CALIBRATION STATE
TRUE -- Waveform Calibration Values APPLIED.


#AUX CALIBRATION VALUES
Val Type	aux-1	

Term	1.0000e+00	
Factor	0.0000e+00	


#WF CALIBRATION VALUES
A = Detector Channel
Val Type	A-AC1	A-AC2	A-AC3	A-AC4	A-AC5	A-AC6	A-AC7	A-AC8	A-AC9	A-AC10	A-AC11	A-AC12	A-AC13	A-AC14	A-AC15	A-AC16	A-DC1	A-DC2	A-DC3	A-DC4	A-DC5	A-DC6	A-DC7	A-DC8	A-DC9	A-DC10	A-DC11	A-DC12	A-DC13	A-DC14	A-DC15	A-DC16	A-Ph1	A-Ph2	A-Ph3	A-Ph4	A-Ph5	A-Ph6	A-Ph7	A-Ph8	A-Ph9	A-Ph10	A-Ph11	A-Ph12	A-Ph13	A-Ph14	A-Ph15	A-Ph16	

Term	0.00000e+00	0.00000e+00	0.00000e+00	0.00000e+00	0.00000e+00	0.00000e+00	0.00000e+00	0.00000e+00	0.00000e+00	0.00000e+00	0.00000e+00	0.00000e+00	0.00000e+00	0.00000e+00	0.00000e+00	0.00000e+00	0.00000e+00	0.00000e+00	0.00000e+00	0.00000e+00	0.00000e+00	0.00000e+00	0.00000e+00	0.00000e+00	0.00000e+00	0.00000e+00	0.00000e+00	0.00000e+00	0.00000e+00	0.00000e+00	0.00000e+00	0.00000e+00	0.00000e+00	0.00000e+00	0.00000e+00	0.00000e+00	0.00000e+00	0.00000e+00	0.00000e+00	0.00000e+00	0.00000e+00	0.00000e+00	0.00000e+00	0.00000e+00	0.00000e+00	0.00000e+00	0.00000e+00	0.00000e+00	
Factor	1.00000e+00	1.00000e+00	1.00000e+00	1.00000e+00	1.00000e+00	1.00000e+00	1.00000e+00	1.00000e+00	1.00000e+00	1.00000e+00	1.00000e+00	1.00000e+00	1.00000e+00	1.00000e+00	1.00000e+00	1.00000e+00	1.00000e+00	1.00000e+00	1.00000e+00	1.00000e+00	1.00000e+00	1.00000e+00	1.00000e+00	1.00000e+00	1.00000e+00	1.00000e+00	1.00000e+00	1.00000e+00	1.00000e+00	1.00000e+00	1.00000e+00	1.00000e+00	X	X	X	X	X	X	X	X	X	X	X	X	X	X	X	X	

B = Detector Channel
Val Type	B-AC1	B-AC2	B-AC3	B-AC4	B-AC5	B-AC6	B-AC7	B-AC8	B-AC9	B-AC10	B-AC11	B-AC12	B-AC13	B-AC14	B-AC15	B-AC16	B-DC1	B-DC2	B-DC3	B-DC4	B-DC5	B-DC6	B-DC7	B-DC8	B-DC9	B-DC10	B-DC11	B-DC12	B-DC13	B-DC14	B-DC15	B-DC16	B-Ph1	B-Ph2	B-Ph3	B-Ph4	B-Ph5	B-Ph6	B-Ph7	B-Ph8	B-Ph9	B-Ph10	B-Ph11	B-Ph12	B-Ph13	B-Ph14	B-Ph15	B-Ph16	

Term	0.00000e+00	0.00000e+00	0.00000e+00	0.00000e+00	0.00000e+00	0.00000e+00	0.00000e+00	0.00000e+00	0.00000e+00	0.00000e+00	0.00000e+00	0.00000e+00	0.00000e+00	0.00000e+00	0.00000e+00	0.00000e+00	0.00000e+00	0.00000e+00	0.00000e+00	0.00000e+00	0.00000e+00	0.00000e+00	0.00000e+00	0.00000e+00	0.00000e+00	0.00000e+00	0.00000e+00	0.00000e+00	0.00000e+00	0.00000e+00	0.00000e+00	0.00000e+00	-2.38903e+02	-1.30801e+02	-1.63948e+02	-1.83590e+02	-1.19141e+02	-8.70241e+01	-1.56897e+02	-1.62015e+02	-7.30551e+01	-8.26205e+01	-1.70590e+02	-1.70867e+02	-1.80044e+02	-1.77413e+02	-7.81630e+01	-1.50406e+02	
Factor	6.10723e-05	1.20878e-04	3.70736e-05	1.67276e-01	1.13400e-06	1.16405e-06	1.90682e-01	6.00034e-02	1.25406e-06	1.06024e-06	9.97472e-02	3.83765e-02	2.97706e-02	1.08004e-02	1.14664e-06	1.57894e-02	4.97580e-07	5.02158e-07	1.39475e-07	8.01861e-02	5.49628e-09	5.49947e-09	8.54324e-02	2.82743e-02	5.50406e-09	5.50380e-09	4.40950e-02	1.66559e-02	1.35827e-02	4.90122e-03	5.51462e-09	6.83088e-03	X	X	X	X	X	X	X	X	X	X	X	X	X	X	X	X	



#DISTANCE SETTINGS
A = Detector Channel
A-1	A-2	A-3	A-4	A-5	A-6	A-7	A-8	A-9	A-10	A-11	A-12	A-13	A-14	A-15	A-16	

2.5000e+00	3.0000e+00	2.5000e+00	3.0000e+00	2.0000e+00	3.0000e+00	1.5000e+00	3.0000e+00	3.0000e+00	3.0000e+00	3.0000e+00	3.0000e+00	3.0000e+00	3.0000e+00	1.5000e+00	3.0000e+00	

B = Detector Channel
B-1	B-2	B-3	B-4	B-5	B-6	B-7	B-8	B-9	B-10	B-11	B-12	B-13	B-14	B-15	B-16	

1.0000e+01	1.0000e+01	1.0000e+01	1.4400e+00	1.0000e+01	1.0000e+01	1.5100e+00	1.9400e+00	1.0000e+01	1.0000e+01	1.9900e+00	2.4900e+00	2.4100e+00	2.9000e+00	1.0000e+01	2.9800e+00	




#DATA BEGINS
time	group	step	mark	flag	A-AC1	A-AC2	A-AC3	A-AC4	A-AC5	A-AC6	A-AC7	A-AC8	A-AC9	A-AC10	A-AC11	A-AC12	A-AC13	A-AC14	A-AC15	A-AC16	A-DC1	A-DC2	A-DC3	A-DC4	A-DC5	A-DC6	A-DC7	A-DC8	A-DC9	A-DC10	A-DC11	A-DC12	A-DC13	A-DC14	A-DC15	A-DC16	A-Ph1	A-Ph2	A-Ph3	A-Ph4	A-Ph5	A-Ph6	A-Ph7	A-Ph8	A-Ph9	A-Ph10	A-Ph11	A-Ph12	A-Ph13	A-Ph14	A-Ph15	A-Ph16	B-AC1	B-AC2	B-AC3	B-AC4	B-AC5	B-AC6	B-AC7	B-AC8	B-AC9	B-AC10	B-AC11	B-AC12	B-AC13	B-AC14	B-AC15	B-AC16	B-DC1	B-DC2	B-DC3	B-DC4	B-DC5	B-DC6	B-DC7	B-DC8	B-DC9	B-DC10	B-DC11	B-DC12	B-DC13	B-DC14	B-DC15	B-DC16	B-Ph1	B-Ph2	B-Ph3	B-Ph4	B-Ph5	B-Ph6	B-Ph7	B-Ph8	B-Ph9	B-Ph10	B-Ph11	B-Ph12	B-Ph13	B-Ph14	B-Ph15	B-Ph16	aux-1	digaux	

2969.114	1	1	0	256	0.21161	0.11883	0.21768	0.34857	0.17627	0.27127	0.27268	0.015398	0.11215	0.32848	0.19863	0.11613	0.053363	0.28419	0.18594	0.1536	-3.2875	-4.6292	-3.6417	-4.2771	-4.2958	-3.5292	-4.6687	-4.0979	-3.8146	-4.4604	-3.7854	-4.1042	-4.4354	-3.5312	-4.5292	-4	204.021	112.527	147.179	-14.688	278.344	293.840	338.423	313.382	298.991	174.756	312.562	186.637	145.341	315.831	150.949	235.352	0.00073571	0.00074256	8.9818e-05	1405.6	5.5938e-06	2.7773e-06	1399.6	371.81	2.466e-06	3.3983e-06	428.05	140.17	121.72	41.794	4.5511e-06	52.157	0.00028393	0.00027979	7.8293e-05	1376.7	3.0521e-06	3.0611e-06	1370.3	362.43	3.0683e-06	3.0865e-06	409.06	134.18	116.74	40.31	3.1038e-06	49.699	41.282	32.327	71.223	-2.971	147.692	309.795	-2.962	1.294	129.422	203.861	1.270	5.931	6.081	10.635	196.908	10.066	-8191	255	
2969.208	1	1	0	0	0.11265	0.16322	0.050791	0.34993	0.05046	0.12062	0.17755	0.17049	0.11448	0.11712	0.31502	0.12426	0.04486	0.05569	0.10867	0.33763	-3.2917	-4.4917	-3.4729	-4.0646	-4.3688	-3.3896	-4.4771	-4.125	-3.5917	-4.5667	-3.7896	-4.1208	-4.3542	-3.725	-4.3354	-4.0771	204.037	228.083	50.168	322.252	253.150	33.872	313.677	281.933	258.184	260.310	242.115	238.858	246.723	316.004	282.550	42.303	0.00045537	0.00020569	0.00015408	1400.2	1.8202e-06	6.5977e-06	1401.8	371.23	3.5282e-07	7.6827e-06	425.36	139.81	121.38	41.899	1.9626e-06	51.929	0.00028391	0.00028249	7.8433e-05	1375.5	3.0792e-06	3.0991e-06	1370.3	362.12	3.0944e-06	3.1138e-06	408.16	134.29	116.74	40.346	3.1315e-06	49.599	8.545	200.548	96.147	-2.856	105.951	89.890	-2.915	1.572	166.338	85.100	1.286	6.319	6.254	10.438	14.491	9.855	-8191	255	
2969.305	1	1	0	0	0.087399	0.055802	0.063202	0.21391	0.23639	0.11363	0.16659	0.18103	0.1241	0.17732	0.11714	0.341	0.22326	0.24372	0.12111	0.065033	-3.3979	-4.5083	-3.7708	-3.9979	-4.3333	-3.3292	-4.4604	-4.1646	-3.5604	-4.5646	-3.8812	-3.8375	-4.5729	-3.4688	-4.2292	-4.3042	254.596	299.591	303.597	320.824	213.092	126.482	-8.885	44.904	316.196	45.656	118.842	-15.410	284.240	33.137	92.573	199.346	0.00067701	0.00033734	8.3917e-05	1403.3	6.6052e-06	2.1489e-06	1400.1	371.97	3.9258e-06	1.7068e-06	424.82	140.33	121.42	41.723	2.1689e-06	51.471	0.0002866	0.00028276	7.8684e-05	1376	3.0967e-06	3.1159e-06	1370.4	362.11	3.097e-06	3.1147e-06	407.79	134.2	116.7	40.293	3.1173e-06	49.491	16.373	339.464	47.790	-2.927	50.315	65.489	-2.840	1.766	74.538	80.921	0.990	6.070	6.381	10.878	96.014	9.967	-8191	255	
2969.401	1	1	0	0	0.18787	0.074951	0.14121	0.30249	0.12047	0.11412	0.21716	0.12255	0.11505	0.16032	0.056091	0.15549	0.26452	0.22321	0.39607	0.11252	-3.2979	-4.5437	-3.7104	-3.9604	-4.4521	-3.3875	-4.3479	-4.3292	-3.3958	-4.6271	-3.875	-3.8125	-4.5563	-3.5771	-4.4271	-4.6229	259.431	276.701	325.517	310.525	47.652	72.687	258.455	332.103	287.196	296.557	286.027	39.637	76.162	341.212	164.894	-2.845	0.00053176	0.00018697	0.00013685	1402.5	5.432e-06	3.8352e-06	1402.5	371.87	3.3703e-06	1.4752e-06	423.14	140.4	121.39	41.816	8.1959e-06	51.485	0.00028467	0.00028133	7.8304e-05	1376.3	3.0831e-06	3.0945e-06	1370.2	362.19	3.0976e-06	3.074e-06	407.17	134.28	116.5	40.267	3.0922e-06	49.473	14.086	122.783	252.172	-2.624	61.998	111.104	-2.975	1.551	208.160	252.976	1.287	5.999	6.555	10.640	128.821	10.179	-8191	255	
2969.474	1	1	0	0	0.14921	0.04229	0.10587	0.33854	0.18333	0.023323	0.28995	0.19835	0.3191	0.14255	0.062614	0.072377	0.13612	0.12816	0.21509	0.28166	-3.0042	-4.4042	-4.0208	-3.6437	-4.5396	-3.4125	-4.1979	-4.5479	-3.3063	-4.4958	-4.2167	-3.7354	-4.6542	-3.6333	-3.9646	-4.3375	281.145	284.249	314.769	327.051	324.772	102.763	205.198	-9.610	18.426	121.837	191.155	324.473	19.162	259.259	20.560	320.507	0.00051152	0.00058651	0.00015514	1404.9	4.2331e-06	1.6317e-06	1396.7	370.89	5.2968e-06	3.9624e-06	423.48	140.09	120.93	41.798	1.4403e-06	51.95	0.00028656	0.00028267	7.8317e-05	1375.9	3.1023e-06	3.1077e-06	1368.7	362.14	3.1012e-06	3.1049e-06	407.49	134.14	116.51	40.281	3.1104e-06	49.648	43.849	122.290	246.777	-2.680	70.640	332.755	-2.896	1.753	79.588	115.157	1.141	6.005	6.460	10.480	223.071	10.167	-8191	255	
2969.593	1	1	0	0	0.085885	0.18056	0.16962	0.28187	0.1554	0.25733	0.15923	0.22395	0.0524	0.11283	0.1197	0.2742	0.11113	0.16621	0.11922	0.056128	-3.3896	-4.2917	-3.8396	-3.9562	-4.5312	-3.5417	-4.1937	-4.5354	-3.4958	-4.5292	-4.0604	-3.8438	-4.5896	-3.7	-3.9146	-4.4792	260.848	23.934	292.424	303.797	54.561	58.246	273.686	40.992	28.676	305.430	336.304	318.095	243.569	66.101	200.516	296.756	0.00064774	0.00021019	3.2103e-05	1402.9	4.5568e-06	3.5014e-06	1398.8	370.86	7.1732e-06	6.7536e-06	425.32	140.67	121.62	41.737	6.7401e-06	52.021	0.00028747	0.0002829	7.8348e-05	1375.9	3.1101e-06	3.1078e-06	1368	362.17	3.117e-06	3.1021e-06	407.52	134.47	116.77	40.285	3.099e-06	49.571	29.830	234.403	139.276	-2.902	91.747	246.971	-2.809	1.669	35.597	100.367	1.214	5.916	6.420	10.706	-15.735	9.981	-8191	255	
2969.689	1	1	0	0	0.047409	0.2477	0.085263	0.17858	0.0058733	0.2638	0.10273	0.2465	0.18444	0.076554	0.16631	0.076098	0.26259	0.18124	0.2115	0.21814	-3.1542	-4.3958	-4.0167	-3.6396	-4.4646	-3.6792	-4.0604	-4.5	-3.4875	-4.3354	-4.2833	-3.8396	-4.4958	-3.9479	-3.9188	-4.5542	65.099	107.441	55.340	238.194	149.184	261.157	239.672	300.614	62.427	343.337	278.035	317.061	19.420	218.740	328.886	219.690	0.00086189	0.00025004	0.00020692	1401.1	7.2833e-06	4.12e-06	1402.4	371.87	2.6482e-06	2.8379e-06	423.45	140.58	121.16	41.65	1.507e-06	52.115	0.00028535	0.00028171	7.7907e-05	1374.6	3.0971e-06	3.0693e-06	1370.2	362.6	3.101e-06	3.0578e-06	406.57	134.16	116.3	40.186	3.0779e-06	49.611	24.205	18.326	60.678	-2.873	3.398	80.444	-2.781	1.831	171.629	122.646	1.038	6.033	6.422	10.689	200.917	9.991	-8191	255	
2969.785	1	1	0	0	0.11684	0.15138	0.21671	0.2887	0.17734	0.041157	0.15636	0.26343	0.26534	0.1185	0.055873	0.15535	0.38635	0.1261	0.17496	0.17833	-3.1625	-4.2479	-4.0062	-3.5563	-4.5542	-3.6229	-4.1062	-4.7167	-3.4625	-4.3812	-4.2854	-3.35	-4.7562	-3.9271	-3.8271	-4.7375	124.265	79.354	-12.859	283.136	111.465	166.966	305.972	-3.297	146.164	27.955	275.225	19.394	26.851	221.444	213.721	214.007	0.00069149	0.00076216	0.00016615	1402	4.5124e-06	2.6578e-06	1399	371.11	5.9619e-06	1.1172e-06	424.74	139.95	121.39	41.705	6.4238e-06	51.884	0.00028736	0.00028017	7.7965e-05	1376.8	3.0927e-06	3.062e-06	1368.7	362.34	3.119e-06	3.0773e-06	407.04	133.87	116.6	40.189	3.1004e-06	49.582	28.118	103.811	31.827	-2.872	32.864	98.125	-2.951	1.917	184.743	46.832	1.357	5.894	6.597	10.332	134.391	9.856	-8191	255	
2969.906	1	1	0	0	0.12743	0.089328	0.082454	0.19549	0.048997	0.24475	0.18221	0.28154	0.16978	0.16904	0.16783	0.10724	0.28178	0.24163	0.055117	0.1678	-3.0625	-4.15	-4.1167	-3.5333	-4.5938	-3.8771	-3.8521	-4.4667	-3.3625	-4.2875	-4.35	-3.4208	-4.6542	-4.0083	-3.6146	-4.7208	276.576	290.418	128.654	315.496	74.858	206.108	237.113	269.105	268.382	170.639	334.652	335.413	331.126	340.122	331.750	291.207	0.00063359	0.00069733	0.00018837	1404	2.1379e-06	2.1157e-06	1394.9	371	6.0994e-06	4.6159e-06	422.36	140.13	121.19	41.69	5.5427e-06	51.797	0.00028596	0.00028296	7.8053e-05	1373.9	3.0892e-06	3.1018e-06	1367.2	362.12	3.1184e-06	3.085e-06	406.76	134.01	116.5	40.143	3.1229e-06	49.643	31.655	146.671	29.862	-2.923	92.698	7.168	-2.876	1.953	196.419	25.465	1.181	6.140	6.355	10.746	145.493	9.954	-8191	255	
2970.002	1	1	0	0	0.20789	0.071528	0.096306	0.34241	0.17103	0.24477	0.14281	0.1806	0.079541	0.20959	0.15767	0.19193	0.030809	0.23277	0.075408	0.15893	-3.2083	-3.8917	-4.3542	-3.8104	-4.3604	-3.8708	-3.8875	-4.5021	-3.6833	-4.0208	-4.2583	-3.7167	-4.4146	-4.0792	-3.6833	-4.6646	338.973	302.698	94.671	4.813	79.542	300.467	264.757	279.110	-15.317	88.595	290.485	295.227	337.727	301.438	285.446	266.972	0.00064097	0.00065205	0.00012756	1398.4	3.3435e-06	4.7157e-06	1402.5	370.46	7.2212e-06	5.1132e-06	423.6	139.8	121.12	41.743	1.1615e-06	51.774	0.00028474	0.00028335	7.8479e-05	1373.6	3.0789e-06	3.0868e-06	1370.3	361.67	3.0747e-06	3.1132e-06	406.9	133.96	116.37	40.208	3.1175e-06	49.641	37.968	136.480	44.070	-2.857	96.693	126.420	-2.798	1.918	145.833	158.618	1.204	5.683	6.596	10.527	182.388	10.161	-8191	255	
2970.074	1	1	0	0	0.10449	0.17563	0.16822	0.13195	0.043642	0.082642	0.30732	0.1412	0.33038	0.086082	0.092572	0.26657	0.23205	0.28571	0.17242	0.16841	-3.1917	-4.0271	-4.2625	-3.6312	-4.4354	-3.8854	-3.8063	-4.7646	-3.4271	-3.8646	-4.6458	-3.3396	-4.4458	-4.0646	-3.6437	-4.5583	93.095	281.746	94.001	-0.854	55.828	97.321	292.286	74.757	196.877	310.435	114.284	339.965	329.550	320.719	74.837	-7.607	0.00065778	0.00049335	0.00016944	1402.8	2.4891e-06	8.4532e-06	1399.9	371.16	3.3263e-06	7.7846e-06	423.17	139.65	121.71	41.558	3.9266e-06	51.769	0.00028525	0.00028381	7.8561e-05	1372.8	3.096e-06	3.1065e-06	1367.9	362.22	3.1194e-06	3.0982e-06	407.31	133.87	116.51	40.152	3.1391e-06	49.551	44.545	83.132	59.225	-2.973	224.134	104.983	-2.859	1.901	297.681	146.404	1.243	5.899	6.599	10.642	179.704	10.277	-8191	255	
2970.194	1	1	0	0	0.29096	0.13328	0.13106	0.30215	0.04267	0.1854	0.18709	0.19931	0.26073	0.14776	0.12791	0.16182	0.29068	0.28052	0.28532	0.31602	-3.4083	-4.1813	-4.4896	-3.6833	-4.2958	-4.2188	-3.6333	-4.8396	-3.7313	-3.9229	-4.6625	-3.5312	-4.375	-4.2396	-3.5083	-4.5417	97.835	233.748	27.320	-10.598	311.400	232.220	310.820	129.672	40.063	108.647	115.599	-2.954	310.418	333.575	141.340	293.438	0.00074935	0.00033233	0.00019082	1402.6	6.2647e-06	3.5396e-06	1404.4	371.05	1.1039e-05	5.9145e-06	425.03	139.9	121.43	41.684	6.1237e-06	51.956	0.00028559	0.000285	7.9237e-05	1373.7	3.133e-06	3.1311e-06	1369.9	362.55	3.122e-06	3.1316e-06	407.43	134.11	116.76	40.166	3.1588e-06	49.669	44.606	1.531	8.326	-2.830	141.210	154.697	-2.659	1.897	118.318	122.937	1.273	5.939	6.427	10.715	161.971	10.047	-8191	255	
2970.289	1	1	0	0	0.20222	0.20483	0.20531	0.15723	0.12047	0.2009	0.12005	0.18006	0.038185	0.074105	0.16106	0.17754	0.04561	0.13022	0.066081	0.026646	-3.3708	-3.9583	-4.4375	-3.5083	-4.0687	-4.2271	-3.9375	-4.5583	-3.8688	-3.6437	-4.5646	-3.4875	-4.3229	-4.2667	-3.2354	-4.7688	144.475	311.142	52.134	228.060	341.399	3.762	-10.748	296.554	-4.761	142.922	19.119	258.882	165.643	292.157	161.684	63.216	0.00055298	0.00019555	0.00011719	1396.9	3.6823e-06	5.5001e-06	1399.5	371.5	6.6283e-06	2.9876e-06	423.29	139.36	121.48	41.466	3.87e-06	51.766	0.00028776	0.0002859	7.9097e-05	1372.1	3.1475e-06	3.1314e-06	1367.5	362.02	3.1537e-06	3.1493e-06	407.36	133.84	116.48	40.153	3.1545e-06	49.636	42.984	126.558	62.977	-2.938	117.439	75.636	-2.887	1.807	155.498	44.408	1.231	6.075	6.626	10.656	129.819	10.017	-8191	255	
2970.385	1	1	0	0	0.09526	0.038454	0.16623	0.10408	0.082344	0.08444	0.18263	0.26093	0.14154	0.057529	0.086632	0.19504	0.17129	0.30268	0.16981	0.10971	-3.4958	-3.7854	-4.5854	-3.3875	-4.1271	-4.4146	-3.4896	-4.7083	-3.9417	-3.6667	-4.8542	-3.5667	-3.9688	-4.5312	-3.3583	-4.5792	225.593	67.426	-10.494	44.155	7.301	-9.179	288.766	317.567	134.157	249.087	269.350	294.029	283.276	300.201	47.687	318.052	0.00073455	0.000365	0.00012478	1402.8	2.8688e-06	6.1212e-06	1399.5	371.94	3.541e-06	5.0574e-06	422.97	140.52	120.9	41.436	3.984e-06	51.664	0.00028887	0.00028858	7.9474e-05	1374.2	3.1512e-06	3.1299e-06	1368.2	362.39	3.1334e-06	3.1492e-06	407.6	133.74	116.58	40.118	3.1577e-06	49.525	34.689	98.266	261.131	-2.811	195.326	108.807	-2.938	1.873	23.437	65.053	1.420	6.129	6.545	10.462	111.596	10.059	-8191	255	
2970.506	1	1	0	0	0.04995	0.26133	0.094846	0.16603	0.19117	0.11628	0.18182	0.24768	0.093088	0.38099	0.17802	0.064744	0.20861	0.15985	0.081528	0.26871	-3.4333	-3.5792	-4.6104	-3.6104	-4.0458	-4.3187	-3.7083	-4.6167	-3.7583	-3.4125	-4.5437	-3.8354	-4.0021	-4.45	-3.5271	-4.4729	87.717	121.895	92.917	293.619	123.495	329.678	331.590	277.912	340.478	106.655	135.271	33.456	313.673	276.807	186.580	224.910	0.00058854	0.0004313	0.00014938	1393.8	2.5751e-06	2.792e-06	1394	370.92	8.3608e-07	2.6561e-06	423.76	140.35	121.46	41.756	2.1285e-06	51.814	0.00028844	0.00028725	7.9496e-05	1370.4	3.1487e-06	3.1514e-06	1365.3	362.24	3.1585e-06	3.1788e-06	407.5	133.98	116.8	40.259	3.1774e-06	49.611	34.638	128.176	263.335	-2.919	38.078	174.148	-2.941	1.819	132.077	86.901	1.575	5.817	6.712	10.713	270.848	9.959	-8191	255	
2970.602	1	1	0	0	0.27379	0.31472	0.19218	0.22747	0.20184	0.089772	0.22374	0.3098	0.052541	0.12793	0.18674	0.17055	0.22888	0.10707	0.088272	0.11081	-3.7021	-3.5542	-4.6375	-3.8187	-3.9167	-4.5521	-3.6729	-4.3854	-4.0167	-3.6146	-4.5188	-3.7708	-4.0417	-4.4688	-3.6521	-4.5583	295.436	205.235	167.872	281.646	338.523	292.865	249.658	250.203	4.063	94.535	-0.784	341.577	187.255	33.522	50.756	181.542	0.00075848	0.00024127	0.00011958	1396.2	3.5248e-06	7.6208e-06	1394.4	370.22	4.9259e-06	4.2144e-06	423.75	139.61	120.79	41.582	5.168e-06	51.351	0.0002922	0.00029049	7.967e-05	1371	3.1686e-06	3.1649e-06	1365.2	362.15	3.1798e-06	3.1707e-06	407.38	133.65	116.45	40.205	3.1348e-06	49.494	34.656	-10.919	309.763	-2.745	53.801	17.371	-2.928	1.841	65.651	61.254	1.442	6.116	6.483	10.753	89.543	9.966	-8191	255	
2970.673	1	1	0	0	0.13056	0.19492	0.028536	0.10617	0.15523	0.11956	0.19688	0.18238	0.31343	0.030356	0.068169	0.0045729	0.22871	0.052626	0.1839	0.20985	-3.7604	-3.5146	-4.5042	-3.9042	-3.8708	-4.5875	-3.5	-4.3833	-4.0917	-3.3833	-4.7562	-3.9313	-3.7667	-4.7	-3.4667	-4.275	339.083	23.394	295.579	318.434	305.760	190.279	267.422	241.616	200.669	283.968	49.789	187.702	22.787	182.129	158.550	-13.956	0.00078797	7.0681e-05	0.00027879	1402.3	1.436e-06	4.4962e-06	1396.1	371.73	6.9596e-06	7.3609e-06	423.15	139.5	120.9	41.67	4.6462e-06	51.64	0.00029026	0.00028826	7.9763e-05	1372.9	3.1505e-06	3.1503e-06	1364.3	362.33	3.166e-06	3.1391e-06	407.48	133.81	116.53	40.218	3.1578e-06	49.628	48.055	36.201	43.381	-2.934	83.256	140.892	-2.671	1.968	80.292	126.499	1.555	5.862	6.740	10.709	92.799	9.886	-8191	255	
2970.794	1	1	0	0	0.13054	0.14956	0.29657	0.35247	0.22657	0.092668	0.073804	0.060638	0.050471	0.14001	0.10242	0.15116	0.18355	0.17407	0.1608	0.1911	-3.9208	-3.4979	-4.5729	-3.9104	-3.625	-4.5708	-3.4437	-4.1417	-4.3021	-3.2958	-4.8812	-4.0583	-3.7313	-4.7104	-3.5729	-4.2937	302.730	155.481	233.833	290.459	74.697	118.209	327.227	104.410	90.653	276.235	82.489	337.460	303.884	274.509	194.538	167.033	0.00070756	0.00027797	0.00018737	1395.4	2.2836e-06	9.0721e-06	1392	370.96	5.4647e-06	4.3612e-06	422.88	139.46	121.47	41.714	3.5729e-06	51.7	0.00029143	0.00028899	7.9691e-05	1369.7	3.1981e-06	3.1611e-06	1365.2	362.52	3.1615e-06	3.1898e-06	407.69	133.89	116.7	40.167	3.1831e-06	49.651	30.056	117.054	20.644	-2.992	127.320	99.872	-2.790	1.714	104.433	113.989	1.410	6.022	6.076	10.571	120.268	10.271	-8191	255	
2970.890	1	1	0	0	0.15218	0.044942	0.17951	0.31483	0.073228	0.17135	0.19942	0.25608	0.28187	0.029027	0.24786	0.19187	0.074505	0.17656	0.19177	0.080065	-4.3187	-3.4646	-4.6312	-4.1271	-3.4813	-4.6562	-3.7	-4.2542	-4.3479	-3.3583	-4.6917	-4.1375	-3.6521	-4.7708	-3.3729	-4.2063	189.636	244.862	48.987	291.561	268.656	41.395	233.658	234.916	281.171	327.261	298.707	264.923	198.738	253.181	21.290	79.847	0.00089153	0.00037642	0.00013939	1395.7	4.1412e-06	3.1723e-06	1392	370.01	3.2662e-06	5.7827e-06	423.8	139.38	121	41.564	2.8895e-06	51.862	0.00029144	0.00028838	8.0323e-05	1371.4	3.1781e-06	3.1542e-06	1364.2	362.11	3.1917e-06	3.1682e-06	407.29	133.96	116.56	40.195	3.1861e-06	49.682	16.084	89.902	60.785	-2.937	85.971	182.028	-3.061	1.866	313.392	99.717	1.576	5.946	6.336	10.762	301.582	9.820	-8191	255	
2970.986	1	1	0	0	0.085789	0.12584	0.18312	0.28311	0.083845	0.22158	0.22843	0.19049	0.13854	0.33318	0.43555	0.23037	0.31666	0.1577	0.14986	0.1234	-3.9854	-3.3854	-4.4042	-4.1208	-3.7104	-4.5875	-3.7958	-4.1937	-4.4833	-3.5812	-4.4563	-4.0375	-3.8	-4.5208	-3.6083	-4.075	62.926	38.096	55.507	327.102	265.785	323.399	275.464	309.736	271.427	127.277	335.298	308.174	319.067	49.184	107.423	41.784	0.0007922	0.00037028	0.00010934	1391.9	3.0887e-06	7.7559e-06	1396.9	371.36	4.3873e-06	7.1266e-07	423.13	139.24	120.6	41.622	3.753e-06	52.169	0.00029251	0.00029197	8.0053e-05	1368.9	3.1767e-06	3.1676e-06	1364.3	362.32	3.1755e-06	3.1676e-06	406.63	133.89	116.34	40.259	3.1962e-06	49.679	23.283	55.535	58.890	-2.971	136.227	118.335	-3.105	1.679	145.946	82.014	1.525	5.994	6.372	10.730	167.739	9.921	-8191	255	
2971.082	1	1	0	0	0.032639	0.19887	0.24792	0.18708	0.22315	0.27316	0.24272	0.19408	0.095302	0.067795	0.12048	0.2102	0.25241	0.21305	0.1979	0.12523	-4.1687	-3.6104	-4.2167	-4.1083	-3.4396	-4.5458	-3.9167	-4.0646	-4.5375	-3.5708	-4.3854	-4.2979	-3.5667	-4.6521	-3.7854	-3.9458	132.539	63.555	0.799	317.627	43.028	31.224	234.739	295.683	232.717	222.264	227.990	44.098	306.305	25.318	278.710	45.929	0.00063435	0.00053867	0.000118	1399.5	1.0114e-05	2.8036e-06	1394.6	370.86	6.0808e-06	3.0115e-06	423.75	138.59	121.03	41.534	5.5779e-06	51.836	0.00029331	0.00029103	8.1075e-05	1371.7	3.1682e-06	3.1692e-06	1364.6	362.2	3.1759e-06	3.1654e-06	407.69	133.51	116.36	40.276	3.2241e-06	49.701	39.318	187.905	111.195	-3.150	47.325	223.555	-2.935	1.887	222.887	163.185	1.527	5.919	6.434	10.641	120.074	10.273	-8191	255	
2971.179	1	1	0	0	0.037476	0.17946	0.18382	0.22183	0.15237	0.12376	0.37059	0.31361	0.15512	0.15502	0.3655	0.34323	0.15613	0.11693	0.029171	0.26711	-4.2167	-3.2604	-4.2458	-4.4958	-3.4875	-4.55	-3.8125	-3.9042	-4.5167	-3.6604	-4.2458	-4.4229	-3.6083	-4.6854	-3.8417	-3.6792	97.937	241.761	330.051	-13.091	289.564	-9.568	289.914	277.159	110.226	103.356	306.027	300.351	329.186	305.165	63.154	147.280	0.00058954	0.00047414	0.00014247	1395.2	5.8146e-06	3.9322e-06	1393.9	371.02	5.1476e-06	2.0486e-06	424.3	139.07	121.11	41.553	5.761e-06	51.664	0.00029227	0.00029014	8.1775e-05	1370.1	3.2018e-06	3.2012e-06	1364.4	362.16	3.2014e-06	3.2191e-06	408.19	133.57	116.43	40.255	3.2083e-06	49.636	32.970	-2.648	73.119	-3.025	45.118	50.499	-3.053	1.906	49.260	323.010	1.353	5.937	6.313	10.813	204.965	10.056	-8191	255	
2971.297	1	1	0	0	0.15009	0.23652	0.062347	0.070597	0.36274	0.021363	0.23073	0.04996	0.14434	0.078641	0.091164	0.13991	0.059914	0.47876	0.088165	0.21784	-4.2375	-3.4229	-4.1062	-4.5875	-3.5708	-4.3833	-4.0604	-3.9437	-4.4792	-3.4833	-3.9958	-4.3979	-3.7333	-4.5333	-3.9062	-3.8208	233.343	54.332	253.153	30.719	33.413	171.220	309.656	326.539	77.868	185.311	300.354	300.879	252.883	324.538	319.743	297.991	0.00057206	0.00035875	0.00031515	1400.3	2.4966e-06	6.7922e-07	1391.2	369.26	3.342e-06	5.6575e-06	424.51	138.91	120.76	41.652	3.7302e-06	51.728	0.00029421	0.00029295	8.1841e-05	1373.6	3.1805e-06	3.208e-06	1366	362.21	3.1756e-06	3.2005e-06	408.12	133.77	116.42	40.259	3.2239e-06	49.656	30.290	93.199	83.830	-2.871	110.442	120.156	-2.988	1.758	117.908	101.901	1.213	6.011	6.262	10.803	188.241	9.987	-8191	255	
2971.369	1	1	0	0	0.054468	0.046002	0.14754	0.058804	0.12095	0.31376	0.42157	0.24809	0.20318	0.15162	0.13612	0.12385	0.10088	0.043869	0.10774	0.10942	-4.2125	-3.6417	-4.0375	-4.4396	-3.7792	-4.3292	-4.0083	-3.8771	-4.5125	-3.6896	-4.1542	-4.5062	-3.7646	-4.4917	-4.0208	-3.65	143.340	297.272	228.230	308.159	70.469	17.424	290.894	228.439	53.202	181.748	277.884	335.054	319.348	321.036	171.285	304.048	0.00064454	0.00029141	6.5241e-05	1397.1	3.8197e-06	7.5281e-06	1397.4	371.19	3.3019e-06	1.8684e-06	423.69	139.74	120.59	41.75	2.4848e-06	51.591	0.00029454	0.00029324	8.1676e-05	1372.2	3.2006e-06	3.229e-06	1366.8	362.43	3.2189e-06	3.2161e-06	408.31	134.01	116.28	40.28	3.2146e-06	49.659	26.494	155.449	71.656	-2.963	200.755	121.614	-2.854	1.658	241.449	189.461	1.302	5.654	6.554	10.763	38.846	10.140	-8191	255	
2971.467	1	1	0	0	0.14148	0.11048	0.11549	0.19819	0.17367	0.14906	0.23579	0.12034	0.11269	0.11753	0.30724	0.13496	0.10154	0.22322	0.1713	0.079878	-4.2104	-3.6729	-4.1062	-4.6729	-3.4729	-4.35	-4.1562	-3.6875	-4.5542	-3.6688	-4.1125	-4.7104	-3.6417	-4.3083	-4.0396	-3.7875	146.135	263.780	147.854	267.023	19.337	325.279	247.190	258.128	269.476	129.747	299.669	259.944	188.712	194.171	164.266	71.628	0.00094576	0.00030255	0.00035547	1398.4	2.4513e-06	5.121e-06	1389.3	370.27	1.6026e-06	5.9337e-07	424.48	139.66	120.98	41.546	6.2738e-06	51.808	0.00029386	0.00029645	8.1591e-05	1373.6	3.2267e-06	3.2296e-06	1364.7	362.34	3.2086e-06	3.2251e-06	408.15	133.74	116.38	40.209	3.2317e-06	49.683	38.883	98.588	51.901	-2.787	125.820	105.978	-3.111	1.667	214.059	89.538	1.279	5.760	6.448	10.957	149.950	9.942	-8191	255	
2971.586	1	1	0	0	0.19271	0.11916	0.1797	0.31559	0.057856	0.12405	0.33428	0.1525	0.084607	0.23213	0.21761	0.075058	0.17383	0.30309	0.1659	0.1628	-4.1375	-3.4521	-3.8688	-4.7396	-3.3812	-4.4688	-4.5167	-3.5771	-4.5583	-3.5812	-3.7917	-4.6771	-3.4417	-4.475	-4.2104	-3.5563	318.871	273.049	147.959	-6.838	80.488	176.520	312.659	201.750	9.454	198.081	304.126	278.475	-11.625	15.056	27.669	25.584	0.00063484	0.00038563	0.00029682	1395.4	6.6191e-06	7.3238e-06	1396	370.44	1.8693e-06	3.6879e-06	424.75	140.02	120.57	41.751	6.2483e-06	51.792	0.00029656	0.00029421	8.1539e-05	1372.1	3.2414e-06	3.2507e-06	1365.7	362.36	3.2221e-06	3.2328e-06	408.04	134.1	116.4	40.42	3.2534e-06	49.664	30.507	79.625	36.587	-2.847	58.689	113.963	-2.883	1.742	161.916	117.820	1.531	5.943	6.272	10.893	116.222	10.225	-8191	255	
2971.682	1	1	0	0	0.055526	0.19491	0.082071	0.10162	0.24374	0.12186	0.18848	0.27743	0.14372	0.12013	0.11054	0.22113	0.13164	0.17156	0.26726	0.35512	-4.4229	-3.6875	-3.5479	-4.7583	-3.4583	-4.2146	-4.4667	-3.6583	-4.4354	-4.0083	-3.8396	-4.5896	-3.6646	-4.325	-4.1937	-3.5479	251.092	43.291	233.139	147.309	181.103	283.368	287.168	286.635	321.907	197.460	32.714	284.906	-3.866	271.606	250.916	245.514	0.00067506	0.0004165	0.00021338	1403.3	3.2445e-06	2.864e-06	1392.6	370.47	5.6899e-06	1.6103e-06	424.79	139.66	120.84	41.746	5.5706e-06	51.61	0.00029998	0.00029847	8.1776e-05	1373.5	3.2469e-06	3.203e-06	1364.9	362.18	3.2371e-06	3.2137e-06	408.16	134.02	116.56	40.356	3.2335e-06	49.642	22.613	20.821	107.303	-2.907	47.643	46.719	-3.007	1.809	-10.433	35.699	1.575	5.787	6.398	10.994	142.159	10.198	-8191	255	
2971.778	1	1	0	0	0.17268	0.17094	0.16656	0.33392	0.048578	0.1557	0.21874	0.4344	0.012261	0.14351	0.21259	0.04543	0.070199	0.14453	0.37735	0.13145	-4.2917	-3.8542	-3.8458	-4.6875	-3.4813	-4.1	-4.4771	-3.8187	-4.5146	-4.0229	-3.7896	-4.5729	-3.6104	-4.0062	-4.375	-3.5521	291.323	157.651	247.842	1.658	217.757	282.189	275.779	243.519	265.789	141.119	217.908	121.925	-7.165	221.160	155.908	239.017	0.00046469	0.0011289	0.00021311	1394.5	7.7308e-06	3.7238e-06	1391.9	371.16	2.0279e-06	2.7071e-06	423.44	139.61	120.43	41.651	7.9801e-06	51.784	0.00029913	0.00029725	8.162e-05	1372.8	3.2582e-06	3.2429e-06	1364.6	362.56	3.2298e-06	3.2204e-06	408.6	133.87	116.56	40.365	3.2582e-06	49.709	37.578	104.764	80.703	-2.988	101.626	53.434	-2.845	1.827	266.730	131.741	1.293	5.786	6.339	10.957	98.454	10.072	-8191	255	
2971.874	1	1	0	0	0.4214	0.13663	0.13296	0.27888	0.18398	0.17914	0.32226	0.17806	0.24398	0.029952	0.20295	0.044161	0.31845	0.33979	0.074895	0.099507	-4.15	-3.9708	-3.7333	-4.8375	-3.6417	-4.1333	-4.6417	-3.5917	-4.4583	-4.0729	-3.8979	-4.85	-3.5625	-4.2125	-4.5437	-3.5542	156.199	8.743	116.627	333.832	12.254	308.246	322.429	269.143	162.428	193.980	240.390	64.846	326.046	324.399	109.447	220.131	0.00093194	0.00058926	8.0714e-05	1396.1	4.0843e-06	1.4079e-06	1392.4	369.57	3.4734e-06	8.22e-06	424.65	138.87	120.77	41.675	8.3324e-06	51.944	0.00029788	0.00029564	8.1704e-05	1373.1	3.2594e-06	3.2335e-06	1364.3	361.99	3.2385e-06	3.2075e-06	408.13	134.1	116.37	40.344	3.2339e-06	49.624	23.719	-12.399	66.942	-2.829	71.641	69.233	-2.918	1.631	160.051	96.781	1.415	6.100	6.515	10.833	93.914	9.951	-8191	255	
2971.971	1	1	0	0	0.29515	0.23409	0.14755	0.15758	0.17283	0.047578	0.040295	0.15129	0.13684	0.22451	0.066016	0.21315	0.32443	0.19602	0.28633	0.13647	-4.3917	-4.0979	-3.3292	-4.7375	-3.6833	-3.7833	-4.8021	-3.5312	-4.3313	-4.2333	-3.8583	-4.7708	-3.7271	-3.8792	-4.7208	-3.2438	14.702	175.662	172.388	277.730	38.730	287.636	245.131	290.959	330.852	156.610	291.358	174.438	224.624	-7.488	84.267	316.092	0.00054961	0.00037742	0.00014537	1395	3.839e-06	1.088e-06	1392.5	369.52	1.9587e-06	4.1365e-06	422.43	139.81	119.93	41.771	5.0084e-06	51.641	0.00029648	0.00029429	8.1564e-05	1371.3	3.2152e-06	3.2232e-06	1365.1	362.04	3.2301e-06	3.2077e-06	407.78	134.16	116.04	40.329	3.2232e-06	49.603	38.654	169.491	55.334	-2.747	83.697	167.162	-2.796	1.577	47.724	304.423	1.392	5.621	6.490	10.644	153.539	9.766	-8191	255	
2972.067	1	1	0	0	0.078461	0.14328	0.26876	0.085871	0.057464	0.17479	0.040287	0.24292	0.21124	0.05135	0.040727	0.063848	0.26681	0.29005	0.1104	0.188	-3.9542	-4.3187	-3.1917	-4.9396	-3.7146	-3.8229	-4.9458	-3.4729	-4.1458	-4.5312	-3.3563	-4.8313	-3.9313	-4.0188	-4.6813	-3.5875	134.630	228.948	255.386	41.032	206.711	22.049	313.663	339.194	265.585	109.038	206.104	274.793	247.043	304.987	292.100	274.913	0.00074865	0.00042796	0.00015381	1401	1.7501e-06	5.0493e-06	1391.2	369.47	4.9902e-06	5.6883e-06	423.37	139.62	120.83	41.587	9.8318e-07	51.672	0.00029914	0.0002938	8.1655e-05	1374.4	3.2316e-06	3.2161e-06	1365.6	361.45	3.2366e-06	3.2522e-06	407.98	134.02	116.23	40.231	3.2413e-06	49.592	10.819	37.778	28.273	-3.084	135.047	138.507	-2.942	1.696	152.893	79.266	1.391	5.894	6.326	10.405	123.885	9.797	-8191	255	
2972.187	1	1	0	0	0.15162	0.19352	0.13591	0.26385	0.1015	0.13641	0.28205	0.093167	0.1206	0.25044	0.23827	0.27454	0.14293	0.0433	0.128	0.11037	-3.8688	-4.2708	-3.5708	-4.6542	-3.725	-3.7417	-4.8125	-3.6396	-4.1375	-4.3729	-3.6312	-4.5396	-4.0417	-3.8979	-4.5375	-3.7562	161.427	33.102	-1.091	330.938	-10.778	107.558	331.922	338.059	119.511	295.623	272.413	292.607	31.520	186.769	262.531	189.743	0.00050713	0.00044206	0.00018861	1394	1.7618e-06	7.4631e-06	1389.5	369.27	3.1513e-06	3.8006e-06	420.61	139.07	120.85	41.575	4.2421e-06	51.386	0.00029663	0.00029396	8.217e-05	1371.8	3.2299e-06	3.218e-06	1364.2	361.46	3.2305e-06	3.2334e-06	407.17	133.93	116.19	40.246	3.2595e-06	49.483	38.318	58.072	323.572	-3.038	50.328	83.894	-2.923	1.618	134.632	105.581	1.253	5.843	6.359	10.781	207.588	9.856	-8191	255	
2972.282	1	1	0	0	0.037594	0.27733	0.27094	0.18819	0.17102	0.17934	0.10128	0.15106	0.05306	0.12928	0.067072	0.11419	0.10696	0.25967	0.12688	0.19924	-3.75	-4.3292	-3.5042	-4.5646	-3.8771	-3.8146	-4.6896	-3.6458	-4.15	-4.4667	-3.7229	-4.5354	-4.0646	-3.6604	-4.3417	-3.7708	336.892	269.340	194.622	-13.672	170.522	282.777	339.463	324.476	78.546	291.993	271.824	175.845	246.313	275.236	10.715	130.426	0.00062596	0.0006622	0.0001353	1392.5	2.8511e-06	4.0943e-06	1388.7	370.39	2.455e-06	3.3101e-06	424.46	139.58	120.79	41.476	3.5431e-06	51.639	0.00029764	0.00029503	8.2458e-05	1370	3.2285e-06	3.2365e-06	1363	361.56	3.2499e-06	3.2166e-06	408.14	133.89	116.22	40.268	3.2492e-06	49.613	15.802	77.965	1.176	-2.798	89.850	98.357	-2.839	1.923	190.251	90.164	1.219	5.970	6.149	10.675	60.595	10.192	-8191	255	
2972.378	1	1	0	0	0.12558	0.12294	0.11157	0.36953	0.11078	0.18624	0.13489	0.12342	0.15665	0.17166	0.2077	0.13647	0.12606	0.18206	0.07953	0.10782	-3.6688	-4.3417	-3.6208	-4.4417	-4.1687	-3.75	-4.5771	-3.7562	-4.1042	-4.6208	-3.5458	-4.4083	-4.175	-3.5833	-4.5687	-4.0083	247.023	196.874	207.146	305.307	145.238	93.553	198.725	70.172	159.550	312.621	277.817	307.726	211.160	17.389	335.771	10.262	0.00090949	0.00037144	0.00011347	1394.1	4.3415e-06	6.8148e-06	1389.6	369.54	4.6248e-06	5.162e-06	424.02	139.64	120.65	41.628	5.7818e-06	51.316	0.00029669	0.00029466	8.2546e-05	1372.4	3.2316e-06	3.2459e-06	1364.9	361.48	3.2569e-06	3.2588e-06	407.61	134.13	116.27	40.28	3.2622e-06	49.564	34.900	51.609	45.756	-2.785	73.481	95.160	-2.852	1.775	199.195	151.964	1.301	5.999	6.420	10.741	133.858	10.108	-8191	255	
2972.474	1	1	0	0	0.12153	0.086537	0.14454	0.19796	0.26362	0.10746	0.094243	0.07506	0.10668	0.1694	0.24195	0.10818	0.010829	0.39224	0.14451	0.25802	-3.8396	-4.6208	-3.5646	-4.4062	-4.0437	-3.4333	-4.8771	-3.7583	-3.9562	-4.6083	-3.5271	-4.3479	-4.3063	-3.4917	-4.6854	-3.8917	286.158	184.099	334.452	318.625	42.521	-0.832	-2.147	63.336	319.743	197.523	316.727	309.786	169.606	302.802	212.729	320.347	0.00076233	0.00059386	0.00012358	1396.8	1.3664e-06	4.942e-06	1395.3	368.37	7.7291e-06	8.3265e-06	420.88	139.81	120.47	41.516	1.8282e-06	51.635	0.00029885	0.00029864	8.2716e-05	1373	3.232e-06	3.2881e-06	1366.6	361.39	3.2712e-06	3.2444e-06	406.68	134.16	116.31	40.244	3.2526e-06	49.58	33.536	11.257	62.978	-2.870	37.237	142.153	-2.817	1.740	128.570	71.371	1.152	6.073	6.480	10.524	139.169	9.966	-8191	255	
2972.595	1	1	0	0	0.050736	0.090115	0.030381	0.32014	0.52787	0.19651	0.10777	0.082416	0.1365	0.25	0.23296	0.24099	0.15031	0.1564	0.15364	0.34044	-3.2646	-4.6604	-3.3917	-4.3812	-4.3271	-3.3125	-4.8875	-3.7917	-3.6813	-4.5896	-3.5312	-4.3271	-4.4812	-3.4521	-4.4917	-3.9146	132.601	66.637	64.730	254.934	129.533	63.934	239.173	311.662	37.179	272.392	254.455	222.805	337.002	-1.532	-8.596	255.699	0.0006943	0.00073079	0.00018482	1398.5	5.3116e-06	8.3659e-06	1399.3	369.04	3.5975e-06	2.7276e-06	423.4	140.05	120.58	41.464	5.8462e-06	51.654	0.00030105	0.00029875	8.3166e-05	1375.1	3.2564e-06	3.2599e-06	1367.4	361.37	3.2764e-06	3.2655e-06	406.86	134.09	116.24	40.242	3.2565e-06	49.608	32.190	72.024	119.950	-2.719	133.694	73.146	-2.713	1.639	118.089	-13.535	1.130	5.961	6.396	10.529	124.025	10.121	-8191	255	
2972.666	1	1	0	0	0.1122	0.17155	0.056081	0.051891	0.11949	0.10783	0.12629	0.25198	0.22721	0.25542	0.1133	0.13375	0.14871	0.29927	0.15	0.08345	-3.5458	-4.5604	-3.4354	-4.3667	-4.3646	-3.6271	-4.6292	-3.9771	-3.5917	-4.5354	-3.5396	-4.2229	-4.5583	-3.5708	-4.3688	-4.0458	136.301	186.365	74.382	296.550	201.911	239.920	250.173	238.793	228.553	130.742	184.068	330.693	-0.780	28.277	70.828	339.888	0.00092987	0.00046162	0.00024866	1399.7	3.532e-06	1.1498e-06	1397.2	369.63	3.1559e-06	3.9653e-06	423.8	139.1	120.6	41.737	6.7866e-06	51.54	0.0003005	0.00029783	8.2409e-05	1373.4	3.2511e-06	3.2627e-06	1367.1	361.9	3.2608e-06	3.2409e-06	408.06	134	116.39	40.196	3.2472e-06	49.479	24.821	23.249	16.326	-2.738	108.460	81.107	-3.052	1.684	218.541	81.388	1.372	5.981	6.342	10.775	91.248	9.949	-8191	255	
2972.762	1	1	0	0	0.22506	0.17851	0.1279	0.20022	0.05082	0.055497	0.36684	0.13675	0.083449	0.15998	0.13082	0.30123	0.02877	0.14233	0.17535	0.33978	-3.2292	-4.5	-3.5729	-4.2188	-4.4187	-3.3937	-4.6375	-4.0583	-3.3896	-4.6229	-3.7438	-4.1562	-4.5813	-3.475	-4.5125	-4.0771	0.192	68.317	312.372	276.914	178.463	114.589	260.007	194.490	160.883	340.851	-13.548	38.752	271.254	315.555	162.200	14.611	0.00053482	9.4811e-06	0.00011633	1399.6	8.2102e-06	3.3982e-06	1390.2	369.62	1.1917e-06	3.2421e-06	422.31	139.69	120.21	41.423	5.6991e-06	51.599	0.00030043	0.00029604	8.2135e-05	1374.2	3.2506e-06	3.2486e-06	1365.6	361.51	3.2727e-06	3.2444e-06	407.33	134.19	116.15	40.186	3.2618e-06	49.626	43.764	178.643	4.619	-2.876	39.703	145.194	-2.726	1.786	202.725	122.021	1.288	6.301	6.643	10.913	177.894	9.789	-8191	255	
2972.859	1	1	0	0	0.1861	0.082585	0.10591	0.11739	0.27678	0.059723	0.1279	0.17138	0.19065	0.21684	0.13121	0.12602	0.23109	0.2214	0.15294	0.17005	-3.3896	-4.75	-3.5812	-4.1125	-4.4875	-3.6667	-4.5104	-4.1958	-3.5687	-4.6042	-3.8854	-4.0146	-4.6375	-3.4813	-4.3208	-4.3187	318.777	192.923	59.191	54.357	6.607	267.737	203.179	299.411	257.962	99.527	325.783	335.352	323.876	294.625	283.619	298.686	0.00081261	0.00085319	0.00012343	1396.5	5.5612e-06	2.4769e-06	1397.6	368.83	6.1014e-06	4.6279e-06	423.37	139.62	120.78	41.537	3.2825e-06	51.571	0.00030261	0.00029667	8.2763e-05	1373.2	3.2669e-06	3.2586e-06	1368.2	361.64	3.2945e-06	3.2675e-06	407.26	134.21	116.47	40.285	3.2864e-06	49.629	47.705	46.376	24.014	-2.836	115.791	114.540	-2.879	1.715	137.122	77.206	1.104	5.993	6.643	10.767	116.459	9.800	-8191	255	
2972.979	1	1	0	0	0.20774	0.18734	0.20636	0.20924	0.34423	0.2287	0.15253	0.54053	0.14891	0.22232	0.055557	0.0805	0.11847	0.13919	0.14376	0.073728	-2.9729	-4.6438	-3.4833	-4.0271	-4.6917	-3.3271	-4.4625	-4.3063	-3.1625	-4.8104	-3.8208	-3.7958	-4.6604	-3.4667	-4.2438	-4.4375	7.998	180.310	56.453	324.878	17.307	213.460	249.139	301.813	241.072	326.971	24.572	8.518	327.673	94.558	291.684	260.199	0.0008927	0.00038245	8.7471e-05	1401.3	6.3673e-06	2.701e-06	1396	369.75	3.9504e-06	5.8242e-06	423.6	140.11	121.46	41.914	3.2871e-06	52.115	0.00030547	0.00030135	8.3569e-05	1375.8	3.3404e-06	3.2961e-06	1369.9	362.47	3.365e-06	3.3349e-06	408.86	134.94	117.34	40.611	3.3999e-06	50.107	32.471	259.078	86.665	-2.578	41.569	50.441	-2.607	1.871	135.781	98.519	1.130	6.225	6.383	10.787	141.268	10.037	-8191	255	
2973.074	1	1	0	0	0.14324	0.16965	0.14838	0.083612	0.094058	0.18115	0.16918	0.16843	0.18271	0.24266	0.090349	0.26376	0.032528	0.15909	0.16409	0.16111	-3.1542	-4.6625	-3.8563	-3.7875	-4.7688	-3.3042	-4.2417	-4.5417	-3.1979	-4.6188	-3.925	-3.7042	-4.9187	-3.1708	-4.0687	-4.5729	18.116	252.080	39.416	20.833	33.441	173.149	314.182	220.090	225.679	15.481	311.226	212.965	319.930	69.201	111.967	336.773	0.00057681	0.0010164	0.00016663	1406.5	2.9516e-06	4.538e-06	1403.7	373.7	3.3825e-06	5.6866e-06	425.6	140.69	122.41	42.258	1.5174e-06	52.066	0.00031289	0.00031024	8.6281e-05	1383.4	3.3925e-06	3.3791e-06	1377.4	366.19	3.3656e-06	3.3499e-06	410.94	135.7	117.99	40.834	3.3575e-06	50.145	28.581	58.572	41.742	-2.842	302.659	84.320	-2.832	1.841	165.437	121.622	1.275	6.236	6.654	10.475	214.418	9.907	-8191	255	
2973.170	1	1	0	0	0.085154	0.14865	0.084502	0.1734	0.16542	0.24589	0.21263	0.11285	0.23848	0.27848	0.32867	0.24635	0.13215	0.19904	0.19032	0.062445	-2.8833	-4.7229	-3.8646	-3.5854	-4.6792	-3.5875	-4.1417	-4.6792	-3.3667	-4.4187	-4.1104	-3.6208	-4.65	-3.6208	-4.1208	-4.6083	142.513	177.326	42.867	304.737	178.824	67.180	8.545	319.328	133.608	128.706	299.489	281.810	-7.135	322.076	2.192	165.288	0.00054193	0.00050325	0.00012228	1403.9	6.2687e-07	2.3649e-06	1404.4	373.2	2.2307e-06	5.4416e-06	427.13	140.95	123.02	42.014	1.7519e-06	52.307	0.00030892	0.000306	8.4857e-05	1382.9	3.327e-06	3.3512e-06	1378.8	365.59	3.3487e-06	3.3564e-06	411.98	135.84	118.2	40.81	3.419e-06	50.284	32.002	320.388	16.184	-2.794	132.849	313.623	-2.885	1.621	157.762	69.422	1.280	5.912	6.452	10.594	225.373	9.878	-8191	255	
2973.268	1	1	0	0	0.023993	0.058636	0.13821	0.17303	0.055116	0.15047	0.15215	0.17677	0.15517	0.025802	0.25376	0.051785	0.078297	0.10712	0.13732	0.23996	-3.2292	-4.4917	-4.0625	-3.5208	-4.6625	-3.3833	-4.0563	-4.5667	-3.1167	-4.4625	-4.3458	-3.7083	-4.7604	-3.8896	-3.8875	-4.5729	262.902	175.162	103.899	236.725	281.475	97.189	328.895	17.675	65.757	142.789	282.107	327.978	240.956	2.472	341.292	261.086	0.0010286	0.00041182	4.9582e-05	1408.8	7.3975e-06	2.1354e-06	1410.2	373.88	3.8136e-06	2.224e-06	427.12	141.62	122.55	42.184	3.5586e-06	52.11	0.00030991	0.00030753	8.5787e-05	1386.5	3.3638e-06	3.3666e-06	1382.2	366.27	3.3662e-06	3.3581e-06	411.29	135.84	118.19	40.818	3.3994e-06	50.098	22.841	96.348	105.897	-2.745	111.546	32.726	-2.659	1.815	121.719	28.107	1.158	5.877	6.201	10.764	126.184	9.760	-8191	255	
2973.362	1	1	0	0	0.20951	0.03246	0.093157	0.13275	0.02122	0.16483	0.26262	0.31313	0.31029	0.19231	0.11631	0.32417	0.30318	0.25782	0.10032	0.26971	-3.4188	-4.5437	-4.3729	-3.7479	-4.65	-3.6312	-4.1229	-4.6229	-3.7083	-4.2333	-4.1417	-3.5771	-4.6312	-3.8937	-3.7875	-4.4104	293.389	151.169	102.014	152.057	300.482	72.466	299.707	282.237	150.513	94.271	57.447	281.623	106.036	331.096	184.753	330.689	0.00080841	0.0004286	0.00012041	1407.5	2.6101e-06	2.2494e-06	1411.2	373.65	4.3187e-06	4.3612e-06	426.51	140.29	122.17	42.061	4.5672e-06	52.177	0.00030763	0.00030658	8.5019e-05	1385.3	3.3373e-06	3.3698e-06	1381.4	366.05	3.3442e-06	3.3861e-06	411.78	135.37	117.97	40.768	3.3937e-06	50.263	46.142	86.987	22.681	-2.767	99.117	156.860	-2.945	1.850	175.900	237.316	1.281	5.829	6.382	10.515	162.392	9.725	-8191	255	
2973.458	1	1	0	0	0.074755	0.059787	0.14773	0.31851	0.20413	0.075505	0.43674	0.32278	0.15025	0.2201	0.089313	0.15248	0.2245	0.12718	0.16339	0.081987	-3.1667	-4.2125	-4.2292	-3.8542	-4.4604	-3.6625	-4.0125	-4.6646	-3.4479	-4.1833	-4.5396	-3.7396	-4.5229	-4.0833	-3.7708	-4.5458	188.076	-3.071	239.309	311.547	28.387	142.740	287.394	335.145	113.774	305.646	39.654	286.761	304.555	-12.135	120.051	76.149	0.00053644	0.00049846	0.00022621	1412.4	7.3076e-06	6.7832e-06	1408.9	374.81	2.6208e-06	5.0339e-06	426.22	139.81	121.81	42.188	3.4085e-06	52.203	0.00030884	0.00030629	8.5019e-05	1387.3	3.3469e-06	3.3621e-06	1381.3	366.57	3.3513e-06	3.3685e-06	411.72	135.47	117.87	40.827	3.3704e-06	50.212	37.817	84.122	55.590	-2.915	95.188	48.250	-2.904	1.556	198.032	125.053	1.097	5.820	6.635	10.463	152.044	10.038	-8191	255	
2973.554	1	1	0	0	0.34568	0.14266	0.039508	0.28217	0.084938	0.20012	0.10956	0.10869	0.36223	0.18549	0.1122	0.42225	0.21453	0.12188	0.068643	0.16178	-3.2958	-4.0083	-4.2729	-3.6458	-4.4667	-4.1562	-3.8438	-4.6771	-3.5062	-4.0167	-4.4688	-3.3812	-4.7271	-4.0813	-3.4417	-4.8104	237.454	16.388	307.516	309.538	128.363	328.040	259.548	262.061	316.132	41.649	1.849	332.611	254.433	251.267	127.566	19.454	0.00055352	0.00022976	0.00027016	1410.2	3.341e-06	1.8546e-06	1410.7	375.06	8.3192e-07	4.956e-06	427.29	141.11	122.76	41.929	6.1925e-06	52.162	0.00030787	0.00030832	8.5536e-05	1387	3.3701e-06	3.3926e-06	1382.8	366.83	3.3625e-06	3.3961e-06	412.26	135.78	118.27	40.765	3.3735e-06	50.271	17.978	-14.283	61.988	-2.766	79.834	251.220	-2.807	1.577	250.156	111.756	1.483	5.722	6.551	10.753	105.829	10.291	-8191	255	
2973.675	1	1	0	0	0.30171	0.13474	0.25951	0.1148	0.16637	0.077449	0.19109	0.067569	0.054437	0.22849	0.3408	0.23716	0.29868	0.10364	0.13831	0.26216	-3.0687	-4.0646	-4.4208	-3.3771	-4.5271	-4.0583	-3.375	-5.0771	-3.5542	-3.9521	-4.7625	-3.3396	-4.4938	-4.0833	-3.2354	-4.9396	225.530	-1.262	223.262	279.355	318.149	55.733	272.622	332.687	324.834	230.907	262.750	276.461	290.896	52.676	247.106	256.495	0.00079406	0.00087441	0.0001507	1409.3	1.8264e-06	5.3259e-06	1411.7	375.81	2.6313e-06	8.6269e-06	426.39	140.71	122.66	41.934	4.0059e-06	52.202	0.00031166	0.0003108	8.5092e-05	1386.3	3.3793e-06	3.3709e-06	1382.4	367.13	3.4032e-06	3.4036e-06	412.19	135.71	118.22	40.801	3.3706e-06	50.281	38.478	156.908	47.966	-2.811	78.691	269.161	-2.782	1.874	274.303	113.435	1.045	5.840	6.659	10.521	177.210	10.096	-8191	255	
2973.771	1	1	0	0	0.13375	0.34509	0.13815	0.37074	0.28784	0.14623	0.24917	0.17773	0.12432	0.089756	0.30894	0.11128	0.15093	0.02483	0.25832	0.12596	-3.1333	-3.825	-4.5979	-3.3667	-4.375	-4.1813	-3.55	-4.8083	-3.6583	-4.0104	-4.6	-3.5021	-4.4292	-4.2229	-3.4354	-4.7833	267.139	133.526	47.016	335.664	261.732	42.217	229.406	320.523	109.929	50.117	307.799	-15.536	12.759	34.267	-11.432	340.715	0.00055478	0.00055118	0.00011325	1412.6	8.1203e-06	5.5572e-06	1406.6	375.01	7.1282e-06	5.2403e-06	427.06	140.74	122.42	41.994	5.0075e-06	52.161	0.00031281	0.0003094	8.5068e-05	1386.6	3.4135e-06	3.3781e-06	1380.4	366.62	3.3906e-06	3.3966e-06	411.6	135.63	118.17	40.715	3.3706e-06	50.269	21.554	174.193	41.388	-3.054	112.011	86.562	-3.011	1.621	104.874	52.668	1.097	5.703	6.644	10.414	196.521	10.051	-8191	255	
2973.867	1	1	0	0	0.3886	0.21714	0.063095	0.087085	0.30185	0.11125	0.21086	0.18963	0.10986	0.22148	0.043594	0.30872	0.13458	0.13637	0.099631	0.10621	-3.45	-3.5896	-4.6	-3.3812	-4.1875	-4.2937	-3.6792	-4.7708	-3.65	-3.5583	-4.8042	-3.4604	-4.3	-4.2792	-3.1813	-4.7896	10.232	334.510	28.508	16.952	60.890	18.881	231.855	273.866	68.775	298.993	299.661	343.013	245.495	340.527	-6.806	246.820	0.00081985	0.00079872	0.00013051	1404.9	6.273e-06	5.0273e-06	1404.4	375.39	2.293e-06	2.8866e-06	427.65	141.05	122.16	41.955	2.4346e-06	51.964	0.00031214	0.00031043	8.508e-05	1384	3.4064e-06	3.3919e-06	1379.2	367.24	3.4175e-06	3.4108e-06	412.15	135.78	118.09	40.788	3.4058e-06	50.292	8.847	88.876	249.448	-3.028	87.136	97.015	-2.660	1.837	234.958	85.570	1.004	5.659	6.431	10.447	86.111	9.953	-8191	255	
2973.963	1	1	0	0	0.073939	0.18775	0.057255	0.25634	0.17076	0.030721	0.22707	0.028091	0.19944	0.080586	0.16979	0.16765	0.21333	0.047262	0.09927	0.1607	-3.6208	-3.7687	-4.5104	-3.8167	-4.2396	-4.3958	-3.5333	-4.6729	-3.85	-3.7729	-4.7479	-3.45	-4.1687	-4.3417	-3.3958	-4.6375	21.985	226.153	294.962	289.258	286.932	70.258	203.944	37.732	-1.957	194.715	40.955	77.762	230.248	16.898	13.017	172.914	0.00071687	0.00051169	0.00027938	1407.3	7.9829e-06	6.1349e-06	1407.1	373.27	5.0438e-06	1.0166e-06	427.8	140.7	121.9	41.898	3.7946e-06	52.246	0.00031277	0.00031005	8.5567e-05	1384.3	3.4068e-06	3.3766e-06	1379.5	367.02	3.3928e-06	3.4114e-06	412.06	135.74	118.33	40.749	3.3971e-06	50.29	15.266	73.018	-9.339	-2.960	176.318	150.947	-2.918	1.746	178.803	216.163	1.208	5.950	6.718	10.490	134.569	10.124	-8191	255	
2974.060	1	1	0	0	0.12427	0.20502	0.19647	0.29106	0.087088	0.062232	0.13098	0.14323	0.14265	0.21739	0.13107	0.076697	0.095204	0.10305	0.094242	0.058169	-3.6708	-3.6729	-4.8458	-3.5812	-4.0104	-4.2896	-3.7229	-4.7875	-4.0333	-3.6063	-4.6958	-3.5687	-4.0708	-4.6042	-3.3896	-4.4396	103.577	267.800	33.224	280.489	34.618	198.237	154.162	299.873	48.082	47.001	286.667	246.285	142.937	5.080	183.716	98.114	0.00069333	0.0005354	0.00019485	1405.4	3.0556e-06	8.0963e-06	1413.7	374.99	1.0764e-06	2.8711e-06	426.98	140.85	122.55	41.981	4.9295e-06	52.27	0.00031376	0.00030846	8.6084e-05	1382.5	3.4189e-06	3.3627e-06	1380.8	367.06	3.3943e-06	3.3922e-06	412.61	135.33	118.27	40.735	3.4227e-06	50.31	32.355	68.225	111.794	-2.893	43.104	111.096	-2.906	1.963	256.760	188.917	1.262	5.739	6.462	10.523	24.669	10.060	-8191	255	
2974.156	1	1	0	0	0.12511	0.14478	0.032037	0.25477	0.16165	0.26177	0.16902	0.21174	0.12119	0.1759	0.084606	0.2008	0.16556	0.06011	0.079302	0.061275	-3.7313	-3.5792	-4.5229	-3.8083	-3.9792	-4.5042	-3.4896	-4.5458	-4.2354	-3.5312	-4.8958	-3.8937	-3.8771	-4.4792	-3.5979	-4.3458	289.978	180.108	300.893	-9.400	139.617	40.633	257.327	282.029	112.131	252.344	39.461	221.585	211.307	112.853	169.776	24.441	0.00075083	0.00094967	0.00013283	1406.8	2.8323e-06	6.0164e-06	1413.4	375.29	8.5368e-06	2.4108e-06	426.37	141.02	121.84	42.35	5.9869e-06	52.12	0.00031237	0.00030905	8.6104e-05	1384.1	3.3922e-06	3.3735e-06	1382.2	367.66	3.3846e-06	3.4061e-06	412.45	135.59	118.06	40.804	3.4229e-06	50.239	33.356	79.768	42.924	-2.880	29.458	76.788	-2.906	1.924	139.160	292.425	1.203	5.896	6.377	10.673	150.388	10.310	-8191	255	
2974.275	1	1	0	0	0.033525	0.059416	0.079268	0.14126	0.34561	0.16464	0.13144	0.12551	0.22721	0.18675	0.072012	0.13905	0.19785	0.067278	0.22796	0.15926	-3.7	-3.45	-4.5458	-4.0167	-3.8187	-4.6792	-3.8146	-4.6208	-4.2375	-3.3917	-4.8771	-3.9104	-3.8583	-4.8583	-3.35	-4.5458	145.276	222.436	68.570	302.241	288.789	37.376	323.555	273.048	140.649	218.968	284.002	208.979	336.222	227.359	162.347	288.112	0.00089676	0.00063552	0.00015637	1409	5.4991e-06	5.3465e-06	1408.5	374.49	4.3303e-06	2.7152e-06	427.83	140.41	122.39	42.144	2.8109e-06	52.502	0.00031069	0.00030899	8.5674e-05	1386	3.3988e-06	3.3757e-06	1380.1	367.22	3.3857e-06	3.3921e-06	412.81	135.46	118.28	40.76	3.3967e-06	50.366	24.475	136.981	52.520	-3.042	152.903	112.255	-3.062	1.873	88.971	319.374	1.400	5.907	6.490	10.628	88.546	9.974	-8191	255	
2974.371	1	1	0	0	0.16892	0.014608	0.16223	0.23837	0.19546	0.094285	0.28762	0.21664	0.11369	0.23683	0.049114	0.1054	0.31516	0.34757	0.15458	0.099785	-4.1979	-3.5229	-4.6188	-3.9333	-3.6542	-4.5396	-3.475	-4.2292	-4.1625	-3.5458	-4.6646	-3.9583	-3.7979	-4.6958	-3.6167	-4.4563	24.943	253.390	232.386	335.863	223.598	316.323	236.433	333.943	334.764	11.940	57.628	305.736	-15.848	11.513	298.344	292.190	0.00086728	0.00038128	7.3369e-05	1409.9	4.8855e-06	2.8088e-06	1412.3	374.58	5.5586e-06	5.5315e-06	429.15	140.38	122.15	42.185	3.0898e-06	51.908	0.00031095	0.00030936	8.6708e-05	1385.4	3.3906e-06	3.4161e-06	1381.6	367.12	3.407e-06	3.3904e-06	413.31	135.42	118.12	40.835	3.4029e-06	50.209	13.672	62.437	335.253	-3.092	106.170	72.220	-2.844	1.851	124.470	67.604	1.341	5.715	6.410	10.700	56.069	9.962	-8191	255	
2974.467	1	1	0	0	0.07651	0.17752	0.031992	0.091472	0.090427	0.11007	0.27339	0.27804	0.20463	0.34987	0.15975	0.23553	0.14606	0.053338	0.14317	0.1819	-4.1979	-3.5458	-4.4875	-4.0813	-3.7708	-4.5938	-3.5708	-4.15	-4.2854	-3.3146	-4.725	-4.0437	-3.7083	-4.7188	-3.4375	-4.2458	342.506	50.064	314.583	-12.551	315.464	111.528	232.686	301.454	176.532	343.552	294.910	328.456	151.451	257.907	62.285	273.909	0.00070214	0.00049806	0.00023968	1404.8	3.1071e-06	6.3187e-07	1405.6	374.27	5.1792e-06	7.8512e-06	429.98	141.18	122.31	42.149	4.2756e-06	52.458	0.00031198	0.00031082	8.6109e-05	1384.4	3.3942e-06	3.4062e-06	1379.6	366.72	3.3889e-06	3.399e-06	413.44	135.57	118.2	40.788	3.422e-06	50.444	30.593	242.227	66.264	-3.016	83.797	39.782	-2.958	1.893	162.978	99.707	1.515	5.650	6.871	10.615	206.117	10.122	-8191	255	
2974.539	1	1	0	0	0.048756	0.14078	0.092499	0.048816	0.092072	0.20438	0.16898	0.11074	0.23995	0.067337	0.056814	0.05639	0.23393	0.24252	0.13956	0.16995	-4.3396	-3.1729	-4.4646	-4.1833	-3.5708	-4.8458	-3.6646	-4.15	-4.5563	-3.4229	-4.5833	-4.0833	-3.6292	-4.6583	-3.6167	-3.9979	17.838	287.298	196.876	16.381	133.590	2.423	184.748	269.867	144.772	33.086	313.657	252.449	5.020	265.631	185.402	225.341	0.00032909	0.0005832	0.00016948	1407.9	3.8268e-06	1.7753e-06	1406.3	375.38	3.7213e-06	7.7885e-06	426.97	141.08	122.25	42.241	4.7335e-06	52.344	0.00031246	0.00031329	8.619e-05	1384.5	3.4162e-06	3.3963e-06	1379.9	367.46	3.3882e-06	3.4203e-06	413.04	135.56	118.32	40.829	3.4155e-06	50.317	54.642	48.672	38.860	-3.082	169.054	245.707	-3.075	1.784	182.165	139.965	1.392	5.734	6.334	10.571	248.419	10.066	-8191	255	
2974.659	1	1	0	0	0.1002	0.055892	0.22874	0.27952	0.079259	0.14184	0.14255	0.20879	0.16733	0.321	0.11866	0.090023	0.26406	0.124	0.25145	0.30713	-4.3812	-3.5167	-4.1875	-4.2208	-3.7687	-4.6396	-3.7625	-4.0917	-4.55	-3.4625	-4.6042	-4.3604	-3.5563	-4.775	-3.6917	-3.9833	339.557	39.095	331.506	323.106	142.366	2.243	262.198	279.418	116.187	140.774	317.645	125.364	307.424	299.998	-2.234	276.301	0.00042559	0.00038287	0.00011456	1407.1	3.5669e-06	2.941e-06	1407	375.96	5.2052e-06	1.6827e-06	429.61	140.3	121.92	42.176	5.581e-06	52.263	0.00031184	0.00031206	8.643e-05	1386.3	3.4189e-06	3.4184e-06	1380.2	367.72	3.4145e-06	3.4029e-06	413	135.44	118.12	40.88	3.4268e-06	50.352	25.171	114.175	27.192	-2.860	171.598	122.075	-2.934	1.861	78.983	15.430	1.599	5.917	6.384	10.995	156.814	10.011	-8191	255	
2974.755	1	1	0	0	0.24005	0.070298	0.14537	0.047169	0.26017	0.060593	0.29741	0.12451	0.19747	0.086525	0.27799	0.13311	0.16989	0.19851	0.15303	0.13738	-4.2937	-3.5083	-4.1792	-4.4375	-3.6604	-4.5354	-3.7271	-4.0958	-4.5833	-3.4938	-4.4104	-4.2021	-3.6729	-4.5062	-3.95	-4.0687	201.153	222.910	178.452	319.490	282.811	297.296	245.168	321.856	321.894	267.844	322.715	295.125	48.887	335.952	71.268	264.431	0.00061381	0.00090124	0.00016104	1411.7	7.2672e-06	1.9468e-06	1407.9	374.03	3.9966e-06	2.9716e-06	426.47	141.35	122.3	42.047	1.0449e-06	52.18	0.00031214	0.00031264	8.6781e-05	1386.1	3.4184e-06	3.4274e-06	1379.6	366.93	3.4504e-06	3.4331e-06	412.46	135.69	118.32	40.852	3.3987e-06	50.265	40.881	82.002	86.956	-3.152	137.636	44.954	-3.110	1.883	119.711	212.915	1.363	5.942	6.371	10.698	121.373	10.177	-8191	255	
2974.852	1	1	0	0	0.068822	0.18285	0.068081	0.29717	0.10152	0.22564	0.15137	0.33789	0.10484	0.24976	0.086242	0.19537	0.15825	0.14946	0.26389	0.13639	-4.0813	-3.5708	-3.9813	-4.4479	-3.5708	-4.45	-4.0146	-3.8979	-4.5271	-3.5708	-4.1104	-4.4146	-3.4688	-4.4729	-3.9646	-3.7313	315.857	106.558	266.930	-10.659	138.911	38.818	299.798	315.919	131.398	209.402	251.720	267.885	321.137	58.528	114.678	227.307	0.00077798	0.00060116	0.0001674	1407.9	3.401e-06	6.8495e-06	1405.9	375.12	1.1721e-05	2.4751e-06	426.45	139.92	122.24	42.004	4.7699e-06	52.279	0.00031471	0.00031284	8.639e-05	1386	3.4144e-06	3.3878e-06	1378.8	367.41	3.4283e-06	3.4082e-06	412.42	135.5	118.2	40.834	3.3757e-06	50.401	46.479	299.872	42.237	-2.898	174.577	144.264	-2.942	1.714	146.300	48.737	1.405	5.936	6.441	10.528	134.489	10.110	-8191	255	
2974.948	1	1	0	0	0.23358	0.18567	0.18739	0.20705	0.10521	0.17694	0.012378	0.44067	0.13732	0.206	0.37159	0.23525	0.22913	0.14927	0.048287	0.25292	-4.1771	-3.4854	-4.1292	-4.7083	-3.4417	-4.5312	-4.1604	-3.8333	-4.7229	-3.5958	-4.2146	-4.4688	-3.5229	-4.5083	-3.8792	-3.8208	99.212	336.127	305.541	-9.221	-6.630	125.454	249.385	255.717	30.944	55.899	266.360	43.978	-7.609	-10.376	307.291	301.699	0.00094423	0.00031466	0.00016407	1410.4	3.233e-06	6.1842e-06	1405.2	375.45	7.6086e-06	5.2456e-06	427.91	140.33	122.55	42.228	4.1056e-06	52.338	0.00031581	0.00030933	8.674e-05	1388	3.4394e-06	3.4297e-06	1380.9	367.67	3.4574e-06	3.4235e-06	412.74	135.5	118.44	40.922	3.4194e-06	50.361	14.940	187.843	46.821	-2.753	86.638	46.711	-2.964	1.899	152.620	123.862	1.350	5.777	6.297	10.801	158.706	9.934	-8191	255	
2975.067	1	1	0	0	0.29916	0.045194	0.12894	0.1481	0.17501	0.18415	0.13249	0.11137	0.2288	0.023436	0.024209	0.22596	0.34627	0.25141	0.077153	0.16474	-4.1104	-3.6375	-3.9542	-4.5417	-3.5021	-4.4104	-4.1417	-3.8042	-4.4187	-3.5583	-4.1937	-4.5479	-3.5646	-4.4479	-3.9083	-3.8646	155.859	299.372	38.582	8.238	304.036	219.407	119.520	283.747	36.095	223.830	82.214	103.835	-14.584	-14.562	194.067	1.311	0.00057777	0.00026073	0.00011429	1405.6	6.4718e-06	3.1656e-06	1405.5	374.14	2.3319e-06	1.7289e-06	427.71	140.94	121.94	42.414	5.7177e-06	52.724	0.00031708	0.00031292	8.7329e-05	1385.2	3.4433e-06	3.4299e-06	1379.5	367.54	3.4617e-06	3.4414e-06	413.93	136.02	118.68	41.123	3.4521e-06	50.595	33.458	48.893	60.929	-2.823	129.739	137.053	-2.932	1.733	48.339	61.792	1.622	5.846	6.140	10.710	99.146	9.938	-8191	255	
2975.140	1	1	0	0	0.18692	0.2338	0.19597	0.2276	0.20492	0.26298	0.092662	0.059775	0.10559	0.0050743	0.14899	0.13544	0.065702	0.31516	0.22245	0.08702	-4.45	-3.7562	-3.8375	-4.7937	-3.5062	-4.4	-4.2875	-3.5708	-4.6167	-3.7583	-4.0437	-4.6521	-3.4396	-4.6062	-4.2438	-3.4229	93.987	127.555	169.980	270.273	-0.173	142.010	35.345	2.229	142.009	331.568	30.895	161.265	158.599	292.990	196.593	297.221	0.0007576	0.00070709	0.00015735	1413.8	1.7009e-06	3.5857e-06	1406.9	376.6	5.3208e-06	3.1164e-06	429.18	141.41	123.26	42.398	7.5968e-06	52.35	0.00031706	0.00031503	8.7758e-05	1390.2	3.464e-06	3.4423e-06	1383.6	368.44	3.487e-06	3.4648e-06	414.73	136.4	118.96	41.157	3.4921e-06	50.594	13.020	68.013	97.800	-2.947	130.980	160.160	-3.092	1.836	131.491	199.964	1.228	6.044	6.489	10.834	41.523	9.994	-8191	255	
2975.236	1	1	0	0	0.13005	0.21777	0.3109	0.089002	0.35445	0.21133	0.05802	0.31764	0.21066	0.26141	0.11579	0.14584	0.1053	0.25518	0.078465	0.26716	-4.4688	-3.7188	-3.7375	-4.7646	-3.2542	-4.3542	-4.675	-3.4437	-4.7396	-3.8875	-3.9417	-4.7146	-3.3625	-4.3896	-4.5271	-3.3104	268.652	39.131	110.291	35.689	98.448	331.709	270.975	235.807	10.197	93.980	280.483	261.772	310.277	228.950	238.344	296.114	0.00086564	0.00029015	9.5486e-05	1411.5	5.5509e-06	6.948e-06	1407.7	376.89	3.0991e-06	1.3668e-06	429.04	141.16	122.82	42.452	1.7169e-06	52.571	0.00032045	0.00031682	8.8512e-05	1391.6	3.487e-06	3.4659e-06	1383.5	369.35	3.4922e-06	3.4882e-06	414.83	136.58	118.86	41.193	3.4897e-06	50.755	37.575	333.715	82.338	-2.821	172.677	122.919	-2.986	1.773	-11.279	129.460	1.459	5.891	6.302	10.873	114.047	9.870	-8191	255	
2975.355	1	1	0	0	0.16512	0.096138	0.33323	0.092527	0.16397	0.2504	0.37091	0.237	0.20977	0.11993	0.25584	0.092554	0.38482	0.13844	0.14728	0.16309	-4.6	-3.9583	-3.6604	-4.9479	-3.4104	-4.225	-4.6708	-3.3646	-4.7958	-3.9958	-3.7354	-5.0188	-3.4437	-4.1542	-4.5167	-3.4396	71.336	183.200	55.856	62.298	319.676	138.835	318.121	327.799	325.808	276.920	276.690	210.016	96.781	13.466	99.358	74.342	0.00059789	0.00077941	0.00014079	1416.1	8.7547e-06	2.6449e-06	1408.4	375.03	8.4562e-06	2.2147e-06	429.96	142.91	122.31	42.44	2.9369e-06	52.726	0.0003175	0.00031581	8.8546e-05	1393.8	3.4883e-06	3.4724e-06	1384.6	368.72	3.4672e-06	3.4796e-06	415.21	136.58	118.68	41.133	3.4941e-06	50.576	24.385	34.475	24.265	-2.993	60.487	32.526	-3.244	1.741	203.475	246.362	1.292	5.714	6.273	10.984	167.181	9.744	-8191	255	
2975.451	1	1	0	0	0.30828	0.24249	0.18741	0.084402	0.15892	0.17098	0.31502	0.23402	0.12418	0.19688	0.039403	0.27834	0.2526	0.24106	0.25649	0.080025	-4.3812	-3.9875	-3.6562	-4.875	-3.5542	-3.9688	-4.7375	-3.8125	-4.4979	-3.8333	-3.7687	-4.6625	-3.7271	-4.0479	-4.4083	-3.4125	291.351	284.349	157.555	297.650	74.468	245.096	278.975	210.862	300.440	4.955	307.133	-2.061	297.924	307.707	185.822	173.553	0.00094005	0.00039716	3.7452e-05	1412.2	4.7129e-06	4.3328e-06	1408.2	375.53	4.163e-06	5.0663e-06	427.1	141.52	122.35	42.321	3.8544e-06	52.376	0.00031896	0.0003164	8.8432e-05	1390.2	3.468e-06	3.4798e-06	1384.8	368.01	3.4577e-06	3.4643e-06	414.22	136.3	118.53	41.074	3.4811e-06	50.445	37.401	236.303	34.653	-3.009	107.727	4.247	-2.918	1.702	59.803	166.717	1.318	5.916	6.382	10.672	102.598	10.065	-8191	255	
2975.547	1	1	0	0	0.088379	0.06733	0.15301	0.086923	0.049951	0.2318	0.086543	0.073861	0.077446	0.16409	0.24945	0.12782	0.20025	0.25235	0.048306	0.11918	-4.2	-4.0208	-3.4375	-4.825	-3.7875	-4.0792	-4.9208	-3.6083	-4.3792	-4.0271	-3.6479	-4.7042	-3.6167	-3.9979	-4.4396	-3.4271	141.296	55.253	238.822	305.327	302.995	141.326	24.937	54.420	101.483	90.640	297.515	27.190	280.252	-11.249	22.508	291.828	0.00068713	0.00061306	0.00015375	1417.5	2.5943e-06	1.2744e-06	1412.3	376.06	9.4682e-06	4.2216e-06	428.55	141.37	122.44	42.202	2.6314e-06	52.029	0.00031914	0.00031761	8.8572e-05	1392.6	3.458e-06	3.5026e-06	1384.9	367.98	3.4744e-06	3.4884e-06	413.62	136.45	118.44	41.017	3.4649e-06	50.386	36.856	55.478	20.657	-2.847	104.478	130.011	-2.795	1.766	186.104	135.581	1.472	5.844	6.105	10.714	237.967	9.665	-8191	255	
2975.668	1	1	0	0	0.082717	0.16491	0.1737	0.13246	0.23165	0.10982	0.20816	0.26486	0.11061	0.15542	0.21181	0.028273	0.0068625	0.17334	0.21942	0.13245	-4.1042	-4.1521	-3.4479	-4.7521	-3.75	-3.8021	-4.8313	-3.5167	-4.2958	-4.2583	-3.6729	-4.6708	-3.8979	-3.7854	-4.4417	-3.6792	303.218	90.539	103.565	335.325	223.198	222.499	298.211	240.092	-15.057	110.635	37.476	330.928	6.685	328.553	16.890	243.696	0.00075731	0.00034997	0.00019254	1412.3	1.0721e-06	1.7358e-06	1414.2	374.87	1.8454e-06	7.2453e-06	428.25	141.23	122.65	42.239	6.0239e-06	52.478	0.00031662	0.00031652	8.7203e-05	1391.4	3.4707e-06	3.4585e-06	1384.1	367.96	3.4612e-06	3.4392e-06	413.63	136.06	118.46	41.027	3.4254e-06	50.538	32.746	5.831	14.353	-2.738	317.693	218.921	-2.950	1.600	160.499	1.606	1.457	5.994	6.179	10.931	62.573	9.836	-8191	255	
2975.764	1	1	0	0	0.20988	0.1648	0.14741	0.24861	0.1463	0.18213	0.29227	0.38173	0.062695	0.073946	0.266	0.23288	0.0828	0.30969	0.13303	0.059815	-3.9167	-4.1438	-3.5812	-4.6646	-3.7417	-3.8333	-4.675	-3.5604	-4.175	-4.4521	-3.5292	-4.4187	-4.0167	-3.75	-4.4812	-3.6396	268.791	339.179	313.032	295.199	38.429	325.397	217.858	276.333	314.212	156.749	284.520	272.140	242.388	45.662	99.985	277.818	0.00078573	0.00068018	0.00012301	1407.4	3.4875e-06	1.4919e-06	1412.5	374.74	5.7744e-07	4.3017e-06	428.5	141.37	122.12	42.413	2.3664e-06	52.225	0.00031751	0.00031663	8.7325e-05	1388.7	3.4611e-06	3.4729e-06	1383.9	367.91	3.4823e-06	3.4703e-06	414.05	136.32	118.59	41.039	3.4442e-06	50.365	38.456	30.832	-8.669	-2.906	208.881	130.234	-2.850	1.511	6.669	198.439	1.080	6.002	6.176	10.855	229.430	9.804	-8191	255	
2975.836	1	1	0	0	0.25225	0.04395	0.12984	0.18682	0.1692	0.23572	0.34179	0.28005	0.14029	0.17922	0.077574	0.23796	0.16941	0.08018	0.20655	0.21655	-3.8771	-4.3104	-3.35	-4.5771	-3.925	-3.8958	-4.6167	-3.8583	-3.9958	-4.1583	-3.8604	-4.5333	-3.9521	-3.9708	-4.6229	-3.6937	285.482	18.538	124.039	-8.420	150.686	54.750	223.706	246.185	267.437	253.263	204.974	301.235	-4.842	-12.339	217.270	332.456	0.0011014	0.00037897	0.00016458	1415.2	4.5915e-06	3.7361e-06	1407.7	374.74	8.1928e-06	5.4405e-06	428.37	141.81	122.53	42.283	7.4658e-06	52.54	0.00031824	0.00031566	8.7567e-05	1391.2	3.4759e-06	3.4551e-06	1382.9	367.44	3.4799e-06	3.4549e-06	413.54	136.62	118.49	41.01	3.4612e-06	50.431	31.205	76.618	50.164	-3.020	124.272	114.289	-2.971	1.662	30.729	123.274	1.094	5.990	6.246	10.796	18.251	10.023	-8191	255	
2975.956	1	1	0	0	0.25255	0.092234	0.13628	0.14837	0.17391	0.12957	0.19894	0.06539	0.15691	0.033839	0.03103	0.20844	0.20736	0.15901	0.20687	0.25248	-3.6729	-4.5583	-3.2396	-4.7583	-3.9729	-3.6937	-4.9604	-3.6229	-3.9396	-4.4583	-3.6688	-4.5312	-4.2063	-3.7542	-4.5646	-3.9479	105.679	9.807	210.484	302.904	269.761	188.967	249.553	285.204	245.352	166.629	173.393	244.659	1.471	89.746	241.910	326.744	0.00077148	0.00013381	0.00020143	1412.3	5.5946e-06	4.7557e-06	1407.6	373.84	3.2719e-06	4.9804e-06	426.75	141.34	122.66	42.082	2.5075e-06	51.997	0.00031756	0.00031406	8.6961e-05	1392.2	3.4599e-06	3.4559e-06	1383.8	367.06	3.4697e-06	3.4466e-06	412.88	136.07	118.41	40.954	3.4417e-06	50.3	5.371	72.983	12.674	-2.782	48.955	62.152	-2.837	1.627	128.716	123.396	1.191	5.757	6.316	10.701	238.000	9.805	-8191	255	
2976.053	1	1	0	0	0.18517	0.10989	0.24078	0.24927	0.10934	0.22825	0.1637	0.11026	0.18081	0.071583	0.15102	0.063546	0.22254	0.16704	0.20013	0.30201	-3.5771	-4.4917	-3.4333	-4.5208	-4.1229	-3.5375	-4.6458	-3.7833	-3.8646	-4.6354	-3.4354	-4.55	-4.1562	-3.3833	-4.5771	-3.9813	321.655	270.498	228.011	303.781	143.853	217.939	294.989	323.018	244.866	112.193	252.492	187.330	216.523	270.377	95.863	314.733	0.00094495	0.0002211	0.00014757	1413.7	2.6015e-06	6.8026e-06	1411.1	373.69	3.399e-06	5.2514e-06	427.75	141.46	122.36	42.601	1.5359e-06	52.383	0.00031739	0.00031478	8.7562e-05	1392.8	3.4722e-06	3.4575e-06	1385.4	367.3	3.4875e-06	3.4264e-06	413.2	136.7	118.38	41.053	3.4469e-06	50.43	33.223	101.576	96.688	-2.851	69.016	91.899	-2.849	1.547	296.907	49.211	1.103	5.862	6.222	10.904	133.700	9.824	-8191	255	
2976.147	1	1	0	0	0.11221	0.038062	0.090313	0.11134	0.056604	0.1766	0.34689	0.078446	0.17478	0.12356	0.068008	0.075364	0.13594	0.11946	0.26059	0.15055	-3.4958	-4.6021	-3.5938	-4.4812	-4.0938	-3.2687	-4.9229	-4.0417	-3.7687	-4.5375	-3.6625	-4.2646	-4.4125	-3.6396	-4.5417	-3.9542	147.828	210.679	77.412	316.227	14.988	211.128	324.577	301.907	13.517	272.305	285.356	92.729	43.393	30.455	97.848	206.751	0.00082947	0.00038759	8.481e-05	1415.6	3.4655e-06	5.2689e-06	1411.1	375.01	6.4278e-06	3.5994e-06	427.49	141.88	122.18	42.226	3.9107e-06	52.238	0.00031926	0.00031387	8.7792e-05	1392	3.4535e-06	3.4624e-06	1384.6	367.78	3.4716e-06	3.456e-06	413.61	136.38	118.42	41	3.4861e-06	50.332	17.015	-2.854	-10.749	-2.905	88.737	108.979	-2.887	1.555	232.099	131.652	1.123	6.068	6.275	10.518	172.032	10.245	-8191	255	
2976.243	1	1	0	0	0.16628	0.29513	0.25691	0.267	0.18959	0.30825	0.31479	0.13605	0.12043	0.12394	0.11254	0.080863	0.092708	0.076743	0.019355	0.31024	-3.55	-4.5458	-3.6854	-4.3021	-4.2583	-3.5146	-4.7667	-3.9375	-3.6229	-4.5333	-3.5521	-4.2125	-4.5062	-3.3688	-4.6312	-3.85	-4.916	64.710	41.104	267.503	327.533	32.173	294.933	68.239	170.219	324.237	95.106	260.634	312.402	297.787	297.519	8.143	0.00090277	0.00069063	0.00012285	1412.4	7.2588e-06	4.0575e-06	1410.6	374.31	6.8701e-06	3.9151e-06	428	141.61	123.14	42.171	2.8657e-06	52.29	0.00031913	0.00031288	8.7959e-05	1392.3	3.4648e-06	3.4698e-06	1386.8	367.79	3.4789e-06	3.4362e-06	413.49	136.56	118.89	41.022	3.4806e-06	50.479	28.230	29.525	337.416	-2.902	168.170	122.480	-2.951	1.600	184.285	18.697	1.156	6.056	6.387	10.428	165.783	9.879	-8191	255	
2976.364	1	1	0	0	0.050943	0.16904	0.29259	0.24407	0.10614	0.023604	0.13907	0.035946	0.15287	0.30409	0.14443	0.084854	0.17954	0.074577	0.15771	0.17485	-3.3937	-4.6958	-3.4125	-4.1375	-4.5083	-3.5521	-4.5708	-4.1104	-3.6312	-4.5542	-3.7167	-4.1896	-4.5312	-3.6896	-4.2458	-4.0167	106.169	228.307	194.433	-13.284	-12.151	24.814	278.961	76.633	-9.109	302.294	276.610	265.783	290.227	123.838	175.459	129.001	0.00091866	0.00061561	5.087e-05	1412.7	2.3098e-06	5.8395e-06	1407.7	375.36	2.5022e-06	2.7687e-06	427.18	141.81	122.25	42.26	1.2435e-06	52.369	0.00031701	0.0003155	8.8331e-05	1392.2	3.457e-06	3.4559e-06	1386	368.08	3.449e-06	3.4654e-06	413.92	136.53	118.5	41.02	3.4624e-06	50.466	20.552	132.917	38.626	-2.964	124.771	51.129	-2.889	1.590	98.275	54.696	1.235	5.847	6.472	10.630	16.780	9.805	-8191	255	
2976.435	1	1	0	0	0.18315	0.19852	0.26436	0.33117	0.16633	0.24132	0.28114	0.090779	0.14978	0.057334	0.26472	0.19374	0.039662	0.12143	0.13196	0.064199	-3.5542	-4.3271	-3.6292	-4.0563	-4.3375	-3.6771	-4.4396	-3.9708	-3.5854	-4.5188	-3.8125	-4.2146	-4.425	-3.5896	-4.3375	-4.2417	252.341	79.102	236.873	282.883	270.751	193.325	249.227	343.509	303.407	267.324	116.660	275.354	336.356	310.204	45.226	312.448	0.00062378	0.00059311	0.00019338	1414.4	3.7985e-06	2.0544e-06	1415.1	375.28	6.2394e-06	2.8017e-06	429.59	141.24	122.29	42.253	1.3366e-06	52.332	0.00031841	0.00031425	8.8198e-05	1394.7	3.4613e-06	3.4774e-06	1388.2	367.88	3.4809e-06	3.478e-06	415.12	136.35	118.48	41.019	3.4887e-06	50.474	17.958	190.132	-13.151	-2.787	106.548	281.875	-2.936	1.506	102.047	168.229	1.108	5.862	6.185	10.598	112.460	10.015	-8191	255	
2976.532	1	1	0	0	0.1906	0.093587	0.059149	0.048675	0.16255	0.099862	0.13101	0.087294	0.10502	0.13937	0.29311	0.13156	0.19401	0.11223	0.08135	0.062837	-3.3917	-4.5125	-3.8167	-4.0521	-4.4667	-3.1958	-4.5583	-4.4521	-3.6188	-4.625	-3.9562	-4.0458	-4.75	-3.3563	-4.2521	-4.2458	178.400	339.366	206.442	292.565	323.741	-9.469	220.981	341.479	76.102	250.677	-4.943	262.969	334.988	-1.656	286.948	267.636	0.00097107	0.00029839	0.00016267	1419.9	4.8475e-06	2.5183e-06	1417.8	375.12	4.4105e-06	4.8429e-06	427.88	141.16	122.39	42.503	3.2454e-06	52.525	0.00031798	0.00031619	8.8564e-05	1394.5	3.4469e-06	3.4626e-06	1389.2	368.14	3.4596e-06	3.4523e-06	414.45	136.39	119.06	41.161	3.4657e-06	50.473	40.574	81.292	298.634	-2.811	74.831	54.568	-2.870	1.562	126.956	308.597	0.925	6.178	6.399	10.732	8.551	9.820	-8191	255	
2976.628	1	1	0	0	0.087682	0.15184	0.046672	0.30718	0.073418	0.14971	0.16725	0.20667	0.15609	0.13916	0.25475	0.11182	0.2048	0.046552	0.13139	0.1121	-3.2292	-4.7292	-4.0375	-4.1312	-4.5167	-3.4667	-4.4812	-4.4062	-3.4875	-4.5667	-4.0396	-3.9875	-4.5479	-3.7625	-4.1708	-4.35	106.728	97.499	307.503	322.827	272.278	169.063	262.124	288.953	-0.338	164.329	133.671	39.091	207.871	143.087	182.156	155.835	0.0004911	0.00013381	0.0002281	1421.7	5.6848e-06	4.4491e-06	1412.5	375.76	4.833e-06	1.5841e-06	427.21	141.12	122.48	42.285	1.5902e-06	52.256	0.00031708	0.00031687	8.7452e-05	1397.1	3.4344e-06	3.47e-06	1389.1	367.96	3.4609e-06	3.4491e-06	413.74	136.31	118.78	40.986	3.4642e-06	50.42	17.303	187.759	31.408	-2.882	93.552	113.218	-2.830	1.629	61.500	141.367	1.301	5.999	6.402	10.382	187.406	10.007	-8191	255	
2976.748	1	1	0	0	0.22566	0.21259	0.093374	0.39189	0.022678	0.23541	0.0045072	0.22435	0.13261	0.023918	0.083509	0.4161	0.18108	0.17599	0.061794	0.20212	-3.0875	-4.5813	-4.0938	-3.9313	-4.5875	-3.6104	-4.1937	-4.5271	-3.5333	-4.5542	-4.2208	-3.7854	-4.7375	-3.525	-4.0542	-4.5771	157.384	6.196	299.139	315.442	18.524	312.575	50.573	286.771	44.048	262.006	266.037	309.271	158.698	332.371	115.645	301.702	0.00042952	0.00033796	0.00024118	1420	4.6679e-06	2.9155e-06	1417.6	374.67	2.3513e-06	3.9068e-06	428.58	141.51	123	42.182	2.0963e-06	52.354	0.00031807	0.00031484	8.7569e-05	1396.9	3.4692e-06	3.4675e-06	1390.2	368.35	3.4744e-06	3.477e-06	414.69	136.65	118.96	41.103	3.466e-06	50.546	22.522	59.364	68.377	-2.884	103.711	-9.369	-2.916	1.641	3.885	152.335	1.314	5.782	6.412	10.565	130.914	9.899	-8191	255	
2976.844	1	1	0	0	0.13771	0.18194	0.11994	0.48381	0.11973	0.11489	0.12183	0.21646	0.10244	0.098767	0.13428	0.11391	0.28894	0.030565	0.25717	0.10166	-2.8771	-4.6521	-4.2729	-3.5583	-4.875	-3.7583	-4.1937	-4.7417	-3.3604	-4.5625	-4.2604	-3.8417	-4.7937	-3.7625	-3.9479	-4.5604	105.033	40.401	104.579	309.366	305.172	309.661	-15.566	228.466	109.298	249.800	234.699	35.289	15.360	136.412	82.487	292.723	0.00073476	0.00056452	0.00019075	1420.3	7.4966e-06	4.0379e-06	1415.4	376.82	4.0226e-06	4.7006e-06	427.69	141.61	122.53	42.127	1.7007e-06	52.611	0.00031919	0.00031807	8.7067e-05	1396.7	3.4808e-06	3.4678e-06	1388.9	368.56	3.5003e-06	3.481e-06	414.04	136.53	118.89	41.019	3.4603e-06	50.532	29.798	71.077	-6.013	-2.680	113.350	330.447	-2.773	1.895	198.677	11.518	1.123	5.979	6.221	10.343	280.259	9.856	-8191	255	
2976.941	1	1	0	0	0.19183	0.06777	0.17605	0.14414	0.078676	0.15737	0.24201	0.11787	0.099978	0.13619	0.19392	0.028353	0.045325	0.12498	0.058923	0.2928	-3.0042	-4.3875	-4.125	-3.5729	-4.75	-3.8083	-3.8729	-5.0354	-3.4229	-4.3979	-4.3958	-3.6958	-4.7333	-3.9479	-3.7125	-4.6083	82.005	287.641	277.332	326.382	206.943	131.914	231.441	305.600	254.428	121.094	70.143	281.418	298.759	250.046	92.836	64.440	0.00052577	0.0010108	0.00012073	1418.1	3.3974e-06	6.16e-06	1416.9	376.05	4.9458e-06	4.2359e-06	427.23	141.3	122.96	42.208	4.6054e-06	52.425	0.0003199	0.00031854	8.7414e-05	1396.2	3.4804e-06	3.4726e-06	1390.1	368.43	3.4886e-06	3.4805e-06	413.43	136.3	118.87	41.013	3.4728e-06	50.573	35.233	88.044	342.115	-2.799	68.675	113.124	-2.766	1.648	126.739	71.900	1.177	6.114	6.237	10.380	165.571	9.798	-8191	255	
2977.037	1	1	0	0	0.070379	0.15661	0.14438	0.21744	0.07707	0.21894	0.20011	0.10489	0.24593	0.23694	0.084761	0.12987	0.17522	0.10437	0.15486	0.10448	-3.1833	-4.4083	-4.3	-3.6833	-4.5312	-3.9417	-4.0104	-4.7167	-3.4562	-4.1604	-4.6042	-3.625	-4.5	-3.8833	-3.8208	-4.6958	219.570	152.797	148.353	295.717	42.164	46.803	296.595	243.411	236.047	296.041	262.197	29.676	282.330	327.363	4.933	75.466	0.0006751	0.0003166	0.00023449	1418.5	3.8345e-06	4.2711e-06	1418.3	375.76	1.0258e-06	3.8736e-07	427.94	141.26	122.49	42.449	7.8556e-07	52.323	0.00032132	0.00031456	8.7889e-05	1395.1	3.4624e-06	3.4474e-06	1389.1	368.22	3.4556e-06	3.4371e-06	414.07	136.29	118.7	41.054	3.4642e-06	50.584	11.572	57.760	63.624	-2.882	112.138	60.221	-2.610	1.732	10.636	308.043	1.242	5.896	6.392	10.441	-13.067	10.071	-8191	255	
2977.133	1	1	0	0	0.29592	0.10493	0.1745	0.22583	0.044209	0.061286	0.18097	0.36156	0.16647	0.19001	0.271	0.12995	0.041665	0.072865	0.16433	0.13677	-2.9896	-4.0687	-4.1479	-3.5875	-4.6312	-3.8312	-3.6604	-4.7417	-3.4375	-4.1083	-4.6083	-3.5667	-4.7021	-4.0646	-3.7396	-4.6958	77.805	305.378	241.607	283.818	161.280	113.518	311.122	301.639	148.642	317.054	337.565	249.047	235.662	309.775	110.752	314.926	0.0010841	0.00057805	9.0898e-05	1418.9	1.2841e-06	6.7801e-06	1418.2	375.21	4.0146e-06	1.126e-06	428.33	142.13	122.78	42.12	4.7148e-07	52.387	0.0003185	0.00031439	8.6881e-05	1393.8	3.4567e-06	3.4503e-06	1389.5	367.8	3.4508e-06	3.4264e-06	413.68	136.27	118.81	40.864	3.446e-06	50.473	13.606	7.109	251.093	-3.047	91.451	163.898	-2.742	1.701	116.779	103.203	1.182	5.845	6.339	10.500	16.279	9.849	-8191	255	
2977.229	1	1	0	0	0.085101	0.20344	0.084215	0.41031	0.19449	0.042301	0.080894	0.19909	0.15457	0.12511	0.24514	0.11	0.081788	0.069779	0.20534	0.026704	-3.1917	-3.8625	-4.3708	-3.7021	-4.475	-3.8896	-3.8125	-4.8083	-3.3479	-4.075	-4.7438	-3.5583	-4.7	-4.0938	-3.5187	-4.7479	256.257	30.772	140.940	0.398	58.227	25.286	292.099	241.016	144.764	284.575	278.630	158.717	29.922	265.728	308.167	78.800	0.00046488	0.0003314	0.00016626	1423.3	1.8705e-06	1.1858e-06	1412.5	374.43	8.2543e-06	7.9259e-06	426.69	141.5	122.87	42.193	1.0859e-05	52.474	0.00031701	0.00031481	8.7343e-05	1395.1	3.4499e-06	3.4165e-06	1386.7	368.05	3.4355e-06	3.4373e-06	412.97	136.33	118.92	40.928	3.4646e-06	50.519	39.995	56.930	15.362	-2.907	122.530	101.538	-2.782	1.784	106.785	214.718	1.185	5.757	6.528	10.399	128.058	9.972	-8191	255	
2977.348	1	1	0	0	0.043751	0.26812	0.22056	0.25455	0.20121	0.20225	0.2314	0.33384	0.21649	0.1744	0.062745	0.086642	0.036505	0.18854	0.079275	0.1726	-3.2854	-3.9375	-4.525	-3.5333	-4.3187	-4.1479	-3.8146	-4.5104	-3.7708	-3.8521	-4.5458	-3.4813	-4.45	-4.2375	-3.6312	-4.7792	198.917	106.497	80.750	316.911	-0.833	98.718	341.048	261.598	58.374	37.903	268.845	11.808	271.634	154.037	163.157	251.560	0.00095228	0.00051455	0.00020719	1415.4	2.8678e-06	9.7325e-07	1413.9	375.39	8.2408e-06	5.9884e-06	427.23	141.36	122.89	42.278	5.5186e-06	52.379	0.0003187	0.00031283	8.7818e-05	1393.6	3.4605e-06	3.4582e-06	1388.4	368.43	3.4465e-06	3.4594e-06	413.46	136.08	118.8	41.033	3.4992e-06	50.568	29.704	60.444	11.185	-2.921	153.472	94.129	-2.866	1.729	90.351	77.986	1.370	5.894	6.370	10.652	38.057	10.002	-8191	255	
2977.444	1	1	0	0	0.09232	0.071866	0.27766	0.28655	0.19109	0.15077	0.33927	0.05575	0.082999	0.23841	0.081673	0.29055	0.26643	0.12	0.20623	0.20198	-3.4354	-3.9146	-4.5021	-3.6312	-4.2937	-4.2625	-3.6937	-4.8208	-3.7438	-3.625	-4.7312	-3.6146	-4.5146	-4.3063	-3.3083	-4.7604	223.966	101.253	281.056	8.859	100.668	151.306	283.793	339.629	106.806	157.345	298.858	326.794	268.177	342.674	84.002	249.756	0.00059855	0.00043477	9.3905e-05	1413.8	6.1228e-07	4.3314e-06	1415.7	377.63	2.177e-06	2.7665e-06	428.98	141.54	122.46	42.146	6.1039e-06	52.681	0.00031875	0.00031617	8.8607e-05	1392.7	3.4644e-06	3.4458e-06	1387.8	369.11	3.4559e-06	3.4599e-06	414.11	136.43	118.84	40.966	3.4939e-06	50.619	26.761	89.887	91.461	-3.015	72.777	110.994	-2.891	1.674	224.929	69.090	1.583	5.809	6.194	10.746	88.003	10.010	-8191	255	
2977.540	1	1	0	0	0.20505	0.17553	0.1877	0.28975	0.16867	0.080901	0.064934	0.32247	0.1446	0.187	0.20797	0.18063	0.16461	0.22085	0.10279	0.32007	-3.6417	-3.7687	-4.4958	-3.5958	-4.0729	-4.1896	-3.65	-4.6896	-3.9292	-3.6896	-4.7188	-3.4271	-4.3167	-4.7354	-3.5354	-4.6646	153.095	332.214	285.004	286.681	34.931	130.498	283.897	263.286	105.778	85.056	320.728	24.035	166.245	324.636	176.428	286.738	0.00076882	0.00071527	7.4898e-05	1413.9	2.8065e-06	8.7514e-06	1410.5	376.3	3.8993e-06	5.9258e-06	429.41	141.56	122.93	42.163	4.7846e-06	52.48	0.00031896	0.00031927	8.8385e-05	1392.1	3.4534e-06	3.4728e-06	1387.7	369.05	3.4893e-06	3.4874e-06	414.76	136.27	119.11	41.049	3.5291e-06	50.621	50.466	64.043	60.393	-2.707	183.089	87.968	-2.965	1.720	40.746	98.340	1.209	5.804	6.453	10.623	163.293	10.073	-8191	255	
2977.636	1	1	0	0	0.19111	0.10657	0.10872	0.31909	0.15554	0.048725	0.16956	0.15532	0.2504	0.28405	0.22541	0.17384	0.080913	0.18835	0.10429	0.1084	-3.7167	-3.7229	-4.5312	-3.8083	-3.9646	-4.4625	-3.6271	-4.7792	-4.0146	-3.4938	-4.8458	-3.5208	-4.1021	-4.5854	-3.1875	-4.7479	171.445	110.059	225.543	324.710	83.210	69.726	250.015	-11.170	121.389	206.776	195.424	122.579	279.505	204.416	96.870	322.790	0.00084414	0.00068856	9.0165e-05	1412.9	2.2837e-06	5.1439e-06	1415.8	375.13	5.6579e-06	9.9357e-07	427.33	141.12	122.89	42.383	2.1234e-06	52.887	0.0003193	0.00032084	8.8505e-05	1393.3	3.4792e-06	3.4955e-06	1387.3	368.04	3.4919e-06	3.5046e-06	413.84	136.18	119.22	41.072	3.5072e-06	50.721	16.726	130.239	210.087	-2.959	297.880	26.236	-2.930	1.905	149.161	335.472	1.605	5.680	6.570	10.460	125.296	10.079	-8191	255	
2977.733	1	1	0	0	0.23053	0.27472	0.12994	0.37327	0.01282	0.25361	0.2959	0.23013	0.21138	0.19028	0.14051	0.08592	0.10558	0.22124	0.14576	0.16943	-3.7833	-3.3125	-4.7167	-3.7542	-3.9229	-4.6333	-3.3833	-4.5563	-4.0104	-3.3312	-4.8667	-3.8229	-3.8792	-4.5979	-3.5021	-4.5563	87.028	69.754	-4.958	332.177	237.267	298.818	246.767	314.662	89.335	44.939	102.307	253.975	-11.586	202.298	125.783	338.259	0.00082372	0.00054948	0.00016715	1415.2	1.21e-05	5.6615e-06	1410.7	377.82	9.9716e-07	6.6582e-06	427.35	140.4	123.12	42.258	1.3015e-06	52.549	0.00032264	0.00032233	8.8676e-05	1390.7	3.4968e-06	3.476e-06	1384.3	368.8	3.4635e-06	3.4961e-06	413.79	136.09	119.02	41.055	3.4827e-06	50.61	22.378	27.680	27.085	-3.010	113.226	112.382	-2.910	1.726	228.726	121.980	1.421	5.853	6.374	10.780	-3.381	9.914	-8191	255	
2977.829	1	1	0	0	0.23054	0.12394	0.24869	0.40808	0.25858	0.076405	0.068778	0.29753	0.08416	0.02397	0.17941	0.10076	0.071503	0.098225	0.10055	0.086135	-3.9083	-3.4896	-4.5521	-3.8729	-3.7188	-4.5667	-3.7229	-4.375	-3.9771	-3.6229	-4.7458	-3.7208	-3.8958	-4.7896	-3.4958	-4.35	6.352	223.227	296.643	326.502	-3.224	267.146	290.065	297.905	88.792	299.530	314.232	62.781	297.878	-3.018	304.024	39.064	0.0010542	0.00064694	0.00028211	1415.5	8.6146e-06	8.8275e-06	1409.7	376.34	3.4264e-06	7.7142e-06	428.98	140.5	123.21	42.226	3.4817e-06	52.146	0.0003204	0.00031787	8.837e-05	1391.3	3.4862e-06	3.4881e-06	1384.1	368.29	3.4868e-06	3.5139e-06	414.64	136	119.04	41.004	3.4852e-06	50.537	40.665	94.012	56.169	-3.152	148.253	122.728	-3.062	1.801	34.357	156.899	1.314	5.838	6.479	10.800	123.894	9.968	-8191	255	
2977.925	1	1	0	0	0.10002	0.10293	0.1849	0.015315	0.14905	0.12207	0.29107	0.12172	0.056079	0.057183	0.21778	0.1926	0.27449	0.17083	0.22513	0.11633	-3.8812	-3.5604	-4.6292	-3.9708	-3.8542	-4.6021	-3.7208	-4.5208	-4.3	-3.2979	-4.925	-3.8812	-3.7146	-4.85	-3.1813	-4.2937	149.495	174.580	11.377	238.201	204.851	64.876	-8.739	-11.747	42.516	3.213	4.199	264.042	303.452	56.335	-5.525	23.083	0.00066305	0.00031508	0.00018273	1411.5	5.3154e-06	1.6117e-06	1411.8	375.33	6.4814e-06	5.3441e-06	429.26	141.22	122.89	42.302	4.5893e-06	52.348	0.00031989	0.00031846	8.7701e-05	1391.7	3.496e-06	3.4789e-06	1383.4	368.54	3.4478e-06	3.4762e-06	414.65	136.11	119.11	41.087	3.4841e-06	50.535	19.160	135.367	37.391	-2.897	76.343	288.175	-3.077	2.014	142.736	104.286	1.558	5.992	6.673	10.656	5.959	10.111	-8191	255	
2978.044	1	1	0	0	0.090318	0.23669	0.25661	0.30556	0.059584	0.14612	0.29211	0.077955	0.052799	0.30096	0.10133	0.1116	0.064454	0.15342	0.16199	0.19031	-4.3021	-3.475	-4.7208	-4.1479	-3.6813	-4.6646	-3.7417	-4.2146	-4.4208	-3.3937	-4.7063	-4.1479	-3.8521	-4.6583	-3.7521	-4.3187	60.563	-10.314	178.051	331.206	82.600	74.290	238.011	238.924	101.546	120.612	-15.242	259.179	313.540	261.010	132.149	185.751	0.0006149	0.00050994	0.00024666	1413.5	4.4906e-06	4.2512e-06	1409.4	375.29	4.2694e-06	2.0465e-06	429.05	141.23	122.83	42.221	7.9876e-07	52.171	0.00032044	0.00031854	8.725e-05	1389.8	3.4866e-06	3.4613e-06	1381.6	367.64	3.4702e-06	3.4471e-06	413.48	135.84	118.67	40.888	3.4468e-06	50.493	26.732	123.420	43.133	-2.989	122.666	42.413	-3.187	1.806	120.187	169.600	1.388	5.565	6.327	10.537	167.867	10.118	-8191	255	
2978.140	1	1	0	0	0.05138	0.063331	0.061476	0.052653	0.034411	0.21214	0.19484	0.089421	0.18595	0.074476	0.18532	0.15972	0.13052	0.054349	0.10003	0.33096	-4.1083	-3.6646	-4.2083	-4.1042	-3.7021	-4.6271	-3.975	-4.1271	-4.3208	-3.5896	-4.4583	-4.2875	-3.675	-4.4042	-3.7458	-3.9604	72.323	103.398	96.978	294.111	291.122	303.280	340.576	339.612	229.137	87.253	336.762	281.375	235.056	27.789	31.476	301.390	0.0006599	0.00058403	0.00012596	1410.6	7.4004e-06	7.6373e-06	1402.8	374.95	2.1644e-06	3.7804e-06	426.7	140.89	122.46	42.14	2.5303e-06	52.133	0.00031868	0.00031587	8.7296e-05	1386.6	3.4623e-06	3.4004e-06	1380.3	367.41	3.4423e-06	3.4479e-06	412.86	135.86	118.64	40.839	3.4437e-06	50.426	24.248	-15.057	36.125	-2.968	343.560	50.303	-3.139	1.914	329.230	136.012	1.391	5.788	6.162	10.599	57.519	10.145	-8191	255	
2978.236	1	1	0	0	0.35252	0.15237	0.30824	0.1057	0.048893	0.15217	0.12627	0.023852	0.049708	0.1526	0.15849	0.26174	0.12263	0.1754	0.24557	0.3255	-4.3042	-3.7021	-4.3146	-4.2479	-3.5354	-4.5542	-3.9562	-4.1062	-4.3729	-3.7167	-4.4417	-4.2667	-3.8729	-4.6229	-3.6188	-4.0979	123.454	325.534	29.510	-1.526	13.366	91.910	307.051	135.436	339.961	62.467	40.849	273.041	330.693	28.089	35.846	270.312	0.0009681	0.00055635	4.8069e-05	1409.6	5.4739e-06	4.2352e-06	1406.8	374.51	5.8581e-06	2.8589e-06	426.57	140.94	122.2	42.195	7.609e-06	52.2	0.00031771	0.00031217	8.7202e-05	1387.6	3.4424e-06	3.4038e-06	1381.8	367.37	3.4327e-06	3.4417e-06	413.19	135.97	118.53	40.994	3.4493e-06	50.512	22.810	72.602	124.555	-2.915	206.476	166.640	-2.892	1.723	117.683	159.514	1.411	5.813	6.253	10.743	147.623	10.160	-8191	255	
2978.309	1	1	0	0	0.16688	0.24155	0.22849	0.10048	0.10735	0.21884	0.29951	0.35728	0.086229	0.10607	0.098602	0.2782	0.20221	0.21224	0.21932	0.10333	-4.2604	-3.6083	-4.3667	-4.5396	-3.5979	-4.5437	-4.1312	-4.0625	-4.5646	-3.7104	-4.3958	-4.3042	-3.6458	-4.6583	-3.8292	-3.9542	332.764	64.092	215.545	306.789	170.022	24.161	310.551	334.605	195.694	71.402	319.896	263.598	342.504	298.568	58.033	67.730	0.00090937	0.00029967	6.1735e-05	1408.2	7.692e-06	6.5711e-06	1405.1	375.02	2.2591e-06	5.6522e-06	428.02	140.84	122.36	41.984	3.3684e-06	52.433	0.00031877	0.00031669	8.7707e-05	1387.7	3.4608e-06	3.4607e-06	1381.4	368.09	3.4604e-06	3.4831e-06	414.14	135.75	118.42	40.941	3.4868e-06	50.49	23.865	97.295	56.882	-2.787	76.638	96.358	-2.838	1.846	151.942	135.390	1.335	5.607	6.346	10.631	147.090	9.905	-8191	255	
2978.428	1	1	0	0	0.12992	0.037645	0.191	0.17794	0.07666	0.28337	0.17956	0.18687	0.25774	0.15741	0.095903	0.05043	0.12984	0.23379	0.22265	0.28141	-4.3375	-3.4437	-4.1042	-4.4229	-3.3937	-4.4479	-4.0333	-3.8229	-4.525	-3.6063	-4.1979	-4.4229	-3.7354	-4.5875	-3.9042	-3.8667	336.236	194.787	7.535	252.475	73.047	40.928	260.375	284.209	331.088	218.335	232.894	102.562	259.607	274.241	225.957	310.688	0.00038399	0.00090571	5.2944e-05	1407.4	3.5889e-06	3.0292e-06	1405.5	374.59	2.4833e-06	1.9249e-06	428.1	140.88	122.17	42.132	2.8877e-06	52.255	0.00031974	0.00031624	8.8009e-05	1386.6	3.4504e-06	3.4436e-06	1379.3	367.57	3.4246e-06	3.4545e-06	413.45	135.6	118.37	40.871	3.4643e-06	50.325	56.584	44.679	113.019	-2.895	64.185	156.769	-3.017	1.735	168.982	86.016	1.435	5.754	6.502	10.495	85.753	9.922	-8191	255	
2978.524	1	1	0	0	0.055886	0.10712	0.026307	0.10658	0.31833	0.16225	0.33245	0.054516	0.073357	0.1438	0.075138	0.089847	0.14933	0.086011	0.11265	0.30916	-4.2438	-3.4646	-4.2104	-4.5521	-3.2333	-4.5	-4.1125	-3.7979	-4.4375	-3.7458	-4.0792	-4.5583	-3.6042	-4.4875	-4.0021	-3.7021	33.411	58.248	162.767	295.901	151.923	39.980	248.577	93.558	235.089	57.557	210.430	324.504	10.934	233.426	252.073	339.530	0.00064246	0.00025513	0.0001942	1409.4	6.9588e-06	1.1676e-05	1402.7	376.27	1.2121e-06	1.6957e-06	427.22	141.19	122.7	42.172	7.1367e-06	52.337	0.00031535	0.00031543	8.7513e-05	1388.4	3.4443e-06	3.4747e-06	1378.6	368.19	3.4562e-06	3.4479e-06	413.68	135.93	118.65	40.975	3.4788e-06	50.408	16.364	175.664	25.490	-2.821	43.118	85.944	-2.837	1.730	239.824	229.153	1.302	5.677	6.399	10.871	162.581	9.972	-8191	255	
2978.621	1	1	0	0	0.22286	0.28235	0.27565	0.38592	0.13469	0.12449	0.058052	0.13781	0.082817	0.16205	0.047962	0.20598	0.24977	0.11948	0.094089	0.12832	-4.2396	-3.7042	-3.9938	-4.6062	-3.4542	-4.2583	-4.1396	-3.8271	-4.5188	-3.7562	-4.1917	-4.6229	-3.6312	-4.2667	-4.0833	-3.8771	59.938	193.948	58.892	304.376	165.830	227.013	29.594	232.990	76.635	132.942	312.004	317.670	14.602	307.703	333.710	320.051	0.00056203	0.00037231	0.00019429	1408	3.6307e-06	7.6274e-06	1407.3	375.2	3.5821e-06	2.6715e-06	428.76	140.34	123.01	42.071	3.3472e-06	52.321	0.00031637	0.00031704	8.8937e-05	1386.9	3.4526e-06	3.4745e-06	1381.4	367.41	3.4503e-06	3.4623e-06	414.19	135.85	118.69	41.033	3.4918e-06	50.526	8.867	-2.177	109.326	-2.994	67.538	147.926	-2.989	1.527	218.909	121.366	1.314	5.804	6.384	10.699	304.492	10.043	-8191	255	
2978.717	1	1	0	0	0.13988	0.21132	0.14686	0.12134	0.38907	0.21993	0.481	0.15465	0.065938	0.15045	0.29377	0.12328	0.45735	0.024326	0.20778	0.035328	-4.2021	-3.8583	-3.9375	-4.625	-3.6729	-4.3979	-4.2979	-3.8917	-4.5521	-3.8771	-4.1396	-4.5312	-3.6646	-4.3771	-4.2833	-3.875	274.422	250.939	338.831	327.160	163.157	300.745	272.858	310.587	124.556	125.361	280.740	276.149	295.118	72.706	128.246	158.100	0.00064132	0.00073212	0.00015229	1413.6	1.0411e-05	1.9807e-06	1414.8	375.12	4.0393e-06	1.3221e-06	428.06	141.66	122.68	42.286	6.0217e-06	52.345	0.00031746	0.00031725	8.8627e-05	1391.3	3.4827e-06	3.5027e-06	1384.8	367.98	3.4824e-06	3.4981e-06	414.46	136.22	118.56	41.044	3.5227e-06	50.481	31.680	80.278	10.572	-2.884	133.072	109.800	-3.235	1.703	333.379	210.998	1.457	5.568	6.382	10.686	87.717	9.897	-8191	255	
2978.837	1	1	0	0	0.11983	0.13957	0.017351	0.26763	0.054626	0.082441	0.15025	0.1327	0.18405	0.3225	0.11334	0.283	0.17639	0.16868	0.038004	0.12728	-4.2396	-3.9958	-3.8479	-4.4938	-3.3896	-4.3063	-4.5896	-3.6521	-4.7146	-3.9792	-3.8667	-4.7438	-3.5917	-4.3042	-4.4688	-3.5646	274.430	174.692	75.142	326.905	100.906	257.807	300.670	-3.073	336.041	106.284	19.195	298.688	159.579	260.663	47.543	297.658	0.0007922	0.0009193	0.00019059	1411.8	4.2965e-06	2.3306e-06	1406.7	374.59	6.0685e-06	2.5345e-06	429.29	141.65	122.23	42.129	1.9357e-06	52.316	0.00032133	0.00031929	8.8436e-05	1390.7	3.5009e-06	3.5005e-06	1381.9	368.08	3.5098e-06	3.501e-06	414.27	136.39	118.48	41.048	3.479e-06	50.385	21.619	51.595	-4.147	-2.764	77.357	135.622	-2.999	1.907	164.967	103.638	1.475	6.200	6.203	10.932	178.329	9.710	-8191	255	
2978.934	1	1	0	0	0.22642	0.11597	0.12664	0.2355	0.073334	0.057506	0.2071	0.29861	0.12537	0.11784	0.10717	0.29418	0.21987	0.29746	0.28205	0.26943	-4.2438	-3.7167	-3.5271	-4.6792	-3.6396	-4.1062	-4.6375	-3.6312	-4.6792	-4.0021	-3.7667	-4.6396	-3.5083	-4.0396	-4.4208	-3.7083	331.118	107.076	338.962	321.824	236.690	158.182	281.760	23.134	104.802	325.376	24.998	312.691	7.830	311.419	193.684	73.536	0.0007616	0.00066354	0.00022721	1414.2	2.2641e-06	5.1354e-06	1406.2	374.67	7.108e-06	4.3389e-06	429.37	141.11	122.58	42.134	7.2277e-06	52.186	0.00032109	0.00031884	8.8595e-05	1389.7	3.4879e-06	3.4804e-06	1381.6	367.9	3.4934e-06	3.506e-06	413.96	136.2	118.52	41.022	3.4847e-06	50.514	45.039	22.243	33.752	-2.790	137.900	25.223	-2.883	1.841	192.246	84.839	1.241	6.117	6.361	10.897	97.075	9.999	-8191	255	
#DATA ENDS
