BOXY.EXE: ISS Imagent and Oximeter Data Acquisition Program Version 0.80
Ascii Record File

#ACQ INFORMATION
2  Detector Channels 
16  External MUX Channels 
1  Auxiliary Channels 
5000  Waveform (CCF) Frequency (Hz)
1  Waveforms Skipped 
30  Waveforms Averaged 
1  Cycles Averaged 
16  Acquisitions per Waveform 
10.0806  Updata Rate (Hz) 

#FILE INFORMATION
TRUE -- External MUX Channel results are PARSED.
FALSE -- AC DC and Phase are NOT grouped.
TRUE -- Companion Program Settings File CREATED.
FALSE -- AC data not excluded
FALSE -- DC data not excluded
FALSE -- Phase data not excluded
FALSE -- Auxillary Chn. data not excluded
Tab delimiters

#CALIBRATION STATE
TRUE -- Waveform Calibration Values APPLIED.


#AUX CALIBRATION VALUES
Val Type	aux-1	

Term	1.0000e+00	
Factor	0.0000e+00	


#WF CALIBRATION VALUES
A = Detector Channel
Val Type	A-AC1	A-AC2	A-AC3	A-AC4	A-AC5	A-AC6	A-AC7	A-AC8	A-AC9	A-AC10	A-AC11	A-AC12	A-AC13	A-AC14	A-AC15	A-AC16	A-DC1	A-DC2	A-DC3	A-DC4	A-DC5	A-DC6	A-DC7	A-DC8	A-DC9	A-DC10	A-DC11	A-DC12	A-DC13	A-DC14	A-DC15	A-DC16	A-Ph1	A-Ph2	A-Ph3	A-Ph4	A-Ph5	A-Ph6	A-Ph7	A-Ph8	A-Ph9	A-Ph10	A-Ph11	A-Ph12	A-Ph13	A-Ph14	A-Ph15	A-Ph16	

Term	0.00000e+00	0.00000e+00	0.00000e+00	0.00000e+00	0.00000e+00	0.00000e+00	0.00000e+00	0.00000e+00	0.00000e+00	0.00000e+00	0.00000e+00	0.00000e+00	0.00000e+00	0.00000e+00	0.00000e+00	0.00000e+00	0.00000e+00	0.00000e+00	0.00000e+00	0.00000e+00	0.00000e+00	0.00000e+00	0.00000e+00	0.00000e+00	0.00000e+00	0.00000e+00	0.00000e+00	0.00000e+00	0.00000e+00	0.00000e+00	0.00000e+00	0.00000e+00	0.00000e+00	0.00000e+00	0.00000e+00	0.00000e+00	0.00000e+00	0.00000e+00	0.00000e+00	0.00000e+00	0.00000e+00	0.00000e+00	0.00000e+00	0.00000e+00	0.00000e+00	0.00000e+00	0.00000e+00	0.00000e+00	
Factor	1.00000e+00	1.00000e+00	1.00000e+00	1.00000e+00	1.00000e+00	1.00000e+00	1.00000e+00	1.00000e+00	1.00000e+00	1.00000e+00	1.00000e+00	1.00000e+00	1.00000e+00	1.00000e+00	1.00000e+00	1.00000e+00	1.00000e+00	1.00000e+00	1.00000e+00	1.00000e+00	1.00000e+00	1.00000e+00	1.00000e+00	1.00000e+00	1.00000e+00	1.00000e+00	1.00000e+00	1.00000e+00	1.00000e+00	1.00000e+00	1.00000e+00	1.00000e+00	X	X	X	X	X	X	X	X	X	X	X	X	X	X	X	X	

B = Detector Channel
Val Type	B-AC1	B-AC2	B-AC3	B-AC4	B-AC5	B-AC6	B-AC7	B-AC8	B-AC9	B-AC10	B-AC11	B-AC12	B-AC13	B-AC14	B-AC15	B-AC16	B-DC1	B-DC2	B-DC3	B-DC4	B-DC5	B-DC6	B-DC7	B-DC8	B-DC9	B-DC10	B-DC11	B-DC12	B-DC13	B-DC14	B-DC15	B-DC16	B-Ph1	B-Ph2	B-Ph3	B-Ph4	B-Ph5	B-Ph6	B-Ph7	B-Ph8	B-Ph9	B-Ph10	B-Ph11	B-Ph12	B-Ph13	B-Ph14	B-Ph15	B-Ph16	

Term	0.00000e+00	0.00000e+00	0.00000e+00	0.00000e+00	0.00000e+00	0.00000e+00	0.00000e+00	0.00000e+00	0.00000e+00	0.00000e+00	0.00000e+00	0.00000e+00	0.00000e+00	0.00000e+00	0.00000e+00	0.00000e+00	0.00000e+00	0.00000e+00	0.00000e+00	0.00000e+00	0.00000e+00	0.00000e+00	0.00000e+00	0.00000e+00	0.00000e+00	0.00000e+00	0.00000e+00	0.00000e+00	0.00000e+00	0.00000e+00	0.00000e+00	0.00000e+00	-1.27807e+02	-1.29926e+02	-1.26772e+02	-1.80573e+02	-6.73208e+01	-6.76919e+01	-1.56582e+02	-1.62015e+02	-7.01869e+01	-5.52664e+01	-1.75242e+02	-1.71164e+02	-1.79933e+02	-1.76303e+02	-6.70147e+01	-1.49553e+02	
Factor	2.02714e-05	1.91716e-04	4.79495e-05	1.62367e-01	1.27428e-06	1.92766e-06	1.87826e-01	5.79250e-02	1.30275e-06	1.88192e-06	1.08611e-01	3.63822e-02	2.76640e-02	1.06877e-02	1.58961e-06	1.52523e-02	1.17346e-05	1.91389e-05	5.38533e-06	8.14419e-02	1.92304e-07	2.14576e-07	8.87117e-02	2.92306e-02	1.94660e-07	2.13727e-07	5.29229e-02	1.78944e-02	1.41700e-02	5.42369e-03	2.02256e-07	7.50969e-03	X	X	X	X	X	X	X	X	X	X	X	X	X	X	X	X	



#DISTANCE SETTINGS
A = Detector Channel
A-1	A-2	A-3	A-4	A-5	A-6	A-7	A-8	A-9	A-10	A-11	A-12	A-13	A-14	A-15	A-16	

2.5000e+00	3.0000e+00	2.5000e+00	3.0000e+00	2.0000e+00	3.0000e+00	1.5000e+00	3.0000e+00	3.0000e+00	3.0000e+00	3.0000e+00	3.0000e+00	3.0000e+00	3.0000e+00	1.5000e+00	3.0000e+00	

B = Detector Channel
B-1	B-2	B-3	B-4	B-5	B-6	B-7	B-8	B-9	B-10	B-11	B-12	B-13	B-14	B-15	B-16	

1.0000e+01	1.0000e+01	1.0000e+01	1.4400e+00	1.0000e+01	1.0000e+01	1.5100e+00	1.9400e+00	1.0000e+01	1.0000e+01	1.9900e+00	2.4900e+00	2.4100e+00	2.9000e+00	1.0000e+01	2.9800e+00	




#DATA BEGINS
time	group	step	mark	flag	A-AC1	A-AC2	A-AC3	A-AC4	A-AC5	A-AC6	A-AC7	A-AC8	A-AC9	A-AC10	A-AC11	A-AC12	A-AC13	A-AC14	A-AC15	A-AC16	A-DC1	A-DC2	A-DC3	A-DC4	A-DC5	A-DC6	A-DC7	A-DC8	A-DC9	A-DC10	A-DC11	A-DC12	A-DC13	A-DC14	A-DC15	A-DC16	A-Ph1	A-Ph2	A-Ph3	A-Ph4	A-Ph5	A-Ph6	A-Ph7	A-Ph8	A-Ph9	A-Ph10	A-Ph11	A-Ph12	A-Ph13	A-Ph14	A-Ph15	A-Ph16	B-AC1	B-AC2	B-AC3	B-AC4	B-AC5	B-AC6	B-AC7	B-AC8	B-AC9	B-AC10	B-AC11	B-AC12	B-AC13	B-AC14	B-AC15	B-AC16	B-DC1	B-DC2	B-DC3	B-DC4	B-DC5	B-DC6	B-DC7	B-DC8	B-DC9	B-DC10	B-DC11	B-DC12	B-DC13	B-DC14	B-DC15	B-DC16	B-Ph1	B-Ph2	B-Ph3	B-Ph4	B-Ph5	B-Ph6	B-Ph7	B-Ph8	B-Ph9	B-Ph10	B-Ph11	B-Ph12	B-Ph13	B-Ph14	B-Ph15	B-Ph16	aux-1	digaux	

1581.177	1	1	0	768	0.062047	0.091465	0.081658	0.12135	0.13703	0.17443	0.022569	0.11194	0.010855	0.31314	0.2045	0.16759	0.10716	0.023229	0.08246	0.054512	-2.1813	-3.2646	-2.6396	-2.9437	-3.2583	-2.4979	-3.2479	-3.1292	-2.4	-3.3563	-2.7583	-2.7542	-3.1604	-2.3125	-3.1104	-3.0333	129.092	1.666	82.244	-42.760	111.611	-13.835	208.429	205.217	97.561	157.369	-64.029	276.920	-38.257	98.604	19.193	15.217	0.00020175	0.0005347	0.00018682	766.04	3.2552e-06	6.0077e-06	586.9	309.19	2.813e-06	4.9489e-06	281.57	127.39	137.2	71.921	6.8e-06	72.142	0.00087286	0.0010941	0.00032168	749.49	1.1473e-05	1.2631e-05	575.18	304.24	1.1763e-05	1.2633e-05	277.7	126.99	136.83	71.454	1.2486e-05	71.46	170.082	17.665	34.187	-64.366	48.608	68.112	-65.153	-58.624	62.746	105.573	-60.952	-57.077	-54.688	-49.886	66.054	-53.271	-8191	255	
1581.273	1	1	0	0	0.25337	0.095605	0.2722	0.058559	0.20296	0.13355	0.09115	0.16776	0.078811	0.19903	0.12237	0.19656	0.095919	0.073683	0.22062	0.061369	-1.9521	-3.1979	-2.7896	-2.8937	-3.1792	-2.6354	-3.0417	-3.1021	-2.4188	-3.3625	-2.7021	-2.8479	-3.5021	-2.5917	-2.8438	-3.2562	83.305	40.995	179.135	234.244	130.089	-39.108	-54.369	210.983	111.029	31.557	-8.698	146.455	272.723	-29.106	17.982	224.722	0.00021321	0.00055381	0.00012369	754.81	3.3841e-06	4.6386e-06	571.04	298.11	1.9071e-06	4.8932e-06	272.31	124.06	132.7	69.339	5.5261e-06	70.098	0.00086425	0.00113	0.0003174	737.74	1.1339e-05	1.2819e-05	560.46	295.21	1.219e-05	1.2817e-05	268.46	123.06	132.34	69.036	1.2628e-05	69.354	178.413	-9.662	-0.507	-64.359	125.086	71.152	-64.952	-58.654	87.612	90.939	-61.209	-56.539	-54.746	-49.740	97.283	-53.419	-8191	255	
1581.369	1	1	0	0	0.084587	0.23454	0.15325	0.33099	0.11713	0.1468	0.07869	0.2633	0.075458	0.1869	0.073363	0.31169	0.35107	0.11483	0.14659	0.096049	-2.1	-3.175	-2.8271	-2.6292	-3.2479	-2.5875	-3.0875	-3.1937	-2.3812	-3.1937	-2.9479	-2.6958	-3.275	-2.6875	-2.8792	-3.2583	197.859	260.989	-12.221	-67.542	-66.822	220.662	195.813	-35.848	15.121	90.848	243.638	3.974	235.058	175.928	-71.300	208.236	0.00017331	0.00072301	0.00013581	740.93	3.4499e-06	1.9364e-06	561.23	296.51	3.242e-06	8.4033e-06	272.01	122.73	132.61	68.874	2.2456e-06	69.872	0.00086665	0.0011138	0.00031919	725.62	1.1273e-05	1.2625e-05	551.28	291.71	1.1593e-05	1.2116e-05	267.47	122.15	131.67	68.53	1.1955e-05	69.313	178.332	11.238	13.977	-64.385	49.653	49.454	-65.192	-58.253	60.724	98.822	-60.668	-56.293	-54.632	-49.846	46.227	-53.125	-8191	255	
1581.465	1	1	0	0	0.1586	0.23926	0.30392	0.26252	0.11245	0.078882	0.35009	0.084154	0.17945	0.10216	0.24301	0.16234	0.05714	0.089359	0.24215	0.086223	-2.1417	-3.1583	-2.8125	-2.6292	-3.5479	-2.6417	-2.8271	-3.2917	-2.4854	-3.0979	-3.1479	-2.4062	-3.4021	-3	-2.8146	-3.5062	-11.825	-74.239	4.135	181.161	163.960	92.499	162.637	79.561	187.115	45.100	227.256	203.215	214.748	204.347	36.449	198.226	0.00018661	0.00042637	9.8557e-05	739.62	3.6685e-06	4.7052e-06	561.36	296.86	3.2359e-06	6.7179e-06	271.08	124.31	134.85	70.638	3.7658e-06	71.287	0.00085276	0.0010685	0.00030383	723.42	1.1231e-05	1.2113e-05	551.03	293.5	1.2233e-05	1.2113e-05	268.62	123.35	133.98	70.333	1.2825e-05	70.684	173.815	0.900	41.383	-64.178	78.012	88.635	-64.722	-58.587	86.153	80.626	-61.078	-56.721	-54.217	-49.605	106.450	-52.956	-8191	255	
1581.561	1	1	0	0	0.15854	0.085422	0.070615	0.15815	0.10221	0.13737	0.13067	0.21912	0.1254	0.0037006	0.15059	0.09943	0.14364	0.33824	0.10941	0.25393	-2.1437	-3.1271	-3.2458	-2.4354	-3.2938	-2.8833	-2.7271	-3.4354	-2.6583	-2.9854	-3.0729	-2.575	-3.3146	-2.9313	-2.3812	-3.5542	27.814	101.583	272.154	-25.500	283.708	180.812	-21.308	175.101	-52.697	78.258	164.339	-72.816	-71.578	-52.134	212.373	235.845	0.00022435	0.00048049	0.00011565	745.79	3.8132e-06	7.3724e-06	557.83	302.77	2.7653e-06	8.7303e-06	274.59	125.66	137.48	71.989	2.2558e-06	72.232	0.0008987	0.0011717	0.00033709	729.57	1.2096e-05	1.3233e-05	550.57	298.53	1.2693e-05	1.3329e-05	270.4	124.97	136.77	71.791	1.3536e-05	71.544	173.485	-3.429	13.588	-63.958	110.037	60.378	-65.094	-58.148	84.023	49.516	-60.920	-56.511	-54.598	-49.742	28.830	-53.022	-8191	255	
1581.657	1	1	0	0	0.14413	0.17072	0.12391	0.14981	0.13447	0.13674	0.14381	0.16615	0.20138	0.28421	0.039663	0.30158	0.018226	0.26268	0.065042	0.15422	-2.2375	-2.9562	-3.2375	-2.4479	-3.2083	-2.6833	-2.4917	-3.5729	-2.5292	-2.7417	-3.2812	-2.4292	-3.2938	-3.1167	-2.5667	-3.4479	223.869	91.352	25.282	-56.636	-15.417	157.937	125.706	-32.393	-7.939	79.331	252.146	107.650	283.477	220.825	132.755	-59.574	0.0002445	0.00053072	0.00011904	749.77	3.1821e-06	4.317e-06	561.06	305.7	2.5931e-06	6.099e-06	278.33	127.91	139.04	73.271	3.2245e-06	73.67	0.00093038	0.0012313	0.00034042	730.28	1.2241e-05	1.3704e-05	552.92	301.08	1.269e-05	1.3423e-05	274.66	126.95	138.5	73.007	1.3287e-05	73.025	176.292	20.585	2.937	-64.198	78.995	54.767	-65.155	-58.187	106.949	82.141	-61.109	-56.715	-54.606	-49.868	121.534	-53.125	-8191	255	
1581.776	1	1	0	0	0.18057	0.15228	0.14691	0.28919	0.14348	0.10545	0.074839	0.081644	0.22583	0.27295	0.14996	0.065658	0.27543	0.097927	0.026049	0.030703	-2.1833	-2.6354	-3.4708	-2.4375	-3.0687	-2.9938	-2.5417	-3.5021	-2.5771	-2.7354	-3.3792	-2.5354	-3.2146	-3.3	-2.3167	-3.25	-7.262	-16.637	70.642	-59.219	249.380	235.288	202.145	-3.659	277.722	72.464	222.276	-50.681	248.599	122.984	-46.448	118.259	0.00019539	0.00079897	0.00015369	758.8	2.0114e-06	6.5618e-06	576.3	311.73	1.8624e-06	5.0652e-06	280.74	129.24	139.49	73.125	3.8957e-06	73.079	0.00092645	0.0012339	0.00033866	741.36	1.2282e-05	1.3392e-05	567.56	306.11	1.2637e-05	1.3386e-05	278.89	128.96	138.96	72.536	1.3473e-05	72.363	189.174	22.282	-0.300	-63.934	53.472	51.991	-64.802	-58.325	83.980	73.242	-60.806	-56.822	-54.566	-49.897	44.881	-53.090	-8191	255	
1581.872	1	1	0	0	0.14193	0.16758	0.19799	0.090673	0.19213	0.11851	0.20281	0.16366	0.27533	0.12037	0.14181	0.25944	0.083619	0.27591	0.20884	0.17378	-2.375	-2.4771	-3.3063	-2.6583	-3.0062	-2.9542	-2.4625	-3.2729	-2.9313	-2.5375	-3.5229	-2.5104	-2.8604	-3.5354	-2.4313	-3.1521	19.343	0.693	123.621	246.166	15.635	161.147	136.860	156.322	121.247	158.514	108.896	235.927	72.518	195.604	275.309	195.052	0.00022629	0.00060162	0.00016235	759.52	3.0268e-06	8.1751e-06	575.18	304.69	3.4135e-06	5.6541e-06	277.83	124.95	135.61	70.908	5.1726e-06	70.651	0.00091615	0.001201	0.00033388	741.93	1.2106e-05	1.3158e-05	564.15	301.11	1.2273e-05	1.3337e-05	273.65	124.65	134.94	70.308	1.2973e-05	70.062	180.486	20.587	2.168	-64.140	53.848	72.530	-65.173	-58.127	68.337	58.488	-60.703	-56.847	-54.244	-50.020	87.963	-52.853	-8191	255	
1581.969	1	1	0	0	0.05497	0.3241	0.051848	0.029839	0.16742	0.11162	0.1816	0.41268	0.12755	0.17688	0.17622	0.12756	0.15697	0.20489	0.21041	0.27256	-2.5458	-2.3979	-3.3833	-2.6146	-2.6958	-3.1875	-2.4917	-3.2646	-2.8521	-2.2708	-3.5729	-2.6958	-2.8854	-3.3833	-2.4667	-3.2229	99.834	-52.893	211.079	92.887	158.565	47.600	138.052	224.577	65.040	256.062	200.037	256.242	262.619	237.223	43.754	258.252	0.00020971	0.0002629	0.00011749	751.61	2.59e-06	4.9034e-06	568.22	301.06	3.1348e-06	4.0163e-06	274.33	124.58	135.15	70.463	5.2378e-06	70.765	0.00088362	0.0011957	0.00032843	733.14	1.1985e-05	1.326e-05	555.98	296.76	1.2135e-05	1.2777e-05	270.87	124.31	134.38	70.162	1.2662e-05	70.215	181.552	58.355	28.350	-64.433	86.594	55.234	-64.943	-58.462	87.941	51.561	-60.986	-56.627	-54.466	-49.832	112.289	-52.800	-8191	255	
1582.065	1	1	0	0	0.089098	0.15604	0.11784	0.40852	0.19363	0.13184	0.075015	0.11711	0.24781	0.11627	0.13171	0.17692	0.22673	0.07675	0.22824	0.30594	-2.6104	-2.3729	-3.4146	-2.7188	-2.6958	-3.4	-2.5896	-3.1188	-3.075	-2.5125	-3.3563	-2.9104	-2.6708	-3.4604	-2.425	-3.125	-63.315	118.230	145.302	262.518	-60.025	44.435	232.896	211.579	-62.963	-74.609	97.068	203.299	223.438	158.997	227.094	232.610	0.00022544	0.0010937	0.00016343	743.1	4.4386e-06	4.3555e-06	561.1	297.28	3.1629e-06	4.9181e-06	271.58	122.24	132.16	68.816	1.5092e-06	69.595	0.00087699	0.0011502	0.00032941	726.29	1.1964e-05	1.3261e-05	548.63	293.04	1.2358e-05	1.293e-05	267.66	122.18	131.91	68.579	1.2408e-05	68.855	191.021	0.740	-8.640	-64.161	79.915	71.438	-65.290	-58.175	82.143	113.327	-60.555	-56.632	-54.458	-49.775	100.361	-52.958	-8191	255	
1582.161	1	1	0	0	0.11535	0.054939	0.22124	0.40286	0.1572	0.088071	0.16561	0.15099	0.18022	0.14924	0.15457	0.10282	0.21185	0.20575	0.0598	0.27157	-2.7896	-2.3375	-3.0458	-2.7917	-2.5042	-3.275	-2.6437	-2.8125	-3.1896	-2.3333	-3.3187	-2.9979	-2.4792	-3.2562	-2.5167	-2.9229	133.997	-38.538	-66.664	241.863	52.254	238.085	253.197	-17.526	165.813	206.239	17.361	220.263	-68.531	251.507	91.736	-28.998	0.00018637	0.00072658	0.00011312	736.55	4.6745e-06	4.0146e-06	548.77	292.62	2.571e-06	4.0641e-06	268.29	120.3	131.05	68.167	6.1149e-06	68.538	0.00085831	0.0011551	0.00032223	718.4	1.2073e-05	1.2874e-05	541.66	288.38	1.1989e-05	1.3064e-05	262.58	119.76	130.15	67.716	1.2178e-05	67.939	171.785	11.126	-0.649	-64.132	74.135	55.636	-65.223	-58.158	59.734	80.208	-60.750	-56.589	-54.581	-49.732	82.707	-52.931	-8191	255	
1582.257	1	1	0	0	0.15243	0.14165	0.17659	0.33927	0.062989	0.11022	0.1532	0.15066	0.14737	0.054093	0.28352	0.21032	0.064396	0.083403	0.17309	0.12318	-2.8063	-2.2938	-3.0646	-2.9854	-2.2333	-3.25	-2.7792	-2.7333	-3.4354	-2.4729	-3.1188	-3.1479	-2.4479	-3.4854	-2.6333	-2.6625	-67.738	228.334	222.378	-74.318	81.872	-4.397	239.991	261.497	57.532	153.459	197.106	243.743	-1.780	-58.643	138.769	-35.287	0.00019874	0.00040187	0.00012191	734.57	2.6397e-06	9.834e-06	556.06	301.02	3.0663e-06	8.1266e-06	274.35	125.45	136.98	72.221	2.2294e-06	72.622	0.00084105	0.0011286	0.00031574	717.18	1.1633e-05	1.2673e-05	545.27	296.21	1.1816e-05	1.2918e-05	269.6	124.29	136.45	71.915	1.2928e-05	72.231	179.685	-12.804	24.151	-64.043	65.146	98.808	-65.002	-58.408	77.121	60.281	-60.791	-56.867	-54.489	-49.815	66.758	-53.266	-8191	255	
1582.353	1	1	0	0	0.033446	0.11671	0.13501	0.14833	0.19752	0.17334	0.058044	0.49907	0.020539	0.035747	0.070132	0.095469	0.091498	0.33335	0.073357	0.19995	-2.8729	-2.3688	-2.9062	-3.1771	-2.4125	-3.3396	-2.8187	-2.8125	-3.2979	-2.5167	-2.9188	-3.25	-2.4292	-3.1479	-2.8479	-2.6937	-66.186	116.915	264.398	217.854	19.160	215.533	-17.614	217.245	252.862	150.209	-32.761	214.808	225.906	210.276	-41.824	162.047	0.00020126	0.0006598	0.00013039	754.88	3.6163e-06	3.5826e-06	571.45	311.18	3.6953e-06	7.4571e-06	283.86	130.1	141.86	74.857	1.5477e-06	75.361	0.00089481	0.0011832	0.00033202	739.25	1.2079e-05	1.3134e-05	563.2	307.05	1.23e-05	1.3651e-05	280.27	129.93	141.42	74.547	1.318e-05	74.743	181.033	-6.251	13.056	-63.976	73.273	39.727	-64.947	-58.302	86.751	100.149	-60.779	-56.633	-54.675	-49.880	12.327	-53.209	-8191	255	
1582.472	1	1	0	0	0.30862	0.18242	0.26543	0.35616	0.14909	0.1705	0.030237	0.23737	0.051649	0.073492	0.32277	0.091394	0.14648	0.24637	0.21126	0.16076	-3.1521	-2.5125	-2.8771	-3.2687	-2.425	-3.15	-2.8021	-2.4313	-3.2104	-2.6312	-2.7521	-3.2104	-2.3771	-3.2333	-2.8521	-2.5042	65.503	4.805	23.101	177.368	177.091	75.064	-26.691	-50.337	-2.203	125.577	229.086	109.894	-12.613	-57.341	-70.170	238.895	0.00021831	0.00074461	0.00020827	771.4	4.2235e-06	3.2008e-06	588.3	316.2	1.2539e-06	7.0014e-06	293.15	133.44	143.07	74.858	3.0178e-06	74.996	0.00091361	0.0012283	0.00034099	754.03	1.2219e-05	1.2866e-05	579.64	311.46	1.2001e-05	1.2927e-05	287.91	132.53	142.3	74.372	1.2575e-05	74.419	186.749	30.773	27.631	-64.020	100.606	61.345	-64.779	-58.286	-14.956	72.516	-60.859	-56.286	-54.325	-49.790	79.644	-53.013	-8191	255	
1582.568	1	1	0	0	0.15881	0.19032	0.25224	0.11739	0.26945	0.11702	0.11039	0.39486	0.082531	0.13317	0.11581	0.1495	0.18779	0.24612	0.11673	0.20332	-2.9896	-2.5604	-2.7396	-3.4062	-2.3875	-3.1583	-3.0812	-2.4771	-3.3458	-2.6542	-2.5062	-3.3333	-2.4458	-3.0938	-2.9646	-2.2667	38.413	135.286	242.470	20.556	137.520	169.960	258.571	-67.214	30.423	198.177	60.683	263.242	148.924	273.922	208.751	-22.938	0.00021644	0.00085068	0.00020456	771.53	2.7161e-06	6.4751e-06	587.96	311.94	3.4043e-06	5.9017e-06	287.33	129.73	141.03	74.184	2.3366e-06	74.55	0.00087983	0.0011358	0.00032024	754.38	1.1796e-05	1.2692e-05	579.42	307.88	1.173e-05	1.283e-05	282.51	129.53	140.41	73.705	1.2911e-05	73.822	182.665	5.379	15.478	-64.345	64.248	80.210	-65.121	-58.596	58.338	83.385	-60.567	-56.536	-54.735	-49.754	73.836	-53.089	-8191	255	
1582.664	1	1	0	0	0.32581	0.095039	0.23621	0.052954	0.17782	0.14739	0.08957	0.20596	0.25064	0.095407	0.21991	0.2112	0.16928	0.25861	0.078628	0.23857	-2.7521	-2.6271	-2.3417	-3.3667	-2.5	-3.0542	-3.075	-2.475	-3.1229	-2.9667	-2.4562	-3.2792	-2.5458	-2.7125	-3.0333	-2.4479	99.127	-28.284	184.378	157.581	224.934	47.983	53.691	282.014	-43.283	133.678	-64.441	77.186	201.395	-63.147	116.030	224.232	0.00021844	0.00051873	0.00020711	776.19	5.9842e-06	7.5396e-06	586.05	312.27	5.1421e-06	7.1298e-06	283.86	129.31	140.22	73.406	1.9055e-06	73.347	0.00089222	0.0012028	0.00033018	755.83	1.2222e-05	1.3156e-05	575.44	308.28	1.228e-05	1.3405e-05	280.04	128.55	139.53	73.041	1.2944e-05	72.566	174.015	-20.109	12.448	-64.208	80.890	65.289	-65.044	-58.363	58.160	95.621	-60.477	-57.035	-54.803	-49.871	84.663	-53.031	-8191	255	
1582.738	1	1	0	0	0.20604	0.20401	0.18779	0.2526	0.13123	0.12788	0.22738	0.11838	0.12664	0.28368	0.20034	0.10464	0.11911	0.069474	0.14901	0.33573	-2.8229	-2.9125	-2.4708	-3.3312	-2.6854	-2.6854	-3.3229	-2.5438	-3.225	-2.9771	-2.4083	-3.3167	-2.775	-2.9521	-3.2771	-2.5458	50.530	-38.060	258.312	269.968	131.717	-47.632	281.118	175.259	261.045	-39.563	134.730	192.712	215.237	8.952	30.219	270.860	0.00020791	0.00037939	0.00021339	769.35	2.2035e-06	8.2885e-06	581.82	310.2	9.1962e-07	2.5339e-06	282.2	127.8	140.89	74.231	1.5808e-06	74.199	0.00091642	0.0012399	0.00035183	751.67	1.2585e-05	1.3864e-05	569.31	305.91	1.2916e-05	1.3862e-05	278.31	128.02	140.09	73.754	1.3786e-05	73.643	178.284	38.772	-15.645	-63.679	82.173	74.029	-65.147	-58.423	35.914	72.741	-60.391	-56.674	-54.345	-49.652	58.757	-53.040	-8191	255	
1582.857	1	1	0	0	0.11334	0.11086	0.048122	0.1426	0.18762	0.24685	0.095896	0.17081	0.28553	0.18233	0.23353	0.32998	0.090825	0.26729	0.23884	0.2832	-2.5854	-3.1021	-2.4604	-3.2125	-2.6458	-2.4479	-3.3	-2.6688	-3.0292	-3.2042	-2.2583	-3.2062	-3	-2.5896	-3.3792	-2.5812	77.962	271.975	139.303	84.199	41.768	185.281	34.884	135.295	264.312	231.788	-72.196	-72.612	-16.412	-42.626	140.213	236.265	0.00020182	0.00081928	0.00012636	769.05	4.562e-06	6.6206e-06	581.59	314.61	3.3376e-06	6.4457e-06	288.6	131.91	144.66	76.869	5.8617e-06	76.249	0.00096251	0.0012688	0.00035848	752.02	1.3128e-05	1.4347e-05	571.43	310.75	1.3008e-05	1.4195e-05	284.17	131.82	144.11	76.56	1.3357e-05	75.61	183.811	-4.620	16.290	-63.945	75.490	48.397	-64.440	-58.079	89.572	76.197	-60.400	-56.290	-54.372	-49.749	86.373	-53.170	-8191	255	
1582.953	1	1	0	0	0.053847	0.11932	0.12852	0.12711	0.065321	0.034024	0.13278	0.29643	0.15827	0.059117	0.14689	0.12076	0.16667	0.15951	0.13904	0.275	-2.3479	-3.0875	-2.375	-3.175	-2.9604	-2.5125	-3.3542	-2.6437	-2.7958	-3.1562	-2.4396	-3.2167	-2.9125	-2.6333	-3.3937	-2.6688	63.075	-43.238	-2.908	259.425	22.046	149.142	84.387	-19.379	266.367	178.586	-19.468	-51.073	215.867	204.781	235.981	251.174	0.00018943	0.0010025	0.00019092	776.92	4.0963e-06	5.274e-06	585	316.05	3.0371e-06	6.5113e-06	285.08	130.82	144.25	76.406	4.7379e-06	75.704	0.00093151	0.0012101	0.00035586	758.44	1.2939e-05	1.4131e-05	574.1	311.8	1.3335e-05	1.4171e-05	282.29	130.73	143.67	75.981	1.3814e-05	74.784	173.166	5.696	-0.938	-63.629	73.418	62.095	-64.957	-57.908	35.449	70.700	-60.837	-56.577	-54.448	-49.564	71.821	-53.270	-8191	255	
1583.049	1	1	0	0	0.12098	0.20884	0.37673	0.21043	0.29355	0.2166	0.085795	0.34453	0.17504	0.18307	0.091564	0.3722	0.17176	0.13225	0.18305	0.094437	-2.2104	-3.1979	-2.1792	-3.2167	-2.7333	-2.3875	-3.2958	-2.6813	-2.5604	-3.3896	-2.5146	-3.275	-3.1937	-2.5812	-3.2833	-2.8937	167.043	29.134	128.967	263.450	197.445	30.878	-28.691	254.800	220.800	145.472	14.118	-65.658	227.770	240.817	-66.352	224.249	0.00018767	0.00055353	0.00018022	774.83	4.0768e-06	9.9732e-06	582.83	315.15	2.9935e-06	7.9673e-06	287.01	130.88	142.44	75.333	5.5246e-06	74.718	0.0009693	0.0012794	0.00035989	756.22	1.2875e-05	1.4255e-05	572.97	310.73	1.3076e-05	1.3647e-05	282.78	130.67	142.17	74.917	1.3273e-05	73.943	179.543	17.897	18.523	-63.880	81.051	65.992	-65.016	-58.454	106.161	78.557	-60.493	-56.811	-54.674	-49.663	90.782	-53.322	-8191	255	
1583.170	1	1	0	0	0.14309	0.19569	0.13463	0.083872	0.085188	0.34246	0.18842	0.15764	0.15308	0.30954	0.1854	0.16822	0.34732	0.1227	0.22622	0.12748	-2.1917	-3.3583	-2.4104	-3.1792	-3.0521	-2.4083	-3.1333	-2.7812	-2.6813	-3.3104	-2.4958	-3.0083	-3.2958	-2.4938	-3.2646	-2.9479	89.798	89.416	259.418	224.187	109.610	93.112	-60.842	25.290	0.909	147.834	-47.318	282.249	268.877	-48.938	248.818	283.478	0.00019517	0.00042435	0.00016827	772.81	1.3337e-06	6.105e-06	583.99	310.63	2.4984e-06	7.126e-06	282.36	128.52	140.71	73.567	2.4048e-06	72.974	0.00094842	0.0012384	0.00035586	754.42	1.2612e-05	1.4099e-05	572.12	307.35	1.3166e-05	1.3812e-05	278.55	128.02	139.48	73.218	1.3261e-05	72.21	171.223	14.697	21.019	-63.818	45.735	48.176	-65.033	-58.303	63.510	83.310	-60.628	-56.700	-54.417	-49.756	66.477	-53.197	-8191	255	
1583.266	1	1	0	0	0.1992	0.26954	0.21745	0.18135	0.23048	0.15307	0.028999	0.29312	0.164	0.16696	0.067425	0.10253	0.17233	0.21259	0.37185	0.069483	-2.0563	-3.3208	-2.5938	-3.0146	-3.2313	-2.3521	-3.2229	-2.9917	-2.4375	-3.3	-2.5167	-2.6708	-3.2375	-2.4625	-3.0875	-3.1021	266.636	278.805	138.453	209.884	245.968	221.364	-50.521	-60.420	1.284	156.202	206.012	273.379	-35.316	190.117	2.427	-74.564	0.00022406	0.00083352	0.0001737	763.89	2.0825e-06	5.9525e-06	573.35	307.45	2.6627e-06	4.7851e-06	276.94	125.01	137.26	72.01	3.578e-06	71.23	0.00094224	0.0012239	0.00034671	749.03	1.2716e-05	1.4074e-05	563.21	302.75	1.3336e-05	1.3763e-05	272.52	124.41	136.59	71.567	1.3492e-05	70.725	179.586	13.620	33.510	-64.182	71.582	85.552	-64.947	-58.302	56.008	60.626	-60.543	-56.147	-54.387	-49.406	80.783	-52.777	-8191	255	
1583.337	1	1	0	0	0.083326	0.11709	0.15989	0.15206	0.13264	0.29823	0.19403	0.21699	0.15487	0.09969	0.066404	0.090291	0.20992	0.42537	0.22137	0.052323	-1.8979	-3.1292	-2.4667	-2.5833	-3.075	-2.4917	-2.9375	-3.1417	-2.2104	-3.3604	-2.825	-2.5062	-3.3042	-2.5771	-2.925	-3.1312	241.109	43.483	197.346	189.980	-75.490	11.323	176.291	164.443	213.953	-26.796	186.456	-48.478	-47.692	-21.174	154.322	259.485	0.00019398	0.00046416	0.00014778	761.21	3.4586e-06	2.8662e-06	570.11	309.24	1.7213e-07	2.928e-06	280.31	128.65	141.71	75.098	1.1976e-06	74.283	0.00094131	0.0012627	0.00035798	746.09	1.3213e-05	1.4694e-05	561.64	305.41	1.3429e-05	1.4437e-05	277.08	128.12	141.12	74.686	1.4091e-05	73.586	176.086	15.175	23.111	-64.012	96.504	122.782	-64.517	-58.191	40.877	102.036	-60.314	-56.232	-54.093	-49.348	83.704	-52.797	-8191	255	
1583.458	1	1	0	0	0.14252	0.13058	0.091807	0.087577	0.1997	0.061748	0.20134	0.32716	0.26248	0.13965	0.20702	0.31329	0.087913	0.31407	0.10437	0.13613	-1.975	-3.2313	-2.6042	-2.5812	-3.3583	-2.6292	-2.975	-3.2958	-2.125	-3.225	-3.0271	-2.4958	-3.3	-2.4875	-2.85	-3.3292	219.180	206.176	171.540	154.827	-70.268	0.779	225.733	190.969	263.865	250.103	-19.582	276.000	196.419	201.729	-25.851	238.079	0.00020843	0.00062503	0.00016625	772.86	2.6341e-06	7.6188e-06	577.4	313.36	4.8851e-06	2.5999e-06	282.47	129.63	142.26	75.452	2.961e-06	74.175	0.00097573	0.001303	0.00036864	756.66	1.3715e-05	1.5279e-05	568.72	309.84	1.4213e-05	1.4879e-05	279.97	129.21	142.33	75.156	1.4455e-05	73.678	168.626	26.228	18.574	-63.782	46.606	70.911	-65.060	-58.104	73.798	77.626	-60.523	-56.324	-54.298	-49.652	36.366	-53.031	-8191	255	
1583.554	1	1	0	0	0.036996	0.051037	0.109	0.047047	0.10273	0.13206	0.22897	0.17964	0.11193	0.023496	0.12505	0.29969	0.12831	0.32565	0.10791	0.11533	-2.1021	-3.1292	-2.8479	-2.4604	-3.25	-2.725	-2.8333	-3.3021	-2.5875	-3.1854	-2.9958	-2.4542	-3.3375	-2.8521	-2.7479	-3.4229	-26.571	-20.799	101.108	165.396	133.859	103.993	-21.616	254.457	57.801	71.070	110.742	-37.113	19.225	278.503	86.838	168.803	0.00023571	0.00058102	0.00024079	768.94	2.4082e-06	6.8208e-06	572.19	309.82	3.7623e-06	4.9125e-06	276.5	126.61	140.08	74.322	1.3556e-06	72.828	0.0010077	0.0013201	0.00037323	754.32	1.3787e-05	1.5122e-05	563.54	305.55	1.4144e-05	1.4915e-05	274.08	126.38	139.73	73.683	1.4129e-05	72.107	189.291	-9.278	-7.482	-63.687	66.355	72.493	-64.375	-57.665	87.924	123.238	-60.379	-56.094	-53.916	-49.362	93.245	-52.836	-8191	255	
1583.649	1	1	0	0	0.15106	0.20245	0.080577	0.19466	0.11252	0.15955	0.12736	0.27966	0.062703	0.22466	0.12671	0.031419	0.27534	0.12756	0.035269	0.2005	-2.1021	-3.0167	-3.1229	-2.4146	-3.2354	-2.8396	-2.7938	-3.4688	-2.4896	-2.9188	-3.4	-2.5208	-3.2625	-3.0083	-2.4146	-3.4271	70.616	149.014	1.560	253.067	-38.747	-19.559	246.407	280.930	79.198	122.252	161.374	159.563	95.506	224.795	194.620	-52.986	0.00022003	0.0008512	0.00020803	766.88	5.0745e-06	4.115e-06	568.46	311.19	2.6248e-06	5.7176e-06	279.25	127.48	142.02	74.734	4.7917e-06	73.503	0.00097735	0.0012803	0.00036382	747.83	1.3307e-05	1.4695e-05	561.28	306.06	1.4119e-05	1.5127e-05	275.68	127.11	140.94	74.352	1.5111e-05	73.022	174.690	-0.586	16.000	-63.566	81.109	60.340	-64.653	-57.769	13.923	69.184	-59.935	-55.802	-54.168	-49.300	68.548	-52.517	-8191	255	
1583.769	1	1	0	0	0.13839	0.12404	0.15661	0.32805	0.14293	0.21289	0.14444	0.31907	0.072521	0.094233	0.18827	0.38271	0.085395	0.051666	0.13665	0.30007	-1.9813	-2.8104	-3.1958	-2.3917	-3.1833	-2.9062	-2.5521	-3.2667	-2.4688	-2.8271	-3.05	-2.4708	-3.2625	-3.3021	-2.2729	-3.2188	-25.694	-3.958	199.944	252.756	202.817	78.470	201.089	229.777	-51.946	55.598	26.976	271.853	266.745	254.942	208.232	19.302	0.00026382	0.00069061	9.3527e-05	770.39	3.0774e-06	3.3081e-06	572.14	310.96	4.6423e-06	1.9712e-06	280.35	127.04	140.25	73.302	4.2052e-06	72.566	0.0010046	0.0013642	0.00037634	750.5	1.3484e-05	1.4974e-05	565.12	306.94	1.4391e-05	1.5713e-05	275.02	126.77	139.5	73.009	1.5089e-05	71.821	172.639	-10.789	1.917	-63.420	64.935	68.990	-64.531	-57.827	34.899	85.359	-60.288	-56.343	-54.283	-49.520	64.495	-52.754	-8191	255	
1583.865	1	1	0	0	0.018229	0.25684	0.12432	0.42781	0.19023	0.077203	0.14661	0.17585	0.12169	0.1802	0.042318	0.21568	0.13874	0.25171	0.20055	0.074221	-2.1833	-2.6417	-3.3354	-2.5438	-3.25	-3.025	-2.4813	-3.4729	-2.5979	-2.6583	-3.2354	-2.4604	-2.9896	-3.3104	-2.4313	-3.4917	-70.930	250.130	28.174	256.438	150.958	200.222	258.465	242.318	84.916	-56.056	258.755	185.821	233.298	231.305	126.302	224.419	0.00021052	0.00064181	0.00016216	765.03	4.0363e-06	7.0351e-06	573.56	308.58	4.1871e-06	3.7258e-06	275.27	125.07	137.8	72.099	2.9891e-06	70.73	0.0010234	0.0013666	0.00038155	747.21	1.3523e-05	1.4804e-05	563.65	303.38	1.4308e-05	1.5064e-05	271.82	124.2	137.01	71.6	1.4566e-05	70.014	171.044	13.868	23.719	-63.734	101.394	55.193	-64.560	-57.738	41.095	52.481	-60.322	-56.361	-53.972	-49.423	53.660	-52.610	-8191	255	
1583.961	1	1	0	0	0.19224	0.11192	0.1498	0.028762	0.20673	0.30203	0.12094	0.11268	0.11994	0.07633	0.15492	0.093234	0.24091	0.30112	0.15923	0.21598	-2.3021	-2.65	-3.2708	-2.6312	-3.0479	-3.1021	-2.5938	-3.5125	-2.8396	-2.5	-3.4625	-2.4417	-2.9292	-3.4062	-2.4	-3.2146	228.969	281.624	174.297	134.600	171.689	116.145	82.175	-35.321	-3.245	122.569	237.131	242.182	273.817	236.318	22.717	-28.940	0.0001758	0.00054212	0.00016629	754.5	4.1302e-06	9.0916e-06	561.28	300.09	4.3683e-06	6.4532e-06	268.44	121.65	135.05	70.926	5.7143e-06	69.281	0.0010107	0.0013725	0.00038433	737.17	1.3948e-05	1.5093e-05	551.08	297.5	1.4125e-05	1.5348e-05	265.7	121.23	134.61	70.305	1.4874e-05	68.422	184.789	11.895	13.294	-63.386	69.479	43.953	-64.426	-57.547	42.013	78.065	-59.887	-56.393	-53.948	-49.036	88.853	-52.497	-8191	255	
1584.033	1	1	0	0	0.37556	0.29797	0.13468	0.064439	0.078115	0.034703	0.17087	0.24185	0.27308	0.19649	0.15506	0.062539	0.29385	0.11829	0.3537	0.17803	-2.6229	-2.3083	-3.3375	-2.6375	-2.8375	-3.2583	-2.3292	-3.2271	-2.9813	-2.3667	-3.3354	-2.7208	-2.6937	-3.25	-2.4021	-3.3063	84.559	230.927	254.967	78.423	222.387	135.705	204.019	-55.714	7.498	2.312	74.687	48.738	258.443	270.189	156.275	210.377	0.00017207	0.00071085	0.00019121	744.56	3.2173e-06	6.9002e-06	557.81	300.49	4.1501e-06	4.7752e-06	267.98	120.99	133.63	70.02	4.5307e-06	68.798	0.0010248	0.0014071	0.0003912	730.61	1.3964e-05	1.5127e-05	548.07	296.05	1.3949e-05	1.496e-05	265.04	120.91	133.63	69.689	1.5369e-05	68.123	179.852	10.061	30.143	-63.424	65.751	71.627	-64.522	-57.777	65.226	112.254	-60.459	-56.503	-54.400	-49.771	77.382	-53.002	-8191	255	
1584.154	1	1	0	0	0.17725	0.1405	0.13085	0.18968	0.16604	0.29448	0.053968	0.1709	0.055964	0.070773	0.042047	0.14468	0.20708	0.13943	0.27353	0.097672	-2.5417	-2.275	-3.2146	-2.9021	-2.6708	-3.2229	-2.5312	-3.0146	-3.0438	-2.3229	-3.2229	-2.7333	-2.7812	-3.5875	-2.3396	-3.0542	0.910	91.012	73.337	-25.214	111.953	18.294	93.104	242.013	284.250	205.131	276.691	181.407	-29.756	221.565	127.351	9.212	0.0002047	0.00022372	0.00017921	751.72	2.8702e-06	6.1151e-06	555.48	302.13	2.4099e-06	4.9792e-06	270.45	122.8	135.9	71.203	1.3671e-06	69.768	0.0010538	0.0014603	0.00040133	734.15	1.4923e-05	1.5766e-05	547.59	297.9	1.5225e-05	1.6526e-05	267.43	122.31	135.58	70.928	1.5315e-05	69.323	169.812	64.492	4.056	-63.933	52.639	65.105	-64.825	-57.749	50.192	80.171	-60.429	-56.400	-54.235	-49.310	69.829	-52.739	-8191	255	
1584.250	1	1	0	0	0.14149	0.25105	0.15035	0.17776	0.09171	0.18836	0.089041	0.21746	0.064059	0.21894	0.27781	0.030839	0.26018	0.29955	0.27261	0.10678	-2.7271	-2.3792	-3.0333	-2.7812	-2.4688	-3.2875	-2.4958	-2.9958	-2.9604	-2.5458	-3.2188	-2.8396	-2.5104	-3.3521	-2.5604	-2.7812	244.253	125.110	193.454	-39.715	117.036	170.562	193.774	-31.469	12.889	-32.590	228.872	-1.491	242.128	-49.413	206.853	100.225	0.00022013	0.0007165	0.00016613	751.41	5.1206e-06	7.6691e-06	558.39	300.13	2.6164e-06	7.2441e-06	267.53	120.72	133.38	69.496	3.3093e-06	67.505	0.0010139	0.001393	0.00038801	736.34	1.4257e-05	1.5106e-05	550.07	296.27	1.4619e-05	1.6022e-05	264.22	120.11	133.08	69.318	1.5549e-05	67.078	179.041	22.763	15.542	-63.942	68.032	76.046	-64.426	-57.930	65.275	80.051	-60.496	-56.693	-54.136	-49.461	102.181	-52.662	-8191	255	
1584.346	1	1	0	0	0.18449	0.098072	0.065543	0.1793	0.19795	0.13583	0.42567	0.25157	0.14312	0.087156	0.24082	0.1885	0.066071	0.22667	0.18928	0.1851	-2.7708	-2.4	-2.9854	-2.95	-2.5292	-3.3125	-2.5812	-2.6667	-3.2229	-2.3479	-3.0458	-3.1917	-2.2708	-3.3667	-2.4562	-2.7458	222.445	-24.975	214.092	-62.288	191.197	-34.658	12.000	277.866	-47.480	133.842	258.524	280.684	24.269	-75.937	-35.464	275.916	0.00019556	0.00057075	0.00018002	747.59	3.7575e-06	6.8498e-06	553.58	297.26	1.674e-06	4.7105e-06	265.79	119.72	133.23	69.617	7.3904e-06	67.943	0.0010549	0.0014751	0.00041538	730.52	1.5357e-05	1.652e-05	546.07	294.03	1.5941e-05	1.7426e-05	264.47	119.82	133.4	69.338	1.6138e-05	67.38	164.747	8.765	32.069	-64.039	115.452	71.563	-64.742	-58.143	109.071	119.208	-60.711	-56.356	-54.285	-49.571	77.056	-52.671	-8191	255	
1584.442	1	1	0	0	0.0097504	0.098402	0.11134	0.065394	0.20348	0.20527	0.064059	0.10606	0.13765	0.17477	0.32302	0.05086	0.30505	0.16284	0.093409	0.16516	-2.8979	-2.4604	-2.8417	-3.1646	-2.2667	-3.1479	-2.7188	-2.5771	-3.1521	-2.3917	-2.9167	-3.0896	-2.2917	-3.2313	-2.7792	-2.6708	95.984	272.447	269.708	243.308	0.103	-57.893	188.953	244.325	-24.832	256.639	121.940	165.003	222.961	-75.514	211.154	247.767	0.00021667	0.00040681	0.00014548	745.05	3.861e-06	4.1245e-06	551.34	296.51	4.0032e-06	4.6334e-06	265.07	119.92	132.6	68.988	6.911e-06	67.726	0.0010754	0.0014858	0.00040575	729.12	1.4783e-05	1.6338e-05	543.81	293.01	1.5398e-05	1.6469e-05	262.96	119.4	132.06	68.527	1.5365e-05	66.928	189.750	18.033	36.917	-64.057	73.477	58.796	-64.831	-57.913	76.306	137.015	-60.350	-56.208	-53.967	-49.339	88.095	-52.928	-8191	255	
1584.538	1	1	0	0	0.14711	0.05165	0.15646	0.24203	0.13772	0.15586	0.12578	0.19038	0.09629	0.24268	0.31439	0.16109	0.22442	0.10386	0.16684	0.15439	-3.05	-2.6813	-2.9292	-3.1458	-2.1104	-3.1625	-3.0292	-2.6021	-3.4521	-2.5729	-2.825	-3.3146	-2.3125	-3.3021	-2.9958	-2.5771	78.566	136.711	-37.513	200.155	101.164	197.674	249.224	140.508	85.935	88.455	-49.972	258.270	-51.707	24.255	182.004	107.671	0.00018019	0.00052677	0.00011193	744.1	3.6381e-06	4.0169e-06	553.82	297.24	2.5637e-06	6.8487e-06	265.07	117.5	131.05	67.527	3.163e-06	65.911	0.0010175	0.0014179	0.00039811	727.98	1.4279e-05	1.5109e-05	545.76	292.37	1.3931e-05	1.5022e-05	261.85	117.64	130.39	67.2	1.4837e-05	65.382	166.053	-13.991	29.465	-63.862	93.450	101.322	-65.016	-58.067	64.694	71.396	-60.122	-56.746	-54.412	-49.237	77.048	-53.064	-8191	255	
1584.635	1	1	0	0	0.10762	0.17297	0.18859	0.1623	0.24606	0.14291	0.024695	0.11774	0.055676	0.073341	0.033738	0.18593	0.30752	0.15652	0.1724	0.2473	-2.8771	-2.4354	-2.6	-3.325	-2.3688	-3.1271	-3	-2.375	-3.2396	-2.6937	-2.7542	-3.2271	-2.4437	-2.9667	-3.0521	-2.3792	64.561	1.668	39.121	263.937	241.414	17.546	132.053	99.223	157.491	25.347	272.266	203.634	204.751	140.414	71.223	196.174	0.00016206	0.00050255	0.00022536	740.48	2.7571e-06	6.5866e-06	546.82	291.73	3.8915e-06	6.9453e-06	261.02	114.95	128	65.707	9.3443e-07	64.652	0.00097006	0.0013721	0.00038746	722.06	1.4032e-05	1.5148e-05	537.76	287.72	1.438e-05	1.557e-05	256.61	115.12	127.58	65.705	1.5325e-05	64.088	166.680	11.397	-6.588	-63.993	88.098	72.603	-65.140	-58.065	107.528	65.783	-60.274	-56.501	-54.204	-49.465	187.096	-52.627	-8191	255	
1584.731	1	1	0	0	0.15225	0.1793	0.14242	0.19781	0.074197	0.19674	0.10369	0.3205	0.23992	0.29744	0.021856	0.34889	0.13827	0.088271	0.09284	0.28885	-2.8063	-2.6771	-2.4979	-3.3937	-2.3312	-2.9667	-3.0875	-2.4625	-3.3917	-2.725	-2.5417	-3.3417	-2.4062	-2.9271	-3.2708	-2.45	27.659	16.899	-33.953	152.660	256.449	-0.055	56.609	218.493	-6.088	134.167	130.665	-35.656	-43.546	-72.319	-45.768	216.530	0.00020526	0.00035293	0.00018287	734.86	1.7965e-06	5.4317e-06	541.29	288.79	2.1908e-06	8.6642e-06	260.01	116.65	129.36	67.708	3.8116e-06	66.528	0.0010267	0.0014756	0.00042075	717.26	1.4818e-05	1.6093e-05	533.27	285.6	1.4793e-05	1.5656e-05	256.67	116.31	129.28	67.431	1.5178e-05	65.988	170.553	-36.809	0.389	-64.130	23.289	63.420	-64.849	-58.045	43.608	89.924	-60.540	-56.275	-54.464	-49.382	93.819	-52.850	-8191	255	
1584.850	1	1	0	0	0.081565	0.12892	0.1522	0.36217	0.14354	0.24107	0.09309	0.21239	0.1773	0.079572	0.23733	0.1372	0.22653	0.033985	0.16384	0.1868	-2.875	-2.9167	-2.2708	-3.3625	-2.5333	-2.7792	-3.4146	-2.3729	-2.9979	-2.9625	-2.75	-3.2208	-2.7729	-2.8354	-3.3896	-2.6437	48.616	151.656	-21.701	204.189	-4.021	189.507	82.220	195.966	114.073	38.355	-46.101	-47.398	220.417	-1.962	163.642	227.809	0.00014799	0.00057186	0.00016136	742.23	4.3206e-06	4.6164e-06	552.3	300.93	2.9265e-06	3.0953e-06	271.32	123.05	137.53	72.108	3.2294e-06	69.934	0.0010278	0.0014797	0.00041402	726.25	1.5396e-05	1.6958e-05	542.86	296.95	1.5528e-05	1.6364e-05	267.6	122.65	136.87	71.836	1.5835e-05	69.464	179.710	-5.473	-10.648	-63.707	79.148	57.642	-64.745	-58.598	39.148	87.572	-60.579	-56.433	-53.972	-49.189	51.370	-52.523	-8191	255	
1584.946	1	1	0	0	0.18616	0.27203	0.18057	0.099513	0.17338	0.33804	0.071256	0.25493	0.053223	0.1326	0.063865	0.14263	0.12254	0.14385	0.10631	0.12291	-2.6188	-3.0438	-2.3979	-3.3625	-2.7438	-2.575	-3.3375	-2.3854	-2.9396	-3.0167	-2.3583	-3.2458	-2.7896	-2.6458	-3.4104	-2.4542	188.105	181.948	232.137	166.174	27.802	94.389	10.902	231.305	-20.872	108.975	-34.722	119.371	243.567	-11.412	209.796	54.866	0.00019776	0.00050252	0.00012547	757.51	3.2579e-06	5.4085e-06	557.18	302.83	2.7869e-06	2.0089e-06	269.97	122.2	137.24	72.155	3.1324e-06	69.585	0.0010613	0.0014542	0.0004112	740.03	1.4826e-05	1.6677e-05	549.78	299.84	1.5534e-05	1.6255e-05	267.11	121.92	136.8	71.94	1.5532e-05	69.237	183.581	14.982	33.087	-63.521	90.176	67.653	-64.476	-57.561	55.317	69.409	-60.256	-56.118	-54.154	-49.185	72.025	-52.797	-8191	255	
1585.042	1	1	0	0	0.057378	0.22294	0.21459	0.20229	0.14619	0.26637	0.066395	0.19403	0.19079	0.08939	0.14443	0.23743	0.28285	0.35264	0.22089	0.34741	-2.6188	-3.0687	-2.2833	-3.4458	-2.8979	-2.5208	-3.3854	-2.7354	-2.8833	-3.1562	-2.3042	-3.3375	-2.9542	-2.5687	-3.3021	-2.6354	148.102	128.565	280.657	236.905	146.143	14.944	235.435	216.966	-72.224	258.900	238.456	80.053	263.642	256.455	36.174	219.997	0.0001757	0.00083008	0.00027369	757.45	4.2606e-06	5.1446e-06	562.98	304.32	2.9106e-06	4.7467e-06	272.27	122.83	138.03	72.431	1.1581e-06	70.116	0.0010507	0.0014579	0.00040838	742.5	1.4888e-05	1.5859e-05	553.91	301.04	1.5352e-05	1.6063e-05	269.6	122.97	137.65	72.175	1.5433e-05	69.726	183.368	42.916	1.699	-63.660	92.852	81.795	-64.602	-57.802	51.744	99.937	-60.814	-56.264	-54.431	-49.448	-37.046	-53.074	-8191	255	
1585.138	1	1	0	0	0.2253	0.014469	0.10074	0.34503	0.08931	0.23944	0.14413	0.20205	0.10773	0.29602	0.11968	0.15135	0.22668	0.12792	0.029157	0.15432	-2.3854	-3.1833	-2.2208	-3.1688	-2.8521	-2.4229	-3.2542	-2.6271	-2.5917	-3.2479	-2.3875	-3.1625	-3.0521	-2.3812	-3.3354	-2.6292	229.568	23.147	247.023	181.441	163.149	147.955	149.791	164.624	-2.853	283.554	274.519	255.024	233.450	224.107	222.491	75.712	0.00019237	0.00034448	0.00015384	765.42	4.5909e-06	8.2025e-06	569.41	306.62	2.3698e-06	3.0299e-06	273.02	123.02	136.56	70.97	8.0122e-07	69.321	0.0010321	0.0013757	0.0003912	749.86	1.3621e-05	1.498e-05	563.09	303.16	1.4385e-05	1.5298e-05	270.24	122.49	136.25	70.91	1.5188e-05	68.936	173.020	-28.152	3.012	-63.922	49.668	53.420	-64.950	-58.053	20.983	69.634	-60.640	-56.219	-54.119	-49.481	39.816	-53.262	-8191	255	
1585.234	1	1	0	0	0.1615	0.087554	0.1796	0.061113	0.15181	0.26069	0.17128	0.18124	0.11597	0.057415	0.042682	0.23949	0.10444	0.10314	0.23314	0.35991	-2.2646	-3.1875	-2.3333	-3.1083	-2.9792	-2.4771	-3.3875	-2.8917	-2.6688	-3.2125	-2.4313	-2.8896	-3.2146	-2.5333	-3.1958	-2.8625	7.902	49.882	239.034	230.068	209.188	254.560	-58.561	85.174	270.450	20.923	18.159	-73.936	-15.807	239.037	192.238	203.553	0.00021154	0.00084348	0.0001593	765.51	2.4439e-06	7.2849e-06	563.98	303.46	1.0218e-06	4.9815e-06	270.92	121.7	136.26	70.728	1.8654e-06	68.038	0.0010496	0.0013859	0.00039883	746.24	1.395e-05	1.594e-05	555.96	300.1	1.4938e-05	1.6057e-05	267.24	121.24	135.61	70.613	1.5632e-05	67.74	183.586	13.224	25.816	-63.975	65.154	81.444	-64.937	-58.141	11.816	56.984	-60.294	-56.443	-54.376	-49.418	69.088	-53.021	-8191	255	
1585.330	1	1	0	0	0.078625	0.064612	0.34998	0.27413	0.22451	0.10962	0.16676	0.20872	0.26016	0.078076	0.06281	0.1963	0.19179	0.23088	0.085742	0.12709	-1.8792	-3.3354	-2.5083	-2.8563	-3.2083	-2.4688	-3.1771	-2.8875	-2.4521	-3.15	-2.5771	-2.75	-3.3312	-2.5146	-3.2354	-3.1354	274.168	210.025	207.568	243.970	93.261	-72.418	176.121	277.592	-33.782	40.653	283.934	275.473	276.576	256.389	163.339	155.224	0.00014879	0.00060223	0.00013197	753.04	2.4202e-06	5.518e-06	554.2	300.05	2.8766e-06	3.1392e-06	266.77	119.98	134.68	70.361	4.5103e-06	67.337	0.0010827	0.0014488	0.00041948	738.05	1.5089e-05	1.6423e-05	547.03	296.56	1.5779e-05	1.6637e-05	263.55	119.87	134.22	70.058	1.658e-05	66.976	175.767	-0.467	20.760	-63.907	65.446	87.781	-64.599	-58.059	34.588	48.481	-61.032	-56.562	-54.540	-49.716	120.254	-53.388	-8191	255	
1585.451	1	1	0	0	0.16633	0.12965	0.1966	0.14371	0.14556	0.13672	0.074217	0.052647	0.074458	0.1359	0.12173	0.19922	0.16199	0.10876	0.019493	0.28666	-1.9646	-3.3208	-2.5875	-2.9271	-3.3125	-2.2479	-3.2729	-3.1292	-2.4146	-3.2313	-2.7896	-2.7687	-3.3125	-2.4188	-3.0229	-3.1354	22.803	70.837	201.265	68.877	262.842	184.103	260.230	111.166	5.769	83.991	210.434	265.042	273.471	-21.987	62.193	143.059	0.00021193	0.00050702	0.00015141	752.5	2.6871e-06	4.1624e-06	552.91	302.2	1.8937e-06	3.1272e-06	270.48	123.18	138.98	73.134	3.0619e-06	70.531	0.0011392	0.0016107	0.00047007	735.45	1.7095e-05	1.8737e-05	544.89	298.72	1.7315e-05	1.8025e-05	267.5	122.89	138.7	72.94	1.7167e-05	70.22	175.543	15.903	-14.235	-63.797	29.558	116.766	-65.241	-58.276	24.766	66.323	-60.899	-56.321	-54.288	-49.541	84.987	-53.122	-8191	255	
1585.545	1	1	0	0	0.25268	0.133	0.24201	0.32512	0.15719	0.13144	0.064843	0.23667	0.038254	0.12745	0.063405	0.25437	0.25714	0.14695	0.14958	0.20593	-2.0958	-3.2771	-2.7062	-2.5625	-3.175	-2.5187	-2.8667	-3.1875	-2.3896	-3.1396	-2.6625	-2.6437	-3.4917	-2.6333	-2.7646	-3.3292	206.273	191.061	47.500	-27.471	-44.353	-43.535	48.181	247.181	40.892	23.628	0.333	233.870	-55.886	-42.948	216.311	281.776	0.00020787	0.00063756	0.00014564	770.19	1.3819e-06	6.9151e-06	574.49	313.21	3.032e-06	5.4452e-06	279.31	125.04	140.26	73.768	2.2433e-06	70.63	0.0011343	0.0015599	0.00042983	753.67	1.5107e-05	1.6893e-05	566.34	309.12	1.5716e-05	1.6634e-05	275.39	125.18	140.31	73.427	1.705e-05	70.172	186.413	-4.342	27.920	-63.961	-8.436	73.899	-64.935	-58.311	51.880	80.399	-60.959	-56.383	-54.448	-49.810	93.434	-53.128	-8191	255	
1585.641	1	1	0	0	0.11106	0.10324	0.11718	0.11024	0.11551	0.18754	0.18789	0.090489	0.091863	0.15529	0.19512	0.12617	0.20536	0.26118	0.14407	0.25284	-2.1771	-3.1146	-2.7125	-2.5812	-3.2854	-2.5187	-2.7792	-3.1667	-2.5187	-3.1729	-2.8458	-2.5292	-3.3083	-2.7958	-2.7687	-3.35	-32.101	-59.682	23.373	170.609	94.931	104.863	267.521	172.335	141.407	-75.098	87.926	80.439	-28.491	-52.499	247.525	190.275	0.00024656	0.00080158	0.00023956	766.95	3.1268e-06	6.0748e-06	564.75	307.42	2.642e-06	4.5966e-06	269.58	121.87	139.15	73.426	7.8797e-07	70.387	0.0011124	0.0015558	0.00043631	752.16	1.6026e-05	1.7864e-05	555.49	303.66	1.6933e-05	1.8279e-05	266.97	122.11	138.61	73.05	1.7236e-05	70.047	190.775	7.001	-11.692	-63.868	92.217	58.657	-64.541	-58.065	48.200	79.689	-60.784	-56.761	-54.347	-49.830	27.366	-53.358	-8191	255	
1585.738	1	1	0	0	0.14943	0.031823	0.27847	0.18967	0.098497	0.051518	0.068997	0.10675	0.23286	0.1641	0.15785	0.18687	0.27082	0.10186	0.14887	0.22803	-2.0375	-3.1167	-2.9667	-2.5958	-3.35	-2.7812	-2.6875	-3.4146	-2.4437	-2.9917	-3.1146	-2.475	-3.3271	-2.9792	-2.5812	-3.3729	-30.810	21.905	177.937	260.953	177.867	77.364	216.095	-41.036	-60.519	-6.614	190.074	224.770	268.136	188.110	-6.421	5.302	0.00021299	0.000731	0.00014406	767.6	2.0836e-06	7.0981e-06	563.65	307.42	2.7377e-06	8.1428e-06	271.26	123.48	138.94	73.209	5.0858e-06	69.89	0.0011283	0.0015698	0.00044041	751.66	1.6437e-05	1.7914e-05	556.96	305.73	1.7066e-05	1.8133e-05	268.96	123.11	138.94	72.949	1.8292e-05	69.425	177.148	-12.220	-4.506	-63.955	98.385	61.465	-65.046	-58.146	69.721	108.036	-60.930	-56.491	-54.419	-49.623	110.217	-53.140	-8191	255	
1585.834	1	1	0	0	0.058298	0.078174	0.028935	0.35005	0.2405	0.14927	0.193	0.11014	0.085423	0.14052	0.075101	0.24078	0.15472	0.22422	0.023375	0.20166	-2.0646	-2.8833	-3.1688	-2.5417	-3.1792	-2.85	-2.5083	-3.4583	-2.5604	-2.6958	-3.3146	-2.4792	-3.4167	-2.9875	-2.4771	-3.3042	198.804	81.779	174.084	243.843	-41.157	144.943	-13.389	154.836	212.260	13.712	229.220	242.191	258.840	264.228	-68.030	222.350	0.00021148	0.00023471	0.0001215	761.76	1.9754e-06	5.57e-06	563.87	308.77	5.3954e-06	6.1158e-06	269.54	122.28	138.13	72.028	3.2856e-06	68.979	0.0011767	0.0017003	0.00047666	747.5	1.6801e-05	1.8386e-05	555.35	304.66	1.7312e-05	1.8856e-05	268.75	122.56	137.96	72.262	1.9469e-05	68.785	179.522	32.309	31.136	-63.721	127.287	41.981	-65.060	-57.742	92.164	116.566	-60.521	-56.480	-54.194	-49.820	42.509	-52.799	-8191	255	
1585.930	1	1	0	0	0.24917	0.059929	0.16419	0.11516	0.089334	0.22923	0.18711	0.092215	0.09256	0.13357	0.11668	0.14019	0.029126	0.028839	0.14353	0.25688	-2.1167	-2.7083	-3.1667	-2.3625	-2.9646	-2.775	-2.3958	-3.4188	-2.7146	-2.5146	-3.3271	-2.3521	-3.1521	-3.0333	-2.275	-3.4188	158.537	254.645	246.196	247.657	-8.305	162.644	32.169	30.372	196.152	15.147	180.618	118.947	76.199	282.461	194.967	176.118	0.00020793	0.0011692	0.00017353	760.52	4.6422e-06	8.5632e-06	558.27	304.59	2.0604e-06	4.6066e-06	263.85	119.25	135.2	70.784	4.3397e-06	67.52	0.0012447	0.0017548	0.00049007	744.34	1.704e-05	1.8754e-05	550.47	300.64	1.742e-05	1.9042e-05	262.26	119.34	135.44	70.663	1.8316e-05	66.837	186.439	27.053	24.565	-63.955	65.357	50.482	-65.039	-58.304	31.799	94.569	-60.752	-56.712	-54.238	-49.563	105.598	-53.260	-8191	255	
1586.026	1	1	0	0	0.035698	0.21232	0.17015	0.23307	0.10427	0.068313	0.046421	0.066355	0.10955	0.085894	0.038196	0.089304	0.28897	0.1696	0.095932	0.14202	-2.4833	-2.4667	-3.2438	-2.4042	-3.0667	-3.15	-2.3125	-3.2812	-2.8354	-2.6229	-3.275	-2.5104	-2.9042	-3.2625	-2.2667	-3.4583	232.921	129.892	-65.398	211.024	92.651	222.513	41.856	237.118	153.189	194.243	212.210	45.190	194.598	264.866	125.407	-42.081	0.00018357	0.00071467	0.00018119	750.54	2.5456e-06	5.5462e-06	552.15	299.65	1.9409e-06	9.0245e-06	262.11	117.75	134.34	69.873	2.5442e-06	66.94	0.0011846	0.0017011	0.0004708	734.56	1.7499e-05	1.9464e-05	540.37	296.3	1.903e-05	2.0249e-05	260.32	117.98	134.41	69.972	1.8581e-05	66.429	187.705	11.938	18.042	-64.068	60.610	107.678	-65.002	-58.146	69.190	53.767	-60.883	-56.618	-54.299	-49.540	68.322	-53.069	-8191	255	
1586.122	1	1	0	0	0.32758	0.11958	0.25825	0.12142	0.15711	0.17619	0.062414	0.25348	0.239	0.14279	0.088433	0.38164	0.18171	0.19148	0.34184	0.15494	-2.5458	-2.5292	-3.4083	-2.6063	-2.9854	-3.2083	-2.3688	-3.175	-2.7	-2.4646	-3.1688	-2.6917	-2.8458	-3.4542	-2.4917	-3.2812	114.754	-25.674	135.631	92.867	119.060	279.275	100.150	158.079	9.301	-15.606	36.199	-28.483	211.789	237.938	236.230	223.151	0.00019586	0.00089171	0.00013485	742.91	5.7671e-06	6.9536e-06	546.24	298.77	3.3624e-06	4.4727e-06	261.46	117.63	134.88	70.38	4.8569e-06	67.03	0.0011855	0.0016745	0.00047711	729	1.7682e-05	1.9405e-05	535.21	294.9	1.7951e-05	1.866e-05	259.84	118.08	134.35	70.095	1.804e-05	66.496	166.227	25.146	27.706	-64.133	65.190	111.438	-64.596	-57.908	78.338	28.906	-60.483	-56.789	-54.080	-49.630	109.427	-52.911	-8191	255	
1586.218	1	1	0	0	0.25703	0.078286	0.12792	0.20505	0.14726	0.10398	0.33564	0.24416	0.13531	0.15237	0.047028	0.37728	0.10189	0.11407	0.10197	0.32225	-2.7729	-2.25	-3.2625	-2.8104	-2.8146	-3.4	-2.4729	-3.1625	-3.0167	-2.3688	-3.2521	-2.7438	-2.7021	-3.4667	-2.3688	-2.975	-9.402	-62.762	99.188	155.166	1.303	98.173	188.815	-76.005	119.879	-43.223	63.022	283.120	203.968	-55.273	67.354	-51.805	0.00018781	0.00032743	0.00024261	747.12	1.981e-06	3.9896e-06	547.34	301.13	1.4644e-06	6.7906e-06	264.25	119.68	136.86	72.447	3.8363e-06	69.023	0.0011885	0.0017	0.00046358	732.71	1.7488e-05	1.8663e-05	539.92	297.68	1.8313e-05	1.9616e-05	262.04	119.7	137	72.244	1.7635e-05	68.35	171.062	6.063	30.089	-63.969	78.086	74.847	-64.770	-58.094	39.864	90.514	-60.311	-56.696	-54.079	-49.428	62.310	-52.693	-8191	255	
1586.339	1	1	0	0	0.16654	0.19707	0.069371	0.04519	0.16229	0.1233	0.2059	0.039522	0.18265	0.31091	0.12017	0.2955	0.28703	0.29764	0.045769	0.16596	-2.7375	-2.2875	-3.4458	-2.8937	-2.5167	-3.2979	-2.6271	-2.9562	-3.2875	-2.2979	-3.3229	-2.8833	-2.6396	-3.4646	-2.4729	-2.8958	279.380	-20.733	216.869	110.182	274.470	274.530	-50.719	-43.335	150.295	267.065	277.054	195.884	-64.065	260.863	-60.708	-41.269	0.000189	0.0008042	0.00016564	752.21	4.3842e-06	7.0612e-06	556.32	308.6	3.6092e-06	5.1017e-06	268.51	121.7	140.28	73.635	2.2675e-06	69.527	0.0011179	0.0015427	0.00043279	738.64	1.5576e-05	1.6748e-05	546.65	303.79	1.6436e-05	1.789e-05	264.85	121.47	139.6	73.466	1.7412e-05	68.941	184.656	-11.799	-26.676	-63.987	54.864	76.341	-65.186	-58.197	55.117	78.395	-60.612	-57.113	-54.224	-49.540	86.539	-53.284	-8191	255	
1586.435	1	1	0	0	0.19771	0.15587	0.27211	0.1818	0.16108	0.15552	0.28393	0.088458	0.27986	0.032149	0.041509	0.23702	0.24748	0.22914	0.2029	0.20112	-2.7979	-2.425	-3.1312	-2.8604	-2.4813	-3.2583	-2.6292	-2.8417	-3.2667	-2.3896	-3.0167	-3.0354	-2.4583	-3.4729	-2.7062	-2.6	-62.881	126.996	273.407	-50.569	159.005	265.727	175.822	210.653	273.346	78.556	-75.296	94.866	-41.464	225.335	-35.474	-23.148	0.00020207	0.00056661	0.00016052	754.58	3.4562e-06	8.2663e-06	553	308.13	2.257e-06	3.8742e-06	270.94	122.65	139.92	73.476	4.8187e-06	69.079	0.0011416	0.001615	0.00044527	739.53	1.6213e-05	1.7723e-05	545.4	304.02	1.6213e-05	1.714e-05	267.7	121.96	139.49	73.257	1.7173e-05	68.721	175.093	39.922	51.420	-63.817	61.195	76.702	-64.721	-58.104	64.061	91.264	-60.972	-56.699	-54.420	-49.533	67.964	-53.059	-8191	255	
1586.531	1	1	0	0	0.0585	0.26976	0.066451	0.10167	0.18454	0.20425	0.09253	0.16045	0.29324	0.20082	0.62673	0.21137	0.25994	0.15131	0.18742	0.20527	-2.8333	-2.2604	-3.1271	-3.1583	-2.4396	-3.2375	-2.6562	-2.6479	-3.3333	-2.3688	-2.9688	-3.1917	-2.5146	-3.3729	-2.9271	-2.575	-60.300	230.807	-39.099	129.056	-20.155	150.632	257.647	175.319	125.504	60.041	241.375	-69.163	37.328	-62.869	204.095	-17.224	0.00019599	0.0010568	0.00016634	759.41	4.4819e-06	5.6509e-06	565.47	308.23	4.0221e-06	7.6531e-06	272.06	122.06	138.54	72.311	2.0648e-06	68.76	0.0011186	0.0015454	0.00042221	743.62	1.5092e-05	1.5837e-05	555.45	304.61	1.4383e-05	1.586e-05	269.49	121.97	138.28	72.059	1.5917e-05	68.162	184.842	25.513	37.268	-64.120	70.105	42.317	-64.934	-58.063	69.410	76.532	-60.673	-56.542	-54.218	-49.356	91.492	-52.857	-8191	255	
1586.627	1	1	0	0	0.10925	0.19007	0.10394	0.13689	0.055713	0.14398	0.19196	0.14598	0.10178	0.030928	0.077378	0.18406	0.20729	0.35112	0.0097933	0.10772	-2.9437	-2.3917	-2.7438	-3.1396	-2.5083	-3.2062	-2.9042	-2.3917	-3.2875	-2.5312	-2.8958	-3.0125	-2.3458	-3.4458	-2.9437	-2.6146	134.921	281.760	-2.748	76.224	-46.548	201.586	158.519	212.069	127.855	197.531	205.494	188.560	223.134	-57.974	195.769	62.650	0.00019137	0.00050072	0.00018392	758.73	3.495e-06	9.7039e-06	560.21	305.96	1.9257e-06	4.4684e-06	266.71	119.45	137.08	71.63	3.9237e-06	67.099	0.001064	0.0014841	0.00041736	744.49	1.5289e-05	1.6407e-05	551.02	301.8	1.4776e-05	1.588e-05	264.34	119.63	136.53	71.252	1.5369e-05	66.685	174.823	19.760	-8.075	-63.838	111.486	93.447	-64.716	-57.851	49.780	84.240	-60.694	-56.852	-54.408	-49.418	95.667	-52.836	-8191	255	
1586.722	1	1	0	0	0.23454	0.25471	0.27251	0.19487	0.10828	0.16235	0.31419	0.12553	0.11874	0.033763	0.14954	0.13092	0.061935	0.21836	0.1325	0.32552	-2.8688	-2.5021	-2.8063	-3.3583	-2.3396	-3.1292	-3.0667	-2.5312	-3.3708	-2.625	-2.5896	-3.3312	-2.7021	-3.2708	-3.2167	-2.6458	-19.810	130.748	136.092	22.706	-19.286	13.654	184.737	231.946	8.121	-24.606	257.452	239.159	-11.083	258.725	194.283	-43.301	0.00019323	0.00018484	0.0001288	751.85	4.8661e-06	6.5712e-06	551.55	300.3	3.6193e-06	6.0529e-06	263.97	117.63	134.09	69.895	2.2745e-06	66.7	0.0010212	0.001443	0.00041313	735.49	1.557e-05	1.6925e-05	542.82	296.5	1.5448e-05	1.6801e-05	260.29	117.55	133.75	69.665	1.5288e-05	65.98	172.131	25.840	30.631	-63.829	19.438	69.261	-64.893	-58.081	63.416	71.140	-60.140	-56.380	-54.137	-49.285	55.803	-52.970	-8191	255	
1586.820	1	1	0	0	0.22976	0.21257	0.20647	0.12641	0.05463	0.094321	0.3367	0.26471	0.060388	0.039936	0.21907	0.13965	0.059091	0.24763	0.040963	0.21921	-2.8583	-2.5729	-2.5479	-3.3792	-2.5417	-3.0021	-3.1167	-2.4437	-3.2562	-2.7938	-2.6708	-3.4229	-2.5667	-2.8625	-3.0625	-2.4542	174.225	17.932	180.191	104.444	191.593	166.160	141.173	241.077	18.873	46.650	220.827	221.313	199.140	250.374	171.245	254.415	0.00022677	0.00032361	0.00012887	746.2	5.048e-06	3.9119e-06	550.22	303.12	3.8577e-06	4.2902e-06	267.78	122.11	139.79	74.037	3.0399e-06	70.411	0.0010128	0.0014231	0.00040309	731.42	1.4925e-05	1.6583e-05	542.35	299.89	1.6104e-05	1.7207e-05	265.47	121.59	139.36	73.739	1.6255e-05	69.841	183.860	-0.213	-24.342	-64.159	88.788	99.747	-65.290	-58.373	77.765	84.844	-60.926	-56.604	-54.536	-49.469	63.659	-53.501	-8191	255	
1586.939	1	1	0	0	0.042878	0.12201	0.16228	0.042794	0.1121	0.089204	0.13769	0.12122	0.10982	0.068001	0.36041	0.20677	0.23916	0.16822	0.24095	0.3879	-2.6958	-2.7375	-2.4479	-3.4604	-2.3667	-2.6458	-3.2646	-2.5229	-3.0854	-2.8396	-2.3875	-3.35	-2.5292	-2.6042	-3.2604	-2.5646	73.288	3.135	-55.488	-16.316	151.052	26.176	237.758	205.927	274.769	99.143	-53.382	-56.970	256.039	252.485	95.222	245.250	0.00025394	0.00063574	0.00018464	758.57	3.754e-06	6.257e-06	558.44	309.95	2.4666e-06	6.9039e-06	273.16	124.29	143.2	75.732	3.6201e-06	71.215	0.0010997	0.0015399	0.00043689	744.56	1.5732e-05	1.7948e-05	551.9	306.93	1.6851e-05	1.7891e-05	270.76	124.67	142.45	75.499	1.6799e-05	70.373	175.045	-25.301	31.115	-63.782	97.504	81.590	-65.233	-58.246	110.696	74.933	-60.694	-56.759	-54.449	-49.651	121.986	-53.238	-8191	255	
1587.035	1	1	0	0	0.26909	0.21493	0.20598	0.10862	0.30819	0.33658	0.1912	0.15236	0.18598	0.015146	0.23371	0.33569	0.17115	0.25398	0.10775	0.15021	-2.6667	-2.9917	-2.1729	-3.1104	-2.6479	-2.5896	-3.4771	-2.6104	-2.9292	-2.9458	-2.4	-3.0625	-2.8771	-2.5792	-3.2271	-2.4792	-57.223	226.181	-27.251	-32.281	258.312	-66.817	-21.701	251.368	147.552	-51.492	229.955	-60.820	257.688	239.397	145.545	268.801	0.00018208	0.00052347	0.00024008	757.38	3.6671e-06	5.0528e-06	560.21	308.49	1.7397e-06	7.7375e-06	273.75	123.92	141.43	75.271	3.8033e-06	70.521	0.0011254	0.0015398	0.00044073	744.59	1.5699e-05	1.7337e-05	549.52	306.07	1.5807e-05	1.6078e-05	270.39	123.98	141.66	74.852	1.5334e-05	69.985	170.460	35.565	22.945	-63.993	29.851	70.967	-64.900	-58.138	53.853	107.324	-60.778	-56.750	-54.445	-49.553	89.054	-53.118	-8191	255	
1587.131	1	1	0	0	0.041897	0.10584	0.12016	0.081845	0.21994	0.096556	0.25091	0.069507	0.17428	0.10622	0.10471	0.13807	0.1771	0.26348	0.27644	0.21318	-2.6688	-3.1937	-2.4083	-3.2333	-2.7229	-2.4458	-3.3438	-2.5208	-2.8958	-3.1333	-2.3583	-3.3917	-2.9125	-2.4917	-3.1167	-2.7792	155.762	12.753	31.272	149.331	-22.939	212.950	223.082	-23.497	15.821	72.905	77.546	148.391	280.726	242.600	139.133	183.700	0.00022142	0.00063414	0.00011975	761.57	2.1738e-06	6.2978e-06	560.34	308.94	4.7637e-06	5.1561e-06	270.16	122.35	139.34	73.199	6.1799e-06	69.365	0.0010467	0.0013886	0.00040338	745.72	1.5027e-05	1.6735e-05	552.69	305.61	1.611e-05	1.7081e-05	268.6	122.3	139.31	73.071	1.6878e-05	68.715	175.810	-5.153	23.238	-63.859	57.063	63.389	-64.790	-58.039	65.826	127.013	-60.801	-56.293	-54.096	-49.412	91.091	-53.134	-8191	255	
1587.227	1	1	0	0	0.029825	0.29201	0.23586	0.22977	0.24626	0.09382	0.16702	0.26378	0.14347	0.078895	0.21823	0.30262	0.27512	0.33347	0.21877	0.045682	-2.4396	-3.2667	-2.3854	-3.1333	-2.9562	-2.2583	-3.2188	-2.7208	-2.5958	-3.3667	-2.2938	-3.0125	-3.0958	-2.475	-3.2375	-2.7604	165.219	53.462	216.668	272.418	165.706	-46.860	89.589	229.710	274.936	178.532	172.236	-58.096	-6.258	244.518	-8.056	203.226	0.00019419	0.00064701	0.0001132	756.97	4.6143e-06	6.6213e-06	561.06	308.09	4.8792e-06	4.8864e-06	269.91	122.08	139.01	73.055	2.6972e-06	68.342	0.001112	0.0015312	0.00043563	743.46	1.5637e-05	1.7399e-05	550.83	303.82	1.5985e-05	1.6759e-05	267.23	121.93	138.63	72.624	1.6493e-05	68.061	176.009	-8.060	21.969	-63.861	70.737	69.844	-64.864	-58.108	78.012	91.637	-60.819	-56.542	-54.367	-49.477	57.537	-53.264	-8191	255	
1587.323	1	1	0	0	0.13529	0.20066	0.14635	0.271	0.12241	0.098291	0.11561	0.079122	0.14088	0.1121	0.28698	0.29281	0.052874	0.21632	0.16323	0.23631	-2.2562	-3.2896	-2.3187	-2.9938	-2.9979	-2.2583	-3.3229	-2.8896	-2.5479	-3.4521	-2.325	-2.9396	-3.0979	-2.4333	-2.975	-2.9	137.783	-24.774	16.351	257.131	84.596	238.157	220.756	161.123	24.220	178.412	-56.312	268.852	-58.736	276.381	-9.238	153.806	0.00017369	0.00083925	0.00024959	751.31	8.6563e-07	4.8982e-06	550.54	303.56	1.9311e-06	4.5566e-06	265.29	119.34	137.05	72.123	2.1799e-06	67.357	0.0011504	0.0015828	0.00045337	737.04	1.6444e-05	1.7931e-05	541.59	300.37	1.6899e-05	1.7991e-05	263.06	119.33	136.8	71.843	1.7402e-05	67.08	191.669	18.498	27.586	-63.706	99.815	92.957	-64.839	-58.339	66.910	60.959	-61.013	-56.608	-54.502	-49.428	92.673	-53.343	-8191	255	
1587.419	1	1	0	0	0.1973	0.17883	0.16406	0.11681	0.3189	0.24265	0.031667	0.3639	0.15888	0.23974	0.077223	0.26915	0.038343	0.31918	0.13632	0.11878	-2.2792	-3.3271	-2.3125	-3.1	-3.2375	-2.4	-3.1458	-2.9313	-2.5812	-3.4208	-2.525	-2.6958	-3.1875	-2.4313	-3.0417	-3.0042	72.855	267.798	-8.712	218.839	105.072	-37.476	50.956	217.916	-14.033	124.179	268.115	-27.251	-69.979	280.247	89.302	0.909	0.00020152	0.00073713	0.00017853	750.36	4.3856e-07	4.2822e-06	550.96	308.25	3.4208e-06	6.6911e-07	269.12	122.31	140.78	74.067	4.9796e-06	69.522	0.0011767	0.0016411	0.00046003	734.91	1.6624e-05	1.8857e-05	543.25	303.72	1.7485e-05	1.856e-05	266.42	122.29	140.54	74.057	1.7736e-05	69.02	170.217	-39.029	-24.506	-63.731	169.552	39.622	-64.616	-58.104	105.504	65.571	-60.502	-56.499	-54.282	-49.360	65.035	-53.160	-8191	255	
1587.516	1	1	0	0	0.11026	0.22346	0.11475	0.072993	0.15822	0.064255	0.013643	0.36788	0.13303	0.045719	0.066881	0.097775	0.28292	0.20762	0.058155	0.28728	-2.15	-3.1521	-2.7146	-2.6604	-3.2667	-2.3625	-3.2146	-2.9854	-2.4042	-3.3646	-2.8146	-2.6688	-3.4229	-2.4313	-2.9938	-3.1	61.131	141.123	192.151	79.394	50.427	0.624	284.047	191.306	-74.245	226.584	147.552	264.166	227.401	257.819	111.848	197.533	0.00023821	0.0006761	0.00016004	760.98	4.9718e-06	6.4974e-06	554.68	311.6	5.4608e-07	3.3586e-06	272.92	123.59	141.38	74.37	7.8427e-06	69.397	0.0012081	0.0016919	0.00048659	743.45	1.7925e-05	1.9939e-05	549.76	308.1	1.8629e-05	2.0065e-05	270.78	123.56	141.34	74.125	1.8627e-05	69.108	180.224	-4.922	10.915	-63.705	53.576	65.207	-64.979	-57.808	205.219	93.605	-60.335	-56.393	-54.275	-49.464	53.486	-53.002	-8191	255	
1587.634	1	1	0	0	0.2942	0.21395	0.43823	0.14422	0.15544	0.094492	0.20415	0.17141	0.1969	0.13659	0.052439	0.036687	0.088203	0.23015	0.21671	0.23193	-2.0292	-3.175	-2.5896	-2.5208	-3.2375	-2.1813	-2.9021	-3.2083	-2.3792	-3.3271	-2.7812	-2.5646	-3.5021	-2.6604	-2.6917	-3.1542	200.860	-59.712	190.000	-43.903	205.780	31.268	224.672	235.951	-7.863	4.460	176.021	81.589	185.429	-28.942	75.028	222.828	0.00021581	0.00043607	0.0001223	761.73	1.6667e-06	7.4798e-06	559.31	309.56	1.2433e-06	9.409e-06	267.61	120.6	139.53	73.337	5.2966e-06	68.019	0.0012574	0.0017619	0.00049174	747	1.7642e-05	1.951e-05	549.58	306.01	1.9435e-05	2.0749e-05	266.1	120.97	139.48	73.176	2.158e-05	67.913	186.091	43.479	20.040	-63.547	54.370	97.180	-65.336	-58.217	39.985	97.777	-60.701	-56.757	-54.390	-49.380	51.153	-53.075	-8191	255	
1587.731	1	1	0	0	0.10472	0.15078	0.11076	0.12264	0.094181	0.21176	0.19536	0.23535	0.15668	0.12117	0.052008	0.11144	0.30944	0.087877	0.37506	0.087845	-1.95	-3.0312	-2.8583	-2.7521	-3.2687	-2.3375	-2.9458	-3.2625	-2.3104	-3.1146	-3.0729	-2.4188	-3.4604	-2.6833	-2.6646	-3.45	-1.696	161.732	194.119	-3.747	240.690	-28.688	169.472	274.929	270.640	-56.373	42.570	-7.107	272.980	235.092	-68.968	62.795	0.00019622	0.0010266	0.00011872	754.87	1.8043e-06	3.5685e-06	557.1	308.22	4.8251e-06	7.8693e-06	268.49	121.77	140.85	73.925	3.0264e-06	68.761	0.0013528	0.0018832	0.00052058	741.65	1.7938e-05	2.0429e-05	548.27	305.18	1.9115e-05	2.0599e-05	266.91	121.75	140.65	73.789	2.0848e-05	68.353	191.691	-1.133	0.372	-63.709	15.555	78.555	-64.870	-58.153	36.256	64.179	-60.938	-56.876	-54.082	-49.299	92.519	-52.851	-8191	255	
1587.802	1	1	0	0	0.23373	0.11141	0.18465	0.2299	0.051135	0.15771	0.1701	0.070925	0.011637	0.16145	0.10044	0.12366	0.19462	0.29871	0.18719	0.14459	-1.9562	-2.9542	-2.9896	-2.425	-3.3125	-2.6396	-2.4854	-3.1875	-2.2438	-2.9313	-3.0271	-2.4188	-3.2521	-2.8854	-2.5542	-3.4083	62.154	278.649	273.992	-40.374	-69.677	1.251	203.167	238.445	183.211	33.146	198.493	-36.552	274.038	225.183	128.557	159.926	0.00021308	0.00067986	0.00016622	755.25	4.17e-06	6.8056e-06	553.85	308.2	3.6338e-06	7.2081e-06	267.98	121.31	140.03	73.835	6.4702e-06	68.869	0.0013119	0.0018773	0.00050658	741.46	1.7682e-05	1.945e-05	547.31	305.69	1.8525e-05	1.9963e-05	267.07	121.57	140.21	73.567	1.9404e-05	68.358	178.308	25.310	11.116	-64.169	110.232	57.378	-64.597	-57.925	31.508	94.688	-60.794	-56.481	-53.860	-49.275	76.092	-52.917	-8191	255	
1587.900	1	1	0	0	0.049538	0.3199	0.084945	0.12383	0.053656	0.19783	0.11876	0.076639	0.048094	0.34996	0.18236	0.22259	0.16564	0.26443	0.1203	0.10621	-2.0812	-2.8667	-3.0875	-2.4188	-3.1854	-2.8375	-2.45	-3.2396	-2.4458	-2.8563	-3.1604	-2.4146	-3.2521	-2.8875	-2.55	-3.5312	178.936	-27.479	200.472	-70.605	-37.186	183.139	114.605	-21.774	-24.212	50.404	176.715	-18.387	-32.534	-14.933	-51.239	9.861	0.00020886	0.00056105	3.5186e-05	756.15	3.2096e-06	2.681e-06	556.34	308	2.3621e-06	3.6501e-06	267.01	120.4	139.07	73.024	2.2729e-06	67.549	0.0012466	0.0017693	0.00049692	741.56	1.847e-05	2.0225e-05	548.38	304.43	1.9525e-05	2.0704e-05	266.17	120.58	139.04	72.729	2.1534e-05	67.334	175.216	29.956	-5.198	-63.920	25.244	42.344	-64.768	-57.978	115.961	62.110	-60.829	-56.286	-54.136	-49.367	126.416	-53.117	-8191	255	
1588.019	1	1	0	0	0.10212	0.07084	0.21026	0.10353	0.10886	0.051117	0.17779	0.086763	0.13599	0.16099	0.16995	0.057576	0.23904	0.072843	0.28199	0.054503	-2.1125	-2.7	-3.2021	-2.4417	-3.1562	-2.6854	-2.4271	-3.2729	-2.6562	-2.7188	-3.325	-2.4313	-3.1083	-3.1979	-2.2938	-3.4125	145.827	32.032	54.379	263.715	194.998	-38.013	272.339	219.254	34.500	-40.113	-58.564	28.267	-35.547	163.098	-15.689	-1.296	0.00021269	0.00052811	0.00012385	748.62	5.7156e-06	3.5948e-06	546.23	304.97	1.9998e-06	1.0924e-05	265.79	118.78	137.41	71.919	3.4261e-06	66.533	0.0014077	0.0019856	0.00054209	735.05	1.9065e-05	2.0655e-05	539.88	301.54	1.8673e-05	1.998e-05	262.54	118.83	137.4	71.729	2.0082e-05	66.153	163.228	25.397	6.398	-63.675	72.960	26.124	-64.351	-58.127	72.349	70.967	-60.829	-56.321	-54.018	-49.464	100.123	-52.965	-8191	255	
1588.115	1	1	0	0	0.10707	0.10485	0.21644	0.3709	0.10057	0.31643	0.26915	0.24603	0.17989	0.12196	0.20302	0.09675	0.18403	0.01355	0.13819	0.30604	-2.3688	-2.5625	-3.2604	-2.3312	-2.9792	-3.0146	-2.4917	-3.1583	-2.7333	-2.6354	-3.3167	-2.4625	-3.0875	-3.2875	-2.4229	-3.2708	245.073	125.498	264.093	160.049	4.178	207.528	87.534	234.122	208.333	124.703	-43.289	175.566	155.241	27.981	143.438	240.646	0.00016571	0.00027614	0.00010607	742.92	4.5846e-06	6.465e-06	542.64	302.27	1.8242e-06	8.218e-06	264.65	118.14	136.62	71.808	4.3106e-06	66.762	0.0013151	0.0018731	0.00052267	730.18	1.9026e-05	2.1094e-05	536.92	299.48	1.9359e-05	2.0045e-05	261.44	118.28	136.71	71.542	1.8039e-05	66.263	177.024	-36.989	-25.501	-63.959	101.938	53.310	-64.748	-57.849	73.667	90.001	-60.268	-56.234	-53.698	-49.261	98.384	-53.191	-8191	255	
1588.211	1	1	0	0	0.1058	0.095801	0.23443	0.17714	0.040731	0.082685	0.10287	0.1044	0.053691	0.14144	0.31178	0.25914	0.087639	0.27701	0.14229	0.11683	-2.4375	-2.525	-3.4208	-2.6292	-2.9125	-3.2458	-2.475	-3.4104	-3.0896	-2.4562	-3.3083	-2.6125	-2.8333	-3.5479	-2.2771	-3.1333	-3.186	202.412	89.240	267.551	7.634	-17.966	240.199	33.073	265.991	-21.305	-70.111	276.370	-13.607	279.597	96.854	-53.546	0.00021533	0.00048614	7.3877e-05	743.71	2.7149e-06	4.7448e-06	545.63	302.62	3.161e-06	7.2655e-06	265.24	118.7	137.36	72.109	4.1294e-06	67.11	0.0011827	0.0016862	0.00047445	729.15	1.8631e-05	2.0816e-05	537.42	299.44	2.0665e-05	2.1982e-05	262.92	119.16	137.42	71.881	2.0869e-05	66.735	167.034	22.941	37.027	-63.826	93.712	79.111	-64.766	-57.932	90.588	75.532	-60.302	-56.546	-54.013	-49.301	122.475	-52.862	-8191	255	
1588.332	1	1	0	0	0.25272	0.020578	0.30352	0.010806	0.23312	0.084141	0.25146	0.05596	0.056835	0.18455	0.15394	0.1423	0.14699	0.25371	0.23456	0.055865	-2.6188	-2.3438	-3.3021	-2.6958	-2.6437	-3.1875	-2.5354	-3.1854	-2.9271	-2.2438	-3.2646	-2.8146	-2.5333	-3.4542	-2.3521	-3.0875	215.085	155.540	136.953	-48.316	41.748	244.492	194.396	12.475	264.998	161.743	206.107	10.116	-63.505	229.837	-42.778	-27.493	0.00021936	0.00072747	0.00013822	750.16	3.8857e-06	7.5986e-06	545.3	306.12	2.751e-06	1.0003e-05	264.3	119.23	139.5	73.033	5.0957e-06	67.096	0.0013256	0.0019033	0.00051986	734.12	1.846e-05	2.0617e-05	538.95	303.35	1.9625e-05	2.1828e-05	263.23	119.92	139.42	73.296	2.3485e-05	67.037	177.919	1.721	-48.416	-63.749	41.030	49.641	-64.867	-57.842	84.615	47.018	-60.465	-56.853	-54.179	-49.450	57.838	-53.118	-8191	255	
1588.404	1	1	0	0	0.12769	0.26886	0.20764	0.1744	0.12336	0.15586	0.072116	0.13722	0.24242	0.078347	0.19181	0.18679	0.26125	0.21028	0.18079	0.20821	-2.7562	-2.4708	-3.2083	-2.9771	-2.5854	-3.4313	-2.6146	-3.0812	-3.2271	-2.5021	-3.3542	-2.925	-2.5062	-3.4979	-2.6229	-2.9521	185.903	202.807	189.466	167.120	105.491	239.356	195.819	198.176	93.958	198.622	279.861	238.393	278.667	-41.317	14.927	267.859	0.00018366	0.00061236	0.0001821	747.77	5.2255e-07	2.6831e-06	544.8	306.68	2.2258e-06	8.2165e-06	265.39	119.52	140.45	73.984	4.8946e-06	67.701	0.0015122	0.0022444	0.00064134	735.66	2.3414e-05	2.5961e-05	538.17	304.76	2.5702e-05	2.865e-05	264.59	120.28	140.56	73.887	2.4412e-05	67.72	173.245	-21.450	35.462	-63.628	120.788	95.890	-65.048	-57.456	78.294	114.473	-60.347	-56.791	-54.298	-49.271	15.771	-52.906	-8191	255	
1588.500	1	1	0	0	0.06915	0.12493	0.22091	0.064992	0.11089	0.29473	0.081197	0.30608	0.30886	0.20771	0.095806	0.14931	0.19768	0.15082	0.10099	0.10302	-2.8771	-2.2146	-3.1042	-2.7917	-2.5354	-3.3271	-2.6188	-2.8646	-3.1792	-2.2687	-3.0687	-3.1229	-2.4854	-3.525	-2.5354	-2.8417	-75.094	-17.687	277.639	193.020	243.868	110.698	51.497	-68.764	-56.447	279.845	270.342	80.319	-64.413	236.931	220.480	142.078	0.00019418	0.00058181	0.00011499	752.77	2.4427e-06	7.5422e-06	549.93	309.56	4.0877e-06	4.2928e-06	268.33	120.83	140.32	73.61	3.2194e-06	68.063	0.0014306	0.0020058	0.00055078	738.56	1.9864e-05	2.1517e-05	542.61	306.45	2.1119e-05	2.3203e-05	266.75	121.22	140.57	73.724	2.0726e-05	67.686	185.390	-2.366	-6.128	-63.709	92.184	81.202	-65.096	-57.892	86.670	17.245	-60.310	-56.557	-54.280	-49.353	-6.031	-53.089	-8191	255	
1588.620	1	1	0	0	0.059067	0.12753	0.26006	0.11706	0.10867	0.39133	0.12748	0.21421	0.094286	0.18192	0.084208	0.077041	0.25117	0.24386	0.094909	0.22096	-3.025	-2.2188	-3.0667	-3.0187	-2.3563	-3.2542	-2.7458	-2.725	-3.2979	-2.35	-3.0604	-3.2375	-2.3271	-3.5292	-2.6437	-2.5104	131.093	265.695	-46.038	242.388	167.687	188.730	197.651	40.989	-62.265	-60.084	181.879	141.526	241.515	197.510	42.557	27.689	0.00014406	0.00080294	8.1985e-05	756.8	4.6968e-06	5.4301e-06	548.63	306.18	4.04e-06	2.6249e-06	267.84	120.06	140	72.825	3.0285e-06	66.634	0.0012972	0.0019337	0.00053418	741.63	1.8744e-05	2.0654e-05	544.12	304.12	1.8091e-05	1.8634e-05	265.4	120.14	139.3	72.722	1.7024e-05	66.476	167.996	12.244	4.326	-63.696	86.633	70.714	-64.259	-57.644	65.485	75.591	-60.069	-56.479	-54.133	-49.679	38.140	-52.999	-8191	255	
1588.715	1	1	0	0	0.33754	0.094182	0.17162	0.12021	0.16609	0.12963	0.16356	0.29374	0.18074	0.075456	0.35608	0.11127	0.22561	0.19105	0.076386	0.042536	-2.8083	-2.3146	-2.7542	-3.2458	-2.1042	-3.0396	-2.8875	-2.4833	-3.3063	-2.3604	-2.8771	-3.2542	-2.4979	-3.2229	-3.0104	-2.4604	-15.581	107.805	207.595	-19.823	-43.157	162.400	235.676	216.052	171.319	-30.075	215.697	125.948	227.012	224.419	189.539	78.270	0.00016048	0.00053312	5.3958e-05	751.69	2.7691e-06	1.219e-05	543.39	303.91	5.0358e-06	6.6485e-06	264.11	118.28	138.27	72.036	5.5956e-06	66.218	0.0011576	0.0016786	0.00047695	734.12	1.8031e-05	1.9484e-05	537.95	301.39	1.7193e-05	1.8773e-05	262.68	118.65	137.95	71.97	1.8425e-05	65.896	185.768	5.984	-54.016	-63.770	88.993	52.767	-64.633	-57.921	109.146	73.980	-60.817	-56.605	-54.350	-49.092	50.780	-52.895	-8191	255	
1588.811	1	1	0	0	0.12723	0.19672	0.041594	0.28934	0.11985	0.26141	0.30842	0.10859	0.21707	0.042828	0.23204	0.012987	0.29793	0.18849	0.24621	0.13095	-2.9042	-2.6958	-2.8063	-3.3521	-2.3667	-3.0458	-3.0792	-2.575	-3.1688	-2.5896	-2.7333	-3.2458	-2.4979	-3.1646	-3.0687	-2.3667	121.458	-46.659	161.228	-11.386	27.405	23.079	122.308	9.134	134.537	-3.975	-29.796	273.569	-14.231	200.945	145.783	-25.185	0.00014769	0.00042975	0.00017623	744.55	3.9354e-06	3.6211e-06	544.8	302.52	2.3795e-06	5.9103e-06	263.04	116.87	135.85	70.671	2.3733e-06	65.262	0.0011989	0.0017154	0.0004813	729.98	1.6776e-05	1.8119e-05	536.69	299.55	1.6199e-05	1.7451e-05	260.28	117.2	135.62	70.525	1.6915e-05	64.855	178.427	34.048	7.812	-63.840	91.621	65.522	-64.938	-57.817	55.405	128.677	-60.504	-56.088	-54.168	-49.114	60.700	-52.859	-8191	255	
1588.932	1	1	0	0	0.085775	0.28385	0.22439	0.1758	0.083018	0.15551	0.12368	0.31569	0.15148	0.30276	0.14192	0.2446	0.11745	0.20615	0.28294	0.11535	-2.925	-2.5354	-2.4646	-3.4625	-2.4021	-3.0687	-3.1208	-2.4125	-3.0875	-2.7792	-2.6417	-3.4021	-2.6	-3.0208	-3.1083	-2.4875	125.125	35.747	134.264	-26.597	-17.326	-67.555	265.769	260.210	1.018	29.582	211.804	235.573	198.799	278.461	96.647	272.855	0.00017393	0.00053548	0.00012925	740.97	4.4871e-06	4.7671e-06	548.33	304.01	2.5486e-06	7.661e-06	268.42	120.52	139.77	73.443	3.7287e-06	68.676	0.0010899	0.0015565	0.00041865	725.43	1.5196e-05	1.6163e-05	541.63	300.18	1.467e-05	1.6064e-05	264.8	120.02	139.17	73.186	1.5746e-05	68.086	184.969	-10.191	28.318	-63.659	74.192	80.014	-64.692	-57.852	71.404	82.549	-60.570	-56.486	-53.858	-49.283	62.761	-53.143	-8191	255	
1589.028	1	1	0	0	0.039621	0.095477	0.2002	0.1199	0.44872	0.37986	0.17107	0.10495	0.22513	0.18419	0.22117	0.097031	0.14398	0.15945	0.17258	0.17659	-2.8542	-2.725	-2.3125	-3.325	-2.4354	-2.875	-3.2208	-2.4021	-3.1312	-2.9042	-2.4938	-3.3125	-2.5646	-2.8229	-3.2188	-2.4021	37.506	24.850	201.513	217.282	-31.040	4.640	278.969	165.696	186.989	182.528	57.095	214.395	-67.557	-52.861	204.218	14.128	0.00016101	0.00055138	0.00016787	762.13	3.3651e-06	4.0654e-06	560	315.85	2.8341e-06	3.5906e-06	274.61	125.54	147.15	78.266	4.9731e-06	71.681	0.0010432	0.0015028	0.00041887	743.67	1.5159e-05	1.7058e-05	550.32	311.73	1.6114e-05	1.7013e-05	272.46	125.53	146.75	77.975	1.7162e-05	71.192	174.701	12.939	5.428	-63.324	50.214	83.571	-64.797	-57.780	83.200	130.744	-60.526	-56.488	-53.954	-49.269	63.117	-53.317	-8191	255	
1589.099	1	1	0	0	0.028832	0.18979	0.21091	0.10459	0.23306	0.11327	0.097704	0.19688	0.085258	0.15705	0.12434	0.29408	0.22772	0.38756	0.078829	0.20035	-2.7938	-3.0333	-2.2667	-3.4146	-2.7333	-2.8	-3.1979	-2.6167	-2.9417	-3.2333	-2.475	-3.3625	-2.9146	-2.8	-3.2562	-2.4521	36.112	-41.411	37.732	122.971	140.875	271.115	-62.647	281.741	-72.969	267.162	-68.155	-70.226	282.598	-60.587	193.889	140.939	0.00021267	0.00087245	0.0001551	767.51	3.3659e-06	5.6744e-06	559.69	319.02	3.0722e-06	6.3952e-06	276.62	126.22	148.41	78.683	3.6317e-06	71.471	0.0011324	0.001589	0.00045412	754.05	1.642e-05	1.7772e-05	553.13	315.78	1.6357e-05	1.7388e-05	274	126.23	147.88	78.523	1.7784e-05	70.844	177.389	1.210	13.821	-63.483	67.280	62.003	-64.628	-57.831	89.806	83.608	-60.633	-56.213	-54.094	-49.252	110.857	-53.121	-8191	255	
1589.196	1	1	0	0	0.14801	0.06983	0.18197	0.059485	0.14996	0.21092	0.063795	0.1204	0.20906	0.031871	0.12081	0.097504	0.055093	0.38919	0.15796	0.21971	-2.55	-3.075	-2.3333	-3.3292	-2.8458	-2.4562	-3.35	-2.5625	-2.9396	-3.2521	-2.5438	-3.4125	-2.8396	-2.7083	-3.3896	-2.5875	79.732	9.673	24.657	-8.853	265.226	-19.626	102.663	130.478	103.935	50.818	283.815	-42.000	142.691	-62.250	246.269	222.648	0.0002117	0.00062506	0.000121	766.21	4.5546e-06	5.1144e-06	562.61	317.48	4.0266e-06	5.7425e-06	276.2	125.51	146.27	77.327	2.409e-06	70.827	0.0012105	0.0016885	0.00047693	749.73	1.6945e-05	1.9015e-05	551.45	314.5	1.697e-05	1.7881e-05	273.77	125.38	146.17	77.263	1.7265e-05	70.131	183.303	-11.834	14.738	-63.836	62.162	98.334	-64.804	-57.951	55.405	75.427	-60.692	-56.334	-54.445	-49.395	102.484	-53.120	-8191	255	
1589.316	1	1	0	0	0.13979	0.026602	0.10374	0.12942	0.14198	0.24953	0.15664	0.040843	0.16194	0.14556	0.030741	0.15761	0.20725	0.072249	0.064689	0.1382	-2.6271	-3.1188	-2.3563	-3.1604	-3.0021	-2.4833	-3.2729	-2.6625	-2.8292	-3.1813	-2.5438	-3.1125	-3.0292	-2.5458	-3.1354	-2.65	-21.019	249.877	50.366	158.488	46.744	128.800	122.522	91.391	82.385	92.699	201.579	-24.246	221.900	281.776	57.879	227.362	0.0002075	0.00045809	0.00011967	753.79	4.0527e-06	4.7763e-06	550.5	311.68	2.1706e-06	7.0936e-06	265.02	120.96	141.86	74.672	4.2729e-06	67.753	0.0011657	0.0016182	0.00045104	740.88	1.6033e-05	1.8092e-05	542.23	308.27	1.7137e-05	1.7921e-05	264.21	120.91	141.39	74.571	1.7408e-05	67.307	175.715	12.310	-40.624	-63.606	62.440	87.412	-64.724	-57.837	111.787	139.422	-60.307	-56.556	-53.992	-49.243	99.490	-53.093	-8191	255	
1589.412	1	1	0	0	0.15236	0.30693	0.10106	0.26387	0.1767	0.18911	0.082473	0.20892	0.065645	0.097801	0.1368	0.17228	0.2031	0.25163	0.089865	0.1244	-2.3187	-3.1125	-2.4542	-3.1792	-3.0021	-2.4062	-3.2542	-2.7542	-2.4958	-3.2812	-2.4792	-3.0146	-3.1354	-2.4208	-3.3125	-2.9292	153.976	184.507	35.218	239.808	121.945	58.342	87.101	-21.568	-43.017	4.113	-40.290	183.497	241.101	237.520	-31.475	83.242	0.00017569	0.00070976	0.00010025	746.7	3.8116e-06	5.3508e-06	539.96	305.14	5.1428e-06	9.8796e-06	261.53	118.93	139.32	73.67	3.185e-06	66.911	0.0011464	0.0015272	0.00043579	729.02	1.5846e-05	1.7313e-05	530.62	301.48	1.6431e-05	1.7584e-05	259.63	118.63	139.18	73.521	1.6551e-05	66.373	180.236	5.207	2.896	-63.685	67.801	49.706	-64.817	-57.917	77.177	84.439	-60.596	-56.647	-54.106	-49.273	81.930	-53.166	-8191	255	
1589.508	1	1	0	0	0.2766	0.15048	0.2954	0.20494	0.085838	0.29599	0.20786	0.29529	0.10177	0.1417	0.019094	0.078082	0.18638	0.31781	0.099396	0.12521	-2.1354	-3.4208	-2.4938	-2.9417	-3.2083	-2.55	-3.275	-3.0104	-2.5083	-3.1104	-2.5812	-2.8229	-3.3187	-2.5312	-3.0854	-2.8937	142.020	11.535	14.697	225.404	150.716	-61.971	216.017	182.687	22.280	-50.942	161.998	-35.926	-60.743	195.035	-53.005	238.212	0.00021803	0.00085194	0.00022044	734.73	2.455e-06	4.5559e-06	533.32	301.73	3.5436e-06	4.1294e-06	259.86	117.25	138.77	73.177	4.3214e-06	67.233	0.0010944	0.0014609	0.00042951	720.38	1.5042e-05	1.6741e-05	525.88	297.92	1.5759e-05	1.6409e-05	257.88	117.76	138.16	72.942	1.6196e-05	66.665	181.999	17.692	11.821	-63.343	49.071	78.738	-64.498	-57.759	5.576	94.597	-60.489	-56.434	-54.140	-49.458	123.226	-53.193	-8191	255	
1589.605	1	1	0	0	0.20807	0.14886	0.13158	0.10883	0.2658	0.26638	0.22523	0.34165	0.10516	0.15006	0.075112	0.20111	0.3499	0.21984	0.13861	0.18167	-1.8708	-3.125	-2.4354	-2.6146	-3.2083	-2.4354	-3.075	-3.2417	-2.2896	-3.3312	-2.8208	-2.5792	-3.4313	-2.5792	-2.9542	-3.2167	-29.418	-52.096	-45.843	172.169	273.963	-49.118	120.042	-40.715	153.793	60.776	236.057	-52.710	-65.480	-49.799	-62.315	195.863	0.00016785	0.00026992	0.00014136	740.28	3.3469e-06	6.0478e-06	544.32	307.32	1.9296e-06	6.0512e-06	265.15	120.51	141.13	74.919	4.602e-06	68.39	0.0010844	0.0014412	0.0004107	726.46	1.4419e-05	1.5818e-05	535.82	303.53	1.491e-05	1.6383e-05	261.85	120.04	140.68	74.673	1.6554e-05	67.381	175.672	34.933	2.424	-63.484	68.678	67.083	-64.419	-57.743	64.775	99.810	-60.682	-56.582	-54.144	-49.280	93.749	-53.239	-8191	255	
1589.699	1	1	0	0	0.16819	0.12469	0.16617	0.26145	0.19209	0.37782	0.22553	0.16203	0.087989	0.20813	0.16661	0.039782	0.047504	0.38973	0.28182	0.13546	-2.0354	-3.3146	-2.5646	-2.6396	-3.2604	-2.4083	-3.1312	-3.075	-2.2771	-3.1813	-2.7833	-2.6021	-3.1833	-2.5396	-2.7958	-3.1688	66.129	95.490	151.696	74.199	-67.142	238.649	4.764	180.956	119.934	-23.314	-23.323	255.166	-33.423	267.983	-2.422	187.293	0.00021171	0.0010271	8.4732e-05	740.23	3.0207e-06	5.0111e-06	531.75	302.56	1.4096e-06	6.5281e-06	258.46	117.27	138.91	73.861	4.6985e-06	65.983	0.0011064	0.001512	0.00042111	725.51	1.4752e-05	1.6166e-05	526.13	299.93	1.5329e-05	1.5766e-05	255.65	117.11	138.58	73.453	1.6661e-05	65.495	187.502	-12.867	42.959	-63.530	76.143	67.321	-64.326	-57.654	61.108	126.877	-60.427	-56.044	-53.822	-49.130	95.720	-52.660	-8191	255	
1589.795	1	1	0	0	0.098349	0.098262	0.19294	0.14916	0.2217	0.22619	0.23311	0.1661	0.1048	0.26424	0.23964	0.054164	0.2101	0.1277	0.17832	0.10037	-1.9208	-3.1937	-2.9	-2.5729	-3.1583	-2.4833	-2.9917	-3.2917	-2.3563	-3.1146	-2.8854	-2.5187	-3.3917	-2.6167	-2.525	-3.3438	96.310	-60.856	144.431	210.069	207.756	266.993	-61.147	240.809	280.440	93.755	-55.410	69.324	2.319	-29.686	248.147	122.115	0.00017398	0.00063149	0.00010594	733.22	2.7381e-06	7.0999e-06	525.05	299.92	3.7432e-06	4.2552e-06	258.89	117.27	138.23	73.751	3.7469e-06	66.44	0.0011258	0.0015805	0.00042812	718.61	1.5101e-05	1.6654e-05	519.31	296.24	1.5301e-05	1.6235e-05	254.58	116.69	137.85	73.218	1.5208e-05	65.877	173.355	13.854	17.875	-63.725	89.408	73.419	-64.429	-57.649	58.958	101.421	-60.371	-56.063	-53.518	-48.854	56.376	-53.115	-8191	255	
1589.893	1	1	0	0	0.11176	0.1374	0.23762	0.25278	0.13664	0.18419	0.2013	0.21378	0.14964	0.21676	0.04921	0.20885	0.1076	0.086325	0.19593	0.078943	-1.9875	-3.2021	-2.8083	-2.2479	-3.2396	-2.6	-2.6521	-3.3563	-2.3333	-3.1083	-3.0979	-2.4	-3.4354	-2.8479	-2.4646	-3.2917	104.124	185.059	24.507	266.434	176.030	182.140	275.447	224.991	-21.541	180.305	151.824	249.828	-66.490	-12.627	190.458	73.352	0.00017277	0.00075062	0.0001983	735.13	1.912e-06	6.9996e-06	532.91	299.94	3.7203e-06	6.7656e-06	257.28	117.04	138.83	73.553	4.8322e-06	66.978	0.0010265	0.0014025	0.00039242	720.53	1.4185e-05	1.5537e-05	524.16	296.54	1.4424e-05	1.5411e-05	255.7	117.23	138.32	73.243	1.5189e-05	66.331	180.165	10.547	29.524	-63.548	88.199	95.086	-64.366	-57.734	67.641	107.730	-60.566	-56.210	-53.747	-49.104	31.106	-52.825	-8191	255	
1590.012	1	1	0	0	0.14253	0.23698	0.085043	0.17404	0.013295	0.20221	0.19403	0.11086	0.090826	0.13014	0.042016	0.15986	0.12104	0.041508	0.10004	0.17786	-1.8438	-2.9313	-3.0042	-2.3292	-3.2021	-2.5854	-2.6146	-3.3438	-2.3417	-2.7958	-3.0875	-2.3438	-3.1792	-2.7104	-2.5292	-3.3208	66.836	130.952	-11.659	274.405	-8.397	108.846	89.195	109.247	9.701	-63.377	-46.206	239.942	33.545	142.612	-61.298	205.016	0.00020318	0.00069806	0.00012383	733.97	2.5734e-06	3.4548e-06	528.6	298.25	2.9179e-06	6.6813e-06	254.52	115.13	136.25	72.226	2.0774e-06	64.887	0.0010371	0.001395	0.00039039	719.39	1.4361e-05	1.6014e-05	521.16	293.97	1.5133e-05	1.6114e-05	251.57	115.16	135.93	71.935	1.4956e-05	64.45	181.302	33.888	-14.092	-63.342	58.940	48.014	-64.542	-57.370	93.768	91.131	-60.337	-56.150	-53.628	-48.991	46.083	-52.848	-8191	255	
1590.108	1	1	0	0	0.046471	0.14996	0.17311	0.2103	0.14001	0.073626	0.092818	0.14098	0.20358	0.26352	0.32545	0.21314	0.02403	0.14071	0.031727	0.0808	-2.2146	-2.7479	-3.0521	-2.4146	-3.1875	-2.9292	-2.6542	-3.4313	-2.5062	-2.7604	-3.3625	-2.4417	-3.1104	-3.2521	-2.6104	-3.3812	156.571	90.950	52.713	279.010	-15.009	102.296	259.118	-47.349	170.363	-12.835	258.438	108.236	220.815	-43.220	96.330	267.268	0.00015583	0.00032068	0.00010917	721.52	4.6008e-06	6.4285e-06	521.22	293.14	1.2018e-06	4.7609e-06	252.14	113.23	134.05	70.627	4.0326e-06	63.797	0.00099311	0.0013724	0.00038612	706.38	1.4451e-05	1.5594e-05	513.15	288.82	1.5208e-05	1.5594e-05	248.51	113.38	133.65	70.44	1.5936e-05	63.289	182.891	26.613	-8.268	-63.456	68.780	71.982	-64.357	-57.401	124.803	76.081	-60.199	-55.853	-53.259	-48.497	64.690	-52.658	-8191	255	
1590.204	1	1	0	0	0.28337	0.15472	0.1494	0.21151	0.19113	0.15698	0.19456	0.20969	0.12057	0.18911	0.25112	0.24257	0.096261	0.1767	0.11068	0.12749	-2.3146	-2.7313	-3.2208	-2.3646	-3.0833	-3.0667	-2.5062	-3.3792	-2.7854	-2.6417	-3.4083	-2.575	-2.9688	-3.1771	-2.4125	-3.3333	-18.682	222.470	274.716	-66.973	159.430	-50.904	175.066	193.393	237.016	50.844	181.749	212.358	-68.403	175.373	28.413	145.106	0.00021639	0.00037885	0.00014569	712.11	5.0294e-06	3.1588e-06	514.09	287.36	2.0033e-06	5.9131e-06	246.7	111.64	131.87	69.219	4.1514e-06	62.434	0.0010497	0.0014257	0.00040525	698.28	1.3849e-05	1.5226e-05	506.89	284.29	1.4003e-05	1.5268e-05	244.35	111.72	131.05	68.957	1.5072e-05	62.136	167.049	22.098	18.231	-62.908	67.342	43.764	-64.632	-57.713	73.995	90.392	-60.883	-56.716	-53.909	-49.224	131.061	-52.826	-8191	255	
1590.300	1	1	0	0	0.067086	0.15747	0.25131	0.278	0.17536	0.063017	0.19819	0.095907	0.3731	0.27318	0.33821	0.16924	0.052514	0.21587	0.22185	0.18811	-2.425	-2.3187	-3.1479	-2.55	-2.7812	-3.0729	-2.4542	-3.2104	-2.825	-2.3354	-3.3812	-2.5917	-2.9313	-3.4667	-2.4125	-3.2562	6.453	-73.859	-40.627	-74.953	65.547	227.749	155.094	-52.590	53.373	47.489	-68.854	37.813	184.605	-40.748	97.820	259.153	0.00015598	0.00061983	0.00012566	709.15	2.7043e-06	4.4649e-06	509.11	283.14	2.718e-06	3.9077e-06	242.24	109.09	128.53	67.234	3.2131e-06	60.498	0.0010109	0.0014296	0.00038767	692.87	1.4156e-05	1.561e-05	501.75	279.84	1.4332e-05	1.5716e-05	239.52	108.78	127.87	66.973	1.5717e-05	60.1	175.369	7.361	20.590	-63.189	53.158	36.154	-64.592	-57.491	71.544	80.851	-60.160	-56.230	-53.731	-48.607	80.375	-52.865	-8191	255	
1590.397	1	1	0	0	0.15384	0.33087	0.18708	0.24907	0.16511	0.33908	0.15355	0.073068	0.10217	0.18798	0.20137	0.16668	0.18832	0.28547	0.27369	0.10964	-2.4667	-2.3688	-3.3771	-2.5771	-2.5375	-3.1354	-2.4771	-3.1937	-2.9292	-2.1333	-3.4313	-2.9417	-2.5604	-3.3396	-2.3937	-3.1729	-45.781	202.121	-8.789	-48.900	104.158	59.779	40.885	195.223	-73.685	69.584	216.963	265.166	258.403	203.929	137.439	163.514	0.00018298	0.00069787	8.6187e-05	699.84	4.4249e-06	2.512e-06	499.7	277.64	2.759e-06	5.8262e-06	237.19	108.11	128.36	67.809	5.6865e-06	61.189	0.0010093	0.0014548	0.00040248	685.85	1.4795e-05	1.6155e-05	494.1	275.15	1.5063e-05	1.6111e-05	236.4	107.71	128	67.673	1.6144e-05	60.947	180.240	7.362	61.224	-64.236	40.902	83.383	-64.860	-58.073	13.413	74.363	-60.899	-57.033	-54.274	-49.432	100.611	-53.380	-8191	255	
1590.493	1	1	0	0	0.13846	0.12901	0.059413	0.11639	0.21685	0.13876	0.18476	0.14054	0.22979	0.21772	0.07802	0.11341	0.18116	0.09825	0.24559	0.30465	-2.8125	-2.3167	-3.3229	-2.8729	-2.5896	-3.4042	-2.4667	-3.0042	-3.1979	-2.5125	-3.3521	-2.8521	-2.5854	-3.5563	-2.3854	-2.9354	28.799	60.741	117.985	171.497	-33.759	30.714	-5.791	167.068	-28.833	103.213	143.755	173.072	199.926	183.019	141.174	9.191	0.00015789	0.00044323	0.00023982	707.94	2.5898e-06	4.6968e-06	506.93	288.04	1.8706e-06	4.9584e-06	247.59	112.88	135.53	72.103	6.5223e-07	64.627	0.0010956	0.0015799	0.00044597	695.43	1.6795e-05	1.808e-05	502.19	284.85	1.6422e-05	1.8292e-05	245.9	113.45	135	71.972	1.738e-05	64.405	180.851	13.435	9.157	-63.944	45.268	54.596	-65.080	-57.903	80.189	113.116	-60.772	-56.572	-54.153	-49.325	99.522	-53.300	-8191	255	
1590.613	1	1	0	0	0.051375	0.11485	0.34575	0.10285	0.39777	0.056953	0.2907	0.31124	0.11878	0.12011	0.17079	0.10356	0.2709	0.24769	0.032842	0.31	-2.975	-2.3042	-2.9688	-2.9813	-2.5458	-3.4146	-2.5979	-2.7062	-3.3292	-2.3292	-3.1271	-2.9938	-2.4938	-3.3375	-2.4562	-2.825	50.284	158.737	208.955	87.280	48.639	219.505	120.398	227.773	-20.293	214.587	254.570	-50.782	-21.494	231.065	223.118	269.115	0.00019466	0.00051465	9.9664e-05	714.08	3.3692e-06	6.7422e-06	512.51	293.05	2.5044e-06	5.6603e-06	250.91	114.92	136.57	72.767	4.0903e-06	65.11	0.0011167	0.0016221	0.00045517	702.22	1.6597e-05	1.8231e-05	506.54	289.2	1.6618e-05	1.7619e-05	249.59	115.06	136.38	72.556	1.6645e-05	64.665	174.324	26.149	-14.470	-63.846	54.522	48.936	-65.137	-58.117	55.439	57.032	-60.942	-56.890	-53.983	-49.098	58.922	-52.985	-8191	255	
1590.708	1	1	0	0	0.13823	0.14815	0.060714	0.17446	0.27048	0.18286	0.13381	0.1669	0.03068	0.094	0.11995	0.15595	0.31928	0.2674	0.091146	0.25439	-2.8208	-2.4521	-2.9646	-3.0625	-2.4021	-3.4354	-2.7729	-2.6833	-3.3958	-2.5021	-2.9938	-3.2083	-2.3646	-3.2417	-2.6833	-2.7417	-62.801	188.199	208.597	81.772	-22.331	170.985	155.578	18.322	161.105	29.827	280.102	-71.410	-52.979	-37.460	21.147	267.702	0.00019189	0.00062998	0.00021467	710.44	2.9385e-06	6.5593e-06	518.4	290.97	3.4557e-06	8.5739e-06	248.96	112.73	133.04	69.771	5.4345e-06	62.583	0.0010712	0.0015331	0.00041413	697.49	1.5123e-05	1.6036e-05	506.61	286.94	1.422e-05	1.5294e-05	246.6	112.72	132.38	69.591	1.5202e-05	62.268	167.498	26.474	8.067	-63.988	67.393	53.313	-65.009	-57.827	80.349	84.100	-60.409	-56.987	-54.156	-49.166	75.829	-52.857	-8191	255	
1590.804	1	1	0	0	0.31494	0.12316	0.27523	0.19843	0.041148	0.24474	0.17027	0.20453	0.10468	0.31663	0.10887	0.13995	0.13094	0.12515	0.10369	0.0089906	-2.8979	-2.3021	-2.8729	-3.0396	-2.3292	-3.2125	-2.7396	-2.3917	-3.425	-2.6021	-2.8125	-3.2562	-2.4208	-3.1792	-2.8688	-2.4938	32.171	58.169	31.590	170.288	-10.860	246.581	-16.376	219.100	-6.570	-67.885	39.523	-31.005	239.514	268.105	7.407	42.151	0.00019951	6.826e-05	0.00013535	706.71	3.5977e-06	7.0414e-06	512.89	287.34	3.8987e-06	5.6545e-06	248.44	111.9	131.67	69.324	2.0869e-06	62.665	0.0010071	0.0014207	0.00040122	691.48	1.4392e-05	1.5814e-05	503.72	283.86	1.4848e-05	1.5624e-05	246.03	111.76	131.23	68.986	1.4984e-05	62.2	177.846	48.626	14.664	-63.893	-10.271	83.940	-65.210	-58.224	51.817	68.265	-60.842	-56.842	-54.356	-49.434	9.760	-53.171	-8191	255	
1590.900	1	1	0	0	0.21885	0.13409	0.18283	0.043476	0.15327	0.25756	0.26731	0.39719	0.017128	0.13478	0.10361	0.20959	0.1609	0.034666	0.18781	0.22149	-2.9292	-2.5563	-2.8104	-3.3958	-2.3	-3.1312	-2.9979	-2.4021	-3.4062	-2.7583	-2.625	-3.2646	-2.4646	-3.1792	-2.8729	-2.4562	2.601	136.380	-35.713	135.047	168.199	-72.253	133.180	278.856	82.484	34.628	197.660	129.763	280.051	258.074	36.221	182.940	0.00017243	0.00025265	8.2822e-05	705.83	4.4681e-06	4.9537e-06	516.42	286.77	2.0804e-06	3.2734e-06	250.01	111.76	128.76	66.652	1.1403e-06	60.955	0.00097798	0.0013489	0.00037871	690.22	1.3504e-05	1.4853e-05	509.24	283.99	1.3524e-05	1.441e-05	247.13	111.48	128.38	66.371	1.4061e-05	60.549	178.513	-1.694	46.996	-64.040	63.708	80.347	-65.195	-58.079	120.458	79.330	-60.716	-56.811	-54.460	-49.604	42.807	-53.109	-8191	255	
1590.996	1	1	0	0	0.3263	0.16606	0.12997	0.36796	0.098787	0.1698	0.063963	0.10217	0.20025	0.15181	0.1266	0.070398	0.081412	0.27538	0.10751	0.43272	-3.0312	-2.7875	-2.5917	-3.3438	-2.4271	-3.0458	-3.1125	-2.3604	-3.3063	-2.8688	-2.6271	-3.4521	-2.3604	-2.975	-3.2729	-2.4833	-45.316	-66.498	67.138	262.727	17.776	155.657	-8.779	181.857	283.035	12.068	-12.958	126.167	78.057	158.797	0.669	198.695	0.00017628	0.00049817	0.00010621	701.35	2.6762e-06	7.6144e-06	516.49	282.28	4.3964e-06	7.3025e-06	246.38	109.16	126.27	65.12	3.5198e-06	59.99	0.00091232	0.0012892	0.00036157	685.46	1.3143e-05	1.4505e-05	508.77	278.74	1.3898e-05	1.4818e-05	243.88	108.68	125.61	64.816	1.4634e-05	59.534	172.974	2.262	16.221	-64.069	88.682	77.524	-65.003	-58.390	39.937	102.274	-60.661	-56.840	-54.542	-49.302	48.273	-53.222	-8191	255	
#DATA ENDS
