BOXY.EXE: ISS Imagent and Oximeter Data Acquisition Program Version 0.80
Ascii Record File

#ACQ INFORMATION
2  Detector Channels 
16  External MUX Channels 
1  Auxiliary Channels 
5000  Waveform (CCF) Frequency (Hz)
1  Waveforms Skipped 
30  Waveforms Averaged 
1  Cycles Averaged 
16  Acquisitions per Waveform 
10.0806  Updata Rate (Hz) 

#FILE INFORMATION
TRUE -- External MUX Channel results are PARSED.
FALSE -- AC DC and Phase are NOT grouped.
TRUE -- Companion Program Settings File CREATED.
FALSE -- AC data not excluded
FALSE -- DC data not excluded
FALSE -- Phase data not excluded
FALSE -- Auxillary Chn. data not excluded
Tab delimiters

#CALIBRATION STATE
TRUE -- Waveform Calibration Values APPLIED.


#AUX CALIBRATION VALUES
Val Type	aux-1	

Term	1.0000e+00	
Factor	0.0000e+00	


#WF CALIBRATION VALUES
A = Detector Channel
Val Type	A-AC1	A-AC2	A-AC3	A-AC4	A-AC5	A-AC6	A-AC7	A-AC8	A-AC9	A-AC10	A-AC11	A-AC12	A-AC13	A-AC14	A-AC15	A-AC16	A-DC1	A-DC2	A-DC3	A-DC4	A-DC5	A-DC6	A-DC7	A-DC8	A-DC9	A-DC10	A-DC11	A-DC12	A-DC13	A-DC14	A-DC15	A-DC16	A-Ph1	A-Ph2	A-Ph3	A-Ph4	A-Ph5	A-Ph6	A-Ph7	A-Ph8	A-Ph9	A-Ph10	A-Ph11	A-Ph12	A-Ph13	A-Ph14	A-Ph15	A-Ph16	

Term	0.00000e+00	0.00000e+00	0.00000e+00	0.00000e+00	0.00000e+00	0.00000e+00	0.00000e+00	0.00000e+00	0.00000e+00	0.00000e+00	0.00000e+00	0.00000e+00	0.00000e+00	0.00000e+00	0.00000e+00	0.00000e+00	0.00000e+00	0.00000e+00	0.00000e+00	0.00000e+00	0.00000e+00	0.00000e+00	0.00000e+00	0.00000e+00	0.00000e+00	0.00000e+00	0.00000e+00	0.00000e+00	0.00000e+00	0.00000e+00	0.00000e+00	0.00000e+00	0.00000e+00	0.00000e+00	0.00000e+00	0.00000e+00	0.00000e+00	0.00000e+00	0.00000e+00	0.00000e+00	0.00000e+00	0.00000e+00	0.00000e+00	0.00000e+00	0.00000e+00	0.00000e+00	0.00000e+00	0.00000e+00	
Factor	1.00000e+00	1.00000e+00	1.00000e+00	1.00000e+00	1.00000e+00	1.00000e+00	1.00000e+00	1.00000e+00	1.00000e+00	1.00000e+00	1.00000e+00	1.00000e+00	1.00000e+00	1.00000e+00	1.00000e+00	1.00000e+00	1.00000e+00	1.00000e+00	1.00000e+00	1.00000e+00	1.00000e+00	1.00000e+00	1.00000e+00	1.00000e+00	1.00000e+00	1.00000e+00	1.00000e+00	1.00000e+00	1.00000e+00	1.00000e+00	1.00000e+00	1.00000e+00	X	X	X	X	X	X	X	X	X	X	X	X	X	X	X	X	

B = Detector Channel
Val Type	B-AC1	B-AC2	B-AC3	B-AC4	B-AC5	B-AC6	B-AC7	B-AC8	B-AC9	B-AC10	B-AC11	B-AC12	B-AC13	B-AC14	B-AC15	B-AC16	B-DC1	B-DC2	B-DC3	B-DC4	B-DC5	B-DC6	B-DC7	B-DC8	B-DC9	B-DC10	B-DC11	B-DC12	B-DC13	B-DC14	B-DC15	B-DC16	B-Ph1	B-Ph2	B-Ph3	B-Ph4	B-Ph5	B-Ph6	B-Ph7	B-Ph8	B-Ph9	B-Ph10	B-Ph11	B-Ph12	B-Ph13	B-Ph14	B-Ph15	B-Ph16	

Term	0.00000e+00	0.00000e+00	0.00000e+00	0.00000e+00	0.00000e+00	0.00000e+00	0.00000e+00	0.00000e+00	0.00000e+00	0.00000e+00	0.00000e+00	0.00000e+00	0.00000e+00	0.00000e+00	0.00000e+00	0.00000e+00	0.00000e+00	0.00000e+00	0.00000e+00	0.00000e+00	0.00000e+00	0.00000e+00	0.00000e+00	0.00000e+00	0.00000e+00	0.00000e+00	0.00000e+00	0.00000e+00	0.00000e+00	0.00000e+00	0.00000e+00	0.00000e+00	-1.27807e+02	-1.29926e+02	-1.26772e+02	-1.80573e+02	-6.73208e+01	-6.76919e+01	-1.56582e+02	-1.62015e+02	-7.01869e+01	-5.52664e+01	-1.75242e+02	-1.71164e+02	-1.79933e+02	-1.76303e+02	-6.70147e+01	-1.49553e+02	
Factor	2.02714e-05	1.91716e-04	4.79495e-05	1.62367e-01	1.27428e-06	1.92766e-06	1.87826e-01	5.79250e-02	1.30275e-06	1.88192e-06	1.08611e-01	3.63822e-02	2.76640e-02	1.06877e-02	1.58961e-06	1.52523e-02	1.17346e-05	1.91389e-05	5.38533e-06	8.14419e-02	1.92304e-07	2.14576e-07	8.87117e-02	2.92306e-02	1.94660e-07	2.13727e-07	5.29229e-02	1.78944e-02	1.41700e-02	5.42369e-03	2.02256e-07	7.50969e-03	X	X	X	X	X	X	X	X	X	X	X	X	X	X	X	X	



#DISTANCE SETTINGS
A = Detector Channel
A-1	A-2	A-3	A-4	A-5	A-6	A-7	A-8	A-9	A-10	A-11	A-12	A-13	A-14	A-15	A-16	

2.5000e+00	3.0000e+00	2.5000e+00	3.0000e+00	2.0000e+00	3.0000e+00	1.5000e+00	3.0000e+00	3.0000e+00	3.0000e+00	3.0000e+00	3.0000e+00	3.0000e+00	3.0000e+00	1.5000e+00	3.0000e+00	

B = Detector Channel
B-1	B-2	B-3	B-4	B-5	B-6	B-7	B-8	B-9	B-10	B-11	B-12	B-13	B-14	B-15	B-16	

1.0000e+01	1.0000e+01	1.0000e+01	1.4400e+00	1.0000e+01	1.0000e+01	1.5100e+00	1.9400e+00	1.0000e+01	1.0000e+01	1.9900e+00	2.4900e+00	2.4100e+00	2.9000e+00	1.0000e+01	2.9800e+00	




#DATA BEGINS
time	group	step	mark	flag	A-AC1	A-AC2	A-AC3	A-AC4	A-AC5	A-AC6	A-AC7	A-AC8	A-AC9	A-AC10	A-AC11	A-AC12	A-AC13	A-AC14	A-AC15	A-AC16	A-DC1	A-DC2	A-DC3	A-DC4	A-DC5	A-DC6	A-DC7	A-DC8	A-DC9	A-DC10	A-DC11	A-DC12	A-DC13	A-DC14	A-DC15	A-DC16	A-Ph1	A-Ph2	A-Ph3	A-Ph4	A-Ph5	A-Ph6	A-Ph7	A-Ph8	A-Ph9	A-Ph10	A-Ph11	A-Ph12	A-Ph13	A-Ph14	A-Ph15	A-Ph16	B-AC1	B-AC2	B-AC3	B-AC4	B-AC5	B-AC6	B-AC7	B-AC8	B-AC9	B-AC10	B-AC11	B-AC12	B-AC13	B-AC14	B-AC15	B-AC16	B-DC1	B-DC2	B-DC3	B-DC4	B-DC5	B-DC6	B-DC7	B-DC8	B-DC9	B-DC10	B-DC11	B-DC12	B-DC13	B-DC14	B-DC15	B-DC16	B-Ph1	B-Ph2	B-Ph3	B-Ph4	B-Ph5	B-Ph6	B-Ph7	B-Ph8	B-Ph9	B-Ph10	B-Ph11	B-Ph12	B-Ph13	B-Ph14	B-Ph15	B-Ph16	aux-1	digaux	

1763.474	1	1	0	256	0.069793	0.14692	0.11769	0.32451	0.21926	0.080408	0.25716	0.14424	0.13945	0.26168	0.21025	0.24061	0.031752	0.14391	0.32882	0.067891	-2.7062	-2.8167	-2.3063	-3.2604	-2.4188	-2.6312	-3.2417	-2.3979	-2.9958	-2.9167	-2.3125	-3.2604	-2.775	-2.6229	-3.3167	-2.5083	70.150	-47.554	213.771	-50.753	146.142	-37.876	235.657	196.868	54.546	-45.491	8.358	236.903	-38.680	-8.761	69.322	-48.654	0.00022213	0.00050029	0.00030662	860.93	1.6027e-06	1.1849e-05	696.92	336.93	6.3841e-06	9.4876e-06	314.32	140.13	150.81	88.471	5.3602e-06	83.912	0.0021379	0.0031593	0.00088066	849.63	3.2317e-05	3.5482e-05	693.29	334.51	3.2784e-05	3.5205e-05	314.88	141.36	151.68	88.515	3.4388e-05	83.906	179.707	-19.257	14.738	-62.511	137.988	61.048	-63.549	-56.996	29.216	56.467	-59.161	-55.012	-52.824	-48.186	72.796	-51.858	-8191	255	
1763.570	1	1	0	0	0.17782	0.025447	0.085934	0.18287	0.062741	0.18974	0.13562	0.23304	0.3676	0.19223	0.062103	0.34753	0.053734	0.43567	0.099572	0.42991	-2.5104	-2.8438	-2.4333	-3.1979	-2.5875	-2.7292	-3.3271	-2.4437	-2.7854	-2.9208	-2.3521	-2.95	-2.7938	-2.5833	-3.2938	-2.7208	10.131	96.007	193.361	230.770	-38.647	211.926	20.142	141.088	84.805	221.841	-72.330	-57.569	118.499	-42.420	125.692	239.477	0.00021428	0.00066914	0.00025514	869.57	2.5412e-06	5.8649e-06	699.2	341.22	3.546e-06	4.8678e-06	313.99	140.3	151.72	89.572	1.0697e-05	83.586	0.0022055	0.0032284	0.00092269	856.73	3.2934e-05	3.565e-05	697.04	339.5	3.266e-05	3.5358e-05	314.39	141.44	152.66	89.354	3.3447e-05	83.394	175.707	58.617	19.472	-62.731	76.313	79.740	-63.744	-57.105	49.944	-0.879	-59.789	-55.348	-52.766	-48.649	57.946	-52.218	-8191	255	
1763.666	1	1	0	0	0.15999	0.043939	0.19702	0.16198	0.14102	0.22872	0.090671	0.17121	0.37551	0.12284	0.28238	0.087889	0.23208	0.26748	0.097768	0.1468	-2.4917	-2.9646	-2.1167	-3.1083	-2.6917	-2.4854	-3.3021	-2.6396	-2.7917	-3.1583	-2.4875	-3.1667	-3.0021	-2.6292	-3.3625	-2.6063	-45.595	-16.430	212.979	-20.983	16.776	72.937	186.546	280.096	173.065	143.048	30.341	-62.170	-49.951	-69.108	51.729	267.233	0.00026941	0.00082919	0.00010943	856.95	2.919e-06	5.9047e-06	695.32	339.21	1.3035e-06	5.9252e-06	313.84	139.34	150.68	88.618	4.0286e-06	83.215	0.0021408	0.0031282	0.00088343	847.85	3.1667e-05	3.4924e-05	689.84	336.69	3.1762e-05	3.4167e-05	313.64	140.83	151.61	88.618	3.3064e-05	83.245	165.211	17.255	22.282	-62.678	122.303	76.694	-63.880	-56.983	26.427	146.651	-59.538	-55.179	-52.953	-48.587	252.133	-52.151	-8191	255	
1763.762	1	1	0	0	0.21459	0.059052	0.097162	0.21141	0.14632	0.045133	0.2123	0.22278	0.13749	0.031543	0.16564	0.15767	0.0575	0.3726	0.15381	0.36863	-2.3333	-3.0667	-2.275	-3.2042	-2.7708	-2.4792	-3.4208	-2.6458	-2.5938	-3.4104	-2.3375	-2.95	-3.0958	-2.45	-3.2125	-2.7208	-53.220	132.680	222.981	-5.863	173.062	215.165	210.023	277.225	19.605	3.190	157.188	229.772	6.831	250.872	52.351	194.990	0.00025759	0.00065571	0.00026154	854.39	4.9003e-06	5.4867e-06	694.31	336.13	5.2957e-06	1.1563e-05	310.93	138.82	149.1	86.634	5.392e-06	82.977	0.0021002	0.0031073	0.00086374	844.3	3.0874e-05	3.3701e-05	688.94	333.22	3.0761e-05	3.2882e-05	311.75	140.14	149.08	86.539	3.1004e-05	82.558	175.018	-39.302	15.199	-62.539	140.207	117.982	-63.730	-57.225	82.445	73.576	-59.280	-55.106	-53.387	-48.506	30.363	-52.106	-8191	255	
1763.857	1	1	0	0	0.055059	0.13717	0.24789	0.129	0.19802	0.22656	0.021717	0.067833	0.075486	0.15019	0.11112	0.16792	0.15979	0.40075	0.23036	0.14772	-2.1625	-3.2917	-2.2417	-2.9313	-3.1625	-2.3604	-3.2188	-2.7875	-2.5125	-3.2771	-2.5917	-2.8438	-3.1083	-2.4896	-3.1104	-2.7292	17.081	-16.534	257.909	239.817	-40.913	77.765	211.922	162.974	-63.790	69.032	98.790	203.268	220.488	251.448	-15.258	263.609	0.00028308	0.00082253	0.00021443	852.71	7.065e-06	1.0417e-05	693.54	329.79	3.2025e-06	3.9269e-06	307.99	137.02	145.89	85.071	1.9632e-06	80.739	0.0019722	0.0029063	0.00082454	838.84	2.9438e-05	3.3046e-05	687.96	328.3	2.9753e-05	3.233e-05	308.4	137.91	146.46	84.797	3.0687e-05	80.596	166.137	-1.777	71.456	-63.061	80.563	61.230	-63.929	-57.219	59.701	113.545	-59.793	-55.255	-53.258	-48.688	-18.435	-52.336	-8191	255	
1763.955	1	1	0	0	0.17197	0.18307	0.17183	0.13761	0.11729	0.12312	0.13731	0.075518	0.11542	0.06813	0.17483	0.25983	0.095871	0.30905	0.12752	0.15595	-2.0479	-3.2583	-2.5167	-2.9813	-3.0771	-2.3167	-3.1917	-2.8979	-2.3042	-3.3063	-2.5958	-2.725	-3.2042	-2.4333	-2.9542	-2.8917	93.224	216.042	211.691	221.950	191.609	53.721	-12.907	148.096	42.158	-63.480	265.724	178.552	168.268	-63.555	271.626	201.103	0.00022695	0.00090576	0.00018522	837.02	4.0481e-06	2.8886e-06	674.61	325.4	2.6883e-06	8.7407e-06	304.21	135.93	146.32	85.365	6.2779e-06	81.453	0.0019639	0.0029123	0.00082007	826.18	2.9227e-05	3.2507e-05	671.16	324	2.9978e-05	3.1786e-05	304.21	136.82	146.26	84.952	3.0415e-05	81.22	182.162	18.713	45.032	-62.884	86.328	122.951	-64.123	-57.388	104.937	98.426	-59.841	-54.981	-52.871	-48.578	108.326	-52.032	-8191	255	
1764.074	1	1	0	0	0.22036	0.11392	0.25853	0.22936	0.16202	0.20907	0.31394	0.29108	0.34041	0.1718	0.1405	0.048686	0.25356	0.2271	0.10112	0.37225	-1.9854	-3.2521	-2.5312	-2.6729	-3.2854	-2.2625	-2.9208	-3.1958	-2.3729	-3.2875	-2.7479	-2.6	-3.1833	-2.45	-2.9688	-3.1729	282.521	219.756	94.018	279.260	241.853	77.723	168.699	270.827	170.633	-44.415	154.734	282.368	-66.073	-58.421	-2.703	180.927	0.00024199	0.0010276	0.00027084	847.68	1.8123e-06	1.0658e-06	689.7	331.08	3.1691e-06	3.5221e-06	310.43	139.36	148.61	86.874	3.8114e-06	84.112	0.0019181	0.0028697	0.0008122	833.51	2.8903e-05	3.2064e-05	681.51	329.19	2.9298e-05	3.1005e-05	311.06	140.35	149.08	86.826	2.9705e-05	83.737	168.505	21.490	37.810	-62.461	-18.963	39.440	-63.553	-57.213	102.721	95.964	-59.741	-55.004	-53.142	-48.440	70.082	-52.107	-8191	255	
1764.170	1	1	0	0	0.045346	0.067874	0.15247	0.42598	0.059625	0.20678	0.25862	0.23102	0.036706	0.070394	0.31915	0.21625	0.27133	0.27502	0.1234	0.35301	-2.0646	-3.1479	-2.7313	-2.5417	-3.0479	-2.4875	-2.9333	-3.2583	-2.2125	-3.2417	-2.8438	-2.4208	-3.2313	-2.5125	-2.675	-3.3125	-26.345	-15.973	4.727	277.286	280.884	160.449	255.044	252.105	245.008	72.639	-12.327	270.181	255.659	267.667	-12.774	204.961	0.00023827	0.00078687	0.00030507	852.98	4.8161e-06	2.6934e-06	703.71	336.65	7.7136e-07	7.9474e-06	318.96	143.08	151.41	88.606	4.339e-06	84.829	0.0019266	0.002789	0.00079293	841.67	2.8702e-05	3.1133e-05	695.08	333.48	2.9478e-05	3.133e-05	318.46	143.81	151.64	88.458	3.1161e-05	84.618	187.354	-13.566	17.883	-62.517	37.202	113.471	-63.402	-56.948	74.682	99.783	-59.748	-55.381	-52.891	-48.660	86.716	-52.439	-8191	255	
1764.266	1	1	0	0	0.082916	0.18099	0.096353	0.15763	0.26853	0.11594	0.11824	0.15075	0.051313	0.19313	0.14218	0.14277	0.10678	0.3643	0.073648	0.17118	-1.9458	-2.9833	-2.8104	-2.65	-3.2646	-2.5167	-2.7833	-3.2125	-2.4104	-2.9875	-3.0396	-2.2313	-3.3958	-2.6354	-2.6167	-3.2271	216.867	171.499	255.011	168.076	5.861	120.578	219.478	-55.031	-22.824	137.933	98.886	152.456	112.605	-71.968	-20.513	235.897	0.00027775	0.0006051	0.00010962	849.53	4.2459e-06	8.6534e-06	688.92	331.62	4.0931e-06	5.9046e-06	308.67	138.36	147.29	85.588	3.6395e-06	82.383	0.0019642	0.0028307	0.00080878	837.44	2.859e-05	3.1549e-05	684.08	329.24	2.9368e-05	3.1459e-05	309.02	138.94	147.6	85.562	3.0468e-05	82.023	165.988	-50.492	14.549	-62.853	42.042	44.193	-64.344	-57.320	75.338	116.187	-59.677	-55.392	-53.025	-48.912	128.963	-52.268	-8191	255	
1764.362	1	1	0	0	0.13683	0.28278	0.2534	0.051631	0.12898	0.064799	0.035716	0.11602	0.069103	0.21252	0.31189	0.034554	0.30764	0.1199	0.084832	0.14373	-1.9167	-2.9042	-2.9792	-2.4458	-3.3104	-2.7125	-2.6188	-3.2896	-2.3688	-2.8708	-2.9771	-2.3625	-3.3167	-3.0062	-2.7354	-3.5271	87.014	-20.211	188.462	138.548	132.370	62.711	196.513	198.249	79.309	131.913	-46.214	223.758	240.514	177.911	126.811	214.933	0.00022677	0.0011045	0.00015466	841.21	2.8635e-06	1.0114e-05	686.53	324.66	4.2053e-06	4.4451e-06	308.06	136.75	145.64	84.257	3.2806e-06	81.531	0.0019118	0.0027998	0.00078204	827.61	2.7472e-05	3.0988e-05	678.98	324.01	2.8652e-05	3.1447e-05	307.31	138.18	145.58	84.144	2.9734e-05	81.301	180.551	3.994	39.075	-62.584	93.792	87.885	-63.773	-57.228	1.197	34.899	-59.830	-55.018	-53.188	-48.688	105.606	-52.059	-8191	255	
1764.458	1	1	0	0	0.16025	0.13589	0.01051	0.17961	0.012252	0.13474	0.10192	0.34859	0.10128	0.21637	0.088272	0.088501	0.050568	0.21575	0.073591	0.22228	-1.8104	-2.8854	-3.2229	-2.3979	-3.075	-2.8958	-2.6292	-3.3604	-2.4208	-2.7792	-3.2167	-2.625	-3.1771	-3.125	-2.475	-3.2833	3.912	123.194	196.037	279.968	-10.071	163.072	-49.963	216.964	10.706	-6.478	259.767	149.885	110.026	266.609	-29.625	161.755	0.00030144	0.0010141	0.00021274	835.94	6.0445e-06	8.7005e-06	685.5	323.48	2.4941e-06	8.9326e-06	307.59	137.58	142.31	82.332	6.4416e-06	81.328	0.0018816	0.0027724	0.0007689	821.02	2.7774e-05	3.076e-05	677.57	320.98	2.7914e-05	3.0814e-05	307.26	138.19	142.96	82.248	2.8987e-05	80.874	168.648	3.946	22.996	-62.642	76.440	73.840	-64.056	-57.367	105.255	77.716	-59.928	-55.404	-53.168	-48.597	48.201	-52.109	-8191	255	
1764.554	1	1	0	0	0.18558	0.12143	0.19265	0.15377	0.069087	0.09773	0.12468	0.075238	0.082564	0.1354	0.12026	0.11567	0.14646	0.094987	0.18981	0.15541	-2.1125	-2.6646	-3.0625	-2.2958	-3.2792	-2.9	-2.3896	-3.4229	-2.4146	-2.5833	-3.2917	-2.4688	-2.9229	-3.1708	-2.4083	-3.2812	43.483	-46.656	257.213	242.092	-66.998	211.013	264.259	164.203	106.157	-5.248	200.465	211.500	239.919	155.578	173.491	-59.564	0.00028671	0.00073681	0.00023841	830.87	3.7049e-06	5.4312e-06	691.07	320.5	3.7267e-06	1.4144e-06	305.06	136.04	141.91	82.208	4.8718e-06	79.947	0.0018492	0.002685	0.00074856	819.2	2.702e-05	2.9368e-05	679.8	319.14	2.7187e-05	2.9357e-05	304.77	136.66	142.51	81.955	2.8409e-05	79.653	188.187	-11.484	22.667	-62.853	77.860	113.880	-64.032	-57.452	60.522	130.938	-59.549	-55.431	-53.179	-48.842	83.969	-52.237	-8191	255	
1764.651	1	1	0	0	0.23063	0.11668	0.078323	0.20943	0.19942	0.082808	0.086085	0.155	0.19953	0.13361	0.16872	0.023302	0.30204	0.20454	0.099098	0.12852	-2.3937	-2.5083	-3.2333	-2.3583	-2.9354	-3.2313	-2.4354	-3.5625	-2.8312	-2.4354	-3.1667	-2.5958	-3.025	-3.2146	-2.4083	-3.3208	71.450	84.801	62.954	110.038	116.008	144.295	219.172	260.488	17.991	102.661	20.237	-48.340	245.109	263.756	118.725	-41.625	0.00019059	0.00062824	0.00015935	824.11	4.6521e-06	9.902e-06	674.83	320.9	3.7931e-06	5.6477e-06	303.54	135.96	142.03	82.697	3.2834e-06	80.877	0.0018161	0.0026577	0.00074336	812.96	2.7172e-05	2.9831e-05	671.14	318.02	2.7545e-05	2.9567e-05	303.95	136.74	142.56	82.438	2.856e-05	80.483	179.879	18.350	37.742	-62.812	57.367	98.203	-63.908	-57.306	71.731	82.688	-59.546	-55.449	-53.273	-48.627	44.292	-52.177	-8191	255	
1764.747	1	1	0	0	0.25278	0.15106	0.092047	0.032994	0.05979	0.28903	0.24093	0.11297	0.36758	0.18822	0.19673	0.12567	0.22203	0.37155	0.13159	0.13065	-2.5083	-2.5708	-3.2354	-2.6625	-2.6771	-3.0958	-2.2979	-3.1792	-2.8958	-2.4604	-3.25	-2.5542	-2.6896	-3.2729	-2.4708	-3.0687	81.904	261.506	161.704	204.583	167.827	-74.288	211.292	266.333	-65.125	170.978	260.126	212.831	-68.101	274.604	263.254	200.677	0.00019788	0.00036293	0.00023663	831.83	5.2041e-06	8.41e-06	687.57	322.35	7.2206e-06	9.3309e-06	306.39	137.81	142.39	82.597	4.9318e-06	81.38	0.001827	0.0026718	0.00075332	819.93	2.6836e-05	2.9582e-05	679.27	319.41	2.7618e-05	2.9689e-05	307.12	138.11	143.12	82.429	2.9608e-05	80.984	186.517	31.370	-1.434	-62.655	42.982	67.635	-63.659	-57.143	34.697	93.219	-59.817	-55.528	-53.238	-48.827	94.709	-52.404	-8191	255	
1764.866	1	1	0	0	0.14634	0.046907	0.16329	0.27652	0.075178	0.13314	0.062786	0.28646	0.33675	0.08961	0.24354	0.22951	0.13232	0.089809	0.13957	0.19911	-2.6125	-2.3771	-3.2292	-2.7104	-2.6667	-3.2208	-2.3042	-3.0854	-2.9062	-2.4125	-3.1375	-2.6813	-2.6208	-3.4479	-2.2313	-3.1208	111.262	142.527	18.094	226.069	100.260	79.213	-24.477	262.701	115.418	104.648	-27.511	256.861	-17.982	26.811	65.522	-51.986	0.00020158	0.001072	0.00022556	832.89	2.7233e-06	1.0882e-05	686.15	319.86	6.109e-06	7.0609e-06	303.86	134.89	139.83	80.128	6.0864e-06	78.542	0.0018784	0.0027684	0.00077517	819.2	2.8227e-05	3.0562e-05	681.54	316.74	2.8221e-05	3.0612e-05	303.86	135.28	140	80.173	2.9572e-05	78.262	171.525	19.968	13.668	-63.063	121.920	64.101	-64.005	-56.938	86.650	90.278	-59.584	-55.541	-53.519	-48.888	82.993	-52.260	-8191	255	
1764.962	1	1	0	0	0.15477	0.29642	0.10103	0.28371	0.23716	0.071856	0.24598	0.15393	0.14986	0.18562	0.14049	0.37078	0.081281	0.12632	0.031114	0.20866	-2.5771	-2.2875	-3.2208	-2.7042	-2.5542	-3.2542	-2.4813	-2.875	-3.05	-2.2771	-3.2896	-2.7479	-2.6188	-3.3875	-2.3833	-2.8208	10.700	83.829	123.542	222.801	218.739	53.574	50.397	-57.168	-1.714	165.853	216.268	-51.009	234.798	250.068	165.830	253.863	0.00028423	0.0012787	0.00017139	822.65	1.8868e-06	6.7513e-06	667.31	312.22	8.6868e-07	9.04e-06	296.17	132.45	138.59	80.047	3.2971e-06	78.356	0.0018334	0.002704	0.00076602	806.68	2.7638e-05	2.973e-05	664.52	310.06	2.7765e-05	2.9739e-05	297.1	133.09	138.81	79.807	2.8811e-05	78.189	173.202	-13.884	-0.333	-62.925	76.637	34.927	-63.874	-57.287	44.179	99.065	-59.828	-55.853	-53.227	-48.809	28.260	-52.389	-8191	255	
1765.035	1	1	0	0	0.19713	0.10992	0.15452	0.41028	0.44409	0.10158	0.25708	0.035387	0.1169	0.035308	0.26105	0.17774	0.040048	0.12871	0.17734	0.16355	-2.75	-2.3563	-3.1292	-3.1208	-2.4521	-3.2958	-2.6854	-2.6021	-3.1521	-2.3688	-3.0354	-3.0021	-2.4625	-3.3271	-2.5292	-2.5854	254.724	87.187	16.804	259.060	112.935	274.090	200.987	-29.475	244.900	226.033	-17.598	-53.468	-27.401	248.836	-44.042	128.322	0.00027779	0.0004273	0.00018208	814.31	2.8659e-06	5.7351e-06	671.87	310.37	2.9994e-06	5.5659e-06	296.72	131.29	136.45	77.966	8.1938e-06	77.397	0.0018127	0.0026457	0.00073744	802.6	2.6504e-05	2.9315e-05	665.81	307.67	2.7072e-05	3.0039e-05	296.12	131.85	136.2	77.786	2.8012e-05	77.036	184.723	-39.335	16.550	-63.260	102.418	64.751	-64.228	-57.740	11.358	59.881	-59.900	-55.671	-53.599	-48.936	61.953	-52.264	-8191	255	
1765.154	1	1	0	0	0.16553	0.21961	0.11552	0.2217	0.19743	0.17976	0.038599	0.074544	0.37669	0.04669	0.05357	0.23864	0.090429	0.26002	0.17051	0.089877	-2.9542	-2.2958	-3.0521	-3.1146	-2.3187	-3.3708	-2.8479	-2.7021	-3.2979	-2.4208	-2.9875	-3.0458	-2.4313	-3.2542	-2.7333	-2.6125	82.873	92.134	261.046	224.619	-43.125	16.080	267.654	245.136	93.277	-27.873	269.241	-74.477	81.353	273.079	46.816	174.854	0.00019299	0.00061126	0.00011195	814.01	3.4632e-06	6.647e-06	677.31	309.8	6.2248e-07	6.0187e-06	297.82	132	135.7	77.783	5.6473e-06	77.162	0.0017737	0.0025778	0.00071909	799.77	2.6479e-05	2.9379e-05	668.26	307.04	2.6965e-05	2.9941e-05	297.31	132.54	136.13	77.727	2.7881e-05	77.004	184.587	1.181	19.282	-63.272	34.449	106.778	-63.636	-57.445	-28.432	30.734	-59.853	-55.820	-53.404	-48.950	50.672	-52.229	-8191	255	
1765.250	1	1	0	0	0.16757	0.059928	0.32519	0.094058	0.22657	0.069712	0.16413	0.1039	0.21263	0.10576	0.046682	0.33693	0.20641	0.046939	0.18474	0.24792	-2.6854	-2.35	-2.9292	-3.225	-2.3396	-3.1167	-2.7042	-2.4896	-3.2354	-2.4271	-2.6583	-3.2271	-2.3979	-3.2104	-2.825	-2.4583	174.616	279.790	96.929	-51.390	175.359	250.182	-32.847	-54.372	112.035	-69.656	-62.294	-57.223	-21.897	151.395	110.509	-17.008	0.00021144	0.00066727	0.00017798	810.97	1.4354e-06	3.1043e-06	667.8	308.25	2.9378e-06	7.8638e-06	294.21	129.7	136.67	78.714	3.5791e-06	77.192	0.0017616	0.0026327	0.00073523	799.25	2.6521e-05	2.9369e-05	658.88	307.15	2.7363e-05	3.0445e-05	293.34	130.69	137.16	78.611	2.9466e-05	76.818	184.998	27.470	55.878	-62.755	73.078	178.898	-63.596	-57.204	124.034	90.993	-59.730	-55.252	-52.964	-48.709	139.426	-52.421	-8191	255	
1765.346	1	1	0	0	0.16954	0.18664	0.30798	0.11459	0.039019	0.10959	0.086762	0.15397	0.1134	0.19551	0.20213	0.18476	0.31042	0.21276	0.11384	0.2664	-2.875	-2.4646	-2.5167	-3.3542	-2.3	-2.8833	-3.0938	-2.4979	-3.3187	-2.8	-2.4875	-3.3146	-2.4542	-3.1875	-2.9938	-2.3937	-37.971	190.395	242.069	258.801	243.127	110.105	201.729	257.297	278.409	48.271	199.292	217.920	244.095	200.404	178.565	246.672	0.00020499	0.00013571	0.00017124	820.01	3.7093e-06	6.2119e-06	666	317.84	3.1513e-06	6.8664e-06	299.87	132.85	141.57	82.547	4.7641e-06	79.944	0.001869	0.0027859	0.00077614	804.31	2.8715e-05	3.1613e-05	660.69	315.07	2.9569e-05	3.2074e-05	299.75	134.42	141.95	82.405	3.0652e-05	79.747	175.979	-21.340	3.915	-63.009	39.815	74.052	-64.182	-57.182	138.629	127.136	-59.746	-55.223	-53.149	-48.588	110.797	-52.377	-8191	255	
1765.442	1	1	0	0	0.22976	0.1774	0.23758	0.18096	0.13234	0.19049	0.25848	0.13256	0.053654	0.098345	0.11946	0.11882	0.19406	0.28032	0.14253	0.32681	-3.0563	-2.5187	-2.5104	-3.3812	-2.2271	-3.0917	-3.1021	-2.2333	-3.2687	-2.6479	-2.4188	-3.175	-2.3833	-2.9188	-3.0812	-2.3625	103.163	106.120	282.237	197.163	173.109	226.111	82.192	196.986	256.694	112.437	38.770	163.704	283.248	-31.010	-10.383	225.976	0.0002095	0.00077041	0.0002838	828.51	4.7155e-06	6.3339e-06	681.96	325.67	1.4446e-06	4.7689e-06	306.83	136.85	144.27	84.522	4.2739e-06	81.465	0.0019563	0.0028563	0.00081156	816.62	2.8827e-05	3.1851e-05	673.91	322.85	2.8265e-05	3.0828e-05	307.61	137.94	144.71	84.215	2.9205e-05	81.398	176.939	22.877	-1.599	-62.580	95.620	66.622	-63.849	-57.325	37.609	63.171	-59.836	-55.415	-53.394	-48.648	103.982	-52.727	-8191	255	
1765.563	1	1	0	0	0.12602	0.092411	0.16165	0.0058351	0.10862	0.19	0.016722	0.112	0.10441	0.1819	0.19171	0.21668	0.074675	0.28255	0.13236	0.17436	-2.6354	-2.8354	-2.4396	-3.2604	-2.5042	-2.7062	-3.1604	-2.3229	-2.9771	-2.8021	-2.45	-3.3896	-2.6167	-2.85	-3.1854	-2.5771	65.309	239.939	122.528	-33.740	167.624	145.177	147.526	263.308	219.967	167.946	260.381	-30.297	207.819	271.929	61.199	120.063	0.00029063	0.00041116	0.00017716	832.09	2.8904e-06	8.5055e-06	677.28	325.12	1.9773e-06	1.0506e-05	304.79	136.14	143.98	84.011	3.6621e-06	79.755	0.0019041	0.0027578	0.00079906	820.55	2.8408e-05	3.0413e-05	672.42	322.92	2.7632e-05	3.0274e-05	304.43	136.49	144.27	83.879	2.8298e-05	79.85	168.668	55.427	11.031	-62.994	105.886	63.476	-64.162	-57.290	-7.223	70.760	-59.404	-55.223	-53.204	-48.691	22.826	-52.236	-8191	255	
1765.635	1	1	0	0	0.086218	0.14542	0.094024	0.11668	0.34117	0.035532	0.099185	0.16689	0.15477	0.1749	0.18747	0.15212	0.32582	0.31693	0.20109	0.10562	-2.6979	-2.7396	-2.3396	-3.3542	-2.5875	-2.5854	-3.3208	-2.4229	-3.0563	-2.9479	-2.1896	-3.3667	-2.7354	-2.6167	-3.2625	-2.4479	34.986	98.690	273.691	-26.438	280.549	204.755	-52.145	206.485	237.589	106.107	209.067	252.090	259.291	211.323	180.441	166.187	0.00027489	0.00061725	0.00016332	827.54	6.4036e-06	5.0539e-06	675.51	322.39	4.4005e-06	5.9917e-06	304.73	135.31	142.73	82.514	3.5436e-06	79.602	0.0017923	0.0026122	0.00074187	813.14	2.6317e-05	2.8986e-05	666.66	319.36	2.632e-05	2.7978e-05	302.57	135.52	142.71	82.327	2.6422e-05	79.413	178.506	6.456	-0.120	-62.875	92.258	89.742	-64.039	-57.257	89.285	86.889	-59.766	-55.119	-53.235	-48.848	62.634	-52.205	-8191	255	
1765.755	1	1	0	0	0.20179	0.17859	0.061394	0.37423	0.14032	0.29465	0.10613	0.20988	0.19051	0.057025	0.34272	0.076104	0.23268	0.34187	0.3217	0.21003	-2.5208	-2.9625	-2.3375	-3.025	-2.6729	-2.4313	-3.3604	-2.4	-2.5625	-3.0208	-2.2396	-3.2854	-2.8583	-2.4625	-3.2313	-2.5583	162.980	95.289	260.092	243.018	271.132	-33.025	207.952	224.615	26.254	123.921	232.300	166.861	-54.908	202.160	47.704	239.428	0.00025657	0.00094032	0.00010922	818.07	1.3358e-06	1.1635e-05	671.76	316.11	1.1582e-06	7.8036e-06	299.28	133.08	138.89	80.481	4.377e-06	78.428	0.0016851	0.0024983	0.00070412	802.75	2.5185e-05	2.778e-05	662.53	313	2.4761e-05	2.7452e-05	298.84	134.05	139.18	80.101	2.6202e-05	78.097	181.949	2.537	77.834	-62.539	71.363	58.897	-63.834	-57.331	52.037	88.180	-59.630	-55.490	-53.300	-48.782	44.294	-52.311	-8191	255	
1765.852	1	1	0	0	0.029183	0.29965	0.21489	0.23868	0.027581	0.11206	0.054978	0.21242	0.20402	0.072801	0.16999	0.28661	0.21035	0.14315	0.27594	0.31114	-2.3208	-3.0875	-2.3063	-3.0417	-2.8042	-2.5083	-3.1479	-2.6354	-2.6813	-3.1937	-2.4479	-3.0792	-3.0021	-2.5604	-3.1396	-2.5687	240.027	244.520	84.148	150.779	2.453	223.846	-63.748	245.841	203.098	111.519	-33.785	3.365	251.283	-62.018	79.963	171.130	0.00019618	0.00067252	0.00018324	807.42	4.3864e-06	2.3955e-06	664.76	309.59	5.0619e-06	6.571e-06	294.84	130.32	135.65	77.95	7.2943e-06	75.76	0.0016648	0.0024699	0.00070604	794.82	2.5034e-05	2.7816e-05	657.58	307.13	2.4952e-05	2.731e-05	294.14	131.14	135.56	77.706	2.5984e-05	75.631	184.178	-17.651	29.544	-62.853	53.143	187.984	-63.825	-57.231	79.638	129.244	-59.817	-55.348	-53.347	-48.629	141.429	-52.254	-8191	255	
1765.946	1	1	0	0	0.072124	0.08081	0.18032	0.14419	0.15418	0.12382	0.18583	0.22698	0.16995	0.094259	0.29167	0.044152	0.03176	0.23552	0.2435	0.27398	-2.1583	-3.1708	-2.3479	-3.0604	-2.7646	-2.3354	-3.2979	-2.7958	-2.4208	-3.4396	-2.6854	-2.9396	-3.1292	-2.6021	-3.225	-2.5917	266.610	-66.947	18.914	140.978	-15.936	-66.993	270.943	181.153	-5.164	-7.540	231.769	256.511	-55.059	271.697	-62.849	246.678	0.00021654	0.00051946	8.4897e-05	793.6	1.7275e-06	4.7799e-06	651.31	301.87	1.288e-06	8.7353e-06	288.74	128.46	133.84	76.793	2.235e-06	75.529	0.001667	0.0024577	0.00068533	780.14	2.4513e-05	2.7549e-05	641.57	299.91	2.5244e-05	2.7213e-05	287.49	128.46	133.51	76.651	2.649e-05	75.075	177.279	-10.711	58.448	-62.748	76.018	159.453	-63.530	-57.272	119.207	84.312	-59.653	-55.253	-53.531	-48.949	84.710	-52.388	-8191	255	
1766.042	1	1	0	0	0.19598	0.12229	0.27355	0.21631	0.16572	0.15963	0.22114	0.37913	0.26768	0.096068	0.15028	0.21275	0.14937	0.23686	0.13851	0.15315	-1.9667	-3.2042	-2.25	-2.7958	-3.2333	-2.4021	-3.0896	-2.9125	-2.3021	-3.2854	-2.5812	-2.8063	-3.2083	-2.4833	-2.9979	-2.975	214.448	164.810	34.897	187.500	61.516	181.734	195.840	192.401	125.515	144.555	86.209	-60.492	-42.091	261.311	165.078	221.124	0.00019482	0.00077479	0.00020632	798.11	6.0239e-06	3.2542e-06	648.69	302.4	4.9338e-06	8.1449e-06	289.72	128.48	133.74	77.233	5.3398e-06	76.431	0.0017005	0.0024615	0.00071411	781.02	2.5638e-05	2.852e-05	644.79	300.63	2.6725e-05	2.8793e-05	288.85	129.07	133.74	77.035	2.7835e-05	75.821	187.640	12.615	45.366	-63.008	72.592	64.666	-63.961	-57.756	46.249	72.409	-60.207	-55.750	-53.753	-49.224	76.188	-52.593	-8191	255	
1766.163	1	1	0	0	0.34558	0.1117	0.19173	0.17754	0.20567	0.09916	0.04706	0.114	0.018553	0.16412	0.25006	0.15103	0.39521	0.19624	0.14877	0.18492	-1.7313	-3.0708	-2.4104	-2.7021	-3.2083	-2.2833	-3.1813	-2.9146	-2.075	-3.4375	-2.6708	-2.6	-3.3896	-2.5917	-2.8917	-3.1021	79.022	206.355	9.633	252.762	75.651	38.969	245.095	250.357	232.257	33.300	230.083	113.834	271.890	226.917	1.082	219.536	0.00018072	0.00051243	0.00017766	798.89	3.6606e-06	1.4662e-06	660.69	305.77	2.8356e-06	5.9919e-06	294.36	130.63	135.02	77.649	1.7757e-06	76.748	0.0017917	0.0025597	0.00073975	784.16	2.6209e-05	2.9085e-05	653.37	303.22	2.6972e-05	2.8686e-05	294.3	131.62	135.17	77.638	2.7566e-05	76.458	186.136	14.776	1.139	-63.318	107.712	143.986	-64.218	-57.697	54.817	69.511	-60.393	-56.158	-53.687	-49.094	33.646	-52.531	-8191	255	
1766.234	1	1	0	0	0.067063	0.02918	0.32617	0.17693	0.15693	0.071564	0.25244	0.11217	0.28958	0.12365	0.22211	0.163	0.231	0.23358	0.22359	0.28218	-1.7979	-3.3646	-2.8792	-2.5583	-3.2562	-2.3104	-2.8688	-3.2313	-2.3187	-3.125	-2.6562	-2.4062	-3.5	-2.475	-2.7167	-3.3167	-71.815	33.801	145.160	226.547	194.806	55.525	251.712	85.959	28.210	137.650	93.205	-6.688	-38.479	-68.153	-1.911	266.884	0.00025195	0.0010619	0.00011835	790.8	3.3461e-06	7.5289e-06	654.9	300.42	3.6425e-06	6.8156e-06	287.16	127.44	131.7	76.055	5.9675e-06	75.474	0.001754	0.0025229	0.00072585	778.47	2.541e-05	2.8039e-05	647.75	297.43	2.5614e-05	2.7419e-05	286.72	128.05	131.66	75.602	2.6055e-05	74.974	162.819	38.474	1.445	-63.045	146.694	90.042	-63.845	-57.483	61.923	24.430	-59.993	-55.290	-53.187	-48.915	38.385	-52.076	-8191	255	
1766.331	1	1	0	0	0.17412	0.041772	0.22843	0.40104	0.1865	0.1738	0.17359	0.14483	0.0044026	0.12587	0.13409	0.23641	0.17451	0.31436	0.030814	0.19685	-1.7542	-3.1063	-2.6958	-2.5292	-3.0979	-2.4917	-2.8667	-3.3438	-2.2229	-3.0708	-3.0479	-2.3604	-3.2417	-2.7667	-2.5896	-3.5229	222.169	271.626	24.673	251.411	229.414	231.194	61.991	-12.475	-69.206	61.757	161.237	218.403	280.136	210.450	-48.412	233.862	0.00021332	0.00098584	0.00019014	785.58	2.7782e-06	7.3336e-06	657.6	298.88	1.27e-06	7.1407e-06	289.59	127.52	129.82	74.241	3.2376e-06	74.965	0.0016682	0.0023944	0.00067772	773.73	2.3778e-05	2.6097e-05	649.03	295.89	2.3904e-05	2.5745e-05	287.81	128.08	129.84	74.012	2.3781e-05	74.075	185.249	-0.999	14.864	-62.880	96.511	86.490	-63.799	-57.348	70.823	72.024	-59.995	-55.526	-53.359	-48.856	46.792	-52.280	-8191	255	
1766.427	1	1	0	0	0.36256	0.020417	0.10463	0.2529	0.18084	0.25302	0.10265	0.10097	0.13132	0.12661	0.038446	0.17874	0.1755	0.25259	0.13597	0.11015	-2.0333	-3.0771	-2.8854	-2.3937	-3.1583	-2.5208	-2.6708	-3.4083	-2.1479	-2.9062	-3.0875	-2.3146	-3.2583	-2.7	-2.2417	-3.4062	42.136	-41.283	165.086	237.533	135.882	165.874	163.786	278.477	127.145	150.500	201.787	163.226	-57.726	233.431	-40.454	-55.777	0.0002001	0.00072825	0.00020177	769.27	3.6146e-06	5.0155e-06	654.24	286.88	8.8535e-07	4.2103e-06	284.28	124.5	123.02	69.883	6.2241e-06	72.316	0.0015627	0.0022521	0.00061891	757.78	2.2546e-05	2.4699e-05	645.28	284.25	2.2227e-05	2.4311e-05	282.87	124.84	123.3	69.685	2.2524e-05	72.046	172.710	35.237	27.480	-63.424	72.764	92.912	-64.551	-58.190	36.211	78.475	-60.270	-56.024	-53.856	-49.429	64.217	-52.771	-8191	255	
1766.547	1	1	0	0	0.13157	0.077317	0.23947	0.10385	0.10759	0.20688	0.16312	0.24201	0.097913	0.31887	0.20929	0.11149	0.13604	0.021389	0.17117	0.17453	-1.9208	-2.8292	-2.9854	-2.4354	-3.0896	-2.8292	-2.5875	-3.3417	-2.4583	-2.7792	-3.2271	-2.3125	-3.1375	-2.9667	-2.3021	-3.2167	-73.964	144.448	278.998	238.430	159.026	78.221	191.973	-16.029	-8.812	21.614	194.719	98.129	221.159	20.341	105.949	-50.867	0.00021245	0.00026501	0.00015375	762.25	3.9951e-06	7.9364e-06	659.95	283.92	3.5939e-06	4.9382e-06	282.48	123.07	122.48	68.779	7.5284e-07	70.24	0.0014455	0.0020898	0.00057981	748.18	2.1027e-05	2.3309e-05	647.65	280.22	2.1255e-05	2.2889e-05	280.09	123.57	122.19	68.644	2.2437e-05	69.76	179.938	42.062	-12.115	-63.596	85.904	102.059	-63.935	-57.545	-8.967	98.284	-59.881	-55.579	-53.666	-49.551	196.241	-52.854	-8191	255	
1766.643	1	1	0	0	0.2481	0.12858	0.049601	0.37763	0.071439	0.30546	0.28868	0.093232	0.10222	0.1346	0.1536	0.14237	0.0247	0.28883	0.1079	0.31025	-1.9708	-2.6562	-2.8583	-2.5604	-2.9708	-2.9104	-2.4437	-3.3167	-2.4292	-2.5917	-3.2021	-2.4208	-3.125	-3.1354	-2.2917	-3.2	278.276	1.034	41.755	253.424	170.447	189.245	208.680	277.063	-19.549	204.031	148.245	281.812	236.232	-67.747	115.131	244.725	0.00017276	0.00046807	0.00017772	739	2.4867e-06	9.9481e-06	625.52	269.04	3.8844e-06	8.8067e-06	269.35	117.56	117.8	66.664	5.5281e-06	68.845	0.0014355	0.0020623	0.00059729	725.71	2.1443e-05	2.3558e-05	618.91	266.96	2.168e-05	2.3365e-05	268.32	118.09	117.48	66.261	2.2236e-05	68.438	159.339	45.311	20.011	-63.715	63.633	72.537	-64.587	-58.164	124.773	66.651	-60.424	-56.213	-54.017	-49.314	94.268	-52.978	-8191	255	
1766.740	1	1	0	0	0.21737	0.04222	0.17665	0.089399	0.34334	0.14847	0.17047	0.15758	0.322	0.1729	0.1537	0.2853	0.17822	0.1857	0.098889	0.19026	-2.2396	-2.5021	-3.2917	-2.5292	-3.1063	-3.0229	-2.5208	-3.3063	-2.6146	-2.6729	-3.3458	-2.5563	-3.1229	-3.2417	-2.3563	-3.2979	49.993	151.590	-54.700	246.541	214.343	-74.304	143.450	98.407	84.461	40.409	-59.018	261.696	270.969	-64.114	24.492	179.992	0.00022593	0.00020785	0.00020852	743.35	1.1828e-06	4.0389e-06	640.2	271.03	5.7287e-06	7.4939e-06	275.41	120.29	117.73	66.742	2.1242e-06	70.216	0.0014064	0.0020607	0.00056097	727.32	2.0627e-05	2.2179e-05	630.2	268.99	2.0854e-05	2.2283e-05	273.25	120.46	117.77	66.426	2.1979e-05	69.762	186.952	11.303	13.996	-63.393	127.877	84.026	-64.923	-58.208	106.548	95.684	-60.308	-56.076	-53.885	-49.460	14.972	-52.644	-8191	255	
1766.836	1	1	0	0	0.12136	0.059016	0.10261	0.11433	0.1311	0.21298	0.18506	0.13524	0.21279	0.029618	0.09681	0.17298	0.20774	0.10982	0.15496	0.43387	-2.3583	-2.4062	-3.3187	-2.3979	-2.8771	-3.0687	-2.4083	-3.2396	-2.8229	-2.3021	-3.3125	-2.5333	-2.9479	-3.3208	-2.2917	-3.1729	161.713	15.664	-64.333	280.733	-13.418	215.107	191.052	248.620	78.832	163.872	266.565	-51.997	242.534	193.236	-48.258	199.125	0.00020044	0.00052255	0.0002381	750.16	2.1722e-07	9.4615e-06	653.47	281.07	2.7059e-06	8.375e-06	281.65	123.54	121.51	69.482	1.1513e-06	71.548	0.0013889	0.0020315	0.00056069	734.57	2.0422e-05	2.2677e-05	645.74	276.99	2.1169e-05	2.2982e-05	280.6	123.4	121.94	69.171	2.2355e-05	71.112	163.701	-9.950	33.702	-63.311	215.600	60.517	-64.494	-58.075	68.692	71.175	-60.206	-55.924	-53.656	-49.387	243.338	-52.826	-8191	255	
1766.932	1	1	0	0	0.22392	0.065262	0.11609	0.14177	0.14613	0.12961	0.040839	0.0054956	0.13284	0.17256	0.19018	0.084808	0.14301	0.22146	0.061036	0.11654	-2.5708	-2.2521	-3.2021	-2.5792	-2.6771	-3.225	-2.3979	-3.0187	-3.0625	-2.3083	-3.4271	-2.5062	-2.7958	-3.1896	-2.4479	-3.0667	9.269	267.668	-28.174	234.016	-25.459	229.056	1.902	244.015	245.999	157.960	259.152	120.197	154.875	234.581	110.709	270.029	0.00023036	0.00021231	0.00014723	745.72	5.6228e-06	3.5151e-06	645.34	282.58	3.7155e-06	4.7602e-06	286.48	125.13	125.57	71.586	3.5545e-06	73.472	0.0014538	0.0021099	0.00058365	733.53	2.1242e-05	2.3726e-05	636.82	280.61	2.1707e-05	2.3356e-05	283.1	125.63	125.4	71.404	2.2266e-05	73.062	163.702	4.356	48.575	-63.853	90.781	56.373	-64.418	-57.880	29.382	57.703	-60.486	-56.061	-53.654	-49.552	4.847	-53.357	-8191	255	
1767.026	1	1	0	0	0.26319	0.14911	0.08886	0.34102	0.21842	0.077739	0.052465	0.11806	0.21081	0.19053	0.32816	0.12926	0.25983	0.28038	0.04905	0.31609	-2.7188	-2.2271	-3.2417	-2.7979	-2.5479	-3.2458	-2.4875	-3.0042	-3.0583	-2.3854	-3.3208	-2.8771	-2.3958	-3.1583	-2.3	-2.7958	198.802	-63.973	17.880	187.182	102.937	217.158	190.832	181.482	126.721	51.390	180.876	7.812	-52.944	-70.366	88.735	-23.731	0.00021307	0.00073194	0.00020661	752.73	3.3318e-06	9.168e-06	652.33	284.43	3.141e-06	7.8232e-06	284.61	124.91	122.43	69.609	1.687e-06	71.351	0.0014274	0.0020998	0.0005931	737.8	2.1562e-05	2.3927e-05	640.27	280.85	2.1611e-05	2.3591e-05	282.06	124.68	122.4	69.157	2.1836e-05	70.924	173.964	7.063	4.225	-63.758	105.914	67.407	-64.610	-58.370	102.658	63.465	-60.591	-56.089	-54.220	-50.047	83.081	-53.290	-8191	255	
1767.124	1	1	0	0	0.067898	0.17125	0.061775	0.089258	0.055669	0.13103	0.32033	0.14259	0.12306	0.32918	0.12767	0.075975	0.106	0.2785	0.17843	0.084681	-2.8187	-2.3625	-3.1229	-2.9667	-2.5333	-3.2396	-2.6042	-2.9562	-3.0833	-2.2188	-3.1667	-3.1188	-2.3479	-3.3625	-2.7313	-2.5604	-39.327	52.985	82.349	155.154	89.293	-55.292	191.505	-67.420	133.477	18.746	24.898	-7.386	133.681	-61.127	192.011	242.493	0.00020379	0.00053487	0.00010362	735.88	2.872e-06	3.3661e-06	642.8	270.65	4.4282e-06	1.4902e-06	274.73	118.01	114.21	63.79	6.3524e-06	66.741	0.0013815	0.0020295	0.00055507	722.15	1.9909e-05	2.1853e-05	631.35	267.96	1.959e-05	2.1565e-05	271.79	118.37	114.26	63.681	2.0411e-05	66.064	174.814	43.157	22.000	-63.987	45.607	94.176	-64.605	-58.198	72.675	115.160	-60.666	-56.337	-54.252	-50.110	80.208	-53.145	-8191	255	
1767.243	1	1	0	0	0.12168	0.12707	0.058579	0.076165	0.14772	0.073432	0.1609	0.39986	0.18301	0.27773	0.063657	0.25727	0.11548	0.04598	0.1741	0.28632	-2.9771	-2.1458	-3.0646	-3.0646	-2.1604	-3.3229	-2.7729	-2.7292	-3.2062	-2.5	-2.9562	-3.075	-2.2812	-3.2917	-2.6813	-2.65	220.814	150.473	187.844	275.803	278.322	-1.528	-47.792	278.711	7.937	-9.643	86.358	242.467	-60.328	3.576	1.265	231.401	0.00021729	0.00032377	0.00016326	706.42	2.2639e-06	4.9574e-06	612.28	250.85	5.3866e-07	2.818e-06	252.12	107.54	105.03	59.443	3.2305e-06	62.029	0.0012748	0.0018893	0.0005269	692.92	1.9115e-05	2.0727e-05	600.73	249.09	1.944e-05	2.1036e-05	250.23	108.03	105.71	59.055	2.0107e-05	61.494	170.072	88.287	11.492	-63.967	66.530	85.843	-64.399	-58.142	265.660	167.893	-60.635	-56.333	-54.255	-49.668	72.954	-52.879	-8191	255	
1767.339	1	1	0	0	0.17589	0.091099	0.14129	0.22943	0.10599	0.10394	0.20723	0.1852	0.26444	0.13328	0.2079	0.29785	0.10454	0.11982	0.12627	0.1368	-2.9708	-2.3417	-2.9479	-3.0333	-2.1458	-3.1583	-2.7917	-2.4646	-3.4167	-2.5458	-2.675	-3.0812	-2.3896	-3.1417	-2.7375	-2.5354	221.566	156.290	40.553	275.874	186.448	-25.986	-52.341	-72.371	257.993	75.476	-44.692	-31.476	187.238	277.197	17.269	-33.234	0.00017498	0.00058126	0.00019655	697.06	4.6864e-06	7.4603e-06	603.96	247.36	4.0316e-06	4.099e-06	251.11	108.04	105.29	59.68	4.3207e-06	62.506	0.0012813	0.0018104	0.00052073	683.92	1.9069e-05	2.0481e-05	596.17	245.38	1.9073e-05	2.1273e-05	249.79	108.24	105.72	59.065	2.0265e-05	62.123	175.440	18.114	20.789	-63.804	57.333	59.149	-64.660	-58.527	34.781	55.812	-60.672	-56.025	-54.285	-49.721	69.350	-52.939	-8191	255	
1767.435	1	1	0	0	0.16311	0.39891	0.31277	0.26809	0.29876	0.24772	0.0085767	0.29511	0.17125	0.12139	0.089574	0.25908	0.085113	0.14895	0.19696	0.19517	-2.7833	-2.5229	-2.6479	-3.3792	-2.4813	-3.0896	-2.9667	-2.3979	-3.2333	-2.3312	-2.6854	-3.2667	-2.425	-2.9813	-2.9417	-2.3792	115.815	0.987	-27.013	252.773	203.233	276.741	25.281	209.335	-71.305	32.622	170.858	-31.849	213.985	255.043	-70.488	246.573	0.00016981	0.00042155	6.9316e-05	709.27	1.4683e-06	1.92e-06	620.13	254.69	1.8059e-06	7.8103e-06	259.42	112.13	109.91	62.001	2.5911e-06	65.829	0.0013111	0.001888	0.00053709	694.33	1.9255e-05	2.083e-05	609.72	252.05	1.9783e-05	2.1229e-05	257.99	112.67	110.07	61.781	2.0701e-05	65.539	184.606	-26.172	22.794	-63.791	84.789	27.530	-64.769	-58.397	13.811	100.407	-60.909	-56.392	-54.348	-49.947	98.913	-53.211	-8191	255	
1767.532	1	1	0	0	0.10518	0.16561	0.24958	0.28685	0.31402	0.1365	0.23515	0.24939	0.24104	0.06765	0.14265	0.019192	0.12822	0.24153	0.070343	0.16575	-2.8646	-2.3729	-2.5479	-3.3271	-2.3521	-2.9167	-3.1229	-2.4313	-3.1833	-2.8167	-2.6146	-3.4417	-2.5146	-2.8521	-3.0187	-2.4833	1.835	184.861	-22.922	245.966	86.983	186.602	132.509	203.385	-68.396	142.174	-9.159	22.606	281.318	-75.906	25.922	81.449	0.00021393	0.00080402	0.00016942	725.66	2.0453e-06	2.1067e-06	634.71	265.43	2.536e-06	4.6493e-06	267.32	116.38	115.97	65.906	2.2571e-06	68.267	0.0013219	0.0019264	0.00054384	711.95	1.9514e-05	2.083e-05	623.95	262.35	1.9498e-05	2.1002e-05	266.59	116.86	115.94	65.723	2.0475e-05	67.638	172.244	28.465	26.743	-63.821	11.789	99.771	-65.020	-58.424	131.749	87.906	-60.366	-56.320	-54.571	-49.982	122.646	-53.417	-8191	255	
1767.628	1	1	0	0	0.067113	0.22836	0.20827	0.29091	0.27575	0.3159	0.34196	0.14383	0.13732	0.18374	0.28997	0.21441	0.18872	0.11345	0.10451	0.16617	-2.8125	-2.7458	-2.4313	-3.2771	-2.5792	-2.9396	-3.2875	-2.4562	-3.2417	-2.9271	-2.4958	-3.3063	-2.6417	-2.7479	-3.1479	-2.4646	123.625	-61.356	176.466	281.817	85.285	123.986	95.002	260.373	281.504	178.234	136.242	277.266	249.267	273.159	34.464	32.181	0.00016841	0.00059693	0.00011666	731.61	2.7621e-06	5.8684e-06	629.1	266.48	3.6856e-06	7.381e-06	267.62	116.4	115.32	65.248	7.9881e-06	67.55	0.0013224	0.0018952	0.00054649	717.51	1.95e-05	2.1262e-05	620.19	264.09	1.9889e-05	2.1605e-05	265.49	116.39	115.22	64.972	2.0505e-05	67.001	177.339	-55.960	23.798	-63.973	49.272	67.539	-64.785	-58.420	50.915	98.251	-60.763	-56.418	-54.425	-49.946	151.518	-53.413	-8191	255	
1767.724	1	1	0	0	0.08638	0.10147	0.088741	0.19328	0.3489	0.21155	0.13944	0.30059	0.14502	0.16974	0.23204	0.20545	0.15598	0.29912	0.047574	0.113	-2.7771	-2.9437	-2.3708	-3.3833	-2.2458	-2.4729	-3.4292	-2.425	-2.9708	-2.9813	-2.4875	-3.1813	-2.6	-2.7854	-3.1854	-2.6396	126.349	232.396	7.116	84.874	16.766	275.989	132.622	234.555	170.073	101.387	-56.528	234.582	192.390	266.060	-9.853	200.455	0.0002103	0.0010276	0.00013105	729.04	3.9333e-06	3.6259e-06	636.12	269.05	1.4108e-06	2.5374e-06	271.15	117.07	116.01	65.442	4.6283e-06	67.421	0.0013414	0.00199	0.00054334	717.49	1.9913e-05	2.2514e-05	624.46	266.57	2.0028e-05	2.1772e-05	269.16	117.27	115.91	65.156	2.099e-05	67	186.153	14.247	-9.724	-63.563	122.563	62.573	-64.820	-58.446	59.020	87.040	-60.514	-56.255	-54.131	-49.741	57.992	-53.227	-8191	255	
1767.844	1	1	0	0	0.24605	0.22116	0.076242	0.2087	0.28697	0.22133	0.26051	0.074693	0.26498	0.36998	0.092763	0.14373	0.17966	0.1763	0.25734	0.32459	-2.6146	-3.0062	-2.2125	-3.25	-2.4792	-2.4833	-3.4979	-2.45	-2.9542	-3.0396	-2.3833	-3.1479	-2.7479	-2.3896	-3.2604	-2.4646	216.031	-23.844	280.508	261.712	168.646	192.940	177.289	264.057	270.671	10.097	-55.171	251.569	34.009	-12.492	150.817	230.595	0.00018935	0.00061295	0.00015247	733.58	4.8498e-06	9.2641e-06	633.25	271.27	2.7696e-06	9.4659e-07	271.16	118.13	119.33	68.5	2.6565e-06	69.479	0.0013693	0.0019847	0.00056154	719.68	2.0244e-05	2.2582e-05	624.01	268.51	2.0678e-05	2.228e-05	269.8	118.58	119.75	68.229	2.1884e-05	69.12	172.906	33.932	38.235	-63.536	69.859	89.114	-64.503	-57.935	70.749	76.304	-60.580	-56.145	-54.376	-49.612	127.223	-52.877	-8191	255	
1767.939	1	1	0	0	0.20896	0.29807	0.097391	0.19638	0.070524	0.19349	0.11162	0.39153	0.058813	0.20209	0.15347	0.14206	0.20898	0.17008	0.13333	0.1892	-2.4167	-3.1979	-2.2917	-3.2458	-2.8771	-2.3271	-3.2188	-2.5	-2.5708	-3.1792	-2.3333	-3.1729	-2.9417	-2.425	-3.3167	-2.65	87.129	-16.968	-56.223	-20.388	56.098	194.045	-59.439	119.742	230.293	233.341	-48.616	218.323	248.709	147.162	270.681	134.137	0.00020265	0.00021357	0.00024284	753.7	3.3078e-06	6.9333e-06	636.68	285.79	1.5484e-06	4.1259e-06	282.69	124.34	129.04	74.728	6.3164e-06	73.709	0.0014175	0.0020499	0.00057525	738.58	2.1103e-05	2.3497e-05	630.48	283.62	2.1548e-05	2.3156e-05	279.9	124.43	128.85	74.59	2.2502e-05	73.419	191.530	-21.216	-4.451	-63.380	71.276	62.431	-64.342	-57.945	9.074	101.681	-60.291	-55.869	-53.768	-49.324	58.309	-52.585	-8191	255	
1768.035	1	1	0	0	0.049813	0.12052	0.05098	0.24764	0.24156	0.20832	0.33787	0.2096	0.19727	0.059554	0.24528	0.15086	0.073548	0.30831	0.14453	0.26133	-2.2562	-3.3521	-2.4292	-3.1542	-2.9062	-2.3333	-3.3542	-2.7188	-2.6146	-3.2604	-2.6188	-2.8792	-3.1354	-2.4542	-3.2708	-2.8042	190.475	90.766	-31.246	-43.153	249.912	14.462	249.715	112.379	53.886	-29.746	260.290	-9.796	203.714	-72.146	220.061	209.390	0.00013832	0.00063731	0.00020294	776.26	6.084e-06	4.079e-06	653.81	299.19	2.112e-06	2.7874e-06	286.42	126.92	131.73	76.276	6.758e-06	74.604	0.0014581	0.0020796	0.00058899	762.54	2.1468e-05	2.2672e-05	644.71	295.87	2.1269e-05	2.2024e-05	285.89	127.08	131.55	75.811	2.1694e-05	73.939	187.275	36.651	3.779	-63.055	109.162	-16.766	-63.942	-57.416	89.547	75.591	-60.006	-55.650	-53.596	-49.258	99.783	-52.561	-8191	255	
1768.131	1	1	0	0	0.22435	0.225	0.15551	0.16527	0.17825	0.26342	0.23746	0.2324	0.17182	0.12937	0.14974	0.066641	0.36689	0.072304	0.11968	0.14766	-2.2	-3.3083	-2.4458	-2.8521	-2.9521	-2.3104	-3.3083	-2.7583	-2.4396	-3.2208	-2.5167	-2.7979	-3.3625	-2.3792	-3.0854	-2.8146	-35.138	212.024	151.773	-16.534	49.541	-14.915	218.106	263.068	168.016	120.875	-20.895	-74.044	243.914	183.364	100.014	138.998	0.00020285	0.00079113	5.3367e-05	777.49	3.5327e-06	6.1773e-06	652.84	294.27	2.1011e-06	3.6271e-06	283.95	124.24	129.12	73.598	3.6291e-06	72.061	0.001409	0.0019337	0.00057095	761.47	2.0081e-05	2.2186e-05	642.4	291.7	2.0628e-05	2.1491e-05	281.48	124.39	128.44	73.212	2.0647e-05	71.51	176.555	23.792	41.030	-63.041	115.269	78.952	-64.103	-57.852	147.146	141.007	-60.542	-55.918	-53.649	-49.304	13.826	-52.739	-8191	255	
1768.227	1	1	0	0	0.12849	0.34716	0.21017	0.089221	0.062978	0.125	0.091525	0.18249	0.18511	0.15259	0.095892	0.065222	0.31588	0.3243	0.19205	0.12216	-2.1125	-3.3229	-2.3333	-2.9521	-3.125	-2.3625	-3.1562	-3.0896	-2.2917	-3.2583	-2.5292	-2.7875	-3.3521	-2.6854	-2.9333	-3.0354	43.488	59.999	0.792	-53.420	140.884	173.255	36.440	151.400	249.441	4.700	125.732	151.024	237.704	250.430	85.997	207.973	0.00023734	0.00054024	8.1367e-05	770.43	2.3219e-06	5.7013e-06	638.24	294.55	4.1328e-06	4.7846e-06	276.26	121.49	128.36	73.181	5.2426e-06	70.576	0.0013443	0.0019166	0.00054332	757.29	2.0068e-05	2.2132e-05	629.22	290.99	2.0866e-05	2.2372e-05	274.98	121.51	128.18	72.98	2.2072e-05	70.164	169.129	14.376	-8.268	-63.239	123.960	45.734	-63.920	-57.582	96.960	89.317	-60.213	-55.526	-53.306	-48.808	82.613	-52.120	-8191	255	
1768.323	1	1	0	0	0.08272	0.17867	0.089334	0.22471	0.30195	0.1825	0.084062	0.038211	0.076321	0.22353	0.2252	0.13191	0.18346	0.1572	0.077085	0.19847	-2.1188	-3.0042	-2.6458	-2.6688	-3.1854	-2.3063	-3.0104	-3.2083	-2.5354	-3.3729	-2.7354	-2.6375	-3.4021	-2.5563	-2.7438	-3.1688	77.747	249.959	24.798	-2.249	164.728	201.933	-5.687	-6.691	56.773	44.731	163.887	216.824	227.204	187.813	256.122	131.986	0.00012232	0.0011254	0.0001631	767.87	5.1126e-06	4.4758e-06	633.53	295.66	3.1709e-06	2.228e-06	281.36	124.38	132.47	77.108	5.3036e-06	73.903	0.0014444	0.0020798	0.00059343	753.72	2.1165e-05	2.4038e-05	626.25	293.29	2.2567e-05	2.4771e-05	279.88	124.36	132.54	76.741	2.4985e-05	73.658	187.179	8.156	35.374	-62.063	111.358	47.805	-63.317	-56.820	65.537	106.243	-59.196	-55.468	-53.314	-48.973	59.343	-52.429	-8191	255	
1768.420	1	1	0	0	0.024165	0.25761	0.27126	0.062878	0.063562	0.37008	0.10441	0.159	0.16594	0.16596	0.26767	0.2341	0.30756	0.18017	0.23592	0.11105	-1.9396	-2.9938	-2.6708	-2.4417	-3.3479	-2.6625	-2.8063	-3.2917	-2.2354	-3.0917	-2.9104	-2.5854	-3.4167	-2.8271	-2.6771	-3.2562	10.198	63.763	39.966	237.304	-12.068	195.592	87.494	-50.739	28.488	48.424	200.680	250.225	262.263	227.906	149.674	281.771	0.00018158	0.00058251	0.0001686	784.2	2.8183e-06	6.2374e-06	647.17	305.46	3.3653e-06	3.2312e-06	287.8	127.83	136.89	79.528	5.809e-06	75.733	0.0016275	0.0024303	0.00068712	770.72	2.4604e-05	2.7518e-05	640.08	303.66	2.5384e-05	2.7584e-05	287.45	128.47	136.98	79.592	2.6963e-05	75.955	177.603	67.233	36.771	-62.578	60.775	85.917	-63.403	-56.934	91.397	189.047	-59.320	-54.699	-52.717	-48.244	114.157	-51.931	-8191	255	
1768.516	1	1	0	0	0.14626	0.14782	0.10453	0.24304	0.25297	0.12756	0.31737	0.17289	0.15519	0.18403	0.072724	0.27173	0.12334	0.1475	0.094104	0.0836	-1.9354	-3.1542	-2.6917	-2.3958	-3.4292	-2.5812	-2.7625	-3.2292	-2.2854	-3.0625	-3.0312	-2.5125	-3.2687	-2.7646	-2.6479	-3.4833	167.539	252.831	-65.553	222.106	-43.652	-22.022	-65.714	204.944	224.800	165.719	-15.181	-46.295	283.233	243.524	-74.416	154.399	0.00019188	0.00051352	0.00013987	786.84	2.4621e-06	4.8096e-06	644.36	304.72	2.9084e-06	4.8448e-06	283.45	126.39	135.16	79.439	7.913e-06	75.107	0.0017215	0.002585	0.00071688	772.8	2.6012e-05	2.8767e-05	636.08	302.46	2.5901e-05	2.8041e-05	284.75	127.37	135.75	79.318	2.6508e-05	75.041	177.785	-5.177	87.372	-62.315	59.673	105.524	-62.999	-56.564	95.713	50.926	-59.266	-54.925	-52.640	-48.217	41.835	-51.730	-8191	255	
1768.636	1	1	0	0	0.21157	0.10667	0.18508	0.13992	0.12051	0.31379	0.11833	0.27111	0.067301	0.046823	0.29892	0.041576	0.13683	0.196	0.31724	0.30006	-2.1562	-3.0646	-2.9875	-2.4583	-3.3271	-2.7938	-2.6854	-3.425	-2.5229	-2.9875	-2.9271	-2.3396	-3.0875	-2.9521	-2.3646	-3.4313	-23.614	193.165	44.656	248.309	-53.246	89.859	275.441	174.949	174.861	-41.488	-66.452	-61.499	117.505	281.796	38.370	211.462	0.00017376	0.00094568	0.00025473	781.5	6.2204e-06	5.3024e-06	635.43	297.61	4.882e-06	5.916e-06	279.76	123.91	132.44	76.433	6.7378e-06	73.591	0.0016874	0.002457	0.00068591	764.38	2.4542e-05	2.6537e-05	628.21	296.03	2.4365e-05	2.6112e-05	278.83	124.27	132.31	76.423	2.5985e-05	73.387	179.678	1.201	25.209	-62.254	71.649	99.157	-63.325	-56.618	90.995	108.884	-59.461	-54.950	-52.891	-48.298	91.487	-51.553	-8191	255	
1768.733	1	1	0	0	0.19761	0.12742	0.03278	0.26256	0.046448	0.21351	0.081594	0.37041	0.27205	0.32094	0.17828	0.13163	0.36724	0.1022	0.12899	0.078445	-1.9042	-2.7417	-3.2729	-2.5271	-3.05	-2.8542	-2.4917	-3.2833	-2.3937	-2.6229	-3.3917	-2.325	-3.2	-2.9896	-2.3063	-3.2917	240.168	278.345	-7.530	283.880	187.408	-49.526	169.470	243.740	180.440	-24.875	261.419	172.327	-71.993	-1.264	10.957	79.745	0.00019376	0.00064776	4.8721e-05	772.08	2.2286e-06	5.9376e-06	635.24	299.62	3.7057e-06	5.5786e-06	284.54	125.69	133.46	77.474	3.1447e-06	74.751	0.0016938	0.0024306	0.00069285	761.54	2.5211e-05	2.7532e-05	629.93	299.08	2.5726e-05	2.7699e-05	282.77	125.78	133.79	77.397	2.7032e-05	74.23	174.467	27.052	-32.623	-62.045	64.185	21.081	-63.430	-56.370	60.721	109.993	-59.421	-54.814	-52.734	-48.530	81.304	-51.703	-8191	255	
1768.804	1	1	0	0	0.24252	0.039551	0.11675	0.35496	0.16148	0.12049	0.162	0.088846	0.058281	0.085676	0.09045	0.08161	0.19157	0.21224	0.15888	0.18076	-2.3333	-2.4958	-3.1437	-2.3542	-3.025	-2.9938	-2.3312	-3.1542	-2.4417	-2.4542	-3.0958	-2.3187	-2.95	-3.0396	-2.3417	-3.2375	25.336	250.558	152.835	-49.901	149.019	105.845	16.263	-41.181	39.389	258.939	193.649	203.830	240.193	282.842	266.640	235.757	0.00024274	0.00093195	6.0731e-05	781.22	5.1051e-06	4.4659e-06	639.84	302.34	3.3917e-06	8.5934e-06	284.34	125.57	133.62	77.808	2.0461e-06	74.215	0.0017235	0.0025656	0.00071554	767.16	2.5812e-05	2.8924e-05	635.77	301.71	2.6174e-05	2.854e-05	284.58	126.33	134.41	77.832	2.7502e-05	73.952	166.889	7.811	68.424	-62.230	96.069	100.783	-63.403	-56.274	101.200	40.023	-59.684	-55.187	-52.470	-48.023	111.147	-51.678	-8191	255	
1768.925	1	1	0	0	0.31513	0.059755	0.083866	0.24141	0.076619	0.086859	0.19211	0.10419	0.066043	0.080389	0.21574	0.32031	0.32878	0.20075	0.50134	0.074436	-2.2083	-2.4083	-3.1729	-2.5708	-2.9375	-3.1417	-2.5417	-3.2313	-2.7771	-2.3542	-3.3104	-2.6542	-2.7438	-3.2854	-2.2917	-3.3271	266.991	149.903	198.298	195.997	83.196	222.784	280.952	283.303	65.116	-15.782	-48.171	145.697	-68.505	-68.457	88.458	243.832	0.00015722	0.000717	3.4822e-05	774.31	1.5355e-06	9.33e-06	631.37	300.78	4.2178e-06	6.6567e-06	279.51	123.68	132.3	76.998	4.2407e-06	73.102	0.001726	0.0025807	0.00071689	760.88	2.5705e-05	2.8732e-05	625.04	299	2.6118e-05	2.8576e-05	279.99	124.79	133.43	77.107	2.7054e-05	73.099	184.757	-3.457	-4.513	-62.434	45.629	64.641	-63.596	-56.737	75.959	95.816	-59.203	-54.610	-52.448	-48.260	30.115	-51.378	-8191	255	
1769.019	1	1	0	0	0.33287	0.042898	0.20394	0.23127	0.084789	0.18486	0.16305	0.20294	0.088638	0.087525	0.10336	0.099518	0.057716	0.25768	0.11334	0.12151	-2.4104	-2.4896	-3.3417	-2.4688	-2.7062	-3.15	-2.4771	-3.1708	-2.7375	-2.2646	-3.2354	-2.8	-2.6292	-3.3458	-2.3354	-3.1063	115.710	178.377	220.865	268.779	43.695	59.895	129.253	213.485	228.135	227.156	131.690	272.000	227.019	262.854	44.008	227.634	0.00021009	0.00067994	4.8094e-05	767.81	4.1132e-06	3.9846e-06	628.19	297.45	3.5673e-06	7.2427e-06	277.99	122.68	131.29	74.689	5.0379e-06	71.423	0.0016989	0.0026061	0.00069424	756.97	2.5319e-05	2.8016e-05	622.59	294.59	2.5018e-05	2.7982e-05	277.36	123.01	130.74	74.524	2.7597e-05	71.17	186.662	11.388	64.187	-62.212	128.903	101.845	-63.043	-56.747	-33.176	63.649	-59.442	-55.069	-53.043	-48.749	58.782	-51.850	-8191	255	
1769.115	1	1	0	0	0.064647	0.16868	0.11439	0.09832	0.1129	0.24942	0.28405	0.17714	0.085763	0.2342	0.063351	0.16991	0.091041	0.24346	0.063224	0.10054	-2.6021	-2.3542	-3.2	-2.6146	-2.5208	-3.1937	-2.5125	-2.8979	-3.0125	-1.9833	-3.125	-2.7667	-2.5042	-3.2292	-2.3667	-2.9021	260.134	55.320	-67.453	-46.197	-27.217	70.529	200.924	177.387	4.868	171.288	-70.700	195.923	161.907	254.274	71.260	200.863	0.00023716	0.00069151	0.00018781	759.82	2.4429e-06	2.8207e-06	618.44	290.87	1.3834e-06	8.1489e-06	275.64	120.05	128.52	73.319	5.8059e-06	69.854	0.001736	0.0026194	0.00071353	746.32	2.6073e-05	2.9076e-05	614.51	289.2	2.6499e-05	2.9135e-05	274.21	121.25	128.68	73.355	2.894e-05	70.089	174.731	74.565	-2.225	-62.304	127.627	173.349	-63.503	-56.769	234.872	51.035	-59.316	-55.046	-52.720	-48.117	101.198	-51.213	-8191	255	
1769.236	1	1	0	0	0.051368	0.036381	0.40166	0.21939	0.1813	0.18037	0.12556	0.39794	0.12317	0.17115	0.1535	0.038442	0.15578	0.20669	0.07167	0.34566	-2.5854	-2.2396	-3.0667	-2.8104	-2.3146	-3.2792	-2.3604	-2.7625	-3.1813	-2.2875	-3.2583	-3.1125	-2.5229	-3.5208	-2.4292	-2.8063	175.129	11.016	242.687	205.719	211.570	163.162	12.840	-73.127	262.139	260.293	262.281	172.198	251.995	263.909	75.686	204.482	0.00020624	0.00026189	0.0001322	753.13	3.8199e-06	7.9127e-06	607.49	289.12	4.5279e-06	1.0221e-05	270.22	119.34	128.46	74.834	5.1543e-06	71.186	0.0018174	0.0027729	0.00078137	743.79	2.8919e-05	3.0919e-05	605.21	287.99	2.9184e-05	3.11e-05	270.87	120.24	129.52	74.913	3.0339e-05	71.169	178.354	-43.582	-32.240	-62.314	43.005	70.995	-63.577	-56.622	7.856	77.860	-59.152	-55.016	-52.402	-48.306	-0.145	-51.478	-8191	255	
1769.332	1	1	0	0	0.088815	0.15142	0.094607	0.13986	0.072252	0.075496	0.14013	0.11732	0.048238	0.0088605	0.23337	0.16607	0.15067	0.36853	0.27639	0.16469	-3.0125	-2.3229	-3.0271	-2.9833	-2.5792	-3.1937	-2.6979	-2.7771	-3.2042	-2.4479	-3.0312	-3.0417	-2.4229	-3.4	-2.8083	-2.6521	-13.631	-3.466	152.041	-50.798	187.931	86.290	151.400	192.203	-46.859	80.183	189.642	77.132	245.834	-70.432	241.190	-63.299	0.00019625	0.00079693	0.00022089	756.14	5.6929e-06	9.3538e-06	618.49	299.87	3.4821e-06	5.9356e-06	277.41	123.41	134.12	78.422	6.5972e-06	74.205	0.0019199	0.0028438	0.00079268	750.13	2.9034e-05	3.1685e-05	614.88	297.74	2.9931e-05	3.1333e-05	279.7	125.04	135.1	78.662	3.0655e-05	74.211	187.531	75.906	37.835	-61.939	89.708	101.874	-63.035	-56.450	61.115	75.552	-58.850	-54.661	-52.225	-47.962	18.797	-51.812	-8191	255	
1769.404	1	1	0	0	0.11324	0.072973	0.094258	0.11019	0.13376	0.10792	0.36562	0.041344	0.060997	0.18563	0.2788	0.038998	0.1336	0.094637	0.36503	0.12884	-3.0854	-2.2833	-2.9333	-3.0896	-2.1417	-3.1813	-2.7458	-2.5167	-3.1583	-2.4521	-2.9125	-3.0917	-2.4458	-3.4167	-2.7104	-2.6188	0.797	108.078	174.840	-65.206	46.861	99.060	229.791	-10.422	75.400	256.941	213.217	140.799	138.712	216.121	212.814	233.644	0.00020374	0.0012486	0.00023085	768.37	2.9314e-06	4.7655e-06	624.47	303.19	1.325e-06	6.7634e-06	285.01	127.51	136.82	80.148	4.8316e-06	75.809	0.0018857	0.0028047	0.00079671	759.51	2.8853e-05	3.1271e-05	624.2	302.28	2.9185e-05	3.1646e-05	284.61	128.16	137.15	79.943	2.9475e-05	75.382	171.245	3.346	35.429	-62.076	38.470	66.693	-63.338	-56.468	127.710	93.796	-59.379	-54.685	-52.433	-48.304	203.097	-51.701	-8191	255	
1769.524	1	1	0	0	0.25169	0.1473	0.21583	0.043463	0.16189	0.10203	0.1988	0.14754	0.20981	0.07921	0.11612	0.13917	0.13279	0.20474	0.14547	0.14209	-2.8354	-2.3625	-2.8729	-3.2792	-2.25	-3.0958	-2.9979	-2.5458	-3.2562	-2.4729	-2.7667	-3.1583	-2.4646	-3.3292	-2.9	-2.6854	121.148	-15.260	-53.034	282.215	-5.720	10.691	125.206	-63.439	283.038	82.568	-0.165	-3.841	233.940	-63.221	89.402	277.333	0.00023196	0.0003984	9.3957e-05	763.91	2.2558e-06	8.2654e-06	624.08	299.32	2.1055e-06	5.1667e-06	276.89	123.39	132.39	77.628	6.0115e-06	73.392	0.0018646	0.0027629	0.00078065	755.82	2.8214e-05	3.1022e-05	617.42	296.94	2.8459e-05	3.1643e-05	277.82	124.47	133.67	77.884	3.0606e-05	73.301	177.229	-59.641	111.899	-62.121	135.022	56.074	-63.527	-56.529	101.577	105.919	-58.903	-55.041	-52.355	-48.101	120.355	-51.812	-8191	255	
1769.621	1	1	0	0	0.19198	0.03592	0.19381	0.32531	0.32314	0.21429	0.11961	0.24056	0.1778	0.19339	0.15051	0.040585	0.15604	0.13726	0.19504	0.25372	-2.875	-2.5604	-2.6917	-3.1813	-2.4188	-3.0833	-3.0625	-2.5125	-3.2542	-2.6437	-2.6521	-3.5229	-2.5083	-3.1937	-3.0375	-2.5	-0.778	142.711	147.791	256.720	133.083	109.421	166.378	-74.429	101.174	43.112	164.502	10.981	-68.982	-56.300	214.597	227.919	0.00021965	0.00075042	0.00012891	758.32	6.8185e-06	9.3788e-06	617.21	295.92	6.981e-07	8.6876e-06	275.82	122.33	132.36	77.844	1.0665e-06	73.77	0.0018876	0.0028526	0.00079365	746.8	2.7971e-05	3.1787e-05	610.48	294.63	2.8902e-05	3.1787e-05	277.04	123.96	133.61	78.099	3.0282e-05	73.627	180.986	0.337	-39.235	-62.405	109.127	112.152	-63.977	-56.927	246.007	101.836	-58.661	-54.731	-52.587	-48.197	92.408	-51.795	-8191	255	
1769.717	1	1	0	0	0.34039	0.23272	0.33934	0.088841	0.065575	0.15078	0.19102	0.28782	0.069599	0.24803	0.13714	0.14525	0.23373	0.16588	0.086716	0.17126	-2.8354	-2.7604	-2.4562	-3.2958	-2.4521	-2.7562	-3.3958	-2.375	-3.2708	-2.675	-2.5438	-3.2833	-2.5417	-3.0125	-3.0854	-2.4771	-13.979	157.316	110.632	274.745	162.196	228.238	134.801	202.926	-50.825	39.192	-45.227	249.124	-14.811	220.881	270.813	160.091	0.00018918	0.0003242	0.00017682	760.23	4.0045e-06	5.7598e-06	618.79	297.86	6.1546e-06	3.7698e-06	276.13	122.79	132.09	77.24	5.987e-06	73.396	0.0019461	0.0029061	0.00083723	751.15	2.9672e-05	3.3012e-05	613.86	295.86	2.9991e-05	3.283e-05	277.5	124.24	132.97	77.238	3.0943e-05	73.147	175.873	60.063	25.529	-62.106	77.154	86.832	-63.823	-56.704	45.586	121.799	-59.230	-54.841	-52.830	-48.335	57.848	-51.713	-8191	255	
1769.813	1	1	0	0	0.17566	0.11598	0.12982	0.22261	0.10841	0.045193	0.15379	0.17849	0.049772	0.11165	0.06861	0.21797	0.078462	0.22451	0.35398	0.11376	-2.725	-2.9604	-2.4437	-3.4729	-2.4313	-2.7854	-3.2604	-2.4437	-3	-2.9833	-2.6396	-3.3187	-2.7	-2.8667	-3.1771	-2.425	-3.270	77.958	264.457	281.002	3.712	205.173	140.777	15.637	232.681	-26.124	140.311	211.971	159.725	207.379	144.052	231.624	0.00025391	0.00057985	2.1468e-05	763	2.3088e-06	7.4932e-06	616.98	295.28	3.5498e-06	2.8841e-06	273.55	121.74	130.89	76.576	5.477e-06	72.083	0.0019656	0.0029268	0.00083041	749.59	2.9967e-05	3.3381e-05	613.39	294.44	3.0106e-05	3.2316e-05	275.44	123.12	131.68	76.573	3.0354e-05	72.164	164.716	49.445	-6.007	-62.067	208.854	65.142	-63.529	-56.590	253.268	53.701	-59.283	-54.646	-52.476	-48.009	87.506	-51.708	-8191	255	
1769.932	1	1	0	0	0.22514	0.18201	0.15814	0.25941	0.086063	0.045293	0.19845	0.20104	0.26703	0.10706	0.1853	0.25952	0.22492	0.10738	0.10062	0.49128	-2.6854	-3.0396	-2.5062	-3.2583	-2.5771	-2.4646	-3.425	-2.5708	-2.8896	-3.1208	-2.2604	-3.2417	-2.7542	-2.5417	-3.175	-2.5271	-15.223	36.700	-47.536	-52.410	-5.755	-22.748	219.034	196.899	223.246	138.709	227.508	264.477	-73.282	204.695	91.512	155.847	0.00021672	0.00087907	0.00021929	753.75	5.8873e-06	1.6727e-06	612.21	293.18	6.8357e-06	6.2627e-06	274.4	121.86	130.64	76.219	3.9088e-06	71.842	0.0019059	0.0027759	0.00079802	742.74	2.8215e-05	3.1048e-05	609.57	292.54	2.8068e-05	2.9768e-05	275.21	123.05	131.29	76.049	2.8008e-05	71.716	164.406	15.977	7.623	-62.112	53.492	108.601	-63.183	-56.615	73.299	132.394	-58.981	-54.721	-52.375	-48.463	50.089	-52.300	-8191	255	
1770.028	1	1	0	0	0.21469	0.31101	0.20324	0.092473	0.092967	0.16641	0.13963	0.3281	0.040285	0.18862	0.13257	0.16878	0.081204	0.26015	0.25303	0.40863	-2.3542	-3.175	-2.3083	-3.2687	-2.6063	-2.4146	-3.2771	-2.4375	-2.7687	-3.1708	-2.1208	-3.1625	-2.9104	-2.5667	-3.2896	-2.6146	124.955	38.628	154.173	207.923	-22.580	135.083	279.098	-58.626	242.280	86.444	-40.470	209.185	-45.894	53.105	5.307	-58.046	0.00017497	0.00015008	0.00012508	746.46	3.8992e-06	4.8754e-06	607.78	284.55	2.7555e-06	1.4584e-06	270.7	118.95	126.04	72.963	4.149e-06	70.04	0.0017897	0.0025758	0.00073041	735.35	2.6215e-05	2.8225e-05	602.09	283.38	2.599e-05	2.7468e-05	268.93	119.8	126.42	72.831	2.6627e-05	69.956	164.628	42.536	27.142	-62.238	84.786	78.802	-63.548	-56.894	85.519	151.287	-59.380	-54.716	-52.852	-48.481	165.416	-51.644	-8191	255	
1770.100	1	1	0	0	0.14145	0.16558	0.17082	0.20759	0.14446	0.23749	0.20821	0.21991	0.076154	0.12427	0.26557	0.18667	0.14831	0.28348	0.22738	0.089274	-2.425	-3.2438	-2.3771	-3.0021	-2.8333	-2.4271	-3.2896	-2.6125	-2.4958	-3.2958	-2.3604	-2.9083	-3.0187	-2.4917	-3.15	-2.8438	98.236	217.401	275.157	261.352	87.729	-67.326	30.007	240.689	-66.767	-35.194	156.366	196.812	-29.395	237.928	13.819	55.779	0.0001679	0.00050968	0.00012574	741.16	3.0116e-06	4.9159e-06	611.51	284.36	2.1123e-06	3.0836e-06	271.52	120.96	127.69	73.84	1.8829e-06	71.099	0.0017061	0.0024993	0.00070472	729.84	2.5249e-05	2.7748e-05	605.11	283.22	2.5432e-05	2.737e-05	270.68	121.09	127.75	73.705	2.6614e-05	70.757	165.608	31.650	117.469	-62.159	130.274	68.887	-63.489	-57.143	205.413	106.784	-59.375	-54.770	-52.993	-48.475	93.324	-51.817	-8191	255	
1770.197	1	1	0	0	0.17513	0.08525	0.25009	0.12725	0.22665	0.085449	0.069778	0.15832	0.11414	0.29801	0.27878	0.26085	0.33684	0.34038	0.17448	0.21327	-1.95	-3.2229	-2.225	-2.8875	-3.0354	-2.0687	-3.3021	-2.8021	-2.475	-3.0875	-2.3458	-2.5896	-3.1437	-2.5875	-2.9583	-2.8833	-18.803	84.494	252.812	253.796	274.983	-36.503	179.296	51.065	-67.551	79.037	-52.958	206.243	201.574	-54.368	244.783	164.405	0.00023334	0.00072784	0.00018437	746.79	3.2453e-06	1.0646e-05	608.12	290.2	2.7473e-06	5.6365e-06	271.09	120.57	129.56	75.718	1.4938e-06	71.592	0.0017196	0.0025541	0.00071588	736.13	2.6028e-05	2.8807e-05	602.54	288.74	2.6755e-05	2.9322e-05	270.9	121.51	130.03	75.678	2.7305e-05	71.774	186.398	-7.872	-45.091	-62.070	135.974	64.736	-63.310	-56.873	75.742	84.165	-59.547	-54.828	-52.388	-48.287	275.838	-51.619	-8191	255	
1770.316	1	1	0	0	0.24335	0.16979	0.21268	0.17372	0.094184	0.09178	0.14768	0.24973	0.21504	0.16417	0.094213	0.1527	0.21783	0.21741	0.18261	0.081342	-2.1104	-3.1958	-2.4917	-2.775	-3.0375	-2.2354	-3.0812	-2.95	-2.4292	-3.2729	-2.5687	-2.525	-3.2458	-2.3458	-2.9188	-3.0146	-47.051	24.085	275.325	188.538	240.534	276.027	258.913	212.545	-6.755	128.859	73.013	-45.164	272.527	-57.435	148.909	23.974	0.00023987	0.00095029	5.3103e-05	750.67	4.1386e-06	6.9836e-06	608.71	294.04	3.6925e-06	6.1509e-06	276.23	123.07	132.45	77.968	1.3381e-06	73.694	0.0017543	0.002644	0.00072807	741.78	2.6562e-05	2.9654e-05	604.94	292.73	2.7749e-05	2.9892e-05	274.78	123.87	132.92	77.785	2.7924e-05	73.453	182.894	21.563	54.781	-62.500	31.773	96.176	-63.681	-56.768	37.408	104.853	-59.164	-55.361	-53.128	-49.054	223.228	-52.525	-8191	255	
1770.413	1	1	0	0	0.22419	0.13782	0.11164	0.051393	0.10549	0.13227	0.082285	0.16047	0.35317	0.18737	0.051931	0.13988	0.075615	0.057349	0.13804	0.17863	-2.0208	-3.1875	-2.6167	-2.5667	-3.025	-2.375	-2.8563	-3.0708	-2.2417	-3.1021	-2.7125	-2.6208	-3.2104	-2.4104	-2.8875	-3.1792	-73.840	158.674	-18.677	-15.861	32.101	258.123	136.029	236.953	227.232	222.717	-40.456	262.560	129.774	205.516	254.708	-32.761	0.00015769	0.00047588	0.00021868	760.02	3.039e-06	2.925e-06	614.75	298.44	3.1071e-06	1.0703e-05	278.27	124.53	133.15	77.823	4.4367e-06	73.764	0.0017551	0.0025583	0.00071153	746.42	2.5305e-05	2.8872e-05	610.37	295.33	2.594e-05	2.8375e-05	277.76	125.09	133.32	77.691	2.7307e-05	73.435	190.578	-3.424	45.349	-62.686	61.428	215.019	-63.775	-57.277	80.413	109.934	-59.596	-55.159	-52.773	-48.639	114.126	-51.981	-8191	255	
1770.509	1	1	0	0	0.2651	0.28032	0.18277	0.35342	0.032767	0.33882	0.12543	0.28058	0.17239	0.027264	0.12148	0.07964	0.17619	0.15038	0.080932	0.26786	-1.8708	-3.0312	-2.6937	-2.4938	-3.3146	-2.3625	-2.6354	-3.1208	-2.2917	-3.1771	-2.7292	-2.3042	-3.3583	-2.5729	-2.8312	-3.2625	212.643	247.893	175.722	261.894	256.625	171.053	235.368	196.399	225.474	274.609	51.339	-47.284	269.273	163.466	48.053	163.965	0.00013729	0.00043307	0.00032014	748.06	5.4649e-06	9.1473e-06	604.59	290.88	4.4609e-06	5.6332e-06	269.8	121.1	130.54	76.46	6.8359e-06	72.346	0.0017276	0.0024952	0.00069499	738.48	2.4845e-05	2.7215e-05	602.16	289.71	2.4839e-05	2.7182e-05	270.81	121.68	130.6	76.177	2.6886e-05	71.849	194.359	19.482	19.559	-62.015	44.042	75.950	-63.320	-56.979	82.993	65.546	-59.881	-54.931	-52.873	-48.771	74.284	-52.176	-8191	255	
1770.605	1	1	0	0	0.20667	0.09336	0.11751	0.29405	0.18928	0.24787	0.30659	0.31907	0.35464	0.18215	0.15484	0.12459	0.096561	0.12736	0.19013	0.074343	-2.0708	-2.9333	-2.675	-2.2979	-3.325	-2.3	-2.8125	-3.2	-2.2083	-3.1167	-2.9104	-2.3583	-3.4062	-2.6646	-2.8187	-3.25	51.806	234.782	78.277	202.238	227.922	267.268	242.656	201.074	91.626	259.539	235.600	-61.215	-11.521	259.984	91.829	99.785	0.00018562	0.00082506	0.00022377	746.83	4.3129e-06	7.2836e-06	604.5	292.43	4.1737e-06	5.2987e-06	273.42	122.74	131.73	77.653	3.0395e-06	73.09	0.001689	0.0024549	0.00068665	734.31	2.483e-05	2.6873e-05	599.76	290.12	2.5051e-05	2.687e-05	272.46	123.04	132.34	77.577	2.6935e-05	73.054	169.130	13.361	2.513	-62.430	48.206	83.856	-63.514	-57.318	35.450	95.368	-59.471	-55.012	-52.665	-48.540	59.275	-52.090	-8191	255	
1770.701	1	1	0	0	0.063049	0.094904	0.087591	0.12858	0.11311	0.28227	0.22801	0.18851	0.048142	0.12531	0.06684	0.14731	0.2853	0.23259	0.11245	0.054386	-1.8875	-3.0083	-2.9708	-2.4979	-3.0333	-2.5854	-2.6125	-3.3854	-2.3917	-2.9708	-3.0083	-2.3292	-3.2229	-2.975	-2.3604	-3.2958	-20.319	275.264	-34.987	24.212	51.312	42.005	262.143	15.275	263.718	211.204	223.220	94.190	-64.887	212.635	95.522	172.359	0.00024309	0.00051819	6.1022e-05	749.87	3.2407e-06	5.1168e-06	608.1	295.07	1.6037e-06	8.4286e-06	277.79	123.96	134.07	78.502	4.1675e-06	74.085	0.0016899	0.002478	0.00070262	740.44	2.5155e-05	2.7524e-05	605.65	294.18	2.5592e-05	2.7425e-05	276.76	125.04	134.31	78.702	2.7115e-05	74.16	179.809	-13.747	1.907	-61.873	83.433	72.847	-62.916	-56.498	108.400	51.765	-58.995	-54.617	-52.440	-48.388	32.150	-51.808	-8191	255	
1770.797	1	1	0	0	0.032924	0.22538	0.11812	0.24781	0.029266	0.19637	0.26141	0.25866	0.082201	0.31278	0.17879	0.30136	0.23006	0.14089	0.03925	0.22126	-1.9917	-2.75	-3.1583	-2.3646	-3.0104	-2.7	-2.5521	-3.3604	-2.3458	-2.7188	-3.1667	-2.3167	-3.1417	-2.9458	-2.4417	-3.3458	187.444	149.791	64.492	252.923	78.404	244.958	268.943	262.637	94.409	-35.750	-19.858	-51.652	-32.443	228.557	129.241	148.859	0.00023955	0.00059482	0.00020996	744.45	3.2984e-06	6.2032e-06	603.57	294.99	4.0267e-06	1.0347e-05	273.18	122.29	131.96	78.18	1.5913e-06	72.667	0.0017166	0.0025105	0.00071614	742.4	2.5607e-05	2.8609e-05	603.8	294.43	2.5957e-05	2.8598e-05	274.21	123.39	133.66	78.324	2.7486e-05	72.943	163.124	-4.290	-25.338	-62.111	111.936	43.027	-63.207	-56.352	78.033	72.212	-59.371	-54.500	-52.424	-48.227	144.567	-51.525	-8191	255	
1770.918	1	1	0	0	0.23877	0.10948	0.24094	0.077792	0.11382	0.073331	0.10069	0.19756	0.23587	0.13754	0.046669	0.12545	0.33829	0.28099	0.174	0.24165	-2.1542	-2.6333	-3.0646	-2.2542	-3.1063	-2.9979	-2.3208	-3.3271	-2.6396	-2.5792	-3.2042	-2.425	-3.0333	-3.1021	-2.2646	-3.1979	67.113	27.962	222.026	107.562	217.571	-59.599	-55.774	230.454	146.379	202.214	140.098	133.554	-59.988	285.321	155.202	192.771	0.00020911	0.0009615	0.00019397	743.5	3.1681e-06	5.1927e-06	597.81	292.26	4.102e-06	5.4518e-06	269.35	120.74	130.18	76.998	1.3905e-06	71.803	0.0017553	0.0026324	0.00072895	735.62	2.5949e-05	2.8771e-05	595.2	291.82	2.6832e-05	2.8637e-05	270.69	122.09	131.82	77.262	2.7528e-05	72.292	164.015	28.441	51.953	-61.887	87.147	31.804	-63.186	-56.351	80.578	64.192	-59.115	-54.589	-52.103	-47.973	103.660	-51.256	-8191	255	
1771.012	1	1	0	0	0.13342	0.14809	0.08109	0.11808	0.3311	0.18566	0.18572	0.18971	0.20605	0.10378	0.29654	0.15433	0.078253	0.2099	0.33959	0.24873	-2.2896	-2.4938	-3.2938	-2.4354	-2.9562	-3.0104	-2.4354	-3.2708	-2.7896	-2.6396	-3.3792	-2.3854	-2.9188	-3.2604	-2.2667	-3.3146	45.316	-15.381	-40.684	-59.863	262.562	229.147	210.866	245.883	218.838	-69.826	132.108	39.958	159.521	251.306	129.867	184.159	0.00020397	0.00042445	0.00023781	737.14	6.2243e-06	4.9932e-06	593.19	287.22	3.2642e-06	8.7381e-06	267.44	119.53	129.27	75.054	4.5801e-06	70.904	0.0017159	0.0025945	0.0007109	732.71	2.5415e-05	2.8297e-05	593.33	288.84	2.5622e-05	2.8021e-05	269.4	121.32	130.19	75.679	2.6836e-05	71.296	185.401	41.804	-35.746	-61.916	56.774	97.330	-62.709	-56.115	53.788	80.922	-58.637	-54.353	-52.091	-47.947	70.562	-51.594	-8191	255	
1771.108	1	1	0	0	0.15559	0.15287	0.17838	0.27713	0.30148	0.20535	0.28306	0.078017	0.25473	0.14376	0.2523	0.12303	0.19053	0.29407	0.17678	0.18878	-2.3021	-2.3	-3.2021	-2.55	-2.6271	-3.2479	-2.4333	-3.2354	-3.0021	-2.3708	-3.3146	-2.5687	-2.7854	-3.3688	-2.2167	-3.1521	65.741	-1.284	-14.782	-8.488	111.290	108.755	276.843	-41.415	221.243	168.387	200.170	217.014	171.096	-53.380	203.142	214.190	0.00023532	0.00038932	8.5845e-05	736.36	3.5272e-06	7.285e-06	596.89	287.97	4.9237e-06	3.6225e-06	268.4	118.95	128.09	74.698	5.8334e-06	70.385	0.001693	0.002522	0.00070657	731.54	2.5492e-05	2.8111e-05	597.46	288.1	2.5937e-05	2.8005e-05	270.62	121.23	130.05	75.503	2.6957e-05	71.048	180.052	9.813	179.200	-61.939	137.973	39.841	-62.827	-56.041	0.967	88.214	-58.845	-54.475	-52.119	-47.705	58.921	-50.952	-8191	255	
1771.204	1	1	0	0	0.070698	0.095773	0.0825	0.10511	0.30023	0.16751	0.05333	0.051969	0.24537	0.34628	0.1724	0.041492	0.27669	0.10679	0.32453	0.089202	-2.6333	-2.4938	-3.1875	-2.6229	-2.7146	-3.3917	-2.45	-3.0771	-3.0062	-2.2833	-3.2062	-2.6188	-2.675	-3.3625	-2.3792	-2.9771	113.443	207.936	100.138	65.342	161.759	185.422	40.768	141.406	16.662	-23.967	-59.403	28.736	270.763	232.751	118.534	254.911	0.00015569	0.00056078	0.00011723	741.34	4.5737e-06	8.992e-06	590.54	286.37	3.9718e-06	1.728e-06	264.41	117.16	127.59	73.706	3.7219e-06	69.04	0.0017281	0.0025938	0.00073826	734.88	2.6133e-05	2.8933e-05	591.72	287.77	2.6199e-05	2.8377e-05	267.08	119.22	129.15	74.443	2.7806e-05	69.825	177.654	19.203	-19.952	-61.657	17.264	97.329	-62.872	-55.997	75.116	117.410	-58.657	-54.340	-52.007	-47.729	70.145	-51.115	-8191	255	
1771.325	1	1	0	0	0.18256	0.094936	0.1346	0.14036	0.094284	0.26711	0.14462	0.2534	0.10632	0.28439	0.2599	0.21382	0.14317	0.17787	0.35032	0.073909	-2.8896	-2.2854	-3.0667	-3.0187	-2.7083	-3.4708	-2.5583	-2.9062	-3.2313	-2.3125	-3.2	-2.8312	-2.4917	-3.3896	-2.5625	-2.8271	88.037	78.854	176.554	208.623	112.627	-64.391	166.394	243.563	282.377	237.566	-22.795	-72.709	285.382	272.481	114.174	229.136	0.00020195	0.00064215	0.00010592	737.02	3.5182e-06	6.845e-06	588.19	286.12	2.5147e-06	1.0731e-05	263.83	115.53	125.05	71.407	7.5967e-07	66.783	0.0017423	0.0025556	0.00072883	734.06	2.6301e-05	2.8559e-05	590.71	286.92	2.6787e-05	2.8682e-05	264.97	117	126.36	71.582	2.7479e-05	66.995	159.956	-25.495	23.938	-61.771	94.877	72.016	-62.780	-56.521	67.874	107.108	-58.715	-54.458	-52.296	-47.811	262.266	-51.248	-8191	255	
1771.397	1	1	0	0	0.11702	0.14729	0.078032	0.18531	0.24865	0.066388	0.22488	0.13997	0.182	0.029257	0.17208	0.20603	0.080665	0.61363	0.26689	0.15149	-2.9375	-2.2604	-3.0875	-3.1188	-2.4542	-3.2917	-2.6958	-2.7313	-3.2875	-2.3604	-3.0771	-2.9188	-2.5479	-3.3479	-2.65	-2.7875	257.229	33.247	172.162	202.725	55.016	245.570	108.917	250.477	186.294	-61.532	81.802	224.597	-47.171	272.949	174.220	277.692	0.00019778	0.0002364	0.00010791	738.53	1.578e-06	8.3971e-06	589.4	280.23	1.6969e-06	5.369e-06	259.22	111.32	118.15	65.886	8.0085e-06	62.99	0.0017214	0.0025834	0.00073548	732.69	2.5763e-05	2.8355e-05	588.46	279.6	2.5813e-05	2.809e-05	260.09	112.71	119.79	66.175	2.7787e-05	62.809	170.389	19.369	15.758	-62.113	209.850	103.075	-63.062	-56.698	55.010	74.455	-59.355	-54.810	-52.594	-47.810	90.963	-51.515	-8191	255	
1771.493	1	1	0	0	0.075008	0.08296	0.28445	0.1618	0.39638	0.2432	0.050885	0.28618	0.10814	0.13476	0.22763	0.11744	0.083047	0.20791	0.1221	0.22459	-2.7854	-2.375	-2.9938	-3.0563	-2.2375	-3.0604	-2.5271	-2.7188	-3.2438	-2.5125	-2.8646	-3.1125	-2.3187	-3.4021	-2.625	-2.5333	241.574	196.501	116.832	185.861	146.667	-74.462	268.797	-59.064	58.854	27.561	191.146	135.730	225.799	257.344	174.087	264.613	0.0001551	0.00029423	1.8346e-05	747.73	2.2895e-06	9.838e-06	595.16	279.96	2.023e-06	8.9875e-06	257.45	110.3	119.49	66.289	2.7941e-06	63.041	0.001724	0.0026109	0.0007264	735.3	2.6114e-05	2.8167e-05	590.15	277.03	2.6115e-05	2.8818e-05	257.91	111.19	119.66	66.211	2.7969e-05	62.97	175.167	-2.384	9.273	-62.697	58.293	64.365	-64.242	-57.777	4.351	94.675	-60.045	-55.618	-53.524	-48.716	72.102	-52.183	-8191	255	
1771.589	1	1	0	0	0.085793	0.1749	0.11453	0.13492	0.20798	0.14914	0.13819	0.36061	0.14411	0.31891	0.29119	0.19282	0.40635	0.075519	0.26101	0.16746	-2.9625	-2.3771	-2.75	-3.2333	-2.2313	-3.1125	-2.8417	-2.4938	-3.2271	-2.4125	-2.7396	-3.1625	-2.4938	-3.2687	-2.9021	-2.625	-8.318	31.712	242.112	167.418	24.393	-62.966	270.013	-60.547	279.329	192.562	204.879	194.779	-54.442	222.912	59.303	282.984	0.00018338	0.00072132	0.00016587	754.1	3.1781e-06	2.9858e-06	597.24	280.44	1.4808e-06	7.4973e-06	257.46	109.96	119.05	65.473	6.6267e-06	62.806	0.0017489	0.0026582	0.00074917	739.13	2.7573e-05	3.0538e-05	590.54	278.78	2.7736e-05	3.1059e-05	258.48	111.21	119.25	65.609	2.9677e-05	62.545	179.560	12.137	35.748	-63.175	73.424	95.380	-64.095	-57.542	133.878	79.793	-60.310	-55.387	-53.670	-48.764	62.598	-52.554	-8191	255	
1771.710	1	1	0	0	0.069566	0.20979	0.20906	0.22032	0.092251	0.17241	0.20298	0.14156	0.09732	0.16213	0.10014	0.18766	0.2325	0.029293	0.1693	0.13314	-3.0854	-2.7292	-2.5458	-3.2896	-2.4125	-2.9188	-3.0438	-2.4562	-3.2479	-2.6813	-2.5187	-3.3479	-2.4062	-2.9667	-3.1521	-2.5417	135.039	213.756	-74.955	272.612	233.767	35.699	27.060	-25.332	124.411	0.612	-74.315	269.224	-75.492	78.397	23.711	187.657	0.00019096	0.00033286	0.00020018	741.35	6.7209e-07	4.3113e-06	593.55	276.66	1.837e-06	5.5539e-06	255.93	109.38	116.81	65.052	3.2066e-06	62.461	0.0018914	0.0028463	0.00080045	732.35	2.8676e-05	3.2397e-05	589.89	275.54	3.0774e-05	3.3924e-05	257.78	111.07	118.17	65.081	3.484e-05	62.562	178.275	84.121	25.721	-63.277	265.130	55.356	-64.520	-57.733	277.853	78.328	-60.209	-56.025	-53.720	-48.752	66.342	-52.170	-8191	255	
1771.804	1	1	0	0	0.14891	0.13561	0.19484	0.47749	0.24787	0.17515	0.03681	0.05042	0.3947	0.30828	0.26706	0.090276	0.13404	0.28923	0.023211	0.18841	-2.8812	-2.7979	-2.5167	-3.3396	-2.4708	-2.8521	-3.3146	-2.3083	-3.225	-2.6208	-2.6	-3.3417	-2.625	-2.95	-3.1125	-2.625	68.295	208.959	17.942	-61.926	100.932	135.792	-72.893	92.711	41.360	210.412	-63.443	242.963	80.756	-38.790	-11.554	-40.680	0.0001403	0.00076544	0.0001294	739.26	5.1102e-06	3.6149e-06	587.34	273.1	5.4193e-06	9.6342e-06	252.63	107.57	115.41	63.941	6.0422e-06	61.248	0.0021359	0.003259	0.00092668	733.02	3.3014e-05	3.6689e-05	586.84	272.72	3.3314e-05	3.5524e-05	254.16	109.29	116.53	64.035	3.4353e-05	61.33	184.068	-10.105	7.907	-63.591	33.978	78.964	-64.363	-57.952	55.094	40.576	-60.177	-55.752	-53.924	-48.656	76.955	-52.171	-8191	255	
1771.900	1	1	0	0	0.15373	0.19677	0.15791	0.31362	0.1863	0.079017	0.088348	0.28286	0.14654	0.067747	0.5063	0.095648	0.27857	0.33585	0.076317	0.31077	-2.7708	-2.8937	-2.2208	-3.425	-2.6	-2.7292	-3.2125	-2.5729	-3.0875	-3.0854	-2.4542	-3.3917	-2.7979	-2.8229	-3.3146	-2.4313	224.491	19.209	211.799	242.263	214.762	131.600	234.868	221.946	-4.782	-7.221	71.001	-61.195	273.351	242.970	281.886	192.269	0.00018536	0.0005704	0.00011691	730.26	5.6832e-06	5.5083e-06	579.29	269.9	1.6877e-06	2.5425e-06	249.45	107.56	115.3	64.25	1.571e-06	61.906	0.0020759	0.0031443	0.00091521	724.36	3.2055e-05	3.5523e-05	577.59	269.86	3.227e-05	3.5174e-05	251.3	108.91	116.18	64.346	3.36e-05	61.978	168.695	68.087	22.707	-63.235	96.938	93.880	-64.547	-57.816	88.888	74.785	-60.082	-55.596	-53.499	-48.830	165.898	-52.151	-8191	255	
1771.998	1	1	0	0	0.077592	0.13799	0.23599	0.045804	0.50274	0.15355	0.23172	0.26137	0.22825	0.18154	0.038926	0.29627	0.17448	0.27918	0.14108	0.076754	-2.8083	-2.8792	-2.2771	-3.1792	-2.6854	-2.6646	-3.425	-2.5062	-3.1021	-3.1792	-2.4646	-3.3896	-2.7938	-2.7396	-3.1708	-2.5229	33.793	242.709	250.339	283.534	60.662	2.550	248.492	212.888	12.858	243.387	82.252	200.462	180.464	-28.580	109.493	61.845	0.00018591	0.00072918	0.00011204	736.96	3.9191e-06	8.3224e-06	585.89	276.05	1.4223e-06	5.2903e-06	256.36	110.41	118.96	66.954	3.2888e-06	64.547	0.002068	0.0031593	0.00089771	730.12	3.2754e-05	3.6827e-05	587.77	275.67	3.396e-05	3.6985e-05	258.91	112.37	120.2	67.271	3.4637e-05	64.698	172.277	42.487	13.820	-63.289	135.318	78.525	-64.531	-58.068	145.238	98.461	-60.176	-55.465	-53.498	-48.490	55.172	-52.347	-8191	255	
1772.093	1	1	0	0	0.33928	0.2557	0.18754	0.089883	0.25538	0.1965	0.18004	0.126	0.072824	0.29171	0.13427	0.19609	0.18148	0.37885	0.35176	0.043878	-2.6292	-3.2708	-2.3625	-3.1708	-2.8646	-2.3729	-3.2458	-2.6521	-2.8521	-3.2625	-2.2417	-3.1292	-3.0625	-2.5479	-3.1792	-2.6688	81.074	229.584	6.263	164.848	-52.516	-59.272	131.122	-62.733	147.273	135.879	-51.932	189.231	234.389	183.968	261.870	-47.170	0.00016871	0.00063406	7.9842e-06	747.94	1.5295e-06	6.9902e-06	603.68	284.01	4.0318e-06	8.888e-06	261.62	113.31	122.19	69.2	9.8006e-06	65.652	0.002134	0.0032486	0.00090937	740.89	3.1991e-05	3.6152e-05	598.42	282.32	3.3538e-05	3.7018e-05	264.07	115.3	123.22	69.264	3.4627e-05	65.923	180.926	11.771	-58.345	-63.001	14.673	76.245	-64.553	-57.853	38.634	125.818	-59.808	-55.828	-53.663	-48.748	48.949	-52.462	-8191	255	
1772.189	1	1	0	0	0.31796	0.17834	0.42974	0.32663	0.16305	0.086336	0.09906	0.11479	0.19552	0.093761	0.16011	0.20579	0.13623	0.15274	0.20888	0.20435	-2.3563	-3.0833	-2.2979	-3.1979	-2.8479	-2.2854	-3.1083	-2.6875	-2.675	-3.25	-2.3958	-3.0958	-3.1083	-2.5417	-3.2167	-2.6646	113.722	-3.448	145.018	-53.500	55.097	221.588	-63.749	201.323	73.885	190.685	218.646	-65.416	209.007	240.228	79.247	193.841	0.00021276	0.00058326	2.3182e-05	745.55	3.5869e-06	5.902e-06	591.71	280.74	3.3142e-06	3.4691e-06	257.82	112.54	121.68	68.904	1.853e-06	65.781	0.0021193	0.00322	0.00090154	739.2	3.2533e-05	3.6827e-05	590.54	280.19	3.2964e-05	3.625e-05	260.17	114.15	122.41	69.063	3.3714e-05	65.733	183.520	11.519	-41.440	-63.098	62.378	93.150	-64.007	-57.609	156.236	116.240	-60.010	-55.818	-53.366	-49.092	90.715	-52.740	-8191	255	
1772.285	1	1	0	0	0.2169	0.067307	0.22295	0.2241	0.20405	0.070406	0.05951	0.28994	0.061569	0.18696	0.13213	0.1594	0.057907	0.13988	0.13135	0.17828	-2.1896	-3.1188	-2.5312	-2.9396	-3.0604	-2.3708	-3.2896	-2.6188	-2.3917	-3.3104	-2.375	-2.8833	-3.1625	-2.075	-3.1312	-2.7396	221.296	179.194	202.894	198.735	14.920	-10.045	55.763	235.423	-70.775	17.565	-40.677	196.475	38.632	-29.319	24.071	28.880	0.00016175	6.0283e-05	0.0002846	749.49	5.2886e-06	4.8533e-06	597.09	281.06	2.7766e-06	9.1722e-06	260.2	112.92	120.99	67.912	4.0605e-06	65.031	0.0021162	0.0032051	0.00088794	738.28	3.2168e-05	3.6216e-05	591.95	280.2	3.1332e-05	3.3991e-05	261.3	114.16	121.71	68.136	3.1917e-05	65.123	181.378	236.153	36.445	-63.086	81.855	32.292	-64.313	-57.829	4.164	145.151	-60.295	-55.680	-53.823	-48.926	59.728	-52.569	-8191	255	
1772.405	1	1	0	0	0.27608	0.10034	0.25082	0.31534	0.085123	0.041262	0.27705	0.36205	0.12051	0.099475	0.19551	0.14713	0.19266	0.077874	0.094406	0.28432	-2.1375	-3.1771	-2.325	-2.8021	-3.1604	-2.4625	-3.1562	-2.8875	-2.3458	-3.3333	-2.3958	-2.6917	-3.2583	-2.35	-3.1396	-3.0354	230.070	97.400	-17.933	221.992	154.598	91.802	276.962	181.742	46.160	-54.230	279.078	-26.911	225.484	146.090	251.288	264.314	0.00021596	0.00096736	9.8974e-05	741.73	2.2081e-06	3.5105e-06	593.01	275.18	3.2913e-06	5.4067e-06	258.37	111.69	118.44	66.211	3.8703e-06	64.281	0.0019813	0.0029964	0.00083234	731.15	2.9645e-05	3.2541e-05	590.06	274.22	3.0187e-05	3.2674e-05	259.04	112.96	118.95	66.315	3.0258e-05	64.196	188.713	43.312	-41.933	-63.025	46.977	95.398	-64.055	-57.746	58.639	65.217	-60.459	-55.757	-53.827	-49.005	2.004	-52.359	-8191	255	
1772.502	1	1	0	0	0.094504	0.17876	0.13573	0.095638	0.26947	0.095006	0.23613	0.19974	0.14204	0.15141	0.24067	0.24236	0.18775	0.28963	0.1313	0.28177	-1.8958	-3.3292	-2.4542	-2.8042	-3.1479	-2.2875	-3.1771	-2.9938	-2.6146	-3.1958	-2.4792	-2.6604	-3.3	-2.4292	-2.9542	-3.2354	277.453	74.539	134.652	17.311	83.270	202.091	-20.503	72.609	-18.171	-71.353	-34.341	225.499	227.425	232.615	124.262	94.768	0.00015549	0.00090741	0.00026526	741.53	3.4975e-06	9.071e-06	589.56	275.23	3.0661e-06	2.7626e-06	254.99	110.27	118.17	66.376	7.2139e-06	63.5	0.0018954	0.0028683	0.00081516	729.85	2.9893e-05	3.2867e-05	587.48	273.79	3.0897e-05	3.3659e-05	256.17	111.6	118.7	66.195	3.2746e-05	63.515	169.394	29.623	35.887	-63.387	113.810	114.150	-64.171	-57.776	29.959	69.795	-60.077	-55.446	-53.575	-48.871	73.028	-52.632	-8191	255	
1772.598	1	1	0	0	0.07658	0.18232	0.28747	0.15865	0.23684	0.24984	0.10482	0.19832	0.19979	0.085857	0.26305	0.065305	0.13299	0.25074	0.18105	0.07413	-1.8771	-3.2375	-2.7375	-2.6271	-3.2562	-2.3937	-2.5708	-3.325	-2.3583	-2.9375	-2.8583	-2.5438	-3.4562	-2.4333	-2.8	-3.2021	-45.054	-40.529	109.383	-4.359	265.760	67.085	-66.454	245.771	210.619	256.807	184.428	-28.843	68.449	182.216	-26.161	26.079	0.00019188	0.00046503	0.00023586	736.61	5.6977e-06	1.15e-05	590.34	277.59	3.2215e-06	4.4198e-06	258.47	112.8	121.72	68.879	4.9731e-06	66.063	0.0020768	0.0031242	0.00090484	729.52	3.3329e-05	3.7233e-05	589.58	276.7	3.4676e-05	3.7099e-05	261.03	114.57	122.59	69.119	3.6891e-05	66.347	175.106	31.104	11.937	-62.954	60.757	71.726	-64.225	-57.455	142.997	75.160	-60.505	-55.471	-53.331	-49.140	104.732	-52.584	-8191	255	
1772.694	1	1	0	0	0.065546	0.17257	0.25307	0.18382	0.06971	0.086785	0.28862	0.11009	0.29903	0.42004	0.05073	0.063698	0.034559	0.21614	0.17113	0.31809	-1.9583	-3.1188	-2.8354	-2.5167	-3.3833	-2.5083	-2.8333	-3.3063	-2.3292	-3.0396	-2.9229	-2.4208	-3.4125	-2.8583	-2.5687	-3.375	13.249	35.553	39.874	202.105	71.240	70.826	-69.791	190.748	208.697	196.825	138.712	115.395	121.706	212.085	220.858	181.479	0.00025643	0.00041304	5.4109e-05	751.07	8.0491e-07	5.4653e-06	602.2	285.89	6.0948e-06	6.5816e-06	266.17	116.9	126.29	72.085	6.2004e-06	68.627	0.0022892	0.0034186	0.00097565	743.28	3.5447e-05	3.9377e-05	600.46	285.94	3.5993e-05	3.9529e-05	268.98	118.66	127.46	72.365	3.7759e-05	69.028	173.943	57.370	6.921	-63.028	269.036	46.033	-64.349	-57.461	42.943	17.313	-60.014	-55.469	-53.283	-48.734	103.665	-52.227	-8191	255	
1772.790	1	1	0	0	0.19417	0.15481	0.063324	0.30702	0.070868	0.25642	0.23683	0.088453	0.21778	0.28926	0.11614	0.26524	0.27079	0.11299	0.13057	0.12995	-1.9625	-2.9708	-2.9833	-2.4604	-3.1104	-2.6875	-2.5583	-3.2375	-2.4854	-2.7667	-3.1562	-2.5229	-3.4125	-2.8792	-2.3021	-3.5125	167.225	270.997	-68.304	267.665	109.487	-19.479	197.327	205.911	56.963	26.214	61.506	178.178	254.942	225.153	-57.854	100.819	0.00019711	0.00094846	0.00019212	756.74	4.5603e-06	1.1442e-05	605.26	288.88	1.7067e-06	7.4608e-06	266.19	116.46	126.57	72.504	5.2753e-06	68.258	0.002371	0.0036821	0.0010144	751.38	3.6258e-05	4.0369e-05	605.17	288.89	3.6494e-05	4.0329e-05	269.04	118.47	127.62	72.622	3.7859e-05	68.541	181.559	-3.559	-20.362	-63.252	74.277	70.452	-63.997	-57.747	-46.078	63.846	-60.269	-55.675	-53.497	-49.062	-6.797	-52.414	-8191	255	
1772.884	1	1	0	0	0.1246	0.03825	0.23287	0.17641	0.10768	0.080366	0.14255	0.18586	0.20798	0.14991	0.13948	0.050434	0.12946	0.17527	0.30606	0.15746	-1.9188	-2.8771	-3.1854	-2.3646	-3.1083	-2.75	-2.5583	-3.275	-2.3875	-2.9021	-3.325	-2.3167	-3.0687	-2.9521	-2.3104	-3.3854	167.332	65.257	-19.902	219.538	230.250	105.479	197.130	268.379	151.838	150.750	98.548	61.800	211.398	229.228	44.215	-34.917	0.00022544	0.00075559	0.00016979	754.75	4.7959e-06	1.0791e-05	599.11	288.72	3.9301e-06	5.9325e-06	264.73	115.94	124.94	71.561	4.6521e-06	67.188	0.0023129	0.0035564	0.00098031	747.56	3.476e-05	3.8505e-05	599.09	286.91	3.4041e-05	3.6979e-05	266.27	117.35	125.74	71.508	3.4594e-05	67.687	179.255	59.566	40.782	-62.779	80.704	115.269	-64.051	-57.404	60.333	107.166	-59.821	-55.639	-53.598	-49.104	6.662	-52.850	-8191	255	
1773.005	1	1	0	0	0.18672	0.12367	0.253	0.15759	0.21088	0.40378	0.29165	0.023369	0.20109	0.14624	0.12183	0.2211	0.14417	0.10023	0.17563	0.28238	-2.1604	-2.5375	-3.1792	-2.3958	-2.9813	-2.975	-2.5542	-3.525	-2.7667	-2.5708	-3.3396	-2.6021	-3.0417	-3.1396	-2.4646	-3.3063	216.232	140.461	-52.079	35.077	191.609	128.113	279.755	182.592	7.826	235.318	45.690	127.517	222.319	135.503	110.256	278.429	0.00017432	0.00035297	0.00012876	747.53	5.5049e-06	1.1601e-06	605.07	283.37	2.4567e-06	1.6501e-06	262.5	116.2	123.09	69.496	3.7188e-06	67.148	0.0020955	0.0031833	0.00087996	741.5	3.0508e-05	3.3478e-05	599.69	282.19	2.9811e-05	3.2567e-05	265.22	117.07	123.79	69.765	3.1436e-05	67.129	164.956	31.873	40.600	-63.475	94.301	83.488	-64.562	-57.926	-73.653	38.718	-60.186	-55.835	-53.644	-49.077	66.514	-52.498	-8191	255	
1773.101	1	1	0	0	0.11111	0.16989	0.15814	0.078487	0.29522	0.14041	0.10691	0.28316	0.14587	0.26917	0.14564	0.11992	0.31424	0.020257	0.090926	0.23152	-2.4667	-2.4625	-3.2292	-2.3667	-2.8771	-2.9562	-2.2792	-3.1646	-2.7646	-2.5167	-3.3688	-2.5438	-2.9542	-3.3688	-2.2188	-3.1958	179.053	71.535	119.894	122.185	205.644	257.524	-26.864	201.446	81.891	258.647	260.351	111.835	280.142	-35.293	278.261	238.976	0.00022207	0.0011585	6.4995e-05	752.38	5.425e-06	5.5487e-06	607.18	282.12	1.7767e-06	9.1372e-06	264.71	114.35	121.26	68.724	6.2056e-06	66.699	0.0019516	0.0028861	0.00081794	740.84	2.9045e-05	3.2161e-05	602.82	280.85	3.0109e-05	3.2416e-05	264.49	116.06	122.29	68.764	3.1066e-05	66.549	183.091	11.645	-41.896	-63.202	11.282	27.368	-64.228	-57.853	-15.234	91.135	-60.189	-55.816	-53.794	-49.106	92.642	-52.356	-8191	255	
1773.197	1	1	0	0	0.12293	0.091904	0.15927	0.14935	0.26808	0.2907	0.20026	0.23701	0.33072	0.36491	0.17807	0.19509	0.22979	0.12495	0.11874	0.068038	-2.4833	-2.4146	-3.1375	-2.5208	-2.8396	-3.2896	-2.3667	-3.3	-2.8979	-2.4542	-3.1458	-2.5812	-2.7646	-3.4938	-2.4021	-3.0625	158.216	158.157	243.072	199.352	195.280	-3.643	-37.407	212.742	196.049	39.028	100.597	-17.059	-29.551	274.815	117.361	198.260	0.00018051	0.0006165	0.00018495	752.47	6.2929e-06	4.8677e-06	602.11	282.88	2.4431e-06	4.6999e-06	264.12	114.65	122.97	69.79	7.2843e-06	67.161	0.0019462	0.0029293	0.00083078	740.58	3.0269e-05	3.2874e-05	598.61	281.56	3.0736e-05	3.2949e-05	264.7	116.05	123.84	69.747	3.1977e-05	67	155.490	-39.713	-0.589	-63.030	70.737	55.018	-64.074	-57.907	40.605	45.169	-59.910	-55.788	-53.347	-48.698	92.080	-52.260	-8191	255	
1773.269	1	1	0	0	0.12611	0.15059	0.080355	0.16504	0.043468	0.077103	0.17887	0.10782	0.2032	0.17065	0.1272	0.27321	0.21207	0.040532	0.065418	0.097003	-2.5812	-2.3625	-3.1542	-2.6896	-2.6437	-3.175	-2.4437	-3.1937	-2.9125	-2.4396	-3.2708	-2.9604	-2.4625	-3.3771	-2.3646	-3.0521	159.933	57.609	-63.028	220.185	66.893	-33.181	-62.825	-69.191	271.329	-46.149	251.111	245.462	278.940	-4.085	222.035	214.562	0.00025125	0.00091411	0.00020257	753.84	2.239e-06	1.0584e-05	608.9	286.98	2.3015e-06	5.9195e-06	269.09	117.58	125.27	71.384	7.0376e-06	68.526	0.0019746	0.0029134	0.00081831	744.02	2.9385e-05	3.2932e-05	603.79	285.49	2.9246e-05	3.1421e-05	269.27	118.54	125.83	71.32	3.0364e-05	68.508	165.131	30.508	59.111	-63.108	148.204	82.469	-64.113	-57.477	178.343	133.897	-60.133	-55.934	-53.759	-48.980	86.989	-52.570	-8191	255	
#DATA ENDS
