BOXY.EXE: ISS Imagent and Oximeter Data Acquisition Program Version 0.80
Ascii Record File

#ACQ INFORMATION
2  Detector Channels 
16  External MUX Channels 
1  Auxiliary Channels 
5000  Waveform (CCF) Frequency (Hz)
1  Waveforms Skipped 
30  Waveforms Averaged 
1  Cycles Averaged 
16  Acquisitions per Waveform 
10.0806  Updata Rate (Hz) 

#FILE INFORMATION
TRUE -- External MUX Channel results are PARSED.
FALSE -- AC DC and Phase are NOT grouped.
TRUE -- Companion Program Settings File CREATED.
FALSE -- AC data not excluded
FALSE -- DC data not excluded
FALSE -- Phase data not excluded
FALSE -- Auxillary Chn. data not excluded
Tab delimiters

#CALIBRATION STATE
TRUE -- Waveform Calibration Values APPLIED.


#AUX CALIBRATION VALUES
Val Type	aux-1	

Term	1.0000e+00	
Factor	0.0000e+00	


#WF CALIBRATION VALUES
A = Detector Channel
Val Type	A-AC1	A-AC2	A-AC3	A-AC4	A-AC5	A-AC6	A-AC7	A-AC8	A-AC9	A-AC10	A-AC11	A-AC12	A-AC13	A-AC14	A-AC15	A-AC16	A-DC1	A-DC2	A-DC3	A-DC4	A-DC5	A-DC6	A-DC7	A-DC8	A-DC9	A-DC10	A-DC11	A-DC12	A-DC13	A-DC14	A-DC15	A-DC16	A-Ph1	A-Ph2	A-Ph3	A-Ph4	A-Ph5	A-Ph6	A-Ph7	A-Ph8	A-Ph9	A-Ph10	A-Ph11	A-Ph12	A-Ph13	A-Ph14	A-Ph15	A-Ph16	

Term	0.00000e+00	0.00000e+00	0.00000e+00	0.00000e+00	0.00000e+00	0.00000e+00	0.00000e+00	0.00000e+00	0.00000e+00	0.00000e+00	0.00000e+00	0.00000e+00	0.00000e+00	0.00000e+00	0.00000e+00	0.00000e+00	0.00000e+00	0.00000e+00	0.00000e+00	0.00000e+00	0.00000e+00	0.00000e+00	0.00000e+00	0.00000e+00	0.00000e+00	0.00000e+00	0.00000e+00	0.00000e+00	0.00000e+00	0.00000e+00	0.00000e+00	0.00000e+00	0.00000e+00	0.00000e+00	0.00000e+00	0.00000e+00	0.00000e+00	0.00000e+00	0.00000e+00	0.00000e+00	0.00000e+00	0.00000e+00	0.00000e+00	0.00000e+00	0.00000e+00	0.00000e+00	0.00000e+00	0.00000e+00	
Factor	1.00000e+00	1.00000e+00	1.00000e+00	1.00000e+00	1.00000e+00	1.00000e+00	1.00000e+00	1.00000e+00	1.00000e+00	1.00000e+00	1.00000e+00	1.00000e+00	1.00000e+00	1.00000e+00	1.00000e+00	1.00000e+00	1.00000e+00	1.00000e+00	1.00000e+00	1.00000e+00	1.00000e+00	1.00000e+00	1.00000e+00	1.00000e+00	1.00000e+00	1.00000e+00	1.00000e+00	1.00000e+00	1.00000e+00	1.00000e+00	1.00000e+00	1.00000e+00	X	X	X	X	X	X	X	X	X	X	X	X	X	X	X	X	

B = Detector Channel
Val Type	B-AC1	B-AC2	B-AC3	B-AC4	B-AC5	B-AC6	B-AC7	B-AC8	B-AC9	B-AC10	B-AC11	B-AC12	B-AC13	B-AC14	B-AC15	B-AC16	B-DC1	B-DC2	B-DC3	B-DC4	B-DC5	B-DC6	B-DC7	B-DC8	B-DC9	B-DC10	B-DC11	B-DC12	B-DC13	B-DC14	B-DC15	B-DC16	B-Ph1	B-Ph2	B-Ph3	B-Ph4	B-Ph5	B-Ph6	B-Ph7	B-Ph8	B-Ph9	B-Ph10	B-Ph11	B-Ph12	B-Ph13	B-Ph14	B-Ph15	B-Ph16	

Term	0.00000e+00	0.00000e+00	0.00000e+00	0.00000e+00	0.00000e+00	0.00000e+00	0.00000e+00	0.00000e+00	0.00000e+00	0.00000e+00	0.00000e+00	0.00000e+00	0.00000e+00	0.00000e+00	0.00000e+00	0.00000e+00	0.00000e+00	0.00000e+00	0.00000e+00	0.00000e+00	0.00000e+00	0.00000e+00	0.00000e+00	0.00000e+00	0.00000e+00	0.00000e+00	0.00000e+00	0.00000e+00	0.00000e+00	0.00000e+00	0.00000e+00	0.00000e+00	-1.27807e+02	-1.29926e+02	-1.26772e+02	-1.80573e+02	-6.73208e+01	-6.76919e+01	-1.56582e+02	-1.62015e+02	-7.01869e+01	-5.52664e+01	-1.75242e+02	-1.71164e+02	-1.79933e+02	-1.76303e+02	-6.70147e+01	-1.49553e+02	
Factor	2.02714e-05	1.91716e-04	4.79495e-05	1.62367e-01	1.27428e-06	1.92766e-06	1.87826e-01	5.79250e-02	1.30275e-06	1.88192e-06	1.08611e-01	3.63822e-02	2.76640e-02	1.06877e-02	1.58961e-06	1.52523e-02	1.17346e-05	1.91389e-05	5.38533e-06	8.14419e-02	1.92304e-07	2.14576e-07	8.87117e-02	2.92306e-02	1.94660e-07	2.13727e-07	5.29229e-02	1.78944e-02	1.41700e-02	5.42369e-03	2.02256e-07	7.50969e-03	X	X	X	X	X	X	X	X	X	X	X	X	X	X	X	X	



#DISTANCE SETTINGS
A = Detector Channel
A-1	A-2	A-3	A-4	A-5	A-6	A-7	A-8	A-9	A-10	A-11	A-12	A-13	A-14	A-15	A-16	

2.5000e+00	3.0000e+00	2.5000e+00	3.0000e+00	2.0000e+00	3.0000e+00	1.5000e+00	3.0000e+00	3.0000e+00	3.0000e+00	3.0000e+00	3.0000e+00	3.0000e+00	3.0000e+00	1.5000e+00	3.0000e+00	

B = Detector Channel
B-1	B-2	B-3	B-4	B-5	B-6	B-7	B-8	B-9	B-10	B-11	B-12	B-13	B-14	B-15	B-16	

1.0000e+01	1.0000e+01	1.0000e+01	1.4400e+00	1.0000e+01	1.0000e+01	1.5100e+00	1.9400e+00	1.0000e+01	1.0000e+01	1.9900e+00	2.4900e+00	2.4100e+00	2.9000e+00	1.0000e+01	2.9800e+00	




#DATA BEGINS
time	group	step	mark	flag	A-AC1	A-AC2	A-AC3	A-AC4	A-AC5	A-AC6	A-AC7	A-AC8	A-AC9	A-AC10	A-AC11	A-AC12	A-AC13	A-AC14	A-AC15	A-AC16	A-DC1	A-DC2	A-DC3	A-DC4	A-DC5	A-DC6	A-DC7	A-DC8	A-DC9	A-DC10	A-DC11	A-DC12	A-DC13	A-DC14	A-DC15	A-DC16	A-Ph1	A-Ph2	A-Ph3	A-Ph4	A-Ph5	A-Ph6	A-Ph7	A-Ph8	A-Ph9	A-Ph10	A-Ph11	A-Ph12	A-Ph13	A-Ph14	A-Ph15	A-Ph16	B-AC1	B-AC2	B-AC3	B-AC4	B-AC5	B-AC6	B-AC7	B-AC8	B-AC9	B-AC10	B-AC11	B-AC12	B-AC13	B-AC14	B-AC15	B-AC16	B-DC1	B-DC2	B-DC3	B-DC4	B-DC5	B-DC6	B-DC7	B-DC8	B-DC9	B-DC10	B-DC11	B-DC12	B-DC13	B-DC14	B-DC15	B-DC16	B-Ph1	B-Ph2	B-Ph3	B-Ph4	B-Ph5	B-Ph6	B-Ph7	B-Ph8	B-Ph9	B-Ph10	B-Ph11	B-Ph12	B-Ph13	B-Ph14	B-Ph15	B-Ph16	aux-1	digaux	

1053.611	1	1	0	256	0.31513	0.14625	0.081137	0.097887	0.11593	0.23085	0.31173	0.27267	0.18199	0.062849	0.13406	0.1453	0.060285	0.10338	0.15625	0.12372	-2.6229	-2.3542	-2.2667	-3.2625	-2.3458	-3.0375	-3.2188	-2.3229	-3.1333	-2.6604	-2.6167	-3.4396	-2.4396	-2.8583	-3.05	-2.1708	216.479	488.468	213.953	500.724	169.717	292.556	423.441	419.139	482.363	401.679	415.956	456.449	221.790	241.576	436.256	199.546	0.00029512	0.00037242	6.3085e-05	1195.4	1.1838e-06	3.1875e-06	1301.2	245.96	2.3153e-06	5.9305e-06	311.61	87.512	68.76	20.36	2.8133e-06	28.038	0.0005671	0.00074439	0.00021026	1183.5	7.9758e-06	8.3488e-06	1292.7	245.76	7.8205e-06	8.0433e-06	312.57	88.356	69.498	20.715	7.7405e-06	28.794	193.913	245.890	245.844	171.719	286.996	321.658	171.514	179.097	285.041	327.409	178.647	185.007	185.497	193.016	305.474	192.668	-8191	255	
1053.731	1	1	0	0	0.11688	0.14307	0.21689	0.36041	0.20764	0.13106	0.26958	0.15043	0.08253	0.1357	0.25773	0.058997	0.20898	0.11932	0.28045	0.21164	-2.7125	-2.7333	-2.3792	-3.4562	-2.4979	-2.7417	-3.1604	-2.3792	-3.25	-2.7583	-2.2604	-3.1375	-2.3521	-2.7229	-3.3542	-2.3146	381.047	478.483	233.330	487.690	293.225	363.817	452.451	197.946	182.044	409.253	181.438	242.915	413.083	373.441	293.620	226.268	0.00029874	0.00028366	5.9896e-05	1194.2	3.9817e-06	3.6796e-06	1302.2	246.87	3.6963e-06	3.9332e-06	310.7	86.52	68.721	20.314	2.9487e-06	27.966	0.00055123	0.00072325	0.0002051	1183.7	7.4922e-06	7.9192e-06	1293.8	246.09	7.4007e-06	8.0072e-06	311.96	88.056	69.475	20.657	7.4135e-06	28.778	195.855	221.047	252.516	171.880	285.096	294.975	171.518	179.180	324.208	328.008	178.742	184.767	185.209	193.411	319.132	192.645	-8191	255	
1053.826	1	1	0	0	0.20624	0.30603	0.2603	0.20056	0.21195	0.14367	0.15067	0.21253	0.092821	0.34499	0.058599	0.20559	0.13507	0.29811	0.11889	0.16039	-2.5146	-2.6458	-2.1646	-3.1208	-2.4542	-2.5646	-3.2458	-2.1729	-2.8958	-2.8271	-2.3458	-3.3021	-2.4437	-2.7667	-3.4417	-2.4021	280.328	385.162	354.637	191.468	340.282	480.415	510.909	479.627	464.574	465.374	422.389	213.740	476.862	175.680	285.710	173.704	0.00030764	0.00032242	9.3664e-05	1194.2	2.3922e-06	4.9163e-06	1297	245.66	4.3492e-06	4.2967e-06	310.24	86.835	68.303	20.219	9.099e-07	27.893	0.00054669	0.00070527	0.00019883	1184	7.755e-06	8.0314e-06	1293.3	245.87	7.5041e-06	7.871e-06	312.07	88.387	69.368	20.691	7.3503e-06	28.829	191.585	230.009	261.190	171.470	302.439	326.011	171.478	179.082	284.876	343.388	178.732	185.293	185.285	193.407	311.001	192.500	-8191	255	
1053.922	1	1	0	0	0.32376	0.15243	0.19779	0.036945	0.3121	0.073272	0.13389	0.1321	0.14773	0.11539	0.25492	0.0085931	0.082706	0.13434	0.13834	0.21027	-2.5458	-3.0354	-2.5396	-3.2583	-2.5396	-2.5292	-3.2625	-2.5479	-2.9437	-3.0542	-2.3229	-3.2833	-2.7021	-2.4313	-3.15	-2.3312	271.900	496.798	504.858	433.443	350.408	319.525	448.082	192.503	349.970	466.005	441.539	271.122	503.900	377.875	314.205	509.989	0.000282	0.0007876	0.00012036	1196.4	2.6408e-06	1.3901e-06	1300.5	246.42	4.92e-06	3.718e-06	310.84	87.664	68.297	20.196	3.6703e-06	27.631	0.00053451	0.0006833	0.00019531	1185	7.3444e-06	7.7368e-06	1293.5	245.89	7.2547e-06	7.5985e-06	312.31	88.28	69.246	20.646	6.9989e-06	28.681	197.866	247.001	290.444	171.457	291.237	357.496	171.480	178.902	303.423	327.932	178.630	185.042	185.801	193.400	318.855	192.760	-8191	255	
1054.018	1	1	0	0	0.15183	0.12758	0.2836	0.15043	0.062845	0.063004	0.37704	0.26975	0.13855	0.20107	0.29451	0.26079	0.085332	0.15608	0.10892	0.18052	-2.4417	-3.1	-2.3479	-3.2438	-2.7375	-2.4271	-3.3625	-2.4021	-2.8917	-3.0604	-2.0958	-2.9646	-2.675	-2.3312	-3.0417	-2.4938	367.333	470.208	214.736	468.253	300.908	250.620	483.552	409.149	331.192	355.100	468.022	239.884	295.901	519.700	355.862	453.738	0.00026967	0.0003124	4.0143e-05	1190.9	3.3105e-06	3.5384e-06	1298.8	245.04	3.078e-06	3.4744e-06	309.35	86.541	68.99	20.318	1.2034e-06	28.065	0.00052459	0.00066667	0.0001914	1184.3	7.1521e-06	7.5084e-06	1292.4	245.35	7.1197e-06	7.5139e-06	312.08	88.316	69.479	20.733	6.8767e-06	28.798	192.833	225.984	235.213	171.740	301.789	289.651	171.797	179.170	277.426	313.864	178.666	185.318	185.888	193.225	302.606	193.270	-8191	255	
1054.114	1	1	0	0	0.29534	0.11589	0.14859	0.20945	0.28197	0.05512	0.18187	0.19516	0.22141	0.12986	0.26691	0.23274	0.1265	0.15962	0.15338	0.31785	-2.1896	-2.9854	-2.0021	-2.9958	-2.75	-2.2417	-3.15	-2.5917	-2.525	-3.0438	-2.4146	-2.7979	-2.8792	-2.2458	-3.2083	-2.3625	416.374	299.803	361.936	168.897	171.331	451.631	305.609	192.662	320.797	471.170	483.208	170.080	409.301	228.111	242.173	489.140	0.00029016	0.00014739	7.3064e-05	1196.9	3.3006e-06	3.0218e-06	1298.7	245.6	3.1784e-06	2.8118e-06	311.02	87.007	68.756	20.299	3.8664e-06	27.953	0.00053104	0.0006595	0.00019175	1185.9	7.1841e-06	7.5151e-06	1292.5	245.66	7.2997e-06	7.2814e-06	311.67	88.376	69.492	20.662	6.9761e-06	28.739	201.866	302.448	235.923	172.004	296.152	313.692	171.661	179.085	284.690	259.577	178.956	185.215	185.580	193.320	303.756	192.809	-8191	255	
1054.210	1	1	0	0	0.087333	0.067487	0.0874	0.087821	0.18099	0.18054	0.17863	0.26888	0.17281	0.16625	0.30157	0.14107	0.11989	0.22392	0.077536	0.017012	-2.0292	-2.9188	-2.05	-2.9958	-2.6542	-2.1958	-3.3063	-2.8063	-2.4375	-3.075	-2.5354	-2.8792	-2.9938	-2.3854	-2.9771	-2.8104	251.335	306.549	499.056	460.171	297.649	216.687	468.656	179.782	349.055	183.686	201.818	485.670	201.283	515.247	303.314	393.208	0.00028792	0.0004405	9.8433e-05	1193	4.2813e-06	5.1766e-06	1302.8	245.07	4.6752e-06	4.5989e-06	310.16	87.107	68.571	20.201	1.8994e-06	27.922	0.00054453	0.00066859	0.00018886	1184.7	7.2138e-06	7.6125e-06	1293.6	245.07	7.4583e-06	7.326e-06	311.74	88.404	69.343	20.647	7.7654e-06	28.781	201.430	243.748	219.636	171.759	285.966	337.462	171.531	178.929	292.841	292.762	178.833	185.141	185.716	193.089	298.152	192.462	-8191	255	
1054.331	1	1	0	0	0.27527	0.02017	0.25159	0.43901	0.24893	0.27773	0.088918	0.084071	0.13665	0.091437	0.36656	0.16218	0.12306	0.13806	0.08212	0.23568	-2.1833	-3.225	-2.35	-2.8708	-3.0062	-2.1167	-3.3167	-2.8229	-2.3146	-3.1292	-2.5187	-2.7104	-3.0896	-2.2958	-3.0292	-2.825	345.193	484.875	329.874	482.462	172.903	290.913	424.634	504.102	309.970	435.678	434.412	188.359	414.364	513.147	265.422	210.230	0.00028986	0.00055507	7.1587e-05	1197	4.2722e-06	2.9177e-06	1306.6	246.39	4.3303e-06	5.3127e-06	312.01	87.335	68.844	20.226	2.6276e-06	28.007	0.00054488	0.00069498	0.00019825	1185.8	7.5255e-06	7.6483e-06	1294.3	245.85	7.5727e-06	7.7766e-06	311.9	88.442	69.407	20.702	7.8067e-06	28.792	196.911	274.026	301.408	171.813	297.104	265.282	171.476	179.152	295.987	288.713	179.012	185.393	185.496	193.316	304.606	192.442	-8191	255	
1054.425	1	1	0	0	0.2159	0.24035	0.09834	0.14021	0.31292	0.16584	0.28038	0.26028	0.11242	0.054839	0.16929	0.028585	0.10451	0.081414	0.10587	0.20958	-1.6646	-2.9104	-2.2687	-2.7375	-3.1729	-2.3479	-2.95	-2.8125	-2.1125	-3.1188	-2.6104	-2.2604	-3.3937	-2.1917	-2.9604	-3.0292	345.110	371.643	282.773	387.807	255.075	303.706	190.818	470.742	509.689	287.385	476.224	232.759	245.220	399.252	474.172	345.949	0.0003147	0.00018025	8.0535e-05	1198.7	3.756e-06	3.7912e-06	1301.6	246.49	2.2478e-06	3.9041e-06	312.65	87.122	68.457	20.258	2.8036e-06	28.186	0.00057025	0.00072979	0.00020683	1186.6	7.6417e-06	8.0421e-06	1294.3	245.94	7.7949e-06	8.098e-06	312.39	88.263	69.256	20.699	7.7965e-06	28.928	198.240	247.722	246.624	171.758	305.345	300.414	171.849	179.151	290.057	326.130	178.620	185.271	186.038	193.559	296.479	192.407	-8191	255	
1054.522	1	1	0	0	0.060055	0.13961	0.21288	0.28071	0.11755	0.10472	0.14161	0.33086	0.33554	0.12781	0.25042	0.13625	0.091939	0.12353	0.20414	0.30144	-1.9688	-3.125	-2.5812	-2.575	-3.2604	-2.4	-3.1125	-3.0958	-2.3479	-2.9042	-2.7021	-2.125	-2.9708	-2.0208	-2.6813	-3.0146	366.283	355.081	321.697	474.141	261.406	363.464	328.681	517.375	183.310	359.275	507.976	488.762	289.157	305.842	258.308	342.020	0.00027867	0.00057005	8.2313e-05	1199.2	3.0629e-06	2.1609e-06	1304.2	246.09	2.0182e-06	3.2313e-06	313.19	87.321	68.739	20.309	2.331e-06	28.405	0.00056575	0.00072385	0.00020326	1187.8	7.6781e-06	8.2152e-06	1294.7	245.74	8.0962e-06	8.4369e-06	312	88.548	69.409	20.715	8.357e-06	28.929	200.147	242.200	269.251	171.989	285.800	345.691	171.693	178.982	317.412	326.061	179.236	184.908	185.830	193.195	323.614	192.425	-8191	255	
1054.618	1	1	0	0	0.15174	0.25287	0.32043	0.14405	0.14346	0.21832	0.019297	0.34113	0.35767	0.19078	0.29491	0.1552	0.1576	0.21104	0.16492	0.019807	-1.7625	-3.15	-2.7062	-2.5438	-3.3042	-2.5375	-2.9	-3.1542	-2.2854	-3.0438	-2.9021	-2.2062	-2.9208	-2.2938	-2.4792	-2.9229	395.736	274.881	419.706	514.020	349.427	511.233	266.473	482.626	493.624	307.308	304.825	518.030	490.143	346.939	502.096	471.113	0.00028903	0.00045227	7.3673e-05	1202.3	2.8328e-06	3.8794e-06	1307.3	246.46	2.3236e-06	4.5931e-06	310.8	87.505	69.068	20.315	3.8416e-06	28.097	0.0005912	0.00077102	0.00021227	1187.4	7.8792e-06	8.3144e-06	1295.5	246.21	8.0926e-06	8.4819e-06	311.5	88.43	69.579	20.707	8.3755e-06	28.871	199.187	185.834	287.830	171.885	300.688	332.458	171.529	178.892	301.559	343.363	178.583	184.983	185.495	193.163	282.385	192.469	-8191	255	
1054.714	1	1	0	0	0.073993	0.14598	0.11823	0.23928	0.17438	0.16032	0.29457	0.037189	0.28089	0.10467	0.11583	0.11413	0.18134	0.19101	0.26172	0.32641	-1.7812	-2.9188	-2.8458	-2.2729	-3.0604	-2.7354	-2.5	-3.1042	-2.1292	-2.95	-2.9729	-2.1979	-3.1688	-2.7667	-2.6104	-3.15	432.780	427.165	210.028	175.938	243.513	446.050	181.582	204.757	456.784	510.583	312.325	161.032	469.182	464.877	370.362	514.465	0.00029656	0.00025709	3.8874e-05	1198.9	5.1854e-06	4.0213e-06	1312.1	246.72	2.3057e-06	5.3207e-06	312.93	87.406	69.12	20.347	3.6183e-06	28.213	0.00059609	0.00078745	0.00022173	1187.6	8.4457e-06	8.9188e-06	1298.3	246.27	8.6814e-06	8.9053e-06	313.07	88.521	69.698	20.759	8.9886e-06	28.904	197.344	219.140	240.533	171.467	295.275	314.459	171.269	178.843	270.368	332.493	178.796	184.980	184.982	192.706	302.579	192.504	-8191	255	
1054.810	1	1	0	0	0.22898	0.022968	0.060911	0.23409	0.18845	0.21987	0.13457	0.23301	0.16548	0.089552	0.094908	0.19246	0.12614	0.15558	0.056609	0.10973	-2.0208	-3.0146	-3.0979	-2.5229	-3.2646	-2.7604	-2.6167	-3.275	-2.3521	-2.8458	-3.1896	-2.425	-3.0729	-2.6625	-2.4021	-3.2271	262.474	419.526	208.213	189.375	240.147	403.350	475.087	485.534	515.419	507.677	474.077	476.050	382.773	458.623	373.021	516.771	0.00027207	0.00031293	8.0315e-05	1208.3	3.3307e-06	3.1944e-06	1311.5	247.1	3.7897e-06	3.6271e-06	312.81	87.683	69.321	20.412	1.7779e-06	28.194	0.00060631	0.00082477	0.00023251	1192.3	8.4626e-06	9.0274e-06	1300.4	246.79	8.5427e-06	9.0945e-06	312.88	88.664	69.898	20.783	9.0135e-06	28.99	196.548	256.433	240.903	171.794	288.041	319.444	171.582	178.997	297.766	290.527	178.943	185.015	185.619	192.892	258.831	192.409	-8191	255	
1054.906	1	1	0	0	0.22909	0.13857	0.13519	0.096816	0.13316	0.18653	0.21867	0.37252	0.080052	0.16412	0.16615	0.13304	0.014608	0.17352	0.15641	0.13888	-1.9	-2.5646	-2.9625	-2.4375	-2.7521	-2.7167	-2.4208	-3.2146	-2.3625	-2.6792	-3.1625	-2.4688	-3.0979	-2.8771	-2.2479	-3.2375	305.381	187.639	297.123	177.020	369.382	308.620	444.056	444.109	467.102	220.634	427.326	173.178	214.516	496.186	475.479	301.473	0.00029035	0.0004527	9.2621e-05	1209.2	3.4583e-06	2.7842e-06	1311.8	247.86	1.4614e-06	5.3389e-06	313.17	87.277	68.933	20.366	1.2887e-06	28.304	0.00064526	0.00086093	0.00023618	1194.5	9.0339e-06	9.5773e-06	1302.3	247.15	8.9945e-06	9.6631e-06	313.91	88.676	69.761	20.758	8.9747e-06	29.024	207.486	243.690	270.057	171.611	307.324	281.236	171.520	179.128	325.727	351.599	178.826	185.064	186.019	193.126	256.036	192.752	-8191	255	
1055.002	1	1	0	0	0.19341	0.062951	0.15273	0.057993	0.17025	0.081355	0.27497	0.24376	0.033307	0.16744	0.076333	0.060712	0.25271	0.19559	0.20143	0.13747	-1.9958	-2.375	-3.0708	-2.4125	-2.7938	-2.6729	-2.2167	-3.1021	-2.4604	-2.4875	-3.1271	-2.4979	-2.975	-3.2292	-2.3208	-3.2479	353.789	256.174	371.958	173.117	390.777	297.287	169.980	454.543	207.288	364.546	396.950	453.154	493.793	496.250	468.472	490.818	0.00025064	0.00033876	0.00015249	1207.8	4.5403e-06	6.8415e-06	1313.4	248.64	1.3098e-06	2.9714e-06	314.74	88.228	69.321	20.36	1.9975e-06	28.272	0.00064093	0.00086341	0.00024012	1196	9.0511e-06	9.2778e-06	1303.7	247.24	9.0334e-06	9.3363e-06	314.28	88.917	70.039	20.82	9.0017e-06	29.012	194.806	249.433	260.330	171.824	298.277	290.074	171.586	179.224	278.289	325.943	178.634	184.855	185.805	192.910	328.160	192.380	-8191	255	
1055.098	1	1	0	0	0.12521	0.21554	0.069877	0.27063	0.26244	0.13174	0.044657	0.17563	0.07997	0.089649	0.14147	0.11243	0.34127	0.26721	0.072462	0.081534	-2.2	-2.275	-3.1271	-2.4208	-2.7292	-3.05	-2.4042	-3.1917	-2.6292	-2.2875	-3.1875	-2.3021	-2.8083	-3.0167	-2.3667	-3.0229	206.903	360.962	448.454	183.161	482.953	297.903	497.136	411.314	414.252	191.082	223.405	201.528	423.072	421.104	427.861	268.714	0.00027298	0.00054535	7.0601e-05	1212.7	4.4611e-06	5.3277e-06	1314.9	249.5	2.7924e-06	4.0029e-06	314.24	88.466	69.555	20.302	3.8089e-06	28.109	0.00065191	0.00083629	0.00023229	1196.9	9.0519e-06	9.3689e-06	1304.2	248.27	9.1064e-06	9.4962e-06	314.28	88.907	70.071	20.826	9.2444e-06	29.034	197.663	258.271	238.779	171.769	290.079	322.197	171.383	179.140	272.329	330.955	178.737	185.135	185.531	192.927	306.257	192.589	-8191	255	
1055.219	1	1	0	0	0.32265	0.3007	0.2556	0.15623	0.15392	0.24062	0.14633	0.18869	0.26444	0.1685	0.093986	0.25905	0.18167	0.18244	0.17752	0.17087	-2.3187	-2.075	-3.2833	-2.4729	-2.6979	-3.0438	-2.3063	-2.9354	-2.7646	-2.2854	-3.0312	-2.6458	-2.5729	-3.2146	-2.3625	-2.8958	319.851	275.041	212.120	512.354	270.345	502.556	515.897	251.496	202.697	297.496	243.046	429.949	506.814	225.847	373.374	173.352	0.00029933	0.00035188	7.0872e-05	1208.4	2.6246e-06	3.722e-06	1320.9	248.48	3.7187e-06	2.4689e-06	314.99	88.251	69.119	20.463	2.959e-06	28.286	0.00065851	0.00086947	0.00023807	1195.9	8.8376e-06	9.2505e-06	1307.8	247.86	8.9462e-06	9.5456e-06	314.66	89.176	70.028	20.847	9.0775e-06	29.059	198.639	264.446	216.405	171.309	283.299	311.844	171.366	179.310	262.705	263.380	178.740	184.850	185.559	192.758	278.351	192.505	-8191	255	
1055.314	1	1	0	0	0.29421	0.44873	0.082914	0.25239	0.35792	0.14056	0.35485	0.14407	0.23281	0.14265	0.050178	0.050341	0.35487	0.13593	0.14317	0.05906	-2.4792	-2.0771	-3.0312	-2.6604	-2.3958	-3.2667	-2.5875	-3.0104	-3.025	-2.3125	-3.25	-2.5687	-2.4062	-3.1354	-2.1896	-2.9854	512.512	452.974	265.323	162.181	397.421	386.001	483.853	234.230	242.936	170.484	238.064	440.375	199.196	252.216	296.046	167.044	0.00028634	0.00038626	2.3822e-05	1209.2	1.3081e-06	2.9848e-06	1318.5	248.1	2.7216e-06	3.4954e-06	314.54	87.596	68.977	20.292	3.7767e-06	28.474	0.00063406	0.00086859	0.00023255	1196.1	9.2105e-06	9.1968e-06	1307	247.62	8.8818e-06	9.5545e-06	314.42	88.821	69.966	20.829	9.2629e-06	29.114	201.273	271.004	212.896	171.385	304.434	325.110	171.224	178.728	265.320	388.445	178.569	184.764	185.213	193.163	316.860	192.364	-8191	255	
1055.411	1	1	0	0	0.074137	0.22302	0.17952	0.049976	0.32094	0.1228	0.13101	0.16133	0.087677	0.080775	0.10498	0.2117	0.063369	0.22569	0.19665	0.038617	-2.6458	-2.1667	-3.0958	-2.8146	-2.3208	-3.0208	-2.675	-2.8229	-2.9229	-2.4104	-3.1083	-2.5521	-2.2167	-3.2021	-2.5417	-2.5792	169.481	379.685	441.174	177.219	172.168	275.497	504.870	176.360	167.578	226.493	190.920	504.485	519.588	466.965	429.069	449.775	0.00028648	0.00016916	5.5549e-05	1212.5	3.4757e-06	3.981e-06	1310.7	249.05	3.4044e-06	3.7626e-06	314.84	87.42	70.007	20.477	3.6261e-06	28.261	0.00063626	0.00087453	0.00023942	1197.9	9.3035e-06	9.3493e-06	1303.6	247.61	8.8753e-06	9.3987e-06	314.6	88.664	70.173	20.86	8.9473e-06	29.033	199.453	239.818	283.298	171.479	294.640	318.506	171.318	178.716	282.918	339.567	178.709	184.585	185.341	193.259	270.775	192.774	-8191	255	
1055.506	1	1	0	0	0.15079	0.27026	0.20736	0.25756	0.17497	0.059153	0.20667	0.32365	0.17124	0.30124	0.098576	0.073591	0.19895	0.15548	0.14942	0.31402	-2.6188	-2.225	-2.8979	-2.9479	-2.1417	-3.0875	-2.6688	-2.7792	-3.1437	-2.2771	-2.8083	-2.8625	-2.3896	-3.2125	-2.6333	-2.6188	237.393	222.401	323.568	167.414	312.530	229.031	488.055	512.417	486.535	245.901	474.326	508.878	208.333	315.286	196.924	257.131	0.00029838	0.00044582	2.0843e-05	1212.7	4.2064e-06	1.5985e-06	1313.1	248.6	3.9682e-06	4.3004e-06	311.4	87.462	69.357	20.41	3.5886e-06	28.366	0.00060282	0.00081416	0.00022685	1197.5	8.4686e-06	8.858e-06	1305.7	247.79	8.0869e-06	9.1159e-06	313.56	88.701	70.051	20.859	8.8171e-06	29.014	197.961	275.474	236.967	171.364	313.280	353.339	171.389	178.816	302.397	330.963	178.839	184.573	185.418	192.812	340.660	192.473	-8191	255	
1055.602	1	1	0	0	0.15741	0.39444	0.18938	0.10471	0.28	0.18699	0.11226	0.22921	0.12741	0.15149	0.067742	0.14438	0.23058	0.15494	0.25796	0.020412	-2.8083	-2.1437	-2.8896	-3.0229	-2.375	-3.2938	-2.8042	-2.3688	-3.0042	-2.0938	-2.7708	-2.8833	-2.2	-3.0687	-2.6771	-2.6146	473.906	394.022	354.166	503.510	492.098	469.318	163.731	355.454	372.185	302.006	182.850	514.904	433.473	186.660	443.698	439.266	0.00027827	0.0007085	0.00012248	1209.1	2.6316e-06	1.9063e-06	1317.6	247.98	3.1901e-06	6.5781e-07	314.83	88.169	69.548	20.266	4.3074e-06	28.092	0.00060304	0.00083127	0.00023241	1197.4	8.7887e-06	9.1173e-06	1304.9	247.81	8.6559e-06	9.5175e-06	314.7	88.849	70.056	20.828	9.1302e-06	28.966	197.337	235.649	258.579	171.520	316.818	347.449	171.443	178.975	296.433	365.302	178.716	184.881	185.598	193.008	298.154	192.718	-8191	255	
1055.698	1	1	0	0	0.33168	0.18013	0.062609	0.36961	0.10561	0.27877	0.15931	0.12386	0.3459	0.066838	0.22613	0.043595	0.259	0.08368	0.094393	0.10577	-2.9667	-2.275	-2.6583	-3.0875	-2.15	-3.0521	-2.9062	-2.5208	-3.1208	-2.3708	-2.6792	-3.1229	-2.2771	-3.0792	-2.7583	-2.3917	357.913	519.020	253.048	497.934	501.491	230.407	479.725	509.021	218.460	241.680	469.145	363.186	225.680	501.003	313.975	206.320	0.00029851	0.00051073	6.8374e-05	1211.2	2.1549e-06	3.8861e-06	1314.7	248.91	3.1174e-06	2.0129e-06	312.82	88.302	68.707	20.34	4.1774e-07	28.415	0.00063262	0.00086077	0.00025145	1197.4	9.0968e-06	9.8222e-06	1304.7	247.64	9.001e-06	9.591e-06	314.26	88.963	69.77	20.825	9.3447e-06	29.069	198.935	253.036	242.411	171.626	277.841	253.886	171.529	179.050	281.368	387.288	179.137	184.786	185.518	192.940	262.247	192.417	-8191	255	
1055.819	1	1	0	0	0.18738	0.091729	0.052823	0.11624	0.051671	0.07633	0.12817	0.17243	0.10134	0.095948	0.15458	0.13693	0.11219	0.17759	0.037766	0.096022	-2.775	-2.5438	-2.7104	-3.1854	-2.2354	-2.7729	-3.0375	-2.2333	-3.3167	-2.6896	-2.8542	-3.3208	-2.3417	-2.8937	-2.9271	-2.4437	205.978	184.450	189.624	469.185	440.661	506.740	461.392	517.888	301.209	299.907	201.850	179.810	199.796	427.876	344.893	412.215	0.00028612	0.00064591	9.4967e-05	1212.6	2.5703e-06	2.388e-06	1311.5	248.35	4.7192e-06	3.4044e-06	312.97	87.652	69.357	20.37	1.6462e-06	28.449	0.00064024	0.00087178	0.00024913	1196.1	9.378e-06	9.6162e-06	1305.2	247.97	9.1437e-06	9.6899e-06	314.23	88.893	70.061	20.881	9.4213e-06	29.004	197.367	248.100	232.004	171.611	279.756	357.640	171.653	179.180	267.043	354.883	178.956	185.055	185.568	193.316	294.039	192.477	-8191	255	
1055.915	1	1	0	0	0.17112	0.1963	0.22091	0.20393	0.093003	0.11906	0.13021	0.098058	0.23507	0.060867	0.2234	0.13732	0.21168	0.07275	0.162	0.12995	-2.8021	-2.5062	-2.4521	-3.2938	-2.1104	-2.8146	-3.2917	-2.5667	-3.0687	-2.6354	-2.3875	-3.3833	-2.6104	-2.5854	-2.8542	-2.2458	304.032	208.447	234.562	173.112	454.025	210.524	379.046	518.745	413.388	298.117	292.572	400.196	258.602	298.510	203.272	236.028	0.00027768	0.00062959	6.9479e-05	1212.3	4.2943e-06	5.6486e-06	1318	247.85	3.5155e-06	2.4541e-06	314.33	87.821	69.339	20.418	4.0057e-06	28.324	0.00064125	0.00089351	0.00024743	1198.2	9.2887e-06	9.8258e-06	1306.7	247.77	9.1758e-06	9.6685e-06	314.95	88.996	69.991	20.843	9.1597e-06	29.107	194.372	220.776	176.150	171.646	294.805	302.921	171.395	178.846	259.770	299.537	178.431	184.726	185.228	193.006	344.987	192.418	-8191	255	
1056.011	1	1	0	0	0.15811	0.20912	0.16973	0.4235	0.23113	0.094994	0.15998	0.15692	0.02822	0.092797	0.11145	0.052711	0.069193	0.10168	0.18452	0.24682	-2.7396	-2.9188	-2.2458	-3.1604	-2.4083	-2.7042	-3.2854	-2.2583	-2.7521	-2.8896	-2.2104	-3.025	-2.5646	-2.5938	-3.1604	-2.3542	441.382	410.461	308.697	502.641	453.728	215.827	437.939	212.253	411.465	312.062	350.475	449.881	410.072	364.204	358.821	269.079	0.00026521	0.00045508	0.00012485	1211.4	4.5089e-06	1.4667e-06	1318	249.3	2.8284e-06	3.5799e-06	312.87	87.695	69.398	20.485	5.8445e-07	28.219	0.00064545	0.00087174	0.00025046	1199.5	9.386e-06	1.0027e-05	1306.6	248.21	9.2431e-06	9.6186e-06	314.11	88.895	70.096	20.884	9.1858e-06	28.992	197.672	302.273	234.585	171.505	245.899	363.719	171.486	178.700	293.384	313.495	178.377	184.704	185.326	193.216	249.767	192.385	-8191	255	
1056.107	1	1	0	0	0.11797	0.076845	0.065614	0.1507	0.19943	0.074107	0.30349	0.28124	0.16708	0.079829	0.19098	0.16555	0.17297	0.22722	0.12031	0.10193	-2.4583	-2.7979	-2.0625	-3.2396	-2.5208	-2.5	-3.2687	-2.5792	-3.0625	-2.9958	-2.2833	-3.1021	-2.5	-2.4604	-3.2875	-2.4208	520.083	219.183	272.814	177.355	464.688	427.613	426.517	511.508	250.648	176.834	442.773	453.954	403.352	374.554	258.867	423.983	0.00030044	0.00027931	5.4873e-05	1212.8	3.5062e-06	4.276e-06	1317.1	248.23	1.6822e-06	4.0769e-06	315.03	87.422	69.201	20.261	2.4057e-06	28.164	0.00067097	0.00090116	0.0002476	1199.4	9.4734e-06	9.7512e-06	1307	247.88	9.3039e-06	9.7103e-06	314.68	88.94	70.021	20.807	8.9515e-06	28.986	195.847	215.115	272.470	171.708	304.364	313.286	171.133	178.889	333.427	301.230	178.622	184.670	185.164	192.807	313.350	192.208	-8191	255	
1056.203	1	1	0	0	0.15237	0.24218	0.088675	0.16742	0.15071	0.17517	0.12197	0.067048	0.13383	0.23543	0.047699	0.097036	0.22152	0.14855	0.14576	0.11348	-2.6083	-3.0229	-2.3854	-3.2562	-2.4708	-2.4292	-3.5625	-2.5187	-2.9146	-3.0896	-2.3542	-3.2167	-2.6833	-2.2521	-3.1583	-2.5604	505.252	518.963	461.220	489.239	230.111	471.724	454.339	202.526	518.320	256.449	376.313	440.028	164.002	281.683	221.318	466.450	0.00026972	0.00057185	0.00013277	1212.7	2.9001e-06	5.5878e-06	1313.2	249.32	2.3453e-06	2.0336e-06	313.21	87.97	69.598	20.342	1.922e-06	28.477	0.00064843	0.00087505	0.00025041	1199.9	9.2482e-06	9.6676e-06	1305.9	248.39	9.3197e-06	9.5224e-06	315.12	89.264	70.047	20.846	9.1323e-06	29.064	203.239	255.375	269.274	171.492	309.936	288.671	171.349	178.665	303.747	316.185	178.756	184.714	185.074	192.941	261.148	192.448	-8191	255	
1056.299	1	1	0	0	0.24315	0.10657	0.12695	0.1002	0.043255	0.27208	0.17416	0.39416	0.086041	0.046824	0.2842	0.17109	0.16134	0.10567	0.2674	0.25503	-2.4188	-3.125	-2.1729	-3.2938	-2.9042	-2.4292	-3.6583	-2.4562	-2.6917	-3.125	-2.1292	-2.9042	-2.9792	-2.3042	-3.1229	-2.5042	216.778	405.013	469.444	395.338	297.198	415.852	409.216	472.597	497.530	315.792	220.268	416.445	406.784	299.609	231.447	178.295	0.00028526	0.00045002	7.953e-05	1211.8	1.458e-06	2.3651e-06	1316.1	250.13	3.4197e-06	2.8539e-06	314.23	87.679	69.403	20.239	3.6001e-06	28.191	0.0006424	0.00084482	0.00024195	1198.9	8.8976e-06	9.6492e-06	1308.6	248.35	9.3307e-06	9.3305e-06	314.91	89.089	70.125	20.865	9.1205e-06	29.025	198.234	238.695	243.144	171.485	282.971	274.653	171.394	178.906	267.899	343.890	178.417	184.669	185.167	193.180	300.805	192.509	-8191	255	
1056.394	1	1	0	0	0.28478	0.040169	0.257	0.057605	0.11929	0.14305	0.20468	0.2506	0.25175	0.10798	0.059061	0.14543	0.20872	0.026665	0.16701	0.087878	-2.05	-3.1188	-2.1625	-2.8979	-2.6521	-2.1771	-3.1917	-2.5958	-2.7021	-3.2229	-2.3563	-2.8563	-2.9771	-2.3667	-3.0771	-2.7687	201.088	300.947	411.022	453.853	419.151	484.398	434.565	469.226	511.696	475.049	295.598	236.880	162.301	260.511	194.490	411.831	0.00027793	0.00045289	9.898e-05	1212.1	2.8487e-06	1.4386e-06	1317.6	249.12	3.3461e-06	5.342e-06	312.24	87.985	69.546	20.388	3.6107e-06	28.412	0.00063653	0.00081847	0.00023952	1201.3	8.8524e-06	9.5768e-06	1309.1	248.18	8.7341e-06	9.4401e-06	314.02	89.157	69.983	20.868	9.2431e-06	29.056	201.516	241.561	267.608	171.515	293.800	346.487	171.180	178.588	281.636	334.205	178.420	185.027	185.286	192.520	299.413	192.267	-8191	255	
1056.515	1	1	0	0	0.14733	0.095369	0.32987	0.068219	0.2816	0.2356	0.26382	0.22247	0.12618	0.1136	0.05984	0.25824	0.149	0.082892	0.19507	0.15077	-1.9438	-2.95	-2.2812	-2.8667	-2.8125	-2.2146	-3.1188	-2.7104	-2.2917	-3.0646	-2.45	-2.6375	-2.9917	-2.1396	-3.025	-2.7458	513.055	418.428	304.342	439.122	169.940	451.314	397.913	467.739	165.406	506.928	170.525	443.811	297.170	242.736	327.313	403.169	0.00026201	0.00013319	7.4459e-05	1211.4	2.2051e-06	2.6245e-06	1317.4	248.1	2.7387e-06	2.6515e-06	311.13	87.968	68.757	20.347	4.4823e-06	28.233	0.00064232	0.00084239	0.00023697	1198.8	9.013e-06	9.6439e-06	1307.9	247.88	8.8631e-06	9.4352e-06	314.31	89.2	69.917	20.858	8.9005e-06	29.068	197.135	227.055	241.450	171.679	270.809	335.310	171.327	178.800	310.135	285.641	178.777	184.962	185.227	193.180	272.583	192.091	-8191	255	
1056.586	1	1	0	0	0.090699	0.11359	0.1252	0.41634	0.1141	0.17844	0.48608	0.24017	0.18701	0.14917	0.17235	0.11784	0.095984	0.23248	0.036065	0.069505	-1.8937	-3.3	-2.3146	-2.9562	-3.0208	-2.275	-3.1354	-2.8396	-2.3208	-3.1875	-2.7021	-2.5771	-3.0687	-2.0479	-2.8312	-2.7354	207.715	414.382	184.252	507.469	178.134	261.771	430.070	393.615	331.164	404.454	498.966	518.140	425.723	416.500	247.012	449.212	0.00029677	0.00021663	0.00011828	1210.8	2.8337e-06	3.3371e-06	1317.7	246.18	3.2802e-06	4.8135e-06	311.23	87.415	68.97	20.406	4.0067e-06	28.154	0.00063831	0.00086289	0.00024805	1200.5	8.9521e-06	9.6238e-06	1309.2	247.89	8.9588e-06	9.306e-06	314.66	89.024	70.018	20.89	9.34e-06	28.993	199.395	282.119	238.541	171.393	305.714	327.552	171.280	178.599	292.320	319.813	178.389	185.027	185.034	193.066	310.756	192.187	-8191	255	
1056.682	1	1	0	0	0.075538	0.1912	0.068852	0.097671	0.11297	0.073617	0.069171	0.11038	0.13383	0.11922	0.30639	0.057049	0.25182	0.30976	0.2051	0.068234	-1.6917	-2.8292	-2.3125	-2.3812	-2.9708	-2.3604	-2.8563	-2.8667	-2.1083	-3.1437	-2.5354	-2.2771	-3.1729	-2.3479	-2.8167	-3.0708	190.822	386.298	192.777	438.630	338.271	244.639	483.331	410.316	178.915	396.952	413.911	420.124	457.218	238.110	350.484	254.322	0.0003067	0.00030835	8.4215e-05	1212	3.7112e-06	1.8946e-06	1316.3	246.66	1.8587e-06	5.7813e-06	314	87.357	68.931	20.346	2.4056e-06	28.295	0.00066472	0.00085384	0.0002473	1201.1	9.124e-06	9.8687e-06	1308.3	247.54	9.3737e-06	9.5839e-06	314.34	88.871	69.888	20.889	9.5343e-06	29.041	196.710	199.120	242.757	171.468	291.593	301.046	171.194	178.897	286.208	331.178	178.770	184.700	185.112	193.009	293.735	192.488	-8191	255	
1056.778	1	1	0	0	0.17066	0.1082	0.1155	0.17622	0.27084	0.21001	0.085048	0.16088	0.21925	0.037883	0.23071	0.070406	0.15737	0.20857	0.20646	0.1976	-1.9292	-3.1167	-2.5687	-2.5417	-3.0958	-2.35	-2.7729	-3.0583	-2.2792	-2.9458	-2.3396	-2.2333	-3.0979	-2.3146	-2.3646	-2.8479	285.159	308.473	463.586	479.015	227.060	239.230	498.169	481.312	467.139	199.807	198.452	427.352	464.423	418.732	328.334	520.577	0.00029004	0.00047223	4.7659e-05	1211.2	2.655e-06	4.3096e-06	1317.1	248.31	2.9449e-06	3.496e-06	313.23	87.969	68.948	20.411	3.5942e-06	28.091	0.00065	0.00085053	0.00024612	1199	9.1044e-06	9.7556e-06	1310	247.93	8.9483e-06	9.3101e-06	314.32	89.058	69.984	20.866	9.0746e-06	28.983	195.775	270.897	264.595	171.311	296.140	322.376	171.464	178.592	279.117	352.952	178.461	184.722	185.164	192.766	294.330	192.268	-8191	255	
1056.899	1	1	0	0	0.19359	0.089506	0.21165	0.29876	0.097442	0.097861	0.1561	0.20438	0.15188	0.19836	0.29801	0.09234	0.19376	0.20064	0.33759	0.081426	-1.7938	-2.7833	-2.6896	-2.4021	-3.2854	-2.4354	-2.5563	-3.1979	-2.2062	-2.8479	-2.625	-2.3438	-3.0812	-2.4896	-2.3854	-3.1063	438.739	363.482	320.513	262.429	420.597	513.039	481.100	217.141	165.815	218.390	199.979	462.335	470.418	206.933	320.538	419.912	0.00027397	0.00034217	5.0293e-05	1208.2	2.7652e-06	4.3823e-06	1317	246.42	3.4535e-06	1.4901e-06	312.07	87.757	68.95	20.443	3.872e-06	28.119	0.00063144	0.00084371	0.00022981	1199.1	8.6705e-06	9.2281e-06	1307.6	247.2	8.7378e-06	9.2526e-06	313.82	88.768	69.94	20.84	8.8929e-06	29.014	199.100	284.074	274.375	171.556	286.497	317.774	171.385	178.930	278.503	329.809	178.599	184.569	185.292	192.740	313.171	192.587	-8191	255	
1056.995	1	1	0	0	0.08755	0.032029	0.11596	0.27866	0.044973	0.013653	0.30236	0.10786	0.062247	0.18545	0.14383	0.048237	0.16895	0.12526	0.21858	0.14205	-1.9625	-2.6188	-2.9458	-2.4146	-3.0792	-2.6708	-2.65	-3.2562	-2.2938	-2.5917	-2.8417	-2.1292	-2.9854	-2.5875	-2.4604	-3.3396	320.466	413.647	299.427	498.602	506.187	375.070	398.606	270.922	186.220	215.445	497.420	438.572	186.132	351.068	365.682	404.978	0.00030383	0.00053221	9.319e-05	1205.1	3.0306e-06	3.9487e-06	1318.5	247.44	3.2784e-06	1.7968e-06	311.57	87.541	68.964	20.324	1.7123e-06	28.446	0.00063069	0.000852	0.00023791	1198.3	8.7378e-06	9.3225e-06	1308.9	247.84	8.8376e-06	9.0487e-06	313.82	88.983	69.961	20.831	8.7838e-06	29.071	195.585	262.469	216.971	171.538	314.667	316.035	171.476	178.738	300.172	317.403	178.761	185.041	185.425	192.926	345.145	192.081	-8191	255	
1057.091	1	1	0	0	0.26797	0.19889	0.13941	0.16019	0.39526	0.10726	0.37413	0.12611	0.16917	0.14829	0.18868	0.21372	0.24744	0.22567	0.035814	0.034171	-2.0042	-2.8083	-2.9625	-2.4417	-2.8708	-2.6396	-2.5104	-3.15	-2.5375	-2.6271	-3.2083	-2.1792	-3.075	-2.975	-2.3125	-3.4062	178.447	213.804	353.266	468.748	517.873	447.092	415.066	175.455	187.622	369.087	473.215	267.741	342.126	197.468	391.691	438.638	0.00028444	0.00047699	6.3211e-05	1206.3	3.9704e-06	1.7861e-06	1311.3	247.8	2.158e-06	2.1678e-06	313.92	87.613	68.974	20.324	2.2492e-06	28.103	0.0006159	0.0008199	0.00022993	1197	8.8223e-06	9.2523e-06	1305.9	247.24	8.5813e-06	9.1119e-06	313.91	88.871	70.009	20.793	8.8297e-06	28.993	195.189	259.282	247.664	171.774	282.878	281.916	171.373	178.876	294.327	353.820	178.431	184.632	185.171	192.932	311.804	192.544	-8191	255	
1057.212	1	1	0	0	0.24892	0.01836	0.048201	0.23401	0.23165	0.16645	0.1977	0.058459	0.3265	0.0082788	0.096547	0.15376	0.11152	0.21917	0.11371	0.069825	-1.9854	-2.5438	-3.0708	-2.2438	-2.6792	-2.8354	-2.2792	-2.925	-2.4583	-2.5854	-3.2292	-2.3688	-2.9104	-2.8937	-2.125	-3.0438	389.923	326.556	256.219	477.205	510.230	253.892	488.824	484.239	269.647	518.276	465.960	169.668	459.741	402.230	348.329	309.148	0.00028717	0.00026638	0.0001117	1204.1	3.1331e-06	4.4578e-06	1311.1	248.16	3.7827e-06	3.8305e-06	312.32	87.585	68.793	20.198	3.3764e-06	28.193	0.00062558	0.00082062	0.00022975	1196.5	8.6196e-06	8.9876e-06	1305.4	247.9	8.8075e-06	9.1248e-06	313.96	88.737	70.056	20.808	8.6132e-06	28.951	201.010	249.341	271.066	171.283	292.240	325.974	171.246	178.842	286.061	301.346	178.526	184.989	185.198	192.929	276.177	192.633	-8191	255	
1057.284	1	1	0	0	0.08786	0.093562	0.11918	0.24236	0.055444	0.014435	0.28059	0.069624	0.36714	0.14068	0.12652	0.30745	0.19594	0.068683	0.17459	0.28392	-2.2313	-2.3312	-3.2375	-2.5146	-2.8417	-2.9125	-2.3021	-3.4458	-2.6958	-2.4833	-3.2167	-2.2938	-2.7812	-3.2604	-2.3729	-3.0521	451.036	402.165	178.810	463.030	318.561	213.283	443.351	404.842	361.040	167.949	464.913	198.118	162.616	343.350	296.833	464.605	0.00029385	0.00067282	8.6946e-05	1210.1	3.8165e-06	3.0127e-06	1313.8	245.86	1.8485e-06	4.0114e-06	312.96	87.99	69.079	20.369	2.8058e-06	28.399	0.00062203	0.00079949	0.00022382	1197.7	8.7073e-06	8.9545e-06	1306.1	247.67	8.8282e-06	8.8577e-06	314.38	88.841	69.929	20.822	8.9743e-06	29.08	199.859	250.872	268.219	171.268	299.122	336.824	171.327	178.878	321.721	338.013	178.426	184.799	185.552	193.183	308.476	192.501	-8191	255	
1057.380	1	1	0	0	0.21209	0.032061	0.26025	0.29748	0.068305	0.038224	0.064288	0.14218	0.030454	0.078678	0.036335	0.232	0.22016	0.085357	0.18044	0.059084	-2.1729	-2.2521	-3.0521	-2.2292	-2.7021	-2.9667	-2.3312	-3.1229	-2.6583	-2.3646	-3.1708	-2.5792	-2.6833	-3.0917	-2.2625	-3.0833	405.766	218.780	254.644	456.559	433.842	385.701	182.758	176.728	329.135	503.150	288.249	380.500	516.349	426.570	515.769	360.209	0.00025732	0.00059337	0.0001051	1202.3	3.2094e-06	5.0437e-06	1309.1	246.22	2.8362e-06	3.9557e-06	310.33	87.2	68.909	20.33	4.2239e-06	28.003	0.00061846	0.00083514	0.00023349	1195.2	8.7102e-06	9.0507e-06	1302.4	247.25	8.7909e-06	9.1631e-06	313.76	88.882	69.774	20.826	8.7341e-06	28.931	199.852	248.545	234.227	171.370	308.946	295.647	171.541	178.980	303.821	284.380	178.600	184.717	185.176	192.809	300.958	192.654	-8191	255	
1057.500	1	1	0	0	0.24841	0.21734	0.34492	0.26817	0.14008	0.091421	0.19456	0.061285	0.15636	0.13414	0.077506	0.21764	0.18895	0.25228	0.19932	0.075547	-2.3792	-2.1542	-2.8625	-2.6167	-2.4521	-3.2562	-2.5687	-2.9646	-2.6458	-2.2188	-3.0229	-2.3708	-2.6146	-3.1021	-2.2083	-2.7292	418.211	316.176	166.222	469.647	373.711	313.884	468.398	416.409	353.896	351.575	464.663	310.746	397.064	463.944	397.815	412.763	0.00028239	0.00048066	6.3211e-05	1202.7	3.1832e-06	4.4056e-06	1311.5	248.06	2.9187e-06	1.9165e-06	311.37	88.144	69.531	20.197	3.016e-06	27.966	0.0006203	0.00083171	0.00022738	1193.7	8.5992e-06	9.0006e-06	1301.3	247.7	8.6478e-06	9.1395e-06	313.34	89.027	70.007	20.781	9.0345e-06	28.929	195.436	282.344	226.133	171.628	299.388	301.862	171.578	179.070	317.691	335.431	179.135	184.889	185.481	192.766	285.413	192.386	-8191	255	
1057.595	1	1	0	0	0.13786	0.079271	0.1382	0.24176	0.277	0.15112	0.22762	0.099996	0.10076	0.16406	0.10914	0.10199	0.11969	0.10011	0.22079	0.18746	-2.4042	-1.9958	-2.9396	-2.8583	-2.4375	-3.3417	-2.4646	-2.7021	-3.0917	-2.3146	-3.1063	-2.6979	-2.1937	-3.0667	-2.2646	-2.5604	463.266	448.976	264.177	520.997	237.798	218.492	492.241	439.216	330.763	439.093	166.632	483.669	174.175	403.516	266.921	181.845	0.0003131	0.00034913	0.00011811	1200.2	4.8736e-06	1.0907e-06	1305.3	247.2	3.1704e-06	4.6149e-06	312.14	87.232	69.101	20.345	2.5884e-06	28.168	0.0006312	0.00082281	0.00023606	1192	8.7386e-06	8.9233e-06	1301.6	247.49	8.488e-06	9.0197e-06	314.03	88.584	69.864	20.785	8.5162e-06	28.94	196.707	229.709	274.318	171.592	290.220	352.925	171.464	179.047	302.529	321.806	178.688	184.930	185.225	192.965	301.443	192.441	-8191	255	
1057.691	1	1	0	0	0.10817	0.11068	0.28748	0.13506	0.3471	0.079561	0.3443	0.07108	0.23318	0.34099	0.28923	0.078609	0.1746	0.31058	0.21682	0.14362	-2.5354	-2	-2.8729	-2.8625	-2.4417	-3.1625	-2.6	-2.8187	-3.1542	-2.3125	-2.9229	-2.7771	-2.3146	-3.1917	-2.5125	-2.5854	221.438	182.699	314.680	510.934	463.418	255.944	473.716	367.680	472.689	307.063	405.095	216.528	340.866	233.011	254.372	423.249	0.00030276	0.00035822	0.00011958	1200.9	2.9416e-06	1.3432e-07	1305.5	248.14	3.4584e-06	2.78e-06	311.58	87.121	68.812	20.323	2.9998e-06	28.282	0.000589	0.00078502	0.00022735	1190.9	8.4261e-06	8.7207e-06	1298.7	247.64	8.3018e-06	9.1253e-06	312.97	88.614	69.697	20.776	8.9709e-06	28.968	196.134	262.607	229.469	171.686	295.406	252.350	171.470	179.239	272.183	296.094	178.684	184.629	185.102	193.265	280.181	191.956	-8191	255	
1057.812	1	1	0	0	0.13086	0.32171	0.21909	0.18211	0.2518	0.050817	0.35263	0.35184	0.34235	0.14664	0.16005	0.33111	0.054952	0.13643	0.096784	0.17827	-2.7479	-2.2667	-2.975	-2.8333	-2.2604	-3.0062	-2.5396	-2.45	-3.0458	-2.3854	-2.9562	-3.0167	-2.3625	-3.2687	-2.5021	-2.3812	504.223	436.438	415.195	517.500	283.710	518.345	435.882	503.831	381.858	334.502	406.927	359.382	453.685	353.468	188.190	500.121	0.0003063	0.00010774	0.00012187	1202.8	2.0314e-06	2.1198e-06	1305.4	247.44	1.6633e-06	3.9147e-06	310.64	86.857	68.811	20.341	4.546e-06	28.168	0.00060555	0.00082923	0.00023145	1192.7	8.6925e-06	8.8017e-06	1298.5	247.01	8.5662e-06	9.0723e-06	312.97	88.44	69.732	20.775	8.7998e-06	28.916	196.706	430.058	302.931	171.352	291.991	345.921	171.152	178.508	272.934	300.315	178.597	184.387	185.416	192.864	345.057	192.086	-8191	255	
1057.883	1	1	0	0	0.13028	0.10088	0.063272	0.34963	0.16906	0.35668	0.14119	0.23177	0.014613	0.21113	0.041105	0.1514	0.085613	0.10976	0.18128	0.23153	-2.4229	-2.2792	-2.4688	-3.0187	-2.0812	-3.0438	-2.8625	-2.4313	-3.2292	-2.3604	-2.5396	-3.075	-2.1042	-2.8542	-2.7417	-2.3333	341.128	376.036	422.100	490.732	235.923	471.432	220.036	270.611	484.812	225.076	455.312	411.710	374.749	432.961	295.417	342.906	0.00028247	0.00060588	0.00011524	1200.1	2.1352e-06	4.2178e-06	1302	247.68	3.3339e-06	5.3608e-06	313.04	87.48	68.878	20.251	1.9947e-06	27.98	0.0006155	0.00083398	0.00022432	1192.7	8.7118e-06	8.8996e-06	1296.9	247.66	8.3927e-06	8.8813e-06	313.5	88.564	69.832	20.737	8.1134e-06	28.859	194.080	231.431	254.031	171.274	277.242	299.993	171.237	178.709	305.572	335.201	178.434	184.359	185.286	192.871	347.115	192.349	-8191	255	
1057.979	1	1	0	0	0.062709	0.33166	0.15521	0.16405	0.18138	0.10021	0.19848	0.10714	0.14629	0.0073898	0.22856	0.094981	0.12389	0.075148	0.12641	0.040993	-2.7938	-2.5646	-2.6146	-3.1937	-2.2438	-2.8896	-2.6896	-2.3729	-3.1042	-2.3896	-2.6521	-3.2771	-2.4875	-2.9229	-2.7313	-2.4021	504.900	438.120	180.882	496.334	183.147	520.846	221.214	426.804	455.708	274.629	456.818	284.912	283.704	211.699	490.507	353.755	0.00026116	0.00056269	0.00015405	1200.3	2.3609e-06	6.0181e-06	1305.8	246.8	2.8026e-06	3.6771e-06	312.43	87.112	68.852	20.335	4.3297e-06	28.061	0.00058837	0.00079239	0.00021979	1191.2	8.5351e-06	8.9005e-06	1297.1	247.3	8.4381e-06	8.8301e-06	313.79	88.493	69.725	20.8	8.5272e-06	28.847	197.527	238.117	260.416	171.283	260.792	296.568	171.133	178.880	270.040	298.046	178.248	184.673	185.478	193.023	303.416	192.770	-8191	255	
1058.076	1	1	0	0	0.1394	0.29478	0.14095	0.17297	0.25862	0.10647	0.089167	0.31841	0.12474	0.175	0.32536	0.34429	0.19871	0.039335	0.23301	0.050513	-2.8229	-2.2729	-2.375	-3.3646	-2.3875	-3.0375	-3.0083	-2.2	-2.9958	-2.5312	-2.5958	-3.1813	-2.3833	-3.0333	-2.8958	-2.2875	343.619	467.459	164.481	462.462	437.850	320.401	208.416	470.299	412.716	170.453	510.970	510.402	296.839	315.893	379.839	398.207	0.00027958	0.00024592	7.5814e-05	1203.6	2.6262e-06	3.1579e-06	1309.3	247.19	3.3185e-06	3.4879e-06	312.97	87.293	68.72	20.401	4.0886e-06	28.105	0.00062822	0.0008227	0.00023318	1192.6	8.9197e-06	9.2241e-06	1299.3	246.92	8.4511e-06	8.8728e-06	313.48	88.535	69.83	20.766	8.5205e-06	28.81	198.576	225.869	236.728	171.596	291.860	284.541	171.213	178.793	266.315	378.432	178.514	184.797	185.286	192.855	254.883	192.496	-8191	255	
1058.196	1	1	0	0	0.086157	0.13123	0.17366	0.47324	0.042545	0.12983	0.20441	0.19464	0.14619	0.13727	0.16314	0.014466	0.2524	0.031195	0.040012	0.07625	-2.6562	-2.7292	-2.2104	-3.0125	-2.3	-2.7562	-3.0875	-2.3937	-3.0833	-2.8167	-2.5083	-3.2687	-2.5062	-2.8042	-3.0917	-2.0979	181.308	361.160	474.364	467.966	331.135	387.586	459.249	182.765	433.525	512.312	504.873	227.685	194.794	237.579	511.518	246.227	0.0002867	0.00040812	8.0741e-05	1202.4	1.7808e-06	4.5168e-06	1303.8	247.21	2.0356e-06	3.4247e-06	311.41	87.377	68.842	20.204	4.8754e-06	28	0.0006023	0.00077664	0.00021588	1190.4	8.2655e-06	8.5325e-06	1294.6	246.79	8.2783e-06	8.5812e-06	312.53	88.609	69.657	20.693	8.3738e-06	28.913	197.412	260.332	287.018	171.467	299.414	320.262	171.152	178.744	310.933	372.299	178.652	184.807	185.256	193.282	321.514	192.006	-8191	255	
1058.292	1	1	0	0	0.037359	0.22425	0.15783	0.17133	0.037645	0.1416	0.19099	0.20331	0.36762	0.12229	0.26526	0.062377	0.087847	0.2543	0.1361	0.22102	-2.6979	-2.9604	-2.4021	-3.3063	-2.4875	-2.525	-3.1917	-2.1792	-2.8229	-2.8354	-2.275	-3.1312	-2.3292	-2.3396	-2.9875	-2.2125	246.007	437.635	316.011	212.617	277.361	191.209	444.683	469.276	335.098	255.992	447.342	200.914	176.623	176.533	322.061	511.200	0.00029061	0.00069456	0.00010955	1198.6	4.192e-06	2.4002e-06	1297.1	245.87	4.5492e-06	2.9372e-06	310.5	87.27	68.403	20.247	2.6722e-06	28.077	0.00059917	0.00079108	0.00022278	1190	8.5195e-06	8.6206e-06	1295.4	246.93	8.2094e-06	8.4342e-06	312.64	88.454	69.548	20.743	8.3599e-06	28.904	192.317	251.855	300.224	171.489	286.162	256.294	171.279	178.674	304.989	319.618	178.538	184.729	185.333	193.060	222.084	192.433	-8191	255	
1058.387	1	1	0	0	0.094922	0.15161	0.24484	0.044896	0.077744	0.151	0.24819	0.21856	0.11058	0.05706	0.039675	0.070232	0.068929	0.21251	0.29396	0.074955	-2.6188	-2.9708	-2.1167	-2.9292	-2.4417	-2.3917	-3.4479	-2.5042	-2.8146	-3.1896	-2.4354	-3.1312	-2.7854	-2.5917	-2.9583	-2.4292	410.887	511.634	289.306	196.285	359.506	213.705	401.503	480.052	318.626	342.443	188.281	300.152	465.806	313.696	322.387	461.509	0.0002558	0.00033299	5.8328e-05	1194.5	2.2681e-06	3.0245e-06	1303.8	245.3	3.3181e-06	4.6323e-06	312.77	87.703	68.789	20.282	1.385e-06	28.102	0.00058932	0.00076891	0.00022502	1187.8	8.459e-06	8.8245e-06	1295.6	246.49	8.331e-06	8.4939e-06	312.97	88.802	69.549	20.755	8.2103e-06	28.835	193.087	272.556	260.660	171.593	266.341	309.346	171.311	178.982	279.521	329.116	178.510	184.947	185.318	192.982	284.904	192.439	-8191	255	
1058.483	1	1	0	0	0.051678	0.25551	0.19288	0.17663	0.17972	0.052618	0.14045	0.039202	0.24936	0.1173	0.085646	0.23731	0.18264	0.28141	0.38806	0.25017	-2.1896	-2.9333	-2.1521	-3.1042	-2.5333	-2.2229	-3.2917	-2.4521	-2.3937	-3.0542	-2.1958	-3.0521	-2.8	-2.1833	-3.1125	-2.3667	323.032	279.557	174.053	471.897	369.386	514.860	460.362	329.528	260.487	409.695	459.008	343.570	255.979	479.365	347.871	452.468	0.00028395	0.00034449	5.9799e-05	1206.6	1.5918e-06	5.5517e-06	1308.1	247.12	3.1033e-06	4.4945e-06	311.95	87.61	69.091	20.291	2.9221e-06	28.019	0.0006001	0.00074375	0.0002266	1192	8.0002e-06	8.6318e-06	1295.9	246.86	8.2426e-06	8.257e-06	312.51	88.836	69.729	20.749	8.1998e-06	28.801	194.818	247.028	305.257	171.511	250.702	325.239	171.018	178.460	290.710	318.979	178.661	184.644	185.111	192.719	295.099	192.239	-8191	255	
1058.579	1	1	0	0	0.066811	0.07895	0.17155	0.20262	0.091263	0.1022	0.15942	0.038508	0.147	0.090031	0.26282	0.18343	0.022909	0.31856	0.13808	0.028424	-2.3125	-3.0917	-2.0333	-3.0458	-2.9	-2.325	-3.1917	-2.6875	-2.4833	-3.1562	-2.5021	-3.0083	-3.0417	-2.5292	-3.1562	-2.6646	308.591	406.527	316.582	493.328	389.389	324.850	519.627	407.385	481.315	347.825	478.037	396.340	463.811	399.197	380.584	511.768	0.00028295	0.00010695	7.814e-05	1203.4	3.306e-06	4.7611e-06	1298.7	247.11	3.7949e-06	3.0246e-06	311.71	87.314	68.887	20.225	2.5674e-06	27.996	0.00059049	0.00075571	0.00022018	1190.2	8.0483e-06	8.3756e-06	1295.6	246.66	7.9794e-06	8.4035e-06	312.58	88.414	69.761	20.733	7.9988e-06	28.827	200.686	264.588	315.641	171.322	342.285	319.901	171.184	178.685	305.694	322.493	178.786	185.072	185.197	192.906	354.289	192.573	-8191	255	
1058.675	1	1	0	0	0.23978	0.10431	0.27959	0.069564	0.17389	0.24141	0.23002	0.21725	0.11489	0.10955	0.031413	0.12671	0.15192	0.30799	0.12424	0.059006	-2.1396	-3.2875	-2.4667	-2.9854	-3.1063	-2.3604	-3.4271	-2.8021	-2.6417	-3.3583	-2.5312	-2.9	-3.0604	-2.2188	-3.1042	-2.9188	169.984	348.108	332.934	243.287	495.164	279.600	195.705	469.035	398.075	376.317	236.610	367.039	496.917	406.914	433.214	202.823	0.00030201	0.00021928	8.2764e-05	1197.4	3.4786e-06	2.0604e-06	1308.2	246.55	3.2725e-06	4.2006e-06	309.55	87.296	68.521	20.102	4.9991e-06	27.942	0.00059475	0.00072648	0.00021698	1188.3	7.8528e-06	8.7351e-06	1296.5	246.48	7.9336e-06	8.2147e-06	312.07	88.542	69.612	20.664	8.0654e-06	28.807	196.827	237.217	274.587	171.423	278.446	324.095	171.161	178.842	288.730	311.567	178.467	185.222	185.469	192.998	319.162	192.703	-8191	255	
1058.771	1	1	0	0	0.25499	0.11221	0.34743	0.15981	0.21632	0.22381	0.21768	0.26098	0.19057	0.14445	0.12321	0.10343	0.17241	0.12083	0.28037	0.20983	-1.9312	-3.3042	-2.3708	-2.6937	-2.8688	-2.2458	-3.2	-2.7833	-2.4354	-3.1354	-2.5	-2.8125	-3.2396	-2.2604	-3.1104	-2.9521	356.902	499.905	343.896	348.292	379.824	430.561	503.455	491.505	334.672	370.351	197.241	391.138	189.293	414.623	310.218	271.003	0.00028342	0.00042223	0.00015817	1189	8.4181e-07	4.3297e-06	1294.3	244.24	1.6888e-06	3.1276e-06	309.95	86.658	68.519	20.19	4.2653e-06	28.067	0.00056954	0.00075144	0.00021665	1186.9	7.993e-06	8.6801e-06	1293.6	245.93	7.9324e-06	8.1911e-06	312.55	88.415	69.522	20.673	8.1602e-06	28.862	198.353	237.219	243.659	171.234	308.099	305.676	171.477	178.193	296.613	261.540	178.508	184.629	185.139	192.495	317.708	192.494	-8191	255	
1058.892	1	1	0	0	0.18762	0.062822	0.19158	0.13093	0.013794	0.25602	0.42352	0.14565	0.15059	0.10759	0.11889	0.14986	0.049392	0.24236	0.20426	0.083339	-1.875	-3.2521	-2.5208	-2.5896	-3.05	-2.2521	-2.925	-2.8833	-2.2042	-3.1604	-2.6771	-2.6167	-3.1792	-2.2208	-2.7792	-2.7438	272.500	440.377	413.289	496.818	233.144	271.218	463.694	478.196	311.148	177.513	417.147	234.153	506.194	429.041	300.541	380.218	0.00027909	0.00029887	0.00016681	1196.8	3.3035e-06	5.0328e-06	1305	246.54	5.7316e-06	4.4064e-06	310.55	87.364	68.364	20.317	3.5849e-06	27.974	0.00057773	0.00073482	0.00021236	1189.3	7.8127e-06	8.6595e-06	1294.8	246.57	8.0196e-06	8.2632e-06	312.37	88.371	69.462	20.688	7.9609e-06	28.826	197.745	189.596	285.630	171.713	276.260	310.880	171.292	178.708	273.656	315.876	178.542	185.085	184.999	193.061	320.163	192.594	-8191	255	
1058.988	1	1	0	0	0.27384	0.10836	0.085423	0.089513	0.11132	0.25913	0.15816	0.24578	0.37741	0.058127	0.041381	0.18199	0.27936	0.051625	0.22104	0.23443	-1.7396	-3.05	-2.6458	-2.6208	-3.1729	-2.4583	-2.9521	-3.1354	-2.0479	-2.9417	-2.7188	-2.5292	-3.3521	-2.475	-2.8229	-3.0875	261.312	396.157	295.762	276.537	247.945	359.926	472.688	426.180	323.577	221.544	339.556	457.042	198.211	301.198	213.893	329.811	0.00029142	0.00053294	0.00013024	1199.9	2.7311e-06	4.5588e-06	1299.9	246.71	1.5565e-06	2.9585e-06	312.83	87.623	68.513	20.229	4.9434e-06	28.158	0.00058407	0.00077911	0.00021341	1187.8	8.0487e-06	8.7856e-06	1294.8	246.04	8.1522e-06	8.2156e-06	312.99	88.504	69.527	20.678	7.9777e-06	28.823	198.391	242.536	225.194	171.533	329.659	293.685	171.320	178.918	273.826	289.899	178.414	184.762	185.445	192.238	308.424	192.399	-8191	255	
1059.084	1	1	0	0	0.038601	0.10475	0.03842	0.18412	0.043735	0.20032	0.28557	0.11694	0.0092475	0.14259	0.12379	0.090476	0.084567	0.17889	0.1321	0.048196	-1.8563	-3.0104	-2.85	-2.5187	-2.8875	-2.3042	-2.7104	-2.8021	-2.0083	-2.7562	-2.7271	-2.1833	-3.1188	-2.4562	-2.5042	-3.075	161.755	274.319	175.281	408.938	263.589	276.295	407.303	186.133	251.142	358.994	371.765	455.706	512.109	270.795	163.376	271.369	0.00031042	0.00034747	0.00012482	1198.7	2.3203e-06	3.3744e-06	1301.1	246.42	3.2239e-06	3.2444e-06	311.37	87.366	68.522	20.358	3.6049e-06	28.042	0.00058712	0.00073206	0.00021011	1188.7	8.0419e-06	8.4351e-06	1294.3	246.64	8.11e-06	8.2935e-06	312.56	88.527	69.506	20.697	8.2622e-06	28.769	193.591	287.630	281.662	171.716	270.703	315.552	171.345	178.702	280.019	343.795	178.820	185.176	185.445	193.292	274.685	192.349	-8191	255	
1059.180	1	1	0	0	0.18966	0.053196	0.091317	0.14356	0.097372	0.1459	0.11541	0.14245	0.17291	0.24284	0.25474	0.093588	0.24418	0.36518	0.11354	0.085043	-1.9062	-2.7979	-2.6708	-2.2333	-3.0479	-2.525	-2.9146	-3.2896	-2.2708	-2.7917	-3.0667	-2.2146	-2.9021	-2.6125	-2.3063	-3.2625	328.912	245.440	256.997	476.602	412.998	297.897	387.307	388.303	518.028	215.626	494.248	282.003	296.476	233.342	439.907	311.687	0.00028213	0.00044052	5.2043e-05	1201.6	2.3427e-06	2.6825e-06	1305	246	4.0814e-06	4.8378e-06	310.83	87.037	68.655	20.182	1.1741e-06	28.009	0.00059727	0.00078761	0.0002113	1188.5	8.0243e-06	8.6161e-06	1295.9	246.43	8.0532e-06	8.1684e-06	312.47	88.47	69.474	20.707	8.0152e-06	28.792	192.868	233.866	301.877	171.575	255.056	293.781	171.253	178.684	267.626	322.904	178.102	184.856	185.105	192.960	340.571	192.431	-8191	255	
1059.277	1	1	0	0	0.19432	0.26409	0.14939	0.45651	0.12082	0.21538	0.21413	0.12191	0.043127	0.12652	0.28408	0.18084	0.13116	0.004551	0.16729	0.08273	-1.8167	-2.6542	-3.0271	-2.3292	-3.1208	-2.7229	-2.4625	-3.3292	-2.1312	-2.6896	-3.0021	-2.3375	-3.1063	-2.6479	-2.3604	-3.1729	413.549	185.989	419.202	446.553	518.122	283.171	429.652	423.900	214.352	303.409	190.337	166.031	275.648	188.891	319.838	407.703	0.00027466	0.00049841	0.00014207	1197.9	2.3393e-06	3.5083e-06	1296.8	245.19	2.4473e-06	3.2777e-06	308.04	86.908	68.052	20.025	3.3998e-06	28.016	0.00057189	0.00073569	0.0002052	1187.2	7.7506e-06	8.0042e-06	1291.6	246.01	7.6031e-06	7.7525e-06	311.29	88.023	69.259	20.614	7.7055e-06	28.772	192.600	235.122	261.962	171.308	330.258	277.680	171.229	178.507	267.444	305.178	177.977	184.481	184.881	192.449	323.614	192.158	-8191	255	
1059.373	1	1	0	0	0.34492	0.2262	0.075463	0.38757	0.19228	0.2402	0.1085	0.14406	0.18122	0.1491	0.047979	0.24413	0.21056	0.16214	0.18227	0.095052	-1.85	-2.4625	-3	-2.2896	-2.9979	-2.6125	-2.4062	-3.3354	-2.5042	-2.6521	-3.2562	-1.9979	-2.8021	-2.8875	-2.2979	-3.1354	509.251	294.765	417.670	190.009	461.989	232.462	276.737	188.901	170.344	293.852	317.123	468.104	199.684	468.779	302.496	454.614	0.0002888	0.00049394	6.0165e-05	1192.1	1.7985e-06	1.756e-07	1301.3	245.51	1.8399e-06	3.8373e-06	311.79	87.018	68.898	20.221	3.7765e-06	28.223	0.00057072	0.00074271	0.00020809	1185.9	7.85e-06	8.3198e-06	1293.2	245.68	8.0764e-06	8.4547e-06	312.08	88.374	69.471	20.666	8.0506e-06	28.809	190.402	239.682	246.414	171.312	302.016	517.751	171.246	178.950	322.943	345.377	178.300	184.676	185.190	192.612	294.172	192.215	-8191	255	
1059.492	1	1	0	0	0.15482	0.05006	0.046711	0.26034	0.088373	0.23676	0.41901	0.2258	0.025403	0.18743	0.164	0.091695	0.32727	0.15091	0.054133	0.15072	-2.2229	-2.3937	-2.9708	-2.2438	-2.9208	-3.0062	-2.6188	-3.1583	-2.6271	-2.3771	-2.9896	-2.3167	-2.7542	-2.9813	-2.2854	-3.0667	367.262	231.537	194.595	495.652	452.396	268.978	485.700	471.247	505.134	345.234	310.175	348.425	209.905	454.300	463.342	179.497	0.0002742	0.00021916	9.9231e-05	1190.4	1.6562e-06	5.0324e-06	1299.9	246.23	2.9846e-06	1.7486e-06	311.89	87.302	68.562	20.348	2.9564e-06	27.954	0.00056461	0.00073928	0.00020191	1183.4	7.4409e-06	7.9639e-06	1292.5	246.31	7.7272e-06	7.7797e-06	311.83	88.308	69.377	20.703	7.6095e-06	28.782	198.243	232.912	244.979	171.344	282.912	304.031	171.057	178.756	294.913	273.168	178.518	185.104	185.490	192.653	332.094	192.666	-8191	255	
1059.588	1	1	0	0	0.12987	0.12648	0.11012	0.24412	0.18829	0.20862	0.18728	0.19317	0.18746	0.085626	0.21155	0.0090609	0.039549	0.031772	0.1398	0.19782	-2.0792	-2.2417	-3.2354	-2.625	-2.7625	-3.0333	-2.5333	-3.0667	-2.8479	-2.1979	-3.0521	-2.4375	-2.9125	-2.925	-2.1833	-2.9167	206.587	375.061	447.091	476.536	452.015	189.116	470.522	172.457	412.734	232.272	437.249	201.293	235.114	234.333	270.328	197.234	0.00029435	0.00017563	0.00010607	1197.7	2.4783e-06	2.0795e-06	1301.1	246.2	2.6144e-06	1.4786e-06	309.06	87.247	69.206	20.26	2.7629e-06	27.994	0.00056294	0.00069606	0.00019314	1186.3	7.4205e-06	7.6e-06	1293.2	245.4	7.5646e-06	7.8776e-06	311.1	88.333	69.479	20.701	7.7102e-06	28.778	193.638	289.123	247.941	171.467	267.256	311.352	171.371	178.812	312.110	302.002	178.510	184.746	185.582	192.906	291.492	192.454	-8191	255	
1059.684	1	1	0	0	0.094124	0.25205	0.10495	0.10822	0.13508	0.20816	0.18239	0.078933	0.56435	0.25322	0.23845	0.25358	0.30175	0.17166	0.23589	0.023448	-2.4854	-2.3688	-3.2292	-2.7042	-2.6729	-2.9854	-2.4417	-2.7896	-2.7146	-2.1833	-2.9813	-2.6021	-2.6437	-3.2354	-2.4229	-3.0417	333.528	312.732	278.128	325.974	362.968	442.558	413.158	394.504	489.547	437.373	476.640	406.211	482.136	269.681	439.987	177.226	0.00028418	0.00035773	0.00013204	1195.9	2.3674e-06	4.9968e-06	1302.7	246.16	3.043e-06	3.0345e-06	311.17	87.132	68.873	20.379	2.807e-06	28.009	0.00053828	0.000703	0.00020116	1185.1	7.5559e-06	8.0654e-06	1291.9	245.66	7.5564e-06	8.2503e-06	312.26	88.219	69.527	20.786	8.3001e-06	28.791	198.464	229.042	254.081	171.577	319.134	312.403	171.369	178.867	280.748	349.364	178.606	184.555	185.634	192.974	304.285	192.370	-8191	255	
1059.756	1	1	0	0	0.16405	0.28713	0.19052	0.20859	0.10295	0.27048	0.25543	0.086007	0.081896	0.1528	0.17213	0.31529	0.075578	0.087152	0.11631	0.1275	-2.4333	-2.1146	-3.0854	-2.875	-2.4167	-3.2792	-2.5083	-2.9396	-2.6937	-2.2979	-3.2521	-2.8896	-2.4521	-3.0958	-2.2167	-2.5271	198.848	436.275	348.988	520.642	397.093	346.809	363.348	492.175	397.198	477.691	469.545	440.504	332.253	509.953	288.208	273.244	0.00029257	0.00024629	5.3351e-05	1195	2.8815e-06	1.0363e-06	1298.1	245.85	2.0195e-06	1.0331e-06	311.2	86.971	68.993	20.125	3.1184e-06	28.07	0.00056431	0.00078346	0.00021458	1187	8.3187e-06	8.6917e-06	1293.3	246.07	8.312e-06	9.127e-06	312.29	88.184	69.644	20.685	8.9254e-06	28.854	196.391	247.484	240.692	171.643	291.660	325.023	171.366	178.960	337.018	318.652	178.752	184.576	185.648	193.284	304.709	192.564	-8191	255	
1059.876	1	1	0	0	0.12553	0.18811	0.23955	0.19605	0.06274	0.049863	0.2294	0.23335	0.17866	0.20861	0.18572	0.21658	0.31271	0.21123	0.13174	0.2636	-2.575	-2.1729	-2.8646	-2.8667	-2.2562	-3.1896	-2.4437	-2.6167	-2.9313	-2.2958	-3.0896	-2.8917	-2.375	-3.0563	-2.0792	-2.6958	438.165	365.390	263.371	204.900	386.604	270.560	395.465	479.911	249.595	264.591	274.846	476.635	188.256	489.227	196.501	456.221	0.00025408	0.00058839	5.36e-05	1196.6	1.4173e-06	5.0329e-06	1302.4	246.42	2.7309e-06	2.3188e-06	312.57	86.94	68.751	20.284	1.084e-06	27.984	0.00061313	0.00084171	0.00023357	1185.3	9.0619e-06	9.4114e-06	1295.4	246.38	9.0415e-06	9.6053e-06	312.65	88.135	69.526	20.75	9.5874e-06	28.893	195.337	254.588	222.405	171.641	348.466	319.603	171.643	179.244	279.441	293.048	178.753	185.101	185.450	192.989	304.666	192.307	-8191	255	
1059.972	1	1	0	0	0.072917	0.1639	0.16493	0.34081	0.27758	0.15845	0.12871	0.16765	0.12629	0.14754	0.31455	0.1855	0.0346	0.12256	0.19889	0.2003	-2.8708	-2.2583	-2.9458	-2.9375	-2.3854	-3.1771	-2.6646	-2.5229	-3.1063	-2.2542	-2.7438	-2.7104	-2.0708	-3.2333	-2.6562	-2.4938	230.200	286.268	193.713	476.742	445.931	172.428	446.204	512.200	384.876	417.704	404.442	472.124	342.265	419.286	456.732	362.999	0.00028991	0.00049637	0.00011037	1197.5	4.1146e-06	5.4592e-06	1304.6	246.41	1.4797e-06	3.3933e-06	311.46	87.418	68.928	20.319	7.6403e-08	28.136	0.00065748	0.00089	0.00024792	1189	9.8379e-06	1.0055e-05	1297.1	246.6	9.1007e-06	1.0213e-05	313.04	88.693	69.756	20.744	9.7517e-06	28.878	194.833	272.305	271.480	171.603	304.819	335.751	171.379	179.001	298.840	354.206	178.466	184.669	185.226	192.902	478.938	192.567	-8191	255	
1060.069	1	1	0	0	0.071388	0.15505	0.21911	0.061738	0.095763	0.14558	0.24697	0.11462	0.19654	0.13892	0.22453	0.11184	0.24195	0.19311	0.10297	0.10839	-2.8375	-2.2271	-2.9688	-3.2833	-2.1125	-3.0563	-2.6479	-2.3312	-3.0896	-2.5187	-2.8729	-3.0875	-2.1604	-2.9125	-2.6354	-2.3792	243.326	197.159	312.781	470.401	248.233	406.299	474.059	474.260	189.380	321.559	462.720	161.784	257.178	351.920	372.660	223.184	0.00026171	0.00034149	0.00015694	1201.9	2.1217e-06	1.8254e-06	1303.5	247.29	2.5111e-06	4.4063e-06	312.56	87.037	68.754	20.333	5.3429e-06	27.924	0.00065335	0.00090687	0.0002539	1190.6	9.761e-06	1.0147e-05	1296.9	247.01	9.7756e-06	1.0175e-05	313.69	88.434	69.794	20.845	9.6261e-06	28.907	197.672	308.368	275.713	171.519	286.850	312.460	171.123	179.004	340.699	337.076	179.004	184.826	185.702	193.330	306.726	192.652	-8191	255	
1060.165	1	1	0	0	0.15251	0.056108	0.19365	0.20874	0.16462	0.17792	0.19064	0.10156	0.3347	0.059356	0.34181	0.16178	0.27779	0.17567	0.24456	0.083937	-2.7562	-2.2167	-2.5312	-3.0771	-2.3063	-3.0417	-2.9979	-2.3646	-3.025	-2.1729	-2.4604	-3.0458	-2.1	-2.7646	-2.6937	-2.3646	252.402	505.682	317.441	497.742	319.853	224.502	453.100	332.569	269.374	392.642	498.204	386.728	360.846	484.591	401.189	508.035	0.00030858	0.00040479	4.3729e-05	1202.7	4.4196e-06	5.5938e-06	1309	248.1	3.3579e-06	1.8529e-06	312.67	87.421	68.714	20.231	1.7376e-06	28.056	0.00068894	0.0009453	0.0002597	1192	9.9838e-06	1.0175e-05	1298.4	247.57	9.3712e-06	9.8248e-06	313.34	88.603	69.575	20.717	9.2941e-06	28.865	201.646	217.223	270.903	171.398	308.356	335.151	171.315	178.801	277.833	242.725	178.700	184.734	185.241	193.080	293.671	192.454	-8191	255	
1060.284	1	1	0	0	0.17676	0.11325	0.27432	0.3054	0.043641	0.21488	0.30439	0.27387	0.12421	0.17066	0.33421	0.088217	0.22581	0.082669	0.32798	0.21362	-2.8271	-2.3833	-2.3875	-3.2646	-2.025	-2.75	-2.8604	-2.4125	-3.1125	-2.5312	-2.7083	-3.0583	-2.4042	-2.7938	-3.0563	-2.1979	236.311	351.259	162.093	474.067	449.170	189.850	409.511	170.837	494.083	294.234	475.927	380.475	316.070	228.641	387.578	388.100	0.00030957	0.00039953	0.00014321	1204.3	2.3697e-06	4.7693e-06	1308.5	247.17	3.8364e-06	1.9685e-06	312.01	87.461	68.762	20.244	2.4038e-06	28.054	0.00067369	0.00091133	0.00025626	1191.2	1e-05	1.0535e-05	1299.1	247.2	9.4856e-06	9.8168e-06	313.33	88.5	69.74	20.762	9.1074e-06	28.902	195.948	270.128	240.542	171.501	256.581	286.255	171.234	178.945	299.918	307.165	178.629	184.922	185.470	193.178	297.650	192.718	-8191	255	
1060.380	1	1	0	0	0.27329	0.11995	0.25012	0.33528	0.27763	0.14277	0.2782	0.16635	0.15624	0.17994	0.20796	0.24828	0.048508	0.18429	0.1416	0.065809	-2.6292	-2.4521	-2.3479	-3.2646	-2.3625	-2.9167	-3.0938	-2.1813	-3.1958	-2.7583	-2.4188	-3.1083	-2.3104	-2.6417	-2.9083	-2.2375	312.073	464.496	368.240	474.544	505.224	379.907	514.443	511.376	169.297	498.890	283.317	168.826	356.130	505.633	474.624	304.576	0.00028125	0.00039051	7.0237e-05	1202.6	2.2815e-06	4.0309e-06	1306.9	246.9	3.7085e-06	3.5544e-06	311.55	87.571	69.313	20.243	2.0114e-06	28.149	0.00065019	0.00089375	0.00024989	1192.7	9.6388e-06	9.9903e-06	1300.7	247.16	9.722e-06	1.0176e-05	313.54	88.643	69.897	20.73	1.0268e-05	28.949	199.120	283.773	275.752	171.678	316.427	301.443	171.163	178.994	307.773	393.738	178.977	184.819	185.369	193.297	231.027	192.547	-8191	255	
1060.453	1	1	0	0	0.066992	0.22638	0.23317	0.12615	0.15158	0.099735	0.1642	0.085604	0.14106	0.21324	0.15627	0.19921	0.2579	0.11334	0.080629	0.17078	-2.5125	-2.7667	-2.3542	-3.3354	-2.3271	-2.45	-3.1312	-2.5042	-2.9375	-2.8292	-2.2812	-3.2521	-2.4375	-2.5583	-3.3604	-2.2979	188.783	368.756	406.276	304.251	434.271	485.813	517.258	430.852	321.898	170.553	254.792	186.744	249.468	490.016	338.037	221.059	0.0002668	0.00033368	0.0001002	1205.3	6.5724e-06	4.7372e-06	1308.1	246.45	6.5181e-06	3.3368e-06	309.56	87.305	68.925	20.295	5.0276e-06	28.078	0.00071366	0.00096548	0.00028844	1192.8	1.0671e-05	1.1031e-05	1300.9	247.14	1.0787e-05	1.1008e-05	313.14	88.673	69.874	20.784	1.0861e-05	28.912	194.429	249.577	277.281	171.851	283.440	291.551	171.367	178.657	307.157	311.868	178.495	184.501	185.160	192.869	345.693	192.347	-8191	255	
1060.572	1	1	0	0	0.13155	0.23295	0.10222	0.13604	0.34882	0.14622	0.35581	0.38934	0.28509	0.31073	0.1791	0.1116	0.061921	0.22719	0.17522	0.037199	-2.7083	-2.8354	-2.1813	-3.15	-2.45	-2.3688	-3.2479	-2.1562	-2.95	-2.8083	-2.3312	-3.1792	-2.825	-2.3	-3.2333	-2.3604	235.312	193.585	188.261	425.285	510.222	206.082	441.779	495.272	467.665	401.979	200.090	293.539	399.469	325.068	283.474	491.004	0.00028189	0.00041173	8.6585e-05	1202.8	3.2153e-06	2.3046e-06	1308.8	246.41	1.9025e-06	5.0547e-06	310.23	87.544	68.317	20.329	1.3927e-06	28.104	0.00074155	0.0010087	0.00029962	1195.2	1.0781e-05	1.1808e-05	1303	247.41	1.0746e-05	1.1353e-05	313.98	88.922	69.707	20.838	1.057e-05	28.971	198.760	254.717	259.185	171.422	270.552	353.372	171.332	178.683	352.491	314.157	178.880	185.082	185.293	193.247	346.373	192.370	-8191	255	
1060.668	1	1	0	0	0.3425	0.097836	0.1248	0.19152	0.20958	0.1394	0.28859	0.19135	0.18541	0.20997	0.19048	0.12181	0.24093	0.12861	0.21347	0.27595	-2.3229	-2.8625	-2.1354	-3.1063	-2.5354	-2.4708	-3.2812	-2.4083	-2.5875	-2.9437	-2.2792	-3.1167	-2.7396	-2.4458	-3.1375	-2.6854	166.191	228.169	199.143	396.631	407.238	161.441	433.981	225.322	245.220	447.477	230.807	499.118	206.345	163.718	501.158	321.460	0.00029885	0.00028188	0.00012502	1206.8	2.1352e-06	4.02e-06	1308.4	248.25	4.365e-06	2.5544e-06	311.68	87.71	68.959	20.388	4.9743e-06	28.095	0.00073659	0.00098984	0.00028913	1197.7	1.064e-05	1.1133e-05	1303.5	248.19	1.0369e-05	1.1283e-05	313.85	88.941	69.98	20.821	1.0315e-05	28.908	198.192	233.657	262.705	171.662	290.294	290.598	171.567	178.960	296.295	359.817	178.493	185.084	185.644	192.819	327.960	192.808	-8191	255	
1060.764	1	1	0	0	0.096939	0.21612	0.043612	0.31498	0.11701	0.091748	0.34433	0.26145	0.19622	0.070321	0.062463	0.13776	0.13865	0.31188	0.094813	0.15248	-2.5333	-3.1479	-2.1188	-3.0729	-2.6146	-2.1771	-3.1792	-2.2979	-2.5354	-3.1458	-2.2625	-2.7917	-2.8937	-2.1833	-2.9771	-2.5	377.858	304.855	326.842	508.128	459.782	296.348	428.906	414.006	450.763	450.526	397.276	236.237	414.354	451.992	509.650	228.015	0.00031756	0.00038493	0.00012199	1206.5	2.3808e-06	1.646e-06	1313.4	248.42	3.2154e-06	4.292e-06	314.47	87.629	68.893	20.229	3.0458e-06	28.063	0.00071381	0.00097501	0.00028469	1198.3	1.0138e-05	1.1048e-05	1304.9	248.54	1.0266e-05	1.0441e-05	314.73	88.8	69.928	20.83	1.0565e-05	28.925	200.780	262.740	254.991	171.606	261.283	261.360	171.461	178.901	284.059	342.187	178.676	185.125	185.404	192.703	349.901	192.466	-8191	255	
1060.861	1	1	0	0	0.13214	0.21925	0.076845	0.035038	0.044943	0.18847	0.19481	0.10934	0.075092	0.16903	0.3861	0.059895	0.074817	0.16147	0.17681	0.12657	-2.2521	-3.1708	-2.1937	-3.0375	-2.8187	-2.4	-3.4354	-2.6396	-2.5187	-3.125	-2.3438	-2.75	-2.9562	-2.3167	-2.9271	-2.5583	448.309	392.047	366.558	486.705	330.483	494.051	385.378	490.076	440.290	414.879	503.942	416.366	469.691	491.956	344.168	396.346	0.00030503	0.00045155	9.765e-05	1209.1	3.7014e-06	3.0616e-06	1316	248.41	2.9468e-06	3.1744e-06	312.95	87.147	69.017	20.328	2.7313e-06	28.158	0.00072075	0.00099172	0.00028723	1199.4	1.0211e-05	1.1007e-05	1306.3	248.19	1.0275e-05	1.1065e-05	314.81	88.86	69.989	20.83	1.0318e-05	28.896	197.297	235.237	259.370	171.787	224.939	343.991	171.461	179.108	277.729	304.408	178.518	185.078	185.732	193.476	288.537	192.952	-8191	255	
1060.981	1	1	0	0	0.09813	0.11202	0.18559	0.40352	0.1605	0.1616	0.14028	0.10348	0.35275	0.0085638	0.12676	0.19209	0.11816	0.066517	0.17914	0.22848	-1.9188	-3.0375	-2.2833	-2.9437	-2.975	-2.0396	-3.1396	-2.6542	-2.2542	-3.2396	-2.4458	-2.5667	-3.2083	-2.2292	-2.9875	-2.6854	243.688	341.813	352.563	510.614	460.778	469.628	162.125	480.480	203.132	481.306	203.769	189.927	489.815	238.423	333.433	209.507	0.00028578	0.00021989	5.4877e-05	1205.9	2.5568e-06	5.3717e-06	1308.8	246.64	2.6753e-06	2.1761e-06	312.68	87.715	68.589	20.209	2.2266e-06	27.83	0.00071542	0.00096863	0.00027749	1196.7	1.0144e-05	1.113e-05	1302.7	247.71	1.0241e-05	1.0571e-05	313.91	88.649	69.902	20.724	1.0258e-05	28.817	196.874	169.960	161.814	171.587	263.244	305.799	171.727	178.767	262.112	314.318	178.604	184.748	185.684	192.828	246.854	192.549	-8191	255	
1061.053	1	1	0	0	0.20271	0.24556	0.18232	0.124	0.21828	0.19047	0.2087	0.14127	0.252	0.081355	0.12901	0.34859	0.062951	0.079417	0.21245	0.013459	-1.8813	-3.2375	-2.4354	-2.6875	-2.9083	-2.1917	-2.9625	-2.7208	-1.975	-3.0396	-2.4938	-2.5563	-3.05	-2.4021	-2.9542	-2.8771	224.794	425.715	303.306	469.290	349.549	464.446	492.554	392.464	472.380	374.625	215.485	181.166	200.041	494.667	183.969	391.330	0.00025613	0.00029835	0.000113	1204	2.5505e-06	3.3754e-06	1306.6	247.35	3.2957e-06	4.344e-06	311.08	86.997	68.641	20.211	4.0367e-06	28.017	0.00070508	0.00098932	0.0002774	1195.1	1.0337e-05	1.1256e-05	1299.1	247.2	1.0491e-05	1.1185e-05	313.18	88.658	69.808	20.777	1.0541e-05	28.845	195.980	251.877	246.697	171.667	316.623	310.345	171.174	178.807	294.793	320.180	178.804	185.249	185.512	193.185	307.800	193.085	-8191	255	
1061.173	1	1	0	0	0.2274	0.22158	0.37073	0.24913	0.19453	0.16786	0.20689	0.037237	0.052093	0.22654	0.29498	0.06053	0.38611	0.24311	0.2155	0.074471	-1.9542	-3.05	-2.4375	-2.5458	-2.9042	-2.1813	-2.8583	-2.9062	-2.0333	-2.9167	-2.5229	-2.2313	-3.0187	-2.1042	-2.7062	-2.8937	262.031	258.805	465.018	363.116	196.134	170.886	392.122	377.593	389.191	184.649	166.507	395.927	231.951	519.880	268.812	353.786	0.00026592	0.00032921	0.00012351	1207.7	5.3728e-06	3.1251e-06	1311.8	248.9	3.3988e-06	4.3964e-06	311.45	87.676	68.642	20.309	3.3666e-06	27.889	0.00072784	0.0010103	0.00027832	1196.6	1.0374e-05	1.1158e-05	1303.6	248.23	1.0553e-05	1.119e-05	313.66	88.826	69.868	20.785	1.0199e-05	28.851	199.050	283.692	244.782	171.923	280.136	323.482	171.617	178.764	294.921	331.822	178.722	185.004	185.431	193.063	333.651	192.264	-8191	255	
1061.270	1	1	0	0	0.28201	0.27876	0.10991	0.18849	0.067104	0.20279	0.24547	0.08496	0.14702	0.087135	0.31617	0.22065	0.25763	0.15203	0.20048	0.15879	-1.7854	-2.8958	-2.5521	-2.3792	-3.1833	-2.2812	-2.8521	-2.975	-2.0417	-2.8396	-2.6083	-2.2854	-3.0875	-2.3125	-2.6208	-3.1833	339.514	399.290	253.904	341.508	433.431	462.070	493.309	424.581	478.836	489.945	181.659	417.452	230.793	470.884	359.383	336.038	0.00029701	0.00041328	0.00012418	1201.5	2.7005e-06	2.0222e-06	1307.8	247.25	2.8079e-06	3.4159e-06	311.47	87.428	68.736	20.307	1.956e-06	27.958	0.0007162	0.00098534	0.00027267	1194.2	1.0073e-05	1.0792e-05	1301.9	247.48	1.0517e-05	1.0881e-05	313.14	88.681	69.875	20.81	1.0669e-05	28.88	199.568	302.388	249.470	171.744	327.909	282.317	171.522	179.072	341.584	297.100	178.750	185.255	185.590	192.894	272.838	192.790	-8191	255	
1061.366	1	1	0	0	0.11198	0.11921	0.19973	0.19584	0.15107	0.11817	0.18339	0.17872	0.023732	0.12523	0.24199	0.1941	0.15543	0.1977	0.30229	0.16308	-2.0687	-2.8875	-2.9	-2.2208	-3.05	-2.5625	-2.6542	-3.1833	-2.2271	-2.5083	-2.8479	-1.9333	-3.0667	-2.5375	-2.4771	-3.1479	351.289	243.241	443.633	446.973	350.879	202.777	465.982	465.415	478.183	261.280	240.251	237.189	341.011	392.857	205.854	489.946	0.00030544	0.00054393	0.0001244	1204.5	2.7951e-06	5.015e-06	1311.8	247.88	4.9801e-06	2.4615e-06	312.65	87.101	68.781	20.222	2.7766e-06	28.071	0.00075475	0.00099814	0.00028669	1194.3	1.0388e-05	1.1167e-05	1301.7	247.92	1.0317e-05	1.0677e-05	313.99	88.704	69.751	20.758	1.0409e-05	28.929	197.519	207.849	280.139	171.367	289.610	348.732	171.323	179.068	290.842	351.419	178.702	184.789	185.376	192.622	271.493	192.595	-8191	255	
1061.460	1	1	0	0	0.1846	0.13995	0.20799	0.35465	0.33328	0.12651	0.26007	0.1926	0.20978	0.040988	0.14008	0.33391	0.19509	0.21431	0.13161	0.22301	-1.8021	-2.55	-2.7438	-2.3625	-3.0729	-2.4833	-2.3833	-3.1458	-2.2917	-2.6	-3.0146	-2.2396	-3.0583	-2.6479	-2.3521	-3.3	237.070	338.304	162.123	504.950	463.572	398.892	451.324	175.942	241.412	343.949	343.451	382.295	381.079	414.979	447.783	481.515	0.00026796	0.00039309	8.1902e-05	1206.1	3.8593e-06	1.6954e-06	1313.2	248.06	3.3044e-06	5.213e-06	311.07	87.126	69.032	20.287	2.9058e-06	28.062	0.00071926	0.000964	0.00026965	1194.5	9.9473e-06	1.0803e-05	1302.5	248.12	1.0669e-05	1.0913e-05	313.55	88.544	69.672	20.77	1.0652e-05	28.876	192.912	250.004	221.189	171.708	310.569	348.178	171.626	178.587	271.477	348.971	178.752	185.087	185.736	192.742	291.963	192.525	-8191	255	
1061.581	1	1	0	0	0.021604	0.049712	0.078707	0.31093	0.18373	0.24895	0.21109	0.020176	0.12564	0.22034	0.17902	0.1282	0.10406	0.09462	0.23392	0.24144	-1.9458	-2.6146	-2.9542	-2.3167	-2.9333	-2.6312	-2.3958	-3.0583	-2.3604	-2.4875	-3.0646	-2.1729	-2.9375	-2.9167	-2.2083	-3.2542	283.428	260.597	205.018	509.308	214.358	196.208	476.949	162.722	269.347	407.371	370.064	357.179	378.828	422.612	228.738	209.685	0.00028394	0.00055935	0.00014556	1205.7	1.8127e-06	6.0983e-06	1313.8	248.07	3.1721e-06	5.792e-06	312.79	87.32	69.052	20.183	2.088e-06	28.015	0.00073561	0.0010074	0.00027899	1196	1.0478e-05	1.1168e-05	1303.8	247.85	1.0153e-05	1.0925e-05	313.51	88.705	69.914	20.703	1.0493e-05	28.816	196.179	258.341	244.744	171.637	275.144	298.528	171.571	178.898	274.659	299.141	178.850	184.664	185.723	192.673	287.534	192.484	-8191	255	
1061.677	1	1	0	0	0.073535	0.21071	0.13567	0.13984	0.18383	0.1723	0.10498	0.082705	0.10304	0.13335	0.19524	0.046574	0.32185	0.08792	0.091601	0.22433	-2.1188	-2.3833	-3.0771	-2.225	-2.8104	-2.8563	-2.4375	-3.2062	-2.3604	-2.5	-3.1021	-2.3125	-3.0208	-2.8937	-2.1792	-3.1937	298.088	287.610	444.837	487.272	184.376	161.629	465.535	496.287	314.175	237.511	205.240	508.136	244.021	339.750	283.181	405.468	0.00029481	0.00030173	0.00010145	1204.9	2.2386e-06	1.9048e-06	1307.1	247.72	1.4665e-06	3.3406e-06	310.16	86.903	68.549	20.256	3.9558e-06	28.017	0.00071559	0.00097748	0.00027283	1195.9	1.0252e-05	1.0849e-05	1302.8	247.65	1.0159e-05	1.0809e-05	313.39	88.401	69.824	20.725	1.0507e-05	28.866	200.206	314.152	217.131	171.455	257.158	249.568	171.561	179.148	312.071	353.967	179.108	184.846	185.718	192.915	313.750	192.526	-8191	255	
1061.749	1	1	0	0	0.14586	0.24591	0.20877	0.29156	0.23437	0.24394	0.1626	0.13676	0.084718	0.21227	0.13387	0.25482	0.044241	0.041213	0.21014	0.31563	-2.3875	-2.4437	-3.275	-2.4625	-2.5604	-3.0458	-2.2896	-3.1167	-2.4813	-2.5229	-3.3083	-2.2208	-2.5833	-2.8958	-2.1146	-2.8	302.515	489.854	332.510	492.733	287.582	493.210	450.863	469.793	235.655	284.909	484.498	505.726	313.430	238.164	422.489	442.484	0.00029662	0.00049447	0.00016487	1204.7	4.9433e-06	3.9628e-06	1308.2	245.94	2.5289e-06	3.9207e-06	311.45	86.504	68.802	20.249	2.5675e-06	28.096	0.00070598	0.00096121	0.00027257	1195.6	9.9621e-06	1.0826e-05	1302.1	247.25	1.0174e-05	1.0807e-05	312.87	88.543	69.845	20.78	1.0538e-05	28.874	197.782	268.326	271.473	171.679	298.813	344.231	171.883	179.395	252.871	327.147	178.860	184.712	185.547	192.973	367.876	192.501	-8191	255	
1061.845	1	1	0	0	0.12631	0.073967	0.090864	0.10508	0.175	0.19752	0.39926	0.058691	0.22017	0.31352	0.16795	0.12264	0.2755	0.1795	0.15779	0.045517	-2.2938	-1.9583	-3.1104	-2.6437	-2.7146	-2.9396	-2.2292	-2.9062	-2.7062	-2.3604	-3.25	-2.5646	-2.6354	-2.9938	-2.2021	-3.0833	207.824	343.724	348.499	521.125	393.633	341.866	208.855	511.247	437.052	251.704	494.749	182.362	432.004	463.441	406.592	321.630	0.00028721	0.00033104	8.6909e-05	1203.9	3.1417e-06	4.2873e-06	1309.7	247.03	3.8277e-06	2.4144e-06	313.48	86.906	68.864	20.14	2.0624e-06	28.081	0.0007042	0.00098976	0.00027587	1194.1	1.0181e-05	1.0864e-05	1301.5	247.33	9.9946e-06	1.086e-05	313.69	88.382	69.815	20.745	1.0662e-05	28.876	195.866	277.470	284.068	171.737	300.115	320.966	171.479	179.330	307.372	364.229	178.744	184.966	185.664	193.173	285.262	192.829	-8191	255	
1061.941	1	1	0	0	0.21336	0.25448	0.28563	0.14833	0.15012	0.072852	0.03713	0.14971	0.12245	0.22659	0.095753	0.018449	0.36212	0.076331	0.11725	0.068341	-2.3563	-2.2354	-3.1854	-2.5396	-2.3688	-2.9354	-2.4292	-3.0604	-2.9958	-2.4646	-3.1521	-2.6292	-2.3729	-3.0521	-2.2708	-2.6604	386.766	175.348	200.370	514.069	180.982	279.950	389.307	377.019	451.526	256.773	412.418	295.864	502.044	460.468	418.154	456.567	0.00027833	0.00014988	4.9487e-05	1206.7	3.2853e-06	2.3495e-06	1310.5	248.14	2.6268e-06	1.8686e-06	311.21	87.279	68.857	20.329	1.5538e-06	28.048	0.00069381	0.00098123	0.00026991	1195.6	1.0104e-05	1.0644e-05	1301.9	248.15	9.7764e-06	1.1035e-05	313.44	88.55	69.765	20.808	1.0173e-05	28.837	193.835	230.655	241.251	171.732	301.950	298.921	171.551	178.924	304.383	306.318	179.047	184.873	185.819	192.721	337.836	192.550	-8191	255	
1062.062	1	1	0	0	0.14947	0.044504	0.13988	0.19543	0.15148	0.055191	0.2293	0.22374	0.094801	0.096976	0.23425	0.33246	0.089812	0.06044	0.10841	0.087508	-2.5854	-2.2938	-3	-2.7812	-2.4375	-3.2	-2.3479	-2.825	-3.1396	-2.2729	-3.1271	-2.7562	-2.2625	-3.2229	-2.3042	-2.6333	370.621	512.012	466.418	398.068	485.486	390.083	470.614	511.272	422.305	478.498	454.551	468.631	324.588	224.949	459.853	388.034	0.00028546	0.000202	7.4202e-05	1204.6	3.8331e-06	2.0587e-06	1305	248.22	4.466e-06	4.6048e-06	311.12	87.446	68.874	20.167	2.7147e-06	28.042	0.00068738	0.00097162	0.00027233	1195.7	1.0231e-05	1.0662e-05	1302	247.95	1.0174e-05	1.0793e-05	313.17	88.473	69.718	20.69	1.0106e-05	28.901	200.047	338.675	220.765	171.854	282.785	419.302	171.572	179.117	293.508	312.197	178.949	184.826	185.714	193.331	324.418	193.022	-8191	255	
1062.158	1	1	0	0	0.21236	0.070929	0.047219	0.062584	0.23418	0.14901	0.088879	0.06035	0.48131	0.14742	0.10721	0.21931	0.17298	0.14966	0.036822	0.14439	-2.8375	-2.3	-3.0875	-2.8604	-2.2208	-3.1771	-2.5458	-2.5375	-3.0563	-2.3229	-2.9021	-2.7396	-2.0542	-3.3292	-2.6625	-2.5271	225.916	167.165	483.277	178.242	198.754	236.766	378.113	454.656	517.097	173.182	419.298	450.825	491.724	382.173	386.138	506.190	0.00028715	0.0005177	0.00013801	1206.2	1.6657e-06	3.5501e-06	1307.1	247.55	1.1607e-06	2.1695e-06	311.7	87.136	68.816	20.264	2.9449e-06	28.173	0.00069285	0.00096799	0.00027095	1194.8	1.0166e-05	1.0476e-05	1301.6	247.43	1.0306e-05	1.0583e-05	313.24	88.389	69.798	20.694	1.0323e-05	28.863	198.258	216.204	323.899	171.749	311.377	324.123	171.689	179.571	290.955	217.668	179.236	185.259	185.685	193.390	292.856	192.606	-8191	255	
1062.254	1	1	0	0	0.10447	0.23157	0.1817	0.33674	0.2081	0.10071	0.12104	0.15576	0.24942	0.1833	0.068118	0.13497	0.22186	0.040724	0.061348	0.19456	-2.6188	-2.1833	-2.7583	-3.0771	-2.2833	-3.1167	-2.8354	-2.6229	-3.4542	-2.4771	-3.0146	-2.8917	-2.1083	-3.0417	-2.4958	-2.35	378.651	443.683	319.419	440.178	456.420	257.082	458.191	217.692	349.836	233.912	356.407	419.037	182.046	200.279	222.160	381.032	0.00028011	0.00033753	0.00015344	1204.9	1.5612e-06	2.6966e-06	1308.1	246.84	5.1369e-06	3.0521e-06	312.42	87.254	68.607	20.148	2.7296e-06	27.836	0.00070914	0.00095782	0.0002621	1193.4	1.0614e-05	1.0573e-05	1300	247.44	1.0074e-05	1.0864e-05	314.03	88.559	69.692	20.724	1.0658e-05	28.794	198.121	235.244	215.387	171.855	280.224	341.858	171.615	179.311	305.508	293.898	178.881	184.958	185.585	193.209	295.856	192.951	-8191	255	
1062.350	1	1	0	0	0.25847	0.24711	0.13922	0.02702	0.08942	0.17186	0.153	0.076449	0.13094	0.19183	0.19076	0.038918	0.13907	0.19414	0.077226	0.15434	-2.675	-2.2167	-2.75	-2.9542	-2.1688	-3.0542	-2.9542	-2.2125	-3.2125	-2.4479	-2.8833	-3.1083	-2.0187	-3.0062	-2.8896	-2.2896	330.956	173.084	251.577	419.703	367.102	365.548	436.427	464.180	512.772	452.372	319.328	404.255	174.122	231.696	322.024	327.663	0.0002982	0.00015042	0.00013417	1209.4	3.7345e-06	4.4998e-06	1310.3	248.67	2.4477e-06	2.778e-06	313.19	87.103	68.797	20.376	1.3272e-06	28.069	0.00073992	0.00098912	0.00027731	1194.4	1.0695e-05	1.0829e-05	1302.7	247.64	1.009e-05	1.0988e-05	314.03	88.312	69.771	20.77	1.0449e-05	28.851	199.177	290.594	243.100	171.734	327.875	301.500	171.368	179.428	276.362	317.518	179.246	185.087	185.525	193.201	358.306	192.819	-8191	255	
1062.446	1	1	0	0	0.061658	0.11618	0.309	0.16618	0.13057	0.13683	0.18594	0.11955	0.17132	0.16301	0.04039	0.055	0.089064	0.047331	0.081312	0.22854	-2.6625	-2.2729	-2.5479	-3.3812	-2.3458	-3.0667	-3.1542	-2.5583	-3.1292	-2.4917	-2.7375	-3.3688	-2.2313	-2.6896	-2.9188	-2.3708	517.337	335.702	295.255	401.213	478.013	443.328	403.242	177.277	229.788	444.755	345.501	178.894	167.516	463.563	400.604	494.507	0.00028826	0.00042573	8.2352e-05	1203.6	5.8023e-06	4.0737e-06	1307.5	248.26	3.1561e-06	4.2872e-06	310.32	86.916	68.865	20.411	5.0498e-06	27.984	0.00071033	0.0010121	0.00027931	1194.6	1.023e-05	1.0731e-05	1300.1	247.74	1.0419e-05	1.1084e-05	312.83	88.452	69.682	20.755	1.0671e-05	28.809	196.238	264.192	256.680	171.672	293.188	312.739	171.765	179.203	305.768	355.892	178.825	184.974	186.116	193.203	278.219	192.896	-8191	255	
1062.542	1	1	0	0	0.12596	0.18217	0.21407	0.047024	0.24275	0.12827	0.091384	0.43858	0.27398	0.26755	0.22998	0.092814	0.097131	0.12983	0.095545	0.10124	-2.7708	-2.6833	-2.4938	-3.4979	-2.2438	-3.1479	-3.2333	-2.4375	-3.0417	-2.5771	-2.6021	-3.2812	-2.2562	-2.5938	-2.9167	-2.2479	378.369	189.083	285.236	286.528	329.266	391.223	348.963	508.556	161.893	294.379	394.681	437.341	195.751	166.575	408.023	518.044	0.00028718	0.00037558	0.0001409	1207.2	1.4389e-06	3.6881e-06	1309	247.09	6.6424e-07	5.8546e-06	310.84	87.106	68.931	20.195	1.3215e-06	27.95	0.00073967	0.0010218	0.00028496	1195.2	1.0813e-05	1.1061e-05	1302.5	247.74	1.0508e-05	1.0896e-05	313.34	88.402	69.706	20.692	1.0485e-05	28.743	195.603	270.976	247.545	172.189	303.851	342.201	171.864	179.371	258.451	312.821	178.978	185.207	185.687	193.574	325.144	192.810	-8191	255	
1062.661	1	1	0	0	0.24665	0.072322	0.044225	0.094199	0.33228	0.22583	0.2229	0.05813	0.081109	0.13704	0.35322	0.081864	0.13117	0.31814	0.12668	0.23288	-2.7333	-2.775	-2.3688	-3.3187	-2.3708	-2.5792	-3.4021	-2.3833	-2.9479	-2.7604	-2.4437	-3.1396	-2.5438	-2.525	-3.1167	-2.1771	494.760	176.269	498.311	426.710	464.577	395.093	484.447	477.087	180.657	206.643	376.036	405.253	403.014	176.368	425.972	501.630	0.00032184	0.00029569	0.00010865	1210	2.9362e-06	2.5247e-06	1309.6	246.19	3.8996e-06	4.962e-06	310.2	86.732	68.317	20.331	3.8707e-06	27.861	0.00072835	0.001	0.00028027	1196.4	1.0495e-05	1.1099e-05	1301.7	247.2	1.0352e-05	1.0818e-05	312.42	88.271	69.479	20.7	1.051e-05	28.78	195.211	261.614	245.370	172.003	254.398	306.331	171.562	179.122	296.443	346.870	178.976	185.507	185.699	193.793	291.065	193.396	-8191	255	
1062.757	1	1	0	0	0.1616	0.12443	0.087848	0.21895	0.17941	0.043327	0.24671	0.11649	0.14223	0.16324	0.1252	0.054744	0.043515	0.15126	0.20265	0.033617	-2.5187	-2.7417	-2.1521	-3.2438	-2.6104	-2.5208	-3.4188	-2.5604	-2.9146	-2.7938	-2.4833	-3.0896	-2.3521	-2.4	-3.0938	-2.3542	438.453	212.511	285.348	389.042	390.569	366.230	418.731	443.551	217.617	186.539	444.144	438.430	323.260	370.467	245.587	519.995	0.00032272	0.00043505	0.00013432	1203.1	5.2724e-06	1.5486e-06	1308.6	245.87	3.0993e-06	4.9549e-06	311.02	86.846	68.443	20.129	2.8032e-06	28.056	0.0007262	0.00098685	0.00028216	1193.9	1.0443e-05	1.1209e-05	1300.2	246.58	1.0502e-05	1.0915e-05	312.6	88.241	69.591	20.646	1.0637e-05	28.737	197.037	236.512	241.831	171.812	305.723	319.415	171.724	179.468	260.543	321.336	179.066	185.212	185.824	193.870	284.024	192.981	-8191	255	
1062.853	1	1	0	0	0.16076	0.12557	0.12685	0.14132	0.11427	0.18901	0.11365	0.16692	0.098493	0.091038	0.2775	0.10969	0.092757	0.22998	0.11188	0.19582	-2.2729	-2.7875	-2.3167	-3.2687	-2.475	-2.5667	-3.4562	-2.4375	-2.8312	-3.0125	-2.3292	-3.1583	-2.6	-2.3354	-2.9354	-2.4417	304.297	300.958	280.550	360.653	399.070	305.188	489.148	461.896	298.710	508.993	196.034	163.787	255.550	191.603	273.935	446.330	0.00027975	0.00054311	8.1108e-05	1208.9	1.5973e-06	1.8158e-06	1308.1	245.7	1.7643e-06	2.3641e-06	309.13	86.86	68.137	20.134	2.2167e-06	27.677	0.00072087	0.00099215	0.00028445	1194.3	1.0619e-05	1.1227e-05	1297.6	246.36	1.022e-05	1.1149e-05	311.19	88.204	69.21	20.59	1.0423e-05	28.587	200.784	234.393	267.120	172.104	263.909	488.281	171.636	179.054	276.758	312.292	179.150	185.447	185.885	193.157	277.065	193.248	-8191	255	
1062.950	1	1	0	0	0.1371	0.1456	0.0906	0.090611	0.29119	0.14825	0.32003	0.1442	0.02584	0.10233	0.32348	0.070481	0.16992	0.10024	0.22769	0.11056	-2.2521	-3.1042	-2.2229	-3.3063	-2.7604	-2.1708	-3.2687	-2.4667	-2.6833	-3.2	-2.5646	-3.0312	-2.7333	-2.4229	-3.25	-2.5354	289.434	481.267	344.257	429.441	170.122	193.325	411.104	227.836	399.638	510.216	511.423	321.365	325.104	242.868	301.204	486.270	0.00031067	0.0003655	0.00015124	1202.8	4.4116e-06	5.1188e-06	1303.3	245.93	3.5259e-06	4.9851e-06	308.84	86.751	68.711	20.175	2.312e-06	27.777	0.0007028	0.00098709	0.00028261	1192.1	1.0318e-05	1.0889e-05	1296.9	246.99	1.0469e-05	1.1417e-05	310.97	87.895	69.44	20.588	1.0769e-05	28.613	201.134	192.386	263.126	172.172	278.146	369.234	171.763	179.265	272.294	302.885	179.073	184.924	185.785	193.605	271.168	192.946	-8191	255	
1063.046	1	1	0	0	0.21479	0.10567	0.20688	0.18333	0.14237	0.18358	0.16362	0.060581	0.23252	0.028748	0.22879	0.086374	0.17806	0.06879	0.031514	0.15222	-2.2771	-3.1083	-2.2042	-3.0604	-2.9979	-2.1792	-3.3937	-2.8625	-2.5938	-3.0625	-2.1937	-2.9188	-2.9875	-2.1896	-3.0208	-2.7833	293.850	371.627	258.490	166.792	361.737	285.977	450.811	359.018	390.693	461.718	197.703	326.799	193.988	506.347	364.281	321.230	0.00027215	5.9546e-05	6.3754e-05	1201.9	2.9918e-06	2.8661e-06	1305.1	247.48	2.5953e-06	4.1151e-06	309.62	86.514	67.994	20.137	5.1973e-06	27.707	0.00073759	0.0010278	0.00029147	1191.2	1.0378e-05	1.1212e-05	1296.9	246.7	1.0338e-05	1.0862e-05	311.22	87.986	69.214	20.597	1.0223e-05	28.594	194.785	173.540	256.610	171.889	287.467	283.669	171.531	178.956	288.346	317.328	178.786	185.391	185.872	193.342	285.810	192.440	-8191	255	
1063.142	1	1	0	0	0.093144	0.22263	0.055198	0.068663	0.15114	0.31079	0.04365	0.10485	0.1019	0.16955	0.14328	0.21908	0.071157	0.13297	0.26705	0.096606	-2.0312	-3.3438	-2.3521	-2.9354	-3.1104	-2.1854	-3.2667	-2.7958	-2.4646	-3.3292	-2.5438	-2.8125	-2.9792	-2.3042	-2.9042	-2.9271	322.831	500.487	253.971	465.701	269.625	228.673	358.966	276.087	268.721	373.306	476.735	502.284	219.196	420.394	175.778	373.155	0.00026419	0.00020692	3.5352e-05	1202.2	2.6564e-06	2.7853e-06	1306.4	247.29	3.6448e-06	8.5579e-07	309.08	86.464	68.106	19.978	1.1613e-06	27.69	0.00071153	0.00099399	0.00028122	1192.6	1.0533e-05	1.1542e-05	1300.7	246.93	1.0919e-05	1.14e-05	311.29	88.054	69.256	20.623	1.128e-05	28.607	198.493	208.385	219.744	171.911	313.540	294.297	171.573	179.113	290.860	244.099	178.973	185.295	185.621	193.370	341.052	192.684	-8191	255	
1063.263	1	1	0	0	0.20227	0.17437	0.23005	0.20796	0.13683	0.1747	0.14959	0.17613	0.13411	0.22174	0.05202	0.072068	0.095706	0.20791	0.060951	0.032955	-2.1583	-3.1604	-2.4813	-2.9083	-3.2583	-2.3646	-3.1542	-2.7833	-2.2438	-2.9583	-2.5208	-2.6188	-3.325	-2.4	-3.0896	-2.9437	496.091	198.905	388.220	202.443	223.851	436.115	482.726	376.681	358.412	462.027	175.749	265.087	259.218	179.556	279.118	475.967	0.00032333	0.0002958	8.6065e-05	1202.6	3.855e-06	2.9227e-06	1306.5	246.46	4.4596e-06	5.5903e-06	309.69	86.58	68.577	20.262	2.1442e-06	27.755	0.00076847	0.0010389	0.00029789	1193	1.1464e-05	1.2196e-05	1300.4	247	1.1872e-05	1.2199e-05	311.79	88.117	69.588	20.687	1.1796e-05	28.689	199.909	262.291	258.006	171.833	280.415	322.833	171.563	179.098	279.586	283.655	178.651	184.926	185.337	193.284	336.924	192.925	-8191	255	
1063.357	1	1	0	0	0.11742	0.073444	0.039138	0.37567	0.1731	0.36042	0.16655	0.092172	0.16534	0.13899	0.085408	0.26588	0.19339	0.1746	0.11737	0.12781	-2.0312	-3.2042	-2.6979	-2.5979	-3.2292	-2.3583	-3.0833	-3.1792	-2.2208	-3.0667	-2.675	-2.5312	-3.3063	-2.4646	-2.9021	-3.2	210.784	193.851	380.157	167.541	219.936	235.929	515.620	462.067	281.674	422.970	340.954	231.580	261.792	230.745	201.658	164.697	0.00031619	0.00022363	7.9117e-05	1205.5	4.0846e-06	3.06e-06	1310.1	247.25	1.688e-06	1.9502e-06	312.63	87.3	69.149	20.111	4.0265e-06	27.93	0.00082128	0.0011203	0.00032023	1197.2	1.1782e-05	1.2905e-05	1302.8	247.7	1.2139e-05	1.2517e-05	312.87	88.404	69.935	20.709	1.1905e-05	28.816	193.159	230.670	254.041	171.900	285.748	318.186	171.260	178.872	276.209	260.364	178.748	185.041	185.481	193.312	323.965	192.479	-8191	255	
1063.453	1	1	0	0	0.033185	0.095177	0.28624	0.2193	0.20584	0.144	0.29796	0.2665	0.13653	0.12056	0.03444	0.21409	0.074498	0.23496	0.074374	0.14228	-1.9667	-3.1229	-2.6604	-2.525	-3.2417	-2.4188	-3.0438	-3.3042	-2.325	-3.0687	-2.8229	-2.3688	-3.1188	-2.55	-2.7854	-3.1375	514.185	351.271	346.905	491.390	381.394	431.646	440.628	435.942	467.830	210.368	227.403	280.779	310.063	468.439	382.683	470.285	0.00027328	0.00019039	0.00021451	1211.3	3.6268e-06	3.3227e-06	1312.1	248.38	5.5753e-06	5.4865e-07	309.59	87.284	68.532	20.267	3.6225e-06	27.803	0.00081504	0.0011574	0.00032617	1201.3	1.2061e-05	1.2841e-05	1307	248.51	1.2351e-05	1.2561e-05	312.12	88.662	69.943	20.784	1.2148e-05	28.798	190.285	281.599	266.316	171.846	333.400	272.567	171.693	178.936	297.431	321.882	178.780	185.450	185.413	192.824	283.940	192.781	-8191	255	
#DATA ENDS
