BOXY.EXE: ISS Imagent and Oximeter Data Acquisition Program Version 0.80
Ascii Record File

#ACQ INFORMATION
2  Detector Channels 
16  External MUX Channels 
1  Auxiliary Channels 
5000  Waveform (CCF) Frequency (Hz)
1  Waveforms Skipped 
30  Waveforms Averaged 
1  Cycles Averaged 
16  Acquisitions per Waveform 
10.0806  Updata Rate (Hz) 

#FILE INFORMATION
TRUE -- External MUX Channel results are PARSED.
FALSE -- AC DC and Phase are NOT grouped.
TRUE -- Companion Program Settings File CREATED.
FALSE -- AC data not excluded
FALSE -- DC data not excluded
FALSE -- Phase data not excluded
FALSE -- Auxillary Chn. data not excluded
Tab delimiters

#CALIBRATION STATE
TRUE -- Waveform Calibration Values APPLIED.


#AUX CALIBRATION VALUES
Val Type	aux-1	

Term	1.0000e+00	
Factor	0.0000e+00	


#WF CALIBRATION VALUES
A = Detector Channel
Val Type	A-AC1	A-AC2	A-AC3	A-AC4	A-AC5	A-AC6	A-AC7	A-AC8	A-AC9	A-AC10	A-AC11	A-AC12	A-AC13	A-AC14	A-AC15	A-AC16	A-DC1	A-DC2	A-DC3	A-DC4	A-DC5	A-DC6	A-DC7	A-DC8	A-DC9	A-DC10	A-DC11	A-DC12	A-DC13	A-DC14	A-DC15	A-DC16	A-Ph1	A-Ph2	A-Ph3	A-Ph4	A-Ph5	A-Ph6	A-Ph7	A-Ph8	A-Ph9	A-Ph10	A-Ph11	A-Ph12	A-Ph13	A-Ph14	A-Ph15	A-Ph16	

Term	0.00000e+00	0.00000e+00	0.00000e+00	0.00000e+00	0.00000e+00	0.00000e+00	0.00000e+00	0.00000e+00	0.00000e+00	0.00000e+00	0.00000e+00	0.00000e+00	0.00000e+00	0.00000e+00	0.00000e+00	0.00000e+00	0.00000e+00	0.00000e+00	0.00000e+00	0.00000e+00	0.00000e+00	0.00000e+00	0.00000e+00	0.00000e+00	0.00000e+00	0.00000e+00	0.00000e+00	0.00000e+00	0.00000e+00	0.00000e+00	0.00000e+00	0.00000e+00	0.00000e+00	0.00000e+00	0.00000e+00	0.00000e+00	0.00000e+00	0.00000e+00	0.00000e+00	0.00000e+00	0.00000e+00	0.00000e+00	0.00000e+00	0.00000e+00	0.00000e+00	0.00000e+00	0.00000e+00	0.00000e+00	
Factor	1.00000e+00	1.00000e+00	1.00000e+00	1.00000e+00	1.00000e+00	1.00000e+00	1.00000e+00	1.00000e+00	1.00000e+00	1.00000e+00	1.00000e+00	1.00000e+00	1.00000e+00	1.00000e+00	1.00000e+00	1.00000e+00	1.00000e+00	1.00000e+00	1.00000e+00	1.00000e+00	1.00000e+00	1.00000e+00	1.00000e+00	1.00000e+00	1.00000e+00	1.00000e+00	1.00000e+00	1.00000e+00	1.00000e+00	1.00000e+00	1.00000e+00	1.00000e+00	X	X	X	X	X	X	X	X	X	X	X	X	X	X	X	X	

B = Detector Channel
Val Type	B-AC1	B-AC2	B-AC3	B-AC4	B-AC5	B-AC6	B-AC7	B-AC8	B-AC9	B-AC10	B-AC11	B-AC12	B-AC13	B-AC14	B-AC15	B-AC16	B-DC1	B-DC2	B-DC3	B-DC4	B-DC5	B-DC6	B-DC7	B-DC8	B-DC9	B-DC10	B-DC11	B-DC12	B-DC13	B-DC14	B-DC15	B-DC16	B-Ph1	B-Ph2	B-Ph3	B-Ph4	B-Ph5	B-Ph6	B-Ph7	B-Ph8	B-Ph9	B-Ph10	B-Ph11	B-Ph12	B-Ph13	B-Ph14	B-Ph15	B-Ph16	

Term	0.00000e+00	0.00000e+00	0.00000e+00	0.00000e+00	0.00000e+00	0.00000e+00	0.00000e+00	0.00000e+00	0.00000e+00	0.00000e+00	0.00000e+00	0.00000e+00	0.00000e+00	0.00000e+00	0.00000e+00	0.00000e+00	0.00000e+00	0.00000e+00	0.00000e+00	0.00000e+00	0.00000e+00	0.00000e+00	0.00000e+00	0.00000e+00	0.00000e+00	0.00000e+00	0.00000e+00	0.00000e+00	0.00000e+00	0.00000e+00	0.00000e+00	0.00000e+00	-1.27807e+02	-1.29926e+02	-1.26772e+02	-1.80573e+02	-6.73208e+01	-6.76919e+01	-1.56582e+02	-1.62015e+02	-7.01869e+01	-5.52664e+01	-1.75242e+02	-1.71164e+02	-1.79933e+02	-1.76303e+02	-6.70147e+01	-1.49553e+02	
Factor	2.02714e-05	1.91716e-04	4.79495e-05	1.62367e-01	1.27428e-06	1.92766e-06	1.87826e-01	5.79250e-02	1.30275e-06	1.88192e-06	1.08611e-01	3.63822e-02	2.76640e-02	1.06877e-02	1.58961e-06	1.52523e-02	1.17346e-05	1.91389e-05	5.38533e-06	8.14419e-02	1.92304e-07	2.14576e-07	8.87117e-02	2.92306e-02	1.94660e-07	2.13727e-07	5.29229e-02	1.78944e-02	1.41700e-02	5.42369e-03	2.02256e-07	7.50969e-03	X	X	X	X	X	X	X	X	X	X	X	X	X	X	X	X	



#DISTANCE SETTINGS
A = Detector Channel
A-1	A-2	A-3	A-4	A-5	A-6	A-7	A-8	A-9	A-10	A-11	A-12	A-13	A-14	A-15	A-16	

2.5000e+00	3.0000e+00	2.5000e+00	3.0000e+00	2.0000e+00	3.0000e+00	1.5000e+00	3.0000e+00	3.0000e+00	3.0000e+00	3.0000e+00	3.0000e+00	3.0000e+00	3.0000e+00	1.5000e+00	3.0000e+00	

B = Detector Channel
B-1	B-2	B-3	B-4	B-5	B-6	B-7	B-8	B-9	B-10	B-11	B-12	B-13	B-14	B-15	B-16	

1.0000e+01	1.0000e+01	1.0000e+01	1.4400e+00	1.0000e+01	1.0000e+01	1.5100e+00	1.9400e+00	1.0000e+01	1.0000e+01	1.9900e+00	2.4900e+00	2.4100e+00	2.9000e+00	1.0000e+01	2.9800e+00	




#DATA BEGINS
time	group	step	mark	flag	A-AC1	A-AC2	A-AC3	A-AC4	A-AC5	A-AC6	A-AC7	A-AC8	A-AC9	A-AC10	A-AC11	A-AC12	A-AC13	A-AC14	A-AC15	A-AC16	A-DC1	A-DC2	A-DC3	A-DC4	A-DC5	A-DC6	A-DC7	A-DC8	A-DC9	A-DC10	A-DC11	A-DC12	A-DC13	A-DC14	A-DC15	A-DC16	A-Ph1	A-Ph2	A-Ph3	A-Ph4	A-Ph5	A-Ph6	A-Ph7	A-Ph8	A-Ph9	A-Ph10	A-Ph11	A-Ph12	A-Ph13	A-Ph14	A-Ph15	A-Ph16	B-AC1	B-AC2	B-AC3	B-AC4	B-AC5	B-AC6	B-AC7	B-AC8	B-AC9	B-AC10	B-AC11	B-AC12	B-AC13	B-AC14	B-AC15	B-AC16	B-DC1	B-DC2	B-DC3	B-DC4	B-DC5	B-DC6	B-DC7	B-DC8	B-DC9	B-DC10	B-DC11	B-DC12	B-DC13	B-DC14	B-DC15	B-DC16	B-Ph1	B-Ph2	B-Ph3	B-Ph4	B-Ph5	B-Ph6	B-Ph7	B-Ph8	B-Ph9	B-Ph10	B-Ph11	B-Ph12	B-Ph13	B-Ph14	B-Ph15	B-Ph16	aux-1	digaux	

1001.728	1	1	0	768	0.17725	0.11362	0.069418	0.25327	0.14994	0.064621	0.12776	0.10143	0.14002	0.18968	0.11544	0.11789	0.24228	0.24564	0.32077	0.20846	-2.3667	-3.4875	-2.9979	-2.8792	-3.7042	-2.8167	-3.2146	-3.7417	-2.625	-3.4354	-3.2771	-2.9083	-3.5604	-2.9292	-3.2104	-3.5833	289.930	338.043	218.855	448.615	368.980	258.646	400.313	459.987	167.686	276.710	515.986	508.222	236.567	490.970	499.613	463.298	0.00052069	0.00061047	0.00015575	1348.2	4.2748e-06	5.4702e-06	1347.2	364.58	5.5361e-06	5.795e-06	415.55	138.8	121.18	41.664	5.167e-06	51.241	0.00053806	0.00053764	0.00015244	1373.4	5.671e-06	5.9862e-06	1373.6	373.46	6.032e-06	5.8628e-06	426.33	142.76	124.31	42.897	5.8604e-06	52.99	194.663	237.789	239.043	171.788	285.033	314.705	171.492	176.084	296.836	302.751	175.713	179.724	180.129	185.021	306.149	184.433	-8191	255	
1001.823	1	1	0	0	0.07289	0.18895	0.027085	0.1757	0.18894	0.10177	0.22478	0.41897	0.31152	0.32314	0.077929	0.29557	0.37881	0.31779	0.1917	0.20222	-2.2729	-3.4479	-3.2917	-3.0583	-3.6125	-2.9833	-3.3271	-3.5583	-2.6667	-3.5208	-3.4	-2.9875	-3.6	-2.9792	-3.2021	-3.5563	305.824	279.965	408.261	493.069	512.522	439.150	246.334	468.225	516.397	251.635	426.590	476.184	464.210	516.821	514.416	475.535	0.00053166	0.00049762	0.00014389	1350.2	5.7815e-06	5.649e-06	1341	363.74	5.2546e-06	3.6272e-06	416.31	139.14	121.76	41.869	5.9822e-06	51.66	0.0005515	0.00053262	0.00014866	1374.4	5.8224e-06	5.8606e-06	1373.2	373.19	5.8406e-06	5.6958e-06	426.81	142.94	124.49	42.977	5.8212e-06	53.092	195.207	253.614	242.508	171.774	280.220	291.894	171.570	176.432	290.963	321.028	175.661	179.333	179.982	184.664	316.013	184.040	-8191	255	
1001.920	1	1	0	0	0.094329	0.22701	0.029973	0.29678	0.15945	0.13531	0.27761	0.1429	0.13834	0.21071	0.25351	0.37222	0.27501	0.14724	0.16263	0.11018	-2.5542	-3.4375	-3.2771	-2.9521	-3.7458	-3.0167	-3.1937	-3.9542	-2.8563	-3.275	-3.6083	-2.8104	-3.6	-3.3208	-3.0333	-3.6333	442.756	198.816	271.645	507.458	299.672	435.406	476.392	414.234	388.175	240.904	476.062	168.288	493.656	160.671	236.953	468.801	0.00054589	0.0004304	0.00013793	1354	3.7376e-06	4.0686e-06	1339.6	363.64	5.0615e-06	6.3487e-06	414	138.78	121.04	41.563	3.9111e-06	51.295	0.00055363	0.00052883	0.00014951	1375.5	5.5844e-06	5.988e-06	1373.2	373.17	5.914e-06	5.8383e-06	426.04	143.01	124.31	42.884	5.8309e-06	53.141	194.593	217.519	236.689	171.516	289.545	298.468	171.633	176.437	281.076	320.781	175.826	179.742	180.346	185.125	286.675	184.456	-8191	255	
1002.017	1	1	0	0	0.042677	0.033401	0.12513	0.58623	0.06154	0.16177	0.010356	0.14028	0.21043	0.099918	0.11724	0.22209	0.12066	0.24315	0.11083	0.068981	-2.4479	-3.2333	-3.4708	-2.8146	-3.5979	-3.0979	-2.8854	-3.8438	-2.9833	-3.15	-3.5667	-2.6229	-3.6583	-3.3	-2.725	-3.7979	206.135	465.195	163.644	499.058	428.117	335.779	472.237	473.634	177.644	500.730	453.879	159.512	167.474	481.383	234.563	491.415	0.00054932	0.00043913	0.00010666	1345.2	3.3884e-06	3.9268e-06	1343.9	366.7	5.9906e-06	6.4778e-06	417.29	139.76	120.4	41.372	4.6539e-06	51.563	0.00054505	0.00054538	0.00014585	1374.6	5.8032e-06	5.7283e-06	1373.4	374.17	5.942e-06	5.8873e-06	426.98	142.98	124.28	42.844	5.9543e-06	53.165	194.886	221.331	254.010	171.900	280.035	306.357	171.657	175.823	289.542	334.100	175.577	179.334	180.521	185.350	303.831	184.742	-8191	255	
1002.111	1	1	0	0	0.17756	0.040009	0.10345	0.095612	0.094044	0.1307	0.31181	0.058236	0.11237	0.10916	0.10172	0.12596	0.31001	0.37344	0.13463	0.32824	-2.5208	-3.1063	-3.5896	-2.9875	-3.4313	-3.3854	-2.9646	-3.9521	-2.8354	-3.075	-3.8	-2.8958	-3.4646	-3.2854	-2.7458	-3.7792	407.779	404.800	360.528	437.606	219.837	517.447	500.073	237.865	282.005	234.631	414.298	200.985	512.772	483.359	462.146	414.141	0.0005284	0.00066426	0.00013502	1345.1	3.8023e-06	6.8214e-06	1339.1	364.54	6.0232e-06	4.0439e-06	415.43	139.11	120.26	41.651	6.188e-06	51.198	0.00055025	0.00053737	0.00013788	1374.6	5.8116e-06	5.8284e-06	1373.3	374	5.9639e-06	5.8147e-06	427.14	143.15	124.36	42.915	5.7845e-06	53.147	193.061	262.815	242.696	171.872	287.767	305.016	171.618	176.265	287.371	329.864	176.076	179.790	180.296	185.141	293.513	184.558	-8191	255	
1002.207	1	1	0	0	0.2452	0.13712	0.03717	0.035078	0.17252	0.24761	0.15894	0.098889	0.30474	0.11363	0.27323	0.18186	0.22787	0.0075635	0.149	0.12579	-2.6458	-2.7958	-3.5187	-2.9813	-3.4771	-3.3083	-2.8146	-3.8438	-3.0812	-2.9104	-3.5708	-2.9375	-3.5125	-3.7313	-2.5563	-3.6917	355.641	204.679	440.906	173.346	212.713	160.927	158.432	449.120	395.279	398.800	440.908	468.140	232.729	439.737	318.788	433.622	0.00052863	0.00045435	9.4838e-05	1341.3	5.0884e-06	5.0007e-06	1344.8	365.41	5.5907e-06	5.6613e-06	415.88	138.91	121.61	41.564	3.6126e-06	51.194	0.00054431	0.00053457	0.000143	1373.6	5.8753e-06	5.7515e-06	1374.6	374.46	5.8524e-06	5.9421e-06	427.41	143.05	124.8	43.005	5.913e-06	53.175	195.514	241.956	243.452	172.011	299.775	265.685	171.543	176.136	280.676	323.388	175.799	179.577	180.240	185.321	290.133	184.535	-8191	255	
1002.328	1	1	0	0	0.14268	0.11468	0.11418	0.16448	0.17264	0.12757	0.056107	0.11734	0.19769	0.16946	0.12476	0.16089	0.022605	0.17172	0.12989	0.097127	-2.8979	-2.7167	-3.5187	-3.0458	-3.0563	-3.5979	-3.1542	-3.6708	-3.1417	-2.8771	-3.7417	-2.8646	-3.3583	-3.9083	-2.9083	-3.3187	198.541	446.358	408.004	508.020	233.007	512.710	432.419	469.089	406.191	378.639	362.471	168.384	386.232	185.170	350.303	457.099	0.00051726	0.00059694	0.00016117	1347.5	3.6979e-06	5.0046e-06	1346.4	364.93	5.1949e-06	5.731e-06	415.94	139.49	120.79	41.635	4.7975e-06	51.366	0.00055507	0.00053896	0.00014443	1377.2	6.0644e-06	5.7547e-06	1375.3	374.09	5.9558e-06	5.7439e-06	427.21	143.32	124.54	43.058	5.9649e-06	53.259	195.835	263.732	244.164	171.815	297.207	305.108	171.629	176.405	287.835	316.855	176.069	179.669	180.332	185.234	297.119	184.729	-8191	255	
1002.424	1	1	0	0	0.11758	0.13704	0.07382	0.30406	0.074979	0.15224	0.37273	0.18502	0.047821	0.15161	0.11844	0.058986	0.22171	0.16541	0.13764	0.19522	-3.0854	-2.9021	-3.6417	-3.1875	-2.9896	-3.8438	-3.0125	-3.4813	-3.3833	-2.8792	-3.7833	-3.1083	-3.2375	-3.6604	-2.7313	-3.5687	436.100	176.159	456.435	486.706	163.295	487.269	475.600	169.004	407.996	303.435	369.367	415.136	488.013	417.282	441.471	445.392	0.00054313	0.00043973	0.00012006	1351.3	2.6417e-06	5.9446e-06	1344.2	364.63	5.7441e-06	3.3086e-06	416.42	138.3	121.15	41.575	5.5865e-06	51.041	0.00054114	0.00054183	0.00014982	1376.7	5.9706e-06	5.579e-06	1375.5	374.25	5.7319e-06	5.8076e-06	427.21	143.11	124.64	43.025	5.8747e-06	53.152	195.106	241.129	235.337	171.685	295.546	299.042	171.730	176.389	287.446	319.039	175.904	179.794	180.383	185.345	299.043	184.921	-8191	255	
1002.520	1	1	0	0	0.1083	0.10051	0.26878	0.40059	0.20955	0.28776	0.079656	0.31458	0.050721	0.27744	0.26807	0.36442	0.30865	0.20617	0.09245	0.17073	-3.05	-2.5729	-3.3875	-3.2521	-2.8583	-3.7729	-2.9729	-3.25	-3.5979	-2.8333	-3.6854	-3.1521	-3.0479	-3.8125	-2.725	-3.3625	491.616	196.318	298.930	507.610	284.739	339.952	417.354	420.674	336.311	349.144	466.332	406.095	438.009	170.639	436.941	478.575	0.0005171	0.00073014	0.00014961	1345.4	3.94e-06	4.8128e-06	1346.2	364.58	5.8625e-06	3.8859e-06	415.84	138.43	120.56	41.521	6.7817e-06	51.367	0.00053546	0.00053035	0.00014582	1375.8	5.9213e-06	5.5669e-06	1375.4	374.27	5.7104e-06	5.8098e-06	427.38	142.9	124.49	43.057	6.0285e-06	53.198	194.343	249.185	246.127	171.866	297.713	329.211	171.365	176.107	305.819	322.734	175.804	180.166	180.635	185.311	285.923	184.863	-8191	255	
1002.616	1	1	0	0	0.14411	0.048345	0.11032	0.28094	0.081387	0.060215	0.13814	0.31779	0.26408	0.26436	0.2172	0.13324	0.27076	0.2505	0.029021	0.35437	-3.3375	-2.7729	-3.5708	-3.3625	-2.9396	-3.7958	-2.8688	-3.1542	-3.6083	-2.725	-3.575	-3.4062	-2.75	-3.6	-3.0375	-3.225	188.303	359.538	330.503	500.666	495.861	449.717	419.875	454.890	217.944	481.888	486.614	442.885	472.754	396.801	202.196	451.816	0.00055161	0.00049291	0.00017759	1348.4	4.1967e-06	5.2496e-06	1343.1	364.82	3.1651e-06	4.9486e-06	416.04	138.71	121.03	41.769	4.3613e-06	51.425	0.00052759	0.00054335	0.00014869	1376.1	5.83e-06	5.6139e-06	1375.9	374.38	5.6143e-06	5.7435e-06	427.65	143.2	124.66	43.136	5.8684e-06	53.332	195.247	250.837	258.374	171.911	279.713	301.142	171.578	176.657	288.763	311.417	175.751	179.762	180.188	185.308	299.459	184.748	-8191	255	
1002.712	1	1	0	0	0.18527	0.17257	0.20151	0.14782	0.12861	0.17895	0.25638	0.20014	0.17752	0.040238	0.17417	0.22557	0.17065	0.2192	0.17363	0.072682	-3.4	-2.7438	-3.2521	-3.5708	-2.8625	-3.6667	-3.3146	-3.1333	-3.9146	-2.7042	-3.3688	-3.5812	-2.8688	-3.575	-2.9604	-3.0187	440.216	362.261	319.247	475.167	222.364	451.090	455.378	469.992	253.157	432.181	460.484	220.524	425.310	194.643	431.121	368.755	0.00053969	0.0005387	0.00012897	1348	4.8225e-06	4.5135e-06	1343.3	365.16	5.141e-06	4.1495e-06	418.72	139.11	121.13	41.749	5.0211e-06	51.416	0.00053928	0.00054215	0.0001501	1375.7	5.7723e-06	5.7591e-06	1375.5	374.57	5.7193e-06	6.0102e-06	428.31	143.17	124.67	43.088	5.996e-06	53.183	193.773	230.630	253.513	171.971	286.870	309.032	171.354	176.296	275.865	321.120	175.738	179.776	180.205	185.255	331.206	184.514	-8191	255	
1002.808	1	1	0	0	0.081746	0.083415	0.087715	0.31895	0.067551	0.25182	0.23744	0.10369	0.26731	0.039085	0.15964	0.218	0.20037	0.20289	0.26311	0.059227	-3.25	-2.9896	-3.3708	-3.6458	-2.7396	-3.4708	-3.3917	-3.125	-3.7125	-2.8542	-3.2771	-3.7667	-2.8208	-3.4604	-3.1792	-2.9417	252.484	276.165	245.330	499.837	168.512	229.672	384.438	411.088	514.756	257.146	391.123	212.914	202.737	168.268	439.687	427.936	0.00054901	0.0005916	0.00015236	1352.3	4.4642e-06	5.353e-06	1348.9	365.74	4.8244e-06	4.9764e-06	417.07	139.33	120.92	41.848	4.6053e-06	51.422	0.00052344	0.00053992	0.00014561	1376	5.7623e-06	5.6398e-06	1376.4	374.46	5.8495e-06	6.0236e-06	427.95	143.43	124.62	43.073	5.8642e-06	53.291	193.705	224.513	252.475	171.713	286.548	311.064	171.460	176.138	285.152	320.989	175.632	179.586	180.278	185.235	313.510	184.316	-8191	255	
1002.927	1	1	0	0	0.16969	0.1794	0.18173	0.092326	0.12922	0.30312	0.31343	0.32683	0.14722	0.20443	0.32813	0.33692	0.15272	0.16917	0.1907	0.19297	-3.0563	-3.05	-3.1083	-3.7396	-2.8229	-3.5271	-3.6917	-2.7625	-3.5687	-2.8917	-3.4146	-3.775	-2.8688	-3.2792	-3.3688	-2.8875	175.069	437.589	217.692	343.567	438.470	385.639	320.305	483.346	200.407	400.746	480.652	166.376	493.162	464.280	417.096	432.760	0.00054696	0.00040229	0.00016114	1360.1	4.1152e-06	5.9447e-06	1356	369.19	5.2539e-06	5.4345e-06	422.26	140.81	122.21	42.202	5.7517e-06	51.694	0.00053463	0.00054079	0.00014813	1378.4	5.8108e-06	5.8012e-06	1378.8	375.29	5.7165e-06	5.7969e-06	428.44	143.8	124.82	43.233	5.632e-06	53.347	194.149	238.964	233.495	170.729	296.068	298.615	169.874	174.812	285.531	310.262	174.510	178.711	179.671	184.595	296.718	184.244	-8191	255	
1003.024	1	1	0	0	0.17087	0.26147	0.31293	0.1794	0.045998	0.31361	0.20936	0.1964	0.13244	0.17084	0.10276	0.060239	0.16538	0.083085	0.3198	0.29219	-3.3312	-3.1208	-2.8958	-3.8104	-2.7104	-3.5375	-3.5458	-2.7625	-3.525	-3.1312	-2.975	-3.7562	-2.8729	-3.4292	-3.4083	-2.6	220.815	281.181	451.453	495.278	451.873	429.808	445.988	456.724	511.974	323.130	515.470	438.993	367.708	511.336	296.897	431.996	0.00054368	0.00054066	0.00016904	1347.1	4.7936e-06	4.7615e-06	1347.2	365.55	5.3622e-06	5.8224e-06	416.52	138.81	120.89	41.576	4.7245e-06	51.27	0.00052923	0.00052943	0.00014649	1375.1	5.9478e-06	5.8468e-06	1376.8	374.54	5.8341e-06	5.6647e-06	427.76	143.49	124.8	43.117	5.7255e-06	53.269	196.298	240.173	247.295	171.932	283.072	319.950	171.343	176.184	291.376	317.011	176.149	180.098	180.518	185.396	308.281	184.569	-8191	255	
1003.120	1	1	0	0	0.23888	0.14531	0.066582	0.23987	0.16898	0.16728	0.1029	0.11614	0.19475	0.31152	0.21119	0.2058	0.23207	0.1488	0.083785	0.059171	-3.2438	-3.1229	-2.8208	-3.8542	-2.6	-3.0979	-3.5917	-2.8792	-3.5667	-3.025	-2.9021	-3.6562	-2.9437	-3.2062	-3.5792	-2.6188	289.503	224.055	259.123	309.155	338.647	310.294	469.506	285.504	216.504	478.842	489.684	457.596	452.924	208.776	483.653	514.199	0.0005555	0.0005841	0.000104	1358.7	4.2192e-06	6.6707e-06	1359.8	368.92	3.4109e-06	3.9747e-06	423.79	140.8	122.1	42.165	5.531e-06	51.987	0.0005393	0.00053027	0.00015263	1378.2	5.822e-06	5.7198e-06	1379.2	375.33	5.9185e-06	5.6914e-06	429.01	143.72	125.02	43.243	5.6594e-06	53.405	194.239	249.349	239.647	170.525	293.780	293.297	170.493	175.362	282.496	326.651	174.372	178.772	179.218	184.476	291.493	183.747	-8191	255	
1003.216	1	1	0	0	0.12031	0.17229	0.23273	0.10275	0.023772	0.082675	0.25894	0.12054	0.22168	0.080297	0.28737	0.25938	0.043199	0.33495	0.17485	0.29636	-3.3458	-3.3438	-2.5625	-3.8792	-3.1146	-3.0229	-3.8187	-2.8063	-3.4917	-3.2979	-2.9417	-3.7083	-2.9458	-2.875	-3.875	-2.7896	448.585	428.074	219.450	182.571	341.417	341.884	163.538	391.312	314.068	364.992	222.909	496.579	175.010	479.091	266.360	497.638	0.0005187	0.00064594	0.00012111	1365.8	5.0171e-06	4.9157e-06	1356.1	368.9	5.5476e-06	5.1681e-06	420.27	140.04	121.41	41.861	4.8911e-06	51.574	0.00054028	0.00053545	0.00014908	1381.1	5.7671e-06	5.9035e-06	1378.8	375.34	5.7202e-06	5.8535e-06	429.21	143.82	124.86	43.212	5.6375e-06	53.363	192.903	237.086	266.056	171.085	266.931	309.846	170.941	175.547	299.637	339.408	175.620	179.830	180.135	185.014	314.265	184.884	-8191	255	
1003.287	1	1	0	0	0.20387	0.17023	0.05629	0.14497	0.27636	0.10662	0.11561	0.24813	0.21663	0.11125	0.33876	0.09651	0.025896	0.18068	0.17474	0.22859	-2.9667	-3.4313	-2.7812	-3.6354	-3.0792	-3.1667	-3.8229	-2.9771	-3.3708	-3.5042	-2.8312	-3.7292	-3.1229	-2.9875	-3.8083	-3.0187	301.835	211.288	369.159	448.250	435.763	287.215	482.212	417.061	415.702	366.692	441.134	504.337	175.647	452.899	424.893	496.065	0.00052791	0.00064715	0.00018566	1350.5	5.9412e-06	5.159e-06	1344.2	365.87	4.7281e-06	4.5494e-06	414.52	138.87	120.35	41.594	4.305e-06	51.193	0.00054634	0.00051516	0.0001474	1377.7	5.8805e-06	5.8749e-06	1376.7	374.93	5.854e-06	5.7974e-06	427.67	143.62	124.6	43.077	5.6821e-06	53.222	195.762	230.202	255.139	171.749	296.966	312.981	171.802	176.281	288.402	311.082	176.106	180.181	180.787	185.792	304.490	185.136	-8191	255	
1003.408	1	1	0	0	0.26827	0.22785	0.2526	0.14043	0.070075	0.23373	0.12245	0.23585	0.04257	0.30543	0.11693	0.21884	0.15488	0.092294	0.31866	0.1506	-2.7979	-3.575	-2.525	-3.6125	-3.2188	-2.8583	-3.7771	-2.9604	-3.2583	-3.4167	-2.9604	-3.6729	-3.4458	-2.8417	-3.5708	-3.1604	343.444	411.872	370.151	224.201	166.433	410.810	472.395	417.765	190.143	259.255	420.066	497.233	200.195	429.924	441.514	391.328	0.00051628	0.0004246	0.00013326	1341.3	3.137e-06	5.282e-06	1341.5	364.4	4.6641e-06	5.1765e-06	414.51	138.86	120.63	41.826	5.9987e-06	50.861	0.00053295	0.00050738	0.00015399	1377.9	5.6649e-06	5.8342e-06	1377	374.54	5.9087e-06	5.4331e-06	427.56	143.5	124.74	43.168	5.6185e-06	53.128	196.229	235.716	269.662	172.292	274.549	312.814	172.018	176.872	274.773	332.806	176.320	180.214	180.730	185.124	303.365	185.254	-8191	255	
1003.504	1	1	0	0	0.16954	0.16219	0.092802	0.24327	0.21454	0.086217	0.11347	0.16998	0.049979	0.13695	0.26396	0.13983	0.226	0.070485	0.13104	0.31199	-2.5938	-3.4458	-2.6542	-3.6437	-3.4333	-2.7271	-3.8604	-3.2375	-3.0271	-3.5	-2.9313	-3.4688	-3.3708	-2.6937	-3.4875	-3.1771	299.703	387.811	267.015	388.938	418.780	183.599	476.083	182.256	270.734	329.377	480.948	424.304	166.884	434.171	371.988	456.345	0.00054682	0.00080202	0.00012355	1340.4	4.6741e-06	5.7856e-06	1340.1	363.6	6.0594e-06	3.9793e-06	416.23	139.32	121	41.497	4.1001e-06	51.135	0.0005517	0.0005136	0.00015146	1374.7	5.7599e-06	5.8615e-06	1377.9	374.56	5.856e-06	5.6776e-06	427.76	143.6	124.88	43.093	5.6568e-06	53.164	194.978	239.513	257.941	172.307	282.022	316.599	171.861	176.732	294.397	325.507	176.036	179.748	180.539	185.564	291.895	184.770	-8191	255	
1003.600	1	1	0	0	0.14936	0.24018	0.072202	0.23302	0.1803	0.051189	0.081756	0.13045	0.19193	0.16508	0.13124	0.16834	0.24712	0.40005	0.09019	0.1557	-2.7292	-3.5229	-2.6937	-3.5062	-3.6021	-2.6063	-3.7167	-3.1729	-2.9854	-3.7396	-2.8146	-3.375	-3.7938	-2.9167	-3.6208	-3.3625	193.414	394.775	470.709	466.506	370.113	312.772	365.930	517.985	359.998	491.137	314.562	170.787	483.985	493.290	392.686	164.928	0.00052211	0.00045287	0.00014119	1344.9	5.0165e-06	5.7362e-06	1342.3	362.83	4.3536e-06	6.6591e-06	414.46	138.93	121.02	41.766	4.8172e-06	51.343	0.00053182	0.00051464	0.00014968	1375.3	5.6621e-06	5.7748e-06	1376.6	374	5.7084e-06	5.65e-06	426.52	143.41	124.77	43.076	5.8945e-06	53.277	194.805	227.263	254.834	172.126	288.268	297.921	171.853	176.625	291.367	317.216	176.042	180.107	180.360	185.330	293.606	184.348	-8191	255	
1003.721	1	1	0	0	0.1966	0.21275	0.080253	0.24483	0.016017	0.23087	0.19402	0.23494	0.086955	0.10259	0.34652	0.18474	0.21366	0.1275	0.10285	0.33257	-2.4208	-3.7646	-2.9271	-3.3708	-3.6271	-2.5646	-3.7	-3.325	-2.8937	-3.6979	-2.9104	-3.1458	-3.7208	-2.9292	-3.4854	-3.4479	201.548	436.996	357.443	172.025	454.067	349.395	476.729	420.454	361.293	233.765	451.074	434.163	226.773	158.932	181.430	327.856	0.00053116	0.0005556	0.00011883	1347.6	3.817e-06	4.9869e-06	1342.6	364.74	4.0011e-06	4.4591e-06	415.88	139.57	120.84	41.677	4.2481e-06	51.169	0.00053791	0.00052576	0.00014441	1375.6	5.4795e-06	5.866e-06	1376.7	374.43	5.8317e-06	5.7101e-06	427.41	143.83	124.72	43.118	5.857e-06	53.253	196.111	249.328	235.469	172.018	290.916	295.058	171.668	176.182	284.147	317.154	176.161	179.918	180.760	185.777	306.947	185.076	-8191	255	
1003.815	1	1	0	0	0.11746	0.15334	0.27189	0.16074	0.21941	0.13882	0.1065	0.20806	0.11939	0.082386	0.23822	0.1842	0.04232	0.36177	0.11356	0.048886	-2.2333	-3.6646	-3.0687	-3.4146	-3.7417	-2.7271	-3.4833	-3.4896	-2.775	-3.7062	-3.2479	-3.0917	-3.8479	-2.9042	-3.4458	-3.4979	328.769	347.321	473.687	465.762	457.774	326.808	462.460	468.199	326.866	186.572	507.573	177.534	196.210	473.418	474.347	479.813	0.0005528	0.00057843	0.00010589	1340.3	4.4085e-06	5.1508e-06	1341.6	363.37	6.4626e-06	4.9436e-06	416.09	139.14	120.76	41.897	4.8021e-06	51.257	0.00053556	0.00051324	0.00014604	1375.5	5.6818e-06	5.9393e-06	1377	373.88	5.8572e-06	5.5582e-06	427.92	143.65	124.73	43.132	5.7167e-06	53.254	194.189	264.691	247.957	172.393	287.749	287.689	172.125	176.477	283.387	321.061	175.928	179.834	180.789	184.974	291.958	184.655	-8191	255	
1003.889	1	1	0	0	0.066389	0.17363	0.052229	0.045793	0.10806	0.075481	0.14916	0.074213	0.21306	0.22455	0.27545	0.3251	0.12405	0.15454	0.11958	0.13406	-2.3333	-3.5292	-3.1417	-3.2271	-3.5667	-2.7938	-3.4125	-3.7396	-2.6937	-3.5104	-3.3312	-2.8187	-3.8625	-3.0292	-3.0604	-3.5125	260.010	343.955	312.759	200.354	491.255	354.004	388.983	416.975	315.474	336.659	191.635	494.185	443.111	497.691	334.286	510.387	0.00054159	0.00045501	0.00013898	1342.7	4.4533e-06	5.0663e-06	1334.5	362.95	5.8579e-06	4.5285e-06	413.96	138.51	120.6	41.368	3.5429e-06	51.202	0.00054759	0.00053465	0.00014608	1376	5.6309e-06	5.8503e-06	1375	374.53	6.0247e-06	5.7194e-06	427.52	143.47	124.74	43.007	5.7504e-06	53.261	194.112	268.545	248.891	172.321	280.673	307.755	171.866	176.551	286.617	315.533	176.537	180.050	180.613	185.438	295.212	184.850	-8191	255	
1004.008	1	1	0	0	0.091682	0.29537	0.056592	0.24734	0.029538	0.19145	0.063483	0.24409	0.25662	0.12976	0.17501	0.11543	0.17943	0.12657	0.1055	0.2432	-2.3854	-3.4229	-3.3312	-2.9021	-3.4583	-2.9292	-3.3375	-3.8375	-2.7562	-3.4813	-3.5875	-2.8333	-3.8125	-3.0625	-2.7771	-3.8646	468.190	357.466	405.961	502.820	260.038	207.398	344.559	495.596	221.925	485.746	394.395	336.091	497.259	321.933	182.961	265.469	0.0005431	0.00041095	0.0001777	1347.9	3.2046e-06	6.7687e-06	1343.6	365.24	5.0139e-06	4.0767e-06	417.11	139.05	120.95	41.554	4.3215e-06	51.358	0.00054471	0.00053031	0.00014741	1377.3	5.5251e-06	5.794e-06	1377.8	374.71	6.088e-06	5.8245e-06	427.83	143.6	124.85	43.088	5.6198e-06	53.277	195.359	244.983	258.254	172.069	306.568	299.963	171.931	176.380	292.789	309.139	175.642	179.907	180.383	185.328	306.974	184.635	-8191	255	
1004.104	1	1	0	0	0.18986	0.19863	0.036772	0.38645	0.067737	0.13483	0.31879	0.062657	0.16594	0.35098	0.1803	0.24147	0.1832	0.15224	0.044215	0.098197	-2.4917	-3.5167	-3.3333	-2.7854	-3.6562	-3.1958	-3.25	-3.7938	-2.6729	-3.25	-3.6813	-3.0167	-3.5167	-3.0583	-2.8646	-3.8625	189.583	425.607	231.369	472.873	325.100	320.062	355.286	239.577	417.785	261.143	162.008	222.028	384.082	260.378	504.626	484.014	0.00053033	0.00065177	0.00017594	1348	3.6112e-06	4.3816e-06	1343.3	366.06	4.2275e-06	4.5645e-06	415.66	138.9	121.24	41.743	4.4092e-06	51.44	0.00054713	0.00052245	0.00014369	1377.5	5.7022e-06	5.9134e-06	1376.9	374.61	5.8702e-06	5.6602e-06	428.09	143.66	124.83	43.117	5.7765e-06	53.331	194.808	239.673	260.575	171.919	292.067	319.864	171.743	176.273	293.283	324.451	175.730	179.861	180.368	185.266	286.565	184.522	-8191	255	
1004.200	1	1	0	0	0.09298	0.25839	0.17584	0.28992	0.052885	0.2433	0.34705	0.097271	0.14485	0.18811	0.10011	0.14533	0.11662	0.1705	0.15983	0.18125	-2.5062	-3.2021	-3.4771	-2.5438	-3.4979	-3.1208	-2.9271	-3.8937	-2.7979	-3.0854	-3.7438	-2.9292	-3.5187	-3.3375	-2.6354	-3.6208	409.631	266.289	307.027	504.192	221.147	267.651	429.319	334.222	211.649	436.778	359.192	202.022	390.514	273.662	303.688	161.736	0.0005434	0.00051176	0.00013793	1343.5	3.9353e-06	4.2594e-06	1346.1	365.8	3.7243e-06	5.519e-06	415.34	138.84	120.91	41.641	4.6321e-06	51.276	0.00054906	0.00051125	0.00014064	1377	5.7254e-06	5.8798e-06	1377.6	374.62	5.912e-06	5.707e-06	427.41	143.52	124.77	43.127	5.7795e-06	53.255	194.807	240.714	237.578	172.137	300.235	315.826	171.637	176.449	274.893	324.459	175.895	179.898	180.805	185.304	288.639	184.816	-8191	255	
1004.321	1	1	0	0	0.052668	0.05122	0.14959	0.057328	0.18161	0.073741	0.33265	0.2367	0.059082	0.028595	0.18664	0.12718	0.22579	0.14429	0.14976	0.067095	-2.7396	-3.0917	-3.4646	-2.8896	-3.4417	-3.4062	-2.9354	-3.8625	-2.9562	-3.1854	-3.9062	-2.925	-3.5083	-3.625	-2.5042	-3.7896	222.521	170.893	166.740	178.044	311.394	384.601	451.122	465.447	273.603	250.535	436.019	496.452	480.355	382.649	197.935	311.960	0.00053368	0.00044423	0.00010167	1342.4	2.5409e-06	3.9439e-06	1338.5	364.43	4.6347e-06	4.7711e-06	415.93	138.86	120.7	41.365	5.5671e-06	51.211	0.00054884	0.00052118	0.00014132	1375.3	5.5383e-06	5.6684e-06	1375.5	374.58	5.9574e-06	5.7377e-06	427.63	143.49	124.94	42.973	5.7609e-06	53.296	196.922	245.623	252.463	172.252	295.782	308.917	171.989	176.759	271.287	334.594	176.270	179.867	180.784	185.673	303.136	184.782	-8191	255	
1004.417	1	1	0	0	0.1722	0.18965	0.024205	0.18632	0.13575	0.15226	0.17394	0.15808	0.19992	0.3057	0.07471	0.20716	0.11191	0.18337	0.2359	0.023986	-2.8167	-2.9208	-3.6521	-2.8292	-3.3438	-3.4604	-3	-3.8583	-3.1042	-2.6354	-3.6542	-2.8896	-3.2833	-3.8417	-2.8688	-3.6854	459.283	501.663	488.460	470.193	266.716	224.904	424.811	160.202	174.666	204.473	168.996	158.886	437.409	507.207	168.354	394.119	0.00056563	0.00060441	0.00018825	1339.8	5.136e-06	5.5553e-06	1333.9	362.85	4.4546e-06	5.0726e-06	415.12	139.07	120.83	41.673	4.4297e-06	51.464	0.00053576	0.00052493	0.00014461	1373.5	5.822e-06	5.5356e-06	1374.5	374.02	5.7189e-06	5.6727e-06	427.83	143.38	124.9	43.116	5.7866e-06	53.29	194.957	251.180	237.766	172.194	294.718	316.545	171.858	176.864	291.043	322.528	176.150	179.846	180.561	185.421	305.287	184.612	-8191	255	
1004.513	1	1	0	0	0.13632	0.1798	0.10961	0.34034	0.075425	0.11102	0.24217	0.083343	0.1273	0.16118	0.1412	0.1103	0.22813	0.053986	0.18005	0.16287	-2.7521	-2.5271	-3.4625	-3.0271	-3.1042	-3.6	-2.7687	-3.5229	-3.0167	-2.7438	-3.7396	-3.0542	-3.0062	-3.6375	-2.6146	-3.3875	179.290	252.670	165.608	461.132	288.291	304.010	472.767	472.794	197.341	178.719	466.219	508.366	171.828	260.900	232.230	390.375	0.00052618	0.00056666	0.00013177	1341.2	3.1045e-06	5.5362e-06	1339.5	363.02	2.9941e-06	5.1871e-06	417.14	138.55	120.5	41.555	5.6011e-06	51.641	0.00053458	0.00051615	0.00014409	1376.2	5.7519e-06	5.4122e-06	1374.9	374.04	5.5847e-06	5.6495e-06	427.97	143.42	124.66	43.091	5.9337e-06	53.402	193.401	245.136	252.737	171.902	315.927	315.572	171.683	176.589	295.895	312.614	175.933	179.869	180.712	185.339	293.321	184.670	-8191	255	
1004.585	1	1	0	0	0.087476	0.035688	0.082166	0.24832	0.39337	0.12719	0.24767	0.14497	0.096457	0.20345	0.16285	0.0030635	0.11661	0.253	0.11994	0.28096	-2.9292	-2.5042	-3.6083	-3.0833	-3.0271	-3.8333	-2.9042	-3.3208	-3.3063	-2.7417	-3.7687	-3.1021	-2.9437	-3.5042	-2.6021	-3.5312	375.962	369.953	474.059	470.045	514.792	466.431	515.676	383.517	348.879	496.279	495.076	166.956	440.077	457.327	436.359	416.733	0.000521	0.0004963	0.0001764	1361.4	4.2485e-06	4.9665e-06	1352.7	368.49	4.2356e-06	4.9779e-06	416.56	138.41	120.43	41.48	5.264e-06	51.26	0.00053823	0.00051739	0.00014322	1378	5.6069e-06	5.4596e-06	1375.8	375.32	5.6512e-06	5.6219e-06	427.87	143.4	124.67	43.068	5.6324e-06	53.31	194.092	257.190	232.339	171.317	303.446	306.281	170.984	176.012	291.157	315.381	176.093	179.762	180.785	185.843	303.990	185.330	-8191	255	
1004.705	1	1	0	0	0.24594	0.14359	0.14664	0.22706	0.12788	0.27646	0.12059	0.15844	0.10812	0.38542	0.14116	0.23135	0.30769	0.095429	0.094017	0.064494	-3.0604	-2.5021	-3.6458	-3.4479	-2.8375	-3.6437	-2.9667	-3.4667	-3.4021	-2.8167	-3.7167	-3.25	-2.9958	-3.8271	-2.8292	-3.375	456.524	369.197	273.368	484.686	208.376	240.267	507.185	447.316	488.223	286.717	241.061	165.483	447.098	345.862	159.011	432.462	0.00054432	0.00056571	0.00014765	1335.5	4.352e-06	4.6908e-06	1340	363.58	5.725e-06	4.3852e-06	415.51	138.73	120.77	41.537	5.1692e-06	51.025	0.00051261	0.0005004	0.00013837	1369.9	5.4907e-06	5.119e-06	1372.9	374.23	5.5129e-06	5.3378e-06	426.84	143.81	124.95	43.203	5.5279e-06	53.419	195.411	243.810	250.532	172.305	300.394	331.847	171.839	176.615	290.483	304.073	176.482	180.023	180.712	185.777	271.505	185.152	-8191	255	
1004.801	1	1	0	0	0.15669	0.15155	0.16271	0.38791	0.13355	0.21786	0.41251	0.14001	0.23621	0.091069	0.072687	0.062015	0.37103	0.21515	0.13137	0.13637	-3.4562	-2.5854	-3.3833	-3.6271	-2.8979	-3.5583	-3.1479	-3.1312	-3.4167	-2.7062	-3.6729	-3.3021	-2.6771	-3.8479	-2.9688	-2.9458	498.638	163.489	370.785	488.415	377.051	209.725	426.425	461.612	464.685	463.483	295.555	200.187	252.472	431.741	389.867	162.687	0.00052568	0.00061106	0.0001801	1330.2	3.4166e-06	5.8625e-06	1332.8	363.33	4.755e-06	3.829e-06	414.94	138.71	120.65	41.697	4.4486e-06	51.353	0.00050449	0.00047776	0.00013726	1368.1	5.4029e-06	5.1181e-06	1369.3	373.86	5.3787e-06	5.4741e-06	426.91	143.64	124.77	43.226	5.4019e-06	53.34	194.779	247.034	241.738	172.349	290.493	304.466	172.102	176.786	270.376	317.343	176.315	180.164	181.050	185.838	287.805	185.023	-8191	255	
1004.896	1	1	0	0	0.37058	0.20164	0.076435	0.20249	0.19394	0.081086	0.31223	0.21068	0.10746	0.1661	0.094643	0.2834	0.19689	0.3005	0.12483	0.092027	-3.3521	-2.7583	-3.3583	-3.4083	-2.8708	-3.7875	-3.1083	-3.0458	-3.7604	-2.9875	-3.5125	-3.4771	-2.7208	-3.6625	-2.9917	-2.9208	494.936	264.136	293.924	178.575	401.104	360.740	464.486	181.705	437.309	225.520	167.733	465.723	491.862	202.814	267.047	477.810	0.00052828	0.00071185	0.00017009	1354.3	4.8906e-06	6.1889e-06	1344.3	366.15	5.1623e-06	5.0535e-06	420.55	140.99	122.21	42.378	4.8944e-06	52.246	0.00050576	0.00048868	0.00013404	1371.4	5.3416e-06	5.2459e-06	1370.6	374.28	5.2801e-06	5.4273e-06	427.56	143.95	124.97	43.332	5.3889e-06	53.566	196.756	243.808	259.761	171.309	285.660	299.445	171.013	175.906	283.556	318.112	175.368	179.100	179.717	184.432	307.120	183.387	-8191	255	
1004.992	1	1	0	0	0.088328	0.11658	0.21485	0.33615	0.1921	0.15763	0.11066	0.37552	0.071564	0.074362	0.14778	0.14418	0.22011	0.12378	0.027307	0.088319	-3.1542	-2.8125	-3.0729	-3.6833	-2.5938	-3.5521	-3.15	-2.8833	-3.4354	-2.8125	-3.4062	-3.7458	-2.8396	-3.5625	-3.1979	-2.7667	459.681	293.920	370.494	481.470	320.564	170.975	461.802	467.927	482.552	273.463	444.066	378.509	195.483	222.207	451.803	482.886	0.00055701	0.00049123	0.00010604	1353.8	2.9242e-06	3.8793e-06	1357.1	369.11	5.4469e-06	3.8344e-06	419.93	140.87	122.18	42.195	4.0547e-06	51.852	0.00050532	0.00049052	0.00013689	1372.7	5.2879e-06	5.1798e-06	1373.7	374.9	5.3718e-06	5.2942e-06	427.25	143.94	125.07	43.294	5.1504e-06	53.474	194.048	243.962	244.074	170.909	306.794	319.101	170.706	175.614	292.701	318.572	175.067	179.021	179.630	184.793	307.133	183.942	-8191	255	
1005.113	1	1	0	0	0.17278	0.21043	0.22315	0.15587	0.10767	0.20158	0.067706	0.2015	0.19307	0.030443	0.3085	0.36759	0.061509	0.028992	0.13085	0.11173	-3.275	-2.8812	-2.9354	-3.7167	-2.6312	-3.4375	-3.4583	-2.625	-3.4562	-2.9188	-3.1104	-3.7125	-2.9854	-3.55	-3.4188	-2.5958	270.940	170.063	352.150	160.138	416.042	374.041	396.135	175.083	203.636	450.427	464.729	463.975	247.701	162.945	408.132	492.897	0.00053289	0.00057946	0.00016776	1353.1	5.5786e-06	3.8388e-06	1348.1	369.02	5.5425e-06	4.9255e-06	421.96	140.77	122.38	42.28	6.3385e-06	52.279	0.0005061	0.00048441	0.00012962	1372.2	5.4222e-06	5.2343e-06	1373.1	374.98	5.3438e-06	5.3552e-06	428.4	143.99	125.22	43.361	5.1061e-06	53.498	193.913	251.624	263.429	171.392	308.217	284.094	171.003	175.722	288.450	327.892	175.228	179.046	179.746	184.680	316.825	183.829	-8191	255	
1005.184	1	1	0	0	0.062991	0.165	0.14166	0.15139	0.32782	0.24248	0.14067	0.11292	0.13672	0.15143	0.3232	0.093266	0.18236	0.045082	0.11779	0.092936	-3.2146	-2.775	-2.8833	-3.5792	-2.8937	-3.3875	-3.4375	-2.9917	-3.7208	-2.8833	-2.9313	-3.6208	-3.0333	-3.4292	-3.6042	-2.7938	334.482	244.673	188.193	516.676	498.985	179.079	446.879	496.674	515.336	498.421	451.753	502.833	448.229	183.697	264.442	433.803	0.00053752	0.0004272	0.00014412	1357	3.9084e-06	4.4611e-06	1359.3	370.45	5.8668e-06	4.1656e-06	420.51	142.46	123.68	42.695	5.1041e-06	53.016	0.00051263	0.00048322	0.00013507	1374.2	5.2599e-06	5.2129e-06	1376.1	375.7	5.0174e-06	5.0498e-06	428.68	145.38	126.25	43.763	4.8078e-06	54.241	194.847	237.981	258.840	170.946	283.348	313.837	170.512	175.302	293.129	321.134	174.716	178.694	179.572	184.449	309.373	183.685	-8191	255	
1005.280	1	1	0	0	0.064597	0.17944	0.26309	0.23618	0.16846	0.13455	0.343	0.25934	0.08867	0.12025	0.018237	0.058215	0.35157	0.093018	0.050023	0.16063	-3.225	-3.0312	-2.6479	-3.8125	-2.9875	-3.1875	-3.7188	-2.7667	-3.2062	-2.9542	-2.6542	-3.7833	-3.1208	-3.1708	-3.5333	-2.7229	500.896	172.805	270.991	492.304	161.143	478.776	473.748	468.603	450.941	485.981	164.961	216.708	466.578	182.125	205.551	466.270	0.00052341	0.00049188	0.00014264	1370.3	5.6491e-06	4.0874e-06	1369	373.18	6.2916e-06	5.7914e-06	424.5	145.94	126.06	43.924	3.6203e-06	53.873	0.00048953	0.00044047	0.00012548	1383.4	4.9919e-06	4.8812e-06	1386.2	379.06	4.9886e-06	4.694e-06	433.37	148.67	128.84	44.991	4.6355e-06	55.345	194.057	239.704	257.760	170.968	294.289	310.924	170.725	175.581	284.554	311.637	175.375	179.094	179.281	184.319	318.768	183.545	-8191	255	
1005.401	1	1	0	0	0.11027	0.1557	0.168	0.2134	0.32309	0.22493	0.3087	0.23788	0.27115	0.0598	0.19813	0.20262	0.25897	0.20565	0.13468	0.14367	-3.0979	-3.4167	-2.525	-3.5396	-2.9521	-3.0042	-3.8104	-2.7854	-3.3354	-3.4917	-2.8396	-3.6521	-3.1437	-3.0812	-3.775	-2.9625	245.748	192.484	512.253	488.348	216.052	493.328	474.670	465.282	305.894	408.132	513.807	229.237	462.619	502.441	295.243	512.097	0.00056131	0.00054304	0.00013857	1374.8	4.5475e-06	5.5404e-06	1374	374.09	5.0538e-06	6.0555e-06	425.93	145.77	125.5	43.704	6.3441e-06	53.943	0.00048779	0.00041432	0.000124	1390.1	4.8837e-06	4.68e-06	1392.3	379.7	4.8624e-06	4.4344e-06	433.73	148.5	128.52	44.864	4.4985e-06	55.207	193.579	248.810	245.521	170.985	299.208	310.589	170.635	175.615	294.474	307.701	175.053	178.954	179.329	184.674	294.253	183.368	-8191	255	
1005.497	1	1	0	0	0.14149	0.18695	0.43547	0.12702	0.075977	0.26221	0.358	0.11316	0.11478	0.024885	0.026432	0.15452	0.11907	0.10291	0.1423	0.12818	-2.825	-3.2458	-2.4854	-3.7812	-3.0687	-2.8333	-3.7667	-2.7792	-3.1458	-3.5229	-2.8042	-3.5417	-3.1875	-2.7896	-3.4917	-2.8312	199.225	424.584	230.292	466.845	405.741	292.313	484.476	238.954	404.351	374.174	346.835	448.002	487.633	220.629	275.225	376.003	0.00055981	0.00045877	0.00016304	1376	4.6325e-06	4.5791e-06	1373.3	373.64	5.6533e-06	5.3523e-06	428.27	146.16	126.51	43.908	3.4377e-06	53.892	0.00047198	0.00039833	0.00011624	1390.7	4.5628e-06	4.3318e-06	1393.1	380.43	4.7898e-06	4.2211e-06	434.27	149.22	129.19	45.021	4.3152e-06	55.294	194.719	249.769	260.349	171.235	297.365	325.181	170.713	175.242	281.962	335.285	175.061	178.978	179.534	184.266	293.564	183.654	-8191	255	
1005.593	1	1	0	0	0.11369	0.025447	0.053399	0.22731	0.047419	0.16879	0.11212	0.13747	0.32021	0.23769	0.20229	0.15647	0.20755	0.17123	0.23453	0.2257	-2.6813	-3.5479	-2.6854	-3.6667	-3.3021	-2.6562	-3.7188	-3.1125	-3.225	-3.6625	-2.5292	-3.3104	-3.2292	-2.5021	-3.65	-3.0625	262.733	422.060	403.218	286.530	175.362	479.132	410.928	201.411	166.547	275.595	468.182	480.524	446.810	290.936	339.249	307.149	0.0005494	0.00059817	0.000142	1371.4	4.5121e-06	5.2526e-06	1372.8	372.84	4.8464e-06	3.7381e-06	424.87	145.37	126.31	43.685	4.2233e-06	53.443	0.00048021	0.00038453	0.00011651	1387.6	4.5035e-06	4.5039e-06	1390.2	379.32	4.6974e-06	4.3177e-06	432.75	148.38	128.7	44.708	4.5352e-06	55.036	195.417	234.422	240.759	171.182	285.026	276.192	170.617	175.393	282.158	346.375	175.097	178.829	179.437	184.504	287.487	183.682	-8191	255	
1005.689	1	1	0	0	0.23287	0.15161	0.19447	0.34482	0.054258	0.17597	0.10832	0.16636	0.441	0.051021	0.17356	0.15349	0.30044	0.12234	0.12322	0.37138	-2.4979	-3.3958	-2.4167	-3.5896	-3.3604	-2.6646	-3.775	-3.0708	-2.9917	-3.4333	-2.6292	-3.3792	-3.5854	-2.6667	-3.5917	-3.0563	301.660	261.687	236.471	516.033	347.472	430.009	361.277	433.436	202.255	450.620	424.357	388.698	174.396	226.673	170.288	440.925	0.00055825	0.00060964	0.00016385	1371	5.2736e-06	5.3987e-06	1372	372.44	5.314e-06	5.594e-06	424.62	145.12	125.77	43.595	4.6993e-06	53.555	0.00048483	0.00040694	0.00011936	1387	4.6017e-06	4.4833e-06	1389	378.7	4.5834e-06	4.3587e-06	432.33	148.21	128.32	44.631	4.6089e-06	54.918	195.555	236.562	223.076	171.058	306.944	291.241	171.050	175.438	285.376	326.871	174.978	178.887	179.290	184.190	300.369	183.881	-8191	255	
1005.786	1	1	0	0	0.23967	0.1165	0.1598	0.15492	0.20101	0.12743	0.14463	0.27836	0.028499	0.1577	0.078423	0.18172	0.019181	0.10131	0.14832	0.035398	-2.3146	-3.5833	-2.7292	-3.3917	-3.4979	-2.7562	-3.6583	-3.1	-2.8438	-3.6021	-2.9792	-3.4437	-3.6375	-2.7438	-3.35	-3.1542	349.871	301.242	480.207	408.095	361.869	190.456	459.593	157.950	368.035	391.710	428.417	478.077	207.996	377.765	346.801	353.505	0.00053246	0.0007767	0.00014232	1368.9	6.4737e-06	6.1627e-06	1373.8	370.85	6.3871e-06	4.4871e-06	423.64	145.04	125.42	43.11	4.5816e-06	53.091	0.00047977	0.00041619	0.00012154	1386.8	4.7463e-06	4.7368e-06	1389.1	377.6	4.7805e-06	4.5885e-06	431.53	147.87	127.96	44.345	4.7652e-06	54.681	195.458	236.002	251.760	171.195	281.070	325.642	170.794	175.262	288.980	325.616	175.259	179.151	179.749	184.536	294.298	183.731	-8191	255	
1005.882	1	1	0	0	0.062133	0.21196	0.24593	0.10047	0.06449	0.26867	0.279	0.12997	0.051819	0.12836	0.29928	0.30536	0.23207	0.1426	0.095491	0.24809	-2.2896	-3.6396	-2.8187	-3.2313	-3.3563	-2.4646	-3.6604	-3.4583	-2.7833	-3.475	-2.8229	-3.025	-3.7104	-2.7438	-3.4146	-3.3521	241.483	209.732	293.902	471.960	164.788	349.381	420.653	491.341	504.860	493.302	163.939	159.817	197.391	477.497	306.814	450.407	0.00055388	0.0004996	0.00015054	1365.2	4.6482e-06	5.9731e-06	1370.9	370.09	5.3908e-06	4.3489e-06	422.44	144.01	124.7	43.195	4.6619e-06	52.899	0.00048992	0.00041986	0.0001183	1382.4	4.4434e-06	4.7243e-06	1387	376.66	4.8527e-06	4.503e-06	430.58	147.03	127.49	44.28	4.5706e-06	54.477	192.616	219.505	244.123	171.393	281.381	291.150	170.851	175.401	278.201	304.707	175.343	179.117	179.712	184.461	290.327	184.137	-8191	255	
1006.001	1	1	0	0	0.073548	0.06928	0.11393	0.053878	0.16697	0.018185	0.20667	0.09697	0.044993	0.21771	0.14755	0.32285	0.21571	0.23875	0.18631	0.033853	-2.2667	-3.7521	-2.9667	-3.0833	-3.4646	-2.7354	-3.3542	-3.675	-2.8812	-3.7375	-3.0354	-2.9521	-3.8396	-2.8854	-3.2188	-3.6417	489.298	509.925	244.935	198.388	403.498	285.101	457.569	390.862	241.060	470.322	245.022	464.452	492.275	209.077	426.976	492.525	0.0005595	0.00051933	9.5861e-05	1362.3	3.2229e-06	4.7183e-06	1361.3	369.81	4.7038e-06	6.4048e-06	422.56	142.76	124.04	43.044	6.6407e-06	52.579	0.00048637	0.00042433	0.00011549	1382.3	4.6313e-06	4.8995e-06	1385.4	376.68	4.7907e-06	4.5546e-06	430.19	147	127.42	44.221	4.6481e-06	54.414	194.378	236.314	255.063	171.466	281.054	314.623	171.250	175.838	288.690	310.766	175.677	179.531	180.020	185.142	306.344	184.323	-8191	255	
1006.097	1	1	0	0	0.10679	0.096855	0.076253	0.19459	0.35161	0.084558	0.19391	0.20803	0.10919	0.2018	0.28236	0.33728	0.14994	0.07738	0.154	0.081513	-2.5021	-3.4688	-3.1333	-3.0979	-3.7021	-2.8833	-3.1167	-3.3917	-2.6167	-3.5104	-3.35	-2.7604	-3.55	-2.9771	-2.9917	-3.7646	205.609	399.529	232.809	235.224	216.252	350.033	169.218	197.327	464.066	200.910	188.930	456.342	481.379	373.647	201.624	487.562	0.00054292	0.00061359	0.00019741	1359.6	3.7482e-06	6.2205e-06	1364.4	368.69	5.1463e-06	4.7954e-06	421.05	143.78	124.34	42.956	5.5368e-06	52.898	0.00047963	0.00041978	0.00011568	1383	4.5107e-06	4.5915e-06	1384.9	376.15	4.8422e-06	4.5885e-06	430.31	147.26	127.52	44.173	4.5727e-06	54.438	194.967	255.974	249.001	171.574	291.443	314.125	171.003	175.745	284.168	308.045	175.263	179.062	179.774	184.603	286.847	184.115	-8191	255	
1006.193	1	1	0	0	0.17742	0.22249	0.18157	0.057347	0.26295	0.088151	0.085846	0.15288	0.16623	0.063287	0.17121	0.049515	0.10163	0.073883	0.1507	0.10589	-2.2333	-3.2667	-3.2188	-3.0396	-3.5125	-2.7042	-3.05	-3.7125	-2.775	-3.4542	-3.5396	-2.7521	-3.5458	-3.0208	-2.9375	-3.7417	343.776	408.538	425.596	354.586	294.276	334.898	506.208	444.042	422.750	344.319	452.818	387.253	266.819	176.490	356.661	349.602	0.00053653	0.00062858	0.00014132	1363.8	4.5757e-06	6.0435e-06	1359	369.88	5.5404e-06	4.7958e-06	421.44	143.33	123.73	43.012	6.1206e-06	52.612	0.00049104	0.00041169	0.00011215	1381.9	4.6185e-06	4.524e-06	1383.5	376.23	4.77e-06	4.4277e-06	429.3	146.95	127.24	44.181	4.6089e-06	54.498	193.824	243.758	252.475	171.590	288.732	308.198	171.151	175.814	276.504	322.851	175.735	179.615	180.219	184.863	300.073	184.383	-8191	255	
1006.289	1	1	0	0	0.161	0.23669	0.092464	0.32793	0.2399	0.11117	0.22465	0.1488	0.2137	0.098553	0.081612	0.053421	0.19116	0.23499	0.33099	0.29781	-2.3917	-3.2042	-3.3021	-2.8021	-3.5333	-2.9896	-2.8167	-3.8333	-2.8104	-3.3229	-3.5062	-2.6	-3.6083	-3.2625	-2.9521	-3.9	266.369	192.078	292.982	472.220	471.923	357.051	360.065	362.354	209.634	316.512	431.909	164.575	384.277	464.241	375.205	459.647	0.00055047	0.00057423	0.00014307	1354.9	3.222e-06	3.0028e-06	1352.3	368.65	5.5637e-06	5.1479e-06	420.5	143.59	123.93	42.918	5.3449e-06	52.684	0.00047584	0.00042122	0.00011572	1379.6	4.6297e-06	4.6581e-06	1383.7	376.49	4.7724e-06	4.4255e-06	429.72	147.1	127.28	44.132	4.5385e-06	54.437	195.028	250.483	255.076	171.751	289.351	319.362	171.476	175.978	290.589	329.282	175.552	179.349	180.110	184.834	300.155	184.312	-8191	255	
1006.410	1	1	0	0	0.12155	0.12588	0.20341	0.39625	0.1106	0.062817	0.226	0.13921	0.080891	0.032757	0.07167	0.054756	0.10771	0.28576	0.24837	0.13436	-2.3229	-3.0271	-3.3937	-2.9625	-3.4083	-3.2104	-2.6896	-3.6625	-3.0104	-3.1	-3.4708	-2.6917	-3.6125	-3.35	-2.7812	-3.7125	412.248	392.585	355.069	515.135	258.536	442.927	370.177	196.581	263.886	426.153	401.669	313.132	261.122	321.676	329.129	459.107	0.00056086	0.00059598	0.00011164	1359.2	3.3937e-06	4.887e-06	1356.5	369.56	5.2694e-06	6.1192e-06	421.56	143.45	124.24	42.955	4.8788e-06	52.984	0.00048366	0.00041942	0.00011154	1381.4	4.6309e-06	4.5888e-06	1382.9	376.4	4.8876e-06	4.5243e-06	429.98	147.06	127.63	44.232	4.8251e-06	54.547	194.296	263.683	254.089	171.442	282.848	294.781	171.152	175.992	282.432	334.190	175.576	179.326	180.200	184.977	305.860	184.354	-8191	255	
1006.481	1	1	0	0	0.21805	0.092994	0.058953	0.28107	0.44948	0.19078	0.18719	0.26659	0.052151	0.14089	0.062133	0.19863	0.15855	0.28981	0.062265	0.070352	-2.5125	-2.9417	-3.4854	-2.8875	-3.2979	-3.4813	-2.9271	-3.7583	-3.0271	-2.8208	-3.8	-2.8708	-3.3958	-3.3292	-2.6396	-3.8312	288.593	265.216	220.611	466.807	390.287	249.071	398.948	245.042	367.586	282.646	203.764	494.231	446.435	164.657	356.914	491.094	0.00055909	0.00055888	0.00014334	1357.9	4.4227e-06	4.1583e-06	1363.7	368.44	5.415e-06	5.405e-06	423.42	143.83	125.16	43.111	5.6115e-06	52.933	0.00047633	0.00041213	0.00011117	1381.6	4.5744e-06	4.368e-06	1386.5	376.11	4.8466e-06	4.5248e-06	430.5	147.43	127.9	44.336	4.7648e-06	54.624	194.795	239.896	255.303	171.679	269.434	300.987	171.238	175.903	293.258	332.066	175.495	179.377	179.956	184.686	299.462	184.269	-8191	255	
1006.578	1	1	0	0	0.057173	0.28034	0.045052	0.37384	0.13984	0.14443	0.21337	0.27128	0.12179	0.21085	0.054771	0.090374	0.12015	0.12913	0.18757	0.048046	-2.5312	-3.0979	-3.4625	-2.8354	-3.3	-3.5167	-2.8854	-3.5792	-3.2375	-2.9813	-3.6208	-2.8917	-3.2812	-3.6583	-2.7396	-3.5104	196.603	232.694	429.564	439.288	429.075	201.384	426.360	378.701	316.404	507.011	237.689	348.419	352.691	369.664	289.566	325.576	0.00053338	0.00046887	0.00014668	1357.6	4.2334e-06	4.4652e-06	1356.7	368.6	4.8479e-06	5.9449e-06	419.84	143.07	124.21	42.84	5.4738e-06	52.782	0.00048325	0.00042305	0.00011493	1383.7	4.6842e-06	4.4011e-06	1386.7	377.2	4.6118e-06	4.5862e-06	430.59	147.53	127.74	44.43	4.8921e-06	54.716	195.473	245.358	240.402	171.800	278.601	292.041	171.462	176.221	281.543	304.475	175.917	179.462	180.331	184.930	288.171	184.788	-8191	255	
1006.674	1	1	0	0	0.076885	0.047299	0.070077	0.24353	0.089545	0.22094	0.29152	0.124	0.20597	0.25215	0.040602	0.2016	0.1694	0.1731	0.030805	0.09723	-2.9437	-2.8312	-3.4854	-2.9646	-3.1167	-3.7875	-2.8	-3.4896	-3.4437	-2.8417	-3.8854	-2.85	-3.0354	-3.7396	-2.6542	-3.3375	217.238	326.692	408.472	516.229	272.262	285.731	418.604	354.450	363.056	226.373	262.170	465.028	440.893	177.666	472.146	225.092	0.00056881	0.00031556	0.00013917	1356.6	5.6391e-06	4.5647e-06	1371.1	372	5.2935e-06	4.3771e-06	424.64	145.61	125.78	43.65	6.0697e-06	53.513	0.00047826	0.00043114	0.00011933	1385.3	4.8124e-06	4.4346e-06	1392.2	378.23	4.6759e-06	4.6268e-06	431.77	148.43	128.61	44.724	4.9355e-06	55.008	194.361	245.431	249.494	172.047	296.136	323.816	170.757	175.721	305.686	323.857	174.726	179.185	179.740	184.217	287.429	183.912	-8191	255	
1006.793	1	1	0	0	0.16883	0.13637	0.12729	0.40449	0.15874	0.24128	0.1541	0.14861	0.17897	0.32462	0.26528	0.029476	0.27218	0.20493	0.19638	0.24779	-2.8354	-2.8021	-3.4979	-3.2229	-3.0062	-3.5021	-2.825	-3.4583	-3.3063	-2.625	-3.5583	-3.1125	-2.9813	-3.75	-2.6708	-3.3646	500.123	167.954	196.969	170.301	168.263	225.664	460.898	474.739	414.181	506.424	497.617	160.597	420.022	404.515	386.801	474.596	0.0005502	0.00074716	0.00013504	1376.1	4.8485e-06	3.83e-06	1374.5	372.63	6.0079e-06	5.9249e-06	426.09	146	126.15	43.805	6.1455e-06	53.712	0.00048273	0.00042676	0.00011806	1392.7	4.7948e-06	4.5334e-06	1393.8	378.86	4.7529e-06	4.8155e-06	433.59	148.9	128.95	44.883	4.9582e-06	55.256	194.390	250.093	257.062	171.001	295.326	321.052	170.597	175.696	282.173	318.397	175.220	178.833	179.566	184.435	298.602	183.904	-8191	255	
1006.889	1	1	0	0	0.079864	0.12746	0.090788	0.34432	0.14359	0.2316	0.47197	0.030306	0.17618	0.041463	0.1523	0.16463	0.29222	0.093625	0.19267	0.029318	-3.2354	-2.6937	-3.4188	-3.4542	-2.8583	-3.7354	-3.0563	-3.15	-3.325	-2.5792	-3.6375	-3.4396	-3.0917	-3.75	-2.9854	-3.1021	251.056	288.173	433.629	415.970	223.296	346.840	483.303	502.468	428.428	191.968	399.648	318.143	429.952	503.970	180.777	274.581	0.00055924	0.00047603	0.00017624	1378.1	3.6744e-06	6.5356e-06	1380.1	374.35	5.5346e-06	4.7454e-06	425.83	145.78	126.8	44.048	6.1221e-06	53.695	0.00049654	0.00044893	0.00012338	1397.7	5.0335e-06	4.6456e-06	1399.9	380.27	4.7708e-06	4.7612e-06	433.73	149.13	129.4	45.086	5.0374e-06	55.259	194.594	249.139	255.724	171.144	286.859	318.664	170.701	175.776	282.546	329.414	175.512	178.758	179.645	184.288	299.871	183.468	-8191	255	
1006.985	1	1	0	0	0.053077	0.20072	0.022402	0.21092	0.11006	0.13305	0.06715	0.076413	0.12739	0.24364	0.17061	0.075167	0.063181	0.10983	0.16672	0.18354	-3.2562	-2.8125	-3.2625	-3.5167	-2.775	-3.6583	-3.1708	-3.1333	-3.475	-2.7229	-3.4333	-3.3729	-2.5563	-3.5396	-3.1312	-3.1396	308.930	424.718	373.538	204.878	170.165	261.839	396.161	366.542	162.399	427.740	504.822	176.200	158.123	424.535	213.067	467.292	0.00058329	0.00064936	0.00017716	1382.2	3.1235e-06	6.1512e-06	1385.3	374.36	5.6108e-06	4.4752e-06	427.66	146.26	126.79	43.992	5.9804e-06	54.092	0.00049696	0.0004437	0.00011972	1400.1	5.096e-06	4.7609e-06	1401.5	380.71	4.8924e-06	4.9148e-06	434.84	149.2	129.51	45.097	4.8466e-06	55.409	196.551	250.313	239.715	170.945	298.471	302.240	170.292	175.055	294.071	321.294	174.680	178.423	179.290	183.863	294.021	183.080	-8191	255	
1007.081	1	1	0	0	0.12908	0.070262	0.1347	0.17539	0.067148	0.088422	0.19117	0.14364	0.11889	0.15824	0.062983	0.1912	0.18133	0.12212	0.11809	0.16707	-3.3417	-2.6312	-3.1271	-3.4479	-2.6104	-3.8125	-3.2479	-2.9917	-3.6188	-2.7458	-3.5021	-3.7125	-2.65	-3.4708	-3.0479	-2.7646	302.970	193.710	282.304	449.727	508.786	497.540	440.114	457.217	181.438	403.215	257.282	458.670	265.645	211.476	459.488	468.468	0.00057995	0.00054087	0.00019895	1391.3	4.7743e-06	5.4512e-06	1385.9	376.25	5.8029e-06	4.777e-06	428.87	146.73	127.43	44.218	4.6306e-06	53.955	0.00049508	0.00043669	0.0001284	1403.5	5.0764e-06	4.7001e-06	1403.9	381.6	4.8276e-06	4.8387e-06	435.78	149.74	130.07	45.33	4.7678e-06	55.488	195.294	261.091	251.469	170.697	294.503	298.599	170.132	175.187	282.898	323.566	174.846	178.628	179.184	183.830	300.529	183.228	-8191	255	
1007.177	1	1	0	0	0.13891	0.06008	0.072365	0.14706	0.19284	0.20338	0.14923	0.19461	0.16263	0.16616	0.20266	0.16433	0.089177	0.19987	0.096343	0.29958	-3.2792	-2.7	-2.9958	-3.4833	-2.6125	-3.4167	-3.2729	-2.8479	-3.4354	-2.7667	-3.0542	-3.6646	-2.7938	-3.6188	-3.3104	-2.7271	430.292	275.411	344.074	476.128	472.315	211.486	441.759	490.510	467.528	386.872	186.441	473.736	449.868	228.284	183.513	486.080	0.00057529	0.00061615	0.00016094	1386.6	4.5181e-06	5.1065e-06	1382.9	375.59	5.2794e-06	4.9094e-06	429.47	146.63	127.58	44.452	5.0815e-06	54.214	0.00049535	0.0004254	0.00012225	1404.1	5.0143e-06	4.6416e-06	1404.9	382.2	4.8718e-06	4.7848e-06	436.22	150.08	130.19	45.44	4.6578e-06	55.728	194.445	229.167	253.122	170.384	290.173	302.345	170.044	174.775	292.210	321.305	174.548	178.094	178.894	183.456	285.765	183.088	-8191	255	
1007.273	1	1	0	0	0.10574	0.30115	0.26026	0.25364	0.18288	0.11922	0.32141	0.029842	0.36288	0.019854	0.18836	0.29362	0.098692	0.22276	0.2877	0.18482	-3.2062	-2.8563	-3.0104	-3.7562	-2.6417	-3.3542	-3.3625	-2.7229	-3.6521	-3.075	-3.2833	-3.5625	-2.8	-3.4083	-3.4604	-2.6792	319.725	403.669	350.064	159.511	293.776	357.254	417.499	271.319	193.435	227.356	454.081	433.456	487.784	466.671	282.812	464.801	0.00058232	0.00068754	0.00015741	1390.6	5.2623e-06	5.0358e-06	1382.8	377.53	5.333e-06	4.204e-06	429.94	147.23	127.64	44.375	3.9098e-06	54.422	0.00049581	0.00044119	0.00011917	1406	5.0059e-06	4.5446e-06	1406.9	382.68	4.7574e-06	4.7145e-06	437.35	150.38	130.39	45.546	4.5904e-06	55.965	193.039	264.215	250.722	170.249	283.303	303.114	169.908	174.809	274.716	326.464	174.242	178.309	178.550	183.566	288.228	182.962	-8191	255	
1007.370	1	1	0	0	0.085912	0.15451	0.25762	0.28929	0.13374	0.04461	0.15923	0.13949	0.16359	0.025716	0.096904	0.24769	0.27913	0.079788	0.18671	0.24498	-3.1937	-3.1479	-3.0333	-3.7292	-2.5229	-3.3771	-3.6875	-2.85	-3.6979	-3.0917	-2.9854	-3.8187	-2.9521	-3.2375	-3.4313	-2.8458	271.640	187.373	377.183	451.995	472.292	433.688	424.683	167.713	450.766	195.045	216.731	479.814	510.710	192.222	404.987	190.910	0.00056694	0.00065957	0.00014651	1389.7	3.8053e-06	5.6978e-06	1390.4	376.86	4.9456e-06	3.9535e-06	429.38	147.56	127.78	44.422	6.2676e-06	54.445	0.00049192	0.00043485	0.00011725	1407.4	4.9915e-06	4.5244e-06	1410.6	382.69	4.9776e-06	4.5711e-06	436.91	150.57	130.55	45.544	4.7568e-06	55.981	195.111	253.349	239.490	170.380	264.143	307.847	170.071	174.799	282.323	324.346	174.703	178.236	178.925	183.544	288.149	183.389	-8191	255	
1007.490	1	1	0	0	0.24013	0.27492	0.31331	0.28763	0.19228	0.082308	0.19409	0.32139	0.15974	0.15187	0.14055	0.10118	0.04328	0.23151	0.18903	0.12696	-3.3125	-3.1146	-2.7146	-3.7271	-2.8271	-3.1396	-3.7521	-2.8563	-3.4646	-3.0667	-2.9	-3.6375	-3.0479	-2.8792	-3.4771	-2.8917	198.907	363.098	207.691	460.634	191.970	251.338	474.459	289.338	498.814	178.759	484.659	206.206	393.645	256.421	404.252	257.733	0.00056392	0.00060135	0.00015524	1393.9	4.5471e-06	4.3535e-06	1396.1	376.55	5.442e-06	6.2647e-06	431.15	146.65	127.77	44.205	5.4459e-06	54.122	0.00049708	0.00042799	0.00011972	1412.1	5.0107e-06	4.5723e-06	1414	383.07	4.8288e-06	4.7924e-06	437.3	150.25	130.57	45.367	4.6333e-06	55.711	192.843	236.058	250.554	170.600	287.930	294.920	170.054	174.886	278.901	324.487	174.516	178.282	178.940	183.886	289.513	183.063	-8191	255	
1007.586	1	1	0	0	0.23847	0.12155	0.054322	0.26671	0.19745	0.073487	0.1847	0.2536	0.29257	0.15689	0.049612	0.12958	0.11573	0.19808	0.17176	0.20801	-3.025	-3.575	-2.7167	-3.6354	-2.8792	-2.95	-3.8167	-2.9479	-3.2583	-3.2375	-2.7833	-3.725	-3.2021	-3.075	-3.5333	-2.7917	235.761	378.370	205.713	415.155	276.380	368.319	474.288	495.833	295.788	407.118	479.406	429.616	253.455	492.269	491.008	464.678	0.0005717	0.00043953	0.00012395	1387.7	3.3665e-06	5.8844e-06	1393.2	375.83	6.3583e-06	5.2248e-06	429.65	147.68	127.43	44.325	4.0588e-06	54.15	0.00048637	0.00041655	0.00012023	1407.7	4.8665e-06	4.7278e-06	1411	382.66	4.8182e-06	4.5831e-06	437.3	150.43	130.18	45.328	4.7088e-06	55.537	193.680	235.053	248.035	170.441	279.264	277.461	170.019	174.826	285.506	325.461	173.915	177.773	178.493	183.472	305.674	182.810	-8191	255	
1007.682	1	1	0	0	0.014511	0.092696	0.045464	0.23023	0.11655	0.21364	0.1716	0.2837	0.061543	0.030701	0.20301	0.1468	0.099204	0.10247	0.25591	0.25109	-2.8125	-3.5542	-2.7125	-3.6937	-3.1708	-2.8688	-3.8312	-2.9375	-3.4042	-3.4729	-2.7875	-3.4292	-3.0729	-2.7458	-3.5708	-2.8917	357.329	370.628	456.910	446.903	327.048	489.930	460.029	422.320	445.454	344.340	427.541	382.731	469.853	420.743	306.295	163.758	0.00053985	0.00051851	0.00010133	1389.7	3.6379e-06	6.0183e-06	1391.6	374.32	4.8705e-06	4.2575e-06	427.68	146.63	127	44.24	5.5859e-06	54.191	0.00048838	0.00040782	0.00012138	1407.7	4.6782e-06	4.5825e-06	1407.4	381.79	4.7704e-06	4.3636e-06	435.96	149.85	129.78	45.258	4.6388e-06	55.57	195.257	240.470	236.817	170.186	271.180	296.559	169.720	174.409	273.789	314.640	173.774	177.720	178.110	182.821	296.947	182.125	-8191	255	
1007.779	1	1	0	0	0.26268	0.21641	0.36189	0.14567	0.053517	0.17085	0.31328	0.15778	0.25628	0.15262	0.16611	0.023498	0.1699	0.17108	0.2121	0.23936	-2.7667	-3.7708	-2.5042	-3.55	-3.0917	-2.7833	-3.9688	-3.1	-2.9062	-3.4958	-2.7125	-3.6146	-3.55	-2.8083	-3.3688	-2.9708	325.294	264.665	237.371	477.228	340.361	270.019	442.208	454.435	486.399	415.236	455.824	375.943	366.746	191.891	286.596	302.954	0.00055826	0.00064065	0.00013741	1387.3	4.2853e-06	3.3989e-06	1388.1	373.94	6.2178e-06	5.5872e-06	429.29	145.93	126.64	44.183	5.4192e-06	53.902	0.00048549	0.00041819	0.00012209	1403.6	4.6638e-06	4.6045e-06	1406.3	380.96	4.7639e-06	4.4028e-06	435.67	149.59	129.51	45.169	4.4871e-06	55.324	192.695	240.739	240.011	169.488	282.694	313.308	169.253	173.925	289.031	318.584	173.654	177.501	177.939	182.957	293.989	182.147	-8191	255	
1007.873	1	1	0	0	0.12686	0.1598	0.17678	0.39783	0.13397	0.038663	0.25196	0.32215	0.096472	0.06653	0.078577	0.076989	0.10335	0.1428	0.13371	0.24007	-2.7083	-3.5292	-2.5479	-3.475	-3.4437	-2.5646	-3.7521	-3.0625	-2.9917	-3.6	-2.7042	-3.3792	-3.5187	-2.825	-3.5771	-3.0896	397.262	458.421	491.399	447.123	447.078	332.683	397.921	503.609	358.090	446.127	354.050	232.785	174.885	277.173	249.658	424.037	0.00056128	0.00059501	0.00013805	1382.4	4.6376e-06	4.7375e-06	1382.3	374.11	5.4094e-06	4.8166e-06	427.33	146.63	126.73	44.046	4.8425e-06	53.586	0.00049078	0.00041516	0.00012229	1401.9	4.6329e-06	4.7953e-06	1406.3	381.18	4.7947e-06	4.5408e-06	435.31	149.73	129.57	45.102	4.7159e-06	55.334	193.175	251.008	239.987	169.728	283.914	304.480	169.348	174.043	293.317	315.252	173.685	177.546	178.337	182.960	287.266	182.117	-8191	255	
1007.969	1	1	0	0	0.10494	0.31615	0.11594	0.13378	0.17794	0.04058	0.18051	0.13571	0.093473	0.21304	0.093929	0.20117	0.19368	0.34331	0.23373	0.18143	-2.3479	-3.725	-2.8646	-3.1937	-3.375	-2.6312	-3.775	-3.1437	-2.7687	-3.5604	-2.9167	-3.1312	-3.7062	-2.9	-3.5958	-3.3375	293.661	320.409	493.877	405.536	159.764	204.355	402.666	491.169	245.878	444.345	185.089	160.641	203.515	180.697	422.893	471.253	0.00054422	0.00050932	0.0001405	1384	4.2617e-06	4.4491e-06	1385.6	375.45	5.289e-06	3.6429e-06	426.73	146.53	127.24	43.935	5.6113e-06	53.988	0.00048655	0.00040682	0.00012428	1402.4	4.6634e-06	4.845e-06	1405.7	381.63	5.0348e-06	4.5956e-06	435	149.7	129.66	45.104	4.6447e-06	55.373	195.208	251.733	248.698	170.023	288.243	292.560	169.816	174.256	283.692	328.790	174.163	178.042	178.531	183.574	303.509	182.704	-8191	255	
1008.090	1	1	0	0	0.13658	0.14247	0.051007	0.28093	0.16913	0.20399	0.29222	0.072324	0.13675	0.19421	0.12972	0.18776	0.082437	0.23328	0.30867	0.027621	-2.3229	-3.5104	-2.6583	-3.1562	-3.5625	-2.7042	-3.6917	-3.2229	-2.7729	-3.9	-3.1292	-2.9313	-3.7062	-2.6625	-3.1437	-3.4813	355.357	252.836	488.265	207.921	442.229	161.554	485.055	504.352	307.813	243.529	461.353	284.000	495.901	189.393	378.539	205.899	0.00056622	0.00063369	0.00013982	1387.1	4.6182e-06	5.5546e-06	1388.4	375.9	4.9576e-06	5.5239e-06	428.72	146.77	127.02	43.946	4.7178e-06	53.852	0.0004864	0.00040898	0.00012257	1405.5	4.7683e-06	4.7833e-06	1407.4	381.79	5.1009e-06	4.6317e-06	435.09	149.88	129.96	45.114	4.7703e-06	55.335	193.262	245.068	256.610	170.157	276.787	303.016	169.690	174.499	307.977	329.013	174.056	177.936	178.292	183.216	303.709	182.962	-8191	255	
1008.186	1	1	0	0	0.24835	0.09384	0.11693	0.2504	0.067739	0.15067	0.21545	0.24501	0.084581	0.18635	0.14364	0.1738	0.20656	0.40518	0.034063	0.14706	-2.2958	-3.5854	-3.0167	-3.0354	-3.6354	-2.5271	-3.3896	-3.4583	-2.7167	-3.5438	-3.2583	-2.7562	-3.7083	-2.9021	-3.1583	-3.475	309.042	200.336	361.105	483.175	404.114	207.511	426.321	436.456	287.144	463.816	451.729	488.785	504.995	163.547	297.357	171.613	0.00055698	0.00063543	0.00014837	1393	4.4451e-06	3.8522e-06	1388	375.64	4.7555e-06	5.6559e-06	427.9	146.69	127.27	44.098	4.2885e-06	54.129	0.0004952	0.00043425	0.00012305	1408.5	4.6289e-06	4.7734e-06	1408.1	381.73	5.0141e-06	4.6178e-06	435.86	150.15	129.9	45.215	4.7775e-06	55.519	193.137	240.549	258.480	170.132	291.282	305.913	169.846	174.534	288.844	302.864	174.069	177.957	178.676	183.616	297.150	182.511	-8191	255	
1008.282	1	1	0	0	0.18537	0.12159	0.17628	0.43182	0.16463	0.10119	0.09113	0.13953	0.19363	0.40649	0.33256	0.32912	0.18009	0.14109	0.12594	0.12302	-2.1917	-3.5083	-2.9938	-2.7229	-3.475	-2.5458	-3.3021	-3.7354	-2.7542	-3.4875	-3.2313	-2.5563	-3.8021	-2.95	-2.8833	-3.6875	269.731	217.611	246.975	499.625	230.072	472.328	507.382	467.662	476.084	330.231	202.780	492.769	168.693	188.701	460.622	482.164	0.00056393	0.000545	0.00014433	1392.1	3.8723e-06	4.6471e-06	1388.9	376.87	4.8526e-06	5.9117e-06	429.58	147.02	127.93	44.224	5.2459e-06	53.983	0.00050737	0.00043027	0.00012009	1409.3	4.8701e-06	4.7605e-06	1410.6	382.75	4.935e-06	4.6588e-06	436.38	150.09	130.28	45.269	4.7513e-06	55.608	195.122	240.763	243.587	170.433	278.527	306.759	170.331	174.958	304.134	317.012	174.328	178.150	179.009	183.978	297.838	183.269	-8191	255	
1008.354	1	1	0	0	0.11174	0.07414	0.146	0.15565	0.31434	0.2297	0.20897	0.14201	0.093199	0.19558	0.15306	0.11351	0.1172	0.081088	0.23305	0.11794	-2.325	-3.5563	-3.125	-2.825	-3.5083	-3.0292	-3.0521	-3.8729	-2.7333	-3.3104	-3.4271	-2.8063	-3.7458	-3.05	-2.8667	-3.6417	405.005	361.981	364.928	163.482	330.794	171.337	450.143	503.347	479.800	273.823	477.804	498.982	477.656	385.602	489.617	196.103	0.00056909	0.00062234	0.0001596	1395.9	4.7451e-06	6.6609e-06	1395.9	376.62	5.4341e-06	5.7549e-06	430.63	147.61	127.75	44.169	4.8572e-06	54.082	0.00051344	0.00042309	0.00011898	1410.4	4.7094e-06	4.5937e-06	1412.4	382.87	4.9111e-06	4.6414e-06	436.86	150.44	130.34	45.27	4.8305e-06	55.574	193.480	238.124	248.301	170.646	289.948	325.384	170.172	174.893	286.014	316.016	174.256	178.049	178.705	183.483	290.384	182.951	-8191	255	
1008.450	1	1	0	0	0.042063	0.10226	0.17283	0.25281	0.17847	0.27534	0.29948	0.079136	0.056544	0.1188	0.29176	0.25643	0.076475	0.19288	0.29394	0.062813	-2.3875	-3.4437	-3.3	-2.9104	-3.6729	-3.075	-2.9688	-3.6562	-2.9229	-3.3937	-3.6292	-2.9167	-3.6437	-3.4479	-2.6292	-3.7667	290.860	175.214	298.062	475.239	218.766	160.222	426.432	463.589	182.864	424.291	489.795	505.241	382.817	445.345	345.751	323.845	0.00055518	0.00067412	0.00012102	1388.1	4.4422e-06	7.5908e-06	1387.9	375.99	3.8376e-06	5.6002e-06	427.43	147.6	127.8	44.027	4.2191e-06	54.222	0.00050187	0.0004152	0.00011834	1407.3	4.7767e-06	4.6997e-06	1408.8	382.44	4.8462e-06	4.7118e-06	435.78	150.19	130.16	45.147	5.0661e-06	55.511	193.969	247.037	243.984	170.169	282.961	304.325	169.718	174.244	288.298	306.965	173.847	177.684	178.548	183.364	284.563	182.907	-8191	255	
1008.571	1	1	0	0	0.15652	0.090663	0.16659	0.087627	0.15096	0.08297	0.15673	0.12544	0.05318	0.083714	0.17337	0.22045	0.19624	0.036939	0.15873	0.10147	-2.4292	-3.1688	-3.4458	-2.8354	-3.6375	-3.1021	-2.9104	-3.7583	-2.9292	-3.2729	-3.7375	-2.8083	-3.3875	-3.2938	-2.5479	-3.6167	220.499	501.835	358.594	194.752	254.045	341.219	465.370	184.126	448.643	194.049	191.455	449.777	308.142	484.140	493.775	494.136	0.00058127	0.00061565	0.00015132	1393.5	3.9837e-06	4.714e-06	1386.7	376.36	5.131e-06	3.4646e-06	427.93	146.39	127.13	44.085	5.4863e-06	53.891	0.00050197	0.00042784	0.00011813	1407	4.8296e-06	4.5526e-06	1408.6	382.27	4.9667e-06	4.7358e-06	435.81	149.66	129.92	45.127	4.8065e-06	55.491	195.661	251.467	232.678	170.358	291.526	299.665	169.975	174.948	296.626	295.782	173.785	177.648	178.363	183.219	298.978	182.218	-8191	255	
1008.667	1	1	0	0	0.031425	0.11488	0.14263	0.29657	0.047783	0.27804	0.29161	0.11149	0.17172	0.23846	0.13654	0.074593	0.092449	0.026625	0.22777	0.18198	-2.5479	-2.9729	-3.6604	-2.8854	-3.5292	-3.3937	-2.7458	-3.6104	-2.95	-2.9188	-3.7646	-2.8375	-3.1729	-3.2833	-2.6625	-3.6813	203.711	160.868	311.248	515.019	194.510	343.461	494.995	229.041	232.336	250.394	461.275	470.475	420.681	405.650	362.137	469.526	0.0005728	0.00036881	0.00010051	1386.1	3.5087e-06	6.0279e-06	1387.2	376.3	5.0507e-06	5.569e-06	428.71	146.78	127.45	43.979	4.1578e-06	53.925	0.00049777	0.00043039	0.00011766	1404.8	4.6301e-06	4.608e-06	1408.1	382.73	4.9143e-06	4.8151e-06	435.85	149.79	130.05	45.098	4.9999e-06	55.502	192.178	229.480	234.099	169.708	302.552	320.503	169.609	174.203	284.213	316.730	173.900	177.563	178.389	183.280	316.777	182.812	-8191	255	
1008.763	1	1	0	0	0.16885	0.054066	0.21113	0.29598	0.24801	0.053482	0.33789	0.13671	0.18998	0.096473	0.070407	0.14949	0.18586	0.23431	0.18178	0.13371	-2.8896	-2.6958	-3.5396	-2.8646	-3.1708	-3.5792	-2.7562	-3.5479	-3.2271	-2.8479	-3.6271	-2.9167	-3.1771	-3.4854	-2.5771	-3.5646	196.795	400.779	439.462	467.202	295.219	374.206	179.361	350.046	362.354	271.621	426.425	227.892	471.188	447.226	405.791	202.011	0.00054229	0.00047678	0.00014735	1388.5	3.4648e-06	5.1359e-06	1389	375.59	4.3557e-06	4.1873e-06	428.24	147.06	127.2	44.029	3.9314e-06	54.002	0.00048278	0.00042999	0.00011915	1406.5	4.7102e-06	4.6389e-06	1407.9	382.11	4.9488e-06	4.6397e-06	436.33	149.82	129.9	45.106	5.0037e-06	55.49	194.914	271.645	233.150	170.178	282.668	302.467	169.860	174.555	289.373	319.703	174.074	178.018	178.691	183.110	289.720	183.333	-8191	255	
1008.882	1	1	0	0	0.27963	0.085146	0.23664	0.26301	0.16481	0.26587	0.11082	0.058044	0.15742	0.20652	0.2119	0.23524	0.25351	0.18991	0.036399	0.071917	-2.8833	-2.4562	-3.5354	-2.8875	-3.0187	-3.5917	-2.9792	-3.5292	-3.1646	-2.8771	-3.7979	-3.1521	-3.0917	-3.6021	-2.5917	-3.4125	278.443	437.845	359.129	479.445	242.560	250.294	418.746	369.158	193.954	390.002	434.425	177.354	183.503	393.646	297.285	508.375	0.00055313	0.00066425	0.00010414	1390.4	4.1412e-06	5.3667e-06	1385.3	377.51	5.8435e-06	6.8566e-06	430.67	146.08	127.15	44.032	4.4065e-06	54.056	0.00048716	0.0004382	0.00011911	1406.8	4.7956e-06	4.4788e-06	1407.2	382.92	4.7692e-06	4.6815e-06	436.81	149.69	129.89	45.109	4.9742e-06	55.596	195.060	237.975	246.424	170.370	286.046	313.555	169.920	174.722	290.276	307.564	174.138	177.861	178.594	183.082	289.964	182.903	-8191	255	
1008.955	1	1	0	0	0.40778	0.15818	0.27481	0.21416	0.21903	0.33111	0.020312	0.2782	0.23623	0.085303	0.25001	0.12993	0.14182	0.087965	0.12322	0.30626	-2.9771	-2.3229	-3.4104	-3.2417	-2.8937	-3.4229	-2.7833	-3.4479	-3.3604	-2.8312	-3.6604	-3.0312	-2.6813	-3.6208	-2.8063	-3.3521	410.655	383.121	227.391	494.947	359.065	403.208	364.007	452.842	397.997	225.397	338.895	473.596	359.978	515.806	378.527	468.843	0.00054912	0.00049274	0.00011975	1390.3	4.4554e-06	5.3787e-06	1388	375.44	5.0231e-06	4.4872e-06	427.26	146.73	127.53	43.91	4.4911e-06	53.892	0.00047716	0.00044406	0.00011628	1405.3	4.8453e-06	4.5633e-06	1407.4	381.96	4.8117e-06	4.8009e-06	435.85	149.65	129.87	45.084	4.8225e-06	55.429	194.721	231.309	254.061	170.180	280.525	307.251	169.815	174.847	290.626	338.852	174.585	178.075	178.870	183.840	305.044	182.658	-8191	255	
1009.051	1	1	0	0	0.28146	0.018137	0.15036	0.2637	0.21058	0.22892	0.074065	0.30959	0.16418	0.29483	0.15553	0.27352	0.12484	0.31167	0.18544	0.049806	-3.1521	-2.6083	-3.6	-3.2062	-2.7979	-3.7917	-2.9958	-3.1292	-3.3937	-2.6271	-3.6021	-3.325	-2.8063	-3.9021	-3.0687	-3.2458	180.945	364.800	324.466	471.208	324.303	460.556	469.827	162.829	302.859	268.249	382.797	438.096	225.147	495.446	172.271	451.541	0.00055047	0.00048061	0.00019559	1390.4	4.1589e-06	4.2539e-06	1385.8	375.98	5.5243e-06	4.7142e-06	429.13	146.49	126.95	43.985	4.7812e-06	54.038	0.00049153	0.00043433	0.0001216	1406	4.8088e-06	4.6496e-06	1406.6	382.3	4.7424e-06	4.9447e-06	435.93	149.51	129.73	45.066	4.8335e-06	55.376	194.328	238.333	241.340	170.185	296.175	319.617	170.262	174.985	293.566	305.951	174.739	178.376	178.918	183.761	290.634	183.179	-8191	255	
1009.170	1	1	0	0	0.019814	0.12885	0.13428	0.083185	0.020535	0.10236	0.11343	0.13458	0.079694	0.25299	0.11846	0.23171	0.039239	0.049919	0.31443	0.17027	-3.2396	-2.4771	-3.475	-3.5979	-2.8063	-3.6146	-2.9333	-3.0417	-3.5792	-2.9375	-3.7146	-3.4313	-2.725	-3.6958	-2.8458	-3.0604	187.217	193.571	245.719	454.959	259.926	348.376	492.498	430.582	273.159	202.825	377.404	479.855	284.469	188.018	513.827	434.563	0.00055471	0.00051282	0.00014141	1387.9	4.1612e-06	3.9904e-06	1383.9	375.21	6.9884e-06	3.6212e-06	426.79	145.97	126.68	43.747	5.4038e-06	53.585	0.00048483	0.00044247	0.00011821	1404.2	5.0376e-06	4.5164e-06	1403.6	380.8	4.6682e-06	4.9042e-06	435.08	149.24	129.31	44.867	4.7244e-06	55.065	195.607	249.049	246.893	170.451	301.872	308.738	170.069	175.122	284.414	310.564	174.566	178.381	179.005	183.810	289.465	182.896	-8191	255	
1009.266	1	1	0	0	0.15108	0.10569	0.1987	0.26527	0.15916	0.2349	0.37455	0.16427	0.12024	0.32257	0.087125	0.097919	0.080957	0.072838	0.061843	0.17726	-3.3458	-2.7771	-3.2396	-3.4917	-2.7354	-3.5938	-3.1229	-2.8833	-3.5917	-2.9479	-3.2833	-3.5604	-2.6604	-3.5667	-2.9958	-2.6063	283.763	367.666	249.371	505.175	414.512	427.187	504.557	329.971	356.628	375.486	340.143	502.874	243.872	299.478	156.975	161.453	0.00056699	0.00052485	0.00015806	1386	4.7072e-06	7.6795e-06	1387	374.6	4.8449e-06	4.945e-06	429.19	145.93	126.31	43.651	5.0401e-06	53.479	0.00047862	0.00042656	0.00011693	1403.2	4.8853e-06	4.7019e-06	1404.1	381.15	4.7452e-06	4.7216e-06	434.63	148.67	129.06	44.739	4.6211e-06	54.984	195.185	236.792	255.500	170.284	275.234	300.498	169.783	174.582	287.096	325.322	174.397	178.044	178.643	183.574	301.773	182.468	-8191	255	
1009.362	1	1	0	0	0.21802	0.2395	0.39555	0.23586	0.17711	0.29379	0.21241	0.16331	0.15729	0.048472	0.12309	0.24639	0.15247	0.34723	0.11905	0.29072	-3.1521	-2.9083	-3.1292	-3.7146	-2.4667	-3.575	-3.3771	-3.1188	-3.7229	-2.8521	-3.0896	-3.6437	-2.7313	-3.6729	-3.3063	-2.8083	163.633	454.905	195.672	458.649	207.113	431.617	443.006	174.534	408.415	310.264	240.576	420.008	484.635	194.930	389.467	435.615	0.00055929	0.00070018	0.00012956	1384.9	4.0491e-06	5.2121e-06	1382.4	373.87	5.19e-06	3.349e-06	425.23	145.53	126.18	43.564	5.4092e-06	53.412	0.00048056	0.00043744	0.00011624	1400.9	4.8805e-06	4.6657e-06	1403.1	380.49	4.7278e-06	4.816e-06	434.02	148.48	128.88	44.708	4.6253e-06	54.955	195.979	237.006	246.829	170.354	298.743	328.364	169.758	174.632	275.883	337.764	174.124	178.047	178.288	183.099	300.241	182.915	-8191	255	
1009.483	1	1	0	0	0.14418	0.16758	0.12719	0.095217	0.17362	0.22397	0.1825	0.12124	0.062176	0.11048	0.23355	0.16613	0.19845	0.12977	0.17753	0.26015	-3.3917	-2.7062	-2.9313	-3.6604	-2.8688	-3.2438	-3.4042	-2.8479	-3.6125	-2.8208	-3.0167	-3.7458	-2.7708	-3.3583	-3.5062	-2.8187	348.787	363.655	200.620	309.339	341.523	506.475	162.924	177.324	263.817	441.430	233.645	497.974	431.053	506.506	258.605	423.164	0.00055486	0.00057183	0.00016072	1384.4	5.0609e-06	3.3032e-06	1381.7	374.28	4.8448e-06	5.5487e-06	427.14	145.31	126.13	43.652	4.6829e-06	53.308	0.00049481	0.00042528	0.00012068	1400.6	4.8869e-06	4.5825e-06	1401.3	379.49	4.7465e-06	4.6521e-06	434.06	148.27	128.75	44.7	4.6152e-06	54.925	194.104	246.682	254.376	170.143	296.932	300.299	169.987	174.537	298.330	319.505	174.017	177.922	178.517	183.604	300.659	182.950	-8191	255	
1009.579	1	1	0	0	0.0070897	0.17131	0.22177	0.093471	0.20761	0.26384	0.36965	0.29129	0.24666	0.13406	0.044995	0.058504	0.16093	0.23095	0.20801	0.094277	-3.2396	-2.9333	-2.9604	-3.6479	-2.7125	-3.3917	-3.4604	-2.8187	-3.4917	-2.75	-2.7958	-3.7958	-2.9562	-3.2438	-3.4583	-2.8271	166.467	235.207	289.646	453.631	385.833	498.633	491.203	444.056	407.477	342.236	408.416	163.960	186.657	505.308	342.876	402.570	0.00053905	0.00041718	0.00014189	1382.8	4.3049e-06	5.5514e-06	1377.1	372.8	5.7499e-06	4.685e-06	425.68	144.82	126.19	43.618	5.6489e-06	53.436	0.0004819	0.00042034	0.0001215	1400	4.935e-06	4.5785e-06	1399.6	379.25	4.8515e-06	4.576e-06	433.09	148.14	128.49	44.576	4.7341e-06	54.851	193.862	262.220	257.879	169.978	285.536	305.395	169.570	174.542	281.634	320.556	174.289	178.050	178.630	183.548	310.674	183.197	-8191	255	
1009.651	1	1	0	0	0.17136	0.13117	0.21308	0.17027	0.092588	0.20839	0.47672	0.18091	0.13071	0.11246	0.041126	0.22667	0.21607	0.29713	0.18477	0.17609	-3.1104	-3.1375	-2.6979	-3.8042	-2.8	-2.9833	-3.7375	-2.5833	-3.4333	-3.1813	-2.9313	-3.7646	-2.9479	-2.9521	-3.5396	-2.8354	500.911	401.241	215.916	492.525	241.798	369.586	406.040	497.873	505.987	473.180	276.030	432.207	172.825	171.373	513.005	161.509	0.00055343	0.00067983	0.00013555	1381.6	3.6516e-06	5.0587e-06	1374.6	372.78	4.9864e-06	4.0127e-06	424.56	144.96	125.72	43.572	4.1074e-06	53.081	0.00048811	0.00043553	0.00012474	1398.9	4.9714e-06	4.6733e-06	1398	379.18	4.9038e-06	4.592e-06	432.4	148.07	128.51	44.515	4.7084e-06	54.704	195.260	251.935	260.038	169.948	288.760	298.808	169.820	174.828	286.602	338.930	174.075	177.931	178.533	183.494	291.158	183.082	-8191	255	
1009.747	1	1	0	0	0.17112	0.092218	0.21552	0.13654	0.04363	0.19311	0.12131	0.15284	0.097969	0.22495	0.16826	0.064511	0.2648	0.24154	0.26667	0.17403	-2.9646	-3.275	-2.8396	-3.8854	-2.8271	-2.9062	-3.7083	-2.7229	-3.375	-3.4562	-2.6729	-3.8292	-2.9875	-3.0062	-3.6375	-2.8583	358.589	471.101	319.772	404.851	331.158	459.711	459.103	455.914	256.305	298.865	485.984	496.499	179.903	490.398	233.137	453.738	0.00056987	0.00053462	0.00015981	1378.4	3.4033e-06	6.6851e-06	1378.9	373.41	5.1508e-06	5.2284e-06	425.79	145.16	126.32	43.272	6.2426e-06	53.283	0.0004862	0.00041332	0.00012678	1398.6	4.8733e-06	4.7533e-06	1400.1	379.75	4.993e-06	4.6873e-06	433.15	148.12	128.25	44.405	4.8044e-06	54.779	197.002	235.256	258.987	170.362	304.974	297.479	169.918	174.626	277.880	311.143	174.160	178.054	178.513	183.349	306.123	182.989	-8191	255	
1009.866	1	1	0	0	0.14548	0.15022	0.14757	0.14005	0.039795	0.1616	0.20066	0.29266	0.25331	0.20327	0.15965	0.26541	0.21452	0.16164	0.085197	0.068314	-2.7771	-3.525	-2.7938	-3.8479	-3.0896	-2.7229	-3.7375	-3.0646	-3.1667	-3.5458	-2.7	-3.4292	-3.3729	-2.8354	-3.7375	-3.1354	396.164	504.738	213.005	401.480	388.877	313.049	421.158	421.888	360.566	400.536	484.642	466.535	478.495	205.966	372.413	492.830	0.00055462	0.00054241	0.00015564	1385.1	3.2865e-06	4.4719e-06	1377.5	372.19	4.7779e-06	5.0488e-06	426.49	144.8	125.71	43.249	5.6434e-06	53.069	0.00049464	0.00041559	0.00012577	1400.3	4.7992e-06	5.0841e-06	1399.4	378.79	4.7578e-06	4.6365e-06	433.5	147.99	128.46	44.439	4.7062e-06	54.643	193.561	250.446	257.885	170.080	285.994	309.470	169.439	174.318	286.273	299.491	173.766	177.470	178.193	182.822	302.054	182.626	-8191	255	
1009.962	1	1	0	0	0.192	0.11938	0.065668	0.11053	0.18884	0.16472	0.15671	0.24406	0.19853	0.19759	0.20334	0.2985	0.1373	0.23411	0.089212	0.17591	-2.6958	-3.4021	-2.625	-3.6375	-3.2625	-2.7917	-3.9104	-3.1188	-2.9771	-3.6375	-2.8667	-3.55	-3.3958	-2.725	-3.5438	-3.0812	328.611	362.090	267.845	310.223	346.119	463.701	506.320	411.749	285.235	449.763	229.109	478.397	491.500	479.176	268.173	408.256	0.00055404	0.00058201	0.00016834	1380.7	3.5155e-06	5.8507e-06	1380.4	373.49	3.8282e-06	5.122e-06	425.47	144.49	125.68	43.44	4.9693e-06	53.346	0.00049329	0.00041942	0.00012225	1398.6	4.8264e-06	4.8834e-06	1400.3	379.39	4.9792e-06	4.6655e-06	432.88	147.91	128.24	44.453	4.7286e-06	54.715	195.273	239.141	234.563	169.904	292.418	302.796	169.509	174.247	287.114	309.165	174.023	177.982	178.240	183.294	314.066	182.740	-8191	255	
1010.058	1	1	0	0	0.18028	0.23092	0.094236	0.24063	0.19062	0.27707	0.17278	0.26151	0.074245	0.1443	0.04839	0.18596	0.02417	0.12747	0.14212	0.14251	-2.4229	-3.4583	-2.6063	-3.5771	-3.3312	-2.5625	-3.6958	-3.1042	-2.5271	-3.5958	-2.8208	-3.3792	-3.3646	-2.6813	-3.3604	-3.2333	314.376	359.706	349.250	470.807	414.379	219.423	173.719	455.834	274.973	348.567	232.792	188.722	438.102	495.338	367.116	364.729	0.00057682	0.000655	0.00015096	1377.5	4.5614e-06	6.3996e-06	1381.6	373.09	4.8542e-06	7.0869e-06	425.02	144.34	125.81	43.448	4.2173e-06	53.242	0.0004951	0.00042624	0.0001288	1398.2	4.8725e-06	5.0917e-06	1401.2	379.29	4.9699e-06	4.743e-06	432.43	147.76	128.1	44.456	4.8495e-06	54.693	194.113	243.419	259.256	170.066	298.645	294.760	169.315	174.505	285.008	327.773	173.784	177.858	178.419	183.604	307.829	182.841	-8191	255	
1010.154	1	1	0	0	0.084452	0.092411	0.29599	0.13158	0.12161	0.13029	0.34636	0.1348	0.23587	0.018792	0.36592	0.10798	0.19539	0.11677	0.22595	0.16392	-2.3292	-3.5	-2.8271	-3.4208	-3.6	-2.4146	-3.5708	-3.3625	-2.65	-3.6625	-2.9479	-3.0667	-3.7333	-2.8292	-3.4667	-3.3521	326.571	171.287	428.984	506.377	366.426	513.843	416.541	399.951	434.551	442.422	445.289	513.076	502.980	422.636	391.483	230.444	0.00055529	0.00052445	0.00014988	1381.1	5.5258e-06	7.2177e-06	1382.8	372.21	5.4496e-06	5.6898e-06	425.95	145.38	125.78	43.257	3.5697e-06	53.384	0.00049894	0.00042859	0.00012556	1399.3	4.8304e-06	4.8289e-06	1400.8	378.87	5.0482e-06	4.8863e-06	433.14	147.94	128.1	44.405	4.6734e-06	54.783	195.044	226.063	235.381	170.373	291.527	305.538	169.955	174.760	283.842	311.538	174.366	178.245	178.757	183.300	282.512	182.926	-8191	255	
1010.251	1	1	0	0	0.12176	0.15397	0.085175	0.29904	0.30768	0.1645	0.047708	0.23805	0.23618	0.11705	0.26268	0.15282	0.30005	0.086886	0.094936	0.18204	-2.4437	-3.6437	-2.9167	-3.1437	-3.3958	-2.5312	-3.6271	-3.4521	-2.3812	-3.3021	-2.9562	-3.1021	-3.6417	-2.6104	-3.0417	-3.4833	160.453	403.796	283.984	439.614	391.817	219.323	168.923	456.421	417.268	298.668	365.808	184.208	486.815	343.081	494.713	446.763	0.00056312	0.00034259	0.00018116	1380.8	4.7267e-06	6.1125e-06	1378.8	372.21	5.5917e-06	4.8825e-06	425.58	144.58	126	43.411	4.6118e-06	53.243	0.00050647	0.00042967	0.00012587	1399	4.834e-06	5.0318e-06	1399.2	378.81	5.0632e-06	4.6913e-06	433.26	147.89	128.41	44.489	4.879e-06	54.662	194.849	244.603	247.045	170.392	281.515	300.160	169.934	174.778	293.019	298.481	173.735	177.930	178.535	183.483	285.745	182.899	-8191	255	
1010.347	1	1	0	0	0.18639	0.021476	0.052754	0.32427	0.072352	0.13623	0.15662	0.12483	0.13287	0.15141	0.16204	0.14566	0.033818	0.075553	0.21621	0.065564	-2.4021	-3.6021	-2.9938	-3.0521	-3.4229	-2.6354	-3.5	-3.6542	-2.5938	-3.5417	-3.0917	-2.8646	-3.6854	-2.7292	-3.0187	-3.5958	509.293	173.404	442.095	464.939	409.489	379.440	432.557	422.959	290.615	260.526	391.626	191.283	312.988	288.973	461.265	439.870	0.00055342	0.00051971	0.00012273	1384	5.0166e-06	4.5918e-06	1386.8	371.84	5.4769e-06	3.7081e-06	426.84	145.31	126.06	43.445	5.3664e-06	53.346	0.00049535	0.00044299	0.0001227	1399.4	4.9646e-06	5.1382e-06	1401.9	378.64	5.0255e-06	4.5546e-06	433.08	148.12	128.47	44.436	4.8394e-06	54.745	192.704	226.199	254.014	170.483	289.260	294.691	169.689	174.468	279.890	319.931	174.402	178.448	179.092	183.693	295.431	182.871	-8191	255	
1010.443	1	1	0	0	0.099222	0.1098	0.11925	0.20107	0.18702	0.34048	0.21407	0.1959	0.34212	0.23136	0.29772	0.12713	0.151	0.059715	0.18575	0.22053	-2.25	-3.1542	-3.0375	-3.0021	-3.2958	-2.6771	-3.1854	-3.625	-2.5479	-3.2292	-3.2146	-2.8312	-3.5729	-3.0062	-2.9729	-3.5021	420.482	390.969	173.550	464.515	308.616	407.279	178.911	470.041	224.743	475.329	171.722	317.313	188.272	338.130	420.617	420.383	0.00056756	0.0003906	0.0001577	1376	6.0182e-06	5.4787e-06	1378.5	373.49	5.7771e-06	5.2061e-06	426.13	144.31	126.11	43.385	4.3734e-06	53.414	0.00049723	0.00043505	0.00012153	1397	4.8e-06	4.937e-06	1399.8	379.1	5.0478e-06	4.7804e-06	433.39	148.11	128.52	44.461	4.9612e-06	54.763	194.571	256.529	260.611	170.411	283.388	316.013	170.165	174.546	279.558	322.553	174.222	177.807	178.818	183.558	284.671	182.850	-8191	255	
1010.563	1	1	0	0	0.1688	0.13412	0.13032	0.35231	0.2223	0.2333	0.35263	0.23919	0.12731	0.12165	0.2245	0.15208	0.062096	0.20221	0.10358	0.13368	-2.2625	-3.2458	-3.4104	-2.9021	-3.3708	-2.9083	-3.0104	-3.4521	-2.6458	-3.3229	-3.35	-2.8125	-3.4708	-3.1083	-2.7458	-3.5187	223.199	497.409	212.224	506.497	341.330	321.657	475.656	442.631	361.776	195.012	447.273	182.601	442.892	163.391	241.142	356.305	0.0005809	0.00036115	0.0001166	1383.9	5.3426e-06	5.1352e-06	1380.7	372.32	5.3686e-06	4.9091e-06	425.51	144.65	125.31	43.367	6.0719e-06	53.128	0.00050239	0.00042544	0.00012016	1398.2	4.9354e-06	4.8718e-06	1399.8	378.58	5.0466e-06	4.6561e-06	431.89	147.59	128.19	44.421	5.0046e-06	54.74	194.433	269.497	247.392	170.067	287.945	325.427	169.734	174.622	277.009	309.739	174.387	177.909	178.804	183.714	293.511	182.949	-8191	255	
1010.660	1	1	0	0	0.17997	0.067702	0.14838	0.3479	0.15015	0.16093	0.2725	0.1613	0.1259	0.096211	0.21322	0.17551	0.26324	0.18954	0.074266	0.074084	-2.1854	-3.0583	-3.4833	-2.7896	-3.5021	-3.075	-2.9271	-3.8229	-2.525	-3.0104	-3.3771	-2.6917	-3.6021	-3.1333	-2.5875	-3.425	205.232	481.292	504.653	473.703	328.115	339.439	446.216	484.925	196.216	344.147	511.538	297.734	460.425	183.454	512.459	477.445	0.00054872	0.00041007	0.00012666	1381.3	3.7179e-06	4.9181e-06	1380.4	372.19	5.414e-06	5.345e-06	424.94	145.08	125.43	43.32	5.1065e-06	53.159	0.00050297	0.00042863	0.00011829	1397.8	4.8761e-06	4.7189e-06	1398.9	378.47	5.137e-06	4.5715e-06	431.61	147.93	128.11	44.347	5.0821e-06	54.609	195.099	232.767	231.299	170.623	292.506	293.250	169.998	174.625	285.479	320.902	174.340	178.272	178.910	183.471	297.345	182.499	-8191	255	
1010.756	1	1	0	0	0.027382	0.099484	0.23336	0.14493	0.056192	0.083498	0.16775	0.322	0.14699	0.29951	0.082836	0.12834	0.20238	0.25184	0.05559	0.08926	-2.3521	-3.0062	-3.3896	-2.6833	-3.4083	-3.1542	-2.8875	-3.6208	-2.7687	-3.1417	-3.5604	-2.6125	-3.5208	-3.1792	-2.625	-3.5375	428.593	483.589	365.390	203.705	323.651	366.047	390.641	444.838	335.726	515.131	475.104	253.801	460.471	481.296	276.562	216.098	0.00055988	0.00067688	0.00015638	1379.3	4.6085e-06	3.9953e-06	1384.4	371.62	6.5219e-06	4.4971e-06	422.76	144.14	125.47	43.216	4.4562e-06	53.068	0.00050547	0.00043378	0.00012063	1397.8	4.7707e-06	4.7426e-06	1399.1	378.49	5.0202e-06	4.9193e-06	431.75	147.55	128.04	44.281	4.9574e-06	54.595	192.769	237.186	254.604	169.927	279.291	312.967	169.684	174.380	279.836	306.538	174.301	178.001	178.709	183.276	298.562	182.763	-8191	255	
1010.852	1	1	0	0	0.080797	0.065783	0.21836	0.19259	0.087064	0.034527	0.20874	0.18485	0.17347	0.33067	0.16395	0.2451	0.17267	0.082051	0.30014	0.25518	-2.7083	-2.8917	-3.5542	-2.875	-3.2875	-3.2292	-2.7917	-3.7562	-2.9688	-2.9271	-3.7833	-2.5229	-3.1396	-3.3937	-2.85	-3.7938	434.311	285.716	274.555	180.050	437.195	164.526	468.742	487.044	205.958	174.452	414.828	490.040	476.986	511.322	175.972	190.517	0.00055197	0.00059394	0.00014732	1380.3	3.0867e-06	5.5471e-06	1379	371.81	5.7264e-06	5.1587e-06	423.77	143.96	125.06	43.16	4.0601e-06	52.969	0.0004951	0.00043605	0.0001229	1395.7	4.8833e-06	4.6331e-06	1398.3	378.42	4.8592e-06	5.0008e-06	431.68	147.41	127.77	44.233	5.1015e-06	54.457	194.879	236.874	243.927	170.212	293.205	311.517	169.719	174.544	283.057	313.597	174.457	178.303	178.661	183.957	295.334	183.280	-8191	255	
1010.946	1	1	0	0	0.090608	0.026855	0.20358	0.20691	0.1736	0.2052	0.21165	0.1269	0.10576	0.17072	0.28695	0.21495	0.17255	0.14709	0.16721	0.17248	-2.7396	-2.6875	-3.4771	-2.8458	-3.175	-3.4521	-2.9208	-3.6063	-2.9437	-2.8271	-3.7042	-2.9958	-3.2938	-3.5771	-2.5396	-3.3708	239.607	292.266	424.329	477.691	350.655	338.148	470.875	164.665	433.865	325.352	383.236	325.651	207.299	462.102	229.369	328.277	0.00054896	0.00067626	0.00011741	1376.9	4.544e-06	5.5646e-06	1379.1	371.82	4.6448e-06	4.2084e-06	424.39	144.61	125.13	42.99	5.4154e-06	52.888	0.00049373	0.00044454	0.00012465	1396.2	4.9106e-06	4.5092e-06	1396.9	378.08	4.8835e-06	4.9496e-06	431.32	147.3	127.72	44.179	4.9966e-06	54.431	194.119	228.540	248.899	169.732	287.822	302.008	169.727	174.657	291.158	318.160	174.285	178.262	178.821	183.727	300.575	183.180	-8191	255	
1011.042	1	1	0	0	0.24021	0.093835	0.19897	0.27619	0.096449	0.16773	0.13233	0.2704	0.068444	0.12399	0.10489	0.186	0.25192	0.2874	0.3315	0.0587	-2.7896	-2.6125	-3.3021	-2.9083	-2.975	-3.4688	-2.8146	-3.4917	-3.3875	-2.8438	-3.6354	-3.0104	-2.8896	-3.6729	-2.8708	-3.3812	380.712	190.680	351.784	157.699	460.718	502.429	478.252	172.099	450.003	389.414	157.169	190.006	463.694	513.773	260.162	488.674	0.00055441	0.00045143	0.00014305	1375.4	4.3476e-06	3.9378e-06	1378.2	371.34	5.7937e-06	3.3183e-06	424.32	143.97	125.23	43.082	5.8936e-06	52.898	0.00050134	0.0004528	0.00012222	1393.4	4.9823e-06	4.5638e-06	1397.8	377.82	4.8418e-06	5.023e-06	431.78	146.96	127.6	44.197	5.0315e-06	54.354	191.965	228.124	264.188	169.847	284.782	289.384	169.534	174.171	289.242	317.094	173.473	177.405	178.295	183.103	299.920	182.490	-8191	255	
1011.163	1	1	0	0	0.070577	0.24784	0.093884	0.1428	0.30446	0.077379	0.17463	0.15868	0.087653	0.17298	0.1856	0.15097	0.24401	0.058221	0.23289	0.16071	-3.1229	-2.5271	-3.5729	-3.1771	-2.5979	-3.5979	-3.0167	-3.3792	-3.5479	-2.5729	-3.5625	-3.1188	-2.9313	-3.7167	-2.8083	-3.3333	389.016	229.656	300.182	450.337	253.482	225.673	511.862	165.895	197.434	167.796	434.901	245.654	500.496	313.292	406.579	506.139	0.00054406	0.0006433	0.00012213	1380.4	3.5332e-06	4.8068e-06	1378.9	371.55	5.2138e-06	5.3828e-06	424.5	143.17	124.91	42.903	5.5036e-06	52.893	0.00049058	0.00046045	0.00012417	1396.3	4.9759e-06	4.718e-06	1395.7	377.78	4.976e-06	5.015e-06	431.37	146.51	127.38	44.068	4.9827e-06	54.355	194.529	233.037	240.865	169.892	288.183	287.900	169.371	174.158	288.784	317.908	173.765	177.541	178.356	183.217	316.316	182.512	-8191	255	
1011.259	1	1	0	0	0.28447	0.045326	0.081486	0.17056	0.3552	0.071608	0.30983	0.24543	0.2077	0.12387	0.13564	0.20786	0.1038	0.22193	0.15228	0.23513	-3.1958	-2.5542	-3.6167	-3.2792	-2.6229	-3.7375	-3.0333	-3.275	-3.6667	-2.7292	-3.5979	-3.3854	-2.8646	-3.6688	-2.8625	-3.0896	208.882	233.030	201.408	432.337	322.687	424.216	496.587	512.377	263.109	465.767	239.918	490.708	512.590	191.604	405.819	402.651	0.00054516	0.00059018	0.00012936	1374.1	3.73e-06	4.6906e-06	1374.9	371.97	4.3743e-06	5.936e-06	423.87	143.58	125.19	42.969	4.8194e-06	52.673	0.00049315	0.00045343	0.00012143	1394.3	5.1529e-06	4.6858e-06	1395.1	377.99	4.8657e-06	4.9411e-06	431.56	146.8	127.48	44.024	4.8112e-06	54.262	194.867	234.866	255.816	169.781	290.252	320.044	169.500	174.176	296.001	318.279	173.925	177.704	178.326	182.993	306.969	182.484	-8191	255	
1011.355	1	1	0	0	0.16432	0.20629	0.2914	0.50844	0.112	0.10013	0.30526	0.10393	0.048785	0.2877	0.11802	0.21422	0.30456	0.10783	0.035866	0.07968	-3.0854	-2.6437	-3.3583	-3.3667	-2.6375	-3.5729	-3.1937	-3.075	-3.5812	-2.8375	-3.5812	-3.4062	-2.8917	-3.8688	-3.0458	-3.0563	413.933	394.752	359.394	483.521	239.550	500.238	489.871	511.630	381.951	283.181	171.053	468.805	486.610	506.497	512.051	493.528	0.00052569	0.00057693	0.00011536	1376.7	3.2807e-06	5.9052e-06	1373.4	370.69	3.8735e-06	5.4421e-06	424.1	143.09	124.8	42.968	4.5185e-06	52.899	0.00049046	0.00045359	0.00012194	1391.9	5.1493e-06	4.9938e-06	1394.1	377.05	4.9204e-06	5.0052e-06	430.71	146.5	127.4	44.032	4.8242e-06	54.352	193.350	244.287	241.956	169.590	292.880	321.756	169.226	174.113	288.542	314.382	174.067	177.445	178.307	183.100	313.440	182.312	-8191	255	
1011.452	1	1	0	0	0.084939	0.28	0.36688	0.27287	0.16874	0.079336	0.52492	0.22051	0.19859	0.092298	0.29282	0.053854	0.28195	0.33466	0.17535	0.14878	-3.2771	-2.5146	-3.025	-3.6021	-2.7	-3.4	-3.1771	-3.0083	-3.4583	-2.7958	-3.3521	-3.6583	-2.6833	-3.5583	-3.0375	-2.8917	271.507	408.900	229.136	193.524	186.002	230.441	484.693	486.890	285.416	485.703	435.401	367.407	465.677	497.180	400.634	347.377	0.00054761	0.00073931	0.00010922	1374.6	3.892e-06	4.9462e-06	1372.1	372.8	4.3203e-06	5.3283e-06	424.13	143.52	124.55	42.884	4.9712e-06	52.787	0.00050197	0.00045997	0.00012267	1391.5	5.0588e-06	4.6706e-06	1390.8	377.73	4.7744e-06	4.9206e-06	430.7	146.66	127.27	44.003	4.7829e-06	54.239	192.300	229.010	239.604	169.773	287.035	320.340	169.371	174.200	291.729	308.143	173.904	177.509	178.251	183.224	281.303	182.401	-8191	255	
1011.548	1	1	0	0	0.1896	0.2967	0.064264	0.33221	0.4733	0.13011	0.14379	0.30109	0.31708	0.40869	0.11841	0.23102	0.17824	0.08138	0.075751	0.15353	-3.2917	-2.7979	-3.0187	-3.6979	-2.6667	-3.4437	-3.3625	-3.0583	-3.6646	-2.8021	-3.1229	-3.2812	-2.7229	-3.5146	-3.1729	-2.7271	241.740	257.518	306.577	455.910	361.912	333.391	387.409	458.606	322.168	300.254	403.313	490.328	486.343	308.771	414.329	513.986	0.00053318	0.00059068	0.00013757	1373.6	4.9238e-06	5.206e-06	1374.9	371.15	5.9041e-06	5.0628e-06	423.19	143.98	124.58	42.821	4.5054e-06	52.795	0.00048857	0.00044853	0.00012133	1393	5.0167e-06	4.6854e-06	1393.3	377.23	5.0441e-06	4.6659e-06	430.62	146.75	127.24	43.983	4.7876e-06	54.262	195.133	228.466	237.231	169.701	287.725	315.287	169.294	174.181	285.796	299.867	174.078	177.427	178.337	183.168	280.428	182.532	-8191	255	
#DATA ENDS
