BOXY.EXE: ISS Imagent and Oximeter Data Acquisition Program Version 0.80
Ascii Record File

#ACQ INFORMATION
2  Detector Channels 
16  External MUX Channels 
1  Auxiliary Channels 
5000  Waveform (CCF) Frequency (Hz)
1  Waveforms Skipped 
30  Waveforms Averaged 
1  Cycles Averaged 
16  Acquisitions per Waveform 
10.0806  Updata Rate (Hz) 

#FILE INFORMATION
TRUE -- External MUX Channel results are PARSED.
FALSE -- AC DC and Phase are NOT grouped.
TRUE -- Companion Program Settings File CREATED.
FALSE -- AC data not excluded
FALSE -- DC data not excluded
FALSE -- Phase data not excluded
FALSE -- Auxillary Chn. data not excluded
Tab delimiters

#CALIBRATION STATE
TRUE -- Waveform Calibration Values APPLIED.


#AUX CALIBRATION VALUES
Val Type	aux-1	

Term	1.0000e+00	
Factor	0.0000e+00	


#WF CALIBRATION VALUES
A = Detector Channel
Val Type	A-AC1	A-AC2	A-AC3	A-AC4	A-AC5	A-AC6	A-AC7	A-AC8	A-AC9	A-AC10	A-AC11	A-AC12	A-AC13	A-AC14	A-AC15	A-AC16	A-DC1	A-DC2	A-DC3	A-DC4	A-DC5	A-DC6	A-DC7	A-DC8	A-DC9	A-DC10	A-DC11	A-DC12	A-DC13	A-DC14	A-DC15	A-DC16	A-Ph1	A-Ph2	A-Ph3	A-Ph4	A-Ph5	A-Ph6	A-Ph7	A-Ph8	A-Ph9	A-Ph10	A-Ph11	A-Ph12	A-Ph13	A-Ph14	A-Ph15	A-Ph16	

Term	0.00000e+00	0.00000e+00	0.00000e+00	0.00000e+00	0.00000e+00	0.00000e+00	0.00000e+00	0.00000e+00	0.00000e+00	0.00000e+00	0.00000e+00	0.00000e+00	0.00000e+00	0.00000e+00	0.00000e+00	0.00000e+00	0.00000e+00	0.00000e+00	0.00000e+00	0.00000e+00	0.00000e+00	0.00000e+00	0.00000e+00	0.00000e+00	0.00000e+00	0.00000e+00	0.00000e+00	0.00000e+00	0.00000e+00	0.00000e+00	0.00000e+00	0.00000e+00	0.00000e+00	0.00000e+00	0.00000e+00	0.00000e+00	0.00000e+00	0.00000e+00	0.00000e+00	0.00000e+00	0.00000e+00	0.00000e+00	0.00000e+00	0.00000e+00	0.00000e+00	0.00000e+00	0.00000e+00	0.00000e+00	
Factor	1.00000e+00	1.00000e+00	1.00000e+00	1.00000e+00	1.00000e+00	1.00000e+00	1.00000e+00	1.00000e+00	1.00000e+00	1.00000e+00	1.00000e+00	1.00000e+00	1.00000e+00	1.00000e+00	1.00000e+00	1.00000e+00	1.00000e+00	1.00000e+00	1.00000e+00	1.00000e+00	1.00000e+00	1.00000e+00	1.00000e+00	1.00000e+00	1.00000e+00	1.00000e+00	1.00000e+00	1.00000e+00	1.00000e+00	1.00000e+00	1.00000e+00	1.00000e+00	X	X	X	X	X	X	X	X	X	X	X	X	X	X	X	X	

B = Detector Channel
Val Type	B-AC1	B-AC2	B-AC3	B-AC4	B-AC5	B-AC6	B-AC7	B-AC8	B-AC9	B-AC10	B-AC11	B-AC12	B-AC13	B-AC14	B-AC15	B-AC16	B-DC1	B-DC2	B-DC3	B-DC4	B-DC5	B-DC6	B-DC7	B-DC8	B-DC9	B-DC10	B-DC11	B-DC12	B-DC13	B-DC14	B-DC15	B-DC16	B-Ph1	B-Ph2	B-Ph3	B-Ph4	B-Ph5	B-Ph6	B-Ph7	B-Ph8	B-Ph9	B-Ph10	B-Ph11	B-Ph12	B-Ph13	B-Ph14	B-Ph15	B-Ph16	

Term	0.00000e+00	0.00000e+00	0.00000e+00	0.00000e+00	0.00000e+00	0.00000e+00	0.00000e+00	0.00000e+00	0.00000e+00	0.00000e+00	0.00000e+00	0.00000e+00	0.00000e+00	0.00000e+00	0.00000e+00	0.00000e+00	0.00000e+00	0.00000e+00	0.00000e+00	0.00000e+00	0.00000e+00	0.00000e+00	0.00000e+00	0.00000e+00	0.00000e+00	0.00000e+00	0.00000e+00	0.00000e+00	0.00000e+00	0.00000e+00	0.00000e+00	0.00000e+00	-1.27807e+02	-1.29926e+02	-1.26772e+02	-1.80573e+02	-6.73208e+01	-6.76919e+01	-1.56582e+02	-1.62015e+02	-7.01869e+01	-5.52664e+01	-1.75242e+02	-1.71164e+02	-1.79933e+02	-1.76303e+02	-6.70147e+01	-1.49553e+02	
Factor	2.02714e-05	1.91716e-04	4.79495e-05	1.62367e-01	1.27428e-06	1.92766e-06	1.87826e-01	5.79250e-02	1.30275e-06	1.88192e-06	1.08611e-01	3.63822e-02	2.76640e-02	1.06877e-02	1.58961e-06	1.52523e-02	1.17346e-05	1.91389e-05	5.38533e-06	8.14419e-02	1.92304e-07	2.14576e-07	8.87117e-02	2.92306e-02	1.94660e-07	2.13727e-07	5.29229e-02	1.78944e-02	1.41700e-02	5.42369e-03	2.02256e-07	7.50969e-03	X	X	X	X	X	X	X	X	X	X	X	X	X	X	X	X	



#DISTANCE SETTINGS
A = Detector Channel
A-1	A-2	A-3	A-4	A-5	A-6	A-7	A-8	A-9	A-10	A-11	A-12	A-13	A-14	A-15	A-16	

2.5000e+00	3.0000e+00	2.5000e+00	3.0000e+00	2.0000e+00	3.0000e+00	1.5000e+00	3.0000e+00	3.0000e+00	3.0000e+00	3.0000e+00	3.0000e+00	3.0000e+00	3.0000e+00	1.5000e+00	3.0000e+00	

B = Detector Channel
B-1	B-2	B-3	B-4	B-5	B-6	B-7	B-8	B-9	B-10	B-11	B-12	B-13	B-14	B-15	B-16	

1.0000e+01	1.0000e+01	1.0000e+01	1.4400e+00	1.0000e+01	1.0000e+01	1.5100e+00	1.9400e+00	1.0000e+01	1.0000e+01	1.9900e+00	2.4900e+00	2.4100e+00	2.9000e+00	1.0000e+01	2.9800e+00	




#DATA BEGINS
time	group	step	mark	flag	A-AC1	A-AC2	A-AC3	A-AC4	A-AC5	A-AC6	A-AC7	A-AC8	A-AC9	A-AC10	A-AC11	A-AC12	A-AC13	A-AC14	A-AC15	A-AC16	A-DC1	A-DC2	A-DC3	A-DC4	A-DC5	A-DC6	A-DC7	A-DC8	A-DC9	A-DC10	A-DC11	A-DC12	A-DC13	A-DC14	A-DC15	A-DC16	A-Ph1	A-Ph2	A-Ph3	A-Ph4	A-Ph5	A-Ph6	A-Ph7	A-Ph8	A-Ph9	A-Ph10	A-Ph11	A-Ph12	A-Ph13	A-Ph14	A-Ph15	A-Ph16	B-AC1	B-AC2	B-AC3	B-AC4	B-AC5	B-AC6	B-AC7	B-AC8	B-AC9	B-AC10	B-AC11	B-AC12	B-AC13	B-AC14	B-AC15	B-AC16	B-DC1	B-DC2	B-DC3	B-DC4	B-DC5	B-DC6	B-DC7	B-DC8	B-DC9	B-DC10	B-DC11	B-DC12	B-DC13	B-DC14	B-DC15	B-DC16	B-Ph1	B-Ph2	B-Ph3	B-Ph4	B-Ph5	B-Ph6	B-Ph7	B-Ph8	B-Ph9	B-Ph10	B-Ph11	B-Ph12	B-Ph13	B-Ph14	B-Ph15	B-Ph16	aux-1	digaux	

1037.645	1	1	0	256	0.1227	0.20383	0.23504	0.099553	0.0698	0.20988	0.2609	0.33021	0.10226	0.099975	0.24171	0.15169	0.18476	0.25414	0.10176	0.27036	-2.7021	-2.1146	-2.9458	-2.8312	-2.1542	-3.0896	-2.5	-2.6646	-2.9437	-2.0083	-2.8854	-2.65	-2.0167	-2.8208	-2.1937	-2.5312	174.355	199.638	284.617	491.868	464.701	210.204	470.025	455.925	277.135	415.339	406.343	396.631	182.010	467.435	256.469	424.499	0.00059643	0.00080913	0.00019113	1459.4	4.589e-06	5.2186e-06	1456.1	393.45	5.0524e-06	4.7097e-06	444.56	147.58	129.4	44.113	7.0746e-06	54.085	0.0013776	0.00182	0.00052632	1491.8	1.9655e-05	2.1094e-05	1489.7	404.08	2.0394e-05	2.1516e-05	461.25	153.17	134.03	45.891	2.0893e-05	56.715	195.395	249.887	262.542	169.319	304.939	300.206	168.974	173.889	322.850	310.403	173.317	177.050	177.862	182.694	300.735	182.086	-8191	255	
1037.741	1	1	0	0	0.09463	0.23154	0.019925	0.2191	0.25281	0.1345	0.34806	0.25475	0.096028	0.40616	0.02653	0.088754	0.26644	0.047108	0.1626	0.030112	-2.5146	-1.9417	-2.5917	-2.9021	-2.2812	-2.8958	-2.5667	-2.3979	-3.0354	-2.0375	-2.8146	-2.9833	-2.1604	-3.0187	-2.4667	-2.3542	197.258	303.039	394.032	502.054	500.265	229.037	483.374	374.327	469.888	369.684	301.818	207.342	497.332	176.420	465.788	398.957	0.00058118	0.00052263	0.00013614	1453.4	3.1801e-06	1.1712e-05	1442.9	389.83	5.5273e-06	9.6854e-06	443.15	147.13	128.68	43.863	9.1527e-06	54.14	0.0014145	0.001899	0.00054359	1488	1.981e-05	2.1137e-05	1485	402.01	1.9591e-05	2.1089e-05	459.29	152.69	133.48	45.772	2.0503e-05	56.629	195.090	206.845	224.998	169.264	304.300	296.576	169.070	173.791	287.289	341.545	173.298	177.103	178.051	182.789	297.371	182.257	-8191	255	
1037.837	1	1	0	0	0.12585	0.11037	0.31499	0.10123	0.12366	0.2411	0.33424	0.26458	0.071121	0.12638	0.21038	0.15	0.3088	0.17888	0.22161	0.13789	-2.575	-2.1875	-2.3542	-2.9021	-2.15	-2.5563	-2.6333	-2.3312	-2.7729	-2.1229	-2.5896	-3.0583	-2.3667	-3.1292	-2.7917	-2.4208	229.839	337.367	203.835	229.424	305.496	204.556	336.402	509.482	187.870	294.238	514.197	316.333	447.574	190.729	423.437	230.962	0.00056545	0.000572	0.00015408	1451	4.1267e-06	7.8196e-06	1450.5	391.06	6.9764e-06	4.5576e-06	446.51	147.57	128.51	43.927	4.9532e-06	54.132	0.0013977	0.0019387	0.00055087	1487.5	1.9584e-05	2.1631e-05	1484.8	402.23	2.0036e-05	2.1254e-05	460.01	152.88	133.48	45.764	2.0935e-05	56.726	189.332	262.737	226.228	169.101	315.096	297.800	169.040	173.982	292.012	340.669	173.228	177.091	177.823	182.745	312.713	182.014	-8191	255	
1037.933	1	1	0	0	0.13654	0.025248	0.17825	0.1831	0.069252	0.054521	0.11648	0.11943	0.099865	0.026982	0.26914	0.33569	0.099719	0.37252	0.058554	0.19694	-2.8271	-2.4271	-2.5771	-3.3417	-2.2313	-2.9208	-3.0187	-2.4958	-3.1292	-2.5292	-2.35	-3.075	-2.2771	-2.9979	-2.6833	-2.3354	388.975	410.758	241.279	465.695	512.415	181.569	481.530	415.538	227.037	219.673	157.120	449.598	422.872	175.335	180.480	501.611	0.00053705	0.00089574	0.00015476	1454.2	6.7925e-06	5.6846e-06	1447.3	390.03	4.8765e-06	2.1253e-06	445.33	147.21	129.49	43.967	3.7804e-06	54.178	0.0014294	0.0019667	0.00057071	1486.5	2.0132e-05	2.1876e-05	1484.5	402.42	2.0112e-05	2.1584e-05	460.17	152.7	133.53	45.776	2.0576e-05	56.595	193.752	249.972	280.583	169.142	286.876	328.082	168.988	173.866	296.315	309.170	173.479	177.110	177.864	182.674	308.262	181.879	-8191	255	
1038.052	1	1	0	0	0.14059	0.084471	0.3119	0.41917	0.11154	0.019944	0.14983	0.084534	0.18731	0.11145	0.1613	0.24295	0.12245	0.24876	0.037048	0.057537	-2.7667	-2.6396	-2.3958	-3.1583	-2.2083	-2.8854	-3.0104	-2.2042	-2.875	-2.2938	-2.2625	-2.8958	-1.9729	-2.6417	-2.8417	-1.9604	303.494	486.298	172.079	171.744	495.858	477.463	175.689	477.715	269.485	390.848	198.599	481.957	168.281	298.754	270.946	333.787	0.00054386	0.00067187	0.00028339	1449	4.6692e-06	5.0012e-06	1444	390.23	6.494e-06	7.7592e-06	444.16	146.72	128.89	43.907	2.3528e-06	54.019	0.0013902	0.0019641	0.00055838	1486.2	2.0433e-05	2.2665e-05	1485	402.29	2.1387e-05	2.3525e-05	459.8	152.75	133.52	45.793	2.212e-05	56.711	193.421	226.150	240.814	169.332	293.672	314.270	168.949	173.804	275.114	329.027	173.463	177.262	178.083	182.959	305.029	182.224	-8191	255	
1038.148	1	1	0	0	0.038342	0.076822	0.11797	0.34698	0.20584	0.18169	0.153	0.19894	0.10944	0.077835	0.22519	0.21464	0.16605	0.037007	0.19714	0.29964	-2.3708	-2.4542	-2.0729	-3.1625	-2.2313	-2.5521	-2.9854	-2.1562	-3.0042	-2.7938	-2.4167	-3.0938	-2.4729	-2.6583	-2.8417	-2.0687	428.579	208.164	441.827	461.390	259.629	320.043	411.360	433.107	369.480	332.548	201.695	181.782	439.790	395.611	225.220	373.404	0.00056964	0.00062544	0.00016317	1452	5.4528e-06	5.2154e-06	1448.6	390.17	3.5404e-06	4.108e-06	447.31	147.12	128.37	43.892	5.918e-06	53.986	0.0015097	0.0021001	0.00058257	1488.4	2.1385e-05	2.3348e-05	1486.9	402.5	2.1075e-05	2.3144e-05	461.22	152.67	133.27	45.738	2.1901e-05	56.623	197.533	271.575	250.899	169.576	284.683	310.058	169.158	173.764	268.462	254.125	173.642	177.676	177.912	182.773	307.170	181.937	-8191	255	
1038.244	1	1	0	0	0.051872	0.19423	0.29542	0.28585	0.08255	0.13434	0.10655	0.1028	0.12894	0.062381	0.030812	0.090837	0.36104	0.13219	0.18311	0.088607	-2.4354	-2.5187	-2.0917	-3.1708	-2.2562	-2.4271	-3.0646	-2.3354	-2.6354	-2.8042	-2.3292	-3.2479	-2.5563	-2.3479	-2.9625	-2.2542	321.258	257.541	344.620	485.078	209.159	483.409	484.824	354.121	418.410	388.982	250.314	512.002	500.408	509.287	235.323	488.638	0.00058694	0.00050865	0.00015296	1449.3	4.7443e-06	2.2894e-06	1451.1	390.92	4.8422e-06	6.3832e-06	445.11	147.27	128.43	43.758	8.439e-06	53.763	0.0015003	0.002077	0.00058114	1487.1	2.0918e-05	2.3247e-05	1487.4	402.03	2.0989e-05	2.2703e-05	460.1	152.75	133.18	45.63	2.1832e-05	56.52	192.134	233.778	237.786	169.276	284.095	299.153	168.848	173.628	285.343	316.288	173.401	177.157	177.683	182.757	279.000	182.087	-8191	255	
1038.340	1	1	0	0	0.034413	0.17262	0.12541	0.26636	0.15893	0.048261	0.19142	0.23368	0.046444	0.051475	0.055105	0.15053	0.23495	0.25287	0.099732	0.099876	-2.2896	-2.7792	-1.9875	-3.225	-2.5542	-2.5021	-3.25	-2.4229	-2.7375	-2.9437	-2.3729	-3.0458	-2.65	-2.2771	-3.05	-2.3458	375.675	292.049	453.407	195.366	370.306	258.704	465.392	485.590	412.459	451.280	450.442	168.301	193.784	477.375	263.834	450.728	0.00054465	0.00068235	0.00019587	1444.4	4.1363e-06	7.5503e-06	1450.4	390.73	7.7524e-06	3.3087e-06	444.58	147.55	128.65	43.892	4.8874e-06	54.308	0.0015083	0.002106	0.00057993	1485	2.1473e-05	2.3676e-05	1484.6	402.51	2.2024e-05	2.3082e-05	459.81	152.65	133.21	45.793	2.2863e-05	56.682	196.768	258.160	226.023	169.354	302.883	305.387	169.030	173.979	273.117	323.762	173.551	177.029	177.693	182.690	321.985	181.982	-8191	255	
1038.437	1	1	0	0	0.17996	0.36884	0.33227	0.16743	0.27093	0.28593	0.15459	0.076025	0.039334	0.16055	0.14276	0.25953	0.23029	0.14401	0.0103	0.081124	-2.3438	-2.9417	-1.9125	-3.0396	-2.4896	-2.1167	-3.3187	-2.4229	-2.6896	-3.0312	-2.1979	-3.0958	-2.8229	-2.3771	-3.0521	-2.6021	368.437	261.137	369.519	188.244	408.520	383.892	402.338	501.813	190.296	410.051	171.380	399.201	189.755	188.094	277.273	332.583	0.00059982	0.00066181	0.00013743	1453.1	2.7845e-06	5.3186e-06	1445.7	391.46	3.9885e-06	4.0594e-06	445.2	147.06	127.68	43.758	5.0487e-06	54.078	0.0015747	0.0022165	0.0006141	1487	2.2734e-05	2.4817e-05	1485.7	402.87	2.2901e-05	2.4427e-05	459.78	152.81	133.25	45.752	2.2557e-05	56.619	189.453	225.095	227.926	169.420	254.302	268.790	169.078	173.496	290.581	342.695	173.319	177.129	177.640	182.581	313.218	181.967	-8191	255	
1038.533	1	1	0	0	0.058852	0.11317	0.28742	0.099133	0.063806	0.2234	0.35009	0.23042	0.32383	0.11092	0.21067	0.13753	0.25655	0.082336	0.039591	0.14158	-2.125	-3.05	-2.2479	-3.1312	-2.9437	-2.1583	-3.4188	-2.6896	-2.1729	-2.9667	-2.2646	-2.8583	-3.1375	-2.2875	-3.1917	-2.5417	305.244	492.982	180.083	487.033	439.214	500.748	403.945	359.160	228.070	287.492	401.723	438.934	165.358	443.379	431.807	398.777	0.00051719	0.00037654	0.00014715	1451.5	4.7921e-06	6.8555e-06	1443.9	390.8	5.0393e-06	4.4974e-06	444.59	146.5	128.16	43.861	6.5937e-06	54.165	0.0015754	0.0021456	0.00061493	1489.8	2.2662e-05	2.459e-05	1486.4	402.97	2.3039e-05	2.4126e-05	460.5	152.86	133.22	45.833	2.3605e-05	56.767	194.320	275.526	225.363	169.376	307.296	285.138	169.050	173.756	263.204	354.407	173.495	177.445	177.793	182.694	302.308	182.251	-8191	255	
1038.653	1	1	0	0	0.2081	0.18066	0.067	0.14757	0.2597	0.15918	0.28364	0.092262	0.24691	0.45063	0.15864	0.24364	0.19536	0.1575	0.15452	0.13647	-1.9542	-2.9813	-2.0521	-2.7938	-3.0104	-2.1229	-3.0167	-2.5146	-2.15	-2.9542	-2.2938	-2.6917	-2.8708	-2.2271	-3.1229	-2.7229	200.420	186.178	487.657	181.987	479.910	185.332	449.260	325.896	177.774	474.672	502.500	504.821	346.959	282.562	422.505	427.507	0.00056135	0.00052815	0.00016722	1451.6	4.4248e-06	6.9474e-06	1449.6	391.91	7.1375e-06	6.1499e-06	444.08	147.49	128.78	43.897	7.279e-06	54.116	0.0016319	0.0022551	0.00063649	1490.7	2.3204e-05	2.551e-05	1488.9	403.62	2.416e-05	2.5218e-05	460.76	153.26	133.76	45.859	2.5128e-05	56.768	195.152	250.376	256.493	169.479	288.363	313.525	169.240	173.706	288.186	287.733	173.444	177.391	177.787	182.917	294.969	181.848	-8191	255	
1038.748	1	1	0	0	0.16549	0.22135	0.212	0.29264	0.04477	0.026705	0.23233	0.29287	0.29126	0.12319	0.22576	0.13886	0.2959	0.099418	0.074245	0.14611	-1.8708	-3.0021	-2.2875	-2.8104	-3.0187	-2.4375	-3.2146	-2.8312	-2.1146	-3.1312	-2.5479	-2.725	-2.9771	-2.2458	-2.6792	-2.7875	407.014	503.475	301.850	158.739	165.492	294.676	339.368	208.278	220.020	289.122	170.227	374.915	466.130	243.407	228.233	233.700	0.00058729	0.00095367	4.4462e-05	1455.8	5.6957e-06	7.982e-06	1447.9	390.61	6.4905e-06	3.0143e-06	444.26	147.43	128.69	43.905	7.4984e-06	53.906	0.0016861	0.0022946	0.00066198	1494.4	2.409e-05	2.6071e-05	1490.5	403.57	2.4162e-05	2.6166e-05	460.71	153.28	133.77	45.909	2.5115e-05	56.709	194.388	263.186	238.136	169.385	298.995	288.656	169.198	173.653	303.994	335.038	173.331	177.249	177.645	182.334	273.081	181.863	-8191	255	
1038.821	1	1	0	0	0.069154	0.24346	0.05645	0.27112	0.051025	0.086585	0.06158	0.1801	0.12668	0.21451	0.070506	0.17437	0.28738	0.14616	0.13705	0.32874	-1.6688	-2.9771	-2.4354	-2.5833	-3.0187	-2.0167	-3.0312	-2.8125	-2.1312	-2.8812	-2.5542	-2.4771	-2.9813	-2.2104	-2.7521	-2.9583	183.236	214.590	464.003	226.584	273.680	477.519	201.423	452.974	487.693	387.822	241.471	380.836	479.311	424.858	509.654	440.486	0.00054651	0.00069866	0.00016061	1454.4	6.4083e-06	3.3866e-06	1453.8	390.94	3.3767e-06	5.4748e-06	444.9	147	128.42	43.919	4.4672e-06	54.128	0.0016715	0.0023126	0.00066959	1493.9	2.3838e-05	2.6022e-05	1494.4	403.67	2.4557e-05	2.6246e-05	461.1	153.38	133.76	45.91	2.5866e-05	56.814	195.246	243.689	251.954	169.576	290.584	300.766	169.420	173.905	300.070	334.642	173.724	177.597	178.042	182.742	271.678	182.238	-8191	255	
1038.942	1	1	0	0	0.13766	0.085569	0.081145	0.13396	0.050734	0.039974	0.076316	0.032634	0.086093	0.15064	0.24744	0.17868	0.20326	0.051794	0.081064	0.067443	-1.9312	-2.9875	-2.5521	-2.5	-2.9396	-2.2125	-2.5396	-2.7542	-2.125	-2.9708	-2.8063	-2.2604	-2.9229	-2.2417	-2.2458	-2.8042	483.123	406.379	358.837	400.073	163.343	226.288	203.073	207.808	184.472	374.832	509.632	463.303	448.489	322.888	356.282	289.030	0.00055084	0.00079808	0.00016175	1461.7	2.673e-06	4.3714e-06	1452.3	392.19	7.5843e-06	6.9726e-06	445.93	148.04	129.05	44.046	4.547e-06	54.204	0.0017335	0.002435	0.00069269	1497.5	2.4975e-05	2.7521e-05	1495.6	405.12	2.5393e-05	2.7528e-05	462.9	153.54	134.27	46.01	2.7084e-05	56.972	188.735	253.328	257.310	169.682	282.972	300.342	169.224	173.611	264.060	302.868	173.182	176.902	177.941	182.514	300.448	182.048	-8191	255	
1039.036	1	1	0	0	0.12646	0.073288	0.16929	0.31773	0.10439	0.15648	0.47474	0.091184	0.099521	0.13962	0.21546	0.10556	0.10637	0.053297	0.1399	0.1624	-1.4542	-2.7917	-2.5729	-2.275	-2.8875	-2.3292	-2.5917	-2.9458	-1.9021	-2.6875	-2.7104	-2.0646	-2.9083	-2.2771	-2.2896	-2.9208	348.143	324.702	336.880	477.444	222.695	181.101	454.978	366.881	348.334	378.670	395.678	187.235	514.341	350.261	456.276	509.492	0.00058582	0.00038958	0.00014777	1459.2	5.6947e-06	6.4309e-06	1456.5	392.62	6.3851e-06	6.6442e-06	445.11	147.39	129.08	43.768	6.2913e-06	54.255	0.0017557	0.0024787	0.00070702	1499.3	2.5108e-05	2.8388e-05	1498.2	404.78	2.5566e-05	2.756e-05	461.97	153.42	134.13	45.921	2.6782e-05	56.978	192.732	238.352	205.259	169.336	262.241	318.097	169.142	173.952	285.567	287.449	173.709	177.627	178.177	183.149	278.230	182.434	-8191	255	
1039.132	1	1	0	0	0.1455	0.0053136	0.14558	0.28934	0.11008	0.051159	0.067418	0.20308	0.14861	0.20184	0.20932	0.3079	0.098102	0.14557	0.13766	0.20678	-1.6167	-2.6521	-2.7667	-2.5292	-2.9708	-2.2979	-2.6354	-3.2812	-2.0542	-2.7979	-2.9146	-2.3458	-2.9938	-2.5312	-2.2875	-3.0875	394.258	412.419	280.439	452.042	346.024	169.454	468.513	435.330	500.437	274.130	356.653	440.249	187.338	424.728	431.428	380.978	0.00057367	0.0007126	0.00016111	1462.2	1.967e-06	6.8792e-06	1452	392.66	6.2061e-06	2.3622e-06	445.76	147.01	128.22	43.929	5.8724e-06	54.084	0.0017266	0.0025205	0.00071128	1499.2	2.5317e-05	2.8716e-05	1495.3	405.16	2.5766e-05	2.8609e-05	462.3	152.89	133.91	45.896	2.6412e-05	56.764	192.389	246.541	243.863	169.840	267.266	316.162	169.259	174.041	281.013	301.578	173.645	177.462	178.046	182.965	351.592	182.342	-8191	255	
1039.228	1	1	0	0	0.08277	0.077139	0.16128	0.16918	0.19513	0.097996	0.19976	0.15798	0.21662	0.11828	0.083215	0.072519	0.39457	0.2725	0.1106	0.15385	-1.8917	-2.7021	-2.9562	-2.5917	-3.0771	-2.6667	-2.3688	-3.0938	-2.2771	-2.4417	-2.7062	-1.9625	-2.825	-2.7104	-2.0312	-3.0854	274.680	471.060	413.791	487.182	278.134	305.040	470.542	201.551	234.117	350.329	377.070	502.445	484.626	459.118	297.088	411.737	0.00056557	0.00041577	0.00013742	1457	3.1103e-06	2.4189e-06	1455.8	393.01	6.9509e-06	6.3683e-06	445.89	147.39	128.66	43.955	5.4656e-06	54.228	0.0017239	0.0024714	0.00068563	1497.4	2.4208e-05	2.6361e-05	1493.7	404.55	2.4363e-05	2.6149e-05	461.46	153.3	133.84	45.918	2.5446e-05	56.852	192.132	232.524	236.841	169.819	294.546	282.576	169.757	174.530	299.537	325.442	174.013	177.906	178.389	183.186	343.380	182.508	-8191	255	
1039.349	1	1	0	0	0.13317	0.1209	0.089816	0.24911	0.22222	0.029536	0.38516	0.094923	0.08465	0.20879	0.13693	0.26279	0.067798	0.32152	0.18307	0.52994	-1.7833	-2.2583	-2.8125	-2.525	-2.8604	-2.9396	-2.5021	-3.0354	-2.5771	-2.4458	-3.1021	-2.2146	-2.9604	-3.0563	-2.1813	-3.0292	202.926	351.518	396.259	215.987	476.094	319.839	454.645	315.280	491.236	218.738	279.956	441.057	377.856	497.017	357.036	465.851	0.00056488	0.00085382	0.00019319	1461.7	5.3594e-06	7.3185e-06	1451.9	390.47	7.153e-06	4.7173e-06	444.36	146.65	128.72	43.912	3.8542e-06	53.845	0.0017179	0.0024752	0.00069003	1499.7	2.5441e-05	2.8143e-05	1494.8	404.62	2.6294e-05	2.8617e-05	462.29	153.24	134.03	45.967	2.721e-05	56.836	196.462	231.537	236.596	169.813	269.836	321.118	169.588	174.026	262.118	323.554	173.775	177.464	178.353	183.163	305.638	182.368	-8191	255	
1039.445	1	1	0	0	0.26591	0.1424	0.24978	0.20095	0.13227	0.22454	0.17675	0.1764	0.087666	0.32791	0.151	0.16124	0.081	0.23366	0.099297	0.16322	-2.15	-2.2792	-2.9521	-2.3583	-2.5458	-2.6271	-2.1688	-3.0417	-2.2562	-2.2938	-2.9458	-2.1729	-2.5312	-2.8042	-1.9646	-2.9229	200.908	513.772	194.763	512.095	304.526	424.984	160.526	453.252	204.682	364.785	159.527	376.342	391.705	202.111	469.997	371.513	0.00057057	0.00062221	0.0001874	1459.6	4.3367e-06	4.0026e-06	1452.9	391.93	4.0947e-06	7.1099e-06	448.62	147.21	128.33	44.116	5.5305e-06	53.972	0.0018213	0.0025708	0.000709	1497.9	2.6459e-05	2.8334e-05	1494.8	404.62	2.6274e-05	2.7822e-05	463	153.19	134.05	45.873	2.5255e-05	56.721	194.003	256.846	251.360	169.630	315.226	335.953	169.376	174.133	283.887	324.910	173.804	177.486	177.992	183.015	255.179	182.453	-8191	255	
1039.517	1	1	0	0	0.039487	0.33667	0.1118	0.1887	0.16781	0.22063	0.17523	0.23619	0.33937	0.089104	0.10385	0.066996	0.21191	0.074541	0.12266	0.14887	-1.9979	-2.3479	-3.05	-2.5521	-2.5792	-2.9938	-2.3646	-3.0563	-2.5563	-2.3542	-3.15	-2.3271	-2.6875	-2.9646	-2.0542	-2.7833	184.426	270.157	476.864	420.199	336.565	322.001	487.913	417.919	408.248	463.126	450.694	406.436	504.829	219.314	176.539	378.549	0.00055795	0.00067192	0.00027192	1457.2	5.5776e-06	9.7431e-06	1447.6	390.05	6.0905e-06	2.9665e-06	444.1	146.43	128.8	43.765	4.7622e-06	54.08	0.0017018	0.0023271	0.00064202	1495.4	2.3552e-05	2.515e-05	1492.3	403.31	2.3565e-05	2.4679e-05	460.2	152.47	133.63	45.709	2.408e-05	56.741	194.427	241.654	235.214	169.661	291.117	307.080	169.409	173.915	270.201	320.973	173.809	177.469	178.382	183.258	266.603	182.645	-8191	255	
1039.613	1	1	0	0	0.31095	0.2854	0.18171	0.27222	0.13859	0.029156	0.32973	0.10748	0.15982	0.063607	0.13226	0.2047	0.22785	0.15999	0.3905	0.13937	-2.2604	-2.2938	-3.1375	-2.5625	-2.2708	-2.8937	-2.3	-3.0396	-2.6396	-2.2479	-2.9479	-2.3833	-2.3646	-3.0583	-2	-2.8375	461.453	469.087	438.294	502.301	327.408	501.450	399.314	434.289	201.449	228.682	442.103	411.448	438.675	460.099	438.684	508.085	0.00054518	0.0010916	0.00015226	1453.2	3.6295e-06	7.6442e-06	1450.3	390.19	3.5941e-06	3.3729e-06	444.54	146.37	128.46	43.853	6.7984e-06	53.717	0.0016517	0.0022961	0.00062979	1495	2.3947e-05	2.5343e-05	1492.5	403.66	2.3845e-05	2.561e-05	461.28	152.75	133.63	45.818	2.454e-05	56.685	194.134	224.770	229.904	169.824	263.900	292.907	169.483	174.144	321.092	317.855	174.038	177.638	178.424	183.138	288.334	182.421	-8191	255	
1039.734	1	1	0	0	0.051643	0.28838	0.060254	0.35745	0.082286	0.14991	0.30118	0.043092	0.19443	0.071691	0.18984	0.21906	0.037881	0.18461	0.12055	0.1666	-2.5125	-2.0333	-2.9062	-2.6292	-2.0938	-3.0833	-2.3917	-2.6896	-2.4083	-1.9542	-2.9688	-2.5042	-2.3312	-2.9688	-2.2229	-2.6083	360.886	337.207	387.991	495.581	410.086	244.064	169.168	197.564	396.725	397.820	481.932	345.467	427.840	440.911	374.178	160.071	0.00059041	0.00044153	0.00024447	1456.1	3.9601e-06	4.8306e-06	1450	391.7	1.2483e-06	3.8834e-06	444.62	146.24	127.74	43.682	6.0385e-06	54.07	0.0016386	0.002303	0.00064529	1493.7	2.3627e-05	2.512e-05	1490.7	403.87	2.3566e-05	2.5214e-05	460.83	152.55	133.37	45.717	2.42e-05	56.682	195.115	245.303	238.353	169.605	264.054	279.664	169.114	173.731	210.178	320.065	173.498	177.242	177.928	182.810	259.292	182.233	-8191	255	
1039.830	1	1	0	0	0.26297	0.15997	0.27961	0.35115	0.16415	0.1095	0.18285	0.34071	0.22204	0.098034	0.19462	0.19351	0.058615	0.30201	0.21604	0.1277	-2.575	-1.9604	-2.7729	-2.625	-1.9896	-2.7292	-2.4104	-2.7396	-2.9708	-2.1333	-2.9083	-2.9	-2.3458	-3.1458	-2.2667	-2.5854	317.159	377.122	308.634	450.971	165.353	205.440	445.302	166.594	485.680	363.685	468.561	379.207	159.503	409.262	410.879	500.807	0.00060416	0.00056945	0.00026595	1458.6	4.2484e-06	6.3223e-06	1448.1	391.21	4.8532e-06	3.5586e-06	444.75	146.79	128.06	43.81	5.5303e-06	53.841	0.0016175	0.0022281	0.00065032	1491.7	2.3235e-05	2.4927e-05	1488.9	403	2.2791e-05	2.4689e-05	460.64	152.26	133.2	45.695	2.347e-05	56.54	195.784	221.718	253.459	169.521	308.136	311.445	169.255	174.003	278.308	352.816	173.645	177.364	178.195	182.922	315.592	182.677	-8191	255	
1039.926	1	1	0	0	0.17206	0.072502	0.1725	0.2533	0.2053	0.048007	0.50707	0.0027224	0.16509	0.24437	0.10143	0.15911	0.2512	0.093367	0.075191	0.20251	-2.2583	-1.8813	-2.8146	-2.8417	-1.925	-3.0146	-2.5021	-2.5208	-2.8333	-2.2083	-3.025	-3.0812	-2.2479	-3.2062	-2.55	-2.6333	512.255	356.793	387.903	507.488	293.667	437.522	450.030	232.919	293.860	329.500	507.858	237.496	484.390	188.862	259.798	338.239	0.00056189	0.00084715	0.00016161	1449.6	4.234e-06	1.0321e-05	1443.1	390.57	4.5595e-06	7.2618e-06	444.36	145.81	128.19	43.778	5.8364e-06	53.886	0.0015288	0.002205	0.00061941	1488.8	2.2472e-05	2.4729e-05	1487.3	402.71	2.2707e-05	2.5101e-05	459.76	152.11	133.01	45.639	2.4412e-05	56.584	194.708	249.395	249.626	169.462	297.738	318.058	169.468	174.276	285.119	310.386	173.751	177.425	178.294	183.381	270.164	182.509	-8191	255	
1040.045	1	1	0	0	0.34563	0.24488	0.2298	0.32719	0.19694	0.20216	0.45293	0.17104	0.18857	0.24472	0.34172	0.35564	0.31951	0.30133	0.23612	0.2604	-2.9188	-2.4083	-2.6271	-2.8917	-1.9521	-2.8063	-2.7417	-2.4646	-2.9146	-2.1063	-2.6604	-2.9375	-2.1	-2.8125	-2.5208	-2.3208	278.131	168.512	303.074	481.545	402.239	367.320	510.498	367.956	214.410	442.729	451.343	450.663	482.079	514.630	192.806	185.743	0.00058202	0.00048492	0.00022069	1453	4.9015e-06	7.3277e-06	1449.7	390.95	7.4099e-06	4.1623e-06	447.33	147.06	128.48	43.928	3.5434e-06	53.916	0.0015822	0.0022798	0.00064824	1490.6	2.2948e-05	2.5169e-05	1490	402.76	2.3481e-05	2.6049e-05	461.22	152.76	133.33	45.793	2.5333e-05	56.613	197.281	247.128	214.394	169.856	312.507	308.522	169.154	174.074	303.190	280.929	173.680	177.522	178.244	183.327	294.865	182.569	-8191	255	
1040.117	1	1	0	0	0.17353	0.37104	0.28458	0.21849	0.12289	0.23219	0.37678	0.085197	0.15949	0.13541	0.35287	0.18196	0.1974	0.17966	0.084951	0.12443	-2.35	-2.0667	-2.5292	-2.9854	-2.1021	-2.825	-2.6667	-2.4083	-2.7667	-2.3042	-2.5563	-3.0521	-2.1104	-2.8438	-2.8229	-2.2771	306.643	319.229	251.212	508.558	510.291	386.517	496.254	254.484	453.564	467.108	424.160	222.109	424.362	488.042	193.153	307.967	0.00060219	0.00054638	0.00013623	1454	2.7806e-06	5.9836e-06	1453.7	391.61	4.432e-06	6.1489e-06	443.63	146.08	127.87	43.846	5.642e-06	54.2	0.0016445	0.0023628	0.00066815	1492.8	2.4298e-05	2.6756e-05	1491.6	403.86	2.4605e-05	2.6633e-05	461.28	152.67	133.59	45.841	2.5995e-05	56.682	192.903	254.954	241.925	169.952	311.756	270.278	169.741	174.391	303.485	289.958	174.026	177.738	178.524	183.483	292.970	182.412	-8191	255	
1040.213	1	1	0	0	0.094772	0.050736	0.17163	0.36987	0.092816	0.25755	0.13237	0.17003	0.12214	0.19792	0.11969	0.20871	0.20228	0.26021	0.23681	0.051915	-2.7562	-2.2875	-2.2896	-3.2729	-2.2125	-2.7875	-3.1312	-2.4	-3.1396	-2.4917	-2.3646	-2.9313	-2.2354	-2.4938	-2.7792	-2.1917	182.051	372.164	274.538	460.993	415.297	228.895	406.849	439.727	277.313	303.629	492.083	461.057	482.094	450.555	460.628	506.651	0.0005793	0.00032138	7.7641e-05	1463	5.3144e-06	6.253e-06	1457.5	393.12	4.2148e-06	5.5243e-06	448.37	146.79	128.48	43.99	6.2929e-06	53.897	0.0017012	0.0024489	0.00069112	1496.8	2.494e-05	2.7394e-05	1496.1	404.4	2.5514e-05	2.7406e-05	462.76	152.84	133.62	45.976	2.521e-05	56.735	196.235	312.380	190.108	169.859	290.482	321.373	169.873	174.460	254.186	321.487	174.301	177.907	178.764	183.739	298.190	182.657	-8191	255	
1040.333	1	1	0	0	0.19385	0.043416	0.12163	0.26246	0.3263	0.16098	0.20337	0.20109	0.1463	0.19988	0.11142	0.22918	0.49901	0.16488	0.15245	0.24316	-2.5771	-2.2854	-2.275	-3.1833	-2.0542	-2.5229	-3.0104	-2.4333	-2.95	-2.6771	-2.475	-3.0146	-2.4083	-2.6813	-3.1667	-2.2292	516.294	507.535	331.438	496.072	190.355	224.999	177.059	403.294	347.515	343.314	250.576	164.388	512.784	508.042	267.664	469.434	0.00053702	0.00020847	0.00022862	1464	5.7284e-06	8.0585e-06	1456.8	390.89	5.9112e-06	6.8635e-06	446.06	147.47	128.43	44.091	4.5616e-06	54.138	0.0017271	0.0024664	0.00068701	1500.2	2.5093e-05	2.7576e-05	1496.2	404.13	2.5331e-05	2.7435e-05	462.39	153.32	133.79	46.001	2.6345e-05	56.801	196.073	208.612	242.855	169.906	299.909	312.078	169.433	174.392	288.439	317.478	173.758	177.444	178.335	183.246	277.227	182.362	-8191	255	
1040.429	1	1	0	0	0.049701	0.048776	0.48279	0.24102	0.030139	0.18917	0.2874	0.30604	0.062454	0.10534	0.19543	0.35444	0.10426	0.10391	0.11621	0.15849	-2.5	-2.5667	-2.1021	-3.1875	-2.2542	-2.3854	-3.1312	-2.3354	-2.6979	-2.7188	-2.1854	-2.9479	-2.3729	-2.5146	-2.8396	-2.1104	409.160	290.774	222.428	507.436	316.120	286.672	459.340	480.256	231.815	302.213	351.229	484.604	447.209	163.602	203.079	430.318	0.00060078	0.00060502	0.00024314	1458.7	3.2451e-06	7.7483e-06	1455.5	392.07	7.623e-06	2.1004e-06	445.92	146.66	128.82	43.963	5.9598e-06	54.11	0.0017499	0.0024972	0.00068893	1499.1	2.5807e-05	2.7677e-05	1496.1	404.77	2.6025e-05	2.7631e-05	462.29	153.14	133.77	45.945	2.6293e-05	56.813	194.365	248.520	251.922	169.566	283.369	303.086	169.261	174.083	285.712	288.434	173.627	177.266	177.759	182.942	287.757	182.303	-8191	255	
1040.526	1	1	0	0	0.059907	0.11953	0.098315	0.30654	0.087694	0.064015	0.1988	0.16413	0.19398	0.14368	0.085979	0.13729	0.21872	0.060467	0.037122	0.20029	-2.4771	-2.7458	-1.9875	-3.0479	-2.5667	-2.2396	-3.2562	-2.4583	-2.7375	-2.8438	-2.0958	-2.9979	-2.4562	-2.3729	-2.9583	-2.3292	484.097	327.388	455.637	162.014	407.853	435.697	463.534	405.935	458.684	232.911	490.640	410.187	397.135	225.549	235.182	432.479	0.00059386	0.00055722	0.00019045	1462.5	5.3162e-06	6.8084e-06	1465	393.64	4.5353e-06	3.5152e-06	447.73	147.9	129.51	44.269	6.3602e-06	54.252	0.0017889	0.0025464	0.00071671	1498.7	2.6223e-05	2.8666e-05	1498.7	405.11	2.68e-05	2.8132e-05	462.43	153.48	133.99	46.022	2.6718e-05	56.909	191.934	224.938	232.773	169.343	298.264	269.624	169.125	173.816	288.365	318.552	173.331	177.320	178.045	182.900	303.866	182.092	-8191	255	
1040.646	1	1	0	0	0.10644	0.1346	0.24705	0.37509	0.17861	0.024057	0.11959	0.22514	0.10949	0.2141	0.024811	0.13635	0.17864	0.13854	0.13927	0.17161	-2.2458	-2.8896	-2.0687	-3.0958	-2.3896	-2.3125	-3.1813	-2.3083	-2.4437	-2.8563	-2.2333	-3.0896	-2.7062	-2.2438	-3.1104	-2.425	283.145	231.406	215.395	463.967	369.249	470.903	484.259	490.466	218.103	446.789	494.897	403.553	226.240	470.195	490.022	462.812	0.00056995	0.00071335	0.00015408	1469.6	5.6931e-06	6.6227e-06	1462.2	393.13	5.0348e-06	3.5958e-06	446.27	147.02	129.05	44.133	4.7927e-06	54.163	0.0018055	0.0025076	0.0007124	1503.4	2.6141e-05	2.8428e-05	1501	405.13	2.6297e-05	2.7896e-05	462.81	153.35	134.11	46.097	2.7129e-05	56.919	193.178	272.491	238.514	169.616	281.464	310.733	168.943	173.732	271.690	285.938	173.150	177.258	178.019	182.837	307.525	182.332	-8191	255	
1040.718	1	1	0	0	0.23426	0.37244	0.21811	0.38517	0.19415	0.22731	0.063378	0.10023	0.094168	0.10245	0.2668	0.12835	0.1755	0.19863	0.13604	0.24206	-1.9438	-2.9104	-2.0979	-3.1063	-2.825	-2.2917	-3.3312	-2.6146	-2.5708	-3.0667	-2.4917	-3.0021	-2.8292	-2.1396	-3.0625	-2.5604	239.156	462.657	356.644	179.821	393.574	408.475	177.797	448.736	464.163	400.787	461.030	370.167	432.877	491.579	326.790	503.341	0.00056599	0.00074279	0.00023059	1462.2	3.6778e-06	4.2223e-06	1458.7	392.79	4.1259e-06	6.3564e-06	447.03	146.79	128.58	44.003	6.8084e-06	54.376	0.0018279	0.0025574	0.00072643	1502.7	2.6896e-05	2.8867e-05	1499.8	405.16	2.6985e-05	2.8322e-05	463.59	153.25	134.32	46.036	2.7644e-05	56.962	196.777	251.344	241.279	169.582	315.154	355.495	169.199	173.993	271.723	309.009	173.563	177.522	177.771	182.527	264.589	181.975	-8191	255	
1040.814	1	1	0	0	0.16186	0.068644	0.11457	0.43417	0.11537	0.20986	0.22258	0.077361	0.13821	0.12689	0.12964	0.17543	0.12358	0.2532	0.060758	0.18959	-2.2333	-3.0729	-2.1562	-2.9417	-2.7812	-2.0542	-3.3083	-2.6354	-2.3104	-3.0229	-2.2833	-2.8187	-3.1292	-2.2833	-2.9917	-2.7875	463.780	459.052	205.361	469.141	308.011	410.745	464.455	210.181	424.803	446.828	453.216	491.995	513.797	461.031	416.796	439.309	0.00055789	0.00038853	0.00012869	1463.4	6.8187e-06	6.3307e-06	1458.8	391.44	6.4792e-06	1.7616e-06	445.17	146.77	128.9	43.963	7.2368e-06	53.869	0.0018257	0.0025888	0.00072874	1503.9	2.6392e-05	2.8477e-05	1500.9	404.91	2.6272e-05	2.8157e-05	463.14	153.54	134.08	45.994	2.7458e-05	56.802	199.012	265.730	287.358	169.246	300.030	291.001	168.977	173.594	280.055	354.707	172.990	177.083	177.519	182.728	310.647	181.775	-8191	255	
1040.910	1	1	0	0	0.10695	0.21272	0.062311	0.13566	0.17927	0.066015	0.23315	0.45013	0.038538	0.070059	0.13422	0.1752	0.088206	0.15118	0.088307	0.29757	-1.8062	-3.1583	-2.2979	-2.8187	-2.8854	-2.1312	-3.1521	-2.7542	-2.3729	-3.0521	-2.5167	-2.625	-3.2083	-2.2021	-2.8292	-2.6917	330.079	484.139	197.356	430.583	345.419	298.669	480.339	490.837	296.070	413.623	425.145	384.534	226.448	230.731	410.091	466.085	0.00056498	0.00027068	0.00018081	1457.1	4.6772e-06	6.5649e-06	1457.3	392.9	6.7353e-06	5.9463e-06	444.47	147.44	128.22	43.921	4.1095e-06	54.155	0.0018132	0.0025427	0.00073033	1500.8	2.6081e-05	2.9005e-05	1501.9	405.74	2.6813e-05	2.8909e-05	463.17	153.66	133.91	46.028	2.8152e-05	56.977	194.998	249.353	275.570	169.172	301.391	306.965	169.131	173.700	282.310	322.694	173.488	177.200	177.571	182.451	289.499	182.045	-8191	255	
1041.029	1	1	0	0	0.17609	0.036615	0.17612	0.23816	0.16375	0.19528	0.36555	0.18171	0.14341	0.22568	0.21376	0.30805	0.18564	0.30214	0.17296	0.17113	-1.8062	-3.1229	-2.4292	-2.6854	-2.9875	-2.0729	-3.0375	-2.8979	-2.2396	-2.95	-2.3417	-2.3146	-3.15	-2.1042	-2.7833	-3.2208	283.934	345.678	331.181	466.527	333.053	305.180	442.156	171.092	443.579	283.902	267.366	469.752	483.819	373.137	160.997	299.210	0.00058913	0.00082926	0.00013265	1463.7	6.6282e-06	4.3268e-06	1456.5	392.99	6.5099e-06	6.9062e-06	444.63	146.94	128.61	44.086	7.3739e-06	53.934	0.0018141	0.00258	0.00073788	1503.7	2.6002e-05	2.899e-05	1500.9	405.46	2.6356e-05	2.8817e-05	463.1	153.37	134.19	46.066	2.775e-05	56.917	194.658	248.250	237.573	169.329	281.574	373.333	169.082	173.781	312.720	292.898	173.502	177.467	177.913	182.814	300.626	181.977	-8191	255	
1041.125	1	1	0	0	0.17418	0.17017	0.1094	0.28388	0.12014	0.11837	0.14043	0.26036	0.19016	0.22695	0.15702	0.1745	0.29474	0.31026	0.16941	0.04319	-1.7271	-2.9396	-2.3729	-2.5312	-3.0146	-1.9792	-2.7854	-2.8812	-2.0958	-3.0812	-2.7438	-2.4333	-3.2	-2.3396	-2.7792	-3.2604	389.089	403.959	494.508	480.350	192.947	298.569	290.577	510.768	343.988	482.240	450.811	376.638	442.519	473.333	278.267	428.980	0.00058169	0.0008363	0.00017979	1465.8	1.7517e-06	5.2516e-06	1463.6	392.41	7.0881e-06	5.416e-06	447.67	146.37	129.04	44.173	5.9701e-06	54.073	0.0018178	0.0025766	0.0007258	1504.5	2.6093e-05	2.9083e-05	1502.4	405.58	2.6805e-05	2.8751e-05	463.37	153.34	134.13	46.048	2.769e-05	56.833	192.333	241.353	256.092	169.357	323.460	319.579	168.964	173.589	278.548	331.923	173.254	177.071	177.985	182.326	276.413	181.897	-8191	255	
1041.221	1	1	0	0	0.13862	0.24016	0.11459	0.46231	0.13036	0.29296	0.094178	0.17523	0.16023	0.17864	0.16363	0.11361	0.19314	0.10378	0.056746	0.1111	-1.6625	-2.8063	-2.5521	-2.3667	-2.9854	-2.2417	-2.725	-3.0187	-1.9792	-2.7542	-2.7708	-2.1292	-3.2687	-2.4958	-2.4354	-3.1146	236.863	499.182	454.494	489.783	197.281	487.917	440.377	405.649	186.020	408.398	192.832	243.598	485.368	425.852	205.342	377.155	0.00056742	0.00082823	0.00017766	1467.4	3.5416e-06	8.6081e-06	1457.6	391.54	6.0631e-06	4.0736e-06	445.59	146.84	128.63	43.825	1.5581e-06	54.127	0.0018057	0.0026184	0.00073237	1505.1	2.6144e-05	2.924e-05	1500.5	405.44	2.6451e-05	2.8854e-05	463.26	153.24	134.24	46.055	2.7538e-05	56.896	192.881	244.648	268.314	169.247	311.217	292.650	168.867	173.664	271.299	309.315	173.004	177.060	177.539	182.392	312.102	181.658	-8191	255	
1041.318	1	1	0	0	0.16539	0.18301	0.1776	0.31956	0.15455	0.1285	0.39184	0.12316	0.29239	0.26955	0.19936	0.35856	0.054835	0.13926	0.122	0.23713	-1.8125	-2.7792	-2.7479	-2.2792	-2.9979	-2.3479	-2.5771	-3.0042	-2.0938	-2.7104	-2.7917	-2.1604	-2.9729	-2.6562	-2.4542	-3.1854	332.290	419.487	374.916	441.208	413.639	375.804	453.706	422.298	512.943	288.334	399.383	487.697	489.328	473.209	175.109	232.051	0.00050028	0.00079359	7.7274e-05	1461	5.1521e-06	9.1721e-06	1456.4	393.56	7.6092e-06	6.5654e-06	446.2	146.54	128.38	43.858	1.0289e-05	54.077	0.0018299	0.0026511	0.00073032	1503.7	2.7157e-05	2.9791e-05	1501.3	406.42	2.7461e-05	2.9673e-05	463.49	153.31	134.22	46.054	2.8248e-05	56.836	191.996	247.358	207.392	169.168	280.858	341.955	168.921	173.493	285.256	269.111	173.143	177.113	177.573	182.495	331.386	182.149	-8191	255	
1041.414	1	1	0	0	0.15267	0.26276	0.28953	0.22438	0.34317	0.18728	0.15015	0.040238	0.29175	0.1472	0.14202	0.043064	0.15032	0.22183	0.19125	0.096992	-1.725	-2.7438	-2.7792	-2.425	-2.9271	-2.5979	-2.5271	-3.3021	-2.2125	-2.4771	-2.8688	-2.2792	-2.8479	-2.6479	-2.3646	-3.2042	324.232	271.512	443.831	506.866	232.136	270.294	159.113	203.221	200.647	219.684	445.997	333.836	417.691	216.910	457.862	225.144	0.00056614	0.00042808	0.00016537	1462	2.2323e-06	6.3798e-06	1457.3	392.08	5.5635e-06	6.3313e-06	445.98	146.8	128.13	43.888	8.6946e-06	53.933	0.0018615	0.0026394	0.00072575	1502.7	2.7023e-05	2.9032e-05	1501.9	405.13	2.681e-05	2.8778e-05	463.28	153.18	133.86	45.998	2.7329e-05	56.81	196.485	244.201	255.400	169.230	278.757	301.232	168.769	173.520	270.292	333.352	172.951	176.917	177.713	182.567	293.156	181.957	-8191	255	
1041.510	1	1	0	0	0.024523	0.094258	0.17341	0.44249	0.042551	0.20932	0.25628	0.15759	0.23809	0.12163	0.34131	0.23474	0.18187	0.17811	0.046628	0.2222	-1.9375	-2.5438	-2.8125	-2.3146	-2.85	-2.7938	-2.5229	-3.1813	-2.3875	-2.5417	-3.2042	-2.3208	-2.8312	-2.6875	-2.0958	-3.1417	163.615	386.967	236.138	487.898	484.285	367.236	463.109	457.450	237.440	299.336	183.638	510.248	429.501	496.322	450.630	432.150	0.00058523	0.00036124	0.00012105	1459.7	3.6864e-06	2.5738e-06	1454.7	391.66	5.5425e-06	8.0688e-06	444.03	146.69	128.68	43.909	6.7573e-06	54.198	0.0017941	0.0025503	0.00070276	1503	2.5977e-05	2.8148e-05	1500.2	405.02	2.603e-05	2.8197e-05	461.92	153.11	133.87	45.946	2.6974e-05	56.825	193.555	219.349	225.197	169.286	284.932	349.353	169.030	173.590	306.005	288.088	173.218	176.993	177.766	182.664	299.671	181.928	-8191	255	
1041.606	1	1	0	0	0.29993	0.089356	0.11594	0.15645	0.13152	0.26018	0.3046	0.23933	0.16057	0.16803	0.24625	0.37721	0.26571	0.010363	0.12535	0.10849	-1.8396	-2.1583	-2.7729	-2.3292	-2.6708	-2.6146	-2.2854	-3.0125	-2.2667	-2.1937	-3.0604	-2.1708	-2.8042	-3.0229	-2.0271	-3.225	503.311	163.750	492.441	440.027	355.211	475.881	482.887	403.312	278.031	337.922	461.921	494.416	219.019	221.258	188.368	394.924	0.00057362	0.00068737	6.1649e-05	1462.6	5.8165e-06	6.1902e-06	1460.4	392.51	4.4111e-06	3.1146e-06	445.5	146.82	129	44.025	4.1897e-06	54.127	0.0018138	0.0025037	0.00069393	1502.1	2.6044e-05	2.857e-05	1501.1	405.31	2.6812e-05	2.8073e-05	462.37	153.37	134.12	45.967	2.7143e-05	56.92	196.759	222.459	249.257	169.134	306.218	315.121	168.826	173.554	284.144	283.539	173.308	177.113	177.819	182.447	285.287	181.990	-8191	255	
1041.727	1	1	0	0	0.064385	0.053827	0.32996	0.22401	0.089564	0.10627	0.37327	0.29287	0.054503	0.18055	0.11676	0.23483	0.17938	0.0939	0.095164	0.23986	-2.1896	-2.2625	-3.0625	-2.2479	-2.7292	-2.7458	-2.3208	-3.1333	-2.4167	-2.1021	-3.1479	-2.1729	-2.6208	-2.925	-2.1583	-2.9875	246.259	401.810	488.009	505.188	238.520	218.575	473.073	462.475	349.040	187.926	228.697	425.972	460.822	279.417	250.413	481.224	0.00056657	0.00061467	0.00019384	1463.8	3.1886e-06	7.1015e-06	1457	392.83	3.794e-06	7.9833e-06	447.72	147.31	129.38	44.076	9.7955e-06	54.156	0.0018054	0.0025821	0.00071442	1502.7	2.6352e-05	2.8772e-05	1501.2	405.59	2.7708e-05	2.9088e-05	463.54	153.54	134.5	46.063	2.8735e-05	56.968	191.737	233.523	263.689	169.142	317.865	316.164	168.791	173.636	291.474	339.015	173.483	176.917	177.487	182.363	293.996	181.835	-8191	255	
1041.823	1	1	0	0	0.1031	0.15588	0.18629	0.19866	0.12731	0.16834	0.15344	0.098147	0.17398	0.068203	0.19846	0.14006	0.23475	0.20176	0.13064	0.10536	-2.2875	-2.2292	-2.9542	-2.6458	-2.6354	-3.0021	-2.3354	-2.7875	-2.6771	-2.2104	-3.1042	-2.4646	-2.6396	-3.0729	-1.925	-2.8958	244.780	469.809	158.886	457.422	443.565	264.305	466.264	500.208	269.381	324.321	440.872	506.482	496.536	426.136	213.115	372.602	0.00055599	0.00056194	0.00017133	1468.3	6.3595e-06	5.8835e-06	1461.8	392.28	5.6242e-06	7.828e-06	446.86	147.11	129.12	43.888	6.6103e-06	54.139	0.0018797	0.0027092	0.00075741	1504.4	2.7715e-05	2.9631e-05	1502	405.76	2.7627e-05	2.9228e-05	464.14	153.36	134.34	46.028	2.8336e-05	56.989	193.325	221.364	271.778	169.139	286.273	313.132	168.779	173.476	278.505	329.559	173.070	177.113	177.705	182.446	296.725	181.881	-8191	255	
1041.917	1	1	0	0	0.2632	0.17368	0.2302	0.17745	0.13325	0.16021	0.084235	0.20867	0.14367	0.15538	0.2695	0.15646	0.1171	0.094988	0.14688	0.12971	-2.3333	-2.1937	-3.0292	-2.4333	-2.2917	-3.0187	-2.3688	-2.8792	-2.7604	-2.0396	-3.0563	-2.5896	-2.4021	-3.2875	-2.3563	-2.8438	311.032	359.509	336.726	481.926	300.326	386.066	329.588	355.174	471.563	328.698	184.880	488.837	196.088	193.915	348.872	337.956	0.00055999	0.00073457	0.00012726	1471.6	4.1732e-06	4.744e-06	1457.7	393.21	2.6915e-06	3.0933e-06	446.74	146.96	129.27	43.923	7.3706e-06	54.22	0.0018532	0.0026308	0.00074378	1507.1	2.7084e-05	2.8917e-05	1502.3	406.61	2.7282e-05	2.9656e-05	463.21	153.37	134.17	45.973	2.8272e-05	56.963	195.790	237.537	275.706	169.018	306.366	283.590	168.769	173.749	292.927	311.085	173.059	176.842	177.649	182.522	283.722	181.778	-8191	255	
1042.015	1	1	0	0	0.14365	0.17764	0.057879	0.31891	0.099067	0.2037	0.15073	0.14423	0.14597	0.14437	0.048993	0.24231	0.12866	0.14012	0.15387	0.12486	-2.6125	-2.0667	-3.0125	-2.6542	-2.3937	-3.0167	-2.55	-2.9396	-2.8333	-1.9354	-3.075	-2.5292	-2.5646	-3.1937	-2.4542	-2.6521	288.299	294.914	492.248	427.273	295.649	402.768	428.998	431.697	223.203	170.108	169.968	471.873	243.137	474.872	353.431	460.133	0.00060167	0.00071939	0.00014082	1468.6	4.4554e-06	3.6205e-06	1459.6	392.23	5.0997e-06	6.7336e-06	444.8	146.51	128.94	44.064	6.4247e-06	54.104	0.0018198	0.0026147	0.0007376	1505.2	2.6904e-05	2.9162e-05	1503.1	405.79	2.6649e-05	2.9277e-05	463.28	153.14	133.98	46.106	2.8171e-05	56.929	191.749	234.933	267.019	169.115	271.454	305.288	169.024	173.528	313.893	316.263	173.314	176.969	177.680	182.500	311.335	181.894	-8191	255	
1042.109	1	1	0	0	0.13568	0.021482	0.12771	0.18003	0.11283	0.13381	0.1719	0.14552	0.10857	0.098155	0.17808	0.15775	0.10851	0.13423	0.099725	0.26273	-2.7042	-2.3208	-2.9708	-2.75	-2.175	-3.2167	-2.5312	-2.5604	-2.9188	-2.1458	-2.8583	-3.0312	-2.4854	-2.9521	-2.45	-2.5812	412.482	201.375	248.942	438.350	279.863	197.746	451.849	460.009	269.008	233.738	492.016	368.280	334.162	197.354	270.634	360.126	0.000519	0.00037422	0.00015367	1467.9	7.0307e-06	4.577e-06	1455.4	391.71	6.6236e-06	6.3049e-06	445.39	147.35	128.34	43.981	5.0914e-06	54.072	0.0018004	0.0026388	0.00073735	1504.7	2.6644e-05	2.9565e-05	1501.1	405.4	2.6825e-05	2.9191e-05	463.61	153.42	134.12	46.025	2.7756e-05	56.885	194.177	274.684	285.048	169.111	269.535	282.435	168.814	173.626	266.382	334.559	173.430	177.118	177.843	182.571	294.461	181.852	-8191	255	
1042.206	1	1	0	0	0.059544	0.20374	0.019382	0.076124	0.18389	0.096216	0.26306	0.14971	0.019683	0.12603	0.15437	0.21193	0.19337	0.07136	0.10981	0.097631	-2.7625	-2.2146	-3.0292	-3.0083	-2.1396	-2.9771	-2.7896	-2.4583	-3.1688	-2.3229	-2.9667	-2.9917	-2.0458	-3.0042	-2.3521	-2.4604	179.825	195.278	233.981	247.211	209.771	274.521	435.798	416.376	474.645	166.630	326.133	479.792	229.018	276.959	376.533	466.650	0.00057398	0.00062173	0.00019721	1471.7	8.7337e-06	9.0401e-06	1459.3	392.2	5.8956e-06	4.5787e-06	445.82	146.99	128.12	43.857	3.8809e-06	53.993	0.001805	0.0026146	0.00073764	1505.9	2.6213e-05	2.9138e-05	1501.9	405.52	2.6297e-05	2.8783e-05	462.9	153.33	133.84	46.026	2.6881e-05	56.841	193.286	252.292	246.985	169.058	309.970	314.255	168.973	173.636	255.814	249.806	173.134	176.717	177.507	182.500	302.242	182.000	-8191	255	
1042.302	1	1	0	0	0.09104	0.22858	0.17424	0.25197	0.18471	0.056181	0.25132	0.41714	0.039218	0.26758	0.15999	0.094615	0.23679	0.31783	0.19623	0.19468	-2.5812	-2.3125	-2.6688	-3.2354	-2.275	-3.1063	-2.8542	-2.3167	-2.9583	-2.2917	-2.8417	-3.0771	-2.2375	-3.0062	-2.6292	-2.2042	455.429	239.017	408.694	463.203	453.267	201.017	481.477	495.328	381.329	510.980	328.883	223.908	488.298	278.882	427.112	494.339	0.00060764	0.00093242	0.00022672	1468.1	2.8431e-06	4.655e-06	1462.8	393.23	3.5254e-06	5.5151e-06	443.73	147.53	128.97	43.995	4.7645e-06	54.209	0.0017627	0.0025196	0.0007055	1505.5	2.5468e-05	2.8177e-05	1501	405.5	2.5843e-05	2.8146e-05	461.91	153.28	133.98	46.055	2.708e-05	57.069	195.105	235.306	230.042	169.210	293.860	305.708	168.871	173.727	303.843	324.438	173.436	177.412	178.033	182.774	278.647	182.047	-8191	255	
1042.422	1	1	0	0	0.13225	0.22586	0.22861	0.23338	0.1587	0.17842	0.37353	0.36869	0.086346	0.081333	0.33018	0.31436	0.10012	0.23875	0.1201	0.16929	-2.5625	-2.1229	-2.3417	-3.1875	-2.3396	-2.9396	-3.1896	-2.4833	-3.1854	-2.5438	-2.6542	-3.2958	-2.3896	-2.8167	-2.7625	-2.4333	206.235	266.390	343.697	293.866	240.149	397.376	443.129	397.625	489.937	411.688	165.084	481.479	510.071	469.360	400.442	418.741	0.00054436	0.00013754	0.00019307	1467.6	1.8271e-06	6.7039e-06	1465.3	393.63	5.8995e-06	3.849e-06	447.5	147.12	128.95	44.063	4.078e-06	54.592	0.0017896	0.0025494	0.00072536	1504.5	2.6096e-05	2.8114e-05	1503.1	405.82	2.6053e-05	2.8189e-05	463.54	153.28	133.84	45.983	2.6076e-05	56.924	194.278	485.403	243.246	169.134	282.999	317.361	168.977	173.536	284.226	310.141	173.268	177.085	177.813	182.712	303.048	182.035	-8191	255	
1042.519	1	1	0	0	0.17237	0.1273	0.11166	0.40455	0.15495	0.095885	0.24454	0.085221	0.22517	0.096865	0.12769	0.12679	0.075746	0.22046	0.11446	0.095849	-2.6437	-2.2854	-2.2458	-3.0729	-2.0938	-2.75	-3.3146	-2.2917	-3.2188	-2.6896	-2.4938	-2.9	-2.2208	-2.6479	-2.9938	-2.1875	167.080	319.066	359.579	481.971	263.767	165.937	422.307	486.165	218.488	403.506	375.938	196.883	360.852	470.663	427.891	463.276	0.00057733	0.00094685	0.00017275	1470.9	5.4988e-06	7.6273e-06	1461.1	392.69	5.1629e-06	8.242e-06	447.1	146.98	128.9	44.137	4.9534e-06	54.227	0.0017508	0.0024938	0.00069545	1503.6	2.5503e-05	2.7829e-05	1500.5	405.21	2.5969e-05	2.7784e-05	463.11	153.18	134	45.991	2.6115e-05	56.892	193.510	242.015	216.517	169.321	284.124	302.470	168.810	173.656	288.668	313.897	173.123	177.414	177.660	182.775	323.701	182.047	-8191	255	
1042.615	1	1	0	0	0.24737	0.11866	0.3209	0.053361	0.25531	0.21053	0.2131	0.21425	0.07475	0.13082	0.14589	0.051558	0.53804	0.25306	0.085791	0.24849	-2.4604	-2.4854	-2.325	-3.3187	-2.3896	-2.9104	-3.2458	-2.6354	-2.8604	-2.8146	-2.375	-3.125	-2.4271	-2.4375	-2.7521	-2.0708	218.998	167.936	182.723	429.284	350.228	485.472	362.702	499.110	255.211	405.107	311.491	464.586	470.950	513.741	247.132	157.708	0.00057341	0.00066642	0.0001707	1462.4	4.8751e-06	4.6606e-06	1453.1	392.34	4.299e-06	6.6075e-06	444.99	147.46	129.03	44.076	4.718e-06	54.141	0.001773	0.0024763	0.00068491	1502.4	2.5799e-05	2.7594e-05	1498.3	404.83	2.5661e-05	2.7346e-05	462.67	153.2	134.05	46.077	2.5831e-05	56.924	195.589	212.797	278.283	169.208	306.512	284.841	169.017	173.671	290.755	300.371	173.322	177.144	177.865	182.663	279.180	181.871	-8191	255	
1042.686	1	1	0	0	0.12338	0.15366	0.30569	0.35225	0.13604	0.28041	0.22659	0.063091	0.068014	0.18361	0.14402	0.073043	0.15282	0.13583	0.27949	0.14155	-2.4375	-2.4958	-2.0563	-3.1229	-2.4979	-2.4042	-3.0833	-2.2896	-2.9188	-2.7896	-2.4	-2.9042	-2.3937	-2.3563	-3.0021	-2.025	288.254	448.719	156.933	157.048	417.615	492.549	438.443	389.157	206.943	303.708	347.911	427.470	472.530	274.616	357.026	475.326	0.00059241	0.00045131	5.9174e-05	1461.6	5.6742e-06	6.8714e-06	1455.5	391.06	4.6898e-06	5.5591e-06	446.15	147.3	128.2	43.964	4.9673e-06	53.789	0.0017541	0.0024257	0.00067483	1500.6	2.4822e-05	2.6831e-05	1498.5	404.54	2.5119e-05	2.6394e-05	461.9	153.25	133.75	45.995	2.5593e-05	56.81	192.511	212.447	202.728	169.415	302.596	347.761	168.921	173.699	317.605	299.867	173.192	177.229	177.710	182.700	309.156	181.959	-8191	255	
1042.807	1	1	0	0	0.043996	0.14981	0.49622	0.32037	0.03111	0.22449	0.1977	0.19145	0.12361	0.059803	0.093807	0.21444	0.15662	0.29883	0.11221	0.13952	-2.2875	-2.6063	-2.1646	-3.1146	-2.3583	-2.3458	-3.0312	-2.3521	-2.5604	-2.8708	-2.3625	-3.2062	-2.8333	-2.4875	-3.15	-2.4667	350.962	326.937	195.484	174.712	245.708	377.712	441.836	159.736	341.399	304.067	160.105	464.164	491.528	227.553	326.147	406.771	0.00060383	0.00028218	0.00013432	1464.4	5.4483e-06	6.5274e-06	1457.8	391.85	6.1378e-06	5.2523e-06	444.93	147.21	128.84	44.052	4.6224e-06	54.173	0.0017186	0.002392	0.0006847	1502.4	2.5275e-05	2.7227e-05	1499.8	404.88	2.5184e-05	2.6247e-05	461.42	153.33	133.89	45.95	2.5627e-05	56.815	198.200	505.799	299.836	169.116	281.234	289.281	168.804	173.607	314.138	311.414	173.274	177.308	177.698	183.188	295.140	182.316	-8191	255	
1042.901	1	1	0	0	0.10156	0.12518	0.22109	0.21206	0.11778	0.20147	0.36954	0.24301	0.18126	0.077194	0.26849	0.23143	0.10268	0.14016	0.16384	0.19658	-2.3438	-2.9979	-2.1917	-3.2208	-2.7438	-2.3896	-3.3333	-2.4083	-2.7521	-2.9625	-2.2812	-2.9792	-2.7313	-2.2792	-2.9042	-2.6042	243.790	476.576	386.534	452.091	406.265	403.833	467.831	448.276	227.028	227.108	459.734	466.822	181.089	254.380	377.022	505.804	0.00056285	0.00053258	0.00013111	1465.3	2.462e-06	8.9369e-06	1454.4	390.95	6.7072e-06	5.6675e-06	444.11	146.84	128.44	44.038	4.7507e-06	54.111	0.0017171	0.0024211	0.00067608	1500.2	2.4833e-05	2.6793e-05	1498.8	403.75	2.5239e-05	2.6432e-05	461.48	152.99	133.75	45.994	2.585e-05	56.795	194.949	235.693	252.873	169.482	282.236	309.596	169.148	173.833	275.007	364.054	173.588	177.580	177.623	183.169	289.377	182.431	-8191	255	
1042.998	1	1	0	0	0.22382	0.21187	0.031299	0.22329	0.15565	0.03714	0.17963	0.37555	0.18509	0.157	0.15725	0.24236	0.081191	0.21492	0.068296	0.26588	-2.0646	-3.0812	-2.2167	-3.1396	-2.85	-2.1896	-3.2271	-2.5625	-2.6125	-2.9313	-2.2313	-2.6354	-2.975	-2.1146	-2.8875	-2.5854	198.643	349.516	252.173	459.632	184.087	469.283	462.179	473.666	259.082	495.957	418.945	395.860	257.387	184.716	172.099	460.813	0.00058434	0.00038989	0.00018539	1468.6	2.9769e-06	6.4079e-06	1453.7	390.87	6.5516e-06	5.1873e-06	443.77	146.97	128.85	43.949	7.8807e-06	54.124	0.0017133	0.0024015	0.00069786	1502.5	2.4761e-05	2.7334e-05	1498.4	404.6	2.5511e-05	2.7166e-05	461.64	152.99	133.89	45.904	2.6401e-05	56.819	192.993	219.992	220.555	169.583	276.086	311.755	169.319	173.791	286.131	311.077	173.311	177.433	177.808	182.816	298.930	182.043	-8191	255	
1043.095	1	1	0	0	0.34282	0.36019	0.15947	0.379	0.1513	0.07553	0.21628	0.16935	0.23662	0.28395	0.11091	0.10038	0.27893	0.19791	0.20476	0.18643	-2.0229	-3.0958	-2.2208	-3.0042	-2.9562	-2.4437	-3.1146	-2.85	-2.2271	-3.3396	-2.3438	-2.7146	-3.0312	-2.2771	-2.8833	-2.7396	292.223	283.631	226.504	485.577	326.956	514.087	495.128	374.283	244.488	202.163	156.122	184.152	207.320	218.628	267.427	181.256	0.0006014	0.00058527	0.00010193	1464.3	4.0059e-06	8.6432e-06	1468.7	391.91	8.0595e-06	4.0458e-06	445.37	147.14	128.32	43.969	4.7895e-06	54.001	0.0017336	0.0024182	0.00069545	1500.3	2.4532e-05	2.7322e-05	1500.1	404.47	2.5451e-05	2.7199e-05	461.58	153.16	133.69	45.923	2.6016e-05	56.678	194.892	265.497	259.540	169.430	281.681	309.987	169.211	173.687	285.079	334.656	173.625	177.546	177.867	182.613	305.322	182.200	-8191	255	
1043.214	1	1	0	0	0.046767	0.30465	0.22396	0.2407	0.079484	0.016102	0.20226	0.28716	0.24451	0.1374	0.12456	0.11208	0.13644	0.011878	0.18144	0.23335	-1.8854	-3.05	-2.3792	-2.8937	-3.2292	-2.3542	-3.0521	-2.7854	-2.2083	-3.0687	-2.45	-2.4562	-3.1708	-2.5604	-2.8667	-2.9521	356.972	396.882	241.202	503.420	328.064	161.320	185.022	425.453	483.784	179.879	474.706	419.175	492.050	228.086	387.817	505.183	0.00061281	0.00050348	0.00014111	1465	7.4841e-06	6.7505e-06	1461.2	392.73	6.1198e-06	6.0652e-06	444.92	147.35	128.56	43.845	4.7135e-06	54.256	0.0017222	0.00246	0.00070357	1500.2	2.4784e-05	2.785e-05	1499.2	404.71	2.6028e-05	2.7896e-05	461.91	153.3	133.85	45.851	2.6794e-05	56.812	194.882	230.517	206.683	169.581	258.174	284.994	169.127	173.925	298.088	328.383	173.344	177.168	177.748	182.735	306.829	181.873	-8191	255	
1043.286	1	1	0	0	0.2355	0.2036	0.065818	0.12372	0.23537	0.27555	0.054943	0.26424	0.10635	0.23131	0.34459	0.042307	0.28275	0.18545	0.19817	0.082258	-1.7167	-2.8875	-2.3604	-2.6521	-3.075	-2.2104	-2.8792	-3.0875	-2.2333	-3.2125	-2.6458	-2.5333	-3.1437	-2.1333	-2.5854	-2.9083	206.854	398.237	382.491	502.603	423.607	187.471	473.851	388.912	163.381	166.710	466.323	272.023	162.926	445.331	472.711	356.577	0.00060522	0.00047379	0.00012897	1462.1	4.202e-06	5.8275e-06	1460.6	391.89	6.631e-06	3.9327e-06	446.59	147.3	128.71	43.749	1.7763e-06	54.008	0.0017548	0.0025084	0.00070406	1499.1	2.51e-05	2.8476e-05	1497.5	404.36	2.5069e-05	2.7247e-05	461.77	153.08	133.86	45.82	2.5748e-05	56.666	193.768	248.922	256.203	169.415	295.007	324.159	168.929	173.658	274.837	380.439	173.192	177.109	177.701	182.707	305.985	182.119	-8191	255	
1043.407	1	1	0	0	0.031739	0.20355	0.079317	0.27293	0.072633	0.16946	0.043395	0.22117	0.17046	0.17405	0.19508	0.2974	0.066065	0.091856	0.15728	0.11616	-1.7125	-3.0104	-2.5396	-2.5792	-3.2313	-2.4813	-2.975	-2.95	-2.2646	-2.9583	-2.5646	-2.4271	-3.2562	-2.5354	-2.5771	-3.0875	448.070	265.974	174.773	460.312	231.290	214.461	179.316	438.273	300.586	238.689	482.329	418.452	473.149	418.080	166.277	372.248	0.00054971	0.0005531	0.00016521	1456.8	4.3096e-06	5.8976e-06	1455.3	390.46	5.5549e-06	7.7051e-06	443.57	146.45	128.1	43.84	4.67e-06	53.93	0.001706	0.0024078	0.00067902	1497.4	2.4577e-05	2.6971e-05	1495.9	403.55	2.5261e-05	2.6658e-05	461.22	152.87	133.59	45.904	2.5672e-05	56.724	194.028	250.607	236.062	169.561	301.583	295.826	169.308	173.852	258.937	311.303	173.392	177.391	177.908	182.924	311.213	182.151	-8191	255	
1043.503	1	1	0	0	0.10052	0.14149	0.30288	0.28718	0.20854	0.26154	0.21618	0.2529	0.18245	0.11317	0.041355	0.03873	0.37459	0.20664	0.11024	0.1749	-1.6958	-2.8896	-2.4958	-2.1979	-3.0375	-2.3646	-2.5083	-2.9437	-2.1146	-2.8583	-2.5563	-2.2	-3.1104	-2.5917	-2.2687	-2.9271	379.385	391.140	163.415	163.926	452.854	195.179	159.095	444.064	403.367	493.347	411.040	379.347	503.641	266.597	281.215	428.038	0.00057041	0.00061992	0.00020287	1453.7	3.5917e-06	8.4114e-06	1451.3	391.7	6.0524e-06	5.6728e-06	445.25	146.94	129.14	43.851	4.3179e-06	54.101	0.0017184	0.0024286	0.00067776	1495.4	2.5007e-05	2.6915e-05	1495.2	404.25	2.5038e-05	2.707e-05	460.94	152.99	133.63	45.847	2.503e-05	56.726	195.418	252.750	240.162	169.330	283.310	310.548	169.029	173.437	280.828	354.776	173.224	177.384	177.904	182.650	272.894	181.958	-8191	255	
1043.599	1	1	0	0	0.11226	0.078469	0.23054	0.17143	0.17278	0.37766	0.16667	0.24908	0.13997	0.15109	0.17636	0.20717	0.086464	0.12782	0.2151	0.1344	-1.8333	-2.7646	-2.8563	-2.1979	-2.9958	-2.4917	-2.4396	-3.3063	-2.2542	-2.8104	-3.0479	-2.3104	-3.3563	-2.8146	-2.5646	-3.2292	195.435	459.798	488.089	199.380	168.921	373.956	434.072	157.395	204.159	186.243	182.223	199.464	321.845	160.885	260.210	407.904	0.00057647	0.00022469	0.00012811	1461.7	5.2469e-06	2.2398e-06	1457.9	392.95	5.2977e-06	4.7679e-06	445.51	147.39	128.67	43.996	3.9275e-06	53.857	0.001716	0.0023663	0.00066256	1497.1	2.4669e-05	2.6785e-05	1495.3	403.51	2.4484e-05	2.6403e-05	460.49	152.69	133.55	45.77	2.466e-05	56.561	195.707	255.280	261.685	169.383	309.626	344.792	169.054	173.837	286.271	295.701	173.104	177.111	177.705	182.548	314.799	181.677	-8191	255	
1043.695	1	1	0	0	0.15348	0.19065	0.30566	0.16089	0.23055	0.08499	0.10102	0.09109	0.12055	0.31162	0.035134	0.11743	0.22369	0.11553	0.088277	0.3475	-1.875	-2.8042	-2.8542	-2.5	-2.9688	-2.8125	-2.5208	-3.3187	-2.3125	-2.6333	-3.0104	-2.125	-2.7479	-2.6146	-2.2146	-3.125	175.608	220.577	485.864	441.428	375.582	339.548	473.459	479.815	324.241	295.023	309.276	361.857	184.576	175.335	391.705	513.978	0.00051007	0.00060313	0.00020214	1462.7	5.2338e-06	5.0385e-06	1452.1	392.61	5.0319e-06	5.9018e-06	445.76	147.05	127.93	43.676	2.341e-06	53.834	0.0016811	0.0023541	0.00064602	1496.5	2.3874e-05	2.6046e-05	1493.1	403.84	2.4578e-05	2.5711e-05	459.94	152.74	133.21	45.675	2.493e-05	56.561	195.767	254.698	255.897	169.084	286.182	314.835	168.882	173.383	284.768	332.769	172.938	176.976	177.711	182.239	292.493	181.836	-8191	255	
1043.816	1	1	0	0	0.20418	0.14311	0.11676	0.35385	0.12535	0.073146	0.24459	0.33268	0.060004	0.16047	0.2161	0.43887	0.21255	0.056638	0.23861	0.069056	-2.0542	-2.7375	-3.1833	-2.3354	-2.9167	-2.85	-2.3667	-3.2625	-2.3792	-2.4062	-3.0625	-2.2646	-2.825	-2.725	-2.3646	-3.3292	510.564	306.941	376.505	199.927	512.662	332.532	476.106	450.778	491.907	442.993	447.811	197.856	513.380	208.753	487.788	238.251	0.00055657	0.0007406	0.00016071	1454.8	4.3203e-06	2.8594e-06	1450.8	391.97	3.8859e-06	8.6011e-07	445.08	146.84	128.47	43.691	7.3683e-06	53.648	0.0016762	0.0023182	0.00065215	1492.5	2.4217e-05	2.5542e-05	1492.5	403.39	2.4072e-05	2.5329e-05	460.16	152.49	133.31	45.709	2.4073e-05	56.511	191.533	281.224	247.015	169.100	288.361	286.374	168.708	173.338	294.299	374.680	173.062	176.798	177.538	182.188	279.101	181.716	-8191	255	
1043.887	1	1	0	0	0.14925	0.21982	0.14371	0.26885	0.20388	0.20822	0.41239	0.091225	0.062342	0.24136	0.19521	0.1184	0.081083	0.13039	0.13132	0.20395	-2.2438	-2.3646	-2.8833	-2.4292	-2.7562	-2.8458	-2.3583	-3.2875	-2.4917	-2.3104	-3.3167	-2.3354	-2.9042	-2.9333	-2.2979	-3.1312	252.158	411.170	382.232	435.861	410.074	318.219	488.504	276.889	495.876	305.226	447.362	448.805	481.045	449.803	372.428	230.664	0.00053784	0.00061173	0.00016143	1456.9	4.7791e-06	4.3507e-06	1449.6	390.64	4.7386e-06	5.6457e-06	443.28	146.19	128.18	43.461	5.977e-06	53.831	0.0016291	0.0022664	0.00064519	1493.9	2.3675e-05	2.5269e-05	1491.1	403.12	2.3799e-05	2.5509e-05	459.92	152.2	133.39	45.626	2.4979e-05	56.514	193.947	259.964	228.452	169.213	307.535	318.763	168.532	173.459	282.924	344.580	173.061	176.864	177.696	182.447	286.662	181.916	-8191	255	
1043.984	1	1	0	0	0.068669	0.093329	0.16696	0.15729	0.049589	0.19789	0.0089835	0.30457	0.046326	0.16683	0.087253	0.13576	0.21022	0.12364	0.23147	0.12033	-2.25	-2.4271	-3.1896	-2.5625	-2.7542	-3.1771	-2.4104	-3.1354	-2.7896	-2.2917	-3.0458	-2.3688	-2.6667	-3.0333	-2.1188	-2.9542	257.976	264.530	366.846	439.625	168.393	396.605	182.028	419.674	243.261	332.150	505.696	215.784	491.348	446.793	185.241	248.936	0.0005542	0.00078319	0.00010119	1452.6	4.333e-06	5.2029e-06	1447.3	389.67	4.6571e-06	3.1955e-06	443.63	145.92	127.98	43.419	3.5125e-06	53.783	0.001619	0.0023005	0.0006506	1492.4	2.3602e-05	2.5091e-05	1489.4	402.72	2.3433e-05	2.5327e-05	459.82	152.16	133.08	45.609	2.4408e-05	56.431	194.229	252.005	330.402	169.011	336.101	333.015	168.791	173.428	256.555	308.076	173.111	176.829	177.504	182.428	323.219	182.016	-8191	255	
1044.102	1	1	0	0	0.19195	0.094539	0.054324	0.15603	0.25735	0.26498	0.3003	0.10374	0.096978	0.15042	0.26875	0.25304	0.13066	0.34918	0.29236	0.18922	-2.4104	-2.1896	-3.1625	-2.7396	-2.4729	-2.9292	-2.3479	-3.0833	-2.8688	-2.3958	-3.2604	-2.5896	-2.4021	-3.1042	-2.25	-2.8854	204.859	249.639	271.935	493.025	418.189	469.977	477.400	366.284	401.240	225.093	161.973	512.326	486.707	160.610	162.986	473.831	0.00054489	0.00059546	0.00017441	1450.2	5.0909e-06	9.1473e-06	1444.4	388.65	8.0278e-06	9.5254e-06	441.99	147.13	127.15	43.739	4.9719e-06	53.906	0.001601	0.0022347	0.00064874	1489	2.3341e-05	2.5275e-05	1488.1	402.1	2.3161e-05	2.5703e-05	459.36	152.62	132.89	45.682	2.5361e-05	56.539	196.445	228.029	281.343	168.987	285.766	307.293	168.507	173.515	281.609	325.116	173.203	176.780	177.735	182.102	298.138	181.904	-8191	255	
1044.199	1	1	0	0	0.21107	0.21756	0.054233	0.14305	0.13998	0.29381	0.16449	0.39673	0.095195	0.049327	0.3589	0.16892	0.13825	0.3069	0.16703	0.10438	-2.5458	-1.9833	-3.0458	-2.7521	-2.1917	-2.9688	-2.35	-2.8208	-2.9146	-2.3312	-3.0458	-2.7583	-2.325	-3.1417	-2.1604	-2.5542	397.824	158.702	484.593	457.620	415.017	384.831	495.064	496.518	455.218	278.121	387.350	373.757	415.327	487.618	220.392	186.810	0.0005559	0.0008499	0.00017857	1453.2	3.8251e-06	4.2168e-06	1443.8	390.3	5.9108e-06	1.8169e-06	442.37	146.28	128.38	43.71	4.736e-06	53.851	0.0016432	0.0023461	0.00066906	1489.6	2.391e-05	2.6155e-05	1489	402.6	2.3756e-05	2.6249e-05	459.2	152.41	133.23	45.718	2.534e-05	56.489	195.228	213.741	217.465	169.072	267.256	312.861	168.701	173.771	285.953	322.986	173.028	176.842	177.583	182.485	314.093	181.958	-8191	255	
1044.295	1	1	0	0	0.06412	0.098899	0.12751	0.29083	0.031681	0.12833	0.41479	0.299	0.12618	0.18065	0.064215	0.27325	0.1026	0.15613	0.25101	0.20765	-2.6063	-2.1479	-2.8083	-2.9542	-2.2917	-3.0375	-2.6604	-2.7583	-3.1396	-2.2083	-3.0729	-2.7292	-2.0312	-2.9625	-2.4896	-2.6771	254.092	514.608	390.113	497.120	292.285	431.842	455.851	204.691	428.465	331.575	491.694	279.258	177.601	322.169	300.242	463.317	0.00056607	0.00072987	0.00011857	1446.6	4.0446e-06	3.2836e-06	1447.1	389.95	4.309e-06	6.5813e-06	440.93	146.51	128.69	43.82	5.4829e-06	54.058	0.0016342	0.0023084	0.00065285	1489.6	2.308e-05	2.5652e-05	1487.9	402.33	2.383e-05	2.5945e-05	458.86	152.34	133.34	45.722	2.4447e-05	56.583	195.226	238.751	262.952	169.079	297.221	290.482	168.857	173.692	282.140	308.593	173.052	177.057	177.603	182.401	304.055	182.106	-8191	255	
1044.391	1	1	0	0	0.32141	0.19594	0.17283	0.25346	0.20245	0.2439	0.2465	0.32682	0.19078	0.058302	0.35853	0.15326	0.17985	0.17817	0.25438	0.16548	-2.6646	-2.1729	-2.975	-2.9875	-2.2792	-3.1792	-2.6854	-2.3083	-2.9021	-2.2917	-2.7417	-2.7854	-2.2188	-3.1458	-2.5062	-2.6188	467.620	187.005	321.618	455.780	494.126	162.557	452.590	504.835	169.451	168.600	486.867	209.373	458.337	195.016	509.475	417.481	0.00054036	0.00071563	0.00013115	1456	3.5016e-06	1.0609e-05	1455.8	392.48	6.918e-06	6.4102e-06	443.97	146.93	128.46	43.813	4.3714e-06	53.99	0.0016151	0.0022658	0.0006417	1491.5	2.3479e-05	2.5354e-05	1490	403.25	2.37e-05	2.5597e-05	459.93	152.55	133.29	45.67	2.4572e-05	56.556	195.319	247.196	270.650	169.187	293.534	288.864	168.719	173.497	311.016	313.681	173.131	177.061	177.685	182.442	274.484	181.870	-8191	255	
1044.511	1	1	0	0	0.21013	0.07112	0.21421	0.33591	0.21816	0.12907	0.24201	0.17952	0.027648	0.2162	0.23209	0.10222	0.24951	0.11365	0.084198	0.34718	-2.8104	-2.0854	-2.8708	-2.8896	-2.1104	-3.025	-2.7646	-2.6604	-3.0271	-2.1896	-2.625	-3.075	-2.3167	-3.0104	-2.6396	-2.2396	350.324	317.584	286.309	461.472	460.242	369.808	506.893	464.223	330.331	501.319	169.157	369.962	418.239	442.297	220.598	369.474	0.00054137	0.00067535	8.8399e-05	1459.3	2.3187e-06	7.0885e-06	1455.9	389.98	4.5413e-06	6.547e-06	444.83	147.25	127.82	43.903	6.185e-06	54.087	0.0016511	0.0023402	0.00064236	1491.7	2.3973e-05	2.5572e-05	1492.3	402.48	2.4262e-05	2.6057e-05	459.28	152.68	133.14	45.753	2.4342e-05	56.555	198.039	253.986	249.709	169.004	298.360	316.646	168.786	173.626	299.981	312.948	173.221	176.869	177.580	182.459	293.234	181.917	-8191	255	
1044.583	1	1	0	0	0.088462	0.30097	0.15624	0.018852	0.11299	0.10828	0.3186	0.068651	0.24911	0.075685	0.23359	0.18188	0.18289	0.24113	0.21762	0.24375	-2.7792	-2.2667	-2.5833	-3.2375	-2.2083	-2.9417	-2.9938	-2.2375	-2.9104	-2.3604	-2.7146	-3.2125	-2.3604	-2.9271	-2.7625	-2.3625	452.588	480.646	204.522	164.754	386.125	473.459	507.926	164.454	313.223	184.923	398.969	203.806	497.800	263.449	364.149	188.833	0.00059288	0.00063271	0.00014933	1456.3	5.4595e-06	9.1784e-06	1449.1	391.17	9.1559e-06	8.4897e-06	444.81	146.81	128.34	43.865	5.8029e-06	54	0.0016935	0.0023749	0.00064736	1492.3	2.4181e-05	2.6275e-05	1488.1	402.9	2.4367e-05	2.6021e-05	460.03	152.56	133.31	45.708	2.4247e-05	56.555	190.503	225.880	252.185	169.099	281.929	306.613	168.667	173.632	280.500	322.279	173.059	176.928	177.480	182.486	294.302	181.769	-8191	255	
1044.679	1	1	0	0	0.12925	0.20951	0.11638	0.18743	0.3504	0.32007	0.2322	0.13766	0.14982	0.1543	0.24643	0.20811	0.10237	0.12943	0.17085	0.088458	-2.6771	-2.4646	-2.5083	-3.3	-2.3958	-2.9271	-2.9354	-2.35	-2.9896	-2.5583	-2.5875	-3.2438	-2.45	-2.8792	-2.6729	-2.0146	508.738	184.149	211.570	468.266	168.451	288.954	455.202	514.358	418.247	503.731	515.168	158.509	376.494	391.730	360.974	342.196	0.00054584	0.00063823	5.7201e-05	1456.4	5.031e-06	9.1409e-06	1456.1	390.6	7.4177e-06	6.7641e-06	446.04	146.25	128.32	43.854	5.6029e-06	54.202	0.0016391	0.0023085	0.00063959	1492.3	2.3791e-05	2.5393e-05	1489.5	402.84	2.3663e-05	2.5292e-05	459.18	152.19	133.12	45.698	2.4142e-05	56.598	196.516	264.793	250.582	169.146	294.294	330.989	168.839	173.481	297.587	317.748	173.242	177.260	177.912	182.841	255.032	182.079	-8191	255	
1044.775	1	1	0	0	0.13288	0.054034	0.15259	0.14422	0.15759	0.28356	0.18859	0.23448	0.15285	0.20546	0.34008	0.069143	0.19562	0.13202	0.11041	0.27458	-2.7396	-2.4271	-2.2583	-3.3312	-2.525	-2.8917	-3.3354	-2.3021	-2.9708	-2.7958	-2.5146	-3.2917	-2.4625	-2.7958	-3.1229	-2.2667	304.814	417.771	300.612	352.732	262.012	488.156	427.687	494.637	241.861	166.519	174.109	222.005	492.222	204.672	345.995	201.749	0.00053296	0.0010118	0.00014803	1455.2	6.7389e-06	5.1368e-06	1451.4	391.99	5.7904e-06	7.605e-06	445.26	146.67	128.65	43.8	5.9549e-06	54.037	0.0016452	0.0022857	0.00065611	1490.8	2.3623e-05	2.5534e-05	1489.9	402.91	2.4134e-05	2.5376e-05	460.11	152.54	133.22	45.69	2.4031e-05	56.575	193.730	247.467	257.933	169.242	256.836	332.157	168.955	173.727	284.591	317.839	173.291	177.094	177.686	182.961	305.027	182.089	-8191	255	
1044.894	1	1	0	0	0.44002	0.027016	0.15076	0.069674	0.086983	0.24534	0.23422	0.31389	0.16614	0.19228	0.29882	0.28744	0.092029	0.28077	0.15608	0.18451	-2.4042	-2.6104	-2.2333	-3.2583	-2.1458	-2.4313	-3.1625	-2.2646	-2.6562	-2.8583	-2.4271	-3.1458	-2.5792	-2.6	-3.1542	-2.3396	326.447	435.429	316.450	378.041	293.329	323.887	447.129	502.807	357.794	282.373	503.244	464.566	267.083	184.787	347.392	468.664	0.00054143	0.00077024	0.00021559	1460.5	3.2078e-06	7.4527e-06	1454	390.75	6.3118e-06	5.5869e-06	443.14	147.04	128.39	43.86	7.637e-06	54.17	0.0016413	0.002263	0.00063562	1493.8	2.3041e-05	2.4818e-05	1488.3	402.46	2.3213e-05	2.4634e-05	458.95	152.42	132.95	45.721	2.3749e-05	56.424	193.739	232.007	239.193	169.293	316.026	286.917	169.029	173.608	279.497	338.199	173.413	177.067	177.698	182.822	297.197	182.083	-8191	255	
1044.990	1	1	0	0	0.036526	0.066715	0.11747	0.27673	0.13215	0.099725	0.27849	0.16713	0.12839	0.1685	0.18435	0.088769	0.18505	0.11609	0.040598	0.062357	-2.4521	-2.8937	-2.2271	-3.1813	-2.2792	-2.1708	-3.15	-2.1271	-2.7479	-2.8667	-2.3396	-3.0729	-2.6	-2.4458	-3.0125	-2.4104	204.931	207.035	332.201	464.556	357.408	176.046	370.144	442.648	230.546	296.988	185.065	310.034	218.563	226.204	505.101	200.669	0.00055343	0.00084606	0.00013355	1458.6	2.8125e-06	2.1723e-06	1452.1	391.73	2.3332e-06	6.2478e-06	444.33	146.8	128.15	43.775	7.1389e-06	53.835	0.0015831	0.0021678	0.00063369	1489.9	2.2501e-05	2.4697e-05	1488.1	402.02	2.2569e-05	2.3808e-05	458.69	152.16	132.77	45.602	2.3021e-05	56.376	193.587	252.736	289.915	169.682	333.208	364.525	169.011	173.623	259.496	318.671	173.265	177.251	178.004	182.906	299.372	182.159	-8191	255	
1045.087	1	1	0	0	0.26453	0.34225	0.14531	0.20322	0.16424	0.12536	0.23229	0.2441	0.15408	0.067142	0.29847	0.054151	0.20352	0.1897	0.11346	0.34411	-2.4396	-2.9792	-1.9917	-3.1979	-2.8083	-2.2271	-3.5438	-2.7083	-2.8542	-3.2375	-2.4729	-3.0292	-2.6958	-2.2708	-3.1562	-2.3667	229.988	377.812	181.330	177.877	176.917	283.750	229.383	502.514	284.355	201.297	482.731	453.470	501.714	427.911	391.915	479.105	0.00056503	0.0007113	0.0001081	1456.7	2.8136e-06	5.1341e-06	1452.3	391.67	6.1058e-06	2.5809e-06	444.55	146.22	128.11	43.838	6.2172e-06	53.828	0.0015515	0.0021515	0.0006183	1488.8	2.2143e-05	2.4118e-05	1486.9	401.72	2.2398e-05	2.3681e-05	458.57	152.11	132.73	45.675	2.3249e-05	56.391	195.976	238.111	228.287	169.572	267.766	343.507	169.397	173.910	281.749	333.104	173.549	177.495	178.085	182.942	301.174	182.068	-8191	255	
1045.183	1	1	0	0	0.31426	0.059505	0.089722	0.19396	0.12431	0.10665	0.13667	0.090822	0.20176	0.29339	0.13606	0.28165	0.19983	0.2141	0.15039	0.11632	-2.2958	-3.1312	-2.1396	-3.0646	-2.6312	-2.1792	-3.3042	-2.6958	-2.6208	-3.1917	-2.5062	-2.9646	-3.0938	-2.4542	-3.1437	-2.5312	301.387	221.416	203.169	505.358	473.388	402.732	278.802	240.489	450.744	233.806	158.059	465.987	203.900	173.881	319.157	230.825	0.00055362	0.00056507	0.00014504	1456.3	5.451e-06	7.4597e-06	1448.8	390.71	3.3002e-06	7.4726e-06	444.71	146.61	128.41	43.728	5.4605e-06	53.772	0.0015408	0.0021426	0.00061632	1488.1	2.2005e-05	2.402e-05	1486.1	401.62	2.2428e-05	2.4115e-05	458.88	152.15	133.05	45.632	2.279e-05	56.35	197.518	236.896	284.016	169.649	277.931	317.545	168.915	173.634	291.118	325.083	173.555	177.651	177.812	182.705	303.460	182.182	-8191	255	
1045.279	1	1	0	0	0.12025	0.028652	0.11347	0.25727	0.10996	0.18471	0.21377	0.33052	0.16954	0.16922	0.15703	0.20927	0.14096	0.25198	0.18651	0.37086	-2.0604	-3.0062	-2.2604	-3.0229	-2.9437	-2.2542	-3.2146	-2.7646	-2.2583	-2.9917	-2.5125	-2.8646	-2.9958	-2.0646	-2.8604	-2.6021	284.987	214.783	395.625	489.403	206.266	171.869	497.907	487.703	307.372	483.378	429.307	476.913	509.745	468.597	211.370	448.488	0.00057763	0.00081566	0.00014261	1451.9	6.09e-06	5.5039e-06	1446	391.08	6.2324e-06	7.3908e-06	443.74	146.8	127.81	43.869	2.8672e-06	53.827	0.0015331	0.0021478	0.00060513	1487.3	2.1778e-05	2.3907e-05	1483.1	401.95	2.1831e-05	2.3854e-05	457.74	152.28	132.49	45.539	2.2478e-05	56.344	190.964	205.158	264.951	169.493	288.353	315.824	169.020	173.697	293.597	273.696	173.493	177.430	177.836	182.729	322.708	182.135	-8191	255	
1045.375	1	1	0	0	0.23185	0.24584	0.060297	0.080928	0.17994	0.052633	0.22685	0.19866	0.14405	0.059652	0.23783	0.14169	0.25164	0.074354	0.24685	0.39043	-1.85	-3.0521	-2.3333	-2.9604	-3.0771	-2.4667	-3.1542	-2.7562	-2.3458	-3.1792	-2.5479	-2.7875	-3.1479	-2.1896	-2.8	-2.6667	394.235	188.660	445.812	414.943	477.328	273.354	165.563	426.589	395.793	262.077	228.816	193.088	469.430	462.875	381.618	444.263	0.00058829	0.00049628	0.0001516	1454.3	7.8613e-06	7.4998e-06	1450.9	391.38	7.1561e-06	6.8423e-06	444.03	146.09	128.17	43.905	6.7208e-06	53.926	0.0015381	0.0021424	0.00059012	1485.7	2.1665e-05	2.3682e-05	1484.1	401.28	2.2186e-05	2.3888e-05	458.09	151.8	132.65	45.629	2.2548e-05	56.294	193.532	252.068	221.227	169.562	284.053	302.442	169.155	173.613	282.539	321.545	173.187	177.424	178.226	182.951	298.805	182.104	-8191	255	
1045.496	1	1	0	0	0.25412	0.10205	0.027945	0.22523	0.20727	0.15501	0.15924	0.057811	0.24066	0.27434	0.23764	0.10126	0.15253	0.04762	0.2266	0.30255	-1.975	-3.1667	-2.3812	-2.8063	-2.8958	-1.9438	-2.9958	-2.8021	-2.0979	-3.0271	-2.4062	-2.3	-3.0833	-2.4292	-2.6813	-2.8917	246.432	289.070	248.011	160.517	458.696	167.988	488.577	342.665	301.750	275.360	190.426	451.674	169.456	450.056	405.549	446.892	0.00058171	0.00062898	0.00024607	1456.4	6.1708e-06	5.1872e-06	1452.6	391.89	5.1957e-06	3.765e-06	443.3	146.73	128.24	44.069	8.4228e-06	53.887	0.0015403	0.002118	0.00059977	1485.9	2.1841e-05	2.3993e-05	1486.3	401.61	2.2243e-05	2.363e-05	457.47	151.9	132.67	45.6	2.2514e-05	56.322	192.450	198.199	260.871	169.241	298.419	305.519	168.988	173.597	318.805	332.208	173.084	177.087	177.682	182.603	321.204	182.006	-8191	255	
1045.592	1	1	0	0	0.16649	0.11547	0.13564	0.19394	0.1591	0.080807	0.32353	0.13529	0.15551	0.13613	0.12476	0.096079	0.083182	0.23739	0.19126	0.085916	-1.8333	-3.0042	-2.5854	-2.7417	-3.0896	-2.3979	-3.2208	-3.2938	-2.1562	-3.1542	-2.8271	-2.5	-3.3271	-2.4792	-2.6625	-2.9208	320.682	478.708	417.812	482.475	212.880	323.405	503.747	265.899	246.193	245.213	253.373	505.427	393.592	434.804	325.946	202.962	0.00059602	0.00056114	0.00011553	1453.5	8.1404e-06	6.0787e-06	1455.8	390.39	2.0287e-06	6.9458e-06	445.08	146.81	127.88	43.466	3.9411e-06	53.877	0.001542	0.0021003	0.00060015	1486.1	2.1714e-05	2.3953e-05	1486.2	400.99	2.2541e-05	2.3954e-05	457.77	152.11	132.74	45.475	2.2699e-05	56.303	191.285	248.360	211.798	169.333	294.369	295.786	169.100	173.521	300.326	344.989	173.167	177.099	177.764	182.535	251.207	181.807	-8191	255	
1045.688	1	1	0	0	0.14208	0.10856	0.23631	0.15191	0.18144	0.013085	0.27066	0.13299	0.21196	0.11948	0.087439	0.23412	0.29277	0.10732	0.12237	0.057278	-1.8062	-2.8771	-2.6271	-2.3563	-3.1125	-2.2458	-2.7875	-3.2583	-2.2354	-2.9125	-2.8771	-2.2375	-3.2771	-2.6292	-2.6042	-2.9292	189.574	290.026	441.203	480.204	194.677	264.453	474.748	491.586	488.418	242.404	506.955	505.796	176.541	484.231	503.300	468.594	0.00057406	0.00064183	0.00020165	1454.1	5.5418e-06	4.5576e-06	1447.1	390.43	5.6105e-06	6.5157e-06	442.74	145.98	128.16	43.826	7.4005e-06	53.781	0.0015873	0.0021987	0.00060714	1485.8	2.2487e-05	2.429e-05	1483.6	401.35	2.3144e-05	2.4047e-05	457.77	151.93	132.76	45.602	2.2783e-05	56.262	192.231	266.558	213.096	169.451	287.761	324.105	168.942	173.622	277.991	297.085	173.183	176.861	177.609	182.485	305.900	181.842	-8191	255	
1045.809	1	1	0	0	0.16378	0.13601	0.20103	0.33161	0.22998	0.17078	0.46784	0.18485	0.010654	0.097154	0.32025	0.22454	0.15391	0.23482	0.19658	0.27938	-1.7625	-2.9021	-2.8854	-2.5042	-3.1271	-2.4521	-2.5021	-3.1937	-2.1125	-2.7625	-2.9792	-2.4688	-3.3146	-2.6979	-2.3812	-3.2229	483.288	428.744	431.642	454.055	211.123	463.690	430.325	510.552	435.186	326.985	478.461	416.141	502.644	490.281	288.189	172.702	0.00055191	0.00048384	0.00020112	1451.5	3.233e-06	4.6018e-06	1440.1	390.08	6.3972e-06	6.9636e-06	442.69	146.46	127.82	43.599	4.6336e-06	54.041	0.0015765	0.0021615	0.00059201	1485.1	2.1821e-05	2.3835e-05	1481.4	401.61	2.222e-05	2.3315e-05	457.38	152.06	132.96	45.541	2.2885e-05	56.448	194.056	247.472	253.798	169.264	300.011	290.981	168.903	173.626	280.563	315.047	172.967	177.074	177.704	182.446	302.343	181.985	-8191	255	
1045.880	1	1	0	0	0.17583	0.17418	0.18099	0.25841	0.11061	0.27793	0.2853	0.20928	0.28238	0.067378	0.16536	0.1076	0.19886	0.20756	0.058392	0.11821	-1.9125	-2.7167	-3.0604	-2.6104	-3.1875	-2.7708	-2.5	-3.2917	-2.3167	-2.8167	-3.0396	-2.2375	-3.2188	-2.7188	-2.3792	-3.45	337.856	440.481	469.274	476.120	289.253	243.672	476.085	463.674	242.298	426.863	466.493	440.753	490.673	362.767	455.994	484.409	0.00057537	0.00077733	0.00012908	1453.7	5.0599e-06	6.4969e-06	1448.5	390.03	3.0724e-06	6.712e-06	442.97	147.04	128.14	43.927	8.3654e-06	53.993	0.0015519	0.0021786	0.00060174	1488.2	2.2302e-05	2.4385e-05	1486	401.33	2.2639e-05	2.3719e-05	457.9	152.14	132.9	45.611	2.3089e-05	56.438	194.961	259.395	246.474	169.397	280.664	289.597	169.238	173.942	296.201	300.585	173.638	177.484	178.222	183.031	290.538	182.441	-8191	255	
1045.975	1	1	0	0	0.15638	0.081164	0.18126	0.3826	0.21899	0.052865	0.099909	0.28964	0.15625	0.29276	0.094114	0.2574	0.25264	0.28488	0.22835	0.086117	-2.2542	-2.7104	-3.0708	-2.4646	-2.8958	-2.7542	-2.4729	-3.3771	-2.4771	-2.5271	-3.1625	-2.3792	-2.9813	-2.8563	-2.1875	-3.2562	171.082	358.580	257.229	460.274	459.416	460.327	393.009	461.110	263.718	314.807	168.031	449.537	195.975	481.655	284.289	358.667	0.00053526	0.00092923	0.00013939	1443.4	5.3912e-06	6.3444e-06	1442.8	388.44	9.0588e-06	8.275e-06	442.48	145.91	127.91	43.587	4.335e-06	53.873	0.0015521	0.002109	0.00060476	1483.7	2.1899e-05	2.4023e-05	1483.6	401.36	2.2163e-05	2.3709e-05	457.79	151.79	132.55	45.523	2.3142e-05	56.315	192.487	217.862	239.762	169.303	273.127	320.166	169.273	173.755	283.185	292.057	173.664	177.465	178.258	182.887	276.942	182.159	-8191	255	
1046.071	1	1	0	0	0.16469	0.32028	0.15635	0.055391	0.16971	0.080224	0.091182	0.40137	0.22005	0.13789	0.044316	0.38375	0.055176	0.30478	0.24942	0.21401	-1.9312	-2.4125	-3.3479	-2.5125	-2.9958	-2.9958	-2.4604	-3.2208	-2.7479	-2.4979	-3.2229	-2.2354	-2.8312	-2.8354	-1.9167	-2.7792	164.721	290.702	258.860	487.648	303.734	258.189	268.951	447.771	488.682	474.323	162.256	161.086	490.238	460.205	248.595	377.630	0.00054555	0.0002392	0.00010446	1449.1	4.5336e-06	5.2014e-06	1447.8	389.77	4.0081e-06	3.7951e-06	444.57	146.71	128.31	43.821	6.4906e-06	54.004	0.0015465	0.0021474	0.00061213	1483.1	2.1824e-05	2.3652e-05	1483.5	401.55	2.2404e-05	2.3698e-05	458.33	152.06	132.88	45.585	2.3047e-05	56.379	195.214	224.706	301.418	169.482	299.559	316.315	168.903	173.848	310.310	343.253	173.608	177.268	178.249	183.074	305.529	182.275	-8191	255	
1046.191	1	1	0	0	0.18348	0.18959	0.15183	0.094248	0.15304	0.29108	0.32887	0.096171	0.07053	0.091621	0.10725	0.25961	0.10877	0.11056	0.21103	0.08723	-2.1917	-2.3167	-3.0083	-2.4979	-2.6417	-2.9604	-2.2542	-3.1437	-2.6104	-2.4313	-3.1937	-2.5771	-2.7458	-3.0396	-2.1646	-3.0687	309.302	244.167	390.106	341.437	276.839	334.636	435.278	244.950	242.777	446.639	474.209	427.997	478.744	355.895	396.444	353.813	0.00053524	0.00084534	0.00011927	1451	3.5202e-06	7.983e-06	1442.3	387.47	6.2349e-06	2.7878e-06	441.78	145.78	127.95	43.67	7.8439e-06	53.725	0.0015115	0.0021383	0.00059344	1485.3	2.147e-05	2.3326e-05	1482.5	400.69	2.1616e-05	2.3242e-05	457.2	151.68	132.79	45.519	2.2673e-05	56.254	200.587	223.009	243.497	169.508	323.713	304.924	169.274	173.911	269.355	385.562	173.651	177.469	178.051	182.995	315.589	182.208	-8191	255	
1046.288	1	1	0	0	0.21232	0.088764	0.038971	0.32581	0.35815	0.33223	0.19686	0.21228	0.14853	0.12492	0.17397	0.14309	0.16314	0.29471	0.18832	0.27549	-2.2854	-2.1958	-3.0708	-2.475	-2.6521	-3.1937	-2.3667	-3.2625	-2.7125	-2.3375	-3.0833	-2.6625	-2.4521	-3.0812	-2.3771	-3.1979	388.573	391.949	428.927	488.886	493.264	376.878	473.334	465.307	329.038	375.678	408.137	460.376	417.479	217.725	450.441	160.795	0.00057532	0.00057141	0.00013287	1442.3	5.4817e-06	6.0427e-06	1441.1	389.43	6.1963e-06	2.363e-06	442.15	145.48	127.28	43.405	6.3599e-06	53.633	0.0014988	0.0020854	0.00058458	1484.6	2.1288e-05	2.3181e-05	1481.6	401.07	2.1764e-05	2.3756e-05	457.85	151.6	132.6	45.461	2.2705e-05	56.281	197.901	261.181	259.804	169.386	299.106	270.853	169.051	173.786	280.675	284.823	173.647	177.119	178.051	182.740	267.218	182.273	-8191	255	
1046.384	1	1	0	0	0.10436	0.14684	0.12213	0.3303	0.052182	0.093908	0.36068	0.095576	0.16923	0.37009	0.123	0.17775	0.10924	0.045763	0.15375	0.26131	-2.5229	-2.175	-3.1958	-2.7667	-2.5292	-2.9833	-2.4083	-3.0104	-3.0396	-2.3854	-3.2812	-2.5542	-2.4667	-3.2792	-2.4292	-3.1146	420.419	236.229	495.639	447.793	440.253	314.895	468.911	483.545	485.119	419.517	431.022	311.311	479.496	335.225	302.611	439.246	0.00061053	0.00065147	0.0001872	1459.3	4.0238e-06	5.72e-06	1447	391.23	7.5053e-06	5.5057e-06	443.49	146.52	128.43	44.042	5.658e-06	53.853	0.0015378	0.0022058	0.00060909	1487.6	2.1851e-05	2.4347e-05	1483.8	401.36	2.1896e-05	2.3658e-05	458.35	151.77	132.75	45.601	2.2791e-05	56.334	196.395	258.777	228.606	169.455	276.778	299.632	169.078	174.174	287.031	344.588	173.321	177.561	178.115	182.892	284.928	182.284	-8191	255	
1046.455	1	1	0	0	0.21006	0.059482	0.11889	0.21563	0.23718	0.023439	0.14077	0.26118	0.056868	0.12965	0.20781	0.069856	0.23361	0.11478	0.13256	0.18183	-2.8771	-2.2208	-2.8312	-3.0729	-2.4333	-3.1979	-2.6896	-3.0687	-3.0292	-2.2104	-3.0687	-2.9771	-2.4604	-3.325	-2.4021	-2.7417	466.386	311.275	306.073	489.110	242.413	198.714	398.304	212.880	166.857	297.293	511.609	476.309	226.090	433.323	374.991	297.940	0.00055469	0.00056548	7.5244e-05	1453.2	4.3688e-06	7.1515e-06	1455.6	391.72	7.4493e-06	8.7188e-06	443.71	146.92	128.19	43.775	4.3494e-06	53.944	0.0015031	0.0021295	0.00058896	1484.2	2.1239e-05	2.3107e-05	1483.5	401.05	2.1629e-05	2.3127e-05	457.05	151.73	132.7	45.504	2.2191e-05	56.25	194.329	250.871	263.535	169.621	281.194	246.579	169.190	174.166	269.819	314.633	173.732	177.472	178.307	183.300	296.860	182.418	-8191	255	
1046.576	1	1	0	0	0.18389	0.14055	0.24255	0.34823	0.06414	0.3893	0.18935	0.14353	0.16967	0.072675	0.094711	0.15927	0.22194	0.12299	0.14859	0.079199	-2.7146	-2.2375	-2.9792	-3.0583	-2.2833	-3.1	-2.4542	-2.5854	-3.0812	-2.4979	-3.1458	-3.0062	-2.4417	-3.2833	-2.4813	-2.6875	467.970	456.599	442.392	513.882	314.365	159.593	387.327	476.500	429.818	471.241	221.071	472.189	372.066	378.858	456.344	358.422	0.00054981	0.00054028	0.0001505	1452.1	3.3082e-06	4.5881e-06	1451.1	390.66	8.0883e-06	8.297e-06	443.81	146.06	128.59	44.01	5.8692e-06	54.157	0.0014969	0.0021027	0.00058545	1485.4	2.1567e-05	2.3491e-05	1484	401.24	2.198e-05	2.3688e-05	457.8	151.43	132.59	45.598	2.2208e-05	56.403	191.528	224.367	237.778	169.901	270.087	323.395	169.447	174.399	284.207	322.665	174.058	177.661	178.402	183.238	315.243	182.468	-8191	255	
1046.672	1	1	0	0	0.21362	0.27414	0.23902	0.28525	0.20603	0.14376	0.16713	0.28002	0.1141	0.18886	0.10397	0.31701	0.019492	0.052852	0.13262	0.13483	-2.6437	-2.4292	-2.9333	-3.3104	-2.2167	-3.1375	-2.8104	-2.6125	-3.2812	-2.2271	-3.1771	-3.0021	-2.3792	-3.1562	-2.7479	-2.3896	343.612	390.589	168.330	166.124	162.550	496.993	393.855	478.781	363.177	510.929	462.344	436.266	314.420	511.466	256.069	445.041	0.00055816	0.00057156	0.00015427	1456.1	4.1268e-06	1.2412e-06	1450.1	390.79	5.8732e-06	7.7842e-06	442.55	146.76	127.89	44.039	8.5525e-06	54.146	0.0015131	0.002127	0.00059227	1487.2	2.2113e-05	2.3799e-05	1482.4	401.25	2.198e-05	2.3664e-05	457.64	151.74	132.51	45.599	2.2239e-05	56.371	194.316	266.480	249.749	169.727	291.396	339.016	169.446	174.447	280.147	314.965	173.769	177.825	178.442	182.754	311.114	182.081	-8191	255	
1046.768	1	1	0	0	0.20469	0.096	0.17792	0.15705	0.29018	0.16082	0.20942	0.041371	0.21932	0.053421	0.19411	0.24957	0.16093	0.17415	0.11021	0.36237	-2.7604	-2.5563	-2.8438	-3.3937	-2.1562	-3.1542	-2.95	-2.4542	-3.0396	-2.45	-2.8542	-3.3042	-2.1208	-2.8354	-2.7292	-2.2375	455.483	218.505	254.502	453.458	427.088	397.833	503.588	246.064	436.629	228.305	188.254	164.853	210.509	503.776	260.607	407.098	0.00054704	0.00057038	0.00023313	1454.3	5.2923e-06	5.6259e-06	1452.4	390.44	4.8504e-06	4.8515e-06	444.39	146.85	128.64	43.712	4.4433e-06	54.108	0.0015309	0.002126	0.0005904	1485	2.1989e-05	2.3413e-05	1483.9	401.08	2.245e-05	2.3257e-05	458.66	151.99	132.88	45.584	2.2927e-05	56.369	191.564	220.781	228.125	169.457	272.333	312.169	169.147	173.863	308.872	333.051	173.572	177.386	177.829	182.938	291.781	182.480	-8191	255	
1046.889	1	1	0	0	0.10254	0.092021	0.27679	0.066034	0.18593	0.16394	0.21725	0.14433	0.13714	0.067424	0.1588	0.1871	0.24008	0.041875	0.068931	0.12313	-2.5479	-2.4146	-2.5729	-3.2562	-2.1917	-2.9833	-3.1604	-2.45	-3.1667	-2.4313	-2.7438	-3.2375	-2.4604	-2.9562	-2.875	-2.3708	207.630	277.454	270.841	513.724	428.533	355.995	459.888	481.221	224.498	306.264	267.571	397.214	226.166	425.378	296.361	513.391	0.00057596	0.0008524	0.00012801	1451.3	7.0919e-06	8.4995e-06	1453.1	390.36	6.2941e-06	4.1661e-07	443.94	147.05	128.39	44.041	7.5344e-06	53.886	0.0015463	0.002105	0.00059579	1485.6	2.2162e-05	2.2915e-05	1484	401.09	2.2018e-05	2.3208e-05	457.9	151.89	132.53	45.579	2.246e-05	56.337	192.950	240.400	213.948	169.383	299.638	298.334	169.385	174.200	273.088	285.723	173.825	177.282	178.022	183.130	304.661	182.537	-8191	255	
1046.983	1	1	0	0	0.16047	0.13759	0.1922	0.088183	0.018659	0.032343	0.10564	0.14432	0.18238	0.053452	0.12381	0.13181	0.30795	0.43991	0.061944	0.33122	-2.7313	-2.6958	-2.3812	-3.5104	-2.4	-2.8083	-3.2396	-2.2917	-3.1667	-2.7167	-2.3146	-3.2438	-2.3792	-2.6646	-3.2104	-2.5958	283.770	282.768	454.600	490.575	286.529	217.621	481.367	167.085	316.499	259.872	497.246	501.863	460.180	498.315	193.364	514.185	0.00054877	0.0010787	0.0001929	1455	3.8361e-06	6.6359e-06	1452.1	390.54	4.8671e-06	6.6539e-06	443.34	146.81	128.52	43.864	3.2949e-06	53.897	0.0015157	0.0021479	0.00060514	1486.7	2.2244e-05	2.3785e-05	1483.5	401.32	2.2495e-05	2.4056e-05	458.04	152.08	132.82	45.554	2.338e-05	56.389	193.197	240.240	275.528	169.512	286.181	311.410	168.925	173.876	268.321	329.411	173.215	176.780	177.540	182.532	279.166	181.696	-8191	255	
1047.057	1	1	0	0	0.24889	0.078307	0.065812	0.261	0.055025	0.22608	0.11136	0.10819	0.19306	0.14482	0.056728	0.12331	0.1137	0.15763	0.094485	0.19986	-2.8396	-2.7167	-2.0417	-3.3521	-2.4583	-2.5229	-3.15	-2.3479	-3.0646	-2.6833	-2.4354	-3.0187	-2.3375	-2.5083	-3.1167	-2.4625	295.436	420.660	455.975	514.423	305.793	244.052	165.630	328.805	304.004	403.907	413.989	493.580	511.483	509.987	388.596	498.302	0.00059324	0.00056234	0.00018233	1457.1	3.5073e-06	7.0236e-06	1446.5	390.75	5.3423e-06	3.3901e-06	444.15	146.51	127.89	43.83	3.8447e-06	53.818	0.001554	0.0021569	0.00060773	1485.4	2.2056e-05	2.3653e-05	1483.4	401.07	2.2205e-05	2.3586e-05	457.53	151.75	132.43	45.566	2.2748e-05	56.248	194.286	223.553	205.774	169.052	296.599	282.522	168.846	173.544	275.203	330.417	173.118	176.850	177.542	182.546	264.118	181.840	-8191	255	
1047.176	1	1	0	0	0.17526	0.054206	0.26615	0.18553	0.22489	0.1349	0.2087	0.067146	0.20288	0.095262	0.14354	0.23385	0.095775	0.32582	0.14574	0.019201	-2.6604	-2.7021	-2.2479	-3.4938	-2.6042	-2.8229	-3.5104	-2.475	-2.6208	-2.9417	-2.2271	-3.0125	-2.5812	-2.4208	-3.1042	-2.4542	392.019	480.823	342.663	450.988	277.018	510.655	422.072	352.841	390.771	174.577	471.776	512.636	215.051	266.576	192.570	441.426	0.00051886	0.00062483	0.00013367	1453	4.8226e-06	5.7107e-06	1447.9	390.35	6.6366e-06	4.4747e-06	444.51	146.36	128.51	43.796	6.7927e-06	54.145	0.0015142	0.0021142	0.00059512	1485.1	2.1311e-05	2.3384e-05	1483.5	400.95	2.1822e-05	2.3708e-05	457.94	151.88	132.57	45.553	2.3085e-05	56.314	198.159	239.768	221.929	169.271	289.169	295.956	168.816	173.371	292.612	337.798	173.100	177.226	177.579	182.556	295.198	181.981	-8191	255	
1047.272	1	1	0	0	0.15986	0.076178	0.21374	0.21313	0.21537	0.10752	0.21936	0.050074	0.35371	0.19616	0.34798	0.11885	0.24788	0.30661	0.12393	0.15499	-2.825	-2.9729	-2.175	-3.3625	-2.5229	-2.3583	-3.2167	-2.3896	-2.8333	-3.075	-2.4188	-3.2729	-2.8167	-2.4396	-3.1708	-2.3875	493.840	258.621	478.645	467.755	507.973	188.185	417.436	362.677	401.368	426.898	473.293	357.408	447.639	493.578	321.630	362.454	0.00058237	0.00059235	0.00016422	1452.3	5.2776e-06	4.9994e-06	1454.2	391.49	5.346e-06	6.6815e-06	444.58	145.72	128.28	43.769	5.2313e-06	54.271	0.0015178	0.0021393	0.00059812	1486	2.1276e-05	2.4406e-05	1484.7	400.99	2.1897e-05	2.3677e-05	457.1	151.68	132.69	45.554	2.2921e-05	56.355	195.403	246.344	252.139	169.231	304.149	277.941	168.748	173.560	306.917	322.380	172.873	177.228	177.797	182.573	294.854	181.651	-8191	255	
1047.368	1	1	0	0	0.27447	0.3241	0.13067	0.059059	0.24157	0.106	0.16436	0.19207	0.091205	0.20377	0.25978	0.047671	0.34934	0.26533	0.11502	0.18621	-2.2625	-2.8521	-2.2479	-3.225	-2.9479	-2.2583	-3.5917	-2.7521	-2.7021	-3.2333	-2.3729	-3.0312	-2.8146	-2.3875	-3.125	-2.5667	446.376	484.943	363.585	432.553	268.148	322.548	180.553	432.157	398.265	371.970	426.671	404.955	480.891	230.283	391.467	511.394	0.00054473	0.00054382	0.00024062	1455.1	4.2518e-06	7.8733e-06	1446.9	391.24	6.1928e-06	6.7566e-06	443.73	146.99	128.12	43.86	7.3669e-06	54.104	0.0015121	0.0021118	0.00060697	1485.8	2.1658e-05	2.4019e-05	1483.6	400.73	2.1913e-05	2.3738e-05	458.18	151.84	132.58	45.6	2.2574e-05	56.362	197.209	225.032	251.569	169.278	269.623	292.178	169.071	173.844	264.176	313.693	173.402	177.163	177.769	182.694	306.938	182.109	-8191	255	
1047.489	1	1	0	0	0.12101	0.18334	0.2373	0.41596	0.32811	0.15023	0.13691	0.30657	0.038998	0.16009	0.31799	0.25817	0.18843	0.13911	0.15	0.10229	-2.3458	-3.3	-2.4583	-3.2333	-2.7208	-2.3208	-3.2604	-2.6375	-2.4042	-3.0854	-2.5083	-3.0687	-3.1417	-2.2396	-3.2146	-2.7562	262.450	246.748	317.777	491.389	415.007	425.263	214.178	471.337	344.456	219.228	425.976	492.068	414.442	211.133	351.132	156.412	0.00058029	0.00050625	0.00014168	1456.9	4.6294e-06	6.0097e-06	1453.2	391.3	7.1557e-06	3.622e-06	444.71	146.9	128.11	43.713	5.4702e-06	54.048	0.0014943	0.0021546	0.00059897	1484.9	2.1579e-05	2.3884e-05	1484.1	401.1	2.1572e-05	2.3253e-05	458.23	151.86	132.61	45.474	2.2128e-05	56.307	190.277	243.581	238.960	169.690	326.743	306.179	169.105	173.755	283.697	309.851	173.317	177.337	177.943	183.130	311.801	182.017	-8191	255	
#DATA ENDS
