BOXY.EXE: ISS Imagent and Oximeter Data Acquisition Program Version 0.80
Ascii Record File

#ACQ INFORMATION
2  Detector Channels 
16  External MUX Channels 
1  Auxiliary Channels 
5000  Waveform (CCF) Frequency (Hz)
1  Waveforms Skipped 
30  Waveforms Averaged 
1  Cycles Averaged 
16  Acquisitions per Waveform 
10.0806  Updata Rate (Hz) 

#FILE INFORMATION
TRUE -- External MUX Channel results are PARSED.
FALSE -- AC DC and Phase are NOT grouped.
TRUE -- Companion Program Settings File CREATED.
FALSE -- AC data not excluded
FALSE -- DC data not excluded
FALSE -- Phase data not excluded
FALSE -- Auxillary Chn. data not excluded
Tab delimiters

#CALIBRATION STATE
TRUE -- Waveform Calibration Values APPLIED.


#AUX CALIBRATION VALUES
Val Type	aux-1	

Term	1.0000e+00	
Factor	0.0000e+00	


#WF CALIBRATION VALUES
A = Detector Channel
Val Type	A-AC1	A-AC2	A-AC3	A-AC4	A-AC5	A-AC6	A-AC7	A-AC8	A-AC9	A-AC10	A-AC11	A-AC12	A-AC13	A-AC14	A-AC15	A-AC16	A-DC1	A-DC2	A-DC3	A-DC4	A-DC5	A-DC6	A-DC7	A-DC8	A-DC9	A-DC10	A-DC11	A-DC12	A-DC13	A-DC14	A-DC15	A-DC16	A-Ph1	A-Ph2	A-Ph3	A-Ph4	A-Ph5	A-Ph6	A-Ph7	A-Ph8	A-Ph9	A-Ph10	A-Ph11	A-Ph12	A-Ph13	A-Ph14	A-Ph15	A-Ph16	

Term	0.00000e+00	0.00000e+00	0.00000e+00	0.00000e+00	0.00000e+00	0.00000e+00	0.00000e+00	0.00000e+00	0.00000e+00	0.00000e+00	0.00000e+00	0.00000e+00	0.00000e+00	0.00000e+00	0.00000e+00	0.00000e+00	0.00000e+00	0.00000e+00	0.00000e+00	0.00000e+00	0.00000e+00	0.00000e+00	0.00000e+00	0.00000e+00	0.00000e+00	0.00000e+00	0.00000e+00	0.00000e+00	0.00000e+00	0.00000e+00	0.00000e+00	0.00000e+00	0.00000e+00	0.00000e+00	0.00000e+00	0.00000e+00	0.00000e+00	0.00000e+00	0.00000e+00	0.00000e+00	0.00000e+00	0.00000e+00	0.00000e+00	0.00000e+00	0.00000e+00	0.00000e+00	0.00000e+00	0.00000e+00	
Factor	1.00000e+00	1.00000e+00	1.00000e+00	1.00000e+00	1.00000e+00	1.00000e+00	1.00000e+00	1.00000e+00	1.00000e+00	1.00000e+00	1.00000e+00	1.00000e+00	1.00000e+00	1.00000e+00	1.00000e+00	1.00000e+00	1.00000e+00	1.00000e+00	1.00000e+00	1.00000e+00	1.00000e+00	1.00000e+00	1.00000e+00	1.00000e+00	1.00000e+00	1.00000e+00	1.00000e+00	1.00000e+00	1.00000e+00	1.00000e+00	1.00000e+00	1.00000e+00	X	X	X	X	X	X	X	X	X	X	X	X	X	X	X	X	

B = Detector Channel
Val Type	B-AC1	B-AC2	B-AC3	B-AC4	B-AC5	B-AC6	B-AC7	B-AC8	B-AC9	B-AC10	B-AC11	B-AC12	B-AC13	B-AC14	B-AC15	B-AC16	B-DC1	B-DC2	B-DC3	B-DC4	B-DC5	B-DC6	B-DC7	B-DC8	B-DC9	B-DC10	B-DC11	B-DC12	B-DC13	B-DC14	B-DC15	B-DC16	B-Ph1	B-Ph2	B-Ph3	B-Ph4	B-Ph5	B-Ph6	B-Ph7	B-Ph8	B-Ph9	B-Ph10	B-Ph11	B-Ph12	B-Ph13	B-Ph14	B-Ph15	B-Ph16	

Term	0.00000e+00	0.00000e+00	0.00000e+00	0.00000e+00	0.00000e+00	0.00000e+00	0.00000e+00	0.00000e+00	0.00000e+00	0.00000e+00	0.00000e+00	0.00000e+00	0.00000e+00	0.00000e+00	0.00000e+00	0.00000e+00	0.00000e+00	0.00000e+00	0.00000e+00	0.00000e+00	0.00000e+00	0.00000e+00	0.00000e+00	0.00000e+00	0.00000e+00	0.00000e+00	0.00000e+00	0.00000e+00	0.00000e+00	0.00000e+00	0.00000e+00	0.00000e+00	-1.27807e+02	-1.29926e+02	-1.26772e+02	-1.80573e+02	-6.73208e+01	-6.76919e+01	-1.56582e+02	-1.62015e+02	-7.01869e+01	-5.52664e+01	-1.75242e+02	-1.71164e+02	-1.79933e+02	-1.76303e+02	-6.70147e+01	-1.49553e+02	
Factor	2.02714e-05	1.91716e-04	4.79495e-05	1.62367e-01	1.27428e-06	1.92766e-06	1.87826e-01	5.79250e-02	1.30275e-06	1.88192e-06	1.08611e-01	3.63822e-02	2.76640e-02	1.06877e-02	1.58961e-06	1.52523e-02	1.17346e-05	1.91389e-05	5.38533e-06	8.14419e-02	1.92304e-07	2.14576e-07	8.87117e-02	2.92306e-02	1.94660e-07	2.13727e-07	5.29229e-02	1.78944e-02	1.41700e-02	5.42369e-03	2.02256e-07	7.50969e-03	X	X	X	X	X	X	X	X	X	X	X	X	X	X	X	X	



#DISTANCE SETTINGS
A = Detector Channel
A-1	A-2	A-3	A-4	A-5	A-6	A-7	A-8	A-9	A-10	A-11	A-12	A-13	A-14	A-15	A-16	

2.5000e+00	3.0000e+00	2.5000e+00	3.0000e+00	2.0000e+00	3.0000e+00	1.5000e+00	3.0000e+00	3.0000e+00	3.0000e+00	3.0000e+00	3.0000e+00	3.0000e+00	3.0000e+00	1.5000e+00	3.0000e+00	

B = Detector Channel
B-1	B-2	B-3	B-4	B-5	B-6	B-7	B-8	B-9	B-10	B-11	B-12	B-13	B-14	B-15	B-16	

1.0000e+01	1.0000e+01	1.0000e+01	1.4400e+00	1.0000e+01	1.0000e+01	1.5100e+00	1.9400e+00	1.0000e+01	1.0000e+01	1.9900e+00	2.4900e+00	2.4100e+00	2.9000e+00	1.0000e+01	2.9800e+00	




#DATA BEGINS
time	group	step	mark	flag	A-AC1	A-AC2	A-AC3	A-AC4	A-AC5	A-AC6	A-AC7	A-AC8	A-AC9	A-AC10	A-AC11	A-AC12	A-AC13	A-AC14	A-AC15	A-AC16	A-DC1	A-DC2	A-DC3	A-DC4	A-DC5	A-DC6	A-DC7	A-DC8	A-DC9	A-DC10	A-DC11	A-DC12	A-DC13	A-DC14	A-DC15	A-DC16	A-Ph1	A-Ph2	A-Ph3	A-Ph4	A-Ph5	A-Ph6	A-Ph7	A-Ph8	A-Ph9	A-Ph10	A-Ph11	A-Ph12	A-Ph13	A-Ph14	A-Ph15	A-Ph16	B-AC1	B-AC2	B-AC3	B-AC4	B-AC5	B-AC6	B-AC7	B-AC8	B-AC9	B-AC10	B-AC11	B-AC12	B-AC13	B-AC14	B-AC15	B-AC16	B-DC1	B-DC2	B-DC3	B-DC4	B-DC5	B-DC6	B-DC7	B-DC8	B-DC9	B-DC10	B-DC11	B-DC12	B-DC13	B-DC14	B-DC15	B-DC16	B-Ph1	B-Ph2	B-Ph3	B-Ph4	B-Ph5	B-Ph6	B-Ph7	B-Ph8	B-Ph9	B-Ph10	B-Ph11	B-Ph12	B-Ph13	B-Ph14	B-Ph15	B-Ph16	aux-1	digaux	

1597.646	1	1	0	256	0.079194	0.093172	0.18009	0.22232	0.063935	0.12001	0.28289	0.34258	0.23486	0.16333	0.096932	0.10674	0.11442	0.43291	0.20204	0.12553	-2.6437	-2.9875	-2.3917	-3.25	-2.7687	-2.4604	-3.2917	-2.5	-3.0312	-3.2104	-2.1625	-3.3917	-2.9208	-2.6688	-3.4542	-2.7146	199.306	262.260	7.207	205.718	207.384	267.280	260.724	169.069	-64.913	171.690	201.274	129.878	73.351	272.287	227.382	243.776	0.00031074	0.00054276	0.00016144	835.71	7.1012e-06	1.136e-05	610.09	350.89	4.9197e-06	7.5238e-06	307.03	154.37	177.34	104.08	2.441e-06	94.003	0.00094701	0.0011671	0.00033705	816.32	1.2394e-05	1.3337e-05	597.87	346.84	1.2384e-05	1.3296e-05	302.16	153.53	176.63	103.5	1.3115e-05	92.936	180.139	-11.418	19.156	-63.373	61.191	67.095	-65.032	-57.834	75.377	86.089	-60.776	-57.135	-54.582	-50.173	89.501	-54.066	-8191	255	
1597.742	1	1	0	0	0.42665	0.17426	0.21414	0.30314	0.26709	0.3846	0.20477	0.2524	0.34996	0.19733	0.1558	0.26607	0.19615	0.18309	0.081626	0.14821	-2.3896	-3.2208	-2.2938	-3.0208	-3.0479	-2.2875	-3.3479	-2.6	-2.7375	-3.2979	-2.5083	-3.2938	-2.9813	-2.5875	-3.3	-2.6896	142.036	29.793	130.563	-59.532	-65.241	-53.555	118.658	172.870	-28.629	64.733	-19.226	-67.092	188.837	22.615	229.595	230.791	0.00029749	0.00084364	0.0002106	830.98	2.923e-06	5.6933e-06	605.56	349.36	3.9862e-06	7.5474e-06	302.6	153.96	175.77	102.6	2.4963e-06	92.764	0.0009439	0.0011768	0.00033606	810.92	1.1977e-05	1.3077e-05	595.54	345.03	1.2327e-05	1.2853e-05	299.43	152.49	174.83	102.13	1.3091e-05	91.673	174.521	-12.657	8.757	-63.317	91.954	98.671	-65.008	-57.861	36.688	83.063	-60.763	-56.936	-54.559	-50.136	94.112	-54.067	-8191	255	
1597.863	1	1	0	0	0.062772	0.12189	0.17424	0.087361	0.085636	0.1107	0.14331	0.30928	0.18082	0.25446	0.20443	0.15309	0.1114	0.2724	0.048362	0.1044	-2.2812	-3.2542	-2.3083	-2.9562	-3.1125	-2.4375	-3.4208	-2.6	-2.4917	-3.3083	-2.7354	-3.1021	-3.3563	-2.5292	-3.1813	-3.0521	192.594	79.221	-19.341	-58.018	-2.641	173.807	99.749	235.311	41.216	53.418	-31.558	112.066	124.958	269.801	-67.629	226.929	0.00028546	0.000965	0.00018913	822.7	4.2601e-06	6.1041e-06	595.83	342.96	4.9841e-06	9.1281e-06	293.91	147.9	170.95	100.03	4.2163e-06	90.195	0.00095087	0.0011905	0.00034275	804.8	1.2414e-05	1.3393e-05	585.37	337.5	1.3029e-05	1.3384e-05	289.92	147.27	170.43	99.584	1.3599e-05	89.079	172.788	18.238	-6.544	-63.320	88.293	71.397	-65.235	-57.816	61.217	96.775	-60.705	-57.197	-54.587	-50.272	93.473	-53.909	-8191	255	
1597.935	1	1	0	0	0.13034	0.18658	0.26072	0.35708	0.25001	0.15268	0.23373	0.1096	0.11075	0.31003	0.24834	0.17627	0.25462	0.29468	0.093596	0.21507	-2.225	-3.2354	-2.3937	-2.9313	-3.2583	-2.4146	-3.25	-3.1146	-2.3854	-3.25	-2.5187	-2.625	-3.3563	-2.7354	-3.1813	-3.075	96.756	113.297	126.634	270.552	11.721	206.430	175.651	-45.666	12.227	50.081	-53.383	115.835	205.893	255.129	279.031	219.628	0.00027822	0.00079672	0.00018403	815.7	1.7376e-06	7.8781e-06	591.43	341.6	4.1825e-06	5.0857e-06	294.59	148.34	172.31	100.77	8.4245e-06	90.873	0.00097405	0.0012189	0.00033933	799.53	1.2253e-05	1.3111e-05	581.29	336.23	1.2919e-05	1.31e-05	290.87	147.69	171.32	100.33	1.3905e-05	89.918	176.395	17.756	10.943	-63.542	93.260	69.566	-64.991	-57.946	78.454	76.603	-60.666	-56.694	-54.380	-50.131	100.081	-53.732	-8191	255	
1598.031	1	1	0	0	0.065581	0.069436	0.02554	0.33567	0.14712	0.2155	0.20294	0.12315	0.061241	0.09932	0.27221	0.13368	0.23081	0.24348	0.24762	0.13177	-2.1312	-3.3417	-2.5771	-2.8542	-3.2875	-2.4417	-3.1437	-3.0833	-2.3667	-3.3708	-2.725	-2.5958	-3.4542	-2.6688	-2.9479	-3.4	104.735	8.664	-20.142	-60.515	34.188	125.660	149.406	138.042	218.112	-12.055	-75.169	255.460	211.668	-12.942	-51.580	165.870	0.00025556	0.0009373	0.00023968	821.99	5.3044e-06	6.4339e-06	598.53	343.52	2.2347e-06	8.3603e-06	296.49	150.29	174	101.8	5.3752e-06	92.442	0.00097962	0.0012305	0.000348	802.33	1.2268e-05	1.3358e-05	586.08	338.76	1.2429e-05	1.3332e-05	293.13	149.39	173.18	101.41	1.3122e-05	91.719	176.807	13.915	21.334	-63.304	84.275	66.544	-64.697	-57.889	57.629	65.916	-60.820	-56.795	-54.411	-50.159	59.836	-53.930	-8191	255	
1598.127	1	1	0	0	0.11567	0.11311	0.27461	0.093954	0.20814	0.072651	0.043774	0.21382	0.037435	0.27382	0.22212	0.24005	0.4932	0.17097	0.16984	0.10106	-2.1688	-3.3271	-2.6979	-2.7479	-3.3458	-2.3438	-2.9854	-3.35	-2.4708	-3.2708	-2.9458	-2.65	-3.6292	-2.6917	-2.9375	-3.4333	157.603	47.949	12.450	-44.179	81.452	251.421	-69.586	197.680	-15.773	223.064	85.316	-56.315	-54.661	224.277	61.719	185.077	0.00027448	0.00059297	0.00014622	827.26	3.0403e-06	6.1368e-06	604.18	347.23	4.5486e-06	5.8757e-06	300.06	152.06	175.36	102.94	4.3844e-06	92.243	0.00097219	0.001193	0.00034134	810.08	1.2038e-05	1.3616e-05	592.24	343.02	1.2815e-05	1.3814e-05	296.36	151.13	174.87	102.58	1.482e-05	91.467	174.962	47.320	2.445	-63.266	62.935	93.767	-64.976	-57.842	61.722	98.282	-60.843	-56.905	-54.520	-50.185	87.990	-54.272	-8191	255	
1598.223	1	1	0	0	0.21173	0.25301	0.1587	0.087209	0.28722	0.11417	0.075292	0.40688	0.10492	0.043848	0.24438	0.08264	0.21249	0.19576	0.13291	0.29998	-2.1854	-3.3563	-2.9833	-2.6625	-3.3583	-2.6188	-2.8667	-3.4333	-2.4313	-3.0625	-3.1479	-2.5208	-3.4542	-2.7771	-2.7042	-3.1542	38.437	41.601	188.143	82.490	212.321	63.421	171.215	277.398	258.988	17.816	119.338	161.086	185.963	283.615	195.789	208.622	0.00028011	0.00040706	0.00015871	822.83	1.6709e-06	5.5175e-06	594.59	342.05	3.0013e-06	4.6807e-06	296.18	148.78	173.38	101.72	3.7889e-06	91.03	0.001041	0.0012858	0.00036404	806.96	1.3287e-05	1.4808e-05	585.99	338.58	1.3736e-05	1.4694e-05	291.15	148.41	172.95	101.48	1.4564e-05	90.212	188.535	20.704	39.462	-63.392	12.109	81.992	-64.761	-57.707	83.863	71.335	-60.592	-57.083	-54.482	-50.234	71.806	-53.945	-8191	255	
1598.342	1	1	0	0	0.1281	0.22606	0.088994	0.098326	0.066536	0.37318	0.14463	0.21859	0.19176	0.30892	0.040382	0.2892	0.16625	0.19206	0.31471	0.17223	-1.9438	-3.0812	-3.0729	-2.6146	-3.4	-2.65	-2.7854	-3.3917	-2.45	-3.0292	-3.0312	-2.3542	-3.4083	-2.925	-2.625	-3.5125	245.388	-17.319	150.961	177.955	129.507	190.609	125.645	-10.079	252.025	-13.384	214.662	254.341	260.157	253.486	267.352	233.704	0.00025685	0.00065016	0.00018602	826.04	3.3339e-06	5.9491e-06	595.5	339.73	1.7878e-06	9.199e-06	292.94	148.77	173.38	101.85	5.4831e-06	91.647	0.0010431	0.0013285	0.00038296	807.28	1.346e-05	1.4693e-05	586.31	336.42	1.4175e-05	1.4668e-05	290.05	148.02	172.82	101.48	1.5023e-05	90.711	181.638	11.665	-8.143	-63.547	49.713	70.228	-65.004	-57.482	97.484	101.416	-60.261	-56.734	-54.290	-50.197	74.041	-53.835	-8191	255	
1598.438	1	1	0	0	0.17598	0.091734	0.1984	0.16609	0.30818	0.20316	0.29374	0.2734	0.27923	0.22829	0.061064	0.14061	0.17495	0.28639	0.15328	0.069217	-2.0354	-2.9646	-3.05	-2.5208	-3.2042	-3.0187	-2.7313	-3.3917	-2.3958	-2.9271	-3.4104	-2.475	-3.25	-3.2792	-2.4542	-3.5625	71.074	32.679	-63.269	205.431	244.801	72.384	193.671	278.757	146.021	115.413	277.200	-74.628	-24.812	274.178	104.866	183.975	0.00024585	0.00077165	0.00019309	822.49	4.972e-06	5.3267e-06	596.45	343.02	2.2346e-06	5.4615e-06	293.51	150.64	174.42	103.08	3.5999e-06	92.699	0.0010281	0.0013447	0.0003713	807.36	1.3295e-05	1.4629e-05	586.13	338.88	1.3597e-05	1.4633e-05	291.41	149.64	173.97	102.72	1.4142e-05	92.081	187.145	11.257	9.573	-63.511	69.150	37.161	-64.890	-57.800	82.112	103.331	-60.836	-56.964	-54.489	-50.127	93.045	-53.729	-8191	255	
1598.534	1	1	0	0	0.12656	0.046638	0.29367	0.1344	0.16011	0.15844	0.14805	0.43539	0.3093	0.19975	0.31262	0.28617	0.081277	0.25422	0.21451	0.032675	-2.325	-2.825	-3.1729	-2.4833	-3.2583	-3.2208	-2.5875	-3.5104	-2.5438	-2.9062	-3.4167	-2.4042	-3.1813	-3.3771	-2.4292	-3.5312	145.273	-17.497	2.966	85.813	158.382	173.791	176.670	244.937	106.993	43.541	172.537	266.180	165.754	234.740	23.816	188.333	0.00026906	0.00047052	0.00012678	826.48	3.4665e-06	9.5343e-06	594.99	345.79	2.491e-06	6.0084e-06	299.85	151.55	177.49	105.27	3.6735e-06	94.156	0.00099348	0.0012887	0.00035542	808.16	1.3092e-05	1.448e-05	583.7	340.32	1.3171e-05	1.421e-05	294.18	151.32	176.81	104.78	1.4152e-05	93.263	177.010	15.049	7.578	-63.317	66.969	72.687	-64.874	-57.367	90.505	87.715	-60.691	-56.925	-54.103	-50.154	52.017	-53.782	-8191	255	
1598.631	1	1	0	0	0.060535	0.02392	0.20695	0.25973	0.028142	0.2395	0.081817	0.17834	0.20064	0.23833	0.19136	0.10463	0.23012	0.18692	0.14718	0.25166	-2.3646	-2.7292	-3.3708	-2.7083	-2.8854	-3.0854	-2.2667	-3.5167	-2.8833	-2.6271	-3.3271	-2.5771	-3.1083	-3.3792	-2.5104	-3.3563	-25.165	223.867	226.637	261.066	282.404	-20.248	79.030	212.172	204.029	143.928	163.665	52.017	-71.512	173.138	66.224	172.095	0.00026793	0.00062516	0.00015735	829.36	5.5074e-06	5.4938e-06	599.76	349.06	5.3583e-06	6.3862e-06	299.57	153.54	178.03	106.08	3.4107e-06	95.507	0.0010203	0.001308	0.00036454	810.69	1.3162e-05	1.4334e-05	589.37	344.01	1.3559e-05	1.4462e-05	295.98	152.45	177.42	105.4	1.4228e-05	94.422	171.750	-3.676	-0.686	-63.640	67.243	62.946	-65.019	-57.824	62.033	66.891	-60.541	-57.102	-54.220	-50.226	84.846	-53.984	-8191	255	
1598.727	1	1	0	0	0.11199	0.10953	0.25402	0.16811	0.17111	0.11869	0.20987	0.12877	0.21099	0.098809	0.16264	0.14009	0.10214	0.27874	0.044699	0.19132	-2.4958	-2.5771	-3.2271	-2.6229	-2.8042	-3.2458	-2.4542	-3.1583	-2.7958	-2.3812	-3.4958	-2.5354	-2.8896	-3.5	-2.2875	-3.3688	151.742	95.169	30.495	109.919	101.673	1.570	228.308	261.712	151.198	92.963	272.423	31.255	-57.028	273.896	172.193	198.912	0.00026916	0.00073048	0.00019424	827	3.2178e-06	8.0071e-06	601.05	347.44	4.2214e-06	6.7723e-06	299.83	151.8	176.13	104.79	4.2418e-06	93.95	0.001012	0.0012908	0.00036786	811.5	1.3193e-05	1.4383e-05	590.86	342.88	1.3427e-05	1.4501e-05	295.49	151.54	175.7	104.17	1.4572e-05	93.141	184.816	10.888	2.351	-63.482	104.678	65.535	-64.632	-57.561	57.951	82.628	-60.606	-57.311	-54.264	-50.201	88.796	-53.894	-8191	255	
1598.847	1	1	0	0	0.22326	0.12799	0.16251	0.098474	0.17539	0.24669	0.11782	0.16638	0.1055	0.03489	0.20063	0.24047	0.19884	0.27918	0.27055	0.23267	-2.6479	-2.2646	-3.1083	-2.7208	-2.5646	-3.2896	-2.6875	-3.2125	-2.8958	-2.4896	-3.275	-2.725	-2.7833	-3.4333	-2.3646	-3.2562	26.559	181.280	-46.216	-66.225	27.859	114.466	38.347	161.446	65.932	-28.310	219.481	211.427	265.593	172.896	115.240	236.487	0.00025589	0.00049464	0.00019513	825.55	3.6971e-06	6.2436e-06	594.61	340.56	2.5474e-06	7.8904e-06	291.34	149.13	173.13	103.14	2.472e-06	92.007	0.0010083	0.0013168	0.00036504	807.63	1.346e-05	1.46e-05	584.16	336.67	1.3584e-05	1.4503e-05	288.58	148.16	172.62	102.48	1.3805e-05	91.126	170.967	-4.109	-17.345	-63.551	75.362	81.114	-64.938	-57.621	77.778	81.578	-60.530	-56.763	-54.121	-50.270	66.539	-53.946	-8191	255	
1598.943	1	1	0	0	0.2512	0.086313	0.12503	0.21085	0.17775	0.23204	0.15916	0.24052	0.06051	0.15562	0.27241	0.065032	0.25701	0.12285	0.069581	0.093987	-2.6292	-2.2062	-3.3771	-2.8292	-2.3979	-3.3771	-2.4208	-3.1042	-3.1188	-2.375	-3.3917	-3.0104	-2.7708	-3.4333	-2.5333	-2.9042	254.228	116.787	205.881	154.428	28.671	200.790	89.261	228.034	44.949	167.350	-58.109	-8.696	282.773	189.419	239.651	151.802	0.0002659	0.00068835	0.00019477	816.69	5.4333e-06	6.9756e-06	586.82	337.39	3.8339e-06	7.9449e-06	287.06	146.26	170.45	101.05	4.1324e-06	90.07	0.00098502	0.0012736	0.00035672	799.37	1.3001e-05	1.3745e-05	577.59	332.71	1.2944e-05	1.3879e-05	283.74	145.26	169.48	100.48	1.3881e-05	89.227	182.757	9.307	1.577	-63.392	88.388	85.239	-64.759	-57.577	65.552	94.321	-60.269	-56.938	-54.204	-50.257	85.056	-53.813	-8191	255	
1599.040	1	1	0	0	0.1589	0.088127	0.21704	0.12437	0.088752	0.20247	0.095197	0.11256	0.17659	0.32496	0.094118	0.31244	0.23301	0.16352	0.073553	0.33274	-2.9938	-2.2854	-2.9917	-2.8438	-2.6271	-3.4375	-2.7708	-3.0292	-3.2104	-2.5271	-3.1917	-3.1125	-2.6854	-3.4958	-2.7438	-2.8458	274.056	-34.898	264.191	223.460	195.896	129.743	280.687	-43.850	31.499	24.094	0.789	194.228	-22.835	157.617	1.410	-70.235	0.00025879	0.00069408	0.00022241	809.9	3.8753e-06	1.0866e-05	586.98	333.99	2.4579e-06	7.1016e-06	286.04	145.02	168.63	99.5	2.4226e-06	89.997	0.00096639	0.0012297	0.00034309	793.44	1.223e-05	1.3374e-05	573.88	329.66	1.2503e-05	1.3623e-05	282.37	143.89	167.72	99.371	1.3515e-05	88.971	183.352	2.782	18.828	-63.425	78.633	75.331	-64.685	-57.450	101.469	78.167	-61.019	-56.736	-54.016	-49.919	90.327	-53.980	-8191	255	
1599.136	1	1	0	0	0.11211	0.1327	0.095415	0.19405	0.13208	0.14162	0.261	0.38617	0.10443	0.15282	0.12452	0.10434	0.23152	0.1284	0.19631	0.1857	-3.0521	-2.5292	-3.1437	-3.1771	-2.3875	-3.3229	-2.9062	-2.6208	-3.2583	-2.375	-3.2292	-3.3375	-2.4771	-3.5792	-2.7125	-2.7875	-18.705	-55.173	14.300	213.595	78.782	232.175	191.795	239.306	-17.961	113.996	-74.157	-63.687	279.347	-6.954	141.788	185.639	0.0002931	0.00067916	0.0002042	803.06	1.748e-06	6.7067e-06	583.53	331.25	4.1211e-06	4.5582e-06	285.04	143.69	165.81	97.604	3.3319e-06	87.862	0.0009406	0.0012014	0.00033101	786.42	1.2099e-05	1.3119e-05	571.6	326.47	1.2204e-05	1.291e-05	280.27	142.49	164.77	97.143	1.2636e-05	86.71	184.036	-4.326	8.538	-63.378	52.860	72.035	-64.826	-57.292	50.910	83.651	-60.386	-57.032	-54.176	-50.032	35.615	-53.784	-8191	255	
1599.230	1	1	0	0	0.080923	0.19805	0.042369	0.27516	0.067787	0.20592	0.1117	0.23673	0.21779	0.064834	0.14737	0.089903	0.26422	0.32693	0.090224	0.083574	-2.9083	-2.6583	-3.1292	-3.1875	-2.3937	-3.0958	-2.7417	-2.7188	-3.3167	-2.5375	-2.8604	-3.2875	-2.3625	-3.4	-2.8083	-2.6917	253.990	65.575	227.620	247.522	30.121	206.332	-20.398	150.526	222.692	89.612	54.421	-47.522	-29.859	236.638	188.426	-52.574	0.00026804	0.00051869	0.00014623	795.72	3.699e-06	5.1514e-06	573.48	324.06	3.103e-06	9.375e-06	279.12	139.02	162.24	95.708	5.6748e-06	86.677	0.00090078	0.0011384	0.00031764	777.6	1.1773e-05	1.2427e-05	563.01	320.56	1.168e-05	1.2815e-05	274.5	138.89	161.68	95.248	1.2532e-05	85.728	172.390	29.255	15.182	-63.591	87.192	30.708	-64.989	-57.411	88.576	102.804	-60.536	-56.787	-54.216	-49.887	82.555	-53.758	-8191	255	
1599.326	1	1	0	0	0.17292	0.076478	0.16007	0.20788	0.064847	0.15278	0.23088	0.21439	0.061499	0.087256	0.22611	0.12436	0.25754	0.4694	0.21208	0.20321	-2.9938	-2.5312	-2.7687	-3.4396	-2.2708	-3.2604	-3.0104	-2.5042	-3.45	-2.6375	-2.8896	-3.4042	-2.6688	-3.2396	-3.1583	-2.4833	-49.268	91.584	89.108	232.923	5.911	198.064	106.231	22.348	-41.288	78.169	-64.154	-54.552	-39.573	229.394	54.861	251.905	0.00026343	0.00079178	0.00017717	796.32	3.6068e-06	7.0383e-06	577.94	332.2	3.2873e-06	8.4568e-06	287.18	146.42	169.8	101.24	3.3564e-06	91.622	0.00090332	0.0011402	0.00031908	779.58	1.1702e-05	1.2607e-05	567.38	327.42	1.1868e-05	1.2513e-05	283.59	145.8	169.32	100.76	1.2729e-05	90.828	178.672	12.787	13.088	-63.351	74.059	89.968	-64.967	-57.727	56.323	70.196	-60.737	-56.763	-54.226	-50.089	89.721	-53.907	-8191	255	
1599.422	1	1	0	0	0.15381	0.10993	0.091482	0.212	0.15049	0.026989	0.22072	0.17021	0.21248	0.10148	0.0472	0.24255	0.038076	0.36484	0.14119	0.052607	-2.9354	-2.6896	-2.55	-3.1688	-2.4562	-3.0687	-3.1458	-2.5208	-3.2896	-2.8917	-2.3708	-3.2687	-2.5479	-3.1917	-3.1813	-2.4917	131.346	-39.853	111.499	-63.398	202.070	218.302	193.308	249.459	195.272	64.505	82.468	259.959	32.298	249.057	83.825	3.005	0.00027052	0.00079588	0.00014677	812.88	3.4902e-06	7.6335e-06	594.67	342.55	3.0083e-06	4.9421e-06	297.5	151.05	172.88	102.73	5.8498e-06	93.709	0.00092828	0.0011645	0.00031704	794.99	1.163e-05	1.2375e-05	583.04	337.83	1.1879e-05	1.2535e-05	293.1	150.23	172.49	102.36	1.2459e-05	92.468	172.594	-6.210	16.738	-63.150	45.863	73.931	-64.639	-57.457	40.877	74.371	-60.339	-56.889	-54.419	-50.120	36.219	-54.036	-8191	255	
1599.519	1	1	0	0	0.15233	0.093496	0.073514	0.4073	0.082096	0.13174	0.08465	0.30428	0.23041	0.13688	0.035771	0.13905	0.22974	0.15871	0.12543	0.12671	-2.7562	-2.9083	-2.4646	-3.5021	-2.6083	-2.8937	-3.3375	-2.4021	-3.2646	-2.95	-2.4604	-3.5979	-2.6167	-2.9917	-3.2333	-2.5667	113.089	-13.056	225.847	-71.441	185.042	-46.533	167.522	272.601	270.047	19.011	3.437	248.867	268.462	272.598	170.233	244.316	0.00026306	0.00078262	0.00015466	817.29	2.8462e-06	5.8769e-06	593.03	340.44	3.6823e-06	9.5849e-06	295.52	150.26	172.61	102.63	5.8632e-06	93.323	0.00092021	0.0011398	0.00031861	799.29	1.1517e-05	1.2635e-05	583.5	336.52	1.1811e-05	1.2473e-05	291.88	149.7	172.37	102.27	1.2344e-05	92.303	185.181	14.627	25.903	-63.498	64.544	77.318	-64.814	-57.803	99.331	74.131	-60.884	-57.113	-54.290	-49.941	83.852	-54.193	-8191	255	
1599.639	1	1	0	0	0.13261	0.21285	0.20001	0.36768	0.13782	0.25857	0.18117	0.12005	0.30749	0.34453	0.26493	0.14458	0.21693	0.2299	0.21322	0.26924	-2.8896	-2.9625	-2.425	-3.3854	-2.7958	-2.6354	-3.4375	-2.5771	-3.025	-3.1417	-2.5667	-3.4875	-3.0854	-2.8021	-3.4104	-2.5125	42.370	208.927	1.567	273.874	-33.915	-73.935	225.553	225.592	88.697	103.747	205.790	71.468	-57.659	-38.647	106.102	183.721	0.00024341	0.00097665	0.00015784	811.26	4.6127e-06	9.0024e-06	589.8	340.53	2.8574e-06	6.06e-06	297.41	151.77	174.45	104.04	1.1597e-06	94.228	0.00090105	0.0011235	0.00031895	794.17	1.1572e-05	1.2573e-05	581.67	336.26	1.195e-05	1.2318e-05	293.73	150.66	173.84	103.29	1.2504e-05	93.104	183.971	15.698	17.222	-63.412	49.730	95.959	-64.739	-57.699	12.980	61.354	-60.504	-56.799	-54.381	-50.141	128.279	-54.018	-8191	255	
1599.735	1	1	0	0	0.15021	0.40227	0.041961	0.16996	0.17228	0.20037	0.11118	0.33072	0.17634	0.088827	0.24053	0.12559	0.13646	0.1849	0.24147	0.16499	-2.6271	-3.1979	-2.5271	-3.4729	-2.8083	-2.5312	-3.3125	-2.6562	-3.1521	-3.35	-2.5917	-3.4188	-3.0354	-2.8229	-3.375	-2.7708	-42.349	210.272	98.280	234.993	201.143	245.466	178.051	186.907	192.150	-9.224	272.185	283.887	-70.942	-60.453	247.608	270.897	0.00026246	0.00080228	0.00019986	815.56	4.3467e-06	9.2509e-06	599.19	345.96	4.8896e-06	7.1842e-06	301.64	153.88	175.51	103.54	1.7051e-06	93.358	0.00092882	0.0011659	0.00032502	797.84	1.185e-05	1.2946e-05	587.2	341.34	1.2233e-05	1.2577e-05	297.06	152.46	174.3	103.16	1.2748e-05	92.581	181.566	24.269	6.346	-63.383	76.992	84.438	-64.836	-57.653	80.431	82.400	-60.639	-56.750	-54.263	-50.219	64.444	-53.881	-8191	255	
1599.832	1	1	0	0	0.080882	0.18995	0.12251	0.16889	0.072197	0.16603	0.043735	0.13228	0.035327	0.21047	0.089683	0.4239	0.057103	0.29369	0.17396	0.27194	-2.6271	-3.4688	-2.6521	-3.3667	-2.9562	-2.5833	-3.4125	-2.8208	-2.7792	-3.2979	-2.3292	-3.15	-3.275	-2.8479	-3.1979	-2.7396	-19.726	-67.837	245.842	223.970	47.077	98.450	-66.957	-72.612	248.863	104.290	143.677	275.284	255.630	-68.421	92.675	234.031	0.00029383	0.00087486	0.00017192	817.66	5.381e-06	6.8906e-06	593.25	339.18	4.9627e-06	6.0945e-06	292.01	147.95	170.72	101.38	4.0545e-06	91.148	0.00092794	0.0011322	0.00032145	798.02	1.171e-05	1.2794e-05	582.29	334.6	1.1893e-05	1.2395e-05	288.15	147.66	169.99	100.9	1.2375e-05	90.454	178.544	1.530	15.530	-63.245	69.843	55.538	-64.550	-57.590	56.595	67.108	-60.499	-56.469	-54.333	-50.076	67.998	-53.851	-8191	255	
1599.928	1	1	0	0	0.14676	0.036347	0.22214	0.23914	0.10557	0.14053	0.072853	0.31912	0.12383	0.040075	0.11878	0.18256	0.1013	0.041846	0.19208	0.10212	-2.3708	-3.2729	-2.4396	-3.0875	-3.0563	-2.4562	-3.3812	-2.9188	-2.6625	-3.4938	-2.6167	-3.0708	-3.2708	-2.6833	-3.3688	-2.9125	273.181	-10.143	233.912	275.715	277.216	62.233	-10.219	283.342	234.046	-19.086	235.596	21.283	75.149	161.990	138.373	240.443	0.0002742	0.00049008	0.00014006	807.67	3.7796e-06	8.2508e-06	579.23	333.98	5.2551e-06	7.0696e-06	290.46	146.93	169.47	100.31	3.3332e-06	90.616	0.00090004	0.0010984	0.00031574	787.54	1.1257e-05	1.2467e-05	571.07	329.29	1.1513e-05	1.1594e-05	285.83	146.21	168.44	99.834	1.1982e-05	89.561	185.116	26.140	20.687	-63.208	97.667	64.145	-64.823	-57.597	63.203	74.890	-60.601	-56.919	-54.209	-50.031	63.626	-53.858	-8191	255	
1600.024	1	1	0	0	0.096537	0.16162	0.40435	0.20193	0.19389	0.2271	0.088806	0.21928	0.23542	0.039916	0.31734	0.23578	0.40246	0.13462	0.16422	0.26912	-2.3875	-3.4208	-2.375	-3.1021	-3.5	-2.5854	-3.4292	-2.9042	-2.6854	-3.5208	-2.4729	-2.9104	-3.4208	-2.6229	-3.0229	-3.3146	283.529	5.121	210.097	185.560	73.093	225.452	21.814	206.019	66.512	-49.886	-73.540	60.570	250.445	259.468	-4.639	176.051	0.00026734	0.00082421	0.00026592	803.89	4.6674e-06	7.2664e-06	585.69	331.81	2.706e-06	5.8007e-06	288.89	145.2	168.23	98.994	4.3272e-06	90.224	0.00089075	0.0010865	0.00030422	783.81	1.1098e-05	1.2002e-05	573.05	327.77	1.1606e-05	1.18e-05	284.28	144.83	166.83	98.596	1.1897e-05	89.452	177.235	-28.515	-6.594	-63.053	72.063	65.179	-64.966	-57.578	71.842	71.945	-60.609	-56.739	-54.187	-49.959	74.183	-53.767	-8191	255	
1600.120	1	1	0	0	0.13386	0.088367	0.24709	0.12835	0.0999	0.10038	0.15033	0.2208	0.11952	0.20548	0.39325	0.13152	0.39441	0.15501	0.26617	0.065223	-2.225	-3.1875	-2.5646	-2.7708	-3.3521	-2.5062	-3.15	-3.1646	-2.4375	-3.3688	-2.7375	-2.7708	-3.3771	-2.6354	-3.0208	-3.275	242.158	195.080	163.844	220.215	50.967	168.852	273.019	165.295	135.118	77.361	175.659	-24.746	227.140	228.126	14.563	151.576	0.00023762	0.0008178	0.00017537	801.54	4.526e-06	7.7625e-06	584.56	334.78	2.9822e-06	4.8076e-06	293.08	149.09	170.74	101.72	5.0505e-06	92.619	0.00088193	0.0010764	0.00031008	782.76	1.1037e-05	1.212e-05	575.5	330.36	1.16e-05	1.2199e-05	288.54	147.94	169.76	101.06	1.2515e-05	91.526	177.936	8.533	11.326	-63.417	65.656	81.134	-64.856	-57.751	53.566	90.454	-60.280	-56.533	-54.163	-50.036	51.872	-54.083	-8191	255	
1600.216	1	1	0	0	0.1047	0.12143	0.19919	0.1767	0.14406	0.10694	0.28218	0.12408	0.24271	0.14005	0.15998	0.21718	0.13252	0.22066	0.11734	0.094993	-2.1083	-3.3083	-2.7646	-2.4896	-3.3563	-2.4875	-3.0917	-3.2896	-2.4583	-3.2812	-3.0167	-2.5187	-3.3208	-2.5875	-2.8521	-3.3438	113.966	169.314	107.807	204.367	129.545	234.068	239.345	278.728	42.486	273.436	176.629	32.703	-42.541	214.320	-37.961	152.934	0.00027272	0.00081928	0.00019411	807.71	3.2483e-06	8.4284e-06	592.78	340.6	4.1224e-06	8.8461e-06	296.39	150.85	174	103.45	3.5729e-06	93.421	0.00090073	0.0011138	0.00031969	790.96	1.1191e-05	1.2727e-05	580.09	336.3	1.2116e-05	1.2903e-05	291.94	150.63	173.56	103.3	1.2811e-05	92.407	177.416	2.098	22.513	-62.932	122.654	78.536	-64.335	-57.586	36.268	105.177	-60.657	-56.764	-54.263	-50.098	110.189	-53.728	-8191	255	
1600.335	1	1	0	0	0.31403	0.067335	0.2846	0.11089	0.12882	0.19521	0.1713	0.076816	0.22474	0.20553	0.091717	0.19401	0.36822	0.17841	0.089248	0.16524	-2.1167	-3.2875	-2.8104	-2.6063	-3.4021	-2.6458	-2.8917	-3.3042	-2.4146	-3.1521	-2.9708	-2.6562	-3.5271	-2.6813	-2.7625	-3.4437	150.494	145.817	172.025	217.015	129.144	-2.325	64.611	220.622	134.963	215.180	18.287	237.101	231.430	-38.189	189.060	241.711	0.00027157	0.00039736	0.00021422	810.86	3.6435e-06	5.3612e-06	591.65	341.09	2.4763e-06	7.2079e-06	298.55	152.63	175.32	104.17	3.962e-06	93.882	0.00091547	0.0011632	0.00032021	792.93	1.1934e-05	1.3094e-05	579.77	336.42	1.2226e-05	1.2846e-05	293.68	151.46	174.26	103.57	1.2794e-05	93.123	173.216	-12.045	16.157	-63.042	67.717	80.446	-64.488	-57.741	54.456	76.144	-60.409	-57.024	-54.228	-50.255	86.972	-53.987	-8191	255	
1600.431	1	1	0	0	0.045085	0.14247	0.17181	0.19614	0.17524	0.18559	0.20755	0.21452	0.23414	0.24284	0.057861	0.13185	0.25692	0.020303	0.31365	0.25205	-2.0458	-3.1167	-2.9896	-2.3958	-3.3688	-2.7062	-2.6771	-3.4688	-2.5187	-3.2521	-3.2875	-2.6167	-3.475	-2.9437	-2.6146	-3.3896	46.055	37.446	-36.850	-4.160	169.096	27.183	182.667	226.652	251.577	263.412	81.810	179.393	-52.809	284.241	179.393	275.526	0.00029928	0.00072402	0.00022113	812.65	5.3446e-06	7.241e-06	597.49	341.46	3.1911e-06	7.7778e-06	298.37	151.71	174.76	103.58	5.4859e-06	94.21	0.00093696	0.0011735	0.00032966	795.42	1.1925e-05	1.2966e-05	585.36	337.13	1.2217e-05	1.3022e-05	293.48	150.73	173.78	103.24	1.3056e-05	93.24	179.396	26.812	8.059	-63.558	35.928	41.277	-65.013	-57.699	70.990	74.478	-60.706	-57.262	-54.283	-50.197	74.650	-53.890	-8191	255	
1600.527	1	1	0	0	0.18158	0.093232	0.063322	0.12272	0.080363	0.18887	0.031894	0.28729	0.17578	0.18906	0.16536	0.16984	0.11213	0.23641	0.12005	0.16359	-2.1188	-2.9188	-3.0438	-2.425	-3.2521	-2.7104	-2.6146	-3.325	-2.6104	-2.9521	-3.2167	-2.5812	-3.3708	-3.1937	-2.6396	-3.3896	65.439	141.698	-70.206	5.339	95.818	240.709	132.177	269.725	145.111	80.877	135.803	-47.210	249.172	270.936	93.117	248.490	0.00027379	0.0006296	0.00012718	814.1	4.5168e-06	4.8708e-06	591.3	339.73	5.4628e-06	3.2034e-06	296.65	149.57	172.98	102.55	6.4002e-06	92.469	0.00094495	0.0011317	0.00032157	794.57	1.1545e-05	1.2964e-05	581.42	335.52	1.1833e-05	1.2446e-05	291.08	149.27	171.85	102.11	1.2318e-05	91.59	179.987	2.226	1.224	-63.400	71.231	72.571	-64.830	-57.469	63.320	81.716	-60.374	-56.878	-54.660	-50.471	65.593	-54.024	-8191	255	
1600.623	1	1	0	0	0.25673	0.27185	0.12274	0.017325	0.32977	0.10051	0.20642	0.17696	0.14828	0.01896	0.057468	0.27101	0.24178	0.28114	0.26276	0.073713	-2.2604	-2.8771	-3.2375	-2.6063	-3.1771	-2.9708	-2.4271	-3.4875	-2.6125	-2.7938	-3.2583	-2.5521	-3.2646	-3.1729	-2.4813	-3.3833	241.462	85.730	255.089	3.537	216.314	126.011	176.777	-34.279	253.072	7.023	-3.863	128.025	253.487	280.518	52.042	-64.098	0.00028219	0.0007339	0.00019879	803.08	3.5344e-06	8.6094e-06	586.39	333.63	4.4392e-06	8.8288e-06	288.81	147.31	170.12	101.01	4.549e-06	91.789	0.00091498	0.0010982	0.00030831	783.75	1.1137e-05	1.2317e-05	574.53	329.67	1.1714e-05	1.2044e-05	285.76	146.4	169.2	100.53	1.2159e-05	90.842	178.635	-6.618	21.201	-63.451	60.668	85.340	-64.904	-57.603	88.309	83.100	-60.463	-56.889	-54.192	-50.142	74.352	-53.663	-8191	255	
1600.720	1	1	0	0	0.093317	0.34185	0.17311	0.15924	0.17832	0.11283	0.23732	0.088137	0.15668	0.14141	0.058462	0.17529	0.034369	0.18036	0.39103	0.13069	-2.2646	-2.6896	-3.3729	-2.6417	-3.2354	-3.2292	-2.7083	-3.4625	-2.8354	-2.5187	-3.4667	-2.7562	-3.275	-3.5396	-2.5083	-3.4813	56.949	210.224	229.893	232.512	26.874	174.810	175.293	73.364	118.771	-44.882	99.248	256.401	-15.132	201.694	174.009	253.542	0.00029035	0.0007846	0.00020172	803.18	4.4713e-06	8.1131e-06	587.79	341.92	3.0878e-06	6.9591e-06	301.58	154.4	176.62	104.72	3.5074e-06	96.042	0.00090134	0.0011104	0.00029892	784.55	1.1088e-05	1.21e-05	578.9	336.48	1.1281e-05	1.2203e-05	296.86	153.32	175.34	104.2	1.1929e-05	94.943	179.283	4.280	19.012	-63.074	92.984	74.868	-64.669	-57.554	68.816	74.548	-60.787	-56.949	-53.939	-50.090	51.997	-53.854	-8191	255	
1600.816	1	1	0	0	0.38693	0.22025	0.18152	0.42466	0.096879	0.25392	0.24025	0.19256	0.034456	0.25922	0.080076	0.019894	0.37899	0.24397	0.45682	0.19676	-2.4458	-2.6417	-3.2604	-2.6708	-3.0083	-3.3187	-2.4646	-3.3104	-2.8896	-2.5708	-3.2771	-2.7646	-2.7542	-3.3937	-2.5062	-3.2042	-12.383	48.218	-71.781	260.769	132.951	5.115	-44.315	130.996	267.891	67.414	-6.134	155.679	269.543	-74.689	135.110	281.763	0.00030016	0.00070469	0.00022628	812.68	2.7972e-06	7.0106e-06	603.64	347.24	3.077e-06	6.9535e-06	308.37	157.96	178.43	105.66	4.0817e-06	97.305	0.00087978	0.0010955	0.00029747	794.63	1.1055e-05	1.1816e-05	593.2	343.15	1.1248e-05	1.2032e-05	304.23	156.38	177.36	105.04	1.2144e-05	96.074	176.697	2.968	14.040	-63.204	86.408	62.906	-64.297	-57.269	42.609	95.218	-60.016	-56.680	-53.987	-49.899	80.457	-53.679	-8191	255	
1600.936	1	1	0	0	0.16025	0.27423	0.067163	0.29636	0.040914	0.28225	0.21719	0.16598	0.14206	0.12689	0.23835	0.21163	0.1518	0.15619	0.10891	0.062698	-2.5854	-2.375	-3.4146	-2.725	-2.8229	-3.2479	-2.5646	-3.2604	-3.0062	-2.4604	-3.5417	-2.8354	-2.9146	-3.6333	-2.3333	-3.275	87.728	231.620	17.527	-70.158	71.920	47.597	195.668	153.130	104.355	91.425	-36.088	254.044	171.638	259.453	-9.513	184.707	0.00026449	0.0011228	0.00017052	817.23	2.9377e-06	8.2005e-06	600.56	347.58	2.6397e-06	6.7224e-06	305.2	155	176.34	104.82	3.3264e-06	96.171	0.00090061	0.0011282	0.00030254	797.9	1.1291e-05	1.2206e-05	590.51	342.09	1.1579e-05	1.2314e-05	300.7	154.21	175.82	104.37	1.2328e-05	94.912	176.417	0.035	26.294	-63.104	69.645	62.186	-64.276	-57.460	43.236	86.354	-59.773	-56.666	-53.681	-49.743	29.407	-53.541	-8191	255	
1601.031	1	1	0	0	0.0855	0.05704	0.074825	0.24615	0.1016	0.12705	0.13651	0.21111	0.31092	0.22921	0.095303	0.19863	0.25309	0.38172	0.13813	0.25333	-2.6979	-2.45	-3.1813	-2.6146	-2.4688	-3.35	-2.6854	-3.0833	-3.2104	-2.2667	-3.4667	-2.9813	-2.6146	-3.5146	-2.5438	-3	229.615	29.965	-54.170	215.663	140.304	250.421	157.509	171.013	16.420	-33.447	-37.671	278.553	263.400	253.707	147.419	249.313	0.00025636	0.0005748	0.00015601	812.53	2.4029e-06	7.8582e-06	596.6	342.37	4.7479e-06	9.1393e-06	301.32	152.63	174.56	104.08	2.7647e-06	94.603	0.0009096	0.0011055	0.00031066	794.69	1.1248e-05	1.2298e-05	586.5	337.69	1.1751e-05	1.2273e-05	295.39	151.87	173.56	103.4	1.2338e-05	93.5	179.614	-25.347	-2.034	-63.350	63.253	75.388	-64.853	-57.556	59.507	87.327	-60.641	-56.683	-54.285	-49.909	28.251	-53.758	-8191	255	
1601.104	1	1	0	0	0.22578	0.14053	0.079231	0.15771	0.13549	0.12524	0.2135	0.10144	0.1332	0.10377	0.32148	0.30827	0.21458	0.2139	0.090997	0.11445	-2.7042	-2.4104	-3.2542	-3.05	-2.6146	-3.3708	-2.6542	-2.8875	-3.2167	-2.5271	-3.2917	-3.0521	-2.7313	-3.5812	-2.7583	-2.9521	-45.947	-28.587	78.390	226.969	98.287	-34.187	167.228	141.525	59.384	20.346	248.106	-71.178	249.503	-64.024	-7.520	248.975	0.0002649	0.00066182	0.00021369	806.92	5.1153e-06	4.7787e-06	593.16	339.56	5.2751e-06	7.1517e-06	302.77	154.67	174.95	104.42	3.2598e-06	95.876	0.00090322	0.0011086	0.0003077	789.17	1.1385e-05	1.1881e-05	584.15	336.16	1.1332e-05	1.1853e-05	297.44	153.34	174.13	103.91	1.1938e-05	95.033	175.473	4.324	20.736	-63.047	64.148	105.635	-64.979	-57.398	61.019	100.153	-60.464	-56.810	-54.101	-50.057	81.745	-53.566	-8191	255	
1601.200	1	1	0	0	0.13312	0.11433	0.051272	0.088387	0.056988	0.065104	0.16785	0.11424	0.16978	0.12006	0.14926	0.16565	0.21555	0.20849	0.10203	0.066383	-2.9729	-2.2938	-3.0479	-3.0479	-2.3917	-3.3063	-2.9021	-2.7771	-3.3604	-2.5146	-3.1125	-3.2333	-2.6229	-3.4917	-2.9688	-2.6583	280.507	194.225	195.510	276.867	36.846	143.440	187.901	89.042	90.773	238.333	2.263	218.076	205.275	262.219	139.646	240.816	0.00027328	0.00052701	0.00013989	815.46	7.2084e-06	6.8527e-06	597.51	344.2	3.2241e-06	1.0116e-05	303.37	153.87	176.77	106.05	5.9848e-06	96.918	0.00087736	0.0010897	0.00030239	795.17	1.1167e-05	1.166e-05	587.71	339.39	1.144e-05	1.2355e-05	299.02	153.84	176.35	105.57	1.1992e-05	95.853	185.209	7.372	6.882	-63.422	91.627	60.306	-64.578	-57.755	39.408	85.887	-60.699	-56.781	-54.440	-50.299	90.522	-53.949	-8191	255	
1601.319	1	1	0	0	0.079318	0.095748	0.25076	0.11761	0.24241	0.2131	0.26625	0.2982	0.23286	0.098835	0.20483	0.22579	0.18606	0.3308	0.21381	0.12117	-3.1437	-2.6146	-2.9375	-3.3875	-2.4167	-3.325	-2.9313	-2.6458	-3.4771	-2.5396	-2.9646	-3.2583	-2.4458	-3.4771	-2.8125	-2.6583	-20.708	205.101	172.564	206.897	260.484	155.707	200.742	175.189	90.908	42.938	-21.752	6.529	-19.877	276.878	258.994	-5.245	0.00027436	0.00049123	0.00024292	816.16	3.9816e-06	6.154e-06	599.73	343.74	2.4033e-06	7.1422e-06	302.31	154.71	175.48	105.06	3.537e-06	94.969	0.0008832	0.0010829	0.00029863	797.35	1.0913e-05	1.1934e-05	589.43	340.16	1.1305e-05	1.2277e-05	298.12	153.56	174.95	104.32	1.2199e-05	94.211	184.119	-11.459	9.773	-63.358	63.198	57.051	-64.937	-57.689	89.365	93.985	-60.411	-56.813	-54.320	-50.287	76.854	-53.879	-8191	255	
1601.415	1	1	0	0	0.14314	0.18698	0.27092	0.17971	0.16708	0.097415	0.029183	0.224	0.25912	0.19348	0.13033	0.28602	0.10729	0.23033	0.22584	0.36121	-2.8604	-2.6896	-2.9646	-3.4104	-2.4333	-3.0583	-2.9708	-2.6646	-3.3354	-2.7417	-2.85	-3.4562	-2.5208	-3.3729	-3.1729	-2.525	261.459	153.937	158.828	163.971	217.967	158.955	171.884	-66.497	64.331	13.746	12.924	42.709	145.379	-60.699	75.023	226.908	0.00026413	0.00065362	0.00027272	807.21	3.4016e-06	7.7808e-06	597.21	340.6	4.3517e-06	4.5446e-06	297.5	150.45	172.33	103.08	3.1976e-06	94.265	0.00088068	0.0010929	0.00030701	789.75	1.1325e-05	1.2089e-05	584.58	335.85	1.1581e-05	1.1989e-05	293.93	150.41	171.77	102.68	1.2002e-05	93.277	181.404	0.460	51.008	-63.307	75.747	77.737	-64.444	-57.804	100.628	90.069	-60.532	-56.744	-54.481	-50.176	45.227	-53.941	-8191	255	
1601.512	1	1	0	0	0.17413	0.13007	0.22269	0.092588	0.16572	0.25795	0.056053	0.17004	0.098406	0.25834	0.09336	0.22742	0.098752	0.041101	0.082907	0.22576	-3.1	-2.8417	-2.6521	-3.5563	-2.5062	-2.9479	-3.3542	-2.5958	-3.1	-2.8917	-2.5917	-3.3104	-2.7938	-3.0687	-3.3625	-2.6542	268.483	265.774	67.216	-19.025	106.985	-25.928	263.320	-73.993	90.713	32.612	228.320	175.246	-7.824	220.612	-52.356	264.168	0.00028822	0.00082673	0.0001494	808.9	4.2393e-06	7.472e-06	598.67	338.22	4.9642e-06	7.668e-06	300.38	151.83	172.1	102.68	4.2972e-06	94.215	0.00088902	0.0010971	0.00030608	790.97	1.1026e-05	1.1444e-05	585.99	334.02	1.1327e-05	1.1663e-05	295.13	151.12	171.5	102.29	1.1636e-05	93.219	173.997	10.551	15.550	-63.255	71.435	72.902	-64.724	-57.680	93.024	102.831	-60.343	-57.016	-54.422	-50.181	70.411	-53.799	-8191	255	
1601.608	1	1	0	0	0.33775	0.31744	0.1979	0.33126	0.20632	0.15075	0.18296	0.2225	0.063692	0.19138	0.11294	0.16844	0.24012	0.24707	0.056535	0.054607	-2.7917	-2.7854	-2.5542	-3.5021	-2.2854	-2.9208	-3.2875	-2.6125	-3.0646	-3.0687	-2.4792	-3.3854	-2.5833	-2.9333	-3.2042	-2.4521	183.582	-2.389	-22.947	248.587	179.559	-71.902	-57.220	273.026	108.378	104.432	214.709	196.861	-30.216	246.378	282.502	237.592	0.00026018	0.00048773	9.5101e-05	803.12	4.5444e-06	1.016e-05	592.01	338.7	2.4676e-06	7.3918e-06	299.91	151.26	172.12	102.96	2.3196e-06	94.517	0.00084142	0.0010387	0.00028787	785.43	1.0713e-05	1.1367e-05	581.26	333.42	1.0714e-05	1.1172e-05	294.05	150.27	171.17	102.29	1.1341e-05	93.467	180.543	8.293	18.065	-63.167	78.190	52.095	-64.651	-57.542	84.781	81.106	-60.437	-56.926	-54.338	-50.050	75.528	-53.762	-8191	255	
1601.728	1	1	0	0	0.19772	0.13886	0.14176	0.25713	0.25161	0.079471	0.27679	0.052412	0.052726	0.10228	0.085591	0.37375	0.17347	0.091131	0.17281	0.15807	-2.8458	-3.0271	-2.4417	-3.5104	-2.7375	-2.7542	-3.4729	-2.4958	-3.2313	-3.0542	-2.5521	-3.4167	-2.9562	-3.1312	-3.2833	-2.6833	37.326	-12.804	236.535	206.739	185.895	-71.259	254.420	261.245	257.182	-75.523	1.164	220.849	283.897	258.253	91.114	104.232	0.00028451	0.00037782	0.00012842	810.68	5.7242e-06	5.4652e-06	599.79	345.55	3.8778e-06	6.3181e-06	304.73	156.18	175.83	105.15	2.8917e-06	96.747	0.00084032	0.0010127	0.00028741	792.42	1.0516e-05	1.1317e-05	588.42	339.12	1.0883e-05	1.1369e-05	299.98	154.55	175.04	104.84	1.1481e-05	95.99	173.583	-43.644	15.516	-63.282	88.463	90.982	-64.581	-57.608	71.280	82.030	-60.431	-56.890	-54.106	-49.956	74.559	-53.996	-8191	255	
1601.800	1	1	0	0	0.030277	0.11356	0.31687	0.13582	0.24996	0.27436	0.077233	0.085694	0.21222	0.075513	0.13164	0.17552	0.19679	0.3046	0.057128	0.12991	-2.775	-3.2188	-2.45	-3.4375	-2.9437	-2.8375	-3.4313	-2.6667	-3.0354	-3.1854	-2.5375	-3.3563	-2.9	-2.7792	-3.4646	-2.7646	123.645	143.395	208.696	-25.699	117.264	172.374	166.513	247.217	-6.404	155.535	226.726	158.403	239.450	247.456	-12.432	268.339	0.00029119	0.00056658	0.00020841	811.31	2.1555e-06	6.1609e-06	604.26	342.81	8.8978e-07	5.267e-06	302.72	153.65	174.27	104.25	3.5448e-06	95.176	0.00086362	0.0010342	0.00029884	796.73	1.0912e-05	1.1967e-05	592.51	338.45	1.1032e-05	1.1619e-05	298.47	152.84	173.21	103.51	1.1687e-05	94.324	180.788	19.129	12.670	-63.000	55.925	105.387	-64.907	-57.406	61.152	77.647	-60.600	-56.847	-54.497	-50.226	115.268	-53.883	-8191	255	
1601.896	1	1	0	0	0.32038	0.047035	0.13104	0.09917	0.25121	0.12792	0.19462	0.3777	0.17579	0.10855	0.16462	0.21071	0.33275	0.32352	0.20419	0.28087	-2.6646	-3.2479	-2.3771	-3.2896	-2.875	-2.6458	-3.4333	-2.7812	-2.7708	-3.3563	-2.4854	-3.3229	-2.9062	-2.6813	-3.4292	-2.7646	-0.689	79.642	133.987	229.299	-36.426	136.204	-67.547	231.007	-57.516	218.855	223.202	170.182	184.789	219.370	163.659	230.838	0.0002959	0.00053561	0.00020414	816.49	6.2433e-06	5.568e-06	598.45	337.72	4.2228e-06	8.9857e-06	296.94	150.21	170.35	101.39	1.9347e-06	92.589	0.00087188	0.0010269	0.00029997	796.01	1.0584e-05	1.2042e-05	586.21	332.81	1.1082e-05	1.1467e-05	291.44	149	169.27	100.91	1.1082e-05	91.619	177.367	22.020	15.413	-63.251	55.830	72.110	-64.563	-57.461	70.277	65.132	-60.517	-56.498	-54.382	-49.915	49.435	-53.802	-8191	255	
1602.017	1	1	0	0	0.14565	0.12761	0.10346	0.18342	0.088131	0.075964	0.21495	0.12319	0.16521	0.21906	0.085731	0.18338	0.12148	0.53973	0.12632	0.04843	-2.5458	-3.3688	-2.55	-3.3708	-2.9667	-2.4479	-3.2708	-2.7167	-2.7833	-3.4542	-2.5667	-3.1667	-3.1708	-2.5917	-3.3375	-3.025	275.659	10.271	246.441	185.701	81.060	-35.504	222.195	180.830	166.411	69.851	160.238	278.761	13.501	278.896	148.321	208.586	0.00029648	0.00095595	0.00016496	805.98	3.4067e-06	5.6859e-06	589.16	334.11	2.6536e-06	7.2112e-06	292.77	146.53	167.85	99.543	5.0183e-06	91.334	0.00084917	0.0010304	0.00028944	786.29	1.0495e-05	1.1272e-05	580.39	328.96	1.0656e-05	1.1126e-05	288.02	146.33	166.78	99.234	1.1104e-05	90.432	175.609	8.387	10.456	-62.962	41.666	75.370	-64.690	-57.600	71.868	92.225	-60.439	-56.569	-54.455	-49.904	92.208	-53.772	-8191	255	
1602.111	1	1	0	0	0.17392	0.081588	0.10867	0.28448	0.3578	0.18442	0.17231	0.17024	0.29641	0.35124	0.12644	0.31961	0.24457	0.3333	0.28678	0.11898	-2.0604	-3.3208	-2.3021	-3.0708	-3.1542	-2.3396	-3.1312	-2.9	-2.3792	-3.1417	-2.8167	-2.8479	-3.3375	-2.6396	-3.0792	-3.0271	190.052	93.052	197.983	248.904	177.263	-61.339	225.905	276.900	-27.066	197.053	123.311	193.598	259.554	243.658	280.990	212.845	0.00026441	0.00087077	0.00015158	796.44	5.281e-06	5.2615e-06	592.25	331.31	3.7346e-06	7.3413e-06	293.57	147.75	166.42	98.657	5.2482e-06	91.082	0.00083929	0.00098506	0.00028192	780.58	1.022e-05	1.1236e-05	578.6	327.2	1.0491e-05	1.0976e-05	288.8	146.53	165.67	98.286	1.1072e-05	90.121	175.096	15.822	28.689	-63.440	46.349	65.726	-65.005	-58.131	59.206	89.429	-61.221	-57.341	-54.927	-50.524	42.802	-54.613	-8191	255	
1602.209	1	1	0	0	0.41255	0.15604	0.1537	0.30259	0.1714	0.15586	0.2141	0.2926	0.13685	0.21244	0.089851	0.18955	0.24885	0.64381	0.22282	0.15931	-2.2021	-3.3875	-2.6958	-2.9604	-3.175	-2.4604	-3.25	-3.1063	-2.5563	-3.2604	-2.575	-2.7375	-3.4958	-2.5771	-3.0729	-3.1688	245.009	175.508	-52.895	239.902	217.709	233.078	238.507	275.835	169.792	172.677	119.755	-59.408	-69.485	235.091	240.622	273.605	0.00023986	0.00075609	0.0001324	801.56	4.7045e-06	6.4948e-06	591.31	329.42	3.6488e-06	6.2174e-06	290.28	145.65	165.39	98.311	3.9146e-06	91.258	0.00082465	0.0010067	0.00027842	782.7	1.0311e-05	1.1306e-05	580.23	325.4	1.0793e-05	1.0994e-05	286.34	145.18	164.73	97.834	1.0954e-05	90.133	181.855	11.411	-0.004	-63.479	60.155	66.970	-65.241	-58.113	62.362	124.302	-60.689	-57.508	-54.764	-50.599	76.107	-54.386	-8191	255	
1602.328	1	1	0	0	0.25329	0.10296	0.25223	0.19529	0.19914	0.10039	0.1083	0.24717	0.21255	0.089479	0.25065	0.20916	0.16358	0.29176	0.13215	0.26043	-1.9188	-3.2208	-2.7438	-2.7292	-3.3563	-2.5438	-3.0604	-3.1667	-2.4979	-3.3958	-2.8187	-2.65	-3.4021	-2.7021	-2.9833	-3.3083	241.856	170.945	-44.483	264.103	238.206	98.095	231.073	269.534	27.457	270.535	136.262	253.349	224.757	199.827	51.108	253.671	0.00028839	0.00090411	0.0002343	802.64	4.8479e-06	5.7761e-06	591.55	331.01	3.7759e-06	7.2447e-06	288.39	145.25	165.3	97.909	3.5681e-06	89.547	0.00084091	0.00097792	0.00028277	780.98	1.0264e-05	1.1294e-05	577.09	326.59	1.0594e-05	1.1097e-05	283.95	144.21	164.25	97.43	1.1309e-05	88.633	178.953	5.050	-1.668	-63.649	76.980	68.467	-65.413	-58.078	12.665	91.823	-60.933	-57.152	-54.636	-50.625	76.452	-54.733	-8191	255	
1602.400	1	1	0	0	0.27923	0.092811	0.16413	0.20916	0.16416	0.13492	0.030001	0.45953	0.11207	0.2322	0.25231	0.087114	0.20193	0.081434	0.21599	0.35997	-2.0938	-3.2604	-2.8417	-2.5625	-3.3688	-2.6104	-3.0104	-3.3021	-2.3771	-3.3396	-3.0917	-2.4854	-3.5146	-2.7979	-2.6688	-3.3812	141.564	8.328	160.611	226.306	17.838	170.829	51.227	205.125	55.587	252.214	264.397	23.446	246.821	176.558	90.298	238.029	0.00025989	0.00071813	0.00013091	789.3	4.128e-06	4.6189e-06	583.14	323.07	3.4865e-06	6.8034e-06	280.01	139.21	159.67	93.878	5.6073e-06	85.613	0.00084538	0.0010148	0.00028547	773.19	1.0319e-05	1.1253e-05	571.05	318.92	1.0888e-05	1.1149e-05	277.04	138.89	158.77	93.701	1.1328e-05	84.866	183.150	35.438	11.331	-63.810	87.560	32.661	-65.358	-58.077	61.440	81.075	-61.260	-57.126	-54.713	-50.346	20.912	-54.081	-8191	255	
1602.496	1	1	0	0	0.096938	0.28785	0.14655	0.13876	0.40137	0.27817	0.22053	0.20581	0.085964	0.028163	0.12118	0.24138	0.16393	0.27982	0.18983	0.18907	-1.8229	-3.0625	-2.8937	-2.4979	-3.2833	-2.5667	-2.7792	-3.5042	-2.4083	-3.0104	-3.2542	-2.4021	-3.3396	-2.6437	-2.6208	-3.5146	135.061	170.158	-51.876	223.005	5.339	-26.657	236.719	-65.746	51.588	282.588	216.584	202.120	223.146	231.282	1.780	-28.706	0.00026832	0.00071219	0.00013214	784.84	2.6314e-06	8.255e-06	574.27	317.31	2.5625e-06	9.4606e-06	275.71	137.09	157.17	92.806	5.0061e-06	84.54	0.00083323	0.0010154	0.00027859	766.28	1.0003e-05	1.1197e-05	563.21	313.53	1.0553e-05	1.1242e-05	272.51	136.56	156	92.188	1.1013e-05	83.594	179.601	-3.706	-7.493	-64.010	68.958	81.921	-65.385	-57.984	59.469	61.106	-61.063	-57.425	-54.806	-50.485	53.621	-54.258	-8191	255	
1602.616	1	1	0	0	0.092304	0.20905	0.12098	0.16971	0.099074	0.10637	0.096076	0.18869	0.22556	0.12348	0.11804	0.12371	0.088189	0.27201	0.24824	0.32035	-1.9104	-3.0312	-3.0625	-2.5417	-3.2167	-2.7146	-2.7167	-3.35	-2.2521	-3	-3.3042	-2.4625	-3.325	-2.925	-2.5625	-3.55	69.842	98.562	151.756	-70.189	158.576	27.340	9.732	167.761	-42.773	-16.571	272.379	264.213	196.264	-75.556	117.392	198.626	0.00025612	0.00062054	0.00021295	777.99	3.2967e-06	5.9713e-06	565.22	316.84	2.8249e-06	4.6399e-06	276.44	137.97	158.63	94.514	1.8526e-06	85.761	0.00081181	0.00098059	0.0002754	759.1	1.0146e-05	1.09e-05	555.42	312.2	1.052e-05	1.1047e-05	271.27	137.1	157.91	93.915	1.1003e-05	84.781	186.261	8.574	7.363	-63.919	61.447	53.229	-65.139	-58.105	73.225	72.740	-61.204	-57.458	-55.021	-50.867	77.394	-54.289	-8191	255	
1602.713	1	1	0	0	0.26911	0.22222	0.1629	0.12857	0.070416	0.35432	0.40079	0.2601	0.25285	0.056668	0.096142	0.16423	0.15732	0.22927	0.060152	0.0685	-2.2833	-2.9813	-3.0479	-2.6292	-3	-2.7938	-2.4313	-3.2625	-2.5208	-2.7896	-3.3312	-2.4	-3.1771	-3.1167	-2.3125	-3.2896	92.021	226.842	16.418	-34.287	-65.185	-68.063	-9.680	186.026	64.258	108.119	201.421	-74.552	241.816	268.476	62.957	188.778	0.00028949	0.00094809	0.00020861	783.63	1.9263e-06	6.7369e-06	571.06	322.22	2.5019e-06	6.6061e-06	281.72	142.26	163.38	98.037	6.8762e-06	89.037	0.00080074	0.00099622	0.00027381	762.88	1.0048e-05	1.0686e-05	561.11	318.62	1.0506e-05	1.0877e-05	277.7	141.27	162.92	97.249	1.1063e-05	88.07	178.433	6.468	8.961	-64.238	85.880	72.346	-65.389	-58.236	76.007	85.912	-61.267	-57.571	-54.865	-50.921	82.486	-54.457	-8191	255	
1602.809	1	1	0	0	0.14462	0.1074	0.23096	0.010093	0.19147	0.18508	0.054402	0.18986	0.10861	0.18088	0.14458	0.14284	0.26185	0.26409	0.067652	0.14045	-2.3312	-2.5333	-3.2208	-2.3208	-2.8438	-2.9313	-2.5	-3.2354	-2.8042	-2.5563	-3.1979	-2.5958	-3.0979	-3.2896	-2.3563	-3.5271	-52.689	220.631	-36.547	109.242	220.855	-62.635	240.391	92.357	9.462	216.646	260.374	-50.310	280.291	280.504	-34.203	72.848	0.00025605	0.00065266	0.00018054	783.42	4.4023e-06	4.9758e-06	579.67	329.02	3.0045e-06	7.7617e-06	290.06	145.86	166.8	98.259	5.7427e-06	89.742	0.00082634	0.0010165	0.00027949	768.38	1.0358e-05	1.1057e-05	568.91	324.6	1.0402e-05	1.1179e-05	285.31	144.99	165.39	97.769	1.1589e-05	88.85	171.619	8.058	18.597	-64.175	47.369	70.225	-65.840	-58.398	73.718	84.450	-61.501	-57.699	-55.071	-51.078	71.970	-54.727	-8191	255	
1602.905	1	1	0	0	0.17186	0.14244	0.38	0.033416	0.25862	0.10307	0.039292	0.28873	0.11984	0.14426	0.14189	0.078818	0.2949	0.23482	0.32361	0.23756	-2.3646	-2.3708	-3.2521	-2.5979	-2.8937	-3.2667	-2.4854	-3.275	-2.8521	-2.5604	-3.3271	-2.6771	-3.0687	-3.3979	-2.3083	-3.2938	122.625	176.371	-42.600	279.993	25.819	164.835	2.187	178.270	166.659	-14.094	235.097	-23.271	-43.153	161.538	217.439	-65.482	0.00028511	0.00080169	0.00017204	788.49	4.4982e-06	4.9359e-06	578.93	329.19	4.3333e-06	6.6719e-06	291.2	145.33	165.42	97.693	3.9109e-06	89.122	0.00083699	0.0010027	0.00028018	769.76	1.0215e-05	1.1145e-05	569.87	324.43	1.0559e-05	1.0921e-05	285.38	144.45	164.77	97.213	1.1123e-05	88.199	182.051	1.550	14.303	-64.082	79.712	88.920	-65.531	-58.382	73.406	83.907	-61.752	-57.727	-54.854	-50.917	74.280	-54.713	-8191	255	
1603.025	1	1	0	0	0.06011	0.082654	0.12028	0.24264	0.1571	0.16986	0.10894	0.19618	0.065	0.10905	0.081604	0.23362	0.11655	0.29725	0.21234	0.32007	-2.4062	-2.4896	-3.3042	-2.7104	-2.8104	-3.2833	-2.4083	-3.1417	-2.9354	-2.3458	-3.3708	-2.6583	-2.7146	-3.4125	-2.5083	-3.3146	180.728	197.284	157.326	-15.147	224.440	161.970	177.842	267.979	112.336	26.257	251.647	6.925	-40.278	241.402	230.538	247.910	0.00023865	0.00074287	0.00014	784.48	2.5244e-06	7.7349e-06	572.35	327.15	3.9612e-06	4.0693e-06	286.03	143.58	164.53	96.714	3.4553e-06	88.27	0.00082093	0.0010357	0.00027715	765.52	1.0076e-05	1.0906e-05	563.64	322.48	1.0471e-05	1.1088e-05	282.5	142.94	163.6	96.419	1.1197e-05	87.357	184.086	11.992	-2.905	-64.062	72.727	85.196	-65.636	-58.554	76.135	57.994	-61.364	-57.739	-54.975	-50.910	61.001	-54.602	-8191	255	
1603.097	1	1	0	0	0.039825	0.24576	0.098721	0.12718	0.21037	0.13754	0.16341	0.1225	0.026437	0.25678	0.075846	0.21627	0.19625	0.3214	0.37139	0.31359	-2.7271	-2.3271	-3.3354	-2.6188	-2.7	-3.4354	-2.5354	-3.1229	-3.1458	-2.5583	-3.3417	-2.8854	-2.5812	-3.45	-2.5646	-2.9479	-10.495	3.978	81.427	202.201	264.492	93.924	16.835	261.824	-9.576	112.696	90.228	67.752	166.107	248.244	92.477	201.295	0.00027157	0.00072679	0.00016688	785.8	4.6524e-06	9.1436e-06	576.36	324.53	1.869e-06	7.5211e-06	282.5	141.12	161.46	95.684	4.0858e-06	87.128	0.00081343	0.0010057	0.00027664	765.39	1.0346e-05	1.0932e-05	564.38	320.59	1.058e-05	1.0973e-05	278.25	140.32	160.96	95.306	1.1391e-05	86.069	180.390	1.605	22.705	-64.317	89.450	72.557	-65.490	-58.644	81.733	82.095	-61.181	-57.931	-55.041	-50.831	67.389	-54.367	-8191	255	
1603.193	1	1	0	0	0.11487	0.26253	0.065491	0.15822	0.19026	0.15351	0.17939	0.33527	0.19832	0.28401	0.24788	0.11	0.39397	0.18975	0.064015	0.21172	-2.7958	-2.2729	-3.1063	-3.0646	-2.1312	-3.2687	-2.4646	-2.7792	-3.3354	-2.3771	-3.2521	-2.9854	-2.5792	-3.5312	-2.55	-2.9917	-15.431	-13.887	201.035	145.211	-8.478	-19.945	-73.884	248.067	252.419	-57.345	264.270	-62.359	-73.072	272.721	-74.960	234.121	0.00028186	0.00070874	0.0001572	778.28	3.7866e-06	5.6079e-06	572.88	321.75	2.4361e-06	8.6876e-06	283.35	141.84	162.59	96.112	5.1735e-06	86.772	0.00083619	0.0010317	0.00028547	760.74	1.0467e-05	1.1076e-05	561.7	318.23	1.0512e-05	1.156e-05	278.71	140.96	161.76	95.648	1.1289e-05	86.064	184.316	14.744	6.115	-64.336	69.116	81.707	-65.652	-58.247	55.076	96.860	-61.404	-57.800	-55.059	-50.934	68.132	-54.570	-8191	255	
1603.289	1	1	0	0	0.20352	0.23303	0.17204	0.17428	0.18599	0.16194	0.25019	0.18065	0.064051	0.073234	0.1199	0.26322	0.081229	0.25144	0.052164	0.21724	-2.8312	-2.4271	-2.9354	-3.0458	-2.4583	-3.325	-2.7583	-2.7229	-3.3812	-2.4333	-3.1667	-3.125	-2.5146	-3.5687	-2.7021	-2.7313	278.360	-70.975	211.803	271.497	228.719	89.342	275.716	193.247	-73.686	-71.492	240.961	8.466	170.221	249.086	228.319	202.466	0.00020665	0.00049571	8.2375e-05	775.41	2.4542e-06	4.5137e-06	565.85	318.23	3.7747e-06	3.7007e-06	276.98	136.05	159.13	93.261	1.2864e-06	84.392	0.00081304	0.0010364	0.00028662	758.63	1.0456e-05	1.1064e-05	554.92	313.75	1.0603e-05	1.1712e-05	271.73	136.1	157.98	93.054	1.1914e-05	83.57	173.292	-8.294	49.101	-64.207	71.335	59.169	-65.308	-58.275	56.409	91.154	-61.393	-57.479	-54.880	-50.663	81.589	-54.637	-8191	255	
1603.408	1	1	0	0	0.26743	0.1909	0.028942	0.21428	0.14255	0.12833	0.37815	0.3384	0.21116	0.09423	0.13453	0.22571	0.35036	0.21048	0.17595	0.040802	-3.0875	-2.4208	-2.8625	-3.2354	-2.3167	-3.2625	-2.8896	-2.7229	-3.2917	-2.7313	-2.8	-3.3438	-2.2604	-3.4	-2.7458	-2.6	59.273	7.210	105.221	214.798	25.597	215.466	265.369	239.885	77.340	43.639	265.598	-58.252	262.478	225.106	263.094	127.415	0.00024321	0.0005109	0.00016961	773.95	4.2269e-06	7.1656e-06	563.29	317.58	3.5699e-06	2.7129e-06	276.81	138.63	159.82	94.957	3.8288e-06	85.547	0.00084477	0.0010328	0.00029292	755.09	1.1148e-05	1.1297e-05	551.45	313.71	1.0829e-05	1.1641e-05	272.81	138.21	159.62	94.595	1.1574e-05	84.685	176.708	10.139	4.201	-64.006	68.948	63.131	-65.338	-58.096	92.270	79.410	-61.046	-57.517	-54.800	-50.801	104.783	-54.640	-8191	255	
1603.504	1	1	0	0	0.11918	0.085206	0.24525	0.054837	0.048262	0.2395	0.22475	0.26503	0.17321	0.40776	0.097293	0.033314	0.30461	0.12663	0.11604	0.18182	-2.9833	-2.4062	-2.8312	-3.2687	-2.4667	-3.2021	-2.8438	-2.4729	-3.3125	-2.5583	-2.85	-3.5646	-2.6646	-3.4	-2.8375	-2.6708	5.644	151.424	219.113	-4.133	147.016	171.158	274.660	-63.044	-74.447	-37.990	199.676	231.191	-50.455	262.939	12.944	136.858	0.00027703	0.00084379	0.00022065	771.58	4.642e-06	6.378e-06	563.06	319.34	3.5355e-06	9.2511e-06	278.42	137.69	158.2	93.548	2.7354e-06	84.613	0.00085438	0.0010781	0.00029503	755.25	1.0706e-05	1.1499e-05	553.79	314.71	1.0692e-05	1.1241e-05	273.33	137.45	157.74	93.348	1.1233e-05	83.87	176.404	20.274	13.483	-63.918	66.288	61.966	-65.391	-58.160	66.888	57.277	-60.917	-57.387	-54.989	-50.607	45.683	-54.261	-8191	255	
1603.601	1	1	0	0	0.10902	0.35654	0.24019	0.11883	0.21496	0.074921	0.14348	0.087142	0.059248	0.11698	0.16849	0.23345	0.14763	0.22307	0.18885	0.050332	-2.925	-2.7604	-2.675	-3.4125	-2.4375	-2.925	-3.0833	-2.4521	-3.2625	-2.6333	-2.4188	-3.4729	-2.6729	-3.0458	-3.0062	-2.5292	273.996	98.637	164.820	262.753	186.226	235.006	196.959	254.759	130.700	86.963	165.170	256.174	171.605	-11.001	229.503	63.112	0.00024846	0.00044889	0.00024899	770.4	3.6078e-06	6.5534e-06	558.62	315.69	3.5681e-06	5.0641e-06	272.72	136.56	158.53	93.443	4.6604e-06	84.039	0.00081949	0.0010351	0.00028877	751.63	1.0328e-05	1.1015e-05	549.2	311.18	1.0551e-05	1.149e-05	269.27	136.02	157.26	92.906	1.0838e-05	83.092	176.900	-28.932	14.791	-63.875	64.428	89.376	-65.339	-57.974	43.412	85.863	-60.926	-57.417	-54.702	-50.457	71.618	-54.203	-8191	255	
1603.697	1	1	0	0	0.26089	0.29431	0.23692	0.20596	0.18334	0.10497	0.20204	0.34573	0.18975	0.18423	0.12622	0.14814	0.32883	0.19857	0.084385	0.17453	-2.9229	-2.6417	-2.6271	-3.5271	-2.5646	-3.0708	-3.2021	-2.4979	-3.1917	-2.7854	-2.5625	-3.3042	-2.6396	-2.875	-3.1229	-2.5271	144.408	-57.578	-51.147	174.990	-24.414	49.365	189.776	272.969	-19.386	178.756	-25.787	46.909	263.945	241.368	224.724	-3.558	0.00021887	0.00041909	0.00018828	764.78	3.3728e-06	6.1834e-06	552.22	316.18	2.211e-06	5.9384e-06	272.12	135.64	157.34	92.649	4.2708e-06	82.638	0.00080658	0.00099654	0.00027702	746.33	1.0119e-05	1.1032e-05	545.05	310.92	1.0336e-05	1.1077e-05	268.64	135.06	156.08	92.123	1.1245e-05	82	172.125	11.554	8.772	-64.036	89.798	62.376	-65.264	-58.131	120.681	92.790	-60.565	-57.268	-54.751	-50.514	65.634	-54.211	-8191	255	
1603.793	1	1	0	0	0.076334	0.12238	0.22827	0.035292	0.03751	0.1242	0.13132	0.080084	0.021256	0.1155	0.16581	0.026711	0.15572	0.038687	0.22869	0.024196	-2.6792	-2.8167	-2.4042	-3.4437	-2.7229	-2.6396	-3.2833	-2.4146	-2.9833	-3.0958	-2.4	-3.2896	-2.7646	-2.7458	-3.3354	-2.5708	35.507	-49.012	254.634	164.968	84.199	-39.939	6.569	141.842	54.267	-10.538	267.685	231.080	178.317	171.217	134.773	44.659	0.00022596	0.00048536	0.00020606	768.82	5.0143e-06	5.7991e-06	552.43	312.78	4.8929e-06	9.3059e-06	271.91	136.39	157.47	94.077	2.0437e-06	84.919	0.00082157	0.0010113	0.00028875	749.6	1.0649e-05	1.1407e-05	546.17	308.4	1.0579e-05	1.1449e-05	267.64	135.29	156.83	93.514	1.1264e-05	84.289	176.938	35.888	24.630	-63.667	76.021	36.926	-65.152	-57.944	48.591	95.852	-61.063	-57.159	-54.618	-50.200	54.990	-54.282	-8191	255	
1603.889	1	1	0	0	0.15713	0.077575	0.085782	0.17482	0.24674	0.19689	0.090829	0.13001	0.27303	0.11486	0.15849	0.14369	0.13412	0.31756	0.03532	0.1349	-2.6542	-2.9229	-2.4521	-3.1188	-2.7333	-2.7167	-3.5438	-2.4125	-3.0375	-3.2521	-2.4854	-3.2271	-3.0208	-2.7438	-3.4417	-2.4542	223.755	246.537	258.561	221.569	248.970	60.846	238.735	241.970	-58.337	131.835	29.732	-73.762	-63.549	251.157	-8.936	-73.002	0.00025192	0.0005115	0.00021424	774.89	4.141e-06	8.1278e-06	561.37	320.17	2.1946e-06	7.3624e-06	278.51	139.24	162.35	96.724	4.5107e-06	87.144	0.00083164	0.0010385	0.00029184	757.2	1.0649e-05	1.1637e-05	553.66	315.6	1.0812e-05	1.1302e-05	273.86	139.25	161.21	96.175	1.1488e-05	86.061	176.971	34.122	3.878	-63.655	98.356	59.075	-65.056	-57.945	57.862	85.856	-61.283	-57.297	-54.772	-50.470	66.722	-54.526	-8191	255	
1604.010	1	1	0	0	0.094885	0.032491	0.047818	0.15302	0.10494	0.20944	0.13395	0.14342	0.18247	0.13354	0.15699	0.19438	0.41159	0.31105	0.29113	0.30526	-2.4458	-3.2562	-2.4854	-3.3042	-2.7792	-2.4437	-3.5542	-2.5812	-2.7	-3.1813	-2.5125	-3.2146	-3.0896	-2.4479	-3.5021	-2.6271	241.229	205.051	18.712	240.503	62.423	25.124	114.819	64.358	67.096	130.992	-6.823	194.288	190.972	267.147	29.289	237.240	0.00029234	0.00074071	0.00023959	773.67	3.8535e-06	9.7917e-06	561.7	320.63	2.5343e-06	6.801e-06	276.46	140.29	163.03	97.228	4.9028e-06	87.2	0.00083912	0.0010212	0.00028961	757.76	1.0621e-05	1.1704e-05	551.58	316.28	1.0709e-05	1.129e-05	272.87	139.6	162.04	96.707	1.1439e-05	86.454	170.153	-9.662	36.724	-63.666	71.204	68.437	-65.258	-57.917	24.514	88.250	-61.514	-57.809	-55.023	-50.703	92.167	-54.595	-8191	255	
1604.106	1	1	0	0	0.26477	0.34717	0.39847	0.2282	0.29377	0.12285	0.088106	0.15783	0.32698	0.15688	0.26342	0.33354	0.33818	0.25499	0.18747	0.19836	-2.4125	-3.3083	-2.3083	-3.2792	-3.0979	-2.4375	-3.3354	-2.6583	-2.65	-3.3812	-2.2979	-3.0292	-3.0521	-2.4938	-3.375	-2.7917	-23.146	-57.364	60.315	-20.204	174.519	84.476	13.291	214.703	239.455	64.634	186.472	212.579	242.895	272.761	132.420	268.228	0.00028054	0.00076176	0.00016522	777.15	3.3971e-06	5.066e-06	564.71	323.79	4.574e-06	7.25e-06	282.66	142.97	165.08	98.461	1.6015e-06	88.801	0.00083853	0.0010322	0.00030029	759.48	1.092e-05	1.1683e-05	554.57	319.51	1.0991e-05	1.1655e-05	279.45	142.72	164.67	98.015	1.1457e-05	87.737	176.837	14.211	9.798	-64.085	45.634	75.216	-65.798	-58.296	85.805	93.830	-61.507	-57.860	-55.017	-50.964	133.238	-54.823	-8191	255	
1604.200	1	1	0	0	0.30019	0.014828	0.089351	0.22408	0.24376	0.16075	0.02462	0.14051	0.14504	0.017897	0.20802	0.18172	0.22059	0.46997	0.25598	0.32822	-2.1437	-3.4188	-2.2833	-3.0187	-3.2167	-2.5333	-3.3063	-2.9062	-2.6646	-3.3021	-2.6021	-2.9188	-3.4125	-2.6521	-3.2313	-3.0438	2.547	-21.359	96.620	258.731	232.405	188.777	-43.135	108.128	19.305	241.668	164.928	-73.716	252.198	-67.258	5.903	258.020	0.0002536	0.0006226	0.00020917	779.87	4.4145e-06	7.3977e-06	571.23	324.33	5.0333e-06	3.2983e-06	284.45	142.88	163.48	97.375	4.8416e-06	87.705	0.00085408	0.0010439	0.00029439	760.57	1.0515e-05	1.165e-05	558.15	320.1	1.0813e-05	1.0815e-05	278.96	142.11	162.97	96.808	1.1243e-05	87.066	176.616	9.857	18.431	-64.039	93.853	62.534	-65.486	-58.596	43.176	73.683	-61.303	-57.831	-54.946	-50.912	99.326	-54.646	-8191	255	
1604.296	1	1	0	0	0.04159	0.076443	0.02203	0.10192	0.12395	0.18413	0.10419	0.27279	0.29149	0.24108	0.11414	0.10984	0.17948	0.18158	0.2183	0.094744	-2.125	-3.2458	-2.6104	-2.7646	-3.2917	-2.2938	-3.3312	-3.1646	-2.3958	-3.2104	-2.6063	-2.9188	-3.4042	-2.7042	-3.1271	-3.1479	19.103	79.263	32.354	94.483	174.761	86.559	196.954	-42.263	-52.791	214.141	-14.623	-43.440	214.600	158.764	163.492	-57.980	0.00025979	0.00053138	0.00017955	776.84	3.4381e-06	4.1191e-06	562.99	323.18	3.4276e-06	7.83e-06	279.29	140.71	161.67	95.618	6.5861e-06	85.993	0.00084025	0.0010298	0.0002966	757.61	1.0577e-05	1.1237e-05	553.61	319.3	1.0858e-05	1.1305e-05	274.85	139.87	161.18	95.272	1.1722e-05	84.94	183.712	3.664	16.510	-63.717	107.814	62.822	-65.531	-58.455	68.890	91.130	-61.371	-57.828	-54.988	-50.592	67.244	-54.355	-8191	255	
1604.393	1	1	0	0	0.045121	0.073478	0.10179	0.3489	0.32441	0.24957	0.1019	0.15832	0.17965	0.064093	0.020705	0.16041	0.15164	0.216	0.19507	0.11489	-2.1042	-3.3208	-2.5604	-2.6396	-3.3208	-2.4646	-2.9458	-3.0938	-2.3479	-3.2292	-2.7833	-2.6854	-3.3229	-2.6667	-3.0563	-3.3021	-33.780	-39.101	-39.711	-55.595	200.119	103.287	151.754	-60.351	108.380	-25.027	47.801	-64.698	246.198	-60.093	264.856	271.648	0.00022532	0.00046571	0.00021886	765.46	4.3819e-06	5.5069e-06	553.64	319.01	2.5898e-06	6.8289e-06	275.29	138.6	160.19	94.507	3.43e-06	84.573	0.00084951	0.0010319	0.00029478	750.18	1.0556e-05	1.1582e-05	546.62	314.01	1.0879e-05	1.164e-05	271.43	137.65	159.22	94.14	1.1703e-05	83.702	172.871	13.472	12.048	-63.883	68.783	62.302	-65.085	-58.203	62.243	83.525	-61.301	-57.311	-54.756	-50.582	68.299	-54.582	-8191	255	
1604.489	1	1	0	0	0.17913	0.26764	0.078405	0.26828	0.21926	0.19145	0.298	0.064168	0.15157	0.08045	0.25185	0.40072	0.13303	0.19777	0.19475	0.043527	-2.0438	-3.2708	-2.775	-2.6146	-3.4062	-2.4688	-2.8021	-3.1833	-2.3979	-3.2667	-3.0354	-2.4479	-3.4167	-2.8146	-2.7646	-3.4083	-59.048	37.881	-7.478	195.010	118.616	-22.757	191.981	-43.937	43.858	237.363	201.221	234.779	173.211	-48.236	-37.121	203.567	0.0002414	0.00058272	0.00022474	767.43	5.4704e-06	7.7536e-06	558.58	318	3.7949e-06	4.7203e-06	275.24	139.06	160.5	95.309	2.8572e-06	85.71	0.00085758	0.0010308	0.00030878	751.18	1.0834e-05	1.1844e-05	546.91	313.64	1.1256e-05	1.1767e-05	272.28	138.4	160.2	94.797	1.2015e-05	84.877	175.819	51.431	14.571	-63.605	62.765	84.834	-64.936	-57.937	69.892	101.331	-60.986	-57.272	-54.811	-50.494	73.450	-54.711	-8191	255	
1604.585	1	1	0	0	0.26671	0.091533	0.10165	0.039892	0.19062	0.28055	0.19172	0.25978	0.076306	0.091764	0.27694	0.22632	0.18952	0.18505	0.14361	0.11929	-1.9917	-3.2083	-2.9583	-2.575	-3.2938	-2.575	-2.8833	-3.3104	-2.5167	-3.2812	-3.1708	-2.5042	-3.4125	-2.7625	-2.6333	-3.4583	164.991	149.575	-43.624	137.162	-60.514	191.534	41.857	222.913	88.398	192.385	-1.287	246.432	-28.431	245.907	22.505	236.633	0.00024996	0.00086282	0.00013819	773.74	5.3444e-06	7.3764e-06	560.74	318.28	2.5889e-06	5.3791e-06	276.34	138.46	160.95	94.976	5.4134e-06	85.37	0.00088677	0.0010851	0.00030103	755.25	1.0934e-05	1.2247e-05	552	314.86	1.1513e-05	1.2327e-05	272.4	138.17	160.33	94.758	1.2176e-05	84.461	176.567	-0.449	6.057	-64.318	84.650	81.563	-65.566	-58.601	82.262	70.011	-61.307	-57.554	-54.990	-50.894	68.684	-54.761	-8191	255	
1604.705	1	1	0	0	0.1691	0.18122	0.042508	0.17052	0.15508	0.20208	0.17307	0.27679	0.20939	0.030546	0.11872	0.17323	0.23253	0.20344	0.11212	0.16803	-2.0479	-3.0812	-3.1292	-2.5187	-3.0687	-2.7083	-2.4958	-3.5229	-2.4188	-2.9958	-3.1833	-2.3479	-3.4021	-2.8833	-2.6	-3.45	240.763	240.385	266.410	164.724	-6.482	182.749	224.747	236.135	234.174	226.337	-64.907	170.933	-70.479	230.721	-62.720	222.636	0.00025159	0.00069033	0.00027629	771.28	2.4662e-06	4.5662e-06	558.38	318.06	4.6472e-06	7.9902e-06	274.52	137.98	161.94	95.943	4.0578e-06	85.579	0.00089716	0.0011184	0.00031248	752.75	1.136e-05	1.2394e-05	547.02	313.97	1.1899e-05	1.2329e-05	270.49	137.68	161.08	95.545	1.2393e-05	85.004	182.189	-13.984	-4.697	-64.118	81.777	64.575	-65.291	-58.330	62.260	67.343	-61.200	-57.385	-54.712	-50.770	84.744	-54.593	-8191	255	
1604.802	1	1	0	0	0.15329	0.20695	0.074519	0.18823	0.098588	0.12832	0.18087	0.20227	0.080659	0.053203	0.098888	0.11161	0.25395	0.20288	0.14078	0.0536	-2.1479	-2.9688	-3.3333	-2.4229	-3.3312	-2.8729	-2.5625	-3.3833	-2.4479	-2.7875	-3.2562	-2.5604	-3.3187	-3.0833	-2.4417	-3.425	-69.732	222.383	118.410	-39.243	245.178	35.802	220.108	-38.895	-33.672	52.227	198.466	83.263	-67.012	-48.483	68.930	-69.014	0.00025244	0.00065413	0.0002221	769.47	3.9186e-06	5.0936e-06	556.05	320.74	3.2031e-06	5.7895e-06	276.32	140.28	161.3	95.353	2.4077e-06	86.045	0.00087726	0.0011056	0.00030558	752.96	1.1197e-05	1.2128e-05	547.75	315.85	1.1182e-05	1.2186e-05	272.73	138.88	160.81	95.068	1.2236e-05	85.17	178.712	31.309	18.004	-63.910	68.259	55.306	-65.346	-58.156	72.471	75.099	-61.222	-57.417	-54.685	-50.533	77.285	-54.436	-8191	255	
1604.898	1	1	0	0	0.16894	0.24984	0.13303	0.16222	0.29301	0.028138	0.084952	0.088873	0.012937	0.19562	0.09987	0.14712	0.17133	0.071092	0.22162	0.068155	-2.3708	-2.6771	-3.3	-2.4292	-3.0146	-3.0854	-2.5208	-3.3604	-2.6604	-2.5687	-3.5208	-2.3792	-3.1521	-3.3063	-2.3917	-3.2646	145.041	93.008	233.472	-2.332	138.022	78.246	-72.076	53.125	215.937	221.634	-16.008	253.044	-47.265	237.259	-20.887	242.293	0.00024972	0.000777	0.00016909	770.25	3.5939e-06	8.1123e-06	557.3	321.41	1.7603e-06	6.3575e-06	280.56	140.25	162.59	95.716	4.8973e-06	85.87	0.00085953	0.001095	0.00029789	751.25	1.1105e-05	1.2044e-05	548.66	316.97	1.1416e-05	1.2248e-05	275.58	139.79	161.81	95.39	1.2518e-05	85.026	181.499	23.951	15.073	-64.032	58.954	58.609	-65.259	-58.389	-1.210	58.566	-61.492	-57.582	-54.520	-50.682	63.204	-54.442	-8191	255	
1604.969	1	1	0	0	0.23746	0.23317	0.17217	0.090383	0.12401	0.18087	0.13801	0.12539	0.43158	0.21836	0.12542	0.1673	0.31735	0.14548	0.24058	0.16587	-2.3167	-2.5979	-3.3229	-2.6542	-2.9104	-3.1	-2.5396	-3.2125	-2.6896	-2.7313	-3.3354	-2.575	-2.975	-3.4146	-2.2062	-3.1708	70.952	12.845	181.571	191.409	213.747	107.645	253.339	159.983	114.975	0.652	-13.585	108.808	15.393	255.979	253.002	224.623	0.00027323	0.00062484	0.00017738	765.44	4.3122e-06	4.835e-06	551.86	318.24	3.5297e-06	6.0473e-06	271.42	136.28	159.19	93.687	2.7941e-06	83.573	0.00087814	0.0011275	0.00031123	749.5	1.1411e-05	1.1998e-05	543.9	313.42	1.1662e-05	1.2472e-05	268.34	136.23	158.53	93.424	1.2207e-05	82.687	178.161	5.414	-4.002	-64.063	91.874	58.054	-65.357	-58.193	86.766	99.813	-61.267	-57.518	-55.046	-50.631	76.989	-54.586	-8191	255	
1605.088	1	1	0	0	0.25918	0.16948	0.047966	0.085841	0.18005	0.051165	0.2538	0.24817	0.22568	0.29762	0.10491	0.14985	0.13629	0.21289	0.17686	0.19259	-2.6667	-2.5187	-3.3625	-2.6917	-2.7938	-3.3292	-2.3937	-3.1667	-3.1437	-2.525	-3.4333	-2.6458	-2.9979	-3.6479	-2.5729	-3.4813	35.835	82.843	-54.011	-71.108	248.062	90.955	149.161	283.856	209.426	134.327	50.066	-57.976	144.974	-22.738	-19.397	224.984	0.00022044	0.00044965	8.4153e-05	764.79	2.3687e-06	3.3184e-06	554.45	313.07	2.9029e-06	4.6209e-06	268.9	134.23	157.74	93.231	3.6106e-06	83.644	0.00085337	0.0011239	0.00032239	748.41	1.1782e-05	1.2833e-05	543.3	309.05	1.2187e-05	1.3613e-05	265.35	134.07	157.17	92.95	1.2679e-05	82.907	185.141	25.740	14.713	-64.067	29.856	97.975	-65.841	-58.120	48.233	86.641	-60.984	-57.432	-54.694	-50.471	78.163	-54.320	-8191	255	
1605.184	1	1	0	0	0.22724	0.18075	0.059169	0.076794	0.21659	0.10786	0.10404	0.23699	0.098402	0.15049	0.16912	0.21636	0.21259	0.37047	0.050586	0.15618	-2.7292	-2.3063	-3.3229	-2.8917	-2.6833	-3.2271	-2.5292	-3.0417	-3.0417	-2.3937	-3.3875	-2.6917	-2.6437	-3.6	-2.3312	-2.9	177.270	138.956	94.125	-33.538	-52.284	208.630	160.040	156.787	150.092	-30.615	223.080	264.747	195.779	278.480	177.742	260.921	0.00022957	0.00082751	0.00019682	763.86	3.9441e-06	6.6475e-06	551.13	316.64	3.0573e-06	3.247e-06	272.86	137.94	160.12	94.601	1.5207e-06	84.937	0.00088975	0.0011494	0.00032039	746.98	1.1818e-05	1.293e-05	542.44	312.26	1.2084e-05	1.3128e-05	270.17	137.4	159.88	94.267	1.2795e-05	84.048	185.002	3.871	-4.254	-64.042	60.079	74.199	-65.042	-57.875	76.949	123.721	-61.225	-57.504	-54.514	-50.666	35.365	-54.207	-8191	255	
1605.281	1	1	0	0	0.11727	0.11675	0.29337	0.028308	0.26396	0.18552	0.30544	0.087538	0.13077	0.028604	0.22459	0.12038	0.22416	0.16146	0.047349	0.06303	-2.8125	-2.3792	-3.2333	-2.9521	-2.5667	-3.1646	-2.5354	-3.0083	-3.0458	-2.3896	-3.2083	-2.8	-2.6083	-3.6125	-2.5979	-2.9167	34.639	219.239	278.935	161.871	193.657	88.295	174.925	-4.510	-49.038	149.518	-71.906	-32.273	223.118	273.632	-60.755	16.571	0.00021156	0.00061596	0.00014091	765.27	1.8751e-06	4.7769e-06	556.14	318.26	3.7397e-06	4.9119e-06	274.94	137.43	159.41	94.168	5.6381e-06	84.058	0.00090706	0.0011563	0.00032073	751.29	1.1889e-05	1.3099e-05	546.42	313.72	1.2272e-05	1.3016e-05	269.91	136.85	159.35	93.789	1.3356e-05	83.313	175.533	37.112	5.223	-63.617	56.680	59.120	-65.368	-57.906	35.436	100.541	-61.063	-57.295	-54.592	-50.426	77.220	-54.272	-8191	255	
1605.377	1	1	0	0	0.074833	0.20645	0.080517	0.11315	0.10493	0.32351	0.22957	0.18759	0.22797	0.096937	0.1722	0.26715	0.14843	0.43689	0.071466	0.17913	-2.8979	-2.45	-3.1167	-2.9042	-2.4562	-3.2417	-2.6792	-2.8729	-3.3667	-2.3458	-3.075	-3.0708	-2.4958	-3.4646	-2.7062	-2.7938	82.714	57.695	256.268	139.545	198.312	184.182	170.630	139.403	258.314	11.481	248.970	225.565	274.196	250.297	281.259	211.461	0.00024703	0.00080706	0.00015734	764.39	4.541e-06	7.875e-06	554.63	317.16	4.9913e-06	4.5788e-06	271.92	137.58	161.28	94.702	6.5943e-06	83.888	0.00093327	0.0012125	0.00033155	747.62	1.2707e-05	1.356e-05	543.52	313.47	1.281e-05	1.3799e-05	268.54	136.78	160.04	94.204	1.3581e-05	83.151	177.880	19.428	27.861	-63.875	66.519	70.567	-65.524	-58.133	66.311	101.520	-61.468	-57.555	-54.682	-50.741	80.289	-54.532	-8191	255	
1605.497	1	1	0	0	0.058967	0.15886	0.033627	0.11728	0.19574	0.10467	0.1572	0.14224	0.017395	0.081794	0.28317	0.1251	0.176	0.11087	0.18492	0.097822	-2.9562	-2.4375	-3.15	-3.1312	-2.4333	-3.3229	-2.7438	-2.7542	-3.2521	-2.4292	-3.1542	-3.2687	-2.5646	-3.5104	-2.8292	-2.4813	110.474	208.936	108.477	273.047	244.916	229.245	238.899	187.220	281.684	189.256	266.946	222.125	-50.044	-23.480	203.496	279.303	0.00026919	0.00036545	0.00013093	765.78	4.8696e-06	4.318e-06	551.2	315.99	4.9695e-06	4.5319e-06	270.04	135.62	158.12	92.856	4.5572e-06	82.601	0.00093662	0.0012476	0.00034697	750.72	1.313e-05	1.3687e-05	542.82	311.98	1.3434e-05	1.4527e-05	267.01	135.01	157.76	92.723	1.4504e-05	81.857	177.657	5.216	13.843	-64.183	64.168	76.186	-65.641	-58.152	52.530	45.949	-61.111	-57.501	-54.841	-50.413	42.824	-54.486	-8191	255	
1605.569	1	1	0	0	0.14751	0.15334	0.069573	0.069142	0.20277	0.21035	0.21225	0.30257	0.10012	0.20563	0.12915	0.32116	0.16433	0.34482	0.11967	0.072616	-2.9583	-2.5	-2.8021	-3.3063	-2.3646	-3.3042	-2.8042	-2.5687	-3.2583	-2.7083	-2.7396	-3.3521	-2.4688	-3.0687	-2.9146	-2.5833	103.127	254.210	209.885	244.921	58.941	89.061	240.529	4.029	251.802	236.678	-35.304	199.065	164.614	237.536	-60.973	256.972	0.00027151	0.00056966	0.00025576	765.82	2.4844e-06	7.327e-06	553.06	312.97	3.8184e-06	3.4644e-06	268.32	133.5	155.65	91.476	3.9115e-06	80.743	0.0010315	0.0013581	0.00038452	754.05	1.3875e-05	1.4912e-05	543.57	309.15	1.3746e-05	1.4999e-05	264.66	133.37	155.42	91.306	1.5296e-05	80.164	185.061	-6.743	19.004	-63.917	68.489	69.036	-65.695	-58.440	44.545	65.130	-61.109	-57.617	-54.739	-50.532	48.834	-54.447	-8191	255	
1605.690	1	1	0	0	0.27695	0.012907	0.2628	0.33187	0.16446	0.068271	0.39155	0.090022	0.10398	0.11411	0.13547	0.068655	0.25152	0.073047	0.081938	0.26236	-2.9167	-2.5938	-2.7583	-3.3333	-2.3708	-3.1	-3.025	-2.4437	-3.15	-2.7687	-2.5396	-3.3208	-2.5083	-3.2729	-3.0042	-2.4396	157.219	173.381	38.762	271.517	258.873	11.497	265.777	-49.741	236.814	-2.871	207.045	131.148	226.609	140.450	23.414	182.251	0.00023662	0.00067059	0.00010976	760.68	2.4554e-06	8.3377e-06	544.18	308.79	1.9864e-06	8.3548e-06	262.77	130.41	152.93	89.812	4.0755e-06	79.394	0.0010435	0.0014054	0.00039397	745.69	1.3749e-05	1.5152e-05	534.09	305.46	1.3754e-05	1.5227e-05	259.61	130.22	152.77	89.515	1.5611e-05	78.724	167.780	20.994	47.106	-63.925	107.069	85.331	-65.612	-58.200	102.511	68.006	-61.173	-57.310	-54.577	-50.434	107.677	-54.205	-8191	255	
1605.786	1	1	0	0	0.30809	0.38594	0.10767	0.094774	0.12144	0.090924	0.18794	0.12775	0.15867	0.18967	0.16846	0.16566	0.28576	0.23138	0.014554	0.080108	-2.8167	-2.7146	-2.5333	-3.2542	-2.3833	-2.8771	-3.0958	-2.5	-3.2104	-2.8792	-2.5979	-3.3458	-2.6063	-2.9938	-3.3167	-2.6625	116.415	-22.944	51.809	194.565	2.180	177.902	226.864	16.672	148.704	174.758	22.443	194.126	243.048	270.914	229.494	23.239	0.0002714	0.00049816	0.00014725	760.62	4.786e-06	4.7006e-06	545	307.77	1.991e-06	7.4161e-06	264.06	132.11	155.41	91.221	3.4658e-06	80.724	0.0010639	0.0013772	0.00039469	745.59	1.4483e-05	1.5368e-05	536.73	303.9	1.4489e-05	1.5352e-05	260.6	131.4	154.76	91.109	1.4624e-05	80.295	173.828	13.600	-19.231	-64.128	83.766	81.303	-65.551	-58.071	45.398	89.013	-60.989	-57.438	-54.847	-50.386	45.184	-54.375	-8191	255	
1605.882	1	1	0	0	0.275	0.2033	0.20615	0.13617	0.095616	0.21453	0.05732	0.4239	0.057644	0.14461	0.14618	0.099206	0.068801	0.28324	0.18091	0.096663	-2.7771	-2.9437	-2.3438	-3.3312	-2.5667	-2.5938	-3.2	-2.3771	-2.9688	-3.0167	-2.4708	-3.4958	-2.4979	-2.8333	-3.2271	-2.5208	105.622	-45.457	71.283	184.796	272.262	79.114	243.811	197.028	73.818	52.826	269.756	173.774	-49.081	-71.164	-31.405	-67.778	0.00024553	0.00075825	8.1869e-05	765.32	5.7827e-06	4.9094e-06	551.95	311.92	4.4146e-06	7.9527e-06	268.81	134.48	157.59	93.156	2.8236e-06	82.347	0.00098874	0.001355	0.00039072	751.01	1.4111e-05	1.5445e-05	542.74	308.43	1.4562e-05	1.5422e-05	265.11	134.16	157.25	92.961	1.5124e-05	81.561	168.420	-9.213	44.479	-64.062	70.607	92.571	-65.400	-57.978	90.734	71.216	-60.958	-57.523	-54.735	-50.494	56.608	-54.480	-8191	255	
1605.978	1	1	0	0	0.14298	0.10116	0.077306	0.14388	0.20489	0.047703	0.04852	0.078096	0.15246	0.1893	0.23988	0.030741	0.063251	0.22582	0.23216	0.29768	-2.7042	-3.1271	-2.5187	-3.5312	-2.7792	-2.7333	-3.2917	-2.6312	-2.9021	-3.2021	-2.4958	-3.4625	-2.8688	-2.7979	-3.2625	-2.6667	222.083	84.524	190.885	-45.638	111.540	105.087	-53.418	-4.800	130.102	21.720	64.797	71.447	-28.457	214.281	183.021	245.360	0.00025119	0.00057106	0.00018666	775.85	3.3338e-06	6.7269e-06	550.75	312.47	3.578e-06	4.1287e-06	270.62	136	158.47	93.427	2.8659e-06	82.863	0.0010583	0.0014164	0.00040476	757.95	1.4577e-05	1.575e-05	541.92	308.85	1.4402e-05	1.4813e-05	265.59	134.95	158.34	93.34	1.375e-05	82.002	186.968	23.381	12.455	-63.570	50.870	78.138	-65.521	-58.287	58.514	79.137	-61.074	-57.139	-54.669	-50.460	44.782	-54.523	-8191	255	
1606.099	1	1	0	0	0.060705	0.057204	0.058806	0.28492	0.14947	0.10113	0.052348	0.15675	0.060916	0.15858	0.27818	0.13087	0.026303	0.41937	0.061914	0.07356	-2.5167	-3.1417	-2.3812	-3.2354	-2.8875	-2.5187	-3.4896	-2.5042	-2.7958	-3.1937	-2.4521	-3.2	-2.8604	-2.625	-3.4417	-2.6813	35.096	29.065	232.898	263.491	-2.162	-38.105	72.592	260.774	50.230	133.362	281.548	-22.144	145.023	234.686	74.631	-46.854	0.00020502	0.00066062	0.00019033	766.25	2.844e-06	6.2649e-06	547.01	313	4.0395e-06	7.5258e-06	271.03	137.85	161.69	95.821	4.2389e-06	84.913	0.00097798	0.0012729	0.00036511	747.22	1.3265e-05	1.4844e-05	537.55	309.78	1.3597e-05	1.4063e-05	268.07	137.1	161.1	95.218	1.3841e-05	83.97	173.610	-18.051	-7.409	-63.820	65.135	50.925	-65.348	-58.114	59.071	79.634	-61.334	-57.624	-54.699	-50.498	69.663	-54.419	-8191	255	
1606.193	1	1	0	0	0.1364	0.19169	0.12888	0.33359	0.22775	0.12682	0.040057	0.12601	0.13603	0.13801	0.080841	0.12296	0.09279	0.10736	0.19259	0.24855	-2.4	-3.1771	-2.2604	-3.2313	-2.9146	-2.3875	-3.3229	-2.6958	-2.6875	-3.2583	-2.6688	-3.075	-3.1958	-2.5542	-3.0208	-2.8417	-49.799	89.213	180.496	258.393	-61.898	-72.848	23.120	152.606	49.703	137.744	205.920	-62.896	258.678	274.141	53.067	240.204	0.00024677	0.00097748	0.0001556	769.95	3.0139e-06	4.5675e-06	554.99	322.57	2.6748e-06	5.919e-06	283.81	142.96	165.87	98.236	1.1524e-06	87.85	0.00095583	0.001236	0.00035393	753.58	1.2565e-05	1.398e-05	547.27	320.02	1.2757e-05	1.3315e-05	278.79	142.59	165.56	97.827	1.3137e-05	87.045	171.931	0.933	-0.061	-63.521	68.080	60.647	-65.134	-57.973	79.445	92.657	-61.197	-57.414	-54.745	-50.414	109.734	-54.523	-8191	255	
1606.265	1	1	0	0	0.06805	0.10816	0.2044	0.22511	0.10558	0.14282	0.28593	0.25369	0.24388	0.18019	0.084386	0.13932	0.14845	0.15228	0.095984	0.059792	-2.325	-3.1521	-2.2958	-3.1333	-2.9229	-2.4292	-3.3333	-2.6229	-2.3646	-3.2479	-2.4229	-3.1854	-3.3146	-2.4313	-3.25	-2.8354	69.078	40.925	-41.784	-0.562	204.621	129.444	100.971	180.257	124.710	-9.791	132.869	98.729	262.682	238.288	-16.090	191.972	0.00028376	0.00063596	0.00018009	774.82	5.0288e-06	5.6209e-06	562.99	327.42	4.8264e-06	5.5953e-06	282.64	142.85	164.56	96.574	3.9362e-06	84.898	0.00093126	0.0011765	0.00034226	760.1	1.2152e-05	1.3661e-05	554.21	323.75	1.259e-05	1.3101e-05	279.33	142.58	164.26	96.14	1.3263e-05	84.445	175.775	-1.433	32.994	-63.792	67.840	53.421	-65.119	-57.890	51.207	85.099	-61.143	-57.095	-54.768	-50.469	69.589	-54.061	-8191	255	
1606.361	1	1	0	0	0.1289	0.099299	0.1156	0.24674	0.099054	0.08945	0.16245	0.24407	0.15656	0.10103	0.0506	0.2137	0.19306	0.1515	0.21564	0.14959	-2.0833	-3.1729	-2.5021	-2.7042	-3.1813	-2.3792	-3.1271	-2.9688	-2.4042	-3.2542	-2.4188	-2.775	-3.2792	-2.4667	-2.9833	-3.0583	34.950	-74.179	-46.762	249.819	86.043	220.459	143.375	-47.538	282.641	-26.842	-37.694	-45.183	-46.237	-58.069	157.084	108.233	0.000234	0.00071478	0.00019759	765.17	1.511e-06	6.5201e-06	551.29	316.81	3.0542e-06	7.0546e-06	270.42	135.37	157.79	91.959	1.2649e-06	81.993	0.00095297	0.0011756	0.00034044	748.09	1.2202e-05	1.3448e-05	541.08	312.67	1.3109e-05	1.3503e-05	267.07	134.89	157.34	91.698	1.3231e-05	81.133	186.245	-3.905	13.932	-63.627	92.815	75.429	-64.959	-58.169	44.544	67.762	-61.100	-57.610	-54.676	-49.981	45.681	-54.358	-8191	255	
1606.482	1	1	0	0	0.26417	0.18991	0.088699	0.090278	0.18644	0.1523	0.20569	0.015758	0.12367	0.157	0.020692	0.11075	0.12863	0.16677	0.108	0.20548	-1.8375	-3.1542	-2.5146	-2.7812	-3.2083	-2.3125	-3.1479	-3.0312	-2.2188	-3.2	-2.7333	-2.4542	-3.5229	-2.5042	-2.8937	-3.0292	195.352	242.684	115.711	-9.620	236.671	-46.488	264.831	141.132	246.049	43.595	41.506	112.932	163.797	270.013	110.654	120.866	0.00023622	0.00089491	0.00019045	758.24	4.0641e-06	7.2254e-06	544.89	311.28	4.4619e-06	3.6577e-06	270.31	135.8	155.87	90.77	3.622e-06	80.95	0.00093337	0.0011803	0.0003294	741.49	1.1797e-05	1.2883e-05	534.8	308.37	1.1847e-05	1.2199e-05	266.83	134.57	155.87	90.237	1.2053e-05	80.05	176.317	8.611	17.794	-63.873	45.964	73.442	-65.125	-57.935	71.322	91.442	-61.337	-57.231	-54.560	-50.450	35.455	-54.258	-8191	255	
1606.578	1	1	0	0	0.12293	0.077117	0.25364	0.18686	0.25195	0.42247	0.1214	0.063525	0.078868	0.059558	0.083313	0.1988	0.25112	0.20114	0.1129	0.20707	-1.8958	-3.1708	-2.8417	-2.6479	-3.175	-2.45	-3.1229	-3.2417	-2.2104	-3.0875	-2.8812	-2.7521	-3.2792	-2.6208	-2.7646	-3.2396	-41.774	139.419	43.191	229.212	-16.034	-50.501	-40.265	242.848	-71.693	-23.099	-43.960	-18.231	251.962	276.361	63.380	205.610	0.00022346	0.00085635	0.00013877	749.24	2.5551e-06	7.2642e-06	543.66	310.98	2.5274e-06	6.3018e-06	271.25	133.58	152.79	87.008	5.5327e-06	78.083	0.00088936	0.0011068	0.00031147	731.53	1.0862e-05	1.1799e-05	532.63	306.17	1.112e-05	1.1298e-05	266.85	133.01	152.08	86.695	1.1601e-05	77.286	180.204	8.556	24.974	-63.547	70.896	63.246	-65.356	-57.931	71.974	89.247	-61.242	-57.438	-54.461	-50.162	55.757	-53.836	-8191	255	
1606.674	1	1	0	0	0.099022	0.11307	0.28635	0.083256	0.37591	0.1134	0.10508	0.26104	0.15848	0.31176	0.20421	0.15674	0.23419	0.32269	0.070937	0.25418	-2.0062	-3.2854	-2.725	-2.4396	-3.2313	-2.3937	-3.0125	-3.2833	-2.3875	-3.2188	-3.0563	-2.5167	-3.4042	-2.7854	-2.6729	-3.4021	-16.962	-52.990	261.243	193.481	-11.527	172.642	-71.382	266.312	55.646	-1.067	145.871	166.345	245.311	230.893	243.172	282.531	0.00019554	0.00056964	0.00015136	737.59	2.0736e-06	4.2164e-06	534.44	303.12	2.8295e-06	8.4039e-06	264.82	128.3	147.69	83.125	3.3317e-06	74.86	0.00084294	0.0010599	0.00030456	721.32	1.0816e-05	1.1784e-05	525.1	299.86	1.1144e-05	1.1453e-05	260.22	128.06	147.05	82.711	1.1653e-05	74.145	172.716	9.427	-6.764	-63.648	31.789	82.864	-65.100	-58.436	59.606	60.327	-60.839	-57.052	-54.579	-50.022	115.101	-54.269	-8191	255	
1606.770	1	1	0	0	0.203	0.12638	0.23251	0.41302	0.045182	0.23567	0.494	0.11366	0.096072	0.044826	0.059194	0.086995	0.067406	0.19953	0.29674	0.31292	-2.1	-2.9979	-2.8854	-2.4396	-3.3187	-2.6229	-2.7167	-3.3208	-2.1792	-3.0354	-3.1125	-2.2188	-3.4062	-2.6937	-2.45	-3.3646	21.832	177.925	130.958	-8.955	253.623	-15.899	242.152	231.550	-35.192	281.909	147.579	116.230	138.042	250.495	-14.828	276.578	0.00020624	0.00085566	0.00015663	730.61	4.0234e-06	4.0315e-06	531.25	300.59	2.034e-06	4.5672e-06	263.13	128.96	147.8	83.668	1.8396e-06	76.305	0.0008489	0.0010623	0.00029976	713.76	1.0353e-05	1.1438e-05	521.39	296.45	1.1114e-05	1.1435e-05	259.4	128.46	147.05	83.373	1.158e-05	75.403	179.317	-13.824	11.830	-63.851	100.859	111.022	-65.075	-57.894	58.014	85.065	-60.913	-57.146	-54.622	-49.887	107.704	-53.730	-8191	255	
1606.866	1	1	0	0	0.073984	0.25783	0.16273	0.11237	0.16543	0.2747	0.18536	0.049507	0.20125	0.22488	0.17351	0.22901	0.2659	0.10347	0.13885	0.30467	-2.0083	-2.8604	-3.0896	-2.325	-3.2208	-2.7479	-2.6708	-3.2854	-2.4479	-2.7146	-3.2896	-2.5958	-3.2667	-3.0375	-2.6583	-3.4333	120.456	-6.154	-75.643	258.380	195.539	115.973	251.580	114.424	169.306	59.601	-31.631	157.119	147.689	26.855	5.221	279.047	0.00019332	0.00045745	0.00021117	736.14	5.4318e-06	7.9814e-06	541.13	308.53	4.4146e-06	4.3814e-06	273.92	135.37	155.02	88.562	2.6971e-06	81.081	0.00084768	0.0010697	0.00031184	721.08	1.1178e-05	1.1899e-05	530.57	304.71	1.1146e-05	1.1734e-05	269.63	135.06	154.31	88.001	1.1384e-05	80.382	177.188	15.634	26.507	-63.918	77.037	61.252	-65.042	-58.423	27.296	91.457	-60.897	-57.321	-54.593	-50.211	79.817	-54.005	-8191	255	
1606.962	1	1	0	0	0.24778	0.17303	0.11866	0.1895	0.28625	0.1705	0.14665	0.23573	0.15041	0.24267	0.19834	0.20766	0.28276	0.19694	0.11748	0.2174	-2.1708	-2.5625	-3.1979	-2.4708	-2.9521	-2.9979	-2.6625	-3.4271	-2.7271	-2.6708	-3.4875	-2.6437	-3.0563	-3.3937	-2.3354	-3.3563	95.574	34.648	31.371	201.676	197.777	183.394	217.217	185.612	17.693	114.157	50.742	271.169	-56.041	231.452	233.860	-60.562	0.00025044	0.00054885	0.00018349	751.39	2.8477e-06	4.0343e-06	552.53	319.3	3.4862e-06	7.5821e-06	285.64	139.68	157.22	88.195	4.95e-06	81.18	0.00082379	0.0010523	0.00029059	732.93	1.0687e-05	1.1452e-05	544.3	315.28	1.0954e-05	1.1704e-05	280.96	139.11	156.7	87.8	1.1419e-05	80.323	175.685	35.176	18.375	-63.795	72.439	77.818	-64.935	-58.077	48.046	63.506	-61.255	-57.219	-54.670	-50.374	57.196	-54.107	-8191	255	
1607.059	1	1	0	0	0.081959	0.2511	0.23118	0.046542	0.2309	0.14667	0.055066	0.18466	0.2535	0.21108	0.078554	0.060095	0.23179	0.20003	0.071291	0.19316	-2.4875	-2.5625	-3.5563	-2.5625	-2.9542	-3.0979	-2.5208	-3.4125	-2.5979	-2.5208	-3.4396	-2.5292	-3.0417	-3.3937	-2.4437	-3.3458	9.008	202.387	-59.528	4.800	31.418	124.829	146.785	60.792	34.957	59.274	267.886	49.020	182.102	-41.371	92.416	-68.291	0.00022265	0.00048361	0.00013802	742.01	4.137e-06	7.1339e-06	546.38	315.25	1.7639e-06	4.5788e-06	282.45	137.95	154.01	85.405	4.8642e-06	78.778	0.00083289	0.0010492	0.00028318	725.62	1.0295e-05	1.1187e-05	538.36	310.64	1.0704e-05	1.1176e-05	279.26	136.78	153.08	84.689	1.1186e-05	77.902	176.205	29.401	20.364	-63.780	98.822	70.866	-65.004	-58.249	87.631	99.975	-61.130	-57.076	-54.691	-50.305	73.793	-54.010	-8191	255	
1607.179	1	1	0	0	0.063951	0.18912	0.12787	0.3077	0.15528	0.0069909	0.11327	0.066327	0.17594	0.36179	0.18155	0.40588	0.19415	0.28526	0.28725	0.22696	-2.5479	-2.5187	-3.3792	-2.5396	-2.8458	-3.2438	-2.5083	-3.2417	-2.8646	-2.25	-3.5687	-2.6708	-2.9521	-3.4625	-2.3104	-3.2625	203.220	126.611	215.796	219.036	216.826	-8.128	78.923	190.287	230.728	-17.928	245.354	280.165	253.620	277.039	52.304	-76.396	0.00022105	0.00081057	0.00017924	734.84	2.8194e-06	7.1714e-06	548.93	311.12	1.8523e-06	4.8607e-06	282.21	136.92	150.65	83.013	4.617e-06	77.501	0.00079741	0.0010424	0.00028715	719.66	1.0418e-05	1.1143e-05	538.78	308.09	1.0383e-05	1.1306e-05	278.68	135.58	150.41	82.576	1.1361e-05	76.852	177.460	23.439	43.683	-63.906	63.809	90.319	-65.343	-58.464	73.393	57.910	-61.271	-57.219	-54.303	-50.102	104.004	-54.039	-8191	255	
1607.274	1	1	0	0	0.065816	0.073647	0.12939	0.20024	0.14421	0.057175	0.33505	0.25942	0.12937	0.13679	0.063922	0.20462	0.264	0.21037	0.28631	0.080479	-2.6625	-2.2833	-3.1917	-2.7021	-2.5604	-3.2979	-2.3271	-3.1708	-3.125	-2.3312	-3.2917	-2.6083	-2.6917	-3.6104	-2.2188	-3.1271	-66.116	219.464	-44.062	-23.905	-62.714	94.150	200.723	-73.236	251.631	225.211	136.651	58.957	172.316	251.224	167.695	171.763	0.00024992	0.0005626	7.5995e-05	734.92	2.884e-06	7.9743e-06	544.17	309.98	1.7263e-06	4.5949e-06	278.71	134	149.37	82.751	6.2016e-06	76.302	0.00080939	0.0010684	0.00029017	718.13	1.0858e-05	1.1682e-05	537.3	305.77	1.1544e-05	1.2677e-05	274.58	133.34	149.34	82.299	1.2378e-05	75.707	169.577	2.934	28.162	-64.162	65.244	92.001	-65.368	-58.318	25.934	110.028	-60.951	-57.310	-54.547	-50.064	40.062	-53.740	-8191	255	
1607.370	1	1	0	0	0.32301	0.35732	0.16296	0.13804	0.22133	0.09841	0.020091	0.091492	0.098101	0.10028	0.29498	0.13498	0.14791	0.27245	0.030866	0.10498	-2.7583	-2.2854	-3.2021	-2.7521	-2.5271	-3.2625	-2.4646	-2.9958	-3.1708	-2.4021	-3.2521	-3.0146	-2.5333	-3.625	-2.5875	-3.0375	88.619	-65.907	139.668	225.121	130.310	43.994	244.067	240.266	139.251	169.411	187.401	208.372	-25.188	248.053	-32.655	43.105	0.00023131	0.00034148	0.00017185	734.23	3.3426e-06	4.1796e-06	540.75	305.74	3.5786e-06	7.2689e-06	271.12	130.42	148.08	81.814	3.6895e-06	74.984	0.00087939	0.0011817	0.0003272	720.94	1.2365e-05	1.3557e-05	532	301.82	1.2531e-05	1.3793e-05	267.34	130.11	147.46	81.393	1.3609e-05	74.447	173.353	12.795	-0.588	-63.980	73.821	72.192	-65.534	-58.032	103.127	76.034	-61.145	-57.506	-54.555	-50.076	76.068	-53.930	-8191	255	
1607.466	1	1	0	0	0.11468	0.20956	0.15485	0.38371	0.15026	0.040138	0.087275	0.26759	0.2949	0.10734	0.33274	0.37392	0.095374	0.28981	0.14991	0.2083	-2.8146	-2.4208	-3.0438	-2.9708	-2.4771	-3.4188	-2.6542	-2.8854	-3.3021	-2.425	-3.2979	-2.9125	-2.6875	-3.4792	-2.5208	-2.8354	211.110	89.030	67.457	256.097	251.791	237.822	-17.944	0.504	181.152	85.554	122.098	229.919	198.501	211.486	48.938	92.844	0.00019823	0.00076178	0.00019917	733.92	5.0107e-06	9.0427e-06	537.37	307.21	3.2504e-06	6.2484e-06	273.6	132.4	151.23	84.256	3.115e-06	77.882	0.00093447	0.0012658	0.00035082	720.18	1.3212e-05	1.3998e-05	531.25	303.52	1.3195e-05	1.4574e-05	270.4	132.23	151.09	83.863	1.4768e-05	77.083	179.464	15.566	-12.829	-64.163	49.532	86.079	-65.314	-58.399	79.690	80.655	-61.084	-57.302	-54.477	-50.029	49.998	-54.049	-8191	255	
#DATA ENDS
