BOXY.EXE: ISS Imagent and Oximeter Data Acquisition Program Version 0.80
Ascii Record File

#ACQ INFORMATION
2  Detector Channels 
16  External MUX Channels 
1  Auxiliary Channels 
5000  Waveform (CCF) Frequency (Hz)
1  Waveforms Skipped 
30  Waveforms Averaged 
1  Cycles Averaged 
16  Acquisitions per Waveform 
10.0806  Updata Rate (Hz) 

#FILE INFORMATION
TRUE -- External MUX Channel results are PARSED.
FALSE -- AC DC and Phase are NOT grouped.
TRUE -- Companion Program Settings File CREATED.
FALSE -- AC data not excluded
FALSE -- DC data not excluded
FALSE -- Phase data not excluded
FALSE -- Auxillary Chn. data not excluded
Tab delimiters

#CALIBRATION STATE
TRUE -- Waveform Calibration Values APPLIED.


#AUX CALIBRATION VALUES
Val Type	aux-1	

Term	1.0000e+00	
Factor	0.0000e+00	


#WF CALIBRATION VALUES
A = Detector Channel
Val Type	A-AC1	A-AC2	A-AC3	A-AC4	A-AC5	A-AC6	A-AC7	A-AC8	A-AC9	A-AC10	A-AC11	A-AC12	A-AC13	A-AC14	A-AC15	A-AC16	A-DC1	A-DC2	A-DC3	A-DC4	A-DC5	A-DC6	A-DC7	A-DC8	A-DC9	A-DC10	A-DC11	A-DC12	A-DC13	A-DC14	A-DC15	A-DC16	A-Ph1	A-Ph2	A-Ph3	A-Ph4	A-Ph5	A-Ph6	A-Ph7	A-Ph8	A-Ph9	A-Ph10	A-Ph11	A-Ph12	A-Ph13	A-Ph14	A-Ph15	A-Ph16	

Term	0.00000e+00	0.00000e+00	0.00000e+00	0.00000e+00	0.00000e+00	0.00000e+00	0.00000e+00	0.00000e+00	0.00000e+00	0.00000e+00	0.00000e+00	0.00000e+00	0.00000e+00	0.00000e+00	0.00000e+00	0.00000e+00	0.00000e+00	0.00000e+00	0.00000e+00	0.00000e+00	0.00000e+00	0.00000e+00	0.00000e+00	0.00000e+00	0.00000e+00	0.00000e+00	0.00000e+00	0.00000e+00	0.00000e+00	0.00000e+00	0.00000e+00	0.00000e+00	0.00000e+00	0.00000e+00	0.00000e+00	0.00000e+00	0.00000e+00	0.00000e+00	0.00000e+00	0.00000e+00	0.00000e+00	0.00000e+00	0.00000e+00	0.00000e+00	0.00000e+00	0.00000e+00	0.00000e+00	0.00000e+00	
Factor	1.00000e+00	1.00000e+00	1.00000e+00	1.00000e+00	1.00000e+00	1.00000e+00	1.00000e+00	1.00000e+00	1.00000e+00	1.00000e+00	1.00000e+00	1.00000e+00	1.00000e+00	1.00000e+00	1.00000e+00	1.00000e+00	1.00000e+00	1.00000e+00	1.00000e+00	1.00000e+00	1.00000e+00	1.00000e+00	1.00000e+00	1.00000e+00	1.00000e+00	1.00000e+00	1.00000e+00	1.00000e+00	1.00000e+00	1.00000e+00	1.00000e+00	1.00000e+00	X	X	X	X	X	X	X	X	X	X	X	X	X	X	X	X	

B = Detector Channel
Val Type	B-AC1	B-AC2	B-AC3	B-AC4	B-AC5	B-AC6	B-AC7	B-AC8	B-AC9	B-AC10	B-AC11	B-AC12	B-AC13	B-AC14	B-AC15	B-AC16	B-DC1	B-DC2	B-DC3	B-DC4	B-DC5	B-DC6	B-DC7	B-DC8	B-DC9	B-DC10	B-DC11	B-DC12	B-DC13	B-DC14	B-DC15	B-DC16	B-Ph1	B-Ph2	B-Ph3	B-Ph4	B-Ph5	B-Ph6	B-Ph7	B-Ph8	B-Ph9	B-Ph10	B-Ph11	B-Ph12	B-Ph13	B-Ph14	B-Ph15	B-Ph16	

Term	0.00000e+00	0.00000e+00	0.00000e+00	0.00000e+00	0.00000e+00	0.00000e+00	0.00000e+00	0.00000e+00	0.00000e+00	0.00000e+00	0.00000e+00	0.00000e+00	0.00000e+00	0.00000e+00	0.00000e+00	0.00000e+00	0.00000e+00	0.00000e+00	0.00000e+00	0.00000e+00	0.00000e+00	0.00000e+00	0.00000e+00	0.00000e+00	0.00000e+00	0.00000e+00	0.00000e+00	0.00000e+00	0.00000e+00	0.00000e+00	0.00000e+00	0.00000e+00	-1.27807e+02	-1.29926e+02	-1.26772e+02	-1.80573e+02	-6.73208e+01	-6.76919e+01	-1.56582e+02	-1.62015e+02	-7.01869e+01	-5.52664e+01	-1.75242e+02	-1.71164e+02	-1.79933e+02	-1.76303e+02	-6.70147e+01	-1.49553e+02	
Factor	2.02714e-05	1.91716e-04	4.79495e-05	1.62367e-01	1.27428e-06	1.92766e-06	1.87826e-01	5.79250e-02	1.30275e-06	1.88192e-06	1.08611e-01	3.63822e-02	2.76640e-02	1.06877e-02	1.58961e-06	1.52523e-02	1.17346e-05	1.91389e-05	5.38533e-06	8.14419e-02	1.92304e-07	2.14576e-07	8.87117e-02	2.92306e-02	1.94660e-07	2.13727e-07	5.29229e-02	1.78944e-02	1.41700e-02	5.42369e-03	2.02256e-07	7.50969e-03	X	X	X	X	X	X	X	X	X	X	X	X	X	X	X	X	



#DISTANCE SETTINGS
A = Detector Channel
A-1	A-2	A-3	A-4	A-5	A-6	A-7	A-8	A-9	A-10	A-11	A-12	A-13	A-14	A-15	A-16	

2.5000e+00	3.0000e+00	2.5000e+00	3.0000e+00	2.0000e+00	3.0000e+00	1.5000e+00	3.0000e+00	3.0000e+00	3.0000e+00	3.0000e+00	3.0000e+00	3.0000e+00	3.0000e+00	1.5000e+00	3.0000e+00	

B = Detector Channel
B-1	B-2	B-3	B-4	B-5	B-6	B-7	B-8	B-9	B-10	B-11	B-12	B-13	B-14	B-15	B-16	

1.0000e+01	1.0000e+01	1.0000e+01	1.4400e+00	1.0000e+01	1.0000e+01	1.5100e+00	1.9400e+00	1.0000e+01	1.0000e+01	1.9900e+00	2.4900e+00	2.4100e+00	2.9000e+00	1.0000e+01	2.9800e+00	




#DATA BEGINS
time	group	step	mark	flag	A-AC1	A-AC2	A-AC3	A-AC4	A-AC5	A-AC6	A-AC7	A-AC8	A-AC9	A-AC10	A-AC11	A-AC12	A-AC13	A-AC14	A-AC15	A-AC16	A-DC1	A-DC2	A-DC3	A-DC4	A-DC5	A-DC6	A-DC7	A-DC8	A-DC9	A-DC10	A-DC11	A-DC12	A-DC13	A-DC14	A-DC15	A-DC16	A-Ph1	A-Ph2	A-Ph3	A-Ph4	A-Ph5	A-Ph6	A-Ph7	A-Ph8	A-Ph9	A-Ph10	A-Ph11	A-Ph12	A-Ph13	A-Ph14	A-Ph15	A-Ph16	B-AC1	B-AC2	B-AC3	B-AC4	B-AC5	B-AC6	B-AC7	B-AC8	B-AC9	B-AC10	B-AC11	B-AC12	B-AC13	B-AC14	B-AC15	B-AC16	B-DC1	B-DC2	B-DC3	B-DC4	B-DC5	B-DC6	B-DC7	B-DC8	B-DC9	B-DC10	B-DC11	B-DC12	B-DC13	B-DC14	B-DC15	B-DC16	B-Ph1	B-Ph2	B-Ph3	B-Ph4	B-Ph5	B-Ph6	B-Ph7	B-Ph8	B-Ph9	B-Ph10	B-Ph11	B-Ph12	B-Ph13	B-Ph14	B-Ph15	B-Ph16	aux-1	digaux	

1020.095	1	1	0	256	0.034073	0.21596	0.098813	0.03719	0.20016	0.12016	0.18039	0.31033	0.11135	0.097392	0.11075	0.11021	0.24263	0.15449	0.2424	0.24505	-3.4	-2.5792	-3.2938	-3.3583	-2.8792	-3.6208	-3.1188	-2.8312	-3.3937	-2.7771	-3.5083	-3.4646	-2.6417	-3.4833	-2.9917	-2.975	330.123	425.449	270.015	173.956	436.141	440.775	163.377	398.297	212.695	382.015	380.701	189.991	473.536	514.980	438.206	470.740	0.00024434	0.00035819	6.7122e-05	1124.3	1.4259e-06	3.5661e-06	1212	232.14	1.662e-06	3.77e-06	290.86	82.502	64.706	19.192	3.0109e-06	26.842	0.00046523	0.00059223	0.00017087	1109.3	6.4458e-06	6.4695e-06	1202.2	231.05	6.4165e-06	6.6536e-06	291.02	83.264	65.321	19.528	6.4962e-06	27.37	201.228	256.400	287.043	173.854	272.093	311.847	173.664	181.297	269.521	332.913	180.772	187.226	188.073	195.101	308.710	195.179	-8191	255	
1020.191	1	1	0	0	0.18835	0.19021	0.31859	0.23224	0.096239	0.18684	0.19233	0.25524	0.033549	0.26664	0.16162	0.16364	0.0871	0.24909	0.304	0.14458	-3.5167	-2.6854	-3.1167	-3.5146	-2.6417	-3.6458	-3.2625	-2.7333	-3.4333	-2.6688	-3.25	-3.5542	-2.7292	-3.4729	-2.975	-2.975	400.904	458.942	248.956	497.442	454.077	391.802	405.778	440.277	227.632	339.952	341.232	501.871	318.975	515.558	164.492	316.496	0.00025146	0.00034811	0.00010643	1115.9	2.9466e-06	3.7289e-06	1203.6	232.1	3.8954e-06	1.7724e-06	290.04	82.212	65.313	19.227	2.859e-06	26.873	0.0004751	0.00061348	0.00017653	1107.4	6.5988e-06	6.7078e-06	1202.1	230.87	6.4274e-06	6.5409e-06	291.38	83.024	65.534	19.556	6.5017e-06	27.362	199.481	265.954	230.218	174.310	322.681	324.900	174.144	181.394	294.535	366.299	181.044	187.205	187.236	195.015	310.478	194.546	-8191	255	
1020.285	1	1	0	0	0.16729	0.030453	0.46467	0.062037	0.21607	0.10898	0.061853	0.2487	0.15439	0.15011	0.1549	0.06724	0.21676	0.16651	0.2125	0.29586	-3.1729	-2.6917	-3.05	-3.8063	-2.5833	-3.2875	-3.4188	-2.7729	-3.5917	-2.7875	-2.9458	-3.5187	-2.6312	-3.5271	-3.3229	-2.6063	230.273	327.463	484.440	414.972	319.474	172.255	353.481	394.027	350.667	451.846	477.154	264.982	489.716	273.551	203.143	323.822	0.00025147	0.00048247	0.00011165	1128.5	2.2241e-06	6.6999e-06	1216.5	232.28	2.7514e-06	1.7594e-06	292.23	82.717	65.248	19.262	1.5465e-06	26.84	0.00046743	0.00058258	0.00016781	1111.3	6.2395e-06	6.52e-06	1203	231.05	6.1525e-06	6.4109e-06	291.5	83.298	65.453	19.549	6.7149e-06	27.336	201.339	225.214	296.734	172.641	295.357	328.506	172.451	179.999	305.784	348.226	179.803	186.177	186.907	194.424	324.376	194.300	-8191	255	
1020.381	1	1	0	0	0.15726	0.34472	0.12979	0.18409	0.16547	0.086643	0.11446	0.011233	0.22272	0.049287	0.22727	0.29459	0.2063	0.09647	0.1069	0.22251	-3.1937	-2.8792	-2.8958	-3.7938	-2.8479	-3.2125	-3.5167	-2.8	-3.5979	-3.1646	-2.9938	-3.8479	-2.85	-3.3688	-3.6604	-2.7438	277.134	348.111	170.775	476.894	468.245	266.237	472.929	211.315	364.346	400.200	514.162	505.896	359.092	441.387	450.933	336.759	0.00026459	0.00039838	0.00012144	1124.7	2.7091e-06	2.0929e-06	1225	233.95	3.7256e-06	3.2317e-06	292.21	82.371	65.392	19.236	2.422e-06	27.009	0.00048567	0.00065288	0.00018609	1110.8	6.8011e-06	7.2531e-06	1207.3	231.61	6.9595e-06	7.6982e-06	292.6	83.232	65.614	19.604	7.644e-06	27.417	197.617	284.350	286.857	173.034	312.976	326.601	172.524	180.014	280.645	315.849	180.242	186.097	186.725	194.522	269.564	194.050	-8191	255	
1020.477	1	1	0	0	0.20692	0.19607	0.062294	0.36958	0.22218	0.11793	0.14547	0.22222	0.23125	0.10411	0.15962	0.18616	0.23734	0.15721	0.10737	0.064723	-3.1729	-2.9667	-2.8417	-3.7958	-2.825	-3.0979	-3.5417	-2.6417	-3.4125	-3.3417	-3.0021	-3.7354	-2.6042	-3.2042	-3.6229	-2.6042	454.941	463.081	284.406	212.420	479.750	275.170	390.829	190.725	253.159	494.931	519.710	486.971	457.724	199.560	380.758	410.436	0.00028229	0.00017699	8.0498e-05	1136.6	3.1266e-06	3.2901e-06	1230.4	234.33	3.4278e-06	2.7057e-06	293.92	82.686	65.938	19.545	3.0307e-06	27.023	0.00056901	0.00075599	0.0002162	1123	7.6958e-06	8.5482e-06	1216.3	233.11	8.0253e-06	8.4405e-06	294.52	83.855	66.157	19.822	7.7506e-06	27.575	203.326	241.266	271.900	172.670	272.581	280.023	172.131	179.985	321.190	302.144	179.954	186.401	186.494	194.770	363.113	193.546	-8191	255	
1020.574	1	1	0	0	0.11066	0.012092	0.10607	0.14982	0.28835	0.14096	0.21544	0.063918	0.1826	0.037891	0.11495	0.11889	0.35608	0.19807	0.021608	0.23272	-2.8875	-3.0708	-2.75	-3.9313	-2.6979	-2.9875	-3.7021	-2.75	-3.35	-3.2083	-2.7271	-3.6063	-2.9271	-2.9229	-3.6979	-2.8479	458.036	240.456	516.521	512.129	367.363	189.968	413.402	207.277	453.623	383.820	288.304	450.646	161.915	473.933	468.809	363.355	0.00026023	0.00044758	0.00013094	1148.5	3.7519e-06	4.8861e-06	1237.2	234.12	3.8269e-06	1.9316e-06	295.29	83.801	65.748	19.305	4.085e-06	26.928	0.00055585	0.00076177	0.0002046	1130.3	7.8672e-06	8.4262e-06	1222.1	233.91	7.5532e-06	8.3265e-06	295.59	84.247	66.433	19.737	7.6449e-06	27.609	193.841	264.087	252.604	172.885	304.017	333.133	172.486	179.875	294.337	346.091	179.650	185.824	186.340	194.494	331.974	193.703	-8191	255	
1020.670	1	1	0	0	0.14613	0.27513	0.24767	0.13491	0.15142	0.018834	0.21321	0.30308	0.085983	0.14349	0.20943	0.26934	0.038246	0.175	0.12541	0.19559	-2.9583	-3.35	-2.5125	-3.7875	-2.9938	-3.0229	-3.9562	-2.7958	-3.4042	-3.3896	-2.6312	-3.5917	-2.9542	-2.7604	-3.8292	-2.7146	302.595	405.984	280.657	192.536	190.146	461.600	498.022	462.165	508.617	207.685	194.369	195.114	329.051	286.776	275.778	412.445	0.0002829	0.00022515	0.00011528	1153.7	3.3059e-06	3.0637e-06	1240.1	236.66	5.017e-06	2.1204e-06	296.73	83.794	66.108	19.393	1.3378e-06	27.003	0.00057864	0.00075866	0.00020849	1133.8	8.0635e-06	8.6139e-06	1227.5	234.93	8.1368e-06	8.4449e-06	294.96	84.472	66.54	19.839	7.6777e-06	27.686	199.979	242.779	227.550	172.815	332.258	301.814	172.637	180.288	278.962	331.947	179.858	186.219	186.572	194.627	236.208	193.556	-8191	255	
1020.766	1	1	0	0	0.34248	0.079151	0.24707	0.27079	0.11173	0.21956	0.39169	0.08046	0.24754	0.091874	0.17353	0.084144	0.20738	0.11365	0.11218	0.096665	-2.9875	-3.4771	-2.625	-3.6771	-3.2625	-2.7021	-3.6167	-2.8854	-2.9938	-3.5917	-2.7833	-3.5708	-3.3833	-2.85	-3.5458	-2.8063	225.980	229.838	350.539	180.537	319.280	448.505	514.393	521.885	237.899	370.960	412.422	394.730	346.566	405.489	420.499	453.807	0.00025175	0.00064635	6.2368e-05	1157.3	2.9533e-06	3.7968e-06	1244.6	235.65	4.4518e-06	3.2888e-06	294.93	84.198	66.015	19.378	4.8079e-06	26.988	0.00056531	0.00074323	0.00020784	1137	8.1296e-06	8.6859e-06	1229.6	234.75	8.2374e-06	8.5081e-06	295.92	84.605	66.579	19.874	8.1442e-06	27.577	202.178	268.529	210.059	172.946	276.510	334.331	172.558	179.914	294.689	345.408	180.125	186.123	186.828	194.581	357.185	193.957	-8191	255	
1020.886	1	1	0	0	0.087227	0.245	0.18358	0.16636	0.18873	0.10689	0.28529	0.099449	0.13907	0.068759	0.14544	0.25913	0.16164	0.08536	0.33683	0.19043	-2.6396	-3.7125	-2.6667	-3.5729	-3.4104	-2.8458	-3.6875	-2.9229	-3.0125	-3.6729	-2.9333	-3.4104	-3.4188	-2.8479	-3.475	-2.8542	465.294	206.808	352.916	392.285	493.970	259.739	460.203	384.243	478.969	216.548	285.944	172.840	175.588	469.291	456.551	250.965	0.00026836	0.00044544	0.00016157	1154	2.4233e-06	5.9047e-06	1247	237.06	3.7236e-06	3.0708e-06	297.45	83.84	66.287	19.481	4.2486e-06	27.335	0.00060871	0.0007695	0.00022088	1139.7	8.3251e-06	8.8128e-06	1231.3	235.92	8.1627e-06	8.2632e-06	296.9	84.635	66.862	19.89	7.6217e-06	27.788	196.039	209.349	271.764	172.851	286.420	273.141	172.489	180.208	286.894	351.705	179.914	186.118	186.797	194.772	311.760	193.941	-8191	255	
1020.983	1	1	0	0	0.14218	0.25412	0.21926	0.20613	0.12344	0.24774	0.13072	0.068686	0.16875	0.082274	0.18831	0.14099	0.14395	0.087176	0.090157	0.088979	-2.3833	-3.4396	-2.6083	-3.3375	-3.5271	-2.55	-3.6417	-2.9271	-2.8229	-3.6104	-2.7188	-3.2521	-3.5563	-2.7687	-3.4229	-3.3375	426.058	518.218	302.384	412.209	498.293	483.932	187.200	295.178	301.158	186.376	182.387	274.642	432.266	510.361	194.985	188.226	0.00027164	0.00045741	2.7889e-05	1159.5	3.822e-06	2.9317e-06	1249.4	237.49	3.5921e-06	3.3185e-06	297.41	84.48	66.434	19.635	1.1989e-06	27.086	0.00056693	0.0006963	0.00020407	1141	7.588e-06	7.938e-06	1234	236.23	7.5706e-06	7.517e-06	296.93	84.716	66.797	19.944	7.7038e-06	27.701	199.844	248.809	331.204	172.406	303.060	320.261	172.143	179.652	252.486	287.703	179.630	185.764	186.515	194.261	338.621	193.557	-8191	255	
1021.054	1	1	0	0	0.15621	0.10253	0.03241	0.14003	0.04318	0.056073	0.34594	0.077514	0.14297	0.32121	0.29613	0.21381	0.30686	0.075482	0.22946	0.29809	-2.5812	-3.6937	-2.9562	-3.4708	-3.525	-2.7208	-3.5438	-3.2521	-2.7479	-3.3979	-2.6479	-3.0062	-3.4771	-2.65	-3.3708	-3.4688	431.800	470.076	233.134	397.708	287.471	509.768	513.461	299.535	501.425	192.131	500.601	439.043	420.793	272.716	210.442	163.533	0.00028164	0.0002305	3.2697e-05	1156.6	1.7695e-06	2.077e-06	1250.7	236.24	3.2992e-06	2.6878e-06	298.38	83.422	66.584	19.59	5.9442e-06	27.209	0.00055373	0.0006888	0.00019902	1140.7	7.9205e-06	8.1615e-06	1233	235.73	8.2487e-06	8.2192e-06	297.22	84.675	66.851	19.913	8.6178e-06	27.817	197.011	237.436	229.156	172.581	274.829	297.523	172.262	179.896	320.716	354.520	179.120	185.838	186.371	194.382	264.125	193.584	-8191	255	
1021.175	1	1	0	0	0.14856	0.16699	0.23386	0.19793	0.25466	0.072437	0.040724	0.22818	0.20912	0.164	0.089986	0.076688	0.49887	0.10286	0.1793	0.023564	-2.3812	-3.5792	-2.9896	-3.1562	-3.6708	-2.7896	-3.7062	-3.4417	-2.6292	-3.4604	-2.9167	-2.7896	-3.7313	-2.9083	-3.3521	-3.4458	382.072	402.646	477.495	434.189	317.750	363.657	403.448	499.508	431.336	416.792	233.046	206.272	513.460	206.730	494.261	361.255	0.00026593	0.000275	8.2003e-05	1159.4	3.5895e-06	3.7591e-06	1244	236.97	2.763e-06	3.7633e-06	298.77	83.878	66.357	19.703	4.7783e-06	27.295	0.00058746	0.00075284	0.00022691	1142.3	8.211e-06	8.7109e-06	1234.6	236.15	8.649e-06	8.6226e-06	297.73	84.911	66.961	20.004	8.9069e-06	27.81	196.328	226.165	221.281	172.325	313.884	342.247	172.150	179.810	293.433	327.185	179.408	185.883	186.459	194.190	293.651	193.668	-8191	255	
1021.271	1	1	0	0	0.043973	0.28773	0.34077	0.060622	0.080338	0.024972	0.25424	0.18069	0.049336	0.09003	0.084807	0.19461	0.17319	0.015744	0.14288	0.10447	-2.2958	-3.6125	-2.8563	-2.8875	-3.6479	-2.7438	-3.4396	-3.5563	-2.6458	-3.4896	-3.2438	-2.7229	-3.6312	-2.9417	-2.9458	-3.4625	223.550	385.947	349.569	513.291	317.759	276.936	510.035	509.255	297.812	187.164	305.730	477.945	518.105	232.370	271.861	353.984	0.00029359	0.00041738	0.00012477	1161.1	1.9747e-06	1.3682e-06	1252	237.79	3.0287e-06	4.4639e-06	296.82	84.604	66.326	19.608	1.6462e-06	27.352	0.0006166	0.00082931	0.00024113	1144.4	8.4642e-06	9.1217e-06	1237.8	236.6	8.3874e-06	8.8603e-06	298.03	85.169	67.056	19.962	8.1627e-06	27.886	196.537	249.886	246.202	172.819	322.800	317.753	172.640	180.404	261.553	299.796	180.321	186.597	187.177	194.788	306.791	194.133	-8191	255	
1021.367	1	1	0	0	0.037644	0.18488	0.20595	0.074785	0.30423	0.092967	0.11403	0.099127	0.25757	0.089679	0.15147	0.10467	0.18624	0.099192	0.44502	0.24642	-2.3812	-3.4917	-3.2042	-2.825	-3.8042	-2.9167	-3.1604	-3.8375	-2.5563	-3.4417	-3.4375	-2.6729	-3.6063	-2.8208	-2.9167	-3.6896	255.653	378.930	188.802	272.318	349.779	359.155	389.405	345.751	350.442	267.574	273.801	307.447	273.419	209.130	460.765	335.432	0.00027469	0.00041476	8.0534e-05	1161.7	2.8281e-06	4.4636e-06	1249.2	238.25	3.9455e-06	7.8055e-07	297.7	83.978	66.387	19.613	5.3561e-06	27.322	0.00056781	0.00073167	0.00021806	1145	7.6945e-06	8.4892e-06	1236.7	236.64	7.8906e-06	8.2307e-06	296.93	84.759	66.877	19.936	7.9651e-06	27.848	196.369	273.380	292.032	173.729	303.126	317.108	173.327	180.735	306.609	422.526	180.535	186.577	187.385	194.594	279.133	194.346	-8191	255	
1021.486	1	1	0	0	0.10458	0.13791	0.18377	0.06373	0.24966	0.076833	0.15871	0.13811	0.45352	0.047858	0.11336	0.26118	0.20717	0.28728	0.06938	0.16346	-2.4021	-3.3417	-3.3	-2.5604	-3.45	-3.1646	-3.0417	-3.8146	-2.6667	-3.2938	-3.4021	-2.5021	-3.55	-2.9417	-2.8083	-3.5417	165.710	486.452	241.367	509.227	423.043	339.086	505.760	244.901	248.109	361.222	166.852	167.690	423.634	491.759	249.986	430.689	0.00027816	0.00030361	0.0001427	1159.3	2.2023e-06	4.3408e-06	1249.1	237.97	2.9632e-06	2.9988e-06	297.09	84.068	66.659	19.623	2.6935e-06	27.115	0.00054857	0.00072999	0.00020728	1141.3	7.6633e-06	8.2429e-06	1235.6	236.4	7.9758e-06	8.2254e-06	297.43	84.898	66.986	19.98	8.1674e-06	27.707	198.703	271.563	263.795	173.376	247.978	270.782	172.114	179.609	288.742	313.278	179.258	185.645	185.951	193.895	268.389	193.500	-8191	255	
1021.582	1	1	0	0	0.21639	0.15294	0.12548	0.15632	0.083037	0.033993	0.29735	0.22886	0.046617	0.22811	0.073239	0.18262	0.21691	0.089053	0.085745	0.022202	-2.3792	-3.0583	-3.3771	-3.0333	-3.5792	-3.1125	-2.8	-3.6063	-2.5938	-2.9417	-3.6146	-2.7229	-3.7042	-3.2938	-2.9646	-3.7125	387.747	378.890	254.214	200.396	280.508	322.771	491.283	464.339	174.305	338.353	198.767	492.757	309.622	415.451	351.765	182.091	0.00028757	0.00036686	8.239e-05	1159.5	3.4019e-06	3.5227e-06	1252.3	238.84	2.5195e-06	2.9619e-06	298.98	84.553	66.527	19.651	2.463e-06	27.118	0.00059768	0.00076544	0.00021859	1142.6	8.1168e-06	8.8602e-06	1237	237.3	8.3752e-06	9.0549e-06	298.02	85.135	67.076	19.956	8.6545e-06	27.776	196.057	263.803	243.061	172.759	292.009	320.441	172.434	180.034	305.140	331.771	179.780	185.780	186.452	194.057	284.873	193.861	-8191	255	
1021.654	1	1	0	0	0.19424	0.17305	0.057935	0.2409	0.097862	0.063611	0.22017	0.18454	0.28934	0.085469	0.06812	0.2037	0.42252	0.055939	0.21714	0.072226	-2.3563	-2.8771	-3.5042	-2.625	-3.3583	-3.2667	-2.5896	-3.6875	-3.3146	-3.0833	-3.7354	-2.7625	-3.2646	-3.3187	-2.4521	-3.6229	393.719	401.603	442.416	174.389	324.139	316.232	472.651	305.030	470.166	279.917	505.778	367.702	165.334	403.719	224.985	444.566	0.00030912	0.00038791	0.00010706	1160.2	2.39e-06	1.9934e-06	1254.6	238.42	3.4356e-06	2.4795e-06	298.74	84.135	66.51	19.706	1.6318e-06	27.317	0.00062594	0.00080543	0.00022256	1144.8	8.6669e-06	9.0131e-06	1239.5	236.96	8.3176e-06	8.6956e-06	298.94	85.053	67.187	20.01	8.1509e-06	27.83	199.669	269.936	242.247	172.805	289.436	355.033	172.628	180.377	295.085	387.630	179.986	186.414	186.940	194.334	253.469	194.091	-8191	255	
1021.775	1	1	0	0	0.22465	0.17458	0.031093	0.099926	0.37013	0.099193	0.11251	0.31897	0.22458	0.12127	0.1845	0.21406	0.099827	0.067078	0.27167	0.038791	-2.4208	-2.7313	-3.5958	-2.8729	-3.4146	-3.525	-2.9292	-3.6854	-2.8625	-2.7792	-3.5896	-2.7792	-3.1458	-3.4437	-2.7062	-3.475	439.870	169.351	309.809	339.729	256.076	360.058	402.333	400.071	412.444	303.104	483.932	194.101	401.607	509.298	347.073	271.186	0.00025057	0.00029941	5.9691e-05	1161.7	3.7628e-06	3.3271e-06	1251	239.62	4.0775e-06	1.9695e-06	298.66	84.687	66.562	19.686	2.8665e-06	27.17	0.0005879	0.00076939	0.00021458	1147.5	8.4762e-06	8.7467e-06	1239.9	237.81	8.58e-06	9.3234e-06	298.96	85.176	67.127	20.008	9.0379e-06	27.864	198.947	230.706	227.123	173.012	301.570	313.874	172.831	180.447	261.346	308.412	180.199	186.595	186.996	194.294	306.122	193.911	-8191	255	
1021.871	1	1	0	0	0.14745	0.18007	0.27448	0.27435	0.17506	0.064434	0.22228	0.097667	0.07548	0.013928	0.0629	0.055136	0.2729	0.29915	0.15703	0.043465	-2.8354	-2.9354	-3.7125	-2.85	-3.2667	-3.4854	-2.8875	-3.5021	-3.1104	-2.8187	-3.7229	-2.975	-2.9938	-3.4813	-2.6708	-3.5083	347.200	179.071	226.484	494.342	443.694	172.274	397.240	333.630	168.981	376.463	288.726	331.206	504.586	513.871	327.458	465.887	0.00027662	0.00054472	0.00017055	1166.2	3.5466e-06	4.0609e-06	1252.7	238.83	1.2126e-06	5.1767e-06	299.16	84.48	66.72	19.653	4.0055e-06	27.477	0.00064518	0.00084837	0.00023387	1150.8	8.7803e-06	9.1937e-06	1242.5	237.76	8.4827e-06	8.9881e-06	299.37	85.262	67.253	20.009	8.5285e-06	28.002	192.203	223.620	248.455	173.016	288.092	336.454	173.171	180.782	253.880	331.858	180.453	186.473	187.619	194.848	315.309	194.451	-8191	255	
1021.967	1	1	0	0	0.031749	0.054538	0.20058	0.23227	0.17529	0.26951	0.15317	0.26757	0.13047	0.20059	0.18751	0.07184	0.21898	0.23172	0.14678	0.068226	-2.7958	-2.5563	-3.5146	-3.0563	-3.1063	-3.7125	-2.7833	-3.5083	-3.425	-2.8104	-3.8271	-3.2896	-2.8125	-3.7562	-2.8521	-3.3208	301.154	310.011	406.272	514.768	353.225	308.937	461.392	280.428	214.614	338.755	418.037	368.841	261.777	521.611	341.201	370.304	0.00028944	0.00018076	0.0001104	1166.7	2.5355e-06	4.7376e-06	1256.8	238.8	3.0085e-06	2.777e-06	300.05	84.154	67.232	19.744	5.4465e-06	27.307	0.00060375	0.00079722	0.00022274	1149.8	8.481e-06	8.6671e-06	1243.3	237.46	8.2666e-06	8.9262e-06	299.28	85.201	67.381	20.039	8.4151e-06	27.913	195.880	212.540	267.038	173.488	280.294	290.379	173.499	181.070	310.481	344.503	180.695	187.109	187.281	194.986	319.839	194.827	-8191	255	
1022.063	1	1	0	0	0.018516	0.027601	0.27192	0.26599	0.085779	0.12037	0.33172	0.11588	0.26863	0.2717	0.21059	0.13551	0.21136	0.083009	0.1402	0.17065	-3.1542	-2.7188	-3.4437	-3.275	-2.775	-3.5438	-2.8063	-3.1688	-3.3187	-2.3937	-3.6146	-3.1604	-2.7438	-3.6208	-2.7667	-3.05	306.438	350.645	387.217	519.606	277.573	328.623	473.684	276.966	178.051	497.951	459.633	295.483	495.992	311.439	379.056	368.849	0.00025315	0.00031338	3.3703e-05	1171.7	3.6105e-06	4.2302e-06	1257.6	239.01	2.8472e-06	1.3235e-06	300.47	84.236	67.096	19.687	1.6149e-06	27.414	0.00059032	0.00076915	0.00022126	1152.1	8.5655e-06	8.5616e-06	1246.1	238.02	8.243e-06	8.6319e-06	299.95	85.228	67.44	20.078	8.5769e-06	27.993	205.112	225.287	205.732	173.493	297.339	331.942	173.415	180.828	268.590	368.388	180.421	186.662	187.277	194.672	324.390	194.665	-8191	255	
1022.159	1	1	0	0	0.10302	0.18537	0.27701	0.10847	0.14704	0.11046	0.30131	0.32707	0.12192	0.17355	0.092651	0.2067	0.061624	0.16482	0.16003	0.076755	-2.9604	-2.4646	-3.4562	-3.4167	-2.7729	-3.7146	-3.1542	-3.1875	-3.5896	-2.6292	-3.4729	-3.225	-2.6875	-3.575	-2.9375	-3.0958	394.101	290.290	251.330	455.253	188.416	335.910	176.830	497.297	363.645	485.688	409.292	467.078	170.946	443.032	389.925	430.090	0.0002594	0.00045981	0.00011768	1172.7	1.5599e-06	4.6692e-06	1257.2	240.58	2.8177e-06	3.0746e-06	302.2	85.006	67.338	19.79	4.0605e-06	27.347	0.00058969	0.00079279	0.00022465	1155.5	8.7306e-06	8.9693e-06	1244.7	238.65	8.3164e-06	9.1671e-06	300.6	85.603	67.567	20.086	8.3776e-06	28.005	198.142	247.986	250.012	173.335	278.092	307.241	173.377	181.024	295.395	337.816	179.853	186.087	187.130	194.604	288.735	194.128	-8191	255	
1022.278	1	1	0	0	0.21541	0.14076	0.095095	0.23216	0.090243	0.26356	0.18438	0.36762	0.13822	0.15531	0.11904	0.2772	0.16897	0.17478	0.036663	0.1073	-3.4313	-2.7	-3.3792	-3.4979	-2.6396	-3.5833	-3.2562	-3.05	-3.6708	-2.7438	-3.5396	-3.5271	-2.525	-3.4958	-2.8604	-2.8125	204.625	277.189	217.557	513.565	459.684	372.545	517.852	486.222	249.815	376.084	219.756	247.256	494.222	436.460	364.392	247.896	0.00029208	0.00031249	5.1695e-05	1173.1	3.8009e-06	4.7018e-06	1270.9	240.39	3.33e-06	3.6158e-06	301.51	84.985	67.16	19.936	6.8619e-06	27.597	0.0005816	0.00078015	0.00022101	1158	8.2739e-06	8.3676e-06	1253.4	238.92	8.125e-06	8.765e-06	300.71	85.629	67.781	20.216	8.6026e-06	28.116	191.288	222.340	234.742	172.765	250.848	303.940	172.645	180.165	300.065	307.902	179.214	185.909	186.302	193.737	315.526	193.298	-8191	255	
1022.351	1	1	0	0	0.14796	0.13852	0.20964	0.3729	0.25071	0.26181	0.2041	0.2718	0.013556	0.30062	0.046767	0.11464	0.11953	0.10846	0.24599	0.023101	-3.0938	-2.4729	-3.2667	-3.425	-2.6604	-3.4292	-3.275	-2.7667	-3.6833	-2.7583	-3.4062	-3.6521	-2.6958	-3.7479	-3.1208	-2.8479	476.452	323.693	185.293	416.844	302.905	181.216	520.229	505.246	262.937	455.643	503.284	486.934	209.350	411.943	364.978	386.714	0.00028778	0.00029815	0.00011305	1175.3	2.192e-06	2.924e-06	1269.2	241.49	3.1618e-06	9.4549e-07	304.06	85.088	66.936	19.886	3.5414e-06	27.527	0.0005979	0.00082313	0.00023719	1159.4	8.8055e-06	8.9554e-06	1254	239.47	8.5484e-06	9.0327e-06	301.52	85.839	67.695	20.219	9.0345e-06	28.093	197.452	231.285	286.444	172.170	264.068	317.331	172.310	179.510	311.876	274.311	179.569	185.853	186.606	194.234	281.251	193.685	-8191	255	
1022.448	1	1	0	0	0.11336	0.082046	0.13064	0.08885	0.042589	0.29109	0.1721	0.099359	0.12506	0.20379	0.22483	0.12718	0.13692	0.10247	0.2643	0.12309	-3.4958	-2.8792	-3.1875	-3.7292	-2.7479	-3.6125	-3.4938	-2.9729	-3.5938	-2.9375	-3.1292	-3.5917	-2.6312	-3.3542	-3.2958	-2.6646	480.114	452.265	450.328	230.356	479.752	285.545	441.215	461.999	259.363	329.174	227.727	337.420	463.481	508.595	439.897	412.058	0.00026441	0.00037785	8.4191e-05	1179.7	2.3376e-06	3.9662e-06	1265.9	239.83	4.2425e-06	5.2748e-06	301.5	85.339	67.761	19.996	1.0597e-06	27.418	0.00058179	0.00082206	0.0002303	1162.3	8.7963e-06	8.887e-06	1252.3	239.42	8.254e-06	9.1751e-06	301.48	85.789	68.083	20.26	8.8483e-06	28.085	199.591	285.225	255.611	172.716	295.876	316.622	172.328	180.134	278.880	319.304	179.859	186.148	186.862	194.326	309.387	193.794	-8191	255	
1022.566	1	1	0	0	0.079532	0.011163	0.28576	0.29706	0.094037	0.14867	0.17344	0.22155	0.051524	0.12392	0.14145	0.25097	0.17507	0.21693	0.10114	0.23879	-3.075	-2.7396	-2.8979	-3.7229	-2.5458	-3.0625	-3.3771	-2.5583	-3.475	-2.9667	-2.8625	-3.5583	-2.85	-3.3792	-3.3958	-2.8438	400.574	490.772	365.687	506.792	422.529	487.222	511.271	467.955	274.975	482.156	287.530	465.238	268.872	198.766	445.770	513.260	0.00028435	0.00021499	8.2946e-05	1180.9	3.5556e-06	3.6766e-06	1268.7	241.01	3.9192e-06	3.3833e-06	301.88	84.871	67.459	19.685	2.9802e-06	27.379	0.00061387	0.00083434	0.00024287	1162.5	9.229e-06	9.3542e-06	1254.5	239.46	8.7946e-06	9.2998e-06	301.13	85.706	67.893	20.215	8.9427e-06	28.166	196.139	320.000	278.183	172.446	288.529	341.410	172.418	180.164	298.144	336.153	179.988	186.548	186.754	194.603	317.898	193.561	-8191	255	
1022.663	1	1	0	0	0.074371	0.15233	0.089772	0.12489	0.25914	0.053558	0.11565	0.27964	0.21136	0.21359	0.14173	0.12754	0.29615	0.15918	0.10199	0.12237	-3.325	-3.0292	-2.8604	-3.6375	-2.5938	-3.2208	-3.7333	-2.6792	-3.3458	-3.1875	-2.9188	-3.6083	-3.025	-2.8917	-3.2938	-2.5604	296.575	171.974	297.687	210.758	433.327	221.892	163.483	167.015	290.143	409.536	356.714	356.070	182.391	494.705	251.620	438.532	0.00027221	0.0001006	7.4851e-05	1181.1	3.1263e-06	3.0234e-06	1269.2	240.34	2.52e-06	1.2349e-06	301.85	85.152	67.027	19.95	1.9193e-06	27.517	0.00061905	0.00084291	0.00023388	1163.2	9.0839e-06	9.4463e-06	1255.9	239.83	8.662e-06	9.3038e-06	301.63	86.019	67.811	20.303	9.0033e-06	28.152	201.282	312.241	282.962	172.858	270.476	316.967	172.513	180.028	337.292	371.853	179.847	185.799	186.574	194.428	373.233	193.069	-8191	255	
1022.759	1	1	0	0	0.11275	0.12449	0.033563	0.078693	0.14458	0.28666	0.049117	0.1522	0.13178	0.20412	0.063262	0.21105	0.19502	0.13964	0.062022	0.22852	-2.9125	-3.1188	-2.7854	-3.5708	-3.0125	-2.9771	-3.8542	-2.7562	-3.2833	-3.2854	-2.8583	-3.7271	-2.8896	-2.8875	-3.625	-2.8146	518.763	193.722	379.558	459.427	462.782	293.805	435.264	486.062	232.685	365.434	266.595	453.379	395.109	520.083	441.327	495.694	0.00029419	0.00029972	9.627e-05	1180.1	4.3625e-06	3.6373e-06	1269.3	241.07	1.1389e-06	2.9967e-07	300.89	85.987	67.874	19.922	8.597e-07	27.55	0.00063499	0.00084395	0.00023409	1163.7	8.985e-06	9.5339e-06	1257.4	240.36	9.0217e-06	9.343e-06	301.57	86.32	67.961	20.271	8.7016e-06	28.206	205.064	269.756	327.116	172.436	286.107	308.997	171.958	179.329	284.711	444.007	179.427	186.110	186.229	194.014	284.307	193.011	-8191	255	
1022.855	1	1	0	0	0.12631	0.15558	0.13234	0.21458	0.13535	0.23209	0.15309	0.15458	0.24736	0.14408	0.22375	0.13913	0.21805	0.065195	0.14115	0.2563	-2.9542	-3.2458	-2.4333	-3.6667	-3.0583	-2.9313	-3.7292	-2.7062	-3.1458	-3.4604	-2.8271	-3.6063	-3.0812	-2.7375	-3.6312	-2.5958	254.081	171.184	232.316	456.652	508.286	199.051	456.731	381.781	510.681	317.156	365.143	426.204	183.384	311.510	440.396	513.145	0.00028741	0.0004224	4.4131e-05	1187	1.9841e-06	2.1592e-06	1280.7	242.07	2.7864e-06	3.7459e-06	302.96	84.922	67.556	19.924	3.8487e-06	27.444	0.00063147	0.00083482	0.00023413	1167.7	8.9257e-06	9.411e-06	1259.5	240.65	8.913e-06	9.2588e-06	301.73	85.99	68.161	20.289	8.8007e-06	28.199	196.016	216.968	233.745	172.558	305.248	334.271	172.096	179.472	280.464	246.767	179.380	185.415	186.121	193.643	281.897	192.672	-8191	255	
1022.951	1	1	0	0	0.12201	0.16934	0.18968	0.13923	0.057659	0.070401	0.10702	0.034941	0.21039	0.24483	0.10305	0.055722	0.17094	0.021093	0.078178	0.30221	-2.7313	-3.4167	-2.5542	-3.6	-2.8833	-2.5625	-3.7417	-2.9417	-2.9354	-3.6208	-2.7667	-3.65	-3.3542	-2.7313	-3.5729	-2.9917	332.731	443.946	334.625	412.690	283.662	189.571	339.509	366.589	355.776	278.508	215.647	257.532	212.674	271.104	250.987	518.403	0.00027373	0.00020727	0.00015113	1181.5	4.1137e-06	4.1983e-06	1275.5	240.47	1.9286e-06	4.1017e-06	302.77	85.251	67.567	19.953	2.5476e-06	27.443	0.00062946	0.00085061	0.00024044	1168.2	8.9802e-06	9.6626e-06	1260.9	240.41	9.2605e-06	9.4361e-06	301.97	86.272	68.196	20.344	8.6877e-06	28.262	200.031	240.457	258.217	171.882	272.393	316.817	171.570	179.313	296.926	309.121	179.233	185.213	185.517	192.966	280.996	192.928	-8191	255	
1023.047	1	1	0	0	0.1526	0.26703	0.12242	0.23333	0.076306	0.10658	0.33013	0.10444	0.08212	0.11049	0.36778	0.31812	0.17382	0.18583	0.29277	0.15678	-2.5563	-3.325	-2.6417	-3.4854	-3.1708	-2.5771	-3.6375	-2.8333	-2.7812	-3.4417	-2.5667	-3.3167	-3.2188	-2.4083	-3.4646	-2.7917	174.213	212.922	211.026	469.655	456.708	388.052	442.956	454.140	497.792	517.772	486.744	334.984	167.894	478.357	260.124	178.473	0.00028684	0.00038129	8.3744e-05	1187.7	3.0047e-06	4.0769e-06	1274	241.37	4.6853e-06	3.5934e-06	303.78	85.051	67.482	19.927	2.463e-06	27.591	0.00063668	0.0008201	0.00023621	1171.1	8.7983e-06	9.432e-06	1261.3	240.56	8.9779e-06	9.2775e-06	302.76	86.172	68.129	20.262	8.7771e-06	28.19	199.120	247.275	233.361	171.967	276.147	316.311	171.490	178.845	301.434	337.469	178.948	185.339	185.833	193.639	302.213	192.707	-8191	255	
1023.168	1	1	0	0	0.1325	0.26642	0.10636	0.27018	0.22275	0.20052	0.15499	0.20215	0.20504	0.083507	0.14457	0.13045	0.091644	0.050921	0.015458	0.13488	-2.5187	-3.4729	-2.5563	-3.4354	-3.3333	-2.5417	-3.6125	-2.8854	-2.4417	-3.5438	-2.6396	-3.2458	-3.3604	-2.4104	-3.4104	-3.1917	489.764	513.881	442.306	458.870	410.888	434.542	491.905	474.557	471.277	521.029	409.642	394.220	432.151	214.211	446.484	341.998	0.00027713	0.00017877	0.00013636	1184.4	2.3429e-06	2.7852e-06	1284	241.77	3.9658e-06	4.4841e-06	302.35	85.417	67.731	20.021	2.402e-06	27.541	0.00064853	0.00083557	0.00023997	1169.4	8.8167e-06	9.402e-06	1265.3	241.27	9.0809e-06	9.2709e-06	302.98	86.421	68.277	20.346	8.855e-06	28.218	198.585	304.602	235.500	171.989	222.864	273.037	171.847	179.233	296.472	313.219	179.213	185.664	186.019	194.051	378.185	193.011	-8191	255	
1023.264	1	1	0	0	0.26857	0.054065	0.076788	0.080286	0.11955	0.15989	0.053737	0.16465	0.10411	0.052185	0.14067	0.31576	0.092343	0.12128	0.20453	0.0775	-2.3854	-3.6417	-2.8458	-3.4979	-3.45	-2.575	-3.5729	-3.1354	-2.5687	-3.4854	-2.8646	-3.0104	-3.6063	-2.6646	-3.3917	-3.3937	384.005	351.172	237.041	519.816	449.703	166.175	262.093	420.717	461.434	472.719	436.906	295.114	467.869	452.642	492.209	288.828	0.00030334	0.00022365	0.00011131	1186.3	2.1727e-06	4.7591e-06	1276.4	242.72	5.145e-06	3.7015e-06	302.82	84.998	67.228	20.038	2.5799e-06	27.681	0.00064587	0.00080934	0.00023835	1170.6	8.7466e-06	9.2925e-06	1263.8	241.4	8.7994e-06	9.1974e-06	303	86.16	68.113	20.352	9.0012e-06	28.189	193.443	225.245	270.935	172.152	238.190	308.933	171.933	179.449	296.391	383.051	179.192	185.521	186.121	193.797	331.442	192.976	-8191	255	
1023.358	1	1	0	0	0.15629	0.20086	0.042663	0.13586	0.30921	0.12681	0.17497	0.050333	0.26637	0.14388	0.18355	0.11466	0.23507	0.079018	0.14094	0.25107	-2.3167	-3.625	-2.6542	-3.1292	-3.6292	-2.5083	-3.2729	-3.4021	-2.8875	-3.7313	-3.0833	-2.7542	-3.5208	-2.6312	-3.0917	-3.3854	388.541	484.817	162.644	497.525	511.391	396.670	189.926	320.475	483.997	419.594	498.265	321.847	507.011	400.399	455.370	488.126	0.00026435	0.00050177	7.8097e-05	1187.9	2.8707e-06	3.2766e-06	1280.6	243.46	2.5466e-06	2.7737e-06	301.92	85.469	67.678	19.771	2.8352e-06	27.573	0.00062902	0.00081524	0.00023923	1170.5	8.5499e-06	9.3707e-06	1266.2	241.47	8.5914e-06	9.3719e-06	302.38	86.341	68.386	20.325	9.0168e-06	28.292	191.570	266.216	232.167	172.342	299.630	351.002	171.932	179.256	259.200	314.099	178.658	185.535	185.558	193.438	297.269	193.564	-8191	255	
1023.455	1	1	0	0	0.080136	0.10587	0.12639	0.087091	0.061391	0.19658	0.11417	0.084484	0.25301	0.059859	0.099768	0.18191	0.021155	0.099962	0.36833	0.0071704	-2.3833	-3.5687	-3.0062	-3.0104	-3.4896	-2.6042	-3.2062	-3.4958	-2.5812	-3.3771	-2.7875	-2.5708	-3.5833	-2.7854	-3.2562	-3.5583	338.390	501.485	312.072	414.380	309.967	165.578	430.366	181.321	183.872	250.264	466.648	445.388	202.895	510.499	198.223	193.017	0.00026915	0.00057025	9.5779e-05	1186.9	2.8831e-06	2.7172e-06	1281.4	242.84	4.3104e-06	3.6264e-06	300.48	85.217	67.469	20.032	2.8875e-06	27.781	0.00062726	0.00084654	0.00023856	1170.1	8.6268e-06	9.4311e-06	1265.8	241.56	9.0598e-06	9.2059e-06	302.3	86.39	68.19	20.4	8.6443e-06	28.303	197.862	253.579	280.191	172.494	255.671	327.583	171.877	179.440	287.207	307.475	179.261	185.616	185.964	193.570	337.145	192.954	-8191	255	
1023.575	1	1	0	0	0.15815	0.16636	0.096795	0.083011	0.26621	0.13153	0.27991	0.2166	0.116	0.23016	0.30637	0.21875	0.05512	0.1647	0.26533	0.26213	-2.3063	-3.3042	-3.0917	-2.8292	-3.6458	-2.7583	-3.1333	-3.625	-2.4167	-3.1604	-3.1813	-2.6146	-3.675	-2.9208	-2.8792	-3.5687	347.470	163.240	412.686	468.894	329.834	239.607	468.656	179.821	310.121	390.988	487.882	317.022	194.368	273.400	452.416	459.893	0.00025921	0.00038733	9.8919e-05	1191.8	1.953e-06	2.1207e-06	1278.5	242.77	3.0928e-06	3.8496e-06	303.04	84.892	67.574	19.889	4.8273e-06	27.722	0.00062201	0.00081604	0.00023188	1173.3	8.5992e-06	9.6492e-06	1265.4	241.67	9.2253e-06	9.4695e-06	302.58	86.181	68.215	20.317	9.8288e-06	28.239	197.233	272.961	255.958	172.397	276.095	276.222	172.244	179.733	299.489	280.320	179.034	185.192	185.631	193.415	336.044	193.131	-8191	255	
1023.647	1	1	0	0	0.14105	0.11379	0.095045	0.1022	0.12491	0.057279	0.15099	0.1716	0.061543	0.08862	0.18876	0.054196	0.17032	0.10419	0.28393	0.23876	-2.1854	-3.1083	-3.2646	-2.7729	-3.375	-3.0938	-3.1188	-3.8646	-2.6708	-3.2146	-3.4625	-2.6708	-3.5	-2.8604	-2.9813	-3.6792	264.924	331.839	496.936	491.731	485.090	402.472	422.748	448.551	474.185	495.566	497.069	480.230	163.926	490.588	493.122	220.168	0.00026727	0.00049684	0.00017541	1188.8	3.4042e-06	2.2255e-06	1277.5	242.97	3.4592e-06	4.5543e-06	302.39	85.264	68.038	19.949	2.5886e-06	27.7	0.00066569	0.00088597	0.00024962	1172	9.3203e-06	9.6162e-06	1267.3	242.05	9.2565e-06	9.5892e-06	302.65	86.462	68.578	20.335	9.3135e-06	28.283	198.537	240.473	267.264	171.460	271.330	298.349	171.585	179.074	280.671	344.154	178.456	184.820	185.688	192.966	282.584	192.576	-8191	255	
1023.743	1	1	0	0	0.20916	0.07008	0.17094	0.075451	0.12661	0.056565	0.14511	0.22445	0.18525	0.20515	0.17286	0.15738	0.09055	0.17729	0.10667	0.20183	-2.2687	-3.2188	-3.4562	-2.4333	-3.5604	-2.8417	-3.0104	-3.6	-2.6604	-3.2062	-3.4833	-2.7104	-3.2583	-3.0792	-2.4875	-3.6583	288.537	502.495	387.302	185.709	214.975	240.093	452.943	463.002	398.399	173.111	289.252	478.686	459.778	488.992	367.142	253.931	0.00030834	0.00054913	7.2881e-05	1190.9	3.5655e-06	3.7205e-06	1274.4	242.99	5.0141e-06	1.7362e-06	302.88	85.576	67.833	19.906	2.5763e-06	27.664	0.00063076	0.00086895	0.0002346	1173.1	9.2286e-06	9.8026e-06	1265	242.21	9.2836e-06	9.7446e-06	303.07	86.443	68.437	20.343	9.2954e-06	28.278	194.152	261.568	281.794	171.331	280.343	311.619	171.397	178.812	293.245	306.430	179.048	184.809	185.407	193.138	285.372	192.574	-8191	255	
1023.839	1	1	0	0	0.067871	0.11269	0.034439	0.19642	0.1541	0.073913	0.070501	0.08017	0.13542	0.093086	0.11515	0.1557	0.13486	0.33929	0.27669	0.0081238	-2.5021	-3.0312	-3.6333	-2.7583	-3.3104	-3.3125	-2.8021	-3.6292	-2.7729	-2.9042	-3.6312	-2.6208	-3.3792	-3.1792	-2.5292	-3.7042	385.371	501.200	261.985	176.061	368.488	449.191	468.140	408.532	515.971	470.379	240.797	416.559	501.390	420.831	392.530	190.982	0.00027054	0.00040384	0.00010227	1187.1	2.8217e-06	3.9061e-06	1276	242.86	3.0333e-06	3.8541e-06	301.73	86.132	67.913	19.944	2.9326e-06	27.541	0.00064474	0.00088346	0.00023518	1174.1	8.7178e-06	9.5495e-06	1266.3	242.18	9.2885e-06	9.5594e-06	302.79	86.48	68.42	20.361	9.3139e-06	28.297	192.513	238.508	246.017	171.760	304.380	321.498	171.258	178.756	279.574	363.160	178.491	185.108	185.610	193.117	260.713	192.360	-8191	255	
1023.960	1	1	0	0	0.24569	0.028809	0.074852	0.153	0.12848	0.049156	0.22468	0.1914	0.053104	0.15911	0.064639	0.25039	0.12854	0.20434	0.14121	0.20311	-2.7375	-2.875	-3.7333	-2.9625	-3.3708	-3.3083	-2.8354	-3.625	-2.9271	-2.7729	-3.7042	-2.5917	-3.1854	-3.4021	-2.725	-3.5917	454.876	477.626	498.589	185.981	401.836	301.043	285.459	427.925	267.150	391.358	253.668	405.124	438.360	258.126	340.752	490.079	0.00026657	0.00039179	3.5683e-05	1190.4	3.4072e-06	3.8551e-06	1278.4	243.4	3.3373e-06	1.4499e-06	303.8	85.734	67.869	19.908	4.1421e-06	27.678	0.00064663	0.00085878	0.00022858	1174.4	9.0194e-06	9.2809e-06	1266.1	242.24	8.9746e-06	9.2259e-06	303.35	86.802	68.53	20.385	8.8567e-06	28.308	197.637	254.604	275.260	171.589	325.393	285.140	171.361	178.920	290.451	245.258	178.670	184.972	185.650	193.224	263.069	192.380	-8191	255	
1024.056	1	1	0	0	0.073144	0.32349	0.081315	0.21593	0.22657	0.098128	0.13623	0.29412	0.092492	0.28129	0.074338	0.038817	0.15783	0.20666	0.24352	0.23497	-2.7687	-2.8646	-3.7562	-3.0229	-3.2396	-3.6271	-2.725	-3.5604	-3.2583	-2.8896	-3.5646	-3.1042	-3.2104	-3.6833	-2.6896	-3.5875	319.088	334.892	401.114	445.702	427.632	518.187	490.060	178.592	279.481	281.498	465.455	184.287	464.361	491.724	358.392	180.548	0.00027678	0.00045428	3.0607e-05	1190.5	1.0836e-06	4.7516e-06	1282.1	243.77	3.7539e-06	3.9382e-06	304.46	86.179	67.926	19.973	1.7387e-06	27.732	0.00064621	0.00084016	0.00023036	1173.1	9.1232e-06	9.2527e-06	1267	242.47	8.7796e-06	9.3123e-06	303.99	86.603	68.508	20.397	8.9136e-06	28.329	191.679	263.524	170.928	171.512	277.370	322.720	171.511	179.235	272.538	341.002	178.993	184.781	185.591	193.268	265.312	192.921	-8191	255	
1024.152	1	1	0	0	0.12644	0.13904	0.091393	0.27141	0.14652	0.33886	0.15077	0.10307	0.12324	0.017721	0.030326	0.15249	0.20219	0.10741	0.21352	0.17272	-2.8438	-2.6063	-3.4833	-3.0625	-2.85	-3.4958	-2.7375	-3.3021	-3.1375	-2.6063	-3.6167	-3.1229	-2.8312	-3.6833	-2.7833	-3.2375	477.444	314.310	450.561	489.073	467.020	329.696	448.257	402.492	242.767	350.235	264.589	272.241	445.348	466.727	281.637	202.418	0.00029502	0.00039457	6.5555e-05	1188.8	2.1115e-06	3.1847e-06	1279.9	244.14	3.1399e-06	2.1597e-06	303.63	85.273	67.865	20.067	8.6223e-07	27.673	0.00061384	0.00082341	0.00022653	1174.6	8.7618e-06	8.7279e-06	1268.1	242.07	8.7564e-06	8.8599e-06	303.3	86.444	68.532	20.398	8.9376e-06	28.289	194.355	252.350	227.621	171.640	259.098	309.779	171.408	178.908	283.996	399.178	178.829	184.959	185.618	193.119	342.197	192.622	-8191	255	
1024.248	1	1	0	0	0.16326	0.13602	0.18443	0.086124	0.21732	0.19754	0.21978	0.24005	0.11462	0.1342	0.085831	0.049267	0.038303	0.12595	0.14502	0.198	-3.1583	-2.7354	-3.4833	-3.1146	-2.8083	-3.3833	-2.7771	-3.3271	-3.2771	-2.6854	-3.5146	-3.1042	-2.9938	-3.675	-2.7542	-3.2562	226.106	185.535	417.645	192.772	202.042	443.609	427.526	445.276	352.024	443.802	459.785	161.474	423.020	251.825	175.961	398.530	0.00029115	0.00052551	3.814e-05	1189.1	1.7244e-06	4.2957e-06	1279.1	244.04	4.059e-06	2.2353e-06	303.22	85.747	67.826	19.906	2.1393e-06	27.625	0.00060829	0.00080236	0.00023325	1174.1	8.8039e-06	8.9921e-06	1266.8	242.41	8.5464e-06	9.2637e-06	303.36	86.463	68.433	20.315	9.1205e-06	28.343	198.754	261.541	201.622	171.727	257.008	339.832	171.336	178.808	287.381	436.147	178.708	185.055	185.857	193.244	307.118	192.971	-8191	255	
1024.344	1	1	0	0	0.094451	0.097548	0.2793	0.12836	0.31183	0.15726	0.25207	0.082744	0.12156	0.19878	0.1962	0.16547	0.12349	0.17407	0.12506	0.24005	-3.1875	-2.6	-3.4333	-3.2333	-2.5271	-3.7292	-2.8479	-3.1208	-3.4458	-2.7146	-3.6083	-3.3438	-2.9125	-3.8396	-2.7042	-3	507.552	183.226	352.596	448.695	421.092	360.671	438.065	377.229	206.986	468.882	190.281	477.882	211.152	162.809	228.520	225.132	0.00026838	0.00031176	0.00010395	1189.8	3.6163e-06	3.2066e-06	1280.6	243.35	1.8897e-06	2.3809e-06	304.08	85.628	67.439	19.99	2.1903e-06	27.712	0.00062061	0.0008394	0.00023342	1174	8.6505e-06	8.9715e-06	1266.4	242.21	8.589e-06	9.3457e-06	303.99	86.442	68.3	20.363	8.989e-06	28.325	199.164	294.954	275.338	171.754	280.786	299.687	171.508	179.132	282.642	363.301	178.828	185.225	185.971	193.410	309.092	192.585	-8191	255	
1024.439	1	1	0	0	0.05654	0.017048	0.19674	0.17931	0.2895	0.045259	0.18337	0.065486	0.19359	0.063178	0.3282	0.1673	0.17227	0.42094	0.23742	0.23728	-3.2687	-2.6562	-3.375	-3.3854	-2.6146	-3.6896	-3.0938	-3.0042	-3.6417	-2.6417	-3.2521	-3.3	-2.4979	-3.5396	-2.95	-3.0396	346.659	269.339	353.151	473.325	374.114	352.086	420.677	211.484	426.259	298.136	218.489	254.397	317.464	424.802	507.427	254.935	0.00025305	0.00023102	7.859e-05	1188.1	2.58e-06	2.2955e-06	1277.9	242.97	3.7939e-06	2.9112e-06	304.68	85.439	67.528	19.825	2.8874e-06	27.654	0.00062135	0.00086879	0.00023771	1174.2	8.9573e-06	9.2384e-06	1265.9	242.28	8.9312e-06	9.7041e-06	303.98	86.586	68.258	20.312	9.1019e-06	28.255	196.326	272.008	247.728	171.847	292.256	293.315	171.437	178.971	288.073	354.096	179.105	184.943	185.774	193.368	337.088	193.206	-8191	255	
1024.537	1	1	0	0	0.048718	0.11921	0.17954	0.40556	0.076025	0.22744	0.064912	0.20235	0.12401	0.27735	0.094431	0.20726	0.2084	0.14122	0.22256	0.22129	-3.4062	-2.6875	-3.1083	-3.7396	-2.6979	-3.7125	-2.9958	-2.6833	-3.3979	-2.5521	-3.1979	-3.4542	-2.7667	-3.4104	-3.0917	-2.5896	198.197	345.935	352.642	487.218	371.091	448.472	242.407	395.568	385.190	520.519	261.393	517.827	511.087	385.947	241.620	204.280	0.00030166	0.00045218	8.2312e-05	1189.9	2.828e-06	2.0896e-06	1277.9	242.48	3.2112e-06	3.3669e-06	302.76	85.716	67.083	19.96	4.0628e-06	27.565	0.00062034	0.00085635	0.00023829	1175.5	8.7995e-06	9.1736e-06	1265.4	242.12	8.4004e-06	9.315e-06	303.44	86.448	68.248	20.376	8.7813e-06	28.266	195.695	230.403	287.388	171.945	294.990	315.775	171.747	179.362	259.024	316.354	179.053	185.021	185.502	192.861	267.530	192.500	-8191	255	
1024.656	1	1	0	0	0.21165	0.31191	0.12585	0.23955	0.042939	0.15623	0.26607	0.12494	0.01796	0.14991	0.18831	0.16826	0.21318	0.16439	0.20786	0.037613	-3.2604	-2.5938	-2.9813	-3.7229	-2.7417	-3.5583	-3.475	-2.6375	-3.3375	-2.7896	-3.1312	-3.6625	-2.8312	-3.2854	-3.1875	-2.6625	380.126	172.526	466.898	513.859	211.421	387.320	445.710	231.891	247.519	254.334	341.561	395.626	453.480	512.055	268.374	301.247	0.0002809	0.00048946	0.00010613	1189.6	4.2223e-06	2.5849e-06	1278.7	242.74	3.5372e-06	3.5225e-06	304.77	85.443	67.458	20.02	2.481e-06	27.728	0.00060274	0.0008136	0.00022908	1173.5	8.7506e-06	9.0471e-06	1266.1	242.19	8.3866e-06	9.1119e-06	303.99	86.298	68.315	20.34	8.7016e-06	28.263	189.515	258.562	252.503	171.410	310.553	301.671	171.300	179.171	273.455	318.811	178.760	184.838	185.546	193.165	319.529	192.984	-8191	255	
1024.752	1	1	0	0	0.041182	0.2828	0.11553	0.19201	0.30045	0.26432	0.11976	0.1172	0.14192	0.056924	0.12814	0.3518	0.071147	0.15443	0.12269	0.22063	-3.1021	-2.8604	-2.7854	-3.8187	-2.4479	-2.975	-3.5583	-2.7646	-3.4521	-2.9729	-3.0229	-3.5958	-2.775	-3.1479	-3.4604	-2.7792	177.018	287.474	193.564	388.778	268.370	221.234	162.800	365.412	444.495	371.626	330.206	387.250	203.488	194.282	319.480	492.554	0.00029553	0.00035006	6.9085e-05	1190.9	3.4555e-06	4.7168e-06	1279	242.03	3.8681e-06	3.7162e-06	305.92	85.683	67.83	20.075	2.964e-06	27.531	0.00061983	0.00083027	0.00022718	1174.5	8.4618e-06	8.9313e-06	1266.5	242.22	8.3327e-06	9.0772e-06	303.68	86.444	68.219	20.381	8.2402e-06	28.147	193.313	223.105	261.786	171.682	288.158	333.149	171.424	179.006	282.681	319.261	178.914	185.192	185.495	193.634	312.245	192.530	-8191	255	
1024.848	1	1	0	0	0.043871	0.054002	0.087046	0.031248	0.15861	0.014691	0.19692	0.099832	0.074057	0.045995	0.13236	0.15884	0.08578	0.047317	0.082226	0.12991	-3.2208	-2.925	-2.7875	-3.5917	-2.75	-3.2083	-3.4854	-2.825	-3.5812	-3.175	-2.8083	-3.5667	-2.8396	-3.175	-3.3333	-2.6125	202.004	220.084	260.589	411.441	188.130	223.524	440.927	186.334	183.091	201.470	447.774	178.135	462.151	404.663	163.408	437.621	0.00026749	0.00052628	6.836e-05	1186.6	2.8084e-06	2.2952e-06	1276.3	242.49	3.8304e-06	1.8988e-06	303.39	85.069	67.901	20.053	4.1377e-06	27.605	0.00058235	0.00077142	0.00020949	1172.2	8.3091e-06	8.4221e-06	1264.3	241.61	7.8492e-06	8.2036e-06	303.07	86.209	68.262	20.317	7.9082e-06	28.261	193.647	232.968	244.413	171.839	291.648	291.844	171.474	179.208	287.267	310.221	178.786	184.965	185.532	193.451	302.554	192.869	-8191	255	
1024.944	1	1	0	0	0.12025	0.29154	0.29216	0.22923	0.13047	0.18049	0.18577	0.16713	0.10322	0.18276	0.18798	0.25547	0.17718	0.10585	0.12644	0.10432	-3.0417	-3.2229	-2.5979	-3.7292	-2.7333	-2.775	-3.6771	-2.7292	-3.4	-3.1167	-2.6562	-3.4458	-2.8958	-2.8937	-3.3812	-2.8354	405.404	324.084	244.097	429.339	464.414	198.895	449.664	411.326	195.913	489.017	505.614	469.064	476.353	253.745	222.472	270.113	0.00027128	0.00052983	0.00012473	1186	2.9487e-06	1.0976e-06	1273.8	242.34	1.203e-06	3.9344e-06	302.99	85.677	67.367	20.001	5.9343e-06	27.702	0.00057174	0.00076125	0.00021238	1172	8.122e-06	8.6152e-06	1263.8	241.26	7.9206e-06	8.4774e-06	302.57	86.418	68.276	20.354	8.263e-06	28.324	199.538	261.283	260.551	171.772	324.910	425.608	171.481	178.836	308.293	326.684	178.763	185.221	185.708	193.293	259.575	192.487	-8191	255	
1025.040	1	1	0	0	0.23519	0.24273	0.15497	0.16719	0.17517	0.18204	0.404	0.067216	0.13722	0.166	0.1443	0.23879	0.13194	0.11762	0.16434	0.2936	-3.0646	-3.3792	-2.7229	-3.8583	-2.9688	-2.7313	-3.5687	-2.7833	-3.1333	-3.1125	-2.7938	-3.7583	-3.2292	-2.9167	-3.6	-2.7958	386.751	486.012	283.275	435.508	305.850	468.567	470.507	452.650	401.940	516.002	518.610	472.203	431.730	250.913	312.582	185.643	0.00028489	0.00054216	0.00013469	1189.6	3.2694e-06	2.1879e-06	1280.2	242.68	4.0421e-06	2.989e-06	301.7	85.642	67.51	19.972	3.457e-06	27.579	0.00059172	0.00078677	0.00021822	1174.2	8.3792e-06	8.6148e-06	1266.1	242.12	7.9523e-06	8.521e-06	302.6	86.445	68.319	20.288	8.1176e-06	28.291	200.907	295.141	235.477	171.548	264.389	311.680	171.610	179.056	264.676	380.651	179.340	185.268	185.479	193.043	270.072	192.559	-8191	255	
1025.136	1	1	0	0	0.32223	0.17111	0.19614	0.24803	0.13437	0.11568	0.22467	0.053472	0.19856	0.20211	0.088325	0.22966	0.092249	0.1178	0.2506	0.28695	-2.9208	-3.575	-2.65	-3.4646	-3.175	-2.7229	-3.6396	-2.8271	-2.9333	-3.4271	-2.9688	-3.2062	-3.1229	-2.5479	-3.5917	-2.8	381.136	358.761	447.788	170.644	246.733	265.488	430.412	249.827	265.838	392.779	267.374	176.897	284.748	468.105	263.004	474.075	0.0002603	0.00026412	3.5567e-05	1193.2	2.6656e-06	4.0771e-06	1280	242.88	3.6836e-06	4.5922e-06	304.37	85.218	67.541	20.048	4.5972e-06	27.757	0.00058238	0.00075623	0.00021372	1175.3	8.3484e-06	8.6903e-06	1265.6	241.7	8.1124e-06	8.4453e-06	302.81	86.25	68.223	20.333	7.9942e-06	28.309	198.584	205.532	167.927	171.706	277.110	313.002	171.574	178.987	298.142	292.571	179.097	185.187	185.538	193.338	342.568	192.406	-8191	255	
1025.257	1	1	0	0	0.2272	0.18832	0.063184	0.27464	0.11114	0.10501	0.026017	0.11637	0.26341	0.1503	0.1459	0.29443	0.22978	0.11644	0.16278	0.10134	-2.6083	-3.3708	-2.5667	-3.2875	-3.2208	-2.6604	-3.8375	-2.9083	-3.0375	-3.5896	-2.7	-3.2771	-3.3312	-2.7417	-3.3812	-2.9375	407.245	307.040	341.362	436.741	226.154	257.409	484.271	376.641	261.539	201.907	481.298	184.675	200.586	232.757	415.802	263.096	0.00028593	0.00034792	0.00011709	1190.6	3.53e-06	1.6673e-06	1278.7	243.68	2.1294e-06	3.0053e-06	303.35	86.39	67.288	20.023	2.3572e-06	27.344	0.00058619	0.00077425	0.00023139	1175.1	8.0992e-06	8.3707e-06	1264.5	241.89	8.1323e-06	8.448e-06	303.05	86.852	68.226	20.335	8.2226e-06	28.206	194.203	219.272	235.645	171.837	262.097	316.170	171.727	179.126	303.436	291.320	178.914	185.189	185.756	193.241	288.322	192.687	-8191	255	
1025.351	1	1	0	0	0.10185	0.1281	0.26053	0.31929	0.05864	0.10482	0.11964	0.18651	0.077412	0.15805	0.23914	0.069908	0.15761	0.01893	0.042627	0.29326	-2.7104	-3.6562	-2.8417	-3.4917	-3.3563	-2.8208	-3.6833	-3.0563	-2.7562	-3.6312	-2.9104	-3.2812	-3.3229	-2.5167	-3.3396	-2.9292	340.271	486.491	385.367	492.717	422.031	416.141	167.039	440.163	337.577	509.706	321.675	488.660	429.105	492.807	213.447	507.242	0.00026617	0.00051261	0.0001274	1186.5	2.5746e-06	2.9342e-06	1276.3	241.74	4.4703e-06	5.6507e-06	303.09	85.894	67.956	19.897	4.3696e-07	27.595	0.00059296	0.00076831	0.00022052	1173.5	8.1368e-06	8.5267e-06	1263.8	241.38	8.2609e-06	8.3888e-06	302.71	86.237	68.352	20.304	8.0308e-06	28.219	195.732	261.932	267.870	171.749	329.772	281.987	171.859	178.966	287.898	312.991	179.079	185.511	185.536	192.913	274.057	192.774	-8191	255	
1025.447	1	1	0	0	0.037569	0.18905	0.2529	0.078302	0.13834	0.1203	0.25688	0.11864	0.26007	0.20254	0.14114	0.12602	0.18267	0.12351	0.20358	0.08438	-2.2958	-3.4562	-2.6333	-3.0062	-3.4229	-2.7042	-3.8042	-3.2104	-2.8479	-3.6542	-3.1063	-3.1292	-3.5938	-2.6188	-3.4104	-3.2979	360.855	301.434	432.546	428.722	465.474	254.988	514.545	396.268	460.868	366.346	213.613	242.134	226.062	215.726	292.901	231.051	0.00026492	0.00057537	1.661e-05	1186.3	1.6668e-06	3.6007e-06	1282.4	241.41	2.9619e-06	3.43e-06	302.73	86.314	67.696	20.006	2.983e-06	28.017	0.00057517	0.00076695	0.00022175	1173.5	8.0703e-06	8.8651e-06	1267.8	241.47	8.4985e-06	8.5843e-06	302.9	86.569	68.318	20.365	8.3153e-06	28.331	196.519	226.156	345.899	171.960	315.022	306.466	171.580	179.175	283.664	408.227	178.900	185.150	185.754	193.655	323.814	192.668	-8191	255	
1025.519	1	1	0	0	0.23185	0.19515	0.25948	0.37933	0.16026	0.13113	0.2015	0.29532	0.10796	0.22821	0.1874	0.26214	0.22966	0.16743	0.28269	0.10751	-2.2729	-3.625	-2.9729	-3.2062	-3.7938	-2.7875	-3.6396	-3.4833	-3.0021	-3.6667	-3.1188	-2.8479	-3.5125	-2.7125	-3.2625	-3.3563	288.073	480.309	440.928	480.704	242.778	324.061	428.705	407.169	299.887	222.823	381.158	493.697	469.869	443.442	169.679	291.197	0.00026257	0.00055787	0.00012921	1191.8	2.8056e-06	3.4839e-06	1279.2	242.48	4.1644e-06	2.6756e-06	302.85	85.783	67.303	20.105	2.614e-06	27.726	0.00058663	0.00077293	0.0002223	1173.4	8.2114e-06	8.8316e-06	1267	241.53	8.2167e-06	8.7913e-06	302.45	86.57	68.125	20.398	8.3675e-06	28.286	196.080	279.959	235.352	171.907	308.680	270.517	171.691	179.273	302.283	315.271	178.949	185.140	185.852	193.159	288.273	192.947	-8191	255	
1025.640	1	1	0	0	0.092106	0.21426	0.11938	0.11823	0.21289	0.17141	0.2847	0.093273	0.24401	0.28729	0.34225	0.12201	0.11653	0.049742	0.074375	0.052159	-2.1792	-3.2042	-2.8937	-2.7812	-3.4646	-2.5938	-3.1396	-3.575	-2.5979	-3.3792	-3.1042	-2.8937	-3.5708	-2.6813	-3.1063	-3.5042	381.978	210.088	322.657	170.098	485.265	266.836	454.718	477.616	503.741	204.854	174.485	431.867	448.647	232.633	513.085	244.572	0.0002451	0.00035351	5.4279e-05	1193.4	3.6301e-06	4.2373e-06	1278.8	243.8	2.0766e-06	5.5239e-06	303.28	85.948	68.129	19.938	3.2861e-06	27.68	0.00060037	0.00077258	0.00022214	1174.3	8.2001e-06	8.9134e-06	1267	241.58	8.4689e-06	8.875e-06	302.88	86.493	68.366	20.333	8.4126e-06	28.256	197.368	249.484	240.337	171.966	291.894	335.753	171.793	179.183	299.136	362.551	179.026	185.177	185.756	193.010	335.609	192.729	-8191	255	
1025.736	1	1	0	0	0.092118	0.408	0.21755	0.080472	0.2222	0.081023	0.20319	0.22507	0.057094	0.11913	0.075413	0.1853	0.17208	0.045926	0.062483	0.043526	-2.0833	-3.5146	-2.9854	-2.75	-3.5396	-2.7979	-3.2604	-3.4458	-2.5312	-3.3208	-3.0854	-2.6021	-3.6542	-2.6146	-2.8438	-3.6833	355.908	207.726	491.040	182.319	388.979	429.691	262.609	428.709	419.967	249.035	269.819	250.696	501.184	203.384	233.997	339.486	0.00029772	0.00013643	6.9294e-05	1190.3	2.5932e-06	3.9235e-06	1274.9	242.16	1.9163e-06	1.784e-06	302.34	85.743	67.704	19.979	2.6361e-06	27.575	0.00061734	0.00079355	0.00021923	1173	8.3308e-06	9.1302e-06	1264.2	241.6	8.4843e-06	9.0358e-06	302.67	86.318	68.202	20.366	8.3473e-06	28.194	199.031	300.263	247.876	171.906	296.580	336.748	171.605	179.079	279.858	312.201	178.679	185.455	185.525	192.920	308.613	192.547	-8191	255	
1025.832	1	1	0	0	0.1605	0.17201	0.12316	0.28412	0.2148	0.13003	0.1195	0.30079	0.31084	0.064643	0.26485	0.077831	0.15995	0.10927	0.17144	0.07522	-2.1708	-3.2938	-3.3	-2.8604	-3.5229	-2.7687	-3.0208	-3.6604	-2.6417	-3.3438	-3.4646	-2.5312	-3.3146	-2.9021	-2.7583	-3.4458	195.490	507.202	427.105	494.228	330.961	268.198	519.771	468.129	353.133	184.075	198.000	442.819	501.121	500.088	267.812	237.834	0.00026604	0.00043977	6.8436e-05	1192.2	1.4849e-06	4.4771e-06	1277.5	243	3.0077e-06	2.2713e-06	302.98	85.415	67.77	19.942	3.3388e-06	27.406	0.0005958	0.00077301	0.00021402	1173.1	8.1108e-06	8.3323e-06	1264.9	241.52	7.9231e-06	8.485e-06	302.85	86.355	68.243	20.285	8.4471e-06	28.194	199.876	227.648	224.560	171.811	305.832	316.193	171.526	179.065	277.912	330.583	178.755	185.036	185.673	193.029	309.834	192.595	-8191	255	
1025.928	1	1	0	0	0.2925	0.27036	0.24112	0.16419	0.30981	0.22414	0.25489	0.06997	0.15942	0.038937	0.14378	0.14481	0.075667	0.21936	0.24184	0.22904	-2.2167	-3.2771	-3.3271	-2.7292	-3.5104	-3.2562	-2.9583	-3.7792	-2.5917	-2.9104	-3.4375	-2.6021	-3.5417	-3.2917	-2.6521	-3.6583	246.484	192.379	196.160	476.241	223.535	228.976	520.663	238.645	277.295	201.950	231.224	230.751	175.787	185.569	174.988	416.345	0.00026935	0.00039252	7.4781e-05	1188.4	4.1422e-06	3.462e-06	1280.9	243.41	3.0533e-06	4.1584e-06	301.29	85.515	67.978	19.923	1.6771e-06	27.547	0.00059798	0.00079813	0.00020892	1173.1	8.3921e-06	8.7292e-06	1267.6	242.08	8.312e-06	8.5353e-06	302.59	86.279	68.253	20.288	8.2874e-06	28.211	194.179	234.014	289.355	171.795	303.275	258.377	171.771	179.133	262.230	333.814	179.075	184.995	185.919	192.966	304.228	193.274	-8191	255	
1026.049	1	1	0	0	0.14006	0.11072	0.14285	0.36767	0.20204	0.29384	0.35179	0.13085	0.1069	0.13985	0.14064	0.19058	0.075981	0.22241	0.13344	0.13097	-2.3438	-3.0354	-3.5958	-2.7625	-3.3875	-3.2896	-2.8896	-3.7833	-2.8083	-2.6	-3.6833	-2.7479	-3.45	-3.5604	-2.5458	-3.4938	450.672	357.688	365.518	490.604	191.687	262.790	200.739	173.630	169.117	300.121	221.454	421.125	494.235	172.088	273.978	455.722	0.00026978	0.00031509	5.3708e-05	1190.2	3.4548e-06	2.7449e-06	1280.4	243.69	2.6831e-06	3.5698e-06	303.27	85.87	67.391	19.921	3.0018e-06	27.744	0.00059859	0.00076947	0.00021454	1173	8.0615e-06	8.402e-06	1265.6	241.82	8.5229e-06	8.5415e-06	302.99	86.393	68.243	20.336	8.5082e-06	28.285	194.339	305.358	201.397	171.648	297.146	302.482	171.683	179.244	312.210	347.308	178.896	184.963	185.464	193.227	279.916	192.904	-8191	255	
1026.121	1	1	0	0	0.032834	0.07885	0.18883	0.33907	0.10474	0.038045	0.20527	0.14176	0.109	0.23846	0.21218	0.184	0.25281	0.20169	0.11136	0.13449	-2.2667	-2.8812	-3.6312	-2.7625	-3.1833	-3.4813	-2.5979	-3.4792	-2.8875	-2.9354	-3.5687	-2.7333	-3.3021	-3.3583	-2.6083	-3.5708	349.442	225.160	235.576	493.213	202.271	183.671	452.032	425.660	339.563	240.194	502.530	390.235	363.959	203.947	268.981	297.303	0.00024308	0.00040604	0.0001406	1190.5	2.2227e-06	5.4236e-06	1276.8	243.67	4.1381e-06	5.0245e-06	303.29	85.56	67.76	19.973	5.4716e-06	27.632	0.00060854	0.00078613	0.00021737	1172.6	8.8063e-06	8.6984e-06	1263.4	242.1	8.4576e-06	8.6074e-06	302.64	86.261	68.315	20.306	8.3881e-06	28.234	197.850	220.542	221.268	171.948	267.213	324.898	171.610	179.135	270.103	358.460	179.151	185.150	185.577	192.962	323.981	192.222	-8191	255	
1026.217	1	1	0	0	0.12629	0.11959	0.21198	0.26484	0.10468	0.081982	0.22588	0.27785	0.29065	0.14823	0.078187	0.22991	0.13493	0.073809	0.35487	0.12012	-2.6813	-2.9271	-3.45	-2.7479	-2.9	-3.3375	-2.6354	-3.5333	-3.1833	-2.8937	-3.7417	-2.5229	-3.0062	-3.4521	-2.3771	-3.5375	403.714	278.549	218.097	464.228	247.834	488.578	471.392	452.998	279.176	434.639	420.356	512.045	403.402	201.885	416.939	200.636	0.00028523	0.00024439	6.5884e-05	1193.8	1.6275e-06	4.2705e-06	1277.2	242.36	2.9447e-06	2.7513e-06	302.76	85.648	67.722	19.944	3.0408e-06	27.616	0.00059817	0.00077935	0.00021116	1173.2	8.4317e-06	8.6023e-06	1266	241.9	8.0431e-06	8.3407e-06	302.38	86.332	68.327	20.295	8.4825e-06	28.266	203.575	235.186	265.097	171.702	321.786	327.023	171.710	179.241	306.821	302.921	178.834	185.227	186.140	193.476	312.681	193.290	-8191	255	
1026.337	1	1	0	0	0.063485	0.27447	0.025647	0.11378	0.13986	0.15696	0.13686	0.23966	0.25762	0.1062	0.20936	0.16915	0.37202	0.19203	0.20147	0.062396	-2.8208	-2.5083	-3.425	-2.7958	-2.9625	-3.4542	-2.6021	-3.4	-3.1958	-2.6604	-3.6292	-2.8875	-3.0312	-3.6021	-2.5208	-3.4188	408.510	516.971	393.128	479.510	520.229	319.921	327.006	402.285	377.747	303.693	164.327	243.770	323.143	249.040	324.033	338.702	0.00026423	0.00049862	4.6375e-05	1190.9	2.9857e-06	5.1924e-06	1274.9	243.37	4.0208e-06	3.7763e-07	304.08	85.492	67.88	19.961	3.1762e-06	27.668	0.00058404	0.00077437	0.00021743	1175.6	8.3556e-06	8.3001e-06	1264.7	241.88	8.1737e-06	8.6194e-06	303.33	86.401	68.321	20.303	8.5087e-06	28.301	200.882	273.584	241.458	171.627	297.962	304.681	171.893	179.580	277.914	383.261	179.424	185.229	186.027	193.599	297.718	193.313	-8191	255	
1026.432	1	1	0	0	0.26427	0.10602	0.21058	0.26406	0.32614	0.12179	0.30226	0.2166	0.17217	0.29323	0.27246	0.14192	0.20338	0.19062	0.10342	0.21224	-3.075	-2.5604	-3.6021	-3.1312	-2.8333	-3.7229	-2.9792	-3.2583	-3.1937	-2.5104	-3.6333	-3.3125	-2.9042	-3.8063	-2.7062	-3.0771	426.938	463.086	217.552	495.994	504.725	431.174	434.855	469.766	424.997	250.122	392.166	513.875	198.544	208.878	163.808	240.149	0.00030596	0.00024587	0.00011887	1187.4	1.9638e-06	5.8522e-06	1279.6	242.88	5.625e-06	5.4157e-06	303.53	85.543	67.773	20.001	4.1349e-06	27.643	0.00058006	0.00077441	0.00021395	1172.2	8.2166e-06	8.5857e-06	1264.4	241.64	8.1441e-06	8.6974e-06	303.04	86.363	68.175	20.351	8.4682e-06	28.271	202.306	260.347	269.531	171.993	295.049	300.156	171.966	179.566	294.825	326.116	179.410	185.580	186.273	193.746	285.218	193.421	-8191	255	
1026.530	1	1	0	0	0.042501	0.096082	0.15962	0.15357	0.29272	0.12873	0.052199	0.20447	0.026972	0.10878	0.16891	0.1815	0.17383	0.06571	0.14952	0.13279	-3.2042	-2.6146	-3.425	-3.3167	-2.7792	-3.5833	-2.9583	-3.3312	-3.5708	-2.7833	-3.4771	-3.2938	-2.8604	-3.575	-2.9104	-2.8417	234.902	410.894	168.220	167.936	275.201	164.302	502.387	411.733	236.299	302.440	348.063	488.325	179.272	310.173	480.504	179.445	0.00025947	9.6577e-05	0.00013331	1186.5	2.416e-06	2.3505e-06	1281.2	242.5	3.0323e-06	3.2346e-06	301.89	85.539	67.737	19.96	1.7172e-06	27.339	0.00056588	0.00077876	0.00021686	1173.1	8.3103e-06	8.5889e-06	1265.1	241.58	8.2791e-06	9.0376e-06	302.3	86.157	68.234	20.338	8.6692e-06	28.148	197.066	163.483	249.086	172.448	309.289	315.999	172.019	179.814	284.698	280.188	179.776	185.868	186.232	194.030	305.471	193.498	-8191	255	
1026.649	1	1	0	0	0.20711	0.14341	0.18091	0.2743	0.098376	0.091835	0.079378	0.19185	0.38076	0.18785	0.072546	0.11652	0.2062	0.15416	0.21552	0.03909	-3.3833	-2.5896	-3.2417	-3.4333	-2.6771	-3.6875	-3.0625	-2.9854	-3.4229	-2.8104	-3.6521	-3.4313	-2.7021	-3.675	-3.0521	-3.0125	235.101	201.292	176.284	423.853	493.315	481.613	405.706	256.463	508.530	226.223	384.231	500.998	342.685	506.525	461.927	443.599	0.00028874	0.00032365	9.3786e-05	1188	5.0466e-06	2.3736e-06	1280.1	242.75	3.0751e-06	4.2619e-06	302.29	85.516	67.855	20.029	1.7348e-06	27.641	0.0005958	0.00080455	0.00022602	1172.5	8.3921e-06	8.8209e-06	1264.1	241.73	8.1441e-06	8.5834e-06	302.83	86.211	68.162	20.356	8.5862e-06	28.233	197.652	255.119	249.613	172.334	284.335	312.553	172.425	179.546	296.372	310.927	179.500	185.066	186.237	194.155	362.558	194.460	-8191	255	
1026.745	1	1	0	0	0.045788	0.15757	0.15321	0.074073	0.11195	0.12232	0.33902	0.20018	0.17503	0.1243	0.061981	0.17674	0.18107	0.045207	0.10252	0.14931	-3.2958	-2.825	-3.2417	-3.4875	-2.4083	-3.6229	-3.0187	-2.775	-3.5604	-2.7062	-3.2229	-3.425	-2.6917	-3.4479	-3.2792	-2.9667	333.371	509.077	283.621	292.879	449.237	229.371	480.615	475.529	409.534	192.975	380.908	503.717	479.956	248.646	302.915	515.310	0.00029262	0.00014171	8.1255e-05	1190.2	2.5536e-06	4.0789e-06	1280.5	242.56	4.1096e-06	4.3104e-06	303.78	85.8	68.135	19.971	3.5603e-06	27.641	0.00058128	0.00079036	0.00022074	1173.9	8.5695e-06	8.6577e-06	1264.5	241.77	8.2824e-06	9.1177e-06	303.28	86.37	68.363	20.337	8.4155e-06	28.288	199.679	250.583	330.969	172.838	279.641	288.333	172.637	180.253	314.300	328.102	180.295	186.055	187.008	194.380	292.058	193.789	-8191	255	
1026.816	1	1	0	0	0.19816	0.18242	0.073004	0.13536	0.15549	0.16699	0.12624	0.26243	0.14257	0.18176	0.2861	0.2824	0.20247	0.1953	0.24098	0.18686	-3.35	-2.8354	-3.0563	-3.8292	-2.8979	-3.6292	-3.475	-2.5854	-3.4604	-2.8854	-2.9062	-3.4521	-2.4729	-3.2854	-3.2562	-2.8104	296.322	236.521	493.872	199.648	498.496	412.631	509.794	483.378	181.984	438.434	305.938	273.916	462.618	309.665	187.218	403.929	0.00028121	0.00037685	7.4161e-05	1189.5	2.2742e-06	2.9568e-06	1275.9	244.01	3.1775e-06	3.7748e-06	303.57	85.006	67.96	19.903	4.7579e-06	27.557	0.00061039	0.00079243	0.00022314	1173.4	8.5627e-06	8.7945e-06	1263.5	241.94	8.3748e-06	9.1974e-06	302.7	86.237	68.278	20.271	8.6077e-06	28.26	200.837	226.890	250.754	172.168	303.953	320.675	171.924	179.351	307.496	352.150	179.257	185.206	186.284	194.035	295.054	193.031	-8191	255	
1026.937	1	1	0	0	0.28466	0.12555	0.29058	0.37241	0.081602	0.16369	0.26096	0.13983	0.15347	0.13494	0.15124	0.21047	0.1849	0.20411	0.17622	0.074511	-3.3021	-2.7521	-3.1021	-3.6167	-2.5479	-3.2958	-3.5104	-2.8021	-3.5438	-2.9146	-2.8937	-3.7667	-2.8021	-3.4292	-3.3083	-2.6896	430.197	219.329	486.447	498.200	271.766	179.573	458.222	357.099	465.308	183.057	393.197	503.662	507.259	257.723	426.902	433.107	0.00026433	0.00043818	0.00010778	1194.4	2.7812e-06	5.6218e-06	1278.7	243.58	2.7268e-06	4.1653e-06	302.01	85.654	67.891	19.982	4.6343e-06	27.616	0.00059883	0.00079203	0.00022245	1174.3	8.4806e-06	8.6528e-06	1265.2	241.96	8.3923e-06	8.9062e-06	302.23	86.419	68.145	20.309	7.9769e-06	28.284	202.563	188.344	265.419	172.181	299.011	284.034	171.760	179.425	294.395	344.869	179.470	185.539	186.040	194.225	299.622	193.295	-8191	255	
1027.033	1	1	0	0	0.29334	0.13951	0.14292	0.16772	0.21713	0.02439	0.3894	0.21576	0.20136	0.21221	0.16404	0.22441	0.1768	0.22792	0.044396	0.090181	-3.3146	-3.0938	-2.9896	-3.7833	-2.7625	-3.4396	-3.7625	-2.7062	-3.4604	-3.1958	-2.8396	-3.5417	-2.8104	-3.0687	-3.2833	-2.6042	418.591	445.337	517.754	489.702	405.671	389.102	444.201	480.799	483.815	406.450	489.414	496.291	473.076	282.938	499.211	215.293	0.00027591	0.00031148	3.0832e-05	1191.7	2.7182e-06	5.6136e-06	1276	243.5	1.3145e-06	3.5041e-06	303.31	85.457	67.89	19.981	3.7611e-06	27.602	0.00058238	0.00075212	0.00021289	1172.5	8.225e-06	8.3175e-06	1264.9	241.98	8.018e-06	8.2013e-06	302.5	86.172	68.316	20.324	7.8336e-06	28.206	203.545	274.508	397.963	172.425	286.849	281.912	172.287	179.870	326.912	323.975	179.510	185.160	185.782	193.502	326.130	193.173	-8191	255	
1027.129	1	1	0	0	0.10632	0.11063	0.25928	0.17003	0.1771	0.036833	0.12314	0.085879	0.21575	0.08641	0.10299	0.24253	0.27104	0.35161	0.081505	0.25604	-2.9646	-3.2792	-2.5875	-3.8146	-2.9479	-2.9437	-3.6042	-2.5792	-3.2792	-3.2375	-2.6417	-3.7146	-3.2292	-2.9833	-3.5604	-2.5729	191.804	293.934	199.884	230.670	382.559	519.734	404.830	492.242	223.877	501.652	463.566	477.301	347.327	165.828	476.236	370.849	0.00026716	0.0003776	5.0387e-05	1187.7	3.2053e-06	2.4787e-06	1273.9	244.09	4.1328e-06	3.2962e-06	303.74	85.575	67.896	19.937	2.6677e-06	27.642	0.00057064	0.00072333	0.00020737	1172	8.0784e-06	8.3032e-06	1262.1	241.77	7.9952e-06	8.0192e-06	302.66	86.238	68.077	20.276	7.7599e-06	28.201	200.495	239.418	269.880	172.253	318.256	342.151	171.585	179.326	275.631	311.237	179.546	185.648	186.147	193.577	287.173	192.879	-8191	255	
1027.225	1	1	0	0	0.13834	0.12779	0.19384	0.33731	0.049189	0.23771	0.13858	0.1743	0.15627	0.18259	0.27638	0.14849	0.10144	0.15113	0.087593	0.10983	-3.0229	-3.2625	-2.6771	-3.6042	-2.9354	-2.7438	-3.8417	-2.7708	-3.3021	-3.5417	-2.7854	-3.5104	-3.0667	-2.6729	-3.5896	-2.8875	183.926	167.559	459.843	168.269	374.516	385.862	337.635	346.553	452.560	348.740	519.002	506.925	399.618	328.366	272.955	235.376	0.00029038	0.00062396	0.00014994	1189.7	2.964e-06	4.4941e-06	1274.8	243.01	2.3377e-06	2.8516e-06	302.8	85.627	67.739	19.939	4.5923e-06	27.539	0.00057658	0.00075814	0.00021209	1172.1	7.9878e-06	8.1387e-06	1262.6	241.59	7.6655e-06	8.0045e-06	302.07	86.394	68.257	20.3	7.5926e-06	28.174	195.473	244.264	241.178	172.143	297.987	283.175	171.731	179.211	298.488	346.816	179.150	185.041	186.051	193.955	312.131	193.224	-8191	255	
1027.344	1	1	0	0	0.095789	0.12254	0.034405	0.046775	0.12579	0.36604	0.32468	0.14387	0.23569	0.057228	0.060827	0.11402	0.23448	0.22776	0.06694	0.095808	-2.9667	-3.4229	-2.6958	-3.8708	-3.2333	-2.7917	-3.7938	-2.8646	-3.0292	-3.5	-2.7125	-3.5146	-3.1625	-2.8021	-3.5583	-2.6708	473.899	437.527	231.609	222.404	314.756	508.850	514.499	503.046	327.543	298.311	329.622	283.567	433.550	203.748	260.688	488.085	0.00028972	0.00048795	5.4511e-05	1188.1	1.6803e-06	4.6335e-06	1274.5	242.43	3.8979e-06	3.5397e-06	300.98	85.48	67.33	19.975	2.9953e-06	27.487	0.000546	0.0007006	0.0002057	1170.5	7.9045e-06	8.1812e-06	1261.9	241.73	7.8561e-06	7.8785e-06	301.9	86.224	67.985	20.271	7.6655e-06	28.19	197.557	243.669	255.038	172.088	281.189	283.045	171.796	179.414	282.113	315.326	179.363	185.661	186.304	193.784	283.241	193.381	-8191	255	
1027.418	1	1	0	0	0.11912	0.04119	0.1496	0.10529	0.10787	0.21265	0.16982	0.11765	0.045186	0.081503	0.086543	0.35163	0.11365	0.017472	0.042975	0.078467	-2.4625	-3.4708	-2.7354	-3.3521	-3.0938	-2.4875	-3.7125	-3.0583	-2.9813	-3.5667	-2.7313	-3.3312	-3.35	-2.6917	-3.6146	-2.8979	460.755	303.110	455.309	163.574	250.757	420.302	405.944	207.826	519.869	205.853	373.241	502.225	263.012	374.133	292.899	456.841	0.00026743	0.00044856	0.00012373	1183.6	1.8962e-06	3.9804e-06	1272.3	242.65	2.3005e-06	3.9495e-06	301.27	85.041	67.858	19.953	1.4007e-06	27.414	0.00054747	0.00069989	0.00020805	1170.1	7.58e-06	8.0131e-06	1260	241.25	7.3873e-06	7.883e-06	302.05	85.969	68.065	20.283	7.6613e-06	28.121	193.206	249.708	268.015	172.202	237.476	306.906	172.017	179.278	317.146	341.425	179.380	185.453	185.927	193.326	278.313	192.852	-8191	255	
1027.512	1	1	0	0	0.14615	0.038706	0.09089	0.10463	0.24279	0.051228	0.071793	0.23772	0.11835	0.078952	0.27634	0.12369	0.15949	0.21002	0.14719	0.24097	-2.5	-3.5667	-2.4833	-3.3896	-3.3792	-2.6708	-3.6458	-2.9	-2.7917	-3.6292	-2.7188	-3.1875	-3.4771	-2.5958	-3.5563	-3.0208	434.648	518.762	338.629	458.260	399.232	517.081	180.198	483.337	450.826	337.004	426.979	430.202	342.479	434.596	501.919	323.262	0.00027416	0.00049734	0.00010192	1184.5	2.0081e-06	3.7253e-06	1277.1	241.53	4.6094e-06	1.7585e-06	303.69	85.276	67.622	19.988	3.4522e-06	27.688	0.00052654	0.00068721	0.00020187	1169	7.4438e-06	7.6675e-06	1261.6	240.87	7.4397e-06	7.6661e-06	301.95	86.055	68.071	20.265	7.5576e-06	28.167	197.429	240.503	274.463	172.117	259.233	319.938	171.789	179.526	292.849	297.817	179.236	185.248	185.843	193.451	292.832	193.026	-8191	255	
1027.610	1	1	0	0	0.15706	0.29411	0.16401	0.19364	0.28587	0.29065	0.11765	0.21809	0.3566	0.19464	0.22511	0.31369	0.28768	0.20805	0.13097	0.034179	-2.4729	-3.6208	-2.825	-3.0792	-3.3083	-2.5792	-3.5479	-2.8667	-2.3979	-3.5312	-2.7604	-2.8583	-3.475	-2.6917	-3.4958	-3.3292	349.030	385.248	183.671	194.290	217.315	402.940	227.974	477.160	235.167	362.362	454.095	504.462	494.934	180.725	490.781	179.959	0.00029417	0.00034779	6.239e-05	1187.8	3.014e-06	3.8627e-06	1277	242.67	4.3603e-06	3.0422e-06	301.35	85.433	67.514	19.868	2.9624e-06	27.479	0.00053517	0.00070021	0.00020155	1171	7.4598e-06	8.1168e-06	1263.7	241	7.3942e-06	7.7797e-06	301.39	86.042	68.027	20.261	7.5892e-06	28.098	191.926	254.369	256.992	172.018	300.096	311.550	172.211	179.411	312.253	318.424	179.232	185.450	185.969	193.729	308.997	193.118	-8191	255	
1027.729	1	1	0	0	0.26921	0.066888	0.25023	0.16562	0.23626	0.091661	0.038102	0.26907	0.32648	0.14094	0.095304	0.093684	0.10978	0.25088	0.032163	0.19711	-2.1646	-3.4854	-2.825	-3.1437	-3.4688	-2.5	-3.3021	-3.3167	-2.3625	-3.3292	-2.9542	-2.7938	-3.4396	-2.3917	-3.1125	-3.2729	389.127	446.627	219.644	191.482	509.717	362.143	224.949	458.369	327.792	439.847	472.175	380.537	354.555	434.571	395.761	421.744	0.00027225	0.00044649	8.4973e-05	1187	3.6864e-06	3.0252e-06	1277.6	241.24	3.3011e-06	2.7589e-06	301.92	85.017	67.653	19.997	3.017e-06	27.55	0.00055739	0.00070312	0.00020427	1168.8	7.4514e-06	7.8879e-06	1262	241.01	7.5195e-06	7.6795e-06	301.69	85.799	67.909	20.275	7.4788e-06	28.157	201.309	281.174	228.759	172.145	301.772	258.019	171.759	179.196	299.155	310.177	179.187	185.592	185.806	193.445	269.607	193.196	-8191	255	
1027.825	1	1	0	0	0.26172	0.13038	0.059399	0.10817	0.24019	0.073297	0.18152	0.087134	0.16836	0.33233	0.2294	0.26429	0.12678	0.15196	0.096981	0.0032798	-2.2292	-3.4604	-2.9333	-2.8958	-3.475	-2.6271	-3.3292	-3.4208	-2.4938	-3.4792	-3.1312	-2.7438	-3.7396	-2.7208	-3.1813	-3.6479	265.847	376.415	505.441	377.477	302.026	304.505	517.271	208.410	399.160	430.286	462.195	321.669	243.224	169.942	477.191	477.384	0.00028273	0.00045138	7.6303e-05	1184.3	2.4048e-06	2.3512e-06	1269.8	241.55	3.9751e-06	2.5147e-06	301.39	85.503	67.345	20.017	3.3048e-06	27.472	0.00056363	0.00071217	0.00019668	1167.4	7.4706e-06	7.917e-06	1259.5	240.64	7.7803e-06	7.9235e-06	301.59	86.063	68.023	20.29	7.3668e-06	28.055	195.680	245.238	320.752	172.159	291.019	312.559	171.933	179.563	309.277	283.294	179.011	185.377	186.232	193.846	326.521	192.982	-8191	255	
1027.921	1	1	0	0	0.065966	0.25648	0.11877	0.23175	0.22103	0.29051	0.25582	0.19501	0.24934	0.10038	0.3453	0.10743	0.15651	0.061286	0.038804	0.22029	-2.2438	-3.5938	-3.0979	-2.7771	-3.5208	-2.6104	-2.8812	-3.2188	-2.5312	-3.4833	-3.2542	-2.6854	-3.7167	-2.9188	-3.0354	-3.6167	191.778	359.511	395.112	493.378	383.269	203.340	417.094	325.685	449.332	381.826	273.466	199.064	267.484	196.521	479.439	231.615	0.00027605	0.0002642	8.0611e-05	1181.5	2.834e-06	3.6816e-06	1272	241.55	4.5545e-06	2.6251e-06	300.4	85.2	67.317	19.868	2.882e-06	27.554	0.00054688	0.00068039	0.00018787	1167.6	7.1581e-06	7.7341e-06	1258.1	240.45	7.3906e-06	7.5441e-06	301	85.986	67.865	20.206	7.3621e-06	28.105	198.322	245.011	267.728	172.068	277.360	281.748	172.004	179.339	286.252	330.138	179.229	185.656	186.216	193.378	302.412	193.153	-8191	255	
1028.017	1	1	0	0	0.12354	0.13648	0.038554	0.12012	0.17759	0.22055	0.047263	0.23528	0.10524	0.18468	0.11012	0.08624	0.15774	0.16251	0.10247	0.050817	-2.1229	-3.3396	-3.3104	-2.8521	-3.7042	-3.0438	-3.1375	-3.7479	-2.6333	-3.4833	-3.4833	-2.5625	-3.5396	-2.9479	-2.725	-3.5563	472.398	420.135	207.253	443.263	211.705	208.532	234.449	471.439	473.655	253.970	464.831	174.594	260.778	505.549	433.501	388.059	0.00028259	0.00019235	3.5246e-05	1175	1.0342e-06	6.1583e-06	1269.2	241.44	3.6883e-06	4.8664e-06	300.38	85.095	67.663	19.769	1.7655e-06	27.285	0.00054008	0.0006896	0.00018492	1163.2	7.1689e-06	7.5164e-06	1255.1	240.51	7.1862e-06	7.4284e-06	301.19	86.055	67.964	20.171	7.1325e-06	28.026	198.105	268.291	246.143	172.012	311.306	310.100	171.948	179.454	276.675	314.516	179.168	185.719	186.203	194.130	307.498	193.379	-8191	255	
1028.113	1	1	0	0	0.23069	0.20168	0.14327	0.21799	0.088684	0.054082	0.33906	0.013426	0.41818	0.069401	0.33107	0.083599	0.21836	0.13917	0.0070554	0.17752	-2.1688	-3.2792	-3.3125	-2.9479	-3.7062	-2.9938	-3.1167	-3.5875	-2.7562	-3.0354	-3.5396	-2.7062	-3.5542	-3.2687	-2.8688	-3.7208	172.740	273.313	284.356	497.906	310.154	346.350	478.205	165.035	218.605	486.897	420.361	351.541	442.871	267.999	368.416	408.216	0.00029626	0.00032398	3.6757e-05	1184.3	4.3333e-06	2.9686e-06	1271.3	241.22	3.5585e-06	2.1557e-06	300.57	84.837	67.771	19.923	1.6592e-06	27.584	0.00054297	0.00068294	0.00018489	1166.8	7.2482e-06	7.4968e-06	1255.2	240.18	7.4709e-06	7.5268e-06	300.98	85.697	67.819	20.208	7.2551e-06	28.113	199.290	230.870	265.683	172.448	280.619	276.794	172.195	179.617	276.119	317.340	179.655	185.919	186.111	193.843	350.006	193.445	-8191	255	
1028.210	1	1	0	0	0.071273	0.24102	0.11938	0.21048	0.027559	0.23981	0.4731	0.022899	0.26663	0.075468	0.20614	0.029616	0.27899	0.14389	0.066129	0.064243	-2.4208	-2.8417	-3.4375	-2.5583	-3.3479	-3.225	-2.9479	-3.7438	-2.7979	-2.9792	-3.5104	-2.5854	-3.225	-3.2875	-2.5708	-3.7208	284.129	223.838	323.914	183.133	287.973	390.764	470.971	185.697	250.150	376.644	224.930	449.257	271.007	502.173	496.854	163.706	0.00029522	0.00054722	9.2845e-05	1181.2	2.5847e-06	2.5621e-06	1271.2	241.1	3.7512e-06	1.4377e-06	300.33	84.766	67.64	19.988	4.4229e-06	27.483	0.00054065	0.00068206	0.00019062	1164.2	7.4518e-06	7.6608e-06	1257.2	240.22	7.5889e-06	7.74e-06	301.24	85.768	67.954	20.27	7.333e-06	28.102	200.093	269.253	249.631	172.365	256.009	304.012	171.828	179.374	293.711	323.323	179.041	185.491	185.861	193.298	318.422	193.350	-8191	255	
1028.330	1	1	0	0	0.16476	0.1469	0.2684	0.040216	0.19982	0.13505	0.29542	0.093517	0.085264	0.18544	0.25253	0.054657	0.11366	0.19361	0.28807	0.083637	-2.6604	-2.85	-3.5729	-2.825	-3.3896	-3.6562	-2.7958	-3.7646	-3.0271	-2.975	-3.7146	-2.5917	-3.3042	-3.4333	-2.4667	-3.5417	185.691	237.790	497.430	169.760	458.780	236.137	199.016	478.021	223.105	269.478	446.389	474.580	337.488	288.220	252.477	204.910	0.00031407	0.0003904	8.9753e-05	1183.9	4.3191e-06	3.637e-06	1272.7	241.65	4.2282e-06	4.5222e-06	300.65	84.828	67.645	19.871	3.3525e-06	27.75	0.00053911	0.00066564	0.00019012	1165	7.0648e-06	7.2527e-06	1256.5	240.62	7.0722e-06	7.403e-06	300.64	85.831	67.808	20.121	7.2399e-06	28.104	201.095	213.001	238.053	172.214	295.067	270.788	171.977	179.678	297.062	320.167	179.263	185.651	185.697	193.964	340.954	193.157	-8191	255	
1028.425	1	1	0	0	0.099656	0.24685	0.061344	0.15332	0.099388	0.10757	0.22589	0.11123	0.36294	0.25149	0.1649	0.23243	0.077571	0.32466	0.26749	0.28266	-2.9292	-2.6125	-3.6396	-2.8229	-3.1167	-3.5208	-2.975	-3.6312	-3.125	-2.9188	-3.6458	-2.6417	-3.175	-3.4813	-2.6292	-3.5292	432.368	192.924	213.440	509.777	412.156	425.823	490.535	175.934	408.565	216.031	210.747	430.485	399.956	459.513	423.437	431.661	0.00029082	0.00051986	6.5225e-05	1178.9	3.0334e-06	3.8864e-06	1267.6	241.32	2.5049e-06	3.0839e-06	301.19	85.572	67.821	19.857	2.8028e-06	27.49	0.00052701	0.00068222	0.00018879	1163.8	7.1801e-06	7.2777e-06	1257.1	240.53	7.0958e-06	7.655e-06	301.25	86.026	68.121	20.199	7.4603e-06	28.11	195.761	220.802	229.546	172.422	329.623	283.869	172.215	179.918	318.494	309.034	179.517	185.721	186.878	193.854	325.617	193.205	-8191	255	
1028.521	1	1	0	0	0.10434	0.19494	0.096538	0.079578	0.16275	0.21356	0.14702	0.094464	0.013017	0.11673	0.23899	0.060184	0.20255	0.072753	0.2091	0.24902	-2.6833	-2.3417	-3.6292	-2.9	-2.9938	-3.2771	-2.6021	-3.4229	-3.1208	-2.5958	-3.7313	-2.9833	-3.0792	-3.8	-2.8958	-3.5563	417.900	501.217	519.768	402.326	405.598	350.288	400.324	458.530	342.337	336.366	496.060	245.876	478.399	461.984	357.688	502.266	0.00025041	0.00036768	7.4867e-05	1182.8	2.8752e-06	3.3557e-06	1274.4	241.18	3.3543e-06	3.7605e-06	301.75	85.442	67.478	19.819	1.9506e-06	27.451	0.00052859	0.00066177	0.00019343	1166.1	7.3704e-06	7.6345e-06	1259.2	240.03	7.1975e-06	7.5735e-06	301.18	86.192	67.945	20.236	7.4085e-06	28.09	201.498	253.144	243.293	172.754	249.484	318.932	172.062	179.730	276.903	299.412	179.608	185.738	186.368	194.080	312.745	194.573	-8191	255	
1028.617	1	1	0	0	0.16857	0.099241	0.29075	0.1316	0.15481	0.056628	0.27671	0.12835	0.045036	0.02992	0.12052	0.33827	0.12029	0.025083	0.054281	0.3182	-3.1354	-2.6979	-3.6521	-3.0938	-2.9375	-3.4771	-2.8104	-3.2042	-3.1854	-2.4292	-3.6417	-2.9896	-2.9771	-3.6417	-2.6354	-3.0896	498.491	323.021	441.379	394.602	291.397	415.997	478.038	491.124	329.365	183.658	514.968	436.249	250.423	184.734	465.085	166.925	0.00026156	0.00036536	0.00012533	1181.9	2.028e-06	4.6471e-06	1269.6	242.51	1.932e-06	4.7129e-06	302.08	85.084	67.423	20.023	3.8758e-06	27.412	0.00051781	0.0007073	0.00019658	1164.5	7.2671e-06	7.5585e-06	1257.4	240.82	7.1619e-06	7.5508e-06	301.34	86.029	67.94	20.234	7.6044e-06	28.049	200.382	222.134	256.253	172.444	278.888	290.531	172.085	179.783	329.675	335.920	179.630	185.887	186.357	194.095	264.411	193.401	-8191	255	
1028.713	1	1	0	0	0.23304	0.17134	0.12905	0.37265	0.26858	0.16428	0.30108	0.28512	0.28382	0.11789	0.15398	0.2027	0.21775	0.2181	0.24634	0.081776	-3.0167	-2.4833	-3.4229	-3.1042	-2.7979	-3.7417	-2.9646	-3.1396	-3.4771	-2.5354	-3.6104	-3.175	-2.6937	-3.7208	-2.7104	-3.0812	510.213	329.982	174.084	432.248	259.357	368.374	462.129	438.066	498.888	491.130	282.651	500.958	498.669	464.714	382.479	251.540	0.00028191	0.00028835	5.5222e-05	1183.1	2.6067e-06	2.299e-06	1268.8	241.38	3.4194e-06	3.4037e-06	300.9	84.692	67.92	19.887	2.6047e-06	27.36	0.00051094	0.0006886	0.00018959	1165.5	7.3119e-06	7.5611e-06	1256.4	240.04	7.2417e-06	7.944e-06	301.15	85.877	68.015	20.179	7.3457e-06	28.062	191.712	268.357	247.242	172.531	282.194	346.945	172.594	179.966	311.905	323.586	179.325	185.380	186.244	194.172	295.264	193.649	-8191	255	
1028.809	1	1	0	0	0.072573	0.068434	0.27215	0.12171	0.12615	0.051541	0.26584	0.23558	0.2514	0.28853	0.13465	0.1774	0.1697	0.10987	0.138	0.1752	-2.9042	-2.5187	-3.3208	-3.3333	-2.8396	-3.4229	-2.9292	-2.8167	-3.3896	-2.4979	-3.4042	-3.2687	-2.5021	-3.3917	-2.7167	-2.9062	333.384	274.376	203.235	447.038	361.272	464.882	428.595	496.577	191.674	233.841	463.179	282.672	209.353	395.067	173.567	515.544	0.00030022	0.00031158	0.00013793	1177.7	3.763e-06	3.5449e-06	1269.2	242.12	3.9049e-06	3.7362e-06	301.24	85.399	67.469	19.883	3.4059e-06	27.445	0.00053705	0.00070391	0.00019184	1164.5	7.5507e-06	7.385e-06	1257.6	240.59	7.2535e-06	7.7757e-06	301.37	86.037	67.968	20.167	7.526e-06	28.051	200.963	258.807	271.938	172.561	292.753	349.347	172.155	179.801	316.605	319.135	179.268	185.434	186.395	193.945	293.244	193.266	-8191	255	
1028.905	1	1	0	0	0.1418	0.25991	0.027218	0.24863	0.15213	0.12753	0.32156	0.15071	0.17828	0.098649	0.20734	0.15319	0.20672	0.24805	0.11071	0.21873	-3.2146	-2.5187	-3.0812	-3.3896	-2.5125	-3.5792	-3.0229	-2.7125	-3.5646	-2.4229	-3.2833	-3.5312	-2.625	-3.625	-3.0208	-2.6604	173.775	311.695	446.761	456.028	391.496	324.460	418.951	246.024	435.222	181.428	441.896	163.195	294.352	168.475	213.390	385.859	0.00026066	0.00018808	8.6909e-05	1180.8	1.3726e-06	2.4742e-06	1268.7	241.92	1.4036e-06	3.9652e-06	301.08	85.818	67.747	19.836	1.4648e-06	27.263	0.00053346	0.00071269	0.00019744	1163.3	7.7282e-06	7.6519e-06	1255.9	240.14	7.3861e-06	7.627e-06	301.41	86.041	68.094	20.212	7.2205e-06	28.022	198.916	255.252	253.447	172.535	264.080	282.941	172.301	180.042	304.282	300.048	179.953	185.966	186.845	194.691	319.024	193.687	-8191	255	
1029.002	1	1	0	0	0.2305	0.13707	0.32161	0.086393	0.29426	0.21924	0.19111	0.21369	0.086624	0.35936	0.16369	0.093408	0.14312	0.097535	0.027821	0.25948	-2.9104	-2.5729	-2.9271	-3.7188	-2.7396	-3.6396	-3.4958	-2.8812	-3.6646	-2.7313	-2.9583	-3.325	-2.6604	-3.3833	-3.1813	-2.8208	413.707	419.166	390.881	358.539	354.781	180.841	475.600	428.961	419.413	430.990	165.959	474.973	252.439	237.588	373.002	290.365	0.00028016	0.00037832	7.7948e-05	1180.8	2.7517e-06	1.9286e-06	1268.8	242.09	4.3826e-06	3.5083e-06	302.93	85.354	67.193	19.895	4.4685e-06	27.384	0.00054343	0.00068956	0.00019416	1164.9	7.465e-06	7.5187e-06	1255.4	240.47	7.492e-06	7.5615e-06	301.26	86.04	67.914	20.219	7.261e-06	28.016	201.248	248.397	259.767	172.849	282.602	340.350	172.532	179.820	302.073	281.549	180.247	185.705	186.444	194.163	339.576	193.850	-8191	255	
1029.122	1	1	0	0	0.14029	0.14317	0.21881	0.059287	0.094549	0.15471	0.20321	0.21791	0.11965	0.099302	0.15412	0.029901	0.10948	0.13985	0.11333	0.049174	-3.3812	-2.8854	-2.9583	-3.6646	-2.6167	-3.3583	-3.4583	-2.8208	-3.5458	-2.8875	-3.0187	-3.7229	-2.5625	-3.2	-3.45	-2.8312	392.241	442.752	299.062	474.305	400.655	272.354	445.178	262.738	272.905	307.243	475.531	493.071	381.979	396.230	266.192	191.340	0.00027143	0.00049046	0.0001143	1182.6	4.2416e-06	3.8588e-06	1268.6	240.74	3.3981e-06	3.9824e-06	301.5	84.891	67.426	19.976	1.6063e-06	27.452	0.00052664	0.00067592	0.00018754	1164.5	7.4974e-06	7.571e-06	1254.2	240.26	7.3411e-06	7.5931e-06	301.09	85.833	67.909	20.223	7.1733e-06	28.098	195.737	278.083	252.851	172.704	273.999	308.008	172.218	180.003	279.600	340.303	179.267	186.028	186.179	193.950	217.453	193.169	-8191	255	
1029.218	1	1	0	0	0.033982	0.046218	0.080221	0.12933	0.28157	0.20542	0.10955	0.17301	0.17579	0.046322	0.19839	0.30889	0.24591	0.061581	0.22188	0.10191	-3.3646	-2.8625	-2.8333	-3.6208	-2.5479	-3.2354	-3.5312	-2.4958	-3.5771	-3.0083	-2.8	-3.5792	-2.6667	-3.1292	-3.3896	-2.7125	408.168	246.575	207.713	186.011	173.519	210.611	343.353	293.606	439.055	167.391	186.046	180.448	232.575	511.571	461.660	244.140	0.00024986	7.3605e-05	9.5686e-05	1180.6	2.4701e-06	3.5256e-06	1262.2	242.58	4.2999e-06	4.8993e-06	302.02	85.457	67.477	19.962	6.3127e-06	27.472	0.00053896	0.00067883	0.00019702	1163.6	7.346e-06	7.6295e-06	1254.1	240.76	7.333e-06	7.4702e-06	301.16	86.148	67.958	20.216	7.1278e-06	28.135	202.120	267.208	222.698	172.451	255.478	304.678	172.091	179.824	282.479	346.820	179.541	185.662	186.636	194.437	287.233	193.615	-8191	255	
1029.290	1	1	0	0	0.26953	0.2164	0.12894	0.28908	0.20195	0.2795	0.10344	0.090564	0.19082	0.075113	0.19573	0.2433	0.33261	0.12963	0.25562	0.15649	-3.0417	-3.1542	-2.8833	-3.7979	-2.8375	-3.1271	-3.6188	-2.5833	-3.2896	-3.1958	-3.0208	-3.6729	-2.8125	-2.7583	-3.2354	-2.6646	243.033	167.835	299.335	462.968	444.680	513.444	206.525	175.471	520.461	469.438	179.074	361.060	478.783	517.458	463.017	504.619	0.00028508	0.00041283	9.9169e-05	1177.8	2.5705e-06	2.9589e-06	1270.1	242.24	1.3056e-06	4.4596e-06	301.87	85.75	67.368	19.894	3.9967e-06	27.494	0.00052092	0.00066831	0.00019065	1162.3	7.364e-06	7.6595e-06	1254.9	240.66	7.2146e-06	7.5731e-06	300.8	86.19	67.938	20.194	7.2509e-06	28.114	200.943	214.885	248.728	172.856	298.725	274.347	172.132	179.341	301.121	335.143	179.617	185.805	186.349	193.869	283.336	193.450	-8191	255	
1029.411	1	1	0	0	0.17361	0.074922	0.17615	0.06629	0.11684	0.11335	0.055785	0.26011	0.089345	0.20752	0.26398	0.16322	0.30617	0.11277	0.18663	0.35569	-2.9708	-3.1521	-2.6688	-3.3458	-2.7208	-2.7833	-3.7271	-2.8438	-3.3896	-3.1896	-2.4896	-3.6188	-2.8104	-2.8792	-3.5792	-2.7646	452.339	273.865	513.864	450.299	177.965	489.303	503.368	217.917	468.706	172.750	449.458	217.698	497.595	374.950	301.666	472.666	0.00029343	0.00022693	5.3429e-05	1178.7	2.6175e-06	2.8551e-06	1270.8	241.72	2.3636e-06	2.4299e-06	299.21	85.475	67.355	19.911	1.8916e-06	27.376	0.00053234	0.00068123	0.00019718	1163.9	7.4045e-06	7.883e-06	1255.4	240.55	7.1497e-06	7.7775e-06	300.93	86.108	67.877	20.181	7.2795e-06	28.061	201.779	252.367	270.022	172.309	304.474	331.478	172.267	179.745	315.507	284.654	179.520	185.759	186.327	194.139	272.495	193.543	-8191	255	
1029.505	1	1	0	0	0.12324	0.18745	0.1679	0.17536	0.10893	0.11749	0.36988	0.15887	0.1726	0.18375	0.069319	0.15282	0.086659	0.20003	0.19799	0.10521	-2.925	-3.2854	-2.4896	-3.6792	-3.0104	-2.6708	-3.9146	-2.7354	-3.1813	-3.2958	-2.4833	-3.4813	-3.1333	-2.7396	-3.6271	-2.7562	291.834	488.406	465.408	371.685	436.363	193.240	420.716	229.126	459.439	382.723	184.370	456.342	209.542	193.172	498.725	451.167	0.00028983	0.00038799	6.8472e-05	1178.4	4.1308e-06	4.2173e-06	1273	241.72	4.8205e-06	4.5234e-06	300.9	84.881	67.598	19.868	2.9049e-06	27.537	0.00052368	0.00065814	0.00019646	1164.3	7.4093e-06	7.5214e-06	1257.5	240.28	7.2369e-06	7.4653e-06	301.22	86.051	67.906	20.217	7.269e-06	28.022	194.159	242.774	243.912	172.331	303.356	286.087	172.104	179.452	289.886	337.922	179.576	185.553	186.056	194.134	318.497	193.473	-8191	255	
1029.601	1	1	0	0	0.23341	0.12556	0.14889	0.28912	0.14036	0.085104	0.10333	0.084983	0.08069	0.15739	0.21708	0.21411	0.26703	0.13405	0.10269	0.12052	-2.5583	-3.3042	-2.4313	-3.4479	-2.9396	-2.6604	-3.675	-2.8104	-3.0292	-3.5833	-2.5271	-3.325	-3.1021	-2.5104	-3.5896	-2.925	385.759	427.551	255.793	438.305	282.411	191.703	383.400	231.523	224.440	283.946	238.466	466.786	484.642	220.562	287.893	383.909	0.00030597	0.000495	6.0428e-05	1180.9	1.3114e-06	2.5495e-06	1270.6	242.32	2.5344e-06	3.4068e-06	302.05	85.47	67.32	20.045	1.8773e-06	27.569	0.00052195	0.00068585	0.00020054	1165.1	7.4081e-06	7.6698e-06	1255.3	240.55	7.3675e-06	7.5009e-06	300.75	86.146	67.809	20.248	7.2387e-06	28.05	199.395	257.705	267.190	172.402	316.492	316.744	172.128	179.793	258.170	307.521	179.382	185.742	186.201	193.954	382.323	193.191	-8191	255	
1029.697	1	1	0	0	0.20104	0.11025	0.22576	0.22148	0.012281	0.097557	0.30137	0.28195	0.071951	0.31726	0.234	0.26931	0.090849	0.074234	0.053642	0.42689	-2.6437	-3.5687	-2.6625	-3.1896	-3.1833	-2.5333	-3.6312	-3.1146	-2.9208	-3.6437	-2.6375	-3.0229	-3.3771	-2.5146	-3.65	-2.9396	404.997	472.958	411.387	482.580	358.830	238.333	484.811	493.965	255.756	191.081	495.708	194.094	472.435	213.738	257.239	402.001	0.00032121	0.00050785	0.00012424	1176.8	3.7247e-06	2.3032e-06	1268.4	241.33	3.8362e-06	2.5878e-06	301.08	84.869	67.603	19.983	1.1731e-06	27.407	0.0005315	0.00066165	0.00019296	1162.6	7.1048e-06	7.9447e-06	1255.3	240.02	7.3484e-06	7.6065e-06	300.9	85.925	67.921	20.22	7.1653e-06	28.001	197.184	294.753	298.450	172.477	314.363	304.499	172.186	179.588	285.885	318.286	179.533	185.897	186.045	193.887	353.621	193.313	-8191	255	
1029.818	1	1	0	0	0.073678	0.069582	0.14822	0.18864	0.21745	0.098604	0.10603	0.23351	0.11651	0.14892	0.094831	0.47894	0.13447	0.39051	0.059768	0.19823	-2.2229	-3.4792	-2.7771	-3.1167	-3.3854	-2.8396	-3.5771	-3	-2.5479	-3.3708	-3.0104	-3.1667	-3.4125	-2.6	-3.3042	-3.3563	203.202	189.652	410.285	168.894	316.593	200.146	447.043	164.908	511.466	308.449	421.356	510.064	205.450	459.655	368.880	187.319	0.00030619	0.00023678	9.5445e-05	1180	2.1683e-06	3.6175e-06	1266.3	242.21	1.6425e-06	3.9335e-06	300.56	85.33	67.705	19.918	5.1003e-06	27.276	0.00053461	0.00069012	0.000196	1164.4	7.1725e-06	7.8334e-06	1256.6	240.41	7.4952e-06	7.4693e-06	300.4	86.058	67.855	20.203	7.0621e-06	28.037	197.563	224.278	272.475	172.498	262.847	322.086	172.232	179.488	277.167	297.459	179.655	185.644	186.089	193.866	322.595	193.135	-8191	255	
1029.914	1	1	0	0	0.24497	0.14541	0.043437	0.013726	0.029621	0.07275	0.32237	0.058635	0.25621	0.067859	0.20661	0.15134	0.10446	0.11479	0.16887	0.4315	-2.2396	-3.3833	-2.4479	-3.2479	-3.6458	-2.5938	-3.4625	-3.325	-2.6792	-3.6583	-2.8146	-2.8479	-3.6333	-2.6146	-3.2062	-3.4313	424.034	400.646	294.914	184.809	319.064	244.870	469.494	456.662	182.043	239.377	423.540	170.132	492.149	499.041	508.901	396.428	0.00027108	0.00014432	7.1079e-05	1178.4	1.2766e-06	4.4408e-06	1271.2	242.88	2.2668e-06	4.8962e-06	301.62	85.151	67.737	19.83	2.1998e-06	27.436	0.00054138	0.00067265	0.00019505	1164.1	7.2378e-06	7.7762e-06	1256.8	240.42	7.3281e-06	7.5909e-06	300.57	86.152	67.966	20.178	7.1409e-06	28.058	193.460	286.554	270.981	172.769	291.983	342.000	172.123	179.788	268.592	344.200	179.095	185.764	186.470	194.194	311.551	193.257	-8191	255	
#DATA ENDS
