BOXY.EXE: ISS Imagent and Oximeter Data Acquisition Program Version 0.80
Ascii Record File

#ACQ INFORMATION
2  Detector Channels 
16  External MUX Channels 
1  Auxiliary Channels 
5000  Waveform (CCF) Frequency (Hz)
1  Waveforms Skipped 
30  Waveforms Averaged 
1  Cycles Averaged 
16  Acquisitions per Waveform 
10.0806  Updata Rate (Hz) 

#FILE INFORMATION
TRUE -- External MUX Channel results are PARSED.
FALSE -- AC DC and Phase are NOT grouped.
TRUE -- Companion Program Settings File CREATED.
FALSE -- AC data not excluded
FALSE -- DC data not excluded
FALSE -- Phase data not excluded
FALSE -- Auxillary Chn. data not excluded
Tab delimiters

#CALIBRATION STATE
TRUE -- Waveform Calibration Values APPLIED.


#AUX CALIBRATION VALUES
Val Type	aux-1	

Term	1.0000e+00	
Factor	0.0000e+00	


#WF CALIBRATION VALUES
A = Detector Channel
Val Type	A-AC1	A-AC2	A-AC3	A-AC4	A-AC5	A-AC6	A-AC7	A-AC8	A-AC9	A-AC10	A-AC11	A-AC12	A-AC13	A-AC14	A-AC15	A-AC16	A-DC1	A-DC2	A-DC3	A-DC4	A-DC5	A-DC6	A-DC7	A-DC8	A-DC9	A-DC10	A-DC11	A-DC12	A-DC13	A-DC14	A-DC15	A-DC16	A-Ph1	A-Ph2	A-Ph3	A-Ph4	A-Ph5	A-Ph6	A-Ph7	A-Ph8	A-Ph9	A-Ph10	A-Ph11	A-Ph12	A-Ph13	A-Ph14	A-Ph15	A-Ph16	

Term	0.00000e+00	0.00000e+00	0.00000e+00	0.00000e+00	0.00000e+00	0.00000e+00	0.00000e+00	0.00000e+00	0.00000e+00	0.00000e+00	0.00000e+00	0.00000e+00	0.00000e+00	0.00000e+00	0.00000e+00	0.00000e+00	0.00000e+00	0.00000e+00	0.00000e+00	0.00000e+00	0.00000e+00	0.00000e+00	0.00000e+00	0.00000e+00	0.00000e+00	0.00000e+00	0.00000e+00	0.00000e+00	0.00000e+00	0.00000e+00	0.00000e+00	0.00000e+00	0.00000e+00	0.00000e+00	0.00000e+00	0.00000e+00	0.00000e+00	0.00000e+00	0.00000e+00	0.00000e+00	0.00000e+00	0.00000e+00	0.00000e+00	0.00000e+00	0.00000e+00	0.00000e+00	0.00000e+00	0.00000e+00	
Factor	1.00000e+00	1.00000e+00	1.00000e+00	1.00000e+00	1.00000e+00	1.00000e+00	1.00000e+00	1.00000e+00	1.00000e+00	1.00000e+00	1.00000e+00	1.00000e+00	1.00000e+00	1.00000e+00	1.00000e+00	1.00000e+00	1.00000e+00	1.00000e+00	1.00000e+00	1.00000e+00	1.00000e+00	1.00000e+00	1.00000e+00	1.00000e+00	1.00000e+00	1.00000e+00	1.00000e+00	1.00000e+00	1.00000e+00	1.00000e+00	1.00000e+00	1.00000e+00	X	X	X	X	X	X	X	X	X	X	X	X	X	X	X	X	

B = Detector Channel
Val Type	B-AC1	B-AC2	B-AC3	B-AC4	B-AC5	B-AC6	B-AC7	B-AC8	B-AC9	B-AC10	B-AC11	B-AC12	B-AC13	B-AC14	B-AC15	B-AC16	B-DC1	B-DC2	B-DC3	B-DC4	B-DC5	B-DC6	B-DC7	B-DC8	B-DC9	B-DC10	B-DC11	B-DC12	B-DC13	B-DC14	B-DC15	B-DC16	B-Ph1	B-Ph2	B-Ph3	B-Ph4	B-Ph5	B-Ph6	B-Ph7	B-Ph8	B-Ph9	B-Ph10	B-Ph11	B-Ph12	B-Ph13	B-Ph14	B-Ph15	B-Ph16	

Term	0.00000e+00	0.00000e+00	0.00000e+00	0.00000e+00	0.00000e+00	0.00000e+00	0.00000e+00	0.00000e+00	0.00000e+00	0.00000e+00	0.00000e+00	0.00000e+00	0.00000e+00	0.00000e+00	0.00000e+00	0.00000e+00	0.00000e+00	0.00000e+00	0.00000e+00	0.00000e+00	0.00000e+00	0.00000e+00	0.00000e+00	0.00000e+00	0.00000e+00	0.00000e+00	0.00000e+00	0.00000e+00	0.00000e+00	0.00000e+00	0.00000e+00	0.00000e+00	-1.27807e+02	-1.29926e+02	-1.26772e+02	-1.80573e+02	-6.73208e+01	-6.76919e+01	-1.56582e+02	-1.62015e+02	-7.01869e+01	-5.52664e+01	-1.75242e+02	-1.71164e+02	-1.79933e+02	-1.76303e+02	-6.70147e+01	-1.49553e+02	
Factor	2.02714e-05	1.91716e-04	4.79495e-05	1.62367e-01	1.27428e-06	1.92766e-06	1.87826e-01	5.79250e-02	1.30275e-06	1.88192e-06	1.08611e-01	3.63822e-02	2.76640e-02	1.06877e-02	1.58961e-06	1.52523e-02	1.17346e-05	1.91389e-05	5.38533e-06	8.14419e-02	1.92304e-07	2.14576e-07	8.87117e-02	2.92306e-02	1.94660e-07	2.13727e-07	5.29229e-02	1.78944e-02	1.41700e-02	5.42369e-03	2.02256e-07	7.50969e-03	X	X	X	X	X	X	X	X	X	X	X	X	X	X	X	X	



#DISTANCE SETTINGS
A = Detector Channel
A-1	A-2	A-3	A-4	A-5	A-6	A-7	A-8	A-9	A-10	A-11	A-12	A-13	A-14	A-15	A-16	

2.5000e+00	3.0000e+00	2.5000e+00	3.0000e+00	2.0000e+00	3.0000e+00	1.5000e+00	3.0000e+00	3.0000e+00	3.0000e+00	3.0000e+00	3.0000e+00	3.0000e+00	3.0000e+00	1.5000e+00	3.0000e+00	

B = Detector Channel
B-1	B-2	B-3	B-4	B-5	B-6	B-7	B-8	B-9	B-10	B-11	B-12	B-13	B-14	B-15	B-16	

1.0000e+01	1.0000e+01	1.0000e+01	1.4400e+00	1.0000e+01	1.0000e+01	1.5100e+00	1.9400e+00	1.0000e+01	1.0000e+01	1.9900e+00	2.4900e+00	2.4100e+00	2.9000e+00	1.0000e+01	2.9800e+00	




#DATA BEGINS
time	group	step	mark	flag	A-AC1	A-AC2	A-AC3	A-AC4	A-AC5	A-AC6	A-AC7	A-AC8	A-AC9	A-AC10	A-AC11	A-AC12	A-AC13	A-AC14	A-AC15	A-AC16	A-DC1	A-DC2	A-DC3	A-DC4	A-DC5	A-DC6	A-DC7	A-DC8	A-DC9	A-DC10	A-DC11	A-DC12	A-DC13	A-DC14	A-DC15	A-DC16	A-Ph1	A-Ph2	A-Ph3	A-Ph4	A-Ph5	A-Ph6	A-Ph7	A-Ph8	A-Ph9	A-Ph10	A-Ph11	A-Ph12	A-Ph13	A-Ph14	A-Ph15	A-Ph16	B-AC1	B-AC2	B-AC3	B-AC4	B-AC5	B-AC6	B-AC7	B-AC8	B-AC9	B-AC10	B-AC11	B-AC12	B-AC13	B-AC14	B-AC15	B-AC16	B-DC1	B-DC2	B-DC3	B-DC4	B-DC5	B-DC6	B-DC7	B-DC8	B-DC9	B-DC10	B-DC11	B-DC12	B-DC13	B-DC14	B-DC15	B-DC16	B-Ph1	B-Ph2	B-Ph3	B-Ph4	B-Ph5	B-Ph6	B-Ph7	B-Ph8	B-Ph9	B-Ph10	B-Ph11	B-Ph12	B-Ph13	B-Ph14	B-Ph15	B-Ph16	aux-1	digaux	

1070.897	1	1	0	256	0.27143	0.23769	0.34356	0.20267	0.085658	0.19896	0.21502	0.16376	0.14433	0.1754	0.11673	0.10503	0.098766	0.16004	0.24455	0.15127	-2.6854	-2.2583	-3.0167	-3.0062	-2.4292	-3.2687	-2.9021	-2.7333	-3.15	-2.3833	-3.1375	-2.9958	-2.35	-3.3729	-2.5917	-2.6688	170.825	280.583	370.510	458.685	290.739	333.629	472.935	413.916	195.939	353.061	425.351	484.627	186.946	453.705	381.668	464.918	0.00057672	0.00038405	0.00012388	1460.5	4.4148e-06	5.7399e-06	1451.6	392.52	6.8729e-06	3.0995e-06	447.2	146.94	128.52	43.727	6.8102e-06	54.048	0.0010705	0.0013698	0.00038263	1490.1	1.4415e-05	1.528e-05	1485.5	402.79	1.4707e-05	1.5716e-05	460.81	152.13	132.85	45.286	1.5347e-05	56.453	195.292	267.584	244.638	168.911	279.863	312.421	168.560	173.471	289.834	317.401	173.116	176.683	177.500	182.196	315.106	181.585	-8191	255	
1070.993	1	1	0	0	0.10833	0.22232	0.17684	0.31955	0.22391	0.16608	0.14187	0.11478	0.095805	0.16257	0.10934	0.087607	0.1869	0.19706	0.18164	0.084593	-2.8979	-2.4646	-3.0938	-3.3042	-2.2146	-3.0062	-2.5333	-2.5542	-3.0854	-2.2438	-3.1104	-3.1396	-2.2125	-3.3208	-2.4562	-2.5125	358.989	489.225	350.246	452.874	459.510	425.264	453.021	463.756	160.847	288.157	189.897	211.273	235.794	178.769	357.967	174.139	0.0005586	0.00087983	0.00015928	1462.3	3.9896e-06	6.2579e-06	1452.4	392.34	4.2755e-06	3.2582e-06	447.26	147.83	128.46	43.742	2.7596e-06	54.221	0.0010998	0.0014086	0.00039788	1493.2	1.4884e-05	1.5673e-05	1486.5	402.46	1.4656e-05	1.5824e-05	460.23	152.48	132.68	45.304	1.5293e-05	56.491	192.864	242.118	245.073	168.828	308.402	294.487	168.595	173.415	293.623	322.304	173.049	176.685	177.629	182.376	283.053	181.895	-8191	255	
1071.089	1	1	0	0	0.10621	0.38727	0.1291	0.20318	0.24023	0.13126	0.44148	0.14106	0.18426	0.11483	0.22709	0.36079	0.037228	0.13714	0.40111	0.26996	-2.8375	-2.3187	-2.9021	-3.1271	-1.9958	-3.0271	-2.7521	-2.6354	-3.3771	-2.4208	-2.7042	-2.9625	-2.2583	-3.2625	-2.6646	-2.3854	174.921	426.968	253.339	454.986	337.791	334.197	445.943	462.523	232.377	478.441	497.338	417.133	242.510	181.388	403.553	494.554	0.00056906	0.00085225	0.00019356	1458.9	6.2913e-06	7.5675e-06	1449.7	392.36	4.4608e-06	4.993e-06	447.13	146.91	128.5	43.645	5.4067e-06	53.955	0.0011005	0.0014427	0.00040754	1488.3	1.5127e-05	1.5943e-05	1482.9	401.71	1.5069e-05	1.6302e-05	460.04	152.1	132.56	45.267	1.5906e-05	56.28	190.583	217.281	251.437	168.872	296.494	284.773	168.550	173.498	314.452	311.741	172.839	176.879	177.636	182.575	280.706	181.726	-8191	255	
1071.185	1	1	0	0	0.17065	0.094931	0.11856	0.34055	0.087358	0.040193	0.31217	0.26016	0.18739	0.14263	0.16674	0.069461	0.12788	0.24435	0.29584	0.20846	-2.9125	-2.3417	-2.6854	-3.2604	-2.2313	-3.0667	-3.0792	-2.5458	-3.2188	-2.6396	-2.6542	-3.3271	-2.3187	-3.0583	-2.7958	-2.2938	178.409	259.119	447.441	463.787	398.984	304.141	504.612	493.837	277.099	263.280	452.721	342.282	450.694	298.961	272.104	509.431	0.00058398	0.00051178	0.00019348	1456.6	3.2127e-06	6.0373e-06	1453.5	392	5.5526e-06	3.3094e-06	447.69	148.47	128.67	43.63	5.9122e-06	54.393	0.0011237	0.0014637	0.00041541	1488.8	1.492e-05	1.6264e-05	1485.8	402.11	1.5135e-05	1.6216e-05	460.77	152.72	132.82	45.326	1.6062e-05	56.495	193.068	250.808	232.167	168.933	301.646	293.527	168.609	173.638	295.021	304.858	172.871	176.927	177.480	182.476	316.241	181.834	-8191	255	
1071.280	1	1	0	0	0.18633	0.27204	0.20206	0.14724	0.10699	0.15897	0.13606	0.32513	0.21991	0.080484	0.086683	0.053462	0.17756	0.32008	0.19737	0.12132	-2.7729	-2.5083	-2.3771	-3.4208	-2.4313	-2.9375	-3.2542	-2.5062	-3.1167	-2.4896	-2.5729	-3.3375	-2.3792	-2.8646	-3.025	-2.3542	310.122	429.084	410.885	158.415	343.292	289.354	482.411	441.030	236.794	246.531	434.004	472.402	506.016	471.541	446.658	327.652	0.00055014	0.00048451	0.0002309	1460.3	4.9834e-06	4.1179e-06	1452.9	392.94	6.1851e-06	4.532e-06	449.28	147.67	128.28	43.709	4.0391e-06	54.188	0.0011056	0.0014829	0.00041441	1490.5	1.5158e-05	1.6316e-05	1486.9	402.5	1.5231e-05	1.6303e-05	460.88	152.38	132.81	45.43	1.549e-05	56.459	194.770	249.431	261.457	168.897	270.583	310.521	168.739	173.438	279.838	291.220	173.057	176.928	177.431	182.395	318.722	181.713	-8191	255	
1071.376	1	1	0	0	0.071249	0.06377	0.029011	0.35213	0.20481	0.12571	0.21115	0.29785	0.096607	0.15129	0.069357	0.34364	0.038122	0.12909	0.13903	0.18396	-2.9104	-2.7021	-2.5625	-3.2812	-2.3937	-2.6292	-3.2042	-2.5042	-2.9562	-2.4896	-2.2542	-3.1583	-2.45	-2.725	-3.1375	-2.5042	202.621	423.994	158.529	484.431	212.141	469.233	458.672	453.175	197.466	293.184	464.220	489.232	252.992	466.930	156.563	172.680	0.00056473	0.00056203	0.00021104	1465.1	4.6634e-06	4.3359e-06	1451.8	391.8	5.7094e-06	7.0738e-06	447.16	147.55	128.65	43.861	4.3544e-06	54.079	0.0011073	0.0014575	0.00041983	1492.5	1.5162e-05	1.6417e-05	1486.6	402.61	1.5144e-05	1.616e-05	460.91	152.45	132.79	45.414	1.5555e-05	56.376	193.610	247.526	207.285	168.989	274.788	306.973	168.407	173.460	302.920	315.051	172.970	176.912	177.558	182.742	305.224	181.650	-8191	255	
1071.496	1	1	0	0	0.13805	0.18342	0.19609	0.32345	0.043075	0.14131	0.20014	0.25479	0.23142	0.17492	0.24593	0.13041	0.28706	0.041424	0.0663	0.36238	-2.7104	-2.8521	-2.3083	-3.1792	-2.25	-2.4979	-3.4333	-2.5333	-3.05	-2.9062	-2.3937	-3.1354	-2.5167	-2.5854	-3.1271	-2.4979	383.594	326.188	234.072	480.019	314.866	352.392	494.400	487.351	439.192	336.225	176.225	442.534	178.651	447.648	415.835	487.092	0.00054629	0.00051985	0.00015	1463.2	7.167e-06	7.7486e-06	1453.5	392.26	7.2071e-06	6.0756e-06	445.88	147.24	128.59	43.81	4.1241e-06	54.303	0.001117	0.0014711	0.00040867	1492.6	1.5222e-05	1.6382e-05	1488.7	402.33	1.5376e-05	1.6583e-05	460.42	152.46	132.79	45.386	1.6154e-05	56.402	196.555	278.462	268.375	169.052	301.498	338.560	168.669	173.393	284.462	309.192	173.057	176.860	177.577	182.770	302.618	181.579	-8191	255	
1071.593	1	1	0	0	0.23612	0.15804	0.18881	0.15145	0.16617	0.29414	0.057371	0.26321	0.20551	0.062444	0.11786	0.24313	0.25857	0.20834	0.10995	0.13831	-2.6375	-2.8125	-2.1021	-3.3	-2.4583	-2.4313	-3.5167	-2.4396	-2.7062	-3.0458	-2.2812	-3.0896	-2.8292	-2.325	-3.1979	-2.3021	473.882	201.117	269.878	403.537	463.191	179.144	493.370	494.934	193.707	347.748	161.349	504.015	420.851	439.196	280.391	466.621	0.00058541	0.00061899	6.452e-05	1463.7	4.825e-06	3.6272e-06	1456.7	392.19	3.6114e-06	1.8997e-06	448.24	147.69	128.64	43.759	6.0242e-06	54.136	0.0011897	0.0015567	0.00043272	1495.1	1.6098e-05	1.7407e-05	1492.8	402.83	1.6673e-05	1.7289e-05	461.33	152.82	133.08	45.471	1.6686e-05	56.465	195.017	237.097	233.605	169.080	277.022	300.482	168.636	173.481	290.848	327.076	173.012	176.769	177.379	182.383	281.736	181.783	-8191	255	
1071.689	1	1	0	0	0.16004	0.070761	0.29547	0.23011	0.064237	0.08146	0.28817	0.13137	0.10891	0.080196	0.096874	0.058134	0.26303	0.085014	0.24638	0.16305	-2.4	-3.0083	-2.3104	-3.3438	-2.7438	-2.1021	-3.4042	-2.5667	-2.7875	-3.1333	-2.5312	-3.1104	-2.7917	-2.2854	-2.9167	-2.3833	441.898	366.115	513.944	463.225	280.472	156.775	453.276	186.360	158.260	444.269	358.160	359.134	467.796	324.562	172.016	378.236	0.00060171	0.00059939	0.00020492	1463.8	2.8017e-06	5.0001e-06	1457.6	391.91	5.7019e-06	3.4991e-06	448.09	148.23	128.65	43.856	6.0057e-06	54.164	0.0012056	0.0015937	0.00044646	1494.9	1.6633e-05	1.7798e-05	1492.2	403.03	1.6736e-05	1.7289e-05	461.04	152.9	133.13	45.488	1.6536e-05	56.503	194.509	255.836	229.850	169.176	269.422	300.909	168.646	173.618	298.075	331.396	172.894	177.135	177.431	182.474	272.811	181.689	-8191	255	
1071.785	1	1	0	0	0.2323	0.10387	0.18524	0.35419	0.22035	0.11326	0.15135	0.22416	0.1178	0.13544	0.15435	0.16596	0.0056192	0.18164	0.36383	0.19824	-2.0375	-3.0187	-2.2625	-3.3812	-2.7417	-2.1375	-3.0375	-2.6229	-2.4146	-3.1979	-2.3	-2.8729	-2.8958	-2.0979	-2.8292	-2.3667	470.309	234.973	427.111	496.301	386.968	307.968	220.591	447.431	398.935	209.449	164.450	504.471	273.407	175.705	292.750	467.898	0.00056367	0.00062244	7.1655e-05	1466.9	5.3212e-06	5.5528e-06	1464.7	393.22	3.9358e-06	6.2099e-06	447.8	147.91	129.17	43.727	3.7937e-06	54.273	0.0011947	0.0015413	0.00044237	1497.6	1.6306e-05	1.7756e-05	1495.5	403.47	1.703e-05	1.7853e-05	461.4	152.97	133.26	45.546	1.7024e-05	56.575	196.025	219.345	325.092	169.064	296.354	297.685	168.784	173.531	300.802	325.378	173.160	177.101	177.756	182.404	290.364	181.960	-8191	255	
1071.879	1	1	0	0	0.11361	0.20873	0.14378	0.35991	0.078737	0.079802	0.15521	0.33598	0.098018	0.19644	0.16124	0.093842	0.20048	0.2009	0.0278	0.17121	-2.2646	-3.3479	-2.2042	-3.0333	-2.9938	-2.1646	-3.3604	-2.9167	-2.5979	-3.2917	-2.4583	-2.8146	-2.9813	-2.3438	-3.0771	-2.7479	370.532	429.187	500.297	513.014	334.495	435.009	168.143	441.135	405.640	492.492	506.933	424.410	436.386	188.333	412.209	162.410	0.00055048	0.00070858	0.00018883	1470.4	2.148e-06	5.2678e-06	1456.6	394.02	5.1422e-06	4.5399e-06	448.92	148.21	129.28	43.844	3.3887e-06	53.877	0.0012287	0.0015975	0.00045469	1500.5	1.6772e-05	1.8012e-05	1496	404.27	1.7228e-05	1.7864e-05	461.8	153.14	133.25	45.52	1.7199e-05	56.549	194.364	232.630	258.468	169.203	266.212	293.359	168.763	173.487	297.381	290.703	173.064	176.994	177.535	182.627	266.557	181.844	-8191	255	
1071.975	1	1	0	0	0.24334	0.13361	0.056177	0.17828	0.15035	0.17942	0.13075	0.17673	0.039013	0.11829	0.11866	0.1565	0.16538	0.023081	0.16129	0.25205	-2.1146	-3.2438	-2.3042	-2.7979	-3.3042	-2.3667	-3.3	-3.0438	-2.4188	-3.0604	-2.575	-2.6854	-3.2896	-2.3312	-3.1333	-2.9938	471.876	218.983	387.769	458.921	443.734	194.831	161.066	507.673	435.439	226.364	514.127	218.444	484.853	226.567	442.961	487.565	0.0005845	0.00044926	0.00022313	1474.5	3.8746e-06	5.1177e-06	1457.7	393.95	6.1127e-06	5.2675e-06	449.51	147.7	129.16	43.775	7.8713e-06	54.548	0.0012175	0.0016021	0.00046047	1503.2	1.6429e-05	1.7951e-05	1495.6	404.22	1.7002e-05	1.7588e-05	462.74	153.07	133.44	45.513	1.7033e-05	56.609	195.449	221.972	235.507	169.223	284.902	287.042	168.857	173.383	310.877	299.390	173.073	177.227	177.610	182.400	254.595	181.945	-8191	255	
1072.072	1	1	0	0	0.088317	0.071503	0.19805	0.29474	0.15395	0.17198	0.33158	0.19718	0.058314	0.11374	0.17988	0.048641	0.085979	0.40461	0.17381	0.23595	-2.0292	-3.0396	-2.3604	-2.7333	-3.3146	-2.2146	-3.1479	-3.1917	-2.2938	-3.0438	-2.5375	-2.6458	-3.1417	-2.2188	-2.8438	-2.9854	502.309	421.769	470.669	484.227	300.700	403.916	476.651	454.086	249.889	271.499	483.061	382.027	282.468	188.848	246.279	318.889	0.00056261	0.00085489	0.00016337	1471.9	3.4776e-06	8.146e-06	1465.6	393.45	5.1512e-06	4.1084e-06	448.58	147.38	128.94	43.86	4.9528e-06	54.452	0.001201	0.0015723	0.00044712	1502.1	1.5842e-05	1.7574e-05	1499	404.3	1.6351e-05	1.7059e-05	462.39	152.69	133.08	45.572	1.7166e-05	56.659	192.926	265.990	272.142	169.082	276.621	285.093	168.960	173.491	278.449	300.798	173.208	177.153	177.554	182.624	286.792	182.002	-8191	255	
1072.168	1	1	0	0	0.11361	0.33886	0.095519	0.079257	0.11181	0.1365	0.30701	0.077096	0.15622	0.05879	0.12266	0.098261	0.15774	0.35125	0.20848	0.24081	-2.0625	-3.1104	-2.6708	-2.7729	-3.2583	-2.3708	-2.8146	-2.975	-2.0708	-3.2188	-3.0125	-2.6333	-3.3021	-2.4771	-2.7062	-3.2521	155.717	331.929	195.348	464.896	385.345	189.072	452.854	364.718	453.962	345.229	491.578	418.346	451.499	514.272	408.957	448.680	0.00057108	0.00080089	0.00012983	1470.1	4.6901e-06	3.426e-06	1462.7	394.15	7.7923e-06	4.333e-06	448.34	148.56	129.41	43.878	4.0643e-06	54.49	0.0011895	0.0015517	0.00044918	1502	1.6099e-05	1.7818e-05	1498	403.91	1.669e-05	1.7444e-05	462.89	153.08	133.35	45.546	1.7387e-05	56.627	196.309	249.254	276.162	169.457	315.309	285.302	168.787	173.423	284.681	314.207	173.066	176.994	177.603	182.589	303.759	181.884	-8191	255	
1072.288	1	1	0	0	0.20796	0.05234	0.43621	0.14866	0.131	0.29643	0.23495	0.21107	0.20244	0.025043	0.027369	0.09183	0.003016	0.31766	0.1946	0.066139	-1.8958	-3.1646	-2.95	-2.5979	-3.1354	-2.3271	-2.6021	-3.4313	-2.3312	-3.0396	-3.2417	-2.4625	-3.2208	-2.4375	-2.6479	-3.2646	247.874	388.060	415.869	188.498	158.856	342.905	506.820	449.714	171.086	337.747	195.814	461.787	199.046	402.344	313.101	304.526	0.00055329	0.00069485	0.00010787	1471.1	4.2525e-06	5.3856e-06	1465.8	393.53	6.173e-06	6.0658e-06	449.2	147.65	128.71	43.826	4.7976e-06	53.875	0.0012189	0.0016361	0.00047344	1501.4	1.6846e-05	1.8637e-05	1499.9	403.97	1.7049e-05	1.8512e-05	462.99	152.97	133.2	45.562	1.8319e-05	56.474	193.522	236.615	243.607	169.274	294.190	270.618	168.880	173.689	288.118	329.531	173.339	177.248	177.816	182.421	278.631	181.969	-8191	255	
1072.385	1	1	0	0	0.39594	0.3636	0.092742	0.2783	0.16632	0.13528	0.31364	0.16551	0.10625	0.19217	0.26074	0.13236	0.07327	0.38312	0.19533	0.086405	-1.8583	-2.8917	-3.0875	-2.4604	-3.1542	-2.4917	-2.6771	-3.1979	-2.3896	-2.8937	-3.1667	-2.4979	-3.2104	-2.6375	-2.1813	-3.1562	370.427	322.485	355.146	477.703	496.557	490.312	441.407	507.641	362.077	374.938	201.749	454.728	447.253	189.138	247.013	282.359	0.00053095	0.00042726	0.00015784	1471.4	3.4216e-06	5.0402e-06	1463.2	393.94	5.7508e-06	5.4865e-06	449.5	147.22	128.46	43.808	5.5498e-06	54.208	0.0012581	0.0016894	0.000469	1503.2	1.7119e-05	1.8513e-05	1498.3	404.15	1.765e-05	1.8394e-05	462.29	152.89	133.06	45.478	1.7935e-05	56.501	194.575	240.401	262.508	169.174	297.160	304.004	168.985	173.588	274.176	337.185	173.224	177.237	177.594	182.772	282.944	181.646	-8191	255	
1072.456	1	1	0	0	0.18402	0.10182	0.15107	0.28412	0.077288	0.12425	0.10387	0.25913	0.23468	0.14548	0.16952	0.097578	0.20557	0.27077	0.26782	0.21654	-2.0271	-2.6562	-3.075	-2.5708	-3.0792	-2.6521	-2.3854	-3.0167	-2.3021	-2.8521	-3.2438	-2.5354	-3.2104	-2.8021	-2.1146	-3.2812	252.129	502.322	375.297	505.035	361.771	481.730	505.033	471.739	304.091	195.408	198.068	354.190	496.178	205.625	300.511	426.067	0.00060189	0.00082967	0.00010966	1465.8	4.0428e-06	9.3213e-06	1462.2	392.78	5.8689e-06	5.6338e-07	446.77	148.53	128.88	43.679	8.4952e-06	54.392	0.0012497	0.0016533	0.00047193	1499	1.713e-05	1.85e-05	1497.3	404.68	1.7429e-05	1.8879e-05	462.06	152.96	133.54	45.451	1.8104e-05	56.578	194.313	247.193	248.532	169.131	311.854	288.836	168.699	173.606	302.694	344.666	173.113	176.981	177.818	182.124	303.505	181.796	-8191	255	
1072.577	1	1	0	0	0.097572	0.063943	0.13656	0.28857	0.052811	0.055622	0.35532	0.092639	0.1233	0.079124	0.16901	0.3702	0.22204	0.26197	0.2644	0.27033	-2.0458	-2.3937	-2.9792	-2.45	-2.9042	-2.7562	-2.4771	-3.5042	-2.6083	-2.6188	-3.4708	-2.4333	-3.2604	-2.9625	-2.075	-3.1813	197.835	455.768	251.994	484.742	231.163	189.839	168.716	189.164	293.644	353.204	471.916	172.622	180.397	331.000	173.564	267.855	0.00060363	0.00073157	0.00013912	1466.3	2.5515e-06	7.96e-06	1461.7	394.48	9.598e-06	7.3949e-06	447.65	147.7	128.86	43.793	5.2359e-06	54.1	0.001289	0.0016959	0.00047254	1498.5	1.7604e-05	1.9019e-05	1496.6	404.39	1.8243e-05	1.9025e-05	462.17	153	133.32	45.521	1.7944e-05	56.517	193.106	229.735	249.448	169.118	275.205	305.619	168.811	173.451	274.916	321.802	173.009	176.983	177.430	182.487	307.739	181.643	-8191	255	
1072.673	1	1	0	0	0.20992	0.18469	0.11236	0.34095	0.060437	0.18814	0.32758	0.24126	0.19181	0.1038	0.13286	0.086813	0.23102	0.2859	0.12947	0.083144	-2.0417	-2.2729	-3.0812	-2.5354	-2.8063	-3.0062	-2.4354	-3.1333	-2.3771	-2.425	-3.1458	-2.525	-3.1104	-3.0792	-2.1958	-3.0333	407.694	343.686	456.953	474.202	253.950	511.300	432.059	456.020	455.677	340.229	172.246	377.939	233.864	465.685	450.518	254.684	0.0006039	0.00064569	0.00018492	1468.7	5.5581e-06	8.1893e-06	1461.4	393.87	6.1261e-06	4.0129e-06	447.48	147.12	129.13	43.893	4.1012e-06	54.183	0.0012909	0.0017201	0.00046984	1498.9	1.7917e-05	1.899e-05	1496	404.08	1.8266e-05	1.9415e-05	462.03	152.68	133.35	45.44	1.8177e-05	56.531	194.256	288.705	207.820	169.122	261.479	309.386	168.622	173.361	284.932	329.114	172.954	176.874	177.561	182.587	305.900	181.904	-8191	255	
1072.769	1	1	0	0	0.20502	0.43834	0.20179	0.20469	0.15897	0.027529	0.30247	0.061966	0.23455	0.068858	0.19096	0.054145	0.15465	0.11394	0.15138	0.17724	-2.1354	-2.1771	-3.1104	-2.625	-2.675	-3.0646	-2.5312	-3.2729	-2.6521	-2.2958	-3.3563	-2.2958	-2.8792	-3.3208	-2.3042	-3.2521	340.971	455.302	230.063	176.364	203.631	335.306	445.302	283.052	506.172	276.919	222.788	185.588	188.635	199.162	328.638	250.764	0.00058627	0.00069893	0.00014074	1469.2	3.9683e-06	7.1148e-06	1460.1	392.8	5.8098e-06	5.4821e-06	446.83	147.81	129.26	43.66	4.6722e-06	54.506	0.0012847	0.0017136	0.00046327	1498.3	1.7774e-05	1.8834e-05	1494.9	403.25	1.7461e-05	1.8657e-05	461.49	152.72	133.29	45.353	1.7782e-05	56.569	193.442	269.838	257.857	168.994	307.624	289.938	168.884	173.485	280.034	334.258	172.906	177.104	177.696	182.458	283.194	181.659	-8191	255	
1072.890	1	1	0	0	0.076326	0.12559	0.051404	0.31133	0.14821	0.19518	0.38364	0.1468	0.10943	0.18912	0.15377	0.23932	0.32872	0.14208	0.12374	0.09553	-2.5625	-2.4021	-3.1958	-2.5854	-2.3417	-3.2125	-2.5125	-3.2687	-2.9437	-2.1896	-3.1375	-2.55	-2.7771	-3.4271	-2.3563	-3.0521	509.732	219.980	466.541	471.928	311.171	479.181	396.142	396.564	160.947	178.588	394.257	427.649	463.801	397.103	235.756	395.080	0.00055754	0.00059382	0.00014092	1463.3	5.2834e-06	6.5888e-06	1456.9	392.47	5.7782e-06	5.9499e-06	448	147.82	129.08	43.689	6.0822e-06	54.013	0.0012641	0.0016661	0.00046487	1495.7	1.7436e-05	1.8441e-05	1491	403.4	1.7418e-05	1.8552e-05	461.39	152.87	133.17	45.412	1.8066e-05	56.39	197.010	239.407	212.500	169.112	280.853	293.089	168.762	173.568	284.235	322.105	173.189	176.918	177.718	182.663	303.244	181.909	-8191	255	
1072.984	1	1	0	0	0.13223	0.019113	0.15225	0.16176	0.074639	0.09593	0.28235	0.18968	0.16089	0.1272	0.24441	0.1743	0.087254	0.20863	0.13464	0.10656	-2.5625	-2.0375	-2.9604	-2.8167	-2.6125	-3.2333	-2.4875	-3.0479	-3.1229	-2.1729	-3.1958	-2.7583	-2.45	-3.1771	-2.3729	-2.9229	314.508	464.262	464.812	216.104	342.046	452.072	458.894	189.216	295.585	186.130	178.143	263.372	329.744	475.722	330.130	448.946	0.00054908	0.00054812	0.00015068	1464	4.2536e-06	3.2602e-06	1458.6	393.24	4.0337e-06	2.7353e-06	450.03	147.3	128.42	43.543	5.5924e-06	54.123	0.0012625	0.0016959	0.00046478	1494.3	1.7381e-05	1.8417e-05	1490.9	403.59	1.7635e-05	1.872e-05	462.34	152.56	133.01	45.408	1.831e-05	56.399	194.079	264.774	280.844	169.077	278.530	311.320	168.845	173.693	280.985	341.463	173.270	177.000	177.724	182.542	263.000	181.745	-8191	255	
1073.080	1	1	0	0	0.2039	0.15068	0.22718	0.30425	0.11643	0.11966	0.26911	0.09806	0.24555	0.099889	0.11822	0.11332	0.18103	0.10091	0.18147	0.20608	-2.6521	-2.1604	-3.0646	-3.0417	-2.2875	-3.2583	-2.8063	-2.8104	-3.0292	-2.1688	-3.0625	-3.05	-2.6937	-3.4479	-2.5187	-2.8771	170.028	324.869	441.352	358.762	255.063	330.359	431.349	407.572	289.981	167.124	490.033	184.464	194.298	429.863	471.320	425.258	0.00057238	0.00079051	0.00022234	1462.4	6.3061e-06	7.3139e-06	1459.3	394.91	3.4072e-06	5.7446e-06	448.1	147.27	128.41	43.772	3.9153e-06	54.175	0.0012552	0.0017054	0.00047585	1494.1	1.7591e-05	1.878e-05	1491.6	404.13	1.7852e-05	1.9055e-05	461.36	152.56	132.94	45.41	1.8612e-05	56.492	198.007	229.244	253.339	169.358	274.153	337.485	168.919	173.797	260.230	305.185	173.545	177.154	178.008	182.898	305.360	181.891	-8191	255	
1073.176	1	1	0	0	0.24173	0.11735	0.20267	0.019342	0.38814	0.033698	0.23046	0.2279	0.067664	0.1465	0.16419	0.26066	0.16209	0.1694	0.17701	0.23253	-2.7583	-2.3812	-3.2604	-3.2146	-2.3312	-3.3375	-2.925	-2.6646	-3.3479	-2.3063	-2.9396	-3	-2.4562	-3.1917	-2.5938	-2.3854	295.642	471.018	258.431	194.181	194.748	182.867	385.670	450.494	275.130	183.962	461.047	389.840	495.721	471.854	487.183	210.008	0.00054536	0.00055444	0.00015127	1460.3	4.6483e-06	5.8141e-06	1454.6	392.03	4.6925e-06	4.6283e-06	447.18	146.78	128.75	43.604	4.3607e-06	54.162	0.0012642	0.0017206	0.00048385	1492.6	1.7469e-05	1.8691e-05	1490.5	403.12	1.7476e-05	1.8755e-05	460.93	152.25	132.92	45.402	1.8292e-05	56.425	194.143	240.022	239.808	169.267	294.268	281.266	168.899	173.771	285.030	329.803	173.257	177.198	177.652	182.959	291.577	182.070	-8191	255	
1073.273	1	1	0	0	0.36644	0.28571	0.061816	0.18764	0.086827	0.096723	0.10943	0.12822	0.10301	0.19405	0.15258	0.072624	0.18171	0.1615	0.06697	0.058281	-3.0417	-2.2375	-2.8396	-3.2396	-2.4542	-3.0729	-2.8333	-2.4042	-3.2771	-2.4042	-3.0375	-3.0812	-2.5604	-3.1542	-2.7021	-2.375	202.869	350.327	224.037	489.316	496.737	503.047	302.664	197.834	179.855	337.895	353.920	473.393	503.014	475.763	293.629	354.311	0.00052399	0.00053984	0.00020763	1461.1	6.3003e-06	4.5272e-06	1453	392.72	5.1947e-06	5.8472e-06	447.09	147.73	128.64	43.592	5.5565e-06	54.031	0.0012469	0.0016956	0.0004764	1494.1	1.7367e-05	1.8742e-05	1489.2	403.3	1.749e-05	1.9007e-05	461.4	152.65	132.82	45.372	1.8207e-05	56.464	193.086	268.681	236.555	168.913	277.562	314.441	168.754	173.584	274.466	309.439	173.329	176.855	177.478	182.436	291.999	181.843	-8191	255	
1073.369	1	1	0	0	0.31274	0.23123	0.25578	0.22219	0.13736	0.20495	0.25281	0.23613	0.18482	0.16684	0.25907	0.094938	0.28411	0.06159	0.11218	0.04895	-2.8958	-2.5833	-2.6437	-3.4083	-2.4042	-3.1833	-3.0812	-2.3187	-3.175	-2.5292	-2.8583	-3.3917	-2.3563	-3.0208	-2.9083	-2.3771	244.175	477.399	360.641	159.523	365.734	301.788	472.092	493.478	356.086	199.887	513.125	485.641	179.430	310.412	438.405	406.897	0.00056801	0.00074881	9.4623e-05	1458.2	4.8054e-06	6.7236e-06	1456.6	392.98	5.6503e-06	7.5549e-06	448.2	147.49	128.77	43.816	6.6395e-06	54.09	0.0012873	0.0017475	0.0004865	1494.2	1.8051e-05	1.959e-05	1491.4	403.6	1.8205e-05	2.0077e-05	461.75	152.73	133.02	45.443	1.9281e-05	56.42	194.002	254.115	289.626	169.080	278.622	305.385	168.775	173.456	292.332	338.362	173.167	176.879	177.801	182.913	291.928	182.185	-8191	255	
1073.465	1	1	0	0	0.25958	0.33173	0.16216	0.3726	0.0889	0.028528	0.18825	0.26227	0.17547	0.084063	0.36354	0.16909	0.10744	0.26539	0.12958	0.19692	-2.7729	-2.4083	-2.5312	-3.5438	-2.3937	-2.8812	-3.1667	-2.3333	-3.1583	-2.5312	-2.5979	-3.3958	-2.575	-2.8479	-3.0021	-2.2417	419.947	227.269	451.553	482.394	507.112	387.568	462.857	357.838	297.182	476.934	183.137	512.523	489.181	514.095	159.692	247.201	0.00058608	0.00062773	0.00013631	1464.8	5.9674e-06	6.6186e-06	1456	393.49	4.404e-06	6.9265e-06	449.7	147.13	128.77	43.537	6.8977e-06	54.141	0.0013187	0.0018294	0.00051174	1495.4	1.8553e-05	2.0244e-05	1491.9	403.43	1.8964e-05	2.0054e-05	462.16	152.52	133.14	45.401	1.9205e-05	56.48	194.867	230.042	261.987	169.315	284.661	289.951	168.949	173.735	312.898	325.577	173.523	177.417	177.640	182.399	309.503	181.944	-8191	255	
1073.586	1	1	0	0	0.14281	0.37103	0.1101	0.42008	0.12516	0.17916	0.07927	0.20219	0.15021	0.18174	0.22732	0.13395	0.20713	0.21244	0.093609	0.14049	-2.8292	-2.5792	-2.4604	-3.325	-2.3792	-2.75	-3.3417	-2.3979	-3.1021	-2.7438	-2.5125	-3.4208	-2.4729	-2.7396	-3.0375	-2.5146	205.034	293.011	234.184	508.707	389.842	237.303	463.968	481.777	160.449	349.582	414.269	491.487	514.002	162.035	451.285	321.398	0.00060625	0.0008325	0.00010203	1461.2	3.569e-06	4.191e-06	1454.2	392.01	4.8017e-06	8.394e-06	447.88	148.08	128.49	43.704	5.2583e-06	53.902	0.00133	0.0018545	0.00051296	1496.1	1.8731e-05	2.0682e-05	1492.2	403.68	1.9176e-05	2.0362e-05	461.39	152.87	133.12	45.449	1.9786e-05	56.473	194.328	269.795	246.214	169.324	309.311	358.741	168.979	173.730	276.307	301.323	173.184	177.103	177.657	182.567	261.234	182.158	-8191	255	
1073.682	1	1	0	0	0.1197	0.1872	0.07875	0.32175	0.14753	0.11776	0.25144	0.22454	0.10639	0.14069	0.21897	0.11639	0.18413	0.094816	0.12488	0.11915	-2.9104	-2.65	-2.0854	-3.3104	-2.6292	-2.7208	-3.3583	-2.4	-2.9417	-2.7479	-2.5062	-3.2083	-2.5563	-2.6	-3.2979	-2.2687	425.164	256.433	386.149	467.349	485.752	371.682	157.141	412.072	323.946	180.670	155.718	269.879	425.956	310.384	377.135	205.514	0.00059641	0.00061612	0.00023289	1464.9	4.1633e-06	9.3177e-06	1459.4	392.56	7.1203e-06	5.5698e-06	447.96	147.07	128.46	43.633	6.8515e-06	54.088	0.0013867	0.0018818	0.00052873	1496.7	1.9269e-05	2.0736e-05	1494.8	403.6	1.9354e-05	2.0836e-05	461.73	152.69	133	45.452	1.9755e-05	56.444	193.732	252.658	265.029	169.303	276.484	275.477	168.831	173.467	293.383	295.323	173.396	177.248	177.761	182.892	310.360	181.877	-8191	255	
1073.753	1	1	0	0	0.097262	0.36548	0.17427	0.25648	0.30824	0.29174	0.11652	0.23015	0.15109	0.24864	0.25253	0.18174	0.12773	0.19042	0.017674	0.28042	-2.3187	-2.9229	-2.2104	-3.2188	-2.5	-2.4938	-3.4875	-2.5417	-2.7375	-2.8792	-2.3667	-3.3125	-2.7792	-2.7479	-3.2396	-2.6437	467.908	412.836	245.873	512.561	352.011	342.625	494.544	398.100	425.434	319.739	477.804	416.334	428.104	168.977	277.446	448.350	0.0005516	0.00053791	4.8553e-05	1465.8	3.886e-06	3.3002e-06	1456.1	392.61	4.6597e-06	6.7566e-06	447.5	147.68	128.57	43.655	6.7558e-06	54.328	0.0013906	0.0018915	0.00053462	1498.5	1.9472e-05	2.1255e-05	1491.5	403.66	1.9722e-05	2.063e-05	461.4	152.72	132.97	45.39	2.0099e-05	56.438	198.357	248.924	204.357	169.271	292.640	321.496	168.831	173.728	293.022	318.679	173.327	177.209	177.539	182.601	281.731	182.001	-8191	255	
1073.850	1	1	0	0	0.23381	0.15131	0.28131	0.17823	0.080949	0.17044	0.17764	0.1708	0.17112	0.14015	0.19217	0.18626	0.081978	0.4621	0.25055	0.12207	-2.2938	-2.8646	-2.15	-3.3896	-2.8521	-2.4396	-3.4375	-2.7146	-2.7771	-3.1917	-2.3583	-3.1063	-2.6604	-2.4708	-3.1542	-2.7417	380.755	361.937	260.398	497.647	360.279	294.514	483.215	168.012	197.227	426.021	420.754	211.480	203.810	279.147	269.584	478.786	0.00046377	0.00049335	0.00017744	1467.3	2.8363e-06	4.3174e-06	1463.6	393.32	3.5406e-06	6.6156e-06	446.93	147.59	128.46	43.789	5.4472e-06	54.254	0.0013853	0.001894	0.00053184	1499.2	1.944e-05	2.1316e-05	1493.6	403.67	1.9983e-05	2.0993e-05	462.28	152.98	133.1	45.512	2.032e-05	56.476	194.088	244.114	266.824	169.689	235.329	322.308	169.303	173.933	261.786	344.775	173.341	177.370	178.011	182.946	313.158	182.084	-8191	255	
1073.968	1	1	0	0	0.076647	0.050861	0.18422	0.066911	0.34989	0.14499	0.16259	0.26506	0.18758	0.25457	0.090409	0.1427	0.14728	0.19699	0.21558	0.094079	-2.3729	-3.2375	-2.3083	-3.3521	-2.7333	-2.2083	-3.2583	-2.575	-2.6479	-3.2375	-2.5687	-2.9521	-2.9562	-2.2333	-3.275	-2.7417	422.451	294.703	291.004	164.728	238.475	351.475	476.070	504.701	375.064	491.077	172.503	466.874	294.473	468.049	515.552	217.104	0.00056927	0.00041653	0.00010157	1469.1	3.8398e-06	6.7093e-06	1465.4	392.55	4.1767e-06	6.2496e-06	450.6	147.98	128.59	43.923	4.4517e-06	54.358	0.0014081	0.0018818	0.00053463	1500.3	1.9473e-05	2.1035e-05	1497.5	403.58	1.9548e-05	2.0315e-05	462.87	152.96	133.03	45.556	2.0049e-05	56.441	197.619	245.543	283.573	169.766	286.483	305.766	169.383	173.979	262.101	308.303	173.338	177.526	178.099	183.074	284.577	182.686	-8191	255	
1074.065	1	1	0	0	0.015889	0.11696	0.18077	0.047921	0.039029	0.033177	0.21656	0.36742	0.35893	0.34503	0.067267	0.14704	0.25621	0.30926	0.062218	0.21152	-2.0854	-3.2875	-2.3042	-3.0771	-3.0896	-2.2979	-3.2646	-2.7479	-2.5062	-3.0729	-2.3438	-2.8	-3.2188	-2.4604	-3.0625	-2.6708	351.779	174.791	418.997	446.153	438.097	508.241	394.247	449.942	276.073	414.952	398.709	404.417	422.943	173.667	194.619	358.257	0.0005735	0.00087622	0.00015615	1467.5	3.845e-06	7.529e-06	1457.9	393.53	4.5535e-06	4.6846e-06	448.85	147.54	128.66	43.694	3.0806e-06	53.978	0.0013804	0.0018346	0.00052945	1500.8	1.9296e-05	2.0656e-05	1494.7	404.38	1.9682e-05	2.062e-05	462.98	152.95	133.08	45.436	2.0104e-05	56.436	196.086	274.117	191.980	169.729	318.095	291.995	169.390	174.169	274.824	323.733	173.449	177.177	177.792	182.855	284.321	181.795	-8191	255	
1074.161	1	1	0	0	0.025234	0.16291	0.13429	0.27378	0.005815	0.14135	0.26814	0.28294	0.08304	0.056062	0.32026	0.032007	0.23347	0.29437	0.3096	0.22792	-1.9792	-3.2146	-2.6042	-3.0083	-3.1188	-2.2604	-3.3063	-2.9271	-2.3104	-3.2458	-2.5438	-2.4083	-3.1417	-2.45	-3.1437	-3.1625	202.520	214.812	274.199	490.425	175.946	191.796	476.503	424.055	228.210	451.288	452.151	507.315	428.457	165.969	342.387	495.972	0.00056984	0.00064642	0.00015147	1467.4	4.7491e-06	5.0809e-06	1464.2	392.97	6.8933e-06	8.329e-06	448.37	147.94	128.54	43.7	5.3813e-06	53.94	0.0013865	0.0018535	0.00054586	1499.9	1.9551e-05	2.1259e-05	1496.8	404.18	1.9802e-05	2.1143e-05	462.74	152.73	133.08	45.45	2.0282e-05	56.402	195.757	211.048	247.823	169.358	271.294	318.424	169.033	173.653	297.102	306.156	173.272	176.951	177.591	182.407	288.050	181.688	-8191	255	
1074.257	1	1	0	0	0.10064	0.13765	0.25902	0.33254	0.12392	0.19099	0.17162	0.23535	0.17652	0.25991	0.16557	0.136	0.23	0.18218	0.10643	0.12891	-2.1167	-3.1833	-2.3208	-2.7708	-3.2979	-2.3708	-3.1542	-3.0271	-2.1271	-3.2062	-2.9313	-2.7625	-3.2354	-2.3042	-2.7	-3.1875	306.730	461.297	474.882	489.965	362.191	257.841	460.097	451.988	412.132	163.465	221.544	425.302	509.822	176.106	415.093	487.713	0.00056733	0.00068604	7.2831e-05	1465.9	3.3814e-06	7.1837e-06	1455.6	393.74	6.0185e-06	5.6441e-06	448.48	147.42	128.93	43.638	7.6284e-06	53.933	0.0013814	0.001888	0.00053792	1499.6	1.9246e-05	2.0999e-05	1493.9	404.42	1.956e-05	2.1131e-05	461.84	152.76	133.29	45.425	2.0332e-05	56.398	192.565	206.590	233.697	169.222	296.201	324.478	168.960	173.530	282.656	310.443	172.966	177.023	177.508	182.483	310.866	181.570	-8191	255	
1074.377	1	1	0	0	0.23357	0.11308	0.034173	0.22459	0.33367	0.071285	0.015655	0.159	0.14469	0.04627	0.19253	0.18441	0.11212	0.06553	0.090282	0.18715	-1.8188	-3.2583	-2.6146	-2.5521	-3.0854	-2.4208	-3.0542	-3.3146	-2.2458	-3.0438	-2.6021	-2.4938	-3.3458	-2.6437	-2.625	-3.1646	458.740	454.430	310.140	512.125	206.318	174.901	241.720	453.308	181.970	481.089	163.992	448.237	186.817	374.745	416.019	450.823	0.00057402	0.00041342	8.9461e-05	1464.9	5.0249e-06	7.2271e-06	1458.2	393.99	5.0182e-06	2.2506e-06	448.86	147.27	128.67	43.778	3.9478e-06	54.309	0.0014058	0.0019088	0.00053558	1498.4	1.9475e-05	2.1536e-05	1493.7	404.21	1.9421e-05	2.0845e-05	461.68	152.85	133.19	45.473	2.0237e-05	56.517	193.482	251.448	252.546	169.136	301.038	293.550	168.796	173.489	271.688	323.889	172.795	177.163	177.709	182.668	275.873	181.839	-8191	255	
1074.449	1	1	0	0	0.2073	0.047033	0.17768	0.11159	0.3468	0.099654	0.36662	0.27533	0.075638	0.18609	0.18162	0.081142	0.17537	0.14322	0.05527	0.096467	-2.0833	-2.8333	-2.6542	-2.4604	-3.2771	-2.6	-2.9583	-3.3458	-2.1896	-2.975	-2.9938	-2.3375	-3.3	-2.6292	-2.6104	-3.2896	472.440	279.835	417.720	302.427	494.581	462.671	491.365	476.881	470.828	362.052	462.736	444.467	509.650	510.230	403.761	197.154	0.00054845	0.00053428	0.00020793	1467.2	7.6841e-06	5.2885e-06	1461.6	393.39	5.7722e-06	4.7801e-06	447.7	147.85	128.75	43.596	7.2549e-06	53.835	0.0013705	0.0018611	0.00052274	1497.7	1.9166e-05	2.0878e-05	1494.4	403.92	1.954e-05	2.0962e-05	462.37	152.95	133.15	45.367	2.0162e-05	56.334	195.040	251.465	265.461	169.063	267.276	293.973	168.851	173.436	306.048	328.872	173.082	177.004	177.493	182.483	297.361	182.052	-8191	255	
1074.570	1	1	0	0	0.069528	0.13068	0.19838	0.21923	0.10043	0.11394	0.21181	0.066339	0.2115	0.16631	0.24225	0.24996	0.10987	0.33902	0.16383	0.0050715	-1.8417	-2.9521	-2.7521	-2.3312	-3.1167	-2.7875	-2.5833	-3.3833	-2.4292	-2.8854	-2.9062	-2.4146	-3.4271	-2.6667	-2.3063	-3.3417	456.499	198.871	189.048	410.968	171.324	173.621	397.304	448.372	482.770	417.195	456.324	467.808	211.545	497.779	192.420	177.028	0.00055311	0.00065609	0.00018727	1462.8	3.2557e-06	7.7347e-06	1456.4	393.11	4.226e-06	5.8703e-06	448.44	147.09	128.94	43.723	4.494e-06	53.945	0.0013825	0.0018822	0.00052172	1497.3	1.9328e-05	2.1004e-05	1493	403.62	1.9533e-05	2.1014e-05	462.55	152.85	133.11	45.442	2.03e-05	56.412	193.248	231.751	254.806	169.207	320.315	324.965	169.123	173.857	286.605	298.101	173.443	177.246	177.894	182.784	297.754	182.164	-8191	255	
1074.666	1	1	0	0	0.10299	0.13188	0.25375	0.28471	0.075153	0.26244	0.23925	0.35633	0.13329	0.24635	0.098959	0.24405	0.16032	0.081139	0.30054	0.20414	-1.8458	-2.9458	-3.0521	-2.3208	-3.075	-2.8604	-2.7667	-3.375	-2.4104	-2.5812	-3.2708	-2.3958	-3.1937	-2.8937	-2.3042	-3.3875	426.828	289.282	355.201	435.202	434.649	368.887	501.081	490.688	171.409	259.694	439.810	474.719	461.649	509.486	448.964	461.498	0.00056901	0.00086167	0.00019756	1465.9	5.9617e-06	2.7595e-06	1456.8	392.92	5.8532e-06	4.9213e-06	448.1	147.36	128.62	43.885	8.4e-06	54.141	0.0013982	0.0019225	0.00052629	1497.8	1.973e-05	2.1072e-05	1495.9	403.94	1.9969e-05	2.1242e-05	462.91	152.77	133.13	45.49	2.0116e-05	56.521	191.721	239.906	264.424	169.416	278.614	328.036	169.390	173.891	267.791	299.096	173.386	177.249	178.039	182.703	293.365	182.170	-8191	255	
1074.762	1	1	0	0	0.20427	0.28094	0.12687	0.205	0.1267	0.21464	0.2003	0.18083	0.074173	0.081332	0.25281	0.16228	0.28536	0.29297	0.18377	0.16843	-2.1458	-2.6771	-3.1708	-2.5146	-2.7687	-2.8917	-2.4979	-3.3229	-2.5979	-2.4396	-3.5208	-2.4375	-3.0625	-2.8937	-2.1521	-3.3021	417.620	283.482	326.015	438.665	238.019	515.851	407.434	511.202	207.152	321.063	371.127	475.489	497.643	501.212	245.828	254.689	0.00060155	0.00063084	0.00012463	1459.6	6.1673e-06	6.2469e-06	1450.3	391.99	4.0674e-06	7.3666e-06	449.65	147.05	128.89	43.613	5.6256e-06	54.129	0.0013969	0.0019025	0.00052798	1496	1.9685e-05	2.0986e-05	1491.3	403.31	2.0015e-05	2.1205e-05	463.11	152.5	133.15	45.397	1.9926e-05	56.39	194.421	244.677	228.041	169.492	295.022	279.379	169.307	174.104	305.986	325.397	173.307	177.152	177.942	182.773	289.311	182.115	-8191	255	
1074.858	1	1	0	0	0.14006	0.09418	0.22626	0.27873	0.18073	0.059575	0.041638	0.21291	0.089624	0.14077	0.13526	0.17831	0.12641	0.09092	0.33165	0.026998	-2.2938	-2.5792	-3.2771	-2.5208	-3.0021	-3.0708	-2.6188	-3.3312	-2.7458	-2.6542	-3.425	-2.5	-2.9958	-3.1292	-2.5062	-3.2562	510.554	494.112	205.749	474.631	278.189	488.337	218.793	424.636	183.532	339.488	491.011	210.786	285.564	202.628	385.837	397.575	0.00059265	0.00079211	0.00019352	1461.6	6.351e-06	4.9941e-06	1457.9	393.32	5.3737e-06	2.7204e-06	448.8	146.92	128.37	43.641	3.6374e-06	54.119	0.0013744	0.0018895	0.00051269	1496.4	1.9129e-05	2.0347e-05	1494.2	403.66	1.9092e-05	2.0085e-05	462.9	152.6	132.99	45.33	1.9511e-05	56.403	196.842	267.904	240.299	169.250	284.431	297.681	169.041	173.749	306.327	306.494	173.429	177.277	177.715	182.472	299.489	182.176	-8191	255	
1074.977	1	1	0	0	0.21239	0.0292	0.07842	0.12833	0.28582	0.082677	0.3014	0.13413	0.039674	0.014175	0.14562	0.193	0.10845	0.39272	0.33979	0.12256	-2.3729	-2.4979	-3.1208	-2.7875	-2.7438	-3.125	-2.4667	-3.1188	-2.9042	-2.5208	-3.225	-2.5292	-2.8479	-3.2167	-2.2021	-3.0396	346.210	492.174	469.197	197.927	222.492	281.541	411.151	440.434	293.551	443.601	454.274	169.623	442.221	511.944	171.679	248.902	0.00055686	0.00068754	0.00014457	1463.3	4.4473e-06	7.0031e-06	1454.8	392.23	7.3137e-06	4.3478e-06	446.58	147.31	128.44	43.643	7.8695e-06	54.053	0.0013721	0.0018314	0.00051524	1495.1	1.8602e-05	2.0052e-05	1492	403.93	1.9431e-05	2.0577e-05	462.23	152.53	133.05	45.325	1.994e-05	56.493	194.716	252.839	217.332	169.428	299.865	294.943	169.269	173.925	288.680	313.389	173.250	177.423	178.132	182.829	295.921	182.165	-8191	255	
1075.049	1	1	0	0	0.2523	0.087062	0.17069	0.14708	0.16639	0.083411	0.24165	0.1742	0.044968	0.071829	0.18684	0.17085	0.11772	0.10513	0.21062	0.16803	-2.6188	-2.4104	-3.2042	-2.6521	-2.5104	-3.2625	-2.6	-3.1667	-2.7333	-2.4021	-3.2646	-2.7042	-2.4917	-3.275	-2.4437	-3.0771	412.673	470.273	161.741	419.493	505.194	508.961	176.585	168.834	276.473	240.213	252.672	170.586	515.387	196.037	356.679	429.935	0.00057193	0.00070747	0.00014518	1462.8	2.2832e-06	2.9787e-06	1456.1	393.53	3.9956e-06	4.9074e-06	448.47	147.72	128.83	43.721	3.2506e-06	54.085	0.0013675	0.0018534	0.00051865	1496.1	1.925e-05	2.0439e-05	1492.8	404.05	1.9185e-05	2.0624e-05	462.43	152.68	133.22	45.366	1.9759e-05	56.383	192.140	256.474	270.533	169.456	263.769	302.791	169.349	173.992	305.959	304.807	173.695	177.434	178.182	182.941	284.363	182.465	-8191	255	
1075.145	1	1	0	0	0.18731	0.25077	0.26285	0.33707	0.093278	0.11577	0.20093	0.26072	0.27212	0.083933	0.16505	0.14545	0.12713	0.0090324	0.25938	0.19283	-2.6771	-2.3375	-3.2812	-2.8625	-2.4396	-3.3	-2.5563	-3.0292	-3.1271	-2.2958	-3.2542	-2.9167	-2.6771	-3.3146	-2.4604	-2.7542	423.856	436.818	157.470	461.607	253.672	279.674	177.344	449.993	421.292	229.745	470.413	260.607	177.081	470.166	383.402	219.679	0.00054651	0.00034963	0.00019432	1458	5.0418e-06	3.3463e-06	1452.1	392.85	4.17e-06	5.4934e-06	449.47	147.6	128.03	43.699	7.1642e-06	53.83	0.0013561	0.0018269	0.0005153	1493.9	1.8893e-05	2.0193e-05	1490.1	403.42	1.8684e-05	1.9873e-05	462.68	152.65	132.85	45.319	1.9388e-05	56.399	195.446	231.570	260.751	169.647	278.262	323.373	169.303	174.317	298.036	318.889	173.534	177.796	178.287	182.892	299.762	181.773	-8191	255	
1075.266	1	1	0	0	0.088059	0.1368	0.083809	0.14448	0.26022	0.31885	0.16746	0.15119	0.2582	0.12362	0.13129	0.1097	0.26565	0.12303	0.028694	0.25278	-2.6979	-2.2562	-3.1625	-3.1125	-2.2396	-3.2542	-2.8458	-3.0125	-3.2125	-2.2146	-3.2979	-3.0812	-2.5271	-3.5	-2.5854	-2.6813	392.529	159.203	452.449	416.545	368.258	164.495	445.422	377.314	324.475	216.927	237.245	243.351	225.213	300.888	163.638	473.857	0.00054767	0.00056627	0.0001002	1460.5	4.3518e-06	5.7562e-06	1454.5	394.1	4.8952e-06	5.5298e-06	449.76	146.87	128.04	43.923	4.6748e-06	53.864	0.0013219	0.0017894	0.00050997	1495.5	1.8894e-05	2.0125e-05	1490	404.16	1.8616e-05	2.0038e-05	462.39	152.48	132.92	45.468	1.9146e-05	56.291	192.080	264.709	251.693	169.121	299.661	327.876	168.678	173.537	255.576	341.567	173.363	176.996	177.711	182.496	288.979	181.956	-8191	255	
1075.362	1	1	0	0	0.23061	0.21144	0.17101	0.31627	0.15244	0.12507	0.45185	0.15204	0.2064	0.21552	0.32947	0.16426	0.057252	0.13756	0.1874	0.2121	-2.8583	-2.1521	-2.9083	-3.1771	-2.2562	-3.4271	-2.8312	-2.6875	-3.0625	-2.25	-2.9813	-3.0083	-2.3229	-3.3812	-2.7729	-2.5875	282.579	185.737	174.674	434.786	282.202	310.196	432.612	266.941	469.717	388.228	290.841	214.247	444.466	501.541	491.165	159.226	0.00055847	0.0007139	0.00012825	1463.1	4.3676e-06	8.3458e-06	1454.3	393.3	3.1357e-06	4.112e-06	448.54	146.91	128.47	43.484	5.0763e-06	54.042	0.0013135	0.0017831	0.00050164	1494.3	1.8264e-05	1.975e-05	1490.9	403.55	1.824e-05	2.0102e-05	461.33	152.13	133.03	45.35	1.9157e-05	56.454	192.978	254.118	272.440	169.028	313.410	288.770	168.578	173.288	303.252	324.555	173.065	177.069	177.623	182.444	342.659	181.834	-8191	255	
1075.458	1	1	0	0	0.19009	0.17465	0.12839	0.14218	0.18898	0.062046	0.061955	0.11328	0.092819	0.16371	0.16788	0.18468	0.037699	0.19565	0.15694	0.39598	-2.8021	-2.2583	-2.5979	-3.1792	-2.4	-3.0479	-2.8292	-2.5208	-3.1542	-2.4375	-2.925	-3.1479	-2.2167	-3.0792	-2.7333	-2.4375	368.564	199.736	368.119	465.746	337.433	373.098	445.218	186.053	446.722	509.545	440.249	444.759	356.649	477.380	332.976	446.177	0.00054251	0.00057052	0.00014775	1460.1	2.0453e-06	4.6748e-06	1453.2	392.12	7.4698e-06	4.4775e-06	445.73	147.09	128.33	43.502	5.3041e-06	53.887	0.0013129	0.0018301	0.00051023	1493	1.8684e-05	1.993e-05	1489.8	402.89	1.8626e-05	1.9678e-05	460.96	152.24	132.79	45.256	1.856e-05	56.166	198.418	224.554	246.516	168.900	346.128	294.350	168.713	173.425	295.354	321.560	173.101	176.946	177.460	182.489	308.786	181.905	-8191	255	
1075.554	1	1	0	0	0.16265	0.11146	0.23351	0.21387	0.096707	0.11037	0.44681	0.20677	0.26546	0.26465	0.21951	0.22254	0.18535	0.17747	0.18344	0.13609	-2.7646	-2.4792	-2.7854	-3.3021	-2.2417	-2.9813	-3.1208	-2.4958	-3.3688	-2.6729	-2.7271	-3.0479	-2.1729	-3.0146	-2.9938	-2.5854	395.594	180.045	284.861	443.400	456.065	287.822	485.782	435.508	215.162	442.117	512.660	477.974	348.659	512.664	279.185	212.405	0.00059847	0.00057434	0.00017205	1458.8	3.7128e-06	4.2546e-06	1452.8	392.34	4.726e-06	6.4076e-06	448.8	146.84	127.98	43.582	5.6727e-06	53.861	0.0012651	0.0017221	0.00048816	1491.7	1.7766e-05	1.8984e-05	1487.8	402.83	1.7884e-05	1.9497e-05	461.56	152.22	132.51	45.277	1.8422e-05	56.268	194.580	246.889	257.925	168.833	302.080	413.105	168.730	173.419	289.668	347.539	172.953	177.159	177.627	182.430	292.003	181.565	-8191	255	
1075.650	1	1	0	0	0.27345	0.10698	0.22133	0.088872	0.1871	0.12983	0.37254	0.27444	0.099371	0.19622	0.038067	0.13876	0.039679	0.21449	0.1291	0.16286	-3.0125	-2.6646	-2.5812	-3.2438	-2.0917	-3.0125	-3.3167	-2.3729	-3.2667	-2.8417	-2.6562	-3.2354	-2.45	-2.8896	-2.7854	-2.3333	329.240	478.621	367.458	318.302	163.096	297.639	413.220	486.074	379.108	401.357	206.454	450.104	395.834	226.801	210.707	496.845	0.00056028	0.00059065	0.00021341	1461.3	4.1886e-06	7.112e-06	1456.4	392.92	5.9057e-06	7.491e-06	447.62	146.96	128.3	43.636	8.1434e-06	53.905	0.0012917	0.00172	0.00048935	1492.3	1.8195e-05	1.9212e-05	1489.2	403.16	1.8481e-05	1.9506e-05	461.28	152.33	132.75	45.32	1.8801e-05	56.26	195.304	235.368	224.433	168.832	288.065	293.961	168.470	173.461	284.331	334.790	173.059	176.585	177.203	182.419	310.427	181.579	-8191	255	
1075.746	1	1	0	0	0.10653	0.075018	0.11349	0.19876	0.10379	0.13913	0.21324	0.2183	0.2674	0.20245	0.089104	0.14709	0.3254	0.20043	0.14289	0.10434	-2.8875	-3.0187	-2.2646	-3.2438	-2.2708	-2.6688	-3.3354	-2.4292	-3.1688	-2.9083	-2.3063	-3.275	-2.5792	-2.9208	-3.0563	-2.3312	461.718	335.957	432.553	463.428	353.421	498.724	432.585	491.202	230.394	445.784	206.649	355.129	443.538	204.454	331.556	432.331	0.00056749	0.00041459	0.00020235	1459	6.0406e-06	3.0367e-06	1451.8	393.21	6.1012e-06	3.0666e-06	444.27	147.75	128.64	43.646	5.2769e-06	53.915	0.0013065	0.0017448	0.00049359	1493.1	1.848e-05	1.9701e-05	1487.5	403.34	1.8815e-05	1.9975e-05	461.24	152.69	132.77	45.349	1.8804e-05	56.309	194.213	213.051	287.386	169.074	280.162	308.845	168.518	173.387	298.676	323.638	172.797	176.573	177.282	182.164	300.142	181.707	-8191	255	
1075.842	1	1	0	0	0.18743	0.064342	0.046719	0.28443	0.18454	0.0070995	0.048756	0.093902	0.277	0.22031	0.15799	0.034746	0.18266	0.1371	0.14091	0.033667	-2.5667	-2.9875	-2.4729	-3.4042	-2.7083	-2.6937	-3.2854	-2.4083	-3.1229	-2.875	-2.3771	-3.525	-2.6354	-2.4458	-3.2417	-2.2667	393.840	235.653	408.388	181.997	429.438	361.215	402.395	470.746	221.576	360.168	442.772	275.600	495.546	252.319	228.192	244.845	0.0006024	0.00082973	0.00022374	1460.7	5.1419e-06	8.2589e-06	1454.2	392.1	5.5056e-06	3.1231e-06	448.46	147.03	128.69	43.556	5.7341e-06	53.993	0.0013243	0.0017786	0.0005082	1493.5	1.8674e-05	1.9913e-05	1488.6	403.07	1.9247e-05	1.9955e-05	461.9	152.23	132.92	45.327	1.9162e-05	56.338	194.734	220.634	253.343	168.952	295.953	291.463	168.454	173.156	247.789	320.522	172.676	176.654	177.267	182.410	302.599	181.619	-8191	255	
1075.939	1	1	0	0	0.16131	0.16019	0.23607	0.063719	0.35414	0.14246	0.30513	0.11645	0.088186	0.21489	0.2198	0.089591	0.18786	0.29349	0.17911	0.088529	-2.475	-3.0812	-2.2479	-3.3729	-2.7188	-2.4062	-3.2	-2.6979	-2.7604	-3.1875	-2.3833	-3.0625	-2.9062	-2.4458	-3.3	-2.6292	243.715	156.637	168.394	490.315	468.663	387.797	429.888	498.688	199.807	348.447	345.371	218.464	483.573	414.945	367.413	512.446	0.0005543	0.00063468	0.00011466	1465.3	6.1691e-06	4.9151e-06	1455.2	391.38	5.756e-06	7.691e-06	449.11	147.3	128.23	43.515	4.6786e-06	54.201	0.0013376	0.0017891	0.00050619	1495.8	1.8797e-05	2.0493e-05	1491.6	403.29	1.8871e-05	1.9788e-05	462.25	152.53	132.83	45.357	1.927e-05	56.356	197.655	244.056	272.409	168.924	297.258	299.906	168.443	173.288	301.513	305.202	172.777	176.799	177.354	182.334	302.332	181.554	-8191	255	
1076.057	1	1	0	0	0.074141	0.13311	0.16979	0.18789	0.14157	0.28633	0.073091	0.17897	0.37775	0.19044	0.2575	0.080607	0.23481	0.18147	0.19634	0.32978	-2.5875	-2.9771	-2.4729	-3.4125	-2.8729	-2.2833	-3.3271	-2.775	-2.7271	-3.2167	-2.4813	-3.0521	-2.8229	-2.5833	-3.1917	-2.5042	204.778	326.413	392.497	155.347	389.106	293.760	477.426	513.684	227.871	299.042	481.027	214.931	205.643	256.431	449.471	482.485	0.00058842	0.00042165	0.00019599	1465.1	4.9514e-06	6.6215e-06	1455.3	391.55	6.2986e-06	7.8432e-06	448.33	147.56	128.18	43.504	7.066e-06	53.535	0.0013488	0.0017818	0.00050363	1495.5	1.8844e-05	2.0233e-05	1494	403.2	1.8806e-05	1.9569e-05	461.97	152.47	132.66	45.263	1.9268e-05	56.22	195.135	274.879	236.080	168.928	296.925	319.597	168.559	173.260	272.583	310.247	172.949	176.888	177.239	182.280	307.437	181.379	-8191	255	
1076.154	1	1	0	0	0.058711	0.1454	0.085164	0.25728	0.062902	0.058921	0.36678	0.19294	0.17727	0.16981	0.057909	0.18429	0.16992	0.30607	0.1199	0.054105	-2.1854	-3.0187	-2.2917	-3.2021	-2.8312	-2.4479	-3.5792	-2.6917	-2.5458	-3.2896	-2.425	-2.9562	-3.1146	-2.1813	-3.3271	-2.8979	436.017	361.769	375.066	166.501	205.729	446.049	487.840	195.777	214.030	439.006	301.336	483.579	500.861	511.842	168.467	387.794	0.00060659	0.00086386	0.00020299	1459.8	4.607e-06	1.6135e-06	1454.9	391.46	4.1697e-06	5.7534e-06	447.92	146.99	128.39	43.415	6.3524e-06	53.842	0.0013594	0.0017648	0.00050309	1493.3	1.8588e-05	2.0044e-05	1489.1	402.93	1.8823e-05	1.9852e-05	461.08	152.25	132.61	45.235	1.936e-05	56.235	194.387	275.836	234.544	168.804	267.177	476.790	168.582	173.312	297.334	341.875	172.707	176.907	177.541	182.295	298.339	181.278	-8191	255	
1076.250	1	1	0	0	0.082234	0.071865	0.048793	0.28962	0.0076479	0.19374	0.18251	0.23569	0.22917	0.1326	0.057015	0.24339	0.24038	0.15258	0.087181	0.067883	-2.3937	-3.0271	-2.1312	-2.9125	-2.8167	-2.3021	-3.3917	-2.8021	-2.3479	-3.4396	-2.7146	-2.9604	-3.1417	-2.3146	-3.2958	-2.9229	329.317	242.208	508.527	512.057	439.469	471.015	464.108	420.018	171.640	204.269	465.033	420.015	201.360	511.524	383.585	315.559	0.00061464	0.00010483	0.00011234	1462.2	3.4436e-06	4.3733e-06	1453	392.28	6.2893e-06	6.6556e-06	446.39	146.95	127.74	43.699	7.4715e-06	53.843	0.0013164	0.0017798	0.00050683	1495.1	1.8256e-05	1.9847e-05	1489.9	402.63	1.8324e-05	1.9504e-05	460.56	152.46	132.49	45.355	1.9409e-05	56.2	193.686	225.231	256.909	168.491	295.532	344.409	168.132	172.807	291.158	295.714	172.227	176.492	176.948	181.954	295.036	181.171	-8191	255	
1076.346	1	1	0	0	0.13447	0.21469	0.12323	0.10643	0.16988	0.052144	0.19467	0.085408	0.086943	0.19203	0.20136	0.11197	0.10246	0.14906	0.19606	0.28009	-2.0208	-3.2062	-2.4229	-3.1542	-3.0583	-2.2375	-3.0333	-3.0958	-2.4167	-3.3375	-2.5521	-2.5875	-3.2396	-2.3458	-3.0229	-2.9729	224.577	170.542	366.507	497.225	291.717	298.626	484.923	245.154	256.057	386.221	417.855	357.905	512.376	381.891	395.034	485.515	0.00058121	0.00062992	0.00019874	1462.9	6.0706e-06	4.6257e-06	1457.6	391.26	5.7433e-06	5.8197e-06	446.99	147.17	128.22	43.466	4.0994e-06	54.156	0.0013192	0.0017764	0.00051047	1494.4	1.8184e-05	2.0201e-05	1489.6	402.33	1.8843e-05	1.9959e-05	460.45	152.19	132.68	45.268	1.9406e-05	56.237	189.880	256.392	276.517	168.651	276.367	296.880	168.240	172.825	282.055	344.036	172.138	176.583	176.965	182.120	270.146	181.183	-8191	255	
1076.442	1	1	0	0	0.17154	0.24267	0.12087	0.27793	0.10026	0.068993	0.45439	0.33472	0.25542	0.058947	0.19171	0.11683	0.24291	0.19114	0.068358	0.10623	-1.7917	-2.9375	-2.3312	-2.7438	-3.1646	-2.4396	-3.1521	-3.0563	-2.0375	-3.2833	-2.7646	-2.3646	-3.2729	-2.2271	-2.9417	-2.9896	423.372	310.526	339.772	490.976	280.506	408.251	401.004	469.054	167.232	447.197	498.247	476.651	246.473	508.867	361.078	407.330	0.00062428	0.00070218	0.00018101	1456.7	1.9012e-06	7.6858e-06	1454.7	391.19	3.6011e-06	1.3029e-06	447.29	146.98	127.47	43.611	6.0404e-06	53.844	0.0013396	0.0018523	0.00051539	1492.9	1.813e-05	2.0496e-05	1490.3	402.3	1.8718e-05	1.9708e-05	461.13	152.05	132.42	45.229	1.9114e-05	56.087	196.594	242.767	260.914	168.756	279.286	311.055	168.283	172.802	267.749	243.175	172.662	176.531	177.131	181.814	303.228	181.245	-8191	255	
1076.538	1	1	0	0	0.1976	0.1269	0.095601	0.33905	0.17676	0.13644	0.18931	0.34839	0.14641	0.021456	0.12485	0.026189	0.20168	0.24828	0.074862	0.11749	-1.7333	-3.0896	-2.5938	-2.5417	-3.2354	-2.3417	-2.9583	-3.3146	-2.2021	-3.0375	-2.8646	-2.4604	-3.3438	-2.6146	-2.6229	-3.1354	448.382	466.748	432.595	171.156	357.037	188.448	178.456	486.381	397.973	471.242	456.269	510.791	348.700	482.331	188.388	375.029	0.0005342	0.0005431	0.00011085	1460.1	5.3094e-06	8.8791e-06	1451.8	391.14	5.9119e-06	6.0956e-06	447.94	146.74	127.87	43.416	5.2912e-06	53.966	0.0013267	0.0017723	0.00051709	1493.6	1.8343e-05	2.0289e-05	1488.8	402.5	1.8936e-05	1.9953e-05	460.55	152.05	132.53	45.151	1.8844e-05	56.2	190.029	235.269	254.795	168.642	281.936	314.206	168.416	172.902	273.964	316.615	172.580	176.444	177.141	181.698	291.470	181.574	-8191	255	
1076.659	1	1	0	0	0.27511	0.089562	0.25937	0.22262	0.13138	0.16266	0.2506	0.41636	0.089119	0.023043	0.15011	0.17696	0.22075	0.19553	0.12951	0.067285	-1.9604	-3.0438	-2.7458	-2.3833	-3.3292	-2.4104	-2.8104	-3.0979	-2.2208	-2.8875	-3.1979	-2.375	-3.1021	-2.5292	-2.4708	-3.3917	476.210	320.331	415.148	469.805	475.178	246.610	258.622	449.749	287.964	403.594	468.477	507.402	463.571	174.598	361.946	384.145	0.00056164	0.00075117	0.00021058	1458.5	4.638e-06	6.7126e-06	1454.6	391.93	7.832e-06	4.1805e-06	448	146.94	127.88	43.711	6.019e-06	53.744	0.0013316	0.0018166	0.00050316	1494.1	1.8222e-05	2.0015e-05	1490	402.59	1.8415e-05	1.994e-05	460.5	152.1	132.52	45.211	1.8607e-05	56.166	190.962	242.862	250.215	168.560	286.314	292.969	168.300	173.038	291.122	364.197	172.379	176.429	177.088	181.980	308.207	181.561	-8191	255	
1076.755	1	1	0	0	0.16227	0.10288	0.24325	0.16645	0.085447	0.044459	0.28069	0.20964	0.15658	0.32928	0.12977	0.18784	0.17954	0.15603	0.074236	0.19042	-2.1562	-2.9292	-2.8771	-2.2812	-3.025	-2.7604	-2.7188	-3.2708	-2.1208	-2.9146	-3.2396	-2.2208	-3.025	-2.6625	-2.4917	-3.3312	195.509	270.283	395.069	474.226	455.048	240.562	417.170	433.667	287.881	467.489	287.070	504.922	475.128	502.928	430.558	220.999	0.00052161	0.00080579	0.00011887	1461.4	6.1299e-06	5.8561e-06	1455.9	391.76	6.068e-06	7.2938e-06	447.58	147.05	128.55	43.533	7.434e-06	53.94	0.0013331	0.0018036	0.00048521	1493.6	1.8341e-05	1.9776e-05	1489.6	402.41	1.8546e-05	2.0032e-05	461	152.3	132.74	45.28	1.89e-05	56.225	195.196	244.135	236.157	168.916	292.131	312.634	168.397	173.127	273.820	310.220	172.466	176.625	177.417	182.041	306.784	181.520	-8191	255	
1076.849	1	1	0	0	0.26364	0.15704	0.24209	0.086421	0.15743	0.066106	0.42067	0.29719	0.2205	0.094284	0.19712	0.20969	0.10893	0.4666	0.225	0.074948	-2.1562	-2.8896	-3.0687	-2.3354	-2.8563	-2.7625	-2.6958	-3.5854	-2.4417	-2.9396	-3.4	-2.2875	-3.0854	-2.9583	-2.55	-3.4667	471.209	228.829	359.661	451.277	393.007	304.792	436.080	475.269	306.987	296.773	468.988	497.136	219.744	444.910	299.753	450.774	0.00051742	0.00086958	0.00021575	1460.7	6.585e-06	4.4356e-06	1450.1	390.67	4.3964e-06	6.1941e-06	446.91	146.56	127.77	43.586	3.6707e-06	53.772	0.0013264	0.0017947	0.00048846	1492.9	1.8495e-05	1.9686e-05	1488.7	402.3	1.8639e-05	1.936e-05	460.48	151.88	132.66	45.218	1.8962e-05	56.195	193.025	230.974	238.468	168.781	300.570	278.814	168.307	173.232	301.939	336.090	172.684	176.485	177.338	182.012	298.764	181.499	-8191	255	
1076.923	1	1	0	0	0.071165	0.10264	0.29873	0.23553	0.073899	0.079383	0.25142	0.12652	0.1804	0.12181	0.15012	0.14756	0.26704	0.17155	0.057597	0.21782	-2.0896	-2.6833	-2.9292	-2.3208	-2.8167	-2.9417	-2.6042	-3.4104	-2.6771	-2.6271	-3.2875	-2.1479	-2.9667	-3.125	-2.2521	-3.3438	375.071	203.598	170.990	476.891	257.740	314.206	496.835	483.452	446.239	507.859	436.216	508.363	396.857	157.803	362.457	469.305	0.00056561	0.00063184	7.4276e-05	1464.6	3.7622e-06	4.2648e-06	1451.4	391.55	6.8414e-06	7.4714e-06	446.11	147.15	128.02	43.464	8.955e-06	53.476	0.0013182	0.0017681	0.00048836	1494.2	1.8534e-05	1.9663e-05	1488	403.08	1.8495e-05	1.9639e-05	460.84	152.09	132.38	45.264	1.9656e-05	56.15	189.360	246.089	246.992	168.743	313.680	264.118	168.471	173.037	299.621	304.102	172.722	176.575	177.463	182.265	290.233	181.853	-8191	255	
1077.042	1	1	0	0	0.14509	0.19498	0.19675	0.20104	0.10845	0.1545	0.27366	0.16782	0.17777	0.15521	0.099011	0.1021	0.10318	0.057805	0.25921	0.10855	-2.1437	-2.3833	-3.0792	-2.6458	-2.9104	-2.9854	-2.3063	-3.3417	-2.8771	-2.4792	-3.2042	-2.4979	-3.0667	-3.125	-2.3208	-3.1104	480.641	483.544	264.478	494.977	300.547	248.062	413.081	365.923	264.785	256.318	267.174	193.858	410.462	408.448	423.919	359.093	0.0005326	0.00041843	0.00015906	1461.2	4.3437e-06	3.5516e-06	1452.9	391.17	4.5153e-06	5.6279e-06	446.4	146.19	128.29	43.438	4.4732e-06	53.781	0.0013603	0.0017954	0.00050117	1493.6	1.8893e-05	2.0108e-05	1489.7	402.45	1.883e-05	1.9716e-05	460.72	151.97	132.7	45.177	1.9144e-05	56.227	192.750	265.940	246.217	168.791	302.956	308.868	168.610	173.307	264.454	305.417	172.573	176.784	177.238	182.395	336.041	181.630	-8191	255	
1077.138	1	1	0	0	0.098992	0.23945	0.19879	0.16215	0.29174	0.14346	0.34273	0.15944	0.12232	0.14437	0.1327	0.40137	0.079282	0.20717	0.13682	0.080721	-2.5167	-2.3646	-3.0875	-2.7313	-2.7125	-3.1979	-2.4333	-3.3688	-2.775	-2.4458	-3.2062	-2.4958	-2.675	-3.2646	-2.4167	-3.2521	278.097	432.159	284.897	308.320	246.007	196.569	407.112	160.631	276.273	284.148	458.930	429.602	191.844	440.708	318.885	445.485	0.00057418	0.00059871	0.00014022	1462.8	3.6202e-06	2.0032e-06	1453.2	391.21	4.9511e-06	5.4314e-06	447.45	146.88	128.17	43.439	4.3345e-06	53.881	0.0013032	0.0017597	0.0005036	1494.1	1.836e-05	1.9661e-05	1489.2	402.7	1.8432e-05	1.9706e-05	461.13	152.11	132.68	45.246	1.9162e-05	56.209	191.316	226.408	262.475	169.005	282.056	291.607	168.530	173.467	279.974	305.246	173.016	176.895	177.475	182.386	298.639	181.848	-8191	255	
1077.234	1	1	0	0	0.31236	0.27147	0.091583	0.30742	0.15336	0.060634	0.16447	0.23666	0.29385	0.27921	0.044737	0.12723	0.18224	0.035654	0.15031	0.16508	-2.6437	-2.1979	-2.9979	-2.7458	-2.6188	-3.3563	-2.475	-3.0021	-2.8979	-2.275	-3.3688	-2.6833	-2.5021	-3.3583	-2.4479	-3.0917	491.367	377.602	391.583	465.351	467.946	203.238	399.424	200.687	491.811	199.407	290.049	179.382	498.188	404.642	230.940	490.387	0.00054374	0.00038671	0.00017498	1459.5	6.0111e-06	5.0945e-06	1450.5	391.69	1.5255e-06	5.6284e-06	445.97	146.63	128.23	43.47	4.3362e-06	53.809	0.0013127	0.0017823	0.00050738	1492.4	1.8535e-05	1.9467e-05	1488.7	402.68	1.852e-05	1.9801e-05	460.92	151.96	132.53	45.243	1.9449e-05	56.228	195.794	234.418	239.338	169.047	291.271	295.640	168.763	173.546	267.639	298.746	173.025	177.150	177.899	182.397	288.748	181.766	-8191	255	
1077.330	1	1	0	0	0.27162	0.048373	0.21308	0.25557	0.27823	0.13868	0.048463	0.19426	0.22537	0.16303	0.14504	0.045469	0.12686	0.20864	0.21832	0.16138	-2.6229	-2.0896	-3.125	-2.7833	-2.3792	-3.0667	-2.6771	-2.9542	-3.1125	-2.3063	-3.1604	-2.9104	-2.4208	-3.1125	-2.65	-2.9271	480.420	210.752	469.495	180.194	508.379	505.591	453.453	325.905	488.897	339.694	188.966	244.444	274.470	167.475	462.142	441.906	0.00054962	0.00056704	0.00018698	1459.7	4.3737e-06	7.0336e-06	1456.9	393.74	5.3425e-06	7.0952e-06	447.87	146.37	128.12	43.584	5.8927e-06	53.887	0.0013301	0.0018192	0.00051845	1491.6	1.8641e-05	2.0106e-05	1489.5	403.43	1.8549e-05	2.0045e-05	461.49	152.03	132.53	45.16	1.9105e-05	56.211	191.117	245.995	256.582	168.924	303.293	293.570	168.562	173.456	284.905	307.707	172.847	176.959	177.432	182.325	306.707	181.621	-8191	255	
1077.451	1	1	0	0	0.21484	0.23987	0.11119	0.28817	0.26732	0.05153	0.10707	0.37717	0.22604	0.15419	0.098199	0.27051	0.20523	0.19676	0.19885	0.36298	-2.7542	-2.1833	-2.8042	-2.9646	-2.2979	-3.2625	-2.6292	-2.7167	-3.1688	-2.35	-3.225	-3.0458	-2.4354	-3.325	-2.4417	-2.7083	338.723	314.539	298.717	473.687	250.538	277.220	290.618	446.104	218.859	167.216	403.074	373.961	158.403	452.909	202.053	195.455	0.00056342	0.0010032	0.00012833	1462.9	2.9361e-06	7.1321e-06	1453.8	391.8	4.5798e-06	4.8e-06	446.68	147.04	128.03	43.613	7.0199e-06	53.879	0.0012986	0.0017479	0.00048985	1492.9	1.7818e-05	1.9047e-05	1488.1	402.66	1.7843e-05	1.9042e-05	460.27	151.91	132.5	45.259	1.8833e-05	56.167	194.749	243.539	224.448	169.068	287.337	300.520	168.751	173.722	288.956	262.442	173.470	177.068	177.704	182.830	327.172	182.080	-8191	255	
1077.547	1	1	0	0	0.18705	0.22861	0.10283	0.34872	0.15434	0.16701	0.38329	0.25936	0.17659	0.24624	0.25369	0.3343	0.09382	0.33346	0.21564	0.34477	-2.9229	-2.3458	-3.1188	-3.0771	-2.2146	-2.9917	-2.7625	-2.6813	-3.1375	-2.6063	-3.1813	-2.9583	-2.2458	-3.4104	-2.6	-2.7979	405.869	331.345	326.367	172.672	315.965	503.436	188.104	156.336	178.883	294.435	463.251	453.570	514.508	462.134	304.473	458.761	0.00051776	0.00059124	0.00016944	1464.5	4.718e-06	7.2854e-06	1450.6	391.34	5.9423e-06	4.2677e-06	447.44	147.03	128.02	43.571	7.5631e-06	53.902	0.001302	0.0017846	0.00050255	1493.1	1.8739e-05	2.0231e-05	1489.4	402.49	1.8943e-05	2.0502e-05	461.13	151.89	132.66	45.248	1.9745e-05	56.126	198.292	238.564	228.424	169.025	291.312	320.175	168.699	173.424	263.697	310.347	173.151	176.981	177.667	182.667	313.119	181.893	-8191	255	
1077.619	1	1	0	0	0.10468	0.26418	0.067209	0.19354	0.094726	0.16224	0.078425	0.21363	0.23819	0.14675	0.26624	0.16504	0.15307	0.26973	0.12289	0.042396	-3.0104	-2.3104	-2.7188	-3.2292	-2.325	-3.1646	-2.8771	-2.5021	-3.4229	-2.4875	-2.8833	-3.0917	-2.35	-3.1146	-3.0896	-2.4396	480.822	466.684	300.231	457.448	225.876	229.100	453.303	254.202	214.813	294.579	172.964	327.128	504.561	494.244	198.807	498.534	0.00055065	0.0010985	0.00021549	1462	7.2752e-06	5.385e-06	1454.6	391.88	5.0301e-06	6.5294e-06	444.35	147.08	127.8	43.519	3.3152e-06	53.844	0.0013285	0.0018583	0.00051091	1492.6	1.9067e-05	2.0505e-05	1488.7	402.75	1.9007e-05	2.0696e-05	460.54	152.14	132.55	45.212	1.9267e-05	56.205	196.176	236.525	263.337	168.913	276.305	341.731	168.701	173.511	299.422	343.451	173.246	177.165	177.741	182.692	274.287	181.735	-8191	255	
1077.739	1	1	0	0	0.057499	0.16578	0.17793	0.079088	0.022477	0.13626	0.18952	0.25653	0.10157	0.14028	0.19354	0.29775	0.2575	0.17181	0.093981	0.10191	-2.875	-2.2875	-2.6167	-3.3042	-2.2812	-3.0333	-3.1	-2.7333	-3.2562	-2.5333	-2.8063	-3.1958	-2.45	-2.9271	-2.6437	-2.4417	210.231	221.513	419.692	232.453	474.928	369.945	455.770	155.814	229.732	451.349	478.825	449.896	468.983	427.094	285.336	330.945	0.00054015	0.00081922	0.00012315	1461.3	3.1005e-06	7.2475e-06	1453.9	391.33	6.2832e-06	6.9513e-06	445.85	146.99	128.4	43.552	2.8318e-06	53.922	0.0013332	0.0018534	0.0005044	1494	1.9279e-05	2.0208e-05	1489.4	402.72	1.9264e-05	2.0431e-05	460.34	152.09	132.71	45.278	1.9315e-05	56.171	192.409	233.923	227.240	169.047	318.550	277.326	168.704	173.519	284.856	317.893	172.968	177.064	177.404	182.637	304.252	182.126	-8191	255	
1077.835	1	1	0	0	0.13416	0.2329	0.12976	0.11995	0.002124	0.13478	0.28169	0.22723	0.30872	0.13594	0.15094	0.24518	0.01886	0.21278	0.11314	0.074334	-2.85	-2.6188	-2.5917	-3.2854	-2.2417	-2.9	-3.1437	-2.5729	-3.1333	-2.7812	-2.4583	-3.3354	-2.4625	-2.6875	-2.825	-2.3917	202.555	210.813	490.865	470.747	260.976	202.654	451.702	156.252	372.423	437.976	381.971	194.492	278.767	163.111	349.341	159.529	0.00058292	0.0006873	0.00020834	1462.2	4.008e-06	7.7446e-06	1452.6	392.04	5.9104e-06	6.0789e-06	446.74	146.95	128.22	43.562	6.8953e-06	53.657	0.0013566	0.0018241	0.00050829	1494	1.8972e-05	2.0381e-05	1488.9	402.95	1.8857e-05	2.0031e-05	460.78	152.12	132.55	45.266	1.9439e-05	56.168	197.620	210.508	253.498	169.197	296.955	303.291	168.631	173.561	311.915	319.671	173.149	177.041	177.629	182.544	290.736	181.669	-8191	255	
1077.932	1	1	0	0	0.08294	0.12997	0.23166	0.33657	0.11758	0.087938	0.20759	0.28667	0.2454	0.10248	0.20646	0.16775	0.10096	0.18137	0.26897	0.14625	-2.9333	-2.6729	-2.5896	-3.6229	-2.5	-2.7646	-3.1604	-2.3292	-3.1875	-2.7229	-2.6896	-3.5083	-2.6458	-2.7354	-3.1583	-2.3542	450.370	456.959	199.285	166.151	441.606	366.850	358.316	502.519	188.920	434.729	160.391	489.366	504.167	511.149	299.610	425.669	0.00056269	0.00093959	0.00011915	1462.1	5.0585e-06	6.5859e-06	1453.3	391.66	4.0118e-06	4.9368e-06	446.71	146.17	128.57	43.361	5.3694e-06	53.876	0.0013293	0.0018179	0.00051519	1493.8	1.8895e-05	2.0255e-05	1488.9	402.72	1.9235e-05	2.0644e-05	461.31	152.08	132.83	45.261	1.969e-05	56.261	195.744	220.028	240.066	169.044	298.975	313.020	168.758	173.402	297.413	313.346	173.067	177.042	177.708	182.707	271.229	181.805	-8191	255	
1078.050	1	1	0	0	0.13153	0.13382	0.13247	0.087646	0.18923	0.070986	0.16109	0.23601	0.276	0.24421	0.19446	0.085689	0.23885	0.07424	0.052594	0.25262	-2.5167	-2.8	-2.2958	-3.2708	-2.5292	-2.6063	-3.4062	-2.5104	-2.8312	-2.8667	-2.4542	-3.2917	-2.6646	-2.6083	-3.0625	-2.4104	237.640	469.665	418.217	405.094	470.261	294.443	474.042	430.838	459.860	293.924	497.275	166.464	492.905	215.428	368.494	505.417	0.0005882	0.00060258	0.00013151	1459.2	2.7654e-06	6.5319e-06	1457	392.21	5.4256e-06	6.8702e-06	446.85	146.85	127.99	43.428	6.4344e-06	53.583	0.001378	0.0018657	0.00052163	1494.6	1.9432e-05	2.0484e-05	1491.3	402.84	1.9459e-05	2.0362e-05	461.25	152.06	132.65	45.219	2.0086e-05	56.178	194.231	235.228	276.652	169.424	294.835	304.145	168.878	173.340	286.073	303.015	173.025	176.579	177.478	182.304	324.250	181.552	-8191	255	
1078.147	1	1	0	0	0.16425	0.22884	0.1364	0.20044	0.40888	0.12851	0.058572	0.060852	0.11944	0.4066	0.1678	0.31096	0.27497	0.21443	0.19472	0.30435	-2.6354	-2.9479	-2.2854	-3.2687	-2.7875	-2.4208	-3.375	-2.7417	-2.6521	-2.9458	-2.3104	-3.1188	-2.7646	-2.5229	-3.3479	-2.5812	453.158	213.002	194.956	395.357	286.790	515.263	218.115	307.991	287.838	337.939	158.762	225.929	425.402	169.418	352.395	469.940	0.00055311	0.00069899	0.0002228	1461.1	6.5105e-06	4.2614e-06	1454.9	391.86	8.0477e-06	8.8284e-06	448.29	146.74	128.23	43.42	6.2299e-06	53.895	0.0013866	0.0018484	0.0005339	1494.2	1.9574e-05	2.0764e-05	1491.9	402.71	1.9756e-05	2.0777e-05	461.88	152.35	132.59	45.236	2.0581e-05	56.291	191.885	233.316	246.826	169.079	334.679	301.243	168.592	173.465	276.780	320.035	172.895	176.890	177.271	182.354	298.701	181.848	-8191	255	
1078.218	1	1	0	0	0.32625	0.087468	0.072253	0.31353	0.20756	0.22265	0.1543	0.28281	0.12533	0.18725	0.192	0.062902	0.097034	0.20142	0.047015	0.29446	-2.2896	-3.0771	-2.1458	-3.2188	-2.6042	-2.1688	-3.3792	-2.6312	-2.8479	-3.2396	-2.5333	-3.1104	-2.9792	-2.3979	-3.175	-2.5458	379.491	368.753	339.727	169.501	252.941	161.199	421.297	515.487	284.766	290.864	394.366	298.972	492.087	333.769	260.448	222.238	0.00055587	0.00093773	0.0001464	1460.1	2.9469e-06	4.1471e-06	1455.5	392.11	2.8663e-06	7.0421e-06	446.38	147.77	128.04	43.426	4.8389e-06	53.856	0.0013971	0.0018865	0.00054317	1496.6	1.973e-05	2.1341e-05	1492	402.86	1.9623e-05	2.0756e-05	461.59	152.81	132.61	45.247	2.066e-05	56.262	191.505	258.816	260.859	169.176	287.687	315.239	168.882	173.501	282.252	293.700	173.192	176.969	177.465	182.670	317.187	181.635	-8191	255	
1078.339	1	1	0	0	0.27621	0.41282	0.091291	0.1957	0.09891	0.055144	0.25106	0.22951	0.1961	0.055658	0.46084	0.23765	0.33382	0.029185	0.10287	0.31881	-2.3771	-3.0958	-2.3771	-3.0604	-3.0417	-2.4813	-3.325	-2.6458	-2.4354	-3.2042	-2.2667	-3.2021	-3.2292	-2.2562	-3.1354	-2.6396	182.879	187.884	253.929	199.164	214.698	324.611	162.520	435.221	411.058	319.103	487.784	207.143	494.192	241.235	465.462	499.526	0.00059197	0.00042394	5.6899e-05	1464	6.293e-06	5.7616e-06	1454.3	391.53	4.6958e-06	5.6504e-06	445.59	146.63	128.03	43.575	4.8747e-06	53.73	0.0014117	0.001865	0.00053976	1497.2	1.9228e-05	2.1311e-05	1492.3	403.3	1.9811e-05	2.1593e-05	460.74	152.35	132.77	45.358	2.101e-05	56.205	195.818	236.363	217.982	168.959	276.064	271.973	168.871	173.526	282.704	316.237	173.228	177.058	177.576	182.426	287.617	181.666	-8191	255	
1078.435	1	1	0	0	0.11446	0.048296	0.3594	0.47774	0.12343	0.1965	0.30611	0.25035	0.21211	0.03943	0.24234	0.10784	0.037693	0.22386	0.11417	0.1567	-1.95	-3.1479	-2.4583	-3.0917	-2.9833	-2.2687	-3.1979	-3.0187	-2.3021	-3.4396	-2.6833	-2.7375	-3.3583	-2.5229	-3.1229	-3.0042	311.215	391.540	257.487	467.578	457.172	453.029	452.447	501.051	234.074	336.780	406.468	448.852	342.821	432.149	205.034	185.371	0.00055961	0.00082291	0.00013224	1459.4	5.2444e-06	3.7326e-06	1455.3	391.03	6.5448e-06	4.3013e-06	446.63	146.78	128.17	43.613	5.4068e-06	54.051	0.0014254	0.0019405	0.00055455	1495.9	1.9832e-05	2.2062e-05	1492.7	403.03	2.035e-05	2.1716e-05	461.46	152.42	132.85	45.397	2.1134e-05	56.302	190.749	228.301	231.510	169.205	303.085	287.809	168.721	173.489	272.089	298.558	173.040	177.172	177.552	182.638	301.849	181.643	-8191	255	
1078.531	1	1	0	0	0.24758	0.10756	0.22882	0.27332	0.2152	0.32522	0.54539	0.15519	0.23645	0.14255	0.058461	0.2704	0.11557	0.27122	0.29796	0.10299	-2.0625	-3.1458	-2.2396	-2.975	-3.2271	-2.225	-3.2292	-2.8917	-2.2479	-3.2417	-2.8083	-2.9562	-3.2146	-2.1646	-3.0042	-3.1417	378.886	271.795	402.494	476.137	446.896	243.687	500.437	450.656	385.034	224.727	166.671	509.661	173.318	512.316	264.917	280.381	0.00055231	0.00042969	0.00018724	1464.2	4.975e-06	3.1557e-06	1457.1	392.36	5.0814e-06	8.0677e-06	446.22	147.16	128.53	43.612	4.1164e-06	53.78	0.0014228	0.0019691	0.00056208	1497.8	2.0015e-05	2.2302e-05	1492.2	403.56	2.0544e-05	2.1917e-05	461.2	152.43	132.93	45.312	2.1308e-05	56.3	198.059	257.828	263.310	169.377	286.793	315.435	168.911	173.555	303.089	293.318	173.106	177.080	177.664	182.656	312.789	181.913	-8191	255	
1078.627	1	1	0	0	0.30902	0.079371	0.071933	0.1877	0.1825	0.21958	0.32117	0.29579	0.12596	0.141	0.086367	0.087629	0.29154	0.12959	0.21761	0.086816	-2.125	-3.0729	-2.525	-2.9917	-3.4417	-2.3937	-3.0979	-3.1833	-2.3708	-3.3604	-2.8917	-2.5042	-3.2479	-2.2542	-2.6688	-3.0062	205.199	345.456	471.857	160.378	255.817	383.278	460.097	514.653	415.419	422.828	364.332	494.102	167.719	223.402	403.542	473.731	0.00056373	0.00071788	0.00015174	1462.4	5.3837e-06	3.6119e-06	1454.3	392.07	6.4266e-06	7.0633e-06	447.12	146.84	127.81	43.629	5.3807e-06	53.838	0.0014407	0.0019999	0.00056671	1497.6	2.0528e-05	2.2724e-05	1492.7	403.62	2.14e-05	2.251e-05	461.93	152.55	132.79	45.296	2.144e-05	56.323	194.021	271.269	250.045	169.436	272.244	277.027	169.137	173.695	306.520	310.737	173.398	177.219	177.716	182.909	294.224	181.889	-8191	255	
1078.748	1	1	0	0	0.26831	0.18742	0.15831	0.30599	0.17568	0.15773	0.11947	0.30673	0.21395	0.16431	0.39046	0.14357	0.41598	0.053469	0.24115	0.28077	-1.8875	-3.1208	-2.6792	-2.5646	-3.1021	-2.3458	-3.0396	-3.3208	-2.5312	-3.3	-2.925	-2.55	-3.4292	-2.4813	-2.6417	-3.3937	244.410	316.039	490.857	421.555	289.220	409.909	232.727	409.960	369.206	250.583	419.932	345.600	515.372	247.666	206.583	195.912	0.00052034	0.00063056	0.00011443	1464.2	5.7234e-06	5.8099e-06	1458.3	391.75	3.8914e-06	6.5162e-06	447.89	146.62	128.45	43.663	5.8421e-06	54.048	0.0014805	0.0020375	0.00056323	1498	2.0639e-05	2.2556e-05	1494	403.4	2.1281e-05	2.2239e-05	462.13	152.31	132.99	45.34	2.104e-05	56.373	194.335	280.909	256.067	169.483	288.837	308.517	169.167	173.701	283.406	305.667	173.041	177.324	178.007	182.740	269.027	182.084	-8191	255	
1078.820	1	1	0	0	0.11118	0.14549	0.19198	0.12178	0.14919	0.19033	0.029618	0.15984	0.34546	0.17816	0.077664	0.30098	0.082704	0.31123	0.35918	0.1764	-1.9312	-3.0646	-2.7646	-2.5583	-3.2979	-2.6208	-2.9958	-3.1708	-2.3125	-2.9021	-2.9208	-2.2938	-3.1583	-2.6979	-2.4854	-3.2833	172.427	390.334	305.999	451.455	239.286	288.541	450.179	360.917	444.994	261.666	184.642	430.398	466.511	506.949	510.304	398.911	0.00053027	0.00045527	9.1333e-05	1463.2	3.5628e-06	4.2737e-06	1458.3	393.15	5.5887e-06	3.2374e-06	448.91	147.04	128.83	43.647	4.3666e-06	53.762	0.0014436	0.0019506	0.00054052	1499	2.0328e-05	2.2023e-05	1497	404.05	2.03e-05	2.1859e-05	462.62	152.7	133.18	45.385	2.0877e-05	56.317	194.231	262.217	199.580	169.624	309.074	301.541	169.272	174.049	268.646	301.352	173.295	177.843	178.083	182.656	276.824	182.375	-8191	255	
1078.916	1	1	0	0	0.17041	0.1028	0.26372	0.24271	0.1417	0.040757	0.12597	0.28547	0.086061	0.1147	0.15828	0.16619	0.10311	0.13472	0.25011	0.30662	-1.8	-3.0208	-3.125	-2.5854	-3.125	-2.6917	-2.6604	-3.4188	-2.3896	-2.7875	-3.2417	-2.4688	-3.2	-2.8563	-2.2938	-3.5792	320.557	430.460	362.760	163.596	327.803	257.440	482.288	463.891	419.384	385.331	501.952	172.146	476.807	218.355	163.590	508.357	0.00056805	0.00048515	0.00022331	1468	6.0385e-06	6.9035e-06	1458.4	393.29	5.7839e-06	6.7352e-06	447.68	147.01	128.46	43.647	6.9435e-06	54.008	0.001449	0.0019822	0.00055423	1501.8	2.0932e-05	2.228e-05	1496.4	404.29	2.0947e-05	2.2132e-05	462.31	152.27	132.99	45.417	2.0572e-05	56.237	195.936	245.916	240.079	169.687	303.231	319.055	169.240	173.795	284.958	316.026	173.410	177.598	178.147	183.116	289.139	182.412	-8191	255	
1079.012	1	1	0	0	0.18874	0.21188	0.23936	0.19627	0.13934	0.060967	0.13308	0.18049	0.18616	0.17119	0.30435	0.049328	0.30749	0.27781	0.15596	0.11207	-2.1021	-2.6417	-3.0792	-2.5458	-3.1396	-2.8438	-2.5729	-3.4458	-2.3937	-2.7604	-3.2625	-2.4708	-3.1479	-2.7104	-2.45	-3.3292	385.335	265.009	376.932	491.384	329.747	178.656	468.392	457.161	488.268	485.246	414.686	464.320	485.236	437.499	512.139	254.121	0.00054754	0.00073763	7.661e-05	1463.4	5.5518e-06	4.6447e-06	1458.5	391.37	3.6521e-06	7.2267e-06	445.46	146.61	127.97	43.448	4.6682e-06	53.906	0.0014416	0.0019163	0.00052829	1497	1.9912e-05	2.1199e-05	1493.2	403.15	2.0005e-05	2.0967e-05	461.04	152.33	132.68	45.186	2.007e-05	56.258	192.173	243.162	243.809	169.706	276.479	268.585	169.497	174.060	279.138	358.295	173.679	177.616	178.400	183.092	284.957	182.505	-8191	255	
1079.131	1	1	0	0	0.17941	0.053222	0.20158	0.36768	0.28881	0.24122	0.10328	0.43923	0.033818	0.22953	0.4057	0.10109	0.13988	0.49943	0.28261	0.32317	-2.2542	-2.5021	-3.0958	-2.7375	-3.1854	-2.9021	-2.6042	-3.4125	-2.7708	-2.5812	-3.3333	-2.4771	-3.1042	-3.1854	-2.1604	-3.2875	403.228	336.148	487.089	486.335	328.471	276.707	167.620	460.608	237.048	377.807	469.268	483.705	160.987	157.491	469.197	498.234	0.0005964	0.00065746	0.00018053	1466.2	3.4739e-06	5.5979e-06	1453.7	392.97	6.0017e-06	7.7748e-06	447.95	147.14	128.31	43.299	5.4672e-06	53.795	0.0014081	0.0018241	0.00051657	1495.9	1.9338e-05	2.0755e-05	1492.3	404.01	2.0176e-05	2.1568e-05	461.38	152.24	132.93	45.256	2.069e-05	56.203	194.859	258.946	258.148	169.826	320.509	303.069	169.561	174.340	286.889	314.845	173.642	177.751	178.482	182.984	285.058	182.830	-8191	255	
1079.227	1	1	0	0	0.16277	0.17175	0.093668	0.14136	0.32559	0.066049	0.41863	0.3958	0.22333	0.068906	0.17711	0.33475	0.46911	0.088052	0.073519	0.12715	-2.3333	-2.5625	-3.1021	-2.375	-2.8917	-3.2083	-2.5771	-3.4354	-2.5542	-2.5687	-3.2375	-2.3667	-2.9771	-3.1188	-2.2979	-3.2396	475.767	307.494	174.843	461.846	490.758	369.297	430.194	448.082	293.805	311.967	459.841	503.574	261.090	236.199	488.461	252.003	0.00059699	0.00073836	0.00013743	1461.2	6.6588e-06	4.4067e-06	1453.2	391.69	5.5901e-06	8.3782e-06	446.11	146.77	128.23	43.49	3.0438e-06	53.89	0.0014378	0.0019438	0.00054427	1494.6	2.0183e-05	2.1679e-05	1491.8	403.04	2.0241e-05	2.1464e-05	461.68	152.3	132.79	45.272	2.0714e-05	56.203	195.444	261.607	262.184	169.789	294.357	283.333	169.209	173.934	295.647	338.107	173.337	177.462	178.156	182.831	253.898	182.255	-8191	255	
1079.323	1	1	0	0	0.13652	0.24488	0.11535	0.17503	0.19177	0.13394	0.063863	0.21676	0.08964	0.27705	0.19654	0.15806	0.11478	0.29108	0.21223	0.17785	-2.4396	-2.4646	-3.3542	-2.675	-2.8917	-3.2646	-2.4396	-3.1229	-2.8438	-2.4771	-3.3937	-2.725	-2.8937	-3.2604	-2.3271	-3.1354	510.673	296.991	417.336	444.446	481.274	451.277	411.375	168.249	281.072	159.822	459.461	226.517	197.021	497.041	394.362	463.020	0.00059815	0.00031053	0.00016577	1460.2	4.9601e-06	1.857e-06	1452.9	390.83	5.7088e-06	6.107e-06	445.93	145.73	127.71	43.572	6.2014e-06	53.394	0.0014015	0.0019011	0.00052939	1494.6	1.9718e-05	2.1052e-05	1489.1	402.87	2.0103e-05	2.1639e-05	461.19	152.13	132.72	45.314	2.11e-05	56.171	198.793	269.528	240.585	169.631	272.353	267.038	169.206	174.021	289.993	327.997	173.462	177.382	178.129	182.785	318.928	182.475	-8191	255	
1079.419	1	1	0	0	0.19446	0.21831	0.17828	0.17766	0.10411	0.059473	0.26032	0.090014	0.096008	0.14985	0.24107	0.16193	0.069442	0.1354	0.081301	0.24871	-2.65	-2.4146	-3.3333	-2.6729	-2.5667	-3.2396	-2.5208	-2.9521	-3.1042	-2.35	-3.3854	-2.8729	-2.6333	-3.1813	-2.4021	-2.9625	509.907	279.224	407.024	477.204	310.549	373.232	474.811	218.691	296.064	395.767	475.455	415.309	219.588	450.540	472.949	500.491	0.0005708	0.00075152	7.8791e-05	1458.6	4.2635e-06	8.1433e-06	1450.2	391.06	7.9262e-06	6.3923e-06	447.01	146.25	127.39	43.402	6.8313e-06	53.759	0.0014009	0.0019474	0.00055095	1494.6	1.9863e-05	2.1555e-05	1489	403.55	2.0284e-05	2.1854e-05	461.77	152.15	132.54	45.288	2.121e-05	56.219	193.576	244.485	231.182	169.342	294.553	282.657	169.155	173.876	293.402	302.699	173.504	177.195	178.232	182.856	299.123	182.198	-8191	255	
1079.515	1	1	0	0	0.096297	0.17227	0.1805	0.11838	0.37037	0.18899	0.31642	0.25348	0.056234	0.22672	0.10838	0.079442	0.41713	0.23758	0.34997	0.13476	-2.8	-2.325	-3.2021	-2.8937	-2.4521	-3.4042	-2.5771	-3.2646	-3.2396	-2.5083	-3.4167	-3.0271	-2.6708	-3.5833	-2.625	-2.8312	229.255	198.528	363.923	344.443	428.092	397.904	474.509	443.183	392.399	445.626	450.767	162.928	170.647	435.023	253.120	453.544	0.00057965	0.00059448	8.8045e-05	1455.7	6.7349e-06	1.9992e-06	1452.2	389.66	6.8878e-06	5.0941e-06	443.35	145.81	127.82	43.318	4.2631e-06	53.601	0.0014015	0.0019601	0.0005515	1492.4	1.9919e-05	2.1781e-05	1488.5	402.65	2.0219e-05	2.2354e-05	461.15	152.14	132.6	45.265	2.1381e-05	56.135	195.298	207.242	248.539	169.308	294.310	359.185	168.963	173.846	298.206	321.777	173.474	177.079	177.891	182.585	289.354	181.942	-8191	255	
1079.612	1	1	0	0	0.10654	0.24295	0.089754	0.099341	0.059579	0.17399	0.04024	0.10681	0.03281	0.30123	0.16886	0.15269	0.17453	0.1666	0.18555	0.16256	-2.8	-2.3604	-3.0458	-3.0271	-2.1583	-3.2583	-2.8125	-2.8542	-3.2479	-2.4813	-3.1813	-3.1229	-2.5792	-3.3708	-2.5021	-2.7896	454.288	369.978	213.617	478.949	487.881	440.457	468.640	301.654	491.993	205.171	463.460	417.021	418.895	212.494	381.230	434.214	0.00056462	0.00055184	0.00019741	1445.7	4.5637e-06	2.8982e-06	1440.2	388.04	7.3083e-06	6.7768e-06	442.24	145.87	127.07	43.408	6.4199e-06	53.984	0.0014338	0.0020206	0.00055563	1491.7	1.9778e-05	2.2086e-05	1486.1	402.58	1.9717e-05	2.1642e-05	461.04	151.93	132.35	45.225	2.048e-05	56.241	196.618	222.288	239.119	168.498	292.437	319.455	168.281	172.985	267.344	330.983	172.395	176.360	177.202	181.913	294.833	181.597	-8191	255	
1079.732	1	1	0	0	0.29829	0.28206	0.10101	0.10506	0.13991	0.32634	0.32422	0.51967	0.17677	0.15677	0.15808	0.098012	0.34541	0.18688	0.15102	0.28782	-2.8542	-2.2583	-2.8708	-3.0521	-2.1063	-3.3187	-2.7562	-2.8458	-3.2375	-2.3521	-2.9208	-3.0792	-2.4313	-3.2417	-2.4875	-2.5417	410.816	353.288	406.667	378.744	413.024	320.087	462.934	455.743	504.129	366.633	510.368	195.329	508.514	422.586	307.076	492.162	0.00055376	0.00031725	0.00020137	1457.7	5.3935e-06	7.3022e-06	1447.6	391.37	4.7472e-06	6.915e-06	448.09	146.68	127.81	43.435	4.6212e-06	53.685	0.0013897	0.0019119	0.00054192	1493.4	1.961e-05	2.1161e-05	1488.1	402.86	1.9561e-05	2.0954e-05	461.59	151.98	132.68	45.225	2.0273e-05	56.138	195.921	303.611	314.652	168.559	282.475	307.094	168.278	173.158	314.176	297.501	172.734	176.744	177.335	182.195	297.694	181.648	-8191	255	
1079.828	1	1	0	0	0.1198	0.2233	0.13287	0.25131	0.21227	0.12928	0.19118	0.083324	0.14156	0.13054	0.14364	0.1512	0.48235	0.30192	0.080876	0.17929	-2.7667	-2.2375	-2.4771	-3.2083	-1.9125	-3.1792	-2.7229	-2.4583	-3.1312	-2.3833	-2.7938	-3.275	-2.3354	-3.0854	-2.95	-2.3958	325.174	385.689	276.996	480.394	468.560	511.384	474.372	249.830	408.901	480.516	449.955	489.377	504.058	320.398	368.164	200.658	0.00057973	0.0007866	0.00017144	1459.9	6.8522e-06	3.3312e-06	1453.4	390.86	6.0122e-06	3.86e-06	443.8	146.8	127.95	43.418	6.477e-06	53.798	0.0014056	0.0018954	0.00053154	1494	1.9955e-05	2.1175e-05	1488.2	403.07	1.9923e-05	2.1022e-05	460.17	152.09	132.71	45.235	1.9748e-05	56.245	194.725	264.436	273.263	168.820	284.057	247.754	168.521	173.344	282.315	342.445	172.946	176.743	177.503	182.364	284.595	181.891	-8191	255	
1079.923	1	1	0	0	0.27199	0.2465	0.057461	0.16261	0.34127	0.12228	0.072455	0.29172	0.11608	0.11366	0.075331	0.1918	0.2535	0.36738	0.044677	0.095794	-2.7958	-2.5375	-2.5917	-3.4	-2.4125	-3.3604	-3.2646	-2.725	-3.1688	-2.6	-2.7708	-3.3604	-2.3729	-2.9437	-2.8771	-2.3292	234.179	220.197	208.251	170.735	434.716	157.675	177.542	410.136	222.419	435.488	447.031	485.070	171.956	514.890	480.112	225.895	0.00060817	0.00075591	7.8998e-05	1458.5	4.1767e-06	1.7639e-06	1448.4	390.94	4.3767e-06	6.4222e-06	445.84	147.01	127.76	43.57	3.0354e-06	53.75	0.0013838	0.001869	0.00051728	1491.6	1.9171e-05	2.0523e-05	1486.5	402.36	1.911e-05	2.0116e-05	460.24	152.11	132.54	45.222	1.8629e-05	56.083	193.297	252.041	232.814	169.117	331.110	280.590	168.644	173.319	248.173	301.316	173.150	177.064	177.745	182.820	287.636	181.903	-8191	255	
1080.021	1	1	0	0	0.34159	0.21292	0.041485	0.17151	0.34627	0.2905	0.18842	0.22101	0.15772	0.24277	0.24922	0.21332	0.10515	0.19341	0.33426	0.175	-2.8292	-2.7479	-2.5396	-3.5667	-2.2333	-2.8146	-3.1021	-2.4292	-3.175	-2.8354	-2.8021	-3.5125	-2.5771	-3.0854	-3.0771	-2.3	349.332	258.466	401.405	436.226	222.946	377.301	421.199	467.161	387.769	303.656	470.038	280.126	267.435	456.127	462.955	430.642	0.00053578	0.00064002	0.00012827	1456.1	4.3977e-06	6.5038e-06	1452.6	390.72	5.2968e-06	5.1187e-06	448.29	146.93	127.93	43.419	3.5182e-06	53.811	0.0012967	0.0017267	0.00048766	1489.6	1.8096e-05	1.9153e-05	1484.7	401.6	1.7976e-05	1.8687e-05	459.89	151.74	132.42	45.124	1.7777e-05	56.045	195.503	242.912	251.062	169.527	285.217	303.393	169.067	173.651	286.924	331.844	173.386	177.264	177.784	182.557	298.063	182.306	-8191	255	
1080.115	1	1	0	0	0.17413	0.018635	0.19501	0.21025	0.14968	0.19923	0.23669	0.19207	0.13357	0.19777	0.037109	0.052029	0.3853	0.12346	0.25742	0.11703	-2.6771	-2.6208	-2.3979	-3.5208	-2.5312	-2.9542	-3.375	-2.5021	-3.1063	-2.7042	-2.4729	-3.4229	-2.7313	-2.7271	-3.2479	-2.4562	308.155	394.484	187.824	477.260	493.244	353.396	436.656	389.126	498.229	448.010	481.198	219.268	188.950	271.272	468.265	455.365	0.00056024	0.00053928	0.00018939	1458	4.5901e-06	5.8251e-06	1445.8	391.74	6.4241e-06	6.0928e-06	447.71	146.86	127.76	43.384	5.3193e-06	53.97	0.0012666	0.0016316	0.00047016	1489.5	1.7289e-05	1.8267e-05	1482.9	402.23	1.7551e-05	1.8616e-05	460.42	151.86	132.25	45.159	1.8648e-05	56.088	197.239	237.678	267.388	169.736	313.409	302.301	168.849	173.388	286.846	315.587	172.988	176.755	177.397	182.504	300.002	181.406	-8191	255	
1080.211	1	1	0	0	0.29994	0.10406	0.10347	0.29551	0.20464	0.12387	0.2526	0.20561	0.30158	0.073448	0.23848	0.13024	0.28111	0.21808	0.089512	0.090129	-2.9667	-3.0458	-2.5396	-3.4562	-2.5563	-2.7146	-3.425	-2.3896	-3.0604	-3.1833	-2.3708	-3.1937	-2.6354	-2.5854	-3.1375	-2.3604	305.660	391.236	347.881	496.588	250.740	163.645	479.941	511.633	234.239	390.477	316.633	233.874	411.908	465.745	158.421	166.280	0.00058384	0.0006248	0.00012882	1458.5	4.6875e-06	5.6025e-06	1451.9	391.25	4.4243e-06	5.6267e-06	446.07	145.95	127.92	43.466	8.4738e-06	53.713	0.0012944	0.0017122	0.00048977	1491.4	1.8295e-05	1.9351e-05	1485.3	402.19	1.7776e-05	1.9081e-05	460.36	151.76	132.36	45.097	1.8407e-05	56.08	191.647	268.933	225.068	169.116	303.873	302.350	168.675	173.336	276.367	312.656	173.237	177.042	177.337	182.141	287.146	181.615	-8191	255	
1080.307	1	1	0	0	0.30573	0.33651	0.12537	0.41729	0.14292	0.087811	0.17274	0.29094	0.29135	0.11191	0.39912	0.26875	0.17241	0.015862	0.20146	0.15342	-2.5083	-2.9042	-2.0854	-3.2812	-2.7292	-2.4271	-3.2604	-2.5104	-2.8125	-3.325	-2.3625	-3.3083	-2.8542	-2.4354	-3.2812	-2.4042	411.074	257.869	349.486	478.754	156.065	435.992	338.579	481.728	222.854	239.513	209.271	502.361	247.968	393.987	329.986	162.193	0.00055077	0.0004555	0.00011549	1462.3	4.4389e-06	7.1941e-06	1449	392.17	9.1379e-06	8.4421e-06	444.59	146.39	127.52	43.232	4.7349e-06	53.773	0.0012753	0.001662	0.00048017	1489.8	1.7374e-05	1.854e-05	1483.4	401.96	1.7068e-05	1.8047e-05	459.05	151.63	132.1	45.031	1.7812e-05	55.963	193.053	265.946	233.681	169.134	288.498	310.934	168.674	173.371	289.393	339.026	173.177	176.771	177.312	182.338	304.059	181.739	-8191	255	
1080.428	1	1	0	0	0.072471	0.11327	0.22572	0.29632	0.11573	0.20577	0.283	0.1569	0.12356	0.19461	0.13575	0.12132	0.33369	0.42625	0.15642	0.34483	-2.25	-2.9938	-2.2917	-3.3	-2.8917	-2.3208	-3.4979	-2.5687	-2.6729	-3.1583	-2.4375	-3.0333	-3.1104	-2.4771	-3.3208	-2.6604	183.958	335.178	278.453	465.284	433.487	164.556	394.697	161.556	241.924	299.371	203.064	419.541	159.817	466.905	492.394	497.587	0.00054375	0.00054253	9.481e-05	1455.4	4.0717e-06	4.9275e-06	1445.9	390.59	6.25e-06	8.9585e-06	445.73	146.86	128.24	43.408	5.453e-06	53.797	0.0012121	0.0016231	0.00046924	1487.6	1.6763e-05	1.8061e-05	1482.4	401.26	1.696e-05	1.7875e-05	459.3	151.65	132.27	45.055	1.6939e-05	55.96	192.503	242.609	216.661	169.082	264.303	276.820	168.593	173.443	266.886	313.898	173.149	177.073	177.445	182.570	268.320	181.782	-8191	255	
1080.524	1	1	0	0	0.12098	0.22548	0.19832	0.19836	0.16088	0.16661	0.1537	0.2404	0.29798	0.37174	0.28909	0.26109	0.2502	0.35024	0.18121	0.23953	-2.2271	-3.2354	-2.65	-3.125	-2.9771	-2.4271	-3.4938	-2.7521	-2.5292	-3.2125	-2.5187	-2.9583	-3.3167	-2.5167	-3.3292	-3.0458	310.784	438.503	173.137	253.473	190.225	295.719	442.591	217.639	472.709	346.910	489.375	478.530	316.384	199.089	352.293	494.125	0.00058387	0.00059919	0.00016825	1457.8	4.5515e-06	5.0992e-06	1448.1	390.85	6.2126e-06	5.2615e-06	446	146.27	127.7	43.479	3.6407e-06	53.847	0.0011929	0.00158	0.00045107	1487.5	1.6192e-05	1.7597e-05	1482.9	401.07	1.6282e-05	1.7377e-05	458.77	151.43	131.79	45.039	1.6473e-05	55.916	196.908	255.976	252.572	169.216	284.532	278.081	168.788	173.565	294.452	306.015	173.373	176.909	177.665	182.706	303.381	181.757	-8191	255	
1080.620	1	1	0	0	0.10244	0.095803	0.30598	0.075071	0.05849	0.093434	0.18973	0.33408	0.14588	0.27391	0.11454	0.14166	0.34023	0.17647	0.17861	0.1427	-2.225	-3.1375	-2.4313	-2.9333	-2.9979	-2.4146	-3.3958	-2.8125	-2.4167	-3.3104	-2.6125	-2.9229	-3.4042	-2.4875	-3.2896	-2.9062	334.485	446.245	168.188	443.122	482.066	332.895	479.533	486.161	239.145	335.541	405.729	396.031	466.978	486.321	330.247	189.399	0.00052703	0.00061233	0.00010377	1451.8	4.7281e-06	1.2528e-06	1446.3	390.58	6.2946e-06	6.9028e-06	443.82	146.64	127.8	43.328	5.5268e-06	53.719	0.0011831	0.001572	0.00044905	1484.3	1.6374e-05	1.8115e-05	1480.3	400.75	1.7009e-05	1.8046e-05	457.96	151.63	131.94	44.994	1.7482e-05	55.877	193.685	245.198	263.257	169.026	302.213	251.572	168.817	173.322	290.468	314.765	172.733	176.926	177.354	182.413	312.668	181.615	-8191	255	
1080.716	1	1	0	0	0.40312	0.17722	0.11837	0.10625	0.29209	0.18422	0.16146	0.10304	0.17809	0.059757	0.064495	0.042025	0.037625	0.13981	0.33984	0.072978	-2.0208	-3.1083	-2.2812	-2.675	-3.2812	-2.4313	-3.3042	-3.1042	-2.375	-3.1417	-2.3208	-2.7625	-3.3312	-2.3958	-3.0583	-3.3646	514.093	464.648	269.285	399.816	178.799	501.663	440.982	494.067	216.543	284.603	327.013	294.403	472.984	175.924	195.782	507.718	0.00059878	0.00049632	0.00010801	1457.2	3.181e-06	6.909e-06	1449.9	390.65	5.4195e-06	7.7767e-06	446.13	146.42	127.49	43.436	3.9259e-06	53.62	0.0012395	0.0016343	0.00045435	1486.7	1.6919e-05	1.8393e-05	1481.6	401.03	1.7202e-05	1.8426e-05	458.99	151.55	131.91	45.004	1.7103e-05	55.885	191.996	266.615	259.856	168.973	327.045	319.705	168.844	173.488	283.361	325.611	173.128	176.982	177.459	182.398	311.596	181.808	-8191	255	
#DATA ENDS
