BOXY.EXE: ISS Imagent and Oximeter Data Acquisition Program Version 0.80
Ascii Record File

#ACQ INFORMATION
2  Detector Channels 
16  External MUX Channels 
1  Auxiliary Channels 
5000  Waveform (CCF) Frequency (Hz)
1  Waveforms Skipped 
30  Waveforms Averaged 
1  Cycles Averaged 
16  Acquisitions per Waveform 
10.0806  Updata Rate (Hz) 

#FILE INFORMATION
TRUE -- External MUX Channel results are PARSED.
FALSE -- AC DC and Phase are NOT grouped.
TRUE -- Companion Program Settings File CREATED.
FALSE -- AC data not excluded
FALSE -- DC data not excluded
FALSE -- Phase data not excluded
FALSE -- Auxillary Chn. data not excluded
Tab delimiters

#CALIBRATION STATE
TRUE -- Waveform Calibration Values APPLIED.


#AUX CALIBRATION VALUES
Val Type	aux-1	

Term	1.0000e+00	
Factor	0.0000e+00	


#WF CALIBRATION VALUES
A = Detector Channel
Val Type	A-AC1	A-AC2	A-AC3	A-AC4	A-AC5	A-AC6	A-AC7	A-AC8	A-AC9	A-AC10	A-AC11	A-AC12	A-AC13	A-AC14	A-AC15	A-AC16	A-DC1	A-DC2	A-DC3	A-DC4	A-DC5	A-DC6	A-DC7	A-DC8	A-DC9	A-DC10	A-DC11	A-DC12	A-DC13	A-DC14	A-DC15	A-DC16	A-Ph1	A-Ph2	A-Ph3	A-Ph4	A-Ph5	A-Ph6	A-Ph7	A-Ph8	A-Ph9	A-Ph10	A-Ph11	A-Ph12	A-Ph13	A-Ph14	A-Ph15	A-Ph16	

Term	0.00000e+00	0.00000e+00	0.00000e+00	0.00000e+00	0.00000e+00	0.00000e+00	0.00000e+00	0.00000e+00	0.00000e+00	0.00000e+00	0.00000e+00	0.00000e+00	0.00000e+00	0.00000e+00	0.00000e+00	0.00000e+00	0.00000e+00	0.00000e+00	0.00000e+00	0.00000e+00	0.00000e+00	0.00000e+00	0.00000e+00	0.00000e+00	0.00000e+00	0.00000e+00	0.00000e+00	0.00000e+00	0.00000e+00	0.00000e+00	0.00000e+00	0.00000e+00	0.00000e+00	0.00000e+00	0.00000e+00	0.00000e+00	0.00000e+00	0.00000e+00	0.00000e+00	0.00000e+00	0.00000e+00	0.00000e+00	0.00000e+00	0.00000e+00	0.00000e+00	0.00000e+00	0.00000e+00	0.00000e+00	
Factor	1.00000e+00	1.00000e+00	1.00000e+00	1.00000e+00	1.00000e+00	1.00000e+00	1.00000e+00	1.00000e+00	1.00000e+00	1.00000e+00	1.00000e+00	1.00000e+00	1.00000e+00	1.00000e+00	1.00000e+00	1.00000e+00	1.00000e+00	1.00000e+00	1.00000e+00	1.00000e+00	1.00000e+00	1.00000e+00	1.00000e+00	1.00000e+00	1.00000e+00	1.00000e+00	1.00000e+00	1.00000e+00	1.00000e+00	1.00000e+00	1.00000e+00	1.00000e+00	X	X	X	X	X	X	X	X	X	X	X	X	X	X	X	X	

B = Detector Channel
Val Type	B-AC1	B-AC2	B-AC3	B-AC4	B-AC5	B-AC6	B-AC7	B-AC8	B-AC9	B-AC10	B-AC11	B-AC12	B-AC13	B-AC14	B-AC15	B-AC16	B-DC1	B-DC2	B-DC3	B-DC4	B-DC5	B-DC6	B-DC7	B-DC8	B-DC9	B-DC10	B-DC11	B-DC12	B-DC13	B-DC14	B-DC15	B-DC16	B-Ph1	B-Ph2	B-Ph3	B-Ph4	B-Ph5	B-Ph6	B-Ph7	B-Ph8	B-Ph9	B-Ph10	B-Ph11	B-Ph12	B-Ph13	B-Ph14	B-Ph15	B-Ph16	

Term	0.00000e+00	0.00000e+00	0.00000e+00	0.00000e+00	0.00000e+00	0.00000e+00	0.00000e+00	0.00000e+00	0.00000e+00	0.00000e+00	0.00000e+00	0.00000e+00	0.00000e+00	0.00000e+00	0.00000e+00	0.00000e+00	0.00000e+00	0.00000e+00	0.00000e+00	0.00000e+00	0.00000e+00	0.00000e+00	0.00000e+00	0.00000e+00	0.00000e+00	0.00000e+00	0.00000e+00	0.00000e+00	0.00000e+00	0.00000e+00	0.00000e+00	0.00000e+00	-3.80650e+01	-1.32862e+02	-1.25430e+02	-1.81665e+02	-4.66408e+01	-6.69153e+01	-1.55920e+02	-1.62015e+02	-3.32665e+01	-6.84437e+01	-1.70727e+02	-1.71644e+02	-1.80701e+02	-1.77487e+02	-4.82893e+01	-1.50551e+02	
Factor	2.17353e-05	1.62563e-04	4.39496e-05	1.54653e-01	1.72098e-06	1.76303e-06	1.62475e-01	5.94268e-02	1.39045e-06	1.85064e-06	8.19659e-02	2.80416e-02	2.61055e-02	8.93581e-03	1.65438e-06	1.28829e-02	1.84756e-05	4.85871e-05	1.36813e-05	7.94789e-02	4.32069e-07	5.65725e-07	7.86197e-02	3.06710e-02	4.39986e-07	5.82689e-07	4.11320e-02	1.40425e-02	1.36022e-02	4.66921e-03	4.79335e-07	6.49530e-03	X	X	X	X	X	X	X	X	X	X	X	X	X	X	X	X	



#DISTANCE SETTINGS
A = Detector Channel
A-1	A-2	A-3	A-4	A-5	A-6	A-7	A-8	A-9	A-10	A-11	A-12	A-13	A-14	A-15	A-16	

2.5000e+00	3.0000e+00	2.5000e+00	3.0000e+00	2.0000e+00	3.0000e+00	1.5000e+00	3.0000e+00	3.0000e+00	3.0000e+00	3.0000e+00	3.0000e+00	3.0000e+00	3.0000e+00	1.5000e+00	3.0000e+00	

B = Detector Channel
B-1	B-2	B-3	B-4	B-5	B-6	B-7	B-8	B-9	B-10	B-11	B-12	B-13	B-14	B-15	B-16	

1.0000e+01	1.0000e+01	1.0000e+01	1.4400e+00	1.0000e+01	1.0000e+01	1.5100e+00	1.9400e+00	1.0000e+01	1.0000e+01	1.9900e+00	2.4900e+00	2.4100e+00	2.9000e+00	1.0000e+01	2.9800e+00	




#DATA BEGINS
time	group	step	mark	flag	A-AC1	A-AC2	A-AC3	A-AC4	A-AC5	A-AC6	A-AC7	A-AC8	A-AC9	A-AC10	A-AC11	A-AC12	A-AC13	A-AC14	A-AC15	A-AC16	A-DC1	A-DC2	A-DC3	A-DC4	A-DC5	A-DC6	A-DC7	A-DC8	A-DC9	A-DC10	A-DC11	A-DC12	A-DC13	A-DC14	A-DC15	A-DC16	A-Ph1	A-Ph2	A-Ph3	A-Ph4	A-Ph5	A-Ph6	A-Ph7	A-Ph8	A-Ph9	A-Ph10	A-Ph11	A-Ph12	A-Ph13	A-Ph14	A-Ph15	A-Ph16	B-AC1	B-AC2	B-AC3	B-AC4	B-AC5	B-AC6	B-AC7	B-AC8	B-AC9	B-AC10	B-AC11	B-AC12	B-AC13	B-AC14	B-AC15	B-AC16	B-DC1	B-DC2	B-DC3	B-DC4	B-DC5	B-DC6	B-DC7	B-DC8	B-DC9	B-DC10	B-DC11	B-DC12	B-DC13	B-DC14	B-DC15	B-DC16	B-Ph1	B-Ph2	B-Ph3	B-Ph4	B-Ph5	B-Ph6	B-Ph7	B-Ph8	B-Ph9	B-Ph10	B-Ph11	B-Ph12	B-Ph13	B-Ph14	B-Ph15	B-Ph16	aux-1	digaux	

445.286	1	1	0	256	0.23154	0.15959	0.10139	0.078264	0.17674	0.059499	0.45104	0.20883	0.1481	0.18652	0.075063	0.082642	0.37945	0.24834	0.13839	0.20575	-3.0479	-3.2646	-3.1125	-3.7042	-3.0458	-3.1896	-3.6542	-3.1417	-3.4875	-3.3688	-3.2125	-3.6188	-3.3854	-3.2938	-3.4104	-3.1437	181.684	221.342	451.729	411.132	457.305	395.506	426.274	468.113	486.751	218.775	393.178	442.033	500.042	451.758	320.680	234.401	0.00037635	0.00034383	7.9695e-05	1322.6	4.8821e-06	2.2256e-06	1402.7	267.79	4.3829e-06	4.0053e-06	333.1	93.549	74.54	20.719	3.6036e-06	28.74	0.00042452	0.00046077	0.00014491	1314.8	5.4567e-06	5.5771e-06	1382.1	265.17	5.2313e-06	5.7055e-06	333.31	93.811	74.439	21.015	5.2048e-06	29.27	283.228	231.249	235.963	154.085	304.595	277.327	154.058	161.648	306.524	288.198	161.081	167.709	168.073	174.900	329.380	174.148	-8191	255	
445.382	1	1	0	0	0.019308	0.27362	0.15725	0.30987	0.25599	0.15279	0.35909	0.13464	0.29531	0.12153	0.15363	0.16445	0.08256	0.06484	0.073537	0.28713	-2.8479	-3.3312	-3.1271	-3.6896	-3.2167	-3.0604	-3.6896	-3.2625	-3.3333	-3.4271	-3.1875	-3.5917	-3.2771	-3.1229	-3.575	-3.2521	299.212	218.263	362.266	442.422	434.399	206.017	418.274	459.360	384.076	383.858	446.314	381.670	437.625	325.285	436.997	495.361	0.00040311	0.00042756	0.00010186	1341.2	4.4525e-06	3.4159e-06	1408.2	268.46	2.894e-06	2.4615e-06	336.07	94.499	74.573	20.818	2.5212e-06	29.162	0.00043314	0.0005463	0.00014955	1328	5.9337e-06	5.9283e-06	1394.2	266.86	5.4247e-06	5.5914e-06	335.61	94.568	74.954	21.1	5.2038e-06	29.599	280.877	240.563	231.817	153.986	294.135	285.771	154.099	161.544	303.985	301.572	161.027	167.639	167.694	174.691	296.840	174.123	-8191	255	
445.476	1	1	0	0	0.11556	0.22045	0.14514	0.22937	0.069759	0.18721	0.15064	0.044277	0.068092	0.091163	0.20543	0.0994	0.22304	0.19972	0.16062	0.12332	-2.925	-3.4208	-3.0062	-3.4813	-3.5375	-3.1688	-3.7125	-3.3563	-3.2938	-3.5354	-3.1813	-3.4021	-3.6896	-3.2417	-3.5708	-3.2333	458.717	213.142	367.185	452.896	474.788	176.274	196.666	387.945	447.465	471.108	432.854	497.403	485.356	190.575	455.520	366.061	0.00038271	0.00029231	9.7466e-05	1346.8	4.9365e-06	2.9709e-06	1410.2	269.55	3.8513e-06	2.3949e-06	335.17	94.532	75.158	20.837	4.0075e-06	29.192	0.00043483	0.00049366	0.00014209	1330.1	5.778e-06	5.6596e-06	1395.6	267.3	5.344e-06	5.7492e-06	335.61	94.544	74.912	21.117	5.1099e-06	29.655	286.193	237.909	232.524	154.169	296.630	313.487	154.073	161.330	322.499	292.696	160.699	167.594	167.671	174.855	307.462	174.294	-8191	255	
445.550	1	1	0	0	0.21175	0.054591	0.16375	0.16773	0.28131	0.2502	0.33476	0.14309	0.11503	0.071548	0.21063	0.19959	0.20119	0.1376	0.097239	0.25413	-3.0021	-3.5146	-3.0292	-3.6562	-3.4292	-3.1292	-3.7375	-3.2792	-3.3083	-3.6521	-3.2062	-3.5604	-3.5563	-3.0771	-3.4146	-3.3458	331.926	234.869	318.270	230.612	449.410	245.679	442.144	469.371	188.876	471.539	173.217	450.871	355.032	220.800	182.201	450.691	0.00042529	0.00047718	7.8484e-05	1342.4	4.2596e-06	4.3168e-06	1406.5	269.65	3.9313e-06	3.6663e-06	336.86	94.192	74.709	20.686	3.2111e-06	29.082	0.00043837	0.00052393	0.00013659	1331.4	5.5998e-06	5.6785e-06	1393.2	267.53	5.2221e-06	5.47e-06	336.47	94.448	74.962	21.038	4.6825e-06	29.62	278.740	245.075	239.745	153.918	291.586	298.285	154.045	161.432	315.500	286.483	160.989	167.265	167.934	174.669	317.791	174.330	-8191	255	
445.669	1	1	0	0	0.26628	0.024536	0.085952	0.22616	0.091224	0.19204	0.086052	0.27571	0.17508	0.25016	0.18981	0.085917	0.054524	0.061014	0.082842	0.17683	-2.8042	-3.6521	-3.0833	-3.5667	-3.3854	-3.1729	-3.6875	-3.2979	-3.1625	-3.6813	-3.3354	-3.5125	-3.6833	-2.9479	-3.6437	-3.3917	217.967	176.548	422.923	470.848	446.761	487.653	428.086	471.287	354.349	286.643	418.528	177.627	258.528	304.022	260.395	224.982	0.00037729	0.00032693	5.8511e-05	1337.9	5.0382e-06	3.23e-06	1408.3	268.84	4.5708e-06	3.1594e-06	336.7	93.884	74.844	20.724	4.7494e-06	29.004	0.00040619	0.00043779	0.00013676	1326.4	5.6538e-06	5.3815e-06	1392.9	267.58	5.1258e-06	5.0427e-06	336.12	94.21	74.629	21.099	4.5347e-06	29.605	283.466	224.600	227.277	154.247	320.766	298.344	154.006	161.476	309.384	297.317	161.171	167.456	167.779	174.439	318.568	174.016	-8191	255	
445.765	1	1	0	0	0.21596	0.079344	0.18656	0.11609	0.1242	0.053587	0.15222	0.15473	0.032936	0.095112	0.021241	0.19908	0.20734	0.082678	0.062462	0.096367	-2.6937	-3.5646	-3.2729	-3.4854	-3.2125	-2.9042	-3.4333	-3.3542	-3.0604	-3.7125	-3.3354	-3.375	-3.3604	-3.0958	-3.3979	-3.2021	382.704	358.380	187.900	448.972	193.484	152.550	475.537	146.071	492.269	396.159	241.855	389.649	377.683	236.097	296.447	339.733	0.00039592	0.00032273	7.4313e-05	1339.2	3.2184e-06	2.7243e-06	1406.1	267.17	3.7216e-06	3.261e-06	335.18	94.38	74.531	20.69	3.0124e-06	29.075	0.00042228	0.00044133	0.00013479	1325	5.4621e-06	5.583e-06	1388.6	266.38	5.4503e-06	5.0985e-06	335.16	94.198	74.552	21.04	4.8313e-06	29.564	284.148	235.317	252.175	154.037	290.553	296.929	154.090	161.422	322.754	302.328	161.177	167.482	167.824	174.532	291.573	174.293	-8191	255	
445.861	1	1	0	0	0.15813	0.113	0.038961	0.1737	0.19497	0.29992	0.073246	0.12871	0.12973	0.20725	0.10924	0.14575	0.097322	0.13232	0.1595	0.10718	-2.7333	-3.5354	-3.2729	-3.3063	-3.5396	-3.1396	-3.5854	-3.55	-3.1688	-3.4875	-3.3021	-3.0708	-3.6021	-3.2104	-3.3354	-3.45	248.315	407.814	274.574	442.064	387.222	196.075	434.071	191.684	374.972	197.375	447.626	341.965	441.694	450.981	274.654	381.523	0.00037671	0.00034821	0.00012119	1333	4.9041e-06	3.32e-06	1402	266.68	3.8097e-06	3.5972e-06	334.63	93.998	74.345	20.742	3.0494e-06	28.899	0.00041739	0.00047383	0.00013431	1320.7	5.4063e-06	5.4534e-06	1385	265.84	5.366e-06	5.1629e-06	334.4	94.157	74.359	21.002	5.1608e-06	29.48	283.064	219.800	253.651	154.063	284.648	306.966	154.227	161.271	312.658	303.720	160.985	167.613	167.695	174.938	315.447	174.279	-8191	255	
445.957	1	1	0	0	0.23587	0.23856	0.11751	0.096978	0.16795	0.071793	0.24431	0.091429	0.13331	0.11356	0.10346	0.16947	0.22994	0.16201	0.0836	0.27061	-2.5771	-3.4958	-3.4396	-3.2833	-3.5667	-3.2625	-3.4813	-3.4146	-3.075	-3.3958	-3.4875	-3.1625	-3.5604	-3.1229	-3.1188	-3.5458	305.258	391.857	218.878	349.252	312.652	329.102	438.638	458.695	294.183	252.216	308.657	153.063	344.752	337.588	347.185	429.671	0.00039494	0.00048219	0.00012829	1329.2	5.0248e-06	3.7406e-06	1395.7	268.28	4.2275e-06	3.7482e-06	333.65	93.849	74.318	20.607	3.4962e-06	28.823	0.0004167	0.00046917	0.00012935	1317.7	5.4279e-06	5.3532e-06	1380.9	266.48	5.2551e-06	5.2406e-06	334.13	93.965	74.219	20.963	5.3086e-06	29.472	282.588	207.981	253.740	153.993	316.939	311.666	154.135	161.419	321.162	292.656	160.926	167.608	167.984	174.670	323.773	173.969	-8191	255	
446.078	1	1	0	0	0.059418	0.12866	0.30558	0.21103	0.24006	0.16477	0.16457	0.23668	0.21182	0.13016	0.032271	0.27699	0.14255	0.26998	0.33938	0.24419	-2.5354	-3.3438	-3.3396	-3.2125	-3.5271	-3.0708	-3.3063	-3.4542	-3.2438	-3.4667	-3.3563	-3.1667	-3.5083	-3.3021	-3.1229	-3.5938	214.254	351.644	435.027	476.471	261.573	251.582	476.258	470.895	436.154	267.506	225.181	449.483	447.945	281.544	282.876	482.654	0.00041746	0.00031221	7.7493e-05	1329.1	5.708e-06	2.5607e-06	1396.4	266.01	5.0817e-06	2.1279e-06	335.07	93.853	74.103	20.619	3.4548e-06	28.727	0.00043079	0.00047484	0.00013362	1316.6	5.1245e-06	5.2884e-06	1379.7	265.22	5.2028e-06	5.8135e-06	334.75	94.014	74.157	20.969	5.2467e-06	29.35	282.670	212.908	271.522	154.152	280.824	289.438	154.015	161.459	313.515	293.633	161.005	167.704	167.740	174.680	310.800	174.354	-8191	255	
446.149	1	1	0	0	0.25497	0.064147	0.2745	0.1435	0.24191	0.17787	0.30643	0.088213	0.16749	0.059721	0.011388	0.11036	0.13621	0.17311	0.12207	0.067938	-2.6708	-3.5417	-3.3646	-3.0729	-3.4625	-3.3208	-3.2208	-3.6417	-3.1667	-3.2125	-3.5896	-3.1333	-3.4083	-3.2917	-3.0521	-3.6958	437.656	448.021	357.852	501.494	426.817	407.835	394.719	482.357	464.804	501.524	264.524	329.403	488.056	293.646	177.130	371.477	0.00039511	0.00039431	6.4262e-05	1328	3.9935e-06	5.1529e-06	1394.2	267.14	5.205e-06	4.7176e-06	334.18	93.269	73.756	20.588	3.1462e-06	28.985	0.00043079	0.00048202	0.00013046	1312.7	5.6934e-06	5.2447e-06	1377.3	265.35	5.4109e-06	5.5768e-06	333.21	93.601	73.918	20.925	5.1528e-06	29.366	283.790	245.952	217.920	154.090	292.928	289.104	153.913	161.557	318.379	289.997	161.098	167.451	167.433	174.794	299.978	173.998	-8191	255	
446.245	1	1	0	0	0.08303	0.23817	0.29408	0.16939	0.1292	0.05804	0.1327	0.33625	0.2295	0.21364	0.28929	0.20695	0.23066	0.13238	0.18999	0.10921	-2.8833	-3.3604	-3.3458	-3.1208	-3.525	-3.1813	-3.2667	-3.675	-3.3021	-3.4813	-3.5958	-3.0938	-3.5062	-3.2917	-3.0312	-3.5896	484.722	471.666	305.763	165.066	235.795	195.352	421.569	456.118	162.824	185.285	425.530	455.409	472.296	144.689	345.939	267.955	0.00041153	0.00019258	0.00012944	1325.2	5.8397e-06	3.3023e-06	1387.2	266.63	4.0605e-06	2.6402e-06	332.36	93.511	73.849	20.483	3.425e-06	29.012	0.00042171	0.00047281	0.00013992	1309.8	5.3153e-06	5.4097e-06	1370.9	264.43	5.3293e-06	5.6157e-06	332.3	93.586	73.965	20.801	4.8243e-06	29.378	283.860	226.215	212.880	154.160	314.673	306.302	154.316	161.632	321.635	307.069	160.742	167.573	168.218	174.848	318.033	173.986	-8191	255	
446.366	1	1	0	0	0.18549	0.17276	0.15176	0.19978	0.18809	0.24904	0.069171	0.18802	0.15474	0.17088	0.073135	0.30233	0.15655	0.2264	0.31292	0.041649	-2.7146	-3.2	-3.5563	-3.2875	-3.35	-3.2792	-3.2417	-3.7792	-3.0958	-3.2	-3.4813	-3.3583	-3.4583	-3.4292	-3.0271	-3.5438	150.442	284.525	273.896	452.331	360.600	377.598	231.309	431.376	451.293	166.596	245.541	296.430	298.431	489.435	320.603	435.330	0.00039462	0.00035283	8.224e-05	1313	4.4578e-06	3.8585e-06	1380.3	265.66	3.7947e-06	3.0477e-06	331.29	92.841	73.475	20.453	3.717e-06	28.672	0.00042224	0.00046107	0.00012493	1302.8	5.1236e-06	4.9548e-06	1365.1	263.56	5.1048e-06	5.6691e-06	331.49	93.087	73.632	20.795	4.9172e-06	29.278	281.882	230.551	215.187	154.318	313.987	282.003	154.362	161.497	314.332	326.139	161.153	167.473	167.920	174.746	315.680	174.280	-8191	255	
446.462	1	1	0	0	0.18662	0.15347	0.14399	0.22529	0.038999	0.12178	0.34776	0.15556	0.24429	0.30766	0.13362	0.29683	0.26489	0.18075	0.15977	0.091948	-2.95	-3.0812	-3.7708	-3.2458	-3.3667	-3.5354	-3.2375	-3.5583	-3.4083	-3.1771	-3.5812	-3.0687	-3.4896	-3.4375	-3.1667	-3.4167	188.142	273.861	311.651	471.955	332.852	197.677	382.658	189.970	387.561	220.286	431.694	456.197	281.862	435.596	153.787	215.869	0.00035906	0.00028944	7.2239e-05	1307.1	3.753e-06	1.5572e-06	1374.6	264.53	4.2603e-06	2.7816e-06	330.9	93.3	73.168	20.535	3.683e-06	28.679	0.00039026	0.0004383	0.00013371	1297.6	5.1911e-06	4.9819e-06	1362.3	262.51	4.8948e-06	5.2393e-06	330.29	92.998	73.267	20.763	4.6985e-06	29.171	280.875	214.319	211.833	154.206	294.312	307.586	154.135	161.716	326.501	267.113	161.002	167.728	167.952	175.097	297.909	174.144	-8191	255	
446.558	1	1	0	0	0.15277	0.18364	0.056684	0.13768	0.091024	0.27519	0.076296	0.063727	0.13433	0.11847	0.22304	0.19085	0.11234	0.052454	0.096273	0.097299	-2.9708	-3.0292	-3.6354	-3.3708	-3.4458	-3.3729	-3.2792	-3.4333	-3.1958	-3.1	-3.6021	-3.1667	-3.3292	-3.5208	-3.2479	-3.5812	151.743	164.049	325.502	492.523	204.500	171.633	408.263	219.688	310.782	164.877	359.574	159.692	489.806	184.208	469.360	435.048	0.00041221	0.00043	6.5476e-05	1309.3	4.2125e-06	3.7896e-06	1375.7	264.42	4.3238e-06	3.691e-06	331.21	92.29	73.518	20.413	3.705e-06	28.611	0.00041855	0.00048101	0.00011649	1294.7	5.2487e-06	4.725e-06	1359.5	262.69	4.8389e-06	5.0803e-06	330.32	92.728	73.509	20.729	4.6515e-06	29.124	283.819	228.456	260.029	154.114	284.296	300.196	154.357	161.510	316.544	293.400	161.005	167.568	168.115	174.955	300.633	174.230	-8191	255	
446.677	1	1	0	0	0.17282	0.16256	0.21868	0.25262	0.19563	0.12585	0.19643	0.14491	0.25533	0.0052465	0.15896	0.10693	0.19153	0.082324	0.096383	0.13667	-3.0104	-3.0938	-3.5896	-3.3333	-3.3375	-3.5687	-3.3229	-3.3646	-3.3958	-3.2104	-3.6292	-3.3063	-3.1208	-3.5354	-3.1479	-3.4604	284.350	425.350	328.308	439.578	401.923	489.197	405.880	178.180	482.563	453.208	185.157	197.516	361.424	228.408	492.063	496.576	0.00039814	0.00026953	5.7959e-05	1305.3	3.8491e-06	4.0307e-06	1374.3	264.24	4.5151e-06	4.1648e-06	330.47	92.504	73.552	20.437	2.8525e-06	28.683	0.00041682	0.00046218	0.00012279	1293.5	5.1317e-06	5.0609e-06	1357.5	262.27	4.772e-06	5.4445e-06	329.76	92.527	73.369	20.714	5.1069e-06	29.176	282.719	218.765	226.064	154.156	297.181	292.408	154.266	161.321	324.237	294.119	160.901	167.438	168.008	174.669	296.098	174.356	-8191	255	
446.773	1	1	0	0	0.11215	0.26619	0.1196	0.12654	0.062588	0.2076	0.12775	0.30683	0.11099	0.21004	0.21332	0.29337	0.21363	0.15443	0.1526	0.079322	-3.1854	-2.9604	-3.475	-3.5354	-3.2146	-3.5604	-3.5625	-3.3667	-3.5021	-2.9854	-3.5354	-3.5208	-3.0417	-3.3125	-3.2687	-3.3708	169.750	491.615	168.271	482.780	428.241	343.427	208.182	379.899	192.614	476.696	152.751	458.526	452.301	148.602	313.698	292.926	0.00039414	0.0002884	9.2805e-05	1297.2	4.3499e-06	3.6661e-06	1368.6	264.04	3.6057e-06	3.3237e-06	329.49	92.364	72.988	20.374	4.4227e-06	28.749	0.00040689	0.00051401	0.00011196	1289.3	5.2757e-06	4.811e-06	1356.5	261.97	4.7418e-06	5.2976e-06	329.53	92.667	73.212	20.708	4.9162e-06	29.124	281.590	220.859	234.431	154.325	310.186	276.804	154.064	161.661	313.414	290.118	160.917	167.842	167.730	175.069	298.532	174.281	-8191	255	
446.845	1	1	0	0	0.15518	0.062196	0.11923	0.16332	0.058168	0.1353	0.24034	0.083775	0.15333	0.23551	0.26544	0.19647	0.075259	0.16847	0.041521	0.083445	-3.0146	-2.9833	-3.3417	-3.4979	-2.9583	-3.5354	-3.3729	-3.2042	-3.4792	-3.1917	-3.4125	-3.4813	-3.0563	-3.4604	-3.2875	-3.3125	287.702	245.279	286.083	163.818	380.754	193.540	441.909	425.504	441.271	337.479	151.308	166.406	376.856	473.136	149.681	176.119	0.00038192	0.00035084	4.3372e-05	1300.1	4.1571e-06	3.0072e-06	1367.9	265.04	4.2152e-06	3.7119e-06	330.18	92.54	72.786	20.289	2.8934e-06	28.728	0.00038737	0.00043293	0.00012467	1286.4	5.2325e-06	4.6236e-06	1353.9	262.41	4.5364e-06	5.107e-06	329.79	92.493	73.118	20.632	4.6785e-06	29.142	283.012	225.643	252.144	154.239	288.632	282.538	154.229	161.525	328.182	295.368	160.926	167.426	167.903	175.267	325.338	174.313	-8191	255	
446.966	1	1	0	0	0.12494	0.15176	0.084235	0.077294	0.12705	0.0552	0.26853	0.044556	0.1382	0.18718	0.32944	0.085083	0.2823	0.057552	0.27287	0.11549	-3.2313	-2.9292	-3.3083	-3.6583	-2.85	-3.4771	-3.3479	-3.3125	-3.5938	-3.0979	-3.4333	-3.3563	-3.2458	-3.4083	-3.3	-3.1333	251.559	457.132	332.874	194.205	261.013	360.126	422.947	392.777	286.014	261.220	186.164	317.382	165.873	272.843	297.922	378.668	0.00039152	0.0002984	8.3692e-05	1299.1	5.107e-06	3.0123e-06	1363.3	264.01	4.1529e-06	3.139e-06	330.17	92.067	73.427	20.188	4.0418e-06	28.884	0.00039638	0.00045864	0.00011706	1284.5	5.1335e-06	4.8098e-06	1349.1	261.65	4.2825e-06	4.982e-06	329.59	92.485	73.159	20.612	4.5876e-06	29.14	281.971	236.270	233.324	154.166	288.810	289.217	154.156	161.672	319.044	292.286	160.894	167.618	167.965	174.824	299.673	174.517	-8191	255	
447.062	1	1	0	0	0.18813	0.24827	0.10793	0.26893	0.17966	0.020908	0.23603	0.23924	0.37745	0.23808	0.24698	0.022907	0.14084	0.079989	0.092604	0.20586	-3.1396	-3	-3.3667	-3.7125	-3.0729	-3.6604	-3.5917	-3.4146	-3.5812	-3.2271	-3.3021	-3.575	-3.0333	-3.3125	-3.3708	-3.1792	189.740	360.977	233.638	493.696	396.274	189.560	418.066	363.776	199.041	484.395	221.085	214.271	150.619	193.720	184.344	409.653	0.00042219	0.00036348	0.00011575	1297.1	3.8628e-06	3.7334e-06	1362.8	262.28	4.4887e-06	3.1014e-06	327.94	92.499	73.523	20.236	3.1574e-06	28.628	0.00039395	0.00043789	0.000118	1285.3	4.9787e-06	4.4975e-06	1350.1	261.08	4.8224e-06	5.3826e-06	328.57	92.398	73.265	20.633	4.5507e-06	29.078	284.693	226.282	229.649	154.368	298.934	295.512	154.310	161.738	324.649	285.831	160.871	167.387	167.923	175.528	294.710	174.463	-8191	255	
447.158	1	1	0	0	0.15632	0.06064	0.1603	0.23504	0.23356	0.064862	0.25952	0.143	0.13168	0.17824	0.10614	0.18434	0.031869	0.066134	0.19372	0.10926	-3.0146	-3.275	-3.2062	-3.8104	-3.1375	-3.3104	-3.4813	-3.1208	-3.4417	-3.4417	-3.1104	-3.6667	-3.0938	-3.5208	-3.4188	-3.025	468.529	357.782	294.928	499.634	457.918	151.570	479.295	222.666	330.265	371.685	342.815	376.040	367.546	406.535	248.089	403.438	0.0003794	0.00039005	9.6517e-05	1296.7	3.9091e-06	2.9586e-06	1366.2	263.19	3.423e-06	1.6351e-06	326.46	92.32	72.638	20.266	3.9729e-06	28.58	0.00039203	0.00042979	0.00012139	1283.9	5.0246e-06	4.6979e-06	1349.9	260.98	4.2807e-06	5.2648e-06	327.78	92.153	72.766	20.629	4.5367e-06	28.989	280.783	241.248	243.373	154.265	296.554	287.379	154.136	161.487	319.465	260.081	161.157	167.440	168.101	175.041	305.114	174.769	-8191	255	
447.254	1	1	0	0	0.063051	0.15934	0.20579	0.22846	0.021447	0.29486	0.1361	0.30473	0.28488	0.11744	0.065623	0.16359	0.15905	0.21883	0.1014	0.14851	-3.0687	-3.3167	-3.2229	-3.6937	-3.0812	-3.3833	-3.4771	-3.1042	-3.5083	-3.3479	-3.225	-3.6521	-3.15	-3.2792	-3.4875	-3.2083	388.790	288.364	299.461	498.890	186.097	192.914	474.689	405.651	264.480	413.384	495.429	154.774	198.501	193.583	144.502	150.335	0.00039286	0.00040871	8.7653e-05	1290.5	5.3909e-06	3.2859e-06	1358.6	262.31	3.3948e-06	2.6705e-06	329.22	91.677	72.527	20.369	4.376e-06	28.479	0.00038679	0.00044022	0.00012185	1279.6	5.4144e-06	4.428e-06	1342.5	260.66	4.409e-06	5.0099e-06	327.76	92.068	72.861	20.571	4.312e-06	28.951	282.144	228.140	278.475	154.202	296.943	290.442	154.277	161.969	302.337	296.618	160.920	167.745	167.767	174.927	318.856	174.656	-8191	255	
447.373	1	1	0	0	0.054857	0.1047	0.15079	0.11568	0.073973	0.26834	0.32008	0.22488	0.17694	0.14084	0.06996	0.085559	0.14801	0.25428	0.16297	0.19911	-2.9042	-3.1875	-2.9792	-3.65	-3.2333	-3.1437	-3.6604	-3.1104	-3.4562	-3.2479	-3.1937	-3.5833	-3.2687	-3.0146	-3.5312	-3.1271	378.051	399.641	449.407	401.885	199.037	450.716	416.091	388.606	193.215	168.502	284.334	428.370	392.176	453.314	372.474	312.287	0.00039273	0.00041139	7.5297e-05	1289.1	5.4312e-06	4.7069e-06	1351.1	262.48	4.2156e-06	3.1573e-06	328.5	92.154	72.902	20.137	5.5939e-06	28.478	0.00039442	0.00044295	0.00011837	1277.9	5.0246e-06	4.7969e-06	1341	260.26	4.5694e-06	4.6312e-06	327.51	91.994	72.794	20.51	4.4458e-06	28.969	283.565	244.701	242.973	154.341	306.217	298.086	154.327	161.599	310.240	290.505	160.903	167.486	167.878	175.034	300.702	174.181	-8191	255	
447.446	1	1	0	0	0.14918	0.18305	0.20846	0.057178	0.063171	0.025219	0.32441	0.18954	0.25935	0.35396	0.1101	0.32445	0.044169	0.21361	0.21392	0.14076	-2.9083	-3.4146	-3.0271	-3.5812	-3.1458	-3.0146	-3.7979	-3.0375	-3.3896	-3.5979	-3.1583	-3.6417	-3.3438	-3.1833	-3.4354	-3.0354	392.964	334.758	420.898	486.139	398.810	273.834	420.203	440.499	287.308	431.232	157.104	213.336	503.477	478.561	215.023	347.192	0.0003822	0.00028434	0.00010279	1284.6	4.5552e-06	2.3214e-06	1354.9	260.92	3.8655e-06	5.0448e-06	327.28	91.63	72.411	20.106	4.7085e-06	28.377	0.00039642	0.00039912	0.00011743	1274.8	4.8194e-06	4.877e-06	1339	259.57	4.5502e-06	4.7198e-06	327.23	91.852	72.466	20.463	4.2052e-06	28.851	278.151	218.552	247.747	154.182	302.835	312.057	154.351	161.626	335.579	293.524	161.253	167.884	168.191	175.483	314.040	174.542	-8191	255	
447.543	1	1	0	0	0.091223	0.18437	0.087925	0.26373	0.023162	0.20623	0.15625	0.17497	0.11395	0.28999	0.11996	0.24786	0.21134	0.11247	0.080527	0.1766	-2.6896	-3.4167	-2.9583	-3.7021	-3.3125	-3.1979	-3.6896	-3.1813	-3.275	-3.5792	-3.2938	-3.55	-3.3833	-2.9062	-3.6312	-3.2708	414.219	151.110	502.095	428.996	179.455	492.029	403.964	450.156	266.211	410.101	464.812	442.232	486.008	475.982	299.438	453.704	0.00040815	0.0001605	9.134e-05	1282.4	4.1844e-06	2.3358e-06	1349.4	260.61	3.6051e-06	3.3207e-06	325.75	91.72	72.542	20.158	3.3345e-06	28.315	0.00039276	0.00038728	0.00011524	1272.1	4.9814e-06	4.6095e-06	1336.2	259.24	4.4622e-06	4.619e-06	326.29	91.98	72.477	20.525	4.1762e-06	28.892	282.786	239.290	221.736	154.152	317.323	292.022	154.155	161.511	318.361	283.740	161.057	167.564	168.055	175.125	304.523	174.456	-8191	255	
447.639	1	1	0	0	0.081339	0.1343	0.2465	0.35952	0.25115	0.14862	0.22653	0.096809	0.13525	0.085891	0.24415	0.22478	0.23753	0.13995	0.159	0.073372	-2.9188	-3.6375	-3.1063	-3.525	-3.375	-3.1063	-3.5354	-3.4333	-3.1521	-3.6562	-3.2292	-3.5958	-3.5104	-3.1979	-3.5292	-3.3146	333.112	427.230	182.980	494.072	294.031	173.122	447.926	470.021	275.455	153.415	406.293	426.211	455.223	224.056	152.271	337.378	0.00038738	0.00016577	9.0242e-05	1280.2	4.7845e-06	1.998e-06	1351	260.55	4.0628e-06	4.1265e-06	326.55	91.768	72.154	20.291	3.9857e-06	28.579	0.00038987	0.00035064	0.00012057	1270.6	4.9112e-06	4.6331e-06	1335.6	259.02	4.7161e-06	4.7343e-06	325.91	91.807	72.493	20.48	4.5217e-06	28.882	280.895	227.215	232.822	154.263	297.859	330.636	154.316	161.805	321.111	290.544	161.026	167.866	168.273	174.973	306.965	174.351	-8191	255	
447.758	1	1	0	0	0.11948	0.12689	0.23086	0.091228	0.14142	0.057369	0.22021	0.053828	0.04109	0.10809	0.25951	0.098452	0.16084	0.28065	0.078606	0.26869	-2.5833	-3.5083	-3.0542	-3.2708	-3.5146	-3.2583	-3.6396	-3.4479	-3.1354	-3.6292	-3.1667	-3.3833	-3.4521	-3.1583	-3.5729	-3.3896	421.217	379.951	150.735	151.842	434.455	220.075	437.584	172.539	392.451	143.565	167.537	456.703	401.341	458.665	459.214	324.944	0.00040209	0.00022009	5.3047e-05	1282.8	4.0152e-06	3.3625e-06	1345.6	260.2	3.3383e-06	3.4261e-06	327.78	91.356	72.308	20.202	3.2594e-06	28.38	0.00039161	0.00041076	0.00011415	1271.5	4.8923e-06	4.7981e-06	1335.7	258.78	4.1212e-06	4.4394e-06	326.2	91.49	72.518	20.502	4.0674e-06	28.907	284.069	222.237	261.017	154.208	298.333	284.731	154.203	161.321	306.009	291.913	161.123	167.684	168.320	175.226	331.206	174.237	-8191	255	
447.854	1	1	0	0	0.16145	0.17006	0.33718	0.25551	0.26001	0.34754	0.19562	0.21683	0.13685	0.073153	0.15423	0.39869	0.056004	0.1229	0.12936	0.22572	-2.725	-3.4521	-3.1937	-3.3417	-3.6396	-3.0625	-3.5812	-3.3583	-3.1792	-3.4437	-3.2687	-3.2625	-3.4958	-3.0083	-3.3896	-3.4833	425.670	228.091	342.673	494.008	377.986	408.831	435.269	162.892	255.680	251.305	428.366	473.582	147.593	175.703	200.186	404.692	0.00042218	0.0003596	8.9962e-05	1281.7	5.2434e-06	2.2644e-06	1352.8	260.97	4.5722e-06	3.4926e-06	326.1	91.819	72.411	20.05	3.7059e-06	28.148	0.0004117	0.00037321	0.00011846	1271.2	4.5655e-06	4.6319e-06	1335.1	259.07	4.7005e-06	4.4005e-06	326.17	91.644	72.479	20.449	4.336e-06	28.759	281.613	238.796	226.866	154.322	300.878	295.916	154.372	161.510	314.621	297.859	160.788	167.789	168.061	175.071	319.771	174.262	-8191	255	
447.950	1	1	0	0	0.025621	0.13205	0.28083	0.078961	0.081563	0.061208	0.46905	0.16016	0.30269	0.16352	0.23963	0.10535	0.10631	0.33291	0.1772	0.087157	-2.6896	-3.4688	-3.1937	-3.2917	-3.6562	-3.0563	-3.3375	-3.5979	-2.9625	-3.4854	-3.3104	-3.3563	-3.5229	-3.325	-3.3542	-3.3333	145.669	346.525	188.899	438.456	160.466	435.149	415.596	458.162	266.595	153.307	214.123	438.468	476.225	502.039	357.021	180.282	0.00037773	0.00034472	9.5894e-05	1281	4.6069e-06	3.2421e-06	1348.8	259.73	3.6886e-06	3.7014e-06	326.51	91.548	71.994	20.199	3.7066e-06	28.25	0.0003923	0.00040752	0.00010988	1266.9	4.5709e-06	4.4963e-06	1333	258.26	4.7317e-06	4.358e-06	325.89	91.458	72.178	20.455	4.2391e-06	28.759	284.469	228.579	213.459	154.284	311.190	276.616	154.399	161.503	313.910	291.947	160.936	167.718	168.235	175.244	300.456	174.388	-8191	255	
448.046	1	1	0	0	0.18332	0.24243	0.041539	0.14705	0.020611	0.24345	0.3906	0.19108	0.06736	0.18579	0.021199	0.090193	0.15337	0.34029	0.070799	0.13076	-2.6667	-3.3479	-3.325	-3.2667	-3.5396	-3.2625	-3.4833	-3.4833	-2.9562	-3.4875	-3.3125	-3.0729	-3.7167	-3.325	-3.1458	-3.5229	151.594	459.295	235.937	466.827	154.495	156.351	464.016	466.767	391.419	467.608	362.524	360.351	486.047	284.567	452.481	238.484	0.00038501	0.00045244	0.0001005	1274.7	3.7862e-06	3.2195e-06	1341.7	258.42	5.2425e-06	2.4899e-06	325.95	90.614	72.125	20.182	4.5474e-06	28.393	0.0003943	0.00038465	0.0001086	1262.2	4.4845e-06	4.4527e-06	1328	257.35	4.684e-06	4.8812e-06	324.01	91.315	72.053	20.414	4.312e-06	28.783	282.681	215.123	249.643	154.325	299.358	277.345	154.388	161.571	313.356	287.596	161.027	167.779	167.811	174.948	311.027	174.849	-8191	255	
448.142	1	1	0	0	0.13044	0.17022	0.25446	0.37689	0.15291	0.056704	0.28212	0.13357	0.16638	0.11568	0.23157	0.27666	0.29622	0.16231	0.15617	0.29902	-2.6937	-3.2542	-3.1875	-2.9979	-3.4396	-3.0792	-3.2896	-3.6813	-2.9313	-3.325	-3.3354	-3.1188	-3.4458	-3.1646	-3.1312	-3.4833	255.041	148.082	394.736	454.455	449.348	257.045	398.967	341.088	158.996	495.671	166.994	360.547	470.839	155.835	354.384	451.850	0.0003724	0.00043622	8.2933e-05	1272.4	5.5139e-06	3.8268e-06	1341.8	258.39	4.2274e-06	2.2985e-06	323.97	90.275	71.821	19.926	3.4818e-06	28.013	0.00038999	0.00041157	0.0001054	1260	4.5637e-06	4.3726e-06	1327.7	257.31	4.5997e-06	4.6202e-06	323.98	90.875	71.931	20.266	4.0024e-06	28.61	280.188	226.860	230.800	154.276	294.410	284.979	154.226	161.768	320.427	299.643	161.323	167.791	167.930	175.199	305.652	174.188	-8191	255	
448.238	1	1	0	0	0.17278	0.10353	0.14112	0.12213	0.18235	0.096979	0.044826	0.21496	0.036775	0.07024	0.36669	0.13706	0.015404	0.1007	0.069481	0.051526	-2.6604	-3.3333	-3.4792	-3.0771	-3.2542	-3.225	-3.4083	-3.5875	-3.2104	-3.5187	-3.4604	-2.9417	-3.5583	-3.3771	-3.1979	-3.5417	296.850	197.673	193.126	393.444	308.948	386.476	459.995	445.505	217.923	196.055	484.964	442.160	242.952	496.492	215.402	242.340	0.00038818	0.00046064	7.8749e-05	1265.8	4.6206e-06	3.7242e-06	1331.8	258.3	3.0584e-06	2.5214e-06	323.24	90.589	71.712	19.907	2.4782e-06	28.138	0.00038029	0.00039983	0.00010577	1250.1	4.3972e-06	3.8858e-06	1316.6	256.08	4.4649e-06	4.4879e-06	322.69	90.721	71.697	20.231	4.0833e-06	28.507	283.964	243.632	253.220	154.368	311.354	285.935	154.338	161.743	330.537	260.279	161.083	167.898	168.050	174.872	292.615	174.394	-8191	255	
448.359	1	1	0	0	0.32207	0.2357	0.11903	0.10329	0.11406	0.070008	0.26178	0.31955	0.083923	0.029191	0.095755	0.17481	0.15859	0.20782	0.11361	0.090273	-2.6562	-3.2125	-3.4188	-3.1833	-3.4062	-3.4437	-3.1562	-3.5542	-3.2229	-3.1	-3.6958	-3.1771	-3.1271	-3.2521	-2.9396	-3.6125	293.206	462.258	160.736	425.958	367.243	451.625	476.186	479.288	244.708	252.907	278.093	153.888	451.572	496.990	501.509	230.851	0.00038297	0.00027745	9.816e-05	1256.2	3.0004e-06	3.3905e-06	1324.3	255.84	3.3813e-06	2.9419e-06	320.54	89.872	71.087	19.87	3.762e-06	27.881	0.00037536	0.00036177	0.00010543	1241.8	4.2649e-06	4.0544e-06	1308.9	253.88	4.1386e-06	4.1808e-06	320.41	90.057	71.122	20.123	3.7398e-06	28.457	280.579	243.584	215.294	154.262	292.618	298.606	154.447	161.636	316.298	276.523	160.925	167.871	168.267	175.212	331.405	174.534	-8191	255	
448.453	1	1	0	0	0.24962	0.27128	0.16013	0.21854	0.24585	0.1487	0.42483	0.11801	0.14911	0.13836	0.025753	0.038697	0.2777	0.17472	0.10979	0.12622	-2.8625	-3.0604	-3.425	-3.1083	-3.4562	-3.5625	-3.2458	-3.575	-3.25	-3.0687	-3.6	-3.2167	-3.4021	-3.3812	-2.9458	-3.5021	447.915	475.539	401.725	359.998	437.703	362.733	462.092	247.371	186.119	305.036	445.409	307.232	442.825	427.251	473.574	144.411	0.00036685	0.00027551	8.0896e-05	1244.6	3.9651e-06	3.3134e-06	1317	255.44	3.102e-06	3.643e-06	319.65	89.612	71.072	19.749	4.3506e-06	27.987	0.00037536	0.00035661	0.0001025	1236.8	4.327e-06	3.9165e-06	1302.5	253.45	4.2724e-06	3.8907e-06	319.27	89.969	71.109	20.142	4.1213e-06	28.385	283.620	216.792	253.560	154.441	300.954	298.333	154.427	161.771	323.632	295.150	161.491	167.839	168.216	174.779	323.228	174.690	-8191	255	
448.550	1	1	0	0	0.06614	0.08052	0.073532	0.053554	0.12795	0.23642	0.2015	0.039816	0.20525	0.020919	0.18651	0.27108	0.2809	0.0634	0.060188	0.15195	-3.0354	-3.0917	-3.5979	-3.0792	-3.3167	-3.4646	-3.1271	-3.6896	-3.3646	-3.1708	-3.5042	-3.3542	-3.3229	-3.4833	-3.2271	-3.3083	368.289	265.808	149.300	465.657	442.646	299.557	200.675	283.539	224.564	196.924	144.217	372.698	169.590	237.052	438.778	460.058	0.00037995	0.00035062	0.00011389	1243.3	5.2855e-06	3.4327e-06	1307.6	254.67	4.9429e-06	2.9101e-06	317.98	89.736	71.058	19.757	3.2842e-06	27.921	0.00035823	0.00037685	0.00010372	1231.6	4.4719e-06	3.8281e-06	1296.5	252.6	3.8123e-06	4.0946e-06	318.87	89.611	70.812	20.025	3.9715e-06	28.318	283.029	229.860	239.168	154.229	311.955	319.538	154.352	161.802	315.450	308.793	161.551	167.837	168.394	174.902	305.023	174.216	-8191	255	
448.647	1	1	0	0	0.05675	0.18288	0.0979	0.21524	0.25401	0.16248	0.23667	0.30933	0.25398	0.18	0.095708	0.35986	0.10527	0.15622	0.11164	0.15077	-2.9729	-2.9396	-3.5521	-3.4	-3.075	-3.6021	-3.325	-3.3854	-3.3937	-3.1437	-3.5375	-3.3396	-3.3063	-3.725	-3.1667	-3.5333	484.490	337.038	376.733	412.000	154.908	419.558	471.208	474.037	154.028	259.904	167.577	171.518	381.131	442.647	153.187	348.726	0.0003828	0.00021489	0.00010855	1238.8	4.9118e-06	2.4636e-06	1302.9	253.95	4.4578e-06	3.7086e-06	316.21	89.296	70.225	19.593	2.9986e-06	27.8	0.00035473	0.00036815	9.443e-05	1224.6	4.2865e-06	3.7208e-06	1288	251.3	4.0781e-06	4.2512e-06	317.18	89.477	70.344	19.963	4.0823e-06	28.251	281.315	221.832	261.497	154.249	302.771	317.352	154.263	161.935	313.368	298.613	161.267	167.834	168.155	175.023	294.052	174.886	-8191	255	
448.742	1	1	0	0	0.054962	0.11131	0.17604	0.18954	0.053821	0.13446	0.20372	0.061201	0.29566	0.098915	0.32403	0.29817	0.08849	0.25606	0.25935	0.064168	-3.0604	-2.8875	-3.4542	-3.4167	-3.1583	-3.4	-3.3375	-3.2333	-3.3104	-3.2229	-3.6188	-3.4813	-3.1458	-3.5646	-3.0021	-3.4562	183.493	317.092	214.901	379.886	236.211	428.266	406.320	411.844	417.770	492.116	467.698	495.225	476.324	180.525	274.302	401.958	0.00039566	0.00041901	6.1025e-05	1229.7	5.235e-06	2.9845e-06	1303.1	251.39	3.699e-06	4.8769e-06	315.39	88.81	70.686	19.642	3.2915e-06	27.826	0.00036351	0.00041016	9.5399e-05	1219.5	4.5304e-06	3.4863e-06	1285.8	250.23	3.8315e-06	4.2779e-06	316.72	89.265	70.503	19.947	3.6549e-06	28.181	282.973	236.838	224.778	154.359	296.877	303.364	154.376	161.728	313.017	297.676	161.409	167.929	168.324	175.444	304.777	174.578	-8191	255	
448.838	1	1	0	0	0.30247	0.1444	0.29153	0.024065	0.15217	0.13954	0.19647	0.20964	0.036901	0.22662	0.24249	0.1467	0.064085	0.14717	0.10788	0.19699	-3.0479	-2.9375	-3.35	-3.5563	-3.05	-3.6042	-3.3583	-3.2542	-3.4625	-3.1229	-3.6021	-3.4208	-3.1833	-3.4833	-3.2729	-3.2687	366.866	430.348	349.213	296.260	300.329	356.771	305.700	360.445	225.121	302.565	463.727	410.975	467.123	449.871	274.641	464.749	0.0003923	0.00026727	9.4418e-05	1226.6	4.5087e-06	3.9306e-06	1302.7	251.46	3.249e-06	3.9589e-06	315.56	89.575	70.306	19.762	2.6053e-06	27.623	0.0003627	0.00036987	9.3147e-05	1216.9	4.4314e-06	3.7904e-06	1285.2	250.23	3.8196e-06	3.9562e-06	315.93	89.435	70.328	19.973	3.635e-06	28.17	283.076	236.576	226.418	154.278	291.841	277.907	154.394	162.022	324.845	308.638	161.216	167.609	168.386	175.127	321.499	174.737	-8191	255	
448.934	1	1	0	0	0.13827	0.16919	0.42221	0.19919	0.1608	0.14751	0.21165	0.13583	0.086817	0.20844	0.13869	0.20079	0.14685	0.11462	0.0048546	0.1726	-3.0687	-3.1042	-3.2687	-3.6125	-3.0354	-3.6521	-3.4437	-3.3167	-3.5438	-2.9167	-3.4771	-3.4917	-3.1583	-3.6021	-3.3563	-3.1937	149.227	251.245	386.443	465.070	270.249	242.052	431.357	324.803	404.867	262.426	474.096	381.995	469.326	391.071	372.943	161.510	0.00037657	0.00042822	7.7491e-05	1231.7	4.0728e-06	3.0954e-06	1297.4	251.38	4.4489e-06	4.6213e-06	316.02	89.034	70.477	19.753	3.3108e-06	27.653	0.00036216	0.00036744	0.00010019	1216.9	4.399e-06	3.8469e-06	1282.6	250.6	3.9232e-06	4.1929e-06	316.62	89.265	70.357	19.956	3.5351e-06	28.166	283.467	224.776	244.834	154.357	302.844	303.870	154.274	161.535	308.227	314.133	161.129	167.986	168.176	175.245	293.836	174.517	-8191	255	
449.030	1	1	0	0	0.075739	0.19606	0.13021	0.14315	0.11609	0.2347	0.30821	0.1276	0.14269	0.014212	0.03573	0.21644	0.085755	0.10061	0.07574	0.15785	-3.1896	-3.1646	-3.2271	-3.5	-2.975	-3.4167	-3.4146	-3.2458	-3.7042	-3.3042	-3.2667	-3.5438	-3.1958	-3.2792	-3.2313	-3.0771	480.920	324.934	462.921	145.235	324.479	350.418	420.167	452.711	223.173	222.055	252.560	408.498	398.953	489.065	321.402	327.463	0.00035573	0.00029124	6.5158e-05	1234.9	5.1245e-06	3.7431e-06	1301.5	253.1	3.5346e-06	4.2251e-06	316.45	89.39	70.544	19.655	2.7653e-06	27.755	0.00035011	0.00039578	9.4544e-05	1220.4	4.4278e-06	3.8293e-06	1287.2	251.01	4.0488e-06	4.3726e-06	316.16	89.383	70.477	19.968	3.8856e-06	28.147	282.985	218.636	249.512	154.564	296.300	300.615	154.372	161.734	303.257	297.533	161.386	167.971	167.867	175.055	291.015	174.482	-8191	255	
449.151	1	1	0	0	0.39007	0.10513	0.21844	0.22396	0.045959	0.059318	0.025123	0.56796	0.1836	0.23544	0.2669	0.10026	0.17679	0.19952	0.23625	0.14005	-3.2438	-3.1646	-3.3042	-3.7438	-3.0208	-3.3708	-3.625	-3.1375	-3.4292	-3.3542	-3.5521	-3.5646	-3.0729	-3.5667	-3.4646	-3.0312	380.980	414.250	438.898	485.786	332.706	273.660	386.274	437.211	405.958	203.977	423.983	172.913	167.614	390.193	229.564	376.347	0.00036065	0.00024453	6.4001e-05	1232.4	4.5848e-06	3.6897e-06	1303.4	252.03	3.627e-06	3.5287e-06	318.71	89.359	70.439	19.59	3.6397e-06	27.956	0.00036278	0.000356	9.9275e-05	1222.5	4.5367e-06	4.2783e-06	1289	251.06	4.3806e-06	4.4782e-06	317.02	89.386	70.544	19.938	4.0004e-06	28.241	281.323	229.820	232.204	154.228	303.645	297.146	154.158	161.908	315.155	290.141	161.133	167.560	168.100	174.971	312.705	174.425	-8191	255	
449.247	1	1	0	0	0.038041	0.14277	0.154	0.23605	0.021448	0.21252	0.50448	0.22551	0.25878	0.11255	0.17714	0.060125	0.20817	0.13793	0.23636	0.11511	-3.1063	-3.2083	-3.0521	-3.7021	-3.0667	-3.4729	-3.5917	-3.0417	-3.3833	-3.2708	-3.25	-3.4625	-3.0333	-3.2917	-3.5833	-3.0438	331.332	476.384	145.375	162.173	188.208	375.821	449.991	438.276	466.015	422.027	149.665	243.123	461.571	189.654	337.468	265.853	0.00037482	0.00038231	9.7412e-05	1237.7	3.8962e-06	2.7417e-06	1305.7	253.6	2.7259e-06	2.6688e-06	316.35	89.027	71.014	19.626	1.6804e-06	27.757	0.00036278	0.00037129	0.00010931	1224.6	4.2235e-06	3.8104e-06	1290.4	251.6	3.9672e-06	4.2779e-06	316.33	89.388	70.679	19.944	3.4223e-06	28.213	284.200	235.538	231.937	154.261	297.111	293.612	154.336	161.893	317.185	293.702	161.313	167.785	168.143	175.424	316.273	174.650	-8191	255	
449.319	1	1	0	0	0.14974	0.1217	0.13758	0.15754	0.099047	0.17053	0.19899	0.32205	0.24396	0.25909	0.11122	0.065084	0.16673	0.18885	0.18398	0.055512	-2.9813	-3.2396	-3.0458	-3.7021	-3.1583	-3.2438	-3.5771	-3.2917	-3.3146	-3.3458	-3.2562	-3.6	-3.225	-3.2396	-3.4354	-3.0854	343.310	367.510	373.583	157.894	214.553	170.559	452.661	439.523	407.973	164.081	168.392	425.105	479.190	318.472	404.221	312.940	0.00039324	0.00029187	9.2371e-05	1229.4	4.2637e-06	3.0297e-06	1307.6	252.08	2.3498e-06	3.3536e-06	316.42	89.123	70.193	19.632	3.5133e-06	27.713	0.00036859	0.0003391	9.9817e-05	1219.4	4.1182e-06	3.5747e-06	1287.4	250.67	3.7417e-06	4.0436e-06	316.49	89.342	70.361	19.918	3.6929e-06	28.242	282.886	242.243	245.189	154.666	294.992	290.459	154.498	161.730	324.714	293.125	161.357	167.884	167.939	175.175	310.739	174.331	-8191	255	
449.439	1	1	0	0	0.24192	0.11251	0.17941	0.34139	0.12026	0.021386	0.11371	0.075907	0.12331	0.14965	0.11785	0.092659	0.21155	0.099748	0.15461	0.086739	-3.0563	-3.2917	-3.1354	-3.6063	-3.3521	-3.1042	-3.8208	-3.2375	-3.3958	-3.475	-3.1417	-3.5021	-3.1312	-3.1271	-3.5062	-3.1188	246.964	396.849	466.468	472.759	190.985	319.472	468.084	440.882	199.235	421.779	386.045	375.681	213.911	251.481	227.220	453.701	0.00037329	0.00034534	8.8261e-05	1237.1	4.4719e-06	3.2671e-06	1305.4	254.26	4.8133e-06	3.2689e-06	315.28	89.42	70.828	19.695	4.2647e-06	27.777	0.00036759	0.00033788	0.00010039	1223.5	4.4242e-06	4.1699e-06	1290.2	251.16	4.1725e-06	3.9914e-06	316.31	89.525	70.651	20.001	3.9096e-06	28.27	283.304	231.617	227.655	154.392	294.011	306.942	154.275	161.785	320.034	285.077	161.206	167.969	167.993	175.602	326.978	174.128	-8191	255	
449.536	1	1	0	0	0.13353	0.044076	0.21744	0.18142	0.31193	0.081368	0.06931	0.068282	0.16588	0.15249	0.25166	0.16399	0.07215	0.087237	0.13303	0.24361	-2.9938	-3.3292	-3.1813	-3.6271	-3.3312	-3.1542	-3.5667	-3.3146	-3.3104	-3.5312	-3.0771	-3.6562	-3.2812	-3.0979	-3.5625	-3.1937	172.268	216.382	387.185	426.066	172.189	324.701	258.641	372.445	375.691	352.833	376.876	302.021	317.783	484.530	378.466	442.045	0.00036392	0.00026851	0.00011503	1238.7	4.2649e-06	2.539e-06	1309.3	253.14	4.3003e-06	2.7433e-06	318.35	89.737	70.418	19.68	4.0925e-06	27.934	0.00036928	0.00039133	0.00011056	1227.8	4.5124e-06	4.6154e-06	1297.5	252.09	4.5493e-06	4.3168e-06	317.4	89.92	70.775	20.057	4.1103e-06	28.378	282.636	214.652	231.899	154.279	278.143	287.524	154.227	161.648	312.658	316.747	161.099	167.532	168.256	174.909	326.815	174.584	-8191	255	
449.630	1	1	0	0	0.12501	0.18789	0.08796	0.13641	0.04491	0.12644	0.36184	0.13748	0.32779	0.12889	0.060509	0.16742	0.142	0.067616	0.084802	0.11549	-2.875	-3.3688	-2.9229	-3.4562	-3.4062	-3.0625	-3.4188	-3.2917	-3.1	-3.4792	-3.0771	-3.4229	-3.4833	-3.1729	-3.6625	-3.3208	444.572	299.889	449.252	149.914	465.898	375.599	429.103	482.972	402.041	196.824	247.727	433.299	500.698	413.391	165.801	181.973	0.00037346	0.00026018	9.2546e-05	1246.5	5.4277e-06	3.1821e-06	1317.2	253.48	3.6288e-06	2.7843e-06	319.03	89.984	71.174	19.754	3.258e-06	27.962	0.00038295	0.00040256	0.00011797	1231.9	4.8257e-06	4.5906e-06	1299.1	252.56	4.2037e-06	4.2852e-06	319.11	89.926	71.067	20.116	3.9575e-06	28.432	279.856	209.703	235.943	154.312	296.611	312.057	154.174	161.790	334.336	278.458	161.301	167.646	167.898	174.965	305.867	174.522	-8191	255	
449.728	1	1	0	0	0.16859	0.28822	0.052185	0.31073	0.15222	0.02761	0.067647	0.41319	0.31003	0.19108	0.12409	0.2711	0.065675	0.15635	0.22626	0.22438	-2.8771	-3.3167	-2.9458	-3.3937	-3.3958	-3.1396	-3.6354	-3.3583	-3.1417	-3.5229	-3.2417	-3.5417	-3.3312	-3.0396	-3.3	-3.4083	352.862	411.342	234.400	472.184	322.037	226.005	471.653	456.244	330.755	224.189	397.260	222.679	344.682	323.442	448.729	361.086	0.00038952	0.00020715	7.393e-05	1245.1	4.0182e-06	2.2492e-06	1316.2	255.64	4.4611e-06	1.5328e-06	321.05	90.347	70.867	19.993	3.5862e-06	28.023	0.00038129	0.00037564	0.00011333	1235.1	4.687e-06	4.7757e-06	1303.9	253.68	4.5025e-06	4.5231e-06	320.3	90.451	71.139	20.216	4.0684e-06	28.554	282.867	233.166	241.414	154.411	304.212	311.341	154.535	161.732	314.113	287.431	161.181	167.783	168.030	175.131	298.943	174.333	-8191	255	
449.847	1	1	0	0	0.19741	0.065771	0.25605	0.31072	0.30547	0.081492	0.12174	0.05396	0.12232	0.2288	0.35315	0.13278	0.1283	0.18442	0.091554	0.1015	-2.6312	-3.5417	-3.075	-3.5521	-3.4292	-3.0042	-3.8	-3.1917	-3.225	-3.4292	-3.2167	-3.3333	-3.5729	-3.0583	-3.3354	-3.425	257.737	166.120	329.634	462.296	263.840	423.720	475.054	357.231	169.972	244.916	478.353	416.848	502.807	156.042	343.798	321.534	0.00038236	0.00025245	6.8645e-05	1261.5	3.4202e-06	3.8496e-06	1318.2	255.53	3.3197e-06	3.7487e-06	321.68	90.618	71.967	19.87	4.9307e-06	27.907	0.00039176	0.00041016	0.0001172	1244.1	4.7267e-06	4.7285e-06	1306.5	254.19	4.2651e-06	4.4903e-06	320.23	90.235	71.481	20.202	4.0903e-06	28.49	277.763	207.067	212.692	154.199	285.467	287.050	154.270	161.620	337.059	306.694	161.049	167.635	167.749	174.973	302.271	174.099	-8191	255	
449.943	1	1	0	0	0.075196	0.1159	0.20502	0.11762	0.081196	0.26522	0.19826	0.21499	0.17496	0.1682	0.31126	0.20901	0.14747	0.099289	0.29538	0.23813	-2.7062	-3.6167	-3.2604	-3.4104	-3.5292	-3.0583	-3.6229	-3.5542	-3.2062	-3.6667	-3.3083	-3.3083	-3.725	-3.1917	-3.3021	-3.4229	208.947	316.221	379.093	491.492	396.992	337.629	456.170	182.833	165.318	304.918	489.280	207.880	322.581	333.154	237.003	470.631	0.00039796	0.00045895	7.741e-05	1253	3.8134e-06	3.1065e-06	1321	256.3	3.5351e-06	3.6248e-06	319.22	89.924	71.438	19.893	3.9704e-06	28.107	0.00038495	0.00036815	9.9845e-05	1239.2	4.5169e-06	4.4751e-06	1302.6	253.42	4.3302e-06	4.301e-06	318.68	90.104	71.322	20.171	3.9945e-06	28.519	282.190	251.261	254.506	154.333	294.812	310.485	154.246	161.779	335.767	293.543	160.912	167.761	168.410	174.995	300.340	174.260	-8191	255	
450.039	1	1	0	0	0.21252	0.22424	0.069638	0.12533	0.2178	0.085605	0.24282	0.34651	0.20452	0.11483	0.21128	0.14452	0.29541	0.2403	0.19323	0.25908	-2.8625	-3.4	-3.2792	-3.1375	-3.6521	-3.1292	-3.5729	-3.6083	-3.0417	-3.4625	-3.4208	-2.9958	-3.6229	-3.3146	-3.5667	-3.6396	336.728	232.678	482.022	477.636	456.702	219.716	438.590	449.804	458.008	397.011	475.856	402.077	490.249	497.033	271.984	451.928	0.000392	0.00033997	9.0564e-05	1245.7	5.0772e-06	3.9075e-06	1312.3	256.05	4.2263e-06	1.2716e-06	319.21	89.669	71.138	19.691	2.5207e-06	27.876	0.00038183	0.00035539	0.00010708	1234.5	4.3594e-06	4.4292e-06	1298.7	253.29	4.1771e-06	4.233e-06	319.35	89.871	71.1	20.111	3.9765e-06	28.463	284.731	219.601	245.904	154.373	298.597	297.675	154.244	162.044	328.538	274.704	161.102	168.125	168.133	174.941	312.841	174.127	-8191	255	
450.135	1	1	0	0	0.16415	0.14237	0.13275	0.20935	0.13449	0.07786	0.36105	0.1045	0.13152	0.14593	0.23706	0.10289	0.071084	0.22026	0.26691	0.15501	-2.6167	-3.3625	-3.4313	-3.1458	-3.4771	-3.2687	-3.2917	-3.4833	-3.1792	-3.4729	-3.4208	-3.0062	-3.5458	-3.225	-3.0854	-3.7125	496.975	343.017	349.879	417.743	363.230	345.670	435.324	326.443	294.403	185.689	410.868	238.193	164.882	432.780	317.055	181.802	0.000404	0.00024361	7.3857e-05	1242.5	4.8127e-06	3.0634e-06	1310.4	253.3	4.6519e-06	4.6133e-06	317.8	89.664	70.701	19.843	3.0989e-06	28.195	0.00038841	0.00036683	9.7052e-05	1231.3	4.5736e-06	4.2854e-06	1298.4	252.7	4.4164e-06	3.8057e-06	319.08	90.123	71.174	20.151	4.1293e-06	28.546	281.948	231.133	235.817	154.440	308.595	322.205	154.478	161.556	317.093	283.654	160.899	167.614	168.144	175.023	321.885	174.539	-8191	255	
450.231	1	1	0	0	0.23462	0.22085	0.11774	0.083885	0.07924	0.10782	0.10586	0.35142	0.002451	0.1733	0.19931	0.21532	0.086092	0.27775	0.2066	0.12131	-2.6813	-3.3187	-3.3521	-3.1771	-3.4521	-3.3125	-3.2812	-3.6958	-3.1437	-3.2708	-3.5021	-3.1021	-3.5646	-3.2938	-3.1396	-3.6542	317.851	192.343	479.882	153.175	255.333	446.558	462.010	466.365	429.144	250.523	186.484	457.983	337.068	463.013	456.070	291.257	0.00038907	0.00036155	0.00011562	1242.9	5.284e-06	2.625e-06	1307.8	253.46	3.7521e-06	3.7514e-06	317.81	89.706	71.519	19.867	2.7602e-06	27.982	0.00038518	0.00038141	0.00010079	1231.1	4.1506e-06	3.7373e-06	1295.5	252.58	3.7985e-06	4.0715e-06	317.98	89.887	71.082	20.118	3.9365e-06	28.461	281.260	221.760	246.930	154.710	289.320	308.512	154.476	161.852	321.888	291.681	161.016	167.939	168.107	175.218	303.993	174.541	-8191	255	
450.327	1	1	0	0	0.17062	0.14078	0.2494	0.19969	0.16189	0.22562	0.16951	0.08098	0.099458	0.20676	0.16965	0.18195	0.18032	0.045794	0.12827	0.18891	-2.9146	-3.3187	-3.3979	-3.0958	-3.3646	-3.2958	-3.2792	-3.7	-3.0292	-3.2729	-3.5438	-3.2271	-3.4333	-3.4375	-3.1458	-3.6542	285.860	491.739	492.609	496.206	488.964	253.130	433.780	403.796	332.239	378.817	427.874	406.090	451.609	465.785	428.071	167.698	0.0004095	0.00048537	5.9326e-05	1237.9	4.6078e-06	2.7602e-06	1306.7	253.15	4.222e-06	3.8796e-06	318.24	90.097	70.643	19.686	4.5372e-06	28.088	0.00038225	0.00037199	9.8449e-05	1229.3	4.2289e-06	3.9471e-06	1294.2	252.29	4.2257e-06	4.2233e-06	318.19	89.912	70.905	20.098	4.328e-06	28.558	281.179	225.035	238.669	154.464	302.821	277.194	154.271	161.721	316.263	303.160	161.204	167.731	168.399	175.102	304.633	174.287	-8191	255	
450.448	1	1	0	0	0.24492	0.15732	0.30023	0.089544	0.22074	0.10399	0.30644	0.12025	0.042756	0.14576	0.18757	0.19788	0.19758	0.093385	0.25429	0.16524	-2.7812	-3.0938	-3.4958	-3.2062	-3.4896	-3.55	-3.4125	-3.4854	-3.1937	-3.175	-3.6542	-3.2125	-3.3854	-3.3063	-3.0417	-3.3937	192.587	374.796	378.568	427.241	264.935	207.031	410.018	466.559	210.864	446.430	157.142	394.873	288.102	477.676	431.150	499.261	0.00036411	0.00035531	0.00010917	1233.6	4.658e-06	2.974e-06	1306.1	254.08	3.5336e-06	3.5538e-06	317.54	89.667	71.051	19.783	3.7507e-06	27.818	0.00037059	0.00036147	0.00010107	1227.8	4.2154e-06	4.2936e-06	1293.2	252.47	4.09e-06	4.3556e-06	318.08	89.674	70.942	20.093	4.0753e-06	28.41	281.286	229.011	231.065	154.249	309.750	331.918	154.426	161.711	314.692	295.726	161.193	167.848	168.383	175.007	309.415	174.823	-8191	255	
450.543	1	1	0	0	0.18576	0.035656	0.12296	0.24133	0.046202	0.17331	0.25982	0.38069	0.47259	0.10723	0.23998	0.35466	0.22594	0.05982	0.13597	0.13405	-2.7313	-2.9875	-3.5208	-3.3896	-3.2667	-3.4396	-3.3646	-3.675	-3.2292	-3.1229	-3.7167	-3.0375	-3.3708	-3.4188	-3.075	-3.6208	488.633	197.899	345.341	480.817	468.600	424.155	403.058	488.675	413.399	220.007	348.513	426.164	484.118	152.639	383.479	471.542	0.00037645	0.0004309	6.1101e-05	1240.6	4.7297e-06	4.2211e-06	1303.6	254.1	4.3836e-06	3.7532e-06	317.93	89.485	70.411	19.705	4.1921e-06	27.953	0.0003657	0.00036865	9.5627e-05	1226.3	4.3342e-06	3.867e-06	1289.1	252.02	4.0295e-06	4.4102e-06	317.84	89.737	70.662	20.068	4.0344e-06	28.442	280.843	227.452	234.200	154.217	309.320	288.772	154.513	162.001	324.946	312.905	161.343	168.104	168.209	174.764	313.985	174.351	-8191	255	
450.616	1	1	0	0	0.052693	0.13684	0.15965	0.088431	0.28083	0.037615	0.15098	0.0223	0.10398	0.25113	0.15533	0.2197	0.04786	0.36954	0.13944	0.14312	-2.9854	-3.1604	-3.5271	-3.4062	-3.3063	-3.5354	-3.2875	-3.4646	-3.3375	-3.1521	-3.4354	-3.1146	-3.2604	-3.675	-3.0271	-3.3208	166.300	260.485	285.016	376.747	167.428	402.847	357.383	314.230	282.099	441.741	211.273	214.029	204.731	469.972	371.815	439.276	0.00036703	0.00032322	9.6963e-05	1234.5	3.6966e-06	3.0136e-06	1305.9	253.66	3.3563e-06	3.7723e-06	316.82	90.085	70.707	19.835	3.7845e-06	28.033	0.00035989	0.00036015	9.5798e-05	1223.4	4.444e-06	3.6642e-06	1289.5	252.05	4.0075e-06	4.443e-06	317.28	89.859	70.716	20.077	3.8966e-06	28.392	279.451	238.512	241.271	154.280	313.968	298.175	154.386	161.969	301.645	322.966	161.047	167.742	168.010	175.275	322.047	174.805	-8191	255	
450.710	1	1	0	0	0.23803	0.11336	0.12641	0.1084	0.30962	0.098047	0.3096	0.28782	0.24989	0.15317	0.30071	0.19224	0.26033	0.16971	0.048127	0.16545	-3.0042	-2.9333	-3.5271	-3.4313	-3.1083	-3.575	-3.2646	-3.3479	-3.2458	-3	-3.5771	-3.1958	-3.1583	-3.5229	-3.2542	-3.3208	208.865	255.282	257.138	160.576	176.922	349.153	447.214	441.837	413.233	215.202	400.251	470.748	490.559	398.147	408.340	201.253	0.00036927	0.00041732	7.263e-05	1236.2	3.8955e-06	3.7904e-06	1298.7	253.14	3.6402e-06	3.036e-06	318.99	89.292	70.709	19.729	3.2798e-06	28.065	0.00035211	0.00038627	0.00010366	1222.3	4.3315e-06	3.577e-06	1287.3	251.51	4.0185e-06	4.0509e-06	317.42	89.66	70.692	19.994	3.9705e-06	28.441	279.363	236.188	245.945	154.517	313.143	286.800	154.461	161.778	309.233	293.375	161.274	167.845	168.055	174.975	322.823	174.399	-8191	255	
450.831	1	1	0	0	0.19227	0.24605	0.10353	0.13417	0.12445	0.13911	0.29809	0.052598	0.075991	0.2354	0.027983	0.21225	0.17756	0.28849	0.16528	0.19554	-3.1042	-3.0563	-3.4083	-3.4792	-3.1104	-3.5375	-3.3729	-3.45	-3.4479	-3.0146	-3.6688	-3.5333	-3.1042	-3.4417	-3.3167	-3.3063	206.120	198.268	415.113	426.565	413.023	429.769	460.779	428.636	370.862	422.822	449.751	428.397	435.595	253.643	388.563	390.578	0.00040256	0.00032461	6.5084e-05	1234.9	4.4492e-06	3.0951e-06	1303.8	253.78	4.2237e-06	2.8842e-06	317.2	89.159	70.321	19.637	3.7561e-06	27.682	0.00036505	0.00037483	9.7023e-05	1223.4	4.4638e-06	3.7715e-06	1289	251.73	4.0662e-06	4.2354e-06	316.83	89.43	70.754	20.014	3.9745e-06	28.391	280.655	225.267	257.026	154.192	303.555	306.786	154.231	161.974	335.130	308.625	161.027	167.851	168.056	175.273	291.913	174.166	-8191	255	
450.927	1	1	0	0	0.2828	0.05472	0.049015	0.45432	0.12718	0.098254	0.3127	0.33654	0.18248	0.14121	0.12864	0.17811	0.17491	0.13013	0.10426	0.0446	-3.0563	-2.9917	-3.3708	-3.4875	-3.0563	-3.575	-3.3854	-3.3833	-3.4396	-3.1604	-3.5625	-3.4792	-3.2333	-3.6042	-3.4062	-3.2229	342.780	476.145	221.352	443.234	463.225	218.245	473.122	415.429	365.519	237.121	328.560	210.400	381.022	492.717	365.170	336.856	0.00039678	0.00027698	0.00010133	1237	4.1239e-06	3.689e-06	1307.2	253.57	3.8312e-06	2.894e-06	316.2	89.534	70.618	19.562	2.9749e-06	27.871	0.00036131	0.00035276	0.00010848	1223.4	4.5826e-06	4.0473e-06	1289.6	251.87	3.8856e-06	4.3301e-06	316.99	89.704	70.72	20.002	3.7618e-06	28.405	281.373	245.257	222.284	154.496	296.703	308.285	154.328	161.692	327.930	275.830	161.555	167.792	168.399	175.225	309.796	174.497	-8191	255	
451.023	1	1	0	0	0.15669	0.35324	0.20682	0.16054	0.20067	0.10638	0.20038	0.089114	0.10276	0.28891	0.13816	0.012797	0.12813	0.11273	0.12579	0.16283	-3.2167	-3.3104	-3.3417	-3.6646	-3.0938	-3.4708	-3.4229	-3.0583	-3.4938	-3.3	-3.3375	-3.4708	-3.1125	-3.4604	-3.325	-3.2667	190.962	266.530	278.450	365.653	495.646	299.251	458.447	452.006	293.007	256.051	146.577	317.871	492.023	398.080	157.919	231.011	0.00039988	0.00033796	7.9865e-05	1237.2	3.7083e-06	2.3835e-06	1296.2	253.27	4.4804e-06	2.5219e-06	316	89.703	71.172	19.746	3.8149e-06	28.163	0.0003555	0.00037301	9.9646e-05	1222.2	4.4674e-06	3.5841e-06	1286.7	251.42	3.7545e-06	3.8166e-06	317.24	89.692	70.821	20.063	3.7518e-06	28.488	283.845	236.352	257.385	154.474	291.287	321.273	154.524	161.847	320.200	291.578	161.126	168.304	168.064	175.383	294.126	174.679	-8191	255	
451.119	1	1	0	0	0.03943	0.21056	0.15859	0.21317	0.21411	0.25855	0.07225	0.077434	0.12502	0.15651	0.12226	0.32729	0.11422	0.37612	0.062967	0.20627	-3.1771	-3.0167	-3.1021	-3.5938	-3.1229	-3.3667	-3.5917	-3.0458	-3.4854	-3.1542	-3.2938	-3.5708	-3.1542	-3.5438	-3.4896	-3.1292	318.010	443.393	395.896	156.925	232.411	216.639	152.763	415.754	427.251	411.796	427.947	421.436	414.427	457.996	499.411	475.039	0.00038521	0.00040605	7.6704e-05	1230.4	4.2824e-06	2.2503e-06	1295.9	253.19	3.3173e-06	5.2185e-06	317.51	89.726	70.866	19.684	3.236e-06	27.992	0.00035881	0.00037038	9.6368e-05	1220	4.6249e-06	3.9506e-06	1286.2	252	3.8105e-06	4.1407e-06	317.56	89.661	70.668	20.039	3.8057e-06	28.428	282.374	226.784	243.676	154.466	283.565	277.106	154.512	161.968	318.602	294.426	161.228	167.263	168.050	175.432	318.978	174.830	-8191	255	
451.216	1	1	0	0	0.16218	0.15495	0.31994	0.16383	0.044129	0.058139	0.26904	0.27103	0.20917	0.06601	0.19355	0.20929	0.088972	0.30772	0.1996	0.0087086	-3.1417	-3.2229	-3.2104	-3.7917	-2.8896	-3.4333	-3.6437	-3.3167	-3.5646	-3.4938	-3.2167	-3.6813	-3.2125	-3.3958	-3.5458	-3.1604	183.237	395.797	333.822	503.622	176.184	305.169	407.733	408.944	361.846	396.776	405.199	433.232	317.073	452.886	482.051	321.362	0.00036305	0.00024954	8.8463e-05	1234.2	5.3628e-06	2.4511e-06	1296	251.4	3.6851e-06	2.9599e-06	318.77	89.76	70.732	19.741	2.9737e-06	27.964	0.00035335	0.00037807	0.00011039	1221.8	4.7429e-06	3.9613e-06	1286.9	251.13	3.662e-06	4.2051e-06	317.8	89.828	70.682	20.008	3.8317e-06	28.42	281.041	239.907	232.183	154.301	299.398	298.521	154.193	161.733	306.103	286.828	161.119	167.967	168.358	175.155	307.805	174.751	-8191	255	
451.312	1	1	0	0	0.13915	0.010393	0.053622	0.27048	0.25474	0.037782	0.268	0.16807	0.084135	0.14965	0.070607	0.036133	0.078407	0.13328	0.06146	0.08552	-3.1271	-3.325	-2.9896	-3.6583	-3.2208	-3.3479	-3.6688	-3.1917	-3.3583	-3.2521	-3.1937	-3.5125	-3.2583	-3.3354	-3.5271	-3.0938	466.011	436.108	169.627	420.074	176.800	326.009	150.748	229.162	378.142	356.648	481.709	369.752	309.346	474.537	444.767	503.306	0.00038742	0.00022572	6.1444e-05	1230.3	4.4995e-06	2.5925e-06	1296.3	253.32	4.3142e-06	3.4046e-06	317.51	89.062	70.964	19.712	2.2684e-06	27.734	0.00036597	0.00032756	0.00010059	1219.8	4.1407e-06	3.9813e-06	1284.4	251.22	4.1588e-06	3.9234e-06	316.89	89.522	70.717	19.988	3.9206e-06	28.326	282.738	245.947	248.545	154.510	313.849	280.897	154.439	161.727	318.438	293.790	161.135	168.164	168.173	175.366	295.118	174.293	-8191	255	
451.408	1	1	0	0	0.10851	0.076393	0.3241	0.27036	0.17729	0.028866	0.23769	0.27324	0.19689	0.089877	0.19924	0.14779	0.0085032	0.099013	0.083159	0.20628	-2.9813	-3.4188	-2.9688	-3.5187	-3.2479	-3.05	-3.6021	-3.0958	-3.4188	-3.2833	-3.2229	-3.4354	-3.2729	-3.1292	-3.625	-3.0771	234.491	274.841	442.278	456.508	212.291	279.444	365.618	148.898	409.337	497.995	466.274	168.144	399.350	200.046	222.461	490.000	0.00038779	0.00023853	7.9026e-05	1233.3	4.4045e-06	2.7871e-06	1301	253.36	3.45e-06	2.8759e-06	317.02	89.94	70.203	19.639	3.903e-06	27.828	0.00035477	0.00036025	0.00010429	1221	4.2793e-06	4.2724e-06	1286.7	251.68	4.0644e-06	3.8955e-06	317.47	89.676	70.509	20.004	3.7877e-06	28.397	280.077	221.706	251.526	154.567	305.506	289.795	154.452	161.912	324.951	294.540	161.106	167.774	167.927	175.186	329.746	174.299	-8191	255	
451.528	1	1	0	0	0.035889	0.21824	0.13552	0.42303	0.045295	0.24978	0.32921	0.16764	0.09408	0.12584	0.17495	0.22153	0.31071	0.065986	0.36419	0.10746	-2.7979	-3.3083	-2.9896	-3.5542	-3.2687	-3.0687	-3.4958	-3.3083	-3.3063	-3.3208	-3.2979	-3.3271	-3.2313	-3.0167	-3.4167	-3.4083	351.774	323.885	260.386	464.175	144.353	220.726	408.669	467.773	324.550	214.336	348.700	486.475	444.226	494.995	221.577	298.206	0.00036087	0.00031591	6.7333e-05	1234.9	3.9999e-06	4.0968e-06	1294.6	252.97	4.5073e-06	2.9735e-06	316.06	89.592	70.4	19.661	4.3973e-06	28	0.00035562	0.00034477	0.00010369	1220	4.4368e-06	4.2052e-06	1283.8	251.4	4.1148e-06	3.9926e-06	316.99	89.395	70.562	20.071	3.6869e-06	28.403	281.300	246.457	234.613	154.263	305.586	312.198	154.481	161.832	305.638	313.044	161.296	167.823	168.148	175.392	323.831	174.559	-8191	255	
451.623	1	1	0	0	0.11775	0.22332	0.062975	0.12171	0.14706	0.14727	0.48019	0.28551	0.077955	0.17496	0.10224	0.14052	0.040319	0.12173	0.11202	0.050399	-2.9313	-3.4188	-3.075	-3.525	-3.3542	-2.975	-3.5271	-3.3458	-3.1667	-3.4333	-3.1271	-3.4583	-3.35	-3.1937	-3.4562	-3.2417	187.807	412.660	463.563	502.488	185.793	209.835	470.987	440.111	166.380	465.742	176.980	444.189	212.057	356.103	275.182	188.702	0.0003832	0.00017261	8.5799e-05	1231.5	3.9884e-06	3.7131e-06	1302	253.25	4.1e-06	2.9479e-06	316.77	89.175	70.549	19.719	3.1239e-06	27.998	0.00036647	0.00033039	9.9332e-05	1218.9	4.3108e-06	4.3797e-06	1286	251.33	4.2715e-06	3.989e-06	316.74	89.497	70.62	20.024	3.7788e-06	28.397	281.969	248.804	232.837	154.424	306.261	291.547	154.625	161.874	321.059	312.296	161.456	167.714	167.999	175.074	283.985	174.251	-8191	255	
451.721	1	1	0	0	0.22386	0.11012	0.26665	0.1133	0.05685	0.093992	0.19401	0.13252	0.077977	0.070763	0.1711	0.13769	0.14397	0.17547	0.098238	0.36089	-2.7583	-3.6021	-3.15	-3.4146	-3.4208	-3.0917	-3.6083	-3.3146	-3.1542	-3.4437	-3.275	-3.4979	-3.4562	-2.9938	-3.5458	-3.325	443.743	287.472	389.441	400.070	206.099	497.820	451.823	410.881	411.785	484.270	367.791	470.714	329.120	431.990	475.050	431.703	0.00038493	0.00038077	0.00011042	1229.4	5.1839e-06	2.6857e-06	1290	254.44	3.7587e-06	3.0002e-06	315.77	89.465	70.665	19.651	3.3009e-06	27.885	0.00037802	0.00033302	9.4487e-05	1216	4.1497e-06	3.9448e-06	1280.5	251.67	4.0085e-06	3.7037e-06	316.05	89.496	70.497	20.034	3.6579e-06	28.341	279.079	227.330	229.615	154.692	301.264	288.256	154.565	161.785	317.063	304.598	161.318	168.010	168.336	175.202	319.389	174.637	-8191	255	
451.840	1	1	0	0	0.1825	0.083312	0.007904	0.31559	0.08184	0.044259	0.29877	0.11141	0.19887	0.10589	0.33488	0.11521	0.21296	0.21104	0.22377	0.32759	-2.6896	-3.3542	-3.0229	-3.4729	-3.4188	-3.1437	-3.6688	-3.3271	-3.1208	-3.6292	-3.2458	-3.2979	-3.3771	-3.0875	-3.3917	-3.3479	159.802	252.603	148.799	442.863	255.938	341.706	463.052	503.305	421.789	476.156	475.957	209.456	391.922	382.500	282.034	461.999	0.00040344	0.00027719	7.0338e-05	1230.2	5.0721e-06	3.0842e-06	1288.9	253.86	4.4005e-06	3.0754e-06	316.01	89.23	70.073	19.689	3.5096e-06	28.021	0.00038014	0.00032614	9.557e-05	1217	4.2208e-06	3.8846e-06	1279.5	250.71	3.9892e-06	3.7875e-06	316.04	89.2	70.278	19.997	3.6539e-06	28.371	282.815	255.370	236.629	154.197	296.141	306.979	154.521	161.662	317.994	295.637	161.135	167.918	168.304	174.945	310.045	174.224	-8191	255	
451.911	1	1	0	0	0.019764	0.15742	0.26482	0.23782	0.01958	0.080366	0.23896	0.25621	0.23217	0.26072	0.19852	0.13514	0.043304	0.22034	0.13766	0.21663	-2.75	-3.5062	-3.175	-3.5167	-3.5792	-3.1312	-3.5062	-3.4062	-2.9208	-3.5604	-3.3125	-3.0979	-3.4458	-3.1208	-3.3125	-3.2896	457.391	206.889	428.760	444.350	361.567	222.288	443.099	414.893	193.491	283.431	460.759	462.913	148.589	238.664	144.772	434.098	0.00038244	0.00028935	0.00011677	1226.4	5.1193e-06	2.5618e-06	1291.1	251.64	3.6956e-06	2.4446e-06	314.47	89.482	70.407	19.573	2.7219e-06	27.836	0.00035577	0.00033191	9.0781e-05	1214.1	4.2136e-06	3.8811e-06	1278.9	250.5	4.2944e-06	3.7037e-06	316.23	89.27	70.528	19.985	3.5631e-06	28.306	284.155	249.438	238.884	154.347	301.573	290.745	154.338	162.017	313.381	283.722	161.125	168.017	168.422	175.208	325.311	174.470	-8191	255	
452.007	1	1	0	0	0.19158	0.20563	0.20122	0.11756	0.23429	0.085498	0.091311	0.20847	0.3051	0.19283	0.26776	0.13336	0.070285	0.20684	0.032872	0.098889	-2.5604	-3.3667	-3.2083	-3.2938	-3.5208	-3.0604	-3.4813	-3.5333	-2.9771	-3.5146	-3.3417	-3.0979	-3.675	-3.1667	-3.3438	-3.3542	157.589	382.225	300.259	240.788	402.935	483.612	447.961	475.150	259.710	292.591	478.649	281.647	344.344	195.872	159.356	381.197	0.00036548	0.00033464	6.3168e-05	1222	4.6775e-06	2.6867e-06	1294.1	252.31	3.7312e-06	3.7346e-06	315.21	89.049	70.117	19.72	4.0378e-06	27.786	0.00036331	0.00033464	9.3318e-05	1212.7	4.0984e-06	3.8375e-06	1281	250.07	3.8746e-06	3.5338e-06	315.88	89.352	70.21	19.993	3.6569e-06	28.309	283.557	220.767	225.573	154.356	297.542	283.218	154.575	161.930	321.811	296.828	161.451	167.656	168.322	175.250	313.031	174.682	-8191	255	
452.128	1	1	0	0	0.15647	0.31116	0.02065	0.16705	0.12231	0.21476	0.10275	0.075306	0.084562	0.063719	0.063273	0.084962	0.18567	0.37174	0.16279	0.18763	-2.7208	-3.4542	-3.3083	-3.2792	-3.4125	-3.1771	-3.4021	-3.3271	-3.0583	-3.425	-3.3854	-3.0333	-3.3542	-3.2083	-3.1208	-3.4333	238.817	440.800	288.080	467.385	364.937	267.562	147.717	415.401	471.230	294.222	397.578	238.242	429.514	478.496	453.816	442.972	0.00038344	0.00029776	0.00010279	1221	5.7755e-06	2.5064e-06	1291.3	250.52	3.5764e-06	3.0531e-06	313.99	88.824	69.981	19.693	4.1141e-06	27.937	0.00035569	0.00033616	0.00010141	1208.7	4.1812e-06	3.6171e-06	1273.3	249.46	4.025e-06	3.5083e-06	314.92	89.054	70.009	19.942	3.6999e-06	28.325	280.933	224.555	229.532	154.565	298.224	295.197	154.461	161.770	311.780	287.381	161.180	167.730	168.198	175.477	308.163	174.790	-8191	255	
452.224	1	1	0	0	0.10828	0.30752	0.20558	0.15886	0.063031	0.17198	0.30652	0.22322	0.077193	0.1577	0.27089	0.08258	0.1642	0.07402	0.26675	0.20432	-2.7083	-3.2896	-3.3667	-3.2604	-3.2646	-3.2146	-3.3563	-3.6417	-2.9604	-3.3208	-3.4792	-3.2208	-3.4458	-3.3417	-3.1583	-3.5458	215.709	334.177	186.134	168.471	276.111	243.752	440.885	488.639	459.915	463.954	399.742	475.729	147.373	167.967	327.856	462.420	0.00037402	0.00020666	7.6337e-05	1221.3	3.6799e-06	3.0266e-06	1282.2	250.92	4.4526e-06	3.2091e-06	314.09	88.968	70.125	19.635	3.4928e-06	27.879	0.00035104	0.0003063	9.3831e-05	1208	4.0173e-06	3.9872e-06	1270.8	249.15	3.7875e-06	3.7074e-06	314.34	88.877	70.1	19.916	3.603e-06	28.249	281.850	204.028	208.642	154.517	302.723	302.015	154.412	161.840	318.353	302.185	161.196	168.076	168.191	175.003	325.920	174.792	-8191	255	
452.320	1	1	0	0	0.19497	0.17044	0.16778	0.21005	0.1524	0.060381	0.40737	0.14377	0.090203	0.13442	0.13491	0.2013	0.076442	0.11244	0.19319	0.16175	-2.6562	-3.2021	-3.3937	-3.0833	-3.6437	-3.3104	-3.2792	-3.6333	-3.0979	-3.2667	-3.5938	-3.2146	-3.4583	-3.4479	-3.0771	-3.4333	352.122	279.503	179.740	203.907	293.956	461.005	456.858	385.749	198.779	427.920	484.059	467.028	185.582	303.597	492.440	423.912	0.00040057	0.00040984	0.00010183	1218.6	3.3743e-06	3.0063e-06	1284.8	250.84	4.28e-06	3.9926e-06	315.65	88.263	70.178	19.492	3.6374e-06	27.845	0.00036366	0.00033373	9.2064e-05	1205.3	3.9813e-06	3.6336e-06	1271.2	248.81	3.8013e-06	3.6612e-06	314.61	88.995	70.005	19.834	3.7738e-06	28.208	282.771	236.147	241.292	154.622	282.096	291.779	154.419	161.768	322.037	292.589	161.316	168.057	168.146	174.928	306.747	174.503	-8191	255	
452.417	1	1	0	0	0.14921	0.32019	0.1112	0.18862	0.23831	0.059313	0.094611	0.14544	0.10871	0.17445	0.23792	0.1768	0.18371	0.097277	0.10508	0.11292	-2.8417	-3.1625	-3.5479	-3.4125	-3.3646	-3.2958	-3.4771	-3.6021	-3.1875	-3.2417	-3.5312	-3.2271	-3.4542	-3.4854	-2.9813	-3.5396	167.374	283.067	405.966	425.353	337.035	496.170	386.673	151.995	235.023	250.471	420.912	432.441	320.127	193.355	468.621	288.610	0.00035444	0.00031306	8.4881e-05	1212.7	5.4243e-06	2.5828e-06	1279	250.92	4.1517e-06	2.7303e-06	313.77	88.607	70.038	19.423	4.0771e-06	27.531	0.00034226	0.00031703	8.4026e-05	1199.5	4.0641e-06	3.2883e-06	1265.3	248.42	3.848e-06	3.8372e-06	313.21	88.687	69.964	19.797	3.608e-06	28.079	282.944	238.851	244.795	154.552	289.279	295.927	154.369	161.772	310.345	307.331	161.315	167.853	168.453	175.464	314.306	174.760	-8191	255	
452.513	1	1	0	0	0.16999	0.031244	0.29501	0.303	0.19416	0.22666	0.17912	0.29347	0.16406	0.27079	0.30303	0.12346	0.036793	0.13606	0.049922	0.089989	-2.9938	-3.075	-3.4542	-3.3396	-3.3125	-3.3458	-3.1792	-3.425	-3.2812	-3.1833	-3.6688	-3.1792	-3.2833	-3.3438	-2.9188	-3.5479	388.035	265.328	151.528	426.460	280.018	275.182	493.043	453.389	344.560	168.573	489.310	487.879	231.085	208.156	187.865	455.449	0.00036031	0.00024484	7.1512e-05	1211.5	4.3586e-06	2.6068e-06	1275.6	249.69	3.5618e-06	3.3355e-06	313.92	89.11	69.851	19.593	3.3415e-06	27.504	0.00034657	0.0003149	8.6477e-05	1201.2	3.8571e-06	3.5947e-06	1266	248.18	3.6876e-06	3.8579e-06	313.44	88.761	69.998	19.869	3.593e-06	28.118	283.688	224.416	241.736	154.552	297.632	314.274	154.431	161.763	317.324	301.963	161.078	168.026	168.345	175.167	298.979	174.625	-8191	255	
452.607	1	1	0	0	0.17358	0.21373	0.12648	0.19195	0.10592	0.2063	0.23636	0.33241	0.10402	0.086551	0.082034	0.33259	0.11959	0.20388	0.098818	0.051619	-2.6667	-3.2	-3.5521	-3.3292	-3.2771	-3.3667	-3.2667	-3.5042	-3.4167	-3.2229	-3.5563	-3.3479	-3.3208	-3.5667	-3.075	-3.5125	475.345	465.007	354.735	448.660	318.081	158.147	382.900	459.581	409.075	476.757	179.843	480.935	478.348	271.848	345.933	497.107	0.0003813	0.00029314	8.1805e-05	1211.7	5.2261e-06	3.4627e-06	1282.7	250.64	3.5611e-06	3.3102e-06	312.77	88.519	69.787	19.537	3.6905e-06	27.752	0.00035358	0.00035479	8.052e-05	1201.2	3.9354e-06	3.59e-06	1268.3	248.44	3.8251e-06	3.7972e-06	313.09	88.679	69.959	19.851	3.6419e-06	28.234	282.097	226.053	232.057	154.406	310.732	290.393	154.417	161.662	316.688	310.983	161.158	168.029	168.452	175.297	295.725	174.564	-8191	255	
452.703	1	1	0	0	0.14212	0.14247	0.16147	0.25093	0.066391	0.10901	0.38016	0.05266	0.061984	0.11409	0.1724	0.030217	0.086383	0.2419	0.074639	0.16886	-2.8063	-3.1875	-3.5771	-3.2646	-3.1146	-3.7313	-3.2229	-3.4125	-3.5292	-3.1708	-3.4604	-3.25	-3.1729	-3.6229	-3.0729	-3.2417	239.146	290.135	333.452	442.791	308.073	450.229	458.830	212.069	260.677	430.543	161.556	408.080	466.874	501.379	393.663	171.385	0.00039051	0.00027566	9.5666e-05	1219.3	4.4743e-06	3.3895e-06	1286.8	251.52	3.9977e-06	3.4525e-06	314.15	89.006	70.355	19.604	3.045e-06	27.756	0.00036358	0.00034082	8.548e-05	1206.3	4.1416e-06	3.5688e-06	1274.3	249.15	3.76e-06	3.6989e-06	314.48	88.844	70.129	19.904	3.5561e-06	28.153	281.228	232.262	254.160	154.551	300.402	289.688	154.521	161.876	324.290	290.943	161.137	168.233	168.084	175.563	315.707	174.843	-8191	255	
452.801	1	1	0	0	0.1047	0.15684	0.05236	0.21875	0.08324	0.18396	0.28274	0.10727	0.22659	0.17351	0.37935	0.051741	0.17874	0.15302	0.2028	0.1725	-3.0687	-3.0542	-3.55	-3.5375	-3.2104	-3.5729	-3.4146	-3.2375	-3.3792	-2.9875	-3.5146	-3.4854	-3.2687	-3.5854	-3.1604	-3.3021	201.828	470.631	276.530	471.384	424.209	487.536	335.528	438.377	463.522	401.210	478.622	148.474	305.247	313.792	458.760	219.681	0.00037064	0.000291	9.6498e-05	1216.3	3.6438e-06	4.1262e-06	1281.7	251.3	4.077e-06	3.6635e-06	313.48	88.358	69.974	19.642	4.2132e-06	27.663	0.0003493	0.00032827	8.7903e-05	1204	4.0407e-06	3.1763e-06	1270.5	248.86	3.738e-06	3.5775e-06	313.69	88.809	70.219	19.918	3.4512e-06	28.154	282.337	253.127	241.782	154.446	308.564	288.831	154.450	162.173	313.690	305.279	161.154	167.663	168.360	175.204	308.336	174.651	-8191	255	
452.920	1	1	0	0	0.13933	0.18913	0.36777	0.093222	0.14524	0.26541	0.20519	0.1133	0.19726	0.15278	0.30719	0.053398	0.15656	0.11515	0.079712	0.17684	-3.05	-3.0021	-3.3937	-3.4688	-3.2167	-3.5771	-3.4875	-3.2438	-3.4854	-3.1417	-3.5354	-3.425	-3.2146	-3.3333	-3.1312	-3.1979	398.251	261.726	297.010	428.181	391.870	160.120	445.444	227.065	288.736	501.548	444.037	472.969	381.067	443.115	173.216	394.233	0.00036793	0.00030459	8.8266e-05	1211.1	4.8991e-06	3.4308e-06	1282.9	248.95	3.5054e-06	4.4074e-06	312.5	88.902	69.867	19.484	4.1257e-06	27.691	0.00033703	0.00033363	7.2796e-05	1199	3.8544e-06	3.3342e-06	1267.3	247.98	3.6638e-06	3.62e-06	312.8	88.784	69.903	19.842	3.4223e-06	28.083	283.529	254.281	260.074	154.526	290.602	320.800	154.401	162.109	311.753	299.213	161.256	167.913	168.390	175.557	316.176	174.648	-8191	255	
453.016	1	1	0	0	0.18448	0.18418	0.022243	0.43784	0.026759	0.15367	0.30504	0.22505	0.16754	0.1991	0.15424	0.2194	0.16204	0.24452	0.35678	0.13717	-3.0667	-3.1292	-3.525	-3.5479	-2.9688	-3.5438	-3.5021	-3.1854	-3.4313	-3.3646	-3.3	-3.6437	-3.2417	-3.6271	-3.2625	-3.1833	447.886	469.589	362.474	449.237	313.389	222.779	488.790	147.783	308.560	382.115	269.652	270.063	496.274	367.903	377.443	427.300	0.00037618	0.00021257	5.9468e-05	1211.1	3.5158e-06	2.8454e-06	1279.3	248.6	4.5593e-06	2.5655e-06	312.57	88.436	69.507	19.491	3.0861e-06	27.631	0.00034426	0.00034406	8.3257e-05	1198	3.9156e-06	3.3602e-06	1265	247.68	3.563e-06	3.3772e-06	312.64	88.524	69.472	19.825	3.5001e-06	28.112	282.961	222.215	248.301	154.579	288.845	333.968	154.344	161.996	316.896	316.820	161.168	167.734	168.167	175.515	307.855	174.629	-8191	255	
453.112	1	1	0	0	0.061052	0.23738	0.28116	0.36428	0.32878	0.31241	0.13695	0.077505	0.097569	0.018143	0.30126	0.35766	0.11553	0.11919	0.10874	0.19271	-3.1437	-3.225	-3.2521	-3.775	-3.1208	-3.3958	-3.4229	-3.0312	-3.5187	-3.2875	-3.4146	-3.7167	-3.2104	-3.4813	-3.3625	-3.0542	370.453	279.172	276.974	425.534	478.444	297.909	147.587	433.329	384.576	229.148	454.755	449.703	191.782	156.841	488.593	486.931	0.00037573	0.00025641	8.0336e-05	1208.4	4.9145e-06	3.1083e-06	1280.8	248.47	4.4508e-06	2.433e-06	312.39	88.528	69.743	19.529	3.3577e-06	27.54	0.00033887	0.00031399	8.9869e-05	1197.6	4.0831e-06	3.5322e-06	1265.4	247.49	3.4246e-06	3.7159e-06	313.04	88.568	69.798	19.88	3.4971e-06	28.053	280.885	223.361	262.133	154.473	313.396	322.172	154.490	161.851	313.564	274.842	161.196	167.716	168.021	175.473	299.046	174.329	-8191	255	
453.209	1	1	0	0	0.30617	0.18126	0.048901	0.16729	0.092812	0.13485	0.21657	0.28745	0.19911	0.19027	0.058385	0.38955	0.1958	0.11892	0.21917	0.2093	-3.225	-3.1375	-3.1375	-3.5479	-3.1	-3.4958	-3.3625	-3.1354	-3.4479	-3.3604	-3.4313	-3.725	-3.1437	-3.4875	-3.3979	-3.1271	355.563	306.913	445.381	482.384	472.523	425.121	436.301	148.046	388.902	209.584	435.738	149.848	441.417	257.397	382.663	359.443	0.00035814	0.00022172	6.3248e-05	1212.2	4.8262e-06	3.5605e-06	1272.1	248.67	3.7019e-06	4.6302e-06	314.75	87.905	69.692	19.659	3.4468e-06	27.493	0.00033245	0.0003224	9.175e-05	1200.3	3.8958e-06	3.6855e-06	1263.9	247.26	3.8095e-06	4.1067e-06	313.18	88.64	69.86	19.858	3.1926e-06	28.141	283.436	207.556	263.055	154.399	308.150	300.294	154.275	161.995	326.992	290.812	161.325	167.700	168.120	175.671	297.449	174.813	-8191	255	
453.305	1	1	0	0	0.03195	0.24133	0.31172	0.33095	0.13285	0.10361	0.12182	0.2677	0.2087	0.18133	0.12681	0.21271	0.05041	0.17762	0.28143	0.13374	-3.0271	-3.2687	-3.2833	-3.7396	-3.0354	-3.2646	-3.575	-3.2333	-3.5396	-3.4958	-3.2812	-3.5083	-3.2104	-3.4125	-3.4437	-3.1	330.764	340.790	329.598	493.664	220.877	394.655	478.011	466.566	418.988	221.081	258.498	313.939	442.701	399.452	243.639	432.461	0.00037317	0.00030041	8.2436e-05	1207.9	4.749e-06	2.2325e-06	1282.8	249.72	4.2699e-06	1.5378e-06	314.73	88.202	69.999	19.6	2.929e-06	27.475	0.0003383	0.00033171	9.557e-05	1199.3	4.0993e-06	3.6454e-06	1267.4	247.91	3.7582e-06	3.6879e-06	313.24	88.674	69.832	19.896	3.4362e-06	28.09	281.068	252.490	237.108	154.534	307.942	296.094	154.397	161.686	315.174	291.071	161.524	167.936	168.351	175.381	299.625	174.682	-8191	255	
453.401	1	1	0	0	0.1212	0.23635	0.11232	0.18021	0.13353	0.23283	0.084801	0.12711	0.089059	0.050638	0.24013	0.41274	0.17522	0.25613	0.1997	0.10873	-3.0896	-3.2083	-3.1875	-3.8063	-3.2792	-3.3063	-3.4646	-3.1604	-3.4771	-3.3146	-3.0979	-3.7667	-3.325	-3.4229	-3.475	-3.2667	183.013	437.928	314.227	372.475	254.744	146.329	408.377	162.329	350.322	478.806	367.423	430.991	198.394	353.594	171.508	465.793	0.00036569	0.00035457	9.9641e-05	1214.9	3.994e-06	3.3317e-06	1286.7	250.14	3.7155e-06	3.6569e-06	313.73	88.812	70.042	19.519	3.1006e-06	27.528	0.00035458	0.00031804	9.976e-05	1202.6	4.1425e-06	3.6666e-06	1271.7	248	3.7454e-06	3.7923e-06	313.58	88.805	70.033	19.905	3.4922e-06	28.152	283.686	214.480	246.768	154.426	300.852	302.250	154.406	161.638	304.579	284.525	161.448	168.025	168.261	174.935	300.328	174.416	-8191	255	
453.521	1	1	0	0	0.1219	0.10388	0.22387	0.43041	0.14763	0.11868	0.089165	0.039876	0.20177	0.23727	0.072608	0.28785	0.14623	0.068189	0.034032	0.076033	-3.0563	-3.4083	-2.8792	-3.5125	-3.3854	-3.3312	-3.7646	-3.1562	-3.4396	-3.2771	-3.2062	-3.6417	-3.2833	-3.1708	-3.6271	-3.1896	176.132	290.615	487.921	447.915	497.750	322.402	285.518	199.751	395.510	322.231	407.551	391.451	482.074	496.544	457.864	253.738	0.00036619	0.00034509	6.082e-05	1216.7	4.1866e-06	2.5486e-06	1284.6	249.84	2.835e-06	3.9927e-06	314.26	87.973	70.061	19.474	3.3931e-06	27.619	0.00034811	0.00037027	0.00010347	1204.3	4.1974e-06	3.7621e-06	1272.4	248.33	3.6464e-06	3.6819e-06	313.3	88.588	69.916	19.861	3.4063e-06	28.223	280.444	218.542	244.280	154.412	295.814	295.202	154.388	162.146	316.645	332.277	161.471	167.838	168.160	175.202	298.568	174.622	-8191	255	
453.616	1	1	0	0	0.22676	0.030809	0.12411	0.32644	0.29924	0.11908	0.053134	0.050214	0.066239	0.16282	0.015898	0.16962	0.34578	0.075359	0.035854	0.21374	-2.7125	-3.4125	-3.2375	-3.6042	-3.3563	-3.0458	-3.7542	-3.2875	-3.2375	-3.4562	-3.1875	-3.5125	-3.3542	-2.9917	-3.5375	-3.2854	145.735	164.888	421.251	476.477	330.898	294.309	432.775	206.509	341.314	229.180	386.679	220.666	438.731	150.952	211.538	310.410	0.00039774	0.00033572	9.4865e-05	1216.2	3.3789e-06	3.6303e-06	1282.6	250.07	3.8338e-06	2.7565e-06	314.06	89.366	69.973	19.612	2.8162e-06	27.716	0.00035019	0.00034264	9.9503e-05	1202.7	4.0768e-06	4.0355e-06	1269.3	248.28	3.9232e-06	3.728e-06	314.38	89.096	70.081	19.917	3.633e-06	28.175	281.905	237.626	262.139	154.235	289.806	315.690	154.518	162.080	319.620	299.050	161.025	167.804	168.310	175.343	316.847	174.454	-8191	255	
453.712	1	1	0	0	0.048456	0.19532	0.38174	0.21836	0.1103	0.18852	0.31934	0.095623	0.16835	0.11337	0.28179	0.29875	0.17031	0.14793	0.081149	0.13417	-3.0917	-3.5375	-3.0542	-3.6333	-3.3917	-2.8604	-3.6521	-3.2333	-3.2479	-3.5771	-3.0875	-3.4896	-3.3937	-3.0312	-3.6125	-3.3208	425.722	328.472	274.280	337.902	438.486	357.148	415.946	405.193	309.822	411.808	427.540	188.661	444.943	474.736	348.519	292.231	0.00034186	0.00023181	0.00010404	1220.1	3.4434e-06	4.9397e-06	1290.5	251.29	4.6997e-06	5.1905e-06	313.64	89.232	70.044	19.737	3.2186e-06	27.862	0.00032748	0.00033221	9.5513e-05	1205.5	4.0551e-06	3.676e-06	1272.9	248.5	3.9159e-06	3.6867e-06	314.32	88.861	70	19.933	3.6869e-06	28.248	283.495	231.312	238.265	154.272	293.316	298.086	154.463	162.112	312.771	297.838	161.320	168.116	167.838	175.430	300.762	174.382	-8191	255	
453.808	1	1	0	0	0.27947	0.2336	0.13798	0.19645	0.14472	0.11175	0.09393	0.14987	0.061739	0.30073	0.069292	0.20896	0.13522	0.11754	0.20886	0.10723	-2.8146	-3.4813	-3.0396	-3.4313	-3.4604	-3.0208	-3.6688	-3.3646	-3.2042	-3.5604	-3.1708	-3.3917	-3.4833	-3.0979	-3.5333	-3.5438	412.133	426.792	232.155	149.907	471.130	444.214	355.118	164.491	502.512	184.659	495.365	181.688	205.687	198.569	167.292	149.759	0.00039115	0.00028214	8.2582e-05	1218.2	3.937e-06	3.8412e-06	1280.5	250.56	4.0812e-06	4.8915e-06	314.28	89.056	70.16	19.497	3.3496e-06	27.678	0.00036651	0.00033434	9.2748e-05	1205.2	4.0146e-06	4.039e-06	1271.9	248.61	3.8499e-06	3.7511e-06	314.3	89.02	70.128	19.887	3.3074e-06	28.197	282.877	236.790	232.054	154.752	301.617	294.599	154.459	161.854	345.349	302.840	161.108	167.777	168.431	175.328	298.104	174.349	-8191	255	
453.904	1	1	0	0	0.050423	0.11238	0.27027	0.18099	0.14554	0.22461	0.054585	0.12146	0.043043	0.10588	0.26242	0.1775	0.09204	0.20164	0.12022	0.08114	-2.6396	-3.4646	-3.2125	-3.2292	-3.4875	-3.0396	-3.6458	-3.2771	-3.1083	-3.4771	-3.3229	-3.2771	-3.5396	-3.0354	-3.4458	-3.5187	237.553	471.369	391.312	161.900	500.430	172.661	348.357	151.983	470.949	220.613	402.450	357.258	435.327	459.000	423.558	270.581	0.00039158	0.00043526	9.7162e-05	1212	4.3498e-06	4.4901e-06	1286.2	249.39	4.1396e-06	4.3793e-06	314.06	88.889	70.379	19.592	3.5259e-06	27.716	0.00036559	0.00032493	9.6311e-05	1203.7	3.9714e-06	3.8045e-06	1270.4	248.65	4.2138e-06	3.6248e-06	313.32	89.125	70.157	19.9	3.5371e-06	28.234	284.729	232.734	257.797	154.513	295.675	307.014	154.311	162.122	314.452	290.949	161.344	167.967	168.183	175.186	296.210	174.628	-8191	255	
454.000	1	1	0	0	0.1623	0.24546	0.12702	0.11246	0.0028335	0.23346	0.11127	0.1825	0.2717	0.28933	0.22807	0.084661	0.12268	0.19279	0.35465	0.17527	-2.7417	-3.4604	-3.1354	-3.4	-3.6208	-3.175	-3.6	-3.5229	-3.2	-3.5729	-3.4813	-3.1042	-3.6667	-3.15	-3.3667	-3.3729	466.845	335.627	305.848	481.125	364.301	291.389	421.714	420.772	199.414	293.832	410.721	233.338	168.930	403.315	468.262	276.351	0.00036828	0.00038769	8.992e-05	1217.1	4.5337e-06	1.9867e-06	1281.7	251.71	3.1793e-06	3.2979e-06	314.09	88.865	69.709	19.674	3.5654e-06	27.855	0.00035392	0.00033849	9.1123e-05	1206.1	4.1398e-06	3.775e-06	1272.4	249.32	3.7674e-06	3.6564e-06	314.34	89.056	70	19.894	3.567e-06	28.284	285.987	240.752	256.750	154.595	302.062	303.234	154.670	161.883	310.709	309.338	161.178	167.826	167.859	174.853	300.036	174.601	-8191	255	
454.097	1	1	0	0	0.24525	0.06503	0.054471	0.29064	0.21063	0.056028	0.25636	0.17244	0.11091	0.26571	0.13968	0.043126	0.047327	0.32071	0.080274	0.20148	-2.7229	-3.4167	-3.4375	-3.3333	-3.6854	-3.1583	-3.5062	-3.675	-3.0875	-3.4896	-3.4646	-3.175	-3.4417	-3.0812	-3.3042	-3.4354	419.399	377.788	167.891	503.320	163.979	324.606	478.609	365.672	359.578	252.063	445.386	377.587	418.568	437.524	290.507	414.423	0.00037737	0.00036106	9.0194e-05	1214.6	4.1439e-06	3.4637e-06	1287.9	251.26	3.5652e-06	3.2633e-06	314.8	88.879	70.584	19.679	3.936e-06	27.654	0.00036139	0.00035509	8.7162e-05	1206.5	4.1029e-06	3.9188e-06	1274	249.08	3.9819e-06	4.0096e-06	313.77	88.862	70.241	19.943	3.5501e-06	28.245	280.968	242.139	236.866	154.353	311.260	317.826	154.407	161.980	325.236	293.522	161.256	167.867	167.938	175.337	304.343	174.641	-8191	255	
454.193	1	1	0	0	0.19045	0.11351	0.071601	0.13193	0.063286	0.17554	0.11855	0.23709	0.077885	0.064774	0.29859	0.13452	0.11326	0.089463	0.022479	0.18945	-2.5896	-3.4	-3.3104	-3.2687	-3.4667	-3.0312	-3.3167	-3.5667	-3.1604	-3.4021	-3.4188	-3.1188	-3.7083	-3.2729	-3.1521	-3.5187	157.730	186.464	368.822	446.234	460.063	474.269	449.664	416.673	325.373	429.275	477.867	418.568	441.445	408.724	241.473	232.603	0.0003684	0.00025864	0.00011051	1224.9	4.2886e-06	4.0379e-06	1286.4	250.32	4.9619e-06	4.9772e-06	315.24	89.571	70.036	19.81	3.8111e-06	27.842	0.00035223	0.0003311	0.00010261	1209.9	4.2451e-06	4.0178e-06	1274.8	248.79	4.0305e-06	3.6879e-06	315.01	89.252	70.135	20.004	3.8616e-06	28.277	281.907	238.045	233.558	154.610	307.852	306.837	154.508	161.859	308.532	306.181	161.379	167.894	168.053	175.355	311.027	174.592	-8191	255	
454.313	1	1	0	0	0.29704	0.039937	0.1875	0.28087	0.090446	0.17965	0.40913	0.24344	0.32167	0.1721	0.047698	0.17904	0.057409	0.2037	0.14515	0.12325	-2.7896	-3.3625	-3.2708	-3.0167	-3.5958	-3.2854	-3.2792	-3.4708	-3.1479	-3.2792	-3.5271	-3.075	-3.4396	-3.3542	-3.0375	-3.7083	353.376	234.302	370.711	392.353	191.769	214.651	387.771	166.453	386.979	453.125	417.239	480.754	410.174	154.495	238.198	377.923	0.00036456	0.00025389	0.00011071	1217.1	4.5174e-06	3.0669e-06	1287	250.07	4.6076e-06	2.4037e-06	314.29	88.703	69.912	19.67	4.166e-06	27.864	0.00035708	0.00032391	9.6026e-05	1207.3	4.1614e-06	3.7055e-06	1274.3	248.88	3.8325e-06	3.4306e-06	314.4	89.108	70.113	19.924	3.6619e-06	28.307	281.983	237.464	239.112	154.571	295.499	311.534	154.410	161.865	318.421	287.513	161.352	167.899	168.218	175.508	304.991	174.419	-8191	255	
454.385	1	1	0	0	0.1896	0.13833	0.21617	0.4485	0.10501	0.12148	0.19659	0.21027	0.15069	0.19074	0.29548	0.12945	0.18913	0.084458	0.15411	0.20941	-2.9062	-3.3479	-3.4625	-3.275	-3.5292	-3.2979	-3.3229	-3.6104	-3.0583	-3.3229	-3.5667	-3.1396	-3.5083	-3.3375	-3.2062	-3.4542	294.509	413.863	328.785	456.805	152.284	353.323	464.259	459.560	411.396	317.818	172.219	373.946	448.526	294.569	469.744	348.080	0.00038413	0.00025738	9.2832e-05	1221.4	3.659e-06	2.7533e-06	1290.4	251.29	4.8804e-06	4.6391e-06	314.28	89.348	70.196	19.704	2.3614e-06	27.801	0.00037452	0.00032776	8.5679e-05	1210.1	4.3324e-06	3.8835e-06	1276.6	249	4.1075e-06	4.3337e-06	314.59	89.265	70.261	19.979	3.8197e-06	28.263	282.560	244.995	225.721	154.600	313.215	305.464	154.514	162.117	314.297	300.092	161.027	167.778	168.240	174.890	311.389	174.320	-8191	255	
454.481	1	1	0	0	0.10237	0.013418	0.085029	0.32974	0.28541	0.14563	0.2345	0.071775	0.07991	0.04709	0.033853	0.30141	0.43764	0.09538	0.18911	0.19131	-2.8417	-3.1792	-3.4271	-3.4104	-3.3625	-3.4896	-3.1562	-3.4917	-3.3646	-3.2313	-3.5833	-3.3667	-3.2958	-3.4604	-2.9333	-3.375	237.230	352.019	467.901	148.328	263.104	298.012	420.148	148.638	300.780	373.226	280.062	464.972	429.707	349.738	483.050	472.673	0.00035545	0.00033169	8.5638e-05	1227.5	5.5262e-06	3.3405e-06	1291.4	252.98	3.8753e-06	4.5743e-06	313.71	89.552	70.427	19.744	3.274e-06	27.78	0.00035566	0.00037007	9.0097e-05	1215.1	4.2865e-06	3.669e-06	1278.5	250.53	3.904e-06	3.87e-06	315.15	89.331	70.469	19.976	3.8846e-06	28.348	282.866	229.503	232.814	154.661	311.813	290.580	154.547	162.090	324.234	289.270	161.548	167.965	168.076	175.344	315.298	174.617	-8191	255	
454.600	1	1	0	0	0.22932	0.16066	0.062763	0.12308	0.077527	0.1636	0.12035	0.2062	0.33079	0.26702	0.17825	0.15202	0.23053	0.13056	0.069077	0.10889	-3.125	-3.0417	-3.6583	-3.3167	-3.3833	-3.6396	-3.2604	-3.5938	-3.0875	-3.0729	-3.7021	-3.2146	-3.3271	-3.4583	-3.0521	-3.3583	465.063	281.558	453.737	419.734	335.960	166.644	408.048	373.474	189.475	154.570	471.928	190.941	451.892	186.345	479.688	399.321	0.00037374	0.00027574	6.1605e-05	1224.6	4.2269e-06	1.6868e-06	1293.2	252.08	4.1763e-06	4.2409e-06	316.65	88.338	70.043	19.561	3.2534e-06	28.001	0.00036147	0.00037584	9.9218e-05	1212.3	4.5205e-06	3.7079e-06	1278.3	249.96	3.947e-06	4.165e-06	315.39	88.934	70.18	19.938	4.0124e-06	28.352	282.317	251.549	241.068	154.401	291.698	283.363	154.388	161.850	325.289	303.642	161.340	167.852	168.399	175.436	304.250	174.733	-8191	255	
454.696	1	1	0	0	0.32066	0.17193	0.33515	0.30037	0.3448	0.26565	0.37101	0.16065	0.11869	0.088313	0.12059	0.15796	0.12753	0.14057	0.16126	0.17034	-3.0542	-3.0646	-3.6688	-3.2396	-3.2667	-3.5521	-3.2979	-3.5312	-3.2958	-2.9167	-3.7271	-3.2708	-3.0375	-3.5771	-3.2729	-3.4146	162.016	299.287	390.296	416.576	432.700	335.049	460.673	436.776	394.263	428.951	340.853	261.434	277.972	465.163	484.023	261.355	0.00038181	0.00036456	8.0653e-05	1225	4.0507e-06	3.6058e-06	1289.2	251.79	2.8499e-06	3.405e-06	314.6	89.112	70.454	19.572	3.8174e-06	27.697	0.00038298	0.00035701	9.7565e-05	1209.5	4.417e-06	3.8399e-06	1275.4	249.5	3.8838e-06	4.0764e-06	314.84	89.167	70.368	19.939	3.7947e-06	28.195	280.178	236.679	241.463	154.459	287.082	298.767	154.533	161.972	335.574	281.869	161.521	167.853	168.137	175.309	316.228	174.421	-8191	255	
454.792	1	1	0	0	0.18554	0.057972	0.34314	0.13567	0.13548	0.10411	0.28079	0.18305	0.018071	0.18433	0.24029	0.11508	0.29242	0.27575	0.10075	0.13011	-3.0938	-3.1104	-3.4708	-3.2229	-3.1583	-3.4979	-3.1792	-3.4292	-3.4708	-3.0917	-3.5812	-3.4938	-3.1896	-3.6688	-3.1729	-3.3792	308.382	388.976	424.364	430.337	327.028	222.616	428.417	381.231	287.862	251.176	407.923	396.148	212.652	160.576	477.660	164.221	0.00038039	0.00032843	0.00010663	1221.3	3.6289e-06	1.6839e-06	1288.1	251.3	3.7215e-06	2.5874e-06	314.72	89.145	70.042	19.752	3.7398e-06	27.783	0.00035793	0.00039123	9.9304e-05	1207.6	4.3414e-06	3.6053e-06	1272.7	249.63	4.0818e-06	4.1808e-06	314.7	89.227	70.199	19.958	3.8007e-06	28.224	283.351	215.678	245.998	154.548	309.178	274.014	154.484	162.030	307.416	267.562	161.475	167.790	168.374	175.286	318.076	174.908	-8191	255	
454.889	1	1	0	0	0.30023	0.12278	0.081336	0.14363	0.24191	0.091063	0.13826	0.079049	0.24176	0.13136	0.20892	0.28986	0.15527	0.26707	0.20469	0.14473	-3.0125	-3.25	-3.4271	-3.4771	-3.2146	-3.625	-3.3729	-3.2875	-3.3979	-3.0479	-3.6042	-3.225	-3.2104	-3.5479	-3.3333	-3.1958	287.559	177.705	369.142	400.013	291.656	184.433	454.678	370.354	147.055	466.280	365.769	364.453	148.406	149.035	147.063	352.122	0.000385	0.00028984	0.0001256	1219.6	5.6919e-06	1.7798e-06	1286.3	250.09	3.5381e-06	3.3481e-06	314.29	88.922	69.909	19.612	3.2435e-06	27.678	0.00036859	0.00037058	0.00010007	1206.1	4.3054e-06	3.9353e-06	1272	249.24	3.8902e-06	4.2281e-06	314.7	89.18	70.046	19.927	3.7358e-06	28.179	283.183	224.140	254.098	154.500	307.043	280.527	154.538	162.084	310.166	300.398	161.276	167.696	168.074	174.759	331.249	174.666	-8191	255	
455.009	1	1	0	0	0.2561	0.068627	0.05597	0.062386	0.31965	0.24158	0.18061	0.12673	0.041524	0.15273	0.23643	0.3406	0.042307	0.22775	0.17508	0.12978	-3.1312	-2.9979	-3.2687	-3.4083	-3.2083	-3.5042	-3.4979	-3.2708	-3.4813	-2.9958	-3.4167	-3.4729	-3.0396	-3.6188	-3.2375	-3.3021	293.286	326.238	431.123	451.469	177.423	407.045	488.126	384.098	486.395	319.858	214.828	409.919	305.794	404.493	366.750	394.849	0.00037661	0.00035431	8.1156e-05	1218.1	4.2412e-06	2.8719e-06	1283.3	250.3	3.8559e-06	3.6845e-06	316.05	89.027	70.056	19.709	2.2113e-06	27.755	0.00034842	0.00035681	9.805e-05	1207.7	4.3774e-06	3.702e-06	1270.6	249.52	3.8508e-06	4.1456e-06	314.92	88.981	70.027	19.971	3.7758e-06	28.247	281.448	234.661	236.261	154.547	299.412	300.399	154.611	161.985	310.927	306.404	161.254	167.617	168.088	175.228	320.505	174.638	-8191	255	
455.081	1	1	0	0	0.096931	0.17741	0.11254	0.11416	0.15138	0.11502	0.15265	0.083065	0.15821	0.24229	0.13774	0.19341	0.0028629	0.22933	0.20568	0.19642	-3.1729	-2.9625	-3.3146	-3.6021	-3.0375	-3.6083	-3.4833	-3.2188	-3.6729	-3.1542	-3.5125	-3.4729	-3.0229	-3.4417	-3.3167	-3.2104	230.537	320.861	154.676	498.290	353.207	421.947	490.705	166.868	222.014	370.126	434.492	208.452	475.193	331.164	421.880	201.282	0.00036804	0.00032222	9.8256e-05	1216.7	3.5768e-06	1.3964e-06	1281.2	250.29	4.9052e-06	2.6685e-06	314.15	88.5	70.048	19.506	4.3321e-06	27.814	0.00034299	0.00036693	9.1608e-05	1204.9	4.3405e-06	3.6006e-06	1267.7	248.94	3.8444e-06	3.7608e-06	314.29	88.771	70.025	19.886	3.8437e-06	28.208	280.815	223.001	241.457	154.606	301.816	312.603	154.406	161.812	308.601	288.206	161.284	167.712	168.524	175.613	308.148	174.774	-8191	255	
#DATA ENDS
