BOXY.EXE: ISS Imagent and Oximeter Data Acquisition Program Version 0.80
Ascii Record File

#ACQ INFORMATION
2  Detector Channels 
16  External MUX Channels 
1  Auxiliary Channels 
5000  Waveform (CCF) Frequency (Hz)
1  Waveforms Skipped 
30  Waveforms Averaged 
1  Cycles Averaged 
16  Acquisitions per Waveform 
10.0806  Updata Rate (Hz) 

#FILE INFORMATION
TRUE -- External MUX Channel results are PARSED.
FALSE -- AC DC and Phase are NOT grouped.
TRUE -- Companion Program Settings File CREATED.
FALSE -- AC data not excluded
FALSE -- DC data not excluded
FALSE -- Phase data not excluded
FALSE -- Auxillary Chn. data not excluded
Tab delimiters

#CALIBRATION STATE
TRUE -- Waveform Calibration Values APPLIED.


#AUX CALIBRATION VALUES
Val Type	aux-1	

Term	1.0000e+00	
Factor	0.0000e+00	


#WF CALIBRATION VALUES
A = Detector Channel
Val Type	A-AC1	A-AC2	A-AC3	A-AC4	A-AC5	A-AC6	A-AC7	A-AC8	A-AC9	A-AC10	A-AC11	A-AC12	A-AC13	A-AC14	A-AC15	A-AC16	A-DC1	A-DC2	A-DC3	A-DC4	A-DC5	A-DC6	A-DC7	A-DC8	A-DC9	A-DC10	A-DC11	A-DC12	A-DC13	A-DC14	A-DC15	A-DC16	A-Ph1	A-Ph2	A-Ph3	A-Ph4	A-Ph5	A-Ph6	A-Ph7	A-Ph8	A-Ph9	A-Ph10	A-Ph11	A-Ph12	A-Ph13	A-Ph14	A-Ph15	A-Ph16	

Term	0.00000e+00	0.00000e+00	0.00000e+00	0.00000e+00	0.00000e+00	0.00000e+00	0.00000e+00	0.00000e+00	0.00000e+00	0.00000e+00	0.00000e+00	0.00000e+00	0.00000e+00	0.00000e+00	0.00000e+00	0.00000e+00	0.00000e+00	0.00000e+00	0.00000e+00	0.00000e+00	0.00000e+00	0.00000e+00	0.00000e+00	0.00000e+00	0.00000e+00	0.00000e+00	0.00000e+00	0.00000e+00	0.00000e+00	0.00000e+00	0.00000e+00	0.00000e+00	0.00000e+00	0.00000e+00	0.00000e+00	0.00000e+00	0.00000e+00	0.00000e+00	0.00000e+00	0.00000e+00	0.00000e+00	0.00000e+00	0.00000e+00	0.00000e+00	0.00000e+00	0.00000e+00	0.00000e+00	0.00000e+00	
Factor	1.00000e+00	1.00000e+00	1.00000e+00	1.00000e+00	1.00000e+00	1.00000e+00	1.00000e+00	1.00000e+00	1.00000e+00	1.00000e+00	1.00000e+00	1.00000e+00	1.00000e+00	1.00000e+00	1.00000e+00	1.00000e+00	1.00000e+00	1.00000e+00	1.00000e+00	1.00000e+00	1.00000e+00	1.00000e+00	1.00000e+00	1.00000e+00	1.00000e+00	1.00000e+00	1.00000e+00	1.00000e+00	1.00000e+00	1.00000e+00	1.00000e+00	1.00000e+00	X	X	X	X	X	X	X	X	X	X	X	X	X	X	X	X	

B = Detector Channel
Val Type	B-AC1	B-AC2	B-AC3	B-AC4	B-AC5	B-AC6	B-AC7	B-AC8	B-AC9	B-AC10	B-AC11	B-AC12	B-AC13	B-AC14	B-AC15	B-AC16	B-DC1	B-DC2	B-DC3	B-DC4	B-DC5	B-DC6	B-DC7	B-DC8	B-DC9	B-DC10	B-DC11	B-DC12	B-DC13	B-DC14	B-DC15	B-DC16	B-Ph1	B-Ph2	B-Ph3	B-Ph4	B-Ph5	B-Ph6	B-Ph7	B-Ph8	B-Ph9	B-Ph10	B-Ph11	B-Ph12	B-Ph13	B-Ph14	B-Ph15	B-Ph16	

Term	0.00000e+00	0.00000e+00	0.00000e+00	0.00000e+00	0.00000e+00	0.00000e+00	0.00000e+00	0.00000e+00	0.00000e+00	0.00000e+00	0.00000e+00	0.00000e+00	0.00000e+00	0.00000e+00	0.00000e+00	0.00000e+00	0.00000e+00	0.00000e+00	0.00000e+00	0.00000e+00	0.00000e+00	0.00000e+00	0.00000e+00	0.00000e+00	0.00000e+00	0.00000e+00	0.00000e+00	0.00000e+00	0.00000e+00	0.00000e+00	0.00000e+00	0.00000e+00	-3.80650e+01	-1.32862e+02	-1.25430e+02	-1.81665e+02	-4.66408e+01	-6.69153e+01	-1.55920e+02	-1.62015e+02	-3.32665e+01	-6.84437e+01	-1.70727e+02	-1.71644e+02	-1.80701e+02	-1.77487e+02	-4.82893e+01	-1.50551e+02	
Factor	2.17353e-05	1.62563e-04	4.39496e-05	1.54653e-01	1.72098e-06	1.76303e-06	1.62475e-01	5.94268e-02	1.39045e-06	1.85064e-06	8.19659e-02	2.80416e-02	2.61055e-02	8.93581e-03	1.65438e-06	1.28829e-02	1.84756e-05	4.85871e-05	1.36813e-05	7.94789e-02	4.32069e-07	5.65725e-07	7.86197e-02	3.06710e-02	4.39986e-07	5.82689e-07	4.11320e-02	1.40425e-02	1.36022e-02	4.66921e-03	4.79335e-07	6.49530e-03	X	X	X	X	X	X	X	X	X	X	X	X	X	X	X	X	



#DISTANCE SETTINGS
A = Detector Channel
A-1	A-2	A-3	A-4	A-5	A-6	A-7	A-8	A-9	A-10	A-11	A-12	A-13	A-14	A-15	A-16	

2.5000e+00	3.0000e+00	2.5000e+00	3.0000e+00	2.0000e+00	3.0000e+00	1.5000e+00	3.0000e+00	3.0000e+00	3.0000e+00	3.0000e+00	3.0000e+00	3.0000e+00	3.0000e+00	1.5000e+00	3.0000e+00	

B = Detector Channel
B-1	B-2	B-3	B-4	B-5	B-6	B-7	B-8	B-9	B-10	B-11	B-12	B-13	B-14	B-15	B-16	

1.0000e+01	1.0000e+01	1.0000e+01	1.4400e+00	1.0000e+01	1.0000e+01	1.5100e+00	1.9400e+00	1.0000e+01	1.0000e+01	1.9900e+00	2.4900e+00	2.4100e+00	2.9000e+00	1.0000e+01	2.9800e+00	




#DATA BEGINS
time	group	step	mark	flag	A-AC1	A-AC2	A-AC3	A-AC4	A-AC5	A-AC6	A-AC7	A-AC8	A-AC9	A-AC10	A-AC11	A-AC12	A-AC13	A-AC14	A-AC15	A-AC16	A-DC1	A-DC2	A-DC3	A-DC4	A-DC5	A-DC6	A-DC7	A-DC8	A-DC9	A-DC10	A-DC11	A-DC12	A-DC13	A-DC14	A-DC15	A-DC16	A-Ph1	A-Ph2	A-Ph3	A-Ph4	A-Ph5	A-Ph6	A-Ph7	A-Ph8	A-Ph9	A-Ph10	A-Ph11	A-Ph12	A-Ph13	A-Ph14	A-Ph15	A-Ph16	B-AC1	B-AC2	B-AC3	B-AC4	B-AC5	B-AC6	B-AC7	B-AC8	B-AC9	B-AC10	B-AC11	B-AC12	B-AC13	B-AC14	B-AC15	B-AC16	B-DC1	B-DC2	B-DC3	B-DC4	B-DC5	B-DC6	B-DC7	B-DC8	B-DC9	B-DC10	B-DC11	B-DC12	B-DC13	B-DC14	B-DC15	B-DC16	B-Ph1	B-Ph2	B-Ph3	B-Ph4	B-Ph5	B-Ph6	B-Ph7	B-Ph8	B-Ph9	B-Ph10	B-Ph11	B-Ph12	B-Ph13	B-Ph14	B-Ph15	B-Ph16	aux-1	digaux	

524.178	1	1	0	256	0.19212	0.19266	0.086421	0.23382	0.35921	0.24595	0.12753	0.068833	0.11878	0.20377	0.11337	0.23016	0.2218	0.12877	0.16862	0.29669	-3.0229	-3.0396	-3.2125	-3.7417	-3.0208	-3.4958	-3.4479	-3.3271	-3.4396	-3.0208	-3.3354	-3.6	-3.3187	-3.4292	-3.275	-3.1771	262.060	429.719	178.282	433.007	469.041	227.996	410.564	496.706	168.843	145.907	454.114	480.587	461.146	430.318	445.434	412.706	0.0007882	0.00045864	0.00013235	1615.6	8.5281e-06	6.3148e-06	1593.9	434.6	7.9968e-06	6.5973e-06	489.16	163.77	143.96	48.061	6.7672e-06	58.477	0.0008229	0.00091637	0.00025761	1646.7	9.6783e-06	1.0415e-05	1623	442.66	9.6449e-06	1.053e-05	501.88	167.12	147.46	49.683	1.0031e-05	60.326	279.158	218.349	237.569	153.132	306.069	281.443	152.849	157.778	311.090	288.551	157.243	161.387	161.665	166.318	302.084	165.440	-8191	255	
524.250	1	1	0	0	0.26497	0.12833	0.11411	0.16257	0.055848	0.30078	0.39419	0.13417	0.17185	0.15626	0.038782	0.10803	0.11068	0.33213	0.1028	0.21742	-2.9313	-2.9854	-2.9625	-3.5896	-3.0187	-3.3833	-3.7167	-3.2438	-3.4417	-3.1646	-3.1229	-3.6167	-3.1688	-3.3646	-3.3729	-3.1417	478.751	309.709	490.818	402.424	494.215	246.714	422.624	439.388	196.786	382.107	252.969	226.944	438.639	141.445	321.611	426.004	0.00077468	0.00067174	0.00015605	1618.8	9.297e-06	6.0997e-06	1590.1	433.89	7.6699e-06	7.7309e-06	488.55	162.5	143.38	47.481	7.5529e-06	58.19	0.00082809	0.00093692	0.00026887	1648.8	1.0026e-05	1.0413e-05	1621	441.87	9.6054e-06	1.118e-05	500.96	166.46	146.72	49.32	1.0324e-05	60.091	279.685	212.823	230.533	153.145	289.187	302.451	152.766	157.869	314.146	292.483	157.180	161.488	161.824	166.537	308.381	165.486	-8191	255	
524.346	1	1	0	0	0.1253	0.15945	0.035884	0.31945	0.086796	0.24369	0.41761	0.28071	0.26922	0.19559	0.10587	0.12057	0.44167	0.24079	0.1614	0.35278	-3.0104	-3.2021	-3.1729	-3.7042	-3.0354	-3.1917	-3.6354	-3.2062	-3.2708	-3.225	-3.3333	-3.6729	-3.2313	-3.3708	-3.4979	-3.0958	297.216	232.594	146.852	468.673	231.818	213.475	449.628	416.252	278.137	208.777	158.651	182.802	147.543	472.153	203.910	421.654	0.0007581	0.00051449	0.00015537	1603.8	8.4348e-06	5.8976e-06	1582.4	430.6	6.8822e-06	3.973e-06	483.33	161.22	142.62	47.304	6.3976e-06	57.812	0.00079926	0.00089086	0.00025291	1634.7	9.0203e-06	9.4924e-06	1607.8	438.87	8.478e-06	9.3437e-06	495.32	164.8	145.53	48.887	8.5431e-06	59.621	279.833	237.754	234.995	153.179	305.537	283.068	152.791	157.679	309.524	287.227	157.154	161.605	162.091	166.691	307.692	165.671	-8191	255	
524.466	1	1	0	0	0.11229	0.15582	0.15837	0.018648	0.071908	0.071902	0.33586	0.16633	0.027097	0.40581	0.070683	0.36795	0.1518	0.088436	0.052388	0.21916	-3.0958	-3.1729	-2.9479	-3.7604	-3.1042	-3.1583	-3.8625	-3.2479	-3.3187	-3.3063	-3.0583	-3.6708	-3.2625	-3.2313	-3.5167	-3.1458	291.447	402.933	345.714	333.946	140.192	285.797	442.868	387.325	427.660	180.197	390.773	372.225	140.805	463.179	193.113	426.881	0.00082034	0.00051945	0.00015435	1589.1	7.3178e-06	4.6043e-06	1562.8	424.04	7.325e-06	6.3668e-06	480.93	160.05	141.77	47.201	6.7956e-06	57.274	0.00078271	0.00080472	0.00021711	1617.7	8.5001e-06	8.9019e-06	1590.9	434.61	8.3872e-06	9.3352e-06	493.01	163.76	144.81	48.771	8.617e-06	59.391	277.807	217.520	222.362	153.157	298.842	293.975	153.005	157.986	315.996	283.383	157.101	161.575	161.990	166.499	300.416	165.796	-8191	255	
524.562	1	1	0	0	0.15882	0.13379	0.28807	0.38657	0.18791	0.23443	0.10016	0.12616	0.17751	0.21368	0.17299	0.17179	0.11745	0.1471	0.1313	0.12603	-2.8708	-3.2917	-3.0521	-3.6937	-3.3396	-3.2479	-3.7188	-3.3563	-3.4833	-3.4125	-3.0729	-3.5208	-3.3937	-3.1542	-3.4479	-3.2792	306.456	395.002	352.965	499.834	171.913	347.255	443.770	473.544	341.177	437.530	423.644	448.055	446.293	485.730	152.715	481.052	0.00078542	0.00062445	0.00017171	1592.9	7.7282e-06	4.3373e-06	1572.8	426.41	7.2315e-06	4.6598e-06	481.94	159.81	141.93	47.13	8.555e-06	57.315	0.00076354	0.00078367	0.00023617	1620.3	8.6549e-06	9.259e-06	1596	435.3	8.5082e-06	9.1506e-06	494.04	163.76	145.06	48.755	8.4363e-06	59.291	279.986	223.495	242.641	153.166	301.471	309.607	152.796	158.000	305.951	298.732	157.281	161.537	161.957	166.653	293.128	165.518	-8191	255	
524.657	1	1	0	0	0.1341	0.13047	0.15694	0.16647	0.14122	0.311	0.18547	0.20059	0.097801	0.37895	0.08009	0.33235	0.11921	0.27501	0.18197	0.094961	-3.0125	-3.325	-3.0271	-3.5354	-3.4062	-3.075	-3.7083	-3.2833	-2.9688	-3.3583	-3.125	-3.6146	-3.3333	-3.2333	-3.5042	-3.5604	389.012	242.463	479.744	476.558	209.753	456.738	375.035	496.582	322.480	453.049	392.050	439.883	175.629	170.585	490.609	394.676	0.00080437	0.00051771	0.00015094	1583.6	7.216e-06	6.3371e-06	1566.3	426.12	5.6027e-06	6.6562e-06	482.28	160.42	141.98	47.124	7.6536e-06	57.486	0.00078117	0.00083064	0.00023016	1616.9	8.6495e-06	9.4288e-06	1592.1	435.02	8.3744e-06	9.357e-06	493.55	164.15	145.08	48.723	8.3944e-06	59.362	279.729	237.403	226.780	153.218	292.047	283.545	152.774	157.924	313.462	285.763	157.062	161.636	161.608	166.433	300.151	165.812	-8191	255	
524.753	1	1	0	0	0.10699	0.096024	0.21405	0.060159	0.24833	0.13136	0.41444	0.03774	0.091359	0.071496	0.18032	0.10245	0.088494	0.13097	0.16025	0.45774	-2.7292	-3.4875	-2.9104	-3.4938	-3.2917	-3.0167	-3.6729	-3.1688	-3.0792	-3.4583	-3.075	-3.5187	-3.4	-3.1833	-3.4458	-3.3896	169.811	269.981	369.775	223.115	267.677	416.891	452.184	433.281	471.390	351.263	409.018	203.256	151.333	460.322	360.643	499.790	0.00077563	0.00058776	0.00016755	1585	6.8605e-06	6.6379e-06	1561.7	426.31	6.6599e-06	5.4579e-06	483.06	160.87	141.19	47.003	6.2067e-06	57.434	0.00077628	0.00075391	0.00021862	1614.2	8.5757e-06	9.1777e-06	1588.2	434.85	8.3332e-06	9.0013e-06	493.5	164.18	144.49	48.65	8.0778e-06	59.286	279.472	224.382	226.414	153.086	297.161	285.733	152.988	158.024	314.492	283.591	157.186	161.306	161.765	166.574	313.393	165.578	-8191	255	
524.874	1	1	0	0	0.21574	0.070246	0.10598	0.12479	0.064663	0.034483	0.24072	0.061858	0.39043	0.12954	0.25298	0.11823	0.14919	0.19741	0.12842	0.2072	-2.7167	-3.5125	-3.0229	-3.3979	-3.5667	-3.0125	-3.6625	-3.3417	-2.9958	-3.4833	-3.3	-3.2062	-3.3625	-3.3438	-3.5604	-3.475	268.750	373.129	342.925	451.909	479.224	457.720	441.549	399.226	422.733	184.457	463.945	439.656	438.692	477.926	494.911	401.479	0.00078729	0.00047105	0.00014997	1582.3	6.3567e-06	5.6497e-06	1566.9	426.36	7.8924e-06	5.5723e-06	479.87	160.86	141.05	46.962	6.044e-06	57.471	0.00078533	0.00075452	0.00021394	1612.8	8.2831e-06	9.2449e-06	1590	434.11	8.8153e-06	8.8423e-06	492.5	164.06	144.49	48.661	8.4583e-06	59.325	280.024	226.121	230.107	153.249	302.409	297.053	152.852	157.793	319.266	301.053	157.097	161.415	162.064	166.511	302.892	165.496	-8191	255	
524.945	1	1	0	0	0.12025	0.32015	0.05091	0.12713	0.1668	0.098684	0.10594	0.19065	0.24498	0.12627	0.13846	0.19762	0.14759	0.16412	0.1513	0.12082	-2.7625	-3.4833	-3.1125	-3.3271	-3.45	-3.2146	-3.6083	-3.5354	-3.1479	-3.4583	-3.3438	-3.1937	-3.5854	-3.1521	-3.3729	-3.4917	446.159	435.515	241.926	478.724	467.541	498.592	444.028	424.029	304.956	321.070	387.069	464.202	493.007	162.850	182.364	212.496	0.00081641	0.00049789	0.00015424	1583.6	7.9723e-06	5.7243e-06	1570.2	424.67	7.2745e-06	6.5105e-06	481.86	160.39	141.76	47.272	7.2921e-06	57.567	0.00080265	0.00079207	0.00023392	1615.7	8.8457e-06	9.3804e-06	1591.9	434.11	8.9116e-06	9.4201e-06	493.03	163.84	144.75	48.731	8.5182e-06	59.312	279.447	242.941	237.597	153.256	309.703	283.228	152.920	157.890	316.566	298.926	157.344	161.268	161.862	166.620	300.026	165.900	-8191	255	
525.041	1	1	0	0	0.27545	0.12088	0.045147	0.22908	0.098289	0.060807	0.1727	0.081946	0.22732	0.12268	0.22497	0.4002	0.12475	0.063929	0.14117	0.064165	-2.6562	-3.4854	-3.1667	-3.4083	-3.4333	-3.2167	-3.475	-3.6	-3.0125	-3.4229	-3.4083	-3.0687	-3.6667	-3.1583	-3.125	-3.5125	383.401	236.478	171.743	425.795	495.255	460.291	427.473	475.574	374.469	272.685	447.853	449.869	248.281	203.797	402.911	198.325	0.00080086	0.00066043	0.00014992	1584.2	6.8958e-06	6.0265e-06	1561.8	425.45	7.1409e-06	5.3143e-06	480.64	160.19	141.22	47.091	6.6973e-06	57.549	0.00077586	0.00079389	0.0002299	1614.5	8.5667e-06	8.9738e-06	1591.5	434.4	8.8648e-06	9.0377e-06	492.42	163.8	144.62	48.624	9.0834e-06	59.35	277.862	216.387	226.510	153.159	293.456	303.527	152.924	157.949	316.566	303.262	157.041	161.308	161.963	166.591	305.231	165.487	-8191	255	
525.138	1	1	0	0	0.090141	0.028578	0.10265	0.097349	0.16653	0.21305	0.20051	0.055058	0.13687	0.095663	0.11894	0.24463	0.13391	0.10725	0.21901	0.075556	-2.8146	-3.1958	-3.1646	-3.2958	-3.5479	-3.1312	-3.5	-3.7958	-3.1354	-3.4021	-3.4062	-3.1979	-3.5583	-3.3792	-3.125	-3.5938	244.296	257.772	448.289	430.216	452.661	470.660	426.417	489.242	336.727	153.437	454.248	414.372	153.593	445.621	455.660	367.050	0.00077515	0.00081304	0.0001636	1584.2	7.0193e-06	6.3271e-06	1565	424.68	6.013e-06	4.6301e-06	480.72	159.76	141.47	47.039	6.1289e-06	57.04	0.00077444	0.00084592	0.00023224	1616.8	8.2633e-06	9.028e-06	1592.3	433.79	8.8107e-06	9.5063e-06	492.82	163.74	144.47	48.624	9.0754e-06	59.17	280.111	220.528	234.834	153.163	301.927	292.021	152.913	157.893	314.572	290.762	157.196	161.386	161.954	166.660	306.320	165.688	-8191	255	
525.258	1	1	0	0	0.24227	0.13451	0.038312	0.30524	0.13486	0.31686	0.13181	0.30073	0.19073	0.047623	0.050433	0.28069	0.1197	0.30414	0.066459	0.16292	-2.6646	-3.2917	-3.2729	-3.1958	-3.35	-3.3583	-3.4958	-3.6708	-3.1875	-3.5896	-3.5563	-3.3458	-3.6917	-3.2771	-3.1625	-3.6896	436.089	141.922	155.487	465.868	230.701	179.171	386.970	457.136	208.487	293.129	317.636	474.237	216.920	463.189	297.886	454.513	0.00079265	0.00063248	0.00014124	1581.9	8.3349e-06	5.4925e-06	1565.2	424.11	7.3021e-06	5.7099e-06	480.33	160.11	140.6	46.849	5.9447e-06	57.377	0.00079176	0.00082021	0.00022873	1615.1	8.7107e-06	9.424e-06	1589.6	433.76	8.7621e-06	9.1834e-06	492.1	163.61	144.12	48.432	9.401e-06	59.153	280.127	211.286	244.853	153.068	296.941	283.715	153.090	157.907	319.923	285.050	157.028	161.592	161.926	166.478	312.858	165.817	-8191	255	
525.354	1	1	0	0	0.048438	0.074832	0.099936	0.33578	0.20402	0.15965	0.2732	0.11327	0.1621	0.12371	0.1652	0.082039	0.07509	0.2467	0.17368	0.17348	-2.7938	-3.2938	-3.4229	-3.1625	-3.3583	-3.1813	-3.3229	-3.8021	-3.025	-3.2833	-3.6458	-3.0542	-3.4875	-3.4458	-3.1146	-3.5438	468.664	301.207	294.084	467.969	474.210	405.269	394.105	155.590	207.828	304.130	399.284	361.724	492.839	180.956	318.043	198.232	0.00077003	0.00062881	0.00016371	1578.4	8.2961e-06	6.2683e-06	1561.8	425.16	6.2711e-06	6.0687e-06	481.27	160.13	141.1	46.923	5.7134e-06	57.219	0.0007938	0.00084511	0.00023734	1613.3	8.8862e-06	9.5313e-06	1589.1	434.48	9.1343e-06	9.9409e-06	491.97	163.45	144.13	48.473	9.0185e-06	59.139	279.135	212.996	227.851	153.054	290.591	290.953	152.861	157.959	309.423	285.115	157.127	161.399	162.132	166.686	293.812	165.611	-8191	255	
525.451	1	1	0	0	0.22331	0.22652	0.18386	0.057747	0.19871	0.25562	0.16149	0.2084	0.051328	0.076519	0.12161	0.13017	0.11104	0.15997	0.088899	0.10425	-2.8083	-3.2917	-3.4479	-3.3438	-3.3917	-3.3083	-3.1479	-3.7729	-3.2	-2.975	-3.7167	-3.2542	-3.5458	-3.5604	-3.2021	-3.5438	217.730	336.106	327.436	454.753	295.655	151.569	425.115	473.079	225.546	143.352	473.388	447.562	376.904	457.701	185.373	231.345	0.000787	0.00053464	0.00015012	1585.3	6.3842e-06	5.7819e-06	1562.8	424.02	7.3664e-06	6.5493e-06	481.15	159.61	141.67	46.853	7.582e-06	57.166	0.00078656	0.00082132	0.00022876	1614.1	8.924e-06	9.6173e-06	1587.5	433.26	8.7924e-06	9.9518e-06	492.29	163.27	144.33	48.455	9.0884e-06	59.092	279.610	205.358	241.229	153.158	289.214	311.862	152.903	157.875	307.188	286.778	157.382	161.560	161.956	166.688	303.573	165.531	-8191	255	
525.547	1	1	0	0	0.084909	0.36562	0.070498	0.15091	0.11669	0.098504	0.4128	0.11645	0.34046	0.15752	0.18051	0.25299	0.12764	0.27647	0.12907	0.22608	-2.8833	-3.1479	-3.575	-3.3604	-3.1667	-3.2562	-3.3333	-3.5417	-3.2146	-3.1063	-3.7729	-3.2875	-3.5687	-3.5062	-3	-3.5542	396.369	298.738	292.555	171.997	161.034	188.029	430.043	279.256	448.582	306.908	427.244	447.628	480.205	361.778	383.007	393.667	0.00075249	0.00057576	0.00018605	1584.9	8.6781e-06	3.7525e-06	1563.2	426.21	7.3276e-06	5.7611e-06	480.79	159.79	140.79	46.825	6.6752e-06	57.377	0.00076947	0.0008359	0.00022078	1612.8	8.7548e-06	8.9231e-06	1588.3	434.3	8.7887e-06	9.4651e-06	491.92	163.44	144.16	48.432	9.0285e-06	59.226	280.716	232.779	231.518	153.210	302.675	284.928	152.722	157.998	305.850	271.043	157.163	161.592	162.168	166.552	305.668	165.646	-8191	255	
525.643	1	1	0	0	0.19643	0.18406	0.040841	0.36005	0.089455	0.088615	0.099643	0.2967	0.14073	0.1829	0.30798	0.14237	0.22558	0.14666	0.046377	0.19224	-2.7333	-3.0833	-3.4958	-3.3417	-3.1188	-3.4167	-3.3646	-3.4667	-3.4792	-3.125	-3.5729	-3.3396	-3.3187	-3.625	-3.1479	-3.4313	390.651	142.387	439.569	449.419	175.186	367.011	479.751	371.113	168.399	246.907	446.050	496.844	215.519	141.985	364.373	340.676	0.00078273	0.00075731	0.00015922	1578.7	7.6104e-06	6.3276e-06	1557.1	425.09	7.1916e-06	6.9951e-06	479.01	159.79	141.19	46.711	5.8069e-06	57.493	0.00077905	0.00086293	0.00023187	1611.2	8.8313e-06	9.2531e-06	1586.7	433.36	8.8676e-06	9.8304e-06	491.94	163.17	144.12	48.361	9.0714e-06	59.156	280.759	221.153	235.776	153.143	300.750	295.629	153.065	157.831	312.836	283.681	157.230	161.569	161.779	166.500	319.037	165.745	-8191	255	
525.739	1	1	0	0	0.30973	0.2178	0.1178	0.17614	0.15752	0.084462	0.013131	0.22395	0.11273	0.12442	0.064771	0.13963	0.13123	0.14361	0.16783	0.18665	-2.9479	-2.9792	-3.3479	-3.5292	-3.1542	-3.4625	-3.2833	-3.5771	-3.4521	-3.1854	-3.5333	-3.3438	-3.1813	-3.6625	-3.0792	-3.4771	491.832	281.681	242.073	446.325	444.788	247.003	347.042	457.500	154.375	181.723	181.490	498.418	206.841	340.267	201.498	493.030	0.00080781	0.00044915	0.00014559	1577.1	7.6056e-06	6.5603e-06	1557.7	424.54	6.8285e-06	6.63e-06	479.8	159.92	140.49	46.759	6.8712e-06	57.2	0.00078714	0.00084977	0.00023347	1610.9	8.7773e-06	9.0434e-06	1586.5	433.6	8.6311e-06	9.5318e-06	491.08	163.29	144.05	48.313	8.5002e-06	59.149	280.088	236.056	223.059	153.249	297.826	301.050	152.954	158.091	317.990	297.446	157.099	161.509	161.988	166.498	295.541	165.694	-8191	255	
525.858	1	1	0	0	0.15225	0.057483	0.19335	0.29479	0.22018	0.033424	0.16759	0.21692	0.19863	0.32483	0.22467	0.24115	0.17063	0.071229	0.30695	0.11788	-3.0083	-3.2333	-3.4292	-3.6271	-3.3187	-3.6813	-3.4458	-3.5438	-3.4708	-3.0375	-3.5104	-3.4313	-3.0812	-3.7021	-3.1396	-3.4938	491.630	482.203	174.326	434.201	314.335	385.351	144.521	455.894	176.804	148.723	490.094	489.711	416.377	451.355	334.996	407.515	0.00078998	0.00053231	0.00011602	1580.2	7.7308e-06	5.6912e-06	1560	424.18	8.4416e-06	4.7631e-06	479.86	158.96	140.78	46.542	5.5859e-06	57.361	0.00077728	0.00080482	0.00022127	1608.6	8.6252e-06	8.975e-06	1585	432.52	8.7814e-06	9.2465e-06	490.36	162.91	143.85	48.233	8.7429e-06	59.149	280.160	223.882	241.488	153.028	293.136	289.451	152.963	157.830	312.754	283.114	157.231	161.518	161.825	166.684	311.330	165.740	-8191	255	
525.954	1	1	0	0	0.061625	0.19143	0.11976	0.20939	0.057633	0.078071	0.28174	0.33797	0.24373	0.17767	0.16047	0.17579	0.067028	0.11387	0.28312	0.24861	-3.0271	-2.8187	-3.4146	-3.4708	-3.1188	-3.4313	-3.3792	-3.3208	-3.6667	-3.2208	-3.4313	-3.5042	-3.1042	-3.5125	-3.2625	-3.2458	189.561	429.134	337.547	473.666	440.186	196.198	403.685	458.038	190.445	203.386	140.724	396.552	355.897	473.275	341.584	431.524	0.00078226	0.00056367	0.0001752	1581	8.1636e-06	5.4185e-06	1557.5	423.55	7.687e-06	6.3065e-06	479.06	159.22	140.8	46.688	7.4552e-06	57.063	0.00077778	0.00083347	0.0002246	1611.1	8.9294e-06	8.5354e-06	1584.9	433.23	8.5706e-06	9.6241e-06	490.91	162.66	143.92	48.313	8.7598e-06	59.015	278.936	214.986	227.522	153.216	299.852	278.930	152.837	157.682	304.671	300.892	157.313	161.518	161.977	166.824	303.953	165.457	-8191	255	
526.050	1	1	0	0	0.16636	0.2876	0.011262	0.26247	0.24664	0.2521	0.34451	0.25212	0.12759	0.16103	0.17089	0.24683	0.13552	0.16373	0.13386	0.17454	-3.0271	-2.8896	-3.3708	-3.6437	-3.2396	-3.4292	-3.5042	-3.275	-3.5229	-3.3625	-3.4479	-3.5187	-3.2604	-3.5354	-3.3292	-3.3812	312.373	436.779	481.368	451.893	445.650	215.879	435.775	421.700	276.743	211.795	241.333	436.055	158.703	369.694	244.054	429.146	0.00079698	0.00043032	0.00015459	1576	6.5446e-06	7.0911e-06	1559.1	424.05	7.7953e-06	7.3875e-06	477.91	159.58	140.79	46.726	7.9188e-06	57.15	0.00078144	0.00080432	0.00022588	1607.3	8.7908e-06	8.8666e-06	1582.5	432.63	8.7016e-06	9.4238e-06	490.19	162.82	143.74	48.194	8.8996e-06	59.021	278.458	224.489	236.469	153.062	298.720	294.189	152.813	157.777	309.338	277.522	157.174	161.388	161.799	166.457	309.258	165.679	-8191	255	
526.171	1	1	0	0	0.10303	0.06401	0.13311	0.21289	0.084581	0.07083	0.11875	0.33712	0.12795	0.25259	0.22857	0.31774	0.18092	0.10955	0.19773	0.39094	-3.0854	-2.8958	-3.2917	-3.7104	-3.0521	-3.4167	-3.6667	-3.1917	-3.4792	-3.1813	-3.3979	-3.4854	-3.1063	-3.5187	-3.4271	-3.1583	155.818	213.859	265.643	159.594	228.976	291.136	405.445	463.110	488.128	148.474	404.452	373.959	485.435	444.725	223.394	465.220	0.0007959	0.00056715	0.00014062	1574	7.5203e-06	6.1653e-06	1554.2	422.68	7.0282e-06	5.8363e-06	478.21	159.35	140.35	46.432	6.6024e-06	57.268	0.0007886	0.00081991	0.00022454	1606.1	8.4623e-06	9.1117e-06	1582.1	431.72	8.3185e-06	8.9892e-06	489.72	162.87	143.55	48.188	8.5881e-06	58.999	279.888	222.251	224.916	153.253	308.210	277.480	152.791	157.790	310.018	285.265	157.190	161.380	161.758	166.540	302.409	165.593	-8191	255	
526.242	1	1	0	0	0.21996	0.22176	0.042396	0.298	0.25481	0.19772	0.2814	0.086304	0.24931	0.17918	0.14698	0.12076	0.24519	0.097989	0.26828	0.030509	-3.1	-3.1271	-2.9729	-3.7	-2.9979	-3.3063	-3.6354	-3.0062	-3.3542	-3.25	-3.2687	-3.5542	-3.1479	-3.4021	-3.3125	-3.2083	226.555	203.230	140.520	436.266	292.201	411.646	396.001	376.266	247.646	394.950	185.330	439.222	450.469	279.568	491.878	238.062	0.00079969	0.00060148	0.0001588	1576.7	7.2235e-06	6.201e-06	1554.5	423.56	6.951e-06	6.5068e-06	479.59	158.19	140.66	46.33	8.7052e-06	57.072	0.00077651	0.00078893	0.00022392	1607.3	8.5973e-06	8.797e-06	1580.6	432.12	8.5366e-06	9.4808e-06	489.84	162.32	143.54	48.086	9.0145e-06	58.947	280.747	220.855	227.986	153.272	292.790	281.148	152.807	158.187	312.883	280.796	157.121	161.460	162.081	166.876	308.804	165.656	-8191	255	
526.337	1	1	0	0	0.25354	0.034638	0.063259	0.26303	0.17389	0.19738	0.32287	0.30119	0.04704	0.12035	0.045258	0.12134	0.27434	0.17355	0.13446	0.30614	-2.9521	-3.1146	-3.0354	-3.7812	-3.1771	-3.1896	-3.6104	-3.2313	-3.3854	-3.3083	-3.1375	-3.5271	-3.2313	-3.3521	-3.4437	-3.3125	348.425	474.578	230.962	493.711	342.091	308.339	439.589	452.830	376.759	444.604	188.217	229.316	428.496	252.917	272.268	441.078	0.00079507	0.00058309	0.00014383	1578	7.3596e-06	7.0154e-06	1554.6	422.53	7.7187e-06	6.259e-06	477.32	159.28	140.51	46.576	6.1991e-06	57.246	0.00078048	0.00081626	0.00022811	1604.7	8.5064e-06	9.3345e-06	1581.8	431.76	8.489e-06	9.3364e-06	489.39	162.65	143.54	48.139	8.5102e-06	58.926	279.331	222.968	220.250	153.219	295.922	288.919	152.853	157.975	315.437	291.591	157.009	161.530	161.971	166.534	300.464	165.579	-8191	255	
526.433	1	1	0	0	0.17396	0.1157	0.18356	0.25934	0.22541	0.20473	0.39706	0.37302	0.14687	0.070055	0.23783	0.17658	0.047364	0.069221	0.17894	0.11384	-3.0083	-3.2854	-2.9167	-3.7042	-3.15	-3.1104	-3.6146	-3.1771	-3.525	-3.3396	-3.2854	-3.725	-3.2938	-3.2687	-3.4021	-3.1333	421.307	442.017	233.627	429.698	155.712	441.927	464.381	476.943	393.127	377.613	434.748	439.571	216.420	163.037	424.584	335.423	0.00079543	0.00054389	0.00014972	1573.2	7.8753e-06	5.8294e-06	1554	421.36	6.3811e-06	7.1652e-06	477.22	158.56	139.99	46.543	5.1796e-06	56.991	0.00077632	0.00079227	0.00022631	1605.8	8.4515e-06	9.0775e-06	1580.5	431.5	8.3524e-06	8.9928e-06	489.49	162.33	143.51	48.127	8.4323e-06	58.899	280.012	234.324	235.797	153.065	300.859	298.023	152.845	158.088	300.159	289.447	157.030	161.568	162.104	166.658	306.747	165.780	-8191	255	
526.554	1	1	0	0	0.18005	0.093995	0.17902	0.13519	0.0078322	0.14237	0.19196	0.019963	0.14239	0.39574	0.28193	0.13405	0.24987	0.12523	0.048711	0.19472	-2.8208	-3.45	-2.925	-3.8167	-3.225	-3.0354	-3.7104	-3.1354	-3.3187	-3.4396	-3.1104	-3.5042	-3.3375	-3.2104	-3.5625	-3.3146	356.759	331.982	357.588	444.233	347.148	211.760	466.808	452.028	469.113	427.127	418.476	141.519	472.677	484.748	210.253	264.605	0.00080026	0.00079979	0.00016738	1573.5	8.5196e-06	4.704e-06	1554.6	422.36	7.2953e-06	7.08e-06	476.86	158.49	140.47	46.566	5.6148e-06	56.806	0.00077736	0.00081626	0.00022828	1606.5	8.564e-06	9.0304e-06	1579.8	431.41	8.5376e-06	8.9503e-06	488.93	162.47	143.3	48.159	8.5332e-06	58.836	279.508	225.219	240.292	153.229	291.846	294.711	152.792	157.903	313.774	294.649	157.201	161.425	161.851	166.396	310.102	165.591	-8191	255	
526.650	1	1	0	0	0.24774	0.10035	0.20644	0.067209	0.14326	0.11431	0.18281	0.23125	0.05662	0.19454	0.033726	0.038712	0.17972	0.1473	0.089273	0.28113	-2.8312	-3.3542	-2.9958	-3.5812	-3.3146	-3.0729	-3.8646	-3.2062	-3.2313	-3.5167	-3.2271	-3.4208	-3.4458	-3.15	-3.4958	-3.4083	231.534	322.335	161.291	251.529	465.002	147.021	409.312	380.550	483.657	261.712	403.085	311.906	263.728	199.794	417.094	357.325	0.0007985	0.00059639	0.0001308	1575.6	6.7121e-06	5.4043e-06	1551.8	422.44	6.0414e-06	5.529e-06	477.98	158.64	140.27	46.701	7.5145e-06	57.002	0.00078063	0.00080098	0.00022016	1605.4	8.4776e-06	9.0799e-06	1578.8	431.1	8.5962e-06	9.3789e-06	489.03	162.59	143.24	48.145	8.3644e-06	58.88	281.888	228.868	229.100	153.254	291.796	296.181	152.997	157.891	310.010	298.241	157.080	161.478	162.005	166.585	310.020	165.429	-8191	255	
526.746	1	1	0	0	0.2148	0.14552	0.26613	0.22688	0.15884	0.12582	0.10346	0.24872	0.10348	0.046034	0.095448	0.039935	0.38646	0.1247	0.056812	0.085452	-2.9229	-3.5104	-3.0958	-3.7146	-3.4333	-3.0167	-3.6104	-3.4104	-3.1521	-3.6271	-3.2542	-3.3625	-3.3771	-3.1	-3.5667	-3.2417	149.272	200.064	343.424	427.553	361.899	361.175	307.700	485.226	143.193	295.151	435.492	468.546	422.617	476.156	312.589	242.234	0.00076063	0.00047153	0.0001818	1572.1	6.1045e-06	3.8396e-06	1551.7	421.67	7.799e-06	4.2436e-06	476.92	158.57	139.84	46.499	8.037e-06	56.82	0.00078514	0.00077962	0.00022161	1602.8	8.6099e-06	8.8536e-06	1578.1	430.72	8.5421e-06	8.8945e-06	488.51	162.2	143.19	48.078	8.7169e-06	58.876	281.295	209.430	229.058	153.270	292.905	304.694	152.956	158.084	315.608	291.104	157.322	161.473	161.762	166.507	301.396	165.497	-8191	255	
526.842	1	1	0	0	0.29449	0.088238	0.11212	0.33728	0.38274	0.32198	0.15551	0.2983	0.098518	0.19181	0.072305	0.17821	0.14733	0.21783	0.22293	0.10688	-2.8458	-3.4604	-3.0396	-3.3521	-3.325	-2.9542	-3.6604	-3.3625	-3.0104	-3.4729	-3.2562	-3.3104	-3.5479	-3.1083	-3.3937	-3.5125	265.990	147.677	180.334	478.321	198.343	332.619	397.558	486.551	479.878	414.537	181.722	464.675	444.660	480.076	297.399	448.350	0.00078992	0.00070404	0.00019474	1568.1	6.5213e-06	4.6333e-06	1554.7	423.93	7.1126e-06	6.7685e-06	476.81	158.86	139.94	46.553	5.8868e-06	57.121	0.00078594	0.00078144	0.000226	1601.7	8.5703e-06	9.0033e-06	1578.7	431.52	8.8593e-06	9.181e-06	488.58	162.3	143.24	48.077	8.7469e-06	58.823	279.451	236.657	228.927	153.301	300.351	285.144	152.926	158.137	306.796	282.654	157.171	161.613	162.114	166.614	298.010	165.910	-8191	255	
526.938	1	1	0	0	0.29059	0.26695	0.0093581	0.38704	0.25215	0.29877	0.19296	0.096613	0.059038	0.28433	0.12403	0.14883	0.20944	0.26728	0.15443	0.13835	-2.5187	-3.3396	-3.1125	-3.2083	-3.3792	-3.0021	-3.5146	-3.4833	-2.9396	-3.5521	-3.3958	-3.4229	-3.5563	-3.1875	-3.2646	-3.3292	327.492	493.243	362.869	463.620	384.739	183.907	154.090	212.949	226.374	256.062	421.403	225.626	473.125	483.728	468.698	453.986	0.00080544	0.00055397	0.00012659	1567.5	7.2951e-06	4.421e-06	1544.4	421.88	6.7863e-06	6.0312e-06	477.19	158.85	140.1	46.398	6.1028e-06	57.118	0.00077024	0.00078863	0.00022534	1599.4	8.4713e-06	8.7664e-06	1574.6	430.62	8.61e-06	9.0523e-06	488.17	162.26	143.06	47.983	8.6021e-06	58.854	278.488	220.476	243.900	153.275	290.762	285.406	152.941	157.965	316.554	288.197	157.267	161.648	161.754	166.581	293.122	165.694	-8191	255	
527.034	1	1	0	0	0.061476	0.17707	0.23561	0.24398	0.089686	0.067836	0.35204	0.24316	0.068832	0.14704	0.22708	0.095017	0.34717	0.30641	0.184	0.24662	-2.5542	-3.2438	-3.1104	-3.4125	-3.5417	-3.125	-3.5646	-3.4604	-3.0229	-3.35	-3.2208	-3.2083	-3.6021	-3.0708	-3.0687	-3.4854	282.933	323.194	354.933	453.835	151.678	336.443	400.684	418.445	294.244	361.522	461.304	471.555	184.720	470.546	209.780	403.748	0.00079024	0.00060726	0.00016514	1568.3	6.387e-06	6.5234e-06	1550	421.27	7.2795e-06	6.9357e-06	476.1	158.29	139.69	46.323	7.497e-06	56.962	0.00076708	0.00076909	0.00022343	1600.5	8.4235e-06	9.1176e-06	1576	430.78	8.4019e-06	9.0086e-06	488.72	161.84	143.02	47.909	8.3754e-06	58.831	280.045	226.181	234.852	153.222	295.589	301.136	152.880	158.142	313.162	295.447	157.274	161.478	162.143	166.618	293.472	165.588	-8191	255	
527.131	1	1	0	0	0.11336	0.094749	0.068296	0.32338	0.17812	0.077735	0.21873	0.061022	0.10637	0.13251	0.020364	0.12354	0.071503	0.055322	0.1569	0.16642	-2.6521	-3.1708	-3.1729	-3.3792	-3.4792	-3.1479	-3.5208	-3.7646	-3.1021	-3.4896	-3.4542	-3.1854	-3.4875	-3.2646	-3.225	-3.5792	258.195	422.599	474.213	494.569	242.213	303.864	360.647	144.584	372.080	160.174	197.716	473.054	140.851	183.662	332.333	498.352	0.00076119	0.00063464	0.00014833	1570.1	7.3625e-06	4.6389e-06	1544.1	421	6.0052e-06	5.8507e-06	476.23	158.86	139.54	46.401	4.1422e-06	56.808	0.00075723	0.00076211	0.00022127	1598.7	8.0914e-06	8.6509e-06	1572.4	430.26	8.5577e-06	8.7804e-06	487.9	162.26	142.92	47.989	8.4223e-06	58.845	279.128	225.514	228.554	153.196	300.222	288.749	152.798	157.972	319.459	298.565	157.375	161.406	161.969	166.289	308.269	165.636	-8191	255	
527.249	1	1	0	0	0.19279	0.056627	0.1374	0.49692	0.33734	0.15868	0.20274	0.24296	0.17646	0.23203	0.32319	0.23826	0.24773	0.22097	0.15518	0.12244	-2.8063	-3.2812	-3.3125	-3.0125	-3.4062	-3.2292	-3.3542	-3.6771	-2.9667	-3.2979	-3.6021	-3.1708	-3.6729	-3.4354	-3.1958	-3.4917	401.163	194.500	448.500	493.622	480.938	157.281	464.678	382.087	454.527	201.467	456.090	436.260	488.133	481.579	443.369	464.236	0.00076294	0.00049377	0.00016091	1568.5	6.7495e-06	3.9922e-06	1551.4	422.61	6.674e-06	6.0007e-06	477.57	157.62	139.62	46.323	6.4311e-06	56.955	0.00075966	0.00077132	0.00022135	1597.5	8.1562e-06	8.9114e-06	1574	430.09	8.2864e-06	9.079e-06	487.85	161.63	142.92	47.953	8.5621e-06	58.81	280.441	230.774	230.416	153.210	297.144	291.397	152.993	157.968	301.516	292.100	157.114	161.491	161.867	166.428	314.847	165.879	-8191	255	
527.346	1	1	0	0	0.26294	0.17145	0.076993	0.2245	0.17444	0.060193	0.15461	0.20293	0.30365	0.072133	0.27908	0.21222	0.083202	0.10503	0.10552	0.21411	-2.875	-3.2896	-3.4875	-3.1833	-3.5042	-3.1479	-3.2042	-3.7458	-3.1542	-3.1	-3.6813	-3.1104	-3.3521	-3.3042	-3.0208	-3.6792	252.408	340.570	494.363	485.131	192.178	292.710	396.590	408.333	428.459	224.397	464.020	457.140	474.515	436.116	453.208	427.149	0.00078579	0.00041605	0.00016315	1565.8	6.0874e-06	6.5287e-06	1547.6	421.85	6.3719e-06	7.5136e-06	475.79	158.51	139.99	46.21	5.694e-06	57.039	0.00076173	0.00077081	0.0002154	1597.6	8.2336e-06	8.7676e-06	1572.8	429.74	8.3451e-06	9.2344e-06	487.21	161.93	142.94	47.886	8.3215e-06	58.791	278.769	227.081	240.164	153.193	312.557	293.281	152.920	157.995	313.131	278.866	157.294	161.577	162.062	166.707	302.525	165.636	-8191	255	
527.442	1	1	0	0	0.054073	0.20074	0.11546	0.32729	0.081916	0.29005	0.21691	0.10223	0.30583	0.10612	0.084937	0.29824	0.066853	0.22997	0.095766	0.094477	-2.7375	-3.2292	-3.5438	-3.4271	-3.4354	-3.3917	-3.2313	-3.5563	-3.1729	-3.2021	-3.5438	-3.4146	-3.3271	-3.4792	-3.0042	-3.4708	183.204	394.196	411.908	467.788	191.602	196.056	458.499	424.037	207.033	297.633	428.072	394.321	394.135	490.454	469.202	382.181	0.00079754	0.00055704	0.00013989	1564.5	6.9577e-06	6.022e-06	1544.1	421.15	7.6912e-06	7.0392e-06	475.88	157.97	139.82	46.465	7.393e-06	57.062	0.00077659	0.00082568	0.00022127	1596.1	8.3632e-06	8.7027e-06	1572	430	8.2406e-06	9.4226e-06	487.05	161.74	142.99	47.994	8.8787e-06	58.752	279.171	235.409	227.334	153.136	300.286	285.786	152.880	158.114	312.409	290.900	157.274	161.446	162.069	166.627	301.319	165.594	-8191	255	
527.538	1	1	0	0	0.14619	0.094993	0.28707	0.16455	0.10328	0.22383	0.38596	0.23159	0.14641	0.28272	0.20241	0.20355	0.26105	0.12631	0.083377	0.14688	-2.8042	-2.9813	-3.3521	-3.2542	-3.3187	-3.4708	-3.2938	-3.6771	-3.1646	-2.9938	-3.6729	-3.2167	-3.4042	-3.4938	-3.1479	-3.6396	152.570	382.383	240.665	461.650	398.487	406.098	433.297	404.028	396.339	323.524	314.604	440.407	485.907	378.859	251.713	486.161	0.00078221	0.00055808	0.00019388	1564.7	8.1189e-06	5.1436e-06	1546.6	420.88	6.8495e-06	6.0509e-06	475.93	157.97	139.44	46.255	6.4687e-06	56.625	0.00077382	0.00080594	0.00020912	1595.8	8.4812e-06	9.0764e-06	1571.7	430.21	8.5926e-06	9.1555e-06	487.3	161.95	142.69	47.888	8.7389e-06	58.652	280.864	225.931	234.258	153.189	297.183	276.618	152.917	157.976	318.408	298.838	157.275	161.669	161.984	166.817	294.914	165.656	-8191	255	
527.634	1	1	0	0	0.020332	0.14435	0.077356	0.28535	0.20227	0.14478	0.27157	0.22024	0.19206	0.2431	0.2914	0.16769	0.060586	0.38561	0.23723	0.26975	-2.9833	-3.1792	-3.3458	-3.3354	-3.2792	-3.3312	-3.2604	-3.5333	-3.4625	-3.0375	-3.5917	-3.4354	-3.2562	-3.4271	-3.0208	-3.5479	436.670	478.783	464.907	461.699	228.268	312.074	141.130	180.699	327.550	301.893	454.172	457.927	440.173	419.913	303.138	176.237	0.00074562	0.0005768	0.00016454	1566.8	7.9112e-06	4.7679e-06	1547.2	421.27	7.2798e-06	5.2198e-06	477.86	157.81	139.6	46.456	6.1908e-06	56.955	0.00076089	0.00079824	0.00022135	1597.7	8.5505e-06	8.9114e-06	1572.8	429.82	8.6045e-06	9.1458e-06	488.34	161.73	142.94	47.917	8.4882e-06	58.78	280.372	215.001	239.457	153.187	295.958	290.459	152.948	158.005	319.261	294.168	157.310	161.568	162.100	166.398	299.846	165.586	-8191	255	
527.730	1	1	0	0	0.058531	0.16504	0.29887	0.29243	0.063177	0.21685	0.2181	0.10066	0.21815	0.052817	0.17077	0.031828	0.32335	0.17751	0.2173	0.049812	-2.8792	-3.0875	-3.5208	-3.425	-3.1	-3.425	-3.1833	-3.5062	-3.4313	-3.2104	-3.6833	-3.3083	-3.2	-3.5938	-3.1271	-3.3292	277.980	299.956	409.623	485.404	280.483	295.550	441.149	487.169	148.853	411.707	155.883	229.558	484.895	143.256	345.873	477.818	0.00077353	0.00057884	0.00017287	1563.7	6.9106e-06	4.7971e-06	1548.7	421.81	7.4004e-06	7.0968e-06	476.82	157.94	139.29	46.354	7.0175e-06	56.871	0.00075727	0.00078954	0.00021146	1596.6	8.32e-06	8.6026e-06	1573.4	429.94	8.6861e-06	9.4942e-06	486.99	161.58	142.68	47.921	8.8357e-06	58.689	279.306	229.743	234.283	153.417	301.199	289.517	152.747	158.032	314.436	294.181	157.164	161.562	162.044	166.658	301.149	165.550	-8191	255	
527.851	1	1	0	0	0.09721	0.19859	0.13035	0.2253	0.058335	0.18774	0.2023	0.20486	0.12168	0.20811	0.18329	0.12134	0.17629	0.23009	0.097167	0.074977	-2.9375	-2.9646	-3.2792	-3.5458	-3.0563	-3.4708	-3.4417	-3.4375	-3.4646	-3.1437	-3.55	-3.375	-3.2625	-3.6729	-3.2354	-3.3375	423.875	212.046	193.918	465.336	388.350	189.443	458.811	460.669	327.926	265.102	398.115	321.003	460.156	401.118	257.413	415.800	0.00076261	0.0006603	0.00015674	1570.9	7.7646e-06	4.5008e-06	1544	420.3	7.7796e-06	4.4802e-06	475.09	157.88	139.98	46.478	6.9501e-06	56.547	0.00074649	0.00083469	0.00021756	1596.5	8.5703e-06	8.9832e-06	1571.3	429.23	8.2534e-06	9.3327e-06	487.63	161.65	142.95	47.964	8.9076e-06	58.662	277.668	224.682	235.036	153.220	293.921	301.306	152.767	158.109	307.159	287.806	157.323	161.583	162.031	166.758	309.386	165.911	-8191	255	
527.945	1	1	0	0	0.088825	0.21803	0.034573	0.45384	0.24491	0.073069	0.17903	0.15046	0.10286	0.095791	0.24901	0.22312	0.32114	0.093199	0.11319	0.24629	-2.8521	-3.0167	-3.2792	-3.6625	-3.0417	-3.4604	-3.4167	-3.4625	-3.5479	-3.0812	-3.4604	-3.5104	-3.1604	-3.5792	-3.225	-3.2	209.615	220.389	387.917	487.226	246.105	437.824	366.327	213.717	248.623	346.369	476.597	151.080	411.716	164.064	468.724	365.594	0.00078224	0.00049817	0.00012875	1565.3	8.719e-06	6.1671e-06	1542.4	420.25	7.2779e-06	6.0228e-06	473.18	157.87	139.34	46.119	6.7022e-06	56.861	0.00077336	0.00079683	0.00022805	1595.3	8.4145e-06	8.434e-06	1569.9	429.33	8.401e-06	9.039e-06	486.06	161.46	142.54	47.836	8.679e-06	58.582	278.978	224.796	235.952	153.320	307.265	291.695	152.810	157.720	314.472	295.762	157.365	161.538	162.079	166.709	297.044	165.897	-8191	255	
528.041	1	1	0	0	0.22675	0.16571	0.21548	0.29912	0.3339	0.1787	0.03154	0.25917	0.23574	0.24408	0.076514	0.23655	0.15591	0.041438	0.10914	0.34602	-3.1896	-2.9604	-3.3604	-3.7125	-3.1104	-3.5104	-3.5542	-3.2854	-3.5167	-3.0604	-3.2354	-3.4354	-3.1208	-3.5083	-3.3833	-3.2854	337.800	453.338	237.074	164.316	273.229	274.105	167.245	493.369	240.495	435.137	286.731	307.398	347.101	179.661	454.564	449.606	0.00078606	0.00067434	0.00014632	1559.6	7.5507e-06	4.8709e-06	1542	421.24	8.3701e-06	5.7367e-06	476.48	157.67	139.16	46.201	6.0022e-06	56.836	0.00075838	0.00081576	0.00021762	1592.2	8.3551e-06	8.8642e-06	1569.7	429.39	8.6155e-06	9.5949e-06	487.75	161.4	142.48	47.891	8.8837e-06	58.655	279.542	221.868	229.913	153.260	307.895	278.819	153.031	158.223	317.513	290.453	157.191	161.529	162.073	166.494	301.201	165.754	-8191	255	
528.115	1	1	0	0	0.12467	0.27034	0.050944	0.26155	0.064688	0.25368	0.24526	0.071397	0.18015	0.23049	0.31152	0.032007	0.21364	0.24105	0.21696	0.10155	-2.9896	-3.1021	-3.2021	-3.8042	-2.9188	-3.3917	-3.4313	-3.1333	-3.4979	-3.2417	-3.2021	-3.6083	-3.1729	-3.3625	-3.1083	-3.1583	320.149	330.546	287.604	461.628	337.557	424.664	490.514	405.235	237.281	467.183	405.590	196.947	160.561	451.883	189.515	410.351	0.00078569	0.00063006	0.0001481	1563	6.9859e-06	5.1097e-06	1542.5	420.4	6.7625e-06	5.4935e-06	475.83	157.96	138.85	46.075	6.9608e-06	56.424	0.00077062	0.00085098	0.00023521	1593.5	8.7773e-06	9.0033e-06	1570.3	428.68	8.6155e-06	9.3485e-06	486.91	161.41	142.27	47.764	9.0245e-06	58.434	279.572	218.135	241.669	153.262	288.859	294.218	153.001	157.981	312.130	270.140	157.158	161.591	162.289	166.635	294.789	165.638	-8191	255	
528.211	1	1	0	0	0.20804	0.080828	0.19895	0.4075	0.13054	0.18067	0.27503	0.26855	0.34715	0.17219	0.27207	0.34332	0.18122	0.18293	0.24121	0.25045	-3.05	-3.0646	-2.9583	-3.8354	-2.9938	-3.2958	-3.6813	-3.2833	-3.5875	-3.1729	-3.2938	-3.5271	-3.2792	-3.1833	-3.45	-3.1521	311.109	178.869	187.552	466.676	194.078	494.831	421.623	419.821	407.816	211.266	195.065	435.576	153.853	208.254	321.803	414.313	0.00075642	0.00055205	0.00017727	1559.1	6.5853e-06	7.2601e-06	1532.7	416.74	8.4078e-06	7.129e-06	473.99	156.95	138.08	45.947	7.0167e-06	56.313	0.00076943	0.00087163	0.00023825	1589.3	8.7953e-06	9.3109e-06	1561.8	426.57	8.8575e-06	1.0145e-05	483.94	160.26	141.27	47.574	9.2142e-06	58.191	279.595	225.721	219.907	153.116	298.251	300.220	153.010	158.205	314.155	290.912	157.178	161.477	162.237	166.620	289.171	165.789	-8191	255	
528.330	1	1	0	0	0.1171	0.12209	0.072737	0.19595	0.27407	0.32097	0.13489	0.23707	0.07706	0.11311	0.24365	0.13027	0.20798	0.090113	0.1651	0.243	-2.9771	-3.0146	-2.9	-3.6979	-3.0687	-3.1958	-3.5563	-3.1292	-3.1688	-3.2562	-3.2417	-3.4833	-3.1417	-3.1896	-3.4542	-3.2208	308.965	480.111	145.054	452.152	440.218	302.130	473.309	497.032	390.520	498.253	475.342	454.002	446.269	214.619	244.630	393.400	0.00075748	0.00055611	0.0001459	1559.2	8.0657e-06	5.5499e-06	1532.1	420.24	6.008e-06	7.1897e-06	473.03	157.36	138.72	46.066	7.3203e-06	56.352	0.00078721	0.00087123	0.00024854	1586.8	9.2445e-06	9.5478e-06	1563.3	427.85	9.2709e-06	1.0658e-05	484.65	160.71	141.76	47.664	9.8823e-06	58.204	278.418	218.148	249.846	153.169	306.689	292.874	152.877	157.876	310.935	290.734	157.227	161.658	161.853	166.367	316.042	165.912	-8191	255	
528.426	1	1	0	0	0.081403	0.1078	0.16663	0.2715	0.23936	0.11658	0.58827	0.1516	0.16098	0.045469	0.27489	0.28796	0.072681	0.18466	0.22049	0.13793	-3.0979	-3.2354	-2.8042	-3.6417	-3.1021	-3.2104	-3.5958	-3.3208	-3.4604	-3.4271	-3.2333	-3.6083	-3.3333	-3.2792	-3.3396	-3.075	315.789	342.333	428.598	420.084	327.621	321.175	417.196	447.134	339.574	182.377	456.083	143.128	173.128	417.226	344.535	436.344	0.000781	0.00059493	0.00017149	1567.8	7.468e-06	5.2461e-06	1550	423.1	7.1687e-06	5.8592e-06	476.21	157.98	139.05	46.412	5.1652e-06	56.817	0.0008239	0.00099057	0.00027169	1599	1.0425e-05	1.1173e-05	1576.1	430.61	1.0386e-05	1.1684e-05	487.95	161.52	142.56	47.986	1.0431e-05	58.586	279.109	223.303	237.125	153.317	303.232	288.880	152.963	158.125	323.060	292.902	157.042	161.554	162.193	166.492	306.688	165.823	-8191	255	
528.522	1	1	0	0	0.062899	0.059637	0.021383	0.45977	0.21317	0.21347	0.2075	0.2457	0.23438	0.024502	0.28572	0.23512	0.078508	0.068435	0.13829	0.26275	-3.0167	-3.425	-3.0083	-3.5	-3.2354	-3.0938	-3.6917	-3.2	-3.25	-3.5604	-3.025	-3.4542	-3.4458	-3.2167	-3.4771	-3.2167	422.271	282.117	407.713	480.237	249.474	159.131	404.596	426.228	379.689	472.958	451.992	446.443	143.486	375.351	433.636	436.677	0.00078938	0.00047041	0.00017081	1586.7	8.6493e-06	6.5724e-06	1565.1	424.31	8.1265e-06	5.4117e-06	478.06	158.48	139.6	46.463	6.1802e-06	56.917	0.00087186	0.0010562	0.00029301	1617.8	1.0546e-05	1.2109e-05	1593.7	433.26	1.0638e-05	1.1789e-05	490.23	161.88	142.91	48.065	1.0845e-05	58.673	279.559	220.685	223.616	153.179	303.067	292.237	152.902	157.926	315.231	278.618	157.321	161.404	162.030	166.519	318.585	165.490	-8191	255	
528.643	1	1	0	0	0.069656	0.073187	0.14709	0.092162	0.17543	0.088679	0.15983	0.16958	0.23705	0.12618	0.20902	0.24262	0.12553	0.12937	0.15968	0.17358	-2.7812	-3.5208	-3.0042	-3.6958	-3.3208	-3.0146	-3.6146	-3.3083	-3.05	-3.4813	-3.0417	-3.4708	-3.3354	-3.1354	-3.3312	-3.425	437.770	295.993	331.778	142.257	373.616	367.687	450.732	445.123	407.945	274.268	149.871	190.126	350.649	142.840	194.616	205.324	0.00078167	0.00078855	0.00015036	1591.9	7.0893e-06	6.1688e-06	1565.1	424.86	7.1676e-06	6.2464e-06	482.16	158.62	140.59	46.87	6.7481e-06	57.485	0.00086227	0.0010735	0.00029891	1624.7	1.071e-05	1.2009e-05	1596.6	433.71	1.0862e-05	1.2331e-05	492.2	162.47	143.96	48.454	1.1671e-05	59.178	280.065	223.596	230.856	153.010	297.908	287.398	152.952	157.747	321.437	297.603	156.987	161.636	161.902	166.578	302.336	165.646	-8191	255	
528.714	1	1	0	0	0.25058	0.094242	0.17588	0.14878	0.098672	0.11385	0.093305	0.19551	0.12044	0.083945	0.27311	0.21029	0.063166	0.3344	0.19054	0.13162	-2.9562	-3.4562	-3	-3.4208	-3.3646	-3.0729	-3.6271	-3.4729	-3.2625	-3.5042	-3.2646	-3.3417	-3.4104	-3.2062	-3.4042	-3.1771	389.092	410.310	354.517	387.678	491.054	348.250	419.270	455.133	423.587	204.207	476.961	449.647	230.369	479.457	450.528	142.339	0.00075652	0.00064123	0.00018381	1618.7	8.7821e-06	5.8077e-06	1589	429.21	7.0113e-06	5.2225e-06	483.31	160.2	141.29	46.852	6.632e-06	57.186	0.00089495	0.0010885	0.00031684	1647.4	1.1324e-05	1.2881e-05	1619.2	438.25	1.1419e-05	1.3246e-05	495.95	163.9	144.43	48.548	1.1797e-05	59.174	279.962	213.634	241.582	153.215	288.633	305.563	152.906	157.892	316.560	289.852	157.331	161.661	161.905	166.594	310.510	165.597	-8191	255	
528.811	1	1	0	0	0.3603	0.10302	0.28489	0.2215	0.038918	0.022375	0.20004	0.17853	0.20825	0.099805	0.090608	0.23142	0.089218	0.23412	0.15505	0.096167	-2.6646	-3.5354	-3.1042	-3.4604	-3.4167	-3.2167	-3.5146	-3.3333	-3.0875	-3.4271	-3.2042	-3.2521	-3.5563	-3.0771	-3.2542	-3.3583	186.258	146.765	268.840	156.262	458.074	239.993	447.025	144.041	446.692	292.304	411.458	383.596	456.890	393.988	382.364	447.440	0.00078571	0.00064672	0.00012374	1618.8	7.3674e-06	4.0671e-06	1593.6	428	6.5506e-06	4.4371e-06	483.06	159.72	141.22	46.98	6.3683e-06	57.165	0.00089757	0.0010899	0.00031992	1651.1	1.103e-05	1.231e-05	1621.7	438.18	1.1301e-05	1.2904e-05	495.74	163.55	144.54	48.548	1.1781e-05	59.193	279.654	228.333	235.574	153.207	302.625	296.862	152.878	157.916	307.734	287.503	157.034	161.483	162.176	166.595	321.046	165.666	-8191	255	
528.931	1	1	0	0	0.21541	0.26524	0.20131	0.34244	0.11269	0.16916	0.23697	0.25931	0.010223	0.19776	0.076485	0.28698	0.18179	0.21957	0.1058	0.059835	-2.4792	-3.3875	-2.9521	-3.3833	-3.3521	-3.0542	-3.4875	-3.4167	-3.025	-3.5083	-3.2458	-3.1979	-3.5896	-3.2292	-3.2229	-3.2792	406.462	250.596	493.255	495.417	321.132	346.846	424.523	421.533	406.941	238.860	450.726	459.466	170.598	468.266	391.808	358.672	0.0007911	0.00036154	0.00010948	1620.9	6.5859e-06	4.1439e-06	1590.9	428.46	6.5801e-06	6.3566e-06	483.89	160.01	140.55	46.757	5.9876e-06	57.219	0.00089949	0.0010866	0.00031473	1650.5	1.1119e-05	1.2653e-05	1618.6	437.62	1.146e-05	1.2419e-05	494.91	163.39	144.33	48.383	1.1299e-05	59.16	278.636	208.485	211.708	153.114	302.175	298.386	152.832	157.641	314.308	302.041	157.348	161.160	162.029	166.718	295.530	165.519	-8191	255	
529.027	1	1	0	0	0.22545	0.25416	0.039602	0.17077	0.14334	0.23462	0.22805	0.14336	0.22972	0.18434	0.39902	0.072055	0.08433	0.077478	0.093495	0.26547	-2.6562	-3.3896	-3.1	-3.1688	-3.4562	-3.0938	-3.5479	-3.4125	-3.1417	-3.3583	-3.2687	-3.2354	-3.5271	-3.0438	-3.1542	-3.4875	476.911	253.280	268.004	426.823	281.876	400.702	432.118	460.227	207.456	495.827	457.309	430.967	475.980	375.527	471.714	437.273	0.00080794	0.00066343	0.00013745	1620.2	8.5876e-06	6.5732e-06	1595.7	429.16	7.0397e-06	6.59e-06	485.06	160.02	141.3	47.004	6.5982e-06	57.16	0.00089364	0.0010829	0.00032077	1652	1.1824e-05	1.3163e-05	1622.6	438.64	1.187e-05	1.3234e-05	496.88	163.5	144.66	48.616	1.2458e-05	59.203	278.692	219.235	228.386	153.275	298.218	289.616	152.982	157.748	311.362	282.400	157.229	161.446	161.977	166.305	295.576	165.578	-8191	255	
529.123	1	1	0	0	0.13289	0.23266	0.28237	0.33178	0.21025	0.21974	0.24684	0.06821	0.13119	0.062279	0.19363	0.1074	0.27933	0.15665	0.0079329	0.2295	-2.5563	-3.2396	-3.2292	-3.1688	-3.2521	-3.0708	-3.4458	-3.3875	-3.0062	-3.1458	-3.3125	-3.1937	-3.3708	-3.1208	-3.1646	-3.4208	300.830	453.366	319.130	486.462	306.592	372.707	142.816	373.545	191.065	338.406	454.835	492.521	445.878	473.753	455.874	499.863	0.00075398	0.00061659	0.00015646	1629.1	8.3443e-06	4.7026e-06	1601.1	430.21	5.8935e-06	5.9137e-06	484.11	159.83	141.54	46.845	7.8508e-06	57.511	0.00092055	0.00119	0.00031652	1656	1.1806e-05	1.3402e-05	1624.9	438.58	1.1705e-05	1.3211e-05	496.12	163.55	144.65	48.532	1.1899e-05	59.338	279.540	221.079	232.774	153.285	302.345	274.495	153.078	158.135	317.974	273.836	157.252	161.403	162.049	166.481	304.108	165.620	-8191	255	
529.242	1	1	0	0	0.32151	0.22525	0.14478	0.24849	0.25028	0.2376	0.44238	0.43323	0.10411	0.22158	0.20931	0.29967	0.070183	0.29049	0.25825	0.26385	-2.6792	-3.2021	-3.1646	-2.9917	-3.3792	-3.1896	-3.3	-3.6958	-2.9437	-3.1562	-3.3854	-3.1479	-3.5083	-3.2062	-3.1604	-3.5542	193.608	314.631	427.780	490.113	444.369	250.033	446.595	480.285	279.000	264.823	206.957	460.354	282.608	443.765	307.130	427.922	0.00076482	0.00052698	0.00017238	1624.7	7.705e-06	4.5824e-06	1598.1	430.98	5.9686e-06	7.6532e-06	482.8	160.16	141.89	46.937	6.4217e-06	57.193	0.00091127	0.0011733	0.0003338	1655	1.1839e-05	1.3339e-05	1626.1	439.29	1.1718e-05	1.3311e-05	496.13	163.98	144.9	48.505	1.1987e-05	59.19	281.216	230.130	249.754	153.150	306.286	291.731	152.950	157.965	305.380	290.547	157.501	161.676	161.796	166.489	292.625	165.669	-8191	255	
529.339	1	1	0	0	0.13295	0.18003	0.21527	0.24489	0.1505	0.11961	0.27493	0.24613	0.10162	0.068608	0.21471	0.23836	0.077004	0.24973	0.27439	0.1637	-2.575	-3.2438	-3.25	-3.275	-3.325	-3.0292	-3.1937	-3.6083	-2.9979	-3.1271	-3.4125	-3.1167	-3.2438	-3.3042	-3	-3.4313	468.729	386.074	461.451	431.847	242.957	492.837	419.389	498.586	468.814	201.161	405.720	403.330	355.960	455.111	253.671	395.284	0.00084746	0.00067931	0.00016207	1625.5	8.5247e-06	6.2031e-06	1595.4	429.89	6.7925e-06	6.0291e-06	485.34	160.12	141.53	46.825	6.3318e-06	57.369	0.00094087	0.0011591	0.00031926	1655	1.1588e-05	1.3191e-05	1625	438.63	1.2272e-05	1.3622e-05	496.24	163.84	144.93	48.603	1.255e-05	59.299	280.123	217.064	221.601	153.256	299.442	300.140	152.930	157.954	320.928	309.646	157.397	161.395	161.828	166.687	305.870	165.622	-8191	255	
529.410	1	1	0	0	0.073723	0.15563	0.24909	0.13509	0.19618	0.19221	0.26795	0.13646	0.32827	0.065464	0.10705	0.1705	0.10377	0.032645	0.084476	0.21119	-2.6542	-3.1208	-3.2729	-3.3271	-3.3187	-3.3458	-3.1792	-3.55	-3.1979	-3.1292	-3.4125	-3.1146	-3.3792	-3.5438	-2.9708	-3.4729	363.067	368.263	431.561	160.208	442.221	283.202	369.584	405.427	178.830	172.431	401.060	485.081	396.992	499.497	404.125	480.169	0.00076365	0.00049444	0.00011402	1620.2	7.5135e-06	4.2998e-06	1601.5	430.47	7.4428e-06	6.4304e-06	485.15	160.43	141.01	47.156	7.0946e-06	57.486	0.00091473	0.0011418	0.0003269	1654.5	1.198e-05	1.3229e-05	1627.9	439.17	1.2013e-05	1.377e-05	496.75	163.99	144.71	48.719	1.2615e-05	59.391	280.460	226.521	233.083	153.256	306.118	315.203	152.944	157.927	324.846	272.250	157.110	161.636	161.843	166.573	296.766	165.517	-8191	255	
529.506	1	1	0	0	0.14766	0.10037	0.074484	0.24302	0.029984	0.066725	0.2406	0.20339	0.015866	0.21695	0.25943	0.37281	0.033182	0.27069	0.2654	0.15557	-2.6917	-2.9792	-3.2583	-3.2979	-3.2438	-3.35	-3.1479	-3.5187	-3.2417	-2.9375	-3.5958	-3.1958	-3.2729	-3.4688	-2.7875	-3.2542	374.897	438.927	161.578	170.086	299.767	332.601	466.490	390.674	340.709	258.354	410.690	499.605	462.328	482.060	415.479	494.198	0.00079771	0.00074624	0.00015252	1623.9	8.0236e-06	5.7468e-06	1601.4	432.19	6.8919e-06	5.4732e-06	485.44	160.43	142.15	47.009	5.0042e-06	57.584	0.00094083	0.0011948	0.00033089	1657.3	1.2003e-05	1.3504e-05	1631	440.68	1.218e-05	1.4358e-05	497.51	164.18	145.29	48.632	1.2622e-05	59.426	279.211	215.311	235.116	153.035	296.843	301.469	152.910	157.862	317.047	306.642	157.227	161.534	161.837	166.457	304.168	165.583	-8191	255	
529.627	1	1	0	0	0.19826	0.037921	0.28081	0.26974	0.017789	0.27447	0.48526	0.25	0.22155	0.20985	0.1072	0.15038	0.19937	0.28073	0.090813	0.30559	-2.9	-2.8625	-3.3604	-3.275	-2.8396	-3.1875	-3.2979	-3.4146	-3.3187	-3.0812	-3.6208	-3.3125	-3.1792	-3.6063	-2.9604	-3.2979	458.340	364.499	446.200	435.646	376.501	289.143	466.623	446.945	366.942	492.829	246.294	425.541	167.486	407.672	252.267	424.743	0.00078901	0.00065958	0.00016032	1631.2	6.4002e-06	6.7365e-06	1608.2	430.22	7.2529e-06	4.5626e-06	484.86	159.99	141.44	46.957	6.2845e-06	57.328	0.00092578	0.0012374	0.00032616	1661.5	1.2235e-05	1.3366e-05	1632	440.23	1.2357e-05	1.3948e-05	497.39	163.86	144.86	48.54	1.2257e-05	59.22	277.175	249.120	237.838	153.129	302.835	273.123	152.815	157.881	310.283	301.796	157.251	161.444	162.010	166.700	313.439	165.439	-8191	255	
529.723	1	1	0	131072	0.13806	0.087492	0.043697	0.14391	0.24527	0.19419	0.25096	0.051676	0.10225	0.29889	0.139	0.2756	0.11759	0.33413	0.23794	0.09661	-2.8854	-2.8812	-3.3208	-3.2188	-3.0646	-3.4083	-3.1792	-3.5104	-3.325	-2.7854	-3.5146	-3.1292	-2.95	-3.5104	-2.9396	-3.3542	464.958	154.086	230.046	451.314	446.906	380.182	390.366	206.580	304.107	147.685	403.740	474.639	197.059	299.692	361.760	464.907	0.00076143	0.00051537	0.00016471	1625.9	8.4562e-06	6.18e-06	1603.1	431.13	6.762e-06	5.7335e-06	485.3	159.63	141.7	46.794	4.8232e-06	57.572	0.00090938	0.0011848	0.00032895	1659.2	1.2053e-05	1.302e-05	1630.3	439.63	1.232e-05	1.3692e-05	496.78	163.63	144.81	48.491	1.2066e-05	59.314	279.929	253.092	240.381	153.171	295.831	291.624	152.968	157.941	314.128	300.708	157.214	161.512	161.818	166.635	301.695	165.659	-8191	255	
529.819	1	1	0	0	0.044051	0.18557	0.24683	0.29132	0.075099	0.37054	0.32704	0.29196	0.2318	0.33232	0.074241	0.12157	0.11113	0.28858	0.092464	0.14212	-2.8729	-2.9271	-3.2875	-3.4521	-2.9083	-3.3479	-3.2625	-3.3896	-3.2583	-3.0646	-3.4813	-3.325	-3.0917	-3.4688	-3.0521	-3.1854	199.775	202.488	164.472	478.756	167.194	244.917	390.065	498.371	335.736	232.927	393.021	465.971	212.322	458.805	172.949	208.512	0.00076433	0.00055743	0.00014615	1617.6	7.1537e-06	6.3127e-06	1597.9	429.87	5.9137e-06	6.2198e-06	483.07	159.41	140.95	46.919	6.8417e-06	57.067	0.00089745	0.0011802	0.0003143	1653.5	1.1717e-05	1.2911e-05	1626.1	438.63	1.1326e-05	1.322e-05	495.64	163.39	144.26	48.372	1.2037e-05	58.989	280.207	226.060	233.527	153.183	307.394	291.247	152.978	157.938	311.490	290.107	157.184	161.753	161.979	166.479	294.809	165.892	-8191	255	
529.915	1	1	0	0	0.13514	0.03162	0.068683	0.33005	0.22561	0.14578	0.054125	0.31361	0.065459	0.11834	0.13241	0.19155	0.15143	0.11931	0.36818	0.1738	-2.7875	-2.8479	-3.0479	-3.3688	-2.8104	-3.3125	-3.4917	-3.1188	-3.4417	-3.0312	-3.3167	-3.3604	-3.0479	-3.5146	-3.2313	-3.0896	148.689	433.156	234.392	473.170	240.026	327.407	439.045	481.776	220.659	353.226	476.638	413.872	403.020	422.397	410.857	398.172	0.00077408	0.00057355	0.00018871	1618.6	5.3489e-06	6.6164e-06	1593.8	427.97	7.1597e-06	5.3471e-06	482.5	159.17	141.32	46.811	7.1457e-06	57.2	0.00089191	0.0011407	0.00031191	1651.4	1.1205e-05	1.2448e-05	1623.6	437.36	1.1136e-05	1.3533e-05	494.67	163.23	144.34	48.391	1.217e-05	59.076	278.045	215.029	227.559	152.991	299.689	280.218	152.995	157.880	314.296	291.214	157.131	161.453	162.041	166.611	300.314	165.473	-8191	255	
530.012	1	1	0	0	0.13447	0.13528	0.18044	0.19779	0.092139	0.2377	0.31316	0.27115	0.032708	0.079589	0.15274	0.12499	0.26981	0.11678	0.38337	0.056749	-2.9792	-2.9583	-3.2875	-3.5812	-2.9	-3.3417	-3.4188	-3.0333	-3.5104	-3.0354	-3.4083	-3.4333	-3.0125	-3.3979	-3.2125	-3.0854	373.920	411.892	411.676	388.602	337.828	143.966	377.722	454.153	166.454	164.377	499.932	495.752	496.441	200.531	400.876	433.197	0.00075159	0.00062758	0.00015962	1619.4	9.0395e-06	5.0302e-06	1591.8	429.64	6.2764e-06	5.1594e-06	481.65	159.57	140.81	46.528	5.962e-06	56.887	0.00087012	0.0010762	0.00030618	1650.2	1.1227e-05	1.2281e-05	1623.2	438.23	1.1137e-05	1.2905e-05	494.31	163.25	144.27	48.333	1.1487e-05	58.971	280.335	227.124	235.236	153.179	299.928	293.748	152.818	158.100	304.863	301.749	157.283	161.599	162.154	166.578	296.923	165.773	-8191	255	
530.108	1	1	0	0	0.096168	0.050496	0.2373	0.38335	0.22085	0.073415	0.31991	0.21651	0.0677	0.038815	0.24916	0.24073	0.29075	0.14373	0.11491	0.4687	-2.9292	-2.9958	-3.1688	-3.6104	-3.0271	-3.2438	-3.3979	-3.2062	-3.4104	-3.2062	-3.3417	-3.5042	-3.0812	-3.2833	-3.3063	-3.0792	324.546	412.312	325.498	493.919	401.356	337.967	417.708	432.456	336.076	370.093	464.994	458.497	440.876	457.408	433.908	480.034	0.000757	0.0005318	0.00013437	1617.7	6.5316e-06	5.3916e-06	1591.9	429.47	7.3577e-06	5.5477e-06	482.2	159.44	141.13	46.63	6.5505e-06	56.9	0.00086158	0.001079	0.00030544	1648.6	1.1603e-05	1.1769e-05	1620.1	437.5	1.1092e-05	1.2731e-05	494.27	162.99	144.12	48.334	1.1312e-05	58.927	277.728	223.477	218.041	153.105	288.191	283.537	152.886	158.009	316.157	281.752	157.192	161.620	162.102	166.425	296.386	165.584	-8191	255	
530.204	1	1	0	0	0.1356	0.093405	0.13017	0.19444	0.10889	0.14933	0.21666	0.26466	0.43779	0.11859	0.15508	0.21015	0.13774	0.089658	0.19831	0.037586	-2.9646	-3.0687	-2.9104	-3.5979	-3.0583	-3.2333	-3.3646	-3.0667	-3.1667	-3.0208	-3.3458	-3.4896	-2.9958	-3.3625	-3.4	-2.8	305.387	228.840	333.707	432.247	316.596	315.600	409.280	417.179	392.995	146.958	336.792	492.375	476.182	492.848	273.374	180.799	0.00075973	0.00045489	0.00014158	1617.5	7.7506e-06	5.9647e-06	1592.6	427.89	7.6402e-06	6.8525e-06	484.02	158.79	140.6	46.494	7.3977e-06	56.976	0.00087224	0.0010237	0.00029626	1648.1	1.1186e-05	1.2409e-05	1618.6	437.16	1.1208e-05	1.2604e-05	494.58	162.86	143.89	48.256	1.1585e-05	58.883	280.870	235.143	218.118	153.091	298.687	298.453	152.898	157.933	312.454	291.055	157.225	161.511	162.148	166.495	297.035	165.559	-8191	255	
530.323	1	1	0	0	0.093886	0.015086	0.15581	0.22898	0.051026	0.14619	0.14298	0.057266	0.095183	0.16291	0.30285	0.30597	0.18171	0.13133	0.16736	0.11059	-2.9146	-3.1083	-2.9958	-3.6396	-3.0604	-3	-3.4854	-3.0375	-3.2833	-3.1896	-3.1771	-3.4792	-3.0979	-3.1542	-3.1937	-3.0042	456.273	231.297	488.032	452.322	150.839	353.367	147.750	499.883	377.612	175.833	142.023	483.410	436.670	196.563	211.066	334.917	0.00080724	0.00059422	0.00010593	1608.6	7.3487e-06	4.0995e-06	1589.4	427.95	6.4443e-06	6.603e-06	482.52	159.35	140.56	46.718	6.9626e-06	57.259	0.00088795	0.0010565	0.00029797	1644.2	1.1102e-05	1.1766e-05	1618.6	436.64	1.0935e-05	1.1827e-05	493.88	162.84	143.67	48.252	1.1056e-05	58.918	279.351	217.977	236.794	153.104	301.595	298.279	152.972	158.060	318.210	283.420	157.428	161.710	161.972	166.660	303.540	165.889	-8191	255	
530.419	1	1	0	0	0.1578	0.19119	0.25616	0.28704	0.14979	0.20876	0.29378	0.14187	0.16929	0.095912	0.15336	0.13976	0.22167	0.24308	0.040473	0.25698	-2.9688	-3.3292	-2.8542	-3.575	-3.15	-3.0292	-3.6542	-3.1417	-3.2729	-3.3208	-3.1188	-3.4188	-3.3604	-3.2417	-3.2792	-3.0417	281.528	440.345	354.525	473.169	494.967	215.820	467.339	171.102	393.160	367.551	458.883	449.509	460.367	464.618	488.818	399.011	0.00078153	0.00077983	0.0001901	1609.6	7.901e-06	7.1669e-06	1592.7	427.84	6.6652e-06	5.5923e-06	482.14	158.68	139.79	46.572	6.9125e-06	56.958	0.00085488	0.0010911	0.00031065	1642.8	1.0971e-05	1.2089e-05	1617.3	436.88	1.0728e-05	1.2252e-05	492.77	162.61	143.56	48.186	1.1332e-05	58.893	280.320	226.254	239.106	153.102	294.195	299.655	153.010	157.896	308.591	296.241	157.395	161.459	162.014	166.640	296.415	165.879	-8191	255	
530.515	1	1	0	0	0.04901	0.039769	0.13421	0.40262	0.14282	0.13586	0.18579	0.10544	0.14216	0.13605	0.11806	0.22388	0.090488	0.085769	0.18784	0.17105	-2.875	-3.2167	-2.8354	-3.5375	-3.1667	-2.9083	-3.7271	-3.1854	-3.1813	-3.3646	-3.0396	-3.5854	-3.3563	-3.1729	-3.4646	-3.0458	458.493	349.192	366.453	429.127	494.062	436.704	467.705	403.790	201.892	377.952	218.613	426.238	339.771	150.058	254.448	464.545	0.00078369	0.00055237	0.00015193	1615.1	7.7364e-06	5.8862e-06	1588.1	427.83	6.8095e-06	7.1322e-06	480.91	158.19	140	46.48	7.3558e-06	56.687	0.00088679	0.0010394	0.00029771	1644.6	1.11e-05	1.2369e-05	1613.5	435.98	1.0492e-05	1.1767e-05	492.59	162.27	143.51	48.111	1.0994e-05	58.649	281.039	228.553	232.667	153.194	303.707	286.975	152.718	157.937	311.692	285.518	157.326	161.573	162.238	166.715	301.098	165.648	-8191	255	
530.611	1	1	0	0	0.12084	0.15591	0.31732	0.34028	0.26746	0.012503	0.27076	0.21556	0.13903	0.14525	0.30321	0.058663	0.42624	0.080705	0.17426	0.073099	-2.7313	-3.3583	-2.7917	-3.3875	-3.3167	-2.9313	-3.5479	-3.0333	-3.0479	-3.2146	-3.1104	-3.4	-3.1958	-2.8542	-3.3479	-3.1	341.275	398.577	151.480	449.876	178.924	338.637	448.645	455.971	352.197	474.448	489.786	168.402	467.324	157.397	386.542	152.444	0.00076236	0.00051597	0.00017664	1605.3	6.9522e-06	4.7695e-06	1581.1	426.18	7.2041e-06	7.222e-06	480.42	157.5	139.36	46.391	4.9426e-06	56.906	0.00083664	0.00097933	0.00028913	1637.5	1.0617e-05	1.129e-05	1608.9	434.1	1.0137e-05	1.119e-05	491.98	161.59	142.7	47.947	1.0548e-05	58.624	278.121	224.556	223.075	153.150	305.292	308.130	152.977	158.021	310.558	297.790	157.262	161.714	161.956	166.493	297.261	165.586	-8191	255	
530.707	1	1	0	0	0.14807	0.12585	0.10537	0.35878	0.069544	0.056959	0.19352	0.27345	0.048994	0.24231	0.04906	0.28196	0.23222	0.14537	0.12138	0.057422	-2.6792	-3.2917	-3.0375	-3.45	-3.1833	-3.0604	-3.7	-3.3729	-3.0646	-3.4688	-3.1146	-3.3563	-3.3604	-2.9771	-3.3667	-3.2417	234.243	278.177	292.520	478.434	443.958	472.699	447.635	463.040	259.378	491.385	217.445	471.033	483.274	188.966	305.238	382.807	0.00076917	0.00062377	0.00016011	1600.5	6.723e-06	6.339e-06	1576	424.78	5.6969e-06	7.9253e-06	478.21	158.31	139.69	46.334	6.4711e-06	56.618	0.00082994	0.00096617	0.00028375	1633	9.8296e-06	1.1258e-05	1603.5	434.33	9.7897e-06	1.1326e-05	490.53	162.02	142.95	47.922	1.0328e-05	58.625	278.216	223.193	231.105	153.213	293.833	288.577	152.813	158.117	312.657	280.573	157.306	161.665	161.991	166.574	308.644	165.664	-8191	255	
530.803	1	1	0	0	0.080429	0.10087	0.20681	0.15889	0.27587	0.22953	0.23909	0.2768	0.2353	0.25411	0.18691	0.15083	0.12527	0.20731	0.31073	0.22417	-2.5458	-3.4396	-3.0229	-3.2542	-3.4125	-2.9146	-3.6312	-3.3812	-3.0938	-3.3875	-3.2042	-3.3375	-3.6458	-3.2479	-3.4333	-3.3083	470.026	462.257	433.307	432.844	415.460	159.841	150.129	431.471	409.961	318.095	482.798	459.806	221.027	452.575	419.640	399.661	0.00077289	0.00062199	0.00011265	1599.7	8.5918e-06	5.9187e-06	1580.4	424.59	5.9733e-06	5.808e-06	478.57	158.62	139.02	46.223	6.7655e-06	56.636	0.00083999	0.00097326	0.00027659	1632.9	1.0259e-05	1.1099e-05	1604	433.4	1.0251e-05	1.1434e-05	490.18	161.88	142.65	47.879	1.0059e-05	58.542	278.440	222.796	247.617	153.331	300.088	283.375	152.966	157.809	313.759	294.586	157.190	161.480	162.102	166.460	300.886	165.697	-8191	255	
530.924	1	1	0	0	0.29325	0.073455	0.18769	0.13199	0.11618	0.11587	0.20908	0.24584	0.18782	0.26071	0.085501	0.23427	0.16997	0.019688	0.27036	0.15946	-2.4854	-3.3563	-3.0792	-3.3979	-3.4458	-3.0021	-3.5083	-3.3979	-3.0104	-3.5438	-3.2562	-3.1625	-3.2729	-2.9542	-3.2083	-3.2917	239.995	432.791	380.686	404.580	369.265	280.686	402.197	464.756	482.628	288.572	402.949	455.190	403.144	431.497	317.413	459.204	0.00080594	0.00063814	0.0001751	1598.9	7.1626e-06	5.0782e-06	1582.1	425.58	6.6551e-06	7.1905e-06	477.63	157.88	139.44	46.24	7.3621e-06	56.877	0.00084484	0.00095585	0.00026627	1629.6	9.7981e-06	1.0841e-05	1604.3	433.18	1.0482e-05	1.1019e-05	490.28	161.64	142.76	47.894	1.0164e-05	58.595	278.712	222.375	236.674	153.232	307.966	294.185	152.767	158.006	320.080	264.171	157.220	161.589	162.045	166.687	303.624	165.911	-8191	255	
531.020	1	1	0	0	0.096924	0.1137	0.33725	0.16009	0.090362	0.32883	0.17626	0.19985	0.3629	0.30837	0.25266	0.086695	0.53874	0.087097	0.17265	0.22969	-2.6542	-3.2729	-2.9583	-3.1854	-3.4521	-3.1542	-3.6312	-3.4479	-2.9875	-3.2854	-3.2979	-3.0938	-3.4083	-3.1188	-3.2854	-3.4854	240.879	256.705	291.951	467.184	364.151	238.471	486.545	447.203	274.873	363.079	415.822	421.661	467.637	360.739	250.608	414.385	0.00080054	0.00056885	0.00013701	1600.1	7.3423e-06	5.3501e-06	1571.2	424.7	6.3865e-06	6.2883e-06	476.84	158.09	139.44	46.255	4.932e-06	56.554	0.00084337	0.00097559	0.00027089	1628.9	9.8341e-06	1.1315e-05	1600.2	433	9.72e-06	1.1319e-05	489.59	161.33	142.65	47.876	9.8324e-06	58.437	280.729	242.125	237.453	153.262	294.895	278.005	153.027	158.153	310.896	290.065	157.110	161.496	161.969	166.701	308.691	165.790	-8191	255	
531.115	1	1	0	0	0.12746	0.18797	0.092949	0.23614	0.15912	0.1844	0.33137	0.10317	0.23241	0.072662	0.23687	0.13106	0.24746	0.44371	0.07462	0.10343	-2.5667	-3.2938	-3.2208	-3.1271	-3.2917	-3.2083	-3.4375	-3.4562	-3.0854	-3.4125	-3.3292	-3.0417	-3.3958	-3.2729	-3.0563	-3.5229	192.057	254.598	219.548	479.372	278.512	276.412	439.494	474.661	349.603	368.428	143.570	311.598	449.222	424.954	355.432	310.577	0.00076338	0.00049881	0.00012238	1598.2	7.7703e-06	3.7411e-06	1574.2	423.36	7.5069e-06	6.3819e-06	479.99	157.76	139.91	46.113	8.0123e-06	56.216	0.00081916	0.00092477	0.00025641	1628	9.8557e-06	1.0578e-05	1599.6	432.44	9.9309e-06	1.0859e-05	490.42	161.58	142.73	47.778	1.0386e-05	58.371	279.696	218.975	233.022	153.275	298.891	305.282	152.996	158.046	316.738	301.241	157.201	161.498	162.174	166.542	309.142	165.747	-8191	255	
531.211	1	1	0	0	0.077578	0.17375	0.055013	0.15288	0.15916	0.32629	0.28928	0.26605	0.18277	0.14549	0.10058	0.15072	0.27586	0.21916	0.14514	0.26985	-2.3563	-3.1333	-3.4062	-3.1979	-3.475	-3.2625	-3.2833	-3.6208	-3.2792	-3.3625	-3.2667	-3.1375	-3.525	-3.4146	-2.9854	-3.4229	333.127	179.331	469.667	415.027	388.547	256.476	434.019	395.874	274.045	347.150	242.648	404.834	456.138	485.345	244.561	430.678	0.00076719	0.0006493	0.00016749	1595.5	6.3813e-06	5.1114e-06	1570.1	424.39	5.8888e-06	4.8395e-06	477.36	158.25	138.99	46.221	6.9995e-06	56.532	0.00082109	0.00095393	0.00025875	1628.1	9.7459e-06	1.0894e-05	1597.5	432.92	9.7979e-06	1.0647e-05	489	161.26	142.41	47.795	1.0731e-05	58.458	280.137	235.587	233.567	153.348	302.552	291.645	153.073	158.441	312.795	291.748	157.405	161.641	162.072	166.515	305.409	165.551	-8191	255	
531.307	1	1	0	0	0.057582	0.27642	0.13598	0.28522	0.19788	0.18279	0.33217	0.45995	0.037807	0.1662	0.37486	0.23559	0.25068	0.28033	0.089697	0.13269	-2.4562	-3.1292	-3.2687	-3.1271	-3.4167	-3.1667	-3.4354	-3.6	-3.0625	-3.2042	-3.6375	-3.0708	-3.6333	-3.2917	-2.9229	-3.5729	191.447	300.362	392.412	444.047	389.146	234.438	374.048	436.653	414.101	293.936	480.807	144.566	449.562	484.109	356.349	176.443	0.00075743	0.00081115	0.00012017	1595.5	8.736e-06	5.4582e-06	1572.9	423.81	7.1034e-06	8.0702e-06	478.08	157.75	139.37	46.133	7.4302e-06	56.611	0.00082093	0.00095494	0.0002626	1626.7	1.0236e-05	1.0577e-05	1599.2	432.67	1.0101e-05	1.1151e-05	489.56	161.55	142.45	47.816	1.0217e-05	58.498	278.791	224.877	234.680	153.353	308.542	292.272	153.043	158.125	306.144	268.618	157.309	161.686	162.075	166.629	304.519	165.697	-8191	255	
531.403	1	1	0	0	0.22939	0.24842	0.26961	0.15135	0.13183	0.1763	0.17038	0.2091	0.11617	0.28836	0.13543	0.15849	0.10551	0.1003	0.056281	0.2169	-2.7583	-2.9646	-3.3187	-3.2104	-3.1833	-3.4104	-3.2875	-3.6562	-3.1958	-3.15	-3.3438	-3.1896	-3.4021	-3.5083	-3.0312	-3.475	261.441	453.028	412.891	148.216	246.952	415.432	143.003	457.699	390.644	225.818	243.600	461.273	154.860	322.303	351.749	381.837	0.00075207	0.00064505	0.00014931	1588.8	7.6534e-06	6.3605e-06	1568.9	423.23	7.2452e-06	6.232e-06	477.31	158.23	138.86	46.165	5.5812e-06	56.529	0.00080411	0.00093763	0.00025707	1623.6	9.844e-06	1.0842e-05	1597.4	432.04	9.8034e-06	1.103e-05	489.11	161.41	142.34	47.775	1.0282e-05	58.462	280.382	237.876	230.721	153.320	294.538	290.355	152.905	157.970	307.134	293.089	157.408	161.520	162.154	166.561	295.020	165.911	-8191	255	
531.499	1	1	0	0	0.082283	0.15502	0.12475	0.30606	0.15255	0.24631	0.36271	0.45916	0.15857	0.23549	0.18722	0.15996	0.29622	0.28259	0.31447	0.18708	-2.7479	-2.9521	-3.2625	-3.1917	-3.1625	-3.45	-3.1917	-3.4542	-3.2271	-3.1771	-3.7271	-3.1667	-3.2833	-3.4313	-2.9708	-3.4917	312.324	295.282	420.699	498.470	320.353	386.037	430.623	446.721	463.965	345.475	484.728	343.005	163.726	377.740	382.463	457.157	0.00077229	0.00056189	0.00011319	1591.2	7.9889e-06	6.7349e-06	1568.6	422.34	7.03e-06	4.9522e-06	477.43	157.25	139.26	46.041	6.056e-06	56.334	0.00082986	0.00092072	0.00026143	1624.3	9.7594e-06	1.0359e-05	1593.6	431.68	9.7347e-06	1.0684e-05	488.29	161.03	142.31	47.737	1.025e-05	58.325	279.631	206.967	224.542	153.079	295.422	292.469	152.889	158.164	314.573	290.275	157.301	161.655	162.101	166.761	301.825	165.966	-8191	255	
531.595	1	1	0	0	0.34226	0.13816	0.088644	0.30921	0.20412	0.13652	0.14112	0.19112	0.2283	0.073732	0.119	0.20333	0.35518	0.24867	0.039316	0.048103	-2.6979	-2.9062	-3.2396	-3.4167	-3.0667	-3.4771	-3.0729	-3.5083	-3.3771	-3.1104	-3.5687	-3.3479	-3.1917	-3.5646	-2.9292	-3.4437	388.550	406.093	176.609	454.912	194.466	243.761	436.483	227.959	432.583	285.693	463.567	347.612	432.995	471.306	233.017	165.969	0.0007702	0.00059074	0.00016218	1588.4	8.1719e-06	6.3239e-06	1567.6	422.03	6.7963e-06	6.3193e-06	475.43	157.09	138.67	46.246	7.1016e-06	56.448	0.00082036	0.00092872	0.00026362	1619.6	9.4857e-06	1.0592e-05	1593.6	431.17	9.5614e-06	1.066e-05	487.6	160.8	141.91	47.683	9.7724e-06	58.33	279.616	227.944	228.253	153.229	303.265	293.593	152.950	158.068	319.001	283.307	157.321	161.592	161.834	166.652	307.022	165.765	-8191	255	
531.716	1	1	0	0	0.13885	0.1608	0.10471	0.22172	0.028599	0.08903	0.17361	0.16896	0.17385	0.35612	0.30835	0.13811	0.10368	0.31804	0.1275	0.2437	-2.7771	-2.8354	-3.425	-3.3729	-2.9	-3.6458	-3.4	-3.4292	-3.2583	-3.1562	-3.6104	-3.3937	-3.2958	-3.5271	-3.0542	-3.3812	288.100	341.439	427.453	406.204	407.114	416.362	461.427	461.133	405.474	343.448	482.422	475.959	174.902	399.367	319.320	255.043	0.00075235	0.00047815	0.00014585	1582.8	7.6927e-06	5.0181e-06	1567.8	422.37	7.3342e-06	6.1262e-06	475.04	157.37	138.77	46.095	7.0596e-06	56.415	0.00081177	0.00094917	0.00025533	1617.2	9.6225e-06	1.0086e-05	1593	431.22	9.6485e-06	1.0921e-05	487.16	160.92	142	47.677	1.013e-05	58.312	278.021	218.559	236.238	153.145	303.395	278.059	153.090	158.242	317.622	295.641	157.337	161.613	161.940	166.845	300.807	165.934	-8191	255	
531.812	1	1	0	0	0.28597	0.285	0.13207	0.36372	0.022898	0.1726	0.14265	0.0448	0.080755	0.16767	0.18194	0.066753	0.1134	0.25521	0.24003	0.16077	-2.8583	-2.8396	-3.2562	-3.4958	-2.9792	-3.4396	-3.4708	-3.3271	-3.4667	-2.7979	-3.6188	-3.5604	-3.1833	-3.4604	-3.1646	-3.2458	426.095	329.366	341.190	478.502	494.943	193.409	419.725	490.249	188.886	364.324	181.892	282.630	425.064	251.999	215.649	389.472	0.00075555	0.00060025	0.00014937	1584.8	7.6097e-06	7.1848e-06	1565.4	421.11	6.906e-06	5.1331e-06	475.98	157.54	138.47	46.117	6.592e-06	56.31	0.00078186	0.00093166	0.00025037	1616.2	9.7702e-06	9.9096e-06	1592.8	430.72	9.3268e-06	1.091e-05	487.69	160.99	142.02	47.672	9.7644e-06	58.378	281.650	221.830	223.363	153.248	303.125	289.246	153.055	158.023	316.547	270.024	157.198	161.567	162.006	166.602	312.681	165.898	-8191	255	
531.884	1	1	0	0	0.16891	0.25405	0.075062	0.24812	0.11503	0.28779	0.38941	0.23114	0.25613	0.13609	0.25378	0.15172	0.25129	0.18181	0.095237	0.097052	-2.9688	-2.8604	-3.3	-3.5167	-3.0208	-3.3708	-3.4208	-3.2687	-3.5417	-3.1896	-3.3812	-3.3937	-2.8708	-3.4458	-3.1146	-3.025	358.968	230.685	232.233	436.887	330.156	332.590	443.795	445.714	351.210	327.530	152.276	339.167	143.020	461.310	478.094	233.345	0.00075509	0.00053871	0.00015652	1588.7	7.6548e-06	5.3584e-06	1566.6	420.66	6.7013e-06	4.7622e-06	476.4	157.2	138.69	46.047	6.8909e-06	56.523	0.00080731	0.0008939	0.00025567	1619.2	9.8053e-06	1.0141e-05	1593	430.32	9.9336e-06	1.0975e-05	488.14	160.87	141.87	47.672	1.0132e-05	58.397	279.275	213.313	245.169	153.230	300.240	292.498	152.932	158.081	304.892	266.405	157.216	161.753	162.132	166.788	306.242	166.066	-8191	255	
532.004	1	1	0	0	0.23473	0.2014	0.031519	0.1499	0.14842	0.20547	0.25742	0.035949	0.12342	0.2331	0.19682	0.086381	0.34437	0.31365	0.38282	0.26543	-3.1312	-2.9	-3.1896	-3.45	-3.0146	-3.4188	-3.4229	-3.2833	-3.4875	-3.0312	-3.3021	-3.425	-3.0771	-3.3812	-3.3333	-3.2313	414.405	197.326	388.097	452.781	321.426	334.591	441.272	429.150	362.272	227.269	436.012	369.721	463.753	437.450	328.197	381.125	0.00075516	0.00050351	0.00015154	1588.2	6.4118e-06	5.2312e-06	1562	423.13	7.0357e-06	2.6363e-06	475.18	157.26	139	46.115	6.5927e-06	56.827	0.00080042	0.0009269	0.0002533	1618.2	9.9637e-06	1.0035e-05	1590.4	431.55	9.478e-06	1.0346e-05	487.93	161.02	142.16	47.716	9.9252e-06	58.452	278.667	233.924	240.197	153.268	292.777	278.066	152.906	158.109	303.901	270.747	157.211	161.724	162.027	166.544	301.772	165.773	-8191	255	
532.101	1	1	0	0	0.099235	0.052503	0.21471	0.05001	0.2842	0.031307	0.10021	0.19928	0.097295	0.1167	0.12814	0.10173	0.23326	0.17812	0.1019	0.18791	-3.1188	-3.0563	-3.1625	-3.7333	-3.0625	-3.4354	-3.5375	-3.2271	-3.5563	-3.1208	-3.1292	-3.5687	-3.1937	-3.3604	-3.2708	-3.0896	403.128	311.727	261.617	469.030	309.112	446.214	326.398	418.106	417.002	417.609	411.393	328.029	143.417	494.463	435.960	336.561	0.00076628	0.00061897	0.00016473	1583.5	8.0537e-06	6.7895e-06	1568.7	423.86	6.9315e-06	7.3624e-06	475.6	157.25	138.36	46.236	7.188e-06	56.394	0.00080842	0.00091455	0.00025322	1617	9.8953e-06	1.0086e-05	1592.5	432.04	9.104e-06	1.0605e-05	488.03	160.87	141.98	47.657	9.9092e-06	58.346	280.595	217.167	232.063	153.184	307.379	284.619	152.906	158.116	316.076	284.144	157.423	161.773	162.043	166.579	297.830	165.886	-8191	255	
532.197	1	1	0	0	0.12327	0.13891	0.089043	0.23079	0.15268	0.033843	0.31127	0.24441	0.059733	0.25092	0.074527	0.29921	0.38203	0.11743	0.093911	0.179	-3.0708	-3.2146	-3.1271	-3.6229	-2.85	-3.4729	-3.5271	-3.2021	-3.3771	-3.2438	-3.0396	-3.6792	-3.1813	-3.2479	-3.4625	-2.9479	367.813	435.586	337.908	445.795	212.803	214.614	476.398	466.803	145.052	364.305	434.496	424.061	432.278	149.124	201.042	395.793	0.00074919	0.00057681	0.00017323	1590	7.6055e-06	5.3881e-06	1562.4	421.74	7.764e-06	6.7867e-06	476.61	157.68	139.05	46.078	6.0265e-06	56.437	0.00080011	0.00091384	0.00026405	1620.2	1.0083e-05	1.0216e-05	1592.2	430.89	9.512e-06	1.0872e-05	487.77	161.16	142.04	47.69	9.7595e-06	58.415	279.201	222.874	223.801	153.318	288.962	293.590	153.088	158.017	318.221	279.589	157.232	161.635	162.072	167.002	299.045	165.816	-8191	255	
532.293	1	1	0	0	0.21262	0.23168	0.34326	0.10485	0.25506	0.27963	0.075106	0.079381	0.073233	0.12273	0.22896	0.41926	0.10547	0.26505	0.10964	0.21995	-2.8625	-3.1375	-3.0708	-3.7979	-2.9583	-3.1917	-3.7354	-3.2146	-3.4542	-3.2333	-3.1667	-3.6354	-3.2792	-3.3333	-3.4667	-3.025	330.614	407.663	248.650	452.944	250.254	157.657	441.188	358.124	365.455	444.514	481.615	155.552	440.444	469.897	456.565	452.655	0.00074815	0.00060581	0.00018316	1588.3	5.7272e-06	5.8668e-06	1562.6	422.21	7.5703e-06	6.9506e-06	475.83	157.44	138.65	46.01	7.2069e-06	56.542	0.00079126	0.00090716	0.00025755	1619.1	9.5289e-06	1.0411e-05	1592.2	431.59	9.358e-06	1.0493e-05	487.79	161.18	142.07	47.679	9.8084e-06	58.401	277.707	218.136	238.884	153.383	291.738	295.154	153.070	158.027	307.944	299.653	157.274	161.791	161.990	166.914	307.181	165.675	-8191	255	
532.412	1	1	0	0	0.26636	0.092127	0.12438	0.40708	0.18605	0.18885	0.16002	0.3262	0.1293	0.026966	0.19291	0.079079	0.37287	0.24157	0.24212	0.18454	-2.8937	-3.2062	-2.9646	-3.7083	-3.1125	-3.1104	-3.6458	-3.0208	-3.1146	-3.2125	-3.1458	-3.7292	-3.2521	-3.0354	-3.3312	-3.025	314.705	409.918	210.938	491.145	435.241	303.088	450.398	484.311	157.060	172.323	424.366	213.230	441.398	478.328	174.141	447.640	0.0007436	0.00063269	0.00014711	1592.5	8.7106e-06	4.8442e-06	1566.4	422.17	6.59e-06	6.8367e-06	474.97	157.58	138.84	45.979	6.1577e-06	56.289	0.00079064	0.00091485	0.00025886	1621.3	9.6612e-06	1.0184e-05	1593.5	431.48	9.3937e-06	1.0047e-05	488.11	161.08	142.01	47.691	9.7605e-06	58.249	277.037	230.996	222.732	153.221	286.876	293.311	153.060	158.119	305.375	296.982	157.270	161.625	162.218	166.672	301.618	165.954	-8191	255	
532.508	1	1	0	0	0.10785	0.13835	0.097511	0.065882	0.28676	0.22476	0.22236	0.109	0.24349	0.24227	0.17691	0.1533	0.10494	0.10314	0.043462	0.17587	-2.9708	-3.375	-2.9062	-3.5563	-3.2792	-3.1292	-3.6396	-3.2687	-3.2875	-3.2917	-3.2062	-3.5125	-3.3104	-3.0812	-3.3271	-3.2833	421.669	307.477	301.309	277.136	443.036	227.268	433.475	192.188	352.544	383.745	400.921	180.631	244.981	465.518	175.122	368.834	0.00077514	0.00054898	0.0001624	1588.9	8.2669e-06	5.8497e-06	1566.8	422.41	7.0087e-06	6.8745e-06	475.38	157.76	139.1	46.277	6.3437e-06	56.478	0.00081608	0.00094107	0.00026408	1617.9	9.4956e-06	1.0762e-05	1593.6	431.11	9.303e-06	1.0612e-05	487.64	161.1	142.01	47.78	9.9602e-06	58.413	280.191	223.690	243.973	153.350	299.337	281.221	153.063	157.988	306.955	299.110	157.194	161.671	161.944	166.872	302.651	165.750	-8191	255	
532.604	1	1	0	0	0.13042	0.2628	0.17546	0.15731	0.043643	0.046118	0.31006	0.43597	0.12267	0.05881	0.086813	0.12289	0.25761	0.13698	0.11498	0.047418	-2.6979	-3.3812	-2.8667	-3.4958	-3.3937	-3.0125	-3.7896	-3.3083	-3.2229	-3.4938	-3.2104	-3.4313	-3.4021	-3.05	-3.5417	-3.025	237.797	163.188	382.287	465.611	373.038	252.429	442.916	455.642	443.114	400.078	446.982	399.170	348.684	407.169	231.257	208.775	0.00078197	0.00062203	0.00015158	1587.1	7.263e-06	3.9419e-06	1565.7	423.47	6.6336e-06	4.9735e-06	475.77	157.84	139.08	45.89	5.5217e-06	56.586	0.0008142	0.00090797	0.00025538	1620	9.5595e-06	1.0486e-05	1592.8	431.45	9.7393e-06	1.0128e-05	487.88	161.31	142.14	47.622	9.7375e-06	58.357	278.866	237.793	233.873	153.244	298.352	281.370	152.973	157.944	322.080	285.261	157.239	161.421	161.975	166.704	299.367	165.808	-8191	255	
532.700	1	1	0	0	0.18757	0.13192	0.20754	0.21361	0.21689	0.18709	0.29486	0.15213	0.17748	0.2611	0.098938	0.17793	0.088272	0.27028	0.10923	0.088057	-2.5625	-3.4958	-2.9333	-3.4167	-3.2479	-2.8	-3.6375	-3.3563	-3.1729	-3.4583	-3.1646	-3.3708	-3.4188	-3.1229	-3.3396	-3.3063	151.949	415.899	259.237	432.660	321.718	146.937	473.502	457.643	256.659	411.482	468.591	430.242	373.271	436.971	394.815	179.730	0.00078549	0.00060934	0.00013987	1584.1	6.96e-06	5.8538e-06	1567.3	422.64	6.645e-06	5.5401e-06	476	158.11	139.34	45.961	7.0464e-06	56.559	0.00081847	0.00092174	0.00026433	1617.3	9.483e-06	1.0402e-05	1592.7	431.27	9.8887e-06	1.0717e-05	487.56	161.13	142.29	47.661	9.8823e-06	58.463	279.337	228.708	250.425	153.252	294.015	293.593	153.066	158.001	304.802	274.041	157.348	161.796	162.232	166.730	310.026	165.520	-8191	255	
532.796	1	1	0	0	0.040517	0.13787	0.17974	0.24864	0.089798	0.10598	0.37858	0.45572	0.21971	0.17202	0.25405	0.30284	0.33697	0.1332	0.18675	0.14214	-2.5604	-3.5563	-3.0125	-3.4458	-3.3396	-2.9208	-3.6188	-3.3604	-2.9917	-3.2854	-3.3812	-3.3354	-3.4667	-3.1562	-3.2625	-3.4458	258.355	285.439	492.156	468.665	382.213	387.685	417.350	442.689	193.541	217.623	413.755	392.081	185.491	232.631	236.463	279.143	0.00076493	0.00051436	0.00019452	1588.4	7.3241e-06	5.3454e-06	1566.7	422.31	8.1573e-06	5.3187e-06	476.35	157.84	139.19	46.187	5.9161e-06	56.492	0.00082778	0.0009356	0.00025724	1620.3	9.4182e-06	1.0616e-05	1593.4	431.06	9.6219e-06	1.0624e-05	487.62	161.15	142.16	47.718	9.6696e-06	58.475	277.808	209.910	236.178	153.442	311.770	280.094	152.926	158.362	318.810	287.662	157.279	161.473	162.112	166.740	310.106	165.732	-8191	255	
532.893	1	1	0	0	0.24153	0.23082	0.11157	0.23768	0.015688	0.10638	0.13674	0.332	0.14338	0.15045	0.10928	0.29887	0.22308	0.293	0.28341	0.19299	-2.5729	-3.4979	-2.9229	-3.4042	-3.2562	-3.0542	-3.4625	-3.5708	-2.9479	-3.525	-3.2417	-3.2646	-3.6667	-3.0125	-3.2417	-3.5104	257.984	204.199	164.888	144.685	309.726	282.028	426.839	447.481	225.497	452.535	446.557	184.304	475.892	491.006	430.426	157.754	0.00076231	0.00053512	0.0001569	1590.8	8.7108e-06	7.5534e-06	1566	422.56	6.9121e-06	7.2536e-06	476.53	157.8	139.1	46.099	6.368e-06	56.67	0.00082209	0.00090635	0.00025071	1619.6	9.4308e-06	1.0736e-05	1593.2	430.79	9.4588e-06	1.1135e-05	487.92	161.28	142.22	47.711	9.8363e-06	58.428	278.710	234.771	234.985	153.110	306.820	289.817	153.002	157.979	315.553	291.757	157.183	161.902	162.220	166.580	311.482	165.859	-8191	255	
533.013	1	1	0	0	0.14168	0.37169	0.18883	0.4797	0.083973	0.19113	0.1334	0.19311	0.17901	0.014719	0.026319	0.3761	0.18518	0.15207	0.2574	0.18834	-2.5208	-3.4188	-3.0625	-3.3708	-3.5917	-2.9979	-3.3563	-3.4396	-2.9104	-3.4708	-3.4792	-3.2354	-3.5042	-3.0771	-3.2125	-3.5792	302.432	219.879	477.367	426.981	450.465	218.005	417.385	471.961	427.866	363.323	223.791	476.598	471.137	204.699	454.504	434.349	0.00076445	0.00063602	0.00011794	1586.8	7.5841e-06	4.9162e-06	1569.6	422.56	7.1805e-06	5.7433e-06	476.59	157.52	138.96	45.972	7.6992e-06	56.587	0.00082247	0.00094522	0.00025003	1618	9.6774e-06	1.062e-05	1593.9	431.7	9.5844e-06	1.0616e-05	487.87	161.06	142.4	47.688	9.7445e-06	58.365	277.208	221.595	249.351	153.169	298.027	295.149	152.880	158.126	323.322	286.923	157.424	161.794	162.176	166.558	287.305	165.883	-8191	255	
533.108	1	1	0	0	0.22406	0.01986	0.2971	0.27308	0.13566	0.19554	0.3124	0.17109	0.11567	0.28256	0.21341	0.10332	0.11362	0.046271	0.16722	0.14838	-2.7687	-3.3229	-3.1333	-3.1083	-3.5187	-3.1813	-3.3583	-3.6063	-3.0458	-3.2896	-3.2729	-2.9938	-3.5896	-3.3688	-2.9604	-3.5479	456.683	377.874	223.908	491.607	369.368	150.050	373.213	436.013	427.328	334.026	469.245	324.306	424.018	492.717	224.931	411.423	0.00078373	0.00055625	0.00015568	1593.9	6.037e-06	7.0871e-06	1564.9	422.48	5.5517e-06	6.9729e-06	475.81	157.28	138.75	46.132	5.3439e-06	56.394	0.00081908	0.0009103	0.0002604	1622.7	9.5919e-06	1.0257e-05	1592.6	430.99	9.4597e-06	1.0231e-05	487.52	161.05	142.14	47.659	9.5448e-06	58.379	279.125	221.764	223.555	153.159	287.930	294.647	153.067	158.003	307.633	296.214	157.368	161.621	161.992	166.853	309.169	165.723	-8191	255	
533.181	1	1	0	0	0.17005	0.080155	0.11444	0.29634	0.067989	0.19589	0.080777	0.21295	0.15419	0.068536	0.030718	0.22227	0.086822	0.18806	0.22481	0.05105	-2.6188	-3.2333	-3.1917	-3.1208	-3.5625	-3.2896	-3.2313	-3.6604	-3.0271	-3.2042	-3.4313	-3.2604	-3.5375	-3.1562	-2.9458	-3.5396	198.270	380.899	459.643	445.090	148.751	170.178	361.825	487.845	317.177	188.328	237.514	476.810	371.718	145.881	441.197	470.457	0.00076032	0.00057702	0.00011524	1587.1	7.3622e-06	5.2562e-06	1564	421.97	6.9449e-06	6.8581e-06	476.87	157.89	138.58	45.973	6.0801e-06	56.466	0.00081447	0.00090807	0.00025658	1620.4	9.4407e-06	1.0263e-05	1591.5	431.67	9.6779e-06	1.0372e-05	487.89	161.14	141.84	47.614	9.8663e-06	58.39	280.185	234.553	234.938	153.581	297.072	292.456	153.002	158.064	320.854	303.033	157.477	161.646	162.048	166.675	289.059	165.595	-8191	255	
533.275	1	1	0	0	0.1182	0.13765	0.2099	0.2566	0.075067	0.050837	0.20153	0.17547	0.074683	0.065091	0.1142	0.11699	0.080119	0.18625	0.022521	0.25865	-2.825	-3.1917	-3.2833	-3.25	-3.5104	-3.1729	-3.2146	-3.4917	-3.0125	-3.3937	-3.6813	-2.9917	-3.4625	-3.4208	-2.9604	-3.5958	222.184	249.329	324.503	486.738	423.342	399.110	174.028	486.532	425.349	290.388	468.339	455.823	473.483	456.187	216.264	391.073	0.00077645	0.00052943	0.00014317	1589.8	6.6228e-06	5.6325e-06	1569.7	422.5	6.9267e-06	6.137e-06	475.42	157.66	138.62	46.075	5.3697e-06	56.34	0.00081716	0.00093064	0.00026097	1620.2	9.6774e-06	1.0304e-05	1593.1	431.49	9.8025e-06	1.0443e-05	487.36	161.18	142.04	47.715	9.7844e-06	58.356	278.190	211.801	233.372	153.273	297.524	294.781	152.898	158.032	313.436	301.817	157.099	161.650	162.192	166.814	300.265	165.722	-8191	255	
533.396	1	1	0	0	0.18414	0.10737	0.092029	0.36503	0.23377	0.13349	0.27013	0.18675	0.053879	0.23637	0.061322	0.20457	0.13147	0.12667	0.29839	0.14203	-2.6396	-3.1979	-3.4542	-3.1771	-3.3292	-3.2021	-3.3146	-3.5146	-3.2979	-3.0521	-3.5687	-3.0938	-3.3083	-3.4313	-3.0333	-3.4896	372.339	158.293	449.250	428.842	497.664	330.569	407.423	451.103	276.468	255.785	149.846	420.014	174.642	358.165	476.373	424.321	0.00080125	0.00042077	0.00014572	1585.5	7.9314e-06	5.678e-06	1564.9	421.67	5.7936e-06	6.413e-06	477.17	157.28	138.88	45.855	7.202e-06	56.418	0.00083129	0.00089238	0.00025801	1618.1	9.42e-06	1.0032e-05	1590.9	431.22	9.5046e-06	1.073e-05	488.41	161.19	141.9	47.575	9.9043e-06	58.464	279.393	228.330	223.224	153.281	289.085	288.642	153.170	158.105	307.936	292.753	157.345	161.811	162.084	166.603	299.285	165.620	-8191	255	
533.492	1	1	0	0	0.12043	0.052703	0.072446	0.14231	0.12626	0.091817	0.33608	0.17907	0.10726	0.035035	0.1403	0.14062	0.10369	0.20407	0.082146	0.32726	-2.7625	-2.8875	-3.3396	-3.325	-3.3667	-3.2229	-3.1729	-3.4437	-3.2875	-3.0854	-3.6063	-3.2104	-3.2687	-3.3208	-3.0854	-3.3896	436.829	317.130	296.014	143.249	258.456	490.111	483.672	451.126	243.873	161.269	405.797	369.456	219.064	442.302	191.530	392.958	0.00075453	0.00056608	0.0002044	1582.5	7.7304e-06	5.3398e-06	1566.9	422.25	7.0395e-06	4.6063e-06	476.7	157.25	139.23	46.052	6.5879e-06	56.384	0.00080361	0.00092477	0.00026029	1616.6	9.3354e-06	1.0431e-05	1591.4	431.01	9.3048e-06	1.0883e-05	487.82	160.98	142.08	47.655	9.6896e-06	58.371	281.223	220.911	243.349	153.107	297.710	295.931	152.953	158.035	313.958	300.680	157.082	161.479	161.986	166.756	304.395	165.598	-8191	255	
533.588	1	1	0	0	0.067733	0.1994	0.193	0.37441	0.14675	0.27403	0.1146	0.14705	0.25204	0.079624	0.1877	0.10419	0.10939	0.11029	0.17122	0.1147	-2.7875	-2.8521	-3.4333	-3.2	-3.1625	-3.3021	-3.3229	-3.4625	-3.2438	-2.9437	-3.7146	-3.3167	-3.2	-3.4604	-3.0667	-3.4313	386.192	463.667	459.331	143.332	485.518	176.201	415.486	494.481	284.770	158.043	147.529	160.790	154.734	140.567	424.603	356.053	0.00074721	0.00060225	0.0001412	1584.2	7.9429e-06	3.633e-06	1564.6	424.1	6.6401e-06	5.3504e-06	475.84	157.65	139.11	46.118	7.9735e-06	56.435	0.00080042	0.00093247	0.00024387	1616.1	9.6738e-06	1.0275e-05	1591.8	431.5	9.5248e-06	1.0582e-05	487.96	161.09	141.94	47.722	1.0301e-05	58.355	279.211	219.726	222.924	153.220	297.809	306.874	153.104	158.198	315.961	284.577	157.432	161.445	161.956	166.653	303.387	165.525	-8191	255	
533.684	1	1	0	0	0.016475	0.033149	0.10151	0.27878	0.25361	0.042373	0.095743	0.26051	0.22612	0.38487	0.41716	0.014443	0.12549	0.075986	0.091297	0.3156	-2.7771	-2.9021	-3.3812	-3.1813	-2.9229	-3.3458	-3.4708	-3.3979	-3.5833	-2.9583	-3.3688	-3.2146	-3.1458	-3.5354	-2.9271	-3.225	441.692	264.725	367.738	491.054	275.083	151.298	400.264	492.280	408.089	469.612	485.587	323.870	474.527	468.838	300.220	464.179	0.00076533	0.00059009	0.00017799	1584.1	7.9697e-06	4.3175e-06	1560.8	422.5	6.4345e-06	7.4179e-06	475.17	157.68	138.37	46.028	6.7075e-06	56.518	0.00080958	0.00094725	0.00024723	1616.2	9.7981e-06	1.0062e-05	1589.5	431.28	9.687e-06	1.0882e-05	487.41	161.04	142.01	47.671	9.8124e-06	58.424	279.977	219.674	223.863	153.290	294.816	299.907	153.177	158.084	314.574	297.297	157.119	161.713	162.121	166.663	298.986	165.830	-8191	255	
533.781	1	1	0	0	0.14707	0.13877	0.31989	0.23814	0.22861	0.2838	0.38998	0.18828	0.23465	0.33949	0.11853	0.045971	0.15846	0.16818	0.1462	0.29751	-3.1333	-2.8958	-3.05	-3.4583	-3.1229	-3.4208	-3.5208	-3.5167	-3.375	-2.9146	-3.4771	-3.5146	-2.9375	-3.3271	-3.1021	-3.2	396.854	326.910	461.271	423.205	295.953	407.906	404.953	466.711	397.977	355.624	480.301	215.143	406.576	480.657	483.403	239.916	0.00077382	0.0006929	0.0001439	1585.2	7.2219e-06	5.3983e-06	1562.8	422.02	6.8978e-06	7.4681e-06	477.2	157.32	139.02	46.027	6.8979e-06	56.261	0.00081377	0.00093591	0.00025188	1617.3	9.582e-06	1.0012e-05	1589.5	431.25	9.4405e-06	1.1067e-05	488.47	161.04	141.95	47.635	9.6846e-06	58.341	279.271	221.405	239.846	153.433	297.923	296.594	152.936	158.216	313.077	299.874	157.407	161.517	161.954	166.619	297.616	165.836	-8191	255	
533.877	1	1	0	0	0.15833	0.31236	0.21079	0.17085	0.027271	0.19855	0.23799	0.17925	0.094518	0.13543	0.14125	0.219	0.31898	0.16638	0.11163	0.11858	-2.9604	-2.8563	-3.4188	-3.525	-3.0625	-3.5563	-3.4917	-3.3208	-3.3479	-3.1792	-3.4688	-3.4333	-3.0104	-3.525	-3.2958	-3.2042	348.250	275.195	427.659	162.636	171.416	376.635	451.165	469.035	220.563	166.783	481.600	144.631	494.423	393.570	357.308	358.982	0.00079408	0.000606	0.00013836	1587.4	7.6894e-06	6.9294e-06	1562	421.75	6.592e-06	6.1811e-06	476.53	157.67	138.95	46.056	5.7033e-06	56.502	0.00080538	0.00093156	0.00025179	1618.8	9.8638e-06	9.8142e-06	1590.7	431.22	9.2186e-06	1.0946e-05	488.08	161.12	142.16	47.565	9.4659e-06	58.338	277.664	244.195	254.358	153.309	305.034	293.269	153.042	158.134	319.513	289.598	157.435	161.575	162.091	166.447	305.529	165.642	-8191	255	
533.973	1	1	0	0	0.18851	0.091993	0.10336	0.3141	0.20928	0.23463	0.5423	0.36424	0.12995	0.16658	0.17889	0.021677	0.20388	0.12652	0.28326	0.22982	-3.1958	-3.0396	-3.1875	-3.6521	-2.8458	-3.475	-3.4271	-3.3729	-3.4771	-3.2104	-3.1958	-3.5521	-3.0979	-3.45	-3.3625	-3.1667	327.102	406.066	470.903	477.426	491.830	168.010	419.248	462.760	344.888	489.268	431.903	281.890	188.021	471.756	498.922	369.979	0.00076951	0.00051124	0.00015144	1583.6	6.3686e-06	5.3568e-06	1561.9	422.46	6.3342e-06	7.7334e-06	475.01	157.79	138.44	46.22	5.7917e-06	56.513	0.00080165	0.00091253	0.00026014	1615.5	9.4587e-06	9.7116e-06	1589.9	430.88	9.4652e-06	1.0979e-05	487.28	160.9	141.89	47.654	9.6496e-06	58.377	279.335	222.604	238.212	153.272	303.359	296.908	152.981	158.121	316.286	293.283	157.298	161.607	162.055	166.603	300.649	165.681	-8191	255	
#DATA ENDS
