BOXY.EXE: ISS Imagent and Oximeter Data Acquisition Program Version 0.80
Ascii Record File

#ACQ INFORMATION
2  Detector Channels 
16  External MUX Channels 
1  Auxiliary Channels 
5000  Waveform (CCF) Frequency (Hz)
1  Waveforms Skipped 
30  Waveforms Averaged 
1  Cycles Averaged 
16  Acquisitions per Waveform 
10.0806  Updata Rate (Hz) 

#FILE INFORMATION
TRUE -- External MUX Channel results are PARSED.
FALSE -- AC DC and Phase are NOT grouped.
TRUE -- Companion Program Settings File CREATED.
FALSE -- AC data not excluded
FALSE -- DC data not excluded
FALSE -- Phase data not excluded
FALSE -- Auxillary Chn. data not excluded
Tab delimiters

#CALIBRATION STATE
TRUE -- Waveform Calibration Values APPLIED.


#AUX CALIBRATION VALUES
Val Type	aux-1	

Term	1.0000e+00	
Factor	0.0000e+00	


#WF CALIBRATION VALUES
A = Detector Channel
Val Type	A-AC1	A-AC2	A-AC3	A-AC4	A-AC5	A-AC6	A-AC7	A-AC8	A-AC9	A-AC10	A-AC11	A-AC12	A-AC13	A-AC14	A-AC15	A-AC16	A-DC1	A-DC2	A-DC3	A-DC4	A-DC5	A-DC6	A-DC7	A-DC8	A-DC9	A-DC10	A-DC11	A-DC12	A-DC13	A-DC14	A-DC15	A-DC16	A-Ph1	A-Ph2	A-Ph3	A-Ph4	A-Ph5	A-Ph6	A-Ph7	A-Ph8	A-Ph9	A-Ph10	A-Ph11	A-Ph12	A-Ph13	A-Ph14	A-Ph15	A-Ph16	

Term	0.00000e+00	0.00000e+00	0.00000e+00	0.00000e+00	0.00000e+00	0.00000e+00	0.00000e+00	0.00000e+00	0.00000e+00	0.00000e+00	0.00000e+00	0.00000e+00	0.00000e+00	0.00000e+00	0.00000e+00	0.00000e+00	0.00000e+00	0.00000e+00	0.00000e+00	0.00000e+00	0.00000e+00	0.00000e+00	0.00000e+00	0.00000e+00	0.00000e+00	0.00000e+00	0.00000e+00	0.00000e+00	0.00000e+00	0.00000e+00	0.00000e+00	0.00000e+00	0.00000e+00	0.00000e+00	0.00000e+00	0.00000e+00	0.00000e+00	0.00000e+00	0.00000e+00	0.00000e+00	0.00000e+00	0.00000e+00	0.00000e+00	0.00000e+00	0.00000e+00	0.00000e+00	0.00000e+00	0.00000e+00	
Factor	1.00000e+00	1.00000e+00	1.00000e+00	1.00000e+00	1.00000e+00	1.00000e+00	1.00000e+00	1.00000e+00	1.00000e+00	1.00000e+00	1.00000e+00	1.00000e+00	1.00000e+00	1.00000e+00	1.00000e+00	1.00000e+00	1.00000e+00	1.00000e+00	1.00000e+00	1.00000e+00	1.00000e+00	1.00000e+00	1.00000e+00	1.00000e+00	1.00000e+00	1.00000e+00	1.00000e+00	1.00000e+00	1.00000e+00	1.00000e+00	1.00000e+00	1.00000e+00	X	X	X	X	X	X	X	X	X	X	X	X	X	X	X	X	

B = Detector Channel
Val Type	B-AC1	B-AC2	B-AC3	B-AC4	B-AC5	B-AC6	B-AC7	B-AC8	B-AC9	B-AC10	B-AC11	B-AC12	B-AC13	B-AC14	B-AC15	B-AC16	B-DC1	B-DC2	B-DC3	B-DC4	B-DC5	B-DC6	B-DC7	B-DC8	B-DC9	B-DC10	B-DC11	B-DC12	B-DC13	B-DC14	B-DC15	B-DC16	B-Ph1	B-Ph2	B-Ph3	B-Ph4	B-Ph5	B-Ph6	B-Ph7	B-Ph8	B-Ph9	B-Ph10	B-Ph11	B-Ph12	B-Ph13	B-Ph14	B-Ph15	B-Ph16	

Term	0.00000e+00	0.00000e+00	0.00000e+00	0.00000e+00	0.00000e+00	0.00000e+00	0.00000e+00	0.00000e+00	0.00000e+00	0.00000e+00	0.00000e+00	0.00000e+00	0.00000e+00	0.00000e+00	0.00000e+00	0.00000e+00	0.00000e+00	0.00000e+00	0.00000e+00	0.00000e+00	0.00000e+00	0.00000e+00	0.00000e+00	0.00000e+00	0.00000e+00	0.00000e+00	0.00000e+00	0.00000e+00	0.00000e+00	0.00000e+00	0.00000e+00	0.00000e+00	-3.80650e+01	-1.32862e+02	-1.25430e+02	-1.81665e+02	-4.66408e+01	-6.69153e+01	-1.55920e+02	-1.62015e+02	-3.32665e+01	-6.84437e+01	-1.70727e+02	-1.71644e+02	-1.80701e+02	-1.77487e+02	-4.82893e+01	-1.50551e+02	
Factor	2.17353e-05	1.62563e-04	4.39496e-05	1.54653e-01	1.72098e-06	1.76303e-06	1.62475e-01	5.94268e-02	1.39045e-06	1.85064e-06	8.19659e-02	2.80416e-02	2.61055e-02	8.93581e-03	1.65438e-06	1.28829e-02	1.84756e-05	4.85871e-05	1.36813e-05	7.94789e-02	4.32069e-07	5.65725e-07	7.86197e-02	3.06710e-02	4.39986e-07	5.82689e-07	4.11320e-02	1.40425e-02	1.36022e-02	4.66921e-03	4.79335e-07	6.49530e-03	X	X	X	X	X	X	X	X	X	X	X	X	X	X	X	X	



#DISTANCE SETTINGS
A = Detector Channel
A-1	A-2	A-3	A-4	A-5	A-6	A-7	A-8	A-9	A-10	A-11	A-12	A-13	A-14	A-15	A-16	

2.5000e+00	3.0000e+00	2.5000e+00	3.0000e+00	2.0000e+00	3.0000e+00	1.5000e+00	3.0000e+00	3.0000e+00	3.0000e+00	3.0000e+00	3.0000e+00	3.0000e+00	3.0000e+00	1.5000e+00	3.0000e+00	

B = Detector Channel
B-1	B-2	B-3	B-4	B-5	B-6	B-7	B-8	B-9	B-10	B-11	B-12	B-13	B-14	B-15	B-16	

1.0000e+01	1.0000e+01	1.0000e+01	1.4400e+00	1.0000e+01	1.0000e+01	1.5100e+00	1.9400e+00	1.0000e+01	1.0000e+01	1.9900e+00	2.4900e+00	2.4100e+00	2.9000e+00	1.0000e+01	2.9800e+00	




#DATA BEGINS
time	group	step	mark	flag	A-AC1	A-AC2	A-AC3	A-AC4	A-AC5	A-AC6	A-AC7	A-AC8	A-AC9	A-AC10	A-AC11	A-AC12	A-AC13	A-AC14	A-AC15	A-AC16	A-DC1	A-DC2	A-DC3	A-DC4	A-DC5	A-DC6	A-DC7	A-DC8	A-DC9	A-DC10	A-DC11	A-DC12	A-DC13	A-DC14	A-DC15	A-DC16	A-Ph1	A-Ph2	A-Ph3	A-Ph4	A-Ph5	A-Ph6	A-Ph7	A-Ph8	A-Ph9	A-Ph10	A-Ph11	A-Ph12	A-Ph13	A-Ph14	A-Ph15	A-Ph16	B-AC1	B-AC2	B-AC3	B-AC4	B-AC5	B-AC6	B-AC7	B-AC8	B-AC9	B-AC10	B-AC11	B-AC12	B-AC13	B-AC14	B-AC15	B-AC16	B-DC1	B-DC2	B-DC3	B-DC4	B-DC5	B-DC6	B-DC7	B-DC8	B-DC9	B-DC10	B-DC11	B-DC12	B-DC13	B-DC14	B-DC15	B-DC16	B-Ph1	B-Ph2	B-Ph3	B-Ph4	B-Ph5	B-Ph6	B-Ph7	B-Ph8	B-Ph9	B-Ph10	B-Ph11	B-Ph12	B-Ph13	B-Ph14	B-Ph15	B-Ph16	aux-1	digaux	

544.703	1	1	0	256	0.26867	0.20375	0.21867	0.2015	0.17379	0.025112	0.25118	0.11499	0.17902	0.15877	0.17759	0.25228	0.03571	0.11426	0.034644	0.36718	-2.6604	-3.3896	-2.9896	-3.6354	-3.6083	-3.1292	-3.725	-3.2521	-2.925	-3.2687	-3.2021	-3.2292	-3.6729	-3.1479	-3.3729	-3.5021	210.374	182.582	328.498	178.261	210.480	485.150	450.195	294.578	182.790	385.082	156.198	493.232	468.961	200.601	248.950	394.886	0.00036834	0.00038433	6.5643e-05	1349.2	3.5417e-06	3.6035e-06	1409.8	279.5	4.1284e-06	4.8143e-06	340.03	95.655	76.439	21.325	4.4151e-06	29.811	0.00045731	0.00052768	0.00014779	1338.3	6.0742e-06	6.4222e-06	1395.8	277.27	5.6428e-06	6.2445e-06	340.48	95.92	76.399	21.743	5.4414e-06	30.231	280.461	229.688	260.864	155.696	311.942	304.752	155.440	162.603	308.056	287.827	162.298	168.915	169.328	176.389	333.579	174.961	-8191	255	
544.799	1	1	0	0	0.13997	0.1709	0.10924	0.33624	0.052289	0.075573	0.19539	0.36006	0.11907	0.064508	0.17766	0.053658	0.1022	0.2845	0.10547	0.29434	-2.8396	-3.6521	-3.1646	-3.3438	-3.5062	-2.9938	-3.5417	-3.5229	-2.9437	-3.5604	-3.2479	-3.2562	-3.4729	-3.1188	-3.4042	-3.5125	352.673	341.202	442.469	468.929	247.964	229.883	436.924	477.046	237.646	371.293	478.107	486.698	476.145	193.017	226.949	465.308	0.00041689	0.00049307	8.6762e-05	1342.1	5.5631e-06	4.806e-06	1400.8	276.9	3.9074e-06	3.6352e-06	338.35	95.314	76.213	21.214	4.3165e-06	29.517	0.00044892	0.00050925	0.0001489	1330.2	5.6025e-06	5.9955e-06	1384.8	275.27	5.4815e-06	5.2661e-06	338.51	95.529	76.096	21.612	4.9951e-06	30.035	282.417	228.024	223.427	155.408	288.511	294.509	155.423	162.865	313.356	301.781	162.077	168.767	169.098	176.136	319.334	175.432	-8191	255	
544.896	1	1	0	0	0.21877	0.15118	0.21015	0.33393	0.051352	0.066623	0.13945	0.19688	0.11682	0.095024	0.41319	0.15539	0.16536	0.1857	0.075718	0.2699	-2.8167	-3.5438	-3.3646	-3.4146	-3.5729	-3.3104	-3.45	-3.7292	-3.1875	-3.4667	-3.4958	-3.1375	-3.7062	-3.3979	-3.2771	-3.5187	454.030	466.059	336.813	399.598	353.541	297.230	401.317	414.332	193.367	156.515	448.403	480.311	234.775	225.438	478.508	444.546	0.00041137	0.00029611	0.00010579	1331.8	4.6737e-06	5.3802e-06	1386.7	276.98	3.1161e-06	3.273e-06	338.77	95.288	75.898	21.362	4.2114e-06	29.518	0.0004316	0.00049144	0.00014243	1322.3	5.4234e-06	5.9531e-06	1378.2	275.07	5.3944e-06	5.5331e-06	337.71	95.441	76.009	21.639	5.2078e-06	30.164	284.914	234.198	225.659	155.643	299.674	308.791	155.318	162.541	326.719	268.944	162.193	168.735	169.359	175.993	306.568	175.453	-8191	255	
545.016	1	1	0	0	0.20262	0.14292	0.16474	0.26228	0.072758	0.13672	0.32441	0.14101	0.13161	0.21436	0.20957	0.27446	0.15798	0.026771	0.12974	0.11211	-2.6167	-3.3521	-3.2125	-3.3458	-3.5167	-3.2479	-3.4396	-3.5875	-3.1208	-3.4042	-3.3063	-3.0854	-3.6292	-3.4	-3.2042	-3.6979	216.090	403.127	417.745	152.538	439.828	469.837	418.833	478.791	285.809	432.879	496.988	474.574	192.017	474.621	448.411	437.975	0.00038914	0.00037545	7.9536e-05	1336.4	4.8201e-06	3.7872e-06	1398	277.25	4.9313e-06	4.4322e-06	337.99	95.217	76.15	21.246	2.7821e-06	29.485	0.00043364	0.00049711	0.00014716	1323.7	5.8257e-06	5.768e-06	1383.6	275	5.7757e-06	6.0988e-06	338.14	95.625	76.13	21.649	5.8009e-06	30.072	283.246	239.689	241.445	155.529	296.105	311.780	155.361	162.520	316.493	294.008	162.275	168.617	169.248	175.830	307.252	175.413	-8191	255	
545.112	1	1	0	0	0.34411	0.10252	0.05309	0.36378	0.16342	0.1091	0.37019	0.18843	0.12334	0.1133	0.149	0.17869	0.10765	0.1682	0.14768	0.16245	-2.7687	-3.325	-3.4667	-3.1917	-3.4979	-3.3146	-3.5333	-3.5146	-3.0708	-3.5417	-3.2958	-3.0062	-3.5687	-3.3521	-3.1292	-3.5062	339.464	278.670	388.200	491.976	272.127	408.336	426.423	464.266	415.949	477.410	431.140	195.215	177.171	456.550	453.812	255.320	0.00042174	0.00050686	9.2973e-05	1337.6	5.1802e-06	3.6312e-06	1396.5	276.59	4.6435e-06	2.8572e-06	338.87	94.985	76.045	21.34	4.4761e-06	29.619	0.0004336	0.00054276	0.00013981	1325.5	5.6619e-06	5.7598e-06	1382.6	275.08	5.4852e-06	5.8002e-06	338.67	95.524	76.121	21.683	5.4694e-06	30.119	281.824	238.049	231.796	155.714	304.109	307.961	155.550	162.799	314.044	304.490	162.261	168.710	169.102	175.942	304.368	175.859	-8191	255	
545.209	1	1	0	0	0.16374	0.30702	0.16266	0.22236	0.061466	0.023315	0.12957	0.11967	0.22438	0.079137	0.24105	0.08417	0.19277	0.20824	0.14017	0.12025	-2.8958	-3.3458	-3.5208	-3.2333	-3.5125	-3.3042	-3.1458	-3.5687	-3.0792	-3.4	-3.6083	-3.0667	-3.4313	-3.525	-3.3125	-3.6875	206.944	262.885	441.988	502.871	365.749	446.194	463.025	494.286	198.901	362.133	495.484	176.946	437.198	464.828	164.965	498.797	0.00038046	0.00048211	6.3559e-05	1334.2	5.5e-06	2.713e-06	1396	275.73	5.0139e-06	4.8781e-06	337.82	94.927	76.14	21.324	3.8786e-06	29.507	0.00043475	0.00054245	0.00015389	1326.6	5.8212e-06	6.296e-06	1383.6	274.84	5.6841e-06	6.0794e-06	338.78	95.367	76.041	21.71	5.774e-06	30.106	278.301	218.141	235.536	155.431	305.513	294.918	155.627	162.883	318.145	315.710	162.279	168.604	169.281	176.279	313.527	175.507	-8191	255	
545.280	1	1	0	0	0.13585	0.11454	0.05636	0.42127	0.25222	0.017096	0.098342	0.12399	0.011499	0.10254	0.10659	0.12168	0.045786	0.10671	0.16015	0.16341	-2.8792	-3.1188	-3.5875	-3.2604	-3.325	-3.4125	-3.3958	-3.8396	-3.3125	-2.8958	-3.5042	-3.1729	-3.3542	-3.3354	-3.1	-3.3438	335.954	163.067	473.591	486.449	419.841	346.210	403.677	331.747	183.034	360.034	262.043	386.309	502.859	404.906	196.915	371.114	0.0003744	0.00044307	7.164e-05	1338.5	4.7526e-06	2.994e-06	1405.9	277.69	4.4335e-06	4.3344e-06	338.52	95.063	75.745	21.33	3.1318e-06	29.731	0.00045157	0.00055227	0.00014582	1326.4	5.8617e-06	6.1299e-06	1387	275.76	5.5649e-06	6.5322e-06	338.71	95.431	76.352	21.715	6.0037e-06	30.228	282.096	232.161	255.405	155.666	305.011	289.367	155.518	162.875	328.719	300.340	162.352	168.973	169.261	176.114	311.446	175.276	-8191	255	
545.401	1	1	0	0	0.15777	0.24886	0.075385	0.079243	0.23457	0.10113	0.061472	0.038249	0.11059	0.067159	0.030818	0.1678	0.16069	0.052362	0.085557	0.24791	-3.0354	-3.2104	-3.3542	-3.4354	-3.325	-3.4938	-3.4375	-3.5667	-3.4083	-3.1833	-3.4688	-3.275	-3.15	-3.5229	-2.9771	-3.375	251.914	319.882	156.476	445.048	173.821	292.956	413.810	172.883	345.240	319.959	492.140	439.321	355.510	232.257	318.140	214.796	0.00039882	0.00036669	9.0059e-05	1347	5.0073e-06	3.1662e-06	1405.3	277.12	3.1597e-06	4.0215e-06	339.64	95.253	75.953	21.23	3.3651e-06	29.69	0.00045046	0.00056229	0.00013901	1331.2	6.2272e-06	5.8187e-06	1386.4	275.67	6.0397e-06	6.5006e-06	339.43	95.334	75.995	21.656	5.9887e-06	30.174	280.679	210.424	236.448	155.574	302.802	309.855	155.527	162.881	307.188	278.800	162.514	168.580	169.339	176.217	327.403	175.000	-8191	255	
545.497	1	1	0	0	0.22116	0.22794	0.062203	0.23821	0.029007	0.055697	0.22819	0.21686	0.13171	0.30657	0.051256	0.15711	0.093854	0.31302	0.22954	0.10886	-2.9437	-3.0896	-3.3646	-3.1958	-3.1792	-3.525	-3.2792	-3.3354	-3.3667	-3.1646	-3.7083	-3.3458	-3.2958	-3.6021	-3.1979	-3.325	371.315	405.119	268.880	470.117	452.259	227.286	423.616	163.435	250.302	345.399	464.306	173.293	328.305	391.989	335.944	384.093	0.00041731	0.0003439	6.866e-05	1336.5	4.768e-06	2.7723e-06	1397.4	276.83	4.3148e-06	3.5003e-06	339.27	95.469	76.191	21.308	3.7387e-06	29.582	0.000455	0.00053699	0.00014135	1326.3	6.0238e-06	6.1417e-06	1383	275.2	5.5356e-06	6.656e-06	339.01	95.439	76.163	21.645	5.5243e-06	30.161	282.820	233.958	243.963	155.461	298.276	330.314	155.469	162.612	315.581	312.704	162.424	168.490	169.122	176.272	333.043	175.497	-8191	255	
545.593	1	1	0	0	0.15808	0.070478	0.14786	0.30355	0.068436	0.10191	0.15544	0.28663	0.19478	0.21542	0.10398	0.09055	0.3099	0.056241	0.03383	0.094893	-2.875	-2.9771	-3.2604	-3.4229	-3.1833	-3.6417	-3.2521	-3.6104	-3.4208	-3	-3.4833	-3.3104	-3.0125	-3.525	-3.0917	-3.3542	478.831	490.294	289.887	493.306	367.998	228.988	454.655	425.864	405.017	394.733	175.805	330.952	460.878	339.303	326.249	178.752	0.00041119	0.00046041	5.3636e-05	1338.3	4.4355e-06	2.9126e-06	1399.4	275.81	3.472e-06	3.6872e-06	339.93	95.175	76.205	21.463	2.4007e-06	29.574	0.00043268	0.00059327	0.00014516	1326.2	6.2011e-06	6.0662e-06	1386.3	274.86	5.7372e-06	6.8211e-06	339.11	95.471	76.246	21.694	5.4944e-06	30.07	283.264	247.167	219.320	155.339	294.708	308.336	155.574	162.823	309.347	300.265	162.225	168.983	169.193	175.955	318.847	175.893	-8191	255	
545.689	1	1	0	0	0.22476	0.20321	0.10887	0.18318	0.21374	0.0898	0.18647	0.11766	0.31038	0.15241	0.17398	0.24341	0.17871	0.18692	0.23047	0.050379	-3.1896	-3.0229	-3.5771	-3.45	-3.0083	-3.4979	-3.4688	-3.4542	-3.3417	-3.0896	-3.5792	-3.4854	-3.0917	-3.5583	-3.0833	-3.3	222.566	344.155	423.508	477.226	267.387	471.732	415.711	458.847	500.439	490.542	410.451	151.705	255.750	460.919	410.960	457.219	0.00040482	0.00032874	9.4718e-05	1337.5	4.405e-06	3.5954e-06	1399.7	276.12	3.9356e-06	3.704e-06	337.93	95.557	76.086	21.248	4.0159e-06	29.386	0.00044561	0.0005709	0.00014941	1327.1	6.0463e-06	6.2949e-06	1386.3	275	5.6071e-06	6.2809e-06	338.94	95.466	76.209	21.674	5.7101e-06	30.064	283.491	242.916	239.210	155.445	296.629	303.948	155.444	162.906	326.987	305.603	162.203	168.951	168.740	176.388	308.181	175.797	-8191	255	
545.808	1	1	0	0	0.052602	0.097336	0.16789	0.095123	0.18639	0.24197	0.10347	0.10643	0.18661	0.18343	0.24133	0.05261	0.10073	0.28735	0.05609	0.022435	-3.2938	-3.0625	-3.5146	-3.6479	-3.0271	-3.5	-3.4104	-3.15	-3.6792	-3.2417	-3.3542	-3.5833	-3.0479	-3.4167	-3.3375	-3.2708	242.105	405.589	163.930	209.135	326.400	370.642	308.467	459.120	343.643	382.255	441.285	298.175	396.319	445.722	232.063	502.610	0.00039985	0.00047393	0.00010099	1336.7	5.1041e-06	4.6757e-06	1402.9	277.09	3.7114e-06	3.4362e-06	338.32	94.797	76.343	21.355	5.7032e-06	29.548	0.00045177	0.00057262	0.00014747	1327.6	6.3586e-06	5.8305e-06	1386.5	275.86	5.5658e-06	6.1134e-06	338.43	95.253	76.288	21.686	5.6941e-06	30.121	281.526	229.032	228.393	155.566	292.996	294.314	155.475	163.096	315.701	269.540	162.315	168.571	168.935	176.019	311.497	175.590	-8191	255	
545.880	1	1	0	0	0.20499	0.28236	0.19754	0.19902	0.2341	0.083554	0.23391	0.26761	0.12506	0.1706	0.093109	0.055902	0.11834	0.19374	0.15961	0.24692	-3.1625	-3.2042	-3.3125	-3.5083	-3.0521	-3.4583	-3.4292	-3.0438	-3.6458	-3.0771	-3.3333	-3.5458	-3.1542	-3.5042	-3.2604	-3.2458	168.287	411.143	274.478	386.045	378.952	276.557	443.300	425.944	278.430	185.311	433.279	421.791	490.429	345.861	378.383	372.265	0.00039079	0.00022466	0.0001086	1339.7	4.4374e-06	2.9059e-06	1400.8	277.06	4.1636e-06	3.5821e-06	339.02	95.062	76.22	21.243	3.0223e-06	29.574	0.00042432	0.00054407	0.00016324	1326.4	6.1138e-06	6.1122e-06	1384.3	275.39	5.5026e-06	6.4387e-06	338.78	95.471	76.222	21.651	5.797e-06	30.092	281.724	206.471	240.374	155.462	307.896	303.069	155.547	163.034	318.980	293.801	162.267	168.922	168.956	176.004	292.719	175.646	-8191	255	
545.976	1	1	0	0	0.21358	0.10634	0.053926	0.39434	0.087053	0.42114	0.39867	0.082576	0.095744	0.46122	0.22699	0.15461	0.20904	0.030325	0.12576	0.119	-3.1104	-3.3417	-3.1833	-3.6854	-3.2021	-3.4229	-3.4958	-3.1771	-3.3521	-3.175	-3.2104	-3.7313	-3.2104	-3.3312	-3.3187	-3.1	410.352	458.814	207.611	464.669	489.694	486.949	427.757	462.001	413.380	500.769	158.038	477.559	426.219	229.482	231.256	167.912	0.00039206	0.00037254	0.00010279	1343.6	4.2624e-06	2.943e-06	1404.8	277.47	4.6224e-06	4.1356e-06	337.51	94.594	76.372	21.281	3.8473e-06	29.596	0.00043572	0.00055156	0.00013901	1328.3	6.0769e-06	5.6808e-06	1386.7	275.64	5.8821e-06	6.321e-06	338.84	95.293	76.335	21.685	5.8679e-06	30.178	280.779	233.839	247.595	155.610	319.676	302.555	155.564	163.091	330.768	308.617	162.526	168.701	169.044	176.370	319.826	175.406	-8191	255	
546.097	1	1	0	0	0.28698	0.16759	0.2396	0.12659	0.048115	0.31119	0.39308	0.26962	0.16287	0.098903	0.25637	0.23775	0.18752	0.14735	0.26506	0.19695	-3.0542	-3.1604	-3.1937	-3.6792	-3.0854	-3.3312	-3.6354	-3.2	-3.5354	-3.0979	-3.1896	-3.6708	-3.2083	-3.3958	-3.4229	-3.2646	316.076	377.041	266.344	456.347	219.991	319.880	406.761	475.039	323.938	274.149	479.038	248.465	441.540	314.648	438.356	376.294	0.00038656	0.000295	7.1728e-05	1344.9	4.2689e-06	3.9815e-06	1398.4	276.87	4.0576e-06	3.7214e-06	339.51	95.089	76.003	21.256	3.3076e-06	29.471	0.00044595	0.00056989	0.00016141	1332.1	6.3064e-06	6.1699e-06	1388.9	275.45	5.5988e-06	6.3889e-06	339.34	95.56	76.252	21.658	5.2317e-06	30.053	279.162	224.154	243.019	155.457	292.519	301.081	155.650	162.968	328.747	290.332	162.181	168.885	169.082	175.980	307.064	175.700	-8191	255	
546.193	1	1	0	0	0.17769	0.047822	0.28433	0.089429	0.12112	0.13278	0.060393	0.20674	0.32722	0.089988	0.050461	0.19991	0.20889	0.1059	0.080313	0.14672	-3.125	-3.25	-3.0479	-3.7104	-3.1063	-3.3229	-3.5812	-3.1625	-3.3875	-3.2167	-3.2396	-3.5	-3.2542	-3.0292	-3.5396	-3.2292	268.370	474.738	364.558	500.761	172.189	263.849	443.605	443.435	408.300	457.396	355.611	420.018	449.946	220.559	298.319	450.402	0.00039764	0.00032521	6.5368e-05	1339	3.4596e-06	2.2295e-06	1398	276.14	3.0252e-06	3.9873e-06	338.26	95.03	75.986	21.281	2.7169e-06	29.57	0.00044365	0.00053982	0.00015411	1326.8	5.8419e-06	6.3621e-06	1385.4	275.19	5.6557e-06	6.4836e-06	338.53	95.598	76.202	21.696	5.6931e-06	30.084	282.414	234.827	250.435	155.537	284.678	297.159	155.431	162.862	320.541	296.323	162.216	168.977	169.042	175.987	310.777	175.752	-8191	255	
546.289	1	1	0	0	0.073594	0.075555	0.10504	0.26164	0.19789	0.19543	0.20774	0.12166	0.081691	0.19649	0.18479	0.017065	0.030327	0.21453	0.2037	0.2102	-3.1083	-3.2979	-2.9896	-3.7188	-3.0771	-3.1167	-3.6521	-3.4	-3.4208	-3.4625	-3.0687	-3.5812	-3.3146	-3.1229	-3.4604	-3.0417	456.443	232.680	174.764	458.303	327.336	465.313	462.636	437.594	195.713	475.702	481.977	396.592	408.602	165.504	361.999	433.448	0.00040321	0.00031856	0.00010665	1341.3	4.4964e-06	3.6616e-06	1399.5	277.55	3.8527e-06	3.6223e-06	337.51	95.29	76.149	21.318	5.449e-06	29.517	0.00044769	0.00056138	0.00016232	1329.1	6.1678e-06	6.731e-06	1386.2	275.89	6.1525e-06	6.1534e-06	338.99	95.586	76.284	21.721	6.1814e-06	30.132	283.620	211.419	229.138	155.394	305.881	319.016	155.547	162.951	323.895	305.563	162.134	169.018	168.875	175.929	297.435	175.416	-8191	255	
546.410	1	1	0	0	0.089329	0.1792	0.1159	0.22193	0.22974	0.19731	0.2869	0.06062	0.14266	0.21052	0.52773	0.23245	0.14158	0.24377	0.15604	0.10762	-3.225	-3.4333	-3.0792	-3.4646	-3.3292	-3.3542	-3.6479	-3.2396	-3.1437	-3.4771	-3.1375	-3.6583	-3.3083	-3.2438	-3.5146	-3.1042	430.939	176.306	346.664	443.080	247.067	146.435	460.991	410.841	409.851	411.176	496.509	173.590	349.271	459.476	171.317	387.982	0.00039741	0.00025548	0.00011313	1343.2	4.9569e-06	3.8703e-06	1395.5	276.4	3.6585e-06	4.2085e-06	339.34	95.369	76.494	21.291	3.4709e-06	29.275	0.00046085	0.00052434	0.0001658	1329.8	6.0274e-06	6.2442e-06	1385.2	275.38	5.7968e-06	6.1644e-06	339.88	95.546	76.202	21.685	5.4634e-06	30.029	282.111	235.495	254.035	155.441	293.566	305.918	155.374	162.663	310.346	291.794	162.337	168.766	168.958	175.856	326.602	175.524	-8191	255	
546.481	1	1	0	0	0.049314	0.056082	0.073768	0.29194	0.13214	0.035599	0.47953	0.28066	0.075684	0.12546	0.3349	0.089872	0.13199	0.053679	0.15678	0.14457	-2.6333	-3.4771	-3.0667	-3.6167	-3.4583	-3.2313	-3.6063	-3.1875	-3.1667	-3.5854	-3.2083	-3.3812	-3.4625	-3.05	-3.3125	-3.2333	213.963	375.561	277.585	477.391	377.864	191.079	436.925	425.509	415.261	203.863	464.520	257.721	363.726	437.759	472.704	155.660	0.00039867	0.0002329	0.00010148	1344.1	5.5778e-06	2.8621e-06	1399.2	276.27	5.4728e-06	4.2642e-06	338.96	95.272	76.046	21.269	4.4083e-06	29.493	0.0004331	0.00051087	0.00015334	1330.9	6.1093e-06	6.078e-06	1385	275.39	5.8656e-06	5.8985e-06	338.79	95.394	76.218	21.652	5.1878e-06	30.065	280.475	251.397	242.665	155.509	298.385	278.064	155.487	162.986	305.633	301.027	162.307	168.898	168.965	176.341	301.419	175.305	-8191	255	
546.577	1	1	0	0	0.0229	0.082447	0.066319	0.25341	0.22781	0.21073	0.32218	0.085957	0.14661	0.082056	0.13015	0.15064	0.12809	0.26562	0.15672	0.2218	-2.7333	-3.3833	-3.1854	-3.4979	-3.4396	-3.1583	-3.5646	-3.3583	-3.0917	-3.5521	-3.3333	-3.3292	-3.4708	-3.1792	-3.2458	-3.4313	190.041	441.447	380.469	440.639	230.575	421.537	222.758	179.701	218.629	437.215	385.585	450.333	316.442	488.155	414.182	503.978	0.00040883	0.00036758	8.309e-05	1339.5	4.2044e-06	2.8081e-06	1403	278.08	4.028e-06	4.7638e-06	338.4	95.449	75.809	21.21	3.4714e-06	29.457	0.00045608	0.00051401	0.00015292	1329.4	5.9175e-06	6.3927e-06	1386.6	275.8	5.8665e-06	6.1486e-06	338.92	95.406	75.862	21.64	5.2837e-06	30.083	280.016	242.531	237.295	155.438	301.524	295.595	155.600	162.690	313.538	282.286	162.434	168.885	169.164	176.047	322.992	175.617	-8191	255	
546.698	1	1	0	0	0.080844	0.13155	0.23422	0.12058	0.20742	0.24028	0.23921	0.12397	0.096487	0.31742	0.10361	0.072756	0.23558	0.15214	0.10585	0.1303	-2.7667	-3.5042	-3.1354	-3.3812	-3.325	-2.9896	-3.7083	-3.4021	-3.0708	-3.5708	-3.1771	-3.475	-3.4625	-3.0417	-3.2313	-3.3229	335.232	215.326	185.835	471.081	275.093	366.315	456.637	489.431	179.070	472.609	198.783	345.862	377.443	417.970	191.234	388.816	0.00039323	0.0002919	6.0534e-05	1338	4.1279e-06	4.5264e-06	1400.6	276.3	4.1854e-06	3.6438e-06	339.06	95.146	76.086	21.342	2.658e-06	29.6	0.00043491	0.00048081	0.00015354	1328.3	5.7033e-06	6.23e-06	1386	275.28	5.8573e-06	5.771e-06	338.88	95.388	76.238	21.616	5.4335e-06	30.104	284.292	243.518	214.716	155.573	321.868	288.073	155.380	162.892	308.005	299.867	162.291	169.163	168.894	176.078	304.199	175.111	-8191	255	
546.792	1	1	0	0	0.14239	0.084437	0.049208	0.19924	0.073762	0.14116	0.12791	0.23215	0.13732	0.15897	0.23091	0.30395	0.10884	0.10475	0.23637	0.30944	-2.6542	-3.2438	-3.1479	-3.3771	-3.5417	-2.9896	-3.3875	-3.5708	-3.0521	-3.4771	-3.1604	-3.2167	-3.575	-3.1	-3.1667	-3.3542	213.611	172.830	203.478	402.348	301.269	287.203	302.157	473.656	220.876	419.328	378.630	341.239	388.449	291.703	250.321	392.942	0.00040625	0.00035351	9.2162e-05	1341.6	4.5709e-06	4.3798e-06	1403.2	276.6	3.5513e-06	4.8209e-06	337.74	95.063	75.841	21.376	4.7036e-06	29.549	0.00045054	0.00052768	0.00014471	1327.7	5.9563e-06	5.9967e-06	1386.3	275.13	5.509e-06	5.7541e-06	338.98	95.269	76.116	21.651	5.6462e-06	30.018	282.451	240.166	223.285	155.668	294.473	304.078	155.547	162.721	320.944	294.267	162.490	168.793	168.959	176.058	313.929	175.068	-8191	255	
546.889	1	1	0	0	0.11819	0.21443	0.16601	0.32827	0.18977	0.21097	0.31173	0.21916	0.16706	0.381	0.38924	0.20101	0.055172	0.21424	0.12069	0.18704	-2.7958	-3.4708	-3.2542	-3.2708	-3.6	-3.0854	-3.4688	-3.4625	-3.0125	-3.4813	-3.2708	-3.1667	-3.5271	-3.0646	-3.0812	-3.5667	179.705	334.424	159.977	479.635	451.313	290.392	431.926	467.647	434.416	387.449	485.793	454.321	343.310	189.843	433.831	430.746	0.00036995	0.00042192	0.00011364	1341.1	4.2386e-06	3.6687e-06	1401.9	276.59	3.9685e-06	3.2317e-06	338.31	94.621	75.712	21.323	3.9213e-06	29.508	0.00042552	0.00052444	0.00015343	1327.4	5.8554e-06	5.9884e-06	1385	275.46	5.5292e-06	5.5877e-06	338.87	95.373	75.972	21.669	5.3885e-06	30.057	282.646	219.924	231.832	155.647	290.073	309.143	155.484	162.955	301.465	289.432	162.427	168.900	169.080	176.648	314.616	175.308	-8191	255	
546.985	1	1	0	0	0.12802	0.16475	0.090513	0.23305	0.11223	0.09714	0.068121	0.16234	0.17088	0.058017	0.1916	0.42445	0.27266	0.047842	0.099732	0.12012	-2.6104	-3.475	-3.3771	-3.1437	-3.5312	-3.1333	-3.5167	-3.5187	-3.1021	-3.3646	-3.4917	-3.1104	-3.4542	-3.1021	-3.1354	-3.5438	158.463	185.904	461.054	379.269	303.943	179.537	276.974	307.067	311.493	374.561	290.854	155.662	479.596	441.921	237.350	357.742	0.00040776	0.00033798	5.6911e-05	1341.6	3.892e-06	4.4746e-06	1395.4	276.77	4.5199e-06	3.5972e-06	338.4	95.195	76.274	21.267	4.6678e-06	29.607	0.0004498	0.00051624	0.00014585	1326.7	5.8275e-06	5.9684e-06	1382.7	275.17	5.9838e-06	6.3428e-06	338.6	95.408	76.047	21.607	5.5713e-06	30.111	282.927	216.208	223.415	155.296	308.720	293.686	155.725	163.082	320.452	298.027	162.319	168.934	169.304	176.216	296.948	175.577	-8191	255	
547.105	1	1	0	0	0.12793	0.047565	0.22404	0.12274	0.09844	0.065703	0.31988	0.10724	0.071224	0.12909	0.17429	0.12446	0.066878	0.14182	0.21105	0.11564	-2.4604	-3.3479	-3.2917	-3.2438	-3.3583	-3.2833	-3.3542	-3.4958	-3.1208	-3.1583	-3.5375	-3.1375	-3.4458	-3.3208	-3.0729	-3.6792	271.619	258.005	239.724	343.791	410.094	313.556	419.419	328.128	490.274	308.540	159.461	291.489	259.307	461.668	200.251	166.019	0.00038875	0.00025972	0.0001118	1335.2	6.157e-06	3.6514e-06	1396.3	275.76	4.5503e-06	4.567e-06	339.28	95.135	75.696	21.238	3.1903e-06	29.335	0.0004309	0.00051118	0.00015363	1326.6	5.8365e-06	5.9649e-06	1384	274.83	5.4888e-06	5.8815e-06	338.5	95.279	75.899	21.635	5.2966e-06	29.969	284.880	239.476	236.421	155.547	299.221	298.356	155.561	162.918	322.518	316.071	161.919	168.761	168.923	176.230	315.285	175.563	-8191	255	
547.177	1	1	0	0	0.26425	0.29551	0.15247	0.29783	0.1379	0.066824	0.13107	0.22548	0.036657	0.21684	0.20503	0.20103	0.02902	0.022989	0.19404	0.095267	-2.8625	-3.2667	-3.3958	-3.3125	-3.5	-3.2687	-3.2729	-3.4292	-3.1208	-3.1104	-3.5708	-3.1896	-3.3875	-3.425	-3.0146	-3.4542	313.597	175.971	213.935	437.256	328.198	167.303	430.481	443.348	462.834	401.089	145.455	427.642	224.222	466.249	288.801	268.518	0.00039362	0.00040799	9.6688e-05	1333.6	5.7098e-06	2.3968e-06	1397.1	276.23	3.9038e-06	4.2394e-06	337.7	94.732	75.676	21.176	3.065e-06	29.478	0.00042929	0.00053203	0.00014964	1323.2	5.5926e-06	5.6608e-06	1381.7	274.56	5.6373e-06	5.9774e-06	338.04	95.092	75.935	21.553	5.2807e-06	29.965	282.468	229.654	242.008	155.446	309.171	291.311	155.553	163.007	314.180	302.451	162.178	168.792	169.033	175.990	282.563	175.362	-8191	255	
547.273	1	1	0	0	0.1831	0.072781	0.1205	0.099069	0.1539	0.020787	0.36047	0.083179	0.13079	0.12408	0.11117	0.065112	0.13458	0.24995	0.097032	0.22614	-2.8229	-3.2104	-3.6021	-3.0979	-3.4167	-3.3812	-3.425	-3.55	-3.0875	-3.1458	-3.7	-3.2188	-3.3208	-3.3396	-3.1063	-3.4458	416.679	325.159	409.086	370.587	177.287	502.018	430.688	181.536	152.593	317.829	460.561	419.720	496.516	468.650	146.345	450.065	0.00040473	0.0002465	8.7402e-05	1330.9	5.5518e-06	2.9523e-06	1387.2	275.44	3.3539e-06	4.5242e-06	336.61	94.928	75.387	21.106	2.8139e-06	29.428	0.00043545	0.00050561	0.0001349	1316.2	5.4639e-06	5.5971e-06	1372.3	273.24	5.4063e-06	6.1328e-06	336.84	94.811	75.395	21.447	5.2307e-06	29.834	285.888	230.828	233.072	155.646	288.683	303.473	155.404	163.087	303.132	266.950	162.295	168.809	168.908	176.208	290.579	175.679	-8191	255	
547.369	1	1	0	0	0.075454	0.1646	0.19152	0.17922	0.15941	0.083243	0.022867	0.15437	0.08188	0.15616	0.14226	0.152	0.20056	0.36744	0.058068	0.11834	-2.8083	-3.4	-3.5417	-3.4708	-3.5438	-3.4188	-3.0375	-3.5792	-3.3	-3.1917	-3.5396	-3.1979	-3.3667	-3.5187	-2.8812	-3.5271	406.635	261.180	229.288	484.609	344.988	404.438	393.875	478.859	205.233	221.888	438.348	195.059	293.679	459.042	441.293	213.434	0.0003931	0.00034202	0.00010554	1325.1	5.1289e-06	3.3273e-06	1382.2	275.6	4.6035e-06	3.7831e-06	336.74	94.292	75.135	21.122	5.2525e-06	29.288	0.00043622	0.00049984	0.0001292	1313.5	5.6097e-06	5.0161e-06	1371.8	273.3	5.069e-06	5.9216e-06	337.42	94.637	75.494	21.486	5.3566e-06	29.88	282.453	206.702	245.976	155.399	284.874	305.807	155.562	162.875	329.506	297.483	162.202	168.914	169.161	175.943	308.320	175.552	-8191	255	
547.490	1	1	0	0	0.32192	0.17203	0.054064	0.33029	0.21234	0.11623	0.45051	0.24078	0.12097	0.11515	0.2907	0.16176	0.2012	0.076383	0.24811	0.11868	-3.1562	-3.2104	-3.5521	-3.4313	-3.2854	-3.3875	-3.2104	-3.6021	-3.3187	-3.0083	-3.4792	-3.1792	-3.2333	-3.5812	-3.1063	-3.4896	305.831	186.894	341.956	421.358	411.587	268.757	385.685	176.011	448.629	254.309	412.248	231.148	197.394	294.780	435.034	481.541	0.00038746	0.00040232	6.7269e-05	1326.6	4.2816e-06	3.9941e-06	1383.9	274.08	5.0047e-06	3.3663e-06	335.87	94.685	75.339	21.139	4.3558e-06	29.324	0.00041936	0.00051482	0.00012972	1313.2	5.5764e-06	5.2754e-06	1369.8	272.8	5.3486e-06	6.0964e-06	336.22	94.738	75.537	21.499	5.1858e-06	29.823	280.813	219.994	222.336	155.395	301.967	304.614	155.726	163.095	317.905	286.311	162.041	169.014	168.963	176.459	313.686	176.040	-8191	255	
547.584	1	1	0	0	0.15715	0.26046	0.08125	0.098506	0.28029	0.15774	0.189	0.22521	0.20343	0.05379	0.17985	0.10664	0.14975	0.072633	0.072007	0.27618	-2.9708	-3.0938	-3.5271	-3.4188	-3.2062	-3.7104	-3.1771	-3.2104	-3.4583	-3.0958	-3.5208	-3.2104	-3.2917	-3.5187	-3.0438	-3.25	481.002	405.625	447.456	399.725	343.358	345.539	443.381	411.975	360.235	322.937	433.275	358.845	422.226	459.943	490.434	427.225	0.00038397	0.00035711	0.00011504	1324	4.4256e-06	3.0019e-06	1382.9	275.66	4.7298e-06	3.8921e-06	335.88	94.745	75.662	20.988	3.4588e-06	29.354	0.00042536	0.00051867	0.00013271	1312.6	5.6601e-06	5.4934e-06	1370.2	273.4	5.6052e-06	6.1814e-06	336.75	94.855	75.696	21.418	5.2767e-06	29.944	282.273	213.529	227.518	155.618	300.583	316.796	155.529	162.988	316.033	306.526	162.347	168.974	169.287	176.511	286.192	175.281	-8191	255	
547.680	1	1	0	0	0.15889	0.24481	0.063138	0.34933	0.10167	0.14709	0.20986	0.42708	0.089384	0.05357	0.095342	0.15874	0.059474	0.014523	0.074097	0.35727	-2.9813	-2.925	-3.5292	-3.3729	-3.0479	-3.5375	-3.3146	-3.4208	-3.5458	-2.9688	-3.4271	-3.2375	-2.9917	-3.5229	-3.1583	-3.2542	384.600	473.464	464.121	469.951	294.240	371.197	450.907	497.809	157.819	303.469	495.886	481.430	421.447	383.377	301.303	209.955	0.00035112	0.00029632	0.0001337	1321.2	5.2734e-06	2.962e-06	1380.7	273.38	3.8273e-06	2.4226e-06	337.24	94.936	75.502	21.233	4.2926e-06	29.438	0.00042471	0.00049721	0.00013413	1313.9	5.8968e-06	5.22e-06	1370.2	272.5	5.443e-06	6.0345e-06	336.62	94.93	75.452	21.531	5.5064e-06	29.86	282.194	226.322	246.289	155.410	301.724	287.612	155.552	162.975	317.454	296.307	162.230	168.921	169.386	176.281	302.089	175.474	-8191	255	
547.778	1	1	0	0	0.21414	0.1737	0.0631	0.25527	0.18072	0.25625	0.021165	0.087607	0.26973	0.14141	0.070511	0.23082	0.16333	0.13883	0.067277	0.12948	-3.0896	-3.0271	-3.25	-3.4958	-3.0333	-3.4813	-3.4583	-3.425	-3.4938	-2.9917	-3.2854	-3.5979	-3.0521	-3.5583	-3.1667	-3.2271	422.355	234.772	162.308	484.530	232.008	287.044	258.728	386.754	206.656	372.861	499.458	451.014	498.230	212.256	363.963	173.412	0.00038784	0.00039259	9.2913e-05	1326.2	3.9562e-06	2.7077e-06	1381.2	274.58	3.984e-06	3.476e-06	335.29	94.881	75.578	21.182	3.4779e-06	29.456	0.00041766	0.00050348	0.00013411	1313.7	5.8095e-06	5.5076e-06	1369	272.97	5.674e-06	5.7638e-06	336.19	94.79	75.421	21.498	5.2507e-06	29.92	282.358	240.276	225.937	155.786	299.316	312.850	155.577	162.847	314.174	295.440	161.970	168.736	169.345	175.980	317.592	175.229	-8191	255	
547.873	1	1	0	0	0.10801	0.017706	0.11225	0.071282	0.034775	0.13361	0.23478	0.22189	0.084335	0.15152	0.32479	0.067286	0.16402	0.33941	0.085139	0.10657	-3.0708	-3.0104	-3.125	-3.6792	-3.1167	-3.3979	-3.5792	-3.1854	-3.6354	-3.1333	-3.2896	-3.55	-3.0896	-3.3604	-3.3688	-3.2333	349.983	464.131	325.179	182.602	243.658	492.796	403.300	456.634	362.507	224.804	403.897	472.265	425.782	171.880	148.115	170.375	0.00039879	0.00034367	4.6921e-05	1327.3	4.653e-06	4.7865e-06	1379.9	274.74	3.647e-06	4.8634e-06	335.86	94.678	75.504	21.141	4.2732e-06	29.325	0.00042725	0.00050743	0.00014357	1312.7	6.0679e-06	5.946e-06	1370.1	272.85	5.1882e-06	6.1085e-06	336.57	94.909	75.738	21.506	5.2327e-06	29.939	285.472	254.529	233.425	155.581	288.124	299.465	155.527	163.056	310.971	282.808	162.343	168.667	169.181	176.403	306.565	175.470	-8191	255	
547.969	1	1	0	0	0.36612	0.050617	0.1303	0.18982	0.011545	0.26808	0.20652	0.15161	0.29571	0.096393	0.364	0.20423	0.092834	0.43196	0.157	0.18497	-3.0854	-3.1208	-3.2062	-3.7292	-3.1375	-3.4271	-3.5292	-3.4	-3.4292	-3.1229	-3.3833	-3.4708	-2.9875	-3.3521	-3.3083	-3.1521	385.771	254.099	177.635	476.708	462.363	301.526	439.458	420.999	210.800	411.467	409.780	246.418	217.019	435.564	159.547	476.683	0.00041529	0.00039992	8.9047e-05	1322.3	4.0494e-06	2.633e-06	1387.6	275.02	4.6123e-06	2.6909e-06	336.59	94.8	75.26	21.087	4.1957e-06	29.223	0.00042228	0.00048921	0.00014103	1312.9	5.859e-06	5.3709e-06	1371.3	272.93	5.4861e-06	5.9738e-06	336.02	94.84	75.438	21.475	5.1199e-06	29.749	284.833	240.162	239.415	155.592	305.418	323.538	155.846	163.003	331.605	296.654	162.361	168.859	169.087	176.384	315.247	175.453	-8191	255	
548.090	1	1	0	0	0.1087	0.077762	0.025222	0.39456	0.13753	0.12255	0.17118	0.20746	0.19682	0.14634	0.13395	0.11426	0.33415	0.19647	0.15979	0.55475	-3.1979	-3.2625	-3.1042	-3.5438	-3.0833	-3.2479	-3.6	-3.1646	-3.5583	-3.1937	-3.2646	-3.4604	-3.1583	-3.35	-3.4125	-3.1167	197.441	383.960	396.716	473.734	439.953	438.644	467.985	179.950	193.611	278.041	225.469	420.676	395.002	274.932	501.536	407.463	0.00039339	0.00034537	0.00010549	1319	4.3362e-06	3.5547e-06	1383.3	274.98	4.4801e-06	3.0058e-06	336.31	94.587	75.479	21.048	3.6711e-06	29.11	0.00041254	0.00051826	0.00013556	1310.4	5.6772e-06	5.5217e-06	1370.3	272.71	4.9883e-06	5.7844e-06	335.96	94.635	75.49	21.447	4.9302e-06	29.778	281.730	236.256	245.456	155.596	292.252	309.602	155.263	162.783	335.888	298.598	162.227	168.713	169.342	176.113	298.563	175.368	-8191	255	
548.186	1	1	0	0	0.19301	0.36151	0.10051	0.25916	0.22771	0.25902	0.25044	0.27446	0.17184	0.18954	0.27464	0.096863	0.080148	0.10671	0.31897	0.37713	-3.0958	-3.4021	-3.0917	-3.7875	-3.1	-3.1771	-3.5208	-3.0667	-3.3792	-3.4562	-3.4458	-3.5646	-3.2167	-3.3	-3.3063	-3.1	451.644	447.128	186.140	465.128	158.743	212.016	427.777	458.617	273.964	358.586	407.204	361.636	328.439	439.005	193.416	393.846	0.0003885	0.00035009	0.00011217	1319.8	5.5234e-06	3.4683e-06	1379.1	273.7	3.7597e-06	2.8406e-06	335.69	93.4	75.007	21.038	3.9868e-06	29.327	0.00040735	0.0004799	0.00014072	1308.9	5.7609e-06	5.7409e-06	1364.3	272.25	4.9627e-06	5.3547e-06	335.73	94.34	75.336	21.421	4.5866e-06	29.845	281.986	234.020	241.290	155.745	289.202	295.608	155.455	162.919	316.207	327.200	162.203	168.957	169.240	176.231	324.954	175.427	-8191	255	
548.282	1	1	0	0	0.11569	0.19356	0.29683	0.2327	0.1106	0.075818	0.21172	0.11013	0.17604	0.2034	0.16516	0.18911	0.1812	0.11555	0.16855	0.18018	-3.0812	-3.4125	-3.0104	-3.5563	-3.3354	-3.1667	-3.525	-3.1375	-3.2479	-3.3958	-3.1542	-3.6521	-3.3438	-3.2687	-3.4458	-3.1188	501.680	202.745	413.750	388.436	396.281	177.984	368.331	397.538	366.939	161.118	154.373	431.348	354.405	422.382	262.267	381.276	0.0003768	0.00034938	9.9984e-05	1319.9	3.6225e-06	2.606e-06	1379.8	273.16	3.782e-06	3.6886e-06	335.05	94.478	75.149	21.075	4.2993e-06	29.258	0.00041493	0.00048617	0.00013368	1308.9	5.6133e-06	5.3355e-06	1367.6	271.85	5.2533e-06	5.4931e-06	334.66	94.567	75.194	21.411	5.1359e-06	29.849	286.372	208.493	247.959	155.672	290.535	298.326	155.666	162.936	311.522	303.946	162.568	168.951	169.094	176.043	325.340	175.792	-8191	255	
548.378	1	1	0	0	0.13896	0.27844	0.16632	0.26038	0.096924	0.17387	0.25935	0.11926	0.25489	0.25232	0.14245	0.26249	0.2898	0.17221	0.14228	0.16315	-2.9417	-3.3708	-3.1146	-3.6875	-3.3417	-3.2625	-3.7417	-3.2792	-3.2333	-3.4875	-3.2792	-3.4958	-3.375	-3.0229	-3.3771	-3.2042	212.300	243.505	270.090	187.906	302.895	437.305	411.088	201.095	420.329	424.429	396.303	231.075	303.229	290.086	237.841	363.342	0.00041147	0.00033211	7.4334e-05	1318.5	4.6722e-06	3.0741e-06	1381.3	273.5	5.0725e-06	3.4512e-06	336.92	94.265	75.275	21.024	3.3074e-06	29.197	0.00041655	0.00046148	0.00013502	1306.5	5.6403e-06	5.6761e-06	1364.3	272.16	5.1268e-06	5.6011e-06	335.87	94.61	75.184	21.399	4.9841e-06	29.681	285.227	243.157	242.731	155.575	313.831	278.171	155.704	163.130	307.871	288.178	162.318	168.954	168.990	176.367	301.527	175.371	-8191	255	
548.474	1	1	0	0	0.094414	0.11503	0.27145	0.17852	0.038613	0.23343	0.37789	0.16922	0.13181	0.17662	0.18295	0.34137	0.13469	0.10476	0.21847	0.088644	-2.9896	-3.4958	-3.2208	-3.5812	-3.3083	-3.0375	-3.5583	-3.3146	-3.2792	-3.6625	-3.2812	-3.3542	-3.5187	-2.9667	-3.4375	-3.3208	289.234	396.834	307.225	205.790	304.312	337.382	466.358	400.784	230.252	493.701	259.220	393.783	417.628	322.763	208.798	445.230	0.00039008	0.00039142	5.613e-05	1313.7	3.8529e-06	2.9376e-06	1371.6	272.81	3.6288e-06	2.9551e-06	334.09	94.251	75.294	20.893	4.3366e-06	29.45	0.00041004	0.00044467	0.00013388	1301	5.2559e-06	5.6714e-06	1359.2	271.27	5.3935e-06	5.1082e-06	334.34	94.329	75.156	21.347	4.8213e-06	29.853	284.808	229.638	229.541	155.593	293.238	301.978	155.292	162.967	327.432	283.249	162.616	168.681	169.519	176.232	310.717	175.744	-8191	255	
548.570	1	1	0	0	0.12427	0.20936	0.18772	0.20673	0.15973	0.14669	0.14706	0.15526	0.080497	0.1923	0.20424	0.26972	0.32597	0.19794	0.02572	0.23839	-2.8021	-3.4542	-3.0208	-3.5708	-3.3917	-3.1188	-3.6792	-3.3708	-3.2417	-3.7604	-3.1333	-3.4021	-3.3854	-3.0187	-3.4292	-3.4458	149.069	200.832	373.933	459.037	302.066	196.189	418.593	201.399	327.003	287.753	465.111	156.678	445.351	226.814	145.068	361.775	0.00037757	0.00034666	9.2558e-05	1317.4	3.6442e-06	3.8553e-06	1377.1	273.24	4.1636e-06	3.1444e-06	334.69	94.601	74.966	21.006	3.8378e-06	29.144	0.00041374	0.000472	0.00013735	1304.8	5.3586e-06	5.801e-06	1361.6	271.18	5.3559e-06	5.2843e-06	335.07	94.5	75.302	21.361	5.0929e-06	29.76	284.090	243.290	242.630	155.511	310.719	294.804	155.379	162.830	326.926	294.601	162.269	169.326	168.750	176.267	329.967	175.040	-8191	255	
548.666	1	1	0	0	0.20742	0.11887	0.10299	0.03867	0.15192	0.26978	0.21264	0.28327	0.23622	0.22723	0.26666	0.093725	0.16213	0.15747	0.15087	0.15348	-2.7458	-3.3667	-3.025	-3.3187	-3.2125	-3.0687	-3.6896	-3.3604	-3.0438	-3.3479	-3.0667	-3.1646	-3.4771	-3.175	-3.3438	-3.6437	342.861	505.025	346.317	456.104	389.936	148.370	416.541	187.434	342.797	273.738	207.079	435.640	198.228	311.104	235.407	447.083	0.00039765	0.00040965	9.3997e-05	1322.5	4.8149e-06	2.4075e-06	1378.2	274.12	4.1073e-06	4.72e-06	334.18	93.942	75.286	21.177	3.0524e-06	29.393	0.00042871	0.00046471	0.00014836	1307.6	5.733e-06	6.124e-06	1365.8	272.19	5.4017e-06	5.9847e-06	335.31	94.471	75.303	21.424	5.07e-06	29.872	280.635	221.131	246.410	155.456	304.506	314.680	155.466	163.052	331.166	300.194	162.495	169.208	169.068	176.138	291.217	175.276	-8191	255	
548.785	1	1	0	0	0.077537	0.12546	0.28337	0.19443	0.27553	0.10656	0.14697	0.14836	0.15229	0.14172	0.16888	0.18827	0.13315	0.15674	0.21427	0.09895	-2.5062	-3.3708	-2.9813	-3.3271	-3.4938	-3.1813	-3.4583	-3.5958	-3.1104	-3.5333	-3.3396	-3.2125	-3.4375	-3.1	-3.3271	-3.3771	448.373	330.640	194.588	500.202	305.640	220.261	426.628	258.086	393.576	412.046	390.272	424.258	185.583	178.377	329.173	401.947	0.00037364	0.00039175	8.9002e-05	1319	4.684e-06	4.8766e-06	1380.6	274.08	3.1869e-06	4.2072e-06	334.31	94.752	75.281	21.212	4.7418e-06	29.485	0.00043356	0.00052272	0.00014628	1308.2	5.5071e-06	6.223e-06	1366.2	271.99	5.6355e-06	5.8985e-06	335.25	94.71	75.441	21.491	5.2028e-06	29.892	283.359	245.286	227.010	155.725	291.569	277.641	155.506	162.823	322.550	298.095	162.255	168.897	168.880	176.271	318.216	175.767	-8191	255	
548.881	1	1	0	0	0.2046	0.080799	0.19238	0.15618	0.28256	0.2461	0.074492	0.05699	0.052872	0.024392	0.14998	0.11931	0.099344	0.12003	0.19844	0.12139	-2.7021	-3.3396	-3.1292	-3.2875	-3.6708	-3.2146	-3.3792	-3.5375	-2.9479	-3.325	-3.4542	-3.1125	-3.5438	-3.2396	-3.1688	-3.5604	441.996	496.067	165.869	483.228	308.960	396.347	300.742	373.240	225.010	295.229	156.426	449.282	207.818	424.801	226.817	341.877	0.00040009	0.00043499	0.00011623	1316	4.791e-06	3.6582e-06	1381.6	274.19	3.618e-06	4.9846e-06	335.67	94.617	75.381	21.093	3.1422e-06	29.098	0.00042786	0.00051816	0.00016113	1309.4	5.6952e-06	6.065e-06	1368.4	272.69	5.5191e-06	5.9155e-06	335.8	94.86	75.473	21.459	5.3925e-06	29.857	282.721	255.658	250.232	155.529	286.476	298.771	155.707	162.935	307.266	316.125	162.421	169.022	168.995	176.164	329.534	175.768	-8191	255	
548.978	1	1	0	0	0.29609	0.062116	0.065662	0.21511	0.19369	0.20016	0.18741	0.037259	0.10211	0.1691	0.067811	0.06213	0.3798	0.10658	0.22369	0.135	-2.6333	-3.4042	-3.2438	-3.1833	-3.375	-3.0667	-3.3	-3.6354	-2.9771	-3.375	-3.3979	-3.1667	-3.4667	-3.1208	-3.0083	-3.4792	285.199	198.749	381.541	445.801	390.792	149.213	426.829	285.148	264.797	282.295	394.882	493.684	436.181	289.676	438.091	381.353	0.00039947	0.00037014	0.00011333	1324.9	3.984e-06	2.9037e-06	1375.2	275.53	4.1185e-06	4.1257e-06	337.11	94.61	75.544	21.006	4.7674e-06	29.242	0.00043983	0.0005213	0.0001434	1311.3	5.7105e-06	6.0509e-06	1369.3	273.5	5.7262e-06	5.9568e-06	336.27	94.798	75.488	21.473	5.3955e-06	29.821	283.978	258.307	246.729	155.511	300.302	322.576	155.466	162.963	303.093	296.147	162.628	168.792	168.926	176.067	302.368	175.924	-8191	255	
549.049	1	1	0	0	0.2539	0.095672	0.34029	0.14191	0.07762	0.11958	0.19612	0.26313	0.1963	0.13937	0.28947	0.18829	0.03805	0.22237	0.19963	0.061289	-2.4521	-3.1104	-3.1729	-3.1437	-3.3625	-3.2417	-3.4562	-3.5563	-3.1792	-3.2396	-3.3937	-3.0167	-3.3979	-3.1958	-3.0396	-3.4354	429.791	417.697	304.198	463.995	192.529	148.600	431.260	500.041	468.019	315.366	428.546	340.505	223.428	489.126	189.401	458.554	0.00040425	0.00042311	9.214e-05	1325.1	4.854e-06	2.7494e-06	1384.2	275.38	3.9498e-06	4.1673e-06	336.62	94.242	75.556	21.105	3.6105e-06	29.38	0.00043583	0.00050632	0.00014853	1312	5.7204e-06	5.8376e-06	1369.4	273.17	5.85e-06	5.9847e-06	336.21	94.749	75.507	21.46	5.3276e-06	29.83	281.910	224.784	214.175	155.628	290.967	264.835	155.682	162.750	318.946	286.961	162.604	168.772	168.910	175.828	328.900	175.743	-8191	255	
549.170	1	1	0	0	0.37498	0.05169	0.18162	0.013456	0.16621	0.14703	0.37596	0.12124	0.11813	0.20929	0.18012	0.061922	0.15691	0.15352	0.25102	0.18575	-2.5583	-3.075	-3.4042	-3.1771	-3.5625	-3.3354	-3.2875	-3.6125	-3.0917	-3.2125	-3.4104	-3.0667	-3.55	-3.2562	-3.0875	-3.3708	473.022	434.255	483.148	469.715	215.955	502.623	484.567	399.026	351.774	165.206	468.604	388.187	487.275	354.336	409.996	470.686	0.00039333	0.00032343	0.00012877	1318.4	5.2956e-06	1.3082e-06	1382.4	272.98	3.2379e-06	4.417e-06	334.89	94.462	75.361	21.125	4.0346e-06	29.219	0.00042606	0.00049356	0.00013878	1308.5	5.5143e-06	5.2825e-06	1366.5	272.02	5.2166e-06	5.7273e-06	335.38	94.507	75.431	21.51	5.3606e-06	29.771	283.465	229.708	230.058	155.485	302.244	308.754	155.537	162.886	306.523	302.505	162.483	169.001	169.269	176.319	313.062	175.441	-8191	255	
549.266	1	1	0	0	0.36776	0.28233	0.086014	0.38839	0.1496	0.083713	0.27145	0.32936	0.10368	0.13511	0.095996	0.16848	0.26119	0.10167	0.10693	0.081828	-2.8958	-3.2104	-3.4854	-3.1417	-3.2292	-3.425	-3.2479	-3.5646	-3.2229	-3.2042	-3.4854	-3.1771	-3.3625	-3.4333	-2.9146	-3.4708	325.375	263.134	379.343	451.590	183.704	246.736	412.371	450.698	361.061	456.108	153.813	497.261	437.548	347.285	440.452	321.518	0.00038564	0.00044339	9.5829e-05	1321.6	4.2874e-06	3.5523e-06	1378.4	274.17	3.5366e-06	3.9555e-06	336.84	94.208	75.409	21.113	3.3698e-06	29.199	0.00043371	0.00052049	0.0001296	1307.4	5.5548e-06	5.88e-06	1366.3	271.93	5.3779e-06	5.5817e-06	335.82	94.556	75.346	21.439	5.5173e-06	29.867	284.025	236.774	233.857	155.716	318.051	321.851	155.504	163.314	331.152	271.578	162.465	168.963	169.221	176.129	288.097	175.086	-8191	255	
549.362	1	1	0	0	0.3731	0.21659	0.14909	0.25998	0.13863	0.125	0.18746	0.34641	0.27753	0.10226	0.25197	0.027409	0.23002	0.092073	0.28282	0.19834	-2.9229	-3.0771	-3.4917	-3.1354	-3.25	-3.4313	-3.0271	-3.4062	-3.2313	-3.0875	-3.7438	-3.1021	-3.2812	-3.5042	-3.1104	-3.6042	152.538	335.619	396.260	371.156	417.043	492.273	349.442	460.769	181.078	276.981	449.763	326.738	309.053	328.258	459.580	452.006	0.00039223	0.00046874	8.5082e-05	1316.7	4.454e-06	3.3017e-06	1379.2	273.02	5.2125e-06	4.204e-06	336.13	94.085	75.593	21.252	4.3143e-06	29.232	0.0004229	0.00051361	0.00014006	1306.9	5.6061e-06	5.319e-06	1363.6	271.25	5.2395e-06	5.5392e-06	335.21	94.495	75.367	21.495	5.1928e-06	29.807	283.226	220.707	256.067	155.393	311.896	299.867	155.661	162.960	314.363	296.491	162.531	169.066	168.772	176.144	308.997	175.437	-8191	255	
549.458	1	1	0	0	0.11156	0.098745	0.2944	0.25278	0.09805	0.16262	0.20718	0.059716	0.080139	0.063034	0.083266	0.033709	0.14174	0.21368	0.23105	0.086367	-2.8083	-2.9958	-3.4208	-3.4271	-3.1167	-3.5125	-3.2375	-3.4625	-3.1979	-2.8937	-3.6063	-3.225	-3.1542	-3.3583	-2.9146	-3.3604	295.766	238.050	328.943	436.021	281.426	428.380	429.391	416.095	368.754	183.928	497.044	387.853	146.417	463.077	184.811	488.393	0.00039047	0.00035175	9.5293e-05	1314	3.9617e-06	4.416e-06	1380.9	273.36	4.5934e-06	1.7573e-06	333.63	94.393	74.954	21.134	4.9013e-06	29.331	0.00042525	0.00051765	0.00013285	1305.7	5.5818e-06	5.4816e-06	1366.5	271.96	5.2285e-06	5.8184e-06	335.73	94.599	75.327	21.457	5.4834e-06	29.82	280.818	241.326	229.528	155.689	311.084	299.175	155.560	162.974	319.348	270.349	162.397	168.833	169.421	176.326	306.436	175.116	-8191	255	
549.579	1	1	0	0	0.1316	0.18185	0.049739	0.18617	0.073851	0.026899	0.35509	0.14086	0.12678	0.12065	0.20449	0.205	0.30891	0.15103	0.079309	0.10088	-2.9562	-2.8604	-3.4875	-3.4042	-3.1896	-3.4042	-3.2938	-3.3729	-3.4521	-2.975	-3.4271	-3.0979	-3.1646	-3.4021	-3.0875	-3.2479	341.481	414.026	388.586	447.407	286.137	218.321	389.206	441.386	373.592	283.406	145.004	459.813	195.260	244.340	219.431	419.959	0.00040558	0.00054418	0.00010842	1315.6	4.4122e-06	4.1793e-06	1375.9	274.42	4.948e-06	1.9911e-06	335.41	94.459	75.349	21.026	4.2604e-06	29.164	0.00042698	0.00049873	0.00013297	1304.4	5.5305e-06	5.141e-06	1365.8	272.21	5.4641e-06	6.2906e-06	335.7	94.562	75.436	21.454	5.1538e-06	29.779	282.082	229.165	230.813	155.500	287.679	299.308	155.558	162.679	308.795	304.762	162.389	169.137	169.015	175.953	316.899	176.090	-8191	255	
549.651	1	1	0	0	0.2079	0.27124	0.29227	0.20636	0.098044	0.10096	0.058249	0.081608	0.21108	0.17126	0.35954	0.26611	0.2589	0.36484	0.15341	0.13822	-3.0417	-2.8958	-3.4437	-3.4562	-3.15	-3.5833	-3.2146	-3.2771	-3.4208	-2.8125	-3.5229	-3.3125	-3.1021	-3.4271	-2.8917	-3.1271	426.886	255.275	317.457	481.525	327.527	338.921	396.074	153.400	351.382	285.938	493.967	484.088	482.450	439.467	193.423	450.888	0.00039863	0.00019243	9.0308e-05	1318	5.4585e-06	1.9846e-06	1378.2	274.3	5.1008e-06	3.5918e-06	335.61	95.003	75.348	20.937	3.011e-06	29.322	0.00042544	0.00052393	0.0001469	1307.3	5.7357e-06	5.6007e-06	1365.6	272.35	5.2606e-06	5.9422e-06	335.16	94.728	75.426	21.418	5.1758e-06	29.776	279.089	246.604	260.832	155.534	299.721	288.534	155.530	162.736	325.692	319.477	162.249	169.072	169.358	176.209	295.319	175.643	-8191	255	
549.770	1	1	0	0	0.25023	0.32318	0.22327	0.3785	0.24348	0.34179	0.159	0.10827	0.093879	0.042467	0.2238	0.25705	0.19962	0.17989	0.05215	0.30618	-2.9917	-2.9333	-3.1104	-3.4917	-2.9771	-3.2854	-3.3771	-3.3	-3.4396	-3.1146	-3.3729	-3.4708	-3.1562	-3.4646	-3.2271	-3.2979	369.497	454.599	264.756	172.025	263.249	489.911	420.127	425.326	235.297	479.334	280.857	404.916	478.731	463.868	384.449	458.286	0.00041882	0.00039079	0.00012322	1318.9	3.5061e-06	2.6088e-06	1378.3	273.65	4.3144e-06	2.1411e-06	335.13	94.292	75.42	21.07	3.2415e-06	29.336	0.00042794	0.00051411	0.00014445	1307.1	5.959e-06	5.306e-06	1365.3	271.89	5.2166e-06	5.9981e-06	335.33	94.343	75.528	21.447	5.1958e-06	29.825	281.384	240.856	248.777	155.639	309.578	299.396	155.561	162.674	319.972	284.402	162.334	169.167	169.110	176.203	323.682	175.612	-8191	255	
549.866	1	1	0	0	0.05539	0.19768	0.18751	0.20002	0.48484	0.17868	0.1261	0.032688	0.19115	0.10427	0.16991	0.26081	0.17977	0.12954	0.2107	0.023283	-3.0333	-2.8958	-3.2646	-3.4708	-2.9313	-3.5375	-3.3438	-3.2458	-3.6333	-3.1542	-3.2292	-3.4021	-2.9417	-3.4542	-3.2625	-3.1083	232.170	312.994	429.864	400.068	244.908	236.212	452.448	194.008	265.532	158.857	422.943	212.528	497.357	188.778	487.568	256.046	0.00039331	0.00038481	7.854e-05	1319.8	4.8563e-06	3.9757e-06	1379.9	273.04	4.5911e-06	3.2151e-06	334.86	94.387	75.258	21.16	2.7015e-06	29.461	0.00042717	0.00050055	0.00013912	1307.8	5.995e-06	5.4816e-06	1368.2	272.47	5.3761e-06	5.839e-06	335.69	94.696	75.314	21.494	5.4245e-06	29.846	286.286	219.935	236.277	155.598	298.327	283.838	155.507	162.972	317.294	299.083	162.510	169.002	169.209	176.066	319.397	175.634	-8191	255	
549.962	1	1	0	0	0.13665	0.18093	0.10741	0.23456	0.18643	0.10979	0.26027	0.29954	0.21497	0.20167	0.20255	0.20967	0.36421	0.13042	0.12231	0.18982	-3.0625	-2.7854	-3.2812	-3.5604	-2.975	-3.3833	-3.4667	-3.1125	-3.4833	-3.25	-3.275	-3.35	-3.0042	-3.3063	-3.3333	-3.0875	437.049	345.768	256.691	408.902	360.771	372.753	413.317	406.433	249.773	427.649	414.412	462.406	255.193	483.968	473.782	183.686	0.00041407	0.00031696	4.7338e-05	1317.4	4.4292e-06	4.2685e-06	1379.1	273.62	3.8194e-06	2.9313e-06	334.85	94.547	75.734	21.013	3.6222e-06	29.179	0.00042452	0.00049792	0.00013909	1307.5	5.9103e-06	5.3697e-06	1367.7	272.09	5.2001e-06	6.0393e-06	335.72	94.642	75.536	21.408	5.3396e-06	29.819	283.198	234.667	258.616	155.729	286.504	287.106	155.522	163.207	321.353	308.308	162.422	168.846	168.865	176.502	329.920	175.543	-8191	255	
550.058	1	1	0	0	0.3102	0.11625	0.092367	0.31798	0.14377	0.37662	0.16477	0.18958	0.13184	0.41083	0.063543	0.090385	0.2447	0.12298	0.33002	0.11369	-2.8917	-3.1875	-3.0125	-3.675	-2.9354	-3.2771	-3.5729	-2.9854	-3.5312	-3.0917	-3.2417	-3.3688	-3.0312	-3.2917	-3.2417	-2.8875	207.705	271.657	258.516	397.627	227.401	291.365	251.895	420.708	466.218	376.165	361.998	433.533	432.906	159.506	462.718	425.676	0.00040153	0.00043229	5.3244e-05	1320.5	4.7464e-06	2.1616e-06	1381	272.92	3.5244e-06	4.4166e-06	334.61	94.358	75.552	21.109	3.4634e-06	29.377	0.00043191	0.00053901	0.00014519	1310	6.1579e-06	5.6926e-06	1366.8	272.25	5.2762e-06	6.2408e-06	335.6	94.892	75.624	21.46	5.3456e-06	29.881	280.280	233.857	242.628	155.653	284.487	288.868	155.490	163.028	331.790	308.423	162.343	168.806	169.434	175.956	329.829	175.522	-8191	255	
550.179	1	1	0	0	0.13265	0.20065	0.040933	0.075746	0.16468	0.21106	0.28275	0.12662	0.11955	0.029718	0.1798	0.10736	0.052584	0.11069	0.22752	0.091155	-3.1583	-3.2188	-2.9708	-3.6	-3.05	-3.3	-3.4917	-3.0312	-3.4625	-3.2521	-3.1167	-3.4917	-2.9458	-3.2917	-3.5542	-3.2479	260.720	364.148	416.539	239.159	357.879	273.753	429.216	441.387	391.612	415.523	499.854	256.666	347.474	445.412	254.400	357.964	0.00041461	0.00043267	7.1945e-05	1322.5	6.169e-06	4.7786e-06	1384.8	274.42	3.8082e-06	5.0439e-06	336.29	94.544	75.314	21.221	2.5727e-06	29.41	0.0004294	0.00053223	0.00015058	1310.3	6.0355e-06	5.748e-06	1367.8	272.55	5.3275e-06	5.8111e-06	335.89	94.679	75.483	21.461	5.3685e-06	29.872	282.869	216.040	261.362	155.692	288.353	318.981	155.537	162.988	331.535	297.003	162.299	168.961	169.233	176.322	298.355	175.476	-8191	255	
550.275	1	1	0	0	0.19752	0.12756	0.073241	0.24529	0.081744	0.21455	0.16663	0.16315	0.1475	0.15885	0.23608	0.085077	0.19894	0.26793	0.094089	0.14921	-2.9458	-3.2604	-2.9646	-3.6	-3.0458	-3.2792	-3.65	-3.1063	-3.3708	-3.375	-3.1708	-3.4667	-3.1167	-3.0812	-3.3896	-3.1146	163.593	176.492	155.372	375.286	287.276	340.450	430.737	365.063	486.873	174.697	497.434	151.657	362.611	402.172	488.863	407.610	0.00039325	0.00035282	0.00011716	1318.5	5.3406e-06	3.4359e-06	1383.9	274.59	3.8998e-06	4.6666e-06	335.36	94.452	75.212	21.158	5.3455e-06	29.419	0.00045539	0.00053547	0.00014935	1308.8	5.6673e-06	5.735e-06	1368.7	272.87	5.3568e-06	6.2991e-06	336.11	94.582	75.531	21.5	5.4025e-06	29.854	285.472	236.952	236.745	155.515	298.354	304.263	155.613	162.999	333.704	294.626	162.104	168.852	169.153	176.434	297.651	175.969	-8191	255	
550.346	1	1	0	0	0.13708	0.032601	0.12227	0.25034	0.10514	0.092183	0.22755	0.12044	0.098151	0.16274	0.07346	0.12475	0.093804	0.16524	0.12233	0.080493	-2.925	-3.4917	-2.9958	-3.65	-3.3125	-3.1417	-3.725	-3.1167	-3.3438	-3.4167	-3.0521	-3.4104	-3.2979	-2.9792	-3.4271	-3.2354	484.850	490.003	273.685	447.528	385.028	260.905	164.984	201.901	233.147	234.947	221.361	212.172	265.584	464.668	450.712	466.502	0.00037406	0.00030651	7.8302e-05	1321.9	3.7502e-06	4.1879e-06	1387.4	276.01	4.261e-06	3.0993e-06	335.59	94.413	75.202	21.271	4.3748e-06	29.375	0.00043348	0.00053395	0.00014454	1313.3	6.0409e-06	6.1747e-06	1371.7	273.78	5.7473e-06	5.8269e-06	336.4	94.792	75.43	21.598	5.3955e-06	29.978	282.364	251.583	242.313	155.439	324.709	294.631	155.597	162.998	322.139	266.543	162.484	168.920	169.241	176.472	306.289	175.607	-8191	255	
550.443	1	1	0	0	0.11772	0.16891	0.1271	0.12697	0.12998	0.17055	0.31089	0.1542	0.061953	0.16019	0.081804	0.29543	0.12806	0.14275	0.040655	0.067865	-2.8312	-3.3312	-2.8312	-3.5812	-3.2188	-3.1646	-3.7708	-3.2083	-3.0354	-3.7313	-3.1	-3.5146	-3.2542	-3.0958	-3.3667	-3.1583	161.911	171.590	476.437	168.593	340.989	328.948	415.883	364.728	266.880	366.532	149.623	392.792	352.381	342.279	267.385	301.648	0.00039229	0.00048901	8.172e-05	1330.2	4.0296e-06	1.9646e-06	1393.9	274.9	3.9562e-06	4.2054e-06	338.3	94.725	75.612	21.19	3.33e-06	29.393	0.00044561	0.00055308	0.00016475	1316.7	6.5044e-06	6.6732e-06	1376.7	273.87	6.1396e-06	6.3197e-06	338.03	94.951	75.854	21.601	6.2423e-06	29.97	282.705	228.024	218.985	155.627	300.821	308.709	155.730	163.076	305.535	310.806	162.563	168.554	168.988	176.070	292.357	175.290	-8191	255	
550.563	1	1	0	0	0.13977	0.15634	0.091307	0.098557	0.12665	0.18012	0.29542	0.17228	0.1554	0.10664	0.12338	0.18833	0.093663	0.15783	0.057861	0.075022	-2.6292	-3.3854	-3.0146	-3.625	-3.4354	-2.9917	-3.7104	-3.1229	-3.1167	-3.5167	-3.1771	-3.3208	-3.4625	-3.0667	-3.3729	-3.2208	209.480	256.109	267.686	160.341	271.758	241.714	413.750	187.757	214.772	159.473	475.371	487.908	223.122	428.506	357.452	347.686	0.00039121	0.00044617	7.1551e-05	1335.3	4.7433e-06	3.3439e-06	1395.9	276.68	4.5838e-06	3.3136e-06	338.31	94.839	76.059	21.121	2.2822e-06	29.319	0.00043918	0.00057434	0.00016355	1321.6	6.1021e-06	6.5766e-06	1380	274.65	6.3303e-06	6.9352e-06	338.44	95.194	76.092	21.605	6.1325e-06	29.993	281.892	215.568	247.114	155.623	291.963	309.956	155.468	162.879	311.461	306.902	162.461	168.807	169.097	176.107	277.833	175.221	-8191	255	
550.658	1	1	0	0	0.22073	0.3556	0.060506	0.1715	0.2801	0.056846	0.022782	0.10429	0.15142	0.093705	0.22484	0.19403	0.053821	0.11619	0.093695	0.072378	-2.4958	-3.5125	-3.125	-3.3896	-3.3479	-3.125	-3.6188	-3.4833	-3.2438	-3.4938	-3.3375	-3.3896	-3.5354	-2.9083	-3.4021	-3.4375	347.239	387.610	495.447	417.613	154.130	204.966	452.390	358.918	334.110	429.658	490.896	171.450	376.691	467.590	208.783	246.670	0.00040814	0.00033378	0.00011545	1341.3	3.615e-06	2.7704e-06	1398.9	277.69	5.1699e-06	3.9792e-06	340.21	95.687	75.944	21.415	4.6029e-06	29.97	0.00048906	0.00057373	0.00017752	1329.1	6.7889e-06	7.5124e-06	1388.6	276.02	6.9573e-06	7.1622e-06	340.57	95.933	76.343	21.767	6.9444e-06	30.373	284.263	214.420	241.619	155.597	286.634	329.418	155.393	162.819	309.351	298.270	162.238	168.867	168.825	176.290	307.897	175.727	-8191	255	
550.754	1	1	0	0	0.076099	0.087643	0.024924	0.35498	0.062916	0.28569	0.34489	0.10737	0.10166	0.14391	0.32876	0.080564	0.16024	0.087502	0.095818	0.11769	-2.6	-3.4458	-3.1	-3.3125	-3.5	-3.2042	-3.6021	-3.4979	-3.1312	-3.5479	-3.4042	-3.3646	-3.7104	-3.2396	-3.4104	-3.3812	431.406	344.946	309.944	482.742	298.515	271.844	384.630	373.988	435.162	428.776	451.870	383.842	187.841	447.734	443.085	253.123	0.00039588	0.00041335	0.00012127	1354.7	5.1605e-06	4.2478e-06	1414.6	279.81	4.4685e-06	4.2615e-06	341.15	96.172	77.024	21.312	3.3958e-06	29.811	0.00049403	0.00074004	0.00019208	1345.1	6.9842e-06	8.0569e-06	1402.7	278.21	7.1232e-06	7.7668e-06	342.49	96.38	77.112	21.763	7.23e-06	30.438	284.555	230.824	245.767	155.480	297.958	299.111	155.633	163.086	302.490	290.730	161.892	168.952	168.951	176.002	290.559	175.316	-8191	255	
550.852	1	1	0	0	0.26513	0.1253	0.30458	0.23745	0.16362	0.11626	0.24742	0.13535	0.13676	0.23986	0.22888	0.19251	0.13114	0.1433	0.1782	0.22799	-2.5375	-3.4	-3.1854	-3.3125	-3.5354	-3.1667	-3.6229	-3.6708	-3.1937	-3.5771	-3.35	-3.0812	-3.5333	-3	-3.2625	-3.5583	294.409	481.440	225.226	419.363	264.040	151.687	429.284	426.569	435.663	376.203	400.695	476.394	289.626	209.741	429.158	425.519	0.00039229	0.00030085	7.8389e-05	1361.2	6.81e-06	4.6056e-06	1423.3	280.25	4.3264e-06	3.3524e-06	342.13	96.695	76.935	21.631	2.5998e-06	29.935	0.00051762	0.00069145	0.00020271	1350.8	7.6287e-06	8.071e-06	1409.6	279.16	7.2103e-06	8.2718e-06	343.48	96.491	77.07	21.867	7.0382e-06	30.488	285.387	244.621	246.515	155.487	290.119	296.526	155.405	162.832	323.163	267.054	162.450	168.850	169.096	175.909	277.773	175.426	-8191	255	
550.946	1	1	0	0	0.1397	0.25862	0.11039	0.23947	0.12552	0.063523	0.18573	0.2253	0.14165	0.074448	0.065657	0.32203	0.077499	0.24354	0.060463	0.11568	-2.6125	-3.4813	-3.2083	-3.1729	-3.4688	-2.9396	-3.4604	-3.5938	-3.0625	-3.5104	-3.4458	-2.9625	-3.5896	-3.2104	-3.0687	-3.7042	443.937	258.862	200.777	451.817	418.413	241.439	493.914	431.500	345.035	389.480	429.658	146.301	436.146	410.862	267.900	473.619	0.00040988	0.00034153	8.2068e-05	1364.6	3.8872e-06	3.8886e-06	1421.7	280.51	2.7299e-06	2.7535e-06	342.87	96.165	76.871	21.346	4.694e-06	30.009	0.00052132	0.00067627	0.00018461	1355.5	7.1885e-06	7.8589e-06	1408.8	279.59	7.2653e-06	8.0654e-06	343.56	96.624	77.097	21.82	7.2909e-06	30.5	282.231	228.443	269.986	155.491	300.311	291.607	155.490	162.689	322.352	281.051	162.445	168.772	168.957	175.994	300.722	175.341	-8191	255	
551.042	1	1	0	0	0.17585	0.14556	0.14038	0.20228	0.12034	0.087401	0.1621	0.16836	0.15267	0.13945	0.22263	0.3405	0.12843	0.12738	0.14991	0.19428	-2.6375	-3.3	-3.2583	-3.1688	-3.525	-3.1896	-3.4396	-3.7542	-3.1625	-3.4458	-3.4417	-2.9688	-3.6312	-3.175	-3.1417	-3.4375	190.713	370.955	187.443	450.347	453.574	231.973	500.467	198.627	411.031	413.296	417.636	463.971	160.782	156.636	149.542	495.465	0.00041209	0.0004464	6.6789e-05	1372.8	5.1479e-06	3.9815e-06	1420.5	281.68	5.2547e-06	1.7091e-06	344.24	96.316	76.958	21.442	2.9578e-06	29.801	0.00050308	0.00068589	0.00019576	1357.5	7.2075e-06	7.4027e-06	1410.9	279.34	7.3313e-06	7.7473e-06	343.59	96.508	77.271	21.856	6.9673e-06	30.471	280.199	225.317	241.611	155.686	288.640	295.526	155.487	162.656	302.420	301.198	162.260	168.653	169.357	175.562	314.436	175.658	-8191	255	
551.138	1	1	0	0	0.16784	0.097178	0.17121	0.091243	0.27972	0.19358	0.18006	0.12	0.20704	0.12933	0.055794	0.054823	0.047323	0.10225	0.14556	0.053027	-2.7792	-3.1854	-3.3917	-3.2188	-3.5563	-3.3063	-3.2646	-3.6312	-3.2542	-3.3854	-3.5792	-3.0187	-3.5312	-3.3312	-3.1292	-3.5312	171.664	478.534	306.825	410.283	204.126	444.092	322.366	282.741	306.235	188.046	224.394	269.024	159.670	460.985	442.069	244.957	0.00040325	0.00043285	0.00010722	1370.4	4.3148e-06	5.162e-06	1430.2	280.98	3.805e-06	3.2403e-06	342.86	96.179	77.215	21.406	4.2893e-06	30.184	0.00051832	0.0006538	0.0001839	1355.9	7.3911e-06	7.391e-06	1413.8	279.44	7.0104e-06	8.1358e-06	343.68	96.499	77.235	21.804	7.0632e-06	30.538	283.898	237.249	239.484	155.642	309.914	300.603	155.535	162.923	318.197	268.054	162.314	168.684	169.118	176.091	313.605	175.684	-8191	255	
551.259	1	1	0	0	0.26797	0.14561	0.17181	0.21404	0.17007	0.10224	0.22187	0.43997	0.16062	0.10942	0.14575	0.16016	0.16804	0.1535	0.072595	0.23706	-2.8479	-3.2625	-3.4104	-3.1958	-3.5563	-3.3458	-3.3312	-3.6604	-3.15	-3.1542	-3.3937	-3.1146	-3.3312	-3.4229	-3.1021	-3.5396	351.897	374.425	303.839	179.584	428.299	233.607	441.572	478.196	193.270	285.917	479.689	304.425	220.899	425.123	273.194	448.587	0.00037016	0.00029925	0.00012442	1365.6	3.5122e-06	4.1246e-06	1429.2	283.14	4.0801e-06	2.5972e-06	342.97	95.464	76.974	21.554	4.1643e-06	29.808	0.00047886	0.00069631	0.00018843	1355.6	7.0301e-06	7.8046e-06	1411.6	279.82	6.6924e-06	7.7485e-06	344.1	96.363	77.08	21.886	7.1461e-06	30.45	282.320	211.679	228.587	155.314	302.033	285.865	155.429	162.898	315.887	281.051	162.225	168.566	169.033	175.881	323.695	175.562	-8191	255	
551.355	1	1	0	0	0.24864	0.22208	0.09972	0.32757	0.32673	0.23252	0.20642	0.25118	0.23156	0.10218	0.095463	0.032969	0.20024	0.17374	0.13251	0.1023	-2.7458	-3.0167	-3.675	-3.1854	-3.0875	-3.2792	-3.1729	-3.4458	-3.1813	-3.1542	-3.6333	-3.0417	-3.325	-3.3333	-3.1833	-3.325	420.548	159.310	458.495	447.527	368.315	330.858	450.859	150.593	489.204	389.910	473.242	494.965	494.231	232.850	241.235	504.097	0.00042029	0.00032125	9.559e-05	1371.4	4.7218e-06	3.2813e-06	1435.6	280.85	3.4092e-06	3.6248e-06	343.17	96.616	77.138	21.4	3.7109e-06	30.031	0.00051712	0.00068447	0.00019231	1359.3	7.4775e-06	7.6243e-06	1416.6	279.96	7.1589e-06	8.1916e-06	344.09	96.745	77.351	21.872	7.5435e-06	30.584	283.211	239.797	255.963	155.544	301.132	278.333	155.412	162.761	316.569	292.580	162.249	168.909	169.445	176.159	294.666	175.479	-8191	255	
551.451	1	1	0	0	0.07436	0.20314	0.15357	0.39323	0.10646	0.064254	0.086549	0.29083	0.05112	0.15584	0.15313	0.23504	0.18019	0.082114	0.10657	0.20767	-2.9292	-3.0542	-3.4854	-3.3937	-3.1375	-3.4813	-3.2354	-3.5062	-3.1542	-3.0812	-3.5292	-3.1688	-3.2562	-3.5229	-2.9417	-3.425	246.030	433.668	500.168	460.703	466.740	495.130	360.637	445.192	476.001	499.416	503.005	416.040	159.427	264.116	285.142	185.890	0.00038048	0.00044351	0.0001355	1375.5	5.6989e-06	3.8021e-06	1430.6	282.2	4.2281e-06	3.7415e-06	344.93	95.918	77.076	21.473	4.8201e-06	29.935	0.00048926	0.00068356	0.00019217	1361	7.5657e-06	7.9567e-06	1416.8	279.99	7.1351e-06	8.1479e-06	344.63	96.393	77.258	21.91	7.3538e-06	30.541	281.320	233.463	223.132	155.574	304.512	300.646	155.354	162.791	319.864	273.627	162.347	169.074	169.211	176.510	311.848	175.499	-8191	255	
551.572	1	1	0	0	0.1885	0.13239	0.14963	0.25207	0.083938	0.08686	0.24925	0.082515	0.08879	0.069792	0.31723	0.058629	0.11334	0.16962	0.15063	0.10058	-2.9125	-2.9583	-3.4854	-3.4125	-3.0458	-3.5583	-3.0604	-3.3854	-3.4542	-3.0896	-3.3083	-3.1625	-2.9417	-3.4313	-2.8896	-3.1896	389.069	348.621	197.258	206.373	288.072	206.120	480.500	353.605	326.669	157.596	457.719	468.012	163.465	166.609	411.411	146.678	0.00040402	0.00023948	0.00010985	1375.2	4.3124e-06	3.4281e-06	1433.3	282.26	5.0605e-06	3.7452e-06	343.32	97.033	77.332	21.401	2.7377e-06	29.724	0.00052236	0.0006866	0.00019028	1360.5	7.4811e-06	7.6361e-06	1417.1	280.41	6.9857e-06	8.6663e-06	344.01	96.807	77.333	21.826	7.1241e-06	30.46	285.181	261.496	223.289	155.593	310.602	302.788	155.539	162.811	335.931	325.369	161.888	169.009	168.998	176.214	329.847	174.973	-8191	255	
551.644	1	1	0	0	0.1955	0.076096	0.067659	0.21329	0.3766	0.18755	0.28761	0.23594	0.11847	0.21642	0.15025	0.47381	0.10577	0.23345	0.17458	0.1356	-3.0687	-2.7917	-3.3688	-3.3646	-3.0771	-3.3937	-3.2313	-3.325	-3.2979	-2.9104	-3.4896	-3.3167	-3.0625	-3.6521	-2.9896	-3.0667	452.546	369.064	423.580	435.154	501.575	449.887	378.138	465.915	187.191	276.761	152.639	468.229	207.217	439.344	237.312	226.447	0.00040328	0.00034126	0.00011944	1371.4	3.6545e-06	3.8469e-06	1434.7	282.13	5.1033e-06	2.6741e-06	343.99	96.71	77.202	21.541	5.0041e-06	29.866	0.0004933	0.00073103	0.00019516	1361.1	7.3911e-06	7.279e-06	1418.1	280.26	7.1388e-06	7.5288e-06	343.73	96.787	77.388	21.891	6.9204e-06	30.552	283.608	250.724	247.612	155.568	295.228	310.148	155.420	162.841	327.236	313.996	162.235	168.885	168.625	175.911	298.590	175.448	-8191	255	
551.738	1	1	0	0	0.12318	0.079249	0.22238	0.27444	0.22333	0.022639	0.37635	0.08686	0.32839	0.11998	0.051341	0.21892	0.18514	0.17589	0.18751	0.089649	-2.9021	-2.8688	-3.2604	-3.3729	-2.9354	-3.4479	-3.2021	-3.2042	-3.3458	-2.875	-3.2979	-3.3167	-3.1021	-3.3	-3.1792	-3.1833	272.391	492.181	332.778	461.633	412.478	266.673	467.296	174.331	311.198	392.732	449.896	477.200	294.728	174.111	330.363	166.146	0.00041456	0.00049198	0.00011093	1375.4	3.5691e-06	3.0256e-06	1437	282.32	1.8935e-06	3.908e-06	342.6	96.437	77.454	21.49	3.7822e-06	30.035	0.00052486	0.00067759	0.00020026	1362.1	7.6224e-06	7.8023e-06	1417.7	280.33	6.9142e-06	8.3616e-06	344.33	96.812	77.326	21.927	6.9783e-06	30.56	282.545	256.050	240.528	155.457	292.739	280.962	155.413	163.015	324.186	287.894	162.465	168.695	168.954	176.056	298.199	175.631	-8191	255	
551.859	1	1	0	0	0.25587	0.21403	0.15407	0.35189	0.1131	0.10602	0.34571	0.15061	0.17053	0.18943	0.10588	0.27739	0.085112	0.10474	0.27716	0.23175	-2.95	-3.1542	-3.2396	-3.4042	-3.0438	-3.3917	-3.4396	-3.2625	-3.3937	-3.1688	-3.3333	-3.6521	-2.9625	-3.2708	-3.0917	-3.0729	456.350	303.416	305.742	498.965	482.307	362.673	486.850	410.207	396.381	408.141	323.368	443.311	383.962	235.104	242.703	299.575	0.00037326	0.00037642	0.00010005	1374.2	5.4818e-06	4.0568e-06	1428.1	283.47	4.6987e-06	5.778e-06	343.27	95.678	76.796	21.623	5.2923e-06	29.766	0.00048691	0.00070259	0.00019601	1361.9	7.5144e-06	7.6844e-06	1415.2	280.81	7.3349e-06	8.0897e-06	344.5	96.307	77.141	21.912	7.0073e-06	30.38	281.614	253.341	263.547	155.537	311.929	297.622	155.300	162.947	321.425	300.893	162.412	169.007	168.819	175.854	289.289	175.425	-8191	255	
551.955	1	1	0	0	0.09632	0.18907	0.27687	0.42486	0.23558	0.17842	0.17637	0.23413	0.17111	0.19368	0.37866	0.1092	0.12965	0.13743	0.043264	0.11337	-3.0542	-3.0396	-3.3604	-3.7208	-2.8937	-3.2917	-3.5375	-3.1625	-3.4771	-3.1104	-3.2021	-3.4833	-3.125	-3.4188	-3.3083	-3.1125	335.037	205.277	391.255	169.028	442.485	281.944	408.443	371.053	386.330	243.559	364.946	443.757	195.154	203.392	174.526	297.661	0.00038842	0.00031142	0.00011385	1372.4	4.1046e-06	3.2943e-06	1427.5	282.05	3.4688e-06	4.5396e-06	343.74	96.739	77.153	21.544	3.482e-06	29.97	0.00048529	0.00070218	0.00018766	1361.9	7.7817e-06	7.9602e-06	1415.9	280.05	6.8005e-06	7.9998e-06	344.42	96.925	77.391	21.895	6.8555e-06	30.51	281.688	220.746	247.392	155.425	297.290	304.691	155.504	162.717	296.122	297.125	162.297	168.945	169.248	175.947	302.301	175.400	-8191	255	
552.051	1	1	0	0	0.25374	0.15951	0.27312	0.47964	0.24076	0.20281	0.2616	0.08182	0.10466	0.18426	0.21743	0.29085	0.052385	0.27582	0.23333	0.19021	-3.0646	-3.2375	-3.05	-3.6771	-3.0583	-3.3625	-3.4229	-3.0563	-3.3229	-3.2333	-3.1	-3.5187	-3.0896	-3.2646	-3.4771	-3.0667	339.709	469.752	193.814	463.906	370.952	471.012	409.160	337.996	268.288	504.355	335.031	478.991	477.511	175.509	201.877	476.087	0.000395	0.00051426	0.00010093	1370.1	4.3543e-06	3.3989e-06	1427.5	281.43	4.0534e-06	3.0017e-06	342.66	96.371	77.369	21.642	2.6052e-06	29.791	0.00049722	0.00068963	0.00019279	1359.4	7.5369e-06	7.3756e-06	1415	280.29	6.7694e-06	7.6454e-06	343.68	96.566	77.286	21.878	6.7856e-06	30.427	282.714	217.349	265.793	155.559	290.186	280.875	155.521	162.859	304.847	303.555	162.440	168.727	169.063	176.022	294.858	175.386	-8191	255	
552.147	1	1	0	0	0.063297	0.068269	0.038279	0.21966	0.19053	0.1748	0.11143	0.21372	0.28696	0.087979	0.26393	0.22402	0.094706	0.099407	0.13082	0.2279	-3	-3.4042	-2.9979	-3.5958	-3.0312	-3.2292	-3.6063	-2.9292	-3.2854	-3.1437	-3.1688	-3.5667	-3.0167	-3.2271	-3.3667	-2.9854	398.764	223.693	445.386	436.756	403.009	471.203	434.394	364.847	361.735	448.113	421.207	479.170	496.679	413.949	303.836	151.107	0.00043351	0.00023833	0.00010135	1375.4	5.7106e-06	2.998e-06	1431.3	280.94	4.362e-06	3.7104e-06	342.92	95.844	77.132	21.582	4.7126e-06	29.83	0.00050284	0.00066342	0.00020015	1364.4	7.2192e-06	7.82e-06	1415.3	279.93	6.8949e-06	7.3042e-06	343.89	96.44	77.305	21.874	7.1401e-06	30.503	282.112	200.529	237.932	155.501	311.071	291.121	155.394	163.258	315.370	299.402	162.277	168.917	169.478	175.913	299.576	175.211	-8191	255	
552.243	1	1	0	0	0.16535	0.086365	0.16067	0.13661	0.14186	0.10796	0.16321	0.18987	0.19625	0.19134	0.15508	0.18855	0.055734	0.33147	0.31969	0.19007	-2.9062	-3.1292	-2.8979	-3.6188	-3.1979	-3.1354	-3.65	-3.1021	-3.4542	-3.3167	-3.0312	-3.5312	-3.1979	-2.9896	-3.4833	-3.0271	153.654	327.778	244.304	410.486	318.938	163.860	423.494	382.914	149.737	469.262	392.090	381.364	327.531	188.292	294.868	451.422	0.00040637	0.00032738	0.00010886	1375.4	7.4059e-06	3.16e-06	1433.4	281.66	5.1428e-06	3.1163e-06	343.86	96.638	77.538	21.402	3.3443e-06	29.747	0.00049865	0.00068083	0.0001918	1361.7	7.4523e-06	8.0993e-06	1417.6	280.5	7.059e-06	8.1261e-06	344.65	96.69	77.236	21.85	7.0652e-06	30.459	284.904	234.375	244.639	155.454	306.550	304.367	155.295	162.733	327.025	300.574	162.482	168.867	168.548	176.273	290.764	175.101	-8191	255	
552.339	1	1	0	0	0.1162	0.20533	0.15462	0.20915	0.17622	0.11538	0.067863	0.11839	0.094207	0.12775	0.15244	0.14916	0.19816	0.15079	0.069959	0.16695	-2.8771	-3.2979	-3.0271	-3.6792	-3.1896	-3.0917	-3.5208	-3.1063	-3.2792	-3.325	-3.1104	-3.3771	-3.2521	-2.9813	-3.4646	-3.1562	218.775	218.773	400.307	440.441	376.324	359.169	316.852	145.205	379.784	386.923	336.070	384.036	212.838	499.225	185.674	388.316	0.00040231	0.00042663	0.00013725	1371.8	4.1684e-06	2.9236e-06	1431.9	280.71	3.915e-06	2.7307e-06	344.39	96.963	77.005	21.525	4.0234e-06	29.877	0.00050573	0.00068326	0.00019884	1360.6	7.4928e-06	7.8306e-06	1417.8	280.1	6.9655e-06	8.0108e-06	343.87	96.765	77.167	21.897	6.7426e-06	30.468	283.326	234.381	246.853	155.616	291.190	282.584	155.306	162.824	322.654	282.490	162.283	168.574	168.656	175.763	310.562	174.800	-8191	255	
552.436	1	1	0	0	0.22764	0.1585	0.084262	0.085772	0.16425	0.20348	0.26288	0.28717	0.1972	0.33105	0.20666	0.17427	0.13246	0.11039	0.095814	0.29905	-2.6229	-3.3	-3.0312	-3.4458	-3.2146	-2.9917	-3.5563	-3.2042	-3.1854	-3.3646	-2.9354	-3.425	-3.2646	-2.9188	-3.3688	-3.0812	186.592	326.703	339.624	338.572	270.802	433.876	445.796	501.502	426.305	224.457	426.549	199.466	436.630	498.899	250.028	403.317	0.00039243	0.00033845	7.8869e-05	1375.8	5.8311e-06	4.3397e-06	1432.2	280.52	3.3851e-06	3.4411e-06	344.08	96.708	77.22	21.553	4.5901e-06	29.879	0.00049149	0.00066433	0.00019208	1361.9	7.3461e-06	7.6538e-06	1418	280.2	7.114e-06	8.1443e-06	344.24	96.843	77.291	21.9	6.8535e-06	30.517	285.137	220.481	259.152	155.692	299.010	300.281	155.570	162.814	301.940	307.501	162.266	168.852	169.497	175.769	312.109	175.320	-8191	255	
552.532	1	1	0	0	0.079964	0.22378	0.041815	0.20946	0.1121	0.14129	0.15538	0.11456	0.16355	0.17051	0.19055	0.25088	0.066044	0.086193	0.35001	0.053499	-2.8438	-3.4437	-2.9562	-3.4604	-3.2562	-3.1167	-3.5646	-3.1146	-3.0833	-3.5938	-3.2229	-3.2396	-3.2167	-2.8896	-3.3708	-3.1604	237.248	160.594	502.103	421.633	340.717	281.695	453.146	454.320	214.989	331.261	452.291	218.953	366.275	480.575	311.382	346.642	0.00042014	0.00033029	9.67e-05	1374.8	5.2699e-06	2.8977e-06	1431.6	281.74	3.6947e-06	3.665e-06	343.7	96.481	76.984	21.499	2.7488e-06	29.909	0.00052374	0.00068386	0.00019399	1363.3	7.148e-06	8.0816e-06	1418	280.18	7.1489e-06	7.9464e-06	344.48	96.813	77.325	21.829	7.0043e-06	30.465	284.857	237.461	243.823	155.512	292.528	293.563	155.516	162.851	326.307	288.288	162.364	168.729	169.094	175.835	290.256	175.192	-8191	255	
552.651	1	1	0	0	0.17047	0.038568	0.1351	0.32845	0.11996	0.24928	0.27155	0.15757	0.14377	0.1973	0.30776	0.32955	0.21263	0.17829	0.20407	0.22473	-2.7375	-3.4646	-2.9437	-3.4708	-3.2896	-3.1583	-3.6583	-3.2125	-3.0979	-3.4625	-3.1521	-3.2062	-3.425	-2.8375	-3.3937	-3.15	391.846	435.895	158.159	159.968	224.760	272.028	478.449	160.813	223.101	281.129	449.512	484.455	448.238	499.731	332.714	165.996	0.00040167	0.00032236	4.802e-05	1372.7	4.8721e-06	4.3346e-06	1431.5	281.08	4.7658e-06	1.9793e-06	343.89	95.692	77.41	21.524	3.8732e-06	30.025	0.00050716	0.00068386	0.00018772	1361.4	7.5072e-06	7.4464e-06	1416.3	279.88	7.1094e-06	8.1127e-06	344.04	96.631	77.332	21.837	6.9893e-06	30.505	282.254	206.843	230.713	155.470	299.740	319.469	155.501	162.630	317.150	265.609	162.161	168.865	169.281	176.026	300.491	175.340	-8191	255	
552.747	1	1	0	0	0.17758	0.086974	0.093508	0.32	0.18157	0.23611	0.093884	0.12516	0.18405	0.11589	0.20276	0.22178	0.023989	0.073742	0.29994	0.1648	-2.5187	-3.5187	-3.1458	-3.3458	-3.4396	-3.0458	-3.5292	-3.2667	-3.1312	-3.3333	-3.2104	-3.2229	-3.3375	-3.0167	-3.1333	-3.2375	497.991	219.674	460.634	472.202	148.080	450.301	419.890	481.658	247.937	474.565	442.329	468.196	244.749	418.441	199.680	432.533	0.00041719	0.00037639	0.00010564	1375.5	3.8224e-06	2.912e-06	1428.1	281.95	2.9635e-06	3.3353e-06	343.85	96.717	77.398	21.448	3.8411e-06	29.864	0.00050985	0.00067485	0.00019265	1361.4	7.1642e-06	8.2549e-06	1417.6	280.49	7.0563e-06	7.7449e-06	344.23	96.693	77.51	21.856	7.183e-06	30.452	279.680	234.800	233.299	155.519	301.641	298.861	155.476	162.827	322.607	309.348	162.389	169.025	169.196	176.329	292.658	175.508	-8191	255	
552.820	1	1	0	0	0.14449	0.1487	0.15866	0.22353	0.23204	0.064492	0.24099	0.11149	0.24427	0.24605	0.11799	0.20692	0.34077	0.29308	0.25629	0.12655	-2.5417	-3.3917	-3.1583	-3.3125	-3.3625	-3.0104	-3.4917	-3.5062	-2.9083	-3.2875	-3.2479	-3.1917	-3.5646	-2.9521	-3.1146	-3.3396	278.082	274.714	374.536	470.633	310.302	244.836	404.245	470.817	221.609	223.952	459.666	443.578	470.983	430.680	434.646	483.413	0.00040602	0.00023241	0.00011581	1378.1	5.0951e-06	2.6247e-06	1431.8	283.6	4.2619e-06	4.0513e-06	344.23	96.881	77.255	21.649	4.6343e-06	29.954	0.00051008	0.00069186	0.00019542	1363.8	7.5054e-06	7.8872e-06	1419.5	281.06	7.3212e-06	7.9513e-06	344.36	96.921	77.346	21.897	7.1351e-06	30.519	281.983	240.696	222.727	155.531	299.767	333.393	155.316	162.910	306.159	288.470	162.616	168.708	169.156	176.080	304.788	175.339	-8191	255	
552.939	1	1	0	0	0.070739	0.030655	0.21177	0.26006	0.12362	0.021464	0.074069	0.05503	0.081599	0.095872	0.34428	0.31021	0.41749	0.14663	0.12165	0.12928	-2.5229	-3.3563	-3.1167	-3.1729	-3.4479	-2.9854	-3.4188	-3.3542	-3.0729	-3.2708	-3.2458	-3.0208	-3.3417	-3.2667	-3.1771	-3.5229	208.497	324.859	490.850	471.344	281.636	421.657	430.067	458.536	227.646	373.267	406.420	403.137	411.436	255.175	314.508	444.481	0.00041363	0.00029587	5.326e-05	1375.5	5.0471e-06	4.2703e-06	1434.7	282.31	5.192e-06	4.355e-06	345.6	96.465	77.213	21.483	3.7508e-06	29.967	0.00053252	0.00072587	0.00019456	1363.6	7.0202e-06	7.5183e-06	1419.1	280.64	7.1342e-06	7.7388e-06	344.52	96.575	77.357	21.904	7.4646e-06	30.55	280.874	229.827	233.158	155.400	283.187	278.799	155.135	163.021	324.244	315.354	162.014	168.851	169.252	176.260	325.736	175.141	-8191	255	
553.035	1	1	0	0	0.12464	0.13205	0.10021	0.11336	0.12193	0.053946	0.35202	0.25194	0.14215	0.18563	0.10513	0.21831	0.20344	0.12942	0.16702	0.25522	-2.5062	-3.2208	-3.3292	-3.1958	-3.4021	-3.2083	-3.2562	-3.5125	-3.0208	-3.3	-3.3417	-3.0479	-3.4167	-3.1979	-3.175	-3.4792	414.004	270.425	471.635	469.079	377.414	176.190	447.029	409.019	196.171	361.902	487.519	208.485	493.611	189.353	475.493	399.437	0.00042378	0.00047081	0.00011492	1374.9	5.9997e-06	3.4976e-06	1436.8	282.38	5.2747e-06	2.9382e-06	345.66	96.019	77.271	21.52	4.0891e-06	29.851	0.00052224	0.00069125	0.00018966	1365.3	7.2642e-06	7.9968e-06	1419.1	280.31	7.0627e-06	7.6696e-06	344.61	96.71	77.389	21.884	7.0542e-06	30.413	283.695	240.212	242.827	155.625	291.418	327.183	155.365	163.065	295.414	278.864	162.193	169.094	169.312	175.897	308.358	175.788	-8191	255	
553.131	1	1	0	0	0.26393	0.13476	0.15271	0.14172	0.15073	0.065513	0.21938	0.17132	0.043096	0.11123	0.09899	0.15886	0.043862	0.064457	0.15498	0.22234	-2.6437	-3.1521	-3.2917	-3.0729	-3.1833	-3.2583	-3.1458	-3.4292	-3.0563	-3.2313	-3.5375	-2.9146	-3.3271	-3.4958	-3.0687	-3.3063	384.395	289.845	146.431	403.357	204.982	492.725	462.178	416.158	251.584	211.757	304.524	215.499	194.897	397.261	495.358	191.295	0.00040228	0.00033848	0.00011634	1373.5	4.4145e-06	3.3371e-06	1436	281.74	3.8241e-06	4.3819e-06	344.86	96.622	77.742	21.574	4.5793e-06	29.876	0.00051597	0.00068336	0.0001898	1361.1	7.2858e-06	7.5984e-06	1419.5	280.12	7.2029e-06	7.8432e-06	344.41	96.865	77.491	21.878	7.4047e-06	30.496	283.113	194.339	254.116	155.547	300.822	295.548	155.521	162.764	321.847	286.676	162.233	168.817	168.965	175.854	300.957	175.082	-8191	255	
553.252	1	1	0	0	0.058056	0.078196	0.24653	0.15494	0.22009	0.088722	0.19564	0.24471	0.15525	0.13945	0.28617	0.097275	0.19339	0.12333	0.2441	0.10133	-2.55	-3.1854	-3.4979	-3.2083	-3.5062	-3.3	-3.2062	-3.6521	-2.8667	-3.0604	-3.5167	-3.1375	-3.4396	-3.3438	-2.9458	-3.4958	257.508	263.705	275.594	444.441	436.871	302.074	443.069	484.077	475.282	351.103	492.844	331.168	425.010	351.838	411.477	337.401	0.00039407	0.00025487	0.00013758	1367.5	4.8944e-06	2.7183e-06	1426.2	282.75	4.3482e-06	3.5317e-06	344.45	96.078	76.935	21.543	3.0544e-06	29.979	0.00050885	0.0006459	0.00019009	1359	7.2462e-06	7.9154e-06	1415.6	280.14	6.8849e-06	7.8141e-06	344.03	96.62	77.349	21.869	7.1691e-06	30.442	281.336	217.438	244.990	155.492	318.496	261.349	155.398	162.842	329.686	295.628	162.304	168.931	168.857	175.945	322.638	175.617	-8191	255	
553.348	1	1	0	0	0.067539	0.18608	0.19876	0.13262	0.16963	0.26569	0.24823	0.32538	0.19448	0.099686	0.13783	0.2226	0.16628	0.18541	0.11948	0.084698	-2.65	-3.0729	-3.4083	-3.2104	-3.2188	-3.3167	-3.1167	-3.5042	-3.0792	-3.0062	-3.6104	-3.1271	-3.2812	-3.3312	-3.1	-3.425	206.455	229.364	475.102	355.505	494.283	321.657	487.525	426.771	234.827	158.061	166.235	441.612	160.633	155.803	186.454	327.556	0.00039555	0.00032834	0.00011562	1372.2	5.3824e-06	2.8832e-06	1429.6	281.46	6.3103e-06	3.2341e-06	342.42	96.602	76.889	21.562	2.0604e-06	29.67	0.00050227	0.00069004	0.00018746	1360.3	7.3749e-06	7.7563e-06	1415.4	280.52	7.1589e-06	8.1904e-06	344.01	96.636	77.255	21.864	7.0382e-06	30.379	284.625	225.307	244.097	155.463	313.089	289.524	155.481	162.894	305.425	277.066	162.311	168.887	168.995	176.256	325.302	175.409	-8191	255	
553.444	1	1	0	0	0.20141	0.2615	0.13844	0.33021	0.072609	0.039238	0.17614	0.11229	0.080173	0.22782	0.3169	0.023106	0.12616	0.17389	0.25229	0.030845	-2.6958	-3.0667	-3.4792	-3.0896	-3.2333	-3.3625	-3.2438	-3.4292	-3.1937	-2.9292	-3.5083	-3.0167	-3.0583	-3.5229	-3.0146	-3.4479	410.658	311.638	186.319	472.409	438.958	420.328	443.860	487.790	340.900	426.755	451.726	365.310	383.400	464.501	305.710	177.368	0.0004119	0.00037759	8.6659e-05	1379.2	4.3158e-06	6.3413e-06	1428.1	282.38	4.2683e-06	3.6057e-06	343.69	96.152	77.062	21.328	3.8385e-06	29.905	0.00049711	0.00068872	0.00017988	1363.9	7.2489e-06	7.411e-06	1416.6	279.96	6.8922e-06	8.1139e-06	343.53	96.654	77.208	21.748	6.9733e-06	30.452	281.275	229.010	237.173	155.509	295.077	314.598	155.470	162.922	312.168	276.991	162.565	169.019	169.050	176.272	308.077	175.293	-8191	255	
553.540	1	1	0	0	0.022766	0.27325	0.17406	0.25909	0.011121	0.1477	0.3386	0.15822	0.10049	0.24333	0.062245	0.15615	0.0036687	0.062744	0.14867	0.23951	-2.775	-3.0708	-3.5396	-3.2167	-3.0646	-3.4604	-3.1667	-3.4354	-3.2625	-3.0792	-3.4771	-3.1937	-3.0417	-3.4854	-2.9813	-3.3646	151.392	207.157	160.985	480.543	247.540	190.900	412.153	467.506	245.374	259.879	198.964	487.602	388.304	145.582	375.714	486.129	0.00041402	0.00035377	0.00011704	1371.3	4.1189e-06	3.9342e-06	1427.8	280.9	4.022e-06	4.4904e-06	344.22	96.886	76.909	21.272	3.3178e-06	29.825	0.00050115	0.00072071	0.00018595	1360	7.3209e-06	7.5925e-06	1413.9	279.27	7.0114e-06	7.8712e-06	343.77	96.795	77.281	21.839	7.0153e-06	30.462	280.468	242.415	247.985	155.367	292.498	318.451	155.436	162.916	314.571	308.798	162.322	168.762	169.074	175.960	324.065	175.447	-8191	255	
553.635	1	1	0	0	0.21029	0.10122	0.043731	0.17847	0.056359	0.23981	0.2726	0.16553	0.24177	0.26412	0.22445	0.050903	0.048717	0.19405	0.071763	0.09547	-2.9021	-2.6813	-3.275	-3.3708	-3.1104	-3.4562	-3.2458	-3.3688	-3.4938	-2.9792	-3.4042	-3.2146	-3.0917	-3.5271	-3.0708	-3.1854	429.116	374.891	148.632	162.771	366.657	161.645	472.294	485.367	210.744	193.251	414.268	172.869	467.151	297.862	402.469	251.523	0.00040051	0.00042841	0.00011837	1370.1	5.4745e-06	3.1528e-06	1428.8	280.95	5.13e-06	3.531e-06	343.98	96.504	77.076	21.384	4.0219e-06	29.825	0.00048795	0.00069803	0.00018017	1359.4	7.6242e-06	7.6408e-06	1416.2	280.07	7.2497e-06	8.3567e-06	344.56	96.706	77.139	21.845	6.8555e-06	30.501	286.941	245.359	237.746	155.529	299.553	301.554	155.541	162.912	318.001	280.546	162.125	168.931	169.145	176.332	305.835	175.417	-8191	255	
553.731	1	1	0	0	0.27365	0.10658	0.13197	0.25718	0.11787	0.2256	0.26352	0.10064	0.29124	0.14011	0.059953	0.066889	0.092345	0.026524	0.16587	0.1009	-3.0229	-2.8667	-3.2188	-3.1813	-3.025	-3.3146	-3.1792	-3.1708	-3.4208	-2.9271	-3.3833	-3.3063	-3.1125	-3.4833	-3.1875	-3.1333	271.429	428.807	475.167	474.659	497.103	417.463	434.091	256.145	493.443	388.973	475.612	155.685	166.535	446.210	350.348	472.845	0.00040751	0.00037092	5.9707e-05	1369.8	4.2152e-06	2.5602e-06	1429.5	281.79	4.2023e-06	4.8651e-06	344.28	96.487	77.585	21.297	3.7605e-06	29.978	0.00050639	0.00071818	0.00018552	1359.6	7.1759e-06	7.3827e-06	1415.3	279.82	7.0737e-06	7.7753e-06	344.55	96.779	77.499	21.825	6.9444e-06	30.499	283.398	216.163	238.778	155.581	281.132	306.115	155.575	163.163	329.770	303.349	162.348	168.865	169.072	176.179	323.625	175.660	-8191	255	
553.827	1	1	0	0	0.14376	0.08976	0.16872	0.29101	0.24132	0.14906	0.37494	0.18562	0.22302	0.19949	0.10853	0.081953	0.22845	0.11606	0.16394	0.25179	-3.0312	-3.0083	-3.5312	-3.4854	-2.9437	-3.4625	-3.5479	-3.2167	-3.6458	-3.0229	-3.2938	-3.3021	-2.9229	-3.325	-3.2	-3.1188	327.613	418.843	469.636	470.619	360.319	434.131	432.580	421.554	146.140	305.531	175.237	349.601	435.863	460.967	299.446	422.182	0.00039472	0.00043544	5.9063e-05	1371.9	5.1138e-06	3.3974e-06	1431.6	281.41	4.1714e-06	4.0307e-06	344.82	96.14	77.204	21.526	5.2399e-06	29.798	0.00047375	0.00068548	0.00018091	1359.9	7.41e-06	7.2766e-06	1416.9	280.08	6.7364e-06	7.7692e-06	344.83	96.561	77.347	21.856	6.6388e-06	30.459	287.568	234.685	248.566	155.520	305.155	316.259	155.458	162.754	326.480	293.551	162.032	168.819	169.132	175.905	309.572	175.874	-8191	255	
553.948	1	1	0	0	0.0098082	0.10833	0.041339	0.10913	0.085486	0.31821	0.21162	0.13957	0.091194	0.15158	0.055105	0.11527	0.21802	0.064382	0.23358	0.046269	-3.1771	-3.1562	-3.2979	-3.6646	-3.0583	-3.4562	-3.4958	-3.1771	-3.5583	-3.2458	-3.3896	-3.5479	-2.95	-3.3479	-3.4958	-3.05	277.237	467.436	439.640	244.452	476.764	215.318	437.959	414.013	285.751	351.300	347.257	336.975	184.518	502.398	371.263	183.121	0.00037251	0.00039558	7.3761e-05	1371.4	5.7816e-06	2.2173e-06	1427.6	281.99	3.4102e-06	3.7657e-06	343.82	96.361	77.24	21.592	3.8888e-06	29.968	0.00049746	0.00069449	0.00018715	1360.8	7.212e-06	7.4181e-06	1415.4	280.42	6.818e-06	7.541e-06	344.4	96.541	77.233	21.896	7.3288e-06	30.482	281.910	228.489	252.850	155.733	307.041	314.430	155.483	162.895	334.034	272.661	162.125	168.753	169.155	176.069	295.137	175.607	-8191	255	
554.044	1	1	0	0	0.18633	0.081285	0.41117	0.25548	0.10609	0.057914	0.19957	0.15467	0.21196	0.16866	0.13076	0.17024	0.13324	0.12549	0.19608	0.28024	-3.1833	-3.1667	-3.0187	-3.4229	-3.1333	-3.1979	-3.5354	-3.1437	-3.3292	-3.1979	-3.2021	-3.6896	-2.9917	-3.2646	-3.1312	-2.9062	154.545	247.250	404.412	445.658	307.190	155.339	444.995	478.998	455.996	262.027	436.800	228.810	216.168	159.705	318.874	456.669	0.00044148	0.00020516	8.6363e-05	1370.4	5.469e-06	3.6295e-06	1430.7	281.93	5.1417e-06	4.5707e-06	342.79	96.215	77.058	21.377	4.8255e-06	29.76	0.00049199	0.00065269	0.00018746	1359.6	7.2885e-06	7.6008e-06	1416.3	280.4	6.8949e-06	7.7704e-06	343.64	96.405	77.255	21.797	7.0952e-06	30.384	286.554	285.101	231.228	155.842	293.875	307.462	155.607	162.838	314.940	312.400	162.250	168.858	169.453	175.934	319.501	175.402	-8191	255	
554.116	1	1	0	0	0.1328	0.047971	0.090448	0.21278	0.19566	0.263	0.19468	0.16973	0.18999	0.12882	0.13137	0.058922	0.072636	0.0061642	0.1229	0.056231	-3.0187	-3.1208	-3.0417	-3.675	-2.9917	-3.4333	-3.6625	-3.075	-3.325	-3.4083	-3.1042	-3.6312	-3.2396	-3.3604	-3.4208	-3.1083	500.803	269.038	272.148	428.423	273.034	403.101	423.498	168.344	391.750	218.459	158.116	465.767	455.150	207.476	445.558	236.443	0.00038305	0.00045506	9.1309e-05	1374.1	4.8795e-06	4.2003e-06	1432	280.58	4.1836e-06	4.2528e-06	344.36	96.597	76.687	21.337	2.6964e-06	29.946	0.00048953	0.0006705	0.00019624	1359	7.4019e-06	7.642e-06	1415.7	279.69	6.5805e-06	7.8542e-06	343.91	96.73	77.136	21.766	6.8725e-06	30.447	279.480	217.875	231.742	155.417	300.510	274.535	155.524	162.840	323.073	300.870	162.476	169.031	168.772	176.372	311.707	175.649	-8191	255	
554.212	1	1	0	0	0.035904	0.18821	0.20384	0.20923	0.088754	0.081075	0.22773	0.1237	0.31702	0.10103	0.1764	0.12878	0.20661	0.32689	0.36977	0.045873	-3.075	-3.2354	-2.9938	-3.6458	-3.1104	-3.1521	-3.6167	-2.9854	-3.2292	-3.3104	-3.1937	-3.6188	-3.175	-3.1854	-3.5625	-3.1521	311.872	427.677	410.301	499.011	212.557	386.889	462.696	359.728	265.063	389.911	496.902	237.718	456.300	377.944	440.898	436.470	0.00040226	0.00033555	0.00012186	1366.9	5.1619e-06	1.5662e-06	1426	282.73	5.2585e-06	5.6919e-06	342.29	95.966	76.946	21.429	5.5633e-06	29.91	0.00049896	0.00066139	0.0001916	1358.5	7.4964e-06	7.4911e-06	1413.3	280.19	6.5439e-06	7.9064e-06	343.72	96.485	77.02	21.812	6.9214e-06	30.463	280.919	236.576	253.777	155.580	287.140	301.310	155.270	162.990	318.085	286.072	162.393	168.561	169.031	176.139	302.842	175.598	-8191	255	
554.332	1	1	0	0	0.26567	0.2283	0.16531	0.12109	0.3486	0.098527	0.22992	0.21699	0.10674	0.06911	0.14942	0.17119	0.1956	0.16217	0.082437	0.14133	-2.9854	-3.2417	-2.8208	-3.5354	-3.3292	-3.0542	-3.6771	-3.2	-3.2625	-3.3917	-3.0375	-3.4688	-3.2521	-2.9583	-3.3688	-3.1792	325.752	156.257	173.957	222.770	185.131	156.553	467.386	478.985	337.590	359.403	164.498	361.128	414.269	235.123	324.051	194.639	0.00039301	0.00046685	6.4752e-05	1370.8	4.9838e-06	2.5799e-06	1432.3	281.22	4.9242e-06	3.1613e-06	344.12	96.436	76.797	21.48	3.8451e-06	29.863	0.00048194	0.00066807	0.00019142	1357.7	7.121e-06	7.6609e-06	1415.2	279.45	6.6337e-06	7.6296e-06	344.1	96.609	76.978	21.805	6.4311e-06	30.424	281.102	230.619	240.265	155.763	311.744	258.006	155.242	162.708	321.454	275.217	162.144	169.105	168.980	176.006	335.948	175.368	-8191	255	
554.428	1	1	0	0	0.12377	0.15421	0.16929	0.29598	0.1448	0.1683	0.1331	0.15692	0.13471	0.1292	0.26166	0.21889	0.11922	0.044176	0.13216	0.17364	-2.8458	-3.3417	-2.9625	-3.5625	-3.2729	-3.0938	-3.6771	-3.2438	-3.2083	-3.4375	-3.2583	-3.3896	-3.4	-3.1875	-3.5125	-3.2125	190.906	438.482	323.979	481.990	454.408	148.803	474.478	184.825	378.305	426.084	407.061	408.139	441.276	231.228	196.290	382.230	0.00040023	0.00030219	9.6854e-05	1366.6	7.1081e-06	3.2979e-06	1424.1	281.86	3.5136e-06	4.0664e-06	343.84	96.282	76.916	21.522	2.2311e-06	29.849	0.00048903	0.00063831	0.00018803	1356.6	7.3947e-06	8.1453e-06	1413.3	279.82	6.8152e-06	7.4742e-06	343.58	96.456	77.092	21.837	6.8185e-06	30.385	282.613	233.858	247.022	155.443	313.349	326.461	155.499	163.128	327.296	290.422	162.346	168.755	168.866	176.001	315.652	175.684	-8191	255	
554.525	1	1	0	0	0.17398	0.22876	0.15057	0.26348	0.057639	0.067531	0.21212	0.16802	0.24412	0.10255	0.15014	0.13838	0.10746	0.20437	0.069955	0.065062	-2.8312	-3.2562	-2.8187	-3.4188	-3.4479	-3.1646	-3.5479	-3.0917	-3.2188	-3.475	-2.9083	-3.4521	-3.4229	-2.9979	-3.4062	-3.3187	226.020	156.823	216.061	434.875	258.385	295.701	150.579	405.740	173.397	455.699	466.603	502.888	265.071	155.004	441.141	431.891	0.00042777	0.00039804	4.6045e-05	1371.8	4.6807e-06	3.5529e-06	1420.1	280.78	5.248e-06	3.0338e-06	343.22	96.019	77.073	21.525	4.3925e-06	29.702	0.00049861	0.00065005	0.00018205	1357.9	7.0787e-06	6.995e-06	1411.7	279.45	7.0022e-06	7.8056e-06	343.61	96.441	77.168	21.832	6.7097e-06	30.311	280.825	238.199	243.021	155.499	303.275	303.780	155.583	162.969	320.626	292.199	162.162	169.328	169.175	176.141	301.358	175.653	-8191	255	
#DATA ENDS
