BOXY.EXE: ISS Imagent and Oximeter Data Acquisition Program Version 0.80
Ascii Record File

#ACQ INFORMATION
2  Detector Channels 
16  External MUX Channels 
1  Auxiliary Channels 
5000  Waveform (CCF) Frequency (Hz)
1  Waveforms Skipped 
30  Waveforms Averaged 
1  Cycles Averaged 
16  Acquisitions per Waveform 
10.0806  Updata Rate (Hz) 

#FILE INFORMATION
TRUE -- External MUX Channel results are PARSED.
FALSE -- AC DC and Phase are NOT grouped.
TRUE -- Companion Program Settings File CREATED.
FALSE -- AC data not excluded
FALSE -- DC data not excluded
FALSE -- Phase data not excluded
FALSE -- Auxillary Chn. data not excluded
Tab delimiters

#CALIBRATION STATE
TRUE -- Waveform Calibration Values APPLIED.


#AUX CALIBRATION VALUES
Val Type	aux-1	

Term	1.0000e+00	
Factor	0.0000e+00	


#WF CALIBRATION VALUES
A = Detector Channel
Val Type	A-AC1	A-AC2	A-AC3	A-AC4	A-AC5	A-AC6	A-AC7	A-AC8	A-AC9	A-AC10	A-AC11	A-AC12	A-AC13	A-AC14	A-AC15	A-AC16	A-DC1	A-DC2	A-DC3	A-DC4	A-DC5	A-DC6	A-DC7	A-DC8	A-DC9	A-DC10	A-DC11	A-DC12	A-DC13	A-DC14	A-DC15	A-DC16	A-Ph1	A-Ph2	A-Ph3	A-Ph4	A-Ph5	A-Ph6	A-Ph7	A-Ph8	A-Ph9	A-Ph10	A-Ph11	A-Ph12	A-Ph13	A-Ph14	A-Ph15	A-Ph16	

Term	0.00000e+00	0.00000e+00	0.00000e+00	0.00000e+00	0.00000e+00	0.00000e+00	0.00000e+00	0.00000e+00	0.00000e+00	0.00000e+00	0.00000e+00	0.00000e+00	0.00000e+00	0.00000e+00	0.00000e+00	0.00000e+00	0.00000e+00	0.00000e+00	0.00000e+00	0.00000e+00	0.00000e+00	0.00000e+00	0.00000e+00	0.00000e+00	0.00000e+00	0.00000e+00	0.00000e+00	0.00000e+00	0.00000e+00	0.00000e+00	0.00000e+00	0.00000e+00	0.00000e+00	0.00000e+00	0.00000e+00	0.00000e+00	0.00000e+00	0.00000e+00	0.00000e+00	0.00000e+00	0.00000e+00	0.00000e+00	0.00000e+00	0.00000e+00	0.00000e+00	0.00000e+00	0.00000e+00	0.00000e+00	
Factor	1.00000e+00	1.00000e+00	1.00000e+00	1.00000e+00	1.00000e+00	1.00000e+00	1.00000e+00	1.00000e+00	1.00000e+00	1.00000e+00	1.00000e+00	1.00000e+00	1.00000e+00	1.00000e+00	1.00000e+00	1.00000e+00	1.00000e+00	1.00000e+00	1.00000e+00	1.00000e+00	1.00000e+00	1.00000e+00	1.00000e+00	1.00000e+00	1.00000e+00	1.00000e+00	1.00000e+00	1.00000e+00	1.00000e+00	1.00000e+00	1.00000e+00	1.00000e+00	X	X	X	X	X	X	X	X	X	X	X	X	X	X	X	X	

B = Detector Channel
Val Type	B-AC1	B-AC2	B-AC3	B-AC4	B-AC5	B-AC6	B-AC7	B-AC8	B-AC9	B-AC10	B-AC11	B-AC12	B-AC13	B-AC14	B-AC15	B-AC16	B-DC1	B-DC2	B-DC3	B-DC4	B-DC5	B-DC6	B-DC7	B-DC8	B-DC9	B-DC10	B-DC11	B-DC12	B-DC13	B-DC14	B-DC15	B-DC16	B-Ph1	B-Ph2	B-Ph3	B-Ph4	B-Ph5	B-Ph6	B-Ph7	B-Ph8	B-Ph9	B-Ph10	B-Ph11	B-Ph12	B-Ph13	B-Ph14	B-Ph15	B-Ph16	

Term	0.00000e+00	0.00000e+00	0.00000e+00	0.00000e+00	0.00000e+00	0.00000e+00	0.00000e+00	0.00000e+00	0.00000e+00	0.00000e+00	0.00000e+00	0.00000e+00	0.00000e+00	0.00000e+00	0.00000e+00	0.00000e+00	0.00000e+00	0.00000e+00	0.00000e+00	0.00000e+00	0.00000e+00	0.00000e+00	0.00000e+00	0.00000e+00	0.00000e+00	0.00000e+00	0.00000e+00	0.00000e+00	0.00000e+00	0.00000e+00	0.00000e+00	0.00000e+00	-3.80650e+01	-1.32862e+02	-1.25430e+02	-1.81665e+02	-4.66408e+01	-6.69153e+01	-1.55920e+02	-1.62015e+02	-3.32665e+01	-6.84437e+01	-1.70727e+02	-1.71644e+02	-1.80701e+02	-1.77487e+02	-4.82893e+01	-1.50551e+02	
Factor	2.17353e-05	1.62563e-04	4.39496e-05	1.54653e-01	1.72098e-06	1.76303e-06	1.62475e-01	5.94268e-02	1.39045e-06	1.85064e-06	8.19659e-02	2.80416e-02	2.61055e-02	8.93581e-03	1.65438e-06	1.28829e-02	1.84756e-05	4.85871e-05	1.36813e-05	7.94789e-02	4.32069e-07	5.65725e-07	7.86197e-02	3.06710e-02	4.39986e-07	5.82689e-07	4.11320e-02	1.40425e-02	1.36022e-02	4.66921e-03	4.79335e-07	6.49530e-03	X	X	X	X	X	X	X	X	X	X	X	X	X	X	X	X	



#DISTANCE SETTINGS
A = Detector Channel
A-1	A-2	A-3	A-4	A-5	A-6	A-7	A-8	A-9	A-10	A-11	A-12	A-13	A-14	A-15	A-16	

2.5000e+00	3.0000e+00	2.5000e+00	3.0000e+00	2.0000e+00	3.0000e+00	1.5000e+00	3.0000e+00	3.0000e+00	3.0000e+00	3.0000e+00	3.0000e+00	3.0000e+00	3.0000e+00	1.5000e+00	3.0000e+00	

B = Detector Channel
B-1	B-2	B-3	B-4	B-5	B-6	B-7	B-8	B-9	B-10	B-11	B-12	B-13	B-14	B-15	B-16	

1.0000e+01	1.0000e+01	1.0000e+01	1.4400e+00	1.0000e+01	1.0000e+01	1.5100e+00	1.9400e+00	1.0000e+01	1.0000e+01	1.9900e+00	2.4900e+00	2.4100e+00	2.9000e+00	1.0000e+01	2.9800e+00	




#DATA BEGINS
time	group	step	mark	flag	A-AC1	A-AC2	A-AC3	A-AC4	A-AC5	A-AC6	A-AC7	A-AC8	A-AC9	A-AC10	A-AC11	A-AC12	A-AC13	A-AC14	A-AC15	A-AC16	A-DC1	A-DC2	A-DC3	A-DC4	A-DC5	A-DC6	A-DC7	A-DC8	A-DC9	A-DC10	A-DC11	A-DC12	A-DC13	A-DC14	A-DC15	A-DC16	A-Ph1	A-Ph2	A-Ph3	A-Ph4	A-Ph5	A-Ph6	A-Ph7	A-Ph8	A-Ph9	A-Ph10	A-Ph11	A-Ph12	A-Ph13	A-Ph14	A-Ph15	A-Ph16	B-AC1	B-AC2	B-AC3	B-AC4	B-AC5	B-AC6	B-AC7	B-AC8	B-AC9	B-AC10	B-AC11	B-AC12	B-AC13	B-AC14	B-AC15	B-AC16	B-DC1	B-DC2	B-DC3	B-DC4	B-DC5	B-DC6	B-DC7	B-DC8	B-DC9	B-DC10	B-DC11	B-DC12	B-DC13	B-DC14	B-DC15	B-DC16	B-Ph1	B-Ph2	B-Ph3	B-Ph4	B-Ph5	B-Ph6	B-Ph7	B-Ph8	B-Ph9	B-Ph10	B-Ph11	B-Ph12	B-Ph13	B-Ph14	B-Ph15	B-Ph16	aux-1	digaux	

1414.144	1	1	0	768	0.25824	0.11625	0.2652	0.13732	0.091811	0.10557	0.21021	0.15637	0.1192	0.2353	0.31962	0.093069	0.30393	0.075625	0.27921	0.28993	-2.8875	-3.2542	-3.2188	-3.3688	-2.9833	-3.275	-3.3625	-2.9021	-3.3187	-3.4229	-3	-3.4833	-2.9896	-3.1562	-3.3312	-3.0167	63.444	234.054	1.348	149.970	227.375	300.804	277.698	159.459	205.996	57.143	-31.345	238.684	72.296	22.797	75.215	289.753	1.3352e-05	6.0577e-05	1.5828e-05	64.096	2.5195e-07	8.1503e-07	54.998	24.08	4.6297e-07	4.56e-07	21.13	5.8192	7.4247	2.7369	3.3687e-07	2.3329	-4.6189e-07	-5.8203e-05	-1.1458e-05	76.97	1.2584e-06	-6.3762e-07	66.076	29.133	-4.4732e-07	-6.6524e-07	25.784	7.0765	8.9287	3.3602	-5.8319e-07	2.8561	232.875	23.581	145.275	-18.504	105.472	126.390	-20.585	-13.853	207.831	74.219	-18.017	-13.096	-10.160	-5.283	113.970	-10.097	-8191	255	
1414.241	1	1	0	0	0.14712	0.078787	0.03951	0.22464	0.064544	0.12425	0.20927	0.24073	0.23766	0.089421	0.17906	0.13732	0.12446	0.31358	0.22519	0.1829	-2.8729	-3.1458	-2.9792	-3.5729	-2.9604	-3.0375	-3.4167	-3.0792	-3.2479	-3.2417	-2.9021	-3.3833	-3.0625	-3.0146	-3.3875	-3.1688	279.415	306.817	198.166	247.281	6.954	-29.202	242.799	-2.917	317.074	278.660	116.166	235.813	189.537	285.289	-29.229	-0.898	1.1397e-05	4.0534e-05	2.1516e-05	63.691	1.013e-06	6.0609e-07	54.817	24.143	2.6961e-07	6.6749e-07	20.989	5.7822	7.3694	2.7844	4.0644e-07	2.3597	4.6189e-07	-4.7676e-05	-8.8359e-06	76.78	4.6357e-07	1.7196e-06	65.653	29.125	-4.0974e-07	-6.968e-07	25.455	7.0374	8.9426	3.3986	-5.3226e-07	2.8809	209.617	140.251	4.703	-18.832	85.127	134.959	-20.632	-13.779	182.211	142.182	-17.806	-13.309	-10.077	-5.257	231.355	-10.599	-8191	255	
1414.337	1	1	0	0	0.36123	0.13304	0.11111	0.074293	0.075857	0.14971	0.22818	0.14224	0.21717	0.12315	0.32693	0.033387	0.086082	0.27415	0.067602	0.16341	-3.0042	-3.2625	-3.0104	-3.3417	-3.2771	-3.1667	-3.375	-2.8146	-3.325	-3.425	-2.8604	-3.2083	-3.1792	-2.775	-3.5375	-3.0438	104.010	211.422	197.193	174.200	216.685	258.781	199.378	40.258	188.657	128.121	269.402	282.621	77.452	284.811	182.875	171.915	1.4433e-05	3.723e-05	9.6611e-06	64.58	2.0549e-07	1.4114e-06	55.105	24.122	3.6319e-07	3.9479e-07	20.977	5.8608	7.43	2.7633	4.432e-07	2.3322	2.3095e-06	-6.0228e-05	-8.1803e-06	77.33	-4.5097e-07	1.6382e-06	65.875	29.166	-3.7399e-07	-7.8177e-07	25.619	7.0763	8.9497	3.3885	-6.7107e-07	2.8577	208.463	160.237	168.523	-18.636	103.307	123.435	-20.765	-13.583	227.679	106.300	-17.752	-13.211	-10.002	-4.945	125.281	-9.676	-8191	255	
1414.433	1	1	0	0	0.17112	0.21282	0.22158	0.20256	0.046809	0.35829	0.17248	0.2293	0.256	0.3201	0.2925	0.017761	0.12164	0.069872	0.031386	0.058696	-2.8292	-3.3104	-2.9729	-3.4521	-3.2917	-3.2875	-3.375	-3.0667	-3.2687	-3.5917	-3.0687	-3.1937	-3.0458	-2.8979	-3.4125	-2.8812	190.685	172.383	112.960	273.357	190.426	133.565	1.338	316.296	228.337	202.363	315.089	-7.258	261.929	26.592	46.115	34.863	1.7669e-05	5.9766e-05	2.166e-05	64.299	7.3655e-07	1.446e-06	54.985	24.303	4.0596e-08	3.1627e-07	21.309	5.9239	7.411	2.8155	7.9258e-07	2.378	4.5419e-06	-5.8608e-05	-7.6958e-06	77.315	-4.3567e-07	3.4415e-06	66.203	29.42	-2.0533e-07	-7.9634e-07	25.819	7.1781	9.0338	3.4366	-5.1728e-07	2.9016	244.257	127.113	77.099	-18.502	174.425	127.091	-20.528	-13.682	258.022	110.282	-18.006	-13.108	-10.120	-4.861	184.227	-9.589	-8191	255	
1414.529	1	1	0	0	0.32555	0.10522	0.21124	0.21366	0.12502	0.29418	0.1065	0.26587	0.028052	0.29988	0.09968	0.15628	0.24758	0.099986	0.21999	0.29024	-2.7104	-3.4417	-2.95	-3.2854	-3.2125	-3	-3.375	-3.1521	-3.2042	-3.5667	-3.1917	-3.2292	-3.0938	-2.7604	-3.6354	-3.1937	125.402	67.874	98.077	42.549	-11.084	219.024	6.331	154.608	95.981	288.605	-4.027	166.231	117.327	282.480	-19.899	206.907	1.5408e-05	4.5197e-05	2.6506e-05	65.173	6.1848e-07	7.8386e-07	56.405	24.675	1.9317e-07	4.3538e-07	21.519	5.9565	7.4734	2.8345	7.8569e-07	2.3787	9.5573e-05	-6.0835e-05	-1.1344e-05	78.192	-3.3395e-07	1.874e-06	67.062	29.734	-1.7141e-07	-8.4854e-07	26.147	7.2187	9.1155	3.4715	-6.0117e-07	2.8813	231.629	52.253	95.469	-18.558	140.661	174.256	-20.807	-13.846	172.457	111.695	-17.535	-12.680	-10.128	-4.901	85.803	-9.863	-8191	255	
1414.625	1	1	0	0	0.21337	0.13852	0.074675	0.094531	0.11628	0.31385	0.33611	0.14943	0.19572	0.10006	0.33373	0.26832	0.21142	0.2057	0.19866	0.19706	-2.6896	-3.3667	-2.9833	-3.2854	-3.3229	-2.9333	-3.3354	-3.0104	-3.0771	-3.6083	-3.1583	-2.9021	-3.2646	-2.9146	-3.4125	-3.2583	98.963	292.620	-19.054	314.131	160.146	3.621	282.161	316.832	296.985	262.300	270.031	201.345	318.557	261.391	71.568	92.948	5.2262e-06	6.7799e-05	1.03e-05	65.294	8.7219e-07	1.5812e-06	55.325	24.564	5.4418e-07	7.2668e-07	21.563	5.9262	7.531	2.8652	6.3518e-07	2.4138	7.7828e-05	-6.4074e-05	-7.9523e-06	77.9	-4.1677e-07	3.6336e-06	66.232	29.688	-2.0349e-07	-8.5704e-07	25.899	7.2161	9.1557	3.508	-5.1528e-07	2.9235	17.502	89.208	47.078	-18.326	142.586	125.135	-20.459	-13.815	124.159	123.016	-18.559	-12.932	-10.381	-5.439	193.288	-9.571	-8191	255	
1414.746	1	1	0	0	0.059017	0.26879	0.10816	0.1017	0.034066	0.30586	0.25088	0.12756	0.19757	0.13057	0.21394	0.24128	0.17233	0.13824	0.21358	0.1867	-2.6917	-3.2167	-2.9167	-2.9542	-3.3708	-3.1354	-3.3083	-3.0646	-2.9458	-3.4917	-3.1063	-3.1771	-3.0563	-3.0979	-3.5062	-3.2771	180.855	253.666	11.978	121.553	150.285	16.015	130.179	184.672	130.675	163.880	26.157	243.146	210.529	-1.529	60.918	17.968	2.9654e-06	3.9563e-05	2.7176e-06	65.241	5.8922e-07	6.3945e-07	55.704	24.93	2.901e-07	3.2293e-07	21.884	6.0211	7.671	2.9106	2.6479e-07	2.4302	0.0001366	-5.8709e-05	-8.6934e-06	78.638	-4.8158e-07	1.7125e-06	66.947	30.053	-2.1816e-07	-7.32e-07	26.248	7.4082	9.2963	3.5556	-5.5523e-07	2.9745	312.430	317.100	41.522	-18.385	97.479	155.185	-20.294	-13.935	96.336	152.618	-18.321	-13.041	-10.315	-5.371	156.979	-9.667	-8191	255	
1414.840	1	1	0	0	0.16411	0.25682	0.29541	0.091362	0.071446	0.11224	0.14343	0.12884	0.25436	0.03617	0.065733	0.091297	0.34033	0.078348	0.17345	0.12003	-2.4042	-3.2833	-3.1437	-2.9458	-3.4833	-3.0312	-3.1917	-3.2292	-2.8812	-3.2542	-3.1833	-3.1208	-3.5625	-2.9125	-3.2458	-3.3271	71.071	240.070	187.283	146.180	273.262	28.165	197.164	240.673	155.316	260.603	115.926	72.824	281.698	110.144	189.207	203.751	6.4953e-06	5.076e-05	1.3803e-05	65.818	3.6853e-07	1.4798e-06	56.601	25.251	4.7287e-07	4.5577e-07	22.146	6.1334	7.7864	2.9413	8.2751e-07	2.4966	8.6527e-05	-4.4639e-05	-1.2228e-05	79.481	-5.3379e-07	3.7185e-06	68.248	30.451	-1.9341e-07	-6.0697e-07	26.634	7.5415	9.4292	3.5946	-3.4053e-07	3.0186	186.483	17.196	102.092	-18.376	262.761	135.160	-20.594	-14.492	95.948	181.576	-17.917	-12.468	-10.178	-5.063	185.357	-9.280	-8191	255	
1414.936	1	1	0	0	0.12061	0.10515	0.25367	0.12088	0.16497	0.057686	0.0060487	0.10467	0.095172	0.15728	0.16788	0.085382	0.12221	0.17956	0.14014	0.17903	-2.5896	-3.2313	-3.2146	-2.9646	-3.4938	-2.9729	-3.2771	-3.2188	-3.075	-3.4896	-3.1958	-2.9354	-3.4104	-3.1146	-3.2792	-3.1854	282.194	299.590	43.041	254.702	66.452	183.089	-12.155	170.293	153.896	-11.151	137.390	142.075	18.056	327.176	28.453	-17.613	4.4062e-06	0.00010675	1.6484e-05	66.398	6.5135e-07	1.0871e-06	56.412	25.055	4.1529e-07	8.953e-08	21.686	6.0564	7.6275	2.887	3.6057e-08	2.4356	0.00014669	-4.7271e-05	-1.4593e-05	79.792	-4.1947e-07	1.0843e-06	67.971	30.327	-1.6499e-07	-7.6357e-07	26.294	7.4784	9.3095	3.5456	-3.4752e-07	2.9425	222.233	35.251	26.420	-18.849	183.399	88.811	-20.357	-13.931	216.769	98.433	-17.827	-13.161	-10.342	-5.169	157.033	-10.319	-8191	255	
1415.034	1	1	0	0	0.22065	0.22585	0.14019	0.19628	0.13125	0.14451	0.17524	0.11134	0.16526	0.19226	0.26666	0.25804	0.26467	0.16435	0.12051	0.3082	-2.4938	-3.2896	-3.1771	-2.95	-3.4333	-3.2583	-3.2625	-3.2792	-3.0438	-3.5771	-3.2458	-2.9646	-3.3271	-3.0938	-2.9292	-3.2021	17.434	266.631	8.851	139.186	291.793	231.194	266.369	-5.677	178.689	116.061	231.304	114.461	304.123	49.249	201.903	40.321	8.5693e-06	5.7594e-05	5.3656e-06	65.406	7.9578e-08	1.0536e-06	55.984	25.056	5.3887e-07	1.5945e-07	21.804	6.0178	7.6727	2.9051	5.773e-07	2.4376	8.1985e-05	-4.9701e-05	-1.5477e-05	79.202	-4.6988e-07	-1.32e-07	67.779	30.278	-2.0533e-07	-6.1547e-07	26.195	7.4033	9.3042	3.5413	-3.5151e-07	2.9472	214.823	102.922	321.889	-18.824	92.333	93.180	-20.592	-14.203	180.939	1.953	-17.565	-13.515	-10.333	-5.409	251.612	-10.223	-8191	255	
1415.129	1	1	0	0	0.04845	0.15319	0.10066	0.13288	0.15844	0.040225	0.16059	0.045108	0.047801	0.16292	0.28837	0.12764	0.13144	0.29874	0.17833	0.19319	-2.6396	-3.2	-3.2292	-2.8667	-3.3563	-3.2854	-3.1146	-3.1479	-2.9	-3.225	-3.2625	-2.8979	-3.1937	-3.1229	-2.9417	-3.4792	256.047	243.441	217.236	58.613	2.829	211.219	17.343	323.340	207.795	222.317	111.854	170.364	76.489	104.755	265.401	175.892	2.6828e-06	4.2404e-05	2.2208e-05	66.104	4.2213e-07	1.6995e-07	56.727	25.133	2.2643e-07	3.098e-07	21.922	6.058	7.7813	2.9171	6.5879e-07	2.4888	0.00014149	-5.1523e-05	-1.5049e-05	79.449	-4.6717e-07	-6.0815e-07	68.019	30.359	-1.5583e-07	-4.6737e-07	26.449	7.5169	9.4203	3.5781	-1.6078e-07	2.9977	112.436	-17.461	69.940	-18.617	117.990	191.621	-20.623	-14.019	235.884	256.544	-17.891	-13.361	-9.939	-5.226	115.009	-10.145	-8191	255	
1415.225	1	1	0	0	0.1479	0.092574	0.29422	0.22917	0.19008	0.052765	0.13049	0.065561	0.07937	0.15529	0.16569	0.17486	0.13088	0.20385	0.13844	0.17786	-2.6437	-3.0875	-3.5062	-2.8667	-3.2458	-3.2208	-2.9104	-3.2646	-3.0542	-3.0062	-3.2208	-3.0208	-3.3625	-3.0854	-2.8375	-3.3542	138.713	224.344	281.489	285.249	122.173	282.952	232.563	306.314	5.943	-9.355	169.543	169.312	118.767	163.764	278.951	126.492	6.197e-06	5.4937e-05	1.1336e-05	66.402	4.0446e-07	4.8537e-07	57.684	25.361	2.6994e-07	5.3575e-07	22.459	6.2094	7.8214	2.9585	3.9716e-07	2.4944	6.1893e-05	-3.5428e-06	-1.4679e-05	80.147	-3.6726e-07	-6.3291e-07	69.588	30.629	-2.9607e-07	-4.613e-07	26.973	7.6332	9.4943	3.6119	-1.2682e-07	3.0233	240.762	24.777	20.731	-18.413	48.507	126.424	-20.323	-13.746	272.040	74.431	-17.618	-12.943	-10.245	-5.468	53.137	-10.399	-8191	255	
1415.321	1	1	0	0	0.12575	0.16384	0.13043	0.101	0.11585	0.064548	0.17795	0.22763	0.29957	0.20707	0.13493	0.15475	0.042666	0.098803	0.26447	0.23833	-2.8021	-2.9854	-3.2521	-2.9667	-3.1729	-3.5	-2.9854	-3.4458	-2.9729	-2.8438	-3.4667	-3.1479	-3.1708	-3.1958	-2.9771	-3.3792	15.528	254.025	92.215	318.843	-28.320	152.803	217.661	173.175	285.994	194.749	289.205	118.711	0.527	137.255	279.356	13.358	5.1013e-06	0.00010006	1.1216e-05	66.72	7.3342e-07	5.1735e-07	56.175	25.205	9.1634e-08	1.1419e-06	21.786	6.0879	7.731	2.9112	4.8545e-07	2.4631	1.4703e-05	0.00022785	-1.9553e-05	80.185	-2.5654e-07	-6.8005e-07	68.195	30.453	-3.9415e-07	-3.4233e-07	26.363	7.5101	9.3919	3.5753	-3.4652e-07	2.9691	173.016	95.336	73.504	-18.717	158.533	87.884	-20.577	-13.968	136.713	82.058	-17.905	-12.976	-9.985	-5.245	155.482	-9.489	-8191	255	
1415.442	1	1	0	0	0.064855	0.2435	0.059156	0.0529	0.031278	0.23318	0.055454	0.27805	0.010683	0.043944	0.17672	0.20538	0.1024	0.21463	0.18417	0.30031	-2.7375	-3.0646	-3.6479	-2.9313	-3.1875	-3.3375	-2.9396	-3.4479	-3.1729	-2.9208	-3.3792	-2.9229	-3.0958	-3.5271	-2.8854	-3.1937	275.482	21.223	-16.236	149.491	312.125	118.464	70.617	299.367	75.054	94.284	-16.024	45.753	2.191	133.637	193.464	240.530	9.1482e-06	3.745e-05	7.802e-06	66.031	2.3309e-07	7.5679e-07	56.395	25.194	1.2698e-07	6.9856e-07	22.041	6.1248	7.7676	2.9341	4.4504e-07	2.45	3.7336e-06	0.00016094	-1.9068e-05	79.757	-3.2225e-07	-6.4351e-07	68.371	30.423	-3.4649e-07	-3.7146e-07	26.382	7.4649	9.4332	3.5845	-1.6577e-07	2.9793	224.810	3.470	160.012	-18.829	-12.131	123.647	-20.723	-13.819	277.312	64.794	-17.672	-12.882	-10.141	-5.125	228.281	-9.953	-8191	255	
1415.538	1	1	0	0	0.085776	0.30992	0.30814	0.051754	0.1393	0.24996	0.079715	0.12752	0.059	0.064294	0.065667	0.18266	0.23509	0.37633	0.094614	0.20805	-2.8625	-2.8208	-3.3396	-3.1688	-3.3167	-3.2854	-2.8542	-3.5125	-3.2354	-2.8333	-3.3625	-3.2667	-3.1	-3.2854	-2.95	-3.0979	279.718	42.136	253.567	278.947	209.839	-20.531	238.259	35.672	185.257	15.047	283.482	5.602	205.982	4.249	-30.174	246.270	1.517e-05	0.00013007	8.1673e-06	66.177	9.9004e-07	4.7442e-07	57.338	25.407	3.0931e-07	2.6477e-07	22.084	6.1116	7.8654	2.9343	9.3198e-07	2.4927	3.0408e-06	0.00031845	-1.4422e-05	80.184	-2.6464e-07	-7.4369e-07	68.883	30.712	-3.859e-07	-3.2776e-07	26.683	7.4829	9.6067	3.6152	-2.6463e-07	3.0198	239.618	-0.341	105.233	-18.575	93.878	99.424	-20.441	-13.920	217.154	115.024	-17.737	-13.293	-10.038	-5.354	124.927	-9.733	-8191	255	
1415.634	1	1	0	0	0.13523	0.15046	0.10298	0.17451	0.056346	0.22632	0.12947	0.057563	0.033267	0.36847	0.14303	0.10061	0.16156	0.22455	0.043767	0.12182	-2.7333	-2.9896	-3.2375	-2.9479	-3.075	-3.4625	-2.7896	-3.2292	-3.4583	-3.0792	-3.2417	-3.1292	-3.0875	-3.4896	-2.9688	-3.2875	73.313	279.937	-17.971	-11.119	42.440	28.929	52.045	148.251	15.742	292.003	17.791	194.942	178.486	310.025	239.600	65.745	2.0412e-05	0.00012049	9.7455e-06	67.7	4.0691e-07	1.3397e-07	57.94	25.658	4.7451e-07	9.7642e-08	22.444	6.2124	7.8144	2.9469	1.7021e-07	2.4879	5.5042e-06	0.00016833	-1.562e-05	81.167	-1.6653e-07	-7.2484e-07	70.297	31.125	-4.3082e-07	-4.1638e-07	26.989	7.5496	9.5751	3.6116	-3.7148e-07	3.0093	237.414	22.281	99.846	-18.547	171.546	148.801	-20.890	-13.607	172.770	168.850	-17.888	-13.553	-9.837	-5.100	271.759	-9.967	-8191	255	
1415.706	1	1	0	0	0.28023	0.19136	0.056024	0.25034	0.23825	0.27626	0.40632	0.16112	0.22891	0.23935	0.22487	0.20174	0.0422	0.038974	0.16756	0.020177	-2.9875	-2.9875	-3.3104	-3.2083	-2.9833	-3.4938	-3.0333	-3.1021	-3.475	-3.0062	-3.1792	-3.2562	-2.9583	-3.4437	-3.1437	-2.9042	118.501	38.695	-10.790	169.116	156.624	91.321	-22.457	206.632	216.610	119.607	284.155	299.034	213.073	327.340	217.218	42.446	1.0824e-05	0.00014011	1.543e-05	66.839	8.1448e-07	4.0255e-07	56.856	25.338	3.6962e-07	6.1762e-07	22.129	6.1573	7.7689	2.958	9.3947e-08	2.456	-2.4249e-06	0.00032027	-1.3111e-05	80.61	-2.1333e-07	-8.1794e-07	68.518	30.746	-5.839e-07	-4.3944e-07	26.545	7.4443	9.573	3.5999	-3.4352e-07	2.9822	218.040	27.539	53.317	-18.535	82.940	71.135	-20.837	-13.761	171.660	107.335	-18.346	-13.252	-10.154	-5.451	-4.706	-9.763	-8191	255	
1415.826	1	1	0	0	0.29802	0.17465	0.15549	0.18999	0.26638	0.13024	0.16704	0.1754	0.11199	0.076567	0.13452	0.13638	0.12497	0.32339	0.20844	0.094172	-3.0187	-3.1229	-3.1833	-3.2	-2.9292	-3.5604	-2.9146	-3.0625	-3.2854	-3.1646	-3.2333	-3.0646	-2.8354	-3.3458	-3.1354	-2.7542	85.763	184.324	27.555	105.594	171.394	48.074	45.588	308.123	-18.213	152.401	226.928	44.875	147.323	272.052	29.134	288.935	1.3797e-05	0.00012178	8.7075e-06	67.343	4.6823e-07	9.675e-07	57.205	25.455	5.4082e-07	2.1141e-07	22.14	6.203	7.8502	2.9562	2.903e-07	2.4668	-2.0015e-06	0.00015811	-1.4907e-05	80.925	-1.8633e-07	-8.0027e-07	68.582	31.083	-4.3265e-07	-5.6691e-07	26.721	7.5119	9.5807	3.6093	-4.1542e-07	2.9982	246.338	13.977	100.665	-18.412	162.415	103.623	-20.437	-13.917	184.049	-25.979	-17.670	-13.006	-10.166	-5.137	106.541	-9.684	-8191	255	
1415.921	1	1	0	0	0.024506	0.13736	0.13028	0.1278	0.15628	0.10273	0.43252	0.15579	0.054302	0.15228	0.1104	0.058175	0.28182	0.19143	0.11303	0.1108	-2.825	-2.9042	-3.1354	-3.2333	-2.9833	-3.1771	-2.9208	-3.2167	-3.5583	-3.0583	-3.0021	-3.3042	-2.9208	-3.2104	-3.0896	-2.9104	298.146	229.287	277.107	259.859	267.872	221.733	234.461	94.353	201.276	147.595	110.547	240.867	5.878	212.521	166.383	-0.712	1.0622e-05	0.00013083	1.3723e-05	67.882	2.5434e-07	2.5528e-07	57.953	25.908	5.5896e-07	5.957e-07	22.505	6.2485	7.9911	2.999	3.1627e-07	2.5144	2.9253e-06	0.00032472	-1.3738e-05	81.422	-1.3772e-07	-6.7298e-07	69.467	31.416	-4.8032e-07	-4.9529e-07	27.258	7.6166	9.7626	3.6515	-4.0943e-07	3.0488	224.840	65.989	37.806	-18.451	45.778	55.364	-20.756	-13.660	201.257	117.447	-17.802	-12.864	-10.500	-5.031	183.956	-9.753	-8191	255	
1416.017	1	1	0	0	0.093817	0.2082	0.094503	0.11433	0.14679	0.30473	0.10175	0.19934	0.2215	0.091821	0.065243	0.13156	0.10337	0.14167	0.066328	0.11617	-2.9688	-3.0646	-2.8292	-3.4125	-3.0354	-3.3146	-3.1896	-3.0333	-3.4292	-3.1458	-2.7938	-3.3854	-3.1208	-3.225	-3.1917	-3.1125	159.051	-7.190	256.302	-30.546	176.949	117.060	304.163	140.502	198.075	114.020	246.462	124.457	157.915	223.235	113.619	323.837	1.2122e-05	9.7081e-05	1.7355e-05	68.649	6.2062e-07	4.9024e-07	58.006	25.893	3.1708e-07	9.9201e-08	22.71	6.2306	7.9449	2.9618	3.2847e-07	2.4797	3.1562e-06	8.5635e-05	6.6411e-06	82.29	-2.0523e-07	-5.8694e-07	70.074	31.552	-4.7665e-07	-6.3003e-07	27.198	7.5829	9.6747	3.6272	-4.334e-07	3.0014	219.846	22.710	81.343	-18.553	182.811	119.331	-20.312	-13.845	162.022	313.445	-17.954	-12.616	-10.001	-5.426	137.033	-9.892	-8191	255	
1416.115	1	1	0	0	0.13347	0.094567	0.22476	0.023715	0.22035	0.07196	0.083188	0.084144	0.10219	0.19817	0.16461	0.15376	0.04652	0.067103	0.2285	0.11131	-3.1729	-3.0417	-2.7458	-3.3312	-3.0896	-3.2354	-3.0854	-2.9188	-3.2708	-3.1667	-2.9146	-3.4437	-2.8583	-3.0542	-3.2292	-2.9625	170.744	300.968	77.535	195.432	276.349	-8.661	145.224	225.569	128.076	-0.334	226.414	296.795	80.477	292.217	99.023	283.523	2.0874e-05	7.741e-05	3.9663e-05	67.931	6.0688e-07	3.348e-07	57.389	25.779	3.3692e-07	8.3739e-07	22.403	6.1554	7.92	2.9404	7.6762e-07	2.4757	-2.04e-06	-4.5753e-05	8.0976e-05	81.494	-2.6464e-07	-5.9755e-07	68.859	31.235	-3.8407e-07	-5.6448e-07	26.922	7.4867	9.6991	3.6141	-5.3326e-07	2.9908	247.590	37.717	71.884	-18.771	206.133	70.715	-20.261	-13.796	150.614	80.781	-18.111	-13.209	-10.195	-5.001	141.118	-9.910	-8191	255	
1416.234	1	1	0	0	0.082976	0.20509	0.034016	0.059209	0.19649	0.24301	0.29204	0.20857	0.14206	0.1229	0.22622	0.16809	0.05401	0.08926	0.10163	0.12353	-2.9896	-3.2083	-2.9813	-3.4229	-3.1521	-3.2438	-3.4167	-2.875	-3.1729	-3.1146	-2.9875	-3.4125	-3.075	-3.0396	-3.35	-2.9396	287.312	219.802	121.507	23.638	-2.699	233.787	209.612	183.296	293.864	218.116	325.384	58.320	181.962	273.076	27.518	267.540	9.1322e-06	4.614e-05	2.4673e-05	67.673	2.9223e-07	4.7362e-07	57.742	25.733	4.7573e-07	6.3472e-07	22.584	6.283	7.9669	3.0023	5.2123e-07	2.4867	8.468e-07	-5.5268e-05	4.4806e-05	81.496	-3.3125e-07	-5.7869e-07	69.263	31.47	-3.2449e-07	-5.8633e-07	27.157	7.5975	9.6904	3.6483	-6.0616e-07	3.0186	239.995	72.280	45.945	-18.836	99.181	111.629	-20.908	-14.019	273.149	67.404	-17.965	-12.736	-10.435	-5.367	58.524	-9.145	-8191	255	
1416.305	1	1	0	0	0.10165	0.078517	0.17794	0.23251	0.28579	0.13278	0.18819	0.21858	0.07805	0.17806	0.25634	0.25362	0.088139	0.23477	0.21353	0.19408	-2.8083	-3.1708	-2.7708	-3.2667	-2.9562	-3.0792	-3.4375	-2.8312	-3.0625	-3.2938	-2.9021	-3.2083	-2.8937	-2.975	-3.4979	-3.0854	47.886	318.336	-0.047	120.103	162.175	256.164	-15.719	-28.087	91.572	72.819	252.830	198.444	248.215	86.084	30.857	71.080	9.4392e-06	5.8332e-05	4.7746e-05	68.543	6.2225e-07	2.1815e-07	58.169	26.122	5.3931e-08	3.1313e-07	22.786	6.3701	8.0646	3.0174	6.5741e-07	2.538	2.7328e-06	-4.3728e-05	9.5342e-05	82.247	-3.0965e-07	-4.8204e-07	70.085	31.729	-3.1807e-07	-6.4096e-07	27.543	7.7206	9.76	3.7341	-5.3026e-07	3.0736	207.769	9.087	65.238	-18.760	193.925	91.022	-20.852	-13.884	149.939	75.423	-17.441	-13.429	-10.152	-5.083	105.112	-10.055	-8191	255	
1416.426	1	1	0	0	0.28951	0.11949	0.25392	0.1419	0.19673	0.14743	0.10731	0.14666	0.077691	0.029051	0.19836	0.13255	0.15	0.19653	0.041325	0.17666	-2.7	-3.1396	-2.7458	-3.4771	-3.1625	-2.8375	-3.3187	-3.05	-3.2583	-3.3271	-2.775	-3.2083	-3.1437	-2.9417	-3.3792	-3.0042	203.826	11.461	311.334	52.735	61.430	110.931	74.546	211.509	295.146	-22.399	84.693	66.388	201.869	323.832	181.106	117.271	1.5279e-05	3.8611e-05	3.732e-05	68.626	7.4096e-07	2.4069e-07	58.764	26.232	4.5831e-07	5.0999e-07	22.504	6.2276	8.0264	2.9948	2.4333e-07	2.5147	7.6597e-06	-5.0004e-05	4.9994e-05	82.481	-3.8256e-07	-3.1115e-07	70.28	31.885	-3.4374e-07	-7.2958e-07	27.296	7.6148	9.715	3.6856	-5.9118e-07	3.0232	224.359	138.672	55.776	-18.476	136.886	50.959	-20.379	-14.165	130.416	285.088	-17.965	-12.811	-10.419	-4.898	9.806	-9.676	-8191	255	
1416.522	1	1	0	0	0.1026	0.3015	0.14852	0.092169	0.11722	0.16884	0.16004	0.36928	0.047415	0.1851	0.15604	0.24167	0.23785	0.24196	0.10809	0.24321	-2.6625	-3.2375	-3.0229	-3.2271	-3.2146	-3.0187	-3.4708	-2.9708	-2.9021	-3.5042	-3.2396	-3.2896	-3.1604	-2.95	-3.5917	-2.9771	130.430	277.887	282.399	2.609	47.543	115.030	283.701	280.108	115.028	263.826	94.648	296.041	174.644	2.456	153.512	166.109	1.3098e-05	8.6333e-05	3.499e-05	68.565	7.7194e-07	1.4122e-07	58.061	26.174	9.1237e-07	3.9129e-07	22.689	6.343	8.0432	3.0245	4.4728e-07	2.5256	1.0316e-05	-5.628e-05	8.9328e-05	82.213	-3.7716e-07	-4.3726e-07	69.63	31.63	4.3724e-07	-8.2426e-07	27.339	7.6665	9.7567	3.7235	-6.0616e-07	3.0503	208.769	52.134	97.034	-18.333	101.239	157.585	-20.650	-13.680	240.021	-22.697	-17.539	-12.828	-10.191	-5.239	74.477	-9.567	-8191	255	
1416.618	1	1	0	0	0.056381	0.24856	0.055743	0.040835	0.21645	0.1897	0.095012	0.21524	0.09626	0.11145	0.091117	0.22551	0.054033	0.13456	0.15679	0.31152	-2.8729	-3.325	-3.1688	-3.3271	-3.3125	-2.825	-3.1437	-3.1458	-3.1167	-3.5458	-2.8854	-2.9167	-3.3042	-2.9854	-3.2854	-3.0521	135.175	268.673	85.828	84.691	234.299	77.890	219.338	260.385	110.460	153.150	53.481	123.145	221.167	137.285	243.795	86.781	1.4892e-05	6.4068e-06	3.7614e-05	68.538	5.3352e-07	1.5197e-07	58.693	26.263	1.2564e-06	1.8899e-07	22.858	6.3824	8.1498	3.0267	1.4121e-07	2.5584	9.4303e-06	-6.0531e-05	4.4236e-05	82.574	-4.9148e-07	-3.359e-07	70.443	31.752	2.8764e-06	-8.801e-07	27.562	7.7613	9.8385	3.7341	-4.9531e-07	3.0907	223.425	48.985	50.925	-18.719	173.132	39.308	-20.289	-13.881	246.739	138.922	-17.546	-13.090	-9.771	-5.309	211.347	-10.038	-8191	255	
1416.714	1	1	0	0	0.21961	0.030111	0.084705	0.11668	0.066885	0.16044	0.10698	0.068809	0.26647	0.17816	0.086275	0.14759	0.056997	0.081707	0.045402	0.27483	-2.6667	-3.4354	-3.1271	-3.1688	-3.3521	-3.1667	-3.2896	-3.3125	-3.0687	-3.2458	-2.9979	-2.9542	-3.5104	-2.9229	-3.2917	-3.3146	310.907	277.699	25.985	86.417	84.651	136.905	223.881	218.422	166.256	-31.346	92.521	55.671	170.463	271.265	189.619	311.842	1.5333e-05	7.5723e-05	3.8313e-05	69.159	1.3358e-07	7.1868e-07	59.295	26.698	5.9728e-07	1.081e-06	23.439	6.49	8.1393	3.0429	2.5716e-07	2.5585	1.0277e-05	-6.2758e-05	8.6991e-05	83.214	-4.7348e-07	-6.1758e-07	71.387	32.162	1.5638e-06	-7.2351e-07	28.022	7.8328	9.864	3.7566	-4.0244e-07	3.099	235.919	41.296	54.581	-18.551	98.772	107.484	-20.738	-13.790	305.667	114.870	-17.747	-13.386	-10.121	-5.056	190.059	-9.358	-8191	255	
1416.835	1	1	0	0	0.11386	0.16392	0.23526	0.12911	0.069925	0.33083	0.067543	0.079341	0.16603	0.23992	0.11554	0.07336	0.16013	0.12616	0.092605	0.21906	-2.5687	-3.1354	-2.8937	-3.0563	-3.4958	-3.1521	-3.2188	-3.2729	-2.9188	-3.3854	-2.9271	-2.8792	-3.4417	-3.0375	-3.4125	-3.3229	295.189	51.058	17.203	268.624	199.232	170.537	230.675	100.296	89.073	37.260	189.057	-22.782	272.158	47.209	138.692	7.592	9.6964e-06	3.2757e-05	1.7919e-05	69.39	4.2919e-07	5.373e-07	58.427	26.294	1.026e-06	1.7058e-07	22.654	6.2971	8.0423	3.0285	2.5279e-07	2.5131	6.7744e-06	-6.1037e-05	1.5106e-05	83.222	-5.0048e-07	-4.4079e-07	70.163	31.687	3.068e-06	-7.575e-07	27.263	7.6402	9.7731	3.7023	-3.8347e-07	3.0355	247.756	-21.643	22.327	-18.530	133.455	111.654	-20.853	-13.939	290.603	84.005	-17.310	-13.128	-10.564	-5.670	183.578	-9.958	-8191	255	
1416.929	1	1	0	0	0.16499	0.097335	0.29817	0.16417	0.035995	0.036937	0.14395	0.090244	0.11456	0.14584	0.093912	0.13817	0.20307	0.10055	0.092994	0.083631	-2.3604	-3.1854	-3.1875	-3.0083	-3.225	-2.9062	-3.0479	-3.225	-3.0042	-3.2542	-3.0563	-2.825	-3.4875	-3.1146	-3.3896	-3.4021	284.652	89.976	31.112	250.996	84.776	139.769	92.464	143.453	286.863	242.756	251.929	140.769	253.205	-5.331	202.712	192.051	1.0144e-05	4.2243e-05	5.5537e-06	69.293	6.3348e-07	6.385e-07	57.769	26.4	3.9169e-07	1.5449e-07	22.83	6.3346	8.0829	3.0329	9.4428e-08	2.5244	1.682e-05	-6.3062e-05	-1.4736e-05	83.227	-4.1587e-07	-3.4533e-07	69.991	31.779	1.561e-06	-6.6281e-07	27.461	7.6961	9.8018	3.7398	-3.7348e-07	3.0772	250.188	18.269	104.440	-18.397	82.060	99.367	-20.523	-13.995	305.648	174.870	-17.500	-13.640	-10.116	-5.198	290.264	-9.521	-8191	255	
1417.003	1	1	0	0	0.16067	0.14324	0.28055	0.061692	0.13064	0.25805	0.19436	0.13152	0.062453	0.26401	0.06064	0.14624	0.19859	0.087768	0.10578	0.14466	-2.4021	-3.2438	-3.2188	-2.9125	-3.3229	-3.0208	-3.1771	-3.4792	-2.9479	-3.1875	-3.0708	-2.9562	-3.3625	-3.0104	-2.9417	-3.5312	101.773	184.765	127.124	-25.030	132.001	67.683	-1.583	135.239	231.519	80.248	195.253	134.496	53.309	176.674	208.173	63.806	2.0922e-05	4.4186e-05	1.1266e-05	68.845	5.5573e-08	4.8245e-07	59.026	26.612	5.8302e-07	6.807e-07	23.173	6.4598	8.1589	3.0572	6.6589e-07	2.5744	1.3895e-05	-4.2311e-05	-1.6218e-05	83.5	-3.7536e-07	-4.2901e-07	71.036	32.086	3.1853e-06	-5.8876e-07	27.925	7.8223	9.9145	3.7454	4.9631e-07	3.1172	245.935	46.581	74.275	-18.407	90.365	45.493	-20.288	-13.841	298.572	27.701	-17.823	-13.616	-9.993	-5.299	171.573	-9.818	-8191	255	
1417.122	1	1	0	0	0.0698	0.077544	0.22164	0.17887	0.085942	0.11335	0.18033	0.1272	0.29996	0.13885	0.06689	0.20911	0.24838	0.26823	0.18396	0.11799	-2.5667	-3.1021	-3.4062	-2.9958	-3.3604	-3.0875	-3.0729	-3.3667	-3.0208	-3.1104	-3.375	-3.2188	-3.2979	-3.2042	-3.1396	-3.525	252.675	255.297	185.736	45.882	322.810	-13.306	134.932	292.814	59.488	149.590	4.479	201.094	169.355	255.963	-4.598	62.063	9.4896e-06	2.8723e-05	1.2611e-05	69.859	4.7132e-07	4.9784e-07	59.507	26.787	1.2663e-07	6.5648e-07	23.432	6.4428	8.1394	3.0454	5.5627e-07	2.5479	1.174e-05	-4.1805e-05	-1.7387e-05	84.653	-4.1137e-07	-5.1151e-07	72.102	32.352	1.6188e-06	-4.6008e-07	28.071	7.8474	9.9219	3.7336	3.3294e-06	3.0816	210.015	252.965	19.741	-18.803	122.545	179.381	-20.765	-13.786	258.447	69.885	-17.435	-13.106	-10.369	-5.187	116.580	-10.347	-8191	255	
1417.218	1	1	0	0	0.14706	0.35048	0.33434	0.154	0.11662	0.046873	0.17264	0.12956	0.1497	0.26062	0.36737	0.18436	0.18448	0.053597	0.094135	0.38517	-2.6458	-3.1937	-3.4479	-2.7938	-3.2792	-3.2938	-3.1271	-3.3333	-2.9833	-3.2021	-3.475	-3.0708	-3.4167	-3.2938	-3.1292	-3.45	-23.592	-30.008	151.055	271.268	52.499	40.145	307.351	56.902	210.220	273.984	298.720	249.551	173.922	102.982	205.039	32.566	1.4723e-05	1.1559e-05	6.8615e-06	68.93	1.8904e-07	5.7844e-07	57.907	26.321	4.5077e-07	4.4564e-07	22.824	6.3839	8.0912	3.0447	5.798e-07	2.5273	1.2086e-05	-4.7575e-05	-1.6446e-05	83.452	-3.7806e-07	-5.9637e-07	70.204	31.925	2.9736e-06	-5.1228e-07	27.469	7.7409	9.8568	3.7171	1.6257e-06	3.0608	234.797	110.997	48.979	-18.597	21.136	157.040	-20.494	-13.939	10.705	109.237	-17.707	-13.145	-10.465	-5.034	60.409	-9.985	-8191	255	
1417.314	1	1	0	0	0.2881	0.11941	0.046391	0.28074	0.033945	0.068803	0.039493	0.11094	0.078142	0.19234	0.16494	0.039578	0.053515	0.11226	0.1048	0.22806	-2.6437	-3.1625	-3.1292	-3.05	-3.1958	-3.2979	-2.9792	-3.5	-3.1083	-3.0667	-3.4938	-2.9208	-3.35	-3.3417	-2.9292	-3.4292	163.377	46.228	110.805	291.176	296.509	88.171	124.186	107.732	-28.354	-8.407	117.450	-16.090	153.547	88.675	181.204	20.459	1.4888e-05	8.47e-05	1.5246e-05	69.336	5.4564e-07	6.2666e-07	58.609	26.355	4.7339e-07	5.8536e-07	22.914	6.3235	8.0981	3.0168	1.4412e-06	2.5057	8.6219e-06	-3.806e-05	-1.5905e-05	83.698	-4.6357e-07	-6.164e-07	70.474	31.925	4.1249e-07	7.405e-07	27.575	7.7312	9.8525	3.702	3.2874e-06	3.0488	241.852	60.181	13.192	-18.391	132.803	132.237	-20.723	-13.753	34.149	146.014	-17.972	-13.497	-10.178	-5.301	89.006	-10.208	-8191	255	
1417.410	1	1	0	0	0.25655	0.19021	0.24357	0.25976	0.059833	0.15817	0.10726	0.098077	0.097308	0.11781	0.15484	0.14749	0.10695	0.10433	0.086641	0.083634	-3	-3.1104	-3.325	-2.8125	-3.325	-3.5854	-2.8521	-3.3688	-3.3292	-3.0604	-3.3563	-3.1229	-3.1083	-3.2687	-3.1688	-3.3708	16.788	138.108	174.209	110.671	208.424	311.850	11.056	2.473	204.634	-15.417	66.811	69.806	61.607	38.224	26.270	279.302	1.998e-05	3.8141e-05	3.865e-06	68.916	2.6026e-07	4.9968e-08	58.455	26.444	2.2603e-07	1.073e-06	22.886	6.3678	8.0653	3.0019	1.0089e-06	2.4829	9.1223e-06	-3.0367e-05	-1.5648e-05	83.521	-2.4124e-07	-5.6926e-07	70.664	31.984	-2.8141e-07	3.8761e-06	27.632	7.765	9.8495	3.6715	1.9523e-06	3.0264	230.720	86.750	281.579	-18.623	159.699	18.757	-20.657	-14.161	159.047	274.363	-17.624	-13.437	-10.431	-5.263	114.037	-9.631	-8191	255	
1417.531	1	1	0	0	0.30086	0.16151	0.072227	0.12029	0.29687	0.039161	0.0751	0.13548	0.15285	0.057166	0.11241	0.23465	0.11844	0.16711	0.13808	0.22491	-2.6063	-2.8104	-3.1813	-3.0438	-3.1583	-3.4313	-3.0167	-3.0958	-3.2938	-3.1	-3.2646	-3.1083	-3.2208	-3.5104	-3.0938	-3.4021	265.215	128.105	226.858	81.055	233.501	207.963	305.339	61.018	189.536	197.849	277.851	50.542	-2.233	54.413	239.482	314.025	1.665e-05	7.5687e-05	1.4064e-05	68.657	5.0957e-07	4.7616e-08	58.005	26.131	5.2187e-07	6.0465e-07	22.185	6.1748	7.8894	2.9113	1.5144e-06	2.3903	4.7344e-06	2.1257e-06	-1.1914e-05	83.315	-8.2813e-08	-6.1169e-07	69.78	31.645	-1.6866e-07	2.0455e-06	26.864	7.5133	9.6011	3.5626	3.1566e-06	2.9058	233.817	80.325	52.246	-18.559	95.242	4.312	-20.367	-13.790	202.919	-16.158	-17.938	-13.105	-10.270	-5.419	111.162	-9.572	-8191	255	
1417.602	1	1	0	0	0.15236	0.12371	0.082437	0.17485	0.17988	0.30139	0.043152	0.12908	0.42947	0.29635	0.05178	0.31232	0.083551	0.088844	0.14008	0.044311	-3.0375	-2.875	-3.6375	-3.2896	-2.9479	-3.3521	-3.1542	-3.3375	-3.3292	-3.1854	-3.2729	-3.1271	-3.0271	-3.4	-3.225	-3.2896	61.062	318.741	13.914	77.700	104.600	206.135	324.647	297.228	8.338	161.380	-25.082	152.014	184.077	274.270	141.217	-14.838	1.5146e-05	6.8042e-05	1.9731e-05	66.713	1.0129e-06	4.5452e-07	55.957	25.538	4.9696e-07	6.1301e-07	21.693	6.0442	7.76	2.8681	9.1386e-07	2.3228	7.9676e-06	-1.407e-05	-1.086e-05	80.854	8.4433e-07	-4.7497e-07	67.304	30.867	-2.6949e-07	3.8797e-06	26.139	7.3234	9.4407	3.5035	1.6797e-06	2.842	210.996	27.640	50.859	-18.605	214.045	128.758	-20.918	-14.303	171.152	41.710	-17.427	-13.120	-10.124	-5.142	166.240	-9.895	-8191	255	
1417.698	1	1	0	0	0.050222	0.086034	0.10424	0.1416	0.076016	0.15458	0.12552	0.17361	0.16128	0.282	0.077355	0.18497	0.095206	0.24511	0.073842	0.1194	-2.9292	-2.9896	-3.2958	-3.2083	-2.9646	-3.4771	-2.9667	-3.0354	-3.4521	-3.0125	-3.375	-3.1875	-3.0687	-3.3104	-3.0542	-3.2271	-15.917	108.105	99.058	92.126	205.098	160.041	173.176	86.475	13.815	135.798	209.471	176.624	53.986	295.416	116.055	263.279	7.5718e-06	5.3087e-05	6.0383e-06	66.255	1.5392e-06	7.0273e-07	55.767	25.363	7.1297e-07	8.9857e-07	21.731	6.0349	7.7441	2.8613	1.2163e-06	2.354	1.0662e-05	6.8832e-06	-1.1658e-05	80.013	2.9642e-06	-6.2701e-07	67.044	30.68	-2.2641e-07	2.1341e-06	26.169	7.3077	9.4217	3.4961	2.8291e-06	2.8444	192.969	58.869	36.246	-18.832	205.084	116.960	-20.799	-13.950	96.115	31.161	-17.809	-13.318	-10.150	-5.192	106.111	-10.410	-8191	255	
1417.795	1	1	0	0	0.16628	0.17753	0.066654	0.079973	0.15533	0.18028	0.20542	0.17081	0.059046	0.1369	0.12921	0.062195	0.33526	0.12553	0.2705	0.18064	-3.1375	-2.9688	-3.0917	-3.2167	-3.0771	-3.2542	-3.1354	-3.025	-3.4417	-2.9958	-3.4354	-3.2333	-2.7583	-3.4146	-3.1521	-2.8667	49.326	244.351	323.456	92.854	86.210	167.102	291.141	267.975	224.903	266.323	-1.020	83.112	178.451	2.028	40.276	149.996	1.7074e-05	4.2312e-05	1.5532e-05	66.548	2.2908e-07	4.8917e-07	56.196	25.467	1.6e-07	1.3634e-06	22.105	6.1269	7.8355	2.8971	7.5576e-07	2.3841	4.4649e-06	-1.7815e-05	-8.5508e-06	80.197	1.5933e-06	-3.8894e-07	67.504	30.948	-2.3466e-07	3.7948e-06	26.627	7.4155	9.5194	3.5313	3.0657e-07	2.901	222.072	-27.456	3.257	-18.777	276.614	70.088	-20.511	-13.526	84.524	11.335	-18.053	-12.879	-10.633	-5.077	88.015	-9.793	-8191	255	
1417.914	1	1	0	0	0.21689	0.058025	0.074227	0.1085	0.055146	0.041014	0.23685	0.1891	0.25339	0.13591	0.13652	0.14789	0.15698	0.10696	0.16435	0.17709	-3.0625	-2.825	-3.0833	-3.3542	-2.8354	-3.3812	-3.0583	-3.0438	-3.5271	-3.0354	-3.1437	-3.2521	-3.0729	-3.2146	-3.1937	-3.0479	128.774	-11.268	-9.059	309.287	117.591	148.625	-4.902	217.226	20.213	323.633	52.691	309.969	53.333	9.953	312.557	238.374	1.5317e-05	6.5595e-05	1.7637e-05	67.059	1.523e-06	4.2572e-07	55.945	25.623	2.6503e-07	1.2193e-06	22.073	6.0309	7.8041	2.8503	6.6146e-07	2.3532	5.3117e-06	-1.6398e-05	-4.9595e-06	80.722	2.9453e-06	-3.1468e-07	67.412	31.033	-2.6857e-07	1.9508e-06	26.465	7.3166	9.4799	3.4784	-2.2868e-07	2.8802	223.896	58.701	121.481	-18.702	209.051	149.249	-20.583	-13.639	71.900	12.723	-17.697	-13.071	-10.339	-4.945	188.534	-9.999	-8191	255	
1418.010	1	1	0	0	0.29668	0.16649	0.055581	0.12502	0.19478	0.10952	0.1219	0.079272	0.028038	0.019016	0.18414	0.18922	0.058919	0.10781	0.24187	0.026895	-3.2104	-2.9167	-3.0271	-3.5563	-2.7687	-3.4562	-3.175	-2.6958	-3.3396	-3.1958	-2.9333	-3.4333	-3.2042	-3.3125	-3.175	-2.925	241.564	24.595	109.959	107.665	51.558	278.410	53.939	252.134	263.591	59.989	74.907	42.478	-2.794	257.741	225.231	327.555	1.7868e-05	4.9006e-05	2.3657e-05	67.113	5.1021e-07	1.2037e-07	56.376	25.896	1.0385e-07	1.0798e-06	22.194	6.0891	7.8016	2.8292	8.2868e-07	2.3366	5.3502e-06	-1.8119e-05	-3.7909e-06	80.589	1.6473e-06	-4.3019e-07	67.568	31.268	-2.6949e-07	2.8625e-06	26.732	7.3389	9.5063	3.4874	-2.1071e-07	2.8612	244.339	84.039	64.419	-18.652	201.503	238.697	-20.665	-13.701	125.050	24.558	-17.860	-13.562	-10.004	-5.073	126.737	-10.141	-8191	255	
1418.108	1	1	0	0	0.060953	0.07432	0.15384	0.16783	0.1518	0.15611	0.34139	0.088319	0.17674	0.26662	0.16751	0.1775	0.077862	0.059336	0.24195	0.13845	-3.1	-3.0062	-2.8833	-3.4437	-2.8604	-3.4188	-3.3729	-2.7188	-3.2125	-3.3438	-2.9604	-3.4979	-3.0354	-3.1562	-3.3542	-2.9562	325.464	199.340	302.258	43.762	197.693	192.546	84.546	316.588	158.351	318.877	325.662	247.661	216.715	12.477	120.749	20.458	2.1665e-05	7.3756e-05	1.6469e-05	67.277	1.147e-06	5.1759e-07	57.301	26.149	4.284e-07	1.1333e-06	22.519	6.0807	7.8864	2.8639	4.1342e-07	2.3528	4.5419e-06	-6.9844e-06	-1.5392e-06	81.108	2.9048e-06	-3.4061e-07	68.412	31.67	-6.6915e-08	3.1684e-07	27.238	7.4319	9.5782	3.5002	-6.3911e-08	2.9063	245.146	61.720	92.312	-18.321	246.747	129.730	-20.692	-13.663	113.995	65.758	-17.762	-13.312	-10.426	-5.192	182.983	-9.386	-8191	255	
1418.202	1	1	0	0	0.083264	0.12936	0.097287	0.07618	0.27083	0.061781	0.025527	0.11052	0.15144	0.18684	0.17571	0.17547	0.27873	0.16877	0.21342	0.089537	-2.9146	-3.0146	-3.1208	-3.4583	-2.8896	-3.1417	-3.5729	-2.9479	-3.2479	-3.2083	-2.9667	-3.4667	-3.0917	-2.9479	-3.5333	-2.9375	176.227	206.611	264.081	256.455	168.455	58.928	162.281	287.411	309.947	287.434	97.932	252.740	177.553	6.879	164.780	133.178	1.3746e-05	6.9637e-05	7.2454e-06	68.403	9.9789e-07	5.6591e-07	57.894	26.843	5.46e-07	7.5756e-07	23.117	6.2097	7.9482	2.894	4.0258e-07	2.3873	1.0162e-05	-6.5795e-06	1.1401e-07	82.123	1.6077e-06	-2.475e-08	69.787	32.263	-1.32e-07	-2.4279e-07	28.25	7.5928	9.6931	3.5293	-1.3881e-07	2.9127	222.779	50.464	-26.195	-18.349	275.363	74.656	-20.623	-14.061	206.992	173.963	-17.786	-13.144	-10.281	-5.326	133.104	-9.900	-8191	255	
1418.298	1	1	0	0	0.094658	0.14242	0.078473	0.042685	0.23106	0.33251	0.028945	0.25177	0.16894	0.20211	0.14077	0.026395	0.25945	0.10899	0.12853	0.10939	-2.8958	-3.1125	-2.8646	-3.3917	-2.8958	-3.1229	-3.3667	-2.9125	-3.2917	-3.375	-2.8833	-3.2812	-3.0292	-3.1354	-3.375	-3.0187	268.291	136.798	87.037	33.334	300.688	138.615	240.882	212.179	263.618	114.489	72.072	-12.750	208.080	-15.478	226.976	95.112	1.1576e-05	2.8275e-05	9.0047e-06	68.16	5.358e-07	8.6274e-07	57.428	26.525	3.9955e-07	4.7338e-07	22.798	6.1315	7.8466	2.8528	5.5926e-07	2.3159	1.3626e-05	-1.0527e-05	4.5319e-06	81.88	2.2531e-06	1.9918e-07	69.052	32.052	-6.2331e-08	-2.3308e-07	27.676	7.4567	9.6027	3.4909	-1.6677e-07	2.8882	244.534	67.956	54.273	-18.845	-15.398	186.058	-20.749	-13.828	9.492	140.718	-18.237	-13.011	-9.981	-5.243	126.642	-9.753	-8191	255	
1418.394	1	1	0	0	0.078693	0.21231	0.091386	0.27878	0.096268	0.033389	0.16404	0.23506	0.22981	0.19977	0.10187	0.20489	0.1879	0.26738	0.089311	0.16273	-2.8937	-3.0938	-2.8604	-3.3271	-3.3229	-2.8688	-3.3438	-3.1417	-3.1604	-3.4583	-2.8688	-3.3333	-3.0458	-2.9854	-3.5146	-2.8542	57.955	33.675	-1.138	217.151	38.708	219.833	9.552	54.600	55.169	96.356	192.021	20.275	215.421	184.384	63.647	161.674	1.9382e-05	7.9158e-05	9.9008e-06	68.485	5.1099e-07	2.8314e-07	57.912	27.003	3.3691e-07	8.1461e-08	23.153	6.263	8.0037	2.9099	4.9439e-07	2.4007	1.682e-05	-1.1438e-05	5.9001e-06	82.3	2.3494e-07	1.3471e-06	69.562	32.44	9.4414e-08	-3.1926e-07	28.307	7.6089	9.7503	3.5526	-1.6877e-07	2.9335	230.327	93.662	-18.564	-18.682	124.922	54.378	-20.551	-14.072	145.657	279.483	-18.196	-12.833	-10.168	-5.368	87.269	-9.822	-8191	255	
1418.515	1	1	0	0	0.10885	0.24119	0.19898	0.18783	0.047313	0.18544	0.059463	0.057545	0.12405	0.15476	0.090601	0.11134	0.050417	0.21564	0.13458	0.17041	-2.7583	-3.3396	-2.8479	-3.3271	-3.1958	-2.9417	-3.4625	-3.0312	-2.8667	-3.2062	-3.125	-3.1833	-2.9146	-2.7958	-3.3958	-3.1333	2.832	1.795	132.103	152.999	260.593	106.985	-6.898	33.750	233.667	-10.577	124.910	111.599	15.333	243.661	68.042	314.473	2.2565e-05	4.9072e-05	1.6179e-05	68.983	1.7621e-07	6.6834e-07	58.62	26.958	4.4899e-07	4.3291e-07	23.382	6.2745	8.0748	2.8588	3.8012e-07	2.4034	2.1747e-05	-2.9456e-05	5.0165e-06	82.885	-5.1308e-08	3.8634e-06	70.288	32.623	1.2191e-07	-1.2746e-07	28.432	7.6381	9.8139	3.5274	-1.9972e-09	2.9267	241.466	72.272	70.652	-18.290	96.575	262.526	-20.526	-14.142	153.904	140.476	-18.086	-13.199	-10.104	-5.197	153.175	-9.549	-8191	255	
1418.611	1	1	0	0	0.11761	0.088807	0.090195	0.11007	0.07167	0.18022	0.076418	0.10384	0.25786	0.19615	0.13597	0.081244	0.089861	0.074962	0.094817	0.11517	-2.6437	-3.375	-2.7562	-3.1146	-3.15	-2.7479	-3.3875	-3.1562	-2.8042	-3.4313	-2.9792	-3.1479	-3.3396	-2.9125	-3.1271	-3.2125	251.220	227.999	221.758	181.291	218.688	185.042	280.661	285.168	95.739	309.472	49.447	231.800	117.861	179.191	57.453	166.122	3.0025e-05	6.1532e-05	1.0243e-05	68.706	3.6401e-07	3.4959e-07	58.987	27.086	4.1514e-07	9.0357e-07	23.356	6.2262	8.0635	2.865	3.8068e-07	2.3568	3.2024e-05	-1.8726e-05	3.7909e-06	83.082	2.1603e-08	2.4279e-06	70.84	32.701	2.5208e-07	-2.2336e-07	28.485	7.62	9.7667	3.5084	-4.9931e-08	2.858	226.389	59.523	129.637	-18.593	248.343	106.468	-20.266	-14.114	115.087	115.118	-18.102	-12.822	-10.770	-5.354	153.896	-9.713	-8191	255	
1418.707	1	1	0	0	0.21237	0.16063	0.22978	0.13253	0.099134	0.14107	0.077744	0.1741	0.2926	0.17785	0.15936	0.1984	0.28863	0.20059	0.11575	0.038561	-2.5354	-3.4458	-3.1458	-3.0563	-3.25	-3.0021	-3.3292	-3.1042	-2.7938	-3.2833	-3.0417	-3.1583	-3.2583	-3.0146	-3.1792	-3.125	162.652	250.241	218.909	41.018	39.083	222.032	195.586	26.153	311.813	248.003	161.380	130.601	151.933	230.333	83.045	111.920	2.4892e-05	3.6965e-05	8.5162e-06	68.393	7.3137e-07	7.0098e-07	57.726	26.716	3.05e-07	1.9087e-07	23.093	6.1197	8.049	2.8891	5.2158e-07	2.3463	7.5057e-05	-9.2113e-06	1.8242e-06	82.283	-1.1702e-08	3.7067e-06	69.422	32.461	2.3833e-07	-1.9787e-07	28.085	7.5333	9.767	3.5331	-9.387e-08	2.8661	247.106	77.423	108.737	-18.664	152.155	293.565	-20.885	-13.897	77.569	153.185	-17.690	-13.289	-10.772	-5.200	260.968	-10.515	-8191	255	
1418.828	1	1	0	0	0.19246	0.025541	0.15123	0.13482	0.13723	0.17934	0.15815	0.075919	0.24033	0.24436	0.13782	0.21306	0.12335	0.2049	0.15495	0.25525	-2.7	-3.3708	-2.9625	-2.9688	-3.1875	-2.7479	-3.4792	-3.1583	-2.8792	-3.0604	-3.0083	-3.0167	-3.2958	-2.9396	-3.0917	-3.1417	324.858	293.483	214.058	305.009	2.365	184.584	36.716	300.316	125.447	91.776	120.973	284.116	6.871	216.180	62.758	-26.262	2.309e-05	3.5204e-05	7.6928e-06	68.632	7.628e-07	1.5118e-07	57.869	27.15	6.0126e-07	2.7866e-08	23.311	6.2583	8.0715	2.8873	6.1373e-07	2.3751	0.00014673	-2.7938e-05	-2.8218e-06	82.692	-8.5514e-08	2.211e-06	70.019	32.801	2.3191e-07	-2.2943e-07	28.478	7.6535	9.8389	3.5401	1.5978e-08	2.8929	224.962	74.900	18.089	-18.538	127.658	326.019	-20.318	-13.802	167.714	275.299	-17.845	-13.529	-10.450	-5.515	121.699	-9.641	-8191	255	
1418.900	1	1	0	0	0.15185	0.097101	0.097071	0.28876	0.047371	0.035572	0.20476	0.060239	0.1552	0.13553	0.12083	0.32251	0.2637	0.32105	0.11493	0.095553	-2.3667	-3.3708	-2.9271	-2.9542	-3.4562	-2.9938	-3.0854	-3.325	-2.9833	-3.1625	-2.925	-2.7375	-3.3208	-2.9979	-3.3104	-3.3	206.123	77.570	119.607	246.541	116.148	158.506	137.986	79.739	318.692	33.894	254.143	256.136	-8.242	184.973	261.054	-8.632	2.0549e-05	2.2927e-05	1.3221e-05	69.175	5.8177e-07	7.8997e-07	58.966	27.413	2.7348e-07	1.2955e-07	23.818	6.3869	8.1399	2.9212	4.925e-07	2.4228	9.2955e-05	-1.8625e-05	1.1116e-06	83.284	-7.1111e-08	3.8493e-06	70.835	32.994	2.8232e-07	-1.8209e-08	28.713	7.7848	9.9361	3.5667	6.491e-08	2.9233	211.996	33.153	30.793	-18.726	133.371	224.312	-20.489	-13.974	88.791	96.625	-17.828	-13.292	-10.089	-5.230	180.930	-9.847	-8191	255	
1418.994	1	1	0	0	0.017715	0.049464	0.14579	0.034454	0.2292	0.20094	0.26156	0.022506	0.17226	0.050584	0.12597	0.09953	0.17938	0.33822	0.1437	0.17156	-2.5125	-3.125	-3.1167	-2.8604	-3.3729	-2.9354	-3.0083	-3.3229	-2.9188	-3.2687	-3.1562	-2.9708	-3.1708	-2.8854	-3.3333	-3.3396	-8.199	313.096	228.881	56.228	-10.957	13.005	-13.203	89.379	163.217	23.196	155.061	76.774	62.431	58.819	291.797	149.171	2.3536e-05	0.00011333	9.1757e-06	69.312	5.7753e-07	2.6812e-07	58.91	27.341	2.9946e-07	3.6022e-07	23.684	6.2962	8.0989	2.8963	7.0493e-07	2.3686	0.00015358	-1.6094e-05	1.7102e-06	83.789	-9.1815e-08	2.1509e-06	70.882	33.06	2.3833e-07	-1.4324e-07	28.481	7.756	9.8858	3.5466	1.418e-07	2.8841	215.834	55.891	264.393	-18.666	156.965	192.293	-20.582	-14.166	138.601	86.695	-18.057	-13.251	-11.000	-5.647	128.593	-9.496	-8191	255	
1419.090	1	1	0	0	0.34282	0.12062	0.1901	0.085114	0.1757	0.25177	0.25341	0.12064	0.3609	0.2117	0.20909	0.23643	0.10151	0.18514	0.28762	0.13999	-2.2583	-3.225	-3.2	-2.7083	-3.3812	-3.2646	-3.0875	-3.0625	-2.8937	-3.2604	-3.1792	-2.9	-3.4583	-2.9729	-2.8771	-3.1604	43.404	149.053	-30.258	131.880	78.377	-30.627	-13.884	164.045	116.609	32.456	133.141	299.874	240.984	141.267	116.071	132.928	1.7052e-05	5.3437e-05	1.2692e-05	69.165	2.6278e-07	1.0598e-06	58.498	27.175	1.0526e-07	8.3762e-07	23.659	6.2876	8.2487	2.9371	8.6464e-07	2.4116	9.6304e-05	-1.2349e-05	-3.0783e-06	83.265	-1.0082e-07	2.3631e-06	70.324	32.936	1.0083e-07	-2.9984e-07	28.592	7.7686	9.9851	3.5985	-1.9972e-08	2.9366	214.555	58.027	8.714	-18.917	157.105	33.880	-20.792	-14.299	3.665	97.765	-17.588	-13.469	-10.625	-5.122	187.237	-10.145	-8191	255	
1419.211	1	1	0	0	0.18551	0.14711	0.23612	0.26577	0.17819	0.12661	0.1359	0.08698	0.041987	0.076588	0.11725	0.24023	0.18134	0.12018	0.26746	0.22626	-2.675	-3.0042	-3.2292	-3.05	-3.0708	-3.0458	-2.9271	-3.4021	-2.9917	-3.2812	-3.1688	-2.9521	-3.3083	-3.2104	-2.8563	-3.3771	127.178	-22.170	53.153	54.839	-1.863	140.553	143.247	180.166	31.627	57.390	317.292	6.261	254.083	19.985	306.891	207.747	3.1469e-05	3.422e-05	7.0349e-06	69.557	9.8165e-07	5.2404e-07	59.556	27.63	2.4734e-07	6.0881e-07	24.098	6.5389	8.3634	2.9938	5.7697e-07	2.469	0.00014107	-9.2113e-06	-8.6363e-06	84.058	-1.5392e-07	-1.8622e-07	71.946	33.429	2.1083e-08	-3.2412e-07	29.06	7.9926	10.11	3.6643	3.4951e-08	2.9995	233.594	43.003	-11.445	-18.386	159.942	89.329	-20.629	-13.973	152.449	29.977	-18.148	-13.261	-10.268	-5.312	297.704	-10.097	-8191	255	
1419.307	1	1	0	0	0.069525	0.074896	0.06887	0.056437	0.16545	0.31508	0.19845	0.29546	0.038392	0.10257	0.15088	0.083861	0.23275	0.18399	0.20577	0.027768	-2.5542	-2.9562	-3.3667	-2.8708	-3.2188	-3.3646	-2.9896	-3.3438	-3.1021	-3.1625	-3.2625	-2.9729	-3.1583	-3.1063	-2.9875	-3.3875	126.615	261.765	110.334	-18.925	62.716	282.942	58.342	240.331	14.162	107.962	325.167	239.889	137.055	160.997	5.479	50.554	1.5358e-05	6.2877e-05	1.3383e-05	70.664	5.7288e-07	3.561e-07	59.553	27.678	1.9907e-07	4.2551e-07	23.91	6.4506	8.3121	2.944	3.9874e-07	2.4379	9.1146e-05	-7.2881e-06	-8.7219e-06	84.846	-1.8003e-08	-3.0408e-07	72.568	33.397	8.3414e-08	-3.7632e-08	29.037	7.8985	10.063	3.6246	1.3082e-07	2.9652	238.017	35.074	62.757	-18.357	199.727	86.925	-20.843	-13.886	116.786	66.915	-17.769	-12.988	-10.134	-5.500	145.415	-10.194	-8191	255	
1419.403	1	1	0	0	0.26007	0.12752	0.20484	0.14464	0.13786	0.056635	0.045505	0.12575	0.10466	0.18093	0.10533	0.072306	0.1174	0.041984	0.17118	0.073657	-2.7313	-2.8833	-3.3958	-2.9521	-3.2229	-3.3479	-2.8333	-3.3792	-3.0708	-2.9396	-3.3792	-3.0271	-2.9875	-3.3104	-2.9396	-3.2417	290.354	219.276	286.221	15.766	-6.622	237.599	317.496	-1.566	156.023	147.656	143.645	177.101	313.258	305.955	255.372	42.491	2.0145e-05	0.00014819	1.9954e-05	69.86	1.344e-06	8.4846e-07	59.184	27.358	1.0926e-07	1.1312e-06	23.474	6.3232	8.1396	2.898	2.8685e-07	2.3527	9.7228e-05	6.8629e-05	-1.0489e-05	83.999	8.1013e-08	-1.9211e-07	71.478	33.01	-4.5832e-09	6.9194e-08	28.402	7.7687	9.9141	3.5478	1.1085e-07	2.8683	241.290	149.170	60.396	-18.457	140.946	97.895	-20.898	-14.492	174.119	109.922	-17.834	-13.010	-10.376	-5.215	195.251	-10.287	-8191	255	
1419.475	1	1	0	0	0.33757	0.11553	0.047926	0.11647	0.24317	0.061766	0.15297	0.28906	0.20755	0.18703	0.096733	0.14086	0.32739	0.13013	0.26403	0.21975	-2.7896	-2.9646	-3.3604	-3.0646	-3.1479	-3.4688	-2.8438	-3.1979	-3.3812	-3	-3.6771	-2.8896	-3.0333	-3.3542	-3.1688	-3.2188	323.410	69.092	93.007	322.037	289.541	18.071	113.671	270.978	153.538	166.309	111.130	178.008	100.149	295.386	166.741	1.907	1.4225e-05	8.8271e-05	5.5451e-06	69.035	1.5215e-07	3.106e-07	58.206	26.978	5.4616e-07	1.7891e-07	23.396	6.2393	8.1017	2.8616	5.7937e-07	2.3576	1.428e-05	0.00015042	-6.5556e-06	83.186	4.1407e-08	-3.0997e-07	70.369	32.676	-8.2497e-09	5.3413e-08	28.228	7.6541	9.8807	3.499	1.468e-07	2.856	209.137	124.121	24.652	-18.414	115.477	91.526	-20.806	-13.736	208.108	65.591	-18.065	-13.422	-10.136	-5.299	92.896	-9.959	-8191	255	
1419.595	1	1	0	0	0.067662	0.23735	0.10008	0.026639	0.061877	0.033832	0.20429	0.22142	0.097722	0.29729	0.24949	0.11339	0.11542	0.126	0.076348	0.18694	-2.7313	-2.9083	-3.2396	-2.9333	-2.9833	-3.5042	-2.9458	-2.9979	-3.0854	-3.0604	-3.3187	-2.9604	-3.0479	-3.375	-3.0187	-3.225	0.493	291.888	161.611	195.635	11.672	93.144	166.866	108.457	73.618	242.254	-6.603	146.721	129.807	11.313	115.303	56.468	1.5508e-05	0.00016248	2.0457e-05	69.352	1.5195e-07	3.9554e-07	58.51	27.293	1.1768e-07	5.0155e-07	23.448	6.2434	8.0704	2.8376	3.5076e-07	2.3428	1.8283e-05	0.00033454	-8.4083e-06	83.238	7.8313e-08	-3.9247e-07	70.571	32.823	-1.8333e-08	3.6418e-08	28.312	7.6718	9.8812	3.4831	2.1071e-07	2.8524	222.050	143.656	88.986	-18.624	220.684	114.771	-20.452	-13.695	272.564	129.950	-17.644	-13.739	-10.165	-5.251	121.624	-10.338	-8191	255	
1419.691	1	1	0	0	0.108	0.33407	0.31351	0.23264	0.033762	0.11157	0.15346	0.14025	0.14121	0.17906	0.13723	0.014513	0.17528	0.13771	0.20006	0.098722	-2.9583	-2.9271	-3.2313	-3.2375	-2.9604	-3.3917	-2.95	-3.1958	-3.4667	-2.8271	-3.4604	-3.2812	-2.8375	-3.1896	-3.1771	-3.2271	211.524	71.457	69.720	223.127	225.203	49.831	276.475	265.988	181.058	299.571	69.258	49.470	-9.157	304.789	2.895	74.716	1.1809e-05	3.745e-05	1.1891e-05	69.689	6.1385e-07	7.9518e-07	58.762	27.408	2.1823e-07	3.4009e-07	23.576	6.3067	8.1118	2.8472	1.9651e-07	2.3478	1.1894e-05	0.00018706	-5.501e-06	83.568	8.5514e-08	-2.8522e-07	71.451	33.049	-1.3566e-07	-3.7632e-08	28.556	7.6852	9.9515	3.4842	3.9945e-08	2.8468	233.695	37.928	133.146	-18.570	162.774	89.323	-20.755	-14.044	189.573	105.736	-17.795	-13.095	-10.285	-5.315	129.069	-9.946	-8191	255	
1419.788	1	1	0	0	0.21013	0.15061	0.15524	0.085126	0.13034	0.15966	0.22046	0.22263	0.14276	0.31694	0.067987	0.25859	0.27431	0.034639	0.20846	0.081504	-3.0833	-2.7125	-3.2958	-3.0875	-2.9271	-3.2542	-3	-3.0708	-3.4396	-2.8104	-3.3104	-3.2125	-2.7	-3.2354	-2.9708	-2.8708	3.785	116.485	170.327	74.420	287.311	166.626	308.316	239.977	18.313	142.133	176.727	116.513	85.249	151.495	296.494	173.835	1.2179e-05	8.5697e-05	6.8889e-06	69.189	4.0463e-07	5.2996e-07	57.87	26.82	5.7356e-07	5.7521e-08	23.198	6.1745	8.0267	2.8458	4.1941e-07	2.3277	1.1547e-05	0.00033707	-4.646e-06	83.12	6.481e-08	-3.4061e-07	70.032	32.616	-1.2925e-07	9.4687e-08	27.99	7.5205	9.8804	3.4784	-7.8891e-08	2.8265	262.888	124.897	100.273	-18.269	42.505	24.912	-21.180	-13.701	169.420	228.312	-17.625	-13.500	-10.520	-5.422	-28.379	-9.715	-8191	255	
1419.908	1	1	0	0	0.15503	0.023167	0.14523	0.28149	0.21459	0.1128	0.30515	0.25312	0.041883	0.12532	0.29961	0.34234	0.17642	0.24492	0.08909	0.19034	-2.9104	-2.8396	-3.125	-3.2896	-2.9917	-3.2521	-3.0875	-3.1146	-3.3604	-2.8771	-3.2458	-3.5604	-3.0333	-3.375	-2.9729	-3.0146	162.066	164.193	163.764	197.551	200.208	152.527	94.452	202.824	70.334	-13.116	53.074	-25.399	68.824	82.809	-13.508	315.868	1.3386e-05	3.0751e-05	1.8018e-05	68.522	5.9909e-08	1.0868e-06	57.285	26.502	9.7954e-08	8.2679e-08	22.565	6.1433	7.9067	2.8297	6.1662e-07	2.3524	8.8529e-06	0.00017785	-6.9832e-06	82.144	6.7511e-08	-4.4079e-07	69.163	32.111	-2.4199e-07	-1.3353e-07	27.296	7.4566	9.6902	3.4873	-7.6893e-08	2.842	193.471	187.140	72.374	-18.585	137.129	104.836	-20.819	-14.399	156.633	115.365	-18.477	-13.487	-10.062	-5.512	170.300	-9.919	-8191	255	
1420.003	1	1	0	0	0.0077221	0.088702	0.095765	0.096807	0.10914	0.16489	0.031699	0.17476	0.29124	0.20371	0.17061	0.058385	0.13118	0.044874	0.23647	0.25862	-3.1479	-2.9104	-3.1167	-3.3729	-3.0542	-3.4417	-3.0312	-3	-3.5	-3.0896	-3.2208	-3.2042	-3.1292	-3.1042	-3.1333	-2.8708	272.720	92.215	18.548	174.541	10.983	305.007	69.779	205.619	276.560	190.541	143.982	-4.680	48.588	92.641	166.558	75.920	1.309e-05	0.00013207	7.3578e-06	66.848	5.3187e-07	1.3809e-07	56.77	25.789	1.7998e-07	6.5838e-07	22.215	5.9713	7.804	2.7942	4.9403e-07	2.3222	4.8883e-06	0.00031764	-5.2445e-06	80.413	2.7004e-08	-4.1958e-07	67.767	31.374	-2.1816e-07	-2.4521e-07	26.836	7.3655	9.5931	3.4324	-1.5479e-07	2.8117	217.418	181.522	121.146	-18.582	123.529	-28.929	-20.817	-13.782	83.879	81.679	-17.959	-12.480	-10.674	-5.157	183.096	-10.543	-8191	255	
1420.099	1	1	0	0	0.1642	0.10639	0.07777	0.15813	0.26735	0.11075	0.042821	0.057528	0.097941	0.1121	0.16001	0.28543	0.083215	0.13989	0.14083	0.10586	-2.9771	-3.0479	-3.2375	-3.45	-2.9292	-3.1146	-3.2125	-2.9104	-3.4688	-3.0312	-3.0354	-3.5646	-2.8479	-3.0521	-3.1083	-2.7896	80.211	7.868	47.348	326.959	310.871	302.935	125.943	139.880	167.213	210.963	-22.186	-28.130	123.115	90.662	101.327	105.573	1.3011e-05	8.0413e-05	2.6471e-06	65.862	4.1372e-07	5.674e-07	55.699	25.645	3.8344e-07	4.0098e-07	22.108	5.9248	7.6901	2.7661	2.8738e-07	2.2589	9.4687e-06	0.00017532	-5.7006e-06	79.405	-4.5007e-09	-3.0408e-07	67.019	31.169	-1.9799e-07	-2.4764e-07	26.535	7.2442	9.4206	3.3837	-1.2383e-07	2.7383	194.612	153.527	58.700	-18.367	44.038	39.517	-20.960	-14.014	156.142	122.354	-17.725	-13.123	-9.930	-5.144	1.616	-9.589	-8191	255	
1420.195	1	1	0	0	0.043332	0.089952	0.12098	0.062729	0.043343	0.16799	0.11498	0.33465	0.20724	0.025374	0.087468	0.23777	0.18737	0.18114	0.2097	0.27974	-2.9979	-3.0271	-3.15	-3.5563	-3.0563	-3.1896	-3.3729	-2.8187	-3.0208	-3.1667	-2.8375	-3.5687	-2.9354	-3.1396	-3.0958	-2.8063	52.565	64.888	210.886	10.156	92.096	64.180	172.946	290.492	272.175	111.470	156.817	315.632	271.959	315.613	95.522	154.842	1.13e-05	3.72e-05	2.7561e-05	65.213	1.3988e-07	2.7093e-07	54.502	25.103	6.8765e-07	5.8448e-07	21.419	5.7911	7.6112	2.7269	6.9491e-07	2.2207	1.0931e-05	0.00013695	3.0298e-05	78.342	-5.7609e-08	-4.4079e-07	65.42	30.491	-6.4165e-08	-2.4036e-07	25.825	7.0977	9.3206	3.3506	-1.9673e-07	2.7162	274.163	43.433	176.078	-18.495	228.412	69.382	-20.660	-13.839	180.301	198.187	-17.675	-13.098	-10.331	-5.065	106.765	-9.456	-8191	255	
1420.291	1	1	0	0	0.22033	0.14731	0.21352	0.21204	0.036153	0.086552	0.070592	0.16501	0.20139	0.026511	0.26219	0.066473	0.16082	0.18378	0.061957	0.22028	-2.8292	-3.2125	-2.7562	-3.3542	-3.0938	-3.2646	-3.5354	-2.9271	-3.0938	-3.2958	-2.9979	-3.4042	-3.175	-2.8625	-3.2604	-3.0604	76.067	99.815	100.731	217.484	253.790	1.918	181.350	319.943	182.363	159.132	256.155	312.037	124.926	160.318	283.498	-17.703	1.2184e-05	5.3453e-05	7.589e-06	64.913	6.1094e-07	4.1659e-07	54.291	24.873	1.8554e-07	9.0676e-08	21.385	5.8678	7.5893	2.7185	9.3371e-07	2.2372	6.197e-06	-2.6116e-05	4.7828e-05	78.366	1.4222e-07	-9.0752e-08	65.489	30.466	-1.6774e-07	-2.6707e-07	25.858	7.1233	9.2748	3.3456	-2.8261e-07	2.7166	255.921	20.122	176.306	-18.738	200.616	85.454	-20.435	-13.684	33.654	115.664	-18.014	-13.042	-9.722	-5.197	146.963	-9.767	-8191	255	
1420.387	1	1	0	0	0.18104	0.24072	0.18448	0.14072	0.060684	0.26358	0.28519	0.080346	0.30316	0.25248	0.14361	0.15823	0.18803	0.2097	0.16332	0.21353	-2.8104	-3.2479	-2.9042	-3.125	-3.1437	-3.0958	-3.3354	-2.8667	-3.0458	-3.075	-2.9083	-3.3625	-3.1396	-2.8292	-3.3292	-3.0292	249.557	301.903	-19.021	92.860	97.919	182.925	14.188	88.783	-15.143	161.242	203.685	229.981	124.713	89.996	-11.275	279.865	1.7096e-05	6.0038e-05	1.2971e-05	64.774	3.195e-07	9.2748e-07	54.37	24.829	6.4524e-07	3.6683e-07	21.395	5.823	7.5667	2.6946	2.755e-07	2.208	7.3517e-06	-1.7005e-05	9.8534e-05	78.008	-6.9311e-08	-7.8966e-08	65.254	30.135	-1.6499e-08	-2.355e-07	25.822	7.0797	9.2012	3.3103	-2.3168e-07	2.6761	223.215	60.450	197.763	-18.667	236.201	98.993	-20.856	-13.769	104.895	62.179	-17.763	-13.171	-10.182	-5.221	48.850	-9.828	-8191	255	
1420.508	1	1	0	0	0.08405	0.1277	0.029695	0.2194	0.33146	0.17072	0.22289	0.22323	0.20181	0.23041	0.070602	0.17628	0.15993	0.11587	0.053363	0.15229	-2.7313	-3.2938	-3.0042	-3.2521	-3.1146	-2.9729	-3.3229	-2.9354	-2.95	-3.0875	-2.8187	-3.1875	-3.0604	-3.0333	-3.4792	-3.1937	124.372	231.284	86.976	155.913	29.224	158.723	315.616	240.059	51.867	271.116	-12.207	84.495	112.718	38.735	249.025	-16.175	1.2211e-05	5.5773e-05	1.4493e-05	63.693	3.2247e-07	3.6032e-07	52.995	24.435	3.4662e-07	5.6401e-07	20.614	5.5972	7.2784	2.586	2.929e-07	2.0983	1.8591e-05	-1.903e-05	5.3699e-05	76.685	3.4205e-08	1.32e-07	63.666	29.661	1.0816e-07	-1.481e-07	24.956	6.8396	8.8735	3.1884	-2.0472e-07	2.5609	267.679	35.132	199.191	-18.460	159.995	150.900	-20.774	-13.808	115.770	138.875	-17.754	-13.254	-10.101	-4.830	196.132	-9.874	-8191	255	
1420.604	1	1	0	0	0.12062	0.094472	0.093708	0.25825	0.084324	0.11358	0.070698	0.051827	0.20072	0.04752	0.13589	0.11779	0.28502	0.01997	0.21324	0.13419	-2.4146	-3.2583	-2.8271	-3.05	-3.25	-2.8583	-3.3771	-3.0604	-3.0938	-3.3333	-2.95	-3.1083	-3.1937	-2.875	-3.2229	-3.1063	309.096	277.707	294.168	288.514	31.299	51.035	171.338	316.837	230.579	-5.928	231.735	6.885	-0.509	240.396	109.129	249.799	1.1698e-05	6.4554e-05	1.2738e-05	62.612	8.9269e-07	7.3253e-07	52.276	23.84	7.0368e-08	8.2761e-07	20.254	5.5875	7.2572	2.6006	1.1817e-07	2.1339	1.02e-05	-3.4315e-05	8.967e-05	75.458	-1.8813e-07	-1.3082e-07	62.954	28.978	-5.0415e-08	-5.5477e-07	24.635	6.7769	8.8423	3.2166	-2.866e-07	2.5778	252.944	31.254	222.358	-18.588	155.205	129.141	-20.816	-13.701	25.669	35.607	-18.098	-12.702	-9.948	-5.146	162.154	-9.713	-8191	255	
1420.700	1	1	0	0	0.21979	0.21826	0.15203	0.10047	0.13489	0.0068506	0.11433	0.13838	0.12592	0.022987	0.10785	0.19303	0.25517	0.072333	0.36291	0.13828	-2.4729	-3.3312	-2.8792	-2.9792	-3.1479	-3.1083	-3.5271	-3.0396	-3.0458	-3.3333	-3.1083	-3.3521	-3.3271	-2.8583	-3.3708	-3.2333	65.128	315.064	19.928	18.896	61.857	154.817	175.223	102.731	265.184	25.461	261.760	41.900	265.703	158.955	304.663	41.926	1.535e-05	1.4777e-05	1.4957e-05	63.054	1.3465e-07	2.0354e-07	52.193	23.745	5.8839e-07	4.3772e-07	20.418	5.531	7.2507	2.5786	2.0567e-07	2.1438	1.4011e-05	-3.6946e-05	5.0108e-05	76.003	-1.2872e-07	-6.9537e-08	63.158	28.855	1.331e-06	-4.0788e-07	24.611	6.7808	8.803	3.1816	-2.7062e-07	2.5781	213.656	28.403	29.867	-18.424	294.351	208.679	-20.316	-14.166	144.440	115.469	-18.370	-13.264	-10.608	-5.185	285.234	-9.932	-8191	255	
1420.772	1	1	0	0	0.15565	0.070949	0.02872	0.016326	0.23607	0.14195	0.059106	0.06182	0.072702	0.11475	0.16819	0.19005	0.18888	0.076166	0.13988	0.17458	-2.5938	-3.1937	-3.0167	-3.1229	-3.5312	-2.9771	-3.0896	-3.2	-2.9313	-3.4562	-3.1167	-2.8896	-3.4979	-3.0208	-3.2188	-3.225	82.538	138.670	257.192	127.541	164.764	219.367	39.017	239.970	295.116	100.965	31.748	285.830	-28.059	147.657	314.617	23.554	1.6867e-05	4.8498e-05	2.9884e-05	62.767	9.3854e-07	5.8646e-07	52.616	23.946	4.2879e-07	3.4391e-07	20.641	5.5797	7.2403	2.5602	3.9922e-07	2.0984	1.3087e-05	-2.9557e-05	8.9328e-05	76.013	-2.0703e-07	-1.6265e-07	63.576	28.876	1.6884e-06	-5.3777e-07	24.724	6.7808	8.7894	3.1728	-1.9573e-07	2.5406	197.300	73.035	217.173	-18.458	150.858	81.819	-20.914	-13.765	91.467	143.001	-18.173	-13.117	-10.296	-5.023	313.674	-9.993	-8191	255	
1420.868	1	1	0	0	0.082918	0.29041	0.21248	0.067786	0.24982	0.37992	0.19277	0.19823	0.15992	0.21252	0.15734	0.14545	0.27598	0.056528	0.053185	0.011528	-2.4313	-3.4146	-3.2958	-2.9479	-3.4562	-2.7792	-3.2396	-3.0667	-2.9083	-3.5062	-2.9354	-2.9208	-3.2562	-3.0354	-3.2313	-3.4583	172.205	234.718	-26.203	203.830	158.569	31.065	-10.757	97.022	226.716	7.633	175.390	170.629	24.914	112.488	268.729	188.323	1.7493e-05	0.00010278	7.0401e-06	62.137	1.4709e-07	5.8073e-07	51.548	23.332	5.5194e-07	4.3802e-07	19.539	5.3696	7.1024	2.4553	5.6686e-07	2.0073	1.963e-05	-4.9397e-05	4.5063e-05	74.828	-3.3935e-07	-5.068e-08	61.972	28.27	2.8856e-06	-4.9771e-07	23.901	6.5718	8.6039	3.0351	-1.9074e-07	2.4339	243.121	-0.681	194.763	-18.646	204.726	85.835	-20.932	-13.732	108.607	119.377	-18.071	-13.089	-10.337	-5.195	186.699	-9.767	-8191	255	
1420.987	1	1	0	0	0.14597	0.15501	0.12346	0.1385	0.073632	0.099411	0.12363	0.08691	0.15606	0.182	0.085036	0.1337	0.040114	0.23254	0.036612	0.091795	-2.4813	-3.1854	-3.1375	-2.9417	-3.4396	-2.9229	-2.8917	-3.2812	-3.1542	-3.3917	-3.0792	-2.7708	-3.3104	-2.9896	-3.1813	-3.2708	219.619	185.187	164.910	222.800	238.595	122.158	-15.446	115.804	294.759	306.974	288.555	312.459	192.659	160.825	196.096	83.771	1.2944e-05	3.5926e-06	3.874e-05	61.472	5.7105e-07	4.1472e-07	51.395	23.205	2.9825e-07	3.1853e-07	19.743	5.3489	7.1076	2.4485	3.6629e-07	1.9953	1.8283e-05	-2.5205e-05	2.4227e-05	74.364	-2.0703e-07	-2.0979e-07	61.31	28.161	1.671e-06	-3.7146e-07	23.82	6.5244	8.5669	3.0132	-1.7076e-07	2.4107	232.881	31.063	317.967	-18.683	152.129	279.742	-20.870	-13.859	157.653	130.697	-17.794	-13.560	-10.379	-4.864	231.881	-9.828	-8191	255	
1421.083	1	1	0	0	0.23053	0.14661	0.14038	0.1852	0.10837	0.11396	0.036941	0.12041	0.085901	0.13442	0.21724	0.086783	0.24265	0.16157	0.025334	0.076286	-2.3083	-3.2271	-3.2917	-3.2	-3.3312	-3.1167	-3.1146	-3.3229	-2.8604	-3.0187	-2.9771	-2.8312	-3.2167	-2.9792	-2.8812	-3.2708	292.165	237.577	219.460	304.233	55.623	142.893	16.588	58.872	163.357	54.997	47.993	1.842	299.645	184.649	75.154	6.472	1.6747e-05	2.4775e-05	3.3634e-06	61.593	6.3578e-07	1.0135e-06	51.439	23.169	1.2394e-06	5.5925e-07	19.853	5.4341	7.0724	2.4336	7.1442e-07	2.0033	1.6089e-05	-2.1561e-05	-6.6411e-06	74.935	-1.6203e-07	-2.3572e-07	62.063	28.161	3.0332e-06	-1.8452e-07	24.04	6.5632	8.5861	3.0138	1.1983e-08	2.4288	236.657	139.314	241.719	-18.641	190.179	194.136	-20.729	-13.488	101.927	98.218	-18.084	-13.187	-10.200	-4.743	162.337	-10.430	-8191	255	
1421.179	1	1	0	0	0.13725	0.0326	0.064277	0.23336	0.18434	0.10024	0.21428	0.28459	0.2347	0.20151	0.16979	0.12057	0.12696	0.087964	0.17569	0.15007	-2.5687	-3.125	-3.1417	-2.825	-3.4771	-3.2313	-2.9437	-3.4667	-3.1521	-3.1104	-3.0708	-2.8979	-3.2625	-3.1333	-3.0667	-3.2875	45.205	177.934	152.609	323.824	263.691	191.524	195.070	197.654	178.896	212.588	55.937	-10.765	266.320	87.126	122.944	165.091	9.9909e-06	3.3208e-05	2.0479e-06	62.601	1.1695e-07	4.8206e-07	51.945	23.539	7.3733e-07	8.4476e-07	20.025	5.3581	6.9982	2.4186	7.1682e-07	1.9881	2.0131e-05	-1.5082e-05	-1.1116e-06	75.999	-8.8214e-08	-4.9501e-08	62.676	28.365	1.6105e-06	-1.9666e-07	24.076	6.5509	8.5384	2.9898	1.7266e-06	2.4179	246.854	-5.229	243.791	-18.821	-14.360	141.172	-20.567	-13.986	176.547	136.872	-18.045	-13.776	-10.564	-5.372	213.225	-9.590	-8191	255	
1421.275	1	1	0	0	0.23031	0.17652	0.1824	0.10629	0.099582	0.081102	0.16811	0.13137	0.23862	0.18362	0.14798	0.076568	0.34646	0.33916	0.13665	0.034169	-2.7792	-3.2	-3.4	-2.9542	-3.0583	-3.0938	-2.9271	-3.4375	-3.0792	-3.1	-3.5208	-3.1708	-3.1667	-3.1708	-3.0979	-3.2979	186.043	229.674	-8.642	-22.394	179.243	274.176	254.273	198.455	227.132	184.536	72.881	72.296	88.610	96.925	95.091	-31.256	1.3859e-05	7.6132e-05	7.311e-06	62.234	5.6986e-07	2.2854e-07	51.611	23.275	5.72e-07	4.1761e-07	19.678	5.2825	7.021	2.4592	6.9521e-07	1.9742	1.9168e-05	5.3648e-06	-5.1305e-06	75.512	3.2405e-08	-1.3672e-07	61.892	28.248	2.6967e-06	6.0697e-08	23.741	6.4758	8.5349	2.9947	1.9103e-06	2.3994	225.229	40.007	127.720	-18.784	187.105	311.878	-20.765	-13.729	123.291	282.332	-18.126	-13.625	-10.265	-4.790	232.202	-10.126	-8191	255	
1421.371	1	1	0	0	0.098931	0.10854	0.23679	0.041817	0.1189	0.18611	0.15552	0.073897	0.15707	0.054153	0.095356	0.14963	0.19412	0.23307	0.32962	0.074548	-2.9	-3.1896	-3.4458	-2.8792	-2.9938	-3.3146	-2.8937	-3.2542	-3.0687	-2.825	-3.3229	-3.0021	-3.3208	-3.2458	-2.8375	-3.2979	51.935	185.793	50.976	81.530	140.853	128.406	179.837	159.582	320.169	160.818	255.548	166.692	130.800	4.046	93.460	254.075	9.8817e-06	4.0747e-05	1.336e-05	62.269	5.3605e-07	8.1877e-07	51.453	23.414	9.8347e-07	2.2463e-07	19.697	5.2746	6.9334	2.417	8.7916e-07	1.933	1.9168e-05	2.8342e-06	-5.387e-06	76.014	1.2602e-07	-6.8358e-08	61.904	28.263	1.5106e-06	2.0758e-07	23.805	6.429	8.4776	2.9519	3.3114e-06	2.3621	214.093	9.581	3.189	-18.725	169.340	56.375	-20.466	-13.950	139.019	-29.949	-17.991	-13.285	-10.258	-5.648	242.706	-9.243	-8191	255	
1421.468	1	1	0	0	0.20389	0.13797	0.27254	0.080442	0.23937	0.35306	0.086593	0.068626	0.13939	0.094405	0.16838	0.35038	0.20129	0.1377	0.21427	0.24389	-2.8104	-3.1021	-3.3917	-2.7396	-3.0083	-3.5062	-3.1521	-3.2687	-3.225	-2.9896	-3.575	-2.9792	-2.8792	-3.1646	-2.9042	-3.2833	273.755	22.139	74.765	169.743	46.422	183.324	319.007	53.276	269.386	132.371	211.817	139.445	-14.863	77.256	225.180	182.704	1.0682e-05	7.5461e-06	1.5981e-05	62.09	1.7217e-07	6.1722e-07	51.186	23.136	1.1392e-06	9.9793e-07	19.51	5.2481	6.8914	2.3835	4.707e-07	1.9595	2.4519e-05	1.8625e-05	-2.3087e-06	75.281	2.0613e-07	-1.0372e-07	61.748	28.138	1.0019e-06	2.5141e-06	23.795	6.4216	8.4539	2.9349	2.0022e-06	2.3755	228.309	182.591	11.404	-18.935	79.328	11.502	-20.939	-13.812	146.386	164.592	-18.342	-13.125	-10.258	-5.194	70.259	-9.705	-8191	255	
1421.588	1	1	0	0	0.33832	0.081526	0.23804	0.20127	0.18024	0.16664	0.13802	0.072862	0.40633	0.11681	0.17658	0.19179	0.029631	0.18001	0.33751	0.072194	-2.7521	-2.8396	-3.3208	-3.0833	-3.2792	-3.5312	-2.9333	-3.225	-3.1917	-2.7667	-3.4708	-3.0479	-2.8271	-3.2708	-2.875	-3.225	274.885	86.281	259.986	64.939	12.642	62.007	-19.250	174.144	-26.335	34.586	43.092	94.309	303.449	177.737	206.919	196.587	1.447e-05	5.1165e-05	1.3843e-05	62.504	1.7526e-07	2.1446e-07	51.618	23.397	1.7666e-07	1.0821e-06	19.834	5.2443	6.97	2.4123	9.5415e-07	1.9497	2.6058e-05	3.4517e-05	7.4107e-07	75.9	2.3224e-07	-9.4288e-08	62.349	28.467	2.1266e-07	2.4667e-06	24.02	6.4585	8.4926	2.9515	3.3454e-06	2.3698	224.879	37.435	12.489	-18.957	196.484	75.718	-20.854	-13.737	79.207	71.343	-18.066	-13.137	-10.232	-4.893	228.545	-10.027	-8191	255	
1421.684	1	1	0	0	0.13739	0.14604	0.25953	0.087186	0.27733	0.21935	0.19911	0.22471	0.14796	0.2394	0.025506	0.13137	0.051337	0.12542	0.19855	0.079801	-2.5646	-2.5938	-3.3292	-3.0042	-2.9313	-3.5396	-2.8833	-3.1271	-3.2708	-2.8542	-3.1833	-2.9604	-2.8979	-3.2812	-3.1521	-3.1562	165.910	61.483	246.313	280.550	15.309	228.355	155.552	44.807	162.030	68.845	310.202	278.947	17.276	74.389	165.017	63.275	1.4219e-05	7.2542e-05	1.0951e-05	61.948	7.8881e-07	7.3369e-07	50.491	23.125	4.5598e-07	1.0141e-06	19.328	5.2237	6.8726	2.3668	9.871e-07	1.9122	2.3518e-05	4.7474e-05	2.2802e-06	75.162	3.0695e-07	3.8894e-08	61.092	28.19	3.0249e-07	4.1784e-06	23.564	6.3503	8.4225	2.9111	1.8005e-06	2.3265	236.939	0.957	28.346	-18.181	16.903	141.217	-20.543	-14.096	113.226	117.157	-18.245	-12.956	-10.666	-5.315	234.608	-9.979	-8191	255	
1421.781	1	1	0	0	0.23072	0.11891	0.13201	0.10088	0.074493	0.18031	0.17194	0.027668	0.10993	0.21337	0.079047	0.099521	0.22873	0.076055	0.067563	0.12905	-3.0708	-2.925	-3.1312	-3.1771	-2.7271	-3.4562	-3.1521	-3.0187	-3.2667	-2.8833	-3.1521	-3.0542	-2.8542	-3.4313	-3.1417	-3.025	-25.059	184.977	134.644	54.069	205.374	129.178	272.050	-24.932	193.315	53.726	199.842	48.115	264.694	290.747	270.212	8.900	1.3472e-05	5.9983e-05	5.8484e-06	61.466	6.3415e-07	6.8367e-08	50.374	23.15	4.9652e-07	1.0033e-06	19.574	5.1824	6.8721	2.3483	1.3193e-06	1.8951	1.8707e-05	4.798e-05	5.2445e-06	74.349	2.0271e-06	5.893e-08	60.841	27.991	1.3383e-07	2.3769e-06	23.605	6.3259	8.3808	2.8815	3.3743e-06	2.3247	218.271	-2.820	256.081	-18.722	264.143	190.679	-20.368	-13.574	192.688	134.110	-17.585	-13.419	-10.276	-5.143	232.240	-10.023	-8191	255	
1421.877	1	1	0	0	0.074767	0.097834	0.082811	0.19636	0.18294	0.28276	0.040385	0.12521	0.12229	0.11268	0.14363	0.19384	0.22082	0.22896	0.040896	0.12094	-3.0708	-2.7562	-3.1188	-3.3521	-3.0542	-3.3292	-3.1104	-2.8771	-3.5333	-3.0042	-3.2125	-3.3479	-2.6771	-3.175	-3.2417	-3.1125	133.834	195.188	-23.291	82.485	78.415	66.718	325.583	30.636	174.780	280.571	151.830	-27.574	75.740	-10.766	239.363	274.315	1.4082e-05	3.2785e-05	1.2512e-05	61.685	4.0065e-07	5.3693e-07	51.412	23.268	4.5041e-07	1.646e-06	19.773	5.3649	7.0074	2.3985	1.3071e-07	1.9677	1.8745e-05	4.9093e-05	8.4368e-06	74.487	1.83e-06	8.6037e-08	61.494	28.212	2.1174e-07	4.1954e-06	23.994	6.4697	8.5005	2.9578	1.5239e-06	2.4055	236.271	18.172	88.245	-18.776	35.377	194.845	-20.977	-13.768	209.682	134.158	-17.661	-12.944	-9.772	-4.854	274.660	-9.713	-8191	255	
1421.996	1	1	0	0	0.27522	0.07828	0.11409	0.12716	0.16726	0.23805	0.229	0.15984	0.1866	0.2516	0.097141	0.051704	0.15877	0.14408	0.11272	0.11809	-2.8312	-2.9229	-3.1188	-3.1979	-2.8083	-3.4167	-3.1979	-2.7729	-3.4208	-3.0125	-2.9562	-3.1271	-2.9313	-3.25	-3.0771	-2.8958	131.661	25.444	-13.582	302.217	214.235	103.243	108.898	327.155	148.432	228.448	107.475	90.641	309.153	220.015	153.681	321.755	1.0579e-05	4.6161e-05	5.1145e-06	62.543	1.5837e-06	5.6148e-07	51.671	23.485	1.3804e-07	9.4177e-07	19.812	5.2666	6.942	2.4259	5.3255e-07	1.9395	2.0362e-05	2.5913e-05	3.5914e-06	75.464	3.0974e-06	1.544e-07	62.473	28.453	6.9664e-08	2.3393e-06	24.068	6.4558	8.4999	2.9778	8.1986e-07	2.4159	232.405	88.919	221.759	-18.589	72.402	101.229	-20.582	-13.658	105.254	107.643	-18.018	-12.987	-10.175	-5.447	34.399	-10.486	-8191	255	
1422.067	1	1	0	0	0.16958	0.104	0.20187	0.21235	0.12636	0.15552	0.21595	0.37689	0.079206	0.044669	0.2355	0.17354	0.36877	0.14038	0.10867	0.22317	-2.9354	-3.075	-3.2812	-3.4708	-2.8167	-3.3979	-3.225	-2.8646	-3.1771	-3.0104	-2.9792	-3.1729	-2.7938	-3.2896	-3.3604	-3.0875	251.366	216.176	185.612	109.700	99.413	218.401	75.079	103.579	90.423	325.776	157.458	98.675	10.143	75.693	104.729	233.328	6.0571e-06	5.3464e-05	1.8829e-05	62.407	6.59e-07	1.46e-07	51.366	23.341	8.1674e-07	1.826e-06	19.734	5.2364	6.9714	2.4337	7.4781e-07	1.9888	1.8861e-05	3.7048e-05	5.558e-06	75.287	1.9101e-06	1.5204e-07	61.9	28.347	2.8782e-07	3.836e-06	23.916	6.437	8.5172	2.9936	6.5909e-08	2.4322	220.927	20.150	-0.136	-18.734	92.865	227.262	-20.775	-13.939	207.157	164.802	-17.701	-12.815	-10.146	-5.022	153.622	-9.755	-8191	255	
1422.188	1	1	0	0	0.31989	0.1587	0.22	0.13997	0.032672	0.087848	0.1757	0.35512	0.068786	0.22977	0.086677	0.12362	0.19425	0.082368	0.049539	0.07104	-2.8937	-2.8708	-3.1	-3.55	-2.9208	-3.1292	-3.4708	-3.2083	-3.3187	-3.0271	-2.9313	-3.5167	-3.2062	-3.1458	-3.3063	-2.9083	269.582	95.147	-28.944	160.929	197.399	242.217	141.310	123.422	202.262	37.069	48.125	281.334	271.654	82.817	315.971	14.973	1.5417e-05	7.0551e-05	1.8765e-05	62.44	1.2025e-06	2.0111e-07	51.783	23.406	1.6997e-07	7.8332e-07	19.838	5.3045	7.0096	2.4404	5.2192e-07	1.9846	2.0593e-05	2.8444e-05	8.3228e-06	75.564	3.1919e-06	1.815e-07	62.293	28.41	1.375e-07	1.589e-06	24.08	6.5059	8.5448	3.0067	1.2283e-07	2.4721	259.242	42.544	96.754	-18.177	86.015	220.564	-20.648	-13.878	221.429	94.589	-17.755	-13.308	-10.545	-5.233	157.922	-10.148	-8191	255	
1422.284	1	1	0	0	0.092366	0.10921	0.12495	0.10968	0.22744	0.22513	0.34552	0.28793	0.14953	0.095858	0.12921	0.27065	0.066407	0.14661	0.047057	0.25023	-3.05	-3.1625	-3.0938	-3.4521	-2.9646	-3.1167	-3.5083	-2.9333	-3.0104	-3.3458	-2.9813	-3.4437	-2.9437	-2.9792	-3.3896	-2.7833	300.083	-20.053	95.138	90.860	327.348	31.871	166.607	49.600	131.294	207.429	100.316	166.727	-1.921	127.889	106.908	140.760	2.0545e-05	6.5674e-05	9.2774e-06	62.505	3.5479e-07	8.5608e-07	52.096	23.7	1.5365e-07	3.9662e-07	20.163	5.412	7.0557	2.4465	1.034e-06	1.9996	1.7552e-05	1.0932e-05	7.8383e-06	75.913	1.767e-06	2.9347e-07	62.992	28.711	1.7966e-07	6.798e-07	24.575	6.6103	8.6288	3.0254	3.4951e-08	2.4618	234.815	315.383	-21.699	-18.798	55.641	181.177	-20.595	-13.769	194.845	125.168	-18.017	-12.837	-9.558	-4.999	113.250	-9.620	-8191	255	
1422.380	1	1	0	0	0.12978	0.21572	0.11325	0.041337	0.085376	0.12024	0.052309	0.031033	0.17853	0.23895	0.2051	0.13388	0.2272	0.18838	0.09769	0.10451	-2.7896	-3.175	-2.8833	-3.35	-2.9333	-2.9688	-3.2896	-2.8271	-3.4042	-3.3	-2.7396	-3.2771	-3.2354	-2.9979	-3.4146	-2.8417	5.088	295.716	20.881	-1.605	297.328	325.224	46.319	326.517	147.418	20.664	119.643	278.292	99.657	138.901	160.829	79.350	1.1808e-05	5.252e-05	7.5663e-06	62.444	9.9341e-07	1.3943e-07	51.396	23.304	4.4769e-07	5.8037e-07	19.686	5.2408	6.9457	2.4233	1.261e-07	1.9384	2.5096e-05	2.0548e-05	1.3026e-05	75.507	3.0137e-06	2.3808e-07	62.057	28.338	1.7324e-07	1.2504e-07	23.903	6.4435	8.4762	2.9815	-4.6935e-08	2.4355	227.623	-13.526	49.301	-18.641	130.757	292.246	-20.787	-13.491	153.772	60.171	-17.827	-12.778	-10.020	-5.166	233.707	-10.144	-8191	255	
1422.476	1	1	0	0	0.14154	0.087689	0.15858	0.046484	0.12357	0.14077	0.15866	0.10002	0.057051	0.21708	0.12759	0.12356	0.091387	0.12168	0.099726	0.079578	-2.5958	-3.2812	-2.8396	-3.275	-3.1771	-2.9854	-3.1583	-2.7812	-3.0438	-3.3063	-2.8417	-3.2125	-3.0083	-3.0229	-3.5125	-2.9354	82.263	60.682	315.099	66.143	136.539	-15.602	287.039	324.424	136.150	324.779	-26.906	-6.099	120.244	219.578	281.725	286.505	1.0252e-05	6.1799e-05	1.0326e-05	62.325	4.6108e-07	6.4335e-07	51.303	23.144	5.635e-07	1.0396e-07	19.461	5.228	6.8833	2.3616	5.4426e-07	1.911	1.9515e-05	-8.0978e-07	7.4392e-06	75.553	1.0757e-06	3.3944e-07	62.081	28.228	1.5125e-07	-9.4687e-08	24.017	6.4281	8.4129	2.9341	-3.1956e-08	2.3759	263.629	69.128	209.820	-18.570	69.580	111.995	-20.686	-13.925	88.958	123.690	-17.969	-12.889	-10.130	-5.009	69.204	-9.802	-8191	255	
1422.572	1	1	0	0	0.071425	0.10749	0.10575	0.14242	0.22911	0.13113	0.22629	0.13935	0.14634	0.10631	0.052032	0.12508	0.099028	0.1149	0.14677	0.16348	-2.7521	-3.3646	-3.0417	-3.0625	-3.2146	-2.8521	-3.3896	-3.1271	-2.8	-3.3042	-2.9125	-3.3125	-3.2729	-2.8479	-3.425	-3.125	275.991	310.113	-4.514	196.347	197.672	297.588	215.761	263.025	154.758	9.902	-19.312	-5.687	139.110	300.924	280.934	18.129	1.3158e-05	4.4896e-05	1.3838e-05	62.357	1.4738e-06	9.0815e-07	51.027	23.076	2.9083e-07	3.991e-07	19.349	5.2105	6.7845	2.3304	7.6402e-07	1.877	2.6251e-05	-6.9844e-06	8.0663e-06	74.98	3.8346e-07	2.9335e-06	61.665	27.993	2.0533e-07	-3.8846e-08	23.675	6.3497	8.3076	2.8669	9.6866e-08	2.3372	212.411	6.166	57.172	-18.215	73.473	124.718	-20.468	-13.933	198.676	172.664	-17.997	-13.124	-10.026	-4.987	93.298	-10.423	-8191	255	
1422.669	1	1	0	0	0.13591	0.1458	0.14878	0.19557	0.09775	0.11638	0.1398	0.11609	0.17185	0.11717	0.076468	0.117	0.21967	0.12707	0.12525	0.23296	-2.6688	-3.4896	-2.8958	-3.2771	-3.3833	-2.9062	-3.2979	-3.1729	-2.9708	-3.15	-2.9313	-3.1625	-3.2042	-2.9271	-3.5667	-3.1937	147.596	77.763	62.724	292.484	227.917	276.626	305.207	281.855	134.941	196.698	41.937	274.134	85.204	5.848	222.331	37.153	1.3166e-05	3.6983e-05	1.6613e-05	61.341	8.817e-07	9.6021e-07	50.847	22.724	4.119e-07	3.2983e-07	19.114	5.1128	6.6636	2.2898	6.4285e-07	1.8647	3.2679e-05	-9.1101e-07	7.5532e-06	74.22	1.7913e-07	2.4479e-06	61.241	27.656	4.4824e-07	-3.5204e-08	23.5	6.2163	8.1724	2.8175	1.1983e-07	2.2836	225.151	30.057	57.512	-18.259	130.613	74.166	-20.820	-13.903	-31.502	242.540	-17.962	-12.673	-10.424	-5.085	165.278	-10.443	-8191	255	
1422.765	1	1	0	0	0.14613	0.14707	0.18851	0.020035	0.013255	0.23114	0.25118	0.23003	0.20821	0.020647	0.34127	0.029683	0.063079	0.23136	0.043612	0.0901	-2.4771	-3.4271	-3.1042	-3.3542	-3.2896	-2.85	-3.0417	-3.3063	-3.0604	-3.4458	-2.9021	-2.8604	-3.1854	-2.9292	-3.3625	-3.2792	109.316	34.385	36.675	107.293	221.397	241.236	289.805	-15.708	229.257	213.518	237.001	120.205	103.376	246.412	96.535	8.827	1.7019e-05	3.9324e-05	7.6095e-06	60.944	3.9484e-07	1.7604e-06	49.43	22.493	5.6878e-07	9.1988e-07	18.59	4.8917	6.6183	2.2282	5.5072e-07	1.8042	4.565e-05	2.4294e-06	7.1542e-06	73.791	1.8183e-07	4.0791e-06	59.953	27.281	4.5465e-07	1.2139e-07	22.724	6.024	8.0467	2.7562	1.7975e-07	2.2052	239.633	68.349	65.285	-18.585	139.622	94.423	-20.586	-13.987	131.402	179.550	-17.103	-13.051	-10.040	-5.098	141.007	-9.508	-8191	255	
1422.861	1	1	0	0	0.35612	0.12162	0.080514	0.24396	0.16956	0.13959	0.16135	0.057533	0.27652	0.15834	0.088568	0.31088	0.24491	0.10451	0.14342	0.20937	-2.4271	-3.3625	-3.025	-3.1604	-3.4521	-2.8792	-3.1646	-3.1979	-2.8292	-3.5312	-3.1146	-2.9146	-3.4792	-2.9083	-3.1708	-3.2833	115.002	324.583	164.926	308.077	302.818	-29.718	288.469	253.182	254.842	250.654	148.731	11.586	131.316	185.083	162.990	187.454	1.4422e-05	5.023e-05	1.0732e-05	61.139	3.2379e-07	1.0314e-06	51.038	23.226	5.0974e-07	6.2236e-07	19.704	5.3808	7.0837	2.4455	2.7844e-07	1.9955	0.0001256	4.9599e-06	3.3348e-06	74.13	-1.4762e-07	2.3254e-06	61.877	28.281	2.3283e-07	-2.8892e-07	24.328	6.5706	8.6002	3.022	-7.7892e-08	2.4402	235.538	61.948	25.099	-18.301	158.997	102.702	-20.637	-13.641	240.322	46.752	-17.923	-13.438	-9.722	-5.349	316.734	-9.537	-8191	255	
1422.957	1	1	0	0	0.16733	0.16388	0.088564	0.042107	0.078203	0.17483	0.18628	0.14558	0.20374	0.19376	0.17706	0.23209	0.25995	0.29007	0.21296	0.10485	-2.4875	-3.1188	-3.175	-2.9104	-3.3979	-3.0417	-3.1063	-3.3125	-2.9562	-3.2896	-3.0271	-2.9188	-3.5479	-2.9417	-3.1521	-3.2917	171.884	73.973	147.355	85.072	14.903	273.113	120.273	90.492	138.036	59.789	124.408	173.797	235.282	241.002	143.088	36.125	7.7358e-06	7.0534e-05	1.4051e-05	63.633	6.5431e-07	1.857e-06	52.232	23.695	2.8463e-07	9.1334e-07	20.214	5.4093	7.1064	2.4901	9.0408e-07	2.0851	8.876e-05	-2.1561e-05	2.2232e-06	76.87	-8.1913e-08	3.9554e-06	63.078	28.708	1.6316e-07	-1.8088e-07	24.451	6.6375	8.6824	3.0644	5.0929e-08	2.5125	251.709	86.784	202.562	-18.145	177.949	88.468	-20.799	-13.663	58.629	288.263	-18.121	-13.355	-10.426	-5.008	142.956	-10.424	-8191	255	
1423.076	1	1	0	0	0.40237	0.14583	0.060855	0.22207	0.036443	0.096001	0.45424	0.21948	0.11177	0.013279	0.079871	0.21221	0.081511	0.15102	0.17845	0.091533	-2.6229	-3.2938	-3.0729	-2.8625	-3.4583	-3.1312	-3.0542	-3.4354	-3.0417	-3.2708	-3.0542	-3.1729	-3.3479	-3.0021	-3.0479	-3.4229	305.552	225.817	-12.686	141.483	231.398	208.383	295.292	204.514	155.268	162.827	43.025	323.790	158.588	266.246	15.902	147.691	1.3374e-05	2.9761e-05	6.9936e-06	65.134	4.5713e-07	1.0266e-06	54.079	24.442	2.8965e-07	4.7387e-07	20.56	5.5705	7.2285	2.55	1.8581e-07	2.0889	0.00014288	-1.8423e-05	-4.703e-06	78.783	-2.1513e-07	2.0095e-06	65.681	29.7	5.6832e-08	-2.8527e-07	25.038	6.8992	8.8729	3.1495	-3.1956e-08	2.5536	328.042	47.867	76.407	-18.370	185.413	137.825	-20.508	-13.903	101.624	118.385	-17.626	-13.044	-9.756	-5.624	204.561	-10.294	-8191	255	
1423.172	1	1	0	0	0.1761	0.24959	0.30077	0.13566	0.07923	0.32638	0.08533	0.25213	0.08585	0.20119	0.14884	0.13431	0.061028	0.20885	0.32243	0.18403	-2.5521	-3.1833	-3.2667	-2.9813	-3.3771	-3.0583	-2.8125	-3.4021	-3.1146	-3.1729	-3.3417	-2.8229	-3.3854	-3.25	-2.975	-3.45	218.650	231.091	3.708	-11.684	63.342	296.337	183.064	-18.771	75.932	262.357	-16.235	71.253	146.669	-29.319	313.468	134.515	8.2928e-06	2.9634e-05	7.5433e-06	64.878	3.7614e-07	1.4599e-06	53.386	24.191	3.163e-07	5.416e-07	20.312	5.5289	7.2362	2.5519	6.5319e-07	2.0515	9.1185e-05	-1.6196e-05	-9.4344e-06	78.468	-1.6653e-07	3.8811e-06	64.565	29.383	-7.4248e-08	-3.0227e-07	24.68	6.7913	8.8077	3.1272	-5.0929e-08	2.5021	223.031	68.435	110.032	-18.524	290.686	106.302	-20.455	-14.035	203.627	123.772	-18.128	-13.326	-10.185	-5.200	146.649	-9.645	-8191	255	
1423.268	1	1	0	0	0.34352	0.13131	0.27481	0.073834	0.052451	0.015653	0.1251	0.25277	0.16929	0.11581	0.18424	0.11	0.034879	0.14049	0.38437	0.23669	-2.5187	-3.0771	-3.3208	-2.9667	-3.15	-3.2062	-3	-3.3292	-3.2417	-3.0979	-3.3521	-2.8708	-3.0438	-3.0271	-3.0396	-3.3875	57.510	157.353	38.346	35.612	22.343	67.054	217.884	253.902	326.873	288.898	48.301	255.345	79.376	314.262	28.184	55.082	1.07e-05	1.9746e-05	1.58e-05	64.041	2.1882e-07	6.1678e-07	52.959	23.993	4.4319e-07	5.4804e-07	20.409	5.5392	7.2252	2.5483	5.1536e-07	2.0748	0.00015077	-9.4137e-06	-8.3228e-06	77.534	2.0703e-08	1.2081e-06	63.803	29.138	2.1083e-08	1.1897e-07	24.609	6.8262	8.7949	3.106	1.9972e-07	2.5023	286.087	82.494	-31.151	-18.416	-25.508	62.451	-20.619	-13.946	128.932	149.502	-18.272	-13.511	-10.115	-5.365	122.086	-10.249	-8191	255	
1423.364	1	1	0	0	0.14967	0.06877	0.2049	0.12453	0.168	0.13213	0.10782	0.17947	0.18226	0.089267	0.14575	0.23493	0.05886	0.13296	0.17284	0.12802	-2.6958	-2.8292	-3.4583	-3.025	-3.2479	-3.1854	-2.9125	-3.2479	-3.2458	-3.2062	-3.35	-2.7729	-3.15	-3.2708	-3.0354	-3.35	110.724	66.000	287.433	68.634	134.121	143.050	158.346	41.091	325.043	183.232	180.803	259.266	150.425	25.485	264.854	131.726	1.3386e-05	8.64e-05	9.1481e-06	63.864	6.1513e-07	1.9416e-07	52.517	24.05	1.8335e-07	1.5126e-07	20.424	5.4967	7.1889	2.4963	3.9878e-07	2.0354	9.13e-05	1.1742e-05	-3.8479e-06	77.264	1.9803e-08	-1.0136e-07	64.312	29.106	1.9891e-07	1.3596e-07	24.725	6.7971	8.7696	3.079	3.9545e-07	2.4938	294.015	60.108	62.714	-18.567	147.337	121.562	-20.715	-13.783	98.591	159.401	-17.462	-13.507	-9.899	-5.322	156.954	-10.234	-8191	255	
1423.461	1	1	0	0	0.24982	0.08861	0.19363	0.23263	0.12527	0.15786	0.11079	0.19119	0.23073	0.21518	0.11066	0.037936	0.10228	0.14885	0.20145	0.17723	-2.5812	-2.8604	-3.5396	-3.0083	-3.2042	-3.1937	-2.8292	-3.3104	-3.15	-2.9542	-3.3688	-2.9604	-3.0521	-3.2833	-3.2125	-3.2167	256.999	258.529	267.249	138.456	241.704	61.060	181.159	293.416	202.934	29.035	237.052	288.431	81.696	105.042	79.521	-31.102	9.2775e-06	3.1835e-05	1.0365e-05	63.455	3.1714e-07	3.5325e-07	52.121	23.799	4.8514e-07	5.1497e-07	19.782	5.3257	7.0006	2.3842	2.6858e-07	1.9329	0.00015058	2.733e-05	-2.2802e-06	76.666	8.3713e-08	-6.1287e-08	63.203	28.846	1.8974e-07	2.2579e-07	23.935	6.5838	8.5295	2.937	4.8932e-07	2.3423	266.894	223.006	73.971	-18.805	158.730	50.018	-20.576	-13.625	76.300	318.551	-18.298	-13.411	-10.198	-5.141	312.910	-10.311	-8191	255	
1423.557	1	1	0	0	0.19147	0.067289	0.19134	0.2038	0.11043	0.15115	0.076753	0.13868	0.27972	0.069569	0.14943	0.14763	0.19336	0.012111	0.092618	0.20262	-2.8229	-2.9042	-3.3312	-2.875	-2.9437	-3.3896	-3.0563	-3.3083	-3.175	-2.8917	-3.4833	-3.1604	-3.1917	-3.4313	-3.1208	-3.3375	-1.019	49.873	137.114	157.277	148.575	109.107	303.234	319.319	240.865	15.335	298.087	62.557	-27.106	191.599	-2.591	242.753	1.1e-06	5.0232e-05	1.5702e-05	61.86	7.7796e-07	2.8664e-07	50.299	23.246	5.0079e-07	5.4242e-07	19.426	5.2031	6.8627	2.357	8.9662e-08	1.9134	6.5896e-05	9.3631e-05	4.5034e-06	74.445	4.3837e-07	1.3907e-07	61.322	28.107	4.1615e-07	6.7616e-07	23.439	6.437	8.4257	2.8994	4.6436e-07	2.3261	219.007	149.681	58.543	-18.756	84.503	74.954	-20.761	-13.690	214.501	110.551	-18.084	-13.534	-10.294	-5.215	236.840	-10.607	-8191	255	
1423.677	1	1	0	0	0.21372	0.26676	0.023348	0.28725	0.15734	0.14778	0.14159	0.22601	0.14422	0.077072	0.16131	0.21485	0.09109	0.26202	0.05394	0.074775	-2.8	-2.9688	-3.0187	-2.9229	-2.8792	-3.3563	-2.9292	-3.2062	-3.4979	-3.1188	-3.2938	-3.0792	-2.8979	-3.3583	-3.1417	-3.2521	312.661	274.890	70.311	43.134	277.153	-31.454	251.709	23.686	146.885	-10.937	27.909	199.767	149.772	325.791	278.678	-6.010	1.7863e-05	3.9803e-05	1.0232e-05	61.094	4.2985e-07	2.0283e-07	50.23	23.044	1.8327e-07	5.7886e-07	19.36	5.1461	6.8015	2.3368	3.325e-07	1.8995	3.0023e-05	0.00034092	8.4938e-06	73.765	5.7609e-07	1.9918e-07	60.761	27.978	2.6399e-07	5.3292e-07	23.309	6.4075	8.3241	2.869	5.6322e-07	2.3072	267.020	57.354	213.690	-18.830	177.251	155.034	-20.402	-13.803	237.964	259.375	-17.905	-13.096	-10.674	-5.387	111.073	-9.830	-8191	255	
1423.773	1	1	0	0	0.1009	0.31623	0.088256	0.20804	0.25994	0.062775	0.13772	0.081381	0.23458	0.030185	0.066928	0.080877	0.27601	0.11477	0.14608	0.12373	-3.1229	-3.0667	-3.2979	-3.1708	-2.8604	-3.2771	-2.8354	-3.3937	-3.3479	-2.8708	-3.2917	-3.325	-3.1125	-3.4688	-2.9875	-3.1813	217.008	106.649	147.325	85.449	-14.180	11.320	5.274	286.104	266.027	119.360	303.075	80.225	15.886	170.975	129.266	70.830	1.4403e-05	7.1804e-05	6.5886e-06	59.832	6.5713e-07	1.3054e-07	49.316	22.818	7.2006e-07	8.3214e-07	19.149	5.1855	6.8166	2.3451	4.4923e-07	1.9044	2.5211e-05	0.00022623	6.4416e-06	72.459	4.9148e-07	1.4261e-07	59.843	27.625	2.6033e-07	4.965e-07	23.089	6.3422	8.3247	2.8902	4.7933e-07	2.3154	223.471	-11.574	310.608	-18.549	141.785	155.353	-20.701	-13.783	192.869	168.631	-17.968	-13.745	-10.127	-5.185	121.954	-9.725	-8191	255	
1423.870	1	1	0	0	0.017752	0.28011	0.27719	0.19302	0.062815	0.15648	0.078074	0.1109	0.04896	0.10269	0.11997	0.31376	0.21326	0.19209	0.23709	0.24827	-2.9	-2.9188	-3.3708	-3.2833	-2.8729	-3.3917	-3.0438	-3.0083	-3.5396	-3.1729	-3.1479	-3.1271	-2.8583	-3.2271	-3.2188	-2.9646	193.786	8.128	87.472	74.748	48.704	305.776	297.192	148.422	106.294	16.201	52.653	238.151	301.383	29.792	-21.917	236.345	1.1383e-05	9.1191e-05	7.0448e-06	58.281	3.888e-07	4.0015e-07	47.828	22.536	2.8895e-07	9.8269e-07	18.666	5.0654	6.716	2.356	7.1024e-07	1.9123	3.0331e-05	0.00036299	6.5556e-06	70.647	4.0867e-07	2.7933e-07	58.146	27.224	2.3649e-07	4.9164e-07	22.596	6.2017	8.3331	2.893	3.595e-07	2.3267	242.038	-20.762	296.557	-18.570	38.318	37.495	-20.639	-13.918	110.403	119.100	-18.293	-13.212	-10.081	-5.119	145.982	-10.360	-8191	255	
1423.964	1	1	0	0	0.12311	0.23193	0.049325	0.21647	0.31771	0.25376	0.099907	0.22896	0.071616	0.229	0.20455	0.09085	0.23443	0.087836	0.065054	0.24416	-2.9854	-2.8646	-3.2062	-3.2396	-3.1042	-3.375	-3.2438	-2.9875	-3.2875	-2.9688	-3.0708	-3.2917	-2.9521	-3.3792	-3.4688	-2.975	134.578	14.524	153.316	305.531	66.234	186.343	221.367	280.801	151.597	152.459	302.778	112.869	196.577	181.196	232.607	307.928	1.1821e-05	7.7425e-05	2.4768e-05	59.401	1.1316e-06	2.0506e-07	48.191	22.695	6.4443e-07	5.2897e-07	18.858	5.1317	6.8029	2.3794	7.0553e-07	1.9353	1.963e-05	0.00020761	5.7576e-06	71.147	3.4385e-07	2.2511e-07	58.682	27.433	9.4414e-08	3.7753e-07	22.802	6.2991	8.3867	2.938	2.6363e-07	2.3594	213.309	1.885	-4.287	-18.854	205.010	149.840	-20.569	-13.929	211.751	109.646	-17.262	-13.371	-10.583	-5.057	193.045	-9.460	-8191	255	
#DATA ENDS
