BOXY.EXE: ISS Imagent and Oximeter Data Acquisition Program Version 0.80
Ascii Record File

#ACQ INFORMATION
2  Detector Channels 
16  External MUX Channels 
1  Auxiliary Channels 
5000  Waveform (CCF) Frequency (Hz)
1  Waveforms Skipped 
30  Waveforms Averaged 
1  Cycles Averaged 
16  Acquisitions per Waveform 
10.0806  Updata Rate (Hz) 

#FILE INFORMATION
TRUE -- External MUX Channel results are PARSED.
FALSE -- AC DC and Phase are NOT grouped.
TRUE -- Companion Program Settings File CREATED.
FALSE -- AC data not excluded
FALSE -- DC data not excluded
FALSE -- Phase data not excluded
FALSE -- Auxillary Chn. data not excluded
Tab delimiters

#CALIBRATION STATE
TRUE -- Waveform Calibration Values APPLIED.


#AUX CALIBRATION VALUES
Val Type	aux-1	

Term	1.0000e+00	
Factor	0.0000e+00	


#WF CALIBRATION VALUES
A = Detector Channel
Val Type	A-AC1	A-AC2	A-AC3	A-AC4	A-AC5	A-AC6	A-AC7	A-AC8	A-AC9	A-AC10	A-AC11	A-AC12	A-AC13	A-AC14	A-AC15	A-AC16	A-DC1	A-DC2	A-DC3	A-DC4	A-DC5	A-DC6	A-DC7	A-DC8	A-DC9	A-DC10	A-DC11	A-DC12	A-DC13	A-DC14	A-DC15	A-DC16	A-Ph1	A-Ph2	A-Ph3	A-Ph4	A-Ph5	A-Ph6	A-Ph7	A-Ph8	A-Ph9	A-Ph10	A-Ph11	A-Ph12	A-Ph13	A-Ph14	A-Ph15	A-Ph16	

Term	0.00000e+00	0.00000e+00	0.00000e+00	0.00000e+00	0.00000e+00	0.00000e+00	0.00000e+00	0.00000e+00	0.00000e+00	0.00000e+00	0.00000e+00	0.00000e+00	0.00000e+00	0.00000e+00	0.00000e+00	0.00000e+00	0.00000e+00	0.00000e+00	0.00000e+00	0.00000e+00	0.00000e+00	0.00000e+00	0.00000e+00	0.00000e+00	0.00000e+00	0.00000e+00	0.00000e+00	0.00000e+00	0.00000e+00	0.00000e+00	0.00000e+00	0.00000e+00	0.00000e+00	0.00000e+00	0.00000e+00	0.00000e+00	0.00000e+00	0.00000e+00	0.00000e+00	0.00000e+00	0.00000e+00	0.00000e+00	0.00000e+00	0.00000e+00	0.00000e+00	0.00000e+00	0.00000e+00	0.00000e+00	
Factor	1.00000e+00	1.00000e+00	1.00000e+00	1.00000e+00	1.00000e+00	1.00000e+00	1.00000e+00	1.00000e+00	1.00000e+00	1.00000e+00	1.00000e+00	1.00000e+00	1.00000e+00	1.00000e+00	1.00000e+00	1.00000e+00	1.00000e+00	1.00000e+00	1.00000e+00	1.00000e+00	1.00000e+00	1.00000e+00	1.00000e+00	1.00000e+00	1.00000e+00	1.00000e+00	1.00000e+00	1.00000e+00	1.00000e+00	1.00000e+00	1.00000e+00	1.00000e+00	X	X	X	X	X	X	X	X	X	X	X	X	X	X	X	X	

B = Detector Channel
Val Type	B-AC1	B-AC2	B-AC3	B-AC4	B-AC5	B-AC6	B-AC7	B-AC8	B-AC9	B-AC10	B-AC11	B-AC12	B-AC13	B-AC14	B-AC15	B-AC16	B-DC1	B-DC2	B-DC3	B-DC4	B-DC5	B-DC6	B-DC7	B-DC8	B-DC9	B-DC10	B-DC11	B-DC12	B-DC13	B-DC14	B-DC15	B-DC16	B-Ph1	B-Ph2	B-Ph3	B-Ph4	B-Ph5	B-Ph6	B-Ph7	B-Ph8	B-Ph9	B-Ph10	B-Ph11	B-Ph12	B-Ph13	B-Ph14	B-Ph15	B-Ph16	

Term	0.00000e+00	0.00000e+00	0.00000e+00	0.00000e+00	0.00000e+00	0.00000e+00	0.00000e+00	0.00000e+00	0.00000e+00	0.00000e+00	0.00000e+00	0.00000e+00	0.00000e+00	0.00000e+00	0.00000e+00	0.00000e+00	0.00000e+00	0.00000e+00	0.00000e+00	0.00000e+00	0.00000e+00	0.00000e+00	0.00000e+00	0.00000e+00	0.00000e+00	0.00000e+00	0.00000e+00	0.00000e+00	0.00000e+00	0.00000e+00	0.00000e+00	0.00000e+00	-3.80650e+01	-1.32862e+02	-1.25430e+02	-1.81665e+02	-4.66408e+01	-6.69153e+01	-1.55920e+02	-1.62015e+02	-3.32665e+01	-6.84437e+01	-1.70727e+02	-1.71644e+02	-1.80701e+02	-1.77487e+02	-4.82893e+01	-1.50551e+02	
Factor	2.17353e-05	1.62563e-04	4.39496e-05	1.54653e-01	1.72098e-06	1.76303e-06	1.62475e-01	5.94268e-02	1.39045e-06	1.85064e-06	8.19659e-02	2.80416e-02	2.61055e-02	8.93581e-03	1.65438e-06	1.28829e-02	1.84756e-05	4.85871e-05	1.36813e-05	7.94789e-02	4.32069e-07	5.65725e-07	7.86197e-02	3.06710e-02	4.39986e-07	5.82689e-07	4.11320e-02	1.40425e-02	1.36022e-02	4.66921e-03	4.79335e-07	6.49530e-03	X	X	X	X	X	X	X	X	X	X	X	X	X	X	X	X	



#DISTANCE SETTINGS
A = Detector Channel
A-1	A-2	A-3	A-4	A-5	A-6	A-7	A-8	A-9	A-10	A-11	A-12	A-13	A-14	A-15	A-16	

2.5000e+00	3.0000e+00	2.5000e+00	3.0000e+00	2.0000e+00	3.0000e+00	1.5000e+00	3.0000e+00	3.0000e+00	3.0000e+00	3.0000e+00	3.0000e+00	3.0000e+00	3.0000e+00	1.5000e+00	3.0000e+00	

B = Detector Channel
B-1	B-2	B-3	B-4	B-5	B-6	B-7	B-8	B-9	B-10	B-11	B-12	B-13	B-14	B-15	B-16	

1.0000e+01	1.0000e+01	1.0000e+01	1.4400e+00	1.0000e+01	1.0000e+01	1.5100e+00	1.9400e+00	1.0000e+01	1.0000e+01	1.9900e+00	2.4900e+00	2.4100e+00	2.9000e+00	1.0000e+01	2.9800e+00	




#DATA BEGINS
time	group	step	mark	flag	A-AC1	A-AC2	A-AC3	A-AC4	A-AC5	A-AC6	A-AC7	A-AC8	A-AC9	A-AC10	A-AC11	A-AC12	A-AC13	A-AC14	A-AC15	A-AC16	A-DC1	A-DC2	A-DC3	A-DC4	A-DC5	A-DC6	A-DC7	A-DC8	A-DC9	A-DC10	A-DC11	A-DC12	A-DC13	A-DC14	A-DC15	A-DC16	A-Ph1	A-Ph2	A-Ph3	A-Ph4	A-Ph5	A-Ph6	A-Ph7	A-Ph8	A-Ph9	A-Ph10	A-Ph11	A-Ph12	A-Ph13	A-Ph14	A-Ph15	A-Ph16	B-AC1	B-AC2	B-AC3	B-AC4	B-AC5	B-AC6	B-AC7	B-AC8	B-AC9	B-AC10	B-AC11	B-AC12	B-AC13	B-AC14	B-AC15	B-AC16	B-DC1	B-DC2	B-DC3	B-DC4	B-DC5	B-DC6	B-DC7	B-DC8	B-DC9	B-DC10	B-DC11	B-DC12	B-DC13	B-DC14	B-DC15	B-DC16	B-Ph1	B-Ph2	B-Ph3	B-Ph4	B-Ph5	B-Ph6	B-Ph7	B-Ph8	B-Ph9	B-Ph10	B-Ph11	B-Ph12	B-Ph13	B-Ph14	B-Ph15	B-Ph16	aux-1	digaux	

1433.399	1	1	0	256	0.28586	0.26372	0.14683	0.10888	0.10783	0.026822	0.036634	0.038307	0.051556	0.13227	0.081057	0.094502	0.12101	0.20425	0.042459	0.074039	-2.5083	-3.0417	-3.1479	-2.8708	-3.2375	-3.0375	-2.9958	-3.4542	-3.0646	-3.175	-3.4688	-3.0792	-3.2333	-3.3146	-2.9562	-3.3542	196.012	46.738	-28.934	-18.223	203.359	208.874	313.467	56.217	102.329	155.740	187.124	233.961	65.254	28.690	207.567	240.291	1.5392e-05	0.0001063	4.5877e-05	76.875	4.3776e-07	4.9703e-07	64.706	27.247	1.3774e-06	4.4216e-07	23.083	6.9135	8.3454	3.07	1.0072e-06	2.6432	1.8591e-05	-1.3159e-05	8.3912e-05	92.429	-1.9083e-07	-2.8051e-07	78.226	33.118	2.3915e-06	-2.3308e-07	27.862	8.4685	10.239	3.8171	-1.4979e-08	3.1996	200.397	51.881	9.683	-18.568	191.549	150.461	-20.810	-13.245	197.985	125.742	-17.241	-13.019	-10.009	-4.701	157.107	-9.616	-8191	255	
1433.472	1	1	0	0	0.13623	0.1613	0.14546	0.13157	0.18098	0.12692	0.13802	0.12572	0.13522	0.14845	0.10348	0.088158	0.16155	0.14107	0.18504	0.079123	-2.55	-3.2021	-3.2313	-2.975	-3.3167	-3.3354	-2.9562	-3.175	-3.0021	-2.975	-3.4354	-2.9875	-3.1354	-3.0354	-2.8708	-3.2083	160.223	178.539	48.406	224.318	40.419	161.673	236.458	259.397	121.378	228.303	214.385	43.707	265.382	108.512	-2.815	40.230	1.5018e-05	5.3286e-05	2.905e-05	75.001	2.5944e-07	1.1996e-07	62.255	26.632	1.2399e-06	5.9044e-07	22.313	6.8139	8.2452	3.0335	6.8649e-07	2.5866	1.759e-05	-2.814e-05	-2.5367e-06	90.55	-1.2512e-07	-3.7008e-07	74.923	32.259	3.771e-06	-2.3793e-07	27.007	8.2594	10.083	3.7541	3.9945e-09	3.1522	240.255	76.370	4.541	-18.447	41.467	271.748	-20.637	-13.691	238.973	83.813	-17.514	-13.156	-9.943	-4.953	170.335	-9.253	-8191	255	
1433.593	1	1	0	0	0.14806	0.17909	0.12292	0.091874	0.10044	0.17196	0.11695	0.12479	0.13362	0.18541	0.13336	0.051638	0.30135	0.23825	0.10804	0.03475	-2.8563	-3.0563	-3.3854	-2.9271	-3.3312	-3.4021	-2.8375	-3.2021	-3.0583	-3.0312	-3.3979	-2.8563	-3.1688	-3.3917	-2.7562	-3.2146	174.594	22.377	102.040	197.372	-25.978	153.764	31.328	152.838	283.538	214.367	246.173	201.429	256.470	174.950	142.713	219.448	1.5426e-05	3.8032e-05	1.8198e-05	74.898	3.1899e-07	9.6793e-07	62.826	26.544	7.7282e-07	6.1557e-07	22.839	6.7738	8.3154	3.0447	1.1767e-07	2.6376	1.3087e-05	-2.2269e-05	-7.5532e-06	90.737	-1.1432e-07	-4.5022e-07	75.554	32.254	2.1605e-06	-1.8088e-07	27.342	8.3101	10.146	3.7573	8.5382e-07	3.1867	257.007	112.929	37.452	-18.365	180.906	89.575	-20.871	-13.356	240.053	164.487	-17.480	-12.635	-9.509	-4.851	234.017	-9.495	-8191	255	
1433.687	1	1	0	0	0.1328	0.2317	0.053089	0.19267	0.10804	0.2634	0.026528	0.040352	0.11255	0.20575	0.1141	0.13473	0.094225	0.15708	0.12005	0.1083	-2.9896	-2.8187	-3.2833	-3.0896	-2.925	-3.2604	-3.0854	-3.3271	-3.1708	-2.8167	-3.4021	-3.1188	-3.0083	-3.2208	-2.9021	-3.2417	211.736	9.040	253.145	109.969	-19.668	45.606	174.866	-14.079	186.687	90.183	32.856	72.862	229.436	-7.461	-23.756	179.971	1.3195e-05	5.9707e-05	2.4991e-05	75.268	4.628e-07	4.6733e-07	63.431	27.012	1.064e-06	3.679e-07	22.952	6.9232	8.4634	3.0716	5.4232e-08	2.6523	1.0777e-05	-4.9599e-06	-1.0118e-05	91.338	-1.3502e-07	-5.1033e-07	76.722	32.704	4.0699e-06	-9.9543e-08	27.869	8.4788	10.293	3.7757	1.9493e-06	3.2402	231.028	129.911	34.850	-18.515	126.206	26.758	-20.544	-13.479	249.571	-10.759	-17.164	-12.637	-9.822	-4.784	123.055	-8.638	-8191	255	
1433.784	1	1	0	0	0.27342	0.093273	0.18541	0.11759	0.12332	0.13388	0.086145	0.089998	0.0079018	0.10909	0.24071	0.073298	0.089117	0.058137	0.12317	0.15883	-2.7771	-3.0083	-3.3521	-3.0563	-2.8937	-3.575	-2.8833	-3.0792	-3.325	-3.1688	-3.2396	-3	-2.8479	-3.5062	-2.9521	-3.0125	75.032	183.917	160.532	254.281	275.066	241.549	49.982	-25.551	166.762	199.237	318.087	-1.380	315.221	285.198	1.447	276.532	1.6344e-05	6.2691e-05	1.0083e-05	75.794	4.8587e-07	8.7634e-07	63.908	26.715	5.8249e-07	6.0094e-07	22.493	6.782	8.3318	3.0221	1.2418e-06	2.5538	1.0816e-05	-6.1746e-06	-1.0831e-05	92.138	-1.6203e-08	-4.8322e-07	76.612	32.465	2.0881e-06	-1.5296e-07	27.214	8.2885	10.117	3.7089	4.308e-06	3.1163	211.826	24.958	54.959	-18.713	170.640	83.312	-20.474	-13.671	221.212	200.324	-17.751	-12.093	-9.603	-4.559	47.744	-9.932	-8191	255	
1433.904	1	1	0	0	0.13874	0.073996	0.20736	0.14071	0.085833	0.12893	0.081271	0.1986	0.1558	0.1849	0.1309	0.32218	0.10927	0.10882	0.23391	0.16598	-2.8187	-2.8688	-3.4042	-3.2938	-2.9271	-3.4396	-3.1333	-3.125	-3.4208	-2.9062	-3.1083	-3.1167	-2.7896	-3.3396	-2.9958	-3.2167	141.850	126.292	-18.236	220.782	153.284	-13.836	125.476	112.004	291.003	315.125	225.952	279.660	33.689	31.884	213.786	160.462	2.5935e-05	3.215e-05	1.528e-05	73.687	3.618e-07	1.5927e-07	62.045	26.448	3.069e-07	9.2926e-07	22.037	6.7043	8.1879	2.9863	2.8947e-07	2.5321	1.2394e-05	-2.0143e-05	-1.3311e-05	89.681	4.5007e-08	-5.1505e-07	74.222	31.968	2.3548e-06	9.1895e-07	26.767	8.148	9.9998	3.6671	2.4216e-06	3.0984	234.163	72.188	81.405	-18.600	168.812	97.963	-20.460	-13.508	25.594	219.670	-17.603	-12.325	-9.685	-4.912	89.908	-9.871	-8191	255	
1434.000	1	1	0	0	0.26119	0.15278	0.14339	0.1366	0.064544	0.14644	0.26758	0.21251	0.2849	0.13707	0.019052	0.2246	0.17774	0.2801	0.11922	0.18723	-3.0312	-2.9375	-3.3167	-3.15	-3.0708	-3.1813	-3.0229	-3.0042	-3.5625	-2.8625	-3.1646	-3.1	-2.8708	-3.3271	-3.2396	-2.9167	130.441	53.124	280.805	231.251	-13.532	140.050	253.999	157.998	148.686	40.747	166.545	215.157	202.344	246.719	167.663	198.775	1.2619e-05	4.4548e-05	1.2322e-05	73.775	9.2766e-08	7.6339e-07	62.062	26.279	2.4787e-07	1.4501e-06	22.094	6.7578	8.2384	2.9775	1.6894e-06	2.583	2.8868e-06	-1.5993e-05	-8.4083e-06	89.738	-7.2012e-08	-5.174e-07	74.539	31.886	-3.2999e-07	2.321e-06	26.896	8.1872	10.022	3.669	4.1642e-06	3.1243	233.062	20.612	64.738	-18.371	108.490	122.687	-20.324	-13.611	-8.773	195.430	-17.470	-12.700	-9.665	-4.830	49.013	-9.468	-8191	255	
1434.072	1	1	0	0	0.22554	0.11077	0.15434	0.11403	0.31496	0.08169	0.10323	0.24172	0.10087	0.10349	0.17026	0.091285	0.08336	0.16172	0.24433	0.16416	-2.8583	-3.0521	-3.3375	-3.3	-2.9458	-3.0938	-3.3667	-3.1063	-3.3854	-2.8125	-3.1792	-3.3583	-2.9562	-3.4417	-3.2812	-2.6667	306.653	-29.455	117.915	-8.372	218.133	83.164	42.762	52.676	180.389	238.121	328.565	35.528	23.079	122.534	2.265	267.536	1.766e-05	4.9627e-05	1.5108e-05	74.369	1.3511e-07	3.9758e-07	62.619	26.561	1.2072e-07	9.964e-07	22.65	6.8165	8.2443	2.9975	8.9863e-07	2.5608	7.6597e-06	-1.5993e-05	-1.0518e-05	89.978	-6.301e-08	-4.3844e-07	75.516	32.195	-3.0799e-07	4.9881e-06	27.331	8.3038	10.081	3.6903	2.4067e-06	3.1258	211.413	63.656	27.781	-18.702	198.400	296.196	-20.625	-13.383	47.530	201.753	-17.605	-12.586	-9.821	-4.775	73.461	-9.130	-8191	255	
1434.193	1	1	0	0	0.095602	0.16127	0.10421	0.2111	0.27691	0.12017	0.046868	0.10013	0.11442	0.11231	0.20304	0.11301	0.21931	0.20976	0.05715	0.25428	-2.8688	-3.0771	-3.1292	-3.4792	-2.9458	-3.1542	-3.4271	-2.9417	-3.4	-3.0958	-2.7938	-3.2792	-2.9313	-3.1646	-3.1958	-3.0479	213.153	141.648	137.149	99.133	90.670	125.422	262.791	49.122	301.747	211.169	-19.878	203.941	257.464	-10.690	67.314	231.178	1.7492e-05	8.0009e-05	8.7854e-06	73.946	1.2657e-06	4.0624e-07	61.566	26.038	5.5034e-07	3.9269e-07	21.897	6.4938	8.0428	2.9038	8.6827e-07	2.4632	7.1593e-06	-9.1101e-06	-4.76e-06	89.353	9.6675e-07	-4.3844e-07	73.961	31.597	-2.8232e-07	2.7095e-06	26.371	7.9751	9.7999	3.5829	4.0454e-06	3.0112	224.648	54.068	21.562	-18.490	185.837	146.405	-20.948	-13.242	149.286	235.951	-17.670	-12.722	-9.380	-4.582	75.363	-9.399	-8191	255	
1434.289	1	1	0	0	0.01984	0.17702	0.11185	0.089372	0.0091837	0.053803	0.10937	0.19714	0.16677	0.086491	0.19371	0.25928	0.050701	0.09479	0.2497	0.1346	-3.0125	-3.1833	-2.9125	-3.2979	-3.1188	-3.2583	-3.3167	-2.6146	-3.2146	-3.25	-3.0125	-3.4042	-3.0042	-3.1437	-3.5271	-3.0333	195.919	208.336	173.956	-25.589	167.547	282.502	221.889	48.535	104.568	-16.667	26.271	281.849	167.510	293.226	206.316	139.589	1.8993e-05	3.576e-05	1.3935e-05	72.902	1.2322e-06	4.8839e-07	60.501	25.762	5.9182e-07	1.4049e-06	21.647	6.5559	8.0443	2.9263	5.5997e-07	2.4844	1.0008e-06	-2.9962e-05	-6.4986e-06	88.05	1.9542e-06	-3.9011e-07	72.942	31.375	-3.1807e-07	4.8521e-06	26.215	7.9533	9.8012	3.5836	2.0841e-06	3.0193	234.378	174.166	82.979	-18.388	215.663	200.635	-20.347	-13.632	182.231	270.551	-17.389	-12.699	-9.548	-4.892	17.659	-9.938	-8191	255	
1434.385	1	1	0	0	0.12288	0.11829	0.1762	0.10497	0.19574	0.15394	0.17544	0.17155	0.23025	0.27092	0.15364	0.11903	0.11534	0.05834	0.058082	0.13517	-2.8333	-3.1479	-2.9417	-3.3271	-3.0479	-3.1604	-3.2792	-2.9042	-3.3125	-3.3667	-2.6396	-3.25	-3.0292	-3.2146	-3.4667	-2.95	115.918	315.608	243.444	286.652	32.848	122.463	1.725	298.089	158.098	193.122	256.160	5.293	318.623	155.476	193.606	66.771	1.1786e-05	7.1338e-05	1.5083e-05	72.609	1.7695e-06	7.7128e-07	61.437	26.082	3.5935e-07	5.637e-07	21.907	6.5969	8.0699	2.923	2.2406e-06	2.5059	7.8136e-06	-2.7128e-05	-5.387e-06	88.025	3.8463e-06	-3.3472e-07	73.503	31.572	-3.2449e-07	2.6524e-06	26.523	8.0492	9.8589	3.5912	1.8994e-06	3.0548	221.802	-5.446	85.329	-18.512	153.091	62.315	-20.576	-13.440	119.003	296.341	-17.378	-13.207	-10.227	-4.681	45.853	-9.780	-8191	255	
1434.479	1	1	0	0	0.20813	0.10574	0.14456	0.19246	0.089721	0.11455	0.34398	0.3009	0.11766	0.17672	0.2511	0.23071	0.14007	0.027597	0.30551	0.14821	-2.7417	-3.3229	-3.0438	-3.3479	-3.1896	-3.0104	-3.2896	-3.0021	-3.35	-3.35	-2.9313	-3.2854	-2.9917	-2.9333	-3.2708	-3.075	22.835	155.521	84.320	113.323	289.656	287.007	235.379	15.907	25.456	38.785	201.707	298.485	128.805	137.452	-28.718	14.407	7.3805e-06	6.495e-05	8.7597e-06	73.545	9.0015e-07	6.008e-07	62.183	26.127	3.9925e-07	1.5399e-06	22.242	6.619	8.078	2.9176	6.3497e-07	2.4865	1.2702e-05	-1.7916e-05	-4.2469e-06	88.612	2.046e-06	-3.6183e-07	74.441	31.678	-1.8149e-07	4.7307e-06	26.763	8.0406	9.8409	3.5792	-3.5451e-07	3.0436	254.680	29.581	76.592	-18.681	176.473	175.964	-20.976	-13.529	155.393	266.390	-17.285	-12.786	-9.780	-4.559	167.716	-9.664	-8191	255	
1434.600	1	1	0	0	0.16454	0.29323	0.26617	0.15301	0.13881	0.17693	0.21676	0.23387	0.25665	0.17449	0.12191	0.077325	0.21093	0.25335	0.12477	0.24783	-2.8292	-3.1063	-2.7875	-3.3354	-3.1312	-3.1688	-3.3917	-2.9188	-3.0563	-3.4792	-2.9437	-3.3833	-3.1688	-2.7896	-3.3729	-3.0896	274.757	-3.404	230.460	280.971	120.742	294.290	130.678	224.282	54.685	23.110	300.605	93.705	193.471	53.996	124.557	300.734	2.0962e-05	2.8969e-05	1.7422e-05	72.212	1.9103e-06	1.4034e-07	59.922	25.624	2.3187e-07	6.6419e-07	21.379	6.4637	7.9562	2.8743	5.1337e-07	2.4629	1.147e-05	-2.6925e-05	-4.874e-06	87.379	3.5826e-06	-3.1233e-07	72.163	31.157	-1.5949e-07	2.3987e-06	25.929	7.8488	9.7064	3.5492	-3.6749e-07	3.0328	229.669	35.627	68.162	-18.644	152.415	45.912	-20.461	-13.492	-1.480	316.517	-17.190	-12.840	-9.910	-4.893	135.358	-10.101	-8191	255	
1434.696	1	1	0	0	0.15276	0.27028	0.021463	0.056219	0.15639	0.078234	0.15858	0.029277	0.10894	0.075031	0.13685	0.064364	0.22575	0.11487	0.089354	0.31748	-2.8333	-3.1312	-2.8958	-3.2771	-3.1958	-2.9354	-3.3875	-3.2417	-3.0771	-3.2208	-2.8688	-3.2292	-3.1104	-2.7604	-3.3833	-3.1063	47.616	247.125	195.693	130.296	220.174	161.073	194.742	140.525	258.780	205.582	44.973	249.235	14.597	32.724	186.912	105.260	1.7465e-05	4.9015e-05	1.3452e-05	72.368	1.1327e-06	3.1065e-07	60.284	25.831	1.9058e-07	8.3719e-07	21.499	6.4538	8.0362	2.9191	4.644e-07	2.4757	1.2971e-05	-3.6744e-05	-6.0996e-06	87.249	2.0208e-06	-2.8051e-07	71.945	31.247	-1.1366e-07	2.162e-06	26.25	7.9109	9.7883	3.5764	-3.9345e-07	3.0361	246.725	106.394	37.582	-18.487	180.144	67.860	-20.623	-13.434	44.607	-18.460	-17.570	-12.620	-9.560	-4.774	51.029	-9.720	-8191	255	
1434.768	1	1	0	0	0.22869	0.21985	0.18094	0.018731	0.25195	0.16847	0.38977	0.14223	0.049158	0.30437	0.097254	0.23919	0.13913	0.056042	0.061541	0.086008	-2.6458	-3.2917	-2.9229	-3.2146	-3.2708	-3.0604	-3.4437	-3.2417	-3.025	-3.475	-2.9917	-3.0667	-3.1229	-2.7625	-3.2687	-3.2	81.355	268.379	159.540	14.794	292.469	162.846	158.948	107.102	78.993	98.087	144.517	291.021	94.314	157.577	122.580	111.485	1.6409e-05	6.0218e-05	7.0042e-06	72.96	1.3092e-06	4.1263e-07	60.31	25.864	8.2603e-07	9.2337e-07	21.909	6.5747	8.1069	2.9289	4.2018e-07	2.5054	1.0585e-05	-3.7857e-05	1.4821e-06	87.33	3.5232e-06	-3.0172e-07	72.46	31.308	-1.9341e-07	-6.4946e-07	26.609	8.0048	9.8534	3.5911	-3.0358e-07	3.0964	216.007	-2.053	32.011	-18.295	189.128	171.884	-20.910	-13.506	190.437	102.637	-17.450	-12.522	-9.515	-4.567	164.056	-9.720	-8191	255	
1434.864	1	1	0	0	0.24551	0.070162	0.072273	0.21598	0.086725	0.14925	0.16733	0.2392	0.12828	0.13875	0.18619	0.18753	0.055016	0.29183	0.17532	0.098199	-2.5208	-3.3708	-2.9333	-2.9188	-3.3104	-2.9813	-3.3396	-3.1	-2.7146	-3.4417	-3.0521	-3.2542	-3.2875	-2.7125	-3.1937	-3.1437	133.386	11.987	102.758	304.468	275.065	255.981	-0.152	184.877	314.868	201.937	312.506	125.143	108.718	46.169	189.726	181.925	1.2535e-05	3.127e-05	1.4724e-05	72.739	8.8455e-07	6.9015e-07	61.005	25.855	1.7571e-07	8.6879e-07	21.719	6.5362	8.001	2.8795	4.5512e-07	2.4516	1.4588e-05	-3.2999e-05	-4.1329e-06	87.882	2.0388e-06	-1.8975e-07	73.167	31.4	-2.5666e-08	-5.5841e-07	26.47	7.9251	9.7519	3.5502	-2.4366e-07	3.0081	241.480	121.138	23.135	-18.423	159.433	88.996	-20.361	-13.251	178.663	192.200	-17.432	-12.944	-9.543	-4.678	164.663	-10.017	-8191	255	
1434.985	1	1	0	0	0.19196	0.28848	0.1141	0.17828	0.022328	0.27547	0.16475	0.16793	0.16878	0.15293	0.29466	0.22343	0.1722	0.30083	0.063268	0.13446	-2.4625	-3.4167	-3.1021	-3.2562	-3.5354	-2.9125	-3.2583	-3.1542	-2.9417	-3.5625	-3.0771	-2.975	-3.3333	-3.1312	-3.1083	-3.4458	291.703	-21.700	307.097	193.598	302.307	327.024	94.077	76.922	266.965	233.012	266.136	251.674	120.366	70.849	247.569	260.414	1.4381e-05	3.4219e-05	1.3742e-05	71.688	7.8837e-07	1.26e-06	58.994	25.569	3.9669e-07	6.073e-07	21.264	6.4392	8.0032	2.8958	3.0534e-08	2.4662	1.8437e-05	-3.0569e-05	-6.1281e-06	86.563	1.3214e-06	1.6795e-06	71.016	30.915	1.8333e-09	-7.2351e-07	26.04	7.8393	9.7085	3.5421	-2.3767e-07	3.0283	259.732	-2.226	147.976	-18.594	103.905	201.067	-20.729	-13.328	213.237	106.285	-17.770	-12.687	-9.670	-5.133	81.770	-10.376	-8191	255	
1435.081	1	1	0	0	0.16595	0.090949	0.2826	0.2611	0.061833	0.18757	0.099659	0.31048	0.13374	0.26625	0.16226	0.041946	0.20532	0.11322	0.1008	0.21893	-2.5417	-3.5542	-3.1	-3.1083	-3.6208	-3.2062	-3.2854	-3.3458	-2.8604	-3.1396	-3.2479	-3.0625	-3.5333	-2.9667	-3.1917	-3.4521	152.830	122.066	-16.403	225.702	40.272	176.183	139.303	-25.435	92.481	140.204	64.357	157.300	208.488	190.627	130.944	80.149	1.1547e-05	3.1729e-05	2.5887e-05	71.886	7.504e-07	1.3698e-06	60.359	25.578	1.8134e-07	7.8172e-08	21.795	6.5431	8.0064	2.9588	6.0589e-07	2.5262	1.0508e-05	-5.1523e-05	-5.4155e-06	86.599	-3.3845e-07	2.7709e-06	72.295	31.018	-5.0415e-08	-5.0136e-07	26.599	7.97	9.7805	3.5956	-1.8774e-07	3.0724	235.691	105.215	34.292	-18.490	164.610	150.585	-20.562	-13.233	126.262	165.271	-17.499	-12.665	-9.557	-4.880	131.556	-9.233	-8191	255	
1435.177	1	1	0	0	0.21378	0.16409	0.12828	0.21286	0.24711	0.094273	0.11698	0.27297	0.16247	0.14787	0.20806	0.081721	0.10941	0.13855	0.14032	0.15177	-2.7062	-3.5417	-3.2583	-2.9688	-3.4	-3.0208	-3.1646	-3.5125	-3.0062	-3.4	-3.3146	-2.9208	-3.1583	-2.9771	-3.0187	-3.5	189.769	269.039	42.781	118.735	154.210	93.246	141.699	2.710	155.170	57.835	11.761	184.722	69.074	74.931	222.855	69.857	1.4669e-05	3.2649e-05	1.1876e-05	72.807	4.2322e-07	1.6964e-06	61.608	26.01	2.4898e-07	3.1017e-07	22.129	6.7375	8.1712	2.9701	6.0804e-07	2.5742	1.7128e-05	-4.4741e-05	-9.8335e-06	87.883	-2.7094e-07	4.7745e-06	73.866	31.615	-5.7748e-08	-6.0697e-07	27.012	8.1794	9.9611	3.6452	-1.448e-07	3.1331	239.895	-8.637	40.016	-18.557	260.668	195.731	-20.561	-13.428	182.301	149.641	-17.892	-12.679	-9.573	-4.824	160.996	-9.430	-8191	255	
1435.273	1	1	0	0	0.13825	0.04772	0.096771	0.12741	0.31046	0.34474	0.1417	0.22372	0.079223	0.11687	0.10924	0.24931	0.23922	0.12555	0.11336	0.10553	-2.7604	-3.4542	-3.3604	-2.9313	-3.2458	-3.3458	-3.0104	-3.2625	-2.8937	-3.2917	-3.2917	-3.1042	-3.3104	-3.0896	-3.0312	-3.5479	273.471	6.945	140.401	238.159	129.974	24.446	302.957	23.748	97.904	285.492	109.387	88.482	80.386	30.026	266.738	147.347	2.364e-05	3.6526e-05	1.4946e-05	73.02	3.0004e-07	1.3455e-06	61.046	25.988	3.3129e-07	6.2672e-07	21.718	6.5035	8.0738	2.9533	4.9271e-07	2.4842	9.0415e-05	-3.3606e-05	-1.2456e-05	88.573	-2.6104e-07	2.6353e-06	73.692	31.496	-5.3165e-08	-4.4673e-07	26.716	8.0145	9.8174	3.6095	-1.2882e-07	3.0339	209.778	37.778	7.522	-18.610	182.858	187.498	-20.800	-13.542	266.919	180.283	-17.712	-12.770	-9.537	-4.658	169.504	-9.540	-8191	255	
1435.369	1	1	0	0	0.097803	0.059602	0.27814	0.14927	0.083087	0.081523	0.14618	0.072299	0.16838	0.28878	0.16088	0.22539	0.06194	0.10456	0.23349	0.037568	-2.9458	-3.3438	-3.1021	-2.8688	-3.3708	-3.2562	-3.1104	-3.5771	-3.1229	-3.1708	-3.1708	-2.8667	-3.2958	-3.2958	-2.9333	-3.7542	123.285	-25.700	28.994	305.669	47.336	237.816	282.544	180.037	280.160	317.795	217.801	122.949	57.792	124.320	61.845	62.227	1.41e-05	8.766e-05	1.6784e-05	72.191	7.312e-07	1.6319e-06	60.532	25.839	4.3892e-07	1.6922e-07	21.786	6.5358	8.0984	2.9632	9.5531e-07	2.5203	0.00010916	-3.8768e-05	-1.2997e-05	87.347	-2.2054e-07	4.5706e-06	72.793	31.334	-1.9066e-07	-5.7905e-07	26.505	8.0064	9.8685	3.6253	-1.6078e-07	3.0542	226.030	14.775	21.832	-18.433	127.010	202.575	-20.918	-13.417	203.489	95.256	-17.856	-12.877	-9.321	-4.660	151.697	-9.760	-8191	255	
1435.465	1	1	0	0	0.18368	0.29881	0.07588	0.11435	0.2046	0.30426	0.12138	0.06216	0.069513	0.14498	0.22661	0.17875	0.067026	0.2468	0.22582	0.086472	-2.7938	-3.0625	-3.2083	-2.9896	-3.4646	-3.2458	-2.925	-3.2313	-3.3063	-3.2771	-3.4896	-3.1104	-3.3375	-3.1979	-2.9479	-3.3021	311.877	45.456	20.573	309.251	237.683	157.510	2.418	232.162	218.992	71.178	14.370	14.627	298.331	-25.704	55.094	185.804	1.4971e-05	5.1329e-05	6.7677e-06	72.734	8.23e-07	1.2315e-06	60.616	25.929	2.9347e-07	2.9872e-07	21.965	6.6346	8.1539	2.9791	3.4309e-07	2.5423	0.0001796	-2.7128e-05	-1.1658e-05	87.725	-2.8355e-07	2.5316e-06	73.329	31.509	-8.6164e-08	-4.4794e-07	26.688	8.1553	9.9114	3.6464	-4.9931e-08	3.0928	172.167	65.295	-4.304	-18.666	120.121	172.991	-20.589	-13.478	151.894	139.898	-17.592	-12.899	-9.520	-5.006	181.941	-9.391	-8191	255	
1435.584	1	1	0	0	0.21252	0.10292	0.21708	0.24535	0.27226	0.14509	0.13671	0.14218	0.3307	0.16623	0.024785	0.24994	0.044139	0.2868	0.22768	0.091159	-2.7104	-3.1	-3.2687	-2.8292	-3.3792	-3.425	-2.8979	-3.3896	-3.2542	-3.1021	-3.4833	-3.0208	-3.1417	-3.4833	-3.1	-3.5646	249.808	53.752	233.003	242.191	88.813	301.134	274.133	117.331	85.916	57.340	172.595	124.134	164.323	-1.225	119.087	227.287	2.5201e-05	3.8994e-05	8.1253e-06	73.085	7.0293e-07	1.7169e-06	61.172	26.192	3.074e-07	3.5975e-07	22.27	6.7267	8.2144	2.9564	3.2212e-07	2.5268	0.00010631	-2.7128e-05	-1.2798e-05	88.285	-2.3134e-07	4.6107e-06	74.12	31.801	-1.4025e-07	-3.7389e-07	26.975	8.2713	9.985	3.6427	-2.127e-07	3.0905	178.842	110.908	120.234	-18.435	261.707	219.008	-20.655	-13.299	21.536	192.505	-17.549	-12.829	-9.701	-4.528	110.022	-9.325	-8191	255	
1435.680	1	1	0	0	0.15866	0.07985	0.051216	0.21392	0.17722	0.14435	0.066941	0.19078	0.12335	0.28701	0.10792	0.2417	0.11155	0.095006	0.135	0.23383	-2.7458	-2.8708	-3.4104	-3.1729	-3.1292	-3.5938	-3.15	-3.2854	-3.3646	-2.7938	-3.2583	-3.2104	-3.3604	-3.5438	-3.0229	-3.2417	119.426	295.526	24.698	35.713	11.587	44.658	105.212	293.590	310.041	225.432	155.481	-0.307	265.593	183.672	-23.468	260.194	2.7215e-05	3.0079e-05	1.8288e-05	72.445	1.0651e-06	9.8383e-07	59.819	25.655	1.2618e-07	3.6891e-07	21.729	6.5117	8.0616	2.9255	3.4816e-07	2.4872	0.00017483	-1.7309e-05	-1.3111e-05	87.595	-2.5564e-07	2.2275e-06	72.595	31.27	-1.9249e-07	-1.7238e-07	26.135	8.0853	9.7873	3.585	-1.9173e-07	3.0082	180.499	51.874	38.355	-18.408	146.312	86.912	-20.992	-13.216	177.960	113.283	-18.081	-13.109	-9.826	-4.926	148.062	-10.145	-8191	255	
1435.776	1	1	0	0	0.064495	0.12183	0.11255	0.20895	0.050345	0.14593	0.22402	0.065841	0.12008	0.13775	0.013362	0.11307	0.26258	0.089209	0.12004	0.25988	-2.5667	-2.9521	-3.3917	-3.3708	-3.2104	-3.4021	-3.0125	-3.3229	-3.3104	-2.9479	-3.2812	-3.0062	-3.0896	-3.5958	-3.1063	-3.35	-5.207	298.336	246.700	316.354	-1.259	189.386	96.887	30.688	211.815	79.141	107.442	65.677	74.889	299.396	231.743	153.878	1.6633e-05	7.7788e-05	8.0556e-06	71.94	3.5536e-07	9.4363e-08	59.92	25.749	3.0849e-07	6.2901e-07	21.725	6.4859	7.9944	2.8938	4.0299e-07	2.4839	0.00010612	-1.8018e-05	-1.7643e-05	86.982	-1.1072e-07	1.0996e-06	72.451	31.206	-3.0891e-07	-2.44e-07	26.124	7.9865	9.7723	3.5741	-1.4779e-07	3.0027	209.291	92.963	100.131	-18.671	185.211	73.244	-20.524	-13.272	139.489	173.283	-17.595	-13.051	-9.616	-5.377	168.424	-9.378	-8191	255	
1435.873	1	1	0	0	0.38465	0.07385	0.23484	0.16075	0.036975	0.29197	0.14039	0.33304	0.08597	0.066628	0.020061	0.12405	0.042588	0.14664	0.19998	0.12668	-2.9021	-2.8937	-3.6333	-3.2604	-3.1042	-3.5563	-3.0104	-3.0083	-3.4667	-3.0917	-3.3979	-3.2042	-3.0021	-3.275	-3.0104	-3.2771	288.588	25.916	148.547	177.585	158.806	179.563	71.523	247.514	55.958	-25.735	173.121	-12.342	138.191	35.670	144.153	216.991	2.3701e-05	6.0739e-05	1.2935e-05	71.851	3.6876e-07	4.5634e-07	60.068	25.693	1.4552e-07	9.4226e-08	21.696	6.572	8.0056	2.8969	9.1937e-07	2.4535	0.00017217	-1.0224e-05	-1.237e-05	86.874	-1.6113e-07	-6.7298e-07	72.866	31.195	-1.0908e-07	-3.0834e-07	26.241	8.1337	9.7891	3.5682	-7.0902e-08	3.0144	198.432	72.075	41.256	-18.655	124.185	116.133	-20.612	-13.086	244.494	58.230	-17.824	-13.006	-9.743	-4.938	172.641	-9.661	-8191	255	
1435.993	1	1	0	0	0.23266	0.25306	0.15492	0.14111	0.11968	0.092675	0.14022	0.20007	0.099909	0.12626	0.1102	0.31121	0.17617	0.11894	0.10891	0.11787	-3.1208	-2.9333	-3.2479	-3.3438	-2.9979	-3.4979	-3.1583	-3.1688	-3.4479	-3.1958	-3.4437	-3.2208	-2.9458	-3.1625	-3.1708	-2.9917	19.930	213.081	269.179	253.216	37.324	262.379	11.915	228.167	44.019	246.342	-3.211	15.899	121.502	290.980	288.839	264.636	6.9547e-06	5.6471e-05	1.0472e-05	72.747	6.7739e-07	5.506e-07	61.068	25.944	8.7473e-07	8.3915e-07	21.837	6.5652	8.1033	2.9122	1.1042e-07	2.4623	9.0338e-05	-1.8423e-05	-1.1857e-05	87.42	-5.0408e-08	-6.0226e-07	74.198	31.341	-2.8874e-07	-1.6267e-07	26.361	8.0346	9.8072	3.5604	-1.2483e-07	2.9887	224.659	3.708	103.933	-18.635	222.520	133.949	-20.697	-13.367	142.216	190.910	-17.403	-13.127	-9.582	-4.794	192.704	-9.733	-8191	255	
1436.065	1	1	0	0	0.31618	0.088319	0.23546	0.17966	0.32635	0.17135	0.053237	0.076731	0.26486	0.14518	0.25294	0.15575	0.19663	0.12855	0.054364	0.075964	-3.0125	-2.9729	-3.0208	-3.1604	-3.025	-3.4375	-3.2	-3.0125	-3.4083	-3.0625	-3.1854	-3.45	-3.1229	-3.5646	-3.4125	-3.1208	63.598	110.232	10.377	7.962	194.619	75.718	135.117	121.975	40.706	285.558	207.066	247.642	38.141	289.097	90.432	290.282	9.4756e-06	9.9529e-05	7.0568e-06	71.782	8.7596e-07	3.2872e-07	58.73	25.314	2.3877e-07	5.7247e-07	21.282	6.4303	7.974	2.884	3.4031e-07	2.4373	4.7883e-05	0.00022735	-8.9499e-06	86.004	-8.4614e-08	-6.3055e-07	71.381	30.758	-3.6757e-07	-2.4886e-07	25.611	7.9031	9.6445	3.526	-3.0957e-07	2.9504	168.010	123.821	53.311	-18.514	145.187	-23.704	-20.682	-13.342	76.605	138.340	-17.596	-13.055	-9.298	-4.609	190.438	-9.649	-8191	255	
1436.161	1	1	0	0	0.072328	0.13997	0.23311	0.032893	0.096581	0.17597	0.063502	0.071502	0.12038	0.058426	0.10955	0.22683	0.17531	0.19445	0.13401	0.23735	-3.2125	-3.0938	-3.1958	-3.3	-3.1229	-3.4229	-3.425	-2.9688	-3.4188	-3.1167	-3.275	-3.5229	-3.1813	-3.4813	-3.3125	-2.8458	32.530	69.151	-9.885	272.857	310.412	289.081	-24.811	103.559	112.054	217.077	235.892	146.883	171.509	273.750	119.811	140.708	1.0728e-05	0.0001516	6.1068e-06	71.531	3.5687e-07	5.8283e-07	59.504	25.538	3.344e-07	2.5885e-07	21.211	6.4	7.883	2.8782	3.8456e-07	2.4614	-4.6189e-06	0.00021065	-1.2313e-05	85.953	-1.6743e-07	-7.1423e-07	71.786	30.751	-3.0982e-07	-4.7708e-07	25.682	7.8596	9.6195	3.5181	-3.3553e-07	2.9646	252.466	70.429	38.512	-18.700	190.740	123.239	-20.649	-13.427	229.853	154.486	-17.425	-12.950	-9.470	-4.921	89.843	-9.977	-8191	255	
1436.257	1	1	0	0	0.21493	0.24475	0.20618	0.12681	0.076128	0.23016	0.19875	0.028401	0.12063	0.31255	0.035654	0.032969	0.049836	0.021367	0.17432	0.047362	-2.9708	-3.1875	-3.3708	-3.5229	-2.9229	-3.3458	-3.3583	-3.0208	-3.5667	-3.2271	-3.0542	-3.5083	-3.0396	-3.3187	-3.4167	-2.6979	164.796	111.690	294.871	309.123	188.909	63.052	246.069	307.316	173.642	110.016	-28.601	250.669	265.447	185.029	305.507	17.946	1.4259e-05	0.00015094	1.8869e-05	71.465	2.5522e-07	7.0264e-07	60.131	25.836	9.2171e-08	7.8503e-07	21.615	6.4755	7.9341	2.8883	6.8896e-07	2.4404	6.6589e-06	0.00039538	-8.5508e-06	86.148	-9.1815e-08	-4.4433e-07	72.165	30.943	-3.6849e-07	-3.1198e-07	26.047	7.9119	9.7512	3.5366	-3.9146e-07	2.9621	236.931	100.922	57.670	-18.551	148.108	126.956	-20.797	-13.034	155.114	84.095	-18.025	-12.691	-9.560	-4.747	157.641	-9.722	-8191	255	
1436.376	1	1	0	0	0.34162	0.042577	0.12324	0.0039508	0.11506	0.056917	0.21613	0.17151	0.15295	0.01804	0.21044	0.18081	0.18726	0.15056	0.044164	0.10201	-2.9188	-2.9417	-3.1042	-3.5875	-3.1083	-3.3875	-3.3458	-2.8771	-3.5187	-3.4667	-3.25	-3.2938	-2.9396	-3.1396	-3.5208	-2.9	270.667	201.594	62.369	59.540	-21.494	137.504	-22.915	250.709	72.141	145.656	254.524	79.013	142.126	265.501	292.287	297.981	2.0806e-05	6.8099e-05	1.2929e-05	70.916	1.9015e-07	3.0484e-07	58.329	25.241	7.5813e-07	7.5672e-07	21.099	6.2995	7.7941	2.8507	5.3395e-07	2.3858	6.3895e-06	0.0002152	-7.1542e-06	85.538	-1.7373e-07	-4.7615e-07	70.836	30.389	-3.2174e-07	-5.0257e-07	25.221	7.6208	9.559	3.4639	-4.5237e-07	2.8776	262.016	62.840	74.106	-18.425	166.285	122.952	-21.062	-13.266	164.360	128.447	-17.582	-12.678	-9.752	-4.809	146.646	-10.435	-8191	255	
1436.472	1	1	0	0	0.20531	0.03405	0.21654	0.18257	0.31418	0.13757	0.11813	0.14594	0.039348	0.052715	0.12728	0.1688	0.30436	0.04625	0.32274	0.17876	-2.9604	-3.4021	-3.2375	-3.4792	-2.9479	-3.1562	-3.5917	-3.2	-3.3812	-2.9979	-2.9417	-3.4521	-3.0854	-3.3229	-3.3812	-2.9833	321.562	74.738	146.018	304.442	148.426	153.760	109.341	322.934	98.406	73.330	17.204	3.358	5.182	29.777	211.827	27.958	1.3521e-05	0.00018937	8.0169e-06	70.495	7.8677e-07	4.2429e-07	58.279	25.189	1.4822e-07	5.9551e-07	21.133	6.335	7.9039	2.8346	7.3437e-07	2.4498	4.1955e-06	0.00036926	-8.8359e-06	85.063	-2.1693e-07	-3.8422e-07	70.481	30.457	-3.2724e-07	-4.0545e-07	25.435	7.7242	9.6792	3.4839	-3.1856e-07	2.9467	218.660	78.827	138.314	-18.408	148.952	115.911	-20.590	-13.209	269.413	130.282	-18.012	-12.922	-9.998	-4.774	168.404	-9.475	-8191	255	
1436.568	1	1	0	0	0.33048	0.097385	0.060645	0.28446	0.12997	0.092794	0.083779	0.26323	0.18661	0.26533	0.16528	0.1308	0.21332	0.020776	0.030345	0.23473	-2.9688	-3.3292	-3.1188	-3.2667	-3.0729	-3.0771	-3.3812	-2.9917	-3.275	-3.4771	-3.0938	-3.5875	-3.0438	-2.9333	-3.5833	-3.2417	165.207	125.752	96.207	199.553	277.729	116.790	146.458	147.078	-7.326	9.783	316.304	300.904	318.548	13.228	213.501	307.128	1.4277e-05	9.5778e-05	2.0232e-05	71.499	3.4866e-07	7.1857e-07	59.808	25.604	3.324e-07	2.2086e-07	21.719	6.5092	8.0648	2.9166	3.901e-07	2.4773	8.6604e-06	0.00020498	-6.9832e-06	86.209	-1.0262e-07	-2.4868e-07	71.958	31.121	-1.0816e-07	-4.7101e-07	26.13	7.93	9.828	3.5716	-3.7248e-07	3.0183	244.648	101.790	79.849	-18.377	160.507	166.686	-20.730	-13.311	109.090	198.512	-17.624	-12.902	-9.505	-5.005	150.734	-9.637	-8191	255	
1436.665	1	1	0	0	0.25166	0.12626	0.33089	0.14113	0.11943	0.12662	0.035869	0.30283	0.15121	0.203	0.18997	0.0094832	0.20231	0.12319	0.038497	0.077868	-2.8167	-3.2625	-3.0521	-3.3771	-3.3167	-2.8271	-3.3292	-3.3	-3.2271	-3.5396	-3.0208	-3.1729	-3.1875	-3.0583	-3.5438	-3.1167	295.855	133.874	131.298	86.782	302.432	-9.227	-29.198	220.630	33.943	49.168	129.385	287.612	271.695	49.452	80.203	46.908	2.1074e-05	9.859e-05	1.482e-05	72.657	9.1567e-07	8.384e-07	61.308	26.044	4.8103e-07	2.3198e-07	22.36	6.7605	8.1785	2.9793	6.5166e-07	2.5464	6.3125e-06	0.00038232	-3.6199e-06	87.29	-1.7643e-07	-2.1686e-07	73.378	31.676	-2.0441e-07	-5.4748e-07	26.909	8.1535	10.03	3.6368	-3.9146e-07	3.0815	228.646	109.472	-22.388	-18.317	134.289	81.311	-20.865	-13.582	189.298	126.677	-17.396	-12.726	-9.784	-5.078	166.754	-9.484	-8191	255	
1436.761	1	1	0	0	0.13021	0.10923	0.21907	0.043636	0.21081	0.11017	0.14825	0.30942	0.14295	0.17591	0.1872	0.16478	0.23108	0.13292	0.12266	0.12082	-2.9354	-3.2938	-2.775	-3.2208	-3.1396	-2.9979	-3.4146	-3.0083	-2.8833	-3.4562	-3.1083	-3.3104	-3.35	-2.9125	-3.5167	-3.2062	141.295	316.683	153.630	319.485	-15.619	129.174	114.505	141.188	250.009	90.642	310.639	35.934	182.378	235.085	73.127	267.660	1.958e-05	9.1217e-05	2.2246e-05	72.576	2.4518e-07	3.1619e-07	60.108	25.864	6.2543e-07	4.1495e-07	21.89	6.4803	8.0678	2.9278	1.1639e-07	2.5036	8.6989e-06	0.00014303	7.4107e-07	87.254	-1.3682e-07	-2.0154e-07	72.464	31.531	4.5832e-09	-5.7541e-07	26.232	7.8894	9.8594	3.5865	-3.7748e-07	3.0204	251.397	47.701	119.154	-18.316	170.092	89.854	-20.908	-13.618	140.191	113.123	-17.475	-12.893	-9.779	-4.893	306.998	-9.727	-8191	255	
1436.857	1	1	0	0	0.18472	0.066921	0.38937	0.27459	0.17239	0.072994	0.14568	0.21696	0.08325	0.04301	0.26031	0.10163	0.14698	0.16826	0.18493	0.25128	-2.6854	-3.4958	-3.0521	-3.2979	-3.3083	-3.0187	-3.2979	-3.2417	-3.1917	-3.5167	-3.0667	-3.1229	-3.2875	-2.8729	-3.3021	-3.3229	167.089	14.417	235.450	293.840	314.316	310.331	84.332	243.787	261.164	-25.125	198.363	270.800	14.950	233.168	94.200	33.800	1.4781e-05	9.0047e-05	4.0998e-05	71.802	5.4647e-07	8.0272e-07	59.74	25.847	8.2247e-07	8.7224e-07	21.965	6.5205	8.1239	2.9345	4.1526e-07	2.4951	1.1817e-05	8.7052e-06	7.7585e-05	86.541	-3.0245e-07	-2.6518e-07	71.59	31.354	-9.3497e-08	-7.8784e-07	26.321	7.9474	9.9533	3.6181	-3.8846e-07	3.0303	250.785	42.790	135.704	-18.416	169.890	83.755	-20.594	-13.487	121.983	104.361	-17.479	-12.998	-9.720	-4.811	150.768	-10.060	-8191	255	
1436.953	1	1	0	0	0.14616	0.040437	0.074579	0.036767	0.35392	0.12879	0.13869	0.075286	0.058502	0.06335	0.20982	0.093888	0.030468	0.11009	0.27168	0.077859	-2.6333	-3.4437	-2.8563	-2.9375	-3.2292	-2.9208	-3.4021	-3.2542	-3.2083	-3.4542	-3.1458	-3.0396	-3.2875	-2.8063	-3.0062	-3.1542	223.240	292.246	16.946	39.301	178.468	-5.066	274.217	159.767	254.854	102.696	107.826	-4.611	50.723	-17.400	32.843	281.788	1.3064e-05	6.4559e-05	2.2429e-05	72.211	4.714e-07	9.8151e-07	60.053	25.817	3.8017e-07	1.0034e-07	21.949	6.5932	8.0776	2.947	4.201e-07	2.5018	1.7513e-05	-4.1299e-05	6.4245e-05	86.693	-1.9083e-07	-1.8032e-07	72.091	31.624	3.6666e-08	-6.009e-07	26.474	8.0049	9.8789	3.6064	-2.5565e-07	3.0422	215.876	-1.824	87.335	-18.224	186.864	155.472	-20.262	-13.777	115.729	151.746	-17.425	-12.833	-9.773	-4.718	180.233	-9.903	-8191	255	
1437.074	1	1	0	0	0.22518	0.027429	0.05295	0.11967	0.22766	0.040833	0.13626	0.27254	0.18439	0.10438	0.10571	0.22041	0.18611	0.21447	0.17132	0.28708	-2.6396	-3.5521	-3.1312	-3.0833	-3.5042	-3.2146	-3.2146	-3.3229	-2.8958	-3.325	-3.2479	-3.0979	-3.1937	-2.8937	-2.9625	-3.2667	152.586	300.843	54.174	122.945	264.197	289.480	160.018	73.810	41.090	284.259	35.278	103.461	229.191	90.236	44.154	-10.938	1.8476e-05	5.0256e-05	4.5038e-05	72.182	1.9094e-07	1.09e-06	60.902	26.106	5.726e-07	7.7998e-07	22.291	6.6182	8.0739	2.9492	6.1088e-07	2.4876	1.9245e-05	-3.4315e-05	0.00011307	87.085	-3.5646e-07	-3.194e-07	72.932	31.698	1.4666e-08	-4.3823e-07	26.731	8.0672	9.8709	3.6232	-1.6577e-07	3.0292	219.826	37.750	148.738	-18.614	164.884	69.439	-20.964	-13.619	191.147	125.808	-17.929	-12.917	-9.542	-4.899	139.610	-9.686	-8191	255	
1437.170	1	1	0	0	0.022343	0.13037	0.18424	0.29409	0.16374	0.12093	0.30755	0.14682	0.13711	0.26111	0.082414	0.12552	0.12373	0.11351	0.22088	0.07323	-2.5417	-3.4437	-3.2125	-3.0812	-3.3917	-2.9604	-3.1042	-3.375	-3.1958	-3.4021	-3.2812	-2.8521	-3.2292	-3.1583	-3.0938	-3.4917	-23.631	104.066	270.197	69.270	294.323	131.826	46.501	160.393	70.970	209.743	67.886	241.322	119.315	-1.672	60.913	82.408	1.2094e-05	1.0822e-05	8.9701e-06	72.096	6.1953e-07	4.872e-07	59.852	25.686	7.6393e-07	4.8768e-07	21.661	6.5077	8.0757	2.9426	3.6245e-07	2.4935	1.8399e-05	-3.4011e-05	6.1281e-05	86.536	-3.2135e-07	-8.4859e-08	71.863	31.349	-1.2925e-07	-5.4506e-07	26.082	7.9182	9.738	3.6068	-1.5379e-07	3.0166	214.163	-16.300	115.578	-18.487	132.797	196.941	-20.545	-13.802	195.465	144.453	-17.287	-12.706	-9.604	-4.954	191.648	-9.759	-8191	255	
1437.266	1	1	0	0	0.13954	0.12068	0.14425	0.14451	0.083487	0.15991	0.23335	0.015763	0.16277	0.05735	0.18938	0.066253	0.097311	0.21154	0.10689	0.12216	-2.6667	-3.2625	-3.2604	-2.9875	-3.4875	-3.1604	-3.1	-3.5354	-3.0875	-3.2479	-3.2208	-3.1708	-3.3917	-3.0687	-3.0458	-3.475	154.249	53.221	70.740	253.220	50.826	142.328	6.831	-27.932	88.427	56.458	-16.258	63.900	216.011	-25.301	200.767	15.953	1.6153e-05	8.6512e-05	3.993e-05	72.143	8.5098e-07	9.0435e-07	60.064	25.832	3.0084e-07	1.5937e-07	21.587	6.5378	8.0189	2.9216	8.3465e-07	2.4867	1.8091e-05	-2.5711e-05	0.00011327	86.47	-3.3575e-07	-3.0526e-07	71.849	31.239	3.7124e-07	-3.2412e-07	26.219	7.9564	9.7657	3.6198	-1.8974e-08	3.0106	212.957	88.165	137.537	-18.590	201.683	124.288	-20.761	-13.560	220.074	103.536	-17.206	-12.419	-9.722	-4.821	139.995	-9.409	-8191	255	
1437.362	1	1	0	0	0.18197	0.24117	0.18249	0.23167	0.11623	0.073962	0.058466	0.14392	0.26609	0.11157	0.1885	0.091228	0.18992	0.28769	0.12534	0.14356	-2.6813	-3.2958	-3.15	-2.7854	-3.3917	-3.2917	-2.9167	-3.3312	-2.8896	-3.1896	-3.3021	-2.6729	-3.4917	-3.3646	-3.0708	-3.4958	71.588	76.855	305.388	321.717	64.459	262.954	26.016	181.347	105.246	162.817	2.962	140.904	89.355	32.318	39.893	38.717	1.5497e-05	3.37e-05	2.0953e-05	71.856	1.0123e-06	5.0175e-07	59.909	25.968	3.492e-07	8.1519e-07	21.974	6.5974	8.1099	2.9613	2.8662e-07	2.5081	1.2933e-05	-2.7938e-05	6.2592e-05	86.619	-1.7643e-07	-1.9683e-07	72.25	31.301	3.0982e-06	-4.1274e-07	26.421	7.9867	9.7896	3.623	5.9917e-09	3.0488	228.029	30.520	192.360	-18.504	180.776	158.973	-20.588	-13.829	248.076	146.992	-17.842	-12.832	-9.647	-4.888	105.087	-9.110	-8191	255	
1437.458	1	1	0	0	0.16944	0.099925	0.12176	0.39759	0.078537	0.19744	0.2017	0.1476	0.2461	0.23321	0.054012	0.19955	0.15265	0.099781	0.072243	0.1257	-2.6813	-3.2625	-3.2938	-3.0542	-3.4146	-3.2979	-2.875	-3.3708	-3.0854	-3.1729	-3.5354	-3.1063	-3.4417	-3.3458	-3.0438	-3.4646	84.357	213.766	149.660	160.502	179.244	141.255	10.583	12.049	91.486	127.658	186.108	34.927	-16.094	15.622	125.762	30.365	1.7178e-05	5.1007e-05	3.5115e-05	72.223	5.3835e-07	2.5239e-07	60.746	26.032	2.5295e-07	4.5048e-07	22.093	6.6054	8.0415	2.9475	5.2186e-07	2.5124	1.8437e-05	-1.5285e-05	0.00010917	86.97	-2.2414e-07	-4.7969e-07	72.886	31.416	2.0936e-06	-2.0273e-07	26.466	7.9859	9.7666	3.6297	5.2927e-08	3.0242	221.000	61.124	148.985	-18.496	43.967	-23.447	-20.688	-13.342	115.192	63.256	-17.660	-12.894	-9.963	-4.830	121.296	-9.923	-8191	255	
1437.553	1	1	0	0	0.10396	0.19264	0.11224	0.081854	0.058719	0.18255	0.11956	0.038195	0.08771	0.13771	0.16117	0.13419	0.097625	0.099517	0.22762	0.068603	-2.7646	-2.9375	-3.3812	-3.0104	-3.0833	-3.2646	-3.0729	-3.4896	-3.0917	-2.9833	-3.4688	-2.8958	-3.2	-3.4	-3.0271	-3.3042	-27.788	323.630	260.103	163.071	187.538	28.414	76.559	173.359	47.276	204.092	-30.362	305.832	106.325	209.446	70.974	90.860	1.7384e-05	0.00010968	2.282e-05	71.626	6.5237e-07	4.6729e-07	58.901	25.609	1.1431e-06	7.5893e-07	21.737	6.4275	7.9203	2.9125	5.8367e-07	2.4654	1.3664e-05	-9.6162e-06	3.2123e-05	86.208	-2.4844e-07	-3.7597e-07	71.052	30.949	3.7472e-06	-3.132e-07	25.978	7.8575	9.6729	3.5913	-1.3781e-07	3.0016	243.545	76.510	-3.611	-18.718	93.942	116.834	-20.562	-13.652	44.771	151.618	-17.184	-12.510	-9.737	-4.835	128.905	-9.654	-8191	255	
1437.673	1	1	0	0	0.15923	0.28962	0.045206	0.075399	0.26944	0.07108	0.22684	0.14773	0.31121	0.22348	0.15116	0.1401	0.23735	0.22845	0.35928	0.14945	-2.8583	-3.1021	-3.4667	-3.0208	-3.2708	-3.2438	-3.025	-3.4688	-3.2687	-2.9688	-3.5146	-3.1667	-3.1771	-3.2521	-2.8229	-3.4938	170.620	155.548	243.000	130.872	302.174	62.907	299.447	185.600	308.062	250.007	38.321	44.311	-19.329	40.830	91.608	49.705	1.1836e-05	3.2469e-05	4.405e-06	71.294	1.7214e-07	4.151e-07	59.181	25.634	4.3704e-07	3.9024e-07	21.795	6.5022	7.9568	2.9167	4.1329e-07	2.5027	1.1586e-05	-1.9941e-05	-1.0175e-05	86.534	-1.7553e-07	-3.5476e-07	71.149	30.996	1.9479e-06	-2.2701e-07	26.141	7.8543	9.7022	3.5969	4.3939e-08	3.0021	224.154	79.485	104.509	-18.669	116.160	175.639	-20.288	-13.679	53.890	97.463	-17.155	-12.542	-10.118	-4.436	273.375	-9.814	-8191	255	
1437.769	1	1	0	0	0.28884	0.13501	0.143	0.25672	0.20391	0.25993	0.057386	0.15949	0.16561	0.24157	0.21372	0.1678	0.13337	0.14982	0.13215	0.22644	-2.8583	-3.125	-3.2542	-3.0375	-3.1604	-3.5354	-3.0792	-3.3104	-3.5146	-2.9583	-3.5	-3.0854	-2.9875	-3.4646	-3.0042	-3.1063	-1.951	70.668	122.428	275.896	315.510	20.997	174.522	149.321	57.982	277.413	271.331	160.781	322.486	142.814	96.234	57.975	1.4052e-05	4.3201e-05	1.5379e-05	71.574	3.1086e-07	5.3316e-07	60.423	25.954	1.5203e-06	3.9586e-07	21.949	6.5267	8.0082	2.9064	8.4678e-07	2.4766	1.2202e-05	-1.3868e-05	-9.3489e-06	86.712	-1.4132e-07	-4.7026e-07	71.956	31.273	3.5896e-06	-1.6874e-07	26.431	7.9268	9.7431	3.5598	6.2513e-07	3.0088	223.433	67.232	77.370	-18.525	202.530	41.475	-20.550	-13.567	75.127	318.981	-17.035	-12.407	-9.582	-5.360	230.396	-9.136	-8191	255	
1437.866	1	1	0	0	0.13414	0.1352	0.06156	0.25341	0.2852	0.18387	0.20948	0.19765	0.17121	0.06446	0.11282	0.14226	0.29999	0.23592	0.080103	0.085546	-2.8208	-3.1063	-3.4396	-3.1896	-3.0333	-3.7208	-3.0167	-3.1625	-3.4458	-3.0604	-3.2687	-3.1688	-3.0646	-3.5146	-3.0687	-3.4875	80.736	284.587	206.120	-14.189	6.284	55.144	276.828	90.508	222.422	183.760	177.296	-30.669	326.774	98.655	231.597	233.581	1.6749e-05	6.6635e-05	4.7968e-06	71.552	4.5177e-07	1.0179e-06	59.338	25.771	8.1782e-07	2.0931e-07	21.73	6.394	7.9155	2.8661	1.0673e-06	2.4395	1.4665e-05	-9.2113e-06	-1.2228e-05	86.898	5.4909e-08	-4.9855e-07	71.612	31.131	2.001e-06	-1.7238e-07	26.074	7.7904	9.6224	3.5125	3.585e-06	2.9436	236.444	28.697	71.883	-18.505	149.307	116.586	-20.497	-13.600	100.226	114.847	-17.658	-12.768	-10.008	-4.861	195.928	-9.241	-8191	255	
1437.937	1	1	0	0	0.2103	0.19194	0.15013	0.098636	0.15789	0.34962	0.23565	0.088784	0.011746	0.20099	0.042572	0.16396	0.1404	0.23177	0.22824	0.017186	-2.7687	-2.9562	-3.3771	-3.1333	-2.9583	-3.6312	-3.0708	-3.1271	-3.5604	-2.9208	-3.3	-3.3375	-3.0021	-3.3542	-3.0417	-3.0292	33.216	21.470	130.880	197.317	218.448	21.032	11.948	38.870	312.172	36.448	237.731	77.416	116.979	175.274	177.307	237.771	1.9557e-05	8.6751e-05	1.7776e-05	70.481	2.136e-07	1.3224e-07	58.358	25.42	9.0154e-07	5.7774e-07	21.403	6.3055	7.8972	2.8427	1.5593e-06	2.4006	5.6197e-06	-1.2855e-05	-1.3596e-05	85.293	-7.6512e-08	-4.1015e-07	69.994	30.674	3.4337e-06	-1.651e-07	25.67	7.7049	9.5805	3.485	2.158e-06	2.925	220.930	73.696	-17.659	-18.582	208.603	63.949	-20.459	-13.691	105.908	31.315	-17.611	-12.893	-9.168	-4.623	177.167	-9.750	-8191	255	
1438.058	1	1	0	0	0.10913	0.23235	0.27204	0.12956	0.26862	0.12779	0.20087	0.060355	0.0054757	0.12093	0.08939	0.26306	0.22431	0.28558	0.19122	0.20941	-3.0396	-2.9229	-3.1208	-3.4562	-3.0708	-3.4333	-3.1625	-3.1875	-3.4813	-3.2458	-3.1813	-3.2417	-2.7375	-3.2958	-3.2396	-2.9625	224.246	192.767	218.619	281.341	71.255	300.917	169.574	314.256	9.846	124.991	280.923	-14.765	249.486	16.764	277.183	143.860	1.3845e-05	2.7584e-05	2.3423e-06	70.514	4.3108e-07	4.4305e-07	58.796	25.567	1.3872e-06	7.5055e-07	21.609	6.4009	7.8551	2.859	1.8339e-06	2.4303	5.0808e-06	-8.5027e-06	-6.9547e-06	85.76	-2.4304e-08	-4.7733e-07	70.486	30.711	9.8264e-07	6.9801e-07	25.804	7.7641	9.6021	3.4881	3.9994e-06	2.9574	255.584	28.320	17.083	-18.592	208.171	29.728	-20.440	-13.921	108.944	44.239	-18.009	-12.971	-10.020	-4.728	195.767	-9.858	-8191	255	
1438.154	1	1	0	0	0.12522	0.08755	0.23643	0.17725	0.069386	0.1105	0.19802	0.27834	0.01209	0.14052	0.11853	0.10994	0.20641	0.090065	0.20639	0.045675	-2.9271	-3.1667	-3.1479	-3.2417	-2.9021	-3.4354	-3.0708	-3.1458	-3.6312	-2.9979	-3.2313	-3.5375	-2.9708	-3.3438	-3.3312	-3.1042	318.908	234.641	317.752	309.780	162.352	66.531	158.405	149.841	224.177	165.403	154.342	293.473	39.131	-2.979	115.276	123.605	1.6947e-05	7.8991e-05	5.4743e-06	71.219	1.12e-07	1.1482e-06	59.838	25.844	5.8903e-08	8.1284e-07	21.932	6.6002	8.0491	2.9291	1.7236e-06	2.4926	9.4687e-06	-1.3564e-05	-7.4107e-06	86.018	-8.6414e-08	-5.5276e-07	71.922	31.201	-3.859e-07	4.5073e-06	26.595	8.0396	9.8235	3.59	2.2449e-06	3.0335	250.064	25.736	-24.950	-18.593	55.163	109.471	-20.323	-13.313	-29.368	161.882	-17.357	-12.450	-9.686	-5.117	150.360	-9.826	-8191	255	
1438.250	1	1	0	0	0.15064	0.32619	0.054163	0.16825	0.039505	0.13626	0.22485	0.13948	0.21829	0.066793	0.30651	0.2556	0.16582	0.052144	0.15274	0.31037	-3.1958	-3.1208	-2.9938	-3.4104	-3.0062	-3.2729	-3.3229	-2.9333	-3.4625	-3.2396	-3.0479	-3.4146	-2.9208	-3.2687	-3.2854	-3.0521	13.269	22.942	187.816	176.735	18.858	124.667	149.474	163.303	117.971	-14.688	259.002	265.736	257.951	249.915	123.539	-11.925	1.2336e-05	2.1819e-05	1.3642e-05	71.267	3.488e-07	7.0368e-07	58.383	25.344	1.8317e-07	9.8476e-07	21.227	6.3675	7.8698	2.866	1.802e-06	2.4197	9.7767e-06	-4.0489e-07	-2.5082e-06	86.547	1.1252e-07	-2.8522e-07	70.562	30.82	-1.5949e-07	2.6148e-06	25.674	7.7358	9.6047	3.5218	4.0054e-06	2.9399	232.155	-5.519	59.493	-18.760	106.708	146.256	-20.448	-13.358	143.004	84.480	-17.404	-12.556	-9.597	-4.830	173.120	-9.720	-8191	255	
1438.346	1	1	0	0	0.11803	0.091391	0.17826	0.11177	0.046205	0.10498	0.1593	0.16933	0.11717	0.025038	0.054894	0.1229	0.018649	0.26935	0.18449	0.20373	-3.1292	-3.0187	-3.0229	-3.5958	-2.8417	-3.2729	-3.3917	-3.0479	-3.4437	-3.2354	-3.1542	-3.4021	-2.9625	-3.2333	-3.4062	-2.9479	190.860	244.835	199.008	104.543	312.778	325.552	113.437	92.142	73.731	315.041	237.891	10.258	316.399	-21.004	123.182	-30.450	9.3169e-06	4.0778e-05	2.0561e-05	71.005	5.0362e-07	3.2646e-07	58.14	25.221	3.8515e-07	2.1048e-06	21.167	6.2941	7.8705	2.8601	1.1875e-06	2.4216	1.1008e-05	-1.326e-05	-1.3681e-06	84.995	7.3542e-07	-1.9447e-07	69.872	30.648	-1.2833e-07	4.6506e-06	25.681	7.6864	9.5799	3.4985	2.0462e-06	2.9339	228.142	144.221	25.392	-18.320	235.376	11.292	-20.893	-13.458	273.387	53.610	-17.661	-12.552	-9.672	-4.898	172.000	-9.333	-8191	255	
1438.465	1	1	0	0	0.17132	0.3356	0.15518	0.24256	0.063031	0.11798	0.096709	0.28895	0.12136	0.26747	0.22478	0.22685	0.095711	0.18475	0.26483	0.26768	-2.9646	-3.2687	-2.9292	-3.3021	-3.2833	-3.1521	-3.4792	-2.9938	-3.3	-3.3083	-3.0208	-3.1208	-3.1083	-3.1688	-3.3646	-2.9688	-29.655	-9.888	70.712	255.856	74.852	221.249	223.447	96.995	23.642	328.244	140.936	157.225	110.421	271.531	-2.157	195.636	1.4253e-05	5.6325e-05	7.7593e-06	70.805	1.5196e-06	4.2182e-07	58.531	25.45	5.6781e-07	1.7246e-06	21.559	6.4278	7.9892	2.8878	1.7202e-06	2.4514	1.5473e-05	-4.4538e-06	-2.0807e-06	84.801	3.5124e-06	-3.0879e-07	70.383	30.8	-1.8241e-07	2.7908e-06	26.06	7.7943	9.6613	3.5341	3.9076e-06	2.985	240.027	315.645	-9.054	-18.726	255.778	41.753	-20.796	-13.552	240.742	38.430	-17.836	-12.426	-9.641	-4.876	176.653	-9.374	-8191	255	
1438.539	1	1	0	0	0.17222	0.13378	0.21073	0.087171	0.052056	0.096203	0.097734	0.01195	0.10172	0.15495	0.20094	0.025859	0.11507	0.17309	0.11469	0.091186	-3.0375	-3.2229	-3.0292	-3.5771	-2.8854	-3.2021	-3.4396	-2.9188	-3.3625	-3.425	-3.0479	-3.3458	-3.2271	-3.0396	-3.4938	-3.1333	72.284	204.349	132.341	111.396	251.159	237.042	-13.631	70.230	68.239	278.171	138.815	-13.441	134.018	256.747	166.535	234.457	1.6389e-05	2.9843e-05	1.8726e-05	70.781	7.2819e-07	1.7248e-07	59.08	25.589	1.1404e-07	1.7349e-06	21.902	6.4799	7.9863	2.9023	1.6482e-07	2.4785	1.0085e-05	-1.3058e-05	-1.7102e-07	85.398	2.1495e-06	-1.4025e-07	71.095	31.016	-1.9249e-08	4.7477e-06	26.333	7.8772	9.6981	3.5518	8.9176e-07	3.0329	241.264	4.877	20.286	-18.338	68.378	28.431	-20.489	-13.571	227.478	49.240	-17.640	-12.791	-9.085	-4.976	74.850	-9.014	-8191	255	
1438.635	1	1	0	0	0.05802	0.1411	0.015045	0.36446	0.13577	0.18417	0.14607	0.11085	0.19964	0.27683	0.058028	0.05624	0.13672	0.043025	0.10135	0.023441	-2.8854	-3.3271	-3.0083	-3.3542	-3.1833	-3.2062	-3.4208	-2.8833	-3.2854	-3.4458	-3.15	-3.3542	-3.0333	-2.9021	-3.5312	-2.9542	16.488	70.415	183.490	-17.313	72.236	187.066	165.438	184.839	218.974	87.828	62.414	254.274	248.831	119.465	166.296	67.475	1.9206e-05	2.9708e-05	1.145e-05	71.438	4.254e-07	2.9992e-07	58.913	25.648	6.8769e-07	1.6181e-06	21.784	6.4857	8.0522	2.9231	3.4294e-07	2.4843	1.274e-05	-1.2855e-05	-2.1377e-06	85.503	3.7527e-06	-1.7797e-07	70.799	31.075	-1.9066e-07	2.6512e-06	26.205	7.8703	9.7691	3.5767	-3.7049e-07	3.0624	245.097	27.328	328.396	-18.265	-28.027	112.574	-21.012	-13.559	198.805	82.394	-17.698	-13.062	-9.975	-5.224	134.070	-9.380	-8191	255	
1438.754	1	1	0	0	0.061908	0.0924	0.20791	0.15836	0.20906	0.22991	0.22447	0.13651	0.14151	0.11369	0.26234	0.10746	0.14014	0.062929	0.119	0.14637	-2.8458	-3.2375	-3.0521	-3.4021	-3.4896	-2.8979	-3.4167	-3.1521	-2.9813	-3.6042	-3.0062	-3.2771	-3.2771	-2.9854	-3.6437	-3.2792	76.227	8.971	-11.459	71.291	70.956	151.735	251.026	293.016	68.125	326.703	185.860	79.499	32.743	70.955	203.713	224.528	1.2266e-05	3.3353e-05	1.4734e-05	71.16	7.6126e-07	6.2314e-07	58.917	25.752	4.0285e-07	2.2716e-06	21.795	6.5815	8.13	2.935	5.9981e-07	2.4969	1.3125e-05	-3.3606e-05	-3.5914e-06	85.528	2.0289e-06	-2.864e-07	71.008	31.198	-1.5766e-07	4.511e-06	26.427	7.9868	9.8101	3.6087	-4.7334e-07	3.08	234.754	45.262	62.136	-18.354	39.984	67.972	-20.277	-13.178	91.523	98.782	-17.510	-13.011	-9.221	-4.676	102.891	-10.161	-8191	255	
1438.850	1	1	0	0	0.15311	0.12798	0.028722	0.21774	0.30804	0.12824	0.13881	0.19776	0.12553	0.053434	0.18035	0.22481	0.53001	0.22134	0.11671	0.15332	-2.6437	-3.5396	-2.8646	-3.3417	-3.425	-3.0042	-3.4083	-3.2188	-3.0312	-3.3021	-3.025	-3.1104	-3.3438	-3.0292	-3.2583	-3.2542	198.034	326.471	13.991	40.531	164.578	90.154	18.508	232.073	30.028	161.043	117.128	60.061	307.146	159.890	163.586	171.852	1.5415e-05	5.485e-05	2.6398e-05	71.724	9.6315e-07	5.7596e-07	60.366	26.189	3.58e-08	1.3835e-06	22.38	6.7352	8.186	2.9578	9.1597e-08	2.5612	1.9746e-05	-3.6643e-05	-4.8455e-06	86.203	3.6114e-06	-8.368e-08	72.16	31.506	-1.8333e-09	7.6357e-07	26.979	8.1448	9.9337	3.6429	-2.147e-07	3.1694	247.267	35.198	79.473	-18.339	-12.705	106.022	-20.416	-13.569	-17.229	78.370	-17.482	-12.296	-9.500	-5.045	3.710	-9.548	-8191	255	
1438.946	1	1	0	0	0.058722	0.12055	0.065168	0.033886	0.16327	0.10361	0.14044	0.20486	0.015943	0.071187	0.13577	0.15497	0.26823	0.11339	0.23692	0.1858	-2.6417	-3.4458	-3.1979	-3.1229	-3.3854	-3.1271	-3.3917	-3.1167	-3.0792	-3.5583	-3.1271	-2.9979	-3.5479	-3.1042	-3.4479	-3.2562	310.608	86.774	53.378	217.110	276.073	236.312	284.222	61.154	62.869	245.837	131.556	250.554	251.005	-11.012	-8.329	117.819	1.2635e-05	3.5799e-05	3.837e-06	72.466	5.7293e-07	8.5031e-07	60.884	26.221	2.3224e-07	4.5924e-07	22.031	6.625	8.1469	2.9572	1.4632e-07	2.5161	1.913e-05	-4.1299e-05	-6.0426e-06	86.934	2.0325e-06	-1.5911e-07	72.98	31.69	6.2331e-08	-4.443e-07	27.146	8.0877	9.8987	3.628	-2.7961e-07	3.0945	216.709	37.829	70.737	-18.699	-23.071	113.816	-20.895	-13.641	299.676	131.936	-17.773	-12.773	-9.643	-4.633	249.618	-9.946	-8191	255	
1439.067	1	1	0	0	0.14379	0.25257	0.22695	0.17808	0.094935	0.18092	0.096036	0.36194	0.16145	0.22049	0.2573	0.023804	0.18845	0.032832	0.055743	0.019027	-2.6104	-3.3875	-3.1083	-2.925	-3.2854	-3.1312	-3.5375	-3.2458	-2.8854	-3.2042	-3.3187	-3.2583	-3.4313	-2.9521	-3.0896	-3.4271	8.210	163.528	63.003	146.088	40.298	205.201	316.001	173.655	26.764	249.601	87.902	-27.507	184.521	244.120	266.355	78.060	1.2743e-05	5.5713e-05	1.7727e-05	71.196	1.2255e-06	3.0459e-07	58.996	25.672	5.2531e-07	4.0467e-07	21.738	6.5725	8.0565	2.9066	2.243e-07	2.4775	1.8668e-05	-4.1198e-05	-3.7909e-06	85.783	3.6969e-06	-1.6382e-07	71.042	31.078	2.3833e-08	-4.8072e-07	26.481	7.9243	9.773	3.5712	-1.5878e-07	3.0612	225.257	67.938	-14.664	-18.453	62.591	109.243	-20.774	-13.615	180.688	146.277	-17.494	-12.502	-9.778	-4.584	5.134	-9.802	-8191	255	
1439.163	1	1	0	0	0.05175	0.20735	0.10928	0.13852	0.17475	0.1338	0.12043	0.20822	0.15234	0.21353	0.25904	0.11026	0.2659	0.051321	0.25641	0.17784	-2.6208	-3.2646	-3.0917	-3.1229	-3.6167	-3.1312	-3.4062	-3.4938	-3.0583	-3.5521	-2.9917	-2.95	-3.4	-3.1312	-3.3354	-3.3396	214.414	123.389	150.924	-7.074	109.078	-12.020	195.696	149.845	282.084	282.096	270.504	120.060	194.374	275.953	183.664	34.736	9.9445e-06	5.1851e-05	7.1806e-06	71.376	4.6019e-07	2.3653e-07	59.301	25.544	3.2866e-07	1.0472e-06	21.94	6.5802	8.085	2.8894	2.9215e-07	2.4864	1.9823e-05	-2.9355e-05	-4.1614e-06	85.268	5.6979e-07	1.0926e-06	71.244	30.97	-1.5583e-08	-3.5811e-07	26.639	7.9528	9.7646	3.5504	-1.9673e-07	3.0347	222.432	19.139	11.990	-18.386	70.788	202.958	-20.941	-13.413	203.359	105.314	-17.607	-12.759	-9.598	-4.694	50.423	-9.624	-8191	255	
1439.234	1	1	0	0	0.072941	0.042653	0.19999	0.16655	0.16385	0.23277	0.12877	0.14142	0.044739	0.26966	0.061616	0.13735	0.17988	0.11075	0.073637	0.092952	-2.4417	-3.3042	-3.3396	-2.925	-3.45	-3.0792	-3.0229	-3.1125	-2.9896	-3.3021	-3.3187	-3.1542	-3.55	-3.1437	-2.9875	-3.1125	139.229	26.844	139.644	199.300	-0.990	191.466	79.860	225.044	43.070	256.250	25.365	48.074	169.090	41.897	127.072	182.596	1.1774e-05	3.3003e-05	3.5272e-05	71.277	5.4823e-07	1.9798e-06	59.613	25.781	7.3329e-07	9.958e-07	22.005	6.6093	8.0931	2.8931	3.115e-07	2.4824	1.8745e-05	-3.472e-05	-7.6102e-06	85.446	-3.0425e-07	4.8994e-06	71.653	31.109	1.155e-07	-2.8285e-07	26.72	8.0188	9.8269	3.5605	-1.6976e-08	3.0727	237.347	83.208	42.792	-18.364	120.003	0.371	-20.451	-13.538	195.125	58.742	-17.579	-12.748	-9.799	-4.515	184.434	-9.059	-8191	255	
1439.355	1	1	0	0	0.098276	0.042422	0.2409	0.13455	0.10821	0.12424	0.058004	0.2186	0.046277	0.062234	0.19777	0.089407	0.082146	0.11621	0.17656	0.1482	-2.5521	-3.3604	-3.2958	-3.1021	-3.4437	-2.9771	-3.2604	-3.6625	-2.9667	-3.2792	-3.4542	-3.0229	-3.2875	-3.1333	-2.9062	-3.4896	166.577	24.593	17.850	278.083	147.411	116.297	180.464	290.623	-12.635	139.935	-20.288	196.596	292.695	328.793	281.896	133.908	9.3586e-06	2.1781e-05	6.756e-06	71.2	5.0758e-07	8.3653e-07	59.048	25.644	5.6826e-07	7.9463e-07	21.665	6.4497	7.9946	2.8707	6.2849e-07	2.4092	2.0092e-05	-3.2189e-05	-6.3276e-06	85.407	-3.8616e-07	2.8699e-06	71.157	30.948	2.5666e-08	-3.0834e-07	26.446	7.8719	9.6966	3.5107	-8.6879e-08	2.9599	243.049	289.836	310.693	-18.596	100.757	-11.235	-20.550	-13.163	122.532	131.772	-17.631	-13.146	-9.672	-4.897	74.173	-9.398	-8191	255	
1439.449	1	1	0	0	0.12089	0.32018	0.18495	0.2972	0.28916	0.24999	0.1469	0.072128	0.17242	0.26494	0.21106	0.25878	0.16905	0.0047301	0.15156	0.16538	-2.8063	-3.2208	-3.3104	-3.0542	-3.375	-3.2062	-2.9542	-3.55	-3.025	-3.3438	-3.3187	-2.9292	-3.3479	-3.3667	-3.0583	-3.5354	16.954	-8.478	312.096	280.833	34.097	-12.022	84.999	87.923	190.344	82.437	-11.339	288.014	-7.295	88.039	324.196	146.708	2.4043e-05	5.1037e-05	2.8165e-06	70.416	3.4176e-07	1.0145e-06	58.728	25.436	4.0155e-07	8.4629e-08	21.594	6.4179	7.9273	2.8663	2.3917e-07	2.4485	5.7313e-05	-3.0164e-05	-1.009e-05	84.601	-1.9623e-07	4.7804e-06	70.472	30.66	-1.375e-07	-4.6615e-07	26.165	7.8496	9.6473	3.5091	-9.9861e-08	2.9507	227.127	43.726	156.361	-18.765	160.427	38.506	-20.454	-13.174	172.516	150.347	-17.091	-12.499	-9.574	-5.010	317.898	-9.891	-8191	255	
1439.546	1	1	0	0	0.090636	0.14575	0.091793	0.17212	0.19259	0.15067	0.055397	0.13711	0.11944	0.038843	0.11115	0.056685	0.17379	0.12208	0.19834	0.081565	-2.6146	-3.0375	-3.5292	-3.0125	-3.15	-3.275	-3.1042	-3.4896	-3.25	-3.225	-3.3937	-3.1063	-3.5563	-3.3521	-2.8625	-3.5521	-14.551	9.975	129.788	320.587	-3.724	262.000	161.057	45.406	276.243	-3.349	159.285	95.005	101.857	232.407	256.219	-11.725	3.0035e-05	4.2761e-05	6.635e-06	70.522	5.1966e-07	6.8961e-07	58.612	25.552	3.6265e-07	8.3505e-07	21.646	6.5611	8.0293	2.8463	5.771e-07	2.4567	0.00018045	-1.7107e-05	-1.2598e-05	84.651	-1.8543e-07	2.567e-06	70.73	30.822	-6.6915e-08	-3.2048e-07	26.508	7.9256	9.712	3.5038	5.5922e-08	2.9729	257.217	32.107	105.733	-18.602	190.878	50.715	-20.497	-13.353	317.818	315.346	-17.640	-12.931	-9.847	-4.647	187.129	-9.914	-8191	255	
1439.642	1	1	0	0	0.33589	0.1038	0.11162	0.060438	0.24014	0.16322	0.143	0.074061	0.18873	0.23409	0.064303	0.26858	0.22426	0.27153	0.073472	0.16299	-2.9875	-3.0438	-3.2979	-2.9813	-3.2292	-3.4	-3.1583	-3.3604	-3.1562	-3.1521	-3.5	-3.1688	-3.25	-3.1583	-3.0333	-3.3833	323.619	27.533	2.830	-4.269	243.008	-24.965	287.598	253.064	-29.066	70.586	114.035	249.386	251.947	213.432	91.683	-29.931	1.677e-05	3.9219e-05	1.2892e-05	71.222	4.2861e-07	1.0957e-06	59.122	25.552	1.8368e-07	1.7779e-07	22.119	6.6159	8.03	2.8785	4.4207e-07	2.4565	0.00010743	-2.0548e-05	-1.1601e-05	85.162	-1.3052e-07	4.6401e-06	71.608	30.953	1.2833e-08	-1.7966e-07	26.583	8.039	9.7248	3.502	1.9972e-08	2.9702	270.735	126.300	37.446	-18.521	155.441	30.819	-20.556	-13.833	149.146	64.943	-17.736	-12.399	-9.899	-5.025	169.887	-9.649	-8191	255	
1439.762	1	1	0	0	0.23583	0.22968	0.19768	0.29824	0.18823	0.21507	0.055656	0.069692	0.12957	0.031274	0.16882	0.18198	0.10773	0.091946	0.18105	0.10863	-2.6542	-3.0167	-3.4958	-3.1854	-3.1521	-3.3125	-3.1604	-3.3458	-3.1271	-3.1604	-3.5333	-3.0479	-3.0563	-3.5125	-3.1333	-3.3688	275.417	205.698	-17.219	286.784	255.993	200.206	139.354	256.789	166.573	324.223	-28.579	51.277	191.974	123.001	205.973	261.900	3.1094e-05	4.758e-06	1.637e-05	70.234	6.5666e-07	1.2421e-06	58.667	25.266	3.0723e-07	5.6555e-07	21.434	6.4715	7.8756	2.8278	1.512e-07	2.3883	0.00017313	-6.7819e-06	-1.0461e-05	84.618	-1.1792e-07	2.4397e-06	70.534	30.611	-1.5308e-07	-1.129e-07	25.787	7.8876	9.5641	3.444	-1.7176e-07	2.9006	288.036	241.566	84.480	-18.535	130.511	48.072	-20.967	-13.328	236.616	120.958	-17.467	-12.481	-9.838	-4.603	252.000	-9.873	-8191	255	
1439.834	1	1	0	0	0.225	0.11012	0.082696	0.19936	0.14503	0.16851	0.14177	0.15444	0.1211	0.27679	0.29163	0.21656	0.19784	0.28626	0.16574	0.27138	-3.1146	-2.9604	-3.1875	-3.1813	-3.1167	-3.5104	-3.1771	-3.3167	-3.5021	-3.2458	-3.3521	-3.1125	-3.2729	-3.5333	-2.9479	-3.0062	91.160	110.146	119.689	-0.692	256.051	47.309	275.114	33.771	27.059	-0.821	132.776	41.597	86.034	77.325	108.410	-22.724	1.9745e-05	3.6406e-05	2.5437e-05	70.083	5.326e-07	1.1372e-06	58.157	25.336	3.5613e-07	4.3481e-07	21.538	6.4083	7.8653	2.8337	4.0337e-07	2.4373	9.9845e-05	-1.984e-05	-7.8098e-06	84.206	-1.4582e-07	3.6961e-06	69.955	30.507	-3.0341e-07	-2.3915e-07	25.825	7.8464	9.569	3.4568	-3.2954e-08	2.9357	248.927	61.572	51.204	-18.594	170.466	37.740	-20.808	-13.183	189.889	81.885	-17.552	-12.395	-9.539	-4.747	197.933	-9.843	-8191	255	
1439.930	1	1	0	0	0.162	0.27239	0.1628	0.074721	0.14974	0.26502	0.060521	0.079766	0.12115	0.12685	0.098636	0.093741	0.16029	0.090435	0.17946	0.38357	-3.1354	-3.1396	-3.3208	-3.2354	-3.0292	-3.6292	-3.125	-3.1583	-3.4792	-3.1208	-3.3063	-3.1312	-2.9062	-3.35	-3.1167	-3.2229	63.262	-20.763	261.527	215.486	31.280	298.080	193.570	282.846	-30.601	70.709	-24.826	101.010	234.485	235.898	171.165	56.287	2.2399e-05	6.2672e-05	6.9672e-06	70.262	2.3402e-07	1.0894e-06	58.867	25.499	2.9864e-07	6.98e-07	21.708	6.4957	7.9601	2.8477	7.1276e-07	2.4549	0.00017271	-1.7714e-05	-9.2634e-06	84.551	-4.1407e-08	1.8858e-07	71.016	30.774	-1.7324e-07	-2.7071e-07	26.15	7.9932	9.6623	3.4902	-1.5279e-07	2.9625	284.517	105.209	98.594	-18.424	80.103	34.065	-20.866	-13.475	318.706	120.203	-17.894	-12.458	-9.560	-4.854	157.267	-9.683	-8191	255	
1440.026	1	1	0	0	0.10788	0.28673	0.11724	0.1615	0.06717	0.049256	0.10919	0.1849	0.17928	0.11173	0.12419	0.095977	0.34527	0.032366	0.16389	0.10688	-3.1562	-2.6312	-3.3042	-3.35	-3.2021	-3.4646	-3.2729	-3.1167	-3.5083	-3.1562	-3.5167	-3.475	-3.1063	-3.4833	-3.2521	-3.3625	91.940	148.856	78.582	296.892	286.115	222.031	-26.832	51.191	195.575	121.524	262.863	260.859	98.795	47.867	148.863	220.874	2.2047e-05	7.8189e-05	6.7315e-06	70.534	1.3132e-07	6.6043e-07	60.013	25.737	3.2962e-07	3.9909e-07	21.908	6.5774	7.9569	2.8418	7.376e-07	2.4606	0.00010316	-1.5993e-05	-1.0233e-05	85.112	-5.4009e-09	-4.0661e-07	72.729	30.99	-2.9057e-07	-7.2836e-09	26.35	7.9975	9.6566	3.482	-5.8918e-08	2.9616	275.598	54.016	84.460	-18.651	129.743	140.143	-21.037	-13.301	121.029	149.180	-17.598	-12.140	-9.433	-4.924	218.234	-9.735	-8191	255	
1440.147	1	1	0	0	0.031067	0.12788	0.16381	0.29545	0.19886	0.04947	0.069487	0.30537	0.015069	0.12605	0.10478	0.059424	0.18475	0.14627	0.069396	0.14355	-3.0667	-2.8042	-3.2854	-3.4771	-2.9167	-3.4021	-3.2167	-3.2042	-3.5604	-3.0729	-3.375	-3.4104	-3.05	-3.425	-3.3438	-2.9313	138.798	29.743	279.380	-26.616	53.340	302.010	170.351	26.175	54.141	305.793	173.232	-24.621	186.494	212.946	310.028	246.320	4.4662e-06	3.9445e-05	1.6782e-05	70.565	5.9624e-07	6.8933e-07	58.346	25.141	1.469e-07	3.2212e-07	21.326	6.3546	7.8504	2.8481	6.8766e-07	2.3955	0.0001383	1.0426e-05	-8.8644e-06	84.57	2.7004e-09	-4.6908e-07	70.445	30.455	-3.1074e-07	-2.5978e-07	25.703	7.8717	9.5619	3.4628	-1.9373e-07	2.9071	-26.878	150.934	-2.703	-18.575	187.262	160.112	-20.856	-13.668	7.681	243.345	-17.661	-12.326	-9.399	-5.110	12.914	-9.809	-8191	255	
1440.243	1	1	0	0	0.36957	0.23029	0.071074	0.23453	0.25462	0.097041	0.12633	0.19149	0.17568	0.2429	0.16007	0.13695	0.18095	0.28861	0.27991	0.15059	-2.9083	-3.2354	-3.0438	-3.4917	-3.075	-3.5479	-3.2729	-3.0458	-3.4188	-3.2021	-3.1625	-3.5	-3.1188	-3.4708	-3.2146	-2.9875	186.364	-13.726	119.856	235.608	-13.628	86.599	-22.299	256.821	110.891	87.038	267.619	253.289	158.575	-19.467	138.821	38.068	1.4221e-05	6.8055e-05	1.3026e-05	69.963	6.8725e-07	1.0273e-06	58.769	25.266	2.2221e-07	6.9787e-07	21.447	6.3501	7.8623	2.8055	2.9701e-07	2.3907	2.0593e-05	0.00014212	-9.3204e-06	84.252	-2.6104e-08	-4.5022e-07	70.956	30.459	-3.4191e-07	-3.2291e-07	25.799	7.85	9.584	3.4352	-2.0971e-07	2.9146	307.320	137.315	63.424	-18.492	73.746	151.588	-20.579	-13.488	81.092	194.600	-17.545	-12.644	-9.535	-4.700	50.908	-9.950	-8191	255	
1440.339	1	1	0	0	0.19269	0.30043	0.13534	0.19111	0.2098	0.23427	0.32225	0.29649	0.10438	0.2725	0.13153	0.076881	0.1211	0.21752	0.074486	0.20069	-3.1542	-3.1458	-3.075	-3.3354	-3.1521	-3.4479	-3.1854	-2.8417	-3.6271	-3.3771	-3.1146	-3.3292	-3.0271	-3.4	-3.5375	-3.0125	213.555	225.816	34.738	184.037	237.555	-26.396	246.876	19.663	103.782	-30.549	202.509	274.034	246.511	266.560	83.523	62.151	1.5808e-05	9.7328e-05	1.665e-05	70.367	8.4696e-07	3.1504e-07	58.909	25.396	1.9297e-07	3.7294e-07	21.686	6.5277	7.965	2.8511	4.9853e-07	2.4612	5.1193e-06	0.00041016	-6.3561e-06	84.375	-8.2813e-08	-3.8776e-07	71.184	30.705	-2.7866e-07	-2.9984e-07	26.254	8.0009	9.6708	3.4783	-2.7062e-07	2.9742	236.094	235.599	68.473	-18.834	172.244	108.268	-20.457	-13.682	189.598	185.209	-17.930	-12.869	-9.528	-4.538	134.741	-9.545	-8191	255	
1440.435	1	1	0	0	0.17895	0.16871	0.12226	0.20395	0.25427	0.12034	0.15357	0.13791	0.063428	0.019836	0.044798	0.24962	0.014972	0.07447	0.10332	0.21842	-2.9396	-3.2292	-3.2646	-3.6896	-3.4146	-3.3125	-3.3396	-2.9521	-3.525	-3.2604	-3	-3.5021	-3.1562	-3.225	-3.4813	-2.9604	195.799	268.056	113.603	279.624	76.599	100.263	234.226	123.919	114.307	112.153	20.320	-0.808	327.436	245.095	64.373	93.328	1.3647e-05	4.1796e-05	1.312e-05	70.617	4.5696e-07	6.1688e-07	59.968	25.414	5.6027e-07	3.2987e-07	21.694	6.5102	7.9668	2.8274	3.1614e-07	2.4345	9.8537e-06	0.00024263	-5.4155e-06	84.95	-1.6023e-07	-3.2529e-07	72.38	30.776	-2.7316e-07	-3.5204e-07	26.198	7.9127	9.6985	3.4775	-2.6064e-07	2.9452	196.530	157.392	13.994	-18.707	128.227	105.905	-20.276	-13.639	159.161	172.698	-17.609	-12.710	-9.778	-5.115	180.088	-10.043	-8191	255	
1440.530	1	1	0	0	0.13756	0.17521	0.16849	0.10254	0.055628	0.21135	0.13219	0.079342	0.25215	0.10903	0.21017	0.11087	0.17919	0.18441	0.070768	0.15783	-3.025	-3.3417	-3.1833	-3.4729	-3.2	-3.1833	-3.5354	-2.9521	-3.2812	-3.2229	-3.1208	-3.4562	-3.4042	-3.0208	-3.2917	-2.8833	240.975	215.333	233.529	79.785	130.632	42.722	114.554	185.486	229.953	247.868	106.996	-22.458	163.885	73.621	269.014	68.331	2.6303e-05	0.00013398	6.6525e-06	69.849	4.1231e-07	6.0348e-07	57.969	25.328	1.2673e-07	7.6227e-07	21.528	6.4409	7.913	2.8207	6.5577e-07	2.4263	1.3125e-05	0.00041542	-4.703e-06	84.085	-9.2715e-08	-3.5358e-07	70.333	30.483	-2.3924e-07	-3.9696e-07	25.862	7.8282	9.7375	3.4712	-2.7162e-07	2.9423	247.292	276.011	143.363	-18.588	197.924	126.957	-20.704	-13.600	215.613	206.805	-17.689	-13.100	-9.055	-4.742	160.034	-9.225	-8191	255	
1440.628	1	1	0	0	0.12814	0.24473	0.3612	0.037218	0.23529	0.085134	0.057661	0.057902	0.20786	0.098979	0.17758	0.088101	0.11324	0.16547	0.2153	0.06053	-2.9042	-3.3729	-2.8292	-3.4313	-3.1792	-3.0667	-3.5208	-2.9208	-3.1125	-3.5438	-3.1229	-3.2354	-3.0687	-3.0479	-3.5542	-3.1312	298.236	232.491	319.410	147.844	305.925	85.833	154.920	265.801	159.006	124.278	239.197	94.176	47.519	31.613	171.665	80.775	1.2641e-05	3.9597e-05	1.5723e-05	70.414	6.32e-07	2.8085e-07	58.668	25.326	2.8157e-07	3.854e-07	21.57	6.5599	7.8994	2.853	7.3845e-07	2.4351	7.2748e-06	0.00020994	-1.7102e-06	84.179	-1.0622e-07	-4.0544e-07	70.825	30.682	-1.0908e-07	-3.2048e-07	26.06	7.9027	9.7286	3.5025	-3.2755e-07	2.9703	218.964	251.870	89.963	-18.376	136.441	125.232	-20.563	-13.254	287.266	109.085	-16.969	-12.508	-9.580	-4.874	98.589	-10.079	-8191	255	
1440.747	1	1	0	0	0.11269	0.1461	0.13574	0.12416	0.1065	0.29665	0.18383	0.057997	0.17339	0.042378	0.17282	0.12561	0.1717	0.13729	0.027058	0.1134	-2.7167	-3.2854	-2.9479	-3.3187	-3.425	-3.0563	-3.275	-3.2042	-3.2604	-3.4375	-2.9	-3.2313	-3.3333	-3.2125	-3.5104	-3.0146	20.751	234.486	279.838	150.242	123.183	11.316	285.966	183.904	8.245	316.387	135.563	102.818	-15.304	323.549	264.484	224.749	2.2004e-05	0.00012411	9.1752e-06	70.235	2.9681e-07	3.5751e-07	58.89	25.629	4.2527e-07	9.4509e-07	21.872	6.5532	7.9559	2.865	3.069e-07	2.4701	1.0662e-05	0.00040499	-2.1377e-06	84.718	-1.8003e-07	-1.485e-07	71.001	31.019	-1.5125e-07	-5.3535e-07	26.417	7.959	9.853	3.5057	-4.7434e-07	2.9846	264.455	247.521	284.299	-18.357	222.752	91.902	-20.855	-13.181	254.220	152.148	-17.388	-13.131	-9.526	-4.556	133.379	-10.090	-8191	255	
1440.843	1	1	0	0	0.19035	0.16285	0.1695	0.24713	0.14179	0.25991	0.083331	0.2891	0.034981	0.049178	0.23542	0.20134	0.042953	0.16738	0.036885	0.084785	-2.675	-3.2583	-2.9792	-3.3146	-3.4104	-3.2271	-3.45	-3.2583	-3.0875	-3.25	-3.0792	-3.4333	-3.4146	-3.1479	-3.4625	-3.3167	5.780	90.522	62.191	239.077	257.463	114.406	231.441	180.210	253.640	101.212	90.374	320.493	203.285	-6.132	261.503	151.301	6.146e-06	6.602e-05	1.5202e-05	70.287	7.8405e-07	6.197e-07	58.335	25.531	2.8507e-07	4.9401e-07	21.614	6.3967	7.971	2.7868	2.8404e-07	2.3622	1.0008e-05	0.00024121	-1.9952e-06	84.567	-4.3207e-08	-2.475e-07	70.251	31.021	-1.0725e-07	-4.9893e-07	25.963	7.7687	9.6889	3.4085	-3.5451e-07	2.8633	232.525	298.172	51.264	-18.437	224.257	124.224	-20.704	-13.273	206.380	80.011	-17.550	-12.991	-9.864	-5.040	119.182	-9.937	-8191	255	
1440.939	1	1	0	0	0.12432	0.097277	0.06817	0.17433	0.13391	0.085281	0.16381	0.20346	0.19503	0.078971	0.052734	0.19705	0.2651	0.095212	0.21512	0.15637	-2.6917	-3.6979	-2.8187	-3.2188	-3.3937	-3.05	-3.4208	-3.2	-3.2313	-3.4917	-3.1021	-3.2062	-3.3375	-3.0938	-3.4458	-3.3104	278.488	77.055	156.044	317.759	104.364	272.290	209.147	140.165	139.366	111.880	94.925	188.779	-22.374	314.166	279.824	258.556	1.2693e-05	0.00014577	5.406e-06	68.947	9.6113e-07	5.4121e-07	57.174	25.174	1.6772e-07	4.7346e-07	21.438	6.3132	7.8174	2.7653	2.2847e-07	2.3641	1.3087e-05	0.00026439	1.6845e-05	83.223	-2.3674e-07	-2.6518e-07	69.057	30.587	-1.2741e-07	-6.446e-07	25.765	7.6786	9.6625	3.3995	-2.9559e-07	2.8678	272.343	302.370	218.277	-18.408	161.366	109.523	-20.451	-13.675	110.060	112.437	-17.503	-12.897	-9.356	-4.658	276.036	-9.738	-8191	255	
1441.035	1	1	0	0	0.15229	0.022603	0.20766	0.14817	0.13777	0.10277	0.19983	0.044106	0.24724	0.083556	0.33871	0.19605	0.27453	0.21661	0.068172	0.26314	-2.8146	-3.2625	-3.1437	-3.1312	-3.3854	-3.0896	-3.2646	-3.3354	-2.9354	-3.5	-3.0958	-3.0042	-3.5229	-3.1562	-3.3125	-3.5062	121.291	181.858	-24.388	157.878	156.051	152.662	229.915	-24.325	135.936	15.222	134.104	83.350	98.976	212.360	95.744	110.918	1.8387e-05	9.5574e-05	1.4188e-05	69.321	4.901e-07	4.8507e-07	58.188	25.266	6.3833e-07	2.7512e-07	21.485	6.4481	7.9202	2.8079	7.3776e-08	2.4263	1.6089e-05	-1.9941e-05	5.3443e-05	83.499	-3.4836e-07	-1.3436e-07	69.853	30.82	-7.8831e-08	-4.6615e-07	26.054	7.8191	9.718	3.4421	-2.2069e-07	2.9291	241.802	315.213	94.276	-18.406	151.828	143.144	-20.708	-13.283	248.641	308.644	-17.585	-12.907	-9.541	-4.875	54.083	-9.840	-8191	255	
1441.131	1	1	0	0	0.34734	0.13406	0.15237	0.096164	0.14262	0.1195	0.17014	0.096332	0.082122	0.32119	0.271	0.15117	0.16527	0.082065	0.35542	0.11412	-2.4771	-3.3229	-3.2104	-3.425	-3.5625	-3.1354	-3.3625	-3.5333	-2.9542	-3.3042	-3.1333	-3.2188	-3.5729	-3.2938	-3.2854	-3.2833	195.599	219.337	73.717	213.356	284.681	75.589	-25.233	29.733	55.973	95.778	-17.503	188.764	80.362	110.624	178.303	207.557	1.5305e-05	7.2469e-05	3.7718e-05	70.136	4.3445e-07	5.0735e-07	58.981	25.684	6.2722e-07	6.094e-07	21.974	6.5588	7.9532	2.8469	3.9853e-07	2.4447	1.6474e-05	-4.4538e-05	0.00012487	84.521	-2.6464e-07	-1.0018e-07	70.955	31.21	1.8333e-08	-3.9938e-07	26.574	7.9859	9.8318	3.5006	-2.5664e-07	2.946	228.218	104.079	312.702	-18.512	134.798	121.855	-20.584	-13.259	186.462	165.416	-17.704	-12.663	-9.789	-4.778	159.741	-9.626	-8191	255	
1441.227	1	1	0	0	0.12341	0.057478	0.17532	0.15246	0.078851	0.27791	0.13082	0.14427	0.29908	0.15777	0.12071	0.086016	0.31228	0.097245	0.15328	0.11476	-2.5187	-3.5521	-3.1854	-2.9813	-3.4396	-3.2479	-3.4271	-3.3667	-3.0167	-3.5438	-3.4146	-2.8917	-3.3833	-3.0958	-3.0396	-3.2875	149.259	202.517	319.459	98.505	32.437	218.055	317.968	109.662	266.380	6.622	316.330	-27.435	-23.760	134.111	230.484	15.709	1.302e-05	9.187e-05	2.5502e-05	69.99	1.7209e-07	7.6235e-07	58.096	25.367	2.5084e-07	8.9208e-07	21.446	6.2829	7.881	2.6732	5.8099e-07	2.271	1.7051e-05	-3.148e-05	6.8891e-05	84.125	-2.2774e-07	-2.5458e-07	69.74	30.897	4.1249e-08	-4.1638e-07	25.842	7.6681	9.5315	3.3023	-5.0929e-08	2.7598	259.705	40.721	31.042	-18.485	141.478	79.074	-20.667	-13.522	306.596	21.419	-17.609	-12.673	-10.046	-4.597	141.962	-9.570	-8191	255	
1441.323	1	1	0	0	0.32092	0.11428	0.16173	0.076778	0.13602	0.14319	0.22179	0.13184	0.078849	0.20883	0.09608	0.061	0.26762	0.034133	0.12095	0.24855	-2.5833	-3.3146	-3.275	-3.1896	-3.5854	-3.3396	-3.2417	-3.4938	-3.0292	-3.4667	-3.3854	-3.0771	-3.3	-3.3063	-3.2417	-3.6042	253.613	210.649	-19.230	212.775	164.365	53.229	78.411	-14.355	151.377	-17.672	302.472	146.295	263.276	237.973	173.942	193.525	9.8642e-06	4.1958e-05	3.9846e-05	68.259	3.3162e-07	9.737e-07	56.636	25.106	3.0985e-07	5.33e-07	21.612	6.2371	7.8149	2.6736	3.2182e-07	2.2763	1.7744e-05	-3.7048e-05	0.00011823	81.932	-2.9615e-07	-2.4515e-07	68.341	30.418	3.3916e-08	-3.9089e-07	25.841	7.6539	9.5132	3.3201	-2.0372e-07	2.7696	202.973	50.202	325.421	-18.492	268.804	96.314	-20.248	-13.615	172.909	101.593	-17.746	-12.981	-9.458	-4.714	8.865	-9.701	-8191	255	
1441.444	1	1	0	0	0.23199	0.11902	0.20296	0.12637	0.11209	0.14169	0.026249	0.22483	0.17356	0.1167	0.35473	0.18649	0.2683	0.086943	0.29662	0.16827	-2.5833	-3.1792	-3.3833	-3.0792	-3.2417	-3.1104	-2.8875	-3.4688	-3.1417	-3.2333	-3.4042	-2.8458	-3.3458	-3.2604	-3.1458	-3.3667	198.198	303.055	167.251	221.600	290.039	24.778	291.933	78.545	25.773	212.152	20.343	318.707	253.160	57.983	302.231	58.191	1.2819e-05	0.00010345	1.3476e-05	68.659	9.4302e-07	8.523e-07	57.855	25.258	1.2223e-06	6.0864e-07	21.575	6.4668	7.8847	2.7258	4.3417e-07	2.3464	1.5935e-05	-2.3686e-05	6.416e-05	82.194	-3.8526e-07	-2.7226e-07	69.175	30.584	1.0413e-06	-4.2852e-07	26.13	7.8036	9.6309	3.3588	-1.3781e-07	2.8419	227.813	65.352	326.710	-18.540	159.205	113.902	-20.836	-13.221	205.566	83.833	-17.777	-12.246	-9.985	-4.965	120.670	-9.876	-8191	255	
1441.539	1	1	0	0	0.20581	0.21404	0.038009	0.10546	0.072038	0.067892	0.11563	0.090641	0.2331	0.1318	0.13963	0.13673	0.071304	0.2766	0.16211	0.2573	-2.5458	-3.0042	-3.5271	-3.0667	-3.4938	-3.3333	-3.0458	-3.4104	-3.2958	-3.2083	-3.4479	-3.0563	-3.25	-3.4521	-2.9854	-3.3625	242.686	213.092	20.532	48.038	122.877	160.887	135.679	211.864	239.259	-20.189	135.508	297.224	273.042	115.241	214.904	197.059	1.8953e-05	5.2285e-05	4.3379e-05	68.97	5.5617e-07	1.0261e-06	58.595	25.579	7.0045e-07	3.822e-07	22.023	6.3987	7.9862	2.7367	2.7031e-07	2.3281	1.7398e-05	-2.3383e-05	0.00012142	83.039	-3.6276e-07	-5.233e-07	70.406	30.902	2.0854e-06	-4.0545e-07	26.45	7.8522	9.6423	3.3993	-1.3781e-07	2.8384	219.975	60.112	-29.413	-18.343	69.492	113.358	-20.510	-13.202	227.227	91.716	-17.455	-12.804	-9.490	-4.556	198.708	-10.078	-8191	255	
1441.635	1	1	0	0	0.26159	0.090586	0.23553	0.34764	0.15696	0.28571	0.30671	0.11041	0.12155	0.18607	0.15153	0.10195	0.28246	0.07539	0.13335	0.12001	-2.8792	-3.2917	-3.5479	-2.9833	-3.4708	-3.4708	-3.0542	-3.2104	-3.0375	-3.0458	-3.3917	-2.9208	-3.4521	-3.2313	-3.175	-3.4583	323.233	194.754	34.505	39.589	284.935	112.930	159.154	88.700	236.695	286.184	151.840	185.596	204.693	204.740	22.470	218.612	1.4331e-05	2.203e-05	3.5836e-05	68.634	3.7545e-07	6.4245e-07	57.341	25.191	1.2078e-06	1.1104e-07	21.535	6.268	7.8352	2.7261	3.902e-07	2.3147	9.0838e-06	-3.0063e-05	6.7295e-05	82.452	-1.7643e-07	-4.8676e-07	69.002	30.393	4.0607e-06	-1.8088e-07	25.844	7.6667	9.4758	3.3558	-1.0885e-07	2.8118	240.829	286.064	-21.956	-18.262	155.706	89.244	-20.693	-13.327	209.170	104.052	-17.271	-12.789	-9.827	-4.957	29.903	-9.540	-8191	255	
1441.708	1	1	0	0	0.060156	0.16973	0.27558	0.15857	0.14265	0.094769	0.12239	0.1507	0.20446	0.11079	0.053326	0.081356	0.16712	0.15562	0.068632	0.15644	-2.5812	-2.9771	-3.5479	-3.1646	-3.0938	-3.5333	-3.0208	-3.1917	-3.2542	-3.0125	-3.3229	-3.0729	-3.2604	-3.4854	-3.0917	-3.2958	15.469	86.607	81.260	111.263	16.423	-12.077	311.275	252.643	214.539	258.557	250.399	68.388	273.959	226.408	215.022	34.678	1.883e-05	3.1126e-05	4.7497e-05	67.857	4.5475e-07	4.8125e-07	57.206	25.011	4.183e-07	4.4991e-07	21.534	6.2606	7.7689	2.7001	6.3032e-07	2.2909	1.1778e-05	-1.8119e-05	5.806e-05	82.247	-2.0703e-07	-4.3137e-07	68.7	30.225	2.2302e-06	-2.2701e-07	25.889	7.6791	9.4874	3.3413	-1.3581e-07	2.795	242.929	130.809	-13.808	-18.626	158.191	220.122	-20.590	-13.475	207.203	110.776	-17.512	-12.806	-9.699	-5.033	102.903	-9.959	-8191	255	
1441.827	1	1	0	0	0.059122	0.25004	0.0070651	0.05522	0.15092	0.10269	0.1772	0.28637	0.078753	0.1353	0.14577	0.091666	0.14961	0.10616	0.029461	0.13949	-2.7708	-3.1583	-3.4188	-3.325	-3.1625	-3.4875	-3.075	-3.2792	-3.4979	-3.2396	-3.525	-3.3583	-3.1312	-3.1042	-3.0479	-3.075	143.887	87.277	298.945	315.441	144.486	87.346	132.267	260.385	164.385	264.353	32.652	15.464	-24.327	164.166	25.060	147.584	1.7796e-05	1.5547e-05	1.2569e-05	68.059	5.7666e-07	6.0371e-07	57.441	25.179	1.3804e-06	8.4436e-07	21.592	6.3051	7.8417	2.6948	4.7565e-07	2.3028	1.0585e-05	-1.6297e-05	-1.3111e-05	82.393	-2.6194e-07	-5.7751e-07	69.213	30.345	3.9415e-06	-3.6782e-07	26.035	7.6929	9.5008	3.328	-1.8774e-07	2.801	253.107	142.391	79.091	-18.323	72.869	151.036	-20.990	-13.520	217.177	136.085	-17.156	-12.296	-9.640	-4.749	151.290	-9.820	-8191	255	
1441.923	1	1	0	0	0.28942	0.12636	0.12326	0.075576	0.2872	0.17991	0.034133	0.20031	0.12747	0.024518	0.18611	0.10127	0.34883	0.12028	0.34043	0.24601	-2.8438	-2.9229	-3.4167	-3.2687	-2.9854	-3.4854	-3.1125	-3.2083	-3.275	-3.0667	-3.4208	-3.4146	-3.1208	-3.625	-3.1021	-3.1083	48.629	66.110	133.066	-6.574	169.898	138.498	153.355	165.619	35.528	210.802	52.985	-2.337	283.198	218.426	261.082	-15.375	1.2562e-05	3.4427e-05	1.5871e-05	68.169	6.3565e-07	9.1724e-08	57.464	24.925	7.603e-07	2.8101e-07	21.291	6.3388	7.7203	2.6958	9.6838e-07	2.2926	9.0838e-06	-5.7697e-06	-1.2598e-05	82.856	-1.6203e-07	-6.1287e-07	69.13	30.207	2.2146e-06	-1.5174e-07	25.761	7.6447	9.4191	3.3114	1.1923e-06	2.7603	239.489	129.504	287.065	-18.617	243.195	5.189	-20.601	-13.223	170.414	1.885	-17.850	-12.888	-10.035	-4.790	273.894	-9.662	-8191	255	
1442.019	1	1	0	0	0.17049	0.17018	0.21726	0.14448	0.074181	0.15633	0.097041	0.073465	0.10768	0.16444	0.17942	0.075923	0.10801	0.14355	0.15408	0.18709	-3.0312	-2.975	-3.2646	-3.1792	-3.1813	-3.5687	-3.1562	-3.0479	-3.1583	-3.0229	-3.3167	-3.3271	-2.9938	-3.475	-3.2542	-2.9896	284.960	56.891	153.521	154.846	98.380	-29.928	77.236	193.823	182.032	234.551	242.472	134.624	-3.040	228.934	324.236	242.846	6.1727e-06	2.1977e-05	1.0532e-05	67.737	6.2982e-07	4.7848e-07	56.102	24.859	1.4714e-06	5.6517e-07	21.202	6.1585	7.6659	2.6776	2.65e-07	2.2678	4.8883e-06	-1.8726e-05	-1.0717e-05	81.46	-7.6512e-08	-5.7162e-07	67.591	29.845	3.8132e-06	-2.4036e-07	25.491	7.5277	9.3545	3.2675	2.2888e-06	2.7463	221.837	44.942	18.923	-18.509	100.749	138.710	-20.638	-13.199	193.249	147.842	-17.504	-13.113	-9.474	-4.744	256.757	-9.663	-8191	255	
1442.115	1	1	0	0	0.041182	0.32702	0.15012	0.17116	0.16403	0.1116	0.025735	0.11888	0.2251	0.042975	0.22308	0.04701	0.099617	0.13177	0.034353	0.3138	-2.9479	-2.8583	-3.2625	-3.3292	-2.9542	-3.4521	-3.1354	-3.0833	-3.4125	-3.0229	-3.3417	-3.2104	-2.9938	-3.1125	-3.2021	-3.1604	287.227	33.660	85.885	262.296	233.660	323.364	118.811	87.513	299.377	292.117	-0.219	160.630	206.178	284.849	168.289	218.457	1.563e-05	6.5606e-05	4.3644e-06	67.096	5.2554e-07	4.4228e-07	56.421	24.814	9.7181e-07	5.8127e-07	21.218	6.2249	7.7054	2.6325	1.2954e-06	2.2301	4.9268e-06	-1.326e-05	-8.4368e-06	81.727	-1.3592e-07	-5.8458e-07	67.89	29.977	2.1578e-06	-2.4643e-07	25.557	7.5547	9.3581	3.2303	4.4259e-06	2.718	236.155	116.879	-7.589	-18.543	139.502	133.824	-20.450	-13.208	219.338	165.813	-17.481	-12.937	-9.796	-4.694	-5.988	-9.744	-8191	255	
1442.236	1	1	0	0	0.24142	0.057742	0.14429	0.11145	0.14935	0.3538	0.14084	0.080917	0.24768	0.15038	0.082021	0.11711	0.18169	0.13914	0.25313	0.22944	-3.2938	-3.2125	-3.0875	-3.3229	-3.0354	-3.5792	-3.2354	-3.2313	-3.6125	-3.1167	-3.0646	-3.3208	-2.9792	-3.0208	-3.2625	-2.9271	179.990	79.358	149.784	218.462	101.294	34.988	-28.150	320.712	295.546	238.091	73.470	302.206	-30.940	157.655	32.864	94.242	1.1237e-05	3.9534e-05	1.2749e-05	67.625	4.1967e-07	5.1679e-07	56.742	24.631	7.0641e-07	2.1186e-06	21.201	6.2224	7.684	2.6391	3.8122e-07	2.2648	2.9638e-06	-2.318e-05	-6.0711e-06	81.397	1.4402e-08	-3.9247e-07	68.065	29.878	1.6261e-06	2.0698e-06	25.732	7.5945	9.3857	3.2261	2.5425e-06	2.7407	234.980	61.614	102.066	-18.660	201.301	216.225	-20.355	-13.237	126.974	184.794	-17.535	-12.681	-9.736	-4.817	3.101	-9.748	-8191	255	
1442.332	1	1	0	0	0.20875	0.085686	0.079154	0.27767	0.098568	0.21621	0.033072	0.023111	0.14094	0.083841	0.046393	0.17426	0.24722	0.0099775	0.24145	0.17598	-3.1188	-3.2021	-2.9938	-3.4604	-2.8771	-3.4604	-3.2958	-3.0771	-3.4354	-3.1479	-3.1813	-3.4021	-3.15	-3.3625	-3.2	-2.8292	78.826	114.421	40.087	73.010	100.735	243.974	149.516	274.381	287.873	262.495	271.998	224.867	140.139	123.180	146.368	73.891	8.899e-06	4.2197e-05	4.6101e-06	67.204	5.4813e-07	6.7785e-07	56.617	24.613	3.2284e-07	8.2586e-07	20.992	6.1904	7.6728	2.6176	1.4184e-06	2.2143	4.8114e-06	-1.5386e-05	-6.2991e-06	81.777	1.6203e-08	-2.9701e-07	67.874	29.797	-4.0332e-07	2.9948e-06	25.423	7.4806	9.2955	3.1857	4.2621e-06	2.6837	227.543	126.075	232.135	-18.333	137.237	174.331	-20.252	-13.551	183.654	172.369	-17.572	-13.153	-9.361	-4.664	2.789	-9.480	-8191	255	
1442.428	1	1	0	0	0.2202	0.059061	0.2572	0.11962	0.18381	0.17124	0.046939	0.24855	0.25399	0.13985	0.28697	0.078309	0.051402	0.10661	0.099428	0.1693	-3.1083	-3.1396	-3.3458	-3.3958	-2.9979	-3.3083	-3.4583	-3.0938	-3.3438	-3.3312	-3.0604	-3.5438	-2.9896	-2.975	-3.3187	-3.05	155.471	256.999	-29.549	204.376	174.213	290.254	-11.668	253.656	222.637	177.972	-19.909	25.745	158.868	2.026	19.032	320.542	1.1261e-05	1.6105e-05	1.0614e-05	66.979	4.8867e-07	5.8495e-07	55.786	24.411	3.7766e-07	1.9799e-06	21.082	6.1884	7.6238	2.62	1.8417e-07	2.2003	2.3864e-06	-3.4821e-05	-5.6436e-06	80.768	-1.3682e-07	-4.9619e-07	67.123	29.66	-3.2357e-07	5.0293e-06	25.359	7.459	9.2744	3.1919	2.3048e-06	2.6682	212.994	55.652	130.408	-18.695	172.039	152.568	-20.486	-13.591	200.224	201.871	-17.332	-12.869	-9.923	-4.686	9.684	-9.070	-8191	255	
1442.524	1	1	0	0	0.066019	0.17053	0.20842	0.092676	0.28648	0.10644	0.061273	0.15633	0.094004	0.31886	0.16915	0.10013	0.11075	0.074299	0.18975	0.18112	-2.9708	-3.0479	-2.7833	-3.4979	-3.1937	-3.3563	-3.3417	-2.7938	-3.2167	-3.4167	-2.925	-3.4375	-3.0542	-3.0854	-3.5042	-2.9813	243.908	241.473	292.107	71.785	228.997	0.468	174.838	1.960	101.662	178.681	248.283	319.215	294.910	92.791	276.837	99.880	1.0722e-05	4.5023e-05	2.5321e-05	66.795	1.002e-06	5.7617e-07	56.348	24.425	7.5573e-07	7.7313e-07	21.259	6.2221	7.652	2.5818	1.7726e-06	2.2111	1.5781e-06	-2.7735e-05	-2.4797e-06	80.654	1.5338e-06	-4.7144e-07	67.499	29.659	-1.8974e-07	2.7253e-06	25.536	7.5268	9.3006	3.1794	4.0544e-06	2.6795	236.424	34.837	54.017	-18.568	177.548	170.466	-20.440	-13.724	178.085	193.110	-17.381	-12.575	-9.940	-4.789	40.071	-9.913	-8191	255	
1442.619	1	1	0	0	0.24407	0.11652	0.13326	0.083771	0.15735	0.095929	0.1954	0.1344	0.063881	0.096687	0.14354	0.31357	0.16646	0.076026	0.11409	0.22169	-2.8771	-3.2229	-2.975	-3.2979	-3.1937	-3.1458	-3.55	-3.05	-3.3667	-3.5	-2.8646	-3.4917	-3.2667	-3.0667	-3.5458	-3.1562	48.168	96.647	116.978	175.081	184.135	-14.441	271.604	283.493	52.351	6.192	50.628	159.737	17.548	255.381	215.785	185.008	1.3095e-05	3.5172e-05	1.2539e-05	67.158	1.3637e-06	2.9929e-07	57.014	24.669	3.7082e-07	1.7941e-06	21.271	6.2201	7.6347	2.6112	4.5975e-07	2.2384	5.2732e-06	-2.9658e-05	-7.5817e-06	80.523	2.2882e-06	-2.5104e-07	68.189	29.839	-2.1449e-07	5.0342e-06	25.718	7.5702	9.2833	3.2012	2.3937e-06	2.7036	248.578	88.544	-7.626	-18.452	132.321	26.715	-20.591	-13.521	177.662	204.061	-17.668	-12.837	-9.842	-4.599	52.016	-10.321	-8191	255	
1442.715	1	1	0	0	0.30983	0.11096	0.079706	0.10869	0.034862	0.11707	0.17192	0.13717	0.18433	0.17893	0.031497	0.22722	0.035843	0.24838	0.10706	0.10697	-2.8833	-3.4062	-2.8438	-3.3187	-3.3104	-2.9562	-3.4333	-3.0833	-3.2146	-3.3729	-3.0146	-3.3458	-3.3312	-2.925	-3.4688	-3.3438	87.526	326.140	-16.890	160.219	119.345	202.844	92.199	290.972	183.633	137.495	174.513	120.426	59.121	254.580	100.302	75.023	9.4536e-06	3.554e-05	2.492e-06	66.722	2.0196e-06	4.4933e-07	56.483	24.623	4.062e-07	9.3821e-07	21.135	6.1857	7.6494	2.6301	1.2224e-06	2.2262	7.0823e-06	-5.0915e-05	-6.7552e-06	80.152	3.948e-06	-2.1215e-07	67.471	29.715	-2.2366e-07	2.7423e-06	25.54	7.4998	9.314	3.208	1.2762e-06	2.7294	242.036	70.599	150.563	-18.347	149.778	157.912	-20.714	-13.725	164.279	237.034	-17.198	-13.203	-10.051	-4.504	70.534	-9.483	-8191	255	
1442.836	1	1	0	0	0.1272	0.17615	0.054259	0.17696	0.030464	0.43313	0.2025	0.10332	0.075362	0.18943	0.13905	0.10223	0.13994	0.25144	0.022517	0.25801	-2.7292	-3.2208	-2.8333	-3.5438	-3.6229	-3.0104	-3.3563	-3.1417	-3.2438	-3.4542	-3.1042	-3.3125	-3.3396	-2.8833	-3.2771	-3.1604	-25.725	154.308	50.185	35.251	129.354	234.727	181.112	220.836	311.037	95.326	13.909	63.323	325.886	141.361	188.433	148.201	8.6822e-06	5.5662e-05	1.723e-05	66.531	6.5934e-07	5.8564e-07	56.322	24.652	3.8428e-07	1.6943e-06	21.591	6.2256	7.688	2.6441	9.7272e-08	2.2565	5.6582e-06	-5.1725e-05	-6.0426e-06	80.189	2.1342e-06	-3.3001e-07	67.799	29.854	-1.5583e-07	5.0852e-06	25.84	7.6011	9.3663	3.2227	-4.7734e-07	2.7691	256.109	53.205	23.421	-18.204	158.412	82.447	-20.576	-13.284	112.545	252.162	-17.712	-12.903	-9.769	-4.342	53.340	-10.236	-8191	255	
1442.932	1	1	0	0	0.13594	0.11878	0.30515	0.17332	0.11584	0.083166	0.26614	0.077722	0.3329	0.075367	0.23101	0.095102	0.10481	0.25987	0.10328	0.25547	-2.6292	-3.4854	-3	-3.2354	-3.4604	-3.2938	-3.2875	-3.4479	-3.2375	-3.3063	-3.0958	-3.1958	-3.3458	-2.9313	-3.4396	-3.4354	314.162	273.617	183.958	146.739	148.487	225.053	161.273	115.613	313.704	-10.541	85.211	317.118	100.228	65.169	262.524	159.239	1.317e-05	2.8622e-05	6.146e-06	67.153	2.0231e-06	6.1979e-07	57.203	24.906	2.2104e-07	3.2617e-07	21.763	6.3296	7.7337	2.6511	1.7609e-07	2.2572	1.2433e-05	-6.1948e-05	-1.0175e-05	80.557	3.9417e-06	-3.4769e-07	68.572	30.135	-1.1825e-07	2.4024e-06	26.108	7.6876	9.405	3.2394	-3.585e-07	2.8137	215.600	94.615	271.767	-18.616	126.042	78.458	-20.443	-13.610	214.323	180.664	-17.105	-13.024	-9.655	-4.736	144.459	-10.329	-8191	255	
1443.003	1	1	0	0	0.10546	0.20461	0.12301	0.37417	0.12174	0.17796	0.024561	0.18132	0.10266	0.16353	0.17213	0.10764	0.011262	0.0591	0.20712	0.081328	-2.5083	-3.5312	-3.2708	-3.2188	-3.4167	-3.0354	-3.5604	-3.2417	-3.0583	-3.3667	-3.1063	-3.1125	-3.3396	-3.0438	-3.3771	-3.2479	241.332	227.125	317.924	16.507	198.776	11.742	14.616	262.271	215.835	221.510	45.602	103.463	218.224	302.442	247.175	303.985	1.6629e-05	4.2714e-05	1.6412e-05	67.545	7.6727e-07	8.9759e-07	57.734	25.082	7.1084e-08	2.6672e-07	21.753	6.293	7.7308	2.6303	1.1222e-07	2.2439	1.2163e-05	-4.4437e-05	-9.8905e-06	81.28	2.2351e-06	-3.5004e-07	69.226	30.29	-1.54e-07	1.3717e-06	26.434	7.644	9.3845	3.2205	-3.8247e-07	2.7521	242.968	80.785	53.900	-18.400	155.808	80.521	-20.660	-13.728	106.435	321.046	-17.388	-12.873	-9.693	-4.864	191.671	-9.402	-8191	255	
1443.100	1	1	0	0	0.13335	0.068867	0.25737	0.10778	0.029153	0.13306	0.059268	0.15159	0.095671	0.051892	0.18131	0.03217	0.19689	0.034499	0.22161	0.13854	-2.5187	-3.4792	-3.0938	-3.1083	-3.5417	-3.2479	-3.2771	-3.3146	-2.9771	-3.4771	-2.9771	-3.1958	-3.4458	-3.1521	-3.1229	-3.5042	257.755	44.991	167.903	167.448	194.870	33.456	-13.001	318.410	11.446	278.391	43.755	41.923	76.600	254.683	217.566	231.144	1.2044e-05	3.9617e-05	9.9708e-06	66.595	2.0426e-06	4.7538e-07	56.288	24.648	2.2761e-07	2.7575e-07	21.207	6.2203	7.6692	2.6047	3.3074e-07	2.2117	9.8152e-06	-4.8182e-05	-1.2712e-05	80.103	3.8679e-06	-3.8776e-07	67.408	29.853	-1.3475e-07	-6.1789e-07	25.856	7.5345	9.2922	3.1846	-2.8161e-07	2.7428	219.822	282.232	91.818	-18.532	162.801	111.151	-20.175	-13.187	74.914	107.886	-17.134	-12.138	-9.939	-4.818	151.565	-10.056	-8191	255	
1443.220	1	1	0	0	0.16532	0.01475	0.087898	0.056062	0.34318	0.11482	0.14118	0.09762	0.11972	0.11412	0.15224	0.061524	0.19222	0.12726	0.08365	0.25875	-2.7542	-3.2229	-3.2021	-3.1271	-3.3458	-3.075	-3.1312	-3.3854	-2.75	-3.5354	-3.2479	-2.7146	-3.2417	-3.1437	-3.0958	-3.2604	166.162	11.536	163.802	269.941	-10.716	229.633	15.353	170.579	-18.918	-8.934	42.297	328.222	313.381	219.494	289.078	241.554	2.7119e-05	5.8878e-05	1.552e-05	66.465	1.0007e-06	4.052e-07	56.139	24.762	7.8162e-07	3.8138e-08	21.13	6.2016	7.6322	2.6028	3.7523e-07	2.2484	1.3433e-05	-5.8608e-05	-1.3111e-05	79.893	1.9101e-06	-3.4533e-07	67.44	29.799	-1.0908e-07	-5.1471e-07	26.116	7.5682	9.3026	3.1846	-2.9958e-07	2.7557	237.465	38.277	90.086	-18.508	124.452	88.150	-20.771	-13.610	186.721	247.972	-17.793	-12.659	-9.894	-4.521	113.974	-9.952	-8191	255	
#DATA ENDS
