BOXY.EXE: ISS Imagent and Oximeter Data Acquisition Program Version 0.80
Ascii Record File

#ACQ INFORMATION
2  Detector Channels 
16  External MUX Channels 
1  Auxiliary Channels 
5000  Waveform (CCF) Frequency (Hz)
1  Waveforms Skipped 
30  Waveforms Averaged 
1  Cycles Averaged 
16  Acquisitions per Waveform 
10.0806  Updata Rate (Hz) 

#FILE INFORMATION
TRUE -- External MUX Channel results are PARSED.
FALSE -- AC DC and Phase are NOT grouped.
TRUE -- Companion Program Settings File CREATED.
FALSE -- AC data not excluded
FALSE -- DC data not excluded
FALSE -- Phase data not excluded
FALSE -- Auxillary Chn. data not excluded
Tab delimiters

#CALIBRATION STATE
TRUE -- Waveform Calibration Values APPLIED.


#AUX CALIBRATION VALUES
Val Type	aux-1	

Term	1.0000e+00	
Factor	0.0000e+00	


#WF CALIBRATION VALUES
A = Detector Channel
Val Type	A-AC1	A-AC2	A-AC3	A-AC4	A-AC5	A-AC6	A-AC7	A-AC8	A-AC9	A-AC10	A-AC11	A-AC12	A-AC13	A-AC14	A-AC15	A-AC16	A-DC1	A-DC2	A-DC3	A-DC4	A-DC5	A-DC6	A-DC7	A-DC8	A-DC9	A-DC10	A-DC11	A-DC12	A-DC13	A-DC14	A-DC15	A-DC16	A-Ph1	A-Ph2	A-Ph3	A-Ph4	A-Ph5	A-Ph6	A-Ph7	A-Ph8	A-Ph9	A-Ph10	A-Ph11	A-Ph12	A-Ph13	A-Ph14	A-Ph15	A-Ph16	

Term	0.00000e+00	0.00000e+00	0.00000e+00	0.00000e+00	0.00000e+00	0.00000e+00	0.00000e+00	0.00000e+00	0.00000e+00	0.00000e+00	0.00000e+00	0.00000e+00	0.00000e+00	0.00000e+00	0.00000e+00	0.00000e+00	0.00000e+00	0.00000e+00	0.00000e+00	0.00000e+00	0.00000e+00	0.00000e+00	0.00000e+00	0.00000e+00	0.00000e+00	0.00000e+00	0.00000e+00	0.00000e+00	0.00000e+00	0.00000e+00	0.00000e+00	0.00000e+00	0.00000e+00	0.00000e+00	0.00000e+00	0.00000e+00	0.00000e+00	0.00000e+00	0.00000e+00	0.00000e+00	0.00000e+00	0.00000e+00	0.00000e+00	0.00000e+00	0.00000e+00	0.00000e+00	0.00000e+00	0.00000e+00	
Factor	1.00000e+00	1.00000e+00	1.00000e+00	1.00000e+00	1.00000e+00	1.00000e+00	1.00000e+00	1.00000e+00	1.00000e+00	1.00000e+00	1.00000e+00	1.00000e+00	1.00000e+00	1.00000e+00	1.00000e+00	1.00000e+00	1.00000e+00	1.00000e+00	1.00000e+00	1.00000e+00	1.00000e+00	1.00000e+00	1.00000e+00	1.00000e+00	1.00000e+00	1.00000e+00	1.00000e+00	1.00000e+00	1.00000e+00	1.00000e+00	1.00000e+00	1.00000e+00	X	X	X	X	X	X	X	X	X	X	X	X	X	X	X	X	

B = Detector Channel
Val Type	B-AC1	B-AC2	B-AC3	B-AC4	B-AC5	B-AC6	B-AC7	B-AC8	B-AC9	B-AC10	B-AC11	B-AC12	B-AC13	B-AC14	B-AC15	B-AC16	B-DC1	B-DC2	B-DC3	B-DC4	B-DC5	B-DC6	B-DC7	B-DC8	B-DC9	B-DC10	B-DC11	B-DC12	B-DC13	B-DC14	B-DC15	B-DC16	B-Ph1	B-Ph2	B-Ph3	B-Ph4	B-Ph5	B-Ph6	B-Ph7	B-Ph8	B-Ph9	B-Ph10	B-Ph11	B-Ph12	B-Ph13	B-Ph14	B-Ph15	B-Ph16	

Term	0.00000e+00	0.00000e+00	0.00000e+00	0.00000e+00	0.00000e+00	0.00000e+00	0.00000e+00	0.00000e+00	0.00000e+00	0.00000e+00	0.00000e+00	0.00000e+00	0.00000e+00	0.00000e+00	0.00000e+00	0.00000e+00	0.00000e+00	0.00000e+00	0.00000e+00	0.00000e+00	0.00000e+00	0.00000e+00	0.00000e+00	0.00000e+00	0.00000e+00	0.00000e+00	0.00000e+00	0.00000e+00	0.00000e+00	0.00000e+00	0.00000e+00	0.00000e+00	-3.80650e+01	-1.32862e+02	-1.25430e+02	-1.81665e+02	-4.66408e+01	-6.69153e+01	-1.55920e+02	-1.62015e+02	-3.32665e+01	-6.84437e+01	-1.70727e+02	-1.71644e+02	-1.80701e+02	-1.77487e+02	-4.82893e+01	-1.50551e+02	
Factor	2.17353e-05	1.62563e-04	4.39496e-05	1.54653e-01	1.72098e-06	1.76303e-06	1.62475e-01	5.94268e-02	1.39045e-06	1.85064e-06	8.19659e-02	2.80416e-02	2.61055e-02	8.93581e-03	1.65438e-06	1.28829e-02	1.84756e-05	4.85871e-05	1.36813e-05	7.94789e-02	4.32069e-07	5.65725e-07	7.86197e-02	3.06710e-02	4.39986e-07	5.82689e-07	4.11320e-02	1.40425e-02	1.36022e-02	4.66921e-03	4.79335e-07	6.49530e-03	X	X	X	X	X	X	X	X	X	X	X	X	X	X	X	X	



#DISTANCE SETTINGS
A = Detector Channel
A-1	A-2	A-3	A-4	A-5	A-6	A-7	A-8	A-9	A-10	A-11	A-12	A-13	A-14	A-15	A-16	

2.5000e+00	3.0000e+00	2.5000e+00	3.0000e+00	2.0000e+00	3.0000e+00	1.5000e+00	3.0000e+00	3.0000e+00	3.0000e+00	3.0000e+00	3.0000e+00	3.0000e+00	3.0000e+00	1.5000e+00	3.0000e+00	

B = Detector Channel
B-1	B-2	B-3	B-4	B-5	B-6	B-7	B-8	B-9	B-10	B-11	B-12	B-13	B-14	B-15	B-16	

1.0000e+01	1.0000e+01	1.0000e+01	1.4400e+00	1.0000e+01	1.0000e+01	1.5100e+00	1.9400e+00	1.0000e+01	1.0000e+01	1.9900e+00	2.4900e+00	2.4100e+00	2.9000e+00	1.0000e+01	2.9800e+00	




#DATA BEGINS
time	group	step	mark	flag	A-AC1	A-AC2	A-AC3	A-AC4	A-AC5	A-AC6	A-AC7	A-AC8	A-AC9	A-AC10	A-AC11	A-AC12	A-AC13	A-AC14	A-AC15	A-AC16	A-DC1	A-DC2	A-DC3	A-DC4	A-DC5	A-DC6	A-DC7	A-DC8	A-DC9	A-DC10	A-DC11	A-DC12	A-DC13	A-DC14	A-DC15	A-DC16	A-Ph1	A-Ph2	A-Ph3	A-Ph4	A-Ph5	A-Ph6	A-Ph7	A-Ph8	A-Ph9	A-Ph10	A-Ph11	A-Ph12	A-Ph13	A-Ph14	A-Ph15	A-Ph16	B-AC1	B-AC2	B-AC3	B-AC4	B-AC5	B-AC6	B-AC7	B-AC8	B-AC9	B-AC10	B-AC11	B-AC12	B-AC13	B-AC14	B-AC15	B-AC16	B-DC1	B-DC2	B-DC3	B-DC4	B-DC5	B-DC6	B-DC7	B-DC8	B-DC9	B-DC10	B-DC11	B-DC12	B-DC13	B-DC14	B-DC15	B-DC16	B-Ph1	B-Ph2	B-Ph3	B-Ph4	B-Ph5	B-Ph6	B-Ph7	B-Ph8	B-Ph9	B-Ph10	B-Ph11	B-Ph12	B-Ph13	B-Ph14	B-Ph15	B-Ph16	aux-1	digaux	

920.492	1	1	0	256	0.12528	0.090937	0.096708	0.05696	0.16882	0.35057	0.061176	0.092175	0.20416	0.18703	0.14902	0.059705	0.1099	0.062111	0.15526	0.18449	-2.4125	-3.1125	-3.1375	-2.7542	-3.2333	-2.8167	-3.0646	-3.0771	-2.775	-3.0771	-3.1021	-2.9229	-3.2917	-3.0583	-3.0292	-3.3563	202.942	310.496	2.860	-3.397	18.848	39.359	297.270	315.905	171.505	187.720	299.011	151.783	18.389	26.006	280.838	78.119	0.00025354	0.00034524	0.00010651	532.98	3.3142e-06	3.8993e-06	490.95	237.63	3.2436e-06	4.4121e-06	222.55	97.493	106.03	50.258	2.9686e-06	44.958	0.00033352	0.0005217	0.00012285	547.14	2.7265e-06	2.9064e-06	503.85	245.04	3.167e-06	2.8855e-06	229.01	101.43	110.29	52.515	3.3813e-06	46.609	228.676	34.497	80.770	-6.855	156.389	136.583	-8.466	-2.305	177.364	116.074	-5.163	-1.608	0.753	3.937	154.890	0.995	-8191	255	
920.563	1	1	0	0	0.13917	0.024235	0.10262	0.22137	0.097219	0.11558	0.30342	0.10588	0.28084	0.11117	0.13744	0.32049	0.30061	0.15346	0.19321	0.091724	-2.6042	-3.0229	-3.1125	-2.9708	-3.1417	-3.0729	-3.0042	-3.1333	-2.9062	-3.2333	-3.1896	-2.7604	-3.3458	-3.1146	-2.85	-3.2708	178.359	262.016	25.332	296.765	116.084	45.966	204.624	226.585	112.094	143.298	81.653	-18.784	336.085	1.827	253.219	123.826	0.00025827	0.000503	8.4911e-05	527.3	3.501e-06	4.3232e-06	488.18	232.5	2.6525e-06	4.2262e-06	217.29	94.696	103.52	48.463	3.8445e-06	43.123	0.00033402	0.00028353	0.00023529	543.7	2.4871e-06	2.6707e-06	498.12	240.55	3.0194e-06	2.5007e-06	223.38	98.258	107.11	50.629	3.4013e-06	44.702	229.371	67.801	68.005	-6.933	165.416	124.458	-8.178	-2.375	164.468	126.501	-5.024	-1.416	0.890	3.963	166.621	0.524	-8191	255	
920.659	1	1	0	0	0.13164	0.088857	0.15339	0.11506	0.11626	0.083084	0.30995	0.096652	0.29479	0.19751	0.014649	0.1712	0.16711	0.11153	0.1494	0.27614	-2.4583	-2.9792	-3.1312	-2.9188	-3.1458	-3.0271	-3.2188	-3.425	-2.8292	-3.2083	-3.3063	-2.8125	-3.2396	-3.0896	-2.8312	-3.4	87.463	262.477	227.829	118.708	225.586	68.220	117.013	-3.433	334.585	106.623	116.211	262.164	289.168	-19.659	132.760	161.324	0.00024513	0.00034352	7.2998e-05	509.1	3.2937e-06	3.5066e-06	466.89	221.33	2.5284e-06	3.754e-06	207.5	90.574	98.395	46.339	3.4545e-06	41.322	0.00032521	0.00025893	0.00019362	524.27	2.5825e-06	2.4762e-06	477.52	229.43	2.8187e-06	2.4485e-06	213.19	93.756	102.12	48.346	3.2745e-06	42.719	230.529	71.101	40.195	-6.918	171.627	125.283	-8.093	-1.865	186.735	127.291	-5.090	-1.529	1.040	4.122	156.285	0.768	-8191	255	
920.780	1	1	0	0	0.089193	0.10712	0.11691	0.034598	0.060599	0.10046	0.25122	0.066979	0.18228	0.12457	0.29312	0.2397	0.21832	0.3802	0.15359	0.14551	-2.5146	-2.8812	-3.2125	-2.9813	-3.1521	-3.2396	-2.9729	-3.3875	-3.05	-2.8604	-3.2479	-2.6542	-3.0771	-2.8917	-2.7646	-3.5021	-17.261	231.844	316.740	105.176	57.644	5.013	237.620	38.033	307.822	60.612	266.983	-3.435	325.690	325.121	230.269	120.382	0.0002345	0.00041382	0.00011599	495.72	4.2165e-06	3.3408e-06	455.22	218.14	2.9316e-06	3.5578e-06	204.61	90.316	98.218	46.177	3.3083e-06	41.573	0.00030585	0.00024577	0.00021662	508.23	2.443e-06	2.468e-06	466.57	224.73	2.7233e-06	2.6015e-06	210.51	93.039	101.51	48.205	3.1676e-06	42.864	234.326	50.824	54.224	-6.882	152.147	124.576	-8.119	-2.106	168.788	118.862	-5.106	-1.287	0.945	4.307	165.247	0.969	-8191	255	
920.875	1	1	0	0	0.25387	0.13977	0.17048	0.10308	0.24421	0.2339	0.15099	0.33707	0.24911	0.11734	0.060646	0.16506	0.18664	0.13312	0.057251	0.090722	-2.6	-2.9021	-3.2562	-2.8208	-2.9375	-3.0333	-2.7958	-3.2146	-2.8146	-3.0125	-3.2438	-2.8354	-3.0396	-3.1396	-2.7292	-3.2542	86.180	3.002	327.901	100.134	116.742	115.748	310.267	308.889	320.827	133.710	117.299	61.807	-16.870	205.756	241.260	133.831	0.00022313	0.00042458	8.3503e-05	504.49	3.965e-06	3.2045e-06	464.58	223.5	3.0268e-06	3.6663e-06	210.51	91.69	99.68	47.207	3.1522e-06	42.228	0.00030115	0.00024638	0.0001882	516.69	2.3809e-06	2.3772e-06	476.34	229.67	2.8929e-06	2.7168e-06	215.54	94.612	103.29	49.082	3.4193e-06	43.634	228.975	69.929	30.880	-6.768	153.584	124.612	-8.559	-1.964	171.054	132.019	-5.106	-1.521	0.823	4.045	152.766	1.153	-8191	255	
920.971	1	1	0	0	0.13383	0.15758	0.1647	0.20568	0.053664	0.0365	0.34596	0.33117	0.2319	0.27851	0.29457	0.078466	0.18593	0.1534	0.27437	0.11817	-2.6833	-2.8021	-3.2708	-2.8688	-3.2104	-3.3833	-2.7792	-3.2333	-3.1146	-2.7562	-3.3417	-3.1333	-3.0771	-3.3563	-3.0083	-3.3542	328.897	283.596	254.665	251.025	-2.135	278.951	233.978	310.757	33.406	134.925	174.261	254.646	-2.661	284.752	238.665	325.241	0.00021792	0.0003023	0.00012303	511.38	2.5968e-06	4.0598e-06	469.54	224.92	3.4493e-06	3.237e-06	209.72	91.899	100.33	47.277	4.3152e-06	41.961	0.00030031	0.00022988	0.00022654	523.57	2.3377e-06	2.376e-06	479.57	231.31	4.3137e-06	2.6257e-06	215.47	94.851	103.87	49.163	3.3414e-06	43.28	230.204	56.691	50.453	-6.767	165.057	134.917	-8.300	-2.038	182.884	133.795	-4.881	-1.578	0.934	4.177	154.507	0.852	-8191	255	
921.067	1	1	0	0	0.13277	0.18293	0.31412	0.15604	0.030045	0.13271	0.13989	0.075069	0.28932	0.10797	0.11083	0.095038	0.23989	0.24598	0.028523	0.038092	-2.6125	-2.8688	-3.1521	-3.0187	-2.8625	-3.4375	-2.85	-3.1312	-3.1937	-2.9938	-3.2229	-3.1583	-2.9042	-3.2521	-2.9167	-3.1583	301.285	7.030	309.714	172.668	109.577	32.467	205.439	293.767	324.022	36.633	262.758	150.591	-8.659	319.646	208.879	135.832	0.00022482	0.00034675	8.9705e-05	512.41	4.0735e-06	3.8059e-06	467.77	223.71	4.0264e-06	4.7906e-06	208.09	90.678	99.444	46.465	3.6502e-06	41.241	0.00029507	0.00024263	0.00019048	524.77	2.6617e-06	2.1934e-06	477.67	230.36	7.6273e-06	2.7399e-06	213.44	93.603	102.53	48.447	3.2555e-06	42.583	229.824	67.754	56.479	-6.868	164.814	119.808	-8.197	-1.993	167.990	126.992	-5.094	-1.632	1.156	4.318	166.888	0.804	-8191	255	
921.163	1	1	0	0	0.13904	0.18016	0.2254	0.055248	0.19965	0.31058	0.082672	0.23007	0.093571	0.086117	0.13534	0.10197	0.095666	0.21327	0.20534	0.26175	-2.6583	-2.7646	-3.1312	-3.0625	-2.9146	-3.4188	-2.8958	-3.1562	-3.0417	-2.9083	-3.0042	-2.9458	-2.8125	-3.4125	-2.8458	-3.0979	179.890	292.588	213.125	280.914	260.881	192.149	54.988	245.368	110.625	254.401	285.792	24.223	299.830	-12.693	122.235	133.171	0.00022601	0.0003686	0.00012126	508.07	3.4732e-06	3.5318e-06	464.48	222.68	4.5486e-06	4.0168e-06	207.46	90.332	98.146	46.178	3.4534e-06	41.288	0.00029726	0.0002403	0.00021206	520.6	2.4115e-06	2.554e-06	474.83	228.73	6.5714e-06	2.542e-06	212.2	93.075	101.73	48.098	3.0378e-06	42.65	227.212	64.295	63.641	-6.727	157.351	123.932	-8.099	-1.926	162.566	123.377	-4.885	-1.380	1.191	4.330	169.341	0.931	-8191	255	
921.259	1	1	0	0	0.045486	0.19572	0.091301	0.10924	0.068248	0.2163	0.11721	0.29745	0.046035	0.22886	0.14255	0.17821	0.21957	0.22554	0.24056	0.25571	-2.975	-2.5917	-3.1583	-3.1625	-2.9958	-3.1	-3.0479	-2.9271	-3.35	-3.0125	-3.0729	-3.0771	-2.8396	-3.2167	-3.0458	-3.0208	221.968	330.921	324.772	16.568	110.833	175.018	307.620	273.758	141.322	70.539	179.587	5.111	142.182	80.739	301.802	317.176	0.00022611	0.00029716	9.5028e-05	510.1	3.856e-06	3.5084e-06	470.44	223.85	4.5181e-06	3.4256e-06	210.67	92.129	100.68	47.036	3.7476e-06	41.902	0.00029846	0.00023605	0.00010854	524.31	2.6293e-06	2.4644e-06	479.57	230.48	7.8959e-06	2.6427e-06	215.33	94.679	103.77	49.021	3.2844e-06	43.31	227.159	74.028	42.991	-6.882	152.391	113.330	-8.458	-2.047	171.042	136.924	-5.213	-1.337	0.682	4.085	165.228	0.932	-8191	255	
921.355	1	1	0	0	0.20106	0.37242	0.034604	0.48971	0.15118	0.1954	0.13226	0.17656	0.16459	0.16842	0.29783	0.25504	0.15297	0.14685	0.13528	0.36863	-2.6854	-2.6937	-3.0938	-3.1354	-2.7687	-3.1688	-3.0896	-2.8333	-3.3146	-2.8979	-3.1042	-3.3063	-2.8167	-3.3812	-3.0396	-2.9771	245.536	132.906	-14.351	243.278	59.598	312.056	52.890	262.528	92.322	73.405	198.363	18.358	34.185	10.043	324.711	197.408	0.0002264	0.00038184	9.5632e-05	518.21	3.8312e-06	3.8857e-06	472.95	226.43	4.2423e-06	4.6917e-06	211.8	92.136	100.63	47.704	2.4222e-06	42.259	0.00029723	0.00025235	6.2478e-05	531.96	2.5789e-06	2.4727e-06	482.91	232.69	6.4568e-06	2.9049e-06	216.18	95.192	104.31	49.575	3.1616e-06	43.636	230.267	70.408	75.235	-6.665	155.914	127.998	-8.245	-2.237	191.072	121.819	-4.876	-1.658	0.952	4.055	166.020	0.924	-8191	255	
921.451	1	1	0	0	0.26281	0.10617	0.19411	0.087153	0.11587	0.17023	0.12058	0.23226	0.05191	0.1137	0.0081561	0.16827	0.26979	0.2098	0.11945	0.1211	-2.8167	-3.0333	-3.0417	-3.2812	-2.7229	-3.0167	-3.0875	-2.9458	-3.3104	-2.9354	-3.0812	-3.3708	-2.8438	-3.3063	-3.0042	-2.9271	150.229	39.230	274.405	275.871	244.348	231.908	253.105	-13.323	154.537	-4.112	183.931	-12.263	322.237	339.818	108.050	311.578	0.00022857	0.00041913	8.9243e-05	521.32	3.8569e-06	3.6542e-06	473.51	227.07	3.0796e-06	3.7455e-06	210.33	92.374	101.69	47.746	4.2648e-06	42.305	0.00030369	0.00024415	6.4046e-05	533.16	2.6248e-06	2.5835e-06	483.14	233.51	7.4083e-06	2.4898e-06	215.94	95.187	104.87	49.602	5.4464e-06	43.784	230.866	66.986	62.575	-6.934	155.092	133.631	-7.997	-1.984	174.493	120.050	-4.943	-1.534	1.127	4.497	199.909	0.797	-8191	255	
921.572	1	1	0	0	0.24101	0.18109	0.15459	0.19326	0.039398	0.21432	0.080964	0.072091	0.015284	0.33581	0.28462	0.20598	0.030295	0.079914	0.31955	0.083688	-2.8104	-3.0125	-2.8167	-3.4688	-2.8479	-3.0563	-3.2354	-3.0125	-3.3729	-2.9313	-3.0396	-3.2854	-2.8417	-3.275	-3.0979	-2.9104	322.568	272.502	1.162	326.929	27.226	155.694	238.315	259.510	250.401	159.779	12.665	321.779	15.351	39.832	45.135	2.671	0.00021814	0.00044931	9.4637e-05	523.34	3.5535e-06	3.3815e-06	478.7	229.49	3.1615e-06	3.9714e-06	213.35	93.396	102.55	48.252	3.2879e-06	42.921	0.00029992	0.0002565	6.892e-05	536.97	2.4997e-06	2.4067e-06	486.91	236.07	6.6731e-06	2.6367e-06	218.75	96.399	106.2	50.163	9.0644e-06	44.204	228.793	63.347	58.633	-6.594	152.027	121.711	-8.062	-2.164	178.715	120.908	-5.004	-1.632	0.840	4.328	185.957	0.935	-8191	255	
921.668	1	1	0	0	0.17418	0.25781	0.1938	0.13654	0.25222	0.24803	0.2356	0.079308	0.33221	0.033314	0.16542	0.060933	0.18365	0.15536	0.17126	0.24812	-2.7375	-2.9667	-2.9229	-3.3854	-2.9583	-3.2375	-3.1854	-2.8917	-3.1708	-3.1396	-3.0938	-3.4646	-2.8187	-3.1083	-3.225	-2.8542	83.540	137.443	124.475	244.288	27.476	314.375	135.326	131.289	83.930	151.472	192.764	290.185	16.796	338.535	292.866	27.425	0.00021923	0.00043953	8.1597e-05	530.26	3.211e-06	4.5976e-06	481.81	230.82	3.185e-06	4.9632e-06	212.88	93.171	102.03	47.832	2.1546e-06	42.222	0.00030338	0.00023595	7.0316e-05	540.98	2.542e-06	2.5858e-06	489.64	236.56	7.2662e-06	2.548e-06	218.51	96.136	105.48	49.844	7.3678e-06	43.72	233.824	59.362	58.545	-6.718	164.071	126.165	-8.245	-2.188	164.622	139.124	-5.217	-1.323	0.750	4.076	224.335	1.181	-8191	255	
921.764	1	1	0	0	0.15899	0.22699	0.27414	0.18828	0.1421	0.19223	0.20694	0.098242	0.28526	0.11344	0.12262	0.33841	0.14844	0.32881	0.14097	0.16837	-2.7042	-2.9604	-2.9188	-3.3688	-2.8042	-2.8688	-3.2958	-2.8125	-3.075	-3.1271	-2.8271	-3.3646	-2.9271	-2.9604	-3.3333	-2.8604	262.972	226.659	295.595	242.602	258.898	77.689	24.779	316.630	158.950	306.674	172.541	253.465	278.650	288.558	71.596	271.940	0.00023641	0.00041648	0.00011461	518.85	3.3949e-06	3.6529e-06	468.96	224.71	3.3129e-06	3.5481e-06	207.66	90.667	99.777	46.737	2.1833e-06	41.399	0.0003077	0.00023231	6.8378e-05	532.5	2.488e-06	2.5257e-06	478.95	231.16	3.7069e-06	5.368e-06	212.23	93.326	102.82	48.536	8.3844e-06	42.532	228.366	63.455	66.589	-6.598	152.326	128.546	-8.234	-2.040	159.982	157.613	-5.159	-1.240	1.101	4.345	190.040	0.845	-8191	255	
921.860	1	1	0	0	0.30209	0.1665	0.072177	0.060555	0.18707	0.10704	0.23907	0.10759	0.17878	0.11406	0.23991	0.28893	0.12809	0.45288	0.27037	0.19594	-2.6833	-3.1708	-2.7833	-3.1354	-2.9979	-2.9188	-3.3708	-3.0604	-3.2771	-3.45	-2.7625	-3.2562	-3.2167	-3.1458	-3.2125	-2.8396	47.865	120.419	72.622	328.643	105.873	212.065	263.161	235.795	295.847	104.534	4.922	54.542	-10.975	280.071	182.582	272.397	0.00021209	0.00043889	0.00011561	510.32	3.5049e-06	3.508e-06	460.13	221.3	2.7493e-06	4.5097e-06	206.28	89.65	99.348	46.807	2.1437e-06	41.84	0.00028918	0.00022016	6.2877e-05	521.39	2.6383e-06	2.5764e-06	469.7	227.54	2.5079e-06	8.5667e-06	210.71	92.942	102.59	48.605	7.202e-06	42.997	234.733	54.493	67.033	-6.658	149.355	123.776	-8.218	-1.761	170.859	134.425	-5.061	-1.425	0.887	4.182	170.951	1.005	-8191	255	
921.955	1	1	0	0	0.19551	0.13196	0.085545	0.16312	0.34316	0.10682	0.15202	0.10707	0.19828	0.084526	0.063579	0.20003	0.20928	0.093007	0.13658	0.21086	-2.6813	-2.9979	-2.75	-3.1646	-3.0938	-2.8229	-3.2333	-3.0917	-2.8979	-3.1583	-2.8646	-3.0917	-3.1917	-2.9667	-3.2438	-3.0271	201.311	52.694	297.988	296.445	86.578	139.511	3.168	259.055	201.858	-18.710	318.781	204.041	161.816	-0.835	107.321	162.255	0.00021694	0.00040022	0.0001107	516.24	3.9853e-06	3.4056e-06	470.8	226.96	2.6513e-06	5.5341e-06	212.3	93.591	103.18	48.355	6.8156e-07	43.109	0.00029726	0.00022482	7.1513e-05	529.35	2.5384e-06	2.4892e-06	481.51	233.86	2.6793e-06	8.103e-06	217.53	96.288	106.09	50.395	8.7549e-06	44.474	235.399	67.355	84.340	-6.716	163.918	127.348	-7.966	-2.073	159.234	138.073	-5.031	-1.504	0.853	4.344	267.095	1.083	-8191	255	
922.051	1	1	0	0	0.23292	0.13353	0.29515	0.36459	0.11681	0.18643	0.18782	0.15407	0.065191	0.20481	0.24576	0.094771	0.060905	0.12218	0.046876	0.24735	-2.45	-3.1396	-2.6729	-3.1125	-2.95	-2.7375	-3.3104	-2.9771	-2.9667	-3.3458	-2.7833	-3.0563	-3.4042	-2.9208	-3.2542	-3.1854	205.937	262.113	106.815	284.732	16.281	314.967	291.805	293.996	266.724	306.610	292.132	285.955	252.579	269.465	85.250	256.527	0.00023542	0.00037461	0.00013079	529.99	5.7219e-06	4.2789e-06	483.13	232.33	2.8666e-06	5.226e-06	215.62	95.085	103.85	49.19	3.0073e-06	43.61	0.00030889	0.00021287	6.6839e-05	542.48	4.9202e-06	2.686e-06	492.3	239.43	2.6738e-06	9.4116e-06	220.99	97.663	107.58	51.076	7.7023e-06	44.841	231.206	60.259	89.042	-6.706	148.172	130.442	-8.274	-2.378	179.635	154.235	-5.250	-1.593	1.335	4.297	143.652	0.795	-8191	255	
922.172	1	1	0	0	0.15802	0.08826	0.22998	0.10791	0.087929	0.30382	0.205	0.2813	0.21514	0.26404	0.1175	0.15979	0.16753	0.15774	0.15974	0.10564	-2.1792	-3.1396	-2.9583	-3.2	-3.1896	-2.6813	-3.325	-2.9437	-2.7896	-3.3854	-3.0083	-3.0312	-3.3292	-2.8563	-3.1354	-3.1146	168.405	113.542	292.673	198.672	312.933	87.803	292.332	282.761	129.656	52.305	266.239	287.888	78.901	132.056	209.455	330.797	0.00024471	0.00035253	8.8789e-05	533.16	5.6459e-06	3.7627e-06	482.86	233.91	2.4782e-06	3.7894e-06	215.65	95.184	105.15	49.408	3.7574e-06	43.589	0.00031932	0.00021874	6.2564e-05	545.55	7.8295e-06	2.5988e-06	492.82	240.26	2.9204e-06	7.6854e-06	221.33	98.156	108.37	51.382	8.0578e-06	45.1	229.940	67.484	69.640	-6.933	124.024	116.539	-8.443	-2.232	173.682	135.222	-5.043	-1.399	0.932	4.154	155.525	0.952	-8191	255	
922.268	1	1	0	0	0.15053	0.055566	0.15209	0.14024	0.23087	0.0458	0.11155	0.17977	0.084826	0.1384	0.21652	0.084433	0.16629	0.12487	0.05982	0.19357	-2.2979	-3.1688	-2.925	-3.0646	-3.3	-2.8396	-3.1312	-3.2354	-2.8104	-3.2417	-3.0271	-3.0938	-3.2708	-2.7417	-3.1562	-3.1667	201.999	52.452	253.200	321.564	212.962	36.027	329.979	23.460	325.690	17.631	253.352	128.425	263.281	250.853	108.538	130.826	0.00023776	0.00036104	0.00012191	536.78	4.9701e-06	3.6587e-06	485.87	235.26	3.6792e-06	4.3986e-06	218.11	96.4	106.13	50.481	2.9256e-06	44.683	0.00031801	0.00022998	6.721e-05	548.66	6.7421e-06	2.6153e-06	495.1	241.85	2.9332e-06	1.0053e-05	224.12	99.398	109.92	52.23	4.1822e-06	46.025	228.234	55.882	62.853	-7.003	143.324	138.746	-8.170	-2.044	176.801	166.694	-5.057	-1.442	1.101	4.150	141.172	0.733	-8191	255	
922.364	1	1	0	0	0.16128	0.14309	0.066775	0.1496	0.14714	0.050733	0.18948	0.058518	0.19512	0.046401	0.11429	0.10235	0.032506	0.39179	0.46316	0.13319	-2.5396	-3.2229	-2.8917	-3.0917	-3.4292	-2.8542	-3.2521	-2.9542	-2.975	-3.3479	-2.9292	-2.9562	-3.1396	-2.8125	-3.0083	-3.2938	242.176	114.852	167.123	193.308	274.814	64.617	212.569	59.290	-2.147	323.047	189.609	255.752	150.065	303.960	93.919	315.435	0.00023762	0.00034524	9.2844e-05	543.13	5.4372e-06	4.4361e-06	491.8	239.97	2.4683e-06	5.4567e-06	222.2	97.883	108.05	51.119	3.6992e-06	45.312	0.00032498	0.00023747	6.8863e-05	555.63	7.8628e-06	2.9712e-06	503.64	246.08	2.8452e-06	8.3956e-06	227.65	100.96	111.64	53.05	3.1876e-06	46.746	230.800	64.933	66.093	-6.458	159.758	133.490	-8.443	-2.112	178.758	136.719	-4.982	-1.619	1.007	4.277	147.140	0.738	-8191	255	
922.436	1	1	0	0	0.18022	0.25892	0.072522	0.076674	0.212	0.012253	0.13279	0.11897	0.19263	0.22958	0.1434	0.19938	0.093463	0.29929	0.10973	0.22257	-2.3688	-3.1854	-3.0375	-2.9604	-3.3438	-2.9208	-3.1146	-3.1604	-2.6625	-3.1854	-3.0208	-3.0479	-3.2896	-3.2146	-2.8563	-3.2188	321.788	75.828	157.302	274.999	158.860	-6.411	156.727	224.616	243.371	339.976	153.001	299.060	226.282	294.696	217.294	280.018	0.00022866	0.0003255	0.00010635	545.5	4.8298e-06	3.492e-06	496.15	239.71	2.8444e-06	2.9878e-06	220.45	97.471	107.76	50.441	4.4686e-06	44.695	0.00033606	0.00024364	6.6468e-05	558.59	6.7016e-06	2.6318e-06	504.49	246.16	3.002e-06	8.2863e-06	226.08	100.59	110.92	52.593	3.2804e-06	46.156	228.102	56.370	64.698	-7.060	152.059	128.877	-7.868	-1.916	181.840	125.620	-4.962	-1.593	0.929	4.024	154.092	0.789	-8191	255	
922.556	1	1	0	0	0.14692	0.0067673	0.075173	0.052418	0.083897	0.17062	0.10422	0.23268	0.23047	0.098897	0.090585	0.15534	0.057711	0.25285	0.11289	0.051357	-2.4771	-3.0542	-3.1604	-2.9229	-2.9771	-2.8479	-2.9542	-3.2	-2.7875	-3.1312	-3.1146	-2.8896	-3.225	-3.0708	-2.7938	-3.3146	264.082	51.758	143.287	257.368	147.224	61.116	13.532	213.901	321.484	97.848	270.241	248.364	99.395	266.426	194.893	-17.693	0.00022783	0.00048719	0.00011463	533.94	4.9854e-06	3.6117e-06	484.04	234.89	2.7207e-06	3.4779e-06	215.18	95.063	104.3	49.176	4.5241e-06	43.232	0.0003289	0.00026035	7.0829e-05	548.18	7.734e-06	2.7402e-06	493.85	241.19	2.7774e-06	3.3043e-06	221.28	98.06	107.91	51.091	3.2994e-06	44.75	228.903	72.103	79.566	-6.815	146.149	131.337	-8.246	-2.246	176.814	124.027	-5.315	-1.640	0.868	4.251	169.989	0.524	-8191	255	
922.652	1	1	0	0	0.15321	0.081254	0.17727	0.056241	0.20322	0.032283	0.069335	0.085244	0.18578	0.10117	0.38176	0.20749	0.070965	0.22887	0.27897	0.023226	-2.3417	-3.025	-3.2208	-2.7396	-3.1667	-2.7292	-2.9813	-3.4104	-2.9104	-3.0417	-3.1729	-2.7333	-3.1312	-2.9042	-2.9833	-3.2396	245.969	29.656	181.142	-2.765	177.630	329.937	65.330	234.415	184.521	5.022	13.624	-2.176	76.756	264.929	238.160	94.804	0.00022008	0.00045944	8.9594e-05	513.42	4.9489e-06	3.2721e-06	464.63	224.98	2.8299e-06	4.1212e-06	206.12	91.185	99.895	47.093	2.4605e-06	41.716	0.00031131	0.00023777	6.2478e-05	525.96	6.4828e-06	2.6247e-06	473.95	230.59	2.8058e-06	2.7969e-06	212.38	94.178	103.24	48.834	3.0937e-06	42.992	230.023	62.395	62.320	-6.687	158.544	122.558	-8.302	-1.766	153.875	114.420	-5.160	-1.419	1.066	4.305	168.108	0.679	-8191	255	
922.749	1	1	0	0	0.053579	0.06105	0.083861	0.18542	0.081286	0.18484	0.26439	0.10166	0.085489	0.24751	0.19808	0.096278	0.24159	0.059569	0.22249	0.14796	-2.3	-2.9854	-3.1917	-2.75	-3.0729	-3.1396	-3.0375	-3.1667	-2.9854	-2.9729	-3.35	-2.8521	-3.2562	-3.0479	-2.9521	-3.2188	195.763	332.728	281.571	334.676	313.152	276.036	253.423	261.725	287.194	140.652	278.809	199.449	0.733	263.827	312.688	-1.553	0.00021848	0.00036937	0.00010025	494.9	5.7774e-06	5.8203e-06	452.81	218.88	3.0918e-06	3.6995e-06	203.09	89.658	97.853	46.169	3.5184e-06	41.01	0.00029095	0.00021793	5.9913e-05	508.19	5.715e-06	3.1657e-06	462.14	224.35	2.5263e-06	2.355e-06	208.25	92.575	101.31	48.058	3.0677e-06	42.386	230.840	60.490	75.205	-6.421	152.519	136.408	-8.213	-1.771	183.301	123.300	-4.989	-1.122	1.253	4.560	159.444	0.875	-8191	255	
922.845	1	1	0	0	0.12315	0.16916	0.19897	0.22601	0.065285	0.087318	0.16934	0.072447	0.20645	0.27136	0.02276	0.089053	0.2505	0.22111	0.1139	0.23401	-2.6417	-2.7021	-3.325	-3.0312	-3.1667	-3.3896	-3.0312	-3.2146	-3.0187	-3.0292	-3.1854	-2.9521	-3.2458	-3.4042	-2.8042	-3.2562	324.819	105.050	260.212	191.775	90.756	262.112	161.335	302.343	151.216	214.832	-5.890	311.881	288.820	-3.968	-12.136	303.919	0.0002218	0.00035684	8.2696e-05	489.06	5.0194e-06	4.2078e-06	446.83	215.7	2.9174e-06	4.416e-06	200.28	88.915	98.025	46.36	2.8602e-06	41.179	0.00029869	0.00022856	5.8887e-05	501.58	2.7481e-06	5.8234e-06	457.23	222.28	2.5033e-06	2.6112e-06	206.36	91.729	101.16	48.163	3.0128e-06	42.38	230.089	54.725	78.818	-6.368	149.309	143.390	-8.129	-1.572	171.934	127.215	-5.222	-1.558	1.217	4.269	158.776	0.955	-8191	255	
922.964	1	1	0	0	0.20933	0.14972	0.19085	0.32561	0.14688	0.17402	0.1157	0.18595	0.11962	0.19317	0.1248	0.050661	0.14531	0.20477	0.26395	0.36142	-2.4688	-3.0646	-3.2938	-2.8021	-3.0208	-3.2854	-2.5854	-3.175	-3.05	-2.9271	-3.1979	-2.8625	-2.9792	-3.2	-2.7021	-3.1688	334.685	0.598	20.119	290.699	172.721	108.018	277.169	218.645	128.807	134.038	61.964	267.336	270.187	290.594	201.463	275.795	0.00023542	0.00029068	9.3568e-05	494.5	4.1193e-06	4.5734e-06	454.5	218.22	2.331e-06	3.4954e-06	203.55	90.062	99.537	47.097	4.4363e-06	41.775	0.00029153	0.00022633	6.1965e-05	506.53	2.3998e-06	8.7581e-06	460.37	225	2.5813e-06	2.4813e-06	209.26	93.144	102.79	49.018	3.2375e-06	43.278	232.748	72.679	62.315	-6.992	162.256	149.947	-8.008	-2.034	177.535	131.956	-5.056	-1.342	0.899	4.199	169.784	0.911	-8191	255	
923.060	1	1	0	0	0.12145	0.31574	0.012387	0.00881	0.22014	0.097661	0.19773	0.22947	0.047595	0.14798	0.12265	0.18414	0.23283	0.090634	0.30542	0.091823	-2.6188	-2.7833	-3.125	-2.9917	-2.9896	-3.2958	-2.8146	-3.2146	-3.225	-2.7667	-3.2188	-3.1917	-2.9625	-3.2417	-2.7271	-3.2396	204.394	-12.227	126.588	284.453	54.731	236.899	337.567	148.651	85.571	153.458	227.115	235.082	167.080	84.025	218.055	236.141	0.00023078	0.00037249	9.5778e-05	509.56	4.2242e-06	4.5041e-06	468.03	225.87	2.8627e-06	3.5257e-06	210.31	93.039	102.3	48.521	4.5005e-06	43.409	0.00033402	0.00023838	5.9343e-05	522.29	2.4853e-06	7.6149e-06	476.72	232.59	2.6775e-06	2.6002e-06	216.45	96.083	106.02	50.631	3.5291e-06	44.694	230.494	63.424	70.829	-6.491	152.517	126.703	-8.296	-1.894	178.531	128.237	-5.376	-1.609	0.907	4.282	165.874	0.753	-8191	255	
923.133	1	1	0	0	0.083242	0.2321	0.13035	0.060726	0.14452	0.070149	0.12108	0.038709	0.1665	0.34368	0.35885	0.076553	0.32425	0.1353	0.16992	0.21201	-2.6146	-2.6167	-3.1021	-2.8542	-2.8479	-3.2604	-2.8083	-2.9875	-3.1146	-2.8292	-3.2375	-3.0104	-3.0167	-3.3354	-2.9167	-3.1729	153.577	80.219	303.779	163.877	22.560	-12.115	237.835	279.110	126.484	66.346	228.685	281.400	-19.434	315.708	240.476	313.729	0.00021924	0.00031785	0.00010464	524.19	3.7986e-06	6.5496e-06	477.35	230.98	3.4555e-06	3.8809e-06	213.23	94.845	104.3	49.214	3.5282e-06	43.823	0.0004418	0.00023565	6.5328e-05	535.92	2.5564e-06	9.3191e-06	486.89	237.81	2.6665e-06	2.7568e-06	219.62	97.675	107.84	51.307	3.4103e-06	45.131	227.952	59.704	72.076	-6.794	153.750	149.456	-8.400	-2.266	177.518	147.254	-5.274	-1.513	1.098	4.146	165.246	0.810	-8191	255	
923.252	1	1	0	0	0.043797	0.05113	0.3529	0.14256	0.08087	0.091484	0.058761	0.032563	0.44031	0.17784	0.21995	0.17414	0.27707	0.1384	0.12004	0.21652	-2.7938	-2.7021	-3.2042	-2.8771	-2.8312	-3.1625	-2.9604	-3.0812	-3.2687	-2.75	-3.1917	-3.0833	-2.8646	-3.4375	-2.8792	-3.2896	-16.797	-1.007	179.808	311.402	242.193	120.925	267.858	218.519	84.103	289.263	32.238	265.911	172.851	319.165	196.335	246.279	0.0002078	0.000411	9.5502e-05	526.04	4.0962e-06	5.2327e-06	476.25	230.91	2.9422e-06	3.5223e-06	213.16	94.982	104.9	49.489	3.9091e-06	43.68	0.00052463	0.00025498	7.2739e-05	539.45	2.6689e-06	7.9508e-06	486.3	238.24	2.7178e-06	2.7059e-06	219.04	97.787	108.19	51.539	3.2635e-06	45.131	229.524	65.573	77.257	-6.650	147.028	151.208	-8.316	-2.180	166.330	123.203	-5.068	-1.484	1.013	4.210	167.274	0.977	-8191	255	
923.348	1	1	0	0	0.28045	0.034235	0.25856	0.21918	0.22694	0.21809	0.089444	0.33639	0.1456	0.171	0.23457	0.1376	0.15219	0.098653	0.16452	0.20334	-2.8833	-2.9188	-3.1875	-3.25	-2.7167	-3.0479	-2.9833	-2.9354	-3.2917	-2.9333	-3.1625	-3.2375	-2.8729	-3.425	-3.05	-3.1521	326.757	143.683	31.558	239.957	300.758	163.188	317.222	-10.868	91.091	262.642	269.047	316.339	293.833	294.209	80.114	266.938	0.00024	0.00044258	0.00014044	525.63	2.8408e-06	5.2166e-06	473.61	232.8	2.4948e-06	3.466e-06	215.02	95.121	105.42	49.935	2.9451e-06	44.224	0.00048071	0.0002732	6.8179e-05	537.86	2.6203e-06	9.1812e-06	486.61	239	2.5923e-06	2.877e-06	220.68	98.569	108.85	52.014	3.3913e-06	45.686	226.498	70.492	71.575	-6.932	171.279	143.341	-8.036	-1.965	174.634	149.706	-5.146	-1.424	0.738	4.067	168.282	0.862	-8191	255	
923.444	1	1	0	0	0.083737	0.13529	0.14294	0.11546	0.10338	0.25313	0.22412	0.3172	0.039399	0.21765	0.1558	0.16465	0.030908	0.14577	0.098739	0.23165	-2.8563	-2.8812	-3.1458	-3.2	-2.8646	-3.1063	-3.1771	-2.9521	-3.2708	-2.95	-3.1292	-3.1833	-2.9521	-3.3167	-3.2208	-2.9583	117.017	280.422	-7.600	4.755	30.960	253.870	-3.005	219.692	226.678	307.194	177.766	324.147	335.132	7.880	311.754	41.217	0.00024357	0.00038909	0.00010543	534.04	4.0396e-06	5.7758e-06	483.07	237.2	4.05e-06	3.4442e-06	219.17	97.134	107.54	50.769	4.1711e-06	44.872	0.00054403	0.00024729	6.9233e-05	546.45	2.8148e-06	7.8223e-06	494.58	243.38	2.8544e-06	2.8952e-06	225.09	100.54	110.99	52.827	3.1506e-06	46.43	228.637	64.822	57.444	-6.853	157.618	140.238	-8.452	-1.925	182.594	127.768	-5.192	-1.794	1.058	4.224	164.268	0.941	-8191	255	
923.565	1	1	0	0	0.10884	0.092983	0.094897	0.13236	0.26144	0.10529	0.068024	0.23778	0.2152	0.12564	0.12531	0.13618	0.15704	0.21135	0.18471	0.14716	-2.6125	-2.9625	-2.8875	-3.2	-2.8625	-3.2792	-3.0896	-2.9667	-3.2396	-2.9375	-2.9979	-3.4562	-3	-3.3104	-3.1042	-2.9292	151.775	159.188	183.636	314.928	303.733	298.292	150.952	279.202	159.377	295.611	307.014	305.688	-13.046	-13.810	78.154	267.607	0.00023414	0.00041047	0.00010271	539.81	3.8413e-06	4.6802e-06	485.77	236.83	2.1615e-06	4.3159e-06	217.95	96.704	106.14	50.516	3.0663e-06	44.176	0.00050231	0.00023696	6.6925e-05	550	2.6869e-06	6.9101e-06	495.07	243.47	2.7279e-06	2.7435e-06	223.3	99.922	110.28	52.488	3.2974e-06	45.658	226.833	69.328	72.115	-6.639	165.118	126.952	-8.313	-2.120	177.952	117.656	-5.035	-1.601	0.880	4.226	168.542	0.834	-8191	255	
923.661	1	1	0	0	0.29027	0.082181	0.082936	0.23596	0.076437	0.070394	0.16272	0.19899	0.01925	0.27123	0.08391	0.17414	0.075529	0.1092	0.18811	0.057754	-2.875	-3.0438	-2.9104	-3.1792	-2.8187	-3.2104	-3.1417	-2.8083	-3.2083	-3.0938	-2.9562	-3.3021	-2.8979	-3.2771	-3.1771	-2.9583	244.051	208.636	276.283	290.598	98.744	282.428	157.667	304.669	43.008	88.575	177.541	-12.142	143.949	253.791	337.911	122.916	0.00023477	0.00032948	0.00014526	527.15	3.4249e-06	3.7506e-06	474.33	230.67	2.6765e-06	4.4967e-06	211.44	93.189	102.71	48.346	4.0548e-06	42.3	0.00053391	0.0002562	6.9775e-05	539.88	2.4736e-06	2.5399e-06	484.84	237.43	2.6133e-06	2.4606e-06	216.93	96.439	106.12	50.333	3.1556e-06	43.738	225.520	58.969	65.735	-6.992	169.277	133.119	-8.402	-2.097	190.127	123.272	-5.405	-1.438	0.843	4.413	179.663	0.762	-8191	255	
923.733	1	1	0	0	0.21354	0.072605	0.12909	0.07736	0.20446	0.2191	0.1726	0.13415	0.12116	0.12252	0.085314	0.030767	0.13079	0.38542	0.099405	0.12115	-2.8812	-3.125	-2.7625	-3.4	-2.7687	-3.0604	-3.4167	-2.8917	-3.2271	-3.025	-2.9333	-3.3417	-3.0542	-3.1021	-3.25	-3.0104	320.771	248.741	142.400	-9.478	-2.494	92.563	339.338	300.239	291.981	141.254	219.215	314.498	84.068	252.540	295.485	213.981	0.00022324	0.00040605	8.6737e-05	508.85	3.0601e-06	3.5019e-06	460.26	222.66	2.2465e-06	3.7516e-06	204.95	90.215	99.995	47.033	3.7257e-06	41.41	0.00045904	0.00022644	7.2397e-05	519.78	2.4988e-06	2.1851e-06	470.31	229.86	2.4777e-06	2.3623e-06	210.65	93.628	103.26	49.015	3.0817e-06	42.787	218.659	59.944	65.999	-6.493	149.167	118.657	-7.972	-2.001	178.087	106.751	-4.944	-1.512	0.805	4.213	177.682	1.004	-8191	255	
923.853	1	1	0	0	0.15154	0.092032	0.30336	0.22298	0.12521	0.21559	0.056297	0.11717	0.22135	0.21394	0.30945	0.15742	0.22906	0.14605	0.33052	0.16766	-2.8042	-3.1479	-2.9146	-3.3146	-2.8396	-3.1188	-3.325	-3.0375	-3.2958	-3.0667	-2.7729	-3.3917	-3.1479	-2.9271	-3.2313	-2.8729	13.675	71.244	67.826	296.897	129.322	191.957	277.474	18.786	276.750	70.531	296.482	36.407	337.905	326.737	208.146	237.768	0.00019635	0.00038099	0.00010905	498.79	3.5496e-06	3.301e-06	451.69	220.19	2.9506e-06	4.2192e-06	204.35	90.103	99.396	46.53	3.8358e-06	40.796	0.00041116	0.00036046	6.7039e-05	512.86	2.3809e-06	2.4585e-06	463.77	227.23	2.5483e-06	2.1341e-06	209.91	93.165	102.73	48.547	2.6883e-06	42.202	225.553	56.005	69.934	-6.629	156.827	139.517	-8.550	-2.152	159.349	125.078	-5.230	-1.500	1.197	4.024	165.091	0.736	-8191	255	
923.948	1	1	0	0	0.17987	0.20602	0.22764	0.16139	0.22607	0.054244	0.11693	0.22491	0.077439	0.18975	0.16669	0.21607	0.15961	0.27558	0.032131	0.35711	-2.6354	-3.1854	-2.8208	-3.3354	-2.9771	-2.9042	-3.275	-2.85	-3.1521	-3.075	-2.8937	-3.2167	-3.1896	-2.9146	-3.2792	-2.9604	50.428	326.919	127.659	19.144	77.334	229.061	89.559	9.242	3.345	-3.376	237.386	-16.011	80.166	-15.257	247.645	208.333	0.00021887	0.00042647	8.815e-05	491.43	3.0467e-06	3.1655e-06	443.49	214.11	2.5751e-06	4.6816e-06	196.07	85.841	95.567	44.641	3.1396e-06	39.129	0.00029284	0.00058659	6.835e-05	503.5	2.3944e-06	2.3654e-06	452.79	221.09	2.2934e-06	2.4024e-06	201.37	88.952	98.556	46.492	2.9599e-06	40.404	233.245	62.181	76.372	-7.037	165.090	130.373	-8.171	-1.809	179.522	146.672	-5.138	-1.436	0.902	4.369	165.772	1.062	-8191	255	
924.044	1	1	0	0	0.13753	0.22685	0.16574	0.017929	0.30157	0.17466	0.10659	0.10935	0.13335	0.35988	0.22318	0.057825	0.14276	0.18771	0.36528	0.044558	-2.6604	-3.2812	-2.7729	-3.3292	-3.2021	-2.7938	-3.2792	-3.0438	-2.9771	-3.3458	-2.9083	-2.9625	-3.1437	-2.6896	-3.2042	-3.0563	58.216	188.337	102.585	104.451	14.180	152.901	305.669	195.439	83.091	196.180	100.446	268.452	251.240	83.089	300.336	33.295	0.00021708	0.00068951	0.00010528	476.44	2.9529e-06	3.78e-06	432.31	209.67	2.605e-06	3.821e-06	192.33	83.863	93.325	43.603	3.4124e-06	38.254	0.00027536	0.00075826	6.091e-05	487.15	1.9515e-06	2.2358e-06	441.47	215.55	2.4236e-06	2.1997e-06	197.37	86.971	96.585	45.473	2.4995e-06	39.612	226.894	64.691	69.846	-6.500	146.561	139.826	-8.231	-1.993	180.763	126.432	-4.913	-1.713	1.022	4.523	154.232	0.771	-8191	255	
924.140	1	1	0	0	0.29607	0.20824	0.15436	0.06356	0.1559	0.19372	0.15376	0.0075042	0.17806	0.15716	0.094936	0.10143	0.0096914	0.30385	0.20438	0.037097	-2.4188	-3.2104	-2.875	-2.9229	-3.3042	-2.6646	-3.2479	-3.0333	-2.95	-3.3354	-2.9688	-2.95	-3.2687	-2.9583	-3.0708	-3.1396	168.518	263.451	227.381	31.116	167.299	296.028	322.275	91.528	123.706	108.228	242.882	261.108	263.314	251.989	183.593	42.142	0.00020101	0.00047993	8.791e-05	471.99	3.0258e-06	3.84e-06	433.52	211.49	2.0534e-06	3.4081e-06	195.93	86.068	95.127	44.608	3.2236e-06	39.442	0.00026924	0.00057697	6.3647e-05	484.49	1.9191e-06	2.4114e-06	443.54	217.55	2.4318e-06	2.1572e-06	201.08	88.711	98.57	46.541	2.7881e-06	40.767	227.460	54.105	63.169	-6.358	162.803	123.155	-8.180	-1.615	180.253	123.846	-4.991	-1.275	0.960	4.210	160.068	0.658	-8191	255	
924.261	1	1	0	0	0.26885	0.34558	0.21789	0.040249	0.1716	0.15292	0.15773	0.21382	0.092071	0.24947	0.049308	0.11987	0.092492	0.14684	0.15024	0.070174	-2.4521	-3.1354	-2.7542	-3.0125	-3.1375	-3.0312	-3.3896	-2.9188	-2.7708	-3.2979	-2.9938	-2.9938	-3.3354	-2.9604	-3.3021	-3.2708	17.460	239.202	116.422	281.240	290.407	5.292	258.221	305.705	21.012	339.478	304.352	222.130	30.073	295.189	40.734	132.389	0.00018625	0.00040833	0.00010296	484.23	3.1896e-06	4.1777e-06	447.33	216.98	2.9346e-06	3.8465e-06	199.97	87.322	97.13	45.66	3.7919e-06	39.96	0.00027452	0.00075087	6.1538e-05	497.77	2.2639e-06	2.7449e-06	455.72	222.75	2.5794e-06	2.2094e-06	205.02	90.526	100.86	47.564	2.8071e-06	41.347	230.595	67.820	80.539	-6.587	154.903	132.080	-8.330	-2.205	188.159	130.300	-4.910	-1.496	0.963	4.256	159.470	0.654	-8191	255	
924.332	1	1	0	0	0.17233	0.082847	0.18025	0.04971	0.22548	0.18836	0.13457	0.20155	0.28659	0.065895	0.14855	0.36606	0.037622	0.20127	0.30992	0.087934	-2.5479	-3.1417	-2.9083	-2.9667	-3.3167	-2.7958	-3.2208	-3.25	-2.8104	-3.1917	-3.1021	-3.0021	-3.3812	-2.9625	-3.0167	-3.3229	338.949	189.412	279.584	185.859	275.221	325.328	297.372	211.354	275.049	19.583	43.065	276.576	289.771	313.973	304.082	336.153	0.00021018	0.00034342	0.00010978	492.52	3.7051e-06	3.4992e-06	449.8	217.76	2.8363e-06	4.5691e-06	200.02	88.227	98.324	46.087	3.6557e-06	40.481	0.0002888	0.00058568	5.9257e-05	504.59	2.2162e-06	2.2829e-06	458.47	224.19	2.5446e-06	2.389e-06	205.59	90.95	101.5	47.996	2.9679e-06	41.808	228.331	50.727	82.947	-6.756	146.987	125.578	-8.331	-2.087	174.035	116.103	-5.000	-1.530	1.009	4.215	152.580	1.066	-8191	255	
924.429	1	1	0	0	0.30211	0.073376	0.12133	0.12267	0.26615	0.051564	0.21009	0.12436	0.093442	0.39669	0.24167	0.16438	0.005887	0.20897	0.17087	0.045215	-2.3187	-3	-2.9771	-2.825	-3.1333	-2.9354	-3.05	-3.0292	-2.7875	-3.3	-3.0854	-2.8458	-3.4771	-3.1104	-3.0083	-3.3875	229.648	330.600	-9.985	59.308	266.030	-13.860	170.189	165.620	277.267	282.135	329.960	64.619	192.521	35.152	217.795	202.897	0.00021196	0.00054851	0.00011055	502.58	4.4426e-06	4.8526e-06	456.71	222.98	2.6887e-06	3.134e-06	205.69	90.47	100.63	47.107	2.7281e-06	41.557	0.00029611	0.00075462	6.4046e-05	513.22	2.4394e-06	2.369e-06	464.79	229.47	2.54e-06	2.2166e-06	211	93.273	103.89	49.144	3.0508e-06	42.933	229.790	55.244	60.080	-6.654	163.890	129.667	-8.358	-1.993	180.795	142.224	-5.148	-1.612	0.980	4.202	158.624	0.672	-8191	255	
924.525	1	1	0	0	0.13252	0.22653	0.25421	0.10404	0.21455	0.08495	0.055916	0.17308	0.11392	0.23177	0.21415	0.34507	0.15202	0.13018	0.075708	0.10195	-2.3646	-3.1792	-2.9771	-2.9042	-3.4229	-2.925	-3.0563	-3.2542	-2.5375	-3.3271	-3.1083	-2.8417	-3.2667	-3.0062	-2.8875	-3.3312	148.145	207.257	332.455	276.492	14.821	315.625	318.263	335.116	174.510	58.946	243.107	9.961	0.675	218.957	17.427	79.846	0.0002179	0.00040535	0.00010476	511.7	3.7139e-06	3.8763e-06	461.56	226.53	2.7605e-06	2.9177e-06	209.3	92.542	103.21	48.388	3.4771e-06	42.69	0.00030843	0.0006372	5.9257e-05	523.31	2.2963e-06	2.2935e-06	474.3	233.87	2.7838e-06	2.4218e-06	215.25	95.508	106.47	50.369	3.1596e-06	44.013	229.970	73.693	58.086	-6.726	152.176	136.823	-8.273	-1.967	160.468	127.977	-4.984	-1.411	0.918	4.280	154.078	0.674	-8191	255	
924.645	1	1	0	0	0.26653	0.045366	0.030896	0.26553	0.23237	0.22832	0.15079	0.059971	0.21606	0.098063	0.16729	0.12583	0.15587	0.3169	0.33088	0.038592	-2.5083	-2.9688	-3.1542	-2.875	-3.2062	-2.9375	-2.9167	-3.2104	-2.8646	-3.225	-3.1604	-2.7458	-3.2667	-2.9958	-2.9417	-3.3208	89.211	31.082	152.451	226.753	85.851	328.783	29.514	13.865	77.732	298.234	226.577	44.923	134.812	337.544	202.176	13.578	0.00021999	0.00043536	0.00014411	518.94	4.3344e-06	4.4793e-06	469.95	230.62	2.8233e-06	4.1346e-06	211.29	93.412	103.41	48.776	3.2641e-06	42.83	0.00030554	0.00048577	0.00014288	531.52	2.5483e-06	2.5139e-06	481.6	237.6	2.7811e-06	2.3526e-06	217.21	96.53	107.44	50.793	3.4123e-06	44.191	227.984	49.078	89.308	-6.631	173.503	133.031	-8.117	-2.217	166.688	123.597	-5.344	-1.391	0.897	4.276	169.983	1.002	-8191	255	
924.741	1	1	0	0	0.21554	0.1174	0.20799	0.24016	0.13855	0.082313	0.13082	0.23206	0.24312	0.20443	0.17001	0.26783	0.11822	0.022431	0.13158	0.27456	-2.4646	-3.1125	-3.0104	-2.7479	-3.2396	-3.0062	-3.0938	-3.4229	-2.825	-2.9583	-3.1937	-2.8958	-3.4625	-2.9854	-2.9208	-3.2771	98.168	27.864	278.067	327.115	282.342	300.831	36.094	254.363	268.183	115.043	223.714	328.142	333.026	320.005	287.029	270.764	0.00023687	0.00039787	0.00013717	520.23	4.0178e-06	4.524e-06	470.27	230.51	3.0556e-06	4.4061e-06	211.02	93.191	103.6	48.403	3.277e-06	42.323	0.00030962	0.00021135	0.00018837	533.13	2.4826e-06	2.4468e-06	481.82	237.32	2.9195e-06	2.2349e-06	216.47	95.967	107.05	50.522	3.1886e-06	43.85	229.945	58.093	75.391	-6.886	148.844	125.070	-8.466	-2.011	178.420	115.244	-5.091	-1.473	0.822	3.993	163.600	0.801	-8191	255	
924.838	1	1	0	0	0.21158	0.11748	0.2419	0.16709	0.063166	0.077094	0.22394	0.18401	0.26132	0.12732	0.13548	0.43559	0.20792	0.045844	0.1246	0.07989	-2.3312	-2.925	-3.1292	-2.775	-3.0625	-2.9896	-2.7917	-3.2646	-2.9417	-3.0417	-3.3896	-2.8604	-3.2375	-3.2396	-2.5167	-3.4104	289.502	162.886	253.217	305.100	248.777	320.465	244.235	159.230	8.356	194.644	266.251	328.626	270.043	6.495	247.250	139.624	0.00020179	0.00040399	0.00014981	518.34	3.3822e-06	3.6094e-06	471.41	228.96	3.3434e-06	3.1032e-06	212.21	93.188	104.5	49.196	3.4678e-06	43.225	0.00030142	0.00023787	0.00023546	530.8	2.3989e-06	2.3513e-06	481.04	237.26	2.6885e-06	2.7399e-06	217.8	96.719	108.19	51.324	3.4133e-06	44.649	231.141	58.992	97.489	-6.779	155.089	124.301	-8.323	-1.958	172.676	117.300	-5.198	-1.599	0.808	4.182	146.628	0.818	-8191	255	
924.934	1	1	0	0	0.15666	0.23832	0.20101	0.14986	0.25308	0.24612	0.1493	0.34257	0.072237	0.18405	0.064327	0.13528	0.19082	0.24198	0.21585	0.12638	-2.3396	-2.8583	-3.3333	-2.8	-3.0458	-3.1417	-2.8854	-3.2792	-3.0687	-2.9833	-3.2687	-2.8563	-3.2646	-3.4417	-2.7417	-3.1979	282.776	204.395	321.177	205.907	242.474	244.518	202.374	258.710	9.088	100.282	336.847	253.330	328.898	-18.549	158.134	156.716	0.00022576	0.00036735	0.00015684	525.67	4.3437e-06	4.3393e-06	477.76	234.7	1.993e-06	4.0894e-06	217.18	95.375	107	50.252	3.6999e-06	44.336	0.00030577	0.00023059	0.00019906	539.84	2.4403e-06	2.3466e-06	488.73	242.28	2.8205e-06	2.6913e-06	222.55	98.956	110.46	52.476	3.4762e-06	45.643	227.507	61.201	90.736	-6.711	164.093	131.725	-8.234	-2.223	163.241	113.177	-5.140	-1.528	1.058	4.076	166.400	0.719	-8191	255	
925.028	1	1	0	0	0.23105	0.22322	0.1944	0.24913	0.077213	0.17624	0.11343	0.086636	0.1629	0.097088	0.13197	0.27874	0.23497	0.47511	0.075424	0.21741	-2.5729	-2.9292	-3.3187	-3.0396	-3.2271	-3.2417	-2.9292	-3.1813	-3.0687	-2.8563	-3.4813	-2.9938	-3.0875	-3.375	-2.925	-3.2667	39.448	95.367	24.397	291.675	222.384	111.122	276.938	102.257	300.225	84.825	87.641	295.412	262.366	290.968	256.392	256.146	0.00021317	0.00045252	0.00014697	527.88	3.2758e-06	3.7065e-06	479.6	234.16	3.0744e-06	3.6902e-06	213.58	94.186	104.23	49.566	3.1416e-06	42.876	0.00029853	0.00025903	0.00023774	543.36	2.3881e-06	2.5458e-06	490.47	241.6	2.8223e-06	2.7617e-06	220.52	97.716	108.54	51.689	3.2125e-06	44.57	228.401	58.175	79.886	-6.535	164.168	111.598	-8.231	-2.241	173.399	127.823	-5.242	-1.872	0.753	4.265	155.801	0.720	-8191	255	
925.126	1	1	0	0	0.30854	0.035591	0.21588	0.2666	0.32636	0.40937	0.050069	0.3383	0.21337	0.1502	0.24258	0.28692	0.12023	0.27034	0.10718	0.28941	-2.6542	-2.8646	-3.3021	-3.2729	-2.8104	-3.1521	-3.1063	-3.1021	-3.3125	-2.825	-3.3604	-3.0208	-3.0625	-3.3958	-2.7354	-3.0417	53.282	329.092	317.068	-12.164	35.398	3.481	165.889	300.422	279.748	46.212	104.666	-6.239	315.411	332.295	272.156	300.919	0.00021818	0.00038112	0.00016496	520.43	3.7293e-06	4.1062e-06	467.61	228.53	2.5401e-06	3.412e-06	208.28	91.357	101.94	47.865	3.8677e-06	41.732	0.00029634	0.00025539	0.00018934	534.08	2.5276e-06	2.5304e-06	478.29	235.42	5.2945e-06	2.8224e-06	213.37	94.525	105.27	49.934	3.0168e-06	43.09	231.337	53.375	87.099	-6.293	154.978	137.633	-8.499	-2.108	199.466	129.294	-5.105	-1.433	0.896	4.132	170.820	0.844	-8191	255	
925.245	1	1	0	0	0.19233	0.13349	0.13752	0.23591	0.13147	0.2175	0.21905	0.11261	0.10631	0.18306	0.17669	0.11876	0.066647	0.27906	0.1787	0.28705	-2.7125	-2.7062	-3.0083	-3.1396	-2.9479	-3.2708	-3.1042	-3.1208	-3.0312	-2.8667	-3.1771	-3.0854	-2.8812	-3.5479	-2.8958	-3.1854	139.238	21.717	83.447	292.561	315.263	92.979	59.950	316.892	100.581	0.919	295.214	302.168	234.591	298.056	82.238	203.138	0.00022663	0.00036171	0.00012576	504.02	3.6299e-06	3.5664e-06	461.03	224.51	2.5387e-06	4.6961e-06	204.5	90.432	100.55	47.341	4.0382e-06	41.5	0.00028899	0.00023575	0.00021086	518.51	2.4043e-06	2.1439e-06	469.79	230.73	6.4669e-06	2.7326e-06	211.3	93.407	103.93	49.415	3.2735e-06	42.921	230.381	60.661	79.901	-6.425	152.924	119.634	-8.338	-2.077	186.561	122.848	-4.885	-1.535	0.724	4.193	159.916	0.772	-8191	255	
925.341	1	1	0	0	0.22314	0.014819	0.16815	0.17287	0.26971	0.10843	0.078795	0.14144	0.13739	0.26301	0.1923	0.10973	0.094306	0.017145	0.26137	0.1077	-2.8708	-2.9208	-3.0667	-3.05	-2.7458	-3.2125	-2.9604	-3.1083	-3.3083	-2.7917	-3.3146	-3.0583	-2.9375	-3.3312	-2.9125	-3.0042	207.591	312.052	312.015	287.399	145.052	122.524	144.427	128.688	230.794	142.906	291.181	273.318	105.008	224.367	26.224	301.134	0.00022127	0.00037845	0.00011689	507.87	3.4139e-06	4.0567e-06	461.86	225.07	1.8785e-06	4.2212e-06	206.3	91.091	101.43	48.025	3.0074e-06	42.436	0.00028691	0.00024152	0.00017281	520.74	2.4034e-06	2.3937e-06	470.9	231.43	7.7144e-06	2.3854e-06	212.35	94.392	104.96	49.983	3.1386e-06	43.649	228.918	55.330	74.779	-6.513	164.013	124.754	-8.304	-1.703	159.761	145.111	-5.123	-1.406	0.968	4.365	151.794	0.737	-8191	255	
925.437	1	1	0	0	0.1646	0.25377	0.031062	0.13869	0.027209	0.18085	0.11861	0.052556	0.053775	0.083108	0.17192	0.15883	0.12704	0.11228	0.35878	0.1809	-2.8042	-2.8729	-3.0938	-3.2333	-2.7833	-3.2479	-3.1292	-2.8917	-3.2729	-2.8854	-3.0021	-3.3229	-2.9896	-3.3042	-3.0458	-2.8917	98.466	40.176	296.451	216.177	52.322	202.224	150.524	280.559	226.995	130.540	153.103	307.300	180.576	49.061	100.674	172.592	0.00022705	0.00045849	0.00012598	514.55	3.3628e-06	3.4464e-06	463.92	226.13	8.8736e-07	4.7774e-06	208.74	91.804	102.45	48.168	2.7587e-06	41.882	0.0002968	0.00024749	0.00011147	528.48	2.4691e-06	2.0861e-06	476.42	233.83	6.6768e-06	2.7119e-06	214.26	94.964	105.8	50.268	3.1766e-06	43.415	229.854	60.462	62.623	-6.923	169.059	131.373	-8.230	-2.041	190.407	130.682	-4.864	-1.613	0.910	4.319	180.184	0.907	-8191	255	
925.533	1	1	0	0	0.11302	0.13939	0.226	0.14465	0.048336	0.18723	0.046098	0.23877	0.096562	0.14262	0.16688	0.29096	0.22165	0.14527	0.056619	0.35681	-2.7542	-2.8021	-3.0458	-3.2583	-2.8021	-3.3083	-3.0062	-2.9771	-3.2167	-2.9562	-3.0833	-3.2313	-2.9667	-3.1	-2.9729	-2.7833	64.942	308.064	186.141	213.868	149.991	256.074	243.749	336.645	47.507	45.797	27.254	263.326	199.226	239.685	297.877	269.257	0.00022311	0.00041916	0.000104	512.4	4.1099e-06	2.6125e-06	463.51	226.08	1.5962e-06	4.1313e-06	207.52	91.432	101.85	48.18	4.2181e-06	41.983	0.00030158	0.00025741	6.3732e-05	527.05	2.5348e-06	2.145e-06	475.06	233.21	7.7117e-06	2.3599e-06	213.51	94.636	105.61	50.241	2.9759e-06	43.587	227.628	41.921	66.218	-6.667	163.840	144.115	-8.202	-2.249	199.691	126.322	-5.158	-1.408	0.810	4.175	164.266	0.572	-8191	255	
925.630	1	1	0	0	0.0099125	0.20709	0.18222	0.087944	0.050731	0.23389	0.32066	0.15093	0.32163	0.086721	0.26705	0.14057	0.1893	0.11226	0.26435	0.035696	-2.8667	-2.9562	-2.9125	-3.2104	-2.6437	-3.1979	-2.9792	-2.9146	-3.2021	-2.9813	-2.7896	-3.5521	-2.9917	-2.9875	-3.1604	-2.6813	310.221	199.156	46.500	6.473	223.016	190.320	4.356	-6.803	327.565	204.571	230.369	187.683	309.444	18.768	330.549	337.027	0.00021864	0.00028164	0.00011724	518.16	3.4481e-06	4.8746e-06	469.14	230.14	2.8721e-06	3.9214e-06	211.78	94.287	104.96	49.582	4.7456e-06	43.592	0.00029445	0.00024213	6.7865e-05	531.99	2.425e-06	2.2712e-06	480.46	237.05	6.9894e-06	2.6015e-06	218.32	97.444	108.64	51.745	6.7856e-06	44.971	227.659	65.870	55.680	-6.737	149.695	128.640	-8.285	-2.036	180.476	125.811	-5.193	-1.746	0.878	4.163	162.103	0.822	-8191	255	
925.726	1	1	0	0	0.027329	0.27973	0.11229	0.18166	0.17442	0.064204	0.28931	0.23089	0.12476	0.067943	0.20504	0.087007	0.041859	0.17042	0.092524	0.28566	-2.9479	-3.0854	-2.8563	-3.175	-2.6083	-3.0062	-3.1063	-2.8	-3.1958	-2.8833	-2.9875	-3.3104	-2.8563	-2.9167	-3.2062	-2.9479	262.881	37.162	159.356	330.276	267.170	55.810	314.169	267.770	290.575	-9.752	226.907	91.878	7.803	243.824	216.654	284.082	0.00022237	0.0004288	0.00010333	527.62	4.1698e-06	4.0254e-06	478.57	233.83	1.4372e-06	4.3156e-06	215.16	95.667	105.79	49.824	4.6998e-06	43.627	0.00031235	0.00024962	7.7813e-05	544	2.7004e-06	2.4456e-06	490.58	241.59	8.104e-06	2.61e-06	221.42	98.635	109.45	52.098	8.0049e-06	45.145	228.574	68.381	70.894	-7.039	158.524	133.079	-8.000	-2.022	155.400	124.279	-5.223	-1.830	0.687	4.179	142.060	0.704	-8191	255	
925.822	1	1	0	0	0.18968	0.083952	0.052216	0.21657	0.27613	0.23816	0.23684	0.17781	0.15826	0.17258	0.1425	0.13923	0.26746	0.06439	0.18672	0.23246	-2.6417	-3.0062	-2.6813	-3.2958	-2.8542	-3.0708	-3.2458	-3.0062	-2.9708	-3.2687	-2.8625	-3.4417	-3.0083	-2.9771	-3.4938	-3.0458	266.974	191.987	294.376	242.858	188.478	49.574	142.283	239.968	-15.436	50.216	255.329	247.475	257.406	7.780	169.901	193.438	0.00023942	0.00042108	9.4906e-05	527.87	5.231e-06	4.6219e-06	472.91	231.84	1.6381e-06	3.971e-06	210.73	93.185	104.04	48.912	4.388e-06	42.581	0.00030877	0.00023636	6.701e-05	542.36	2.5798e-06	2.6318e-06	485.54	239.04	6.3871e-06	2.7301e-06	217.25	96.476	107.62	51.018	8.4772e-06	44.019	230.351	62.886	78.558	-6.600	155.132	127.120	-8.296	-2.050	154.943	129.288	-5.602	-1.692	0.859	4.373	139.682	0.687	-8191	255	
925.941	1	1	0	0	0.2184	0.10562	0.19563	0.26884	0.12761	0.05874	0.2263	0.37718	0.098387	0.088561	0.20162	0.15138	0.19658	0.28556	0.18827	0.41325	-2.7792	-3.1229	-2.8104	-3.35	-3.1021	-2.9042	-3.4313	-2.9958	-3.0687	-3.1104	-2.8042	-3.2083	-3.1229	-2.9562	-3.2042	-3.0708	134.959	-14.050	220.483	300.416	232.724	65.335	308.944	321.227	33.821	33.075	73.441	-8.009	31.444	338.124	120.982	153.789	0.00024527	0.00043347	0.00010255	514.01	4.1353e-06	4.1682e-06	460.4	226.08	2.7814e-06	3.4304e-06	206.36	90.479	101.27	47.785	3.9899e-06	41.762	0.00030727	0.00025022	7.3309e-05	528.39	2.6896e-06	2.3819e-06	473.26	232.95	3.5877e-06	6.8357e-06	212.17	94.129	105.06	49.933	7.2989e-06	43.186	226.864	64.580	71.511	-6.696	156.423	133.693	-8.185	-1.960	147.269	157.670	-5.145	-1.336	0.849	4.122	149.277	1.164	-8191	255	
926.037	1	1	0	0	0.25424	0.26349	0.096488	0.13624	0.15219	0.20465	0.26673	0.38453	0.27909	0.20168	0.23317	0.24629	0.21034	0.23433	0.15804	0.052497	-2.7938	-3.2583	-2.6667	-3.1458	-3.1167	-2.8396	-3.2167	-2.9667	-2.9833	-3.1146	-2.8917	-3.2125	-2.95	-2.95	-3.3479	-2.875	205.121	207.856	330.674	-3.126	185.886	155.100	302.183	327.839	334.220	50.046	269.413	329.964	311.696	320.804	254.521	51.829	0.00021309	0.0005349	8.2997e-05	510.65	3.2444e-06	3.3531e-06	462.04	226.36	2.1525e-06	2.4528e-06	206.04	91.479	101.66	47.895	6.1312e-06	41.86	0.00029153	0.00024213	5.9514e-05	525.72	2.461e-06	2.3843e-06	473.54	233.25	2.4933e-06	7.785e-06	212.56	94.54	105.36	49.974	9.2651e-06	43.257	233.852	60.575	59.731	-6.734	161.187	141.710	-8.059	-2.198	176.120	124.317	-4.962	-1.666	0.916	4.301	161.871	0.954	-8191	255	
926.133	1	1	0	0	0.30034	0.19114	0.14606	0.056142	0.13321	0.13865	0.20541	0.1401	0.074078	0.052176	0.023675	0.24362	0.16054	0.23044	0.1192	0.19423	-2.3812	-3.1729	-2.8563	-3.2417	-2.9521	-2.7562	-3.35	-2.9938	-2.9521	-3.2771	-2.9604	-3.0667	-3.0583	-2.7833	-3.2396	-2.875	64.340	97.750	114.171	-1.919	-2.874	119.056	223.753	108.108	45.913	168.892	339.320	232.397	60.251	327.017	119.400	184.983	0.00021756	0.00047068	8.9066e-05	508.93	3.4239e-06	3.7346e-06	460.13	224	2.8066e-06	2.2886e-06	204.53	89.318	99.21	46.843	3.5272e-06	40.667	0.00029353	0.00022512	6.6896e-05	524.89	2.4898e-06	2.5905e-06	471.04	230.89	2.7994e-06	9.6083e-06	209.75	92.66	103.27	48.81	7.3378e-06	42.125	229.434	60.590	79.772	-6.798	196.477	136.647	-8.183	-1.868	185.635	112.437	-5.073	-1.588	1.133	4.091	160.528	0.684	-8191	255	
926.229	1	1	0	0	0.13373	0.10198	0.13175	0.095914	0.056189	0.10421	0.1495	0.27623	0.042429	0.10158	0.16804	0.14456	0.27403	0.22387	0.078774	0.11921	-2.3937	-3.3729	-2.8979	-3.025	-3.2625	-2.6937	-3.2333	-3.1542	-2.7458	-3.1625	-2.9271	-3.0938	-3.2479	-2.8438	-3.2021	-2.9229	16.445	292.555	190.355	-15.197	-9.344	218.755	142.497	338.944	33.179	172.482	88.834	18.204	262.073	0.859	171.968	223.681	0.00021991	0.00041052	0.00011204	498.45	3.8595e-06	3.4297e-06	447.35	217.7	2.6105e-06	4.5611e-06	197.23	86.335	95.775	44.89	5.6259e-06	39.042	0.00029927	0.00021783	6.2934e-05	513.65	5.6628e-06	2.6566e-06	458.98	224.43	2.8022e-06	7.286e-06	202.78	89.176	99.547	46.945	8.2006e-06	40.45	227.969	52.742	79.217	-6.615	185.644	111.053	-8.301	-2.030	171.719	95.361	-5.092	-1.141	0.737	4.490	163.015	0.977	-8191	255	
926.325	1	1	0	0	0.33176	0.13453	0.12921	0.096207	0.090899	0.031527	0.24758	0.18011	0.23305	0.18423	0.2276	0.11478	0.17082	0.20907	0.11361	0.068957	-2.3125	-3.1562	-2.9167	-3.1167	-3.225	-2.7417	-3.1708	-3.2417	-2.8854	-3.2271	-3.075	-2.9979	-3.0854	-2.9229	-3.0292	-3.1667	248.879	-1.723	211.195	241.948	101.730	136.778	285.958	202.725	290.074	269.998	278.176	324.313	78.688	310.892	94.088	24.495	0.00020977	0.00034433	9.6636e-05	486.94	2.411e-06	4.0809e-06	438.26	213.69	2.9327e-06	3.2901e-06	196.13	85.657	96.47	45.164	4.4461e-06	39.388	0.00028175	0.00020629	6.0568e-05	499.85	5.7267e-06	2.5352e-06	450.14	220.69	2.716e-06	8.6796e-06	201.64	88.862	99.658	47.065	5.9717e-06	40.855	230.347	70.693	68.247	-6.554	191.148	122.372	-7.937	-1.970	183.573	120.158	-5.026	-1.330	0.983	4.323	145.997	0.884	-8191	255	
926.420	1	1	0	0	0.14044	0.26364	0.24592	0.076549	0.10257	0.18008	0.31759	0.18282	0.11606	0.062615	0.055064	0.15768	0.19459	0.066485	0.094725	0.298	-2.225	-3.0479	-2.9229	-2.8417	-3.25	-2.8271	-3.1	-3.1333	-2.7229	-3.2125	-2.9104	-2.9708	-3.425	-2.9313	-3.1771	-3.1708	337.611	182.706	141.311	7.265	174.400	168.747	-19.374	319.796	126.535	326.481	160.440	8.528	53.534	-17.254	131.332	333.824	0.00022411	0.00041149	9.86e-05	492.86	3.2766e-06	3.4713e-06	447.54	217.41	2.7628e-06	3.5871e-06	197.98	86.492	97.523	45.603	4.7445e-06	39.881	0.00028318	0.00021297	6.4872e-05	505.7	7.1958e-06	2.2959e-06	457.54	223.6	2.7362e-06	7.1974e-06	203.67	89.946	100.84	47.526	3.6519e-06	41.31	232.581	62.756	63.110	-6.716	180.254	127.573	-8.023	-1.744	172.363	117.694	-5.318	-1.183	0.962	4.284	146.466	0.945	-8191	255	
926.518	1	1	0	0	0.20894	0.080418	0.21462	0.22883	0.145	0.3312	0.13832	0.16847	0.057439	0.03882	0.14825	0.061648	0.16586	0.12582	0.094529	0.25676	-2.3833	-3.0979	-3.0438	-2.8812	-3.2708	-2.8083	-2.9542	-3.1813	-2.8	-3.0708	-2.975	-2.6979	-3.1688	-2.9458	-2.9458	-3.2313	156.985	218.088	257.875	120.456	123.728	5.794	281.396	286.828	129.466	108.714	91.937	257.762	262.029	-3.164	18.796	-11.267	0.00021143	0.00037497	8.5414e-05	494.46	2.7839e-06	4.2055e-06	448.85	218.06	2.6295e-06	5.4201e-06	198.7	87.213	97.172	45.592	3.1733e-06	39.948	0.00028283	0.00022846	6.1538e-05	507.87	5.8644e-06	2.5422e-06	457.61	224.07	2.6023e-06	8.8811e-06	203.79	90.288	100.9	47.718	3.1107e-06	41.407	227.848	75.772	61.797	-6.660	185.803	136.047	-8.299	-2.047	178.121	110.541	-5.013	-1.373	0.962	4.280	170.139	1.025	-8191	255	
926.637	1	1	0	0	0.20189	0.11458	0.29272	0.18613	0.11896	0.13435	0.13226	0.11615	0.20659	0.21938	0.12873	0.016262	0.10076	0.13753	0.0090602	0.16101	-2.3729	-3.1771	-3.0542	-2.6625	-3.1625	-2.975	-3.0542	-3.1188	-2.8646	-3.0438	-2.9708	-2.8396	-3.3979	-3.2229	-2.85	-3.2313	116.297	158.763	114.540	-3.485	241.141	186.176	275.285	198.210	125.191	181.420	123.718	87.348	261.392	179.389	336.076	85.228	0.00022481	0.00027905	9.8138e-05	498	2.6799e-06	3.1066e-06	447.8	218.94	2.5416e-06	3.4061e-06	199.63	87.664	98.011	45.969	3.0061e-06	40.057	0.0002923	0.00020882	6.0055e-05	510.61	7.2894e-06	2.4279e-06	459.3	224.86	2.5217e-06	6.0187e-06	204.95	90.376	101.32	47.82	3.0008e-06	41.533	224.256	73.143	69.822	-6.560	179.142	122.911	-8.319	-1.990	171.167	108.143	-4.741	-1.596	0.917	4.145	168.730	0.807	-8191	255	
926.733	1	1	0	0	0.12054	0.1169	0.081554	0.051295	0.024811	0.22966	0.20744	0.1073	0.27364	0.2422	0.33004	0.11707	0.17734	0.1985	0.19853	0.10057	-2.3854	-3.0187	-2.9146	-2.7292	-3.1354	-2.8688	-2.8521	-3.3229	-2.7229	-2.9146	-3.2604	-2.7917	-2.9979	-3.0438	-2.7625	-3.3146	103.013	-1.919	302.704	87.395	42.864	31.631	242.871	258.469	84.760	289.596	-16.500	293.311	211.082	210.564	136.593	330.956	0.00019964	0.00026771	0.00010954	500.92	2.2854e-06	4.2196e-06	456.44	223.92	3.0945e-06	3.9279e-06	204.94	90.942	101.76	48.074	2.903e-06	41.755	0.00028537	0.00022755	6.7409e-05	515.91	6.4396e-06	2.4373e-06	466.72	230.58	2.7655e-06	3.1052e-06	211.49	93.854	105.24	49.899	3.3184e-06	43.302	229.405	62.910	73.986	-6.714	172.740	119.421	-8.403	-1.888	176.925	103.093	-5.003	-1.483	0.885	4.198	158.797	0.895	-8191	255	
926.829	1	1	0	0	0.10719	0.10905	0.17079	0.21651	0.16654	0.24394	0.15195	0.34937	0.025181	0.029435	0.09207	0.15528	0.32144	0.3703	0.26171	0.20035	-2.2333	-2.9667	-2.9333	-2.7417	-3.1604	-3.1208	-3.0271	-3.4437	-2.8625	-2.9062	-3.4062	-2.9583	-3.3	-3.15	-2.6125	-3.3854	333.829	226.002	274.794	241.675	172.256	33.315	204.064	208.621	87.201	116.214	-1.377	28.504	269.564	9.106	211.418	6.344	0.00020631	0.00040268	0.00010658	520.98	2.4163e-06	3.3081e-06	473.06	231.07	2.5982e-06	2.952e-06	210.32	93.99	104.49	48.907	4.1213e-06	42.71	0.00029919	0.00024	6.5271e-05	534.74	7.7943e-06	2.3419e-06	484.09	238.66	2.7142e-06	2.6452e-06	217.95	96.908	108.24	51.089	3.3693e-06	44.305	232.816	71.238	79.056	-6.667	187.147	119.510	-8.099	-2.008	187.368	142.371	-5.060	-1.224	1.262	4.337	169.763	1.206	-8191	255	
926.925	1	1	0	0	0.28591	0.041532	0.097031	0.19518	0.41884	0.078687	0.16195	0.14643	0.17236	0.1186	0.14265	0.18397	0.22628	0.16293	0.31009	0.15629	-2.5812	-2.8063	-3.2229	-2.9062	-3.0708	-3.0708	-2.925	-3.3	-2.9208	-2.9104	-3.4938	-2.7167	-2.8146	-3.1729	-2.8083	-3.2562	333.088	245.392	60.160	6.021	-17.114	265.800	295.319	300.220	301.394	231.159	234.096	58.226	240.445	194.241	208.386	257.337	0.00023155	0.00046062	9.6833e-05	525.43	2.8897e-06	4.9492e-06	473.98	231.69	2.567e-06	4.5213e-06	208.38	92.536	102.96	48.124	3.8278e-06	41.569	0.000307	0.00025265	6.416e-05	538.95	5.1362e-06	3.5099e-06	483.36	237.72	2.6335e-06	2.7641e-06	215.26	95.16	106.32	50.214	3.4882e-06	43.034	232.644	55.668	58.716	-6.747	132.250	144.936	-8.275	-2.059	173.476	130.289	-5.061	-1.721	0.955	4.435	154.510	0.940	-8191	255	
927.021	1	1	0	0	0.1737	0.14867	0.17916	0.13928	0.10796	0.17443	0.15883	0.021647	0.044538	0.16782	0.067123	0.20239	0.24223	0.10718	0.045158	0.37383	-2.65	-2.7729	-3.3208	-2.9292	-2.9	-3.4708	-2.6562	-3.1875	-3.0979	-2.8167	-3.3937	-2.7188	-2.8708	-3.2792	-2.7917	-3.2854	149.277	151.259	17.795	274.684	-11.950	188.124	307.564	112.564	56.014	271.272	5.225	59.179	-9.931	-18.624	138.911	276.335	0.00021643	0.00040531	9.6254e-05	511.51	3.3778e-06	3.712e-06	458.19	222.9	2.9876e-06	4.2107e-06	201.25	89.181	100.27	46.954	3.4259e-06	40.765	0.00030512	0.00025205	5.9742e-05	525	2.7103e-06	7.4805e-06	468.22	230.05	2.6949e-06	2.9499e-06	208.28	92.169	103.54	48.774	3.1337e-06	42.138	227.065	57.368	69.134	-6.655	138.404	162.110	-8.469	-1.709	180.347	116.006	-5.133	-1.495	1.004	4.321	156.170	0.874	-8191	255	
927.117	1	1	0	0	0.33073	0.2748	0.085459	0.15483	0.16315	0.19469	0.25148	0.12298	0.20279	0.10773	0.14009	0.18129	0.072603	0.27756	0.13555	0.13279	-2.7188	-2.7583	-3.1833	-2.8958	-2.7812	-3.1854	-2.8083	-3.2562	-3.0938	-2.6896	-3.425	-3.0021	-3.125	-3.3937	-2.8312	-3.1042	243.173	273.852	206.667	298.849	306.790	298.667	211.123	220.677	266.280	259.296	-7.075	115.052	106.102	296.805	334.979	183.384	0.0002122	0.0003683	0.00011861	507.1	3.0404e-06	2.124e-06	457.66	223.62	3.1965e-06	4.0678e-06	204.68	90.313	101	47.311	3.096e-06	41.285	0.00028845	0.00023443	6.1766e-05	519.93	2.2963e-06	7.1505e-06	468.76	231.06	2.6628e-06	2.6549e-06	210.94	93.392	104.56	49.308	3.1496e-06	42.698	232.612	63.111	66.760	-6.725	162.394	133.247	-8.425	-1.921	164.031	128.710	-5.285	-1.266	0.937	4.082	149.719	1.043	-8191	255	
927.238	1	1	0	0	0.094729	0.13333	0.040412	0.18846	0.077087	0.18529	0.0044069	0.11372	0.078923	0.16288	0.24317	0.052263	0.090959	0.26572	0.080296	0.015018	-2.8958	-2.7917	-3.1708	-2.9458	-2.9917	-3.1979	-3.0417	-3.1354	-3.3104	-2.7021	-3.2958	-3.1292	-3.0979	-3.3896	-2.9292	-3.1375	-3.800	312.151	58.347	272.681	284.497	93.119	134.369	20.956	25.022	272.613	304.458	197.479	294.276	290.386	130.996	100.545	0.00025282	0.00036268	8.5773e-05	514.54	3.2942e-06	1.5058e-06	463.06	226.97	2.4465e-06	4.2332e-06	205.84	90.606	100.96	47.52	3.9498e-06	41.302	0.00033903	0.00023221	6.4559e-05	528.15	2.3899e-06	8.6426e-06	474.14	233.21	2.4859e-06	2.6974e-06	211.74	93.591	104.68	49.399	3.1027e-06	42.567	227.122	63.376	75.356	-6.636	157.920	173.699	-8.393	-1.874	170.547	136.653	-5.005	-1.655	0.976	4.434	162.011	1.028	-8191	255	
927.334	1	1	0	0	0.24336	0.024571	0.11736	0.076208	0.22846	0.041803	0.18714	0.13488	0.068173	0.22706	0.10433	0.11209	0.20394	0.14542	0.21614	0.20605	-2.5417	-2.8271	-3.1479	-2.9896	-2.8229	-3.1542	-2.9708	-2.8396	-3.3042	-2.9521	-3.3187	-2.9813	-2.7812	-3.3042	-2.6458	-3.0604	245.293	127.120	253.743	171.344	123.570	263.054	192.008	26.035	183.147	2.528	-9.940	235.408	298.923	263.732	132.106	60.072	0.0002536	0.00035517	0.00011964	511.93	3.7442e-06	1.6405e-06	462.1	225.7	3.6613e-06	3.1662e-06	206	91.054	102.24	47.787	3.1386e-06	41.463	0.00047401	0.00024172	6.1538e-05	526.6	2.4196e-06	7.3238e-06	472.51	233.08	2.6225e-06	2.5869e-06	212.26	93.997	105.57	49.709	3.3044e-06	42.896	229.908	57.517	69.514	-6.690	164.761	129.081	-8.294	-1.886	184.527	119.757	-5.456	-1.770	0.935	4.204	160.956	0.653	-8191	255	
927.428	1	1	0	0	0.17237	0.053095	0.1939	0.21206	0.33438	0.1683	0.33852	0.10718	0.22931	0.12217	0.045234	0.12378	0.11269	0.221	0.26142	0.10831	-2.825	-2.7438	-3.1021	-3.1667	-2.7542	-3.2854	-2.85	-2.8854	-3.0187	-2.8688	-3.0708	-3.2979	-2.8125	-3.2687	-2.95	-2.9188	1.341	238.756	69.437	211.189	116.299	-10.447	-10.020	315.218	188.025	159.914	37.823	165.411	310.876	325.363	156.090	248.269	0.00021812	0.00035025	0.00011563	514.93	3.3456e-06	2.2624e-06	467.4	228.48	2.5314e-06	4.1174e-06	208.05	91.955	102.74	48.039	3.2116e-06	41.784	0.00046497	0.0002315	6.5328e-05	529.63	2.5753e-06	8.6792e-06	476.74	234.95	2.4135e-06	2.5918e-06	213.61	94.831	106.27	50.022	3.0528e-06	43.092	224.650	63.849	59.529	-6.940	151.010	64.214	-8.334	-1.982	169.196	134.194	-4.852	-1.715	0.841	4.362	181.825	0.823	-8191	255	
927.500	1	1	0	0	0.067564	0.038902	0.075122	0.3094	0.32699	0.12512	0.17992	0.0075352	0.20702	0.297	0.18254	0.11242	0.14316	0.26592	0.21373	0.029267	-2.8417	-2.9042	-2.9	-3.2458	-2.6771	-3.3063	-3.0333	-2.7938	-3.3563	-2.9	-2.9875	-3.2938	-2.7667	-3.2208	-3.2229	-2.8583	323.990	267.715	297.205	325.657	201.902	150.686	23.924	49.836	324.454	112.170	-0.294	193.053	103.771	228.384	88.010	261.792	0.00026161	0.00035706	6.659e-05	520.93	3.5752e-06	3.4478e-06	472.7	230.23	2.8902e-06	4.58e-06	211.02	92.842	104.55	48.896	3.6779e-06	42.312	0.0005192	0.00022735	5.7205e-05	533.81	2.5888e-06	7.4723e-06	482.91	237.94	2.5794e-06	2.7702e-06	216.64	96.181	107.86	50.905	3.1476e-06	43.925	232.801	61.178	68.440	-6.683	163.128	127.689	-8.309	-2.005	182.800	123.215	-4.854	-1.780	1.005	4.284	161.180	1.114	-8191	255	
927.598	1	1	0	0	0.18486	0.23501	0.17163	0.16671	0.20881	0.28123	0.24792	0.2254	0.065656	0.17299	0.29826	0.14065	0.083393	0.19514	0.18989	0.2331	-2.6333	-2.9	-2.9104	-3.3063	-2.6833	-3.1479	-3.175	-2.9354	-3.0729	-2.9562	-3.2062	-3.2625	-2.9396	-3.1667	-3.1917	-2.8917	278.860	309.804	51.303	276.198	127.154	41.067	-14.011	305.927	180.636	196.589	317.965	329.407	223.705	324.638	251.176	178.906	0.00023477	0.00039134	0.0001041	528.99	3.6855e-06	3.2871e-06	476.27	231.96	2.0051e-06	3.5785e-06	212.06	93.107	104.36	49.021	3.1108e-06	42.74	0.00048803	0.00024719	7.1143e-05	540.68	2.6977e-06	9.4676e-06	486.05	239.2	2.5308e-06	2.5614e-06	216.99	96.524	108.05	51.041	3.0598e-06	43.959	230.297	59.150	60.468	-6.453	163.952	118.016	-8.165	-1.905	180.018	125.226	-5.029	-1.575	1.039	4.368	163.357	0.944	-8191	255	
927.717	1	1	0	0	0.058687	0.11624	0.10591	0.078287	0.11634	0.18788	0.14906	0.11356	0.1183	0.093579	0.11168	0.14614	0.036508	0.13488	0.19083	0.17034	-2.9896	-2.7854	-2.8438	-3.4125	-2.7771	-3.1917	-3.25	-2.8646	-3.3396	-3.0687	-3.0729	-3.3042	-3.0312	-3.2625	-3.1917	-2.7562	223.962	227.263	154.002	-14.521	321.044	146.851	265.905	309.259	263.658	222.121	0.811	-14.960	312.476	-3.606	124.161	41.469	0.00024825	0.00039127	9.1967e-05	528.61	3.5792e-06	2.982e-06	470.86	231.68	3.0193e-06	4.0707e-06	210.1	92.935	104.17	48.819	4.2957e-06	42.243	0.00053341	0.0002236	6.6383e-05	541.47	2.5402e-06	5.1976e-06	482.78	238.24	2.4208e-06	2.7229e-06	215.7	96.009	107.68	50.861	3.4033e-06	43.773	234.106	67.394	79.076	-6.442	163.688	104.647	-8.371	-1.932	177.196	127.336	-5.260	-1.481	0.735	4.212	155.015	0.798	-8191	255	
927.813	1	1	0	0	0.20976	0.076058	0.15526	0.28364	0.08637	0.06695	0.22245	0.14997	0.17413	0.16721	0.21724	0.09978	0.052689	0.062074	0.098331	0.29777	-2.8521	-3.0312	-2.8604	-3.3021	-2.925	-2.9479	-3.3854	-2.85	-3.1896	-3.2979	-2.6937	-3.2271	-2.9354	-3.1375	-3.2167	-2.9333	262.284	289.521	60.069	282.809	333.206	41.463	203.970	298.369	1.437	136.754	289.513	17.663	-8.097	76.333	159.945	304.424	0.00023445	0.00043579	0.00011876	528.12	2.9805e-06	4.4793e-06	473.3	231.53	3.4211e-06	4.2284e-06	211.09	93.323	104.18	49.199	3.1258e-06	42.689	0.0004707	0.00025488	6.5642e-05	540.4	2.452e-06	2.5033e-06	484.94	238.77	2.7151e-06	2.6051e-06	217.08	96.691	108.12	51.264	3.1736e-06	44.245	231.860	58.847	66.625	-6.600	149.931	140.070	-8.580	-1.930	172.888	121.855	-5.081	-1.564	1.154	4.221	156.952	0.782	-8191	255	
927.909	1	1	0	0	0.05749	0.058938	0.295	0.18747	0.06403	0.065362	0.27841	0.17326	0.11854	0.18427	0.030797	0.158	0.39531	0.24294	0.29169	0.11992	-2.8146	-3.1	-2.5938	-3.2104	-2.9875	-2.7938	-3.3063	-2.9167	-3.0854	-3.1937	-2.9625	-3.2938	-3.075	-2.9833	-3.0646	-3.0229	241.216	313.503	73.935	297.696	60.194	164.091	260.087	108.588	294.319	-4.303	144.556	276.573	239.164	312.576	4.304	-0.221	0.00026732	0.00035206	0.00011475	532.64	4.7847e-06	3.6474e-06	480.37	234.82	3.3171e-06	4.9558e-06	213.63	95.142	106.23	49.847	3.309e-06	43.425	0.00053318	0.00021986	6.8236e-05	547.18	2.632e-06	2.6129e-06	491.76	242.55	3.0002e-06	2.7799e-06	220.03	98.332	109.96	52.035	3.2105e-06	44.922	236.713	58.038	79.966	-6.816	153.054	121.056	-8.260	-1.844	176.663	123.154	-5.098	-1.573	1.130	4.149	167.874	0.734	-8191	255	
928.005	1	1	0	0	0.23286	0.13615	0.10087	0.078553	0.063888	0.18293	0.21324	0.042774	0.11458	0.076264	0.25977	0.26081	0.23871	0.4218	0.14132	0.22746	-2.6188	-3.025	-2.7604	-3.1833	-3.075	-2.7833	-3.2021	-2.7917	-3.0187	-3.2167	-2.8604	-3.2229	-3.0167	-3.05	-3.3042	-3.0208	225.444	72.662	196.277	3.891	125.305	109.536	160.870	242.277	7.268	67.149	158.944	-7.050	-6.130	313.016	228.546	287.473	0.00023022	0.00042999	0.00011198	531.21	5.0073e-06	5.0463e-06	476.83	234.38	2.7244e-06	3.0315e-06	210.31	93.806	105.21	49.222	3.5282e-06	42.309	0.00039207	0.00042726	6.6982e-05	546.98	2.7373e-06	2.8086e-06	491.54	241.96	2.8049e-06	2.5578e-06	218.46	97.286	109.11	51.454	2.91e-06	43.924	230.824	76.476	81.154	-6.808	161.121	132.001	-8.378	-2.013	171.916	141.691	-5.152	-1.617	0.858	4.208	157.592	0.731	-8191	255	
928.126	1	1	0	0	0.082442	0.13946	0.19535	0.1562	0.18388	0.36072	0.26392	0.1413	0.19485	0.38342	0.11754	0.25396	0.26449	0.29804	0.30659	0.12132	-2.5438	-3.3875	-2.6604	-3.1292	-3.075	-2.7583	-3.225	-2.8792	-3.0167	-3.3354	-2.95	-3.1479	-3.1021	-2.9125	-3.3375	-3.0021	59.316	30.070	303.210	143.889	186.683	139.960	125.657	194.447	182.666	69.847	279.724	157.824	309.770	273.666	101.166	323.637	0.00022235	0.00054769	6.3234e-05	522.19	3.3874e-06	4.0696e-06	463.55	227.82	2.9427e-06	3.9095e-06	204.53	90.355	100.99	47.447	4.1355e-06	40.822	0.00030519	0.00081191	6.7295e-05	535.42	2.2702e-06	2.7013e-06	476.82	234.72	2.6683e-06	2.4291e-06	210.38	93.6	104.87	49.473	2.9439e-06	42.418	229.353	104.570	81.048	-6.667	155.240	140.383	-8.390	-1.865	176.725	126.620	-5.239	-1.340	1.154	4.252	163.245	0.835	-8191	255	
928.198	1	1	0	0	0.062741	0.10676	0.10522	0.27822	0.17287	0.23188	0.12086	0.084557	0.27985	0.049142	0.10399	0.14363	0.060033	0.079756	0.12829	0.17035	-2.5125	-3.2021	-2.6292	-3.1021	-2.9417	-2.7188	-3.3021	-3.1125	-2.8229	-3.2271	-3.0042	-2.9625	-3.3896	-2.7896	-3.3271	-3.1188	39.629	107.180	160.030	295.540	230.898	76.984	311.841	318.286	45.296	274.457	-10.034	316.117	315.829	284.491	225.221	305.496	0.00023255	0.00017235	9.83e-05	512.34	3.1789e-06	3.3634e-06	459.58	224.58	3.007e-06	4.8538e-06	204.8	90.606	101.58	47.598	3.0305e-06	41.446	0.00029669	0.00065178	6.7153e-05	525.04	2.2369e-06	2.4409e-06	471.37	231.53	2.6555e-06	2.4837e-06	210.54	93.505	105.26	49.66	3.0448e-06	42.859	230.011	65.556	87.623	-6.366	159.140	128.940	-8.436	-1.966	162.669	132.198	-4.999	-1.827	1.113	4.174	164.499	1.014	-8191	255	
928.318	1	1	0	0	0.27949	0.043851	0.095965	0.10206	0.043817	0.093631	0.23809	0.29192	0.17053	0.059397	0.16587	0.14485	0.12984	0.2969	0.25769	0.12053	-2.2583	-3.3146	-2.8521	-3.1875	-2.9333	-2.8458	-3.2146	-3.1354	-2.7938	-3.2354	-2.9458	-2.9979	-3.2708	-2.9208	-3.0792	-3.1396	68.730	-16.164	173.721	-4.575	189.908	270.072	103.532	266.590	290.768	105.052	293.314	43.829	291.469	215.199	269.701	71.283	0.00022488	0.00027784	0.00011529	517.97	4.3742e-06	3.0467e-06	466.92	228.26	3.2693e-06	3.754e-06	206.11	90.499	101.62	47.707	2.7685e-06	41.204	0.00030173	0.00078893	6.5813e-05	530.84	2.3872e-06	2.4739e-06	477.22	234.94	2.683e-06	2.4182e-06	211.85	93.995	105.36	49.63	3.2165e-06	42.643	230.848	85.930	64.725	-6.567	147.460	119.822	-8.225	-1.934	177.228	119.815	-4.860	-1.470	1.121	4.460	156.378	0.977	-8191	255	
928.414	1	1	0	0	0.2024	0.19969	0.16436	0.35442	0.17979	0.22482	0.046437	0.064243	0.21311	0.10481	0.16213	0.25773	0.13114	0.26171	0.065895	0.095254	-2.3771	-3.1417	-2.7938	-2.9708	-3.3	-2.8688	-3.0521	-3.1292	-2.7854	-3.4333	-2.9688	-2.95	-3.3458	-2.8937	-3.0229	-3.2313	274.814	171.119	198.837	1.926	116.595	131.263	336.854	263.829	190.802	273.976	306.098	287.973	266.057	330.148	284.703	16.397	0.000231	0.0002878	9.6227e-05	513.03	3.1265e-06	3.2994e-06	456.21	224.17	3.036e-06	3.9436e-06	203	88.721	100.15	46.808	3.4056e-06	40.383	0.00030573	0.00067769	5.9856e-05	525.77	2.2765e-06	2.4362e-06	470.43	230.82	2.683e-06	2.4497e-06	207.75	91.999	103.63	48.802	3.3154e-06	41.78	230.426	68.566	66.001	-6.672	157.684	137.757	-8.271	-1.771	174.887	128.551	-4.822	-1.371	1.194	4.457	155.141	0.956	-8191	255	
928.509	1	1	0	0	0.23524	0.092973	0.16243	0.11828	0.12707	0.11527	0.075105	0.15136	0.031474	0.052098	0.24393	0.15205	0.30278	0.061358	0.28079	0.19486	-2.2313	-3.1437	-2.9437	-2.9917	-3.1917	-3.0187	-3.0271	-3.3042	-2.9875	-3.3333	-3.1063	-2.875	-3.4562	-2.9417	-3.0646	-3.2208	25.383	304.852	235.885	172.734	309.791	250.408	198.923	34.497	289.502	202.429	152.704	275.269	277.807	286.421	303.856	169.559	0.00023102	0.00028635	7.1135e-05	505.65	4.2662e-06	3.2969e-06	455.12	222.78	2.7293e-06	3.7053e-06	200.8	89.123	100	46.539	3.3797e-06	40.371	0.0002958	0.00080594	6.1509e-05	518.52	2.1558e-06	2.3654e-06	464.48	229.27	2.8058e-06	2.5493e-06	206.91	91.821	103.47	48.588	3.1576e-06	41.696	233.652	91.826	80.614	-6.379	156.806	117.915	-8.185	-1.915	172.043	114.721	-5.093	-1.427	0.939	4.317	165.268	1.052	-8191	255	
928.605	1	1	0	0	0.086046	0.087689	0.17939	0.23157	0.1322	0.30543	0.12542	0.093009	0.051726	0.047049	0.073817	0.098239	0.17292	0.29969	0.1049	0.31574	-2.4062	-3.0563	-2.9854	-2.7667	-3.1917	-3.0146	-3.0375	-3.2812	-2.7917	-3.1521	-3.2042	-2.9729	-3.475	-3.0583	-2.9229	-3.3375	46.312	263.773	284.235	281.207	19.101	206.170	217.090	18.868	327.076	18.496	80.334	303.172	206.653	281.713	96.516	277.685	0.00021459	0.00027059	0.00010862	509.18	3.2777e-06	4.1838e-06	457.7	223.65	2.478e-06	2.9894e-06	204.21	90.161	101.61	47.3	3.5735e-06	41.156	0.00030185	0.00064256	5.7091e-05	521.15	2.3152e-06	2.5564e-06	467.81	230.64	2.6802e-06	2.1183e-06	209.46	93.055	104.66	49.319	3.1337e-06	42.556	226.500	55.448	57.971	-6.500	177.144	134.860	-8.227	-1.764	172.619	125.887	-4.747	-1.607	0.958	4.338	182.137	0.847	-8191	255	
928.726	1	1	0	0	0.22125	0.010547	0.15107	0.22531	0.28788	0.14066	0.11939	0.15977	0.078858	0.067134	0.13658	0.024683	0.18251	0.41471	0.05166	0.068752	-2.4917	-3.1104	-2.9458	-2.7583	-3.2313	-3.0083	-2.9792	-3.2646	-2.6792	-2.9062	-3.2458	-2.8042	-3.4146	-2.9854	-2.9729	-3.3417	210.902	329.495	14.339	339.384	235.357	299.491	211.909	312.553	42.131	116.071	200.015	161.696	281.796	307.976	102.514	322.345	0.00021541	0.00033361	0.0001058	518.67	3.554e-06	3.7028e-06	465.23	225.67	2.0058e-06	2.8442e-06	205.44	90.271	101.63	47.698	4.3204e-06	41.435	0.00029584	0.00082062	7.3167e-05	529.79	2.5105e-06	2.6848e-06	475.19	233.51	2.8636e-06	2.366e-06	210.89	93.579	105.37	49.621	3.2545e-06	42.682	231.553	40.044	70.564	-6.645	152.082	119.367	-8.027	-1.775	193.153	140.522	-5.241	-1.559	1.202	4.691	149.231	0.819	-8191	255	
928.797	1	1	0	0	0.1825	0.17685	0.35495	0.11668	0.27896	0.18292	0.06844	0.29213	0.048634	0.1852	0.32721	0.18043	0.2027	0.32798	0.1614	0.21042	-2.3771	-3.025	-3.1604	-2.8375	-3.2687	-3.1333	-2.8229	-3.4	-2.925	-3.0479	-3.1771	-2.8021	-3.2646	-3.2396	-2.8542	-3.1542	168.443	211.445	10.671	38.314	161.272	36.825	202.323	-12.515	39.237	318.263	334.051	35.451	32.724	299.320	118.025	312.709	0.00022109	0.00035961	0.00010592	516.04	3.7819e-06	4.6188e-06	461.22	225.83	2.5718e-06	4.2387e-06	203.65	90.036	101.61	47.437	4.0856e-06	40.987	0.0003132	0.00037402	0.00012256	528.82	2.3917e-06	2.567e-06	473.27	233.34	2.6766e-06	2.5068e-06	209.79	93.15	105.11	49.394	3.0977e-06	42.363	225.521	63.092	74.781	-6.541	160.606	123.166	-8.347	-1.933	174.579	130.118	-4.943	-1.535	0.806	4.368	165.853	1.194	-8191	255	
928.893	1	1	0	0	0.26437	0.076497	0.17707	0.090264	0.17947	0.16301	0.018024	0.15854	0.046292	0.052175	0.15686	0.074092	0.32959	0.20381	0.17233	0.20084	-2.5792	-3.0687	-3.2604	-3	-3.0083	-2.9854	-2.925	-3.4375	-2.725	-2.8312	-3.2667	-2.9562	-3.1375	-3.2604	-2.8479	-3.2333	-10.743	193.281	8.653	231.641	263.483	294.840	328.203	245.619	318.674	317.724	-10.001	-3.465	27.751	93.025	180.112	298.061	0.00021691	0.00037965	3.7307e-05	514.5	3.8661e-06	3.6878e-06	464.2	225.69	2.95e-06	4.6687e-06	206.14	90.569	102.43	48.049	3.6009e-06	41.726	0.00029238	0.00022472	0.00022021	525.37	2.4601e-06	2.1851e-06	472.13	233.3	2.6885e-06	2.7059e-06	211.29	93.99	106.19	50.091	3.2745e-06	43.142	230.548	72.188	53.372	-6.707	155.846	127.577	-8.268	-2.183	186.169	122.863	-4.909	-1.421	0.807	4.364	155.031	0.770	-8191	255	
929.014	1	1	0	0	0.054614	0.075511	0.13306	0.12676	0.16679	0.12427	0.27419	0.19098	0.21948	0.22506	0.070162	0.039181	0.12888	0.085805	0.14028	0.12019	-2.6333	-2.8396	-3.2938	-2.875	-3.1583	-3.0854	-2.9313	-3.2458	-2.9896	-2.9396	-3.3563	-3.1146	-3.2625	-3.2833	-2.7021	-3.2188	-7.878	167.369	317.993	170.392	316.214	75.711	-4.901	245.740	208.235	65.916	278.743	200.411	-12.094	251.280	282.194	200.096	0.00021647	0.00040666	7.5346e-05	523.49	3.8449e-06	3.6433e-06	472.04	232.46	3.4462e-06	4.928e-06	211.7	93.399	105.36	49.288	3.0811e-06	42.791	0.00030708	0.00024962	0.00019274	537.19	2.515e-06	2.4562e-06	484.71	240.04	2.9259e-06	2.7374e-06	217.63	96.915	109.08	51.422	3.2834e-06	44.258	225.107	62.372	57.292	-6.862	173.206	134.651	-8.080	-2.015	179.893	117.545	-5.437	-1.454	0.805	3.953	163.729	0.600	-8191	255	
929.110	1	1	0	0	0.31723	0.18934	0.26222	0.080837	0.21669	0.16092	0.15317	0.14289	0.12721	0.12404	0.16563	0.020924	0.096021	0.18014	0.22542	0.37822	-2.4604	-2.8792	-3.3604	-2.8	-3.0792	-3.1208	-2.8312	-3.4792	-3.1708	-2.85	-3.1708	-2.7792	-3.0729	-3.375	-2.7375	-3.1312	121.850	141.471	210.302	62.361	267.741	7.386	257.697	205.961	1.705	234.374	277.383	0.410	267.353	27.924	144.611	299.494	0.00023505	0.00044043	6.2399e-05	529.31	3.1739e-06	4.0752e-06	474.56	231.83	2.3565e-06	4.3007e-06	208.98	92.576	103.53	48.685	3.0928e-06	42.247	0.00031274	0.0002479	0.00024088	543.21	2.5222e-06	2.4114e-06	486.21	240.26	2.6546e-06	2.8467e-06	215.6	95.934	107.84	50.85	3.3733e-06	43.39	228.429	61.303	49.170	-6.637	169.530	117.560	-8.188	-2.116	181.334	126.536	-4.901	-1.555	1.418	4.274	148.961	0.621	-8191	255	
929.206	1	1	0	0	0.07707	0.16087	0.31042	0.067487	0.064586	0.25906	0.24448	0.068909	0.0301	0.13367	0.16267	0.18213	0.24757	0.12986	0.074342	0.36723	-2.6229	-3.075	-3.2917	-3.0375	-2.9521	-3.1104	-2.8937	-3.2667	-3.1	-2.85	-3.3937	-3.1	-2.9625	-3.475	-2.8729	-3.2458	174.142	111.885	223.698	-11.207	170.469	45.955	222.589	51.118	25.020	282.283	303.019	270.010	267.931	-9.631	110.372	-15.700	0.0002332	0.00043095	6.036e-05	518.53	3.8118e-06	2.997e-06	461.62	226.91	2.8416e-06	3.6846e-06	203.71	89.95	100.89	47.33	4.1058e-06	40.665	0.00030315	0.0002404	0.00018863	532.24	2.5834e-06	2.013e-06	473.45	234.68	2.7499e-06	2.7908e-06	209.88	93.169	104.76	49.221	3.2255e-06	41.974	229.410	54.661	59.287	-6.499	153.850	116.183	-8.188	-1.766	154.048	109.992	-5.040	-1.452	1.034	4.294	158.585	0.789	-8191	255	
929.303	1	1	0	0	0.18445	0.25825	0.03304	0.24132	0.16857	0.098498	0.2239	0.12926	0.28205	0.13607	0.018601	0.16409	0.11606	0.16429	0.054127	0.18947	-2.6542	-2.7854	-3.1208	-3.1521	-2.9229	-3.2854	-2.9042	-3.0708	-3.05	-2.9396	-3.2458	-3.0854	-2.7854	-3.1312	-2.9958	-3.0125	81.045	310.889	238.578	303.840	262.138	254.428	45.445	259.469	72.087	72.505	92.832	30.997	294.287	276.093	242.998	12.666	0.0002323	0.00047242	5.9714e-05	503.1	3.7936e-06	4.5157e-06	452.66	220.46	2.8219e-06	3.0853e-06	198.66	87.405	98.548	45.967	3.7055e-06	39.416	0.00028726	0.0002234	0.00021277	516.65	2.3422e-06	2.0625e-06	460.61	227.19	4.6263e-06	2.2409e-06	204.49	90.53	102.2	47.985	3.0058e-06	40.859	226.889	47.061	76.965	-6.732	162.953	122.161	-8.003	-1.786	170.330	124.030	-5.077	-1.406	1.086	4.483	170.302	1.137	-8191	255	
929.421	1	1	0	0	0.020469	0.17233	0.038131	0.22776	0.22725	0.15266	0.1028	0.141	0.082473	0.20113	0.28324	0.43597	0.14761	0.19721	0.18722	0.24097	-2.9313	-2.6708	-3.25	-3.1437	-2.7354	-3.1688	-2.925	-2.925	-3.2479	-2.8542	-3.2042	-3.0854	-2.8292	-3.2125	-2.9437	-2.9333	261.399	316.746	30.527	78.801	22.421	323.747	21.897	77.023	95.458	146.042	332.169	262.022	300.988	-18.135	77.175	258.015	0.00022134	0.00031192	4.9411e-05	492.75	3.9978e-06	3.9366e-06	441.15	217.37	4.1675e-06	4.2658e-06	195.01	85.775	97.154	45.076	3.5814e-06	38.46	0.00028195	0.00022512	0.00017213	506.81	2.3197e-06	2.4126e-06	452.36	224.7	7.3478e-06	2.5153e-06	200.93	88.812	100.34	46.908	2.9709e-06	39.669	230.219	64.033	50.785	-6.625	141.624	131.143	-8.116	-1.776	148.567	128.194	-4.772	-1.756	1.100	4.279	165.192	0.765	-8191	255	
929.493	1	1	0	0	0.21846	0.26551	0.084302	0.10397	0.37955	0.34992	0.32799	0.031684	0.15724	0.085714	0.25235	0.17401	0.19596	0.097219	0.18748	0.029257	-2.8812	-2.8042	-3.0208	-3.1042	-2.7562	-3.1729	-2.7979	-2.8521	-3.3083	-2.8729	-3.0375	-3.1958	-2.8833	-3.2021	-3.0208	-2.8854	138.032	286.514	195.810	105.168	21.673	61.948	-1.937	13.196	32.201	180.435	319.805	261.524	68.961	276.571	123.535	214.883	0.00020795	0.00038219	9.6496e-05	478.87	3.0133e-06	3.8671e-06	427.38	209.59	3.299e-06	4.4904e-06	187.83	81.825	92.745	42.673	2.5908e-06	36.308	0.00027155	0.00021722	0.00018444	492.5	2.2558e-06	2.2747e-06	437.27	217.2	5.5851e-06	2.4352e-06	193.32	85.015	96.105	44.688	2.6403e-06	37.686	229.195	69.990	52.753	-6.272	152.555	138.472	-8.311	-1.511	164.047	121.416	-5.012	-1.264	1.129	4.408	147.321	1.410	-8191	255	
929.589	1	1	0	0	0.21047	0.11359	0.11746	0.2037	0.20647	0.083936	0.10669	0.14645	0.3044	0.069784	0.25522	0.24128	0.31815	0.22209	0.079529	0.043124	-2.9167	-2.9271	-3.0896	-3.2104	-2.7042	-2.9792	-3.0771	-2.9583	-3.1708	-2.8792	-2.8333	-3.2667	-2.6188	-3.2125	-2.9083	-3.0062	-14.339	27.602	328.343	6.007	303.836	114.438	137.387	338.025	60.655	246.155	4.936	303.946	317.424	290.215	194.258	252.787	0.00018381	0.00035507	7.0116e-05	459.92	3.6378e-06	2.3251e-06	411.97	203.05	4.45e-06	3.5617e-06	183.4	80.573	90.842	42.225	3.1569e-06	36.154	0.00025654	0.00020012	7.4563e-05	473	2.254e-06	2.0673e-06	423	209.78	6.796e-06	2.0382e-06	188.49	83.372	94.329	43.95	2.7232e-06	37.418	226.969	49.480	63.581	-6.352	151.057	141.017	-8.086	-1.533	173.075	126.002	-5.028	-1.350	1.106	4.509	158.790	1.007	-8191	255	
929.685	1	1	0	0	0.13659	0.14639	0.15123	0.13371	0.25619	0.29278	0.2285	0.078533	0.096978	0.072062	0.14058	0.18079	0.26604	0.19679	0.21601	0.22548	-2.8187	-2.7396	-2.9313	-3.3229	-2.7938	-3.1667	-3.1188	-2.8708	-3.4021	-3.0625	-2.9625	-3.3729	-3.0563	-3.2979	-3.0646	-2.7729	137.387	91.046	28.938	38.954	150.200	54.959	256.451	48.240	272.489	245.434	164.118	-7.087	271.708	-16.081	252.175	303.010	0.00019102	0.00038663	6.9447e-05	460.22	3.2615e-06	2.9321e-06	415.4	205.25	2.4227e-06	3.4433e-06	184.59	81.616	92.196	42.738	3.1869e-06	36.979	0.00025823	0.00020741	5.3101e-05	473.41	2.3989e-06	1.9977e-06	426.37	211.8	5.619e-06	2.0965e-06	190.44	84.375	95.624	44.61	3.1007e-06	38.161	229.336	56.480	75.012	-6.356	148.889	134.846	-7.804	-1.821	169.464	133.165	-5.124	-1.246	1.056	4.496	188.128	0.995	-8191	255	
929.806	1	1	0	0	0.28507	0.078755	0.064205	0.068338	0.043086	0.15618	0.15158	0.11621	0.24502	0.15777	0.32593	0.20788	0.073285	0.072322	0.1949	0.023789	-2.8563	-3.0083	-2.8646	-3.6042	-2.75	-3.2396	-3.2917	-2.9833	-3.4458	-2.8792	-2.9437	-3.4021	-2.8896	-3.0438	-3.2188	-3.1771	287.745	277.774	26.471	10.888	211.870	29.779	39.754	21.408	18.721	121.135	261.287	-4.699	174.352	319.040	49.227	58.998	0.00021782	0.00027202	8.3751e-05	473.51	3.6542e-06	4.6734e-06	427.78	209.87	4.2822e-06	3.6242e-06	187.76	82.986	93.935	43.508	3.0725e-06	37.216	0.00027248	0.00019283	5.3414e-05	484.37	2.1081e-06	2.2228e-06	435.94	216.27	7.1443e-06	2.1705e-06	194.19	85.876	97.06	45.197	5.2957e-06	38.513	228.107	65.061	45.567	-6.398	167.061	126.419	-7.981	-1.809	163.612	113.689	-5.078	-1.588	1.325	4.471	168.596	0.926	-8191	255	
929.902	1	1	0	0	0.11022	0.099445	0.13612	0.30138	0.16042	0.068287	0.1127	0.16818	0.24658	0.26077	0.16891	0.11135	0.18478	0.11809	0.13976	0.18398	-2.7583	-2.9625	-2.7729	-3.3375	-2.7896	-3.0563	-3.3167	-2.7938	-3.1875	-3.1688	-2.75	-3.4021	-3.0417	-3.1312	-3.2708	-2.8667	244.494	210.020	59.912	251.954	66.995	-6.726	217.776	131.620	0.596	115.716	205.738	292.390	206.453	335.217	76.885	77.753	0.0002035	0.00031259	8.1823e-05	475.01	3.5874e-06	3.5899e-06	428.82	210.57	3.2562e-06	3.9365e-06	189.34	83.373	94.409	43.675	2.7172e-06	37.56	0.0002647	0.00019	5.5181e-05	487.23	2.1982e-06	2.0413e-06	438.67	216.8	6.1451e-06	1.9435e-06	195.35	86.25	97.722	45.621	8.0079e-06	38.881	225.903	59.310	70.643	-6.768	144.182	131.050	-8.199	-1.685	148.611	133.988	-4.633	-1.517	1.013	4.369	207.890	1.201	-8191	255	
929.998	1	1	0	0	0.16058	0.25237	0.15696	0.18614	0.08349	0.18092	0.16467	0.23931	0.064212	0.1221	0.20407	0.074845	0.27388	0.064537	0.10903	0.1733	-2.6167	-3.0729	-2.7687	-3.2521	-3.1229	-3.0292	-3.3563	-2.8979	-3.1896	-3.1333	-2.7167	-3.2417	-3.1063	-2.9854	-3.2375	-2.9813	30.190	166.171	190.931	254.920	118.814	-6.196	312.696	119.370	54.189	276.254	202.613	145.862	156.636	82.105	178.270	266.326	0.00018586	0.00047287	9.5101e-05	479.17	3.9569e-06	3.6169e-06	432.44	213.29	3.069e-06	5.5422e-06	192.36	84.6	96.106	44.293	4.0456e-06	38.191	0.00026043	0.00019931	6.054e-05	492.46	2.3107e-06	2.1674e-06	442.38	219.59	6.1644e-06	2.8333e-06	197.52	87.263	99.225	46.295	7.1041e-06	39.578	231.169	48.833	67.903	-6.409	162.471	122.036	-8.233	-1.990	157.021	143.017	-4.889	-1.469	1.085	4.208	167.815	0.823	-8191	255	
930.094	1	1	0	0	0.30522	0.11664	0.05589	0.29081	0.092132	0.20949	0.33748	0.23131	0.25794	0.10432	0.039205	0.074022	0.064968	0.1617	0.1465	0.23245	-2.5604	-3.15	-2.9	-3.3354	-3.0979	-2.9583	-3.3271	-2.7542	-3.0354	-3.1479	-2.8396	-3.3937	-3.0646	-2.9313	-3.2979	-2.8979	284.707	182.497	230.557	326.585	3.749	239.840	305.693	51.792	116.974	199.318	148.521	222.921	133.108	333.800	141.393	323.013	0.00020073	0.00041774	8.5301e-05	488.8	4.1768e-06	3.2013e-06	440.96	217.25	2.5946e-06	5.1712e-06	197.8	87.741	98.665	45.744	3.0588e-06	39.411	0.00028052	0.00022198	5.9086e-05	503.34	2.3395e-06	2.4503e-06	453.89	225.11	2.9314e-06	5.8694e-06	203.79	90.201	102.07	47.708	8.8967e-06	40.72	227.163	58.970	62.819	-6.685	162.697	142.989	-8.380	-2.074	163.602	145.072	-4.909	-1.721	1.048	4.332	164.739	0.574	-8191	255	
930.191	1	1	0	0	0.21496	0.14742	0.24478	0.2486	0.080834	0.084735	0.031466	0.092856	0.20852	0.075995	0.11668	0.085159	0.23839	0.24611	0.1311	0.25037	-2.7146	-3.2562	-2.8625	-3.2	-3.1958	-2.8396	-3.3146	-2.95	-2.8812	-3.1958	-2.6625	-3.2896	-3.1729	-2.8875	-3.2792	-3.0708	228.234	253.323	240.361	293.650	175.394	148.490	58.096	-19.343	37.674	293.285	7.411	333.990	-5.707	313.944	250.169	179.650	0.00021183	0.00037272	0.00010368	500.7	4.2784e-06	4.6361e-06	451.97	222.06	2.8927e-06	5.9731e-06	200.77	88.306	99.844	46.361	2.4359e-06	39.961	0.00028595	0.0001907	6.5243e-05	514.07	2.2144e-06	2.5352e-06	462.86	228.92	2.4016e-06	9.3509e-06	206.75	91.353	103.48	48.307	7.4596e-06	41.268	229.544	65.404	68.792	-6.867	153.437	127.757	-7.842	-2.126	170.452	141.518	-5.088	-1.610	0.798	4.155	183.312	0.669	-8191	255	
930.287	1	1	0	0	0.075066	0.10758	0.14447	0.092926	0.099245	0.16824	0.05036	0.1505	0.2433	0.20185	0.075773	0.060463	0.07937	0.28084	0.2691	0.17658	-2.5958	-3.225	-2.8479	-3.1021	-3.1375	-2.8875	-3.4562	-3.0125	-2.7917	-3.1417	-2.9083	-3.2354	-3.2354	-2.9708	-3.2188	-3.0271	26.315	263.372	337.853	87.112	244.602	-19.778	295.070	61.215	10.417	276.752	325.194	314.257	81.020	322.648	305.741	262.181	0.00020459	0.00044782	0.00010587	505.52	3.8904e-06	3.5241e-06	454.24	223.97	2.9564e-06	5.7104e-06	200.12	88.509	100.79	46.645	3.2197e-06	39.955	0.00029553	0.00022755	6.6098e-05	518.57	2.8418e-06	2.5057e-06	465.33	230.96	2.6784e-06	7.5252e-06	207.12	91.947	104.14	48.601	8.5082e-06	41.336	228.003	51.597	73.049	-6.192	170.728	135.833	-8.326	-1.831	182.036	144.140	-5.013	-1.397	1.097	4.440	145.771	0.852	-8191	255	
#DATA ENDS
