BOXY.EXE: ISS Imagent and Oximeter Data Acquisition Program Version 0.80
Ascii Record File

#ACQ INFORMATION
2  Detector Channels 
16  External MUX Channels 
1  Auxiliary Channels 
5000  Waveform (CCF) Frequency (Hz)
1  Waveforms Skipped 
30  Waveforms Averaged 
1  Cycles Averaged 
16  Acquisitions per Waveform 
10.0806  Updata Rate (Hz) 

#FILE INFORMATION
TRUE -- External MUX Channel results are PARSED.
FALSE -- AC DC and Phase are NOT grouped.
TRUE -- Companion Program Settings File CREATED.
FALSE -- AC data not excluded
FALSE -- DC data not excluded
FALSE -- Phase data not excluded
FALSE -- Auxillary Chn. data not excluded
Tab delimiters

#CALIBRATION STATE
TRUE -- Waveform Calibration Values APPLIED.


#AUX CALIBRATION VALUES
Val Type	aux-1	

Term	1.0000e+00	
Factor	0.0000e+00	


#WF CALIBRATION VALUES
A = Detector Channel
Val Type	A-AC1	A-AC2	A-AC3	A-AC4	A-AC5	A-AC6	A-AC7	A-AC8	A-AC9	A-AC10	A-AC11	A-AC12	A-AC13	A-AC14	A-AC15	A-AC16	A-DC1	A-DC2	A-DC3	A-DC4	A-DC5	A-DC6	A-DC7	A-DC8	A-DC9	A-DC10	A-DC11	A-DC12	A-DC13	A-DC14	A-DC15	A-DC16	A-Ph1	A-Ph2	A-Ph3	A-Ph4	A-Ph5	A-Ph6	A-Ph7	A-Ph8	A-Ph9	A-Ph10	A-Ph11	A-Ph12	A-Ph13	A-Ph14	A-Ph15	A-Ph16	

Term	0.00000e+00	0.00000e+00	0.00000e+00	0.00000e+00	0.00000e+00	0.00000e+00	0.00000e+00	0.00000e+00	0.00000e+00	0.00000e+00	0.00000e+00	0.00000e+00	0.00000e+00	0.00000e+00	0.00000e+00	0.00000e+00	0.00000e+00	0.00000e+00	0.00000e+00	0.00000e+00	0.00000e+00	0.00000e+00	0.00000e+00	0.00000e+00	0.00000e+00	0.00000e+00	0.00000e+00	0.00000e+00	0.00000e+00	0.00000e+00	0.00000e+00	0.00000e+00	0.00000e+00	0.00000e+00	0.00000e+00	0.00000e+00	0.00000e+00	0.00000e+00	0.00000e+00	0.00000e+00	0.00000e+00	0.00000e+00	0.00000e+00	0.00000e+00	0.00000e+00	0.00000e+00	0.00000e+00	0.00000e+00	
Factor	1.00000e+00	1.00000e+00	1.00000e+00	1.00000e+00	1.00000e+00	1.00000e+00	1.00000e+00	1.00000e+00	1.00000e+00	1.00000e+00	1.00000e+00	1.00000e+00	1.00000e+00	1.00000e+00	1.00000e+00	1.00000e+00	1.00000e+00	1.00000e+00	1.00000e+00	1.00000e+00	1.00000e+00	1.00000e+00	1.00000e+00	1.00000e+00	1.00000e+00	1.00000e+00	1.00000e+00	1.00000e+00	1.00000e+00	1.00000e+00	1.00000e+00	1.00000e+00	X	X	X	X	X	X	X	X	X	X	X	X	X	X	X	X	

B = Detector Channel
Val Type	B-AC1	B-AC2	B-AC3	B-AC4	B-AC5	B-AC6	B-AC7	B-AC8	B-AC9	B-AC10	B-AC11	B-AC12	B-AC13	B-AC14	B-AC15	B-AC16	B-DC1	B-DC2	B-DC3	B-DC4	B-DC5	B-DC6	B-DC7	B-DC8	B-DC9	B-DC10	B-DC11	B-DC12	B-DC13	B-DC14	B-DC15	B-DC16	B-Ph1	B-Ph2	B-Ph3	B-Ph4	B-Ph5	B-Ph6	B-Ph7	B-Ph8	B-Ph9	B-Ph10	B-Ph11	B-Ph12	B-Ph13	B-Ph14	B-Ph15	B-Ph16	

Term	0.00000e+00	0.00000e+00	0.00000e+00	0.00000e+00	0.00000e+00	0.00000e+00	0.00000e+00	0.00000e+00	0.00000e+00	0.00000e+00	0.00000e+00	0.00000e+00	0.00000e+00	0.00000e+00	0.00000e+00	0.00000e+00	0.00000e+00	0.00000e+00	0.00000e+00	0.00000e+00	0.00000e+00	0.00000e+00	0.00000e+00	0.00000e+00	0.00000e+00	0.00000e+00	0.00000e+00	0.00000e+00	0.00000e+00	0.00000e+00	0.00000e+00	0.00000e+00	-3.80650e+01	-1.32862e+02	-1.25430e+02	-1.81665e+02	-4.66408e+01	-6.69153e+01	-1.55920e+02	-1.62015e+02	-3.32665e+01	-6.84437e+01	-1.70727e+02	-1.71644e+02	-1.80701e+02	-1.77487e+02	-4.82893e+01	-1.50551e+02	
Factor	2.17353e-05	1.62563e-04	4.39496e-05	1.54653e-01	1.72098e-06	1.76303e-06	1.62475e-01	5.94268e-02	1.39045e-06	1.85064e-06	8.19659e-02	2.80416e-02	2.61055e-02	8.93581e-03	1.65438e-06	1.28829e-02	1.84756e-05	4.85871e-05	1.36813e-05	7.94789e-02	4.32069e-07	5.65725e-07	7.86197e-02	3.06710e-02	4.39986e-07	5.82689e-07	4.11320e-02	1.40425e-02	1.36022e-02	4.66921e-03	4.79335e-07	6.49530e-03	X	X	X	X	X	X	X	X	X	X	X	X	X	X	X	X	



#DISTANCE SETTINGS
A = Detector Channel
A-1	A-2	A-3	A-4	A-5	A-6	A-7	A-8	A-9	A-10	A-11	A-12	A-13	A-14	A-15	A-16	

2.5000e+00	3.0000e+00	2.5000e+00	3.0000e+00	2.0000e+00	3.0000e+00	1.5000e+00	3.0000e+00	3.0000e+00	3.0000e+00	3.0000e+00	3.0000e+00	3.0000e+00	3.0000e+00	1.5000e+00	3.0000e+00	

B = Detector Channel
B-1	B-2	B-3	B-4	B-5	B-6	B-7	B-8	B-9	B-10	B-11	B-12	B-13	B-14	B-15	B-16	

1.0000e+01	1.0000e+01	1.0000e+01	1.4400e+00	1.0000e+01	1.0000e+01	1.5100e+00	1.9400e+00	1.0000e+01	1.0000e+01	1.9900e+00	2.4900e+00	2.4100e+00	2.9000e+00	1.0000e+01	2.9800e+00	




#DATA BEGINS
time	group	step	mark	flag	A-AC1	A-AC2	A-AC3	A-AC4	A-AC5	A-AC6	A-AC7	A-AC8	A-AC9	A-AC10	A-AC11	A-AC12	A-AC13	A-AC14	A-AC15	A-AC16	A-DC1	A-DC2	A-DC3	A-DC4	A-DC5	A-DC6	A-DC7	A-DC8	A-DC9	A-DC10	A-DC11	A-DC12	A-DC13	A-DC14	A-DC15	A-DC16	A-Ph1	A-Ph2	A-Ph3	A-Ph4	A-Ph5	A-Ph6	A-Ph7	A-Ph8	A-Ph9	A-Ph10	A-Ph11	A-Ph12	A-Ph13	A-Ph14	A-Ph15	A-Ph16	B-AC1	B-AC2	B-AC3	B-AC4	B-AC5	B-AC6	B-AC7	B-AC8	B-AC9	B-AC10	B-AC11	B-AC12	B-AC13	B-AC14	B-AC15	B-AC16	B-DC1	B-DC2	B-DC3	B-DC4	B-DC5	B-DC6	B-DC7	B-DC8	B-DC9	B-DC10	B-DC11	B-DC12	B-DC13	B-DC14	B-DC15	B-DC16	B-Ph1	B-Ph2	B-Ph3	B-Ph4	B-Ph5	B-Ph6	B-Ph7	B-Ph8	B-Ph9	B-Ph10	B-Ph11	B-Ph12	B-Ph13	B-Ph14	B-Ph15	B-Ph16	aux-1	digaux	

1000.574	1	1	0	768	0.27188	0.088849	0.15977	0.13042	0.13928	0.16035	0.27092	0.17651	0.19981	0.097767	0.12579	0.10833	0.1352	0.29962	0.12505	0.26927	-3.0375	-3.0354	-2.9146	-3.4667	-3.0687	-3.1875	-3.4896	-3.0292	-3.0625	-3.2083	-3.0729	-3.5312	-3.0812	-3.2375	-3.4688	-2.875	519.547	425.640	232.953	519.094	419.058	296.657	435.846	490.003	421.643	419.136	502.002	208.497	174.337	238.632	189.195	362.832	0.00058702	0.00034151	0.00013219	560.3	4.9894e-06	5.073e-06	489.91	235	4.6022e-06	4.3576e-06	210.12	93.535	112.03	53.751	5.2771e-06	45.296	0.00065173	0.00039477	0.00010891	582.07	4.0795e-06	4.4739e-06	508.14	245.38	4.1505e-06	4.6639e-06	219.66	97.861	117.08	56.813	5.2647e-06	47.661	286.390	250.782	263.555	182.624	338.189	322.965	181.314	187.516	338.421	331.948	184.199	187.724	190.496	194.294	317.218	190.361	-8191	255	
1000.670	1	1	0	0	0.081077	0.14075	0.23258	0.14289	0.1746	0.20716	0.14614	0.17494	0.10575	0.2547	0.10387	0.11609	0.08945	0.2135	0.26693	0.26595	-2.8438	-3.0854	-2.8812	-3.4896	-3.0062	-3.1417	-3.3479	-2.9958	-3.1813	-3.2292	-3.1771	-3.4604	-3.2229	-3.1229	-3.4396	-3.0146	523.998	351.959	508.776	413.641	281.643	359.382	458.593	360.162	525.661	311.773	517.915	423.501	308.442	440.215	237.836	458.514	0.00056522	0.00030398	0.0001224	569.08	4.288e-06	3.1606e-06	494.43	238.51	4.256e-06	4.6088e-06	214.2	94.401	112.84	54.218	3.9302e-06	45.633	0.00058421	0.00079794	0.00011846	589.81	4.0813e-06	4.4975e-06	514.13	248.48	4.2761e-06	4.8302e-06	222.44	98.797	117.78	57.137	4.7404e-06	47.814	287.009	253.745	265.478	182.720	342.107	313.696	181.022	187.553	337.770	318.888	184.003	188.015	190.438	194.501	306.211	190.607	-8191	255	
1000.767	1	1	0	0	0.17946	0.28271	0.10139	0.11657	0.2223	0.19047	0.094438	0.31319	0.3591	0.01884	0.060923	0.21959	0.2137	0.25316	0.26037	0.14696	-2.8396	-3.2	-3.025	-3.3375	-3.2354	-3.0583	-3.4229	-3.2125	-3.1688	-3.3042	-3.0771	-3.5729	-3.1729	-3.2333	-3.2979	-3.2104	361.509	385.328	391.880	196.267	190.685	337.128	483.230	438.392	396.822	231.044	172.029	355.438	441.777	236.260	339.347	468.843	0.00057092	0.00038886	0.00010671	565.76	5.3862e-06	4.4744e-06	495.89	238.74	3.9192e-06	3.6539e-06	211.98	93.942	112.06	53.756	5.6019e-06	45.241	0.00050569	0.00091415	0.00011478	589.78	4.1335e-06	4.8134e-06	514.65	248.43	4.4594e-06	4.5328e-06	221.24	98.249	117.27	56.899	4.6096e-06	47.522	283.847	283.409	264.177	182.729	333.778	317.858	180.841	187.547	330.482	319.022	184.267	188.151	190.616	194.288	309.956	190.500	-8191	255	
1000.863	1	1	0	0	0.12866	0.14007	0.11345	0.058391	0.010091	0.22781	0.23057	0.30874	0.11807	0.18648	0.040307	0.16417	0.3781	0.20202	0.10743	0.1603	-2.8292	-3.3521	-2.8146	-3.4646	-3.1562	-2.7458	-3.35	-3.0104	-3.0812	-3.4083	-2.9062	-3.3292	-3.375	-3.1688	-3.3521	-3.0854	300.388	245.370	310.977	191.758	331.322	509.348	227.686	436.134	379.221	384.899	451.196	251.940	429.923	492.658	519.626	454.776	0.0005726	0.0002259	0.00013345	565.88	3.7146e-06	4.471e-06	490.42	238.74	5.0407e-06	4.5158e-06	211.53	94.411	112.35	54.024	5.4167e-06	45.313	0.00050461	0.0010497	0.00011572	587.33	4.0416e-06	4.6413e-06	511.82	248.32	4.4457e-06	4.5304e-06	220.67	98.179	117.42	56.936	4.9232e-06	47.584	286.251	276.694	261.819	182.798	341.107	299.172	180.951	187.859	337.331	323.029	183.982	188.030	190.449	194.584	314.938	190.406	-8191	255	
1000.959	1	1	0	0	0.090575	0.091365	0.21758	0.15197	0.15629	0.25298	0.17256	0.23875	0.22517	0.081178	0.039344	0.12722	0.135	0.21464	0.056848	0.33985	-2.55	-3.3792	-2.9646	-3.2333	-3.2229	-2.8125	-3.4771	-3.2292	-3.0625	-3.4625	-3.0771	-3.2521	-3.2625	-2.9542	-3.2125	-3.3563	450.942	345.986	184.225	420.327	383.149	335.010	398.120	499.918	352.210	349.404	502.171	293.786	482.413	499.963	174.494	517.811	0.00058325	0.00038642	9.071e-05	567.45	5.1408e-06	4.6242e-06	493.44	239.08	4.4745e-06	3.089e-06	213.11	95.035	113.26	54.36	5.5552e-06	45.969	0.0005214	0.00084511	0.00011504	589.29	4.2262e-06	4.5305e-06	513.14	249.59	4.5364e-06	4.4042e-06	222.72	99.027	118.27	57.393	5.2148e-06	48.137	287.654	265.594	255.892	182.905	330.897	310.282	180.897	187.543	342.443	307.753	184.101	187.989	190.575	194.365	318.966	190.457	-8191	255	
1001.055	1	1	0	0	0.16754	0.12424	0.20004	0.4308	0.056692	0.096232	0.12653	0.11031	0.16105	0.12172	0.29885	0.22565	0.1132	0.33587	0.078231	0.025581	-2.5167	-3.3458	-2.85	-3.1875	-3.2354	-2.8354	-3.2438	-3.1896	-3.0812	-3.4	-3.1271	-3.0021	-3.2417	-2.9292	-3.3729	-3.1125	241.749	251.596	190.729	480.462	210.487	196.191	389.607	295.332	492.992	288.526	431.854	259.351	522.322	506.736	407.248	458.936	0.00059357	0.0003088	8.4709e-05	568.92	4.0332e-06	3.7988e-06	496.29	238.72	4.204e-06	5.2941e-06	214.43	95.036	113.4	54.289	4.9418e-06	45.877	0.00051231	0.0010807	0.00011199	591.12	4.2775e-06	4.4056e-06	514.39	250	4.5795e-06	4.4685e-06	223.56	99.149	118.64	57.397	4.9931e-06	48.104	285.578	268.452	262.630	183.049	324.678	325.862	181.086	187.697	333.188	319.602	184.254	188.184	190.638	194.129	324.200	190.423	-8191	255	
1001.176	1	1	0	0	0.19284	0.063896	0.3616	0.17899	0.060337	0.27632	0.26373	0.21695	0.19129	0.016725	0.18313	0.15904	0.36564	0.21282	0.16526	0.11159	-2.4583	-3.2417	-2.8937	-3.2708	-3.3063	-2.8542	-3.0792	-3.2604	-3.0438	-3.3458	-2.9938	-3.1521	-3.3563	-2.9625	-3.1	-3.175	211.938	326.058	488.229	425.194	246.679	487.887	209.124	423.409	180.955	329.264	465.321	391.074	513.584	442.475	527.621	427.889	0.00059781	0.00035451	8.5094e-05	570.29	4.0999e-06	2.932e-06	489.75	238.31	4.0427e-06	3.902e-06	212.82	94.355	112.76	54.102	5.7396e-06	45.158	0.0005259	0.00086525	0.00011039	590.52	4.1083e-06	4.415e-06	509.39	249.02	4.4979e-06	4.4673e-06	221.51	98.092	117.69	56.936	5.06e-06	47.385	285.098	243.854	240.473	182.546	327.333	316.193	181.353	187.341	328.674	315.202	183.938	187.882	190.438	194.372	317.331	190.371	-8191	255	
1001.272	1	1	0	0	0.13081	0.15215	0.23865	0.044163	0.1198	0.24704	0.12609	0.115	0.058034	0.23572	0.18889	0.14072	0.30414	0.2599	0.19861	0.14912	-2.4604	-3.1792	-2.8917	-3.1021	-3.3167	-2.85	-3.2313	-3.0521	-2.925	-3.1896	-3.2021	-2.9771	-3.4396	-2.8688	-3.1458	-3.4271	420.463	527.261	253.302	319.343	506.575	311.951	385.313	470.147	341.687	273.805	187.485	183.535	278.114	218.797	220.754	448.996	0.0005897	0.00013712	9.3673e-05	563.68	5.3524e-06	4.185e-06	484.2	235.73	3.9288e-06	4.2917e-06	212.05	93.495	111.58	53.702	5.3032e-06	45.016	0.00052413	0.0010268	0.00011658	584.55	4.1056e-06	4.5906e-06	502.15	246.7	4.3934e-06	4.6979e-06	220.21	97.534	116.56	56.545	5.3935e-06	47.263	285.559	256.371	241.151	182.731	341.620	324.168	180.885	187.541	337.444	310.286	184.048	188.004	190.799	194.433	317.550	190.415	-8191	255	
1001.368	1	1	0	0	0.051296	0.19346	0.030997	0.22199	0.2667	0.053644	0.19402	0.13432	0.19841	0.21724	0.3913	0.26693	0.3407	0.16371	0.15417	0.30189	-2.3688	-3.1833	-2.8375	-3.0542	-3.4667	-3.025	-3.275	-3.2687	-2.8937	-3.3021	-3.2104	-2.9021	-3.4875	-3.1896	-3.0042	-3.2729	206.379	389.206	170.753	497.829	212.979	418.005	210.369	504.598	185.999	446.934	466.151	175.609	485.404	521.652	309.745	478.904	0.00058203	0.00041105	0.00010616	559.79	3.802e-06	3.4156e-06	483.15	236.23	4.7054e-06	4.2137e-06	212.33	94.102	111.4	54.017	5.4065e-06	45.37	0.00051455	0.00075786	0.00013336	582.21	3.9966e-06	4.5376e-06	500.78	247.66	4.5933e-06	4.5559e-06	220.64	97.833	116.88	56.853	5.3685e-06	47.568	285.113	253.795	243.655	182.829	348.107	333.246	181.127	187.739	341.696	311.056	184.231	187.988	190.501	194.374	312.220	190.300	-8191	255	
1001.464	1	1	0	0	0.1436	0.11134	0.10869	0.091298	0.08296	0.057152	0.17093	0.29943	0.20125	0.10428	0.087201	0.34174	0.26536	0.1873	0.10451	0.19891	-2.3625	-3.25	-3.0875	-3.0312	-3.2042	-3.0479	-2.9813	-3.4292	-2.9042	-3.1542	-3.1042	-2.9208	-3.3208	-3.0646	-3.0521	-3.5583	403.833	195.170	213.632	498.619	491.884	456.565	458.412	517.914	354.483	328.758	480.191	489.743	202.091	489.327	326.185	509.129	0.00059735	0.00034708	0.00011745	561.99	4.369e-06	3.1412e-06	481.76	236.17	4.3296e-06	4.2073e-06	210.55	93.657	111.08	53.954	4.3421e-06	45.44	0.00051955	0.00052808	0.00025678	582.25	4.0542e-06	4.5777e-06	499.32	246.37	4.552e-06	4.6906e-06	220.19	97.645	116.58	56.86	5.009e-06	47.43	286.040	271.384	224.609	182.691	336.756	301.390	181.059	187.610	328.812	315.680	183.736	188.069	190.574	194.257	313.383	190.358	-8191	255	
1001.560	1	1	0	0	0.18323	0.093487	0.14367	0.10659	0.095109	0.16023	0.18334	0.13778	0.21394	0.15676	0.10918	0.053422	0.26578	0.22395	0.16698	0.17275	-2.4479	-3.1688	-3.2521	-3	-3.2979	-3.1354	-3.0104	-3.4958	-2.9146	-3.2167	-3.4271	-3.0271	-3.35	-3.1	-3.0146	-3.4625	470.436	364.339	392.530	479.538	491.522	198.054	529.316	369.076	243.196	412.021	466.185	336.755	474.680	415.146	283.537	463.193	0.00056652	0.00039844	9.3822e-05	557.03	4.3148e-06	5.0101e-06	471.59	234.18	4.3271e-06	3.8465e-06	210.17	92.446	110.25	53.669	4.7888e-06	44.72	0.0005112	0.00040894	0.00023694	577.82	3.7977e-06	4.7273e-06	490.99	245.12	4.266e-06	4.6117e-06	218.77	96.697	115.81	56.419	5.1189e-06	46.875	284.918	248.371	262.616	182.502	318.378	317.450	181.026	187.599	339.148	307.231	183.996	187.960	190.723	194.326	322.672	189.988	-8191	255	
1001.655	1	1	0	0	0.29304	0.1993	0.084814	0.13945	0.21911	0.20571	0.08331	0.1398	0.31262	0.47937	0.23684	0.34936	0.21479	0.11088	0.11962	0.13761	-2.4396	-3.1	-3.425	-3.0104	-3.3104	-2.9042	-3.1083	-3.4917	-3.1083	-3.0062	-3.4	-2.9292	-3.2542	-3.1917	-2.8375	-3.2292	262.609	297.655	259.160	339.466	222.369	433.137	434.824	448.065	529.042	317.231	394.791	388.566	447.763	350.464	189.735	235.154	0.00056391	0.00037897	7.2761e-05	544.61	5.5542e-06	4.1856e-06	460.65	230.37	4.0848e-06	4.2752e-06	206.7	91.346	108.65	52.806	5.2061e-06	44.157	0.00050958	0.00039841	0.000283	566.17	4.0362e-06	4.4739e-06	478.18	240.66	4.5942e-06	4.443e-06	215.31	95.316	113.88	55.543	4.8752e-06	46.344	286.031	250.438	247.402	182.881	328.355	310.256	180.973	187.560	328.691	309.068	184.007	188.035	190.433	194.352	315.129	190.120	-8191	255	
1001.775	1	1	0	0	0.12468	0.32105	0.15624	0.28876	0.12289	0.24562	0.21661	0.29726	0.34761	0.16885	0.10537	0.12167	0.0549	0.17342	0.078337	0.2306	-2.5979	-2.9833	-3.1729	-3.0646	-3.1063	-3.2271	-2.8187	-3.5292	-2.9813	-3.0208	-3.2708	-2.8563	-3.2292	-3.3187	-2.9354	-3.2854	229.539	251.802	337.868	217.826	394.643	516.071	437.549	509.386	342.901	263.922	491.000	229.258	183.954	390.133	383.745	464.546	0.00055376	0.00041853	8.9516e-05	541.81	4.3072e-06	4.4554e-06	456.77	228.62	4.8724e-06	3.096e-06	203.75	89.859	107.78	51.884	4.4914e-06	43.446	0.00050358	0.00041562	0.00022654	562.59	4.056e-06	4.3584e-06	474.91	238.95	4.4466e-06	4.2767e-06	212.6	94	112.56	54.758	4.8313e-06	45.55	284.898	258.587	262.100	182.679	317.728	315.573	181.038	187.627	334.065	314.804	183.723	188.077	190.559	194.016	310.188	190.474	-8191	255	
1001.871	1	1	0	0	0.19499	0.094312	0.084144	0.15689	0.29491	0.057376	0.19426	0.16191	0.15024	0.13954	0.09987	0.083773	0.10545	0.089069	0.23455	0.040716	-2.6375	-2.9833	-3.3042	-2.9729	-3.1333	-3.0979	-3.225	-3.2729	-3.1854	-3.0375	-3.2458	-3.2104	-3.1604	-3.2667	-2.9208	-3.2438	400.370	192.078	405.904	314.523	265.900	261.913	184.904	397.377	254.379	221.972	336.229	438.050	171.495	289.906	475.378	210.328	0.00055453	0.00037204	6.9128e-05	537.13	5.6497e-06	4.5873e-06	451.28	226.02	4.1038e-06	3.869e-06	201.12	89.364	106.22	51.431	4.7091e-06	42.861	0.00048964	0.0003974	0.00026847	557.49	3.9381e-06	4.0685e-06	469.01	235.3	5.0608e-06	4.551e-06	209.19	92.696	111.17	54.147	4.7754e-06	45.019	285.489	252.340	214.933	182.661	325.758	313.078	180.947	187.541	321.756	307.418	184.012	187.880	190.791	194.299	320.538	190.240	-8191	255	
1001.968	1	1	0	0	0.034524	0.070229	0.041628	0.21918	0.20118	0.11981	0.15843	0.15584	0.074375	0.15077	0.22527	0.16097	0.30054	0.20357	0.13985	0.15585	-2.5583	-3.0042	-3.2625	-2.9396	-3.0708	-3.3563	-2.8312	-3.3021	-3.1979	-2.9083	-3.3479	-3.025	-3.0687	-3.3146	-2.9292	-3.0646	192.890	274.239	401.483	509.458	507.743	247.398	376.517	252.864	374.378	230.282	485.147	462.637	438.085	499.568	250.156	379.458	0.0005382	0.00035068	9.7993e-05	534.56	4.4079e-06	3.8999e-06	452.76	225.75	5.4969e-06	4.3926e-06	201.71	89.268	106.74	51.698	4.1226e-06	43.285	0.00048545	0.00039052	0.00022885	552.78	3.8724e-06	4.1039e-06	469.35	235.46	8.5366e-06	4.4709e-06	210.42	93.168	111.71	54.585	5.1359e-06	45.524	285.652	251.164	239.347	182.674	330.786	318.078	181.039	187.722	324.244	315.253	184.425	188.188	190.541	194.184	318.334	190.226	-8191	255	
1002.064	1	1	0	0	0.014382	0.056226	0.091311	0.042225	0.11825	0.12376	0.13504	0.16952	0.13406	0.068426	0.10254	0.21214	0.20321	0.12564	0.17115	0.15108	-2.6917	-2.6375	-3.2188	-2.9938	-2.9	-3.325	-2.875	-3.1229	-3.15	-2.8146	-3.2562	-3.1375	-2.9667	-3.4271	-2.9333	-3.2062	351.726	193.042	205.771	424.785	438.261	494.102	204.912	467.393	471.851	189.652	263.006	378.613	484.838	381.705	500.885	189.617	0.00057595	0.00043621	5.3903e-05	539.21	4.643e-06	3.7148e-06	460.46	228.35	4.7796e-06	4.9151e-06	205.15	90.805	108.31	52.312	4.4829e-06	43.719	0.00049595	0.00037685	0.0002864	559.95	4.0425e-06	3.7008e-06	474.97	238.09	8.2736e-06	4.9966e-06	213.24	94.543	113.26	55.224	4.9731e-06	46.033	285.795	250.395	202.612	182.835	329.281	308.982	180.952	187.670	334.485	316.395	184.109	187.865	190.508	194.282	324.210	190.444	-8191	255	
1002.135	1	1	0	0	0.065027	0.22844	0.13438	0.17268	0.24578	0.039631	0.15586	0.17264	0.2324	0.15214	0.091499	0.083406	0.18992	0.12963	0.16523	0.22385	-2.8833	-2.7146	-3.1562	-3.0812	-2.9271	-3.4208	-3.1562	-3.1958	-3.2458	-2.8646	-3.2208	-3.1542	-2.8854	-3.3708	-2.95	-3.2375	525.086	233.524	304.431	185.695	193.163	353.456	486.561	504.250	444.351	303.274	426.442	486.536	456.668	453.055	428.082	478.502	0.00059323	0.00033305	0.00010801	542.05	4.0427e-06	3.1672e-06	459.62	229.44	6.6071e-06	4.608e-06	205.88	90.907	108.45	52.358	5.4943e-06	43.863	0.00050519	0.00042311	0.00018438	563.23	3.9606e-06	4.362e-06	478.23	239.2	9.9538e-06	4.636e-06	213.69	94.36	113	55.146	4.9002e-06	46.002	284.665	238.702	267.011	182.437	319.778	305.272	181.179	187.807	339.819	323.104	183.790	188.056	190.630	194.243	317.842	190.250	-8191	255	
1002.256	1	1	0	0	0.28339	0.07257	0.19731	0.32907	0.19893	0.10347	0.099664	0.097644	0.31542	0.036959	0.13743	0.2877	0.075226	0.13904	0.24143	0.17288	-2.8312	-2.8042	-3.3083	-3.2875	-2.6729	-3.4354	-3.2854	-3.1375	-3.4375	-2.8958	-3.4271	-3.3604	-2.7208	-3.3396	-2.9625	-2.9417	335.050	184.209	463.252	178.190	340.354	452.376	254.900	219.419	302.075	372.998	462.297	490.409	526.726	486.866	337.490	442.523	0.00057094	0.00050714	0.00012922	542.02	3.4289e-06	4.7997e-06	460.58	227.73	4.8725e-06	4.6428e-06	204.4	90.192	107.88	52.118	4.7127e-06	43.846	0.00049503	0.00043617	0.00011239	561.74	4.0596e-06	4.2347e-06	475.41	237.8	8.1452e-06	4.5984e-06	212.8	93.942	112.54	54.987	5.062e-06	45.829	284.975	247.824	258.490	182.844	333.590	315.732	180.821	187.707	335.470	305.516	184.064	188.172	190.521	194.278	316.508	190.260	-8191	255	
1002.352	1	1	0	0	0.12428	0.19991	0.1553	0.1241	0.11743	0.18746	0.091707	0.16472	0.2295	0.054507	0.16545	0.11204	0.061698	0.11157	0.136	0.065886	-2.9354	-2.8667	-3.1083	-3.2354	-2.9625	-3.2417	-3.0792	-3.2125	-3.4646	-3.0042	-3.0604	-3.3104	-2.7958	-3.2896	-3.0563	-3.0917	298.491	256.088	311.829	192.053	186.561	477.209	396.734	480.526	282.246	230.231	234.140	292.832	473.459	499.745	200.332	190.841	0.00055862	0.00034327	9.4082e-05	539.76	4.3535e-06	3.8041e-06	457.98	228.53	6.5407e-06	5.0272e-06	205.37	90.996	108.46	52.538	5.1783e-06	44.131	0.00048683	0.00040348	0.00011492	560.76	3.9705e-06	4.3137e-06	475.28	238.36	9.7017e-06	4.7441e-06	214.13	94.717	113.33	55.348	6.2713e-06	46.228	285.212	252.239	264.647	182.685	323.529	314.876	181.105	187.820	342.738	312.798	184.233	188.064	190.441	194.089	316.242	190.332	-8191	255	
1002.448	1	1	0	0	0.11316	0.19962	0.19255	0.089284	0.14161	0.075029	0.070543	0.057824	0.22102	0.021382	0.089481	0.066114	0.157	0.19135	0.2884	0.11072	-2.8521	-2.9604	-2.9437	-3.1937	-2.9042	-3.1021	-3.1083	-2.9271	-3.2646	-2.9917	-3.0771	-3.2771	-2.9188	-3.1479	-2.9771	-2.8312	391.091	357.751	184.393	372.086	209.394	267.451	288.626	474.515	346.459	302.564	515.182	269.338	476.399	428.268	316.228	492.048	0.00056222	0.00031077	8.7396e-05	544.94	4.9163e-06	4.5446e-06	464.31	230.7	4.7824e-06	4.298e-06	208.4	91.851	109.41	52.937	3.3525e-06	44.571	0.00049796	0.00042119	0.00011407	566.26	4.2073e-06	4.5812e-06	481.44	240.58	8.2103e-06	4.704e-06	216.38	95.631	114.19	55.696	1.0679e-05	46.708	284.909	248.481	242.212	182.657	323.969	312.729	180.872	187.805	336.891	313.127	184.006	187.981	190.459	194.175	313.872	190.390	-8191	255	
1002.545	1	1	0	0	0.16486	0.25848	0.25125	0.20919	0.24162	0.25219	0.056457	0.16907	0.1715	0.10336	0.045896	0.12489	0.10088	0.39343	0.037112	0.4127	-2.7521	-2.9125	-2.8979	-3.5896	-2.9375	-3.1417	-3.3958	-2.9938	-3.0479	-3.1729	-2.9104	-3.4396	-2.8771	-3.35	-3.1854	-2.9313	214.901	485.950	440.151	276.771	233.427	486.145	392.053	480.750	318.989	423.166	304.320	199.857	473.875	474.026	454.402	377.100	0.00057838	0.00052762	0.0001194	549.29	4.2072e-06	3.6081e-06	469.74	233.59	6.463e-06	4.9212e-06	210.06	92.055	110.43	53.19	2.5372e-06	44.708	0.00049865	0.00044741	0.00011267	571.49	4.4341e-06	4.23e-06	486.28	243.02	1.0609e-05	4.8885e-06	217.92	95.967	114.99	56.205	9.4669e-06	46.841	284.805	252.002	260.518	182.550	332.492	314.504	181.139	187.678	340.082	311.583	184.221	187.835	190.479	194.406	297.817	190.406	-8191	255	
1002.663	1	1	0	0	0.21995	0.15741	0.020303	0.099463	0.19408	0.070127	0.037747	0.077338	0.14803	0.050126	0.33414	0.11541	0.14215	0.21144	0.33553	0.086343	-2.7188	-3.1437	-2.9729	-3.3479	-2.9562	-3.05	-3.225	-2.9229	-3.2771	-2.975	-2.9917	-3.4125	-3.0187	-3.1	-3.2125	-2.8604	528.172	220.859	314.120	336.204	378.410	353.419	325.649	439.681	472.011	302.168	170.028	520.054	232.959	178.966	451.597	195.236	0.00055966	0.00035789	9.9209e-05	548.81	4.199e-06	4.8918e-06	466.57	231.57	5.2231e-06	4.7773e-06	208.49	91.962	110.04	53.233	3.5955e-06	44.665	0.00051824	0.00039831	0.00011136	571.45	4.2613e-06	4.6531e-06	483.45	242.44	6.4348e-06	6.219e-06	217.18	95.746	114.86	56.088	1.1131e-05	46.906	285.071	254.246	267.079	182.548	339.644	315.409	180.965	187.807	350.457	315.550	184.397	187.933	190.713	194.398	351.498	190.385	-8191	255	
1002.737	1	1	0	0	0.20681	0.46691	0.059555	0.38729	0.10677	0.018185	0.058071	0.19014	0.19354	0.14394	0.18441	0.18318	0.075645	0.23036	0.20465	0.34342	-2.8542	-2.9479	-2.8896	-3.4771	-2.9771	-3.0563	-3.4292	-2.9583	-3.1292	-3.3354	-2.8937	-3.2188	-3.2625	-3.05	-3.2792	-3.1208	332.853	265.867	394.120	458.570	522.934	227.203	469.099	337.479	410.097	338.194	184.704	182.603	257.575	515.262	517.439	477.811	0.00056485	0.00037046	0.00010867	549.44	5.6377e-06	3.2595e-06	465.88	232.57	3.8709e-06	6.182e-06	209.82	92.786	110.77	53.745	4.0637e-06	44.931	0.00050354	0.00038829	0.00012216	569.94	4.1812e-06	4.4457e-06	483.67	243	4.2944e-06	1.1961e-05	218.26	96.349	115.41	56.48	9.4818e-06	47.18	284.229	235.994	261.310	182.826	334.151	300.322	181.146	187.666	324.550	320.056	184.009	188.038	190.516	194.467	340.462	190.514	-8191	255	
1002.856	1	1	0	0	0.11652	0.049321	0.10903	0.25445	0.092921	0.11008	0.075471	0.10875	0.20149	0.11323	0.36367	0.25763	0.046573	0.050811	0.098117	0.18317	-2.7667	-3.1792	-2.675	-3.2812	-3.0062	-3.0292	-3.2458	-3.0583	-2.9083	-3.3542	-2.9437	-3.3083	-3.1688	-3.0146	-3.3312	-3.1312	351.630	287.130	525.648	466.738	258.430	490.483	243.620	494.661	454.667	186.249	221.692	529.421	238.343	518.902	512.448	481.267	0.0005657	0.00039352	9.854e-05	551.7	3.8471e-06	3.6609e-06	470.28	234.36	4.8182e-06	6.0256e-06	212.14	92.815	110.8	53.891	4.0736e-06	45.143	0.00050596	0.00039639	0.00012536	572.9	4.0957e-06	4.4633e-06	486.77	244.65	4.4521e-06	1.056e-05	219.85	96.855	115.53	56.659	1.1247e-05	47.5	286.276	257.129	263.024	182.710	325.983	307.867	180.997	187.852	348.582	316.192	184.022	187.815	190.484	194.530	324.819	190.552	-8191	255	
1002.952	1	1	0	0	0.11265	0.16714	0.26602	0.12028	0.13546	0.35605	0.12401	0.15873	0.031987	0.25459	0.21252	0.080969	0.21863	0.10193	0.14522	0.15115	-2.7146	-3.2021	-2.9042	-3.2167	-3.1958	-2.9688	-3.2042	-3.1375	-2.9979	-3.15	-3.0125	-3.1146	-3.2479	-3.0229	-3.0417	-2.9583	206.002	425.854	194.934	505.254	230.844	327.018	368.362	496.735	329.350	278.055	365.017	467.360	243.306	381.471	251.260	403.526	0.00058662	0.00037009	0.0001104	551.19	4.4481e-06	3.3667e-06	468.61	234.96	3.4529e-06	6.2607e-06	211.33	92.812	110.18	53.633	3.5848e-06	44.721	0.00051874	0.00039244	0.0001133	572.36	5.5719e-06	4.1663e-06	484.57	244.07	4.2138e-06	1.2047e-05	218.89	96.595	115.18	56.536	9.4449e-06	47.208	284.905	259.370	254.784	182.821	322.744	343.518	181.114	188.031	333.477	334.158	184.342	187.887	190.475	194.547	281.667	190.377	-8191	255	
1003.048	1	1	0	0	0.20694	0.11035	0.15419	0.16652	0.13783	0.2129	0.090689	0.30514	0.06554	0.16141	0.20176	0.06059	0.14978	0.43433	0.31185	0.24474	-2.4896	-3.2583	-2.9083	-3.125	-3.1292	-2.9083	-3.3104	-3.0979	-2.9125	-3.3688	-2.8604	-3.275	-3.1979	-3.0812	-3.3479	-3.0979	427.063	242.446	484.334	361.213	394.373	231.201	388.225	178.764	311.531	520.989	172.602	490.422	214.819	504.605	418.376	413.506	0.00057757	0.00050873	0.00011221	547.02	5.456e-06	3.2014e-06	465.28	231.52	3.7902e-06	4.283e-06	207.05	91.353	109.76	52.921	1.503e-06	44.542	0.00050446	0.00039082	0.00012367	567.36	9.5253e-06	4.3914e-06	481.08	241.33	4.3916e-06	1.0019e-05	216.11	95.19	113.88	55.703	1.1326e-05	46.641	284.580	253.073	274.562	182.871	282.639	323.027	180.997	187.599	330.043	321.341	184.364	188.121	190.502	194.311	274.101	190.396	-8191	255	
1003.144	1	1	0	0	0.20198	0.10359	0.13981	0.067067	0.29145	0.096261	0.17323	0.15493	0.1241	0.22962	0.26505	0.049185	0.26992	0.41434	0.13559	0.21361	-2.6479	-3.2958	-2.7729	-3.1229	-3.1604	-2.8458	-3.4229	-3.2167	-2.9667	-3.4167	-3.0187	-3.1583	-3.3104	-2.8937	-3.2313	-3.2062	337.915	487.746	441.464	176.832	304.707	274.526	307.808	219.342	524.457	354.671	455.979	497.704	436.497	481.729	244.128	516.317	0.00059969	0.00041232	0.00011716	545.37	4.5498e-06	3.9557e-06	467.97	232.12	4.824e-06	6.936e-06	206.7	91.361	108.71	52.808	4.5276e-06	44.439	0.00049853	0.00039396	0.00011646	568.05	7.761e-06	4.5906e-06	484.26	242.03	4.3128e-06	1.2139e-05	216.68	95.232	113.75	55.683	7.0652e-06	46.722	284.582	238.988	257.330	182.586	323.369	320.605	180.860	187.526	324.505	340.201	184.279	187.871	190.580	194.244	325.625	190.401	-8191	255	
1003.265	1	1	0	0	0.23064	0.17542	0.054391	0.09008	0.16219	0.37496	0.043308	0.19932	0.16141	0.12484	0.24843	0.065188	0.36102	0.26488	0.26607	0.12758	-2.4646	-3.3708	-2.9271	-3.1188	-3.4354	-2.9354	-3.3542	-3.4979	-2.9375	-3.3667	-3.0646	-2.9146	-3.3271	-2.9083	-3.1604	-3.2604	212.856	449.874	479.417	450.572	478.140	500.223	275.601	503.135	304.985	276.265	255.778	510.014	459.335	529.089	482.967	473.755	0.0005649	0.00038723	0.00011598	549.42	5.7806e-06	2.3547e-06	473.02	233.6	4.4737e-06	4.7236e-06	208.95	92.175	109.57	52.872	3.8801e-06	44.59	0.00050284	0.00041279	0.00011689	571.05	9.9835e-06	4.7462e-06	490.13	243.26	4.4943e-06	1.0552e-05	217.78	95.95	114.24	55.822	5.2377e-06	47.02	286.173	258.837	267.996	182.722	311.818	326.006	180.897	187.763	340.626	343.295	184.243	188.099	190.647	194.550	329.549	190.265	-8191	255	
1003.361	1	1	0	0	0.13762	0.1192	0.16243	0.1424	0.12704	0.011495	0.14749	0.16973	0.31999	0.25555	0.13519	0.13378	0.1581	0.04349	0.18478	0.095646	-2.4333	-3.3917	-2.9167	-3.0271	-3.2667	-2.8271	-3.1729	-3.4146	-2.8333	-3.2812	-3.2708	-3.0625	-3.45	-2.9875	-3.0479	-3.475	480.820	422.239	502.395	199.215	452.773	466.343	286.219	242.084	279.183	258.900	257.807	502.313	513.485	514.782	421.505	481.552	0.00057493	0.00036228	0.00012249	549.23	5.0004e-06	3.8706e-06	471.18	232.33	3.7595e-06	4.825e-06	209.28	91.692	108.8	52.544	5.2658e-06	44.25	0.00051458	0.00040216	0.0001196	571.16	8.0716e-06	4.7709e-06	487.14	242.13	4.4649e-06	1.2688e-05	217.14	95.549	113.71	55.538	4.9991e-06	46.501	283.965	258.790	254.494	182.711	319.624	315.913	180.970	187.901	327.034	334.550	183.794	188.215	190.439	194.431	320.138	190.442	-8191	255	
1003.433	1	1	0	0	0.23253	0.31725	0.1748	0.075502	0.15366	0.078605	0.20925	0.11146	0.11414	0.07867	0.13083	0.085383	0.13814	0.065795	0.16593	0.034539	-2.3458	-3.3042	-3.2042	-2.9938	-3.2542	-3.025	-2.875	-3.3292	-2.8229	-3.175	-3.2188	-2.9333	-3.3417	-3.0187	-3.0979	-3.3479	428.578	171.217	273.745	454.549	410.305	217.641	398.626	279.014	360.117	435.449	194.741	429.882	478.306	228.137	457.457	445.508	0.00055514	0.00038414	0.00011475	545.82	5.8754e-06	4.4165e-06	467.74	231.66	4.4211e-06	4.8183e-06	207.71	91.755	109.47	53.023	4.6698e-06	44.626	0.00050954	0.00040985	0.00011589	566.49	9.6909e-06	4.7415e-06	484.86	241.37	4.4915e-06	6.8964e-06	216.57	95.478	114.29	55.87	5.2307e-06	46.887	286.776	244.141	265.005	182.695	321.651	312.344	181.171	187.853	328.821	328.854	184.177	188.023	190.884	194.300	322.940	190.561	-8191	255	
1003.551	1	1	0	0	0.15526	0.1125	0.17687	0.20243	0.24001	0.14761	0.10468	0.22781	0.17579	0.11545	0.28768	0.093497	0.030822	0.37251	0.15843	0.24754	-2.2458	-3.375	-3.175	-2.8	-3.3104	-3.0187	-3.0417	-3.1937	-2.9521	-3.1396	-3.275	-2.9708	-3.3479	-3.2458	-2.7917	-3.35	232.910	292.358	278.286	441.678	505.884	485.097	290.416	461.239	203.253	325.716	430.763	424.456	289.728	457.098	493.304	484.088	0.00055485	0.00041776	7.6669e-05	551.36	6.5411e-06	4.0213e-06	472.87	233.91	4.321e-06	5.1096e-06	209.79	92.518	110.83	53.518	5.0823e-06	45.174	0.00050873	0.00040408	0.00011549	571.47	8.4352e-06	4.6236e-06	489.58	243.16	4.4796e-06	4.8448e-06	218.87	96.568	115.42	56.364	5.1199e-06	47.386	285.936	251.186	251.008	182.659	311.659	305.795	181.085	187.647	333.962	307.701	184.017	188.099	190.727	194.482	311.132	190.116	-8191	255	
1003.648	1	1	0	0	0.31074	0.1778	0.14202	0.20741	0.25019	0.18051	0.28936	0.15164	0.16857	0.23481	0.15742	0.085362	0.27594	0.21221	0.15921	0.14407	-2.5375	-3.1979	-3.225	-2.8271	-3.2625	-3.0354	-2.9771	-3.3937	-2.9042	-3.1208	-3.3229	-2.9542	-3.3917	-3.2917	-2.8	-3.3604	461.809	244.948	171.554	411.269	201.739	383.775	427.717	411.004	471.618	429.452	484.315	434.497	499.467	486.023	319.609	371.282	0.00057994	0.00038615	8.6408e-05	554.17	7.1811e-06	4.876e-06	477.03	235.31	4.5126e-06	4.1956e-06	209.04	92.962	110.95	53.687	4.5327e-06	45.137	0.00051782	0.0004052	0.00011492	575.21	9.609e-06	4.4468e-06	492.88	245.14	4.8334e-06	4.4988e-06	219.17	97.142	115.66	56.526	5.0899e-06	47.482	284.988	244.946	264.292	182.911	327.802	334.196	181.116	187.873	342.208	303.243	184.546	187.966	190.884	194.536	320.276	190.293	-8191	255	
1003.744	1	1	0	0	0.22748	0.09398	0.16157	0.095542	0.088984	0.086695	0.21085	0.17803	0.18091	0.23279	0.12885	0.20875	0.11367	0.28351	0.064001	0.15778	-2.7625	-3.0021	-3.3458	-2.9333	-3.2188	-3.2208	-2.9479	-3.3625	-3.0708	-3.1167	-3.3375	-2.8438	-3.1542	-3.4354	-2.8937	-3.3021	489.197	207.766	520.877	404.659	251.808	457.005	395.723	350.070	408.543	250.500	451.909	466.924	457.982	409.089	336.490	266.507	0.00058682	0.00044194	0.00011911	553.63	3.8064e-06	4.8447e-06	474.64	234.12	4.1863e-06	4.3435e-06	209.78	92.023	109.91	53.388	4.456e-06	44.88	0.00051628	0.00041228	0.00011757	574.85	5.1164e-06	7.1706e-06	489.96	244.16	4.2834e-06	4.511e-06	218.76	96.379	114.97	56.253	5.046e-06	47.126	284.017	254.507	255.543	182.711	344.629	302.450	181.099	187.572	339.555	326.112	184.442	188.293	190.548	194.416	333.685	190.465	-8191	255	
1003.840	1	1	0	0	0.079354	0.32461	0.10881	0.22758	0.18029	0.18151	0.069564	0.15166	0.28872	0.063257	0.057853	0.26775	0.19799	0.35162	0.34225	0.20467	-2.6	-3.125	-3.2521	-2.9521	-3.2104	-3.4104	-2.9479	-3.2188	-3.0667	-3.0854	-3.4479	-3.0771	-3.2458	-3.4792	-3.0396	-3.4854	255.512	467.982	193.375	467.811	250.097	331.449	437.727	417.183	410.995	225.598	411.699	466.945	493.308	184.942	395.117	281.672	0.00057175	0.00039871	0.00012504	547.4	4.9092e-06	4.4794e-06	467.22	232.07	3.9193e-06	4.4743e-06	208.72	92.28	109.96	53.261	4.8406e-06	45.12	0.0005115	0.00041147	0.00011509	568.24	4.147e-06	1.2221e-05	484.3	242.35	4.4567e-06	4.6846e-06	217.7	96.121	115.07	56.157	5.055e-06	47.245	284.905	239.057	260.294	182.839	319.557	317.306	181.098	187.739	325.459	313.633	184.397	187.939	190.603	194.595	327.856	190.260	-8191	255	
1003.961	1	1	0	0	0.041597	0.10234	0.12423	0.16042	0.088059	0.24054	0.31585	0.3296	0.18879	0.33627	0.087005	0.27835	0.088382	0.21247	0.24312	0.19167	-2.7146	-2.9375	-3.2521	-2.9625	-2.9479	-3.4479	-2.9854	-3.3479	-3.2438	-3.0333	-3.5833	-3.2021	-3.1937	-3.5417	-2.8917	-3.0917	503.810	250.662	395.892	521.314	450.232	396.753	479.736	488.549	524.448	367.030	414.912	443.272	454.121	499.841	394.236	391.884	0.00060429	0.00038195	9.1069e-05	548.22	2.1315e-06	6.0141e-06	468.09	233	3.9356e-06	3.9004e-06	209.89	92.462	110.66	53.482	4.7778e-06	45.175	0.00052425	0.00042008	0.00011518	569.47	4.0083e-06	1.0068e-05	485.12	243.5	4.1377e-06	4.8472e-06	218.88	96.782	115.49	56.561	5.1678e-06	47.624	285.505	247.685	251.435	182.628	320.740	320.112	180.996	187.638	338.438	320.223	184.387	187.846	190.631	194.349	330.267	190.392	-8191	255	
1004.032	1	1	0	0	0.16129	0.26282	0.23073	0.22521	0.26308	0.27468	0.18617	0.24253	0.070723	0.027711	0.11809	0.10065	0.22271	0.13956	0.20364	0.13906	-2.7104	-3.0938	-3.2562	-3.0938	-3.1042	-3.5187	-2.9938	-3.3458	-3.2042	-2.7896	-3.4208	-3.1937	-3.0271	-3.5333	-2.9917	-3.1271	188.282	256.474	255.433	176.875	433.601	404.746	522.696	495.706	225.651	384.283	449.606	489.372	194.952	498.670	270.233	234.907	0.00059892	0.00040184	0.00012608	546.58	4.4168e-06	5.0617e-06	467.39	234.09	3.1871e-06	3.9939e-06	210.35	92.82	111.26	53.565	5.652e-06	45.095	0.00060612	0.00042979	0.00011455	569.87	4.1416e-06	1.2282e-05	484.21	244.22	4.0561e-06	4.9626e-06	219.19	97.021	116.01	56.547	5.1149e-06	47.457	282.963	246.033	261.693	182.573	337.075	314.641	181.079	187.748	335.511	311.247	184.383	187.797	190.390	194.375	317.125	190.342	-8191	255	
1004.128	1	1	0	0	0.21302	0.1417	0.30249	0.07715	0.14795	0.14651	0.28356	0.1802	0.23292	0.095331	0.14413	0.13173	0.14329	0.16543	0.25956	0.18859	-2.8958	-2.8812	-3.1646	-3.175	-2.9938	-3.5229	-2.9333	-3.2812	-3.2875	-2.9646	-3.275	-3.2208	-2.9479	-3.3292	-3.1042	-3.1562	450.529	425.523	379.493	303.105	240.807	297.663	450.970	479.186	515.515	521.095	450.163	470.104	191.631	180.671	458.294	485.250	0.00058949	0.00036731	0.0001276	546.95	3.969e-06	4.6973e-06	461.61	232.51	4.2667e-06	2.3681e-06	207.12	92.556	110.11	53.158	3.4063e-06	44.845	0.00077059	0.00040914	0.00011236	567.64	4.0326e-06	9.8295e-06	479.94	242.44	4.1551e-06	4.9298e-06	216.86	96.198	115.05	56.158	4.8892e-06	47.089	281.979	254.034	263.320	182.737	323.330	297.363	181.058	187.732	334.811	328.818	184.413	187.944	190.820	194.224	322.729	190.316	-8191	255	
1004.225	1	1	0	0	0.11332	0.080661	0.23057	0.22078	0.10695	0.16414	0.054149	0.17141	0.10051	0.20367	0.075601	0.15523	0.21437	0.43435	0.21823	0.074099	-2.9417	-2.9	-3.2	-3.2	-2.7792	-3.4125	-3.1208	-3.075	-3.4396	-2.9896	-3.1729	-3.1167	-2.9729	-3.275	-2.8563	-2.9104	505.285	291.516	393.322	298.858	202.825	471.149	183.955	234.663	331.106	418.568	425.571	508.128	518.032	448.532	482.750	381.217	0.0005847	0.00040563	0.00011111	543.17	4.7913e-06	4.9647e-06	462.24	232.62	4.8566e-06	4.0862e-06	209.36	93.153	111.6	53.867	5.0267e-06	45.338	0.00067598	0.00041562	0.00011179	566.17	3.8832e-06	1.2151e-05	478.82	242.44	4.0965e-06	4.5972e-06	217.71	96.603	115.71	56.425	5.052e-06	47.313	282.213	261.860	275.114	182.530	324.427	320.537	180.924	187.900	340.692	307.385	184.138	188.134	190.730	194.509	317.535	190.426	-8191	255	
1004.345	1	1	0	0	0.11067	0.32173	0.29249	0.15967	0.17907	0.1982	0.11652	0.17667	0.017913	0.11578	0.19758	0.16397	0.20396	0.10517	0.17511	0.19458	-3.05	-2.7542	-3.0979	-3.2583	-3.0396	-3.2042	-3.2	-2.8729	-3.1417	-2.9521	-3.2208	-3.2771	-3.1167	-3.3604	-3.0208	-2.8771	250.534	297.002	240.780	499.680	312.461	182.096	186.287	469.978	369.051	371.653	495.661	513.623	496.867	510.952	394.657	196.631	0.00063699	0.00037858	0.00010606	548.44	3.6651e-06	5.4025e-06	466.51	233.5	3.7673e-06	5.328e-06	210.93	93.293	111.29	53.843	4.7043e-06	45.425	0.00077016	0.00041299	0.00011013	567.38	4.4053e-06	1.0126e-05	480.09	242.46	4.3522e-06	4.965e-06	218.07	96.737	115.25	56.372	5.1459e-06	47.33	282.769	263.377	262.656	182.829	329.887	323.188	181.435	187.852	333.638	306.682	184.036	188.025	190.698	194.528	312.704	190.746	-8191	255	
1004.441	1	1	0	0	0.066611	0.17472	0.066528	0.29646	0.062104	0.028566	0.25199	0.21525	0.13534	0.17206	0.070646	0.19539	0.16539	0.35318	0.111	0.19654	-3.0563	-3.0521	-3.2667	-3.35	-2.9896	-3.2125	-3.1854	-3.075	-3.2417	-2.8167	-3.2042	-3.3917	-2.9875	-3.2708	-3.1333	-3.0458	481.176	423.739	406.275	185.456	501.582	198.790	341.787	421.456	512.197	525.726	430.846	507.384	182.685	473.694	387.026	444.546	0.00060724	0.00031806	0.00010657	549.49	3.7879e-06	4.8256e-06	466.48	234.3	3.8748e-06	3.0596e-06	211.11	93.032	110.88	53.597	4.981e-06	45.273	0.00069249	0.00042078	0.00010999	566.66	4.0137e-06	1.0541e-05	478.99	241.66	4.2156e-06	4.307e-06	217.35	96.399	114.73	56.09	4.6965e-06	47.061	282.912	269.245	272.407	182.980	326.808	323.312	181.134	187.981	325.652	334.830	184.307	188.334	190.666	194.496	320.183	190.634	-8191	255	
1004.537	1	1	0	0	0.1132	0.18172	0.16975	0.19023	0.14009	0.41434	0.13007	0.18044	0.13739	0.20736	0.072591	0.08964	0.080606	0.3198	0.12705	0.14362	-2.9979	-3.0312	-3.0312	-3.3375	-2.9271	-3.1896	-3.3125	-3.0021	-3.3187	-3.0417	-3.1021	-3.3563	-3.1	-3.1396	-3.1521	-2.9104	430.763	424.281	475.572	303.469	271.853	406.133	454.465	200.109	173.844	358.753	401.930	474.719	453.292	494.496	203.443	176.225	0.00059418	0.0004309	0.00010218	548.79	4.6433e-06	4.2739e-06	464.17	232.46	4.3029e-06	4.4189e-06	210.68	93.28	111.41	53.526	5.4077e-06	45.305	0.0007371	0.00040742	0.00010834	564.4	4.0993e-06	5.4746e-06	478.24	240.72	4.2019e-06	4.6178e-06	216.16	96.024	114.55	55.945	5.039e-06	46.948	283.787	250.746	253.502	182.860	330.951	332.499	181.288	187.913	343.634	322.040	184.449	188.056	190.717	194.688	312.638	190.420	-8191	255	
1004.634	1	1	0	0	0.31685	0.11378	0.16152	0.15215	0.093167	0.17623	0.13669	0.35581	0.11863	0.13769	0.26661	0.18975	0.30901	0.21063	0.13305	0.054884	-2.9083	-3.0104	-2.7313	-3.5604	-2.7625	-3.1979	-3.3146	-2.9708	-3.2687	-3.1958	-2.9208	-3.3688	-2.8854	-3.2396	-3.2	-2.9188	373.446	504.561	209.015	431.950	196.985	438.835	326.356	475.341	281.523	526.930	458.111	450.328	524.653	503.950	348.077	401.008	0.00059648	0.00050945	0.00012262	551.39	4.0109e-06	3.0496e-06	472.91	235.32	5.1436e-06	4.9289e-06	212.37	93.826	111.4	54.034	4.4575e-06	45.728	0.00067567	0.00040914	0.00011458	567.83	4.1722e-06	4.2453e-06	485.2	243.45	4.3091e-06	4.5438e-06	218.45	96.944	115.35	56.377	4.9551e-06	47.388	283.795	241.677	260.954	182.911	332.700	326.445	181.307	187.921	328.338	325.629	184.347	188.280	190.979	194.525	322.218	190.806	-8191	255	
1004.728	1	1	0	0	0.25362	0.10809	0.32984	0.16883	0.23818	0.30194	0.23802	0.24097	0.25413	0.11853	0.0613	0.29467	0.21526	0.24117	0.19867	0.27173	-2.8833	-3.0167	-2.7375	-3.3979	-2.9271	-3.1042	-3.3604	-2.9125	-3.1917	-3.0771	-2.8937	-3.2542	-3.0208	-3.2188	-3.1375	-2.7979	208.719	460.851	416.963	237.926	495.277	359.593	450.881	418.658	357.896	447.192	336.609	212.054	384.123	512.364	307.674	361.672	0.00061204	0.00041244	0.0001097	557.7	4.3011e-06	3.4671e-06	479.32	237.55	4.4338e-06	5.1257e-06	213.8	94.294	112.31	54.389	4.0504e-06	46.057	0.00071297	0.00047302	0.00011643	572.94	4.2397e-06	4.3219e-06	490.67	245.19	4.453e-06	4.4709e-06	220.28	97.581	116.04	56.778	5.074e-06	47.705	284.934	225.185	263.392	183.067	327.536	305.623	181.496	187.904	335.275	317.521	184.296	188.096	190.926	194.448	308.709	190.666	-8191	255	
1004.826	1	1	0	0	0.14489	0.1372	0.099399	0.29362	0.054476	0.06681	0.23227	0.050276	0.15521	0.17655	0.25955	0.082732	0.16031	0.17127	0.29141	0.13771	-2.7708	-2.9917	-2.8896	-3.1479	-3.1396	-2.8812	-3.2313	-2.9313	-3.2396	-3.2042	-3.0771	-3.25	-3.1729	-3.1521	-3.3375	-2.9875	493.848	488.483	489.339	500.703	481.587	259.349	436.402	195.754	374.602	336.732	467.466	418.654	241.768	496.459	194.124	440.654	0.00058714	0.00047481	0.00012752	559.35	3.5681e-06	2.7149e-06	471.72	236.29	4.5878e-06	3.9194e-06	213.11	93.956	112.07	54.092	4.4429e-06	45.554	0.00053391	0.00075836	0.00011772	572.29	3.9156e-06	4.6154e-06	487.98	244.44	4.3036e-06	4.6579e-06	219.59	96.891	115.64	56.458	4.7125e-06	47.374	284.543	237.266	271.368	182.930	321.461	322.824	181.514	187.850	336.724	306.927	184.471	188.311	190.962	194.652	321.208	190.772	-8191	255	
1004.945	1	1	0	0	0.14128	0.29939	0.16199	0.10885	0.11767	0.089644	0.25867	0.081305	0.19406	0.18746	0.099336	0.11394	0.030155	0.13214	0.1658	0.35054	-2.775	-3.1937	-2.6146	-3.4188	-3.1	-2.9958	-3.3583	-3.0208	-2.9104	-3.2104	-2.9062	-3.1063	-3.1562	-2.8667	-3.2917	-3.1125	173.705	451.552	180.942	215.030	171.478	512.956	459.029	365.848	498.292	468.803	497.575	282.941	213.997	312.832	377.141	449.779	0.00057037	0.00062469	9.8513e-05	552.5	3.3923e-06	5.0486e-06	471.45	235.67	3.769e-06	4.2148e-06	212.39	93.522	111.63	53.937	5.1604e-06	45.709	0.00050812	0.0010734	0.00011415	568.55	3.9426e-06	4.6059e-06	484.37	243.43	4.3119e-06	4.5122e-06	218.94	96.567	115.47	56.325	4.9172e-06	47.389	286.873	234.301	252.403	182.916	345.723	307.204	181.203	188.081	346.311	310.656	184.460	188.132	191.046	194.644	307.087	190.863	-8191	255	
1005.041	1	1	0	0	0.061789	0.30884	0.23082	0.38018	0.22481	0.14967	0.28355	0.33814	0.079913	0.15201	0.11777	0.10785	0.0799	0.49228	0.18781	0.25688	-2.5667	-3.1479	-2.8729	-3.2208	-3.1417	-2.8667	-3.2646	-3.1896	-2.9417	-3.1958	-2.9625	-3.2479	-3.2479	-2.9688	-3.1854	-3.1063	256.187	227.381	519.115	488.029	193.073	432.757	189.753	503.788	521.836	239.127	424.086	484.960	175.743	513.662	422.474	427.522	0.00058839	0.00048754	0.00013353	553.53	3.9224e-06	2.3462e-06	470.5	236.44	4.8941e-06	4.0776e-06	213.06	94.631	112.77	54.194	4.7534e-06	45.774	0.00050612	0.00087376	0.0001204	569.32	3.9273e-06	4.5777e-06	484.97	244.17	4.4814e-06	4.7441e-06	219.75	97.353	116.2	56.664	5.1099e-06	47.65	286.776	236.816	257.329	183.112	324.317	315.881	181.250	187.682	332.467	311.532	184.297	188.004	190.791	194.626	322.099	190.629	-8191	255	
1005.137	1	1	0	0	0.1119	0.26203	0.1427	0.20812	0.21438	0.27083	0.099481	0.10947	0.18886	0.12264	0.12462	0.056691	0.062123	0.14245	0.17698	0.20391	-2.4417	-3.3812	-2.9271	-3.0771	-3.2833	-2.8354	-3.3104	-3.0729	-3.0438	-3.35	-3.0354	-3.2479	-3.3937	-2.9562	-3.2521	-3.0938	331.731	418.156	240.399	522.379	467.432	452.440	391.822	305.278	393.160	311.757	359.699	514.869	496.494	485.275	464.757	441.960	0.00058487	0.00049195	9.9144e-05	558.72	4.4511e-06	3.578e-06	475.35	237.05	4.6758e-06	5.0343e-06	215.46	94.864	112.87	54.65	5.5048e-06	46.037	0.00052359	0.0010824	0.00012128	573.1	3.93e-06	4.9442e-06	487.68	245.3	4.5777e-06	4.6652e-06	220.98	97.775	116.79	56.904	5.0929e-06	47.807	284.995	251.760	256.808	183.163	326.641	320.858	181.087	188.019	328.270	315.889	184.648	188.248	190.793	194.426	324.081	190.778	-8191	255	
1005.258	1	1	0	0	0.21366	0.24276	0.16649	0.080826	0.048375	0.083523	0.15508	0.24913	0.24816	0.11186	0.23373	0.14565	0.18396	0.21842	0.1751	0.20228	-2.4229	-3.2521	-3.0146	-3.0542	-3.3375	-2.9	-3.1354	-3.2042	-3.0521	-3.3375	-3.0875	-3.2479	-3.3	-2.9938	-3.2604	-3.2687	315.242	188.931	379.620	325.192	268.591	492.338	395.672	394.654	288.152	451.982	513.974	453.294	183.704	511.076	374.889	232.198	0.00057042	0.00042244	0.00010539	554.39	3.5376e-06	4.3005e-06	473.19	237.23	4.8455e-06	4.8397e-06	213.78	94.081	112.3	54.364	4.735e-06	45.829	0.00050943	0.0009024	0.00011458	570.66	4.1344e-06	4.7049e-06	485.94	244.99	4.4943e-06	4.5717e-06	219.71	97.222	116.38	56.759	4.9941e-06	47.664	284.403	244.395	254.531	182.699	337.414	315.880	181.447	187.665	340.405	312.256	184.403	188.469	190.869	194.601	329.761	190.677	-8191	255	
1005.329	1	1	0	0	0.32797	0.034695	0.29238	0.26629	0.053468	0.265	0.093413	0.26252	0.16354	0.2831	0.19538	0.21113	0.15894	0.2146	0.17657	0.10979	-2.425	-3.3083	-2.8875	-3.1063	-3.2979	-2.9562	-3.3583	-3.3125	-2.7313	-3.1479	-3.1729	-2.8083	-3.3604	-3.0583	-3.2125	-3.4125	429.241	257.096	390.621	436.851	527.223	200.172	340.162	513.393	380.728	243.770	267.092	390.926	171.026	521.789	360.831	507.068	0.00058772	0.00058916	0.00010401	556.77	4.2206e-06	4.8017e-06	473.94	237.01	3.9144e-06	3.9682e-06	214.27	94.258	112.9	54.348	5.1696e-06	45.943	0.00051532	0.0010385	0.00011951	570.67	3.9147e-06	4.6272e-06	484.45	244.84	4.4484e-06	4.4734e-06	220.43	97.147	116.58	56.782	5.024e-06	47.713	285.863	236.443	246.166	183.032	325.515	316.218	181.170	187.941	333.577	308.515	184.682	188.298	190.880	194.666	318.424	190.728	-8191	255	
1005.426	1	1	0	0	0.22996	0.21537	0.059102	0.05165	0.20602	0.13411	0.11372	0.17804	0.1298	0.15495	0.33578	0.16779	0.11399	0.30254	0.16932	0.17634	-2.3	-3.0312	-2.9729	-3.0208	-3.2812	-2.7646	-3.1396	-3.2583	-2.6417	-3.3458	-3.0583	-3.1292	-3.4437	-2.8292	-3.0896	-3.4104	333.059	192.527	491.602	487.084	516.889	467.700	445.705	418.886	307.799	279.320	453.762	449.381	480.100	526.020	210.979	417.704	0.00059633	0.00055878	0.00011794	555.47	3.8081e-06	3.7035e-06	476.22	237.92	4.1123e-06	5.2473e-06	215.32	95.131	113.38	54.687	4.0168e-06	46.315	0.00051277	0.00090544	0.00010925	571.18	3.9039e-06	4.6448e-06	486.69	246.38	4.6464e-06	4.8023e-06	222.14	98.22	117.23	57.168	5.1419e-06	48.179	286.072	233.186	261.739	183.176	327.772	317.193	181.223	188.081	333.658	311.280	184.717	188.492	190.771	194.658	319.557	190.819	-8191	255	
1005.522	1	1	0	0	0.057684	0.17041	0.10737	0.19504	0.16567	0.18888	0.097311	0.24996	0.18811	0.010268	0.19184	0.15771	0.26605	0.36992	0.2754	0.23025	-2.5458	-3.1271	-2.9167	-2.9833	-3.3	-2.8438	-3.1208	-3.2667	-2.6792	-3.125	-3.3688	-2.9396	-3.5458	-3.1396	-3.1042	-3.3792	369.827	302.963	234.113	283.034	437.075	434.048	479.140	478.045	384.666	449.899	500.572	479.705	463.192	516.393	253.476	440.608	0.00059509	0.00043014	0.00013848	558.72	3.9316e-06	3.8529e-06	472.61	239.92	4.3986e-06	4.5582e-06	214.48	95.415	113.6	54.833	5.6629e-06	46.264	0.00052567	0.00082679	0.00015061	572.66	3.9363e-06	4.4221e-06	485.55	246.95	4.4952e-06	4.494e-06	221.95	98.359	117.45	57.213	5.2747e-06	48.032	285.513	266.676	248.572	183.033	340.485	313.025	181.376	187.974	332.142	315.077	184.253	188.267	190.970	194.607	325.137	190.814	-8191	255	
1005.641	1	1	0	0	0.30072	0.23745	0.2113	0.22566	0.12795	0.24189	0.13284	0.13054	0.15513	0.1103	0.15579	0.058608	0.10739	0.15842	0.24248	0.11588	-2.5062	-3.2333	-3.1583	-2.8	-3.3312	-2.9667	-3.1917	-3.3229	-2.8667	-3.0375	-3.2417	-2.9125	-3.2271	-3.2083	-2.8125	-3.4417	268.785	373.023	321.672	460.307	411.131	340.541	456.639	488.101	348.132	428.145	216.420	254.704	283.337	530.069	514.220	464.938	0.00061399	0.00047493	0.00014934	553.62	5.1054e-06	5.4704e-06	470.54	236.93	3.8404e-06	4.4471e-06	213.54	94.321	112.68	54.461	5.169e-06	45.782	0.00052609	0.00040327	0.00022663	569.76	4.2037e-06	4.3808e-06	482.16	245.36	4.5502e-06	4.2633e-06	220.15	97.669	116.51	56.848	5.1199e-06	47.718	285.103	253.541	247.681	183.067	324.775	310.796	181.352	188.150	360.681	315.435	184.271	188.268	190.851	194.552	315.654	190.575	-8191	255	
1005.737	1	1	0	0	0.22309	0.10207	0.12213	0.04339	0.052173	0.17657	0.13428	0.028723	0.14809	0.10866	0.013108	0.17637	0.2275	0.0043754	0.15142	0.11187	-2.4417	-2.9813	-3.2188	-2.8917	-3.1417	-3.0208	-3.2479	-3.3521	-3.0521	-3.0187	-3.3312	-2.9792	-3.1896	-3.1875	-2.8229	-3.2625	389.929	170.309	479.173	478.428	412.734	330.675	172.149	390.726	326.828	255.055	418.641	206.192	524.270	191.161	179.766	270.921	0.0005993	0.00043848	0.00019941	555.57	4.0469e-06	3.8064e-06	465.3	237.25	4.5725e-06	4.6502e-06	213.5	94.712	112.29	54.336	4.2596e-06	45.859	0.0005137	0.0004056	0.00029996	569.16	3.7842e-06	4.4681e-06	481.29	244.65	4.2083e-06	4.3095e-06	220.13	97.466	116.36	56.841	5.1379e-06	47.759	283.099	258.190	260.297	183.062	329.950	316.795	181.114	188.028	337.680	307.886	184.321	188.351	190.791	194.716	313.748	190.774	-8191	255	
1005.833	1	1	0	0	0.073428	0.17429	0.10196	0.23004	0.26254	0.052765	0.28724	0.15353	0.072607	0.17919	0.12321	0.17368	0.068503	0.20813	0.38405	0.19064	-2.7313	-2.9479	-3.4271	-2.8792	-3.2104	-3.2604	-2.9333	-3.2458	-3.0479	-2.9625	-3.2292	-2.8312	-3.1771	-3.45	-2.8417	-3.2604	332.642	463.869	226.139	466.223	286.840	433.991	402.604	438.870	179.491	383.139	224.213	511.259	218.614	517.339	290.649	467.708	0.00060498	0.00047453	0.00016965	553.35	3.551e-06	3.3503e-06	468.5	237.3	4.1152e-06	4.2403e-06	213.41	94.773	113.32	54.333	4.3372e-06	46.302	0.00051647	0.00041997	0.00024655	567.83	3.7779e-06	4.3408e-06	480.55	245	4.4044e-06	4.5947e-06	220.59	97.866	116.65	56.878	5.1678e-06	47.997	285.845	267.376	266.454	182.824	321.913	320.532	181.405	187.868	329.547	307.034	184.356	188.228	190.931	194.539	310.805	190.691	-8191	255	
1005.906	1	1	0	0	0.23977	0.057021	0.090569	0.1719	0.084315	0.19803	0.15611	0.046871	0.22612	0.071309	0.1266	0.12938	0.25279	0.40277	0.12916	0.23102	-2.5542	-2.7083	-3.2313	-2.8917	-3.1583	-3.3875	-2.8979	-3.2979	-2.8896	-2.8875	-3.3021	-3.0875	-3.1271	-3.5333	-2.6271	-3.4833	453.588	185.848	426.405	225.115	341.388	218.261	483.349	336.266	404.440	495.827	202.052	267.313	505.215	480.772	272.283	495.190	0.00059659	0.00033251	0.00015444	551.94	4.7025e-06	2.9467e-06	465.87	235.53	3.7241e-06	5.2502e-06	211.76	94.266	112.08	54.226	4.6971e-06	45.578	0.00051439	0.0004223	0.00031005	566.7	3.9714e-06	4.0379e-06	479.34	243.54	4.4017e-06	4.8788e-06	218.96	97.122	115.65	56.556	5.0859e-06	47.448	284.892	245.041	257.175	183.008	332.155	306.501	181.360	187.858	337.917	309.367	184.504	188.288	190.650	194.542	324.067	190.837	-8191	255	
1006.025	1	1	0	0	0.13861	0.19798	0.25305	0.1902	0.050825	0.2127	0.23877	0.12623	0.18209	0.18332	0.27943	0.20265	0.058738	0.17756	0.23519	0.16238	-2.725	-2.7417	-3.2521	-2.9437	-2.9979	-3.3208	-2.9792	-3.1562	-3.2229	-2.7896	-3.6667	-2.9583	-3.0938	-3.4	-2.9729	-3.1562	456.150	315.969	496.755	515.181	316.153	515.539	493.458	472.526	459.894	305.685	469.784	211.507	473.209	523.395	215.256	235.644	0.00056821	0.00034625	0.00011937	547.49	3.5935e-06	2.8979e-06	463	233.3	3.2691e-06	4.3629e-06	210.95	92.949	111.02	53.819	5.6886e-06	45.501	0.00051208	0.00040449	0.00023766	563.58	3.8931e-06	4.6236e-06	476.48	241.17	5.872e-06	4.6336e-06	217.6	96.197	114.92	56.252	5.1359e-06	47.294	284.999	248.672	272.965	183.260	329.528	333.311	181.293	187.981	334.096	335.713	184.162	188.161	190.858	194.665	318.659	190.574	-8191	255	
1006.121	1	1	0	0	0.19931	0.072873	0.099336	0.10477	0.38635	0.12932	0.1913	0.25919	0.20808	0.36006	0.1552	0.10344	0.113	0.15595	0.26873	0.21793	-2.8396	-2.8312	-3.2854	-3.1312	-2.9667	-3.3833	-2.8917	-3.375	-3.2854	-2.9625	-3.2875	-3.1104	-3.2646	-3.3937	-2.8125	-3.225	268.874	216.913	239.327	388.883	439.286	258.513	177.791	516.711	496.596	345.411	372.104	473.236	515.810	510.472	258.622	467.164	0.00056654	0.0004089	0.00014228	544.28	4.2778e-06	4.4337e-06	462.55	234.03	3.9524e-06	3.5383e-06	211.76	94.437	111.9	54.299	4.9712e-06	46.091	0.00050304	0.00043566	0.00029651	561.67	4.1506e-06	4.4586e-06	475.49	241.32	7.7245e-06	4.4843e-06	218.69	96.961	115.54	56.568	4.9781e-06	47.858	286.020	253.949	263.742	182.891	337.905	308.214	181.339	187.890	313.920	321.113	184.451	188.165	190.913	194.570	332.987	190.695	-8191	255	
1006.217	1	1	0	0	0.14444	0.19711	0.13117	0.05324	0.13832	0.15224	0.10894	0.16507	0.14137	0.26226	0.11106	0.18049	0.17012	0.26107	0.17413	0.067588	-2.6833	-2.7771	-3.1104	-3.2583	-2.825	-3.3354	-3.1667	-3.225	-3.3833	-2.8833	-3.2271	-3.1688	-3.0062	-3.1771	-3.0042	-3.2271	247.600	431.986	320.859	437.444	356.595	227.810	408.138	475.243	235.552	177.195	445.842	438.856	229.537	523.374	459.148	434.749	0.00059385	0.00037147	0.0001484	548.85	4.1014e-06	3.2462e-06	467.69	235.75	3.2994e-06	4.9146e-06	213.5	95.008	112.57	54.366	5.224e-06	46.079	0.00051381	0.00043141	0.00024119	564.57	4.1119e-06	4.4563e-06	479.41	243.01	1.0344e-05	4.8242e-06	220.06	97.599	116.3	56.817	4.9891e-06	47.848	285.361	262.046	276.064	183.012	338.718	317.447	181.255	187.914	346.078	325.516	184.665	188.514	190.892	194.772	315.104	190.855	-8191	255	
1006.338	1	1	0	0	0.1047	0.21121	0.23555	0.22661	0.19274	0.21737	0.027262	0.073423	0.074947	0.047764	0.10261	0.22864	0.32749	0.10479	0.10785	0.10139	-2.5792	-2.7396	-3.1458	-3.275	-2.9646	-3.4437	-3.1646	-2.9979	-3.1667	-2.85	-3.225	-3.1854	-2.9854	-3.4771	-3.0958	-3.0042	526.202	322.465	400.137	467.355	444.805	344.831	373.838	221.644	428.802	440.539	484.486	190.579	517.653	470.982	404.165	265.025	0.00055582	0.00054469	0.00014273	550.54	4.9081e-06	4.507e-06	464.32	232.68	3.1785e-06	4.4262e-06	210.57	94.044	111.44	53.961	4.3836e-06	45.472	0.00049457	0.00042109	0.00020214	564.43	4.4251e-06	4.27e-06	475.43	240.37	8.5311e-06	4.7295e-06	216.55	96.421	114.86	56.197	4.7764e-06	47.204	284.281	252.958	275.985	182.863	332.673	309.664	181.045	188.080	348.218	318.659	184.536	188.184	191.037	194.580	323.566	190.484	-8191	255	
1006.434	1	1	0	0	0.15072	0.11546	0.10625	0.26628	0.32689	0.063135	0.13341	0.19526	0.16739	0.16968	0.24046	0.10012	0.0086848	0.30767	0.059061	0.095882	-2.7812	-2.7854	-3.1167	-3.4792	-2.9396	-3.2292	-3.1312	-2.9667	-3.4188	-3.0104	-3.1896	-3.2604	-2.9292	-3.2792	-2.9917	-3.0833	439.503	512.850	201.929	448.975	303.396	309.195	374.315	458.458	437.622	389.913	502.510	390.474	497.561	487.524	327.213	419.336	0.0005733	0.00046213	0.00011299	545.44	4.8241e-06	3.2898e-06	463.1	230.74	3.3164e-06	4.5567e-06	209.31	93.426	111.28	53.688	4.4024e-06	45.515	0.00049299	0.00042109	0.00011256	561.63	4.2595e-06	4.4598e-06	473.78	237.92	1.0129e-05	4.3762e-06	215.63	96.222	114.61	56.078	4.8053e-06	47.265	285.410	248.131	261.175	183.116	336.539	334.077	181.193	188.103	326.190	310.444	184.335	188.542	190.904	194.813	317.604	190.497	-8191	255	
1006.530	1	1	0	0	0.11812	0.11423	0.32087	0.21217	0.20974	0.2654	0.31836	0.26729	0.04481	0.16665	0.40218	0.085723	0.15776	0.23934	0.11692	0.14764	-2.8917	-3.0917	-2.925	-3.3438	-2.8438	-3.3625	-3.2875	-2.9333	-3.2438	-3.0875	-3.0187	-3.4792	-3.1	-3.3792	-3.075	-3.0687	522.594	171.873	185.789	518.176	456.781	368.261	436.961	259.552	185.021	476.674	235.659	220.370	441.663	454.798	456.131	484.823	0.00059925	0.00038425	0.00013759	550.99	2.7802e-06	3.132e-06	468.08	231.06	3.5022e-06	4.0298e-06	211.6	94.179	111.74	54.15	7.6156e-06	46.004	0.00051097	0.00039538	0.00011606	565.43	4.0335e-06	3.9766e-06	477.91	239.44	8.3258e-06	4.7683e-06	217.74	97.037	115.49	56.482	7.5615e-06	47.678	287.120	250.413	262.357	183.224	315.882	323.370	181.311	188.095	326.294	313.790	184.221	188.114	190.636	194.701	304.799	190.516	-8191	255	
1006.627	1	1	0	0	0.12693	0.39512	0.16025	0.20642	0.17139	0.14183	0.49626	0.439	0.14217	0.14302	0.36018	0.24404	0.072683	0.30519	0.11046	0.18362	-2.9	-2.9104	-2.9062	-3.4667	-2.8583	-3.1583	-3.2292	-2.9167	-3.3146	-3.0938	-2.9729	-3.2625	-2.9896	-3.1417	-3.125	-2.9813	311.190	410.130	226.119	527.278	371.850	398.454	519.606	421.925	507.150	342.380	222.009	445.870	305.557	469.094	237.947	474.121	0.00059268	0.00035127	0.00012256	552.79	4.21e-06	3.6858e-06	471.13	234.62	1.6455e-06	5.2691e-06	211.64	94.031	112.16	54.06	5.7417e-06	45.841	0.00052432	0.00042757	0.0001133	567.96	4.1776e-06	4.4551e-06	480.39	240.82	1.0322e-05	4.7465e-06	217.72	96.843	115.57	56.407	9.6955e-06	47.585	284.986	263.328	267.449	183.102	323.941	307.360	181.654	188.109	325.450	321.743	184.439	188.128	190.827	194.805	293.504	190.838	-8191	255	
1006.721	1	1	0	0	0.29806	0.076011	0.084297	0.054409	0.13937	0.067223	0.14667	0.085641	0.13412	0.16623	0.092184	0.32596	0.081976	0.15025	0.099354	0.12201	-2.7125	-2.9813	-2.6312	-3.3396	-2.9688	-3.2062	-3.2646	-2.9729	-3.1979	-3.325	-2.9417	-3.3312	-2.975	-3.0208	-3.4604	-2.9667	424.107	370.371	180.052	285.667	479.354	220.566	390.156	201.856	421.529	445.463	432.865	171.365	173.505	509.700	525.949	382.561	0.00056892	0.00043941	0.00011279	552.17	4.5084e-06	3.8288e-06	466.87	232.56	2.6847e-06	3.9916e-06	210.52	93.964	111.32	54.015	6.536e-06	45.945	0.00049492	0.00040914	0.0001182	566.06	3.9615e-06	4.5942e-06	477.36	239.31	8.7924e-06	4.67e-06	216.29	96.391	114.87	56.278	1.1459e-05	47.49	286.043	246.939	266.972	182.964	327.401	315.181	181.372	188.286	361.717	318.993	184.651	188.274	191.075	194.528	312.706	190.664	-8191	255	
1006.817	1	1	0	0	0.24843	0.21555	0.31483	0.24259	0.35645	0.22146	0.066971	0.12679	0.038367	0.11577	0.07529	0.30021	0.13623	0.13677	0.13093	0.30842	-2.8958	-3.0792	-2.8667	-3.3063	-2.8833	-2.9708	-3.2542	-2.8458	-3.2687	-3.0958	-2.9938	-3.3417	-3.0167	-3.0375	-3.2146	-2.9083	237.335	196.154	370.429	475.165	442.154	400.713	441.767	420.662	250.007	364.200	211.913	502.341	259.108	509.692	180.384	244.756	0.00058932	0.0004684	0.00011382	552.2	4.554e-06	4.0988e-06	467.9	232.68	4.1823e-06	2.2658e-06	213.23	94.569	112.96	54.588	5.5886e-06	46.202	0.00049903	0.00040226	0.00011601	567.39	4.1218e-06	4.7403e-06	479.91	240.85	6.9197e-06	7.8529e-06	218.72	97.323	116.16	56.76	9.7395e-06	47.97	287.383	261.011	250.317	182.695	321.171	306.698	181.349	187.953	357.762	305.864	184.622	188.521	191.088	194.593	312.664	190.769	-8191	255	
1006.938	1	1	0	0	0.17802	0.12666	0.20523	0.23741	0.15276	0.063801	0.20129	0.01869	0.082498	0.2135	0.21196	0.11022	0.19061	0.36244	0.26703	0.16253	-2.5771	-3.025	-2.8146	-3.4437	-2.9437	-2.9979	-3.1688	-3.0729	-3	-3.0604	-2.9271	-3.4208	-3.0563	-3.175	-3.3042	-3.1437	266.836	375.666	239.035	492.321	205.389	382.156	443.610	409.438	434.092	287.873	506.753	511.546	512.201	529.971	447.823	469.874	0.00055595	0.00047343	9.4166e-05	555.43	4.3989e-06	4.5501e-06	473.42	234.87	4.4537e-06	2.3172e-06	212.9	95.141	112.66	54.638	7.951e-06	46.541	0.00050804	0.00042666	0.00011906	570.19	4.0822e-06	4.6248e-06	482.23	241.57	4.2862e-06	1.0376e-05	219.81	98.061	116.45	56.982	1.1334e-05	48.318	285.328	255.008	238.101	183.201	333.893	317.476	181.377	188.184	328.774	291.724	184.221	188.228	191.167	194.537	315.074	190.562	-8191	255	
1007.034	1	1	0	0	0.070032	0.20196	0.17513	0.031203	0.20331	0.34341	0.2628	0.12711	0.09113	0.093251	0.13971	0.046177	0.086217	0.12612	0.22031	0.20219	-2.7	-3.0354	-2.7583	-3.1562	-2.9167	-2.9354	-3.5	-3.1	-2.9792	-3.3375	-2.9229	-3.1979	-3.0687	-3.0312	-3.2417	-3.0042	451.261	314.954	210.165	514.776	476.787	433.941	394.244	188.169	235.518	469.167	302.316	481.022	433.070	461.562	268.734	449.371	0.00058711	0.0003642	0.00011341	555.86	4.5669e-06	4.2105e-06	470.56	233.82	4.4797e-06	2.871e-06	211.98	94.322	112.82	54.318	5.4704e-06	45.825	0.00051709	0.00042767	0.00011826	571.03	4.1056e-06	4.6036e-06	481.81	240.75	4.3843e-06	1.2699e-05	217.52	97.094	116.05	56.603	9.4619e-06	47.706	286.808	251.123	253.125	183.167	324.725	308.267	181.415	187.962	328.996	359.022	184.311	188.298	190.947	194.733	306.041	190.613	-8191	255	
1007.130	1	1	0	0	0.13686	0.33472	0.31937	0.092126	0.14024	0.21947	0.10536	0.10672	0.16999	0.29345	0.20888	0.052236	0.10526	0.20806	0.046723	0.28869	-2.6333	-3.1875	-2.7625	-3.1979	-3.2229	-2.7292	-3.4437	-2.9646	-2.8625	-3.2271	-2.9292	-3.0417	-3.2833	-2.8229	-3.2687	-2.9354	511.961	523.702	250.813	228.540	497.046	359.547	477.235	358.353	238.873	458.918	453.642	226.856	195.327	505.932	408.598	481.441	0.00057531	0.00036852	0.00011077	552.84	3.4233e-06	3.5146e-06	467.56	231.33	3.6062e-06	3.3211e-06	210.38	93.409	111.41	53.911	5.9617e-06	45.747	0.00050943	0.00040398	0.00011224	567.41	6.851e-06	4.745e-06	477.95	238.56	4.5685e-06	9.7782e-06	215.49	96.311	114.75	56.154	1.0834e-05	47.321	286.797	244.860	267.196	183.220	331.718	316.214	181.152	187.880	336.732	284.076	184.077	188.130	190.961	194.613	318.139	190.755	-8191	255	
1007.202	1	1	0	0	0.10186	0.011432	0.02198	0.078881	0.30636	0.058474	0.09918	0.1925	0.20917	0.25407	0.16221	0.10685	0.095044	0.33188	0.2785	0.1538	-2.5187	-3.1854	-2.9771	-3.2938	-3.1521	-3.0458	-3.4104	-3.125	-3.0542	-3.3167	-3.1146	-3.2687	-3.2646	-2.8104	-3.1146	-3.2646	181.070	481.350	528.462	457.171	433.975	482.171	290.361	467.118	431.331	448.929	199.806	283.760	500.346	483.457	275.806	515.484	0.00057729	0.00043256	9.6578e-05	549.04	4.8712e-06	3.1723e-06	464.8	228.69	3.492e-06	1.7447e-06	208.83	93.568	111.42	53.801	6.0307e-06	45.294	0.0005115	0.00041906	0.00011595	564.22	8.014e-06	4.6012e-06	475.18	236.81	4.3623e-06	1.1708e-05	214.88	96.105	114.75	56.09	9.0904e-06	47.272	286.533	252.376	270.634	183.089	342.034	334.056	181.035	187.987	329.757	290.616	184.422	188.311	190.514	194.758	330.532	190.578	-8191	255	
1007.322	1	1	0	0	0.21496	0.11127	0.15201	0.14933	0.07544	0.10105	0.13058	0.10322	0.13849	0.186	0.3676	0.19215	0.20014	0.28705	0.27064	0.13423	-2.4146	-3.3208	-2.8958	-3.0708	-3.2833	-2.8688	-3.3396	-3.2292	-2.9417	-3.4313	-3.0458	-2.9708	-3.4562	-3.0875	-3.2708	-3.2479	269.542	458.637	264.838	449.928	300.158	454.388	420.015	407.627	439.926	355.662	170.117	446.976	197.962	524.845	186.046	379.630	0.00056449	0.00039479	0.00013099	551.93	3.507e-06	3.8271e-06	465.28	229	3.9596e-06	2.835e-06	209.08	93.727	110.02	53.645	5.0384e-06	45.524	0.00049834	0.00037736	0.00012156	565.22	9.4596e-06	4.2606e-06	475.73	236.64	4.1872e-06	9.7455e-06	214.92	96.167	114.12	55.893	6.8844e-06	47.153	282.833	250.602	261.075	183.091	352.068	319.460	181.059	187.944	329.474	303.729	184.294	188.221	190.892	194.506	332.328	190.304	-8191	255	
1007.418	1	1	0	0	0.26266	0.027464	0.14308	0.098369	0.089032	0.1554	0.26977	0.20719	0.07951	0.12689	0.3489	0.21117	0.22813	0.2162	0.1619	0.10338	-2.3604	-3.0583	-2.8729	-3.0021	-3.2833	-2.8229	-3.2854	-3.3354	-2.8688	-3.1417	-2.9542	-3.0208	-3.3187	-3.0333	-3.125	-3.2646	391.928	246.510	283.381	170.324	265.482	520.169	394.542	494.549	527.769	412.987	525.208	480.377	177.164	416.855	247.349	519.815	0.00056661	0.00044521	0.0001058	548.78	3.6785e-06	3.7019e-06	460.54	227.7	3.7604e-06	1.2931e-06	205.69	91.728	109.08	53.103	4.1273e-06	44.732	0.00050746	0.00042028	0.00011162	563.41	7.9393e-06	4.2583e-06	472.16	234.66	4.1615e-06	1.1415e-05	211.98	94.702	112.84	55.298	4.5956e-06	46.488	284.660	256.057	256.854	182.773	339.214	325.141	181.313	187.848	335.183	301.346	184.892	188.022	190.576	194.371	314.309	190.586	-8191	255	
1007.515	1	1	0	0	0.19745	0.1187	0.079785	0.11304	0.38743	0.25419	0.35335	0.016972	0.19711	0.093797	0.21408	0.19023	0.067093	0.23168	0.060134	0.26387	-2.4021	-3.3229	-3.1104	-3.0021	-3.3396	-2.8833	-3.2188	-3.4	-2.7229	-3.3229	-3.1437	-3.0083	-3.5042	-3.1104	-2.9729	-3.4646	172.077	460.183	369.744	429.684	322.991	386.036	359.025	326.002	494.329	499.401	202.310	197.862	517.715	355.036	401.206	380.684	0.00057276	0.00051107	0.00012208	543.75	3.8662e-06	3.4549e-06	456.32	225.19	4.1386e-06	3.5309e-06	204.93	91.231	108.86	52.524	5.208e-06	44.66	0.00050334	0.00039568	0.00011316	558.19	9.0059e-06	4.3396e-06	468.04	232.61	4.1249e-06	9.073e-06	210.68	94.164	112.38	54.895	5.054e-06	46.41	284.297	239.869	249.836	183.216	351.536	315.902	181.086	187.817	333.479	348.752	184.112	188.270	190.593	194.509	311.630	190.700	-8191	255	
1007.611	1	1	0	0	0.25339	0.039683	0.029293	0.29705	0.077265	0.1456	0.17664	0.19117	0.28797	0.17531	0.19723	0.081565	0.085078	0.44216	0.14399	0.16581	-2.4729	-3.0167	-3.0146	-2.8812	-3.4833	-2.9792	-2.9938	-3.4833	-2.8042	-3.1229	-3.1188	-3.0375	-3.3896	-3.2125	-2.9646	-3.425	484.478	467.947	497.122	525.930	348.725	282.227	443.403	452.302	427.535	225.901	492.725	418.889	199.228	521.449	278.108	445.393	0.00055769	0.00050265	0.00010096	542.66	3.1324e-06	4.8673e-06	458.53	225.09	4.7567e-06	2.6983e-06	206.82	91.602	108.5	52.966	5.318e-06	44.537	0.00048633	0.00039042	0.00010937	558.06	7.4559e-06	4.4185e-06	469.1	232.49	3.9892e-06	6.7604e-06	212.27	94.471	112.59	55.186	5.0849e-06	46.451	285.803	248.658	260.565	182.602	356.319	317.845	181.394	187.821	333.218	311.321	184.335	188.090	190.662	194.368	320.329	190.718	-8191	255	
1007.707	1	1	0	0	0.15971	0.070911	0.14727	0.12302	0.25179	0.14162	0.08854	0.31829	0.26977	0.18261	0.25271	0.21248	0.020445	0.36009	0.23758	0.1933	-2.5896	-3.1042	-3.0583	-2.8958	-3.4125	-2.9271	-2.975	-3.525	-2.7646	-3.0438	-3.3167	-2.6813	-3.3604	-3.2146	-2.7896	-3.3958	170.182	372.544	502.193	485.371	431.709	377.086	431.453	523.857	259.096	497.732	445.781	239.327	493.291	505.424	520.364	446.510	0.00054612	0.00038448	9.4717e-05	547.09	3.4966e-06	3.4772e-06	457	226.12	3.9383e-06	3.9547e-06	205.44	90.929	108.15	52.684	4.7793e-06	44.615	0.00048575	0.00035995	0.00011244	561.49	9.2571e-06	3.8564e-06	470.97	234.13	4.2477e-06	4.4284e-06	211.93	94.144	112.18	54.879	4.7634e-06	46.333	285.047	254.867	278.825	182.775	357.216	316.136	181.105	187.732	331.063	325.445	184.344	187.966	190.700	194.470	313.822	190.783	-8191	255	
1007.801	1	1	0	0	0.17088	0.2917	0.18293	0.25126	0.2421	0.34336	0.092635	0.17119	0.11693	0.076174	0.36668	0.35492	0.32243	0.10906	0.28009	0.11179	-2.6167	-3.1792	-3.2292	-2.9917	-3.2708	-3.2313	-2.8896	-3.3688	-3.0875	-3.2292	-3.25	-2.9292	-3.2917	-3.3063	-2.8917	-3.4333	450.826	364.975	435.258	514.929	486.202	255.590	244.944	413.578	238.482	489.733	477.215	523.510	497.890	415.437	190.176	459.674	0.00055737	0.00043927	9.5727e-05	542.48	5.491e-06	3.722e-06	459.37	224.59	3.3282e-06	4.8975e-06	203.6	90.319	107.33	51.942	4.8984e-06	43.926	0.00049249	0.00040601	0.00010766	558.13	7.3722e-06	4.0355e-06	469.32	231.84	4.0442e-06	4.4685e-06	210.17	92.96	110.77	54.195	4.6945e-06	45.662	284.985	242.083	263.545	182.979	344.824	323.735	181.181	187.822	329.346	312.598	184.295	188.436	190.738	194.381	320.709	190.539	-8191	255	
1007.899	1	1	0	0	0.32756	0.092964	0.15622	0.10969	0.11087	0.051217	0.064512	0.22851	0.12815	0.11715	0.16492	0.21514	0.21422	0.18395	0.13596	0.2474	-2.5563	-2.8417	-3.2708	-2.7458	-3.0125	-3.2771	-2.8042	-3.4271	-3.0021	-2.7396	-3.4292	-2.9833	-2.9833	-3.1104	-2.7875	-3.2438	276.619	228.743	390.608	477.808	326.675	223.132	410.070	230.621	365.736	199.963	464.396	473.065	524.906	463.646	270.215	480.789	0.0005735	0.00049531	0.00011286	541.68	3.3637e-06	2.8967e-06	456.48	224.26	4.1694e-06	4.1811e-06	204.41	90.322	108.16	52.218	5.1812e-06	44.399	0.00049545	0.00038009	9.9902e-05	555.98	4.8914e-06	8.17e-06	467.76	231.68	3.9516e-06	4.2281e-06	210.91	93.336	111.49	54.485	4.8403e-06	46.121	286.759	255.215	261.224	182.991	375.217	318.500	181.247	187.956	324.919	314.807	184.191	188.152	190.660	194.486	317.584	190.496	-8191	255	
1008.018	1	1	0	0	0.16141	0.097446	0.18478	0.16294	0.086877	0.18672	0.18181	0.23711	0.22918	0.17648	0.10931	0.29877	0.21591	0.2428	0.051364	0.36501	-2.6833	-2.8229	-3.2479	-2.8625	-3.0875	-3.2333	-3.0333	-3.4062	-3.2021	-2.9062	-3.4167	-3.1667	-3.0625	-3.4708	-2.9229	-3.175	475.109	491.350	440.101	475.587	397.459	183.482	504.818	480.312	250.218	191.327	385.900	485.673	429.386	493.990	289.512	462.081	0.00056013	0.00048328	0.00013412	547.37	3.1346e-06	3.7459e-06	460.6	226.87	3.7789e-06	4.0281e-06	207.66	91.773	109.39	52.886	3.8029e-06	44.94	0.00049626	0.00040945	0.00010552	560.77	3.6366e-06	9.5183e-06	474	234.91	4.2e-06	4.6809e-06	214.36	94.723	112.76	55.186	4.9052e-06	46.716	285.211	265.206	257.690	182.753	326.152	351.293	181.189	187.943	338.037	320.886	184.248	188.068	190.490	194.546	318.072	190.820	-8191	255	
1008.114	1	1	0	0	0.16532	0.18559	0.21478	0.24268	0.17443	0.17031	0.25951	0.025446	0.25382	0.34977	0.25193	0.092371	0.12482	0.1285	0.05286	0.23006	-2.6771	-3.0146	-3.2958	-3.1979	-3.1479	-3.3354	-3.0104	-3.2771	-3.1521	-2.9437	-3.2562	-3.0396	-3.1229	-3.3646	-2.8688	-3.3812	272.703	399.117	333.175	433.742	441.342	180.869	464.241	439.426	337.047	423.268	321.445	469.351	215.323	457.923	408.366	492.983	0.00056381	0.00043459	0.0001055	549.46	4.0976e-06	1.5779e-06	466.65	230.71	4.1849e-06	3.4676e-06	207.83	92.027	109.15	52.931	4.9408e-06	44.97	0.00048329	0.00041987	0.00010996	564	3.9966e-06	1.1679e-05	477.93	237.2	4.4356e-06	4.6797e-06	215.12	94.946	113.1	55.28	4.5996e-06	46.752	286.156	251.126	276.750	182.702	318.765	315.197	180.961	187.787	334.014	310.000	184.399	188.127	190.629	194.390	322.527	190.590	-8191	255	
1008.210	1	1	0	0	0.19269	0.30215	0.11361	0.14418	0.2346	0.1427	0.14729	0.15107	0.14804	0.24983	0.056023	0.080873	0.062588	0.24957	0.12408	0.02001	-2.7146	-2.5979	-3.0292	-3.0875	-2.9604	-3.3729	-2.9583	-3.0771	-3.4021	-2.9083	-3.2354	-3.0812	-3.1208	-3.4292	-2.7354	-3.1229	207.724	490.910	493.039	431.789	434.196	362.998	292.149	450.557	525.161	268.645	226.041	307.121	526.593	512.332	303.564	282.610	0.00059905	0.00044604	8.2528e-05	545.27	4.5828e-06	9.5279e-08	464.09	228.73	2.8971e-06	3.382e-06	207.54	91.641	109.02	52.775	4.8413e-06	44.728	0.00066262	0.0004059	0.00010093	562.24	3.966e-06	9.2166e-06	474.9	235.82	4.0772e-06	4.2609e-06	214.01	94.532	112.83	55.067	4.7564e-06	46.45	285.892	233.035	252.682	182.769	328.636	447.282	181.105	187.852	339.274	302.609	184.164	188.263	191.004	194.324	310.216	190.704	-8191	255	
1008.307	1	1	0	0	0.18786	0.16435	0.08867	0.187	0.22543	0.30419	0.26728	0.11275	0.29657	0.15682	0.028912	0.033227	0.096687	0.17555	0.20249	0.21666	-2.8979	-2.7521	-3.2146	-3.0667	-2.8667	-3.3354	-3.1021	-3.1021	-3.1688	-2.6979	-3.1854	-3.2375	-2.7667	-3.3854	-2.9417	-3.0021	303.665	345.088	175.069	506.890	487.520	438.770	446.176	433.449	453.943	174.889	442.278	413.036	502.761	413.410	395.207	464.241	0.00058549	0.00043441	0.00011411	546.01	3.6882e-06	3.4468e-06	461.46	229.15	3.2311e-06	3.7782e-06	207.83	92.155	109.82	53.105	5.1596e-06	45.121	0.00067051	0.00039538	0.00010754	562.52	3.8436e-06	1.1206e-05	474.53	236.03	3.9645e-06	4.0121e-06	214.91	95.405	113.55	55.447	5.021e-06	46.926	288.103	266.225	253.449	182.867	335.935	340.420	181.146	187.785	345.915	320.372	184.364	188.114	190.528	194.468	324.891	190.582	-8191	255	
1008.427	1	1	0	0	0.076672	0.18672	0.21403	0.15618	0.28108	0.25629	0.13588	0.066048	0.033572	0.21587	0.17545	0.087183	0.1305	0.03297	0.026187	0.30087	-2.7896	-2.8917	-3.0271	-3.2188	-2.8771	-3.2854	-3.0792	-2.9104	-3.2167	-3.0333	-3.2104	-3.1417	-2.925	-3.4896	-2.9042	-2.7979	274.047	386.107	306.290	457.573	272.184	288.013	205.812	429.616	465.691	317.836	362.794	201.367	504.288	203.016	433.707	441.898	0.00054532	0.00031193	0.00010351	549.33	3.9989e-06	3.1038e-06	468.41	230.04	3.7991e-06	3.2438e-06	209.8	93.334	111.07	53.598	5.3e-06	45.854	0.00073313	0.00039224	0.00011136	567.6	3.8139e-06	9.6727e-06	480.99	238.82	4.2477e-06	4.4818e-06	217.08	96.592	114.72	56.077	4.9671e-06	47.579	286.487	243.494	259.056	182.895	319.690	334.542	181.107	188.091	343.227	320.792	184.516	188.138	190.859	194.349	313.416	190.809	-8191	255	
1008.499	1	1	0	0	0.09759	0.38241	0.26989	0.10067	0.14216	0.22066	0.28285	0.23614	0.23938	0.088808	0.21146	0.1082	0.19515	0.082616	0.042469	0.10526	-3.0208	-2.4854	-3.1375	-3.1146	-2.9354	-3.1917	-3.1771	-2.9667	-3.3646	-2.8563	-3.1229	-3.1	-2.9333	-3.2021	-3.05	-2.8896	248.067	416.817	480.796	212.484	284.827	251.803	432.710	472.744	400.461	503.290	484.892	388.172	191.358	207.136	372.864	464.922	0.00058751	0.00035655	0.00011482	557.39	3.8968e-06	1.5431e-06	469.67	231.33	4.447e-06	4.6634e-06	206.73	92.235	109.89	53.143	3.6889e-06	44.845	0.00068656	0.00040388	0.0001184	571.92	3.9453e-06	1.1652e-05	482	239.91	3.98e-06	4.4466e-06	216.34	96.438	114.61	56.022	4.8413e-06	47.235	289.375	253.509	258.701	182.562	338.162	360.364	181.178	187.670	330.162	320.479	183.771	187.980	190.525	194.188	312.344	190.423	-8191	255	
1008.619	1	1	0	0	0.053889	0.25199	0.1183	0.19239	0.0805	0.11888	0.069152	0.23645	0.094828	0.17889	0.19184	0.075796	0.10632	0.27739	0.26772	0.26126	-2.8542	-2.8708	-3.0563	-3.3729	-2.9396	-3.2208	-3.1063	-3.0354	-3.1167	-3.1813	-2.7583	-3.5146	-2.9208	-3.2458	-3.1896	-2.7604	225.211	254.908	320.813	465.832	457.763	330.442	517.735	448.403	319.947	376.198	169.648	442.136	483.377	505.616	456.276	442.225	0.00058964	0.00035936	0.0001147	548.4	4.2776e-06	3.3655e-06	458.85	226.46	4.4482e-06	4.6928e-06	206.01	91.359	108.29	52.61	4.4576e-06	44.611	0.00076316	0.00039649	0.00011187	566.82	3.9606e-06	7.8435e-06	475.91	236.73	4.0415e-06	4.3495e-06	214.43	95.287	113.02	55.454	4.7993e-06	46.876	286.766	239.204	257.219	182.670	332.059	338.403	180.849	187.560	336.672	311.055	184.344	187.922	190.460	193.972	328.923	190.687	-8191	255	
1008.714	1	1	0	0	0.28809	0.20169	0.18376	0.25043	0.1127	0.12615	0.21239	0.13074	0.19737	0.090451	0.10781	0.036683	0.10508	0.35069	0.07891	0.27528	-2.6833	-3.025	-2.9146	-3.2167	-2.8333	-3.2729	-3.1646	-2.8771	-3.2354	-2.9646	-3.0146	-3.1917	-3.0458	-3.2021	-3.3021	-3.0438	422.871	515.555	380.836	468.262	287.627	520.291	339.301	392.626	303.862	483.911	489.693	424.356	378.878	478.457	175.276	372.617	0.00055308	0.00028175	0.00012197	544.81	4.1737e-06	2.0679e-06	460.16	224.8	3.1661e-06	3.9144e-06	205.13	91.25	108.55	52.668	4.5284e-06	44.87	0.00065735	0.00039163	0.00010204	563.73	3.9129e-06	5.4239e-06	476.65	235.58	3.893e-06	4.6384e-06	214.86	95.335	113.32	55.638	4.8623e-06	47.039	287.566	234.476	249.715	182.832	326.741	338.708	181.014	187.482	324.556	313.532	184.458	187.722	190.263	194.084	323.126	190.093	-8191	255	
1008.810	1	1	0	0	0.41866	0.16223	0.13133	0.16552	0.20133	0.057929	0.073811	0.22754	0.23345	0.25711	0.12676	0.02518	0.10967	0.17822	0.21365	0.052778	-2.6354	-3.1354	-2.7438	-3.4542	-2.9021	-3.1833	-3.4354	-2.8396	-3.2604	-2.9188	-2.975	-3.3854	-3.0125	-3.3625	-3.0708	-3.0292	386.678	318.694	289.582	249.270	515.739	493.550	362.171	482.596	234.071	392.719	188.120	176.823	247.749	498.945	244.222	431.445	0.00055222	0.00041129	8.3577e-05	544.34	4.3165e-06	4.0627e-06	460.77	226.13	4.2044e-06	4.9286e-06	206.67	91.712	108.15	52.804	4.8376e-06	45.012	0.00073706	0.00039021	0.00011122	566.83	4.0903e-06	4.435e-06	478.57	236.31	4.0671e-06	4.5729e-06	215.06	95.559	113.28	55.675	4.6635e-06	47.047	288.053	253.623	263.158	182.651	328.761	321.059	181.043	187.683	349.170	333.842	184.045	187.890	190.328	194.121	315.767	190.034	-8191	255	
1008.906	1	1	0	0	0.13951	0.37373	0.18939	0.21126	0.20172	0.049874	0.17776	0.21187	0.22872	0.09711	0.066537	0.14273	0.10494	0.28301	0.2012	0.28929	-2.7333	-3.0667	-2.6958	-3.1937	-3.125	-2.8167	-3.3292	-2.8771	-3.1833	-3.3021	-2.6875	-3.4479	-3.0271	-3.2271	-3.2667	-2.8417	305.225	423.962	247.607	437.952	173.974	407.953	498.734	189.441	190.651	266.931	268.120	224.899	414.735	524.377	272.803	503.931	0.0005403	0.00048552	0.00011235	541.96	3.8599e-06	5.1315e-06	457.46	225.2	4.5577e-06	4.1191e-06	202.35	89.68	106.99	51.854	4.6032e-06	43.833	0.00060223	0.00047423	0.00011139	563.12	4.1254e-06	4.5293e-06	474.75	234.13	4.3724e-06	4.2731e-06	211.67	93.934	111.68	54.744	4.5607e-06	46.061	285.751	244.178	256.578	182.796	329.903	311.628	180.830	187.437	337.148	323.886	184.325	187.843	190.397	194.176	320.522	190.405	-8191	255	
1009.027	1	1	0	0	0.098452	0.29756	0.15583	0.26314	0.13485	0.15113	0.23021	0.22771	0.26211	0.12455	0.18324	0.041356	0.13536	0.16431	0.14575	0.18003	-2.7021	-3.1083	-2.6979	-3.35	-3.1271	-2.8333	-3.4188	-2.8146	-3.0604	-3.2375	-2.9667	-3.2708	-3.2125	-3.0021	-3.4437	-2.8937	424.098	384.946	354.523	370.012	490.747	440.445	172.733	476.890	526.355	497.768	490.729	465.615	178.181	525.647	260.647	484.648	0.00055493	0.00037766	0.00010785	533.56	3.0607e-06	2.9463e-06	450.25	220.46	4.3463e-06	3.813e-06	200.75	88.641	105.92	51.682	4.1644e-06	43.591	0.00051016	0.00082649	0.00010552	555.34	3.6438e-06	3.9707e-06	467.66	230.28	4.167e-06	4.2609e-06	209.36	92.865	110.52	54.283	4.7314e-06	45.786	289.143	250.515	242.613	182.669	325.020	305.105	180.739	187.515	337.419	298.299	184.072	187.882	190.132	193.985	321.546	190.050	-8191	255	
1009.098	1	1	0	0	0.081764	0.060795	0.18272	0.10452	0.041243	0.18057	0.1032	0.03744	0.10054	0.23496	0.051918	0.11827	0.15762	0.17508	0.076466	0.13176	-2.7896	-3.1375	-2.9	-3.3479	-3.0271	-2.8688	-3.5229	-2.9042	-3.0583	-3.2771	-2.8583	-3.0667	-3.1437	-2.8729	-3.2667	-3.1354	275.920	315.218	318.051	456.211	381.138	376.545	498.886	509.294	411.173	368.852	220.946	428.413	294.354	494.930	215.890	182.726	0.00055426	0.00036951	0.00013491	536.99	4.2132e-06	3.8108e-06	451	222.53	4.194e-06	3.6674e-06	203.43	89.575	106.37	51.748	4.0743e-06	44.077	0.00050512	0.00081262	0.00010823	557.41	4.0254e-06	4.3384e-06	471.26	231.69	4.1689e-06	4.3495e-06	211.37	93.325	111.12	54.541	4.9202e-06	46.167	286.188	276.551	264.482	182.818	339.528	321.956	181.250	187.520	320.797	306.745	184.004	187.712	190.198	193.992	317.700	190.464	-8191	255	
1009.195	1	1	0	0	0.1217	0.35234	0.18962	0.10798	0.1116	0.075415	0.074308	0.064743	0.21874	0.23899	0.10827	0.096891	0.19869	0.077884	0.20826	0.2313	-2.3917	-3.3396	-2.8479	-3.3625	-3.0646	-2.9292	-3.3167	-3.0396	-3.0146	-3.3479	-2.8896	-3.1667	-3.275	-2.9646	-3.1875	-3.1146	520.419	353.812	306.422	431.621	221.282	397.205	329.703	503.032	214.581	235.789	430.233	476.680	336.906	384.766	274.398	420.043	0.00054719	0.00050191	9.7747e-05	542.55	4.6037e-06	3.9373e-06	458.56	224.46	3.6345e-06	5.4385e-06	205.07	90.531	107.51	52.231	4.2957e-06	44.003	0.00049538	0.00098115	0.0001204	562.75	3.9183e-06	4.5729e-06	475.57	233.96	4.3494e-06	4.5826e-06	213.12	94.166	112.34	55.015	4.8053e-06	46.341	284.475	267.550	252.932	182.740	346.956	328.948	181.112	187.541	337.332	308.941	184.147	187.735	190.023	194.086	318.007	190.371	-8191	255	
1009.291	1	1	0	0	0.2106	0.22527	0.10583	0.19137	0.037594	0.34753	0.18417	0.17775	0.15484	0.051623	0.12533	0.16222	0.1094	0.47833	0.036423	0.3338	-2.5729	-3.2667	-2.95	-3.1646	-3.1479	-2.8604	-3.1208	-3.2729	-2.825	-3.2792	-3.0896	-3.0271	-3.3729	-3.0438	-3.2771	-3.275	415.387	516.554	354.448	169.712	181.086	248.284	482.418	471.875	312.616	305.302	188.608	408.015	197.857	517.562	287.451	424.080	0.00058046	0.00036984	9.4313e-05	544.19	4.6075e-06	2.9064e-06	458.6	224.44	3.6213e-06	4.2656e-06	204.04	89.804	108.04	51.991	5.2291e-06	43.881	0.00051312	0.00081576	0.00011572	565.83	3.8868e-06	4.3172e-06	478.29	234.18	4.0195e-06	4.6384e-06	212.29	93.638	112.41	54.896	5.1379e-06	46.075	285.236	230.733	263.597	182.599	336.659	307.286	180.956	187.383	321.415	317.653	184.113	187.921	190.192	194.153	308.653	189.902	-8191	255	
1009.387	1	1	0	0	0.11814	0.077294	0.15573	0.10304	0.20723	0.049535	0.15064	0.14438	0.012952	0.11498	0.087474	0.23608	0.12309	0.027149	0.12765	0.25288	-2.3125	-3.35	-2.9313	-2.9667	-3.3104	-2.7708	-3.1562	-3.2812	-2.8063	-3.3604	-3.0125	-3.0229	-3.4125	-2.9146	-3.2292	-3.3958	434.229	364.653	388.777	299.736	294.495	252.032	515.810	178.973	274.179	483.595	425.983	423.450	511.475	321.526	339.436	382.970	0.00056871	0.00041941	0.00010541	546.5	4.4476e-06	3.4223e-06	462.27	225.56	2.8097e-06	3.0874e-06	205.93	90.288	108.3	52.095	5.3804e-06	44.285	0.00048856	0.00097974	0.00011361	567.18	3.8445e-06	4.5588e-06	479.16	234.63	4.3274e-06	4.2815e-06	213.52	93.892	112.79	54.971	4.8732e-06	46.359	285.091	273.892	251.370	182.400	320.661	326.196	180.955	187.261	330.362	314.272	184.099	187.735	190.277	194.023	324.333	190.055	-8191	255	
1009.508	1	1	0	0	0.10949	0.02596	0.1332	0.20789	0.038837	0.20941	0.28576	0.28874	0.094122	0.18602	0.16386	0.17802	0.089105	0.18939	0.05208	0.1144	-2.4792	-3.2354	-2.8229	-3.1167	-3.2812	-2.8042	-3.125	-3.3542	-2.7313	-3.1833	-3.1417	-2.9458	-3.2333	-3.0604	-3.1354	-3.4208	329.431	315.785	346.530	520.743	250.457	283.060	506.384	174.745	249.004	405.197	488.899	374.863	252.119	505.997	251.484	439.778	0.00056778	0.00044931	9.6178e-05	553.73	3.8284e-06	3.2149e-06	467.84	228.8	4.115e-06	4.408e-06	207.23	91.432	108.66	52.741	4.8085e-06	44.697	0.00050288	0.00082568	0.00011065	573.32	3.7239e-06	4.1675e-06	485.84	238.46	4.4411e-06	4.4515e-06	216.2	95.003	113.74	55.539	4.9891e-06	46.817	284.275	280.371	260.483	182.474	327.157	337.789	181.200	187.497	340.107	317.051	184.075	187.931	190.212	193.874	321.123	189.915	-8191	255	
1009.602	1	1	0	0	0.048016	0.082321	0.051043	0.089422	0.019026	0.1755	0.073775	0.11454	0.013997	0.17144	0.030719	0.11014	0.013117	0.10025	0.20077	0.12637	-2.4688	-3.1104	-3.0938	-2.8937	-3.5583	-2.8792	-3.2104	-3.2958	-2.7583	-3.2583	-3.2917	-2.8083	-3.4021	-3.0062	-2.9625	-3.3333	461.042	320.590	196.127	448.959	392.805	337.581	417.325	436.479	220.257	352.667	390.487	259.013	197.286	253.778	369.451	273.119	0.00055885	0.00045491	9.9319e-05	556.14	4.6245e-06	5.0519e-06	470.29	229.31	3.4602e-06	4.8021e-06	208.22	91.352	109.33	52.868	4.7966e-06	44.597	0.00050488	0.0010206	0.00012139	576.64	3.8328e-06	4.4692e-06	487.72	238.72	4.1799e-06	4.8023e-06	216.64	95.117	114.05	55.631	5.075e-06	46.812	285.497	262.560	256.569	182.306	336.754	327.489	181.080	187.364	329.745	324.836	184.082	187.735	190.258	194.061	319.729	190.087	-8191	255	
1009.700	1	1	0	0	0.37581	0.16525	0.10856	0.12358	0.14379	0.058346	0.17388	0.20536	0.096762	0.34065	0.14583	0.23117	0.13058	0.2602	0.11924	0.097508	-2.2625	-3.1375	-2.9417	-2.9188	-3.125	-2.9521	-2.9771	-3.4375	-2.725	-3.1188	-3.0854	-2.8625	-3.1813	-2.9646	-2.775	-3.2062	331.159	306.357	407.630	486.639	207.860	178.258	484.608	505.660	339.388	187.062	251.779	257.900	459.122	485.642	451.569	421.883	0.000584	0.00042962	6.5175e-05	553.92	2.8802e-06	3.5179e-06	471.17	228.62	3.8101e-06	3.4132e-06	206.28	90.829	108.17	52.298	4.5717e-06	44.195	0.0005095	0.0006541	0.00014585	575.01	3.8256e-06	4.3702e-06	486.15	238.69	4.4439e-06	4.4418e-06	214.6	94.577	113.13	55.14	4.8882e-06	46.276	286.649	265.213	256.582	182.580	334.165	322.171	181.112	187.492	336.313	309.037	183.855	187.785	190.278	193.943	318.956	189.785	-8191	255	
1009.794	1	1	0	0	0.11571	0.063193	0.13676	0.096753	0.12352	0.17545	0.23913	0.12422	0.33149	0.097328	0.085811	0.1423	0.20237	0.3497	0.161	0.14453	-2.3812	-2.9333	-3.4021	-2.8521	-3.2917	-3.0938	-2.8187	-3.3667	-2.8771	-2.9458	-3.2396	-2.7521	-3.3896	-3.1312	-2.8625	-3.3208	325.515	270.138	482.596	451.069	377.147	180.077	498.735	474.940	472.325	199.240	378.151	350.650	218.068	469.557	323.196	336.047	0.00058055	0.00037424	6.4916e-05	553.53	4.7582e-06	3.3491e-06	470.51	228.7	4.7128e-06	2.4159e-06	207.87	91.392	109.18	52.779	3.5998e-06	44.714	0.00050485	0.00038971	0.00025627	574.06	4.1695e-06	4.2913e-06	486.91	238.56	4.5016e-06	4.534e-06	216.04	94.955	114.03	55.536	4.6885e-06	46.771	285.636	245.600	266.620	182.785	338.132	287.167	180.890	187.493	329.093	332.021	184.588	187.690	190.311	193.744	331.591	190.115	-8191	255	
1009.890	1	1	0	0	0.11322	0.12415	0.15823	0.096309	0.080577	0.17617	0.11809	0.11448	0.22911	0.08723	0.1384	0.14715	0.29743	0.1387	0.13587	0.27024	-2.5833	-2.8625	-2.975	-2.8833	-3.3708	-3.1458	-3.1021	-3.2458	-3.0312	-3.05	-3.3333	-2.9667	-3.2146	-3.1292	-2.9979	-3.3438	313.596	216.459	428.458	266.838	315.377	443.732	227.784	410.074	376.056	270.073	475.763	190.921	482.398	517.437	236.235	493.450	0.00055413	0.00037925	7.7426e-05	559	5.6881e-06	3.964e-06	476.75	231.58	4.919e-06	4.108e-06	211.16	92.721	110.45	53.625	5.4848e-06	45.128	0.00050796	0.00040439	0.000225	580.82	4.0948e-06	4.5069e-06	494.4	241.67	4.2651e-06	4.7234e-06	219.94	96.399	115.57	56.256	4.8772e-06	47.352	286.013	265.541	262.243	182.877	327.344	299.860	181.185	187.479	332.085	317.684	184.047	187.596	190.161	193.971	317.302	190.042	-8191	255	
1009.987	1	1	0	0	0.039003	0.047112	0.17248	0.097585	0.089237	0.011719	0.24847	0.015169	0.078436	0.014471	0.15633	0.041781	0.35583	0.096777	0.05139	0.073246	-2.7375	-2.8771	-3.275	-3.0042	-3.0146	-2.9708	-2.9771	-3.1979	-2.9646	-3.0938	-3.1458	-2.9521	-3.0458	-3.2396	-2.9792	-3.3354	348.228	336.645	191.081	171.147	525.063	241.697	248.411	464.266	419.451	291.613	443.322	194.436	455.639	517.362	477.066	489.506	0.00058962	0.00038946	5.9645e-05	561.73	5.2147e-06	3.1107e-06	478.77	230.75	4.3378e-06	4.5466e-06	208.78	91.859	109.4	52.535	4.4231e-06	44.072	0.00051716	0.00040044	0.00027668	582.67	3.9714e-06	4.3537e-06	495.11	241.3	4.4338e-06	4.6324e-06	217.18	95.363	113.88	55.455	4.8263e-06	46.35	284.935	257.765	255.323	182.476	323.949	312.614	181.096	187.535	328.114	303.401	184.147	187.903	190.297	193.755	316.707	190.068	-8191	255	
1010.107	1	1	0	0	0.20514	0.14372	0.11846	0.25181	0.271	0.080542	0.081292	0.059614	0.29752	0.091772	0.184	0.21158	0.074653	0.041353	0.14762	0.17551	-2.6021	-2.8521	-3.3375	-2.8563	-3.0563	-3.4792	-2.6333	-3.2646	-2.8438	-2.9688	-3.3521	-3.1042	-3.0854	-3.3083	-3.0083	-3.2083	225.094	250.887	485.422	217.813	373.350	225.145	506.144	249.509	190.487	224.297	343.487	211.009	323.887	227.072	474.714	422.812	0.00058227	0.00028766	8.0626e-05	548.93	3.6369e-06	3.7007e-06	465.85	225.48	4.497e-06	3.8644e-06	203.94	89.003	106.7	51.401	4.672e-06	43.006	0.00050577	0.00040226	0.00022905	570.11	3.876e-06	3.8658e-06	482.51	234.96	4.2825e-06	4.4078e-06	212.04	92.996	111.31	54.142	4.7304e-06	45.224	285.462	249.028	270.101	182.554	331.583	312.687	181.127	187.303	328.807	325.301	184.039	187.904	190.173	193.942	328.309	190.195	-8191	255	
1010.203	1	1	0	0	0.1609	0.086091	0.24669	0.11873	0.10721	0.073514	0.20635	0.14632	0.081442	0.055456	0.28261	0.074757	0.13348	0.13227	0.15799	0.14955	-2.7	-2.8479	-3.2375	-2.9708	-2.9292	-3.2458	-2.7687	-3.2875	-3.1896	-2.7167	-3.3771	-3.0312	-2.9104	-3.4125	-2.8854	-3.1	187.757	484.383	522.115	396.326	422.844	446.729	423.159	402.435	370.793	245.969	222.216	425.165	453.196	211.317	293.951	456.379	0.00052873	0.00049237	5.1352e-05	546.26	3.4489e-06	4.5123e-06	463.82	224.42	5.1394e-06	4.841e-06	204.93	89.872	107.54	51.572	4.4205e-06	43.641	0.0004677	0.0004059	0.00026912	564.98	3.8589e-06	4.316e-06	480.66	233.5	5.5227e-06	4.7186e-06	213.23	93.611	112.07	54.482	5.0051e-06	45.831	286.019	255.533	288.902	182.533	327.394	311.504	181.056	187.420	329.937	309.209	184.026	187.839	190.533	194.172	311.583	190.186	-8191	255	
1010.299	1	1	0	0	0.23875	0.33465	0.18698	0.27498	0.2402	0.38257	0.30691	0.13365	0.15629	0.056869	0.04942	0.20636	0.35781	0.26719	0.099361	0.20063	-2.6396	-2.7062	-3.2271	-3.1854	-2.9938	-3.5354	-2.8771	-3.3333	-3.0542	-2.9583	-3.3479	-3.0896	-2.8958	-3.5083	-2.9062	-2.9875	486.322	208.243	370.269	422.914	265.847	344.861	479.914	497.155	423.406	386.168	200.086	231.492	209.047	494.703	486.184	489.052	0.00057735	0.00044621	0.000121	548.9	4.4714e-06	3.822e-06	467.31	225.28	3.4192e-06	3.2949e-06	205.7	90.57	108.14	52.112	5.2934e-06	43.809	0.00048217	0.00040904	0.00023321	569.57	3.9534e-06	4.2901e-06	484.47	235.58	9.05e-06	4.9686e-06	214.39	94.21	112.53	54.869	5.018e-06	45.979	285.669	251.093	252.132	182.587	327.689	315.764	180.835	187.484	322.332	331.336	184.087	187.855	190.186	193.980	321.834	190.154	-8191	255	
1010.396	1	1	0	0	0.098394	0.06301	0.11925	0.16109	0.097202	0.10675	0.091036	0.17213	0.06956	0.17424	0.17921	0.085494	0.11173	0.17659	0.10601	0.11912	-2.6833	-2.7438	-3.0333	-3.1521	-2.7625	-3.2125	-2.9417	-2.8604	-3.3937	-2.8396	-3.175	-3.0833	-3.0354	-3.1521	-3	-3.1562	405.658	373.364	522.137	467.356	255.630	312.816	430.051	391.728	447.045	386.194	346.389	255.213	288.333	314.451	275.616	363.526	0.00056276	0.00047516	4.2029e-05	549.3	4.1925e-06	3.7278e-06	467.99	226.53	5.1268e-06	5.7675e-06	204.9	90.228	108.07	51.725	4.7913e-06	43.883	0.00049299	0.00042969	0.00027309	570.69	4.1173e-06	4.164e-06	485.17	235.57	8.0765e-06	4.8788e-06	213.8	93.874	112.66	54.668	4.9831e-06	45.926	286.639	263.394	219.522	182.753	327.777	315.255	180.778	187.306	333.317	314.438	184.279	187.691	190.286	194.022	321.887	189.951	-8191	255	
#DATA ENDS
