BOXY.EXE: ISS Imagent and Oximeter Data Acquisition Program Version 0.80
Ascii Record File

#ACQ INFORMATION
2  Detector Channels 
16  External MUX Channels 
1  Auxiliary Channels 
5000  Waveform (CCF) Frequency (Hz)
1  Waveforms Skipped 
30  Waveforms Averaged 
1  Cycles Averaged 
16  Acquisitions per Waveform 
10.0806  Updata Rate (Hz) 

#FILE INFORMATION
TRUE -- External MUX Channel results are PARSED.
FALSE -- AC DC and Phase are NOT grouped.
TRUE -- Companion Program Settings File CREATED.
FALSE -- AC data not excluded
FALSE -- DC data not excluded
FALSE -- Phase data not excluded
FALSE -- Auxillary Chn. data not excluded
Tab delimiters

#CALIBRATION STATE
TRUE -- Waveform Calibration Values APPLIED.


#AUX CALIBRATION VALUES
Val Type	aux-1	

Term	1.0000e+00	
Factor	0.0000e+00	


#WF CALIBRATION VALUES
A = Detector Channel
Val Type	A-AC1	A-AC2	A-AC3	A-AC4	A-AC5	A-AC6	A-AC7	A-AC8	A-AC9	A-AC10	A-AC11	A-AC12	A-AC13	A-AC14	A-AC15	A-AC16	A-DC1	A-DC2	A-DC3	A-DC4	A-DC5	A-DC6	A-DC7	A-DC8	A-DC9	A-DC10	A-DC11	A-DC12	A-DC13	A-DC14	A-DC15	A-DC16	A-Ph1	A-Ph2	A-Ph3	A-Ph4	A-Ph5	A-Ph6	A-Ph7	A-Ph8	A-Ph9	A-Ph10	A-Ph11	A-Ph12	A-Ph13	A-Ph14	A-Ph15	A-Ph16	

Term	0.00000e+00	0.00000e+00	0.00000e+00	0.00000e+00	0.00000e+00	0.00000e+00	0.00000e+00	0.00000e+00	0.00000e+00	0.00000e+00	0.00000e+00	0.00000e+00	0.00000e+00	0.00000e+00	0.00000e+00	0.00000e+00	0.00000e+00	0.00000e+00	0.00000e+00	0.00000e+00	0.00000e+00	0.00000e+00	0.00000e+00	0.00000e+00	0.00000e+00	0.00000e+00	0.00000e+00	0.00000e+00	0.00000e+00	0.00000e+00	0.00000e+00	0.00000e+00	0.00000e+00	0.00000e+00	0.00000e+00	0.00000e+00	0.00000e+00	0.00000e+00	0.00000e+00	0.00000e+00	0.00000e+00	0.00000e+00	0.00000e+00	0.00000e+00	0.00000e+00	0.00000e+00	0.00000e+00	0.00000e+00	
Factor	1.00000e+00	1.00000e+00	1.00000e+00	1.00000e+00	1.00000e+00	1.00000e+00	1.00000e+00	1.00000e+00	1.00000e+00	1.00000e+00	1.00000e+00	1.00000e+00	1.00000e+00	1.00000e+00	1.00000e+00	1.00000e+00	1.00000e+00	1.00000e+00	1.00000e+00	1.00000e+00	1.00000e+00	1.00000e+00	1.00000e+00	1.00000e+00	1.00000e+00	1.00000e+00	1.00000e+00	1.00000e+00	1.00000e+00	1.00000e+00	1.00000e+00	1.00000e+00	X	X	X	X	X	X	X	X	X	X	X	X	X	X	X	X	

B = Detector Channel
Val Type	B-AC1	B-AC2	B-AC3	B-AC4	B-AC5	B-AC6	B-AC7	B-AC8	B-AC9	B-AC10	B-AC11	B-AC12	B-AC13	B-AC14	B-AC15	B-AC16	B-DC1	B-DC2	B-DC3	B-DC4	B-DC5	B-DC6	B-DC7	B-DC8	B-DC9	B-DC10	B-DC11	B-DC12	B-DC13	B-DC14	B-DC15	B-DC16	B-Ph1	B-Ph2	B-Ph3	B-Ph4	B-Ph5	B-Ph6	B-Ph7	B-Ph8	B-Ph9	B-Ph10	B-Ph11	B-Ph12	B-Ph13	B-Ph14	B-Ph15	B-Ph16	

Term	0.00000e+00	0.00000e+00	0.00000e+00	0.00000e+00	0.00000e+00	0.00000e+00	0.00000e+00	0.00000e+00	0.00000e+00	0.00000e+00	0.00000e+00	0.00000e+00	0.00000e+00	0.00000e+00	0.00000e+00	0.00000e+00	0.00000e+00	0.00000e+00	0.00000e+00	0.00000e+00	0.00000e+00	0.00000e+00	0.00000e+00	0.00000e+00	0.00000e+00	0.00000e+00	0.00000e+00	0.00000e+00	0.00000e+00	0.00000e+00	0.00000e+00	0.00000e+00	-3.80650e+01	-1.32862e+02	-1.25430e+02	-1.81665e+02	-4.66408e+01	-6.69153e+01	-1.55920e+02	-1.62015e+02	-3.32665e+01	-6.84437e+01	-1.70727e+02	-1.71644e+02	-1.80701e+02	-1.77487e+02	-4.82893e+01	-1.50551e+02	
Factor	2.17353e-05	1.62563e-04	4.39496e-05	1.54653e-01	1.72098e-06	1.76303e-06	1.62475e-01	5.94268e-02	1.39045e-06	1.85064e-06	8.19659e-02	2.80416e-02	2.61055e-02	8.93581e-03	1.65438e-06	1.28829e-02	1.84756e-05	4.85871e-05	1.36813e-05	7.94789e-02	4.32069e-07	5.65725e-07	7.86197e-02	3.06710e-02	4.39986e-07	5.82689e-07	4.11320e-02	1.40425e-02	1.36022e-02	4.66921e-03	4.79335e-07	6.49530e-03	X	X	X	X	X	X	X	X	X	X	X	X	X	X	X	X	



#DISTANCE SETTINGS
A = Detector Channel
A-1	A-2	A-3	A-4	A-5	A-6	A-7	A-8	A-9	A-10	A-11	A-12	A-13	A-14	A-15	A-16	

2.5000e+00	3.0000e+00	2.5000e+00	3.0000e+00	2.0000e+00	3.0000e+00	1.5000e+00	3.0000e+00	3.0000e+00	3.0000e+00	3.0000e+00	3.0000e+00	3.0000e+00	3.0000e+00	1.5000e+00	3.0000e+00	

B = Detector Channel
B-1	B-2	B-3	B-4	B-5	B-6	B-7	B-8	B-9	B-10	B-11	B-12	B-13	B-14	B-15	B-16	

1.0000e+01	1.0000e+01	1.0000e+01	1.4400e+00	1.0000e+01	1.0000e+01	1.5100e+00	1.9400e+00	1.0000e+01	1.0000e+01	1.9900e+00	2.4900e+00	2.4100e+00	2.9000e+00	1.0000e+01	2.9800e+00	




#DATA BEGINS
time	group	step	mark	flag	A-AC1	A-AC2	A-AC3	A-AC4	A-AC5	A-AC6	A-AC7	A-AC8	A-AC9	A-AC10	A-AC11	A-AC12	A-AC13	A-AC14	A-AC15	A-AC16	A-DC1	A-DC2	A-DC3	A-DC4	A-DC5	A-DC6	A-DC7	A-DC8	A-DC9	A-DC10	A-DC11	A-DC12	A-DC13	A-DC14	A-DC15	A-DC16	A-Ph1	A-Ph2	A-Ph3	A-Ph4	A-Ph5	A-Ph6	A-Ph7	A-Ph8	A-Ph9	A-Ph10	A-Ph11	A-Ph12	A-Ph13	A-Ph14	A-Ph15	A-Ph16	B-AC1	B-AC2	B-AC3	B-AC4	B-AC5	B-AC6	B-AC7	B-AC8	B-AC9	B-AC10	B-AC11	B-AC12	B-AC13	B-AC14	B-AC15	B-AC16	B-DC1	B-DC2	B-DC3	B-DC4	B-DC5	B-DC6	B-DC7	B-DC8	B-DC9	B-DC10	B-DC11	B-DC12	B-DC13	B-DC14	B-DC15	B-DC16	B-Ph1	B-Ph2	B-Ph3	B-Ph4	B-Ph5	B-Ph6	B-Ph7	B-Ph8	B-Ph9	B-Ph10	B-Ph11	B-Ph12	B-Ph13	B-Ph14	B-Ph15	B-Ph16	aux-1	digaux	

464.708	1	1	0	256	0.14935	0.098171	0.2132	0.48672	0.12255	0.26117	0.25805	0.21095	0.12655	0.11522	0.31125	0.054527	0.052835	0.14868	0.18865	0.038987	-2.8896	-3.1625	-3.4958	-3.25	-3.3875	-3.4188	-3.2729	-3.6417	-3.4104	-3.3583	-3.6229	-3.3292	-3.4813	-3.5458	-3.0771	-3.4375	396.734	217.675	277.961	446.587	426.032	386.593	428.980	141.767	408.689	264.947	428.136	431.375	459.920	432.351	420.440	404.138	0.00083465	0.00067046	0.00020047	1577.6	7.6738e-06	5.6573e-06	1561.6	420.39	6.7838e-06	5.2461e-06	478.88	160.41	140.47	47.124	6.8622e-06	58.016	0.00084614	0.0009514	0.00026901	1608.9	9.736e-06	1.0447e-05	1592.1	429.1	9.9492e-06	1.0703e-05	490.3	164.36	143.85	48.659	1.023e-05	59.966	279.171	233.805	225.239	152.350	303.784	276.406	152.317	157.281	319.187	291.489	156.376	160.820	161.399	166.004	305.268	165.103	-8191	255	
464.804	1	1	0	0	0.17229	0.16476	0.11857	0.24554	0.11159	0.086504	0.1274	0.1613	0.1984	0.14837	0.18944	0.18883	0.14109	0.32077	0.098216	0.1757	-2.8063	-2.8583	-3.5208	-3.3187	-3.2875	-3.4458	-3.1	-3.6917	-3.2542	-2.9813	-3.6729	-3.1958	-3.3979	-3.5375	-3.05	-3.5375	418.665	194.881	162.803	475.041	205.103	412.404	495.521	455.842	386.863	458.351	452.078	400.565	147.870	454.824	249.050	431.606	0.00080268	0.00053296	0.00014225	1581.9	7.1654e-06	5.4191e-06	1567.2	421.87	7.014e-06	5.0826e-06	479.17	160.31	140.02	46.936	7.9198e-06	57.825	0.00083082	0.00089906	0.00024404	1610.3	9.3237e-06	1.0085e-05	1591.5	429.64	9.3039e-06	1.0514e-05	488.84	163.86	143.23	48.574	9.5428e-06	59.779	280.542	239.551	239.744	152.479	301.730	289.975	152.192	157.326	307.490	295.590	156.573	160.722	161.357	165.967	293.170	165.102	-8191	255	
464.925	1	1	0	0	0.32143	0.18513	0.18419	0.30232	0.16408	0.10413	0.16219	0.14693	0.22782	0.26878	0.24562	0.23602	0.32077	0.23835	0.13189	0.26247	-2.9604	-3.0646	-3.4062	-3.3583	-3.0958	-3.3625	-3.3375	-3.4792	-3.3917	-3.0854	-3.4875	-3.4979	-3.3771	-3.7333	-3.2521	-3.4688	499.267	293.027	183.252	456.683	324.711	494.069	411.026	468.185	472.414	452.401	479.598	477.217	394.772	493.598	274.751	439.618	0.00079597	0.00059801	0.00014152	1571.2	6.5502e-06	6.3494e-06	1556.2	419.01	6.4474e-06	6.6315e-06	476.92	159.88	139.8	46.821	6.865e-06	57.903	0.00081566	0.00091749	0.00025955	1602.2	9.4317e-06	9.9073e-06	1585.1	428.32	9.4285e-06	1.0422e-05	487.45	163.56	143.14	48.469	9.346e-06	59.655	278.884	217.250	244.401	152.423	306.393	284.650	152.114	157.404	309.295	287.164	156.547	160.765	161.178	165.686	298.253	164.895	-8191	255	
465.019	1	1	0	0	0.086024	0.10402	0.10297	0.17212	0.26921	0.12665	0.13475	0.18518	0.12624	0.32883	0.098258	0.24186	0.14937	0.13659	0.02115	0.19837	-2.9688	-3.1375	-3.4333	-3.4625	-3.1271	-3.5604	-3.3583	-3.3688	-3.3958	-3.1542	-3.6521	-3.5312	-3.3167	-3.5625	-3.1312	-3.3896	389.505	150.889	193.241	483.209	354.666	240.584	498.198	397.850	305.982	329.399	185.659	434.162	426.643	494.473	488.687	174.089	0.00077293	0.00064005	0.0001738	1571.8	7.0353e-06	6.4875e-06	1552.7	419.61	6.8168e-06	5.4009e-06	476.1	159.61	139.72	46.852	7.2931e-06	57.557	0.00080858	0.00090099	0.00022834	1599.9	9.2706e-06	9.7552e-06	1581.2	427.7	9.0023e-06	1.0034e-05	486.82	163.09	143.04	48.421	9.6416e-06	59.505	279.031	223.581	236.409	152.448	285.120	298.550	152.189	157.377	310.411	285.225	156.608	160.913	161.266	165.612	310.300	164.900	-8191	255	
465.117	1	1	0	0	0.076182	0.30199	0.089233	0.12708	0.11258	0.07234	0.18848	0.21147	0.13535	0.23362	0.13948	0.29285	0.22499	0.06526	0.052293	0.2705	-3.0729	-3.0167	-3.4437	-3.6417	-3.0042	-3.5	-3.2979	-3.4062	-3.4833	-3.2083	-3.6937	-3.5083	-3.0292	-3.6437	-3.1479	-3.1604	471.105	171.643	337.552	149.224	290.418	426.840	434.881	429.027	385.844	284.262	330.407	437.389	140.456	187.684	256.082	376.372	0.00076845	0.00054328	0.00017996	1566	7.5872e-06	4.8591e-06	1556.2	417.79	7.2681e-06	5.1401e-06	475.81	159.24	139.73	46.638	7.4639e-06	57.488	0.00078371	0.00086232	0.00024618	1595.6	9.1131e-06	9.49e-06	1580.1	427.26	8.8941e-06	9.8984e-06	485.98	163.1	142.76	48.35	9.6346e-06	59.552	278.558	226.828	233.425	152.449	300.337	289.235	152.385	157.361	323.305	294.452	156.541	160.843	161.400	165.899	306.062	164.836	-8191	255	
465.213	1	1	0	0	0.35579	0.087997	0.33238	0.010282	0.12581	0.1693	0.28264	0.15997	0.1754	0.09209	0.1914	0.21721	0.04759	0.21894	0.10924	0.26604	-3.1813	-3.0646	-3.3167	-3.55	-3.0458	-3.3854	-3.4083	-3.3125	-3.5479	-3.1562	-3.6458	-3.5208	-3.1688	-3.6021	-3.3521	-3.1729	323.836	179.676	210.075	325.610	156.142	273.041	427.042	192.748	284.757	418.620	470.593	163.918	246.025	489.701	383.993	367.452	0.00079867	0.00055088	0.00015835	1567.8	7.6591e-06	5.7882e-06	1553.7	416.78	6.8676e-06	5.2765e-06	473.55	159.74	139.2	46.807	6.989e-06	57.495	0.0008043	0.00087568	0.00023968	1592.6	9.087e-06	9.7705e-06	1577.4	426.1	9.0023e-06	1.0202e-05	485.73	163.11	142.55	48.289	9.1753e-06	59.498	277.782	227.248	229.546	152.504	299.117	286.966	152.282	157.342	312.217	284.417	156.549	160.644	161.421	165.885	301.983	165.067	-8191	255	
465.308	1	1	0	0	0.11881	0.38145	0.17915	0.25084	0.10028	0.15313	0.21486	0.17995	0.098279	0.052052	0.20388	0.11941	0.19637	0.21543	0.17275	0.34078	-3.1604	-2.9208	-3.25	-3.7562	-3.0771	-3.4396	-3.4062	-3.2438	-3.625	-3.3292	-3.4729	-3.6479	-3.2958	-3.7062	-3.3583	-3.1958	329.475	480.455	472.746	474.079	188.764	358.990	424.929	305.184	191.019	201.975	362.494	446.753	233.709	466.361	286.608	388.242	0.0007779	0.00060385	0.00019193	1564	8.7106e-06	5.8154e-06	1549.5	417.9	7.2343e-06	6.2848e-06	474.97	160.08	139.26	46.771	5.7173e-06	57.421	0.00080496	0.0008776	0.00023025	1591.6	9.1455e-06	9.4358e-06	1574.8	425.83	8.533e-06	9.8924e-06	485.47	162.79	142.49	48.282	8.9865e-06	59.488	280.679	215.334	233.413	152.464	294.245	281.287	152.167	157.113	303.499	283.591	156.462	160.788	161.364	165.893	305.366	164.977	-8191	255	
465.404	1	1	0	0	0.073555	0.23263	0.18755	0.29433	0.31113	0.24315	0.21951	0.40633	0.22609	0.044102	0.18518	0.28681	0.34416	0.12031	0.043659	0.22478	-3.2083	-3.1729	-3.3917	-3.8167	-3.0938	-3.3979	-3.525	-3.1229	-3.4833	-3.2146	-3.3042	-3.6646	-3.0479	-3.6	-3.3542	-3.2375	243.293	331.589	207.613	495.312	381.743	348.309	429.826	456.783	373.697	338.838	413.062	434.831	470.144	196.320	176.910	376.304	0.00082144	0.0005919	0.00013874	1559.4	7.1136e-06	4.7752e-06	1552.1	416.3	6.1891e-06	4.9608e-06	474.41	159.59	139.67	46.795	6.5433e-06	57.662	0.00080327	0.0008853	0.00023449	1591.2	8.9492e-06	9.5042e-06	1575.6	425.9	9.0564e-06	9.6459e-06	485.52	162.88	142.46	48.302	8.9845e-06	59.454	278.387	220.539	231.047	152.472	306.165	285.965	152.271	157.209	314.757	295.512	156.438	160.990	161.420	166.110	297.066	164.947	-8191	255	
465.524	1	1	0	0	0.16528	0.089162	0.06012	0.35239	0.15924	0.081424	0.17177	0.3437	0.19784	0.23962	0.11798	0.235	0.025584	0.26508	0.082642	0.16285	-3	-3.2208	-3.3563	-3.6333	-2.9688	-3.3688	-3.7562	-3.2125	-3.5062	-3.4125	-3.4333	-3.6083	-3.3417	-3.4	-3.375	-3.1208	376.080	168.102	354.462	424.275	160.928	389.597	452.419	476.047	464.553	334.304	412.461	486.299	371.437	442.024	238.223	356.461	0.00076489	0.00056358	0.00016636	1557.6	7.4806e-06	5.4671e-06	1543.9	416.05	7.2737e-06	5.7413e-06	473.05	158.68	139.29	46.644	6.1757e-06	57.438	0.00078006	0.00082638	0.00024635	1588.3	9.0437e-06	9.173e-06	1571.7	425.57	8.5559e-06	9.3776e-06	485.08	162.41	142.31	48.225	8.9965e-06	59.311	278.076	228.128	239.714	152.446	287.001	288.949	152.373	157.431	319.629	286.751	156.283	160.701	161.362	165.942	302.977	165.102	-8191	255	
465.621	1	1	0	0	0.16581	0.092694	0.20051	0.40038	0.099526	0.013786	0.19836	0.041794	0.067512	0.18403	0.1707	0.24592	0.11899	0.19899	0.024995	0.21885	-3.1917	-3.3812	-3.1125	-3.8312	-3.1521	-3.3333	-3.7521	-3.2687	-3.5104	-3.3708	-3.15	-3.775	-3.2562	-3.3896	-3.4813	-3.2521	200.453	486.081	189.281	462.402	336.035	490.036	415.305	499.155	141.029	171.253	178.042	448.965	470.856	461.877	440.387	460.149	0.00079386	0.00057414	0.00017003	1559.7	7.566e-06	5.68e-06	1544	414.82	6.3286e-06	4.938e-06	474.62	159.6	139.06	46.63	7.6346e-06	57.33	0.00079203	0.00082547	0.00023615	1589.5	8.6234e-06	9.1105e-06	1571.3	424.36	8.8226e-06	9.51e-06	484.96	162.44	142.21	48.193	9.0924e-06	59.254	278.413	224.729	239.071	152.269	302.816	293.813	152.185	157.324	312.906	268.992	156.571	160.839	161.200	165.836	303.034	164.849	-8191	255	
465.717	1	1	0	0	0.21346	0.037881	0.086335	0.24775	0.31697	0.27423	0.072363	0.30653	0.34956	0.027775	0.073151	0.18703	0.16323	0.13663	0.2187	0.25328	-2.9042	-3.3292	-3.125	-3.7625	-3.0771	-3.2313	-3.7458	-3.1979	-3.3688	-3.2667	-3.0729	-3.4917	-3.5229	-3.1167	-3.5938	-3.2083	258.643	352.106	335.208	473.183	449.987	168.234	476.100	156.802	372.599	221.282	394.121	425.972	466.283	367.996	493.862	431.314	0.00081388	0.00044458	0.00016792	1558.9	6.3868e-06	5.7868e-06	1546.1	416.47	6.9593e-06	5.5863e-06	470.26	158.95	138.38	46.356	6.0795e-06	57.406	0.00080931	0.00082477	0.00024113	1586.7	8.7404e-06	9.4971e-06	1571	424.86	8.6476e-06	9.255e-06	483.73	162.4	141.94	48.124	8.5312e-06	59.259	278.105	226.570	231.272	152.390	314.423	296.177	152.179	157.347	312.859	278.417	156.635	161.129	161.368	165.906	307.492	164.930	-8191	255	
465.837	1	1	0	0	0.24098	0.037439	0.20941	0.35885	0.1125	0.27407	0.2304	0.073203	0.14265	0.051075	0.14912	0.13857	0.17882	0.14405	0.18631	0.38263	-3.0187	-3.4375	-2.9625	-3.5563	-3.2833	-3.1813	-3.6667	-3.2792	-3.3688	-3.4417	-3.2521	-3.4125	-3.2854	-3.2479	-3.4604	-3.3125	380.299	402.768	238.871	460.080	306.854	217.864	420.118	421.501	434.983	251.916	401.694	459.603	468.675	492.604	193.187	430.636	0.0008033	0.00066542	0.0001792	1554.1	8.7988e-06	5.7834e-06	1546.7	416.2	7.0512e-06	6.2619e-06	472.62	159	138.71	46.379	4.6772e-06	57.244	0.00078664	0.00079845	0.00022979	1583.5	8.7476e-06	9.2072e-06	1571.3	424.56	8.2635e-06	9.51e-06	483.78	162.17	142.17	48.167	8.7499e-06	59.179	279.589	231.127	237.685	152.380	293.181	292.838	152.183	157.433	315.198	294.047	156.382	160.913	161.281	165.869	298.502	165.144	-8191	255	
465.909	1	1	0	0	0.18552	0.15131	0.1168	0.12983	0.14113	0.2163	0.15902	0.2512	0.14948	0.07289	0.097991	0.32766	0.29791	0.10867	0.41179	0.21845	-2.7646	-3.4146	-3.1792	-3.5187	-3.4792	-3.025	-3.8854	-3.3937	-3.2354	-3.5333	-3.2792	-3.5375	-3.425	-3.2042	-3.5083	-3.3	429.859	376.750	227.052	482.548	145.267	316.703	492.113	421.508	458.672	251.423	441.129	170.457	498.263	160.851	429.716	440.493	0.00075736	0.00054001	0.00016111	1556.5	7.2628e-06	5.6467e-06	1540.1	416.69	8.3784e-06	4.4616e-06	472.9	158.43	138.46	46.489	7.2906e-06	57.302	0.00076628	0.00078671	0.00024438	1585.5	8.636e-06	9.7057e-06	1566.7	423.97	8.7337e-06	9.2987e-06	484.22	161.98	141.91	48.151	8.9775e-06	59.159	278.847	212.674	232.765	152.398	300.722	309.702	152.238	157.283	309.272	303.824	156.589	160.933	161.043	165.693	304.437	164.990	-8191	255	
466.005	1	1	0	0	0.31717	0.22872	0.20047	0.21958	0.18523	0.23758	0.35338	0.25253	0.24623	0.058538	0.14611	0.067197	0.055553	0.14932	0.076617	0.11645	-2.7354	-3.475	-3.0771	-3.5375	-3.4333	-3.0667	-3.6542	-3.2896	-3.0875	-3.5479	-3.1917	-3.3646	-3.4938	-3.2042	-3.3833	-3.4146	346.223	456.857	267.591	407.316	271.399	199.334	409.424	440.080	163.154	330.076	155.457	212.626	152.138	402.861	444.405	408.430	0.00076286	0.00040379	0.00016967	1555.3	9.0241e-06	5.8929e-06	1539.7	416.62	6.4557e-06	5.9556e-06	473.24	158.77	139.06	46.651	5.9493e-06	57.435	0.00076893	0.00078407	0.00022868	1582.2	8.5001e-06	9.523e-06	1566.8	424.27	8.6311e-06	9.5949e-06	483	162.13	141.96	48.08	8.636e-06	59.178	279.799	210.396	218.270	152.447	302.185	277.068	152.299	157.307	314.788	295.282	156.558	160.985	161.303	165.871	305.460	165.005	-8191	255	
466.100	1	1	0	0	0.11236	0.080762	0.09817	0.20872	0.2982	0.193	0.22428	0.15895	0.24419	0.24477	0.20076	0.15663	0.10598	0.26186	0.4387	0.18148	-2.6979	-3.475	-3.0521	-3.4604	-3.5167	-3.0187	-3.6063	-3.5312	-3.05	-3.5625	-3.1542	-3.2438	-3.7646	-3.1583	-3.4062	-3.5083	384.290	208.420	258.454	149.004	218.136	228.759	497.019	430.875	439.286	382.638	176.087	400.317	387.349	444.733	304.251	478.808	0.00079343	0.00049675	0.00014511	1549.4	7.2564e-06	5.5871e-06	1538.6	416.1	6.5527e-06	5.4784e-06	472.47	158.54	138.64	46.432	6.0274e-06	57.117	0.00077328	0.00081626	0.00022301	1581	8.7197e-06	9.4523e-06	1566.2	424.37	8.7108e-06	9.3412e-06	483.44	162.08	141.87	48.027	8.4762e-06	59.134	278.745	233.217	238.770	152.574	293.789	294.527	152.368	157.405	306.784	303.821	156.735	160.687	161.437	165.780	302.603	165.038	-8191	255	
466.220	1	1	0	0	0.20597	0.17236	0.16206	0.18876	0.11159	0.27874	0.17794	0.36403	0.071681	0.059261	0.14775	0.22687	0.37727	0.09737	0.10277	0.087861	-2.6146	-3.5458	-3.1354	-3.3875	-3.5083	-3.1979	-3.6979	-3.5229	-3.0229	-3.6312	-3.4542	-3.2062	-3.4313	-3.2896	-3.2708	-3.4583	355.819	402.166	322.275	158.544	275.540	322.674	466.541	463.483	480.280	484.726	175.879	457.128	452.599	421.387	338.109	292.638	0.00080636	0.00069035	0.00016441	1550.6	8.1192e-06	6.262e-06	1535	413.78	7.6277e-06	5.9937e-06	472.45	158.35	138.15	46.531	6.2013e-06	57.156	0.00079842	0.00082406	0.00022586	1581.9	8.6315e-06	9.4488e-06	1564.6	423.18	9.0234e-06	9.3934e-06	482.86	161.9	141.69	48.11	8.4762e-06	59.097	277.273	225.549	227.903	152.500	301.388	307.303	152.230	157.530	317.209	293.278	156.605	160.984	161.252	166.091	290.208	164.802	-8191	255	
466.316	1	1	0	0	0.2824	0.27104	0.073589	0.11721	0.043202	0.13287	0.1196	0.20371	0.11716	0.19594	0.11721	0.10314	0.35145	0.37761	0.24031	0.27011	-2.6937	-3.4042	-3.0958	-3.2021	-3.5333	-3.0625	-3.5167	-3.4396	-2.8688	-3.6292	-3.3333	-3.3187	-3.4979	-3.2417	-3.3271	-3.7167	411.993	445.502	416.802	413.832	215.582	378.919	419.399	485.760	421.207	424.408	372.875	384.749	158.007	159.597	292.922	485.634	0.0007813	0.00065854	0.00016793	1555.6	7.7151e-06	4.1405e-06	1538.3	415.32	6.9607e-06	4.7085e-06	469.68	158.57	138.45	46.366	5.8109e-06	57.23	0.00078233	0.00082962	0.0002191	1582.4	8.4433e-06	9.2838e-06	1565.2	424	8.8025e-06	9.4505e-06	481.9	162.07	141.67	47.968	8.7908e-06	59.1	279.091	227.898	231.510	152.488	301.381	289.870	152.274	157.342	316.647	289.277	156.697	160.819	161.329	165.698	297.047	164.836	-8191	255	
466.413	1	1	0	0	0.15726	0.27911	0.21725	0.062268	0.19835	0.15651	0.22383	0.082084	0.16602	0.10117	0.19058	0.015559	0.28631	0.18873	0.018109	0.25348	-2.6375	-3.4854	-3.35	-3.3542	-3.5938	-3.1271	-3.4479	-3.6083	-3.1083	-3.5021	-3.325	-3.175	-3.6354	-3.3396	-3.225	-3.6292	464.953	262.080	385.547	464.979	248.230	440.713	466.448	452.649	484.842	338.302	410.297	438.222	494.470	472.115	273.137	155.025	0.00079283	0.00065019	0.00012892	1550.9	8.0916e-06	6.2025e-06	1533.6	414.36	6.6609e-06	4.5615e-06	472.56	157.63	138.73	46.576	5.799e-06	57.262	0.00078363	0.00079926	0.00022794	1581.1	8.6045e-06	8.8465e-06	1562.3	422.8	8.6274e-06	9.3291e-06	482.41	161.6	141.49	48.004	8.645e-06	59.165	281.213	230.464	230.739	152.251	300.310	290.020	152.419	157.318	307.554	284.040	156.528	161.050	161.410	165.773	287.769	165.021	-8191	255	
466.484	1	1	0	0	0.26779	0.051531	0.14168	0.085559	0.22639	0.091853	0.3836	0.16946	0.051599	0.31259	0.11897	0.26737	0.20482	0.19785	0.14116	0.10567	-2.6396	-3.3688	-3.4146	-3.3208	-3.5208	-3.1979	-3.2729	-3.6979	-3.1354	-3.45	-3.5812	-3.075	-3.3688	-3.325	-3.1604	-3.6771	329.563	337.796	342.498	472.835	204.895	430.167	405.972	374.902	270.875	288.859	170.804	225.095	441.530	417.507	153.643	365.996	0.00079117	0.00048417	0.00018274	1546.1	6.0494e-06	6.163e-06	1536.9	414.08	7.317e-06	6.5929e-06	471.44	158.31	138.41	46.425	6.8716e-06	57.353	0.0007911	0.0007695	0.00022531	1577.7	8.419e-06	9.0858e-06	1562.7	422.64	8.786e-06	9.5755e-06	482.35	161.67	141.48	48.058	8.8268e-06	59.165	278.059	230.164	231.173	152.417	290.496	273.483	152.357	157.378	319.246	291.855	156.482	160.886	161.379	165.958	293.728	164.889	-8191	255	
466.605	1	1	0	0	0.0038438	0.18527	0.15605	0.24879	0.24481	0.30975	0.20029	0.076352	0.16579	0.029718	0.09297	0.1129	0.014558	0.095767	0.25368	0.089453	-2.7687	-3.2625	-3.2938	-3.4229	-3.4521	-3.2771	-3.4667	-3.7667	-2.9104	-3.1396	-3.6375	-3.0687	-3.4437	-3.1813	-3.0417	-3.5458	161.180	410.345	173.228	421.606	247.060	196.233	391.352	206.922	408.447	461.277	488.173	451.797	482.437	438.911	141.914	464.547	0.00077464	0.00059509	0.00013331	1545.1	8.0335e-06	6.495e-06	1537.1	414.98	6.3631e-06	5.1037e-06	470.52	158.09	138.5	46.506	7.1069e-06	57.055	0.00078683	0.00077436	0.00022913	1577.4	8.4614e-06	9.1777e-06	1562.1	422.7	8.5036e-06	9.6933e-06	482.08	161.62	141.67	48.014	8.6051e-06	59.024	278.906	215.561	228.433	152.277	297.347	281.836	152.184	157.293	302.222	288.329	156.461	160.863	161.543	165.806	290.039	165.137	-8191	255	
466.701	1	1	0	0	0.18578	0.34348	0.068081	0.25099	0.16614	0.083011	0.39248	0.27661	0.053133	0.11171	0.25768	0.19016	0.18445	0.27143	0.13929	0.15982	-2.7125	-3.175	-3.5208	-3.1833	-3.375	-3.4146	-3.1396	-3.5375	-3.1813	-2.9583	-3.4958	-3.1708	-3.4521	-3.5312	-3.125	-3.6562	158.156	187.840	240.574	480.018	341.831	465.053	419.632	408.714	236.096	199.368	470.761	157.801	477.950	446.683	280.806	487.804	0.00077278	0.00063039	0.00017126	1546.4	6.9599e-06	5.0374e-06	1535.7	414.39	6.6087e-06	6.1164e-06	468.22	157.84	138.76	46.244	5.7019e-06	57.15	0.00077813	0.00077547	0.00022306	1575.5	8.1598e-06	8.6238e-06	1560.7	423.03	8.7548e-06	9.2478e-06	481	161.67	141.63	47.907	8.9346e-06	59.053	279.156	233.438	237.715	152.464	299.168	302.449	152.188	157.442	313.937	288.829	156.625	161.037	161.486	165.812	301.229	164.838	-8191	255	
466.797	1	1	0	0	0.046762	0.06074	0.084498	0.28667	0.18297	0.066798	0.19172	0.13143	0.1545	0.22356	0.26963	0.30778	0.20529	0.29075	0.15247	0.059584	-2.6333	-2.9896	-3.575	-3.1458	-3.1417	-3.3917	-3.2438	-3.6271	-3.2042	-3.0333	-3.6917	-3.3063	-3.5125	-3.5854	-2.9562	-3.5625	315.036	441.860	393.889	416.723	465.521	334.242	430.425	342.553	393.717	452.480	488.060	436.754	446.583	148.401	492.819	196.454	0.00076288	0.00057429	0.0001741	1546.3	7.2191e-06	4.0474e-06	1534.8	414.3	5.949e-06	6.8019e-06	472.38	158.06	138.38	46.393	8.5343e-06	57.086	0.00076416	0.00078124	0.00022053	1576.9	8.3146e-06	9.0575e-06	1561	422.6	8.2882e-06	9.2648e-06	481.71	161.21	141.35	47.972	8.8907e-06	58.912	278.153	215.370	219.365	152.441	291.823	289.211	152.321	157.541	310.011	301.133	156.372	160.919	161.493	165.883	297.316	165.175	-8191	255	
466.918	1	1	0	0	0.25637	0.13295	0.14541	0.45646	0.10228	0.0826	0.28611	0.3742	0.1324	0.07782	0.13389	0.45327	0.1235	0.076923	0.047151	0.075258	-2.8125	-3.1354	-3.5792	-3.2938	-3.2687	-3.3958	-3.3979	-3.6042	-3.3396	-3.0333	-3.7	-3.4208	-3.3708	-3.4271	-3.0667	-3.3458	164.052	409.652	457.577	424.892	149.049	254.389	443.899	436.819	475.572	166.504	436.995	477.499	419.111	239.340	481.287	441.017	0.00076947	0.00070186	0.00017337	1547.5	7.7974e-06	4.6589e-06	1534	413.24	7.1672e-06	5.7718e-06	471.22	157.78	138.88	46.402	5.9201e-06	57.205	0.00078056	0.00084369	0.00021371	1577.3	8.5037e-06	8.9514e-06	1561.8	422.35	8.6787e-06	9.0924e-06	482.03	161.46	141.62	47.99	8.7179e-06	59.024	278.115	219.680	235.259	152.470	299.002	287.795	152.218	157.359	317.995	286.391	156.529	160.802	161.388	166.148	299.282	165.082	-8191	255	
467.012	1	1	0	0	0.085864	0.23144	0.048318	0.078509	0.15341	0.12332	0.35814	0.23391	0.11524	0.23188	0.13586	0.26248	0.16821	0.19667	0.29913	0.20865	-3.0125	-3.0271	-3.4021	-3.3292	-3.1021	-3.5521	-3.1958	-3.3792	-3.3812	-2.9875	-3.6437	-3.2687	-3.1813	-3.6083	-3.125	-3.5708	451.182	392.896	353.392	339.858	496.120	178.535	450.048	152.502	495.273	261.929	405.461	238.712	464.918	154.120	331.518	443.851	0.00076466	0.00047963	0.00014874	1547.6	8.98e-06	6.399e-06	1539.4	414.15	6.2227e-06	5.4739e-06	470.12	158.11	138.49	46.502	7.0689e-06	56.878	0.00076374	0.00084045	0.00021864	1576.5	8.6315e-06	9.3038e-06	1561.7	422.52	8.3817e-06	9.5561e-06	481.68	161.51	141.51	47.991	8.5971e-06	59.025	277.967	222.407	225.641	152.438	292.580	287.638	152.157	157.430	304.682	295.508	156.587	160.623	161.252	165.780	293.713	165.111	-8191	255	
467.086	1	1	0	0	0.070488	0.15772	0.24863	0.20779	0.22715	0.15446	0.21069	0.11532	0.026082	0.1279	0.26963	0.14144	0.17723	0.26164	0.25284	0.077904	-2.9437	-3.0687	-3.3771	-3.4625	-3.1854	-3.6188	-3.1854	-3.6083	-3.3917	-3.0771	-3.7458	-3.3812	-3.0792	-3.5271	-3.0604	-3.2854	428.452	206.554	309.236	439.382	193.868	178.430	415.857	442.960	199.457	342.064	387.300	450.749	492.680	473.127	303.200	393.979	0.00077802	0.00049633	0.00015955	1545.7	9.0849e-06	5.4503e-06	1532.8	414.51	6.7422e-06	5.0591e-06	471.93	157.74	138.29	46.418	5.3778e-06	57.05	0.00077086	0.00081889	0.00021152	1576.6	8.6099e-06	9.0646e-06	1559.6	422.2	8.39e-06	9.6678e-06	482.06	161.33	141.41	47.945	8.3035e-06	58.924	278.257	210.204	232.629	152.281	302.254	291.533	152.408	157.314	318.060	281.322	156.497	160.761	161.495	165.782	298.445	164.905	-8191	255	
467.206	1	1	0	0	0.06325	0.13949	0.14517	0.2197	0.20474	0.16364	0.28346	0.35735	0.29572	0.079237	0.19808	0.13766	0.17024	0.30333	0.10108	0.33199	-3.1583	-2.8729	-3.3542	-3.7	-3.0938	-3.4437	-3.45	-3.3375	-3.2958	-3.2271	-3.5938	-3.5667	-3.1896	-3.5354	-3.2271	-3.3854	489.389	389.092	442.453	446.617	330.575	324.652	419.622	420.704	219.630	441.060	440.373	463.355	405.069	419.225	245.142	461.310	0.0007861	0.00051436	0.00014143	1548.8	6.2879e-06	5.4104e-06	1529.2	414.42	7.1815e-06	5.2901e-06	469.89	157.55	137.82	46.406	7.3002e-06	57.011	0.00077474	0.00084228	0.00021038	1574.5	8.3902e-06	8.5648e-06	1558	422.32	8.4963e-06	9.3376e-06	481.32	161.22	141.29	47.919	8.4932e-06	58.92	279.471	218.726	225.047	152.472	299.445	304.585	152.222	157.292	312.666	286.321	156.650	160.978	161.529	165.731	292.316	164.737	-8191	255	
467.301	1	1	0	0	0.13205	0.039502	0.28373	0.18288	0.071542	0.24821	0.33405	0.12226	0.17432	0.1841	0.26521	0.14985	0.098651	0.28181	0.070749	0.21913	-3.1958	-3.1042	-3.3563	-3.7979	-3.1312	-3.4521	-3.4042	-3.2917	-3.5938	-3.1875	-3.5417	-3.475	-3.1625	-3.6604	-3.3583	-3.1688	455.393	269.544	278.795	156.460	494.893	453.580	456.597	325.932	376.021	141.714	442.566	488.351	201.774	464.934	395.868	365.464	0.00078709	0.0005902	0.00015539	1542.4	6.6272e-06	6.4002e-06	1531.1	415.05	6.8856e-06	6.3503e-06	469.59	157.82	138.55	46.334	6.9044e-06	56.941	0.0007702	0.00079146	0.00021232	1572.4	8.4578e-06	8.8041e-06	1557.7	422.2	8.3322e-06	9.4942e-06	481.8	161.09	141.29	47.868	8.3884e-06	58.927	278.139	226.116	241.998	152.636	302.151	295.163	152.344	157.329	321.236	291.772	156.546	160.845	161.278	165.838	304.156	165.309	-8191	255	
467.397	1	1	0	0	0.32709	0.20022	0.081789	0.16169	0.11921	0.14951	0.26481	0.3096	0.062462	0.15676	0.13494	0.23783	0.35148	0.14151	0.14298	0.16239	-3.2667	-3.0479	-3.2125	-3.4562	-3.0146	-3.3375	-3.5854	-3.1625	-3.5854	-3.2521	-3.45	-3.5583	-3.1708	-3.6271	-3.3375	-3.1208	464.352	302.337	154.238	454.533	384.229	225.271	450.044	453.247	159.006	361.813	205.518	444.032	147.840	495.051	173.708	238.126	0.00075268	0.00055478	0.00015576	1546.5	6.9478e-06	6.757e-06	1534.1	411.32	5.4845e-06	5.1319e-06	470.62	157.63	138.16	46.267	7.5582e-06	57.026	0.00075284	0.00080735	0.00022919	1573	8.4289e-06	8.6615e-06	1557.9	421.27	8.3964e-06	9.0074e-06	480.92	161.06	141.26	47.919	9.0624e-06	58.898	279.257	224.126	223.392	152.527	301.726	277.998	152.286	157.525	321.388	293.689	156.450	160.634	161.427	165.879	294.354	164.913	-8191	255	
467.517	1	1	0	0	0.24277	0.04076	0.23032	0.21358	0.096061	0.026147	0.2468	0.050566	0.048361	0.15351	0.1899	0.04081	0.11059	0.11579	0.089795	0.15974	-3.2042	-3.1063	-3.3438	-3.7438	-3.2438	-3.2875	-3.5917	-3.2021	-3.4729	-3.2604	-3.3812	-3.7104	-3.2604	-3.3604	-3.4437	-3.2	213.471	361.724	140.860	448.450	164.474	157.864	444.215	229.494	498.700	394.003	182.459	344.459	325.984	456.055	473.072	497.945	0.00076801	0.00058079	0.00016408	1543.1	7.6909e-06	4.6724e-06	1526.7	412.67	6.9111e-06	5.5389e-06	471	158.41	138.28	46.321	5.5679e-06	57.062	0.00076254	0.00077183	0.0002189	1573.8	8.4127e-06	8.5849e-06	1556.2	421.67	8.1957e-06	9.2174e-06	481.43	161.12	141.19	47.888	8.1147e-06	58.92	278.914	218.951	234.920	152.385	297.555	291.621	152.356	157.185	316.872	290.220	156.593	160.973	161.342	165.901	281.385	165.305	-8191	255	
467.614	1	1	0	0	0.084922	0.13147	0.17371	0.18168	0.1549	0.067464	0.21261	0.25842	0.16838	0.2026	0.18815	0.11547	0.089955	0.24683	0.18664	0.35094	-3.1437	-3.2854	-3.0771	-3.7958	-3.1	-3.4938	-3.4667	-3.2062	-3.5125	-3.3604	-3.2313	-3.8167	-3.1396	-3.5021	-3.4521	-3.1312	366.513	447.750	266.331	499.487	175.177	245.308	459.496	461.651	160.746	337.386	149.708	473.203	205.510	156.859	430.624	462.171	0.00080039	0.00062772	0.00012792	1541.2	7.9363e-06	6.5267e-06	1527.8	414.43	6.3284e-06	6.0046e-06	470.34	157.41	138.14	46.413	7.6056e-06	57.094	0.00077139	0.00080685	0.00022001	1572	8.3803e-06	8.5872e-06	1554.9	422.26	7.8061e-06	9.1094e-06	480.56	161.04	141.31	47.886	8.623e-06	58.91	279.112	233.858	241.946	152.413	289.453	290.040	152.221	157.570	312.834	278.229	156.551	160.854	161.512	165.827	294.568	164.883	-8191	255	
467.710	1	1	0	0	0.092579	0.24018	0.020712	0.18027	0.088644	0.080259	0.10611	0.29829	0.23693	0.099143	0.25378	0.32204	0.1344	0.23395	0.29916	0.11968	-3.1042	-3.2667	-3.0104	-3.8438	-3.1917	-3.4604	-3.825	-3.0125	-3.4813	-3.4188	-3.2896	-3.6708	-3.2667	-3.2812	-3.6542	-3.2146	145.007	411.178	181.158	165.227	403.858	340.670	440.917	459.100	176.646	319.483	496.364	454.345	229.379	430.069	495.207	458.030	0.00076611	0.00054415	0.0001618	1538.4	6.6051e-06	4.8832e-06	1532	412.09	6.8481e-06	6.3768e-06	469.83	157.93	138.06	46.503	6.6766e-06	57.053	0.00074734	0.00079774	0.00022298	1570.5	8.3938e-06	8.6026e-06	1555.2	421.69	7.8088e-06	9.1689e-06	481.24	161.05	141.22	47.956	8.2665e-06	58.791	278.483	230.292	237.772	152.400	285.994	292.405	152.172	157.344	320.201	288.723	156.488	160.735	161.161	166.027	305.968	165.136	-8191	255	
467.781	1	1	0	0	0.096739	0.16115	0.067042	0.37931	0.13188	0.07686	0.18819	0.32465	0.12691	0.039874	0.2429	0.068249	0.10375	0.19792	0.086002	0.23454	-2.9729	-3.2729	-3.3083	-3.6937	-3.1604	-3.25	-3.6063	-3.2354	-3.3937	-3.1854	-3.1042	-3.6375	-3.3396	-3.4167	-3.6042	-3.175	305.392	250.896	420.941	169.004	157.345	475.526	142.586	434.791	258.269	165.593	450.195	459.997	209.137	470.496	325.788	427.831	0.00079933	0.00056009	0.00014576	1538.3	8.1458e-06	5.0166e-06	1530.8	413.03	6.1688e-06	6.3649e-06	471.05	157.93	138.38	46.2	6.605e-06	57.207	0.00077363	0.0007615	0.00022608	1570.1	8.492e-06	8.5377e-06	1554.9	421.36	7.8996e-06	9.1069e-06	481.01	161.04	141.24	47.854	8.5302e-06	58.942	277.904	235.503	232.123	152.552	298.599	298.042	152.249	157.174	303.309	296.770	156.513	160.952	161.247	166.047	306.918	164.701	-8191	255	
467.902	1	1	0	0	0.097849	0.084646	0.078884	0.36929	0.22762	0.17578	0.093264	0.2547	0.07077	0.23693	0.20259	0.35111	0.20619	0.24873	0.30191	0.053531	-3.0208	-3.2917	-2.8479	-3.7146	-3.4021	-3.2313	-3.6146	-3.2208	-3.2667	-3.5146	-3.2062	-3.5021	-3.4417	-3.1292	-3.4521	-3.3083	262.610	222.122	450.687	442.988	208.923	455.492	494.531	450.806	228.151	229.228	211.043	142.073	385.478	440.090	234.430	261.480	0.00078715	0.00052669	0.00014834	1544.6	7.5684e-06	5.5609e-06	1525.9	412.74	6.5111e-06	7.2046e-06	470.28	157.57	138.02	46.183	6.8313e-06	57.051	0.00077062	0.00078023	0.0002118	1572.1	8.0383e-06	8.9738e-06	1556.6	421.46	8.5577e-06	9.3072e-06	479.94	160.96	140.99	47.876	8.3604e-06	58.823	278.133	236.950	248.605	152.528	295.171	280.966	152.251	157.389	306.870	291.250	156.592	160.867	161.426	165.841	302.995	165.091	-8191	255	
467.998	1	1	0	0	0.1668	0.12388	0.04811	0.27871	0.090198	0.14666	0.12912	0.11414	0.091874	0.15062	0.062988	0.17776	0.070771	0.089153	0.18212	0.43483	-2.9771	-3.3917	-3.0792	-3.5	-3.3229	-2.9771	-3.7542	-3.4146	-3.1021	-3.4688	-3.2375	-3.6083	-3.5792	-3.2792	-3.5125	-3.4062	408.716	158.843	144.151	486.129	365.642	350.764	450.107	451.451	311.402	423.933	210.037	348.411	156.160	172.645	467.163	451.363	0.0007839	0.00059226	0.00014475	1548.6	6.7926e-06	5.7666e-06	1535.4	413.98	5.9829e-06	4.4584e-06	470.59	158.02	137.87	46.507	5.062e-06	57.059	0.00078117	0.00078792	0.00021924	1573.9	8.0392e-06	9.3026e-06	1557.5	421.68	8.61e-06	9.0487e-06	481.15	161.1	141.1	47.912	8.4373e-06	58.858	279.130	221.911	239.050	152.541	293.449	280.935	152.181	157.522	312.111	279.254	156.533	160.912	161.282	165.939	299.340	164.854	-8191	255	
468.093	1	1	0	0	0.12613	0.15706	0.14092	0.11291	0.11178	0.22791	0.34927	0.32345	0.18492	0.17192	0.1261	0.17883	0.26042	0.18773	0.1855	0.14238	-2.7875	-3.3604	-3.0104	-3.4688	-3.4313	-3.0938	-3.7604	-3.425	-3.2021	-3.425	-3.3229	-3.3479	-3.4875	-3.0104	-3.5104	-3.2313	438.403	216.539	428.337	176.858	493.751	205.808	463.416	428.225	400.913	264.518	487.740	445.055	142.269	174.158	223.620	385.025	0.00077165	0.00058791	0.00016588	1544.5	8.3248e-06	4.0635e-06	1533.7	412.65	6.9936e-06	6.5579e-06	470.28	158.14	138.3	46.471	5.6576e-06	56.737	0.00077825	0.00077243	0.00021765	1573.4	8.5316e-06	9.2791e-06	1556.9	421.19	8.5935e-06	8.659e-06	481.1	161.11	141.17	47.895	8.4912e-06	58.795	279.384	236.150	238.480	152.505	299.055	293.587	152.390	157.454	306.856	285.378	156.616	160.908	161.436	165.896	312.419	164.992	-8191	255	
468.189	1	1	0	0	0.11404	0.17863	0.13208	0.18569	0.066544	0.10355	0.33293	0.13885	0.098185	0.2207	0.26813	0.15516	0.18891	0.28101	0.11522	0.17493	-2.5896	-3.5167	-3.0604	-3.4354	-3.5042	-3.1833	-3.5458	-3.2833	-2.9146	-3.5708	-3.3292	-3.3104	-3.675	-3.0729	-3.5208	-3.3812	327.094	283.297	183.534	432.091	303.548	171.923	379.742	434.260	388.813	309.636	471.013	494.886	457.002	487.396	154.097	427.711	0.0007753	0.00061908	0.00016369	1540.4	6.7972e-06	4.6012e-06	1530.4	413.29	6.8608e-06	6.4734e-06	468.36	157.21	138.28	46.335	7.799e-06	56.97	0.00077736	0.00078924	0.00022888	1572.3	8.2912e-06	8.8866e-06	1557.2	421.66	8.4386e-06	8.8435e-06	480.14	160.98	141.25	47.895	8.7349e-06	58.8	279.069	216.515	235.982	152.391	300.401	292.800	152.117	157.279	312.656	280.894	156.636	160.934	161.339	165.788	306.711	165.010	-8191	255	
468.309	1	1	0	0	0.037295	0.13845	0.033499	0.071063	0.3283	0.39657	0.33929	0.39586	0.10651	0.24969	0.19681	0.11694	0.27376	0.24989	0.14343	0.16242	-2.7	-3.4938	-3.15	-3.3854	-3.4542	-3.1646	-3.5563	-3.5604	-3.175	-3.3417	-3.3792	-3.1979	-3.7125	-3.2625	-3.3583	-3.5021	308.567	140.402	499.215	423.606	331.605	366.901	459.526	487.908	181.542	315.300	430.087	270.850	374.869	390.432	308.962	384.747	0.00078545	0.00049555	0.00014962	1542.4	7.8068e-06	5.4621e-06	1531.6	414.51	5.6224e-06	6.1274e-06	469.79	157.81	138.01	46.337	6.4868e-06	56.607	0.00077644	0.00074288	0.00021522	1572.1	8.2984e-06	8.7935e-06	1554.3	421.32	8.2525e-06	8.8277e-06	480.74	160.94	141.13	47.829	8.4653e-06	58.637	278.851	226.461	223.387	152.318	293.468	288.973	152.484	157.206	311.942	297.765	156.770	160.995	161.323	166.036	310.523	165.153	-8191	255	
468.381	1	1	0	0	0.18448	0.11757	0.09872	0.087106	0.18382	0.093495	0.17651	0.18324	0.20807	0.10842	0.080064	0.12558	0.079536	0.14954	0.10989	0.28537	-2.7687	-3.4688	-3.3229	-3.4188	-3.5833	-3.1312	-3.4667	-3.775	-3.1771	-3.5	-3.4375	-3.2354	-3.6104	-3.2667	-3.2854	-3.5708	150.492	203.538	387.176	163.717	380.311	352.840	421.112	152.836	201.709	338.533	207.181	155.641	387.603	441.398	301.301	325.588	0.00078116	0.00059033	0.00016286	1538.3	7.1824e-06	5.1636e-06	1531.9	412.16	6.4705e-06	4.8521e-06	469.49	157.9	137.98	46.322	6.8278e-06	56.868	0.00077413	0.00077881	0.00021916	1569.5	8.059e-06	8.513e-06	1554.4	420.85	8.4688e-06	8.9054e-06	479.85	161.32	141.1	47.846	8.4952e-06	58.817	278.072	225.845	236.849	152.412	282.147	298.897	152.320	157.410	312.209	288.737	156.654	160.733	161.465	165.711	314.223	164.963	-8191	255	
468.477	1	1	0	0	0.22573	0.18571	0.039254	0.31145	0.13023	0.078859	0.12173	0.14136	0.23862	0.16203	0.1824	0.2786	0.24891	0.18295	0.11284	0.1313	-2.6271	-3.5083	-3.1896	-3.3833	-3.5583	-3.3333	-3.4437	-3.7417	-3.1292	-3.3563	-3.3688	-3.2917	-3.6875	-3.4271	-3.3542	-3.5312	461.129	213.558	276.667	489.655	267.721	307.791	429.262	464.290	172.993	170.836	484.713	152.462	435.398	164.388	187.101	423.053	0.00077555	0.00055204	0.00015305	1540.9	7.799e-06	4.4632e-06	1526.9	412.93	6.9558e-06	5.2314e-06	469.12	157.62	137.44	46.509	7.1779e-06	56.672	0.00076739	0.00078337	0.00022717	1569.1	8.2714e-06	8.7888e-06	1552.5	421.22	8.2534e-06	8.9686e-06	480.14	160.84	140.86	47.892	8.3135e-06	58.729	279.265	218.182	233.910	152.377	307.847	304.408	152.438	157.453	316.507	277.386	156.570	160.835	161.441	165.891	315.492	164.840	-8191	255	
468.598	1	1	0	0	0.12608	0.12144	0.12561	0.30792	0.099036	0.061001	0.34252	0.30911	0.084287	0.14236	0.021847	0.19424	0.34547	0.18737	0.051599	0.19924	-2.5729	-3.3667	-3.35	-3.3417	-3.5833	-3.2542	-3.3167	-3.6146	-3.0354	-3.2833	-3.6104	-2.9896	-3.55	-3.2521	-3.075	-3.7062	186.416	288.533	341.605	159.104	423.722	451.703	396.664	441.620	276.543	334.312	144.508	143.596	488.718	176.471	416.850	426.222	0.0007894	0.00071194	0.00015628	1541.8	7.5756e-06	3.9035e-06	1526.6	412.21	8.1651e-06	5.9793e-06	469.76	157.87	137	46.188	8.3514e-06	56.768	0.0007722	0.0007779	0.00021463	1570.2	8.2066e-06	8.8807e-06	1553.9	420.84	8.236e-06	9.1737e-06	480.03	161.04	140.79	47.801	8.5831e-06	58.737	279.427	237.998	215.507	152.480	302.902	297.841	152.388	157.340	313.624	285.667	156.500	160.822	161.198	165.948	313.801	164.947	-8191	255	
468.694	1	1	0	0	0.12142	0.10502	0.18891	0.47477	0.066645	0.11928	0.24751	0.052625	0.17181	0.04024	0.18711	0.11733	0.08438	0.030753	0.2684	0.13579	-2.6813	-3.15	-3.4	-3.2458	-3.4583	-3.3563	-3.2854	-3.5375	-3.1688	-3.3375	-3.6437	-3.2729	-3.6875	-3.4625	-3.0125	-3.6417	428.155	448.562	446.435	451.348	489.356	162.973	398.384	457.407	489.834	498.555	486.797	497.458	465.218	382.489	300.711	435.660	0.00079077	0.000519	0.00013275	1537.8	6.4464e-06	6.1532e-06	1529.3	412.83	7.3028e-06	5.0774e-06	469.04	157.58	138.17	46.251	6.5854e-06	56.851	0.00077266	0.00076292	0.00020693	1569.7	8.0833e-06	8.777e-06	1553.9	421.42	8.3405e-06	8.6456e-06	480.1	160.86	140.85	47.808	8.3434e-06	58.664	279.842	224.365	227.652	152.477	293.845	287.742	152.343	157.294	324.935	289.178	156.587	160.913	161.393	165.865	308.582	164.931	-8191	255	
468.790	1	1	0	0	0.098064	0.25915	0.016369	0.35993	0.094363	0.094468	0.14835	0.20721	0.16538	0.18378	0.21906	0.12413	0.29217	0.20556	0.19268	0.07867	-2.8646	-3.0708	-3.4542	-3.3458	-3.2604	-3.4625	-3.2917	-3.6188	-3.2042	-3.2208	-3.5187	-3.2854	-3.3958	-3.4833	-3.1813	-3.5187	448.351	215.406	218.463	471.798	163.736	293.736	141.202	444.946	277.956	368.906	466.009	282.474	440.678	481.138	278.303	275.343	0.00078723	0.00064759	0.00016548	1537.2	7.9497e-06	6.363e-06	1526	412.17	7.3475e-06	4.2356e-06	469.16	157.34	137.91	46.2	6.3807e-06	56.984	0.00075842	0.00080219	0.00020893	1567.5	8.3911e-06	9.0811e-06	1551.5	420.85	8.7383e-06	9.2575e-06	479.83	160.92	140.92	47.836	8.3025e-06	58.742	278.518	236.307	234.700	152.517	306.114	285.311	152.262	157.378	308.503	292.280	156.585	160.995	161.384	165.879	302.668	165.039	-8191	255	
468.886	1	1	0	0	0.11887	0.06866	0.26375	0.27657	0.12055	0.11627	0.32251	0.17212	0.17187	0.19319	0.20408	0.3429	0.19648	0.16614	0.22302	0.26127	-2.7604	-3.0917	-3.4833	-3.2833	-3.275	-3.375	-3.2188	-3.4771	-3.4104	-3.025	-3.7521	-3.2771	-3.2479	-3.6375	-3.1792	-3.4604	230.510	304.034	215.102	473.163	190.787	264.802	432.640	388.661	250.672	141.225	493.577	498.665	415.684	492.430	290.486	460.542	0.00076736	0.00067428	0.0001916	1538.5	7.7906e-06	5.8305e-06	1526.8	412.52	7.2653e-06	5.4552e-06	470.29	157.14	137.86	46.224	5.1798e-06	56.89	0.00077132	0.00079237	0.00020893	1567.6	8.2066e-06	8.6662e-06	1552.7	420.21	8.4743e-06	9.2259e-06	480.26	160.62	140.94	47.773	8.3644e-06	58.614	279.332	225.915	230.163	152.459	295.258	311.396	152.313	157.309	311.645	284.465	156.551	160.958	161.427	165.879	296.736	164.996	-8191	255	
469.007	1	1	0	0	0.20144	0.057669	0.29997	0.30748	0.079072	0.13849	0.19237	0.083343	0.098183	0.11095	0.02537	0.0040743	0.10357	0.18246	0.18314	0.23906	-2.8333	-3.1479	-3.6625	-3.4229	-3.1375	-3.4354	-3.2854	-3.6937	-3.3521	-3.2917	-3.7188	-3.4458	-3.3583	-3.6833	-2.9146	-3.3646	334.531	252.103	227.265	392.710	398.023	372.182	429.701	439.503	214.531	354.682	413.617	495.426	230.752	148.948	448.757	364.320	0.0007759	0.00050528	0.00018428	1536.4	8.7356e-06	5.7061e-06	1521	413.52	5.8312e-06	5.2468e-06	470.51	157.4	137.34	46.324	6.2412e-06	56.609	0.00076143	0.00076514	0.0002126	1565.8	8.4343e-06	8.6096e-06	1550.2	421.03	8.1627e-06	9.0305e-06	480.1	161.01	140.71	47.871	8.3973e-06	58.643	279.103	225.077	236.929	152.506	296.076	301.149	152.436	157.449	324.870	287.358	156.669	160.935	161.291	166.045	289.752	165.109	-8191	255	
469.079	1	1	0	0	0.010046	0.10815	0.1379	0.2979	0.12921	0.1206	0.16777	0.30131	0.12999	0.079225	0.213	0.25002	0.12087	0.038499	0.17372	0.14227	-2.8979	-3.0917	-3.4979	-3.2938	-3.1833	-3.6667	-3.1979	-3.5458	-3.4542	-3.0708	-3.7188	-3.2812	-3.2146	-3.5896	-3.1813	-3.4792	431.161	226.863	191.216	452.878	450.591	206.237	497.884	411.748	389.673	286.474	493.888	469.105	491.229	205.318	298.220	407.774	0.00080318	0.00050177	0.00015296	1536.4	6.0876e-06	4.8909e-06	1527.6	411.88	5.9112e-06	7.1546e-06	469.68	157.64	138	46.375	7.3221e-06	56.821	0.00077101	0.00076069	0.00021494	1566.3	8.0644e-06	8.2926e-06	1551.2	420.07	7.9335e-06	9.0584e-06	479.59	160.67	140.8	47.862	8.5052e-06	58.685	279.868	216.805	227.227	152.502	296.039	300.556	152.364	157.368	319.759	284.935	156.516	160.857	161.470	165.910	304.487	165.033	-8191	255	
469.197	1	1	0	0	0.39658	0.096015	0.27269	0.39102	0.089934	0.23175	0.26328	0.26831	0.11843	0.01653	0.10695	0.044298	0.079153	0.22078	0.20078	0.10443	-2.7854	-3.1396	-3.3979	-3.4188	-3.2792	-3.5625	-3.4375	-3.2333	-3.4167	-2.9229	-3.5583	-3.5687	-3.325	-3.7208	-3.15	-3.4646	313.879	381.031	466.123	470.044	497.857	491.559	462.559	169.007	289.062	160.901	217.615	453.686	458.829	417.268	382.023	304.231	0.00075637	0.00044814	0.00012759	1537.9	8.4546e-06	5.9836e-06	1528	412.3	7.6404e-06	5.2313e-06	468.83	157.52	138.12	46.266	6.6661e-06	56.895	0.00074449	0.00077952	0.00021109	1567.4	8.4758e-06	8.3185e-06	1553.2	420.05	8.3808e-06	9.1822e-06	479.83	160.73	140.9	47.768	8.5531e-06	58.698	280.220	235.754	224.942	152.409	289.806	293.419	152.423	157.269	317.934	295.965	156.686	160.993	161.322	165.839	299.079	165.303	-8191	255	
469.294	1	1	0	0	0.34219	0.051029	0.1132	0.38581	0.13072	0.26264	0.096898	0.42853	0.078272	0.077767	0.14592	0.075712	0.28833	0.38501	0.26781	0.1867	-2.9313	-2.9333	-3.5104	-3.625	-3.0187	-3.6104	-3.3729	-3.1021	-3.6229	-3.0771	-3.4708	-3.6958	-3.025	-3.6229	-3.4021	-3.2938	451.005	418.933	319.896	488.553	252.995	261.283	182.918	487.386	462.190	335.284	445.480	204.918	486.785	448.114	335.409	486.208	0.00076311	0.00061014	0.00012963	1535.9	7.0208e-06	4.5399e-06	1525.1	412.89	5.4849e-06	6.1573e-06	468.18	156.6	138.08	46.07	6.561e-06	56.587	0.00075554	0.00075158	0.00022523	1566.9	8.3254e-06	8.401e-06	1549.2	420.82	7.9995e-06	9.113e-06	479.14	160.46	140.79	47.713	8.1876e-06	58.621	279.884	216.319	240.788	152.486	291.609	286.107	152.231	157.321	316.444	291.493	156.578	160.860	161.339	165.922	305.931	165.137	-8191	255	
469.390	1	1	0	0	0.41519	0.20843	0.2087	0.25717	0.10328	0.25981	0.20747	0.26208	0.076074	0.10129	0.24501	0.024007	0.2316	0.19845	0.25572	0.31029	-3.0292	-3.0875	-3.3854	-3.6688	-3.2542	-3.3979	-3.5458	-3.3083	-3.6917	-3.0938	-3.3229	-3.6188	-3.3563	-3.5667	-3.1958	-3.2104	461.990	271.541	267.696	422.369	495.852	442.368	439.501	391.874	390.813	175.145	430.723	426.135	231.103	476.675	376.531	139.408	0.00080296	0.00064994	0.00012217	1538.4	7.4577e-06	6.3665e-06	1523.7	412.39	6.6614e-06	5.6022e-06	468.06	157.02	137.22	46.233	6.3244e-06	56.654	0.00075808	0.00077608	0.00021024	1565.9	8.1724e-06	8.2549e-06	1549.5	420.56	7.9372e-06	8.9855e-06	478.9	160.81	140.59	47.762	8.5282e-06	58.548	279.827	231.133	232.271	152.422	299.925	282.059	152.079	157.360	313.263	301.422	156.496	160.986	161.409	165.935	295.597	165.118	-8191	255	
469.486	1	1	0	0	0.42486	0.22413	0.16315	0.44243	0.11764	0.18456	0.19832	0.21939	0.28675	0.25873	0.2021	0.1539	0.013564	0.24765	0.19855	0.073104	-3.0563	-3.1521	-3.2917	-3.7021	-2.8812	-3.4458	-3.5792	-3.3729	-3.575	-3.1583	-3.4125	-3.7021	-3.2083	-3.4188	-3.1854	-3.2271	419.064	301.652	211.987	140.491	200.953	432.453	452.366	438.137	440.997	484.700	486.126	148.012	478.360	141.503	160.904	367.963	0.00079354	0.00048595	0.00017019	1535.8	5.1935e-06	6.7927e-06	1522.2	412.21	7.4543e-06	6.8977e-06	468.58	156.93	137.6	46.173	7.4067e-06	56.763	0.00075904	0.00077405	0.00021246	1565.1	8.1211e-06	9.0693e-06	1549.4	420.6	7.9793e-06	8.9625e-06	478.87	160.6	140.84	47.746	8.3334e-06	58.581	280.148	234.933	231.729	152.641	280.694	285.226	152.311	157.275	314.371	305.102	156.699	160.814	161.393	165.946	304.885	164.977	-8191	255	
469.606	1	1	0	0	0.13846	0.012892	0.046465	0.23384	0.16278	0.073239	0.14259	0.0084883	0.40082	0.014091	0.18579	0.28381	0.33078	0.20835	0.033475	0.11868	-3.0396	-3.1125	-3.2104	-3.6354	-2.9146	-3.3667	-3.5208	-3.2896	-3.5	-3.3271	-3.3458	-3.6458	-3.1208	-3.5687	-3.4437	-3.1792	322.330	378.649	474.203	408.514	294.957	436.728	147.720	352.833	226.498	457.140	182.627	436.592	150.878	162.552	347.671	356.488	0.00079348	0.00066786	0.00019429	1538.6	7.1027e-06	6.5582e-06	1527.6	412.55	6.8905e-06	5.8509e-06	468.16	157.47	137.88	46.103	6.4887e-06	56.568	0.00076239	0.00078245	0.00022084	1566.8	8.0365e-06	8.6615e-06	1552.5	420.31	8.2772e-06	9.0669e-06	479.12	160.88	140.95	47.79	8.2775e-06	58.55	278.617	222.603	232.079	152.421	297.728	282.366	152.384	157.381	316.779	288.782	156.423	160.885	161.426	165.902	293.526	165.122	-8191	255	
469.678	1	1	0	0	0.040221	0.066439	0.15191	0.16155	0.16367	0.13845	0.11425	0.24414	0.088185	0.15377	0.15073	0.24558	0.070082	0.10622	0.28725	0.020532	-3.2021	-3.2792	-3.0021	-3.8187	-3.0938	-3.3521	-3.4479	-3.0646	-3.4708	-3.3812	-3.2542	-3.6625	-3.3875	-3.3187	-3.5187	-3.0167	228.355	211.303	392.434	485.294	346.821	412.113	227.363	391.188	437.196	429.210	253.904	489.390	166.189	191.127	260.968	273.642	0.00078754	0.00063562	0.00019979	1537.5	7.9077e-06	6.1927e-06	1524.9	412.18	6.3234e-06	5.992e-06	468.03	157.08	137.62	46.16	6.0695e-06	56.757	0.00076566	0.000811	0.00022531	1567.3	8.465e-06	8.7758e-06	1551.2	419.88	8.2827e-06	9.0596e-06	479.12	160.55	140.87	47.779	8.0608e-06	58.635	280.181	224.733	239.326	152.476	304.301	300.015	152.251	157.492	315.473	278.436	156.521	160.854	161.442	166.075	303.901	165.016	-8191	255	
469.774	1	1	0	0	0.014907	0.18692	0.15042	0.3593	0.052385	0.10436	0.33141	0.22481	0.1684	0.17847	0.15979	0.30144	0.12392	0.24328	0.21061	0.24321	-2.9958	-3.2521	-3.1792	-3.7271	-3.2062	-3.3312	-3.6771	-3.2417	-3.3438	-3.4854	-3.2146	-3.6125	-3.4458	-3.3125	-3.5604	-3.25	423.710	173.208	364.595	162.619	225.413	235.112	384.667	446.095	262.178	327.741	497.574	458.416	420.034	393.558	491.353	422.443	0.00074903	0.00070574	0.00015353	1533.3	6.4587e-06	5.6161e-06	1527.9	411.33	6.5787e-06	6.752e-06	467.85	157.06	137.64	46.19	5.6916e-06	56.597	0.00075642	0.00078225	0.00022366	1564.5	8.4307e-06	8.3303e-06	1550.4	420.06	8.4028e-06	8.9916e-06	478.95	160.82	140.89	47.796	8.0169e-06	58.593	279.585	220.299	244.319	152.546	290.393	281.662	152.293	157.390	309.141	282.659	156.686	160.937	161.446	165.964	309.438	165.020	-8191	255	
469.870	1	1	0	0	0.11427	0.22416	0.18273	0.094841	0.056612	0.18542	0.26741	0.21285	0.15714	0.11075	0.25918	0.38753	0.16131	0.12967	0.018629	0.27071	-2.8063	-3.3563	-3	-3.6375	-3.1833	-3.0958	-3.6688	-3.3375	-3.2958	-3.4979	-3.2812	-3.4083	-3.3	-3.2354	-3.5875	-3.0438	397.878	198.384	258.633	492.385	462.777	195.717	429.120	338.843	335.205	367.777	448.762	441.592	432.646	161.376	329.625	158.098	0.00077136	0.00059418	0.00013239	1536.8	7.6044e-06	5.3176e-06	1527.9	411.23	7.716e-06	5.5873e-06	468.61	156.53	137.48	46.37	6.8074e-06	56.596	0.00076239	0.00073842	0.00022073	1565.9	8.2048e-06	8.3598e-06	1550.4	420.32	7.8629e-06	8.4648e-06	479.25	160.7	140.82	47.849	7.9729e-06	58.548	278.626	215.349	235.297	152.612	301.421	284.909	152.247	157.431	309.508	309.309	156.536	160.974	161.184	165.963	303.449	165.278	-8191	255	
469.967	1	1	0	0	0.21277	0.28362	0.23228	0.37368	0.1531	0.15994	0.45618	0.33395	0.043322	0.16438	0.032972	0.035709	0.17161	0.074565	0.24131	0.12914	-3.0708	-3.3563	-3.025	-3.5563	-3.3354	-3.1	-3.7604	-3.1542	-3.1771	-3.4021	-3.275	-3.5542	-3.4542	-3.1583	-3.6729	-3.2875	320.323	154.559	419.598	445.772	210.966	423.280	428.105	352.044	241.364	335.973	494.002	229.447	374.700	358.222	161.864	377.158	0.00074104	0.00059647	0.00015532	1533.7	6.4817e-06	6.0456e-06	1519.7	411.83	6.231e-06	6.8937e-06	468.09	157.74	137.4	46.245	5.4978e-06	56.741	0.00073841	0.00076545	0.00021776	1565.1	8.0563e-06	8.4965e-06	1547.6	420.2	8.2919e-06	8.8472e-06	479.18	160.84	140.73	47.781	8.1407e-06	58.621	278.754	225.716	230.290	152.494	298.886	295.529	152.162	157.307	311.449	275.199	156.468	160.702	161.276	165.841	306.164	165.086	-8191	255	
470.085	1	1	0	0	0.041259	0.12299	0.26496	0.19797	0.26231	0.069489	0.34999	0.38159	0.1786	0.22484	0.21541	0.19221	0.28639	0.27968	0.18839	0.11677	-3.0062	-3.4271	-3.0187	-3.5458	-3.3083	-3.1417	-3.7146	-3.3521	-3.2167	-3.3708	-3.275	-3.3958	-3.5979	-3.0792	-3.5167	-3.2812	147.472	483.547	431.276	413.391	333.916	378.449	468.550	434.860	269.543	350.794	440.469	399.143	463.858	167.523	257.527	292.071	0.00078563	0.0005732	0.00011898	1536.2	6.9217e-06	5.1314e-06	1520	412.67	7.9711e-06	7.5107e-06	466.51	156.93	138.09	46.39	5.1604e-06	56.588	0.00075985	0.00072638	0.00021195	1565.5	8.1211e-06	8.5731e-06	1548.7	420.45	8.027e-06	8.6626e-06	478.95	160.56	140.95	47.896	8.0518e-06	58.495	279.272	235.917	241.445	152.506	293.950	283.867	152.288	157.319	310.691	285.894	156.520	160.953	161.288	165.969	301.899	165.021	-8191	255	
470.182	1	1	0	0	0.11389	0.06188	0.21247	0.22582	0.086315	0.17159	0.13538	0.24214	0.17798	0.11653	0.22822	0.23261	0.27304	0.13246	0.20959	0.13224	-2.5604	-3.5083	-3.1292	-3.4271	-3.4604	-2.9062	-3.8542	-3.2521	-3.1792	-3.6063	-3.4146	-3.5438	-3.4562	-3.3187	-3.4479	-3.4333	145.003	422.500	489.861	455.572	175.658	400.013	474.770	394.328	294.911	366.368	489.100	472.866	420.176	433.017	304.988	479.408	0.00078692	0.0005572	0.00018326	1536.8	7.0866e-06	5.4181e-06	1519.8	412.12	6.0064e-06	6.3645e-06	468.16	156.63	137.7	46.273	7.8649e-06	56.524	0.00075962	0.00074166	0.00021802	1562.7	8.2264e-06	8.3527e-06	1547.2	419.82	8.2332e-06	8.2827e-06	479.32	160.55	140.84	47.852	8.0948e-06	58.472	279.100	228.493	231.993	152.516	303.499	281.563	152.341	157.281	317.044	299.859	156.735	160.815	161.528	165.927	304.151	164.929	-8191	255	
470.280	1	1	0	0	0.075693	0.17249	0.36119	0.13373	0.091694	0.15297	0.40661	0.29529	0.1341	0.27702	0.24151	0.16276	0.35631	0.34545	0.097925	0.12107	-2.5167	-3.5271	-3.2396	-3.5229	-3.3229	-3.1208	-3.6188	-3.3646	-3.0812	-3.5563	-3.4208	-3.3646	-3.4729	-3.1229	-3.3875	-3.4604	356.087	451.208	457.125	412.252	453.572	238.236	445.059	404.508	142.991	280.224	420.800	147.988	435.495	435.384	469.337	414.636	0.00077299	0.00066855	0.00015977	1536.5	6.6057e-06	5.5011e-06	1519.6	412.22	6.6959e-06	5.4113e-06	466.38	156.52	137.72	46.128	6.5838e-06	56.728	0.00075592	0.0007199	0.00020656	1564.5	7.7628e-06	8.4222e-06	1547.2	419.94	7.9922e-06	8.3701e-06	478.33	160.43	140.71	47.767	7.8311e-06	58.543	278.446	220.035	241.568	152.691	298.785	289.571	152.291	157.261	318.695	281.016	156.574	160.889	161.273	165.905	306.700	164.948	-8191	255	
470.374	1	1	0	0	0.14827	0.18035	0.24126	0.3592	0.2749	0.12127	0.15157	0.27419	0.077188	0.079731	0.17065	0.25747	0.075623	0.2049	0.095306	0.063099	-2.7333	-3.4979	-3.2417	-3.5542	-3.5479	-3.175	-3.6021	-3.5875	-3.0896	-3.7271	-3.4562	-3.2021	-3.6625	-3.0875	-3.3354	-3.4042	367.190	258.543	390.692	478.397	472.949	440.425	418.837	429.594	178.974	403.506	433.093	407.122	477.902	442.547	473.962	422.398	0.00079583	0.0006267	0.00016226	1529.4	7.4929e-06	5.81e-06	1520.1	412.12	6.5607e-06	5.4351e-06	467.36	156.61	137.5	46.125	6.7571e-06	56.705	0.00076081	0.00073053	0.00020653	1561	7.7781e-06	8.2443e-06	1546.6	419.56	7.9619e-06	8.3822e-06	478.05	160.52	140.81	47.826	7.9769e-06	58.531	280.665	217.892	228.180	152.549	294.602	298.662	152.466	157.342	316.913	292.400	156.514	161.015	161.501	165.980	298.520	165.072	-8191	255	
470.470	1	1	0	0	0.10416	0.057156	0.13446	0.32117	0.21775	0.082193	0.13562	0.17748	0.064989	0.15955	0.16658	0.38395	0.13677	0.134	0.038933	0.30385	-2.6063	-3.2771	-3.1792	-3.3354	-3.4542	-3.3	-3.6208	-3.6396	-2.9354	-3.4354	-3.4729	-3.1167	-3.55	-3.2771	-3.3604	-3.625	147.092	244.927	303.805	439.263	414.947	266.290	418.737	442.882	196.705	221.241	449.373	484.003	328.846	436.934	210.680	490.774	0.00080298	0.00061497	0.00014342	1529.2	7.4819e-06	3.9921e-06	1522	411.84	6.0399e-06	5.9214e-06	467.32	156.73	137.44	46.17	5.7909e-06	56.726	0.00075881	0.00072263	0.00020719	1560.7	7.7313e-06	8.731e-06	1547.5	419.84	7.6209e-06	8.0059e-06	478.6	160.42	140.66	47.759	8.1127e-06	58.593	278.962	227.994	219.614	152.617	298.096	289.011	152.342	157.318	318.937	292.785	156.493	161.010	161.412	166.035	310.439	165.049	-8191	255	
470.566	1	1	0	0	0.14657	0.069649	0.18686	0.19828	0.15367	0.14196	0.19757	0.24364	0.16434	0.072324	0.095566	0.15959	0.11213	0.18836	0.20811	0.20578	-2.5958	-3.4688	-3.4062	-3.2062	-3.6188	-3.2896	-3.5167	-3.7	-2.9667	-3.3354	-3.4313	-3.2521	-3.5958	-3.2854	-3.1979	-3.6917	479.499	342.596	417.164	426.017	402.333	166.379	415.586	154.406	244.100	442.288	168.740	423.934	449.031	427.602	225.564	479.582	0.00077366	0.00047518	0.00015856	1529	7.078e-06	5.554e-06	1521.1	411.47	5.4367e-06	6.2003e-06	468.24	157.12	137.69	46.251	5.6119e-06	56.555	0.0007488	0.00071413	0.0002063	1559	7.9708e-06	8.3692e-06	1545.6	419.65	8.0325e-06	8.5206e-06	478.67	160.49	140.75	47.783	7.7582e-06	58.518	278.090	228.464	238.297	152.502	302.775	282.641	152.339	157.302	319.752	293.011	156.485	160.825	161.563	165.731	297.118	164.804	-8191	255	
470.687	1	1	0	0	0.31178	0.074092	0.10327	0.29802	0.20216	0.22366	0.26021	0.20057	0.17459	0.023309	0.18695	0.11055	0.11617	0.23535	0.19369	0.15661	-2.6542	-3.2042	-3.2229	-3.1583	-3.3563	-3.2438	-3.3563	-3.7042	-3.0146	-3.2979	-3.4604	-3.1104	-3.5	-3.2313	-3.1375	-3.6417	332.760	309.490	448.119	463.583	373.452	321.610	441.395	431.387	169.348	219.685	453.793	444.803	489.208	497.264	475.513	380.895	0.00077011	0.00074203	0.00016727	1529.4	7.8095e-06	5.3293e-06	1518.5	410.93	7.2957e-06	4.9769e-06	467.26	156.86	137.79	46.311	8.064e-06	56.548	0.00074333	0.000728	0.00021066	1558.5	7.8367e-06	8.0946e-06	1544.4	419.56	7.7337e-06	8.4271e-06	477.8	160.44	140.72	47.81	8.0598e-06	58.405	278.841	232.619	243.887	152.491	297.541	291.107	152.308	157.409	313.703	275.920	156.521	160.695	161.592	165.909	289.505	164.995	-8191	255	
470.783	1	1	0	0	0.21245	0.15169	0.20784	0.33065	0.20388	0.1807	0.14957	0.19944	0.10172	0.18833	0.13617	0.30327	0.11605	0.23034	0.12839	0.21161	-2.7958	-3.3271	-3.3875	-3.1146	-3.4104	-3.3	-3.45	-3.7188	-3.0833	-3.2521	-3.5917	-3.2125	-3.4667	-3.2854	-3.2542	-3.4813	302.817	256.292	397.799	447.802	428.457	389.386	359.783	428.494	351.401	467.734	491.924	481.250	150.439	443.939	478.236	328.234	0.00077607	0.00071173	0.00016582	1534.3	8.0318e-06	3.967e-06	1519.3	410.22	6.2613e-06	5.9267e-06	467.72	156.66	137.78	46.068	6.3401e-06	56.717	0.00075042	0.00073943	0.00020733	1560.8	7.6107e-06	8.1311e-06	1545.6	419.24	7.8767e-06	8.4429e-06	478.67	160.32	140.76	47.687	8.6879e-06	58.5	278.382	232.464	234.237	152.640	297.259	294.005	152.340	157.422	309.720	278.866	156.423	160.848	161.529	165.778	294.857	165.057	-8191	255	
470.879	1	1	0	0	0.057311	0.17286	0.079385	0.26693	0.075289	0.13014	0.3859	0.035296	0.26932	0.058052	0.056456	0.20579	0.075227	0.024498	0.1876	0.14846	-2.7896	-3.2167	-3.2792	-3.2167	-3.3958	-3.3812	-3.2083	-3.6333	-3.2104	-3.1417	-3.5271	-3.2333	-3.3604	-3.4292	-2.9958	-3.5271	208.119	368.740	457.351	152.166	159.454	389.502	459.659	491.288	287.428	148.791	479.263	397.916	444.404	167.952	297.648	494.116	0.00076543	0.00064655	0.00016757	1533.4	7.6403e-06	5.4028e-06	1518.2	410.93	6.3807e-06	5.859e-06	467.39	157.47	137.26	46.44	6.2015e-06	56.63	0.00074264	0.00073366	0.00020297	1562.2	7.8538e-06	8.1971e-06	1546	419.5	7.9042e-06	8.886e-06	478.73	160.53	140.45	47.888	7.9889e-06	58.449	278.577	225.842	231.858	152.537	303.723	293.261	152.339	157.547	314.602	275.759	156.600	160.856	161.285	166.012	301.146	164.809	-8191	255	
470.975	1	1	0	0	0.15754	0.36328	0.12521	0.32445	0.061696	0.12505	0.13213	0.13965	0.16561	0.12675	0.17964	0.13955	0.14396	0.19025	0.13494	0.12246	-2.8854	-3.05	-3.4667	-3.2271	-3.3167	-3.4042	-3.0333	-3.5729	-3.2479	-3.0563	-3.7396	-3.3667	-3.4646	-3.4625	-3.1708	-3.5104	408.946	199.169	308.893	475.343	390.712	358.048	454.095	402.572	444.443	275.742	429.199	254.876	418.700	478.150	393.619	439.127	0.00077144	0.00060856	0.00014812	1533.4	7.4087e-06	4.7021e-06	1519.7	411.15	6.0885e-06	5.4259e-06	466.23	157.11	137.71	46.249	5.4976e-06	56.445	0.00074776	0.00075897	0.00020935	1560.5	8.0608e-06	8.4434e-06	1546	419.29	7.994e-06	8.5315e-06	477.53	160.27	140.79	47.785	8.0928e-06	58.469	278.095	226.448	231.553	152.463	301.079	285.834	152.398	157.540	313.482	284.204	156.450	160.790	161.443	165.842	293.916	164.976	-8191	255	
471.071	1	1	0	0	0.26501	0.14904	0.30317	0.18242	0.089849	0.13944	0.16791	0.21399	0.19907	0.19029	0.099977	0.082683	0.17999	0.19121	0.18836	0.12032	-2.9208	-3	-3.3771	-3.3563	-3.175	-3.4542	-3.2792	-3.5229	-3.2979	-2.9896	-3.6937	-3.2396	-3.3438	-3.5104	-2.9333	-3.4771	284.098	350.451	186.193	452.080	354.082	336.033	424.114	416.950	354.479	470.436	325.192	144.630	441.907	414.985	444.186	378.783	0.00078917	0.00049364	0.00012616	1530.7	6.7264e-06	5.8514e-06	1517.3	412.13	7.1197e-06	5.3457e-06	466.54	156.8	136.98	46.194	7.3418e-06	56.496	0.00073849	0.00073265	0.00020485	1559.8	7.8051e-06	8.1299e-06	1543.5	419.52	7.8904e-06	8.4502e-06	477.92	160.24	140.49	47.788	8.1796e-06	58.44	277.393	235.399	226.565	152.383	299.971	287.524	152.301	157.499	313.310	291.944	156.725	161.131	161.465	165.629	293.931	165.290	-8191	255	
471.166	1	1	0	0	0.091577	0.19769	0.25661	0.32262	0.28009	0.25455	0.31414	0.034186	0.046149	0.2035	0.30702	0.12986	0.12968	0.16996	0.4275	0.22661	-2.9188	-3.0833	-3.3979	-3.5125	-3.1312	-3.4896	-3.5187	-3.45	-3.4333	-3.2125	-3.5	-3.3396	-3.1229	-3.4875	-3.1854	-3.4813	436.901	305.311	250.729	438.354	269.729	492.200	381.109	195.797	420.570	268.197	429.972	485.229	467.833	450.474	387.737	379.445	0.00078636	0.00042176	0.00015698	1527.7	6.5342e-06	6.762e-06	1518.7	412.16	6.9229e-06	5.5368e-06	467.42	157.48	137.72	46.367	6.4641e-06	56.772	0.00075011	0.00075492	0.00019436	1558.3	7.7268e-06	7.9791e-06	1543.5	419.46	7.8932e-06	8.432e-06	478.28	160.52	140.8	47.85	8.2535e-06	58.421	278.584	221.144	223.866	152.578	295.120	293.698	152.321	157.542	316.438	308.485	156.766	160.765	161.540	165.887	303.204	165.022	-8191	255	
471.262	1	1	0	0	0.15251	0.20527	0.12236	0.16694	0.078213	0.13828	0.25262	0.24274	0.11387	0.17273	0.17198	0.25438	0.29559	0.22315	0.19529	0.41313	-3.1771	-2.9083	-3.4625	-3.6125	-3.1646	-3.6667	-3.4104	-3.5	-3.5312	-2.9417	-3.5104	-3.3896	-3.1833	-3.65	-3.2958	-3.2229	275.054	194.573	438.705	461.160	445.929	234.489	416.507	435.549	286.554	438.022	158.469	372.017	427.005	142.285	141.697	432.971	0.00078128	0.00055877	0.00016761	1531.4	6.1904e-06	6.0994e-06	1514.4	410.71	6.7008e-06	6.7557e-06	467.97	157.55	137.41	46.129	6.4286e-06	56.738	0.00073063	0.00079065	0.00020761	1558.8	7.734e-06	7.9001e-06	1542.3	418.78	8.0041e-06	8.5e-06	478.04	160.4	140.67	47.724	8.1137e-06	58.468	280.441	215.982	222.767	152.505	300.541	291.688	152.304	157.364	308.644	288.173	156.722	160.831	161.389	166.050	308.330	165.012	-8191	255	
471.383	1	1	0	0	0.13889	0.29808	0.18114	0.26628	0.18637	0.10062	0.35526	0.086339	0.28155	0.074019	0.26711	0.094541	0.19526	0.063917	0.3264	0.187	-3.2646	-2.9729	-3.3812	-3.5854	-3.05	-3.5938	-3.4167	-3.2708	-3.45	-3.1042	-3.4479	-3.5292	-3.1729	-3.5875	-3.2687	-3.3187	313.234	327.056	446.507	438.468	492.551	358.924	476.277	203.393	252.813	196.565	417.678	380.077	494.456	144.840	143.446	460.264	0.00076609	0.00061344	0.00019547	1532	6.2035e-06	6.5358e-06	1515.8	410.88	6.0646e-06	5.8877e-06	467.33	156.61	137.17	46.264	7.0482e-06	56.463	0.00074029	0.00073792	0.0002081	1560.3	8.0329e-06	7.8883e-06	1543.4	419.35	7.6713e-06	8.4356e-06	478.04	160.12	140.55	47.774	8.0109e-06	58.391	278.987	234.430	231.953	152.533	306.924	282.258	152.326	157.324	303.485	291.712	156.796	160.821	161.524	166.116	305.120	165.180	-8191	255	
471.479	1	1	0	0	0.27257	0.158	0.15001	0.28716	0.34412	0.21467	0.16893	0.11688	0.039251	0.1065	0.22914	0.19443	0.37015	0.055619	0.054061	0.15259	-3.0646	-3.1	-3.4792	-3.5667	-2.9625	-3.5542	-3.5042	-3.2458	-3.4833	-3.1146	-3.4667	-3.5563	-2.9292	-3.5812	-3.2396	-3.1396	444.568	159.700	297.893	452.456	461.071	415.586	428.999	169.120	193.014	166.213	422.116	463.421	455.934	348.915	322.094	377.040	0.00079809	0.00049509	0.00018249	1529.5	7.3913e-06	5.451e-06	1519.3	410.47	6.1916e-06	4.4954e-06	466.25	156.71	137.2	46.379	5.8962e-06	56.577	0.00073922	0.00072597	0.00021314	1556.8	7.8862e-06	8.1759e-06	1542.5	418.82	7.5018e-06	8.6554e-06	477.95	160.34	140.53	47.774	8.0309e-06	58.347	279.333	228.082	233.934	152.633	294.314	301.394	152.360	157.553	311.127	291.349	156.680	160.846	161.503	165.825	303.959	164.978	-8191	255	
471.550	1	1	0	0	0.036717	0.20461	0.26046	0.40815	0.22366	0.26717	0.22474	0.14611	0.27965	0.038736	0.21618	0.25414	0.17138	0.17544	0.1578	0.040208	-3.1917	-2.9646	-3.1354	-3.6312	-3.0792	-3.4375	-3.6333	-3.2583	-3.4521	-3.2	-3.3271	-3.6	-3.2687	-3.3729	-3.3583	-3.2	147.170	368.771	371.380	445.557	266.238	282.536	367.119	365.930	217.244	329.781	448.788	498.519	471.111	142.168	167.988	215.920	0.00074815	0.00054387	0.00015621	1524.4	7.8935e-06	6.0088e-06	1518.7	410.33	6.31e-06	5.641e-06	465.86	157.18	137.65	46.059	6.3886e-06	56.357	0.00071705	0.00069935	0.00019789	1555.7	7.8006e-06	7.9579e-06	1541.1	419.04	7.5898e-06	8.4648e-06	477.49	160.29	140.6	47.699	7.892e-06	58.351	278.318	225.580	232.751	152.477	307.834	285.623	152.303	157.329	317.132	294.523	156.810	160.929	161.287	166.253	298.039	164.974	-8191	255	
471.647	1	1	0	0	0.22388	0.2074	0.14383	0.37139	0.25365	0.14572	0.2051	0.29521	0.15685	0.21615	0.31215	0.084582	0.23032	0.22357	0.15464	0.23246	-3.1167	-3.2479	-3.1333	-3.6167	-2.9875	-3.3312	-3.5521	-3.225	-3.5563	-3.3979	-3.4375	-3.7188	-3.0917	-3.3979	-3.4083	-3.1063	431.579	460.760	181.862	479.154	351.880	475.892	370.839	174.273	297.653	343.402	445.830	464.722	483.723	450.516	442.916	427.660	0.00077204	0.00066876	0.00014576	1524.9	7.3121e-06	6.7064e-06	1515.8	410.51	6.868e-06	5.3514e-06	465.54	156.26	137.57	46.101	7.6053e-06	56.484	0.0007371	0.00071646	0.00020294	1555.9	8.0455e-06	7.9119e-06	1541.3	418.76	7.7804e-06	8.1965e-06	477.59	159.94	140.47	47.745	7.9669e-06	58.403	276.899	224.441	244.960	152.475	316.865	283.758	152.396	157.594	310.013	285.482	156.779	160.920	161.423	165.958	305.051	165.213	-8191	255	
471.767	1	1	0	0	0.1003	0.23815	0.1747	0.2583	0.24679	0.11837	0.15073	0.16147	0.18789	0.27085	0.060586	0.3175	0.14145	0.068846	0.18084	0.21252	-3.0083	-3.2146	-3.0333	-3.6646	-3.1479	-3.275	-3.7542	-3.1708	-3.5208	-3.1813	-3.2917	-3.7062	-3.1646	-3.4271	-3.5312	-3.0854	399.430	227.288	431.078	168.926	414.452	484.209	188.046	338.643	405.726	412.048	174.703	143.987	409.316	368.337	282.365	438.972	0.00077387	0.00056968	0.0001168	1528.2	5.6029e-06	5.1586e-06	1511.4	410.18	6.2233e-06	4.039e-06	466.74	157.45	137.42	46.238	7.487e-06	56.342	0.00074291	0.00071099	0.00020197	1557.6	7.6305e-06	8.3598e-06	1540.3	418.62	7.5806e-06	8.1115e-06	477.54	160.4	140.47	47.823	7.9689e-06	58.42	279.449	228.908	233.273	152.512	286.343	309.766	152.310	157.482	316.385	283.927	156.770	160.944	161.462	165.703	300.198	165.224	-8191	255	
471.863	1	1	0	0	0.1183	0.10414	0.22952	0.25249	0.18024	0.24364	0.2527	0.21099	0.10002	0.043782	0.24928	0.20229	0.18802	0.13753	0.15982	0.13143	-2.8854	-3.2479	-2.9396	-3.5771	-3.0687	-3.2854	-3.725	-3.2729	-3.2917	-3.3063	-3.3187	-3.5521	-3.2042	-3.3667	-3.5021	-3.2667	324.764	256.181	151.985	423.572	181.598	474.390	387.500	480.139	410.553	494.354	406.357	197.107	438.937	384.842	147.807	155.073	0.00078569	0.00047635	0.0001405	1528.8	6.2859e-06	4.3254e-06	1516.6	411.12	5.8973e-06	6.9053e-06	466.87	157.26	137.34	46.03	7.0668e-06	56.537	0.00074137	0.00070239	0.00020508	1557.7	7.6971e-06	7.8412e-06	1542	418.41	7.6833e-06	8.4308e-06	477.69	160.38	140.66	47.739	7.5485e-06	58.471	278.521	216.361	226.700	152.630	294.146	295.239	152.393	157.404	312.804	293.099	156.423	160.821	161.534	165.895	302.617	165.066	-8191	255	
471.960	1	1	0	0	0.05204	0.19878	0.20184	0.15311	0.33054	0.17614	0.10651	0.15817	0.10262	0.16047	0.21723	0.21533	0.22881	0.079964	0.26987	0.101	-3.0563	-3.3646	-2.9062	-3.5271	-3.3271	-3.1417	-3.6354	-3.3167	-3.4271	-3.4292	-3.2333	-3.6708	-3.3771	-3.2125	-3.4479	-3.4	400.299	302.133	488.602	464.873	350.870	290.488	489.958	328.741	356.213	193.185	388.144	490.794	150.098	384.954	492.386	422.320	0.0007939	0.00064266	0.00013566	1529.7	7.8109e-06	4.3703e-06	1521	410.18	7.2015e-06	5.713e-06	467.63	157.19	137.75	46.306	7.8405e-06	56.486	0.00074449	0.00072202	0.00020633	1558.2	7.7799e-06	7.7339e-06	1544	418.75	7.3148e-06	7.8529e-06	477.92	160.52	140.72	47.822	7.6254e-06	58.411	279.028	231.366	230.439	152.676	300.046	295.566	152.461	157.496	314.118	281.720	156.713	160.889	161.448	166.010	305.699	165.079	-8191	255	
472.080	1	1	0	0	0.23647	0.0932	0.12842	0.35124	0.19561	0.24708	0.18151	0.16136	0.13621	0.20353	0.057931	0.18174	0.27131	0.27362	0.36262	0.032393	-2.9667	-3.2625	-3.075	-3.725	-3.4062	-3.1771	-3.6896	-3.3812	-3.3063	-3.3688	-3.3312	-3.4729	-3.3729	-3.1937	-3.4042	-3.2687	445.706	335.492	374.178	467.583	341.145	392.913	401.633	401.031	198.700	213.609	446.667	454.244	418.724	148.099	295.597	342.373	0.00078232	0.00054343	0.00011388	1527.4	6.4742e-06	6.1723e-06	1514.2	410.17	6.6983e-06	5.173e-06	465.81	157.05	137.58	46.232	7.1791e-06	56.731	0.00073033	0.00069247	0.00020722	1557.3	7.446e-06	7.9461e-06	1541.7	418.72	7.5879e-06	8.1904e-06	477.67	160.37	140.64	47.8	7.7852e-06	58.462	278.923	225.235	231.826	152.550	300.255	276.457	152.244	157.454	315.928	277.187	156.942	160.729	161.531	166.121	305.878	165.092	-8191	255	
472.175	1	1	0	0	0.051781	0.072234	0.13921	0.15312	0.19887	0.0078687	0.20084	0.11133	0.047227	0.19054	0.049384	0.11362	0.16368	0.21175	0.053706	0.12637	-2.9854	-3.4271	-3.0396	-3.5979	-3.3146	-3.1729	-3.6208	-3.3312	-3.2271	-3.5062	-3.1667	-3.575	-3.4083	-3.0229	-3.7042	-3.2667	417.058	265.436	191.718	474.693	485.911	316.798	419.272	392.827	145.941	310.038	149.125	416.168	445.462	473.454	399.108	302.053	0.00078037	0.0006842	0.00016972	1529.9	6.6031e-06	6.1539e-06	1520.1	410.02	6.6763e-06	6.0022e-06	468.79	157.08	137.16	46.063	6.2876e-06	56.426	0.00074449	0.00072182	0.00020616	1559.3	7.9438e-06	8.5036e-06	1544.6	419.21	7.5815e-06	8.4466e-06	478.08	160.04	140.38	47.733	7.948e-06	58.357	279.225	225.460	227.112	152.552	302.944	292.602	152.303	157.322	310.895	291.051	156.483	160.817	161.447	165.896	293.987	164.847	-8191	255	
472.248	1	1	0	0	0.18381	0.20457	0.15656	0.30439	0.076818	0.11236	0.06648	0.15257	0.20323	0.16122	0.17561	0.083052	0.057053	0.40193	0.12335	0.14022	-2.9479	-3.5208	-3.0708	-3.4583	-3.5083	-3.1312	-3.7438	-3.4583	-3.1729	-3.6625	-3.3833	-3.2604	-3.6021	-3.1562	-3.4958	-3.5271	443.085	155.638	288.350	458.049	175.949	443.801	455.153	447.425	307.307	210.889	434.399	430.068	481.069	482.816	467.288	430.366	0.0008044	0.00050446	0.00014306	1523.8	8.7458e-06	5.138e-06	1512.6	410.97	6.7854e-06	5.4144e-06	465.24	156.69	137.25	46.137	7.0432e-06	56.708	0.00074526	0.00069399	0.00020368	1553.9	7.635e-06	8.1182e-06	1539.7	418.28	7.7383e-06	7.7036e-06	475.92	159.91	140.13	47.712	7.3049e-06	58.356	277.606	226.214	229.466	152.556	298.148	286.371	152.287	157.446	304.671	281.035	156.577	161.129	161.615	165.967	300.868	165.000	-8191	255	
472.367	1	1	0	0	0.040505	0.34651	0.2724	0.5585	0.2838	0.038611	0.16924	0.08584	0.25887	0.10676	0.22534	0.14546	0.093066	0.10673	0.26232	0.15034	-2.6271	-3.2875	-3.2271	-3.3812	-3.4917	-3.0604	-3.7396	-3.3688	-3.0479	-3.5187	-3.4125	-3.1813	-3.6063	-3.0687	-3.3729	-3.4313	304.766	327.525	218.396	469.890	477.394	178.917	410.838	488.741	189.909	360.536	374.825	486.140	344.429	195.582	243.277	470.448	0.00078878	0.00053314	0.00014826	1518.1	6.7604e-06	5.1749e-06	1507.2	409.47	7.212e-06	6.3587e-06	467.55	156.15	137.11	46.079	6.076e-06	56.43	0.00074268	0.00068305	0.00018629	1550.6	7.6089e-06	7.9449e-06	1532.6	417.36	7.4523e-06	8.1322e-06	475.53	159.66	140.11	47.621	7.4347e-06	58.251	278.230	222.579	233.288	152.530	302.533	296.868	152.274	157.461	313.546	286.314	156.481	160.931	161.294	165.970	297.467	165.128	-8191	255	
472.463	1	1	0	0	0.1685	0.15767	0.11757	0.16636	0.17375	0.082783	0.25688	0.11052	0.33963	0.20672	0.23172	0.27729	0.25795	0.18655	0.10101	0.34842	-2.5354	-3.3063	-3.15	-3.4667	-3.6583	-3.1813	-3.6188	-3.4583	-3.0833	-3.4771	-3.3833	-3.2562	-3.6667	-3.1479	-3.4562	-3.5208	296.856	339.232	185.765	418.969	282.585	340.515	462.238	218.445	406.821	409.556	356.404	143.780	389.350	221.955	362.645	438.476	0.00078981	0.00046301	0.00015093	1520.7	8.5938e-06	5.6212e-06	1510	408.77	6.196e-06	5.0974e-06	465.07	156.52	136.89	46.161	7.3169e-06	56.426	0.00074176	0.00064347	0.00019228	1549.7	7.4811e-06	7.8412e-06	1534.7	417.19	7.8107e-06	7.7061e-06	476.28	159.84	140.19	47.659	7.7083e-06	58.249	278.575	214.323	223.701	152.488	308.068	291.232	152.347	157.325	314.257	275.411	156.517	161.102	161.567	165.777	304.046	165.004	-8191	255	
472.559	1	1	0	0	0.15305	0.017278	0.26957	0.3067	0.048054	0.1579	0.051525	0.29054	0.12179	0.1904	0.044688	0.22515	0.17227	0.31758	0.18453	0.15671	-2.6396	-3.4333	-3.2417	-3.4625	-3.575	-3.1417	-3.6	-3.6917	-3.1104	-3.3854	-3.6417	-3.2354	-3.5875	-3.1312	-3.2104	-3.5875	182.528	387.064	350.344	451.957	179.592	352.523	184.745	498.038	258.464	173.327	249.771	448.240	206.961	444.597	164.327	335.096	0.00077527	0.00060439	0.0001337	1522.3	8.2867e-06	5.6005e-06	1514.2	409.6	6.4169e-06	5.5508e-06	465.61	156.82	137.15	46.19	5.5894e-06	56.387	0.00075065	0.00071018	0.00019661	1554.1	7.7808e-06	7.9791e-06	1538.1	417.6	7.8831e-06	7.9282e-06	476.42	159.88	140.22	47.779	7.917e-06	58.234	280.683	221.534	237.456	152.538	288.069	284.819	152.501	157.493	312.096	302.071	156.606	160.839	161.394	165.682	297.307	165.145	-8191	255	
472.680	1	1	0	0	0.20775	0.069487	0.17138	0.05129	0.19693	0.097503	0.20166	0.1924	0.10338	0.15797	0.092759	0.30826	0.048197	0.082048	0.096383	0.071374	-2.6583	-3.3729	-3.1667	-3.3563	-3.3417	-3.2438	-3.3937	-3.7354	-3.1583	-3.4562	-3.4062	-3.0604	-3.4771	-3.4062	-3.1562	-3.6979	341.223	400.434	302.008	208.441	229.993	233.383	388.357	343.421	262.650	393.393	452.181	284.160	224.128	295.658	210.914	476.417	0.00076427	0.00054887	0.00012514	1523.2	7.8109e-06	5.1948e-06	1511	411.1	6.9106e-06	5.8187e-06	466.93	157.08	137.94	46.004	7.133e-06	56.514	0.00074684	0.00071109	0.00019433	1553.4	7.3758e-06	8.0616e-06	1537.7	418.54	7.7713e-06	8.0678e-06	477.04	160.29	140.74	47.659	7.6015e-06	58.382	278.696	232.874	245.410	152.646	294.611	287.496	152.257	157.224	312.470	290.644	156.487	160.746	161.347	165.945	302.617	165.002	-8191	255	
472.776	1	1	0	0	0.017854	0.34253	0.16027	0.20456	0.21736	0.043988	0.40157	0.28484	0.12993	0.14174	0.16296	0.22667	0.051644	0.16987	0.14911	0.22857	-2.6813	-3.2521	-3.4917	-3.2458	-3.3063	-3.3563	-3.3542	-3.5854	-3.0354	-3.3042	-3.5271	-3.1312	-3.3896	-3.4667	-3.2313	-3.5729	415.763	497.174	473.985	443.123	317.461	363.918	428.438	446.471	313.953	173.927	418.194	453.237	468.342	153.984	367.424	424.725	0.00076255	0.00051249	0.00017768	1527.8	6.5919e-06	4.0027e-06	1515.4	409.15	6.8807e-06	5.8326e-06	466.43	156.39	137.61	46.104	5.4758e-06	56.5	0.0007336	0.00069763	0.00020297	1554.7	7.527e-06	7.8212e-06	1538.8	417.73	7.7722e-06	7.9743e-06	477.18	160.01	140.79	47.739	7.8871e-06	58.39	279.194	214.044	231.667	152.500	302.421	289.814	152.481	157.318	312.194	298.276	156.589	160.916	161.379	166.018	305.870	165.023	-8191	255	
472.848	1	1	0	0	0.19283	0.061863	0.014108	0.20907	0.38744	0.1175	0.22132	0.30773	0.12998	0.071016	0.14545	0.13859	0.13953	0.14299	0.077443	0.12337	-2.7167	-3.275	-3.5083	-3.3438	-3.4688	-3.4125	-3.3375	-3.575	-3.1771	-3.3792	-3.4792	-3.3583	-3.3646	-3.3667	-3.05	-3.4208	303.970	180.228	261.283	413.016	283.322	169.880	373.385	432.553	423.374	371.357	358.010	149.812	419.814	190.930	176.836	203.950	0.00080329	0.00058488	0.00014047	1525.3	7.0019e-06	4.7497e-06	1513.3	408.31	6.9902e-06	5.4565e-06	467.17	156.65	137.49	46.108	7.2397e-06	56.624	0.00075173	0.00070633	0.00019607	1553.7	7.6773e-06	7.9072e-06	1538.8	417.81	7.9014e-06	7.9889e-06	477.63	160.22	140.46	47.79	8.3075e-06	58.36	280.562	238.552	227.437	152.526	293.876	288.107	152.375	157.418	314.048	290.861	156.699	160.902	161.358	166.104	308.345	165.126	-8191	255	
472.944	1	1	0	0	0.18691	0.26652	0.14358	0.25402	0.1699	0.024531	0.36146	0.015131	0.21073	0.43119	0.1806	0.18713	0.028945	0.27404	0.046541	0.16452	-2.8271	-3.3104	-3.525	-3.2958	-3.5354	-3.3646	-3.3208	-3.7896	-3.1333	-3.1604	-3.6167	-3.2583	-3.5563	-3.5146	-2.8417	-3.5146	186.653	286.658	159.702	433.745	376.201	220.627	443.724	467.516	251.792	425.604	440.647	436.825	144.143	422.952	177.183	476.888	0.00078508	0.00053711	0.00013112	1528.1	7.8635e-06	6.0183e-06	1516	410.14	5.7623e-06	6.0238e-06	466.64	156.25	137.35	46.139	5.8855e-06	56.657	0.00073333	0.00069702	0.00018552	1551.7	7.3479e-06	7.8883e-06	1536.8	418.07	7.5338e-06	8.2256e-06	477.37	159.87	140.48	47.746	7.7403e-06	58.411	279.374	229.186	236.114	152.453	298.020	291.063	152.373	157.610	318.763	278.823	156.673	160.960	161.367	166.037	304.129	165.095	-8191	255	
473.063	1	1	0	0	0.16089	0.055719	0.12	0.10762	0.10523	0.20125	0.3989	0.20046	0.32093	0.17395	0.24498	0.30005	0.39731	0.18695	0.25347	0.37976	-2.7687	-3.0375	-3.6042	-3.2104	-3.3542	-3.3271	-3.2687	-3.4708	-3.4896	-3.1646	-3.5625	-3.3583	-3.4292	-3.6813	-3.0438	-3.6312	259.778	297.049	291.456	492.097	142.619	301.400	465.697	444.763	394.749	273.611	465.552	495.980	188.958	410.037	434.142	460.234	0.00078822	0.00056791	0.00013675	1520.2	7.3726e-06	6.1875e-06	1507.7	408.67	6.2576e-06	5.0108e-06	465.74	156.66	137.76	46.227	6.9523e-06	56.474	0.00073044	0.00073296	0.00018989	1551.4	7.4082e-06	7.5489e-06	1535.1	417.48	7.2158e-06	7.842e-06	476.74	160.1	140.52	47.802	7.7283e-06	58.4	277.683	225.253	224.739	152.335	303.763	288.786	152.443	157.294	315.094	280.326	156.676	160.764	161.615	165.983	292.647	165.057	-8191	255	
473.159	1	1	0	0	0.11112	0.14216	0.049987	0.37215	0.24806	0.082127	0.35519	0.19756	0.066747	0.18438	0.12168	0.07049	0.075767	0.33063	0.19482	0.22289	-2.925	-3.1875	-3.7271	-3.4708	-3.3271	-3.5896	-3.2562	-3.6375	-3.4583	-3.1417	-3.5854	-3.4958	-3.2083	-3.5396	-3.0187	-3.475	172.681	355.475	354.452	481.300	334.522	429.308	413.333	220.777	294.127	353.820	154.099	141.646	478.812	449.991	307.941	170.501	0.0007988	0.00065748	0.00016652	1521.4	8.3334e-06	6.3835e-06	1512.5	411.09	6.3149e-06	4.8824e-06	466.42	156.45	137.27	46.123	5.7741e-06	56.759	0.00074183	0.00070158	0.00019048	1551.4	7.5297e-06	7.6726e-06	1537.2	418.61	7.6842e-06	8.3057e-06	476.83	160.26	140.6	47.767	8.0129e-06	58.459	279.307	229.919	232.201	152.655	303.619	283.456	152.463	157.406	311.671	285.987	156.670	160.925	161.527	165.967	303.004	164.973	-8191	255	
473.255	1	1	0	0	0.15335	0.088624	0.039671	0.23896	0.18214	0.23609	0.21291	0.25992	0.16175	0.089909	0.051419	0.029619	0.18552	0.30073	0.10443	0.18534	-3.1458	-3.0062	-3.55	-3.3896	-3.1396	-3.7333	-3.375	-3.4688	-3.4021	-2.9375	-3.5792	-3.2167	-3.3042	-3.5833	-3.2188	-3.4583	474.310	185.502	140.345	142.783	484.857	296.547	442.785	493.612	167.641	299.227	287.242	426.246	387.809	479.414	318.447	467.997	0.00075224	0.00052845	0.00019294	1522.9	6.8481e-06	5.3796e-06	1511.8	412.01	8.5646e-06	7.0733e-06	465.84	156.84	137.09	46.179	6.69e-06	56.601	0.00071639	0.00074642	0.00020251	1555.6	7.5657e-06	7.4959e-06	1538.5	418.94	8.0041e-06	8.2875e-06	477.4	160.25	140.52	47.851	7.7842e-06	58.465	277.323	230.234	233.755	152.575	296.903	294.755	152.362	157.457	318.684	298.939	156.587	160.906	161.230	166.008	299.690	165.036	-8191	255	
473.351	1	1	0	0	0.19919	0.034737	0.083778	0.17803	0.23613	0.20057	0.051423	0.319	0.054863	0.072679	0.29666	0.26437	0.13955	0.12934	0.10544	0.28704	-2.8583	-2.85	-3.5625	-3.7229	-3.2562	-3.4604	-3.3458	-3.3708	-3.4479	-3.0292	-3.4292	-3.3312	-3.2708	-3.6333	-3.1396	-3.4833	139.506	386.417	152.099	410.093	490.753	342.047	289.401	338.230	318.595	250.846	454.459	401.513	285.561	406.450	230.105	164.042	0.00079495	0.0005411	0.0001839	1527.9	7.5475e-06	4.4353e-06	1514.8	410.48	6.6628e-06	6.0395e-06	465.58	156.41	137.95	46.131	5.5762e-06	56.65	0.00074233	0.00071848	0.00020402	1553.8	7.8132e-06	7.7504e-06	1538.6	418.7	7.3212e-06	8.0739e-06	477.54	160.29	140.85	47.817	7.6544e-06	58.528	278.426	214.156	235.708	152.535	298.579	285.174	152.437	157.483	307.456	296.001	156.645	160.766	161.479	165.944	303.166	165.236	-8191	255	
473.447	1	1	0	0	0.19675	0.22215	0.1037	0.25272	0.28783	0.085802	0.3292	0.19593	0.071375	0.16426	0.29924	0.22761	0.096515	0.1722	0.062533	0.16228	-3.0167	-3	-3.3187	-3.6688	-3.0104	-3.5021	-3.3479	-3.3667	-3.4792	-3.1375	-3.4479	-3.4437	-3.1063	-3.5792	-3.1333	-3.1771	435.728	176.774	369.331	479.012	188.794	368.931	410.429	404.604	216.502	444.160	426.635	471.427	486.347	493.633	272.375	169.104	0.00077807	0.00066569	0.00013715	1525.9	7.3294e-06	4.7172e-06	1512.3	410.21	6.9007e-06	6.8874e-06	465.45	156.48	137.94	46.289	7.0172e-06	56.613	0.00073271	0.00071656	0.00018578	1555.6	7.8745e-06	7.6055e-06	1537.8	418.46	7.565e-06	8.1601e-06	477.45	160.33	140.78	47.853	7.7413e-06	58.514	280.200	222.276	239.260	152.481	306.307	293.424	152.228	157.585	305.038	275.353	156.584	160.954	161.346	165.860	296.738	165.009	-8191	255	
473.543	1	1	0	0	0.035959	0.20885	0.26849	0.1735	0.059398	0.19356	0.37944	0.022722	0.14821	0.10385	0.2126	0.16007	0.069678	0.1999	0.10003	0.33182	-2.9	-3.0938	-3.3729	-3.6562	-3.0458	-3.4583	-3.5167	-3.2583	-3.5146	-3.1104	-3.4708	-3.4625	-3.1375	-3.6083	-3.3417	-3.2812	456.865	340.849	305.149	359.543	185.534	452.902	471.601	497.619	473.786	332.004	472.746	277.657	364.294	371.090	473.834	422.305	0.00076082	0.00049696	0.00016483	1524	6.3741e-06	6.1632e-06	1507	409.97	7.7127e-06	5.5332e-06	467.25	157.47	137.52	46.249	6.4074e-06	56.581	0.0007269	0.0007031	0.00019259	1553.9	7.6737e-06	7.5241e-06	1537.1	418.2	7.664e-06	8.2001e-06	477.76	160.44	140.74	47.856	7.6714e-06	58.417	279.456	230.275	235.398	152.527	299.723	296.075	152.365	157.437	308.109	289.670	156.681	161.002	161.301	165.998	302.086	165.355	-8191	255	
473.640	1	1	0	0	0.2227	0.11148	0.17846	0.14796	0.19721	0.087004	0.17167	0.10221	0.26925	0.12468	0.22812	0.20728	0.1897	0.18985	0.024032	0.23308	-3.1479	-3.1458	-3.2458	-3.6188	-2.9917	-3.4188	-3.5979	-3.3187	-3.5917	-3.1896	-3.4208	-3.5542	-3.1562	-3.4792	-3.2479	-3.2188	398.759	251.021	477.225	473.163	275.305	473.710	424.939	424.151	317.293	307.682	458.359	412.108	459.650	482.728	197.766	471.033	0.00077561	0.00044051	0.00014524	1523.6	7.3063e-06	5.404e-06	1516.1	410	6.6805e-06	5.0501e-06	466.32	157.17	137.61	46.304	5.5252e-06	56.862	0.00073972	0.00065775	0.00019567	1554.2	7.7664e-06	7.497e-06	1539.3	418.74	7.7511e-06	8.4053e-06	477.94	160.31	140.7	47.91	7.2669e-06	58.534	277.459	215.954	219.623	152.588	301.623	302.561	152.401	157.422	309.297	292.795	156.625	160.995	161.134	165.939	304.622	164.954	-8191	255	
473.760	1	1	0	0	0.13043	0.14767	0.20181	0.25733	0.19516	0.16572	0.43189	0.35668	0.080405	0.2444	0.2293	0.27225	0.28544	0.21276	0.16146	0.11724	-3.1063	-3.1813	-3.0812	-3.725	-3.2438	-3.3792	-3.6229	-3.3604	-3.5625	-3.0812	-3.2229	-3.6	-3.1813	-3.5729	-3.5438	-3.1729	162.812	439.049	417.070	153.974	213.066	446.251	477.202	484.320	440.243	375.471	164.332	451.506	142.188	396.088	417.108	482.436	0.00075573	0.00056143	0.00016863	1526.6	6.9313e-06	5.6197e-06	1516.8	408.2	7.9749e-06	5.7549e-06	467.72	157.13	137.99	46.175	7.2969e-06	56.866	0.00072151	0.00069277	0.00018872	1556.6	7.5936e-06	7.9296e-06	1539.8	418.12	7.4678e-06	8.1297e-06	478.23	160.46	140.85	47.917	7.4197e-06	58.541	278.829	226.787	237.712	152.671	298.578	285.481	152.381	157.438	315.436	285.305	156.723	160.794	161.487	165.887	295.624	164.989	-8191	255	
473.855	1	1	0	0	0.20236	0.10694	0.068863	0.24947	0.32783	0.15051	0.10586	0.2443	0.073717	0.22762	0.28974	0.20294	0.15453	0.18173	0.2202	0.23359	-3.0292	-3.2604	-3.1771	-3.5625	-3.0812	-3.1083	-3.7396	-3.0646	-3.5229	-3.4188	-3.1667	-3.5896	-3.3646	-3.3625	-3.4	-3.1458	296.733	344.647	423.007	413.333	456.723	446.417	166.986	346.021	391.190	265.936	443.073	488.372	155.946	375.916	438.081	254.615	0.00075486	0.00059033	0.00014019	1527.4	9.425e-06	6.1584e-06	1513	409.03	6.1303e-06	6.546e-06	465.84	157.14	137.29	46.293	6.6184e-06	56.665	0.00073433	0.00069216	0.00019972	1554.8	7.7349e-06	7.5371e-06	1539.4	418.36	7.5338e-06	8.1868e-06	477.65	160.37	140.73	47.855	7.4696e-06	58.53	277.022	216.752	226.625	152.451	308.645	284.705	152.195	157.294	307.322	275.683	156.402	161.159	161.422	165.908	305.962	165.177	-8191	255	
473.951	1	1	0	0	0.19002	0.19575	0.084891	0.25357	0.13095	0.084261	0.13963	0.13041	0.023548	0.34644	0.13314	0.13068	0.16381	0.26707	0.14828	0.16808	-2.8667	-3.3125	-2.9729	-3.6875	-3.1875	-3.1792	-3.7292	-3.0396	-3.3042	-3.2875	-3.1854	-3.6083	-3.375	-3.2375	-3.5938	-3.075	319.384	386.490	201.352	427.749	327.355	432.866	421.285	163.035	205.708	327.056	158.813	163.056	170.636	403.699	338.581	387.096	0.0008081	0.00050784	0.00012887	1524.3	7.9656e-06	6.7368e-06	1511.3	410.05	6.8802e-06	5.4598e-06	468.57	157.11	138.16	46.494	6.8696e-06	56.69	0.0007361	0.00069793	0.00020177	1554.3	7.6728e-06	7.7905e-06	1538.2	418.42	7.3899e-06	8.0156e-06	478.28	160.47	140.85	47.935	7.4676e-06	58.584	279.501	228.019	231.623	152.681	298.253	295.418	152.265	157.354	310.063	295.716	156.704	160.928	161.313	165.893	301.916	165.048	-8191	255	
474.047	1	1	0	0	0.23541	0.18412	0.10705	0.32442	0.028381	0.10231	0.29982	0.11162	0.14559	0.21007	0.066772	0.23297	0.30556	0.2099	0.078614	0.35915	-2.7646	-3.3229	-2.9333	-3.7562	-3.3854	-3.1542	-3.6688	-3.1437	-3.2375	-3.4521	-3.125	-3.5479	-3.275	-3.2396	-3.5438	-3.1271	225.489	419.617	454.323	464.123	367.928	416.878	457.247	200.270	435.518	204.432	475.294	150.339	143.096	149.947	366.367	410.231	0.00079728	0.00049897	0.00016104	1524.5	7.3766e-06	4.5834e-06	1510.5	410.52	6.5914e-06	5.3549e-06	465.24	157.15	137.64	46.302	7.6635e-06	56.739	0.00073429	0.00067273	0.00020166	1553.2	7.6107e-06	7.5996e-06	1537.3	418.72	7.3808e-06	7.6441e-06	477.45	160.58	140.63	47.932	7.4057e-06	58.542	277.459	234.211	220.216	152.625	303.587	286.962	152.307	157.621	310.290	293.055	156.427	160.783	161.379	166.094	308.821	165.005	-8191	255	
474.143	1	1	0	0	0.064921	0.22205	0.27959	0.40218	0.14485	0.26084	0.23778	0.38842	0.097253	0.10216	0.052784	0.079152	0.0775	0.10143	0.20992	0.25392	-2.7438	-3.3208	-3.1167	-3.5708	-3.2354	-3.1396	-3.6208	-3.0354	-3.2917	-3.5687	-3.2521	-3.5458	-3.3937	-3.0687	-3.4562	-3.2854	465.434	431.814	287.231	487.423	166.632	288.893	376.281	430.548	151.060	275.460	265.994	445.771	438.488	454.427	275.919	460.667	0.00078339	0.00062383	0.0001462	1525.2	7.7269e-06	6.3141e-06	1513.5	409.42	6.4594e-06	5.539e-06	466.1	157.08	137.66	46.412	6.1847e-06	56.594	0.00072313	0.00068771	0.00019821	1553.8	7.5414e-06	7.6762e-06	1538.9	418.09	7.5962e-06	8.1479e-06	477.43	160.46	140.8	47.916	7.4317e-06	58.497	278.372	226.367	232.850	152.505	311.039	283.521	152.392	157.490	320.259	291.176	156.460	160.801	161.370	166.116	305.336	165.222	-8191	255	
474.239	1	1	0	0	0.2325	0.15301	0.15334	0.30539	0.21062	0.089582	0.18148	0.45054	0.16191	0.054605	0.15353	0.35279	0.086781	0.20463	0.10155	0.40216	-2.825	-3.5917	-3.0271	-3.65	-3.3521	-3.05	-3.4896	-3.3312	-3.1667	-3.5375	-3.1688	-3.5875	-3.5312	-3.2146	-3.4979	-3.2396	148.918	424.074	177.933	465.541	258.441	247.330	474.151	430.722	455.183	432.959	169.647	488.647	487.006	495.650	230.018	427.460	0.00075319	0.00049585	0.00010709	1522.2	7.1004e-06	4.9455e-06	1515.1	410.84	6.2605e-06	5.7397e-06	466.29	156.53	137.99	46.294	7.6454e-06	56.675	0.00071451	0.00064813	0.00018991	1551	7.5414e-06	7.6809e-06	1538.9	419.09	7.3844e-06	7.7668e-06	477.3	160.26	141.02	47.867	7.3858e-06	58.547	277.445	228.627	237.500	152.490	304.490	300.714	152.301	157.496	301.461	282.702	156.668	160.962	161.328	165.904	302.292	165.224	-8191	255	
474.360	1	1	0	0	0.34235	0.2944	0.11449	0.30133	0.15469	0.059964	0.27735	0.28172	0.059517	0.17394	0.025353	0.15044	0.23662	0.1599	0.090625	0.12185	-2.7667	-3.4125	-3.0229	-3.4146	-3.3917	-3.0833	-3.6937	-3.3063	-3.2062	-3.4229	-3.1104	-3.3854	-3.4271	-3.2021	-3.3625	-3.3312	382.834	152.748	167.739	487.030	294.632	146.988	432.898	396.591	495.103	169.726	208.704	495.320	365.544	168.343	251.367	396.137	0.00078156	0.00048378	0.00018539	1524.9	7.4002e-06	5.5562e-06	1508.4	410.84	7.819e-06	5.2441e-06	467.46	157.1	137.84	46.285	5.856e-06	56.618	0.00073356	0.0006535	0.00019849	1553.6	7.6737e-06	7.8365e-06	1535.8	418.82	7.6713e-06	7.3868e-06	477.81	160.41	140.97	47.892	7.3139e-06	58.488	279.458	225.355	224.968	152.633	297.401	294.865	152.332	157.358	316.628	287.213	156.485	160.695	161.686	165.996	310.319	164.988	-8191	255	
474.454	1	1	0	0	0.2263	0.25753	0.048304	0.15204	0.14015	0.2207	0.23029	0.1542	0.14863	0.14873	0.25138	0.050595	0.087025	0.082627	0.037484	0.21823	-2.7292	-3.4958	-3.1667	-3.5187	-3.4437	-3.0979	-3.8271	-3.4917	-3.1479	-3.5271	-3.4708	-3.3563	-3.6063	-3.4021	-3.2687	-3.5938	448.242	329.608	452.771	446.019	401.863	412.756	450.971	461.414	144.628	453.823	462.912	212.998	259.897	178.566	456.174	484.980	0.00075728	0.00054491	0.00016899	1522.9	6.8863e-06	6.4658e-06	1509.2	410.01	6.8364e-06	5.6342e-06	466.48	157.11	138.28	46.332	8.4037e-06	56.717	0.00072136	0.00067546	0.00018966	1551.8	7.0913e-06	7.2024e-06	1535.2	418.47	7.5375e-06	7.8335e-06	477.4	160.49	140.98	47.963	7.3208e-06	58.602	279.370	225.433	222.856	152.512	302.015	292.845	152.421	157.455	313.796	275.530	156.616	160.893	161.348	166.048	304.855	164.809	-8191	255	
474.550	1	1	0	0	0.3004	0.23252	0.18935	0.55559	0.12463	0.21067	0.15716	0.23414	0.075889	0.13903	0.13703	0.19435	0.2045	0.31296	0.1484	0.2623	-2.7604	-3.4688	-3.0729	-3.3812	-3.5583	-3.0396	-3.55	-3.5708	-3.1542	-3.3812	-3.3083	-3.1	-3.5396	-3.1708	-3.3875	-3.3979	410.709	298.001	378.857	469.728	241.248	372.455	173.189	188.938	267.582	246.585	467.088	461.741	211.821	394.558	419.727	387.584	0.0007927	0.00050452	0.00014977	1526.2	7.8319e-06	6.7229e-06	1509.1	412.22	6.3882e-06	6.6723e-06	466.33	157.07	137.91	46.339	6.3348e-06	56.373	0.00072524	0.00067941	0.00018501	1552	6.8024e-06	7.3921e-06	1535.4	419.09	7.3991e-06	7.5155e-06	477.17	160.5	140.92	47.92	7.3378e-06	58.464	278.152	227.763	248.141	152.515	304.591	296.262	152.578	157.471	310.886	283.186	156.450	160.961	161.423	166.047	299.524	165.044	-8191	255	
#DATA ENDS
