BOXY.EXE: ISS Imagent and Oximeter Data Acquisition Program Version 0.80
Ascii Record File

#ACQ INFORMATION
2  Detector Channels 
16  External MUX Channels 
1  Auxiliary Channels 
5000  Waveform (CCF) Frequency (Hz)
1  Waveforms Skipped 
30  Waveforms Averaged 
1  Cycles Averaged 
16  Acquisitions per Waveform 
10.0806  Updata Rate (Hz) 

#FILE INFORMATION
TRUE -- External MUX Channel results are PARSED.
FALSE -- AC DC and Phase are NOT grouped.
TRUE -- Companion Program Settings File CREATED.
FALSE -- AC data not excluded
FALSE -- DC data not excluded
FALSE -- Phase data not excluded
FALSE -- Auxillary Chn. data not excluded
Tab delimiters

#CALIBRATION STATE
TRUE -- Waveform Calibration Values APPLIED.


#AUX CALIBRATION VALUES
Val Type	aux-1	

Term	1.0000e+00	
Factor	0.0000e+00	


#WF CALIBRATION VALUES
A = Detector Channel
Val Type	A-AC1	A-AC2	A-AC3	A-AC4	A-AC5	A-AC6	A-AC7	A-AC8	A-AC9	A-AC10	A-AC11	A-AC12	A-AC13	A-AC14	A-AC15	A-AC16	A-DC1	A-DC2	A-DC3	A-DC4	A-DC5	A-DC6	A-DC7	A-DC8	A-DC9	A-DC10	A-DC11	A-DC12	A-DC13	A-DC14	A-DC15	A-DC16	A-Ph1	A-Ph2	A-Ph3	A-Ph4	A-Ph5	A-Ph6	A-Ph7	A-Ph8	A-Ph9	A-Ph10	A-Ph11	A-Ph12	A-Ph13	A-Ph14	A-Ph15	A-Ph16	

Term	0.00000e+00	0.00000e+00	0.00000e+00	0.00000e+00	0.00000e+00	0.00000e+00	0.00000e+00	0.00000e+00	0.00000e+00	0.00000e+00	0.00000e+00	0.00000e+00	0.00000e+00	0.00000e+00	0.00000e+00	0.00000e+00	0.00000e+00	0.00000e+00	0.00000e+00	0.00000e+00	0.00000e+00	0.00000e+00	0.00000e+00	0.00000e+00	0.00000e+00	0.00000e+00	0.00000e+00	0.00000e+00	0.00000e+00	0.00000e+00	0.00000e+00	0.00000e+00	0.00000e+00	0.00000e+00	0.00000e+00	0.00000e+00	0.00000e+00	0.00000e+00	0.00000e+00	0.00000e+00	0.00000e+00	0.00000e+00	0.00000e+00	0.00000e+00	0.00000e+00	0.00000e+00	0.00000e+00	0.00000e+00	
Factor	1.00000e+00	1.00000e+00	1.00000e+00	1.00000e+00	1.00000e+00	1.00000e+00	1.00000e+00	1.00000e+00	1.00000e+00	1.00000e+00	1.00000e+00	1.00000e+00	1.00000e+00	1.00000e+00	1.00000e+00	1.00000e+00	1.00000e+00	1.00000e+00	1.00000e+00	1.00000e+00	1.00000e+00	1.00000e+00	1.00000e+00	1.00000e+00	1.00000e+00	1.00000e+00	1.00000e+00	1.00000e+00	1.00000e+00	1.00000e+00	1.00000e+00	1.00000e+00	X	X	X	X	X	X	X	X	X	X	X	X	X	X	X	X	

B = Detector Channel
Val Type	B-AC1	B-AC2	B-AC3	B-AC4	B-AC5	B-AC6	B-AC7	B-AC8	B-AC9	B-AC10	B-AC11	B-AC12	B-AC13	B-AC14	B-AC15	B-AC16	B-DC1	B-DC2	B-DC3	B-DC4	B-DC5	B-DC6	B-DC7	B-DC8	B-DC9	B-DC10	B-DC11	B-DC12	B-DC13	B-DC14	B-DC15	B-DC16	B-Ph1	B-Ph2	B-Ph3	B-Ph4	B-Ph5	B-Ph6	B-Ph7	B-Ph8	B-Ph9	B-Ph10	B-Ph11	B-Ph12	B-Ph13	B-Ph14	B-Ph15	B-Ph16	

Term	0.00000e+00	0.00000e+00	0.00000e+00	0.00000e+00	0.00000e+00	0.00000e+00	0.00000e+00	0.00000e+00	0.00000e+00	0.00000e+00	0.00000e+00	0.00000e+00	0.00000e+00	0.00000e+00	0.00000e+00	0.00000e+00	0.00000e+00	0.00000e+00	0.00000e+00	0.00000e+00	0.00000e+00	0.00000e+00	0.00000e+00	0.00000e+00	0.00000e+00	0.00000e+00	0.00000e+00	0.00000e+00	0.00000e+00	0.00000e+00	0.00000e+00	0.00000e+00	-3.80650e+01	-1.32862e+02	-1.25430e+02	-1.81665e+02	-4.66408e+01	-6.69153e+01	-1.55920e+02	-1.62015e+02	-3.32665e+01	-6.84437e+01	-1.70727e+02	-1.71644e+02	-1.80701e+02	-1.77487e+02	-4.82893e+01	-1.50551e+02	
Factor	2.17353e-05	1.62563e-04	4.39496e-05	1.54653e-01	1.72098e-06	1.76303e-06	1.62475e-01	5.94268e-02	1.39045e-06	1.85064e-06	8.19659e-02	2.80416e-02	2.61055e-02	8.93581e-03	1.65438e-06	1.28829e-02	1.84756e-05	4.85871e-05	1.36813e-05	7.94789e-02	4.32069e-07	5.65725e-07	7.86197e-02	3.06710e-02	4.39986e-07	5.82689e-07	4.11320e-02	1.40425e-02	1.36022e-02	4.66921e-03	4.79335e-07	6.49530e-03	X	X	X	X	X	X	X	X	X	X	X	X	X	X	X	X	



#DISTANCE SETTINGS
A = Detector Channel
A-1	A-2	A-3	A-4	A-5	A-6	A-7	A-8	A-9	A-10	A-11	A-12	A-13	A-14	A-15	A-16	

2.5000e+00	3.0000e+00	2.5000e+00	3.0000e+00	2.0000e+00	3.0000e+00	1.5000e+00	3.0000e+00	3.0000e+00	3.0000e+00	3.0000e+00	3.0000e+00	3.0000e+00	3.0000e+00	1.5000e+00	3.0000e+00	

B = Detector Channel
B-1	B-2	B-3	B-4	B-5	B-6	B-7	B-8	B-9	B-10	B-11	B-12	B-13	B-14	B-15	B-16	

1.0000e+01	1.0000e+01	1.0000e+01	1.4400e+00	1.0000e+01	1.0000e+01	1.5100e+00	1.9400e+00	1.0000e+01	1.0000e+01	1.9900e+00	2.4900e+00	2.4100e+00	2.9000e+00	1.0000e+01	2.9800e+00	




#DATA BEGINS
time	group	step	mark	flag	A-AC1	A-AC2	A-AC3	A-AC4	A-AC5	A-AC6	A-AC7	A-AC8	A-AC9	A-AC10	A-AC11	A-AC12	A-AC13	A-AC14	A-AC15	A-AC16	A-DC1	A-DC2	A-DC3	A-DC4	A-DC5	A-DC6	A-DC7	A-DC8	A-DC9	A-DC10	A-DC11	A-DC12	A-DC13	A-DC14	A-DC15	A-DC16	A-Ph1	A-Ph2	A-Ph3	A-Ph4	A-Ph5	A-Ph6	A-Ph7	A-Ph8	A-Ph9	A-Ph10	A-Ph11	A-Ph12	A-Ph13	A-Ph14	A-Ph15	A-Ph16	B-AC1	B-AC2	B-AC3	B-AC4	B-AC5	B-AC6	B-AC7	B-AC8	B-AC9	B-AC10	B-AC11	B-AC12	B-AC13	B-AC14	B-AC15	B-AC16	B-DC1	B-DC2	B-DC3	B-DC4	B-DC5	B-DC6	B-DC7	B-DC8	B-DC9	B-DC10	B-DC11	B-DC12	B-DC13	B-DC14	B-DC15	B-DC16	B-Ph1	B-Ph2	B-Ph3	B-Ph4	B-Ph5	B-Ph6	B-Ph7	B-Ph8	B-Ph9	B-Ph10	B-Ph11	B-Ph12	B-Ph13	B-Ph14	B-Ph15	B-Ph16	aux-1	digaux	

1467.228	1	1	0	256	0.29464	0.011006	0.28532	0.16423	0.10391	0.2151	0.13119	0.10451	0.18775	0.33959	0.14789	0.16899	0.10836	0.18928	0.095425	0.041106	-2.5271	-3.3937	-3.125	-2.8354	-3.3167	-3	-3.2417	-3.3146	-3.2	-3.2292	-3.2958	-3.1229	-3.3563	-3.0104	-3.325	-3.4729	128.036	56.855	100.514	190.596	115.570	247.396	268.656	129.887	125.089	70.925	95.450	230.622	1.273	278.056	140.331	158.557	9.8273e-06	1.7194e-05	1.0873e-05	53.862	4.2786e-07	3.5046e-07	44.83	20.18	4.1089e-07	9.8983e-07	16.888	4.9304	6.1936	2.147	9.898e-07	1.8073	1.5319e-05	-2.9253e-05	-7.0972e-06	64.969	-3.0425e-07	-3.2883e-07	53.727	24.354	-1.0358e-07	3.03e-06	20.318	5.9441	7.5079	2.6367	1.6188e-06	2.1988	214.524	106.197	103.599	-18.598	112.198	60.759	-20.684	-13.678	249.025	123.852	-17.206	-13.271	-9.915	-4.754	221.419	-10.422	-8191	255	
1467.324	1	1	0	0	0.083746	0.064036	0.081382	0.030341	0.028622	0.29844	0.26018	0.18153	0.092014	0.069017	0.16617	0.21894	0.4097	0.26182	0.061577	0.12512	-2.5521	-3.4708	-3.1771	-2.8479	-3.4375	-3.0375	-3.0146	-3.2354	-3.0125	-3.3146	-3.1646	-2.9667	-3.3833	-3.1125	-3.1729	-3.4125	-17.246	249.663	324.353	-15.667	79.538	156.844	83.731	234.805	247.949	123.435	305.673	-4.064	-24.406	-6.635	327.667	125.963	8.6678e-06	5.5012e-05	1.4093e-05	53.806	1.0537e-06	5.9598e-07	44.588	20.191	4.1852e-07	8.9409e-07	16.887	4.9523	6.2072	2.1663	8.711e-07	1.8303	1.7128e-05	-3.6339e-05	-9.4344e-06	65.013	-3.2315e-07	-3.4297e-07	53.596	24.333	-1.375e-07	1.7711e-06	20.421	5.9702	7.5224	2.6482	3.0498e-06	2.2181	178.057	110.269	28.742	-18.508	104.116	135.286	-20.760	-13.677	174.111	22.064	-17.969	-13.193	-10.018	-4.888	218.183	-9.641	-8191	255	
1467.420	1	1	0	0	0.15111	0.22189	0.17656	0.10065	0.12984	0.16893	0.20879	0.15621	0.21318	0.2098	0.24008	0.12346	0.144	0.03133	0.37192	0.28242	-2.5875	-3.2458	-3.1792	-2.9479	-3.3729	-3.2771	-3.1979	-3.2396	-3.0312	-3.3563	-3.0854	-2.9083	-3.3187	-3.0792	-3.0958	-3.3438	188.730	67.732	61.440	146.276	-7.779	40.684	304.915	10.309	97.520	122.237	135.829	298.376	296.181	298.789	292.700	179.386	5.7198e-06	3.7883e-05	6.7055e-06	54.088	4.4999e-07	6.0286e-07	45.397	20.382	3.121e-07	1.1161e-06	17.3	4.967	6.1953	2.185	9.1328e-07	1.8564	1.0585e-05	-3.5428e-05	-1.2199e-05	64.855	2.6464e-07	-4.184e-07	54.216	24.587	-9.3497e-08	3.4075e-06	20.719	6.065	7.5835	2.6787	1.7236e-06	2.2547	248.054	126.544	82.919	-18.631	274.995	73.390	-20.728	-13.741	205.456	97.561	-17.710	-13.008	-9.471	-4.616	232.742	-9.921	-8191	255	
1467.517	1	1	0	0	0.16664	0.1065	0.18348	0.24338	0.28523	0.12201	0.25707	0.12811	0.18434	0.12654	0.11622	0.27609	0.18751	0.16511	0.34607	0.29788	-2.475	-3.1625	-3.2042	-2.8042	-3.3167	-3.1042	-2.9813	-3.2	-2.9542	-3.2521	-3.3021	-2.7313	-3.4313	-3.0812	-2.8583	-3.3937	70.892	223.267	228.328	294.673	269.314	322.429	149.930	272.239	187.281	40.809	-18.216	9.813	100.779	-0.436	166.578	85.049	1.4969e-05	5.7974e-05	8.9153e-06	54.165	7.0544e-07	9.8374e-08	45.54	20.588	4.105e-07	1.04e-06	17.125	5.0071	6.2455	2.2055	9.9803e-07	1.8619	9.8152e-06	-4.3627e-05	-1.1316e-05	65.269	2.4268e-06	-4.903e-07	54.819	24.772	-1.9799e-07	1.8051e-06	20.689	6.0644	7.6067	2.6907	3.0038e-06	2.2453	237.971	78.660	-6.306	-18.372	249.037	300.981	-20.501	-13.389	114.444	123.707	-17.489	-13.096	-9.610	-4.801	232.190	-10.538	-8191	255	
1467.635	1	1	0	0	0.026583	0.22902	0.29134	0.41498	0.11677	0.18881	0.077676	0.1375	0.17294	0.053614	0.090983	0.2322	0.16634	0.24539	0.3048	0.112	-2.4979	-3.1562	-3.2625	-3.0833	-3.2562	-3.1562	-3.0875	-3.2333	-3.1937	-3.2521	-3.2188	-2.9938	-3.3083	-3.0438	-3.1417	-3.3646	211.618	208.839	78.714	214.421	248.499	147.635	20.928	74.524	139.690	156.157	111.682	143.628	280.980	237.471	249.231	24.860	1.3734e-05	3.2898e-05	1.4667e-05	54.14	3.6045e-07	9.1986e-07	45.066	20.42	5.6636e-07	1.1104e-06	17.077	4.9913	6.2101	2.1861	5.1908e-07	1.8462	1.0623e-05	-2.3281e-05	-1.5135e-05	64.919	1.2719e-06	-5.0208e-07	54.169	24.547	-2.7591e-07	3.535e-06	20.536	6.0288	7.5919	2.6912	6.3712e-07	2.2599	211.113	127.379	58.824	-18.797	65.644	159.999	-20.889	-13.926	191.248	128.074	-17.761	-13.081	-10.539	-4.808	124.728	-9.613	-8191	255	
1467.732	1	1	0	0	0.097174	0.089642	0.15182	0.2971	0.31041	0.051938	0.14938	0.10175	0.18547	0.11341	0.2877	0.1706	0.16887	0.20792	0.046629	0.10428	-2.7396	-3.2104	-3.2687	-3.0729	-3.4208	-3.1625	-2.8333	-3.2229	-3.1625	-3.1271	-3.2375	-2.9146	-3.1354	-3.1167	-2.9625	-3.2958	127.870	219.456	297.862	11.600	160.865	167.901	90.513	208.676	292.229	153.762	121.382	90.049	7.140	-4.786	260.853	26.115	1.7345e-05	4.0184e-05	7.5063e-06	53.427	1.1291e-06	5.3708e-07	45.495	20.364	5.2633e-07	5.0792e-07	17.144	5.024	6.3342	2.1897	3.9813e-07	1.8377	1.8476e-06	-1.8827e-05	-1.3197e-05	65.003	2.5951e-06	-5.3272e-07	54.658	24.629	-2.5849e-07	1.8367e-06	20.613	6.0815	7.6524	2.6791	-2.3467e-07	2.2925	189.996	108.262	71.173	-18.363	48.540	118.800	-20.662	-13.681	245.592	165.221	-17.263	-12.647	-10.295	-4.812	219.384	-9.375	-8191	255	
1467.828	1	1	0	0	0.25501	0.10514	0.052769	0.25973	0.1913	0.15275	0.28382	0.22372	0.17757	0.086824	0.090049	0.28325	0.082629	0.232	0.038617	0.18083	-2.7271	-2.9771	-3.5021	-2.875	-3.4667	-3.275	-3.0021	-3.2104	-3.1875	-2.9896	-3.5458	-3.0687	-3.0375	-3.4375	-2.9333	-3.1542	302.448	222.162	273.387	312.210	309.271	117.635	100.842	154.959	165.438	158.343	316.901	252.736	85.456	30.091	266.639	67.081	9.319e-06	2.1749e-05	3.6864e-06	54.281	5.4555e-07	3.4527e-07	45.766	20.415	2.7018e-07	1.1244e-06	17.324	4.9961	6.3343	2.1978	5.0941e-07	1.8769	4.9268e-06	-2.9253e-05	-1.4707e-05	65.225	1.4501e-06	-6.7533e-07	54.941	24.795	-3.4557e-07	3.745e-06	20.89	6.1153	7.6941	2.6934	-2.127e-07	2.2977	214.153	184.052	225.583	-18.459	100.649	252.402	-20.542	-13.288	256.216	118.577	-17.511	-13.002	-9.686	-4.439	71.708	-10.004	-8191	255	
1467.924	1	1	0	0	0.17316	0.1688	0.035877	0.16043	0.10512	0.22577	0.12784	0.17755	0.089202	0.18426	0.1116	0.11321	0.31375	0.15182	0.060078	0.11007	-2.8625	-2.9854	-3.2979	-2.9604	-3.1125	-3.3542	-2.7625	-3.2875	-3.4458	-3.0271	-3.4292	-3.1583	-3.0458	-3.3563	-3.05	-3.2542	309.251	89.940	301.843	84.430	27.245	69.293	217.235	-1.597	163.795	60.065	2.782	258.265	153.785	101.070	319.539	64.581	1.0627e-05	7.0305e-05	8.3955e-06	54.328	1.4178e-06	3.0588e-07	45.618	20.426	5.6229e-07	5.5708e-07	17.002	4.9598	6.2428	2.1739	4.7262e-07	1.841	2.117e-06	-1.6904e-05	-1.599e-05	65.127	2.7589e-06	-6.8712e-07	54.574	24.664	-3.5566e-07	7.7813e-07	20.669	6.0415	7.6113	2.6614	-1.5678e-07	2.28	254.147	15.867	15.761	-18.545	51.554	18.794	-20.679	-13.562	186.396	96.705	-17.755	-12.841	-10.054	-4.799	201.556	-10.518	-8191	255	
1468.020	1	1	0	0	0.11815	0.39595	0.023102	0.10473	0.28547	0.12147	0.065373	0.22898	0.10081	0.17309	0.091518	0.098959	0.2376	0.11693	0.21751	0.25839	-2.7375	-2.7771	-3.5125	-3.2167	-2.9542	-3.3312	-2.9875	-3.0792	-3.3333	-2.875	-3.4	-3.1083	-2.8542	-3.4292	-3.2479	-3.3667	34.148	202.281	52.369	97.725	13.595	245.574	188.906	320.520	299.379	21.810	86.762	109.575	43.163	114.530	-6.357	188.937	5.8687e-06	2.6088e-06	7.3023e-06	53.769	5.7836e-07	6.1496e-07	45.261	20.343	2.8476e-08	3.0118e-07	17.324	4.9853	6.251	2.1665	5.3345e-07	1.8293	-1.8861e-06	-1.3361e-05	-1.2769e-05	64.563	1.4771e-06	-6.2112e-07	54.116	24.54	-3.9782e-07	-3.6297e-07	20.853	6.0288	7.591	2.6551	-3.575e-07	2.2452	212.537	45.570	47.389	-18.833	72.790	73.132	-20.299	-13.264	125.350	233.309	-17.812	-13.193	-10.381	-5.113	80.717	-9.721	-8191	255	
1468.116	1	1	0	0	0.2015	0.10587	0.053743	0.1409	0.12175	0.14802	0.26123	0.17712	0.12797	0.16118	0.087746	0.11187	0.086511	0.12459	0.1739	0.12995	-2.9625	-2.9313	-3.2687	-3.2521	-2.9	-3.4104	-3.3104	-3.0458	-3.2208	-3.1417	-3.3458	-2.8979	-3.1125	-3.4188	-3.0479	-3.0708	142.751	205.115	127.959	5.200	271.194	319.870	20.749	23.519	266.824	-0.460	163.700	228.755	251.276	260.075	156.335	177.209	1.5909e-05	5.0367e-06	1.5641e-05	54.066	8.0291e-07	2.9182e-07	45.361	20.347	7.3422e-07	4.0597e-07	17.214	5.0434	6.3356	2.1698	1.1801e-06	1.8508	1.0008e-06	-2.5508e-05	-1.4308e-05	64.842	2.8211e-06	-7.2366e-07	54.42	24.658	-3.8407e-07	-4.2002e-07	20.937	6.0848	7.6668	2.6666	-2.177e-07	2.2953	212.260	230.474	13.284	-18.859	96.278	116.245	-20.416	-13.805	90.361	-15.524	-17.505	-13.129	-10.021	-4.996	106.714	-9.731	-8191	255	
1468.237	1	1	0	0	0.098344	0.21626	0.09838	0.18311	0.056628	0.051586	0.14562	0.17943	0.093387	0.064569	0.10568	0.09799	0.093696	0.19149	0.28065	0.30888	-2.8771	-2.8104	-3.1333	-3.1729	-2.9104	-3.4583	-3.0625	-2.7562	-3.5563	-3.1396	-3.325	-3.2917	-3.1063	-3.2646	-3.0479	-3.0521	0.177	118.186	13.660	-2.454	169.940	28.703	-13.340	230.192	286.857	126.772	223.979	1.458	323.055	80.354	53.807	160.459	1.2542e-05	2.9922e-05	7.9953e-06	54.634	9.8039e-07	1.0092e-06	46.095	20.615	4.8896e-07	3.2365e-07	17.584	5.0998	6.3523	2.2329	8.2668e-07	1.893	-2.6559e-06	-1.8119e-05	-1.3824e-05	65.475	5.5989e-07	4.7262e-07	55.353	24.969	-4.0974e-07	-4.4187e-07	21.376	6.21	7.7599	2.7211	-1.9673e-07	2.3243	241.040	306.003	250.665	-18.657	60.561	132.616	-20.647	-13.248	253.338	52.024	-17.059	-12.899	-10.190	-5.047	183.047	-9.681	-8191	255	
1468.333	1	1	0	0	0.2665	0.089458	0.031695	0.14984	0.17332	0.32128	0.031852	0.18653	0.087056	0.26838	0.40331	0.16895	0.19608	0.13341	0.2424	0.16035	-3.0458	-2.8375	-3.0354	-3.3125	-2.8312	-3.2375	-3.2875	-2.9813	-3.325	-2.8875	-3.2854	-3.4708	-2.8833	-3.2667	-3.1875	-3.0312	160.800	275.450	-26.767	39.497	54.137	-15.979	133.916	142.122	-21.771	42.531	-23.977	-24.444	-6.263	69.196	326.776	34.774	9.0322e-06	3.5593e-05	2.787e-05	54.822	4.8627e-07	1.5581e-06	45.883	20.475	2.3317e-07	7.5828e-07	17.215	5.0331	6.2972	2.2204	3.1346e-07	1.9045	-1.1547e-06	-2.7735e-05	-1.0575e-05	65.761	-2.1153e-07	3.392e-06	55.068	24.909	-4.8948e-07	-4.7829e-07	21.018	6.1275	7.7091	2.72	-4.3739e-07	2.3348	229.182	300.300	34.357	-18.541	206.078	56.883	-20.460	-13.443	261.569	100.589	-17.655	-12.746	-9.944	-5.170	72.168	-9.779	-8191	255	
1468.429	1	1	0	0	0.16813	0.2998	0.11239	0.21679	0.18148	0.11607	0.032385	0.13856	0.23493	0.11548	0.25142	0.11312	0.1584	0.055541	0.030433	0.055089	-2.8854	-2.8958	-3.1146	-3.4417	-2.8333	-3.4521	-3.275	-2.9313	-3.3875	-3.1167	-3.0958	-3.3063	-2.9542	-3.475	-3.2188	-2.8708	58.410	318.810	133.792	189.590	228.034	54.390	297.666	-29.473	160.680	51.656	253.293	163.736	275.448	289.180	62.807	283.033	6.8162e-06	6.8898e-05	2.2397e-06	54.543	6.6697e-07	8.3636e-07	46.15	20.783	5.3329e-08	3.8361e-07	17.48	5.0703	6.4132	2.2443	7.9441e-07	1.9158	-6.7359e-06	-4.0692e-05	-1.0689e-05	65.741	-2.7094e-07	1.6265e-06	55.384	25.05	-4.3357e-07	-6.1182e-07	21.36	6.1684	7.7869	2.7491	-5.5922e-07	2.3264	233.537	-15.023	38.110	-18.692	242.041	80.344	-20.736	-13.607	222.383	87.373	-17.256	-12.821	-10.430	-4.547	229.243	-10.218	-8191	255	
1468.525	1	1	0	0	0.16643	0.18027	0.19924	0.077621	0.12212	0.058136	0.18647	0.30578	0.035509	0.24266	0.23852	0.11309	0.079062	0.055397	0.13359	0.19058	-3.0333	-3.0979	-3.0896	-3.3479	-3.0021	-3.2146	-3.3438	-2.7646	-3.2854	-3.3458	-3.0146	-3.5646	-2.9896	-3.1813	-3.3458	-2.975	276.461	-3.778	191.014	294.797	21.493	170.297	47.172	254.906	205.502	-6.201	283.224	143.108	-3.111	301.349	158.230	200.538	1.8993e-05	8.8961e-05	4.2266e-06	55.384	6.3295e-07	1.89e-06	46.592	20.912	2.3991e-07	4.7484e-07	17.515	5.1272	6.4036	2.27	1.0346e-06	1.9358	3.5796e-05	-4.4943e-05	-1.1572e-05	66.426	-1.8543e-07	3.4156e-06	55.928	25.26	-4.5557e-07	-6.5431e-07	21.445	6.2659	7.8267	2.776	-5.6322e-07	2.3421	279.059	7.688	98.804	-18.839	155.653	46.803	-20.387	-13.484	232.009	137.993	-17.677	-12.832	-10.227	-5.581	191.789	-9.187	-8191	255	
1468.620	1	1	0	0	0.22173	0.17034	0.13527	0.13293	0.14632	0.21945	0.079044	0.18775	0.30652	0.38896	0.19381	0.10352	0.1457	0.091991	0.088572	0.12444	-2.875	-3.0729	-3.1375	-3.4771	-2.8708	-3.1542	-3.4083	-3.0083	-3.1854	-3.1896	-2.9875	-3.5667	-2.9417	-3.1875	-3.2292	-2.8292	293.046	158.918	155.776	49.144	78.047	279.759	257.819	164.290	24.776	130.712	193.332	154.994	162.433	175.150	128.663	186.439	1.5248e-05	1.4842e-05	2.1437e-05	55.363	1.6438e-07	1.0607e-06	46.863	21.057	4.8877e-07	4.5014e-07	17.672	5.2018	6.4071	2.2607	4.0974e-07	1.9215	0.00012998	-4.5348e-05	-1.0518e-05	66.718	-2.6914e-07	1.9659e-06	56.439	25.471	-3.4832e-07	-5.2442e-07	21.703	6.294	7.8403	2.7609	-4.6036e-07	2.3211	277.780	88.178	82.184	-18.565	-21.522	47.486	-20.646	-13.898	131.542	128.185	-17.693	-13.093	-10.241	-4.520	161.657	-9.540	-8191	255	
1468.716	1	1	0	0	0.29335	0.26428	0.19153	0.14223	0.2483	0.11882	0.22604	0.1579	0.14195	0.047383	0.15241	0.26145	0.056894	0.10499	0.31692	0.099319	-3.0021	-2.9917	-3.0312	-3.3146	-2.8958	-3.0458	-3.3396	-2.9792	-3.1021	-3.2896	-2.825	-3.2771	-3.0563	-2.7896	-3.4292	-3.0625	92.109	-29.523	157.039	147.845	297.565	239.521	7.527	323.954	175.737	149.151	35.674	32.222	148.396	124.256	314.260	78.157	1.0982e-05	1.2136e-05	1.1825e-05	55.132	6.3316e-07	1.2516e-06	46.095	20.754	2.5526e-07	6.765e-07	17.462	5.0993	6.3759	2.2482	1.4235e-07	1.899	6.8937e-05	-5.4559e-05	-7.1257e-06	66.202	-2.8265e-07	3.4509e-06	55.27	25.16	-4.0607e-07	-6.4824e-07	21.066	6.2089	7.7832	2.743	-5.3026e-07	2.3086	301.895	50.988	12.668	-18.429	54.893	58.294	-20.816	-13.426	223.860	122.878	-17.319	-12.952	-10.204	-4.371	26.080	-10.021	-8191	255	
1468.812	1	1	0	0	0.038141	0.145	0.06455	0.14294	0.27856	0.21704	0.21833	0.25586	0.026013	0.18285	0.15376	0.12199	0.093451	0.15482	0.13708	0.18577	-2.6875	-3.2375	-2.9083	-3.2562	-3.3729	-3.0062	-3.4104	-2.9208	-3.0708	-3.3125	-2.8187	-3.2917	-3.1813	-2.9542	-3.3958	-2.9146	-5.020	249.275	87.987	26.623	74.660	32.241	94.051	-11.138	128.415	236.193	-17.400	313.160	284.705	184.585	15.186	27.750	6.2262e-06	4.7149e-05	8.7878e-07	54.923	2.8165e-07	1.4548e-06	45.916	20.811	1.488e-07	5.7907e-07	17.276	5.178	6.4325	2.2541	9.1738e-07	1.9096	0.0001336	-5.294e-05	-8.2088e-06	66.331	-3.6636e-07	1.8586e-06	55.441	25.164	-2.0349e-07	-8.1091e-07	21.112	6.3446	7.7983	2.7625	-5.3626e-07	2.326	-26.254	39.265	14.340	-18.365	174.595	106.288	-20.884	-13.764	137.699	165.130	-17.315	-12.670	-10.301	-5.146	129.369	-10.187	-8191	255	
1468.933	1	1	0	0	0.17584	0.22954	0.20356	0.23086	0.27741	0.2709	0.12607	0.14482	0.10825	0.059072	0.072469	0.18664	0.094633	0.20626	0.070302	0.047613	-2.7396	-3.2771	-2.9833	-3.2062	-3.1604	-2.9833	-3.4354	-3.0042	-3.1396	-3.3667	-3.0458	-3.1708	-3.1937	-2.8021	-3.0625	-3.2104	49.155	85.553	255.145	186.475	150.389	251.476	96.292	85.556	241.840	-16.151	240.368	242.814	40.741	67.022	82.873	177.074	7.5938e-06	0.00010779	1.1294e-05	55.186	7.4258e-07	1.1565e-06	46.886	21.003	5.3695e-07	5.3402e-07	17.894	5.1188	6.5003	2.2733	3.8561e-07	1.9522	8.4141e-05	-6.2252e-05	-1.0546e-05	66.531	-3.8256e-07	3.1115e-06	56.065	25.375	-1.3841e-07	-7.1258e-07	21.482	6.3541	7.8909	2.7919	-4.3639e-07	2.3659	304.073	6.991	70.954	-18.076	148.792	116.741	-20.621	-14.156	143.562	194.498	-17.651	-12.550	-9.413	-4.895	113.861	-10.184	-8191	255	
1469.004	1	1	0	0	0.21621	0.034663	0.20506	0.19844	0.12952	0.10783	0.19446	0.13734	0.23984	0.056093	0.14319	0.20065	0.31819	0.076708	0.27182	0.16199	-2.6875	-3.35	-3.0208	-3.0292	-3.4167	-3.0125	-3.3063	-3.2188	-2.7979	-3.6104	-2.9833	-3.0479	-3.1354	-3.0521	-3.2375	-3.1542	249.218	222.074	197.884	112.174	18.475	-27.353	184.243	310.207	180.899	164.524	48.430	106.144	4.106	79.612	170.218	248.345	1.5531e-05	2.9228e-05	2.8342e-06	55.594	2.0905e-07	7.2604e-07	46.877	21.004	1.9173e-07	1.1004e-06	17.613	5.1862	6.5194	2.2863	4.3934e-07	1.9328	0.00013506	-5.6685e-05	-1.0746e-05	67.178	-4.4737e-07	1.9211e-07	56.568	25.445	-1.6041e-07	-7.5143e-07	21.36	6.4113	7.9057	2.7966	-4.6436e-07	2.35	299.635	26.400	78.900	-18.295	89.720	91.373	-20.603	-13.686	267.984	113.910	-17.475	-13.621	-10.002	-4.936	47.754	-9.557	-8191	255	
1469.100	1	1	0	0	0.21317	0.039424	0.14893	0.15141	0.28163	0.14821	0.15867	0.087801	0.23092	0.39734	0.1452	0.1717	0.18812	0.15179	0.25409	0.24267	-2.5563	-3.2583	-3.0792	-3.1333	-3.3063	-2.6688	-3.3917	-3.3375	-3.0187	-3.2396	-2.9979	-3.2021	-3.5104	-3.0042	-3.2083	-3.2292	298.465	176.857	289.263	63.469	182.409	39.488	9.562	269.805	-6.413	158.225	168.953	126.556	95.959	33.767	59.310	145.718	1.693e-05	5.1252e-05	1.5896e-05	55.594	1.5366e-07	7.8881e-07	46.655	21.008	3.5674e-07	3.4754e-07	17.738	5.1862	6.4875	2.2987	3.9163e-07	1.9669	8.391e-05	-6.3062e-05	-1.0432e-05	67.002	-4.8428e-07	-3.0879e-07	56.689	25.51	-2.6399e-07	-7.7449e-07	21.384	6.3958	7.9109	2.8153	-4.1742e-07	2.3766	247.992	55.825	10.637	-18.719	107.943	222.248	-20.351	-13.725	143.296	59.218	-17.570	-13.235	-10.066	-5.006	129.905	-9.747	-8191	255	
1469.197	1	1	0	0	0.079048	0.19976	0.26166	0.028112	0.20812	0.22417	0.077926	0.22913	0.21291	0.21645	0.2427	0.26583	0.041711	0.078921	0.15695	0.22835	-2.6146	-3.3146	-3.0312	-3.3063	-3.4062	-3.0083	-3.2979	-3.3458	-3	-3.2646	-3.1229	-2.95	-3.5146	-3.0146	-3.1063	-3.3167	154.749	259.711	33.499	-17.655	171.458	177.843	121.805	197.148	258.731	254.666	162.119	262.183	165.447	201.366	227.833	188.029	7.4341e-06	4.431e-05	1.6723e-05	55.741	2.9977e-07	1.0038e-06	46.991	21.247	3.454e-07	8.4625e-07	17.94	5.2442	6.5922	2.3161	4.9665e-07	1.9643	0.00011505	-5.3243e-05	-1.2598e-05	67.171	-5.2118e-07	-4.4787e-07	56.814	25.655	-1.6866e-07	-7.0408e-07	21.653	6.4994	7.9753	2.8321	-3.635e-07	2.396	324.803	95.200	28.598	-18.479	196.291	124.608	-20.862	-13.811	78.018	82.488	-18.423	-12.660	-10.333	-5.028	51.652	-9.989	-8191	255	
1469.317	1	1	0	0	0.059724	0.23111	0.27945	0.194	0.17618	0.27635	0.16726	0.14677	0.16691	0.16775	0.15541	0.29525	0.090512	0.14764	0.17115	0.071615	-2.5583	-3.2104	-3.2417	-3.0375	-3.4083	-2.9562	-3.2812	-3.3021	-2.8083	-3.2896	-3.4062	-3.0521	-3.2625	-3.0938	-3.0458	-3.3583	302.198	212.581	116.100	-3.412	216.375	34.600	6.721	316.572	67.641	33.328	53.162	130.823	197.577	316.542	101.074	-2.227	4.0559e-06	3.5051e-05	9.2584e-06	56.389	4.9991e-07	1.6809e-07	47.847	21.372	8.0862e-08	6.8289e-07	18.104	5.3619	6.6279	2.3405	7.8505e-07	2.01	2.4365e-05	9.0696e-05	-1.314e-05	67.724	-5.3559e-07	-3.854e-07	57.888	25.888	-2.0533e-07	-6.3974e-07	21.904	6.5961	8.0872	2.8735	-3.5551e-07	2.4333	255.567	92.166	25.136	-18.528	145.879	300.625	-20.527	-13.654	234.840	90.883	-17.573	-12.856	-9.979	-4.908	262.531	-9.783	-8191	255	
1469.413	1	1	0	0	0.12274	0.30071	0.20943	0.22593	0.12573	0.093764	0.207	0.13975	0.10409	0.40454	0.20744	0.19827	0.17856	0.11103	0.10306	0.18898	-2.4792	-3.2479	-3.025	-3.0729	-3.5438	-2.9458	-3.3063	-3.4833	-2.9625	-3.3312	-3.3438	-2.8563	-3.4813	-3.1146	-2.9458	-3.4979	147.958	245.255	278.262	77.515	286.063	279.824	321.952	310.835	150.634	184.406	195.265	170.417	10.258	272.928	303.763	154.683	9.9951e-06	0.0001612	1.4308e-05	56.015	4.2458e-07	3.7843e-07	47.465	21.225	5.2851e-07	6.4364e-07	18.075	5.2711	6.6203	2.3483	1.0181e-07	1.9668	7.5442e-06	0.00030428	-1.3425e-05	67.765	-4.9418e-07	-4.3962e-07	57.121	25.825	-2.1908e-07	-5.9847e-07	21.759	6.4814	8.026	2.8534	-2.9459e-07	2.3969	240.923	309.293	71.941	-18.442	187.400	-0.518	-20.705	-13.655	163.148	111.022	-17.602	-13.143	-9.369	-4.997	116.900	-9.894	-8191	255	
1469.509	1	1	0	0	0.34614	0.24199	0.13371	0.074513	0.097343	0.23718	0.11185	0.11355	0.048491	0.091026	0.12136	0.16205	0.23559	0.19073	0.37905	0.04961	-2.6708	-3.0479	-3.3292	-2.9625	-3.375	-2.9271	-3.0104	-3.6042	-3.0896	-3.2292	-3.3708	-2.95	-3.3208	-3.05	-3.0271	-3.5187	63.973	81.504	206.305	24.954	308.508	51.197	305.142	128.006	122.539	152.268	94.339	28.259	115.925	-25.047	67.551	150.522	1.0441e-05	3.7507e-05	1.2876e-05	56.1	4.2155e-07	6.7469e-07	47.643	21.364	1.4059e-07	2.2752e-07	17.821	5.2065	6.6173	2.3365	3.5347e-07	1.9821	7.1208e-06	0.00016135	-1.4337e-05	67.953	-4.2487e-07	-5.3155e-07	57.525	25.82	-2.9149e-07	-5.2078e-07	21.677	6.4202	8.0352	2.8598	-2.0272e-07	2.4024	250.636	-20.757	-13.176	-18.142	-10.081	98.918	-20.713	-13.470	36.761	327.223	-17.869	-13.153	-10.152	-5.264	159.409	-10.004	-8191	255	
1469.628	1	1	0	0	0.084922	0.17494	0.20049	0.21364	0.21377	0.21242	0.20846	0.11561	0.11021	0.19155	0.05178	0.17029	0.10666	0.040313	0.034554	0.20359	-2.5021	-3.1021	-3.5396	-2.9979	-3.0896	-3.2938	-2.9813	-3.4125	-3.0812	-3.2958	-3.3271	-2.6208	-3.3063	-3.2896	-2.9062	-3.2375	49.272	118.482	281.564	314.515	51.385	161.209	113.410	77.609	309.210	257.860	169.612	49.049	172.230	213.010	273.842	-31.048	9.2294e-06	0.00015077	6.7709e-06	56.146	4.3604e-07	7.2309e-07	47.736	21.456	2.4683e-07	4.1726e-07	17.991	5.2688	6.5369	2.3192	8.9989e-07	1.972	6.0431e-06	0.00031015	-1.8128e-05	68.064	-4.8968e-07	-4.903e-07	57.685	25.928	-2.9516e-07	-3.8967e-07	21.785	6.4514	8.1358	2.8718	-3.1456e-07	2.4342	237.757	-23.211	32.205	-18.750	166.843	165.622	-20.793	-13.630	235.060	222.249	-17.779	-13.000	-10.063	-4.871	156.565	-10.283	-8191	255	
1469.700	1	1	0	0	0.30338	0.13527	0.13427	0.22545	0.40407	0.083051	0.04359	0.11196	0.27107	0.070132	0.20952	0.13779	0.072074	0.14451	0.12908	0.053615	-2.7562	-3.0771	-3.3229	-3.0271	-3.2417	-3.3896	-2.7521	-3.0687	-3.1146	-3.1042	-3.275	-2.9854	-3.1833	-3.2188	-2.9021	-3.3479	200.434	173.235	74.131	176.835	222.747	101.959	151.313	62.230	262.989	308.769	15.108	49.981	131.506	-24.079	-17.588	166.698	1.1554e-05	0.00010208	4.1433e-06	56.507	2.1945e-07	3.9277e-07	48.045	21.432	4.3481e-07	4.8924e-07	18.404	5.3628	6.633	2.3566	5.1366e-07	2.0026	4.8114e-06	0.00015892	-1.6475e-05	68.442	-3.7086e-07	-6.8948e-07	58.43	26.071	-3.5474e-07	-4.5887e-07	22.045	6.522	8.1468	2.8871	-2.4766e-07	2.4354	233.204	323.932	102.046	-18.560	158.178	201.290	-20.651	-13.710	157.880	173.597	-18.075	-13.218	-9.983	-4.358	155.492	-9.699	-8191	255	
1469.796	1	1	0	0	0.17956	0.10788	0.15142	0.066006	0.18741	0.10131	0.10093	0.23414	0.062445	0.17501	0.13442	0.18878	0.31819	0.072802	0.30875	0.20825	-2.7083	-3.0083	-3.2958	-3.1292	-3.0208	-3.1292	-2.9625	-3.3021	-3.0958	-3.0292	-3.4125	-2.9646	-3.0417	-3.4542	-3.1896	-3.25	277.382	152.479	61.172	303.344	111.459	262.811	244.751	15.415	261.354	237.205	48.420	102.603	130.030	76.803	14.681	208.535	1.459e-05	3.3573e-05	7.9948e-06	56.535	4.1106e-07	2.6138e-07	47.459	21.363	3.9943e-07	5.442e-07	17.935	5.2608	6.525	2.3418	3.7641e-07	1.9852	-1.8476e-06	0.00031875	-1.4679e-05	68.157	-3.6996e-07	-7.0598e-07	57.094	25.86	-3.9415e-07	-3.6418e-07	21.636	6.3723	8.0709	2.8713	-4.4338e-07	2.4141	234.294	307.077	153.175	-18.434	139.943	-24.270	-20.790	-13.680	178.976	314.398	-18.108	-12.731	-10.007	-5.344	182.341	-9.789	-8191	255	
1469.917	1	1	0	0	0.053312	0.25159	0.075819	0.10328	0.16823	0.23675	0.11789	0.10599	0.28166	0.27211	0.20232	0.14046	0.045903	0.21743	0.34122	0.091313	-2.5458	-3.0625	-3.5625	-2.9958	-3.1562	-3.4667	-3.2042	-3.4167	-2.9979	-2.9667	-3.3979	-2.9271	-2.9562	-3.2479	-3.1312	-3.1562	69.694	79.290	195.922	320.154	-18.277	267.135	196.658	281.480	25.622	70.372	-23.311	168.749	73.977	305.711	322.895	273.377	1.4137e-05	0.00014251	1.8814e-05	56.425	4.1723e-07	3.8069e-07	47.194	21.277	3.6475e-07	3.8413e-07	17.856	5.2754	6.575	2.335	8.7314e-07	1.9834	3.0793e-07	0.00016469	-2.1691e-05	67.823	-2.9345e-07	-6.9655e-07	56.715	25.936	-3.7032e-07	-4.3095e-07	21.562	6.3843	8.0128	2.845	-3.7548e-07	2.4037	222.780	3.312	63.484	-18.490	327.188	205.978	-20.618	-13.640	196.529	108.050	-17.806	-12.917	-10.135	-5.220	92.331	-9.609	-8191	255	
1470.013	1	1	0	0	0.085402	0.32861	0.17376	0.11491	0.19078	0.12145	0.074607	0.13565	0.19805	0.02312	0.1371	0.14678	0.23611	0.38488	0.15392	0.23931	-2.9542	-2.8979	-3.4542	-3.0854	-3.0167	-3.4417	-2.7646	-3.1708	-3.4646	-2.9792	-3.3896	-2.9875	-2.9646	-3.5812	-3.0167	-3.0646	133.762	136.850	301.773	163.272	257.022	259.103	-17.551	276.596	-14.717	45.790	154.746	112.088	193.810	168.566	75.316	231.262	7.9229e-06	0.00012636	8.7283e-06	56.29	8.1508e-07	4.4926e-07	47.902	21.426	3.6931e-07	2.7792e-07	18.041	5.3244	6.6139	2.3493	2.2944e-07	1.996	-3.8491e-06	0.0001987	-2.3372e-06	67.691	-3.2495e-07	-7.5901e-07	57.053	25.893	-4.9498e-07	-4.6615e-07	21.716	6.4269	8.1244	2.8682	-3.3653e-07	2.4329	251.403	0.091	136.616	-18.460	112.430	127.994	-20.562	-13.613	89.691	253.208	-17.692	-13.289	-10.158	-4.855	20.853	-9.760	-8191	255	
1470.109	1	1	0	0	0.077977	0.25895	0.38047	0.15811	0.20864	0.15129	0.091545	0.20813	0.31019	0.15856	0.052609	0.13175	0.16111	0.10808	0.20112	0.26222	-2.9562	-2.8667	-3.3083	-3.2792	-3.0583	-3.4562	-3.1437	-3.1437	-3.3	-2.9813	-3.1896	-2.9521	-2.825	-3.1729	-3.025	-2.9813	65.499	252.777	246.294	137.366	31.852	156.191	266.889	-12.190	291.288	243.165	248.954	125.665	211.321	315.973	162.719	282.318	8.2306e-06	8.4203e-05	1.858e-05	57.005	5.0936e-07	4.0886e-07	47.929	21.489	4.074e-07	8.9193e-08	18.218	5.3114	6.5476	2.3657	9.9821e-08	2.0041	-6.0046e-06	-2.6318e-05	2.7876e-05	68.203	-2.1063e-07	-8.1912e-07	57.392	26.181	-4.7207e-07	-4.7586e-07	21.785	6.4133	8.0501	2.8763	-3.8746e-07	2.4163	234.262	-12.162	22.449	-18.518	115.967	156.900	-20.739	-13.453	121.069	50.255	-17.838	-12.932	-10.278	-4.608	107.825	-10.160	-8191	255	
1470.230	1	1	0	0	0.12737	0.20497	0.10135	0.178	0.16921	0.093683	0.083331	0.028497	0.28332	0.26184	0.17128	0.13641	0.059636	0.28168	0.10628	0.20027	-2.9958	-2.8146	-3.4583	-3.3396	-2.9313	-3.6083	-3.1333	-3.0125	-3.5042	-3.1854	-3.4542	-3.2396	-2.8875	-3.2771	-3.3604	-3.0208	204.858	-24.519	314.506	142.667	28.891	142.930	156.326	328.317	-4.570	167.198	316.571	264.619	256.106	248.402	125.697	266.482	1.3761e-05	2.554e-05	2.9428e-05	56.021	5.1781e-07	5.446e-07	47.452	21.547	4.942e-07	5.11e-07	17.963	5.2728	6.6022	2.3622	6.8094e-08	2.0181	-4.5419e-06	-3.806e-05	7.9295e-05	67.601	-3.0515e-07	-7.8141e-07	56.565	25.935	-4.7665e-07	-5.9847e-07	21.615	6.3725	8.0593	2.8788	-4.6635e-07	2.4181	237.201	31.443	9.955	-18.469	87.415	141.113	-21.015	-13.591	179.592	51.839	-17.479	-12.832	-9.744	-4.523	185.620	-9.993	-8191	255	
1470.301	1	1	0	0	0.21104	0.14298	0.23144	0.23338	0.051782	0.18133	0.32291	0.028525	0.21668	0.11964	0.11218	0.061215	0.22469	0.11671	0.17027	0.16507	-2.9646	-2.8875	-3.2417	-3.4	-2.9354	-3.375	-3.0979	-2.7458	-3.2396	-3.0208	-3.2021	-3.4458	-3.0812	-3.4521	-3.2	-3.0542	245.307	105.818	-15.080	100.127	252.135	88.892	29.363	192.319	160.993	194.728	-19.218	223.151	-7.544	7.684	127.736	258.383	1.0547e-05	4.8105e-05	3.0949e-05	56.319	4.6312e-07	6.2219e-07	47.157	21.233	4.196e-07	4.0311e-07	18	5.2105	6.602	2.336	2.4246e-07	1.9938	-6.8899e-06	-2.7431e-05	4.1928e-05	67.471	-2.2234e-07	-6.2465e-07	56.601	25.927	-3.8224e-07	-5.6448e-07	21.534	6.353	7.9679	2.8709	-4.4538e-07	2.4171	241.586	31.085	-9.207	-18.155	145.983	75.508	-20.945	-13.436	123.343	64.783	-17.653	-12.856	-9.988	-4.799	198.009	-9.596	-8191	255	
1470.398	1	1	0	0	0.070311	0.096428	0.13667	0.13781	0.34142	0.20009	0.18663	0.19475	0.095836	0.34587	0.19724	0.17006	0.069722	0.020937	0.26606	0.3122	-3.1042	-2.9958	-2.8896	-3.4917	-2.9104	-3.3542	-3.0729	-2.9771	-3.375	-3.0771	-3.0958	-3.3292	-2.95	-3.0646	-3.2542	-2.9792	268.356	-14.392	127.938	273.747	197.371	1.297	11.999	55.311	311.556	173.625	146.643	182.275	59.798	215.952	20.215	-12.825	1.3115e-05	1.1243e-05	3.4727e-05	56.21	1.7052e-07	2.8737e-07	47.393	21.415	3.51e-07	3.4434e-07	18.018	5.2749	6.5744	2.3346	2.571e-07	1.9939	-8.1216e-06	-4.9903e-05	8.3485e-05	67.682	-2.6014e-07	-6.0344e-07	56.783	25.956	-4.3174e-07	-6.1182e-07	21.707	6.3923	7.98	2.8894	-4.8433e-07	2.4207	231.781	78.960	9.012	-18.473	43.515	153.987	-20.796	-13.459	218.595	97.770	-17.754	-13.245	-10.016	-4.946	10.885	-9.156	-8191	255	
1470.494	1	1	0	0	0.15687	0.17582	0.18891	0.1107	0.073244	0.1405	0.20309	0.077546	0.019839	0.14734	0.039755	0.21394	0.25761	0.14927	0.11055	0.10914	-2.9333	-2.8792	-3.0417	-3.5083	-3.0083	-3.2146	-3.2042	-2.9479	-3.375	-3.0604	-2.8646	-3.4	-2.8604	-3.15	-3.3563	-2.9729	128.109	287.477	142.828	143.255	162.001	13.975	66.451	321.230	29.878	53.775	20.109	93.342	72.312	305.677	299.183	-27.185	1.3038e-05	6.4174e-05	2.6005e-05	56.593	5.9018e-07	2.641e-07	46.721	21.076	1.2719e-06	1.4907e-07	17.659	5.2208	6.5094	2.3053	2.8188e-07	1.9467	-4.6189e-06	-3.9679e-05	5.0735e-05	67.524	-3.5736e-07	-5.563e-07	56.165	25.727	1.6499e-07	-6.7859e-07	21.31	6.2892	7.8914	2.8363	-4.6835e-07	2.365	254.839	-29.030	32.019	-18.672	186.081	94.831	-20.567	-14.132	223.287	170.036	-17.482	-12.580	-10.209	-5.123	192.018	-9.600	-8191	255	
1470.613	1	1	0	0	0.095343	0.31841	0.21826	0.11918	0.26142	0.13116	0.21907	0.19095	0.16801	0.21338	0.37707	0.12054	0.16205	0.090213	0.062257	0.052586	-3.0104	-3.2667	-2.8958	-3.4646	-3.0167	-3.1896	-3.4771	-3.1167	-3.3625	-3.25	-2.9542	-3.6167	-3.1333	-3.1958	-3.3583	-3.1604	275.617	159.608	232.297	249.588	245.740	82.748	194.603	178.394	251.961	295.340	299.749	38.561	-7.230	168.363	188.706	301.679	1.6334e-05	5.9323e-05	2.0221e-05	55.248	1.1784e-06	5.0146e-07	46.584	21.094	1.0041e-06	7.2675e-07	17.682	5.1857	6.4549	2.2863	5.4759e-07	1.9641	-1.8091e-06	-5.3952e-05	8.6734e-05	66.509	-3.4115e-07	-5.0797e-07	55.735	25.442	1.1971e-06	-7.1015e-07	21.286	6.2686	7.8601	2.8532	-5.4225e-07	2.3685	240.627	179.700	32.559	-18.423	184.895	125.785	-20.552	-13.645	212.775	153.190	-17.923	-12.746	-9.951	-5.048	143.769	-9.588	-8191	255	
1470.709	1	1	0	0	0.17785	0.21951	0.17627	0.15957	0.21608	0.23891	0.15766	0.15542	0.027307	0.3453	0.11743	0.095704	0.031402	0.21814	0.14445	0.11846	-2.9333	-3.1562	-3.1354	-3.4146	-3.0479	-3.1104	-3.2708	-2.9896	-3.1833	-3.375	-2.8875	-3.2604	-3.0792	-3.0417	-3.2104	-3.0062	199.833	-13.868	18.251	255.048	144.835	170.854	-11.845	256.454	223.756	218.643	112.766	182.012	324.655	49.846	27.163	297.204	1.11e-05	4.7021e-05	2.4105e-05	56.124	3.5322e-07	5.2455e-07	47.16	21.202	9.3444e-07	3.8467e-07	17.829	5.1912	6.5233	2.3271	7.7183e-07	1.9624	-2.6559e-06	-5.294e-05	4.3609e-05	67.095	-4.1767e-07	-3.8069e-07	56.154	25.574	2.7087e-06	-8.1091e-07	21.405	6.323	7.9112	2.8618	-6.0616e-07	2.3994	181.446	127.214	59.667	-18.545	168.842	50.488	-20.949	-13.652	228.533	-0.564	-17.718	-13.092	-9.866	-4.906	107.031	-9.653	-8191	255	
1470.805	1	1	0	0	0.097249	0.19806	0.31473	0.091215	0.30188	0.22628	0.33707	0.17953	0.18843	0.10628	0.20767	0.21315	0.11067	0.077156	0.12878	0.10072	-2.625	-3.2917	-2.7896	-3.1875	-3.2458	-3.1021	-3.4271	-2.8417	-3.2812	-3.3875	-2.9917	-3.2021	-3.075	-3.0354	-3.4354	-2.8729	-13.656	293.206	260.844	269.934	9.370	237.924	23.954	256.238	51.811	187.973	217.399	222.175	17.587	255.639	103.248	229.495	1.2136e-05	3.995e-05	3.8492e-05	56.292	3.7309e-07	7.4446e-07	47.063	21.29	7.1152e-07	1.7168e-07	17.997	5.293	6.6563	2.3135	5.7902e-07	1.9708	4.157e-06	-5.962e-05	4.3552e-05	67.613	-4.0687e-07	-5.7162e-07	56.622	25.773	1.5326e-06	-8.4975e-07	21.642	6.3965	7.9761	2.8816	-5.8519e-07	2.3996	236.409	49.553	18.885	-18.384	167.276	119.608	-20.751	-13.538	282.035	105.352	-17.850	-13.231	-10.020	-5.066	104.677	-9.326	-8191	255	
1470.901	1	1	0	0	0.1718	0.089922	0.022779	0.18226	0.32454	0.2074	0.13466	0.20163	0.22666	0.045884	0.23144	0.15916	0.14239	0.27075	0.12489	0.13467	-2.65	-3.3625	-3.0833	-3.4208	-3.1063	-3.0917	-3.5333	-3.0271	-2.9125	-3.4271	-3.0854	-3.3229	-3.2021	-2.9979	-3.3792	-3.1104	278.986	315.848	-27.387	270.959	272.331	-22.447	165.348	-17.833	210.955	67.094	47.402	150.974	-23.698	68.332	181.717	29.768	1.4702e-05	3.8923e-05	8.1633e-06	56.152	8.0551e-08	5.4799e-07	47.028	21.227	1.1726e-06	5.1539e-07	17.513	5.1495	6.4843	2.3022	8.9637e-07	1.9383	2.1555e-06	-5.7596e-05	-1.3396e-05	67.507	-3.4926e-07	-4.9737e-07	55.914	25.498	2.8581e-06	-7.2836e-07	21.189	6.2455	7.8414	2.8305	-6.2214e-07	2.3581	225.391	126.811	291.161	-18.578	128.549	162.058	-21.079	-13.445	270.857	124.407	-17.824	-12.803	-9.640	-4.788	170.983	-9.917	-8191	255	
1470.997	1	1	0	0	0.092711	0.05445	0.13744	0.1337	0.051084	0.37572	0.16994	0.091016	0.035705	0.15716	0.12891	0.22546	0.069366	0.28579	0.10623	0.081701	-2.6167	-3.3063	-2.8583	-3.2438	-3.4521	-2.9646	-3.4771	-2.9396	-2.9375	-3.5354	-3.0792	-3.175	-3.2313	-2.8292	-3.2542	-3.2146	301.152	23.097	182.192	281.179	251.947	-8.573	310.066	161.228	121.088	286.763	-8.059	219.045	-17.257	139.030	1.399	-3.261	1.1586e-05	7.1536e-05	1.1455e-05	55.625	2.6372e-07	4.6671e-07	46.563	21.077	9.2065e-07	7.0553e-07	17.604	5.1544	6.4856	2.3111	4.9893e-07	1.9669	5.6582e-06	-6.0126e-05	-1.1259e-05	67.432	-4.8788e-07	-4.4904e-07	55.823	25.366	1.5225e-06	-9.6993e-07	21.196	6.26	7.8441	2.8368	5.4724e-07	2.3729	231.064	116.590	130.740	-18.337	107.393	136.815	-20.852	-13.629	256.511	187.832	-18.020	-12.818	-9.679	-4.609	316.535	-9.919	-8191	255	
1471.093	1	1	0	0	0.16149	0.057844	0.067076	0.23463	0.13293	0.23313	0.05507	0.092542	0.21372	0.11916	0.1478	0.24117	0.10668	0.21619	0.10353	0.026288	-2.7542	-3.5875	-2.9125	-2.8896	-3.4667	-2.9729	-3.4646	-3.1354	-2.95	-3.4167	-3.1	-3.0354	-3.2104	-2.9729	-3.1708	-3.3208	226.305	296.525	-4.966	259.948	-26.700	27.152	-29.140	49.302	-7.777	-20.710	268.266	42.055	219.357	321.104	257.827	205.611	1.1052e-05	6.5933e-05	1.255e-05	55.502	1.0359e-06	5.3571e-07	46.683	21.237	8.7592e-07	6.7202e-07	17.737	5.1848	6.5609	2.3214	2.2032e-07	1.9836	2.6559e-06	-7.0552e-05	-1.1458e-05	66.994	-4.6447e-07	-5.1033e-07	56.087	25.576	2.7792e-06	-8.2912e-07	21.389	6.3249	7.9321	2.8323	1.2952e-06	2.4004	216.800	51.178	74.171	-18.701	153.535	114.388	-20.850	-13.894	253.886	131.066	-18.019	-13.225	-9.846	-5.180	152.419	-8.488	-8191	255	
1471.189	1	1	0	0	0.14633	0.14991	0.46874	0.072695	0.14027	0.18249	0.17314	0.17425	0.16261	0.11173	0.15781	0.25718	0.16049	0.22294	0.14655	0.06694	-2.5438	-3.2646	-2.9333	-2.9354	-3.3958	-2.8271	-3.2938	-3.2792	-3.2292	-3.2958	-3.1833	-3.2667	-3.5792	-3.0354	-3.025	-3.2729	301.519	151.039	52.489	281.856	245.451	252.546	234.432	8.284	52.626	302.140	114.100	115.379	320.473	80.294	83.766	181.980	9.3872e-06	1.2913e-05	1.7021e-05	56.201	6.9633e-07	6.5094e-07	47.05	21.408	6.0461e-07	6.0041e-08	17.833	5.2346	6.5191	2.3147	5.8219e-07	1.9648	6.0431e-06	-8.0067e-05	-1.2484e-05	68.11	-4.2487e-07	-4.5612e-07	56.734	25.788	1.6261e-06	-7.5385e-07	21.479	6.351	7.9141	2.8334	3.0068e-06	2.3822	253.296	0.691	35.802	-18.482	136.575	80.994	-20.924	-13.572	286.723	215.356	-17.883	-12.945	-10.005	-4.979	66.824	-9.905	-8191	255	
1471.310	1	1	0	0	0.057764	0.31493	0.15056	0.10574	0.018775	0.043817	0.086042	0.062556	0.30455	0.043277	0.10049	0.11229	0.041938	0.34377	0.20969	0.22204	-2.7062	-3.2958	-3.1979	-3.1354	-3.5	-3	-3.3625	-3.2646	-2.7604	-3.4229	-3.2771	-3.1562	-3.3563	-3.0625	-3.3146	-3.5771	221.648	292.887	302.140	71.309	71.321	83.958	280.095	265.658	141.249	165.315	47.626	-20.753	57.687	185.381	271.891	59.474	1.4054e-05	3.1928e-05	1.1955e-05	55.548	2.2245e-07	6.8798e-07	46.694	21.238	1.8736e-07	1.2618e-06	17.632	5.1576	6.5165	2.2987	7.4184e-07	1.9539	6.351e-06	-5.4053e-05	-1.5591e-05	67.074	-5.4459e-07	-5.3744e-07	55.645	25.533	1.2475e-06	8.534e-07	21.164	6.2594	7.8788	2.8071	1.6217e-06	2.3525	238.727	76.129	124.854	-18.424	77.113	95.464	-20.828	-13.844	136.730	225.065	-17.759	-12.674	-9.795	-5.246	91.686	-9.804	-8191	255	
1471.405	1	1	0	0	0.22252	0.058346	0.16428	0.15892	0.11148	0.10379	0.27177	0.098253	0.21665	0.076516	0.27787	0.11802	0.16856	0.15824	0.23673	0.061153	-2.4354	-3.125	-3.3021	-2.975	-3.4688	-3.1042	-3.1937	-3.3375	-2.9229	-3.2375	-3.1875	-2.9229	-3.3875	-3.225	-3.2229	-3.2646	156.142	111.161	26.307	284.905	212.527	174.635	282.498	36.546	226.122	186.065	69.794	164.650	269.728	21.631	217.615	153.113	1.2595e-05	3.409e-05	9.7061e-06	55.275	6.1391e-07	3.473e-07	46.134	21.097	3.7494e-07	3.3338e-07	17.691	5.138	6.4725	2.2922	1.2383e-06	1.9603	4.7729e-06	-5.0105e-05	-1.6275e-05	67.116	-4.6988e-07	-5.7515e-07	55.468	25.403	-1.9249e-07	1.6813e-06	21.197	6.2324	7.8382	2.7867	2.859e-06	2.3432	181.648	75.476	123.104	-18.416	140.725	164.070	-20.385	-13.365	102.828	184.408	-17.861	-13.139	-10.339	-5.269	70.628	-9.775	-8191	255	
1471.501	1	1	0	0	0.11692	0.31338	0.10667	0.2733	0.11353	0.044602	0.11559	0.074921	0.1074	0.40898	0.12328	0.054514	0.086065	0.018803	0.058566	0.051184	-2.6208	-3.2271	-3.1	-2.8708	-3.4667	-3.2646	-2.95	-3.2604	-3.1354	-3.2229	-3.4229	-2.9229	-3.3167	-3.175	-3.0354	-3.3688	299.494	-23.713	219.706	326.554	206.414	322.730	151.265	40.391	-7.775	255.639	305.494	146.800	124.158	202.526	206.719	265.684	1.6233e-05	7.6247e-05	1.8299e-06	55.565	5.1372e-07	6.434e-07	46.151	21.08	2.2466e-07	1.3026e-06	17.685	5.1854	6.4668	2.2818	5.604e-07	1.968	2.04e-06	-6.0228e-05	-1.733e-05	66.861	-5.3379e-07	-6.1051e-07	55.762	25.44	-2.7316e-07	3.5811e-06	21.311	6.3104	7.8746	2.7888	1.7665e-06	2.3602	248.912	48.025	103.152	-18.344	119.942	118.397	-20.519	-13.723	84.358	273.199	-17.648	-12.821	-9.905	-4.996	95.114	-9.275	-8191	255	
1471.599	1	1	0	0	0.19165	0.087929	0.07846	0.14487	0.0089776	0.01991	0.10505	0.13238	0.097605	0.091477	0.26539	0.18196	0.16701	0.2442	0.12774	0.25777	-2.5896	-3.1271	-3.1562	-2.9917	-3.3646	-3.1292	-2.9208	-3.425	-2.8812	-3.3375	-3.5771	-2.7542	-3.3896	-3.1646	-2.9542	-3.2854	286.907	66.614	26.328	92.936	38.782	-28.670	12.106	10.899	71.562	240.050	206.668	41.354	-19.156	33.918	68.932	171.534	1.2322e-05	6.9829e-05	1.677e-05	55.385	7.9155e-07	7.8801e-07	46.712	20.992	3.2082e-07	6.7874e-07	17.675	5.1471	6.4594	2.2745	1.281e-06	1.9337	2.7713e-06	-4.798e-05	-1.7358e-05	66.916	7.5702e-07	-5.999e-07	55.804	25.438	-2.7957e-07	1.7942e-06	21.185	6.249	7.8032	2.7773	3.1037e-06	2.3387	260.586	69.545	59.757	-18.256	192.301	125.805	-20.646	-13.827	51.656	193.869	-17.747	-13.090	-10.160	-4.756	96.011	-9.028	-8191	255	
1471.693	1	1	0	0	0.28939	0.12677	0.24253	0.11951	0.21565	0.12566	0.056186	0.15633	0.16846	0.2058	0.031062	0.060883	0.037962	0.10715	0.066471	0.15625	-2.7083	-3.0479	-3.4604	-2.7521	-3.3187	-3.2646	-3.175	-3.4854	-3.1688	-3.0563	-3.2979	-3.0563	-3.3833	-3.3521	-2.8146	-3.3646	321.646	-21.464	41.311	-23.319	216.736	82.790	239.468	46.078	263.977	246.193	97.220	130.703	26.129	-16.605	246.568	215.423	1.1523e-05	1.4541e-05	2.2858e-05	54.995	1.3045e-06	5.0693e-07	45.931	20.878	3.8299e-07	7.0899e-07	17.501	5.0901	6.3944	2.2571	9.8663e-07	1.9196	1.7321e-06	-4.6056e-05	-2.0465e-05	66.007	1.4438e-06	-6.7298e-07	55.077	25.244	-3.4099e-07	3.6115e-06	21.005	6.1755	7.7719	2.7545	1.7296e-06	2.3142	235.899	108.072	38.105	-18.361	174.771	35.550	-21.160	-13.828	110.603	241.150	-17.228	-13.338	-10.059	-4.970	100.773	-9.658	-8191	255	
1471.789	1	1	0	0	0.047808	0.26258	0.22905	0.20781	0.1983	0.18999	0.19224	0.12111	0.088255	0.20129	0.24711	0.14275	0.25868	0.021147	0.17558	0.25105	-2.6875	-2.9375	-3.2271	-3.2125	-3.2396	-3.3688	-3.0292	-3.4396	-3.1271	-3.1146	-3.4625	-2.9562	-2.7875	-3.3771	-2.7854	-3.3083	139.916	299.026	305.125	13.554	-26.073	141.025	199.597	-20.937	157.776	237.625	29.448	45.277	300.063	239.915	85.587	262.318	1.0384e-05	8.4777e-05	1.1613e-05	55.018	6.1676e-07	5.6153e-07	46.374	21.056	4.5169e-08	4.4787e-07	17.571	5.1373	6.4673	2.278	1.2746e-06	1.9335	-2.8098e-06	-4.14e-05	-1.9125e-05	66.111	2.5231e-06	-7.378e-07	55.275	25.312	-4.0607e-07	2.0382e-06	21.061	6.231	7.8169	2.7758	9.4269e-07	2.3656	246.257	41.951	-21.135	-18.667	148.127	146.660	-20.329	-13.462	56.770	251.441	-17.387	-12.416	-9.954	-4.850	73.441	-9.827	-8191	255	
1471.910	1	1	0	0	0.16572	0.21021	0.26111	0.23774	0.18021	0.18583	0.083381	0.13503	0.080568	0.21239	0.063273	0.25612	0.19945	0.18574	0.14278	0.15716	-2.8271	-2.9833	-3.475	-2.9333	-3.2583	-3.4396	-2.9667	-3.3146	-3.3917	-3.1771	-3.4792	-2.9667	-3.1833	-3.4062	-2.9229	-3.3354	324.726	314.558	68.293	68.751	-19.611	240.195	90.894	32.354	187.832	125.433	233.499	49.909	191.815	100.703	237.992	228.003	1.4169e-05	8.1188e-05	1.8861e-05	55.781	8.1349e-07	6.2873e-07	46.608	21.121	2.2814e-07	1.2756e-06	17.723	5.1703	6.488	2.3144	3.6785e-07	1.9636	-2.7713e-06	-4.3526e-05	-1.6133e-05	66.636	1.4204e-06	-7.6609e-07	55.893	25.449	-5.0873e-07	3.6564e-06	21.333	6.3129	7.8845	2.81	-3.585e-07	2.4078	201.967	190.597	101.073	-18.315	200.051	205.052	-20.593	-14.010	211.902	323.896	-17.622	-12.592	-10.272	-4.927	129.415	-10.119	-8191	255	
1472.006	1	1	0	0	0.063636	0.30878	0.2546	0.093896	0.12644	0.059202	0.053086	0.035587	0.12204	0.24001	0.27771	0.086037	0.061642	0.059548	0.078405	0.084961	-2.7062	-2.9938	-3.3792	-3.0062	-3.0125	-3.5042	-2.9875	-3.1188	-3.4979	-3.0208	-3.1708	-3.4125	-3.1208	-3.2854	-3.1813	-3.1375	64.901	32.327	275.791	-9.889	161.576	141.668	142.054	297.552	8.633	289.835	112.160	121.162	314.478	58.598	157.393	281.790	1.0459e-05	5.5658e-05	1.2458e-05	55.393	1.1086e-06	8.7675e-07	46.425	21.011	5.9177e-07	7.6998e-07	17.501	5.127	6.4176	2.2805	5.5724e-07	1.9346	-1.5781e-06	-4.5348e-05	-1.7159e-05	66.634	2.7112e-06	-9.688e-07	55.544	25.397	-5.2615e-07	1.7991e-06	21.036	6.2216	7.8131	2.7776	-4.2641e-07	2.378	238.368	-20.339	143.624	-18.237	195.995	124.313	-20.568	-13.564	118.289	52.337	-17.741	-13.362	-10.517	-4.767	127.538	-9.924	-8191	255	
1472.102	1	1	0	0	0.19808	0.016083	0.22348	0.16294	0.26435	0.11651	0.068328	0.15362	0.1372	0.080273	0.14347	0.035308	0.16675	0.15861	0.19574	0.0934	-2.9188	-2.9708	-3.1312	-3.1437	-3.0646	-3.2667	-3.0125	-3.0667	-3.3063	-2.7979	-3.4542	-3.1688	-2.8979	-3.2979	-3.0146	-3.2771	151.487	276.383	150.320	54.602	282.203	166.400	167.437	253.269	10.242	53.220	191.216	167.901	58.337	56.093	235.710	278.782	1.4251e-05	5.1179e-05	5.9119e-06	55.305	1.391e-06	3.4582e-07	46.182	21.067	2.1485e-07	2.392e-07	17.471	5.1221	6.4108	2.2599	4.5489e-07	1.9485	-3.4642e-06	-4.0388e-05	-1.7643e-05	66.248	1.4357e-06	-7.4723e-07	55.203	25.409	-5.2432e-07	9.8936e-07	21.263	6.2226	7.8184	2.7771	-2.856e-07	2.3808	250.912	72.806	128.110	-18.668	165.734	168.607	-20.545	-13.900	239.470	14.588	-18.233	-12.807	-9.995	-4.765	156.560	-9.242	-8191	255	
1472.174	1	1	0	0	0.081025	0.070693	0.077036	0.31178	0.21551	0.14224	0.30838	0.18556	0.15483	0.17805	0.16915	0.20717	0.09656	0.13567	0.12053	0.26645	-3.0083	-2.7479	-3.2125	-3.325	-2.8604	-3.3583	-3.0896	-3.1104	-3.3979	-3.125	-3.1583	-3.0625	-2.975	-3.5333	-3.3771	-3.0396	24.073	186.713	98.347	146.832	108.558	194.687	87.470	97.499	322.757	112.232	221.944	-24.140	202.589	129.021	197.215	323.965	1.0483e-05	6.1529e-05	8.0805e-06	55.015	1.7797e-06	5.1092e-07	46.646	21.072	3.7753e-07	5.142e-07	17.605	5.1818	6.472	2.2787	4.2411e-07	1.9517	-1.0239e-05	-3.8161e-05	-1.2285e-05	66.489	2.6995e-06	-8.2619e-07	55.705	25.414	-6.4531e-07	-5.839e-07	21.398	6.2848	7.8683	2.7894	-3.8547e-07	2.4028	223.840	4.720	41.570	-18.282	191.959	133.513	-20.823	-13.689	138.562	167.108	-17.691	-13.227	-9.852	-4.813	265.403	-9.292	-8191	255	
1472.294	1	1	0	0	0.18842	0.10642	0.17661	0.1666	0.18743	0.12777	0.26241	0.14494	0.16931	0.10939	0.19784	0.16187	0.2877	0.20109	0.1106	0.33421	-2.9375	-2.9125	-3.3125	-3.3729	-2.925	-3.3	-3.0917	-3.0479	-3.5646	-3.1333	-3.2333	-3.175	-2.7375	-3.1979	-3.1833	-3.0563	1.878	265.925	120.532	60.193	106.226	263.269	46.753	169.279	90.513	106.884	229.324	247.418	263.906	61.975	-13.820	64.619	2.046e-05	4.901e-05	8.5878e-06	55.854	3.5076e-07	3.0395e-07	47.075	21.367	3.0067e-07	4.9421e-07	17.781	5.1664	6.5199	2.2895	2.7725e-07	1.9662	-5.5812e-06	-3.6238e-05	-1.4565e-05	66.907	1.4627e-06	-7.1069e-07	56.21	25.651	-5.1423e-07	-5.6448e-07	21.739	6.3278	7.9023	2.7962	-5.2527e-07	2.3939	231.724	20.707	118.420	-18.386	134.484	100.054	-20.786	-13.743	186.535	198.777	-18.024	-13.170	-10.079	-4.964	98.688	-10.000	-8191	255	
1472.391	1	1	0	0	0.047158	0.098615	0.13783	0.20066	0.32085	0.086119	0.152	0.11014	0.2138	0.054431	0.080507	0.10121	0.16943	0.19429	0.41328	0.11984	-3.05	-2.8875	-2.9875	-3.3396	-3.1896	-3.5521	-3.2083	-2.7938	-3.4313	-3.1542	-3.1542	-3.0417	-2.7958	-3.1437	-3.2396	-2.9437	-27.138	-0.652	-23.251	156.032	228.871	96.252	327.373	298.960	260.585	307.544	172.311	214.720	153.756	294.602	241.070	64.547	1.4538e-05	0.00011592	1.0153e-05	55.189	5.9742e-07	1.1414e-06	46.503	21.17	6.3938e-07	5.8449e-07	17.5	5.113	6.4521	2.2623	1.063e-06	1.9639	-6.9668e-06	-4.4133e-05	-9.9475e-06	66.475	6.139e-07	1.432e-06	55.448	25.442	-5.234e-07	-6.9801e-07	21.25	6.2255	7.8227	2.7797	-5.033e-07	2.3884	229.231	75.034	47.637	-18.446	175.515	191.166	-20.768	-13.427	143.668	135.233	-18.055	-13.194	-10.087	-4.395	124.182	-9.877	-8191	255	
1472.487	1	1	0	0	0.10566	0.028679	0.15654	0.066078	0.13866	0.052289	0.12873	0.060029	0.19628	0.099185	0.07645	0.27528	0.090961	0.12909	0.082518	0.35729	-2.9188	-2.9646	-3.05	-3.375	-3	-3.1292	-3.3542	-2.9354	-3.3208	-3.1208	-3.1979	-3.4646	-2.7896	-3.3771	-3.2812	-2.8937	144.571	307.444	68.266	101.416	-0.343	1.504	32.005	204.857	130.866	131.529	247.305	7.036	104.034	226.846	160.539	188.779	1.5704e-05	6.6503e-05	6.6904e-06	55.396	2.1261e-07	6.7967e-07	46.332	21.102	6.0634e-07	5.3871e-07	17.663	5.1706	6.4812	2.2853	5.599e-07	1.9314	-3.7336e-06	-4.1501e-05	-1.3111e-05	66.491	-1.9623e-07	1.7054e-06	55.36	25.323	-5.6282e-07	-6.4217e-07	21.435	6.2341	7.8465	2.7857	-6.1614e-07	2.3743	220.814	24.538	114.580	-18.684	147.180	164.652	-20.784	-13.397	192.633	117.028	-17.652	-13.046	-9.846	-4.984	168.399	-9.667	-8191	255	
1472.581	1	1	0	0	0.093392	0.077906	0.16951	0.073848	0.17436	0.14069	0.16272	0.17271	0.064358	0.13631	0.26496	0.090259	0.30167	0.020566	0.19047	0.062056	-2.9375	-3.1729	-3.0208	-3.6104	-3.35	-3.2229	-3.1708	-3.1604	-3.4375	-3.2396	-3.025	-3.5062	-3.0958	-3.2438	-3.425	-2.8875	319.732	317.218	187.792	290.851	73.283	-21.570	18.573	18.933	212.585	5.695	106.288	79.725	218.250	230.664	25.509	68.562	1.3058e-05	2.3802e-05	1.6539e-05	55.605	1.1236e-07	8.567e-07	46.494	21.238	5.3501e-07	6.1865e-07	17.742	5.224	6.5582	2.2887	2.2455e-07	2.0084	-7.7751e-06	-5.2636e-05	-1.3282e-05	66.784	-3.5466e-07	3.3449e-06	56.009	25.595	-5.6282e-07	-6.1182e-07	21.573	6.3428	7.9297	2.8163	-5.8019e-07	2.4137	230.492	20.332	107.844	-18.582	108.821	188.048	-20.712	-13.967	180.768	108.338	-17.704	-12.769	-10.028	-4.365	271.887	-9.697	-8191	255	
1472.702	1	1	0	0	0.20103	0.13072	0.20419	0.13511	0.16699	0.022001	0.051821	0.18061	0.055174	0.14836	0.20645	0.083137	0.12217	0.14543	0.21144	0.075053	-2.8292	-3.2979	-2.9583	-3.2	-3.1729	-3.1375	-3.425	-2.8417	-3.4	-3.3063	-3.0708	-3.4375	-3.1583	-3.0021	-3.5917	-3.0146	80.667	220.883	324.659	-28.405	3.466	195.315	40.161	70.220	322.032	117.303	217.483	159.107	-11.087	250.001	220.120	218.673	1.5037e-05	5.5586e-05	1.0694e-05	56.381	7.7379e-08	1.5778e-06	47.64	21.481	4.46e-07	1.0949e-06	17.822	5.3097	6.6256	2.3209	6.7823e-07	1.9872	7.2286e-05	-5.8304e-05	-1.1914e-05	67.508	-3.6366e-07	1.7867e-06	56.907	25.854	-4.5374e-07	-7.0408e-07	21.791	6.3947	7.9702	2.8405	-8.2985e-07	2.3911	192.886	38.494	9.265	-18.585	161.512	166.751	-20.936	-13.457	119.392	97.338	-17.860	-13.191	-10.074	-5.235	125.992	-9.503	-8191	255	
1472.798	1	1	0	0	0.078137	0.1044	0.18213	0.17053	0.18137	0.21842	0.21476	0.28837	0.15394	0.20161	0.044152	0.10196	0.14673	0.13947	0.057338	0.14178	-2.8042	-3.4729	-2.7625	-3.2792	-3.2583	-3.2188	-3.4104	-2.7313	-3.3	-3.3021	-3.0146	-3.1958	-3.0083	-2.9146	-3.4625	-2.7687	42.080	33.354	-30.089	282.510	257.227	88.024	234.416	246.750	38.941	91.014	-1.122	59.873	200.721	188.247	28.676	290.436	1.6775e-05	6.8623e-05	3.8062e-06	56.014	4.7841e-07	1.1149e-06	46.93	21.311	7.2052e-07	4.5238e-07	17.918	5.227	6.6115	2.3379	3.6798e-07	2.0013	7.8675e-05	-7.2476e-05	-1.1572e-05	67.297	-3.2135e-07	3.2388e-06	56.24	25.708	-3.7949e-07	-9.1895e-07	21.593	6.3725	7.9719	2.8486	-7.1601e-07	2.4186	199.679	327.868	58.224	-18.260	44.319	225.798	-20.761	-13.776	166.560	177.767	-18.120	-13.073	-10.082	-4.734	200.391	-9.491	-8191	255	
1472.870	1	1	0	0	0.20281	0.060217	0.12187	0.14866	0.057263	0.14769	0.17127	0.025659	0.25616	0.14528	0.19663	0.1225	0.033061	0.21671	0.016629	0.19113	-2.6542	-3.3937	-2.8333	-3.0833	-3.2479	-3.1083	-3.3625	-2.9167	-2.9896	-3.5375	-2.9542	-3.1896	-3.2562	-2.8854	-3.3417	-3.1854	27.942	199.509	239.787	103.440	189.470	-22.067	104.083	222.681	123.860	52.998	10.157	261.293	76.327	62.518	-7.244	187.526	2.2629e-05	3.8012e-05	3.8203e-06	56.938	2.4673e-07	5.9581e-07	47.455	21.515	3.4197e-07	4.9622e-07	18.067	5.3345	6.6586	2.3626	2.7537e-07	2.0288	0.00012687	-7.1666e-05	-9.4629e-06	67.998	-4.9778e-07	1.7585e-06	57.044	25.913	-2.8324e-07	-8.6068e-07	21.759	6.5234	8.06	2.8788	-6.1015e-07	2.4489	191.430	9.343	149.011	-18.842	225.129	262.668	-21.003	-13.993	215.255	74.243	-17.874	-12.866	-9.883	-5.394	105.862	-9.871	-8191	255	
1472.990	1	1	0	0	0.11749	0.11163	0.22069	0.16609	0.15612	0.080727	0.12498	0.22011	0.20383	0.25014	0.080191	0.12017	0.082559	0.18607	0.20741	0.065065	-2.7979	-3.4917	-2.9104	-3.1396	-3.175	-3.15	-3.4083	-2.9417	-2.7792	-3.4771	-3	-3.1813	-3.2854	-2.9729	-3.3438	-3.2938	210.939	-30.801	103.971	279.445	292.118	72.984	-0.145	256.967	223.136	246.550	207.191	264.665	-6.309	123.932	15.999	75.783	1.6789e-05	0.00010151	1.0372e-05	57.374	3.9567e-07	7.8265e-07	48.031	21.743	2.6036e-07	7.9271e-07	18.339	5.4273	6.7073	2.4047	3.1063e-07	2.0447	7.7828e-05	-8.3307e-05	-9.805e-06	68.63	-5.3829e-07	3.5924e-06	57.843	26.253	-3.0982e-07	-8.8617e-07	22.123	6.6688	8.1868	2.9381	-5.1528e-07	2.4956	206.447	87.531	7.147	-18.341	161.405	215.764	-20.743	-13.569	-31.442	116.821	-18.128	-13.105	-9.814	-5.418	74.947	-9.746	-8191	255	
1473.086	1	1	0	0	0.058138	0.2158	0.18646	0.08861	0.057019	0.065494	0.1352	0.15887	0.12401	0.024859	0.032289	0.11829	0.14666	0.26177	0.1491	0.26496	-2.4854	-3.4333	-2.9604	-3.2938	-3.4	-3.0333	-3.3833	-3.1354	-3.0792	-3.3104	-3.1708	-3.35	-3.3917	-2.85	-3.2458	-3.2375	313.735	223.888	135.858	274.468	40.782	124.541	96.404	108.482	98.014	26.119	248.512	290.658	253.468	166.886	318.885	246.648	2.7207e-05	1.826e-05	4.2059e-06	57.659	2.0559e-07	4.1769e-07	48.372	22	3.3709e-07	5.3661e-07	18.22	5.4112	6.6881	2.3953	8.3406e-08	2.0306	0.00013453	-6.6099e-05	-1.3938e-05	69.227	-6.193e-07	1.4497e-06	57.997	26.387	-2.6033e-07	-7.9149e-07	21.977	6.6533	8.1377	2.9162	-6.0915e-07	2.4653	163.878	83.595	24.633	-18.382	95.732	-8.548	-20.931	-13.701	210.469	159.933	-18.180	-13.339	-10.323	-5.060	291.636	-8.991	-8191	255	
1473.182	1	1	0	0	0.078016	0.14737	0.20683	0.094172	0.21428	0.10162	0.36499	0.078518	0.14334	0.094957	0.11947	0.20014	0.097124	0.22542	0.1234	0.20847	-2.6146	-3.2708	-3.0208	-3.1792	-3.3167	-3.1083	-3.2146	-3.1875	-3.0938	-3.45	-3.2313	-3.1042	-3.3583	-3.1188	-3.3688	-3.225	163.579	310.889	234.763	271.357	9.341	211.838	291.499	200.347	236.863	94.409	309.728	42.643	84.432	213.933	315.850	79.596	1.4974e-05	3.725e-05	6.5265e-06	57.912	2.4044e-07	6.0267e-07	48.093	21.975	3.4581e-07	6.1066e-07	18.102	5.3801	6.7233	2.3741	7.9293e-07	2.0458	7.6597e-05	-6.9338e-05	-1.237e-05	69.065	-6.319e-07	1.7325e-07	58.002	26.315	-3.0341e-07	-9.1773e-07	21.951	6.5958	8.1532	2.9136	-5.3725e-07	2.4688	192.904	59.869	33.994	-18.672	190.833	-21.533	-20.621	-13.803	244.078	80.858	-17.364	-13.019	-10.133	-5.038	107.119	-10.376	-8191	255	
1473.279	1	1	0	0	0.22198	0.21445	0.11226	0.14227	0.15903	0.14617	0.19381	0.15878	0.067889	0.057436	0.11528	0.24087	0.10029	0.14848	0.040724	0.11659	-2.5125	-3.5333	-3.0854	-2.9562	-3.3396	-2.7896	-3.2104	-3.2667	-2.9688	-3.2458	-3.1896	-2.9729	-3.4104	-3.1	-3.1854	-3.225	138.364	23.298	290.250	117.187	-18.476	259.896	37.990	159.497	72.318	323.831	273.205	42.341	71.042	7.229	188.431	76.036	1.9017e-05	4.1661e-05	1.6169e-05	57.799	6.3072e-07	5.175e-07	48.285	21.945	3.0385e-07	7.6117e-07	18.378	5.4784	6.8368	2.4122	3.6843e-07	2.069	0.00013645	-6.5795e-05	-1.5449e-05	69.324	-5.3559e-07	-5.7869e-07	58.494	26.475	-2.0716e-07	-9.2016e-07	22.175	6.7384	8.2374	2.9508	-3.5651e-07	2.5053	209.507	5.333	86.578	-18.212	144.618	120.762	-21.143	-13.849	148.028	55.682	-17.553	-13.832	-10.173	-4.989	83.404	-9.332	-8191	255	
1473.399	1	1	0	0	0.33053	0.072981	0.31158	0.25819	0.07657	0.086397	0.12323	0.10377	0.069754	0.041623	0.31269	0.078956	0.22349	0.26477	0.21939	0.083109	-2.5208	-3.325	-3.3042	-3.1188	-3.4667	-2.8917	-3.2042	-3.4979	-2.9938	-3.3521	-3.1583	-2.7958	-3.4625	-3.2583	-3.2438	-3.3146	209.118	53.880	60.683	-5.752	36.437	-6.507	239.017	68.218	42.881	93.133	-7.775	8.768	4.555	-26.297	-14.223	163.207	5.8666e-06	5.4998e-05	1.3816e-05	58.536	4.3134e-07	3.3175e-07	49.092	22.107	2.4886e-07	7.5977e-07	18.717	5.5935	6.8743	2.4398	2.3552e-07	2.099	6.4588e-05	-4.7069e-05	-1.8983e-05	69.925	-5.8329e-07	-4.6437e-07	59.56	26.695	-2.8782e-07	-8.4611e-07	22.507	6.8028	8.3111	2.9745	-4.4139e-07	2.5248	262.399	70.157	103.013	-18.464	126.399	220.964	-20.649	-13.622	174.046	76.369	-17.728	-13.015	-10.073	-5.218	207.301	-9.815	-8191	255	
1473.471	1	1	0	0	0.067678	0.48612	0.18824	0.14535	0.18801	0.11621	0.11526	0.22413	0.047765	0.088864	0.35691	0.076631	0.034429	0.13342	0.040713	0.22854	-2.4917	-3.4896	-3.1937	-3.0062	-3.5604	-3.3563	-3.0396	-3.4042	-2.9896	-3.2771	-3.3083	-2.925	-3.3271	-2.9146	-3.1271	-3.2771	12.745	216.615	266.472	23.555	186.111	172.837	209.441	259.232	315.329	316.036	140.726	218.160	257.728	125.679	10.955	131.982	1.1837e-05	8.7909e-05	1.2807e-05	58.099	1.2465e-07	7.2368e-08	48.466	21.959	4.2581e-07	2.1694e-07	18.419	5.4965	6.8169	2.4072	1.8093e-07	2.0333	2.3095e-05	0.00018878	-1.733e-05	69.71	-5.2658e-07	-7.8023e-07	58.652	26.501	-2.4108e-07	-5.8147e-07	22.079	6.6825	8.2182	2.9305	-3.9445e-07	2.4675	233.536	96.274	68.983	-18.504	85.656	170.262	-20.668	-14.069	167.634	22.378	-17.914	-13.009	-10.408	-4.945	28.587	-9.479	-8191	255	
1473.590	1	1	0	0	0.23108	0.058739	0.13239	0.15216	0.095947	0.031924	0.14454	0.17923	0.081579	0.18363	0.25433	0.033001	0.091737	0.19813	0.28837	0.22439	-2.6417	-3.1188	-3.3021	-2.8979	-3.4938	-3.3208	-2.9521	-3.3896	-3.1021	-3.2292	-3.2188	-3.0417	-3.2354	-3.1417	-3.2667	-3.3125	56.449	110.146	304.956	264.026	183.729	76.201	185.744	176.427	212.577	297.858	79.141	-30.128	305.402	173.545	125.761	196.241	8.9952e-06	0.00014126	1.7029e-05	58.298	2.748e-07	5.9456e-07	48.34	21.949	4.3268e-07	5.5966e-07	18.547	5.4917	6.7765	2.3919	1.2489e-06	2.0695	8.468e-07	0.00015983	-1.6845e-05	69.562	-5.4189e-07	-7.2601e-07	58.683	26.458	-3.8682e-07	-6.2882e-07	22.132	6.6463	8.2293	2.9322	-3.4951e-07	2.4855	247.056	87.419	44.903	-18.330	165.674	125.865	-20.845	-13.389	229.734	116.796	-17.659	-12.515	-9.785	-4.901	84.469	-9.999	-8191	255	
1473.686	1	1	0	0	0.16159	0.18848	0.027457	0.036514	0.21189	0.24803	0.22236	0.086241	0.099871	0.13196	0.12438	0.11883	0.079321	0.21405	0.11938	0.16574	-2.375	-3.0167	-3.4167	-2.8083	-3.1958	-3.2417	-3.1479	-3.3688	-2.9771	-3.1333	-3.4333	-2.9292	-3.1708	-3.1167	-2.9813	-3.3604	6.356	54.139	43.546	231.087	92.438	151.539	185.077	258.758	129.597	208.131	50.371	161.395	9.792	156.694	61.516	145.189	1.3624e-05	0.00011641	2.2989e-05	57.896	5.1375e-07	6.8486e-07	48.825	21.953	3.6652e-07	7.6184e-07	18.742	5.5092	6.8475	2.4134	2.7104e-07	2.0768	6.8129e-06	0.00029749	-2.0494e-05	69.444	-4.8968e-07	-7.5194e-07	58.749	26.618	-3.1441e-07	-5.4506e-07	22.402	6.681	8.3648	2.9518	-3.6449e-07	2.5051	248.491	88.591	13.240	-18.764	112.325	113.504	-21.011	-13.648	215.178	93.977	-17.717	-13.289	-9.894	-4.710	211.597	-9.555	-8191	255	
1473.782	1	1	0	0	0.0921	0.136	0.081109	0.13122	0.065696	0.3988	0.045131	0.16985	0.10904	0.27481	0.21229	0.30204	0.25022	0.18166	0.15947	0.1032	-2.7833	-3.0833	-3.5208	-2.8229	-3.1729	-3.3354	-2.9604	-3.3854	-3.1271	-3.1104	-3.5229	-2.9875	-3.0812	-3.3604	-2.9688	-3.2562	83.010	200.655	205.783	168.456	174.053	325.295	234.234	255.639	209.314	285.774	33.776	318.367	115.823	176.826	164.704	233.474	7.8105e-06	6.0269e-05	8.2039e-06	58.443	3.7328e-07	5.4647e-07	49.033	22.274	2.8853e-07	3.4346e-07	18.809	5.5949	6.8265	2.4186	5.2896e-07	2.087	-8.0831e-07	0.00016206	-1.847e-05	70.148	-4.2037e-07	-8.5684e-07	59.709	26.838	-4.3449e-07	-6.2032e-07	22.538	6.6905	8.3674	2.958	-3.6549e-07	2.5043	257.294	101.848	122.626	-18.575	109.419	116.368	-21.142	-13.732	172.904	86.750	-18.011	-13.180	-9.910	-5.303	168.353	-9.740	-8191	255	
1473.878	1	1	0	0	0.041288	0.23868	0.020185	0.13252	0.13376	0.26473	0.089568	0.1829	0.28638	0.28327	0.2396	0.13474	0.20249	0.21691	0.11357	0.10048	-2.9583	-3.0229	-3.2042	-2.9062	-3.1729	-3.4375	-2.8917	-3.1979	-3.3187	-3.0625	-3.4	-2.9562	-3.0875	-3.5042	-2.9688	-3.1771	291.239	205.541	-17.824	99.626	107.695	314.079	256.642	270.330	12.701	299.516	311.460	258.217	313.145	113.137	94.417	178.080	1.3279e-05	8.1223e-05	1.3779e-05	58.05	5.7113e-07	8.251e-07	48.783	21.96	2.927e-07	6.5645e-07	18.48	5.4867	6.8964	2.4141	1.9984e-07	2.0538	2.3095e-07	0.00031997	-1.9695e-05	69.803	-3.3935e-07	-8.4741e-07	58.43	26.612	-3.9599e-07	-4.4187e-07	22.224	6.6351	8.3721	2.9477	-2.9759e-07	2.4953	240.098	76.581	101.817	-18.700	115.934	124.201	-20.739	-13.627	150.687	147.088	-17.705	-12.613	-10.010	-4.698	145.861	-9.461	-8191	255	
1473.999	1	1	0	0	0.13487	0.088694	0.19203	0.09036	0.17911	0.12722	0.13805	0.20704	0.082797	0.34233	0.064312	0.14792	0.032158	0.11866	0.08718	0.14816	-2.6417	-2.9021	-3.3958	-3.0167	-3.0917	-3.475	-3.05	-3.225	-3.2417	-2.9875	-3.2771	-3.0896	-3.2438	-3.3646	-2.7875	-3.1479	153.819	305.152	319.530	318.405	172.894	223.510	-13.694	137.962	286.925	301.634	70.829	89.407	117.831	66.021	-30.757	205.627	1.9257e-05	0.00010157	1.1549e-05	58	4.1106e-07	5.562e-07	49.013	22.165	6.4641e-07	4.202e-07	18.681	5.4863	6.8156	2.4245	6.4298e-07	2.0811	-4.1185e-06	0.00017107	-2.0921e-05	69.841	-2.9885e-07	-7.2366e-07	58.73	26.898	-5.2523e-07	-4.8072e-07	22.401	6.6714	8.3509	2.9548	-3.3354e-07	2.5098	233.556	105.914	152.289	-18.691	203.038	54.501	-20.676	-13.637	195.052	70.114	-17.884	-12.990	-10.057	-4.890	139.104	-10.166	-8191	255	
1474.095	1	1	0	0	0.09483	0.014478	0.25173	0.035437	0.19137	0.1028	0.067212	0.13493	0.11962	0.20133	0.076787	0.18415	0.2414	0.048338	0.10344	0.12945	-2.9125	-3.0125	-3.2792	-3.2521	-3.1667	-3.3771	-2.9167	-3.1542	-3.1021	-2.8271	-3.2396	-3.2687	-2.9917	-3.25	-2.9354	-3.175	140.043	286.772	184.946	137.615	284.879	67.088	292.346	130.523	196.448	325.473	162.879	279.061	94.115	194.106	210.074	76.618	1.9999e-05	0.00015576	1.3866e-05	58.37	9.0579e-07	6.8163e-07	49.576	22.336	4.8379e-07	1.5782e-07	18.841	5.6005	6.9178	2.4502	3.4051e-07	2.0781	-7.3133e-06	0.0003224	-1.7216e-05	70.214	-2.8265e-07	-8.1559e-07	59.258	27.104	-4.6199e-07	-4.6372e-07	22.693	6.7749	8.4799	2.9894	-3.7947e-07	2.5389	218.954	131.099	14.116	-18.531	99.658	100.325	-21.057	-13.752	83.342	185.667	-17.625	-12.879	-10.202	-4.900	182.657	-10.252	-8191	255	
1474.167	1	1	0	0	0.14062	0.25875	0.066352	0.22215	0.11516	0.16503	0.23902	0.17262	0.14128	0.10577	0.17867	0.14027	0.13868	0.12896	0.12162	0.034734	-3.0938	-2.8354	-3.2062	-3.2354	-3.1854	-3.3688	-2.8667	-3.2	-3.3542	-2.875	-3.1063	-3.3125	-2.9792	-3.1646	-3.05	-3.2333	314.294	49.332	13.011	269.220	75.345	320.212	175.924	13.738	274.391	238.275	133.109	164.425	-18.234	162.185	142.473	56.671	1.0184e-05	7.073e-05	2.584e-05	59.243	7.7066e-07	2.4121e-07	49.42	22.346	3.631e-07	4.9981e-07	18.713	5.5673	6.8865	2.4445	4.7256e-07	2.0712	-5.9661e-06	9.3834e-05	-2.9358e-06	70.825	-3.3755e-07	-7.7198e-07	59.449	27.206	-5.0782e-07	-4.0303e-07	22.47	6.723	8.4241	2.9716	-4.4838e-07	2.5029	273.743	45.743	122.446	-18.595	22.005	74.849	-20.814	-13.636	197.062	135.721	-17.901	-13.010	-9.713	-5.315	111.874	-9.991	-8191	255	
1474.263	1	1	0	0	0.19867	0.22255	0.087116	0.26348	0.22892	0.058923	0.13155	0.15135	0.19462	0.18432	0.23848	0.1616	0.11869	0.16318	0.1189	0.14184	-2.8854	-2.8583	-3.3396	-3.2417	-2.9479	-3.4104	-3.0917	-2.8833	-3.5125	-3.0812	-3.1125	-3.3792	-2.9104	-3.3708	-3.1458	-3.0229	318.872	148.133	167.588	87.986	254.890	277.692	299.063	187.548	296.316	258.327	189.889	193.758	114.909	118.545	-9.867	-16.988	1.8823e-05	4.9646e-05	3.3737e-05	58.63	2.9129e-07	3.2962e-07	48.632	22.303	5.9332e-07	3.1419e-07	18.554	5.4627	6.9104	2.4108	4.5198e-07	2.0592	-6.0431e-06	-3.8161e-05	6.473e-05	70.175	-1.6203e-07	-7.3309e-07	58.618	26.911	-5.8298e-07	-5.1835e-07	22.302	6.6231	8.4327	2.9597	-4.3739e-07	2.4934	222.479	4.403	130.297	-18.351	119.308	38.153	-20.468	-13.439	163.586	49.216	-17.748	-13.109	-10.124	-4.679	31.899	-10.003	-8191	255	
1474.359	1	1	0	0	0.19917	0.17414	0.26418	0.13647	0.095282	0.050108	0.20104	0.091293	0.28756	0.10183	0.17872	0.073883	0.14895	0.12202	0.24835	0.057756	-3.0312	-2.95	-3.0917	-3.1479	-3.0458	-3.4146	-3.1292	-3.0083	-3.625	-3.1667	-3.0229	-3.3854	-3.05	-3.2854	-2.9458	-2.9229	287.409	87.711	95.456	278.233	51.626	325.444	303.288	46.885	167.745	-13.723	212.461	166.814	290.378	25.095	65.918	116.282	1.0409e-05	6.4185e-05	4.1864e-06	58.27	6.8299e-07	8.8243e-07	49.259	22.181	2.4869e-07	2.2421e-07	18.633	5.49	6.8593	2.412	3.5999e-07	2.0601	-7.1593e-06	-4.7372e-05	4.4749e-05	70.028	-3.1145e-07	-8.5212e-07	58.851	27.063	-5.564e-07	-6.361e-07	22.429	6.6695	8.3667	2.9592	-4.294e-07	2.5015	227.561	64.158	273.230	-18.841	138.669	3.808	-20.874	-13.893	223.476	42.074	-17.635	-12.927	-10.235	-5.017	50.858	-9.483	-8191	255	
1474.478	1	1	0	0	0.10486	0.08289	0.098988	0.27059	0.090416	0.070367	0.18388	0.15549	0.25677	0.035988	0.027206	0.19983	0.033965	0.13382	0.14666	0.2655	-3.05	-2.7354	-3.1292	-3.5458	-2.9	-3.2708	-3.1896	-2.9917	-3.4333	-3.1021	-3.0812	-3.1792	-2.8604	-3.3812	-3.2167	-2.9604	66.640	0.713	112.644	120.670	-8.095	37.402	218.933	214.815	285.390	19.661	120.780	130.435	46.274	45.599	138.210	26.329	1.4785e-05	4.3014e-05	2.4855e-05	58.416	2.2816e-07	9.237e-08	49.26	22.26	5.6488e-07	2.1963e-07	18.862	5.5536	6.9332	2.446	9.0782e-07	2.068	-7.2748e-06	-4.5854e-05	8.7076e-05	70.011	-2.1603e-07	-5.6573e-07	58.952	27.047	-5.3898e-07	-5.9968e-07	22.625	6.7441	8.3912	2.9993	-5.8818e-07	2.5133	208.862	93.429	161.955	-18.425	178.586	227.436	-21.088	-13.549	154.729	75.202	-17.158	-12.916	-9.734	-4.569	179.262	-9.622	-8191	255	
1474.574	1	1	0	0	0.14212	0.28948	0.11834	0.18951	0.26697	0.058524	0.18376	0.1955	0.075643	0.067056	0.1834	0.098749	0.17178	0.060024	0.078505	0.097227	-3.0542	-3.0438	-3.0167	-3.4583	-3.1625	-3.1521	-3.5375	-2.9437	-3.5354	-3.1354	-3.0271	-3.2521	-2.9938	-3.1667	-3.3688	-2.8354	227.532	-16.027	84.205	92.494	111.214	7.672	220.998	226.487	86.364	170.795	108.048	-9.870	326.469	89.617	-16.893	270.410	1.4876e-05	5.977e-05	1.4069e-05	58.152	4.2802e-07	5.6264e-07	48.417	22.129	2.38e-07	5.9318e-07	18.45	5.4263	6.8282	2.4026	2.22e-07	2.0221	-4.311e-06	-4.4741e-05	4.9167e-05	69.676	-3.7356e-07	-5.5748e-07	58	26.845	-4.684e-07	-7.6842e-07	22.155	6.6041	8.2527	2.9342	-6.1115e-07	2.4497	237.078	41.190	98.319	-18.622	233.361	124.108	-20.842	-14.411	82.878	44.368	-18.047	-13.178	-9.871	-5.188	16.169	-10.291	-8191	255	
1474.672	1	1	0	0	0.17928	0.059617	0.1856	0.11832	0.20134	0.21012	0.3101	0.11114	0.18332	0.15496	0.20041	0.10876	0.27657	0.12344	0.15969	0.10751	-3.0021	-3.0833	-3.0208	-3.3792	-3.225	-3.3646	-3.3333	-2.9875	-3.3708	-3.1333	-3.0604	-3.3875	-3.1896	-2.9437	-3.4917	-3.15	132.296	105.924	201.954	73.527	147.437	-0.930	7.735	303.883	256.850	34.820	85.928	238.164	32.378	-3.089	12.070	238.003	9.0698e-06	7.072e-05	3.0315e-05	57.249	6.5654e-07	7.0462e-07	47.698	21.869	1.2661e-07	9.1316e-07	18.252	5.4391	6.791	2.3781	2.7115e-07	2.0089	-4.8498e-06	-7.4095e-05	8.5024e-05	68.877	-3.5376e-07	-5.339e-07	57.481	26.517	1.21e-07	-5.9604e-07	22.028	6.575	8.2121	2.933	-6.3811e-07	2.4403	235.680	68.448	174.304	-18.766	154.135	46.737	-21.069	-13.454	91.973	105.567	-17.530	-12.402	-10.154	-5.091	66.097	-10.233	-8191	255	
1474.766	1	1	0	0	0.28095	0.085313	0.20225	0.13826	0.17823	0.073681	0.16895	0.22757	0.10851	0.26529	0.20105	0.26426	0.067577	0.1902	0.061444	0.083758	-2.8021	-3.1312	-2.9104	-3.2042	-3.0271	-3.2646	-3.4125	-3	-3.4062	-3.3354	-2.8146	-3.4521	-3.0417	-3.0479	-3.4583	-2.9062	275.679	53.274	154.355	102.150	110.214	157.970	240.200	122.322	314.551	193.898	245.249	325.959	5.413	72.064	148.707	264.329	2.0789e-05	3.3147e-05	2.2921e-05	57.087	6.8056e-07	8.8685e-07	48.187	21.764	1.4281e-07	7.0411e-07	18.343	5.4303	6.7571	2.3658	6.8552e-07	2.0347	-1.3087e-06	-4.9296e-05	4.4322e-05	68.646	-4.1407e-07	-6.3644e-07	57.544	26.39	2.4667e-06	-8.3762e-07	22.087	6.5758	8.2263	2.9213	-6.7207e-07	2.4514	217.104	54.090	138.330	-18.498	136.356	152.589	-20.808	-13.707	-13.655	96.084	-17.707	-13.395	-9.847	-5.380	115.041	-10.232	-8191	255	
1474.862	1	1	0	0	0.20512	0.26703	0.065425	0.05602	0.08273	0.21551	0.19676	0.074672	0.1772	0.12914	0.34124	0.22481	0.32403	0.21079	0.27871	0.17786	-2.8729	-3.4042	-2.8583	-3.3896	-3.1625	-3.1396	-3.2917	-3.0958	-3.1708	-3.5208	-3.1458	-3.3979	-3.0729	-2.825	-3.4229	-3.025	254.477	-8.612	110.356	59.433	-9.371	48.629	159.361	203.526	32.464	164.668	128.398	214.822	326.480	252.368	227.801	99.976	9.0368e-06	4.0884e-05	1.3111e-05	57.607	2.0933e-07	6.5854e-07	48.435	21.951	6.3655e-08	2.0863e-07	18.315	5.4635	6.8136	2.4031	6.3414e-07	2.0367	2.3095e-06	-6.4884e-05	8.5537e-05	69.059	-4.7708e-07	-5.5158e-07	58.157	26.541	1.4859e-06	-9.1895e-07	22.218	6.6206	8.237	2.9512	-5.8019e-07	2.4585	222.016	12.628	172.402	-18.591	230.046	23.894	-20.165	-13.665	314.913	147.075	-17.727	-12.796	-10.198	-5.056	196.019	-9.864	-8191	255	
1474.959	1	1	0	0	0.3534	0.16316	0.10515	0.14738	0.13098	0.22088	0.074921	0.18642	0.24502	0.088737	0.12499	0.11481	0.16666	0.080545	0.071787	0.16161	-2.8271	-3.3521	-2.8875	-3.2313	-3.4208	-3.0708	-3.3125	-3.1729	-3.1458	-3.65	-2.8875	-3.4229	-3.1104	-2.9562	-3.4688	-3.2104	77.887	89.103	4.618	156.455	27.199	103.742	277.183	68.374	97.553	12.566	224.210	266.586	122.609	75.361	76.672	64.337	1.8656e-05	1.4996e-05	1.0015e-05	56.998	7.5193e-07	3.6813e-07	47.733	21.767	6.6812e-07	6.4972e-07	18.205	5.3858	6.7628	2.3787	5.1421e-07	2.0029	-2.0015e-06	-7.2273e-05	1.3453e-05	68.998	-5.0228e-07	-5.7751e-07	57.286	26.277	2.6674e-06	-8.9831e-07	21.85	6.5165	8.174	2.9189	-6.6208e-07	2.4269	208.873	189.500	-5.947	-18.119	156.476	-18.814	-20.975	-13.597	64.846	-6.374	-17.938	-12.984	-9.878	-4.854	90.967	-9.873	-8191	255	
1475.079	1	1	0	0	0.17024	0.059044	0.14836	0.034244	0.082255	0.2196	0.21593	0.14294	0.1485	0.1458	0.18053	0.21914	0.13202	0.097843	0.25099	0.19724	-2.4021	-3.3771	-2.9437	-3.3146	-3.1833	-2.925	-3.4062	-3.125	-2.8896	-3.5438	-3.1667	-3.3979	-3.325	-2.6667	-3.2521	-3.2062	215.081	225.773	28.259	15.484	81.894	239.031	21.117	301.000	181.629	-20.250	179.000	312.877	270.439	-18.310	305.526	284.690	1.9381e-05	6.0862e-05	8.0208e-06	56.87	4.1103e-07	5.9562e-07	47.632	21.847	8.416e-07	3.7737e-07	18.445	5.3936	6.7854	2.4076	5.4963e-07	2.0272	1.8091e-06	-6.4378e-05	-1.4508e-05	69.248	-4.8698e-07	-3.6419e-07	57.318	26.341	1.5445e-06	-6.7616e-07	21.99	6.5513	8.2053	2.9435	-4.8433e-07	2.4471	232.019	62.645	120.067	-18.580	139.325	109.702	-20.464	-13.615	92.658	83.722	-17.855	-13.615	-10.017	-4.794	191.598	-10.171	-8191	255	
1475.175	1	1	0	0	0.26289	0.11139	0.03282	0.17021	0.14033	0.17273	0.20553	0.18408	0.30228	0.18636	0.30837	0.048653	0.18188	0.17789	0.049801	0.2572	-2.7708	-3.3729	-2.9813	-3.0104	-3.1292	-2.7687	-3.2771	-3.2562	-2.8896	-3.3458	-2.9667	-2.9333	-3.4167	-3.0687	-3.275	-3.2958	213.371	122.572	112.377	124.133	241.110	215.903	94.574	318.493	65.167	19.922	-24.565	-26.568	259.246	111.981	82.260	199.540	1.2713e-05	2.648e-05	1.822e-05	57.289	2.0639e-07	1.1316e-07	47.955	22.04	8.5611e-07	8.1827e-07	18.418	5.5179	6.869	2.3947	5.9476e-07	2.049	2.9253e-06	-7.5006e-05	-1.3909e-05	69.306	-5.3469e-07	-4.2194e-07	57.752	26.494	2.7197e-06	-8.5097e-07	22.171	6.6402	8.2668	2.9275	2.6963e-07	2.4737	234.908	86.753	-10.255	-18.522	308.449	145.578	-20.689	-13.865	125.981	113.148	-17.997	-12.664	-10.168	-4.918	175.257	-9.902	-8191	255	
1475.272	1	1	0	0	0.18124	0.34318	0.10252	0.15858	0.14522	0.21744	0.15674	0.10951	0.26155	0.1181	0.096066	0.27187	0.11745	0.064507	0.069696	0.19908	-2.4938	-3.2979	-3.1896	-3.2687	-3.3792	-3.0438	-3.1917	-3.3729	-3	-3.3771	-2.9521	-2.9688	-3.5354	-3.1625	-3.2396	-3.3563	9.652	68.217	267.880	39.989	209.077	120.117	222.125	-29.580	187.353	96.472	70.934	39.673	295.146	279.201	18.148	103.605	1.948e-05	4.6494e-05	1.8113e-05	57.701	1.5064e-07	4.2183e-07	48.49	22.044	1.7999e-07	7.1131e-07	18.464	5.4658	6.8196	2.3833	8.8052e-07	2.0355	5.1963e-06	-6.1847e-05	-1.6389e-05	69.879	-6.418e-07	-6.0815e-07	58.253	26.604	1.5143e-06	-9.056e-07	22.23	6.6292	8.2539	2.9154	2.9609e-06	2.4533	191.677	10.923	34.280	-18.282	210.517	213.815	-21.023	-13.992	100.525	119.960	-18.264	-12.734	-10.309	-4.953	180.737	-10.087	-8191	255	
1475.368	1	1	0	0	0.07185	0.17392	0.09965	0.23658	0.14284	0.14295	0.1722	0.20292	0.36063	0.013345	0.15813	0.22088	0.16072	0.07804	0.005159	0.046368	-2.6562	-3.4188	-3.3208	-2.9938	-3.2313	-2.9667	-3.1937	-3.3812	-3.1125	-3.4062	-3.2438	-2.9979	-3.4396	-3.1417	-3.2313	-3.4562	89.498	127.666	163.261	299.858	229.889	188.486	88.507	28.779	147.451	107.779	272.693	288.593	79.331	66.926	275.741	-19.690	1.3791e-05	4.0241e-05	6.8643e-06	56.894	6.4275e-07	5.1475e-07	47.655	21.74	9.033e-07	7.4108e-07	18.149	5.465	6.7903	2.3787	1.1333e-06	2.0146	5.3502e-06	-6.4175e-05	-1.2769e-05	69.183	-5.2388e-07	-5.999e-07	57.401	26.404	2.7307e-06	-8.2548e-07	22.033	6.5998	8.2329	2.9159	1.4959e-06	2.4525	202.089	28.557	60.969	-18.425	138.021	103.257	-20.401	-13.891	65.474	204.240	-18.131	-13.078	-10.058	-4.885	221.533	-9.861	-8191	255	
1475.464	1	1	0	0	0.033506	0.34142	0.22665	0.21004	0.058264	0.13356	0.14231	0.19075	0.08941	0.025905	0.19782	0.15188	0.11949	0.22229	0.11156	0.085346	-2.5167	-3.2	-3.2979	-3.1125	-3.375	-2.9042	-3.0438	-3.3979	-2.9875	-3.2417	-3.3521	-2.9583	-3.3438	-3.2396	-3.1979	-3.4229	69.087	14.370	56.937	146.200	6.200	82.768	57.252	222.959	318.305	83.207	252.126	154.567	54.901	8.420	180.759	96.120	8.5048e-06	3.4826e-05	5.2178e-06	57.291	4.5641e-07	2.128e-07	48.014	21.901	7.3483e-07	9.2585e-07	18.314	5.5047	6.8306	2.3828	1.3797e-06	2.0162	7.6982e-06	-5.5369e-05	-1.9353e-05	69.635	-4.8338e-07	-6.2465e-07	57.643	26.49	4.6565e-07	2.6585e-07	22.151	6.6605	8.2852	2.9242	3.0198e-06	2.4582	256.108	-9.130	43.855	-18.454	-9.208	184.604	-20.282	-13.735	128.349	155.093	-18.296	-13.193	-10.049	-5.023	175.542	-10.523	-8191	255	
1475.560	1	1	0	0	0.10029	0.072548	0.43149	0.11701	0.08781	0.050719	0.079432	0.05616	0.15723	0.016841	0.13675	0.14796	0.086402	0.11227	0.23351	0.23299	-2.5917	-3.275	-3.2521	-2.85	-3.4125	-3.2021	-3.0625	-3.2604	-2.875	-3.1937	-3.4333	-3.0104	-3.275	-3.1146	-3.0812	-3.4979	266.869	303.519	150.679	-17.469	82.939	-4.231	113.589	-0.135	319.745	218.590	219.460	116.768	184.723	-26.368	148.381	210.043	7.7299e-06	7.0859e-05	7.8835e-06	56.942	6.4943e-07	5.3063e-07	48.499	21.924	2.5768e-07	1.6485e-06	18.55	5.5295	6.8144	2.3965	7.8446e-07	2.0722	-1.1932e-06	-6.3467e-05	-1.656e-05	69.806	-4.6807e-07	-6.9773e-07	58.28	26.704	-3.914e-07	3.5131e-06	22.462	6.7227	8.3459	2.9494	1.7366e-06	2.5135	210.708	111.959	326.076	-18.421	114.101	115.865	-20.877	-13.857	253.973	63.636	-17.703	-12.094	-9.849	-4.832	152.026	-9.802	-8191	255	
1475.679	1	1	0	0	0.16834	0.28846	0.16044	0.19261	0.2003	0.091738	0.039085	0.079409	0.13013	0.12778	0.061005	0.1819	0.087191	0.07849	0.042593	0.24713	-2.5958	-3.1208	-3.4375	-3.0083	-3.2833	-3.2375	-2.9271	-3.3563	-3.0625	-3.1188	-3.5021	-3.0271	-3.1917	-3.1375	-3.1083	-3.4521	260.570	181.537	215.971	274.569	208.503	78.551	276.994	210.741	138.461	206.839	51.839	119.261	109.260	121.601	318.349	69.598	1.5683e-05	7.2342e-05	7.0678e-06	57.571	1.6508e-07	2.9241e-07	48.392	22.147	4.3823e-07	1.2394e-06	18.44	5.5059	6.8058	2.4111	6.5018e-07	2.0507	3.5412e-06	-4.798e-05	-1.8555e-05	70.438	-5.0768e-07	-7.1541e-07	58.586	26.868	-3.3457e-07	1.9569e-06	22.399	6.6946	8.3427	2.9546	3.1167e-06	2.4881	216.145	32.652	89.513	-18.778	142.575	131.368	-20.404	-13.854	113.275	104.489	-17.895	-13.425	-10.087	-5.329	202.522	-10.185	-8191	255	
1475.775	1	1	0	0	0.12393	0.061208	0.15245	0.13502	0.050675	0.16752	0.087015	0.11638	0.29399	0.34757	0.32361	0.083921	0.074686	0.26775	0.11046	0.15877	-2.6167	-2.9458	-3.5125	-3.0896	-3.3625	-3.2625	-2.9771	-3.3833	-3.0979	-2.9854	-3.4229	-2.9708	-3.2625	-3.2687	-2.9125	-3.2104	185.983	279.234	-24.448	-26.809	84.180	32.104	-31.843	65.837	181.633	229.160	295.936	247.773	139.793	49.130	247.109	39.485	1.3727e-05	4.801e-05	1.5817e-05	57.677	4.2654e-07	5.5311e-07	48.314	21.964	2.5317e-07	1.0239e-06	18.4	5.4584	6.8481	2.4069	9.553e-07	2.0585	5.0038e-07	-5.1118e-05	-2.1976e-05	69.619	4.0056e-07	-7.0951e-07	58.217	26.707	-5.6098e-07	3.5107e-06	22.273	6.6816	8.3332	2.9568	1.6567e-06	2.4985	257.410	30.749	94.495	-18.681	199.495	243.723	-20.909	-14.152	201.391	119.205	-17.532	-13.215	-10.316	-5.313	168.040	-9.785	-8191	255	
1475.871	1	1	0	0	0.29512	0.11519	0.39484	0.20004	0.34072	0.029813	0.084666	0.066275	0.038777	0.17738	0.23125	0.048901	0.19728	0.15968	0.20298	0.049462	-2.6458	-3.0854	-3.5229	-2.85	-3.2708	-3.3812	-2.9625	-3.1167	-3.1021	-3.0083	-3.4667	-2.8625	-2.9646	-3.3979	-2.8771	-3.2562	162.118	237.729	171.383	202.135	148.688	323.522	311.069	299.379	53.890	104.101	-30.919	19.458	-21.207	15.396	237.561	139.683	1.4021e-05	3.4554e-05	1.1417e-05	57.936	1.1442e-06	5.2488e-07	48.358	22.079	1.355e-07	1.0101e-06	18.6	5.4831	6.8871	2.432	7.8601e-07	2.0728	1.0777e-06	-4.5854e-05	-2.2175e-05	69.934	2.6374e-06	-8.7334e-07	58.708	26.809	-4.3999e-07	1.7978e-06	22.465	6.752	8.3802	2.979	2.7522e-06	2.5226	206.606	98.907	323.414	-18.513	302.816	57.476	-20.579	-14.000	139.829	72.775	-17.559	-13.497	-9.990	-5.148	125.500	-10.122	-8191	255	
1475.967	1	1	0	0	0.13257	0.2364	0.060642	0.049736	0.1998	0.15242	0.1171	0.18359	0.16823	0.066629	0.14998	0.11555	0.17925	0.033027	0.15617	0.35298	-2.7479	-2.8167	-3.3917	-3.1333	-3.0917	-3.4375	-2.7667	-3.0833	-3.2729	-3.0667	-3.4167	-2.9938	-2.8646	-3.4625	-3.0833	-3.3312	62.561	276.536	151.927	259.523	267.203	202.023	205.419	205.049	65.359	225.029	23.488	244.221	250.033	44.898	88.089	103.888	1.6571e-05	3.9686e-05	5.5617e-06	58.295	2.1281e-07	1.1557e-07	49.179	22.221	3.7757e-07	1.5758e-06	18.625	5.5887	6.9257	2.4211	2.6862e-07	2.1054	-6.351e-06	-3.1278e-05	-2.1548e-05	70.631	1.4978e-06	-8.0498e-07	59.372	27.086	-5.2707e-07	3.5374e-06	22.837	6.8439	8.4842	3.0107	2.4566e-07	2.5859	250.080	12.925	191.688	-18.615	254.478	176.407	-20.912	-13.427	118.474	97.778	-18.104	-12.846	-10.047	-5.220	231.862	-9.255	-8191	255	
1476.039	1	1	0	0	0.097288	0.14118	0.17759	0.13962	0.14184	0.098366	0.029103	0.17545	0.072557	0.090361	0.21748	0.062802	0.1488	0.072921	0.1358	0.12006	-2.7542	-2.925	-3.4646	-3.1854	-2.8812	-3.4354	-3.0583	-3.175	-3.2875	-2.9458	-3.4229	-3.3021	-2.9646	-3.4188	-3.0125	-3.1833	126.875	96.849	312.371	14.106	242.625	158.218	27.485	144.156	250.455	323.101	198.842	128.182	302.426	39.221	102.584	242.162	1.4357e-05	5.7277e-05	1.2241e-05	58.613	7.404e-07	3.1442e-07	49.166	22.306	2.4069e-07	7.2068e-07	18.721	5.5458	6.8505	2.4513	5.6975e-07	2.0493	-6.274e-06	-4.4336e-05	-1.9068e-05	70.808	2.6509e-06	-8.6509e-07	59.272	27.033	-5.344e-07	1.9641e-06	22.538	6.7423	8.3923	2.9921	-4.0644e-07	2.5641	210.480	101.527	15.398	-18.421	18.132	138.554	-20.607	-13.730	98.033	96.173	-18.105	-13.210	-9.867	-4.994	101.061	-9.305	-8191	255	
1476.160	1	1	0	0	0.19105	0.16217	0.2117	0.18364	0.10902	0.038709	0.26844	0.2407	0.069282	0.2205	0.22236	0.13638	0.33485	0.035744	0.0088496	0.18299	-3.0687	-2.725	-3.25	-3.0146	-2.9979	-3.3417	-3.0938	-3.2354	-3.3229	-3.0479	-3.2188	-3.4146	-2.9625	-3.3417	-3.2458	-3.0958	308.772	145.627	151.455	226.636	108.166	21.878	264.399	250.096	175.539	312.998	188.268	249.551	264.654	-9.844	16.608	85.515	1.5725e-05	5.8237e-05	6.0855e-06	57.656	4.0202e-07	4.531e-07	48.332	22.132	2.4314e-07	1.4929e-06	18.638	5.4766	6.8575	2.415	2.0811e-07	2.0664	-7.5057e-06	-2.7634e-05	-1.9866e-05	70.516	1.5005e-06	-7.9909e-07	58.984	27.02	-5.234e-07	2.979e-06	22.544	6.7423	8.4272	2.9979	-5.5323e-07	2.5654	238.230	-17.657	326.846	-18.532	279.013	105.594	-20.919	-13.945	-12.004	72.589	-18.192	-12.329	-10.131	-5.078	41.422	-9.610	-8191	255	
1476.256	1	1	0	0	0.29848	0.23088	0.17272	0.26143	0.037823	0.14777	0.22444	0.11286	0.17993	0.12589	0.22205	0.085834	0.1099	0.10252	0.26146	0.1295	-2.9354	-2.9313	-3.2125	-3.3187	-3.0812	-3.2833	-3.2687	-3.0604	-3.2646	-2.9688	-3.4042	-3.2229	-2.7812	-3.3729	-3.2062	-2.8479	149.890	84.280	19.309	281.391	110.108	197.238	76.672	126.348	242.087	-29.452	237.238	75.469	124.605	327.711	182.453	237.782	1.6078e-05	4.484e-05	1.3172e-05	58.32	1.3012e-06	7.7774e-07	48.517	22.151	3.5859e-07	6.4783e-07	18.551	5.562	6.9341	2.4323	7.8571e-07	2.0865	-6.12e-06	-5.2029e-05	-1.6275e-05	70.729	2.6905e-06	-7.6373e-07	59.128	27.11	-5.2707e-07	2.2943e-07	22.75	6.801	8.4563	3.0149	-5.782e-07	2.6001	243.835	24.884	242.151	-18.404	1.226	123.640	-20.731	-13.570	149.645	100.201	-17.723	-13.116	-9.959	-5.327	159.952	-10.078	-8191	255	
1476.352	1	1	0	0	0.13267	0.12386	0.065295	0.10822	0.09514	0.18475	0.026841	0.27979	0.1335	0.2487	0.077111	0.16255	0.024319	0.16141	0.090953	0.18426	-2.9771	-2.8542	-3.0917	-3.4562	-2.825	-3.4104	-3.1771	-3.0604	-3.3729	-3.125	-3.2875	-3.2417	-2.8917	-3.35	-3.15	-2.8417	237.357	215.018	303.654	89.080	-13.109	266.469	135.042	273.880	-3.348	185.470	241.592	208.547	-23.908	137.488	21.482	71.898	1.0035e-05	6.9612e-05	1.2274e-05	58.288	7.4641e-07	3.4334e-07	49.537	22.381	4.6957e-07	4.497e-07	18.912	5.5767	6.9223	2.4669	5.045e-07	2.1141	-8.545e-06	-4.0287e-05	-1.3567e-05	71.029	1.587e-06	-9.1341e-07	59.76	27.277	-4.9865e-07	-5.7298e-07	23.243	6.8619	8.5106	3.0242	-5.5024e-07	2.5909	250.345	27.832	66.979	-18.383	52.690	148.630	-21.063	-13.745	111.998	44.021	-17.487	-13.150	-9.774	-5.291	171.646	-9.998	-8191	255	
1476.473	1	1	0	0	0.18482	0.082278	0.10768	0.12966	0.22625	0.047507	0.14455	0.09052	0.17366	0.1708	0.10039	0.31126	0.10517	0.049184	0.28793	0.33882	-3.0833	-2.9688	-2.9083	-3.3563	-3.0208	-3.2812	-3.1208	-2.7729	-3.4375	-3.1708	-3.0146	-3.3229	-2.9542	-3.3854	-3.2542	-2.9458	191.314	-29.354	53.899	140.890	166.133	92.472	26.898	217.786	220.711	280.572	31.977	318.550	97.858	166.813	128.009	245.399	9.756e-06	7.701e-05	2.2234e-06	58.041	1.593e-06	4.8046e-07	48.84	22.243	2.6565e-07	3.3532e-07	18.585	5.495	6.8975	2.4293	6.0556e-07	2.0618	-7.7751e-06	-5.7697e-05	-1.4565e-05	70.582	2.2216e-06	-8.1441e-07	58.937	27.115	-5.179e-07	-8.4247e-07	22.632	6.7606	8.4526	2.9991	-6.4411e-07	2.5813	235.506	64.357	55.841	-18.351	60.152	154.475	-20.873	-13.713	177.661	58.772	-17.962	-13.193	-9.910	-5.025	236.699	-9.563	-8191	255	
1476.567	1	1	0	0	0.19424	0.072815	0.099047	0.061049	0.04365	0.058978	0.19911	0.22736	0.20027	0.19716	0.095654	0.26394	0.15169	0.17365	0.21715	0.1646	-2.9083	-2.9688	-3.2083	-3.4062	-2.7458	-3.1458	-3.2854	-2.9042	-3.5146	-3.3	-2.9167	-3.5896	-3.0375	-3.1	-3.3521	-3.2083	232.387	107.816	15.031	50.335	155.425	240.789	-22.520	124.971	11.497	210.833	323.659	157.810	-26.157	0.561	47.879	215.337	1.8675e-05	2.644e-05	1.6079e-05	58.121	7.3033e-07	3.0013e-07	48.7	22.145	4.8586e-07	2.3664e-07	18.673	5.5451	6.9508	2.4202	4.2264e-07	2.0882	-8.6604e-06	-4.7878e-05	-1.3453e-05	70.583	9.2715e-08	9.6055e-07	58.937	27.071	-5.5915e-07	-6.9437e-07	22.91	6.7964	8.489	3.0057	-5.782e-07	2.5743	244.949	68.180	33.786	-18.728	76.438	-13.163	-21.045	-13.542	216.676	62.450	-17.717	-12.921	-10.054	-5.036	302.237	-9.826	-8191	255	
1476.640	1	1	0	0	0.13951	0.22696	0.060071	0.15776	0.18067	0.14038	0.10724	0.071271	0.22047	0.10319	0.05466	0.19843	0.15861	0.17117	0.035095	0.033217	-3.025	-3.1125	-3.05	-3.3896	-2.8417	-3.0271	-3.3208	-2.9917	-3.3958	-3.1937	-3.0875	-3.5146	-3.0583	-2.9979	-3.4229	-2.975	13.399	198.172	36.760	19.306	38.991	207.967	163.420	201.307	230.306	136.659	2.972	113.504	37.266	102.657	222.094	77.436	1.3228e-05	2.8297e-05	5.5734e-06	57.917	4.0522e-07	1.1796e-06	49.058	22.443	5.9856e-07	3.2939e-07	18.681	5.6139	6.9583	2.4691	4.8072e-07	2.1152	-3.8106e-06	-4.5044e-05	-1.2855e-05	70.843	-3.6636e-07	3.5051e-06	59.419	27.233	-5.0048e-07	-6.3853e-07	23.011	6.8999	8.5262	3.0422	-6.6608e-07	2.626	217.294	36.531	52.232	-18.504	209.704	73.248	-20.684	-13.689	158.584	75.760	-17.670	-12.798	-10.127	-5.130	85.274	-10.058	-8191	255	
1476.759	1	1	0	0	0.13271	0.15254	0.30926	0.10591	0.16824	0.1935	0.1792	0.09997	0.12074	0.23699	0.15686	0.094172	0.14758	0.14707	0.30395	0.29519	-2.9	-3.1042	-2.9896	-3.4062	-3.2	-3.2021	-3.2417	-3.0771	-3.325	-3.3	-2.8063	-3.325	-3.1396	-2.9375	-3.4833	-3.0125	289.826	27.541	167.455	18.550	237.907	80.241	264.972	-17.501	267.157	81.219	228.289	57.033	29.376	170.212	287.614	137.401	2.3979e-05	1.5364e-05	1.6729e-05	59.16	5.5787e-07	6.4927e-07	50.087	22.697	1.9833e-07	8.2236e-07	19.014	5.7126	7.0361	2.4828	8.0624e-07	2.1387	2.9638e-06	-5.5673e-05	-6.4416e-06	71.324	-4.2757e-07	1.8186e-06	60.245	27.448	-4.5557e-07	-6.1911e-07	23.198	6.8882	8.526	3.04	-6.0416e-07	2.575	258.466	80.049	66.375	-18.288	88.450	1.996	-20.933	-13.906	159.105	118.312	-17.396	-13.174	-10.158	-4.882	131.299	-9.426	-8191	255	
1476.855	1	1	0	0	0.1121	0.088316	0.12498	0.27427	0.21033	0.27882	0.42129	0.051484	0.21703	0.015592	0.1045	0.15858	0.15009	0.22624	0.2823	0.080378	-2.8625	-3.1042	-3.1917	-3.275	-3.2062	-2.9667	-3.25	-2.7667	-3.2021	-3.3208	-3.0896	-3.3375	-3.2646	-2.8958	-3.475	-3.0792	7.856	63.306	68.082	43.568	130.692	111.158	272.726	292.673	138.051	54.214	167.993	132.466	277.179	196.123	33.698	19.258	2.0493e-05	4.5097e-05	2.2516e-05	58.989	3.0649e-07	1.2603e-06	49.6	22.299	6.1209e-07	6.3882e-07	18.609	5.5683	6.9157	2.4609	1.519e-07	2.0867	5.0731e-05	-5.9215e-05	-1.0261e-05	71.176	-4.2847e-07	3.5417e-06	59.2	27.184	-4.7207e-07	-8.9346e-07	22.822	6.8184	8.4837	3.0252	-6.9004e-07	2.5556	245.855	92.947	32.693	-18.373	168.441	43.542	-20.867	-13.652	149.864	79.888	-17.945	-12.979	-10.172	-4.709	51.852	-9.646	-8191	255	
1476.952	1	1	0	0	0.22453	0.13516	0.024496	0.10571	0.091551	0.31551	0.12688	0.058432	0.064731	0.21423	0.32044	0.096892	0.18818	0.098815	0.1587	0.13182	-2.5583	-3.3708	-3.0271	-3.1729	-3.1208	-3.0333	-3.1146	-3.2208	-3.1958	-3.3312	-2.9021	-3.3312	-3.3417	-2.7146	-3.3312	-3.1562	195.406	103.068	247.145	201.986	323.185	101.955	4.384	305.577	195.894	292.706	228.835	113.033	96.827	34.714	86.597	257.388	2.2969e-05	5.7652e-05	1.4653e-05	58.348	9.5346e-08	6.8813e-07	48.879	22.123	1.9729e-07	2.5181e-07	18.778	5.543	6.9436	2.4378	4.6463e-07	2.0918	0.00013041	-8.0675e-05	-1.351e-05	71.046	-4.3207e-07	1.8492e-06	59.425	27.174	-3.1624e-07	-8.7889e-07	22.904	6.8449	8.5108	3.0301	-5.2028e-07	2.5588	280.020	-20.453	49.054	-18.386	156.078	72.090	-20.815	-13.584	208.856	89.501	-17.699	-12.516	-9.826	-5.144	113.738	-10.139	-8191	255	
1477.072	1	1	0	0	0.073386	0.11389	0.075457	0.068622	0.13635	0.10745	0.068813	0.2873	0.10997	0.14407	0.16463	0.1778	0.12942	0.21059	0.26839	0.22911	-2.5646	-3.3333	-2.8979	-3.2333	-3.3083	-2.9396	-3.3667	-2.9979	-3.1979	-3.425	-3.0729	-3.1104	-3.325	-2.7083	-3.3104	-2.9854	44.613	123.488	272.799	276.366	216.168	107.073	155.521	280.488	-27.529	137.104	61.875	-9.327	218.036	188.359	102.770	295.323	1.8366e-05	3.9047e-05	1.3285e-05	58.611	5.396e-07	1.1602e-06	49.366	22.343	3.5218e-07	3.8933e-07	18.837	5.6196	6.95	2.4801	6.716e-07	2.1124	7.8329e-05	-6.7921e-05	-9.1494e-06	71.298	-4.8878e-07	3.5299e-06	59.802	27.328	-3.1899e-07	-9.8207e-07	23.006	6.959	8.5577	3.0565	-5.5523e-07	2.6039	279.713	44.502	32.011	-18.853	150.333	70.423	-20.660	-13.734	192.397	313.411	-17.921	-12.726	-9.962	-5.223	135.436	-10.538	-8191	255	
#DATA ENDS
