BOXY.EXE: ISS Imagent and Oximeter Data Acquisition Program Version 0.80
Ascii Record File

#ACQ INFORMATION
2  Detector Channels 
16  External MUX Channels 
1  Auxiliary Channels 
5000  Waveform (CCF) Frequency (Hz)
1  Waveforms Skipped 
30  Waveforms Averaged 
1  Cycles Averaged 
16  Acquisitions per Waveform 
10.0806  Updata Rate (Hz) 

#FILE INFORMATION
TRUE -- External MUX Channel results are PARSED.
FALSE -- AC DC and Phase are NOT grouped.
TRUE -- Companion Program Settings File CREATED.
FALSE -- AC data not excluded
FALSE -- DC data not excluded
FALSE -- Phase data not excluded
FALSE -- Auxillary Chn. data not excluded
Tab delimiters

#CALIBRATION STATE
TRUE -- Waveform Calibration Values APPLIED.


#AUX CALIBRATION VALUES
Val Type	aux-1	

Term	1.0000e+00	
Factor	0.0000e+00	


#WF CALIBRATION VALUES
A = Detector Channel
Val Type	A-AC1	A-AC2	A-AC3	A-AC4	A-AC5	A-AC6	A-AC7	A-AC8	A-AC9	A-AC10	A-AC11	A-AC12	A-AC13	A-AC14	A-AC15	A-AC16	A-DC1	A-DC2	A-DC3	A-DC4	A-DC5	A-DC6	A-DC7	A-DC8	A-DC9	A-DC10	A-DC11	A-DC12	A-DC13	A-DC14	A-DC15	A-DC16	A-Ph1	A-Ph2	A-Ph3	A-Ph4	A-Ph5	A-Ph6	A-Ph7	A-Ph8	A-Ph9	A-Ph10	A-Ph11	A-Ph12	A-Ph13	A-Ph14	A-Ph15	A-Ph16	

Term	0.00000e+00	0.00000e+00	0.00000e+00	0.00000e+00	0.00000e+00	0.00000e+00	0.00000e+00	0.00000e+00	0.00000e+00	0.00000e+00	0.00000e+00	0.00000e+00	0.00000e+00	0.00000e+00	0.00000e+00	0.00000e+00	0.00000e+00	0.00000e+00	0.00000e+00	0.00000e+00	0.00000e+00	0.00000e+00	0.00000e+00	0.00000e+00	0.00000e+00	0.00000e+00	0.00000e+00	0.00000e+00	0.00000e+00	0.00000e+00	0.00000e+00	0.00000e+00	0.00000e+00	0.00000e+00	0.00000e+00	0.00000e+00	0.00000e+00	0.00000e+00	0.00000e+00	0.00000e+00	0.00000e+00	0.00000e+00	0.00000e+00	0.00000e+00	0.00000e+00	0.00000e+00	0.00000e+00	0.00000e+00	
Factor	1.00000e+00	1.00000e+00	1.00000e+00	1.00000e+00	1.00000e+00	1.00000e+00	1.00000e+00	1.00000e+00	1.00000e+00	1.00000e+00	1.00000e+00	1.00000e+00	1.00000e+00	1.00000e+00	1.00000e+00	1.00000e+00	1.00000e+00	1.00000e+00	1.00000e+00	1.00000e+00	1.00000e+00	1.00000e+00	1.00000e+00	1.00000e+00	1.00000e+00	1.00000e+00	1.00000e+00	1.00000e+00	1.00000e+00	1.00000e+00	1.00000e+00	1.00000e+00	X	X	X	X	X	X	X	X	X	X	X	X	X	X	X	X	

B = Detector Channel
Val Type	B-AC1	B-AC2	B-AC3	B-AC4	B-AC5	B-AC6	B-AC7	B-AC8	B-AC9	B-AC10	B-AC11	B-AC12	B-AC13	B-AC14	B-AC15	B-AC16	B-DC1	B-DC2	B-DC3	B-DC4	B-DC5	B-DC6	B-DC7	B-DC8	B-DC9	B-DC10	B-DC11	B-DC12	B-DC13	B-DC14	B-DC15	B-DC16	B-Ph1	B-Ph2	B-Ph3	B-Ph4	B-Ph5	B-Ph6	B-Ph7	B-Ph8	B-Ph9	B-Ph10	B-Ph11	B-Ph12	B-Ph13	B-Ph14	B-Ph15	B-Ph16	

Term	0.00000e+00	0.00000e+00	0.00000e+00	0.00000e+00	0.00000e+00	0.00000e+00	0.00000e+00	0.00000e+00	0.00000e+00	0.00000e+00	0.00000e+00	0.00000e+00	0.00000e+00	0.00000e+00	0.00000e+00	0.00000e+00	0.00000e+00	0.00000e+00	0.00000e+00	0.00000e+00	0.00000e+00	0.00000e+00	0.00000e+00	0.00000e+00	0.00000e+00	0.00000e+00	0.00000e+00	0.00000e+00	0.00000e+00	0.00000e+00	0.00000e+00	0.00000e+00	-3.80650e+01	-1.32862e+02	-1.25430e+02	-1.81665e+02	-4.66408e+01	-6.69153e+01	-1.55920e+02	-1.62015e+02	-3.32665e+01	-6.84437e+01	-1.70727e+02	-1.71644e+02	-1.80701e+02	-1.77487e+02	-4.82893e+01	-1.50551e+02	
Factor	2.17353e-05	1.62563e-04	4.39496e-05	1.54653e-01	1.72098e-06	1.76303e-06	1.62475e-01	5.94268e-02	1.39045e-06	1.85064e-06	8.19659e-02	2.80416e-02	2.61055e-02	8.93581e-03	1.65438e-06	1.28829e-02	1.84756e-05	4.85871e-05	1.36813e-05	7.94789e-02	4.32069e-07	5.65725e-07	7.86197e-02	3.06710e-02	4.39986e-07	5.82689e-07	4.11320e-02	1.40425e-02	1.36022e-02	4.66921e-03	4.79335e-07	6.49530e-03	X	X	X	X	X	X	X	X	X	X	X	X	X	X	X	X	



#DISTANCE SETTINGS
A = Detector Channel
A-1	A-2	A-3	A-4	A-5	A-6	A-7	A-8	A-9	A-10	A-11	A-12	A-13	A-14	A-15	A-16	

2.5000e+00	3.0000e+00	2.5000e+00	3.0000e+00	2.0000e+00	3.0000e+00	1.5000e+00	3.0000e+00	3.0000e+00	3.0000e+00	3.0000e+00	3.0000e+00	3.0000e+00	3.0000e+00	1.5000e+00	3.0000e+00	

B = Detector Channel
B-1	B-2	B-3	B-4	B-5	B-6	B-7	B-8	B-9	B-10	B-11	B-12	B-13	B-14	B-15	B-16	

1.0000e+01	1.0000e+01	1.0000e+01	1.4400e+00	1.0000e+01	1.0000e+01	1.5100e+00	1.9400e+00	1.0000e+01	1.0000e+01	1.9900e+00	2.4900e+00	2.4100e+00	2.9000e+00	1.0000e+01	2.9800e+00	




#DATA BEGINS
time	group	step	mark	flag	A-AC1	A-AC2	A-AC3	A-AC4	A-AC5	A-AC6	A-AC7	A-AC8	A-AC9	A-AC10	A-AC11	A-AC12	A-AC13	A-AC14	A-AC15	A-AC16	A-DC1	A-DC2	A-DC3	A-DC4	A-DC5	A-DC6	A-DC7	A-DC8	A-DC9	A-DC10	A-DC11	A-DC12	A-DC13	A-DC14	A-DC15	A-DC16	A-Ph1	A-Ph2	A-Ph3	A-Ph4	A-Ph5	A-Ph6	A-Ph7	A-Ph8	A-Ph9	A-Ph10	A-Ph11	A-Ph12	A-Ph13	A-Ph14	A-Ph15	A-Ph16	B-AC1	B-AC2	B-AC3	B-AC4	B-AC5	B-AC6	B-AC7	B-AC8	B-AC9	B-AC10	B-AC11	B-AC12	B-AC13	B-AC14	B-AC15	B-AC16	B-DC1	B-DC2	B-DC3	B-DC4	B-DC5	B-DC6	B-DC7	B-DC8	B-DC9	B-DC10	B-DC11	B-DC12	B-DC13	B-DC14	B-DC15	B-DC16	B-Ph1	B-Ph2	B-Ph3	B-Ph4	B-Ph5	B-Ph6	B-Ph7	B-Ph8	B-Ph9	B-Ph10	B-Ph11	B-Ph12	B-Ph13	B-Ph14	B-Ph15	B-Ph16	aux-1	digaux	

503.939	1	1	0	256	0.36009	0.09155	0.13553	0.41107	0.067224	0.16582	0.25251	0.020219	0.11874	0.14103	0.1223	0.36041	0.17011	0.022505	0.059373	0.08733	-3.1312	-2.8292	-3.4354	-3.5458	-3.0229	-3.5833	-3.4875	-3.3229	-3.5208	-3.1042	-3.7229	-3.4521	-3.1229	-3.5729	-3.3271	-3.2542	150.865	286.732	490.749	149.071	408.563	202.702	458.614	255.500	219.244	430.965	352.966	423.995	439.281	370.459	178.235	313.964	0.00040124	0.00027863	0.0001005	1310.5	4.4957e-06	3.8264e-06	1375.7	270.48	4.0412e-06	3.9194e-06	332.6	96.024	76.146	21.597	3.0881e-06	29.695	0.0003428	0.0002898	8.3e-05	1297.4	3.9129e-06	2.9689e-06	1361.4	268.35	3.299e-06	3.7365e-06	332.46	95.841	76.239	21.882	3.2605e-06	30.412	281.239	254.006	242.467	154.975	311.315	309.555	154.981	162.454	318.685	300.371	161.953	168.268	168.570	175.699	315.693	174.907	-8191	255	
504.011	1	1	0	0	0.22088	0.19377	0.18061	0.29123	0.098172	0.09592	0.068964	0.26249	0.074757	0.06466	0.15482	0.16875	0.21037	0.1851	0.034241	0.12861	-3.1917	-3.0042	-3.4104	-3.5333	-3.2958	-3.5292	-3.4396	-3.4979	-3.5458	-3.3146	-3.5646	-3.5292	-3.1792	-3.4708	-3.0875	-3.2812	469.967	499.134	199.731	465.842	387.393	311.951	359.669	440.626	228.775	293.082	380.323	477.877	413.086	440.770	422.626	263.683	0.00039686	0.00027704	0.00011953	1307.1	5.2203e-06	4.1973e-06	1378	270.07	4.4473e-06	3.6176e-06	333.56	95.247	76.18	21.438	3.7261e-06	29.949	0.00033414	0.00028656	7.12e-05	1296.6	3.9138e-06	3.1987e-06	1361.7	268.39	3.3998e-06	3.0895e-06	333.26	95.727	76.374	21.81	3.1936e-06	30.366	282.129	211.464	230.424	154.862	304.261	285.140	154.832	162.295	317.188	298.505	161.607	168.422	168.719	175.614	321.541	174.970	-8191	255	
504.107	1	1	0	0	0.13487	0.046288	0.074792	0.14964	0.48391	0.16102	0.13006	0.3447	0.037185	0.061847	0.068141	0.32	0.16627	0.078701	0.29759	0.10664	-3.1667	-3.1875	-3.2833	-3.5375	-3.125	-3.4646	-3.4313	-3.275	-3.5875	-3.1813	-3.5229	-3.5021	-3.0604	-3.4625	-3.1125	-3.3042	286.784	499.404	442.143	492.423	227.822	376.384	459.704	420.184	240.797	169.504	361.679	455.745	475.607	267.005	264.137	191.790	0.00040768	0.00036044	9.2727e-05	1308.6	4.3573e-06	2.7571e-06	1374.8	270.31	3.8744e-06	4.5048e-06	332.54	95.258	76.432	21.63	4.2604e-06	29.9	0.00034172	0.00028272	8.1775e-05	1298.9	3.7383e-06	2.9052e-06	1361.2	268.1	3.3072e-06	3.5787e-06	332.48	95.656	76.239	21.891	3.0907e-06	30.447	281.873	233.896	236.344	154.825	300.223	296.306	154.667	162.313	305.533	295.994	161.673	168.238	168.604	175.342	313.900	174.718	-8191	255	
504.203	1	1	0	0	0.0068847	0.044364	0.30944	0.12563	0.023182	0.17002	0.23586	0.18968	0.16772	0.17033	0.11456	0.027261	0.11598	0.047754	0.067996	0.2407	-3.1458	-3.0896	-3.2313	-3.5104	-2.9021	-3.4167	-3.4854	-3.1937	-3.5312	-3.2375	-3.3021	-3.4667	-3.0125	-3.4042	-3.2188	-3.1917	436.808	226.356	364.497	177.440	414.844	243.197	436.466	381.927	193.564	478.559	320.076	393.381	423.786	255.614	152.182	404.118	0.00039129	0.00028185	9.9729e-05	1311.6	4.9453e-06	2.9814e-06	1374.3	270.8	4.0882e-06	2.7988e-06	332.64	95.401	75.97	21.547	4.5728e-06	29.781	0.00033487	0.00029345	8.4482e-05	1298	3.9111e-06	3.009e-06	1359.6	268.31	3.0451e-06	3.1526e-06	332.97	95.578	76.172	21.865	2.9199e-06	30.394	281.799	228.784	247.743	154.892	298.428	291.319	154.858	162.216	327.559	318.735	161.937	168.067	168.870	175.380	307.998	175.035	-8191	255	
504.322	1	1	0	0	0.19547	0.11619	0.17302	0.15251	0.36512	0.21826	0.19138	0.16662	0.097655	0.18173	0.26203	0.27758	0.15365	0.18612	0.095069	0.090966	-3.0708	-3.3521	-2.9167	-3.6521	-2.9479	-3.4271	-3.4854	-3.1896	-3.7333	-3.2042	-3.3333	-3.65	-3.2458	-3.4792	-3.375	-3.2354	486.262	440.514	261.830	433.916	434.092	333.598	494.321	241.311	282.927	146.632	444.343	455.604	153.837	464.470	286.941	427.052	0.00042775	0.00042268	8.791e-05	1311	5.0297e-06	2.2826e-06	1375.8	269.06	5.1959e-06	4.4138e-06	333.61	95.023	75.965	21.477	3.8905e-06	29.932	0.00034665	0.0002647	7.9067e-05	1297.9	3.7554e-06	2.917e-06	1360.3	268.1	3.453e-06	3.1805e-06	332.96	95.393	76.024	21.897	2.9189e-06	30.399	282.466	242.134	235.303	155.011	305.519	269.725	154.847	162.149	309.447	288.654	161.762	168.109	168.545	175.489	302.055	174.832	-8191	255	
504.418	1	1	0	0	0.22647	0.15043	0.055967	0.069563	0.23439	0.41284	0.37799	0.08792	0.048735	0.2038	0.25856	0.079843	0.25178	0.12864	0.18499	0.049974	-3.1146	-3.4313	-2.9542	-3.7375	-3.1542	-3.4208	-3.7021	-3.125	-3.5271	-3.4562	-3.2125	-3.6417	-3.2208	-3.3104	-3.5792	-3.2646	464.382	215.772	399.278	157.436	277.348	146.791	453.969	465.243	173.416	382.720	350.153	287.322	225.403	188.526	254.006	496.086	0.00040259	0.00036089	7.3599e-05	1304.7	6.0304e-06	3.7346e-06	1374.6	270.54	4.0309e-06	3.3818e-06	333.9	95.833	76.723	21.503	2.6775e-06	30.018	0.00033552	0.00027927	7.9665e-05	1295.2	3.7095e-06	3.128e-06	1361.9	268.34	3.0157e-06	2.8212e-06	332.55	95.629	76.319	21.879	3.0198e-06	30.393	282.842	223.722	256.371	154.850	289.718	284.703	155.053	162.464	318.893	284.414	161.685	168.429	168.430	175.360	301.167	174.590	-8191	255	
504.514	1	1	0	0	0.19278	0.09965	0.25401	0.27438	0.18858	0.18111	0.10447	0.20263	0.13203	0.12346	0.10958	0.20527	0.23246	0.17876	0.19104	0.096949	-3.0521	-3.2125	-3.0521	-3.7104	-3.0604	-3.2146	-3.7646	-3.0979	-3.5292	-3.35	-3.1292	-3.5563	-3.3833	-3.3063	-3.5125	-3.2229	203.831	312.302	500.051	475.533	284.560	267.305	386.367	423.479	353.481	386.843	245.695	470.384	341.945	434.749	226.186	413.585	0.00040363	0.00046749	6.1846e-05	1310.6	4.4781e-06	3.4418e-06	1369.8	271.27	3.913e-06	3.6504e-06	333.22	95.952	76.114	21.545	3.9424e-06	29.989	0.00035527	0.00026682	8.6192e-05	1297.4	3.6096e-06	3.0266e-06	1359.9	268.86	3.3686e-06	2.9669e-06	332.57	95.73	76.174	21.902	2.9429e-06	30.449	281.409	227.037	247.785	154.969	296.940	305.364	154.970	162.393	313.041	297.086	161.878	168.262	168.399	175.792	314.184	174.914	-8191	255	
504.610	1	1	0	0	0.023504	0.093182	0.1248	0.22323	0.25632	0.088798	0.52575	0.22646	0.1074	0.11112	0.041896	0.037616	0.087737	0.17704	0.057591	0.24574	-2.8667	-3.225	-2.9479	-3.6896	-3.1979	-3.2208	-3.6	-3.3292	-3.2188	-3.4167	-3.0583	-3.625	-3.3896	-3.0563	-3.625	-3.2396	355.857	378.883	269.677	428.731	180.449	373.147	429.888	468.124	209.715	448.579	192.504	383.714	156.754	346.659	211.371	493.066	0.00040233	0.00043747	9.8366e-05	1308.2	5.0025e-06	2.1655e-06	1372	270.24	4.4415e-06	3.184e-06	332.33	96.008	75.839	21.485	2.8362e-06	29.836	0.00034368	0.00027371	8.2715e-05	1297.1	3.7671e-06	2.7332e-06	1359.7	268.09	3.1789e-06	2.9317e-06	332.41	95.738	76.07	21.869	2.8381e-06	30.389	283.098	232.442	234.668	154.964	301.105	303.008	154.959	162.674	314.459	291.925	161.775	168.102	168.361	175.803	284.069	175.180	-8191	255	
504.707	1	1	0	0	0.051884	0.095695	0.083564	0.14	0.13627	0.069321	0.22647	0.099081	0.28168	0.10687	0.044645	0.15773	0.21612	0.29286	0.2314	0.18519	-2.8917	-3.4792	-3.2021	-3.625	-3.3063	-3.0417	-3.6813	-3.3458	-3.2812	-3.4958	-3.2188	-3.5146	-3.5187	-3.1708	-3.5438	-3.2938	334.879	348.895	302.360	392.066	431.521	210.669	440.190	420.335	242.343	195.859	426.589	395.747	423.657	203.672	164.397	497.735	0.00037518	0.00031944	8.7935e-05	1304.4	4.6154e-06	3.5745e-06	1379.5	270.26	4.1219e-06	3.6521e-06	332.47	95.71	76.609	21.512	3.586e-06	29.974	0.00032544	0.00025974	7.9637e-05	1295.9	3.507e-06	2.9724e-06	1360.7	268.05	3.2834e-06	3.2837e-06	332.82	95.679	76.259	21.815	2.7262e-06	30.37	284.482	230.446	222.985	154.664	299.793	317.421	154.682	162.232	323.017	305.431	161.660	168.426	168.549	175.373	302.009	174.935	-8191	255	
504.803	1	1	0	0	0.22233	0.13324	0.12406	0.16354	0.26515	0.20082	0.035456	0.19437	0.21014	0.10496	0.12687	0.2078	0.2342	0.057777	0.22771	0.16725	-2.9583	-3.4688	-3.2604	-3.6521	-3.4125	-3.2833	-3.725	-3.2271	-3.2479	-3.6521	-3.2313	-3.3521	-3.6	-3.0667	-3.4458	-3.4104	185.663	331.076	407.054	174.806	475.528	489.945	392.183	389.693	385.939	410.283	448.985	363.897	460.719	150.126	264.549	432.422	0.0004071	0.00037446	0.00010303	1306.8	3.36e-06	3.9017e-06	1379.5	269.03	3.6477e-06	4.188e-06	332.91	95.403	76.367	21.656	3.983e-06	29.888	0.00033934	0.00026136	8.4682e-05	1296.9	3.4196e-06	3.1775e-06	1360	267.51	3.4319e-06	2.8163e-06	332.37	95.657	76.389	21.94	2.9719e-06	30.383	282.605	229.310	250.415	154.997	313.824	295.765	154.995	162.422	321.292	291.241	162.128	168.100	168.392	175.573	304.088	175.176	-8191	255	
504.923	1	1	0	0	0.27169	0.069514	0.11011	0.31133	0.11121	0.083431	0.31141	0.13992	0.039718	0.07709	0.12854	0.16421	0.23409	0.13059	0.14345	0.075352	-2.7833	-3.5458	-3.1354	-3.6083	-3.6771	-2.8979	-3.7188	-3.3396	-3.2083	-3.5292	-3.3271	-3.4813	-3.5604	-3.0646	-3.4917	-3.3333	376.690	349.267	225.227	419.882	477.935	445.693	391.833	422.415	496.495	367.756	422.131	192.638	377.383	416.851	462.020	312.093	0.00041194	0.00036918	0.00010954	1307	4.7908e-06	4.2561e-06	1369.7	270.34	4.1558e-06	3.6373e-06	331.21	95.675	76.091	21.618	3.8569e-06	29.86	0.00034372	0.00026632	6.892e-05	1295.9	3.6213e-06	3.049e-06	1356.2	268.01	3.1184e-06	2.9353e-06	332.09	95.795	76.068	21.822	2.9469e-06	30.389	282.600	219.826	252.704	154.916	307.251	316.962	154.977	162.553	311.089	291.841	161.569	168.247	168.177	175.627	305.972	174.794	-8191	255	
505.019	1	1	0	0	0.0058774	0.22916	0.1218	0.11765	0.23448	0.16536	0.17517	0.17563	0.31414	0.16674	0.24976	0.19733	0.1267	0.29015	0.11466	0.050419	-2.7438	-3.6146	-3.2583	-3.4313	-3.6646	-3.1312	-3.7896	-3.525	-3.1854	-3.5979	-3.2604	-3.3417	-3.5021	-2.9813	-3.4333	-3.4542	324.590	207.361	382.394	438.464	219.227	313.280	437.172	455.764	334.991	477.534	481.655	447.890	351.788	426.203	278.486	334.757	0.0004063	0.00037583	7.9107e-05	1306	3.9776e-06	3.9261e-06	1374.5	269.2	4.31e-06	4.2387e-06	333.66	95.283	76.398	21.651	3.8533e-06	29.967	0.00034434	0.00029142	7.3081e-05	1294.9	3.5421e-06	3.2612e-06	1357.5	267.46	3.3127e-06	2.7386e-06	332.92	95.614	76.111	21.887	2.8431e-06	30.412	283.733	242.617	228.688	154.877	298.179	299.719	155.068	162.303	331.518	311.815	161.995	168.102	168.469	175.445	314.855	174.760	-8191	255	
505.114	1	1	0	0	0.18014	0.15625	0.064139	0.27482	0.13424	0.079803	0.11286	0.20126	0.19052	0.078546	0.083953	0.23367	0.22053	0.27911	0.15265	0.1646	-2.6063	-3.4896	-3.2146	-3.4688	-3.5375	-3.0521	-3.6292	-3.5563	-3.1271	-3.6021	-3.35	-3.275	-3.5938	-3.1583	-3.2979	-3.3688	379.377	249.689	412.933	477.042	299.637	240.476	470.239	158.144	240.539	235.747	303.919	192.514	472.119	202.608	448.995	333.320	0.0004115	0.00041321	8.2277e-05	1308.6	4.8272e-06	3.2855e-06	1371.9	268.93	4.1726e-06	3.5913e-06	331.52	95.072	75.999	21.537	3.8187e-06	29.914	0.00034519	0.00025002	7.9665e-05	1294.1	3.3836e-06	3.2447e-06	1357.1	267.48	3.6015e-06	2.5541e-06	331.44	95.355	75.966	21.865	3.0398e-06	30.407	283.770	238.484	236.890	154.806	289.597	307.983	154.919	162.333	303.723	295.650	161.945	168.128	168.664	175.564	308.494	174.778	-8191	255	
505.212	1	1	0	0	0.14828	0.16644	0.075435	0.045202	0.057289	0.098775	0.30816	0.16485	0.094015	0.17393	0.14714	0.31508	0.2576	0.071813	0.17646	0.088577	-2.6771	-3.2333	-3.1854	-3.4208	-3.6	-3.1813	-3.4062	-3.7854	-3.0708	-3.4167	-3.4042	-3.225	-3.5667	-3.2	-3.2208	-3.5479	161.950	145.734	145.004	331.520	159.938	293.637	440.502	471.995	409.530	477.434	497.473	458.788	427.161	404.158	167.849	316.448	0.00039828	0.0002686	0.00010631	1307	4.9846e-06	4.0737e-06	1372.6	271.11	4.7305e-06	3.2089e-06	332.72	94.912	76.218	21.523	3.5173e-06	29.785	0.00035658	0.00024476	7.2511e-05	1294.6	3.3944e-06	2.9347e-06	1358.7	267.75	3.233e-06	2.9839e-06	331.95	95.31	76.206	21.885	3.0717e-06	30.32	283.236	249.834	232.801	154.898	310.231	296.972	154.846	162.369	314.183	307.291	161.807	168.308	168.775	175.596	314.329	175.215	-8191	255	
505.306	1	1	0	0	0.03259	0.11011	0.20157	0.23126	0.22493	0.24587	0.21252	0.24381	0.22543	0.09354	0.18786	0.20693	0.0818	0.036323	0.25177	0.16406	-2.7167	-3.475	-3.3812	-3.1958	-3.4917	-3.3021	-3.4979	-3.4917	-3.1083	-3.4604	-3.5417	-3.2896	-3.6271	-3.2313	-3.0875	-3.6792	366.642	209.766	385.437	461.559	392.653	341.145	443.300	438.158	405.069	377.888	436.702	484.748	170.942	199.078	175.572	431.731	0.00039462	0.00029929	8.8591e-05	1308.5	4.723e-06	3.1587e-06	1371.6	268.06	3.5557e-06	3.5386e-06	332.18	95.444	76.202	21.488	4.0534e-06	29.839	0.00033887	0.00026642	7.6644e-05	1294.9	3.4295e-06	3.0478e-06	1356.6	267.18	3.4255e-06	2.9341e-06	331.78	95.417	76.031	21.831	3.1037e-06	30.44	279.031	221.957	222.174	155.084	304.939	301.638	154.942	162.274	309.451	285.706	161.893	168.450	168.708	175.737	324.847	175.107	-8191	255	
505.402	1	1	0	0	0.35002	0.107	0.11077	0.16106	0.18411	0.29893	0.30141	0.29639	0.19122	0.17048	0.17347	0.19278	0.33085	0.21976	0.21237	0.033045	-2.7833	-3.3438	-3.4333	-3.2604	-3.4542	-3.275	-3.3854	-3.6562	-3.1562	-3.3458	-3.55	-3.3479	-3.5042	-3.3479	-3.1083	-3.6646	481.026	307.844	290.772	439.953	193.306	222.411	476.748	368.111	324.191	412.013	155.005	201.603	471.860	389.440	400.558	442.754	0.00041086	0.00034749	0.00010916	1311.4	4.2417e-06	3.3222e-06	1371.3	269.27	4.579e-06	4.2763e-06	331.57	95.713	75.974	21.55	3.8327e-06	29.848	0.00034703	0.00025407	7.6387e-05	1295.2	3.7077e-06	2.9088e-06	1359	267.65	3.2586e-06	3.2266e-06	331.43	95.561	76.096	21.851	3.3284e-06	30.399	281.118	235.565	235.923	155.074	292.715	320.529	154.886	162.274	321.501	296.629	161.689	168.064	168.533	175.734	315.521	174.792	-8191	255	
505.498	1	1	0	0	0.1489	0.092756	0.20255	0.36572	0.2057	0.19224	0.16274	0.18889	0.026869	0.13792	0.097741	0.13598	0.12249	0.1062	0.28786	0.16161	-2.6021	-3.1104	-3.5458	-3.1312	-3.3667	-3.475	-3.2229	-3.6021	-3.2479	-3.2687	-3.7687	-3.3958	-3.5083	-3.4208	-3.1771	-3.5729	262.285	415.019	448.265	487.356	414.479	302.096	482.349	475.245	338.316	147.162	336.952	464.173	192.854	485.455	346.567	481.009	0.00039147	0.00047341	0.0001304	1306.6	2.9748e-06	4.0569e-06	1377	269.94	3.7707e-06	4.8089e-06	332.3	95.46	75.926	21.474	3.1771e-06	29.767	0.00034041	0.00027189	7.5931e-05	1295.9	3.2513e-06	3.1209e-06	1360.2	267.47	3.2055e-06	3.0348e-06	331.99	95.519	76.09	21.841	3.1736e-06	30.395	281.877	226.956	242.180	154.960	296.724	298.043	154.970	162.228	308.191	298.296	161.881	168.424	168.990	175.716	303.013	175.143	-8191	255	
505.619	1	1	0	0	0.14723	0.1174	0.15105	0.43451	0.038477	0.020546	0.2362	0.10572	0.10754	0.082887	0.14536	0.25038	0.10267	0.18089	0.089332	0.23413	-2.975	-3.0854	-3.5312	-3.1271	-3.2083	-3.4833	-3.2958	-3.6188	-3.1896	-3.475	-3.5854	-3.2979	-3.4417	-3.4688	-3.1521	-3.5125	215.814	457.583	486.398	439.529	415.802	342.140	402.287	319.886	453.469	201.017	415.170	411.480	409.564	395.412	436.444	404.337	0.00040187	0.00042846	9.5747e-05	1312.6	4.0595e-06	2.6301e-06	1374.1	268.56	5.0345e-06	3.3541e-06	331.25	95.754	76.264	21.537	3.5713e-06	29.798	0.00034857	0.00029689	7.8611e-05	1296.3	3.4539e-06	2.6589e-06	1359.7	267.45	3.6097e-06	3.2509e-06	331.9	95.633	75.941	21.885	3.3004e-06	30.357	282.141	215.217	248.388	154.917	277.999	327.356	154.923	162.689	319.426	314.899	161.681	168.276	168.326	175.411	299.863	175.032	-8191	255	
505.715	1	1	0	0	0.10679	0.21619	0.035081	0.39447	0.032959	0.22469	0.4425	0.14382	0.095807	0.15601	0.17793	0.049907	0.036712	0.29774	0.23372	0.27778	-3.1188	-3.2375	-3.5021	-3.2333	-3.3896	-3.5708	-3.3646	-3.5917	-3.4458	-3.1104	-3.7125	-3.1729	-3.3417	-3.4771	-3.1833	-3.4437	222.770	326.473	445.003	421.983	220.534	320.184	419.043	286.966	491.862	224.047	461.249	200.135	202.076	487.530	411.429	408.809	0.00039552	0.00032807	9.9664e-05	1308	4.966e-06	3.7667e-06	1374.8	269.34	4.9825e-06	3.3514e-06	330.93	95.04	76.296	21.437	4.1894e-06	29.982	0.00034372	0.00028879	7.5048e-05	1295.9	3.7059e-06	3.0632e-06	1358.4	267.7	3.5116e-06	3.2024e-06	331.67	95.477	76.099	21.832	3.2056e-06	30.434	281.917	226.681	259.099	154.966	308.336	304.386	155.123	162.499	317.373	302.921	161.643	168.260	168.395	175.417	297.421	175.090	-8191	255	
505.811	1	1	0	0	0.2327	0.24382	0.1171	0.3609	0.193	0.15494	0.14184	0.19198	0.17526	0.2694	0.24498	0.21992	0.22529	0.20017	0.15576	0.13161	-2.9521	-3.0896	-3.4479	-3.3458	-3.2438	-3.5896	-3.2938	-3.6104	-3.3646	-2.8292	-3.4979	-3.1833	-3.2479	-3.6896	-3.1292	-3.5292	239.654	283.383	324.215	447.934	185.988	227.531	496.394	469.761	246.841	339.406	393.251	463.335	439.686	404.954	239.999	429.426	0.00038384	0.00032804	8.8185e-05	1309.5	3.9569e-06	3.9533e-06	1374.4	268.37	4.8003e-06	3.8732e-06	332.4	95.296	75.95	21.548	4.0005e-06	29.968	0.00033672	0.00030154	7.3081e-05	1297.8	3.7842e-06	2.8381e-06	1357.6	267.33	3.5401e-06	3.4014e-06	331.45	95.437	76.01	21.835	3.3044e-06	30.466	281.472	233.660	240.151	155.162	291.030	294.981	155.009	162.413	329.498	293.393	161.804	168.337	168.894	175.580	311.880	174.695	-8191	255	
505.883	1	1	0	0	0.19967	0.23582	0.23021	0.20693	0.069951	0.096492	0.34169	0.090929	0.14261	0.17405	0.10367	0.083677	0.23379	0.025526	0.14753	0.26642	-2.9521	-3.075	-3.6542	-3.4604	-3.2542	-3.5125	-3.3979	-3.425	-3.4688	-3.0938	-3.5167	-3.3854	-3.1688	-3.55	-3.2083	-3.3417	308.261	452.253	482.820	152.355	446.747	274.086	461.568	435.230	185.228	331.221	461.288	360.935	266.156	210.022	500.251	446.418	0.00040151	0.00035151	6.4532e-05	1308.5	5.4267e-06	3.0102e-06	1375.8	269.15	3.4053e-06	3.2454e-06	330.87	95.619	76.214	21.498	4.0104e-06	29.894	0.00033395	0.00030397	6.7894e-05	1295.2	3.7563e-06	2.7791e-06	1359.6	267.3	3.2027e-06	3.1526e-06	331.77	95.645	75.992	21.821	3.1476e-06	30.468	281.578	227.398	244.614	154.889	289.900	273.621	155.048	162.477	318.956	306.729	161.734	168.199	168.766	175.359	309.526	174.531	-8191	255	
506.004	1	1	0	0	0.25759	0.12072	0.12064	0.056121	0.20626	0.18766	0.29713	0.17873	0.065857	0.19736	0.026609	0.050939	0.20391	0.38622	0.14915	0.15097	-3.2062	-2.9292	-3.4021	-3.6	-3.0271	-3.6875	-3.3312	-3.2896	-3.5563	-3.0812	-3.5604	-3.3271	-3.3167	-3.6104	-3.4542	-3.4417	300.565	503.952	504.173	234.188	163.433	312.888	471.051	482.871	411.364	477.799	223.176	383.977	396.721	304.329	347.591	451.702	0.00040349	0.00032414	0.00010971	1308	5.498e-06	2.8804e-06	1372.9	269.5	4.2564e-06	3.7857e-06	332.57	95.171	76.13	21.367	2.8779e-06	29.834	0.00034873	0.00027644	7.3366e-05	1295.9	3.9165e-06	3.049e-06	1358.8	267.75	3.3091e-06	3.2327e-06	332.44	95.507	75.921	21.816	2.9449e-06	30.406	282.781	244.512	223.493	154.970	307.880	271.422	154.878	162.325	323.813	298.393	161.855	168.494	168.552	175.888	316.456	174.941	-8191	255	
506.098	1	1	0	0	0.014351	0.084625	0.1362	0.22364	0.13777	0.03965	0.22309	0.18197	0.14319	0.092636	0.1855	0.14617	0.18611	0.15571	0.10749	0.14511	-3.2646	-3.1708	-3.3833	-3.6708	-3.1375	-3.6063	-3.3729	-3.2958	-3.7458	-3.0896	-3.5375	-3.5542	-3.1896	-3.4167	-3.3708	-3.1688	447.689	269.630	209.925	417.258	483.026	467.577	471.145	174.300	177.459	235.748	393.437	419.238	225.094	194.966	242.260	504.099	0.00039838	0.0002946	8.5278e-05	1305.7	5.4989e-06	2.3063e-06	1376.2	268.62	3.666e-06	3.1986e-06	333.99	95.622	76.259	21.376	4.5339e-06	29.821	0.0003453	0.00028687	7.5703e-05	1295.4	3.9651e-06	2.851e-06	1359.6	267.46	3.3714e-06	3.1696e-06	332.77	95.577	76.067	21.802	3.1366e-06	30.381	284.093	238.483	258.375	155.026	318.585	289.464	154.920	162.427	307.786	297.066	161.662	168.302	168.660	175.664	308.690	175.183	-8191	255	
506.194	1	1	0	0	0.12423	0.078902	0.025426	0.13391	0.069577	0.23479	0.30428	0.11827	0.11442	0.072605	0.20395	0.24161	0.21492	0.14885	0.14826	0.13088	-3.2542	-3.1604	-3.2896	-3.6688	-3.0062	-3.5396	-3.7042	-3.2271	-3.5479	-3.2687	-3.4417	-3.5229	-3.1104	-3.4938	-3.3125	-3.2958	190.273	250.395	271.057	377.728	204.810	181.595	464.154	236.885	262.699	442.029	421.315	176.819	388.104	390.763	327.860	436.663	0.00038825	0.00038928	9.1561e-05	1309.6	3.9179e-06	3.0668e-06	1376.3	269.91	4.5619e-06	3.8004e-06	332.87	94.918	75.745	21.496	3.5057e-06	29.991	0.00033002	0.00031713	8.1974e-05	1297.5	3.7959e-06	2.9701e-06	1359.8	267.89	3.1422e-06	3.4379e-06	332.42	95.465	75.924	21.849	2.9259e-06	30.399	281.747	221.646	230.680	154.823	303.707	300.700	154.915	162.481	307.185	289.621	162.167	168.468	168.436	175.662	312.985	174.927	-8191	255	
506.292	1	1	0	0	0.26394	0.45229	0.19996	0.22464	0.043525	0.36877	0.14763	0.20098	0.082146	0.22021	0.15269	0.19702	0.1346	0.34651	0.11976	0.26919	-3.2542	-3.2188	-3.2375	-3.6896	-3.0625	-3.4313	-3.5792	-3.3292	-3.6604	-3.3979	-3.3271	-3.6333	-3.2021	-3.5958	-3.4896	-3.2188	266.736	425.532	286.987	167.011	482.986	375.436	411.228	471.770	292.141	384.887	475.154	352.541	254.655	461.074	165.158	427.854	0.000403	0.00038023	9.5167e-05	1308.2	4.9304e-06	2.424e-06	1376.4	270.17	4.0789e-06	3.9907e-06	332.3	95.285	75.984	21.479	4.3989e-06	29.818	0.00033745	0.00028089	8.6107e-05	1296.3	3.8544e-06	2.8769e-06	1360.3	267.83	3.2128e-06	3.0798e-06	332.53	95.603	75.996	21.859	2.9479e-06	30.265	281.025	251.184	243.767	154.886	321.527	305.677	154.816	162.452	320.434	297.991	162.034	168.337	168.748	175.816	310.560	175.082	-8191	255	
506.411	1	1	0	0	0.15861	0.042129	0.17973	0.28816	0.13027	0.21077	0.21223	0.14957	0.054435	0.1434	0.083192	0.13915	0.20588	0.23589	0.24477	0.15677	-3.2	-3.3042	-3.0479	-3.8271	-3.0646	-3.4479	-3.6833	-3.2604	-3.3208	-3.5021	-3.4229	-3.6396	-3.4125	-3.3	-3.5521	-3.0458	449.206	418.827	361.689	456.273	429.230	382.440	451.045	422.626	313.126	409.310	412.975	193.490	158.558	185.796	430.604	474.632	0.00041018	0.00029218	8.9739e-05	1311.1	4.8792e-06	1.915e-06	1377.8	268.61	4.312e-06	2.7275e-06	331.29	95.15	76.174	21.403	3.6413e-06	30.03	0.0003383	0.00026116	7.633e-05	1296.4	3.7635e-06	2.8416e-06	1359.8	267.71	3.2971e-06	3.1113e-06	331.94	95.349	76.204	21.826	2.9948e-06	30.399	281.060	246.964	240.437	154.925	297.343	298.775	154.954	162.593	326.271	298.373	161.856	168.501	168.827	175.279	330.160	175.095	-8191	255	
506.483	1	1	0	0	0.13031	0.16945	0.35054	0.41566	0.17546	0.11403	0.2775	0.18127	0.052516	0.25001	0.16336	0.25566	0.04164	0.13691	0.2333	0.2563	-3.1146	-3.2812	-3.3167	-3.8521	-3.3167	-3.3688	-3.7229	-3.3792	-3.5021	-3.4188	-3.3292	-3.5479	-3.45	-3.2687	-3.4729	-3.0479	235.878	278.133	196.489	498.637	260.583	261.278	437.439	446.529	162.769	475.104	158.433	155.298	480.134	171.904	266.350	151.588	0.00040445	0.0003746	9.4872e-05	1310.3	5.4971e-06	3.9355e-06	1374.4	269.99	4.9165e-06	2.7157e-06	333.46	95.281	75.799	21.577	4.4258e-06	29.947	0.00033506	0.00029021	8.5423e-05	1297.7	3.9165e-06	3.1504e-06	1358.6	267.69	3.3769e-06	3.0008e-06	332.62	95.354	75.924	21.89	2.882e-06	30.429	280.827	244.838	222.109	155.017	298.424	298.653	154.966	162.392	313.296	303.301	161.930	168.425	168.367	175.844	304.683	175.026	-8191	255	
506.603	1	1	0	0	0.20339	0.095039	0.16743	0.26637	0.037125	0.072842	0.18452	0.19559	0.18098	0.12993	0.15959	0.14091	0.090574	0.22208	0.079771	0.33539	-3.0271	-3.4938	-3.1771	-3.7188	-3.4292	-3.3083	-3.8042	-3.2542	-3.5375	-3.5542	-3.1917	-3.6729	-3.4479	-3.1729	-3.7271	-3.3167	262.644	383.407	307.446	472.704	182.698	339.622	449.061	396.498	486.591	232.093	406.640	450.420	199.475	476.381	193.728	428.743	0.00039501	0.00026526	7.8916e-05	1313	5.098e-06	2.7456e-06	1373.3	270.61	3.7768e-06	3.3654e-06	331.71	95.44	75.942	21.525	2.624e-06	29.813	0.00034461	0.000265	8.5679e-05	1295.8	3.7653e-06	2.9925e-06	1358	267.69	3.321e-06	3.3153e-06	331.77	95.365	76.034	21.883	3.0378e-06	30.364	281.048	238.478	236.767	155.104	304.154	292.193	154.977	162.444	311.223	309.913	161.935	168.128	168.934	175.746	331.604	175.237	-8191	255	
506.699	1	1	0	0	0.11214	0.069494	0.1263	0.21067	0.20992	0.28092	0.048315	0.41386	0.15345	0.10859	0.11678	0.099077	0.30151	0.13813	0.21637	0.19125	-3.0062	-3.5062	-3.1688	-3.6229	-3.3937	-3.1625	-3.9062	-3.3083	-3.3312	-3.3833	-3.3792	-3.55	-3.4938	-3.1458	-3.6813	-3.3958	163.058	175.474	475.873	471.945	238.583	503.386	181.292	480.605	204.669	478.285	443.330	195.635	437.694	308.208	398.645	379.459	0.00038558	0.00029624	0.00011771	1305	4.7825e-06	2.4006e-06	1370.3	270.17	3.6529e-06	2.8157e-06	334.03	95.57	76.169	21.444	2.9691e-06	29.878	0.00034007	0.00027239	7.8411e-05	1293.6	3.6933e-06	3.2565e-06	1358.6	268.2	3.4585e-06	3.0118e-06	332.23	95.487	76.022	21.873	2.8011e-06	30.425	282.981	240.811	243.009	154.999	294.573	287.402	154.813	162.567	303.123	264.954	161.682	168.410	168.680	175.922	303.918	174.956	-8191	255	
506.796	1	1	0	0	0.25598	0.18921	0.0889	0.19568	0.08293	0.27925	0.14856	0.039972	0.00936	0.23434	0.12571	0.24092	0.25001	0.14727	0.1085	0.048201	-2.8396	-3.4667	-2.9062	-3.55	-3.3021	-3.0292	-3.8229	-3.3229	-3.3396	-3.5292	-3.4583	-3.6292	-3.4167	-3.0771	-3.5875	-3.3187	491.165	479.223	404.843	156.056	361.579	155.360	405.465	409.931	299.180	212.468	503.753	445.322	238.751	403.454	219.706	218.426	0.00039459	0.0003311	0.00010618	1311	5.2793e-06	3.9506e-06	1377.3	269.2	4.3867e-06	4.0636e-06	333.04	95.022	76.338	21.571	3.4713e-06	29.902	0.000353	0.00025306	8.1889e-05	1296.2	3.5709e-06	3.2812e-06	1360.1	267.68	3.5236e-06	2.7629e-06	332.07	95.417	76.089	21.904	2.8121e-06	30.407	282.157	241.515	234.549	155.003	298.547	301.249	154.884	162.548	338.031	308.047	161.897	168.393	168.706	175.584	313.819	174.902	-8191	255	
506.892	1	1	0	0	0.089743	0.16605	0.052624	0.19844	0.24096	0.18854	0.33931	0.12579	0.13744	0.06418	0.16181	0.094948	0.15412	0.059519	0.096249	0.095425	-2.8854	-3.6229	-3.1521	-3.6396	-3.5292	-3.1417	-3.6083	-3.5396	-2.9479	-3.5062	-3.2667	-3.5792	-3.4083	-3.0062	-3.6083	-3.5083	242.205	387.299	477.718	465.231	482.480	187.307	473.675	481.156	189.032	408.647	384.558	326.712	291.599	182.835	435.168	156.613	0.00040592	0.00045575	9.8431e-05	1311	5.859e-06	3.7874e-06	1374	269.17	4.074e-06	3.141e-06	334.45	95.567	76.301	21.46	3.9021e-06	29.848	0.00035408	0.00026146	7.8155e-05	1296.2	3.6285e-06	3.1091e-06	1359.6	267.89	3.3925e-06	3.189e-06	332.69	95.477	76.178	21.859	2.861e-06	30.426	281.167	233.436	240.189	155.107	299.218	299.343	154.964	162.161	321.921	289.704	161.840	168.406	168.602	175.583	304.302	175.147	-8191	255	
507.012	1	1	0	0	0.18593	0.23287	0.062337	0.19403	0.076427	0.10485	0.26322	0.21022	0.035696	0.14937	0.13451	0.073256	0.12548	0.15781	0.18458	0.23616	-2.7521	-3.5271	-3.1646	-3.5	-3.4458	-3.1104	-3.6896	-3.375	-3.0854	-3.4104	-3.3333	-3.3146	-3.6896	-3.0396	-3.5521	-3.3542	336.533	266.164	228.219	460.964	482.826	268.759	454.360	154.025	234.361	480.014	402.301	211.612	418.429	475.207	402.987	402.927	0.00039972	0.00032415	8.5489e-05	1308.6	4.2712e-06	4.3899e-06	1376.4	268.99	4.0436e-06	2.9197e-06	331.86	95.369	75.7	21.548	4.3334e-06	29.747	0.00034642	0.00025225	7.653e-05	1297.5	3.6213e-06	3.1622e-06	1361.8	267.71	3.4713e-06	2.9948e-06	331.88	95.557	75.945	21.872	3.0058e-06	30.395	282.882	245.609	251.368	155.040	286.689	315.921	154.956	162.574	329.628	317.172	161.618	168.478	168.701	176.035	307.866	175.029	-8191	255	
507.107	1	1	0	0	0.024063	0.19746	0.044053	0.26664	0.07462	0.02725	0.16556	0.31314	0.073907	0.072253	0.15452	0.15438	0.11399	0.15144	0.13008	0.097662	-2.7812	-3.5208	-3.1562	-3.3292	-3.4562	-3.1146	-3.5396	-3.5771	-3.1813	-3.4979	-3.4188	-3.4542	-3.3708	-3.1333	-3.3812	-3.6271	199.111	467.167	179.893	491.921	320.541	501.068	476.854	480.182	327.614	175.004	430.885	316.630	150.284	430.319	282.138	451.529	0.00040992	0.00031658	8.4485e-05	1309.9	4.3422e-06	2.5332e-06	1377.8	270.19	4.7309e-06	4.2815e-06	333.04	95.537	76.218	21.555	4.869e-06	29.862	0.00035635	0.00024516	6.8806e-05	1296.7	3.462e-06	2.574e-06	1359.4	268.02	3.4704e-06	2.8212e-06	332.38	95.715	76.143	21.874	3.2255e-06	30.398	282.672	225.921	259.427	155.162	304.315	304.531	155.002	162.595	320.612	259.819	161.921	168.478	168.586	175.445	312.082	174.930	-8191	255	
507.180	1	1	0	0	0.18012	0.2242	0.17174	0.13008	0.19801	0.05813	0.15962	0.34511	0.070878	0.35999	0.057454	0.2659	0.26878	0.080876	0.10027	0.057073	-2.6792	-3.3792	-3.3312	-3.3417	-3.6667	-3.2708	-3.4062	-3.6042	-3.1958	-3.5	-3.4375	-3.2104	-3.4729	-3.2917	-3.1979	-3.7021	246.719	259.014	425.543	149.757	270.365	428.096	375.886	402.195	238.557	433.600	486.257	484.150	190.371	296.766	297.740	323.350	0.00039686	0.00034106	8.6802e-05	1305.2	5.974e-06	4.4733e-06	1370.3	270	4.7577e-06	4.878e-06	331.95	95.794	76.234	21.536	3.1479e-06	29.865	0.00034403	0.00029264	7.958e-05	1295.5	3.5583e-06	3.2117e-06	1359.3	267.57	3.6821e-06	3.2169e-06	331.99	95.631	76.156	21.886	3.0338e-06	30.398	282.033	236.247	239.085	155.094	309.321	297.497	154.952	162.317	311.827	296.285	162.185	168.347	168.788	176.095	325.071	175.108	-8191	255	
507.299	1	1	0	0	0.34437	0.21885	0.25429	0.18936	0.25074	0.34297	0.31166	0.23719	0.2069	0.13429	0.076242	0.10717	0.0052708	0.049915	0.25253	0.17477	-2.6167	-3.3229	-3.1875	-3.4271	-3.4437	-3.1813	-3.4667	-3.7	-3.0854	-3.3708	-3.6792	-3.3333	-3.4583	-3.275	-3.1583	-3.4896	333.849	452.832	278.930	491.775	154.631	386.341	439.070	424.479	260.563	349.288	336.740	446.975	438.115	264.112	396.128	390.718	0.00038932	0.00042106	5.4545e-05	1312.7	4.3596e-06	4.0713e-06	1379.9	270.82	4.7813e-06	3.7306e-06	332.39	95.45	76.352	21.687	4.4e-06	29.977	0.00034742	0.00027998	7.0886e-05	1296.9	3.4034e-06	2.8569e-06	1361.4	268.15	3.6464e-06	3.0069e-06	332.2	95.739	76.179	21.929	3.0478e-06	30.422	283.074	242.135	225.553	155.008	292.901	307.548	154.934	162.379	307.803	277.908	162.003	168.452	168.594	175.558	298.115	175.031	-8191	255	
507.395	1	1	0	0	0.070693	0.26817	0.2843	0.095848	0.076207	0.063312	0.34337	0.084342	0.055514	0.062881	0.22845	0.091872	0.36804	0.038777	0.12104	0.044722	-2.7042	-3.3812	-3.3333	-2.9979	-3.5083	-3.2979	-3.2562	-3.7188	-3.3271	-3.3292	-3.6229	-3.0958	-3.4292	-3.4562	-3.125	-3.575	307.521	177.408	495.092	153.853	495.952	487.450	425.319	157.756	424.631	335.833	409.332	396.432	188.845	437.057	499.802	245.032	0.00041017	0.00029737	0.00010981	1312.2	3.9491e-06	3.4159e-06	1370.9	270.86	4.9874e-06	3.2691e-06	332.75	95.468	76.296	21.468	2.8238e-06	29.988	0.00036031	0.0002811	8.0691e-05	1297.3	3.804e-06	2.9689e-06	1359.5	268.18	3.3329e-06	3.2873e-06	332.29	95.752	76.142	21.863	2.9529e-06	30.409	282.153	237.567	240.763	155.099	300.572	303.195	155.134	162.493	324.610	310.120	161.992	168.190	168.673	175.313	318.612	174.832	-8191	255	
507.491	1	1	0	0	0.32496	0.24427	0.12469	0.25531	0.15582	0.30416	0.18243	0.13988	0.079313	0.36623	0.3527	0.25426	0.18916	0.12239	0.11065	0.25622	-2.8479	-3.3021	-3.4125	-3.4271	-3.4604	-3.2938	-3.3979	-3.5167	-3.3312	-3.1542	-3.5729	-2.9875	-3.4583	-3.3854	-3.1396	-3.5021	178.108	408.129	286.295	465.353	184.552	419.699	398.316	468.765	420.517	233.373	430.907	389.172	461.989	181.822	314.867	321.797	0.00040501	0.00034987	9.384e-05	1307.3	4.2811e-06	4.2127e-06	1374.1	269.93	4.2237e-06	3.0237e-06	332.59	95.844	76.08	21.548	4.0439e-06	29.954	0.00035154	0.00030003	7.1799e-05	1295.3	3.5619e-06	3.0926e-06	1358.9	267.9	3.0744e-06	2.8151e-06	332.17	95.757	76.002	21.874	2.9629e-06	30.446	283.308	219.629	238.394	155.112	291.755	283.627	154.910	162.303	325.470	271.601	162.068	168.529	168.776	175.674	309.439	175.261	-8191	255	
507.588	1	1	0	0	0.061764	0.13343	0.19619	0.23767	0.12968	0.29673	0.29494	0.30859	0.13793	0.079336	0.11207	0.11801	0.12252	0.26024	0.16944	0.22077	-2.7417	-3.2458	-3.5292	-3.4375	-3.4646	-3.5042	-3.2521	-3.6333	-3.3479	-3.35	-3.6104	-3.2958	-3.35	-3.5312	-3.1896	-3.5062	443.461	476.727	163.746	478.634	167.497	463.087	425.703	489.433	197.678	446.133	164.448	429.988	152.366	423.147	149.316	381.159	0.00039005	0.00036019	0.00010206	1308.9	4.4147e-06	2.8836e-06	1376	269.74	3.8213e-06	3.5794e-06	332.03	95.809	76.255	21.634	3.2304e-06	30.087	0.00033995	0.00029274	7.4962e-05	1297.1	3.6042e-06	2.93e-06	1359.9	267.96	3.3036e-06	2.9365e-06	332.35	95.826	76.179	21.907	2.9279e-06	30.498	281.681	240.291	229.368	154.982	299.325	292.374	154.950	162.408	310.751	303.584	161.771	168.210	168.406	175.831	311.017	174.675	-8191	255	
507.708	1	1	0	0	0.11236	0.0096684	0.067882	0.02949	0.26385	0.10481	0.24271	0.064571	0.086049	0.085318	0.18431	0.093321	0.24319	0.010361	0.073135	0.16322	-2.8208	-3.1604	-3.6688	-3.3708	-3.5417	-3.4562	-3.4	-3.5042	-3.1833	-2.9958	-3.6667	-3.2583	-3.125	-3.3292	-3.0229	-3.6	347.123	280.188	163.531	390.736	369.243	232.628	412.675	312.751	312.800	258.599	163.896	276.525	448.453	164.202	423.185	503.626	0.00040991	0.00042685	9.4962e-05	1311.7	4.6856e-06	3.6422e-06	1379.2	269.36	3.9572e-06	3.2044e-06	333.25	95.024	76.4	21.549	4.6752e-06	29.938	0.00035708	0.00029709	7.2226e-05	1297.6	3.5466e-06	2.9194e-06	1360.7	267.83	3.4466e-06	3.0992e-06	332.37	95.629	76.396	21.911	3.2355e-06	30.448	281.824	232.641	257.587	155.046	299.987	290.050	154.998	162.114	312.019	296.055	161.665	168.159	168.525	175.669	316.798	175.119	-8191	255	
507.780	1	1	0	0	0.14171	0.19078	0.060388	0.21835	0.029361	0.47302	0.20635	0.11792	0.099721	0.13312	0.23338	0.16387	0.10618	0.099372	0.1636	0.15783	-3.075	-3.075	-3.55	-3.35	-3.2479	-3.4854	-3.2896	-3.4208	-3.4417	-2.9646	-3.6042	-3.4792	-3.3854	-3.5021	-3.0708	-3.3854	250.114	415.605	295.407	399.543	250.791	483.401	465.913	323.495	482.406	470.157	446.236	275.706	189.165	290.283	240.279	449.911	0.0004202	0.00037733	9.771e-05	1309.3	4.6266e-06	3.4248e-06	1372.6	270.46	4.2117e-06	4.476e-06	333.53	95.881	76.29	21.496	5.2591e-06	30.272	0.00035773	0.00030721	6.8891e-05	1297.4	3.3836e-06	3.2635e-06	1360.3	268.57	3.2522e-06	3.1587e-06	332.87	95.686	76.292	21.911	3.2425e-06	30.502	282.339	225.203	232.646	154.898	299.934	307.661	154.865	162.484	313.629	300.937	161.976	168.022	168.656	175.999	305.494	175.211	-8191	255	
507.876	1	1	0	0	0.1952	0.066695	0.064175	0.10614	0.24176	0.29574	0.089144	0.23316	0.082774	0.15333	0.06318	0.060433	0.15354	0.13641	0.19187	0.31275	-2.8854	-3.0583	-3.4958	-3.35	-3.1063	-3.6667	-3.4562	-3.4604	-3.4646	-3.1125	-3.4667	-3.2125	-3.3104	-3.5604	-3.3583	-3.3917	392.687	152.920	304.489	466.351	408.624	380.727	479.879	330.934	232.546	440.319	336.959	390.200	260.928	383.632	439.161	387.566	0.00041386	0.00043913	0.00012542	1308	4.63e-06	3.2052e-06	1372.8	270.19	3.8767e-06	3.0843e-06	331.14	95.198	76.543	21.601	3.7508e-06	30.127	0.00034569	0.0002977	7.8069e-05	1298.6	3.7905e-06	3.1669e-06	1360.4	267.93	3.2467e-06	3.5653e-06	332.37	95.63	76.354	21.946	3.1786e-06	30.529	283.720	249.473	226.006	155.090	304.729	287.979	154.862	162.458	312.924	289.361	161.900	168.124	168.256	175.454	305.226	174.688	-8191	255	
507.972	1	1	0	0	0.24697	0.18791	0.18104	0.16619	0.071432	0.20037	0.19444	0.3205	0.14001	0.15376	0.16335	0.15288	0.46538	0.19263	0.1531	0.30305	-3.0062	-2.9958	-3.2958	-3.4333	-3.2333	-3.7604	-3.4458	-3.3875	-3.4979	-3.2375	-3.5604	-3.5312	-3.1458	-3.6271	-3.2042	-3.3021	436.439	487.842	267.127	489.146	472.950	457.561	434.398	151.606	381.075	463.997	157.804	469.324	187.545	498.841	259.475	159.360	0.00039424	0.00029786	9.6841e-05	1316.6	4.9914e-06	2.6919e-06	1381.8	270.11	4.299e-06	3.0817e-06	332.84	96.204	76.286	21.649	4.2414e-06	29.956	0.00034445	0.00030519	7.5874e-05	1300.9	3.831e-06	3.0773e-06	1364.9	268.39	3.3861e-06	3.3881e-06	332.85	95.832	76.481	21.987	3.1906e-06	30.461	282.035	222.846	248.014	155.245	310.562	290.813	154.842	162.151	302.134	303.672	161.702	168.077	168.452	175.438	298.155	174.706	-8191	255	
508.091	1	1	0	0	0.10503	0.2205	0.12988	0.22656	0.16789	0.10999	0.1364	0.056092	0.08265	0.081182	0.10874	0.16807	0.082871	0.17646	0.20177	0.060264	-3.3021	-3.1875	-3.4521	-3.6333	-3.0938	-3.5167	-3.3854	-3.3833	-3.4979	-3.1521	-3.4771	-3.4875	-3.0687	-3.5625	-3.2333	-3.2729	350.496	355.124	226.163	430.831	205.560	226.036	393.202	424.186	294.846	431.783	221.351	456.836	149.529	325.217	214.276	428.944	0.00039394	0.00049934	7.7593e-05	1316	5.4984e-06	4.0808e-06	1385.5	270.61	4.7072e-06	2.7667e-06	333.21	96.236	76.816	21.61	3.6679e-06	29.964	0.00033683	0.00029598	7.9779e-05	1303.7	4.0245e-06	3.207e-06	1367.4	269.25	3.3118e-06	3.4694e-06	333.35	96.233	76.571	21.974	3.1187e-06	30.496	284.068	234.593	212.267	154.956	303.736	289.694	154.937	162.261	319.673	284.651	161.805	168.305	168.571	175.634	308.195	175.001	-8191	255	
508.187	1	1	0	0	0.10427	0.19575	0.1764	0.2857	0.054695	0.26193	0.23986	0.16008	0.12846	0.14563	0.15874	0.15486	0.27471	0.18432	0.14111	0.16223	-3.1583	-3.1979	-3.2729	-3.5542	-2.9896	-3.4667	-3.6125	-3.1958	-3.6479	-3.2667	-3.4292	-3.6312	-3.3167	-3.475	-3.35	-3.2417	388.743	214.723	393.342	478.555	373.430	341.776	373.129	458.544	423.003	352.743	441.134	184.181	438.398	457.601	457.145	245.471	0.00040657	0.00033874	0.00010725	1317.4	5.949e-06	3.5044e-06	1382.7	271.4	3.0565e-06	3.6125e-06	333.67	96.314	76.897	21.543	3.4919e-06	30.072	0.00034276	0.00031875	7.9665e-05	1306.3	3.8535e-06	3.1692e-06	1369.3	269.62	3.4521e-06	3.3954e-06	333.93	96.294	76.783	21.967	3.1207e-06	30.579	284.292	230.213	249.486	155.094	297.555	311.017	154.681	162.369	323.506	305.675	161.992	168.191	168.887	175.823	304.824	174.823	-8191	255	
508.285	1	1	0	0	0.23196	0.061749	0.077564	0.25438	0.36096	0.3763	0.25546	0.094279	0.11259	0.35576	0.27805	0.33001	0.1104	0.10426	0.25133	0.18762	-3.1521	-3.1229	-3.3042	-3.8292	-3.0854	-3.3604	-3.5646	-3.2208	-3.4688	-3.2396	-3.2313	-3.6354	-3.0271	-3.4396	-3.3896	-3.0333	459.189	462.960	481.130	470.801	190.201	370.288	458.762	289.012	460.378	443.880	425.208	462.437	356.464	475.598	238.028	442.728	0.00042061	0.00037284	8.5865e-05	1321.4	4.1181e-06	2.7406e-06	1383.9	272.09	3.1539e-06	3.8952e-06	334.64	95.754	76.657	21.574	3.5736e-06	29.99	0.00035454	0.00030438	8.3855e-05	1309	3.9561e-06	3.2765e-06	1371.1	270.01	3.4016e-06	3.847e-06	334.53	96.308	76.621	22.032	3.2565e-06	30.534	281.998	224.057	230.746	154.827	300.223	311.804	154.655	162.459	308.994	300.147	161.785	167.841	168.513	175.696	300.048	174.540	-8191	255	
508.380	1	1	0	0	0.17029	0.22149	0.10657	0.075748	0.15176	0.20683	0.21688	0.077483	0.11322	0.15905	0.27265	0.30507	0.12579	0.16992	0.01097	0.10711	-2.9958	-3.1896	-3.2479	-3.7292	-3.25	-3.2917	-3.7333	-3.1375	-3.4979	-3.3563	-3.1875	-3.4646	-3.2271	-3.3104	-3.3875	-3.1021	265.317	292.181	381.708	468.191	483.154	403.595	463.216	207.369	239.052	179.982	155.839	430.030	196.187	189.632	267.534	184.346	0.00043189	0.00038031	9.3818e-05	1334.5	5.1424e-06	2.9584e-06	1390.6	273.19	3.9362e-06	4.0966e-06	336.15	95.854	76.466	21.709	4.0247e-06	29.848	0.00037236	0.00034932	9.6539e-05	1318.8	4.3756e-06	3.4898e-06	1378.4	271.28	3.7811e-06	4.1152e-06	336.36	95.945	76.669	21.991	3.4792e-06	30.381	284.964	240.408	243.108	154.803	293.559	307.808	155.130	162.354	325.729	299.982	161.821	168.275	168.777	175.455	307.686	174.810	-8191	255	
508.476	1	1	0	0	0.17853	0.046008	0.12966	0.167	0.27918	0.1074	0.2233	0.15877	0.042715	0.13246	0.17088	0.19071	0.26698	0.18912	0.08069	0.080303	-3.0542	-3.1896	-3.0333	-3.8	-3.1771	-3.1958	-3.6125	-3.1	-3.4417	-3.3792	-3.1042	-3.4208	-3.0271	-3.4667	-3.5521	-2.9833	341.475	254.377	200.195	404.695	179.039	218.005	441.500	446.962	312.215	496.441	465.587	421.066	488.142	369.457	352.406	157.538	0.00041495	0.00036876	0.00010384	1334.3	4.5002e-06	3.1809e-06	1391.9	273.61	3.8312e-06	2.725e-06	335.61	95.693	76.241	21.518	3.6769e-06	29.552	0.0003622	0.00032806	9.6339e-05	1317.8	4.3072e-06	3.8399e-06	1376.8	271.4	3.8618e-06	3.3565e-06	335.9	95.784	76.265	21.848	3.5651e-06	30.255	279.575	216.256	254.531	154.656	314.272	290.810	155.142	162.361	330.598	281.268	161.880	168.345	168.612	175.883	304.375	175.196	-8191	255	
508.572	1	1	0	0	0.10125	0.10378	0.15498	0.20457	0.053013	0.032868	0.24484	0.11641	0.12082	0.071821	0.25949	0.1925	0.34933	0.11498	0.23958	0.15091	-2.9583	-3.3896	-3.0458	-3.6292	-3.2417	-3.3625	-3.7167	-3.3583	-3.4458	-3.4417	-3.1729	-3.6375	-3.3854	-3.2375	-3.5521	-3	169.524	192.607	351.689	456.308	183.598	241.026	469.889	414.827	426.314	393.115	490.092	313.551	387.935	415.027	195.151	220.050	0.00041215	0.00026121	7.968e-05	1325	4.4292e-06	5.0282e-06	1391.5	272.54	5.1176e-06	2.7379e-06	335	95.797	76.34	21.383	3.7235e-06	29.726	0.00037586	0.00031825	9.7651e-05	1313.8	4.3774e-06	4.197e-06	1373.5	270.22	3.9681e-06	3.5459e-06	335.42	95.457	76.264	21.713	3.4552e-06	30.119	281.621	237.891	242.041	154.937	294.973	304.069	154.933	162.233	327.750	306.525	161.899	168.393	168.404	175.462	305.799	174.942	-8191	255	
508.692	1	1	0	0	0.17861	0.3392	0.089114	0.32496	0.28985	0.13105	0.36065	0.17519	0.3423	0.19314	0.29748	0.18906	0.12627	0.13609	0.1559	0.075767	-2.9729	-3.4854	-3.2062	-3.6292	-3.4188	-3.15	-3.7708	-3.3208	-3.3208	-3.5375	-3.2021	-3.7104	-3.3833	-3.1333	-3.5604	-3.2396	388.936	180.012	279.743	442.364	423.153	216.448	441.032	434.506	414.318	488.289	171.443	441.604	204.289	153.157	309.449	290.099	0.00038633	0.0004239	8.2595e-05	1326.2	5.6292e-06	4.6605e-06	1386.4	271.95	4.7168e-06	1.4765e-06	335.8	95.212	75.983	21.324	2.8167e-06	29.565	0.00035958	0.00033221	9.7252e-05	1309.3	4.2388e-06	3.8894e-06	1370.5	269.86	3.8435e-06	3.8967e-06	335.93	95.287	75.954	21.694	3.5261e-06	30.103	283.338	233.715	254.663	154.899	306.826	289.281	154.978	162.367	318.858	313.728	162.016	168.034	168.593	175.843	306.012	175.194	-8191	255	
508.787	1	1	0	0	0.20211	0.16032	0.16076	0.23343	0.054776	0.20622	0.11188	0.11871	0.088009	0.084008	0.23679	0.2828	0.071417	0.14214	0.092811	0.12796	-2.8354	-3.325	-2.9958	-3.5062	-3.3729	-2.9729	-3.7188	-3.2854	-3.3479	-3.5	-3.1271	-3.5229	-3.3625	-3.1312	-3.4583	-3.4125	383.116	408.605	457.278	147.188	203.152	180.249	419.586	495.487	227.432	311.142	434.396	151.224	248.869	387.689	464.845	225.201	0.00042389	0.00039489	6.2879e-05	1326.4	5.1903e-06	2.7317e-06	1390.7	272.43	4.1249e-06	3.3529e-06	335.98	95.408	75.792	21.404	4.352e-06	29.588	0.00038391	0.00034588	9.8221e-05	1312.3	4.2865e-06	3.8564e-06	1374.6	270.05	4.1194e-06	3.6867e-06	335.58	95.306	75.979	21.769	3.7468e-06	30.035	280.400	217.617	219.133	155.055	304.246	309.217	154.900	162.177	319.055	297.902	161.803	168.513	168.523	175.450	315.024	174.718	-8191	255	
508.883	1	1	0	0	0.2233	0.11109	0.014358	0.1543	0.058079	0.43378	0.20168	0.29993	0.21466	0.13106	0.11615	0.23606	0.13226	0.10681	0.14816	0.2112	-2.7792	-3.5167	-3.075	-3.6021	-3.3396	-3	-3.6208	-3.2146	-3.0312	-3.3875	-3.2542	-3.3521	-3.4667	-3.0771	-3.4437	-3.3354	300.587	368.090	337.944	145.671	299.387	173.760	334.684	488.249	483.514	328.431	369.793	315.991	442.925	198.785	302.886	178.039	0.00039807	0.00032492	9.394e-05	1329	4.161e-06	4.9093e-06	1388.5	271.45	3.8711e-06	3.9016e-06	336.44	94.941	76.386	21.354	4.1019e-06	29.478	0.00037198	0.0003231	0.00010215	1314.4	4.1956e-06	3.999e-06	1374.1	270.05	4.0919e-06	4.2415e-06	335.78	95.33	76.267	21.709	3.9875e-06	30.121	283.964	216.441	225.556	154.952	292.690	286.499	155.134	162.242	313.783	296.835	161.507	168.292	168.789	175.671	308.184	174.891	-8191	255	
508.979	1	1	0	0	0.12402	0.20892	0.15271	0.13465	0.15168	0.24216	0.31299	0.073698	0.28534	0.19341	0.17808	0.12312	0.24993	0.31158	0.23082	0.1442	-2.7938	-3.6125	-3.0854	-3.3458	-3.5354	-3.1688	-3.7417	-3.45	-3.0062	-3.6521	-3.2708	-3.3125	-3.5292	-2.825	-3.475	-3.3396	449.877	183.653	389.378	323.600	492.959	242.651	435.068	185.530	490.368	430.673	477.408	432.468	323.786	462.814	332.735	444.232	0.00039318	0.00034042	6.3847e-05	1333.1	4.0577e-06	3.5514e-06	1400.2	272.59	4.3826e-06	4.0635e-06	336.95	95.785	75.91	21.531	4.4299e-06	29.733	0.00037848	0.00035266	0.00010466	1320.2	4.4026e-06	4.4398e-06	1382.2	271.16	4.178e-06	3.8506e-06	337.2	95.727	76.264	21.812	3.637e-06	30.194	279.581	235.599	227.075	154.929	299.016	289.102	154.867	162.076	318.355	279.193	161.974	168.309	168.681	175.637	305.066	174.839	-8191	255	
509.075	1	1	0	0	0.02423	0.040281	0.25569	0.24749	0.20323	0.14645	0.14931	0.16547	0.1569	0.096244	0.084978	0.062776	0.15523	0.23547	0.054367	0.29845	-2.5917	-3.4333	-3.05	-3.3854	-3.5542	-3.1604	-3.4188	-3.4708	-3.0333	-3.4646	-3.1813	-3.1146	-3.6146	-2.975	-3.4771	-3.4167	455.580	267.475	175.276	477.768	362.923	297.136	471.202	198.831	243.888	318.100	177.454	307.203	500.942	462.828	390.629	487.138	0.00042007	0.0004166	7.8108e-05	1333.6	5.7048e-06	5.0092e-06	1396.6	272.19	3.3162e-06	4.5806e-06	337.19	95.853	76.379	21.505	4.7798e-06	29.7	0.00039203	0.00034153	9.9104e-05	1320.6	4.4404e-06	4.2677e-06	1381.6	270.78	4.1414e-06	4.2888e-06	336.62	95.835	76.308	21.808	3.6559e-06	30.17	280.528	235.170	270.431	155.061	300.470	305.852	154.742	162.556	320.739	291.230	161.679	168.071	168.951	175.358	308.651	175.230	-8191	255	
509.171	1	1	0	0	0.060904	0.16361	0.20117	0.33641	0.045764	0.1103	0.13126	0.11604	0.15604	0.1532	0.093439	0.1422	0.26246	0.078171	0.060577	0.11892	-2.4729	-3.3771	-3.1417	-3.1708	-3.3667	-3.1625	-3.5563	-3.5708	-3.1333	-3.5792	-3.5021	-3.1542	-3.5958	-3.3042	-3.3646	-3.5708	403.476	185.629	154.482	484.211	414.814	376.476	350.932	410.031	299.253	323.860	454.988	185.863	155.507	373.072	413.514	170.854	0.00043117	0.00031984	0.00011249	1335.4	3.4366e-06	3.8304e-06	1400.8	271.92	4.0991e-06	4.1679e-06	339.32	95.94	76.144	21.566	4.0618e-06	29.62	0.00038683	0.0003391	9.9047e-05	1322.1	4.3468e-06	4.065e-06	1382.8	270.82	4.2138e-06	4.0157e-06	338.09	95.953	76.443	21.892	3.8097e-06	30.125	281.569	245.410	230.409	154.954	296.808	293.627	155.017	162.235	326.067	301.232	161.752	168.180	168.961	175.642	293.374	174.916	-8191	255	
509.268	1	1	0	0	0.28634	0.060422	0.13016	0.23031	0.048121	0.22419	0.23588	0.26443	0.12882	0.25028	0.30037	0.25971	0.22916	0.10302	0.10494	0.17231	-2.5792	-3.2208	-3.3042	-3.2	-3.6021	-3.275	-3.3	-3.5354	-3.0042	-3.5208	-3.3979	-2.9625	-3.5875	-3.1354	-3.2188	-3.5979	400.982	340.875	352.758	146.983	485.833	156.104	445.191	461.606	415.045	409.620	468.250	438.594	153.380	461.183	239.665	424.138	0.00041733	0.0003427	6.3555e-05	1336.8	5.8547e-06	3.2055e-06	1395.6	273.41	4.7598e-06	3.8508e-06	336.69	96.141	76.624	21.463	4.0175e-06	29.665	0.00039111	0.00035904	9.9817e-05	1322	4.1911e-06	3.8458e-06	1381.6	271.51	4.2807e-06	3.8773e-06	336.71	95.862	76.59	21.84	3.7548e-06	30.16	282.531	215.527	248.519	154.921	312.351	289.448	154.802	162.467	309.972	279.815	161.874	168.391	168.646	175.588	293.771	174.841	-8191	255	
509.364	1	1	0	0	0.12261	0.14294	0.20137	0.29816	0.13733	0.30845	0.10966	0.11867	0.086308	0.24062	0.29836	0.12413	0.017206	0.090195	0.23022	0.077435	-2.7646	-3.3125	-3.3833	-3.2167	-3.5229	-3.0708	-3.2042	-3.6271	-3.0021	-3.2625	-3.6167	-3.1937	-3.3958	-3.1562	-3.15	-3.5354	290.398	306.470	181.836	460.737	325.652	357.103	481.726	503.050	358.451	344.082	472.057	366.117	175.124	226.254	381.743	498.699	0.00038162	0.00033399	0.00010014	1329.5	5.6898e-06	2.7097e-06	1392	273.03	3.7325e-06	4.7649e-06	338.08	95.944	76.829	21.508	4.0546e-06	29.585	0.00037144	0.00034659	9.7223e-05	1322.3	4.3207e-06	3.7574e-06	1382.1	271.4	4.2917e-06	4.3605e-06	337.52	95.979	76.513	21.795	4.0224e-06	30.147	281.172	222.680	254.673	155.018	289.066	303.234	154.735	162.369	317.712	301.798	161.687	168.464	168.570	175.739	301.034	175.058	-8191	255	
509.483	1	1	0	0	0.15323	0.063379	0.095624	0.33871	0.15524	0.1391	0.25698	0.2356	0.072923	0.18597	0.099713	0.19932	0.32845	0.079799	0.08289	0.29794	-2.875	-3.2687	-3.4396	-3.2292	-3.3083	-3.2687	-3.2771	-3.6854	-3.1521	-3.3646	-3.7229	-3.1542	-3.4313	-3.3708	-3.0833	-3.5708	284.285	166.313	321.374	146.686	388.318	422.937	481.794	495.363	352.330	374.417	271.308	502.510	492.319	404.928	246.464	499.805	0.00040616	0.00015893	0.00011595	1337.4	4.3204e-06	2.6607e-06	1400.1	273.09	3.918e-06	3.3593e-06	338.58	95.173	76.101	21.552	3.279e-06	29.732	0.00037744	0.0003226	9.138e-05	1324.2	4.3072e-06	3.7656e-06	1385.5	271.26	3.947e-06	3.9853e-06	337.68	95.635	76.264	21.854	3.7148e-06	30.217	279.842	214.176	229.499	154.754	290.754	284.345	154.865	162.401	311.514	286.881	161.687	168.420	168.596	175.632	294.543	174.874	-8191	255	
509.579	1	1	0	0	0.088394	0.16033	0.15002	0.14951	0.07781	0.20938	0.082142	0.22484	0.070878	0.22048	0.21267	0.19501	0.1595	0.17809	0.11546	0.092314	-2.6813	-3.1646	-3.3229	-3.2729	-3.3583	-3.4917	-3.1667	-3.4813	-3.2729	-3.1813	-3.7542	-3.2458	-3.5438	-3.3521	-2.9813	-3.5229	314.162	187.459	240.679	157.862	261.607	436.424	288.438	379.569	404.637	450.299	420.608	155.737	227.817	172.159	260.004	254.825	0.00038111	0.00040169	6.988e-05	1333.3	4.8721e-06	4.1564e-06	1400.6	273.65	3.5199e-06	3.0386e-06	337.56	95.647	76.137	21.372	3.6081e-06	29.588	0.0003637	0.00035894	8.7618e-05	1321.8	4.2532e-06	4.0921e-06	1383.9	271.33	3.9324e-06	4.1662e-06	336.9	95.589	76.442	21.78	3.8027e-06	30.225	280.948	240.839	234.994	154.939	304.104	288.205	154.773	162.338	323.929	278.279	161.836	168.194	168.762	175.702	296.869	175.156	-8191	255	
509.652	1	1	0	0	0.14366	0.079162	0.081194	0.16668	0.081393	0.30352	0.28155	0.33368	0.082405	0.14305	0.19206	0.25251	0.081358	0.1812	0.10316	0.18219	-2.8042	-2.9354	-3.5771	-3.3896	-3.325	-3.5458	-3.1229	-3.4729	-3.3458	-3.025	-3.5583	-3.1958	-3.35	-3.3	-3.0042	-3.4604	200.625	347.518	254.037	425.142	162.487	342.510	443.638	435.910	215.088	388.690	272.202	375.946	151.506	175.448	338.199	204.567	0.00039887	0.00036039	7.8236e-05	1327.4	5.1189e-06	3.1444e-06	1396.9	273.34	4.4368e-06	4.6933e-06	338.08	95.783	76.573	21.552	3.6793e-06	29.729	0.00037244	0.00034102	9.2805e-05	1319.6	4.2316e-06	3.7798e-06	1381	271.4	4.0781e-06	3.9635e-06	337.27	95.642	76.363	21.846	3.8037e-06	30.156	283.109	225.676	214.010	154.863	306.917	280.034	155.046	162.252	307.874	289.508	161.576	168.124	168.616	175.454	322.182	174.872	-8191	255	
509.771	1	1	0	0	0.21378	0.11816	0.09951	0.27733	0.033692	0.23356	0.18206	0.34208	0.14661	0.11998	0.078495	0.19222	0.24822	0.11218	0.074774	0.078828	-3.0375	-2.9354	-3.6229	-3.2667	-3.2208	-3.3958	-3.3187	-3.5333	-3.3583	-3.075	-3.8458	-3.2125	-3.2292	-3.6229	-3.1667	-3.4875	474.560	304.342	459.578	432.364	220.361	212.037	463.008	433.968	425.569	387.726	149.323	380.350	193.822	166.097	198.426	400.168	0.00039942	0.00034625	0.00012724	1334.5	4.9479e-06	3.896e-06	1398.6	274.77	3.6662e-06	2.174e-06	337.62	95.9	76.419	21.468	4.1146e-06	29.469	0.00037198	0.00036562	9.1893e-05	1322.5	4.6861e-06	3.841e-06	1383.3	272.07	3.8627e-06	3.7219e-06	337.45	95.745	76.511	21.797	4.2641e-06	30.072	280.715	224.965	239.790	154.927	298.490	290.293	154.896	162.386	322.265	295.147	161.850	167.951	168.801	175.657	311.872	174.869	-8191	255	
509.867	1	1	0	0	0.15338	0.13996	0.068416	0.2677	0.154	0.12454	0.14435	0.10252	0.068858	0.13923	0.060069	0.20093	0.20757	0.1037	0.093758	0.0063769	-2.875	-3.0646	-3.4083	-3.5062	-3.2854	-3.5667	-3.3063	-3.5438	-3.5021	-3.0229	-3.6708	-3.2188	-3.1542	-3.5833	-3.1646	-3.3479	366.635	348.804	241.211	471.034	421.251	273.723	461.025	435.040	445.692	410.329	262.402	189.124	457.068	212.531	397.428	196.896	0.00040766	0.00030284	0.0001146	1335.4	4.9242e-06	2.7696e-06	1397.9	274.36	4.8811e-06	4.6126e-06	338.32	95.457	76.262	21.555	4.1596e-06	29.777	0.00036682	0.00034325	9.6653e-05	1321.1	4.3954e-06	3.4545e-06	1380.6	271.92	3.9195e-06	3.8397e-06	337.64	95.644	76.473	21.81	3.8736e-06	30.158	281.716	247.885	224.274	154.865	293.550	319.067	154.857	162.735	312.817	286.605	161.809	168.451	168.534	175.899	320.919	175.030	-8191	255	
509.963	1	1	0	0	0.083611	0.1069	0.21137	0.25477	0.11695	0.08288	0.16156	0.33715	0.014908	0.13746	0.087666	0.11726	0.11712	0.20655	0.1074	0.2027	-3.05	-3.1312	-3.4583	-3.4958	-3.0625	-3.6229	-3.2083	-3.2146	-3.4417	-3.1083	-3.5312	-3.425	-3.1083	-3.6688	-3.2708	-3.2354	335.192	417.842	229.647	413.959	280.757	164.344	177.943	464.717	276.147	313.127	456.993	397.658	276.579	171.744	343.941	476.802	0.00039716	0.00029179	0.00010288	1335.9	4.2834e-06	3.7467e-06	1396.1	274.08	4.739e-06	5.1767e-06	336.73	95.253	76.563	21.521	3.3087e-06	29.885	0.00037201	0.00035145	9.594e-05	1322.3	4.4422e-06	3.6807e-06	1382.2	271.23	3.8471e-06	4.1784e-06	336.78	95.619	76.456	21.86	4.0234e-06	30.246	280.189	218.162	239.344	154.917	313.286	297.721	154.914	162.225	314.456	301.722	161.690	168.385	168.382	175.790	309.579	175.303	-8191	255	
510.084	1	1	0	0	0.13713	0.059087	0.10594	0.091601	0.22195	0.41084	0.20347	0.2378	0.18051	0.095599	0.1604	0.24426	0.14384	0.15145	0.23138	0.31762	-3.2104	-3.0729	-3.4646	-3.5062	-2.9167	-3.5125	-3.4125	-3.1813	-3.5667	-3.1979	-3.6562	-3.6417	-3.1292	-3.5	-3.3208	-3.1646	455.972	258.586	350.682	221.085	332.949	479.793	438.935	377.068	238.947	323.979	473.707	479.104	440.673	414.479	145.817	467.051	0.00040995	0.0004208	7.6403e-05	1335.7	5.0672e-06	3.6313e-06	1397	274.19	3.4645e-06	3.9552e-06	336.9	95.377	76.518	21.517	4.4499e-06	29.804	0.00036555	0.00037432	0.00010352	1322.7	4.4395e-06	3.8186e-06	1380.9	271.26	4.0286e-06	4.0618e-06	336.93	95.467	76.449	21.818	3.6879e-06	30.201	283.564	234.201	226.107	154.619	296.685	281.380	154.735	162.387	310.059	293.135	162.162	168.082	168.474	175.603	314.155	174.905	-8191	255	
510.180	1	1	0	0	0.12971	0.078697	0.29758	0.082552	0.34746	0.13878	0.37323	0.1862	0.26096	0.2648	0.33018	0.25451	0.21893	0.22248	0.16611	0.1137	-3.1521	-3.1792	-3.15	-3.6417	-3.0958	-3.5333	-3.5646	-3.1646	-3.4708	-3.275	-3.4208	-3.5625	-2.9979	-3.5333	-3.4062	-3.2438	343.801	297.885	313.292	155.819	200.514	290.537	409.783	415.319	387.957	297.798	152.497	399.297	227.284	153.310	464.163	493.235	0.00041381	0.00041746	9.7638e-05	1337.7	5.1835e-06	1.8148e-06	1392	272.88	3.973e-06	3.43e-06	338.76	94.878	76.305	21.473	2.8939e-06	29.648	0.0003704	0.00035853	0.00010213	1323.1	4.7078e-06	3.6454e-06	1382.4	271.17	3.8068e-06	3.9987e-06	336.78	95.559	76.365	21.79	3.6879e-06	30.123	282.270	226.639	233.960	154.893	293.715	266.230	154.974	162.455	318.529	294.309	161.602	168.310	168.731	175.498	316.527	174.979	-8191	255	
510.276	1	1	0	0	0.13234	0.03745	0.1187	0.25244	0.22539	0.09779	0.29335	0.26816	0.29465	0.045467	0.26379	0.10391	0.095492	0.06754	0.22607	0.23921	-3.3854	-3.1729	-3.1813	-3.5771	-3.0625	-3.3833	-3.4896	-3.0375	-3.4771	-3.2625	-3.3229	-3.6437	-3.075	-3.5375	-3.2979	-3.1104	257.957	412.764	371.852	422.907	459.466	483.071	485.620	429.735	367.024	322.118	411.159	272.820	342.372	435.879	257.739	196.903	0.00038453	0.00037204	8.6858e-05	1334.7	4.6543e-06	4.7001e-06	1391.5	273.94	3.9564e-06	3.2549e-06	340.18	95.511	76.043	21.473	3.9929e-06	29.745	0.0003473	0.00036157	9.9275e-05	1322.4	4.4188e-06	3.9389e-06	1377.8	271.22	3.749e-06	4.0072e-06	337.5	95.658	76.214	21.74	3.4961e-06	30.188	282.582	236.083	246.391	154.758	303.628	297.199	154.777	162.019	300.667	303.519	161.885	168.165	168.942	175.522	299.018	175.103	-8191	255	
510.372	1	1	0	0	0.17379	0.058985	0.049182	0.1513	0.11565	0.026052	0.2764	0.42399	0.19222	0.15971	0.069535	0.023342	0.12193	0.055454	0.12847	0.29398	-2.9625	-3.2625	-2.9292	-3.6833	-2.9813	-3.3688	-3.5062	-3.1167	-3.4938	-3.3021	-3.3604	-3.6146	-3.2687	-3.3	-3.4854	-3.0187	157.333	393.890	186.055	182.240	244.979	342.528	407.490	498.893	432.009	359.594	157.399	153.449	274.722	421.623	180.233	152.993	0.00042478	0.00038914	0.00010346	1328.4	5.8376e-06	3.9685e-06	1396.9	271.57	4.5542e-06	2.8074e-06	337.17	95.998	76.3	21.484	2.6879e-06	29.532	0.00036882	0.00034173	9.5199e-05	1318.6	4.2289e-06	3.7904e-06	1379.1	270.73	3.9535e-06	3.6394e-06	336.57	95.716	76.276	21.854	3.5371e-06	30.142	280.212	228.264	231.765	155.150	303.555	277.120	155.023	162.602	321.806	287.861	161.662	168.299	168.603	175.430	316.150	174.872	-8191	255	
510.469	1	1	0	0	0.15277	0.13871	0.040913	0.27107	0.20255	0.049913	0.32716	0.11461	0.08136	0.28393	0.16223	0.097147	0.12294	0.15757	0.16123	0.033271	-3.0583	-3.2292	-3.1958	-3.6562	-3.1333	-3.4	-3.8208	-3.3	-3.4792	-3.4	-3.0333	-3.4271	-3.2604	-3.2896	-3.4896	-3.0687	382.366	386.176	465.361	172.538	445.392	229.492	419.035	496.269	270.687	403.792	426.898	479.638	497.082	261.277	404.669	417.261	0.00039283	0.0002943	0.00011364	1330.4	4.5642e-06	3.7049e-06	1395.3	272.13	4.4817e-06	4.253e-06	334.75	95.381	76.151	21.326	4.1829e-06	29.634	0.00036559	0.00032958	9.9389e-05	1318.5	4.3585e-06	3.3932e-06	1378.7	271.14	3.992e-06	3.6904e-06	335.82	95.578	76.075	21.741	3.3743e-06	30.087	280.145	219.729	239.399	154.946	305.002	292.234	155.173	162.452	314.859	279.304	161.653	168.411	168.455	175.192	311.831	174.691	-8191	255	
510.565	1	1	0	0	0.23391	0.13689	0.24407	0.17048	0.051539	0.15628	0.26701	0.21073	0.079576	0.41911	0.11591	0.13895	0.12596	0.098611	0.15166	0.22845	-3.0021	-3.4604	-3.1583	-3.7542	-3.3521	-3.3083	-3.8042	-3.2313	-3.5875	-3.3354	-3.1729	-3.5563	-3.2354	-3.1437	-3.5396	-3.0271	483.657	370.035	304.782	412.397	406.008	205.342	453.576	389.963	309.906	451.414	364.128	469.659	373.410	162.037	153.153	459.626	0.00041762	0.00040403	4.2468e-05	1331.9	3.9951e-06	4.034e-06	1393.1	273.35	3.7775e-06	4.3256e-06	337.9	95.054	76.144	21.357	4.6404e-06	29.557	0.00038129	0.00033262	9.862e-05	1316.8	4.2532e-06	3.6254e-06	1376	270.96	3.793e-06	3.535e-06	336.56	95.486	76.332	21.762	3.4282e-06	30.055	282.284	226.725	208.981	154.839	314.032	303.027	154.880	162.213	310.453	297.336	161.935	168.067	168.368	175.402	302.697	174.840	-8191	255	
510.684	1	1	0	0	0.19421	0.15946	0.21199	0.15542	0.16214	0.21368	0.31513	0.21385	0.21179	0.18006	0.12911	0.1113	0.097032	0.38471	0.15094	0.14854	-2.8125	-3.4083	-3.1146	-3.5917	-3.3896	-3.1292	-3.7521	-3.2229	-3.2938	-3.4229	-3.1646	-3.6479	-3.3417	-3.1	-3.4938	-3.3542	469.839	297.743	373.491	206.941	437.045	208.095	459.564	484.472	446.990	344.229	234.184	416.903	161.833	433.402	250.579	431.559	0.00038555	0.00032263	0.0001011	1329.3	4.9868e-06	3.3555e-06	1384.9	273.48	5.3193e-06	3.1562e-06	337.19	95.584	76.204	21.323	4.0639e-06	29.569	0.00035739	0.00029901	9.2549e-05	1316.7	4.1155e-06	3.6866e-06	1375.8	271.19	3.7445e-06	3.711e-06	336.06	95.658	76.222	21.729	3.4961e-06	30.148	282.312	229.511	239.018	154.880	294.560	287.963	155.048	162.417	318.965	283.755	161.620	168.174	168.375	175.483	301.224	174.800	-8191	255	
510.780	1	1	0	0	0.22885	0.18963	0.083454	0.13051	0.25132	0.19311	0.16984	0.30077	0.058217	0.057593	0.16495	0.21232	0.12658	0.1058	0.26797	0.040017	-2.8833	-3.3833	-3.0854	-3.7729	-3.2771	-3.0792	-3.7562	-3.1437	-3.2125	-3.6083	-2.9813	-3.4125	-3.3646	-2.9104	-3.5312	-3.3812	485.462	284.121	189.527	461.210	247.234	333.091	495.962	421.031	486.965	334.763	430.703	446.154	375.901	386.779	318.333	298.590	0.00039574	0.00030768	0.00010423	1331	4.4909e-06	4.2055e-06	1395.7	272.22	4.2471e-06	2.905e-06	336.02	95.36	76.224	21.468	4.0144e-06	29.557	0.00035539	0.0003231	9.4316e-05	1315.7	4.1299e-06	3.8846e-06	1377.4	270.38	3.826e-06	3.8093e-06	336.39	95.474	76.146	21.723	3.617e-06	30.048	281.653	240.406	255.123	155.141	303.248	297.206	154.971	162.500	314.684	285.089	161.928	168.375	168.742	175.171	303.033	175.044	-8191	255	
510.876	1	1	0	0	0.061602	0.080045	0.087886	0.15871	0.078818	0.23338	0.28405	0.18804	0.12522	0.0064998	0.21519	0.15815	0.074024	0.20759	0.1536	0.1264	-2.7917	-3.5333	-2.9958	-3.4042	-3.2313	-3.1979	-3.625	-3.0458	-3.2313	-3.4396	-3.125	-3.35	-3.5354	-3.0875	-3.6354	-3.3438	242.350	415.465	338.097	435.223	437.766	419.281	416.907	434.676	500.569	145.898	152.016	390.281	475.092	166.954	414.273	197.282	0.00039265	0.00034244	8.6677e-05	1324.5	4.1787e-06	3.5872e-06	1386	271.72	4.8352e-06	3.0324e-06	336.59	95.21	76.1	21.339	3.7076e-06	29.458	0.00036686	0.00032199	9.4857e-05	1312.5	3.8868e-06	3.4474e-06	1373.4	270.01	3.9865e-06	3.3553e-06	336.44	95.298	76.334	21.725	3.1666e-06	30.038	283.120	234.762	260.346	155.018	296.525	320.131	154.868	162.504	328.482	319.779	161.900	168.146	168.433	175.624	306.021	174.912	-8191	255	
510.948	1	1	0	0	0.15583	0.15422	0.18776	0.057708	0.17361	0.21783	0.348	0.29305	0.10605	0.15636	0.25687	0.10807	0.151	0.19888	0.1337	0.018966	-2.7771	-3.4583	-3.2458	-3.7438	-3.5062	-2.9646	-3.5833	-3.4083	-3.3521	-3.4958	-3.1292	-3.3125	-3.5438	-3.1188	-3.4062	-3.2396	365.859	403.589	418.502	348.979	483.821	462.789	475.622	351.767	338.670	244.690	494.971	445.131	435.729	216.716	385.516	326.703	0.00040313	0.00028343	6.3969e-05	1328.8	4.3262e-06	3.4835e-06	1385.1	270.87	4.8225e-06	4.2809e-06	335.62	94.874	76.152	21.405	3.7415e-06	29.793	0.00036917	0.00030944	9.2435e-05	1315.1	4.0398e-06	3.8858e-06	1373.8	269.65	4.1936e-06	3.4039e-06	335.56	95.388	76.112	21.746	3.3254e-06	30.113	282.609	246.514	237.672	154.867	290.672	298.017	155.001	162.446	320.923	293.122	161.890	168.556	168.598	175.583	315.723	174.660	-8191	255	
511.044	1	1	0	0	0.12244	0.031361	0.14913	0.32726	0.12275	0.37354	0.19615	0.21184	0.28547	0.20044	0.46944	0.23969	0.22155	0.16945	0.094695	0.16636	-2.3458	-3.4167	-3.2833	-3.3312	-3.55	-3.0438	-3.4708	-3.4729	-2.925	-3.4583	-3.3479	-3.0979	-3.6208	-2.9083	-3.0833	-3.2417	454.628	152.669	151.378	459.977	312.592	337.677	439.069	449.727	221.723	378.939	194.637	440.963	433.218	479.686	373.443	272.031	0.00040464	0.00046604	9.4699e-05	1330.8	3.4995e-06	4.5619e-06	1389	271.48	4.6261e-06	4.0825e-06	335.68	95.389	76.529	21.332	4.1646e-06	29.558	0.00037625	0.00031946	9.976e-05	1314.7	4.0119e-06	4.1934e-06	1374.1	269.85	3.8315e-06	3.5835e-06	335.46	95.421	76.208	21.732	3.607e-06	30.068	283.196	242.913	236.431	155.010	301.941	299.176	154.866	162.334	321.232	287.973	161.579	168.303	168.693	175.210	310.785	174.779	-8191	255	
511.164	1	1	0	0	0.19037	0.18952	0.26944	0.107	0.26956	0.12737	0.20249	0.31926	0.19852	0.03383	0.29957	0.11323	0.15769	0.35869	0.15927	0.05549	-2.7354	-3.2375	-3.3375	-3.2313	-3.3729	-3.0625	-3.5938	-3.675	-3.0292	-3.4542	-3.5083	-3.2417	-3.3812	-3.3312	-3.0375	-3.5833	177.598	227.279	405.312	180.486	180.816	286.775	435.148	467.511	461.983	504.184	438.439	384.852	492.711	166.710	476.731	431.581	0.00042373	0.00033363	7.2636e-05	1326.5	4.0346e-06	3.3e-06	1392.8	272.62	4.3513e-06	4.7093e-06	335.63	94.919	76.179	21.448	3.2385e-06	29.784	0.00037783	0.00034072	9.3518e-05	1314	4.1587e-06	3.8139e-06	1374.1	270.6	3.7839e-06	3.677e-06	335.81	95.361	76.306	21.756	3.5421e-06	30.158	281.872	255.258	240.461	155.099	300.964	287.641	154.929	162.373	321.947	310.473	161.615	168.512	168.953	175.365	308.965	174.913	-8191	255	
511.261	1	1	0	0	0.17407	0.10522	0.18181	0.37324	0.34101	0.19517	0.21804	0.13003	0.17305	0.13799	0.10963	0.095911	0.013503	0.24045	0.25093	0.19272	-2.4417	-3.2229	-3.1542	-2.9813	-3.4958	-3.0438	-3.3792	-3.5396	-2.8438	-3.4313	-3.4292	-3.0729	-3.6208	-3.0458	-3.0833	-3.5958	308.110	289.510	361.329	443.629	390.636	266.956	426.251	393.335	146.944	423.106	431.149	330.116	207.359	170.962	386.458	393.445	0.0004059	0.00035974	8.0116e-05	1331.5	3.6703e-06	2.9729e-06	1385.4	271.71	3.9951e-06	4.129e-06	335.58	95.714	75.777	21.304	3.1846e-06	29.5	0.00037352	0.00032756	8.8558e-05	1314.7	4.0524e-06	3.6466e-06	1372.6	270.04	3.9186e-06	3.6187e-06	335.73	95.444	75.999	21.697	3.4892e-06	30.057	280.751	218.644	239.297	155.063	286.624	300.254	154.959	162.172	317.047	298.975	162.104	168.209	168.632	175.526	316.312	174.885	-8191	255	
511.357	1	1	0	0	0.13459	0.027978	0.089803	0.25834	0.09697	0.25446	0.14528	0.21614	0.027699	0.12292	0.1237	0.31002	0.15284	0.11222	0.11784	0.30758	-2.5417	-3.35	-3.3979	-3.2604	-3.6292	-3.2562	-3.3292	-3.5375	-3.1375	-3.1833	-3.4437	-3.0312	-3.5917	-3.3125	-3.1229	-3.4042	353.321	274.197	379.992	478.750	382.820	386.242	447.743	449.607	250.651	202.064	302.720	157.509	331.776	196.774	340.015	465.569	0.00039977	0.00040607	9.2951e-05	1324.6	5.6452e-06	3.4238e-06	1391	271.09	3.4758e-06	4.2686e-06	335.92	94.768	75.448	21.431	2.5025e-06	29.584	0.00037278	0.00034558	9.0325e-05	1312.7	4.0524e-06	3.7915e-06	1373.3	269.44	3.992e-06	3.8858e-06	335.8	95.351	76.133	21.744	3.631e-06	30.077	282.285	240.288	245.078	155.046	293.332	301.694	155.089	162.313	317.898	292.676	161.661	168.261	168.476	175.893	324.145	174.956	-8191	255	
511.453	1	1	0	0	0.29673	0.13456	0.39788	0.29786	0.23039	0.14804	0.29909	0.21458	0.28438	0.12883	0.29732	0.18599	0.39185	0.1113	0.12779	0.24882	-2.5354	-3.2271	-3.3667	-3.3271	-3.4188	-3.4542	-3.2625	-3.5417	-3.1542	-3.3458	-3.6813	-3.0938	-3.4354	-3.1979	-2.8292	-3.45	179.846	167.306	249.985	443.240	301.018	148.251	402.711	168.037	281.265	229.459	230.837	452.967	406.288	392.939	302.587	166.395	0.0003886	0.00039109	9.0537e-05	1325.9	3.3783e-06	2.712e-06	1382.9	271.46	4.5582e-06	4.4959e-06	335.57	95.627	75.928	21.335	2.9892e-06	29.591	0.00037305	0.00032422	8.9499e-05	1313.6	3.9273e-06	3.3767e-06	1371.2	269.42	4.0525e-06	3.6673e-06	335.6	95.374	76.063	21.674	3.4352e-06	30.023	281.091	234.885	231.155	154.920	300.967	315.495	155.093	162.364	315.879	299.153	161.890	168.966	168.786	175.633	290.557	175.152	-8191	255	
511.549	1	1	0	0	0.37984	0.27661	0.010313	0.12735	0.1387	0.10175	0.14662	0.37003	0.18995	0.045454	0.1344	0.14432	0.097855	0.13284	0.25864	0.33736	-2.8458	-3.1	-3.4292	-3.2125	-3.3229	-3.4938	-3.1979	-3.6396	-3.2854	-3.0854	-3.5812	-2.9292	-3.2208	-3.4167	-2.9604	-3.4708	443.203	431.698	432.218	151.816	496.391	428.937	497.682	464.032	176.999	320.226	359.315	310.797	256.219	209.923	149.686	451.426	0.00040225	0.00038914	8.7575e-05	1325	4.9238e-06	3.5283e-06	1387.1	271.56	3.8286e-06	2.5004e-06	336.52	95.036	76.114	21.354	4.3105e-06	29.484	0.00036262	0.00035175	8.9214e-05	1312.9	4.4494e-06	3.6136e-06	1373	270.06	3.6336e-06	3.9101e-06	335.55	95.226	76.04	21.742	3.6399e-06	30.032	283.581	230.299	239.912	154.837	308.548	281.606	154.793	162.415	321.722	300.062	161.808	168.478	168.708	175.652	303.366	175.103	-8191	255	
511.645	1	1	0	0	0.048108	0.057597	0.024583	0.34375	0.21003	0.25132	0.27167	0.19475	0.13803	0.40378	0.077291	0.19988	0.16633	0.16892	0.087648	0.15532	-2.7958	-3.0896	-3.3354	-3.1875	-3.3625	-3.4375	-3.2417	-3.3958	-3.0375	-3.0833	-3.6188	-3.1625	-3.4271	-3.3896	-2.9562	-3.4333	500.117	383.061	445.972	432.228	442.031	209.571	465.047	498.967	342.552	281.277	463.908	197.623	232.728	401.977	420.850	449.954	0.00039335	0.00027334	9.7874e-05	1319.9	4.9994e-06	4.157e-06	1386	272.25	3.9709e-06	3.1441e-06	334.83	95.243	76.273	21.482	2.0607e-06	29.669	0.00036443	0.00032918	9.3233e-05	1310.1	4.0281e-06	3.504e-06	1371.7	269.93	3.6913e-06	4.182e-06	335.8	95.412	76.382	21.729	3.5281e-06	30.097	282.807	208.394	231.161	155.029	302.948	296.013	154.903	162.315	321.413	290.912	162.097	168.038	168.335	175.791	307.415	174.898	-8191	255	
511.764	1	1	0	0	0.16026	0.2199	0.28635	0.097498	0.11943	0.018697	0.13195	0.19986	0.11951	0.11524	0.092869	0.037021	0.19693	0.058541	0.22745	0.086435	-2.7417	-2.9188	-3.5042	-3.3292	-3.3792	-3.4521	-3.1042	-3.4583	-3.2875	-3.0271	-3.4854	-3.3958	-2.9896	-3.5104	-2.9792	-3.3354	352.782	460.117	393.319	185.600	178.329	166.611	401.360	207.702	361.840	327.049	155.902	428.755	412.827	160.699	336.147	441.621	0.00037246	0.0003363	7.7658e-05	1329.5	6.957e-06	3.2481e-06	1385.1	273.03	4.5592e-06	4.1234e-06	335	95.177	76.188	21.347	4.9286e-06	29.515	0.00035173	0.00034517	9.2406e-05	1313.3	4.1533e-06	3.2682e-06	1371.2	269.89	3.8224e-06	3.8336e-06	335.32	95.22	76.214	21.697	3.7708e-06	30.091	282.039	230.450	236.784	155.106	301.146	301.358	155.169	162.366	314.683	293.009	161.653	168.183	168.337	175.837	324.196	175.345	-8191	255	
511.860	1	1	0	0	0.25247	0.10418	0.26534	0.25146	0.090428	0.10224	0.42239	0.03857	0.088085	0.155	0.11515	0.071587	0.18965	0.3281	0.22977	0.38804	-2.9208	-2.8792	-3.3542	-3.4188	-3.0187	-3.6125	-3.1729	-3.4125	-3.1458	-2.9458	-3.4792	-3.3042	-3.1354	-3.6813	-2.9542	-3.3563	275.181	379.443	233.865	450.711	168.892	260.386	413.994	448.761	417.078	313.061	189.074	467.111	378.341	218.317	396.055	427.559	0.00039007	0.00036193	5.0804e-05	1318.6	4.2387e-06	3.1877e-06	1386.5	271.21	5.2565e-06	3.2688e-06	335.65	94.989	76.2	21.426	3.4858e-06	29.636	0.00034018	0.00034041	8.9071e-05	1310.1	3.9939e-06	3.5935e-06	1373.7	269.95	3.7408e-06	3.7984e-06	335.84	95.223	76.158	21.744	3.6859e-06	30.043	281.456	236.200	243.984	154.916	282.908	302.465	155.050	162.390	313.967	322.227	161.908	168.334	168.321	175.679	291.727	174.902	-8191	255	
511.956	1	1	0	0	0.078065	0.073114	0.13509	0.39609	0.1964	0.079119	0.34897	0.18686	0.024278	0.075593	0.091327	0.26544	0.26346	0.14416	0.10321	0.28319	-3.0458	-3.1312	-3.4375	-3.3812	-3.0646	-3.4938	-3.0875	-3.3125	-3.4854	-3.0083	-3.5792	-3.3187	-3.2417	-3.3708	-3.2667	-3.2771	394.102	210.094	376.368	477.513	173.037	316.560	413.207	391.133	322.833	394.201	175.215	155.975	243.105	369.416	326.237	392.319	0.00039554	0.00026	8.3321e-05	1323.1	6.1961e-06	3.3523e-06	1387.6	271.73	3.3117e-06	2.6813e-06	335.79	95.172	76.376	21.297	4.2243e-06	29.358	0.00035365	0.00032381	8.7646e-05	1311.4	4.2838e-06	3.4179e-06	1371.1	269.57	3.7802e-06	3.5665e-06	335.67	95.406	76.151	21.73	3.7628e-06	30.028	282.211	251.857	257.334	155.027	298.589	278.499	154.929	161.990	303.754	290.046	161.807	167.874	168.624	175.632	337.467	174.961	-8191	255	
512.052	1	1	0	0	0.12175	0.32827	0.029692	0.2152	0.15803	0.11883	0.24755	0.053461	0.24356	0.080005	0.15479	0.17904	0.20203	0.26994	0.20361	0.17069	-3.0958	-3.0479	-3.3833	-3.4354	-3.0396	-3.4875	-3.3125	-3.2354	-3.5375	-2.9625	-3.425	-3.4979	-3.1042	-3.5125	-3.075	-3.3021	218.435	384.707	193.420	449.422	374.586	402.042	425.082	443.806	276.219	276.395	462.611	393.759	178.750	453.024	346.402	414.126	0.00040609	0.00044888	0.00010296	1326.4	4.5338e-06	3.4566e-06	1381.8	272.53	3.4451e-06	4.066e-06	336.38	94.751	76.101	21.468	2.5824e-06	29.45	0.00035746	0.00034821	8.7304e-05	1314	4.2766e-06	3.3543e-06	1370.7	270.58	3.7124e-06	3.8652e-06	335.71	95.115	76.136	21.766	3.2984e-06	30.03	283.721	229.512	241.769	154.658	295.792	297.894	154.915	162.428	306.549	290.888	161.922	168.665	168.770	175.744	310.632	174.983	-8191	255	
512.173	1	1	0	0	0.16243	0.2556	0.11074	0.15541	0.098366	0.069036	0.16151	0.12075	0.19765	0.076719	0.13112	0.090825	0.21848	0.12117	0.092617	0.14276	-3.1312	-3.0396	-2.9146	-3.5896	-3.0042	-3.575	-3.4542	-3.1708	-3.5104	-3.1146	-3.2771	-3.4646	-2.9042	-3.4313	-3.2833	-3.1562	366.394	210.356	463.601	155.746	402.823	366.786	148.946	493.724	503.482	292.333	383.223	327.559	329.419	223.299	494.412	476.216	0.00038883	0.0004134	8.3685e-05	1324.8	4.3019e-06	4.1546e-06	1389	271.57	3.6361e-06	2.8478e-06	335.22	95.071	76.539	21.327	4.0158e-06	29.46	0.00035142	0.00036622	9.3375e-05	1312.4	4.237e-06	3.4203e-06	1372.6	269.84	3.3714e-06	3.5386e-06	334.88	95.253	76.153	21.718	3.638e-06	29.995	284.519	217.943	241.507	155.129	296.884	294.919	154.997	162.354	316.462	313.170	162.119	168.211	168.421	175.463	300.086	175.267	-8191	255	
512.245	1	1	0	0	0.16834	0.15059	0.26668	0.22788	0.14434	0.12959	0.093058	0.08216	0.14437	0.10592	0.25955	0.18916	0.030652	0.10329	0.16591	0.050698	-3.1042	-3.0292	-3.0687	-3.4708	-2.8292	-3.3396	-3.6063	-3.1167	-3.4521	-2.9417	-3.3521	-3.5917	-3.0625	-3.3479	-3.4	-3.1833	202.368	429.399	313.974	442.290	465.285	240.295	153.357	478.131	155.183	357.393	475.975	423.281	427.072	186.705	225.068	499.848	0.00042066	0.00034659	9.1161e-05	1322.7	4.7236e-06	4.4999e-06	1387.5	270.79	3.7491e-06	3.4156e-06	336.52	95.572	76.439	21.31	3.2767e-06	29.476	0.00036343	0.00031541	8.9271e-05	1311.3	4.264e-06	3.4344e-06	1371	269.33	3.7463e-06	3.972e-06	335.79	95.479	76.108	21.698	3.3374e-06	30.018	285.404	223.448	245.144	155.054	302.821	304.889	154.890	162.162	323.254	281.504	162.142	168.543	168.590	175.798	305.602	175.012	-8191	255	
512.341	1	1	0	0	0.043174	0.24391	0.05198	0.21723	0.38195	0.25439	0.3197	0.090371	0.21319	0.2853	0.099419	0.25296	0.10507	0.12796	0.11321	0.039021	-2.9917	-3.0521	-3.0625	-3.5729	-3.05	-3.3833	-3.55	-3.0771	-3.375	-3.0729	-3.2917	-3.5583	-3.1708	-3.1542	-3.5146	-3.1271	391.409	480.183	397.568	446.767	441.288	162.045	449.076	455.449	372.142	323.807	424.465	500.706	297.935	180.205	325.645	291.638	0.00038812	0.00033008	0.00013671	1324.6	5.4172e-06	3.4176e-06	1379.8	270.42	3.8377e-06	3.715e-06	337.72	94.977	75.736	21.382	4.3074e-06	29.542	0.00036201	0.00030843	0.00010118	1311.1	4.0092e-06	3.6713e-06	1368.6	269.22	3.7683e-06	3.66e-06	335.83	95.244	75.889	21.746	3.3763e-06	30.061	284.472	229.090	231.029	154.992	294.475	312.625	154.850	162.611	323.704	305.263	161.820	168.312	168.631	175.641	326.768	174.908	-8191	255	
512.462	1	1	0	0	0.10538	0.166	0.21593	0.17679	0.12096	0.30647	0.13099	0.22112	0.084903	0.062079	0.037875	0.28458	0.35138	0.1978	0.26313	0.10379	-2.9688	-3.3312	-2.9833	-3.5833	-3.0875	-3.2583	-3.5854	-3.1146	-3.4292	-3.2667	-3.1667	-3.4542	-3.2438	-3.2708	-3.5646	-3.1958	274.860	462.291	159.740	418.007	422.977	386.622	420.383	426.094	279.983	368.086	199.599	451.648	500.374	152.330	329.200	444.423	0.00040552	0.00042069	0.00012136	1325.2	3.7684e-06	3.9189e-06	1383.2	271	4.0656e-06	4.0903e-06	335.57	95.043	76.249	21.418	3.4301e-06	29.586	0.00035323	0.00031723	9.7765e-05	1309.3	4.1398e-06	3.6548e-06	1368.5	269.04	3.6666e-06	3.4415e-06	334.94	95.271	76.134	21.765	3.4043e-06	30.057	283.261	236.029	246.861	155.196	285.916	291.092	155.066	162.609	316.677	314.183	161.870	168.059	168.782	175.546	297.078	174.933	-8191	255	
512.556	1	1	0	0	0.12118	0.061732	0.11106	0.08559	0.12934	0.21264	0.16793	0.10186	0.12085	0.040956	0.15378	0.26458	0.27466	0.075591	0.32362	0.22935	-2.9625	-3.1042	-2.8396	-3.6375	-3.1021	-3.0646	-3.5104	-3.3354	-3.1583	-3.2979	-3.0667	-3.4771	-3.1667	-3.2167	-3.4271	-3.0854	469.047	328.311	202.788	449.320	253.721	388.674	446.143	230.699	448.316	268.684	389.960	487.308	160.009	403.429	281.112	187.096	0.00040729	0.0003385	0.00010096	1321.6	5.1506e-06	3.4118e-06	1384.1	271.88	4.0486e-06	4.4869e-06	334.07	94.827	76.302	21.309	2.8758e-06	29.505	0.00037275	0.00031865	8.8929e-05	1309.1	4.156e-06	3.5499e-06	1369	269.65	3.7307e-06	3.6891e-06	334.43	95.254	76.049	21.695	3.2685e-06	30.081	284.177	229.045	225.868	154.908	301.087	280.606	155.052	162.288	314.548	296.279	161.804	168.846	168.128	175.529	320.581	175.173	-8191	255	
512.652	1	1	0	0	0.2454	0.0426	0.18566	0.43256	0.20491	0.26565	0.22402	0.30081	0.14847	0.086706	0.2639	0.063145	0.19764	0.24921	0.050067	0.24674	-2.8396	-3.2188	-2.9125	-3.4833	-3.2458	-2.9083	-3.6042	-3.1625	-3.2313	-3.425	-3.1188	-3.3187	-3.3667	-3.0167	-3.4708	-3.0521	459.262	291.290	186.824	489.257	174.190	437.324	394.816	434.471	447.838	348.155	483.530	499.904	355.211	252.878	297.794	429.853	0.00040553	0.00031163	0.00010473	1323.9	5.6851e-06	2.7828e-06	1382.7	270.68	3.2806e-06	3.0736e-06	336.4	95.141	75.922	21.47	4.9154e-06	29.685	0.00036428	0.00029314	9.423e-05	1310.8	4.1218e-06	3.8281e-06	1370.1	269.27	3.5666e-06	3.7256e-06	335.27	95.232	75.968	21.706	3.3823e-06	30.045	282.516	220.450	244.274	155.032	308.162	306.228	154.829	162.528	304.322	284.111	161.926	168.437	168.862	175.627	307.997	174.888	-8191	255	
512.748	1	1	0	0	0.29744	0.20884	0.30947	0.062293	0.099179	0.20982	0.14796	0.36446	0.1994	0.16292	0.34545	0.19445	0.10336	0.24305	0.13393	0.17322	-2.7875	-3.3292	-2.85	-3.5833	-3.1979	-2.8792	-3.4667	-3.1042	-3.1188	-3.5229	-3.1167	-3.2667	-3.425	-3.0583	-3.3063	-3.1437	460.807	225.322	423.145	404.720	383.634	427.059	407.188	465.504	257.860	403.020	441.738	306.567	245.144	176.145	181.893	181.092	0.00038556	0.00028616	0.00011026	1324.8	4.4907e-06	2.9885e-06	1381.6	271.81	5.0694e-06	3.1972e-06	335.21	94.699	75.579	21.423	2.8625e-06	29.597	0.00035454	0.00031065	9.6339e-05	1312.2	4.0678e-06	3.6701e-06	1369	269.59	3.7408e-06	3.5301e-06	335.64	95.267	75.86	21.714	3.2655e-06	30.038	280.884	248.158	242.481	154.998	301.448	283.585	154.962	162.596	325.807	323.882	161.868	168.143	168.447	175.565	306.876	174.799	-8191	255	
512.844	1	1	0	0	0.22363	0.23368	0.3593	0.1838	0.091204	0.12562	0.44219	0.16296	0.18364	0.12549	0.23942	0.11727	0.17288	0.041416	0.13739	0.027209	-2.4542	-3.2687	-2.9	-3.4896	-3.2771	-2.9583	-3.6646	-3.2021	-3.1312	-3.4167	-3.1958	-3.3396	-3.3042	-3.0417	-3.325	-3.3479	179.307	249.363	421.773	401.371	251.234	236.746	423.586	415.725	478.590	203.785	242.483	313.585	498.694	238.950	278.816	456.830	0.00042254	0.00030578	5.4489e-05	1322.3	4.3877e-06	2.6919e-06	1380.5	271.82	4.8806e-06	2.6878e-06	334.93	95.25	75.82	21.399	3.826e-06	29.525	0.00037713	0.00032482	9.3917e-05	1310.2	4.0632e-06	3.4203e-06	1369.7	269.41	3.8737e-06	3.4731e-06	334.88	95.321	75.938	21.713	3.3024e-06	30.075	279.595	239.478	214.422	154.921	299.631	287.810	155.000	162.310	313.815	300.618	161.893	168.253	168.524	175.816	309.384	174.752	-8191	255	
512.941	1	1	0	0	0.28708	0.14605	0.15726	0.32584	0.18802	0.18454	0.30756	0.066533	0.16358	0.27438	0.26985	0.098647	0.22559	0.16355	0.087723	0.37979	-2.6875	-3.4479	-3.0563	-3.3688	-3.3333	-2.8542	-3.6292	-3.325	-3.1604	-3.5042	-3.3438	-3.3042	-3.4729	-2.9958	-3.3667	-3.2479	205.409	176.655	338.231	429.644	373.295	401.929	430.636	205.511	148.631	315.793	435.073	312.960	452.274	405.594	254.496	449.713	0.00037708	0.00034333	8.646e-05	1324.7	3.9606e-06	3.8894e-06	1383.9	270.83	4.4861e-06	4.5043e-06	334.75	95.428	76.205	21.384	3.9951e-06	29.402	0.00035219	0.0002734	9.1665e-05	1308.4	3.9993e-06	3.9353e-06	1369.3	268.89	4.0992e-06	3.399e-06	335.23	95.316	76.069	21.784	3.0987e-06	30.035	283.914	224.428	248.728	155.087	302.310	276.019	154.937	162.323	318.798	318.079	161.850	168.224	168.718	175.886	297.413	174.675	-8191	255	
513.037	1	1	0	0	0.20777	0.13633	0.11582	0.13017	0.0405	0.043138	0.23516	0.21673	0.039842	0.13588	0.34651	0.16521	0.29067	0.15364	0.13038	0.056144	-2.575	-3.3792	-3.2188	-3.3354	-3.3708	-2.7938	-3.4583	-3.3896	-3.0604	-3.5458	-3.3	-3.2562	-3.4583	-3.225	-3.2958	-3.45	287.550	478.408	366.574	473.387	217.098	248.096	440.239	406.971	491.420	246.758	456.052	460.739	147.922	206.875	211.359	223.324	0.00040804	0.00036378	9.1158e-05	1322.1	5.0809e-06	2.9954e-06	1384.7	271.14	5.5147e-06	4.0519e-06	334.89	94.84	75.638	21.445	4.0493e-06	29.548	0.00037575	0.00030964	9.0411e-05	1308.6	3.9363e-06	3.7314e-06	1369.2	269.29	3.9635e-06	3.2509e-06	334.64	95.07	75.973	21.744	3.4312e-06	30.097	284.610	228.603	221.630	154.920	303.947	278.829	155.046	162.363	323.578	302.801	161.704	168.292	168.448	175.917	305.577	174.739	-8191	255	
513.133	1	1	0	0	0.17609	0.060438	0.054872	0.20134	0.15789	0.13816	0.22457	0.13251	0.12489	0.11531	0.12558	0.21261	0.054443	0.06019	0.10319	0.011986	-2.7292	-3.3563	-3.1854	-3.0729	-3.5229	-2.9688	-3.3312	-3.45	-3.1625	-3.4292	-3.3458	-3.1354	-3.675	-3.1021	-3.2646	-3.3937	403.470	372.264	270.352	346.900	148.711	475.470	387.996	466.268	243.073	444.993	501.800	406.819	285.444	421.416	453.228	209.796	0.00040546	0.00038578	8.1037e-05	1322.5	3.9287e-06	3.3536e-06	1381.8	271.01	4.1345e-06	5.5852e-06	333.66	94.746	76.259	21.378	3.7012e-06	29.318	0.00037625	0.0003312	8.434e-05	1309.2	3.8643e-06	3.4309e-06	1367.1	268.95	3.9113e-06	3.2048e-06	333.49	95.087	76.086	21.671	3.4862e-06	29.94	282.194	222.733	238.633	154.879	303.099	304.160	155.086	162.592	317.774	296.929	161.902	168.496	168.785	175.469	316.299	175.021	-8191	255	
513.253	1	1	0	0	0.032603	0.089417	0.068156	0.18798	0.16148	0.18483	0.22121	0.26473	0.16516	0.11618	0.13414	0.21507	0.15452	0.25807	0.1482	0.17026	-2.5479	-3.4667	-3.2958	-3.2146	-3.525	-3.0229	-3.4062	-3.5062	-3.0354	-3.4646	-3.5187	-3.1917	-3.4896	-3.3125	-3.0875	-3.6292	272.721	223.017	271.079	396.593	366.980	154.575	432.174	495.997	244.040	296.934	182.229	159.316	501.479	455.746	297.362	471.258	0.00041716	0.00043295	8.9965e-05	1317.3	4.6669e-06	3.6289e-06	1377.7	271.5	3.5251e-06	3.3786e-06	334.68	94.989	76.308	21.352	3.5455e-06	29.701	0.00038529	0.00031167	8.7019e-05	1307.4	3.9129e-06	3.1351e-06	1366.5	269.11	3.7573e-06	3.3978e-06	333.96	95.097	76.106	21.687	3.5091e-06	30.089	282.545	224.198	238.599	155.179	306.913	295.027	155.019	162.412	322.328	289.237	162.024	168.204	168.627	175.624	301.606	175.028	-8191	255	
513.350	1	1	0	0	0.28649	0.26267	0.23479	0.27417	0.13579	0.01389	0.077289	0.19922	0.059389	0.16291	0.34285	0.14141	0.033451	0.32304	0.20771	0.086323	-2.6646	-3.4771	-3.0542	-3.2021	-3.3667	-3.325	-3.4958	-3.5146	-3.0333	-3.3396	-3.4313	-3.0667	-3.4854	-3.3792	-3.1	-3.4583	203.961	289.404	431.665	488.305	314.669	186.756	446.247	212.968	242.219	389.103	419.156	390.335	248.818	418.130	299.826	432.582	0.0003995	0.00038899	9.1603e-05	1317.8	5.3101e-06	1.9966e-06	1382.8	269.79	3.8395e-06	4.3852e-06	334.08	95.448	75.894	21.234	3.6818e-06	29.611	0.00036008	0.00030144	8.0606e-05	1306.7	4.0497e-06	3.1692e-06	1366.3	268.58	3.9012e-06	3.6479e-06	334.59	95.221	75.997	21.637	3.5431e-06	30.05	282.291	229.599	241.900	155.050	295.523	284.030	155.149	162.696	303.765	274.210	162.077	168.464	169.038	175.635	299.370	174.869	-8191	255	
513.446	1	1	0	0	0.11359	0.17405	0.25892	0.27279	0.047377	0.076727	0.073773	0.17601	0.19756	0.1129	0.16111	0.22284	0.17479	0.083537	0.36366	0.18997	-2.7438	-3.2417	-3.4083	-3.2333	-3.4396	-3.3521	-3.2021	-3.625	-2.9813	-3.3146	-3.5542	-2.925	-3.2771	-3.3	-2.9167	-3.4896	477.400	232.290	149.982	496.069	179.953	485.988	153.997	458.094	397.732	416.756	478.917	466.549	491.348	217.632	493.495	207.528	0.00040155	0.00028088	8.7621e-05	1315.2	4.4532e-06	3.6603e-06	1383.4	271.34	4.057e-06	3.29e-06	334.48	95.131	76.044	21.287	2.9202e-06	29.554	0.00036051	0.0003146	8.1689e-05	1305.5	3.7464e-06	3.4509e-06	1366.1	268.89	3.7894e-06	3.609e-06	333.79	95.118	76.024	21.653	3.4852e-06	30.018	283.848	234.879	237.040	155.000	302.798	279.318	155.103	162.537	328.821	287.265	161.979	168.105	168.671	175.555	317.819	175.409	-8191	255	
513.542	1	1	0	0	0.19455	0.25846	0.18855	0.30515	0.080066	0.30999	0.10699	0.013646	0.22276	0.37535	0.12673	0.23745	0.2163	0.22143	0.22084	0.19327	-2.8354	-3.1833	-3.4479	-3.075	-3.35	-3.3104	-3.4208	-3.6063	-3.15	-3.2562	-3.6354	-3.1396	-3.2708	-3.4271	-3.1854	-3.5062	411.195	191.620	271.373	446.755	144.820	438.732	450.061	499.357	280.915	310.013	428.676	201.163	500.542	479.308	357.515	484.304	0.0003931	0.00034965	0.00012471	1320.5	5.065e-06	1.9763e-06	1380.9	269.63	4.2919e-06	2.4946e-06	332.6	94.752	75.812	21.318	3.8707e-06	29.465	0.00036566	0.00032837	8.8273e-05	1304.9	3.9624e-06	3.0207e-06	1365.6	268.39	4.0405e-06	3.6382e-06	333.74	95.127	75.846	21.7	3.5121e-06	29.983	283.190	229.025	225.786	155.010	304.439	314.743	155.014	162.474	312.689	289.455	161.937	168.571	168.778	175.352	300.388	174.849	-8191	255	
513.638	1	1	0	0	0.22342	0.14521	0.26584	0.25974	0.19041	0.18076	0.17229	0.17426	0.11336	0.36743	0.09628	0.056693	0.13701	0.13022	0.17086	0.084479	-2.7979	-3.1021	-3.3	-3.2729	-3.2333	-3.4354	-3.2479	-3.5667	-3.1063	-3.1396	-3.4458	-3.1958	-3.3438	-3.3271	-3.1771	-3.4583	470.076	221.202	313.317	454.797	238.541	177.102	451.829	500.141	384.656	209.198	486.642	175.591	449.460	461.369	461.163	500.002	0.00041106	0.00043529	8.0835e-05	1318.7	5.2267e-06	4.3749e-06	1382.8	271.16	3.7337e-06	3.5055e-06	333.94	94.146	75.783	21.355	3.5248e-06	29.387	0.00035142	0.00034659	8.3798e-05	1306	4.102e-06	3.4474e-06	1367.7	269.01	3.3366e-06	3.8118e-06	333.52	94.754	75.753	21.643	3.3284e-06	29.972	281.579	228.913	212.807	155.002	290.130	304.988	154.934	162.267	305.104	283.038	162.006	168.815	168.544	175.671	308.652	174.980	-8191	255	
513.734	1	1	0	0	0.23541	0.13986	0.18424	0.18158	0.17619	0.093279	0.35082	0.24785	0.36341	0.24452	0.32905	0.13704	0.17192	0.22872	0.16999	0.21	-2.825	-2.9958	-3.3875	-3.2646	-3.2917	-3.3729	-3.1708	-3.4021	-3.2271	-3.0125	-3.6604	-3.2938	-3.225	-3.6542	-3.2167	-3.3583	484.532	184.510	256.049	421.168	184.239	484.645	466.159	446.431	181.619	469.140	464.156	444.630	484.031	371.831	371.555	372.075	0.00040276	0.00025506	7.963e-05	1316.2	4.9799e-06	4.4459e-06	1380.8	269.57	4.5011e-06	3.4073e-06	334.97	95.192	75.271	21.263	3.8134e-06	29.503	0.00035658	0.00034092	8.8587e-05	1304.1	4.0497e-06	3.3531e-06	1365.3	268.69	3.541e-06	3.6709e-06	334.37	94.962	75.661	21.639	3.2785e-06	30.028	283.742	231.620	245.414	155.175	315.675	290.072	155.006	162.469	310.878	297.512	161.992	168.492	168.511	175.724	309.537	174.995	-8191	255	
#DATA ENDS
