BOXY.EXE: ISS Imagent and Oximeter Data Acquisition Program Version 0.80
Ascii Record File

#ACQ INFORMATION
2  Detector Channels 
16  External MUX Channels 
1  Auxiliary Channels 
5000  Waveform (CCF) Frequency (Hz)
1  Waveforms Skipped 
30  Waveforms Averaged 
1  Cycles Averaged 
16  Acquisitions per Waveform 
10.0806  Updata Rate (Hz) 

#FILE INFORMATION
TRUE -- External MUX Channel results are PARSED.
FALSE -- AC DC and Phase are NOT grouped.
TRUE -- Companion Program Settings File CREATED.
FALSE -- AC data not excluded
FALSE -- DC data not excluded
FALSE -- Phase data not excluded
FALSE -- Auxillary Chn. data not excluded
Tab delimiters

#CALIBRATION STATE
TRUE -- Waveform Calibration Values APPLIED.


#AUX CALIBRATION VALUES
Val Type	aux-1	

Term	1.0000e+00	
Factor	0.0000e+00	


#WF CALIBRATION VALUES
A = Detector Channel
Val Type	A-AC1	A-AC2	A-AC3	A-AC4	A-AC5	A-AC6	A-AC7	A-AC8	A-AC9	A-AC10	A-AC11	A-AC12	A-AC13	A-AC14	A-AC15	A-AC16	A-DC1	A-DC2	A-DC3	A-DC4	A-DC5	A-DC6	A-DC7	A-DC8	A-DC9	A-DC10	A-DC11	A-DC12	A-DC13	A-DC14	A-DC15	A-DC16	A-Ph1	A-Ph2	A-Ph3	A-Ph4	A-Ph5	A-Ph6	A-Ph7	A-Ph8	A-Ph9	A-Ph10	A-Ph11	A-Ph12	A-Ph13	A-Ph14	A-Ph15	A-Ph16	

Term	0.00000e+00	0.00000e+00	0.00000e+00	0.00000e+00	0.00000e+00	0.00000e+00	0.00000e+00	0.00000e+00	0.00000e+00	0.00000e+00	0.00000e+00	0.00000e+00	0.00000e+00	0.00000e+00	0.00000e+00	0.00000e+00	0.00000e+00	0.00000e+00	0.00000e+00	0.00000e+00	0.00000e+00	0.00000e+00	0.00000e+00	0.00000e+00	0.00000e+00	0.00000e+00	0.00000e+00	0.00000e+00	0.00000e+00	0.00000e+00	0.00000e+00	0.00000e+00	0.00000e+00	0.00000e+00	0.00000e+00	0.00000e+00	0.00000e+00	0.00000e+00	0.00000e+00	0.00000e+00	0.00000e+00	0.00000e+00	0.00000e+00	0.00000e+00	0.00000e+00	0.00000e+00	0.00000e+00	0.00000e+00	
Factor	1.00000e+00	1.00000e+00	1.00000e+00	1.00000e+00	1.00000e+00	1.00000e+00	1.00000e+00	1.00000e+00	1.00000e+00	1.00000e+00	1.00000e+00	1.00000e+00	1.00000e+00	1.00000e+00	1.00000e+00	1.00000e+00	1.00000e+00	1.00000e+00	1.00000e+00	1.00000e+00	1.00000e+00	1.00000e+00	1.00000e+00	1.00000e+00	1.00000e+00	1.00000e+00	1.00000e+00	1.00000e+00	1.00000e+00	1.00000e+00	1.00000e+00	1.00000e+00	X	X	X	X	X	X	X	X	X	X	X	X	X	X	X	X	

B = Detector Channel
Val Type	B-AC1	B-AC2	B-AC3	B-AC4	B-AC5	B-AC6	B-AC7	B-AC8	B-AC9	B-AC10	B-AC11	B-AC12	B-AC13	B-AC14	B-AC15	B-AC16	B-DC1	B-DC2	B-DC3	B-DC4	B-DC5	B-DC6	B-DC7	B-DC8	B-DC9	B-DC10	B-DC11	B-DC12	B-DC13	B-DC14	B-DC15	B-DC16	B-Ph1	B-Ph2	B-Ph3	B-Ph4	B-Ph5	B-Ph6	B-Ph7	B-Ph8	B-Ph9	B-Ph10	B-Ph11	B-Ph12	B-Ph13	B-Ph14	B-Ph15	B-Ph16	

Term	0.00000e+00	0.00000e+00	0.00000e+00	0.00000e+00	0.00000e+00	0.00000e+00	0.00000e+00	0.00000e+00	0.00000e+00	0.00000e+00	0.00000e+00	0.00000e+00	0.00000e+00	0.00000e+00	0.00000e+00	0.00000e+00	0.00000e+00	0.00000e+00	0.00000e+00	0.00000e+00	0.00000e+00	0.00000e+00	0.00000e+00	0.00000e+00	0.00000e+00	0.00000e+00	0.00000e+00	0.00000e+00	0.00000e+00	0.00000e+00	0.00000e+00	0.00000e+00	-3.80650e+01	-1.32862e+02	-1.25430e+02	-1.81665e+02	-4.66408e+01	-6.69153e+01	-1.55920e+02	-1.62015e+02	-3.32665e+01	-6.84437e+01	-1.70727e+02	-1.71644e+02	-1.80701e+02	-1.77487e+02	-4.82893e+01	-1.50551e+02	
Factor	2.17353e-05	1.62563e-04	4.39496e-05	1.54653e-01	1.72098e-06	1.76303e-06	1.62475e-01	5.94268e-02	1.39045e-06	1.85064e-06	8.19659e-02	2.80416e-02	2.61055e-02	8.93581e-03	1.65438e-06	1.28829e-02	1.84756e-05	4.85871e-05	1.36813e-05	7.94789e-02	4.32069e-07	5.65725e-07	7.86197e-02	3.06710e-02	4.39986e-07	5.82689e-07	4.11320e-02	1.40425e-02	1.36022e-02	4.66921e-03	4.79335e-07	6.49530e-03	X	X	X	X	X	X	X	X	X	X	X	X	X	X	X	X	



#DISTANCE SETTINGS
A = Detector Channel
A-1	A-2	A-3	A-4	A-5	A-6	A-7	A-8	A-9	A-10	A-11	A-12	A-13	A-14	A-15	A-16	

2.5000e+00	3.0000e+00	2.5000e+00	3.0000e+00	2.0000e+00	3.0000e+00	1.5000e+00	3.0000e+00	3.0000e+00	3.0000e+00	3.0000e+00	3.0000e+00	3.0000e+00	3.0000e+00	1.5000e+00	3.0000e+00	

B = Detector Channel
B-1	B-2	B-3	B-4	B-5	B-6	B-7	B-8	B-9	B-10	B-11	B-12	B-13	B-14	B-15	B-16	

1.0000e+01	1.0000e+01	1.0000e+01	1.4400e+00	1.0000e+01	1.0000e+01	1.5100e+00	1.9400e+00	1.0000e+01	1.0000e+01	1.9900e+00	2.4900e+00	2.4100e+00	2.9000e+00	1.0000e+01	2.9800e+00	




#DATA BEGINS
time	group	step	mark	flag	A-AC1	A-AC2	A-AC3	A-AC4	A-AC5	A-AC6	A-AC7	A-AC8	A-AC9	A-AC10	A-AC11	A-AC12	A-AC13	A-AC14	A-AC15	A-AC16	A-DC1	A-DC2	A-DC3	A-DC4	A-DC5	A-DC6	A-DC7	A-DC8	A-DC9	A-DC10	A-DC11	A-DC12	A-DC13	A-DC14	A-DC15	A-DC16	A-Ph1	A-Ph2	A-Ph3	A-Ph4	A-Ph5	A-Ph6	A-Ph7	A-Ph8	A-Ph9	A-Ph10	A-Ph11	A-Ph12	A-Ph13	A-Ph14	A-Ph15	A-Ph16	B-AC1	B-AC2	B-AC3	B-AC4	B-AC5	B-AC6	B-AC7	B-AC8	B-AC9	B-AC10	B-AC11	B-AC12	B-AC13	B-AC14	B-AC15	B-AC16	B-DC1	B-DC2	B-DC3	B-DC4	B-DC5	B-DC6	B-DC7	B-DC8	B-DC9	B-DC10	B-DC11	B-DC12	B-DC13	B-DC14	B-DC15	B-DC16	B-Ph1	B-Ph2	B-Ph3	B-Ph4	B-Ph5	B-Ph6	B-Ph7	B-Ph8	B-Ph9	B-Ph10	B-Ph11	B-Ph12	B-Ph13	B-Ph14	B-Ph15	B-Ph16	aux-1	digaux	

1452.031	1	1	0	256	0.050819	0.1074	0.094699	0.075395	0.071359	0.048323	0.060066	0.042927	0.086331	0.18782	0.13944	0.046284	0.012612	0.050022	0.053748	0.15144	-2.8396	-3.1271	-3.2521	-3.225	-3.0417	-3.4938	-3.0438	-3.2604	-3.4	-2.9083	-3.3708	-3.1146	-2.95	-3.3187	-3.2021	-3.0687	208.568	-8.745	276.807	94.345	199.945	293.329	254.506	96.698	235.450	-11.400	18.963	269.514	86.335	19.187	217.563	88.696	9.2755e-06	4.9609e-05	1.2148e-05	66.117	2.4347e-07	1.9175e-06	56.864	24.641	1.1805e-07	6.9312e-07	21.734	6.4619	7.8661	2.7782	5.7662e-07	2.4119	0.00011909	-2.1763e-05	-1.0489e-05	79.734	-1.2422e-07	4.8971e-06	68.552	29.927	-2.9791e-07	-3.2169e-07	26.332	7.9037	9.515	3.3949	-2.2768e-07	2.9272	240.497	19.387	50.631	-18.651	176.696	143.767	-20.961	-13.542	122.236	47.678	-17.540	-12.563	-10.158	-5.017	195.346	-10.002	-8191	255	
1452.150	1	1	0	0	0.063951	0.11798	0.03159	0.14228	0.032694	0.070859	0.21933	0.14675	0.2209	0.20851	0.076548	0.25857	0.18669	0.12527	0.082396	0.063884	-2.9729	-2.8042	-3.2	-3.1208	-2.9458	-3.325	-3.1396	-3.0583	-3.1875	-3.0646	-3.375	-3.3125	-3.0208	-3.1562	-3.2687	-3.1146	243.325	179.212	265.313	109.825	179.386	198.331	124.130	32.573	166.756	207.448	310.881	53.665	0.238	-5.295	193.643	134.178	2.4876e-06	3.8341e-05	1.6256e-05	66.076	7.5966e-07	1.1749e-06	56.834	24.639	8.9589e-07	7.1381e-07	21.702	6.5199	7.7702	2.7655	7.9282e-07	2.3925	0.00017486	-1.6702e-05	-1.0004e-05	79.588	-7.5612e-08	2.7084e-06	68.461	29.901	-2.6582e-07	-3.8603e-07	26.233	7.9987	9.4857	3.3743	-3.1057e-07	2.925	214.699	71.920	59.440	-18.847	169.074	124.293	-20.705	-13.275	219.657	43.977	-18.098	-13.031	-10.218	-4.909	164.985	-10.272	-8191	255	
1452.246	1	1	0	0	0.027535	0.059662	0.11439	0.18298	0.11014	0.069992	0.12937	0.2801	0.072774	0.1257	0.14678	0.18328	0.17084	0.29298	0.16697	0.16922	-3.0938	-3.1208	-3.2396	-3.3542	-2.9146	-3.4437	-3.1729	-2.875	-3.4875	-2.9167	-3.0958	-3.4542	-2.9521	-3.2542	-3.1208	-2.8438	288.605	72.459	-7.814	314.006	238.245	35.716	242.388	66.832	71.145	122.662	-22.575	48.195	195.848	20.061	41.425	-8.207	6.5615e-06	2.443e-05	3.5855e-06	65.928	4.4539e-07	1.9264e-06	57.022	24.9	1.7736e-07	6.3199e-07	21.99	6.5915	7.8307	2.7951	4.2824e-07	2.4569	0.00010797	-2.5711e-05	-9.1494e-06	79.492	-1.1612e-07	4.7745e-06	69.268	30.156	-3.6757e-07	-4.8436e-07	26.628	8.121	9.5991	3.4244	-2.5465e-07	3.01	306.080	10.211	-24.081	-18.818	145.163	151.610	-20.087	-13.493	289.523	101.233	-17.576	-12.811	-10.057	-4.974	117.236	-9.979	-8191	255	
1452.342	1	1	0	0	0.31134	0.16953	0.062387	0.20832	0.19065	0.26234	0.0195	0.12128	0.12933	0.094861	0.17963	0.27757	0.26368	0.17858	0.11734	0.072987	-3.1125	-2.8604	-2.9167	-3.4167	-2.8792	-3.1896	-3.2708	-2.9458	-3.3729	-2.9875	-3.0479	-3.0917	-2.8479	-3.2854	-3.3688	-2.9542	314.136	248.636	174.334	81.982	242.901	-10.970	232.565	326.329	241.393	79.484	145.578	182.812	131.538	300.792	247.507	46.036	1.2995e-05	6.8007e-05	1.4034e-05	66.461	5.7509e-07	7.1926e-07	57.653	24.864	3.928e-07	4.5806e-07	21.861	6.5498	7.8275	2.7776	3.2025e-07	2.4371	0.00017833	-2.5306e-05	-5.7291e-06	80.574	-1.1972e-07	1.4355e-06	69.79	30.132	-2.9882e-07	-4.3459e-07	26.435	8.1225	9.5639	3.4328	-3.7348e-07	2.9828	121.408	76.169	14.702	-18.620	196.725	113.645	-20.298	-13.522	246.696	157.925	-17.655	-13.489	-9.449	-4.660	205.540	-9.786	-8191	255	
1452.438	1	1	0	0	0.13784	0.22133	0.12191	0.053909	0.1526	0.079658	0.13072	0.13689	0.17322	0.23462	0.20207	0.35463	0.088454	0.022104	0.048899	0.23272	-2.8896	-3.0083	-3.1833	-3.3063	-2.9854	-3.0896	-3.2083	-3.0875	-3.3312	-3.1833	-2.9875	-3.3083	-3.1979	-3.2458	-3.3271	-3.0875	181.038	208.940	220.009	-12.533	173.153	149.440	89.425	-6.946	298.881	283.558	48.372	102.314	215.634	257.545	242.181	249.081	1.0183e-05	2.0061e-05	1.3832e-05	65.811	2.4297e-07	1.6178e-07	56.925	24.522	2.4246e-07	4.5584e-07	21.68	6.5639	7.7952	2.7951	2.771e-07	2.4499	0.00010808	-2.0649e-05	-1.0261e-05	79.669	-1.4222e-07	-4.9265e-07	69.587	29.973	-3.4007e-07	-3.836e-07	26.255	8.0549	9.556	3.4457	-3.9046e-07	2.9917	213.218	156.409	18.484	-18.852	183.631	3.987	-20.673	-13.596	46.825	63.120	-17.623	-13.371	-9.945	-5.140	145.558	-10.020	-8191	255	
1452.535	1	1	0	0	0.12909	0.13782	0.12878	0.22703	0.18111	0.023159	0.22361	0.14127	0.27773	0.19055	0.18291	0.10345	0.15259	0.13482	0.098688	0.14029	-2.7708	-3.2583	-3.0521	-3.4292	-3.1229	-3.1896	-3.4062	-3.05	-3.1375	-3.2812	-3.0542	-3.275	-3.0646	-3.2229	-3.3042	-3.1521	265.439	-11.190	314.242	5.516	160.845	-24.790	242.234	9.560	116.845	158.040	-17.236	111.365	260.491	97.481	20.530	263.567	1.6535e-06	3.9967e-05	1.196e-05	66.421	5.6085e-07	4.0404e-07	57.92	24.851	5.0705e-07	5.2204e-07	21.916	6.5897	7.8087	2.7868	5.1034e-07	2.4506	0.00018379	-3.5124e-05	-9.0354e-06	80.022	-1.9263e-07	-5.3508e-07	69.886	30.098	-2.6766e-07	-5.8512e-07	26.45	8.1536	9.5567	3.4208	-3.625e-07	2.9736	121.993	160.444	287.984	-18.500	121.276	151.276	-20.671	-13.439	191.780	103.757	-17.841	-12.976	-9.820	-4.935	159.648	-10.413	-8191	255	
1452.631	1	1	0	0	0.07898	0.26897	0.14078	0.14839	0.10972	0.16532	0.16398	0.043132	0.16	0.31136	0.10659	0.14253	0.18032	0.10035	0.24253	0.4281	-2.7583	-3.0854	-2.9292	-3.3229	-3.0667	-3.2	-3.3604	-2.8958	-3.3125	-3.3063	-3.1042	-3.1562	-2.9646	-3.1583	-3.5396	-2.9604	17.665	141.717	33.254	194.520	168.835	55.172	118.050	23.349	303.496	36.135	220.323	199.324	134.268	57.368	135.757	140.262	1.6084e-05	7.0385e-05	8.0602e-06	66.606	6.2967e-07	2.804e-07	58.013	25.087	4.5468e-07	5.5862e-07	22.239	6.6908	7.9439	2.7957	3.4457e-07	2.4725	6.6435e-05	5.628e-05	-6.4416e-06	80.175	-1.8273e-07	-3.4533e-07	70.364	30.247	-3.2357e-07	-4.965e-07	26.741	8.1842	9.6551	3.4365	-3.5151e-07	2.9891	139.604	81.486	5.726	-18.644	242.664	126.993	-20.336	-13.787	122.090	114.037	-17.653	-12.711	-10.036	-5.316	63.226	-10.397	-8191	255	
1452.751	1	1	0	0	0.060487	0.090804	0.13598	0.22275	0.34737	0.088795	0.060972	0.11088	0.095491	0.053004	0.0681	0.015872	0.16851	0.17033	0.042254	0.17879	-2.8979	-3.2375	-2.6583	-3.2812	-3.2125	-3.0583	-3.5625	-2.8792	-3.325	-3.3375	-2.8833	-3.5312	-3.1958	-3.0083	-3.4708	-2.9458	126.422	304.495	136.399	152.719	28.497	112.296	328.315	188.013	24.019	128.011	20.183	98.878	200.597	70.805	254.878	107.109	1.7978e-05	9.9914e-05	1.2095e-05	66.312	1.1467e-07	4.3734e-07	56.97	24.697	6.7191e-07	1.006e-07	21.472	6.3907	7.8783	2.7532	2.5412e-07	2.4269	5.1963e-06	0.0003811	-2.1662e-06	79.934	-2.4394e-07	-3.4886e-07	69.237	29.972	-3.3182e-07	-6.276e-07	26.115	8.0192	9.5211	3.379	-4.4039e-07	2.9356	226.064	82.654	60.769	-18.457	224.091	127.629	-20.824	-13.423	107.435	222.142	-17.108	-12.908	-9.914	-4.722	173.852	-10.134	-8191	255	
1452.848	1	1	0	0	0.20478	0.092664	0.12863	0.1784	0.22267	0.13004	0.14361	0.12639	0.095408	0.060897	0.21173	0.12595	0.11217	0.041871	0.17222	0.090665	-2.6562	-3.25	-3.0375	-3.1979	-3.1646	-2.825	-3.4042	-2.9542	-3.1125	-3.4771	-2.8875	-3.3625	-3.2896	-2.9938	-3.3333	-3.2083	187.722	144.545	177.764	94.756	187.924	221.011	210.113	63.901	286.113	207.709	99.141	232.040	66.408	242.299	51.872	235.830	1.1697e-05	0.00015046	1.114e-05	65.51	2.4197e-07	3.2449e-07	56.673	24.673	4.3897e-07	6.8308e-07	21.745	6.5014	7.8183	2.7658	3.053e-07	2.4348	1.0816e-05	0.00021905	-4.646e-06	79.099	-2.4034e-07	-3.2529e-07	69.057	29.867	-1.9249e-07	-6.6159e-07	26.1	7.9362	9.5278	3.3865	-4.0843e-07	2.9473	238.409	12.680	53.920	-18.601	143.309	175.756	-20.736	-13.827	171.404	81.395	-17.514	-12.991	-10.176	-4.956	-2.613	-9.641	-8191	255	
1452.942	1	1	0	0	0.15898	0.20694	0.23836	0.10452	0.064109	0.19637	0.24477	0.17384	0.087371	0.10638	0.047884	0.086086	0.24281	0.057961	0.034054	0.073641	-2.6042	-3.2104	-3.0667	-3.3312	-3.3063	-2.7771	-3.3792	-3.0333	-2.9833	-3.4333	-2.9292	-3.2042	-3.3187	-2.7896	-3.3604	-3.0438	113.674	277.243	199.941	152.541	270.339	179.339	54.075	-31.296	57.505	97.654	130.881	238.882	209.212	3.236	40.628	170.855	2.0453e-05	0.00019542	1.3051e-05	66.038	5.3899e-07	3.4028e-07	57.21	24.881	7.1319e-07	2.1658e-07	21.864	6.5356	7.8681	2.783	2.5589e-07	2.4589	8.0446e-06	0.00042463	-9.2634e-06	79.464	-3.1235e-07	-2.5222e-07	69.406	30.028	-2.0624e-07	-5.7541e-07	26.343	7.9739	9.6728	3.4201	-5.5323e-07	2.9772	219.293	10.294	20.392	-18.692	225.937	272.531	-20.818	-13.606	159.931	-16.342	-17.847	-12.938	-10.211	-4.665	182.063	-10.093	-8191	255	
1453.040	1	1	0	0	0.092321	0.25659	0.063867	0.16238	0.12372	0.14161	0.3475	0.01919	0.14524	0.031373	0.049033	0.22117	0.086382	0.16849	0.11573	0.090039	-2.5708	-3.4729	-2.9083	-2.9938	-3.3354	-2.9583	-3.2667	-3.1375	-2.8958	-3.2562	-2.9979	-3.1396	-3.1917	-2.8438	-3.2583	-2.9833	85.021	50.215	145.026	62.734	165.347	161.382	76.276	208.723	80.698	1.369	261.765	241.647	38.921	70.154	153.904	138.668	1.0132e-05	5.2262e-05	1.7357e-05	66.469	4.3906e-07	8.3864e-07	58.371	25.137	9.1586e-07	6.9816e-07	22.192	6.6156	7.9001	2.8233	8.2877e-07	2.473	1.1971e-05	0.00022714	-1.086e-05	80.081	-3.9156e-07	-3.7715e-07	70.875	30.256	-1.8333e-08	-7.5021e-07	26.741	8.0575	9.6686	3.4484	-4.2741e-07	2.9832	236.105	87.945	78.638	-18.586	139.918	155.411	-20.762	-13.738	164.096	91.159	-17.578	-13.201	-9.896	-5.150	162.232	-9.750	-8191	255	
1453.134	1	1	0	0	0.095354	0.023839	0.10476	0.047613	0.2766	0.46342	0.12054	0.097462	0.15609	0.10528	0.066035	0.208	0.16982	0.2568	0.30369	0.17608	-2.5958	-3.2812	-2.9417	-3.1542	-3.4229	-3.1625	-3.2958	-3.2292	-2.8292	-3.5875	-2.9667	-3.0042	-3.2812	-2.8583	-3.2188	-3.2458	265.836	58.848	140.309	227.019	129.209	156.825	44.600	238.759	181.492	0.352	177.018	133.401	248.895	269.459	183.134	49.367	1.6239e-05	0.00019698	2.4293e-05	66.034	1.5739e-07	4.7922e-07	56.693	24.688	2.3082e-07	9.9358e-07	21.732	6.5153	7.7499	2.8067	4.768e-07	2.458	1.1855e-05	0.0004224	-1.3396e-05	79.515	-3.2675e-07	-4.7379e-07	68.608	29.919	-8.9831e-08	-5.6327e-07	26.096	7.8643	9.5851	3.4203	-2.9459e-07	2.9651	243.751	27.413	59.362	-18.384	178.692	103.708	-20.253	-13.753	209.275	126.227	-17.894	-12.994	-9.666	-5.021	191.161	-9.720	-8191	255	
1453.230	1	1	0	0	0.17368	0.1974	0.13604	0.28149	0.082045	0.045168	0.20992	0.32926	0.12021	0.07503	0.20112	0.22719	0.025473	0.041446	0.098222	0.060473	-2.5833	-3.3208	-3.1583	-3.0917	-3.3417	-3.0167	-3.2167	-3.2167	-2.9354	-3.1833	-3.3208	-2.8896	-3.6188	-2.8563	-3.1458	-3.2	102.864	315.837	-1.563	142.425	151.220	88.179	253.828	292.579	139.983	286.960	231.460	41.786	88.578	132.540	228.838	19.827	9.245e-06	8.7494e-05	2.1291e-05	66.251	4.2261e-07	5.4223e-07	57.12	24.944	2.1529e-07	2.9864e-07	21.862	6.541	7.8734	2.8292	6.7941e-07	2.4768	1.1047e-05	0.00023494	-1.2541e-05	79.519	-3.6816e-07	-5.2447e-07	68.607	30.272	-1.6866e-07	-5.2078e-07	26.257	7.9417	9.5994	3.4388	-4.1243e-07	2.9878	226.441	40.843	45.046	-18.510	216.178	83.124	-20.701	-13.587	236.454	133.242	-17.841	-12.830	-9.647	-4.945	165.780	-9.763	-8191	255	
1453.327	1	1	0	0	0.1633	0.14222	0.12921	0.028298	0.27055	0.28779	0.31545	0.12844	0.031494	0.14803	0.040744	0.064483	0.040448	0.20953	0.085605	0.26049	-2.6375	-3.2604	-3.1625	-2.9208	-3.4083	-3.1063	-3.0854	-3.325	-3.0083	-3.1354	-3.2667	-2.9313	-3.3104	-3.1688	-3.1729	-3.2917	203.132	104.237	189.462	191.342	123.981	327.744	105.181	210.174	186.001	-8.246	325.320	185.276	174.724	-27.700	129.648	134.071	1.3611e-05	0.00023746	2.9426e-06	66.138	3.0383e-07	2.1652e-07	58.062	24.995	3.0116e-07	5.396e-07	21.955	6.5935	7.9177	2.8203	1.2332e-07	2.512	9.7382e-06	0.00041947	-1.4365e-05	80.025	-3.5286e-07	-4.4551e-07	69.471	30.251	-1.7783e-07	-5.1349e-07	26.476	8.0153	9.7251	3.4617	-2.137e-07	3.0266	219.224	54.189	149.019	-18.382	149.119	165.093	-20.439	-13.588	88.055	157.804	-17.015	-12.791	-10.093	-5.031	118.230	-9.783	-8191	255	
1453.447	1	1	0	0	0.23926	0.1058	0.2889	0.082291	0.055168	0.17745	0.22994	0.28704	0.11254	0.10258	0.12379	0.072962	0.389	0.13525	0.16728	0.082935	-2.5125	-3.0896	-3.3292	-2.875	-3.0917	-3.2167	-3.1271	-3.1667	-2.9896	-3.2062	-3.2396	-3.0167	-3.4938	-3.1104	-2.9562	-3.2625	143.143	8.409	186.375	273.805	319.705	222.079	230.251	-30.068	191.753	287.480	13.766	163.719	326.894	40.545	47.861	301.880	5.6653e-06	0.00013454	1.9962e-05	67.094	4.1569e-07	2.488e-07	58.557	25.06	1.506e-07	5.6546e-07	22.071	6.5304	7.8699	2.846	5.7649e-07	2.4803	1.0162e-05	9.5656e-05	1.9154e-05	80.567	-2.3404e-07	-5.174e-07	70.273	30.588	-1.9799e-07	-5.8147e-07	26.458	7.9918	9.6267	3.4523	-1.5678e-07	2.9934	249.198	27.764	66.342	-18.871	126.276	82.052	-20.354	-13.415	255.413	106.523	-17.674	-12.906	-10.052	-4.778	141.880	-10.085	-8191	255	
1453.543	1	1	0	0	0.19126	0.16209	0.24049	0.083451	0.029572	0.021915	0.10185	0.14066	0.18806	0.18387	0.19066	0.15444	0.33584	0.24185	0.03454	0.29554	-2.6083	-3.1479	-3.4292	-2.8542	-3.45	-3.1875	-3.1021	-3.2625	-3.0979	-3.0729	-3.3	-3.0271	-3.1104	-3.1125	-3.0646	-3.3688	255.056	-29.285	257.567	91.245	245.651	257.003	-21.416	-27.380	318.548	232.469	60.212	130.184	170.328	15.273	124.675	-9.034	1.1904e-05	2.7965e-05	4.8003e-05	66.29	9.4942e-07	6.0034e-07	56.907	24.832	2.0198e-07	4.603e-07	21.716	6.5053	7.8369	2.8233	2.3065e-07	2.4489	7.5442e-06	-4.3121e-05	0.00011903	79.75	-3.2315e-07	-5.4687e-07	68.447	30.084	-1.1275e-07	-5.4748e-07	26.111	7.9146	9.6251	3.4465	-1.9473e-07	2.9794	230.962	105.045	63.219	-18.489	130.080	141.061	-20.549	-13.710	226.815	85.908	-17.847	-12.793	-10.162	-4.828	136.306	-9.782	-8191	255	
1453.639	1	1	0	0	0.22086	0.02998	0.15939	0.16099	0.2718	0.29043	0.052162	0.031282	0.068524	0.28606	0.2219	0.14366	0.030119	0.23655	0.16951	0.064613	-2.6562	-2.8979	-3.3521	-2.8104	-3.1333	-3.2625	-2.8354	-3.175	-3.125	-3.1292	-3.3229	-2.8271	-3.1854	-3.2021	-2.7792	-3.4229	312.587	315.151	13.667	261.976	173.102	61.382	91.383	229.673	14.126	249.444	266.542	47.657	156.760	85.702	-26.587	150.990	2.2635e-05	2.2084e-05	3.4781e-05	66.478	7.2677e-07	4.7823e-07	57.771	24.744	2.4289e-07	9.0966e-07	21.847	6.5196	7.8221	2.8472	6.874e-07	2.4629	7.3133e-06	-2.5711e-05	6.473e-05	79.98	-1.7643e-07	-6.0226e-07	69.173	30.277	-2.4016e-07	-3.399e-07	26.261	7.9744	9.576	3.4696	-8.6879e-08	2.9944	230.684	23.017	74.766	-18.678	162.695	112.263	-20.827	-13.668	304.865	99.451	-17.719	-13.017	-9.938	-5.067	190.062	-9.697	-8191	255	
1453.736	1	1	0	0	0.16452	0.046488	0.036129	0.056294	0.18303	0.3651	0.20434	0.25916	0.19112	0.12073	0.054713	0.10566	0.30807	0.29938	0.36111	0.085842	-2.775	-3.0563	-3.3	-2.9833	-3.2375	-3.1	-2.9833	-3.3312	-3.0062	-2.8521	-3.1937	-2.9479	-3.1979	-3.2	-2.9667	-3.3854	308.292	-3.379	-17.961	31.391	108.667	268.117	90.556	127.488	191.659	86.576	134.796	-25.402	257.289	9.390	271.668	56.661	1.5145e-05	7.5385e-05	5.2501e-05	66.593	2.2856e-07	5.8908e-07	58.369	25.027	2.4448e-07	5.891e-07	22.213	6.6315	7.9465	2.8321	2.3719e-07	2.5216	8.8914e-06	-2.5711e-05	0.00011658	80.079	-3.3755e-07	-5.3037e-07	69.823	30.401	-1.5308e-07	-3.3505e-07	26.63	8.0658	9.6388	3.5203	-1.5179e-07	3.0318	232.945	50.304	71.702	-18.575	119.754	153.510	-20.599	-13.665	138.582	40.760	-17.458	-12.863	-10.329	-5.342	138.742	-9.396	-8191	255	
1453.832	1	1	0	0	0.095241	0.26096	0.075164	0.32994	0.3002	0.27125	0.28074	0.11833	0.19919	0.10343	0.2663	0.3299	0.18955	0.13365	0.1396	0.12571	-2.6333	-3.0333	-3.2188	-2.8708	-2.9542	-3.4146	-2.85	-3.3104	-3.1083	-3.0708	-3.4708	-3.0312	-3.1958	-3.2646	-2.9188	-3.2938	193.124	54.950	132.952	78.871	245.392	294.395	15.661	91.968	151.707	-9.985	222.404	175.436	240.614	157.108	-19.157	-6.740	9.5964e-06	2.1589e-05	4.9108e-05	67.078	3.9197e-07	7.1356e-07	57.782	24.963	6.1714e-07	5.2347e-07	21.862	6.5511	7.8694	2.8219	4.3919e-07	2.4566	9.5072e-06	-1.9536e-05	6.8036e-05	80.364	-1.5753e-07	-5.9873e-07	69.614	30.391	-2.7316e-07	-2.6707e-07	26.371	7.9873	9.5551	3.47	-1.6477e-07	2.9774	251.954	72.747	81.997	-18.786	91.665	153.474	-21.192	-13.607	172.840	79.525	-17.714	-12.831	-9.540	-5.210	121.094	-10.307	-8191	255	
1453.928	1	1	0	0	0.17363	0.086577	0.13735	0.087956	0.23531	0.090557	0.10238	0.043275	0.25545	0.18686	0.049787	0.022783	0.20812	0.12164	0.22557	0.18553	-2.7854	-2.9271	-3.2687	-2.8979	-3.0583	-3.4958	-2.9646	-3.0062	-3.2396	-2.9688	-3.3812	-3.0687	-2.7708	-3.3083	-3.025	-3.1271	-29.918	93.154	180.159	78.806	239.105	143.856	61.529	200.249	296.114	270.401	5.091	17.181	49.558	245.544	225.474	234.668	1.9533e-05	5.2914e-05	5.0217e-05	66.252	6.9617e-08	7.0471e-07	57.586	24.668	9.7163e-07	2.958e-07	21.678	6.5845	7.882	2.8398	5.0138e-07	2.4794	6.197e-06	-4.8587e-06	0.00011176	79.622	-1.1432e-07	-6.883e-07	68.837	29.983	9.7164e-07	-2.7435e-07	26.221	7.9921	9.5906	3.5091	-2.4566e-07	3.0015	225.902	156.488	98.234	-18.831	264.436	80.051	-20.847	-13.695	227.755	92.871	-17.194	-12.703	-9.636	-5.383	160.336	-10.022	-8191	255	
1454.024	1	1	0	0	0.19112	0.15885	0.11984	0.25358	0.10184	0.38232	0.031142	0.24839	0.018551	0.10336	0.12987	0.14067	0.17095	0.13282	0.060871	0.11198	-2.9271	-2.8521	-3.3208	-3.1021	-2.95	-3.2208	-3.0854	-2.9667	-3.5542	-3.1021	-3.2083	-3.1437	-2.8979	-3.2208	-3.0458	-3.1583	257.905	152.506	49.279	53.717	118.873	259.438	242.912	30.802	322.120	99.638	113.574	39.535	257.987	285.846	11.412	251.687	1.6379e-05	4.7853e-05	2.5963e-05	66.362	1.4283e-07	5.0521e-07	57.766	24.965	1.2794e-06	7.8922e-07	22.104	6.6966	7.9484	2.8606	4.8061e-07	2.5087	-1.3472e-06	-3.0266e-05	6.6554e-05	80.041	-1.9623e-07	-6.4233e-07	69.528	30.272	3.849e-06	-3.8482e-07	26.637	8.1141	9.6464	3.5212	-2.1171e-07	3.0471	242.223	2.323	95.629	-18.224	125.961	117.615	-20.301	-13.445	303.943	135.578	-17.830	-13.072	-9.858	-5.296	119.044	-9.656	-8191	255	
1454.120	1	1	0	0	0.152	0.18288	0.090658	0.16772	0.24618	0.22347	0.20792	0.12618	0.13491	0.25198	0.032865	0.2142	0.12655	0.11037	0.23669	0.11616	-2.9	-2.9562	-3.1208	-3.2021	-2.8479	-3.3625	-3.0708	-3.0854	-3.3896	-2.8812	-3.1542	-3.2083	-2.9604	-3.3	-3.0604	-3.025	67.839	19.422	64.485	152.496	311.062	155.996	69.897	227.633	140.024	75.916	-15.403	162.416	253.059	269.492	149.009	-4.992	1.3109e-05	5.9306e-05	2.1746e-05	67.069	8.8141e-07	3.2026e-07	58.958	25.196	7.841e-07	9.4363e-08	22.618	6.8205	8.073	2.9079	4.0658e-07	2.575	4.7729e-06	-2.0548e-05	0.00010518	80.837	-1.2512e-07	-5.9637e-07	70.664	30.539	2.3466e-06	-2.1244e-07	27.113	8.249	9.7881	3.5818	-2.5664e-07	3.092	212.545	67.187	6.005	-18.513	130.179	85.088	-20.611	-13.744	272.147	66.495	-17.180	-12.778	-9.868	-4.859	123.719	-9.764	-8191	255	
1454.239	1	1	0	0	0.20159	0.14536	0.092289	0.079108	0.18692	0.099674	0.191	0.33463	0.3021	0.082057	0.16429	0.051461	0.13575	0.21804	0.20092	0.21413	-2.8625	-3.0583	-3.2417	-3.1792	-2.6521	-3.3271	-3.0667	-2.8833	-3.5333	-2.9729	-3.1312	-3.2979	-2.7208	-3.3812	-3.1417	-2.8896	204.855	13.124	185.498	313.690	41.947	39.345	6.391	255.153	54.392	196.245	123.258	217.514	306.305	204.605	240.551	67.916	1.4446e-05	5.2464e-05	2.0053e-05	67.127	5.5526e-07	7.4546e-07	58.315	24.942	8.2165e-07	8.8919e-07	22.185	6.6316	7.8687	2.894	3.7842e-07	2.5299	2.3864e-06	-2.7533e-05	1.0717e-05	80.989	-9.4515e-08	-5.5158e-07	70.108	30.343	3.903e-06	-4.3095e-07	26.545	8.0857	9.6327	3.5457	-3.7148e-07	3.0551	225.116	73.741	324.445	-18.551	163.872	13.221	-20.829	-13.580	-23.975	164.015	-17.651	-12.955	-10.059	-5.050	63.858	-9.858	-8191	255	
1454.335	1	1	0	0	0.21392	0.17236	0.29338	0.13369	0.12931	0.20538	0.23048	0.1731	0.18474	0.29914	0.046566	0.12326	0.15696	0.11452	0.28844	0.37487	-3.0125	-3.0125	-3.0958	-3.2042	-2.9292	-3.3146	-3.0375	-3.1063	-3.3563	-3.0563	-3.1771	-3.225	-2.9167	-3.1146	-3.3438	-2.9813	160.026	-20.294	86.216	240.253	101.655	239.699	174.176	14.860	270.892	27.422	116.197	43.605	2.399	140.705	128.449	113.104	1.6385e-05	2.7327e-05	6.3112e-06	67.631	9.6192e-07	1.7301e-07	58.218	25.092	7.3718e-07	7.7239e-07	22.148	6.6984	7.9415	2.906	4.0056e-07	2.5618	3.3102e-06	-2.8545e-05	-1.0318e-05	81.635	-9.1815e-08	-6.4587e-07	69.869	30.32	2.2668e-06	-3.4961e-07	26.628	8.1035	9.7062	3.5921	-4.7434e-07	3.1	226.125	308.046	89.887	-18.727	128.579	95.021	-20.615	-13.847	303.648	121.900	-17.205	-12.893	-10.087	-5.061	84.898	-10.013	-8191	255	
1454.431	1	1	0	0	0.056578	0.20214	0.22932	0.24696	0.069798	0.32291	0.11106	0.2218	0.1722	0.13255	0.072229	0.17232	0.01482	0.1487	0.13784	0.19722	-3.0312	-3.025	-3.0104	-3.4458	-2.9417	-3.3354	-3.2313	-2.8	-3.3208	-2.95	-2.875	-3.1417	-3.0208	-3.1708	-3.0083	-3.0521	253.648	2.000	75.758	138.865	317.501	261.202	151.471	115.727	197.783	297.960	254.913	123.373	-11.252	168.513	218.860	314.282	1.7035e-05	5.041e-05	1.3817e-05	67.659	6.5316e-07	7.0879e-07	60.056	25.486	1.1496e-06	6.6571e-07	22.488	6.8126	8.088	2.9464	7.1297e-07	2.583	4.311e-06	-4.7575e-05	-8.0378e-06	81.971	-1.6293e-07	-5.1976e-07	71.163	30.746	3.8343e-06	-3.1562e-07	27.089	8.2235	9.8025	3.5885	1.419e-06	3.1384	249.299	35.579	58.446	-18.396	144.029	126.045	-20.572	-13.595	-14.263	68.238	-17.584	-12.792	-9.699	-4.976	149.652	-10.347	-8191	255	
1454.528	1	1	0	0	0.36556	0.16014	0.13738	0.18233	0.2189	0.29877	0.26852	0.1638	0.29511	0.090561	0.24059	0.010754	0.25884	0.21311	0.25319	0.056249	-2.775	-3.0333	-2.8896	-3.1792	-3.2125	-2.9104	-3.5062	-2.8292	-3.2896	-3.2896	-3.0333	-3.4167	-2.9083	-3.0687	-3.2562	-3.0833	-18.502	180.666	139.176	124.019	312.775	232.479	76.335	222.485	292.424	184.034	45.972	300.278	100.456	223.567	145.066	213.822	1.0102e-05	3.7208e-05	5.6088e-06	68.413	4.7541e-07	5.0207e-07	60.802	25.738	1.1218e-06	5.921e-07	22.983	6.7944	8.1654	2.9069	1.3537e-06	2.547	3.6951e-06	-3.3302e-05	-7.8668e-06	83.14	-2.2234e-07	-4.1015e-07	72.46	31.16	2.3668e-06	-6.4217e-07	27.711	8.3105	9.8636	3.5604	4.2331e-06	3.0764	243.982	58.633	76.212	-18.844	75.863	126.701	-20.576	-13.792	-13.569	120.974	-17.450	-12.978	-9.996	-5.193	94.633	-9.927	-8191	255	
1454.624	1	1	0	0	0.15629	0.28208	0.058404	0.17786	0.098738	0.069641	0.097717	0.21736	0.071165	0.19123	0.16889	0.077866	0.15663	0.28684	0.088244	0.16271	-2.7646	-3.0938	-2.9771	-3.3979	-2.8833	-3.1	-3.3	-3.0417	-3.1333	-3.3812	-2.9208	-3.3354	-3.075	-2.9854	-3.2729	-2.8854	247.793	308.070	19.906	130.928	8.719	176.400	244.173	-27.897	194.482	-9.866	132.057	59.647	58.460	299.030	67.433	82.803	1.6936e-05	1.9891e-05	5.0599e-06	67.616	6.7735e-07	4.7295e-07	58.587	25.465	1.5324e-06	9.1433e-07	22.206	6.6358	7.9568	2.8552	1.5161e-06	2.5014	7.2363e-06	-5.0713e-05	-6.9262e-06	81.893	-2.4214e-07	-4.9972e-07	70.211	30.62	3.1477e-06	-3.314e-07	26.744	8.042	9.6652	3.4866	2.3058e-06	3.0223	233.204	41.840	91.180	-18.037	-19.021	88.007	-20.592	-13.790	61.917	283.098	-17.609	-12.888	-9.715	-4.789	115.493	-9.876	-8191	255	
1454.720	1	1	0	0	0.055441	0.27902	0.39992	0.060311	0.29541	0.14186	0.18839	0.2877	0.18292	0.12423	0.043534	0.29024	0.2711	0.18512	0.037659	0.071372	-2.8063	-3.3646	-2.8354	-3.3146	-3.1833	-2.9396	-3.4062	-2.9646	-3.0958	-3.3312	-3.0187	-3.375	-3.075	-2.9729	-3.1146	-3.0062	-5.963	296.993	158.316	85.015	205.962	318.418	162.565	4.748	241.503	141.726	300.757	150.708	304.720	105.050	279.068	-15.258	1.2854e-05	7.1235e-05	1.5248e-05	67.409	2.1867e-07	2.7287e-07	58.04	25.218	4.9496e-07	4.1907e-07	22.388	6.6811	7.9949	2.8584	1.6657e-06	2.4873	7.5827e-06	-5.9215e-05	-6.4131e-06	81.839	-2.0883e-07	-4.2194e-07	69.983	30.574	3.4832e-07	1.5065e-06	26.973	8.0891	9.7029	3.4924	4.1902e-06	3.0238	263.000	29.833	94.405	-18.454	80.000	-12.046	-20.526	-13.825	108.886	183.981	-17.546	-13.049	-10.220	-4.935	119.541	-9.618	-8191	255	
1454.840	1	1	0	0	0.14288	0.24768	0.047481	0.16774	0.22294	0.28835	0.17983	0.022081	0.17505	0.15919	0.23996	0.075509	0.08782	0.086724	0.20292	0.096668	-2.5521	-3.4354	-2.8438	-3.2771	-3.3104	-2.875	-3.4396	-3.0875	-2.9875	-3.3958	-2.8187	-3.3146	-3.2833	-2.8417	-3.5208	-3.2667	111.449	96.215	174.493	149.645	127.410	117.740	93.063	137.044	-21.874	194.844	286.485	134.054	277.204	181.599	198.242	283.441	1.4875e-05	3.357e-05	9.0275e-06	67.657	2.0638e-07	1.3518e-07	58.848	25.348	1.6467e-07	1.7577e-06	22.437	6.6961	8.0472	2.8753	1.3667e-06	2.5281	3.9646e-06	-3.806e-05	-6.2421e-06	81.791	-3.2045e-07	-2.5693e-07	70.636	30.677	-2.4841e-07	4.84e-06	27.12	8.1142	9.7381	3.5138	2.4416e-06	3.0543	237.660	111.502	60.958	-18.019	67.729	155.193	-20.592	-13.739	59.354	1.394	-17.533	-12.853	-9.968	-4.958	128.079	-10.168	-8191	255	
1454.935	1	1	0	0	0.041099	0.15116	0.073116	0.17041	0.20455	0.092791	0.17018	0.27305	0.17757	0.10242	0.21324	0.18976	0.212	0.25896	0.047138	0.10059	-2.7021	-3.2729	-2.8667	-3.2979	-3.0542	-2.9333	-3.2417	-2.9896	-2.9667	-3.325	-2.9062	-3.1417	-3.2896	-2.8688	-3.1646	-3.1854	151.214	85.998	276.325	318.433	198.832	301.318	323.988	255.018	264.146	144.218	69.617	-9.561	3.638	264.960	8.816	297.044	1.3505e-05	3.2205e-05	1.1514e-05	67.859	1.7135e-06	4.669e-07	58.901	25.61	8.998e-07	9.7182e-07	22.193	6.6209	7.9591	2.8512	1.5538e-06	2.4838	9.2763e-06	-4.0489e-05	-6.5271e-06	81.851	8.1913e-08	-3.5594e-07	70.561	30.645	-1.7324e-07	2.8479e-06	26.831	8.0533	9.6883	3.5011	4.0923e-06	3.0182	257.626	138.161	-22.326	-18.546	214.425	40.536	-21.069	-13.366	147.172	-15.245	-17.377	-13.120	-9.544	-4.838	135.478	-9.990	-8191	255	
1455.031	1	1	0	0	0.13515	0.15671	0.231	0.070013	0.086278	0.24034	0.19759	0.14305	0.26251	0.098166	0.071038	0.025084	0.19968	0.14676	0.088541	0.23466	-2.6083	-3.4854	-3.0042	-3.1229	-3.2146	-2.9188	-3.3625	-3.0479	-3.1167	-3.3542	-3.0417	-3.1396	-3.4625	-2.7229	-3.3083	-3.1583	23.684	-15.232	78.599	16.251	20.566	84.508	177.310	72.732	266.163	140.661	166.441	301.730	240.899	131.096	28.366	46.558	1.8889e-05	4.2162e-05	5.9072e-06	66.34	1.1745e-06	4.6975e-08	57.372	25.011	6.2425e-07	1.5123e-06	21.948	6.5586	7.8749	2.8311	1.271e-06	2.4655	1.2163e-05	-6.0531e-05	-7.8098e-06	80.021	1.244e-06	-3.3001e-07	68.789	30.209	-1.6316e-07	4.9953e-06	26.424	7.9665	9.6086	3.4714	2.1161e-06	2.98	228.327	-16.775	70.758	-18.299	224.614	-5.258	-20.588	-13.912	143.065	-28.901	-17.206	-12.900	-9.909	-4.924	137.684	-10.066	-8191	255	
1455.104	1	1	0	0	0.10885	0.17245	0.19103	0.17485	0.18926	0.056619	0.12166	0.17315	0.091273	0.14406	0.14214	0.24152	0.13255	0.33958	0.146	0.28842	-2.7687	-3.2958	-3.0479	-3.0125	-3.4417	-3.0542	-3.3	-3.2271	-2.9688	-3.3375	-3.0521	-3.1229	-3.3292	-2.9792	-3.2667	-3.2083	241.230	48.921	270.442	1.656	149.811	208.036	-19.475	231.440	227.693	319.005	70.852	50.765	307.967	262.801	69.438	68.917	1.9058e-05	6.4526e-05	1.6189e-05	66.424	1.1115e-06	3.1537e-07	57.34	25.025	3.3633e-07	6.3293e-07	21.874	6.5819	7.8724	2.8133	1.0222e-06	2.4659	1.097e-05	-5.2029e-05	-1.3966e-05	79.465	3.7815e-06	-4.1015e-07	68.485	30.107	-7.8831e-08	2.6318e-06	26.466	8.0105	9.5968	3.4317	2.9479e-06	2.972	219.887	-15.891	19.723	-18.403	265.798	201.261	-20.977	-14.064	162.044	5.042	-17.874	-12.710	-10.143	-4.990	98.383	-9.876	-8191	255	
1455.223	1	1	0	0	0.21717	0.14443	0.11472	0.20283	0.3284	0.055027	0.28208	0.20564	0.2081	0.20805	0.22554	0.16302	0.27604	0.21184	0.19271	0.20049	-2.5563	-3.0875	-3.1021	-2.9396	-3.4333	-3.025	-3.1333	-3.3208	-2.8708	-3.4333	-3.25	-2.8708	-3.3375	-2.9167	-3.1688	-3.3771	88.239	54.657	33.237	102.872	132.243	66.114	153.668	66.233	164.407	2.558	240.490	251.612	278.244	49.592	52.594	173.966	1.6531e-05	4.3233e-05	1.678e-05	65.405	9.0177e-07	4.6216e-07	57.001	25.069	1.6068e-07	1.9183e-06	22.032	6.5511	7.9446	2.8023	6.6893e-07	2.4496	1.1586e-05	-5.2737e-05	-1.3824e-05	78.825	2.0334e-06	-4.6083e-07	68.38	30.156	-1.4941e-07	4.8436e-06	26.581	8.0277	9.6261	3.4202	1.4979e-08	2.9804	242.299	56.252	70.118	-18.672	204.629	73.580	-20.770	-13.577	162.672	3.116	-17.390	-13.036	-9.838	-4.793	111.463	-9.723	-8191	255	
1455.319	1	1	0	0	0.18132	0.098506	0.17273	0.023854	0.040084	0.093572	0.094144	0.026406	0.034587	0.047825	0.11514	0.02679	0.081087	0.2675	0.11753	0.19659	-2.4	-3.2917	-2.9354	-2.7958	-3.0812	-2.9562	-3.1667	-3.2875	-2.9437	-3.4146	-3.1604	-2.8792	-3.375	-3.1083	-3.0271	-3.2417	233.497	82.184	58.294	130.408	321.787	53.238	93.439	233.096	254.039	195.656	118.629	200.103	87.068	163.083	-11.814	93.216	9.9733e-06	2.4347e-05	8.7633e-06	65.214	1.8189e-06	1.2416e-07	56.175	24.666	5.1171e-07	1.4636e-06	21.737	6.3888	7.7611	2.6986	5.9115e-07	2.3563	1.02e-05	-4.383e-05	-1.2655e-05	78.583	3.7239e-06	-5.4451e-07	67.644	29.844	-1.7416e-07	2.7059e-06	26.034	7.7761	9.4185	3.2833	-1.7576e-07	2.8766	200.302	207.398	43.314	-18.354	238.279	52.058	-20.583	-13.770	204.093	30.375	-17.749	-12.544	-9.978	-4.763	168.268	-10.265	-8191	255	
1455.416	1	1	0	0	0.091551	0.16895	0.15045	0.09013	0.14663	0.046921	0.28669	0.31069	0.27207	0.071835	0.077906	0.22528	0.08655	0.059122	0.085971	0.076601	-2.6521	-3.2333	-3.2083	-2.9458	-3.2396	-3.1542	-2.8979	-3.4708	-3.0833	-3.0771	-3.4813	-2.9	-3.4375	-3.3354	-2.9875	-3.3063	38.125	296.845	187.974	243.639	239.390	288.878	77.757	72.278	8.145	-18.357	205.564	290.236	211.794	291.779	304.980	258.824	6.8259e-06	4.6752e-05	1.358e-05	64.005	6.7186e-07	7.9982e-07	55.148	24.213	4.2317e-07	1.9505e-06	21.298	6.3129	7.6224	2.6445	3.9544e-07	2.2853	5.3117e-06	-5.4256e-05	-1.5163e-05	76.507	2.01e-06	-6.3644e-07	65.796	29.291	-2.3649e-07	3.223e-06	25.749	7.6637	9.2795	3.2229	-1.8774e-07	2.805	248.945	4.534	42.721	-18.306	224.596	62.663	-20.610	-13.820	46.907	45.468	-17.425	-13.356	-10.186	-4.809	286.256	-9.863	-8191	255	
1455.512	1	1	0	0	0.1275	0.15542	0.02809	0.16978	0.15224	0.22852	0.13796	0.29034	0.2547	0.13174	0.095875	0.14574	0.30752	0.062527	0.25053	0.13248	-2.5333	-3.1083	-3.2333	-2.8438	-3.3875	-3.225	-3.0479	-3.1667	-3.1021	-3.2188	-3.1708	-2.9771	-3.2979	-2.9792	-2.8729	-3.3125	34.065	51.073	40.897	105.117	12.179	289.398	198.180	-31.453	195.336	180.942	-13.965	121.444	273.553	232.106	199.368	284.076	1.711e-05	5.978e-05	1.6722e-05	63.117	8.314e-07	2.1745e-07	54.857	24.167	3.2167e-07	1.0902e-06	21.126	6.2948	7.6481	2.6383	2.6188e-07	2.3026	1.1547e-05	-4.2817e-05	-1.2513e-05	75.921	3.5808e-06	-6.8123e-07	65.738	29.177	-2.1083e-07	-2.9377e-07	25.852	7.6714	9.3046	3.2283	-2.2369e-07	2.8504	230.120	92.387	54.550	-18.441	302.898	145.620	-20.238	-13.511	251.820	14.571	-17.388	-12.979	-10.062	-4.770	131.837	-9.459	-8191	255	
1455.632	1	1	0	0	0.11872	0.18689	0.26669	0.1871	0.24554	0.19002	0.12645	0.039754	0.26418	0.073578	0.23329	0.11505	0.09461	0.30208	0.27074	0.14925	-2.6729	-3.0146	-3.2604	-2.9938	-3.1021	-3.1292	-2.9854	-3.2438	-3.0875	-3.2687	-3.2271	-2.9854	-3.2438	-3.2083	-2.8146	-3.2792	134.952	172.473	291.012	30.207	202.128	-5.997	261.973	-22.491	198.338	252.564	34.390	63.908	124.459	71.028	194.494	211.183	1.7798e-05	6.3238e-05	7.6328e-06	62.941	8.803e-07	1.9542e-07	55.173	24.303	4.2277e-07	8.561e-07	21.556	6.385	7.6377	2.6536	4.6194e-07	2.2952	9.7382e-06	-3.725e-05	-1.3909e-05	75.869	2.1072e-06	-4.9855e-07	66.144	29.354	-2.9424e-07	-5.9483e-07	26.18	7.7182	9.3127	3.2495	-3.1656e-07	2.827	238.912	-16.174	82.297	-18.713	299.564	-21.214	-20.678	-13.305	56.135	122.628	-17.784	-12.857	-9.946	-5.004	121.189	-10.461	-8191	255	
1455.704	1	1	0	0	0.057073	0.18868	0.13868	0.14916	0.29111	0.092035	0.29601	0.21947	0.12686	0.12408	0.12835	0.11231	0.04691	0.11431	0.22545	0.11327	-2.6083	-3.1354	-3.4729	-2.7542	-3.1792	-3.3396	-2.9188	-3.2583	-3.1229	-3.075	-3.3333	-2.9437	-3.0563	-3.1646	-2.9813	-3.3063	257.226	89.675	83.138	121.178	305.497	17.577	31.395	82.047	160.572	29.231	110.403	217.255	220.155	-17.671	233.968	-1.949	1.7042e-05	2.2379e-05	1.0983e-05	62.817	2.6421e-07	7.8603e-07	54.203	24.058	3.652e-07	8.1034e-07	20.992	6.1402	7.5649	2.606	3.7827e-07	2.2728	8.545e-06	-4.4538e-05	-1.7187e-05	75.557	2.2576e-06	4.4787e-07	65.138	29.015	-3.2266e-07	-4.4309e-07	25.506	7.5288	9.171	3.1881	-2.856e-07	2.7778	236.411	63.686	71.690	-18.299	58.273	248.362	-21.034	-13.498	198.686	48.439	-17.459	-12.647	-10.004	-4.825	127.510	-9.716	-8191	255	
1455.800	1	1	0	0	0.16187	0.24437	0.17255	0.15469	0.095121	0.025739	0.060532	0.2343	0.12819	0.23541	0.23853	0.17216	0.1433	0.16457	0.14474	0.22634	-2.6125	-3.0708	-3.4104	-2.8792	-3.1271	-3.3729	-2.8937	-3.1583	-3.0312	-2.9458	-3.1937	-3.0062	-2.8312	-3.1146	-2.7771	-3.0354	-9.849	-19.559	209.820	313.233	264.025	326.069	234.685	290.183	277.725	70.987	24.006	262.589	250.193	80.903	-3.823	86.294	1.4049e-05	5.3855e-05	1.1723e-05	62.341	8.8254e-07	6.5961e-07	54.205	23.85	4.1971e-07	1.2653e-07	20.81	6.1989	7.53	2.6004	4.2706e-07	2.2501	6.8129e-06	-3.2897e-05	-1.8042e-05	74.868	-1.8093e-07	1.9447e-06	64.558	28.8	-3.3182e-07	-3.4354e-07	25.51	7.5109	9.1437	3.159	-3.2555e-07	2.7273	221.314	36.170	295.888	-18.561	2.946	275.469	-20.587	-13.663	180.772	79.662	-17.870	-13.253	-9.995	-4.864	117.958	-9.770	-8191	255	
1455.921	1	1	0	0	0.17317	0.14867	0.12213	0.053595	0.028954	0.1233	0.1053	0.19039	0.25405	0.12151	0.058499	0.23982	0.3506	0.067394	0.25156	0.11906	-2.6875	-2.7188	-3.3063	-2.9729	-3.0604	-3.4354	-2.9208	-3.2188	-3.1854	-2.7833	-3.2354	-3.0146	-2.9417	-3.2229	-2.9542	-2.9979	240.255	279.354	-24.800	176.573	56.674	71.487	6.691	-5.574	28.300	313.305	326.121	81.290	195.085	175.987	49.892	218.392	1.637e-05	2.9248e-05	3.4163e-06	62.12	2.2442e-07	1.0522e-06	54.241	23.841	3.2502e-07	3.5592e-07	20.949	6.1805	7.5213	2.5748	6.366e-07	2.2344	1.2317e-06	-3.0873e-05	-1.371e-05	74.54	-2.5024e-07	4.4327e-06	64.553	28.786	-4.5465e-07	-4.1517e-07	25.472	7.5107	9.1411	3.1447	-3.3054e-07	2.7358	247.936	106.050	166.354	-18.145	1.790	243.627	-20.687	-13.396	147.951	163.808	-17.804	-12.836	-9.818	-4.831	95.838	-10.165	-8191	255	
1456.015	1	1	0	0	0.046019	0.09584	0.073411	0.10966	0.066734	0.074123	0.14339	0.11327	0.053205	0.038759	0.13449	0.32476	0.21735	0.065591	0.081415	0.087144	-2.825	-2.9333	-3.2	-2.9583	-2.9771	-3.3208	-2.5979	-3.0187	-3.1646	-2.8542	-3.2396	-3.2188	-2.925	-3.1979	-2.8958	-3.15	235.627	134.502	78.492	160.910	260.633	88.165	262.317	198.736	325.765	81.540	263.635	279.437	227.576	11.671	-6.765	52.840	2.3014e-05	5.6675e-05	1.6312e-05	62.068	5.5054e-07	7.6407e-07	54.247	23.85	5.7573e-07	7.1174e-07	21.242	6.2268	7.5746	2.5701	6.468e-07	2.2024	4.3187e-05	-3.7756e-05	-1.6389e-05	74.58	-2.5024e-07	2.4951e-06	64.79	28.888	-4.4365e-07	-5.1956e-07	25.806	7.5433	9.1605	3.1274	-3.1257e-07	2.6583	222.155	54.108	56.872	-18.092	220.017	328.344	-21.085	-13.503	135.909	135.994	-17.761	-13.043	-9.840	-4.903	113.713	-9.542	-8191	255	
1456.113	1	1	0	0	0.16407	0.20761	0.1288	0.31755	0.25867	0.17759	0.14634	0.093473	0.22201	0.13311	0.087902	0.012217	0.13789	0.10045	0.13242	0.28388	-2.7812	-2.7438	-3.2604	-2.9708	-2.8979	-3.2333	-2.8708	-2.9729	-3.1708	-2.8937	-3.2333	-3.3125	-2.9396	-3.2958	-3.0875	-3.0167	194.230	233.823	-22.673	310.561	158.276	232.986	-28.958	80.199	3.990	166.697	183.946	303.782	161.682	231.164	233.114	200.068	2.2018e-05	3.3229e-05	1.397e-05	61.364	6.6616e-07	9.3213e-07	52.61	23.476	6.7503e-07	1.7545e-07	20.626	6.0937	7.417	2.511	1.6863e-07	2.1791	9.2801e-05	-2.8342e-05	-1.3282e-05	73.66	-3.3215e-07	4.382e-06	63.311	28.41	-4.9682e-07	-5.1714e-07	24.993	7.3445	9.0057	3.0699	-3.8547e-07	2.6135	216.858	1.772	74.827	-18.482	189.002	303.432	-20.270	-13.609	124.658	-24.491	-17.573	-12.654	-10.275	-5.071	-5.167	-9.531	-8191	255	
1456.232	1	1	0	0	0.24735	0.20939	0.1135	0.34465	0.079355	0.23594	0.20737	0.11067	0.057145	0.15545	0.15815	0.38123	0.049123	0.10171	0.10887	0.2943	-2.8438	-2.8	-3.0708	-3.15	-2.9042	-3.0708	-2.8167	-3.0104	-3.3542	-2.8667	-3.075	-3.35	-2.7562	-3.2146	-3.1	-3.0062	99.552	72.490	311.546	228.029	306.832	292.346	-10.064	81.957	282.386	318.743	252.155	95.974	302.663	131.123	41.019	61.693	3.0605e-05	1.5891e-05	1.1021e-05	60.75	5.8178e-07	1.1645e-07	52.844	23.561	3.8227e-07	2.5391e-08	20.745	6.0717	7.4447	2.5109	7.348e-07	2.177	0.00016193	-4.6158e-05	-1.3282e-05	73.252	-2.8535e-07	2.5092e-06	63.202	28.428	-5.2432e-07	-4.1638e-07	24.965	7.4038	8.9977	3.0697	-4.0943e-07	2.6264	214.981	180.772	65.133	-18.344	143.483	11.786	-20.753	-13.817	207.154	283.869	-17.512	-13.245	-10.435	-5.123	183.803	-10.324	-8191	255	
1456.304	1	1	0	0	0.12238	0.050893	0.26169	0.28464	0.25315	0.048189	0.36478	0.26007	0.13179	0.19942	0.3031	0.18821	0.33773	0.094728	0.12909	0.13185	-2.8417	-2.7687	-3.1917	-3.1771	-2.8083	-3.3771	-3.1125	-2.9208	-3.3542	-3.0229	-3.0687	-3.3271	-2.9458	-3.1708	-3.2354	-3.0187	250.072	242.377	172.914	0.389	63.612	264.668	153.300	230.945	209.772	28.326	321.747	52.928	299.890	187.146	136.182	-22.194	2.6224e-05	5.5254e-05	1.6015e-05	61.1	2.5596e-07	1.2755e-06	53.299	23.65	4.8115e-07	6.4131e-07	20.662	6.2158	7.5006	2.562	5.5759e-07	2.1998	9.8036e-05	-4.0186e-05	-1.5249e-05	73.497	-3.1325e-07	4.5541e-06	63.849	28.511	-4.4457e-07	-6.883e-07	25.037	7.5503	9.0878	3.1182	-5.6721e-07	2.6694	210.398	104.583	83.785	-18.617	237.363	310.954	-20.802	-13.374	99.983	90.661	-17.751	-13.170	-10.106	-5.243	206.345	-9.445	-8191	255	
1456.400	1	1	0	0	0.25094	0.1397	0.043981	0.27828	0.28107	0.1029	0.19011	0.092677	0.10212	0.11334	0.1877	0.064739	0.14926	0.10717	0.083665	0.067653	-2.9458	-3.1396	-3.0958	-3.2292	-3.0083	-3.2125	-3.2687	-2.6375	-3.4229	-3.1208	-2.85	-3.2458	-2.6167	-3.2042	-3.1479	-2.8708	-23.980	258.509	3.055	59.890	70.990	130.161	200.718	-20.001	299.423	61.986	262.789	310.142	240.051	64.121	94.844	26.101	3.0906e-05	2.8264e-05	2.2408e-05	61.543	4.5328e-07	8.4319e-07	53.575	23.741	6.8657e-07	1.9182e-07	20.772	6.1417	7.4789	2.5486	4.1841e-07	2.2067	0.00016778	-4.6056e-05	-1.3396e-05	74.166	-2.2594e-07	2.5587e-06	64.334	28.533	-4.9223e-07	-6.6281e-07	24.873	7.5441	9.0292	3.1055	-5.2327e-07	2.6369	232.981	90.322	65.042	-18.604	195.728	-7.484	-20.703	-13.432	168.454	-10.371	-17.672	-12.689	-10.304	-5.193	161.190	-10.283	-8191	255	
1456.520	1	1	0	0	0.16822	0.019796	0.21216	0.16134	0.031004	0.27012	0.25716	0.053584	0.28263	0.24499	0.1588	0.14969	0.26825	0.29043	0.202	0.13641	-2.9667	-3.1604	-2.7979	-3.2875	-3.0563	-3.2208	-3.1937	-2.8583	-3.1583	-3.0479	-2.9354	-3.3417	-3.0458	-2.9896	-3.1646	-2.8875	98.966	190.246	-1.013	198.751	325.694	204.684	272.229	29.208	144.358	218.393	38.203	196.778	201.834	-19.549	193.829	238.828	2.6668e-05	9.7711e-05	1.218e-05	61.275	4.6363e-07	1.732e-06	52.749	23.33	2.7988e-07	5.6184e-07	20.39	6.0375	7.4073	2.4942	1.1748e-06	2.1582	0.00010296	-5.3851e-05	-1.1002e-05	73.188	-3.6726e-07	1.9895e-06	63.278	28.218	-4.849e-07	-6.883e-07	24.623	7.3836	8.9495	3.0612	-4.4438e-07	2.6013	234.600	67.174	78.075	-18.453	158.883	15.474	-20.837	-13.345	212.917	239.181	-17.318	-13.313	-10.000	-5.133	144.000	-10.657	-8191	255	
1456.617	1	1	0	0	0.085486	0.14003	0.42066	0.081692	0.066608	0.085449	0.12223	0.079563	0.16493	0.12954	0.28097	0.19136	0.24002	0.024263	0.15564	0.14467	-2.7062	-3.1729	-2.9188	-3.2104	-2.8083	-2.95	-3.2604	-2.9417	-3.2271	-3.1917	-2.7854	-3.2917	-2.8792	-2.9292	-3.2646	-2.9437	129.193	281.451	-14.471	173.037	-18.494	-2.465	-25.814	312.865	207.913	169.025	272.029	72.703	121.586	301.430	245.125	220.792	2.4112e-05	4.5445e-05	5.6563e-06	61.032	8.4888e-07	4.2939e-07	52.692	23.371	4.2403e-07	3.0902e-07	20.65	6.0615	7.3473	2.5119	5.1617e-07	2.1719	0.00016921	-5.2434e-05	-1.4337e-05	72.978	-3.7896e-07	-5.9519e-07	63.46	28.205	-4.1157e-07	-7.5143e-07	24.65	7.4429	8.9177	3.0512	-6.0915e-07	2.5998	219.232	56.066	17.770	-18.554	157.777	305.013	-20.859	-13.459	223.754	153.454	-17.312	-13.108	-9.970	-4.755	155.384	-10.186	-8191	255	
1456.713	1	1	0	0	0.31388	0.083045	0.27072	0.090961	0.24244	0.2108	0.07639	0.14004	0.16035	0.037838	0.1554	0.02536	0.21722	0.17221	0.06354	0.18244	-2.7438	-2.9292	-2.9104	-3.3042	-2.8167	-3.0458	-3.4479	-2.7896	-3.1729	-3.3208	-2.675	-3.3458	-3.1479	-2.8792	-3.3354	-3.0771	217.002	189.927	198.498	117.218	148.203	78.869	170.980	32.269	19.169	173.407	125.153	103.930	21.006	141.603	95.250	131.709	2.1273e-05	4.2902e-05	1.5733e-05	61.225	1.3965e-07	4.7209e-07	52.93	23.382	3.9827e-07	8.7833e-07	20.626	6.1625	7.392	2.5287	4.8332e-07	2.1916	0.00010154	-5.1624e-05	-9.4914e-06	73.139	-3.7716e-07	-5.1151e-07	64.104	28.334	-4.2532e-07	-7.1986e-07	24.916	7.5208	9.0255	3.0915	-6.2613e-07	2.6433	217.087	83.806	6.669	-18.530	177.330	164.096	-20.671	-13.010	143.251	86.183	-17.584	-12.963	-9.853	-5.292	183.065	-9.958	-8191	255	
1456.809	1	1	0	0	0.17191	0.035503	0.05393	0.089206	0.091134	0.10326	0.038272	0.14625	0.04421	0.14997	0.13978	0.082392	0.14694	0.18723	0.1632	0.18987	-2.7667	-3.4771	-2.8875	-3.1625	-3.0958	-2.9604	-3.3521	-3.1167	-2.9583	-3.4458	-3.0062	-3.2021	-3.3063	-2.6167	-3.4292	-3.1146	207.705	143.373	274.380	297.669	169.309	283.458	56.390	249.432	284.245	167.553	35.587	155.455	174.199	179.490	293.025	135.050	1.5103e-05	9.2516e-05	1.345e-05	61.296	2.4833e-07	7.5492e-07	52.751	23.403	4.774e-07	5.406e-07	20.714	6.032	7.3629	2.5056	2.1359e-07	2.142	8.0638e-05	0.00010456	-1.237e-05	73.325	-4.5997e-07	-6.2112e-07	63.733	28.245	-3.7582e-07	-7.0408e-07	24.682	7.4296	8.9258	3.0535	-5.3626e-07	2.5752	260.375	141.202	52.584	-18.503	152.117	139.684	-20.707	-13.558	157.407	131.056	-17.754	-12.986	-9.629	-5.069	301.657	-9.570	-8191	255	
1456.928	1	1	0	0	0.045141	0.099027	0.047244	0.17209	0.097969	0.1889	0.11192	0.20599	0.19455	0.055144	0.097609	0.11506	0.20901	0.16902	0.28898	0.10341	-2.4083	-3.2458	-3.0062	-3.1813	-3.2542	-3.0062	-3.2771	-3.0812	-3.1917	-3.4458	-2.9417	-3.25	-3.1854	-2.7708	-3.3354	-3.1417	33.981	-13.562	49.235	119.349	275.864	313.338	133.825	53.824	252.796	278.915	206.483	268.923	62.748	-16.001	253.560	-20.562	1.1031e-05	5.6348e-05	1.4152e-05	60.224	3.4972e-07	2.6645e-07	52.059	23.158	3.6649e-07	2.7548e-07	20.205	6.0196	7.3206	2.4857	5.5624e-07	2.1414	1.4627e-06	0.0001988	-1.5078e-05	72.486	-5.0678e-07	-5.8576e-07	63.258	28.043	-3.9415e-07	-9.6144e-07	24.519	7.3616	8.9009	3.0376	-5.3526e-07	2.5715	229.494	167.756	17.967	-18.430	138.929	246.263	-20.798	-13.627	198.507	83.730	-17.743	-12.638	-9.869	-4.949	127.832	-9.727	-8191	255	
1457.001	1	1	0	0	0.14535	0.26031	0.17625	0.16692	0.15729	0.25647	0.2078	0.33631	0.22427	0.26531	0.046824	0.066911	0.089259	0.2686	0.11678	0.16696	-2.4958	-3.3146	-3.225	-2.9688	-3.15	-3.0167	-3.3354	-3.1417	-2.9708	-3.4375	-2.8688	-3.0896	-3.3583	-2.8521	-3.2354	-3.1979	264.754	234.085	193.629	56.929	2.843	37.461	307.121	319.407	194.439	209.116	105.088	118.222	187.129	50.072	45.200	171.870	1.6115e-05	7.8489e-05	1.0896e-05	60.394	2.5195e-07	3.2589e-07	52.256	23.297	2.4649e-07	4.6736e-08	20.481	6.1041	7.4335	2.509	6.4344e-07	2.1292	7.6982e-06	0.00038485	-1.4052e-05	72.563	-5.5359e-07	-6.0108e-07	63.197	28.088	-3.9232e-07	-8.4004e-07	24.655	7.3909	8.9931	3.0441	-4.8033e-07	2.5885	257.177	146.413	77.963	-18.545	174.667	156.359	-20.727	-13.600	152.016	207.549	-17.371	-12.450	-10.191	-5.387	171.391	-10.280	-8191	255	
1457.096	1	1	0	0	0.13651	0.14054	0.087271	0.041949	0.091292	0.074265	0.10939	0.10746	0.14958	0.17253	0.11961	0.19652	0.18835	0.12558	0.12424	0.18684	-2.4875	-3.2958	-2.9521	-2.9771	-3.2458	-2.8583	-3.2479	-3.1708	-2.7646	-3.325	-3.2125	-3.0167	-3.2333	-2.8646	-3.1271	-3.3333	190.750	5.977	209.056	155.504	294.876	49.613	38.909	83.965	320.072	12.004	200.557	201.665	319.987	5.682	298.356	94.742	7.6419e-06	7.9266e-05	1.0922e-05	60.965	3.0219e-08	6.4954e-07	53.394	23.558	5.5906e-07	3.909e-07	20.955	6.2176	7.5979	2.5493	1.4894e-07	2.1951	6.428e-06	0.00020639	-1.0974e-05	73.111	-4.8788e-07	-4.9972e-07	64.501	28.329	-1.43e-07	-8.279e-07	25.139	7.5311	9.1861	3.1144	-5.8918e-07	2.6595	250.713	153.982	144.390	-18.325	113.650	190.441	-21.199	-13.353	136.396	101.870	-17.767	-12.894	-10.208	-4.875	7.282	-9.379	-8191	255	
1457.194	1	1	0	0	0.19782	0.17829	0.14084	0.16958	0.12042	0.17661	0.24677	0.19272	0.083553	0.047637	0.070199	0.14423	0.11931	0.13412	0.14151	0.20459	-2.3438	-3.2604	-3.0438	-2.8812	-3.3021	-3.0583	-3.0854	-3.0729	-2.925	-3.1542	-3.0083	-2.6937	-3.2792	-2.8667	-3.0292	-3.1979	216.575	200.123	196.768	255.878	-12.128	220.835	24.940	78.556	315.820	131.277	315.828	169.637	281.317	49.286	322.063	159.344	1.2212e-05	7.9955e-05	2.7845e-06	61.482	4.4306e-07	4.9628e-07	52.982	23.463	9.8453e-07	2.9188e-07	20.591	6.0776	7.511	2.5413	3.1157e-07	2.1786	6.9668e-06	0.0003886	-1.6161e-05	73.389	-4.7528e-07	-5.7633e-07	63.641	28.288	-3.1532e-07	-6.8223e-07	24.751	7.3898	9.1531	3.1006	-4.4239e-07	2.6248	232.693	167.643	197.754	-18.612	291.551	104.006	-20.532	-13.342	158.048	19.422	-17.851	-13.024	-9.915	-5.077	196.364	-10.029	-8191	255	
1457.312	1	1	0	0	0.13271	0.13683	0.053488	0.24177	0.1296	0.13624	0.041701	0.10427	0.059615	0.018164	0.0289	0.17863	0.2095	0.074698	0.14411	0.15531	-2.4562	-3.1312	-3.1896	-2.8167	-3.3083	-3.3937	-3.0646	-3.1312	-2.7917	-3.3729	-3.1479	-3.0521	-3.2625	-2.7542	-2.9813	-3.3917	299.550	164.209	64.353	-27.335	165.840	149.583	123.495	137.255	94.179	221.817	42.138	310.992	1.243	217.472	17.789	253.529	1.1544e-05	3.0973e-05	3.6513e-06	61.13	2.9426e-07	3.0299e-07	52.697	23.511	1.277e-07	5.4195e-07	20.77	6.1105	7.4745	2.5621	4.6182e-07	2.1937	1.5396e-06	0.00021469	-1.4622e-05	73.247	-5.7069e-07	-6.6708e-07	63.392	28.444	-2.5941e-07	-6.7859e-07	24.769	7.3817	9.1114	3.1094	-3.4252e-07	2.6366	239.784	258.141	145.157	-18.255	213.503	144.398	-20.706	-13.592	299.682	93.422	-17.753	-12.924	-9.666	-4.926	175.231	-9.734	-8191	255	
1457.409	1	1	0	0	0.15932	0.25969	0.19716	0.25467	0.20399	0.20537	0.13747	0.1819	0.11521	0.33379	0.087217	0.091018	0.20957	0.18962	0.17182	0.18689	-2.3229	-2.875	-3.1167	-2.9417	-3.225	-2.9208	-2.8646	-3.2021	-2.8667	-3.1917	-3.0042	-2.9396	-3.3688	-3.0521	-2.9646	-3.3667	132.102	304.532	122.609	265.064	211.455	10.153	229.796	76.121	15.347	32.109	319.622	124.290	-21.558	19.840	133.630	214.361	9.6037e-06	0.00011321	1.027e-05	61.281	5.4125e-07	8.5485e-07	53.046	23.439	5.0963e-07	6.8866e-07	20.751	6.1552	7.5705	2.5834	3.1161e-07	2.228	1.0777e-06	0.00040651	-2.0608e-05	73.344	-5.6979e-07	-7.2484e-07	63.65	28.434	-3.1624e-07	-7.5507e-07	24.939	7.4451	9.2392	3.1409	-3.615e-07	2.6765	234.347	183.051	104.115	-18.629	126.035	79.451	-20.816	-13.750	119.343	40.101	-17.090	-13.241	-9.773	-5.070	115.500	-9.836	-8191	255	
1457.505	1	1	0	0	0.28225	0.16316	0.18361	0.23308	0.091744	0.26748	0.22074	0.16316	0.17063	0.21546	0.21383	0.077309	0.18919	0.096318	0.016417	0.10613	-2.5	-2.9917	-3.2604	-3.0521	-3.1875	-3.0583	-2.9833	-3.3083	-2.8042	-2.9521	-3.1354	-2.8625	-3.0792	-3.0083	-2.9375	-3.4	-29.377	278.359	152.007	64.337	-27.350	312.801	169.868	319.151	307.655	319.921	159.971	304.491	246.599	70.946	217.922	-7.902	1.4626e-05	5.9173e-05	1.7905e-05	61.711	7.0204e-07	7.1229e-07	54.192	23.904	3.3745e-07	1.4337e-07	21.195	6.2764	7.5923	2.6157	2.874e-07	2.2634	5.3887e-07	0.00022613	-2.2004e-05	73.964	-4.6537e-07	-7.5784e-07	64.982	29.059	-3.6666e-07	-5.839e-07	25.349	7.5849	9.2442	3.1938	-3.9345e-07	2.7331	218.370	15.009	39.248	-18.391	152.481	155.383	-20.339	-13.380	235.580	34.293	-17.737	-12.936	-9.788	-4.953	101.889	-10.688	-8191	255	
1457.601	1	1	0	0	0.041871	0.28155	0.062119	0.082072	0.082499	0.18263	0.16701	0.31616	0.17897	0.12812	0.041929	0.07558	0.17653	0.015809	0.20334	0.14539	-2.4188	-2.9771	-3.325	-2.9354	-3.1688	-3.0875	-3.05	-3.3417	-2.9625	-2.9479	-3.3312	-2.7938	-3.2875	-3.3521	-2.85	-3.0687	84.345	-0.649	127.568	229.480	286.763	11.246	110.642	59.644	151.036	106.739	-20.887	14.727	326.754	45.179	207.551	158.323	1.3538e-05	9.0161e-05	3.6694e-05	61.669	4.6316e-07	3.7475e-07	53.815	23.624	3.0607e-07	6.6901e-07	20.971	6.2303	7.6173	2.6534	3.4862e-07	2.2973	1.8091e-06	0.00012116	4.7543e-05	74.128	-4.7348e-07	-8.5212e-07	64.42	28.719	-4.409e-07	-6.7495e-07	25.004	7.5455	9.3345	3.234	-4.8333e-07	2.7754	221.667	236.081	167.344	-18.523	89.063	17.103	-20.686	-13.662	173.280	109.428	-17.629	-12.424	-9.664	-4.843	149.050	-9.813	-8191	255	
1457.697	1	1	0	0	0.22561	0.22351	0.1736	0.24795	0.25804	0.15359	0.16799	0.10962	0.15517	0.071628	0.25065	0.27593	0.24497	0.1411	0.3863	0.23665	-2.7562	-3.0708	-3.1646	-2.7479	-3.1063	-3.2812	-2.9229	-3.2313	-3.0354	-2.9958	-3.2625	-2.9646	-2.9062	-3.0687	-2.8	-3.1875	130.462	224.744	92.442	43.624	-14.360	125.328	147.350	263.506	274.379	289.725	195.229	262.752	90.263	156.332	47.024	228.102	1.9452e-05	7.9112e-05	1.2726e-05	62.304	3.5088e-07	5.6858e-07	54.588	24.034	3.8988e-07	6.185e-07	21.146	6.4238	7.7424	2.7492	2.2168e-07	2.392	-1.8861e-06	-5.628e-05	6.0312e-05	74.983	-3.7086e-07	-8.5684e-07	65.641	29.276	-4.3907e-07	-6.8709e-07	25.505	7.8059	9.4541	3.3359	-3.605e-07	2.8897	215.502	-27.262	219.580	-18.649	207.055	115.004	-20.771	-13.601	265.905	69.397	-16.975	-12.984	-10.072	-4.970	75.409	-9.703	-8191	255	
1457.793	1	1	0	0	0.18035	0.16442	0.22745	0.11649	0.023463	0.1315	0.059959	0.18957	0.090459	0.16239	0.17912	0.048719	0.066812	0.11359	0.25696	0.098253	-2.7167	-2.8812	-3.3729	-2.8812	-2.85	-3.1479	-2.8042	-3.2458	-3.0708	-2.8438	-3.0271	-2.875	-3.1104	-3.3479	-2.8625	-3.1833	186.402	181.419	318.715	123.338	-7.792	257.715	-25.320	0.279	91.427	-13.112	222.756	174.310	83.701	-31.253	39.770	63.433	1.6499e-05	2.9582e-05	3.7808e-05	63.881	5.8426e-07	5.6226e-07	56.28	24.362	2.7442e-07	8.7112e-07	21.626	6.5229	7.864	2.7643	5.225e-07	2.442	-4.234e-06	-6.0633e-05	0.00011273	76.306	-4.0957e-07	-7.048e-07	67.06	29.568	-4.684e-07	-6.3489e-07	26.032	7.9428	9.5633	3.4128	-3.7049e-07	2.9549	229.119	303.578	229.604	-18.280	100.955	76.066	-20.757	-13.514	286.055	87.068	-17.939	-12.852	-9.914	-4.526	119.706	-10.118	-8191	255	
1457.914	1	1	0	0	0.10713	0.25567	0.20803	0.14261	0.24657	0.19785	0.1733	0.1302	0.14005	0.22986	0.10233	0.24487	0.1742	0.20943	0.22495	0.12786	-2.825	-2.7042	-3.1375	-2.8417	-2.9667	-3.3271	-2.8	-3.0958	-3.4167	-2.8542	-3.2062	-3.1292	-3.0417	-3.3604	-3.0833	-3.1125	38.914	-20.844	286.113	152.478	-22.576	221.819	271.059	298.538	35.367	-7.499	-1.662	235.038	253.530	38.590	317.094	250.292	1.3149e-05	2.0993e-05	2.2579e-05	64.002	7.4306e-07	3.4525e-07	56.362	24.594	4.6647e-07	5.2809e-07	21.413	6.4514	7.8011	2.7463	3.679e-07	2.3944	-4.7344e-06	-4.5955e-05	6.473e-05	76.99	-3.2405e-07	-8.4623e-07	67.643	29.798	-5.9123e-07	-5.5113e-07	25.832	7.8252	9.4423	3.3797	-4.0644e-07	2.8896	259.313	31.700	285.826	-18.150	205.241	122.951	-20.521	-13.889	180.921	102.950	-17.266	-12.994	-10.433	-5.040	138.678	-9.490	-8191	255	
1458.008	1	1	0	0	0.062324	0.056915	0.12931	0.066655	0.26594	0.15054	0.41731	0.11611	0.086291	0.23303	0.13477	0.076143	0.09321	0.12381	0.11887	0.16081	-2.6292	-2.6917	-3.2167	-3.0771	-2.6771	-3.4625	-3.0687	-2.9292	-3.2083	-2.8563	-3.4917	-3.0042	-2.9229	-3.4021	-2.9208	-2.8667	101.757	274.595	-14.108	318.977	65.665	82.163	152.767	118.555	152.985	234.987	122.296	-6.183	-21.514	-2.508	103.245	142.157	1.3295e-05	3.7163e-05	3.099e-05	63.546	6.844e-07	3.2857e-07	54.78	24.123	2.6886e-07	8.3968e-07	21.151	6.368	7.7524	2.726	4.5446e-07	2.3798	-1.5396e-07	-4.8283e-05	0.00011928	76.032	-3.6186e-07	-9.2048e-07	65.837	29.283	-4.8215e-07	-6.2275e-07	25.482	7.7551	9.4106	3.3796	-4.8533e-07	2.8652	259.572	9.770	289.650	-18.702	116.059	98.045	-20.558	-13.740	284.207	154.984	-17.508	-12.933	-9.257	-4.553	43.188	-10.085	-8191	255	
1458.104	1	1	0	0	0.21479	0.077824	0.16096	0.19258	0.20088	0.11523	0.062835	0.071327	0.17228	0.10569	0.088725	0.35401	0.17311	0.10116	0.051209	0.072035	-2.9375	-2.8688	-3.0938	-3.1813	-2.9437	-3.2	-3.0208	-3.0792	-3.0708	-2.7708	-3.3	-3.0417	-2.9125	-3.1875	-2.9437	-3.1125	320.768	-2.900	112.667	326.777	277.568	136.965	77.626	49.929	37.050	29.988	251.789	152.100	30.116	22.347	86.244	277.865	1.8277e-05	2.951e-05	1.2384e-05	63.295	7.6935e-07	8.8292e-07	55.672	24.229	1.7824e-07	4.7485e-07	21.456	6.4526	7.7525	2.7512	1.1876e-07	2.406	-5.6582e-06	-5.1725e-05	6.3818e-05	75.928	-3.4205e-07	-7.1069e-07	66.341	29.233	1.9992e-06	-4.2124e-07	25.723	7.818	9.4253	3.3765	-4.4638e-07	2.898	238.874	25.607	208.686	-18.528	130.466	126.218	-20.441	-13.425	105.246	128.464	-17.603	-12.862	-9.797	-4.940	309.466	-10.046	-8191	255	
1458.200	1	1	0	0	0.14127	0.19192	0.20321	0.13543	0.084202	0.043194	0.19225	0.16132	0.16818	0.22416	0.088912	0.094118	0.17569	0.045119	0.26425	0.13821	-3.1354	-2.8125	-2.9917	-3.0229	-3.0104	-3.575	-3.0375	-2.9625	-3.4479	-2.9083	-3	-3.1979	-2.95	-3.2542	-3.1688	-3.0854	132.065	46.612	250.713	264.153	8.086	93.603	210.352	75.591	86.515	159.714	214.068	165.224	290.852	-22.435	106.142	274.727	1.0208e-05	1.6244e-05	4.0687e-05	63.758	3.1578e-07	7.0278e-07	56.374	24.453	1.3716e-06	3.2056e-07	21.72	6.6013	7.8695	2.7728	6.543e-07	2.4416	-1.0354e-05	-5.5369e-05	0.00012136	76.551	-3.9696e-07	-8.8277e-07	67.239	29.511	2.0203e-06	-6.6524e-07	26.194	7.9645	9.545	3.4295	-5.9318e-07	2.9424	243.956	12.718	299.092	-18.840	173.214	119.268	-20.811	-13.776	135.389	-18.987	-17.647	-13.355	-10.218	-4.747	189.890	-9.746	-8191	255	
1458.297	1	1	0	0	0.41858	0.10982	0.23161	0.24249	0.14105	0.20399	0.20508	0.14865	0.071245	0.092988	0.18452	0.15653	0.1036	0.018843	0.10688	0.093205	-2.925	-2.8104	-3.025	-3.3417	-2.8896	-3.4125	-3.2917	-2.8792	-3.3958	-2.9375	-2.8583	-3.2375	-2.6688	-3.0208	-3.2375	-2.7979	200.172	262.027	317.237	108.647	78.981	76.822	130.912	254.847	219.641	213.007	12.032	58.477	110.083	60.850	79.432	-11.837	1.494e-05	1.1597e-05	1.4168e-05	64.147	3.5779e-07	5.8182e-07	56.222	24.311	1.4553e-06	6.3769e-07	21.395	6.3807	7.7338	2.7122	1.8592e-07	2.3556	-5.5812e-06	-3.9173e-05	5.1134e-05	76.551	-3.5196e-07	-6.223e-07	66.936	29.306	3.8655e-06	-7.2351e-07	25.695	7.7872	9.4089	3.3404	-4.8932e-07	2.8449	225.701	43.412	303.001	-18.376	133.274	213.320	-20.642	-13.161	108.198	87.170	-17.538	-13.044	-10.197	-5.273	77.146	-10.025	-8191	255	
1458.393	1	1	0	0	0.20431	0.10057	0.27282	0.30728	0.31385	0.37502	0.17197	0.094223	0.25911	0.078059	0.18027	0.19895	0.19783	0.10729	0.10115	0.079044	-3.125	-3.1125	-3.0146	-3.3187	-2.8604	-3.1646	-3.3771	-2.7542	-3.1875	-3.1188	-2.9292	-3.1375	-2.8708	-3.3271	-3.2667	-2.8417	300.973	24.301	156.904	316.533	90.340	258.345	16.537	33.151	150.125	86.912	58.722	12.696	230.347	126.560	193.139	291.780	1.8391e-05	4.9643e-05	3.1361e-05	62.967	4.0148e-07	5.5895e-07	54.871	24.029	7.7945e-07	6.2099e-07	21.211	6.3925	7.7589	2.6944	3.1953e-07	2.3408	-3.1562e-06	-6.1746e-05	1.2057e-05	76.119	-3.6636e-07	-7.3544e-07	65.911	29.098	2.067e-06	-7.3564e-07	25.592	7.7763	9.402	3.3341	-6.6208e-07	2.8372	242.584	85.946	312.345	-18.483	212.997	127.417	-21.145	-13.288	149.329	59.410	-17.412	-12.979	-9.954	-4.889	2.695	-9.631	-8191	255	
1458.489	1	1	0	0	0.13453	0.12541	0.12847	0.060204	0.22879	0.17178	0.01444	0.10822	0.13967	0.048366	0.12555	0.050659	0.11282	0.068416	0.15966	0.29001	-3.1083	-3.0417	-2.9583	-3.1646	-2.9562	-3.2792	-3.2042	-2.725	-3.2604	-3.2562	-3.0312	-3.3438	-3	-3	-3.2	-3	52.361	294.456	286.605	42.101	311.917	34.132	232.300	239.855	139.342	166.158	8.668	172.782	94.973	316.808	139.779	186.461	1.4993e-05	3.9872e-05	7.7785e-06	63.274	4.7967e-07	1.6511e-07	55.605	24.264	1.202e-06	5.2315e-07	21.368	6.4852	7.715	2.6961	1.2439e-06	2.3889	-7.5442e-06	-5.7596e-05	-1.4707e-05	76.325	-3.6456e-07	-7.6609e-07	66.241	29.225	3.8398e-06	-7.4536e-07	25.78	7.8269	9.4217	3.3196	-3.3354e-07	2.8748	242.883	9.810	63.881	-18.650	121.944	324.056	-20.463	-13.663	144.811	89.587	-17.898	-13.118	-10.099	-4.653	208.759	-9.683	-8191	255	
1458.610	1	1	0	0	0.07105	0.22031	0.20266	0.10363	0.14248	0.40675	0.18331	0.094789	0.013511	0.15971	0.21202	0.11731	0.19911	0.12074	0.16186	0.067439	-2.9667	-2.9646	-2.8688	-3.4667	-2.9562	-2.8187	-3.3354	-2.8625	-3.1562	-3.175	-2.6813	-3.275	-3.0646	-2.8667	-3.1542	-3.0021	244.825	110.166	135.232	-2.773	72.147	129.980	249.412	101.887	289.186	1.599	324.391	117.852	324.204	71.254	116.851	157.660	2.1798e-05	2.8501e-05	6.2606e-06	63.696	3.4755e-07	8.7501e-07	55.867	24.268	8.3488e-07	6.645e-07	21.742	6.5543	7.8778	2.7271	1.2703e-06	2.3688	-2.8483e-06	-6.5896e-05	-1.1202e-05	77.087	-4.0777e-07	-6.5648e-07	67.073	29.398	2.2393e-06	-8.0605e-07	26.103	7.9445	9.4821	3.3311	2.5475e-06	2.87	237.619	53.374	-26.119	-18.659	140.816	119.764	-20.622	-13.603	138.000	143.563	-17.565	-13.179	-10.050	-4.632	217.613	-9.778	-8191	255	
1458.706	1	1	0	0	0.054052	0.2054	0.29328	0.28097	0.12595	0.19377	0.17778	0.031647	0.042887	0.11194	0.1196	0.092561	0.12392	0.1665	0.20847	0.19506	-2.7958	-3.1604	-2.6708	-3.3771	-3.1729	-2.9083	-3.1583	-2.8646	-3.2292	-3.4667	-2.7979	-3.2729	-3.1458	-2.8729	-3.2333	-2.8563	21.584	-9.922	301.739	132.668	11.746	92.567	215.431	116.998	225.177	8.840	257.678	103.917	194.916	42.894	171.378	103.599	1.6124e-05	4.6968e-05	6.6858e-06	62.955	8.0937e-07	6.2227e-07	54.909	24.012	1.7263e-06	8.5063e-07	21.153	6.3358	7.6996	2.6925	5.8424e-07	2.3419	-1.9245e-07	-7.2881e-05	-1.0318e-05	76.058	-3.8526e-07	-7.4369e-07	65.725	29.012	3.7967e-06	-8.0969e-07	25.348	7.6901	9.3344	3.2918	2.189e-06	2.8218	212.053	-13.440	-6.245	-18.148	111.068	128.811	-21.024	-13.596	150.227	156.821	-17.702	-12.692	-9.930	-5.033	213.611	-9.851	-8191	255	
1458.802	1	1	0	0	0.028033	0.075968	0.27134	0.19436	0.24285	0.25686	0.12024	0.24412	0.23445	0.23524	0.033365	0.13329	0.12084	0.20072	0.15727	0.16693	-2.7875	-3.2354	-2.6854	-3.1458	-3.0208	-2.8479	-3.2917	-3.0271	-3.1521	-3.5062	-2.7667	-3.15	-3.2292	-2.9625	-3.3917	-3.0146	325.009	112.875	179.251	187.378	322.900	105.196	148.901	258.455	312.718	165.407	264.093	145.779	-14.619	81.976	188.457	71.628	2.0714e-05	4.2793e-05	1.4125e-05	62.874	8.0109e-07	3.6335e-07	55.083	23.897	5.5096e-07	1.0448e-06	21.15	6.363	7.719	2.6857	1.5262e-06	2.3407	8.468e-07	-6.7212e-05	-1.4907e-05	76.154	-4.5457e-07	-6.2819e-07	65.675	28.984	1.4364e-06	-5.3049e-07	25.496	7.7197	9.3419	3.2882	3.9275e-06	2.834	222.936	96.278	51.372	-18.842	79.347	65.154	-20.896	-13.555	114.575	192.732	-17.501	-12.761	-9.961	-4.740	236.105	-9.657	-8191	255	
1458.874	1	1	0	0	0.21357	0.108	0.18096	0.2952	0.11292	0.090975	0.10562	0.17226	0.10719	0.30285	0.015996	0.15236	0.14639	0.056934	0.077784	0.090945	-2.5	-3.2396	-2.7729	-3.1312	-3.3979	-3.0625	-3.3812	-2.975	-2.9437	-3.425	-3.0208	-3.2042	-3.175	-2.7354	-3.2646	-3.2604	262.662	316.432	191.204	29.085	265.958	305.212	23.097	233.132	238.977	213.921	242.576	69.345	213.802	176.911	327.552	19.772	2.0252e-05	7.1649e-05	1.4867e-05	63.414	1.4584e-07	7.0807e-07	55.194	24.198	1.1476e-06	1.5622e-06	21.41	6.4546	7.7614	2.7264	6.4369e-07	2.4152	3.3487e-06	-7.6626e-05	-1.599e-05	76.362	-5.0138e-07	-7.3662e-07	66.349	29.093	7.6998e-08	3.1514e-06	25.728	7.8492	9.4032	3.3114	2.3258e-06	2.8882	236.852	50.046	102.549	-18.990	190.976	130.565	-20.358	-13.636	128.295	146.174	-17.547	-12.463	-9.358	-4.629	232.749	-9.215	-8191	255	
1458.994	1	1	0	0	0.19455	0.086811	0.12749	0.13567	0.14775	0.18555	0.24333	0.28341	0.15967	0.29035	0.082924	0.11438	0.21851	0.18908	0.0316	0.043733	-2.6896	-3.0146	-2.8958	-3.0771	-3.2771	-2.8792	-3.4125	-2.9708	-2.8375	-3.4062	-2.9354	-3.1875	-3.3542	-2.7542	-3.1833	-3.2062	258.349	293.514	201.375	328.536	63.925	129.265	303.191	165.868	152.421	235.036	196.655	291.318	217.102	327.702	106.479	134.270	1.1456e-05	2.0031e-05	1.2144e-05	63.772	3.8405e-07	3.3431e-07	56.236	24.309	2.5028e-07	1.0053e-06	21.449	6.4514	7.7926	2.7376	5.0012e-07	2.3552	1.1162e-06	-6.7617e-05	-1.0774e-05	77.273	-6.04e-07	-5.398e-07	67.559	29.325	-2.5116e-07	2.5735e-06	25.809	7.828	9.3955	3.3347	4.0104e-06	2.856	238.479	245.644	-17.527	-18.653	178.529	132.097	-20.705	-13.425	240.784	88.595	-17.444	-13.044	-10.116	-4.822	325.528	-9.712	-8191	255	
1459.089	1	1	0	0	0.20174	0.36621	0.12059	0.23271	0.16824	0.16113	0.31171	0.25726	0.19517	0.049891	0.14196	0.063463	0.14105	0.20581	0.34984	0.19974	-2.5875	-3.5667	-2.9458	-2.9396	-3.1417	-2.8875	-3.0687	-3.2896	-2.8958	-3.1708	-2.9417	-3.1229	-3.2917	-2.9375	-3.275	-3.3063	18.320	179.642	51.362	67.529	186.708	258.457	46.328	224.338	148.144	-19.311	18.272	23.637	152.328	147.977	294.118	236.193	1.2107e-05	3.8684e-05	2.0176e-05	63.241	2.1349e-07	6.0483e-07	55.036	23.781	3.4665e-07	1.7767e-06	21.134	6.3828	7.6523	2.6974	1.0106e-06	2.3587	1.1932e-06	-7.5411e-05	-1.6247e-05	75.963	-1.6023e-07	-5.6808e-07	65.831	28.921	-3.3457e-07	4.7125e-06	25.27	7.712	9.2873	3.3118	2.1081e-06	2.8586	226.978	43.280	24.104	-18.445	281.571	173.290	-20.242	-13.494	1.704	117.430	-17.654	-12.715	-9.721	-4.644	321.298	-9.949	-8191	255	
1459.185	1	1	0	0	0.17772	0.15946	0.11281	0.18205	0.067389	0.20519	0.15105	0.10303	0.35954	0.06679	0.23913	0.12017	0.30076	0.16001	0.14188	0.12429	-2.3021	-3.2125	-3.125	-2.9271	-3.4062	-2.8833	-3.1188	-3.0979	-2.9417	-3.2375	-3.0083	-2.9208	-3.2896	-2.7667	-2.8708	-3.0729	-19.168	32.309	327.878	268.903	304.085	284.441	134.573	30.598	92.922	291.189	186.211	94.496	186.364	229.823	188.375	268.465	1.47e-05	7.2133e-05	1.2546e-05	62.979	8.7567e-07	4.2277e-07	55.404	24.024	4.8665e-07	1.488e-06	21.202	6.4455	7.6922	2.7183	1.2854e-06	2.3722	3.8491e-07	-6.6402e-05	-1.5762e-05	75.856	2.3926e-06	-5.9519e-07	66.061	28.991	-4.024e-07	2.3575e-06	25.471	7.7644	9.3508	3.3117	4.0154e-06	2.8717	236.007	109.912	64.024	-18.408	239.492	62.205	-20.653	-13.361	246.586	132.762	-17.443	-12.821	-10.162	-4.977	280.613	-9.451	-8191	255	
1459.281	1	1	0	0	0.1741	0.15081	0.049176	0.053524	0.098259	0.25343	0.06246	0.24127	0.2187	0.15301	0.22223	0.11525	0.091238	0.1376	0.16311	0.24306	-2.4562	-3.0687	-3.1583	-2.5854	-3.2833	-3.1104	-3.1417	-3.1479	-2.8438	-3.2354	-3.0896	-2.7646	-3.2604	-2.9854	-3.0333	-3.2188	39.881	207.890	170.615	207.529	60.662	95.645	275.488	52.328	-28.607	-25.530	278.711	83.347	17.597	44.191	43.479	-17.570	1.1381e-05	5.4611e-05	1.4023e-05	63.322	1.1884e-06	4.2841e-07	55.883	24.152	6.5901e-07	1.8453e-06	21.427	6.4873	7.787	2.7609	2.5982e-07	2.3962	2.5019e-06	-6.0025e-05	-1.5933e-05	76.054	1.8381e-06	-7.3544e-07	66.699	29.162	-1.9249e-07	5.022e-06	25.78	7.8775	9.4382	3.3625	1.5349e-06	2.9261	258.295	52.549	114.715	-18.190	74.579	69.719	-20.738	-13.325	172.533	142.020	-17.178	-13.122	-9.680	-4.512	33.203	-9.458	-8191	255	
1459.401	1	1	0	0	0.11843	0.031465	0.055622	0.25402	0.27448	0.40711	0.093121	0.23242	0.1986	0.02289	0.098763	0.13793	0.031041	0.12282	0.14562	0.17841	-2.3917	-3.0563	-2.9729	-2.7792	-3.2792	-3.1667	-3.0896	-3.4625	-3.0521	-3.25	-3.1437	-2.7917	-3.1667	-3.0271	-3.0687	-3.4292	65.201	81.676	34.635	308.432	229.713	49.648	168.179	207.689	167.138	60.805	67.333	66.091	318.527	-29.053	253.034	317.511	1.1151e-05	7.2191e-05	9.3279e-06	63.984	1.6801e-06	5.9805e-07	56.5	24.355	7.94e-08	1.477e-06	21.319	6.4215	7.7414	2.7425	5.5155e-07	2.3644	2.0785e-06	-6.3366e-05	-1.6304e-05	76.816	3.6114e-06	-6.6355e-07	67.307	29.324	-3.6574e-07	2.6318e-06	25.659	7.8132	9.3681	3.346	-2.9559e-07	2.9327	221.327	65.457	-0.473	-18.215	68.046	114.736	-21.036	-13.606	167.232	137.288	-17.494	-13.472	-10.206	-4.312	-16.049	-9.811	-8191	255	
1459.473	1	1	0	0	0.22094	0.18844	0.11068	0.2344	0.21623	0.27408	0.078454	0.16457	0.13099	0.35242	0.15123	0.20267	0.19681	0.08121	0.19124	0.14995	-2.6833	-3.1083	-3.2146	-2.7604	-2.9625	-3.0833	-3.0438	-3.4792	-2.9708	-3.0417	-3.3479	-2.8292	-2.9396	-3.0167	-2.9854	-3.5	165.405	40.659	10.823	169.863	121.169	106.831	287.543	-2.573	315.319	260.206	315.050	174.557	229.140	91.303	104.088	5.609	1.3282e-05	4.8971e-05	1.9486e-05	62.929	5.0457e-07	4.3124e-07	55.222	24.01	2.2296e-07	1.7373e-06	21.182	6.4201	7.7407	2.7667	1.4058e-07	2.3915	1.7706e-06	-6.3264e-05	-1.9809e-05	75.91	2.0919e-06	-7.3191e-07	65.997	29.028	-2.7132e-07	4.965e-06	25.477	7.7591	9.3626	3.3712	-3.8746e-07	2.9279	239.047	67.474	59.319	-18.418	75.439	122.282	-20.882	-13.820	114.812	144.024	-17.815	-12.882	-9.823	-5.053	30.447	-9.714	-8191	255	
1459.594	1	1	0	0	0.26558	0.13251	0.19468	0.0915	0.14995	0.26224	0.25242	0.23604	0.051122	0.20667	0.18442	0.23605	0.032357	0.2593	0.076713	0.14482	-2.6146	-3.0604	-3.0354	-2.7875	-3.5042	-3.2625	-2.8271	-3.025	-2.7938	-2.9167	-3.1354	-2.9688	-3.2062	-3.0854	-2.9333	-3.2687	29.488	325.743	200.190	173.080	295.480	277.519	308.466	18.468	308.210	217.760	200.005	89.254	279.905	16.045	30.397	90.895	1.6531e-05	3.4183e-05	1.4096e-05	63.221	1.1225e-06	6.932e-07	55.782	24.226	4.8565e-07	6.0181e-07	21.159	6.4043	7.7256	2.7691	1.8269e-07	2.4108	-5.3887e-07	-4.7474e-05	-1.8185e-05	76.091	3.714e-06	-8.6627e-07	66.695	29.141	-3.6391e-07	1.4543e-06	25.701	7.7991	9.3857	3.3806	-3.1157e-07	2.9781	235.255	77.542	21.722	-18.187	67.502	137.103	-20.645	-13.732	70.443	118.206	-17.693	-13.056	-10.002	-4.896	228.884	-9.868	-8191	255	
1459.690	1	1	0	0	0.15827	0.03124	0.075919	0.1554	0.12591	0.13001	0.17314	0.18276	0.23476	0.077724	0.17356	0.085006	0.10678	0.02857	0.072863	0.040018	-2.6854	-2.8792	-3.4292	-2.9896	-3.0271	-3.2167	-2.7354	-3.3021	-3.0312	-2.7979	-3.3625	-2.8729	-3.0062	-3.1396	-2.9417	-3.4	201.213	53.349	124.488	65.288	236.218	-25.566	113.129	191.377	-10.798	161.881	134.504	274.858	182.922	120.385	20.305	200.655	1.1769e-05	5.9266e-05	8.316e-06	64.525	1.4392e-06	3.4096e-07	55.954	24.418	3.5709e-07	1.0922e-06	21.593	6.4775	7.7661	2.7853	2.6477e-07	2.4198	1.4242e-06	-5.1826e-05	-2.0408e-05	76.864	2.1144e-06	-7.3426e-07	67.385	29.414	-3.6666e-07	-5.4627e-07	26.399	7.8973	9.448	3.4073	-3.7748e-07	2.9797	224.376	65.569	28.403	-18.307	132.685	59.002	-20.566	-13.754	160.129	164.668	-17.138	-12.719	-9.500	-4.961	212.895	-9.853	-8191	255	
1459.786	1	1	0	0	0.083137	0.17852	0.2547	0.073494	0.21672	0.15143	0.098394	0.21262	0.11784	0.085026	0.05354	0.18513	0.21514	0.16071	0.082535	0.16083	-2.8312	-2.8479	-3.0479	-2.9583	-3.1625	-3.3417	-2.9292	-3.3542	-3.1167	-2.7771	-3.3146	-3.1333	-2.9146	-3.3604	-2.7938	-3.1437	98.977	291.946	183.884	136.582	132.383	99.999	171.827	139.681	151.544	-24.500	18.359	285.094	165.260	317.186	241.577	-14.794	1.8644e-05	5.6486e-05	9.1926e-06	63.658	1.747e-06	5.2049e-07	55.99	24.355	1.1471e-07	2.7918e-07	21.257	6.3997	7.7051	2.7525	5.1507e-07	2.3826	-2.9253e-06	-4.6765e-05	-1.6959e-05	76.8	3.7383e-06	-7.8141e-07	67.172	29.322	-4.189e-07	-5.7905e-07	25.803	7.7533	9.3441	3.3607	-2.127e-07	2.9438	218.702	72.462	33.247	-18.639	108.852	76.376	-20.491	-13.288	245.868	142.611	-17.472	-13.104	-10.042	-4.921	145.942	-10.053	-8191	255	
1459.882	1	1	0	0	0.23223	0.12247	0.31639	0.18438	0.10348	0.13874	0.19882	0.19379	0.10189	0.090667	0.10366	0.25947	0.14753	0.1113	0.14968	0.14761	-2.9479	-2.7708	-3.2771	-3.1271	-3.0896	-3.1667	-2.9229	-3.0375	-3.2438	-2.8063	-3.1729	-3.1792	-3.0208	-3.3521	-2.9833	-3.0563	29.651	50.114	36.599	90.774	62.992	240.700	263.366	-26.329	276.202	-31.218	16.101	233.605	189.472	231.999	292.475	241.952	1.3267e-05	4.6292e-05	1.7482e-05	63.312	1.0156e-06	9.7838e-07	55.304	24.089	4.4953e-07	7.8694e-07	21.312	6.4089	7.772	2.7772	3.0017e-07	2.4214	-7.7751e-06	-4.2615e-05	-1.6389e-05	76.381	1.0298e-06	1.5675e-07	66.558	29.195	-5.2248e-07	-5.924e-07	26.017	7.7725	9.4015	3.3925	-3.7448e-07	2.9751	228.086	289.642	31.525	-18.494	81.363	123.019	-20.806	-13.700	146.687	51.126	-17.613	-12.656	-10.166	-4.891	88.471	-10.078	-8191	255	
1460.003	1	1	0	0	0.043525	0.028823	0.097233	0.24086	0.047139	0.11822	0.16958	0.052657	0.065043	0.096612	0.19965	0.32428	0.044615	0.14387	0.24391	0.032973	-2.95	-2.9396	-3.0708	-2.9521	-3.0438	-3.4021	-2.825	-3.0583	-3.4125	-2.8646	-3.3438	-3.0812	-2.8042	-3.3958	-2.8458	-2.8875	249.489	-19.412	322.959	159.254	12.035	235.935	271.475	213.725	308.965	274.523	-15.861	179.896	291.319	236.247	42.503	236.966	1.5535e-05	4.9311e-05	2.2051e-05	64.273	6.2521e-07	1.5012e-06	56.504	24.389	1.8766e-07	6.325e-07	21.624	6.504	7.8401	2.8227	2.9656e-07	2.4867	9.6227e-07	-4.5753e-05	-1.4166e-05	77.095	-3.9786e-07	4.0626e-06	67.538	29.479	-5.0782e-07	-4.1638e-07	26.23	7.9127	9.4889	3.4567	-4.5037e-07	3.0743	196.552	24.685	78.104	-18.526	104.145	142.729	-20.621	-13.789	227.990	56.881	-17.488	-13.108	-9.956	-4.988	258.649	-10.188	-8191	255	
1460.097	1	1	0	0	0.0909	0.21081	0.13191	0.068615	0.22501	0.1011	0.044026	0.015233	0.095777	0.34807	0.088454	0.18674	0.22711	0.087903	0.09711	0.072933	-2.8979	-2.9583	-3.1437	-3.0292	-2.9062	-3.2125	-2.775	-3.1312	-3.6375	-2.9313	-3.2292	-3.0396	-2.7938	-3.2604	-2.95	-2.8104	166.265	85.715	300.349	184.586	70.615	167.508	43.876	322.970	46.526	32.147	121.224	74.383	214.520	101.936	40.091	122.373	1.5931e-05	6.7988e-05	2.7253e-05	65.099	6.6257e-07	1.6961e-06	57.868	24.695	1.2931e-07	4.7361e-07	21.851	6.7092	7.8722	2.8749	6.2065e-07	2.5605	-5.6582e-06	-5.1219e-05	-1.6247e-05	78.188	-3.5376e-07	2.5316e-06	69.18	29.875	-4.8032e-07	-6.5067e-07	26.957	8.1075	9.5864	3.5241	-4.1642e-07	3.0823	226.905	16.413	45.153	-18.241	123.192	93.302	-20.456	-13.210	188.968	21.157	-17.415	-12.601	-9.717	-4.807	-11.838	-9.608	-8191	255	
1460.169	1	1	0	0	0.12364	0.10228	0.11089	0.06418	0.046726	0.16255	0.12711	0.1101	0.22668	0.1813	0.15289	0.16368	0.10605	0.090282	0.19378	0.12414	-3.0042	-2.8646	-2.7583	-3.3792	-2.8312	-3.1917	-2.95	-2.9667	-3.2562	-2.6708	-3.1354	-3.2083	-2.5917	-3.1917	-3.2396	-2.9896	16.021	52.538	315.229	219.739	31.167	-12.718	11.301	266.625	-24.460	138.078	4.379	233.481	93.981	203.378	67.951	250.419	1.9084e-05	4.6941e-05	1.5658e-05	64.442	5.7783e-07	2.176e-06	57.071	24.487	2.6839e-07	2.3821e-07	21.418	6.4954	7.7434	2.8483	2.0578e-07	2.4873	2.7983e-05	-4.6765e-05	-1.2912e-05	77.894	-2.9795e-07	4.7002e-06	67.848	29.52	-5.9948e-07	-4.795e-07	25.884	7.8435	9.4138	3.4788	-4.8533e-07	2.9991	225.342	63.779	49.207	-18.415	182.283	99.987	-20.745	-13.485	181.609	176.265	-17.753	-12.792	-9.594	-4.872	185.742	-9.707	-8191	255	
1460.290	1	1	0	0	0.27828	0.10212	0.14648	0.057895	0.23424	0.10862	0.055706	0.10325	0.19793	0.057285	0.1871	0.16934	0.17071	0.16577	0.038925	0.16096	-2.9104	-2.9979	-3.1458	-3.3083	-2.9979	-3.1604	-3.1604	-2.95	-3.2146	-2.9396	-3.1896	-3.5458	-2.8042	-3.2104	-3.3312	-2.9417	-7.017	207.484	-11.947	-20.767	73.676	2.755	31.934	58.360	63.289	262.339	197.577	34.781	59.193	238.664	198.284	-11.017	1.702e-05	5.1905e-05	1.6749e-05	64.77	1.1122e-06	1.9764e-06	56.672	24.324	3.2495e-07	2.6077e-07	21.449	6.5071	7.776	2.8556	3.0512e-07	2.4982	0.00016274	-3.9072e-05	-1.7529e-05	77.728	-2.6734e-07	2.5328e-06	67.686	29.455	-5.8298e-07	-6.1182e-07	26.144	7.8598	9.4379	3.4917	-5.742e-07	3.0212	262.007	0.801	48.218	-18.321	127.616	113.912	-20.632	-13.729	153.594	145.625	-17.469	-13.365	-10.002	-4.959	127.207	-9.398	-8191	255	
1460.386	1	1	0	0	0.40878	0.2403	0.14392	0.10811	0.13515	0.19626	0.24843	0.11049	0.098117	0.19651	0.20329	0.12879	0.26789	0.19764	0.28564	0.03217	-2.8667	-3.0021	-2.9333	-3.3229	-2.8417	-3.1354	-3.4333	-2.9	-3.4167	-3.1083	-3.0563	-3.5167	-2.8375	-3.2583	-3.4396	-3.0208	86.775	-31.231	30.955	93.771	49.922	230.128	229.899	189.092	5.195	225.964	32.737	166.268	-1.380	250.919	163.240	270.875	1.0056e-05	4.3956e-05	1.2034e-06	65.13	8.1153e-07	2.1794e-06	57.047	24.59	2.5956e-07	3.136e-07	21.638	6.5349	7.7786	2.8749	5.4774e-07	2.5207	9.4957e-05	-4.8891e-05	-1.1116e-05	77.994	-3.6456e-07	4.4622e-06	68.266	29.637	-3.7124e-07	-5.7541e-07	26.06	7.9573	9.4648	3.5079	-4.8533e-07	3.0458	273.593	79.374	0.850	-18.782	173.171	110.269	-20.536	-13.425	241.242	108.035	-17.844	-12.546	-9.634	-4.620	169.261	-9.353	-8191	255	
1460.482	1	1	0	0	0.23928	0.1988	0.064132	0.12249	0.1112	0.091541	0.19137	0.1799	0.022963	0.10953	0.21893	0.24289	0.30513	0.093778	0.25219	0.21413	-2.8979	-3.0625	-2.9667	-3.35	-2.8438	-3.1896	-3.1792	-2.7625	-3.2333	-3.0375	-2.85	-3.3333	-3.0812	-3.0563	-3.1021	-2.7583	67.181	192.738	269.066	128.707	208.928	261.287	1.308	29.641	163.405	92.795	277.497	110.879	274.617	267.252	-25.151	67.822	1.3623e-05	4.4385e-05	1.4999e-05	65.031	6.26e-07	1.2351e-06	57.241	24.715	1.5462e-07	6.3898e-07	21.541	6.5372	7.9037	2.889	5.3044e-07	2.5271	0.00017059	-4.3323e-05	-1.485e-05	78.157	-2.5744e-07	2.7438e-06	68.749	29.78	-2.8141e-07	-7.5021e-07	26.091	8.0824	9.518	3.5202	-4.5836e-07	3.0346	320.728	66.780	37.500	-18.595	186.667	111.597	-20.445	-13.342	155.426	35.069	-17.646	-12.824	-9.936	-5.057	124.379	-9.801	-8191	255	
1460.578	1	1	0	0	0.34136	0.16978	0.15333	0.052625	0.25634	0.2096	0.17711	0.07631	0.17306	0.16565	0.17625	0.099091	0.18187	0.031421	0.1178	0.12296	-3.1104	-2.9667	-3.0729	-3.2417	-3.0229	-3.0292	-3.4521	-2.9229	-3.225	-3.225	-3.0167	-3.0833	-2.85	-2.9313	-3.1875	-2.825	202.910	233.584	34.282	-4.385	19.629	181.005	247.657	164.125	48.333	-0.728	123.448	206.875	98.949	161.202	40.055	15.585	1.1144e-05	4.4767e-05	2.0078e-05	64.423	1.1245e-06	1.8964e-06	55.884	24.402	5.5007e-07	6.504e-07	21.354	6.5098	7.7429	2.8534	2.3254e-07	2.4971	0.00010446	-5.051e-05	-1.3567e-05	77.452	-3.1685e-07	4.7238e-06	67.092	29.439	-3.859e-07	-7.4778e-07	25.648	7.9371	9.4487	3.4893	-6.0716e-07	3.01	209.228	82.292	76.622	-18.665	116.130	139.730	-20.794	-13.687	172.345	116.881	-17.201	-12.848	-10.209	-4.951	148.887	-9.791	-8191	255	
1460.699	1	1	0	0	0.17165	0.049162	0.12776	0.18473	0.03121	0.051474	0.12774	0.069414	0.11303	0.19737	0.089346	0.1911	0.1525	0.15713	0.016611	0.14323	-2.7708	-3.175	-3.0167	-3.3292	-2.9979	-3.1083	-3.3583	-2.9354	-3.1958	-3.3708	-2.8417	-3.2271	-3.0479	-2.9542	-3.2562	-3.1437	87.030	0.458	30.211	167.687	81.725	304.942	67.851	30.838	290.695	119.655	151.201	278.015	84.879	-8.096	-9.840	138.749	1.3009e-05	3.2175e-05	2.7081e-05	64.341	4.9802e-07	5.7666e-07	56.064	24.439	1.9683e-07	3.4374e-07	21.365	6.5079	7.8694	2.8611	1.5307e-07	2.5077	0.0001739	-5.4256e-05	-1.1145e-05	77.218	-4.4827e-07	8.6273e-07	67.499	29.439	-3.914e-07	-7.3322e-07	25.808	8.0436	9.4953	3.499	-5.8818e-07	3.0298	305.359	44.379	64.042	-18.763	109.654	18.466	-20.454	-13.547	301.098	305.858	-16.996	-12.389	-9.864	-4.910	-17.786	-9.681	-8191	255	
1460.770	1	1	0	0	0.10726	0.20019	0.4076	0.21919	0.11031	0.29418	0.088438	0.15752	0.21065	0.12267	0.17585	0.22372	0.11962	0.1299	0.087933	0.12143	-2.9417	-3.2333	-2.7042	-3.3917	-3.175	-2.8375	-3.1021	-2.9729	-3.3354	-3.4	-2.7042	-3.3292	-3.2083	-2.8729	-3.1979	-2.8583	244.973	254.921	258.457	164.080	307.839	56.385	324.425	326.153	124.804	166.868	83.130	182.072	238.989	217.123	114.681	14.284	2.2749e-06	6.2542e-05	4.3639e-06	64.505	6.0757e-07	4.8743e-07	57.027	24.701	3.2102e-07	9.3271e-07	21.768	6.6506	7.8416	2.8877	2.0826e-07	2.5562	0.00010354	-6.7516e-05	-1.0432e-05	77.502	-5.2298e-07	-5.3037e-07	68.886	29.738	-4.8215e-07	-8.6068e-07	26.221	8.1611	9.5945	3.5359	-5.1029e-07	3.0879	265.122	69.878	41.183	-18.857	141.403	95.095	-20.792	-13.572	130.997	107.665	-17.633	-13.055	-9.728	-4.588	145.376	-9.661	-8191	255	
1460.866	1	1	0	0	0.13511	0.26982	0.16309	0.15277	0.1658	0.059774	0.052581	0.038775	0.083003	0.13421	0.065468	0.17329	0.059143	0.20621	0.26081	0.15006	-2.6208	-3.3833	-2.8417	-3.1479	-3.325	-2.9333	-3.2292	-2.9917	-2.9167	-3.2854	-2.9167	-3.2021	-3.0208	-2.7729	-3.4125	-3.0729	-5.852	293.640	89.404	-16.054	228.874	-7.105	126.668	300.712	217.430	312.552	77.067	241.578	87.428	306.286	75.783	87.946	9.5018e-06	6.9487e-05	1.2189e-05	64.988	5.7658e-07	3.9116e-07	56.755	24.479	5.4638e-07	7.916e-07	21.429	6.5443	7.8012	2.8687	7.3314e-07	2.4946	0.00018683	-6.2353e-05	-1.0831e-05	77.839	-4.7978e-07	-4.6554e-07	68.55	29.64	-2.6033e-07	-6.6888e-07	25.866	8.0886	9.4831	3.5142	-4.6436e-07	3.0168	62.174	15.196	100.530	-18.440	132.994	207.641	-20.593	-13.635	152.515	8.607	-17.673	-12.789	-9.793	-5.151	91.625	-9.953	-8191	255	
1460.963	1	1	0	0	0.27252	0.18965	0.099349	0.24637	0.087608	0.10442	0.15397	0.14565	0.23809	0.24548	0.25503	0.17072	0.077078	0.19167	0.19848	0.088045	-2.3396	-3.2104	-2.9896	-3.1646	-3.1125	-2.8417	-3.4062	-3.1104	-2.9542	-3.5104	-2.9854	-2.9583	-3.2313	-2.7875	-3.1979	-3.0792	5.888	21.145	210.729	142.605	292.086	17.974	45.099	197.988	236.179	29.270	61.622	264.380	-29.596	325.566	-22.982	191.092	4.1695e-06	5.6011e-05	7.7667e-06	64.048	8.2642e-07	6.4099e-07	56.049	24.239	4.5365e-07	1.6036e-07	21.337	6.4594	7.7442	2.8537	4.4928e-07	2.4994	4.692e-05	6.5491e-05	-1.3624e-05	77.153	-4.6087e-07	-5.068e-07	67.952	29.437	-2.7774e-07	-8.8496e-07	25.656	7.9922	9.434	3.4896	-6.2214e-07	3.0119	219.542	85.539	114.717	-18.275	114.320	107.872	-20.842	-13.314	165.514	250.773	-17.556	-13.198	-9.779	-5.065	110.203	-9.720	-8191	255	
1461.081	1	1	0	0	0.057424	0.23946	0.22163	0.11459	0.10218	0.2807	0.16994	0.12533	0.16463	0.096017	0.11027	0.24291	0.10887	0.03326	0.21779	0.034806	-2.5833	-3.3104	-2.9583	-3.075	-3.3896	-2.7417	-3.0938	-3.3083	-2.9458	-3.1625	-2.9104	-3.1021	-3.3667	-2.7396	-3.0604	-3.4479	110.401	89.830	-11.430	290.306	194.178	172.746	191.662	30.224	245.949	176.098	79.896	50.709	312.850	287.800	126.812	0.112	1.9105e-05	0.00016359	4.9196e-06	64.341	4.1601e-07	6.7776e-07	56.7	24.322	6.4696e-07	5.0339e-07	21.439	6.5363	7.8402	2.869	7.2826e-07	2.5022	7.8136e-06	0.00037726	-1.1914e-05	77.244	-5.8869e-07	-4.7497e-07	67.968	29.445	-2.3466e-07	-7.7449e-07	25.837	8.0484	9.4565	3.4974	-4.4838e-07	3.0379	251.891	0.971	71.218	-18.214	154.411	87.805	-20.887	-13.562	208.298	160.822	-17.526	-13.336	-9.989	-4.747	136.835	-10.100	-8191	255	
1461.178	1	1	0	0	0.25905	0.20689	0.064507	0.46305	0.062269	0.09441	0.16877	0.12352	0.10928	0.17409	0.2207	0.19621	0.039577	0.030624	0.1639	0.2484	-2.4521	-3.0333	-2.8688	-3.1167	-3.3792	-2.7875	-3.1896	-3.2792	-2.8812	-3.1875	-2.9792	-3.1813	-3.475	-2.7562	-2.9292	-3.3958	274.924	60.412	281.648	285.138	230.348	107.868	178.654	21.706	305.804	69.442	56.118	220.205	7.352	159.231	213.959	262.939	1.8133e-05	0.00012223	5.1978e-06	64.856	5.6653e-07	5.4806e-07	57.037	24.663	1.7604e-07	2.1398e-07	21.822	6.6484	7.8812	2.8861	2.1307e-07	2.5591	4.9653e-06	0.00020093	-1.3254e-05	77.973	-6.6161e-07	-5.5158e-07	69.274	29.738	-3.1532e-07	-7.1986e-07	26.297	8.0504	9.5709	3.5339	-3.7148e-07	3.0653	242.131	3.249	28.841	-18.562	53.344	152.290	-20.166	-13.191	52.600	97.511	-17.488	-13.100	-9.985	-5.148	137.339	-9.954	-8191	255	
1461.274	1	1	0	0	0.23709	0.24242	0.18442	0.16594	0.15896	0.12256	0.019456	0.086822	0.11544	0.2455	0.034986	0.10291	0.22547	0.058971	0.19494	0.084471	-2.2562	-3.1	-3.1479	-2.6792	-3.3187	-3.0125	-2.9854	-3.325	-2.8208	-3.2542	-2.9104	-2.8271	-3.2792	-3.025	-2.9354	-3.5167	178.289	195.824	9.739	317.362	82.681	79.139	33.601	147.953	101.488	27.998	298.265	-5.375	264.790	258.065	120.084	7.124	1.263e-05	0.00016478	2.4501e-06	64.805	2.7696e-07	4.6954e-07	56.166	24.399	7.6261e-07	5.2384e-07	21.197	6.5251	7.7678	2.8782	4.7597e-07	2.4965	9.4303e-06	0.00039538	-1.5106e-05	77.851	-5.5449e-07	-5.4333e-07	68.141	29.477	-2.2549e-07	-7.1015e-07	25.589	7.8494	9.5589	3.5059	-2.6363e-07	3.0171	233.724	-15.060	314.643	-18.783	93.977	193.859	-20.613	-13.427	150.006	151.391	-17.861	-13.060	-10.306	-4.953	139.227	-9.396	-8191	255	
1461.394	1	1	0	0	0.16367	0.14102	0.07124	0.1566	0.15274	0.22094	0.33678	0.087555	0.21506	0.18359	0.19623	0.27447	0.18712	0.11732	0.20382	0.17724	-2.6646	-3.1125	-3.0854	-2.9292	-3.3292	-3.0333	-2.8917	-3.4208	-2.9708	-3.2417	-3.1625	-2.8354	-3.3083	-3.0771	-2.9354	-3.3458	323.366	269.822	74.287	72.926	26.518	166.403	67.776	164.220	1.162	75.085	15.899	177.776	144.672	314.354	246.640	307.483	2.0899e-05	9.8727e-05	2.4009e-05	64.271	4.8114e-07	4.445e-07	56.249	24.396	2.314e-07	3.6768e-07	21.424	6.5	7.7578	2.8939	1.0523e-06	2.5383	6.6589e-06	0.0002155	-1.4935e-05	77.392	-4.6537e-07	-5.9755e-07	67.964	29.385	-3.3274e-07	-6.8709e-07	25.691	7.9046	9.5515	3.5374	-2.4466e-07	3.0584	237.018	-2.890	51.349	-18.471	144.785	111.751	-20.507	-13.680	94.075	0.110	-17.848	-13.383	-9.750	-5.244	139.738	-9.898	-8191	255	
1461.466	1	1	0	0	0.10509	0.18913	0.074998	0.13971	0.054574	0.1987	0.12937	0.051031	0.29628	0.11925	0.0081066	0.0706	0.13186	0.09071	0.1752	0.16267	-2.4833	-3.1083	-3.1771	-2.9354	-3.2729	-3.1021	-2.8979	-3.4771	-2.9896	-3.2396	-3.3417	-3.025	-3.0646	-3.1167	-3.0417	-3.3312	258.171	180.846	95.488	51.419	294.702	83.763	303.387	25.702	126.809	286.488	266.285	211.858	280.147	268.662	108.815	237.348	7.1857e-06	0.00016075	1.0177e-05	64.575	4.3385e-07	9.4243e-07	56.608	24.547	2.0322e-07	5.5297e-07	21.641	6.5698	7.9009	2.9008	8.5748e-07	2.5498	3.8491e-06	0.00039852	-1.7216e-05	77.839	-5.2298e-07	-7.6137e-07	68.121	29.747	-3.5291e-07	-6.7252e-07	26.004	8.0107	9.704	3.557	-3.8147e-07	3.0973	236.127	8.775	100.151	-18.536	215.260	186.196	-20.590	-13.236	36.410	106.637	-17.101	-13.107	-9.794	-5.091	107.524	-9.900	-8191	255	
1461.562	1	1	0	0	0.1851	0.088708	0.13278	0.060188	0.098742	0.2117	0.10494	0.16278	0.28315	0.072879	0.071766	0.12955	0.38791	0.19397	0.3864	0.07817	-2.5479	-2.9771	-3.3187	-2.7938	-3.2479	-3.2125	-3.0938	-3.3688	-2.9437	-3.075	-3.5708	-2.9979	-3.1375	-2.9813	-2.8979	-3.4437	224.158	294.834	39.304	20.258	245.560	262.441	311.661	160.465	6.909	-14.316	230.362	120.016	127.164	145.916	60.254	106.580	1.5527e-05	0.00010386	2.2987e-05	65.07	5.2074e-07	2.9153e-07	57.145	24.754	2.4887e-07	5.0351e-07	21.784	6.6626	7.9101	2.8877	6.2501e-07	2.5383	6.274e-06	0.00023251	-1.9667e-05	78.446	-3.5196e-07	-7.3191e-07	68.763	30.184	-2.8416e-07	-4.2002e-07	26.214	8.0518	9.6601	3.5542	-3.0657e-07	3.0632	237.809	3.704	58.891	-18.545	212.339	162.467	-20.818	-13.724	191.196	-20.084	-17.440	-13.332	-10.216	-4.883	166.066	-9.294	-8191	255	
1461.683	1	1	0	0	0.16617	0.078498	0.17813	0.21451	0.20896	0.10534	0.077517	0.21178	0.22741	0.091739	0.14094	0.12828	0.097658	0.099428	0.12453	0.10073	-2.5542	-2.8979	-3.4292	-2.7958	-3.3396	-3.2188	-2.8979	-3.2562	-3.2521	-2.8417	-3.3667	-2.8521	-3.1646	-3.3	-2.6229	-3.3708	305.145	137.600	188.297	177.346	152.259	229.305	151.041	323.588	-13.739	297.460	186.603	161.977	247.500	57.358	40.807	53.128	1.2325e-05	0.00018851	1.279e-05	64.356	9.1325e-07	4.352e-07	55.809	24.25	2.6934e-07	7.7758e-07	21.26	6.5382	7.8285	2.8659	4.3298e-07	2.4768	2.2325e-06	0.00035165	-1.9211e-05	77.499	-4.2667e-07	-8.2737e-07	67.023	29.678	-4.0149e-07	-4.5644e-07	25.562	7.8747	9.6133	3.4975	-2.6463e-07	2.9997	238.892	1.375	26.706	-18.568	212.262	113.102	-21.025	-13.610	256.869	174.557	-17.218	-12.913	-9.624	-5.437	-25.727	-9.792	-8191	255	
1461.779	1	1	0	0	0.26746	0.27477	0.10899	0.11789	0.1517	0.064207	0.014218	0.1338	0.052569	0.20256	0.091902	0.10281	0.20662	0.33918	0.06698	0.31406	-2.6688	-2.8583	-3.2042	-3.0563	-3.1625	-3.3208	-3.0812	-3.2562	-3.2542	-2.725	-3.4938	-2.9938	-3.0104	-3.3021	-3.1667	-3.4271	12.026	137.673	46.598	-10.482	-8.391	291.418	113.584	187.746	201.969	125.734	84.855	231.460	-21.635	30.719	22.111	258.917	1.475e-05	9.8766e-05	1.5143e-05	64.185	6.8864e-07	2.0392e-07	55.815	24.42	6.3979e-07	7.1264e-07	21.249	6.5415	7.787	2.8627	2.7787e-07	2.4492	-3.7336e-06	2.6723e-05	3.0555e-05	76.872	-4.0687e-07	-7.5548e-07	66.778	29.699	-3.7215e-07	-4.7222e-07	25.584	7.8963	9.523	3.4891	-2.916e-07	2.9857	223.742	15.107	48.561	-18.471	177.118	71.057	-20.648	-13.249	135.571	94.539	-17.989	-13.069	-10.141	-4.785	144.479	-10.015	-8191	255	
1461.875	1	1	0	0	0.23838	0.19168	0.045366	0.15666	0.15851	0.26278	0.23091	0.18334	0.097864	0.026258	0.12226	0.082516	0.083681	0.10776	0.22692	0.085297	-2.8229	-2.9646	-3.5333	-2.8875	-3.0042	-3.5042	-2.6667	-3.1063	-3.3646	-2.9396	-3.1354	-2.9917	-2.9479	-3.5167	-2.9583	-3.1125	18.755	33.220	126.840	116.114	281.930	23.852	89.422	177.724	277.062	233.121	66.195	280.584	199.618	-9.739	83.120	232.430	1.6582e-05	5.4767e-05	4.5905e-05	64.175	2.6659e-07	4.5885e-07	55.863	24.293	3.5013e-07	3.6631e-07	21.57	6.5588	7.7892	2.8611	7.8813e-07	2.5211	2.6944e-07	-4.1704e-05	0.00010825	76.86	-2.9165e-07	-8.0616e-07	67.032	29.556	-4.9132e-07	-5.6691e-07	25.884	7.9619	9.6199	3.4946	-3.8347e-07	3.0344	249.577	12.602	34.532	-18.909	245.110	110.354	-20.608	-13.583	225.170	47.338	-17.578	-12.673	-10.026	-4.539	165.145	-9.525	-8191	255	
#DATA ENDS
