BOXY.EXE: ISS Imagent and Oximeter Data Acquisition Program Version 0.80
Ascii Record File

#ACQ INFORMATION
2  Detector Channels 
16  External MUX Channels 
1  Auxiliary Channels 
5000  Waveform (CCF) Frequency (Hz)
1  Waveforms Skipped 
30  Waveforms Averaged 
1  Cycles Averaged 
16  Acquisitions per Waveform 
10.0806  Updata Rate (Hz) 

#FILE INFORMATION
TRUE -- External MUX Channel results are PARSED.
FALSE -- AC DC and Phase are NOT grouped.
TRUE -- Companion Program Settings File CREATED.
FALSE -- AC data not excluded
FALSE -- DC data not excluded
FALSE -- Phase data not excluded
FALSE -- Auxillary Chn. data not excluded
Tab delimiters

#CALIBRATION STATE
TRUE -- Waveform Calibration Values APPLIED.


#AUX CALIBRATION VALUES
Val Type	aux-1	

Term	1.0000e+00	
Factor	0.0000e+00	


#WF CALIBRATION VALUES
A = Detector Channel
Val Type	A-AC1	A-AC2	A-AC3	A-AC4	A-AC5	A-AC6	A-AC7	A-AC8	A-AC9	A-AC10	A-AC11	A-AC12	A-AC13	A-AC14	A-AC15	A-AC16	A-DC1	A-DC2	A-DC3	A-DC4	A-DC5	A-DC6	A-DC7	A-DC8	A-DC9	A-DC10	A-DC11	A-DC12	A-DC13	A-DC14	A-DC15	A-DC16	A-Ph1	A-Ph2	A-Ph3	A-Ph4	A-Ph5	A-Ph6	A-Ph7	A-Ph8	A-Ph9	A-Ph10	A-Ph11	A-Ph12	A-Ph13	A-Ph14	A-Ph15	A-Ph16	

Term	0.00000e+00	0.00000e+00	0.00000e+00	0.00000e+00	0.00000e+00	0.00000e+00	0.00000e+00	0.00000e+00	0.00000e+00	0.00000e+00	0.00000e+00	0.00000e+00	0.00000e+00	0.00000e+00	0.00000e+00	0.00000e+00	0.00000e+00	0.00000e+00	0.00000e+00	0.00000e+00	0.00000e+00	0.00000e+00	0.00000e+00	0.00000e+00	0.00000e+00	0.00000e+00	0.00000e+00	0.00000e+00	0.00000e+00	0.00000e+00	0.00000e+00	0.00000e+00	0.00000e+00	0.00000e+00	0.00000e+00	0.00000e+00	0.00000e+00	0.00000e+00	0.00000e+00	0.00000e+00	0.00000e+00	0.00000e+00	0.00000e+00	0.00000e+00	0.00000e+00	0.00000e+00	0.00000e+00	0.00000e+00	
Factor	1.00000e+00	1.00000e+00	1.00000e+00	1.00000e+00	1.00000e+00	1.00000e+00	1.00000e+00	1.00000e+00	1.00000e+00	1.00000e+00	1.00000e+00	1.00000e+00	1.00000e+00	1.00000e+00	1.00000e+00	1.00000e+00	1.00000e+00	1.00000e+00	1.00000e+00	1.00000e+00	1.00000e+00	1.00000e+00	1.00000e+00	1.00000e+00	1.00000e+00	1.00000e+00	1.00000e+00	1.00000e+00	1.00000e+00	1.00000e+00	1.00000e+00	1.00000e+00	X	X	X	X	X	X	X	X	X	X	X	X	X	X	X	X	

B = Detector Channel
Val Type	B-AC1	B-AC2	B-AC3	B-AC4	B-AC5	B-AC6	B-AC7	B-AC8	B-AC9	B-AC10	B-AC11	B-AC12	B-AC13	B-AC14	B-AC15	B-AC16	B-DC1	B-DC2	B-DC3	B-DC4	B-DC5	B-DC6	B-DC7	B-DC8	B-DC9	B-DC10	B-DC11	B-DC12	B-DC13	B-DC14	B-DC15	B-DC16	B-Ph1	B-Ph2	B-Ph3	B-Ph4	B-Ph5	B-Ph6	B-Ph7	B-Ph8	B-Ph9	B-Ph10	B-Ph11	B-Ph12	B-Ph13	B-Ph14	B-Ph15	B-Ph16	

Term	0.00000e+00	0.00000e+00	0.00000e+00	0.00000e+00	0.00000e+00	0.00000e+00	0.00000e+00	0.00000e+00	0.00000e+00	0.00000e+00	0.00000e+00	0.00000e+00	0.00000e+00	0.00000e+00	0.00000e+00	0.00000e+00	0.00000e+00	0.00000e+00	0.00000e+00	0.00000e+00	0.00000e+00	0.00000e+00	0.00000e+00	0.00000e+00	0.00000e+00	0.00000e+00	0.00000e+00	0.00000e+00	0.00000e+00	0.00000e+00	0.00000e+00	0.00000e+00	-1.19857e+02	-1.24507e+02	-1.35452e+02	-1.83472e+02	-6.00384e+01	-4.75453e+01	-1.57982e+02	-1.62015e+02	-6.06145e+01	-8.17819e+01	-1.70621e+02	-1.71027e+02	-1.79027e+02	-1.76789e+02	-5.07464e+01	-1.49691e+02	
Factor	1.74378e-05	1.02985e-04	3.40426e-05	1.56174e-01	9.33459e-07	1.34348e-06	1.70957e-01	5.49417e-02	8.43037e-07	1.23105e-06	9.08538e-02	2.97122e-02	2.77676e-02	9.37205e-03	9.74277e-07	1.31938e-02	1.29289e-06	1.35560e-06	3.76670e-07	7.60921e-02	1.47965e-08	1.48193e-08	7.83401e-02	2.67541e-02	1.47987e-08	1.48410e-08	4.23708e-02	1.39488e-02	1.35316e-02	4.53434e-03	1.47790e-08	6.16309e-03	X	X	X	X	X	X	X	X	X	X	X	X	X	X	X	X	



#DISTANCE SETTINGS
A = Detector Channel
A-1	A-2	A-3	A-4	A-5	A-6	A-7	A-8	A-9	A-10	A-11	A-12	A-13	A-14	A-15	A-16	

2.5000e+00	3.0000e+00	2.5000e+00	3.0000e+00	2.0000e+00	3.0000e+00	1.5000e+00	3.0000e+00	3.0000e+00	3.0000e+00	3.0000e+00	3.0000e+00	3.0000e+00	3.0000e+00	1.5000e+00	3.0000e+00	

B = Detector Channel
B-1	B-2	B-3	B-4	B-5	B-6	B-7	B-8	B-9	B-10	B-11	B-12	B-13	B-14	B-15	B-16	

1.0000e+01	1.0000e+01	1.0000e+01	1.4400e+00	1.0000e+01	1.0000e+01	1.5100e+00	1.9400e+00	1.0000e+01	1.0000e+01	1.9900e+00	2.4900e+00	2.4100e+00	2.9000e+00	1.0000e+01	2.9800e+00	




#DATA BEGINS
time	group	step	mark	flag	A-AC1	A-AC2	A-AC3	A-AC4	A-AC5	A-AC6	A-AC7	A-AC8	A-AC9	A-AC10	A-AC11	A-AC12	A-AC13	A-AC14	A-AC15	A-AC16	A-DC1	A-DC2	A-DC3	A-DC4	A-DC5	A-DC6	A-DC7	A-DC8	A-DC9	A-DC10	A-DC11	A-DC12	A-DC13	A-DC14	A-DC15	A-DC16	A-Ph1	A-Ph2	A-Ph3	A-Ph4	A-Ph5	A-Ph6	A-Ph7	A-Ph8	A-Ph9	A-Ph10	A-Ph11	A-Ph12	A-Ph13	A-Ph14	A-Ph15	A-Ph16	B-AC1	B-AC2	B-AC3	B-AC4	B-AC5	B-AC6	B-AC7	B-AC8	B-AC9	B-AC10	B-AC11	B-AC12	B-AC13	B-AC14	B-AC15	B-AC16	B-DC1	B-DC2	B-DC3	B-DC4	B-DC5	B-DC6	B-DC7	B-DC8	B-DC9	B-DC10	B-DC11	B-DC12	B-DC13	B-DC14	B-DC15	B-DC16	B-Ph1	B-Ph2	B-Ph3	B-Ph4	B-Ph5	B-Ph6	B-Ph7	B-Ph8	B-Ph9	B-Ph10	B-Ph11	B-Ph12	B-Ph13	B-Ph14	B-Ph15	B-Ph16	aux-1	digaux	

36136.984	1	1	0	256	0.20407	0.034738	0.16565	0.095724	0.089794	0.22399	0.35964	0.26239	0.22078	0.18787	0.2165	0.1545	0.065732	0.031193	0.14805	0.20146	-2.1729	-3.3063	-2.9792	-3.0896	-3.5438	-2.8688	-3.4646	-3.4813	-2.6688	-3.3312	-3.2583	-2.9146	-3.6167	-2.975	-2.9917	-3.4396	118.204	114.620	-85.934	167.152	144.510	75.470	117.203	-137.329	62.506	-41.837	159.224	106.287	156.690	-85.384	-160.688	-46.236	0.00043138	0.0003628	0.0001311	1421.2	6.9455e-07	2.6852e-06	1414.2	390.7	2.2473e-06	3.2876e-06	444.06	143.18	122.51	40.945	4.6505e-06	50.755	0.00019527	0.0001741	4.8735e-05	1413.8	1.9147e-06	1.8625e-06	1410	388.92	1.8535e-06	1.8331e-06	439.46	142.76	121.47	40.682	1.8574e-06	50.225	-147.915	-88.604	-103.527	-159.309	-124.092	21.944	-159.306	-155.081	-101.275	-1.544	-155.312	-151.701	-150.681	-145.992	8.840	-146.564	-8191	255	
36137.078	1	1	0	0	0.13598	0.35779	0.27315	0.32036	0.23187	0.083418	0.3121	0.064093	0.1904	0.075049	0.25967	0.30888	0.20671	0.065728	0.34152	0.21379	-2.2979	-3.2583	-2.9875	-2.9979	-3.5625	-2.9208	-3.1312	-3.5083	-2.8458	-3.2458	-3.2125	-2.7708	-3.5312	-2.9917	-2.8438	-3.4854	30.636	47.103	133.690	154.987	29.134	153.767	-155.730	-145.477	73.940	-14.083	103.916	-24.859	-153.966	104.713	177.763	116.833	0.00049476	0.0002974	0.00014804	1405.8	1.6972e-06	2.986e-06	1394.3	384.09	2.9583e-06	4.9035e-06	438.56	141.96	121.44	40.323	3.3096e-06	49.829	0.00018203	0.00016861	4.6155e-05	1396.5	1.8539e-06	1.8125e-06	1392.1	382.86	1.8069e-06	1.7945e-06	433	141.09	119.8	39.988	1.7738e-06	49.503	-148.863	-111.393	-77.468	-159.432	-21.384	-12.685	-159.688	-154.977	-52.438	-8.685	-155.174	-151.602	-150.851	-145.833	4.194	-146.454	-8191	255	
36137.199	1	1	0	0	0.26169	0.14164	0.076161	0.019333	0.33928	0.11071	0.23322	0.30409	0.13744	0.11735	0.14267	0.088838	0.14134	0.13613	0.048095	0.053659	-2.3021	-3.1167	-3.2458	-2.8542	-3.4	-2.8625	-3.0708	-3.6854	-2.6417	-3.2833	-3.2562	-2.7687	-3.3708	-3.0938	-2.7062	-3.575	90.944	149.388	51.273	109.596	36.697	-81.171	155.467	176.384	127.448	-121.901	-168.353	111.097	57.838	170.799	-108.523	162.602	0.00040178	0.00053493	0.00010565	1395.9	3.2265e-06	2.6628e-06	1384.9	383.73	3.237e-06	6.3254e-06	436.12	140.28	118.92	39.806	2.1621e-06	49.298	0.00017581	0.00015799	4.4237e-05	1385.1	1.7605e-06	1.7093e-06	1383.4	380.5	1.7442e-06	1.7011e-06	428.79	139.33	118.17	39.481	1.723e-06	48.912	-144.430	-105.556	-97.409	-159.364	-12.213	33.625	-159.544	-154.947	-54.777	-16.483	-155.342	-151.402	-150.949	-145.803	-7.569	-146.434	-8191	255	
36137.297	1	1	0	0	0.2534	0.30092	0.17618	0.10838	0.10621	0.36964	0.14258	0.2043	0.25728	0.17074	0.075187	0.21224	0.2365	0.30469	0.019691	0.205	-2.2833	-2.9896	-3.3521	-2.9146	-3.3417	-3.1896	-2.9458	-3.6583	-2.8625	-3.0187	-3.475	-2.9146	-3.3146	-3.2396	-2.9354	-3.4125	12.094	-171.794	183.882	147.186	-166.709	-156.901	158.784	182.926	-90.966	51.469	116.524	142.830	172.858	168.175	161.393	173.552	0.00040239	0.00033677	0.00012111	1385.2	2.0364e-06	4.89e-06	1385.9	379.55	2.9902e-06	2.8392e-06	431.19	140.15	119.27	39.532	4.9865e-06	49.08	0.00017267	0.00015752	4.3739e-05	1378.8	1.7477e-06	1.7414e-06	1379.7	378.08	1.7848e-06	1.7656e-06	426.9	138.83	117.93	39.221	1.7951e-06	48.588	-146.789	-77.177	-92.881	-159.367	0.587	-26.875	-159.641	-154.784	-43.913	-47.710	-154.913	-151.371	-150.921	-145.767	-30.420	-146.692	-8191	255	
36137.391	1	1	0	0	0.19287	0.071657	0.019699	0.22342	0.11765	0.10983	0.31415	0.40295	0.15441	0.081459	0.29331	0.12942	0.24747	0.10883	0.24448	0.12062	-2.6167	-2.7687	-3.3167	-2.9062	-3.1667	-3.0333	-2.9917	-3.4062	-3.0438	-2.8521	-3.4833	-2.8833	-3.2375	-3.3417	-2.6646	-3.625	133.724	185.194	163.471	-157.614	-133.005	95.534	150.060	139.885	-45.265	19.594	104.220	-28.404	164.293	-123.594	-155.400	110.414	0.00043667	0.00043713	0.00010329	1382.5	4.3591e-06	6.0932e-06	1372	378.27	6.8339e-07	5.7614e-06	429.51	138.44	118.32	39.229	2.1493e-06	48.441	0.00017628	0.00015814	4.4188e-05	1375.6	1.775e-06	1.7198e-06	1373.4	376.48	1.7376e-06	1.7207e-06	424.97	138.15	116.97	38.912	1.7077e-06	48.15	-148.172	-63.766	-72.432	-159.366	-20.439	-4.972	-159.541	-154.775	-30.595	-33.432	-155.317	-151.435	-150.763	-145.788	10.494	-146.319	-8191	255	
36137.488	1	1	0	0	0.25198	0.16277	0.1455	0.50775	0.023031	0.095444	0.27181	0.22388	0.2765	0.069909	0.078068	0.046456	0.16318	0.2471	0.18158	0.18809	-2.6333	-2.7854	-3.3833	-3.0479	-3.0625	-3.4146	-2.9688	-3.5208	-3.1188	-2.7938	-3.7375	-2.9625	-3.1583	-3.3729	-2.5354	-3.2479	-83.496	89.234	12.048	180.440	14.468	-42.540	134.352	138.465	38.272	39.664	107.874	-70.513	-169.284	-131.838	167.676	166.167	0.00044724	0.00031985	0.00011897	1376.3	3.6128e-06	4.4793e-06	1367.5	375.78	3.9517e-06	4.7184e-06	427.4	137.59	117.07	38.82	3.5821e-06	48.234	0.00017171	0.00015633	4.2644e-05	1365.8	1.7311e-06	1.6798e-06	1365.3	374.19	1.7157e-06	1.6746e-06	422.35	136.99	116.07	38.584	1.7029e-06	47.85	-148.361	-103.043	-85.638	-159.416	-31.203	-73.332	-159.682	-154.775	-41.888	-29.894	-155.197	-151.718	-150.999	-145.688	-24.712	-146.408	-8191	255	
36137.609	1	1	0	0	0.069643	0.23576	0.046199	0.22448	0.33493	0.20724	0.38463	0.25466	0.096229	0.23754	0.12672	0.30831	0.39532	0.035585	0.36724	0.060065	-2.8167	-2.5083	-3.3833	-3.1958	-3.0375	-3.4542	-2.8417	-3.4917	-3.25	-2.6292	-3.5979	-2.9354	-3.0333	-3.5187	-2.6875	-3.3958	-123.984	-35.119	-150.739	146.121	-65.066	-63.980	147.823	151.313	13.968	-127.888	56.462	137.669	-161.726	165.822	-86.276	63.659	0.00038534	0.0002928	7.8173e-05	1366.1	3.1113e-06	5.259e-06	1356.7	374.86	3.15e-06	5.393e-06	424.84	136.89	115.75	38.684	1.5291e-06	47.812	0.00016984	0.00015407	4.212e-05	1358.9	1.7338e-06	1.6711e-06	1357.6	371.81	1.7108e-06	1.6954e-06	418.74	136.16	115.09	38.455	1.7065e-06	47.534	-146.400	-74.480	-24.153	-159.181	-52.421	-9.824	-159.596	-154.902	-86.163	-4.797	-155.344	-151.454	-150.880	-145.504	-60.613	-146.484	-8191	255	
36137.680	1	1	0	0	0.075558	0.11567	0.16929	0.096534	0.31097	0.050792	0.15394	0.21624	0.31906	0.020678	0.23208	0.13881	0.074527	0.24906	0.26754	0.049872	-2.7167	-2.7333	-3.3042	-3.1021	-2.7458	-3.6146	-2.9813	-3.3312	-3.1979	-2.8125	-3.5542	-3.1417	-2.9167	-3.4208	-2.6688	-3.2667	15.345	12.589	-119.704	180.972	-128.055	-67.300	105.105	172.008	156.624	148.572	135.684	160.335	180.705	163.988	-7.686	165.092	0.00041429	0.00026766	0.00020255	1359.9	2.5953e-06	4.4262e-06	1356.5	371.44	2.8233e-06	5.9952e-06	422.61	136.33	116.16	38.48	2.837e-06	47.786	0.00017197	0.00015781	4.308e-05	1351.7	1.7531e-06	1.7216e-06	1350.6	369.45	1.7375e-06	1.7242e-06	417.41	135.53	114.87	38.335	1.737e-06	47.471	-147.759	-85.827	-72.474	-159.197	-65.985	34.001	-159.490	-154.914	-32.271	-16.410	-155.329	-151.385	-150.785	-145.825	-30.403	-146.634	-8191	255	
36137.777	1	1	0	0	0.095027	0.039305	0.11311	0.24547	0.19593	0.12284	0.15996	0.23465	0.26541	0.26071	0.35231	0.17474	0.049346	0.11911	0.10253	0.32193	-2.9479	-2.5583	-3.2792	-3.4146	-2.8417	-3.4688	-3.0208	-3.1208	-3.3292	-2.6917	-3.4396	-3.1833	-2.8083	-3.4771	-2.75	-2.9771	82.292	-137.293	27.684	125.072	154.155	-30.620	33.646	123.408	162.131	-123.556	180.209	176.001	-80.705	158.914	181.324	55.219	0.00046411	0.00039987	0.0001334	1355.2	4.8261e-06	5.5821e-06	1347.7	368.79	4.0426e-06	7.1731e-06	419.3	135.55	115.8	38.46	2.4332e-06	47.594	0.00017351	0.00015437	4.4141e-05	1346.1	1.7147e-06	1.6659e-06	1341.9	367.44	1.6868e-06	1.6487e-06	413.8	134.67	114.19	38.203	1.6734e-06	47.194	-151.592	-63.187	-86.284	-159.351	-0.309	-7.317	-159.385	-155.033	-28.268	-19.866	-155.107	-151.326	-150.796	-145.641	35.412	-146.510	-8191	255	
36137.895	1	1	0	0	0.053257	0.11275	0.18262	0.045092	0.32695	0.099454	0.2657	0.15647	0.32996	0.12927	0.038882	0.22467	0.32492	0.14941	0.072912	0.11482	-2.9896	-2.6542	-3.2562	-3.3458	-2.6521	-3.275	-3.2125	-3.0396	-3.5042	-2.7771	-3.4667	-3.2917	-2.6646	-3.6208	-2.925	-3.0958	-49.424	183.433	88.708	-45.745	-22.095	-145.616	100.353	90.286	28.141	-0.684	-148.024	-25.410	65.612	-161.173	16.033	145.085	0.00038066	0.00035131	0.00010887	1348.1	1.6654e-06	6.1855e-06	1336.8	367.2	2.6409e-06	1.8717e-06	415.84	134.89	114.73	38.431	2.118e-06	47.406	0.00016602	0.00015557	4.299e-05	1340.6	1.7197e-06	1.6895e-06	1336.7	366.4	1.7303e-06	1.7107e-06	413.08	134.36	113.82	38.118	1.7041e-06	47.218	-154.141	-82.232	-101.270	-159.048	-41.437	-15.565	-159.466	-154.881	-21.881	-21.930	-155.375	-151.339	-150.808	-145.841	-37.270	-146.969	-8191	255	
36137.992	1	1	0	0	0.02352	0.16366	0.19028	0.27884	0.095625	0.083901	0.30095	0.071465	0.14457	0.058976	0.20487	0.11996	0.085644	0.092424	0.14064	0.074581	-2.8958	-2.5625	-3.0312	-3.4167	-2.6	-3.4646	-3.1479	-2.8271	-3.3208	-2.8083	-3.15	-3.5917	-2.6646	-3.4646	-2.9854	-2.5792	66.824	55.547	-48.330	164.143	-70.462	-22.340	153.382	-11.244	-171.375	119.672	177.800	-18.473	157.589	-41.017	-2.661	0.697	0.00037795	0.00023258	0.0001244	1344	2.5909e-06	7.3061e-07	1331.7	366.69	2.9297e-06	3.782e-06	417.26	134.32	114.53	38.098	3.3303e-06	47.421	0.00017144	0.00015787	4.3176e-05	1337.1	1.7338e-06	1.6952e-06	1334	364.72	1.7287e-06	1.708e-06	412.19	134.18	113.68	37.895	1.7152e-06	46.965	-147.263	-78.585	-97.424	-159.167	-30.691	-19.838	-159.640	-154.931	-16.112	-23.200	-155.780	-151.446	-150.805	-145.708	-64.010	-146.488	-8191	255	
36138.090	1	1	0	0	0.23259	0.30958	0.15485	0.15586	0.049575	0.14393	0.29359	0.12296	0.096375	0.17163	0.12362	0.06808	0.1386	0.069424	0.16078	0.064628	-2.9479	-2.7833	-2.8063	-3.4625	-2.6958	-3.2875	-3.3458	-2.7521	-3.4521	-2.8417	-2.8771	-3.55	-2.8063	-3.3438	-3.4062	-2.9542	84.155	-90.693	-42.072	146.578	-55.392	81.310	160.443	131.707	-55.966	-2.327	169.044	48.289	-27.486	169.858	-170.435	55.438	0.00040089	0.0005745	0.00011428	1339.2	3.4935e-06	5.5235e-06	1332.8	364.79	4.6707e-06	6.4743e-06	415.33	134.32	114.41	38.052	8.6563e-07	47.343	0.00017062	0.00015557	4.3683e-05	1332.1	1.7454e-06	1.6771e-06	1332.1	363.23	1.706e-06	1.7002e-06	411.27	133.66	113.5	37.915	1.7193e-06	46.969	-149.568	-86.737	-115.779	-159.116	-22.625	-17.348	-159.350	-155.004	-17.646	-22.392	-155.394	-151.310	-150.959	-145.636	-19.135	-146.402	-8191	255	
36138.207	1	1	0	0	0.17817	0.13847	0.09968	0.27556	0.22446	0.1067	0.15773	0.41191	0.12707	0.22168	0.20657	0.15386	0.097629	0.28315	0.21082	0.13211	-3.0729	-2.8854	-2.7854	-3.5375	-2.675	-3.2167	-3.525	-2.8771	-3.5229	-3.0187	-2.9354	-3.5438	-2.9604	-3.3646	-3.4688	-2.9375	-119.109	113.256	185.306	-169.231	-67.221	172.306	30.993	91.341	-6.782	9.381	107.500	156.603	-157.291	107.521	-134.098	-132.624	0.00036576	0.00047844	0.00017256	1344.6	3.4911e-06	2.8675e-06	1338.9	365.81	3.0893e-06	4.7864e-06	418.18	134.3	114.17	38.19	1.9312e-06	47.095	0.00017403	0.00015454	4.3705e-05	1335.3	1.7791e-06	1.7221e-06	1333.7	363.79	1.7821e-06	1.7419e-06	412.16	133.88	113.26	37.917	1.735e-06	46.963	-147.253	-43.125	-127.639	-159.334	-7.364	20.421	-159.629	-155.193	-27.009	-42.894	-155.549	-151.261	-150.602	-145.896	-45.246	-146.666	-8191	255	
36138.281	1	1	0	0	0.27328	0.22929	0.12933	0.2028	0.11861	0.22596	0.22074	0.14056	0.10313	0.13594	0.30581	0.29055	0.3459	0.051434	0.29187	0.21846	-2.9521	-3.0583	-2.8854	-3.5979	-2.8	-3.0208	-3.525	-2.7792	-3.375	-3.1813	-2.8292	-3.6104	-3.1063	-3.0312	-3.2667	-2.8146	185.342	113.861	-162.589	144.758	114.188	-144.764	88.372	176.819	33.160	-35.593	-26.340	58.925	-130.381	-169.431	179.012	131.695	0.00040162	0.00032192	0.00010298	1341.9	2.215e-06	2.8411e-06	1332.1	364.87	1.7593e-06	3.7594e-06	417.55	133.73	114.2	37.909	2.5348e-06	47.144	0.00017347	0.0001588	4.3812e-05	1336.4	1.7678e-06	1.7175e-06	1332.5	363.02	1.7286e-06	1.7075e-06	411.42	133.29	112.98	37.754	1.7258e-06	46.785	-152.921	-45.312	-62.417	-159.288	-48.170	44.030	-159.532	-155.199	-35.525	-49.486	-155.492	-151.295	-150.779	-145.624	-48.876	-146.538	-8191	255	
36138.375	1	1	0	0	0.052238	0.15042	0.20458	0.13024	0.16262	0.21886	0.36573	0.14029	0.13269	0.065088	0.12399	0.25535	0.054675	0.093045	0.1705	0.14931	-3.0146	-3.1562	-2.5958	-3.6854	-2.9208	-2.9646	-3.4958	-2.7646	-3.1146	-3.2438	-2.7917	-3.675	-3.1688	-2.8917	-3.4521	-2.7125	55.089	-16.931	-92.247	149.967	-1.685	166.537	142.337	74.468	-135.933	-71.742	157.780	-147.267	172.084	132.722	85.552	-166.258	0.00037044	0.00031527	0.00011024	1338.7	3.2997e-06	6.0097e-06	1332.1	362.89	3.7699e-06	5.6152e-06	414.76	133.79	113.33	37.999	3.8325e-06	46.735	0.00016978	0.00015698	4.2565e-05	1329.6	1.7122e-06	1.6937e-06	1328.8	361.61	1.7303e-06	1.7084e-06	408.64	132.88	112.65	37.718	1.7017e-06	46.654	-147.372	-29.009	-102.285	-159.126	-24.954	-9.019	-159.596	-155.064	-31.182	-60.005	-155.689	-151.370	-150.693	-145.521	-8.195	-146.707	-8191	255	
36138.496	1	1	0	0	0.090197	0.011314	0.06724	0.30642	0.10326	0.044227	0.16954	0.10802	0.16788	0.14091	0.10625	0.25435	0.10298	0.12724	0.27612	0.33991	-2.7375	-3.3417	-2.5687	-3.7208	-3	-2.6521	-3.7542	-2.8771	-3.0125	-3.275	-2.9667	-3.4292	-3.0708	-2.9062	-3.4958	-2.9708	-103.127	-10.143	118.074	89.992	162.825	142.254	-46.785	-10.216	185.926	149.218	-98.732	149.739	82.592	-71.359	16.427	114.168	0.00043394	0.0001201	8.1915e-05	1331.6	2.2323e-06	3.5603e-06	1324.2	362.99	4.0028e-06	3.6995e-06	413.63	133.56	113.26	37.922	2.9952e-06	46.898	0.00016825	0.00015352	4.3231e-05	1324.6	1.7559e-06	1.6865e-06	1324.5	361.77	1.6925e-06	1.6507e-06	408.59	132.85	112.26	37.594	1.726e-06	46.566	-157.052	83.855	-62.056	-159.231	-95.785	64.442	-159.561	-154.789	-65.569	-65.232	-155.328	-151.298	-150.451	-145.838	-4.823	-146.416	-8191	255	
36138.594	1	1	0	0	0.097328	0.27273	0.35499	0.063758	0.11404	0.18024	0.1579	0.35737	0.087325	0.052974	0.21996	0.10651	0.29889	0.23782	0.19552	0.32945	-2.6562	-3.3688	-2.7292	-3.5896	-3.0167	-2.8729	-3.6375	-2.8604	-2.9688	-3.2729	-2.6688	-3.3375	-3.2375	-2.8042	-3.3875	-3.0354	-159.975	126.597	-53.674	-62.658	149.465	-73.412	75.178	116.395	-112.352	-35.028	164.818	9.742	168.551	130.275	-28.926	53.913	0.00039951	0.00059997	0.00016043	1337.4	2.9866e-06	2.3715e-06	1326.5	363.38	3.8278e-06	6.9386e-06	414.62	134.31	112.8	37.878	2.0364e-06	46.74	0.00017215	0.00015437	4.3113e-05	1326.2	1.7538e-06	1.6923e-06	1324.3	361.49	1.7157e-06	1.6795e-06	408.35	132.82	112.17	37.542	1.6941e-06	46.564	-156.620	-78.150	-83.819	-159.213	-34.153	33.126	-159.630	-154.961	-23.283	-58.350	-155.628	-151.515	-150.499	-145.933	-11.406	-146.455	-8191	255	
36138.688	1	1	0	0	0.071768	0.052781	0.059866	0.61073	0.038013	0.15597	0.1215	0.14094	0.18893	0.29535	0.14627	0.091215	0.26425	0.223	0.23043	0.079344	-2.5625	-3.5125	-2.6208	-3.4375	-3.1562	-2.6833	-3.5271	-3.2229	-2.6937	-3.5792	-2.8333	-3.2917	-3.3458	-2.775	-3.3958	-3.1604	-36.527	135.496	-104.370	-163.992	176.235	-162.301	155.714	107.278	-75.753	108.488	-151.551	-112.649	-164.766	130.692	-150.006	-169.428	0.00037887	0.00033806	4.529e-05	1331.3	2.4918e-06	1.9084e-06	1326.5	361.32	2.0564e-06	3.0724e-06	412	132.61	113.24	37.804	1.5666e-06	46.625	0.00016668	0.00015387	4.2441e-05	1322.7	1.7086e-06	1.6685e-06	1320.3	360.27	1.7613e-06	1.6578e-06	407.25	132.14	111.86	37.503	1.7331e-06	46.458	-152.320	-39.865	-90.276	-159.230	-11.099	25.287	-159.464	-154.796	-20.999	-7.207	-155.647	-151.625	-150.781	-145.514	-17.017	-146.660	-8191	255	
36138.785	1	1	0	0	0.34094	0.079253	0.23526	0.39489	0.37359	0.1566	0.12835	0.14653	0.16266	0.21756	0.12697	0.080426	0.084139	0.27181	0.049403	0.11594	-2.5979	-3.4833	-2.7021	-3.25	-3.4104	-2.6833	-3.55	-3.3375	-2.7333	-3.6417	-3.0271	-3.1333	-3.3563	-2.7792	-3.3083	-3.2917	-117.561	2.114	-6.501	159.179	18.232	-19.815	17.284	-144.266	74.140	-16.950	39.822	-143.075	13.055	-115.404	-16.134	133.117	0.00039961	0.00019675	9.09e-05	1332.1	2.9826e-06	6.0397e-06	1325.3	360.63	2.956e-06	4.5908e-06	411.95	132.79	113.18	37.812	3.1641e-06	46.717	0.00017238	0.00015701	4.3717e-05	1324	1.7338e-06	1.695e-06	1320.6	359.75	1.744e-06	1.7062e-06	407	132.53	111.63	37.489	1.731e-06	46.36	-146.709	-90.633	-91.029	-159.388	-24.167	7.301	-159.503	-154.775	-65.556	-45.338	-155.427	-151.630	-150.710	-145.716	-27.765	-146.219	-8191	255	
36138.906	1	1	0	0	0.30356	0.11453	0.10296	0.12279	0.2406	0.15287	0.25662	0.12161	0.066388	0.048778	0.26212	0.12411	0.18483	0.186	0.12557	0.081854	-2.2313	-3.4146	-2.9042	-3.1354	-3.375	-2.4646	-3.5563	-3.4417	-2.6083	-3.425	-3.2396	-3.0229	-3.5062	-2.6833	-3.2062	-3.4146	-94.866	-104.665	173.816	181.562	-155.857	117.023	159.819	118.527	-139.703	-80.259	-150.335	-106.238	173.960	-169.387	111.366	88.997	0.00042135	0.00020076	9.7941e-05	1323.5	3.1902e-06	3.7706e-06	1325.7	361.83	5.1653e-06	7.5257e-06	414.36	132.28	112.6	37.674	2.4306e-06	46.631	0.00017424	0.00015847	4.4253e-05	1321	1.7586e-06	1.7543e-06	1322.2	359.77	1.7534e-06	1.7221e-06	407.5	132.23	111.88	37.386	1.7334e-06	46.397	-150.433	-50.981	-57.096	-159.319	-6.017	14.892	-159.587	-154.985	-38.950	-30.135	-155.810	-151.426	-150.751	-145.451	23.813	-146.591	-8191	255	
36138.977	1	1	0	0	0.12236	0.22529	0.16535	0.38369	0.026592	0.025375	0.10562	0.29247	0.15475	0.096633	0.090147	0.086471	0.16037	0.20485	0.16487	0.18659	-2.3812	-3.275	-3.0208	-3.1104	-3.45	-2.8875	-3.4	-3.5833	-2.7542	-3.3688	-3.3625	-2.9667	-3.5604	-2.8312	-2.8812	-3.5417	67.935	-71.761	-135.637	140.389	138.085	-73.297	-141.212	76.103	-147.670	-83.572	129.260	-136.519	43.829	-140.770	6.864	47.690	0.00037218	0.0001699	0.00013086	1328	4.3435e-06	5.0172e-06	1321.5	360.01	4.8881e-07	3.7085e-06	412.61	133.11	111.66	37.575	4.2646e-06	46.777	0.00017476	0.00015934	4.4373e-05	1321.8	1.8142e-06	1.7563e-06	1323.4	359.58	1.7969e-06	1.7676e-06	406.75	132.18	111.47	37.37	1.7997e-06	46.38	-144.981	-113.148	-126.229	-159.334	-32.280	-11.264	-159.756	-154.895	-47.799	-50.128	-155.226	-151.325	-150.849	-145.886	-23.944	-146.367	-8191	255	
36139.074	1	1	0	0	0.12747	0.20913	0.070629	0.20846	0.036504	0.16126	0.1084	0.24566	0.21165	0.20299	0.25733	0.13375	0.19426	0.34521	0.11968	0.24211	-2.3208	-3.4521	-3.1396	-2.9292	-3.5417	-3.0021	-3.1042	-3.525	-2.6208	-3.1937	-3.4813	-2.85	-3.6063	-2.8833	-2.8063	-3.5062	161.722	61.562	-8.899	-125.997	-20.181	-82.003	134.743	92.500	33.557	-42.458	148.885	115.621	184.692	-70.741	-96.681	4.317	0.0003882	0.00048991	0.00020424	1328.7	2.7437e-06	3.0066e-06	1323.4	360.41	5.0955e-06	5.557e-06	411.04	132.63	112.36	37.662	4.7041e-06	46.835	0.00017722	0.0001653	4.5042e-05	1322.9	1.8134e-06	1.7559e-06	1321.4	359.32	1.8078e-06	1.7906e-06	405.94	132.2	111.52	37.353	1.7834e-06	46.291	-150.946	-66.896	-100.873	-159.264	-63.720	-13.497	-159.558	-154.855	-55.856	-57.872	-155.451	-151.640	-151.023	-145.753	-48.642	-146.493	-8191	255	
36139.168	1	1	0	0	0.075682	0.17853	0.14668	0.18066	0.083334	0.13021	0.18559	0.25096	0.12033	0.17806	0.2909	0.17962	0.07519	0.16822	0.22831	0.28716	-2.425	-3.2938	-3.3083	-2.8854	-3.3854	-3.0104	-3.025	-3.6583	-2.6688	-3.125	-3.3333	-2.6813	-3.5729	-3.1146	-2.7208	-3.5542	84.093	-105.560	85.998	179.395	-110.770	79.809	80.869	120.107	-168.674	-105.505	128.032	-106.410	38.039	11.259	108.558	108.250	0.00037802	0.00045356	0.00019648	1326.2	4.8219e-06	4.7072e-06	1317.4	358.89	3.3279e-06	5.6189e-06	409.72	132.18	112.16	37.624	3.267e-06	46.69	0.00017608	0.00015905	4.4536e-05	1318.1	1.7691e-06	1.7401e-06	1316	357.82	1.778e-06	1.7038e-06	404.57	131.8	111.17	37.265	1.7422e-06	46.273	-146.440	-99.362	-112.828	-159.244	-38.402	32.843	-159.672	-155.005	-41.348	-42.926	-155.515	-151.427	-150.821	-145.681	-28.712	-146.342	-8191	255	
36139.289	1	1	0	0	0.27186	0.16353	0.043557	0.16313	0.10298	0.14713	0.18386	0.16741	0.1268	0.12467	0.13307	0.1725	0.15073	0.22441	0.11387	0.2495	-2.3688	-3.0667	-3.4333	-2.8125	-3.2896	-3.2042	-3.0938	-3.6583	-2.8688	-2.9917	-3.5563	-2.85	-3.4562	-3.2271	-2.7167	-3.6125	-93.840	147.945	131.640	169.751	-118.959	-131.401	101.459	166.179	150.114	126.564	-46.048	123.380	129.041	100.048	64.136	105.529	0.00039781	0.00020089	0.00011623	1320.5	2.7006e-06	2.0873e-06	1310	359.23	3.9851e-06	6.2531e-06	409.31	132.15	111.98	37.422	4.0525e-06	46.457	0.00017167	0.000158	4.3851e-05	1315.4	1.7201e-06	1.6659e-06	1312.6	357.31	1.725e-06	1.6745e-06	403.71	131.2	111.05	37.176	1.7202e-06	46.09	-151.185	-52.620	-65.649	-159.116	-20.763	-22.310	-159.815	-154.849	-1.596	-55.051	-155.532	-151.555	-150.419	-145.707	-0.347	-146.414	-8191	255	
36139.383	1	1	0	0	0.093376	0.19294	0.024265	0.38248	0.20937	0.10088	0.15004	0.21215	0.18328	0.08327	0.25963	0.14035	0.21551	0.24273	0.21143	0.16121	-2.4188	-2.7958	-3.3625	-2.7875	-3.2229	-3.3229	-2.9313	-3.5979	-2.9417	-2.975	-3.5604	-2.7833	-3.2417	-3.1208	-2.7729	-3.2917	-163.191	-122.496	-27.821	152.252	14.163	-88.438	105.547	92.792	13.142	44.694	58.072	84.506	-125.453	86.973	40.630	110.730	0.0003548	0.00040639	4.9354e-05	1327.2	3.3397e-06	2.7005e-06	1314.1	357.04	3.2231e-06	2.0504e-06	410.32	131.39	112.19	37.33	2.4077e-06	46.018	0.0001709	0.00015382	4.2568e-05	1314.9	1.7276e-06	1.6842e-06	1312.5	356.4	1.732e-06	1.6908e-06	403.51	131.15	111.1	37.03	1.7473e-06	46.032	-150.925	-84.000	-86.253	-159.278	-42.440	-16.556	-159.481	-155.157	-35.262	-17.603	-155.368	-151.522	-151.045	-145.663	-27.012	-146.615	-8191	255	
36139.480	1	1	0	0	0.25437	0.1734	0.21241	0.26661	0.10441	0.025205	0.26138	0.022898	0.15262	0.29063	0.081143	0.30697	0.22896	0.080399	0.16094	0.33767	-2.6333	-2.6937	-3.4188	-2.7854	-3.1562	-3.3375	-2.875	-3.2583	-3.1917	-2.5542	-3.5771	-2.8667	-3.1375	-3.3875	-2.7167	-3.4542	181.599	28.201	163.561	155.453	-40.866	-59.645	71.076	32.601	39.395	-108.161	122.431	178.247	91.975	180.510	2.733	87.837	0.00041998	0.00036218	0.00015009	1317.2	4.7069e-06	1.5382e-06	1314.5	356.63	3.6168e-06	4.2661e-06	406.88	130.91	111.5	37.358	3.5512e-06	46.456	0.00016896	0.0001557	4.3084e-05	1312.3	1.737e-06	1.7055e-06	1311.6	356.22	1.7303e-06	1.6813e-06	402.96	130.82	110.81	37.089	1.7078e-06	46.064	-150.918	-50.743	-82.321	-159.302	-28.577	-26.152	-159.596	-155.051	-16.215	-58.152	-155.670	-151.415	-150.728	-145.798	-9.033	-146.662	-8191	255	
36139.574	1	1	0	0	0.096234	0.36946	0.03905	0.20667	0.0867	0.054925	0.17663	0.13706	0.14904	0.20317	0.20296	0.36551	0.095485	0.14809	0.13759	0.23245	-2.8271	-2.6333	-3.4813	-3.2104	-2.85	-3.3792	-2.8229	-3.3104	-3.1937	-2.8063	-3.5125	-2.9646	-2.8646	-3.5375	-2.6833	-3.2438	80.018	17.755	-6.172	-141.230	114.437	-98.273	148.206	125.871	-142.433	-158.873	156.859	22.052	170.533	64.428	132.788	151.656	0.00041273	0.00043643	0.00014081	1319.7	3.8255e-06	7.1486e-06	1314.7	357.32	3.0955e-06	5.537e-06	409.41	131.75	111.53	37.493	9.6072e-07	46.345	0.00017155	0.00015626	4.3819e-05	1313.6	1.7927e-06	1.719e-06	1311.8	356.11	1.7438e-06	1.751e-06	402.94	131.12	110.64	37.092	1.7476e-06	46.077	-155.344	-81.239	-130.728	-159.437	-9.124	11.174	-159.649	-155.005	14.074	-30.798	-155.186	-151.574	-151.038	-146.014	32.534	-146.442	-8191	255	
36139.672	1	1	0	0	0.27757	0.057708	0.16696	0.24046	0.1346	0.16391	0.18027	0.11027	0.30105	0.16546	0.12447	0.19988	0.15212	0.1197	0.073027	0.22337	-2.7854	-2.7542	-3.2313	-3.0458	-2.8771	-3.4313	-2.7417	-3.3208	-3.1688	-2.7875	-3.4125	-3.1646	-2.8167	-3.6167	-2.8396	-3.0187	-34.572	179.218	38.826	149.070	62.744	-147.830	134.122	-156.880	173.689	-152.766	-124.866	172.457	-48.963	153.664	124.460	-126.154	0.00041306	0.00042584	0.0001206	1318.9	1.4402e-06	4.3047e-06	1321.5	359.11	8.2436e-07	1.1294e-06	407.78	131.75	112.11	37.287	2.7037e-06	46.335	0.00017263	0.00016088	4.442e-05	1314.4	1.783e-06	1.7544e-06	1314.7	356.68	1.7952e-06	1.7625e-06	403.38	131.02	110.87	37.12	1.7873e-06	46.054	-150.904	-43.740	-106.397	-159.080	-42.500	-40.030	-159.562	-154.832	-26.481	-40.708	-155.381	-151.453	-150.784	-145.580	-39.942	-146.774	-8191	255	
36139.770	1	1	0	0	0.19232	0.087978	0.030584	0.13917	0.13607	0.053469	0.24586	0.43548	0.13993	0.063681	0.32108	0.12682	0.2848	0.30786	0.089838	0.18034	-2.9521	-2.5167	-3.3958	-3.3063	-2.5229	-3.4313	-3.1083	-3.1979	-3.5021	-2.7625	-3.3021	-3.1688	-2.8771	-3.5208	-2.8021	-3.0646	30.321	26.125	32.913	-156.727	-37.951	21.272	175.369	70.367	-11.146	-78.517	158.168	140.366	156.935	-161.438	-7.644	-116.435	0.00044947	0.00028306	0.000113	1316.4	2.6932e-06	6.5765e-06	1315.7	355.95	4.155e-06	4.9066e-06	407.95	131.51	111.34	37.462	5.4207e-06	46.061	0.00017155	0.00016022	4.4547e-05	1314.8	1.8094e-06	1.7346e-06	1312.1	355.78	1.7941e-06	1.7431e-06	402.18	131.14	110.57	37.143	1.7418e-06	45.977	-149.664	-69.870	-97.196	-159.301	-86.311	9.059	-159.743	-155.118	-7.649	-53.959	-155.695	-151.288	-151.024	-145.563	26.709	-146.353	-8191	255	
36139.891	1	1	0	0	0.13269	0.039758	0.24866	0.27381	0.043139	0.14483	0.085947	0.12684	0.13108	0.067902	0.099982	0.27905	0.03991	0.075582	0.057296	0.22628	-2.9167	-2.5083	-3.3021	-3.3333	-2.7542	-3.5708	-3.1958	-2.9271	-3.3125	-2.8583	-3.2521	-3.3479	-2.6417	-3.2375	-3.0875	-2.875	-45.545	-31.331	106.731	129.808	-56.241	107.500	24.300	-158.040	-122.643	159.308	175.253	184.267	102.489	177.976	-117.559	-158.830	0.00037209	0.0003313	9.8424e-05	1329.2	2.3755e-06	2.7255e-06	1314.3	357.12	3.8039e-06	9.1125e-07	409.21	131.42	111.22	37.285	2.7386e-06	46.281	0.00017475	0.00016235	4.5041e-05	1317.7	1.7838e-06	1.7291e-06	1312.9	355.98	1.7676e-06	1.7284e-06	403.29	130.82	110.71	37.089	1.7842e-06	45.985	-155.763	-73.431	-122.621	-159.245	-31.960	-16.088	-159.702	-155.123	-51.076	-36.645	-155.279	-151.641	-150.980	-145.839	-50.424	-146.630	-8191	255	
36139.984	1	1	0	0	0.047563	0.081393	0.076229	0.017787	0.16551	0.1954	0.085636	0.3183	0.1197	0.2422	0.26732	0.1022	0.082605	0.22542	0.15354	0.1225	-2.9854	-2.7375	-3.0729	-3.5125	-2.3708	-3.4208	-3.1417	-2.9292	-3.3333	-2.7875	-3.1729	-3.475	-2.6479	-3.375	-2.9938	-2.8104	75.704	73.091	-97.207	-46.177	102.146	100.637	-66.722	151.330	14.358	22.428	-155.530	55.258	184.838	101.559	-39.873	107.737	0.00039357	0.00018239	6.083e-05	1321.7	3.7111e-06	2.6787e-06	1316.7	358.06	4.2199e-06	4.3562e-06	408.81	131.59	111.43	37.325	1.2379e-06	46.066	0.00017605	0.0001636	4.5971e-05	1314.5	1.8033e-06	1.7667e-06	1313.2	356.47	1.7872e-06	1.8224e-06	403.13	131.12	110.63	37.125	1.8181e-06	45.939	-149.574	-115.419	-146.872	-159.186	-45.737	14.374	-159.571	-155.231	-87.918	-42.983	-155.256	-151.260	-150.946	-145.849	-73.786	-146.840	-8191	255	
36140.082	1	1	0	0	0.13594	0.076636	0.15424	0.19488	0.25867	0.12221	0.097416	0.29718	0.12283	0.17084	0.11856	0.095102	0.10629	0.16974	0.17981	0.20468	-2.8979	-2.6646	-2.9979	-3.6042	-2.6667	-3.2	-3.4458	-2.7979	-3.4688	-2.9708	-3.2667	-3.5604	-2.7521	-3.3583	-3.2188	-2.8604	101.694	184.586	75.765	153.652	-92.478	-65.208	163.267	142.068	34.437	-128.393	135.640	40.341	-42.658	-171.187	-133.537	156.788	0.00038955	0.00022853	2.2284e-05	1323.1	4.4194e-06	4.5388e-06	1318.3	357.21	3.4416e-06	3.7321e-06	408.16	131.32	111.85	37.368	4.9603e-06	46.083	0.00017828	0.00016475	4.5525e-05	1316.8	1.864e-06	1.7779e-06	1313.8	355.61	1.8703e-06	1.8234e-06	402.71	130.79	110.51	37.112	1.8625e-06	45.989	-153.390	-83.479	-72.873	-159.203	-57.544	-47.474	-159.715	-155.096	-19.714	-53.374	-155.291	-151.308	-150.778	-145.744	-35.405	-146.867	-8191	255	
36140.180	1	1	0	0	0.18087	0.10794	0.10594	0.040472	0.13997	0.3411	0.16606	0.29317	0.19201	0.27191	0.20782	0.084122	0.13336	0.31121	0.052779	0.07994	-2.8479	-2.85	-2.8021	-3.6958	-2.4292	-3.2229	-3.3479	-2.6562	-3.4104	-3.0312	-2.9271	-3.475	-2.7646	-2.9271	-3.2729	-2.7604	-127.924	-67.860	-45.120	185.823	-36.015	161.204	100.951	182.758	186.255	-124.375	143.346	122.711	108.154	-152.011	142.586	99.357	0.00040308	0.00022547	0.00012238	1327.1	2.9891e-06	5.0829e-06	1312.7	358.2	3.2089e-06	3.9707e-06	408.16	131.43	111.25	37.228	2.7053e-06	46.193	0.00018192	0.00016775	4.6855e-05	1319.4	1.8772e-06	1.8534e-06	1314.4	355.81	1.8855e-06	1.8223e-06	402.67	130.91	110.62	37.024	1.8568e-06	45.904	-148.733	-84.801	-98.308	-159.287	-51.843	19.566	-159.648	-155.042	-58.293	-67.918	-155.366	-151.698	-150.709	-145.802	-47.741	-146.729	-8191	255	
36140.273	1	1	0	0	0.1373	0.16584	0.11774	0.12413	0.068095	0.1312	0.13073	0.078165	0.27061	0.065937	0.15595	0.18873	0.28329	0.13202	0.11484	0.035544	-3.0708	-3.0208	-2.9292	-3.6229	-2.8521	-2.9437	-3.5708	-2.7917	-3.25	-3.0687	-2.8542	-3.3729	-2.9208	-3.1021	-3.3083	-2.6688	22.651	59.153	-119.115	-166.237	-109.991	-155.830	175.672	-59.279	-89.095	181.603	93.849	133.274	180.183	-105.569	154.924	-75.643	0.00036893	0.00042288	8.376e-05	1319.8	1.2257e-06	4.8918e-06	1320.1	355.67	4.98e-06	5.0382e-06	406.9	131.6	111.12	37.24	1.8351e-06	46.507	0.00018688	0.00017261	4.7911e-05	1318.5	1.9412e-06	1.8771e-06	1317.2	355.8	1.9068e-06	1.9254e-06	402.75	131.01	110.61	37.116	1.9115e-06	45.981	-146.305	-76.564	-91.033	-159.169	-8.178	-7.004	-159.609	-154.870	-31.254	-43.573	-155.440	-151.124	-150.625	-145.529	-68.593	-146.661	-8191	255	
36140.367	1	1	0	0	0.29303	0.15174	0.1063	0.30909	0.13982	0.23048	0.13282	0.25292	0.24426	0.029205	0.21927	0.29685	0.16884	0.16327	0.14519	0.10742	-2.7771	-2.95	-2.625	-3.5771	-2.8125	-2.8333	-3.6125	-2.7583	-3.2417	-3.1625	-2.7875	-3.5396	-3.1688	-2.9917	-3.4458	-2.5938	182.138	-0.041	-138.754	138.627	158.700	-165.177	25.683	-150.561	150.659	-90.207	186.230	138.088	132.989	163.446	-93.118	117.434	0.00039171	0.00064553	0.00013391	1324.9	7.1312e-07	8.5621e-06	1314.2	358.27	2.6361e-06	2.0247e-06	407.77	131.77	111.31	37.36	6.3499e-06	46.109	0.0001872	0.00017363	4.8364e-05	1321.2	1.9632e-06	1.9348e-06	1318.1	356.24	1.9443e-06	1.892e-06	403.45	130.92	110.62	37.044	1.9152e-06	45.953	-150.179	-91.444	-104.502	-159.362	-50.071	-0.012	-159.519	-154.944	-65.918	29.641	-155.259	-151.727	-150.766	-145.697	-18.486	-146.450	-8191	255	
36140.465	1	1	0	0	0.057935	0.21818	0.14236	0.12164	0.054133	0.12709	0.26272	0.16469	0.071239	0.029811	0.19092	0.068981	0.22196	0.22652	0.082861	0.17058	-2.6521	-3.3667	-2.7562	-3.5146	-2.9854	-2.8854	-3.5729	-2.8792	-3.0646	-3.2062	-2.6521	-3.4417	-3.1396	-2.7229	-3.4646	-2.9208	129.905	-84.955	-45.393	103.586	94.258	71.079	127.775	126.845	29.755	-32.800	55.277	168.082	161.203	102.524	165.748	109.750	0.00039149	0.00030623	7.0822e-05	1328.5	1.9504e-06	3.0667e-06	1322.4	357.51	4.6338e-06	3.9789e-06	407.47	131.96	110.86	37.074	1.09e-06	45.794	0.0001889	0.00017449	4.9062e-05	1320.5	1.955e-06	1.9162e-06	1318.9	356.47	1.9594e-06	1.9022e-06	403.06	131.28	110.56	36.992	1.8896e-06	45.89	-146.091	-75.261	-66.361	-159.441	-20.473	12.471	-159.675	-155.124	-20.578	-20.034	-155.339	-151.563	-150.610	-145.767	-0.194	-146.690	-8191	255	
36140.559	1	1	0	0	0.10054	0.089085	0.045058	0.17872	0.16532	0.096285	0.14204	0.11567	0.22097	0.12692	0.36277	0.15845	0.18856	0.089619	0.16089	0.50615	-2.6375	-3.1875	-2.6854	-3.6021	-3.1729	-2.8292	-3.7625	-3.1	-2.9292	-3.3958	-2.7292	-3.5167	-3.3542	-2.7083	-3.4583	-3.025	-61.091	174.752	11.463	184.813	-46.146	-161.378	99.322	-56.852	182.606	104.054	60.193	-143.042	-131.779	177.233	-169.653	81.221	0.00039371	0.00049254	0.00011412	1329	1.8821e-06	3.049e-06	1319.3	356.85	3.2077e-06	4.999e-06	406.33	131.52	111.46	36.947	2.8442e-06	46.213	0.00018703	0.00017316	4.8886e-05	1319.9	1.9344e-06	1.9366e-06	1316.8	355.82	1.9371e-06	1.9581e-06	402.91	131.13	110.8	36.97	1.9429e-06	45.89	-152.425	-77.207	-111.958	-159.628	-81.713	-31.374	-159.484	-155.309	-92.582	-36.118	-155.551	-151.464	-150.890	-145.655	8.245	-146.476	-8191	255	
36140.680	1	1	0	0	0.035317	0.10618	0.085801	0.064052	0.084284	0.093175	0.13864	0.3115	0.053527	0.15731	0.15835	0.13148	0.12311	0.062537	0.15597	0.27836	-2.6146	-3.2458	-2.5542	-3.4583	-3.2667	-2.8479	-3.4292	-3.2333	-2.8	-3.4917	-3.0667	-3.1688	-3.4625	-2.5833	-3.5125	-3.1604	-154.009	-117.163	-33.713	-153.666	98.721	-67.724	119.464	150.275	-66.717	32.112	-141.545	44.018	81.697	174.810	40.557	152.871	0.00042983	0.00048273	0.00016516	1322.9	2.1308e-06	4.4189e-06	1319.7	357.2	2.8435e-06	2.3303e-06	407.89	130.97	111.21	37.296	3.409e-06	46.124	0.00018736	0.00017435	4.9236e-05	1319.8	1.9555e-06	1.9174e-06	1317.8	356.39	1.9303e-06	1.9111e-06	402.98	130.9	110.75	37.073	1.92e-06	46.006	-151.740	-74.494	-78.235	-159.273	-23.282	0.536	-159.396	-154.942	-45.637	-86.053	-155.501	-151.431	-150.867	-145.724	-16.948	-146.294	-8191	255	
36140.777	1	1	0	0	0.25404	0.12018	0.26664	0.15019	0.14779	0.11187	0.18109	0.18189	0.031147	0.15721	0.32994	0.12384	0.25091	0.2131	0.18925	0.28998	-2.45	-3.475	-2.5958	-3.075	-3.3917	-2.6937	-3.4229	-3.2417	-2.7979	-3.3958	-3.0167	-3.1042	-3.4375	-2.8021	-3.2729	-3.325	141.216	0.570	-32.447	126.269	147.728	-121.434	123.370	138.003	119.513	108.575	83.713	-133.636	-107.246	152.252	16.295	100.513	0.0003758	0.00040937	7.6694e-05	1328.4	4.4257e-06	5.8419e-06	1319	358.15	5.8427e-06	5.4108e-06	409.58	131.69	111.33	37.162	4.1701e-06	45.957	0.00018838	0.00017257	4.8357e-05	1320.2	1.9507e-06	1.9021e-06	1317.6	356.31	1.9425e-06	1.9171e-06	402.71	130.81	110.7	36.979	1.8709e-06	45.853	-152.730	-69.782	-165.135	-159.477	-53.770	23.928	-159.787	-154.747	-37.789	-61.844	-155.758	-151.777	-150.839	-145.690	-7.877	-146.602	-8191	255	
36140.848	1	1	0	0	0.19054	0.029888	0.31146	0.15908	0.21562	0.12877	0.20413	0.11942	0.081298	0.18249	0.39802	0.12618	0.41098	0.24876	0.05779	0.054199	-2.2167	-3.3312	-2.8917	-3.1917	-3.4771	-2.825	-3.5708	-3.4354	-2.9125	-3.6333	-3.025	-2.9167	-3.4646	-2.8417	-3.2354	-3.35	-60.133	99.822	-56.285	184.631	138.252	-148.753	88.033	144.307	-138.483	30.910	107.988	-136.237	159.767	-47.263	60.971	60.895	0.00042556	0.00051508	0.00011744	1322.6	2.509e-06	3.5711e-06	1318.2	356.42	5.3445e-06	2.43e-06	404.8	130.53	111.43	37.2	7.0525e-06	46.295	0.00018168	0.00016657	4.5703e-05	1314.8	1.8722e-06	1.8572e-06	1314.3	354.95	1.8983e-06	1.8147e-06	401.69	130.64	110.34	36.974	1.8735e-06	45.84	-153.006	-85.047	-120.849	-159.186	-56.875	21.317	-159.761	-154.702	-35.910	-42.963	-155.239	-151.751	-150.426	-145.659	-34.251	-146.473	-8191	255	
36140.969	1	1	0	0	0.29694	0.17371	0.29325	0.17558	0.11338	0.093472	0.26415	0.20062	0.2034	0.15062	0.22989	0.17503	0.1589	0.0563	0.072616	0.14024	-2.2083	-3.4333	-2.9875	-3.0792	-3.4083	-2.65	-3.1979	-3.4021	-2.6917	-3.3167	-3.0958	-2.7667	-3.4875	-2.8396	-2.9729	-3.2729	136.348	15.741	181.585	136.783	76.487	10.153	183.497	-154.581	-169.171	122.148	165.755	96.970	-64.763	156.249	45.016	-103.111	0.00040818	0.00042825	0.00012763	1319	2.0577e-06	3.0182e-06	1315	356.3	5.6386e-06	3.2207e-06	406.33	131.17	111.93	37.047	4.8148e-06	45.901	0.00018527	0.00016965	4.7354e-05	1316.9	1.8937e-06	1.8684e-06	1314.4	355	1.916e-06	1.836e-06	402.05	130.73	110.42	36.922	1.8959e-06	45.857	-140.987	-99.078	-127.050	-159.309	-53.669	-25.563	-159.655	-154.925	-27.599	-25.905	-155.563	-151.726	-150.549	-145.343	-38.128	-146.478	-8191	255	
36141.066	1	1	0	0	0.083457	0.1752	0.083886	0.13583	0.058669	0.11023	0.23843	0.11835	0.10902	0.19868	0.079228	0.16292	0.028177	0.21264	0.22825	0.014221	-2.2792	-3.2583	-3.0708	-2.8458	-3.3729	-2.9979	-2.8083	-3.6667	-2.5604	-3.4437	-3.3354	-2.8625	-3.4604	-2.9562	-3.0604	-3.5417	63.609	77.101	130.673	-163.994	-126.097	-76.820	-144.478	133.301	109.809	3.897	-148.968	147.045	178.623	-84.289	56.973	65.624	0.00044349	0.00028322	3.412e-05	1319.6	2.2963e-06	4.9477e-06	1313.9	357.33	2.8968e-06	3.1094e-06	406.46	131.79	111.35	37.189	4.1783e-06	46.366	0.00018378	0.00017095	4.7595e-05	1314.3	1.8829e-06	1.8618e-06	1313.3	355.58	1.9167e-06	1.8603e-06	402.06	130.76	110.66	36.952	1.8606e-06	45.943	-153.995	-51.198	-132.108	-159.254	-41.250	-16.372	-159.795	-154.723	-105.193	-17.754	-155.187	-151.575	-150.944	-145.783	4.796	-146.276	-8191	255	
36141.160	1	1	0	0	0.094409	0.22351	0.07143	0.099057	0.21484	0.14223	0.31313	0.22491	0.088519	0.062378	0.07062	0.28396	0.10759	0.15682	0.14971	0.032991	-2.2917	-3.0167	-3.2583	-2.7146	-3.325	-2.8312	-3.0958	-3.5187	-2.7396	-3.1958	-3.1396	-2.5958	-3.2792	-3.0646	-2.9333	-3.2417	-68.465	133.257	80.361	25.389	-39.164	-135.596	139.369	76.983	-51.366	171.739	85.040	145.831	38.371	-100.741	-148.391	124.414	0.00041336	0.0003324	0.00012505	1324.4	5.9323e-06	6.275e-06	1318.5	356.2	5.0579e-06	5.0824e-06	406.22	130.19	110.77	37.009	2.2199e-06	46.115	0.00018541	0.00016985	4.7351e-05	1313.8	1.9181e-06	1.8428e-06	1313	355.54	1.8898e-06	1.8842e-06	402.09	130.54	110.25	36.932	1.8674e-06	45.865	-155.066	-34.853	-83.579	-159.237	-27.281	13.624	-159.534	-155.137	-37.668	-91.307	-155.417	-151.377	-150.539	-145.583	1.297	-146.362	-8191	255	
36141.258	1	1	0	0	0.31167	0.14394	0.13473	0.16067	0.088683	0.097748	0.26405	0.14523	0.055296	0.16527	0.27413	0.25736	0.31911	0.16112	0.086166	0.17012	-2.3792	-2.9979	-3.3521	-2.7854	-3.2646	-3.1937	-2.9208	-3.4958	-2.8604	-3.0687	-3.4542	-2.6312	-3.2812	-2.9146	-2.7104	-3.4396	-5.068	-95.472	-9.075	-34.036	171.904	-82.631	171.693	47.800	-112.393	95.650	91.992	139.987	-142.549	-46.115	88.672	149.091	0.00041321	0.00020693	9.9637e-05	1321	2.6554e-06	5.7415e-06	1317	356.26	6.3822e-06	4.1334e-06	407.22	130.92	111.09	37.012	1.3452e-06	46.413	0.00018443	0.00017286	4.7233e-05	1316	1.8961e-06	1.8613e-06	1314.1	355.62	1.9294e-06	1.8543e-06	402.09	130.76	110.38	36.925	1.8887e-06	45.813	-150.271	-78.630	-99.203	-159.460	-47.084	-6.237	-159.679	-154.874	-44.330	-24.641	-155.391	-151.723	-150.721	-145.657	-58.483	-146.645	-8191	255	
36141.379	1	1	0	0	0.29362	0.18584	0.11906	0.15579	0.12622	0.18599	0.31738	0.21216	0.053772	0.33297	0.32465	0.052015	0.076533	0.13776	0.3329	0.17968	-2.5312	-2.8	-3.4271	-2.8542	-3.2146	-3.1396	-2.6437	-3.4042	-2.8896	-2.8333	-3.4458	-2.8896	-3.175	-3.275	-2.5667	-3.5125	-89.892	-25.320	94.765	-141.435	-162.783	-80.010	166.223	54.499	-106.604	53.545	97.088	-114.486	33.936	120.119	173.707	128.995	0.00040401	0.00034977	0.0001058	1326.7	2.4781e-06	4.4069e-06	1320.5	355.76	3.4812e-06	3.7901e-06	409.01	130.66	111.59	37.13	3.5071e-06	46.009	0.00018671	0.00017195	4.7703e-05	1317.6	1.9013e-06	1.8942e-06	1316.5	355.7	1.9595e-06	1.9198e-06	403.81	130.72	110.59	36.96	1.9322e-06	45.837	-140.266	-128.997	-169.839	-159.295	-67.011	30.991	-159.713	-154.959	-61.572	39.301	-154.958	-151.670	-150.870	-145.786	-18.337	-146.576	-8191	255	
36141.449	1	1	0	0	0.37263	0.082611	0.25986	0.25822	0.24832	0.14278	0.1707	0.04047	0.17746	0.033355	0.24767	0.062596	0.28715	0.15312	0.1817	0.21843	-2.5104	-2.8646	-3.2208	-2.7417	-3.0583	-3.3729	-2.8229	-3.4333	-3.0687	-2.7917	-3.5229	-2.8396	-3.0646	-3.4875	-2.6542	-3.4417	141.430	-155.454	-157.109	159.510	-78.213	-104.435	141.336	133.515	-130.757	-54.589	-99.138	-158.566	-95.660	185.171	-106.217	100.506	0.00041509	0.00042501	0.00016236	1327.1	3.9389e-06	3.2362e-06	1316.6	357.62	1.8327e-06	3.9365e-06	408.54	131.12	111.28	37.162	4.5307e-06	46.38	0.00018912	0.00017472	4.7992e-05	1319.3	1.9579e-06	1.9137e-06	1314.6	355.97	1.9764e-06	1.9349e-06	403.23	131.04	110.79	37.041	1.9629e-06	46.018	-145.537	-83.225	-81.632	-159.393	-5.961	54.096	-159.673	-154.980	-46.869	-58.366	-155.329	-151.463	-150.603	-146.019	-32.264	-146.725	-8191	255	
36141.570	1	1	0	0	0.048771	0.21154	0.037585	0.1637	0.12752	0.21235	0.26782	0.28771	0.13703	0.0048195	0.28843	0.27771	0.059068	0.13957	0.1664	0.16727	-2.8937	-2.575	-3.3375	-2.7583	-2.8375	-3.4125	-2.7917	-3.325	-3.1875	-2.4958	-3.5479	-2.9083	-2.875	-3.4062	-2.5625	-3.5229	-41.233	20.686	144.075	166.999	95.850	35.850	75.738	181.399	129.874	-64.370	51.083	180.748	113.137	-32.246	-50.985	-141.107	0.00036604	0.00043522	0.0001199	1327.4	3.4828e-06	4.8354e-06	1317.5	356.95	3.6152e-06	5.0848e-07	406.44	130.87	111.17	37.192	6.3425e-06	46.121	0.00019134	0.00017846	4.883e-05	1321.8	1.9812e-06	1.9792e-06	1317.2	356.52	1.9987e-06	1.9574e-06	403.2	130.86	110.66	37.028	1.9903e-06	45.898	-153.336	-68.053	-145.134	-159.251	-19.868	1.494	-159.825	-155.020	-44.539	24.558	-155.447	-151.580	-150.828	-145.536	5.011	-146.646	-8191	255	
36141.664	1	1	0	0	0.13717	0.088827	0.14999	0.19921	0.18221	0.12149	0.16166	0.34143	0.11991	0.10908	0.037078	0.086205	0.30535	0.14315	0.134	0.1016	-2.9313	-2.5458	-3.2687	-3.2687	-2.7417	-3.5938	-3.025	-3.2375	-3.3396	-2.7208	-3.5771	-3.1771	-2.8792	-3.5375	-2.8604	-2.9667	36.864	7.500	172.446	183.093	-80.557	131.815	146.874	83.616	0.458	-81.143	144.574	-164.492	-121.890	141.624	-94.694	44.407	0.00040558	0.00047648	0.00014303	1329.3	4.4943e-06	4.63e-06	1319.5	358.58	4.0271e-06	3.0436e-07	407.18	130.67	111.24	37.088	2.317e-06	46.338	0.00019276	0.00017901	4.9119e-05	1322.8	1.9637e-06	1.9076e-06	1318.8	356.68	1.9669e-06	1.9107e-06	403.06	130.9	110.65	36.937	1.9232e-06	45.893	-140.169	-43.673	-72.576	-159.325	-43.925	-23.798	-159.754	-155.059	-73.815	27.908	-155.461	-151.424	-150.878	-145.785	-12.356	-146.563	-8191	255	
36141.762	1	1	0	0	0.17234	0.19961	0.11657	0.29127	0.15557	0.24804	0.25391	0.17708	0.13385	0.098853	0.038728	0.045613	0.05926	0.21854	0.02527	0.08137	-2.9021	-2.6479	-3.3792	-3.2875	-2.8792	-3.5667	-3.05	-3.1708	-3.4562	-2.5667	-3.3	-3.1458	-2.6458	-3.4833	-2.9479	-3.0708	76.957	175.831	11.807	110.611	169.715	149.418	162.871	92.373	-70.730	53.287	57.387	-62.728	-166.254	-123.832	128.458	-157.038	0.00038738	0.00019641	0.00011635	1328.7	3.3271e-06	7.3896e-06	1318.4	356.89	3.7578e-06	6.2305e-06	407.22	130.81	111.54	37.013	4.2056e-06	45.874	0.00018885	0.00017551	4.8233e-05	1320.8	1.927e-06	1.8745e-06	1316.1	355.05	1.9099e-06	1.9086e-06	401.81	130.55	110.41	36.965	1.903e-06	45.783	-154.689	-60.657	-121.969	-159.310	-74.163	-19.555	-159.559	-155.095	-32.967	-73.814	-155.438	-151.415	-150.689	-145.639	-51.947	-146.736	-8191	255	
36141.859	1	1	0	0	0.14694	0.24633	0.30562	0.2345	0.011023	0.12075	0.33434	0.1335	0.10576	0.25121	0.12314	0.26744	0.17685	0.25589	0.25512	0.060859	-2.975	-2.6729	-3.1833	-3.3729	-2.7042	-3.2833	-3.1063	-2.9625	-3.3917	-2.7042	-3.1979	-3.4729	-2.7812	-3.4875	-2.8521	-2.8458	142.800	90.724	111.973	125.561	98.735	-172.183	119.522	139.475	181.037	20.382	144.345	102.926	125.907	49.340	157.183	80.626	0.00041005	0.00029198	9.8056e-05	1326	3.8368e-06	3.83e-06	1319.4	357.23	4.2684e-06	7.4168e-06	406.46	131.14	111.43	37.099	1.8166e-06	45.922	0.00018753	0.00017476	4.8085e-05	1319.2	1.9042e-06	1.8779e-06	1315.4	355.4	1.9158e-06	1.8916e-06	402.38	130.66	110.5	36.944	1.9101e-06	45.846	-149.275	-43.932	-95.792	-159.320	-31.576	-2.468	-159.495	-155.097	-37.280	-49.629	-155.530	-151.214	-150.674	-145.765	-64.080	-146.523	-8191	255	
36141.977	1	1	0	0	0.12276	0.11284	0.067977	0.27228	0.17792	0.27369	0.31751	0.19221	0.094256	0.06957	0.16912	0.14148	0.3399	0.13463	0.18538	0.09803	-3.0375	-2.5604	-3.1042	-3.6437	-2.6292	-3.3083	-3.0667	-3	-3.4188	-2.7	-3.0833	-3.2687	-2.7562	-3.3333	-3.0563	-2.9271	-25.487	44.702	-1.556	154.425	47.304	-149.812	-169.827	140.888	-59.706	151.474	-171.359	138.420	150.604	75.843	155.897	144.847	0.00039642	0.0003913	0.00013111	1321.4	3.655e-06	8.6783e-06	1315.8	354.86	3.4677e-06	5.4266e-06	406.57	131.18	111.49	37.113	2.3892e-06	46.015	0.00018724	0.00017532	4.854e-05	1317.1	1.9201e-06	1.857e-06	1315.9	354.26	1.9366e-06	1.9331e-06	402.23	130.69	110.51	36.896	1.9094e-06	45.814	-150.304	-95.167	-46.111	-159.241	-24.243	0.302	-159.684	-155.052	12.668	-6.628	-155.651	-151.144	-150.750	-145.889	-45.533	-146.687	-8191	255	
36142.074	1	1	0	0	0.10637	0.19437	0.14537	0.30795	0.25938	0.19673	0.19728	0.34535	0.067336	0.09243	0.078558	0.35633	0.12976	0.12556	0.07234	0.13007	-3.0312	-2.8167	-2.7896	-3.5229	-2.5917	-3.1021	-3.4625	-2.8771	-3.4417	-2.7292	-3.0896	-3.5542	-2.825	-3.2125	-3.35	-2.7458	84.124	110.910	-88.937	133.102	155.373	109.561	179.185	174.818	9.161	-81.320	-54.370	135.423	135.732	80.976	-168.680	4.690	0.0003819	0.00039399	5.0307e-05	1325.3	3.6889e-06	3.5227e-06	1320.2	356.07	1.8378e-06	2.9207e-06	404.73	131.54	111.41	37.064	3.2062e-06	45.895	0.00018634	0.00017447	4.8757e-05	1318.4	1.9653e-06	1.8731e-06	1315.8	355.02	1.9552e-06	1.9029e-06	401.7	130.83	110.47	36.896	1.9178e-06	45.843	-148.503	-121.972	-74.540	-159.168	-56.360	-9.322	-159.486	-155.170	-31.061	-34.782	-155.326	-151.509	-150.907	-145.638	0.212	-146.546	-8191	255	
36142.145	1	1	0	0	0.076951	0.22995	0.21813	0.22656	0.18269	0.26013	0.22156	0.30079	0.26382	0.22399	0.087674	0.25527	0.021015	0.18162	0.11675	0.10983	-2.8937	-2.7583	-2.8583	-3.4146	-2.6396	-2.9771	-3.4833	-2.8208	-3.2562	-2.9896	-2.9646	-3.4479	-2.8396	-2.9979	-3.2271	-2.725	120.381	-92.055	-121.370	132.090	-20.842	40.085	-12.920	135.052	16.295	-163.234	-139.714	158.417	-15.423	134.156	-73.334	148.707	0.00039539	0.00039117	0.00019431	1324.2	4.4718e-06	5.5308e-06	1315.5	357.39	2.077e-06	7.1783e-06	409.13	131.08	111.33	36.911	1.2574e-06	45.938	0.00018831	0.00017683	4.8676e-05	1319.5	1.959e-06	1.9237e-06	1317.4	355.4	1.9463e-06	1.8947e-06	402.88	130.82	110.5	36.867	1.9371e-06	45.774	-151.888	-73.922	-100.677	-159.297	-13.036	-0.929	-159.436	-155.166	-33.466	-22.612	-155.566	-151.437	-150.658	-145.676	22.721	-146.311	-8191	255	
36142.266	1	1	0	0	0.061296	0.19687	0.032001	0.15195	0.18314	0.2085	0.22254	0.47231	0.21697	0.060638	0.14264	0.28088	0.1163	0.32996	0.10445	0.044671	-2.8667	-3.0771	-2.6875	-3.6146	-3.0229	-3.0563	-3.4625	-2.8792	-3.1396	-3.1813	-2.8104	-3.4625	-3.0062	-3.0146	-3.3479	-2.825	48.987	-8.556	115.171	124.023	59.955	-41.756	130.593	109.553	58.540	56.959	142.902	108.615	158.608	-140.213	113.509	-77.464	0.00037147	0.00045645	0.00010602	1328	4.1419e-06	7.9562e-06	1317.4	356.9	2.126e-06	5.1704e-06	405.05	131.77	111.71	37.048	3.5016e-06	45.75	0.00018778	0.00017968	4.9236e-05	1320.6	1.9935e-06	1.9469e-06	1316.2	355.78	1.9595e-06	1.9684e-06	401.66	131.13	110.54	36.923	1.9802e-06	45.718	-150.300	-105.823	-90.291	-159.287	-77.623	-42.421	-159.602	-154.859	4.671	-10.877	-155.416	-151.489	-150.608	-145.753	-45.224	-146.875	-8191	255	
36142.359	1	1	0	0	0.3329	0.13481	0.15025	0.16591	0.11479	0.23503	0.18909	0.11797	0.2147	0.17356	0.0048023	0.10166	0.19242	0.14806	0.10558	0.18391	-3.0563	-3.3208	-2.6542	-3.5146	-2.925	-2.8187	-3.7333	-2.9	-3.2625	-3.3875	-3	-3.4375	-3.1125	-2.9021	-3.4771	-2.7771	-120.690	129.584	113.119	78.347	-145.784	106.732	134.613	117.085	-163.525	150.910	113.081	157.324	128.782	49.302	13.898	67.823	0.00041141	0.0002088	0.00022518	1323.3	4.1758e-06	3.2307e-06	1314.9	356.47	1.3307e-06	1.9332e-06	405.84	131.4	110.53	37.137	3.0311e-06	46.258	0.00018942	0.00017946	4.9082e-05	1319	1.9534e-06	1.9496e-06	1317	355.81	1.9279e-06	1.9214e-06	401.43	130.9	110.22	36.895	1.9117e-06	45.809	-142.723	-81.408	-112.799	-159.412	-7.041	-37.190	-159.594	-155.133	-5.668	-29.609	-155.263	-151.173	-150.583	-145.794	-0.815	-146.628	-8191	255	
36142.457	1	1	0	0	0.09435	0.18119	0.24969	0.39832	0.21798	0.11006	0.47265	0.10808	0.12601	0.16614	0.28362	0.085484	0.10926	0.19688	0.1172	0.16698	-2.775	-3.1417	-2.7375	-3.5687	-3.1333	-2.75	-3.6875	-2.9729	-3.1937	-3.1583	-2.7104	-3.5354	-3.1271	-2.8021	-3.5229	-2.9208	-99.374	90.049	-40.246	131.980	22.877	128.813	148.284	95.839	81.840	185.072	183.485	-170.288	-136.742	128.436	-141.301	136.508	0.00038433	0.00034238	0.00012795	1317.9	4.3913e-06	6.5946e-06	1312.9	355.96	3.7645e-06	2.5665e-06	404.11	130.52	110.61	36.976	3.0024e-06	46.074	0.00018817	0.00017312	4.8438e-05	1315.6	1.9267e-06	1.8978e-06	1314.5	354.65	1.9344e-06	1.9057e-06	401.4	130.35	110.05	36.858	1.9373e-06	45.82	-149.001	-76.235	-101.184	-159.144	-37.902	9.142	-159.525	-154.961	-51.209	-23.320	-155.346	-151.633	-150.630	-145.716	-38.087	-146.728	-8191	255	
36142.555	1	1	0	0	0.10632	0.055214	0.33849	0.4034	0.11191	0.082862	0.18031	0.23134	0.28929	0.25498	0.3194	0.096497	0.12324	0.16089	0.073875	0.34188	-2.7333	-3.5146	-2.5563	-3.5271	-3.2562	-2.8187	-3.6542	-3.1292	-3.0229	-3.4562	-2.9	-3.4062	-3.2104	-2.6813	-3.3896	-3.05	41.625	185.121	-21.063	127.986	80.563	146.833	144.616	173.060	-142.581	56.795	170.332	165.022	-124.697	123.580	71.132	98.680	0.000442	0.00046429	7.4151e-05	1326.1	1.0235e-06	6.1193e-06	1315.2	356.21	4.893e-06	3.758e-06	407.07	130.79	110.92	36.97	4.3734e-06	46.073	0.00019012	0.00017452	4.815e-05	1318.7	1.9602e-06	1.9117e-06	1315.8	354.44	1.9519e-06	1.896e-06	401.95	130.61	110.1	36.809	1.9026e-06	45.822	-145.417	-60.910	-79.453	-159.349	-53.362	-4.984	-159.640	-154.782	-45.802	-77.141	-155.160	-151.504	-150.479	-145.779	-20.233	-146.681	-8191	255	
36142.648	1	1	0	0	0.015017	0.13392	0.085208	0.34024	0.093112	0.11058	0.32892	0.21761	0.32066	0.22563	0.16877	0.12181	0.17512	0.2263	0.12477	0.32132	-2.4417	-3.3812	-2.5979	-3.3438	-3.4396	-2.6229	-3.6979	-3.1375	-2.8729	-3.5021	-2.8708	-3.1729	-3.3083	-2.5979	-3.3167	-3.1	28.485	113.515	21.298	164.432	-141.367	176.752	152.488	184.182	64.687	-75.312	118.623	-157.536	168.602	114.238	20.796	127.306	0.00038859	0.00035046	9.2213e-05	1318.5	3.5751e-06	4.6442e-06	1314.5	355.77	1.6194e-06	8.0695e-06	405.17	131.49	110.63	37.193	1.6314e-06	45.965	0.00018481	0.00017633	4.8907e-05	1316.8	1.9231e-06	1.9001e-06	1312.7	354.54	1.9204e-06	1.8645e-06	401.38	130.5	110.12	36.965	1.9233e-06	45.774	-147.355	-86.520	-76.692	-159.142	-18.576	26.360	-159.736	-154.899	-6.486	-36.143	-155.487	-151.335	-150.840	-145.790	-18.749	-146.616	-8191	255	
36142.746	1	1	0	0	0.33287	0.27491	0.11409	0.19518	0.064679	0.17897	0.14316	0.13346	0.095273	0.095707	0.21942	0.13964	0.31492	0.21452	0.17533	0.14631	-2.2125	-3.5438	-2.7458	-3.2771	-3.3854	-2.7458	-3.3792	-3.3625	-2.6646	-3.4042	-3.0375	-3.0542	-3.5458	-2.7062	-3.2354	-3.4208	99.253	163.831	117.214	128.215	-106.285	86.401	116.185	177.951	-116.527	112.965	155.093	-166.186	109.400	-121.005	71.329	106.058	0.00045707	0.00022621	3.7567e-05	1322.9	3.1731e-06	5.5188e-06	1318.8	357.24	1.0014e-06	1.3366e-06	404.43	130.96	110.2	37.13	3.0924e-06	45.653	0.00018665	0.00017399	4.8246e-05	1316	1.9488e-06	1.8917e-06	1316.4	355.51	1.9258e-06	1.9278e-06	401.23	130.43	110.04	36.853	1.9147e-06	45.597	-151.510	-54.464	-75.160	-159.254	-60.932	-42.146	-159.777	-155.092	-111.075	-110.859	-155.581	-151.628	-150.759	-145.786	-18.666	-146.479	-8191	255	
36142.844	1	1	0	0	0.20406	0.19662	0.060332	0.084722	0.077407	0.12906	0.24095	0.15444	0.25576	0.045936	0.2465	0.13754	0.13389	0.23838	0.10378	0.2141	-2.6146	-3.425	-2.8187	-3.1333	-3.4	-2.7438	-3.3146	-3.2958	-2.5312	-3.4229	-3.0083	-2.8021	-3.5167	-2.8521	-3.1312	-3.6125	135.591	61.300	72.892	148.998	176.797	-61.049	105.604	58.588	-4.843	-45.275	163.345	-145.974	-139.171	105.671	-106.751	41.655	0.00040875	0.00053838	0.00017068	1325.9	2.2289e-06	1.2543e-06	1313.1	354.85	3.5087e-06	4.6999e-07	406.57	130.81	110.79	36.946	4.7423e-06	46.061	0.00019016	0.00017431	4.881e-05	1318.5	1.9489e-06	1.9223e-06	1314.4	354.82	1.9666e-06	1.9293e-06	401.92	130.55	110.2	36.839	1.9204e-06	45.762	-148.732	-87.062	-87.372	-159.405	12.601	-125.187	-159.684	-154.854	-20.108	-135.906	-155.342	-151.385	-150.548	-145.925	-27.212	-146.325	-8191	255	
36142.938	1	1	0	0	0.18887	0.09398	0.12418	0.1014	0.021157	0.076715	0.096705	0.38552	0.12533	0.12888	0.3168	0.23307	0.37083	0.15948	0.12257	0.043876	-2.4229	-3.4479	-3.15	-2.9813	-3.5271	-2.9229	-3.1729	-3.4771	-2.7708	-3.5312	-3.3479	-2.7854	-3.4583	-2.8625	-2.95	-3.3604	52.478	116.292	-26.361	157.317	-150.588	-124.681	162.442	141.059	91.707	-52.034	152.298	116.624	175.755	16.100	-115.968	166.258	0.0003866	0.00033821	0.00013655	1323.8	2.2763e-06	3.6111e-06	1317.3	355.97	3.4356e-06	3.9869e-06	405.38	131.13	110.57	36.769	1.8502e-06	45.928	0.00018927	0.00017407	4.9461e-05	1316.5	1.9567e-06	1.9021e-06	1314.3	354.34	1.949e-06	1.8941e-06	400.75	130.38	110.28	36.779	1.913e-06	45.72	-148.762	-81.025	-74.331	-159.282	-20.040	-18.915	-159.690	-154.813	-17.503	-29.726	-155.326	-151.580	-151.076	-145.738	-26.204	-146.680	-8191	255	
36143.059	1	1	0	0	0.12092	0.17669	0.19277	0.27328	0.18012	0.22482	0.13286	0.22016	0.13337	0.10354	0.096221	0.1414	0.081005	0.08821	0.064284	0.29129	-2.3479	-3.0708	-3.1562	-2.8937	-3.4083	-3.0521	-3.2938	-3.5333	-2.6708	-3.2667	-3.2792	-2.7042	-3.5375	-3.0167	-2.9104	-3.5729	-25.911	-145.848	-125.714	-164.001	-169.536	24.957	-160.175	185.225	-93.084	-60.710	-88.077	-109.301	-52.284	-117.186	-110.068	142.000	0.00041894	0.00037469	6.3477e-05	1322.8	3.7475e-06	2.8164e-06	1315.5	356.9	4.3675e-06	4.736e-06	406.06	130.74	110.43	37.018	2.8519e-06	45.937	0.00018932	0.00017482	4.8444e-05	1316.2	1.9443e-06	1.8926e-06	1311.4	354.92	1.9482e-06	1.9198e-06	401.3	130.35	110.03	36.845	1.9285e-06	45.611	-146.450	-50.121	-60.946	-159.333	-66.043	2.199	-159.597	-154.813	-47.726	-26.254	-155.153	-151.580	-150.718	-145.845	8.378	-146.509	-8191	255	
36143.156	1	1	0	0	0.21646	0.048954	0.18034	0.28454	0.29409	0.10437	0.35304	0.26284	0.10064	0.10644	0.064907	0.18549	0.015386	0.084491	0.11854	0.17291	-2.375	-3.1104	-3.2604	-3.0458	-3.3854	-2.9708	-2.95	-3.5938	-2.9021	-3.125	-3.5	-2.925	-3.4292	-3.1021	-2.6896	-3.5	-77.845	123.477	115.191	186.780	60.643	3.105	69.964	165.070	155.161	122.644	143.126	-130.427	-148.947	-10.309	154.729	-77.310	0.00041808	0.00055732	0.00020271	1319.8	2.2113e-06	6.1712e-06	1316.6	354.84	3.4956e-06	3.2178e-06	405.45	130.8	110.72	37.168	2.1622e-06	45.818	0.00018667	0.00017566	4.8494e-05	1314.7	1.9685e-06	1.9064e-06	1311.2	354.79	1.933e-06	1.9029e-06	401.11	130.49	110.13	36.841	1.9624e-06	45.721	-142.936	-103.956	-140.049	-159.372	-14.601	7.545	-159.580	-154.824	-30.675	19.015	-155.212	-151.235	-150.614	-145.582	19.812	-146.575	-8191	255	
36143.250	1	1	0	0	0.084593	0.031793	0.051891	0.027809	0.12451	0.19572	0.2937	0.043226	0.058805	0.11094	0.11278	0.081427	0.16736	0.26569	0.21304	0.36524	-2.3396	-3.1562	-3.3792	-2.7917	-3.4	-3.0708	-3.1042	-3.5	-2.9062	-3.1729	-3.7479	-2.625	-3.3708	-3.1979	-2.7771	-3.6458	-23.748	135.941	161.268	157.146	21.791	28.980	95.041	40.232	-82.936	-29.131	16.722	-38.246	125.622	95.966	-20.803	94.789	0.00040674	8.7305e-05	0.00014975	1328.2	2.7266e-06	4.915e-06	1305.9	354.21	1.8401e-06	3.3969e-06	404.25	130.46	110.87	36.737	3.9541e-06	45.803	0.00019112	0.00017741	4.9149e-05	1317	1.9386e-06	1.9401e-06	1312.5	354.2	1.952e-06	1.9388e-06	401.41	130.14	110.1	36.792	1.924e-06	45.678	-150.144	-91.027	-99.357	-159.273	-101.127	-7.597	-159.832	-154.848	-47.500	-29.137	-155.221	-151.509	-150.611	-145.697	-31.775	-146.740	-8191	255	
36143.348	1	1	0	0	0.2337	0.19695	0.13034	0.19398	0.25029	0.27144	0.36653	0.19196	0.1842	0.16369	0.073888	0.18461	0.1493	0.23932	0.047028	0.35218	-2.4583	-3.1292	-3.5083	-2.6958	-3.2562	-3.4313	-2.8187	-3.5375	-2.9833	-2.9208	-3.4062	-2.825	-3.1917	-3.2458	-2.5771	-3.4021	91.785	96.353	132.882	-167.320	132.187	-111.969	136.431	172.367	-55.887	108.043	-148.981	61.704	141.341	134.756	-92.074	-147.780	0.00039894	0.00057018	0.00020754	1327.9	4.9424e-06	5.2909e-06	1314	355.12	4.453e-06	2.8157e-06	405.67	130.97	110.93	36.873	4.1614e-06	46.077	0.00018931	0.00017591	4.8773e-05	1317.7	1.9412e-06	1.9256e-06	1312.8	354.22	1.9356e-06	1.9466e-06	402.13	130.47	110.09	36.756	1.9587e-06	45.702	-151.562	-36.517	-81.967	-159.272	-17.844	-8.994	-159.848	-154.905	-73.605	1.908	-155.331	-151.591	-150.919	-145.860	-21.574	-146.599	-8191	255	
36143.441	1	1	0	0	0.38138	0.09955	0.16479	0.22147	0.05274	0.16123	0.26484	0.16295	0.18704	0.2147	0.18443	0.39904	0.015329	0.094648	0.073335	0.14533	-2.575	-2.7583	-3.4521	-2.9542	-2.9771	-3.2812	-2.7604	-3.4604	-3.1667	-2.8375	-3.7042	-3.1375	-3.2083	-3.7438	-2.7896	-3.5417	-65.167	-102.626	100.562	162.768	-55.988	4.434	73.474	176.412	123.858	-36.844	163.650	100.593	36.225	39.437	153.471	93.481	0.00041247	0.00023836	8.4942e-05	1322.2	2.9539e-06	1.0657e-06	1309.3	356.23	3.7042e-06	7.3001e-07	404.65	130.53	111.01	36.881	3.2172e-06	46.093	0.00018895	0.00017498	4.824e-05	1315.1	1.9376e-06	1.8965e-06	1310.6	355.13	1.9285e-06	1.8637e-06	400.79	130.3	110.11	36.707	1.9321e-06	45.699	-141.245	-66.683	-81.172	-159.253	-39.093	35.955	-159.654	-154.983	-53.181	-15.947	-155.350	-151.517	-150.677	-145.696	-23.309	-146.634	-8191	255	
36143.539	1	1	0	0	0.023097	0.18356	0.080734	0.16562	0.35934	0.19642	0.22589	0.20561	0.15565	0.061023	0.034386	0.045412	0.094717	0.29575	0.059001	0.22819	-3.0438	-2.8417	-3.6542	-3.2625	-3.0958	-3.7729	-3.1333	-3.5208	-3.3292	-2.9938	-3.9	-3.1792	-3.0521	-3.8312	-2.9792	-3.5792	-69.681	-116.661	84.099	135.594	-45.388	92.446	180.725	158.319	-129.631	107.732	68.965	-142.696	110.293	-137.623	149.902	20.922	0.00034961	0.00031932	0.00011776	1320.2	3.2877e-06	5.4686e-06	1313.5	355.74	2.4978e-06	4.6355e-06	407.01	130.06	110.31	36.838	4.375e-06	45.724	0.00018434	0.00017315	4.8599e-05	1313.9	1.9203e-06	1.8508e-06	1310.3	354.48	1.8706e-06	1.8785e-06	400.52	130.04	109.63	36.788	1.8688e-06	45.586	-146.651	-95.375	-97.721	-159.355	-51.878	-42.744	-159.799	-154.839	-41.714	-31.711	-155.327	-151.330	-150.669	-145.561	-30.791	-146.530	-8191	255	
36143.656	1	1	0	0	0.19799	0.29485	0.30685	0.22676	0.1074	0.098327	0.19907	0.20011	0.10364	0.43053	0.09067	0.30781	0.18104	0.12458	0.1263	0.17151	-3	-2.9396	-3.6354	-3.5083	-3.1104	-3.65	-3.0375	-3.5771	-3.3625	-2.9542	-3.6917	-3.3438	-3.0146	-3.7042	-3.0521	-3.3208	124.569	-79.561	-69.685	174.717	133.235	77.428	139.613	-82.435	-135.595	179.645	134.179	-159.934	-139.573	129.894	102.859	25.335	0.00042118	0.00042404	0.0001527	1316.6	2.2808e-06	5.3453e-06	1316.1	355.61	2.4159e-06	5.3749e-06	407.29	130.43	110.55	36.78	9.7073e-07	46.136	0.00018105	0.00017193	4.6588e-05	1312.1	1.9173e-06	1.8731e-06	1311.2	353.97	1.8786e-06	1.8474e-06	400.82	130.3	109.73	36.728	1.8554e-06	45.61	-157.065	-94.482	-44.631	-159.219	-4.080	-4.836	-159.577	-154.973	-38.259	7.253	-155.115	-151.169	-150.580	-145.848	-56.950	-146.697	-8191	255	
36143.754	1	1	0	0	0.15711	0.22543	0.15063	0.10726	0.19917	0.097132	0.11975	0.28899	0.19465	0.30723	0.080903	0.04068	0.12283	0.14886	0.2323	0.44698	-3.1813	-2.8438	-3.4437	-3.5979	-2.9354	-3.6208	-3.3688	-3.2708	-3.5875	-2.9104	-3.6458	-3.4167	-3.0187	-3.9521	-2.9292	-3.1771	-90.587	-10.519	-88.803	73.583	-10.150	-81.319	174.884	-164.566	39.698	-96.206	-121.005	130.114	-120.164	-70.161	71.995	-151.946	0.00043117	0.00048104	0.00019731	1321	3.5633e-06	3.4426e-06	1312.5	354.51	4.3505e-06	1.5834e-06	405.6	130.76	110.56	36.816	1.9511e-06	45.833	0.00018353	0.00016724	4.6946e-05	1313.7	1.8657e-06	1.8158e-06	1308.1	353.63	1.8736e-06	1.8382e-06	400.56	130.06	109.67	36.711	1.8401e-06	45.515	-145.525	-98.590	-80.328	-159.157	-26.397	-63.680	-159.776	-155.011	-30.577	-76.016	-155.291	-151.486	-150.771	-145.603	36.640	-146.700	-8191	255	
36143.852	1	1	0	0	0.19628	0.17462	0.13587	0.10803	0.11392	0.092459	0.18883	0.30317	0.10909	0.2086	0.19211	0.14545	0.17953	0.22995	0.15271	0.22947	-3.3521	-2.7729	-3.3833	-3.5604	-2.925	-3.5687	-3.225	-3.1146	-3.7458	-3.125	-3.5125	-3.6333	-3.1667	-3.6437	-3.2979	-3.1125	166.517	-100.573	-50.954	120.143	97.503	-24.137	134.961	96.186	87.678	137.843	161.498	147.642	92.513	164.486	-76.222	102.098	0.00040443	0.00045012	6.1552e-05	1316.2	5.9126e-06	3.9933e-06	1308	354.57	3.7995e-06	5.5809e-06	406.26	130.75	110.5	36.886	4.2842e-06	45.925	0.00018217	0.00016718	4.6736e-05	1311.9	1.8722e-06	1.8341e-06	1308.5	354.1	1.8755e-06	1.8741e-06	399.85	130.17	109.71	36.706	1.8706e-06	45.57	-150.977	-84.275	-105.103	-159.325	-24.773	13.745	-159.585	-155.017	-19.505	-8.751	-155.490	-151.438	-150.843	-145.760	-19.280	-146.532	-8191	255	
36143.945	1	1	0	0	0.05851	0.17026	0.12143	0.27425	0.10182	0.14153	0.13308	0.058916	0.18919	0.10044	0.33479	0.22431	0.093352	0.16827	0.34192	0.19354	-3.4375	-2.9625	-3.4042	-3.5604	-2.8292	-3.6458	-3.4313	-3.2417	-3.5333	-3.0187	-3.3917	-3.6979	-2.9667	-3.5542	-3.2917	-3.1125	6.775	-39.830	1.271	168.849	-71.554	2.707	34.093	131.932	-105.871	32.646	-162.532	-167.875	130.775	127.929	136.814	-156.275	0.00038269	0.00058762	8.0472e-05	1315.2	3.5216e-06	3.1862e-06	1311.1	353.37	2.5701e-06	4.8253e-06	404.52	130.81	110.72	36.977	4.0439e-06	45.486	0.00018239	0.0001731	4.6887e-05	1310.9	1.9141e-06	1.8734e-06	1309.3	352.95	1.8796e-06	1.869e-06	399.89	130.23	109.8	36.729	1.8617e-06	45.547	-150.968	-88.694	-129.423	-159.379	-27.336	-5.668	-159.563	-155.121	-49.463	-108.029	-155.456	-151.561	-150.842	-145.842	-44.797	-146.747	-8191	255	
36144.043	1	1	0	0	0.17379	0.4248	0.083632	0.30791	0.089937	0.14923	0.098384	0.19545	0.26096	0.24542	0.1875	0.038003	0.053987	0.34826	0.14341	0.25367	-3.4292	-3.0292	-3.1229	-3.675	-2.9313	-3.5917	-3.6188	-3.0604	-3.6854	-2.9646	-3.2167	-3.7042	-2.9562	-3.4333	-3.3771	-2.8792	-58.153	-14.845	45.632	170.077	49.856	157.279	111.726	118.767	179.582	-133.465	130.048	69.530	-7.292	163.409	186.433	14.400	0.00035861	0.00025424	0.00016511	1318.5	2.01e-06	4.2003e-06	1310.1	355.56	2.4372e-06	4.0863e-06	404.35	131.06	110.2	36.901	3.5722e-06	45.846	0.00018169	0.00017135	4.7859e-05	1312.8	1.8945e-06	1.8533e-06	1309.9	353.66	1.886e-06	1.9004e-06	400.55	130.34	109.78	36.749	1.8812e-06	45.532	-149.947	-85.900	-126.729	-159.118	-26.512	-11.013	-159.725	-154.956	-51.423	-62.734	-155.439	-151.359	-150.512	-145.868	-30.567	-146.516	-8191	255	
36144.141	1	1	0	0	0.09744	0.017317	0.079744	0.21133	0.025471	0.093993	0.27112	0.25876	0.27603	0.32138	0.15387	0.11999	0.29263	0.12287	0.10441	0.25865	-3.2646	-3.0292	-2.8417	-3.7667	-2.5958	-3.15	-3.7271	-3.05	-3.5667	-3.1625	-3.0146	-3.6479	-3.0208	-3.3583	-3.4354	-2.8229	102.208	-160.625	128.578	105.792	-63.267	-73.969	147.573	101.723	48.497	-142.557	112.404	81.439	144.612	-17.440	102.188	140.205	0.00042127	0.00040623	5.1402e-05	1321.6	1.5591e-06	1.6626e-06	1309.1	354.76	2.4879e-06	7.5392e-07	405.56	130.36	110.71	36.891	2.367e-06	45.766	0.00018531	0.0001728	4.8155e-05	1314.7	1.9093e-06	1.8717e-06	1309.6	354.05	1.9152e-06	1.8878e-06	400.22	130.02	109.73	36.735	1.8966e-06	45.566	-149.372	-105.391	-119.427	-159.323	-33.197	59.512	-159.737	-155.202	-56.552	79.947	-155.363	-151.525	-151.140	-145.891	-35.390	-146.335	-8191	255	
36144.234	1	1	0	0	0.1007	0.15579	0.23777	0.58052	0.12601	0.25217	0.26954	0.22061	0.11924	0.24494	0.27061	0.15632	0.21896	0.17971	0.21413	0.041688	-3.1729	-3.1521	-2.9958	-3.7792	-3.0229	-3.0062	-3.8479	-2.9437	-3.5771	-3.3417	-3.1354	-3.7167	-2.9604	-3.0083	-3.4958	-2.9417	101.191	-100.026	-132.325	139.611	166.280	-87.221	138.161	176.354	71.127	-17.932	-129.236	87.397	164.869	60.342	117.216	-101.649	0.00042831	0.00036124	0.00016508	1321.9	2.2062e-06	2.514e-06	1316.5	354	2.6726e-06	2.0432e-06	404.95	130.65	111.15	37.08	4.7651e-06	45.852	0.00018487	0.00017354	4.8418e-05	1314.9	1.9103e-06	1.8913e-06	1312.1	353.84	1.9116e-06	1.8857e-06	399.96	130.17	109.98	36.763	1.8997e-06	45.522	-154.795	-55.991	-102.707	-159.337	-39.266	-37.863	-159.528	-154.981	-32.974	-11.914	-155.696	-151.546	-150.585	-145.709	-20.839	-146.476	-8191	255	
36144.332	1	1	0	0	0.20137	0.18404	0.2053	0.15138	0.18395	0.13586	0.29117	0.11127	0.12054	0.16711	0.020773	0.1288	0.22495	0.21341	0.047023	0.064624	-3.0187	-3.3479	-2.8292	-3.925	-3.0854	-3.0333	-3.8187	-2.9979	-3.2917	-3.4562	-3.0354	-3.6146	-3.15	-3.0979	-3.5854	-3.0563	-114.517	135.888	120.990	-163.848	-60.444	-4.271	156.188	22.354	-15.607	-107.480	16.855	147.553	157.085	121.114	123.381	-142.469	0.00041518	0.0003088	9.6676e-05	1322	4.8071e-06	4.2584e-06	1316.2	354.62	2.5598e-06	1.0602e-06	403.69	130.52	111.19	36.764	4.0782e-06	45.751	0.0001848	0.00017439	4.8127e-05	1314.8	1.9267e-06	1.8914e-06	1311.8	354.04	1.9302e-06	1.8483e-06	399.7	130.31	109.79	36.678	1.8515e-06	45.624	-148.800	-75.584	-52.085	-159.656	-41.087	-15.523	-159.360	-155.163	-10.329	-115.118	-155.602	-151.435	-150.637	-145.670	3.911	-146.501	-8191	255	
36144.449	1	1	0	0	0.10712	0.1139	0.17844	0.086297	0.11416	0.056129	0.14053	0.1323	0.0097954	0.08884	0.41643	0.21503	0.1589	0.14535	0.1367	0.20124	-2.8708	-3.4417	-2.9792	-3.6188	-3.0979	-2.9292	-3.8479	-2.9958	-3.1833	-3.5167	-2.9417	-3.6333	-3.275	-3.1625	-3.6458	-2.9583	-104.368	181.296	133.599	-147.952	-81.245	62.139	99.749	169.854	158.789	121.941	109.865	158.824	155.182	154.722	-138.628	185.316	0.00040127	0.00028554	9.9498e-05	1321.6	3.251e-06	3.2382e-06	1317.9	354.8	5.306e-06	4.8198e-06	404.25	130.65	110.34	37.028	1.1657e-06	45.893	0.0001846	0.00017208	4.7991e-05	1314.4	1.8951e-06	1.8717e-06	1311.4	353.39	1.9172e-06	1.8708e-06	400.47	130.02	109.56	36.772	1.8909e-06	45.545	-151.684	-77.028	-162.757	-159.141	-8.657	-21.950	-159.571	-154.909	-28.937	-28.380	-155.535	-151.598	-150.764	-145.573	-93.082	-146.469	-8191	255	
36144.547	1	1	0	0	0.21882	0.25652	0.15927	0.14724	0.052609	0.093508	0.2204	0.068223	0.15004	0.11424	0.17262	0.26036	0.19858	0.20166	0.26685	0.20548	-2.8542	-3.6271	-2.8042	-3.7417	-3.2583	-2.8583	-3.8125	-3.125	-3.1854	-3.7562	-3.1229	-3.5292	-3.6979	-2.7354	-3.5604	-3.2479	-71.501	-21.911	21.784	-166.262	148.971	-86.552	128.466	-136.675	-118.825	114.628	-131.255	137.987	134.081	161.857	140.057	-146.043	0.00039754	0.0001886	0.00018246	1322.2	4.5366e-06	4.9672e-06	1313.4	353.91	2.2279e-06	3.8804e-06	403.91	129.91	110.31	36.953	4.6857e-06	45.953	0.00018623	0.00017249	4.8419e-05	1314.7	1.9191e-06	1.8863e-06	1312.1	353.14	1.8867e-06	1.8787e-06	399.9	130.05	109.6	36.695	1.8712e-06	45.595	-147.714	-88.873	-93.242	-159.439	-73.085	-10.946	-159.544	-155.192	-11.567	-96.158	-155.794	-151.490	-150.729	-145.760	-36.163	-146.492	-8191	255	
36144.621	1	1	0	0	0.32081	0.094809	0.19671	0.41104	0.055575	0.14118	0.32753	0.1343	0.13422	0.21873	0.1547	0.16749	0.079998	0.063039	0.043212	0.088659	-2.6583	-3.6375	-2.9167	-3.5062	-3.3667	-2.7146	-3.8792	-3.2854	-2.9833	-3.6958	-2.9958	-3.4042	-3.6396	-2.9667	-3.4854	-3.2062	55.147	130.746	44.020	153.688	-43.659	-147.475	150.631	117.294	114.748	48.554	163.141	-156.574	153.572	59.064	-163.507	45.716	0.00039937	0.00029814	0.00018041	1318.9	2.7612e-06	3.7262e-06	1316.6	353.63	2.1281e-06	3.9233e-06	405.11	130.66	110.07	36.862	2.665e-06	45.76	0.00018376	0.00017273	4.7292e-05	1314.2	1.8758e-06	1.8658e-06	1311.9	353.58	1.8726e-06	1.8611e-06	399.8	130.3	109.49	36.738	1.8991e-06	45.459	-150.707	-92.304	-92.207	-159.237	-37.855	-18.855	-159.634	-155.120	3.534	-28.155	-155.295	-151.582	-150.617	-145.786	27.169	-146.594	-8191	255	
36144.738	1	1	0	0	0.10345	0.11305	0.049506	0.51302	0.095726	0.22282	0.073744	0.14038	0.044331	0.14066	0.28998	0.22976	0.15715	0.2426	0.028296	0.12138	-2.5187	-3.5	-2.8208	-3.2167	-3.5563	-2.8792	-3.6312	-3.3937	-2.8604	-3.6188	-3.3375	-3.3292	-3.6417	-2.9875	-3.4354	-3.3479	124.830	175.181	120.973	138.798	-7.560	-160.657	-169.979	170.565	6.807	-154.087	172.981	164.155	94.338	-169.437	170.640	108.914	0.0004275	0.00061638	0.00013599	1320.7	1.2936e-06	4.1537e-06	1313.4	354.23	5.182e-06	2.5308e-06	404.67	130.29	110.12	36.864	4.4018e-06	45.735	0.00018675	0.00017158	4.8102e-05	1314.7	1.9399e-06	1.9141e-06	1310.9	353.42	1.9458e-06	1.894e-06	399.75	130.13	109.56	36.697	1.91e-06	45.592	-147.494	-15.004	-101.163	-159.304	-43.626	-20.231	-159.793	-154.934	-32.710	-85.163	-155.441	-151.623	-150.639	-145.705	-19.574	-146.409	-8191	255	
36144.836	1	1	0	0	0.090431	0.16096	0.18588	0.25848	0.23221	0.12361	0.10268	0.15488	0.22484	0.048072	0.2315	0.14962	0.18673	0.23452	0.038965	0.11465	-2.6104	-3.6604	-2.8667	-3.3563	-3.5958	-2.8542	-3.625	-3.5917	-2.9604	-3.5708	-3.2771	-3.0542	-3.8792	-3.1021	-3.1688	-3.6729	68.562	-142.487	39.952	144.211	26.878	17.703	64.586	176.121	-154.221	43.140	136.392	-133.767	-140.116	-164.808	-28.768	-2.992	0.00038	0.00057698	0.00011911	1322.2	1.1825e-06	4.5156e-06	1308.5	354.47	3.738e-06	3.1557e-06	403.96	129.9	110.44	37.108	4.1087e-06	45.683	0.0001878	0.00017535	4.9446e-05	1313.5	1.9359e-06	1.9365e-06	1310.4	353.16	1.9389e-06	1.852e-06	399.44	129.91	109.65	36.737	1.9005e-06	45.551	-144.481	-80.986	-122.918	-159.377	-27.146	13.755	-159.505	-154.901	-65.563	-33.110	-155.484	-151.437	-150.551	-145.879	-35.136	-146.486	-8191	255	
36144.930	1	1	0	0	0.21456	0.14044	0.11693	0.08775	0.10218	0.20354	0.2023	0.10906	0.044448	0.03753	0.19798	0.29761	0.049565	0.21935	0.22066	0.15022	-2.6375	-3.6437	-3.2083	-3.0958	-3.5125	-2.8646	-3.3958	-3.6979	-2.9146	-3.5396	-3.5042	-3.0438	-3.7167	-2.9771	-3.4313	-3.7208	43.987	116.159	151.031	153.856	125.544	115.339	142.824	152.223	35.926	20.216	-118.734	90.836	-113.962	173.387	71.198	143.751	0.00037329	0.00054507	6.1404e-05	1318.6	2.4374e-06	3.0712e-06	1313.3	355.2	4.2193e-06	5.2045e-06	404.11	129.73	110.18	36.791	2.4548e-06	45.721	0.00018651	0.00017542	4.8984e-05	1313.5	1.9371e-06	1.9149e-06	1310.2	353.36	1.9349e-06	1.9131e-06	399.83	129.66	109.61	36.677	1.9104e-06	45.483	-148.683	-91.782	-32.622	-159.433	-45.267	11.101	-159.725	-154.956	-3.067	-20.678	-155.480	-151.393	-150.641	-145.820	-14.224	-146.946	-8191	255	
36145.051	1	1	0	0	0.046012	0.15581	0.21778	0.39341	0.14581	0.050036	0.26706	0.2398	0.20632	0.1956	0.1179	0.29186	0.32602	0.11763	0.10197	0.035333	-2.3688	-3.2979	-3.4729	-3.1521	-3.7438	-2.8625	-3.2729	-3.8187	-3.0854	-3.4104	-3.3833	-3.1479	-3.7188	-3.1417	-3.0187	-3.5729	130.334	-158.825	86.405	114.584	70.168	-170.610	143.842	135.060	-77.681	129.513	-158.499	146.940	98.896	-57.468	68.834	50.390	0.00044293	0.0002616	6.7697e-05	1322.2	3.5142e-06	7.7838e-06	1310	354.54	4.1556e-06	3.1516e-06	403.19	130.57	110.06	36.788	5.0278e-06	45.418	0.00018805	0.00017374	4.816e-05	1313.7	1.9174e-06	1.9275e-06	1307.6	353.42	1.9142e-06	1.8829e-06	399.9	129.98	109.58	36.644	1.8989e-06	45.471	-151.777	-102.552	-103.109	-159.407	-22.543	25.247	-159.533	-154.825	-39.884	-59.558	-155.293	-151.911	-150.694	-145.566	-36.358	-146.397	-8191	255	
36145.148	1	1	0	0	0.18563	0.16237	0.20167	0.13072	0.051606	0.07987	0.037338	0.29984	0.040399	0.16108	0.1776	0.32318	0.16752	0.095157	0.090985	0.1535	-2.5771	-3.5312	-3.3167	-3.1479	-3.6646	-3.2938	-3.4042	-3.9479	-3.0604	-3.3563	-3.5958	-2.95	-3.6479	-3.2042	-2.7604	-3.7854	81.237	-145.716	100.648	144.868	104.702	-138.140	137.208	181.189	17.835	-63.653	-81.618	165.262	-59.587	175.768	11.695	152.031	0.00035742	0.00043905	2.5788e-05	1316.8	3.776e-06	4.258e-06	1313.7	354.23	2.483e-06	6.2371e-06	404.28	130	110.43	36.834	1.7507e-06	45.795	0.00018696	0.00017045	4.7872e-05	1312.9	1.8873e-06	1.8719e-06	1310.1	352.78	1.8935e-06	1.8536e-06	399.32	129.92	109.6	36.708	1.8929e-06	45.546	-145.482	-122.769	-97.533	-159.129	-11.851	28.354	-160.010	-154.811	-47.268	-85.329	-155.571	-151.668	-150.929	-145.524	-6.959	-146.754	-8191	255	
36145.242	1	1	0	0	0.039698	0.16066	0.094078	0.30846	0.1619	0.19049	0.14072	0.12026	0.18333	0.2195	0.40627	0.10358	0.31931	0.17201	0.40022	0.21626	-2.4792	-3.2833	-3.6437	-3.1125	-3.575	-3.375	-3.2687	-3.8896	-2.975	-3.1937	-3.5479	-3	-3.325	-3.4167	-2.8333	-3.5979	-1.648	-96.588	176.025	139.131	12.330	-55.367	95.672	168.641	-123.858	-140.280	129.679	-109.599	-117.937	90.441	10.374	141.166	0.00040465	0.00011433	0.0001751	1320.7	4.9001e-06	5.4718e-06	1309.8	353.91	4.4842e-06	3.3181e-06	404.14	129.91	109.69	36.707	4.4856e-06	45.892	0.00018401	0.0001707	4.7695e-05	1312.2	1.9208e-06	1.8722e-06	1309.3	353.33	1.931e-06	1.8874e-06	399.89	129.79	109.42	36.628	1.938e-06	45.597	-148.365	186.872	-97.615	-159.425	-9.802	8.039	-159.537	-154.938	-39.979	-87.484	-155.186	-151.508	-150.863	-145.551	-4.921	-146.424	-8191	255	
36145.340	1	1	0	0	0.36115	0.12481	0.12312	0.28839	0.11789	0.23181	0.12042	0.31708	0.066518	0.3314	0.12981	0.19287	0.21629	0.19946	0.1992	0.18156	-2.6792	-3.0625	-3.6083	-3.025	-3.3583	-3.4875	-3.3146	-3.9	-3.1688	-3.1437	-3.675	-3.0292	-3.3604	-3.5312	-2.9125	-3.7083	-34.504	-90.524	30.512	67.592	-127.685	59.806	171.438	109.601	-168.205	114.329	121.960	174.510	107.461	-153.244	-13.409	38.517	0.00039085	0.00024117	8.8853e-05	1316	5.2121e-06	3.4397e-06	1315.7	353.36	4.5748e-06	6.345e-06	402.62	131.16	110.04	36.884	5.192e-06	45.678	0.00018729	0.00017413	4.8691e-05	1312.9	1.9589e-06	1.9056e-06	1308.8	353.69	1.9707e-06	1.9108e-06	398.96	130.24	109.5	36.733	1.9056e-06	45.574	-148.716	-134.733	-91.686	-159.308	-29.133	33.266	-159.800	-155.025	-35.939	-20.809	-155.286	-151.559	-150.752	-145.773	-4.756	-146.753	-8191	255	
36145.434	1	1	0	0	0.10775	0.22114	0.07861	0.26511	0.092292	0.086549	0.38248	0.13394	0.10845	0.11446	0.062589	0.059599	0.31577	0.24097	0.034572	0.11074	-2.8667	-2.8521	-3.6229	-3.1083	-3.2188	-3.4208	-3.0812	-3.7583	-3.375	-3.1312	-3.7104	-3.1292	-3.4062	-3.6375	-2.8979	-3.6521	8.384	44.875	-39.413	161.187	47.479	138.145	73.878	117.296	-41.601	-66.930	-147.111	84.626	148.126	108.778	-151.728	66.529	0.0003195	0.00030586	0.00014053	1314.2	2.5776e-06	2.6727e-06	1313.4	355.9	5.8641e-06	7.3332e-07	404.51	130.31	110.15	37.085	3.5377e-06	45.671	0.00018747	0.00017412	4.89e-05	1311.8	1.9386e-06	1.8674e-06	1310.8	354.18	1.9717e-06	1.8939e-06	399.62	129.99	109.6	36.791	1.9113e-06	45.584	-149.475	-90.643	-105.670	-159.438	-7.962	-25.113	-159.527	-154.847	-43.854	-32.120	-155.404	-151.594	-150.783	-145.359	-24.835	-146.627	-8191	255	
36145.531	1	1	0	0	0.071145	0.037131	0.086989	0.4381	0.042372	0.1425	0.058302	0.11366	0.17118	0.072674	0.067937	0.090682	0.51897	0.17899	0.15636	0.20764	-3.1104	-2.9188	-3.625	-3.225	-3.0417	-3.5354	-3.05	-3.5938	-3.2833	-3.0042	-3.6063	-3.075	-2.9167	-3.6792	-2.9354	-3.3542	100.410	114.359	56.589	174.350	-73.199	-23.214	165.303	79.279	-155.739	7.683	73.350	71.222	177.312	94.715	108.740	-18.049	0.00036918	0.00045166	0.00014954	1317.7	3.3534e-06	2.5246e-06	1314.5	353.68	3.9016e-06	4.1327e-06	406.43	130.54	110.69	37.023	1.8844e-06	45.601	0.00018774	0.00017298	4.8004e-05	1312.5	1.9131e-06	1.8899e-06	1309.3	353	1.9494e-06	1.9195e-06	400.21	129.93	109.71	36.733	1.9268e-06	45.502	-148.492	-106.618	-95.987	-159.164	-91.035	48.940	-159.991	-154.914	7.694	-31.559	-155.047	-151.451	-150.721	-145.387	-42.218	-146.466	-8191	255	
36145.629	1	1	0	0	0.16581	0.19824	0.093221	0.29363	0.22329	0.28007	0.15584	0.22361	0.23192	0.21753	0.088503	0.25084	0.279	0.19699	0.285	0.12558	-3.0667	-2.8708	-3.7438	-3.6229	-3.1271	-3.6562	-3.1417	-3.4583	-3.5563	-2.9313	-3.725	-3.4229	-3.0833	-3.7938	-2.9708	-3.4146	2.638	56.775	74.614	-168.367	175.437	-168.572	120.471	130.236	70.368	-93.844	81.982	55.398	183.525	115.324	112.843	8.783	0.00036836	0.00030485	3.9851e-05	1315.1	2.4899e-06	6.0217e-06	1308.3	353.53	2.9384e-06	7.4181e-06	403.51	129.62	109.77	36.668	1.3332e-06	45.783	0.00018665	0.00017621	4.8477e-05	1311.9	1.9189e-06	1.8584e-06	1310.5	352.92	1.9416e-06	1.8826e-06	399.72	129.87	109.46	36.577	1.9088e-06	45.553	-149.906	-88.624	-142.605	-159.277	-40.798	-28.377	-159.768	-154.833	-36.953	-40.677	-155.152	-151.810	-150.818	-145.785	-32.723	-146.461	-8191	255	
36145.746	1	1	0	0	0.10682	0.16907	0.11717	0.078684	0.16511	0.12972	0.25488	0.16745	0.11061	0.15687	0.068018	0.33278	0.17464	0.23186	0.13124	0.27491	-3.2792	-2.8833	-3.4583	-3.4542	-2.9229	-3.7292	-3.2792	-3.3625	-3.6167	-2.9667	-3.6771	-3.7375	-2.9542	-3.8479	-2.9604	-3.1083	-36.300	136.899	-26.947	19.131	45.991	137.535	96.340	56.458	10.769	63.161	-61.719	115.944	109.831	171.057	42.190	112.359	0.00045031	0.00038511	0.00018644	1314.7	2.1342e-06	3.8002e-06	1311.3	355.5	2.5777e-06	2.0156e-06	403.99	130.5	109.95	37.14	5.518e-06	45.904	0.00018877	0.00017695	4.7865e-05	1313.4	1.9576e-06	1.8468e-06	1309.8	353.6	1.9113e-06	1.9018e-06	400.05	129.95	109.51	36.764	1.911e-06	45.576	-153.667	-105.338	-94.840	-159.100	-35.761	-11.135	-159.830	-154.960	15.522	-19.119	-155.293	-151.489	-150.549	-145.431	-23.472	-146.688	-8191	255	
36145.844	1	1	0	0	0.17614	0.16429	0.1614	0.36725	0.23647	0.010575	0.26712	0.24787	0.10322	0.19097	0.29913	0.20607	0.11856	0.14814	0.21347	0.11211	-3.3646	-2.8292	-3.3729	-3.7521	-2.9708	-3.7188	-3.4333	-3.1417	-3.7583	-2.9771	-3.4354	-3.6583	-2.9917	-3.6729	-3.0854	-3.1667	-54.766	179.330	183.453	152.604	-48.486	90.951	150.526	98.021	-125.472	33.327	56.453	107.115	-70.477	84.061	28.825	102.454	0.00035354	6.8571e-05	0.00010646	1319.1	1.7982e-06	5.7509e-06	1309.4	354.26	3.9509e-06	2.4588e-06	405.17	130.65	110.61	36.929	1.4185e-06	45.743	0.00018865	0.00017484	4.8117e-05	1312.2	1.9571e-06	1.9142e-06	1310.8	352.98	1.9109e-06	1.8771e-06	399.84	130.01	109.61	36.688	1.9349e-06	45.578	-149.281	146.039	-72.595	-159.353	-96.357	-60.512	-159.590	-155.056	-18.409	-92.093	-155.705	-151.524	-150.959	-145.963	-79.148	-146.658	-8191	255	
36145.914	1	1	0	0	0.047419	0.31893	0.061414	0.27477	0.17685	0.1891	0.19765	0.11495	0.081111	0.1523	0.085137	0.0082319	0.31801	0.21124	0.19998	0.16022	-3.4458	-2.7271	-3.3458	-3.8187	-2.7604	-3.725	-3.3021	-3.1229	-3.7104	-3.1437	-3.0958	-3.6833	-2.8958	-3.7125	-3.2354	-3.0187	-136.419	-22.460	57.462	179.872	174.728	180.031	123.077	167.378	-141.742	-75.054	-143.903	173.312	137.641	-168.179	180.154	167.822	0.00037919	0.00026871	0.00016268	1320	2.3583e-06	8.8361e-07	1305	353.88	4.5584e-06	4.5791e-06	403.5	130.68	110.26	36.981	6.3556e-06	45.603	0.00018799	0.00017487	4.9064e-05	1313.8	1.9382e-06	1.9113e-06	1308.3	353.23	1.9414e-06	1.89e-06	399.46	129.89	109.77	36.703	1.9248e-06	45.516	-152.409	-97.779	-74.757	-159.220	-48.385	116.555	-159.801	-154.918	-39.570	-72.370	-155.400	-151.457	-150.860	-145.560	-53.104	-146.267	-8191	255	
36146.012	1	1	0	0	0.19919	0.30796	0.14796	0.4041	0.14087	0.061975	0.18975	0.15098	0.26844	0.30787	0.11325	0.22095	0.29508	0.32834	0.11826	0.24205	-3.2146	-3.1292	-3.1208	-3.7333	-2.9062	-3.6188	-3.5917	-3.0875	-3.5854	-3.2979	-3.2104	-3.6708	-3.1271	-3.5	-3.5167	-3.0229	6.357	-109.980	-7.970	-160.107	15.675	-66.887	76.746	122.135	25.381	-131.359	48.072	-53.919	131.370	168.342	-104.152	160.576	0.000434	0.00041351	6.7704e-05	1317.3	8.264e-07	1.543e-06	1312.3	354.87	2.0359e-06	5.2002e-06	401.6	129.6	110.19	36.716	1.8777e-06	45.673	0.00018624	0.0001745	4.8392e-05	1313.7	1.9517e-06	1.8489e-06	1308.7	353.06	1.9098e-06	1.8973e-06	399.06	129.58	109.54	36.667	1.9246e-06	45.53	-150.874	-93.472	-124.552	-159.170	-1.348	2.479	-159.446	-154.873	-9.362	3.482	-155.695	-151.365	-150.800	-145.908	-111.103	-146.341	-8191	255	
36146.133	1	1	0	0	0.16787	0.2741	0.16884	0.33671	0.17581	0.072145	0.051117	0.28733	0.0755	0.052806	0.082157	0.19741	0.1884	0.30621	0.20928	0.16124	-3.3125	-3.0646	-3.0812	-3.9208	-3.0062	-3.2667	-3.7021	-3.1458	-3.6979	-3.3875	-3.2625	-3.7542	-3.075	-3.3917	-3.5104	-3.0667	105.027	156.815	43.160	131.919	86.805	-140.835	-41.533	105.557	-80.969	-163.952	151.775	149.556	-89.458	126.995	138.562	132.363	0.00039104	0.00022421	0.00022071	1317.4	3.7579e-06	1.6218e-06	1311.6	353.84	5.3339e-06	2.612e-06	404.11	130.53	110.92	36.756	2.2725e-06	45.638	0.00018722	0.00017516	4.8925e-05	1313.3	1.9408e-06	1.9052e-06	1309.8	353.11	1.9183e-06	1.8946e-06	399.91	129.82	109.8	36.692	1.9083e-06	45.418	-150.081	-90.897	-80.692	-159.426	-26.538	-45.068	-159.639	-154.990	-23.147	-77.735	-155.552	-151.623	-150.641	-145.973	4.339	-146.626	-8191	255	
36146.227	1	1	0	0	0.14004	0.29816	0.086	0.12747	0.10155	0.1247	0.27114	0.1388	0.093743	0.045096	0.12169	0.30399	0.059093	0.19689	0.191	0.068083	-3.025	-3.2479	-3.0187	-4.0458	-3.1604	-3.2188	-3.8271	-3.1813	-3.4437	-3.3896	-2.9896	-3.7729	-3.0687	-3.1417	-3.5938	-3.0187	-84.238	13.555	-136.631	115.244	63.348	-159.792	82.405	158.606	-108.605	17.282	113.862	-152.165	-172.488	127.021	-41.502	-3.354	0.00043695	0.00034416	0.00011025	1320	3.3032e-06	3.9017e-06	1316.5	354.11	2.7079e-06	5.4365e-06	404.04	130.25	110.17	36.936	1.3293e-06	45.805	0.00018791	0.00017329	4.8705e-05	1314	1.9708e-06	1.8871e-06	1310.9	352.77	1.9233e-06	1.8851e-06	400.09	129.88	109.36	36.678	1.909e-06	45.456	-157.141	-66.734	-129.453	-159.008	-10.241	-8.281	-159.513	-155.243	-57.783	-79.623	-155.567	-151.566	-151.038	-145.763	-23.389	-146.554	-8191	255	
36146.320	1	1	0	0	0.089032	0.17141	0.25758	0.17557	0.26273	0.03849	0.19624	0.23249	0.19974	0.094771	0.15838	0.077825	0.10516	0.24069	0.098646	0.15544	-3.0625	-3.4146	-2.8958	-3.7938	-3.1479	-3.1458	-3.7875	-3.0563	-3.3854	-3.5708	-3.0854	-3.7542	-3.3833	-3.0687	-3.7146	-3.0333	-109.732	-106.220	82.782	138.689	-25.607	-72.946	104.926	130.235	-33.090	-11.980	-50.942	185.447	66.867	42.550	-109.395	159.418	0.00036489	0.00038897	0.0001151	1320.4	4.4791e-06	2.9784e-06	1308.6	353.97	3.7554e-06	8.9885e-07	404.71	130.21	110.01	36.588	3.3648e-06	45.807	0.00018633	0.00017724	4.9302e-05	1316.4	1.9815e-06	1.9285e-06	1312	353.39	1.9716e-06	1.9097e-06	400.51	129.98	109.66	36.64	1.9806e-06	45.478	-145.958	-100.071	-72.692	-159.178	-46.966	11.853	-159.609	-154.771	-13.406	-164.208	-155.656	-151.687	-150.620	-145.828	-15.758	-146.591	-8191	255	
36146.422	1	1	0	0	0.17786	0.27937	0.20055	0.10994	0.13262	0.034947	0.35192	0.10858	0.17136	0.059782	0.19295	0.14326	0.3129	0.094369	0.23952	0.13905	-2.9021	-3.3083	-2.7229	-3.6375	-3.2812	-2.8187	-3.7	-3.2188	-3.3396	-3.5083	-2.925	-3.5792	-3.3542	-3.0917	-3.7438	-3.0979	39.661	-162.467	-171.186	91.293	-99.242	-50.668	82.876	90.827	174.287	43.843	114.263	135.015	186.944	-99.894	-41.136	-8.076	0.00039842	0.00041822	9.6162e-05	1327.3	3.3672e-06	5.0878e-06	1316.2	354.69	2.2605e-06	1.4317e-06	405.56	129.57	110.05	36.691	2.2668e-06	45.441	0.00019244	0.00018154	5.0351e-05	1319.8	2.036e-06	1.996e-06	1315.6	354.36	2.012e-06	1.9682e-06	400.31	129.99	109.65	36.582	1.9733e-06	45.466	-145.463	-71.878	-108.079	-159.309	-49.889	-20.232	-159.497	-154.903	-42.783	3.258	-155.470	-151.445	-150.704	-146.139	-43.896	-146.589	-8191	255	
36146.516	1	1	0	0	0.08561	0.16919	0.10085	0.24513	0.18889	0.074435	0.32	0.15807	0.14652	0.099071	0.11181	0.12055	0.30564	0.21777	0.074939	0.23097	-2.9021	-3.5167	-2.7896	-3.7021	-3.2667	-2.9604	-3.8333	-3.1542	-3.1729	-3.6437	-2.9562	-3.45	-3.525	-2.8167	-3.6542	-3.1479	-17.565	-12.352	74.893	122.277	-152.768	-23.300	116.303	25.455	-54.570	-64.755	113.306	133.798	-155.165	-135.311	-154.608	147.160	0.00041163	0.00022665	5.7604e-05	1323	3.8003e-06	4.7022e-06	1312.3	353.61	3.7272e-06	2.5291e-06	406.37	130.88	110.46	36.704	2.5916e-06	45.557	0.00019496	0.00018282	5.0284e-05	1316.5	2.0227e-06	1.9729e-06	1312.6	353.39	2.004e-06	1.9808e-06	400.78	130.15	109.85	36.632	1.9593e-06	45.518	-148.294	-47.909	-103.442	-159.416	-49.860	-34.735	-159.393	-154.996	-13.200	-54.351	-155.631	-151.410	-150.581	-145.877	19.921	-146.798	-8191	255	
36146.609	1	1	0	0	0.23735	0.10844	0.053291	0.091308	0.16998	0.089977	0.078408	0.099539	0.15344	0.21238	0.4162	0.31769	0.050056	0.11173	0.17447	0.17527	-2.7458	-3.6063	-2.8292	-3.5687	-3.3438	-2.9208	-3.75	-3.1917	-3.025	-3.6188	-2.9688	-3.3187	-3.6333	-2.9542	-3.5083	-3.3688	-133.677	-128.674	-159.867	141.159	33.735	-60.180	151.579	169.783	54.301	116.054	162.991	174.673	186.722	-152.347	-71.357	80.747	0.0004462	0.00024542	0.00010352	1320.9	4.0591e-06	3.1178e-06	1317.1	353.69	3.1343e-06	5.9032e-06	402.53	130.16	110.6	36.659	8.6488e-07	45.672	0.00018965	0.00017737	4.9961e-05	1314.6	1.9848e-06	1.9225e-06	1312.6	353.03	1.9582e-06	1.9389e-06	399.88	129.68	109.78	36.584	1.9649e-06	45.566	-145.786	-47.044	-63.082	-159.404	-60.295	-16.430	-159.557	-155.010	-45.464	-29.234	-155.438	-151.802	-150.632	-145.665	105.668	-146.304	-8191	255	
36146.730	1	1	0	0	0.12838	0.18011	0.079702	0.076011	0.14377	0.14229	0.17865	0.14835	0.179	0.19398	0.14665	0.28986	0.059205	0.23714	0.11987	0.1141	-2.5271	-3.5417	-2.8854	-3.4938	-3.55	-2.9771	-3.7542	-3.4146	-2.9729	-3.6562	-3.25	-3.3542	-3.6896	-2.9229	-3.5396	-3.3542	68.128	92.854	-63.298	-171.883	-109.192	21.935	-169.037	172.211	105.497	-150.927	-133.720	-169.108	-97.045	-171.675	152.567	-110.155	0.00041105	0.00019715	0.0001921	1313.8	1.6217e-06	7.033e-06	1310.2	354.3	3.3575e-06	6.3418e-06	404.23	129.83	110.63	36.738	2.8049e-06	45.747	0.0001933	0.00017753	4.9546e-05	1312.7	1.9707e-06	1.921e-06	1309.5	353.33	1.9677e-06	1.9172e-06	399.6	129.68	109.72	36.669	1.9508e-06	45.462	-143.529	-145.166	-61.240	-159.537	-48.585	-58.877	-159.599	-155.185	-22.583	-19.291	-155.592	-151.341	-150.923	-145.588	-40.849	-146.456	-8191	255	
36146.828	1	1	0	0	0.2421	0.22899	0.1591	0.24491	0.33662	0.18223	0.21831	0.20938	0.18445	0.14482	0.26339	0.15361	0.308	0.25504	0.06923	0.15282	-2.4271	-3.55	-3.1104	-3.3875	-3.5687	-2.8688	-3.4562	-3.6792	-2.8354	-3.6479	-3.2396	-3.0625	-3.8375	-3.0458	-3.1229	-3.5375	-165.237	-44.149	120.615	153.408	150.668	120.974	121.753	59.251	98.028	10.003	-157.735	15.065	144.774	173.707	165.338	-168.364	0.00037873	0.00030696	0.00011091	1319	1.2273e-06	4.8653e-06	1309.8	355.03	3.3518e-06	1.5961e-06	405.48	130.96	110.77	36.864	3.8151e-06	46.075	0.00018788	0.00017393	4.888e-05	1312.6	1.9489e-06	1.918e-06	1309.5	353.02	1.9631e-06	1.915e-06	399.77	129.8	109.69	36.624	1.9037e-06	45.566	-151.845	-135.728	-93.663	-159.563	-17.859	-23.024	-159.611	-155.100	-61.304	-17.511	-155.768	-151.845	-150.850	-146.207	-31.384	-146.696	-8191	255	
#DATA ENDS
