BOXY.EXE: ISS Imagent and Oximeter Data Acquisition Program Version 0.80
Ascii Record File

#ACQ INFORMATION
2  Detector Channels 
16  External MUX Channels 
1  Auxiliary Channels 
5000  Waveform (CCF) Frequency (Hz)
1  Waveforms Skipped 
30  Waveforms Averaged 
1  Cycles Averaged 
16  Acquisitions per Waveform 
10.0806  Updata Rate (Hz) 

#FILE INFORMATION
TRUE -- External MUX Channel results are PARSED.
FALSE -- AC DC and Phase are NOT grouped.
TRUE -- Companion Program Settings File CREATED.
FALSE -- AC data not excluded
FALSE -- DC data not excluded
FALSE -- Phase data not excluded
FALSE -- Auxillary Chn. data not excluded
Tab delimiters

#CALIBRATION STATE
TRUE -- Waveform Calibration Values APPLIED.


#AUX CALIBRATION VALUES
Val Type	aux-1	

Term	1.0000e+00	
Factor	0.0000e+00	


#WF CALIBRATION VALUES
A = Detector Channel
Val Type	A-AC1	A-AC2	A-AC3	A-AC4	A-AC5	A-AC6	A-AC7	A-AC8	A-AC9	A-AC10	A-AC11	A-AC12	A-AC13	A-AC14	A-AC15	A-AC16	A-DC1	A-DC2	A-DC3	A-DC4	A-DC5	A-DC6	A-DC7	A-DC8	A-DC9	A-DC10	A-DC11	A-DC12	A-DC13	A-DC14	A-DC15	A-DC16	A-Ph1	A-Ph2	A-Ph3	A-Ph4	A-Ph5	A-Ph6	A-Ph7	A-Ph8	A-Ph9	A-Ph10	A-Ph11	A-Ph12	A-Ph13	A-Ph14	A-Ph15	A-Ph16	

Term	0.00000e+00	0.00000e+00	0.00000e+00	0.00000e+00	0.00000e+00	0.00000e+00	0.00000e+00	0.00000e+00	0.00000e+00	0.00000e+00	0.00000e+00	0.00000e+00	0.00000e+00	0.00000e+00	0.00000e+00	0.00000e+00	0.00000e+00	0.00000e+00	0.00000e+00	0.00000e+00	0.00000e+00	0.00000e+00	0.00000e+00	0.00000e+00	0.00000e+00	0.00000e+00	0.00000e+00	0.00000e+00	0.00000e+00	0.00000e+00	0.00000e+00	0.00000e+00	0.00000e+00	0.00000e+00	0.00000e+00	0.00000e+00	0.00000e+00	0.00000e+00	0.00000e+00	0.00000e+00	0.00000e+00	0.00000e+00	0.00000e+00	0.00000e+00	0.00000e+00	0.00000e+00	0.00000e+00	0.00000e+00	
Factor	1.00000e+00	1.00000e+00	1.00000e+00	1.00000e+00	1.00000e+00	1.00000e+00	1.00000e+00	1.00000e+00	1.00000e+00	1.00000e+00	1.00000e+00	1.00000e+00	1.00000e+00	1.00000e+00	1.00000e+00	1.00000e+00	1.00000e+00	1.00000e+00	1.00000e+00	1.00000e+00	1.00000e+00	1.00000e+00	1.00000e+00	1.00000e+00	1.00000e+00	1.00000e+00	1.00000e+00	1.00000e+00	1.00000e+00	1.00000e+00	1.00000e+00	1.00000e+00	X	X	X	X	X	X	X	X	X	X	X	X	X	X	X	X	

B = Detector Channel
Val Type	B-AC1	B-AC2	B-AC3	B-AC4	B-AC5	B-AC6	B-AC7	B-AC8	B-AC9	B-AC10	B-AC11	B-AC12	B-AC13	B-AC14	B-AC15	B-AC16	B-DC1	B-DC2	B-DC3	B-DC4	B-DC5	B-DC6	B-DC7	B-DC8	B-DC9	B-DC10	B-DC11	B-DC12	B-DC13	B-DC14	B-DC15	B-DC16	B-Ph1	B-Ph2	B-Ph3	B-Ph4	B-Ph5	B-Ph6	B-Ph7	B-Ph8	B-Ph9	B-Ph10	B-Ph11	B-Ph12	B-Ph13	B-Ph14	B-Ph15	B-Ph16	

Term	0.00000e+00	0.00000e+00	0.00000e+00	0.00000e+00	0.00000e+00	0.00000e+00	0.00000e+00	0.00000e+00	0.00000e+00	0.00000e+00	0.00000e+00	0.00000e+00	0.00000e+00	0.00000e+00	0.00000e+00	0.00000e+00	0.00000e+00	0.00000e+00	0.00000e+00	0.00000e+00	0.00000e+00	0.00000e+00	0.00000e+00	0.00000e+00	0.00000e+00	0.00000e+00	0.00000e+00	0.00000e+00	0.00000e+00	0.00000e+00	0.00000e+00	0.00000e+00	-7.80260e+01	-1.58627e+02	-1.69044e+02	-1.83775e+02	-9.56680e+01	-8.10641e+01	-1.58123e+02	-1.62015e+02	-7.06761e+01	-1.03333e+02	-1.70742e+02	-1.70756e+02	-1.78698e+02	-1.77014e+02	-1.06885e+02	-1.49823e+02	
Factor	1.89549e-05	9.66343e-05	3.90588e-05	1.69121e-01	1.09656e-06	1.06494e-06	1.87830e-01	6.00408e-02	1.11570e-06	1.14070e-06	9.95031e-02	3.37985e-02	3.11028e-02	1.10307e-02	1.00689e-06	1.56862e-02	6.37178e-07	6.49506e-07	1.80709e-07	7.65429e-02	7.12655e-09	7.12169e-09	7.97188e-02	2.69659e-02	7.12101e-09	7.12221e-09	4.22235e-02	1.44095e-02	1.37016e-02	4.81339e-03	7.13314e-09	6.55754e-03	X	X	X	X	X	X	X	X	X	X	X	X	X	X	X	X	



#DISTANCE SETTINGS
A = Detector Channel
A-1	A-2	A-3	A-4	A-5	A-6	A-7	A-8	A-9	A-10	A-11	A-12	A-13	A-14	A-15	A-16	

2.5000e+00	3.0000e+00	2.5000e+00	3.0000e+00	2.0000e+00	3.0000e+00	1.5000e+00	3.0000e+00	3.0000e+00	3.0000e+00	3.0000e+00	3.0000e+00	3.0000e+00	3.0000e+00	1.5000e+00	3.0000e+00	

B = Detector Channel
B-1	B-2	B-3	B-4	B-5	B-6	B-7	B-8	B-9	B-10	B-11	B-12	B-13	B-14	B-15	B-16	

1.0000e+01	1.0000e+01	1.0000e+01	1.4400e+00	1.0000e+01	1.0000e+01	1.5100e+00	1.9400e+00	1.0000e+01	1.0000e+01	1.9900e+00	2.4900e+00	2.4100e+00	2.9000e+00	1.0000e+01	2.9800e+00	




#DATA BEGINS
time	group	step	mark	flag	A-AC1	A-AC2	A-AC3	A-AC4	A-AC5	A-AC6	A-AC7	A-AC8	A-AC9	A-AC10	A-AC11	A-AC12	A-AC13	A-AC14	A-AC15	A-AC16	A-DC1	A-DC2	A-DC3	A-DC4	A-DC5	A-DC6	A-DC7	A-DC8	A-DC9	A-DC10	A-DC11	A-DC12	A-DC13	A-DC14	A-DC15	A-DC16	A-Ph1	A-Ph2	A-Ph3	A-Ph4	A-Ph5	A-Ph6	A-Ph7	A-Ph8	A-Ph9	A-Ph10	A-Ph11	A-Ph12	A-Ph13	A-Ph14	A-Ph15	A-Ph16	B-AC1	B-AC2	B-AC3	B-AC4	B-AC5	B-AC6	B-AC7	B-AC8	B-AC9	B-AC10	B-AC11	B-AC12	B-AC13	B-AC14	B-AC15	B-AC16	B-DC1	B-DC2	B-DC3	B-DC4	B-DC5	B-DC6	B-DC7	B-DC8	B-DC9	B-DC10	B-DC11	B-DC12	B-DC13	B-DC14	B-DC15	B-DC16	B-Ph1	B-Ph2	B-Ph3	B-Ph4	B-Ph5	B-Ph6	B-Ph7	B-Ph8	B-Ph9	B-Ph10	B-Ph11	B-Ph12	B-Ph13	B-Ph14	B-Ph15	B-Ph16	aux-1	digaux	

44236.191	1	1	0	768	0.25629	0.074808	0.057189	0.049041	0.079892	0.08392	0.12613	0.12599	0.25979	0.14527	0.14788	0.14321	0.08346	0.18386	0.29919	0.081971	-4.3771	-4.4437	-4.1146	-5.0917	-4.1083	-4.2396	-5.0563	-4.0083	-4.8125	-4.6167	-4.1625	-5.1333	-4.4167	-4.3187	-4.9271	-4.0729	2.891	232.996	289.127	-7.756	135.791	143.961	276.317	286.674	205.406	135.600	245.121	323.643	35.331	288.352	208.051	83.140	0.00019895	0.00057181	8.8954e-05	1373.9	4.6947e-06	1.0852e-05	1369.9	367.9	5.2658e-06	8.1049e-07	424.72	139.3	121.06	42.057	1.8487e-06	52.157	0.00055058	0.00055442	0.00015535	1384.2	6.1298e-06	6.1196e-06	1383.1	374.27	6.1593e-06	6.1644e-06	428.95	143.27	124.5	43.095	6.1677e-06	53.29	182.020	41.538	261.787	-12.181	96.241	80.523	-12.088	-7.191	135.050	222.641	-7.872	-3.050	-2.671	1.547	118.885	0.734	-8191	255	
44236.289	1	1	0	0	0.11757	0.13379	0.25225	0.29263	0.02847	0.034911	0.20292	0.13606	0.11735	0.19264	0.16881	0.2015	0.23632	0.088212	0.30459	0.071454	-4.2792	-4.7021	-3.7604	-4.9854	-4.4292	-4.2562	-4.9729	-4.1958	-4.5563	-4.5875	-4.0521	-5.0271	-4.4917	-4.1562	-4.85	-3.9	1.178	309.086	244.752	283.110	261.771	206.912	314.303	301.779	270.116	35.237	320.689	325.971	-11.233	9.111	19.934	40.685	0.00017094	0.00045185	6.7107e-05	1375.4	9.7738e-06	5.3786e-07	1372.5	369.22	9.6766e-06	5.719e-06	423.98	139.82	122.16	42.197	6.077e-06	51.978	0.00056105	0.00056683	0.00015756	1385	6.2193e-06	6.2257e-06	1383.2	374.98	6.21e-06	6.2155e-06	429.09	143.61	124.85	43.151	6.2372e-06	53.253	181.279	34.513	-12.569	-12.119	176.077	145.318	-12.016	-7.417	138.343	5.685	-8.117	-3.106	-2.806	1.246	135.469	0.744	-8191	255	
44236.383	1	1	0	0	0.17935	0.036561	0.23369	0.2701	0.12178	0.2352	0.097433	0.28506	0.070515	0.12172	0.028501	0.15107	0.11045	0.0115	0.14068	0.24767	-4.175	-4.7021	-3.9354	-4.8562	-4.3104	-4.075	-5.0375	-4.1396	-4.3938	-4.7312	-4.0125	-4.8229	-4.6312	-4.1479	-4.875	-4.0521	47.137	217.883	216.283	300.689	233.575	266.314	-20.338	276.228	191.190	125.847	124.106	184.305	47.107	315.181	29.701	162.408	0.00014647	0.00074209	0.00025672	1375.9	3.0687e-06	2.0783e-06	1373.5	370.15	9.3069e-06	8.5398e-06	423.87	139.82	121.67	42.304	1.6831e-06	52.319	0.00056056	0.0005674	0.00015759	1387.6	6.1521e-06	6.2061e-06	1383.1	375.26	6.1916e-06	6.1592e-06	428.57	143.45	124.66	43.122	6.1347e-06	53.385	191.081	328.061	82.294	-12.104	43.686	69.587	-11.786	-7.518	92.864	77.105	-8.044	-3.084	-2.767	1.202	89.051	0.501	-8191	255	
44236.480	1	1	0	0	0.062155	0.12039	0.22548	0.053809	0.12899	0.041679	0.057591	0.14539	0.067447	0.24986	0.22011	0.23149	0.15358	0.15127	0.14235	0.10863	-4.1146	-4.8708	-4.0167	-4.9667	-4.6167	-3.95	-4.9917	-4.4896	-4.2229	-4.9896	-3.9979	-4.8292	-4.725	-4.0312	-4.7729	-4.4208	167.435	58.982	67.339	240.709	75.450	118.543	79.433	289.362	269.857	132.909	259.221	-10.557	283.864	88.478	-2.992	20.431	0.00031511	0.00040299	0.00016923	1377.6	8.0606e-06	6.1264e-06	1371.5	367.3	3.9081e-06	6.518e-06	422.33	140.39	121.52	42.325	7.7195e-06	52.198	0.00055329	0.00055441	0.00015592	1385.1	6.0841e-06	6.0766e-06	1380.9	374.6	6.042e-06	6.0941e-06	428.62	143.47	124.33	43.075	6.0871e-06	53.261	187.117	16.158	307.896	-12.291	62.910	88.532	-12.027	-7.210	208.623	144.746	-7.892	-2.957	-2.721	1.141	90.092	0.549	-8191	255	
44236.574	1	1	0	0	0.055371	0.17383	0.074798	0.30828	0.17378	0.045026	0.3708	0.2523	0.22024	0.063524	0.055224	0.10736	0.30899	0.062506	0.099385	0.16884	-3.925	-4.7063	-4.0188	-4.5729	-4.6521	-3.9938	-4.9625	-4.4521	-4.1333	-4.8562	-4.0437	-4.5083	-4.9354	-4.1792	-4.7833	-4.4958	138.125	78.192	259.338	286.660	167.809	164.944	256.467	303.740	277.967	318.225	265.715	318.069	266.267	29.238	203.451	106.088	0.00017316	0.00065922	6.1346e-05	1375.3	3.2389e-06	9.3432e-06	1375.4	370.32	4.2619e-06	4.6687e-06	422.63	139.91	121.21	41.891	6.0232e-06	52.221	0.00054934	0.00055377	0.0001543	1384.7	6.0618e-06	6.0764e-06	1384.1	375.28	6.0658e-06	6.0975e-06	427.99	143.27	124.69	43.114	6.2001e-06	53.322	193.000	46.186	285.705	-12.094	170.215	58.879	-11.988	-7.304	142.412	214.037	-8.034	-3.019	-2.678	1.605	125.725	0.618	-8191	255	
44236.672	1	1	0	0	0.13672	0.15375	0.085567	0.29492	0.10047	0.11384	0.25714	0.13393	0.18041	0.20196	0.12024	0.22807	0.16391	0.048576	0.026676	0.13342	-3.8187	-4.8271	-4.1062	-4.4583	-4.8333	-3.8771	-4.9083	-4.6417	-4.0312	-5.0062	-4.3667	-4.4938	-4.9542	-4.0146	-4.6396	-4.5687	104.129	172.914	242.813	287.470	192.674	210.817	292.363	280.957	253.091	327.722	96.062	294.196	282.793	269.416	231.620	24.813	6.7833e-05	0.00049732	4.2653e-05	1374.8	9.1531e-06	6.5566e-06	1374.4	368.22	5.3141e-06	7.5546e-06	425.44	139.28	122.07	42.153	7.1295e-06	52.388	0.00056	0.00056826	0.00015814	1387.2	6.2221e-06	6.2726e-06	1385.3	375.76	6.2421e-06	6.2545e-06	429.6	143.49	124.98	43.232	6.2604e-06	53.353	195.525	61.376	220.808	-12.230	273.770	131.918	-12.053	-7.228	89.538	151.009	-8.325	-3.291	-2.465	1.342	189.962	0.658	-8191	255	
44236.793	1	1	0	0	0.15716	0.064774	0.12508	0.16766	0.231	0.21137	0.24771	0.2288	0.11807	0.25797	0.0030361	0.23978	0.12979	0.040545	0.099718	0.22903	-3.7062	-4.9854	-4.3313	-4.5188	-4.9208	-4.0542	-4.7438	-4.8146	-4.1083	-4.8083	-4.2958	-4.2771	-4.9938	-4.1729	-4.5292	-4.7667	181.080	-23.485	276.689	299.348	-17.776	297.722	255.124	269.230	127.652	182.018	264.060	330.487	263.845	27.813	72.427	258.604	0.00028442	0.00035458	0.0002867	1373.7	2.1431e-06	8.9067e-06	1373.5	369.53	6.3172e-06	1.1537e-05	422.3	139.8	121.66	42.185	7.4667e-06	52.014	0.00056629	0.00056848	0.00015805	1387.8	6.2151e-06	6.2211e-06	1386.5	375.87	6.1935e-06	6.2019e-06	428.79	143.33	124.91	43.142	6.1725e-06	53.313	199.225	-1.876	146.382	-12.189	125.585	166.319	-11.815	-7.291	101.824	87.570	-8.013	-3.323	-2.441	1.354	97.307	0.951	-8191	255	
44236.891	1	1	0	0	0.078515	0.1719	0.13876	0.1021	0.056789	0.18733	0.090688	0.082922	0.20496	0.23795	0.02853	0.10354	0.35336	0.19869	0.13299	0.12826	-3.6417	-4.7438	-4.5	-4.2625	-4.9042	-4.1375	-4.7146	-4.8833	-3.9125	-4.8875	-4.5479	-4.1667	-4.9458	-4.2229	-4.4583	-4.9729	332.834	132.117	9.529	280.930	174.883	129.884	5.855	278.841	299.485	201.206	328.006	126.253	-8.481	311.159	119.565	41.568	0.00022515	0.00072871	0.00014299	1380	5.4422e-06	1.1436e-06	1381.2	368.67	3.6465e-06	4.754e-06	422.52	139.6	122.38	41.938	3.9322e-06	52.26	0.00055466	0.00055854	0.00015523	1388	6.0787e-06	6.076e-06	1385.4	375.04	6.0009e-06	6.0018e-06	427.7	143.13	124.72	43.022	5.9516e-06	53.194	209.061	75.071	-2.007	-12.117	168.978	244.753	-11.856	-7.293	283.059	47.229	-8.035	-3.146	-2.754	1.382	288.565	0.842	-8191	255	
44236.984	1	1	0	0	0.12134	0.023738	0.20212	0.12722	0.028257	0.16522	0.10052	0.044565	0.17804	0.080054	0.34206	0.040416	0.099075	0.11245	0.067405	0.11857	-3.6375	-4.6458	-4.4875	-4.2146	-4.8313	-4.2438	-4.475	-4.8812	-4.0875	-4.6292	-4.5625	-3.9875	-4.9062	-4.4	-4.3104	-4.925	125.032	21.246	111.013	214.752	213.381	286.891	57.390	285.035	161.990	161.563	318.974	93.828	237.661	281.791	181.309	189.849	0.00022299	0.0006258	0.00029174	1375.4	6.6261e-06	5.1254e-06	1373.9	369.33	7.316e-06	5.576e-06	423.93	138.31	122.13	41.955	5.2027e-06	52.299	0.00053855	0.00054109	0.00015027	1386.3	5.8818e-06	5.896e-06	1381.9	374.62	5.8624e-06	5.8472e-06	426.97	142.38	124.19	42.878	5.7887e-06	53.032	173.630	29.667	68.894	-12.149	147.047	103.652	-12.190	-7.610	64.731	88.147	-7.762	-3.271	-2.552	1.176	163.768	0.845	-8191	255	
44237.082	1	1	0	0	0.076296	0.17386	0.10011	0.20471	0.080463	0.34227	0.12995	0.18038	0.059178	0.15348	0.24396	0.1468	0.14735	0.083436	0.061907	0.038431	-3.6604	-4.4917	-4.625	-4.1625	-4.8938	-4.2188	-4.2854	-5.1479	-4.0312	-4.5021	-4.9979	-4.1583	-4.9271	-4.3542	-3.9938	-4.9667	155.478	162.057	37.575	296.040	167.167	145.336	191.222	334.188	244.456	328.623	300.041	263.525	316.024	266.142	223.416	132.825	0.0002111	0.00057287	9.9294e-05	1376.3	2.475e-06	3.869e-06	1373.2	369.03	5.1965e-06	5.5764e-06	423.46	139.53	121.88	42.169	7.1275e-06	52.394	0.0005241	0.00052365	0.00014472	1383.2	5.6921e-06	5.6711e-06	1378.4	373.86	5.6302e-06	5.5907e-06	425.38	142.09	123.71	42.742	5.5498e-06	52.875	207.629	-24.002	-23.512	-12.177	129.903	69.060	-12.128	-7.039	127.803	129.504	-7.857	-3.118	-2.421	1.222	137.640	1.077	-8191	255	
44237.176	1	1	0	0	0.072629	0.12632	0.0098253	0.2024	0.057433	0.088053	0.19418	0.15034	0.080468	0.10754	0.078906	0.14116	0.14666	0.11627	0.053354	0.18704	-3.6958	-4.4521	-4.7667	-4.2958	-4.775	-4.5583	-4.2229	-4.8479	-4.15	-4.3104	-4.9917	-4.1062	-4.8229	-4.5813	-3.9292	-5.0646	252.856	99.797	171.358	275.174	80.766	110.657	112.811	31.753	136.551	231.072	133.071	56.667	201.308	6.943	172.952	184.078	0.00015146	0.00050943	5.2256e-05	1379.2	4.0176e-06	3.8402e-06	1371.4	368.15	7.4379e-06	5.9962e-06	423.31	139.02	121.84	42.294	4.5488e-06	52.452	0.00050325	0.00050227	0.00014087	1380.1	5.5111e-06	5.4791e-06	1375.6	372.68	5.4889e-06	5.4831e-06	424.89	141.79	123.37	42.655	5.4185e-06	52.7	191.182	47.221	139.664	-12.065	240.624	56.522	-12.026	-7.158	115.557	206.069	-7.792	-3.298	-2.873	1.497	267.293	0.858	-8191	255	
44237.273	1	1	0	0	0.096052	0.077334	0.093017	0.26066	0.17559	0.049297	0.025452	0.19063	0.16332	0.055218	0.28043	0.062041	0.097756	0.22589	0.086368	0.1109	-3.9188	-4.3125	-4.8021	-4.1542	-4.5979	-4.6521	-4.3063	-4.9979	-4.1271	-4.2312	-5.0854	-3.9958	-4.5833	-4.7312	-3.8833	-4.9229	50.058	105.826	24.085	279.097	-5.371	265.301	-8.966	268.234	167.109	248.318	317.673	47.850	-22.035	278.987	36.793	46.304	0.00010338	0.00014918	0.00012783	1374.3	3.8984e-06	4.906e-06	1376.3	369.27	6.735e-06	9.5854e-07	422.98	139.24	121.55	42.127	4.992e-06	52.186	0.00049586	0.00049488	0.00013735	1376.7	5.4505e-06	5.4088e-06	1375.5	372.41	5.4128e-06	5.4252e-06	423.99	141.8	123.28	42.653	5.3964e-06	52.744	194.809	140.327	50.518	-12.154	98.185	218.940	-12.098	-7.145	65.746	160.372	-8.220	-3.162	-2.520	1.195	66.490	0.878	-8191	255	
44237.395	1	1	0	0	0.089422	0.22116	0.011219	0.16806	0.26636	0.15878	0.095775	0.24852	0.15554	0.10639	0.22067	0.12979	0.15107	0.19649	0.17991	0.089536	-4.0417	-4.2583	-4.8375	-4.1937	-4.5563	-4.8271	-4.1792	-5.0021	-4.3458	-4.1062	-4.9187	-4.125	-4.5146	-4.7562	-3.8958	-4.8333	307.727	152.204	-4.203	-17.321	297.258	14.248	181.558	310.011	269.531	-12.738	38.000	3.618	243.650	-8.943	113.954	35.584	0.00019023	0.00018866	0.00013918	1375.7	6.6444e-06	6.0034e-06	1370	368.88	5.1757e-06	4.438e-06	423.09	139.13	121.96	42.26	3.5505e-06	52.171	0.00049203	0.0004941	0.00013824	1376.8	5.4856e-06	5.482e-06	1373.3	372.59	5.5165e-06	5.5279e-06	424.27	141.98	123.49	42.705	5.5646e-06	52.791	169.410	246.873	57.619	-12.188	83.493	136.913	-12.046	-7.299	178.047	164.766	-7.703	-3.180	-2.789	1.742	97.127	0.789	-8191	255	
44237.488	1	1	0	0	0.13139	0.060354	0.10132	0.18895	0.12184	0.079882	0.1193	0.1142	0.19241	0.16934	0.27033	0.1231	0.12475	0.098811	0.31851	0.15366	-4.1167	-4.0771	-5.0271	-4.35	-4.3625	-4.8417	-4.1708	-4.8854	-4.4896	-4.0542	-5.0646	-4.3125	-4.3167	-4.8917	-3.8354	-4.7	83.806	287.635	190.779	-15.598	166.970	19.190	319.574	244.347	84.042	140.385	303.681	331.627	-7.925	318.857	141.481	58.232	0.00026393	0.00039657	3.7276e-05	1368.3	3.6056e-06	4.588e-06	1371.4	370	4.5075e-06	1.507e-06	423.33	139.57	121.73	42.051	5.6217e-06	52.083	0.0005037	0.00050808	0.00014156	1375.9	5.5691e-06	5.576e-06	1374.3	372.71	5.5806e-06	5.589e-06	425.5	142.45	123.63	42.758	5.664e-06	52.848	196.069	37.517	304.939	-12.024	251.252	151.338	-11.886	-7.383	106.945	-2.274	-8.090	-3.149	-2.784	1.402	226.723	0.785	-8191	255	
44237.586	1	1	0	0	0.22913	0.078888	0.088898	0.19233	0.22864	0.10407	0.15615	0.33738	0.10061	0.17758	0.17422	0.082379	0.35209	0.093376	0.1974	0.11333	-4.3208	-3.8688	-4.9417	-4.4938	-4.3042	-4.9521	-4.2583	-4.6521	-4.6333	-4.0625	-4.9583	-4.3104	-4.2417	-4.875	-3.9333	-4.7917	241.809	218.832	116.749	-20.120	33.373	280.341	240.416	239.361	301.047	115.352	168.076	-10.199	262.382	88.244	295.530	80.776	0.00023905	0.00068182	0.0001428	1371	1.3888e-06	6.3505e-06	1369.4	367.77	3.3295e-06	5.4155e-06	422.44	140.21	121.39	42.069	2.9109e-06	52.251	0.00051386	0.00051899	0.00014478	1377.6	5.7282e-06	5.6795e-06	1376.3	373.08	5.7195e-06	5.6955e-06	425.28	142.58	123.68	42.793	5.8025e-06	52.93	216.962	15.570	40.040	-12.338	272.758	148.557	-11.926	-7.324	249.714	83.248	-7.846	-3.058	-2.696	1.203	15.432	0.706	-8191	255	
44237.680	1	1	0	0	0.023075	0.21025	0.15586	0.18512	0.24552	0.20175	0.34387	0.076154	0.19297	0.070957	0.22482	0.23126	0.24306	0.23503	0.031919	0.083092	-4.4479	-3.9354	-4.6958	-4.6062	-3.9938	-4.9938	-4.1854	-4.5958	-4.7271	-4.0875	-4.6167	-4.6167	-4.1104	-4.8771	-4.1229	-4.4958	35.503	254.128	61.990	263.875	250.243	112.456	291.676	192.614	93.127	333.169	209.372	182.781	322.760	-7.964	182.103	148.844	0.00025357	0.00041456	0.00015967	1371.5	1.5427e-06	7.5388e-06	1368.9	368.96	3.0556e-06	1.8808e-06	421.51	139.64	121.77	42.048	1.9889e-06	52.293	0.0005255	0.00052821	0.00014757	1379.8	5.8413e-06	5.8213e-06	1377.2	373.41	5.8171e-06	5.8367e-06	426.19	142.78	124.05	42.857	5.834e-06	53.052	211.556	-16.993	33.036	-11.935	30.328	64.385	-12.031	-7.334	222.512	325.373	-8.081	-3.134	-2.742	1.664	149.846	0.784	-8191	255	
44237.754	1	1	0	0	0.1439	0.28442	0.066711	0.21873	0.13093	0.12482	0.094844	0.067908	0.23087	0.031187	0.19672	0.22714	0.12718	0.12886	0.31651	0.065876	-4.5083	-3.8271	-4.575	-4.7729	-3.8333	-4.9812	-4.3521	-4.4625	-4.9042	-3.7479	-4.8063	-4.8417	-4.0938	-4.7312	-4.1375	-4.2	58.946	105.680	31.069	297.794	-9.342	146.389	81.681	288.235	159.204	204.940	130.047	168.349	148.597	305.576	243.860	220.177	0.00024191	0.00068933	0.00029861	1371.5	1.9874e-06	4.0259e-06	1368.5	368.54	3.3813e-06	8.7978e-06	423.2	139.38	121.76	42.082	5.4454e-06	52.223	0.00052492	0.0005319	0.00014747	1378.8	5.7945e-06	5.8195e-06	1374.2	373.22	5.8007e-06	5.778e-06	426.08	142.49	124.01	42.824	5.8221e-06	53.031	184.733	36.748	98.042	-12.317	324.058	69.856	-12.115	-7.348	264.772	127.433	-7.972	-3.082	-2.815	1.381	123.394	0.956	-8191	255	
44237.871	1	1	0	0	0.14291	0.12284	0.17959	0.19681	0.25456	0.25283	0.15102	0.14283	0.15567	0.25982	0.18554	0.082007	0.26164	0.2253	0.21535	0.11223	-4.45	-3.9062	-4.5333	-4.8	-3.8312	-4.8167	-4.5062	-4.2792	-4.95	-4.075	-4.5354	-4.7771	-4.1104	-4.8125	-4.4083	-4.2271	304.789	228.556	3.048	254.934	322.278	300.015	199.249	314.175	151.599	234.899	296.611	0.110	334.187	291.340	185.686	130.568	8.7347e-05	0.00013679	0.00027395	1370	5.5405e-06	5.1219e-06	1367.4	368.69	1.6958e-06	6.6106e-06	422.01	139.43	121.93	42.343	2.2348e-06	52.238	0.00052559	0.00053344	0.00014765	1377.8	5.8496e-06	5.8378e-06	1374.5	372.86	5.8291e-06	5.8349e-06	426.36	142.56	124.01	42.928	5.8015e-06	52.958	124.558	109.754	21.870	-12.050	61.100	81.491	-11.921	-7.518	158.944	70.920	-8.103	-3.021	-2.712	1.368	177.051	0.593	-8191	255	
44237.969	1	1	0	0	0.047278	0.096546	0.074418	0.036651	0.2517	0.093866	0.34341	0.25603	0.19698	0.17163	0.28307	0.2265	0.19318	0.12622	0.25668	0.25569	-4.5458	-3.9562	-4.3292	-4.9667	-3.8854	-4.8167	-4.5583	-4.1208	-4.85	-4.2208	-4.5792	-4.9021	-4.1062	-4.7771	-4.4875	-4.1188	-20.297	113.803	20.586	200.718	333.440	109.106	231.991	229.317	311.048	187.736	316.877	252.032	52.506	288.473	281.899	283.158	0.00023386	0.00059755	6.981e-05	1373.3	4.5933e-06	1.1869e-06	1369.9	368.28	3.6267e-06	2.3681e-06	422.1	138.77	121.38	41.964	3.1522e-06	52.016	0.00052677	0.00053088	0.0001468	1379.8	5.7755e-06	5.7979e-06	1375.4	372.85	5.7689e-06	5.776e-06	425.82	142.17	123.68	42.781	5.7613e-06	52.899	181.670	43.561	173.745	-12.193	113.151	102.023	-11.823	-7.370	-1.894	70.313	-7.774	-2.994	-2.520	1.532	141.934	0.554	-8191	255	
44238.066	1	1	0	0	0.071294	0.18828	0.15295	0.072484	0.11942	0.20915	0.14791	0.1933	0.3766	0.081933	0.281	0.06555	0.10599	0.12997	0.14602	0.15804	-4.5208	-3.9167	-4.3354	-4.9938	-3.8625	-4.6083	-4.7396	-3.9125	-4.7438	-4.2375	-4.3562	-5.0333	-4.0542	-4.6104	-4.6583	-3.9771	31.294	135.276	295.015	30.513	274.482	13.193	310.228	255.660	157.698	169.000	269.122	25.698	51.052	300.049	278.708	61.248	0.00022341	0.00067917	0.00019804	1368.5	2.3852e-06	4.4251e-06	1364.5	368.81	8.835e-06	4.9784e-06	424.01	138.94	121.55	42.005	2.9071e-06	52.29	0.00051859	0.00052375	0.00014524	1375.1	5.6896e-06	5.6431e-06	1372.6	372.39	5.6336e-06	5.6007e-06	424.38	142.06	123.5	42.647	5.5978e-06	52.762	202.011	-21.367	32.621	-12.150	182.034	317.671	-11.948	-7.218	135.049	-15.366	-7.966	-3.035	-2.682	1.132	179.882	0.736	-8191	255	
44238.184	1	1	0	0	0.17737	0.30165	0.16819	0.14147	0.079722	0.25451	0.11255	0.2131	0.15383	0.091717	0.061654	0.047262	0.11605	0.065561	0.1322	0.1047	-4.6354	-4.2167	-3.9729	-5.1104	-3.9708	-4.4479	-4.9437	-3.9562	-4.8375	-4.425	-4.3333	-4.9729	-4.0729	-4.3583	-4.5938	-4.0167	80.465	311.501	42.140	266.098	310.678	316.999	294.899	266.550	205.118	290.333	175.267	284.528	5.274	319.593	303.346	317.049	0.00012087	0.00089322	0.00019656	1369.8	7.8985e-06	2.8607e-06	1368.5	367.91	2.5256e-07	2.0289e-06	421.26	139.21	121	42.166	3.9123e-06	52.394	0.00050928	0.00050882	0.00014192	1374.6	5.6451e-06	5.6205e-06	1372.2	372.15	5.6533e-06	5.6941e-06	425	142.27	123.68	42.769	5.7182e-06	52.956	197.543	68.182	9.124	-12.221	143.869	321.808	-12.040	-7.451	39.266	1.793	-8.294	-3.110	-2.538	1.362	157.013	0.769	-8191	255	
44238.281	1	1	0	0	0.16451	0.073983	0.18447	0.1147	0.1014	0.071202	0.15216	0.094298	0.12475	0.26064	0.17472	0.2115	0.053328	0.068886	0.13286	0.09944	-4.5104	-4.4521	-4.0062	-5.0771	-4.2312	-4.2646	-5.0437	-4.0437	-4.6833	-4.5396	-4.0833	-5.0958	-4.1458	-4.3063	-4.8083	-4.2479	164.208	181.781	290.809	330.277	41.935	183.528	320.970	287.150	177.598	175.891	326.209	326.581	36.919	57.317	306.947	182.238	0.00020464	7.7796e-05	0.00020589	1369.8	5.6661e-06	4.9731e-06	1366.7	368.26	2.4541e-06	2.6207e-06	422.68	138.93	121.67	42.153	2.2946e-06	52.029	0.00052333	0.00052475	0.00014565	1377.4	5.7946e-06	5.7562e-06	1375.5	372.76	5.7501e-06	5.7567e-06	425.75	142.29	123.88	42.853	5.7256e-06	52.866	173.731	103.783	13.717	-12.012	65.117	43.151	-11.818	-7.415	90.380	120.838	-8.132	-3.318	-2.655	1.297	24.231	0.604	-8191	255	
44238.355	1	1	0	0	0.094406	0.1456	0.20874	0.30065	0.17125	0.20088	0.15814	0.24028	0.024549	0.10505	0.052628	0.030029	0.063859	0.37501	0.10872	0.21171	-4.1917	-4.6042	-3.8187	-5.0042	-4.2021	-4.2729	-5.1687	-4.1083	-4.4479	-4.6438	-4.0312	-4.9646	-4.6062	-4.2542	-4.9792	-4.2	118.162	245.207	152.203	303.261	267.078	30.533	244.779	5.857	151.983	146.196	330.202	181.371	286.654	313.246	14.301	-25.173	0.00027717	0.0006794	0.00036706	1369.7	2.2394e-06	4.7394e-06	1366.7	368.46	4.6716e-06	1.1419e-05	423.19	140.14	121.48	41.911	3.9538e-06	52.103	0.00052133	0.00052425	0.00014443	1377.1	5.7334e-06	5.7391e-06	1375.1	372.26	5.6945e-06	5.6653e-06	425.71	142.37	123.75	42.625	5.6635e-06	52.839	193.135	11.179	-5.755	-11.987	210.621	160.698	-11.883	-7.252	169.860	92.879	-7.988	-3.100	-2.449	1.342	295.923	0.887	-8191	255	
44238.473	1	1	0	0	0.21344	0.16677	0.091451	0.23072	0.069126	0.15581	0.089181	0.13364	0.11886	0.11087	0.034622	0.20602	0.19648	0.32421	0.13919	0.24837	-4.2958	-4.6604	-3.9708	-4.9396	-4.3625	-4.025	-5.1667	-4.1875	-4.4583	-5.0104	-4.1458	-4.9167	-4.6125	-4.1813	-4.9854	-4.2729	324.059	304.834	63.533	279.177	313.081	180.513	201.934	274.200	129.009	266.362	43.009	223.265	-6.780	308.162	269.444	156.845	0.00025015	0.00073228	0.00017346	1373.2	4.1871e-06	2.9401e-06	1370.3	368.9	6.542e-06	2.865e-06	421.45	139.44	121.3	41.847	4.7131e-07	51.793	0.00051522	0.00051571	0.00014378	1375.4	5.6728e-06	5.649e-06	1371.8	372.3	5.6775e-06	5.6357e-06	424.93	142.01	123.34	42.592	5.6163e-06	52.659	179.840	107.755	-8.903	-12.235	172.869	250.659	-11.905	-7.240	147.264	75.492	-8.200	-3.509	-2.606	1.442	121.671	0.939	-8191	255	
44238.570	1	1	0	0	0.032294	0.14902	0.1783	0.26236	0.13406	0.13102	0.22807	0.30375	0.1931	0.12275	0.2282	0.28282	0.24639	0.11378	0.13195	0.10011	-3.8042	-4.9083	-3.8667	-4.8271	-4.4458	-4.0083	-5.2146	-4.3458	-4.3396	-4.9958	-4.1729	-4.75	-4.775	-3.9333	-4.8854	-4.3458	216.702	-6.020	79.371	286.694	248.204	20.185	298.636	256.349	76.006	278.463	75.685	284.525	26.910	183.507	239.960	271.192	0.0002497	0.00017994	0.00020856	1369.2	6.0719e-06	1.0318e-05	1361.5	367.65	2.9455e-06	1.7391e-06	422.29	139.57	121.06	42.136	1.9323e-06	52.19	0.00051021	0.00051075	0.00014253	1372.5	5.6114e-06	5.5508e-06	1368	371.74	5.5647e-06	5.5559e-06	424.18	141.84	123.18	42.576	5.5314e-06	52.591	200.140	132.543	35.010	-12.078	138.338	104.951	-11.899	-7.073	151.792	32.350	-8.076	-3.005	-2.547	1.252	178.678	0.702	-8191	255	
44238.664	1	1	0	0	0.15206	0.2206	0.042214	0.14683	0.26301	0.15876	0.16778	0.17798	0.11881	0.084241	0.29005	0.14608	0.17029	0.13088	0.24081	0.022138	-3.8187	-4.8458	-3.825	-4.6542	-4.5542	-4.0208	-5.0625	-4.4854	-4.0938	-5.0208	-4.1542	-4.4875	-4.8688	-4.225	-4.8646	-4.7021	-19.442	20.108	136.398	276.612	68.316	1.239	255.962	12.642	143.180	-16.174	-19.671	212.896	-3.142	41.140	53.403	46.438	0.00023488	0.00060607	0.00020483	1365.9	3.9081e-06	8.7352e-06	1359	367.64	6.3243e-06	7.8425e-06	422.53	139.91	121.08	42.066	2.3415e-06	51.866	0.00050285	0.00050641	0.00014157	1369.9	5.559e-06	5.5484e-06	1367.6	371.64	5.5819e-06	5.5989e-06	423.89	141.87	123.27	42.481	5.5993e-06	52.627	178.160	35.964	14.947	-12.233	105.917	-22.811	-11.960	-7.247	86.802	62.962	-8.048	-3.434	-2.717	1.285	163.342	0.630	-8191	255	
44238.785	1	1	0	0	0.11761	0.17416	0.099766	0.41882	0.23648	0.10469	0.18213	0.35279	0.13572	0.086337	0.22662	0.18652	0.11649	0.056013	0.22382	0.17246	-3.8667	-4.9625	-4.0833	-4.5375	-4.8063	-3.7271	-5.0958	-4.6	-3.9458	-4.8958	-4.1083	-4.3917	-4.9604	-4.0708	-4.5354	-4.5479	56.348	113.403	259.373	313.479	330.364	7.802	244.707	18.477	74.668	82.381	315.606	24.167	275.079	186.416	1.749	217.658	0.00026645	0.00045933	0.00026479	1365.4	3.382e-06	9.7364e-06	1362	367.95	7.2896e-06	2.2972e-06	420.56	139.13	120.46	41.875	2.3882e-06	51.744	0.00050943	0.00051462	0.00014278	1369.2	5.6044e-06	5.6341e-06	1367.2	371.51	5.5919e-06	5.6229e-06	424.47	141.82	122.87	42.524	5.6051e-06	52.602	200.131	55.056	-20.067	-12.208	270.300	90.129	-12.030	-7.246	200.754	171.348	-7.977	-3.130	-2.348	1.540	125.467	0.716	-8191	255	
44238.883	1	1	0	0	0.11091	0.12462	0.062031	0.27129	0.20933	0.28629	0.1212	0.21506	0.089007	0.14978	0.18961	0.15062	0.12048	0.12019	0.15738	0.097534	-3.7	-4.7771	-4.2438	-4.2979	-4.8938	-3.9313	-4.8792	-4.9083	-4.0417	-4.8896	-4.4417	-4.1875	-4.8938	-4.1458	-4.4875	-4.8542	-5.288	229.640	8.927	319.327	30.352	99.558	321.846	257.024	270.652	38.435	-5.798	267.404	281.288	217.805	22.180	261.881	0.00016933	0.00048787	0.00013541	1359	4.1915e-06	3.7527e-06	1359.6	368.41	5.2706e-06	4.3129e-06	420.27	139.12	121.66	41.752	6.7397e-06	52.215	0.0005092	0.00051224	0.00014359	1368.4	5.583e-06	5.637e-06	1365.3	371.55	5.6391e-06	5.661e-06	423.75	141.88	123.32	42.569	5.6838e-06	52.674	187.848	65.638	54.578	-12.226	121.240	106.421	-12.065	-7.498	103.763	61.360	-7.956	-3.251	-2.415	1.372	90.846	1.081	-8191	255	
44238.977	1	1	0	0	0.2667	0.15537	0.033254	0.25458	0.27033	0.18368	0.06065	0.24749	0.086958	0.1229	0.20671	0.081826	0.1474	0.12282	0.06824	0.060639	-3.5667	-4.8187	-4.3958	-4.3583	-4.9229	-4.1021	-4.5667	-4.8604	-3.8104	-4.8271	-4.4958	-4.0729	-4.9021	-4.1833	-4.4583	-4.9292	-17.378	-14.129	323.206	324.667	153.424	103.547	305.006	-19.193	326.149	168.982	286.170	246.709	-16.815	116.306	197.455	268.653	0.00011787	0.00025359	0.00014097	1361	3.3947e-06	3.377e-06	1363	367.66	2.8459e-06	9.0682e-06	421.22	139.78	120.81	41.878	3.3819e-06	52.293	0.00051376	0.00051902	0.00014493	1367.6	5.6771e-06	5.7043e-06	1368	372.05	5.7629e-06	5.7267e-06	424.34	142.21	123.48	42.631	5.7733e-06	52.82	191.717	30.451	-12.252	-12.001	22.941	194.401	-11.889	-7.185	42.314	108.272	-7.876	-3.079	-2.820	1.425	260.671	0.744	-8191	255	
44239.051	1	1	0	0	0.18149	0.10592	0.13916	0.10308	0.2794	0.19321	0.073957	0.12888	0.034125	0.12742	0.056363	0.076281	0.11692	0.21726	0.14919	0.059837	-3.6958	-4.5854	-4.5604	-4.075	-4.8625	-4.175	-4.4187	-4.8688	-3.8812	-4.575	-4.6854	-4.1583	-4.9146	-4.2125	-4.2688	-4.9542	287.613	83.969	264.119	333.605	61.265	41.379	102.055	249.295	106.169	266.752	21.951	330.877	226.308	51.702	-19.958	314.507	0.00026134	0.00074976	0.00023922	1361.6	5.275e-06	5.5609e-06	1363	366.15	5.5872e-06	4.9424e-06	422.87	138.75	121.42	42.149	8.0295e-06	51.857	0.00052206	0.00052434	0.00014512	1369.8	5.6964e-06	5.7228e-06	1368.1	371.88	5.6934e-06	5.6761e-06	424.42	141.88	123.38	42.663	5.6767e-06	52.731	200.088	294.395	-19.014	-12.114	67.060	151.918	-12.107	-7.219	104.710	137.984	-7.777	-2.986	-2.833	1.627	156.012	0.871	-8191	255	
44239.168	1	1	0	0	0.16853	0.12049	0.20967	0.31868	0.19043	0.062585	0.16141	0.13443	0.27616	0.12996	0.054513	0.12649	0.19546	0.17233	0.055875	0.071542	-3.5917	-4.4479	-4.7042	-4.0729	-4.7708	-4.2625	-4.2708	-5.0958	-3.925	-4.3396	-4.9146	-4.0542	-4.7562	-4.4104	-4.1083	-4.7021	127.734	8.648	96.278	297.582	272.577	84.604	278.567	227.363	61.489	43.933	319.518	269.234	318.664	287.698	93.577	225.270	0.00024732	0.0005649	9.0711e-05	1362.4	7.5162e-07	2.4603e-06	1359.5	366.53	4.9828e-06	6.3107e-06	422.22	138.94	120.95	41.96	5.0551e-06	52.192	0.00051201	0.00051441	0.00014431	1368.4	5.6927e-06	5.7032e-06	1367.1	371.78	5.7174e-06	5.7049e-06	424.74	141.82	123.51	42.609	5.7201e-06	52.869	204.185	19.145	40.484	-12.157	88.299	192.492	-12.232	-7.188	162.766	-17.185	-8.056	-3.172	-2.689	1.569	111.992	0.780	-8191	255	
44239.266	1	1	0	0	0.096607	0.23441	0.10044	0.11521	0.13273	0.10984	0.20016	0.23701	0.12772	0.22262	0.052042	0.21077	0.12798	0.11865	0.22346	0.29037	-3.8875	-4.3833	-4.7063	-4.0292	-4.6062	-4.5729	-4.2125	-5.0208	-4.1354	-4.1875	-4.9458	-4.1271	-4.6	-4.7854	-3.9625	-5.05	130.579	315.683	142.787	283.485	128.539	-17.685	241.909	273.593	225.340	332.958	227.196	24.615	26.098	172.107	230.428	293.802	0.0002642	0.001082	9.4485e-05	1365.7	6.5363e-06	4.508e-06	1363.2	366.82	6.0357e-06	2.9742e-06	420.46	139.21	121.18	41.971	6.4317e-07	52.425	0.00052293	0.00052421	0.00014413	1370.4	5.7306e-06	5.6835e-06	1367.5	371.95	5.707e-06	5.6827e-06	424.19	141.97	123.43	42.637	5.6864e-06	52.706	163.366	-18.136	38.179	-12.191	146.658	178.234	-11.889	-7.333	130.431	142.345	-7.949	-3.319	-2.659	1.541	296.474	0.769	-8191	255	
44239.359	1	1	0	0	0.31254	0.0081709	0.20166	0.1522	0.075914	0.14236	0.075964	0.26386	0.10418	0.22909	0.1333	0.16073	0.082644	0.20557	0.12297	0.18082	-3.9562	-4.2208	-4.9021	-4.1687	-4.5396	-4.6854	-4.2562	-4.8562	-4.3104	-4.15	-4.9917	-4.175	-4.5417	-4.8396	-4.0708	-4.9771	102.727	16.510	56.641	294.810	331.028	149.471	295.429	254.714	196.516	248.277	157.465	9.069	-24.683	9.822	-10.014	268.334	0.00015581	0.00033072	6.666e-05	1362	2.0012e-06	1.9445e-06	1362.3	368.27	1.0064e-06	3.4908e-06	421.71	139.18	121.27	41.789	6.6049e-07	52.291	0.00051595	0.00051799	0.00014323	1369.6	5.6977e-06	5.6876e-06	1367.1	371.95	5.637e-06	5.6279e-06	424.02	141.95	123.31	42.528	5.6429e-06	52.672	211.116	309.446	78.152	-12.089	120.802	-3.663	-11.911	-7.325	170.314	190.316	-7.949	-3.298	-2.708	1.385	101.132	0.933	-8191	255	
44239.457	1	1	0	0	0.19008	0.27894	0.18346	0.22308	0.14882	0.30472	0.22908	0.15418	0.19813	0.099926	0.080987	0.02117	0.16328	0.20735	0.18183	0.21801	-3.9375	-4.0667	-4.7688	-4.1375	-4.4062	-4.6292	-4.1021	-4.8521	-4.6083	-4.0771	-5.1542	-4.2021	-4.3938	-4.8812	-3.9292	-4.8708	300.164	320.443	89.941	219.424	127.993	145.632	246.106	276.605	323.371	65.135	221.734	304.420	7.633	-8.224	68.255	258.707	0.00026911	0.00021542	0.00020349	1368.6	5.6709e-06	4.5649e-06	1360.4	367.42	1.0887e-06	1.1187e-05	421.89	139.51	121.99	41.883	6.046e-06	51.864	0.00050954	0.00051171	0.00014252	1370.5	5.5604e-06	5.597e-06	1367.2	372.66	5.6287e-06	5.6071e-06	424.03	141.92	123.57	42.651	5.6284e-06	52.666	218.435	59.425	97.124	-12.186	141.491	125.650	-12.100	-7.176	196.675	69.888	-8.045	-3.133	-2.488	1.506	247.349	0.644	-8191	255	
44239.578	1	1	0	0	0.16248	0.098331	0.33366	0.23364	0.048059	0.083021	0.23821	0.11793	0.023577	0.22747	0.28557	0.13144	0.29402	0.20686	0.36321	0.087532	-4.3042	-3.8104	-4.8708	-4.3229	-4.3333	-4.8875	-4.1687	-4.7292	-4.6833	-4.0979	-4.9417	-4.2021	-4.2312	-4.9563	-3.8521	-4.7396	312.982	179.046	39.283	305.873	307.836	275.783	255.968	318.523	211.178	-15.228	274.963	-10.591	-8.387	-9.573	89.937	28.008	0.00021483	0.00040737	0.00015006	1367.2	3.7078e-06	3.6373e-06	1362.8	369.32	4.2471e-06	4.1797e-06	424.13	139.02	121.65	42.011	5.7513e-07	51.999	0.0005117	0.00051444	0.00014267	1371.4	5.6588e-06	5.6396e-06	1369.5	372.56	5.6256e-06	5.6674e-06	425.61	142.1	123.59	42.614	5.6946e-06	52.85	206.358	-18.566	146.474	-12.161	15.093	78.626	-11.735	-7.430	169.881	70.135	-7.724	-3.207	-2.687	1.253	229.222	0.581	-8191	255	
44239.648	1	1	0	0	0.14959	0.12701	0.067816	0.2455	0.085434	0.23867	0.066382	0.17652	0.157	0.17772	0.25895	0.17382	0.11934	0.25374	0.30228	0.26308	-4.4396	-3.8667	-4.875	-4.3458	-4.3812	-4.8583	-4.1396	-4.7021	-4.6333	-4.0229	-4.9833	-4.4208	-4.0333	-4.9021	-3.95	-4.4062	90.627	34.504	120.558	270.175	244.843	10.574	280.056	325.355	208.084	290.051	193.611	-6.857	311.040	-15.697	263.443	303.430	0.00026885	0.00022479	0.00012394	1367.7	1.1614e-06	7.209e-06	1363.3	368.3	8.7635e-06	9.9974e-07	422.92	139.16	121.6	41.893	4.6133e-06	51.859	0.00051304	0.00051549	0.00014277	1372.4	5.6665e-06	5.64e-06	1369	372.57	5.6518e-06	5.6408e-06	424.76	141.96	123.48	42.664	5.7141e-06	52.764	172.358	64.275	119.457	-12.046	213.967	189.713	-11.896	-7.231	213.849	295.511	-7.911	-3.129	-2.959	1.612	74.460	0.914	-8191	255	
44239.746	1	1	0	0	0.052618	0.12515	0.069597	0.42758	0.18833	0.052789	0.10941	0.25912	0.18797	0.22185	0.25034	0.086116	0.18915	0.23958	0.2549	0.071024	-4.4625	-4.0583	-4.7896	-4.5042	-4.125	-4.8917	-4.3917	-4.4896	-4.8458	-3.875	-4.7333	-4.6062	-4.0958	-4.9917	-4.1604	-4.3333	80.852	186.548	-5.622	287.579	88.887	38.708	230.175	236.941	294.571	149.197	294.140	154.213	30.377	6.862	2.990	-9.449	0.00019882	0.00039992	0.00017065	1372.7	3.6324e-06	1.7395e-06	1364.4	368.77	4.8398e-06	4.88e-06	422.27	139.05	121.69	41.973	5.4302e-06	52.142	0.00051885	0.00051891	0.00014526	1375.3	5.7177e-06	5.713e-06	1371.3	372.51	5.7731e-06	5.7845e-06	425.78	142.48	123.85	42.777	5.8681e-06	52.916	198.183	56.772	8.859	-12.143	153.160	91.205	-11.775	-7.577	153.139	77.384	-7.999	-3.292	-2.715	1.226	43.296	0.474	-8191	255	
44239.867	1	1	0	0	0.10703	0.21007	0.08671	0.2631	0.12394	0.089513	0.2029	0.28765	0.25075	0.27186	0.080152	0.095563	0.15563	0.31397	0.16692	0.098242	-4.5292	-3.85	-4.8125	-4.775	-3.975	-4.8104	-4.4792	-4.3667	-4.9542	-3.9417	-4.6813	-4.8187	-4.0792	-5.0104	-4.2625	-4.2396	177.078	202.441	5.725	282.656	167.341	0.044	298.586	290.921	331.901	118.455	319.541	70.423	-15.147	40.774	127.007	301.340	0.00011737	0.00051062	8.8343e-05	1363	1.1625e-05	3.8493e-06	1364.2	367.6	1.7693e-06	5.4154e-06	422.94	139.05	121.37	41.943	1.3861e-06	52.113	0.0005344	0.0005378	0.0001516	1374.2	5.9209e-06	5.9434e-06	1373.9	373.25	5.9557e-06	5.9433e-06	426.38	142.51	123.88	42.789	5.9167e-06	52.932	214.942	-12.550	192.496	-12.104	121.444	149.520	-11.831	-7.552	29.777	29.760	-7.899	-3.204	-2.563	1.331	331.638	0.653	-8191	255	
44239.961	1	1	0	0	0.17556	0.037047	0.084246	0.12486	0.058765	0.10658	0.17815	0.17636	0.085879	0.088976	0.082883	0.081986	0.22554	0.12602	0.10898	0.17413	-4.7083	-4.0667	-4.5354	-4.9021	-3.9146	-4.8708	-4.7	-4.2896	-4.8104	-4.1771	-4.575	-4.8688	-4.0333	-4.8583	-4.4062	-4.2021	39.611	218.131	244.393	7.489	112.724	292.248	329.050	307.226	15.943	241.732	126.033	107.736	27.026	324.837	83.091	208.906	0.00023966	0.00032653	0.00013392	1367.2	9.6473e-06	5.841e-06	1360.8	368.32	4.3915e-06	5.1326e-06	422.59	139.2	121.5	41.866	2.0393e-06	52.03	0.00053462	0.00053774	0.00015017	1373.9	5.895e-06	5.8768e-06	1372.8	372.81	5.8497e-06	5.8614e-06	426.35	142.35	123.95	42.808	5.84e-06	52.806	196.318	69.848	288.672	-12.076	3.111	69.757	-11.960	-7.172	92.845	127.861	-7.821	-3.122	-2.747	1.651	233.250	0.492	-8191	255	
44240.059	1	1	0	0	0.17107	0.18321	0.2096	0.26114	0.32663	0.10597	0.27716	0.15805	0.033361	0.11588	0.22876	0.22704	0.12529	0.2789	0.18004	0.083021	-4.6229	-4.1354	-4.4437	-4.8354	-3.8083	-4.6167	-4.5958	-4.0917	-4.9583	-4.2042	-4.3896	-4.8667	-3.9896	-4.7562	-4.5042	-3.875	289.228	126.026	299.465	-17.352	100.627	250.495	241.911	215.029	32.690	21.872	273.990	-8.855	258.808	317.730	234.063	300.169	0.00018949	0.00018241	0.00033669	1373.1	5.2771e-06	4.6923e-06	1369.9	370.61	4.2569e-06	2.8885e-06	424.55	140.23	121.51	42.152	6.3704e-06	52.117	0.00052117	0.00052857	0.00014652	1375.2	5.7222e-06	5.7492e-06	1372.6	373.3	5.713e-06	5.7006e-06	425.58	142.28	123.71	42.72	5.7137e-06	52.749	230.993	145.867	331.130	-12.312	127.344	173.851	-12.350	-7.788	119.133	172.170	-8.263	-3.640	-2.963	0.796	49.565	0.406	-8191	255	
44240.156	1	1	0	0	0.14361	0.1102	0.18638	0.16599	0.094285	0.18443	0.29006	0.19953	0.16645	0.15003	0.043666	0.034623	0.188	0.22537	0.33689	0.08002	-4.5687	-4.125	-4.1875	-4.9333	-3.9729	-4.5396	-4.975	-3.9729	-4.8583	-4.2312	-4.3854	-5.0646	-3.9792	-4.6417	-4.7229	-3.8667	116.206	56.436	29.997	-24.366	247.281	16.971	302.814	112.045	149.854	334.344	137.006	265.128	11.309	270.842	177.096	275.216	9.1482e-05	0.00021039	0.0002478	1364.2	4.8395e-06	7.2037e-06	1363	368.44	5.8004e-06	7.3811e-06	424.57	139.66	121.77	42.089	1.9504e-06	52.123	0.00052131	0.00052316	0.00014612	1373.9	5.7775e-06	5.7422e-06	1370.8	372.5	5.75e-06	5.745e-06	425.91	142.57	123.76	42.717	5.6975e-06	52.801	200.110	315.516	315.340	-12.051	204.554	53.478	-12.043	-7.502	75.442	53.336	-7.895	-3.176	-2.825	1.164	39.733	0.759	-8191	255	
44240.250	1	1	0	0	0.24925	0.24368	0.13613	0.13318	0.13151	0.044817	0.13798	0.18686	0.15902	0.09642	0.24027	0.12699	0.23131	0.16193	0.067175	0.15665	-4.4292	-4.4167	-4.1333	-5.0729	-3.9875	-4.5	-4.9812	-3.9938	-4.8833	-4.4354	-4.0583	-4.9625	-4.0958	-4.3542	-4.8479	-3.9667	74.487	303.911	109.789	300.731	252.016	16.120	226.658	10.590	312.302	23.759	204.283	7.515	265.764	316.843	28.008	250.983	0.0002517	0.00053905	0.00019929	1371	9.8294e-06	2.6492e-06	1367.9	367.71	1.1506e-06	5.5518e-06	419.7	140.07	121.39	42.047	5.7065e-06	52.328	0.00051848	0.00052059	0.00014424	1374.2	5.6769e-06	5.6731e-06	1370.7	372.36	5.6925e-06	5.6859e-06	424.46	142.45	123.64	42.692	5.6995e-06	52.792	169.748	12.316	62.179	-12.036	161.884	219.168	-11.835	-7.471	187.948	93.557	-7.997	-2.966	-2.693	1.257	70.578	0.688	-8191	255	
44240.344	1	1	0	0	0.20144	0.20557	0.10719	0.22424	0.17231	0.14568	0.038026	0.15675	0.27349	0.15085	0.011401	0.22695	0.14656	0.26509	0.087367	0.037227	-4.4625	-4.6146	-3.925	-4.9979	-4.1104	-4.2396	-5.1458	-3.9625	-4.5771	-4.6396	-4.0646	-5.0625	-4.2083	-4.1646	-4.9062	-3.9958	215.675	-21.686	108.234	323.090	293.760	94.973	83.565	259.523	130.462	134.062	249.589	257.877	266.383	15.157	132.991	246.139	0.00018112	0.0003688	0.00012992	1367.2	6.5786e-06	1.7282e-06	1367.3	369.45	7.5607e-06	4.4175e-06	421.83	139.17	121.27	41.953	3.5219e-06	51.944	0.00051434	0.00052049	0.00014424	1373	5.7465e-06	5.7027e-06	1371.3	372.88	5.7113e-06	5.7303e-06	425.29	142.2	123.65	42.806	5.7545e-06	52.867	220.666	44.396	170.013	-11.998	108.851	-10.726	-11.818	-7.341	169.168	259.631	-7.937	-3.088	-2.800	1.420	51.220	0.908	-8191	255	
44240.465	1	1	0	0	0.15035	0.2197	0.21857	0.21904	0.17032	0.039976	0.2085	0.05963	0.037745	0.048265	0.11748	0.12185	0.18508	0.25744	0.043038	0.037176	-4.2937	-4.5729	-4.0083	-4.9458	-4.3688	-4.0646	-5.1771	-4.2333	-4.4604	-4.7146	-4.1333	-4.8833	-4.5	-3.9813	-4.7792	-4.0146	258.463	134.510	13.634	27.274	245.372	44.549	313.315	302.769	63.219	122.753	-17.777	315.997	301.459	297.454	143.847	319.376	0.00021948	0.00057304	0.00028504	1363.2	2.0455e-06	3.3595e-06	1370.9	367.28	3.9578e-06	3.2215e-06	422.4	139.47	121.93	42.205	3.5886e-06	52.21	0.0005215	0.00052477	0.00014629	1374.6	5.7971e-06	5.799e-06	1374.3	372.94	5.8037e-06	5.7885e-06	426.18	142.76	123.89	42.796	5.8254e-06	53.031	183.371	34.963	31.199	-12.105	149.033	89.915	-11.992	-7.387	121.374	73.819	-8.093	-2.849	-2.552	1.354	36.135	0.702	-8191	255	
44240.562	1	1	0	0	0.094425	0.21951	0.089832	0.30004	0.18376	0.12952	0.1411	0.25673	0.19828	0.20339	0.25562	0.1432	0.11924	0.15123	0.17846	0.20132	-3.9646	-4.7396	-3.8646	-4.9854	-4.4104	-4.0542	-5.0708	-4.2167	-4.2771	-4.7396	-4.0625	-4.7667	-4.5896	-4.0062	-4.8479	-4.1625	72.833	316.174	137.204	321.350	96.374	262.097	197.383	298.893	77.643	140.966	310.125	277.461	19.202	315.756	-9.412	306.365	0.00034006	0.0006464	0.00037672	1369.6	2.4107e-06	1.2466e-05	1365.4	367.77	6.1576e-06	3.9505e-06	421.62	139.25	120.87	41.78	7.0859e-06	52.243	0.00053014	0.00053488	0.00014855	1376.6	5.839e-06	5.8321e-06	1373.9	372.39	5.8909e-06	5.8666e-06	426.22	142.6	123.72	42.766	5.8643e-06	52.919	188.522	-12.227	14.979	-12.156	261.072	85.291	-11.875	-7.553	173.603	214.605	-7.883	-3.162	-2.621	1.520	116.989	1.011	-8191	255	
44240.656	1	1	0	0	0.1877	0.064145	0.11022	0.2433	0.15114	0.08927	0.26561	0.12948	0.064292	0.18751	0.17918	0.25518	0.19122	0.17283	0.19066	0.088694	-3.9188	-4.8208	-3.9792	-4.6438	-4.3688	-3.875	-5.0479	-4.4313	-4.1958	-4.8979	-4.1792	-4.6146	-4.7167	-3.9625	-4.7792	-4.5771	106.525	176.423	121.309	316.380	155.398	136.199	296.806	197.204	-6.715	296.028	274.030	270.167	-16.401	332.626	127.386	-20.192	0.00022524	0.00026579	6.4037e-05	1368.9	7.0436e-06	2.9764e-06	1365.7	366.08	3.9409e-06	6.0508e-07	421.61	139.07	122.09	41.976	5.8714e-06	52.303	0.0005312	0.00053523	0.00014972	1374.8	5.8818e-06	5.9036e-06	1374.2	372.94	5.8834e-06	5.921e-06	425.9	142.75	124.05	42.889	5.9286e-06	53.037	186.982	135.070	12.347	-12.023	83.241	19.823	-11.922	-7.135	109.030	259.992	-8.062	-3.015	-2.606	1.009	107.581	0.385	-8191	255	
44240.754	1	1	0	0	0.29515	0.11194	0.096927	0.30207	0.1175	0.11918	0.25158	0.32664	0.26075	0.076251	0.32115	0.22243	0.18628	0.1408	0.070171	0.21882	-3.7271	-4.9062	-3.8979	-4.6521	-4.6	-3.9333	-4.8771	-4.675	-4.0833	-5.0583	-4.1875	-4.4042	-4.7583	-3.9958	-4.6917	-4.6687	88.250	-17.906	44.419	332.111	318.498	34.901	255.337	264.936	243.399	327.415	272.989	297.647	24.107	264.778	198.164	265.577	0.00015221	0.00043067	0.00010153	1369.8	8.028e-06	3.5821e-06	1366.2	368.28	2.7389e-06	1.7663e-06	424.08	139.86	121.78	41.963	2.2725e-06	52.203	0.00053522	0.00053988	0.00015135	1378.2	5.9561e-06	5.9214e-06	1375.9	373.2	5.8561e-06	5.9176e-06	426.88	142.82	124.09	42.881	5.9213e-06	53.052	205.797	-6.392	15.403	-11.986	128.283	282.735	-11.809	-7.457	37.828	234.300	-7.911	-3.186	-2.600	1.293	121.568	0.755	-8191	255	
44240.875	1	1	0	0	0.04021	0.33072	0.12287	0.20615	0.19481	0.36912	0.32585	0.23955	0.30215	0.16298	0.16586	0.033686	0.063129	0.24335	0.072964	0.12466	-3.6854	-4.8625	-4.15	-4.4979	-4.7958	-3.9229	-4.8938	-4.6625	-3.9396	-5	-4.3417	-4.4292	-4.8792	-3.8875	-4.5188	-4.8917	230.149	264.752	-21.875	290.294	-4.704	204.753	242.764	311.893	179.832	107.426	240.612	1.152	14.825	-10.490	114.571	-18.256	0.00026564	0.00044948	0.00013254	1373.2	2.0446e-06	3.8122e-06	1366.6	368.05	3.861e-06	2.491e-06	423.04	139.54	121.8	41.961	5.2277e-07	52.133	0.00053522	0.00054129	0.00015181	1378.6	5.9514e-06	5.9837e-06	1376.5	373.44	5.9622e-06	5.9418e-06	427.35	142.84	124.25	42.918	6.0112e-06	53.066	181.870	71.332	87.471	-12.230	291.874	235.128	-11.943	-7.252	176.967	105.675	-7.823	-3.510	-2.624	1.314	138.395	0.469	-8191	255	
44240.945	1	1	0	0	0.067898	0.23297	0.17954	0.13018	0.089603	0.17879	0.3037	0.22133	0.154	0.22422	0.12027	0.26559	0.33282	0.20877	0.056977	0.080157	-3.6833	-4.7104	-3.9958	-4.2812	-4.8896	-4.1083	-4.6167	-4.8187	-3.9125	-4.8542	-4.5042	-4.2125	-5.0312	-4.0958	-4.3938	-4.9542	3.794	148.808	187.604	310.386	75.356	85.043	263.144	180.068	316.759	278.243	41.043	267.308	261.767	-9.834	208.914	319.743	0.00023284	0.00042896	0.00012822	1369.5	9.9632e-06	5.2855e-06	1369.7	368.73	1.9027e-06	4.9247e-06	421.81	140.23	121.57	42.108	1.1354e-06	52.012	0.00054162	0.0005453	0.00015238	1377.4	5.9245e-06	5.9845e-06	1376.3	373.58	5.9441e-06	5.9403e-06	426.86	142.88	123.9	42.875	5.8947e-06	53.006	222.820	47.921	110.551	-12.117	133.242	150.835	-11.847	-7.099	-10.178	73.893	-8.138	-3.232	-2.834	1.303	109.920	0.793	-8191	255	
44241.043	1	1	0	0	0.30768	0.15514	0.11127	0.23294	0.32558	0.061446	0.16111	0.24824	0.26709	0.10594	0.1713	0.22983	0.27298	0.060073	0.095671	0.28882	-3.6	-4.7438	-4.5042	-4.175	-4.85	-4.0396	-4.5625	-5.0437	-3.8354	-4.8229	-4.4417	-4.05	-4.9979	-4.1792	-4.2292	-4.8083	222.462	129.517	230.730	-1.871	20.644	263.685	280.430	198.172	104.681	225.782	18.458	11.308	184.895	229.476	76.527	283.263	0.00014829	0.00038323	0.00014492	1368.2	5.5814e-06	4.2592e-06	1367.1	368.34	2.1508e-06	8.9313e-06	425.04	139.86	122.03	42.165	4.5511e-06	52.324	0.00053447	0.00054018	0.00015058	1374.8	5.8876e-06	5.9076e-06	1374.3	373.45	5.9215e-06	5.8919e-06	426.99	142.67	124.1	42.905	5.916e-06	52.927	175.203	20.803	244.099	-12.228	118.348	207.583	-11.936	-7.212	104.451	74.951	-7.686	-3.410	-2.291	1.275	52.820	0.548	-8191	255	
44241.141	1	1	0	0	0.12396	0.032956	0.059271	0.29038	0.11998	0.020334	0.30702	0.083973	0.16715	0.045195	0.15345	0.064405	0.17822	0.072555	0.16281	0.11859	-3.5938	-4.6958	-4.5354	-4.1417	-4.8208	-4.1188	-4.2708	-4.9542	-3.9437	-4.4604	-4.8042	-4.1729	-4.975	-4.2833	-4.0958	-4.9083	186.607	162.193	244.748	316.150	194.487	290.317	293.915	215.352	67.836	242.275	249.927	28.899	29.452	-15.100	-9.454	318.086	0.00018578	0.00025538	0.00024689	1370.3	5.617e-06	8.832e-06	1370.4	368.48	6.1878e-06	3.7311e-06	423.26	139.83	121.49	42.123	3.0251e-06	52.235	0.00053146	0.00053762	0.00014859	1376.5	5.8438e-06	5.8487e-06	1376.3	373.37	5.8619e-06	5.857e-06	426.76	142.75	124.05	42.813	5.8302e-06	53.03	179.909	185.873	252.732	-12.015	101.561	136.004	-11.767	-7.343	142.343	124.723	-7.984	-3.119	-2.584	1.237	157.584	0.892	-8191	255	
44241.234	1	1	0	0	0.034192	0.27074	0.099019	0.25944	0.067268	0.17027	0.21111	0.32361	0.12284	0.10926	0.18611	0.040438	0.17952	0.18368	0.22639	0.088944	-3.6833	-4.3146	-4.7958	-4.0563	-4.7896	-4.4896	-4.2604	-4.8917	-4.0687	-4.4812	-4.7688	-4.1188	-4.7292	-4.4583	-4.1354	-4.9771	64.715	254.263	275.775	320.200	193.205	283.846	269.871	278.171	175.855	232.951	263.928	218.661	260.600	283.439	174.946	18.576	0.00018638	0.00012869	5.6097e-05	1367.5	2.2106e-06	7.2105e-06	1363.2	368.07	2.6203e-06	5.1362e-06	422.52	139.05	121.52	41.921	8.882e-06	51.955	0.00053854	0.00054077	0.00015104	1378.5	5.9601e-06	5.9752e-06	1374.8	373.45	5.9962e-06	6.0168e-06	426.87	142.85	124.24	42.855	6.0148e-06	53.099	200.280	150.073	323.959	-12.249	15.524	96.176	-11.865	-7.446	93.503	164.604	-8.175	-3.009	-2.776	1.363	102.684	0.907	-8191	255	
44241.355	1	1	0	0	0.046866	0.21404	0.060575	0.14754	0.12905	0.34082	0.119	0.32039	0.23057	0.054363	0.16792	0.15129	0.07786	0.16275	0.12755	0.14555	-3.6437	-4.3292	-4.7125	-4.0375	-4.7729	-4.6146	-4.1937	-5.0354	-4.2917	-4.4563	-4.9917	-4.0479	-4.8625	-4.7021	-3.9854	-5.0292	256.760	308.134	277.301	-13.769	145.310	171.202	318.164	327.333	192.556	4.651	305.127	232.529	280.380	235.791	253.632	302.225	0.00015534	0.00063022	0.00016244	1369.3	5.8111e-06	1.095e-06	1369.2	368.44	9.1187e-06	6.0055e-06	421.27	139.71	121.24	41.92	3.0338e-06	52.374	0.00054497	0.00055004	0.00015249	1379.7	6.0397e-06	6.003e-06	1378	373.6	6.0531e-06	6.0752e-06	426.69	143.09	124.27	42.916	6.0683e-06	53.239	168.181	65.300	105.860	-12.231	19.801	155.125	-12.261	-7.269	176.072	18.337	-7.734	-3.358	-3.006	1.463	56.709	0.703	-8191	255	
44241.449	1	1	0	0	0.043884	0.13459	0.02722	0.17931	0.13977	0.37798	0.14183	0.057696	0.20035	0.12045	0.082524	0.16374	0.209	0.13907	0.20156	0.17039	-3.925	-4.1479	-4.9854	-4.0687	-4.4958	-4.675	-4.2208	-5	-4.3229	-4.1542	-4.8812	-4.1708	-4.7188	-4.7812	-4.0417	-4.925	272.438	-11.171	182.348	277.670	257.630	115.425	311.971	-12.267	153.731	226.480	67.997	248.363	306.500	98.324	247.003	-19.168	0.00030944	0.00020726	5.5754e-05	1367.1	7.026e-06	3.5299e-06	1368.2	368.14	1.2603e-06	2.2296e-06	422.3	139.02	121.08	41.792	3.4864e-06	52.384	0.00055117	0.00055667	0.00015467	1378.6	6.0752e-06	6.0556e-06	1377.2	373.93	6.1126e-06	6.0747e-06	427.79	143.05	124.25	42.926	6.1188e-06	53.164	192.954	-12.196	245.033	-12.155	89.307	126.546	-11.999	-7.393	142.413	133.919	-7.905	-3.210	-2.660	1.614	76.368	0.785	-8191	255	
44241.547	1	1	0	0	0.066701	0.093442	0.018391	0.1513	0.2312	0.22948	0.22169	0.20538	0.02644	0.20189	0.18671	0.32448	0.17986	0.21855	0.19277	0.25577	-3.9437	-4.1708	-4.85	-4.2354	-4.4292	-4.7521	-4.0479	-4.9146	-4.4187	-3.9938	-5.0687	-4.0917	-4.3729	-4.9125	-3.7854	-4.8083	173.452	332.273	38.780	251.291	-22.075	54.572	227.613	217.163	104.051	311.873	224.623	251.613	306.553	324.111	264.682	-7.610	0.00012702	0.00072751	0.00044052	1366.4	4.9991e-06	1.1724e-06	1366.3	368.34	5.6659e-06	1.6469e-06	420.71	139.07	121.96	42.073	3.7726e-07	52.016	0.0005546	0.00055642	0.00015515	1378.3	6.0698e-06	6.1081e-06	1376.9	374.07	6.0802e-06	6.0719e-06	427.05	142.97	124.52	42.886	6.0459e-06	53.129	194.765	38.778	93.266	-12.080	132.885	135.837	-12.189	-7.331	154.919	122.768	-7.751	-2.973	-2.590	1.250	102.199	0.638	-8191	255	
44241.641	1	1	0	0	0.21795	0.054616	0.056679	0.090027	0.068324	0.051999	0.20109	0.31686	0.13705	0.093468	0.20334	0.030326	0.11183	0.11974	0.1931	0.12328	-4.1292	-3.95	-5.0104	-4.3583	-4.1646	-4.7021	-4.2479	-4.725	-4.5188	-3.9917	-4.8792	-4.3292	-4.1979	-4.9563	-3.9771	-4.5896	177.640	64.262	267.346	259.240	110.015	80.423	287.602	289.877	83.648	8.075	308.644	292.606	308.180	13.283	204.854	329.264	0.00035458	0.00075559	0.00011112	1370.1	6.9796e-06	7.0836e-06	1362.2	368.43	1.6999e-05	9.0549e-06	421.96	139.32	120.98	41.994	4.775e-06	52.121	0.00054989	0.00055346	0.00015458	1376.7	6.0624e-06	6.0773e-06	1374.7	373.79	6.0421e-06	6.0361e-06	427.32	143.02	124.21	42.916	6.1213e-06	53.19	200.630	21.338	70.800	-12.057	58.955	201.458	-12.018	-7.383	106.894	87.583	-7.818	-3.151	-2.905	1.538	38.124	0.818	-8191	255	
44241.738	1	1	0	0	0.0080769	0.095692	0.16902	0.3851	0.076866	0.16228	0.16219	0.077165	0.15048	0.084614	0.20322	0.45422	0.18799	0.16275	0.15382	0.17991	-4.2583	-3.9542	-4.6833	-4.4563	-4.0083	-4.8396	-4.1083	-4.5979	-4.8604	-3.8438	-4.8354	-4.6	-4.2417	-4.9396	-3.9583	-4.4604	321.936	190.627	150.880	253.994	302.294	58.975	-0.219	86.124	16.024	317.584	327.577	316.736	257.676	-3.995	279.039	4.233	0.00022305	0.00026798	9.2968e-05	1368.5	3.1142e-06	6.4572e-06	1362.2	368.19	5.3454e-06	6.8969e-06	420.4	138.97	120.96	41.893	2.5287e-06	52.39	0.00055085	0.00055417	0.00015563	1379.5	6.1055e-06	6.1078e-06	1375.6	373.87	6.0962e-06	6.1043e-06	426.98	142.87	124.23	42.948	6.1163e-06	53.242	199.069	99.928	10.093	-12.067	218.458	63.458	-12.028	-7.228	204.218	160.486	-8.120	-3.307	-2.768	1.346	120.062	0.861	-8191	255	
44241.836	1	1	0	0	0.10246	0.1329	0.13769	0.276	0.13766	0.1083	0.20715	0.19755	0.10829	0.17065	0.13524	0.12455	0.13085	0.095507	0.10445	0.097586	-4.3688	-3.9979	-4.5979	-4.6667	-3.8979	-4.9542	-4.2208	-4.6333	-4.9313	-4.0354	-4.8917	-4.6354	-4.3	-4.9708	-4.2896	-4.4208	320.776	152.243	250.713	286.318	-6.160	89.726	266.045	281.127	278.890	78.111	-3.980	72.267	329.113	37.672	115.724	55.593	0.00018714	0.00010587	0.00020631	1366	7.4777e-06	7.9739e-06	1360.7	368.29	4.504e-06	9.8788e-06	422.34	138.96	121.52	41.962	3.7281e-06	52.15	0.00055199	0.00055612	0.00015565	1377.2	6.1103e-06	6.1135e-06	1373.8	373.85	6.0538e-06	6.1027e-06	427.39	142.75	124.16	42.946	6.0923e-06	53.083	197.547	243.509	12.421	-12.212	289.497	123.148	-11.830	-7.374	99.732	166.854	-7.874	-3.045	-2.680	1.721	286.849	0.538	-8191	255	
44241.953	1	1	0	0	0.12886	0.056492	0.14431	0.11502	0.055572	0.083862	0.13711	0.026329	0.18263	0.14216	0.14645	0.27813	0.049389	0.16411	0.046513	0.24908	-4.5458	-4.0458	-4.7562	-4.7167	-3.925	-4.8688	-4.3187	-4.3729	-4.7333	-4.0521	-4.6792	-4.7917	-4.1771	-4.9292	-4.1417	-4.1687	82.274	59.720	65.741	10.578	18.447	324.583	314.941	225.636	24.988	192.138	109.093	296.675	82.112	101.601	299.897	259.860	0.0002287	0.00044693	0.00013433	1367.1	3.575e-06	1.2233e-05	1367.6	367.45	3.9483e-06	8.8839e-06	422.46	139.26	121.74	41.997	3.8964e-06	51.915	0.0005473	0.00055525	0.00015401	1377.1	6.0283e-06	6.0547e-06	1375.1	373.04	6.0081e-06	6.049e-06	426.82	142.68	124.05	42.86	6.0335e-06	52.948	206.556	106.865	5.452	-12.068	136.932	96.839	-11.834	-7.507	77.980	109.597	-8.049	-3.127	-2.952	1.246	110.056	0.414	-8191	255	
44242.051	1	1	0	0	0.038831	0.18227	0.13158	0.096108	0.14767	0.094485	0.21642	0.23445	0.026178	0.070005	0.27822	0.1165	0.24811	0.12588	0.056284	0.28089	-4.5792	-3.8063	-4.3688	-4.9125	-3.9813	-4.7083	-4.6604	-4.1625	-4.7937	-4.1438	-4.5167	-4.7792	-4.0521	-4.9771	-4.375	-4.2208	139.229	98.231	176.388	284.450	218.568	81.512	290.016	298.986	59.022	66.121	255.123	-22.423	19.891	78.994	122.180	317.078	0.00015866	0.000684	0.00027836	1368.6	4.0455e-06	7.0673e-06	1362.8	367.18	6.6834e-06	1.8377e-06	423.11	138.45	121.04	41.931	8.0906e-07	52.129	0.00054499	0.00055002	0.00015261	1376.5	6.0039e-06	6.0006e-06	1373.7	373.02	5.9618e-06	5.9958e-06	427.36	142.66	124.08	42.821	5.9591e-06	53.035	188.302	45.571	3.645	-11.941	107.126	183.558	-11.814	-7.452	157.714	164.037	-7.826	-2.897	-2.848	1.409	-11.719	0.468	-8191	255	
44242.148	1	1	0	0	0.11512	0.30312	0.31975	0.24354	0.11903	0.17657	0.32583	0.29152	0.20179	0.076426	0.044758	0.2024	0.20249	0.034939	0.068451	0.21386	-4.6813	-4.0437	-4.3875	-5.1021	-3.8792	-4.7354	-4.9208	-4.0521	-4.9667	-4.1583	-4.4458	-4.8375	-4.1042	-4.6438	-4.6396	-3.9146	293.288	263.749	178.769	-11.995	187.678	117.505	274.063	265.711	-17.727	-3.948	64.786	-21.066	52.118	-20.942	229.162	-21.776	0.00023014	0.00093614	0.00015625	1365.6	3.9751e-06	2.7774e-06	1365.5	368.07	2.6864e-06	7.4504e-06	422.71	139.21	120.78	41.964	4.5677e-06	51.865	0.00054077	0.00054351	0.00015145	1376.6	5.9627e-06	5.9686e-06	1374.3	372.72	5.9268e-06	5.9696e-06	426.49	142.79	124.08	42.805	5.9729e-06	52.992	187.861	79.838	53.875	-11.961	212.772	146.126	-11.942	-7.406	242.627	32.678	-8.063	-3.073	-2.812	1.183	85.614	0.776	-8191	255	
44242.242	1	1	0	0	0.063938	0.3377	0.30859	0.17178	0.28928	0.096082	0.2522	0.065339	0.11727	0.18472	0.25682	0.049644	0.062811	0.097036	0.26748	0.058324	-4.5167	-4.1542	-3.9125	-4.9479	-3.8812	-4.5125	-4.7271	-4.0625	-4.6125	-4.4021	-4.2146	-4.8896	-4.0687	-4.4938	-4.6604	-4.0396	140.835	274.295	12.189	70.993	160.601	0.311	299.690	7.029	106.368	76.930	234.633	14.107	121.108	228.847	97.175	262.043	0.00021521	0.00047584	0.00010979	1369.9	2.4893e-06	1.0379e-05	1361.6	368.24	7.5453e-06	5.1756e-06	421.78	139.16	120.91	42.017	1.1238e-06	52.027	0.0005393	0.00054603	0.00015084	1378.4	5.9835e-06	5.9548e-06	1373.8	373.09	5.9865e-06	5.9566e-06	426.07	142.76	123.84	42.858	5.9266e-06	53.05	205.644	25.778	327.039	-11.988	89.506	108.278	-12.052	-7.280	159.142	120.658	-8.065	-3.084	-2.476	1.415	10.536	0.455	-8191	255	
44242.340	1	1	0	0	0.093759	0.015696	0.15758	0.21472	0.11378	0.18197	0.21291	0.36321	0.14009	0.19495	0.24322	0.13381	0.099598	0.12125	0.095749	0.16301	-4.3604	-4.4542	-4.1979	-5.2271	-4.0208	-4.4625	-5.0104	-4.0437	-4.65	-4.575	-4.1687	-5.0146	-4.0979	-4.2833	-4.8187	-3.9521	165.480	183.892	189.293	-13.052	192.442	233.463	160.856	290.911	24.923	72.721	290.955	215.998	17.389	135.413	159.444	322.604	0.00026104	0.00012667	0.00017582	1369	5.7299e-06	1.2007e-05	1365.3	367.93	3.6513e-06	7.991e-06	421.94	139.64	120.91	42.089	2.5039e-06	52.124	0.00053724	0.00053946	0.00015072	1375.9	5.9573e-06	5.9716e-06	1374.1	373.21	5.9544e-06	5.974e-06	426.55	142.65	124	42.866	6.002e-06	53.064	168.512	250.312	-6.714	-11.960	176.333	103.898	-11.897	-7.323	103.964	53.924	-8.088	-3.305	-2.347	1.266	69.507	0.567	-8191	255	
44242.434	1	1	0	0	0.2329	0.11771	0.085713	0.11346	0.046636	0.11347	0.12333	0.10618	0.1775	0.052389	0.022409	0.26989	0.2318	0.14357	0.053404	0.28139	-4.3333	-4.5375	-3.9813	-5.1062	-4.1542	-4.1854	-5.025	-4.1458	-4.4896	-4.6729	-3.9813	-4.9875	-4.3292	-4.1958	-4.9833	-4.0354	73.097	270.218	107.496	280.701	10.052	121.636	209.874	14.735	333.406	156.614	30.473	281.960	-24.678	258.646	118.207	208.788	0.00025574	0.00062858	0.00015249	1370.1	3.3463e-06	4.3645e-06	1372.2	366.37	5.8248e-06	4.8329e-06	420.36	139.72	121.47	41.896	5.9608e-06	52.004	0.0005471	0.00054706	0.00015219	1377.4	5.9923e-06	5.9651e-06	1376.7	372.88	5.9462e-06	5.9492e-06	426.31	142.88	124.14	42.834	5.9286e-06	53.053	198.818	-5.531	24.730	-12.308	72.675	6.893	-12.179	-7.229	275.775	78.837	-8.060	-3.331	-2.515	1.096	43.886	0.528	-8191	255	
44242.555	1	1	0	0	0.10787	0.17646	0.093543	0.20127	0.16845	0.033949	0.28216	0.36832	0.13693	0.042975	0.15693	0.31966	0.38231	0.20409	0.03613	0.12722	-4.0708	-4.625	-3.9979	-5.1062	-4.325	-4.2271	-5.1292	-4.0042	-4.3521	-4.7354	-4.1	-4.8479	-4.4042	-4.0104	-4.9	-4.3729	266.201	88.570	46.550	287.997	95.986	100.263	300.943	257.771	241.041	75.371	233.743	264.384	312.875	22.342	238.886	-17.711	0.0001589	0.00086755	0.00014305	1368	3.4759e-06	9.9743e-06	1362.2	366.31	1.4798e-06	4.7908e-06	421.55	138.84	121.05	42.12	9.8934e-06	52.033	0.00053468	0.00053763	0.00014923	1377.1	5.9084e-06	5.8947e-06	1375.6	372.85	5.9127e-06	5.8315e-06	426.01	142.52	123.82	42.82	5.8762e-06	52.949	246.539	83.888	70.942	-12.047	172.399	151.572	-11.963	-7.436	-7.828	130.185	-8.011	-3.538	-2.906	1.215	85.651	0.737	-8191	255	
44242.652	1	1	0	0	0.050278	0.081529	0.17268	0.3986	0.12578	0.20444	0.2938	0.28811	0.038613	0.10622	0.14437	0.18785	0.091881	0.25105	0.18507	0.20771	-3.9396	-4.85	-3.8292	-4.9062	-4.4958	-3.9771	-5.1104	-4.3938	-4.2458	-4.7167	-4.1813	-4.7583	-4.5312	-4.1021	-5.0646	-4.2271	25.111	205.600	124.247	-10.037	53.746	242.083	237.700	-20.508	-15.719	92.466	241.671	197.673	84.156	317.000	138.006	85.925	0.00017112	0.00020752	5.0325e-05	1370.6	6.0366e-06	2.2591e-06	1369	368.48	4.6624e-06	8.1377e-06	420.28	139.54	121.21	41.867	8.0284e-06	51.712	0.00053061	0.00053426	0.00014935	1376.3	5.8861e-06	5.8272e-06	1374.5	372.75	5.8696e-06	5.8605e-06	424.84	142.61	123.96	42.752	5.9838e-06	53.001	200.702	265.775	326.318	-12.025	136.250	264.768	-11.815	-7.247	105.849	133.503	-7.716	-2.982	-2.606	1.492	59.129	0.772	-8191	255	
44242.746	1	1	0	0	0.22031	0.067659	0.11278	0.17513	0.24315	0.22122	0.06958	0.23382	0.25712	0.16682	0.18873	0.22115	0.11039	0.21897	0.12976	0.10892	-3.9729	-4.8667	-4.0083	-4.5854	-4.6146	-4.0458	-5.0021	-4.3375	-3.875	-4.8375	-4.1083	-4.5583	-4.6396	-4.0125	-4.6708	-4.4479	72.864	168.038	108.550	237.788	117.065	151.852	300.210	213.276	301.950	179.436	256.965	280.972	130.159	-12.760	279.180	111.094	0.00035749	0.000182	0.00019518	1368.5	3.312e-06	3.1244e-06	1366.4	366.61	4.2692e-06	6.7661e-06	423.54	139.04	121.32	41.933	4.8219e-06	52.325	0.00054367	0.00054665	0.00015358	1378.7	6.0199e-06	6.0691e-06	1376.1	373.08	6.0237e-06	6.0207e-06	427.59	142.88	124.14	42.887	6.0085e-06	53.115	197.483	6.316	36.742	-12.003	86.226	92.067	-11.972	-7.404	326.407	67.438	-8.008	-3.238	-2.485	1.382	12.993	0.789	-8191	255	
44242.820	1	1	0	0	0.15018	0.072486	0.06247	0.34802	0.28983	0.036866	0.33493	0.1244	0.056625	0.10525	0.26167	0.15365	0.11899	0.091156	0.080948	0.015711	-3.8458	-4.6917	-3.9854	-4.4792	-4.8104	-3.8021	-4.9854	-4.6167	-3.9875	-5.0104	-4.1646	-4.3313	-4.8604	-3.7833	-4.6979	-4.55	297.044	243.130	169.486	255.973	81.099	226.147	298.589	301.355	-15.002	151.915	-19.143	240.947	20.413	66.738	201.984	280.542	0.00026664	0.00056686	0.00015315	1371.3	4.7193e-06	4.4086e-06	1366.1	367.14	2.2954e-06	9.7592e-06	421.03	139.97	121.42	41.942	7.9691e-06	52.364	0.00054088	0.00054521	0.00015097	1379.2	5.9473e-06	5.9052e-06	1376.2	372.96	5.8648e-06	5.9151e-06	426.23	142.77	124.11	42.864	5.9319e-06	53.175	210.591	46.073	38.298	-12.141	107.127	54.921	-11.949	-7.215	130.799	148.495	-7.955	-3.434	-2.582	1.231	107.819	0.741	-8191	255	
44242.914	1	1	0	0	0.21318	0.12936	0.32619	0.40548	0.3562	0.42009	0.14893	0.23681	0.087792	0.11652	0.19413	0.1274	0.013769	0.13598	0.067846	0.25482	-3.7208	-5.0271	-4.0854	-4.3875	-4.7083	-3.9333	-4.8854	-4.65	-3.8271	-4.7562	-4.2958	-4.4271	-4.9167	-3.8708	-4.5208	-4.6604	134.230	33.833	133.174	-19.378	242.775	105.132	244.283	296.518	28.241	256.632	39.405	331.216	66.658	272.169	49.453	276.829	0.00017692	0.00022801	0.00014226	1373.7	4.5315e-06	3.2107e-06	1364.4	368.88	7.5315e-06	3.8481e-06	423.51	138.98	121.69	42.061	1.6139e-06	51.986	0.0005426	0.00054646	0.00015338	1380.2	5.9533e-06	6.0054e-06	1376.4	373.38	5.9598e-06	6.0195e-06	428.36	142.65	124.24	42.948	5.995e-06	53.122	170.051	76.415	274.607	-12.268	234.044	125.194	-11.898	-7.328	190.556	83.106	-7.929	-3.298	-2.561	1.243	105.534	0.539	-8191	255	
44243.035	1	1	0	0	0.12897	0.18493	0.027999	0.12493	0.14543	0.18819	0.23614	0.027346	0.10233	0.068277	0.10588	0.10945	0.31626	0.032304	0.22035	0.21786	-3.5646	-4.8604	-4.2	-4.2458	-4.8854	-3.7313	-4.6396	-4.7229	-3.7604	-4.7979	-4.4396	-4.0833	-4.9104	-4.0667	-4.2562	-4.8229	-17.278	-24.510	311.983	176.011	278.438	59.449	278.571	171.712	184.108	3.086	215.348	328.051	230.972	32.686	110.890	75.002	0.00016394	0.0013706	0.0001916	1373.5	6.3062e-06	1.0146e-06	1371.7	368.18	2.785e-06	1.1319e-05	423.38	139.7	121.86	41.996	4.663e-06	52.039	0.00054333	0.0005414	0.00015133	1380.1	5.9465e-06	5.9386e-06	1377.3	373.86	5.9433e-06	5.9295e-06	426.71	142.71	124.21	42.86	5.94e-06	53.009	198.554	44.325	-14.870	-12.117	77.649	213.853	-12.166	-7.282	154.716	135.924	-7.812	-3.440	-2.397	1.406	317.259	0.923	-8191	255	
44243.133	1	1	0	0	0.19084	0.047806	0.27409	0.1427	0.19372	0.12622	0.20995	0.23081	0.08906	0.14247	0.29978	0.097313	0.068768	0.35565	0.086231	0.12897	-3.5083	-4.6583	-4.4729	-4.1708	-4.9	-4.0167	-4.525	-4.8583	-3.9833	-4.7125	-4.7937	-3.9188	-5.0792	-4.2063	-4.1854	-4.7354	54.437	290.086	54.532	290.957	103.707	84.227	290.086	283.796	260.632	25.618	328.635	261.924	174.409	-9.187	184.235	260.292	0.00023108	0.00068814	0.0001048	1368.6	6.7527e-06	5.1188e-07	1364.9	368.41	1.0603e-06	2.9969e-06	421.3	139.51	121.49	41.879	6.2375e-06	51.842	0.00053691	0.00053964	0.00015012	1377.6	5.9197e-06	5.8634e-06	1375.2	372.91	5.8699e-06	5.84e-06	425.8	142.64	123.93	42.761	5.8273e-06	52.83	179.277	58.038	263.483	-12.213	12.934	131.247	-11.983	-7.357	190.397	31.417	-7.761	-3.285	-2.281	1.114	132.810	0.761	-8191	255	
44243.227	1	1	0	0	0.22975	0.30417	0.047807	0.21591	0.070656	0.14379	0.31926	0.24192	0.12344	0.15531	0.31617	0.17522	0.062007	0.068946	0.2107	0.025282	-3.6437	-4.6708	-4.3854	-4.1062	-4.75	-4.2771	-4.35	-4.9729	-3.9313	-4.4979	-4.7354	-3.9208	-4.9417	-4.2812	-4.2333	-4.9021	73.245	262.510	7.518	248.565	3.377	71.640	259.427	259.224	170.602	33.566	299.127	152.093	-2.095	21.959	85.902	275.397	0.00019651	7.9012e-05	0.00023603	1366.4	3.4079e-06	5.3924e-06	1365.5	368.88	3.1149e-06	1.7752e-06	423.77	139.48	121.47	42.126	4.715e-06	52.305	0.00052802	0.00053045	0.00014649	1375.1	5.8069e-06	5.7682e-06	1373.4	372.67	5.7854e-06	5.7915e-06	425.9	142.48	123.96	42.751	5.7605e-06	53.024	203.897	121.052	262.361	-11.921	208.762	63.150	-11.939	-7.361	306.750	80.271	-7.764	-3.265	-2.580	1.555	116.509	1.084	-8191	255	
44243.348	1	1	0	0	0.10269	0.093289	0.17482	0.439	0.053414	0.12091	0.25165	0.048007	0.21528	0.17092	0.015612	0.20813	0.18291	0.10575	0.14114	0.29675	-3.775	-4.3292	-4.8417	-4.025	-4.8292	-4.4083	-4.2083	-5.0667	-4.0396	-4.4792	-4.8562	-4.0563	-4.8208	-4.4958	-4.0542	-4.9833	163.857	87.752	159.063	297.668	-8.439	267.472	320.395	267.823	204.728	-3.299	305.689	89.373	-21.332	316.775	14.080	256.810	0.00031475	0.00044825	0.00029111	1364.4	1.0144e-06	1.1506e-06	1364.8	366.65	7.3602e-06	9.6263e-06	421.78	139.65	121.43	42.241	6.3432e-06	52.186	0.00052618	0.00052622	0.00014686	1374.3	5.8097e-06	5.7533e-06	1372.7	372.47	5.8317e-06	5.7913e-06	425.06	142.56	123.92	42.82	5.8e-06	52.957	185.406	38.033	19.466	-12.280	86.942	50.285	-11.868	-7.168	110.834	75.859	-7.773	-3.203	-2.780	1.450	74.492	1.134	-8191	255	
44243.418	1	1	0	0	0.058612	0.18095	0.29192	0.34534	0.048111	0.12521	0.12137	0.084255	0.076919	0.1341	0.20255	0.26985	0.15632	0.063497	0.13666	0.23336	-3.5917	-4.35	-4.7625	-4.0771	-4.6896	-4.4521	-4.1271	-4.9208	-4.1104	-4.1646	-5.0958	-3.9854	-4.4667	-4.7375	-3.8542	-5.0708	274.549	200.497	152.777	245.232	-14.654	17.929	263.550	313.155	16.685	298.040	309.447	303.223	311.099	269.721	182.020	62.924	0.00021631	0.00053204	0.00019467	1370.2	1.9235e-06	5.4965e-06	1364.6	369.05	4.3304e-06	7.7873e-07	420.44	139.92	122	42.039	2.3766e-06	52.145	0.0005275	0.00053046	0.00014755	1377	5.8125e-06	5.7909e-06	1372.7	372.78	5.8333e-06	5.8305e-06	425.68	142.67	124.04	42.777	5.87e-06	52.957	186.800	45.284	45.236	-12.112	325.232	177.142	-12.140	-7.534	225.273	194.191	-7.792	-3.566	-2.754	1.381	102.607	0.688	-8191	255	
44243.516	1	1	0	0	0.13989	0.25305	0.1025	0.093625	0.17016	0.13193	0.20607	0.21652	0.3023	0.15347	0.24715	0.13995	0.21605	0.058549	0.18783	0.12888	-3.8937	-4.2167	-4.875	-4.1521	-4.4979	-4.7354	-4.1208	-4.9208	-4.3	-4.0813	-4.9583	-4.0687	-4.6833	-4.8708	-3.9688	-4.9458	150.265	239.840	143.283	290.394	30.860	48.411	285.689	333.584	80.746	260.423	20.753	243.766	292.817	211.124	260.199	312.081	0.00025953	6.0202e-05	0.00031211	1372.9	5.6249e-06	7.8495e-06	1363.7	367.51	6.2619e-06	5.9483e-06	424.04	139.3	121.4	42.086	4.7731e-06	52.115	0.00053143	0.00053428	0.00014775	1377.3	5.8506e-06	5.8195e-06	1374.2	372.94	5.7958e-06	5.7861e-06	426.5	142.51	123.74	42.789	5.7709e-06	52.937	219.173	307.479	68.390	-11.984	114.724	25.339	-12.197	-7.445	142.465	110.819	-8.113	-2.884	-2.543	1.298	125.648	1.095	-8191	255	
44243.637	1	1	0	0	0.078309	0.098267	0.15305	0.035159	0.13941	0.14447	0.21507	0.052542	0.24852	0.089961	0.16215	0.1237	0.17303	0.16781	0.24234	0.22791	-4.0979	-4.0271	-4.8979	-4.2354	-4.3	-4.8313	-4.175	-4.9625	-4.4583	-4.0271	-5	-4.25	-4.5604	-4.9729	-3.7833	-4.7208	259.816	282.067	318.589	-5.115	319.916	162.585	278.732	221.203	11.205	309.952	314.092	64.831	307.688	100.837	8.829	235.898	0.0002031	0.00071144	0.00033948	1372.1	7.4309e-07	3.7422e-06	1363.9	368.08	2.85e-06	4.9598e-06	423.54	139.87	121.42	41.943	6.7208e-06	52.256	0.00052442	0.00052642	0.00014704	1378.6	5.7929e-06	5.7936e-06	1373.7	372.99	5.8222e-06	5.8259e-06	426.7	142.7	123.94	42.835	5.8629e-06	53.007	186.872	51.512	7.175	-11.904	128.221	119.206	-12.033	-7.319	142.797	165.127	-7.781	-3.332	-3.000	1.575	178.622	0.582	-8191	255	
44243.730	1	1	0	0	0.16016	0.10068	0.0917	0.28232	0.11587	0.23497	0.071415	0.12575	0.11685	0.11031	0.31158	0.13783	0.17784	0.23284	0.13253	0.42412	-4.2271	-4.0375	-4.7479	-4.3396	-4.2125	-4.8771	-4.1625	-4.7438	-4.6125	-4.05	-5.0875	-4.3354	-4.2729	-4.8667	-3.9917	-4.5958	146.069	12.944	221.066	244.327	125.395	326.466	275.685	-13.872	209.564	109.553	323.034	276.411	-0.330	325.607	211.464	316.644	0.00024335	0.00015106	0.00012521	1372.8	7.4945e-06	5.6325e-06	1366.6	369.55	5.0859e-06	5.1396e-06	421.79	139.84	121.47	42.044	2.5758e-06	52.297	0.00052976	0.00053467	0.00014827	1379	5.8237e-06	5.8042e-06	1374.8	373.49	5.8273e-06	5.7835e-06	426.25	142.52	123.97	42.79	5.8486e-06	53.005	205.022	95.033	22.782	-12.066	322.820	155.908	-12.035	-7.413	248.260	119.491	-8.069	-3.296	-2.699	1.468	73.371	0.868	-8191	255	
44243.828	1	1	0	0	0.12621	0.025089	0.16556	0.15519	0.12136	0.087089	0.10519	0.10437	0.23067	0.16026	0.066066	0.12527	0.23141	0.091164	0.035299	0.044792	-4.3167	-3.8812	-4.775	-4.6	-4.0062	-4.7688	-4.2188	-4.4208	-4.7312	-3.9771	-4.7917	-4.4187	-4.1937	-4.9771	-3.95	-4.2917	168.371	136.152	106.893	292.146	165.492	139.087	267.117	300.254	61.867	308.008	278.362	183.428	263.427	61.697	95.174	226.810	0.00025366	0.00027264	0.00014265	1366.2	8.1313e-06	5.721e-06	1359.9	367.52	1.7268e-06	9.325e-06	422.68	139.38	121.51	42.124	5.0981e-06	51.908	0.00052604	0.00053117	0.00014863	1374.3	5.8158e-06	5.8021e-06	1372.6	372.53	5.7745e-06	5.8034e-06	426.01	142.48	123.99	42.777	5.7957e-06	52.942	177.404	-22.945	46.130	-12.085	113.269	79.876	-11.849	-7.250	161.324	129.237	-8.145	-3.191	-2.657	1.160	68.745	0.788	-8191	255	
44243.949	1	1	0	0	0.13871	0.33208	0.22496	0.30187	0.045936	0.088034	0.14137	0.13992	0.20499	0.14485	0.088028	0.082985	0.1182	0.085971	0.11826	0.20193	-4.5771	-3.8771	-4.6417	-4.5542	-4.1375	-4.8708	-4.3063	-4.4375	-4.7917	-3.8833	-4.7896	-4.6729	-4	-4.8812	-4.075	-4.2875	50.530	141.294	263.112	316.025	250.881	84.388	325.879	253.485	50.315	37.076	238.080	158.214	114.435	302.087	198.282	239.541	0.00020072	5.0345e-05	6.7271e-05	1367.3	7.8762e-06	3.4337e-06	1363.3	367.71	5.1651e-06	3.6974e-06	421.92	139.39	121.08	42.059	1.5172e-06	52.453	0.00052173	0.00052882	0.00014745	1375.9	5.7818e-06	5.7874e-06	1372.6	372.35	5.7766e-06	5.8373e-06	426.35	142.57	123.87	42.797	5.8649e-06	53.057	206.403	22.117	224.697	-12.191	115.849	175.248	-11.891	-7.368	253.706	108.469	-7.784	-3.100	-2.701	1.277	95.907	0.584	-8191	255	
44244.043	1	1	0	0	0.11665	0.27337	0.15346	0.4103	0.089598	0.13608	0.057129	0.10789	0.071675	0.17219	0.067345	0.30405	0.21103	0.13655	0.27623	0.40247	-4.4729	-3.8583	-4.5417	-4.75	-3.8917	-4.6708	-4.2875	-4.1312	-4.7854	-3.8917	-4.5896	-4.7375	-4.0687	-4.8167	-4.3917	-4.0021	307.328	103.470	70.496	293.781	37.309	169.168	298.522	270.669	328.898	280.283	238.190	305.800	-23.088	21.904	30.742	194.259	0.00025751	0.0004012	0.00032474	1367.4	4.6027e-06	3.3265e-06	1369	368.19	3.4905e-06	5.7871e-06	421.41	139.32	121.82	42.094	3.0517e-06	52.041	0.00052585	0.00053256	0.00014784	1375.1	5.8068e-06	5.7706e-06	1374.9	373.08	5.7762e-06	5.797e-06	425.66	142.47	123.93	42.821	5.8146e-06	52.958	200.850	20.029	37.819	-12.085	87.010	126.126	-12.033	-7.235	7.113	128.233	-8.225	-3.047	-3.149	1.603	177.397	0.651	-8191	255	
44244.117	1	1	0	0	0.13454	0.28922	0.067616	0.46743	0.038873	0.18633	0.041097	0.16444	0.26374	0.19368	0.24572	0.16247	0.15023	0.14074	0.11609	0.18376	-4.6771	-4.0333	-4.3938	-4.8771	-3.7521	-4.7896	-4.6438	-4.0125	-4.8646	-4.2312	-4.35	-4.85	-3.8042	-4.7417	-4.5229	-4.0021	46.773	214.835	135.503	232.577	161.502	-2.818	233.841	327.201	-22.917	93.173	309.361	67.543	234.881	314.293	239.839	316.913	0.00014768	0.00066398	8.2976e-05	1369.7	6.8382e-06	1.2471e-06	1361.2	368.1	3.6718e-06	3.4422e-06	423.84	139.59	121.3	42.036	1.8815e-06	51.704	0.00052677	0.00053071	0.00014764	1376.7	5.8501e-06	5.8764e-06	1374	373.11	5.8859e-06	5.8764e-06	426.63	142.69	123.92	42.85	5.9114e-06	53.017	158.397	68.633	173.929	-12.073	152.745	11.247	-11.695	-7.405	122.274	70.641	-8.311	-2.906	-2.408	1.213	226.329	0.627	-8191	255	
44244.234	1	1	0	0	0.21526	0.2351	0.12852	0.25183	0.15846	0.27198	0.10377	0.14844	0.12997	0.06523	0.3344	0.10105	0.33474	0.077476	0.11843	0.13243	-4.5042	-4.2271	-4.1729	-4.8875	-3.9667	-4.6083	-4.7188	-4.0125	-4.8625	-4.1521	-4.25	-4.8875	-3.9833	-4.8583	-4.5938	-3.9188	262.688	41.230	257.498	301.097	121.607	45.926	318.573	189.715	130.144	328.032	321.450	299.072	293.023	220.102	110.019	317.186	0.00021185	0.00069219	0.00015809	1373.7	5.894e-06	5.0366e-06	1361.7	368.62	2.0749e-07	5.2932e-06	422.26	138.86	121.53	42.1	3.4546e-06	52.19	0.00053477	0.00054536	0.00015083	1380.1	5.9812e-06	5.9779e-06	1376.8	373.95	5.978e-06	5.9885e-06	427.19	142.87	124.03	42.922	5.9706e-06	53.085	175.892	311.463	7.146	-12.033	113.269	253.314	-11.791	-7.383	99.975	125.203	-8.167	-3.562	-2.707	1.279	112.958	0.376	-8191	255	
44244.332	1	1	0	0	0.22625	0.1088	0.017393	0.36075	0.21186	0.14508	0.44015	0.16076	0.081864	0.13481	0.12337	0.16963	0.2201	0.11219	0.21302	0.12892	-4.5271	-4.3979	-4.15	-5.1396	-3.9875	-4.4854	-4.8958	-3.8833	-4.8542	-4.3521	-4.0813	-5.0687	-4.1292	-4.4458	-4.8375	-4.0396	8.171	228.177	58.732	300.168	209.885	209.202	287.209	-15.705	236.076	13.513	274.898	83.572	26.634	9.133	255.131	329.476	0.00015636	0.00027911	0.00013297	1368.7	6.9844e-06	5.8962e-06	1366.2	367.09	5.4691e-06	3.6157e-06	420.75	139.98	121.44	42.142	4.2399e-06	52.027	0.00054402	0.00054674	0.00015171	1378.5	5.9632e-06	5.9704e-06	1375.7	373.46	5.9894e-06	6.0155e-06	426.69	142.73	124.3	42.914	6.0639e-06	53.166	224.708	56.963	220.670	-12.157	95.745	314.507	-12.067	-7.410	241.076	195.388	-7.798	-3.376	-2.642	1.442	41.350	0.762	-8191	255	
44244.426	1	1	0	0	0.166	0.18955	0.11125	0.16893	0.12034	0.18126	0.19601	0.093984	0.2571	0.062168	0.23344	0.2392	0.16389	0.26997	0.13567	0.10648	-4.5687	-4.3375	-4.1292	-5.1083	-4.075	-4.2896	-5.0854	-3.9271	-4.4729	-4.5125	-4.0771	-4.925	-4.2604	-4.2354	-4.7104	-4.0188	-17.803	26.645	13.464	284.917	126.807	64.298	219.150	174.876	292.866	331.473	312.605	254.232	320.124	-24.826	53.788	293.179	0.00021757	0.00068453	0.00013557	1369.5	9.6576e-06	3.8591e-06	1366.9	367.2	5.3607e-06	4.8686e-06	420.68	139.61	121.39	42.013	6.7157e-06	52.077	0.00054668	0.00055299	0.00015339	1380.6	6.0795e-06	6.0464e-06	1376.2	373.65	6.0646e-06	6.0416e-06	427.37	143.15	124.45	42.995	6.0585e-06	53.119	240.111	31.350	91.985	-12.120	124.358	277.204	-11.716	-7.414	164.772	85.081	-8.323	-3.261	-2.936	1.541	115.876	0.430	-8191	255	
44244.523	1	1	0	0	0.20203	0.099808	0.11957	0.39155	0.23947	0.19148	0.18479	0.13881	0.26466	0.054697	0.13166	0.31077	0.036451	0.13994	0.045705	0.21214	-4.5375	-4.575	-3.8312	-5.0229	-4.0854	-4.2417	-5.0792	-3.9979	-4.5125	-4.6229	-4.0667	-4.9229	-4.3854	-4.2292	-4.7583	-4.1104	114.358	267.096	288.838	328.238	15.463	271.086	278.464	0.791	34.454	192.358	325.112	280.391	78.102	289.892	295.445	171.487	0.00024756	0.00093086	0.00014546	1372.9	1.423e-05	1.0413e-06	1369.2	368.45	1.0888e-05	7.0378e-06	421.59	139.85	121.12	41.881	4.2955e-06	52.286	0.00054924	0.00055184	0.00015472	1381.4	6.1459e-06	6.119e-06	1378.8	374.37	6.0806e-06	6.0685e-06	428	143.35	124.5	42.962	6.1112e-06	53.295	194.665	27.902	97.248	-12.195	132.428	284.683	-12.005	-7.342	160.146	73.203	-8.319	-3.156	-2.452	1.498	153.081	0.434	-8191	255	
44244.621	1	1	0	0	0.064395	0.23577	0.26463	0.28071	0.10807	0.05735	0.11105	0.27098	0.1272	0.15532	0.11623	0.11913	0.19993	0.14527	0.21564	0.15396	-4.1708	-4.5604	-3.9417	-4.9938	-4.3458	-4.0958	-5.2021	-4.0146	-4.375	-4.8187	-4.0917	-4.7479	-4.5167	-4.2354	-4.8729	-4.0563	36.529	63.843	317.163	291.103	236.364	186.570	308.607	219.162	117.791	168.688	189.188	88.712	-7.758	171.162	104.747	258.497	0.00013211	0.00010348	0.00026294	1372.3	4.3501e-06	2.626e-06	1369.1	368.88	5.9477e-06	1.061e-05	423.72	139.97	121.06	41.964	8.4615e-06	52.229	0.00055566	0.00055837	0.00015601	1382	6.1576e-06	6.1901e-06	1379	374.35	6.2033e-06	6.181e-06	428.41	143.55	124.63	43.062	6.2841e-06	53.295	140.059	197.484	276.732	-11.948	210.129	168.183	-11.990	-7.236	-14.653	52.764	-8.064	-3.137	-2.770	1.423	32.533	0.700	-8191	255	
44244.715	1	1	0	0	0.17792	0.062857	0.25747	0.053258	0.123	0.077833	0.26642	0.068807	0.11961	0.22948	0.11168	0.2859	0.20774	0.089999	0.12147	0.25529	-3.975	-4.8375	-3.7771	-4.825	-4.6146	-3.8375	-5.0271	-4.2167	-4.2354	-4.8583	-4.0333	-4.6208	-4.7354	-4.1021	-4.975	-4.2583	224.153	244.356	34.861	-1.435	283.792	97.799	-7.617	-12.173	247.841	205.257	55.607	283.390	259.841	275.837	59.185	268.869	0.00022571	0.00038765	0.00016729	1371.3	2.0956e-06	6.7007e-06	1367	368.38	1.2649e-05	7.3942e-06	423.78	139.49	121.25	41.933	3.3248e-06	52.133	0.00056908	0.00057319	0.00015937	1383.9	6.3009e-06	6.2632e-06	1382	375.2	6.2643e-06	6.2859e-06	429.28	143.53	124.84	43.034	6.2924e-06	53.36	206.173	100.306	42.681	-12.090	174.019	105.025	-11.717	-7.368	105.299	101.741	-8.146	-3.133	-2.777	1.231	83.718	1.082	-8191	255	
44244.812	1	1	0	0	0.1682	0.21791	0.13874	0.18113	0.066369	0.034227	0.24832	0.11624	0.17544	0.077622	0.050876	0.20286	0.084239	0.18187	0.11615	0.085463	-3.9188	-4.8292	-3.8438	-4.8187	-4.65	-3.9813	-5.1583	-4.5229	-4.0729	-4.9	-4.0458	-4.5646	-4.7042	-3.9375	-4.7583	-4.5229	17.544	220.238	74.964	294.338	109.899	-11.759	262.811	59.411	321.693	332.267	88.261	272.155	33.038	40.175	288.608	262.042	0.00020923	0.00056327	0.0001853	1369.1	1.0168e-06	9.3274e-06	1365.2	368.65	2.829e-06	2.2266e-06	421.46	138.89	121.54	42.041	1.0507e-05	52.281	0.0005671	0.00057306	0.00015976	1383.8	6.2486e-06	6.2486e-06	1380.5	375.16	6.27e-06	6.2657e-06	429.49	143.6	124.72	43.122	6.277e-06	53.368	184.189	11.442	31.555	-12.064	83.083	151.781	-12.024	-7.225	95.108	161.904	-7.719	-3.232	-2.646	1.357	123.083	0.731	-8191	255	
44244.906	1	1	0	0	0.16883	0.11885	0.087593	0.024104	0.067886	0.10298	0.26061	0.057243	0.12011	0.044023	0.095664	0.32754	0.15661	0.24293	0.10346	0.094845	-3.8021	-4.8354	-4.1292	-4.6229	-4.6687	-3.7979	-4.8208	-4.7312	-4.0708	-4.8167	-4.3	-4.3167	-4.7917	-3.9833	-4.5667	-4.5542	186.552	151.085	24.374	296.328	73.852	63.332	261.256	38.435	83.948	322.795	308.909	315.583	-5.146	258.648	215.620	175.515	0.0001799	0.001299	0.00031542	1373.5	7.5621e-06	7.0465e-06	1369.6	368.5	1.392e-06	5.9393e-06	420.58	139.13	121.53	41.871	2.7151e-06	52.079	0.00056775	0.00057019	0.00015917	1383.5	6.2603e-06	6.2535e-06	1382	375.02	6.2519e-06	6.2842e-06	428.1	143.26	124.61	43.015	6.2787e-06	53.218	209.940	-1.089	77.252	-12.189	220.673	121.297	-12.031	-7.346	228.827	61.256	-8.001	-3.112	-2.670	1.318	232.873	0.763	-8191	255	
44245.027	1	1	0	0	0.26988	0.16203	0.12731	0.11393	0.15339	0.27249	0.32369	0.063265	0.25925	0.14045	0.18759	0.13941	0.072937	0.10789	0.18389	0.11605	-3.6729	-4.9021	-4.1417	-4.3958	-4.7667	-3.9854	-4.7063	-4.7667	-4.0667	-4.9688	-4.2	-4.2458	-4.9542	-4.0458	-4.3917	-4.6396	72.796	303.070	27.555	-18.846	98.935	334.632	299.873	3.511	165.902	142.249	275.612	245.451	-13.595	188.086	197.031	67.112	0.00020922	0.0005619	0.00028031	1371	2.9688e-06	2.7576e-06	1370	368.05	3.6472e-06	8.4908e-06	422.71	139.7	121.41	41.9	2.5228e-06	51.857	0.00056234	0.00057146	0.00015832	1381.7	6.1938e-06	6.2574e-06	1380.5	374.59	6.2087e-06	6.2381e-06	428.46	143.23	124.55	42.984	6.2142e-06	53.12	215.939	42.235	18.501	-12.098	171.732	139.998	-11.916	-7.128	213.478	135.344	-8.146	-3.289	-2.596	1.500	238.833	0.770	-8191	255	
44245.121	1	1	0	0	0.14781	0.078355	0.36061	0.11049	0.047243	0.15451	0.24992	0.30882	0.21244	0.18317	0.19795	0.13911	0.20679	0.18081	0.21671	0.26057	-3.7271	-4.8542	-4.2	-4.2292	-4.8	-3.8229	-4.6396	-4.9042	-3.8458	-4.7083	-4.4646	-4.0813	-5.0896	-4.1354	-4.3938	-4.8292	37.449	267.842	301.524	189.524	211.298	268.728	275.168	-8.735	199.581	44.381	199.267	-16.806	54.508	309.122	165.731	306.746	0.0001759	0.00084994	0.00015819	1377.5	1.5406e-06	1.5738e-06	1370.5	367.99	7.8391e-06	7.3621e-06	423.1	139.28	121.57	42.036	1.0273e-05	51.935	0.00056047	0.0005645	0.00015767	1385.4	6.2129e-06	6.2258e-06	1378.8	374.31	6.2016e-06	6.1792e-06	428.39	143.23	124.51	43.068	6.2062e-06	53.251	175.949	108.590	24.771	-12.242	159.033	16.656	-12.019	-7.293	85.987	96.555	-7.867	-3.264	-2.648	1.395	69.987	0.607	-8191	255	
44245.219	1	1	0	0	0.13221	0.17025	0.36417	0.23441	0.21358	0.078744	0.1291	0.14123	0.024581	0.11269	0.2468	0.23397	0.13409	0.19443	0.10312	0.10103	-3.5062	-4.6771	-4.3438	-4.1229	-4.7771	-4.0167	-4.4292	-4.8313	-3.8937	-4.6917	-4.6417	-4.0042	-4.8583	-4.1687	-4.175	-4.925	251.501	198.390	2.637	321.616	7.038	129.448	320.743	279.163	158.901	211.034	97.530	254.309	-12.173	-19.368	253.686	242.873	0.00029678	0.00064962	0.00017395	1369.2	1.8772e-06	4.1847e-06	1367.3	367.58	6.0603e-06	3.0433e-06	422.55	139.72	121.62	41.847	8.4334e-06	52.245	0.00055972	0.00056796	0.00015753	1382.3	6.2053e-06	6.2094e-06	1378.5	374.41	6.1973e-06	6.1911e-06	427.98	143.27	124.64	43.052	6.1876e-06	53.292	193.791	53.147	7.495	-12.349	309.127	160.202	-12.004	-7.415	213.668	272.048	-7.885	-3.502	-2.859	1.360	87.269	1.004	-8191	255	
44245.316	1	1	0	0	0.13217	0.055552	0.17836	0.24581	0.16265	0.10465	0.12091	0.010401	0.054023	0.097595	0.084889	0.16065	0.055808	0.20367	0.15638	0.16043	-3.6562	-4.6604	-4.4583	-4.1687	-4.85	-4.1625	-4.2375	-4.9812	-3.9083	-4.5917	-4.8396	-3.9708	-4.8667	-4.4187	-4.0021	-4.975	71.013	165.014	262.945	257.613	-8.370	13.130	15.350	153.125	143.435	319.087	216.498	-17.832	31.487	-20.087	185.774	15.076	0.00015625	0.00020154	0.00035922	1379	1.7434e-06	1.6391e-06	1370.3	366.98	8.2493e-06	5.6001e-06	423.32	140	121.82	41.98	1.0026e-05	52.372	0.00055986	0.00056297	0.00015735	1384.4	6.1691e-06	6.1993e-06	1381	374.2	6.1852e-06	6.1728e-06	428.54	143.4	124.72	43.009	6.2253e-06	53.249	212.013	324.372	11.636	-12.342	28.516	47.140	-12.124	-7.374	137.033	107.290	-7.886	-3.265	-2.833	1.606	88.947	0.746	-8191	255	
44245.410	1	1	0	0	0.2539	0.050394	0.19711	0.2998	0.22524	0.079495	0.15209	0.10085	0.076293	0.057694	0.072017	0.28124	0.11491	0.23783	0.089584	0.14134	-3.6188	-4.275	-4.6896	-4.0563	-4.6229	-4.3521	-4.1687	-4.9125	-4.0771	-4.3271	-4.8875	-3.85	-4.7708	-4.5312	-3.9437	-5.1479	-15.081	120.160	328.435	307.769	189.056	165.665	262.340	273.408	325.374	65.122	177.181	301.000	23.256	331.186	184.751	-14.491	0.00025914	0.00019439	0.00025415	1370	4.2936e-06	2.9209e-06	1367.3	369	1.7514e-06	1.0256e-05	422.47	139.55	122.05	41.99	4.4452e-06	52.37	0.00056381	0.0005649	0.00015754	1380.9	6.2076e-06	6.196e-06	1380.7	374.47	6.1568e-06	6.1742e-06	428.79	143.19	124.83	43.069	6.1609e-06	53.264	180.279	86.547	330.065	-12.134	63.674	194.808	-12.113	-7.350	41.221	281.707	-8.120	-3.264	-2.766	1.250	313.860	0.546	-8191	255	
44245.508	1	1	0	0	0.15921	0.15902	0.1645	0.055691	0.055606	0.1799	0.19701	0.058577	0.10451	0.27637	0.10524	0.15511	0.11899	0.26927	0.10503	0.17291	-3.9125	-4.3083	-4.8104	-4.1188	-4.55	-4.3833	-4.1792	-4.9021	-4.1792	-4.0604	-4.9792	-3.8583	-4.6708	-4.5896	-3.8854	-4.8229	327.040	225.807	217.580	306.014	73.383	35.298	245.010	44.189	85.029	152.685	-7.169	15.749	273.494	316.549	111.152	300.336	0.00024147	0.00084011	0.00020099	1364.2	4.9249e-06	3.1514e-06	1364.6	368.59	1.0324e-05	1.2229e-05	424	138.76	121.72	42.068	4.5573e-06	52.265	0.0005585	0.00056081	0.00015603	1380.3	6.1877e-06	6.174e-06	1378.7	374.8	6.1612e-06	6.1783e-06	428.6	143.07	124.7	43.036	6.1986e-06	53.277	201.895	318.928	-11.779	-12.280	181.648	56.106	-12.145	-7.292	151.157	64.980	-7.716	-3.408	-2.754	1.169	163.415	0.615	-8191	255	
44245.629	1	1	0	0	0.084691	0.18188	0.094759	0.043602	0.21842	0.26413	0.29507	0.070888	0.17561	0.056148	0.19939	0.14703	0.053517	0.22018	0.098723	0.097002	-3.9167	-4.2	-4.7625	-4.1125	-4.5396	-4.5833	-4.0375	-4.9458	-4.3792	-3.9958	-4.9854	-3.8875	-4.3396	-4.7312	-3.7729	-4.9042	118.424	318.417	22.979	77.561	11.640	313.130	267.899	306.625	2.022	88.380	216.432	302.057	299.269	242.531	88.235	214.847	0.00017389	0.0002068	0.00015206	1370.3	5.1944e-06	7.2773e-06	1366.7	368.09	3.9968e-06	2.8092e-06	423.33	139.52	121.3	41.972	4.1358e-06	52.265	0.00055763	0.0005638	0.00015697	1382	6.1705e-06	6.1725e-06	1379	374.6	6.1583e-06	6.145e-06	428.15	143.12	124.37	42.937	6.1379e-06	53.293	202.069	35.248	132.169	-12.262	137.776	168.831	-11.996	-7.133	82.943	111.171	-7.900	-3.142	-2.626	1.360	63.720	0.522	-8191	255	
44245.723	1	1	0	0	0.11918	0.28998	0.14045	0.18036	0.28044	0.1106	0.10743	0.094495	0.27675	0.18232	0.11004	0.12749	0.17498	0.079698	0.089276	0.22738	-4.0458	-3.8812	-4.6896	-4.3729	-4.3292	-4.8292	-3.9437	-4.7937	-4.4437	-3.9542	-5.0563	-4.1604	-4.2604	-4.7354	-3.7917	-4.6604	292.166	41.583	71.466	283.224	171.264	60.836	239.064	320.823	265.760	202.783	269.044	305.201	328.921	-2.950	91.415	-16.248	0.0002784	0.00049205	0.0002121	1372.1	5.5608e-06	6.3891e-07	1371.8	368.92	6.8717e-06	2.9231e-06	423.82	139.92	121.8	41.94	2.0726e-06	52.209	0.00055846	0.00055994	0.00015536	1383.9	6.1285e-06	6.1725e-06	1379.2	374.64	6.139e-06	6.1404e-06	428.34	143.32	124.64	42.991	6.1379e-06	53.252	179.104	-10.586	39.203	-12.049	91.481	254.132	-12.009	-7.336	207.636	88.255	-7.966	-3.208	-2.790	1.600	159.320	0.504	-8191	255	
44245.820	1	1	0	0	0.1101	0.267	0.058683	0.22638	0.31925	0.13359	0.28251	0.28733	0.18799	0.17729	0.19435	0.35773	0.0733	0.18003	0.061561	0.10455	-4.3458	-3.8042	-4.8812	-4.4125	-4.0292	-4.8604	-4.15	-4.6583	-4.6625	-3.9958	-4.8292	-4.3333	-4.1438	-4.8354	-3.9104	-4.4875	104.697	31.760	222.440	305.889	190.758	15.786	117.526	302.280	5.580	186.753	333.154	250.773	171.183	9.356	107.518	-8.766	0.00029539	0.00018851	0.00016108	1368.4	2.0914e-06	7.3027e-06	1367.1	367.98	4.6894e-06	6.0949e-06	422.59	139.37	120.98	42.014	2.639e-06	52.055	0.00056126	0.00056006	0.00015577	1382.3	6.1773e-06	6.1542e-06	1379.5	374.43	6.1427e-06	6.1808e-06	428.83	142.78	124.5	42.968	6.1779e-06	53.203	193.603	143.196	290.332	-12.165	42.044	91.000	-11.907	-7.407	125.804	116.723	-7.758	-3.133	-3.004	1.499	136.533	0.817	-8191	255	
44245.918	1	1	0	0	0.25966	0.19114	0.23351	0.22645	0.030204	0.16343	0.072371	0.13713	0.17558	0.22637	0.11205	0.040036	0.26873	0.19723	0.053864	0.20879	-4.3917	-3.8625	-4.8562	-4.3229	-3.8771	-4.9812	-4.3083	-4.5167	-4.6604	-3.5979	-4.8292	-4.5188	-4.1146	-4.9437	-4.0354	-4.4042	168.972	270.997	99.093	269.716	261.908	11.693	283.069	128.176	44.977	161.747	188.873	113.542	294.874	275.529	39.893	257.731	0.00021665	0.00034795	0.00039454	1371.2	5.9224e-06	3.2567e-06	1369.5	368.08	6.197e-06	1.2852e-06	423.77	139.46	121.08	41.979	3.548e-06	52.294	0.00056538	0.00056409	0.00015774	1382.1	6.1753e-06	6.1972e-06	1379.2	374.4	6.1726e-06	6.147e-06	428.89	143.18	124.37	42.986	6.2185e-06	53.236	169.183	41.707	64.053	-12.103	194.353	163.701	-12.062	-7.636	139.221	315.550	-7.854	-3.081	-2.614	1.260	106.479	0.824	-8191	255	
44246.012	1	1	0	0	0.1019	0.10382	0.098975	0.10675	0.21091	0.050821	0.45324	0.10938	0.11488	0.11197	0.20261	0.36629	0.10965	0.26573	0.021504	0.051894	-4.4417	-3.8292	-4.6979	-4.5771	-3.9396	-4.8479	-4.25	-4.3104	-4.7625	-3.9583	-4.5792	-4.6354	-3.9625	-4.9146	-4.1438	-4.2688	252.946	315.023	236.689	272.921	235.912	187.835	297.136	285.447	317.744	-6.194	251.236	328.918	258.622	-13.059	270.709	10.377	0.0001739	0.00040548	0.00020295	1369.4	9.7345e-06	4.3913e-06	1371.7	367.15	1.0447e-05	4.3992e-06	421.11	140.19	121.23	41.978	7.362e-06	51.936	0.00055535	0.00056128	0.00015559	1381.4	6.1164e-06	6.1265e-06	1379.5	374.21	6.0864e-06	6.1212e-06	427.93	143.27	124.48	42.988	6.1646e-06	53.173	203.793	319.887	51.659	-12.093	141.928	133.655	-11.957	-7.328	151.234	158.855	-7.870	-2.883	-2.794	1.344	182.234	0.616	-8191	255	
#DATA ENDS
