BOXY.EXE: ISS Imagent and Oximeter Data Acquisition Program Version 0.80
Ascii Record File

#ACQ INFORMATION
2  Detector Channels 
16  External MUX Channels 
1  Auxiliary Channels 
5000  Waveform (CCF) Frequency (Hz)
1  Waveforms Skipped 
30  Waveforms Averaged 
1  Cycles Averaged 
16  Acquisitions per Waveform 
10.0806  Updata Rate (Hz) 

#FILE INFORMATION
TRUE -- External MUX Channel results are PARSED.
FALSE -- AC DC and Phase are NOT grouped.
TRUE -- Companion Program Settings File CREATED.
FALSE -- AC data not excluded
FALSE -- DC data not excluded
FALSE -- Phase data not excluded
FALSE -- Auxillary Chn. data not excluded
Tab delimiters

#CALIBRATION STATE
TRUE -- Waveform Calibration Values APPLIED.


#AUX CALIBRATION VALUES
Val Type	aux-1	

Term	1.0000e+00	
Factor	0.0000e+00	


#WF CALIBRATION VALUES
A = Detector Channel
Val Type	A-AC1	A-AC2	A-AC3	A-AC4	A-AC5	A-AC6	A-AC7	A-AC8	A-AC9	A-AC10	A-AC11	A-AC12	A-AC13	A-AC14	A-AC15	A-AC16	A-DC1	A-DC2	A-DC3	A-DC4	A-DC5	A-DC6	A-DC7	A-DC8	A-DC9	A-DC10	A-DC11	A-DC12	A-DC13	A-DC14	A-DC15	A-DC16	A-Ph1	A-Ph2	A-Ph3	A-Ph4	A-Ph5	A-Ph6	A-Ph7	A-Ph8	A-Ph9	A-Ph10	A-Ph11	A-Ph12	A-Ph13	A-Ph14	A-Ph15	A-Ph16	

Term	0.00000e+00	0.00000e+00	0.00000e+00	0.00000e+00	0.00000e+00	0.00000e+00	0.00000e+00	0.00000e+00	0.00000e+00	0.00000e+00	0.00000e+00	0.00000e+00	0.00000e+00	0.00000e+00	0.00000e+00	0.00000e+00	0.00000e+00	0.00000e+00	0.00000e+00	0.00000e+00	0.00000e+00	0.00000e+00	0.00000e+00	0.00000e+00	0.00000e+00	0.00000e+00	0.00000e+00	0.00000e+00	0.00000e+00	0.00000e+00	0.00000e+00	0.00000e+00	0.00000e+00	0.00000e+00	0.00000e+00	0.00000e+00	0.00000e+00	0.00000e+00	0.00000e+00	0.00000e+00	0.00000e+00	0.00000e+00	0.00000e+00	0.00000e+00	0.00000e+00	0.00000e+00	0.00000e+00	0.00000e+00	
Factor	1.00000e+00	1.00000e+00	1.00000e+00	1.00000e+00	1.00000e+00	1.00000e+00	1.00000e+00	1.00000e+00	1.00000e+00	1.00000e+00	1.00000e+00	1.00000e+00	1.00000e+00	1.00000e+00	1.00000e+00	1.00000e+00	1.00000e+00	1.00000e+00	1.00000e+00	1.00000e+00	1.00000e+00	1.00000e+00	1.00000e+00	1.00000e+00	1.00000e+00	1.00000e+00	1.00000e+00	1.00000e+00	1.00000e+00	1.00000e+00	1.00000e+00	1.00000e+00	X	X	X	X	X	X	X	X	X	X	X	X	X	X	X	X	

B = Detector Channel
Val Type	B-AC1	B-AC2	B-AC3	B-AC4	B-AC5	B-AC6	B-AC7	B-AC8	B-AC9	B-AC10	B-AC11	B-AC12	B-AC13	B-AC14	B-AC15	B-AC16	B-DC1	B-DC2	B-DC3	B-DC4	B-DC5	B-DC6	B-DC7	B-DC8	B-DC9	B-DC10	B-DC11	B-DC12	B-DC13	B-DC14	B-DC15	B-DC16	B-Ph1	B-Ph2	B-Ph3	B-Ph4	B-Ph5	B-Ph6	B-Ph7	B-Ph8	B-Ph9	B-Ph10	B-Ph11	B-Ph12	B-Ph13	B-Ph14	B-Ph15	B-Ph16	

Term	0.00000e+00	0.00000e+00	0.00000e+00	0.00000e+00	0.00000e+00	0.00000e+00	0.00000e+00	0.00000e+00	0.00000e+00	0.00000e+00	0.00000e+00	0.00000e+00	0.00000e+00	0.00000e+00	0.00000e+00	0.00000e+00	0.00000e+00	0.00000e+00	0.00000e+00	0.00000e+00	0.00000e+00	0.00000e+00	0.00000e+00	0.00000e+00	0.00000e+00	0.00000e+00	0.00000e+00	0.00000e+00	0.00000e+00	0.00000e+00	0.00000e+00	0.00000e+00	-7.80260e+01	-1.58627e+02	-1.69044e+02	-1.83775e+02	-9.56680e+01	-8.10641e+01	-1.58123e+02	-1.62015e+02	-7.06761e+01	-1.03333e+02	-1.70742e+02	-1.70756e+02	-1.78698e+02	-1.77014e+02	-1.06885e+02	-1.49823e+02	
Factor	1.89549e-05	9.66343e-05	3.90588e-05	1.69121e-01	1.09656e-06	1.06494e-06	1.87830e-01	6.00408e-02	1.11570e-06	1.14070e-06	9.95031e-02	3.37985e-02	3.11028e-02	1.10307e-02	1.00689e-06	1.56862e-02	6.37178e-07	6.49506e-07	1.80709e-07	7.65429e-02	7.12655e-09	7.12169e-09	7.97188e-02	2.69659e-02	7.12101e-09	7.12221e-09	4.22235e-02	1.44095e-02	1.37016e-02	4.81339e-03	7.13314e-09	6.55754e-03	X	X	X	X	X	X	X	X	X	X	X	X	X	X	X	X	



#DISTANCE SETTINGS
A = Detector Channel
A-1	A-2	A-3	A-4	A-5	A-6	A-7	A-8	A-9	A-10	A-11	A-12	A-13	A-14	A-15	A-16	

2.5000e+00	3.0000e+00	2.5000e+00	3.0000e+00	2.0000e+00	3.0000e+00	1.5000e+00	3.0000e+00	3.0000e+00	3.0000e+00	3.0000e+00	3.0000e+00	3.0000e+00	3.0000e+00	1.5000e+00	3.0000e+00	

B = Detector Channel
B-1	B-2	B-3	B-4	B-5	B-6	B-7	B-8	B-9	B-10	B-11	B-12	B-13	B-14	B-15	B-16	

1.0000e+01	1.0000e+01	1.0000e+01	1.4400e+00	1.0000e+01	1.0000e+01	1.5100e+00	1.9400e+00	1.0000e+01	1.0000e+01	1.9900e+00	2.4900e+00	2.4100e+00	2.9000e+00	1.0000e+01	2.9800e+00	




#DATA BEGINS
time	group	step	mark	flag	A-AC1	A-AC2	A-AC3	A-AC4	A-AC5	A-AC6	A-AC7	A-AC8	A-AC9	A-AC10	A-AC11	A-AC12	A-AC13	A-AC14	A-AC15	A-AC16	A-DC1	A-DC2	A-DC3	A-DC4	A-DC5	A-DC6	A-DC7	A-DC8	A-DC9	A-DC10	A-DC11	A-DC12	A-DC13	A-DC14	A-DC15	A-DC16	A-Ph1	A-Ph2	A-Ph3	A-Ph4	A-Ph5	A-Ph6	A-Ph7	A-Ph8	A-Ph9	A-Ph10	A-Ph11	A-Ph12	A-Ph13	A-Ph14	A-Ph15	A-Ph16	B-AC1	B-AC2	B-AC3	B-AC4	B-AC5	B-AC6	B-AC7	B-AC8	B-AC9	B-AC10	B-AC11	B-AC12	B-AC13	B-AC14	B-AC15	B-AC16	B-DC1	B-DC2	B-DC3	B-DC4	B-DC5	B-DC6	B-DC7	B-DC8	B-DC9	B-DC10	B-DC11	B-DC12	B-DC13	B-DC14	B-DC15	B-DC16	B-Ph1	B-Ph2	B-Ph3	B-Ph4	B-Ph5	B-Ph6	B-Ph7	B-Ph8	B-Ph9	B-Ph10	B-Ph11	B-Ph12	B-Ph13	B-Ph14	B-Ph15	B-Ph16	aux-1	digaux	

44292.156	1	1	0	256	0.10187	0.10618	0.3185	0.30899	0.032517	0.12202	0.27629	0.32728	0.1618	0.12372	0.12432	0.17718	0.12371	0.11103	0.16336	0.04518	-4.3917	-3.7646	-4.3583	-4.6375	-3.8563	-4.5708	-4.4125	-4.0271	-4.7	-3.7104	-4.4646	-4.4688	-3.6708	-4.5771	-4.2708	-3.8688	326.031	133.346	138.798	307.825	10.030	39.734	0.667	315.715	289.234	-22.391	294.490	158.988	264.863	1.064	84.711	176.650	0.00018446	0.00025693	9.4291e-05	1387	1.2836e-06	2.3367e-06	1375.2	363.33	2.2567e-06	2.6479e-06	420.18	139.12	121.76	42.216	2.3139e-06	52.202	5.1584e-05	4.4376e-05	1.2315e-05	1325	5.0376e-07	4.7858e-07	1315.5	346.63	5.0924e-07	4.9458e-07	390.36	131.18	113.11	39.142	5.0893e-07	48.083	181.883	-6.839	35.541	-12.997	93.420	111.127	-12.736	-7.924	116.035	84.917	-8.419	-3.436	-3.303	1.047	94.226	0.255	-8191	255	
44292.277	1	1	0	0	0.23199	0.13094	0.046104	0.17829	0.20037	0.16204	0.2516	0.30579	0.15621	0.14571	0.16847	0.26241	0.082961	0.13383	0.11116	0.033176	-4.4042	-3.875	-4.0958	-4.8021	-3.7812	-4.4583	-4.5521	-3.9979	-4.6	-3.8167	-4.35	-4.6958	-3.6417	-4.6667	-4.3542	-3.8646	195.044	62.632	150.962	319.369	24.885	160.215	230.345	295.255	268.080	214.255	192.368	247.227	121.458	269.701	314.482	43.403	0.00021017	0.00031924	0.0001506	1378.3	2.2928e-06	4.212e-06	1374.9	364.31	3.754e-06	2.3004e-06	419.63	139.59	121.63	42.319	3.9999e-06	52.686	5.1445e-05	4.4959e-05	1.2585e-05	1322.9	5.1853e-07	4.938e-07	1315.7	347.12	5.0884e-07	4.9983e-07	390.43	131.25	112.95	39.243	5.0509e-07	48.155	192.284	20.925	17.948	-12.506	107.515	86.047	-12.247	-7.743	139.746	80.162	-8.386	-3.670	-3.201	1.127	115.957	0.283	-8191	255	
44292.348	1	1	0	0	0.052156	0.10348	0.081699	0.22389	0.14075	0.11	0.048885	0.13695	0.10333	0.17179	0.031041	0.091328	0.35339	0.087885	0.064136	0.16449	-4.4167	-3.8417	-4.0271	-4.8708	-3.7062	-4.4146	-4.5542	-3.8979	-4.6458	-4.1646	-4.1146	-4.8604	-3.7938	-4.5042	-4.5	-3.7854	0.289	300.242	126.940	300.979	129.533	297.381	-10.733	108.685	272.936	123.988	215.140	27.658	224.388	49.753	-6.465	286.936	0.00021267	0.00013317	0.00016479	1381.3	3.3464e-06	2.4055e-06	1376.3	365.17	3.0675e-06	1.0869e-06	421.26	139.46	121.5	42.248	3.4494e-06	52.546	5.0638e-05	4.5415e-05	1.2649e-05	1324.3	5.2181e-07	4.9178e-07	1316.3	347.58	5.0439e-07	4.8922e-07	390.22	131.07	112.95	39.211	4.9641e-07	48.103	189.936	-0.663	36.240	-12.811	107.577	85.106	-12.663	-7.778	138.754	131.419	-8.587	-3.621	-2.853	1.130	73.059	-0.046	-8191	255	
44292.445	1	1	0	0	0.059744	0.090389	0.21639	0.35511	0.22772	0.2277	0.094154	0.17707	0.056914	0.082962	0.1663	0.22483	0.082782	0.30269	0.074312	0.053355	-4.3625	-4.2562	-3.8875	-4.9208	-3.6979	-4.1833	-4.7479	-3.7729	-4.5792	-4.2896	-3.975	-4.6875	-3.9	-4.2271	-4.3792	-3.9083	111.486	91.377	172.266	-19.394	69.037	3.110	303.027	313.811	268.986	220.424	-12.978	300.911	226.957	34.210	62.976	215.354	0.00018974	0.00027761	9.1023e-05	1385.3	2.5842e-06	2.221e-06	1375.3	364.54	3.5228e-06	5.0888e-06	419.6	138.97	121.37	42.053	3.6274e-06	52.509	5.0903e-05	4.5197e-05	1.2539e-05	1326.1	5.2392e-07	4.919e-07	1317.2	347.25	5.0899e-07	4.9272e-07	389.58	131.18	112.93	39.113	5.0391e-07	48.061	196.890	33.382	50.684	-12.730	112.907	106.193	-12.375	-8.028	146.394	94.728	-8.277	-3.558	-3.077	0.809	106.567	0.249	-8191	255	
44292.539	1	1	0	0	0.14587	0.10286	0.20507	0.29217	0.035873	0.18549	0.24108	0.13802	0.092267	0.088228	0.11727	0.11148	0.12834	0.34292	0.024768	0.2793	-4.2646	-4.1542	-3.8	-4.8708	-4.0396	-4.1146	-4.8375	-3.8312	-4.5292	-4.4187	-3.9437	-4.7208	-4.25	-4.2021	-4.6438	-3.7625	273.797	121.483	4.191	256.774	111.735	322.106	288.208	52.190	-7.314	58.292	101.952	50.798	-21.131	320.129	181.091	239.340	0.00021578	0.00036928	0.00013503	1382.4	4.6001e-06	2.9952e-06	1368.4	362.78	1.9914e-06	3.3104e-06	418.15	138.9	120.86	42.194	2.3068e-06	51.946	5.0795e-05	4.4958e-05	1.2471e-05	1324.9	5.2123e-07	4.9416e-07	1315.3	346.97	5.0571e-07	4.9071e-07	389.99	131.15	113	39.131	5.013e-07	48.006	187.989	32.989	47.338	-12.331	96.374	122.947	-11.902	-7.154	81.883	110.933	-7.967	-3.325	-2.519	1.915	102.362	0.974	-8191	255	
44292.660	1	1	0	0	0.18348	0.098009	0.17181	0.11416	0.10221	0.055696	0.093926	0.19163	0.14173	0.2679	0.24369	0.1529	0.21669	0.062654	0.015845	0.22264	-4.1667	-4.4417	-3.7396	-4.8812	-4.1229	-3.9229	-4.9708	-3.8563	-4.4583	-4.5354	-3.8563	-4.9021	-4.3187	-3.975	-4.675	-3.7896	252.260	189.180	269.921	213.387	67.288	225.354	219.396	285.609	250.204	105.194	309.590	326.366	238.926	313.650	140.738	-17.074	0.00019785	0.00030432	9.1109e-05	1381.9	8.342e-07	2.4276e-06	1368.3	363.2	2.4035e-06	2.7264e-06	416.62	139.35	120.81	42.178	3.1936e-06	52.035	5.1349e-05	4.5482e-05	1.2761e-05	1326.4	5.2163e-07	4.9014e-07	1315.2	346.85	5.1632e-07	4.9559e-07	389.83	131.35	112.96	39.19	5.1663e-07	48.023	199.061	45.189	16.725	-11.878	116.226	97.874	-11.917	-7.102	91.406	75.668	-7.845	-3.056	-2.329	1.603	114.917	0.862	-8191	255	
44292.758	1	1	0	0	0.089923	0.10418	0.17907	0.32654	0.068366	0.035253	0.25336	0.040654	0.25311	0.022614	0.025314	0.27639	0.19051	0.14886	0.27246	0.094512	-4.075	-4.4875	-3.6854	-4.9333	-4.1937	-3.9021	-4.7792	-4.0312	-4.0625	-4.6375	-3.9479	-4.6792	-4.3771	-3.9208	-4.7229	-4.1021	-21.544	124.249	179.056	323.508	305.786	278.375	258.341	-0.471	298.751	187.131	53.036	288.253	78.686	185.825	209.636	316.177	0.00019087	0.00029196	0.0001687	1374.6	3.0476e-06	3.6419e-06	1367.4	361.94	4.5478e-06	2.3759e-06	419.5	139.08	121.16	42.005	2.8431e-06	52.684	5.2168e-05	4.574e-05	1.2984e-05	1323.8	5.0738e-07	5.0712e-07	1314	346.97	5.185e-07	4.8667e-07	390.38	131.24	113.1	39.146	5.1269e-07	48.199	188.536	21.946	21.973	-11.831	98.439	99.848	-11.813	-6.996	127.246	116.618	-7.889	-2.992	-2.649	1.558	86.338	1.063	-8191	255	
44292.852	1	1	0	0	0.24872	0.0315	0.097592	0.12335	0.023299	0.087275	0.08706	0.077084	0.12813	0.12496	0.183	0.18746	0.22431	0.067176	0.033181	0.2032	-3.85	-4.5708	-3.7604	-4.7042	-4.3917	-3.8792	-4.9333	-4.25	-4.0542	-4.6708	-3.9104	-4.5458	-4.475	-3.8979	-4.5271	-4.2292	184.656	252.916	80.746	307.804	170.550	48.053	108.402	236.743	13.616	-5.356	1.162	259.821	294.863	-12.485	211.798	323.641	0.00020136	0.00042151	0.00010657	1373.7	2.6276e-06	3.019e-06	1365.4	363.7	3.4777e-06	3.8307e-06	419.03	139.35	121.11	42.078	2.9764e-06	52.303	5.2199e-05	4.5411e-05	1.2768e-05	1323.2	5.1752e-07	5.0306e-07	1315.5	346.99	5.1779e-07	4.9311e-07	390.49	131.25	112.98	39.138	5.0596e-07	48.012	188.178	26.762	14.867	-12.056	101.928	117.122	-11.791	-7.079	156.454	106.457	-7.965	-3.069	-2.399	1.605	68.963	0.894	-8191	255	
44292.949	1	1	0	0	0.063955	0.071609	0.13408	0.33311	0.089564	0.28356	0.19791	0.25766	0.20407	0.19129	0.090109	0.13468	0.0946	0.071761	0.13533	0.065422	-3.7375	-4.6	-3.6667	-4.6667	-4.6438	-3.7375	-4.9167	-4.2729	-3.9125	-4.6792	-3.8854	-4.3792	-4.6771	-3.9917	-4.4563	-4.3458	17.787	284.279	145.080	322.384	9.875	236.057	277.715	327.843	139.893	196.730	257.187	208.203	248.553	34.153	141.865	294.422	0.00019544	0.00023583	0.000147	1373.2	3.8903e-06	3.8618e-06	1367.1	362.57	3.9316e-06	2.7718e-06	418.64	138.87	120.9	42.041	1.3203e-06	52.358	5.1897e-05	4.5254e-05	1.2753e-05	1323.1	5.1222e-07	5.0146e-07	1315.7	346.91	5.0549e-07	4.8855e-07	390.07	131.17	112.81	39.152	5.0317e-07	48.088	187.755	25.543	3.646	-11.973	93.140	119.094	-11.872	-7.080	134.782	92.331	-7.881	-2.966	-2.479	1.695	79.707	0.800	-8191	255	
44293.043	1	1	0	0	0.24189	0.033637	0.14116	0.30633	0.17747	0.11547	0.36312	0.3585	0.10237	0.16358	0.35718	0.18945	0.15483	0.12668	0.33437	0.08043	-3.4667	-4.5667	-3.9021	-4.4229	-4.7229	-3.7125	-4.6146	-4.3604	-3.9167	-4.6667	-3.9771	-4.1271	-4.7167	-3.7125	-4.3646	-4.4583	-18.228	320.095	305.613	262.145	286.735	53.655	317.623	322.429	145.046	117.499	313.654	303.997	244.562	31.848	-4.672	227.056	0.00019794	0.00022075	8.8227e-05	1373.2	3.4638e-06	2.0266e-06	1367.7	362.85	3.5032e-06	2.6896e-06	418	139.32	121.2	41.953	3.1955e-06	52.327	5.2642e-05	4.5096e-05	1.2821e-05	1322.5	5.2217e-07	5.1147e-07	1315.6	346.73	5.2179e-07	4.8722e-07	390.08	131.02	112.82	39.124	5.1332e-07	47.966	196.087	22.900	9.650	-12.265	111.792	88.828	-11.894	-7.176	149.971	65.544	-8.111	-3.173	-2.532	1.619	68.861	0.855	-8191	255	
44293.141	1	1	0	0	0.037603	0.22238	0.05207	0.14352	0.092649	0.15761	0.22622	0.10502	0.11702	0.16073	0.085858	0.3693	0.19543	0.13002	0.13635	0.085584	-3.4729	-4.7625	-3.9604	-4.2458	-4.4396	-3.7083	-4.5667	-4.4542	-3.8021	-4.7583	-4.4542	-4.0333	-4.7562	-3.8937	-4.3771	-4.6	331.816	241.581	211.169	273.268	58.243	89.120	298.519	41.158	181.714	73.075	286.644	220.211	304.284	282.976	17.244	138.410	0.00019674	0.00022699	5.065e-05	1375.3	3.9502e-06	3.1829e-06	1373.4	362.2	4.5896e-06	2.8493e-06	418.56	139.75	120.73	41.813	2.0168e-06	52.215	5.228e-05	4.6116e-05	1.2902e-05	1323.8	5.2545e-07	5.0622e-07	1316.6	347.08	5.3111e-07	5.0157e-07	390.2	131.28	113.04	39.117	5.198e-07	48.062	192.326	34.754	36.525	-12.041	89.450	90.472	-11.972	-7.080	156.417	120.533	-7.762	-3.060	-2.673	1.592	75.852	0.917	-8191	255	
44293.238	1	1	0	0	0.094099	0.039594	0.062141	0.2513	0.10672	0.11309	0.020199	0.27542	0.12446	0.14543	0.19919	0.1026	0.12374	0.091287	0.22026	0.119	-3.4542	-4.6792	-4.0521	-4.0917	-4.7646	-3.7167	-4.5	-4.6562	-3.8396	-4.4792	-4.4125	-3.9938	-4.8458	-3.9208	-4.0625	-4.6604	71.192	83.542	171.734	333.074	221.975	240.965	61.926	231.421	101.317	165.271	312.741	155.442	260.455	50.061	-24.133	280.024	0.00019512	0.00027871	5.4477e-05	1380.5	1.1388e-06	3.2058e-06	1368.4	361.82	2.3235e-06	2.3966e-06	418.25	139.54	121.18	42.012	1.633e-06	52.421	5.3012e-05	4.6656e-05	1.292e-05	1325.7	5.2983e-07	5.1095e-07	1315.3	347	5.3025e-07	4.9746e-07	390.11	131.21	113.14	39.13	5.1425e-07	48.112	194.704	36.547	40.013	-11.984	140.457	137.371	-11.720	-7.201	126.083	95.347	-8.105	-3.148	-2.489	1.548	53.858	0.990	-8191	255	
44293.355	1	1	0	0	0.2723	0.035955	0.11885	0.27262	0.23563	0.074096	0.2317	0.22204	0.1308	0.083411	0.11935	0.06849	0.29651	0.17266	0.090383	0.15661	-3.4	-4.3417	-4.4042	-4.0792	-4.7188	-4.0146	-4.3688	-4.8083	-3.5792	-4.5312	-4.5271	-3.8312	-4.8729	-4.2271	-4.05	-4.875	42.107	150.282	283.414	322.907	299.581	324.247	176.051	227.526	165.356	279.492	306.007	322.855	278.985	251.949	-9.106	312.229	0.00023177	0.00029255	9.1134e-05	1377.5	3.5161e-06	3.0832e-06	1373	363.12	4.6396e-06	3.6984e-06	417.75	139.3	120.62	41.96	3.1888e-06	52.164	5.2145e-05	4.6019e-05	1.2949e-05	1325.6	5.2774e-07	4.9896e-07	1317.4	347.63	5.2667e-07	5.0568e-07	389.97	131.19	113.11	39.137	5.0724e-07	48.096	193.624	29.719	19.138	-12.153	95.363	117.223	-11.984	-6.953	142.633	87.539	-7.737	-3.369	-2.391	1.391	128.209	0.902	-8191	255	
44293.453	1	1	0	0	0.31233	0.16739	0.1175	0.26031	0.14822	0.25949	0.20241	0.16484	0.17903	0.17303	0.20311	0.19937	0.18354	0.084628	0.069562	0.18543	-3.4021	-4.3625	-4.4021	-3.9833	-4.525	-4.1771	-4.1146	-4.7833	-3.6396	-4.3708	-4.6167	-3.9271	-4.8688	-4.2292	-3.9125	-4.8854	46.440	115.118	290.338	0.492	292.172	-22.321	128.448	245.193	61.540	242.342	286.358	311.277	168.394	122.589	308.880	2.593	0.00020446	0.00039891	0.00012026	1375.1	1.0765e-06	3.7307e-06	1369.5	362.36	2.0198e-06	2.3016e-06	419.3	139.41	120.83	42.138	3.174e-06	52.274	5.3479e-05	4.6394e-05	1.2673e-05	1323.8	5.1705e-07	5.0907e-07	1316.4	347.02	5.2541e-07	4.9447e-07	390.28	131.22	113.11	39.182	5.1705e-07	48.097	196.809	17.922	-5.433	-12.184	101.004	117.764	-12.037	-7.191	165.308	86.753	-7.643	-3.106	-2.414	1.620	117.103	1.040	-8191	255	
44293.551	1	1	0	0	0.13766	0.15582	0.076655	0.2363	0.11593	0.083248	0.49033	0.23858	0.20305	0.30179	0.088772	0.14309	0.15898	0.12395	0.091037	0.088151	-3.6292	-4.3021	-4.5646	-4.0333	-4.6021	-4.2479	-4.0458	-4.6958	-3.8333	-4.2146	-4.7542	-3.8646	-4.6417	-4.2833	-3.6896	-4.8542	218.369	183.514	131.412	21.486	108.263	39.225	274.741	252.224	248.377	188.840	132.749	19.971	269.705	196.599	80.246	276.701	0.00021793	0.00028135	0.00011187	1375.3	1.8791e-06	3.2036e-06	1370.7	362.24	2.0875e-06	3.9834e-06	419.43	139.45	120.7	41.796	3.4987e-06	52.541	5.2805e-05	4.5639e-05	1.2662e-05	1325	5.2334e-07	4.9687e-07	1318	347.01	5.2307e-07	4.8664e-07	390.41	131.21	113.08	39.09	5.0596e-07	48.165	196.034	56.500	18.539	-12.158	107.977	101.002	-11.889	-6.927	162.175	107.896	-7.659	-3.061	-2.375	1.821	101.746	0.571	-8191	255	
44293.645	1	1	0	0	0.39258	0.22874	0.13584	0.15885	0.16229	0.10227	0.2537	0.050917	0.083702	0.030557	0.064975	0.12924	0.29571	0.044656	0.29546	0.20044	-3.6521	-4.0958	-4.8187	-3.9313	-4.5333	-4.4542	-4.0958	-4.6917	-4.1083	-4.2417	-4.8167	-3.8396	-4.4375	-4.4146	-3.7062	-4.7625	51.571	196.444	-19.355	265.135	160.661	100.461	252.398	72.762	164.968	18.245	321.772	301.365	249.363	166.873	213.907	289.540	0.00021378	0.00029113	0.00010427	1383.3	2.2216e-06	3.4566e-06	1374.5	364.1	1.5251e-06	1.8338e-06	419.9	138.59	120.9	42.077	2.3694e-06	52.197	5.2219e-05	4.5177e-05	1.2413e-05	1326	5.135e-07	4.8457e-07	1317.2	348.02	5.0233e-07	4.8618e-07	390.59	131.14	113.02	39.198	4.9721e-07	48.129	188.381	39.579	-2.496	-12.010	108.542	82.925	-12.131	-7.167	148.517	98.867	-7.750	-3.079	-2.624	1.608	101.058	0.821	-8191	255	
44293.738	1	1	0	0	0.2679	0.18037	0.085957	0.25856	0.29565	0.086348	0.14839	0.080639	0.26527	0.19046	0.22022	0.06063	0.1972	0.071173	0.11495	0.14271	-3.9458	-4.1042	-4.625	-3.9938	-4.225	-4.5771	-4.0542	-4.8042	-4.15	-3.8625	-4.9583	-3.8583	-4.2271	-4.5833	-3.7188	-4.6021	92.385	266.847	311.048	206.476	311.588	-3.441	324.939	219.110	310.190	43.243	311.525	18.292	199.410	5.453	95.119	-2.751	0.00021961	0.00040252	0.00015309	1375.6	2.4919e-06	2.7491e-06	1369.7	362.75	3.9124e-06	2.1955e-06	420.02	139.27	121.72	42.181	3.0548e-06	52.175	5.1108e-05	4.4625e-05	1.2344e-05	1325.5	5.1589e-07	4.8677e-07	1317.4	348.08	5.1598e-07	4.9082e-07	391.28	131.42	113.44	39.259	4.9951e-07	48.126	193.086	45.901	8.780	-12.097	78.825	97.704	-11.922	-7.156	132.798	119.534	-7.680	-2.895	-2.243	1.652	116.531	0.829	-8191	255	
44293.836	1	1	0	0	0.26358	0.15834	0.14035	0.088592	0.20545	0.13366	0.24455	0.14371	0.22759	0.23835	0.20699	0.12131	0.13851	0.21485	0.16764	0.11009	-3.9854	-3.8688	-4.7125	-4.0333	-4.2271	-4.65	-3.9958	-4.8063	-4.2833	-3.9062	-4.9292	-4.2312	-4.1479	-4.5771	-3.7812	-4.5062	17.138	296.043	179.036	295.467	214.944	206.605	303.253	285.983	-13.754	45.891	197.180	41.334	289.274	282.323	207.119	285.997	0.00020125	0.00036343	9.1148e-05	1380.6	5.8371e-06	1.5955e-06	1368.1	363.99	2.9308e-06	3.3406e-06	421.67	139.24	121.22	41.935	2.6026e-06	52.126	5.0545e-05	4.515e-05	1.233e-05	1327.2	5.1699e-07	4.8473e-07	1318.1	347.85	5.104e-07	4.9154e-07	391.29	131.21	113.28	39.15	5.1128e-07	48.114	189.464	20.953	-18.001	-12.059	94.569	78.956	-11.713	-7.187	132.151	111.659	-7.663	-3.056	-2.511	1.700	99.541	0.765	-8191	255	
44293.957	1	1	0	0	0.27225	0.086951	0.17482	0.29404	0.13164	0.072661	0.13404	0.35345	0.085744	0.28155	0.14941	0.089484	0.19731	0.38405	0.27646	0.2161	-4.0917	-3.7458	-4.6937	-4.3146	-4.0021	-4.6292	-3.9417	-4.3167	-4.4938	-3.8646	-4.8354	-4.2792	-4.0646	-4.875	-3.7958	-4.525	324.781	53.016	128.513	-19.320	264.034	306.561	-20.096	277.696	90.562	70.995	330.512	9.186	319.926	-11.296	212.455	11.720	0.00023119	0.00026391	0.00015417	1377.4	2.9895e-06	3.5846e-06	1375.2	363.16	2.4396e-06	2.9694e-06	419.5	139.71	121.74	42.152	2.4017e-06	52.435	5.2653e-05	4.5894e-05	1.2514e-05	1326.7	5.2285e-07	4.96e-07	1319.5	348.21	5.1611e-07	5.0663e-07	391.04	131.49	113.35	39.267	5.1161e-07	48.152	189.694	42.904	52.311	-11.957	69.431	135.719	-11.948	-7.245	165.886	127.689	-7.690	-3.217	-2.565	1.511	109.121	0.768	-8191	255	
44294.055	1	1	0	0	0.13518	0.24709	0.12418	0.11904	0.14654	0.21249	0.20213	0.16038	0.13797	0.046193	0.094521	0.21667	0.30605	0.29992	0.0895	0.1924	-4.1604	-3.8667	-4.5938	-4.325	-3.9062	-4.8	-4.2188	-4.4437	-4.525	-3.8125	-4.5625	-4.2771	-3.9542	-4.7542	-3.9188	-4.225	13.982	322.443	193.953	290.335	326.670	110.419	285.682	-22.934	222.543	55.098	219.363	211.079	306.341	12.843	189.630	104.061	0.00019841	0.00038591	0.00012608	1384.3	4.1123e-06	2.3804e-06	1370.9	364.43	4.4594e-06	3.636e-06	418.69	139.37	122.15	42.103	3.3947e-06	52.434	5.2535e-05	4.5654e-05	1.2836e-05	1328.2	5.1531e-07	4.8525e-07	1319.9	348.44	5.1204e-07	5.0746e-07	391.08	131.5	113.71	39.283	5.2002e-07	48.241	191.314	37.833	37.509	-11.992	143.417	66.200	-12.126	-7.052	114.048	76.637	-8.144	-2.998	-2.493	1.668	91.932	0.966	-8191	255	
44294.148	1	1	0	0	0.098316	0.14957	0.1009	0.16092	0.091049	0.079841	0.28541	0.29386	0.2364	0.024354	0.087921	0.13288	0.28651	0.16154	0.14383	0.1682	-4.3333	-3.6896	-4.525	-4.5667	-3.8104	-4.7146	-4.0667	-4.1292	-4.4812	-3.775	-4.3833	-4.3938	-3.7854	-4.7708	-4.1104	-4.025	174.761	78.189	226.957	268.296	-5.866	25.874	281.618	260.395	255.045	168.096	135.543	121.359	285.679	297.762	51.273	303.421	0.00018517	0.00023907	0.00011252	1384.2	3.5218e-06	3.8606e-06	1373.5	363.89	3.3457e-06	2.7252e-06	421	139.69	121.12	42.117	3.8822e-06	52.534	5.219e-05	4.6993e-05	1.3058e-05	1329.8	5.2068e-07	5.0346e-07	1320.4	348.67	5.1709e-07	5.0553e-07	391.88	131.77	113.51	39.235	5.2708e-07	48.285	192.879	38.796	19.238	-12.224	127.876	124.731	-11.977	-7.155	144.357	50.116	-7.865	-3.051	-2.552	1.632	118.516	0.959	-8191	255	
44294.223	1	1	0	0	0.30569	0.12564	0.048088	0.17655	0.1403	0.099549	0.21813	0.059445	0.11463	0.12536	0.1408	0.23522	0.14002	0.14709	0.09003	0.11854	-4.3	-3.6271	-4.1917	-4.7125	-3.7646	-4.6458	-4.25	-3.9	-4.7146	-3.8312	-4.4563	-4.5958	-3.8958	-4.7521	-4.2812	-3.9771	323.814	288.910	189.687	279.423	280.496	66.163	316.960	180.653	276.272	83.025	253.858	292.071	65.031	331.234	309.129	89.217	0.00021725	0.00044155	0.00013716	1384.2	2.3899e-06	2.7089e-06	1377.1	364.18	1.3403e-06	2.8295e-06	421.99	139.65	121.32	42.18	2.6295e-06	52.4	5.3037e-05	4.6387e-05	1.2835e-05	1331	5.1849e-07	4.9558e-07	1322.3	349.09	5.1482e-07	5.1795e-07	392.53	131.92	113.58	39.342	5.2579e-07	48.232	199.805	52.144	-0.806	-11.948	135.055	138.247	-12.013	-7.415	154.297	116.047	-7.876	-3.016	-2.597	1.642	100.982	0.981	-8191	255	
44294.316	1	1	0	0	0.057126	0.23849	0.055091	0.25817	0.10911	0.084991	0.075162	0.13089	0.029604	0.084541	0.1207	0.38981	0.14116	0.29116	0.16408	0.19417	-4.4104	-3.8771	-3.9646	-4.7	-3.7958	-4.5687	-4.4396	-4.0104	-4.6667	-3.7687	-4.0875	-4.7	-3.8104	-4.5667	-4.3792	-3.8396	63.752	26.545	20.046	309.078	198.988	31.828	-12.999	272.240	60.447	125.693	45.055	324.843	134.422	302.633	289.454	237.776	0.00018102	0.00018765	0.00014547	1384.4	3.5417e-06	3.7208e-06	1378.9	365.03	3.3259e-06	3.465e-06	419.78	140.15	121.71	42.329	3.5684e-06	52.652	5.2659e-05	4.7119e-05	1.3122e-05	1333.5	5.2968e-07	5.1405e-07	1323.5	349.61	5.2716e-07	5.1756e-07	392.4	131.97	113.8	39.357	5.2221e-07	48.341	208.013	7.898	30.967	-11.921	128.436	84.095	-12.107	-7.020	135.016	82.851	-8.056	-2.917	-2.422	1.407	72.022	0.946	-8191	255	
44294.438	1	1	0	0	0.17491	0.25038	0.20107	0.25677	0.10933	0.23419	0.29068	0.20527	0.27569	0.16616	0.020449	0.088961	0.39607	0.24613	0.17952	0.041033	-4.3146	-3.95	-4.0437	-4.7896	-3.6979	-4.4104	-4.5854	-3.9688	-4.6479	-3.9604	-4.2042	-4.6562	-3.9417	-4.3854	-4.5687	-3.7375	55.261	266.539	207.177	268.826	3.415	286.431	310.032	299.319	71.072	236.312	247.473	299.898	261.984	296.209	88.896	168.872	0.00021022	0.00024483	0.00011878	1388	3.6438e-06	3.1777e-06	1381.1	365.06	1.8275e-06	3.2433e-06	419.77	139.55	121.81	42.064	1.5315e-06	52.357	5.3277e-05	4.7503e-05	1.3245e-05	1333.6	5.3131e-07	5.066e-07	1324.8	350.06	5.2436e-07	5.177e-07	391.94	131.97	113.85	39.334	5.142e-07	48.29	193.974	17.448	17.657	-11.951	99.833	94.659	-11.803	-7.212	150.407	103.346	-7.643	-2.971	-2.272	1.585	165.340	0.772	-8191	255	
44294.535	1	1	0	0	0.1215	0.11285	0.24421	0.33445	0.075072	0.20134	0.17347	0.068886	0.17911	0.07349	0.2094	0.17613	0.090702	0.25261	0.16229	0.25565	-4.3458	-4.0667	-3.9354	-4.9042	-3.8229	-4.2354	-4.7562	-3.8667	-4.475	-4.2312	-3.9313	-4.9875	-3.9354	-4.3313	-4.3896	-3.8	99.208	189.309	99.785	-14.593	324.117	243.234	230.527	207.801	98.429	22.551	309.312	281.491	25.679	294.373	129.285	30.984	0.00020205	0.00031982	0.00010169	1390.4	2.2286e-06	1.9437e-06	1379.2	366.58	3.1198e-06	3.3906e-06	420.05	140.36	121.69	42.483	2.2786e-06	52.371	5.263e-05	4.7189e-05	1.3048e-05	1333.6	5.4385e-07	5.1291e-07	1324.9	349.96	5.2872e-07	5.0634e-07	392.25	132.11	113.77	39.395	5.1726e-07	48.357	189.569	39.928	28.773	-11.981	189.263	106.546	-11.975	-7.167	142.461	103.003	-8.185	-2.978	-2.722	1.377	104.324	0.762	-8191	255	
44294.629	1	1	0	0	0.11274	0.24709	0.069562	0.02698	0.13666	0.20657	0.12272	0.24915	0.2315	0.029857	0.14973	0.10621	0.11628	0.23255	0.054263	0.044792	-4.2688	-4.3792	-3.7625	-4.8917	-3.9479	-4.1167	-4.8812	-3.7938	-4.5042	-4.4292	-3.65	-4.7854	-4.0917	-4.3625	-4.5687	-4.0354	144.645	195.426	93.435	236.680	245.234	284.100	278.055	288.445	249.189	159.338	168.959	202.026	244.897	-5.408	243.053	318.593	0.00017309	0.00022639	0.00017481	1386.3	1.3656e-06	2.4026e-06	1376.1	365	2.8851e-06	3.9487e-06	421.28	140.49	121.83	42.285	1.8822e-06	52.592	5.2831e-05	4.6607e-05	1.3046e-05	1334.4	5.4448e-07	5.0791e-07	1325.6	350.04	5.259e-07	5.15e-07	392.72	131.97	113.8	39.421	5.0697e-07	48.332	204.499	13.920	43.215	-11.962	124.002	74.338	-11.815	-7.126	124.853	92.095	-8.178	-3.161	-2.458	1.457	40.950	0.946	-8191	255	
44294.750	1	1	0	0	0.11477	0.069542	0.29572	0.22255	0.1001	0.1449	0.075124	0.0991	0.12827	0.15344	0.048833	0.20854	0.21318	0.16862	0.12776	0.1082	-4.2854	-4.375	-3.7271	-4.7583	-4.0208	-3.9437	-4.9708	-3.9188	-4.2833	-4.5604	-3.7625	-4.7875	-4.2917	-4.2375	-4.8271	-3.9354	-21.256	-16.324	-12.932	9.306	151.866	282.627	22.052	251.551	247.468	281.533	285.296	160.791	-23.395	-24.551	109.778	-18.514	0.00022283	0.0004042	0.00011433	1387	2.9624e-06	3.7999e-06	1376.7	367.39	4.3236e-06	4.1608e-06	420.24	140.25	121.77	42.162	2.1956e-06	52.43	5.3534e-05	4.6441e-05	1.3059e-05	1335.2	5.4266e-07	5.0853e-07	1326.7	350.2	5.3069e-07	5.0856e-07	392.21	132.26	113.93	39.302	5.1831e-07	48.269	192.526	45.822	22.558	-12.080	82.904	110.557	-11.889	-7.217	118.520	82.563	-7.739	-3.030	-2.570	1.458	89.849	1.087	-8191	255	
44294.844	1	1	0	0	0.085666	0.21093	0.10008	0.12026	0.17233	0.25741	0.22244	0.31393	0.091974	0.16344	0.045204	0.11242	0.07673	0.13909	0.051758	0.095624	-4.2354	-4.5062	-3.5792	-4.6979	-4.2812	-3.7958	-5.0042	-4.0229	-4.1646	-4.6458	-3.8542	-4.5917	-4.3938	-4.0021	-4.6062	-3.9938	162.938	34.981	315.228	277.098	295.601	173.391	282.624	289.736	184.091	61.815	207.691	269.422	268.221	-19.487	70.127	211.410	0.00019391	0.00011106	9.9066e-05	1387	2.114e-06	2.2362e-06	1378.1	366.02	2.1432e-06	1.6758e-06	421.75	140.14	122.15	42.453	4.122e-06	52.272	5.3973e-05	4.7456e-05	1.3455e-05	1334.7	5.4514e-07	5.1074e-07	1326.3	349.75	5.3807e-07	5.1439e-07	392.52	132.38	114.11	39.47	5.2406e-07	48.259	192.397	60.410	15.383	-11.959	167.858	99.866	-11.828	-7.130	108.584	75.989	-8.079	-3.167	-2.552	1.584	99.747	0.819	-8191	255	
44294.918	1	1	0	0	0.11751	0.11439	0.10215	0.19173	0.069144	0.10016	0.38617	0.33022	0.13138	0.074207	0.34831	0.10733	0.26941	0.28185	0.0044541	0.082522	-3.8729	-4.5542	-3.6104	-4.7042	-4.3542	-3.8458	-4.9167	-3.9437	-3.8833	-4.6417	-3.8646	-4.5646	-4.6167	-3.9792	-4.5792	-4.0979	313.699	100.303	-10.303	-8.152	229.086	29.246	311.460	228.874	4.122	145.763	-4.035	231.330	212.114	278.474	125.522	21.759	0.00020568	0.00030321	9.8116e-05	1383.7	1.7948e-06	1.3951e-06	1379.3	366.4	1.643e-06	1.5909e-06	420.63	140.24	121.72	42.526	3.137e-06	52.36	5.4645e-05	4.763e-05	1.3473e-05	1333.8	5.4291e-07	5.314e-07	1326.5	350.14	5.4038e-07	5.0721e-07	392.94	132.17	113.99	39.466	5.2542e-07	48.302	189.413	44.410	17.834	-12.024	127.339	182.607	-11.954	-6.917	142.147	4.218	-7.883	-3.064	-2.513	1.585	92.039	0.761	-8191	255	
44295.035	1	1	0	0	0.07506	0.2281	0.15113	0.35162	0.1254	0.063715	0.08959	0.1089	0.10933	0.2456	0.20246	0.096253	0.17727	0.25054	0.083049	0.15128	-3.65	-4.5146	-3.8083	-4.65	-4.5292	-3.8563	-5.05	-4.3979	-3.8708	-4.6333	-3.9042	-4.2771	-4.4729	-3.7375	-4.6604	-4.3042	279.098	147.827	64.570	277.231	233.144	308.277	120.719	-11.604	209.400	-25.015	244.272	289.817	200.321	295.356	181.398	287.193	0.00018072	0.0003248	9.4359e-05	1385.3	2.4489e-06	3.3952e-06	1382.3	365.96	1.7207e-06	4.9472e-06	420	140.04	121.5	42.232	4.1258e-06	52.505	5.4444e-05	4.7495e-05	1.3422e-05	1335.2	5.3403e-07	5.2938e-07	1326.5	350.27	5.3725e-07	5.2276e-07	392.38	132.03	114.09	39.425	5.3915e-07	48.303	185.150	40.089	33.235	-12.298	93.720	88.460	-11.722	-7.119	154.256	90.417	-8.146	-3.177	-2.455	1.323	95.992	0.929	-8191	255	
44295.133	1	1	0	0	0.29508	0.22399	0.079446	0.36953	0.12545	0.16567	0.35037	0.13146	0.16296	0.31517	0.054382	0.011557	0.25537	0.25497	0.17669	0.081094	-3.4875	-4.7708	-3.7229	-4.2604	-4.4104	-3.7	-4.65	-4.3729	-3.7646	-4.725	-3.8896	-4.3708	-4.8104	-3.6979	-4.4896	-4.2812	149.377	39.756	246.995	299.903	224.221	171.501	304.303	41.507	-22.214	46.665	52.328	150.625	260.951	182.917	186.827	74.626	0.00019652	0.00042942	0.00013261	1388.3	3.517e-06	2.9907e-06	1379.3	364.38	1.7367e-06	4.2116e-06	421.02	140.06	122.11	42.109	2.8025e-06	52.262	5.5038e-05	4.7837e-05	1.3756e-05	1336.9	5.4785e-07	5.3291e-07	1327.3	349.72	5.4704e-07	5.2246e-07	392.95	132.09	114.03	39.379	5.325e-07	48.394	197.549	48.125	16.462	-11.956	104.820	113.230	-12.153	-7.039	148.829	72.216	-7.475	-3.128	-2.418	1.478	82.192	1.060	-8191	255	
44295.230	1	1	0	0	0.2284	0.069237	0.11151	0.2392	0.11461	0.2735	0.10248	0.060281	0.32285	0.23909	0.092538	0.37168	0.30403	0.20818	0.26847	0.098242	-3.5083	-4.8063	-3.9938	-4.2417	-4.5542	-3.6667	-4.65	-4.6333	-3.7167	-4.6083	-4.1062	-3.9313	-4.6917	-3.825	-4.0417	-4.4417	292.912	327.506	96.808	296.196	255.987	181.309	230.842	129.694	224.270	14.823	250.648	68.317	316.631	278.373	156.115	68.265	0.00020644	0.00037369	0.00013666	1389.8	2.8216e-06	3.3817e-06	1378	366.69	3.736e-06	3.2858e-06	421.9	140.21	121.79	42.387	1.7391e-06	52.616	5.5866e-05	4.9473e-05	1.351e-05	1335.3	5.4484e-07	5.393e-07	1326.2	350.4	5.5906e-07	5.3313e-07	393.1	132.17	113.87	39.38	5.4573e-07	48.418	187.243	31.903	18.870	-12.127	118.068	128.126	-12.011	-7.059	131.318	90.207	-8.025	-3.144	-2.229	1.653	73.809	0.923	-8191	255	
44295.324	1	1	0	0	0.14504	0.096135	0.096801	0.32561	0.07411	0.23163	0.054135	0.15179	0.19695	0.17456	0.14087	0.14765	0.11281	0.16407	0.12661	0.12059	-3.4313	-4.5188	-4.0854	-4.0479	-4.6562	-3.8625	-4.3854	-4.6958	-3.6437	-4.6604	-4.3729	-3.9208	-4.7875	-3.8625	-3.9896	-4.8167	146.952	284.102	17.924	303.435	-11.570	114.903	20.032	-10.412	-24.140	156.318	185.600	328.693	307.981	325.436	329.789	-4.739	0.00022155	0.00032311	7.4648e-05	1387.4	3.3096e-06	3.7816e-06	1384.4	367.01	3.0191e-06	1.3866e-06	419.89	139.99	121.66	42.4	2.0569e-06	52.33	5.6165e-05	4.9227e-05	1.3699e-05	1335.6	5.5645e-07	5.4809e-07	1327.6	350.76	5.6793e-07	5.4267e-07	393.01	132.25	114.04	39.494	5.4731e-07	48.295	207.637	45.715	27.627	-12.088	124.685	106.717	-12.038	-7.039	133.971	155.483	-7.792	-3.350	-2.748	1.585	117.906	0.805	-8191	255	
44295.445	1	1	0	0	0.046491	0.048952	0.15728	0.10142	0.11152	0.040683	0.22082	0.30786	0.028415	0.097212	0.088499	0.11015	0.17569	0.1633	0.26522	0.17313	-3.4396	-4.4542	-4.2854	-3.8646	-4.6104	-3.9708	-4.2854	-4.7958	-3.7521	-4.4938	-4.4021	-3.9542	-4.9021	-4.0854	-4.0271	-4.725	15.617	7.763	200.783	10.425	138.429	284.991	304.918	263.560	19.432	64.702	192.713	179.799	-12.032	91.765	296.594	130.988	0.0001768	0.00030117	0.00018556	1387.7	3.3993e-06	3.7453e-06	1386.2	365.91	4.0528e-06	3.5803e-06	421.18	139.43	121.93	42.25	3.5399e-06	52.588	5.6171e-05	4.8751e-05	1.3668e-05	1335.7	5.5771e-07	5.4465e-07	1329.3	350.68	5.5674e-07	5.417e-07	392.85	132.01	114.02	39.412	5.4753e-07	48.467	190.174	53.278	13.850	-12.197	133.110	95.602	-11.931	-7.098	106.384	103.289	-7.668	-3.142	-2.756	1.669	106.681	1.138	-8191	255	
44295.520	1	1	0	0	0.30684	0.097921	0.069331	0.27588	0.079786	0.084719	0.2737	0.22055	0.15624	0.030941	0.14279	0.27982	0.1493	0.16327	0.20545	0.15851	-3.4042	-4.4521	-4.4396	-3.9417	-4.6792	-4.0292	-4.0875	-4.8688	-3.6771	-4.3104	-4.5312	-3.7125	-4.8021	-4.2771	-3.8917	-4.7229	106.191	105.069	171.902	242.916	164.665	272.153	291.497	293.436	122.862	40.945	251.162	281.635	236.249	-1.415	227.707	303.209	0.00020731	0.00016121	9.2896e-05	1390.7	2.5982e-06	4.1908e-06	1382.9	365.67	4.6251e-06	2.1082e-06	421.37	139.88	122.83	42.282	1.9335e-06	52.67	5.6122e-05	4.9442e-05	1.3669e-05	1337.6	5.6117e-07	5.466e-07	1328.9	350.79	5.6447e-07	5.4771e-07	393.53	132.17	114.17	39.436	5.5248e-07	48.438	191.126	34.357	14.181	-11.908	131.677	129.409	-12.029	-7.044	127.643	68.029	-8.114	-3.084	-2.625	1.804	59.355	0.766	-8191	255	
44295.641	1	1	0	0	0.24902	0.27019	0.15946	0.20656	0.11651	0.16181	0.036056	0.062994	0.20794	0.13885	0.24278	0.16975	0.10972	0.1931	0.05385	0.11958	-3.6167	-4.1979	-4.4688	-3.8083	-4.5833	-4.2729	-4.1333	-4.8313	-3.8604	-4.15	-4.7542	-4.0042	-4.6375	-4.2979	-3.9896	-4.7021	70.202	288.463	75.629	-9.147	128.835	212.998	325.088	270.953	210.249	180.830	284.916	283.433	281.772	74.004	-11.016	285.481	0.00019898	0.0002058	0.00012765	1385.6	1.4884e-06	3.0235e-06	1387.5	367.22	2.5668e-06	1.7535e-06	420.25	140.54	122.28	42.496	2.1275e-06	52.261	5.5837e-05	4.987e-05	1.3663e-05	1338.1	5.5805e-07	5.3732e-07	1331.6	351.01	5.5563e-07	5.2553e-07	393.41	132.36	114.03	39.497	5.6569e-07	48.37	185.940	25.772	14.185	-12.064	108.807	116.411	-12.062	-6.919	145.671	131.591	-7.764	-3.076	-2.497	1.544	60.471	0.870	-8191	255	
44295.734	1	1	0	0	0.21796	0.14285	0.045132	0.061217	0.14082	0.18061	0.28892	0.18064	0.11466	0.12692	0.22808	0.14796	0.094021	0.13998	0.10374	0.20092	-3.6063	-4.1042	-4.6062	-3.8167	-4.4021	-4.3708	-4.0563	-4.9333	-3.9625	-3.8771	-4.7063	-3.7542	-4.4729	-4.6104	-3.5354	-4.8021	322.740	182.275	-15.468	285.048	233.241	241.045	236.699	268.855	20.082	183.463	244.781	319.140	320.337	307.211	-14.186	291.370	0.00019312	0.0003014	0.00013167	1393.6	2.7881e-06	2.8572e-06	1379.8	368.24	4.5249e-06	3.018e-06	422.1	139.95	122.17	42.239	4.4725e-06	52.881	5.667e-05	5.0426e-05	1.388e-05	1339	5.6223e-07	5.4198e-07	1327.7	351.54	5.7373e-07	5.5065e-07	393.69	132.15	114.1	39.447	5.6289e-07	48.467	189.076	27.553	37.913	-12.219	70.803	117.972	-12.064	-7.094	149.680	79.995	-7.879	-3.053	-2.484	1.715	93.753	0.919	-8191	255	
44295.828	1	1	0	0	0.026889	0.14097	0.048839	0.26875	0.15186	0.27307	0.070272	0.17973	0.21087	0.039912	0.13589	0.13402	0.085827	0.15961	0.068096	0.1285	-3.8187	-3.7292	-4.6875	-4.0625	-4.4979	-4.35	-3.85	-4.7792	-4.2271	-3.975	-4.9729	-3.8438	-4.3396	-4.6687	-3.7271	-4.7312	168.212	192.004	31.944	-9.257	265.738	310.590	253.903	264.230	234.768	225.151	259.189	229.316	276.341	12.104	95.143	-20.609	0.00019999	0.00045142	0.00013993	1390.5	2.4559e-06	2.9617e-06	1381.9	366.62	2.9073e-06	4.3295e-06	420.92	140.4	122.13	42.387	4.2677e-06	52.429	5.6745e-05	5.0491e-05	1.3798e-05	1338.2	5.7437e-07	5.4273e-07	1329.4	351.32	5.6576e-07	5.4187e-07	393.83	132.31	114.38	39.464	5.6546e-07	48.414	193.831	36.057	25.225	-12.080	104.355	115.529	-12.056	-7.111	154.519	81.839	-7.546	-3.173	-2.620	1.678	87.318	1.128	-8191	255	
44295.926	1	1	0	0	0.097535	0.091232	0.19205	0.32208	0.12786	0.085097	0.31342	0.070089	0.15561	0.2298	0.078706	0.057708	0.09344	0.23646	0.2683	0.38284	-3.9833	-3.9625	-4.725	-4.0813	-4.0708	-4.55	-3.8479	-4.75	-4.2438	-3.8146	-4.9792	-4.0062	-4.1521	-4.5375	-3.825	-4.5979	200.919	287.028	113.354	297.135	302.496	138.169	233.300	81.597	103.419	126.137	131.874	270.219	216.602	96.018	19.970	324.918	0.00020323	0.0003781	8.4518e-05	1389	3.6511e-06	1.4006e-06	1384.3	367.09	3.3543e-06	9.9328e-07	422.35	139.66	121.97	42.472	2.4864e-06	52.523	5.6737e-05	5.0649e-05	1.3767e-05	1338.7	5.6721e-07	5.3833e-07	1329.6	351.69	5.6075e-07	5.532e-07	394.61	132.22	114.15	39.531	5.5696e-07	48.501	191.808	52.404	41.127	-12.033	101.767	83.864	-12.203	-7.116	134.183	81.073	-7.569	-3.096	-2.617	1.370	74.838	1.011	-8191	255	
44296.047	1	1	0	0	0.125	0.048914	0.12701	0.22433	0.1302	0.10812	0.2562	0.16638	0.1345	0.39572	0.26739	0.076892	0.19025	0.19449	0.16101	0.095466	-4.1208	-3.9792	-4.6854	-4.3104	-4.1	-4.6854	-3.9729	-4.6125	-4.3354	-3.7667	-4.9458	-4.2479	-4.0312	-4.8292	-3.875	-4.3917	-5.106	159.294	280.740	294.941	30.346	147.980	294.797	328.389	53.466	185.675	292.030	-4.191	298.559	289.766	265.589	328.703	0.00022068	0.00026787	0.00011381	1390.6	2.0323e-06	3.4609e-06	1387	367.29	4.7389e-06	1.0234e-06	422.94	140.13	122.62	42.466	1.7522e-06	52.538	5.5574e-05	5.0235e-05	1.3799e-05	1339.4	5.5874e-07	5.2698e-07	1330.1	351.46	5.5188e-07	5.4354e-07	394.14	132.47	114.33	39.538	5.554e-07	48.388	204.402	47.090	36.807	-12.070	121.721	103.469	-12.167	-7.152	141.098	132.584	-7.719	-2.949	-2.451	1.483	258.552	0.766	-8191	255	
44296.141	1	1	0	0	0.30849	0.060904	0.15395	0.32583	0.044572	0.19944	0.2419	0.14118	0.06127	0.030022	0.053231	0.16916	0.060199	0.20236	0.30942	0.20265	-4.1021	-3.7146	-4.4792	-4.2583	-4.0687	-4.7208	-4.2125	-4.3313	-4.5167	-3.5521	-4.6104	-4.4104	-3.8563	-4.7354	-3.9396	-4.0896	169.613	-24.485	300.744	268.832	244.854	104.991	244.201	42.010	125.726	162.352	266.373	99.356	205.906	313.433	54.741	28.093	0.0002147	0.00048785	0.00011425	1391	4.648e-06	3.7904e-06	1382	367.56	1.1361e-06	4.8938e-06	423.77	140.19	122.34	42.515	2.7411e-06	52.537	5.6178e-05	4.9974e-05	1.3802e-05	1339.9	5.7247e-07	5.4355e-07	1327.9	351.75	5.648e-07	5.6495e-07	394.15	132.47	114.28	39.495	5.7246e-07	48.447	191.116	48.969	10.104	-12.194	119.756	109.030	-11.875	-7.181	206.614	93.129	-7.961	-2.825	-2.592	1.836	93.649	0.615	-8191	255	
44296.215	1	1	0	0	0.15766	0.19371	0.18029	0.20902	0.39962	0.030839	0.431	0.17359	0.1906	0.090419	0.28818	0.24703	0.1249	0.15294	0.16444	0.3232	-4.4542	-3.6396	-4.4563	-4.4021	-3.8875	-4.5917	-4.1438	-4.1625	-4.5083	-3.6958	-4.5188	-4.5333	-3.775	-4.6625	-4.0958	-4.0396	125.748	78.259	278.496	322.026	6.983	222.947	258.657	313.467	185.307	207.882	267.999	290.678	274.707	8.283	269.310	265.849	0.0001995	0.00014973	0.00017373	1395.5	3.281e-06	3.5502e-06	1389.2	367.22	2.1351e-06	2.1625e-06	421.6	140.1	121.65	42.413	1.3474e-06	52.337	5.8622e-05	5.2149e-05	1.4322e-05	1342.9	5.8683e-07	5.6968e-07	1333.5	351.77	5.8423e-07	5.7561e-07	394.44	132.61	114.16	39.576	5.8617e-07	48.358	188.993	18.896	27.796	-11.979	126.237	65.803	-11.972	-7.201	118.016	100.325	-7.617	-3.070	-2.552	1.130	179.165	0.768	-8191	255	
44296.309	1	1	0	0	0.071188	0.10363	0.13274	0.31761	0.23332	0.075487	0.21019	0.039298	0.07741	0.24459	0.2695	0.1155	0.21784	0.06767	0.12681	0.084228	-4.3896	-3.7833	-4.4042	-4.6292	-3.7729	-4.7958	-4.4187	-4.05	-4.7354	-3.8646	-4.4771	-4.6667	-3.6771	-4.7542	-4.1417	-3.9729	83.806	204.767	-7.987	313.177	158.359	113.693	-17.708	24.256	277.851	138.839	-23.089	313.480	297.070	30.382	241.137	113.916	0.00018211	0.00035393	0.00015954	1395.1	2.8312e-06	1.379e-06	1388.1	369	2.5006e-06	4.0023e-06	424.39	140.42	122.02	42.285	1.4477e-06	52.649	5.9686e-05	5.2488e-05	1.4752e-05	1345.4	6.0988e-07	5.7607e-07	1335.1	353.07	5.9113e-07	5.8656e-07	395.68	132.54	114.59	39.557	5.8092e-07	48.497	189.246	40.885	22.038	-12.054	89.021	82.765	-11.935	-7.014	151.470	52.321	-7.783	-3.095	-2.694	1.740	78.373	0.759	-8191	255	
44296.406	1	1	0	0	0.062186	0.22354	0.11121	0.15409	0.151	0.12855	0.13467	0.27891	0.04432	0.054127	0.16212	0.13416	0.13281	0.26382	0.18449	0.13133	-4.2812	-3.9271	-4.2188	-4.85	-3.7521	-4.5729	-4.5708	-4.1875	-4.7042	-4.0354	-4.4375	-4.7646	-3.8833	-4.6729	-4.4417	-3.9375	59.251	196.532	191.955	38.614	42.370	152.147	270.742	266.495	294.882	-24.396	199.068	286.280	59.916	-19.169	131.914	11.470	0.00018385	0.00033921	0.0001262	1398.7	4.3797e-06	2.9158e-06	1396.2	369.25	3.9355e-06	1.8681e-06	423.7	140.87	123.16	42.733	2.6309e-06	52.516	5.8069e-05	5.2341e-05	1.4379e-05	1345.3	5.9565e-07	5.5794e-07	1335.8	352.9	5.7348e-07	5.6215e-07	395.4	132.9	114.79	39.746	5.5673e-07	48.576	195.137	29.618	-3.731	-11.983	127.165	124.760	-11.844	-7.247	154.806	74.717	-7.801	-2.967	-2.626	1.328	52.689	0.933	-8191	255	
44296.527	1	1	0	0	0.12829	0.25919	0.049143	0.29465	0.18753	0.058717	0.073769	0.19821	0.12263	0.10407	0.15581	0.20757	0.24666	0.28298	0.15339	0.1175	-4.4854	-3.9354	-3.9521	-4.8833	-3.7083	-4.4833	-4.7229	-3.9625	-4.6958	-4.1396	-4.1667	-4.6917	-3.9604	-4.3646	-4.4771	-3.8479	284.197	206.143	70.491	247.939	-14.490	294.135	179.566	316.560	13.920	282.720	184.057	-16.965	216.495	270.898	19.204	259.803	0.00017198	0.00026966	0.00011697	1401.7	4.1833e-06	2.6538e-06	1389.1	367.6	3.5066e-06	2.7966e-06	425.91	140.05	122.87	42.534	3.2931e-06	52.974	5.5087e-05	5.0837e-05	1.3965e-05	1347.8	5.5356e-07	5.3717e-07	1337.2	352.6	5.4762e-07	5.4374e-07	396.35	132.81	114.84	39.747	5.5365e-07	48.629	187.057	2.712	33.707	-12.210	102.461	94.666	-11.995	-7.324	94.386	108.577	-7.699	-2.547	-2.477	1.742	112.689	0.558	-8191	255	
44296.621	1	1	0	0	0.13828	0.16833	0.14154	0.062588	0.24362	0.12754	0.044038	0.19462	0.34725	0.057962	0.031335	0.018662	0.22195	0.20811	0.34236	0.10345	-4.3771	-3.9667	-3.8771	-5.0167	-3.8438	-4.2646	-4.7063	-3.8833	-4.6958	-4.1729	-4.0042	-4.8458	-3.8958	-4.2833	-4.5271	-3.7208	239.007	112.990	130.760	1.048	309.607	-12.534	312.435	309.256	86.359	94.155	71.313	54.833	312.681	326.462	127.613	204.727	0.00017965	0.00016113	0.00010759	1397.5	2.929e-06	3.7984e-06	1396.5	366.45	2.116e-06	1.8783e-06	423.61	140.88	122.6	42.726	2.7978e-06	53.06	5.5742e-05	4.9377e-05	1.3773e-05	1347.5	5.6539e-07	5.3957e-07	1338.9	351.76	5.6228e-07	5.4955e-07	395.56	132.79	114.71	39.772	5.4041e-07	48.648	191.497	17.776	15.436	-12.019	158.137	103.365	-11.916	-7.351	168.113	58.903	-8.029	-2.958	-2.483	1.816	86.961	0.878	-8191	255	
44296.719	1	1	0	0	0.21117	0.041648	0.051903	0.1029	0.15123	0.1863	0.19696	0.29093	0.053614	0.1182	0.0721	0.18432	0.049581	0.2149	0.132	0.17285	-4.2375	-4.3292	-3.7313	-4.8354	-3.9813	-4.1542	-4.8917	-3.9875	-4.5167	-4.2729	-4.0021	-4.6125	-4.1125	-3.9958	-4.7396	-3.8521	241.036	221.409	243.215	-21.770	47.867	94.158	261.197	317.034	74.962	54.406	270.012	-7.250	255.626	293.617	18.099	228.954	0.00022876	0.00030577	0.00012586	1402.9	3.8659e-06	1.6633e-06	1392.3	369.39	2.3597e-06	3.0345e-06	423.56	141.44	123.27	42.636	2.8033e-06	53.133	5.5324e-05	4.8532e-05	1.3781e-05	1349.3	5.5186e-07	5.3631e-07	1340.8	353.62	5.4028e-07	5.3375e-07	395.88	133.21	114.94	39.758	5.2974e-07	48.741	195.003	38.831	42.060	-11.957	109.095	57.317	-11.974	-7.173	102.211	79.785	-7.962	-2.992	-2.473	1.190	78.958	0.708	-8191	255	
44296.816	1	1	0	0	0.20927	0.17106	0.13056	0.24791	0.14881	0.16293	0.17183	0.18607	0.14872	0.047322	0.1555	0.19241	0.073702	0.29036	0.14699	0.24606	-4.1792	-4.3521	-3.65	-4.7667	-3.9688	-3.925	-4.8187	-4.0083	-4.3021	-4.5354	-3.9396	-4.7958	-4.2125	-3.8771	-4.7146	-3.7104	247.968	-24.013	102.091	289.968	332.318	197.167	-6.175	198.991	122.587	310.754	42.432	213.379	251.314	250.130	96.837	267.168	0.00017503	0.00011755	0.00015495	1403.1	3.4801e-06	1.5702e-06	1396.7	368.9	2.7558e-06	3.1389e-06	424.29	141.07	122.65	42.725	3.3864e-06	52.876	5.5335e-05	4.8685e-05	1.3532e-05	1350.6	5.616e-07	5.2922e-07	1340.1	353.15	5.4995e-07	5.2255e-07	396.2	133.35	115.11	39.807	5.2729e-07	48.663	184.616	48.822	21.830	-12.220	101.122	112.583	-11.892	-7.384	157.926	69.609	-7.690	-3.080	-2.768	1.718	121.960	0.750	-8191	255	
44296.910	1	1	0	0	0.29206	0.29682	0.099619	0.2448	0.035645	0.073213	0.089115	0.20216	0.091898	0.079388	0.23101	0.12203	0.25374	0.17381	0.046958	0.15842	-4.0979	-4.3625	-3.8417	-4.7042	-4.1667	-3.9521	-4.9688	-4.0021	-4.2771	-4.6104	-3.9896	-4.6813	-4.2646	-4.0542	-4.6604	-4.1042	101.944	298.238	260.599	-20.679	179.466	249.356	-10.503	330.415	293.816	169.215	-22.445	-14.016	274.621	46.585	238.243	231.538	0.00021454	0.00016699	8.4258e-05	1405	4.0539e-06	1.6672e-06	1399.1	368.51	2.2937e-06	5.4645e-06	423.31	141.1	122.77	42.684	2.6945e-06	52.831	5.3912e-05	4.8551e-05	1.3629e-05	1349.9	5.5366e-07	5.2564e-07	1341.9	353.62	5.5157e-07	5.2552e-07	396.5	133.22	114.99	39.726	5.4032e-07	48.664	185.536	29.612	2.836	-12.098	87.890	146.611	-11.804	-7.338	160.278	87.454	-8.111	-3.140	-2.435	1.470	116.587	1.109	-8191	255	
44297.008	1	1	0	0	0.24229	0.4332	0.10436	0.070397	0.071132	0.1434	0.19451	0.2739	0.14326	0.37252	0.21824	0.18704	0.21539	0.16441	0.16788	0.043157	-3.9021	-4.7188	-3.7812	-4.8104	-4.375	-3.7417	-4.9958	-4.2542	-4.1562	-4.7688	-3.7083	-4.5229	-4.4583	-3.875	-4.7688	-4.1833	300.409	121.542	238.005	209.434	274.584	325.013	-22.010	328.119	233.542	276.587	22.027	256.233	248.214	230.549	-9.662	-3.312	0.00020523	0.00021579	0.00015629	1405.2	3.8302e-06	2.2314e-06	1395.3	367.85	2.8322e-06	2.3267e-06	422.79	141.42	122.5	42.491	3.4583e-06	52.697	5.5492e-05	4.8797e-05	1.3927e-05	1350.2	5.631e-07	5.4236e-07	1341.1	352.98	5.6983e-07	5.5135e-07	395.42	133.15	114.85	39.692	5.5197e-07	48.647	197.944	111.781	7.503	-12.028	107.050	116.177	-12.046	-7.230	104.756	121.888	-7.964	-3.081	-2.415	1.392	88.910	0.993	-8191	255	
44297.125	1	1	0	0	0.14065	0.023454	0.079407	0.41456	0.28796	0.20312	0.081009	0.21395	0.13731	0.17961	0.057546	0.16987	0.15444	0.10662	0.041454	0.13974	-3.6708	-4.7063	-3.7792	-4.5083	-4.4375	-3.725	-4.8104	-4.3688	-3.9958	-4.6083	-3.9958	-4.1854	-4.625	-3.9125	-4.6229	-4.35	125.704	182.813	282.305	290.380	255.654	239.895	260.972	312.564	246.230	211.341	153.394	222.337	10.192	15.611	142.898	76.507	0.00020503	0.00019738	0.0001107	1405.4	2.9599e-06	2.7781e-06	1387.6	368	2.0198e-06	2.5138e-06	425.94	141.18	123.17	42.626	1.046e-06	52.77	5.7602e-05	5.0446e-05	1.4406e-05	1351.2	5.7148e-07	5.5638e-07	1338.8	352.97	5.8205e-07	5.5402e-07	396.23	133.21	115.09	39.726	5.687e-07	48.602	190.044	54.923	29.721	-12.133	110.257	87.883	-12.188	-7.164	133.063	98.963	-8.145	-3.008	-2.345	1.450	175.283	1.036	-8191	255	
44297.223	1	1	0	0	0.10659	0.20864	0.060941	0.28047	0.29779	0.16266	0.090511	0.043313	0.13745	0.26071	0.28326	0.19783	0.17826	0.081123	0.16955	0.29929	-3.5812	-4.8458	-3.9958	-4.4708	-4.4625	-3.6854	-4.9042	-4.3729	-3.6771	-4.6229	-4.1937	-4.1813	-4.6104	-3.7458	-4.4417	-4.4292	323.527	169.382	315.125	242.072	299.189	101.234	-16.046	251.461	276.713	289.232	35.877	276.393	198.979	-4.343	179.645	248.842	0.00021901	0.00030753	0.0001615	1403.6	4.4875e-06	2.9047e-06	1389	369.49	3.1716e-06	4.4376e-06	425.04	141.72	123.23	42.625	1.778e-06	52.896	5.8643e-05	5.1069e-05	1.4375e-05	1350.5	5.9196e-07	5.737e-07	1340.2	353.48	5.8892e-07	5.6539e-07	395.74	133.36	115.01	39.729	5.8027e-07	48.659	197.294	67.878	28.212	-12.029	117.501	127.165	-12.023	-7.042	150.410	66.017	-7.683	-3.188	-2.636	1.628	46.164	0.994	-8191	255	
44297.320	1	1	0	0	0.11942	0.13284	0.23312	0.28285	0.049943	0.084751	0.24635	0.2465	0.090249	0.20101	0.13033	0.049586	0.066283	0.29778	0.15101	0.081936	-3.4729	-4.5687	-4	-4.2854	-4.6417	-3.9313	-4.4792	-4.575	-3.7271	-4.6917	-4.1667	-4.1333	-4.8396	-3.9458	-4.2146	-4.5958	42.542	64.395	137.336	305.924	193.280	77.297	243.748	321.341	83.026	218.592	297.675	294.283	210.803	-4.643	252.229	247.067	0.00021606	0.0002949	2.9594e-05	1404.9	4.3287e-06	4.8936e-06	1397.8	370.56	3.8845e-06	2.2689e-06	425	141.21	123.03	42.398	2.0301e-06	52.756	6.0602e-05	5.1902e-05	1.4856e-05	1350.7	5.9529e-07	5.8717e-07	1341.6	354.41	5.9162e-07	5.6768e-07	396.28	133.13	115.1	39.655	5.8337e-07	48.647	193.134	33.239	6.522	-12.143	125.300	95.548	-11.925	-7.169	118.263	112.095	-7.938	-2.995	-2.575	1.596	92.821	0.657	-8191	255	
44297.414	1	1	0	0	0.18247	0.18128	0.167	0.11383	0.28016	0.020172	0.31637	0.18325	0.040184	0.085768	0.13532	0.26565	0.1482	0.17992	0.21795	0.1013	-3.5354	-4.6312	-4.1625	-4.1771	-4.7063	-3.7333	-4.5604	-4.7729	-3.6896	-4.6521	-4.3812	-3.9896	-4.7812	-4.0104	-4.0917	-4.7375	78.263	120.872	310.334	301.059	116.732	41.879	302.170	301.825	186.830	56.189	308.463	290.971	1.368	-4.926	149.850	20.439	0.00019585	0.00032281	0.00015785	1404.2	2.5205e-06	3.4243e-06	1396	369.95	2.503e-06	2.0101e-06	424.49	141.46	122.82	42.789	2.1051e-06	53.129	5.9224e-05	5.2997e-05	1.4764e-05	1351.2	5.866e-07	5.7609e-07	1340.5	353.87	6.0529e-07	5.6794e-07	396.24	133.35	115.02	39.783	5.8027e-07	48.707	188.761	24.277	27.732	-12.078	127.887	140.653	-11.835	-7.218	146.565	120.829	-7.911	-3.178	-2.262	1.459	79.903	0.689	-8191	255	
44297.512	1	1	0	0	0.23791	0.28394	0.13057	0.33096	0.15643	0.149	0.081729	0.073144	0.14343	0.11647	0.18677	0.1253	0.086542	0.26015	0.15462	0.10988	-3.5958	-4.5938	-4.4479	-4.2146	-4.85	-3.8958	-4.4292	-4.7792	-3.6417	-4.6188	-4.4479	-3.7896	-4.7562	-4.1458	-3.9292	-4.7417	34.531	-5.013	-0.044	-16.336	73.600	310.316	269.497	223.091	127.640	256.461	245.039	258.144	309.547	-5.735	0.947	218.267	0.00022375	0.00034227	8.6578e-05	1402	2.3371e-06	3.5058e-06	1400.6	369.83	3.7338e-06	4.0228e-06	425.73	141.29	123.13	42.561	3.0788e-06	52.696	5.853e-05	5.1555e-05	1.4353e-05	1350.4	5.8273e-07	5.6525e-07	1343.1	354.34	5.8201e-07	5.6138e-07	397.17	133.35	115.34	39.737	5.6674e-07	48.667	206.799	27.325	44.422	-12.124	64.762	120.652	-12.077	-7.269	130.553	105.729	-7.808	-3.259	-2.540	1.630	101.966	0.940	-8191	255	
44297.605	1	1	0	0	0.085046	0.14796	0.13648	0.23839	0.091899	0.15642	0.19661	0.022459	0.24058	0.31695	0.21538	0.27067	0.11993	0.24974	0.067099	0.13744	-3.5021	-4.5	-4.3667	-3.9938	-4.7229	-4.1771	-4.0917	-4.8229	-3.7375	-4.1771	-4.6333	-3.8688	-4.6062	-4.2958	-3.7687	-4.8313	74.670	108.432	81.520	265.542	84.441	151.466	209.991	19.436	178.514	248.040	57.399	279.906	321.838	250.323	44.859	330.010	0.00020965	0.00031993	0.00012527	1404.1	4.2674e-06	3.629e-06	1402.7	369.45	3.8714e-06	1.6337e-06	426.86	141.56	123.47	42.705	1.5768e-06	52.775	5.77e-05	5.0061e-05	1.3979e-05	1352.3	5.6705e-07	5.4604e-07	1344.5	354.29	5.811e-07	5.5599e-07	397.38	133.33	115.23	39.8	5.628e-07	48.761	193.079	60.065	19.524	-12.191	120.176	102.922	-12.169	-7.101	147.099	103.388	-7.983	-3.149	-2.592	1.632	54.116	0.899	-8191	255	
44297.727	1	1	0	0	0.21335	0.010653	0.13404	0.10393	0.083448	0.19455	0.20867	0.21298	0.24074	0.036356	0.07798	0.12876	0.092907	0.29586	0.11198	0.17524	-3.5271	-4.1958	-4.4083	-3.9979	-4.5792	-4.2229	-4.1687	-4.9854	-4.0375	-4.2896	-4.7042	-3.7583	-4.6479	-4.425	-3.825	-4.7708	229.681	222.292	24.199	188.534	-0.931	-14.359	307.242	307.300	105.807	143.321	281.819	-13.418	246.158	329.621	234.137	-18.427	0.00021245	0.00021165	0.000118	1408.4	3.6497e-06	5.5673e-06	1400.8	368.76	3.6091e-06	2.5462e-06	426.67	141.92	123.33	42.648	3.1219e-06	52.776	5.8235e-05	5.1349e-05	1.3959e-05	1353.5	5.6677e-07	5.5454e-07	1343.4	353.95	5.8389e-07	5.4843e-07	397.39	133.46	115.38	39.82	5.7493e-07	48.666	203.447	65.031	36.365	-12.152	127.540	90.390	-11.948	-6.973	199.556	71.322	-7.697	-3.111	-2.465	1.519	90.001	1.073	-8191	255	
44297.820	1	1	0	0	0.0015563	0.26955	0.10139	0.13228	0.29611	0.045991	0.1165	0.051833	0.34746	0.19534	0.13406	0.28545	0.10769	0.034945	0.10668	0.2799	-3.7583	-4.0417	-4.7167	-3.9896	-4.4917	-4.4187	-3.9271	-4.9375	-4.0875	-4.0437	-4.8125	-3.9562	-4.5333	-4.5687	-3.7854	-4.9021	180.000	142.472	82.318	227.532	145.797	54.566	57.091	186.588	13.332	-13.004	-19.313	-21.206	25.610	25.064	291.174	-22.691	0.00023018	0.00028996	0.00015447	1406.2	3.9024e-06	1.5687e-06	1400.9	371.78	2.8077e-06	4.826e-06	424.58	140.77	123.51	42.692	3.0095e-06	52.7	5.6954e-05	4.9812e-05	1.3808e-05	1352.8	5.6981e-07	5.5365e-07	1344.1	354.93	5.5585e-07	5.5086e-07	396.83	133.28	115.46	39.825	5.6254e-07	48.68	190.893	32.108	20.944	-12.147	130.551	129.151	-11.971	-7.244	119.822	105.281	-7.852	-3.106	-2.217	1.499	115.828	0.736	-8191	255	
44297.918	1	1	0	0	0.24447	0.18679	0.25823	0.32641	0.13183	0.14578	0.31892	0.18015	0.10851	0.21982	0.081373	0.22395	0.23333	0.12997	0.087548	0.24854	-3.8375	-3.8833	-4.7542	-3.9667	-4.3271	-4.5229	-3.9542	-4.7771	-4.1083	-3.875	-4.9688	-3.7771	-4.3604	-4.6333	-3.6792	-4.7438	207.867	225.742	163.027	290.452	8.156	127.160	263.072	321.442	25.833	-9.773	206.416	58.618	51.871	-22.930	154.205	275.038	0.0001838	0.00032598	0.00012936	1405	2.4147e-06	3.4514e-06	1398.5	370.67	2.0845e-06	2.102e-06	426.71	141.94	123.51	42.917	2.1304e-06	53.043	5.6538e-05	5.0352e-05	1.351e-05	1354.7	5.7045e-07	5.4202e-07	1345.5	355.52	5.5845e-07	5.4372e-07	397.82	133.95	115.44	39.952	5.5652e-07	48.927	185.657	32.785	56.375	-12.149	111.391	108.059	-11.973	-7.255	155.181	98.076	-7.721	-3.205	-2.526	1.498	120.370	0.827	-8191	255	
44298.016	1	1	0	0	0.20087	0.22119	0.19718	0.21547	0.17882	0.17444	0.1463	0.2588	0.070049	0.08485	0.11007	0.16293	0.31537	0.17928	0.30605	0.12817	-4.0792	-3.8771	-4.7792	-4.0729	-4.1229	-4.7854	-3.8792	-4.6229	-4.425	-3.8021	-4.7646	-4.0229	-4.1354	-4.7333	-3.6021	-4.5312	76.901	75.021	138.813	-22.340	177.054	206.564	224.724	264.952	75.186	13.465	180.012	225.117	327.262	288.024	272.138	138.896	0.00021405	0.0003191	0.00015298	1413.3	8.089e-07	2.6495e-06	1396.2	370.98	3.5569e-06	5.3399e-06	428.34	142.58	123.16	43.043	3.228e-06	53.154	5.6155e-05	4.9716e-05	1.3454e-05	1355.7	5.5593e-07	5.3186e-07	1347.3	355.04	5.4925e-07	5.3779e-07	398.58	134.18	115.6	40.047	5.4522e-07	48.933	200.400	54.765	12.536	-12.054	139.491	112.716	-12.000	-7.154	133.033	78.480	-7.837	-2.880	-2.898	1.424	99.365	0.918	-8191	255	
44298.090	1	1	0	0	0.12823	0.13037	0.19546	0.18658	0.084989	0.14633	0.16987	0.081447	0.30249	0.1935	0.2096	0.25523	0.18052	0.11791	0.23446	0.045447	-4.1354	-3.7021	-4.6833	-4.2521	-4.1958	-4.65	-4.0396	-4.6396	-4.4333	-3.7583	-4.7792	-4.2375	-4.0667	-4.8417	-3.7521	-4.4313	130.019	2.514	261.870	329.395	332.588	264.102	246.780	275.947	90.305	127.939	249.500	268.148	12.744	-23.363	65.651	120.833	0.0002041	0.00039087	0.00017379	1412.2	4.0201e-06	4.17e-06	1404.2	372.54	4.3384e-06	4.0661e-06	428.11	141.67	123.72	42.953	3.5296e-06	53.201	5.4455e-05	4.9028e-05	1.3656e-05	1358.8	5.5998e-07	5.296e-07	1349.2	356.36	5.4287e-07	5.323e-07	398.89	134.21	115.87	40.077	5.4561e-07	48.913	190.343	54.529	35.802	-12.163	115.796	124.040	-11.885	-7.208	150.831	89.131	-7.895	-3.185	-2.637	1.576	78.090	1.055	-8191	255	
44298.207	1	1	0	0	0.23451	0.27449	0.19723	0.11472	0.30071	0.12564	0.12298	0.15013	0.11059	0.17896	0.19046	0.12456	0.057115	0.1921	0.18534	0.071039	-4.3417	-3.6479	-4.6167	-4.4958	-3.7792	-4.7083	-4.1104	-4.35	-4.6	-3.625	-4.7333	-4.3292	-3.825	-4.6896	-3.9646	-4.2729	87.429	155.116	102.853	11.715	71.841	109.012	8.225	316.584	263.545	165.238	245.627	253.214	-22.861	327.417	-5.160	234.888	0.0001854	9.5987e-05	0.00011457	1407.9	3.8951e-06	2.5367e-06	1406	373.58	3.8625e-06	2.8858e-06	427.48	141.92	123.78	42.99	1.024e-06	53.239	5.4556e-05	4.9124e-05	1.3186e-05	1357.7	5.5828e-07	5.158e-07	1350.7	357.05	5.416e-07	5.3473e-07	399.18	134.42	115.83	40.078	5.3678e-07	48.967	192.299	41.814	23.405	-12.296	116.590	132.933	-11.971	-7.362	108.919	85.261	-7.869	-3.089	-2.782	1.406	44.139	0.932	-8191	255	
44298.305	1	1	0	0	0.26878	0.13394	0.20112	0.3292	0.19087	0.091797	0.18177	0.21032	0.087716	0.21087	0.30661	0.12037	0.3435	0.13528	0.19367	0.10183	-4.4479	-3.6958	-4.4396	-4.4979	-3.7313	-4.7521	-4.1146	-4.3	-4.5896	-3.6021	-4.6292	-4.4146	-3.9813	-4.7312	-3.9667	-4.1521	251.565	96.655	304.970	313.860	266.695	-3.963	277.442	324.966	286.578	120.034	296.428	283.873	267.626	284.887	-14.030	42.872	0.00019538	0.00013431	2.6097e-05	1414.6	2.6413e-06	2.7759e-06	1402	372.19	2.8993e-06	4.6562e-06	426.54	142.36	124.07	42.946	2.7883e-06	52.928	5.369e-05	4.7948e-05	1.2988e-05	1359.8	5.446e-07	5.0491e-07	1349.4	356.89	5.1746e-07	5.3817e-07	398.7	134.47	116.1	40.108	5.3259e-07	48.896	186.140	42.472	41.011	-12.188	82.848	125.437	-12.030	-7.319	148.000	106.432	-7.982	-3.206	-2.485	1.644	98.442	0.686	-8191	255	
44298.398	1	1	0	0	0.14639	0.21208	0.18442	0.12591	0.26476	0.28386	0.2172	0.14029	0.30962	0.15486	0.15032	0.057256	0.074186	0.25109	0.14651	0.2658	-4.375	-3.7313	-4.4396	-4.8812	-3.6417	-4.7042	-4.3187	-4.1375	-4.7604	-3.8937	-4.3792	-4.6562	-3.9208	-4.7063	-4.1521	-4.1354	218.652	48.436	63.797	291.365	322.722	64.130	245.856	-24.879	55.802	219.472	297.876	313.870	-7.067	278.470	213.737	108.881	0.0002092	0.00020199	8.208e-05	1413.6	2.55e-06	2.8106e-06	1406.5	372.3	4.0399e-06	3.7137e-06	428.36	142.17	123.98	43.11	2.1667e-06	53.029	5.4229e-05	4.8e-05	1.3203e-05	1359.3	5.4206e-07	5.1846e-07	1350.5	356.72	5.2902e-07	5.2049e-07	398.85	134.25	115.88	40.061	5.2909e-07	48.902	198.837	37.972	9.684	-12.112	124.112	105.566	-12.010	-7.246	117.409	40.200	-7.790	-3.036	-2.631	1.445	98.594	0.712	-8191	255	
44298.520	1	1	0	0	0.053605	0.13202	0.18644	0.12642	0.058933	0.26917	0.2539	0.20196	0.10777	0.084137	0.12818	0.10727	0.28461	0.10243	0.16883	0.24027	-4.5708	-3.7875	-4.3146	-4.9625	-3.6354	-4.6458	-4.4708	-4.0896	-4.725	-3.9688	-4.3083	-4.6687	-3.8979	-4.7021	-4.2937	-3.9646	-13.167	26.455	237.168	206.773	166.139	-19.255	309.646	244.485	46.766	156.479	-6.376	8.052	4.976	102.916	93.654	224.555	0.00023299	0.0003213	0.00014828	1415.4	4.9692e-06	4.1689e-06	1401.3	371.93	3.7784e-06	4.2352e-06	430.06	142.86	123.68	43.222	4.1427e-06	53.168	5.4383e-05	4.7744e-05	1.3488e-05	1359.1	5.4018e-07	5.106e-07	1350.2	356.69	5.2494e-07	5.1497e-07	399.41	134.25	115.81	40.122	5.183e-07	48.903	188.238	38.162	12.761	-11.994	153.697	125.636	-12.056	-7.242	96.882	95.446	-8.027	-3.111	-2.412	1.492	104.482	0.687	-8191	255	
44298.617	1	1	0	0	0.10145	0.089223	0.033265	0.16274	0.19945	0.11625	0.26576	0.14129	0.3074	0.10947	0.066353	0.19335	0.20926	0.077841	0.14048	0.21464	-4.7104	-4.0104	-4.0292	-4.9542	-3.8604	-4.5625	-4.5854	-3.8521	-4.6146	-3.9062	-4.1562	-4.8229	-3.9271	-4.4812	-4.4896	-3.8458	271.273	46.111	179.283	4.080	304.638	168.789	241.667	245.118	281.460	254.105	63.414	234.168	-2.327	113.928	136.472	325.959	0.00021692	0.00024634	0.00010914	1411.1	1.4699e-06	3.0853e-06	1399.2	372.76	2.9278e-06	2.4492e-06	428.67	142.64	124.58	42.845	1.6285e-06	53.341	5.3137e-05	4.6695e-05	1.3183e-05	1359.1	5.3938e-07	5.0715e-07	1348.1	356.52	5.27e-07	5.1712e-07	398.98	134.44	116.27	40.011	5.3206e-07	48.948	191.221	12.408	60.919	-12.280	144.241	89.725	-12.127	-7.352	189.105	110.540	-7.912	-3.275	-2.447	1.474	108.822	0.667	-8191	255	
44298.688	1	1	0	0	0.07277	0.16561	0.1615	0.29898	0.12493	0.16082	0.13293	0.09751	0.021201	0.18877	0.074724	0.24129	0.15818	0.099565	0.22452	0.028888	-4.3646	-4.2271	-3.9833	-4.8667	-3.8812	-4.4771	-4.8375	-3.7354	-4.6271	-4.3521	-4.0229	-4.9688	-4.0479	-4.3458	-4.7812	-3.875	190.186	178.927	99.323	294.380	218.095	206.432	291.016	313.402	202.467	16.575	208.175	147.090	-20.162	92.101	198.472	258.824	0.00019167	0.00030911	3.8954e-05	1419.4	3.0557e-06	2.952e-06	1400.6	372.57	1.3566e-06	3.7411e-06	429.17	142.25	123.91	43.108	2.257e-06	53.17	5.4896e-05	4.7467e-05	1.3161e-05	1362.6	5.3506e-07	5.1187e-07	1350.4	356.44	5.316e-07	5.1557e-07	399.05	134.43	116.04	40.088	5.2895e-07	48.955	192.127	61.093	6.378	-11.927	119.791	122.776	-12.035	-7.239	144.123	102.556	-8.014	-3.084	-2.477	1.331	93.253	0.632	-8191	255	
44298.809	1	1	0	0	0.068115	0.070141	0.13765	0.26998	0.1086	0.10099	0.29412	0.035726	0.11971	0.23054	0.18533	0.099178	0.077658	0.20897	0.11229	0.26771	-4.2104	-4.2854	-3.9042	-4.9625	-3.9521	-4.1479	-4.9958	-4.1042	-4.4583	-4.3938	-3.9313	-4.8083	-4.0125	-4.1708	-4.5938	-3.8625	98.789	123.958	275.617	303.111	297.880	-15.405	259.898	319.977	184.741	69.478	266.529	272.794	304.068	-9.752	144.461	211.937	0.00019531	0.00027442	7.0976e-05	1416.9	2.6958e-06	3.8032e-06	1406.4	373.36	1.8527e-06	1.6432e-06	427.98	143.06	123.82	43.115	3.4554e-06	53.09	5.3076e-05	4.7716e-05	1.3239e-05	1361.8	5.4839e-07	5.153e-07	1353.4	357.3	5.3777e-07	5.0777e-07	399.28	134.57	115.99	40.193	5.3023e-07	48.985	193.773	35.906	88.446	-12.078	128.141	84.027	-11.856	-7.234	114.202	116.071	-8.105	-3.141	-2.828	1.320	95.814	0.635	-8191	255	
44298.902	1	1	0	0	0.13381	0.074128	0.013323	0.12509	0.073992	0.35834	0.2047	0.34216	0.065351	0.09746	0.060415	0.34447	0.099548	0.1416	0.13544	0.21944	-4.325	-4.3396	-3.775	-4.9313	-4.1813	-4.225	-4.9479	-4.0813	-4.3625	-4.4667	-3.7604	-4.8187	-4.3833	-4.0875	-4.6625	-4.0312	188.447	153.289	252.053	-20.331	314.294	147.602	-7.521	316.470	18.075	106.870	9.718	295.561	310.110	254.629	190.222	247.685	0.00021082	0.00027174	5.9749e-05	1416	4.4683e-06	2.5214e-06	1410.5	373.62	1.8518e-06	3.7043e-06	428.06	142.23	124.35	43.06	1.3761e-06	53.558	5.4195e-05	4.6829e-05	1.3468e-05	1361.7	5.4441e-07	5.1867e-07	1353.7	357.55	5.3572e-07	5.1841e-07	400.11	134.81	116.39	40.136	5.2577e-07	49.108	189.133	12.820	27.893	-12.096	128.664	53.683	-11.951	-7.434	122.265	76.093	-7.800	-3.122	-2.509	1.300	137.450	0.769	-8191	255	
44299.000	1	1	0	0	0.18919	0.13549	0.11484	0.18342	0.12029	0.16199	0.1425	0.054889	0.1771	0.11224	0.1305	0.18265	0.11131	0.13305	0.052173	0.19087	-3.9792	-4.7312	-3.8042	-4.6146	-4.2542	-3.9813	-4.9604	-4.125	-4.3083	-4.7	-3.8958	-4.7146	-4.3729	-3.9875	-4.8771	-4.1479	298.900	14.924	226.166	292.218	6.662	304.786	231.901	201.162	97.322	27.330	188.848	246.947	-2.740	311.584	151.287	294.728	0.00023676	0.00042676	0.0001857	1423.8	2.7204e-06	4.7194e-06	1413.7	374.82	2.1571e-06	4.0085e-06	427.75	142.7	124.56	43.056	3.6838e-06	53.344	5.4508e-05	4.7743e-05	1.3415e-05	1366.5	5.4004e-07	5.2347e-07	1355.6	357.53	5.3916e-07	5.2126e-07	400.1	134.82	116.51	40.143	5.3304e-07	49.008	187.609	29.418	8.053	-12.071	114.245	119.726	-11.947	-7.555	104.037	83.257	-8.276	-3.161	-2.460	1.269	108.189	0.678	-8191	255	
44299.117	1	1	0	0	0.25907	0.28899	0.15637	0.10408	0.23455	0.12228	0.14026	0.30473	0.18259	0.17123	0.11402	0.15157	0.27417	0.079703	0.11281	0.068276	-3.7687	-4.8	-3.7646	-4.7562	-4.5333	-3.8063	-5.0312	-4.225	-4.0208	-4.7729	-3.9792	-4.6125	-4.7125	-3.9479	-4.6875	-4.175	209.807	178.378	199.507	328.112	174.905	142.624	282.478	-3.736	4.995	259.408	-1.885	236.197	317.911	221.284	326.715	142.789	0.0002143	0.00041321	0.00016318	1426.3	1.8698e-06	2.254e-06	1415.6	374.29	2.1846e-06	3.5461e-06	426.95	142.13	123.9	42.972	2.9806e-06	53.276	5.4854e-05	4.6851e-05	1.3439e-05	1369.2	5.4303e-07	5.0976e-07	1357	357.75	5.4621e-07	5.0774e-07	400.04	134.82	116.24	40.167	5.3117e-07	49.035	196.163	34.954	9.065	-11.988	124.485	108.595	-11.844	-7.321	126.014	72.049	-7.961	-3.060	-2.483	1.442	71.651	0.835	-8191	255	
44299.215	1	1	0	0	0.15759	0.14605	0.14027	0.26895	0.034349	0.27915	0.37571	0.11182	0.10778	0.13919	0.14126	0.26427	0.17048	0.2505	0.24568	0.14759	-3.7229	-4.8125	-3.75	-4.55	-4.6729	-3.8187	-4.9583	-4.3354	-3.9396	-4.7625	-4.1	-4.4479	-4.6854	-3.7229	-4.5229	-4.2375	129.364	123.366	106.699	-0.749	108.188	68.302	237.241	237.139	24.563	289.610	-4.063	257.904	291.943	156.095	158.716	266.445	0.00017235	0.00022628	9.0611e-05	1421.7	4.1095e-06	2.9018e-06	1414	374.16	1.9098e-07	2.6324e-06	428.86	143.31	125.15	43.135	1.7891e-06	53.043	5.45e-05	4.7639e-05	1.2984e-05	1366.7	5.2869e-07	5.1635e-07	1357.7	358.17	5.2957e-07	5.0563e-07	400.04	134.82	116.59	40.258	5.2241e-07	49.053	190.979	82.631	-2.094	-12.161	125.853	129.793	-11.981	-7.143	71.122	85.654	-8.070	-2.974	-2.466	1.543	76.825	0.946	-8191	255	
44299.312	1	1	0	0	0.20952	0.15599	0.11487	0.46096	0.22901	0.1631	0.10938	0.17918	0.053955	0.1292	0.1821	0.18359	0.066666	0.20784	0.21401	0.012474	-3.5708	-4.7063	-3.9396	-4.3083	-4.6354	-3.9229	-4.7542	-4.425	-3.9562	-4.8146	-4.0667	-4.2042	-4.7417	-3.7083	-4.3979	-4.5375	177.080	133.959	212.683	315.086	320.205	107.846	263.773	242.377	314.195	80.701	330.915	301.023	288.981	316.192	7.498	218.190	0.00020332	0.00020997	0.00010004	1422.4	3.8774e-06	5.0735e-06	1410.7	374.69	2.3836e-06	2.0868e-06	428.74	142.88	124.37	43.224	9.5016e-07	53.4	5.3609e-05	4.6955e-05	1.3142e-05	1368.2	5.2189e-07	5.1333e-07	1359.2	358.35	5.2868e-07	4.9615e-07	400.24	134.98	116.51	40.233	5.1136e-07	49.11	192.094	45.096	23.943	-12.176	115.802	121.728	-11.964	-7.242	139.252	123.161	-7.890	-3.178	-2.721	0.967	77.203	0.552	-8191	255	
44299.383	1	1	0	0	0.15475	0.22682	0.20889	0.31925	0.1776	0.11797	0.11971	0.11646	0.22512	0.16425	0.15886	0.22821	0.37737	0.15786	0.060711	0.25822	-3.6562	-4.7958	-3.9917	-4.2542	-4.6937	-3.6792	-4.5854	-4.625	-3.8563	-4.6917	-4.3375	-4.0792	-4.8167	-3.9958	-4.4958	-4.5854	197.541	245.503	328.856	289.385	7.083	90.438	263.181	282.846	332.584	35.228	271.766	311.625	261.470	41.032	113.685	290.141	0.00021754	0.00031191	0.00012892	1418.5	3.0985e-06	2.4323e-06	1419.3	374.24	2.5817e-06	3.1782e-06	428.84	143.81	124.62	42.976	3.0756e-06	53.588	5.3629e-05	4.5915e-05	1.3133e-05	1367.1	5.2695e-07	5.1376e-07	1359.5	358.21	5.2731e-07	5.0422e-07	400.82	135.27	116.76	40.231	5.2255e-07	49.247	181.653	47.092	41.201	-12.140	137.352	102.983	-11.822	-7.180	94.294	46.138	-8.009	-3.242	-2.434	1.444	67.797	0.861	-8191	255	
44299.504	1	1	0	0	0.2072	0.18983	0.21247	0.14287	0.29191	0.30132	0.25799	0.30864	0.15962	0.055276	0.2406	0.04662	0.13728	0.14076	0.074795	0.15811	-3.6417	-4.7208	-4.05	-4.1896	-4.6521	-3.8479	-4.5146	-4.7667	-3.8125	-4.6021	-4.4854	-3.9938	-4.9271	-4.0333	-4.2208	-4.7396	153.241	105.347	284.784	269.386	10.380	58.082	307.354	277.705	322.711	242.640	-20.185	164.512	285.188	293.584	105.732	250.786	0.00023721	0.00039448	0.0001273	1424.5	1.9578e-06	3.9247e-06	1420.2	374.05	2.5522e-06	2.1237e-06	430.5	143.98	125.43	43.442	1.062e-06	53.647	5.3256e-05	4.6771e-05	1.3068e-05	1368.5	5.2042e-07	5.0368e-07	1360.8	358.43	5.2511e-07	4.9961e-07	400.96	135.17	116.96	40.362	5.2912e-07	49.255	188.049	43.653	47.958	-12.161	108.695	105.704	-12.145	-7.118	122.011	86.108	-7.764	-3.145	-2.596	1.600	111.462	1.049	-8191	255	
44299.602	1	1	0	0	0.077125	0.1498	0.17556	0.18309	0.16777	0.18461	0.083261	0.13743	0.12608	0.049751	0.1356	0.12086	0.21222	0.15206	0.13327	0.15558	-3.2896	-4.5875	-4.4833	-4.15	-4.6979	-4.0854	-4.3854	-4.8271	-3.8875	-4.5708	-4.3958	-3.8479	-4.7604	-4.1708	-4.1542	-4.925	325.886	192.895	66.113	5.556	305.145	251.773	296.284	302.533	184.169	203.408	228.057	218.077	307.694	40.654	116.970	241.536	0.00020531	0.00032341	8.4832e-05	1420.4	2.7839e-06	3.1676e-06	1421.7	373.8	2.3123e-06	6.8778e-07	430.72	143.32	125.21	43.267	3.6083e-06	53.21	5.2534e-05	4.658e-05	1.2677e-05	1368.1	5.2777e-07	4.9849e-07	1361.7	358.53	5.256e-07	5.0367e-07	401.04	135.22	116.78	40.285	5.1047e-07	49.087	187.954	17.455	17.857	-12.225	96.139	132.737	-12.020	-7.122	145.361	63.925	-7.848	-3.266	-2.241	1.330	95.388	0.683	-8191	255	
44299.695	1	1	0	0	0.16064	0.26113	0.034161	0.14173	0.065095	0.20969	0.23683	0.15407	0.2854	0.024988	0.099689	0.12025	0.18355	0.10548	0.13794	0.07651	-3.5125	-4.4062	-4.5	-4.0792	-4.6687	-4.1646	-4.075	-4.825	-3.8917	-4.3479	-4.8021	-3.8396	-4.6583	-4.3771	-3.9437	-4.8625	314.525	162.941	311.220	302.802	193.993	82.977	307.054	240.858	167.101	91.526	109.442	151.819	84.728	18.080	148.202	257.177	0.00021687	0.00017312	0.00014274	1425.7	3.5389e-06	2.791e-06	1411.2	376.56	2.7636e-06	3.0911e-06	430.45	143.73	124.93	43.26	2.5264e-06	53.341	5.3441e-05	4.6612e-05	1.2866e-05	1369.7	5.2549e-07	4.9847e-07	1359.3	358.88	5.3958e-07	5.1102e-07	400.6	135.17	116.69	40.337	5.2243e-07	49.146	202.749	8.651	39.634	-12.054	100.689	119.836	-12.108	-7.376	166.336	88.154	-7.513	-3.003	-2.369	1.510	69.210	0.962	-8191	255	
44299.789	1	1	0	0	0.15439	0.097	0.077346	0.30712	0.11855	0.25688	0.054376	0.25271	0.15376	0.012999	0.27039	0.24	0.17156	0.15403	0.21169	0.17919	-3.6542	-4.2208	-4.5708	-3.9625	-4.6771	-4.3396	-4.1667	-5	-3.9125	-4.2667	-4.8771	-3.7792	-4.6458	-4.5208	-3.8854	-4.6146	236.198	257.659	284.631	276.621	233.870	39.420	117.755	297.690	106.784	165.575	322.694	311.488	-1.118	-20.370	237.114	241.483	0.00021743	0.0002942	0.00017701	1421.6	5.09e-06	3.0304e-06	1409.8	372.37	2.0703e-06	3.1647e-06	431.29	142.22	125.46	43.1	3.2151e-06	53.408	5.4209e-05	4.616e-05	1.3077e-05	1367.6	5.1942e-07	5.112e-07	1356.6	358.13	5.2844e-07	5.1915e-07	401.28	134.7	116.84	40.283	5.2729e-07	49.177	202.480	74.966	6.610	-12.433	117.764	118.392	-12.045	-7.219	182.418	65.024	-7.981	-2.968	-2.656	1.363	101.260	0.841	-8191	255	
44299.910	1	1	0	0	0.22649	0.14762	0.24941	0.30219	0.14831	0.091013	0.27263	0.22689	0.17847	0.07983	0.12638	0.041925	0.2393	0.19803	0.13812	0.30415	-3.7021	-4.175	-4.6146	-4.0167	-4.5062	-4.3896	-4.1021	-4.8542	-4.1521	-4.0708	-4.8875	-3.7729	-4.5583	-4.5521	-3.8208	-4.8688	238.049	158.150	102.725	316.846	154.385	116.453	251.030	258.008	18.952	199.028	328.910	-3.857	232.503	-14.104	174.693	277.854	0.00020555	0.00029618	0.00011092	1416.6	4.1296e-07	4.2817e-06	1415.6	375.86	8.1358e-07	3.4518e-06	430.4	142.77	124.11	43.187	2.0446e-06	53.217	5.3146e-05	4.7124e-05	1.2757e-05	1367.9	5.3669e-07	5.0844e-07	1358.7	358.56	5.3962e-07	5.2296e-07	400.79	134.72	116.41	40.264	5.265e-07	49.106	188.715	33.758	-5.276	-12.213	-7.201	116.833	-11.946	-7.112	165.660	70.918	-8.045	-3.292	-2.604	1.464	114.598	0.397	-8191	255	
44299.984	1	1	0	0	0.17284	0.20003	0.12487	0.19508	0.31579	0.092399	0.11208	0.010788	0.081153	0.10259	0.13288	0.17691	0.13956	0.066435	0.33973	0.2999	-3.8604	-4.0667	-4.7583	-4.1458	-4.3854	-4.7604	-3.9521	-4.8208	-4.2125	-3.8375	-4.9458	-4.1083	-4.3521	-4.8271	-3.6771	-4.6854	9.233	-19.608	30.824	5.565	-10.569	151.424	214.372	98.224	6.617	18.969	334.488	-8.453	-16.056	316.406	320.770	-6.174	0.0002064	0.00022312	0.00012314	1421	2.6377e-06	3.5428e-06	1409.3	374.57	3.5874e-06	4.2273e-06	432.36	142.63	124.77	43.045	2.6938e-06	53.489	5.4789e-05	4.8372e-05	1.2809e-05	1366.9	5.4144e-07	5.0787e-07	1357.2	358.27	5.3697e-07	5.1411e-07	400.77	134.81	116.47	40.207	5.2221e-07	49.13	196.235	39.021	27.131	-12.119	129.918	128.191	-12.185	-7.198	122.351	68.610	-8.056	-3.389	-2.579	1.650	104.765	0.392	-8191	255	
44300.078	1	1	0	0	0.074144	0.17416	0.11997	0.13092	0.1276	0.18637	0.096814	0.053129	0.06539	0.10659	0.24794	0.25116	0.12245	0.21105	0.18455	0.20545	-4.0271	-3.8896	-4.8	-4.1937	-4.2646	-4.8667	-4.0417	-4.7625	-4.3167	-3.8125	-4.8792	-4.1667	-4.2458	-4.8646	-3.7771	-4.6	306.129	243.213	148.640	28.886	118.946	202.072	20.166	330.914	153.996	82.383	-0.967	10.768	254.796	107.209	212.074	134.103	0.00019399	0.00021093	0.00011543	1426.6	3.5391e-06	2.2969e-06	1414.9	375.62	2.3209e-06	3.0346e-06	427.51	143.18	124.8	43.263	2.6134e-06	53.264	5.4285e-05	4.7513e-05	1.3122e-05	1368.7	5.4123e-07	5.1991e-07	1358.2	358.65	5.3495e-07	5.2676e-07	400.48	134.82	116.39	40.238	5.446e-07	49.051	205.815	-8.150	7.197	-12.490	125.794	91.679	-12.407	-7.496	144.255	88.806	-7.728	-3.268	-2.518	1.600	107.911	0.800	-8191	255	
44300.199	1	1	0	0	0.062888	0.16377	0.15119	0.35382	0.13817	0.037747	0.18151	0.1035	0.21787	0.04539	0.13327	0.12185	0.21432	0.11194	0.1228	0.28411	-4.1917	-3.6896	-4.6854	-4.3	-4.1146	-4.7917	-3.9833	-4.5625	-4.6354	-3.8292	-4.7521	-4.4187	-4.0354	-4.8292	-3.8729	-4.325	254.571	-11.967	141.161	289.283	177.072	129.944	232.223	18.274	141.345	4.880	248.121	-17.124	229.204	217.339	269.369	166.545	0.00020392	0.0003372	0.00013258	1415.6	4.4147e-06	2.3357e-06	1413	374.57	2.7571e-06	3.846e-06	430.24	142.93	125.1	43.357	2.5498e-06	53.162	5.4382e-05	4.8135e-05	1.3164e-05	1365.3	5.3722e-07	5.1006e-07	1357.5	358.36	5.332e-07	5.2387e-07	401.13	134.85	116.59	40.304	5.3244e-07	49.106	188.934	36.853	33.333	-11.992	110.804	129.777	-11.945	-7.405	106.020	115.951	-7.936	-2.957	-2.701	1.402	120.255	0.714	-8191	255	
44300.297	1	1	0	0	0.14652	0.19379	0.13338	0.186	0.051455	0.065105	0.21171	0.31299	0.10049	0.045027	0.011197	0.10015	0.22451	0.28413	0.056583	0.29819	-4.2333	-3.7792	-4.625	-4.4083	-3.7604	-4.7833	-4.1521	-4.3438	-4.6583	-3.8896	-4.7812	-4.4979	-3.8667	-4.7875	-4.1896	-4.2562	100.710	250.859	184.371	5.121	316.327	303.736	312.211	236.002	83.416	72.313	79.454	281.237	287.597	325.297	316.128	332.078	0.0001706	0.00042968	0.00014663	1423.7	1.9842e-06	1.8311e-06	1411.1	374.11	3.7875e-06	1.201e-06	430.5	142.83	124.33	43.119	3.9695e-06	53.495	5.3861e-05	4.8606e-05	1.3275e-05	1368.9	5.442e-07	5.2169e-07	1358	358.67	5.2767e-07	5.2222e-07	400.8	134.95	116.47	40.211	5.3567e-07	49.054	187.081	30.735	-0.572	-12.318	106.575	101.233	-11.951	-7.340	139.383	74.089	-7.726	-3.294	-2.633	1.766	72.209	0.753	-8191	255	
44300.391	1	1	0	0	0.096571	0.20035	0.16323	0.14422	0.083868	0.048481	0.067689	0.41483	0.12398	0.12215	0.10908	0.18456	0.29821	0.20726	0.13995	0.11773	-4.3313	-3.8312	-4.5083	-4.625	-3.8708	-4.7896	-4.1979	-4.2208	-4.7083	-3.6	-4.6	-4.5667	-3.7458	-4.7688	-4.1104	-4.0938	221.704	95.650	170.669	183.588	302.930	276.027	303.605	266.615	292.229	250.221	318.581	284.218	320.558	-23.312	39.996	251.904	0.00015613	0.00032675	0.00010504	1421.6	3.0163e-06	3.9269e-06	1412.5	374.16	1.5338e-06	2.7194e-06	429.26	142.85	124.7	42.983	2.9991e-06	53.095	5.3423e-05	4.9054e-05	1.3344e-05	1368	5.4275e-07	5.1698e-07	1358.2	358.27	5.4399e-07	5.3173e-07	400.81	134.95	116.54	40.191	5.5115e-07	48.973	191.089	9.398	0.948	-12.148	102.636	124.375	-12.153	-7.323	127.128	87.189	-7.929	-2.901	-2.588	1.372	106.447	0.724	-8191	255	
44300.488	1	1	0	0	0.12385	0.019652	0.14738	0.081416	0.10486	0.22815	0.22151	0.14194	0.26053	0.030476	0.28774	0.15805	0.096367	0.18809	0.23762	0.064518	-4.4021	-3.8104	-4.3083	-4.65	-3.7354	-4.6583	-4.3833	-4.0188	-4.7458	-3.9562	-4.3229	-4.7604	-3.8667	-4.7479	-4.1042	-3.9667	15.073	313.110	260.553	243.217	251.427	166.788	309.214	-3.138	281.781	255.064	285.518	-3.810	53.001	193.349	97.788	152.404	0.00020947	0.00033189	0.00016706	1419.8	1.4071e-06	1.3914e-06	1418.4	374.83	3.948e-06	5.7892e-06	428.8	143.49	124.16	42.904	3.3961e-06	53.203	5.4293e-05	4.8461e-05	1.3237e-05	1367.6	5.408e-07	5.2494e-07	1360	358.69	5.3365e-07	5.2289e-07	400.26	135.03	116.34	40.177	5.2998e-07	49.098	187.312	56.886	27.327	-12.273	56.555	107.658	-12.128	-7.316	133.101	80.170	-8.206	-3.153	-2.725	1.544	87.737	0.834	-8191	255	
44300.586	1	1	0	0	0.095459	0.17166	0.13208	0.099163	0.082087	0.1887	0.26235	0.24067	0.11987	0.15954	0.18965	0.50421	0.23129	0.29319	0.052286	0.13734	-4.4437	-4.0167	-4.3688	-4.9062	-3.7333	-4.5938	-4.5479	-4.1396	-4.7229	-4.0167	-4.2854	-4.6687	-3.925	-4.6813	-4.2917	-3.9708	92.967	198.973	272.723	263.945	152.135	329.411	198.597	322.080	211.618	152.153	319.470	323.804	313.751	321.530	15.674	235.792	0.00017853	0.00029916	0.00017784	1416.9	3.77e-06	2.7563e-06	1416.3	375.29	4.466e-06	2.2288e-06	430.24	143.11	124.31	43.259	3.8642e-06	53.834	5.4136e-05	4.7917e-05	1.3356e-05	1367.5	5.5177e-07	5.1812e-07	1358.1	358.36	5.4464e-07	5.2961e-07	400.67	135.05	116.67	40.251	5.3084e-07	49.222	200.383	50.977	29.181	-12.163	140.408	119.924	-12.030	-7.398	209.805	101.347	-8.353	-3.062	-2.805	1.550	85.018	0.990	-8191	255	
44300.680	1	1	0	0	0.11072	0.15461	0.16156	0.16622	0.037875	0.1917	0.31194	0.18423	0.027323	0.12374	0.1419	0.2225	0.11447	0.098439	0.0084226	0.21459	-4.5729	-3.8396	-3.9417	-4.8271	-3.8458	-4.4688	-4.6229	-3.9833	-4.7375	-4.1896	-4.1188	-4.7479	-3.9958	-4.4479	-4.5833	-3.9938	327.024	234.069	123.257	305.939	13.218	121.390	269.943	11.096	310.733	57.949	257.328	12.403	184.540	124.634	112.384	37.915	0.00021017	0.00046899	0.00015381	1421.8	1.4102e-07	3.3644e-06	1416.8	374.61	3.3991e-06	1.2262e-06	430.19	143.08	124.4	43.337	4.7686e-06	53.308	5.4576e-05	4.8541e-05	1.3554e-05	1370.3	5.5673e-07	5.2101e-07	1360.3	358.21	5.4234e-07	5.2964e-07	401.03	134.96	116.59	40.242	5.317e-07	49.019	192.421	32.084	27.368	-12.106	73.317	98.221	-11.796	-7.526	153.462	133.578	-7.847	-3.321	-2.718	1.449	86.628	0.521	-8191	255	
44300.801	1	1	0	0	0.076725	0.14975	0.13412	0.1836	0.19452	0.17608	0.41894	0.13235	0.18301	0.078758	0.050633	0.22973	0.23124	0.13528	0.09709	0.19157	-4.1562	-4.0396	-3.9479	-5	-3.8688	-4.4125	-4.8812	-3.8	-4.6583	-4.3938	-4.0625	-5.1375	-3.975	-4.1729	-4.6188	-3.7667	197.384	126.059	47.262	304.286	324.201	277.259	299.680	49.142	45.645	197.404	297.448	315.963	-1.732	219.132	27.109	330.664	0.00020501	0.00033401	0.0001125	1422.9	4.4432e-06	5.2368e-06	1414	375.1	2.7217e-06	2.717e-06	428.49	143.3	124.3	43.067	3.3457e-06	53.188	5.3899e-05	4.7787e-05	1.3243e-05	1369.8	5.5477e-07	5.2104e-07	1359.3	358.49	5.4548e-07	5.3176e-07	400.69	135.08	116.58	40.27	5.3279e-07	49.05	183.636	22.835	46.394	-12.071	114.015	110.393	-11.902	-7.328	175.977	92.037	-7.797	-3.076	-2.702	1.338	96.097	0.923	-8191	255	
44300.895	1	1	0	0	0.21597	0.0826	0.24777	0.21238	0.14737	0.067309	0.18127	0.31331	0.14017	0.14896	0.064139	0.28387	0.089283	0.17629	0.036789	0.21043	-4.375	-4.3854	-3.8438	-5.1562	-4.0271	-4.1188	-4.8063	-3.9604	-4.5229	-4.4125	-3.8042	-4.8292	-4.2688	-4.0875	-4.7646	-3.9479	160.498	88.872	2.992	275.548	88.420	37.937	260.916	275.845	242.857	32.618	-15.368	290.007	46.610	283.143	72.861	312.512	0.00018391	0.00028064	5.4173e-05	1421.6	3.2333e-06	4.4496e-06	1414.2	373.93	3.9437e-06	2.5611e-06	428.07	143.11	124.71	43.1	2.2939e-06	53.355	5.5668e-05	4.7482e-05	1.3663e-05	1368.2	5.5023e-07	5.3574e-07	1358.8	358.24	5.4848e-07	5.2676e-07	400.6	134.98	116.57	40.2	5.354e-07	49.168	192.357	38.891	25.012	-12.126	116.677	102.329	-11.884	-7.343	168.330	99.815	-8.025	-3.348	-2.397	1.454	132.193	0.638	-8191	255	
44300.992	1	1	0	0	0.050314	0.11496	0.22067	0.14751	0.15588	0.15346	0.26471	0.11691	0.091897	0.086014	0.19797	0.15946	0.10513	0.17625	0.1498	0.23465	-4.2583	-4.425	-3.8021	-4.8833	-4.1	-3.9583	-4.8521	-3.9667	-4.2792	-4.5167	-3.9125	-4.7771	-4.2812	-3.9458	-4.7646	-3.9917	21.778	161.357	127.080	307.519	102.939	138.938	263.759	288.231	19.415	275.268	285.183	44.774	-10.658	-20.269	26.389	310.967	0.00021606	0.00037937	0.00011701	1423.6	4.3432e-06	3.1395e-06	1414.8	375.14	4.513e-06	3.006e-06	428.25	143.41	125.17	43.179	4.1897e-06	53.004	5.4918e-05	4.8939e-05	1.3483e-05	1369.5	5.4822e-07	5.2908e-07	1359.7	358.28	5.494e-07	5.1351e-07	400.65	135.23	116.64	40.276	5.2507e-07	49.109	194.262	30.921	9.493	-12.200	121.787	115.337	-11.927	-7.086	136.825	71.579	-8.161	-3.087	-2.819	1.178	96.489	0.709	-8191	255	
44301.090	1	1	0	0	0.1229	0.11436	0.26867	0.21761	0.23313	0.13803	0.20427	0.24116	0.059605	0.10655	0.21467	0.18692	0.27382	0.087913	0.15526	0.183	-4.1	-4.5875	-3.8979	-4.9083	-4.2458	-4.0062	-5.0521	-3.95	-4.2042	-4.6604	-3.9083	-4.6958	-4.4167	-4.1042	-4.8167	-4.1208	123.742	102.687	170.366	5.391	317.051	11.272	216.329	244.253	328.454	334.501	307.020	206.983	317.145	42.376	183.470	11.503	0.00020852	0.00044024	0.00018624	1421.8	4.282e-06	2.6239e-06	1419.1	375.71	3.9593e-06	4.0709e-06	429.22	143	124.74	43.165	3.6528e-06	53.136	5.3872e-05	4.8522e-05	1.3595e-05	1369.3	5.5799e-07	5.2846e-07	1361.6	358.99	5.4425e-07	5.1931e-07	400.73	135.11	116.85	40.234	5.3882e-07	49.097	204.670	23.218	21.383	-12.258	116.474	92.845	-11.856	-7.258	154.646	104.926	-8.051	-3.080	-2.549	1.534	118.215	0.631	-8191	255	
44301.207	1	1	0	0	0.15565	0.10775	0.13603	0.30573	0.0045084	0.13454	0.33118	0.064266	0.11009	0.14239	0.068808	0.070213	0.29139	0.20523	0.26518	0.029956	-3.8417	-4.7417	-3.8833	-4.5083	-4.425	-3.8417	-4.9917	-4.15	-4.1771	-4.8688	-3.9688	-4.5625	-4.5229	-3.7625	-4.8104	-4.1771	46.472	297.210	149.439	243.000	-2.090	180.404	249.384	110.858	127.126	123.702	108.122	-15.762	-21.496	258.262	32.210	271.406	0.00020335	0.00025965	0.0001147	1422.5	2.5602e-06	3.517e-06	1413.7	375.39	3.4213e-06	3.8284e-06	428.9	142.56	125.35	43.174	2.5089e-06	53.035	5.4473e-05	4.8314e-05	1.3547e-05	1368.5	5.4711e-07	5.1833e-07	1360.2	358.76	5.3985e-07	5.3101e-07	400.51	134.98	116.74	40.25	5.3658e-07	49.019	188.601	19.378	43.663	-12.202	78.888	115.066	-11.824	-7.260	141.099	75.500	-7.988	-3.392	-2.543	1.209	93.116	0.933	-8191	255	
44301.281	1	1	0	0	0.19505	0.027939	0.10359	0.11729	0.1842	0.16159	0.3096	0.29057	0.22396	0.076094	0.2101	0.10526	0.20672	0.073791	0.15937	0.39222	-3.7042	-4.5979	-3.8083	-4.4792	-4.575	-3.7021	-5.0021	-4.3021	-3.9208	-4.8042	-4.0708	-4.5062	-4.6479	-3.8375	-4.6646	-4.3	37.148	121.271	286.594	212.738	312.652	178.020	272.063	300.076	146.730	159.170	279.456	192.880	263.347	182.136	165.093	296.829	0.00021791	0.00028975	1.7712e-05	1424.3	2.6158e-06	4.074e-06	1418	374.89	4.2719e-06	3.4501e-06	430.91	143.17	123.86	43.35	2.5299e-06	53.246	5.5247e-05	4.7856e-05	1.3471e-05	1370.3	5.3978e-07	5.2638e-07	1361.8	358.47	5.4744e-07	5.1437e-07	400.73	134.93	116.36	40.216	5.3409e-07	49.029	191.633	60.451	54.309	-12.119	91.566	129.538	-11.989	-7.282	153.423	60.736	-7.929	-3.355	-2.220	1.426	134.973	1.099	-8191	255	
44301.375	1	1	0	0	0.23961	0.10185	0.057116	0.24191	0.078738	0.18393	0.1951	0.084046	0.21295	0.19059	0.20782	0.22409	0.11332	0.13514	0.028184	0.24963	-3.5312	-4.7167	-3.9479	-4.3438	-4.6375	-4.0125	-4.7812	-4.5833	-3.7854	-4.7562	-4.2083	-4.4667	-4.9604	-3.9	-4.4729	-4.4625	243.297	128.080	202.206	22.292	-7.236	265.837	242.358	157.732	171.134	53.187	224.614	296.073	304.534	311.617	141.450	322.043	0.00023086	0.00026057	6.9931e-05	1420.6	2.9328e-06	5.2473e-06	1413.6	374.94	4.1064e-06	3.2715e-06	429.65	142.76	125.05	43.135	5.6142e-07	53.318	5.4515e-05	4.7762e-05	1.33e-05	1369.3	5.4e-07	5.2746e-07	1358.8	358.74	5.4731e-07	5.201e-07	400.32	134.96	116.76	40.207	5.3601e-07	49.115	195.125	9.921	-12.443	-12.095	138.046	106.761	-12.057	-7.286	117.821	68.207	-8.058	-3.100	-2.355	1.338	27.311	1.029	-8191	255	
44301.473	1	1	0	0	0.36946	0.15035	0.17615	0.16818	0.20779	0.18034	0.37571	0.16764	0.15196	0.13915	0.23349	0.15898	0.19919	0.20261	0.17732	0.15347	-3.3646	-4.7542	-4.0542	-4.1292	-4.6562	-3.8292	-4.5146	-4.7146	-3.8563	-4.7292	-4.4104	-4.1062	-4.9458	-4.0229	-4.3208	-4.8042	183.118	158.731	249.730	117.679	4.700	237.180	270.414	331.904	54.858	182.350	262.935	325.238	252.893	16.473	320.964	231.115	0.00021572	0.00015081	0.00010974	1423.9	4.356e-06	2.504e-06	1410	374.62	3.8696e-06	1.6754e-06	427.56	143.1	124.21	43.119	2.2822e-06	53.362	5.4333e-05	4.6877e-05	1.3445e-05	1370	5.411e-07	5.4275e-07	1359.3	358.55	5.5034e-07	5.2195e-07	400.17	135.11	116.58	40.193	5.3356e-07	49.097	193.039	19.117	2.679	-12.185	117.739	88.401	-11.818	-7.215	153.030	73.608	-7.972	-3.164	-2.575	1.533	94.969	0.800	-8191	255	
44301.594	1	1	0	0	0.18439	0.14903	0.2132	0.20065	0.13446	0.035576	0.072568	0.19822	0.25035	0.014022	0.082423	0.17515	0.045674	0.30226	0.064663	0.089932	-3.5187	-4.6708	-4.3292	-4.2396	-4.6771	-3.8021	-4.5708	-4.7646	-3.7354	-4.6208	-4.4062	-4	-4.9042	-4.0563	-4.2208	-4.7271	-10.086	325.281	307.640	267.409	205.265	211.730	177.860	291.020	175.660	114.883	320.780	188.011	285.577	268.580	47.955	260.919	0.00023494	0.00019221	6.4133e-05	1421.7	3.3379e-06	2.6167e-06	1418.6	374.8	2.9476e-06	3.8327e-06	429.2	142.55	124.89	43.127	2.7993e-06	53.287	5.5433e-05	4.7468e-05	1.315e-05	1369.7	5.3547e-07	5.2614e-07	1359.4	358.53	5.3639e-07	5.1701e-07	400.57	134.98	116.79	40.233	5.2629e-07	49.125	198.164	44.668	13.160	-12.167	143.183	110.555	-11.981	-7.192	142.458	104.807	-8.268	-3.379	-2.670	1.661	97.663	1.001	-8191	255	
44301.688	1	1	0	0	0.27105	0.062508	0.25548	0.36776	0.11441	0.06661	0.070205	0.17416	0.08057	0.039936	0.12982	0.26476	0.17757	0.11385	0.12844	0.17659	-3.4604	-4.5042	-4.4833	-4.0687	-4.8083	-4.1896	-4.3688	-4.8375	-3.7375	-4.6167	-4.5667	-4.0333	-4.9333	-4.0979	-4.1875	-4.9292	251.463	207.330	130.447	312.951	62.673	162.672	329.395	314.327	11.462	108.354	108.631	279.163	18.848	19.087	305.059	201.924	0.00019703	0.00025053	0.00012029	1420	3.8209e-06	3.7205e-06	1416.1	374.31	5.2951e-06	8.5902e-07	428.78	143.08	125.11	42.949	3.4407e-06	53.663	5.5417e-05	4.7651e-05	1.3237e-05	1368.5	5.3537e-07	5.1938e-07	1360.2	358.51	5.3976e-07	5.0816e-07	400.21	134.98	116.69	40.19	5.3288e-07	49.111	192.543	35.895	34.335	-12.201	119.495	113.368	-12.064	-7.165	154.013	75.418	-7.692	-2.980	-2.744	1.455	102.267	0.954	-8191	255	
44301.785	1	1	0	0	0.2067	0.093275	0.22734	0.16964	0.1397	0.30179	0.2849	0.25762	0.10495	0.33052	0.1982	0.22706	0.17406	0.10995	0.15375	0.095051	-3.6292	-4.4542	-4.6208	-3.9479	-4.6604	-4.2375	-4.3479	-5.0208	-3.9771	-4.3708	-4.7833	-3.8396	-4.7354	-4.3625	-3.9625	-4.8083	32.446	-10.221	17.303	316.234	21.810	13.838	264.806	-24.032	88.112	230.935	289.148	311.326	211.978	318.526	93.655	124.758	0.0001899	0.00028679	0.00010879	1418.7	4.1153e-06	3.2566e-06	1411	376.1	3.3902e-06	2.5756e-06	428.1	142.63	124.88	42.917	3.1319e-06	53.425	5.4071e-05	4.7066e-05	1.3337e-05	1368.7	5.2901e-07	5.2328e-07	1357.8	358.49	5.512e-07	5.1114e-07	400.02	134.75	116.61	40.092	5.3779e-07	49.041	198.936	58.214	46.929	-12.202	95.052	106.177	-11.978	-7.235	129.830	103.608	-7.909	-3.004	-2.790	1.735	111.175	0.925	-8191	255	
44301.883	1	1	0	0	0.23021	0.26162	0.17403	0.083446	0.17152	0.11093	0.11326	0.20212	0.089764	0.15996	0.15031	0.22852	0.17084	0.14756	0.023893	0.040901	-3.7188	-4.3	-4.6104	-3.9583	-4.5396	-4.3333	-4.1604	-4.9187	-4.1	-4.1813	-4.6771	-3.7313	-4.5938	-4.6875	-3.7083	-4.9354	223.313	178.437	-22.584	297.511	316.939	6.938	304.754	308.186	42.007	262.123	210.058	176.506	298.980	263.155	36.771	-20.309	0.00019888	0.00029584	0.00020874	1425.3	3.4018e-06	2.891e-06	1410.7	374.73	2.5242e-06	2.4491e-06	429.12	143.04	125.5	43.136	3.0924e-06	53.39	5.3933e-05	4.7616e-05	1.3218e-05	1368.4	5.5608e-07	5.1525e-07	1359.3	358.81	5.4111e-07	5.219e-07	400.51	134.94	116.76	40.14	5.4316e-07	49.004	192.756	25.999	33.660	-12.274	94.314	154.076	-12.059	-7.362	95.039	74.957	-7.977	-3.063	-2.732	1.652	107.120	0.929	-8191	255	
44301.977	1	1	0	0	0.065614	0.10911	0.12865	0.13015	0.19929	0.052389	0.25629	0.071068	0.26997	0.41312	0.081078	0.23099	0.091263	0.20332	0.20056	0.13155	-3.8438	-4.0938	-4.5396	-4.1062	-4.4542	-4.4667	-3.9583	-4.9563	-4.1354	-4.0979	-4.8063	-4.0271	-4.5354	-4.6646	-3.5917	-4.6896	219.234	22.091	277.096	297.205	174.346	75.731	289.657	-0.228	162.501	118.896	-24.304	306.404	47.342	25.361	-7.699	262.172	0.00020439	0.00032049	0.00011656	1419.1	3.0292e-06	3.4547e-06	1413.4	373.61	1.058e-06	3.0389e-06	426.64	142.88	124.7	43.152	4.4502e-06	53.12	5.4318e-05	4.7556e-05	1.3022e-05	1366.1	5.4941e-07	5.1235e-07	1358	358.25	5.4566e-07	5.1399e-07	400.03	134.76	116.51	40.19	5.2972e-07	49.021	190.891	41.343	4.527	-12.218	88.251	107.173	-11.957	-7.097	134.744	94.366	-7.712	-3.241	-2.712	1.430	114.750	0.830	-8191	255	
#DATA ENDS
