BOXY.EXE: ISS Imagent and Oximeter Data Acquisition Program Version 0.80
Ascii Record File

#ACQ INFORMATION
2  Detector Channels 
16  External MUX Channels 
1  Auxiliary Channels 
5000  Waveform (CCF) Frequency (Hz)
1  Waveforms Skipped 
30  Waveforms Averaged 
1  Cycles Averaged 
16  Acquisitions per Waveform 
10.0806  Updata Rate (Hz) 

#FILE INFORMATION
TRUE -- External MUX Channel results are PARSED.
FALSE -- AC DC and Phase are NOT grouped.
TRUE -- Companion Program Settings File CREATED.
FALSE -- AC data not excluded
FALSE -- DC data not excluded
FALSE -- Phase data not excluded
FALSE -- Auxillary Chn. data not excluded
Tab delimiters

#CALIBRATION STATE
TRUE -- Waveform Calibration Values APPLIED.


#AUX CALIBRATION VALUES
Val Type	aux-1	

Term	1.0000e+00	
Factor	0.0000e+00	


#WF CALIBRATION VALUES
A = Detector Channel
Val Type	A-AC1	A-AC2	A-AC3	A-AC4	A-AC5	A-AC6	A-AC7	A-AC8	A-AC9	A-AC10	A-AC11	A-AC12	A-AC13	A-AC14	A-AC15	A-AC16	A-DC1	A-DC2	A-DC3	A-DC4	A-DC5	A-DC6	A-DC7	A-DC8	A-DC9	A-DC10	A-DC11	A-DC12	A-DC13	A-DC14	A-DC15	A-DC16	A-Ph1	A-Ph2	A-Ph3	A-Ph4	A-Ph5	A-Ph6	A-Ph7	A-Ph8	A-Ph9	A-Ph10	A-Ph11	A-Ph12	A-Ph13	A-Ph14	A-Ph15	A-Ph16	

Term	0.00000e+00	0.00000e+00	0.00000e+00	0.00000e+00	0.00000e+00	0.00000e+00	0.00000e+00	0.00000e+00	0.00000e+00	0.00000e+00	0.00000e+00	0.00000e+00	0.00000e+00	0.00000e+00	0.00000e+00	0.00000e+00	0.00000e+00	0.00000e+00	0.00000e+00	0.00000e+00	0.00000e+00	0.00000e+00	0.00000e+00	0.00000e+00	0.00000e+00	0.00000e+00	0.00000e+00	0.00000e+00	0.00000e+00	0.00000e+00	0.00000e+00	0.00000e+00	0.00000e+00	0.00000e+00	0.00000e+00	0.00000e+00	0.00000e+00	0.00000e+00	0.00000e+00	0.00000e+00	0.00000e+00	0.00000e+00	0.00000e+00	0.00000e+00	0.00000e+00	0.00000e+00	0.00000e+00	0.00000e+00	
Factor	1.00000e+00	1.00000e+00	1.00000e+00	1.00000e+00	1.00000e+00	1.00000e+00	1.00000e+00	1.00000e+00	1.00000e+00	1.00000e+00	1.00000e+00	1.00000e+00	1.00000e+00	1.00000e+00	1.00000e+00	1.00000e+00	1.00000e+00	1.00000e+00	1.00000e+00	1.00000e+00	1.00000e+00	1.00000e+00	1.00000e+00	1.00000e+00	1.00000e+00	1.00000e+00	1.00000e+00	1.00000e+00	1.00000e+00	1.00000e+00	1.00000e+00	1.00000e+00	X	X	X	X	X	X	X	X	X	X	X	X	X	X	X	X	

B = Detector Channel
Val Type	B-AC1	B-AC2	B-AC3	B-AC4	B-AC5	B-AC6	B-AC7	B-AC8	B-AC9	B-AC10	B-AC11	B-AC12	B-AC13	B-AC14	B-AC15	B-AC16	B-DC1	B-DC2	B-DC3	B-DC4	B-DC5	B-DC6	B-DC7	B-DC8	B-DC9	B-DC10	B-DC11	B-DC12	B-DC13	B-DC14	B-DC15	B-DC16	B-Ph1	B-Ph2	B-Ph3	B-Ph4	B-Ph5	B-Ph6	B-Ph7	B-Ph8	B-Ph9	B-Ph10	B-Ph11	B-Ph12	B-Ph13	B-Ph14	B-Ph15	B-Ph16	

Term	0.00000e+00	0.00000e+00	0.00000e+00	0.00000e+00	0.00000e+00	0.00000e+00	0.00000e+00	0.00000e+00	0.00000e+00	0.00000e+00	0.00000e+00	0.00000e+00	0.00000e+00	0.00000e+00	0.00000e+00	0.00000e+00	0.00000e+00	0.00000e+00	0.00000e+00	0.00000e+00	0.00000e+00	0.00000e+00	0.00000e+00	0.00000e+00	0.00000e+00	0.00000e+00	0.00000e+00	0.00000e+00	0.00000e+00	0.00000e+00	0.00000e+00	0.00000e+00	2.30140e+01	-1.20181e+02	-1.19907e+02	-1.83653e+02	-6.30298e+01	-5.18358e+01	-1.58195e+02	-1.62015e+02	-5.19289e+01	-7.20987e+01	-1.70726e+02	-1.70915e+02	-1.78976e+02	-1.76655e+02	-6.37239e+01	-1.49757e+02	
Factor	5.08546e-05	1.47758e-04	3.78023e-05	1.55087e-01	1.88521e-06	1.77159e-06	1.71671e-01	5.62650e-02	2.22537e-06	1.53002e-06	9.34834e-02	3.14727e-02	2.91465e-02	9.72571e-03	2.02248e-06	1.39640e-02	4.02956e-06	4.41231e-06	1.22925e-06	7.62458e-02	4.73918e-08	4.85632e-08	7.91440e-02	2.76715e-02	4.75700e-08	4.85441e-08	4.45230e-02	1.49399e-02	1.44346e-02	4.81122e-03	4.80407e-08	6.69290e-03	X	X	X	X	X	X	X	X	X	X	X	X	X	X	X	X	



#DISTANCE SETTINGS
A = Detector Channel
A-1	A-2	A-3	A-4	A-5	A-6	A-7	A-8	A-9	A-10	A-11	A-12	A-13	A-14	A-15	A-16	

2.5000e+00	3.0000e+00	2.5000e+00	3.0000e+00	2.0000e+00	3.0000e+00	1.5000e+00	3.0000e+00	3.0000e+00	3.0000e+00	3.0000e+00	3.0000e+00	3.0000e+00	3.0000e+00	1.5000e+00	3.0000e+00	

B = Detector Channel
B-1	B-2	B-3	B-4	B-5	B-6	B-7	B-8	B-9	B-10	B-11	B-12	B-13	B-14	B-15	B-16	

1.0000e+01	1.0000e+01	1.0000e+01	1.4400e+00	1.0000e+01	1.0000e+01	1.5100e+00	1.9400e+00	1.0000e+01	1.0000e+01	1.9900e+00	2.4900e+00	2.4100e+00	2.9000e+00	1.0000e+01	2.9800e+00	




#DATA BEGINS
time	group	step	mark	flag	A-AC1	A-AC2	A-AC3	A-AC4	A-AC5	A-AC6	A-AC7	A-AC8	A-AC9	A-AC10	A-AC11	A-AC12	A-AC13	A-AC14	A-AC15	A-AC16	A-DC1	A-DC2	A-DC3	A-DC4	A-DC5	A-DC6	A-DC7	A-DC8	A-DC9	A-DC10	A-DC11	A-DC12	A-DC13	A-DC14	A-DC15	A-DC16	A-Ph1	A-Ph2	A-Ph3	A-Ph4	A-Ph5	A-Ph6	A-Ph7	A-Ph8	A-Ph9	A-Ph10	A-Ph11	A-Ph12	A-Ph13	A-Ph14	A-Ph15	A-Ph16	B-AC1	B-AC2	B-AC3	B-AC4	B-AC5	B-AC6	B-AC7	B-AC8	B-AC9	B-AC10	B-AC11	B-AC12	B-AC13	B-AC14	B-AC15	B-AC16	B-DC1	B-DC2	B-DC3	B-DC4	B-DC5	B-DC6	B-DC7	B-DC8	B-DC9	B-DC10	B-DC11	B-DC12	B-DC13	B-DC14	B-DC15	B-DC16	B-Ph1	B-Ph2	B-Ph3	B-Ph4	B-Ph5	B-Ph6	B-Ph7	B-Ph8	B-Ph9	B-Ph10	B-Ph11	B-Ph12	B-Ph13	B-Ph14	B-Ph15	B-Ph16	aux-1	digaux	

30026.369	1	1	0	256	0.25448	0.35113	0.10928	0.14403	0.13895	0.06594	0.051797	0.089851	0.22489	0.29417	0.12874	0.13931	0.22663	0.16121	0.14528	0.13236	-4.0125	-4.5354	-4.8938	-4.2125	-4.7833	-4.4083	-4.2583	-4.9875	-4.1188	-4.5292	-5.025	-4.1937	-4.9187	-4.5687	-4.1229	-5.0833	102.484	78.655	-34.803	150.750	20.129	-56.899	195.471	171.158	4.245	-3.560	91.918	-100.157	256.695	257.484	11.730	252.307	0.00061735	0.00095971	0.00023114	793.57	9.7923e-06	3.1883e-06	1022.1	275.89	1.9863e-05	5.9525e-06	362.24	137.3	95.555	41.379	1.4762e-05	66.55	0.0027041	0.0028661	0.00080823	755.23	3.1194e-05	3.1799e-05	962.08	264.84	3.1195e-05	3.1422e-05	351.33	132.72	94.656	40.445	3.1823e-05	63.894	21.717	19.149	-86.051	-87.112	148.293	21.574	-87.984	-82.469	56.403	-32.994	-83.649	-79.705	-77.026	-72.257	153.561	-75.789	-8191	255	
30026.490	1	1	0	0	0.14603	0.086365	0.27221	0.068299	0.26423	0.065279	0.10901	0.06684	0.094711	0.33295	0.16678	0.24241	0.1958	0.037438	0.13766	0.23602	-4.05	-4.2104	-4.925	-4.1125	-4.4812	-4.6354	-4.3146	-5.1	-4.3313	-4.1521	-5.15	-4.3625	-4.7104	-4.95	-3.9458	-5.0979	83.749	-60.466	-40.141	-87.332	-81.659	198.909	140.952	166.438	166.096	243.268	233.482	172.896	-41.345	118.901	138.116	26.575	0.00058145	0.00040125	0.00032076	797.21	1.622e-05	1.0032e-05	1019.7	280.01	1.6182e-05	7.5718e-06	367.41	139.71	95.329	41.572	1.3842e-05	66.873	0.0027082	0.0028955	0.0008128	758.05	3.1374e-05	3.1955e-05	966.46	267.92	3.1905e-05	3.2058e-05	356.01	134.57	95.402	40.726	3.1974e-05	64.765	-25.697	218.901	-89.213	-87.055	31.546	26.680	-87.815	-82.329	33.672	58.564	-83.584	-78.904	-76.843	-72.552	-30.866	-75.530	-8191	255	
30026.562	1	1	0	0	0.10086	0.080453	0.19324	0.053718	0.08758	0.1337	0.32738	0.16955	0.0675	0.060716	0.080877	0.27593	0.24156	0.13871	0.18174	0.27674	-4.2312	-4.1979	-5.0938	-4.1813	-4.5312	-4.9125	-4.05	-5.05	-4.4333	-4.225	-5.2625	-4.2646	-4.4521	-4.9708	-4.0792	-5.1708	6.874	100.078	141.874	35.530	112.126	-98.911	203.606	257.578	-11.201	11.810	177.642	218.101	246.795	258.619	128.031	167.790	0.0005597	0.00065291	0.00014817	795.02	2.374e-05	2.2665e-06	1033.8	281.82	1.584e-05	1.0391e-05	370.6	139.75	95.762	41.818	1.2144e-05	67.539	0.0027443	0.0029375	0.00082498	760.68	3.1506e-05	3.2419e-05	975.25	271.12	3.2139e-05	3.2472e-05	359.23	135.83	95.929	40.939	3.2875e-05	64.67	-51.256	41.967	258.111	-87.160	51.222	211.785	-88.010	-82.369	119.924	15.952	-83.847	-78.975	-77.073	-72.239	136.526	-75.217	-8191	255	
30026.658	1	1	0	0	0.10943	0.051576	0.20464	0.097997	0.06924	0.18229	0.1322	0.048166	0.23849	0.20419	0.20013	0.10078	0.1969	0.052397	0.0384	0.33967	-4.3667	-4.1188	-5.0646	-4.2	-4.3688	-4.9667	-4.2063	-4.8521	-4.7104	-4.0708	-5.1292	-4.3438	-4.3833	-4.9437	-3.9313	-4.675	62.729	223.752	66.836	190.303	29.497	166.426	186.328	105.599	81.818	26.354	-39.694	-13.599	-95.838	213.619	-1.847	218.447	0.00057246	0.00043902	0.00027765	794.26	1.7502e-05	9.911e-06	1023.3	276.44	2.3649e-05	1.7744e-06	357.68	137.6	95.011	40.858	2.3474e-05	65.296	0.0027927	0.0030163	0.00083392	758.72	3.1738e-05	3.3099e-05	966.39	265.28	3.1968e-05	3.2614e-05	349.39	132.91	94.482	40.03	3.2298e-05	63.267	-24.686	149.217	-54.235	-87.294	72.196	191.254	-88.216	-82.222	76.236	38.044	-84.261	-79.329	-77.029	-72.863	32.059	-75.776	-8191	255	
30026.777	1	1	0	0	0.16298	0.053888	0.20577	0.20933	0.026899	0.27575	0.16741	0.14506	0.195	0.23586	0.14414	0.13936	0.16065	0.14446	0.24815	0.17156	-4.5563	-4.1083	-5.0521	-4.4604	-4.1604	-4.9875	-4.2271	-4.5479	-4.7833	-4.1646	-4.9958	-4.4875	-4.1792	-5.0771	-3.9833	-4.6312	-54.508	133.239	148.961	163.096	83.237	92.029	111.445	238.316	49.402	95.071	-61.220	81.682	253.323	104.175	80.035	187.478	0.00084146	0.0010165	0.00047945	784.75	1.0228e-05	3.3741e-06	1015.3	274.52	6.095e-06	2.1091e-05	357.41	136.24	94.92	40.552	9.9833e-06	65.515	0.0027406	0.0029741	0.0008158	750.42	3.1708e-05	3.2435e-05	960.22	263.28	3.2161e-05	3.2543e-05	348.57	132.11	94.164	39.809	3.2115e-05	63.225	-3.054	-35.119	-41.916	-87.202	61.709	-63.821	-87.966	-82.873	71.847	48.852	-83.727	-79.132	-77.562	-72.332	-19.153	-75.560	-8191	255	
30026.873	1	1	0	0	0.18433	0.081086	0.21017	0.19821	0.03788	0.31792	0.18121	0.18545	0.13226	0.038305	0.15374	0.065818	0.24681	0.064527	0.1351	0.058664	-4.4521	-4.0083	-4.8438	-4.5625	-4.0646	-5.1521	-4.3792	-4.5521	-4.9479	-4.0354	-4.9854	-4.65	-4.0646	-5.1229	-4.1375	-4.5729	41.879	234.255	-58.545	213.853	-98.094	112.232	39.299	217.223	165.142	78.336	122.455	177.514	-43.773	150.535	212.214	230.074	0.00078153	0.00034541	0.00021262	790.09	1.2259e-05	5.8252e-06	1016.2	277.34	1.0945e-05	9.5683e-06	360.62	138.03	94.143	40.643	2.0601e-05	66.158	0.0027517	0.0029633	0.0008192	754.18	3.1582e-05	3.2319e-05	960.4	265.49	3.1729e-05	3.2722e-05	349.94	133.27	94.466	40.032	3.2433e-05	63.667	14.342	51.905	20.899	-86.873	54.595	128.628	-88.028	-82.295	-1.230	100.488	-83.667	-79.357	-77.495	-72.458	6.256	-75.804	-8191	255	
30026.971	1	1	0	0	0.065734	0.24225	0.039294	0.26956	0.053087	0.18769	0.16235	0.22687	0.16857	0.26357	0.15087	0.27211	0.25593	0.38016	0.063818	0.055869	-4.6687	-4.0542	-4.8208	-4.8417	-4.0583	-4.8083	-4.5354	-4.3396	-4.8417	-3.9458	-4.8292	-4.8125	-4.0646	-5.0375	-4.5604	-4.3125	44.887	-10.522	170.284	-61.368	-10.589	254.187	175.461	192.958	143.499	155.030	-93.084	229.819	-28.486	250.747	154.624	167.106	0.00064716	0.00089113	0.0002082	794.12	1.5898e-05	1.6421e-05	1026.7	280.75	1.763e-05	2.2789e-05	361	140.51	96.458	41.176	1.9677e-05	66.539	0.0027368	0.002965	0.00082924	757.85	3.2005e-05	3.2549e-05	967.67	267.1	3.2187e-05	3.2946e-05	354.18	134.7	95.716	40.399	3.2693e-05	64.533	1.681	-59.100	-30.232	-87.366	-17.988	42.948	-87.822	-82.466	112.002	-3.666	-83.873	-78.948	-77.314	-72.613	94.763	-75.635	-8191	255	
30027.066	1	1	0	0	0.32783	0.15077	0.14558	0.32487	0.048816	0.0844	0.13327	0.049165	0.11433	0.093755	0.24848	0.18604	0.12606	0.064951	0.041137	0.02349	-4.6562	-4.2812	-4.5854	-4.7688	-4.1687	-4.9604	-4.6229	-4.2875	-4.9792	-4.1729	-4.6896	-5.0896	-4.1042	-4.9	-4.5687	-4.2458	27.306	28.337	126.623	155.491	179.793	161.567	194.108	-50.656	218.324	62.289	243.710	217.133	122.168	162.267	237.886	105.443	0.00025574	0.00089439	0.00051712	798.18	1.2145e-05	1.588e-05	1031.7	280.4	1.1409e-05	8.1344e-06	366.97	139.88	96.048	41.495	5.4938e-06	66.487	0.0027822	0.003007	0.00083222	762.2	3.2249e-05	3.2871e-05	976.78	269.12	3.2321e-05	3.3097e-05	357.07	135.35	95.993	40.356	3.2606e-05	64.173	-17.497	15.931	-46.509	-87.101	67.763	94.217	-88.028	-82.134	-44.751	-10.195	-83.879	-78.912	-76.865	-72.561	16.474	-75.692	-8191	255	
30027.139	1	1	0	0	0.13972	0.096158	0.37593	0.066668	0.069184	0.26103	0.0935	0.21403	0.22122	0.26004	0.23964	0.14109	0.18117	0.10141	0.15682	0.22322	-4.6875	-4.2229	-4.3292	-5.0625	-4.0708	-4.7792	-4.9479	-4.0979	-5	-4.2667	-4.4271	-4.9688	-4.0458	-4.7417	-4.5542	-4.0354	10.685	76.759	-34.299	-97.161	87.070	122.098	143.651	175.443	-35.345	97.600	172.594	232.937	19.589	219.308	92.142	202.726	0.00039018	0.00098117	0.00014701	791.47	1.8922e-05	8.9564e-06	1022.7	274.45	1.264e-05	8.0539e-06	360.63	138.91	94.872	40.79	8.6947e-06	65.6	0.0027857	0.0029934	0.00082967	759.04	3.1781e-05	3.2588e-05	966.39	264.45	3.1908e-05	3.2853e-05	350.65	133.67	94.973	39.862	3.2295e-05	63.517	-23.196	68.863	83.895	-86.735	-27.841	65.702	-87.776	-82.273	143.775	5.153	-83.875	-78.843	-77.038	-72.721	243.680	-75.891	-8191	255	
30027.260	1	1	0	0	0.082986	0.085572	0.087692	0.1087	0.23832	0.194	0.11145	0.1204	0.088646	0.15194	0.202	0.063009	0.057944	0.40775	0.092239	0.36136	-4.75	-4.2625	-4.2312	-5.0521	-4.0479	-4.5458	-4.9583	-4.05	-4.925	-4.3583	-4.4313	-4.9979	-4.0771	-4.6229	-4.6667	-4.1146	0.206	33.039	95.301	-48.207	-78.932	250.445	214.973	239.495	83.352	17.488	254.444	78.429	25.550	256.204	7.377	230.060	0.00039318	0.0011753	0.00045044	795.88	1.9312e-05	1.4693e-05	1025.2	276.29	1.9556e-05	5.0823e-06	363.22	138.51	95.392	41.244	6.8913e-06	66.546	0.0027502	0.0029664	0.00082487	757.97	3.1946e-05	3.2249e-05	967.26	265.54	3.1564e-05	3.2116e-05	352.77	133.97	95.229	40.037	3.2175e-05	63.993	-97.305	59.156	20.862	-87.100	76.080	62.793	-87.940	-82.161	-74.416	120.765	-83.970	-78.963	-77.033	-72.354	220.081	-76.002	-8191	255	
30027.355	1	1	0	0	0.14979	0.071248	0.086881	0.20978	0.059507	0.18105	0.15849	0.25503	0.13151	0.29923	0.089579	0.10847	0.2888	0.099162	0.17504	0.094926	-4.6125	-4.5312	-4.1625	-4.9854	-4.1354	-4.5042	-4.9062	-3.9771	-4.7792	-4.9062	-4.1583	-5.0354	-4.2958	-4.5083	-4.8958	-4.2771	-50.385	-8.689	31.756	225.852	111.366	252.353	183.504	-86.961	46.145	-43.931	18.750	231.549	-42.307	-21.612	-3.777	232.164	0.00034238	0.00063892	0.00038793	793.57	1.953e-05	2.4474e-05	1029.2	279.69	2.2999e-05	3.5902e-06	364.18	139.52	96.205	40.983	1.2613e-05	66.688	0.0027039	0.0029382	0.00081965	760.02	3.1775e-05	3.2273e-05	969.22	267.55	3.1716e-05	3.2696e-05	354.18	134.73	95.483	40.239	3.2267e-05	64.563	40.748	-91.027	-65.572	-87.231	20.760	92.759	-87.822	-82.687	61.606	141.829	-84.199	-79.022	-76.902	-72.282	86.656	-75.650	-8191	255	
30027.451	1	1	0	0	0.087367	0.2404	0.12402	0.11953	0.24116	0.13853	0.32512	0.13008	0.16008	0.126	0.060446	0.31404	0.20393	0.13958	0.033031	0.26245	-4.6312	-4.525	-3.9542	-4.8396	-4.3938	-4.3125	-5.2646	-4.2	-4.6771	-4.6208	-4.0667	-5.0271	-4.475	-4.3063	-5.0458	-4.0521	196.724	125.130	161.066	243.096	247.124	-11.178	223.457	181.592	135.877	110.621	172.677	237.611	235.709	124.489	85.489	160.974	0.00071906	0.00038608	0.00022778	794.97	4.8192e-06	7.2701e-06	1035.7	282.68	1.3636e-05	1.3321e-05	369.22	142.39	97.036	41.566	1.0482e-05	68.223	0.0027298	0.0029773	0.00082649	762.73	3.2052e-05	3.2446e-05	978.51	270.42	3.1621e-05	3.2934e-05	360.55	137.08	96.644	40.626	3.2126e-05	65.549	-23.490	-70.578	226.904	-86.588	28.806	73.745	-87.674	-82.455	-68.949	75.883	-84.035	-79.136	-76.910	-72.863	5.742	-75.852	-8191	255	
30027.570	1	1	0	0	0.39085	0.20242	0.17423	0.042981	0.077331	0.29356	0.28504	0.22467	0.21726	0.13545	0.16945	0.068804	0.16739	0.13263	0.075153	0.12136	-4.3313	-4.7458	-3.8625	-4.8396	-4.3667	-4.1854	-5.0563	-4.2458	-4.3729	-4.7937	-4.0938	-5	-4.6312	-4.2146	-5.1708	-4.2854	129.961	73.469	24.449	-38.412	152.058	7.118	159.235	246.721	243.078	-56.821	-69.857	-48.798	-77.697	-31.053	227.329	239.764	0.0005129	0.00091008	0.00029179	805.35	1.2261e-05	1.4556e-05	1049.1	282.28	1.0175e-05	1.1008e-05	368.19	141.2	96.812	41.139	2.1762e-05	67.163	0.0027533	0.0029847	0.0008316	767.37	3.2043e-05	3.2512e-05	983.61	271.12	3.1702e-05	3.221e-05	358.16	136.52	96.438	40.389	3.1924e-05	64.81	-30.053	7.525	44.108	-87.058	60.925	47.638	-87.745	-82.722	227.413	-64.431	-83.662	-79.435	-77.177	-72.064	-90.432	-75.782	-8191	255	
30027.666	1	1	0	0	0.18742	0.089321	0.14477	0.27705	0.12644	0.1298	0.36635	0.25871	0.18501	0.10069	0.2699	0.17751	0.071235	0.25137	0.20875	0.17358	-4.1312	-4.9833	-4.0958	-4.8792	-4.5417	-4.075	-5.1458	-4.3979	-4.3333	-4.9104	-4.2562	-4.9062	-4.6562	-4.1958	-4.8688	-4.3333	16.573	-3.012	3.113	238.627	-42.905	257.142	211.723	219.199	-44.813	-91.108	228.925	229.961	41.937	238.443	226.228	181.598	0.00050305	0.0014993	0.00018547	796.71	3.0668e-06	1.8098e-05	1027.7	276.86	1.1249e-05	7.8239e-06	365.19	140.34	95.981	40.779	6.4847e-06	66.448	0.0027127	0.0029193	0.00082028	760.93	3.1311e-05	3.1809e-05	971.4	266.36	3.0753e-05	3.1633e-05	353.09	134.31	95.164	39.892	3.1317e-05	63.92	-24.259	30.398	88.565	-87.021	33.013	65.732	-87.843	-82.315	147.119	-82.746	-84.352	-78.874	-76.809	-72.459	-21.257	-75.994	-8191	255	
30027.762	1	1	0	0	0.1081	0.11101	0.17371	0.22625	0.017728	0.13744	0.30552	0.1347	0.23421	0.13445	0.072354	0.063542	0.20777	0.1146	0.071414	0.10209	-4.0646	-5.0354	-4.1354	-4.8542	-4.8354	-4.2229	-4.9625	-4.5354	-4.1479	-5.0646	-4.1937	-4.6042	-4.9021	-4.1083	-4.9021	-4.6875	90.517	59.862	101.663	138.088	100.085	-45.238	151.031	256.881	-25.803	65.714	129.973	16.191	253.877	167.668	79.830	124.599	0.00076161	0.00035113	0.00014165	803.97	1.1308e-05	7.7033e-06	1034.1	277.75	1.9708e-05	9.4184e-06	361.89	140.24	96.313	40.955	8.3334e-06	66.53	0.0026365	0.002858	0.00081363	762.59	3.1046e-05	3.1615e-05	969.27	266.42	3.0922e-05	3.1432e-05	352.42	134.73	95.412	40.017	3.1114e-05	63.926	-4.719	-12.149	84.161	-87.223	-77.040	-19.690	-87.782	-82.508	2.518	59.940	-83.749	-78.991	-77.033	-72.824	62.055	-76.051	-8191	255	
30027.857	1	1	0	0	0.07547	0.019777	0.058087	0.30429	0.17447	0.094097	0.32073	0.36185	0.23774	0.12455	0.033466	0.27225	0.2282	0.043886	0.18906	0.1057	-3.9042	-4.9521	-4.1833	-4.4229	-4.8562	-4.1396	-4.9792	-4.5917	-4.1	-4.925	-4.3104	-4.3896	-5.0083	-4.0271	-4.5958	-4.7271	16.778	162.148	-52.042	-99.649	46.769	-65.828	237.880	135.073	-54.738	-35.524	77.626	217.863	192.118	-13.628	80.836	-80.856	0.0012599	0.00041591	0.00023916	796.74	1.0888e-05	9.9003e-06	1032.7	281.75	1.8246e-05	9.8035e-06	366.13	141.72	96.954	41.388	1.0716e-05	66.903	0.0026795	0.0028961	0.00080985	761.27	3.1151e-05	3.2058e-05	973.56	269.02	3.1106e-05	3.1917e-05	356.15	136.12	96.095	40.315	3.155e-05	64.448	15.800	28.979	42.923	-87.194	100.679	102.662	-88.051	-82.485	141.145	41.507	-84.041	-79.128	-77.027	-72.566	160.237	-75.854	-8191	255	
30027.953	1	1	0	0	0.21523	0.14316	0.13758	0.059188	0.11037	0.13615	0.28249	0.17589	0.10485	0.10755	0.026807	0.071136	0.17555	0.21137	0.21037	0.11425	-3.6688	-4.9625	-4.3104	-4.3417	-4.9292	-4.0417	-4.7667	-4.7896	-3.975	-5.0625	-4.4583	-4.4375	-5.1271	-4.1292	-4.7104	-4.8125	114.115	226.289	-17.474	233.632	55.785	192.049	160.954	152.686	-54.476	156.581	131.531	234.529	-78.882	147.173	-58.023	193.217	0.00077207	0.0011402	8.1085e-05	802.92	1.2951e-06	8.7873e-06	1039.2	282.52	1.8274e-05	5.6893e-06	372.7	142.96	97.803	41.752	1.9211e-05	67.383	0.0027009	0.0028804	0.00081142	766.54	3.1065e-05	3.194e-05	978.61	270.62	3.1806e-05	3.1877e-05	361.57	137.41	97.189	40.647	3.187e-05	65.196	-21.718	-55.993	-61.998	-87.376	111.935	-23.198	-87.835	-82.312	54.757	4.293	-84.360	-79.410	-76.663	-72.522	-14.980	-75.538	-8191	255	
30028.051	1	1	0	0	0.19829	0.23489	0.13624	0.17374	0.12117	0.046065	0.1766	0.11857	0.16709	0.11713	0.25284	0.26637	0.22913	0.17932	0.25489	0.17566	-3.6729	-5.0563	-4.3833	-4.2979	-4.9958	-4.1854	-4.7292	-5.0625	-4.0938	-4.8438	-4.6729	-4.3292	-5.2146	-4.2646	-4.4354	-4.9396	-95.829	-92.687	68.477	97.512	-94.687	229.328	205.014	189.396	21.074	184.310	-38.775	212.079	222.498	-95.172	-93.828	147.506	0.00088388	0.0012163	0.00035741	807.98	6.5631e-06	1.5474e-05	1050.9	283.97	2.1024e-05	3.7686e-06	373.33	141.97	97.789	40.983	1.2542e-05	66.856	0.0027581	0.002973	0.00084235	775.68	3.1816e-05	3.2889e-05	989.45	272.98	3.2277e-05	3.2346e-05	360.91	136.97	97.059	40.38	3.2364e-05	64.584	-5.955	165.816	-7.213	-87.351	93.281	146.737	-87.810	-82.562	8.627	-70.520	-83.997	-78.993	-77.069	-72.570	124.920	-75.380	-8191	255	
30028.172	1	1	0	0	0.01452	0.15695	0.14303	0.20015	0.18239	0.025971	0.11273	0.05328	0.17839	0.13439	0.086131	0.20007	0.12871	0.21617	0.096905	0.23529	-3.6208	-4.8979	-4.6813	-4.1562	-5.025	-4.1583	-4.5333	-5.1208	-4.0333	-4.7625	-4.7333	-4.3104	-5.1438	-4.4042	-4.2229	-4.9208	92.057	14.469	32.145	-82.871	-40.747	147.250	193.062	74.921	198.490	187.278	-27.242	240.721	29.261	216.695	226.743	238.830	0.00033683	0.0010682	5.415e-05	809.97	1.5113e-05	1.1139e-05	1036.9	278.9	1.7572e-05	2.667e-05	362.66	140.49	96.121	41.082	2.2282e-05	66.156	0.0027917	0.0029713	0.00083295	770.32	3.2039e-05	3.2963e-05	977.03	268.75	3.2232e-05	3.2416e-05	353.79	135.36	95.811	40.112	3.2273e-05	64.099	11.967	64.397	-61.890	-87.519	186.860	67.763	-88.229	-82.339	-51.292	62.011	-83.936	-79.011	-77.268	-72.770	63.364	-75.583	-8191	255	
30028.268	1	1	0	0	0.038735	0.28749	0.16457	0.18089	0.10683	0.1891	0.18141	0.26585	0.036374	0.07601	0.12756	0.093456	0.27211	0.30682	0.064976	0.07475	-3.8396	-4.6979	-4.7812	-4.15	-4.9521	-4.1875	-4.3938	-5.1854	-4.2208	-4.5667	-5.0208	-4.2875	-5.0271	-4.6958	-4.2438	-5.0979	192.650	75.328	-77.864	35.816	193.890	208.556	-49.097	-88.983	31.424	152.596	-76.992	-77.617	-39.266	-77.361	96.533	26.593	0.0007455	0.0007235	7.8841e-05	814.33	1.2946e-05	6.4481e-06	1044.7	281.94	6.3397e-06	5.5373e-06	371.86	142.38	97.184	41.37	7.9609e-06	67.199	0.0027942	0.0029817	0.00084327	772.83	3.2207e-05	3.3014e-05	984.15	270.57	3.2524e-05	3.2857e-05	358.54	136.88	96.913	40.418	3.2488e-05	64.61	-6.366	-95.879	-90.649	-87.507	38.013	256.872	-88.364	-82.258	-89.687	79.230	-83.971	-79.300	-77.060	-72.396	94.163	-75.694	-8191	255	
30028.363	1	1	0	0	0.065587	0.16435	0.22085	0.059079	0.10671	0.032544	0.05116	0.13393	0.18305	0.036018	0.060296	0.15944	0.19546	0.21505	0.057444	0.23394	-3.9437	-4.5708	-4.9	-4.1562	-4.8792	-4.5604	-4.3146	-5.0604	-4.1521	-4.4125	-5.2521	-4.0563	-4.7792	-4.7104	-4.2562	-5.1188	154.033	125.967	-11.076	-3.635	-57.499	56.243	177.856	166.598	225.642	230.388	-10.562	171.734	228.211	197.250	253.405	258.838	0.0010334	0.0018062	1.5185e-05	810.32	1.5951e-05	1.1745e-05	1035.9	283.02	1.2841e-06	2.5645e-06	374.01	142.62	97.634	41.446	1.1752e-05	68.167	0.0027743	0.0029429	0.00082331	772.23	3.204e-05	3.2345e-05	981.71	271.08	3.2191e-05	3.2188e-05	361.16	137.38	96.938	40.58	3.2138e-05	65.32	-12.042	-22.756	64.471	-87.373	171.059	98.700	-88.010	-82.341	84.116	254.798	-83.891	-79.536	-77.216	-72.340	-47.745	-75.757	-8191	255	
30028.461	1	1	0	0	0.072177	0.14741	0.18824	0.32906	0.11196	0.15612	0.41115	0.14138	0.073024	0.062771	0.1726	0.10659	0.080336	0.29418	0.18845	0.13257	-4.0792	-4.2708	-4.95	-4.2542	-4.7542	-4.65	-4.2667	-5.1062	-4.4938	-4.3208	-5.1104	-4.175	-4.6583	-4.8125	-3.9875	-4.9625	245.870	225.305	69.321	163.297	138.789	164.503	182.965	202.314	241.336	21.609	238.354	43.155	47.876	213.676	34.061	-47.480	0.0008382	2.6607e-05	0.00034393	811.76	7.9644e-06	6.8461e-06	1051.1	286.03	1.4485e-05	1.1451e-05	376.06	144.06	98.577	41.362	1.6528e-05	67.709	0.0027664	0.0029511	0.00082307	772.85	3.1293e-05	3.2323e-05	987.25	273.53	3.1841e-05	3.2378e-05	363.9	138.72	97.633	40.814	3.2007e-05	65.599	-40.629	74.028	-98.146	-87.588	-75.431	226.244	-87.923	-82.277	7.670	13.144	-83.548	-79.102	-77.058	-72.434	52.122	-75.642	-8191	255	
30028.557	1	1	0	0	0.24948	0.083283	0.086652	0.19614	0.10797	0.091673	0.24999	0.1115	0.061839	0.1489	0.058371	0.047245	0.19954	0.11079	0.072159	0.16496	-4.2438	-4.3125	-5.0167	-4.3812	-4.475	-4.85	-4.3729	-5.025	-4.5229	-4.25	-5.1917	-4.2292	-4.625	-5	-3.9708	-4.8812	41.217	216.551	133.112	-90.482	120.672	69.615	111.145	212.849	84.811	11.876	196.981	167.293	223.063	-58.309	-71.888	155.396	0.0006112	0.00088827	0.00018158	811.06	1.448e-05	1.2302e-05	1043.9	283.27	4.4509e-06	3.9922e-06	367.67	142.14	96.763	41.227	1.7092e-05	66.719	0.0027556	0.0029527	0.00082816	772.6	3.1585e-05	3.2301e-05	984.92	270.61	3.1806e-05	3.1926e-05	357.6	137.52	96.685	40.282	3.185e-05	64.381	-21.829	18.397	-5.970	-87.143	65.819	180.237	-87.890	-82.147	-17.692	-54.914	-83.565	-79.177	-77.192	-72.578	27.952	-75.847	-8191	255	
30028.650	1	1	0	0	0.075989	0.13534	0.040642	0.01308	0.053013	0.1191	0.097663	0.15452	0.095011	0.22261	0.067795	0.13076	0.10709	0.15365	0.02773	0.25193	-4.4042	-4.1625	-5.0042	-4.4417	-4.4708	-5.075	-4.2479	-4.9396	-4.6062	-4.1104	-5.0646	-4.6229	-4.2917	-4.9646	-4.125	-4.8292	72.776	-74.589	3.055	240.490	139.254	47.997	235.091	223.232	183.534	254.119	-41.788	172.004	-65.448	-6.156	222.560	220.767	0.00078694	0.00037058	0.00011933	799.32	7.7624e-06	7.4368e-06	1032.4	278.51	6.882e-06	6.7462e-06	365.99	141.86	96.142	41.056	2.597e-06	66.262	0.0027065	0.0029204	0.00080707	763.43	3.1508e-05	3.1895e-05	970.73	266.52	3.1436e-05	3.2223e-05	352.79	136.15	95.766	39.902	3.1802e-05	63.826	-31.723	207.913	109.190	-86.966	238.701	42.524	-88.242	-82.625	209.028	-22.559	-84.022	-79.195	-77.277	-72.817	137.877	-75.753	-8191	255	
30028.746	1	1	0	0	0.23214	0.26455	0.24132	0.26414	0.093306	0.12053	0.49536	0.16387	0.12274	0.031223	0.15867	0.1431	0.087391	0.11477	0.037697	0.098828	-4.5312	-4.0333	-4.9729	-4.5563	-4.3604	-4.9083	-4.3187	-4.8083	-4.7646	-4.1979	-5.0188	-4.5188	-4.3	-5.2583	-4.2792	-4.7771	-75.924	203.089	253.597	138.701	145.203	-100.241	184.145	247.118	72.313	135.002	223.319	236.573	170.799	184.530	197.186	247.643	0.00051329	0.00060314	0.00012652	801.46	1.1002e-06	1.168e-05	1027.3	276.48	7.4377e-06	1.105e-05	361.52	139.63	95.345	40.059	1.6564e-05	65.211	0.002738	0.0029094	0.00081205	762.32	3.1565e-05	3.243e-05	971.41	265.26	3.1821e-05	3.2099e-05	352.94	134.92	94.801	39.369	3.2363e-05	63.229	24.933	129.347	229.324	-87.110	69.167	-19.016	-88.157	-82.797	18.357	120.428	-83.592	-78.895	-77.239	-72.385	11.760	-75.481	-8191	255	
30028.842	1	1	0	0	0.18696	0.13381	0.16651	0.15086	0.14515	0.069324	0.16908	0.19343	0.12488	0.23878	0.31889	0.055707	0.0967	0.23906	0.15575	0.17174	-4.6687	-4.0667	-4.9333	-4.6229	-4.2333	-4.9646	-4.3167	-4.5	-4.9708	-4.0667	-4.9625	-4.8833	-4.0687	-5.0875	-4.3292	-4.3479	-19.197	-98.887	188.006	137.607	-52.054	13.164	146.908	224.159	245.958	169.850	-51.213	44.172	-74.558	-50.550	235.745	229.077	0.0005144	0.00067298	0.00019393	794.88	1.6982e-05	1.4599e-05	1040	278.19	1.8572e-05	1.8099e-05	367.68	140.93	95.107	40.443	8.6209e-06	66.766	0.0027548	0.0029509	0.00081863	759.89	3.2055e-05	3.2427e-05	979.24	265.94	3.1735e-05	3.2776e-05	356.41	135.95	94.887	39.57	3.2372e-05	63.925	-36.696	-74.562	-75.327	-87.020	-77.206	205.283	-87.942	-82.187	57.875	-11.597	-83.866	-78.956	-76.862	-72.513	185.171	-75.462	-8191	255	
30028.963	1	1	0	0	0.2504	0.17652	0.14695	0.2951	0.08285	0.17401	0.09342	0.20583	0.20811	0.1592	0.023337	0.13261	0.16596	0.20865	0.12021	0.089308	-4.6854	-4.0458	-4.8292	-4.6583	-4.1708	-4.9979	-4.6375	-4.5104	-5.0229	-4.0542	-4.7458	-4.7646	-4.1208	-5.175	-4.4125	-4.5	-91.556	-42.810	-52.598	178.174	22.827	229.739	128.838	229.732	128.816	-9.986	87.613	70.044	34.273	-79.434	184.264	223.949	0.00055449	0.0012891	0.00025276	793.13	5.9956e-06	1.8833e-05	1037.4	277.21	1.9913e-05	7.3111e-06	371.43	142.77	95.972	40.797	3.2696e-06	66.692	0.0027904	0.0029523	0.00081699	759.52	3.1955e-05	3.2464e-05	981.6	266.49	3.18e-05	3.2436e-05	359.92	137.52	95.876	39.782	3.2583e-05	64.35	-6.053	21.155	-81.508	-86.764	-21.322	110.069	-87.881	-82.388	123.710	12.915	-84.044	-79.053	-76.992	-72.429	97.141	-75.504	-8191	255	
30029.035	1	1	0	0	0.1996	0.076815	0.24928	0.11193	0.25102	0.29652	0.080567	0.24122	0.076255	0.10773	0.23175	0.025643	0.12387	0.16449	0.24836	0.13234	-4.6354	-4.1354	-4.475	-4.825	-3.9646	-4.9208	-4.75	-4.2833	-4.9792	-4.1813	-4.6438	-4.9938	-4.1021	-4.8125	-4.4187	-4.0813	122.523	50.043	38.791	252.887	-27.375	139.633	30.258	133.888	37.315	177.736	220.932	119.706	-80.651	241.065	112.890	248.721	0.00039972	0.00047112	9.4018e-05	798.96	1.7002e-05	1.1192e-05	1038.1	274.66	1.8707e-05	8.1549e-06	365.05	139.63	93.757	40.113	1.0089e-05	65.101	0.0027824	0.0030172	0.00082285	761.45	3.1894e-05	3.246e-05	977.59	264.01	3.189e-05	3.2678e-05	354.44	135.44	94.45	39.194	3.2352e-05	63.102	12.567	-40.330	-11.262	-86.982	75.405	31.096	-87.623	-82.494	55.776	22.463	-83.952	-78.812	-77.334	-72.524	-40.445	-75.523	-8191	255	
30029.131	1	1	0	0	0.27488	0.022151	0.18634	0.27715	0.051947	0.20997	0.23579	0.1328	0.1285	0.10243	0.23115	0.22471	0.20172	0.21393	0.15936	0.074097	-4.7917	-4.2	-4.3812	-5.0583	-4.1396	-4.6146	-4.6542	-4.2167	-4.9458	-4.2979	-4.4104	-4.9583	-4.0437	-4.8458	-4.6438	-4.0708	246.497	172.757	-35.530	-83.488	-69.643	40.851	121.158	194.332	7.153	77.292	-80.261	160.733	244.147	157.126	98.498	135.619	0.000892	0.00079548	0.00044591	788.65	2.6468e-05	1.0726e-05	1031.6	272.09	1.9324e-05	3.67e-06	360.74	139.75	94.501	39.797	1.3906e-05	65.393	0.0027079	0.0029167	0.00082129	754.13	3.1453e-05	3.2177e-05	969.67	261.18	3.1532e-05	3.2584e-05	350.06	134.39	93.982	38.963	3.214e-05	62.933	6.900	244.314	8.966	-87.024	-66.197	26.971	-87.834	-82.568	-22.265	207.400	-84.139	-79.061	-77.273	-72.349	211.721	-75.883	-8191	255	
30029.252	1	1	0	0	0.17965	0.24362	0.099681	0.18985	0.11182	0.13861	0.34903	0.070859	0.25901	0.12403	0.12941	0.22895	0.088058	0.1496	0.11833	0.27418	-4.5875	-4.2917	-4.1813	-5.0854	-4.2167	-4.6104	-5.1125	-4.0312	-5.0333	-4.3271	-4.2854	-5.2	-4.1479	-4.5896	-4.7646	-4.0896	-56.812	44.343	-12.838	-98.309	27.594	236.811	239.592	143.068	-24.011	-77.951	-53.769	99.550	238.391	214.722	21.704	86.946	0.00089236	0.00044134	0.00010196	789.57	4.3675e-06	1.5636e-05	1033.2	273.03	1.2636e-05	1.4076e-05	362	140.42	93.715	39.735	4.9961e-06	65.367	0.0027534	0.0029387	0.00082355	753.08	3.1547e-05	3.2211e-05	972.52	262.02	3.1537e-05	3.2357e-05	352.62	135.69	94.131	39.116	3.2328e-05	63.339	-4.310	-77.903	71.142	-86.969	85.100	103.449	-87.812	-82.620	178.973	59.415	-83.944	-78.739	-77.210	-72.624	66.239	-75.848	-8191	255	
30029.348	1	1	0	0	0.061871	0.093487	0.022168	0.24753	0.26086	0.23529	0.22298	0.045597	0.16829	0.18154	0.30829	0.24525	0.22772	0.1442	0.10607	0.17379	-4.5146	-4.5146	-4.2083	-5.1312	-4.3938	-4.5583	-5.2417	-4.125	-5.025	-4.5521	-4.2521	-5.1146	-4.2875	-4.6458	-4.8	-4.0625	69.557	-82.796	138.591	219.717	56.160	-90.339	256.827	155.749	-76.311	248.909	-68.053	132.593	-37.175	179.039	129.017	150.340	0.00062657	0.0012979	0.00032828	795.38	8.199e-06	1.6922e-05	1033.8	275.15	2.8949e-05	1.1094e-05	363.55	141.33	95.128	40.261	3.7938e-06	65.938	0.0027361	0.0029668	0.00082477	758.38	3.1838e-05	3.2471e-05	975.44	263.59	3.1559e-05	3.2696e-05	354.96	136.65	95.071	39.519	3.2203e-05	63.979	-1.981	31.391	0.537	-87.034	180.523	15.461	-88.072	-82.182	-60.857	87.734	-83.468	-79.048	-76.882	-72.650	161.590	-75.409	-8191	255	
30029.443	1	1	0	0	0.14331	0.11367	0.058204	0.20561	0.06802	0.22754	0.055001	0.17829	0.13221	0.13951	0.14012	0.23771	0.19658	0.1447	0.13442	0.13677	-4.6	-4.8	-4.0458	-5.1917	-4.3562	-4.4125	-5.2479	-4.225	-4.5687	-4.8479	-4.025	-4.9646	-4.5938	-4.325	-5.1271	-4.1417	0.392	136.161	-45.719	244.687	186.635	-20.283	46.324	229.676	7.994	69.966	250.121	79.848	234.080	252.420	144.183	182.219	0.00062406	0.00083243	0.00025265	791.82	3.1913e-06	1.4111e-05	1039.5	278.01	8.7989e-06	1.3053e-05	370.24	143.49	95.717	40.593	1.0766e-05	66.562	0.0027509	0.0029723	0.00082551	760.46	3.1969e-05	3.3034e-05	983.72	266.84	3.1809e-05	3.2904e-05	360.27	138.15	95.584	39.603	3.2334e-05	64.139	-10.209	66.227	-90.485	-87.207	254.279	82.039	-88.009	-82.127	73.736	-37.616	-83.779	-79.112	-77.003	-72.668	136.311	-75.727	-8191	255	
30029.539	1	1	0	0	0.18352	0.14506	0.3376	0.10625	0.36449	0.029492	0.25892	0.17595	0.11575	0.03056	0.13001	0.18563	0.072166	0.12129	0.1047	0.076081	-4.4125	-4.8396	-4.0271	-4.9938	-4.45	-4.2708	-5.0104	-4.3604	-4.3875	-4.9604	-4.2958	-5.0875	-4.5792	-4.2896	-5.0521	-4.3729	166.463	-87.384	92.927	164.240	118.797	96.326	192.468	146.481	33.405	226.092	250.688	215.366	242.175	193.570	189.973	-71.119	0.00038261	0.0015916	0.00022789	788.69	8.5876e-06	1.0537e-05	1034.7	274.91	1.7318e-05	9.6357e-06	358.68	140.77	95.204	39.787	2.1458e-05	65.158	0.0027452	0.0029965	0.00082381	756.29	3.2009e-05	3.2771e-05	976.17	262.7	3.1909e-05	3.2255e-05	351	135.6	94.504	39.004	3.1337e-05	62.976	-6.619	-48.063	-52.088	-87.159	-67.413	117.116	-87.820	-82.063	14.485	65.144	-84.056	-78.747	-77.499	-72.493	80.068	-75.877	-8191	255	
30029.660	1	1	0	0	0.039202	0.13619	0.12862	0.052886	0.11636	0.17931	0.3325	0.21673	0.21373	0.020477	0.14736	0.23995	0.025445	0.072383	0.31667	0.12314	-4.0687	-4.8875	-4.0875	-5.0563	-4.6854	-4.1125	-5.0917	-4.3333	-4.2042	-4.8063	-4.1396	-4.8938	-4.8021	-4.3313	-4.9396	-4.5729	120.901	9.190	-30.669	-10.267	209.420	-68.213	198.687	246.591	258.939	-14.413	234.311	174.472	214.285	-44.361	-32.260	170.810	0.00079493	0.0005534	0.00024767	786.55	2.9501e-06	6.315e-06	1029.6	271.32	2.2018e-05	1.6556e-05	357.64	139.95	94.371	39.816	1.4268e-05	65.492	0.0026939	0.0029362	0.00080396	750.88	3.1499e-05	3.193e-05	968.38	260.08	3.0924e-05	3.1771e-05	349.39	134.98	94.013	38.968	3.118e-05	63.04	-25.899	10.210	173.626	-87.017	-10.688	38.664	-88.047	-82.261	85.972	27.097	-83.657	-79.074	-77.063	-72.367	-40.197	-75.367	-8191	255	
30029.730	1	1	0	0	0.38074	0.12449	0.20704	0.26741	0.1782	0.10722	0.11961	0.21196	0.12372	0.054547	0.1521	0.32908	0.22005	0.23601	0.16662	0.045235	-4.0646	-4.9708	-3.9313	-4.8167	-4.6583	-4.0417	-5.0062	-4.5625	-4.2479	-5.0292	-4.1521	-4.6562	-4.9208	-4.1438	-4.8042	-4.55	199.556	216.131	30.206	185.241	62.896	4.881	96.238	231.324	-64.508	226.195	108.067	202.239	-98.428	-43.675	-28.695	222.543	0.00079689	0.0019804	0.00015118	791.74	1.0926e-05	1.9384e-05	1028.4	273.69	2.1926e-05	5.3853e-06	363.22	141.36	95.014	40.269	1.5129e-05	66.817	0.0026687	0.0028413	0.00078829	751.3	3.0657e-05	3.1171e-05	971.67	261.71	3.0494e-05	3.0936e-05	351.71	135.92	94.42	39.38	3.0196e-05	63.991	-10.310	-5.378	-68.051	-87.059	69.749	86.872	-87.954	-82.245	-25.504	51.429	-84.114	-79.228	-77.133	-72.729	155.618	-75.514	-8191	255	
30029.852	1	1	0	0	0.29236	0.18258	0.23763	0.14895	0.030341	0.079818	0.17773	0.21884	0.13686	0.11267	0.15371	0.098591	0.20433	0.043699	0.12653	0.1982	-3.8042	-4.975	-4.2562	-4.5437	-4.9417	-4	-4.9938	-4.775	-4.1875	-5.0062	-4.25	-4.5896	-4.9958	-4.0687	-4.8229	-4.6271	117.869	-80.048	91.866	-82.130	17.424	-5.818	213.766	166.297	232.129	117.115	44.883	232.862	180.592	231.037	-63.032	-96.297	0.00060381	0.0017528	4.1649e-05	789.64	3.6938e-06	1.1782e-05	1042.6	275.66	1.141e-05	2.4696e-06	368.74	143.36	96.693	41.046	1.3153e-05	68.087	0.0026293	0.0028085	0.00078191	753.75	2.9923e-05	3.0782e-05	976.02	263.73	3.0119e-05	3.0205e-05	357.62	137.6	95.669	39.921	2.9803e-05	64.955	-20.289	13.844	184.684	-87.361	-10.191	-34.434	-87.802	-82.310	227.951	-97.715	-83.681	-78.880	-77.138	-72.472	23.788	-75.683	-8191	255	
30029.947	1	1	0	0	0.20992	0.20306	0.15298	0.26438	0.22386	0.13872	0.21151	0.14368	0.11751	0.10599	0.064849	0.11121	0.031422	0.17685	0.23964	0.11348	-3.7708	-5.1396	-4.4292	-4.5625	-5.0792	-4.0792	-4.7021	-4.8708	-4.1354	-4.9271	-4.6208	-4.3938	-5.1333	-4.1625	-4.6083	-4.9021	-79.264	162.784	-41.575	241.052	246.143	-7.342	216.674	-82.354	21.014	250.858	19.178	171.913	168.926	200.428	-44.301	236.503	0.00055699	0.0012345	0.00014318	794.67	1.1599e-05	1.4228e-05	1043	278.68	1.2137e-05	9.7921e-06	373.63	144.62	97.609	40.963	2.2005e-05	67.746	0.0026154	0.0027584	0.0007813	757.45	2.9973e-05	3.0416e-05	982.2	267.04	3.025e-05	3.0913e-05	359.62	139.29	96.468	40.118	3.0428e-05	65.086	26.344	-8.732	183.068	-87.123	62.690	-61.757	-87.978	-82.455	-77.009	-1.308	-84.119	-79.022	-77.118	-72.457	135.569	-75.730	-8191	255	
30030.043	1	1	0	0	0.11215	0.081501	0.15764	0.02708	0.122	0.2962	0.24829	0.25057	0.17366	0.068464	0.20952	0.08994	0.094604	0.10933	0.12461	0.18597	-3.8208	-5.0271	-4.4208	-4.2312	-4.9729	-4.1396	-4.7375	-4.9812	-4.0167	-4.9021	-4.6667	-4.3104	-5.0833	-4.2375	-4.3562	-4.9667	107.976	134.699	67.173	-74.890	220.259	200.174	183.550	213.935	-52.544	149.755	194.106	-74.977	-0.676	-30.036	58.983	-92.288	0.00060048	0.0013503	8.0212e-05	793.72	2.5882e-05	1.5436e-05	1037.6	274.63	1.7021e-05	9.947e-06	359.66	141.55	96.324	40.625	1.0826e-05	66.238	0.0026104	0.0027885	0.00078166	757.97	2.9732e-05	3.0595e-05	971.46	263.4	3.0053e-05	3.0296e-05	349.08	136.27	95.07	39.486	3.0243e-05	63.777	-15.191	-35.872	-37.251	-87.015	108.717	27.595	-87.865	-82.618	153.135	62.526	-83.677	-79.170	-77.210	-72.743	146.619	-75.446	-8191	255	
30030.141	1	1	0	0	0.074692	0.18183	0.1879	0.13693	0.19153	0.099181	0.050061	0.16205	0.026012	0.13006	0.072312	0.13941	0.20867	0.10672	0.08694	0.045246	-3.8354	-4.8292	-4.7167	-4.2708	-5.0292	-4.275	-4.4875	-4.9917	-4.0625	-4.7021	-4.8396	-4.0792	-5.0604	-4.2958	-4.2625	-5.0021	205.796	249.555	53.529	-50.776	213.774	-25.022	-7.348	138.482	94.554	8.511	-45.376	193.561	174.535	-53.903	120.050	-54.847	0.00055934	0.0017472	0.00026395	787.91	9.029e-06	1.2674e-05	1028.9	273.19	1.9905e-05	1.7664e-06	356.84	141.22	95.833	40.346	1.8504e-05	66.28	0.0025849	0.0027367	0.00077683	750.75	2.9665e-05	3.0863e-05	965.46	260.93	3.008e-05	3.0284e-05	347.92	135.63	94.718	39.404	3.0118e-05	63.951	58.143	-61.468	234.935	-87.333	14.566	-4.861	-87.962	-82.480	97.053	36.784	-83.520	-78.928	-77.184	-73.055	89.733	-75.990	-8191	255	
30030.260	1	1	0	0	0.1751	0.1731	0.07285	0.132	0.073555	0.17534	0.17152	0.014146	0.10594	0.13376	0.29369	0.25328	0.16352	0.11513	0.1043	0.23326	-3.8167	-4.75	-4.8104	-4.1771	-5.0271	-4.3938	-4.425	-5.0042	-4.2583	-4.4396	-4.8542	-4.15	-4.9458	-4.5	-4.0854	-5.0458	-2.248	-45.937	216.206	188.134	57.905	128.757	174.549	219.989	-75.733	-11.102	225.768	-96.333	-91.848	98.877	-95.751	227.427	0.00071514	0.0014531	0.00020417	788.63	1.8927e-05	8.1951e-06	1032.2	275.01	1.0113e-05	7.5979e-06	362.68	141.8	96.242	40.491	2.3529e-05	66.371	0.0025726	0.00278	0.00076884	749.68	2.9488e-05	3.0583e-05	965.22	262.25	2.9816e-05	3.0369e-05	351.09	136.52	95.175	39.68	3.0001e-05	63.95	-26.631	48.271	98.043	-86.957	148.862	61.983	-88.006	-82.161	174.548	45.874	-83.455	-79.345	-77.381	-72.585	-72.227	-75.634	-8191	255	
30030.332	1	1	0	0	0.073509	0.23779	0.17712	0.12835	0.24228	0.098673	0.18694	0.084443	0.06755	0.093873	0.18339	0.18288	0.1483	0.10167	0.2286	0.33274	-3.8792	-4.4125	-4.8917	-4.125	-4.9688	-4.4771	-4.2188	-5.0583	-4.2312	-4.4229	-5.1292	-4.0104	-4.9979	-4.7417	-4.0687	-5.0917	94.226	77.186	50.288	20.083	115.812	77.108	204.576	219.814	55.983	141.909	214.844	163.730	242.707	220.393	-81.005	206.667	0.00048557	0.00038946	0.00014157	790.6	1.9849e-05	7.3355e-06	1026.2	274	1.4821e-05	1.1121e-05	365.66	143.03	97.128	40.647	8.8518e-06	67.378	0.0025814	0.0027578	0.00077626	750.23	2.9508e-05	3.0665e-05	968.4	263.34	2.9974e-05	3.0755e-05	353.41	137.45	95.895	39.797	3.0137e-05	64.863	-54.123	146.321	74.978	-87.287	236.830	-77.161	-87.976	-82.747	28.866	-35.343	-84.159	-79.226	-77.479	-72.575	29.203	-75.545	-8191	255	
30030.428	1	1	0	0	0.16528	0.20851	0.17651	0.15023	0.02052	0.25651	0.1995	0.17459	0.1033	0.16717	0.017715	0.14357	0.31868	0.20019	0.16579	0.071351	-3.9271	-4.3917	-4.8	-4.1458	-4.7083	-4.6188	-4.2021	-5.0708	-4.1708	-4.2396	-5.1146	-4.3229	-4.5021	-4.7667	-3.9229	-4.9396	71.521	-14.529	192.891	67.814	207.603	91.974	-93.989	241.263	149.817	192.281	195.214	-62.481	-81.161	164.972	130.624	-52.415	0.0011455	0.00058925	0.00021808	794.54	1.9375e-05	4.263e-06	1041.9	276.93	7.5423e-06	7.6208e-06	369.56	143.32	96.999	40.798	1.7987e-05	67.182	0.0026119	0.0027964	0.00078439	755.02	3.012e-05	3.0953e-05	977.78	264.85	3.065e-05	3.0607e-05	356.04	138.06	95.774	39.855	3.0838e-05	64.711	-46.709	-11.002	-45.215	-87.320	-63.394	173.499	-88.325	-82.671	88.752	205.690	-83.727	-79.085	-77.339	-72.577	59.957	-75.641	-8191	255	
30030.523	1	1	0	0	0.066502	0.20094	0.086651	0.33023	0.11539	0.090935	0.1131	0.14275	0.20593	0.11896	0.1434	0.20667	0.17922	0.019413	0.047992	0.066269	-3.9979	-4.0938	-4.8833	-4.2188	-4.4958	-4.7708	-4.2063	-5.0104	-4.4729	-4.0667	-5.0146	-4.1958	-4.525	-4.8708	-3.9708	-4.7729	54.217	190.143	-66.313	-95.271	1.178	-0.013	252.898	228.327	33.473	248.547	169.673	-50.203	171.025	42.947	128.422	190.079	0.00067115	0.00042151	0.00023746	790.83	6.9833e-06	1.5058e-05	1027.1	272.82	3.0704e-05	2.3032e-06	358.08	140.93	96.216	40.493	4.225e-06	65.92	0.0026474	0.0028295	0.00077836	752.79	3.0281e-05	3.1148e-05	965.67	260.66	3.0462e-05	3.095e-05	348.65	135.98	94.687	39.468	3.0145e-05	63.635	4.155	79.399	-9.957	-87.519	111.479	42.204	-88.141	-82.746	76.745	183.910	-83.409	-79.224	-77.398	-72.939	-14.918	-75.826	-8191	255	
30030.643	1	1	0	0	0.18629	0.10708	0.27231	0.075829	0.24895	0.21375	0.2958	0.17932	0.23935	0.11734	0.14218	0.11132	0.15044	0.21508	0.024361	0.17916	-4.1833	-4.0542	-5.0396	-4.2125	-4.4021	-4.8292	-3.9729	-4.9646	-4.5792	-4.0792	-4.9458	-4.4417	-4.3167	-4.9229	-4.0771	-4.7979	175.922	205.385	127.447	-34.505	141.241	-42.682	163.345	131.130	179.754	79.652	236.137	-90.520	-97.644	199.333	8.823	220.088	0.00069235	0.0012239	6.7327e-05	785.35	3.6388e-06	1.0718e-05	1027.4	273.47	9.3559e-06	1.1075e-05	357.88	141.42	95.543	40.218	1.1042e-05	66.879	0.0026077	0.0027786	0.00077464	749.55	3.0249e-05	3.0802e-05	966.1	260.53	3.01e-05	3.0658e-05	349.11	136.03	94.691	39.398	3.0389e-05	64	-7.910	38.140	-39.914	-86.995	117.886	134.198	-88.026	-82.650	-58.973	142.687	-83.908	-79.005	-77.087	-72.594	-16.088	-75.839	-8191	255	
30030.738	1	1	0	0	0.04487	0.059993	0.037749	0.12067	0.065308	0.063038	0.23256	0.19917	0.061711	0.079845	0.169	0.33386	0.16075	0.045583	0.041437	0.19999	-4.4396	-4.1	-4.95	-4.4542	-4.2458	-4.9479	-4.2208	-4.75	-4.6875	-3.9854	-5.0437	-4.5333	-4.1917	-5.0437	-4.0646	-4.575	-80.532	170.019	108.510	70.306	96.183	58.601	180.958	249.421	65.371	249.022	237.967	161.335	-65.295	-72.439	-11.897	-8.183	0.00085927	0.0013499	0.00040803	788.73	7.1756e-06	7.9387e-06	1032.8	273.84	5.3645e-06	6.715e-06	364.47	142.99	95.911	40.933	1.3237e-05	67.135	0.0026079	0.0027859	0.00078261	752.56	2.9741e-05	3.0764e-05	968.48	263.06	3.033e-05	3.1133e-05	353.14	137.42	95.592	39.759	3.1021e-05	64.586	-4.766	107.308	-24.914	-87.447	1.185	104.641	-87.989	-82.433	245.921	69.460	-83.916	-79.094	-77.471	-73.025	25.986	-75.640	-8191	255	
30030.836	1	1	0	0	0.2306	0.1079	0.16713	0.093543	0.1047	0.19583	0.24159	0.16283	0.087014	0.17536	0.12812	0.22621	0.19512	0.14265	0.16731	0.099477	-4.6583	-4	-4.8938	-4.5917	-4.1562	-4.8979	-4.2417	-4.6042	-4.9479	-4.0875	-4.7792	-4.8021	-4.1646	-5.05	-4.1375	-4.6125	-7.549	178.577	104.711	110.672	1.564	35.513	145.821	192.290	87.339	248.422	76.074	143.748	-94.429	-49.471	120.647	-90.134	0.00072921	0.00093184	0.00019831	794.58	1.6114e-05	1.7349e-05	1038.3	277.35	1.6833e-05	3.666e-06	370.74	145.01	98.084	41.086	1.1175e-05	68.262	0.0026013	0.0028178	0.00078169	754.28	3.0483e-05	3.0622e-05	972.79	265.08	3.0553e-05	3.1173e-05	357.23	138.91	96.414	40.026	3.1084e-05	65.396	-5.949	81.595	-11.040	-87.142	95.943	111.903	-88.029	-82.452	76.580	71.949	-83.258	-79.282	-77.556	-72.392	56.993	-76.164	-8191	255	
30030.932	1	1	0	0	0.1536	0.082967	0.036382	0.12452	0.096244	0.10204	0.19797	0.13045	0.041553	0.19605	0.049374	0.044599	0.20429	0.13382	0.13415	0.2271	-4.7188	-4.0667	-4.8375	-4.7937	-4.1458	-5.0292	-4.4875	-4.3604	-5.0292	-4.0563	-4.7562	-5.0083	-4.0917	-4.9437	-4.3396	-4.2792	16.113	7.410	74.201	-19.289	216.157	-90.602	171.913	178.614	-36.153	-59.536	184.139	239.152	255.734	256.633	-56.025	-99.075	0.00063805	0.00050881	0.00017298	798.56	1.3773e-05	1.2937e-05	1036.4	277.86	2.335e-05	1.1426e-05	369.43	144.19	97.116	40.945	4.2613e-06	67.118	0.0026256	0.0028499	0.00078729	760.69	3.0485e-05	3.0909e-05	980.26	265.5	3.0697e-05	3.1094e-05	357.12	138.14	96.19	39.795	3.0828e-05	64.254	-1.133	-0.754	235.318	-86.950	37.029	182.781	-88.019	-82.714	28.158	105.688	-84.384	-79.335	-77.387	-73.140	19.586	-75.644	-8191	255	
30031.027	1	1	0	0	0.16179	0.36011	0.15326	0.032466	0.080304	0.24412	0.086786	0.19897	0.063507	0.37575	0.068504	0.017869	0.13803	0.091466	0.058891	0.26367	-4.7167	-3.9062	-4.7354	-4.8729	-4.0771	-5.0667	-4.6875	-4.2354	-5.1687	-4.2125	-4.6979	-4.9958	-4.0875	-4.9375	-4.5188	-4.4583	15.287	17.213	133.076	217.321	-22.412	62.381	-30.890	248.782	178.337	42.488	227.819	-45.034	185.229	199.488	106.026	-87.671	0.00075488	0.00090785	0.00016409	794.83	2.7795e-05	6.3406e-06	1029.2	272.81	1.086e-06	3.5441e-06	360.32	141.45	95.718	40.242	2.1316e-05	65.925	0.0025905	0.0028281	0.00078102	754.25	2.9873e-05	3.0249e-05	967.08	261	2.9765e-05	3.0564e-05	347.25	135.8	94.881	39.228	2.9828e-05	63.226	-25.286	-27.822	-2.609	-87.068	-5.060	80.186	-87.819	-82.691	-92.373	-97.173	-84.079	-78.965	-77.394	-72.632	23.222	-75.593	-8191	255	
30031.123	1	1	0	0	0.17235	0.059341	0.15019	0.10883	0.066729	0.25758	0.042033	0.19426	0.016823	0.096626	0.1771	0.09007	0.21765	0.19867	0.11845	0.12717	-4.9062	-4.2	-4.4625	-5.0958	-3.9979	-4.8229	-4.6813	-4.2771	-5.0458	-4.3333	-4.6271	-5.1083	-4.1917	-4.8625	-4.6167	-4.1979	62.502	-85.007	197.849	212.536	117.606	-39.829	-57.682	-54.473	137.843	198.766	237.030	-26.367	238.198	210.458	-13.288	165.916	0.00039497	0.0019865	7.931e-05	794.42	1.2119e-05	1.7655e-05	1026.8	272.96	1.956e-05	1.4149e-05	362.23	142.42	95.822	40.727	1.6284e-05	66.473	0.0025255	0.0027355	0.00075602	751.79	2.9188e-05	2.964e-05	964.92	260.14	2.9247e-05	3.0002e-05	347.19	136.36	94.834	39.564	2.9589e-05	63.713	-82.253	-53.472	25.087	-87.247	81.474	57.599	-87.913	-83.020	96.079	-67.612	-83.697	-79.176	-77.289	-72.920	30.489	-75.728	-8191	255	
30031.221	1	1	0	0	0.028585	0.14993	0.23511	0.21178	0.22391	0.32378	0.16737	0.11452	0.16731	0.27842	0.28712	0.16704	0.086941	0.10742	0.17261	0.091925	-4.6937	-4.1208	-4.325	-5.0667	-4.2229	-4.8625	-4.9792	-4.1937	-4.8417	-4.5583	-4.2521	-5.1229	-4.1562	-4.8562	-4.9542	-4.2021	-82.977	77.395	-95.079	232.072	90.539	-87.629	159.686	194.617	-75.328	-8.282	243.121	215.342	137.154	203.513	24.899	-65.840	0.00067452	0.0016535	0.00011511	797.52	1.2184e-05	8.1371e-06	1033.2	273.8	1.7756e-05	1.0655e-05	362.57	143.42	97.461	40.697	4.6859e-06	67.425	0.0025226	0.0027493	0.0007629	753.33	2.927e-05	2.9936e-05	968.06	261.58	2.9058e-05	3.0048e-05	349.88	136.97	95.659	39.631	2.9856e-05	64.34	-10.674	-17.080	116.599	-87.102	30.794	52.622	-88.053	-82.669	44.987	31.320	-84.398	-79.188	-77.558	-72.733	53.583	-75.827	-8191	255	
30031.342	1	1	0	0	0.14788	0.026942	0.20739	0.24155	0.26315	0.26856	0.21987	0.10802	0.081498	0.091955	0.16819	0.075474	0.023234	0.10771	0.23406	0.25912	-4.6	-4.4958	-4.1937	-5.2937	-4.2417	-4.5292	-5.1542	-4.175	-4.7312	-4.6646	-4.2708	-5.1312	-4.3771	-4.5021	-5	-4.1271	7.294	-45.901	174.011	228.064	-19.910	254.791	158.272	-71.715	148.595	71.409	230.313	18.965	182.690	70.947	71.621	213.205	0.0005677	0.00029376	0.00011162	795.5	3.4584e-06	2.02e-05	1036.6	275.29	1.799e-05	2.9807e-06	364.62	144.53	97.999	41.473	7.8534e-06	67.842	0.0025379	0.002727	0.00076416	754.24	2.9735e-05	2.9992e-05	973.98	263.78	2.9604e-05	3.023e-05	354.62	138.22	96.688	40.27	3.0029e-05	65.123	-41.628	37.770	93.253	-87.229	40.970	18.794	-87.889	-82.259	-69.492	59.074	-83.923	-79.054	-76.967	-72.713	0.990	-75.711	-8191	255	
30031.438	1	1	0	0	0.1619	0.26795	0.11375	0.13746	0.065944	0.1962	0.16549	0.34987	0.11876	0.054475	0.22583	0.15796	0.18075	0.17067	0.055141	0.14813	-4.5458	-4.7083	-4.1625	-5.0458	-4.2146	-4.5312	-5.1604	-4.0771	-4.7479	-4.8979	-4.1625	-5.0979	-4.4917	-4.4437	-5.1396	-4.2125	230.823	2.922	169.853	123.366	54.597	81.659	245.705	204.709	9.279	-70.632	145.877	170.540	-33.342	188.890	153.758	208.575	0.00041158	0.0021527	0.00065233	802.26	7.3832e-06	7.2481e-06	1035.9	277.27	1.4218e-05	2.6399e-05	366.44	143.65	97.175	40.726	2.5141e-05	67.6	0.0025428	0.0027721	0.00076381	758.34	2.9923e-05	3.0272e-05	974.62	264.01	2.9476e-05	3.0068e-05	352.74	137.41	96.127	39.791	2.9328e-05	64.417	-20.541	-23.175	-14.218	-87.367	-84.328	-10.857	-87.927	-82.679	177.392	-65.238	-83.951	-79.367	-76.982	-72.788	21.801	-75.870	-8191	255	
30031.533	1	1	0	0	0.064858	0.31146	0.18188	0.13444	0.012523	0.10302	0.096562	0.044532	0.16632	0.089824	0.1881	0.12583	0.19726	0.23019	0.13224	0.26046	-4.3854	-4.775	-4.1312	-5.2458	-4.3896	-4.1229	-5.2625	-4.2583	-4.4625	-4.9479	-4.0583	-4.9479	-4.5708	-4.2583	-5.1521	-4.2125	206.504	-2.332	250.905	102.927	179.137	193.004	-42.116	130.475	221.132	160.425	21.440	251.773	-14.811	216.910	16.762	204.376	0.0004589	0.0014014	0.00017769	786.51	8.7434e-06	6.2519e-06	1024.9	273.13	1.0764e-05	4.3192e-06	360.88	142.45	96.26	40.523	9.5055e-06	66.603	0.0025136	0.0027175	0.00076509	750.32	2.9377e-05	2.9899e-05	963.34	260.7	2.9426e-05	2.9907e-05	348.07	136.05	94.876	39.383	2.9224e-05	63.86	-13.757	81.345	30.322	-87.016	-70.503	-36.771	-87.996	-82.659	88.458	110.107	-84.395	-79.230	-76.883	-73.250	8.329	-75.449	-8191	255	
30031.629	1	1	0	0	0.077396	0.081491	0.070032	0.18533	0.084684	0.21153	0.13086	0.17856	0.019337	0.024278	0.055377	0.085139	0.054568	0.12977	0.14734	0.21897	-4.2125	-4.8292	-4.1062	-4.9979	-4.575	-4.2583	-5.2375	-4.3167	-4.5396	-4.9542	-4.2812	-4.8063	-4.7562	-4.1813	-5.1417	-4.3729	-97.115	50.255	206.167	255.186	144.333	69.206	213.533	163.688	36.360	229.470	122.326	103.661	162.921	66.575	175.574	225.748	0.00024568	0.00068282	7.3133e-05	787.64	1.3607e-05	1.4164e-05	1024.9	270.83	1.4621e-05	7.3812e-07	362.3	141.35	96.382	40.518	1.5686e-05	66.691	0.0025361	0.0027239	0.00075792	747.85	2.9401e-05	2.9685e-05	962.57	259.67	2.9265e-05	2.9965e-05	349.74	135.91	94.807	39.477	2.9615e-05	64.105	-16.407	-11.605	-16.947	-87.318	56.449	116.989	-87.951	-82.136	52.578	106.625	-84.031	-79.084	-76.919	-72.667	-53.018	-75.845	-8191	255	
30031.723	1	1	0	0	0.049798	0.20428	0.031098	0.22727	0.16125	0.1953	0.29295	0.080803	0.08598	0.087657	0.18413	0.10492	0.20038	0.10483	0.14438	0.12162	-4.1271	-4.9458	-4.1583	-4.8958	-4.8229	-4.2271	-5.1604	-4.5542	-4.3896	-5.0563	-4.1417	-4.875	-4.9	-4.1438	-4.8125	-4.6375	63.265	256.707	207.788	244.956	192.586	161.206	219.502	185.131	73.076	-13.728	45.762	186.721	68.705	188.854	-34.099	161.429	0.00094532	0.0014783	0.00027257	786.18	2.2043e-05	4.8678e-06	1028.9	273.6	7.753e-06	3.272e-06	366.33	143.62	96.468	40.919	5.4912e-06	67.463	0.0025903	0.002759	0.00077738	749.65	3.0038e-05	3.0284e-05	966.98	262.04	2.9963e-05	3.0292e-05	353.99	137.62	95.68	39.816	3.0249e-05	64.889	-21.649	-3.031	212.437	-87.289	19.841	25.918	-87.972	-82.579	4.126	3.371	-84.004	-79.552	-77.106	-72.721	81.340	-76.002	-8191	255	
30031.820	1	1	0	0	0.066383	0.1164	0.20812	0.16924	0.061967	0.15764	0.21936	0.19769	0.18496	0.071204	0.22263	0.31489	0.10094	0.23691	0.038051	0.090885	-3.9479	-4.9979	-4.1396	-4.6542	-4.8208	-4.0354	-4.9604	-4.7604	-4.0188	-5.05	-4.2667	-4.4646	-4.875	-4.1229	-4.8438	-4.7417	-71.786	-71.716	248.699	227.716	240.756	83.256	237.736	-78.373	162.368	174.282	248.846	245.856	253.506	156.717	77.154	47.324	0.00070766	0.00060508	0.00020329	790.42	7.0145e-06	1.7621e-05	1038.5	274.68	1.2106e-05	1.6158e-05	369.13	144.46	97.396	41.204	1.1756e-05	68.099	0.0026065	0.0028125	0.00078055	752.21	3.0018e-05	3.0459e-05	975.12	264.78	3.0432e-05	3.0897e-05	357.3	138.76	96.617	40.191	3.074e-05	65.333	-7.381	82.689	63.950	-87.168	11.806	62.880	-88.144	-82.605	7.279	-27.219	-83.794	-79.403	-76.794	-73.084	-44.826	-75.933	-8191	255	
30031.939	1	1	0	0	0.033696	0.12799	0.11579	0.01754	0.29196	0.084927	0.14254	0.13434	0.10287	0.26521	0.19651	0.29768	0.18515	0.091447	0.12911	0.042324	-3.7833	-5.05	-4.1396	-4.5354	-5.1458	-4.1708	-4.8083	-4.9062	-4.1438	-5.1458	-4.3458	-4.3063	-5.0896	-4.1833	-4.5896	-4.8896	108.460	212.609	-36.639	229.733	205.566	211.719	241.565	198.333	26.708	134.992	-57.276	90.664	-64.100	2.940	140.190	-65.285	0.00088139	0.00038655	0.00031318	788.05	8.5989e-06	6.6501e-06	1033.9	274.96	1.867e-05	2.547e-05	362.21	142.21	95.462	40.143	4.4924e-06	66.048	0.0026266	0.0028089	0.00079033	752.25	3.0363e-05	3.1296e-05	972.29	262.36	3.054e-05	3.0704e-05	351.35	136.7	95.128	39.362	3.0377e-05	63.775	-30.727	27.251	66.414	-87.419	151.191	41.271	-87.918	-82.646	-43.527	-27.138	-83.933	-79.465	-77.178	-72.579	91.861	-76.060	-8191	255	
30032.035	1	1	0	0	0.26103	0.075358	0.036963	0.13642	0.087136	0.076961	0.23933	0.12648	0.17989	0.10373	0.15939	0.14268	0.17304	0.17845	0.032074	0.088786	-3.8333	-4.9771	-4.6208	-4.5437	-4.8479	-4.1792	-4.7417	-4.9417	-4.1104	-5.0062	-4.5146	-4.3417	-5.3083	-4.3313	-4.6312	-5.1479	28.324	-24.536	-17.909	245.579	191.968	175.597	196.591	227.346	4.458	88.852	257.554	20.836	-90.336	177.303	144.086	197.431	0.00058861	0.0017953	0.00021769	781.9	2.9436e-06	1.8653e-05	1022.3	268.68	4.919e-06	6.5563e-06	356.47	140.33	95.306	40.26	1.1091e-05	65.862	0.002612	0.0027926	0.00078425	743.74	2.9958e-05	3.0531e-05	958.02	257.58	3.007e-05	3.0679e-05	345.15	134.62	94.369	39.178	3.0297e-05	63.27	-5.455	-52.722	-7.281	-86.698	52.369	-19.692	-88.083	-82.853	182.360	-0.742	-83.492	-79.570	-77.585	-72.760	163.691	-75.792	-8191	255	
30032.133	1	1	0	0	0.17267	0.21968	0.12866	0.062257	0.11043	0.18531	0.059111	0.16787	0.13441	0.016819	0.25496	0.15172	0.053827	0.036517	0.088581	0.37502	-3.8229	-4.7562	-4.7104	-4.3875	-5.1813	-4.3938	-4.7375	-5.1312	-4.0583	-4.8875	-4.5896	-4.1729	-5.1229	-4.5604	-4.5271	-5.125	137.898	30.517	32.056	237.339	108.748	-76.382	155.247	250.767	-29.096	-52.097	205.499	237.281	26.022	25.206	-62.405	230.986	0.00062489	0.0019258	0.00035672	779.92	1.351e-05	1.6572e-05	1019.6	270.66	1.541e-05	1.9257e-06	356.78	140.51	95.937	40.282	1.3473e-05	66.047	0.0025979	0.0027876	0.00077894	744.88	2.9777e-05	3.0861e-05	960.58	258.75	3.052e-05	3.0675e-05	346.52	135.32	94.78	39.33	3.04e-05	63.519	-0.807	219.907	41.064	-87.259	174.651	84.081	-88.107	-82.448	-83.493	18.080	-83.890	-79.091	-76.879	-72.993	240.794	-75.723	-8191	255	
30032.203	1	1	0	0	0.14204	0.2251	0.067607	0.15526	0.17867	0.21974	0.066174	0.20085	0.21591	0.1061	0.13434	0.26294	0.25312	0.2409	0.11435	0.080201	-3.7938	-4.8021	-4.8021	-4.2833	-5.0125	-4.2833	-4.6125	-5.0479	-4.1854	-4.6729	-4.7854	-4.1958	-5.0188	-4.5646	-4.2771	-5.2771	213.819	223.817	95.622	251.149	195.799	49.917	184.873	132.447	13.944	-55.547	-38.950	250.204	245.424	-90.206	221.760	142.867	0.00091092	0.00088963	8.956e-05	789.31	1.1124e-05	1.2409e-05	1025.8	270.4	1.706e-05	7.8222e-06	360.4	140.9	95.372	40.483	1.5293e-05	66.559	0.0026298	0.0027807	0.0007862	749.05	3.0034e-05	3.169e-05	964.73	260.03	3.0763e-05	3.1176e-05	350.01	136.25	94.736	39.451	3.0958e-05	63.885	-15.294	252.168	-72.768	-87.474	127.297	1.579	-88.169	-82.747	50.177	-10.442	-83.852	-79.749	-77.442	-73.083	100.522	-75.848	-8191	255	
30032.324	1	1	0	0	0.090889	0.25	0.032599	0.28259	0.23866	0.11645	0.13654	0.11926	0.080294	0.13778	0.10661	0.037833	0.16598	0.16297	0.064901	0.263	-3.9167	-4.6854	-4.9896	-4.3208	-5.0188	-4.5667	-4.4646	-5.2	-4.3417	-4.6062	-5.1375	-4.2875	-5.1417	-4.9646	-4.2333	-5.1604	79.532	125.801	191.288	137.794	-38.126	77.224	213.355	209.565	1.575	-72.388	89.118	-25.061	243.897	224.022	71.086	192.083	0.00070399	0.00089107	0.0001459	784.1	1.7116e-05	1.4846e-05	1033.6	272.97	2.0435e-05	1.911e-05	363.72	143.63	96.896	40.889	4.1419e-06	67.06	0.0026896	0.002835	0.00080432	749.51	3.0592e-05	3.1503e-05	970.98	262.19	3.0833e-05	3.1245e-05	353.97	137.27	96.037	39.786	3.0913e-05	64.516	-19.579	-11.973	17.356	-86.874	184.850	-45.178	-88.215	-82.243	56.647	213.271	-83.831	-79.394	-77.413	-72.925	-61.364	-75.656	-8191	255	
30032.422	1	1	0	0	0.29439	0.2078	0.16108	0.29061	0.056592	0.27958	0.22431	0.16158	0.24589	0.092651	0.089339	0.13883	0.16817	0.32284	0.16187	0.28413	-4.0021	-4.6396	-5.1271	-4.4104	-4.9375	-4.7896	-4.3562	-5.2271	-4.3812	-4.6083	-5.1917	-4.275	-4.8396	-4.7521	-4.1562	-5.0458	-85.893	240.311	31.131	237.286	117.871	40.186	205.422	209.394	220.846	-64.515	176.694	140.034	205.919	179.799	-84.947	242.660	0.00048542	0.00095027	2.7959e-05	788.3	2.5849e-05	1.3128e-05	1028.5	270.98	1.1352e-05	1.4521e-05	357.17	141.43	95.612	40.234	1.4216e-05	65.77	0.0026808	0.0028224	0.0007797	751.1	3.0408e-05	3.1421e-05	965.17	260.23	3.0953e-05	3.1049e-05	346.74	136.24	95.007	39.254	3.07e-05	63.367	-1.964	210.189	-12.304	-87.351	85.603	8.434	-88.018	-82.723	15.896	80.190	-84.035	-79.583	-76.887	-72.573	66.401	-75.753	-8191	255	
30032.518	1	1	0	0	0.1047	0.15501	0.19397	0.23192	0.22098	0.19401	0.25521	0.092838	0.15996	0.17048	0.013815	0.27524	0.059012	0.15415	0.20136	0.042575	-4.3438	-4.4667	-5.025	-4.325	-4.7792	-4.9479	-4.3625	-5.1771	-4.5	-4.2896	-5.2479	-4.2104	-4.6292	-4.9792	-4.2708	-5.0542	24.020	-22.309	182.727	227.300	202.300	119.391	222.320	140.616	107.148	26.937	233.886	173.737	110.539	-48.501	238.917	91.689	0.0002582	0.001667	0.00032587	783.86	1.8218e-05	9.8137e-06	1020.2	272.55	1.6432e-05	7.6977e-06	362.68	140.95	95.552	40.092	1.4176e-05	65.492	0.0026364	0.0028227	0.00078848	747.53	3.0476e-05	3.0906e-05	962.78	260.61	3.0694e-05	3.1015e-05	348.52	135.63	94.878	39.183	3.0896e-05	63.132	-44.480	82.192	82.275	-87.289	-5.127	109.270	-88.390	-82.415	78.615	134.805	-83.997	-79.400	-77.514	-72.513	58.300	-76.188	-8191	255	
30032.613	1	1	0	0	0.20428	0.26588	0.21981	0.21933	0.1318	0.12877	0.20928	0.27043	0.037006	0.066513	0.39749	0.10535	0.23147	0.24044	0.10957	0.23562	-4.2104	-4.2354	-4.9792	-4.3333	-4.6021	-4.9979	-4.25	-5.0083	-4.6771	-4.2292	-5.3208	-4.6208	-4.6646	-5.0792	-4.0938	-4.9479	258.980	94.366	-54.512	-99.570	-65.119	142.191	-91.165	138.618	130.457	-83.157	238.006	186.098	236.061	249.425	73.467	170.535	0.00064498	0.0011493	4.6943e-05	786.84	1.5185e-05	1.3462e-05	1021.3	272.57	1.5511e-05	1.0847e-05	355.73	141.51	95.606	40.424	1.4745e-05	66.564	0.0026431	0.002793	0.00078369	747.99	2.9609e-05	3.039e-05	961.88	259.64	2.9769e-05	3.0098e-05	347.9	135.98	95.026	39.378	3.0251e-05	63.753	-10.602	220.827	0.824	-87.374	17.131	250.702	-87.950	-82.784	81.967	132.100	-83.532	-79.216	-77.431	-72.565	79.359	-75.973	-8191	255	
30032.732	1	1	0	0	0.099418	0.30924	0.15588	0.021655	0.12449	0.13201	0.099836	0.061662	0.087356	0.081177	0.24201	0.35775	0.11662	0.2647	0.070973	0.2615	-4.4458	-3.9896	-5.0625	-4.4146	-4.2979	-5.3271	-4.4271	-4.9021	-4.7667	-4.0625	-5.1188	-4.5958	-4.2667	-5.025	-4.1729	-4.6792	-39.940	54.470	130.532	198.939	31.401	54.271	-79.806	190.550	-13.133	-9.510	212.040	-56.461	162.141	213.813	141.242	223.210	0.0010522	0.00063169	0.00023503	785.19	1.2301e-05	7.918e-06	1028.5	275.22	3.2602e-06	1.4333e-05	365.46	143.68	96.713	40.958	8.3283e-06	67.632	0.0025979	0.0027716	0.00077157	749.9	2.9834e-05	3.0043e-05	968.56	262.8	2.995e-05	3.0139e-05	353.52	137.82	95.975	39.815	2.9959e-05	64.748	12.982	-73.072	77.928	-87.648	128.093	237.501	-87.927	-82.509	165.141	-61.659	-83.629	-79.108	-77.154	-72.784	140.862	-75.816	-8191	255	
30032.828	1	1	0	0	0.011658	0.24987	0.18489	0.16151	0.18571	0.042805	0.21645	0.054546	0.10292	0.22736	0.059569	0.081502	0.19895	0.040242	0.15493	0.1303	-4.5938	-3.9792	-5.1	-4.875	-4.2188	-5.1042	-4.5208	-4.7354	-5.1208	-4.1188	-4.9396	-4.9	-4.2937	-5.1583	-4.2979	-4.7146	53.409	-42.199	-50.845	224.031	191.212	199.169	241.943	206.919	159.017	-35.266	222.475	157.535	249.252	234.236	102.877	19.787	0.00030258	0.00099244	7.83e-05	799.59	1.3073e-05	1.0203e-05	1040.6	277.03	8.016e-06	4.0494e-06	367.95	146.29	97.583	41.027	1.9743e-06	67.976	0.0025676	0.0027595	0.0007721	757.56	2.9691e-05	2.996e-05	977.68	265.46	2.968e-05	3.0426e-05	357.1	139.4	96.831	40.002	3.0171e-05	64.986	-68.325	77.898	-58.286	-86.929	99.908	194.867	-88.085	-82.769	241.375	163.882	-83.945	-79.115	-77.650	-72.838	208.203	-75.839	-8191	255	
30032.902	1	1	0	0	0.24713	0.16352	0.034283	0.22981	0.10536	0.043007	0.23913	0.32244	0.089857	0.19258	0.13663	0.11087	0.12258	0.18944	0.10436	0.11091	-4.8667	-4.1188	-4.8625	-5.0542	-4.1667	-5.075	-4.4521	-4.5646	-4.9958	-4.1833	-4.8479	-4.8938	-4.3104	-5.2479	-4.4042	-4.5792	133.378	-66.472	114.033	257.400	167.132	30.958	231.504	171.006	-4.599	238.090	246.088	147.567	46.886	78.815	32.106	25.697	0.00083481	0.00016105	0.0002731	792.02	9.7553e-06	4.6848e-06	1036.5	274.36	9.9029e-06	1.3156e-05	362.09	142.06	96.837	40.742	8.4524e-06	66.022	0.0025853	0.0027671	0.00076751	754.34	2.9076e-05	3.0114e-05	971.7	261.79	2.9244e-05	3.0164e-05	349.3	136.26	95.276	39.372	2.9557e-05	63.209	-8.512	202.049	52.063	-87.047	112.949	-54.136	-88.391	-82.784	-66.616	-41.290	-83.969	-79.250	-77.500	-72.939	0.799	-75.915	-8191	255	
30033.021	1	1	0	0	0.10175	0.18159	0.20596	0.19814	0.075711	0.27742	0.2699	0.11363	0.064341	0.14831	0.18944	0.11049	0.15683	0.081175	0.14283	0.13562	-4.7125	-4.1062	-4.7146	-5.0625	-4.2146	-5.1896	-4.6896	-4.4292	-5.0062	-4.1833	-4.7896	-5.0854	-4.2021	-5.0521	-4.7292	-4.2292	-95.729	-36.504	19.605	182.215	98.331	178.118	203.871	121.816	225.579	85.509	208.710	193.191	-10.262	-81.662	72.225	101.393	0.00038827	0.0015592	0.00010035	786.82	1.2639e-05	1.1431e-05	1013.5	272.59	6.493e-06	8.2509e-06	357.38	140.5	96.28	40.472	1.0734e-05	65.691	0.0025114	0.002695	0.00074007	748.05	2.901e-05	2.9512e-05	959.61	259	2.8553e-05	2.949e-05	345.67	135.33	94.759	39.166	2.968e-05	62.984	30.695	-83.461	150.015	-87.267	82.104	33.739	-87.974	-82.826	-67.305	75.051	-83.846	-79.133	-77.150	-72.864	50.243	-75.687	-8191	255	
30033.117	1	1	0	0	0.2357	0.21227	0.13829	0.011798	0.20515	0.097588	0.16428	0.17062	0.13794	0.27962	0.17022	0.1569	0.22967	0.11346	0.14744	0.29861	-4.8896	-4.1542	-4.525	-5.0167	-3.9562	-5.0021	-4.8396	-4.1375	-5.1271	-4.3354	-4.6312	-5.1167	-4.1917	-4.9688	-4.7729	-4.2458	-53.388	190.181	0.934	227.568	97.496	24.602	-14.555	173.486	47.249	97.294	-99.709	205.760	245.906	223.646	6.189	173.208	0.00052671	0.0015486	0.00046066	786.68	2.1268e-05	2.8318e-06	1033.2	270.95	5.7177e-06	6.3073e-06	358.8	142.39	96.471	40.711	3.1608e-06	66.041	0.0025036	0.002716	0.00075782	748.95	2.8962e-05	2.9571e-05	966.34	259.87	2.9072e-05	3.024e-05	348.17	136.15	95.743	39.541	2.9409e-05	63.613	3.995	29.370	-44.859	-87.435	11.575	179.491	-88.243	-82.787	185.918	79.409	-83.601	-79.546	-77.384	-73.116	222.096	-76.399	-8191	255	
30033.213	1	1	0	0	0.12762	0.10081	0.09172	0.091657	0.11329	0.10608	0.12581	0.24484	0.16495	0.14852	0.13612	0.064708	0.091028	0.26001	0.073806	0.10714	-4.8125	-4.3542	-4.4771	-5.1937	-4.0437	-4.8063	-4.9167	-4.2833	-5.0687	-4.5312	-4.6146	-5.2333	-4.2292	-4.7771	-4.9062	-4.2875	-58.810	-91.854	-98.146	174.126	12.006	45.930	-64.625	143.617	75.963	139.268	-62.674	206.201	-86.904	247.467	252.001	-99.707	0.00080899	0.001295	5.9557e-05	794.44	6.1542e-06	9.5478e-06	1029.8	274.73	7.1333e-06	4.0794e-06	361.84	143.31	97.242	40.867	1.7692e-05	67.785	0.002518	0.0027469	0.00075071	753.79	2.9291e-05	2.9619e-05	968.07	262.44	2.9329e-05	3.0077e-05	351.02	137.57	96.159	39.748	2.9482e-05	64.535	6.574	68.702	-69.677	-87.510	251.620	164.920	-88.085	-82.841	150.549	125.033	-83.817	-79.695	-77.126	-72.787	30.239	-76.459	-8191	255	
30033.332	1	1	0	0	0.086769	0.11339	0.12978	0.33204	0.28251	0.09125	0.16707	0.11158	0.075181	0.085807	0.14381	0.20059	0.19522	0.23262	0.091488	0.21456	-4.6708	-4.525	-4.3854	-5.1667	-4.2667	-4.4167	-5.1687	-4.05	-4.9625	-4.6729	-4.2896	-5.1833	-4.3	-4.6479	-4.8562	-4.1896	-13.938	131.683	96.069	240.199	142.733	173.866	165.899	173.523	196.901	128.422	255.832	126.905	223.342	154.090	-24.568	254.928	0.00046544	0.00076007	0.0001455	797.06	1.2324e-05	1.659e-05	1035.9	275.79	2.6503e-05	5.8569e-06	363.52	145.03	97.062	41.309	1.4652e-05	66.897	0.0024999	0.0027222	0.00075192	754.6	2.9081e-05	2.9641e-05	973.6	264.31	2.8953e-05	2.949e-05	352.25	138.39	96.367	39.791	2.9115e-05	64.098	6.207	156.349	-51.978	-86.995	106.804	5.815	-88.053	-82.717	101.444	-35.993	-83.957	-79.710	-77.225	-72.670	91.306	-75.817	-8191	255	
30033.430	1	1	0	0	0.18596	0.16053	0.19004	0.14658	0.17686	0.15844	0.024477	0.16317	0.12127	0.1575	0.29717	0.16982	0.24764	0.42792	0.14322	0.11111	-4.6729	-4.7417	-4.1708	-5.2562	-4.3729	-4.4604	-5.0875	-4.1896	-4.9604	-4.8208	-4.2208	-5.2063	-4.55	-4.3688	-5.1687	-4.1729	6.064	108.091	-53.873	232.435	231.448	-10.783	244.802	98.739	14.173	-37.953	224.519	184.245	-96.439	-69.660	221.449	195.934	0.00070903	0.0008458	0.00025293	791.29	1.4228e-05	7.8691e-06	1026.1	271.47	1.1923e-05	7.2758e-06	354.86	141.23	96.247	40.056	4.9994e-06	65.713	0.0024591	0.0026243	0.00073034	750.2	2.8274e-05	2.8487e-05	959.82	259.42	2.7802e-05	2.8591e-05	343.57	135.15	94.543	38.927	2.7523e-05	62.825	-32.243	66.778	-66.251	-87.447	208.694	130.198	-88.025	-82.675	76.419	18.180	-84.301	-79.616	-77.183	-72.973	-33.816	-76.237	-8191	255	
30033.502	1	1	0	0	0.095818	0.097858	0.17729	0.13107	0.079492	0.11303	0.18274	0.19473	0.063892	0.19637	0.17317	0.089643	0.22915	0.10914	0.042477	0.11787	-4.3875	-4.8562	-4.1854	-5.0417	-4.4208	-4.3646	-5.1833	-4.2646	-4.6646	-4.8771	-4.0917	-5.175	-4.6312	-4.3187	-5	-4.2729	198.239	118.947	184.001	236.705	14.041	220.969	-90.491	217.547	-10.207	41.096	203.025	-3.120	208.181	-16.642	177.914	181.434	0.00070441	0.00065913	0.00020184	784.71	6.891e-06	8.3925e-06	1023	273.37	1.9125e-05	6.9789e-06	358.47	141.09	97.533	40.389	1.188e-05	65.868	0.0024056	0.0025592	0.00071692	741.99	2.7907e-05	2.8048e-05	958.64	259.77	2.8005e-05	2.8735e-05	345.03	135.43	95.509	39.173	2.8846e-05	63.091	9.776	143.411	94.078	-87.122	61.054	-0.240	-88.149	-82.911	115.178	16.210	-84.141	-79.725	-77.536	-72.825	19.088	-76.040	-8191	255	
30033.598	1	1	0	0	0.21915	0.22355	0.044097	0.29973	0.082444	0.17449	0.17596	0.16701	0.11663	0.11547	0.084576	0.26289	0.21077	0.18887	0.15099	0.12021	-4.35	-4.9104	-4.1021	-5.0875	-4.65	-4.3396	-5.3521	-4.5646	-4.5271	-4.8938	-4.1083	-4.8771	-4.8562	-4.3042	-5.1062	-4.4729	160.532	173.982	-38.351	-58.553	250.394	184.413	188.036	189.126	-2.015	25.723	-99.774	104.622	209.142	91.555	44.600	186.745	0.0008074	0.0015058	0.00015404	792.89	7.3168e-06	1.1014e-05	1018.6	273.97	1.0443e-05	7.0771e-06	359.59	141.9	98.354	40.667	1.3746e-05	66.427	0.0024662	0.0026279	0.00074068	748.98	2.8388e-05	2.8857e-05	961.91	261.08	2.8449e-05	2.8921e-05	348.01	136.46	95.834	39.429	2.8784e-05	63.647	20.106	-26.778	-10.037	-87.242	-94.764	0.919	-88.089	-82.843	-82.660	102.830	-83.927	-79.300	-77.439	-73.132	30.463	-76.215	-8191	255	
30033.717	1	1	0	0	0.10086	0.16724	0.17256	0.33672	0.15217	0.12727	0.016546	0.050935	0.10851	0.10796	0.063349	0.08706	0.34263	0.34212	0.091958	0.21023	-3.9167	-4.9271	-4.1813	-5.0604	-4.8354	-4.3688	-5.1792	-4.7083	-4.5042	-5.0833	-4.2208	-4.9021	-4.9292	-4.3187	-5.0875	-4.5875	136.787	213.789	172.168	234.144	71.488	142.408	149.874	-83.715	87.657	191.899	187.956	258.065	223.934	250.538	241.176	231.308	0.00072822	0.00073248	0.00031156	784.04	1.4276e-05	1.4026e-05	1025.7	275.61	1.2261e-05	1.2735e-05	365.25	143.91	97.485	41.211	4.9353e-06	67.407	0.0024966	0.0026453	0.00075182	748.56	2.8346e-05	2.9047e-05	966.26	262.24	2.8237e-05	2.9278e-05	352.82	137.88	96.105	39.87	2.914e-05	64.605	-19.487	149.504	-69.821	-87.372	171.015	-1.353	-88.212	-82.473	-3.940	17.139	-84.180	-79.120	-77.372	-72.702	6.087	-75.854	-8191	255	
30033.812	1	1	0	0	0.096752	0.20882	0.16842	0.058271	0.17625	0.2583	0.32572	0.20164	0.21514	0.30803	0.1754	0.097231	0.11531	0.10892	0.15231	0.24003	-4.1	-5.0458	-4.1375	-4.7396	-4.8708	-4.0167	-5.0625	-4.5958	-4.1813	-5.0875	-4.2979	-4.6333	-4.9896	-4.2542	-4.975	-4.7562	38.512	5.728	-28.798	-42.031	-99.931	181.573	187.122	230.504	137.617	210.677	227.646	181.075	-21.120	207.462	150.340	178.550	0.00040566	0.0013728	0.00022141	792.57	1.8032e-05	1.0034e-05	1032.2	277.1	1.6128e-05	7.6743e-06	362.41	143.9	96.873	40.762	2.8801e-06	66.339	0.0025205	0.0026925	0.00074828	753.68	2.8886e-05	2.9783e-05	971.4	263.87	2.8756e-05	2.9717e-05	351.97	137.93	96.047	39.493	2.9227e-05	63.719	-6.873	38.340	75.717	-87.491	102.021	91.075	-88.117	-82.730	95.663	63.471	-84.114	-79.202	-77.068	-73.323	218.042	-75.568	-8191	255	
30033.908	1	1	0	0	0.21111	0.10054	0.099645	0.18134	0.13991	0.035515	0.23665	0.32777	0.28518	0.14091	0.11766	0.090978	0.22242	0.21317	0.075912	0.071292	-3.9792	-5.0687	-4.3583	-4.575	-4.9542	-4.1562	-5.0958	-4.8896	-4.3604	-5.2333	-4.4292	-4.5542	-5.125	-4.0729	-5.0292	-4.8917	16.343	-72.359	-23.759	-73.886	73.187	218.187	156.138	206.251	5.675	127.628	157.965	40.750	248.771	211.990	106.286	-58.330	0.00078156	0.0015793	0.00013403	788.06	1.6633e-05	5.1662e-06	1016	271.63	1.844e-05	5.9379e-06	355.96	139.78	96.709	39.712	1.1882e-05	65.226	0.002501	0.0026806	0.00075171	747.74	2.8601e-05	2.9833e-05	958.84	259.23	2.849e-05	2.9524e-05	343.72	134.33	94.616	38.671	2.8943e-05	62.288	-10.451	74.623	-14.087	-87.339	-73.142	42.266	-87.846	-82.731	57.305	82.980	-83.814	-79.547	-77.570	-72.756	31.747	-75.925	-8191	255	
30034.029	1	1	0	0	0.07924	0.024607	0.010172	0.14647	0.26356	0.21458	0.11844	0.058008	0.079066	0.24231	0.19533	0.13047	0.15981	0.15491	0.20659	0.089738	-3.8917	-4.9646	-4.4479	-4.4521	-5.0542	-4.2	-4.9583	-4.9187	-4.0563	-5.1854	-4.7271	-4.4688	-5.1937	-4.4354	-4.5292	-5.0958	258.145	-25.366	-80.111	257.271	98.418	-7.580	-84.825	144.090	79.592	-36.860	219.700	-82.770	190.427	251.579	-27.132	180.632	0.00043548	0.0010042	0.0003757	784.58	8.4332e-06	2.2409e-05	1023.3	271.28	5.1085e-06	8.3948e-06	355.42	140.6	96.259	40.101	2.684e-06	65.022	0.0024893	0.0026555	0.00075326	743.09	2.8744e-05	2.9595e-05	958	258.46	2.8753e-05	2.9356e-05	344.37	134.86	95.084	39.038	2.8803e-05	62.502	-54.863	125.709	57.499	-87.476	12.130	60.037	-88.438	-82.673	85.446	52.582	-83.555	-79.181	-76.875	-73.078	181.213	-75.996	-8191	255	
30034.125	1	1	0	0	0.078171	0.14437	0.16233	0.10609	0.017913	0.13837	0.092387	0.091012	0.095393	0.12855	0.37363	0.25383	0.22578	0.23019	0.27133	0.11956	-3.7917	-4.9479	-4.6146	-4.3542	-5.2146	-4.1521	-4.7229	-5.0521	-4.0854	-4.9104	-4.8333	-4.2646	-5.1646	-4.3208	-4.4083	-5.2937	239.067	139.573	239.083	-96.713	-70.856	190.773	134.149	209.467	180.188	46.898	46.086	208.192	-96.098	-92.765	3.198	180.417	0.00067138	0.00090036	4.0605e-05	789.94	6.8045e-06	1.2811e-05	1023	273.16	3.7435e-06	1.3737e-05	358.84	141.96	96.771	40.291	1.3287e-05	65.847	0.0025354	0.0026838	0.00076017	749.61	2.9253e-05	3.0056e-05	962.81	260.44	2.9326e-05	2.9907e-05	346.06	135.95	95.409	39.145	2.9735e-05	63.085	5.640	-38.035	192.415	-87.200	69.222	25.324	-88.148	-82.648	-49.648	61.424	-83.813	-79.707	-77.196	-72.871	14.940	-75.636	-8191	255	
30034.197	1	1	0	0	0.13974	0.15984	0.26911	0.31934	0.12148	0.23632	0.073707	0.14135	0.25667	0.089008	0.18593	0.20216	0.27402	0.23341	0.16347	0.21011	-3.9313	-4.6583	-4.6854	-4.125	-5.1792	-4.6396	-4.4771	-4.975	-4.3313	-4.8125	-5.0333	-4.2104	-5.1146	-4.6729	-4.3792	-5.2208	28.905	-44.460	-51.457	194.524	180.739	212.368	53.736	231.475	79.618	249.013	189.326	157.938	225.384	186.334	160.474	64.655	0.00061748	0.0015822	0.00029164	788.41	1.2828e-05	2.6988e-06	1028.3	273.57	1.7462e-05	4.8326e-06	362.59	143.77	96.199	40.282	1.4542e-05	66.342	0.002585	0.0027033	0.00075632	749.76	2.9219e-05	3.0062e-05	965.15	262.08	2.9566e-05	3.0109e-05	350.49	137.57	95.659	39.475	2.956e-05	63.789	-13.721	-96.776	23.519	-87.178	5.911	185.698	-88.323	-82.323	-67.417	-37.016	-83.921	-79.120	-77.416	-73.081	119.456	-75.795	-8191	255	
30034.293	1	1	0	0	0.21641	0.099515	0.1679	0.22913	0.048405	0.046517	0.096854	0.11954	0.22388	0.10398	0.041274	0.25715	0.24471	0.15615	0.18716	0.1734	-3.75	-4.5146	-4.8125	-4.2208	-5.0938	-4.5625	-4.3354	-5.0167	-4.1062	-4.5125	-5.0104	-4.2667	-5.0958	-4.7375	-4.1542	-5.2042	28.191	45.288	53.589	207.482	120.596	171.596	-89.954	232.235	203.516	43.324	-33.278	227.809	162.300	221.898	195.379	200.505	0.00077999	0.00034809	0.00014281	791.34	4.0458e-06	1.1752e-05	1030	274.85	2.1002e-05	9.0663e-06	360.69	143.96	96.784	40.252	2.3272e-05	65.996	0.0026024	0.002772	0.0007648	754.13	2.9508e-05	3.0046e-05	967.36	262.62	2.9914e-05	2.9991e-05	349.06	137.24	95.607	39.23	2.9512e-05	63.173	-40.330	183.995	-10.127	-87.370	37.622	79.517	-88.116	-82.525	96.878	-54.757	-84.056	-79.619	-77.238	-72.602	46.585	-75.758	-8191	255	
30034.414	1	1	0	0	0.23082	0.37785	0.10137	0.11849	0.056912	0.24434	0.12377	0.078145	0.16104	0.044006	0.16979	0.11665	0.15665	0.18437	0.19906	0.024278	-4.0354	-4.6229	-5.0604	-4.325	-4.9104	-4.7312	-4.3063	-5.3104	-4.2458	-4.6813	-5.0646	-4.2167	-4.9417	-5.0604	-4.1729	-5.2708	47.581	186.896	205.957	41.310	-15.427	147.594	-90.130	22.819	197.406	137.817	80.763	-50.881	224.090	246.382	214.875	-61.397	0.00095604	0.0011802	0.00034089	786.49	1.0228e-05	2.5411e-06	1019.4	267.78	1.7075e-05	1.1594e-05	356.51	140.96	96.049	39.974	2.2278e-05	65.599	0.0025641	0.0027137	0.00074954	746.88	2.8863e-05	3.0097e-05	957.25	258.04	2.9433e-05	2.9503e-05	343.53	134.95	94.78	38.934	2.925e-05	62.629	16.320	237.043	0.507	-87.698	224.732	69.340	-88.338	-82.616	72.819	82.899	-84.402	-79.325	-77.051	-72.947	61.156	-75.897	-8191	255	
30034.510	1	1	0	0	0.12836	0.13128	0.079404	0.14654	0.11685	0.070183	0.25243	0.19403	0.25059	0.15308	0.26524	0.055893	0.22325	0.35138	0.22675	0.26234	-4.2125	-4.3417	-5.0042	-4.1875	-4.6354	-5.0167	-4.2583	-5.0958	-4.4896	-4.2937	-5.2479	-4.2479	-4.6625	-5.0896	-4.2063	-5.15	3.355	244.834	157.226	-27.611	-11.548	230.009	232.955	180.553	233.229	178.568	-13.279	41.467	172.656	-52.752	-6.080	169.139	0.00013512	0.00062261	0.00031501	781.38	5.3098e-06	4.1918e-06	1022.8	270.32	2.3168e-05	3.9782e-06	354.09	141.91	96.121	40.092	3.703e-06	66.063	0.0025394	0.0026845	0.00075868	743.13	2.9081e-05	2.9583e-05	957.04	258.41	2.909e-05	2.9182e-05	344.51	135.77	94.824	38.938	2.9912e-05	63.018	33.290	5.899	-24.666	-87.026	-41.815	21.351	-88.336	-82.879	-8.947	122.463	-83.752	-79.276	-77.267	-72.727	51.962	-76.296	-8191	255	
30034.605	1	1	0	0	0.025578	0.10933	0.11863	0.12726	0.18301	0.31048	0.2818	0.12998	0.062785	0.099614	0.052767	0.16004	0.047179	0.2072	0.24889	0.064645	-4.2646	-4.3354	-5.1792	-4.2229	-4.6188	-4.9021	-4.2417	-4.8854	-4.7562	-4.4062	-5.3646	-4.4042	-4.5604	-5.0167	-4.125	-5.0167	137.518	-66.374	41.971	113.448	144.541	27.612	198.587	237.817	237.860	233.298	206.588	47.288	-70.823	174.546	106.685	120.370	0.00033966	0.00083266	0.0002566	787.82	1.5788e-05	7.6944e-06	1029.1	272.56	1.2214e-05	1.2917e-05	361.75	142.26	96.78	40.44	2.1016e-05	65.874	0.0025541	0.0027149	0.00075767	747.72	2.9403e-05	3.0074e-05	964.51	260.63	2.9549e-05	3.0033e-05	348.9	136.83	95.634	39.381	2.9968e-05	63.525	-9.389	87.800	-5.536	-86.890	82.524	137.657	-88.333	-82.618	-44.546	48.034	-84.059	-79.477	-77.533	-72.783	67.878	-75.741	-8191	255	
30034.701	1	1	0	0	0.15967	0.21079	0.11458	0.10899	0.16083	0.097987	0.28122	0.24006	0.078082	0.17962	0.13414	0.15079	0.062751	0.20961	0.11477	0.13177	-4.4083	-4.1896	-5.0604	-4.4896	-4.5563	-4.9875	-4.3375	-4.9729	-4.8375	-4.1375	-5.1833	-4.6792	-4.4771	-5.0687	-4.2333	-4.9563	42.990	165.826	238.940	157.776	78.572	-2.861	206.316	249.981	125.984	-46.030	219.860	71.462	38.965	17.929	-36.608	170.337	0.00045483	0.0018096	0.00017481	785.41	1.5832e-05	1.26e-05	1027	274.46	9.2583e-06	5.4643e-06	366.78	143.74	98.218	41.11	1.6376e-05	67.192	0.0025408	0.0027035	0.00076167	746.9	2.9082e-05	3.0026e-05	968.2	263.08	2.9264e-05	3.0149e-05	353.8	137.96	96.648	39.748	2.9874e-05	64.427	-44.114	-39.163	6.988	-87.466	6.202	151.452	-88.302	-82.322	221.333	53.246	-83.857	-78.984	-77.513	-73.180	-48.626	-75.991	-8191	255	
30034.797	1	1	0	0	0.088328	0.091689	0.046157	0.11327	0.068828	0.39455	0.12981	0.17689	0.047922	0.14738	0.25933	0.11685	0.025414	0.17282	0.16274	0.25447	-4.6896	-4.0708	-5.025	-4.7167	-4.3479	-5.1687	-4.3812	-4.8063	-5.0021	-4.1667	-5.1583	-4.6562	-4.3125	-5.3063	-4.2583	-4.7542	144.679	101.493	195.064	-89.595	-31.824	154.821	179.537	178.562	94.947	100.443	192.308	125.083	190.718	251.257	66.399	177.799	0.00041907	0.0014211	0.00020876	791.66	1.0291e-05	1.021e-05	1031.6	274.25	1.3918e-05	1.8502e-05	362	142.89	96.512	40.179	5.1509e-06	66.08	0.0025473	0.0027488	0.00075659	752.07	2.912e-05	2.9741e-05	966.01	261.37	2.9263e-05	2.9837e-05	348.82	136.43	95.444	39.091	2.9342e-05	63.044	19.095	-9.249	-52.256	-87.151	-71.154	179.541	-88.085	-82.929	131.136	53.729	-83.894	-79.176	-77.715	-72.884	3.548	-76.119	-8191	255	
30034.895	1	1	0	0	0.094578	0.23221	0.14075	0.20708	0.11475	0.13328	0.15402	0.11075	0.23169	0.12002	0.16689	0.16397	0.23386	0.20961	0.017702	0.048131	-4.6458	-4.0979	-4.8167	-4.6729	-4.2167	-5.0896	-4.5437	-4.6813	-5.0333	-4.3417	-4.9979	-4.8625	-4.2	-5.275	-4.2521	-4.5437	-18.949	224.479	153.222	211.714	95.991	188.420	-60.245	215.533	-43.858	20.372	52.652	150.234	-75.069	211.120	-54.275	125.952	0.00081968	0.0017153	0.00033584	779.17	6.9051e-06	8.7625e-06	1017.6	270.55	6.699e-06	5.4371e-06	351.98	141	96.037	39.874	1.5627e-05	65.365	0.0024498	0.0026707	0.00074435	742.29	2.8654e-05	2.8675e-05	951.1	256.67	2.8514e-05	2.9105e-05	341.5	134.82	94.203	38.74	2.89e-05	62.22	-20.313	-32.782	248.460	-87.239	131.950	87.862	-88.244	-82.519	105.946	-18.283	-84.272	-79.259	-77.606	-73.203	64.618	-75.873	-8191	255	
30035.014	1	1	0	0	0.17129	0.14529	0.072915	0.10038	0.22977	0.1607	0.21598	0.18288	0.052359	0.21675	0.17753	0.22472	0.070025	0.12732	0.31703	0.076493	-4.7854	-4.1438	-4.8896	-5.0896	-4.0312	-5.1667	-4.4146	-4.5708	-5.0542	-4.1958	-4.8167	-4.9062	-4.0854	-5.1583	-4.6292	-4.4062	232.669	44.691	69.605	-91.597	134.342	46.151	203.216	209.926	-31.241	-97.521	232.302	212.080	-86.161	193.169	74.586	191.120	0.00082331	0.00058858	0.00022717	782.5	1.3662e-05	1.1843e-05	1016.4	271.94	1.6686e-06	1.2707e-05	353.2	140.7	95.682	40.013	3.9869e-06	65.319	0.0024572	0.002637	0.00073244	741.92	2.8175e-05	2.8677e-05	952.93	257.86	2.8582e-05	2.9109e-05	341.93	134.92	94.768	38.926	2.8908e-05	62.368	-15.030	145.468	71.153	-87.164	215.828	50.462	-88.324	-82.896	85.145	58.417	-83.780	-79.379	-77.731	-72.913	-47.580	-76.176	-8191	255	
30035.109	1	1	0	0	0.18316	0.18834	0.33259	0.20133	0.14937	0.23187	0.30716	0.14146	0.21403	0.096468	0.085332	0.15326	0.17361	0.23052	0.052455	0.21783	-4.7125	-4.2146	-4.6083	-5.0542	-4.2021	-4.9146	-4.8333	-4.3646	-5.0646	-4.4333	-4.7812	-5.1646	-4.1646	-5.0083	-4.6854	-4.3063	57.614	-42.254	90.170	252.247	-22.737	255.200	183.751	235.014	255.454	158.164	237.593	225.539	186.868	206.201	140.604	161.458	0.0005946	0.0010039	0.00030308	787.53	5.1486e-06	4.0175e-06	1016.3	271.38	1.083e-05	7.3314e-06	355.27	141.89	96.606	40.287	5.856e-06	66.302	0.0024656	0.0026675	0.00073593	745.85	2.8761e-05	2.9468e-05	958.07	259.32	2.8939e-05	2.9824e-05	345.07	136.09	95.284	39.026	2.9541e-05	63.188	-14.997	-33.768	-21.124	-86.947	153.145	-21.991	-87.891	-82.752	-6.542	65.915	-83.929	-79.488	-77.781	-73.112	100.739	-75.980	-8191	255	
30035.205	1	1	0	0	0.07975	0.064051	0.20749	0.052848	0.044883	0.13871	0.15571	0.25052	0.1136	0.1538	0.22125	0.20479	0.14122	0.05424	0.19408	0.2438	-4.9563	-4.3938	-4.5375	-5.1896	-4.1271	-5.0687	-4.8646	-4.3125	-5.1417	-4.3979	-4.5042	-5.0292	-4.1667	-4.9833	-4.8063	-4.175	203.513	113.460	78.896	-95.390	-30.444	251.110	143.812	213.930	25.705	145.149	101.886	236.223	109.155	24.106	139.790	176.560	0.00060384	0.00085811	0.00019029	787.96	1.1049e-05	1.5026e-05	1025.5	275.26	4.5107e-06	3.9192e-06	363.96	144.46	97.815	40.888	1.3119e-05	66.259	0.0025145	0.0027421	0.00075206	747.95	2.9057e-05	2.9763e-05	967.04	261.91	2.9035e-05	2.9848e-05	351.14	138.04	96.272	39.527	2.9535e-05	63.658	42.742	49.149	11.927	-87.238	237.762	99.503	-88.090	-82.603	-21.567	109.258	-84.095	-79.151	-77.411	-73.054	43.080	-76.028	-8191	255	
30035.303	1	1	0	0	0.034316	0.070091	0.1983	0.29483	0.17862	0.062342	0.3105	0.20924	0.20205	0.25427	0.088885	0.18234	0.11767	0.21427	0.10395	0.16554	-4.7708	-4.6562	-4.4667	-5.1792	-4.3208	-4.6771	-5.0396	-4.1771	-4.9792	-4.5833	-4.4333	-5.2125	-4.2271	-4.7417	-4.9375	-4.1438	-97.959	-66.336	-10.076	190.645	253.184	203.617	177.332	247.047	-8.670	14.110	40.024	49.878	-9.281	12.317	147.181	229.355	6.6503e-05	0.00075495	0.00014349	780.4	8.0175e-06	2.2726e-06	1022	270.84	5.7641e-06	1.3687e-06	357.62	141.91	96.045	39.945	9.7659e-06	65.188	0.0025226	0.0027366	0.000759	747.83	2.9374e-05	2.9961e-05	960.83	260.06	2.933e-05	2.9881e-05	346.25	136.1	94.861	38.907	2.9611e-05	62.609	118.960	76.477	52.361	-87.075	91.646	38.239	-87.773	-82.664	10.151	-44.086	-83.906	-79.396	-77.488	-72.993	51.963	-76.038	-8191	255	
30035.398	1	1	0	0	0.18531	0.056433	0.23833	0.07609	0.034383	0.052204	0.15515	0.08735	0.14002	0.16534	0.092525	0.20263	0.135	0.070868	0.049372	0.079689	-4.7688	-4.7167	-4.3313	-5.4021	-4.3354	-4.5813	-5.2438	-4.2958	-4.8521	-5.0521	-4.3417	-5.2312	-4.4708	-4.6438	-5.1479	-4.3438	-96.158	211.954	-50.770	3.812	256.329	255.995	155.037	198.543	120.892	-69.329	96.993	-100.082	133.154	45.664	-4.346	-32.041	0.00019411	0.00049772	8.0664e-05	780.77	4.2114e-06	7.1089e-06	1015.1	269.07	5.5869e-06	4.4873e-06	354.49	140.24	94.7	39.71	4.0931e-06	64.624	0.0025432	0.0027499	0.00076382	742.02	2.9296e-05	2.9657e-05	954.61	257.35	2.9322e-05	3.0106e-05	342.91	134.95	94.285	38.715	2.9685e-05	62.236	15.385	0.558	-24.868	-87.411	-76.097	127.841	-88.230	-82.770	-100.650	-62.083	-84.352	-79.578	-76.982	-73.329	25.610	-76.010	-8191	255	
30035.494	1	1	0	0	0.071153	0.097504	0.03536	0.13108	0.098872	0.16787	0.10824	0.08301	0.11443	0.25121	0.033825	0.15868	0.13379	0.18043	0.053479	0.16025	-4.6021	-4.9	-4.1417	-5.2104	-4.4354	-4.45	-5.4187	-4.4333	-4.8542	-4.9729	-4.4146	-5.1521	-4.5375	-4.3708	-5.2	-4.3021	-3.589	33.542	81.967	-84.112	79.436	116.900	-99.953	206.849	80.724	105.363	154.254	201.973	10.646	220.134	123.744	-96.290	0.00077101	0.00061891	0.00050387	784	5.0847e-06	1.0318e-05	1018.1	270.21	1.8042e-05	9.0307e-06	357.16	140.55	95.977	39.801	2.8428e-06	65.55	0.0025294	0.0027627	0.00076879	742.33	2.9372e-05	3.0329e-05	957.32	258.65	2.9315e-05	2.9906e-05	345.21	135.37	94.708	38.823	2.9787e-05	63.034	-25.993	77.948	17.199	-87.051	138.730	27.415	-88.175	-83.042	59.743	144.995	-84.015	-79.463	-77.346	-73.115	186.836	-76.160	-8191	255	
30035.590	1	1	0	0	0.124	0.26806	0.1642	0.13103	0.11718	0.1533	0.21526	0.25179	0.21801	0.28464	0.11167	0.11315	0.087614	0.069251	0.10568	0.026557	-4.4208	-4.9563	-4.2312	-5.1083	-4.5646	-4.1188	-5.2958	-4.5458	-4.6042	-5.125	-4.3479	-5.1312	-4.8667	-4.4146	-5.0417	-4.5729	77.896	-14.547	197.241	244.170	-87.535	-17.451	161.172	-56.753	185.061	92.202	83.908	156.442	28.647	180.067	231.828	218.762	0.00069429	0.00085889	0.00015619	787.16	7.7412e-06	6.6282e-06	1028.3	272.01	1.4823e-05	1.0695e-05	362.65	141.87	95.758	40.356	4.6111e-06	66.311	0.0025473	0.0027363	0.00077468	745.05	2.953e-05	3.0184e-05	963.36	260.09	2.9771e-05	3.0375e-05	349.42	136.25	95.126	39.283	2.9799e-05	63.522	-34.648	-9.412	-20.313	-87.183	-41.283	-1.671	-88.033	-82.892	216.659	93.559	-83.840	-78.827	-77.381	-72.856	-2.839	-76.016	-8191	255	
30035.688	1	1	0	0	0.059678	0.11267	0.14229	0.23799	0.15743	0.090684	0.13469	0.19547	0.1743	0.23027	0.079523	0.086738	0.19351	0.28893	0.091848	0.054242	-4.3542	-5.0708	-4.1937	-5.0875	-4.8063	-4.3187	-5.1	-4.4833	-4.4729	-5.2667	-4.35	-4.9688	-5.0479	-4.1958	-5.0667	-4.4708	68.366	-86.899	78.686	-91.689	201.498	85.522	216.649	190.334	257.682	219.913	166.180	216.731	242.013	230.022	148.743	138.648	0.00068084	0.00071927	0.00011333	782.88	1.5774e-05	7.4347e-06	1027.3	274.36	1.3056e-05	1.3313e-05	367.61	145.59	97.581	40.343	2.0778e-05	66.376	0.0025575	0.0027701	0.00077771	746.21	2.9906e-05	3.0454e-05	965.52	261.83	3.0169e-05	3.0518e-05	354.34	138.66	96.674	39.558	3.062e-05	63.834	10.902	-5.811	50.226	-87.421	27.133	118.041	-87.818	-82.468	67.023	41.327	-84.123	-79.105	-77.122	-73.287	45.821	-75.721	-8191	255	
30035.805	1	1	0	0	0.33359	0.048886	0.13401	0.11538	0.12031	0.17567	0.19629	0.036754	0.19754	0.20514	0.31281	0.32548	0.17655	0.11728	0.21646	0.048385	-4.0813	-5.1125	-4.3104	-4.7333	-4.9375	-4.1104	-5.0771	-4.6312	-4.4708	-5.2583	-4.2333	-4.9417	-5.1083	-4.1875	-4.9729	-4.8167	-32.894	181.228	209.605	239.310	18.538	173.612	120.679	251.041	89.415	156.273	-82.566	250.914	162.721	200.377	228.978	63.556	0.00099454	0.00078	0.00018163	801.07	1.7293e-05	1.3086e-05	1029.2	274.74	1.8579e-05	1.5063e-05	358.42	141.71	96.866	39.84	1.1504e-05	64.481	0.0026263	0.0028745	0.00079896	760.37	3.0807e-05	3.1451e-05	969.46	262.81	3.0415e-05	3.1099e-05	347.19	136.51	96.189	38.933	3.03e-05	62.23	-23.401	14.829	-29.215	-87.083	201.892	-50.190	-88.058	-82.480	17.320	18.200	-84.136	-79.486	-77.267	-73.080	23.674	-76.017	-8191	255	
30035.902	1	1	0	0	0.090275	0.11704	0.18861	0.31241	0.1609	0.12829	0.33344	0.19266	0.26134	0.25007	0.26322	0.33133	0.16627	0.15311	0.094549	0.22726	-4.1375	-5.0604	-4.4917	-4.7208	-4.9875	-4.2	-5.0437	-4.8187	-4.4208	-5.1562	-4.4604	-4.6188	-5.3021	-4.2667	-4.8333	-4.9875	70.422	-91.914	232.347	244.842	243.400	85.948	217.717	105.278	155.794	-96.446	155.568	234.705	174.886	-95.102	89.893	180.219	0.00057249	0.0010955	0.00027554	792.53	1.0816e-05	1.9452e-05	1014.6	270.11	8.9571e-06	5.743e-06	354.41	140.71	95.972	39.614	8.8146e-06	64.112	0.0025832	0.0028022	0.00078073	751.44	2.9757e-05	3.1031e-05	956.57	259.29	2.9862e-05	3.0522e-05	342.36	134.62	95.231	38.666	2.9985e-05	61.968	-28.798	-45.812	26.844	-87.456	-42.539	121.451	-88.120	-82.832	-72.602	24.012	-83.883	-79.901	-77.157	-73.233	7.874	-76.158	-8191	255	
30035.998	1	1	0	0	0.10383	0.15336	0.091326	0.019754	0.052359	0.034366	0.094412	0.03592	0.0071589	0.15777	0.11014	0.19047	0.11866	0.034438	0.17793	0.14354	-3.7562	-5.1937	-4.6333	-4.4896	-5.1521	-4.3333	-4.9458	-4.9125	-4.0604	-5.0833	-4.5771	-4.3229	-5.1021	-4.2188	-4.8167	-5.1937	16.099	-99.139	-66.224	208.800	-25.025	120.990	-50.077	26.503	193.262	-88.520	-58.476	198.790	220.195	-20.523	201.926	94.470	0.00084012	0.0011727	0.00020266	785.38	1.2828e-05	2.218e-05	1020.6	271.04	1.1009e-05	1.1949e-05	356.11	140.46	95.597	39.959	1.9623e-05	64.499	0.0025553	0.002737	0.00077839	743.7	2.9575e-05	3.0543e-05	957.27	258.56	2.9765e-05	3.0236e-05	343.65	135.51	95.563	38.948	3.0044e-05	62.288	8.284	-56.412	14.392	-87.594	53.316	0.990	-88.421	-82.621	124.383	0.446	-83.658	-79.841	-77.164	-72.895	109.484	-76.145	-8191	255	
30036.094	1	1	0	0	0.096138	0.20115	0.073937	0.13592	0.23517	0.06434	0.32083	0.16735	0.3909	0.1958	0.27669	0.12573	0.35102	0.18096	0.14676	0.05251	-4.0042	-5.0437	-4.4646	-4.3313	-5.1125	-4.4396	-4.8021	-5.2042	-4.0604	-5.0208	-4.5646	-4.2833	-5.0792	-4.2833	-4.3958	-5.1438	148.651	-78.995	139.566	169.875	85.433	-45.462	243.082	225.809	142.151	-36.462	136.307	-93.273	166.251	200.544	234.553	3.747	0.00049421	0.0011521	7.2831e-05	782.18	1.0603e-05	1.2601e-05	1020.6	272.58	1.6111e-05	3.2377e-06	356.53	141.98	97.08	39.888	4.831e-06	66.015	0.0026022	0.0027964	0.00077375	746.83	3.0179e-05	3.0797e-05	963.83	260.49	3.0324e-05	3.0561e-05	347.19	136.68	96.016	39.207	3.0379e-05	63.133	-6.210	118.352	83.400	-87.473	20.801	75.106	-88.064	-82.206	29.589	-55.175	-83.675	-79.555	-77.196	-73.114	41.401	-76.016	-8191	255	
30036.189	1	1	0	0	0.048394	0.11703	0.15431	0.18113	0.1924	0.081279	0.22558	0.16767	0.090388	0.073982	0.22278	0.23834	0.058211	0.24776	0.25483	0.27125	-3.7104	-5.0229	-4.6312	-4.375	-5.1625	-4.4833	-4.6312	-5.1042	-3.9854	-4.725	-4.9646	-4.45	-5.1271	-4.4896	-4.3854	-5.1646	93.377	25.019	18.093	245.691	61.871	71.803	-92.081	122.768	39.480	-1.516	-20.498	146.414	134.352	-49.684	-28.993	134.513	0.00060679	0.00119	0.00027275	790.6	5.6403e-06	2.3473e-05	1032.5	277.4	8.8536e-06	1.3949e-05	367.24	144.29	98.159	40.314	7.8211e-06	65.681	0.0026238	0.0028097	0.00078354	754.03	2.9988e-05	3.0817e-05	971.63	264.91	3.0333e-05	3.052e-05	353.81	138.19	96.891	39.268	3.0217e-05	62.955	-25.668	40.345	84.626	-87.557	136.566	75.030	-88.331	-82.265	85.209	177.532	-83.709	-79.460	-77.838	-72.786	-13.212	-75.793	-8191	255	
#DATA ENDS
