BOXY.EXE: ISS Imagent and Oximeter Data Acquisition Program Version 0.80
Ascii Record File

#ACQ INFORMATION
2  Detector Channels 
16  External MUX Channels 
1  Auxiliary Channels 
5000  Waveform (CCF) Frequency (Hz)
1  Waveforms Skipped 
30  Waveforms Averaged 
1  Cycles Averaged 
16  Acquisitions per Waveform 
10.0806  Updata Rate (Hz) 

#FILE INFORMATION
TRUE -- External MUX Channel results are PARSED.
FALSE -- AC DC and Phase are NOT grouped.
TRUE -- Companion Program Settings File CREATED.
FALSE -- AC data not excluded
FALSE -- DC data not excluded
FALSE -- Phase data not excluded
FALSE -- Auxillary Chn. data not excluded
Tab delimiters

#CALIBRATION STATE
TRUE -- Waveform Calibration Values APPLIED.


#AUX CALIBRATION VALUES
Val Type	aux-1	

Term	1.0000e+00	
Factor	0.0000e+00	


#WF CALIBRATION VALUES
A = Detector Channel
Val Type	A-AC1	A-AC2	A-AC3	A-AC4	A-AC5	A-AC6	A-AC7	A-AC8	A-AC9	A-AC10	A-AC11	A-AC12	A-AC13	A-AC14	A-AC15	A-AC16	A-DC1	A-DC2	A-DC3	A-DC4	A-DC5	A-DC6	A-DC7	A-DC8	A-DC9	A-DC10	A-DC11	A-DC12	A-DC13	A-DC14	A-DC15	A-DC16	A-Ph1	A-Ph2	A-Ph3	A-Ph4	A-Ph5	A-Ph6	A-Ph7	A-Ph8	A-Ph9	A-Ph10	A-Ph11	A-Ph12	A-Ph13	A-Ph14	A-Ph15	A-Ph16	

Term	0.00000e+00	0.00000e+00	0.00000e+00	0.00000e+00	0.00000e+00	0.00000e+00	0.00000e+00	0.00000e+00	0.00000e+00	0.00000e+00	0.00000e+00	0.00000e+00	0.00000e+00	0.00000e+00	0.00000e+00	0.00000e+00	0.00000e+00	0.00000e+00	0.00000e+00	0.00000e+00	0.00000e+00	0.00000e+00	0.00000e+00	0.00000e+00	0.00000e+00	0.00000e+00	0.00000e+00	0.00000e+00	0.00000e+00	0.00000e+00	0.00000e+00	0.00000e+00	0.00000e+00	0.00000e+00	0.00000e+00	0.00000e+00	0.00000e+00	0.00000e+00	0.00000e+00	0.00000e+00	0.00000e+00	0.00000e+00	0.00000e+00	0.00000e+00	0.00000e+00	0.00000e+00	0.00000e+00	0.00000e+00	
Factor	1.00000e+00	1.00000e+00	1.00000e+00	1.00000e+00	1.00000e+00	1.00000e+00	1.00000e+00	1.00000e+00	1.00000e+00	1.00000e+00	1.00000e+00	1.00000e+00	1.00000e+00	1.00000e+00	1.00000e+00	1.00000e+00	1.00000e+00	1.00000e+00	1.00000e+00	1.00000e+00	1.00000e+00	1.00000e+00	1.00000e+00	1.00000e+00	1.00000e+00	1.00000e+00	1.00000e+00	1.00000e+00	1.00000e+00	1.00000e+00	1.00000e+00	1.00000e+00	X	X	X	X	X	X	X	X	X	X	X	X	X	X	X	X	

B = Detector Channel
Val Type	B-AC1	B-AC2	B-AC3	B-AC4	B-AC5	B-AC6	B-AC7	B-AC8	B-AC9	B-AC10	B-AC11	B-AC12	B-AC13	B-AC14	B-AC15	B-AC16	B-DC1	B-DC2	B-DC3	B-DC4	B-DC5	B-DC6	B-DC7	B-DC8	B-DC9	B-DC10	B-DC11	B-DC12	B-DC13	B-DC14	B-DC15	B-DC16	B-Ph1	B-Ph2	B-Ph3	B-Ph4	B-Ph5	B-Ph6	B-Ph7	B-Ph8	B-Ph9	B-Ph10	B-Ph11	B-Ph12	B-Ph13	B-Ph14	B-Ph15	B-Ph16	

Term	0.00000e+00	0.00000e+00	0.00000e+00	0.00000e+00	0.00000e+00	0.00000e+00	0.00000e+00	0.00000e+00	0.00000e+00	0.00000e+00	0.00000e+00	0.00000e+00	0.00000e+00	0.00000e+00	0.00000e+00	0.00000e+00	0.00000e+00	0.00000e+00	0.00000e+00	0.00000e+00	0.00000e+00	0.00000e+00	0.00000e+00	0.00000e+00	0.00000e+00	0.00000e+00	0.00000e+00	0.00000e+00	0.00000e+00	0.00000e+00	0.00000e+00	0.00000e+00	-7.80260e+01	-1.58627e+02	-1.69044e+02	-1.83775e+02	-9.56680e+01	-8.10641e+01	-1.58123e+02	-1.62015e+02	-7.06761e+01	-1.03333e+02	-1.70742e+02	-1.70756e+02	-1.78698e+02	-1.77014e+02	-1.06885e+02	-1.49823e+02	
Factor	1.89549e-05	9.66343e-05	3.90588e-05	1.69121e-01	1.09656e-06	1.06494e-06	1.87830e-01	6.00408e-02	1.11570e-06	1.14070e-06	9.95031e-02	3.37985e-02	3.11028e-02	1.10307e-02	1.00689e-06	1.56862e-02	6.37178e-07	6.49506e-07	1.80709e-07	7.65429e-02	7.12655e-09	7.12169e-09	7.97188e-02	2.69659e-02	7.12101e-09	7.12221e-09	4.22235e-02	1.44095e-02	1.37016e-02	4.81339e-03	7.13314e-09	6.55754e-03	X	X	X	X	X	X	X	X	X	X	X	X	X	X	X	X	



#DISTANCE SETTINGS
A = Detector Channel
A-1	A-2	A-3	A-4	A-5	A-6	A-7	A-8	A-9	A-10	A-11	A-12	A-13	A-14	A-15	A-16	

2.5000e+00	3.0000e+00	2.5000e+00	3.0000e+00	2.0000e+00	3.0000e+00	1.5000e+00	3.0000e+00	3.0000e+00	3.0000e+00	3.0000e+00	3.0000e+00	3.0000e+00	3.0000e+00	1.5000e+00	3.0000e+00	

B = Detector Channel
B-1	B-2	B-3	B-4	B-5	B-6	B-7	B-8	B-9	B-10	B-11	B-12	B-13	B-14	B-15	B-16	

1.0000e+01	1.0000e+01	1.0000e+01	1.4400e+00	1.0000e+01	1.0000e+01	1.5100e+00	1.9400e+00	1.0000e+01	1.0000e+01	1.9900e+00	2.4900e+00	2.4100e+00	2.9000e+00	1.0000e+01	2.9800e+00	




#DATA BEGINS
time	group	step	mark	flag	A-AC1	A-AC2	A-AC3	A-AC4	A-AC5	A-AC6	A-AC7	A-AC8	A-AC9	A-AC10	A-AC11	A-AC12	A-AC13	A-AC14	A-AC15	A-AC16	A-DC1	A-DC2	A-DC3	A-DC4	A-DC5	A-DC6	A-DC7	A-DC8	A-DC9	A-DC10	A-DC11	A-DC12	A-DC13	A-DC14	A-DC15	A-DC16	A-Ph1	A-Ph2	A-Ph3	A-Ph4	A-Ph5	A-Ph6	A-Ph7	A-Ph8	A-Ph9	A-Ph10	A-Ph11	A-Ph12	A-Ph13	A-Ph14	A-Ph15	A-Ph16	B-AC1	B-AC2	B-AC3	B-AC4	B-AC5	B-AC6	B-AC7	B-AC8	B-AC9	B-AC10	B-AC11	B-AC12	B-AC13	B-AC14	B-AC15	B-AC16	B-DC1	B-DC2	B-DC3	B-DC4	B-DC5	B-DC6	B-DC7	B-DC8	B-DC9	B-DC10	B-DC11	B-DC12	B-DC13	B-DC14	B-DC15	B-DC16	B-Ph1	B-Ph2	B-Ph3	B-Ph4	B-Ph5	B-Ph6	B-Ph7	B-Ph8	B-Ph9	B-Ph10	B-Ph11	B-Ph12	B-Ph13	B-Ph14	B-Ph15	B-Ph16	aux-1	digaux	

44650.375	1	1	0	768	0.099282	0.12671	0.087222	0.30681	0.23085	0.13737	0.28222	0.36228	0.1471	0.17256	0.24945	0.20118	0.11559	0.19031	0.18793	0.1138	-4.5417	-4.0104	-4.7854	-4.8896	-4.0125	-4.9896	-4.4333	-4.5104	-4.9437	-4.0896	-4.9354	-4.9146	-4.0625	-5.0312	-4.2958	-4.4542	85.177	309.519	37.582	214.785	-28.591	-0.786	266.692	-37.957	160.732	150.703	246.088	221.660	205.655	283.242	-7.728	268.346	0.00029412	0.00036106	0.00012588	1553.6	4.6894e-06	4.6655e-06	1614.4	545.06	5.4542e-06	5.5893e-06	670.47	238.16	173.73	58.594	5.2992e-06	100.92	4.0868e-05	3.2312e-05	8.5411e-06	1301.9	3.6798e-07	3.1782e-07	1350.1	452.87	3.573e-07	3.3629e-07	543.28	194.03	140.91	47.425	3.4053e-07	80.318	191.610	18.904	55.765	-25.833	104.354	75.396	-26.194	-22.233	111.098	84.042	-23.448	-19.448	-17.993	-13.818	80.306	-15.384	-8191	255	
44650.473	1	1	0	0	0.13278	0.17363	0.23591	0.37103	0.17391	0.10685	0.4063	0.076493	0.15257	0.050619	0.18679	0.075297	0.12455	0.21459	0.13732	0.3447	-4.9292	-4.0979	-4.6229	-4.9375	-4.0458	-4.95	-4.775	-4.3708	-5.1146	-4.2521	-4.7167	-5.0813	-4.0583	-4.875	-4.6292	-4.3333	311.705	262.948	237.495	266.416	-11.644	93.732	233.971	136.355	261.313	53.397	225.982	186.865	166.450	295.529	51.413	242.815	0.00027695	0.00072446	0.00024182	1571.4	4.5248e-06	7.3698e-06	1630.2	551.78	4.7427e-06	6.1201e-06	674.63	240.36	175.49	59.347	2.3164e-06	101.96	4.0489e-05	3.0994e-05	8.2441e-06	1313.5	3.5798e-07	3.2893e-07	1359.9	456.67	3.5067e-07	3.3896e-07	546.86	196.65	141.94	47.921	3.2964e-07	81.335	201.906	17.925	9.350	-25.783	83.717	56.184	-26.481	-22.324	165.109	52.984	-23.347	-18.993	-18.167	-14.012	78.393	-15.365	-8191	255	
44650.566	1	1	0	0	0.16071	0.1235	0.21193	0.24767	0.21781	0.090156	0.13958	0.30618	0.052599	0.14265	0.048197	0.13933	0.27501	0.27645	0.071783	0.14246	-4.7188	-4.2125	-4.3083	-5.1562	-4.0021	-4.8	-4.85	-4.4875	-4.9479	-4.3271	-4.6271	-5.1625	-4.2771	-4.8917	-4.7521	-4.4375	208.284	188.746	6.834	265.467	43.850	155.226	239.264	244.497	319.463	-22.881	50.196	287.812	306.484	310.241	219.550	299.126	0.0002646	0.00059282	0.00019072	1570	4.0245e-06	3.0897e-06	1632.8	546.07	4.8577e-06	8.3644e-06	671.62	237.47	172.62	57.798	5.1266e-06	100.22	4.0536e-05	3.2199e-05	8.604e-06	1315.4	3.5613e-07	3.2853e-07	1356.7	452.18	3.5985e-07	3.3887e-07	539.51	193.19	139.37	46.765	3.3764e-07	79.516	195.968	-6.155	7.800	-25.818	95.028	84.799	-26.184	-22.262	109.968	92.926	-23.116	-18.879	-18.223	-14.217	50.607	-15.532	-8191	255	
44650.664	1	1	0	0	0.10881	0.19853	0.14014	0.22216	0.12871	0.14584	0.1171	0.10345	0.095398	0.16857	0.18316	0.27288	0.051042	0.24443	0.1213	0.31797	-4.7729	-4.4146	-4.3521	-5.1687	-4.2021	-4.5437	-4.975	-4.3167	-4.8417	-4.5437	-4.4625	-5.1396	-4.3958	-4.6792	-4.7792	-4.3042	192.794	-2.913	99.949	-4.545	291.932	290.014	226.070	69.811	282.146	270.489	190.220	208.393	73.895	295.630	199.211	310.225	0.00029132	0.0004887	0.00016796	1539.3	4.8448e-06	5.5925e-06	1592.5	541.42	5.6911e-06	3.6532e-06	661.21	235.74	171.91	57.898	3.2741e-06	99.922	4.0418e-05	2.9741e-05	8.4158e-06	1286.7	3.4867e-07	3.1491e-07	1336.6	448.06	3.473e-07	3.2946e-07	535.96	192.21	138.65	46.689	3.4452e-07	79.312	192.539	27.288	-3.134	-25.729	105.784	104.274	-26.320	-22.032	126.736	71.307	-23.559	-18.866	-18.022	-13.784	62.329	-15.443	-8191	255	
44650.762	1	1	0	0	0.22739	0.1218	0.085	0.24829	0.13408	0.17105	0.12994	0.19565	0.14377	0.074525	0.11643	0.11328	0.37131	0.077537	0.06051	0.40284	-4.6354	-4.5687	-4.1521	-5.2208	-4.3292	-4.5708	-5.1667	-4.2188	-4.8854	-4.6771	-4.1542	-5.0833	-4.3063	-4.5938	-4.8979	-4.2688	29.856	272.494	149.589	260.471	137.203	64.835	255.953	-11.230	213.613	80.696	249.668	278.803	306.830	319.168	284.835	249.473	0.00025337	0.00057188	0.00015306	1535.9	3.387e-06	6.2541e-06	1598.4	540.04	1.6785e-06	7.1553e-06	664.49	234.53	171.07	57.422	3.2213e-06	99.859	4.0263e-05	2.9826e-05	8.6612e-06	1289.5	3.4945e-07	3.1454e-07	1342.1	449.09	3.4519e-07	3.2092e-07	537.06	192.38	138.97	46.583	3.4288e-07	79.477	185.944	21.680	-7.074	-25.897	62.970	113.324	-26.248	-22.267	187.978	53.250	-23.400	-18.694	-17.979	-14.196	85.555	-15.390	-8191	255	
44650.855	1	1	0	0	0.030413	0.11071	0.108	0.26056	0.16532	0.055192	0.18139	0.18818	0.095985	0.20972	0.094531	0.4029	0.13006	0.042591	0.15546	0.29515	-4.4938	-4.6771	-4.075	-5.2438	-4.2917	-4.2958	-5.2188	-4.1479	-4.6083	-4.6583	-4.0833	-5.0583	-4.4354	-4.2688	-4.975	-4.2958	113.070	273.204	37.715	63.849	110.309	66.636	193.195	203.733	226.010	135.640	3.794	316.121	19.581	200.366	148.086	218.434	0.00023762	0.00060207	0.00015683	1547.9	6.5527e-06	2.9511e-06	1606.3	542.68	6.3292e-06	3.7194e-06	664.97	237.44	173.85	58.134	6.352e-06	100.26	4.2498e-05	2.9796e-05	8.444e-06	1294.9	3.6837e-07	3.2316e-07	1346.6	450.47	3.704e-07	3.1701e-07	540.45	193.67	139.82	47.179	3.4625e-07	80.176	196.589	33.325	2.072	-25.821	72.825	113.407	-25.926	-21.942	113.667	66.307	-23.530	-19.335	-18.276	-13.961	91.527	-15.268	-8191	255	
44650.977	1	1	0	0	0.14448	0.018188	0.13627	0.21799	0.13095	0.1027	0.22269	0.17141	0.18312	0.14021	0.087596	0.1678	0.23544	0.2106	0.11478	0.23145	-4.5083	-4.8667	-3.9729	-5.0375	-4.4167	-4.2917	-5.2208	-4.2333	-4.3833	-4.8917	-4.0958	-5.0146	-4.7646	-4.1438	-5.0792	-4.3229	229.869	190.424	75.786	271.771	38.384	282.990	247.131	183.325	189.429	69.054	190.697	239.925	235.742	311.094	47.443	280.125	0.00031031	0.00034238	0.00024248	1559.7	4.3879e-06	5.3334e-06	1626.2	549.35	4.2505e-06	5.2839e-06	674.2	239.12	173.96	58.987	4.3262e-06	103.17	4.2984e-05	3.058e-05	8.6612e-06	1302	3.5138e-07	3.2666e-07	1356.8	453.69	3.3556e-07	3.3133e-07	547.44	196.13	141.2	47.779	3.2857e-07	81.814	203.112	14.096	30.533	-25.829	91.032	110.004	-25.929	-21.941	111.116	76.564	-23.365	-18.808	-17.848	-13.737	103.607	-15.324	-8191	255	
44651.070	1	1	0	0	0.15966	0.076377	0.1022	0.20538	0.10955	0.10172	0.21845	0.075121	0.16838	0.15533	0.13941	0.12099	0.093649	0.43493	0.088831	0.18917	-4.0833	-4.9688	-3.9792	-5.0333	-4.5771	-4.175	-5.2042	-4.5146	-4.3229	-5.0167	-4.1604	-4.85	-4.6687	-4.0958	-4.9292	-4.3896	-36.624	37.264	3.014	268.795	210.250	19.752	250.189	-33.132	-19.721	148.745	-22.448	300.995	237.430	315.489	252.150	310.946	0.00025171	0.00061753	0.00021329	1569.7	5.0908e-06	5.3104e-06	1622.7	544.08	3.329e-06	7.4975e-06	667.78	236.94	172.04	58.194	4.88e-06	100.13	4.1081e-05	2.9814e-05	8.4685e-06	1309.5	3.5126e-07	3.3878e-07	1357.2	451.7	3.4804e-07	3.221e-07	539.83	193.57	139.27	46.916	3.3529e-07	79.933	194.593	20.839	2.948	-26.007	61.094	76.948	-25.876	-22.157	122.952	72.496	-23.400	-18.916	-17.835	-14.009	89.800	-15.267	-8191	255	
44651.168	1	1	0	0	0.21729	0.095857	0.17675	0.26896	0.25817	0.19262	0.25293	0.14559	0.15673	0.1081	0.30461	0.049501	0.12993	0.048863	0.0058027	0.15762	-4.05	-5.0604	-4.1208	-4.8583	-4.6062	-4.2	-5.1021	-4.5563	-4.1146	-4.9729	-4.4125	-4.7188	-5.0625	-4.1125	-4.9313	-4.6896	132.964	20.128	156.914	265.577	27.439	277.914	279.846	-31.288	234.215	243.301	313.384	-31.747	276.283	-4.211	112.752	-33.592	0.00027687	0.00062122	0.00022176	1535.9	2.5065e-06	5.082e-06	1597.6	537.06	4.407e-06	5.2623e-06	663.41	234.64	170.98	57.628	3.0569e-06	99.371	4.1828e-05	2.8984e-05	8.6168e-06	1288	3.4455e-07	3.2754e-07	1337.7	446.58	3.512e-07	3.2365e-07	537.06	192.01	138.26	46.453	3.2526e-07	79.304	186.728	21.788	-1.733	-26.284	88.352	91.416	-26.387	-22.033	129.400	62.743	-23.198	-18.500	-18.033	-13.937	33.133	-15.291	-8191	255	
44651.262	1	1	0	0	0.15461	0.11953	0.073567	0.13598	0.14088	0.12479	0.20504	0.19046	0.09406	0.12629	0.26488	0.14873	0.19607	0.23856	0.062269	0.079788	-3.8833	-4.9187	-4.0729	-4.7375	-4.9313	-4.1125	-5.1125	-4.6438	-4.1542	-4.925	-4.4313	-4.5	-4.9208	-4.1667	-4.8146	-4.7063	111.073	36.022	54.551	267.082	141.649	2.759	284.834	271.428	156.313	46.440	261.379	215.017	210.875	249.616	101.898	279.803	0.00024204	0.00068799	0.00018652	1539.2	3.2987e-06	6.1775e-06	1594.9	536.59	2.9966e-06	5.7555e-06	662.82	234.63	170.61	57.165	4.5824e-06	99.569	4.0787e-05	3.0218e-05	8.6481e-06	1287.7	3.5398e-07	3.3781e-07	1335.1	445.7	3.6646e-07	3.2031e-07	536.8	191.57	138.54	46.376	3.4562e-07	79.489	194.031	31.393	-13.232	-25.927	123.638	115.776	-26.422	-22.188	141.195	82.423	-23.437	-19.120	-18.028	-13.447	90.681	-15.135	-8191	255	
44651.359	1	1	0	0	0.12463	0.13325	0.063274	0.38153	0.29626	0.052981	0.27332	0.29154	0.22394	0.075942	0.30822	0.35244	0.15484	0.094886	0.036043	0.063662	-3.8083	-5.0521	-4.3562	-4.5333	-5.0167	-4.1792	-4.9	-4.8708	-4.0521	-5.0167	-4.3875	-4.3792	-4.9604	-3.9562	-4.6312	-4.8167	239.649	152.120	289.137	290.591	219.472	290.934	273.031	319.207	77.121	227.833	272.179	268.881	-14.580	-5.907	125.758	314.084	0.00031267	0.00061817	0.00019821	1534.8	2.9898e-06	4.7252e-06	1600	540.85	4.2334e-06	5.3496e-06	666.67	236.68	173.44	57.432	2.3656e-06	100.9	3.9772e-05	2.9868e-05	8.4545e-06	1287.7	3.4196e-07	3.2932e-07	1341.7	447.7	3.4394e-07	3.3615e-07	539.89	193.53	139.82	46.742	3.5661e-07	80.309	207.504	12.706	29.231	-26.080	109.898	104.513	-26.423	-22.187	110.146	88.022	-23.469	-19.220	-18.164	-13.997	65.368	-14.972	-8191	255	
44651.457	1	1	0	0	0.12354	0.14797	0.18112	0.27523	0.16324	0.057056	0.13872	0.13652	0.17742	0.065648	0.13577	0.17213	0.22581	0.17671	0.10828	0.17852	-3.7708	-4.9521	-4.3583	-4.4771	-4.8146	-4.2125	-4.6833	-5.1625	-4.1146	-4.8854	-4.7146	-4.3729	-5.05	-4.0083	-4.5729	-4.8625	21.494	183.432	-32.331	289.978	272.933	113.160	-29.965	303.982	195.754	163.416	303.337	241.639	285.456	315.750	-28.012	276.145	0.0002827	0.00035948	0.00018994	1561.7	3.7946e-06	4.9996e-06	1629.2	548.71	6.1407e-06	4.0444e-06	683.61	243.31	175.58	59.597	5.3258e-06	104.17	4.1997e-05	3.082e-05	8.9489e-06	1303	3.6246e-07	3.4465e-07	1363.2	454.95	3.6897e-07	3.5096e-07	549.94	198.39	142.16	48.112	3.7113e-07	82.99	183.698	24.111	5.994	-26.077	105.209	73.408	-26.509	-21.980	103.242	64.837	-23.362	-19.030	-17.989	-14.195	79.519	-15.087	-8191	255	
44651.551	1	1	0	0	0.1495	0.10922	0.15235	0.32571	0.14256	0.15515	0.086846	0.16678	0.14723	0.12889	0.16667	0.22283	0.34044	0.23864	0.11958	0.10473	-3.575	-4.8583	-4.5208	-4.4792	-5.0958	-4.2417	-4.6229	-5.1542	-3.8917	-4.8208	-4.7083	-4.2208	-5.1604	-4.4938	-4.2854	-5.0479	117.014	74.189	265.866	274.264	-1.944	61.131	234.669	285.586	14.494	297.147	-35.924	241.887	-7.704	250.265	179.195	219.754	0.00023122	0.0005633	0.00018288	1576.7	7.2507e-06	5.8359e-06	1644.3	550.22	4.1526e-06	6.5216e-06	678.52	239.54	172.97	58.576	6.0519e-06	101.46	4.3461e-05	3.1839e-05	9.1175e-06	1321.2	3.7063e-07	3.5168e-07	1374.6	456.76	3.8953e-07	3.2146e-07	548.96	195.86	140.45	47.303	3.6223e-07	81.015	187.480	20.730	-9.802	-26.081	91.122	89.943	-26.218	-22.138	129.635	61.135	-23.126	-19.009	-17.772	-14.183	71.902	-14.885	-8191	255	
44651.672	1	1	0	0	0.055483	0.097734	0.19822	0.492	0.076157	0.057341	0.36308	0.32575	0.11731	0.016015	0.24077	0.16804	0.2421	0.1858	0.17868	0.10349	-3.7687	-4.6729	-4.6229	-4.15	-4.8521	-4.1188	-4.425	-5.1458	-4.0208	-4.6458	-4.7875	-4.2333	-5.2063	-4.4563	-4.3042	-5.2125	276.706	304.111	159.516	301.968	145.417	82.139	254.218	262.786	36.301	257.790	233.929	199.515	233.417	275.640	152.907	161.805	0.00024068	0.00056909	0.00020712	1544.9	5.7906e-06	5.3505e-06	1614	544.31	2.4231e-06	2.0396e-06	670.57	237.21	171.35	58.201	3.2528e-06	101.17	4.2948e-05	3.0456e-05	8.889e-06	1293.3	3.6114e-07	3.6278e-07	1352.6	450.32	3.613e-07	3.3609e-07	542.02	194.2	139.62	47.104	3.711e-07	80.632	187.372	14.382	-11.632	-26.053	88.291	101.461	-26.420	-22.133	152.855	43.771	-23.578	-19.044	-18.011	-13.909	80.453	-14.866	-8191	255	
44651.766	1	1	0	0	0.10211	0.10764	0.10674	0.14711	0.092253	0.22031	0.027559	0.10351	0.26756	0.12864	0.16505	0.022306	0.066709	0.17753	0.12489	0.29579	-3.8479	-4.4729	-4.7708	-4.1188	-4.7521	-4.5479	-4.2979	-5.3167	-4.2896	-4.525	-5.1104	-4.1312	-4.9146	-4.5854	-4.1062	-5.2104	133.950	128.449	245.353	250.550	196.433	114.355	-17.539	228.536	292.995	212.406	-3.586	280.525	14.586	217.225	232.691	263.897	0.00025912	0.00057606	0.00013467	1557.3	7.6768e-06	4.3679e-06	1629.3	549.66	6.2961e-06	5.3794e-06	680.04	240.48	174	59.06	3.7926e-06	102.82	4.3279e-05	3.2428e-05	8.6921e-06	1296.5	3.8856e-07	3.5711e-07	1357.7	454.04	3.8588e-07	3.5016e-07	547.66	196.42	140.91	47.531	3.5633e-07	81.858	197.784	16.716	13.247	-25.917	67.617	88.347	-26.383	-22.142	113.706	63.319	-23.496	-18.863	-17.658	-13.663	95.117	-15.161	-8191	255	
44651.863	1	1	0	0	0.18434	0.1278	0.26365	0.07141	0.17677	0.05208	0.30971	0.06521	0.093878	0.1455	0.16447	0.32234	0.24532	0.14846	0.24374	0.14909	-3.9875	-4.2937	-4.9271	-4.1375	-4.7208	-4.6667	-4.3854	-5.2542	-4.2667	-4.2771	-5.0646	-4.0042	-4.7104	-4.7771	-4.175	-5.1417	242.995	279.582	261.412	314.241	167.851	18.903	260.299	290.061	63.932	197.079	-35.974	295.686	316.641	317.409	256.988	308.621	0.00028916	0.00029703	0.00014602	1560.2	5.4104e-06	6.0029e-06	1637.9	550.97	5.9501e-06	2.4271e-06	683.44	240.44	174.34	59.505	6.1517e-06	103.34	4.4358e-05	3.3839e-05	8.921e-06	1306.4	3.7774e-07	3.6255e-07	1368.2	456.58	3.8394e-07	3.5498e-07	551.38	197.21	141.68	47.893	3.8235e-07	82.349	194.504	10.897	-4.235	-26.067	75.851	94.148	-26.270	-22.019	103.887	78.972	-23.440	-19.171	-17.821	-13.742	54.111	-14.881	-8191	255	
44651.938	1	1	0	0	0.15601	0.13458	0.091366	0.29219	0.17637	0.077938	0.25435	0.22893	0.020524	0.2248	0.23917	0.23575	0.30853	0.054967	0.17537	0.13991	-4.2542	-4.2083	-4.9667	-4.1771	-4.6771	-4.7083	-4.2104	-5.0979	-4.3583	-4.1396	-5.0958	-4.1917	-4.7042	-4.7875	-3.9458	-5.0542	40.999	203.836	5.001	242.885	33.170	96.502	296.929	235.727	260.526	245.708	261.954	298.533	273.823	-38.348	200.441	242.954	0.00027146	0.00047513	0.00021752	1562.9	5.2932e-06	5.3318e-06	1646.9	552.75	5.1283e-06	3.9434e-06	688.06	243.94	174.37	59.472	3.0662e-06	105.18	4.3636e-05	3.4647e-05	8.8867e-06	1311.2	3.8004e-07	3.626e-07	1377.6	458.01	3.9493e-07	3.5253e-07	555.23	199.01	142.45	48.201	3.8873e-07	83.523	201.049	34.414	-11.139	-25.872	122.509	117.510	-26.554	-22.181	97.063	96.433	-23.306	-19.101	-17.842	-13.714	64.733	-15.186	-8191	255	
44652.055	1	1	0	0	0.13738	0.22194	0.035585	0.36459	0.12592	0.20237	0.36128	0.12411	0.16893	0.23174	0.11545	0.14719	0.24248	0.16365	0.065835	0.15128	-4.1229	-4.0646	-5.0583	-4.3896	-4.5646	-5	-4.1438	-4.9479	-4.6687	-3.8812	-5.1208	-4.3625	-4.5021	-4.9854	-4.0021	-4.9271	108.671	304.660	193.716	294.565	299.295	0.605	239.630	244.474	256.755	20.867	271.145	-2.506	280.970	275.848	235.585	229.877	0.0003139	0.00060368	0.00016934	1581	6.4073e-06	6.3314e-06	1649.7	551.33	2.3675e-06	5.6241e-06	675.66	239.5	173.74	58.781	5.559e-06	101.49	4.5549e-05	3.3272e-05	9.2218e-06	1322.4	3.9572e-07	3.597e-07	1381.1	457.42	3.8903e-07	3.5537e-07	547.95	196.05	140.58	47.447	3.8149e-07	80.693	197.409	1.197	-23.185	-25.994	60.756	85.597	-26.059	-22.184	92.266	79.441	-23.570	-18.903	-17.882	-13.841	58.478	-15.259	-8191	255	
44652.152	1	1	0	0	0.11768	0.14542	0.1303	0.1244	0.060322	0.040191	0.32941	0.40156	0.2047	0.24791	0.17353	0.25526	0.085027	0.10238	0.14339	0.30306	-4.4208	-4.1146	-4.8917	-4.5896	-4.2854	-4.8333	-4.3313	-4.8542	-4.8021	-3.9771	-5.1271	-4.5979	-4.425	-5.0479	-4.15	-4.7833	134.732	101.239	126.518	248.871	185.670	271.168	284.952	301.435	92.986	93.748	254.294	315.006	54.204	233.619	101.035	261.499	0.00024163	0.00051431	0.00029793	1537.2	3.3821e-06	8.0509e-06	1593.8	538.88	4.8056e-06	5.1461e-06	657.05	234.31	169.77	57.673	6.6713e-06	99.956	4.4277e-05	3.2707e-05	9.421e-06	1287.1	3.9671e-07	3.5062e-07	1339.4	447.43	3.7654e-07	3.5905e-07	534.54	191.27	137.98	46.466	3.8498e-07	79.39	191.033	20.764	12.519	-25.703	62.527	82.883	-26.154	-21.944	88.300	51.435	-23.231	-19.084	-17.938	-13.948	88.564	-15.311	-8191	255	
44652.246	1	1	0	0	0.21083	0.042802	0.14321	0.13242	0.34011	0.3043	0.21826	0.22331	0.064163	0.17712	0.26227	0.16553	0.13466	0.14168	0.1549	0.18355	-4.5333	-3.9583	-5.0667	-4.7042	-4.0875	-4.9479	-4.4208	-4.5917	-4.7729	-4.0667	-5.0792	-4.8479	-4.2562	-5.0083	-4.2604	-4.6083	102.051	-20.125	224.789	-1.216	143.228	297.710	270.688	200.839	21.792	-16.971	278.640	-29.413	-33.988	66.260	20.125	227.843	0.00024147	0.00028787	0.00015995	1523.7	3.8306e-06	5.4435e-06	1589	537.91	5.6959e-06	6.7896e-06	660.37	233.89	169.56	57.718	3.6602e-06	99.58	4.4133e-05	3.3682e-05	8.9244e-06	1277.1	3.9258e-07	3.237e-07	1333.3	445.9	3.8063e-07	3.6116e-07	534.3	191.07	137.85	46.626	3.7306e-07	79.573	191.511	59.872	27.959	-25.702	95.982	103.314	-25.980	-22.101	121.630	49.122	-23.120	-18.650	-17.901	-13.741	46.285	-15.319	-8191	255	
44652.367	1	1	0	0	0.24516	0.10514	0.29138	0.21718	0.067054	0.081587	0.3319	0.33576	0.15772	0.17553	0.22073	0.21482	0.044622	0.14694	0.28778	0.16789	-4.6229	-3.9437	-4.8396	-4.7396	-4.1479	-4.9833	-4.3917	-4.6271	-4.9396	-3.9479	-4.7188	-4.6854	-4.2125	-5.0833	-4.375	-4.4625	16.328	169.439	240.759	258.449	23.362	310.784	287.358	257.887	-11.383	-7.995	258.784	254.961	-25.746	11.574	179.241	319.005	0.00028948	0.00062362	0.00024694	1522.8	5.0788e-06	4.492e-06	1603.6	538.24	3.3039e-06	5.6843e-06	662.01	235.15	172.07	58.221	4.9163e-06	101.04	4.1901e-05	3.3994e-05	8.9108e-06	1279.6	3.6758e-07	3.5561e-07	1340.9	446.94	3.6595e-07	3.4955e-07	536.5	192.02	139.1	47.07	3.6202e-07	80.394	201.517	16.697	-15.840	-26.113	72.491	92.527	-26.226	-22.136	84.571	58.055	-23.447	-18.852	-18.352	-13.728	95.265	-15.452	-8191	255	
44652.465	1	1	0	0	0.11489	0.16718	0.19421	0.25601	0.023457	0.18181	0.0076412	0.21174	0.080951	0.1527	0.047768	0.19051	0.20622	0.20444	0.22576	0.085644	-4.675	-3.9021	-4.7417	-4.9062	-4.1271	-4.8833	-4.4521	-4.3854	-5.1771	-4.0896	-4.775	-5.0583	-4.175	-4.9938	-4.3896	-4.2562	197.386	36.103	39.154	316.828	60.816	-14.014	135.485	230.552	0.951	196.822	311.360	219.960	266.319	-20.646	142.510	-26.787	0.0003104	0.00022782	0.00022844	1546	7.7037e-06	4.0059e-06	1612.4	542.77	6.8518e-06	6.7395e-06	670.49	237.43	173.79	59.024	3.8307e-06	101.74	4.2988e-05	3.2464e-05	8.8879e-06	1291.4	3.7447e-07	3.5953e-07	1348.5	449.96	3.6845e-07	3.4779e-07	541.99	194.17	140.18	47.587	3.7306e-07	81.162	195.773	-2.231	19.870	-26.081	73.142	144.646	-25.985	-22.361	114.956	64.964	-23.601	-18.938	-18.069	-13.823	61.131	-14.980	-8191	255	
44652.535	1	1	0	0	0.20413	0.035124	0.055961	0.35859	0.096069	0.21357	0.13051	0.24611	0.22999	0.12963	0.26963	0.16071	0.045574	0.23995	0.14158	0.17373	-4.825	-4.0875	-4.5167	-5.0938	-4.0042	-4.8562	-4.7583	-4.3	-5.0125	-4.2292	-4.7688	-5.1604	-4.2646	-5.0083	-4.6583	-4.3646	209.210	274.461	24.097	263.229	247.163	-1.255	245.301	257.754	181.812	236.737	298.725	301.999	200.320	298.321	157.427	234.799	0.00022692	0.00051052	0.0002175	1555.8	3.3689e-06	4.4407e-06	1626.2	544.46	3.6745e-06	7.6588e-06	668.9	236.49	171.49	58.434	5.6141e-06	101.08	4.274e-05	3.3395e-05	9.1458e-06	1300.7	3.7645e-07	3.6821e-07	1356.3	451.77	3.7049e-07	3.4126e-07	540.28	193.37	139.24	47.144	3.5941e-07	80.123	200.713	6.212	11.125	-25.791	102.163	111.182	-26.117	-21.993	150.473	71.067	-23.171	-18.649	-18.023	-13.916	72.768	-15.143	-8191	255	
44652.656	1	1	0	0	0.21437	0.15317	0.15655	0.1297	0.21561	0.076212	0.18664	0.38464	0.15394	0.1171	0.23395	0.093836	0.13221	0.15183	0.21509	0.19724	-4.6937	-4.1771	-4.3958	-5.1208	-3.9958	-4.7937	-4.7833	-4.3292	-4.9583	-4.2937	-4.5208	-5.1687	-4.3292	-4.8438	-4.7854	-4.1917	5.029	7.332	94.353	-28.339	262.299	168.816	257.917	289.542	-18.271	98.108	279.505	287.684	291.164	156.809	125.743	217.688	0.00026669	0.00042746	0.00011522	1538.6	4.3019e-06	5.0617e-06	1595.9	534.71	4.6423e-06	7.5501e-06	655.32	230.6	170.65	57.581	4.4272e-06	98.048	4.2857e-05	3.3002e-05	8.8265e-06	1282.9	3.7569e-07	3.412e-07	1332.1	443.95	3.6099e-07	3.443e-07	530.77	189.44	138.22	46.57	3.4707e-07	78.407	198.371	-2.742	24.126	-25.887	116.454	46.385	-26.035	-22.194	108.428	66.951	-23.334	-18.986	-18.088	-14.101	64.321	-15.429	-8191	255	
44652.754	1	1	0	0	0.060128	0.16608	0.24786	0.23698	0.11192	0.20225	0.22323	0.24929	0.11655	0.099596	0.14527	0.1491	0.26354	0.11299	0.038838	0.028233	-4.7688	-4.4729	-4.2604	-5.1042	-4.1021	-4.4042	-4.8417	-4.1896	-4.7438	-4.4042	-4.3833	-5.0896	-4.1208	-4.5	-4.8187	-4.1354	142.213	165.038	267.599	293.238	16.291	127.714	255.707	306.377	300.048	61.953	285.377	240.117	-21.154	296.391	-39.622	240.949	0.00025648	0.00075818	0.00015587	1531.6	7.1948e-06	4.9048e-06	1584.1	536.42	5.3385e-06	6.1759e-06	654.4	230.94	170.31	57.121	5.0137e-06	97.322	4.1756e-05	3.2401e-05	8.8442e-06	1280.5	3.706e-07	3.3724e-07	1327.3	444.61	3.8492e-07	3.3719e-07	529.79	189.13	137.76	46.185	3.551e-07	77.761	179.182	10.472	-40.014	-25.502	109.649	87.049	-26.389	-22.168	140.114	74.431	-23.506	-18.821	-18.224	-13.808	84.451	-15.420	-8191	255	
44652.848	1	1	0	0	0.29528	0.1125	0.17769	0.2822	0.079703	0.32299	0.47832	0.11146	0.13501	0.10213	0.1939	0.16483	0.14928	0.26288	0.21482	0.25733	-4.5896	-4.4146	-4.1458	-5.0417	-4.1917	-4.3375	-4.9375	-4.0917	-4.6458	-4.6125	-4.2729	-4.9917	-4.425	-4.4396	-4.9938	-4.2771	-38.473	309.875	23.055	286.564	262.492	314.391	266.560	244.167	-20.402	288.595	262.382	156.342	314.233	304.376	230.754	271.076	0.00025736	0.00064718	0.0001363	1534.4	6.2097e-06	4.3898e-06	1583.6	536.68	6.4099e-06	4.0631e-06	657.65	232.67	170.91	57.263	4.1197e-06	97.889	4.2301e-05	3.2544e-05	9.0019e-06	1283.4	3.7346e-07	3.3019e-07	1329	445.2	3.6273e-07	3.3969e-07	530.7	190.2	138.04	46.202	3.6459e-07	77.962	194.560	24.486	-1.694	-25.830	73.814	122.479	-26.326	-22.057	116.752	58.425	-23.438	-18.689	-17.837	-13.879	69.064	-15.460	-8191	255	
44652.969	1	1	0	0	0.056259	0.25668	0.082489	0.27085	0.11731	0.13856	0.26898	0.073675	0.033974	0.083424	0.13416	0.053226	0.10746	0.27288	0.089202	0.27544	-4.3688	-4.6062	-4.0646	-5.1854	-4.2333	-4.3333	-5.1354	-4.2542	-4.65	-4.7729	-4.1229	-5.125	-4.5854	-4.2562	-4.9729	-4.1521	239.703	267.309	72.861	262.732	309.115	218.570	280.796	216.495	79.260	36.122	261.331	107.652	180.316	195.450	274.949	223.927	0.00032443	0.00055774	0.000258	1546.8	4.5463e-06	6.0131e-06	1597.6	537.27	3.9252e-06	4.6141e-06	662.2	230.03	171.67	57.23	3.4142e-06	98.306	4.2475e-05	3.2072e-05	9.023e-06	1289.3	3.7852e-07	3.3663e-07	1336.1	446.31	3.6268e-07	3.392e-07	533.97	190.26	138.66	46.209	3.5765e-07	78.498	192.663	42.786	-20.499	-26.108	63.278	86.554	-25.973	-22.048	77.369	70.688	-23.755	-19.120	-18.128	-13.835	82.345	-15.372	-8191	255	
44653.062	1	1	0	0	0.17498	0.17837	0.14137	0.16868	0.060777	0.17844	0.25336	0.10355	0.04248	0.14439	0.09207	0.26735	0.26596	0.12061	0.15616	0.21545	-4.2542	-4.9563	-4.0458	-5.0333	-4.5583	-4.1354	-5.1542	-4.4938	-4.4375	-5.0042	-4.1271	-4.9833	-4.6542	-4.1312	-5.0167	-4.3042	252.129	-1.199	135.840	288.491	127.780	60.899	268.203	213.749	300.167	85.756	282.257	252.148	249.069	-7.360	-13.638	295.041	0.00025215	0.0005279	0.00018184	1539.3	4.8645e-06	2.4872e-06	1621.1	539.49	3.7994e-06	8.2685e-06	663.51	234.05	171.77	57.615	3.2565e-06	97.865	4.1472e-05	3.1676e-05	9.1228e-06	1290.7	3.7024e-07	3.5328e-07	1341.4	447.9	3.6747e-07	3.4679e-07	535.7	190.99	138.81	46.439	3.5042e-07	78.029	190.240	18.948	-18.658	-26.090	107.126	115.214	-26.000	-21.991	128.215	64.816	-23.315	-19.224	-18.111	-14.143	47.537	-15.280	-8191	255	
44653.160	1	1	0	0	0.29623	0.066114	0.26982	0.068136	0.11473	0.16017	0.17527	0.24581	0.21624	0.063318	0.14444	0.30404	0.086994	0.063513	0.18673	0.25961	-4.2979	-4.9229	-3.9708	-4.8708	-4.5479	-4.1292	-5.275	-4.5417	-4.2667	-4.8771	-4.2521	-4.8229	-4.8896	-4.1125	-5.1042	-4.4375	147.276	128.717	107.842	208.276	137.343	287.545	266.000	289.092	-19.052	132.921	313.940	292.825	198.534	103.273	284.348	240.960	0.00023703	0.00035824	0.00015063	1531.7	2.085e-06	5.5309e-06	1575.7	534.08	3.5423e-06	3.5669e-06	653.04	229.87	168.27	56.588	6.6657e-06	96.358	4.15e-05	3.0611e-05	8.9361e-06	1281.6	3.5311e-07	3.3684e-07	1324	443.03	3.5474e-07	3.5061e-07	526.71	187.84	136.99	45.614	3.5749e-07	76.768	204.026	36.568	-25.233	-26.134	56.520	90.054	-26.056	-21.852	159.170	61.581	-23.175	-18.786	-17.912	-13.797	61.051	-14.767	-8191	255	
44653.230	1	1	0	0	0.13735	0.11748	0.036808	0.11172	0.098011	0.046268	0.20607	0.24684	0.18815	0.10909	0.17718	0.11102	0.13762	0.24007	0.18737	0.263	-4.0229	-4.9708	-4.0708	-4.7812	-4.7438	-3.9917	-5.1646	-4.6583	-4.1333	-4.9812	-4.2271	-4.6438	-4.9979	-4.1521	-4.8333	-4.5479	58.951	259.759	38.143	257.755	71.184	170.494	229.966	285.354	233.022	64.590	-14.193	36.187	209.943	314.805	241.834	241.244	0.00029684	0.00056845	0.00016927	1526	5.0435e-06	1.5999e-06	1578.1	531.93	2.5207e-06	2.1007e-06	649.15	230.76	169.01	56.761	4.673e-06	96.775	4.1885e-05	3.114e-05	9.0622e-06	1273.8	3.5747e-07	3.3573e-07	1320.7	441.37	3.5108e-07	3.2955e-07	526.97	188.1	137.1	45.756	3.4599e-07	77.062	192.990	6.913	-4.809	-26.217	105.955	102.834	-26.242	-22.166	85.139	110.664	-23.490	-19.165	-18.200	-13.898	70.471	-15.102	-8191	255	
44653.352	1	1	0	0	0.080124	0.039214	0.21116	0.16108	0.051805	0.089131	0.31645	0.095577	0.08976	0.091682	0.1995	0.3138	0.1677	0.11322	0.17476	0.17527	-3.7375	-5.0104	-4.1458	-4.7438	-4.8979	-3.925	-5.0146	-4.7354	-4.15	-4.9542	-4.475	-4.5354	-4.8229	-4.1667	-4.7854	-4.7667	140.180	115.331	151.976	282.586	147.554	80.952	258.468	275.456	139.139	143.725	211.366	287.028	263.600	261.742	226.898	193.474	0.00019662	0.00056322	0.00022503	1520.9	6.9946e-06	4.7376e-06	1581.7	536.74	5.2208e-06	5.3317e-06	655.5	232.22	170.83	57.102	6.0195e-06	97.217	4.2565e-05	3.1294e-05	8.781e-06	1278.6	3.5208e-07	3.3601e-07	1326.8	445.07	3.6902e-07	3.1223e-07	530.62	189.33	137.75	46.002	3.5311e-07	77.601	189.227	-5.893	5.581	-25.882	77.619	90.228	-26.400	-22.128	97.203	89.170	-23.466	-19.345	-18.001	-13.865	48.086	-15.127	-8191	255	
44653.449	1	1	0	0	0.13224	0.17352	0.23538	0.29072	0.097464	0.23387	0.27923	0.11533	0.15563	0.17132	0.05055	0.14013	0.020755	0.076231	0.13631	0.18885	-3.8708	-4.9896	-4.2479	-4.4583	-4.8271	-4.0604	-4.7417	-4.9146	-3.9375	-4.9479	-4.3521	-4.2479	-5.0833	-4.1937	-4.55	-5.0042	170.241	313.064	77.994	264.784	269.935	-11.008	269.892	239.126	318.583	242.788	-27.379	312.710	178.006	-29.843	189.000	222.628	0.00029743	0.00049518	0.00023609	1534.2	4.8911e-06	3.8091e-06	1601.7	538.92	3.7501e-06	5.8036e-06	660.1	234.76	170.99	57.761	6.1959e-06	99.622	4.2706e-05	3.1381e-05	9.0317e-06	1283.8	3.6414e-07	3.3798e-07	1337.2	446.56	3.6559e-07	3.3655e-07	534	191.33	138.93	46.655	3.5945e-07	79.034	185.334	4.326	17.261	-25.943	114.485	79.862	-26.464	-22.043	117.618	68.790	-23.677	-19.154	-17.851	-14.068	67.487	-15.160	-8191	255	
44653.547	1	1	0	0	0.23006	0.16443	0.086025	0.022452	0.11295	0.067707	0.092274	0.20958	0.17605	0.080538	0.37206	0.18981	0.03184	0.28712	0.11439	0.23154	-3.6917	-4.6979	-4.5188	-4.4375	-4.875	-4.0563	-4.7104	-5.0583	-4.0896	-4.7708	-4.6021	-4.2896	-5.1875	-4.3125	-4.4896	-5.0708	212.165	92.190	57.175	189.090	36.239	173.291	145.628	224.175	150.275	272.367	276.147	250.357	116.971	-34.681	268.898	271.506	0.00027558	0.00048818	0.00025876	1550.7	3.9855e-06	9.8794e-06	1611.5	541.87	2.9065e-06	6.9031e-06	661.88	234.62	172.31	57.647	2.0844e-06	98.414	4.2662e-05	3.0609e-05	8.3296e-06	1293.7	3.5801e-07	3.5521e-07	1347.7	449.88	3.7173e-07	3.2851e-07	537.35	191.59	139.57	46.579	3.5028e-07	78.429	202.992	-1.291	25.878	-25.895	94.422	103.912	-25.768	-22.314	168.690	93.772	-23.188	-19.130	-17.658	-13.698	128.198	-15.250	-8191	255	
44653.641	1	1	0	0	0.28237	0.15547	0.2491	0.090343	0.09128	0.17389	0.24656	0.21744	0.029542	0.12401	0.24774	0.19749	0.10302	0.26535	0.34725	0.32601	-3.7313	-4.8792	-4.5229	-4.3042	-4.9042	-4.4167	-4.6375	-5.1271	-4.0458	-4.7854	-4.8313	-4.275	-5.0583	-4.4437	-4.2125	-5.075	67.618	183.790	144.498	233.950	263.837	161.337	261.169	-37.943	78.576	183.199	172.060	-14.598	305.769	296.966	291.444	283.034	0.00026838	0.00060642	0.00024447	1531.8	4.2578e-06	4.57e-06	1582.9	534.89	2.0357e-06	5.1469e-06	653.61	229.98	169.04	56.386	4.9971e-06	97.104	4.0351e-05	3.0791e-05	8.8352e-06	1281.5	3.4307e-07	3.2889e-07	1321.6	443.74	3.5182e-07	3.1759e-07	528.12	187.39	137.08	45.678	3.4151e-07	77.075	184.014	-12.213	11.263	-26.093	119.220	75.900	-26.287	-21.967	137.735	63.375	-23.165	-18.951	-18.326	-13.557	78.321	-15.079	-8191	255	
44653.762	1	1	0	0	0.18794	0.19252	0.1863	0.021224	0.18608	0.089059	0.047397	0.16506	0.10109	0.11667	0.13253	0.20566	0.19695	0.12913	0.31931	0.35165	-3.7292	-4.6167	-4.6875	-4.3187	-4.8771	-4.4604	-4.4146	-5.2542	-4.0208	-4.7708	-5.0312	-4.0396	-4.9375	-4.6021	-4.2521	-5.1354	124.539	1.856	291.650	77.631	272.422	127.032	258.980	292.534	242.662	88.573	-19.981	-20.140	-6.616	-39.846	154.077	285.585	0.00024434	0.00052753	0.00014391	1530.7	3.3013e-06	5.9811e-06	1580.6	533.23	2.6187e-06	8.0619e-06	649.99	229.68	168.3	56.974	3.9092e-06	96.324	4.1472e-05	3.0161e-05	8.2927e-06	1275.6	3.4877e-07	3.4908e-07	1318.3	442.35	3.5507e-07	3.5215e-07	526.4	187.31	136.87	45.857	3.4786e-07	76.84	197.420	9.870	19.824	-26.143	91.939	114.060	-26.145	-22.187	104.771	76.301	-23.386	-19.313	-17.946	-13.776	76.980	-15.475	-8191	255	
44653.832	1	1	0	0	0.25264	0.13907	0.2256	0.30084	0.15649	0.16842	0.12774	0.1744	0.073646	0.29397	0.4379	0.29078	0.2223	0.095097	0.085492	0.36554	-4.0417	-4.5188	-4.7833	-4.1833	-4.8729	-4.5021	-4.4938	-5.0625	-4.1708	-4.5	-5.0479	-4.1	-5.0687	-4.6979	-3.9583	-5.1562	64.670	133.452	247.990	270.993	212.416	280.653	237.081	203.452	257.340	120.288	300.335	-0.472	291.152	-22.741	132.798	271.672	0.00022629	0.00040207	0.00021898	1530.7	2.7651e-06	3.1678e-06	1573.3	533.51	6.3124e-06	5.2992e-06	650.85	228.76	169.74	56.592	3.5344e-06	96.975	4.1548e-05	3.0781e-05	8.1368e-06	1277.6	3.4586e-07	3.4721e-07	1318	442.45	3.7491e-07	3.408e-07	526.23	187.47	137.25	45.605	3.6098e-07	77.005	187.429	49.125	-6.881	-25.822	92.890	73.900	-26.300	-22.044	91.543	65.622	-23.359	-19.207	-17.817	-13.953	78.968	-15.215	-8191	255	
44653.930	1	1	0	0	0.18189	0.26996	0.23399	0.38749	0.083361	0.29835	0.22797	0.14621	0.091061	0.22094	0.34845	0.15291	0.27416	0.1371	0.25852	0.16942	-3.9333	-4.2667	-4.8958	-4.2	-4.5417	-4.7896	-4.3313	-5.0896	-4.35	-4.4104	-5.0958	-4.1583	-4.6083	-4.9	-3.9604	-5.1271	229.399	305.835	-2.399	259.889	-24.201	-34.342	173.044	216.231	141.424	252.339	271.081	211.142	270.665	-35.324	235.092	145.948	0.00027021	0.00036788	0.00015239	1528.9	7.2145e-06	3.8926e-06	1591.1	536.58	2.1686e-06	3.5326e-06	656.42	232.34	171.33	57.769	7.2781e-06	99.073	4.032e-05	2.9929e-05	8.8544e-06	1280.4	3.5337e-07	3.2503e-07	1329.4	444.74	3.6025e-07	3.4719e-07	532.07	189.78	138.57	46.714	3.4639e-07	78.935	199.530	43.065	34.071	-25.980	81.082	145.723	-26.284	-22.091	63.990	62.970	-23.121	-19.143	-18.614	-13.720	32.786	-15.261	-8191	255	
44654.047	1	1	0	0	0.056049	0.076284	0.1173	0.22948	0.099807	0.0403	0.32495	0.28604	0.35286	0.21768	0.05569	0.20951	0.15179	0.24799	0.087886	0.27086	-4.1667	-4.3146	-5.0021	-4.1896	-4.6312	-4.7875	-4.2271	-5.1333	-4.5292	-4.1771	-5.1188	-4.4021	-4.3792	-4.9604	-3.9333	-5.0792	81.877	241.191	256.670	57.987	199.632	174.481	237.313	249.057	78.161	125.079	-26.707	241.325	314.442	246.975	284.067	306.545	0.00024552	0.00045016	0.00013881	1540.6	7.3108e-06	4.7396e-06	1605.8	541.81	6.0359e-06	4.1128e-06	665.31	235.13	172.72	58.165	4.2317e-06	98.914	4.239e-05	3.1872e-05	8.7294e-06	1291.9	3.6645e-07	3.3984e-07	1340.7	449.11	3.6485e-07	3.405e-07	536.57	192	139.33	46.905	3.5609e-07	79.045	190.661	-7.652	-17.320	-26.147	84.520	107.439	-26.367	-21.724	89.498	50.098	-23.621	-18.857	-17.911	-13.631	86.388	-15.310	-8191	255	
44654.145	1	1	0	0	0.098977	0.18668	0.1219	0.25952	0.3391	0.083317	0.21258	0.040943	0.10389	0.06596	0.098271	0.31088	0.17486	0.055768	0.18479	0.41652	-4.3562	-4.1333	-4.9625	-4.4	-4.4563	-4.9167	-4.0583	-5.0917	-4.6083	-4.05	-5.1771	-4.4375	-4.425	-5.0208	-3.9292	-4.8479	132.080	110.007	202.656	305.835	101.046	5.301	251.520	206.219	78.684	214.989	251.747	224.296	298.749	219.133	120.184	256.974	0.00021516	0.00037428	0.00026716	1530.9	3.3398e-06	1.8473e-06	1580.7	531.17	5.423e-06	4.7487e-06	653.14	229.63	170.41	56.891	2.8303e-06	97.128	4.1973e-05	3.1665e-05	8.7723e-06	1281.7	3.6191e-07	3.2448e-07	1321.5	441.77	3.6181e-07	3.4972e-07	527.06	187.7	137.06	46.019	3.4676e-07	77.518	202.281	-16.595	6.681	-26.093	140.782	110.208	-26.103	-22.035	161.070	68.373	-23.243	-19.424	-18.130	-13.920	67.069	-15.319	-8191	255	
44654.242	1	1	0	0	0.071678	0.015856	0.23416	0.29804	0.21294	0.04726	0.37986	0.17497	0.26021	0.037153	0.043276	0.22947	0.21738	0.13461	0.050098	0.25248	-4.4771	-3.9188	-4.9854	-4.6021	-4.3625	-4.8958	-4.2042	-4.775	-4.8187	-4.0188	-5.1958	-4.6354	-4.3521	-5.1104	-4.2083	-4.5292	304.310	68.474	188.120	295.950	6.453	-25.484	235.205	267.403	260.097	185.124	304.831	264.137	268.864	221.055	300.168	-28.453	0.00026309	0.00051308	0.00017527	1524.1	3.0356e-06	4.8875e-06	1583.7	533.39	3.8018e-06	1.3496e-06	649.79	228.77	167.94	57.35	6.7957e-06	97.515	4.104e-05	3.224e-05	8.8186e-06	1273.9	3.451e-07	3.3002e-07	1319.2	441.02	3.5225e-07	3.394e-07	526.05	187.45	136.35	46.111	3.5914e-07	77.89	194.434	2.381	9.025	-26.267	74.038	105.254	-26.136	-22.089	121.946	63.742	-23.134	-19.176	-18.132	-13.711	61.557	-15.449	-8191	255	
44654.336	1	1	0	0	0.18105	0.23878	0.19812	0.06438	0.10726	0.058101	0.19894	0.26271	0.030509	0.15027	0.11954	0.26323	0.14487	0.22549	0.095047	0.21928	-4.4688	-3.9625	-4.8667	-4.8167	-4.1667	-4.8313	-4.2875	-4.6542	-4.8521	-4.0104	-5.0312	-4.7438	-4.1167	-5.0417	-4.2292	-4.4396	189.943	34.195	279.155	-11.871	189.071	51.225	218.455	250.263	35.680	19.733	274.698	221.330	287.338	238.163	234.667	281.046	0.00028757	0.00045082	9.7545e-05	1528.8	4.5453e-06	5.2869e-06	1583.6	530.11	5.9692e-06	8.1127e-06	651.42	230.93	169.94	57.15	4.5416e-06	98.922	4.1152e-05	3.1056e-05	8.4113e-06	1278.5	3.4411e-07	3.3929e-07	1322.4	441.03	3.4246e-07	3.4108e-07	526.57	188.57	137.23	46.355	3.4887e-07	78.643	180.314	-20.454	21.737	-25.911	100.954	99.318	-26.155	-22.258	128.947	50.532	-23.293	-18.660	-17.813	-13.694	80.132	-15.274	-8191	255	
44654.434	1	1	0	0	0.10691	0.07398	0.15009	0.19223	0.13158	0.09901	0.11156	0.2952	0.057726	0.10147	0.38567	0.082287	0.22049	0.078212	0.063109	0.17835	-4.6833	-3.9562	-4.6208	-4.8438	-4.0417	-4.9688	-4.6646	-4.5271	-4.8667	-3.9854	-4.8271	-4.7188	-4.0146	-5.1167	-4.4021	-4.4875	28.310	128.694	242.400	297.629	235.261	92.548	250.095	243.371	311.084	251.251	-37.569	94.487	-27.030	156.572	-35.704	205.003	0.00027331	0.00057713	0.00010461	1529.2	4.6481e-06	3.3584e-06	1587.6	535.72	3.9579e-06	5.7867e-06	654.46	231.76	170.23	57.753	3.7131e-06	99.799	4.1221e-05	3.1899e-05	8.4267e-06	1282.1	3.4867e-07	3.3994e-07	1326.5	443.68	3.6546e-07	3.5512e-07	529.69	189.8	137.59	46.58	3.5914e-07	78.982	200.700	0.786	-13.361	-25.913	87.672	81.660	-26.540	-22.523	94.585	95.998	-23.530	-18.922	-18.096	-13.528	58.974	-15.026	-8191	255	
44654.527	1	1	0	0	0.2442	0.25151	0.14143	0.36716	0.046398	0.20735	0.22925	0.43608	0.21855	0.16405	0.20018	0.1466	0.2133	0.069387	0.039073	0.3198	-4.5083	-4.1188	-4.5771	-4.8104	-3.8521	-4.8792	-4.6104	-4.2292	-4.9875	-4.0667	-4.5729	-4.9458	-4.1417	-4.7771	-4.4854	-4.2604	191.534	83.886	319.368	267.524	82.381	201.376	282.660	275.540	106.348	-11.797	270.201	261.429	256.919	-21.371	159.124	238.282	0.00027557	0.00044781	0.00019936	1544	2.6574e-06	3.1018e-06	1598.8	535.3	5.3124e-06	6.4391e-06	653.11	233.39	169.87	57.509	3.3335e-06	98.848	4.0976e-05	3.159e-05	8.5618e-06	1290.3	3.5674e-07	3.4539e-07	1333	444.68	3.681e-07	3.4058e-07	531.02	190.3	137.93	46.526	3.4471e-07	78.726	186.129	33.476	29.610	-25.947	93.462	75.623	-26.545	-22.030	111.740	66.844	-23.279	-18.971	-18.036	-14.116	50.679	-15.328	-8191	255	
44654.648	1	1	0	0	0.15528	0.19802	0.21841	0.12949	0.34274	0.26508	0.043161	0.058053	0.11413	0.042334	0.17801	0.035337	0.12176	0.1467	0.1164	0.34763	-4.8604	-4.1646	-4.5208	-5.1167	-3.8312	-4.7729	-4.7354	-4.3187	-4.95	-4.2625	-4.4625	-5.0729	-4.0625	-4.7688	-4.6792	-4.1354	15.686	220.752	206.119	235.896	166.225	229.344	308.322	58.912	283.982	198.096	186.149	-8.153	-5.935	286.426	7.651	238.048	0.00023487	0.00044757	0.00029309	1525.7	4.692e-06	2.0858e-06	1573.5	530.91	4.4908e-06	4.8805e-06	647.73	227.74	167.85	56.83	4.4178e-06	97.053	4.1962e-05	3.1335e-05	8.6247e-06	1277.2	3.6528e-07	3.2448e-07	1317.5	439.2	3.5099e-07	3.2262e-07	523.26	187.26	136.13	45.826	3.4839e-07	77.42	189.640	-24.198	7.652	-25.941	60.075	114.483	-26.298	-22.203	115.416	73.358	-23.354	-18.875	-18.204	-14.041	54.443	-15.348	-8191	255	
44654.746	1	1	0	0	0.050062	0.15843	0.16866	0.3024	0.32436	0.27105	0.085408	0.19361	0.13479	0.098479	0.26708	0.1117	0.33013	0.18613	0.096201	0.0352	-4.6167	-4.3125	-4.0625	-5	-4.075	-4.5625	-5.0104	-4.2375	-5.1125	-4.4354	-4.3688	-5.075	-4.1	-4.6604	-4.8167	-4.1687	134.658	213.209	-32.784	260.318	67.377	18.527	265.640	-32.101	219.049	143.227	314.840	279.551	304.136	298.727	82.537	-4.563	0.00024233	0.00055004	0.0001614	1521.7	7.5978e-06	5.2236e-06	1578.4	528.7	5.6254e-06	6.2323e-06	646.85	229.64	168.8	56.862	2.918e-06	97.213	4.064e-05	3.0502e-05	9.2275e-06	1271.3	3.6555e-07	3.2309e-07	1316.2	438.61	3.6796e-07	3.3305e-07	523.6	188.02	136.05	45.844	3.3905e-07	77.702	191.413	5.904	0.320	-25.833	94.851	109.835	-26.035	-22.069	125.639	71.278	-22.973	-18.884	-17.935	-13.790	70.360	-15.671	-8191	255	
44654.840	1	1	0	0	0.28079	0.14124	0.19945	0.20285	0.17102	0.10137	0.25534	0.063032	0.15837	0.10802	0.086735	0.11591	0.21127	0.070096	0.18529	0.35056	-4.5833	-4.5375	-4.1167	-5.0437	-4.1562	-4.4917	-4.9812	-4.2	-4.8438	-4.5542	-4.2312	-5.0333	-4.3333	-4.4667	-4.7208	-4.0396	79.260	60.049	199.759	283.070	207.213	4.909	277.981	263.893	86.299	-28.749	294.836	246.118	195.568	185.624	264.032	292.657	0.00026896	0.00044052	0.00025371	1518.2	5.2796e-06	4.0447e-06	1569.7	530.92	5.7478e-06	5.7435e-06	649.07	230.03	168.05	56.928	3.7866e-06	98.434	4.1105e-05	2.7787e-05	8.3653e-06	1272.6	3.5308e-07	3.1935e-07	1318.7	440.03	3.4826e-07	3.3942e-07	526.39	188.83	136.47	45.951	3.3692e-07	78.42	182.246	33.152	16.380	-25.989	95.621	61.322	-26.252	-22.384	81.923	70.339	-23.258	-18.932	-17.686	-13.835	54.207	-14.999	-8191	255	
44654.938	1	1	0	0	0.22797	0.12078	0.10427	0.32873	0.13594	0.074866	0.35619	0.21585	0.25146	0.10208	0.26793	0.13563	0.17305	0.22614	0.1331	0.043252	-4.4917	-4.6958	-4.075	-5.2646	-4.4208	-4.4375	-5.0875	-4.3208	-4.7729	-4.8458	-4.1146	-5.3167	-4.3146	-4.2771	-5.15	-4.2021	268.210	265.713	245.265	263.026	175.099	247.465	311.262	303.077	43.441	277.570	284.450	283.673	302.180	266.465	7.560	259.789	0.00022967	0.00046357	0.000159	1527.7	3.5541e-06	6.1524e-06	1589.6	533.66	4.5649e-06	3.8858e-06	655.19	231.16	170.05	57.68	4.6331e-06	98.677	4.0836e-05	3.0948e-05	8.4914e-06	1280.8	3.4867e-07	3.4169e-07	1331.1	442.75	3.3952e-07	3.1078e-07	531.14	189.68	137.34	46.479	3.4181e-07	79.027	205.529	-1.203	14.597	-25.980	78.616	61.068	-26.194	-22.190	124.174	56.921	-23.575	-18.860	-18.319	-13.938	61.628	-15.021	-8191	255	
44655.059	1	1	0	0	0.030518	0.19568	0.15298	0.23786	0.12566	0.18694	0.12644	0.24042	0.16679	0.1186	0.084033	0.1155	0.19141	0.2601	0.21619	0.153	-4.4625	-4.7729	-4.0833	-5.1104	-4.4938	-4.3104	-5.2208	-4.3479	-4.5	-4.8792	-3.9979	-5.05	-4.7333	-4.1917	-4.975	-4.4187	24.248	191.241	49.076	-39.912	230.925	229.140	224.065	239.895	-5.612	-0.483	290.256	122.979	308.729	309.350	173.268	-15.818	0.00025636	0.000478	0.00015761	1547.5	5.8526e-06	6.4794e-06	1623.1	538.54	2.5623e-06	8.1724e-06	660.98	236.22	172.06	58.107	4.7252e-06	100.86	4.1059e-05	3.1156e-05	8.6936e-06	1291.3	3.6448e-07	3.3355e-07	1352.8	448.09	3.5765e-07	3.385e-07	538.04	193.79	139	46.962	3.3615e-07	80.277	193.295	6.791	0.715	-26.038	85.983	124.786	-26.468	-22.158	89.411	67.995	-23.202	-18.706	-18.030	-14.002	82.167	-15.245	-8191	255	
44655.129	1	1	0	0	0.16097	0.12931	0.018517	0.17247	0.15088	0.11772	0.27059	0.26643	0.20408	0.042413	0.32279	0.093548	0.28772	0.1744	0.07718	0.27956	-4.2521	-4.7	-4.1125	-4.9688	-4.5729	-4.0917	-5.1854	-4.4042	-4.3146	-4.8604	-4.2604	-4.8667	-4.7812	-4.2188	-4.9458	-4.4021	191.251	61.006	61.025	307.901	225.630	128.178	282.875	206.677	247.214	47.638	249.179	252.666	221.390	290.918	251.563	286.696	0.00022998	0.00064953	0.0001815	1542.7	2.3522e-06	3.7857e-06	1598.8	536.81	6.9562e-06	4.1545e-06	657.56	232.97	170.08	57.093	4.4254e-06	99.317	4.2273e-05	3.2206e-05	8.8133e-06	1290.2	3.5826e-07	3.4699e-07	1341.5	446.27	3.5608e-07	3.4381e-07	532.5	190.65	137.54	46.331	3.5195e-07	79.381	191.469	18.872	-5.898	-25.878	98.175	89.890	-26.207	-22.168	118.422	95.148	-23.420	-19.086	-17.589	-13.672	57.472	-15.230	-8191	255	
44655.227	1	1	0	0	0.15382	0.12323	0.076073	0.35843	0.13965	0.14977	0.005399	0.19393	0.274	0.12634	0.23697	0.077669	0.16465	0.19939	0.228	0.054401	-4.0208	-4.8521	-4.0687	-4.775	-4.6625	-4.1813	-5.0604	-4.5708	-4.0708	-4.9896	-4.0771	-4.8229	-4.8667	-4.0667	-4.8583	-4.4833	65.705	-35.082	-23.314	285.355	315.281	48.373	284.788	300.130	21.610	177.962	184.917	289.467	261.299	316.878	206.541	264.294	0.00028582	0.00048907	0.00023844	1524.2	4.8643e-06	6.4429e-06	1598.7	533.51	4.5308e-06	7.41e-06	657.12	232.77	169.21	57.286	4.6902e-06	99.775	4.0502e-05	3.1701e-05	8.8359e-06	1278.3	3.7015e-07	3.4177e-07	1338	442.66	3.7385e-07	3.3896e-07	532.41	190.49	137.45	46.34	3.614e-07	79.518	194.932	5.827	1.878	-25.989	99.317	114.552	-26.130	-22.121	93.316	54.012	-23.222	-18.915	-17.648	-14.045	71.082	-15.077	-8191	255	
44655.320	1	1	0	0	0.18504	0.12925	0.1561	0.26755	0.15902	0.11012	0.14433	0.20725	0.2087	0.10155	0.24818	0.019941	0.23266	0.17994	0.34418	0.36716	-3.8312	-4.9375	-4.0271	-4.7688	-4.8021	-3.8833	-5.2292	-4.7396	-4.1438	-5.0167	-4.4125	-4.6021	-4.9625	-4.2	-4.7854	-4.8438	305.383	124.121	77.459	244.897	107.211	-14.781	255.656	267.919	66.294	295.192	263.518	173.102	289.078	288.581	152.197	225.498	0.00025903	0.00046969	0.00012983	1535.4	5.4005e-06	5.6008e-06	1614	539.11	2.3088e-06	6.2153e-06	669.5	236.03	170.26	58.006	4.8722e-06	100.49	4.3979e-05	3.1563e-05	8.9971e-06	1286.7	3.7539e-07	3.4818e-07	1349	447.18	3.959e-07	3.6488e-07	538.31	192.44	138.35	46.824	3.7192e-07	80.499	192.210	28.391	19.261	-25.971	85.316	90.152	-26.431	-22.324	58.400	53.029	-23.417	-18.730	-17.845	-13.794	80.740	-15.185	-8191	255	
44655.441	1	1	0	0	0.20361	0.1744	0.30556	0.34735	0.11037	0.28478	0.28942	0.14338	0.096464	0.24313	0.10664	0.10682	0.10501	0.22681	0.1697	0.17927	-3.7167	-4.8833	-4.4417	-4.6396	-4.8938	-4.1062	-4.7688	-4.8958	-4.0271	-4.8854	-4.4792	-4.3938	-4.9563	-4.2562	-4.6438	-4.8854	206.948	266.377	316.319	308.034	12.873	71.385	266.388	233.154	8.679	235.393	267.528	-36.173	-23.872	312.081	277.795	-38.218	0.00026509	0.00054811	0.00017155	1550.9	3.2412e-06	4.3586e-06	1634.7	545.86	6.4573e-06	4.9946e-06	674.44	239.85	172.09	59.285	6.6777e-06	103.32	4.4135e-05	3.3215e-05	9.4744e-06	1297.4	3.8672e-07	3.6266e-07	1366.6	452.17	4.0582e-07	3.493e-07	546.14	196.06	140.44	47.763	3.8813e-07	82.243	193.060	10.197	5.169	-25.732	111.772	59.460	-26.569	-22.244	108.466	66.004	-23.321	-19.100	-18.094	-14.040	95.566	-15.009	-8191	255	
44655.539	1	1	0	0	0.18219	0.21252	0.15833	0.19652	0.083435	0.15792	0.16935	0.29568	0.14703	0.11914	0.19879	0.28904	0.1735	0.19847	0.099484	0.13543	-3.9125	-4.9125	-4.5271	-4.4187	-4.9729	-3.9833	-4.8917	-5.0667	-3.9667	-4.9042	-4.5	-4.325	-5.1854	-4.2375	-4.3542	-5.0125	-31.868	279.882	33.562	255.575	95.911	285.211	225.288	268.495	81.938	209.506	300.045	290.072	171.384	-24.476	78.663	267.668	0.00030211	0.00055185	0.00012004	1569.3	4.4253e-06	4.0008e-06	1652.9	551.16	2.8394e-06	5.6933e-06	680.17	241.56	174.08	59.094	4.1322e-06	103.14	4.529e-05	3.4703e-05	9.6032e-06	1314.2	3.8476e-07	3.874e-07	1381.3	457.54	4.0968e-07	3.7031e-07	550.04	197.81	141.44	48.023	3.7632e-07	82.521	199.964	-7.444	21.331	-26.148	45.314	115.291	-26.356	-22.117	136.200	90.013	-23.245	-18.800	-17.837	-14.183	63.086	-14.874	-8191	255	
44655.633	1	1	0	0	0.073852	0.074589	0.12784	0.40578	0.15722	0.26341	0.18398	0.18634	0.10619	0.11624	0.34426	0.032728	0.061951	0.19409	0.13683	0.38659	-3.8854	-4.9271	-4.6729	-4.3979	-5	-4.2771	-4.6771	-5.0542	-4.1021	-4.7542	-4.8708	-4.1208	-5.0583	-4.3417	-4.45	-5.1083	259.723	224.971	29.353	284.424	293.069	203.545	258.949	225.840	314.786	170.194	310.495	292.382	290.697	253.353	208.617	198.157	0.00024789	0.00070576	0.00019372	1550.9	4.9055e-06	6.2503e-06	1622.2	537.72	7.3031e-06	7.3544e-06	661.98	233.2	169.38	56.977	3.3661e-06	99.712	4.4129e-05	3.39e-05	9.4417e-06	1294.9	3.8534e-07	3.6646e-07	1354.9	446.97	3.9216e-07	3.6228e-07	534.71	190.82	136.93	46.168	3.8791e-07	79.329	198.356	5.737	6.216	-25.961	75.924	116.492	-26.507	-22.182	102.167	67.425	-22.955	-18.948	-17.970	-13.593	89.001	-14.928	-8191	255	
44655.730	1	1	0	0	0.23442	0.19877	0.088462	0.14252	0.046287	0.13202	0.16226	0.3632	0.031377	0.066367	0.13833	0.31784	0.16866	0.03407	0.05821	0.05285	-3.7604	-4.7188	-4.8042	-4.1208	-5.1042	-4.2937	-4.3812	-5.1021	-4.0896	-4.6125	-4.975	-4.1	-4.9271	-4.3667	-4.2625	-5.1083	267.912	223.696	287.603	190.373	67.296	208.781	230.975	260.297	81.279	103.926	219.116	-17.681	215.153	192.028	98.435	25.087	0.0002927	0.00052308	0.00021259	1518.1	6.6751e-06	3.84e-06	1597.5	528.76	4.0662e-06	3.4389e-06	654.13	230.1	167.27	56.707	5.5652e-06	98.444	4.3075e-05	3.4092e-05	9.2975e-06	1270	3.8731e-07	3.7272e-07	1331.8	439.27	3.8038e-07	3.624e-07	527.39	188.34	135.46	45.777	3.7177e-07	78.413	202.608	49.848	29.894	-26.073	83.388	150.239	-26.279	-21.889	104.547	71.507	-22.860	-18.961	-18.142	-14.195	94.954	-15.507	-8191	255	
44655.824	1	1	0	0	0.21753	0.018177	0.21814	0.31034	0.091269	0.15605	0.1799	0.22968	0.088513	0.24118	0.068683	0.12628	0.1751	0.1919	0.13641	0.052256	-3.7229	-4.5667	-4.8417	-4.2896	-4.8083	-4.5146	-4.3812	-5.2583	-4.3063	-4.425	-5.1	-4.1083	-4.9292	-4.6229	-3.9729	-5.2229	136.589	303.720	124.834	302.884	9.660	195.228	257.177	275.388	245.676	12.489	63.788	307.055	215.629	-22.724	188.058	-19.241	0.00021083	0.00044502	0.00019183	1518.2	6.6725e-06	2.4719e-06	1594.2	529.84	4.8413e-06	6.0003e-06	654.75	230.56	167.79	56.672	4.2911e-06	99.119	4.4958e-05	3.273e-05	9.3961e-06	1268.9	3.8656e-07	3.5441e-07	1331.7	440.14	3.8399e-07	3.6498e-07	529.67	188.57	135.92	45.761	3.8825e-07	78.7	187.532	41.544	5.552	-25.699	67.190	11.581	-26.185	-22.051	137.273	71.195	-22.972	-19.116	-18.081	-13.603	75.197	-15.000	-8191	255	
44655.922	1	1	0	0	0.05627	0.030349	0.13414	0.039333	0.25009	0.16514	0.1716	0.48393	0.067761	0.16048	0.23712	0.26281	0.12377	0.11842	0.28389	0.10974	-3.9646	-4.3896	-4.8271	-4.1646	-4.7167	-4.6562	-4.2771	-5.1667	-4.1	-4.2688	-5.1479	-4.2521	-4.7354	-4.725	-4.0333	-5.0979	90.390	235.159	97.835	8.096	264.675	248.166	304.758	302.440	49.566	299.265	280.833	285.339	41.002	204.935	-24.384	241.979	0.00027074	0.00051756	0.00023291	1515.8	3.8772e-06	3.0195e-06	1606.6	530.77	7.2158e-06	4.4534e-06	654.82	232.17	169.27	57.367	3.5063e-06	99.948	4.4762e-05	3.3376e-05	9.4055e-06	1270.2	3.8175e-07	3.6907e-07	1342.5	442.03	3.9559e-07	3.7076e-07	531.63	190.31	136.67	46.231	3.887e-07	79.571	188.567	-5.854	-4.753	-26.041	63.070	106.442	-26.504	-22.192	116.705	50.365	-23.169	-18.930	-17.868	-13.768	33.033	-15.477	-8191	255	
44656.020	1	1	0	0	0.060209	0.04122	0.11765	0.089879	0.21218	0.057593	0.145	0.30028	0.087162	0.23501	0.069968	0.29567	0.14726	0.044803	0.064601	0.29027	-4.0417	-4.1479	-4.8063	-4.2854	-4.5	-4.7875	-4.3521	-5.1062	-4.3396	-4.2625	-5.1458	-4.2063	-4.7396	-4.9938	-3.9542	-4.9187	18.823	-27.358	-31.072	314.502	-22.074	301.368	262.821	304.965	250.314	281.436	214.716	276.115	307.866	262.487	286.697	308.540	0.0003435	0.0003752	0.00014049	1526.6	3.6738e-06	4.0618e-06	1613.3	537.54	2.8427e-06	5.3437e-06	663.49	234.57	170.4	57.625	3.4845e-06	99.64	4.5147e-05	3.4006e-05	9.6517e-06	1279.9	3.8283e-07	3.5465e-07	1349.5	446.28	3.9376e-07	3.6941e-07	536.36	192.08	137.76	46.542	3.8749e-07	79.805	188.783	16.891	7.225	-25.691	90.006	119.827	-26.373	-22.238	138.985	92.637	-22.989	-18.834	-17.882	-13.840	32.427	-15.438	-8191	255	
44656.137	1	1	0	0	0.12911	0.17442	0.14327	0.28305	0.05714	0.095715	0.093364	0.24798	0.081856	0.15207	0.13708	0.30782	0.060571	0.062644	0.20969	0.1447	-4.1458	-4.2083	-4.8146	-4.3479	-4.4042	-4.7917	-4.35	-5.0667	-4.6375	-4.1292	-5.2083	-4.5146	-4.4313	-5.0188	-3.9083	-4.8688	313.412	181.409	46.063	286.452	305.398	146.519	195.614	254.632	-8.134	291.010	176.370	297.805	-29.076	175.897	237.485	310.462	0.00024812	0.00056411	0.000248	1524.2	5.0706e-06	5.159e-06	1590.3	531.09	4.6775e-06	3.7417e-06	649.43	229.07	167.52	56.44	3.2501e-06	97.723	4.5224e-05	3.3091e-05	9.5121e-06	1273.9	3.9152e-07	3.5105e-07	1331.8	439.71	3.6747e-07	3.5245e-07	525.46	187.5	135	45.503	3.7147e-07	77.82	189.808	-1.370	13.567	-25.667	72.779	107.166	-26.359	-22.069	111.618	95.730	-23.253	-18.660	-17.871	-13.612	56.419	-15.002	-8191	255	
44656.234	1	1	0	0	0.18365	0.087459	0.023231	0.057636	0.11932	0.22565	0.075472	0.2193	0.18225	0.039496	0.17806	0.2271	0.26968	0.33222	0.23563	0.045983	-4.4208	-4.1188	-4.9833	-4.5979	-4.2917	-4.9646	-4.2792	-4.7417	-4.8604	-4.0646	-5.2208	-4.4583	-4.3792	-5.0104	-4.1625	-4.7396	-29.515	144.459	268.383	14.572	82.275	140.169	316.510	219.726	-12.685	47.423	267.490	301.468	312.152	238.642	272.536	224.851	0.00026699	0.00040223	0.00015797	1504	3.6038e-06	3.8791e-06	1570	521.98	3.9607e-06	3.6453e-06	643.2	227.57	165.73	56.276	4.6534e-06	97.489	4.3251e-05	3.3889e-05	8.4225e-06	1257.3	3.7887e-07	3.5659e-07	1315.4	433.74	3.8906e-07	3.5853e-07	519.48	185.45	134.36	45.265	3.7465e-07	77.283	196.885	37.260	41.991	-25.911	80.505	107.368	-26.250	-22.261	83.534	63.310	-23.114	-18.975	-18.066	-13.685	88.773	-15.101	-8191	255	
44656.328	1	1	0	0	0.21645	0.10817	0.066119	0.12672	0.10207	0.052472	0.16006	0.29314	0.13552	0.10805	0.13546	0.17532	0.098211	0.19444	0.18627	0.083216	-4.5646	-3.9958	-4.8875	-4.6	-4.1562	-4.9625	-4.25	-4.7667	-4.7708	-4.1271	-4.8542	-4.575	-4.3375	-5.0583	-4.2146	-4.5938	69.941	-36.775	202.900	267.363	265.105	-34.187	167.695	255.754	71.652	-12.297	227.322	245.169	12.142	296.310	27.954	250.321	0.00030002	0.00056089	0.00026667	1507.9	4.1574e-06	4.02e-06	1577.4	525.97	2.6681e-06	7.8164e-06	642.33	227.47	165.55	56.453	6.1079e-06	97.739	4.2133e-05	3.2535e-05	9.0385e-06	1259.1	3.7918e-07	3.6877e-07	1318.1	435.85	3.797e-07	3.5659e-07	521.14	186.06	134.67	45.649	3.4967e-07	77.878	185.108	35.253	-10.403	-25.683	83.533	77.168	-26.204	-22.222	96.380	77.957	-23.166	-18.724	-18.043	-13.705	69.191	-15.156	-8191	255	
44656.426	1	1	0	0	0.063165	0.097721	0.13025	0.10278	0.23701	0.11564	0.15535	0.085367	0.075357	0.14411	0.18152	0.20184	0.17477	0.15005	0.19813	0.33667	-4.5062	-4.0417	-4.7729	-4.7562	-4.0917	-5.05	-4.4271	-4.5896	-4.8146	-4.0312	-4.9875	-4.7271	-4.0167	-5.1604	-4.2646	-4.1271	82.543	238.383	299.053	294.418	248.749	4.291	188.653	280.789	163.980	130.675	307.565	263.532	215.487	-28.720	17.978	245.916	0.00025115	0.00044789	0.0001794	1504.9	4.4455e-06	6.2446e-06	1582.3	522.54	4.8612e-06	6.3313e-06	651.38	229.24	167.44	56.836	5.1812e-06	98.568	4.5188e-05	3.4774e-05	8.7802e-06	1261.7	3.7814e-07	3.4901e-07	1319.9	435.55	3.8155e-07	3.6246e-07	525.84	187.38	135.78	46.008	3.8327e-07	78.525	191.229	7.976	9.444	-25.747	108.634	60.235	-26.048	-22.018	95.131	86.677	-23.263	-18.781	-17.891	-13.867	97.742	-15.493	-8191	255	
44656.523	1	1	0	0	0.1961	0.20729	0.15323	0.044186	0.21167	0.13507	0.2454	0.33391	0.13461	0.20326	0.18238	0.22205	0.11123	0.18342	0.07512	0.10041	-4.8021	-4.2125	-4.6771	-4.8292	-4.1083	-4.9229	-4.5	-4.4542	-4.9062	-4.0229	-4.7729	-4.9187	-4.1208	-5.0792	-4.4271	-4.2854	128.373	208.694	243.913	68.464	220.972	17.870	238.717	305.222	157.870	101.078	241.237	228.361	-21.550	287.226	231.065	205.001	0.00028353	0.00040223	0.00013244	1521.7	1.7323e-06	3.67e-06	1585.3	530.5	2.275e-06	3.8032e-06	657.85	229.86	169.33	57.029	3.0916e-06	97.44	4.2861e-05	3.2789e-05	9.2218e-06	1273.6	3.7974e-07	3.491e-07	1332.6	439.9	3.9185e-07	3.653e-07	529.23	188.72	136.95	45.898	3.7571e-07	77.961	196.063	23.074	-15.324	-25.963	30.823	95.715	-26.272	-22.125	65.110	111.393	-23.285	-18.692	-17.845	-13.831	93.633	-15.296	-8191	255	
44656.617	1	1	0	0	0.10908	0.29442	0.12024	0.095796	0.12657	0.1147	0.16536	0.24742	0.10887	0.22389	0.043083	0.22794	0.11542	0.22318	0.22213	0.1353	-4.6417	-4.0375	-4.4688	-5.0292	-3.9167	-4.7646	-4.7146	-4.3063	-4.9646	-4.1333	-4.6125	-5.1	-4.1646	-4.7979	-4.6312	-4.125	270.592	98.913	232.718	260.148	112.511	247.956	159.563	215.898	77.127	224.678	210.389	289.147	316.245	246.441	92.090	78.158	0.00020215	0.00034965	0.00019648	1527.1	4.4107e-06	6.2162e-06	1572.9	527.22	4.714e-06	5.0124e-06	641.33	226.68	167.71	56.015	4.7911e-06	96.64	4.4398e-05	3.3417e-05	9.4676e-06	1277.6	3.831e-07	3.5738e-07	1322.9	436.84	3.751e-07	3.6071e-07	518.71	185.49	135.29	45.285	3.8617e-07	76.547	185.369	8.684	-9.881	-25.697	68.252	64.115	-26.286	-21.901	90.405	64.355	-23.190	-18.658	-17.832	-13.787	57.005	-14.989	-8191	255	
44656.738	1	1	0	0	0.15628	0.18088	0.25829	0.39076	0.36094	0.18922	0.091926	0.081172	0.10076	0.15275	0.29934	0.13164	0.21448	0.31482	0.11937	0.23649	-4.6125	-4.075	-4.275	-5.1021	-3.9229	-4.5229	-4.7646	-4.25	-4.8167	-4.3333	-4.4271	-5.05	-3.9521	-4.4792	-4.7083	-4.1292	206.844	233.518	-23.185	290.177	249.934	219.543	235.316	291.101	179.273	239.473	282.784	159.699	43.084	262.964	58.738	305.098	0.00024169	0.00044882	0.00013161	1512.1	6.4188e-06	6.6264e-06	1561.4	523.83	5.2098e-06	6.5878e-06	639.02	224.1	167.09	55.822	1.5612e-06	95.283	4.3517e-05	3.2287e-05	9.2817e-06	1264.3	3.8831e-07	3.6605e-07	1309.1	431.61	3.8838e-07	3.5893e-07	515.48	183.91	135.26	45.176	3.8321e-07	75.809	188.314	18.667	7.803	-25.806	106.192	92.910	-26.005	-22.376	123.010	51.882	-23.262	-18.938	-18.044	-13.800	111.367	-15.399	-8191	255	
44656.832	1	1	0	0	0.18291	0.23127	0.10733	0.04893	0.09653	0.12339	0.29382	0.25387	0.16288	0.067097	0.25566	0.14746	0.21399	0.21982	0.13258	0.084146	-4.6	-4.3354	-4.3146	-4.9833	-4.0687	-4.5458	-5.1021	-4.1708	-4.8729	-4.4458	-4.0521	-5.1062	-4.2458	-4.7063	-4.8979	-4.2833	10.369	-16.840	195.780	201.063	-31.986	266.869	181.145	279.487	296.821	206.405	246.538	183.077	271.461	295.664	254.965	-17.973	0.00026024	0.00040952	0.00017187	1510.5	4.545e-06	5.2569e-06	1567.7	519.72	2.4294e-06	4.1043e-06	636.55	223.49	167.24	55.886	3.9544e-06	94.293	4.3356e-05	3.3762e-05	9.0577e-06	1267.8	3.945e-07	3.5656e-07	1311.5	430.82	3.9045e-07	3.7074e-07	514.18	183.61	135.66	45.179	3.851e-07	75.585	200.021	42.693	18.668	-25.718	102.957	109.893	-25.995	-22.072	122.753	95.550	-23.178	-18.909	-17.706	-13.643	81.239	-15.080	-8191	255	
44656.930	1	1	0	0	0.059391	0.14777	0.15852	0.22485	0.067324	0.11132	0.34932	0.3116	0.012042	0.10761	0.18145	0.29065	0.11874	0.13765	0.029155	0.32783	-4.5792	-4.3917	-4.1	-5.1292	-4.2312	-4.3875	-4.9896	-4.1104	-4.7354	-4.5729	-4.1583	-5.0875	-4.3313	-4.3229	-5.0167	-4.125	64.761	190.320	303.740	284.664	106.972	255.518	263.172	267.335	307.980	229.638	263.155	248.039	218.574	284.527	176.935	226.561	0.00026929	0.00057228	0.00019577	1521.3	6.6784e-06	6.2067e-06	1565.7	519.56	6.4608e-06	5.1525e-06	641.33	225.77	166.72	56.357	3.4619e-06	96.137	4.4131e-05	3.4452e-05	9.7342e-06	1272.5	3.9104e-07	3.8269e-07	1312.9	431.97	3.991e-07	3.6389e-07	515.47	184.37	135.51	45.49	3.754e-07	76.496	200.071	9.454	-4.768	-25.845	82.239	89.398	-26.106	-22.508	106.252	49.912	-23.190	-18.638	-17.902	-13.525	18.822	-15.273	-8191	255	
44657.000	1	1	0	0	0.24629	0.11356	0.31584	0.12105	0.15689	0.35146	0.11473	0.27311	0.069146	0.15731	0.068889	0.084134	0.2008	0.094654	0.11159	0.1209	-4.4313	-4.7792	-4.0938	-5.1479	-4.4875	-4.2396	-5.1479	-4.2167	-4.5896	-4.6958	-4.2375	-5.1125	-4.5167	-4.2042	-4.8292	-4.3771	237.015	77.784	220.779	228.576	213.642	242.182	185.230	261.052	123.151	101.932	-22.289	-12.185	14.325	293.017	161.745	259.191	0.00031444	0.00063657	0.0001501	1521.8	4.5519e-06	3.2237e-06	1585.2	522.86	3.5406e-06	7.0307e-06	641.62	228.23	168.32	57.014	6.5674e-06	96.87	4.2698e-05	3.4827e-05	9.6254e-06	1274.2	3.9056e-07	3.8148e-07	1321.7	434.21	3.8379e-07	3.8177e-07	518.71	186.68	136.36	46.196	3.8458e-07	77.65	195.936	14.615	37.141	-25.965	92.315	107.242	-25.989	-21.900	101.575	61.982	-23.021	-18.457	-17.330	-13.673	88.325	-14.964	-8191	255	
44657.098	1	1	0	0	0.21154	0.085535	0.077575	0.245	0.1544	0.22944	0.41853	0.37548	0.087827	0.15283	0.12723	0.17122	0.012742	0.042219	0.14139	0.25978	-4.1438	-4.7562	-4.0479	-5.1042	-4.5396	-4.1438	-5.2875	-4.275	-4.4688	-5.0146	-4.2063	-5.0125	-4.7104	-4.1	-4.9854	-4.425	169.736	83.373	0.623	285.175	53.637	31.481	274.095	238.816	257.068	213.943	286.152	7.069	183.358	-25.358	104.641	209.670	0.00027836	0.00046958	0.0001566	1524.5	3.193e-06	5.0022e-06	1590.6	520.15	4.2158e-06	7.9886e-06	637.9	226.43	167.11	56.453	3.9038e-06	95.994	4.5747e-05	3.5153e-05	9.7086e-06	1278.3	3.9321e-07	3.7844e-07	1324.2	433.51	3.9694e-07	3.5825e-07	514	184.7	135.53	45.611	3.7352e-07	76.536	179.900	21.607	-5.130	-25.850	112.800	106.757	-26.141	-22.008	143.119	86.316	-23.433	-18.769	-17.983	-13.894	64.338	-15.259	-8191	255	
44657.219	1	1	0	0	0.10856	0.28419	0.016801	0.17862	0.04859	0.1132	0.25666	0.34865	0.3095	0.10255	0.086521	0.22612	0.24713	0.059193	0.13369	0.21424	-4.0917	-4.9646	-4.0687	-4.9458	-4.6625	-4.0062	-5.1292	-4.5062	-4.3063	-4.9313	-4.4479	-4.7729	-4.9083	-4.2167	-4.9521	-4.2979	297.151	317.551	110.865	262.986	179.253	287.066	258.942	292.707	45.071	35.918	223.723	280.210	-31.109	-27.826	6.147	289.969	0.00026883	0.00050531	0.00010764	1511.7	3.455e-06	4.7852e-06	1566.2	519.04	5.6015e-06	5.6157e-06	634.34	225.15	166.61	56.613	4.3648e-06	96.623	4.6164e-05	3.3264e-05	9.4059e-06	1266.8	3.9509e-07	3.6947e-07	1311.4	430.91	3.8792e-07	3.7861e-07	511.49	183.97	135.11	45.769	3.8409e-07	77.15	191.014	-4.342	9.217	-25.548	75.011	89.644	-26.080	-21.797	111.506	94.480	-23.366	-19.077	-17.610	-14.190	81.442	-15.257	-8191	255	
44657.312	1	1	0	0	0.24205	0.18148	0.15383	0.2426	0.1221	0.13197	0.22649	0.27074	0.12076	0.047851	0.13872	0.2748	0.1903	0.081837	0.12725	0.28212	-3.9375	-4.8604	-4.0875	-4.6312	-4.8792	-3.95	-5.1167	-4.6604	-4.0938	-5.0292	-4.3479	-4.6646	-5.025	-4.1813	-4.8063	-4.7771	51.728	263.028	283.768	281.817	222.532	286.561	234.449	312.159	3.136	38.918	213.730	249.182	240.463	241.187	-28.615	254.411	0.00024574	0.00022007	0.00016473	1522.3	6.5925e-06	5.3421e-06	1570.5	521.74	5.1755e-06	9.1455e-06	636.44	226.45	168.5	57.156	3.84e-06	98.688	4.5926e-05	3.3006e-05	9.5998e-06	1270.8	3.998e-07	3.7467e-07	1314.1	432.58	4.0173e-07	3.5883e-07	515.28	185.47	136.43	46.329	3.8791e-07	78.437	195.661	0.090	2.790	-25.814	99.188	110.094	-25.883	-21.700	86.021	54.710	-23.082	-18.950	-17.872	-13.753	84.981	-15.198	-8191	255	
44657.410	1	1	0	0	0.1653	0.10265	0.33423	0.34269	0.1629	0.036067	0.14475	0.22926	0.099335	0.017817	0.020729	0.20225	0.084161	0.19588	0.20929	0.14698	-3.9771	-5.0813	-4.25	-4.5354	-4.8521	-4.0813	-4.9229	-4.7875	-4.0104	-4.9	-4.3646	-4.4167	-4.9896	-4.1896	-4.6188	-4.8604	304.918	135.591	8.345	251.470	303.827	158.622	275.922	256.844	-9.876	285.414	138.537	233.801	17.027	319.104	199.486	243.820	0.00024418	0.00033943	0.00010235	1529.7	3.4743e-06	2.1244e-06	1578.3	526.09	3.3426e-06	5.3894e-06	639.65	228.78	168.94	58.136	3.478e-06	99.627	4.4833e-05	3.3237e-05	9.8716e-06	1274.6	3.9768e-07	3.6386e-07	1322.1	435.85	4.0002e-07	3.5029e-07	520.3	187.03	137.05	46.909	3.8186e-07	79.561	200.210	2.649	35.417	-25.946	59.237	76.183	-25.871	-21.821	151.767	68.415	-23.166	-19.170	-17.751	-13.747	95.917	-14.916	-8191	255	
44657.531	1	1	0	0	0.10432	0.13068	0.1782	0.28138	0.059608	0.14995	0.28531	0.21288	0.031718	0.069544	0.099993	0.066844	0.22261	0.056567	0.025112	0.16613	-3.7292	-5.025	-4.2979	-4.5333	-4.8833	-4.0292	-4.775	-4.825	-4.1417	-4.8625	-4.5729	-4.3938	-5.025	-4.2917	-4.45	-4.8896	59.176	28.681	143.706	300.436	32.315	-26.828	199.421	264.516	227.774	18.569	225.724	-19.705	-33.427	-33.637	-31.574	271.522	0.00026412	0.00041004	0.00019389	1541	5.9624e-06	7.0298e-06	1586.1	530.36	6.0162e-06	4.6967e-06	648.53	231.39	170.52	58.556	5.99e-06	100.6	4.4573e-05	3.4941e-05	9.5264e-06	1286.1	3.9615e-07	3.7146e-07	1332.6	439.89	3.8891e-07	3.7518e-07	525.1	189.24	138.28	47.342	3.6862e-07	80.547	195.389	38.031	26.669	-25.720	102.294	99.628	-26.302	-21.655	81.656	36.389	-23.086	-18.950	-17.905	-13.640	104.805	-14.684	-8191	255	
44657.602	1	1	0	0	0.12293	0.23555	0.066005	0.25685	0.031837	0.29319	0.15707	0.28599	0.16193	0.16441	0.2256	0.17204	0.36041	0.083413	0.087136	0.20984	-3.7812	-4.7917	-4.4104	-4.3458	-4.8021	-4.1	-4.6604	-5.0563	-3.9813	-4.8646	-4.6229	-4.325	-5.1312	-4.1604	-4.3167	-4.9667	79.792	30.309	278.959	318.226	-11.810	-17.541	256.656	255.376	25.228	141.759	243.108	294.175	319.901	-23.330	157.240	310.531	0.00027437	0.00051577	0.00014381	1538	4.5781e-06	5.7413e-06	1592.6	525.94	4.7405e-06	3.5055e-06	644.32	226.85	167.83	57.184	4.7772e-06	98.341	4.4616e-05	3.386e-05	9.4963e-06	1285.2	3.901e-07	3.6938e-07	1329	437.08	3.914e-07	3.7378e-07	519.58	185.73	136.49	46.444	3.7562e-07	78.46	195.479	2.722	20.224	-25.770	94.809	73.520	-26.542	-22.028	117.455	84.303	-23.196	-19.098	-17.794	-13.727	74.550	-14.952	-8191	255	
44657.699	1	1	0	0	0.19977	0.18609	0.044027	0.35276	0.13743	0.18192	0.069748	0.18821	0.15931	0.29502	0.092838	0.19838	0.28669	0.2011	0.11452	0.21716	-3.825	-4.8625	-4.7354	-4.2583	-5.0062	-4.1562	-4.6354	-5.2708	-4.0292	-4.7521	-4.8	-4.3646	-5.1521	-4.5271	-4.3187	-5.05	319.274	181.188	224.515	293.204	255.695	113.301	314.679	283.579	181.399	5.433	256.517	250.567	254.173	282.910	-12.181	230.124	0.00021806	0.00044078	0.00012968	1522.6	6.4681e-06	3.877e-06	1567.3	523.47	5.8248e-06	4.7712e-06	635.81	225.21	167.62	56.637	1.8695e-06	97.888	4.2244e-05	3.2811e-05	9.1838e-06	1275.7	3.6916e-07	3.7194e-07	1313	434.25	3.9091e-07	3.5558e-07	514.36	184.37	136.02	46.054	3.6768e-07	77.972	191.198	24.688	-10.050	-26.100	89.884	87.087	-25.994	-21.589	95.648	92.278	-23.367	-18.998	-17.834	-13.883	59.723	-15.317	-8191	255	
44657.820	1	1	0	0	0.35141	0.058864	0.10708	0.28607	0.1982	0.13118	0.16039	0.327	0.40456	0.066105	0.20217	0.27562	0.14672	0.079459	0.30311	0.11011	-3.8854	-4.6167	-4.7083	-4.0958	-4.7521	-4.475	-4.375	-5.1229	-3.9625	-4.6604	-4.8646	-4.1458	-4.9062	-4.6479	-4.1729	-5.2167	236.980	73.884	32.248	252.209	108.849	25.204	221.296	251.366	194.118	15.313	234.888	291.913	276.786	-6.021	291.850	30.698	0.00022753	0.00031106	0.00021331	1508.3	5.8251e-06	3.6909e-06	1571	522.72	1.3404e-06	4.2771e-06	632.47	226.22	167.79	57.375	6.1411e-06	98.386	4.3336e-05	3.4205e-05	9.0204e-06	1266.5	3.7443e-07	3.4346e-07	1311	433.86	3.8522e-07	3.6491e-07	514.06	184.95	135.99	46.22	3.8512e-07	78.376	200.017	60.884	1.921	-25.853	77.078	120.260	-26.253	-22.020	76.648	52.297	-23.189	-18.907	-17.833	-13.757	75.426	-15.260	-8191	255	
44657.914	1	1	0	0	0.062892	0.2317	0.036122	0.15769	0.20992	0.16219	0.1059	0.24866	0.10293	0.047317	0.097752	0.093119	0.02812	0.10898	0.30024	0.15589	-3.8125	-4.4021	-4.9583	-4.1458	-4.8167	-4.5667	-4.2	-5.1312	-4.3229	-4.3958	-5.0188	-4.3042	-4.8313	-4.7354	-3.9521	-5.0125	3.440	227.052	-24.422	-34.586	57.170	85.151	255.790	251.979	171.267	148.162	19.945	317.612	249.853	270.046	166.744	205.627	0.00026204	0.00038449	0.0002044	1521	3.1272e-06	5.3998e-06	1573.8	523.3	6.4271e-06	5.543e-06	641.21	229.02	168.17	57.398	2.3102e-06	99.108	4.4229e-05	3.4447e-05	9.561e-06	1272.1	3.7992e-07	3.4911e-07	1315.3	434.45	3.9449e-07	3.6113e-07	520.11	186.55	136.44	46.402	3.8734e-07	79.049	194.874	28.057	-2.638	-26.171	154.515	116.895	-26.425	-21.895	92.900	82.068	-23.299	-18.815	-17.928	-13.739	117.352	-15.341	-8191	255	
44658.012	1	1	0	0	0.11402	0.059174	0.075988	0.17418	0.16016	0.096279	0.14629	0.16583	0.060038	0.21093	0.14047	0.1861	0.060899	0.09707	0.038984	0.26957	-4.0708	-4.1875	-4.8771	-4.2667	-4.6354	-4.6146	-4.2208	-5.125	-4.3271	-4.2854	-4.9583	-4.3708	-4.7625	-4.9896	-4.125	-5.1979	267.967	308.592	-35.381	240.616	259.536	54.381	271.174	-15.653	162.650	218.489	263.100	245.326	166.879	-15.143	4.008	201.667	0.00025554	0.0005128	0.00022209	1531.1	6.5763e-06	5.9102e-06	1581	525.95	6.9876e-06	7.878e-06	642.72	229.48	170.08	58.327	4.5758e-06	100.27	4.4417e-05	3.3408e-05	9.0467e-06	1278.4	3.948e-07	3.4647e-07	1322.4	436.03	4.003e-07	3.5878e-07	520.49	187.85	137.49	47.002	3.8372e-07	80.035	189.371	44.177	-22.675	-25.982	123.680	97.629	-26.058	-21.958	116.826	56.475	-23.105	-18.703	-17.655	-13.585	127.182	-15.379	-8191	255	
44658.129	1	1	0	0	0.14548	0.0193	0.049879	0.24264	0.051952	0.11012	0.36579	0.13806	0.12503	0.2006	0.10522	0.16863	0.20471	0.084933	0.19354	0.13106	-4.2146	-4.2167	-5.1375	-4.3417	-4.5729	-4.8208	-4.025	-5.0875	-4.3292	-4.0354	-5.1687	-4.1708	-4.45	-4.8042	-3.9167	-5.0771	246.102	319.281	97.009	269.847	295.051	17.062	198.214	266.593	27.814	130.541	-31.657	-28.956	252.280	114.363	171.402	-31.741	0.00030393	0.00031394	0.00015754	1534.9	6.1709e-06	5.6789e-06	1586.3	528.53	2.71e-06	6.1073e-06	638.62	226.98	166.86	57.192	3.6975e-06	98.378	4.5477e-05	3.3126e-05	9.2692e-06	1282.8	3.7517e-07	3.5371e-07	1327.5	436.8	3.8673e-07	3.6497e-07	517.95	186.07	135.56	46.301	3.6687e-07	78.535	185.222	72.967	8.123	-25.713	103.686	83.232	-25.993	-22.090	84.466	62.055	-23.191	-18.529	-17.834	-13.830	33.997	-15.688	-8191	255	
44658.227	1	1	0	0	0.13292	0.15777	0.10794	0.20395	0.20704	0.12234	0.40606	0.32191	0.11068	0.13911	0.17238	0.136	0.033191	0.17658	0.093802	0.25899	-4.2979	-4.0729	-5.0188	-4.5167	-4.3854	-4.9021	-4.1583	-5.0437	-4.7833	-4.0792	-5.0521	-4.4542	-4.3125	-5.0563	-3.9667	-4.7854	208.350	282.186	123.986	297.369	297.588	-38.976	222.218	243.061	138.397	3.725	239.095	189.600	294.253	62.462	108.155	250.063	0.00024978	0.00034161	2.3085e-05	1517.1	8.0269e-06	2.613e-06	1575.7	521.04	3.5466e-06	5.6632e-06	643.23	226.85	167.29	57.256	3.6104e-06	99.056	4.2655e-05	3.3155e-05	8.9869e-06	1267.4	3.73e-07	3.3448e-07	1315.2	432.81	3.8102e-07	3.5286e-07	517.01	186.03	135.29	46.231	3.8231e-07	78.922	183.055	-10.596	2.408	-25.860	91.872	112.607	-26.112	-22.310	101.830	95.341	-23.446	-18.717	-17.829	-13.847	134.174	-15.524	-8191	255	
44658.297	1	1	0	0	0.082025	0.18749	0.060108	0.22135	0.18378	0.059008	0.053903	0.32272	0.1378	0.047046	0.11407	0.30685	0.1749	0.28747	0.1854	0.25286	-4.4417	-3.9333	-5.0146	-4.5542	-4.1687	-4.9646	-4.3021	-4.5938	-4.85	-4.0771	-5.1292	-4.4729	-4.4104	-5.1979	-4.1083	-4.6312	100.967	89.786	74.824	279.997	190.636	92.579	261.586	267.189	22.264	12.488	216.722	279.400	262.982	218.411	-8.624	255.227	0.00026942	0.00054902	0.0001509	1525.4	4.6026e-06	3.6779e-06	1583.4	526.37	6.1033e-06	4.5585e-06	645.43	230.36	169.43	58.074	4.1075e-06	99.833	4.3531e-05	3.4736e-05	8.8864e-06	1277.8	3.7466e-07	3.6594e-07	1325.2	436.8	3.7517e-07	3.7311e-07	522.72	188.13	137.72	46.901	3.7901e-07	79.845	192.862	4.599	9.790	-25.887	61.445	57.155	-26.334	-22.168	107.115	66.635	-22.937	-18.834	-17.858	-13.575	47.822	-15.227	-8191	255	
44658.418	1	1	0	0	0.16889	0.13229	0.20778	0.24395	0.15804	0.21368	0.2409	0.21715	0.10206	0.1276	0.16388	0.22925	0.10061	0.058052	0.10959	0.51471	-4.5646	-4.1208	-4.7354	-4.7167	-3.9083	-5.0271	-4.3229	-4.4792	-4.8187	-3.9771	-5.0917	-4.6188	-4.0854	-5.0687	-4.4396	-4.4125	109.355	244.538	148.312	281.353	173.864	295.142	258.998	274.974	78.765	210.795	31.617	285.181	186.159	79.777	308.670	212.278	0.00023725	0.00065676	0.00021101	1542.6	3.5789e-06	4.8582e-06	1603.8	533.74	4.3765e-06	5.5957e-06	656.57	234.61	171.83	59.039	4.2877e-06	102.32	4.3947e-05	3.4307e-05	9.9797e-06	1288.9	3.8274e-07	3.7122e-07	1341.4	442.74	3.8327e-07	3.8466e-07	531.4	191.87	139.18	47.744	3.8801e-07	81.509	182.057	22.957	8.157	-26.021	98.528	95.953	-26.103	-21.797	122.732	61.442	-23.346	-18.662	-17.851	-13.653	77.195	-15.361	-8191	255	
44658.516	1	1	0	0	0.21651	0.19714	0.17853	0.23816	0.071682	0.22257	0.33109	0.27372	0.097036	0.22895	0.11775	0.063522	0.099796	0.11967	0.13682	0.13102	-4.5958	-4.0604	-4.6229	-4.9771	-4.0479	-4.7771	-4.5167	-4.4667	-4.9	-3.9542	-4.8521	-4.8146	-4.2229	-5.1188	-4.3208	-4.475	95.303	172.568	152.388	-19.954	13.579	317.192	238.216	239.063	139.667	152.712	-17.428	287.872	276.255	298.861	271.711	296.413	0.000281	0.00053234	0.00024456	1543.4	3.5359e-06	4.7308e-06	1629.1	538.22	3.66e-06	4.2629e-06	666.73	239.44	175.45	59.937	6.3905e-06	103.96	4.4731e-05	3.5989e-05	9.5411e-06	1300	4.0271e-07	3.7226e-07	1360.8	447.21	4.0157e-07	3.869e-07	538.94	195.16	141.41	48.452	4.1402e-07	82.973	203.918	24.885	-19.708	-25.444	71.501	100.365	-26.139	-21.875	133.083	66.020	-23.385	-18.703	-17.752	-13.517	75.964	-15.289	-8191	255	
44658.609	1	1	0	0	0.22187	0.14007	0.14207	0.35816	0.12341	0.063414	0.17907	0.17558	0.35341	0.16046	0.10512	0.22861	0.08234	0.11205	0.11196	0.0087035	-4.6562	-4.0833	-4.5938	-4.9958	-4.1271	-4.875	-4.6354	-4.2729	-5.1146	-4.1354	-4.6646	-4.8938	-4.1562	-4.9625	-4.4604	-4.1583	57.212	-9.942	251.093	305.082	31.529	305.233	257.941	261.862	195.053	-0.773	276.226	240.685	316.643	47.839	-14.213	102.401	0.00028405	0.00061808	0.00018801	1568.3	7.0456e-06	4.477e-06	1624.7	535.14	5.0634e-06	3.7092e-06	656.35	233.64	171.47	58.029	6.6345e-06	100.57	4.6453e-05	3.7863e-05	9.7316e-06	1310.8	4.3052e-07	3.6835e-07	1358.6	444.81	4.145e-07	4.0362e-07	530.09	191.32	138.39	47.243	4.072e-07	80.203	185.450	11.434	19.719	-25.584	84.239	50.506	-26.158	-21.998	84.762	82.077	-23.331	-18.756	-17.617	-13.541	71.329	-15.039	-8191	255	
44658.707	1	1	0	0	0.084665	0.10821	0.14704	0.1021	0.10446	0.070005	0.15779	0.17751	0.14477	0.156	0.041807	0.24831	0.20262	0.18816	0.029142	0.15486	-4.7354	-4.2333	-4.3896	-5.0437	-4.0146	-4.7958	-4.7333	-4.1958	-5.0687	-4.3167	-4.7021	-5.1125	-4.1438	-4.85	-4.75	-4.2458	116.549	295.734	-19.295	185.749	55.580	252.069	259.651	259.159	253.882	70.684	288.590	-31.295	-15.226	139.209	75.072	18.569	0.00025489	0.0004449	0.00020577	1530.4	5.8971e-06	3.3919e-06	1587	523.51	6.9294e-06	6.8822e-06	640.09	228.94	168.53	57.378	4.161e-06	99.276	4.552e-05	3.5813e-05	9.8005e-06	1277.1	4.1454e-07	3.6619e-07	1327.6	434.82	4.0395e-07	3.8411e-07	520.39	187.24	135.97	46.393	3.9711e-07	79.147	191.311	22.540	40.614	-25.830	95.291	104.211	-25.995	-22.042	146.168	89.305	-23.225	-19.111	-17.945	-13.593	78.123	-15.200	-8191	255	
44658.805	1	1	0	0	0.12911	0.043782	0.10851	0.15045	0.27551	0.26327	0.17369	0.43823	0.023985	0.10012	0.2803	0.04104	0.064624	0.20413	0.22736	0.22551	-4.7333	-4.4104	-4.3083	-5.2333	-4.0958	-4.5292	-4.8562	-4.1562	-4.9479	-4.6292	-4.3562	-5.1979	-4.2438	-4.6813	-4.5396	-4.1229	201.611	233.323	39.356	-34.088	120.555	281.470	281.003	278.351	124.526	77.325	248.858	63.355	306.829	267.327	-4.126	-26.116	0.00024017	0.00047679	0.00014607	1511.7	6.286e-06	4.7299e-06	1588.6	523.4	4.9615e-06	8.7832e-06	640.67	230.03	168.21	57.142	5.766e-06	99.313	4.5096e-05	3.3789e-05	9.7922e-06	1266.9	3.9824e-07	3.854e-07	1325	435.22	3.9099e-07	3.987e-07	520.36	187.65	135.99	46.352	3.9414e-07	79.046	210.544	18.281	35.138	-25.573	84.558	56.183	-26.134	-21.835	93.274	62.611	-23.057	-19.000	-17.716	-14.004	90.242	-15.360	-8191	255	
44658.898	1	1	0	0	0.1624	0.19141	0.21535	0.29508	0.09911	0.16468	0.086175	0.13977	0.078955	0.22674	0.013228	0.13131	0.13616	0.024542	0.10262	0.13862	-4.6146	-4.4104	-4.0771	-5.1625	-4.0375	-4.4646	-4.9917	-4.2917	-4.8625	-4.65	-4.2833	-5.0437	-4.3208	-4.5104	-4.9583	-4.0646	193.872	-8.451	72.542	-6.874	158.367	-0.820	292.135	306.264	20.380	73.632	177.039	279.116	163.289	45.568	91.207	278.159	0.00028118	0.0007818	0.0001854	1521.5	5.7186e-06	7.6573e-06	1590.1	523.43	6.0424e-06	5.8568e-06	646.99	229.41	168.42	57.303	4.2575e-06	99.469	4.5299e-05	3.583e-05	9.7797e-06	1272.4	4.103e-07	3.707e-07	1328.8	435.13	4.0277e-07	3.8687e-07	522.57	187.62	136.3	46.3	3.8595e-07	79.182	196.203	-4.479	33.444	-25.707	84.928	91.910	-26.013	-22.036	174.991	70.838	-23.067	-18.922	-18.033	-13.833	49.200	-15.120	-8191	255	
44658.992	1	1	0	0	0.1478	0.085065	0.077201	0.33554	0.062262	0.17758	0.12332	0.26691	0.092698	0.043687	0.15813	0.095573	0.091387	0.12147	0.029157	0.082253	-4.4333	-4.6708	-4.1479	-5.1188	-4.225	-4.3021	-5.0271	-4.1771	-4.6333	-4.8292	-4.1125	-5.0687	-4.4167	-4.2021	-5.0417	-4.2188	103.648	81.649	209.021	292.539	298.222	280.185	237.154	268.584	136.500	227.549	180.432	286.108	275.901	60.215	88.681	201.695	0.00020996	0.00065731	0.00015163	1533	5.6173e-06	5.7015e-06	1597.6	526.17	1.7807e-06	4.264e-06	647.43	230.78	169.47	57.75	4.3085e-06	99.317	4.4908e-05	3.6467e-05	9.695e-06	1280.5	4.0526e-07	3.9907e-07	1335.8	437.69	3.9901e-07	3.8853e-07	525.61	189.1	136.92	46.6	3.9573e-07	79.677	185.503	-3.970	-0.132	-25.771	73.699	120.657	-26.215	-22.131	74.117	66.298	-23.428	-18.470	-17.700	-13.650	113.391	-15.090	-8191	255	
44659.094	1	1	0	0	0.1305	0.15434	0.31932	0.15701	0.076266	0.16882	0.030685	0.22335	0.05826	0.11548	0.40598	0.18642	0.21787	0.24679	0.15081	0.25785	-4.2063	-4.7958	-4.0646	-5.1479	-4.4771	-4.2333	-5.2542	-4.1521	-4.625	-4.9396	-4.3146	-4.9771	-4.5417	-4.1875	-5.1	-4.3229	13.327	197.372	150.068	283.537	98.240	-5.088	191.187	236.332	155.551	267.113	197.010	32.015	286.896	293.064	183.307	254.917	0.00027446	0.00032612	0.00021746	1535.4	2.2294e-06	4.2092e-06	1591.1	523.28	4.631e-06	5.3184e-06	643.88	227.52	166.72	56.475	3.8215e-06	97.268	4.6109e-05	3.3965e-05	9.6999e-06	1282.2	4.001e-07	3.7094e-07	1332	435.23	3.97e-07	3.7408e-07	520.02	185.96	134.84	45.603	3.9631e-07	77.614	204.541	34.573	-28.429	-25.760	144.621	87.442	-25.965	-21.901	123.853	93.930	-22.937	-18.797	-17.901	-13.619	81.500	-14.642	-8191	255	
44659.211	1	1	0	0	0.083133	0.21848	0.16819	0.32958	0.21982	0.1978	0.14957	0.16016	0.024864	0.17851	0.10008	0.31408	0.21332	0.29766	0.14747	0.18077	-4.1937	-4.8438	-4.0083	-4.9875	-4.6312	-4.0729	-5.2021	-4.4479	-4.2542	-4.9187	-4.0833	-4.8271	-4.7292	-4.25	-4.9146	-4.425	-33.704	291.375	77.835	282.488	133.609	20.711	154.808	36.544	113.018	304.160	295.168	253.215	308.552	252.668	251.396	285.519	0.00023573	0.00045231	0.00024915	1499.4	2.1061e-06	6.7828e-06	1558	516.55	4.6553e-06	6.9265e-06	628.46	222.25	164.49	55.779	4.5057e-06	96.65	4.6206e-05	3.3582e-05	9.7413e-06	1256.1	3.9267e-07	3.6502e-07	1304.3	428.72	3.8979e-07	3.6191e-07	511.18	182.22	133.3	45.004	3.7923e-07	76.907	187.387	29.634	-4.612	-25.625	70.532	121.986	-26.352	-21.924	141.954	93.192	-23.132	-18.709	-17.830	-13.632	83.920	-15.108	-8191	255	
44659.309	1	1	0	0	0.071844	0.12757	0.089598	0.16609	0.099663	0.18678	0.17328	0.17125	0.15566	0.054186	0.16979	0.050418	0.27516	0.070534	0.051625	0.30506	-3.7896	-4.7417	-3.9771	-4.6375	-4.6917	-4.0042	-5.2688	-4.45	-4.0271	-4.9958	-4.1188	-4.6583	-5.075	-4.0833	-4.7458	-4.6771	52.842	177.768	245.704	-5.438	179.221	198.401	309.601	280.719	49.514	255.779	295.348	138.955	292.552	-37.655	62.776	292.246	0.0002529	0.00051053	0.00016838	1491.1	7.4143e-06	3.948e-06	1557	516.52	4.8264e-06	6.8764e-06	632.13	223.43	164.72	56.263	4.1065e-06	97.311	4.4576e-05	3.3187e-05	9.7037e-06	1252.6	4.0593e-07	3.6644e-07	1305.8	428.4	3.9667e-07	3.5463e-07	511.02	183.23	133.8	45.183	3.7051e-07	77.09	199.840	23.612	25.732	-26.138	105.424	43.775	-26.181	-21.943	156.161	44.463	-23.208	-18.717	-17.775	-14.067	104.351	-15.013	-8191	255	
44659.402	1	1	0	0	0.13213	0.19639	0.14561	0.14878	0.039112	0.062429	0.12235	0.17564	0.0544	0.10295	0.27807	0.13494	0.13567	0.062204	0.11326	0.20665	-3.8583	-4.9271	-4.2083	-4.675	-4.7312	-3.8708	-4.9625	-4.7604	-4.1229	-5.0312	-4.1333	-4.7063	-5.0771	-4.1521	-4.8375	-4.7979	286.574	84.503	26.384	-39.465	178.110	68.371	245.175	270.805	280.659	45.815	253.975	291.684	38.458	221.050	232.100	258.658	0.00029897	0.00036673	0.00013297	1499.5	3.477e-06	3.0134e-06	1574.6	517.54	4.2896e-06	6.2769e-06	632.72	223.12	166.02	56.318	4.8351e-06	97.475	4.4061e-05	3.2966e-05	9.5531e-06	1256.2	3.7616e-07	3.6061e-07	1309.8	429.75	3.7775e-07	3.5242e-07	514	183.55	134.02	45.397	3.94e-07	77.452	199.655	2.804	9.259	-26.216	139.891	76.111	-26.214	-21.875	136.313	67.465	-23.581	-18.772	-17.807	-13.796	94.658	-15.119	-8191	255	
44659.500	1	1	0	0	0.23081	0.16811	0.18013	0.17192	0.072627	0.20096	0.066229	0.25804	0.14953	0.12482	0.096771	0.37708	0.18687	0.23569	0.25818	0.21893	-3.8479	-5.1354	-4.2479	-4.5021	-4.8771	-4.0104	-5.0604	-4.8646	-4	-5.0458	-4.4812	-4.2896	-5.0021	-4.0958	-4.5	-5.0062	157.933	210.375	149.254	317.462	23.860	260.309	288.492	204.384	226.540	52.473	-14.579	255.333	268.422	-30.704	110.154	207.918	0.00029151	0.00034366	0.00020646	1500.8	8.127e-06	2.8231e-06	1570	521.6	4.9148e-06	5.7709e-06	643.83	227.33	167.8	56.861	2.7708e-06	98.838	4.469e-05	3.446e-05	9.5881e-06	1259.6	3.7753e-07	3.6429e-07	1314.3	432.37	4.0161e-07	3.5831e-07	518.67	186.15	135.45	46.018	3.769e-07	78.637	184.805	1.695	4.414	-25.950	60.075	105.901	-26.105	-21.813	146.380	49.235	-23.417	-18.803	-18.159	-13.789	93.654	-14.960	-8191	255	
44659.594	1	1	0	0	0.095605	0.11413	0.035548	0.28753	0.071402	0.099846	0.23961	0.21968	0.16828	0.029746	0.28752	0.24898	0.22335	0.1987	0.1256	0.13027	-3.6625	-5.0083	-4.3812	-4.3875	-4.8562	-4.1917	-4.7292	-4.9688	-4.0271	-4.9125	-4.7021	-4.425	-5.0875	-4.2354	-4.5021	-4.8625	236.116	123.956	-5.384	185.850	246.168	165.544	277.857	253.058	151.328	211.119	231.699	254.700	306.975	310.894	36.130	313.402	0.00019901	0.00034103	0.00013313	1512.8	5.7591e-06	6.1381e-06	1584.7	520.33	2.7164e-06	4.7845e-06	634.37	225.49	165.52	56.515	4.8629e-06	96.744	4.3951e-05	3.3973e-05	9.3679e-06	1267.8	3.7979e-07	3.6914e-07	1320.6	432.76	3.7945e-07	3.6567e-07	514.85	184.28	134.36	45.474	3.8012e-07	77.052	188.109	30.840	28.470	-25.998	71.135	103.192	-26.314	-21.784	128.763	91.282	-23.308	-18.876	-17.519	-13.976	35.200	-15.402	-8191	255	
44659.691	1	1	0	0	0.1382	0.044632	0.096132	0.22709	0.13971	0.048327	0.39678	0.19514	0.17587	0.093344	0.21612	0.077032	0.052519	0.087061	0.11928	0.02636	-3.5708	-4.7271	-4.4375	-4.1937	-5.2042	-4.3375	-4.6062	-5.1979	-3.9396	-4.8333	-4.7937	-4.3229	-5.1521	-4.2479	-4.2729	-5.0854	194.337	-26.585	175.270	317.009	-11.773	313.152	298.887	267.925	223.044	12.802	226.519	89.757	301.133	134.749	278.551	153.941	0.00027167	0.00047211	0.00022036	1489.7	1.9123e-06	1.656e-06	1551.6	516.2	3.6679e-06	2.6014e-06	626.67	222.45	163.82	55.538	4.5346e-06	96.043	4.3157e-05	3.3026e-05	9.0528e-06	1248.5	3.7273e-07	3.6459e-07	1297.8	426.91	3.7489e-07	3.5883e-07	507.95	181.71	132.58	44.943	3.6638e-07	76.225	183.045	61.747	45.795	-26.246	133.352	107.182	-26.039	-21.851	125.399	71.697	-23.331	-18.858	-17.777	-14.094	84.596	-15.195	-8191	255	
44659.812	1	1	0	0	0.03673	0.076078	0.13397	0.051793	0.38641	0.078066	0.26745	0.23059	0.073276	0.2685	0.28155	0.19028	0.24548	0.34286	0.24913	0.25191	-3.875	-4.6208	-4.75	-4.1854	-5.1062	-4.4479	-4.3438	-5.1813	-4.1687	-4.5813	-4.9104	-4.1958	-5.1542	-4.5	-4.175	-5.1375	242.262	64.580	138.218	187.859	100.186	101.947	243.961	259.509	64.298	162.586	-24.030	307.561	282.754	259.751	144.855	286.401	0.00020991	0.00038513	0.00021943	1487.2	3.1289e-06	4.3666e-06	1549.9	516.91	5.5673e-06	3.4273e-06	627.28	221.89	164.59	55.911	6.3922e-06	96.305	4.3567e-05	3.2987e-05	9.18e-06	1247.3	3.6708e-07	3.4678e-07	1297.3	428.04	3.7476e-07	3.4411e-07	508.78	182.04	133.1	45.252	3.7962e-07	76.684	187.107	4.513	-11.862	-25.839	118.221	74.277	-25.976	-22.173	111.217	94.646	-23.037	-18.976	-17.791	-13.828	64.955	-15.116	-8191	255	
44659.906	1	1	0	0	0.26192	0.16409	0.092943	0.1611	0.19933	0.22276	0.24797	0.14523	0.13625	0.14177	0.10128	0.1093	0.20953	0.25144	0.09423	0.25457	-3.7729	-4.5833	-4.8292	-4.2188	-4.6646	-4.4833	-4.3	-5.0813	-4.2708	-4.6646	-5.0729	-4.3417	-5.0375	-4.6625	-4.0917	-5.1771	12.674	10.349	38.366	221.606	12.177	26.177	263.302	264.990	296.644	281.496	245.097	292.652	301.638	-14.211	293.845	258.894	0.00024963	0.00041521	0.00023651	1486.6	3.4888e-06	6.6526e-06	1559.2	517.45	3.9729e-06	6.648e-06	629.72	223.5	164.21	56.326	3.6519e-06	97.454	4.3709e-05	3.1781e-05	9.1695e-06	1248.2	3.8544e-07	3.4763e-07	1301.2	428.68	3.8633e-07	3.6222e-07	511.9	183.1	133.9	45.406	3.9194e-07	77.4	186.409	-10.777	-2.826	-25.842	97.666	98.069	-26.410	-21.794	128.259	59.746	-23.276	-18.844	-17.771	-13.656	92.870	-15.267	-8191	255	
44660.004	1	1	0	0	0.12844	0.15464	0.047618	0.077437	0.13762	0.089486	0.23473	0.17033	0.23739	0.18104	0.26023	0.20328	0.34492	0.17422	0.079009	0.27677	-4.0167	-4.3938	-4.9271	-4.2521	-4.875	-4.5646	-4.2271	-5.1479	-4.2667	-4.4167	-5.1479	-4.2	-4.9187	-4.8562	-4.1667	-5.0188	304.919	12.358	320.044	318.916	296.354	290.189	299.636	-37.738	80.484	192.568	10.975	305.088	-22.027	302.988	-34.782	244.053	0.00022563	0.00065483	0.00021075	1498.9	3.4042e-06	3.6096e-06	1557.2	518.65	3.4634e-06	7.2357e-06	633.1	226.75	167.05	56.841	3.5429e-06	97.246	4.4836e-05	3.3286e-05	9.1427e-06	1254.3	3.7025e-07	3.6453e-07	1306.3	430.31	3.7526e-07	3.5446e-07	514.03	185.03	134.93	45.901	3.5308e-07	77.801	184.886	-23.279	-1.262	-25.665	138.774	92.240	-26.142	-21.932	150.995	74.994	-22.879	-19.144	-17.871	-13.771	55.107	-15.260	-8191	255	
44660.098	1	1	0	0	0.047902	0.14215	0.16658	0.16967	0.13709	0.074712	0.27353	0.18503	0.20975	0.20674	0.25312	0.41608	0.20941	0.13652	0.10758	0.035985	-4.2167	-4.2479	-4.9667	-4.3729	-4.6813	-4.8833	-4.2125	-5.1687	-4.3979	-4.1354	-5.2917	-4.2	-4.7312	-4.9167	-3.9229	-4.9021	311.796	218.674	246.811	282.782	248.879	210.399	303.852	259.200	173.999	-23.698	-24.935	310.989	278.362	54.227	-2.973	264.700	0.00026424	0.000375	0.00012622	1501.2	5.4744e-06	4.0286e-06	1565.5	523.21	3.2254e-06	8.5241e-06	634.47	223.39	166.52	56.637	3.5221e-06	95.977	4.2794e-05	3.3578e-05	8.7685e-06	1261.6	3.659e-07	3.4273e-07	1312.4	432.27	3.694e-07	3.4837e-07	512.7	183.42	134.51	45.666	3.6884e-07	76.777	195.478	26.242	32.100	-25.984	103.571	99.946	-25.901	-22.142	134.629	82.746	-23.003	-18.831	-18.323	-13.859	62.033	-15.149	-8191	255	
44660.195	1	1	0	0	0.10486	0.18505	0.15325	0.17655	0.19971	0.012088	0.37909	0.098612	0.10533	0.17755	0.2756	0.27232	0.17021	0.10747	0.092182	0.14828	-4.275	-4.1958	-5.0333	-4.45	-4.3625	-4.9083	-4.1292	-4.9542	-4.7667	-4.1687	-4.9729	-4.4437	-4.4729	-5.1521	-3.9021	-4.7625	-35.824	95.734	193.371	253.142	270.109	313.442	314.418	280.014	30.199	-39.621	264.129	283.396	296.206	261.419	254.957	193.714	0.00027914	0.00058904	8.4294e-05	1497.2	3.7016e-06	4.9433e-06	1547.4	512.71	2.4927e-06	4.4612e-06	626.49	222.82	163.12	55.298	4.31e-06	95.551	4.2468e-05	3.1678e-05	8.8845e-06	1251.7	3.68e-07	3.4095e-07	1293.2	426.24	3.7335e-07	3.5874e-07	506.51	181.61	132.72	44.898	3.7213e-07	76.169	193.927	22.032	32.640	-25.859	132.056	87.692	-26.430	-21.702	123.060	106.858	-23.209	-19.003	-17.701	-13.704	77.573	-15.033	-8191	255	
#DATA ENDS
